BOXY.EXE: ISS Imagent and Oximeter Data Acquisition Program Version 0.80
Ascii Record File

#ACQ INFORMATION
2  Detector Channels 
16  External MUX Channels 
1  Auxiliary Channels 
5000  Waveform (CCF) Frequency (Hz)
1  Waveforms Skipped 
30  Waveforms Averaged 
1  Cycles Averaged 
16  Acquisitions per Waveform 
10.0806  Updata Rate (Hz) 

#FILE INFORMATION
TRUE -- External MUX Channel results are PARSED.
FALSE -- AC DC and Phase are NOT grouped.
TRUE -- Companion Program Settings File CREATED.
FALSE -- AC data not excluded
FALSE -- DC data not excluded
FALSE -- Phase data not excluded
FALSE -- Auxillary Chn. data not excluded
Tab delimiters

#CALIBRATION STATE
TRUE -- Waveform Calibration Values APPLIED.


#AUX CALIBRATION VALUES
Val Type	aux-1	

Term	1.0000e+00	
Factor	0.0000e+00	


#WF CALIBRATION VALUES
A = Detector Channel
Val Type	A-AC1	A-AC2	A-AC3	A-AC4	A-AC5	A-AC6	A-AC7	A-AC8	A-AC9	A-AC10	A-AC11	A-AC12	A-AC13	A-AC14	A-AC15	A-AC16	A-DC1	A-DC2	A-DC3	A-DC4	A-DC5	A-DC6	A-DC7	A-DC8	A-DC9	A-DC10	A-DC11	A-DC12	A-DC13	A-DC14	A-DC15	A-DC16	A-Ph1	A-Ph2	A-Ph3	A-Ph4	A-Ph5	A-Ph6	A-Ph7	A-Ph8	A-Ph9	A-Ph10	A-Ph11	A-Ph12	A-Ph13	A-Ph14	A-Ph15	A-Ph16	

Term	0.00000e+00	0.00000e+00	0.00000e+00	0.00000e+00	0.00000e+00	0.00000e+00	0.00000e+00	0.00000e+00	0.00000e+00	0.00000e+00	0.00000e+00	0.00000e+00	0.00000e+00	0.00000e+00	0.00000e+00	0.00000e+00	0.00000e+00	0.00000e+00	0.00000e+00	0.00000e+00	0.00000e+00	0.00000e+00	0.00000e+00	0.00000e+00	0.00000e+00	0.00000e+00	0.00000e+00	0.00000e+00	0.00000e+00	0.00000e+00	0.00000e+00	0.00000e+00	0.00000e+00	0.00000e+00	0.00000e+00	0.00000e+00	0.00000e+00	0.00000e+00	0.00000e+00	0.00000e+00	0.00000e+00	0.00000e+00	0.00000e+00	0.00000e+00	0.00000e+00	0.00000e+00	0.00000e+00	0.00000e+00	
Factor	1.00000e+00	1.00000e+00	1.00000e+00	1.00000e+00	1.00000e+00	1.00000e+00	1.00000e+00	1.00000e+00	1.00000e+00	1.00000e+00	1.00000e+00	1.00000e+00	1.00000e+00	1.00000e+00	1.00000e+00	1.00000e+00	1.00000e+00	1.00000e+00	1.00000e+00	1.00000e+00	1.00000e+00	1.00000e+00	1.00000e+00	1.00000e+00	1.00000e+00	1.00000e+00	1.00000e+00	1.00000e+00	1.00000e+00	1.00000e+00	1.00000e+00	1.00000e+00	X	X	X	X	X	X	X	X	X	X	X	X	X	X	X	X	

B = Detector Channel
Val Type	B-AC1	B-AC2	B-AC3	B-AC4	B-AC5	B-AC6	B-AC7	B-AC8	B-AC9	B-AC10	B-AC11	B-AC12	B-AC13	B-AC14	B-AC15	B-AC16	B-DC1	B-DC2	B-DC3	B-DC4	B-DC5	B-DC6	B-DC7	B-DC8	B-DC9	B-DC10	B-DC11	B-DC12	B-DC13	B-DC14	B-DC15	B-DC16	B-Ph1	B-Ph2	B-Ph3	B-Ph4	B-Ph5	B-Ph6	B-Ph7	B-Ph8	B-Ph9	B-Ph10	B-Ph11	B-Ph12	B-Ph13	B-Ph14	B-Ph15	B-Ph16	

Term	0.00000e+00	0.00000e+00	0.00000e+00	0.00000e+00	0.00000e+00	0.00000e+00	0.00000e+00	0.00000e+00	0.00000e+00	0.00000e+00	0.00000e+00	0.00000e+00	0.00000e+00	0.00000e+00	0.00000e+00	0.00000e+00	0.00000e+00	0.00000e+00	0.00000e+00	0.00000e+00	0.00000e+00	0.00000e+00	0.00000e+00	0.00000e+00	0.00000e+00	0.00000e+00	0.00000e+00	0.00000e+00	0.00000e+00	0.00000e+00	0.00000e+00	0.00000e+00	-1.92451e+02	-1.27396e+02	-1.21933e+02	-1.81702e+02	-8.52248e+01	-7.17860e+01	-1.59827e+02	-1.62015e+02	-9.79175e+01	-6.25268e+01	-1.72064e+02	-1.71235e+02	-1.81225e+02	-1.77148e+02	-7.86684e+01	-1.49556e+02	
Factor	3.17922e-05	1.27293e-04	3.00469e-05	1.53336e-01	1.19824e-06	1.32970e-06	1.61206e-01	4.07326e-02	1.19885e-06	1.02860e-06	6.92827e-02	2.47474e-02	3.05553e-02	7.28990e-03	1.03716e-06	1.04097e-02	2.12434e-06	2.26520e-06	6.27488e-07	8.18888e-02	2.46237e-08	2.48108e-08	8.10272e-02	2.18854e-02	2.46444e-08	2.48727e-08	3.58425e-02	1.28119e-02	1.63559e-02	3.93248e-03	2.46604e-08	5.42419e-03	X	X	X	X	X	X	X	X	X	X	X	X	X	X	X	X	



#DISTANCE SETTINGS
A = Detector Channel
A-1	A-2	A-3	A-4	A-5	A-6	A-7	A-8	A-9	A-10	A-11	A-12	A-13	A-14	A-15	A-16	

2.5000e+00	3.0000e+00	2.5000e+00	3.0000e+00	2.0000e+00	3.0000e+00	1.5000e+00	3.0000e+00	3.0000e+00	3.0000e+00	3.0000e+00	3.0000e+00	3.0000e+00	3.0000e+00	1.5000e+00	3.0000e+00	

B = Detector Channel
B-1	B-2	B-3	B-4	B-5	B-6	B-7	B-8	B-9	B-10	B-11	B-12	B-13	B-14	B-15	B-16	

1.0000e+01	1.0000e+01	1.0000e+01	1.4400e+00	1.0000e+01	1.0000e+01	1.5100e+00	1.9400e+00	1.0000e+01	1.0000e+01	1.9900e+00	2.4900e+00	2.4100e+00	2.9000e+00	1.0000e+01	2.9800e+00	




#DATA BEGINS
time	group	step	mark	flag	A-AC1	A-AC2	A-AC3	A-AC4	A-AC5	A-AC6	A-AC7	A-AC8	A-AC9	A-AC10	A-AC11	A-AC12	A-AC13	A-AC14	A-AC15	A-AC16	A-DC1	A-DC2	A-DC3	A-DC4	A-DC5	A-DC6	A-DC7	A-DC8	A-DC9	A-DC10	A-DC11	A-DC12	A-DC13	A-DC14	A-DC15	A-DC16	A-Ph1	A-Ph2	A-Ph3	A-Ph4	A-Ph5	A-Ph6	A-Ph7	A-Ph8	A-Ph9	A-Ph10	A-Ph11	A-Ph12	A-Ph13	A-Ph14	A-Ph15	A-Ph16	B-AC1	B-AC2	B-AC3	B-AC4	B-AC5	B-AC6	B-AC7	B-AC8	B-AC9	B-AC10	B-AC11	B-AC12	B-AC13	B-AC14	B-AC15	B-AC16	B-DC1	B-DC2	B-DC3	B-DC4	B-DC5	B-DC6	B-DC7	B-DC8	B-DC9	B-DC10	B-DC11	B-DC12	B-DC13	B-DC14	B-DC15	B-DC16	B-Ph1	B-Ph2	B-Ph3	B-Ph4	B-Ph5	B-Ph6	B-Ph7	B-Ph8	B-Ph9	B-Ph10	B-Ph11	B-Ph12	B-Ph13	B-Ph14	B-Ph15	B-Ph16	aux-1	digaux	

7496.718	1	1	0	768	0.11383	0.25126	0.044032	0.26447	0.19926	0.31979	0.20106	0.45991	0.12454	0.061534	0.11888	0.061996	0.15832	0.24599	0.22048	0.21422	-0.42917	0.14167	-0.65625	-0.69583	0.09375	-0.76042	-0.51667	-0.225	-0.70833	0.089583	-0.53958	-0.66458	0.13333	-0.88542	-0.43542	-0.12083	213.685	7.725	-100.805	-94.409	32.629	-8.614	158.942	226.806	237.294	27.739	192.536	18.948	68.130	7.101	-43.959	-95.356	0.00042934	0.0004373	6.3772e-05	1261.3	6.0318e-06	4.3098e-06	1279.6	348.89	8.9283e-06	5.8089e-07	401.03	135.59	118.15	40.751	4.237e-06	50.576	0.00072253	0.00076859	0.00023351	1297.9	7.941e-06	8.643e-06	1311.8	357.25	8.0423e-06	8.8201e-06	412.2	140.82	121.96	42.264	9.1272e-06	52.547	137.039	-17.591	48.501	-92.756	28.399	102.920	-92.986	-87.971	-36.711	60.400	-88.846	-84.781	-84.462	-79.292	-14.103	-80.002	-8191	255	
7496.815	1	1	0	0	0.048537	0.24217	0.14832	0.052077	0.19364	0.3014	0.42462	0.095648	0.039247	0.19434	0.10427	0.21798	0.29063	0.22344	0.12044	0.1639	-0.37292	0.05625	-0.1125	-0.88125	0.18958	-0.69375	-0.61042	-0.15417	-0.72708	-0.11667	-0.54167	-0.89583	0.027083	-0.72917	-0.425	-0.28958	192.220	7.526	76.739	236.104	221.229	132.427	142.567	82.218	147.032	10.550	-50.371	203.210	188.952	241.778	-91.070	133.299	0.00037069	0.00048122	0.00023326	1273.5	4.0815e-06	8.5692e-06	1279.9	345.94	7.328e-07	1.0107e-06	401.18	135.82	117.42	40.923	6.7613e-06	50.607	0.0007232	0.00082731	0.00022858	1298.2	7.9303e-06	9.0802e-06	1311.9	355.8	8.1144e-06	9.2108e-06	411.06	140.25	121.66	42.353	8.8499e-06	52.362	146.437	-25.782	-36.396	-92.944	31.727	53.715	-93.002	-87.988	204.669	184.715	-88.365	-84.670	-84.239	-79.345	-15.187	-80.383	-8191	255	
7496.911	1	1	0	0	0.14329	0.19054	0.14909	0.14401	0.15127	0.071588	0.17051	0.26338	0.035801	0.29892	0.43344	0.099879	0.1782	0.44184	0.11128	0.15348	-0.69792	0.025	-0.21875	-1.2375	0.095833	-0.77292	-0.68958	0.0125	-0.66667	-0.41667	-0.27083	-0.96042	-0.066667	-0.54792	-0.57708	-0.125	7.616	-25.440	95.937	-86.175	-6.900	-10.293	210.026	227.635	-92.166	-54.502	215.132	235.512	-35.255	-11.915	206.182	138.527	0.00044363	0.00044559	1.5591e-05	1277.6	3.1332e-06	4.2969e-06	1280.4	349.08	1.7526e-06	6.2139e-06	398.96	135.63	116.47	40.525	5.4275e-06	50.249	0.00075381	0.00086973	0.00022388	1299.5	8.4005e-06	9.4683e-06	1308.6	355.87	8.7633e-06	9.5428e-06	410.05	140.22	121.58	42.173	8.8228e-06	52.124	151.512	-1.675	-12.997	-92.870	155.711	22.955	-93.179	-88.160	-79.408	23.146	-88.690	-84.794	-83.930	-79.255	85.887	-79.912	-8191	255	
7497.007	1	1	0	0	0.057499	0.10472	0.14033	0.24758	0.14489	0.18762	0.094229	0.32017	0.17852	0.017073	0.24992	0.23287	0.20878	0.13385	0.18559	0.11354	-0.33958	-0.30625	0.047917	-0.98958	-0.0041667	-0.5375	-0.97292	0.010417	-0.80417	-0.45417	-0.22083	-0.93958	-0.23125	-0.41667	-0.61042	-0.10208	-21.414	-42.746	182.876	196.952	145.895	247.368	142.832	171.581	-71.777	33.795	180.698	197.015	187.221	209.986	-4.613	3.100	0.00037735	0.0007936	0.0002119	1267.9	5.2042e-06	1.0669e-05	1275.3	347.07	8.329e-06	4.6636e-06	397	134.73	116.83	40.501	7.3643e-06	50.046	0.00080141	0.00086945	0.00021735	1297.3	9.1814e-06	9.3935e-06	1305.7	355.46	9.1878e-06	9.2337e-06	409.27	139.82	122.08	42.087	8.4361e-06	52.193	137.504	-13.852	23.388	-92.969	3.996	59.911	-92.755	-88.113	-80.325	64.935	-88.334	-84.364	-84.239	-79.237	49.446	-79.878	-8191	255	
7497.103	1	1	0	0	0.061949	0.10118	0.27396	0.25326	0.19724	0.13412	0.050098	0.28538	0.31343	0.18373	0.28147	0.23377	0.043857	0.41565	0.1056	0.28563	-0.35	-0.46458	0.014583	-0.97708	-0.12292	-0.29583	-1.0562	-0.19375	-0.85208	-0.30417	-0.13542	-0.91667	-0.13333	-0.33333	-0.8375	-0.13125	148.444	175.750	-14.415	230.325	187.224	21.130	47.494	150.386	129.223	221.749	212.526	176.519	204.616	211.820	-77.495	-92.163	0.00055003	0.00036647	0.00015688	1269.3	2.0158e-06	6.5073e-06	1271.2	345.42	2.6759e-06	4.4043e-06	396.32	134.32	116.53	40.197	6.5284e-06	50.111	0.00082111	0.00080841	0.0002086	1297.7	9.24e-06	8.7977e-06	1304.6	354.6	9.4046e-06	8.7754e-06	408.97	139.44	121.93	41.822	8.2605e-06	52.006	122.399	12.853	19.374	-92.862	-84.655	54.013	-92.947	-88.197	-72.286	14.664	-88.644	-84.700	-84.147	-79.246	-3.824	-80.079	-8191	255	
7497.199	1	1	0	0	0.13429	0.2019	0.06673	0.091074	0.19132	0.16068	0.2434	0.29746	0.43276	0.13755	0.27133	0.1895	0.40471	0.24481	0.28285	0.059919	-0.060417	-0.52083	0.17292	-0.78333	-0.25208	-0.32708	-1.1187	0.0083333	-0.56458	-0.62083	0.058333	-1	-0.26042	-0.23958	-0.71667	-0.070833	227.660	175.992	75.788	117.301	199.723	235.991	159.024	206.744	34.380	132.711	145.724	-105.863	-85.613	-103.557	-6.612	122.249	0.00045046	0.00040654	0.00011331	1268.5	6.8273e-06	4.7558e-06	1277.3	346.25	7.1181e-06	3.689e-06	398.46	134.7	116.16	40.367	3.989e-06	50.189	0.00084706	0.00080631	0.00020852	1294.2	9.663e-06	8.6109e-06	1300.3	354.9	9.4897e-06	8.6743e-06	407.16	139.78	121.24	41.773	8.1634e-06	52.221	152.311	-59.995	-42.014	-92.915	16.447	62.219	-93.043	-88.299	-25.820	64.674	-88.654	-84.796	-84.512	-79.417	23.073	-80.114	-8191	255	
7497.320	1	1	0	0	0.13865	0.035626	0.093015	0.36269	0.18154	0.03967	0.34271	0.095202	0.29894	0.31627	0.13354	0.17342	0.20769	0.19708	0.15148	0.13271	-0.041667	-0.79792	0.083333	-0.9875	-0.44583	0.21667	-1.1167	-0.29167	-0.32917	-0.91875	-0.20208	-0.92917	-0.57708	-0.033333	-0.88542	-0.39375	68.714	177.737	110.149	203.376	222.151	-30.433	218.968	139.271	139.662	111.189	170.963	-35.269	-103.730	236.391	148.966	111.670	0.00044402	0.00050549	8.1041e-05	1272	5.4232e-06	3.8322e-06	1275	347.32	2.8014e-06	5.5965e-06	397.64	134.24	116.34	40.264	4.1506e-06	49.931	0.00082139	0.00078342	0.00020378	1297.3	9.1725e-06	8.3635e-06	1302.1	355.41	9.0064e-06	8.37e-06	407.6	139.95	121.31	41.751	8.1302e-06	52.27	137.656	-3.406	-102.196	-92.919	1.838	-27.997	-93.078	-88.351	41.115	75.626	-88.766	-84.552	-84.280	-79.174	10.629	-79.852	-8191	255	
7497.416	1	1	0	0	0.1109	0.083243	0.11865	0.16433	0.14826	0.20285	0.11611	0.12191	0.31306	0.20125	0.33535	0.17859	0.18378	0.21667	0.12384	0.053518	0.054167	-0.88542	0.085417	-0.81458	-0.41875	-0.016667	-1.0208	-0.225	-0.14583	-0.78958	-0.10833	-0.96042	-0.71042	0.20417	-1.0146	-0.46042	31.675	170.626	164.357	167.688	244.465	-33.020	234.918	188.666	-43.572	199.124	247.109	239.293	223.713	185.517	-93.679	217.482	0.00043257	0.00059353	9.5087e-05	1265.1	8.9097e-06	3.2772e-06	1272.4	346.82	6.8988e-06	3.2727e-06	395.58	134.6	116.65	40.298	4.2982e-06	50.234	0.00077515	0.00074567	0.00020774	1296.3	8.6299e-06	7.9934e-06	1302.8	356.03	8.57e-06	8.1078e-06	408.05	140.18	121.39	41.833	8.5354e-06	52.332	132.987	-61.198	3.653	-92.617	30.282	24.929	-92.908	-88.197	-41.970	16.195	-88.673	-84.583	-84.173	-79.026	4.984	-80.319	-8191	255	
7497.512	1	1	0	0	0.21216	0.33023	0.14251	0.16033	0.11007	0.27448	0.067225	0.22539	0.20317	0.37211	0.22481	0.072448	0.21127	0.10583	0.077463	0.094132	0.2125	-0.82917	0.18125	-0.7375	-0.60208	0.097917	-0.975	-0.53542	-0.15	-0.79375	-0.11042	-0.4	-0.70208	0.10833	-0.85625	-0.55625	-35.319	87.394	118.175	-17.897	71.972	250.559	232.908	220.418	239.780	68.781	-72.165	212.550	222.710	120.864	143.288	243.821	0.00028051	0.00067352	2.0043e-05	1269.1	1.909e-06	2.0445e-06	1271.6	345.13	6.0765e-06	6.5373e-06	398.27	135.25	117.03	40.395	1.9162e-06	49.965	0.00074951	0.00072691	0.00021916	1294.9	8.33e-06	7.8302e-06	1302.8	354.96	8.3413e-06	7.973e-06	409.11	140.06	121.32	41.76	9.1801e-06	52.123	149.033	-47.979	194.023	-92.689	-83.307	-3.482	-92.965	-88.176	-36.127	34.080	-88.686	-84.667	-84.452	-79.334	-50.447	-79.839	-8191	255	
7497.608	1	1	0	0	0.2055	0.079604	0.10798	0.08433	0.44633	0.29657	0.27061	0.22647	0.1224	0.12346	0.38313	0.32194	0.060525	0.216	0.32417	0.22481	0.46667	-0.81875	-0.19167	-0.41875	-0.95833	0.1625	-0.90625	-0.68958	0.060417	-0.98542	-0.15208	-0.3625	-0.83125	-0.13333	-0.91042	-0.61042	-27.372	174.390	178.169	121.473	229.177	219.790	198.870	-101.083	88.636	204.388	154.663	-63.669	245.903	227.686	117.506	232.918	0.00035074	0.00022239	7.4917e-05	1262.8	8.6239e-06	8.9809e-07	1269.5	345.78	7.3224e-06	2.8593e-06	397.68	134.69	116.73	40.298	4.2357e-06	50.375	0.0007292	0.00073727	0.00023339	1293.7	8.276e-06	7.9825e-06	1303.5	355.01	8.1604e-06	8.1761e-06	409.78	139.69	120.96	41.764	9.3138e-06	52.221	135.656	-88.178	83.712	-92.770	49.669	-9.857	-92.687	-88.204	50.298	83.540	-88.759	-84.571	-84.124	-79.431	30.963	-80.157	-8191	255	
7497.703	1	1	0	0	0.11105	0.12893	0.052086	0.50083	0.023462	0.11671	0.067014	0.24526	0.24218	0.31739	0.064997	0.28254	0.12258	0.20449	0.16668	0.16083	0.50208	-0.7875	-0.35833	-0.25	-0.91875	0.029167	-0.9125	-0.7375	0.066667	-0.89375	-0.63125	-0.16042	-1.1625	-0.033333	-0.51458	-0.7375	209.114	-12.738	174.565	227.424	-73.043	248.100	193.592	200.868	-91.865	-48.653	195.773	201.074	228.922	212.672	147.181	180.982	0.00040953	0.00048802	0.00012519	1271.9	7.4451e-06	1.6793e-06	1277.4	348.44	4.8647e-06	1.3785e-06	401.22	134.58	116.35	40.356	3.4686e-06	50.052	0.00071586	0.00076766	0.0002361	1294.1	8.0862e-06	8.4913e-06	1304.7	355.1	7.9846e-06	8.6929e-06	410.07	139.32	120.66	41.741	9.1382e-06	52.023	141.828	40.015	-28.244	-92.795	-5.498	94.601	-93.102	-88.343	-80.987	76.729	-88.825	-84.509	-84.313	-79.550	39.048	-80.249	-8191	255	
7497.799	1	1	0	0	0.032762	0.10081	0.09607	0.49574	0.14161	0.1841	0.22201	0.075954	0.14791	0.34916	0.11018	0.40029	0.18537	0.13278	0.20924	0.12124	0.59375	-0.5	-0.41458	-0.12083	-0.84375	0.066667	-0.54792	-1.0375	0.01875	-0.725	-0.47708	-0.077083	-0.8125	-0.21667	-0.37708	-0.95833	159.049	-86.508	125.132	219.183	-47.513	185.572	162.575	-66.661	80.965	149.267	204.684	-105.452	34.459	-75.448	7.740	92.841	0.0005645	0.00015019	0.00020365	1265.9	4.2106e-06	6.7521e-06	1266.9	345.83	6.2641e-06	2.6363e-06	396.32	134.83	115.93	40.15	4.5913e-06	49.827	0.00071023	0.0008145	0.00023327	1291.3	8.053e-06	9.0976e-06	1300.6	353.92	8.0149e-06	9.1913e-06	408.21	139.1	120.59	41.783	8.8151e-06	51.853	119.936	1.510	8.753	-92.961	-68.413	145.407	-92.812	-88.248	-18.512	88.335	-88.627	-84.729	-84.215	-79.161	4.835	-79.847	-8191	255	
7497.895	1	1	0	0	0.060171	0.1299	0.16712	0.25224	0.086304	0.05591	0.24905	0.45035	0.13858	0.29572	0.12019	0.34378	0.12514	0.25164	0.17408	0.5111	0.47083	-0.6375	-0.50417	-0.039583	-0.89792	-0.16667	-0.53542	-1.0042	0.083333	-0.59375	-0.64167	-0.054167	-1.0042	-0.33542	-0.18125	-1.1208	87.434	206.090	1.843	222.968	-57.117	71.791	219.164	222.989	129.508	29.464	236.930	177.441	179.062	-66.632	104.196	223.899	0.00045835	0.00016959	0.00015115	1256.9	3.6365e-06	3.9791e-06	1262.5	345	6.5465e-06	4.5633e-06	397.01	135.15	116.05	40.105	4.5873e-06	49.962	0.00072707	0.00085377	0.00022348	1287.1	8.2444e-06	9.2847e-06	1297.5	353.22	8.2222e-06	9.3095e-06	407.52	139.02	120.95	41.84	8.509e-06	51.836	127.442	59.870	12.376	-92.736	28.445	14.037	-92.877	-88.164	-43.201	67.649	-88.893	-84.726	-84.435	-79.275	4.466	-79.937	-8191	255	
7498.016	1	1	0	0	0.18144	0.036009	0.12729	0.085	0.18295	0.03055	0.31816	0.22013	0.23202	0.26246	0.20538	0.21065	0.30916	0.21959	0.21628	0.10079	0.50208	-0.325	-0.68333	0.0020833	-0.66875	-0.26458	-0.44792	-0.93542	0.21875	-0.52292	-0.6625	-0.0625	-0.7375	-0.52917	0.12708	-0.80625	66.015	-34.630	121.007	123.005	248.958	-19.715	222.392	245.203	-74.127	252.158	151.094	-98.508	245.140	-49.702	213.230	-5.904	0.00050051	0.00028068	5.3035e-05	1269	4.3101e-06	1.7212e-05	1272.2	346.07	3.3201e-06	3.9863e-06	400.17	135.03	117.32	40.335	4.734e-06	50.214	0.00076913	0.00084284	0.00021586	1288.4	8.6919e-06	9.3232e-06	1297.9	354.09	8.8354e-06	9.1885e-06	408.61	139.09	121.69	41.887	8.2775e-06	51.99	125.618	20.995	-15.233	-92.855	62.190	51.446	-92.763	-88.269	175.911	52.156	-88.970	-84.807	-84.490	-79.448	8.794	-80.469	-8191	255	
7498.112	1	1	0	0	0.10038	0.33672	0.20652	0.27281	0.091438	0.20317	0.076802	0.29823	0.076737	0.44493	0.43079	0.18879	0.05382	0.081984	0.21135	0.10476	0.35208	-0.42708	-0.75	-0.091667	-0.89167	-0.34375	-0.15	-1.075	-0.066667	-0.3625	-0.92292	-0.041667	-0.87708	-0.56875	0.045833	-1.1375	-100.804	-43.445	150.596	196.594	-34.935	93.889	-59.019	190.426	155.240	137.917	220.953	-95.646	-100.106	126.459	-100.746	75.847	0.0003865	0.001171	0.0002159	1262.4	7.0679e-06	1.2331e-05	1273.8	344.35	3.3269e-06	4.6217e-06	395.6	134.15	116.63	40.301	6.5142e-06	49.987	0.00080185	0.00081273	0.00021164	1288	9.1677e-06	8.9314e-06	1300.2	353.54	9.1729e-06	8.7736e-06	407.13	138.85	121.71	41.795	8.0353e-06	51.948	125.696	-33.101	-18.399	-92.750	-16.014	53.250	-92.832	-88.050	249.515	38.608	-88.562	-84.472	-83.954	-79.343	-4.153	-79.887	-8191	255	
7498.208	1	1	0	0	0.11046	0.24968	0.20359	0.29676	0.25125	0.025401	0.273	0.17526	0.23318	0.14545	0.11112	0.12336	0.13329	0.25881	0.1534	0.33729	0.33958	-0.11667	-1.0458	-0.2125	-0.62292	-0.63333	-0.29583	-1.0042	-0.38333	-0.33542	-1.0979	-0.2125	-0.67917	-0.78958	0.0125	-0.89583	-26.200	229.134	162.919	-79.759	96.125	125.218	224.962	-9.885	156.488	137.328	214.220	-67.415	130.342	-83.090	233.087	167.102	0.00045808	0.00066026	0.00018123	1263.5	8.446e-06	7.331e-06	1268.1	344.24	3.5596e-06	2.6662e-06	395.82	134.01	115.34	40.002	1.968e-06	49.965	0.00082845	0.00078705	0.00020685	1288.7	9.2754e-06	8.5349e-06	1297	354.2	9.2608e-06	8.5202e-06	406.55	139.18	121.1	41.625	7.8812e-06	52.034	148.033	-21.728	-40.907	-92.640	-53.915	48.272	-92.914	-88.226	-62.995	30.700	-88.614	-84.762	-84.354	-79.566	-49.717	-80.161	-8191	255	
7498.280	1	1	0	0	0.19113	0.39594	0.14617	0.18935	0.018925	0.15996	0.4027	0.3876	0.29378	0.20666	0.42894	0.40037	0.18247	0.19252	0.37996	0.071937	-0.05	-0.085417	-0.95833	-0.18542	-0.53958	-0.80625	-0.19583	-0.98542	-0.425	0.027083	-1.1896	-0.11667	-0.27708	-0.95417	0.047917	-0.8625	-56.494	63.306	222.317	244.379	83.781	100.495	202.313	193.538	150.461	-65.228	-81.041	-73.345	248.934	46.170	129.121	225.855	0.00041223	0.00028606	0.0001388	1262.2	5.3382e-06	6.1597e-06	1270.7	346.71	5.7368e-06	2.9112e-06	397.56	134.61	116.32	40.135	3.7131e-06	50.342	0.00082811	0.00076018	0.00020282	1291	9.0919e-06	8.4031e-06	1298.8	354.63	8.9337e-06	8.2571e-06	407.46	139.61	121.44	41.725	7.8694e-06	52.338	139.804	13.430	-23.225	-92.953	25.953	104.781	-93.066	-88.185	-39.939	99.098	-88.607	-84.780	-84.311	-79.283	71.901	-80.105	-8191	255	
7498.400	1	1	0	0	0.15003	0.077114	0.1548	0.11281	0.13635	0.13799	0.090313	0.21624	0.028165	0.027372	0.19309	0.086813	0.17427	0.31691	0.05763	0.072577	-0.14167	0.10208	-0.79583	-0.42917	-0.1875	-0.82917	-0.11667	-0.68125	-0.425	0.26875	-0.95	-0.22917	-0.25208	-0.85208	-0.05	-0.61458	29.292	54.192	-82.849	229.160	164.094	97.264	-71.840	-96.022	-95.541	-37.753	219.229	-26.164	-104.723	-80.359	184.774	25.737	0.00033373	0.00040611	0.00016194	1270.3	1.0581e-05	3.5411e-06	1269.3	347.71	1.6537e-06	4.2061e-06	397.63	134.8	117.05	40.54	2.8219e-06	50.235	0.00078081	0.00073688	0.00020377	1295.1	8.6609e-06	8.1283e-06	1297.5	355.59	8.5929e-06	8.0475e-06	408.16	140.06	121.25	41.834	8.2517e-06	52.321	139.053	-48.834	20.500	-92.739	62.860	17.200	-93.067	-88.346	-15.623	25.451	-88.809	-84.862	-84.218	-79.434	77.271	-80.044	-8191	255	
7498.496	1	1	0	0	0.015967	0.1032	0.1223	0.25129	0.10181	0.18954	0.043059	0.21617	0.14657	0.27998	0.2153	0.05405	0.18765	0.13337	0.17312	0.091363	-0.18958	0.13125	-1.0833	-0.45625	-0.36667	-0.80833	-0.28125	-0.57083	-0.69375	0.0125	-0.99583	-0.44792	-0.11458	-0.77083	0.039583	-0.49583	-17.389	99.679	27.321	251.890	109.018	166.219	7.769	188.473	-82.573	243.064	252.636	102.615	-45.630	117.704	158.838	-65.868	0.00045349	0.00065499	9.6854e-05	1262.4	3.6301e-06	5.3305e-06	1280.9	347.06	2.3642e-06	3.2449e-06	398.6	134.25	116.22	40.654	1.1424e-06	50.408	0.00075619	0.00072049	0.00021238	1291.7	8.2222e-06	7.8601e-06	1304.5	355.65	8.3564e-06	7.8135e-06	408.94	139.51	120.87	41.881	8.7851e-06	52.338	144.625	-5.496	42.665	-92.876	-15.498	55.806	-93.013	-88.237	-97.657	49.922	-88.577	-84.546	-84.067	-79.148	184.794	-80.070	-8191	255	
7498.592	1	1	0	0	0.13964	0.16218	0.037601	0.225	0.10689	0.08119	0.17062	0.1373	0.15303	0.21209	0.22165	0.23357	0.043323	0.062045	0.22389	0.10762	-0.43333	0.05625	-0.77083	-0.59375	0.00625	-0.84792	-0.24792	-0.76042	-0.77708	-0.058333	-0.74583	-0.36875	-0.13958	-1.05	-0.045833	-0.4	199.274	226.106	162.142	229.216	15.755	4.323	-92.713	177.912	-53.098	202.610	-75.083	212.481	74.687	3.687	-12.396	16.696	0.00044798	0.00030013	6.789e-05	1268.7	9.0517e-06	4.4818e-06	1279.1	348.49	6.0419e-06	5.4032e-06	398.91	135.33	117.38	40.564	4.3284e-06	50.429	0.0007326	0.00071165	0.00022727	1290.9	8.0461e-06	7.8571e-06	1305.2	355.7	8.0373e-06	7.734e-06	410.03	139.98	121.15	41.89	9.0611e-06	52.219	142.526	-47.706	88.405	-92.985	31.002	0.084	-93.168	-88.221	-8.847	115.227	-88.657	-84.798	-84.103	-79.596	12.448	-80.230	-8191	255	
7498.711	1	1	0	0	0.24106	0.41147	0.23926	0.32333	0.21711	0.1586	0.25546	0.26433	0.0085381	0.21412	0.32341	0.39083	0.039428	0.14238	0.26341	0.17673	-0.2625	0.15417	-0.6	-0.58333	0.085417	-0.72083	-0.21875	-0.29583	-0.75417	0.18958	-0.41458	-0.67292	0.33958	-0.84792	-0.17083	-0.37292	71.026	27.737	15.202	194.411	120.029	6.981	198.764	227.025	180.734	-65.933	178.782	214.108	194.237	-98.071	92.791	-95.559	0.00054946	0.0010285	9.9614e-05	1270.6	4.4951e-06	4.2323e-06	1274.5	347.66	8.7381e-06	3.8392e-06	399.13	134.85	117.28	40.557	3.473e-06	50.506	0.00071638	0.00073507	0.00023104	1293.3	7.9276e-06	8.1971e-06	1303.8	354.63	7.8925e-06	8.2576e-06	409.87	139.79	120.98	41.979	8.9758e-06	52.297	129.398	42.696	-66.689	-92.964	78.130	52.292	-93.235	-88.228	4.192	8.698	-88.878	-84.828	-84.458	-79.502	168.856	-80.382	-8191	255	
7498.808	1	1	0	0	0.18763	0.10108	0.31547	0.043523	0.14082	0.15734	0.24331	0.25506	0.23909	0.091145	0.36775	0.099062	0.2051	0.10851	0.029902	0.23049	-0.57292	0.16667	-0.44583	-0.8375	-0.0083333	-0.78542	-0.69583	-0.21875	-0.85833	0.089583	-0.56667	-0.77083	0.1375	-1.0312	-0.23542	-0.15	-30.538	-23.258	108.506	6.490	186.586	-21.177	234.317	7.117	60.479	-5.769	-89.813	-37.053	90.420	245.097	204.726	153.605	0.00034346	0.0005024	0.00012596	1276.8	3.3281e-06	9.6073e-07	1278.4	347.57	4.2646e-06	5.0397e-06	399.31	135.62	117.1	40.746	7.4721e-06	50.31	0.00070067	0.00077721	0.00022466	1295	7.6942e-06	8.6485e-06	1304.6	354.71	7.7842e-06	8.7271e-06	409.43	139.88	120.9	42.169	8.6698e-06	52.121	131.166	-9.928	29.803	-93.222	15.021	102.257	-93.058	-88.212	-90.095	-2.948	-88.757	-85.248	-84.853	-79.638	13.774	-80.490	-8191	255	
7498.881	1	1	0	0	0.28287	0.053529	0.18993	0.14924	0.071741	0.083252	0.21833	0.34192	0.051165	0.39105	0.22327	0.2335	0.04308	0.1046	0.1334	0.14182	-0.59167	-0.14583	-0.26458	-0.91875	-0.022917	-0.69375	-0.58125	-0.19583	-0.85	-0.033333	-0.45625	-1.0458	-0.13958	-0.625	-0.52292	0.01875	121.958	-51.968	137.049	-53.972	199.660	158.131	156.575	233.079	-59.277	234.894	185.645	212.035	29.870	-30.783	46.457	169.110	0.0005414	0.00031936	0.00011728	1272.6	5.5991e-06	7.9511e-06	1276.7	347.42	2.7633e-06	3.4698e-06	401.38	135.58	116.89	40.426	6.0221e-06	50.286	0.00070569	0.00080729	0.00021737	1292.4	7.8384e-06	9.0494e-06	1302	354.47	8.0322e-06	9.0225e-06	409.55	139.66	121.07	42.026	8.3932e-06	52.056	134.801	-79.062	0.349	-93.286	-47.737	72.532	-93.501	-88.509	-35.037	150.207	-89.173	-85.171	-84.981	-79.792	57.620	-80.459	-8191	255	
7499.000	1	1	0	0	0.22657	0.15843	0.061311	0.21747	0.16224	0.29367	0.081888	0.29838	0.21795	0.29213	0.10594	0.064436	0.20994	0.16873	0.12817	0.13224	-0.57083	-0.20417	-0.19375	-1.1	-0.17083	-0.51875	-0.72708	-0.04375	-0.67083	-0.26458	-0.22708	-1.0229	-0.075	-0.6625	-0.6125	-0.09375	-32.854	121.329	143.149	215.748	190.419	21.287	122.636	210.781	95.038	137.588	222.257	149.344	-98.256	150.757	50.968	13.576	0.00045272	0.00093857	0.00014099	1267.6	2.5689e-06	4.4133e-06	1274.2	347.97	4.004e-06	3.6481e-06	399.16	135.68	116.4	40.733	5.5154e-06	50.314	0.00073288	0.0008242	0.00020829	1290.1	8.2307e-06	8.9897e-06	1301.4	354.32	8.4179e-06	8.9755e-06	408.43	139.59	121.27	42.091	8.188e-06	52.124	125.561	-24.726	-57.502	-93.328	139.107	29.900	-93.582	-88.307	-55.441	14.215	-88.723	-84.970	-84.326	-79.301	47.124	-80.351	-8191	255	
7499.096	1	1	0	0	0.097307	0.30875	0.17916	0.27916	0.28197	0.10428	0.21563	0.35531	0.24359	0.21878	0.069814	0.13586	0.25046	0.14103	0.37099	0.29735	-0.55208	-0.38125	-0.035417	-1.0187	0.0083333	-0.34792	-0.83542	-0.13125	-0.8125	-0.53958	-0.27292	-1.025	-0.28125	-0.45417	-0.61458	-0.15417	6.814	246.747	217.222	214.879	86.767	-87.778	178.770	194.833	4.076	210.665	226.429	-14.720	210.707	220.834	-23.944	172.834	0.00049245	0.0010777	0.00021026	1273.1	4.7791e-06	3.1114e-06	1270.6	347.31	1.3955e-06	4.9653e-06	398.17	135.47	116.99	40.493	7.3292e-06	50.225	0.00077651	0.00081241	0.00020383	1290.6	8.753e-06	8.7335e-06	1300.8	353.97	8.9358e-06	8.7671e-06	407.83	139.74	121.81	42.004	8.0498e-06	52.129	130.583	-11.661	-34.648	-93.019	204.458	51.334	-92.916	-88.111	157.490	14.588	-88.522	-84.732	-84.240	-79.184	35.413	-80.188	-8191	255	
7499.192	1	1	0	0	0.32478	0.13129	0.13509	0.14708	0.14354	0.25743	0.18583	0.26978	0.18711	0.21657	0.023873	0.25493	0.091731	0.039623	0.21196	0.2227	-0.37083	-0.4875	0.075	-0.99167	-0.37708	-0.035417	-1.0312	-0.077083	-0.49375	-0.53542	-0.070833	-1.0396	-0.37917	-0.4	-0.77292	-0.21875	102.304	6.202	90.525	-49.092	216.331	41.841	225.738	170.603	109.642	129.862	243.590	142.349	-75.341	-43.882	183.000	192.605	0.00038964	0.00089708	0.00015978	1262.9	9.8656e-06	6.805e-06	1266.1	344.4	4.4246e-06	6.2813e-06	396.61	135.26	116.63	40.244	8.9724e-06	50.186	0.0008103	0.00078006	0.00019921	1289	9.0006e-06	8.3979e-06	1296.9	353.46	8.9967e-06	8.4013e-06	406.69	139.91	121.89	41.892	7.777e-06	52.276	154.790	-37.207	41.232	-92.902	53.180	48.197	-92.818	-88.166	-67.436	50.091	-88.398	-84.770	-84.083	-79.027	7.707	-79.705	-8191	255	
7499.313	1	1	0	0	0.078331	0.13978	0.20029	0.3457	0.19271	0.21526	0.2665	0.14882	0.082444	0.10684	0.40375	0.050459	0.17418	0.33527	0.32871	0.11238	-0.077083	-0.46875	0.20417	-0.98958	-0.24167	-0.079167	-0.9125	-0.064583	-0.375	-0.79167	0.05	-0.97708	-0.59375	-0.10208	-0.88125	-0.28542	206.346	186.505	-37.457	-82.710	84.935	-30.324	206.610	212.969	-2.343	240.910	246.117	37.532	39.247	-103.819	24.070	-57.963	0.00030567	0.00093459	0.00017913	1256.9	6.1185e-06	3.2536e-06	1271.6	345.11	6.8413e-06	4.2066e-06	396.84	134.34	116.52	40.365	3.6009e-06	49.968	0.00079414	0.00075389	0.00019195	1288.9	8.8002e-06	8.08e-06	1300	354.26	8.7165e-06	8.191e-06	406.99	139.99	121.46	41.906	7.6818e-06	52.273	143.087	-3.988	-46.044	-92.686	30.756	-95.639	-92.894	-88.058	-33.565	40.045	-88.582	-84.552	-84.417	-78.973	-46.206	-80.128	-8191	255	
7499.409	1	1	0	0	0.093456	0.33709	0.3928	0.19694	0.19141	0.23585	0.23931	0.32052	0.089185	0.18145	0.047305	0.21596	0.28359	0.08136	0.28805	0.24285	0.054167	-0.63125	0.40833	-0.89792	-0.44375	0.025	-0.87708	-0.13333	-0.40833	-0.99583	-0.13958	-0.85625	-0.41458	-0.054167	-0.94792	-0.30833	-97.463	242.218	41.310	-8.176	238.788	-75.266	202.238	183.707	105.753	165.780	237.931	25.017	232.478	191.773	162.601	204.811	0.00051305	0.0010962	0.00010058	1267.7	7.6181e-06	4.1329e-06	1275.6	346.38	6.2697e-06	6.4747e-06	397.91	135.84	116.82	40.44	8.0638e-07	50.638	0.00077061	0.00073701	0.00019374	1292.8	8.6395e-06	7.8923e-06	1299.3	354.69	8.4079e-06	7.9527e-06	407.32	140.39	121.33	41.902	7.9561e-06	52.541	146.145	-26.932	-16.396	-92.779	12.375	133.866	-93.041	-88.228	5.188	31.742	-88.597	-84.705	-84.095	-79.096	-17.271	-80.094	-8191	255	
7499.503	1	1	0	0	0.28228	0.26523	0.19659	0.32188	0.23963	0.1826	0.060176	0.16669	0.15698	0.21686	0.25634	0.085554	0.098742	0.25206	0.32716	0.159	0.20208	-0.80208	0.060417	-0.73958	-0.6	0.010417	-1.0438	-0.325	-0.04375	-0.97917	-0.29583	-0.58958	-0.70208	-0.19583	-0.75208	-0.40833	63.336	-55.920	24.786	223.074	84.031	110.059	120.690	92.110	193.903	144.324	210.503	118.508	171.851	-97.807	54.929	208.969	0.00033522	0.00063765	0.00017729	1272.2	8.8088e-06	4.2766e-06	1272.6	346.46	7.2082e-06	4.3656e-06	397.19	135.84	117.65	40.912	8.7812e-07	50.854	0.00074965	0.00071658	0.00020335	1295.8	8.3247e-06	7.6129e-06	1301.8	355.58	8.1888e-06	7.7477e-06	407.96	140.67	121.76	42.065	8.4471e-06	52.606	155.658	-83.083	-37.069	-92.819	10.334	0.327	-92.849	-88.230	-18.282	16.805	-88.759	-84.580	-84.361	-79.452	103.906	-80.141	-8191	255	
7499.577	1	1	0	0	0.20733	0.11213	0.19826	0.29701	0.20821	0.11356	0.094184	0.25987	0.21807	0.09416	0.037622	0.084778	0.019229	0.23246	0.28557	0.34597	0.33542	-0.66667	-0.0375	-0.46875	-0.55417	0.19167	-0.87708	-0.60208	0.041667	-0.83125	-0.1625	-0.56042	-0.79583	0.17708	-0.52292	-0.49375	128.470	-5.849	-41.532	177.799	-14.136	91.049	-70.030	224.968	9.866	88.158	29.177	-81.641	66.229	237.719	-67.095	109.198	0.00043474	0.00072693	8.4401e-05	1261.7	4.9766e-06	5.8065e-06	1270.8	345.54	8.1167e-06	4.3897e-06	398.73	135.79	117.13	40.627	2.9942e-06	50.458	0.00072069	0.00068764	0.00021085	1292	7.8266e-06	7.3392e-06	1301.6	354.86	7.7282e-06	7.4907e-06	408.66	140.73	121.39	41.966	8.5824e-06	52.403	125.372	25.567	-64.225	-92.785	29.547	62.284	-92.753	-88.262	-10.857	55.565	-88.897	-84.734	-84.083	-79.346	47.843	-79.962	-8191	255	
7499.696	1	1	0	0	0.2173	0.13176	0.097274	0.039942	0.081636	0.1243	0.11339	0.16348	0.017613	0.12471	0.14463	0.13038	0.099963	0.17575	0.1709	0.13716	0.3625	-0.8625	-0.022917	-0.39583	-0.68125	0.097917	-0.8125	-0.71875	0.35833	-0.77292	-0.3	-0.31875	-0.83542	-0.054167	-0.375	-0.71042	-10.449	-14.024	157.508	33.076	214.113	38.843	79.276	-84.415	-63.873	-48.383	25.890	227.588	44.007	174.033	213.076	201.319	0.00044793	0.0006463	0.00010518	1260.4	7.5011e-06	1.7183e-06	1261.1	344.6	9.0011e-06	5.2869e-07	397.19	134.29	116.54	40.317	8.4481e-06	50.111	0.00069195	0.00070129	0.00021992	1288.7	7.757e-06	7.7486e-06	1299.2	353.15	7.7131e-06	7.9615e-06	407.67	139.2	120.68	41.775	8.9888e-06	52.014	130.587	-47.251	-21.979	-92.763	-12.266	17.386	-92.663	-88.248	17.091	197.890	-88.812	-84.500	-84.412	-79.397	43.990	-79.740	-8191	255	
7499.792	1	1	0	0	0.13288	0.13918	0.1778	0.30859	0.16155	0.15464	0.12846	0.32051	0.145	0.26809	0.22219	0.2083	0.39859	0.13113	0.045632	0.12527	0.56667	-0.88333	-0.34792	-0.1	-0.72708	0.1	-0.53542	-0.72917	0.175	-0.78958	-0.39792	-0.14792	-0.94792	-0.10833	-0.3625	-0.80625	64.789	61.230	217.810	-101.009	44.877	237.380	146.156	245.793	-45.504	-62.251	245.200	194.235	230.620	252.529	252.556	80.228	0.00036672	0.00057234	9.4891e-05	1258.6	7.6498e-07	3.0631e-06	1268.5	345.38	2.6407e-06	2.5164e-06	398.16	134.89	116.23	40.191	1.324e-06	50.248	0.00069336	0.00076493	0.00022907	1286.6	7.837e-06	8.5078e-06	1299.1	353.09	7.7287e-06	8.7865e-06	408.3	139.3	120.4	41.802	8.8293e-06	52.04	144.896	-0.189	-36.247	-92.457	249.069	-36.159	-93.062	-88.036	21.270	25.789	-88.716	-84.764	-84.224	-79.170	-28.075	-80.270	-8191	255	
7499.888	1	1	0	0	0.18403	0.060885	0.14712	0.16501	0.1222	0.030239	0.25412	0.39288	0.16077	0.29922	0.13088	0.1396	0.079713	0.1005	0.091515	0.060911	0.54375	-0.60833	-0.26667	-0.275	-0.84375	-0.21667	-0.60417	-0.74167	0.25	-0.53958	-0.40833	0.075	-0.83125	-0.225	-0.11458	-0.82708	192.252	-88.770	95.424	194.528	126.171	-29.371	208.606	182.335	-79.845	-57.519	201.548	-86.515	220.244	174.738	12.544	238.552	0.00042962	0.00044921	0.00022125	1266.6	2.2274e-06	6.3552e-06	1283.1	346.57	5.717e-06	5.1456e-07	397.76	135.04	116.29	40.357	7.66e-06	50.181	0.0007039	0.00081601	0.00022449	1289.2	7.97e-06	8.9977e-06	1303.9	353.61	7.802e-06	9.032e-06	407.34	139.21	120.54	41.916	8.5011e-06	51.947	140.708	-1.679	-42.116	-93.278	-86.388	-7.890	-93.303	-88.547	-40.356	-45.859	-89.255	-84.753	-84.345	-79.565	56.879	-80.242	-8191	255	
7499.984	1	1	0	0	0.26566	0.26969	0.073069	0.3962	0.28688	0.23068	0.38242	0.14555	0.16685	0.16639	0.22181	0.23574	0.32508	0.12958	0.15361	0.25979	0.54167	-0.375	-0.53542	-0.079167	-0.88333	-0.23125	-0.45417	-0.95625	0.0125	-0.55	-0.54792	-0.14375	-0.95	-0.28333	-0.16458	-1.1063	90.557	185.704	110.058	230.477	-6.504	7.307	210.415	165.788	249.135	189.041	140.819	187.862	-103.431	201.853	98.948	190.427	0.00031582	0.00077909	0.00022558	1268.2	6.0749e-06	9.05e-06	1276.7	346.27	4.8881e-06	4.3531e-06	398.66	135.09	116.7	40.5	1.5113e-06	50.359	0.00072048	0.00083441	0.00021719	1290	8.2818e-06	9.2104e-06	1301.3	353.38	8.351e-06	9.2568e-06	407.11	139.11	121	41.935	8.2159e-06	52.087	127.435	-10.827	-34.172	-92.852	-13.943	60.214	-93.133	-88.526	-94.874	39.654	-88.880	-84.533	-84.072	-79.523	-25.577	-80.235	-8191	255	
7500.105	1	1	0	0	0.27821	0.22015	0.093525	0.069182	0.17507	0.15594	0.22769	0.22267	0.13958	0.15533	0.20858	0.32604	0.25995	0.18356	0.15984	0.19282	0.4	-0.32917	-0.6375	-0.06875	-0.4875	-0.42083	-0.31458	-0.89375	0.0375	-0.37083	-0.85833	0.079167	-0.82083	-0.42708	-0.027083	-1.0479	201.954	104.612	211.901	223.474	-23.370	-103.950	241.718	50.638	-45.450	165.127	185.956	243.606	-105.394	-13.527	36.499	177.335	0.000419	0.00076389	0.00014149	1264.9	5.4728e-06	9.855e-06	1269.1	345.54	2.4302e-06	2.8058e-06	397.07	134.91	115.49	40.189	5.2229e-07	49.955	0.00076828	0.00082682	0.00021271	1291.8	8.7027e-06	8.9252e-06	1300.1	354.01	8.9037e-06	8.8407e-06	407.38	139.46	121.42	41.849	8.0507e-06	51.989	126.077	-25.294	-19.779	-92.859	84.256	47.126	-92.793	-88.007	-32.557	35.396	-89.028	-84.729	-83.918	-79.380	-6.424	-79.877	-8191	255	
7500.176	1	1	0	0	0.28647	0.10178	0.19341	0.25339	0.242	0.17009	0.18765	0.30832	0.048252	0.0366	0.2181	0.23434	0.23662	0.096781	0.1244	0.13213	0.39583	-0.033333	-0.75	0.052083	-0.84792	-0.68125	0.039583	-0.9125	-0.24375	-0.22708	-0.88125	-0.14167	-0.64167	-0.675	-0.014583	-1.2188	72.863	98.020	58.091	-57.993	29.779	61.361	196.375	155.887	159.009	140.350	150.095	130.136	-57.156	177.086	253.657	118.539	0.00040769	0.00078115	0.00012085	1260.7	3.9478e-06	7.1783e-06	1270.4	346.96	6.8314e-06	3.2013e-06	398.05	134.41	116.48	40.112	3.972e-06	50.245	0.00081715	0.00079792	0.00020859	1289.4	9.2168e-06	8.7853e-06	1299	353.43	9.4081e-06	8.7765e-06	407.42	139.01	121.64	41.637	8.1196e-06	52.047	142.814	-4.559	-2.272	-92.556	1.996	-7.182	-93.307	-88.132	-23.595	86.054	-88.876	-84.924	-83.838	-79.545	49.377	-79.878	-8191	255	
7500.272	1	1	0	0	0.13397	0.2597	0.030021	0.16991	0.16367	0.03025	0.34364	0.091041	0.12686	0.27203	0.32548	0.24462	0.12832	0.19168	0.22661	0.13038	-0.045833	-0.34167	-0.8125	-0.28333	-0.56875	-0.52083	-0.16667	-1.1333	-0.29167	-0.23125	-0.925	-0.29375	-0.6125	-1.0688	-0.091667	-1.1187	25.934	-41.594	124.533	-60.073	204.982	250.414	187.157	51.630	135.335	229.550	240.288	231.851	238.700	-57.650	220.117	209.630	0.00047562	0.00081196	8.1589e-05	1267.5	4.6995e-06	5.8528e-06	1268.8	343.43	6.3094e-06	4.6951e-06	394.77	132.54	114.46	39.539	2.5752e-06	49.445	0.00086041	0.00079562	0.00021408	1289.9	9.5975e-06	9.0159e-06	1298	352.8	9.818e-06	8.9572e-06	405.66	138.42	120.66	41.349	8.4002e-06	51.759	128.023	-13.277	33.492	-92.749	-22.734	44.883	-93.109	-88.009	-0.891	62.723	-88.678	-84.698	-84.162	-79.052	-44.379	-80.006	-8191	255	
7500.393	1	1	0	0	0.10782	0.33654	0.34683	0.15642	0.18992	0.18638	0.28068	0.19404	0.18117	0.068746	0.32459	0.32856	0.022121	0.21146	0.10768	0.087225	-0.24167	-0.08125	-1.1875	-0.45417	-0.58333	-0.89167	-0.38333	-1.0438	-0.54167	-0.2875	-1.1208	-0.2875	-0.53333	-0.88542	-0.0875	-0.83542	149.751	90.804	36.420	-94.525	-63.446	227.285	181.712	177.061	163.445	-48.419	-61.119	180.685	-0.284	116.982	138.258	232.200	0.00034309	0.00049097	0.00022932	1258.8	6.1944e-06	5.7702e-06	1264.4	342.07	6.7314e-06	4.3515e-06	392.77	133.17	114.42	39.437	2.1254e-06	49.1	0.00087251	0.00080905	0.00021702	1290.1	9.6187e-06	9.1136e-06	1295.9	352.57	9.7997e-06	8.9422e-06	404.54	138.42	120.45	41.194	8.8054e-06	51.753	120.246	-25.371	8.506	-92.876	67.840	27.956	-93.026	-88.127	26.561	25.061	-88.706	-84.468	-84.421	-79.190	-15.072	-79.742	-8191	255	
7500.489	1	1	0	0	0.21161	0.15091	0.11619	0.17499	0.16777	0.19116	0.027905	0.099073	0.14311	0.23855	0.28605	0.31538	0.2814	0.26084	0.20983	0.052779	-0.22917	-0.045833	-1.0312	-0.30208	-0.36458	-0.8375	-0.04375	-0.90625	-0.9625	-0.15208	-1.1646	-0.39375	-0.20417	-1.0875	0.01875	-0.7875	169.385	2.572	66.534	233.431	56.625	213.551	121.611	-76.914	-58.150	161.938	126.277	235.889	-48.484	-34.655	-83.971	134.873	0.00045886	6.3809e-05	0.0001296	1265.9	3.8206e-06	7.5102e-06	1263.7	341.12	2.9884e-06	5.5676e-06	394.83	132.21	114.72	39.742	4.4352e-06	49.536	0.00085398	0.0008105	0.00022937	1291.5	9.3884e-06	8.9068e-06	1295.1	351.94	9.422e-06	8.7274e-06	405.82	138.62	119.8	41.262	9.3209e-06	51.733	135.878	204.053	7.609	-93.034	36.242	108.871	-92.906	-88.035	-18.764	42.139	-88.512	-84.763	-84.084	-79.381	51.063	-79.882	-8191	255	
7500.585	1	1	0	0	0.11309	0.092837	0.063221	0.29133	0.11507	0.12409	0.18633	0.20423	0.28578	0.23898	0.099382	0.075844	0.027527	0.42484	0.24935	0.082544	-0.68125	-0.064583	-0.84375	-0.5	-0.325	-1.1146	-0.33958	-0.66875	-0.925	0.075	-1.0396	-0.64375	-0.06875	-0.8625	-0.2	-0.53958	49.144	-77.867	241.205	-80.447	-55.742	143.018	220.559	205.271	135.986	179.237	-38.809	133.893	-74.935	-99.355	46.703	90.630	0.00055614	0.00016734	0.00015239	1250.8	1.1579e-05	3.9249e-06	1251.5	338.81	2.9215e-06	7.4881e-06	393.03	132.71	114.4	39.615	3.6249e-06	49.799	0.0008257	0.00078274	0.00024263	1286.9	9.0053e-06	8.6515e-06	1293.7	350.86	9.2074e-06	8.564e-06	406.76	138.29	119.87	41.188	9.7714e-06	51.777	139.858	-47.769	84.136	-92.811	-32.755	34.368	-92.911	-87.890	-35.679	18.508	-88.793	-84.687	-84.213	-79.314	-50.059	-80.006	-8191	255	
7500.682	1	1	0	0	0.21013	0.22783	0.026781	0.23339	0.25605	0.1318	0.14983	0.4998	0.23857	0.20412	0.18117	0.34113	0.13851	0.20983	0.40227	0.15634	-0.29167	0.1	-0.86458	-0.625	-0.054167	-0.96458	-0.48542	-0.69792	-0.87083	-0.14375	-0.80833	-0.75208	-0.36458	-0.93125	-0.20625	-0.47917	143.281	224.423	139.889	234.176	6.733	129.048	169.199	190.107	204.409	66.552	180.926	252.288	-95.355	-53.934	186.755	138.474	0.00032749	2.4585e-05	0.00013479	1261.7	4.5688e-06	4.6281e-06	1267.2	342.53	5.9166e-06	1.9899e-06	394.87	133.03	114.5	39.664	2.2296e-06	49.322	0.00080882	0.00079099	0.00024996	1288.8	8.7839e-06	8.7575e-06	1297.7	351.82	8.8327e-06	8.6576e-06	407.3	138.19	119.65	41.264	9.9747e-06	51.589	128.776	-0.639	4.170	-93.033	74.879	-11.855	-93.036	-88.221	-9.034	100.540	-88.967	-84.789	-83.894	-79.526	103.178	-79.897	-8191	255	
7500.776	1	1	0	0	0.32478	0.3104	0.18718	0.078728	0.27113	0.089221	0.30466	0.11468	0.08689	0.018393	0.16959	0.07414	0.29892	0.20584	0.28636	0.26464	-0.44583	-0.14167	-0.65	-0.9125	0.00625	-1.0708	-0.475	-0.475	-1.0042	-0.091667	-0.82083	-0.86042	-0.25208	-1.0875	-0.63958	-0.25625	-85.308	23.782	29.656	121.189	150.222	-19.526	168.223	216.781	5.951	225.330	182.492	155.543	138.616	193.333	180.161	-67.744	0.0004227	3.2924e-05	0.00012736	1255.8	6.6915e-06	3.2022e-06	1263.4	341.68	7.8525e-06	2.426e-06	394.45	132.61	114.79	39.568	7.2724e-06	49.212	0.00078168	0.00082077	0.0002526	1287	8.5922e-06	9.1788e-06	1298.5	351.1	8.6208e-06	9.3352e-06	407.12	137.91	119.63	41.318	9.8722e-06	51.506	130.296	-103.236	19.000	-92.850	59.419	-33.304	-92.722	-87.947	-17.413	184.180	-88.459	-84.745	-84.162	-78.962	-7.267	-79.849	-8191	255	
7500.872	1	1	0	0	0.30883	0.12912	0.38577	0.23835	0.22853	0.021943	0.045068	0.21662	0.26922	0.024071	0.18743	0.041756	0.11374	0.10416	0.055884	0.40265	-0.60833	-0.25625	-0.66667	-0.925	-0.079167	-0.95	-0.78958	-0.375	-0.9125	-0.3	-0.6375	-1.0854	0.020833	-1.0458	-0.46458	-0.070833	184.177	6.742	248.206	245.344	-95.584	60.179	4.547	112.799	62.214	43.131	224.349	-0.796	240.682	-101.727	-58.777	236.049	0.0003096	0.00062863	0.00012678	1257.2	5.8684e-06	1.6134e-06	1249.5	341.4	1.7525e-06	3.2942e-06	395.07	132.15	114.52	39.288	2.4207e-06	48.856	0.00077997	0.00087854	0.00024846	1286.8	8.5847e-06	9.8598e-06	1294.6	350	8.7902e-06	1.0101e-05	406.69	137.62	119.44	41.232	9.6255e-06	51.271	141.426	-81.732	-33.594	-92.762	28.974	-21.543	-92.960	-87.977	-44.930	92.288	-88.501	-84.575	-84.274	-79.165	233.688	-79.741	-8191	255	
7500.993	1	1	0	0	0.12799	0.14774	0.16643	0.1989	0.122	0.14072	0.1133	0.13826	0.12	0.37734	0.28913	0.19504	0.1196	0.12284	0.02756	0.058779	-0.65	0.025	-0.40208	-1.2146	0.01875	-0.69167	-0.86042	-0.26458	-0.96875	-0.21458	-0.30833	-1.0625	-0.12292	-0.7875	-0.77292	-0.18125	177.600	-88.807	53.099	204.359	150.313	103.565	151.463	-63.130	13.953	252.584	221.738	239.282	-38.727	208.972	-11.540	11.240	0.00064254	0.00038366	0.00013235	1256.2	9.3768e-06	1.1071e-05	1258.5	340.17	5.7422e-06	3.4461e-06	391.01	131.78	114.46	39.522	3.0206e-06	49.18	0.00079316	0.0009238	0.00024318	1285.2	8.973e-06	1.0188e-05	1293.6	348.38	9.26e-06	1.026e-05	404.56	136.97	119.29	41.224	9.4122e-06	51.208	132.897	35.807	-44.849	-92.731	17.931	55.594	-92.930	-88.121	17.623	11.797	-88.521	-84.461	-83.817	-79.055	-60.587	-80.006	-8191	255	
7501.089	1	1	0	0	0.28832	0.27784	0.10828	0.091252	0.16512	0.14676	0.28295	0.38638	0.095976	0.12441	0.16421	0.37052	0.18868	0.2426	0.16723	0.16053	-0.7	-0.23125	-0.28542	-1.2083	-0.070833	-0.58333	-1.025	-0.079167	-0.95833	-0.6125	-0.51042	-1.0042	-0.2375	-0.625	-0.83333	-0.15625	68.253	117.202	233.731	248.288	-32.030	165.145	183.586	219.530	129.985	51.062	144.277	-98.157	-76.919	-57.606	189.543	56.364	0.00030023	0.00030489	0.00022558	1258.9	1.5078e-06	6.5863e-06	1259.8	338.85	5.1332e-06	4.3467e-06	390.25	131.78	113.49	39.287	1.7931e-06	48.938	0.00084357	0.00093831	0.00023642	1282.8	9.5802e-06	1.0212e-05	1292.1	348.01	9.8094e-06	1.0264e-05	403.62	136.81	119.56	41.091	9.5227e-06	51.028	112.800	47.914	49.465	-92.891	133.427	57.938	-93.046	-88.004	-92.940	42.172	-88.577	-84.553	-84.309	-79.353	-13.410	-79.830	-8191	255	
7501.185	1	1	0	0	0.067903	0.16186	0.22273	0.13616	0.12068	0.24958	0.28257	0.29755	0.045736	0.29412	0.22824	0.31685	0.24763	0.17763	0.09282	0.14821	-0.57083	-0.57292	-0.26042	-1.2479	-0.033333	-0.71042	-1.2396	-0.34167	-0.97917	-0.6375	-0.15	-1.0625	-0.48958	-0.61875	-0.875	-0.3125	7.987	137.261	-102.985	-98.520	226.160	208.965	211.798	189.762	74.512	130.106	192.813	244.912	39.614	112.350	-1.104	170.589	0.00052926	0.00040145	0.0001167	1249.3	8.6876e-06	9.9312e-06	1252.1	336.4	5.313e-06	3.2685e-06	391.78	131.31	113.25	39.093	5.7741e-06	48.547	0.0009187	0.00095275	0.00024332	1279.7	1.0627e-05	1.044e-05	1289.2	347.27	1.0873e-05	1.0594e-05	403.1	136.67	120.04	40.913	9.8739e-06	51.003	137.461	118.591	-33.110	-92.683	-63.821	8.900	-92.978	-87.822	-30.276	137.796	-88.553	-84.467	-84.120	-79.168	68.709	-79.790	-8191	255	
7501.281	1	1	0	0	0.19257	0.094242	0.26605	0.15628	0.16523	0.27106	0.37563	0.19905	0.13736	0.21839	0.10816	0.10737	0.2237	0.19932	0.33691	0.059799	-0.36042	-0.61458	-0.020833	-1.0833	-0.38958	-0.2625	-1.0875	-0.29167	-0.85833	-0.825	-0.30208	-1.0604	-0.23542	-0.4875	-0.8125	-0.064583	170.232	42.797	-34.695	246.186	10.579	-62.853	118.068	39.933	-87.996	-67.970	210.888	-52.430	-62.239	146.266	-23.338	-26.545	0.00039284	0.00064696	0.00019094	1246	3.3998e-06	8.8235e-06	1248	335.69	2.7677e-06	5.8428e-06	387.33	130.54	112.17	38.793	4.3075e-06	48.377	0.0010013	0.00096418	0.00024533	1281.4	1.1332e-05	1.0278e-05	1286.2	346.61	1.1084e-05	1.0368e-05	401.8	136.9	119.55	40.887	9.711e-06	51.132	125.029	-30.764	-13.778	-92.590	-31.110	-1.632	-92.683	-88.098	28.899	60.201	-88.781	-84.694	-83.986	-79.024	-47.109	-79.484	-8191	255	
7501.402	1	1	0	0	0.07554	0.14317	0.0614	0.18021	0.14321	0.17477	0.44323	0.22869	0.24992	0.21825	0.24902	0.14272	0.25053	0.15693	0.26546	0.20989	-0.072917	-0.75417	-0.05625	-1.0979	-0.40625	-0.21458	-1.05	-0.25833	-0.52917	-1.0771	-0.23125	-0.89375	-0.62292	-0.175	-0.81875	-0.38333	-29.180	-45.734	222.364	-75.944	42.599	-29.780	160.836	148.350	4.008	57.663	250.384	-19.003	224.924	245.592	-80.487	83.980	0.00041258	0.00047323	0.00016749	1246.6	4.5671e-06	2.1723e-06	1246.3	336.29	5.0075e-06	6.181e-06	388.13	130.79	113.28	39.382	4.5515e-06	48.677	0.00098618	0.00094342	0.00024179	1284.5	1.1027e-05	1.0028e-05	1286.8	347.27	1.0957e-05	1.0133e-05	401.76	137.29	119.46	40.9	9.6722e-06	51.384	157.735	-22.453	0.064	-92.719	-5.752	23.031	-92.921	-88.207	-66.230	60.128	-88.588	-84.650	-84.216	-79.381	-86.145	-79.910	-8191	255	
7501.473	1	1	0	0	0.22844	0.29669	0.27984	0.32142	0.14875	0.084965	0.24839	0.18192	0.13624	0.049676	0.24882	0.16496	0.081516	0.21522	0.13389	0.023747	-0.08125	-0.85625	0.022917	-0.89583	-0.47083	-0.083333	-1.1167	-0.40208	-0.26042	-0.95833	-0.24583	-0.75625	-0.67083	-0.01875	-0.89792	-0.44167	-18.438	8.429	128.081	229.957	176.574	198.311	138.643	234.916	231.053	25.947	238.697	117.193	137.162	-42.704	133.361	-11.332	0.00036069	0.00088623	7.6e-05	1253.6	5.5838e-06	4.552e-06	1255.8	336.46	9.2556e-06	3.5939e-06	389.24	130.4	114.02	39.182	6.169e-06	48.655	0.00094738	0.0009242	0.0002466	1288.1	1.07e-05	9.8455e-06	1290.7	348.1	1.0454e-05	9.9692e-06	402.84	137.51	119.48	40.815	1.0195e-05	51.45	135.784	-29.326	-33.408	-92.767	61.686	-2.276	-92.901	-88.180	-19.311	29.391	-88.597	-84.177	-84.233	-79.108	57.129	-80.385	-8191	255	
7501.570	1	1	0	0	0.13711	0.22662	0.28013	0.2759	0.15428	0.1779	0.068975	0.26996	0.26836	0.13779	0.15572	0.065238	0.21908	0.07096	0.40688	0.10494	-0.09375	-0.98542	0.17708	-0.88333	-0.70833	-0.20625	-1	-0.44167	-0.24375	-0.98542	-0.22708	-0.625	-0.8375	-0.03125	-1.0688	-0.50208	109.524	25.315	26.082	250.430	105.843	24.155	141.532	184.795	125.661	193.827	228.971	177.625	13.689	11.769	11.522	-44.393	0.00026812	0.0010603	4.842e-05	1245.4	1.1941e-05	1.2086e-05	1257.8	337.04	2.8075e-06	5.652e-06	389.78	132.27	112.35	39.06	1.8738e-06	48.466	0.00091729	0.00090407	0.00026031	1286.8	1.031e-05	9.7228e-06	1292.5	347.94	1.0062e-05	9.7771e-06	403.99	137.57	118.93	40.841	1.0745e-05	51.247	119.910	-75.816	170.186	-92.499	24.375	4.825	-93.042	-88.126	8.060	27.836	-88.747	-84.711	-84.188	-79.295	27.436	-79.912	-8191	255	
7501.666	1	1	0	0	0.084236	0.067109	0.067278	0.16629	0.24513	0.25521	0.016688	0.31713	0.10965	0.16963	0.25849	0.41634	0.17446	0.23561	0.28388	0.52593	0.2625	-0.98958	-0.30625	-0.50208	-0.74167	-0.125	-0.99375	-1.0292	-0.00625	-1.0375	-0.30417	-0.425	-0.89375	-0.089583	-0.73125	-0.7375	17.863	85.355	146.416	199.393	51.896	106.947	238.538	228.579	148.090	-15.209	66.280	200.058	101.263	-83.818	-70.071	220.912	0.00034642	0.00051393	7.8072e-06	1257	3.9765e-06	4.1756e-06	1261.5	338.81	4.0976e-06	2.6598e-06	390.69	131.52	113.3	39.116	6.3907e-06	49.302	0.00088386	0.00088696	0.00027697	1285.4	1.0087e-05	9.4942e-06	1295.1	348.29	9.81e-06	9.6267e-06	405.5	137.47	119.27	40.908	1.1044e-05	51.422	128.141	-46.005	141.981	-92.862	-13.331	88.784	-92.935	-88.287	-0.085	45.707	-88.692	-85.104	-84.256	-79.098	3.340	-80.167	-8191	255	
7501.785	1	1	0	0	0.13473	0.34434	0.037088	0.2348	0.20448	0.30255	0.22358	0.11673	0.20201	0.11019	0.22295	0.18455	0.13992	0.30419	0.1636	0.095698	0.52292	-0.90625	-0.19167	-0.37083	-0.9375	-0.0375	-0.86042	-0.79375	0.060417	-1.0542	-0.525	-0.45	-1.1208	-0.25417	-0.70833	-0.925	-97.482	115.500	13.350	190.003	-42.493	42.910	197.210	128.129	102.530	65.449	180.099	200.887	19.713	233.016	-61.847	162.642	0.00037549	0.00028672	0.00015681	1258.9	3.5675e-06	4.3929e-06	1255.5	337.48	1.0118e-05	3.4633e-06	390.93	131.75	113.89	39.345	7.1405e-06	48.839	0.00085925	0.00089512	0.00027755	1285.3	9.6334e-06	9.8838e-06	1293.9	347.47	9.4659e-06	1.0056e-05	405.37	137.01	119.49	41.03	1.1006e-05	51.156	126.970	58.550	82.493	-92.960	49.247	65.308	-92.913	-88.218	14.251	160.942	-88.749	-84.651	-84.219	-79.470	17.229	-79.960	-8191	255	
7501.881	1	1	0	0	0.043462	0.24587	0.030254	0.45204	0.23365	0.14242	0.23122	0.070007	0.23963	0.2722	0.24535	0.10637	0.13322	0.23718	0.32764	0.2485	0.2875	-0.825	-0.36667	-0.30417	-1.0458	-0.075	-0.83333	-0.85	-0.1125	-0.77292	-0.50625	-0.32917	-0.94375	-0.33125	-0.47917	-0.96667	191.516	165.215	198.705	188.876	205.999	7.877	200.876	-97.374	-7.247	125.112	232.133	195.136	60.921	120.128	-24.254	21.681	0.0004428	0.00033517	0.0001376	1263.6	1.1012e-05	3.1462e-06	1251.2	338.05	1.9748e-06	6.297e-06	390.71	131.47	113.67	39.367	8.7883e-06	49.144	0.00083331	0.0009535	0.00027728	1285.2	9.5477e-06	1.0376e-05	1293.1	347.44	9.3076e-06	1.0551e-05	405.04	136.87	119.09	41.106	1.0594e-05	51.259	122.817	-45.861	68.831	-92.821	-8.450	154.433	-92.812	-88.262	129.846	-4.447	-88.965	-84.506	-84.245	-79.086	26.010	-80.158	-8191	255	
7501.977	1	1	0	0	0.14504	0.089046	0.26268	0.14834	0.09908	0.31477	0.25689	0.047645	0.11773	0.13249	0.047572	0.18359	0.20253	0.20211	0.2338	0.14442	0.46042	-0.73333	-0.43125	-0.2375	-0.94583	-0.2125	-0.55	-1.1187	-0.033333	-0.875	-0.59167	-0.08125	-1.0604	-0.52083	-0.46667	-0.97083	149.966	85.778	236.912	220.631	38.336	12.279	183.005	138.345	218.758	121.168	200.193	-85.630	215.716	179.772	-105.381	-104.749	0.00045431	0.00032247	0.00018655	1257.2	6.8509e-06	6.1332e-06	1260.9	338.49	8.1626e-07	3.4781e-06	392.33	131.88	114.43	39.387	8.6681e-06	49.167	0.00083032	0.00099419	0.00026879	1282.3	9.5656e-06	1.0943e-05	1292.3	347.37	9.6058e-06	1.0955e-05	404.88	136.73	119.41	41.212	1.0048e-05	51.231	133.788	86.542	-76.568	-92.815	89.594	105.556	-92.997	-88.472	202.624	111.225	-89.064	-84.713	-84.409	-79.550	-12.943	-80.242	-8191	255	
7502.073	1	1	0	0	0.065469	0.22298	0.17982	0.34045	0.20017	0.064209	0.087308	0.28956	0.22057	0.22599	0.1388	0.3174	0.10551	0.1552	0.13995	0.17968	0.43958	-0.73542	-0.6875	-0.13958	-0.94375	-0.34792	-0.30208	-1.2104	-0.10833	-0.64583	-1.0271	-0.029167	-1.0063	-0.55208	-0.21667	-1.1042	24.797	-38.612	-39.389	199.315	10.782	240.313	-38.793	126.480	112.028	-44.027	180.807	188.154	197.215	57.928	-35.307	161.351	0.00054098	0.00043747	0.00025956	1255.2	3.8513e-06	6.3362e-06	1260	338.97	1.0017e-06	6.0365e-06	392.41	132.12	114.08	39.265	1.6095e-06	48.994	0.00088681	0.0010097	0.00025662	1279.5	1.0018e-05	1.107e-05	1293.3	347.13	1.015e-05	1.0915e-05	404.08	136.65	120.03	41.108	9.8578e-06	51.134	141.655	-33.977	-2.223	-93.027	-48.232	68.453	-92.958	-88.177	252.553	20.581	-88.785	-84.755	-84.646	-79.411	87.363	-80.186	-8191	255	
7502.169	1	1	0	0	0.23517	0.21735	0.10868	0.090047	0.046606	0.24956	0.32997	0.35233	0.20128	0.13201	0.3012	0.15039	0.14893	0.26096	0.28039	0.32537	0.33333	-0.58125	-0.95208	-0.19167	-0.82917	-0.49375	-0.425	-1.0187	-0.15625	-0.28958	-0.81667	0.0020833	-0.78333	-0.65625	-0.05	-0.97083	212.705	-71.537	-46.815	253.752	218.013	115.711	213.170	195.777	210.764	-64.731	223.209	210.944	193.396	149.947	-29.594	161.000	0.00049633	0.00069733	0.00010563	1251.5	1.0243e-06	1.6027e-06	1261.1	338.83	3.2892e-06	9.4016e-06	392.04	132.01	113.91	39.46	4.6717e-06	49.099	0.00093781	0.00097654	0.00025259	1279.9	1.0569e-05	1.0689e-05	1291.2	347.28	1.0684e-05	1.0418e-05	404.48	136.86	119.96	41.167	9.5059e-06	51.26	146.956	13.737	-57.742	-93.085	2.477	93.455	-93.180	-88.003	-60.876	15.053	-88.916	-84.698	-84.080	-79.465	78.453	-79.922	-8191	255	
7502.265	1	1	0	0	0.16543	0.17992	0.103	0.075843	0.16067	0.25105	0.22172	0.14129	0.19331	0.10464	0.098233	0.2599	0.1601	0.38485	0.0245	0.24849	0.25833	-0.325	-0.86667	-0.21458	-0.725	-0.66875	-0.2625	-1.0292	-0.25	-0.3125	-0.9625	-0.17917	-0.8375	-0.72917	0.029167	-1.0146	-48.771	18.032	55.949	228.428	132.642	218.368	245.995	16.778	20.952	43.226	176.726	236.349	166.956	-59.873	-49.356	173.092	0.00042804	0.00074463	8.9297e-05	1256.1	3.5812e-06	7.3171e-06	1258.2	339.25	3.1818e-06	5.7619e-06	393.57	132.17	114.19	39.36	8.7154e-06	49.088	0.00096201	0.00092951	0.00024204	1283.3	1.0762e-05	1.0159e-05	1289.9	347.49	1.0883e-05	1.0038e-05	404.15	137.24	120.31	41.101	9.2018e-06	51.326	132.947	-65.117	-29.473	-93.107	-3.848	42.985	-93.062	-88.081	181.560	47.648	-88.714	-85.059	-84.255	-79.508	32.899	-80.439	-8191	255	
7502.362	1	1	0	0	0.42044	0.20423	0.3037	0.25791	0.099456	0.16058	0.056866	0.35192	0.18653	0.32168	0.20918	0.3559	0.15722	0.43653	0.34973	0.041251	0.09375	-0.16458	-0.775	-0.077083	-0.59792	-0.67708	-0.18125	-1.175	-0.60625	-0.18542	-1.0333	0.025	-0.54792	-1.0396	-0.075	-0.97292	11.172	15.625	163.834	234.800	-49.903	-97.673	227.522	209.330	123.244	23.703	189.073	-100.250	220.172	-102.805	153.669	85.987	0.00032346	0.0006118	0.00017723	1258.8	2.9673e-06	1.9433e-06	1259.5	339.6	2.7259e-06	5.703e-06	393.15	131.96	114.02	39.309	8.6446e-07	48.801	0.00095822	0.0008897	0.0002331	1285.6	1.057e-05	9.8269e-06	1289.9	348.7	1.0616e-05	9.6045e-06	403.7	137.65	120.13	40.976	9.0973e-06	51.421	114.044	-15.831	2.595	-92.868	31.031	92.054	-92.980	-88.107	229.424	33.539	-88.883	-84.705	-84.243	-79.268	-103.156	-79.886	-8191	255	
7502.482	1	1	0	0	0.16411	0.078206	0.13334	0.25268	0.10689	0.079195	0.16856	0.25144	0.18478	0.025927	0.18696	0.20673	0.27202	0.099577	0.11642	0.29795	-0.0083333	-0.089583	-1.0917	-0.24167	-0.31667	-0.59583	-0.2125	-0.9375	-0.50417	-0.027083	-1.0354	-0.175	-0.47083	-0.9875	0.09375	-0.65	27.105	187.436	70.438	237.413	-102.607	202.275	144.733	210.876	107.305	229.902	-22.155	157.236	-91.674	-61.475	193.792	168.917	0.00053001	0.00056219	0.00027978	1252.1	4.4332e-06	5.6552e-06	1257.9	338.63	2.7661e-06	7.1994e-06	391.79	131.66	113.1	39.097	1.2589e-06	48.979	0.0009257	0.00086587	0.00023579	1285.3	1.0148e-05	9.6143e-06	1290	349.18	1.0261e-05	9.4011e-06	403.55	137.86	119.65	40.978	9.4009e-06	51.535	136.796	15.332	-20.421	-92.680	-20.355	86.092	-92.912	-88.247	-24.571	63.417	-88.633	-84.703	-84.065	-79.278	200.630	-79.889	-8191	255	
7502.577	1	1	0	0	0.24852	0.074551	0.20007	0.21682	0.050338	0.22327	0.17176	0.39995	0.14798	0.14007	0.31933	0.40777	0.24943	0.20233	0.36467	0.15001	-0.17292	0.16042	-0.89583	-0.425	-0.20417	-0.95833	-0.24167	-0.8375	-0.63542	0	-1.1083	-0.4375	0.045833	-0.82708	0.09375	-0.42708	-102.127	162.141	115.135	-54.569	12.332	65.194	127.612	231.729	-45.846	249.460	-99.537	203.259	252.122	105.764	92.151	202.422	0.00052155	0.00057114	9.9684e-05	1258.2	3.7517e-06	3.3813e-06	1255.8	338.75	9.5558e-06	3.8948e-06	389.59	131.24	114.23	39.314	1.4292e-06	49.323	0.00088083	0.00084564	0.00024618	1288.8	9.7709e-06	9.2457e-06	1291.4	349.37	9.8507e-06	9.0984e-06	404.14	137.42	119.28	40.934	9.9965e-06	51.557	141.609	-12.096	68.208	-92.857	30.609	101.373	-92.648	-87.926	-42.528	53.823	-88.491	-84.682	-84.135	-79.145	-27.125	-80.203	-8191	255	
7502.674	1	1	0	0	0.2528	0.23111	0.19667	0.21229	0.41914	0.10657	0.29886	0.25277	0.14608	0.22934	0.27282	0.34513	0.089199	0.07514	0.21977	0.016808	-0.05625	0.42292	-0.73125	-0.30833	0.045833	-0.94583	0.0125	-0.5	-0.69792	0.058333	-0.76042	-0.46458	-0.04375	-0.80625	-0.11875	-0.44167	-7.440	-85.877	96.013	229.557	134.653	-59.933	199.924	-98.291	47.993	185.298	225.875	247.192	21.406	-101.305	90.709	-66.142	0.00025397	0.00033474	0.00018643	1251.2	9.7083e-06	2.1379e-06	1257.8	337.99	4.5172e-06	6.4631e-06	388.85	131.62	113.67	39.292	2.2655e-06	49.199	0.00086707	0.00082148	0.0002604	1285.5	9.4961e-06	9.2192e-06	1292.7	348.66	9.6834e-06	9.1683e-06	405.2	137.39	119.27	40.942	1.0576e-05	51.437	131.409	-69.053	1.829	-93.021	31.426	64.027	-93.178	-88.009	51.161	-12.708	-88.468	-84.656	-84.195	-79.163	212.603	-80.023	-8191	255	
7502.771	1	1	0	0	0.047089	0.11057	0.15969	0.17218	0.12394	0.19929	0.088154	0.093124	0.24106	0.032329	0.32765	0.41756	0.092788	0.18713	0.18433	0.31195	-0.31458	0.17917	-0.5375	-0.4625	0.15625	-0.82917	-0.25	-0.29792	-0.9125	0.0875	-0.71667	-0.54167	-0.05	-0.94792	-0.18958	-0.1625	4.112	139.526	236.075	235.496	116.420	-30.202	160.196	205.408	207.044	233.836	189.689	166.716	6.052	-98.695	38.732	225.973	0.00036904	0.00028441	9.4341e-05	1251.2	6.4198e-06	1.6689e-06	1256.8	336.36	4.2128e-07	4.4005e-06	389.91	131.97	113.31	39.105	3.6579e-06	48.85	0.00084921	0.00083038	0.0002683	1283.2	9.276e-06	9.4088e-06	1294.9	347.84	9.3961e-06	9.5991e-06	405.07	137.33	119.07	41.026	1.0708e-05	51.328	154.652	21.686	-3.027	-92.941	23.886	66.483	-92.806	-88.071	48.315	54.390	-88.726	-84.785	-84.027	-79.033	63.933	-79.847	-8191	255	
7502.865	1	1	0	0	0.22377	0.22921	0.2755	0.13092	0.38013	0.17674	0.22943	0.56418	0.096972	0.1385	0.27022	0.23475	0.1058	0.051804	0.14614	0.27331	-0.62083	0.30833	-0.38333	-0.59167	0.08125	-0.71042	-0.37708	-0.225	-0.70625	0.077083	-0.28125	-0.72083	0.064583	-0.82917	-0.28125	0.0625	-85.661	-65.326	73.769	-103.415	248.191	-97.343	198.081	188.165	213.911	-67.282	-69.997	225.757	181.145	-103.952	105.730	-50.923	0.00028451	0.00046689	0.00017359	1244.7	5.1594e-06	3.2275e-06	1254	336.79	4.0244e-06	3.2722e-06	391.15	131.75	113.35	39.297	5.9285e-06	48.773	0.00084017	0.00091401	0.00027322	1281.6	9.1836e-06	1.0094e-05	1292.8	347.98	9.1778e-06	1.0183e-05	405.67	137.12	119	41.161	1.053e-05	51.257	124.374	29.023	29.745	-92.879	68.062	76.099	-93.120	-88.088	-6.080	132.667	-88.578	-84.584	-84.517	-79.070	-14.711	-79.702	-8191	255	
7502.961	1	1	0	0	0.2147	0.19157	0.41806	0.25747	0.10455	0.13899	0.34453	0.13615	0.0068056	0.068294	0.22393	0.164	0.14819	0.12778	0.19122	0.23353	-0.38333	0.14792	-0.22292	-0.86458	0.16458	-0.71458	-0.47292	-0.091667	-0.86875	0	-0.32083	-0.7375	-0.016667	-0.68333	-0.55208	-0.0020833	37.805	0.451	96.138	183.268	-69.601	81.508	199.209	194.648	145.889	153.452	186.634	154.193	205.733	203.472	141.546	118.331	0.0003893	0.00047338	4.698e-05	1254.8	4.2945e-06	3.8215e-06	1258.6	337.69	4.4011e-06	5.5669e-06	389.82	131.59	113.6	39.409	6.1161e-06	49.184	0.00083101	0.00095193	0.00026298	1282.7	9.0621e-06	1.0381e-05	1293.4	347.81	9.2808e-06	1.0658e-05	404.79	137.07	119.11	41.227	1.0044e-05	51.251	146.406	64.293	-91.928	-92.902	62.556	90.800	-92.835	-88.028	-2.975	98.251	-88.524	-84.679	-84.021	-78.973	-22.466	-79.918	-8191	255	
7503.057	1	1	0	0	0.2142	0.23877	0.076934	0.23162	0.042222	0.058924	0.22751	0.13601	0.094967	0.14797	0.11827	0.28549	0.12923	0.14541	0.072002	0.08958	-0.41042	0.045833	-0.089583	-0.92708	0.19167	-0.5125	-0.65208	-0.052083	-0.7	-0.025	-0.175	-0.95417	0.14375	-0.55208	-0.24375	0.095833	-19.620	74.999	-76.673	-69.455	-83.443	68.622	169.784	225.458	142.602	26.954	192.170	252.090	-73.822	186.434	190.317	141.036	0.00042732	0.0004217	0.0001759	1248.1	3.7105e-06	8.5133e-06	1252.2	338.48	9.9176e-06	3.4147e-06	390.59	132.37	113.07	39.379	6.5521e-06	49.149	0.00084319	0.00097547	0.00024722	1279.8	9.5233e-06	1.0653e-05	1289.5	348.02	9.8864e-06	1.0743e-05	404.19	137.18	119.5	41.228	9.7568e-06	51.275	122.884	32.336	-34.096	-92.845	10.596	47.412	-92.863	-87.832	-79.961	66.990	-88.567	-84.442	-83.997	-78.985	55.514	-79.731	-8191	255	
7503.178	1	1	0	0	0.24406	0.089068	0.42304	0.2437	0.21877	0.24538	0.27432	0.19661	0.21221	0.23146	0.058693	0.031032	0.22983	0.35269	0.10737	0.030977	-0.34375	-0.20208	0.00625	-1.1333	-0.15	-0.38542	-0.91042	0.072917	-0.81042	-0.24583	-0.1875	-0.94375	-0.06875	-0.35208	-0.7375	0.18958	29.150	-101.859	-45.469	245.965	127.504	103.829	244.816	238.546	-101.963	120.024	166.531	125.764	164.567	181.621	99.858	157.393	0.00050636	0.00086399	0.00018112	1250.6	1.9834e-06	5.2048e-06	1252.7	337.89	6.7081e-06	7.0729e-06	390.84	131.24	113.35	39.515	4.9252e-06	49.07	0.00089998	0.00096567	0.00024596	1281.2	1.0061e-05	1.0406e-05	1290.6	347.33	1.0323e-05	1.043e-05	403.88	136.75	119.79	41.168	9.5912e-06	51.27	133.245	4.556	13.847	-92.721	100.022	20.478	-93.033	-87.817	-25.683	69.818	-88.694	-84.655	-84.119	-79.265	7.226	-80.119	-8191	255	
7503.274	1	1	0	0	0.19465	0.20244	0.2298	0.37286	0.12527	0.16396	0.41296	0.24892	0.19844	0.13775	0.039092	0.19406	0.31878	0.082728	0.20371	0.11784	-0.225	-0.29375	0.31667	-0.81042	0.097917	-0.14375	-0.94375	0.077083	-0.59167	-0.375	-0.00625	-0.68958	-0.10417	-0.29375	-0.67083	0.06875	-33.800	90.583	228.461	-86.200	-34.988	214.337	133.503	186.740	209.660	169.535	-94.433	227.755	-54.690	140.426	126.399	-67.703	0.00052309	0.0011682	0.00011445	1249.3	7.5798e-06	4.7178e-06	1256	338.07	3.1933e-06	2.7939e-06	387.26	131.41	113.67	39.146	4.3892e-06	48.911	0.00093453	0.00093648	0.0002355	1279.9	1.045e-05	1.0027e-05	1291	347.69	1.0591e-05	9.9801e-06	402.21	137.07	119.89	41.042	9.2685e-06	51.207	132.602	-8.779	-32.689	-92.835	76.048	38.501	-92.932	-88.269	-48.698	10.548	-88.717	-84.585	-84.122	-79.229	-5.703	-80.135	-8191	255	
7503.346	1	1	0	0	0.11663	0.196	0.035724	0.26958	0.36812	0.13729	0.20038	0.36048	0.13149	0.20977	0.046021	0.07629	0.22899	0.26802	0.22535	0.085214	-0.2625	-0.43542	0.13958	-0.96458	-0.14583	0.13542	-1	-0.0125	-0.46875	-0.39375	0.04375	-0.77292	-0.21458	-0.070833	-0.72083	-0.0125	231.361	78.498	-21.702	237.645	34.876	56.636	249.779	-105.247	119.910	141.056	250.958	-104.944	242.976	-74.402	243.331	-39.788	0.00041588	0.00099834	0.00015101	1251.1	3.5159e-06	9.9087e-06	1256.5	338.13	6.1874e-06	2.2291e-06	391.17	131.8	113.82	39.247	6.879e-06	48.96	0.00094256	0.0009107	0.00022802	1283	1.0612e-05	9.6541e-06	1288.7	348	1.0387e-05	9.7078e-06	402.56	137.58	119.98	40.964	9.1253e-06	51.343	121.019	-38.417	-23.932	-92.747	40.535	16.617	-92.922	-88.167	10.602	-59.035	-88.706	-84.374	-84.289	-79.143	2.109	-80.188	-8191	255	
7503.442	1	1	0	0	0.068765	0.077392	0.094825	0.15653	0.12568	0.07162	0.31761	0.44182	0.054619	0.17414	0.063496	0.21459	0.11308	0.39638	0.28624	0.26253	0.029167	-0.64375	0.45417	-0.78958	-0.3625	0.275	-0.87083	-0.15	-0.20417	-0.71042	0.097917	-0.63542	-0.30833	0.058333	-0.95625	-0.16458	-28.615	-18.607	23.344	210.658	77.815	-92.776	152.428	193.489	163.266	-40.033	200.114	216.285	81.047	227.986	-38.140	216.229	0.00039008	0.00071767	0.00010841	1244.2	4.6753e-06	2.56e-06	1252.5	339.01	6.3549e-06	6.7993e-06	388.41	131.15	113.59	39.289	5.4822e-06	48.753	0.00091985	0.00087735	0.0002271	1283.1	1.0223e-05	9.3828e-06	1288.4	349.17	1.0131e-05	9.5712e-06	402.7	137.48	119.71	40.963	9.2471e-06	51.434	143.053	-1.936	-57.001	-92.825	28.029	46.277	-92.991	-88.268	-7.781	63.850	-88.546	-84.613	-84.381	-79.031	-12.206	-79.962	-8191	255	
7503.563	1	1	0	0	0.016213	0.15981	0.14972	0.13513	0.14323	0.31783	0.2993	0.028368	0.14488	0.11777	0.40211	0.028308	0.21368	0.19068	0.14499	0.061861	0.33333	-0.69792	0.4	-0.9125	-0.50208	0.175	-0.79583	-0.4125	0.064583	-0.74375	0.010417	-0.51458	-0.60625	-0.06875	-0.90417	-0.24375	63.941	170.264	18.560	249.342	48.549	-80.255	-63.286	246.563	-97.700	-95.301	-97.509	-33.689	-33.618	252.078	-39.245	-34.971	0.00033822	0.00048128	0.00018182	1247.2	4.9457e-06	7.8058e-06	1256.6	338.78	6.211e-06	4.8068e-06	391.25	131.91	113.64	39.148	1.5299e-06	48.919	0.00088586	0.00087276	0.00023714	1285.9	9.9902e-06	9.2474e-06	1290	348.95	9.7771e-06	9.3812e-06	404.1	137.6	119.56	40.888	9.893e-06	51.481	114.443	-41.100	76.144	-92.789	-41.398	53.309	-92.816	-88.256	49.985	82.327	-88.613	-84.795	-84.115	-79.248	214.606	-80.173	-8191	255	
7503.657	1	1	0	0	0.084673	0.19353	0.18418	0.13045	0.10218	0.21406	0.28129	0.51221	0.39855	0.12464	0.047915	0.17111	0.15746	0.15357	0.046634	0.20161	0.35833	-0.72083	0.24375	-0.68125	-0.4	0.1875	-0.69167	-0.375	0.14375	-0.75833	-0.054167	-0.57708	-0.65417	0.33958	-0.54375	-0.475	36.943	29.231	-31.425	243.558	126.316	180.380	-81.720	180.676	-91.717	-90.259	136.050	246.627	-9.053	223.331	194.180	-0.157	0.00049619	0.00039055	0.00012988	1257.8	1.4849e-06	3.5476e-06	1257.9	336.92	3.7597e-06	6.4787e-06	390.34	131.19	114.74	39.563	3.2584e-06	49.156	0.0008631	0.00084915	0.00025383	1286.5	9.6007e-06	9.0255e-06	1290.9	347.96	9.4449e-06	9.1337e-06	404.53	137.41	119.38	41.001	1.0355e-05	51.378	139.310	-31.651	-44.267	-92.749	12.070	33.255	-93.003	-88.234	12.860	-33.799	-88.670	-84.679	-84.132	-79.673	-75.833	-80.262	-8191	255	
7503.755	1	1	0	0	0.26707	0.28428	0.2953	0.18124	0.10894	0.19108	0.25985	0.14449	0.16598	0.14509	0.2722	0.2639	0.14324	0.38131	0.28818	0.23097	0.45833	-0.58125	0.06875	-0.21458	-0.5875	0.2375	-0.82708	-0.56042	0.26042	-0.56042	0.0020833	-0.175	-0.75417	0.075	-0.38958	-0.43333	-96.759	236.978	132.378	228.069	152.584	185.330	199.893	203.283	139.754	251.011	177.329	-96.950	-88.801	206.074	215.420	155.392	0.00042949	0.00038641	8.7682e-05	1253.7	6.6952e-06	1.9584e-06	1260.7	339.04	5.8406e-06	1.2724e-06	392.23	132.77	115.11	39.339	6.627e-06	49.334	0.00084579	0.00084359	0.00026548	1284.5	9.5057e-06	9.2804e-06	1295.7	348	9.289e-06	9.4306e-06	405.11	137.39	119.37	40.906	1.0762e-05	51.333	140.070	9.965	-97.193	-93.097	42.949	75.619	-92.991	-88.266	7.738	45.440	-88.997	-85.038	-84.888	-79.668	30.391	-80.386	-8191	255	
7503.874	1	1	0	0	0.20573	0.1695	0.22451	0.17707	0.30515	0.14089	0.14931	0.21935	0.15437	0.23369	0.26108	0.025907	0.23306	0.05724	0.081698	0.19419	0.5625	-0.6	-0.010417	-0.24583	-0.83542	0.19167	-0.625	-0.59583	0.14792	-0.57083	-0.28125	-0.11458	-0.8125	0.033333	-0.525	-0.6625	102.964	-74.890	166.161	185.336	58.946	15.545	240.355	233.819	156.456	36.345	-105.944	-23.770	199.528	-102.021	193.187	145.345	0.00044369	0.00062791	0.00015111	1253.5	1.7404e-06	4.2327e-06	1262.6	339.75	2.3421e-06	2.0579e-06	390.86	131.92	114.45	39.323	4.2095e-06	49.273	0.00082422	0.00089352	0.00027299	1281.6	9.248e-06	9.8112e-06	1295.7	348.16	9.1014e-06	9.912e-06	405.24	136.97	119.23	41.06	1.0467e-05	51.361	133.330	192.493	10.281	-93.309	211.152	90.368	-93.277	-88.474	13.202	229.078	-88.925	-84.728	-84.660	-79.358	14.601	-80.261	-8191	255	
7503.945	1	1	0	0	0.24833	0.19498	0.10205	0.079056	0.10787	0.061852	0.22196	0.27138	0.22094	0.27696	0.15018	0.070576	0.066398	0.094787	0.2803	0.33136	0.725	-0.65417	-0.14375	-0.12083	-0.71458	0.28125	-0.39375	-0.76875	0.18333	-0.65	-0.51458	0.125	-0.56667	-0.095833	-0.19375	-0.65208	213.978	136.371	-70.954	52.340	34.469	-43.750	142.645	127.061	41.728	-90.469	239.768	192.293	137.692	7.326	112.433	-47.740	0.00043243	0.00047364	0.00012072	1257.5	4.0235e-06	6.0281e-06	1260.2	338.94	6.9869e-06	3.2905e-06	392.57	132.31	114.62	39.531	2.0135e-06	49.02	0.00081793	0.00093933	0.00026573	1282.1	9.1609e-06	1.0249e-05	1293.5	347.89	9.0719e-06	1.052e-05	405.35	136.98	119.44	41.18	1.0119e-05	51.207	142.658	82.924	-49.205	-92.782	24.840	72.850	-93.069	-88.504	-49.456	-5.964	-88.845	-84.771	-84.304	-79.670	-27.484	-80.486	-8191	255	
7504.042	1	1	0	0	0.13938	0.11095	0.14563	0.12577	0.31063	0.096409	0.10533	0.13917	0.26466	0.12934	0.34916	0.24878	0.36502	0.21686	0.060987	0.20114	0.3375	-0.4875	-0.23542	-0.04375	-0.65833	-0.10417	-0.29375	-0.8625	0.33333	-0.55	-0.46667	0.13958	-0.78125	-0.30208	0.016667	-0.96875	16.232	145.176	-94.040	-102.628	-6.381	168.867	-76.165	52.235	-87.508	182.078	180.405	-51.905	-42.067	253.091	-17.130	246.904	0.00042411	0.00084401	0.00019498	1254	2.698e-06	7.6705e-06	1259.8	340.08	2.0171e-06	8.293e-06	391.67	131.57	114.06	39.43	8.371e-06	49.019	0.00082052	0.00097815	0.00025754	1282.1	9.4745e-06	1.0722e-05	1289.5	347.67	9.5334e-06	1.0823e-05	404.31	136.78	119.44	41.167	9.8366e-06	51.183	140.582	-34.595	-23.098	-92.831	27.094	112.071	-92.871	-88.327	41.210	17.814	-88.577	-84.455	-84.385	-79.313	46.195	-80.093	-8191	255	
7504.162	1	1	0	0	0.047946	0.088487	0.24231	0.23402	0.035863	0.31139	0.36696	0.26112	0.10132	0.030357	0.28514	0.13522	0.32751	0.2031	0.24396	0.23409	0.52708	-0.4375	-0.57083	0.1	-0.56667	-0.24375	-0.19583	-0.91875	0.12292	-0.375	-0.79375	0.30625	-0.76667	-0.29583	-0.00625	-0.78958	76.585	63.174	47.082	229.550	72.945	241.083	198.238	216.759	-9.242	107.475	-73.834	-65.156	-99.505	190.653	97.886	235.036	0.00052456	0.00065686	7.0429e-05	1251.9	3.2446e-06	2.6533e-06	1251	337.07	1.6485e-06	4.8949e-06	392	131.44	114.26	39.488	5.7591e-06	49.125	0.00088165	0.00097685	0.00024984	1279	9.9924e-06	1.068e-05	1288	347.05	1.011e-05	1.0546e-05	403.59	136.46	119.98	41.176	9.4316e-06	51.12	126.749	43.811	-56.614	-92.940	-3.844	46.205	-92.893	-88.140	-68.137	6.741	-88.648	-84.706	-84.010	-79.499	1.501	-80.147	-8191	255	
7504.258	1	1	0	0	0.1227	0.2216	0.11586	0.3711	0.11845	0.24565	0.23866	0.1852	0.071316	0.14379	0.1091	0.25185	0.22092	0.35043	0.22481	0.25809	0.36667	-0.30208	-0.69167	-0.010417	-0.75625	-0.30208	-0.05625	-0.96667	-0.039583	-0.13958	-0.97083	0.03125	-0.4625	-0.53333	0.21458	-0.9	-28.092	76.616	247.345	190.546	-31.784	243.951	230.803	213.813	158.828	96.118	214.086	-89.919	-16.848	222.892	-7.917	221.071	0.00046589	0.00053543	0.0002747	1257.4	8.902e-07	1.501e-05	1260.9	338.66	2.8405e-06	4.7946e-06	390.87	131.09	114.07	39.37	1.9048e-06	49.205	0.00092275	0.00094276	0.00024431	1279.5	1.0431e-05	1.0297e-05	1288.8	347.76	1.0712e-05	1.0109e-05	403.62	136.78	120.07	41.12	9.1792e-06	51.336	131.325	16.468	-42.412	-93.153	5.336	16.530	-92.972	-88.361	-47.884	39.071	-88.804	-84.678	-84.105	-79.424	9.736	-79.869	-8191	255	
7504.354	1	1	0	0	0.20399	0.18383	0.32689	0.19173	0.091982	0.095285	0.13138	0.37304	0.046693	0.16259	0.50083	0.31971	0.16232	0.21557	0.16505	0.090027	0.36875	-0.1	-0.77292	0.091667	-0.48333	-0.57083	0.066667	-0.77292	-0.089583	-0.13333	-0.8625	0.089583	-0.25417	-0.65417	0.1125	-0.75208	47.531	-9.210	3.108	230.786	-31.259	-48.735	252.905	196.173	99.459	46.260	219.153	227.312	88.549	216.604	236.097	223.294	0.00042664	0.00067443	0.00010755	1247.3	7.202e-06	8.4949e-06	1260.5	339.46	3.615e-06	5.3777e-06	393.18	132.12	114.22	39.273	5.1925e-06	48.895	0.00094823	0.00090172	0.00023771	1278.7	1.0597e-05	9.869e-06	1289.1	348.63	1.0692e-05	9.7024e-06	403.87	137.17	119.95	41.013	8.9397e-06	51.376	126.985	-6.383	243.663	-92.631	-55.901	49.067	-93.050	-88.205	-65.637	128.014	-89.035	-85.136	-84.187	-79.291	-44.880	-80.018	-8191	255	
7504.475	1	1	0	0	0.098263	0.19385	0.10579	0.13847	0.17168	0.27474	0.33706	0.082413	0.23496	0.098036	0.2863	0.24437	0.10302	0.11172	0.23937	0.18833	0.20625	-0.0875	-0.80833	-0.25625	-0.43542	-0.62917	-0.15625	-0.85833	-0.2	0.027083	-0.78542	0.03125	-0.5625	-0.63125	0.075	-0.87708	-103.326	234.976	154.198	216.206	-64.974	30.334	161.918	220.698	136.327	-51.829	200.582	-66.122	146.707	225.824	39.435	222.774	0.00031847	0.00061235	0.00014593	1253.5	5.3674e-06	4.1614e-06	1264.8	340.14	3.8405e-06	5.686e-06	391.25	132.12	113.85	39.403	2.032e-06	49.164	0.00093174	0.00087314	0.00023175	1283.5	1.0391e-05	9.6337e-06	1287.8	349.16	1.041e-05	9.5161e-06	403.2	137.55	119.82	41.043	9.0173e-06	51.411	134.571	23.411	-29.279	-93.074	-1.234	15.163	-93.015	-88.285	39.009	48.407	-89.001	-84.899	-84.416	-79.527	-27.113	-80.349	-8191	255	
7504.571	1	1	0	0	0.058618	0.075984	0.35314	0.4121	0.19762	0.23433	0.15598	0.2537	0.131	0.29034	0.16159	0.34959	0.27562	0.39665	0.22824	0.26073	0.095833	0.1625	-0.74583	-0.22083	-0.2875	-0.75	0.06875	-0.71042	-0.47083	0.075	-0.93958	-0.12917	-0.1875	-0.79792	0.18542	-0.63125	48.426	69.117	-51.551	170.661	205.265	107.220	-39.735	222.435	-8.762	-23.138	186.215	219.917	236.897	237.574	170.568	215.967	0.00041098	0.00086314	0.00011438	1253.7	4.3776e-06	6.6919e-06	1258.8	339.79	3.4278e-06	3.2942e-06	391.5	131.99	113.96	39.444	1.3748e-07	49.098	0.00090432	0.00085881	0.00023603	1284.5	9.9175e-06	9.4337e-06	1288.3	349.59	1.004e-05	9.2587e-06	404.36	137.73	119.56	40.991	9.6161e-06	51.639	129.774	-51.285	195.501	-93.120	95.357	10.523	-93.135	-88.196	-28.114	94.775	-88.746	-84.754	-84.286	-79.339	19.164	-79.771	-8191	255	
7504.643	1	1	0	0	0.098074	0.12082	0.12612	0.18555	0.18096	0.32739	0.38481	0.094346	0.15029	0.063245	0.22165	0.10519	0.13467	0.3214	0.2206	0.23814	-0.30833	0.089583	-0.71458	-0.46667	0.0083333	-0.8125	-0.12083	-0.60625	-0.62083	0.44375	-0.78542	-0.36458	-0.12708	-0.69583	-0.03125	-0.45833	-43.097	-6.338	-6.126	-95.737	-88.918	24.914	-104.695	194.660	208.503	70.774	120.303	-57.073	206.960	247.051	128.852	-73.856	0.00045898	0.00072324	2.7518e-05	1249.5	7.0352e-06	3.1713e-06	1261.7	340.34	2.7118e-06	3.2669e-06	393.5	131.87	113.33	39.384	3.8437e-06	48.966	0.00088213	0.00082988	0.00024868	1283.5	9.58e-06	9.2412e-06	1290.5	349.46	9.7429e-06	8.9541e-06	405.58	137.54	118.99	41.008	1.0129e-05	51.453	142.369	-4.512	-3.849	-92.674	31.928	41.038	-93.118	-88.120	26.612	-13.702	-88.803	-84.552	-83.884	-79.188	35.249	-79.774	-8191	255	
7504.762	1	1	0	0	0.10702	0.097502	0.087085	0.21593	0.22564	0.2468	0.097594	0.093748	0.23375	0.1096	0.068111	0.22241	0.33243	0.27663	0.051276	0.10175	-0.24792	0.23125	-0.54167	-0.37292	0.17083	-0.77292	-0.022917	-0.33125	-0.65208	0.052083	-0.68542	-0.32708	-0.014583	-0.78958	0.11458	-0.24583	215.905	-101.404	46.187	225.929	169.765	104.245	236.374	249.390	-17.105	-89.805	104.603	-91.701	-101.841	210.717	-91.055	116.490	0.00056743	0.00033288	9.0973e-05	1247.2	4.6579e-07	4.4124e-06	1253	336.86	5.1365e-06	6.822e-06	389.46	131.1	113.87	39.118	1.0376e-06	48.95	0.00085641	0.00083265	0.000264	1281.7	9.4288e-06	9.2737e-06	1290.3	348.23	9.5713e-06	9.1872e-06	404.59	137.2	118.85	40.86	1.0645e-05	51.38	129.887	159.180	-84.021	-92.868	108.309	-0.777	-93.215	-87.965	56.772	9.622	-88.429	-84.616	-84.055	-79.105	132.387	-79.929	-8191	255	
7504.858	1	1	0	0	0.038509	0.18282	0.26364	0.13866	0.057385	0.065441	0.16125	0.27301	0.042116	0.025993	0.0067403	0.51186	0.2462	0.10279	0.11612	0.13623	-0.18125	0.06875	-0.49375	-0.40625	0.125	-0.6	-0.29375	-0.13958	-0.73125	0.0625	-0.4875	-0.56458	-0.033333	-1.0542	-0.19375	-0.11458	130.553	72.152	-55.822	175.479	64.189	122.267	92.222	192.725	-60.280	179.409	148.400	215.091	183.683	180.457	21.973	180.001	0.000433	0.00064609	0.00027792	1247.3	8.5685e-06	2.1158e-06	1244.4	337.78	2.3218e-06	3.3798e-06	392.05	131.48	114.19	39.372	7.2254e-06	48.616	0.00084116	0.0008672	0.00027104	1280.1	9.0745e-06	9.6167e-06	1290.4	347.94	9.3649e-06	9.6901e-06	405.15	136.91	118.88	41.049	1.0553e-05	51.216	126.773	-90.394	23.065	-92.869	8.107	27.763	-92.860	-87.956	74.421	87.368	-88.713	-84.887	-84.259	-79.247	0.177	-79.777	-8191	255	
7504.954	1	1	0	0	0.083403	0.26829	0.25992	0.089616	0.19903	0.24622	0.24263	0.079258	0.045196	0.15442	0.17672	0.13475	0.12662	0.062585	0.23994	0.082291	-0.33542	0.11875	-0.44167	-0.71875	0.085417	-0.775	-0.4625	-0.28958	-0.83958	0.06875	-0.30417	-0.75	0.31042	-0.72292	-0.32917	0.06875	-25.942	216.258	82.491	-47.272	-8.958	-63.016	-37.568	155.767	198.166	99.098	175.657	135.981	85.591	85.988	29.419	-68.272	0.00038584	0.00068844	7.8592e-05	1242.1	7.5109e-06	9.1477e-06	1242.9	337.89	3.6025e-06	2.227e-06	391.72	131.5	113.91	39.359	1.1161e-06	49.215	0.00082735	0.00091751	0.00026428	1279.6	8.9545e-06	1.0231e-05	1289.5	347.89	9.1977e-06	1.0398e-05	405.17	137.12	118.92	41.146	1.0285e-05	51.184	126.715	-59.873	-0.904	-92.741	51.555	142.951	-92.824	-88.037	-1.248	21.804	-88.818	-84.569	-84.495	-79.435	-52.620	-80.187	-8191	255	
7505.050	1	1	0	0	0.19202	0.17219	0.17098	0.25386	0.36461	0.035094	0.097359	0.054069	0.14636	0.24312	0.34273	0.30638	0.1367	0.05066	0.029041	0.25583	-0.24583	0.00625	-0.31458	-0.96667	0.28333	-0.66875	-0.50417	0.01875	-0.87708	-0.072917	-0.29375	-0.90208	-0.041667	-0.64583	-0.62292	0.060417	214.291	-87.893	21.201	-69.461	76.731	-104.043	66.745	98.895	150.092	-74.799	181.937	236.991	-74.206	226.462	76.511	-61.310	0.00051883	0.00057048	0.00013413	1247.6	2.2222e-06	4.2701e-06	1253.2	338.64	2.8228e-06	5.3334e-06	390.08	130.89	113.08	39.202	6.5254e-06	48.845	0.00081858	0.00095591	0.00025599	1280.2	9.1791e-06	1.0531e-05	1289.4	347.27	9.344e-06	1.0713e-05	403.78	136.5	118.99	41.117	9.8844e-06	51.116	133.558	-23.278	-24.258	-92.784	109.399	-8.104	-93.132	-88.202	64.834	42.555	-88.684	-84.671	-83.954	-79.194	78.872	-79.832	-8191	255	
7505.146	1	1	0	0	0.041028	0.32915	0.12972	0.30552	0.19992	0.16526	0.3038	0.20966	0.14571	0.18153	0.0079983	0.14085	0.30778	0.039973	0.075016	0.14373	-0.3625	-0.05	-0.033333	-1.0896	-0.0083333	-0.43333	-0.75833	-0.025	-0.77708	-0.25417	-0.42083	-0.85625	0.225	-0.63958	-0.69583	-0.13958	8.803	-45.973	-91.201	179.337	-80.736	142.319	175.801	231.774	52.615	32.300	-95.859	178.362	206.687	38.249	-88.430	-99.382	0.00046175	0.0011861	0.0001488	1245.5	2.0722e-06	7.6288e-06	1254	339.58	1.193e-05	1.007e-05	391.91	131.23	113.22	39.078	1.8389e-06	48.841	0.00084111	0.00097185	0.00024562	1278.3	9.656e-06	1.0588e-05	1289.3	347.9	9.8306e-06	1.0523e-05	403.58	136.56	119.63	41.195	9.6206e-06	51.063	136.876	8.043	22.823	-92.736	96.115	71.765	-93.017	-88.108	-27.382	9.639	-88.551	-84.754	-84.046	-79.066	-39.141	-79.885	-8191	255	
7505.243	1	1	0	0	0.09199	0.17175	0.23173	0.13023	0.13713	0.067522	0.087174	0.066187	0.16509	0.26136	0.30725	0.095079	0.19269	0.11316	0.030245	0.098829	-0.43958	-0.26875	-0.00625	-1.0438	0.06875	-0.5375	-1.0167	-0.029167	-0.65833	-0.34583	-0.23333	-0.875	-0.22292	-0.46667	-0.58333	-0.0625	158.375	106.088	-51.667	-75.564	-70.963	62.235	248.938	146.893	-62.040	206.576	232.193	192.109	152.275	252.999	24.925	-50.368	0.00029451	0.00093638	0.00011884	1247	1.0806e-06	4.2526e-06	1247	337.08	3.711e-06	4.2134e-06	388.07	131.66	112.91	39.3	2.7253e-06	48.924	0.00090389	0.00094907	0.00023932	1276.9	1.0119e-05	1.0173e-05	1287.1	346.68	1.0309e-05	1.0261e-05	402.9	136.87	119.58	41.104	9.395e-06	51.161	135.259	-10.954	9.242	-92.811	-92.243	119.646	-92.739	-88.028	-4.521	52.695	-88.670	-84.542	-84.133	-79.089	32.284	-79.805	-8191	255	
7505.339	1	1	0	0	0.17641	0.19573	0.1637	0.40904	0.32754	0.20423	0.39077	0.36108	0.30001	0.16033	0.30016	0.28736	0.1556	0.091488	0.34469	0.29921	-0.14167	-0.54375	0.17292	-1.1313	-0.12083	-0.15417	-1.2	-0.075	-0.54375	-0.65417	0.13333	-0.84583	-0.16042	-0.20625	-0.91458	0.00625	33.347	4.959	76.569	-99.540	134.270	161.002	153.441	211.336	91.193	-101.547	204.637	-93.672	132.744	175.320	-10.647	140.334	0.00052374	0.00075624	0.00021769	1246.4	3.3988e-06	8.0457e-06	1248.9	335.25	2.0451e-06	6.9908e-06	387.88	130.5	113.11	39.086	6.4161e-06	48.868	0.00093493	0.00091169	0.00023329	1280.9	1.0548e-05	9.657e-06	1288.1	347.03	1.0573e-05	9.8345e-06	402.14	136.88	119.72	40.98	9.1962e-06	51.271	132.112	-48.970	33.006	-92.631	-74.843	27.826	-92.589	-87.950	216.327	47.614	-88.491	-84.607	-83.978	-78.992	42.749	-79.537	-8191	255	
7505.435	1	1	0	0	0.10634	0.12381	0.38593	0.054318	0.15387	0.16724	0.11271	0.24345	0.18407	0.19761	0.16297	0.28875	0.23957	0.08718	0.23804	0.27625	-0.0125	-0.58125	0.077083	-0.9	-0.22917	-0.11458	-1.0417	0.033333	-0.43958	-0.55	-0.029167	-0.88333	-0.34375	-0.29583	-0.80417	-0.14375	177.548	191.341	-105.613	84.560	129.305	239.250	241.589	219.825	-56.737	1.081	120.198	243.655	58.690	241.727	47.465	186.534	0.00054809	0.00072175	0.00018583	1251.7	5.5318e-06	3.4777e-06	1262.2	337.78	3.5981e-06	8.0926e-07	388.53	130.72	112.87	39.298	4.6357e-06	48.498	0.00093127	0.00088503	0.00022744	1282.7	1.0613e-05	9.4872e-06	1288.2	348.35	1.0291e-05	9.6408e-06	402.08	137.04	119.54	41.015	9.1244e-06	51.225	142.644	22.932	1.478	-92.957	6.787	-10.260	-92.847	-87.933	-48.983	132.811	-88.606	-84.611	-84.236	-79.070	40.298	-79.829	-8191	255	
7505.556	1	1	0	0	0.1019	0.083737	0.072052	0.16464	0.085507	0.38151	0.19122	0.095828	0.21776	0.1256	0.15307	0.14782	0.33707	0.24596	0.099721	0.04967	-0.029167	-0.66875	0.070833	-0.8625	-0.37292	0.066667	-0.95417	-0.36875	-0.21667	-0.78542	-0.089583	-0.53958	-0.61875	-0.09375	-0.93958	-0.21042	186.319	-2.452	-89.349	225.450	105.546	120.975	138.748	-18.683	177.775	190.064	187.009	253.421	164.868	184.674	20.170	67.784	0.00038378	0.00048247	0.00014409	1244.5	6.5368e-06	8.2762e-06	1244.8	335.83	1.6786e-06	1.0554e-06	389.7	130.5	112.77	39.182	2.5941e-06	49.018	0.00089846	0.00085985	0.00022739	1281.3	1.0043e-05	9.282e-06	1285.9	347.94	9.8881e-06	9.3999e-06	403.03	137.37	119.36	40.894	9.5135e-06	51.461	117.798	8.766	-25.195	-92.585	-23.867	78.749	-92.734	-88.119	-19.866	32.730	-88.770	-84.649	-84.247	-79.017	109.640	-79.974	-8191	255	
7505.650	1	1	0	0	0.18885	0.20746	0.24472	0.1616	0.15595	0.32593	0.21785	0.36113	0.30701	0.11996	0.30431	0.2642	0.38799	0.31332	0.2109	0.10178	0.17708	-0.73542	0.15833	-0.82083	-0.50417	0.17083	-0.99167	-0.30625	-0.0020833	-0.90417	-0.17083	-0.47917	-0.57917	0.05	-0.625	-0.39375	89.930	30.046	162.267	-99.830	167.718	103.589	247.064	130.727	-6.835	153.075	230.672	247.419	-21.754	-57.507	-96.841	-92.241	0.00053925	0.00097663	0.00021626	1250.1	5.5153e-06	4.4676e-06	1252.7	337.42	3.4868e-06	4.4244e-06	389.05	131.81	114.31	39.381	2.1239e-06	49.262	0.00086523	0.00085322	0.00024227	1284.9	9.8792e-06	9.0734e-06	1290.2	348.26	9.6117e-06	9.2489e-06	403.55	137.45	119.33	40.9	1.0027e-05	51.544	132.665	-10.830	143.090	-92.767	58.516	4.879	-92.827	-88.154	-40.372	-9.590	-88.750	-84.846	-84.337	-79.229	228.679	-80.110	-8191	255	
7505.746	1	1	0	0	0.16581	0.15872	0.20329	0.24698	0.13063	0.21653	0.19749	0.077423	0.35899	0.22988	0.12046	0.21319	0.1843	0.21049	0.13538	0.37793	0.31667	-0.9375	0.18125	-0.56667	-0.67917	0.38542	-1.1208	-0.575	-0.072917	-1.0354	-0.064583	-0.26667	-0.81458	0.12292	-0.60625	-0.64375	195.955	172.990	-51.264	219.727	219.412	32.027	227.696	196.668	201.885	84.725	196.109	178.263	11.330	139.366	-45.669	131.522	0.00040752	0.0012277	6.9254e-05	1252.4	3.5655e-06	4.8646e-06	1257.9	338.49	2.4278e-06	4.3556e-06	392.27	131.86	113.56	39.633	4.3383e-06	49.203	0.00084186	0.000832	0.00025569	1283.1	9.627e-06	8.9367e-06	1292.2	348.27	9.4052e-06	9.2662e-06	404.52	137.22	119.35	40.969	1.0692e-05	51.431	139.810	28.757	25.395	-93.157	76.870	65.527	-93.061	-88.365	-68.205	40.388	-88.975	-84.703	-84.538	-79.653	54.027	-80.533	-8191	255	
7505.844	1	1	0	0	0.15417	0.19743	0.21733	0.26443	0.045979	0.078585	0.58001	0.15038	0.2368	0.34872	0.2747	0.14839	0.2622	0.34187	0.027398	0.1874	0.45417	-0.78542	0.060417	-0.2	-0.62083	-0.01875	-0.72083	-0.63542	-0.05	-0.8	-0.24792	-0.19375	-0.84375	-0.033333	-0.725	-0.83333	71.614	200.683	71.969	232.471	-36.008	86.922	229.976	-68.967	-77.126	-102.629	251.654	219.932	149.949	200.465	-1.792	248.169	0.00049079	0.00036925	7.5264e-05	1256	6.7376e-06	5.5441e-06	1253.8	338.82	3.556e-06	3.3462e-06	393.19	132.01	113.75	39.349	2.9317e-06	49.035	0.00084302	0.00086877	0.00027317	1284.4	9.5885e-06	9.4224e-06	1292.1	347.92	9.3742e-06	9.8782e-06	405.91	137.14	119.04	40.913	1.0844e-05	51.243	117.971	-102.088	-1.640	-92.976	30.865	113.056	-93.116	-88.509	38.479	94.260	-89.082	-85.070	-84.757	-79.532	24.370	-80.363	-8191	255	
7505.938	1	1	0	0	0.086944	0.052733	0.04638	0.33901	0.18604	0.31921	0.18335	0.14035	0.19877	0.39582	0.16073	0.24981	0.070213	0.11468	0.14556	0.17168	0.66042	-0.49375	-0.091667	-0.33958	-0.65417	-0.0375	-0.68958	-0.75833	0.19375	-0.76667	-0.38125	-0.15833	-0.9125	-0.20833	-0.40833	-0.91667	34.042	120.323	68.844	184.743	-0.617	122.342	154.690	-101.378	58.266	224.742	158.139	171.846	78.774	120.079	63.207	52.766	0.00035813	0.00034695	0.00034001	1254.2	3.4287e-06	2.659e-07	1260.9	339.27	6.5744e-06	4.9268e-06	391.39	131.61	114.09	39.372	2.5797e-06	48.81	0.0008266	0.00092146	0.00027617	1279.5	9.4516e-06	1.0183e-05	1293.1	347.78	9.2849e-06	1.0443e-05	405.31	136.67	119.06	41.025	1.056e-05	51.188	138.740	-63.129	25.576	-92.988	10.984	140.088	-93.030	-88.724	33.667	29.526	-89.167	-84.982	-84.417	-79.448	142.859	-80.159	-8191	255	
7506.035	1	1	0	0	0.14388	0.056515	0.23961	0.37635	0.11793	0.27888	0.32693	0.21874	0.031208	0.23392	0.13402	0.1591	0.13663	0.1779	0.20394	0.12536	0.64583	-0.71042	-0.33125	-0.085417	-0.7875	-0.033333	-0.47708	-0.88542	0.10417	-0.79375	-0.38125	0.035417	-0.69792	-0.066667	-0.35	-0.78333	57.512	100.757	71.834	189.974	-43.173	47.255	-75.781	124.535	208.218	23.255	25.145	121.527	-106.017	136.074	-42.458	-57.991	0.00047095	0.00045931	0.00014071	1251.6	5.1255e-06	3.0964e-06	1260.5	338.3	2.132e-06	2.2241e-06	392.23	132	113.96	39.295	4.1472e-06	48.895	0.00082476	0.00098127	0.00027091	1280.2	9.3845e-06	1.0786e-05	1291.6	347.58	9.4375e-06	1.0933e-05	404.06	136.74	119.16	41.085	1.0143e-05	51.063	112.752	53.886	-23.082	-93.085	31.519	-27.501	-93.348	-88.416	46.215	-46.661	-88.797	-85.028	-84.295	-79.621	105.563	-80.458	-8191	255	
7506.155	1	1	0	0	0.22401	0.22915	0.078821	0.36695	0.10737	0.16522	0.44808	0.49959	0.092628	0.15108	0.2696	0.0907	0.16454	0.060627	0.095871	0.18547	0.725	-0.39375	-0.575	-0.097917	-0.8	-0.16875	-0.34167	-0.85833	0.10417	-0.39792	-0.75833	0.091667	-0.7	-0.35208	-0.072917	-0.93333	-26.338	191.461	-97.287	-93.923	-49.443	154.213	230.784	205.335	68.836	-19.714	238.231	140.710	131.345	101.343	190.651	-66.011	0.00038859	0.0007026	0.00017284	1254	5.32e-06	9.3612e-06	1255.3	339.02	3.3021e-06	3.2464e-06	390.97	131.65	114.14	39.151	3.6418e-06	49.187	0.00085819	0.00099636	0.00025851	1278.6	9.8816e-06	1.1003e-05	1288.7	347.04	9.9058e-06	1.0939e-05	403.85	136.55	119.5	41.021	9.9061e-06	51.146	126.586	-9.030	-58.575	-93.111	140.758	69.138	-93.062	-88.484	-56.455	36.821	-88.829	-84.798	-84.386	-79.648	-28.595	-80.512	-8191	255	
7506.251	1	1	0	0	0.20114	0.14348	0.39775	0.10047	0.12766	0.081914	0.13803	0.26093	0.1591	0.12662	0.13669	0.16234	0.18994	0.29106	0.036511	0.18066	0.56042	-0.37917	-0.54583	0.0875	-0.64375	-0.43125	-0.15417	-1.0312	0.039583	-0.30208	-0.73333	0.13125	-0.83542	-0.24583	0.18542	-0.86458	113.768	4.284	201.079	-96.008	250.105	-104.635	246.490	136.745	-101.064	124.726	192.384	230.733	240.637	-103.964	-91.926	177.854	0.00045879	0.0007475	0.00016877	1250.7	2.6092e-06	1.1572e-05	1256.4	338.24	5.1832e-06	6.1489e-06	390.87	132.19	113.43	39.428	1.9646e-06	49.065	0.00089969	0.00098742	0.00025112	1277.7	1.052e-05	1.0693e-05	1288.6	346.59	1.0466e-05	1.0672e-05	403.68	136.78	119.92	41.129	9.7446e-06	51.244	117.239	-35.199	39.321	-93.045	249.243	31.222	-93.236	-88.647	200.519	51.040	-89.364	-85.216	-84.533	-79.979	34.407	-80.791	-8191	255	
7506.347	1	1	0	0	0.22503	0.30978	0.078206	0.26313	0.15973	0.1346	0.20329	0.19051	0.21745	0.15038	0.23354	0.039186	0.22387	0.47897	0.23447	0.207	0.43333	-0.1875	-0.57917	0.10208	-0.53542	-0.51667	-0.12292	-0.89792	-0.066667	-0.36667	-0.70833	0.10833	-0.44583	-0.4625	0.21875	-0.7	-83.234	142.152	213.756	224.833	-49.208	250.839	195.270	197.503	159.886	-39.652	226.960	66.367	142.436	222.834	115.747	-102.182	0.0004994	0.00079804	1.6011e-05	1248.8	3.0204e-06	9.7795e-06	1262.3	339.01	2.5789e-06	4.9732e-06	393.8	131.78	113.85	39.485	1.1251e-05	48.978	0.00096927	0.00095282	0.00025012	1276.1	1.0965e-05	1.0415e-05	1288.1	347.81	1.1059e-05	1.0321e-05	403.71	136.99	120.13	41.12	9.4088e-06	51.274	124.943	-30.838	214.500	-93.417	52.875	69.290	-93.256	-88.528	63.266	61.690	-89.298	-85.195	-84.442	-79.919	35.522	-80.452	-8191	255	
7506.444	1	1	0	0	0.096487	0.20867	0.1358	0.28559	0.1915	0.1452	0.23142	0.11781	0.18997	0.15894	0.063541	0.18117	0.13572	0.31055	0.091851	0.41428	0.27083	0.072917	-0.71875	0.11458	-0.50208	-0.55	0.083333	-0.93333	-0.020833	0.054167	-0.78958	0.029167	-0.60417	-0.66042	0.23333	-0.6125	-103.420	10.974	-76.038	247.660	157.520	10.543	204.667	89.355	158.464	206.430	191.001	196.822	-37.997	226.093	11.030	147.575	0.00043525	0.00097045	0.00016379	1248.3	3.4434e-06	7.2815e-06	1258.1	339.14	6.8086e-06	1.0005e-05	391.17	132.06	113.94	39.32	4.28e-06	49.207	0.00098061	0.00092581	0.00024053	1279.4	1.0986e-05	1.0019e-05	1287.6	348.48	1.0825e-05	9.968e-06	402.88	137.58	119.97	40.981	9.3879e-06	51.428	124.575	-37.235	-19.456	-93.146	-4.197	48.455	-93.398	-88.526	-25.690	63.920	-89.252	-84.992	-84.423	-79.774	29.447	-80.377	-8191	255	
7506.540	1	1	0	0	0.11212	0.21721	0.18355	0.30525	0.2057	0.15578	0.28912	0.39957	0.047628	0.19839	0.10633	0.072409	0.20415	0.095433	0.063878	0.3508	-0.15625	0.3	-0.65417	-0.052083	-0.27083	-0.63958	-0.0875	-0.79792	-0.14792	0.060417	-1.0521	-0.11875	-0.22083	-0.67917	0.027083	-0.4625	-34.693	216.741	-98.378	219.869	69.596	139.607	215.608	187.729	47.712	202.867	-35.836	-47.239	-92.792	-72.214	138.762	165.722	0.0005067	0.0014528	0.00022274	1251.5	1.2761e-06	1.0675e-05	1251.8	338.36	3.6078e-06	6.4891e-06	393.39	131.74	114.22	39.26	4.0675e-06	48.754	0.00095073	0.00090275	0.00023802	1281.2	1.0542e-05	9.8744e-06	1286.1	348.59	1.0584e-05	9.7714e-06	403.38	137.32	119.69	40.956	9.6381e-06	51.446	137.463	-17.767	-27.566	-93.392	54.939	27.394	-93.370	-88.368	-7.157	64.076	-89.182	-84.998	-84.621	-79.351	62.037	-80.382	-8191	255	
#DATA ENDS
