BOXY.EXE: ISS Imagent and Oximeter Data Acquisition Program Version 0.80
Ascii Record File

#ACQ INFORMATION
2  Detector Channels 
16  External MUX Channels 
1  Auxiliary Channels 
5000  Waveform (CCF) Frequency (Hz)
1  Waveforms Skipped 
30  Waveforms Averaged 
1  Cycles Averaged 
16  Acquisitions per Waveform 
10.0806  Updata Rate (Hz) 

#FILE INFORMATION
TRUE -- External MUX Channel results are PARSED.
FALSE -- AC DC and Phase are NOT grouped.
TRUE -- Companion Program Settings File CREATED.
FALSE -- AC data not excluded
FALSE -- DC data not excluded
FALSE -- Phase data not excluded
FALSE -- Auxillary Chn. data not excluded
Tab delimiters

#CALIBRATION STATE
TRUE -- Waveform Calibration Values APPLIED.


#AUX CALIBRATION VALUES
Val Type	aux-1	

Term	1.0000e+00	
Factor	0.0000e+00	


#WF CALIBRATION VALUES
A = Detector Channel
Val Type	A-AC1	A-AC2	A-AC3	A-AC4	A-AC5	A-AC6	A-AC7	A-AC8	A-AC9	A-AC10	A-AC11	A-AC12	A-AC13	A-AC14	A-AC15	A-AC16	A-DC1	A-DC2	A-DC3	A-DC4	A-DC5	A-DC6	A-DC7	A-DC8	A-DC9	A-DC10	A-DC11	A-DC12	A-DC13	A-DC14	A-DC15	A-DC16	A-Ph1	A-Ph2	A-Ph3	A-Ph4	A-Ph5	A-Ph6	A-Ph7	A-Ph8	A-Ph9	A-Ph10	A-Ph11	A-Ph12	A-Ph13	A-Ph14	A-Ph15	A-Ph16	

Term	0.00000e+00	0.00000e+00	0.00000e+00	0.00000e+00	0.00000e+00	0.00000e+00	0.00000e+00	0.00000e+00	0.00000e+00	0.00000e+00	0.00000e+00	0.00000e+00	0.00000e+00	0.00000e+00	0.00000e+00	0.00000e+00	0.00000e+00	0.00000e+00	0.00000e+00	0.00000e+00	0.00000e+00	0.00000e+00	0.00000e+00	0.00000e+00	0.00000e+00	0.00000e+00	0.00000e+00	0.00000e+00	0.00000e+00	0.00000e+00	0.00000e+00	0.00000e+00	0.00000e+00	0.00000e+00	0.00000e+00	0.00000e+00	0.00000e+00	0.00000e+00	0.00000e+00	0.00000e+00	0.00000e+00	0.00000e+00	0.00000e+00	0.00000e+00	0.00000e+00	0.00000e+00	0.00000e+00	0.00000e+00	
Factor	1.00000e+00	1.00000e+00	1.00000e+00	1.00000e+00	1.00000e+00	1.00000e+00	1.00000e+00	1.00000e+00	1.00000e+00	1.00000e+00	1.00000e+00	1.00000e+00	1.00000e+00	1.00000e+00	1.00000e+00	1.00000e+00	1.00000e+00	1.00000e+00	1.00000e+00	1.00000e+00	1.00000e+00	1.00000e+00	1.00000e+00	1.00000e+00	1.00000e+00	1.00000e+00	1.00000e+00	1.00000e+00	1.00000e+00	1.00000e+00	1.00000e+00	1.00000e+00	X	X	X	X	X	X	X	X	X	X	X	X	X	X	X	X	

B = Detector Channel
Val Type	B-AC1	B-AC2	B-AC3	B-AC4	B-AC5	B-AC6	B-AC7	B-AC8	B-AC9	B-AC10	B-AC11	B-AC12	B-AC13	B-AC14	B-AC15	B-AC16	B-DC1	B-DC2	B-DC3	B-DC4	B-DC5	B-DC6	B-DC7	B-DC8	B-DC9	B-DC10	B-DC11	B-DC12	B-DC13	B-DC14	B-DC15	B-DC16	B-Ph1	B-Ph2	B-Ph3	B-Ph4	B-Ph5	B-Ph6	B-Ph7	B-Ph8	B-Ph9	B-Ph10	B-Ph11	B-Ph12	B-Ph13	B-Ph14	B-Ph15	B-Ph16	

Term	0.00000e+00	0.00000e+00	0.00000e+00	0.00000e+00	0.00000e+00	0.00000e+00	0.00000e+00	0.00000e+00	0.00000e+00	0.00000e+00	0.00000e+00	0.00000e+00	0.00000e+00	0.00000e+00	0.00000e+00	0.00000e+00	0.00000e+00	0.00000e+00	0.00000e+00	0.00000e+00	0.00000e+00	0.00000e+00	0.00000e+00	0.00000e+00	0.00000e+00	0.00000e+00	0.00000e+00	0.00000e+00	0.00000e+00	0.00000e+00	0.00000e+00	0.00000e+00	-8.46031e+01	-1.24328e+02	-1.34512e+02	-1.81699e+02	-5.65765e+01	-6.78973e+01	-1.56588e+02	-1.62015e+02	-4.89682e+01	-6.14460e+01	-1.72047e+02	-1.69354e+02	-1.85172e+02	-1.76661e+02	-5.95041e+01	-1.48927e+02	
Factor	1.85394e-05	1.34008e-04	4.54980e-05	1.65179e-01	1.51047e-06	1.75494e-06	1.84651e-01	5.45619e-02	1.21076e-06	1.81770e-06	9.52945e-02	3.13381e-02	2.68894e-02	1.02662e-02	1.54598e-06	1.46995e-02	3.18428e-06	3.57193e-06	9.92978e-07	8.46290e-02	3.85947e-08	3.91772e-08	8.89079e-02	2.80802e-02	3.85441e-08	3.91043e-08	4.71625e-02	1.56485e-02	1.38985e-02	5.29215e-03	3.88907e-08	7.31696e-03	X	X	X	X	X	X	X	X	X	X	X	X	X	X	X	X	



#DISTANCE SETTINGS
A = Detector Channel
A-1	A-2	A-3	A-4	A-5	A-6	A-7	A-8	A-9	A-10	A-11	A-12	A-13	A-14	A-15	A-16	

2.5000e+00	3.0000e+00	2.5000e+00	3.0000e+00	2.0000e+00	3.0000e+00	1.5000e+00	3.0000e+00	3.0000e+00	3.0000e+00	3.0000e+00	3.0000e+00	3.0000e+00	3.0000e+00	1.5000e+00	3.0000e+00	

B = Detector Channel
B-1	B-2	B-3	B-4	B-5	B-6	B-7	B-8	B-9	B-10	B-11	B-12	B-13	B-14	B-15	B-16	

1.0000e+01	1.0000e+01	1.0000e+01	1.4400e+00	1.0000e+01	1.0000e+01	1.5100e+00	1.9400e+00	1.0000e+01	1.0000e+01	1.9900e+00	2.4900e+00	2.4100e+00	2.9000e+00	1.0000e+01	2.9800e+00	




#DATA BEGINS
time	group	step	mark	flag	A-AC1	A-AC2	A-AC3	A-AC4	A-AC5	A-AC6	A-AC7	A-AC8	A-AC9	A-AC10	A-AC11	A-AC12	A-AC13	A-AC14	A-AC15	A-AC16	A-DC1	A-DC2	A-DC3	A-DC4	A-DC5	A-DC6	A-DC7	A-DC8	A-DC9	A-DC10	A-DC11	A-DC12	A-DC13	A-DC14	A-DC15	A-DC16	A-Ph1	A-Ph2	A-Ph3	A-Ph4	A-Ph5	A-Ph6	A-Ph7	A-Ph8	A-Ph9	A-Ph10	A-Ph11	A-Ph12	A-Ph13	A-Ph14	A-Ph15	A-Ph16	B-AC1	B-AC2	B-AC3	B-AC4	B-AC5	B-AC6	B-AC7	B-AC8	B-AC9	B-AC10	B-AC11	B-AC12	B-AC13	B-AC14	B-AC15	B-AC16	B-DC1	B-DC2	B-DC3	B-DC4	B-DC5	B-DC6	B-DC7	B-DC8	B-DC9	B-DC10	B-DC11	B-DC12	B-DC13	B-DC14	B-DC15	B-DC16	B-Ph1	B-Ph2	B-Ph3	B-Ph4	B-Ph5	B-Ph6	B-Ph7	B-Ph8	B-Ph9	B-Ph10	B-Ph11	B-Ph12	B-Ph13	B-Ph14	B-Ph15	B-Ph16	aux-1	digaux	

21544.979	1	1	0	768	0.10778	0.12646	0.18451	0.2157	0.11564	0.33473	0.15403	0.19799	0.066006	0.089757	0.094677	0.19993	0.24202	0.059088	0.28623	0.22824	-0.36667	-0.045833	-1.0458	-0.40625	-0.46458	-0.75625	-0.2375	-0.89583	-0.70208	0.020833	-0.92708	-0.41667	-0.19167	-1.1021	-0.16042	-0.88333	-27.595	155.371	-146.922	-137.612	-112.446	32.112	36.137	192.604	-102.464	183.525	137.745	155.111	173.588	-100.943	72.144	161.999	0.00027108	0.00045433	0.00040425	1296.3	6.7163e-06	6.6118e-06	735.89	393.95	4.8227e-06	3.2743e-06	217.95	67.83	132.67	56.704	1.0389e-05	32.988	0.0012527	0.0013578	0.00038093	1228.6	1.4579e-05	1.4666e-05	714.59	377.83	1.4744e-05	1.4781e-05	219.31	69.015	129	55.156	1.5077e-05	33.517	-116.793	-120.845	24.643	-139.801	-27.578	-0.038	-141.545	-134.062	-78.139	-137.328	-137.512	-133.794	-129.303	-124.657	3.528	-129.932	-8191	255	
21545.074	1	1	0	0	0.2264	0.27858	0.0027158	0.093453	0.20465	0.28858	0.2222	0.25111	0.12533	0.034495	0.41646	0.36104	0.054991	0.33806	0.041865	0.12806	-0.46875	0.13125	-0.9	-0.44583	-0.28333	-0.78958	-0.30625	-0.75208	-0.66667	0.083333	-1.0521	-0.42708	-0.3375	-0.86875	-0.18125	-0.625	-12.893	140.003	180.000	174.414	-92.619	11.252	-99.727	-119.979	83.710	-21.181	167.493	118.359	-110.179	135.932	13.789	63.819	0.00035373	0.00059109	0.00011383	1290.2	1.7005e-05	2.5669e-06	743.59	395.97	2.71e-06	1.5863e-05	221.27	68.773	133.83	57.239	1.9156e-06	33.506	0.0012686	0.0013773	0.0003881	1229.8	1.4952e-05	1.5243e-05	720.41	380.36	1.5095e-05	1.5367e-05	222.42	69.903	129.86	55.511	1.5182e-05	33.816	-107.197	-59.083	-63.403	-139.910	-109.601	0.590	-142.202	-134.170	32.490	-2.887	-137.713	-133.396	-129.323	-124.628	149.534	-129.514	-8191	255	
21545.172	1	1	0	0	0.12069	0.29328	0.14844	0.10494	0.1534	0.1454	0.092771	0.16375	0.3147	0.38819	0.2155	0.17798	0.07356	0.27769	0.13454	0.12233	-0.40417	-0.033333	-0.95833	-0.55	-0.083333	-0.99375	-0.1875	-0.48333	-1.05	0.0020833	-0.64583	-0.45	-0.21875	-0.91875	-0.19375	-0.26875	-131.703	-110.823	-136.001	173.123	119.126	-99.354	112.496	173.243	30.296	-61.439	112.031	-122.436	59.798	148.659	16.825	-49.745	0.00030471	0.00016818	7.9383e-05	1291.6	6.1087e-06	4.8874e-07	737.21	394.9	5.3896e-06	2.8704e-06	221.2	68.162	133.28	57.167	7.1111e-06	33.036	0.0012643	0.0014018	0.00038166	1230.8	1.4774e-05	1.4924e-05	716.65	378.88	1.4689e-05	1.4808e-05	219.79	69.156	129.41	55.358	1.481e-05	33.309	-121.848	113.825	-15.509	-139.847	-18.595	99.940	-141.595	-133.971	-70.377	76.913	-137.154	-133.371	-128.877	-124.804	121.013	-130.186	-8191	255	
21545.268	1	1	0	0	0.15772	0.2539	0.20641	0.29515	0.15757	0.41827	0.06453	0.201	0.10186	0.097071	0.20314	0.067168	0.21751	0.2524	0.26993	0.36771	-0.42708	-0.15833	-0.78125	-1.0104	-0.21875	-1.0521	-0.55625	-0.41458	-1.2208	-0.22708	-0.65208	-0.64375	-0.09375	-1.3104	-0.4375	-0.22708	-15.818	188.538	120.280	190.790	-71.797	89.404	191.791	149.519	57.051	128.660	174.066	115.068	161.829	-114.552	90.266	178.454	0.00022495	0.00033916	8.9289e-05	1297.1	5.3279e-06	5.4018e-06	738.66	395.82	8.1169e-06	1.3072e-05	222.68	68.426	134.19	57.491	1.0365e-05	33.495	0.0011911	0.0013127	0.00036152	1226.4	1.382e-05	1.3827e-05	714.29	379.48	1.3294e-05	1.3584e-05	219.46	69.121	129.51	55.65	1.3475e-05	33.496	-122.598	131.646	-131.113	-140.084	-20.169	-33.356	-141.964	-134.121	-65.064	-65.495	-137.381	-133.637	-129.259	-124.448	-54.262	-129.984	-8191	255	
21545.363	1	1	0	0	0.093247	0.11719	0.11504	0.26669	0.16138	0.16259	0.34497	0.52165	0.10865	0.19731	0.18644	0.18625	0.32993	0.34366	0.15889	0.23235	-0.75208	-0.058333	-0.57292	-1.1437	0.020833	-0.96458	-0.61875	-0.32083	-1.05	-0.37917	-0.55208	-0.85833	0.04375	-0.93958	-0.68958	-0.17292	54.830	106.293	7.873	197.109	-89.162	-117.113	-141.376	134.547	55.488	22.708	55.289	187.459	169.579	181.388	-18.159	-33.089	0.00020645	0.0006228	0.00014198	1294.1	1.8478e-06	2.3811e-06	743.24	399.04	8.8507e-06	1.1912e-05	223.31	69.105	134.8	57.826	2.9565e-06	33.729	0.0011123	0.0012135	0.00033927	1229.1	1.3279e-05	1.312e-05	717.75	381.5	1.2974e-05	1.3172e-05	221.1	69.824	130.62	55.862	1.3041e-05	33.687	-106.576	-67.046	-56.678	-139.575	17.833	-19.996	-141.708	-134.163	37.794	-103.594	-137.492	-133.284	-129.321	-124.440	36.602	-129.684	-8191	255	
21545.461	1	1	0	0	0.029864	0.19296	0.23975	0.15051	0.1798	0.087684	0.11301	0.14917	0.28357	0.2538	0.10584	0.29956	0.074764	0.26986	0.16451	0.40199	-0.76458	-0.28542	-0.36667	-1.2021	0.1	-0.775	-0.76875	-0.33542	-0.86875	-0.26042	-0.36042	-0.96875	-0.125	-0.63542	-0.8	0.1125	179.048	51.052	82.310	-127.991	8.023	-7.601	-84.378	144.672	78.712	-100.545	18.976	195.379	198.596	154.272	118.258	153.270	0.00027572	0.00074003	2.7113e-05	1302.4	5.1579e-06	1.0717e-05	747.83	399.79	5.1901e-06	5.4354e-06	222	70.016	134.97	57.989	1.0817e-05	33.936	0.0011169	0.0012268	0.00033153	1233.7	1.3624e-05	1.3399e-05	723.98	382.69	1.347e-05	1.3747e-05	222.2	70.394	130.61	56.035	1.3735e-05	34.028	-109.200	-47.650	79.143	-139.520	-42.098	11.073	-141.680	-134.092	15.876	128.059	-137.476	-133.224	-129.143	-124.336	72.395	-130.117	-8191	255	
21545.580	1	1	0	0	0.27173	0.1298	0.14973	0.24785	0.18042	0.19439	0.10559	0.092575	0.2191	0.16807	0.18561	0.47927	0.10275	0.031204	0.19714	0.31151	-0.71875	-0.44167	0.010417	-1.0021	-0.0083333	-0.59167	-1.0292	-0.064583	-0.7875	-0.54167	-0.28958	-1.1125	-0.475	-0.64583	-0.91875	-0.11875	-2.463	-39.498	89.891	156.729	149.711	32.454	-17.234	-148.735	-15.662	134.174	196.592	-14.541	150.058	-30.142	-66.557	-127.900	0.00022893	0.00051131	0.00019795	1297.4	2.9089e-06	7.3452e-06	752.49	402.39	5.132e-06	1.6795e-05	224.09	69.356	135.04	57.824	6.6687e-06	33.286	0.0011495	0.0012634	0.00034874	1238.2	1.3859e-05	1.3635e-05	726.26	384.03	1.3423e-05	1.3595e-05	222.37	69.99	130.54	55.773	1.3221e-05	33.57	-96.707	-17.959	123.953	-139.531	-5.820	-109.736	-141.609	-133.674	-81.724	29.666	-137.385	-133.629	-129.492	-124.905	1.241	-129.788	-8191	255	
21545.676	1	1	0	0	0.20937	0.13972	0.2649	0.16533	0.059356	0.054288	0.098755	0.17615	0.13793	0.24099	0.11549	0.045103	0.25051	0.24428	0.13501	0.23357	-0.5375	-0.5625	-0.17083	-1.0542	-0.18958	-0.3125	-0.99167	-0.19375	-0.92083	-0.73333	-0.26458	-0.89792	-0.25625	-0.45208	-0.86458	-0.077083	29.377	-83.115	-61.364	190.585	27.751	119.961	-121.138	94.660	114.184	27.965	164.297	-31.141	-145.752	-131.215	-140.870	125.290	0.00027937	0.00042316	0.00035946	1297.7	6.8984e-06	2.5875e-06	745.39	398.26	3.3455e-06	2.9479e-06	222.18	69.433	134.76	57.704	9.2504e-06	33.376	0.001132	0.0012271	0.00033887	1234.8	1.351e-05	1.3536e-05	717.82	381.77	1.349e-05	1.3321e-05	220.62	69.631	130.3	55.637	1.341e-05	33.492	-137.625	-58.815	-29.074	-139.894	37.780	-139.948	-141.888	-134.164	-29.804	180.074	-138.013	-133.427	-128.954	-124.406	-32.883	-129.916	-8191	255	
21545.771	1	1	0	0	0.24013	0.17206	0.057638	0.41461	0.087992	0.18153	0.20845	0.11566	0.10655	0.2468	0.25389	0.3369	0.044248	0.20089	0.11533	0.126	-0.21458	-0.61458	0.125	-1.1562	-0.38125	-0.28125	-1.0771	-0.49792	-0.675	-0.61667	-0.39375	-1.125	-0.29167	-0.33958	-0.84792	-0.22083	207.378	146.556	-23.912	164.098	168.328	157.503	-143.822	126.737	-37.586	9.203	-129.963	-123.526	44.154	176.416	-95.459	183.856	0.00014832	0.0006625	0.00012778	1306.2	1.5775e-06	9.3978e-06	744.84	400.76	1.6941e-06	5.7817e-06	222.7	69.982	134.91	57.732	6.1638e-06	33.576	0.0011202	0.001225	0.00034105	1236.6	1.3397e-05	1.3282e-05	721.92	383.11	1.3241e-05	1.333e-05	221.13	70.323	130.71	55.695	1.3267e-05	33.698	-113.680	-44.598	-4.391	-139.804	33.377	-10.396	-141.877	-134.496	-106.337	48.058	-137.921	-133.359	-129.235	-124.762	-36.680	-129.670	-8191	255	
21545.867	1	1	0	0	0.19653	0.21148	0.076667	0.37464	0.23299	0.15495	0.1973	0.38138	0.073816	0.34601	0.19348	0.2711	0.19091	0.25433	0.38335	0.2157	-0.125	-0.81875	-0.077083	-0.98958	-0.4125	0.035417	-0.8875	-0.31875	-0.375	-0.81875	0.05	-0.94375	-0.67917	-0.21042	-0.95417	-0.26042	25.922	36.376	4.753	202.049	172.515	206.296	58.471	-150.456	-44.442	24.085	93.570	137.417	-121.875	185.896	-33.448	108.422	0.00020394	0.00041725	0.00018738	1305.2	2.9811e-06	4.9742e-06	750.61	399.72	6.2956e-06	5.7243e-06	223.59	70.175	134.96	57.511	1.017e-05	33.611	0.001101	0.001208	0.00034113	1240.1	1.3281e-05	1.3238e-05	727.61	383.63	1.3344e-05	1.354e-05	222.81	70.649	130.94	55.821	1.3619e-05	33.908	-88.702	156.622	73.491	-139.751	14.339	90.023	-141.468	-134.181	6.733	-76.870	-137.387	-132.995	-129.089	-124.362	1.141	-129.967	-8191	255	
21545.963	1	1	0	0	0.24149	0.051262	0.28252	0.36323	0.24893	0.19545	0.14027	0.12369	0.26277	0.3192	0.17811	0.11393	0.23076	0.27297	0.34997	0.061843	-0.10625	-0.69792	0.1625	-0.875	-0.60625	0.03125	-1.0625	-0.32292	-0.38125	-1.0875	-0.08125	-0.59792	-0.99792	-0.24167	-0.84375	-0.60833	58.390	-102.947	148.126	-150.522	-65.786	204.587	8.534	112.543	-60.922	196.087	120.178	146.348	206.125	157.868	-88.247	-40.187	0.00012862	0.00079784	1.8888e-05	1310.8	5.6147e-06	5.9475e-06	754.09	401.3	5.1417e-06	4.9603e-06	225.8	69.944	135.07	57.397	6.2089e-06	33.682	0.0011255	0.0012639	0.00035196	1242.5	1.3549e-05	1.3853e-05	728.05	384.52	1.3702e-05	1.4004e-05	223.63	70.336	130.43	55.543	1.3905e-05	33.499	-95.817	-47.307	-88.180	-139.863	-67.001	-47.335	-141.675	-133.869	45.197	-104.304	-137.280	-132.976	-129.092	-124.424	23.676	-129.346	-8191	255	
21546.061	1	1	0	0	0.14265	0.28134	0.21955	0.36083	0.21596	0.10189	0.066076	0.13478	0.43463	0.1713	0.13801	0.064065	0.31125	0.35386	0.198	0.079438	0.079167	-1.0104	-0.11042	-0.80625	-0.66667	-0.06875	-1.1313	-0.6375	-0.28333	-1.0333	-0.18125	-0.83958	-0.90625	-0.12917	-0.89792	-0.52917	10.976	165.460	-127.953	175.545	12.853	119.907	115.233	-79.739	-48.679	-35.883	159.614	81.956	154.670	-125.270	-144.301	139.944	0.00019537	0.00054221	0.00017812	1296.4	2.395e-06	5.7012e-06	739.42	397.5	1.0548e-05	6.6849e-06	221.44	68.947	134.49	57.358	2.8536e-06	33.196	0.0011698	0.0012937	0.00035864	1232.4	1.3943e-05	1.4312e-05	716.37	381.07	1.3724e-05	1.4003e-05	220.3	69.161	129.86	55.524	1.3753e-05	33.225	-120.312	-11.012	143.045	-139.515	188.365	167.720	-141.814	-134.114	-50.235	0.642	-137.288	-133.030	-129.241	-124.366	-13.850	-129.428	-8191	255	
21546.156	1	1	0	0	0.11532	0.19416	0.30229	0.50275	0.096055	0.098709	0.20949	0.36443	0.14395	0.077383	0.14169	0.27758	0.039949	0.26939	0.093851	0.36357	0.1	-1.0667	-0.089583	-0.81667	-0.86042	-0.066667	-0.88958	-0.61042	-0.18125	-1.0688	-0.29167	-0.60833	-1.2729	-0.18542	-0.8375	-0.85208	-115.232	-143.184	183.240	182.640	122.123	65.067	77.384	137.452	100.928	46.914	82.506	-129.354	116.549	197.550	109.104	162.171	0.00021694	0.00052979	4.9568e-05	1295.7	1.868e-06	1.0224e-05	738.03	398.49	6.0205e-06	4.3799e-06	221.63	68.764	134.04	57.334	7.5002e-06	33.663	0.0011418	0.0012646	0.0003559	1231.5	1.3937e-05	1.4197e-05	718.16	381.65	1.3824e-05	1.3965e-05	221.09	69.79	130.06	55.508	1.3902e-05	33.519	-115.829	168.954	44.974	-139.530	204.892	102.819	-141.576	-134.179	-56.381	-33.793	-137.586	-133.263	-129.254	-124.560	-97.063	-129.819	-8191	255	
21546.275	1	1	0	0	0.15964	0.27036	0.30609	0.29605	0.19646	0.21725	0.24976	0.10928	0.072552	0.083649	0.27235	0.1681	0.28074	0.13891	0.11666	0.1287	0.3625	-0.98958	-0.20625	-0.58125	-1.1521	-0.18125	-0.92292	-1.0312	-0.04375	-0.925	-0.39583	-0.27917	-1.2125	-0.054167	-0.71042	-0.80208	-47.310	-93.010	-27.846	-137.841	-113.283	-103.632	113.353	195.299	31.782	18.205	119.161	205.810	-126.479	171.709	50.359	94.293	0.00024641	0.00020139	2.5018e-05	1303.4	5.9053e-06	1.8694e-06	746.36	398.53	5.9244e-06	6.835e-06	223.21	69.846	134.78	57.782	7.8987e-06	33.482	0.001185	0.001284	0.00036224	1234.4	1.3914e-05	1.43e-05	722.15	381.14	1.3914e-05	1.3868e-05	221.9	70.109	130.55	55.814	1.365e-05	33.736	-106.574	-13.150	115.247	-139.701	114.650	205.810	-141.400	-134.600	-104.420	-64.301	-137.870	-133.574	-129.559	-124.435	52.869	-129.624	-8191	255	
21546.373	1	1	0	0	0.25356	0.078227	0.13219	0.2148	0.088906	0.28582	0.33031	0.0058697	0.11672	0.25834	0.069305	0.21906	0.25559	0.14312	0.34505	0.28091	0.31458	-0.88333	-0.34792	-0.43958	-0.94375	-0.05	-0.59583	-0.93333	-0.12708	-1.0208	-0.45417	-0.058333	-1.0708	-0.23542	-0.52292	-1	-18.924	7.483	133.236	180.462	-22.192	21.316	171.639	143.919	27.457	53.058	149.271	165.830	164.559	58.282	-75.961	85.167	0.00026684	0.0010206	9.9673e-05	1304.7	3.5042e-06	1.0958e-05	745.54	401.39	6.102e-06	9.516e-06	224.1	69.825	134.56	57.665	6.0974e-06	33.615	0.0011567	0.0012526	0.00035414	1233.4	1.384e-05	1.3867e-05	722.83	383.25	1.3892e-05	1.3722e-05	222.75	70.471	130.95	55.81	1.3774e-05	33.677	-105.368	-61.487	-82.699	-139.643	-105.240	-47.483	-141.689	-134.312	6.592	0.957	-137.561	-133.606	-129.269	-124.887	195.282	-129.994	-8191	255	
21546.467	1	1	0	0	0.13677	0.19681	0.13758	0.49566	0.18338	0.23108	0.099458	0.16019	0.31893	0.21059	0.12335	0.23935	0.048374	0.23814	0.020089	0.093701	0.12708	-0.74583	-0.47083	-0.32917	-0.89583	-0.35208	-0.57708	-0.99792	0.016667	-0.87708	-0.725	0.072917	-1.0312	-0.55625	-0.48125	-1.0958	-99.882	-88.827	-42.179	194.480	27.062	206.592	136.118	-130.860	46.974	154.643	-116.784	163.090	-8.598	-73.017	150.949	163.509	0.00027825	0.00026672	9.0397e-05	1297.5	3.2776e-06	7.1588e-06	742.16	397.17	1.814e-06	1.6049e-05	217.66	68.787	133.21	56.917	6.1995e-06	33.085	0.0011806	0.0012847	0.00035988	1229.5	1.4074e-05	1.4372e-05	714.71	381.08	1.4149e-05	1.4107e-05	219.35	69.178	129.5	55.233	1.4235e-05	33.134	-126.640	150.719	-8.215	-139.609	178.536	-54.601	-141.462	-134.239	-61.760	9.948	-137.869	-133.299	-128.914	-124.190	2.807	-129.802	-8191	255	
21546.539	1	1	0	0	0.41129	0.18169	0.052787	0.2705	0.14048	0.28272	0.10479	0.36695	0.18135	0.1865	0.19123	0.17764	0.19209	0.36994	0.20699	0.17871	0.26667	-0.65	-0.64583	-0.28958	-0.97292	-0.42083	-0.29167	-1.2042	-0.058333	-0.6875	-0.80833	-0.25625	-1.1083	-0.6375	-0.45625	-1.0604	76.196	-131.610	158.073	-126.295	88.979	47.818	187.276	166.971	167.455	190.001	-105.683	201.939	204.678	-84.269	47.785	-126.313	0.00027356	0.00058371	0.00012232	1290.4	5.1713e-06	9.0385e-06	733.29	397.4	2.5411e-06	1.0421e-05	217.61	68.534	133.62	56.854	6.5089e-06	32.616	0.0012003	0.0012957	0.00036385	1224.4	1.4213e-05	1.4248e-05	711.01	380.62	1.4341e-05	1.4182e-05	219.35	69.037	129.84	55.273	1.4555e-05	32.969	-106.385	-105.891	-83.678	-139.378	27.080	50.913	-141.889	-133.867	30.001	-68.850	-137.639	-133.195	-128.841	-124.375	72.325	-129.789	-8191	255	
21546.658	1	1	0	0	0.15534	0.095051	0.14656	0.13261	0.1398	0.22865	0.16426	0.28748	0.05796	0.24953	0.2037	0.11768	0.40551	0.25813	0.19534	0.25957	0.2375	-0.44792	-0.85833	-0.075	-0.91875	-0.57083	-0.3125	-1.2542	-0.25833	-0.43958	-1.0667	-0.06875	-0.97292	-0.59167	-0.0875	-0.98542	141.758	-87.237	91.906	-129.748	-94.748	193.891	76.971	163.714	42.463	11.762	158.445	-38.019	205.380	147.475	-107.773	116.789	0.00023636	0.00020678	0.00017351	1283	1.0476e-05	5.0063e-06	735.63	398.48	1.1151e-05	1.126e-05	221.21	69.201	133.57	56.952	7.037e-06	32.871	0.0012213	0.0013326	0.00037276	1222.8	1.4401e-05	1.4696e-05	713.54	381.31	1.4466e-05	1.4658e-05	220.87	69.78	130.48	55.332	1.4778e-05	33.191	-98.528	-99.210	-74.063	-139.710	-22.809	164.080	-141.713	-134.030	77.869	82.719	-137.653	-133.480	-129.282	-124.651	-20.662	-129.827	-8191	255	
21546.756	1	1	0	0	0.07538	0.22731	0.1879	0.18463	0.26233	0.13194	0.30304	0.041267	0.094529	0.08015	0.070607	0.21679	0.2632	0.14384	0.16503	0.083795	0.15625	-0.43125	-1.0042	-0.054167	-0.73542	-0.60417	-0.20417	-1.0875	-0.36875	-0.37708	-1.0979	-0.0875	-0.73333	-0.83333	0.125	-1.0396	116.474	200.672	-35.827	-107.087	-14.589	154.876	-78.272	-72.641	155.054	59.021	124.182	12.490	134.929	-129.214	57.834	-128.598	0.0002935	0.00035901	7.9477e-05	1286.8	9.6509e-06	6.4501e-06	738.56	398.35	6.7354e-06	1.0007e-05	222.52	69.205	134.61	57.151	8.909e-06	33.104	0.0012298	0.0013293	0.0003798	1226.5	1.4501e-05	1.49e-05	714.87	381.89	1.4696e-05	1.4742e-05	221.97	70.144	130.93	55.549	1.4639e-05	33.255	-97.482	-86.003	-88.841	-139.973	9.312	-63.908	-141.645	-134.235	-74.648	-141.517	-137.323	-133.764	-128.903	-124.355	-7.160	-129.459	-8191	255	
21546.852	1	1	0	0	0.27589	0.092069	0.059042	0.37164	0.1784	0.28238	0.15841	0.076768	0.36491	0.14074	0.20374	0.18176	0.17985	0.22715	0.20068	0.32009	0.010417	-0.25417	-0.8875	-0.18333	-0.66042	-0.82917	-0.054167	-0.96042	-0.5125	-0.29167	-1.1604	-0.097917	-0.49792	-0.89167	-0.0083333	-0.95208	192.718	28.914	-21.483	201.303	0.344	-45.241	183.948	-119.473	-9.045	-66.191	47.274	56.249	-123.988	-128.576	-50.601	190.239	0.00018331	9.5658e-05	0.00041025	1283.1	5.5888e-06	8.162e-06	730.18	396.25	7.3035e-06	2.6652e-06	219.73	67.754	133.85	56.759	2.9007e-06	32.645	0.0012238	0.0013301	0.00037626	1222.3	1.4427e-05	1.4951e-05	708.6	380.19	1.4563e-05	1.4529e-05	219.74	68.998	129.79	55.167	1.4798e-05	32.834	-143.599	102.825	-94.846	-139.498	56.634	14.175	-141.825	-133.842	-27.883	92.421	-137.262	-133.249	-128.922	-124.360	-149.086	-129.456	-8191	255	
21546.973	1	1	0	0	0.040318	0.22853	0.095217	0.27825	0.24976	0.20671	0.26937	0.25293	0.074793	0.10639	0.20881	0.093984	0.061414	0.027062	0.056555	0.031141	-0.29583	-0.0125	-1.1854	-0.20417	-0.42083	-0.74167	0.04375	-1.2146	-0.34792	-0.05	-0.84375	-0.2375	-0.625	-1.0125	-0.035417	-0.86458	13.865	134.534	46.384	122.607	37.547	30.452	131.682	170.565	-8.325	-85.909	140.352	-148.546	171.637	-35.019	80.506	2.053	0.00020392	0.00039069	0.00023918	1280.3	6.614e-06	7.0361e-06	726.86	395.68	7.2536e-06	4.6375e-06	221.05	67.96	133.61	57.017	6.2393e-06	32.732	0.0012398	0.0013597	0.00037542	1217.8	1.4401e-05	1.4761e-05	706.06	379.27	1.4472e-05	1.4572e-05	219.34	68.961	129.64	55.226	1.432e-05	32.957	-95.547	-49.296	207.901	-139.533	-61.898	-16.930	-141.408	-133.913	-9.919	-44.825	-137.365	-132.989	-128.743	-124.435	116.138	-129.285	-8191	255	
21547.068	1	1	0	0	0.27712	0.24719	0.10765	0.21979	0.12373	0.33045	0.14831	0.21986	0.073229	0.081453	0.08854	0.10782	0.48541	0.13474	0.38919	0.06478	-0.30625	-0.10208	-0.96875	-0.42083	-0.37708	-1.0417	-0.19792	-0.86042	-1.0271	-0.24792	-1.1417	-0.52083	-0.4125	-1.2062	-0.13125	-0.78333	-104.766	163.240	145.947	-137.537	130.067	45.345	197.571	138.503	-71.721	11.541	-139.996	27.308	-118.837	-136.162	147.770	156.818	0.00029571	0.00069365	8.8963e-05	1280.8	5.9419e-06	1.1101e-05	727.71	396.57	4.1543e-06	6.3235e-06	218.77	67.764	134.28	56.996	1.4064e-06	32.855	0.0011976	0.001315	0.0003647	1217.8	1.4161e-05	1.4517e-05	706.11	378.93	1.4448e-05	1.4332e-05	219.06	68.818	130.08	55.408	1.4371e-05	32.98	-117.133	-46.248	179.215	-139.615	-67.672	2.431	-141.703	-133.855	-107.516	0.971	-137.614	-133.596	-129.012	-124.343	-1.753	-129.535	-8191	255	
21547.141	1	1	0	0	0.012671	0.15239	0.10681	0.24932	0.1225	0.057083	0.055142	0.36602	0.23599	0.1462	0.1348	0.18104	0.13878	0.13167	0.21766	0.10441	-0.51458	-0.05625	-0.95625	-0.66667	-0.22708	-1.0208	-0.13542	-0.84583	-0.87708	-0.15417	-0.94167	-0.6875	-0.17708	-1.1458	-0.14167	-0.46458	-97.399	-68.793	92.742	172.248	35.779	-57.698	-83.919	206.198	-38.412	24.823	69.626	-115.911	-131.024	194.420	106.037	76.995	0.00026792	0.00015985	0.00027418	1286.7	1.8901e-06	1.0142e-05	728.94	398.18	5.1477e-06	8.6929e-06	219.89	68.471	134.67	57.171	4.4168e-06	32.753	0.001214	0.0013317	0.00036759	1217.9	1.4393e-05	1.4624e-05	709.48	379.77	1.4435e-05	1.4705e-05	220.26	69.514	130.42	55.493	1.4622e-05	33.116	-128.148	112.025	-88.232	-139.549	-87.504	-57.646	-141.502	-133.764	42.362	30.637	-137.593	-133.417	-129.221	-124.602	-93.345	-129.651	-8191	255	
21547.262	1	1	0	0	0.15682	0.093276	0.16213	0.33613	0.17947	0.14928	0.26717	0.19702	0.1636	0.21671	0.18313	0.3927	0.28797	0.033746	0.20477	0.092559	-0.53958	-0.24375	-0.92708	-0.77292	-0.14375	-0.97083	-0.44792	-0.61042	-0.89583	0.079167	-0.67292	-0.70417	-0.19167	-1.1958	-0.25417	-0.4125	-67.451	78.702	181.166	191.965	-43.523	194.310	95.928	-139.333	103.787	177.306	-143.183	-150.025	197.618	40.531	155.822	-22.151	0.00014121	0.00058889	7.6231e-05	1283.7	1.0702e-05	4.7198e-06	725.25	395.6	8.1984e-06	3.2482e-06	217.69	67.571	133.17	56.552	1.902e-06	32.208	0.0012252	0.0013509	0.00036993	1219.1	1.4472e-05	1.4345e-05	706.39	378.35	1.4454e-05	1.4422e-05	217.73	68.242	129.26	54.897	1.4517e-05	32.549	-97.411	-24.801	158.173	-139.829	-83.750	-37.090	-141.788	-133.818	-38.626	-105.523	-136.991	-133.220	-128.957	-124.201	90.819	-129.683	-8191	255	
21547.357	1	1	0	0	0.18012	0.14038	0.18536	0.14561	0.10385	0.34637	0.074886	0.38988	0.18994	0.14877	0.32042	0.16339	0.25016	0.30476	0.098996	0.23258	-0.65833	0.029167	-0.78958	-1.0688	-0.10625	-1.2062	-0.43125	-0.43125	-1.2396	-0.16458	-0.78542	-0.90833	-0.058333	-1.1562	-0.56667	-0.43542	-16.953	204.999	-123.201	188.078	155.382	-89.089	68.368	138.326	143.248	65.750	-122.146	140.985	199.198	-139.337	-21.832	-99.870	0.00024582	0.00091636	0.00022445	1270.6	8.2858e-06	5.2067e-06	719.94	394.56	6.2946e-06	4.0048e-06	217.24	67.782	133.05	56.91	1.4208e-05	32.793	0.0012041	0.0013344	0.00036126	1210.3	1.4212e-05	1.3983e-05	697.69	376.65	1.3499e-05	1.3579e-05	215.63	68.41	129.05	55.059	1.3376e-05	32.663	-107.644	-63.843	186.134	-139.504	-130.124	18.280	-141.789	-133.891	-35.644	-45.033	-137.229	-133.187	-128.754	-124.174	-50.246	-129.470	-8191	255	
21547.453	1	1	0	0	0.098668	0.29647	0.11879	0.12472	0.30192	0.31168	0.36065	0.027017	0.28568	0.26213	0.13478	0.18071	0.25283	0.089814	0.22109	0.17356	-0.60625	-0.225	-0.57708	-1.1063	-0.052083	-0.91875	-0.59167	-0.24375	-1.2292	-0.32917	-0.41875	-1.0979	-0.12083	-0.95	-0.6875	-0.34792	-148.043	167.569	-115.647	124.169	80.835	-35.218	177.272	164.611	-45.269	109.433	113.329	119.655	204.949	-7.115	142.382	182.072	0.00020053	0.00084211	0.00019379	1275.1	2.2313e-06	3.4434e-06	721.19	394	4.7853e-06	1.4861e-05	217.59	67.752	133.27	57.137	4.3827e-06	32.557	0.0010956	0.0012412	0.0003413	1211.3	1.371e-05	1.3781e-05	699.6	376.72	1.395e-05	1.4082e-05	216.88	68.826	129.19	55.331	1.356e-05	32.872	-98.164	-25.683	-57.647	-139.325	-35.501	-18.590	-141.368	-133.886	-138.882	103.844	-137.673	-133.655	-129.194	-124.490	-139.684	-129.493	-8191	255	
21547.572	1	1	0	0	0.050177	0.11864	0.23005	0.090715	0.22734	0.14969	0.18114	0.27722	0.13808	0.098375	0.27818	0.065608	0.14683	0.22704	0.031908	0.11403	-0.73542	-0.22083	-0.36667	-0.98125	-0.17708	-0.8125	-0.85833	-0.46458	-0.77708	-0.41875	-0.37708	-1.1063	-0.17708	-0.81458	-0.65833	-0.12083	-97.119	73.043	108.807	144.656	-82.862	62.980	126.779	76.621	-44.663	-130.829	-80.614	31.872	-135.496	196.639	109.813	114.587	0.00015835	0.00026133	0.00026651	1271.8	3.5256e-06	1.2972e-05	731.1	393.64	4.0813e-06	1.0992e-05	219.46	68.989	134.36	57.144	9.1255e-06	32.977	0.0011026	0.0012143	0.00033067	1209.9	1.2601e-05	1.254e-05	703.26	377.65	1.286e-05	1.313e-05	218.6	69.365	130.23	55.429	1.3931e-05	33.161	-130.891	-43.478	89.332	-139.594	-24.601	103.650	-141.959	-133.911	145.574	42.355	-136.801	-133.040	-129.123	-124.821	-1.329	-129.580	-8191	255	
21547.668	1	1	0	0	0.084459	0.20164	0.18138	0.25684	0.076932	0.24626	0.13608	0.38654	0.16586	0.14412	0.012207	0.25785	0.30752	0.1381	0.070771	0.19243	-0.78958	-0.46458	-0.2875	-1.2812	-0.23333	-0.88333	-0.96042	-0.2125	-1.0292	-0.59375	-0.41458	-0.99167	-0.32708	-0.725	-0.8625	-0.27917	-4.371	86.346	51.154	184.765	-54.311	82.561	119.606	184.768	-111.369	-30.731	-72.114	172.529	201.411	122.597	-19.835	192.862	0.00022078	0.0003774	0.00027225	1279.4	8.0596e-06	9.2499e-06	728.61	394.64	6.3531e-06	1.0606e-05	216.72	68.273	133.15	56.303	4.5949e-06	32.379	0.0011452	0.0012601	0.00035047	1214.6	1.3223e-05	1.3144e-05	703.15	377.63	1.2723e-05	1.3071e-05	215.19	68.153	128.96	54.844	1.2855e-05	32.524	-107.099	-132.511	-103.297	-139.402	18.231	-16.736	-141.608	-133.781	26.494	88.365	-137.424	-133.857	-129.066	-124.429	-146.410	-129.732	-8191	255	
21547.764	1	1	0	0	0.31521	0.078279	0.21777	0.35157	0.098022	0.17879	0.18443	0.2653	0.39538	0.21161	0.39326	0.24239	0.20877	0.24176	0.1051	0.12745	-0.5	-0.52083	-0.35208	-1.2188	-0.31875	-0.53333	-1.0292	-0.42917	-0.88542	-0.61458	-0.03125	-0.88125	-0.33542	-0.44792	-1.0396	-0.16042	-111.854	129.313	100.660	200.302	97.087	161.986	117.450	84.023	-74.480	181.914	133.288	20.143	-117.603	135.296	-71.941	-3.495	0.00018178	0.00096572	8.5112e-05	1272	3.8276e-06	8.7797e-06	713.49	392.39	1.4078e-06	4.3547e-06	215.72	67.717	132.87	56.853	6.063e-06	32.312	0.0010845	0.0012176	0.00034032	1207.5	1.3381e-05	1.3609e-05	693.99	374.96	1.347e-05	1.3661e-05	215.16	67.983	128.66	54.936	1.2914e-05	32.465	-128.653	-58.648	13.466	-139.636	66.108	142.453	-142.050	-133.913	-64.029	66.383	-137.229	-133.721	-129.281	-124.327	45.038	-130.072	-8191	255	
21547.836	1	1	0	0	0.16598	0.07421	0.16703	0.24073	0.15733	0.087438	0.25832	0.36046	0.10282	0.14033	0.25071	0.14247	0.14108	0.26111	0.244	0.40573	-0.42292	-0.57292	-0.0625	-1.0792	-0.34375	-0.2375	-1.0167	-0.175	-0.63958	-0.67292	-0.22083	-1.0438	-0.4875	-0.32292	-1.075	-0.19583	-141.352	-85.586	15.330	-150.497	161.267	103.256	158.779	176.702	1.901	115.678	170.892	190.878	147.575	-130.229	162.290	59.649	0.00026594	0.00053337	8.5774e-05	1269.3	6.4368e-06	6.4146e-06	716.35	394.15	8.0815e-06	3.0854e-06	217.37	68.62	133.45	56.997	9.1987e-06	32.839	0.001035	0.0011444	0.00031146	1203	1.1686e-05	1.1922e-05	693.97	374.7	1.179e-05	1.2207e-05	214.97	68.143	128.91	55.101	1.2545e-05	32.693	-111.716	-79.408	-44.767	-139.604	-14.808	-43.822	-141.999	-134.072	-28.772	136.808	-137.668	-133.511	-129.536	-124.591	-8.675	-129.703	-8191	255	
21547.955	1	1	0	0	0.16794	0.10816	0.097987	0.13997	0.33054	0.27048	0.27571	0.42143	0.090686	0.31252	0.13608	0.1813	0.1346	0.12966	0.2267	0.25685	-0.2375	-0.825	-0.15625	-1.1479	-0.54375	-0.325	-1.1562	-0.36875	-0.66875	-0.73125	-0.064583	-1	-0.54583	-0.19167	-1.1146	-0.17292	-149.202	80.124	60.684	-79.330	33.903	101.344	149.503	121.913	-97.509	17.708	206.578	-99.707	198.379	205.556	160.179	-110.414	0.00019012	0.00060403	5.9977e-05	1277.4	6.5112e-06	6.7987e-06	721.94	393.16	5.8422e-06	1.1092e-05	218.64	68.093	134.47	57.375	1.1531e-05	33.279	0.0010502	0.0011598	0.00032779	1209.2	1.2576e-05	1.2868e-05	697.45	375.72	1.2445e-05	1.2643e-05	215.67	68.475	129.73	55.291	1.2377e-05	33.046	-84.847	-59.035	194.695	-139.755	69.877	-20.371	-141.931	-134.248	57.717	-57.101	-137.348	-132.909	-129.687	-124.061	-6.285	-130.243	-8191	255	
21548.053	1	1	0	0	0.081438	0.27593	0.15643	0.18812	0.2763	0.33121	0.023383	0.27032	0.18131	0.16905	0.046626	0.13511	0.18079	0.059197	0.10015	0.17873	-0.064583	-1.0688	0.047917	-1.0187	-0.64375	-0.15625	-0.98333	-0.37917	-0.525	-0.96875	-0.1625	-0.87708	-0.68333	-0.33958	-0.975	-0.6125	-11.058	136.113	198.568	122.580	134.187	110.507	93.782	101.707	187.085	36.134	-50.837	125.345	182.215	3.214	153.535	78.645	0.00020957	0.00056974	6.8295e-05	1276.7	2.5048e-06	3.5246e-06	728.4	394.19	6.7953e-06	3.9474e-06	218.48	67.957	134.46	57.261	9.8696e-06	32.908	0.0010489	0.0011415	0.00031338	1211.9	1.2585e-05	1.2684e-05	703.44	376.36	1.2679e-05	1.2773e-05	216.4	68.679	129.39	55.255	1.261e-05	32.731	-104.957	-103.612	161.778	-139.678	158.062	-121.236	-141.736	-133.899	-0.131	84.737	-137.682	-133.298	-129.249	-124.443	15.883	-129.860	-8191	255	
21548.148	1	1	0	0	0.19616	0.067544	0.074991	0.23091	0.27225	0.21282	0.3021	0.54958	0.11149	0.45016	0.12714	0.18093	0.24869	0.2039	0.29512	0.15881	0.083333	-0.96458	-0.1375	-0.59167	-0.67292	0.00625	-0.86875	-0.35833	-0.095833	-0.99375	-0.17708	-0.47292	-0.92917	-0.052083	-0.89792	-0.50833	141.789	20.671	207.627	181.881	-129.596	78.201	-33.558	141.728	168.062	-149.245	107.823	-72.829	95.479	14.524	25.455	151.323	0.00016397	0.00044152	8.2839e-05	1274.6	4.8755e-06	3.8568e-06	722.78	392.83	8.595e-06	3.5329e-06	216.8	67.93	133.57	56.851	4.3995e-06	32.297	0.0010829	0.0011798	0.00032415	1206	1.282e-05	1.2692e-05	695.02	375.37	1.2555e-05	1.2557e-05	214.31	67.962	128.91	54.905	1.2435e-05	32.449	-95.527	-60.334	170.441	-139.561	-8.304	-32.728	-141.755	-134.026	11.101	165.282	-137.514	-133.261	-129.196	-124.077	176.978	-129.730	-8191	255	
21548.244	1	1	0	0	0.11461	0.065009	0.22983	0.26783	0.28536	0.098615	0.086171	0.41742	0.22649	0.16792	0.15157	0.23364	0.25987	0.082125	0.38145	0.27426	0.19167	-0.84583	-0.24792	-0.65833	-0.6125	-0.2375	-0.73958	-0.6125	-0.10208	-1.0917	-0.33125	-0.54583	-1	-0.16458	-0.8875	-0.70208	152.123	74.824	162.932	132.257	21.137	-48.731	8.206	143.397	-120.060	4.975	-6.425	-134.097	186.492	6.438	170.567	126.150	0.00023453	0.00039062	0.00030941	1267.4	1.3779e-05	1.5714e-06	717.99	392.49	9.1551e-06	9.04e-06	218.2	69.087	134.66	57.774	8.1291e-06	32.997	0.0010644	0.0011524	0.00031863	1204.7	1.2291e-05	1.2288e-05	694.87	374.01	1.2124e-05	1.2118e-05	215.83	68.405	129.49	55.456	1.2094e-05	32.96	-88.643	-86.038	-77.099	-139.449	-78.914	133.209	-141.531	-133.898	21.046	-1.839	-137.726	-133.150	-129.231	-124.540	-11.156	-129.694	-8191	255	
21548.365	1	1	0	0	0.26653	0.13296	0.21778	0.23253	0.038598	0.17183	0.21602	0.36619	0.09017	0.063087	0.14603	0.20887	0.088326	0.29417	0.017529	0.25391	0.35	-0.85417	-0.11458	-0.36667	-1.05	-0.31042	-0.67917	-0.88125	-0.10833	-1.0292	-0.50833	-0.42083	-1.1167	-0.32708	-0.8625	-0.78333	51.521	-68.659	107.559	165.766	135.538	34.736	172.833	148.869	-55.406	149.799	-49.951	174.989	168.433	150.634	160.932	-102.075	0.00026628	0.00020998	0.00014733	1278.7	1.9406e-06	5.8881e-06	732.08	396.04	5.043e-06	6.5927e-06	219.55	69.433	134.45	57.206	6.8263e-06	33.263	0.0010314	0.0011321	0.0003191	1212.5	1.2532e-05	1.2623e-05	702.68	378.12	1.2491e-05	1.2477e-05	217.71	69.268	129.97	55.298	1.2197e-05	33.19	-107.803	174.807	-66.480	-139.516	-79.022	25.871	-141.724	-134.167	166.920	3.803	-136.836	-133.153	-128.908	-124.455	170.856	-129.760	-8191	255	
21548.438	1	1	0	0	0.095815	0.36042	0.094039	0.087561	0.21761	0.17117	0.14529	0.37058	0.11282	0.069665	0.17753	0.15631	0.28128	0.20427	0.12125	0.23332	0.19375	-0.775	-0.46042	-0.41875	-1.1521	-0.13542	-0.71458	-0.80417	-0.06875	-0.675	-0.62083	-0.26667	-0.97292	-0.25833	-0.54792	-0.9375	92.088	157.149	-53.637	-147.984	206.204	65.480	177.456	168.379	124.490	-36.661	168.693	109.499	198.332	-87.388	34.690	-105.135	0.00022403	0.00034618	0.00025124	1281.9	6.4544e-06	4.4237e-06	738.11	397.72	8.5456e-06	8.9763e-06	220.92	69.354	135.23	57.513	1.0084e-05	33.566	0.0010232	0.0011038	0.00031127	1216.4	1.2056e-05	1.2152e-05	709.31	379.05	1.1973e-05	1.1964e-05	218.3	69.573	130.36	55.617	1.2049e-05	33.291	-114.926	-66.955	-127.121	-139.437	29.380	51.925	-141.593	-134.285	-32.349	-91.918	-137.620	-133.549	-129.085	-124.369	-78.757	-129.601	-8191	255	
21548.533	1	1	0	0	0.19061	0.22316	0.18087	0.06183	0.1862	0.14807	0.082291	0.3062	0.073592	0.1309	0.15379	0.18084	0.28473	0.084788	0.16415	0.17994	0.17292	-0.89583	-0.17292	-0.25625	-1.0542	-0.17917	-0.54167	-0.9125	0.027083	-0.9375	-0.7	0.04375	-0.99167	-0.44583	-0.49167	-1.0958	-8.257	129.901	40.989	-132.778	-91.954	165.337	199.734	152.755	-4.207	103.730	138.379	133.183	-94.638	3.570	144.247	46.156	0.00018518	0.00094371	5.4589e-05	1278.8	7.8342e-06	7.2287e-06	733.51	397.34	2.8861e-06	3.7437e-06	221.31	68.524	134.57	57.486	7.2442e-06	33.387	0.0010039	0.0010842	0.0003069	1213.7	1.1694e-05	1.1782e-05	702.53	378.32	1.1759e-05	1.1885e-05	217.85	68.662	129.87	55.623	1.202e-05	33.054	-100.947	-25.821	-35.284	-139.515	-47.206	-139.711	-141.759	-134.167	-104.642	157.728	-137.689	-133.013	-129.301	-124.278	104.474	-129.868	-8191	255	
21548.654	1	1	0	0	0.091459	0.10621	0.18916	0.31055	0.11503	0.021212	0.23513	0.39183	0.17001	0.091686	0.14045	0.088539	0.14899	0.039256	0.14624	0.072864	0.33125	-0.83542	-0.56458	-0.44792	-1.0833	-0.5125	-0.27917	-1.1208	-0.17917	-0.8125	-0.75833	-0.125	-1.0354	-0.55833	-0.34167	-0.99167	-32.878	0.983	207.938	158.300	-123.676	149.076	125.637	-150.429	-124.500	115.849	16.911	60.831	190.798	-46.498	72.159	120.865	0.00029092	0.0006125	0.00016184	1279.4	2.8532e-06	6.4411e-06	728.87	397.15	6.1507e-06	4.8991e-06	220.43	69.594	135.42	57.766	5.6473e-06	33.437	0.0010112	0.0010893	0.00031057	1212.4	1.1978e-05	1.2098e-05	702.62	378.61	1.1905e-05	1.2089e-05	218.41	69.333	130.42	55.84	1.2279e-05	33.328	-106.681	-55.134	-36.572	-139.384	-106.689	173.441	-141.806	-133.639	0.826	80.406	-137.817	-133.754	-129.197	-124.163	19.640	-130.188	-8191	255	
21548.748	1	1	0	0	0.13655	0.18676	0.15492	0.09916	0.085821	0.1192	0.46051	0.058514	0.17659	0.12813	0.19809	0.19168	0.20532	0.24876	0.16955	0.27121	0.19167	-0.50208	-0.8375	-0.21667	-0.83125	-0.59792	-0.25208	-1.1	-0.3	-0.47292	-0.98958	0.0041667	-0.925	-0.81667	0.052083	-1.0354	60.519	-81.075	-80.106	-121.163	-142.328	-34.852	166.910	91.159	-142.925	-19.354	135.984	150.437	181.936	102.017	70.874	141.117	0.00026615	0.0010345	0.00023968	1284.5	6.2653e-06	1.1458e-06	732.27	399.4	6.4895e-06	9.4931e-06	223.82	69.795	135.31	58.207	8.7517e-06	33.963	0.0010171	0.001101	0.00031048	1214.5	1.211e-05	1.2245e-05	705.63	380.27	1.215e-05	1.2199e-05	219.55	69.777	130.86	56.006	1.2236e-05	33.633	-108.317	-100.824	-24.895	-139.428	-22.739	39.905	-141.621	-134.162	-56.706	19.312	-137.713	-133.398	-129.027	-124.745	90.390	-129.457	-8191	255	
21548.844	1	1	0	0	0.064414	0.12071	0.093197	0.25472	0.16177	0.15064	0.090429	0.23828	0.13432	0.10038	0.20175	0.16853	0.31905	0.25077	0.067287	0.1297	0.28125	-0.53542	-0.91667	-0.14583	-0.76458	-0.675	-0.095833	-0.9625	-0.24167	-0.2875	-0.95833	-0.1625	-0.95	-0.7	-0.083333	-0.94375	-102.245	51.591	-66.918	197.266	-3.628	96.914	63.834	196.398	113.028	-115.915	-63.107	172.441	122.194	121.883	-49.461	18.774	0.0001588	0.00039913	0.0002476	1284.2	7.0361e-06	6.1602e-06	738.55	398.48	8.2094e-06	8.5601e-06	224.47	70.179	136.38	58.066	8.257e-06	34.088	0.0010101	0.0011068	0.00031322	1217.6	1.2034e-05	1.2441e-05	712.79	381.24	1.1982e-05	1.2178e-05	221.05	70.388	131.47	56.199	1.1921e-05	33.878	-128.407	-97.305	0.949	-139.582	17.600	11.812	-141.659	-134.014	-11.034	-10.440	-137.728	-133.595	-129.101	-124.504	10.780	-129.546	-8191	255	
21548.941	1	1	0	0	0.19835	0.095711	0.15055	0.30159	0.35633	0.05266	0.048942	0.15877	0.17538	0.18807	0.12454	0.10219	0.21987	0.17154	0.086769	0.033614	0	-0.21667	-0.85625	-0.33542	-0.84167	-0.9375	-0.30208	-1.1854	-0.56458	-0.3875	-1.1875	-0.125	-0.8875	-0.87292	-0.039583	-1.0396	43.540	-27.903	-88.152	191.188	-72.816	104.952	-127.549	-143.571	100.371	-150.296	51.632	164.356	161.821	-134.413	179.170	114.811	0.00022626	0.00048236	0.000253	1287.6	4.0259e-06	2.6965e-06	737.25	397.73	8.389e-06	3.1656e-06	221.17	69.426	135.25	57.602	8.1085e-06	33.417	0.0010176	0.0011142	0.00030471	1219.4	1.1805e-05	1.2048e-05	709.23	379.72	1.1953e-05	1.1977e-05	218.57	69.344	130.41	55.704	1.1817e-05	33.276	-113.307	196.102	-15.064	-139.713	-7.004	-116.741	-141.941	-134.183	-56.639	92.890	-137.344	-133.528	-129.131	-124.313	8.295	-129.618	-8191	255	
21549.037	1	1	0	0	0.24475	0.17221	0.15247	0.35643	0.17143	0.044102	0.2295	0.51646	0.085872	0.05024	0.11182	0.15318	0.14486	0.1963	0.05422	0.11238	-0.05	-0.21458	-0.95833	-0.3	-0.59167	-1.0771	-0.29167	-0.925	-0.80417	-0.13333	-1.1917	-0.3	-0.53542	-1.0604	-0.035417	-0.94375	159.392	-149.597	22.946	197.955	-125.147	26.817	165.687	182.671	57.135	63.197	-52.615	173.855	-146.823	-116.730	146.785	150.705	0.00020718	0.00089964	0.00015473	1290.3	1.101e-05	8.503e-06	734.38	400.57	4.3249e-06	6.147e-06	222.96	69.045	135.28	57.615	3.303e-06	33.67	0.0010101	0.001085	0.00029912	1218.5	1.1664e-05	1.1771e-05	707.56	380.17	1.1694e-05	1.1784e-05	218.43	68.947	130.12	55.505	1.1762e-05	33.401	-93.799	-21.954	-132.417	-139.780	14.466	14.451	-141.911	-133.764	-66.996	-97.972	-137.559	-133.857	-128.807	-124.370	126.638	-129.683	-8191	255	
21549.133	1	1	0	0	0.09244	0.19091	0.22499	0.31569	0.093388	0.27132	0.14671	0.24148	0.24835	0.18501	0.2358	0.17145	0.15849	0.191	0.090763	0.18161	-0.21042	-0.06875	-0.92708	-0.24792	-0.35833	-0.95417	-0.083333	-0.82708	-0.69792	-0.00625	-1.0312	-0.31042	-0.29167	-1.1437	-0.13958	-0.76875	-14.643	165.358	166.101	159.707	28.639	123.364	85.325	197.296	-6.912	-111.193	204.144	149.019	172.615	-146.123	-15.668	16.970	0.00017631	0.00033006	4.1969e-05	1294.7	8.5533e-06	6.6177e-06	740.66	399.39	3.0725e-06	1.038e-05	223.54	68.934	135.08	57.687	3.15e-06	33.674	0.0009942	0.0010945	0.00029867	1223.5	1.189e-05	1.1752e-05	710.96	380.73	1.1811e-05	1.1869e-05	219.12	69.442	130.67	55.709	1.203e-05	33.509	-109.931	15.574	186.272	-139.816	-22.407	-42.652	-141.768	-134.132	-96.346	13.297	-137.438	-133.087	-129.030	-124.213	-18.181	-129.522	-8191	255	
21549.254	1	1	0	0	0.24673	0.11489	0.16563	0.52054	0.067129	0.28744	0.051408	0.41898	0.23479	0.17414	0.34567	0.31182	0.11437	0.37595	0.11437	0.23093	-0.46458	-0.10417	-0.925	-0.50417	-0.2875	-1.0604	-0.3375	-0.84167	-0.87917	-0.17708	-1.1604	-0.77917	-0.28542	-1.0917	-0.17083	-0.52708	-26.842	42.375	-58.085	190.315	-18.679	-100.070	-53.404	149.283	14.638	-26.468	-55.030	36.053	-14.141	193.846	27.032	81.264	0.00017958	0.00048378	0.00034572	1297.9	3.6519e-06	1.3153e-05	739.38	402.31	1.2823e-06	1.1688e-05	223.18	70.771	135.79	58.025	9.0163e-06	33.907	0.0010161	0.0011046	0.0003082	1225.7	1.2149e-05	1.2179e-05	712.93	382.31	1.2432e-05	1.2524e-05	220.84	70.432	130.99	55.975	1.2435e-05	33.856	-113.884	-7.287	-31.006	-139.687	-82.311	5.636	-141.623	-134.017	-80.277	5.251	-137.668	-133.415	-129.139	-124.375	78.999	-129.896	-8191	255	
21549.350	1	1	0	0	0.068705	0.091035	0.16037	0.26191	0.20975	0.14399	0.074258	0.21137	0.10173	0.13012	0.033769	0.13822	0.41949	0.23162	0.39171	0.16874	-0.49792	-0.12708	-0.80208	-0.92708	-0.26875	-0.92708	-0.41875	-0.59792	-1.0021	-0.1875	-0.88542	-0.66458	-0.45833	-1.1583	-0.14167	-0.28958	-29.377	8.374	-17.102	202.465	-79.856	-136.874	-46.079	135.331	-7.100	161.290	24.225	-13.969	122.573	-106.013	185.786	-21.178	0.00030859	0.00041185	0.00024296	1292	1.0517e-05	6.6447e-06	738.91	398.97	3.756e-06	2.4644e-06	221.13	69.365	135.13	57.659	4.8097e-06	33.501	0.0010583	0.001144	0.00031843	1225.1	1.2521e-05	1.2303e-05	712.21	380.81	1.2304e-05	1.2431e-05	218.48	69.499	130.5	55.499	1.2682e-05	33.307	-98.020	41.734	-35.913	-139.832	0.906	162.648	-142.193	-133.837	-63.311	-86.814	-137.524	-133.569	-129.053	-124.385	-31.977	-129.601	-8191	255	
21549.445	1	1	0	0	0.29557	0.12772	0.20114	0.25611	0.18835	0.03839	0.06872	0.32979	0.16734	0.21937	0.31048	0.1714	0.35198	0.39963	0.26538	0.25042	-0.56042	-0.060417	-0.62917	-0.96875	-0.0875	-0.85208	-0.60833	-0.51458	-0.99583	-0.23542	-0.74375	-0.87083	-0.27917	-1.0625	-0.35625	-0.39375	83.652	162.270	-111.543	121.441	-54.980	-60.378	171.208	200.727	70.914	-75.496	182.521	130.583	-145.179	153.884	201.835	191.734	0.00018774	0.00020866	0.00015145	1280.3	8.7639e-06	1.1913e-05	734.8	396.54	5.8758e-06	8.8101e-06	219.55	68.823	134.5	57.318	5.4174e-06	32.984	0.0010611	0.0011621	0.00032134	1215.1	1.2554e-05	1.2684e-05	704.24	379.01	1.2683e-05	1.2808e-05	218.07	69.02	129.91	55.379	1.3122e-05	33.041	-105.966	-83.645	-136.326	-139.863	-56.954	31.389	-141.992	-133.787	24.568	142.290	-137.755	-133.700	-129.313	-123.935	-48.797	-130.067	-8191	255	
21549.539	1	1	0	0	0.29404	0.18098	0.11393	0.22141	0.037756	0.13993	0.18732	0.25174	0.073375	0.24991	0.2598	0.10604	0.15986	0.18582	0.089031	0.32103	-0.61458	-0.15208	-0.65417	-1.025	-0.34375	-0.95833	-0.63333	-0.22292	-1.1125	-0.23125	-0.67292	-0.75	-0.17083	-0.85	-0.41042	-0.041667	196.383	-81.477	88.265	159.834	79.541	205.064	114.332	194.499	-44.244	-129.268	127.464	-17.460	-122.990	105.777	34.423	-88.833	0.00015443	0.00062376	0.00018795	1279.7	8.3262e-06	9.9947e-06	732.87	395.59	9.7994e-07	5.2973e-06	220.04	68.713	134.37	57.276	1.0233e-05	32.863	0.0010769	0.0011805	0.00032694	1213	1.2844e-05	1.2947e-05	703.56	378.73	1.2811e-05	1.2963e-05	218.75	69.053	130.05	55.324	1.3365e-05	32.974	-93.158	-126.151	-145.708	-139.762	52.802	-26.707	-141.820	-133.942	25.188	-52.763	-137.797	-133.679	-128.819	-124.388	-8.712	-129.582	-8191	255	
21549.660	1	1	0	0	0.21557	0.19459	0.22535	0.2629	0.23183	0.17637	0.14873	0.21754	0.067517	0.18544	0.28106	0.032046	0.40125	0.21265	0.21983	0.28422	-0.54375	-0.15625	-0.48958	-1.0333	-0.00625	-0.82083	-0.88125	-0.1625	-0.99375	-0.40417	-0.38333	-1.1521	-0.29167	-0.79583	-0.59375	-0.23542	-74.726	207.866	-1.764	197.102	6.336	102.426	-143.176	-138.542	-129.698	169.263	-145.283	4.610	153.782	174.607	-19.261	163.373	0.00017806	0.0011002	8.9121e-05	1280.1	5.2385e-06	2.7672e-06	726.86	395.95	5.3501e-06	8.8531e-06	218.93	68.819	135.68	57.246	9.9068e-06	33.109	0.0010901	0.001209	0.00033133	1213.6	1.2833e-05	1.2987e-05	702.46	378.68	1.2924e-05	1.3275e-05	217.92	68.984	130.52	55.338	1.3376e-05	33.102	-97.012	-59.152	102.976	-139.578	-3.013	192.287	-141.932	-134.043	183.596	-5.799	-137.123	-133.185	-129.217	-124.316	90.950	-129.434	-8191	255	
21549.732	1	1	0	0	0.21783	0.12218	0.069218	0.16839	0.26212	0.28313	0.22644	0.26876	0.16212	0.21	0.12264	0.062018	0.18235	0.24525	0.18913	0.084286	-0.71875	-0.37083	-0.19167	-1.2583	-0.047917	-0.7375	-0.72083	-0.06875	-0.90208	-0.30208	-0.35208	-1.0812	-0.26667	-0.82917	-0.88125	0.00625	53.039	95.092	-27.260	119.992	-126.761	-22.927	119.615	188.134	179.843	-16.135	-149.254	92.598	-88.842	179.382	74.136	46.728	0.00020636	0.00042374	0.00016218	1283.1	6.2409e-06	6.2823e-06	729.24	395.77	3.8532e-06	6.1568e-06	218.86	67.934	133.26	56.693	3.757e-06	32.437	0.0011125	0.001242	0.00033851	1214.2	1.3123e-05	1.3297e-05	704.55	378.68	1.3001e-05	1.3298e-05	216.27	68.177	129.01	54.754	1.2962e-05	32.332	-98.233	-22.299	-130.160	-139.506	-19.918	-109.696	-142.064	-134.183	22.432	31.976	-136.994	-133.908	-128.975	-124.186	-109.064	-129.330	-8191	255	
21549.828	1	1	0	0	0.17712	0.040818	0.053679	0.089911	0.35495	0.15767	0.4361	0.23936	0.13538	0.2956	0.38137	0.013177	0.33273	0.28754	0.31964	0.11813	-0.71667	-0.55	0.052083	-1.0979	-0.19583	-0.39167	-1.1125	-0.0625	-0.90417	-0.55625	-0.30625	-0.99583	-0.44792	-0.3125	-1.2604	-0.22083	-125.852	139.629	82.211	146.234	115.630	122.447	77.738	188.976	-75.486	-117.472	206.216	4.324	207.892	-131.440	-135.048	-133.123	0.00025468	0.0004743	0.00020681	1264.4	3.934e-06	6.9421e-06	714.99	392.36	4.1721e-06	8.7269e-07	214.78	67.467	132.82	56.223	8.7548e-06	32.083	0.0010765	0.0012076	0.00033578	1201.5	1.321e-05	1.3311e-05	691.84	374.52	1.2996e-05	1.3081e-05	213.08	67.475	128.41	54.41	1.3146e-05	32.125	-76.479	-134.273	-40.114	-139.385	62.508	-12.790	-141.508	-134.101	34.161	205.388	-137.777	-133.123	-128.585	-124.219	6.578	-129.379	-8191	255	
21549.926	1	1	0	0	0.16155	0.034855	0.13834	0.096011	0.26451	0.29603	0.20528	0.26168	0.20256	0.19361	0.10103	0.14976	0.062226	0.13358	0.27603	0.044418	-0.50208	-0.63542	0.03125	-1.0896	-0.34792	-0.29167	-1.0312	-0.10833	-0.6375	-0.85417	-0.020833	-0.99792	-0.30625	-0.45625	-1.1562	-0.27292	100.765	167.787	-115.592	-149.739	-0.152	146.205	159.314	156.946	-3.996	134.657	168.633	-120.983	-147.383	-1.419	-112.415	-123.826	0.00025846	0.0005433	8.8949e-05	1271.9	5.0485e-06	8.6633e-06	712.43	390.4	2.3725e-06	1.1348e-05	217.09	67.088	132.76	56.562	1.6567e-06	32.406	0.0010853	0.0012069	0.00033047	1202.2	1.3027e-05	1.3062e-05	688.55	373.49	1.28e-05	1.2898e-05	214.14	67.637	128.38	54.557	1.2633e-05	32.336	-121.569	-136.834	-96.897	-139.424	-64.959	176.011	-141.783	-133.865	190.927	2.068	-137.425	-133.165	-129.048	-124.167	-150.743	-129.876	-8191	255	
21550.045	1	1	0	0	0.15103	0.1904	0.19955	0.23224	0.26197	0.25516	0.0783	0.16525	0.090389	0.049836	0.12056	0.25183	0.10127	0.19649	0.068032	0.043828	-0.175	-0.63958	-0.079167	-1.0271	-0.56667	0.016667	-1.1625	-0.10208	-0.46458	-0.47708	-0.01875	-0.9	-0.625	-0.37917	-1.0271	-0.42292	-20.560	185.851	32.660	-87.142	170.283	187.528	207.897	-144.630	111.535	130.606	-63.761	111.917	93.424	-124.847	-64.407	-137.613	0.00019836	0.00032058	0.00014953	1273.9	8.9815e-06	4.2736e-06	712.05	392.82	3.7988e-06	2.4365e-06	216.39	68.38	133.25	56.623	7.4408e-06	32.463	0.0010623	0.0011786	0.00032602	1205.9	1.2817e-05	1.299e-05	690.86	374.79	1.2612e-05	1.2745e-05	214.67	68.173	128.89	54.723	1.2488e-05	32.469	-110.647	130.378	52.771	-139.588	-103.701	66.051	-141.649	-134.030	-88.968	185.238	-137.423	-132.671	-128.513	-124.154	-34.764	-129.695	-8191	255	
21550.143	1	1	0	0	0.20614	0.13361	0.26744	0.26272	0.23157	0.20157	0.12467	0.2381	0.17796	0.049338	0.085389	0.10699	0.28156	0.20343	0.37275	0.18091	-0.16458	-0.91042	-0.13333	-0.825	-0.63125	-0.10833	-1.1375	-0.28542	-0.47917	-1.0833	0.0083333	-0.65625	-0.88333	-0.025	-0.925	-0.43958	69.610	25.094	-150.661	189.243	74.500	33.177	116.718	172.594	-127.788	70.050	-78.458	75.663	145.726	206.607	63.299	96.368	0.00026902	0.00089822	0.0001402	1276.7	7.6979e-06	4.3321e-06	725.62	392.39	4.5983e-06	2.0287e-05	218.03	68.456	133.85	57.004	5.4148e-06	32.755	0.0010482	0.0011559	0.00032016	1207.4	1.2558e-05	1.258e-05	695.25	375.58	1.2329e-05	1.2529e-05	215.99	68.496	129.52	54.892	1.2508e-05	32.529	-119.789	-82.420	107.243	-139.208	-50.077	-44.104	-141.374	-133.844	53.086	11.701	-137.190	-133.056	-128.823	-124.280	-85.829	-129.486	-8191	255	
21550.238	1	1	0	0	0.25576	0.081248	0.18206	0.29791	0.10299	0.1774	0.07531	0.077434	0.18888	0.14959	0.079125	0.1616	0.19524	0.060199	0.13271	0.15529	0.20833	-0.84583	0.029167	-0.65208	-0.79792	0.0625	-0.97292	-0.60833	-0.25625	-1.0792	-0.12083	-0.6875	-0.88125	-0.1125	-0.87917	-0.5375	61.465	37.579	84.663	190.768	-78.009	-43.144	138.043	97.330	197.985	-147.450	152.222	160.935	10.580	7.252	-74.242	13.413	0.00020619	0.00095136	5.0791e-05	1267.7	1.2239e-05	1.1172e-05	712.59	390.85	2.5733e-06	8.6431e-06	216.28	67.743	133.41	56.638	5.6654e-06	32.197	0.0010709	0.0011596	0.00032469	1201.3	1.262e-05	1.2603e-05	688.86	373.05	1.2318e-05	1.2306e-05	213.21	67.522	128.41	54.611	1.259e-05	32.143	-99.367	-66.807	-89.616	-139.209	-68.551	-8.125	-141.409	-133.505	-77.943	34.541	-136.971	-133.050	-129.015	-123.993	-97.999	-129.605	-8191	255	
21550.334	1	1	0	0	0.075891	0.20623	0.064185	0.065092	0.18184	0.19169	0.13342	0.29611	0.18545	0.23111	0.26722	0.18501	0.2122	0.18404	0.21601	0.34814	0.225	-0.95208	-0.12917	-0.64167	-0.93542	-0.19167	-0.97708	-0.625	-0.1875	-1.2229	-0.18125	-0.49375	-1.0104	-0.066667	-0.76458	-0.64375	-78.874	192.635	96.904	169.556	147.424	-37.602	196.461	143.469	-83.970	-94.525	-43.041	160.909	-80.418	193.124	179.867	124.372	0.00019358	0.0003115	0.0001135	1269.5	9.2412e-06	1.1023e-05	714.89	391.14	5.6551e-06	4.7403e-06	217.74	67.44	133.98	56.852	9.407e-06	32.185	0.0010401	0.0011512	0.00032081	1198.1	1.2473e-05	1.2645e-05	689.18	373.43	1.2672e-05	1.2739e-05	214.23	67.834	128.97	54.648	1.274e-05	32.305	-106.713	-64.812	198.250	-139.362	-79.256	50.071	-141.125	-133.451	-12.308	-68.489	-136.655	-133.106	-128.694	-124.583	-115.032	-129.045	-8191	255	
21550.430	1	1	0	0	0.026859	0.012544	0.11704	0.057058	0.1613	0.21487	0.19493	0.23753	0.05253	0.22965	0.040878	0.17324	0.207	0.16635	0.2749	0.18559	0.37083	-1.0812	-0.29167	-0.67708	-0.91667	-0.05625	-0.55	-0.83333	-0.09375	-1.2104	-0.44583	-0.175	-1.2938	-0.30208	-0.86667	-0.85833	-65.713	153.595	-20.790	162.214	-97.852	46.752	144.897	104.893	25.274	122.293	62.442	-90.034	157.244	169.380	-137.944	-150.688	0.0002197	0.00058416	0.00024827	1268.2	1.8877e-06	4.9989e-06	717.46	392.68	3.3531e-06	1.4115e-05	214.85	67.324	133.41	56.464	4.7194e-06	32.517	0.0010634	0.0011481	0.00032886	1200	1.284e-05	1.2909e-05	691.41	373.24	1.28e-05	1.2884e-05	213.86	68.102	128.67	54.739	1.3353e-05	32.746	-124.182	-122.197	-16.564	-139.396	164.177	-48.299	-141.369	-133.593	-1.716	6.498	-136.931	-133.110	-128.791	-124.076	-98.754	-129.338	-8191	255	
21550.525	1	1	0	0	0.054913	0.073075	0.10507	0.13634	0.24712	0.21843	0.033542	0.25969	0.092136	0.061292	0.34093	0.18533	0.14812	0.13298	0.36424	0.16906	0.43125	-0.98542	-0.47708	-0.26875	-1.3167	-0.097917	-0.65208	-0.89167	-0.225	-1.0708	-0.67917	-0.21458	-1.1042	-0.35208	-0.52083	-1.0208	-111.001	98.793	184.208	199.276	-14.645	-19.574	100.415	147.517	-92.519	-10.773	136.781	-71.409	-147.438	115.328	150.152	-59.576	0.00028522	0.00038588	0.00011896	1261.2	7.2433e-06	3.1682e-06	716.51	393.01	7.2274e-06	2.4602e-06	216.46	66.957	132.86	56.764	7.3149e-06	32.368	0.0011235	0.001236	0.00035228	1200.6	1.34e-05	1.3881e-05	692.8	373.94	1.3452e-05	1.3637e-05	215.6	68.212	129.09	54.879	1.353e-05	32.517	-113.213	-90.592	186.231	-139.315	203.722	116.344	-141.393	-133.510	8.481	-10.666	-137.396	-133.261	-128.679	-124.196	13.590	-129.809	-8191	255	
21550.621	1	1	0	0	0.19916	0.33	0.10394	0.27108	0.3541	0.11792	0.054651	0.40305	0.21951	0.29566	0.21412	0.077276	0.23967	0.22167	0.21947	0.33199	0.45208	-0.65417	-0.51875	-0.18958	-0.97708	-0.24375	-0.46875	-0.93958	0.016667	-0.90625	-0.70625	-0.15833	-1.0396	-0.325	-0.39792	-0.73125	160.915	18.434	45.632	-95.670	188.982	-19.731	121.018	169.383	-131.596	-88.413	127.352	-116.014	139.462	196.311	137.544	110.312	0.00019077	0.00046344	0.0002242	1258.8	4.1294e-06	1.5853e-06	706.77	386.26	5.2921e-06	6.1869e-06	210.87	65.715	132.14	55.963	1.3626e-05	31.838	0.001153	0.0012669	0.00036035	1196.5	1.3901e-05	1.4561e-05	686.41	371.07	1.4814e-05	1.4964e-05	212.99	67.563	128.15	54.331	1.5318e-05	32.243	-97.851	101.202	-105.553	-139.175	-25.342	-78.142	-141.496	-133.614	54.579	64.400	-137.100	-133.159	-128.983	-124.056	-26.537	-129.684	-8191	255	
21550.740	1	1	0	0	0.12656	0.044435	0.17942	0.33077	0.14061	0.21797	0.13282	0.1287	0.074585	0.3834	0.11363	0.13301	0.17935	0.30321	0.11452	0.16924	0.37708	-0.79375	-0.6875	-0.25417	-1.0167	-0.23958	-0.48333	-1.2875	-0.29583	-0.55833	-0.73542	-0.083333	-1.0729	-0.47917	-0.26667	-1.1542	187.385	-31.509	133.745	185.112	205.237	47.427	175.681	60.114	94.613	25.229	65.188	84.672	-45.080	148.034	-80.105	21.073	0.00028831	0.00012235	0.00022548	1255.6	9.5616e-06	1.0099e-05	705.98	387.41	3.2772e-06	8.848e-06	213.64	66.821	131.81	56.106	4.0725e-06	32.015	0.0012577	0.0013932	0.00039046	1194.3	1.4882e-05	1.5173e-05	684.5	370.54	1.4701e-05	1.472e-05	214.49	67.798	128.05	54.575	1.4404e-05	32.435	-117.293	170.996	201.830	-139.335	-0.847	11.209	-141.314	-133.700	-7.728	52.052	-137.198	-133.029	-128.610	-124.328	-94.798	-129.697	-8191	255	
21550.838	1	1	0	0	0.22193	0.10218	0.24412	0.12994	0.22673	0.046831	0.13997	0.12495	0.43854	0.20927	0.19543	0.41403	0.025138	0.25377	0.086484	0.17529	0.31667	-0.40417	-0.95625	-0.35625	-0.97917	-0.84375	-0.42708	-1.1313	-0.19792	-0.54583	-1.0187	-0.21458	-1.0812	-0.64792	-0.26667	-1.15	143.690	26.732	149.250	78.217	-32.090	57.129	-141.384	144.685	30.019	-83.909	67.600	-58.853	138.556	175.795	146.070	113.364	0.00018372	0.00048121	0.00021333	1254.4	4.083e-07	3.3726e-06	706.62	389.04	2.538e-06	7.517e-06	213.96	67.648	132.52	55.971	2.706e-06	32.226	0.0012048	0.0013137	0.00036418	1190.9	1.4232e-05	1.4513e-05	685.37	371.5	1.4595e-05	1.4647e-05	213.93	68.188	128.44	54.47	1.4824e-05	32.572	-117.381	-48.131	15.356	-139.121	-54.771	95.655	-141.274	-133.281	95.333	-115.723	-136.896	-132.523	-128.727	-124.060	-60.061	-129.383	-8191	255	
21550.934	1	1	0	0	0.22966	0.19578	0.27528	0.080932	0.093172	0.11213	0.28801	0.060354	0.14229	0.42131	0.081073	0.20581	0.27657	0.30177	0.083055	0.085136	0.17917	-0.47292	-0.78958	-0.14375	-0.76458	-0.65833	-0.3125	-1.0479	-0.29792	-0.50625	-1.0917	-0.10417	-0.85208	-0.98542	-0.1	-1.125	121.977	102.094	49.222	114.526	-87.646	203.660	109.858	178.843	3.889	20.147	202.386	76.956	8.260	196.362	95.628	98.535	0.00017434	0.00023836	0.00011966	1255.8	1.4748e-05	7.2338e-06	714.4	388.47	2.0386e-06	9.1388e-06	214.48	67.175	132.2	55.911	5.4077e-06	32.037	0.0012588	0.001345	0.00037645	1192.6	1.4553e-05	1.4734e-05	688.02	371.08	1.44e-05	1.4293e-05	213.93	67.987	128.27	54.318	1.3973e-05	32.491	-99.164	-108.537	-35.435	-139.300	-2.891	191.884	-141.375	-133.800	82.628	51.268	-137.686	-133.277	-128.607	-124.277	30.197	-129.920	-8191	255	
21551.029	1	1	0	0	0.10529	0.19671	0.18001	0.37965	0.12614	0.10456	0.26837	0.12832	0.043929	0.16573	0.12534	0.23524	0.30554	0.24314	0.14749	0.29486	-0.060417	-0.45	-1.0542	-0.1875	-0.62708	-0.68542	-0.12292	-1.0167	-0.40417	-0.28125	-0.89375	-0.079167	-0.70833	-0.77708	-0.11667	-0.80208	32.998	174.724	-8.106	120.097	115.590	44.809	60.023	202.799	87.566	150.409	191.759	168.241	-70.845	-141.799	23.087	106.376	0.00029216	0.00038478	0.00012827	1261.9	8.6865e-06	8.7398e-06	705.05	387.5	2.7308e-06	7.5544e-06	210.92	65.798	130.83	55.641	2.7561e-06	31.967	0.0011894	0.0012832	0.00035168	1197.3	1.4056e-05	1.3996e-05	682.22	369.87	1.3895e-05	1.3874e-05	210.9	66.816	126.89	53.9	1.3942e-05	32.038	-106.590	-29.016	-105.635	-139.338	4.714	-6.956	-141.304	-133.575	10.836	16.041	-136.982	-133.331	-128.687	-124.218	73.328	-129.525	-8191	255	
21551.127	1	1	0	0	0.086818	0.12185	0.12113	0.19181	0.065826	0.061808	0.1701	0.11928	0.17527	0.018411	0.31581	0.19769	0.27133	0.24465	0.24814	0.23505	-0.26458	-0.12292	-1.05	-0.42917	-0.55625	-0.73542	-0.047917	-0.90833	-0.46875	-0.22083	-1.2667	-0.064583	-0.55625	-0.89375	-0.11458	-0.93958	11.783	40.509	168.323	116.607	-109.851	-117.470	129.133	112.886	-29.606	113.155	132.252	175.964	-144.123	83.780	-99.958	-140.420	0.00025369	0.00043069	0.00023258	1256	8.1588e-06	1.5215e-06	701.92	386.66	6.4184e-06	5.4337e-06	212.11	66.151	131.23	55.391	4.0638e-06	31.416	0.0011692	0.0012657	0.00035456	1191	1.3723e-05	1.3911e-05	679.61	369.71	1.3386e-05	1.3575e-05	210.26	66.53	126.95	53.657	1.3081e-05	31.674	-111.298	-51.232	-118.476	-139.221	-14.187	-88.299	-141.733	-133.655	-70.866	-27.948	-136.912	-133.475	-128.788	-124.336	-70.074	-129.407	-8191	255	
21551.223	1	1	0	0	0.23003	0.10855	0.13354	0.16337	0.37213	0.14437	0.22783	0.26619	0.32738	0.10752	0.1339	0.012694	0.33543	0.16622	0.14398	0.041602	-0.33958	0.058333	-0.82708	-0.46875	-0.29583	-1.0208	-0.37083	-0.95	-0.775	0.016667	-1.0312	-0.2625	-0.13958	-1.0771	-0.035417	-0.80833	116.607	167.499	-66.548	40.340	-37.858	87.405	127.291	137.923	120.170	-6.300	-150.574	-91.612	103.609	154.278	-123.092	177.786	0.00025167	0.0010584	0.00021381	1251.9	3.4263e-06	1.0269e-05	706.03	385.87	3.7275e-06	5.0777e-06	212.11	66.633	131.85	55.617	9.3274e-06	31.747	0.0011008	0.0011931	0.00033388	1187.1	1.3147e-05	1.3392e-05	679.94	369.88	1.3598e-05	1.3607e-05	211.38	67.175	127.14	53.884	1.3522e-05	31.983	-93.181	-48.529	-134.710	-139.573	123.398	22.077	-141.264	-133.407	169.169	-136.503	-136.996	-133.420	-129.019	-124.574	43.547	-129.497	-8191	255	
21551.344	1	1	0	0	0.096836	0.044017	0.10932	0.093776	0.10079	0.23057	0.30871	0.095884	0.2506	0.21349	0.095278	0.2052	0.37887	0.14065	0.17316	0.14941	-0.18958	0.1125	-0.90208	-0.57917	-0.1875	-0.99375	-0.25	-0.85417	-0.79375	-0.0875	-1.0229	-0.7375	-0.25833	-1.1521	-0.047917	-0.53958	-50.681	115.418	117.209	-127.032	-106.817	-53.069	199.535	113.887	151.648	5.221	32.189	138.721	204.347	-115.544	-2.104	125.889	0.00018423	0.00034622	9.3136e-05	1254.9	5.0463e-06	8.2039e-06	707.27	388.38	7.3487e-06	1.1544e-05	213.7	66.612	132.35	55.746	7.9121e-06	31.897	0.001116	0.0012125	0.00033952	1190.1	1.3121e-05	1.3297e-05	682.14	370.7	1.3143e-05	1.3312e-05	211.94	67.32	127.7	54.097	1.3586e-05	32.137	-115.484	-129.883	-75.729	-139.802	74.383	-14.962	-141.856	-133.901	-1.584	86.283	-137.300	-133.294	-128.828	-124.270	-69.840	-129.467	-8191	255	
21551.438	1	1	0	0	0.082935	0.19524	0.2795	0.013175	0.073964	0.18572	0.04625	0.19447	0.32002	0.14999	0.13556	0.098876	0.085711	0.34566	0.29046	0.27026	-0.475	0.033333	-0.77292	-0.62292	-0.17708	-1.1292	-0.38542	-0.47083	-1.0833	0.11667	-0.86667	-0.68958	-0.18333	-1.0167	-0.34583	-0.22708	-92.760	-146.550	-146.394	-79.999	13.981	191.722	-62.590	62.722	39.933	51.393	-113.422	-58.784	124.369	13.022	195.252	158.832	0.00018695	0.00051135	3.1893e-05	1255.3	1.6502e-06	3.8512e-06	701.94	387.68	4.154e-06	5.7749e-06	211.2	66.065	131.32	55.423	8.1268e-06	31.423	0.0011282	0.0012299	0.00033874	1190.7	1.3132e-05	1.3316e-05	678.82	369.5	1.281e-05	1.33e-05	210.29	66.395	126.74	53.565	1.3291e-05	31.403	-121.739	92.547	-80.960	-139.624	-5.432	-64.840	-141.606	-133.700	158.060	22.698	-137.258	-133.004	-128.685	-124.128	-40.264	-129.139	-8191	255	
21551.533	1	1	0	0	0.30013	0.071505	0.18837	0.11152	0.16195	0.084974	0.17661	0.10336	0.23188	0.079624	0.044664	0.026266	0.17395	0.3046	0.11118	0.091307	-0.46875	0.060417	-0.75625	-0.85417	-0.11667	-1.1271	-0.41458	-0.40625	-0.98958	-0.18333	-0.75208	-0.79167	-0.44375	-1.1083	-0.35208	-0.33542	83.137	120.266	169.606	193.965	-75.413	156.643	-104.445	199.085	-39.156	107.466	33.382	-119.605	190.765	130.773	164.269	-99.211	0.00014841	0.00056036	0.00012615	1248.9	4.0559e-06	6.1794e-06	696.65	383.9	7.7421e-06	3.9835e-06	208.94	65.36	130.86	55.639	1.7007e-06	31.598	0.0010912	0.0012345	0.00033717	1184.4	1.3141e-05	1.3218e-05	672.97	367.64	1.2981e-05	1.3184e-05	208.75	65.882	126.58	53.649	1.3461e-05	31.492	-130.149	-13.254	-73.172	-139.653	50.443	22.673	-141.809	-133.537	-26.120	-95.525	-137.165	-133.279	-129.414	-124.044	67.881	-129.598	-8191	255	
21551.607	1	1	0	0	0.27557	0.2519	0.20555	0.099197	0.19566	0.37847	0.16702	0.22143	0.10071	0.18112	0.12851	0.25897	0.034718	0.098528	0.1397	0.41857	-0.60833	-0.11458	-0.6375	-0.9375	0.15	-0.9875	-0.63542	-0.33333	-0.85208	-0.085417	-0.33542	-0.9375	-0.083333	-0.96042	-0.55208	-0.014583	-108.944	-36.589	104.187	84.208	-22.655	-14.861	-144.913	75.060	123.487	127.494	-88.120	14.809	-131.813	-83.640	177.759	34.265	0.00023184	0.00035579	0.00027185	1250.8	7.004e-06	1.2022e-05	692.69	384.21	6.1326e-06	5.4921e-06	211.48	65.76	131.3	55.274	9.1567e-06	31.24	0.0011404	0.0012462	0.00034136	1183.3	1.349e-05	1.3649e-05	674.86	367.82	1.3512e-05	1.3754e-05	210.17	66.309	126.92	53.713	1.3476e-05	31.666	-98.696	90.477	-80.009	-139.525	37.224	-66.641	-142.051	-133.774	-40.950	-15.888	-137.630	-133.404	-128.731	-124.024	68.784	-129.081	-8191	255	
21551.703	1	1	0	0	0.18359	0.26076	0.2093	0.15391	0.1792	0.33537	0.05729	0.19059	0.097627	0.082348	0.092886	0.27952	0.098384	0.35799	0.070106	0.033763	-0.61667	-0.091667	-0.21667	-1.1417	0	-1.0229	-0.64792	-0.28542	-1.0042	-0.12917	-0.37917	-1.0729	-0.28333	-0.63333	-0.73333	-0.14792	181.199	-52.473	-50.160	137.191	-7.044	-57.821	93.308	200.302	85.076	11.759	207.142	181.616	144.579	-121.186	192.618	136.566	0.00017912	0.00068693	0.00015907	1255	1.2419e-06	1.116e-05	701.65	385.82	6.1699e-06	3.5903e-06	211.43	66.309	131.77	55.88	4.962e-06	31.806	0.0011268	0.0012388	0.00034081	1185.4	1.3259e-05	1.33e-05	677.3	368.28	1.3306e-05	1.3679e-05	210.33	66.853	127.27	54.151	1.3334e-05	32.141	-106.935	-10.708	81.944	-139.416	41.714	-34.073	-141.862	-134.028	-3.022	117.582	-137.319	-133.417	-128.975	-124.522	23.411	-129.183	-8191	255	
21551.822	1	1	0	0	0.061988	0.11502	0.049934	0.25186	0.056405	0.27791	0.14572	0.34883	0.13385	0.14062	0.12169	0.21912	0.079843	0.10605	0.2429	0.09569	-0.55	-0.36875	-0.40625	-1.1354	-0.11875	-0.77292	-0.94167	-0.035417	-1.0708	-0.21875	-0.45	-1.0083	-0.14792	-0.72083	-0.82083	-0.13333	69.404	201.615	202.338	143.589	25.905	-8.902	146.808	133.333	-119.983	-33.588	185.163	182.441	204.006	171.599	-44.549	-138.777	0.00018202	0.00053075	0.00010515	1251.8	2.1888e-06	9.6097e-06	707.45	385.11	8.1293e-07	1.4502e-05	214.71	66.825	132.25	55.795	5.1907e-06	31.883	0.0011435	0.0012501	0.00034667	1186.7	1.3595e-05	1.3466e-05	683.09	369.47	1.342e-05	1.3541e-05	212.15	67.087	127.61	54.192	1.3312e-05	32.132	-113.665	-117.800	-42.920	-139.472	207.010	-17.900	-142.153	-133.731	146.455	30.637	-137.612	-133.564	-129.138	-123.903	69.926	-129.000	-8191	255	
21551.918	1	1	0	0	0.24907	0.12109	0.078965	0.10651	0.11695	0.12806	0.26423	0.28553	0.068345	0.17011	0.312	0.04615	0.31667	0.22693	0.16009	0.19694	-0.5375	-0.52917	-0.30208	-1.1229	-0.35208	-0.31875	-0.84375	-0.13125	-0.96875	-0.44792	-0.09375	-1.1958	-0.21875	-0.46458	-1.0063	-0.033333	108.773	-116.962	-115.344	-103.455	-36.713	173.199	-66.163	176.773	-127.930	62.894	175.718	130.379	-138.152	-35.776	-70.420	195.584	0.00028362	0.0004615	0.00014972	1245.3	7.0712e-06	7.1361e-06	702	386.27	2.8166e-06	3.1564e-06	211.69	65.735	130.57	56.398	7.2458e-06	31.731	0.0011208	0.0012336	0.00034003	1183.2	1.3425e-05	1.3404e-05	676.4	369.17	1.3148e-05	1.3115e-05	210.38	66.846	127.19	54.343	1.3286e-05	32.054	-102.769	77.201	104.524	-139.781	-31.378	99.662	-142.146	-134.268	10.533	61.767	-138.077	-133.643	-129.505	-124.754	166.199	-130.385	-8191	255	
21552.014	1	1	0	0	0.38964	0.13402	0.086395	0.18904	0.23253	0.25862	0.078524	0.46171	0.019141	0.20915	0.25353	0.029377	0.12371	0.21162	0.31206	0.21685	-0.51667	-0.65	-0.10417	-1.1708	-0.3375	-0.44583	-0.90208	0.0041667	-0.69375	-0.77083	-0.19375	-1.0208	-0.43958	-0.49792	-0.8625	-0.15625	196.389	-44.153	171.669	195.202	-113.182	90.445	-68.270	147.206	191.195	-98.139	172.095	-27.382	204.259	-19.722	-45.219	110.266	0.00016169	0.00041012	7.49e-05	1248.6	5.5843e-06	2.9196e-06	699.32	386.22	9.7155e-06	9.7959e-06	211.37	66.58	131.59	56.065	1.0284e-05	32.242	0.0011036	0.0012204	0.00034106	1186.1	1.3464e-05	1.3346e-05	678.35	368.96	1.3463e-05	1.3553e-05	210.74	67.312	127.73	54.488	1.3886e-05	32.281	-100.504	-12.718	-32.271	-140.028	-64.269	-5.508	-142.297	-134.359	-60.180	29.871	-137.797	-133.468	-129.603	-124.704	10.785	-130.346	-8191	255	
21552.135	1	1	0	0	0.071992	0.063381	0.262	0.26286	0.17413	0.29894	0.27277	0.1129	0.1504	0.054413	0.0434	0.16132	0.20809	0.18967	0.29452	0.33885	-0.29375	-0.91042	-0.027083	-0.94167	-0.26667	-0.20833	-1.1229	-0.25833	-0.52917	-0.725	-0.19583	-0.96042	-0.38125	-0.14375	-1.0438	-0.42708	-139.099	68.105	-5.160	175.594	-98.300	116.060	141.333	52.967	80.825	-81.472	137.688	-50.422	-141.665	133.264	57.022	191.214	0.00028238	0.00036435	0.00010745	1243.6	6.1751e-06	6.5599e-06	700.6	385.23	3.149e-06	7.1031e-06	211.84	66.541	132.26	56.314	4.9572e-06	32.287	0.0011657	0.0012786	0.00035624	1186.2	1.3913e-05	1.3918e-05	679.65	370.04	1.4139e-05	1.4392e-05	213.07	68.14	128.7	54.77	1.5032e-05	32.767	-111.938	201.135	-30.808	-139.758	18.272	33.706	-142.169	-134.249	-57.999	-26.217	-137.902	-133.557	-128.958	-124.682	-5.666	-130.414	-8191	255	
21552.205	1	1	0	0	0.03064	0.14504	0.12659	0.28133	0.083116	0.32284	0.26605	0.2662	0.23571	0.17064	0.13498	0.12182	0.12857	0.099042	0.22966	0.087614	0.0125	-0.80833	-0.1875	-0.88333	-0.5	-0.13542	-1.075	-0.36458	-0.325	-0.84583	-0.016667	-0.96458	-0.73542	-0.066667	-0.92292	-0.15833	8.683	170.971	-130.751	147.992	125.873	135.250	205.925	-145.814	148.323	-82.228	53.268	-19.100	200.508	-144.778	141.754	-90.354	0.00028528	0.00064729	0.00012422	1247.8	1.0141e-05	1.6148e-05	706.26	386.91	8.549e-06	6.7111e-06	213.67	67.116	133.09	56.737	8.9941e-06	32.028	0.0012544	0.0013973	0.0003883	1186.7	1.4921e-05	1.4831e-05	682.1	371.47	1.4224e-05	1.4657e-05	213.66	68.41	129.08	54.936	1.4575e-05	32.51	-99.471	-86.296	-107.809	-139.662	27.789	-71.357	-142.263	-134.086	27.199	-43.544	-138.157	-133.234	-129.345	-124.499	-127.382	-129.783	-8191	255	
21552.303	1	1	0	0	0.2309	0.22428	0.23969	0.1531	0.10203	0.10726	0.19351	0.3137	0.22888	0.11113	0.15806	0.10545	0.38968	0.41477	0.0642	0.20716	0.083333	-1.025	0.13958	-0.84583	-0.52917	-0.10208	-1.2833	-0.57083	-0.17083	-0.90417	-0.13333	-0.81042	-0.90208	0.0875	-0.83958	-0.45625	11.352	-117.531	141.700	162.394	206.976	-18.785	-101.859	157.971	-144.329	91.399	147.143	-130.458	-52.253	190.709	177.985	81.731	0.00018241	0.00040218	0.00014744	1245.6	5.8809e-06	1.0935e-05	696.45	383.87	3.6646e-06	1.3102e-05	211.62	66.14	132.01	55.784	3.2165e-06	31.582	0.0012271	0.001362	0.00038279	1185.5	1.504e-05	1.5337e-05	678.03	368.98	1.5542e-05	1.5845e-05	212.27	67.489	128.04	54.42	1.5666e-05	32.158	-123.243	-146.200	-95.838	-139.791	133.090	25.801	-141.661	-134.093	-4.593	14.156	-137.544	-133.414	-129.264	-124.529	106.235	-130.169	-8191	255	
21552.424	1	1	0	0	0.16009	0.28544	0.12997	0.2338	0.2794	0.17918	0.17119	0.36722	0.089171	0.27825	0.23249	0.15128	0.2595	0.3054	0.21633	0.17611	0.1375	-0.92708	-0.054167	-0.63333	-0.95208	0.060417	-0.975	-0.57083	-0.14375	-0.75417	-0.27292	-0.58125	-0.825	-0.083333	-0.86667	-0.45833	-114.235	154.190	67.930	200.382	-114.233	-49.591	117.937	109.926	183.275	155.972	66.026	-131.611	176.661	-125.117	-25.512	116.825	0.0001806	0.00022677	0.00010457	1235	6.1945e-06	8.4468e-06	693.38	382.24	8.3327e-06	3.4688e-06	208.2	65.829	130.28	55.762	8.8793e-06	31.211	0.0013057	0.001424	0.00039786	1178.5	1.5411e-05	1.5562e-05	671.61	367.72	1.5684e-05	1.5907e-05	211.31	67.483	127.8	54.294	1.6838e-05	31.959	-116.419	155.293	167.824	-139.633	9.660	0.472	-141.770	-134.016	-28.359	170.067	-137.910	-133.203	-128.819	-124.434	-135.463	-129.733	-8191	255	
21552.520	1	1	0	0	0.34441	0.048862	0.042879	0.17124	0.14397	0.16923	0.10327	0.13091	0.11464	0.13609	0.10619	0.24231	0.28149	0.13774	0.25421	0.14156	0.085417	-0.92708	-0.21042	-0.61875	-0.91458	0.022917	-0.80833	-0.81875	-0.047917	-0.98333	-0.40208	-0.25417	-1.0375	-0.2	-0.55208	-0.8125	-89.650	203.823	-49.094	194.108	126.952	-18.113	-145.406	69.955	-49.260	-91.622	173.405	-118.413	172.305	188.015	36.729	169.449	8.2114e-05	0.00055512	0.00039567	1235.9	1.0105e-05	8.7775e-06	682.96	382.01	4.0246e-06	1.176e-05	208.43	66.124	131.4	55.632	6.5499e-06	31.25	0.0014222	0.0015454	0.00043569	1176.3	1.628e-05	1.61e-05	668.39	366.95	1.5182e-05	1.486e-05	210.41	66.993	127.71	54.044	1.3875e-05	31.732	-142.390	-51.807	-29.156	-139.509	90.973	131.940	-141.687	-133.689	-47.209	-52.570	-136.894	-133.181	-129.118	-124.214	-98.585	-130.089	-8191	255	
21552.615	1	1	0	0	0.13574	0.15092	0.18719	0.1136	0.05137	0.2869	0.16787	0.29538	0.036953	0.14042	0.073572	0.29984	0.25104	0.11927	0.1174	0.20715	0.34583	-0.89792	-0.31042	-0.42292	-0.81458	-0.00625	-0.775	-0.89167	0.045833	-0.97292	-0.44375	-0.29167	-0.87083	-0.20833	-0.46667	-0.74375	66.954	-63.710	-56.840	159.069	-15.929	138.809	59.192	143.173	41.722	161.546	142.239	-79.167	-80.764	-110.919	198.977	131.157	0.00025932	0.00048835	0.00023345	1240.9	1.2926e-05	4.5343e-06	689.7	384.24	2.0078e-06	4.7691e-07	210.65	66.505	132.55	55.861	2.8133e-06	31.607	0.0011784	0.0012768	0.00035977	1175	1.4172e-05	1.4367e-05	669.99	367.42	1.4385e-05	1.4226e-05	211.14	67.207	128.34	54.232	1.374e-05	31.714	-110.444	-8.497	-120.399	-139.344	32.203	31.606	-141.901	-134.113	87.802	19.602	-137.766	-134.065	-129.181	-124.491	21.419	-129.749	-8191	255	
21552.734	1	1	0	0	0.28906	0.19089	0.37957	0.23214	0.20492	0.11227	0.086132	0.16722	0.17662	0.10183	0.14443	0.10274	0.15202	0.2414	0.17941	0.16593	0.24792	-1.0854	-0.25625	-0.13333	-0.97917	-0.06875	-0.58958	-1.1458	-0.14583	-1.0729	-0.47083	0.00625	-1.1812	-0.44167	-0.41458	-1.0417	-65.638	-107.020	78.371	193.959	-67.195	206.448	-58.575	127.145	88.188	-106.825	17.332	-147.376	-107.121	149.895	17.588	-54.259	0.00021967	0.00027433	0.00014286	1229.5	7.868e-06	1.3023e-05	687.5	382.6	3.2998e-06	7.8177e-07	206.53	65.269	131.93	55.315	9.2754e-06	31.084	0.0011539	0.0012507	0.00034492	1168.5	1.3296e-05	1.3766e-05	663.83	365.79	1.3651e-05	1.3328e-05	207.37	65.838	127.41	53.692	1.3444e-05	31.252	-120.554	-139.067	-122.635	-139.709	191.260	-62.186	-141.692	-134.037	-140.706	76.717	-137.737	-133.561	-129.371	-124.503	-41.726	-129.863	-8191	255	
21552.830	1	1	0	0	0.46941	0.13392	0.18312	0.24153	0.2867	0.14731	0.32675	0.20791	0.18473	0.37983	0.096389	0.16859	0.23854	0.28538	0.35591	0.24919	0.30208	-0.62708	-0.3875	-0.072917	-0.83333	-0.3125	-0.44167	-1.1875	0.010417	-0.70625	-0.63333	-0.097917	-1.0542	-0.55	-0.19583	-0.9	187.842	165.146	-99.425	133.732	-33.894	93.108	71.765	168.246	-25.307	168.453	-108.238	179.500	170.415	128.710	160.811	-133.027	0.00023184	0.0005733	0.00011439	1230	1.0602e-05	3.3604e-06	678.54	380.51	7.7405e-06	5.464e-06	207.34	64.905	131.03	55.316	5.2335e-06	31.05	0.0011435	0.0012343	0.00034738	1168	1.3625e-05	1.387e-05	658.91	364.23	1.3756e-05	1.35e-05	207.24	65.815	127.19	53.591	1.3454e-05	31.172	-132.568	-117.541	184.244	-139.494	14.718	-13.587	-142.258	-134.223	-13.785	10.526	-137.470	-133.527	-129.547	-124.611	-107.846	-130.467	-8191	255	
21552.902	1	1	0	0	0.29251	0.069331	0.030661	0.44601	0.20371	0.11091	0.033926	0.23415	0.098866	0.1258	0.30018	0.12029	0.076199	0.24294	0.19058	0.20431	0.41875	-0.72292	-0.74167	-0.0125	-0.79792	-0.29583	-0.42917	-1.0938	-0.16458	-0.6125	-1.0396	-0.11042	-0.91875	-0.49375	-0.047917	-1.0542	-40.768	-58.442	18.981	158.123	40.764	153.930	-84.399	169.803	72.769	-139.951	107.817	45.785	-42.803	-137.824	-96.915	-109.262	0.00020211	0.00072919	0.00028476	1230.6	3.7441e-06	3.5632e-06	675.34	380.52	5.4204e-06	5.5322e-06	208.04	65.149	131.25	55.914	1.3335e-05	31.005	0.001133	0.0012196	0.00034315	1166.3	1.3396e-05	1.3779e-05	659.04	364.4	1.3675e-05	1.3608e-05	207.6	66.003	127.28	53.892	1.391e-05	31.255	-58.060	-19.523	-105.456	-139.830	-50.644	-66.463	-141.940	-133.935	37.846	34.282	-137.806	-133.543	-129.206	-124.630	-11.256	-130.403	-8191	255	
21553.023	1	1	0	0	0.18871	0.23022	0.043961	0.21517	0.31349	0.058875	0.23601	0.2089	0.13564	0.28683	0.16945	0.35607	0.0616	0.22963	0.15389	0.11463	0.22708	-0.35417	-0.81875	-0.089583	-0.7875	-0.6	-0.15	-0.87292	-0.15417	-0.44375	-0.97292	0.03125	-0.86042	-0.70208	-0.060417	-0.93958	-138.558	-135.678	147.851	180.706	43.618	141.373	177.991	163.428	16.367	-42.418	195.598	148.237	127.205	152.985	160.739	-145.024	0.00028265	0.00064842	0.00013869	1228	3.9833e-06	2.9854e-06	679.51	380.91	1.0349e-05	8.6428e-06	208.44	65.644	132.27	55.12	8.8238e-06	31.241	0.0011914	0.0012824	0.00036147	1163.2	1.4007e-05	1.4176e-05	659.23	364.41	1.404e-05	1.4031e-05	208.73	66.438	127.97	53.747	1.4331e-05	31.439	-108.792	33.146	-27.600	-139.830	-42.889	58.024	-141.604	-134.006	-127.869	70.840	-137.056	-133.323	-128.997	-124.361	201.297	-129.456	-8191	255	
21553.119	1	1	0	0	0.13536	0.038855	0.14163	0.32738	0.061082	0.16235	0.036034	0.30426	0.32862	0.28669	0.30862	0.25446	0.30179	0.066396	0.31073	0.37183	0.041667	-0.41458	-0.91667	-0.12083	-0.61875	-0.64167	-0.21667	-0.90417	-0.38125	-0.28333	-0.98958	0.072917	-0.95833	-0.84167	0.089583	-0.92708	18.190	81.430	-105.889	198.268	194.299	206.446	-61.352	161.494	199.237	-109.095	-81.984	194.358	137.703	183.689	134.671	166.286	0.00024432	0.00051505	6.0436e-05	1217.4	9.2755e-06	6.7901e-06	667.95	377.32	5.9839e-06	9.2097e-06	205.87	63.73	130.24	55.1	7.8117e-06	30.233	0.0011883	0.001296	0.00036422	1158.6	1.4015e-05	1.4287e-05	652.89	360.98	1.3942e-05	1.3978e-05	205.12	64.979	126.05	53.207	1.4014e-05	30.592	-138.134	-71.195	109.256	-139.585	-13.948	-33.727	-141.619	-133.744	-37.590	-16.239	-136.877	-133.703	-128.777	-124.696	107.009	-130.042	-8191	255	
21553.215	1	1	0	0	0.06872	0.14116	0.27388	0.24277	0.17945	0.24355	0.30743	0.11733	0.17654	0.16629	0.077742	0.20664	0.075278	0.32271	0.14077	0.39414	-0.097917	-0.05	-0.86875	-0.24375	-0.39167	-0.89583	-0.041667	-1.1063	-0.59375	-0.27292	-0.95417	-0.22708	-0.37708	-1.0875	-0.027083	-0.7125	-68.491	45.690	122.464	185.657	55.869	126.441	100.530	16.913	108.451	185.852	19.635	-57.965	-65.805	114.460	97.802	-67.868	0.00024332	0.00018601	0.00014013	1207.4	5.699e-06	3.7804e-06	669.29	374.85	8.3606e-06	1.056e-05	202.91	64.284	129.76	54.795	8.5298e-06	30.387	0.0011638	0.0012798	0.00035645	1149.7	1.3844e-05	1.4117e-05	645.92	359.16	1.4049e-05	1.4145e-05	204.18	64.95	125.93	53.148	1.415e-05	30.609	-87.986	-115.252	-113.435	-139.434	-17.709	128.273	-141.806	-133.735	14.472	22.849	-137.762	-133.594	-129.038	-124.372	-40.398	-129.495	-8191	255	
21553.311	1	1	0	0	0.12233	0.10591	0.21787	0.24183	0.10424	0.13326	0.23114	0.29723	0.17127	0.14902	0.05342	0.25127	0.18143	0.053533	0.065357	0.44929	-0.11458	-0.21042	-0.98958	-0.45417	-0.4125	-1.0417	-0.26875	-1.0854	-0.54792	0.03125	-1.1333	-0.28958	-0.5	-1.0771	-0.24792	-0.89792	80.997	95.847	153.401	-133.495	-73.447	53.367	100.468	139.082	115.943	67.767	104.280	32.485	168.072	161.394	96.464	180.546	0.00024541	0.00050793	0.00037727	1210.4	2.8336e-06	3.5493e-06	662.97	374.45	3.9005e-06	1.3668e-05	204.19	64.019	130.48	54.968	2.5506e-06	30.568	0.001176	0.0012883	0.00036205	1148.2	1.3917e-05	1.4122e-05	644.71	358.82	1.4155e-05	1.4251e-05	204.73	65	126.64	53.392	1.3961e-05	30.854	-100.850	-22.738	-62.349	-139.935	-22.799	121.579	-141.821	-133.729	-21.143	-137.470	-137.821	-133.202	-129.032	-124.358	67.805	-130.257	-8191	255	
21553.406	1	1	0	0	0.13407	0.17188	0.19137	0.26787	0.29947	0.24025	0.063399	0.12379	0.25441	0.33098	0.20005	0.20228	0.18845	0.27484	0.19611	0.14223	-0.29375	0.00625	-0.98333	-0.34583	-0.25417	-1.2604	-0.25625	-0.85417	-0.84792	-0.025	-1.0292	-0.30625	-0.30833	-1.1479	-0.20208	-0.52917	64.234	103.713	175.256	-139.454	-54.900	200.459	137.462	184.085	3.089	66.814	53.440	146.389	201.204	-55.265	176.545	-149.643	0.00023115	0.0002933	0.00014768	1207	3.0435e-06	4.8213e-06	664.46	376.12	4.1026e-06	3.88e-06	204.52	64.04	130.19	55.277	3.6561e-06	30.915	0.0011657	0.0012725	0.00034617	1147.1	1.357e-05	1.3799e-05	647.22	359.52	1.359e-05	1.3719e-05	204.63	65.269	126.59	53.507	1.3679e-05	31.073	-117.264	35.437	151.832	-139.852	-34.890	-27.546	-141.996	-133.914	-47.205	-104.162	-137.207	-133.707	-129.265	-124.687	45.122	-129.715	-8191	255	
21553.504	1	1	0	0	0.10029	0.24164	0.091319	0.16183	0.12858	0.14199	0.15639	0.069031	0.019943	0.14283	0.15826	0.38263	0.045661	0.11477	0.14589	0.1578	-0.425	0.054167	-0.83958	-0.69792	-0.14375	-0.98125	-0.32292	-0.7375	-0.94792	-0.21042	-0.92708	-0.81667	-0.4125	-1.0938	-0.34792	-0.63958	-141.602	11.253	-37.937	-140.864	53.340	-50.319	176.572	-110.681	-17.426	32.199	111.297	-141.289	96.672	139.793	-22.251	-115.050	0.00011155	0.00049899	0.00032255	1218.6	4.4777e-06	3.695e-06	667.79	376.51	2.1216e-06	1.1636e-05	203.15	64.379	130.28	55.01	3.2603e-06	30.77	0.0011657	0.0012489	0.00035081	1154.1	1.3704e-05	1.3771e-05	649.82	360.54	1.3663e-05	1.3677e-05	203.72	64.767	126.34	53.391	1.3452e-05	30.843	-108.895	-142.662	-29.130	-139.870	-138.653	-74.269	-141.892	-133.973	9.425	6.561	-137.364	-133.943	-128.996	-124.360	-122.345	-129.962	-8191	255	
21553.600	1	1	0	0	0.064921	0.2492	0.21397	0.19773	0.38185	0.14003	0.29604	0.14142	0.21213	0.10458	0.19555	0.033592	0.17015	0.11776	0.20663	0.16488	-0.60208	-0.17917	-0.73125	-0.84167	-0.089583	-1.1833	-0.475	-0.67917	-0.94792	-0.23958	-0.7375	-0.62292	-0.10208	-1.0229	-0.50833	-0.16042	201.323	143.931	-42.977	175.503	138.939	-140.359	126.276	144.006	113.823	-44.721	-47.171	-37.191	171.363	92.048	97.499	80.492	0.00025747	0.00041664	0.00021405	1210.6	6.2314e-06	3.7427e-06	667.89	376.66	8.3665e-06	2.3503e-06	204.55	64.268	130.28	55.666	6.6845e-06	30.529	0.0011128	0.0012234	0.00033785	1147.8	1.3198e-05	1.3232e-05	645.17	359.66	1.3286e-05	1.3299e-05	203.53	64.921	126.5	53.668	1.3081e-05	30.823	-102.996	123.944	-135.022	-139.966	29.309	-41.279	-141.990	-133.596	-2.666	195.956	-137.422	-133.104	-128.837	-124.237	127.755	-129.922	-8191	255	
21553.695	1	1	0	0	0.23185	0.13124	0.23479	0.11093	0.2936	0.087025	0.19709	0.10273	0.10082	0.1687	0.31956	0.10633	0.40526	0.16348	0.29719	0.10393	-0.72708	-0.01875	-0.46458	-0.98333	-0.10625	-1.0688	-0.5625	-0.35625	-1.0625	-0.2875	-0.61458	-0.775	-0.27083	-0.89583	-0.52292	-0.32917	-130.793	108.635	110.016	86.417	-0.777	139.162	-68.444	-149.970	73.363	-93.604	-51.165	7.709	183.642	-128.290	105.175	153.949	0.00026533	0.0010148	0.00023341	1210.9	6.1428e-06	8.708e-06	663.6	375.96	6.4608e-06	7.8996e-06	204.75	64.707	130.37	55.222	2.5444e-06	30.507	0.0010993	0.001197	0.00033745	1149.6	1.3317e-05	1.3471e-05	646.41	359.75	1.3903e-05	1.3789e-05	204.57	65.546	126.46	53.597	1.3866e-05	30.904	-98.236	-38.820	-96.717	-139.607	-50.552	37.999	-142.167	-133.954	6.809	-22.612	-137.567	-134.000	-129.168	-124.589	39.425	-130.011	-8191	255	
21553.814	1	1	0	0	0.15178	0.27382	0.098289	0.06765	0.24022	0.053014	0.31218	0.18701	0.078336	0.29741	0.20122	0.089158	0.18287	0.086193	0.38895	0.19109	-0.65417	-0.26458	-0.33333	-1.0292	-0.14167	-0.96458	-0.82083	-0.25833	-1.0458	-0.10208	-0.5125	-0.775	-0.27708	-0.85	-0.72708	-0.17708	-31.329	-66.043	133.356	88.539	172.585	125.565	162.813	129.893	-117.913	35.961	-139.329	-86.395	129.874	183.344	41.734	152.229	0.00015855	0.0012039	7.6493e-05	1208	5.2157e-06	2.3438e-06	670.43	376.69	6.9258e-06	1.2869e-05	205.18	64.864	130.79	55.546	7.5464e-06	31.201	0.001155	0.0012671	0.00034755	1148.4	1.3579e-05	1.358e-05	648.23	359.98	1.3217e-05	1.3209e-05	205.22	65.344	126.52	53.767	1.3004e-05	31.253	-94.178	-71.891	-2.302	-139.809	-118.838	41.489	-141.501	-133.889	-28.488	32.898	-137.725	-133.901	-129.207	-124.408	87.706	-130.086	-8191	255	
21553.910	1	1	0	0	0.3337	0.24484	0.041985	0.099554	0.088348	0.21863	0.093406	0.079072	0.12843	0.18445	0.25047	0.5038	0.1896	0.37787	0.26277	0.057906	-0.55833	-0.35417	-0.23125	-1.0583	-0.1125	-0.76458	-0.88333	-0.34792	-0.77083	-0.46042	-0.3125	-1.1583	-0.29792	-0.76875	-0.81042	-0.45	-13.203	-29.117	172.214	-140.718	46.286	86.191	125.828	165.624	-17.784	-48.348	94.962	174.191	125.616	184.154	-131.447	38.450	0.00023373	0.00037271	0.00039667	1217.2	7.7274e-06	5.5525e-06	678.22	379.04	9.2892e-06	7.6772e-06	206.55	65.906	130.99	55.938	3.8965e-06	30.733	0.0010762	0.0011578	0.0003197	1155	1.2551e-05	1.2648e-05	657.14	362.75	1.2729e-05	1.2805e-05	206.1	66.107	127.03	53.898	1.3021e-05	31.021	-110.922	-69.115	-10.417	-139.619	150.414	4.389	-142.006	-133.826	28.424	90.996	-137.634	-133.734	-129.418	-124.353	-44.143	-129.612	-8191	255	
21554.008	1	1	0	0	0.18132	0.2549	0.1806	0.16474	0.14778	0.085292	0.27546	0.13933	0.12029	0.1829	0.41489	0.12508	0.03622	0.10924	0.090344	0.18656	-0.68333	-0.3625	-0.29167	-1.2188	-0.1375	-0.60417	-0.89375	-0.0875	-1.0146	-0.54375	-0.1375	-1.1417	-0.36667	-0.67083	-1.0146	-0.18542	68.883	164.187	107.058	-49.128	173.866	53.179	137.179	111.043	143.778	13.468	-90.869	201.440	-56.768	138.799	-70.730	199.515	0.00010947	0.00067695	9.2423e-05	1216.2	2.4618e-06	8.4516e-06	673.1	378.14	3.7513e-06	6.2424e-06	206.95	64.665	131.14	55.458	5.1606e-06	30.885	0.0010704	0.0011998	0.00033559	1156.3	1.2963e-05	1.2945e-05	652.17	360.53	1.2965e-05	1.3227e-05	204.98	65.182	126.64	53.517	1.2916e-05	30.899	-48.714	-114.078	-93.498	-139.751	-44.346	-75.770	-141.782	-133.864	-8.870	-101.421	-137.967	-133.692	-129.443	-124.555	-11.657	-130.552	-8191	255	
21554.104	1	1	0	0	0.15499	0.10395	0.24599	0.075488	0.11975	0.14561	0.30674	0.32981	0.30892	0.10504	0.079311	0.16871	0.18137	0.099479	0.11351	0.22856	-0.54583	-0.81875	-0.12083	-0.96042	-0.26042	-0.36042	-0.84375	-0.36667	-0.64792	-0.59583	-0.14375	-0.975	-0.52292	-0.5625	-1.0708	-0.18958	-127.693	-34.178	-133.567	102.282	-36.255	7.988	185.821	118.544	-61.186	40.928	87.793	156.197	100.627	128.884	126.839	183.149	0.00027909	0.00048565	9.8065e-05	1221.1	5.0138e-06	5.1603e-06	678.13	379.35	3.5264e-06	3.2627e-06	207.41	65.071	131.01	55.667	8.964e-06	31.3	0.0010407	0.0011471	0.00031892	1158.6	1.2052e-05	1.2148e-05	654.56	361.57	1.1679e-05	1.2101e-05	205.93	65.094	126.58	53.68	1.1968e-05	31.043	-103.823	-96.094	-25.146	-139.702	162.906	-18.580	-141.795	-134.304	-54.630	158.428	-137.939	-133.539	-129.148	-124.343	18.028	-129.901	-8191	255	
21554.199	1	1	0	0	0.17234	0.14966	0.14247	0.34955	0.10714	0.2833	0.41921	0.25148	0.20423	0.36565	0.23152	0.20087	0.21895	0.25359	0.19868	0.11562	-0.40833	-0.67708	0.097917	-1.0958	-0.39583	-0.23333	-1.1063	0	-0.53333	-0.9625	-0.085417	-0.85	-0.67708	-0.56042	-0.83125	-0.17083	-77.974	-132.716	15.708	-109.360	50.656	63.287	176.878	-141.042	165.947	114.186	-94.655	181.086	151.266	197.102	-107.690	48.102	8.6151e-05	0.00050567	8.967e-05	1232.8	5.9778e-06	5.6763e-06	690.61	380.38	4.8416e-06	1.4608e-06	211.19	65.374	132.26	55.775	1.2526e-05	31.427	0.00097743	0.0010763	0.00030004	1164.4	1.165e-05	1.1652e-05	661.93	363.11	1.1401e-05	1.1448e-05	207.38	65.79	127.55	53.872	1.1406e-05	31.233	-65.099	-16.610	-98.091	-139.670	-43.093	-7.827	-142.020	-133.886	-62.337	-1.303	-137.549	-133.373	-129.265	-124.564	-32.324	-130.238	-8191	255	
21554.295	1	1	0	0	0.2081	0.28452	0.14348	0.58019	0.057106	0.21522	0.33109	0.32206	0.082227	0.19647	0.17665	0.10594	0.38346	0.38733	0.167	0.13693	-0.1	-0.70417	-0.00625	-0.73958	-0.5	-0.072917	-1.0938	-0.46042	-0.42917	-0.94792	-0.15	-0.76875	-0.65208	-0.175	-0.87292	-0.3875	-87.350	109.947	-23.279	201.785	173.268	-67.775	104.510	123.044	-75.369	54.579	129.783	131.830	-124.788	166.017	185.021	-124.343	0.00018674	0.0007993	4.2228e-05	1239.3	6.3764e-06	2.7393e-06	696.71	384.93	6.4154e-06	2.6301e-07	212.99	66.581	133.35	56.064	4.6547e-06	31.503	0.00094847	0.0010398	0.00028414	1171.1	1.134e-05	1.1296e-05	667	365.68	1.0983e-05	1.1105e-05	208.39	66.149	127.85	53.885	1.0665e-05	31.015	-112.023	-49.862	190.844	-139.694	-79.706	-90.127	-141.802	-133.893	37.008	168.871	-137.619	-133.030	-128.696	-124.352	-49.743	-129.989	-8191	255	
21554.416	1	1	0	0	0.20363	0.20391	0.060964	0.30624	0.049028	0.13937	0.12529	0.10852	0.24471	0.2166	0.19339	0.17931	0.063702	0.39506	0.094237	0.1147	0.0875	-0.99167	-0.039583	-0.88333	-0.80833	-0.1	-1.0312	-0.66875	-0.34375	-0.99167	-0.175	-0.74583	-0.79167	-0.30208	-0.9875	-0.48958	-15.834	110.810	200.390	-112.530	-66.449	116.820	182.404	168.357	-101.991	130.265	95.313	29.086	-107.957	172.594	-46.545	96.791	0.00025152	0.00044079	0.00015063	1240.2	6.716e-06	6.377e-06	694.02	382.84	7.4992e-06	8.191e-06	210.4	65.249	131.75	55.85	3.179e-06	30.961	0.00089807	0.00098246	0.00026645	1170.9	1.0451e-05	1.0465e-05	663.19	364.02	1.0414e-05	1.038e-05	205.08	65.091	126.74	53.528	1.0433e-05	30.59	-103.167	-109.984	166.171	-139.458	112.796	130.822	-141.743	-134.065	-23.581	12.906	-137.296	-133.110	-128.893	-124.502	35.944	-130.453	-8191	255	
21554.512	1	1	0	0	0.3065	0.090175	0.20577	0.33107	0.19097	0.12493	0.17096	0.10904	0.20266	0.116	0.24813	0.060232	0.16704	0.15243	0.17229	0.19599	0.0083333	-1.0688	-0.11667	-0.64583	-0.67292	0.083333	-1.0375	-0.6125	-0.45833	-0.96458	-0.070833	-0.45833	-0.925	-0.22292	-0.93333	-0.64583	201.246	111.179	-10.126	-148.459	107.537	110.285	83.202	98.665	140.068	-63.541	60.360	114.655	-87.037	61.436	-60.863	175.720	0.00015527	4.1846e-05	0.0001623	1241.6	5.1313e-06	9.3974e-06	688.77	384.25	5.696e-06	3.8119e-06	209.68	65.764	132.07	55.532	2.0035e-06	31.079	0.00088735	0.0009715	0.0002699	1169.8	1.0481e-05	1.0812e-05	662.23	365.49	1.0804e-05	1.0933e-05	206.54	65.532	127.11	53.652	1.0986e-05	30.898	-80.619	23.539	-19.004	-139.450	123.815	6.338	-141.812	-134.231	-6.224	42.917	-137.645	-133.393	-129.117	-124.701	43.052	-129.991	-8191	255	
21554.605	1	1	0	0	0.094934	0.17627	0.10009	0.19478	0.204	0.15207	0.13776	0.23365	0.14097	0.13802	0.13901	0.23592	0.24646	0.21859	0.057499	0.14862	0.22083	-0.80833	-0.19583	-0.72917	-0.99583	-0.17708	-0.79583	-0.58125	-0.17917	-1.0604	-0.43125	-0.48958	-1.1812	-0.22917	-0.61875	-0.70417	163.364	63.801	-46.964	197.879	203.502	28.279	-104.226	-117.401	-146.395	-30.306	165.510	133.948	104.164	159.923	177.024	158.329	0.00020061	0.0011125	0.00013004	1240.3	4.9792e-06	6.7334e-06	694.18	383.36	6.543e-06	5.4277e-06	211.2	66.443	132.3	56.155	2.0672e-06	31.23	0.00093837	0.0010127	0.00028472	1170.5	1.1079e-05	1.1124e-05	664.07	364.84	1.0873e-05	1.0865e-05	207.1	65.876	127.58	53.796	1.0765e-05	30.954	-125.643	-102.595	-55.267	-139.501	-66.413	19.405	-141.779	-133.878	-71.443	128.972	-137.584	-133.095	-129.390	-124.401	-80.455	-130.112	-8191	255	
21554.703	1	1	0	0	0.092975	0.089206	0.066898	0.43727	0.29107	0.11558	0.16553	0.17072	0.15766	0.30568	0.35502	0.14506	0.0575	0.23362	0.15179	0.1317	0.45208	-0.82917	-0.26667	-0.27083	-1.1146	-0.041667	-0.67708	-0.67708	0.058333	-1.025	-0.46667	-0.23333	-1.0729	-0.19792	-0.70625	-0.8875	-49.900	-13.928	37.204	168.976	-59.963	5.085	91.446	71.377	-104.144	47.798	82.492	31.352	188.408	136.166	-139.424	-92.317	0.00025991	0.00045948	0.00018447	1242.3	2.8304e-06	1.5129e-06	696.27	383.04	5.3888e-06	8.0608e-06	213.22	66.171	134.02	55.951	3.9305e-06	31.636	0.00091437	0.00097001	0.00027166	1174	1.0414e-05	1.0491e-05	667.54	365.3	1.0408e-05	1.0333e-05	208.51	65.94	127.94	53.908	1.0309e-05	31.142	-90.165	38.749	-89.187	-139.742	71.065	-64.928	-141.830	-134.022	-26.042	-50.209	-137.809	-132.949	-129.244	-124.596	-107.784	-130.311	-8191	255	
21554.799	1	1	0	0	0.13714	0.10131	0.080357	0.099097	0.10931	0.091754	0.21908	0.214	0.084632	0.20804	0.20026	0.16427	0.066942	0.31631	0.31056	0.17391	0.15833	-0.80417	-0.43125	-0.475	-0.9375	-0.045833	-0.59583	-0.95417	0.029167	-0.825	-0.58958	-0.11458	-1.0917	-0.33542	-0.33958	-0.94792	199.587	186.605	145.540	-77.619	-100.411	-131.863	-121.779	-147.409	-116.026	-17.298	56.453	205.354	-95.599	141.502	15.075	-104.435	0.00027429	0.00025543	0.0001609	1242.3	5.8287e-06	1.3885e-06	690.93	381.99	1.1189e-05	3.8329e-06	210.49	65.263	132.05	55.573	2.6209e-06	30.77	0.00086669	0.00092569	0.00026339	1173.8	1.0364e-05	1.0418e-05	663.42	365.01	1.0503e-05	1.0449e-05	206.09	65.083	126.68	53.369	1.0517e-05	30.498	-122.279	-87.508	-67.289	-139.295	-68.112	-102.896	-141.783	-134.036	22.580	58.513	-137.510	-133.647	-129.253	-124.494	-0.888	-129.989	-8191	255	
#DATA ENDS
