BOXY.EXE: ISS Imagent and Oximeter Data Acquisition Program Version 0.80
Ascii Record File

#ACQ INFORMATION
2  Detector Channels 
16  External MUX Channels 
1  Auxiliary Channels 
5000  Waveform (CCF) Frequency (Hz)
1  Waveforms Skipped 
30  Waveforms Averaged 
1  Cycles Averaged 
16  Acquisitions per Waveform 
10.0806  Updata Rate (Hz) 

#FILE INFORMATION
TRUE -- External MUX Channel results are PARSED.
FALSE -- AC DC and Phase are NOT grouped.
TRUE -- Companion Program Settings File CREATED.
FALSE -- AC data not excluded
FALSE -- DC data not excluded
FALSE -- Phase data not excluded
FALSE -- Auxillary Chn. data not excluded
Tab delimiters

#CALIBRATION STATE
TRUE -- Waveform Calibration Values APPLIED.


#AUX CALIBRATION VALUES
Val Type	aux-1	

Term	1.0000e+00	
Factor	0.0000e+00	


#WF CALIBRATION VALUES
A = Detector Channel
Val Type	A-AC1	A-AC2	A-AC3	A-AC4	A-AC5	A-AC6	A-AC7	A-AC8	A-AC9	A-AC10	A-AC11	A-AC12	A-AC13	A-AC14	A-AC15	A-AC16	A-DC1	A-DC2	A-DC3	A-DC4	A-DC5	A-DC6	A-DC7	A-DC8	A-DC9	A-DC10	A-DC11	A-DC12	A-DC13	A-DC14	A-DC15	A-DC16	A-Ph1	A-Ph2	A-Ph3	A-Ph4	A-Ph5	A-Ph6	A-Ph7	A-Ph8	A-Ph9	A-Ph10	A-Ph11	A-Ph12	A-Ph13	A-Ph14	A-Ph15	A-Ph16	

Term	0.00000e+00	0.00000e+00	0.00000e+00	0.00000e+00	0.00000e+00	0.00000e+00	0.00000e+00	0.00000e+00	0.00000e+00	0.00000e+00	0.00000e+00	0.00000e+00	0.00000e+00	0.00000e+00	0.00000e+00	0.00000e+00	0.00000e+00	0.00000e+00	0.00000e+00	0.00000e+00	0.00000e+00	0.00000e+00	0.00000e+00	0.00000e+00	0.00000e+00	0.00000e+00	0.00000e+00	0.00000e+00	0.00000e+00	0.00000e+00	0.00000e+00	0.00000e+00	0.00000e+00	0.00000e+00	0.00000e+00	0.00000e+00	0.00000e+00	0.00000e+00	0.00000e+00	0.00000e+00	0.00000e+00	0.00000e+00	0.00000e+00	0.00000e+00	0.00000e+00	0.00000e+00	0.00000e+00	0.00000e+00	
Factor	1.00000e+00	1.00000e+00	1.00000e+00	1.00000e+00	1.00000e+00	1.00000e+00	1.00000e+00	1.00000e+00	1.00000e+00	1.00000e+00	1.00000e+00	1.00000e+00	1.00000e+00	1.00000e+00	1.00000e+00	1.00000e+00	1.00000e+00	1.00000e+00	1.00000e+00	1.00000e+00	1.00000e+00	1.00000e+00	1.00000e+00	1.00000e+00	1.00000e+00	1.00000e+00	1.00000e+00	1.00000e+00	1.00000e+00	1.00000e+00	1.00000e+00	1.00000e+00	X	X	X	X	X	X	X	X	X	X	X	X	X	X	X	X	

B = Detector Channel
Val Type	B-AC1	B-AC2	B-AC3	B-AC4	B-AC5	B-AC6	B-AC7	B-AC8	B-AC9	B-AC10	B-AC11	B-AC12	B-AC13	B-AC14	B-AC15	B-AC16	B-DC1	B-DC2	B-DC3	B-DC4	B-DC5	B-DC6	B-DC7	B-DC8	B-DC9	B-DC10	B-DC11	B-DC12	B-DC13	B-DC14	B-DC15	B-DC16	B-Ph1	B-Ph2	B-Ph3	B-Ph4	B-Ph5	B-Ph6	B-Ph7	B-Ph8	B-Ph9	B-Ph10	B-Ph11	B-Ph12	B-Ph13	B-Ph14	B-Ph15	B-Ph16	

Term	0.00000e+00	0.00000e+00	0.00000e+00	0.00000e+00	0.00000e+00	0.00000e+00	0.00000e+00	0.00000e+00	0.00000e+00	0.00000e+00	0.00000e+00	0.00000e+00	0.00000e+00	0.00000e+00	0.00000e+00	0.00000e+00	0.00000e+00	0.00000e+00	0.00000e+00	0.00000e+00	0.00000e+00	0.00000e+00	0.00000e+00	0.00000e+00	0.00000e+00	0.00000e+00	0.00000e+00	0.00000e+00	0.00000e+00	0.00000e+00	0.00000e+00	0.00000e+00	-1.16366e+02	-1.34525e+02	-1.24640e+02	-1.81440e+02	-6.20949e+01	-6.64202e+01	-1.56427e+02	-1.62015e+02	-6.69733e+01	-6.15982e+01	-1.71980e+02	-1.69516e+02	-1.84939e+02	-1.76465e+02	-6.54987e+01	-1.48787e+02	
Factor	1.61643e-05	1.38122e-04	4.24785e-05	1.47321e-01	1.18619e-06	1.52504e-06	1.65925e-01	4.94256e-02	1.07980e-06	1.67298e-06	8.54847e-02	2.70576e-02	2.30815e-02	8.67598e-03	1.25400e-06	1.23377e-02	1.12576e-05	2.02003e-05	5.73018e-06	7.73108e-02	2.02464e-07	2.30455e-07	8.19583e-02	2.61172e-02	2.05112e-07	2.28814e-07	4.35796e-02	1.39337e-02	1.23178e-02	4.61571e-03	2.14390e-07	6.36437e-03	X	X	X	X	X	X	X	X	X	X	X	X	X	X	X	X	



#DISTANCE SETTINGS
A = Detector Channel
A-1	A-2	A-3	A-4	A-5	A-6	A-7	A-8	A-9	A-10	A-11	A-12	A-13	A-14	A-15	A-16	

2.5000e+00	3.0000e+00	2.5000e+00	3.0000e+00	2.0000e+00	3.0000e+00	1.5000e+00	3.0000e+00	3.0000e+00	3.0000e+00	3.0000e+00	3.0000e+00	3.0000e+00	3.0000e+00	1.5000e+00	3.0000e+00	

B = Detector Channel
B-1	B-2	B-3	B-4	B-5	B-6	B-7	B-8	B-9	B-10	B-11	B-12	B-13	B-14	B-15	B-16	

1.0000e+01	1.0000e+01	1.0000e+01	1.4400e+00	1.0000e+01	1.0000e+01	1.5100e+00	1.9400e+00	1.0000e+01	1.0000e+01	1.9900e+00	2.4900e+00	2.4100e+00	2.9000e+00	1.0000e+01	2.9800e+00	




#DATA BEGINS
time	group	step	mark	flag	A-AC1	A-AC2	A-AC3	A-AC4	A-AC5	A-AC6	A-AC7	A-AC8	A-AC9	A-AC10	A-AC11	A-AC12	A-AC13	A-AC14	A-AC15	A-AC16	A-DC1	A-DC2	A-DC3	A-DC4	A-DC5	A-DC6	A-DC7	A-DC8	A-DC9	A-DC10	A-DC11	A-DC12	A-DC13	A-DC14	A-DC15	A-DC16	A-Ph1	A-Ph2	A-Ph3	A-Ph4	A-Ph5	A-Ph6	A-Ph7	A-Ph8	A-Ph9	A-Ph10	A-Ph11	A-Ph12	A-Ph13	A-Ph14	A-Ph15	A-Ph16	B-AC1	B-AC2	B-AC3	B-AC4	B-AC5	B-AC6	B-AC7	B-AC8	B-AC9	B-AC10	B-AC11	B-AC12	B-AC13	B-AC14	B-AC15	B-AC16	B-DC1	B-DC2	B-DC3	B-DC4	B-DC5	B-DC6	B-DC7	B-DC8	B-DC9	B-DC10	B-DC11	B-DC12	B-DC13	B-DC14	B-DC15	B-DC16	B-Ph1	B-Ph2	B-Ph3	B-Ph4	B-Ph5	B-Ph6	B-Ph7	B-Ph8	B-Ph9	B-Ph10	B-Ph11	B-Ph12	B-Ph13	B-Ph14	B-Ph15	B-Ph16	aux-1	digaux	

28336.014	1	1	0	256	0.069744	0.20988	0.18558	0.18714	0.36185	0.17283	0.24856	0.15282	0.13538	0.11461	0.25099	0.11562	0.39751	0.058053	0.23653	0.091055	-0.58958	-0.63333	-0.47292	-1.3813	-0.29375	-0.61458	-1.5479	-0.40417	-1.0875	-0.77292	-0.54375	-1.3146	-0.38125	-0.68958	-1.1354	-0.40208	312.789	358.353	200.655	290.845	146.973	267.367	305.598	86.129	271.124	190.826	343.986	17.548	184.481	47.666	230.932	269.260	0.00013444	0.0003497	9.9834e-05	1160.5	2.5716e-06	3.6576e-06	1244	239.19	2.293e-06	2.6038e-06	297.54	82.57	65.144	18.738	4.1874e-06	26.023	0.00037284	0.00053425	0.00015757	1138.9	5.9103e-06	5.8569e-06	1227.9	238.13	5.2487e-06	5.9425e-06	295.9	82.976	65.361	19.062	5.554e-06	26.44	160.241	82.201	121.207	28.050	182.126	157.304	28.076	35.475	201.069	169.137	35.131	41.822	42.227	48.834	178.629	48.821	-8191	255	
28336.133	1	1	0	0	0.14031	0.091092	0.069642	0.25289	0.1694	0.051827	0.080397	0.16286	0.22242	0.18045	0.18208	0.12278	0.51671	0.19258	0.31956	0.069821	-0.75208	-1.0021	-0.22083	-1.3583	-0.29792	-0.58958	-1.3792	-0.47917	-1.0771	-0.87083	-0.33333	-1.3188	-0.68542	-0.58333	-1.3042	-0.27917	358.991	178.974	242.894	336.466	91.976	215.325	360.261	186.867	268.766	68.543	47.795	61.568	34.465	30.223	261.920	236.621	0.00018757	0.00019855	0.00017946	1150.9	2.6442e-06	3.0988e-06	1237	238.14	3.4221e-06	2.428e-06	296.31	81.848	64.79	18.766	2.0985e-06	26.001	0.00037699	0.00051469	0.00015448	1132.4	5.8559e-06	5.794e-06	1219.9	236.39	5.3197e-06	5.6169e-06	295.12	82.398	65.077	18.998	5.349e-06	26.416	157.554	124.622	121.316	27.910	204.951	140.251	28.259	35.521	210.751	152.608	35.775	42.172	42.519	49.431	166.801	49.435	-8191	255	
28336.205	1	1	0	0	0.15695	0.15573	0.24117	0.17023	0.23003	0.048579	0.041724	0.23176	0.091568	0.2744	0.099358	0.090153	0.090951	0.35141	0.075806	0.10319	-0.78958	-1.1875	-0.37083	-1.3479	-0.61667	-0.62917	-1.3646	-0.80417	-0.99792	-1.1229	-0.32083	-1.4312	-0.62083	-0.71875	-1.3646	-0.59375	108.987	54.388	123.155	298.440	117.383	41.554	112.378	328.299	374.097	67.951	47.329	261.958	65.908	283.809	130.381	77.500	0.00017233	0.00039852	6.6789e-05	1145.8	4.0228e-06	2.4413e-06	1231.5	235.86	1.5079e-06	2.2948e-06	295.49	81.377	64.584	18.695	3.0676e-06	25.912	0.0003662	0.0004997	0.00014006	1126.5	5.5349e-06	5.8416e-06	1214.2	235.11	5.544e-06	5.6426e-06	293.76	81.972	64.834	18.865	5.2405e-06	26.283	156.508	110.419	119.814	28.196	186.151	168.869	28.331	35.870	171.284	176.999	35.468	41.959	42.620	49.634	153.602	49.310	-8191	255	
28336.301	1	1	0	0	0.13483	0.12186	0.17883	0.29405	0.076956	0.15578	0.12872	0.065364	0.15872	0.12442	0.21409	0.32145	0.25312	0.19169	0.090125	0.044815	-0.53333	-1.1146	-0.21042	-1.2875	-0.77708	-0.58958	-1.4646	-0.68542	-0.78958	-1.1354	-0.27083	-1.2729	-0.88333	-0.48958	-1.0875	-0.79792	292.333	29.712	20.871	304.213	311.386	60.493	108.816	314.893	159.099	65.068	186.201	29.568	347.900	360.547	325.924	191.728	0.00016146	0.00037231	2.5856e-05	1140.3	2.7458e-06	2.9173e-06	1228.5	236.2	1.867e-06	3.4364e-06	294.18	81.002	63.984	18.654	3.0223e-06	25.499	0.00037324	0.00048519	0.00014649	1120.8	5.4969e-06	5.6596e-06	1206.3	234.09	5.4077e-06	5.4896e-06	291.69	81.76	64.315	18.78	5.215e-06	26.01	156.201	98.837	133.990	28.113	190.167	176.761	28.377	35.651	189.459	154.711	35.137	42.401	42.629	49.511	201.187	49.235	-8191	255	
28336.396	1	1	0	0	0.067075	0.14982	0.27599	0.2852	0.16253	0.19329	0.27781	0.16181	0.32016	0.18107	0.36165	0.40855	0.072903	0.19865	0.31176	0.066814	-0.11458	-1.2167	-0.1125	-1.0833	-0.9	-0.4	-1.5292	-0.83333	-0.57917	-1.35	-0.4	-1.1375	-1.075	-0.42917	-1.2625	-0.60833	76.174	188.343	244.851	338.184	353.207	350.237	259.494	309.565	370.630	374.126	340.211	247.730	17.779	261.297	239.713	311.214	0.00017031	0.0002941	6.8881e-05	1132.4	2.7369e-06	2.8191e-06	1220.2	231.51	2.1948e-06	2.0104e-06	290.73	79.934	63.099	18.279	2.7672e-06	25.419	0.0003753	0.0004846	0.00014544	1112.6	5.3172e-06	5.7057e-06	1199.3	230.72	5.1607e-06	5.0825e-06	288.11	80.569	63.297	18.441	4.8457e-06	25.778	159.729	85.667	118.262	28.148	200.568	199.412	28.096	35.265	167.983	136.210	34.690	41.835	41.920	49.224	189.861	48.529	-8191	255	
28336.516	1	1	0	0	0.19914	0.069265	0.31704	0.27592	0.22741	0.053461	0.1175	0.31953	0.076429	0.05647	0.079728	0.16818	0.29621	0.078735	0.2044	0.19636	-0.12917	-1.2625	-0.31042	-1.1021	-1.1021	-0.34167	-1.3792	-0.95417	-0.54583	-1.4312	-0.41875	-0.92917	-1.1208	-0.4	-1.075	-0.94167	301.812	208.636	200.477	271.576	236.856	215.212	242.960	19.328	238.993	281.624	324.985	28.987	291.281	331.708	363.963	289.369	0.00015492	0.00025034	9.2808e-05	1108.7	2.7653e-06	3.145e-06	1195	226.5	2.9093e-06	2.1451e-06	284.73	79.237	62.778	18.137	1.9426e-06	25.272	0.00034636	0.0004309	0.00012771	1090.9	4.9675e-06	5.071e-06	1176.6	226.15	4.7949e-06	4.5763e-06	283.48	79.842	62.854	18.353	4.5393e-06	25.542	159.219	118.900	104.999	27.840	203.823	166.664	27.777	35.361	172.157	212.771	34.599	42.051	42.235	49.448	136.529	48.848	-8191	255	
28336.611	1	1	0	0	0.14357	0.33452	0.17434	0.10982	0.11762	0.28666	0.15796	0.16027	0.16091	0.23676	0.27495	0.036827	0.17689	0.24374	0.25633	0.08984	-0.0875	-1.0917	-0.39792	-0.8375	-1.075	-0.29792	-1.425	-1.0938	-0.40417	-1.2521	-0.55208	-0.73333	-1.3271	-0.33125	-0.96875	-1.0292	306.681	64.656	114.538	84.406	343.062	49.462	227.541	270.307	372.864	228.556	371.086	178.595	135.959	33.485	281.727	163.211	0.00014249	0.00024279	8.3792e-05	1104	3.9919e-06	3.3175e-06	1187.7	227.64	2.5229e-06	3.2775e-06	284.54	78.984	62.538	18.197	2.8327e-06	25.317	0.00032614	0.00038928	0.00011909	1084.5	4.4597e-06	4.6691e-06	1169.5	224.89	4.2783e-06	3.9079e-06	282.41	79.688	62.56	18.355	4.0247e-06	25.554	153.851	98.721	92.426	27.667	206.987	194.806	27.928	34.956	192.674	162.615	34.411	42.022	42.528	49.290	144.826	48.915	-8191	255	
28336.707	1	1	0	0	0.25108	0.042242	0.2465	0.31736	0.33022	0.096354	0.34624	0.15892	0.10463	0.047629	0.10956	0.09127	0.18153	0.14276	0.25151	0.18216	0.075	-1.3438	-0.575	-0.71458	-1.1562	-0.22708	-1.2146	-1.2854	-0.46042	-1.2458	-0.73958	-0.58333	-1.2354	-0.46667	-1.0063	-1.0688	149.388	207.142	33.820	17.629	313.867	112.246	326.928	216.652	125.787	222.157	32.719	318.982	283.847	209.239	176.455	342.032	0.0001375	0.00037236	7.0902e-05	1098.6	3.0596e-06	3.7253e-06	1190	223.61	2.1868e-06	2.0858e-06	284.1	78.815	62.173	18.012	2.5234e-06	25.016	0.00030487	0.00037181	0.00011059	1079.3	4.4348e-06	4.3815e-06	1169.6	223.89	4.6701e-06	4.612e-06	282.02	79.425	62.403	18.205	4.7992e-06	25.385	156.702	96.870	96.418	27.823	209.424	185.940	27.927	35.157	200.335	137.651	34.809	41.557	42.324	49.064	181.723	48.928	-8191	255	
28336.805	1	1	0	0	0.15248	0.26278	0.13785	0.34362	0.19921	0.054372	0.096115	0.022479	0.22799	0.13276	0.13604	0.27559	0.14432	0.20308	0.1209	0.28907	0.1375	-1.0354	-0.75	-0.66042	-1.2625	-0.28125	-0.93958	-1.1792	-0.23542	-1.0917	-0.76458	-0.53542	-1.4417	-0.43125	-0.71042	-1.3021	349.501	365.105	57.474	372.531	135.564	186.005	258.756	283.933	109.209	128.059	371.671	172.444	185.149	24.365	28.182	307.224	0.00015485	0.00039094	5.6644e-05	1100.5	3.2821e-06	2.6597e-06	1192.1	225.71	2.4614e-06	3.5353e-06	285.24	78.467	62.325	17.918	2.5899e-06	25.273	0.00034235	0.00044398	0.00013165	1080.6	4.8477e-06	5.2673e-06	1171.7	224.74	5.0436e-06	5.0782e-06	282.48	79.563	62.532	18.25	4.9287e-06	25.576	160.911	101.652	101.186	27.809	195.574	168.192	27.978	35.002	194.943	156.919	34.889	41.905	42.394	49.382	181.437	48.753	-8191	255	
28336.900	1	1	0	0	0.037307	0.24443	0.049186	0.2634	0.089905	0.31328	0.16263	0.053971	0.18298	0.2751	0.57992	0.24198	0.10752	0.21192	0.19042	0.2004	0.097917	-1.0542	-0.90833	-0.50833	-1.2917	-0.6875	-0.80625	-1.2833	-0.29167	-1.2083	-1.0312	-0.53958	-1.1979	-0.66667	-0.51042	-1.5	192.087	267.236	173.623	334.094	237.669	376.117	261.803	144.553	134.966	328.353	360.144	96.966	328.071	317.776	68.592	52.837	0.00016795	0.00042026	9.0411e-05	1101.3	2.551e-06	3.0536e-06	1186.1	226.14	2.7957e-06	3.8128e-06	284.05	79.224	62.715	18.164	1.9009e-06	25.109	0.00035222	0.00047218	0.00013578	1084.7	4.725e-06	5.1718e-06	1171.5	225.81	5.1885e-06	5.0854e-06	283.14	79.746	62.892	18.331	4.8801e-06	25.537	152.774	109.932	113.145	27.756	182.883	155.308	27.911	35.112	166.311	158.855	34.405	42.077	42.351	49.220	182.518	49.000	-8191	255	
28336.996	1	1	0	0	0.28234	0.043069	0.16821	0.23808	0.064186	0.16434	0.13934	0.11613	0.088641	0.046954	0.20764	0.058697	0.27704	0.29816	0.034109	0.16798	-0.054167	-1.0125	-1.1396	-0.43125	-1.3604	-0.625	-0.79583	-1.3021	-0.45208	-0.87708	-1.2979	-0.28958	-1.2708	-0.74167	-0.47708	-1.4167	42.762	208.827	63.304	262.528	299.645	186.654	156.500	271.889	37.468	84.876	374.078	190.936	50.153	323.991	90.289	295.185	0.00016633	0.00038256	7.6732e-05	1105.8	2.8559e-06	2.0188e-06	1194	226.78	1.7362e-06	2.654e-06	285.86	79.082	62.52	18.258	2.7319e-06	25.095	0.00035867	0.00047285	0.00013231	1085.9	5.1945e-06	5.4815e-06	1175.6	225.63	5.2346e-06	5.226e-06	283.81	79.877	62.811	18.383	5.1927e-06	25.602	156.813	92.728	97.000	27.786	180.100	145.239	28.094	35.433	187.315	166.962	34.814	41.875	42.255	49.431	144.711	49.456	-8191	255	
28337.094	1	1	0	0	0.026069	0.13928	0.37883	0.3797	0.12769	0.1949	0.2597	0.36044	0.39462	0.38867	0.25474	0.48382	0.24187	0.032122	0.18723	0.1296	-0.025	-0.80625	-1.0917	-0.35	-1.1063	-0.77708	-0.47083	-1.3708	-0.50417	-0.75	-1.2229	-0.51042	-1.2687	-0.94583	-0.27083	-1.2792	373.389	32.701	282.815	19.926	106.273	289.300	302.138	334.228	337.910	334.058	310.530	298.580	318.522	357.111	213.661	41.984	0.00016756	0.00019843	9.2933e-05	1106.5	3.7461e-06	2.7121e-06	1197	226.69	3.0912e-06	2.5372e-06	286.17	79.443	62.662	18.136	2.8538e-06	25.222	0.00035147	0.0004399	0.00012148	1090.1	4.8693e-06	4.8084e-06	1176.9	226.29	4.783e-06	4.7312e-06	284.26	80.156	63.01	18.361	4.8894e-06	25.56	155.559	80.801	114.822	28.227	196.920	169.185	27.931	35.376	206.551	201.059	34.860	42.080	42.402	48.883	206.385	48.730	-8191	255	
28337.215	1	1	0	0	0.086033	0.1636	0.30979	0.4219	0.12546	0.26247	0.23351	0.18502	0.055026	0.2169	0.14977	0.2209	0.30996	0.21314	0.10418	0.2286	-0.2625	-0.62083	-1.0688	-0.28125	-1.0438	-0.98542	-0.62917	-1.2792	-0.61875	-0.34167	-1.3062	-0.37292	-1.0312	-1.0333	-0.28958	-1.2375	359.476	322.667	67.193	360.086	283.183	86.093	336.905	329.699	156.388	108.539	295.937	351.057	58.990	363.379	82.409	49.556	0.00015409	0.00035498	3.2161e-05	1105.5	3.5115e-06	2.5245e-06	1192.4	227.08	1.1047e-06	4.1765e-06	285.77	78.544	61.855	18.191	2.0149e-06	25.171	0.00034624	0.00044819	0.00012343	1087.2	5.0658e-06	4.9788e-06	1172.9	225.78	5.0748e-06	5.1512e-06	283.59	79.534	62.634	18.36	5.3075e-06	25.52	157.529	124.252	172.966	27.553	193.104	136.382	28.053	35.461	197.494	190.002	34.930	42.284	42.377	49.307	196.670	49.049	-8191	255	
28337.309	1	1	0	0	0.19947	0.13987	0.25593	0.099575	0.24031	0.31896	0.1894	0.38021	0.11773	0.16089	0.19264	0.24509	0.14345	0.054271	0.27167	0.064147	-0.23333	-0.33125	-1.175	-0.5375	-0.76458	-1.3438	-0.35	-1.2125	-0.625	-0.43958	-1.1708	-0.55	-0.81458	-1.2354	-0.13958	-1.125	341.641	76.237	80.950	361.459	306.347	46.384	254.868	344.903	359.932	63.756	275.627	313.029	241.653	372.710	202.620	20.882	0.00016762	0.00015765	8.157e-05	1107.2	1.1489e-06	2.6375e-06	1189.3	226.58	2.4241e-06	3.2086e-06	286.49	79.355	62.683	18.31	2.5702e-06	25.453	0.0003632	0.00047698	0.0001408	1084.7	5.5209e-06	5.6975e-06	1173.9	226.37	5.6487e-06	5.9196e-06	284.92	80.125	63.138	18.493	5.3267e-06	25.828	156.589	85.692	65.416	27.637	150.229	184.039	27.808	35.245	164.764	154.815	34.902	41.770	42.414	49.578	180.561	48.507	-8191	255	
28337.406	1	1	0	0	0.24078	0.030358	0.12571	0.067048	0.25119	0.14083	0.2396	0.32218	0.075429	0.2272	0.22191	0.31748	0.31066	0.20851	0.14042	0.12692	-0.35833	-0.3375	-1.1896	-0.58958	-0.78125	-1.1833	-0.52917	-1.2646	-1.0063	-0.20833	-1.3708	-0.59375	-0.75	-1.1542	-0.30208	-0.93333	146.136	34.984	340.321	319.855	108.744	172.088	337.016	313.387	23.613	275.500	328.360	328.359	328.437	363.746	28.471	254.965	0.00015462	0.00019176	8.6228e-05	1112.5	3.8019e-06	2.5243e-06	1200.4	229.11	2.6858e-06	2.8957e-06	285.86	80.132	62.487	18.225	3.3066e-06	25.59	0.00033215	0.00048136	0.00012544	1092.5	4.9443e-06	4.6888e-06	1180.7	227.86	4.8154e-06	4.9676e-06	285.59	80.381	63.283	18.501	4.9725e-06	25.885	156.796	126.676	121.567	27.612	201.472	174.740	27.650	34.957	155.948	157.099	34.873	41.769	42.266	49.079	171.251	49.194	-8191	255	
28337.500	1	1	0	0	0.27387	0.32393	0.20063	0.32944	0.25424	0.1553	0.19003	0.2251	0.18886	0.12475	0.27977	0.14389	0.14319	0.19271	0.047463	0.047196	-0.55208	-0.42292	-1.4458	-0.675	-0.58542	-1.1938	-0.6125	-0.81042	-1.0562	-0.23958	-1.2979	-0.68542	-0.50833	-1.3021	-0.41875	-0.86875	85.427	201.058	306.771	307.428	296.474	344.887	345.542	370.638	174.378	231.577	32.790	209.126	360.964	40.113	37.470	289.394	0.00015034	0.00033909	0.00012144	1113.7	3.5848e-06	2.5255e-06	1199.4	232.35	1.8798e-06	2.5492e-06	292.34	81.104	63.802	18.711	2.0027e-06	26.013	0.00033707	0.00044668	0.00012634	1092.1	4.7718e-06	4.6955e-06	1182.2	230.46	4.3586e-06	4.459e-06	289.97	81.573	64.276	18.886	4.3557e-06	26.344	152.076	105.945	111.407	27.433	197.760	145.548	27.684	35.311	192.388	155.609	34.805	41.269	41.948	48.966	187.173	47.877	-8191	255	
28337.596	1	1	0	0	0.12638	0.23578	0.10569	0.27722	0.214	0.18502	0.25608	0.070681	0.17933	0.065803	0.11484	0.051694	0.25294	0.20188	0.13769	0.14171	-0.79583	-0.21042	-1.0875	-0.93125	-0.4375	-1.3042	-0.43333	-0.82083	-1.3438	-0.35208	-1.1	-0.68542	-0.45208	-1.2167	-0.38542	-0.60833	129.286	37.674	91.815	275.704	35.310	349.555	374.937	33.221	342.929	278.658	301.415	34.013	344.322	288.264	59.505	283.358	0.0001513	0.00041491	8.0397e-05	1118.5	3.7109e-06	4.5575e-06	1210	236.96	3.4207e-06	3.8449e-06	294.93	81.248	64.52	18.942	2.9864e-06	25.988	0.00031235	0.00040211	0.0001057	1100.5	4.3192e-06	4.2394e-06	1189.9	235.16	3.9698e-06	4.5477e-06	292.34	82.002	64.834	19.004	4.4455e-06	26.315	157.194	106.299	137.154	27.440	179.398	188.146	27.594	35.266	165.084	182.266	34.617	41.517	41.800	48.708	152.349	48.500	-8191	255	
28337.693	1	1	0	0	0.21081	0.12631	0.046334	0.14672	0.066542	0.18216	0.10567	0.13646	0.1019	0.090266	0.14046	0.11065	0.25961	0.26109	0.087807	0.066206	-0.72917	-0.47708	-0.975	-0.97292	-0.47708	-1.3771	-0.72708	-0.5125	-1.15	-0.24792	-0.95833	-1.0187	-0.29375	-1.3125	-0.53542	-0.55208	81.234	327.595	96.389	357.512	183.853	65.543	360.826	154.680	117.009	329.953	356.771	296.641	347.502	375.148	42.518	124.394	0.00014818	0.00033503	8.1652e-05	1116.7	2.1635e-06	3.1928e-06	1210.3	234.92	1.9817e-06	5.9282e-06	290.66	80.555	63.673	18.527	3.969e-06	25.879	0.00032788	0.00044874	0.00012106	1100	4.9321e-06	5.0599e-06	1189.9	233.81	4.9723e-06	5.5197e-06	290.7	81.292	64.111	18.746	5.4084e-06	26.12	160.783	81.815	120.445	27.480	191.789	184.245	27.676	35.020	198.032	160.629	34.750	41.816	42.385	48.966	170.605	48.605	-8191	255	
28337.812	1	1	0	0	0.14025	0.10653	0.15596	0.21995	0.28549	0.12586	0.17364	0.12224	0.036461	0.27463	0.14716	0.23742	0.20278	0.15346	0.23843	0.15876	-0.70833	-0.18125	-0.73125	-1.0083	-0.21042	-1.0917	-0.775	-0.47083	-1.4042	-0.59583	-0.73125	-0.8875	-0.35	-1.0458	-0.57708	-0.37917	341.369	358.596	326.600	370.882	224.594	276.810	242.155	320.436	229.035	247.859	324.277	296.241	308.888	129.205	276.387	233.503	0.00018069	0.00020563	5.2611e-05	1128.2	2.9289e-06	3.4244e-06	1218.8	235.62	3.0102e-06	4.3065e-06	292.98	81.275	63.946	18.679	2.1532e-06	25.817	0.00037251	0.00048506	0.00014125	1108.6	5.421e-06	5.2601e-06	1196.4	234.29	5.2415e-06	5.7308e-06	292.21	81.757	64.411	18.861	5.2133e-06	26.195	151.578	136.470	123.571	27.246	203.638	155.354	27.412	35.309	194.244	126.279	34.474	41.220	41.946	48.717	194.627	48.786	-8191	255	
28337.908	1	1	0	0	0.17104	0.18973	0.07704	0.27646	0.086693	0.25025	0.21161	0.17713	0.11671	0.18153	0.22532	0.24398	0.24245	0.11058	0.19391	0.38334	-0.77083	-0.31042	-0.75208	-1.3271	-0.225	-1.2417	-0.89583	-0.40833	-1.3792	-0.38542	-0.85833	-1.2521	-0.29583	-1.0458	-1.0021	-0.30417	370.908	333.393	194.513	42.435	226.097	99.689	296.132	228.224	209.124	124.650	18.474	49.879	330.654	373.583	311.705	343.060	0.00014667	0.00029628	7.3278e-05	1128.2	3.3979e-06	4.7285e-06	1219.1	235.46	2.8399e-06	5.399e-06	294.68	81.591	64.279	18.598	3.1757e-06	25.825	0.00036456	0.00047774	0.00013512	1112.7	5.4168e-06	5.5929e-06	1201	234.74	5.3577e-06	5.8958e-06	293.71	82.106	64.577	18.909	5.9466e-06	26.31	166.362	98.957	146.640	27.551	186.047	158.541	27.607	34.980	183.834	205.918	34.599	41.716	41.860	49.267	176.977	48.135	-8191	255	
28338.006	1	1	0	0	0.073711	0.30926	0.19128	0.6364	0.18846	0.26737	0.33452	0.28886	0.14202	0.19323	0.21871	0.084802	0.1024	0.29513	0.13309	0.088859	-0.80833	-0.3875	-0.47292	-1.3188	-0.13125	-0.8125	-1.0542	-0.41042	-1.2292	-0.53333	-0.52708	-1.3625	-0.31458	-0.76458	-0.93542	-0.34375	117.717	39.177	66.701	351.335	226.909	287.412	308.346	328.100	319.924	178.366	352.153	19.934	172.693	215.168	115.080	277.157	0.00017317	0.00043612	0.00010723	1141.5	3.0344e-06	2.9686e-06	1226.6	237.99	2.1722e-06	2.8906e-06	297.32	81.998	64.538	18.984	1.6537e-06	25.994	0.00039017	0.00054831	0.00014656	1120.1	6.0047e-06	5.7777e-06	1209.7	236.23	5.4731e-06	5.9749e-06	294.74	82.508	65.069	19.069	5.2896e-06	26.317	159.592	99.637	117.785	27.445	204.955	126.805	27.596	35.134	180.148	169.055	34.645	41.748	41.711	48.893	188.593	48.497	-8191	255	
28338.102	1	1	0	0	0.14064	0.34052	0.078731	0.26201	0.072051	0.17598	0.27404	0.25357	0.14352	0.12663	0.48111	0.23718	0.23846	0.045104	0.15625	0.23712	-0.7875	-0.59583	-0.51042	-1.5417	-0.24583	-0.8625	-1.2542	-0.47917	-1.1333	-0.77292	-0.49375	-1.2188	-0.45625	-0.71458	-0.975	-0.39583	310.268	270.222	171.791	351.779	338.087	194.627	338.287	280.207	172.085	354.181	364.401	53.359	99.020	229.320	183.205	135.325	0.00016896	0.00020305	8.0748e-05	1139.1	2.3393e-06	9.56e-07	1227.1	237.27	1.9683e-06	2.5743e-06	296.74	82.078	64.664	18.85	3.3985e-06	26.229	0.00036374	0.00049928	0.00013767	1122.4	5.4535e-06	5.3595e-06	1210.8	236.64	5.0646e-06	5.3023e-06	295.43	82.752	65.178	19.086	4.7438e-06	26.42	157.850	148.612	128.222	27.373	237.414	123.914	27.535	34.768	208.665	231.388	34.634	41.589	41.690	48.298	174.175	48.067	-8191	255	
28338.197	1	1	0	0	0.1073	0.17069	0.27214	0.41938	0.19627	0.31993	0.24554	0.36441	0.37186	0.1086	0.10727	0.16048	0.23236	0.28555	0.1291	0.34177	-0.49167	-0.95833	-0.32917	-1.2667	-0.57917	-0.58542	-1.2521	-0.46042	-0.975	-0.80833	-0.38958	-1.0604	-0.48958	-0.63333	-1.2958	-0.37708	311.029	369.516	23.752	297.387	340.356	353.794	17.322	349.328	44.628	324.852	333.420	116.432	239.482	360.884	98.081	349.973	0.00015882	0.000295	4.4215e-05	1143.2	3.2082e-06	1.8317e-06	1232.1	238.23	2.336e-06	3.382e-06	296.23	82.075	64.344	18.987	1.8051e-06	26.045	0.0003401	0.00044697	0.00012295	1123.9	5.0565e-06	5.0359e-06	1213.4	236.98	4.7167e-06	4.797e-06	294.69	82.508	64.838	19.106	4.6697e-06	26.478	158.172	83.376	80.316	27.310	191.924	113.991	27.519	34.985	190.604	201.848	34.731	41.425	41.831	48.568	163.563	48.308	-8191	255	
28338.295	1	1	0	0	0.17675	0.1243	0.20087	0.10489	0.28185	0.14019	0.11048	0.19471	0.14336	0.17145	0.41007	0.10569	0.029767	0.099474	0.026568	0.32796	-0.45833	-0.91458	-0.15833	-1.5063	-0.64375	-0.64792	-1.6833	-0.3125	-0.85417	-1.0938	-0.4375	-1.1583	-0.8625	-0.51458	-1.1479	-0.58333	288.149	264.328	31.697	308.880	319.861	265.566	156.104	328.748	63.545	306.863	366.131	105.742	373.802	19.461	121.734	342.956	0.00015482	0.00030841	9.4864e-05	1146.7	4.0347e-06	2.5499e-06	1224.7	238.26	2.7356e-06	1.9012e-06	296.12	82.11	64.622	18.929	2.8704e-06	26.21	0.00034613	0.00044622	0.00012895	1122.4	4.9696e-06	4.8362e-06	1209.2	236.74	4.6612e-06	4.8604e-06	294.1	82.543	64.96	19.046	4.6371e-06	26.428	152.729	118.019	108.561	27.513	201.418	156.936	27.477	35.220	176.992	147.858	34.767	41.627	41.852	49.138	169.925	48.394	-8191	255	
28338.389	1	1	0	0	0.23914	0.19549	0.083499	0.33717	0.18912	0.094267	0.39556	0.33523	0.20202	0.1826	0.18926	0.18914	0.22578	0.094907	0.24989	0.079244	-0.2875	-0.98958	-0.35625	-1.2292	-0.68125	-0.46667	-1.4292	-0.54792	-0.76875	-1.1542	-0.37083	-0.91458	-0.85417	-0.38333	-1.3292	-0.61667	257.731	258.243	263.977	58.618	276.924	213.048	306.038	297.407	345.654	127.457	297.961	366.276	289.830	326.269	118.010	166.414	0.00016193	0.00023755	0.00010485	1141.7	3.0075e-06	3.4537e-06	1225	237.29	3.2532e-06	5.1935e-06	296	81.877	64.779	18.938	2.0487e-06	25.956	0.00034603	0.0004386	0.00012272	1120.7	4.7744e-06	4.6504e-06	1207.9	235.73	4.6565e-06	4.6702e-06	293.75	82.581	64.954	19.088	4.3879e-06	26.368	160.531	87.461	108.333	27.380	183.314	155.386	27.639	34.808	200.563	186.792	34.728	41.436	41.863	48.827	189.409	48.614	-8191	255	
28338.486	1	1	0	0	0.18543	0.31104	0.12049	0.32996	0.27557	0.17665	0.076407	0.035182	0.067197	0.32506	0.13036	0.2352	0.086611	0.11858	0.035447	0.23298	-0.38542	-1.1562	-0.27708	-1.0271	-0.925	-0.43958	-1.4229	-0.69375	-0.56042	-1.3125	-0.45	-1.0125	-0.90625	-0.24583	-1.2146	-0.63125	37.076	350.703	63.768	326.012	137.064	285.780	212.044	349.099	227.135	242.964	97.222	320.180	280.909	148.012	271.493	36.996	0.00016775	0.00031233	0.00010609	1139.1	4.0833e-06	6.4325e-07	1229.3	236.67	2.0713e-06	3.0961e-06	294.47	81.48	64.516	18.683	3.2145e-06	26.05	0.0003367	0.00042804	0.00012253	1119.5	4.6967e-06	5.0167e-06	1207.4	235.46	4.9112e-06	4.6607e-06	293.57	82.446	64.746	18.965	4.5911e-06	26.336	155.833	81.395	117.254	27.532	210.386	148.302	27.572	35.156	164.463	184.661	34.284	42.167	42.407	48.934	177.367	48.613	-8191	255	
28338.605	1	1	0	0	0.22165	0.24948	0.27825	0.30253	0.15367	0.21242	0.40742	0.035061	0.17559	0.27906	0.10609	0.25708	0.31087	0.18357	0.2031	0.12076	-0.18125	-1.1083	-0.41667	-0.8125	-1.1708	-0.35208	-1.3813	-0.875	-0.43542	-1.2271	-0.47292	-0.825	-1.1729	-0.38125	-1.0604	-0.82917	202.145	181.136	271.182	29.692	59.447	119.564	323.759	90.445	111.129	47.476	201.854	357.636	368.707	20.831	257.687	95.779	0.0001641	0.00035067	0.00010862	1131.8	3.2554e-06	2.1326e-06	1223.3	237.07	2.5683e-06	1.2628e-06	294.19	81.12	64.485	18.787	3.2028e-06	26.045	0.00035175	0.00043628	0.00012189	1115.2	4.9161e-06	4.889e-06	1205.9	235.92	5.0432e-06	4.8432e-06	293.51	82.41	64.957	19.033	4.9913e-06	26.39	156.435	103.838	109.366	27.779	172.525	181.469	27.754	34.889	176.587	213.041	34.874	41.911	41.814	48.856	160.858	48.318	-8191	255	
28338.701	1	1	0	0	0.11366	0.42591	0.20432	0.35258	0.097692	0.20706	0.43986	0.18994	0.22051	0.17351	0.25529	0.17583	0.22465	0.11617	0.28662	0.10857	-0.14167	-1.3354	-0.40417	-0.78125	-1.2625	-0.4	-1.1521	-0.81458	-0.38542	-1.225	-0.675	-0.73958	-1.2521	-0.30833	-0.84792	-0.95625	362.917	348.900	67.746	347.919	203.532	232.293	312.730	326.622	330.024	310.667	279.150	196.852	39.722	57.118	227.102	114.456	0.00018201	0.00013467	6.3767e-05	1135.6	4.4283e-06	5.8974e-07	1229.5	236.97	1.8819e-06	3.8929e-06	295.81	81.803	64.814	18.841	3.0762e-06	26.02	0.00035279	0.00045783	0.00012737	1118.7	5.0696e-06	5.2784e-06	1208.4	236	5.2453e-06	5.2436e-06	293.78	82.322	64.95	19.091	5.1574e-06	26.432	154.533	143.089	77.025	27.630	175.206	162.308	27.958	35.120	212.898	177.352	34.615	41.721	42.068	48.691	202.132	48.651	-8191	255	
28338.773	1	1	0	0	0.25229	0.074117	0.17172	0.21724	0.10104	0.14377	0.28447	0.11904	0.36249	0.092773	0.11474	0.053489	0.23775	0.038259	0.084333	0.13107	-0.083333	-1.3396	-0.60625	-0.85	-1.1292	-0.39375	-1.2104	-1.1812	-0.5625	-1.2271	-0.64583	-0.64792	-1.4458	-0.44167	-0.99583	-1.0354	255.399	317.560	187.967	321.241	120.470	341.297	320.495	118.551	210.599	274.740	56.358	233.757	25.352	139.192	21.746	224.099	0.00016629	0.00030803	0.00010222	1143.2	3.4599e-06	2.5345e-06	1232.3	237.78	2.2711e-06	3.7352e-06	296.56	81.549	65.216	18.816	1.0964e-06	26.298	0.00035626	0.00047062	0.00013699	1121.5	5.0354e-06	5.3917e-06	1210.5	236.05	5.1957e-06	5.0039e-06	293.54	82.475	65.232	19.106	4.935e-06	26.562	157.474	72.906	142.525	27.600	176.149	186.557	27.667	35.212	203.135	150.959	34.618	41.621	42.075	48.826	201.017	48.454	-8191	255	
28338.895	1	1	0	0	0.33114	0.15477	0.083546	0.35985	0.038357	0.14719	0.48629	0.13459	0.26512	0.22857	0.097744	0.26594	0.11725	0.088144	0.060148	0.10393	0.022917	-1.1646	-0.57708	-0.74583	-1.3542	-0.51667	-1.1021	-1.1333	-0.35	-1.0896	-1.0146	-0.47083	-1.2979	-0.52083	-0.7625	-1.275	94.390	274.382	265.160	377.125	235.974	142.954	332.724	337.576	194.351	50.769	353.225	251.719	54.470	337.766	286.313	98.051	0.00018682	0.00031465	5.2266e-05	1139.2	2.3743e-06	2.0855e-06	1224.6	235.98	2.1262e-06	2.4004e-06	295.13	81.911	64.505	18.782	3.3293e-06	25.978	0.00035086	0.00044188	0.00012493	1121.2	4.9325e-06	4.9807e-06	1207.9	235.47	4.9812e-06	4.98e-06	293.35	82.44	64.848	18.981	5.2423e-06	26.287	156.252	114.173	117.936	27.600	199.802	162.236	27.689	35.511	133.342	159.076	34.738	41.788	42.206	48.897	174.308	48.655	-8191	255	
28338.990	1	1	0	0	0.083602	0.075749	0.14883	0.012813	0.2435	0.15401	0.33622	0.094651	0.22398	0.11516	0.14196	0.24278	0.16472	0.041276	0.10912	0.19458	-0.033333	-1.1604	-0.92708	-0.51667	-1.3833	-0.67292	-0.9375	-1.4583	-0.21667	-1.15	-1.0042	-0.46667	-1.2333	-0.72708	-0.52292	-1.3375	53.314	219.515	279.005	43.712	213.643	105.883	342.986	282.438	180.126	233.797	376.781	317.425	148.221	23.678	171.681	376.719	0.00013977	0.00026151	2.9401e-05	1129.4	4.0666e-06	2.4064e-06	1218.1	235.83	3.268e-06	2.8646e-06	293.24	80.553	64.229	18.762	2.4366e-06	26.035	0.0003544	0.00047155	0.00013117	1112.9	4.9629e-06	5.324e-06	1200.7	234.71	5.141e-06	4.9815e-06	292.28	81.632	64.635	18.943	5.1583e-06	26.373	160.642	122.104	40.299	27.848	207.104	167.032	28.036	35.019	166.602	190.230	34.517	41.532	42.156	49.058	158.376	48.741	-8191	255	
28339.086	1	1	0	0	0.035284	0.25761	0.14962	0.13847	0.11216	0.2912	0.14897	0.19095	0.068849	0.2995	0.18363	0.1849	0.19979	0.27609	0.24138	0.072923	0.10208	-0.88125	-0.99583	-0.58125	-1.2313	-0.70417	-0.68125	-1.4479	-0.34167	-0.78958	-1.3104	-0.35	-1.2833	-0.77917	-0.49792	-1.2292	257.115	270.928	134.292	317.023	123.416	267.671	283.662	49.034	219.153	223.018	103.755	44.526	311.747	339.016	74.431	319.176	0.00014197	0.00025546	0.00010419	1128.7	2.1948e-06	1.2483e-06	1220.1	235.6	2.9525e-06	3.1741e-06	293.57	81.514	64.204	18.64	2.6899e-06	25.993	0.00034392	0.00045585	0.00012039	1110.5	4.9173e-06	4.9644e-06	1199.4	234.39	4.9859e-06	4.9562e-06	291.99	82.076	64.626	18.896	4.7487e-06	26.326	165.040	94.348	108.561	27.765	213.073	138.180	27.884	35.060	184.444	122.664	34.719	41.567	42.053	49.178	195.626	48.572	-8191	255	
28339.207	1	1	0	0	0.16337	0.093671	0.099095	0.15175	0.050768	0.16401	0.18793	0.27321	0.14697	0.20744	0.1287	0.21914	0.11757	0.026464	0.096808	0.18829	-0.13542	-0.83125	-0.97708	-0.58125	-1.0688	-0.69792	-0.68958	-1.3208	-0.4	-0.78125	-1.2313	-0.52292	-1.0562	-0.93125	-0.40208	-1.3417	201.639	321.305	137.443	338.048	374.624	369.240	196.210	327.173	122.977	146.504	24.873	352.873	187.136	349.982	339.941	360.826	0.00015593	0.0001964	8.618e-05	1131.3	3.2857e-06	3.5831e-06	1214.7	236.12	3.2148e-06	2.9877e-06	293.62	81.347	64.412	18.736	2.5219e-06	25.966	0.00034784	0.00043043	0.00012315	1111.4	4.9355e-06	4.9471e-06	1197.1	234.42	4.824e-06	4.7927e-06	291.71	81.793	64.534	18.891	5.031e-06	26.297	161.382	121.597	116.145	27.791	196.109	176.727	27.923	34.760	163.509	182.414	34.898	41.778	41.881	49.416	168.682	48.927	-8191	255	
28339.301	1	1	0	0	0.16886	0.33142	0.090226	0.51971	0.12473	0.16598	0.19451	0.25834	0.20688	0.048249	0.31494	0.088867	0.24321	0.15922	0.24028	0.21158	-0.24792	-0.575	-1.0688	-0.57708	-0.93542	-0.9375	-0.6	-1.4375	-0.59167	-0.40833	-1.4542	-0.47708	-1.0354	-1.3021	-0.30625	-1.3583	278.716	355.913	212.467	356.009	170.415	284.862	278.243	309.879	175.729	323.321	370.247	255.031	374.103	65.569	37.917	111.375	0.00015229	0.00018471	0.00011651	1129	2.9889e-06	7.0577e-07	1214.5	234.78	1.3027e-06	2.8952e-06	292.58	81.602	64.119	18.567	2.4252e-06	25.838	0.00033667	0.00043031	0.00012043	1108.6	4.798e-06	4.854e-06	1195.3	233.95	4.8522e-06	5.215e-06	291.71	81.713	64.352	18.825	4.7746e-06	26.226	158.428	128.977	98.771	27.709	182.143	210.326	27.852	34.881	184.851	183.511	34.639	41.540	42.076	49.186	145.548	48.919	-8191	255	
28339.373	1	1	0	0	0.22518	0.22397	0.10905	0.16331	0.023588	0.11102	0.1576	0.33111	0.27138	0.24444	0.10589	0.028201	0.23025	0.22029	0.089225	0.13209	-0.32292	-0.44375	-1.2125	-0.53125	-0.73333	-0.8875	-0.50417	-1.2062	-0.76667	-0.4125	-1.4875	-0.46667	-0.85208	-0.92708	-0.18958	-1.1625	174.004	42.841	373.440	374.863	188.547	26.959	328.261	331.697	225.651	126.224	195.886	336.507	367.495	150.843	212.466	282.548	0.00017651	0.00022705	6.5277e-05	1119.8	2.346e-06	3.0977e-06	1211.4	233.38	2.8217e-06	2.2341e-06	292.36	80.217	63.406	18.563	2.2079e-06	26.117	0.00034922	0.00044701	0.00012651	1104	5.0987e-06	5.0835e-06	1195.2	232.85	5.1039e-06	5.0463e-06	290.57	81.342	64.272	18.817	5.1458e-06	26.196	151.863	104.331	66.063	27.784	188.916	177.043	27.969	35.312	199.550	192.049	34.696	41.776	42.424	49.004	196.699	48.518	-8191	255	
28339.492	1	1	0	0	0.17276	0.12924	0.22136	0.33164	0.18526	0.31155	0.13799	0.25787	0.11409	0.073274	0.15456	0.18776	0.054244	0.099574	0.14161	0.12188	-0.39583	-0.22708	-1.3125	-0.71042	-0.73333	-1.25	-0.60417	-1.2458	-0.92083	-0.50833	-1.3687	-0.67292	-0.64375	-1.1938	-0.3125	-1.0042	204.357	375.686	292.929	324.500	22.605	276.972	321.008	369.956	246.753	135.649	271.848	284.608	299.311	99.284	365.233	94.311	0.00015566	0.00038944	9.6135e-05	1126.7	4.2284e-06	3.6393e-06	1215.3	235.16	2.6597e-06	3.7025e-06	293.22	80.955	63.954	18.55	1.4834e-06	25.823	0.0003473	0.00046663	0.00013095	1106.6	5.2961e-06	5.0815e-06	1195.6	233.54	5.1261e-06	5.1097e-06	291.46	81.705	64.356	18.811	4.9368e-06	26.136	151.583	116.778	102.391	27.805	193.486	189.628	28.173	35.387	180.979	171.426	34.557	41.623	42.288	48.833	195.487	48.412	-8191	255	
28339.590	1	1	0	0	0.2255	0.16503	0.22845	0.22885	0.35476	0.1175	0.2422	0.44193	0.22222	0.30067	0.070591	0.35736	0.13081	0.13617	0.12511	0.12911	-0.42083	-0.225	-1.0917	-0.67917	-0.47917	-1.1896	-0.46667	-0.925	-0.94375	-0.32917	-1.3021	-0.76667	-0.58125	-1.2854	-0.33125	-0.925	68.032	180.893	373.064	357.979	154.235	168.229	44.999	278.648	169.898	53.272	354.989	329.442	22.329	243.052	283.712	357.493	0.00015755	0.00035171	9.3814e-05	1127.5	2.8022e-06	1.9556e-06	1209.8	232.62	2.3711e-06	2.4674e-06	292.32	80.362	63.684	18.514	2.9172e-06	25.52	0.00035133	0.00046473	0.00012598	1105	5.0063e-06	5.0388e-06	1191.4	231.87	5.0646e-06	5.1822e-06	289.5	81.205	63.968	18.721	4.8381e-06	25.995	156.937	121.731	92.812	27.772	214.540	163.368	28.165	35.434	162.271	206.324	35.276	41.939	42.358	49.391	180.848	48.624	-8191	255	
28339.686	1	1	0	0	0.22904	0.14989	0.16876	0.32806	0.12545	0.099687	0.39775	0.1132	0.14675	0.1047	0.2013	0.13038	0.076379	0.41548	0.081722	0.17211	-0.88542	-0.28542	-1.1167	-1.0083	-0.39375	-1.3167	-0.69167	-0.77917	-1.2292	-0.32708	-1.0979	-0.85625	-0.3875	-1.2021	-0.51042	-0.69583	182.090	373.865	225.364	32.601	363.338	323.970	304.965	370.881	111.160	147.928	273.163	230.290	288.390	25.833	342.769	345.346	0.00014526	0.00033813	3.0121e-05	1119.1	2.8571e-06	2.6615e-06	1209.5	232.11	2.3303e-06	1.2205e-06	290.96	79.955	63.157	18.636	3.2076e-06	25.846	0.00034303	0.00046381	0.00012848	1101.6	5.1236e-06	5.0215e-06	1189.6	231.08	4.6966e-06	5.1269e-06	289.94	80.994	63.856	18.762	4.7023e-06	26.084	164.971	109.957	106.370	27.717	196.142	160.720	28.060	35.430	204.501	173.009	34.913	41.900	41.975	49.382	187.358	48.754	-8191	255	
28339.781	1	1	0	0	0.11618	0.056045	0.091552	0.1861	0.103	0.36736	0.42675	0.090971	0.011234	0.43553	0.14814	0.079689	0.14839	0.12859	0.19562	0.34527	-0.67083	-0.44583	-1.0458	-0.975	-0.45625	-1.1187	-0.75417	-0.65625	-1.4104	-0.35833	-0.91667	-1.0438	-0.36875	-1.3979	-0.42917	-0.51458	227.822	112.789	46.559	248.326	276.234	293.313	326.707	319.502	108.708	243.515	338.333	148.609	312.471	344.898	375.534	44.949	0.00017335	5.6452e-05	7.1319e-05	1122.1	2.6916e-06	3.6244e-06	1204.5	231.93	1.6215e-06	2.1544e-06	291.47	80.356	63.852	18.433	2.7611e-06	25.649	0.00032823	0.00043519	0.00011645	1100.8	4.7777e-06	4.7018e-06	1185.9	230.98	4.6988e-06	4.726e-06	288.85	81.106	63.976	18.695	4.8023e-06	26.102	159.330	158.843	126.003	28.148	202.547	162.203	28.072	35.500	178.140	181.709	35.412	42.087	42.782	49.950	187.177	48.934	-8191	255	
28339.902	1	1	0	0	0.11655	0.15429	0.08362	0.41028	0.27645	0.21971	0.31566	0.069733	0.23522	0.11437	0.21686	0.39528	0.08713	0.13947	0.16929	0.095855	-0.92292	-0.56458	-0.65625	-1.1354	-0.26042	-1.0667	-0.93958	-0.65208	-1.2271	-0.41458	-0.67292	-1.1333	-0.43125	-1.3021	-0.79583	-0.55833	221.008	145.862	309.784	18.930	367.602	187.821	349.562	189.080	120.876	169.481	294.363	20.854	20.826	63.541	346.592	344.856	0.00016985	0.00027976	0.00010178	1117.6	3.0092e-06	2.7294e-06	1210.4	232.09	3.131e-06	1.932e-06	291.73	80.759	63.693	18.499	3.1445e-06	25.718	0.00032612	0.00044962	0.00012708	1099.9	4.9001e-06	4.9221e-06	1190.4	230.84	4.736e-06	4.7426e-06	289.61	81.32	64.194	18.708	4.6384e-06	26.11	154.731	94.689	108.211	27.904	214.407	146.110	27.870	35.609	184.428	98.048	35.288	42.424	42.988	49.471	166.963	49.049	-8191	255	
28339.998	1	1	0	0	0.17853	0.14682	0.19389	0.36537	0.1916	0.134	0.13411	0.1802	0.18473	0.13288	0.15883	0.22108	0.077201	0.2141	0.068239	0.20201	-1.0167	-0.59375	-0.83958	-1.2458	-0.43125	-1.1208	-1.0104	-0.41458	-1.3375	-0.34375	-0.62292	-1.0979	-0.31667	-1.0417	-1.025	-0.3375	46.682	164.155	367.114	34.812	292.703	186.818	289.362	307.685	111.941	301.229	324.507	263.308	362.499	279.624	275.047	27.733	0.00015215	0.00031352	6.2949e-05	1120.9	2.6139e-06	4.816e-06	1205.3	232.04	3.2167e-06	4.0519e-06	292.62	80.61	63.941	18.668	2.2076e-06	25.803	0.0003302	0.00042787	0.00012158	1102.6	4.7486e-06	4.7075e-06	1189.3	231.15	4.5531e-06	4.5429e-06	289.29	81.372	64.153	18.838	4.3646e-06	26.118	158.154	94.777	109.953	28.199	190.985	180.289	28.277	35.405	197.680	166.085	35.603	42.280	42.385	49.692	184.453	48.974	-8191	255	
28340.070	1	1	0	0	0.44908	0.090034	0.10107	0.29687	0.20951	0.10179	0.21149	0.38703	0.046339	0.25249	0.21168	0.1606	0.10526	0.18195	0.16729	0.14882	-0.72292	-0.59583	-0.55833	-1.4875	-0.3	-0.99583	-1.2458	-0.55	-1.2375	-0.64792	-0.61458	-1.2833	-0.42083	-0.88542	-0.94375	-0.42083	118.584	141.102	173.911	40.221	335.438	374.696	362.068	33.837	197.069	280.833	303.629	30.513	21.618	313.519	57.735	302.895	0.00014324	0.0001798	7.5369e-05	1119.4	3.9421e-06	3.4185e-06	1200.9	232.51	2.5133e-06	3.9247e-06	292.16	80.321	63.185	18.603	2.661e-06	25.554	0.00030846	0.00040598	0.00010997	1097.8	4.6128e-06	4.3066e-06	1184.1	230.82	4.3133e-06	4.3661e-06	288.59	81.091	63.727	18.737	4.3209e-06	26.037	158.843	72.900	122.851	28.150	190.188	196.145	28.091	35.423	179.689	162.024	35.122	42.089	42.571	49.723	162.282	49.173	-8191	255	
28340.166	1	1	0	0	0.22921	0.15116	0.22523	0.26614	0.24406	0.12404	0.14474	0.20484	0.25776	0.1674	0.14827	0.34297	0.22983	0.20101	0.23902	0.059549	-0.68333	-0.58125	-0.45417	-1.3687	-0.47292	-0.90417	-1.2083	-0.30833	-1.0562	-0.84167	-0.3375	-1.3396	-0.49375	-0.6	-1.0667	-0.26458	353.490	86.765	300.616	325.016	260.760	157.746	336.862	322.652	298.189	148.446	48.277	325.823	231.529	38.750	192.472	315.965	0.00015617	0.00025747	0.00010568	1122.4	3.5893e-06	4.1391e-06	1206.3	231.02	1.5202e-06	3.089e-06	289.43	80.738	63.443	18.538	2.262e-06	25.643	0.00031428	0.00040821	0.00011575	1099.4	4.3741e-06	4.3782e-06	1185.5	230.38	4.336e-06	4.3765e-06	287.73	81.218	63.952	18.761	3.9618e-06	26.051	159.901	102.261	131.964	28.303	185.586	163.696	28.118	35.567	169.875	184.815	35.600	41.884	42.281	49.510	175.345	48.842	-8191	255	
28340.287	1	1	0	0	0.038472	0.083038	0.12808	0.27004	0.16181	0.11492	0.13647	0.19324	0.026557	0.23493	0.27166	0.29827	0.33189	0.095325	0.11754	0.16898	-0.60625	-0.98333	-0.29583	-1.4688	-0.41875	-0.77083	-1.3375	-0.42917	-1.0604	-0.90625	-0.42917	-1.3479	-0.64375	-0.48958	-1.2292	-0.32917	146.807	338.301	128.940	22.678	375.959	237.118	331.766	40.339	200.953	37.494	79.902	318.104	34.657	307.366	102.318	335.082	0.00016198	0.00032833	0.00012091	1115	2.7436e-06	3.2653e-06	1202.5	232.61	2.0918e-06	3.0873e-06	290.54	81.028	63.772	18.627	1.7394e-06	25.727	0.00028932	0.00039462	0.00010632	1098.3	4.2855e-06	4.189e-06	1185.6	230.86	4.2364e-06	4.1496e-06	288.56	81.392	63.939	18.771	3.9175e-06	26.132	154.873	90.732	133.273	28.041	168.695	159.295	27.954	35.523	186.767	184.355	35.074	42.415	41.978	49.964	180.612	48.929	-8191	255	
28340.381	1	1	0	0	0.26822	0.1537	0.12967	0.26564	0.023817	0.109	0.28295	0.30444	0.17425	0.064577	0.15755	0.31339	0.089373	0.2216	0.39065	0.14983	-0.475	-1.05	-0.41458	-1.4625	-0.79583	-0.54167	-1.725	-0.32083	-0.79167	-1.0688	-0.34792	-1.1375	-0.59583	-0.38333	-1.4271	-0.40833	306.496	54.466	57.606	356.044	312.423	243.494	281.937	357.002	255.473	338.310	307.073	316.114	323.289	231.099	329.227	312.439	0.00018002	0.00025308	6.8385e-05	1121.6	3.8387e-06	3.4142e-06	1203.9	232.07	2.9941e-06	1.6926e-06	287.99	80.609	63.984	18.62	1.8817e-06	25.843	0.00029767	0.00037589	0.0001155	1099.1	4.6664e-06	4.225e-06	1184.6	230.77	4.2608e-06	4.2512e-06	287.51	81.119	64.058	18.81	4.039e-06	26.123	152.520	109.712	97.656	28.167	184.126	157.015	27.942	35.207	177.894	166.278	34.648	41.559	41.999	49.308	127.178	48.422	-8191	255	
28340.477	1	1	0	0	0.18183	0.04125	0.15626	0.29563	0.31509	0.32632	0.29216	0.084143	0.19279	0.30728	0.29953	0.090968	0.19762	0.12759	0.15628	0.30473	-0.27083	-0.94792	0.041667	-1.1229	-0.66042	-0.48333	-1.3542	-0.76458	-0.71042	-1.1708	-0.4875	-1.1979	-0.7875	-0.38125	-1.2875	-0.7625	238.032	163.453	363.265	181.080	342.925	245.957	291.325	147.047	241.039	47.962	324.920	260.979	18.651	91.882	114.244	54.031	0.00016114	0.00035929	8.6647e-05	1120	1.8604e-06	3.9127e-06	1204.3	232.38	1.4424e-06	3.4344e-06	290.05	80.727	63.617	18.476	2.7176e-06	25.883	0.00029985	0.00037598	0.00011253	1098.8	4.1366e-06	4.3618e-06	1185.9	231.11	4.2433e-06	4.0147e-06	288.5	81.401	64.028	18.752	4.0252e-06	26.183	162.112	93.160	94.375	27.623	181.116	177.098	27.803	34.903	164.394	178.652	34.737	41.930	41.888	49.172	136.840	48.609	-8191	255	
28340.574	1	1	0	0	0.15317	0.13241	0.11043	0.27443	0.21531	0.20187	0.4288	0.2123	0.19127	0.20913	0.17735	0.071407	0.15655	0.19841	0.11264	0.26828	-0.30417	-0.8875	-0.53958	-0.99167	-0.97083	-0.25208	-1.3333	-0.43333	-0.7125	-1.2042	-0.43542	-1.0812	-0.90833	-0.55208	-1.0708	-0.57917	353.314	225.075	240.640	316.005	52.297	251.186	372.747	328.474	191.494	109.888	123.256	176.802	301.899	224.659	54.754	211.824	0.00017468	0.00032228	7.3047e-05	1118.4	3.1298e-06	4.1899e-06	1201.4	232.01	1.5206e-06	4.417e-06	289.87	80.415	63.41	18.429	1.6554e-06	25.717	0.00029849	0.00036773	0.00011346	1099	4.4099e-06	4.6547e-06	1185.1	230.92	4.1672e-06	4.2264e-06	288.15	81.239	64.011	18.706	4.1565e-06	26.106	156.179	101.218	102.944	27.765	192.055	193.763	27.842	34.769	174.203	175.232	34.785	41.366	42.049	49.107	186.665	48.337	-8191	255	
28340.670	1	1	0	0	0.11805	0.098812	0.14283	0.37735	0.14249	0.19537	0.10437	0.18908	0.22545	0.30865	0.25757	0.12468	0.16871	0.23021	0.26776	0.03089	-0.19583	-1.3188	-0.35833	-0.90417	-0.94583	-0.2625	-1.3979	-0.69583	-0.33958	-1.2938	-0.33958	-0.69792	-1.1167	-0.37917	-0.88125	-0.925	319.615	236.039	349.648	325.668	30.107	218.956	288.242	302.797	257.370	143.257	372.770	174.077	32.435	322.421	231.369	17.703	0.00015523	0.00026267	0.00011361	1117.6	2.2432e-06	1.8928e-06	1208.5	232.02	2.7823e-06	1.1181e-06	290.85	80.579	63.685	18.647	2.5749e-06	25.646	0.00030274	0.00037526	0.00010597	1096.9	4.1969e-06	4.3234e-06	1185.5	230.4	4.0826e-06	3.9995e-06	288.23	81.196	63.967	18.785	3.9823e-06	26.045	150.739	110.064	106.142	27.530	177.240	161.516	27.694	34.899	207.261	125.400	34.787	41.896	42.034	49.420	166.476	48.435	-8191	255	
28340.766	1	1	0	0	0.28176	0.25519	0.13232	0.28211	0.35709	0.21057	0.26398	0.058748	0.21426	0.12728	0.05825	0.25176	0.014215	0.044325	0.18959	0.071846	0.13542	-1.3375	-0.47292	-0.825	-1.4438	-0.18125	-1.1729	-1.0521	-0.35625	-1.0396	-0.59583	-0.56875	-1.2229	-0.38333	-0.95	-0.9625	169.219	20.573	96.002	348.585	252.046	225.845	283.381	164.814	285.258	343.803	162.040	273.764	221.972	137.464	226.752	363.321	0.00016785	0.00037435	7.9195e-05	1115.1	2.8242e-06	2.0117e-06	1206.7	231.14	3.4486e-06	4.1276e-06	289.8	80.748	63.744	18.666	1.7271e-06	25.76	0.00030466	0.00035359	0.00010794	1097.3	4.0729e-06	4.2092e-06	1185.7	230.41	4.2574e-06	3.9399e-06	288	81.227	63.926	18.771	3.9251e-06	26.121	162.016	115.104	115.782	27.622	172.804	171.743	27.531	34.924	205.497	177.542	34.500	41.850	42.016	48.890	210.505	48.507	-8191	255	
28340.887	1	1	0	0	0.30772	0.19883	0.32689	0.23061	0.041691	0.086262	0.30524	0.1426	0.10012	0.11035	0.12516	0.1001	0.16133	0.189	0.22077	0.14954	0.091667	-1.4021	-0.48958	-0.79583	-1.2188	-0.42708	-1.0958	-1.0333	-0.29792	-1.3958	-0.725	-0.48125	-1.4208	-0.36667	-0.82083	-1.0771	329.521	288.527	65.834	373.545	307.910	345.488	328.688	24.265	294.757	263.961	263.825	348.982	50.025	63.312	308.139	169.364	0.00016727	0.00029845	8.6754e-05	1113.3	2.2347e-06	2.5935e-06	1203.1	231.99	2.7388e-06	4.7238e-06	289	81.114	63.792	18.591	1.3792e-06	25.565	0.00031744	0.00037261	0.00011007	1094.5	4.2547e-06	4.3551e-06	1184.7	230.9	4.0877e-06	4.1763e-06	287.66	81.347	63.913	18.71	4.2436e-06	26.039	157.660	135.905	89.296	27.619	192.292	155.572	27.660	35.000	183.440	177.492	34.836	41.757	42.109	48.561	185.915	48.629	-8191	255	
28340.982	1	1	0	0	0.19776	0.31314	0.072792	0.31267	0.18115	0.069137	0.29436	0.17604	0.15925	0.16056	0.14573	0.25083	0.13637	0.30416	0.06302	0.12353	0.091667	-1.3208	-0.78958	-0.6125	-1.2792	-0.39583	-0.98333	-1.2375	-0.43125	-1.0083	-0.88542	-0.57292	-1.25	-0.49792	-0.59792	-1.1958	147.698	220.556	234.017	35.795	300.488	211.074	299.261	281.134	306.688	346.399	20.739	335.084	205.493	230.015	267.381	93.775	0.00016837	0.00028262	9.2977e-05	1116.6	2.5054e-06	2.9592e-06	1201.1	231.42	1.3705e-06	3.0075e-06	289.47	80.395	63.618	18.584	2.1085e-06	25.578	0.00031477	0.00035738	0.00010324	1095.8	4.0122e-06	4.3911e-06	1183.3	230.74	4.2112e-06	4.0953e-06	288.05	81.185	63.828	18.745	3.8188e-06	25.934	154.232	94.008	70.947	27.536	163.570	138.574	27.634	34.942	161.581	179.564	34.565	41.536	41.761	48.938	169.463	48.213	-8191	255	
28341.078	1	1	0	0	0.06009	0.060502	0.082058	0.15163	0.11623	0.16048	0.23073	0.21432	0.20773	0.25716	0.19751	0.19307	0.15214	0.11702	0.25471	0.0078022	-0.20625	-0.95417	-0.91458	-0.63333	-1.2458	-0.44375	-0.58542	-1.475	-0.08125	-0.88125	-1.1292	-0.58333	-1.2125	-0.63542	-0.53542	-1.2125	346.523	357.022	304.952	17.566	192.947	306.341	303.057	169.595	228.937	83.212	324.077	62.003	73.017	244.589	43.622	25.485	0.0001643	0.00039742	7.5363e-05	1113.2	3.0437e-06	2.015e-06	1198.6	232.16	1.944e-06	3.1709e-06	289.59	80.894	63.401	18.499	1.1791e-06	25.963	0.00030095	0.00037253	0.00010339	1095	4.0919e-06	4.4463e-06	1181.9	230.62	4.1518e-06	4.1291e-06	287.88	81.317	63.721	18.714	4.1355e-06	26.133	160.280	112.880	103.533	27.384	199.860	177.576	27.724	34.939	200.374	223.328	34.537	41.546	41.792	48.769	189.190	48.029	-8191	255	
28341.176	1	1	0	0	0.27239	0.14235	0.20708	0.29471	0.053608	0.049181	0.13537	0.16462	0.30111	0.075907	0.13472	0.17228	0.038856	0.19633	0.1033	0.20538	-0.00625	-0.95	-0.89167	-0.4375	-1.2292	-0.68125	-0.625	-1.3937	-0.12917	-0.72083	-1.0438	-0.18125	-1.2417	-0.81875	-0.59375	-1.2604	307.704	25.303	103.869	370.940	141.962	123.035	281.995	26.426	318.060	289.405	268.290	262.744	328.990	360.359	145.954	306.804	0.0001716	0.00026948	8.4311e-05	1111.2	2.8792e-06	2.4085e-06	1202.3	231.79	1.6651e-06	3.3364e-06	289.35	80.103	63.109	18.44	1.6655e-06	25.599	0.00029448	0.00038949	0.00010541	1093.7	4.0041e-06	4.3902e-06	1182.5	230.68	4.2693e-06	4.2516e-06	287.64	81.073	63.705	18.739	4.2682e-06	25.983	156.463	107.363	142.302	27.532	194.267	163.674	27.760	35.160	192.061	181.585	34.628	41.685	41.876	48.895	190.619	48.536	-8191	255	
28341.297	1	1	0	0	0.22678	0.11275	0.10665	0.36594	0.34981	0.092164	0.23866	0.18754	0.10049	0.067024	0.052189	0.11468	0.10949	0.07535	0.23346	0.26922	-0.0625	-0.675	-1.0729	-0.43333	-1.1354	-0.73958	-0.475	-1.2958	-0.45417	-0.725	-1.3	-0.45417	-1.1458	-0.9	-0.28958	-1.1437	74.527	235.325	285.997	366.554	275.832	22.122	331.047	194.582	294.900	189.855	100.129	371.498	189.249	111.182	22.007	365.014	0.00014282	0.00015895	0.00011537	1109.7	3.2264e-06	3.9084e-06	1200.6	231.28	2.2638e-06	3.5813e-06	290.69	80.299	63.482	18.548	1.2555e-06	25.581	0.00030658	0.00038292	0.00010547	1091.4	4.2197e-06	4.3287e-06	1182	230.45	4.3458e-06	4.3899e-06	288.07	81.014	63.823	18.691	4.3374e-06	26.003	157.651	99.002	98.874	27.548	197.316	175.463	27.731	35.317	172.895	179.955	34.614	41.354	41.666	49.080	176.046	48.493	-8191	255	
28341.367	1	1	0	0	0.38629	0.37252	0.10011	0.27011	0.19185	0.1054	0.45436	0.08267	0.23192	0.14442	0.23323	0.32285	0.17751	0.4224	0.19603	0.35728	-0.38333	-0.59583	-1.2646	-0.7	-0.94583	-0.84583	-0.44167	-1.4125	-0.52708	-0.53125	-1.1646	-0.52083	-0.8875	-1.0375	-0.34375	-1.0042	214.455	339.367	370.929	22.753	305.238	97.665	335.191	50.591	175.904	332.333	46.136	336.210	57.784	78.852	140.276	341.560	0.00017852	0.00027013	0.00011859	1111.1	2.9331e-06	3.9974e-06	1200.5	231.97	1.9561e-06	3.4427e-06	290.34	80.035	63.415	18.426	2.1964e-06	25.634	0.00031263	0.00038604	0.00010613	1093.3	4.253e-06	4.3081e-06	1181.3	230.4	4.3903e-06	4.2226e-06	288.33	80.944	63.778	18.691	4.3262e-06	26.023	155.442	112.257	125.247	27.319	173.089	174.972	27.916	34.890	193.225	178.128	34.571	41.448	41.804	48.634	157.539	48.756	-8191	255	
28341.463	1	1	0	0	0.1614	0.13783	0.22001	0.24953	0.1315	0.1135	0.13207	0.14362	0.068489	0.11768	0.05081	0.26704	0.067915	0.17729	0.19737	0.29243	-0.41458	-0.37292	-1.3021	-0.5125	-0.85833	-1.0875	-0.49375	-1.3917	-0.725	-0.45417	-1.4354	-0.37917	-0.72083	-1.1667	-0.23333	-1.1479	334.225	99.366	83.019	328.239	240.216	151.931	355.325	317.736	17.907	24.090	257.593	287.986	341.320	60.441	157.394	363.392	0.00016602	0.00029114	0.00011523	1111.1	2.4541e-06	2.0139e-06	1200.5	231.57	2.6201e-06	3.8676e-06	290.67	80.003	63.165	18.404	2.8924e-06	25.493	0.00031423	0.00038852	0.00010612	1092.3	4.2598e-06	4.1391e-06	1181.6	230.38	4.1317e-06	4.326e-06	287.95	80.849	63.549	18.662	4.2436e-06	25.95	159.935	91.464	103.750	27.649	187.053	195.131	27.445	34.844	164.048	194.617	34.670	41.236	41.942	49.020	182.321	48.634	-8191	255	
28341.559	1	1	0	0	0.23075	0.13926	0.08565	0.19034	0.31591	0.1095	0.13911	0.18588	0.11312	0.13676	0.070921	0.30199	0.341	0.11237	0.16573	0.055172	-0.6125	-0.29375	-1.1021	-0.68333	-0.72292	-1.3687	-0.53542	-0.95625	-0.90833	-0.33958	-1.1229	-0.58542	-0.45625	-1.3271	-0.30833	-1.0938	81.431	305.445	216.020	306.809	257.800	365.572	307.531	25.143	123.072	164.862	134.721	304.162	121.332	284.211	55.588	54.877	0.00016249	0.00022947	8.4988e-05	1110.1	2.6336e-06	2.5533e-06	1201.9	230.92	1.4919e-06	3.1207e-06	287.18	79.871	63.408	18.455	2.1153e-06	25.597	0.00031303	0.00039012	0.00011021	1090.8	4.4158e-06	4.0771e-06	1179.7	229.76	4.2292e-06	4.3251e-06	286.56	80.741	63.569	18.604	4.3673e-06	25.884	155.165	92.740	112.967	27.345	175.327	159.844	27.747	35.063	178.201	86.433	34.524	41.366	41.874	48.949	148.746	48.631	-8191	255	
28341.678	1	1	0	0	0.13363	0.080976	0.24588	0.49097	0.13375	0.16932	0.13888	0.2247	0.14489	0.16983	0.13328	0.23157	0.18414	0.087317	0.087391	0.073225	-0.53125	-0.18542	-1.05	-0.71875	-0.50625	-1.2458	-0.47292	-1.0167	-1.0438	-0.3875	-1.1333	-0.525	-0.52708	-1.2896	-0.62292	-0.7875	273.361	30.168	37.942	360.252	101.492	120.211	285.712	361.868	60.809	30.290	167.759	377.094	56.912	233.474	318.480	21.456	0.00015945	0.00034471	8.0669e-05	1112	2.5405e-06	2.476e-06	1197	231.07	1.6782e-06	3.5776e-06	289.23	80.009	63.132	18.418	1.3216e-06	25.447	0.00031533	0.00040093	0.00010928	1090.7	4.2602e-06	4.3873e-06	1178.4	229.7	4.3018e-06	4.4438e-06	287.5	80.857	63.552	18.641	4.4013e-06	25.912	156.581	103.092	108.998	27.323	200.878	146.275	27.504	35.225	162.482	193.470	34.684	41.246	42.256	49.365	153.356	48.298	-8191	255	
28341.775	1	1	0	0	0.076143	0.15075	0.31158	0.17712	0.13741	0.32556	0.2623	0.24685	0.093966	0.27413	0.2177	0.29283	0.13719	0.22449	0.18351	0.17111	-0.56458	-0.2625	-0.95417	-0.775	-0.38333	-1.3125	-0.57917	-0.77083	-0.76875	-0.30208	-1.075	-0.75625	-0.39583	-1.1979	-0.6375	-0.6	342.814	82.254	43.134	302.811	348.940	297.675	319.909	295.024	316.540	17.968	207.392	75.946	268.098	178.153	29.410	45.824	0.00015685	9.7705e-05	0.00012232	1112	2.8886e-06	3.2261e-06	1195	230.14	1.7566e-06	2.6174e-06	289.74	80.049	63.353	18.285	2.2188e-06	25.457	0.0003203	0.0003929	0.00010764	1091.5	4.369e-06	4.3042e-06	1177.1	229.26	4.3941e-06	4.6125e-06	286.91	80.678	63.467	18.558	4.5205e-06	25.877	147.885	72.325	122.593	27.537	189.655	177.926	27.451	35.040	182.673	215.321	34.699	41.511	42.036	49.079	172.028	48.692	-8191	255	
28341.871	1	1	0	0	0.090694	0.058665	0.1853	0.091735	0.12273	0.19213	0.1388	0.14325	0.26804	0.16811	0.33423	0.20157	0.30519	0.26229	0.15597	0.16642	-0.82292	-0.17917	-1.0042	-0.98542	-0.31667	-1.1479	-0.67917	-0.83958	-1.2521	-0.49375	-0.93958	-0.77917	-0.30208	-1.3062	-0.57083	-0.60417	81.473	248.431	318.026	236.731	252.090	317.661	35.775	280.074	35.166	21.004	30.567	271.249	29.794	351.864	145.127	286.995	0.00017111	0.00035149	0.00013363	1112.5	2.7735e-06	2.5254e-06	1194.1	231.78	1.6649e-06	2.0574e-06	288.89	79.96	63.177	18.37	1.7559e-06	25.521	0.00031252	0.000395	0.00011665	1092.3	4.5369e-06	4.552e-06	1178.2	229.29	4.0719e-06	4.6406e-06	287.12	80.554	63.458	18.559	4.5826e-06	25.874	151.280	92.952	110.215	27.288	189.749	143.707	27.673	35.209	208.626	196.995	34.696	41.593	42.474	49.152	160.487	48.565	-8191	255	
28341.967	1	1	0	0	0.14428	0.26625	0.095215	0.22097	0.32432	0.31157	0.21484	0.14362	0.23284	0.21071	0.33111	0.23701	0.080592	0.21782	0.10982	0.23018	-0.91458	-0.4875	-0.97292	-1.3188	-0.16667	-1.2146	-0.70625	-0.42083	-1.175	-0.42292	-0.99167	-1.0729	-0.35625	-1.1479	-0.85208	-0.4125	376.168	116.321	95.767	345.215	272.467	92.162	338.830	31.144	19.195	19.709	41.847	95.112	125.783	116.705	365.962	360.787	0.00016174	0.00022959	4.5489e-05	1105.3	1.8414e-06	2.0292e-06	1191.1	231.24	2.4e-06	4.0907e-06	289.44	80.22	63.325	18.3	2.34e-06	25.443	0.00031667	0.0004064	0.0001141	1088.1	4.571e-06	4.2341e-06	1175.4	229.23	4.2727e-06	4.562e-06	287.01	80.589	63.448	18.601	4.2516e-06	25.857	156.031	82.978	123.751	27.536	167.605	154.870	27.640	35.380	172.114	167.962	34.678	41.200	42.040	49.655	170.676	48.591	-8191	255	
28342.062	1	1	0	0	0.29067	0.13924	0.10904	0.17183	0.19217	0.22159	0.2696	0.40134	0.13097	0.18831	0.033355	0.17956	0.23394	0.11432	0.095556	0.62483	-0.94583	-0.58333	-0.69375	-1.2542	-0.3625	-0.92917	-1.0333	-0.39167	-1.1458	-0.39167	-0.65833	-1.4375	-0.38958	-1.0583	-0.79792	-0.30417	89.615	170.226	341.505	370.616	319.207	28.300	359.792	350.927	103.316	71.680	210.896	68.165	31.256	371.676	249.452	36.464	0.00016823	0.00033972	0.00013028	1111	3.0621e-06	1.3434e-06	1195.4	229.58	2.0366e-06	2.7195e-06	290.54	80.119	62.714	18.419	1.8575e-06	25.531	0.00030984	0.00037787	0.00010738	1088.7	4.2889e-06	4.2903e-06	1176.6	228.28	4.1095e-06	4.4109e-06	286.85	80.519	63.228	18.582	4.2074e-06	25.84	154.979	85.737	105.396	27.599	177.475	209.131	27.380	35.256	203.639	195.362	34.521	41.294	42.365	49.309	190.240	48.494	-8191	255	
28342.158	1	1	0	0	0.36771	0.22833	0.2872	0.37438	0.24082	0.055106	0.15567	0.32961	0.19247	0.20083	0.10339	0.28934	0.34413	0.13779	0.046812	0.18794	-0.80833	-0.41458	-0.6	-1.5146	-0.47292	-0.86875	-1.1792	-0.51667	-1.1938	-0.56458	-0.53958	-1.1292	-0.37917	-0.94167	-0.92708	-0.49792	296.829	223.355	219.717	72.315	113.710	38.813	296.655	271.912	23.139	285.047	74.097	367.883	313.095	132.717	192.093	321.704	0.00015478	0.00031504	0.00010668	1107.2	3.4565e-06	3.6852e-06	1190.1	229.13	3.0072e-06	1.4219e-06	289.04	79.907	62.666	18.336	1.4795e-06	25.435	0.00030346	0.00037396	0.00010806	1088.1	4.291e-06	4.5232e-06	1170.9	228.34	3.9044e-06	4.2826e-06	286.59	80.373	63.209	18.563	3.9149e-06	25.839	160.456	112.339	119.188	27.724	225.282	149.014	27.884	35.119	204.764	116.072	34.980	41.694	42.120	48.763	171.535	48.928	-8191	255	
28342.256	1	1	0	0	0.11024	0.039315	0.12446	0.3177	0.20682	0.22089	0.30506	0.19038	0.126	0.035866	0.33846	0.13831	0.37445	0.23276	0.28209	0.087368	-0.64583	-0.65	-0.42292	-1.3375	-0.38958	-0.91458	-1.3979	-0.40417	-1.2875	-0.87917	-0.44583	-1.3729	-0.30208	-0.8125	-1.1583	-0.37292	21.767	374.238	361.917	342.458	87.760	186.157	365.445	21.147	152.371	98.965	251.999	36.927	53.019	76.544	223.103	200.486	0.00014931	0.00015798	0.00010083	1104.7	2.8803e-06	2.8694e-06	1187.3	228.96	3.0211e-06	2.9735e-06	286.63	79.623	63.055	18.351	2.3702e-06	25.337	0.00029371	0.00036853	0.00011241	1086	4.3694e-06	4.4022e-06	1171.5	228.18	4.2398e-06	4.3637e-06	285.65	80.44	63.264	18.514	4.0984e-06	25.763	157.574	64.037	147.363	27.587	195.667	140.904	27.734	34.915	192.536	169.988	34.733	41.675	41.815	49.363	176.967	48.353	-8191	255	
28342.377	1	1	0	0	0.15853	0.11016	0.11929	0.27658	0.096366	0.11677	0.20394	0.0050827	0.20958	0.021872	0.16848	0.070395	0.37623	0.014753	0.088784	0.10876	-0.70417	-0.88333	-0.50625	-1.3854	-0.53125	-0.46458	-1.3229	-0.46667	-0.95208	-1.0896	-0.46875	-1.1875	-0.62083	-0.46875	-1.3438	-0.48333	63.792	351.082	158.849	329.330	242.119	192.404	345.536	304.821	32.381	342.632	345.144	290.620	374.280	291.260	356.061	268.656	0.00015441	0.00027493	7.7544e-05	1104.1	4.177e-06	1.2127e-06	1187.2	228.68	2.0411e-06	3.718e-06	287.17	79.494	62.922	18.316	2.6318e-06	25.311	0.00030006	0.00038326	0.00011355	1086	4.2749e-06	4.225e-06	1170.8	228.22	4.0685e-06	4.3112e-06	285.84	80.226	63.08	18.518	4.2146e-06	25.812	163.154	112.529	104.566	27.693	192.899	173.927	27.599	35.042	188.994	171.861	34.730	41.888	41.971	49.486	191.803	48.947	-8191	255	
28342.471	1	1	0	0	0.27148	0.031763	0.12799	0.14691	0.052991	0.048691	0.13006	0.17295	0.10501	0.12656	0.28909	0.20776	0.068413	0.30544	0.08325	0.067748	-0.56667	-1.0604	-0.20625	-1.3042	-0.67292	-0.71042	-1.5167	-0.60833	-0.96875	-1.1938	-0.43333	-1.3125	-1.0354	-0.35	-1.1583	-0.50625	43.069	173.191	72.192	349.374	122.430	259.833	308.433	288.906	357.160	286.823	104.399	56.862	116.914	369.206	285.805	90.659	0.00015216	0.00018755	0.00012533	1099.9	3.0484e-06	3.4066e-06	1190.3	228.76	3.1405e-06	3.3016e-06	287.94	80.091	62.603	18.212	2.7263e-06	25.27	0.00030128	0.00038831	0.00011494	1084.1	4.3159e-06	4.3993e-06	1170.7	227.9	4.1565e-06	4.163e-06	285.54	80.352	63.092	18.485	4.1105e-06	25.703	157.726	110.448	98.534	27.546	206.151	185.026	27.947	35.144	211.889	148.087	34.519	41.447	42.210	48.906	164.626	48.719	-8191	255	
28342.566	1	1	0	0	0.17915	0.1274	0.23179	0.21389	0.035733	0.029416	0.52664	0.17694	0.16068	0.12949	0.25997	0.13306	0.29975	0.1775	0.20063	0.21137	-0.5	-1.2083	-0.4625	-1.3417	-0.82708	-0.28958	-1.6042	-0.69375	-0.72708	-1.3208	-0.28333	-1.0875	-0.875	-0.48125	-1.3458	-0.74792	36.470	142.137	124.531	18.137	240.918	19.995	340.235	348.034	53.280	44.428	269.340	322.677	21.058	363.926	212.833	369.182	0.00015028	0.00030037	7.6908e-05	1098.6	2.8288e-06	4.9946e-06	1188.8	228.02	1.2593e-06	4.1764e-06	287.64	79.689	62.515	18.339	2.0458e-06	25.517	0.00028895	0.00036786	0.00010943	1083.6	4.3104e-06	4.1957e-06	1171.9	227.55	4.2569e-06	4.1191e-06	284.99	80.195	63.055	18.438	3.893e-06	25.754	158.700	135.961	139.137	27.522	195.096	152.619	27.594	34.941	166.512	154.483	34.588	41.321	42.067	49.430	145.332	48.883	-8191	255	
28342.662	1	1	0	0	0.084508	0.20559	0.071494	0.20233	0.099951	0.1139	0.14262	0.24489	0.22563	0.15722	0.098086	0.22835	0.15958	0.18429	0.17562	0.041479	-0.22708	-1.1938	-0.31875	-1.0583	-0.95833	-0.36667	-1.4604	-0.7125	-0.48125	-1.4417	-0.55	-1.1938	-1.1292	-0.57708	-1.3042	-0.875	155.345	283.198	242.456	329.174	155.055	206.325	362.422	268.547	268.745	41.575	300.274	298.304	165.510	308.563	42.841	92.030	0.00015771	0.00028721	7.7236e-05	1107.9	2.9955e-06	1.6433e-06	1186.2	226.62	3.2274e-06	3.2283e-06	285.29	79.277	62.873	18.149	2.9696e-06	25.259	0.00029687	0.00037909	0.00011487	1086	4.2783e-06	4.3652e-06	1170.1	226.84	4.3176e-06	4.3203e-06	285	80.1	62.987	18.452	4.2083e-06	25.717	158.495	124.212	140.995	27.552	197.026	165.594	27.915	34.828	200.872	171.254	34.631	41.876	41.990	49.028	178.294	48.251	-8191	255	
28342.760	1	1	0	0	0.19515	0.26525	0.13648	0.069167	0.30255	0.099717	0.20482	0.34914	0.19327	0.27659	0.2324	0.060971	0.1808	0.10173	0.24152	0.072309	-0.14375	-1.3583	-0.46875	-0.79583	-1.0208	-0.275	-1.3979	-0.78958	-0.3625	-1.2104	-0.32917	-0.86875	-1.2042	-0.52292	-1.0375	-0.89375	290.500	203.950	279.857	368.056	248.007	210.765	324.025	368.075	349.067	90.215	277.084	215.979	308.993	60.333	229.336	328.627	0.00016839	0.00033126	0.00011574	1097.4	3.8172e-06	2.5546e-06	1181.7	226.92	2.9274e-06	2.854e-06	287.19	79.29	63.065	18.217	1.5634e-06	25.362	0.00031062	0.00038822	0.00010695	1081.4	4.5386e-06	4.5784e-06	1170.5	226.61	4.5155e-06	4.1744e-06	284.76	80.045	63.136	18.463	4.2967e-06	25.68	158.440	106.869	117.337	27.520	186.543	156.921	27.749	34.737	196.320	171.771	34.566	41.586	42.424	48.869	179.280	48.158	-8191	255	
28342.855	1	1	0	0	0.14138	0.18273	0.07166	0.1821	0.26638	0.11348	0.18223	0.33189	0.10205	0.33527	0.10974	0.14516	0.1304	0.085106	0.068378	0.16328	-0.10417	-1.2521	-0.25833	-0.89583	-1.1688	-0.29167	-1.1604	-0.95	-0.41042	-1.3	-0.61042	-0.52917	-1.3813	-0.2625	-1.0229	-0.93958	68.599	206.825	217.053	51.275	172.428	27.783	260.706	266.624	86.761	296.982	69.919	323.250	334.073	293.889	143.616	319.770	0.00015848	0.00036045	8.8823e-05	1104.3	2.9086e-06	3.2814e-06	1186.8	227.57	3.2533e-06	3.0899e-06	286.41	79.608	62.643	18.284	1.5645e-06	25.34	0.00031812	0.00038717	0.00011201	1083.5	4.2775e-06	4.2442e-06	1169.4	226.77	4.3937e-06	4.2316e-06	284.78	80.159	62.945	18.469	4.085e-06	25.691	158.899	87.449	76.119	27.658	216.193	179.407	27.789	35.043	166.289	159.939	34.647	41.783	42.053	49.260	199.677	48.435	-8191	255	
28342.977	1	1	0	0	0.099286	0.049195	0.17185	0.29987	0.10662	0.078536	0.14843	0.05002	0.3403	0.13246	0.17718	0.14546	0.27386	0.12347	0.14893	0.1999	0.12917	-1.1792	-0.5875	-0.88125	-1.1833	-0.17292	-1.1479	-1.0146	-0.29375	-1.2	-0.63125	-0.54583	-1.3521	-0.36042	-0.56042	-1.1	167.095	80.572	300.971	374.424	96.806	89.045	294.172	308.584	275.713	31.351	348.902	331.611	50.512	230.642	338.817	332.661	0.0001544	0.00026766	6.7405e-05	1099.1	3.2152e-06	2.5407e-06	1189.6	229.25	2.4001e-06	4.0324e-06	286.12	79.669	62.797	18.212	2.478e-06	25.641	0.00031167	0.00039104	0.00011228	1080.8	4.393e-06	4.4948e-06	1170.8	227.24	4.3838e-06	4.4495e-06	284.51	80.116	63.079	18.468	4.3905e-06	25.803	152.071	85.742	105.539	27.579	205.057	152.925	27.658	35.256	178.702	161.723	34.530	41.838	42.152	49.355	157.943	48.621	-8191	255	
28343.072	1	1	0	0	0.077836	0.15904	0.25662	0.14834	0.094672	0.20549	0.26119	0.31071	0.16663	0.069358	0.11128	0.12772	0.19075	0.089976	0.24541	0.20024	0.29792	-1.1375	-0.67917	-0.29583	-1.0896	-0.33958	-0.81667	-1.2229	-0.175	-1.0208	-0.7375	-0.44375	-1.0562	-0.49167	-0.56875	-1.1313	365.200	77.859	257.765	31.920	195.635	147.588	35.433	369.132	238.069	285.391	19.875	38.640	319.301	231.585	364.983	130.860	0.00016138	0.0002876	8.8253e-05	1104.6	2.7557e-06	3.2515e-06	1189.6	228.34	1.8017e-06	2.2642e-06	285.66	79.95	62.904	18.386	3.2442e-06	25.375	0.00032469	0.000408	0.00011839	1082.9	4.4074e-06	4.4583e-06	1171.2	227.28	4.2809e-06	4.4766e-06	285.33	80.525	63.311	18.61	4.341e-06	25.839	149.852	124.707	117.835	27.503	206.251	173.137	27.719	34.951	180.332	156.036	34.377	41.707	42.236	48.756	180.930	47.877	-8191	255	
28343.168	1	1	0	0	0.060643	0.27942	0.20307	0.31137	0.088626	0.16087	0.35009	0.12946	0.20801	0.17014	0.15041	0.059275	0.052421	0.10214	0.06888	0.045191	-0.0041667	-0.91458	-0.91458	-0.43542	-1.1021	-0.5625	-0.85	-1.2458	-0.5125	-1.1333	-1.0708	-0.375	-1.1917	-0.78125	-0.75417	-1.3521	122.437	130.689	273.023	323.044	230.604	133.552	301.134	357.375	351.439	349.796	335.072	351.993	311.669	22.549	64.508	47.994	0.00012148	0.00028581	7.9248e-05	1104.1	2.3198e-06	3.1757e-06	1196.9	229.43	2.5517e-06	3.2056e-06	288.42	79.702	62.816	18.457	2.9559e-06	25.712	0.00031383	0.00038536	0.00010932	1085.9	4.2555e-06	4.4089e-06	1176.2	227.97	4.6278e-06	4.2798e-06	285.89	80.682	63.287	18.598	4.4942e-06	25.908	161.070	145.600	124.373	27.354	191.137	196.564	27.876	34.593	178.359	153.302	34.855	41.796	42.166	48.864	145.380	48.515	-8191	255	
28343.240	1	1	0	0	0.27265	0.23408	0.30385	0.045321	0.19464	0.03744	0.185	0.32192	0.13072	0.12412	0.19158	0.11227	0.21127	0.2416	0.14365	0.097573	-0.15625	-0.90208	-1.1625	-0.46042	-1.1167	-0.59583	-0.70625	-1.4937	-0.45	-0.59792	-1.1146	-0.42708	-1.1	-0.7875	-0.58542	-1.1854	302.130	374.903	19.190	344.987	125.547	197.825	321.788	292.851	240.088	98.387	58.107	154.928	293.431	76.875	38.262	312.386	0.00014781	0.00036446	0.00011761	1102.2	3.5256e-06	4.0272e-06	1195.7	230.12	2.6711e-06	3.5829e-06	287.37	79.873	63.338	18.535	2.2757e-06	25.762	0.00031596	0.00039172	0.00011201	1086.2	4.345e-06	4.5337e-06	1174.3	228.67	4.6278e-06	4.4485e-06	286.02	80.721	63.317	18.622	4.4455e-06	25.942	156.744	102.461	85.202	27.587	174.210	204.128	27.809	35.285	165.221	189.910	34.695	41.207	41.887	48.853	174.908	48.575	-8191	255	
28343.357	1	1	0	0	0.094013	0.025433	0.12863	0.3144	0.19317	0.1838	0.12072	0.37132	0.1971	0.22022	0.20497	0.34389	0.06324	0.14861	0.14994	0.12073	-0.033333	-0.74375	-0.98125	-0.46875	-1.0229	-0.87083	-0.62917	-1.3083	-0.3125	-0.60625	-1.2042	-0.10208	-1.0812	-0.79167	-0.43125	-1.3271	330.538	172.439	147.332	328.613	107.378	338.915	19.753	253.625	300.775	245.755	66.288	39.259	372.372	36.540	372.102	329.477	0.00016155	0.00015124	5.6501e-05	1106.3	3.8105e-06	4.3478e-06	1195.3	228.65	1.9673e-06	3.3559e-06	287.95	79.691	63.611	18.391	2.1147e-06	25.425	0.00032577	0.00039214	0.00010614	1088.9	4.385e-06	4.3887e-06	1176.8	228.17	4.4321e-06	4.6483e-06	286.28	80.624	63.523	18.577	4.3418e-06	25.869	155.465	42.530	111.868	27.612	192.041	175.684	27.598	35.076	207.990	192.515	34.545	41.655	42.016	49.076	236.267	48.866	-8191	255	
28343.455	1	1	0	0	0.211	0.11526	0.090852	0.30203	0.36672	0.20874	0.1061	0.20254	0.26149	0.29112	0.10233	0.11525	0.034868	0.1485	0.18445	0.12927	-0.11875	-0.56042	-1.1125	-0.45208	-1.0938	-0.975	-0.47708	-1.2354	-0.68958	-0.46458	-1.3229	-0.44792	-0.76458	-0.97292	-0.095833	-1.3292	344.164	222.062	249.762	274.764	152.487	356.298	368.498	220.040	339.149	317.445	349.404	325.518	17.510	54.596	316.859	45.599	0.00014703	0.00044041	0.00012896	1103.9	1.1517e-06	2.864e-06	1196.2	230.56	3.9274e-06	2.8154e-06	288.43	80.223	62.876	18.439	3.6976e-06	25.525	0.00031674	0.0004048	0.00011747	1085.7	4.5807e-06	4.2442e-06	1176.2	228.83	4.4343e-06	4.5143e-06	286.34	80.57	63.348	18.629	4.106e-06	25.89	159.667	97.941	109.451	27.517	166.410	109.938	27.838	34.847	195.923	161.766	34.275	41.658	42.173	49.293	190.759	48.461	-8191	255	
28343.551	1	1	0	0	0.066392	0.15499	0.14588	0.13625	0.32059	0.17483	0.16207	0.19082	0.2586	0.15333	0.26905	0.14463	0.28569	0.11563	0.21531	0.034814	-0.375	-0.46875	-1.2479	-0.37708	-0.8625	-1.0688	-0.4125	-1.4208	-0.73542	-0.38333	-1.0542	-0.5375	-0.70417	-1.1063	-0.28542	-1.2146	273.366	61.110	58.722	352.735	318.920	277.807	349.137	41.408	244.304	20.191	244.319	377.124	288.374	183.409	85.706	96.417	0.00015788	0.00024454	8.8138e-05	1106.5	2.8368e-06	3.4086e-06	1192.1	229.79	6.2713e-07	3.0826e-06	287.2	80.013	62.948	18.297	2.4631e-06	25.48	0.00032	0.000403	0.00011039	1086.1	4.5398e-06	4.4776e-06	1175.3	228.28	4.4787e-06	4.5796e-06	286.16	80.469	63.552	18.6	4.55e-06	25.882	152.750	107.761	92.110	27.471	212.099	164.249	27.739	35.180	229.536	184.718	34.549	41.517	42.149	48.509	169.278	48.990	-8191	255	
28343.646	1	1	0	0	0.19737	0.13997	0.23957	0.35472	0.061508	0.27449	0.032301	0.19864	0.287	0.0087782	0.24622	0.2402	0.26014	0.20923	0.14575	0.20065	-0.49375	-0.38958	-1.0833	-0.48125	-0.7375	-1.0417	-0.40208	-1.1146	-0.81458	-0.34792	-1.1604	-0.61458	-0.43333	-1.2396	-0.38125	-0.97708	46.256	234.146	28.035	372.262	174.667	335.343	280.714	69.539	109.691	120.771	47.898	198.778	21.523	68.314	45.326	300.097	0.00015867	0.00033662	0.0001161	1107.1	2.0897e-06	3.4744e-06	1193.9	229.17	2.3946e-06	3.5347e-06	287.4	80.646	63.218	18.346	3.5501e-06	25.688	0.00031983	0.00040783	0.00011185	1089.1	4.4867e-06	4.4497e-06	1176.2	228.74	4.3945e-06	4.5496e-06	285.76	80.718	63.555	18.554	4.4468e-06	25.976	154.306	101.314	135.547	27.554	189.011	204.934	27.437	35.174	191.731	168.465	34.999	41.817	42.042	48.905	181.664	48.367	-8191	255	
28343.768	1	1	0	0	0.28045	0.14882	0.21331	0.29631	0.18983	0.19217	0.10184	0.28824	0.21773	0.10432	0.21391	0.38381	0.20174	0.040875	0.22097	0.23464	-0.52292	-0.25625	-1.2167	-0.63958	-0.36667	-1.4125	-0.47708	-0.73333	-1	-0.23542	-1.3	-0.75208	-0.25417	-1.1646	-0.35208	-0.87917	100.723	49.171	262.662	364.029	361.905	343.430	306.582	309.814	94.711	302.135	55.225	327.259	123.395	146.744	374.861	42.697	0.0001426	0.00034138	0.00010276	1111.1	1.661e-06	1.2637e-06	1191.4	230.58	3.0617e-06	4.1917e-06	287.73	80.001	63.035	18.374	2.1514e-06	25.483	0.00031322	0.00039639	0.00010721	1089.3	4.4356e-06	4.2716e-06	1176.4	228.48	4.5001e-06	4.5315e-06	286.47	80.661	63.404	18.586	4.2186e-06	25.852	152.933	117.125	137.397	27.732	177.850	177.360	27.521	35.089	177.822	184.744	34.912	41.624	42.282	48.906	205.415	48.643	-8191	255	
28343.840	1	1	0	0	0.17746	0.30331	0.031541	0.34114	0.17596	0.14026	0.07689	0.23301	0.11972	0.15409	0.073785	0.091848	0.10105	0.16112	0.24478	0.18495	-0.78333	-0.29167	-1.1958	-0.73125	-0.41458	-1.2583	-0.53542	-0.7375	-1.2229	-0.2625	-1.0833	-0.91042	-0.34792	-1.125	-0.40417	-0.56875	186.374	158.819	251.309	308.327	27.450	282.736	317.621	51.477	336.411	109.052	312.615	260.171	209.517	350.964	207.154	273.818	0.00016713	0.00013576	9.7488e-05	1110	3.5424e-06	3.5881e-06	1195.5	230.13	1.714e-06	3.0661e-06	287.7	80.109	63.11	18.472	4.3104e-06	25.558	0.00031177	0.00040716	0.00010926	1089.4	4.4601e-06	4.4334e-06	1174.9	228.13	4.3578e-06	4.5076e-06	286.33	80.485	63.32	18.579	4.4875e-06	25.832	159.124	107.441	112.334	27.524	200.632	172.856	27.746	35.245	190.673	198.969	34.690	41.900	42.274	49.310	178.316	48.067	-8191	255	
28343.936	1	1	0	0	0.23658	0.10914	0.17865	0.30395	0.26912	0.10327	0.097739	0.41356	0.12185	0.3021	0.28493	0.090665	0.02032	0.2238	0.093881	0.10891	-0.76875	-0.13958	-0.98125	-0.96667	-0.52083	-1.0708	-0.54792	-0.3	-1.1417	-0.49583	-0.87708	-0.92292	-0.42292	-0.98958	-0.56458	-0.33125	150.964	53.321	19.428	364.873	341.702	271.821	39.922	356.262	297.870	258.912	370.852	347.542	197.158	78.788	294.012	335.801	0.00014983	0.00015945	0.0001051	1103.8	2.5116e-06	3.5737e-06	1191.6	230.33	8.9144e-07	2.5974e-06	289.61	80.067	63.017	18.295	1.2593e-06	25.675	0.00031404	0.00040712	0.0001157	1088.2	4.6208e-06	4.3129e-06	1174.6	228.8	4.2638e-06	4.3918e-06	287.01	80.528	63.502	18.574	4.5647e-06	25.924	161.556	134.152	118.047	27.563	197.347	176.912	27.703	35.660	138.120	192.150	34.594	41.853	42.069	49.235	185.917	48.507	-8191	255	
28344.057	1	1	0	0	0.2525	0.2568	0.061209	0.088153	0.13897	0.098703	0.25653	0.10818	0.13585	0.17393	0.21195	0.063924	0.23522	0.13066	0.080592	0.39563	-0.75	-0.34792	-0.79167	-1.2938	-0.30833	-1.1146	-1.025	-0.58333	-1.3479	-0.29167	-0.75	-1.1125	-0.0625	-0.89583	-0.66667	-0.475	334.227	82.349	197.216	285.920	359.084	247.742	338.877	238.528	206.144	30.564	364.188	307.802	374.539	360.811	58.261	221.905	0.00014953	0.0002732	0.00011548	1102.5	3.181e-06	3.464e-06	1190.4	230.46	3.0294e-06	1.5947e-06	288.61	79.852	63.268	18.408	7.3527e-07	25.477	0.00031578	0.00042543	0.00011237	1086.7	4.4909e-06	4.3969e-06	1175.1	228.46	4.1044e-06	4.5134e-06	286.06	80.511	63.505	18.596	4.2905e-06	25.888	160.527	96.411	105.339	27.361	150.013	208.891	27.889	35.328	191.990	129.695	34.369	41.774	42.109	49.579	235.303	48.797	-8191	255	
28344.152	1	1	0	0	0.30099	0.10234	0.092341	0.24212	0.21374	0.10103	0.36872	0.30001	0.03406	0.086151	0.155	0.034323	0.064854	0.17438	0.17792	0.03071	-0.6875	-0.44375	-0.675	-1.3417	-0.42083	-1.0708	-0.8875	-0.18958	-1.2333	-0.47917	-0.53542	-1.2167	-0.26042	-1.1125	-0.875	-0.24167	133.817	185.118	323.634	351.251	128.826	295.988	325.054	346.529	94.079	206.046	185.444	198.429	338.169	90.652	52.349	34.156	0.00016276	0.00030431	0.0001238	1113.4	2.8993e-06	3.8242e-06	1195.7	229.4	2.8589e-06	2.527e-06	286.9	79.323	63.402	18.364	2.2975e-06	25.475	0.00030548	0.0004067	0.00011399	1090.2	4.5344e-06	4.2773e-06	1176	228.45	4.2245e-06	4.3317e-06	286.15	80.574	63.589	18.571	4.3392e-06	25.851	161.464	72.939	118.462	27.720	181.560	189.376	27.780	35.319	197.036	168.677	34.637	41.844	42.290	49.708	196.171	48.909	-8191	255	
28344.248	1	1	0	0	0.20944	0.11921	0.1835	0.23667	0.24739	0.21684	0.24747	0.18914	0.12377	0.13563	0.24235	0.30223	0.20321	0.12406	0.16332	0.060683	-0.76875	-0.53958	-0.33958	-1.2479	-0.09375	-0.88125	-1.0708	-0.26458	-0.9	-0.65208	-0.58333	-1.2125	-0.28333	-0.60208	-1.0833	-0.2625	321.955	76.994	224.110	345.079	306.353	183.988	333.401	37.876	77.722	67.686	351.157	225.252	145.980	333.267	362.190	88.066	0.00016173	0.00012327	6.867e-05	1108.2	1.8215e-06	2.0955e-06	1193.9	229.94	1.6309e-06	3.0789e-06	290.1	80.11	62.847	18.448	1.6543e-06	25.866	0.00031754	0.00039605	0.00011524	1088	4.5942e-06	4.1487e-06	1176.2	228.71	4.3022e-06	4.3832e-06	287.13	80.654	63.507	18.592	4.0122e-06	26.037	152.621	85.176	81.959	27.726	188.696	192.844	28.048	35.135	169.232	161.250	34.543	41.608	42.190	49.228	160.350	48.200	-8191	255	
28344.369	1	1	0	0	0.24371	0.15352	0.17547	0.38376	0.18988	0.056615	0.40744	0.20908	0.13147	0.059163	0.11806	0.087571	0.07089	0.069084	0.31424	0.15896	-0.73333	-0.66667	-0.28958	-1.2083	-0.35625	-0.82083	-1.2542	-0.4125	-0.9625	-0.90208	-0.4375	-1.2417	-0.63542	-0.7875	-0.96875	-0.32083	238.945	315.954	116.863	312.340	324.192	331.290	330.979	344.426	54.214	226.322	266.055	215.673	344.237	278.730	159.494	287.006	0.00016733	0.00030014	7.6387e-05	1108	3.1379e-06	3.9043e-06	1197.3	229.94	2.5658e-06	2.9688e-06	289.54	80.008	63.172	18.496	2.4345e-06	25.612	0.00030611	0.00040788	0.0001083	1089.8	4.3226e-06	4.2471e-06	1178	229.07	4.1698e-06	4.521e-06	287.31	80.807	63.619	18.653	4.0337e-06	25.937	156.567	92.266	98.553	27.782	217.222	195.243	27.687	35.423	188.904	199.583	34.901	41.833	42.494	49.617	196.099	48.611	-8191	255	
28344.463	1	1	0	0	0.20306	0.21664	0.11149	0.12143	0.05358	0.15115	0.24433	0.1751	0.14693	0.30402	0.28429	0.18314	0.26954	0.20299	0.11139	0.1804	-0.5375	-0.75208	-0.25625	-1.2729	-0.57917	-0.65417	-1.3021	-0.36667	-1.0042	-0.8375	-0.43333	-1.2521	-0.70625	-0.40417	-1.0979	-0.40625	161.240	153.527	135.862	227.193	295.422	214.921	283.417	252.592	308.007	81.052	274.324	370.116	334.464	26.197	156.814	167.518	0.00015428	0.00019384	6.7472e-05	1110.8	3.1966e-06	4.5769e-06	1199.2	230.39	2.4337e-06	3.2204e-06	288.35	80.334	62.997	18.279	3.0539e-06	25.586	0.00031041	0.00040001	0.00010918	1092	4.2201e-06	4.2361e-06	1178.4	229.07	4.2522e-06	4.2164e-06	286.34	80.771	63.509	18.613	4.0524e-06	25.974	151.303	96.863	122.860	27.670	149.006	142.222	27.962	35.180	166.304	184.788	34.819	41.809	42.126	49.145	174.856	48.416	-8191	255	
28344.535	1	1	0	0	0.10702	0.15334	0.26352	0.39293	0.090415	0.31849	0.18429	0.06979	0.025363	0.090377	0.14654	0.1878	0.21368	0.1241	0.15746	0.18343	-0.57083	-0.80833	-0.25625	-1.1708	-0.5875	-0.50208	-1.4021	-0.60625	-0.90833	-0.925	-0.29583	-1.1458	-0.7	-0.28958	-1.1646	-0.44792	224.845	267.447	374.181	366.957	254.418	259.446	267.212	211.892	173.786	90.417	25.758	303.269	72.625	375.838	370.689	230.519	0.00015292	0.00037996	8.064e-05	1111.2	2.6838e-06	3.727e-06	1194.2	230.27	2.6887e-06	3.2608e-06	288.19	80.038	63.245	18.401	1.2543e-06	25.526	0.00030318	0.00040333	0.00011088	1091	4.5112e-06	4.5188e-06	1178.5	228.86	4.3407e-06	4.4171e-06	286.75	80.837	63.513	18.604	4.0734e-06	25.935	158.414	79.598	109.992	27.886	160.005	188.686	27.983	35.296	177.146	193.642	35.065	41.684	42.726	49.321	181.673	48.943	-8191	255	
28344.656	1	1	0	0	0.099808	0.1944	0.091118	0.14226	0.18743	0.11069	0.18065	0.029354	0.18514	0.30734	0.21163	0.10985	0.13533	0.096073	0.2584	0.197	-0.28958	-0.87917	-0.3	-1.0708	-0.64375	-0.28542	-1.3292	-0.25417	-0.52917	-1.15	-0.33542	-1.1313	-0.79375	-0.17083	-1.1437	-0.39583	32.541	156.118	307.483	346.607	119.560	283.500	327.279	237.846	262.428	200.290	279.612	209.001	72.563	336.479	40.861	341.885	0.00014471	0.00015928	8.2467e-05	1110.8	2.3929e-06	2.4431e-06	1202.1	229.68	3.0697e-06	3.578e-06	289.86	80.221	63.295	18.555	3.2405e-06	25.846	0.00030543	0.00036297	0.00011285	1090.7	4.477e-06	4.2754e-06	1180	228.71	4.1642e-06	4.2659e-06	287.27	80.929	63.708	18.679	4.0122e-06	26.003	162.284	107.635	94.190	27.848	209.221	206.896	27.716	34.924	209.989	175.009	34.673	41.859	42.024	49.513	168.056	48.464	-8191	255	
28344.752	1	1	0	0	0.032546	0.10654	0.30991	0.14028	0.16426	0.094027	0.27144	0.20232	0.12103	0.14025	0.1012	0.42551	0.32495	0.2585	0.13119	0.32408	-0.0020833	-0.85208	-0.24583	-1.1583	-0.86042	-0.17708	-1.1458	-0.5625	-0.35417	-1.2208	-0.37292	-0.84167	-0.87917	-0.3125	-1.1437	-0.55208	33.460	339.580	232.549	257.961	261.342	19.701	257.845	29.889	117.095	31.464	317.084	24.382	116.250	304.447	301.960	40.043	0.0001572	0.00021502	0.00012194	1110.7	2.8954e-06	3.6522e-06	1197.6	230.34	1.8655e-06	1.521e-06	288.55	80.371	63.36	18.425	4.0615e-06	25.499	0.00030844	0.00036588	0.00010695	1091.1	4.2243e-06	4.4219e-06	1178	229.03	4.1403e-06	4.3918e-06	286.84	81.055	63.553	18.636	4.2534e-06	25.869	152.091	88.787	103.121	27.921	175.714	161.406	27.874	35.455	205.025	156.950	35.023	41.859	42.462	49.315	176.116	48.895	-8191	255	
28344.848	1	1	0	0	0.12021	0.25172	0.23155	0.35615	0.041548	0.13443	0.22637	0.2386	0.17659	0.030931	0.09108	0.32719	0.18923	0.10777	0.15491	0.15063	0.06875	-1.1083	-0.1875	-0.8	-0.92083	-0.2	-1.1354	-0.73333	-0.43125	-1.2938	-0.48125	-0.625	-1.1604	-0.35833	-1.0312	-0.87917	343.116	94.115	195.613	342.264	159.124	169.601	310.688	261.819	343.001	242.901	149.373	314.285	142.925	23.082	109.058	40.292	0.00015312	0.00030339	1.9012e-05	1111.3	3.0003e-06	3.6543e-06	1192.8	230.66	1.7774e-06	3.2017e-06	288.87	80.337	62.847	18.349	2.8873e-06	25.633	0.00030039	0.00036217	0.00011187	1090.7	4.0143e-06	4.3422e-06	1176.2	228.94	4.218e-06	4.1534e-06	286.98	80.83	63.516	18.591	4.0055e-06	25.966	153.417	108.036	121.957	27.803	169.559	158.653	27.947	35.236	153.513	179.955	35.106	42.066	41.662	49.456	171.010	48.764	-8191	255	
28344.943	1	1	0	0	0.15132	0.21883	0.23883	0.13212	0.12152	0.17149	0.38817	0.13778	0.12815	0.074973	0.14993	0.15833	0.2082	0.080607	0.052712	0.17901	0.11042	-1.3208	-0.39792	-0.90625	-1.0479	-0.01875	-1.1479	-0.9875	-0.18958	-1.1146	-0.43542	-0.64167	-1.0646	-0.4125	-0.70833	-0.91458	54.982	241.490	335.900	329.411	286.716	152.274	327.695	82.888	94.094	118.827	72.980	348.108	279.716	354.360	346.202	374.761	0.00016098	0.00029239	8.2083e-05	1109.9	2.5073e-06	3.2979e-06	1194.6	231.2	2.2123e-06	5.0844e-06	287.85	80.012	63.354	18.512	4.1516e-06	25.835	0.0003098	0.00036373	0.00010625	1090.8	4.0957e-06	4.3911e-06	1178.3	229.45	4.1933e-06	4.1487e-06	286.3	80.784	63.652	18.636	3.8822e-06	25.996	153.725	124.825	113.589	27.833	192.894	176.868	28.238	35.546	178.677	200.713	35.061	41.904	42.478	49.027	172.998	48.685	-8191	255	
28345.039	1	1	0	0	0.18854	0.11389	0.14694	0.15221	0.10731	0.10514	0.051523	0.14015	0.12962	0.081463	0.076564	0.20495	0.10497	0.2044	0.13871	0.16149	0.027083	-0.84375	-0.425	-0.48333	-0.98125	-0.25625	-0.91667	-1.0438	-0.20208	-1.0583	-0.60417	-0.30208	-1.2667	-0.33125	-0.8875	-1.1104	332.124	348.473	353.977	35.540	115.691	190.280	364.234	281.559	284.001	232.689	170.543	283.765	366.222	347.790	278.639	200.856	0.00016019	0.00042747	7.6566e-05	1114.5	2.4057e-06	3.3884e-06	1199	230.83	3.764e-06	3.4792e-06	288.5	80.508	63.315	18.409	2.117e-06	25.625	0.00030299	0.00036634	0.00010608	1093.5	4.2956e-06	4.2317e-06	1179.2	229.56	4.2753e-06	4.1487e-06	286.41	80.979	63.651	18.598	4.274e-06	25.955	153.361	109.859	142.037	28.075	183.737	178.033	28.114	35.628	181.632	205.917	34.668	42.217	42.244	49.251	178.534	49.239	-8191	255	
28345.137	1	1	0	0	0.23859	0.072886	0.2393	0.17616	0.26654	0.051839	0.22797	0.31213	0.25062	0.12193	0.11027	0.13866	0.18768	0.24393	0.10557	0.20322	0.2	-1.0604	-0.70208	-0.65833	-1.0792	-0.40625	-0.64792	-1.2604	-0.2625	-1.0271	-0.975	-0.44167	-1.2062	-0.38542	-0.59792	-1.2896	182.630	273.921	209.841	327.125	215.635	228.442	306.441	369.295	108.186	161.050	305.539	73.165	128.822	309.098	240.453	340.671	0.00018542	0.00030857	0.00013127	1109.4	4.1641e-06	2.609e-06	1194.2	230.78	2.5165e-06	3.4056e-06	288.46	80.294	63.23	18.551	3.605e-06	25.558	0.0003127	0.00037206	0.00010911	1089.4	4.1762e-06	4.1847e-06	1175.5	229.57	4.1753e-06	4.0886e-06	287.2	80.839	63.583	18.676	4.2226e-06	25.929	156.284	112.763	116.012	27.892	192.219	158.468	28.285	35.129	197.935	162.188	35.249	42.044	42.375	49.478	181.407	49.325	-8191	255	
28345.232	1	1	0	0	0.096037	0.28601	0.13669	0.18284	0.14372	0.11081	0.25368	0.2889	0.3566	0.24224	0.098494	0.24639	0.10522	0.14974	0.36979	0.16987	0.15208	-0.89375	-0.83542	-0.27083	-1.0458	-0.42292	-0.59792	-1.1479	-0.26458	-0.81042	-0.93333	-0.25208	-1.1354	-0.52917	-0.49167	-1.1708	124.392	63.403	155.201	361.284	136.657	33.502	185.376	79.702	47.766	278.237	219.951	295.244	280.694	154.389	322.721	191.684	0.00015925	0.0003999	0.00012095	1108	3.9285e-06	2.1265e-06	1192.1	229.94	3.392e-06	2.7048e-06	286.97	79.901	63.396	18.314	3.5044e-06	25.611	0.00030654	0.00036764	0.00010563	1091.4	4.2264e-06	4.1501e-06	1176.4	229.34	4.3262e-06	4.1906e-06	286.34	80.811	63.677	18.563	4.0957e-06	25.939	161.115	100.762	107.957	27.965	198.117	187.034	28.184	35.354	201.367	161.959	35.506	42.207	42.254	48.989	150.231	48.894	-8191	255	
28345.328	1	1	0	0	0.33947	0.087469	0.22956	0.36005	0.29252	0.40503	0.21292	0.20457	0.19146	0.31517	0.17856	0.39558	0.20799	0.46523	0.080592	0.022526	0.175	-1.0625	-0.85625	-0.37917	-0.96458	-0.88125	-0.38333	-1.2375	-0.33958	-0.72708	-1.2375	-0.2125	-1.1167	-0.64167	-0.32292	-1.2188	34.855	126.957	25.361	350.873	349.428	174.785	338.863	346.478	81.509	109.606	356.859	359.248	26.044	361.670	182.490	40.458	0.0001584	0.00013613	8.6568e-05	1108.5	2.908e-06	1.4027e-06	1193.9	231.58	3.0248e-06	2.8739e-06	289.65	80.439	63.387	18.591	3.5003e-06	25.619	0.00031974	0.00037951	0.00010434	1090.1	4.0931e-06	4.2898e-06	1179.4	229.34	4.2334e-06	4.1697e-06	287.21	80.963	63.649	18.664	3.9399e-06	25.953	148.328	92.806	105.425	27.868	189.281	164.082	28.095	35.382	170.489	213.397	34.926	42.243	42.423	49.337	199.308	48.652	-8191	255	
28345.449	1	1	0	0	0.10532	0.18245	0.19103	0.32963	0.010603	0.042	0.37091	0.32272	0.088543	0.074472	0.13568	0.24478	0.1058	0.18855	0.091708	0.036797	-0.05625	-0.60208	-0.93333	-0.30417	-0.87917	-0.77292	-0.34375	-1.2938	-0.36042	-0.61458	-1.1542	-0.29583	-0.94167	-0.85	-0.29375	-1.2146	39.303	375.990	29.655	352.288	294.504	36.358	316.152	363.636	24.538	53.523	118.544	333.168	58.677	65.124	373.775	29.861	0.00014553	0.0001521	0.00011337	1109.9	3.0929e-06	2.7393e-06	1193	231.61	2.6078e-06	3.8918e-06	288.46	80.163	63.316	18.518	2.2685e-06	25.651	0.00030654	0.00036941	0.00010903	1089.1	4.2754e-06	4.0891e-06	1175.4	229.29	4.3044e-06	4.2497e-06	286.85	80.776	63.66	18.618	4.2431e-06	25.96	156.086	98.489	103.766	27.829	195.599	189.727	28.001	35.324	200.018	171.311	35.052	42.055	42.215	49.281	177.709	48.750	-8191	255	
28345.545	1	1	0	0	0.34045	0.0087778	0.087978	0.28972	0.17302	0.094394	0.13542	0.11125	0.14326	0.37622	0.36249	0.056788	0.090765	0.16164	0.18836	0.19189	-0.064583	-0.53958	-1.0375	-0.26042	-0.86042	-0.9125	-0.50417	-1.3167	-0.61875	-0.53125	-1.2896	-0.2875	-0.80417	-0.98333	-0.0875	-1.2146	122.201	17.595	152.566	298.847	187.242	198.468	293.363	271.945	23.468	376.709	329.780	365.293	216.222	144.944	44.399	95.439	0.00018165	0.00032352	9.1132e-05	1103.1	2.5955e-06	1.2076e-06	1193.2	230.43	2.7936e-06	2.9352e-06	288.41	80.397	63.058	18.449	2.5834e-06	25.586	0.00030342	0.00036798	0.000102	1085.6	4.304e-06	4.1852e-06	1175.7	229.57	4.1783e-06	4.2607e-06	286.32	80.649	63.505	18.603	4.144e-06	25.884	156.765	103.593	103.218	27.650	184.847	191.596	28.057	35.341	193.704	186.800	35.097	42.010	42.724	49.541	204.904	48.795	-8191	255	
28345.641	1	1	0	0	0.17172	0.19148	0.10299	0.25506	0.21678	0.099648	0.2622	0.15548	0.1771	0.038394	0.12808	0.1212	0.14106	0.21446	0.17643	0.13007	-0.13542	-0.48125	-0.91667	-0.65208	-0.66875	-1.0771	-0.35208	-1.1063	-0.70208	-0.44167	-1.1875	-0.45208	-0.71458	-1.0854	-0.32708	-1.0292	43.346	222.017	54.030	324.545	271.898	353.131	370.502	18.063	328.212	180.598	99.507	116.705	311.477	27.310	148.042	265.300	0.00014382	0.00021076	8.2649e-05	1107.1	2.3682e-06	3.1952e-06	1192.4	230.34	2.7792e-06	2.3116e-06	287.95	79.968	63.746	18.345	2.112e-06	25.738	0.00029629	0.00038965	0.00010479	1087.7	4.2534e-06	4.2125e-06	1174	229.15	4.1492e-06	4.418e-06	286.85	80.465	63.649	18.604	4.2119e-06	25.933	161.392	105.651	128.692	27.906	193.454	179.559	28.244	35.708	204.612	183.475	35.331	42.262	42.392	49.339	141.754	48.942	-8191	255	
28345.736	1	1	0	0	0.37864	0.088463	0.38498	0.23774	0.1793	0.26455	0.27879	0.12749	0.30911	0.10789	0.19724	0.11466	0.17246	0.099094	0.28904	0.33523	-0.48333	-0.27917	-1.1708	-0.61667	-0.63125	-1.1979	-0.52708	-1.0187	-0.95833	-0.29792	-1.35	-0.60833	-0.60208	-1.1521	-0.29792	-0.80833	134.370	373.637	186.893	299.961	273.501	306.695	312.106	372.230	194.454	347.151	322.165	333.225	259.501	191.475	77.827	359.007	0.00016672	0.00032643	9.9629e-05	1104	2.836e-06	2.3505e-06	1200.5	231.44	3.1706e-06	2.6904e-06	289.07	80.622	63.752	18.346	2.9578e-06	25.59	0.0003136	0.00039656	0.00010825	1087	4.2197e-06	3.9667e-06	1176.7	229.9	4.1488e-06	4.3546e-06	287.3	80.884	63.674	18.575	4.2682e-06	25.917	157.957	96.210	73.349	27.902	190.554	139.465	28.213	35.744	185.651	163.681	34.999	41.883	42.919	49.682	209.247	49.129	-8191	255	
28345.832	1	1	0	0	0.15784	0.15631	0.066486	0.042236	0.091599	0.27843	0.19216	0.22582	0.12677	0.11169	0.2903	0.13404	0.20664	0.17011	0.060187	0.29816	-0.48542	-0.14167	-1.2125	-0.77917	-0.46458	-1.1938	-0.575	-0.79792	-0.96667	-0.31042	-1.2667	-0.64583	-0.38125	-1.2667	-0.3	-0.93542	184.759	206.051	153.374	362.881	286.348	75.356	56.070	34.242	296.515	352.358	369.972	366.748	252.564	312.865	359.432	39.284	0.00014303	0.0004501	3.8395e-05	1110.2	2.2955e-06	3.2808e-06	1196.1	231.9	2.5724e-06	1.8187e-06	287.29	80.102	63.595	18.227	3.3069e-06	25.442	0.00031134	0.00039605	0.00010786	1089.3	4.5335e-06	4.0123e-06	1177.2	229.41	4.1774e-06	4.4037e-06	286.6	80.654	63.545	18.565	4.1819e-06	25.874	161.303	97.614	147.301	28.119	182.727	146.464	28.155	35.684	206.526	161.797	35.476	42.248	42.598	49.794	163.906	49.258	-8191	255	
#DATA ENDS
