BOXY.EXE: ISS Imagent and Oximeter Data Acquisition Program Version 0.80
Ascii Record File

#ACQ INFORMATION
2  Detector Channels 
16  External MUX Channels 
1  Auxiliary Channels 
5000  Waveform (CCF) Frequency (Hz)
1  Waveforms Skipped 
30  Waveforms Averaged 
1  Cycles Averaged 
16  Acquisitions per Waveform 
10.0806  Updata Rate (Hz) 

#FILE INFORMATION
TRUE -- External MUX Channel results are PARSED.
FALSE -- AC DC and Phase are NOT grouped.
TRUE -- Companion Program Settings File CREATED.
FALSE -- AC data not excluded
FALSE -- DC data not excluded
FALSE -- Phase data not excluded
FALSE -- Auxillary Chn. data not excluded
Tab delimiters

#CALIBRATION STATE
TRUE -- Waveform Calibration Values APPLIED.


#AUX CALIBRATION VALUES
Val Type	aux-1	

Term	1.0000e+00	
Factor	0.0000e+00	


#WF CALIBRATION VALUES
A = Detector Channel
Val Type	A-AC1	A-AC2	A-AC3	A-AC4	A-AC5	A-AC6	A-AC7	A-AC8	A-AC9	A-AC10	A-AC11	A-AC12	A-AC13	A-AC14	A-AC15	A-AC16	A-DC1	A-DC2	A-DC3	A-DC4	A-DC5	A-DC6	A-DC7	A-DC8	A-DC9	A-DC10	A-DC11	A-DC12	A-DC13	A-DC14	A-DC15	A-DC16	A-Ph1	A-Ph2	A-Ph3	A-Ph4	A-Ph5	A-Ph6	A-Ph7	A-Ph8	A-Ph9	A-Ph10	A-Ph11	A-Ph12	A-Ph13	A-Ph14	A-Ph15	A-Ph16	

Term	0.00000e+00	0.00000e+00	0.00000e+00	0.00000e+00	0.00000e+00	0.00000e+00	0.00000e+00	0.00000e+00	0.00000e+00	0.00000e+00	0.00000e+00	0.00000e+00	0.00000e+00	0.00000e+00	0.00000e+00	0.00000e+00	0.00000e+00	0.00000e+00	0.00000e+00	0.00000e+00	0.00000e+00	0.00000e+00	0.00000e+00	0.00000e+00	0.00000e+00	0.00000e+00	0.00000e+00	0.00000e+00	0.00000e+00	0.00000e+00	0.00000e+00	0.00000e+00	0.00000e+00	0.00000e+00	0.00000e+00	0.00000e+00	0.00000e+00	0.00000e+00	0.00000e+00	0.00000e+00	0.00000e+00	0.00000e+00	0.00000e+00	0.00000e+00	0.00000e+00	0.00000e+00	0.00000e+00	0.00000e+00	
Factor	1.00000e+00	1.00000e+00	1.00000e+00	1.00000e+00	1.00000e+00	1.00000e+00	1.00000e+00	1.00000e+00	1.00000e+00	1.00000e+00	1.00000e+00	1.00000e+00	1.00000e+00	1.00000e+00	1.00000e+00	1.00000e+00	1.00000e+00	1.00000e+00	1.00000e+00	1.00000e+00	1.00000e+00	1.00000e+00	1.00000e+00	1.00000e+00	1.00000e+00	1.00000e+00	1.00000e+00	1.00000e+00	1.00000e+00	1.00000e+00	1.00000e+00	1.00000e+00	X	X	X	X	X	X	X	X	X	X	X	X	X	X	X	X	

B = Detector Channel
Val Type	B-AC1	B-AC2	B-AC3	B-AC4	B-AC5	B-AC6	B-AC7	B-AC8	B-AC9	B-AC10	B-AC11	B-AC12	B-AC13	B-AC14	B-AC15	B-AC16	B-DC1	B-DC2	B-DC3	B-DC4	B-DC5	B-DC6	B-DC7	B-DC8	B-DC9	B-DC10	B-DC11	B-DC12	B-DC13	B-DC14	B-DC15	B-DC16	B-Ph1	B-Ph2	B-Ph3	B-Ph4	B-Ph5	B-Ph6	B-Ph7	B-Ph8	B-Ph9	B-Ph10	B-Ph11	B-Ph12	B-Ph13	B-Ph14	B-Ph15	B-Ph16	

Term	0.00000e+00	0.00000e+00	0.00000e+00	0.00000e+00	0.00000e+00	0.00000e+00	0.00000e+00	0.00000e+00	0.00000e+00	0.00000e+00	0.00000e+00	0.00000e+00	0.00000e+00	0.00000e+00	0.00000e+00	0.00000e+00	0.00000e+00	0.00000e+00	0.00000e+00	0.00000e+00	0.00000e+00	0.00000e+00	0.00000e+00	0.00000e+00	0.00000e+00	0.00000e+00	0.00000e+00	0.00000e+00	0.00000e+00	0.00000e+00	0.00000e+00	0.00000e+00	-1.16366e+02	-1.34525e+02	-1.24640e+02	-1.81440e+02	-6.20949e+01	-6.64202e+01	-1.56427e+02	-1.62015e+02	-6.69733e+01	-6.15982e+01	-1.71980e+02	-1.69516e+02	-1.84939e+02	-1.76465e+02	-6.54987e+01	-1.48787e+02	
Factor	1.61643e-05	1.38122e-04	4.24785e-05	1.47321e-01	1.18619e-06	1.52504e-06	1.65925e-01	4.94256e-02	1.07980e-06	1.67298e-06	8.54847e-02	2.70576e-02	2.30815e-02	8.67598e-03	1.25400e-06	1.23377e-02	1.12576e-05	2.02003e-05	5.73018e-06	7.73108e-02	2.02464e-07	2.30455e-07	8.19583e-02	2.61172e-02	2.05112e-07	2.28814e-07	4.35796e-02	1.39337e-02	1.23178e-02	4.61571e-03	2.14390e-07	6.36437e-03	X	X	X	X	X	X	X	X	X	X	X	X	X	X	X	X	



#DISTANCE SETTINGS
A = Detector Channel
A-1	A-2	A-3	A-4	A-5	A-6	A-7	A-8	A-9	A-10	A-11	A-12	A-13	A-14	A-15	A-16	

2.5000e+00	3.0000e+00	2.5000e+00	3.0000e+00	2.0000e+00	3.0000e+00	1.5000e+00	3.0000e+00	3.0000e+00	3.0000e+00	3.0000e+00	3.0000e+00	3.0000e+00	3.0000e+00	1.5000e+00	3.0000e+00	

B = Detector Channel
B-1	B-2	B-3	B-4	B-5	B-6	B-7	B-8	B-9	B-10	B-11	B-12	B-13	B-14	B-15	B-16	

1.0000e+01	1.0000e+01	1.0000e+01	1.4400e+00	1.0000e+01	1.0000e+01	1.5100e+00	1.9400e+00	1.0000e+01	1.0000e+01	1.9900e+00	2.4900e+00	2.4100e+00	2.9000e+00	1.0000e+01	2.9800e+00	




#DATA BEGINS
time	group	step	mark	flag	A-AC1	A-AC2	A-AC3	A-AC4	A-AC5	A-AC6	A-AC7	A-AC8	A-AC9	A-AC10	A-AC11	A-AC12	A-AC13	A-AC14	A-AC15	A-AC16	A-DC1	A-DC2	A-DC3	A-DC4	A-DC5	A-DC6	A-DC7	A-DC8	A-DC9	A-DC10	A-DC11	A-DC12	A-DC13	A-DC14	A-DC15	A-DC16	A-Ph1	A-Ph2	A-Ph3	A-Ph4	A-Ph5	A-Ph6	A-Ph7	A-Ph8	A-Ph9	A-Ph10	A-Ph11	A-Ph12	A-Ph13	A-Ph14	A-Ph15	A-Ph16	B-AC1	B-AC2	B-AC3	B-AC4	B-AC5	B-AC6	B-AC7	B-AC8	B-AC9	B-AC10	B-AC11	B-AC12	B-AC13	B-AC14	B-AC15	B-AC16	B-DC1	B-DC2	B-DC3	B-DC4	B-DC5	B-DC6	B-DC7	B-DC8	B-DC9	B-DC10	B-DC11	B-DC12	B-DC13	B-DC14	B-DC15	B-DC16	B-Ph1	B-Ph2	B-Ph3	B-Ph4	B-Ph5	B-Ph6	B-Ph7	B-Ph8	B-Ph9	B-Ph10	B-Ph11	B-Ph12	B-Ph13	B-Ph14	B-Ph15	B-Ph16	aux-1	digaux	

29018.338	1	1	0	512	0.11214	0.14702	0.22469	0.20405	0.311	0.14873	0.16943	0.10695	0.26825	0.11715	0.040992	0.067039	0.50629	0.22342	0.32419	0.034543	-0.37708	-1.1042	-0.31667	-1.2583	-0.93125	-0.24167	-1.3333	-0.73958	-0.69167	-1.3875	-0.5875	-0.94792	-1.2833	-0.5625	-1.2958	-0.75417	111.562	150.886	198.217	-78.742	34.387	192.016	80.459	158.885	-55.926	223.795	130.875	174.906	182.112	100.208	-2.687	130.951	0.00011049	0.0009936	0.00029841	1324.9	9.9661e-06	1.3135e-05	783.57	411.85	7.0483e-06	2.2753e-05	231.44	79.038	149.42	70.662	3.0081e-06	35.597	0.015984	0.028686	0.0080838	1341.3	0.00028171	0.0003214	843.33	422.64	0.00028218	0.00031621	275.07	93.915	158.13	73.333	0.00030179	42.279	184.031	-78.863	-88.882	-116.515	80.608	18.740	-118.544	-111.147	-49.116	-113.956	-114.570	-110.186	-106.051	-102.077	122.587	-107.288	-8191	255	
29018.434	1	1	0	0	0.060975	0.3013	0.24476	0.19298	0.10229	0.16603	0.1765	0.50863	0.22467	0.13321	0.20089	0.18143	0.40946	0.22502	0.094613	0.2233	-0.22708	-1.2104	-0.40208	-1.0146	-0.93958	-0.28333	-1.3167	-1.0083	-0.37292	-1.3479	-0.55417	-0.88958	-1.3167	-0.62083	-1.1333	-1.0104	17.963	132.292	227.066	137.197	64.744	-43.902	99.323	170.648	8.353	25.737	107.369	-35.135	-108.901	189.210	74.215	228.023	0.00018838	0.0004338	0.0004225	1327.3	7.6395e-06	8.8048e-06	787.08	409.96	1.6123e-05	1.1564e-05	228.09	79.163	148.54	70.422	1.3086e-05	35.224	0.015907	0.028453	0.0081037	1343.2	0.00028527	0.00032692	846.4	423.34	0.0002897	0.00032318	274.14	94.153	157.79	73.172	0.00029643	42.261	205.265	7.102	23.506	-116.247	73.365	35.509	-118.059	-111.246	7.813	68.416	-114.424	-110.420	-106.307	-102.258	-80.937	-107.136	-8191	255	
29018.529	1	1	0	0	0.19048	0.15858	0.1988	0.095309	0.0676	0.15356	0.11504	0.15418	0.17974	0.27068	0.28996	0.095609	0.13921	0.15148	0.00084272	0.38861	-0.1125	-1.1729	-0.31875	-0.87708	-1.3167	-0.27292	-1.2563	-1.0146	-0.51667	-1.3958	-0.55625	-0.72917	-1.4792	-0.56875	-0.98542	-1.0063	67.487	203.420	-38.666	-79.188	-1.601	60.476	50.644	156.526	87.441	225.685	132.096	208.637	183.331	-120.016	180.000	203.541	0.00030788	0.00052058	0.00055639	1325	1.1071e-05	9.3157e-06	784.84	413.04	9.558e-06	1.2035e-06	228.05	79.161	147.84	70.151	2.198e-05	35.212	0.015812	0.028274	0.0079657	1338.9	0.0002776	0.0003205	843.25	422.42	0.00028567	0.00031932	272.85	93.722	156.98	72.804	0.00029474	41.914	214.571	-29.472	-59.556	-116.418	-37.793	18.718	-118.302	-111.175	20.879	221.086	-114.882	-110.424	-106.261	-102.226	-62.786	-107.232	-8191	255	
29018.625	1	1	0	0	0.16763	0.54112	0.099513	0.22062	0.17255	0.33296	0.14269	0.22388	0.129	0.23451	0.14393	0.1217	0.35401	0.12723	0.13305	0.11933	-0.041667	-1.0625	-0.50417	-0.77917	-1.225	-0.47708	-1.0125	-1.2458	-0.11458	-1.3937	-0.95833	-0.57917	-1.3896	-0.6125	-1	-1.0104	80.901	-81.276	-9.924	16.316	217.050	54.573	-79.821	181.023	196.831	110.258	226.644	0.970	208.773	-74.297	204.927	-22.314	0.00013427	0.0015174	0.000429	1322.5	5.361e-06	1.539e-05	782.2	406.5	8.5019e-06	9.8492e-06	225.65	78.02	147.97	69.863	9.1324e-06	34.909	0.015719	0.028418	0.0080052	1338.3	0.00028454	0.00032522	838.09	419.32	0.00028823	0.00031922	269.95	92.69	156.65	72.438	0.0002984	41.679	-114.363	-59.378	-29.414	-116.088	-83.723	-84.371	-118.312	-110.963	-82.616	-20.219	-114.234	-109.830	-105.634	-101.763	163.309	-107.325	-8191	255	
29018.746	1	1	0	0	0.075309	0.25127	0.1506	0.25066	0.15006	0.085575	0.10371	0.029915	0.038349	0.096503	0.1605	0.2768	0.36646	0.056516	0.18644	0.067255	0.033333	-1.2563	-0.67292	-0.6875	-1.2938	-0.64375	-0.93125	-1.3792	-0.22292	-1.0792	-0.93125	-0.38542	-1.325	-0.84167	-0.92708	-1.3104	132.575	96.880	213.513	173.278	-93.151	183.435	122.732	16.256	198.789	35.647	213.779	-84.552	209.355	108.353	86.188	166.353	9.1115e-05	0.0015342	0.00053031	1320	7.9891e-06	7.6792e-06	772.92	406	8.9281e-06	7.1031e-06	226.39	78.428	147.68	69.814	7.3144e-06	35.358	0.015841	0.028139	0.0079823	1334.5	0.00028378	0.00032128	832.73	417.93	0.00028524	0.00031619	269.16	92.877	156.52	72.441	0.00029492	41.809	200.422	-86.714	-72.116	-116.095	124.922	24.847	-117.993	-110.457	-37.055	3.380	-113.660	-109.956	-105.596	-101.932	-41.485	-106.841	-8191	255	
29018.842	1	1	0	0	0.2763	0.17294	0.10432	0.21879	0.10975	0.12702	0.3991	0.065047	0.15481	0.074213	0.1872	0.24832	0.18041	0.25677	0.09851	0.058067	0.0020833	-1.1333	-1.0187	-0.60417	-1.5646	-0.64375	-0.80833	-1.3583	-0.3875	-0.95417	-1.1542	-0.16875	-1.3542	-0.89167	-0.35208	-1.3188	-31.343	122.136	167.711	-104.452	-77.106	154.475	156.345	-49.102	172.701	130.687	-104.203	190.980	-99.676	-69.712	-52.003	189.727	0.00011733	0.0013667	0.00015421	1319.8	1.3822e-05	9.0183e-06	776.22	408.63	9.2781e-06	4.3849e-06	224.99	78.921	148.34	69.946	6.1807e-06	35.446	0.0157	0.027876	0.0079265	1332.4	0.00028002	0.00031736	834.67	419.22	0.00028406	0.00031589	270.26	93.408	156.78	72.662	0.00029648	41.994	-94.299	-98.125	143.884	-116.032	40.221	-68.204	-117.606	-110.195	78.846	99.538	-113.824	-109.493	-104.872	-100.980	196.610	-106.632	-8191	255	
29018.936	1	1	0	0	0.062579	0.093364	0.22433	0.078262	0.21873	0.1753	0.11778	0.2955	0.17382	0.29883	0.41148	0.13331	0.34726	0.25604	0.17738	0.19572	-0.19167	-0.73333	-1.1042	-0.45625	-1.0958	-0.80208	-0.5625	-1.6042	-0.47083	-0.9375	-1.1125	-0.45625	-1.4375	-0.93125	-0.4375	-1.3	76.020	210.095	151.255	-18.795	-91.899	25.418	135.013	198.806	213.044	-119.728	-73.957	213.620	-92.345	225.358	-1.012	194.476	0.00016164	0.0017955	0.00038661	1316.7	2.1503e-05	8.3721e-06	779.15	408.48	8.4577e-06	1.1684e-05	228.85	79.237	148.71	70.7	1.41e-05	35.599	0.015724	0.027801	0.0078838	1330.4	0.0002737	0.0003126	834.59	418.65	0.00027717	0.00030643	270.85	93.663	157.26	72.955	0.00029082	42.181	-107.836	51.820	-34.535	-115.837	211.807	153.479	-117.528	-110.369	0.863	-19.925	-113.665	-109.756	-105.178	-101.307	44.023	-106.757	-8191	255	
29019.010	1	1	0	0	0.092516	0.24664	0.2413	0.28607	0.13478	0.095914	0.21217	0.42737	0.09704	0.094946	0.31282	0.13135	0.23201	0.161	0.18249	0.10411	-0.1625	-0.70417	-1.1625	-0.40208	-1.1521	-1	-0.58333	-1.4188	-0.5625	-0.73958	-1.225	-0.32083	-0.925	-1.1688	-0.33333	-1.2479	205.695	-50.729	-41.895	230.563	223.636	-19.502	-106.679	168.074	167.757	-26.919	177.416	133.427	114.918	200.914	-51.924	27.650	0.00024817	0.0010508	0.00026269	1312.6	2.3076e-06	7.9827e-06	775.85	406.61	1.6768e-05	1.047e-05	224.85	78.506	147.92	69.62	7.9592e-06	34.523	0.015521	0.027548	0.0078547	1327	0.00027302	0.00031386	830.25	417.12	0.00027739	0.00030849	267.23	92.052	156.19	72.12	0.00029081	41.254	225.662	123.416	45.652	-116.207	142.716	-76.460	-118.950	-111.174	-69.499	152.462	-115.058	-110.541	-106.619	-102.675	93.063	-107.794	-8191	255	
29019.105	1	1	0	0	0.32549	0.12622	0.011527	0.16044	0.055352	0.26626	0.34688	0.30716	0.15093	0.15204	0.38921	0.16751	0.28874	0.10374	0.153	0.1758	-0.35625	-0.38958	-1.2313	-0.47083	-0.8875	-1.0292	-0.23542	-1.3188	-0.73542	-0.55625	-1.2354	-0.425	-1.0854	-1.2563	-0.4125	-1.2687	71.172	101.643	-32.739	189.552	-9.844	192.597	-36.814	196.889	5.926	146.988	-90.656	125.972	185.613	32.540	189.247	207.097	0.00029683	0.0011686	0.00040034	1308.2	1.0905e-05	2.6154e-05	769.86	406.88	5.4037e-06	4.6994e-06	223.15	77.795	147.86	70.024	4.9756e-06	35.179	0.0154	0.02727	0.0078307	1321.9	0.00027332	0.00031089	826.98	416.62	0.00027435	0.00031008	267.06	91.983	156.03	72.444	0.0002849	41.474	210.994	-106.183	-79.644	-116.546	41.897	24.841	-118.826	-111.274	-90.865	52.477	-114.612	-110.506	-106.868	-102.429	-55.190	-107.511	-8191	255	
29019.225	1	1	0	0	0.09822	0.14739	0.072462	0.2062	0.12626	0.2631	0.3092	0.17078	0.22211	0.15721	0.11052	0.32412	0.094546	0.12689	0.27603	0.2654	-0.23958	-0.475	-1.2313	-0.56458	-0.5875	-1.2667	-0.31667	-1.1854	-0.86875	-0.43125	-1.1604	-0.59375	-0.76875	-1.3292	-0.25	-0.91667	8.463	44.350	34.227	193.371	-93.844	-89.717	169.863	211.287	33.525	-78.946	189.992	169.069	-58.146	116.900	131.899	155.737	0.00010464	0.0010496	5.6539e-05	1309.7	1.9148e-05	9.7759e-06	771.82	406.06	1.3909e-05	2.7488e-06	226.6	78.501	147.94	69.829	1.2004e-05	35.723	0.014993	0.026797	0.0076352	1322	0.00026721	0.0003038	827.72	416.26	0.00027078	0.00030273	267.3	92.331	156.73	72.577	0.0002862	41.885	170.603	-78.661	100.925	-116.548	47.986	-86.810	-119.059	-111.330	28.925	-62.664	-114.405	-110.814	-106.476	-102.722	-15.015	-107.703	-8191	255	
29019.320	1	1	0	0	0.23639	0.34167	0.23169	0.15836	0.23029	0.085607	0.28428	0.077176	0.048864	0.030623	0.10862	0.16158	0.2214	0.22558	0.25596	0.38814	-0.32083	-0.475	-1.2979	-0.76042	-0.68958	-1.2125	-0.38958	-1.1187	-1.0396	-0.31667	-1.1896	-0.77083	-0.82292	-1.3854	-0.44583	-0.9375	212.844	139.399	-57.445	-111.271	-87.020	80.046	123.113	81.463	162.919	-114.118	222.741	153.060	182.570	-123.639	-22.794	45.953	0.00034691	0.00044284	0.00046398	1311.9	2.259e-06	3.7138e-06	774.75	406.76	1.685e-05	9.749e-06	227.56	78.998	148.57	70.264	1.4283e-05	35.869	0.015286	0.027542	0.0077795	1326.5	0.00027369	0.00031195	834.67	418.22	0.00027804	0.00031048	270.46	93.295	157.25	73.017	0.00028882	42.056	-114.974	6.139	96.167	-116.669	-47.216	87.107	-118.932	-111.263	-103.776	71.060	-114.670	-110.821	-106.490	-102.398	-46.532	-107.391	-8191	255	
29019.418	1	1	0	0	0.19583	0.15243	0.11983	0.21895	0.097883	0.42643	0.27031	0.23194	0.17499	0.1318	0.22149	0.34205	0.17991	0.39851	0.10637	0.2046	-0.63958	-0.37917	-1.0521	-0.9125	-0.37917	-1.2812	-0.69375	-0.82083	-1.0625	-0.23125	-1.1521	-0.95833	-0.46042	-1.6521	-0.48958	-0.81667	162.574	111.210	164.146	179.072	215.767	171.243	131.247	218.095	-87.577	83.314	219.680	119.739	210.113	206.632	-127.143	180.601	0.00029494	0.0028909	0.00033676	1315.3	8.9106e-06	3.1355e-06	774.22	407.71	6.1302e-06	4.3689e-06	225.72	79.198	148.14	70.554	5.0971e-06	35.484	0.015278	0.027219	0.0077161	1327.6	0.00027011	0.00030753	832.79	417.39	0.00027134	0.00030094	267	92.162	156.1	72.752	0.00027563	41.396	196.051	-75.628	205.989	-116.842	-57.809	18.374	-118.852	-111.573	127.558	221.132	-114.692	-110.811	-106.414	-102.457	-88.435	-107.414	-8191	255	
29019.537	1	1	0	0	0.088664	0.24963	0.12567	0.34814	0.22267	0.1854	0.25261	0.18872	0.093529	0.21876	0.078696	0.22104	0.22765	0.037841	0.22186	0.025603	-0.88125	-0.29583	-1.2292	-0.97708	-0.44583	-1.4542	-0.70208	-0.7125	-1.1833	-0.63958	-1.1979	-1.0083	-0.49583	-1.4146	-0.60417	-0.71042	70.060	81.481	74.572	216.528	172.590	150.011	161.208	-102.927	204.005	151.641	186.885	38.326	-93.850	0.517	180.423	72.167	6.4231e-05	0.0012637	0.0001923	1314.1	1.002e-05	2.6053e-05	774.28	408.49	3.7989e-06	3.8136e-06	226.03	78.581	148.28	70.202	1.3617e-05	35.352	0.014723	0.026286	0.0074074	1320.1	0.00026306	0.00029877	827.61	416.96	0.00026384	0.00029498	266.13	91.945	156.2	72.497	0.00027747	41.662	-0.963	200.878	-127.335	-116.659	119.929	-14.494	-118.966	-111.306	188.781	94.561	-114.878	-110.884	-106.681	-102.613	-18.520	-107.660	-8191	255	
29019.609	1	1	0	0	0.15013	0.084291	0.29437	0.35709	0.15766	0.27567	0.083971	0.21572	0.19364	0.05193	0.41659	0.25018	0.25775	0.23482	0.26298	0.20943	-0.97917	-0.50833	-0.875	-1.2146	-0.4125	-1.1208	-0.76042	-0.62708	-1.2	-0.5125	-0.74792	-0.96042	-0.4125	-1.175	-0.64167	-0.34167	58.154	48.821	219.596	202.888	71.626	213.143	5.900	-78.093	227.395	39.623	223.033	-4.547	137.589	191.710	-30.950	221.401	0.00018253	0.00092765	0.00036306	1315.3	1.4712e-06	6.7563e-06	773.22	408.61	5.5148e-06	6.1065e-06	227.93	79.057	149.01	71.278	1.2892e-05	35.804	0.014765	0.026213	0.0074054	1323.3	0.00026169	0.00029567	825.9	417.26	0.00026109	0.00028898	266.45	92.401	156.81	72.989	0.00026755	41.727	227.968	-53.048	-104.191	-116.486	136.152	33.236	-119.141	-111.327	13.900	-66.180	-114.980	-110.646	-106.455	-102.221	-114.440	-107.806	-8191	255	
29019.705	1	1	0	0	0.041261	0.17195	0.21174	0.10665	0.216	0.2604	0.21197	0.15887	0.14801	0.19242	0.32264	0.21289	0.17202	0.26411	0.26757	0.17324	-0.77292	-0.37083	-0.69792	-1.2396	-0.33958	-0.97708	-0.86667	-0.53333	-1.2542	-0.40417	-0.88125	-1.4167	-0.47083	-1.2271	-0.78333	-0.52708	-92.844	204.970	218.798	48.660	177.078	-31.963	-127.956	139.869	-81.296	-96.699	210.994	216.564	164.735	-103.993	77.227	102.076	0.00024888	0.00098435	0.00019059	1314.7	9.3129e-06	1.1831e-05	784.95	409.92	4.2893e-06	1.9095e-05	230.37	80.704	150.23	71.155	7.9058e-06	36.412	0.014247	0.025361	0.0071356	1319.5	0.0002535	0.00028804	830.83	417.28	0.00025466	0.00028479	267.94	93.179	157.3	73.382	0.00026875	42.108	176.082	108.172	52.109	-116.660	-104.877	2.585	-119.175	-111.120	63.444	12.752	-114.299	-110.847	-106.448	-102.628	29.036	-107.339	-8191	255	
29019.826	1	1	0	0	0.18989	0.0056997	0.26599	0.36859	0.083489	0.087685	0.064523	0.027206	0.40785	0.045422	0.19669	0.14454	0.20356	0.1439	0.11434	0.040206	-0.86875	-0.62292	-0.71458	-1.4542	-0.25417	-0.98333	-1.1396	-0.5	-1.1812	-0.58333	-0.5375	-1.2313	-0.64375	-1.1667	-0.98333	-0.4125	77.662	110.716	-19.887	-120.815	-35.401	47.459	57.951	138.830	119.319	142.619	-90.472	-72.714	-124.074	207.804	5.233	56.181	0.00017427	0.001182	0.00023345	1316.9	1.0504e-05	1.0647e-05	785.17	411.74	1.799e-05	1.0098e-05	227.87	79.66	149.77	71.119	1.5675e-05	35.737	0.014328	0.0256	0.007275	1323	0.00025676	0.00029005	835.27	418.53	0.00025827	0.00028864	266.73	92.547	156.65	72.758	0.0002642	41.301	220.728	19.614	-53.569	-116.590	-87.499	54.379	-118.527	-111.532	17.223	207.813	-114.926	-110.505	-106.516	-102.353	-13.341	-107.046	-8191	255	
29019.922	1	1	0	0	0.14357	0.10272	0.039772	0.19526	0.14853	0.38027	0.44125	0.27345	0.20433	0.20857	0.31504	0.089221	0.15313	0.18613	0.3334	0.099105	-0.88958	-0.67708	-0.52292	-1.4771	-0.46667	-0.78958	-1.2417	-0.56667	-1.2083	-0.89167	-0.67708	-1.3167	-0.61042	-0.91042	-1.2375	-0.36667	-115.684	18.862	157.871	171.768	-16.616	220.527	167.879	80.013	-127.931	132.645	-58.665	117.143	213.596	-91.111	92.972	76.021	0.00031438	0.0009184	0.0003591	1305.3	6.2172e-06	1.1243e-05	776	406.02	4.6299e-06	2.093e-05	226.2	78.879	149.71	70.818	1.842e-05	35.612	0.013995	0.024998	0.0071265	1313	0.00024923	0.0002849	825.77	414.7	0.00025385	0.00028577	264.97	91.804	156.49	72.889	0.00026719	41.436	211.225	39.769	-30.228	-116.641	207.353	-63.192	-118.716	-111.394	-45.333	-87.030	-114.787	-111.134	-106.129	-102.197	-17.637	-107.242	-8191	255	
29020.018	1	1	0	0	0.038163	0.26099	0.063173	0.23472	0.083664	0.17004	0.26435	0.51435	0.070297	0.10985	0.21752	0.086592	0.0033446	0.39526	0.15004	0.10665	-0.85208	-0.85625	-0.2125	-1.4896	-0.66042	-0.65833	-1.1729	-0.59583	-1.1021	-0.9625	-0.43958	-1.3312	-0.55417	-0.88333	-1.2188	-0.38333	57.006	-99.541	33.938	200.749	-100.239	-5.540	66.364	194.076	-71.786	131.218	204.661	71.436	229.874	-129.269	-31.243	120.122	5.834e-05	0.0013336	0.00034879	1304.1	1.2314e-05	7.5807e-06	775.93	409.99	7.3087e-07	1.6558e-05	229.87	80.359	150.97	71.905	1.0318e-05	36.549	0.014127	0.025297	0.0071371	1308.4	0.00025412	0.00028534	825.05	417.07	0.00025367	0.00028334	268.53	92.891	157.7	73.946	0.0002629	42.079	150.873	-110.653	137.800	-116.556	18.240	119.304	-118.799	-111.438	221.655	-17.184	-114.699	-110.266	-106.575	-102.598	27.019	-107.383	-8191	255	
29020.137	1	1	0	0	0.38448	0.16273	0.26603	0.36581	0.083665	0.068388	0.15397	0.10028	0.076794	0.041161	0.032302	0.35791	0.14978	0.10435	0.27756	0.082773	-0.53125	-0.79792	-0.21042	-1.5104	-0.64167	-0.65	-1.1229	-0.40833	-0.7875	-1.1667	-0.45625	-1.2854	-0.7125	-0.56458	-1.2417	-0.47708	-97.905	130.483	165.738	198.592	169.477	-99.797	50.034	-19.062	107.095	210.770	-114.208	186.787	165.329	-27.807	157.289	67.239	0.00016118	0.0013106	8.7955e-05	1302.8	5.412e-06	5.271e-06	779.32	412.69	4.8959e-06	1.0668e-05	234.46	82.064	151.25	72.704	2.1891e-05	37.194	0.013837	0.024663	0.0069943	1305.3	0.00024501	0.00028005	827.67	419.67	0.00024914	0.00027919	270.5	93.682	158.42	74.461	0.00026051	42.449	-126.879	-86.823	187.926	-116.644	-6.887	105.514	-118.627	-111.341	184.214	124.155	-114.767	-110.508	-106.527	-102.368	-48.524	-107.567	-8191	255	
29020.232	1	1	0	0	0.22446	0.13887	0.19599	0.38479	0.17676	0.26513	0.17762	0.36276	0.18839	0.26428	0.14866	0.12171	0.18454	0.30794	0.16584	0.16123	-0.38333	-1.2979	-0.32917	-1.3625	-0.73958	-0.47917	-1.2875	-0.49583	-0.57292	-1.2938	-0.43542	-1.1667	-0.92292	-0.65417	-1.1812	-0.65833	183.709	-63.794	81.172	-116.928	-84.774	-101.322	194.143	185.031	-116.118	4.147	61.628	-104.041	225.890	213.367	41.950	58.176	0.00030646	0.0013004	0.00034765	1301.5	1.4904e-05	3.1353e-06	788.75	414.12	8.0617e-06	1.7194e-05	234.24	80.324	151.53	72.227	5.2733e-06	36.048	0.013814	0.02441	0.006943	1307.1	0.00024455	0.00027789	830.61	420.37	0.00024831	0.00027916	270.59	92.768	158.13	73.797	0.00025595	41.715	190.870	-45.020	14.484	-116.387	-9.301	40.043	-118.786	-111.426	18.098	108.446	-115.017	-110.512	-106.597	-102.312	112.160	-107.983	-8191	255	
29020.305	1	1	0	0	0.22671	0.2568	0.069663	0.26895	0.2798	0.21262	0.11996	0.15862	0.071031	0.09163	0.02079	0.1423	0.33445	0.22193	0.22534	0.14629	-0.16667	-1.2146	-0.28333	-1.0167	-0.97292	-0.37917	-1.3188	-0.74375	-0.55625	-1.3312	-0.575	-1.1562	-1.1417	-0.43125	-1.2687	-0.67917	150.840	-4.447	80.597	-120.558	71.827	82.849	105.106	-95.010	-16.318	12.063	-117.384	-127.954	-56.840	173.161	96.321	-124.106	0.00023246	0.0013839	0.00021092	1301.4	9.3197e-06	9.4968e-06	777.95	412.06	9.2049e-06	1.3454e-05	231.8	79.584	149.32	71.543	1.0971e-05	35.859	0.013663	0.024409	0.0068702	1302.2	0.00024317	0.00027566	822.12	417.25	0.00024557	0.00027337	266.43	91.182	156.29	73.014	0.00025166	41.237	228.656	-15.876	7.823	-116.179	159.885	103.422	-118.846	-111.414	-35.794	197.897	-114.702	-110.635	-106.412	-102.440	-38.896	-107.454	-8191	255	
29020.400	1	1	0	0	0.31267	0.21062	0.20775	0.21105	0.18367	0.13118	0.12459	0.52123	0.13374	0.076948	0.18858	0.24512	0.24471	0.07769	0.26141	0.063932	-0.15417	-1.1938	-0.19792	-0.99792	-1.1229	-0.3875	-1.3146	-0.82292	-0.46667	-1.2313	-0.39792	-0.74375	-1.3604	-0.48542	-0.8625	-1.0708	147.324	51.325	158.252	197.234	113.955	60.170	177.206	153.851	-127.720	-77.327	141.751	-73.306	154.518	225.586	-112.140	199.217	0.00026562	0.0013981	0.00043925	1301.5	7.3298e-06	1.1901e-05	783.55	411.57	5.58e-06	2.4034e-05	231.92	79.278	149.22	70.915	1.0276e-05	35.401	0.013521	0.02416	0.0068142	1302.7	0.00024211	0.00027413	823.74	417.42	0.0002437	0.00027131	266.27	91.105	155.76	72.6	0.0002513	41.01	185.569	10.615	-59.996	-116.391	-61.961	-65.878	-118.892	-111.579	175.456	27.946	-114.822	-111.102	-106.289	-102.120	38.514	-107.553	-8191	255	
29020.521	1	1	0	0	0.16569	0.27087	0.35754	0.30061	0.13291	0.17293	0.19945	0.51057	0.13425	0.027756	0.090707	0.19072	0.14144	0.46254	0.2748	0.17226	0.10417	-1.2208	-0.47083	-0.88125	-1.225	-0.36875	-1.2833	-1.0083	-0.24375	-1.3417	-0.61042	-0.55208	-1.2958	-0.36458	-0.93333	-1.0771	-69.357	-109.039	-126.525	230.601	195.247	70.641	-115.236	205.376	-64.332	-21.318	126.390	188.228	222.469	181.888	52.945	190.995	0.00018826	0.001923	0.0001915	1305.1	8.2754e-06	3.447e-06	779.74	411.71	1.2716e-05	1.0469e-05	232.2	78.66	149.95	71.892	7.1453e-06	36.126	0.013404	0.023718	0.0067198	1305.4	0.00023836	0.0002707	823.12	417.31	0.00024063	0.000269	265.96	90.968	155.75	73.076	0.00024998	41.211	-114.917	-2.994	-11.888	-116.524	-96.766	-22.131	-118.830	-111.350	-74.185	114.587	-114.673	-110.569	-106.546	-102.828	130.523	-107.509	-8191	255	
29020.617	1	1	0	0	0.28311	0.073993	0.26712	0.42038	0.12544	0.18353	0.1916	0.36914	0.13685	0.05202	0.2826	0.17549	0.18444	0.17161	0.31012	0.24526	0.0125	-1.0938	-0.55625	-0.73125	-1.3396	-0.58333	-1.05	-1.2062	-0.29375	-1.2521	-0.77083	-0.59375	-1.3792	-0.71458	-0.925	-1.2833	114.486	-24.290	13.439	227.012	47.518	134.664	179.935	141.201	204.114	151.720	-38.032	-119.991	-9.228	215.448	218.675	81.648	0.00026911	0.00030841	9.5944e-05	1304.1	4.3148e-06	1.3216e-05	786.03	413.14	5.9465e-06	1.5051e-05	234.11	80.313	150.33	71.867	5.0265e-06	35.914	0.013303	0.023514	0.0067789	1305.9	0.00023802	0.0002702	828.28	419.02	0.00023966	0.00026705	268.42	91.823	156.17	73.238	0.00025473	41.239	190.501	-13.142	-22.126	-116.367	-89.396	28.274	-118.326	-111.070	-0.263	210.251	-114.457	-110.807	-106.419	-102.378	91.707	-107.555	-8191	255	
29020.715	1	1	0	0	0.16199	0.17591	0.14495	0.33431	0.27475	0.17616	0.17283	0.36783	0.12077	0.0078671	0.3698	0.2109	0.2513	0.29096	0.068357	0.14137	0.064583	-1.025	-0.81042	-0.62083	-1.3792	-0.59375	-0.81667	-1.3875	-0.37708	-1.2333	-0.90208	-0.56875	-1.2333	-0.80625	-0.63125	-1.425	-59.638	115.291	-78.420	193.981	152.474	50.982	84.628	202.882	226.839	-60.550	97.012	167.666	-118.101	202.240	137.952	164.583	0.00031767	0.0011675	0.00028521	1306.2	1.4483e-05	8.5081e-06	780.61	410.95	1.1333e-05	1.3032e-05	228.14	77.772	147.78	70.446	4.8954e-06	34.872	0.013448	0.02397	0.0068601	1310.5	0.00023802	0.00027293	824.82	416.37	0.00024258	0.00026802	263.42	89.689	154.35	71.833	0.00025002	40.269	192.384	151.170	-23.353	-116.461	-1.017	68.776	-118.799	-111.006	12.945	-25.147	-114.326	-110.333	-106.383	-102.411	-20.144	-107.214	-8191	255	
29020.836	1	1	0	0	0.067496	0.037605	0.20794	0.15136	0.121	0.17923	0.12498	0.12308	0.13054	0.37239	0.14287	0.14232	0.19756	0.10022	0.16019	0.051457	0.014583	-0.91458	-0.96667	-0.53333	-1.2083	-0.84167	-0.6375	-1.4854	-0.41042	-1.0729	-1	-0.32083	-1.4688	-0.9625	-0.44583	-1.325	67.167	-118.971	152.769	145.572	17.030	147.702	144.667	219.062	205.836	-110.813	126.596	90.573	-52.773	131.791	-66.753	9.681	8.6973e-05	0.00047842	0.00011226	1303.1	1.3166e-05	8.5732e-06	771.68	408.97	6.8387e-06	1.2992e-05	227.16	77.641	147.78	69.978	3.2566e-06	34.488	0.01317	0.023441	0.0066779	1299.4	0.00022814	0.00026276	812.2	413.47	0.00023221	0.0002593	260.2	88.865	153.39	71.392	0.00024402	39.678	113.897	34.660	151.361	-116.578	221.995	-121.088	-118.674	-111.167	190.428	-1.982	-114.919	-110.679	-106.331	-102.355	125.808	-107.190	-8191	255	
29020.906	1	1	0	0	0.11787	0.14699	0.14043	0.099423	0.10079	0.020836	0.14231	0.35999	0.14088	0.23417	0.18925	0.1482	0.22249	0.088562	0.23209	0.11641	-0.13958	-0.71458	-0.92083	-0.52083	-1.3729	-0.77292	-0.6375	-1.4729	-0.44792	-0.78125	-1.1333	-0.54792	-1.2167	-0.77083	-0.50625	-1.3604	195.727	-121.214	-30.905	-126.830	-82.046	-65.738	111.821	145.456	95.010	-92.607	188.320	169.912	-111.930	-99.268	168.579	149.663	0.00016394	0.00074114	0.00046562	1299.3	1.1584e-05	7.7677e-06	779.78	407.55	1.265e-05	1.1677e-05	227.48	77.666	147.38	69.687	1.1615e-05	34.486	0.012901	0.023163	0.0065366	1299.7	0.00023	0.00026505	815.19	412	0.00023215	0.00026216	259.42	88.573	152.92	71.215	0.000244	39.792	169.900	217.978	-109.812	-116.507	-21.810	122.578	-118.628	-111.401	-87.287	144.845	-114.887	-110.570	-106.063	-102.452	148.793	-107.131	-8191	255	
29021.004	1	1	0	0	0.084088	0.16759	0.20171	0.20639	0.26079	0.1385	0.12043	0.15424	0.14722	0.10385	0.13809	0.24078	0.16429	0.30109	0.073643	0.053003	-0.15833	-0.63125	-1.0917	-0.41875	-1.075	-0.86458	-0.32708	-1.4458	-0.76042	-0.61042	-1.1792	-0.45417	-1.1437	-1.1396	-0.46458	-1.2	-77.209	12.332	218.526	212.091	74.496	22.787	164.473	126.360	163.294	-64.337	203.680	210.904	172.502	219.707	-7.705	134.261	2.8356e-05	0.0010962	0.00010907	1308.8	3.2652e-06	1.2599e-06	779.52	408.22	1.4504e-05	1.0993e-05	224.59	78.051	147.55	70.432	1.5716e-05	35.392	0.012909	0.023035	0.0065667	1302.2	0.00022913	0.00026308	814.88	411.62	0.00023307	0.00026033	258.45	89.173	153.37	71.653	0.00024338	40.216	106.897	-61.544	132.540	-116.599	2.073	113.114	-118.355	-110.807	-46.059	31.269	-114.849	-110.321	-106.256	-102.475	147.672	-107.174	-8191	255	
29021.100	1	1	0	0	0.25083	0.050035	0.24837	0.41911	0.17171	0.075833	0.1444	0.12514	0.20648	0.032478	0.18188	0.22706	0.068486	0.086731	0.033648	0.19857	-0.225	-0.57708	-1.3167	-0.45	-0.92083	-1.0042	-0.51042	-1.3646	-0.63958	-0.45208	-1.4188	-0.375	-1.0708	-1.45	-0.32917	-1.1688	20.443	-92.018	-83.174	188.045	39.242	126.402	176.590	-16.016	-113.549	165.208	215.877	194.904	-112.184	180.782	-82.740	92.559	0.00034048	0.00080299	0.00033704	1302.1	1.1872e-05	4.0848e-06	773.84	408.54	1.5741e-05	5.9785e-06	225.32	77.965	148.07	70.306	9.9822e-06	34.992	0.012855	0.022707	0.0064355	1297.5	0.00022711	0.00025929	813.94	412.78	0.00023305	0.00025803	258.62	89.084	153.82	71.822	0.00024	40.017	218.301	86.748	12.187	-116.483	-56.083	119.226	-118.451	-111.028	-40.595	-123.008	-114.792	-110.424	-105.846	-102.461	22.816	-107.511	-8191	255	
29021.219	1	1	0	0	0.058413	0.24545	0.22466	0.19248	0.18339	0.097469	0.033115	0.47555	0.15058	0.24461	0.097582	0.12186	0.38417	0.38649	0.10471	0.22818	-0.38958	-0.525	-1.2	-0.49167	-0.68333	-1.3625	-0.525	-1.2333	-1.1437	-0.40417	-1.5104	-0.48958	-0.71875	-1.3354	-0.33125	-1.0917	-125.904	6.730	132.410	150.387	-96.288	34.174	-92.781	193.490	185.158	57.507	-98.155	210.063	205.823	191.929	70.018	166.577	0.00029583	0.001019	0.00039616	1301	1.3611e-05	2.0826e-05	768.91	406.64	3.612e-06	1.733e-06	227.28	78.488	148.28	71.341	5.1264e-06	35.184	0.012767	0.022739	0.006413	1295.5	0.00022665	0.00026123	808.83	411.63	0.00023171	0.00025706	259.14	89.358	154.26	72.471	0.00023833	40.425	188.285	-71.714	-39.787	-116.495	-3.176	-3.998	-118.533	-111.196	-58.496	123.934	-114.476	-110.746	-106.088	-102.320	106.649	-107.275	-8191	255	
29021.314	1	1	0	0	0.062173	0.21439	0.025195	0.30075	0.15986	0.24561	0.26114	0.27209	0.17466	0.16996	0.17994	0.15627	0.13564	0.45277	0.16728	0.15416	-0.61875	-0.3875	-1.1167	-0.83125	-0.73333	-1.35	-0.525	-1.1958	-1.1354	-0.33542	-1.2667	-0.75625	-0.76458	-1.5021	-0.37083	-1.0354	-91.362	-56.739	43.436	171.267	-56.941	85.283	-10.089	222.325	207.366	-53.619	106.336	108.433	183.211	201.833	25.031	-22.793	0.00024787	0.001158	0.00022778	1299.7	9.8018e-06	8.2551e-06	775.21	409.69	9.799e-06	2.2234e-05	226.15	78.858	149.51	71.102	1.2731e-05	35.239	0.01289	0.022465	0.0063598	1294.9	0.00022677	0.00025793	813.45	414.15	0.00023393	0.00025858	260.75	89.887	155.16	72.6	0.00024674	40.623	221.713	-43.834	-64.858	-116.451	-6.773	-10.722	-118.784	-110.974	-89.144	-6.593	-114.580	-110.125	-106.147	-102.320	166.925	-106.874	-8191	255	
29021.410	1	1	0	0	0.020484	0.24792	0.11979	0.29941	0.21363	0.20073	0.16568	0.21106	0.12676	0.23399	0.073715	0.3573	0.1652	0.2773	0.13864	0.041775	-0.55625	-0.11875	-1.1167	-0.97292	-0.29583	-1.1792	-0.65208	-0.98333	-1.3229	-0.30208	-1.2792	-0.81458	-0.72708	-1.4062	-0.54583	-0.69167	-123.339	-109.252	151.541	-110.521	176.419	157.701	194.417	123.910	-107.117	-37.333	-75.249	58.344	178.757	224.372	25.109	229.906	0.00012754	0.0010599	0.00050686	1305.7	6.7126e-06	9.3625e-06	778.7	409.11	7.1463e-06	6.0874e-06	229.52	78.955	149.35	71.505	1.3999e-05	35.757	0.013046	0.023106	0.0065931	1303.3	0.00023307	0.00026245	818.01	414.65	0.00023771	0.00026304	262.76	90.199	155.04	72.762	0.00024778	40.954	-94.297	168.087	1.851	-116.349	32.845	140.605	-118.758	-111.063	-102.466	73.434	-114.149	-110.410	-106.293	-102.167	-23.670	-107.245	-8191	255	
29021.506	1	1	0	0	0.45367	0.2619	0.15452	0.22116	0.27616	0.19987	0.2748	0.2838	0.183	0.22083	0.14676	0.1258	0.55432	0.14906	0.13113	0.23935	-0.97292	-0.34792	-1.1167	-1.1562	-0.45833	-1.175	-0.81875	-0.9875	-1.2375	-0.51667	-1.1792	-1.2271	-0.35417	-1.2729	-0.61875	-0.51667	9.956	160.803	-61.789	227.720	-11.263	-51.141	166.058	202.383	-44.126	3.893	199.365	42.644	213.386	210.917	-117.641	162.597	0.00026463	0.0010452	0.00044469	1306.2	1.0005e-05	2.8442e-05	781.59	411.88	8.0364e-06	1.3282e-05	229.68	78.859	149.48	71.073	1.5424e-05	35.517	0.013094	0.0232	0.0065982	1305.7	0.00023348	0.00026411	823.05	416.33	0.00023395	0.00026344	263.44	90.246	155.01	72.519	0.00024714	40.584	-109.748	89.738	65.503	-116.010	-128.679	23.956	-118.732	-110.931	20.576	158.956	-114.187	-110.312	-106.287	-102.271	-70.818	-107.603	-8191	255	
29021.602	1	1	0	0	0.21587	0.17232	0.27724	0.33882	0.26633	0.21579	0.16229	0.29191	0.34194	0.13249	0.19838	0.02763	0.20107	0.28516	0.39491	0.19104	-0.73125	-0.43333	-0.85833	-1.1625	-0.30833	-1.3375	-0.94792	-0.64375	-1.2083	-0.37708	-0.85417	-0.99792	-0.4875	-1.2938	-0.87708	-0.52917	-41.386	221.135	124.116	186.608	165.840	-11.363	114.569	121.631	12.176	-114.647	226.596	48.112	209.693	208.206	66.342	-120.931	0.00017352	0.00025396	0.00015911	1307.5	4.3214e-06	4.2401e-06	777.41	409.3	1.2326e-05	1.1671e-05	224.9	76.905	147.2	70.679	8.2677e-06	34.93	0.012927	0.02292	0.0065491	1301.4	0.00022872	0.00026277	813.15	413.81	0.00023338	0.00026052	259.85	88.498	153.13	71.815	0.00024167	39.955	192.528	-59.293	109.452	-116.187	-93.479	-54.142	-118.492	-110.736	53.066	-4.655	-114.178	-110.315	-106.102	-101.823	-3.925	-106.702	-8191	255	
29021.697	1	1	0	0	0.2764	0.21147	0.2217	0.37214	0.16463	0.2253	0.13862	0.22888	0.087702	0.17598	0.12133	0.1393	0.098256	0.2671	0.20419	0.099035	-0.98958	-0.32708	-0.78125	-1.3563	-0.35417	-1.3	-0.93333	-0.55625	-1.1562	-0.66667	-0.84375	-1.1354	-0.51667	-1.0854	-0.92292	-0.38542	60.600	81.092	-90.262	229.540	208.683	-82.316	101.771	156.506	215.137	104.751	12.583	-118.580	-85.145	205.020	-87.691	-111.640	0.00013607	0.00073427	0.00025898	1303.6	1.0316e-05	1.7277e-05	772.6	408.55	7.1088e-06	1.6785e-05	226.92	78.228	147.69	70.401	6.3174e-06	35.259	0.01271	0.022661	0.006461	1296.6	0.00022761	0.00026141	811.73	413.49	0.00023198	0.00025978	260.7	89.092	153.75	71.873	0.00024523	40.085	212.813	154.939	-40.996	-116.407	-43.551	54.485	-118.381	-110.907	-73.746	-44.766	-114.538	-109.764	-106.236	-102.399	201.312	-107.135	-8191	255	
29021.818	1	1	0	0	0.03465	0.15002	0.19018	0.096681	0.19388	0.057718	0.2901	0.24954	0.1144	0.1515	0.12647	0.32771	0.13054	0.33361	0.15876	0.1183	-0.97708	-0.58333	-0.63333	-1.4354	-0.33958	-1.0562	-1.1083	-0.65	-1.0562	-0.69583	-0.54375	-1.2958	-0.48333	-0.92292	-1.1688	-0.59792	182.478	104.291	-21.336	-103.932	-70.257	96.882	230.570	108.200	220.776	170.108	-61.717	78.468	-106.946	185.175	-22.510	50.659	9.3778e-05	0.0019867	0.00040308	1306.6	6.8225e-06	6.1014e-06	781.1	411.67	1.6956e-05	5.1553e-06	229.41	78.615	149.01	71.597	8.5833e-06	35.901	0.012837	0.023044	0.0065753	1299.6	0.00023076	0.00026449	819.21	414.82	0.00023394	0.00026349	263.08	89.924	154.63	72.919	0.00024685	40.826	-66.439	-22.114	-88.203	-116.362	89.352	-84.833	-118.485	-110.745	112.339	-7.577	-114.320	-110.384	-106.309	-102.029	183.412	-107.054	-8191	255	
29021.914	1	1	0	0	0.30958	0.26262	0.33112	0.30257	0.12393	0.17908	0.16865	0.37182	0.033902	0.11023	0.093755	0.21975	0.22867	0.42253	0.2321	0.052351	-0.8625	-0.57292	-0.25	-1.4708	-0.49583	-0.70208	-1.3792	-0.49167	-1.1958	-0.85625	-0.52292	-1.2354	-0.50417	-0.86667	-1.0792	-0.40625	193.973	98.474	67.493	172.971	163.822	111.504	22.964	160.612	-67.723	22.757	-101.831	195.399	178.657	-126.278	51.548	11.702	0.00039868	6.913e-05	0.00013631	1299.4	5.72e-06	2.3836e-06	788.18	413.91	6.0725e-06	1.0349e-05	233.69	79.86	149.23	72.025	8.2626e-06	36.085	0.012996	0.023587	0.0066168	1299.3	0.00023606	0.00026901	825.77	418.06	0.00024078	0.00026746	268.22	91.364	155.98	73.507	0.00025199	41.388	-114.048	101.834	180.388	-116.049	-25.880	227.075	-118.684	-110.897	-78.415	-8.322	-114.188	-110.306	-105.934	-102.050	84.053	-106.586	-8191	255	
29022.010	1	1	0	0	0.12946	0.23711	0.044124	0.32493	0.18878	0.13535	0.19778	0.35964	0.18145	0.13444	0.26905	0.056791	0.29532	0.066416	0.15769	0.1976	-0.62083	-1.0958	-0.31875	-1.525	-0.61042	-0.64583	-1.5021	-0.63333	-1.0146	-0.98958	-0.38958	-1.3792	-0.59792	-0.82083	-1.2354	-0.325	-95.316	20.458	19.205	179.895	-85.985	11.557	-125.621	203.256	68.977	220.423	4.279	95.587	226.578	200.156	121.597	-112.739	0.00019985	0.0010668	0.00040893	1299.4	3.9356e-06	8.2943e-06	783.36	415.25	1.9906e-06	6.9343e-06	233.43	79.838	149.3	72.047	1.0437e-05	35.87	0.013403	0.023833	0.0068063	1302.3	0.00023926	0.00027288	824.97	419.69	0.00024456	0.00027186	267.69	91.101	156.08	73.631	0.00025358	41.308	223.591	-91.628	-8.135	-115.946	-121.234	-55.191	-118.191	-110.934	-95.811	135.146	-114.222	-110.521	-106.047	-101.868	10.295	-106.893	-8191	255	
29022.105	1	1	0	0	0.13291	0.19835	0.11074	0.34807	0.2572	0.11675	0.40878	0.43025	0.24826	0.07766	0.20659	0.09981	0.072172	0.17715	0.24847	0.13236	-0.49583	-0.79792	-0.2375	-1.3521	-0.69792	-0.55417	-1.4688	-0.60417	-0.82917	-1.1333	-0.35417	-1.2896	-0.92917	-0.57917	-1.3062	-0.70625	103.914	48.103	85.940	174.428	10.215	-9.809	155.767	135.294	174.176	-76.628	-26.594	55.347	194.056	-103.179	28.793	83.258	0.00016393	0.0016692	0.00051133	1299.5	8.1853e-06	1.3109e-05	785.55	416.36	5.9974e-06	1.1847e-05	233.61	80.236	150.55	72.191	9.4682e-06	36.124	0.013526	0.024057	0.0067645	1302.6	0.00023943	0.00027304	828.33	421.92	0.00024368	0.00027276	268.91	92.037	157.27	74.119	0.00025272	41.606	230.186	-56.325	-37.370	-116.054	-61.685	112.223	-118.452	-110.857	-67.873	6.198	-114.292	-110.478	-105.872	-101.909	108.081	-107.028	-8191	255	
29022.201	1	1	0	0	0.19773	0.22695	0.15561	0.15537	0.24012	0.15463	0.10836	0.12988	0.20355	0.1924	0.21673	0.25709	0.11928	0.29154	0.2146	0.11473	-0.36667	-1.1271	-0.375	-1.2646	-1.1812	-0.47708	-1.4	-0.73125	-0.80417	-1.3521	-0.46042	-1.0583	-1.3333	-0.48333	-1.2771	-0.77083	90.647	-71.955	91.538	218.361	-93.810	92.299	210.168	-123.865	9.535	171.212	224.409	9.571	189.415	193.200	155.684	174.946	8.5249e-05	0.00066221	0.00038586	1305.2	1.6992e-05	1.5964e-05	795.07	415.4	1.1138e-05	1.7557e-05	234.1	80.831	150.48	72.579	1.8602e-05	36.639	0.013609	0.024261	0.0068172	1307.5	0.00024539	0.00027818	834.36	422.4	0.00024727	0.00027694	271.2	92.575	157.78	74.365	0.00026264	42.158	226.967	174.763	-32.853	-115.913	66.968	0.092	-118.130	-110.911	19.517	42.251	-114.359	-110.419	-105.984	-101.947	-13.883	-107.681	-8191	255	
29022.299	1	1	0	0	0.16411	0.23428	0.2462	0.11737	0.21972	0.35765	0.14456	0.13863	0.10989	0.10434	0.21423	0.20033	0.078666	0.1767	0.17513	0.27138	-0.1875	-1.1437	-0.33542	-1.1917	-1.1604	-0.35625	-1.2042	-0.89375	-0.5875	-1.2792	-0.54375	-1.125	-1.2854	-0.63542	-1.0083	-0.70417	-28.824	165.137	3.431	-39.048	-91.637	-90.306	-127.784	127.649	20.955	183.670	139.308	118.706	-60.302	200.727	-55.262	150.577	0.00019009	0.0010283	7.5235e-05	1312.9	5.1468e-06	6.2481e-06	799.19	416.36	1.4098e-05	1.8567e-05	235.98	81.259	151.84	72.855	1.2781e-06	36.544	0.014193	0.024967	0.0071308	1319.3	0.000254	0.00028932	843.35	424.28	0.00025609	0.000285	273.36	93.534	158.84	74.669	0.00026833	42.355	214.304	-124.681	-109.258	-116.036	-90.104	62.115	-118.360	-110.979	-6.466	20.709	-114.720	-110.080	-106.039	-101.663	15.671	-107.102	-8191	255	
29022.395	1	1	0	0	0.10323	0.24276	0.3055	0.34409	0.14248	0.34758	0.12884	0.22891	0.042735	0.17062	0.23239	0.26433	0.15482	0.26495	0.13347	0.21563	-0.15208	-1.2437	-0.46667	-0.9375	-1.1	-0.34375	-1.2042	-1.05	-0.46667	-1.2146	-0.55	-0.65625	-1.2708	-0.58958	-1.0542	-0.86667	189.750	-55.062	-43.730	230.274	-53.814	171.888	-66.785	119.664	193.645	155.965	72.585	-125.068	190.543	206.539	-89.288	158.128	0.00029634	0.00056131	0.00034696	1316.6	2.905e-06	9.2324e-06	797.98	417.81	1.7021e-05	1.9577e-05	233.23	79.637	150.45	72.422	6.9661e-06	36.007	0.014346	0.025281	0.0072783	1321.9	0.00025646	0.00028868	842.09	423.54	0.00025299	0.00027908	270.7	92.092	157.61	73.846	0.00026099	41.501	205.871	-98.970	-105.012	-116.136	-11.676	47.228	-118.020	-111.024	4.344	-119.193	-113.731	-110.267	-105.679	-101.832	84.442	-107.650	-8191	255	
29022.490	1	1	0	0	0.17894	0.28521	0.11185	0.1731	0.18742	0.21989	0.17199	0.22614	0.30009	0.24952	0.20161	0.043028	0.094829	0.07778	0.1913	0.17089	0.010417	-1.3312	-0.58333	-0.79583	-1.1771	-0.30208	-1.2437	-1.1063	-0.57708	-1.3292	-0.66042	-0.62083	-1.5458	-0.52708	-0.97917	-1.1042	-83.730	23.754	-125.620	133.820	14.297	-0.918	211.406	152.466	136.041	-75.561	186.767	184.946	-64.281	79.806	194.581	202.058	0.00011178	0.0010733	0.00062417	1302.9	4.4092e-06	1.4804e-05	789.13	415.1	5.5625e-06	2.7644e-05	234.04	80.019	150.45	71.99	9.9425e-06	35.564	0.013656	0.024071	0.0069628	1308	0.00024162	0.00027482	833.4	421.61	0.00024386	0.0002718	269.41	91.283	156.34	73.52	0.00025659	41.037	178.902	-127.694	-95.697	-115.937	120.842	151.305	-117.994	-110.834	-62.988	12.691	-114.219	-109.960	-105.996	-101.618	81.042	-107.265	-8191	255	
29022.611	1	1	0	0	0.12578	0.23446	0.22691	0.1696	0.048569	0.074725	0.10203	0.23057	0.045211	0.059062	0.082278	0.12618	0.14288	0.13985	0.26717	0.21719	-0.095833	-1.0625	-0.58125	-0.57917	-1.3354	-0.5	-0.8375	-1.2354	-0.34375	-0.99792	-0.86875	-0.525	-1.4771	-0.725	-0.70208	-1.0958	28.873	-106.959	93.941	-75.793	178.680	-108.426	179.488	221.554	221.366	216.789	-88.925	210.923	171.533	229.431	-66.703	-25.020	0.00015558	0.0014167	0.00032415	1310.5	2.6548e-05	1.337e-05	795.13	417.01	1.7065e-05	4.6996e-06	231.11	79.441	150.16	72.489	6.5384e-06	36.014	0.013424	0.023994	0.0068519	1308.5	0.00023827	0.00027223	834.66	421.88	0.00024087	0.00027121	268.93	91.521	156.43	73.88	0.00025624	41.316	195.160	-10.171	24.622	-115.810	25.353	-0.947	-118.167	-110.838	-26.596	-127.698	-114.147	-109.851	-105.679	-101.967	169.306	-106.852	-8191	255	
29022.707	1	1	0	0	0.25302	0.10289	0.36072	0.3768	0.15567	0.096639	0.16758	0.32565	0.16747	0.045444	0.24416	0.13226	0.34222	0.25774	0.29073	0.13933	-0.091667	-0.85625	-0.87917	-0.44375	-1.2625	-0.67292	-0.6625	-1.4771	-0.33125	-1.0292	-1.0208	-0.4875	-1.3583	-0.85417	-0.55208	-1.2313	60.795	-96.901	-102.047	150.898	67.577	-6.277	131.398	191.497	190.600	-72.768	111.353	137.899	-124.611	178.816	116.976	201.330	8.7631e-05	0.0015747	0.000108	1308.8	1.4444e-05	1.7058e-05	795.82	418.75	5.5202e-06	1.5853e-05	237.22	80.679	150.9	72.547	1.3485e-05	36.764	0.013322	0.023833	0.006813	1308.9	0.00023515	0.0002709	836.08	423.04	0.00024026	0.00026846	271.31	91.721	156.91	74.051	0.00025347	41.956	204.960	-110.022	-119.331	-116.326	12.316	108.494	-118.194	-110.768	-45.553	46.277	-114.228	-110.239	-105.950	-102.119	-2.761	-106.998	-8191	255	
29022.779	1	1	0	0	0.14708	0.10507	0.26658	0.10665	0.21415	0.24224	0.25759	0.088038	0.11184	0.17615	0.13888	0.12742	0.13903	0.18188	0.052169	0.030738	0.10208	-0.96042	-1.0229	-0.75	-1.2313	-0.70208	-0.57708	-1.4	-0.34792	-0.87708	-1.2792	-0.32083	-1.3438	-1.0042	-0.37083	-1.3396	115.192	220.432	225.060	0.491	144.588	147.593	104.951	154.603	-51.773	-122.711	155.746	31.502	-40.258	-113.144	-55.553	-2.291	0.00024312	0.00061389	0.00017926	1311.5	9.4768e-06	2.9427e-06	799.94	421.45	1.0387e-05	1.5766e-05	236.64	80.11	150.55	72.492	9.9425e-06	36.295	0.013517	0.024051	0.006829	1307.4	0.00023694	0.00027348	839.68	424.69	0.00024211	0.00027478	271.86	91.915	156.99	74.195	0.00025597	41.744	206.784	20.996	18.415	-116.188	154.624	205.175	-118.600	-110.843	-106.826	9.648	-114.255	-110.357	-105.961	-102.127	-47.424	-107.121	-8191	255	
29022.898	1	1	0	0	0.12785	0.29817	0.16439	0.24533	0.17315	0.56832	0.098178	0.70063	0.072506	0.11253	0.12231	0.2416	0.088879	0.38484	0.33404	0.14667	-0.10833	-0.825	-0.88958	-0.51042	-1.2062	-0.86042	-0.62292	-1.5479	-0.68125	-0.73125	-1.1833	-0.40833	-1.3042	-1.1396	-0.24375	-1.3604	-112.340	-73.320	203.810	-118.908	53.963	144.576	116.754	183.863	213.200	35.311	93.050	168.463	219.639	182.727	-109.540	-111.898	0.0001346	0.0013733	0.0002994	1304.6	4.4948e-06	1.2609e-05	793.8	420.05	1.4154e-05	2.0518e-05	237.1	80.389	151.78	73.043	9.4253e-06	36.365	0.01355	0.024181	0.0068576	1302.8	0.00023872	0.00027794	833.09	424.73	0.00024373	0.00027398	271.96	92.007	157.85	74.533	0.00025273	41.823	216.778	-66.937	82.574	-115.973	26.173	-89.398	-117.996	-110.943	-102.526	123.980	-114.476	-110.441	-105.992	-102.224	70.499	-107.069	-8191	255	
29022.996	1	1	0	0	0.19695	0.20234	0.14756	0.31008	0.27109	0.27937	0.13225	0.35577	0.27264	0.14121	0.032267	0.36339	0.22794	0.097214	0.11473	0.17928	-0.29792	-0.4625	-1.3833	-0.57708	-0.79583	-0.87292	-0.51667	-1.5271	-0.69792	-0.49792	-1.425	-0.56042	-1.2667	-1.3229	-0.27083	-1.2771	96.146	-44.141	174.758	226.510	223.465	15.934	-113.738	189.966	58.449	194.258	-104.428	170.482	205.133	129.009	-124.289	88.847	0.00020139	0.0013742	0.00034376	1303.2	4.6609e-06	9.5989e-06	799.76	422.52	3.3675e-06	1.1627e-05	238.97	81.664	153.13	73.45	7.8716e-06	37.052	0.013583	0.024114	0.0067648	1303.7	0.00024061	0.00027507	840.23	426.75	0.00024524	0.00027366	273.51	92.985	159.04	75.089	0.00025461	42.415	219.735	-19.690	-40.413	-115.996	-93.587	130.900	-118.337	-110.667	171.568	4.127	-114.059	-110.511	-105.912	-102.086	-35.758	-107.538	-8191	255	
29023.090	1	1	0	0	0.097499	0.20976	0.040995	0.39588	0.033739	0.1075	0.091713	0.2713	0.2759	0.30909	0.15052	0.30894	0.047699	0.2793	0.11654	0.088014	-0.53958	-0.37917	-1.1646	-0.82917	-0.78542	-1.2958	-0.35208	-1.2104	-0.99583	-0.45625	-1.1313	-0.65208	-0.6875	-1.3021	-0.30833	-1.3271	-13.609	62.858	68.243	136.781	-36.987	-24.055	192.852	-118.822	112.822	-27.614	-53.783	85.522	-110.368	160.930	-55.583	24.977	0.00019283	0.0012655	0.00026575	1309.8	1.7706e-06	1.4178e-05	802.55	423.73	7.9912e-06	1.9066e-05	238.88	81.568	153.55	73.676	9.9272e-06	37.445	0.013765	0.024504	0.0068953	1313.3	0.00024642	0.00027792	844.63	428.57	0.00025073	0.0002789	276.68	94.17	160.22	75.481	0.00026283	42.821	-117.283	6.131	-91.667	-115.939	-80.263	-51.228	-118.078	-110.816	70.274	-24.403	-114.208	-110.526	-105.845	-101.906	-77.322	-107.078	-8191	255	
29023.188	1	1	0	0	0.18051	0.10918	0.15837	0.28047	0.029974	0.24798	0.070556	0.39045	0.25988	0.26873	0.24513	0.095619	0.22556	0.29126	0.13631	0.21157	-0.60208	-0.375	-1.3188	-0.84583	-0.61667	-1.3333	-0.46667	-1.2104	-1.0417	-0.51875	-1.3292	-0.62292	-0.71875	-1.3958	-0.29792	-1.0417	74.454	-64.431	-44.898	215.749	4.124	46.491	188.184	-124.818	36.778	74.059	167.872	105.108	-108.678	221.864	-77.738	231.164	0.00018872	0.0013383	0.00025718	1319.5	6.7768e-06	1.8158e-05	807.73	424.61	1.6746e-05	1.7035e-05	239.91	82.347	153.29	73.457	4.1618e-06	36.778	0.014188	0.025165	0.0070386	1321.2	0.00024991	0.00028231	854.05	429.5	0.00025352	0.00028037	276.35	94.484	160.37	75.299	0.00026488	42.501	-122.219	-69.318	-118.720	-116.092	-24.576	138.890	-118.181	-110.702	88.693	0.400	-114.122	-110.099	-105.932	-101.746	131.629	-106.771	-8191	255	
29023.307	1	1	0	0	0.09535	0.23506	0.39432	0.3487	0.072813	0.12971	0.21083	0.33942	0.20711	0.097768	0.32949	0.22169	0.16535	0.3798	0.21975	0.073062	-0.47917	-0.29375	-1.3229	-0.96458	-0.56458	-1.1833	-0.4375	-1.0729	-0.98542	-0.19583	-1.2604	-0.75417	-0.63125	-1.6083	-0.48125	-0.86042	-3.985	101.921	-22.524	219.814	-80.860	-36.941	165.057	211.949	1.366	147.400	170.201	113.846	186.831	209.360	24.266	38.689	0.00019159	0.0013861	0.00044192	1315.9	1.3966e-05	1.6688e-05	802.29	419.62	1.3079e-05	9.0185e-06	238.35	80.678	152.75	72.807	1.0289e-06	36.514	0.014156	0.025165	0.0072117	1322	0.00025584	0.00028651	848.08	426.33	0.00025649	0.00028275	273.69	93.401	159.33	74.549	0.00026059	41.955	178.626	44.191	-62.303	-115.921	-92.253	47.282	-118.650	-110.553	18.084	21.487	-114.032	-110.298	-105.657	-101.629	-16.226	-106.596	-8191	255	
29023.402	1	1	0	0	0.23647	0.087094	0.10982	0.3199	0.062018	0.23149	0.3461	0.029481	0.1361	0.25569	0.10954	0.28207	0.21791	0.33104	0.22241	0.28549	-0.725	-0.375	-1.0396	-0.975	-0.41875	-1.3708	-0.50208	-1.0083	-1.3229	-0.34375	-1.2563	-1.0896	-0.51042	-1.675	-0.58542	-0.73958	165.604	26.515	-93.323	186.037	-81.494	-80.581	147.935	139.961	139.949	146.398	-54.228	133.661	212.568	209.894	165.448	176.389	0.00010681	0.0014267	0.0001289	1317.6	4.4803e-06	6.2226e-06	808.18	421.81	1.1644e-05	5.4677e-06	236.86	80.804	152.24	73.17	1.4104e-05	37.237	0.013828	0.024506	0.0070389	1318.2	0.00024632	0.00027827	847.32	427.23	0.00024728	0.00027386	273.63	92.991	158.7	74.674	0.00025886	42.195	-62.383	-19.519	223.020	-115.870	-81.993	-125.046	-118.486	-110.322	83.933	-46.407	-113.645	-109.953	-105.782	-101.766	18.612	-107.032	-8191	255	
29023.498	1	1	0	0	0.29167	0.2053	0.17027	0.24831	0.099736	0.13949	0.096635	0.47944	0.1182	0.16595	0.1388	0.28651	0.13362	0.36059	0.27313	0.13318	-0.86458	-0.54792	-1.0521	-1.0354	-0.47292	-1.3312	-0.775	-0.87292	-1.3062	-0.55833	-0.95	-0.97292	-0.54792	-1.4396	-0.70417	-0.62292	150.979	-15.728	229.715	111.861	-128.337	62.270	-1.184	197.090	-5.238	60.767	174.140	212.890	90.470	188.773	-33.595	73.791	0.00025048	0.0017493	0.00046825	1316.4	6.193e-06	1.0297e-05	807.87	423.52	1.0539e-05	8.7604e-06	239.51	82.116	153.42	73.733	1.9605e-06	37.364	0.013482	0.023946	0.0069074	1317.4	0.00023968	0.00027645	849.18	427.47	0.00024058	0.00027137	274.34	93.319	159.44	75.217	0.00025412	42.405	-119.205	-113.875	215.940	-116.012	-64.809	-27.200	-118.164	-110.578	-8.005	192.204	-113.862	-110.121	-105.838	-102.022	143.448	-106.986	-8191	255	
29023.596	1	1	0	0	0.006684	0.20137	0.15891	0.065825	0.046914	0.060521	0.26314	0.22225	0.15945	0.30855	0.038918	0.34153	0.26409	0.32712	0.19553	0.14904	-0.8625	-0.5	-0.89583	-1.1521	-0.28125	-1.2625	-0.925	-0.87917	-1.3104	-0.47917	-0.76042	-1.4396	-0.62917	-1.4021	-0.89167	-0.46667	-22.654	168.181	-114.434	158.128	145.873	33.557	212.220	214.964	200.916	-51.391	180.878	186.816	226.595	196.267	8.004	-23.805	0.0004717	0.00096495	0.00018754	1319.8	5.8978e-06	1.22e-05	812.68	423.99	9.4635e-06	7.1937e-06	240.31	82.184	153.59	73.914	4.6904e-06	37.39	0.013225	0.023714	0.0067851	1318.2	0.00023781	0.00027155	851.71	428.1	0.00023907	0.00027042	276.03	93.71	159.54	75.512	0.00025605	42.56	-127.808	31.477	114.155	-115.763	29.414	51.564	-118.094	-110.865	227.195	87.073	-113.849	-110.228	-105.903	-102.022	13.306	-106.815	-8191	255	
29023.691	1	1	0	0	0.2558	0.16625	0.11426	0.13841	0.20271	0.17029	0.17233	0.3464	0.13497	0.26107	0.13033	0.03497	0.27507	0.17163	0.15537	0.18425	-1.0438	-0.66875	-0.60417	-1.4979	-0.34167	-1.2083	-0.98542	-0.625	-1.5312	-0.58958	-0.76875	-1.4354	-0.40625	-1.2188	-0.9375	-0.39583	212.506	25.021	-95.807	-113.469	121.290	61.564	226.700	189.400	188.151	184.241	-95.333	140.822	221.887	213.132	22.100	106.799	0.00019493	0.0009845	0.00034185	1320.8	2.6217e-06	5.2376e-06	810.61	422.87	3.4563e-06	9.6977e-06	238.81	81.461	152.03	73.478	2.3671e-05	36.824	0.013424	0.02417	0.006884	1319.4	0.00023969	0.00027583	850.87	427.2	0.00024296	0.0002746	272.92	92.685	158.69	74.96	0.00025809	42.121	214.494	-50.684	-65.460	-116.189	216.313	66.536	-118.592	-110.880	158.898	147.315	-113.828	-110.337	-106.020	-102.021	-53.094	-106.763	-8191	255	
29023.787	1	1	0	0	0.15195	0.26482	0.072172	0.27504	0.18977	0.14151	0.088462	0.15607	0.21153	0.15663	0.094148	0.061644	0.34552	0.13444	0.28069	0.15485	-0.725	-0.6125	-0.59792	-1.4854	-0.34583	-1	-1.3458	-0.54792	-1.2854	-0.75208	-0.44167	-1.2188	-0.55	-1.1938	-1.2437	-0.32083	-33.248	62.126	171.036	182.856	17.282	-28.919	21.400	-29.526	108.875	121.762	77.479	53.809	218.479	-115.934	-46.498	54.360	0.00012222	0.0021582	0.00018758	1318.6	8.5823e-06	1.4263e-05	807.8	422.77	1.2213e-05	1.4932e-05	238.12	81.419	153.22	73.839	6.0706e-06	36.978	0.013653	0.02451	0.006899	1315.2	0.00024524	0.00028148	849.13	427.52	0.00024727	0.00027968	273.78	93.236	159.71	75.481	0.00026	42.412	224.596	0.658	-125.099	-116.490	95.313	68.679	-117.943	-110.593	172.869	83.391	-114.092	-110.203	-105.930	-101.851	-0.488	-106.862	-8191	255	
29023.908	1	1	0	0	0.40081	0.15055	0.29551	0.26914	0.2905	0.18574	0.013331	0.057103	0.29201	0.20914	0.2331	0.39159	0.24311	0.3619	0.19013	0.23872	-0.84792	-1.0167	-0.42083	-1.5562	-0.44792	-0.95417	-1.4167	-0.56875	-1.0312	-0.93333	-0.37292	-1.3458	-0.775	-0.87708	-1.2375	-0.54583	-89.861	-16.708	92.152	-117.931	36.159	124.538	-22.805	127.853	-31.855	151.330	166.880	152.187	172.329	228.753	162.209	217.388	0.00019984	0.00027232	0.00065164	1312.4	4.7051e-06	2.5229e-05	816.87	422.03	4.8165e-06	2.0988e-05	240.55	83.151	154.78	74.606	1.9298e-06	37.467	0.013919	0.024789	0.0070345	1319.3	0.00024843	0.0002855	855.62	427.94	0.00025515	0.00028689	276.75	95.481	162.38	76.41	0.00026979	43.289	-89.123	43.985	-62.659	-115.716	225.485	47.610	-118.176	-110.587	-111.723	-58.134	-114.243	-110.246	-106.132	-101.939	170.867	-107.398	-8191	255	
29024.004	1	1	0	0	0.27343	0.13758	0.21507	0.31198	0.17055	0.54949	0.18745	0.21703	0.059281	0.16482	0.2124	0.3089	0.34607	0.2572	0.1887	0.033524	-0.82083	-1.0292	-0.38333	-1.4188	-0.74792	-0.63333	-1.1833	-0.60625	-0.92292	-1.0229	-0.57917	-1.3771	-0.84375	-0.79375	-1.2208	-0.47292	144.367	-50.370	-50.383	171.827	60.084	209.420	-47.522	168.316	-70.667	-40.734	155.263	175.444	221.265	-98.331	-78.959	94.801	0.00026355	0.00090681	0.0004337	1327.6	2.9328e-06	1.1787e-05	828.25	425.04	1.1496e-05	3.5405e-05	243.4	84.625	157.24	75.474	1.3121e-05	38.213	0.014529	0.025992	0.0073343	1333	0.00025969	0.00029538	870.17	430.82	0.00026354	0.00029195	280.16	97.32	164.17	77.175	0.00026905	43.853	202.622	210.504	-28.586	-115.743	-111.072	81.262	-118.033	-110.542	-17.134	136.554	-114.457	-110.406	-106.076	-102.030	-64.144	-107.230	-8191	255	
29024.076	1	1	0	0	0.15565	0.21283	0.30548	0.29878	0.19785	0.045958	0.10904	0.17462	0.13869	0.13764	0.16617	0.043242	0.35383	0.27829	0.33238	0.070587	-0.50417	-1.2479	-0.36042	-1.4562	-0.8875	-0.58125	-1.4813	-0.76667	-0.775	-1.2583	-0.58125	-1.1396	-1.0146	-0.59375	-1.2292	-0.77708	1.773	40.569	184.099	144.062	181.418	201.119	193.656	166.643	167.563	-13.599	-106.843	-118.119	-110.921	-93.357	107.071	230.613	6.1899e-05	0.00098074	0.00049487	1336.5	1.0293e-05	1.4126e-05	827.98	423.81	8.3006e-06	1.6341e-05	240.12	82.932	154.52	73.742	1.141e-05	36.829	0.014535	0.02566	0.0072494	1341.5	0.00026019	0.00029234	872.89	430.86	0.00026375	0.0002915	279.07	96.107	162.78	75.903	0.00027173	42.842	218.190	-22.688	-42.668	-115.740	-52.123	-12.819	-117.944	-110.504	220.598	-53.681	-113.773	-109.850	-105.949	-101.640	-47.164	-106.790	-8191	255	
29024.170	1	1	0	0	0.013892	0.19026	0.052646	0.062005	0.22092	0.26326	0.10409	0.14724	0.10453	0.0063642	0.12719	0.19556	0.32961	0.16223	0.26863	0.086883	-0.23333	-1.3687	-0.25	-1.2042	-0.86667	-0.34167	-1.2042	-0.91875	-0.60833	-1.3333	-0.3125	-1.0167	-1.2083	-0.59167	-1.2958	-0.67708	-34.549	-21.519	102.930	219.726	6.350	-117.707	230.138	171.664	135.104	29.348	-49.009	58.473	221.070	-22.027	-101.243	-101.177	0.00016383	0.00071521	0.00015299	1332.3	1.6169e-05	2.2188e-05	819.5	420.15	2.2541e-06	1.238e-05	237.49	82.234	154.4	73.837	4.1667e-06	36.982	0.014578	0.02536	0.0072601	1336.8	0.00025598	0.00028638	862.34	426.87	0.00025514	0.00028262	274.9	95.09	161.45	75.405	0.00026693	42.536	-105.955	-98.499	-73.158	-115.837	59.803	138.213	-118.306	-110.480	-106.842	27.063	-113.932	-110.074	-106.020	-101.885	-44.780	-106.968	-8191	255	
29024.268	1	1	0	0	0.12793	0.17482	0.16133	0.14711	0.15815	0.131	0.023643	0.19508	0.29844	0.022627	0.079907	0.30252	0.38216	0.16134	0.25795	0.11346	-0.42292	-1.1958	-0.30208	-1.0229	-1.0958	-0.54167	-1.2646	-0.88333	-0.60208	-1.3083	-0.55833	-0.87292	-1.4583	-0.55	-1.1146	-0.91667	143.715	112.074	-102.311	180.422	-113.964	222.097	193.683	186.904	18.362	125.250	-97.703	16.942	-63.203	194.535	164.038	120.459	0.00023724	0.00084608	0.00032899	1331.6	9.2389e-06	1.4639e-05	822.12	422.06	4.827e-06	4.3603e-06	239.66	82.417	155.18	74.581	8.9124e-06	37.307	0.01421	0.025164	0.0072161	1333.8	0.00025306	0.00028868	864.33	427.04	0.00025573	0.00028439	276.35	95.514	162.19	76.188	0.00026745	43.011	-111.706	-70.919	-41.432	-115.841	74.521	92.283	-117.850	-110.808	6.017	-50.858	-114.056	-110.400	-106.111	-101.765	38.503	-106.788	-8191	255	
29024.387	1	1	0	0	0.071973	0.03739	0.28052	0.27109	0.26232	0.1768	0.16337	0.40931	0.09786	0.18379	0.2041	0.19588	0.2739	0.096972	0.22549	0.20216	-0.13542	-1.2	-0.60417	-1	-1.2021	-0.41667	-1.1688	-1.0979	-0.56667	-1.3	-0.75625	-0.87708	-1.2313	-0.69375	-1.0354	-0.92917	-48.002	-103.134	-72.589	203.005	128.628	57.066	-120.078	176.725	-34.334	196.613	98.054	-120.753	-107.791	154.441	-93.126	-123.413	0.0003978	0.0019621	0.00052378	1324.5	6.9886e-06	9.0704e-06	820.11	423.94	8.5538e-06	1.0442e-05	244.71	84.788	157.64	75.593	1.5825e-05	38.428	0.014051	0.025069	0.0072102	1325.9	0.00024888	0.00028437	867.01	429.51	0.00025178	0.0002805	280.09	97.055	163.9	77.294	0.00026567	43.945	-127.036	-96.791	187.736	-115.897	14.264	-3.433	-118.244	-110.544	215.999	-12.047	-113.789	-109.899	-105.847	-101.951	0.326	-107.021	-8191	255	
29024.482	1	1	0	0	0.11108	0.16267	0.087163	0.23914	0.11493	0.068675	0.15602	0.2457	0.077888	0.22239	0.32652	0.11782	0.4465	0.34225	0.082196	0.067443	-0.11667	-1.0604	-0.80417	-1.0312	-1.2833	-0.47083	-1.1771	-1.1896	-0.38958	-1.3083	-0.74792	-0.61875	-1.3188	-0.70208	-0.9875	-1.3208	-38.875	171.142	158.707	181.092	78.524	-104.257	-72.079	135.665	-123.257	158.178	137.141	-73.958	207.614	43.465	145.573	80.831	0.00022297	0.0010927	0.00044852	1323.1	3.432e-06	4.5465e-06	839.81	427.02	8.8583e-06	1.5026e-05	245.53	85.594	158.05	75.78	8.8346e-06	38.194	0.014045	0.024977	0.0072014	1329.3	0.00025069	0.0002903	884.03	433.52	0.00025967	0.00029494	284.93	98.248	165.09	77.647	0.00027376	43.919	-122.099	210.662	-35.327	-115.759	-53.612	49.885	-117.996	-110.614	102.333	128.140	-114.067	-110.142	-105.684	-102.009	-42.257	-107.001	-8191	255	
29024.578	1	1	0	0	0.13247	0.22758	0.072275	0.41429	0.34951	0.074987	0.02711	0.22322	0.20355	0.029398	0.048719	0.13131	0.24688	0.054167	0.13946	0.32234	-0.058333	-1.2729	-0.72917	-0.72917	-1.4146	-0.65	-1.0292	-1.4188	-0.4	-1.1521	-0.88958	-0.59792	-1.5833	-0.72083	-0.77708	-1.3875	196.659	152.207	-18.717	200.173	-4.019	219.971	188.056	119.293	90.387	132.247	125.006	47.587	-25.764	-43.038	48.955	-64.590	0.00020812	0.0004042	0.00046043	1322.8	1.4749e-05	1.3821e-05	832.28	425.91	9.6608e-06	1.6508e-05	246.75	84.6	158.11	76.429	9.7767e-06	38.291	0.014291	0.02566	0.0072725	1330	0.00025034	0.0002903	875.96	432.26	0.00025726	0.00029066	283.11	97.327	165.14	77.92	0.00027168	43.817	-94.260	-38.798	-115.876	-115.855	109.420	-100.625	-118.105	-110.357	83.130	-73.530	-114.190	-109.746	-105.933	-101.795	12.844	-106.704	-8191	255	
29024.699	1	1	0	0	0.19909	0.051585	0.16949	0.33519	0.27591	0.065168	0.034086	0.20788	0.17694	0.1698	0.23659	0.23656	0.042515	0.24679	0.2918	0.21752	-0.091667	-1.175	-0.9	-0.56458	-1.3583	-0.82917	-0.8	-1.425	-0.30833	-1.0021	-1.05	-0.47917	-1.5479	-0.88542	-0.66667	-1.2583	3.996	-4.626	-38.965	195.234	199.990	217.605	166.623	-120.505	223.546	56.488	173.872	20.679	134.194	191.561	231.137	192.040	0.00020967	0.0021256	0.00037327	1327.9	7.6303e-06	5.4698e-06	834.37	428.76	9.9739e-06	2.8224e-05	248.57	85.494	158.91	76.373	1.3312e-05	38.798	0.014287	0.025622	0.007265	1332	0.00025375	0.00029348	879.03	434.55	0.00025643	0.00028998	284.65	97.448	165.88	78.067	0.00026897	44.009	215.348	-95.599	-26.341	-115.553	17.178	94.251	-118.007	-110.458	5.709	-100.642	-113.921	-110.091	-105.682	-101.868	-86.402	-107.381	-8191	255	
29024.771	1	1	0	0	0.167	0.13251	0.2106	0.2171	0.29663	0.11894	0.1959	0.32785	0.09585	0.25687	0.15614	0.31241	0.17939	0.36076	0.098495	0.29324	-0.072917	-1.1604	-1.2104	-0.70417	-1.3271	-0.61875	-0.91042	-1.7458	-0.46042	-0.87292	-1.275	-0.53958	-1.3229	-1.2542	-0.63958	-1.5729	225.321	87.611	-32.773	193.586	22.199	161.783	-87.317	-114.018	-48.201	129.500	-51.104	196.696	152.055	211.996	-44.174	47.028	0.00033131	0.0012737	0.00034503	1337.1	4.8746e-06	1.7396e-05	846.77	429.44	3.0806e-06	1.916e-05	247.41	85.238	158.28	76.138	1.1871e-05	38.466	0.014225	0.0257	0.007236	1340.6	0.00025557	0.00029449	886.96	436.39	0.00026079	0.0002943	285.06	97.7	165.68	77.981	0.00027169	44.105	230.795	-94.630	-45.324	-115.725	-1.592	-30.898	-117.753	-110.696	162.065	60.515	-113.989	-109.947	-105.790	-101.715	51.857	-106.709	-8191	255	
29024.867	1	1	0	0	0.098649	0.040479	0.22802	0.17262	0.20292	0.33211	0.10062	0.28434	0.10011	0.21316	0.18561	0.2532	0.17281	0.18108	0.23036	0.14272	-0.23333	-0.65	-1.1542	-0.525	-1.3625	-1.1271	-0.66458	-1.7021	-0.50833	-0.81458	-1.4333	-0.27083	-1.3042	-1.3062	-0.43542	-1.4708	159.943	38.319	151.651	220.196	151.970	-80.843	15.829	156.898	-32.337	136.107	-103.821	-61.791	227.172	196.425	-98.441	25.052	0.00018192	0.0015048	0.00062699	1348	1.4407e-05	9.5936e-06	850.21	429.54	2.7227e-06	9.2896e-06	250.64	85.753	158.26	75.768	6.1932e-06	38.155	0.014576	0.025845	0.007239	1349.7	0.00025818	0.00029591	889.77	436.6	0.00025672	0.00028704	284.42	97.272	164.88	77.399	0.00026034	43.57	187.201	3.353	159.694	-115.571	36.792	-51.717	-117.797	-110.520	-1.273	31.826	-113.521	-109.906	-105.840	-101.614	209.863	-106.284	-8191	255	
29024.988	1	1	0	0	0.16206	0.37435	0.13755	0.35458	0.22073	0.17091	0.2344	0.38351	0.15092	0.09986	0.23507	0.4068	0.16714	0.16028	0.24971	0.21122	-0.29167	-0.7375	-1.2875	-0.68125	-1.0562	-1.0042	-0.57083	-1.4813	-0.7625	-0.50625	-1.3396	-0.42708	-0.7875	-1.3208	-0.24583	-1.3563	-99.254	122.170	225.551	199.937	113.908	177.205	166.812	151.481	165.280	-102.158	60.020	-60.710	224.963	119.583	5.464	174.328	0.0003518	0.00064745	0.00034463	1341.3	6.4593e-06	9.7256e-06	838.39	428.34	2.7282e-06	1.7366e-05	243.3	84.162	157.36	75.283	9.2301e-06	37.295	0.013985	0.024747	0.0069486	1341.5	0.0002483	0.00028029	878.97	433.08	0.00025273	0.00027816	278.52	95.777	163.11	76.612	0.00025571	42.902	198.913	20.511	119.000	-115.717	-96.825	133.195	-118.241	-110.416	-81.569	48.685	-114.144	-110.197	-105.727	-101.757	49.779	-106.987	-8191	255	
29025.082	1	1	0	0	0.27863	0.090367	0.078146	0.23068	0.04998	0.027517	0.25842	0.18818	0.032604	0.11273	0.34191	0.18713	0.033618	0.20743	0.1689	0.21938	-0.57708	-0.41042	-1.2458	-0.6125	-0.86875	-1.1938	-0.50833	-1.3312	-0.80208	-0.53125	-1.3687	-0.57708	-0.9	-1.3042	-0.30208	-1.0063	5.211	160.950	-96.115	-86.586	-103.953	181.170	174.676	-117.747	11.332	180.241	210.189	174.937	-87.990	-124.890	157.486	181.784	0.0001265	0.00087775	0.0001554	1337	1.6003e-05	7.1915e-06	831.96	429.37	1.0802e-05	1.4006e-05	244.69	84.082	157.26	75.019	1.1331e-05	37.324	0.013614	0.023921	0.0067906	1333.1	0.00024213	0.00027223	872.77	433.75	0.00024508	0.0002704	279.17	95.178	162.96	76.584	0.00025073	42.743	211.981	-84.542	85.657	-115.669	52.484	-70.282	-117.933	-110.522	-104.629	29.843	-113.445	-110.451	-105.721	-101.736	-23.288	-106.857	-8191	255	
29025.182	1	1	0	0	0.20356	0.15797	0.092082	0.10997	0.057676	0.13382	0.21645	0.30262	0.085557	0.1352	0.21563	0.25924	0.13525	0.32382	0.27197	0.15306	-0.5625	-0.41667	-1.2542	-0.975	-0.66458	-1.3146	-0.67292	-1.1292	-1.0375	-0.41667	-1.4354	-0.87292	-1.0479	-1.5292	-0.53333	-1.0938	120.606	53.630	-1.779	166.338	-52.137	1.945	158.567	215.669	41.708	-62.007	201.334	222.112	217.590	153.804	157.865	-53.497	0.0001171	0.0016829	0.00023198	1336.2	8.2668e-06	1.1178e-05	840.01	429.85	5.4121e-06	6.7125e-06	245.87	83.803	157.34	75.848	1.2465e-05	37.878	0.01339	0.023511	0.0067618	1332.9	0.00023734	0.00026595	875.86	433.39	0.00023335	0.00026074	278.91	94.972	162.83	76.712	0.00024446	42.922	207.705	-66.603	-77.600	-115.705	79.588	59.131	-118.127	-110.284	-90.743	-65.286	-113.772	-110.140	-105.370	-101.775	-36.434	-106.775	-8191	255	
29025.301	1	1	0	0	0.325	0.18729	0.045466	0.32088	0.32621	0.18375	0.033985	0.14928	0.04788	0.1007	0.086568	0.17301	0.1404	0.23715	0.14505	0.092145	-0.67083	-0.25625	-1.1187	-0.8875	-0.66458	-1.4646	-0.71875	-1.2479	-1.1375	-0.65625	-1.2271	-0.99167	-0.82292	-1.5875	-0.4625	-0.92917	-56.484	85.281	105.608	181.228	-66.254	-63.468	32.657	-81.361	-126.846	33.854	-5.093	210.829	201.903	202.404	150.997	41.905	0.00030424	0.00032104	0.00047803	1335.5	6.4232e-06	5.6049e-06	847.13	433.91	1.154e-05	1.6072e-05	250.27	85.53	159	76.77	2.406e-06	38.978	0.012826	0.022839	0.0065807	1332	0.00022943	0.00026189	878.48	436.28	0.00023358	0.00026269	282.49	96.811	164.01	77.678	0.00024434	43.65	231.264	-39.837	-11.892	-115.452	47.011	-75.766	-117.660	-110.237	-25.173	62.039	-113.691	-109.687	-105.598	-101.682	142.119	-106.312	-8191	255	
29025.371	1	1	0	0	0.27596	0.13126	0.16701	0.24566	0.21438	0.12491	0.059039	0.32207	0.15636	0.18002	0.28656	0.14587	0.21845	0.13206	0.032456	0.13307	-0.86458	-0.2875	-0.92292	-0.99375	-0.30208	-1.3813	-0.79583	-1.1167	-1.2458	-0.41042	-1.2104	-1.1021	-0.35417	-1.6583	-0.59583	-0.72292	0.527	20.025	131.329	206.522	149.633	0.571	-115.968	206.726	-104.650	-30.052	215.944	-109.139	189.533	-125.545	7.159	64.680	0.00010675	0.0013231	0.00051856	1338.4	1.0585e-05	1.0588e-05	839.24	436.43	1.1719e-05	2.8996e-06	250.13	85.241	158.62	76.26	7.4642e-06	38.492	0.012882	0.022839	0.0065021	1330.5	0.00022769	0.00025902	875.47	436.61	0.00023046	0.00025867	281.21	95.55	163.28	77.357	0.00024355	43.173	193.555	-16.368	-77.268	-115.765	37.499	-41.751	-117.812	-110.311	-70.294	-108.303	-113.853	-109.867	-105.798	-101.703	33.616	-106.891	-8191	255	
29025.467	1	1	0	0	0.45955	0.2159	0.3379	0.31592	0.1833	0.17359	0.28448	0.27964	0.05969	0.11429	0.21223	0.16263	0.39322	0.41184	0.039551	0.16251	-0.96042	-0.52083	-1.0896	-1.2292	-0.27083	-1.2938	-0.8875	-0.85833	-1.325	-0.63333	-0.86875	-1.2917	-0.39375	-1.3062	-0.90417	-0.58958	-17.848	79.502	-116.316	187.800	15.179	65.683	102.501	166.741	12.818	-69.759	-88.999	-122.413	-83.567	-113.973	199.307	101.859	0.00020273	0.0013316	0.0002417	1332.3	5.6783e-06	1.216e-05	837.79	436.38	9.4091e-06	4.3906e-06	250.43	84.71	157.9	76.602	1.9311e-05	38.67	0.012715	0.02298	0.0065396	1325.8	0.00022722	0.00026056	872.89	436.7	0.00023068	0.00026077	281.91	95.444	163.01	77.726	0.00024319	43.206	-121.637	-75.490	78.265	-115.729	14.448	-100.558	-118.047	-110.207	111.229	81.709	-113.979	-110.139	-105.614	-101.562	9.099	-106.703	-8191	255	
29025.588	1	1	0	0	0.23376	0.14487	0.27847	0.25545	0.05292	0.28144	0.17338	0.34593	0.047071	0.26286	0.045194	0.21659	0.32999	0.16459	0.28433	0.15682	-0.90833	-0.50417	-0.87708	-1.3833	-0.29167	-1.1917	-1.0646	-0.65	-1.2333	-0.65417	-0.96875	-1.2604	-0.5125	-1.4625	-0.8875	-0.66458	-67.351	75.380	72.506	-111.528	-29.824	-114.995	87.079	223.004	103.368	-94.846	-122.893	231.221	-85.263	-46.995	-21.083	189.223	0.00024988	0.0017491	0.00012933	1335.5	9.438e-06	1.058e-05	839.91	437.94	1.7096e-06	5.2196e-06	253.42	85.152	159.23	77.181	4.7091e-06	39.099	0.012682	0.022935	0.0064642	1327	0.0002255	0.00025883	875.45	438.96	0.00022921	0.00025679	284.06	96.021	164.58	78.307	0.00024149	43.755	-90.272	-17.115	-85.592	-115.493	108.676	34.532	-117.581	-109.934	198.238	100.007	-114.099	-109.397	-105.452	-101.642	225.159	-106.691	-8191	255	
29025.684	1	1	0	0	0.075553	0.23616	0.11504	0.27561	0.23203	0.31141	0.29505	0.19317	0.21438	0.39389	0.23561	0.18721	0.31712	0.27721	0.18921	0.20662	-0.96458	-0.43125	-0.71042	-1.4354	-0.50208	-0.925	-1.1729	-0.43542	-1.3813	-0.7	-0.7	-1.3312	-0.46458	-1.2583	-1.0562	-0.36875	-99.641	55.020	-57.417	170.430	-78.896	111.833	148.546	158.142	102.216	200.634	138.612	147.290	217.456	-90.105	177.877	93.912	0.00015783	0.00024253	0.00039214	1337.6	1.1839e-05	1.4629e-05	846.13	439.79	7.3357e-06	1.4051e-05	253.07	86.385	159.89	77.526	1.5126e-05	39.528	0.012678	0.023034	0.0064811	1330.3	0.0002291	0.00026207	880.88	440.6	0.00023404	0.00026175	285.79	97.09	165.09	78.797	0.0002451	44.266	174.511	23.425	-34.137	-115.557	24.194	2.276	-117.655	-110.196	162.459	150.685	-113.982	-109.786	-105.973	-101.653	-4.117	-107.183	-8191	255	
29025.779	1	1	0	0	0.099392	0.20352	0.14402	0.13764	0.38541	0.42482	0.070075	0.085877	0.20954	0.24292	0.09077	0.17195	0.27437	0.29067	0.29168	0.34567	-0.84792	-0.71667	-0.46875	-1.4354	-0.63542	-0.85833	-1.2313	-0.63125	-1.2104	-0.83958	-0.53542	-1.4979	-0.65208	-0.94167	-1.2292	-0.39583	-118.792	65.650	-38.208	141.205	1.269	198.393	-126.344	-82.003	205.565	88.682	77.205	216.295	-114.800	174.021	-12.929	173.281	0.00018396	0.0034226	0.00039483	1344.8	4.8783e-06	9.4561e-06	856.89	438.96	7.3052e-06	1.8975e-05	253.45	86.238	158.83	76.896	3.043e-06	38.441	0.013192	0.023557	0.0065952	1337.7	0.00023497	0.00026925	888.12	441.4	0.00024066	0.00027081	285.25	97.031	164.97	78.11	0.00024973	43.438	-119.066	-31.867	2.374	-115.497	-56.809	-24.284	-117.858	-109.954	108.075	-24.094	-114.007	-109.605	-105.848	-101.705	-33.754	-106.902	-8191	255	
29025.877	1	1	0	0	0.21414	0.28725	0.11996	0.20895	0.20443	0.10525	0.17635	0.19667	0.18763	0.15442	0.20496	0.2546	0.46947	0.43151	0.095077	0.12471	-0.68333	-0.97708	-0.45625	-1.525	-0.6	-0.76875	-1.3917	-0.7375	-1.2417	-0.99583	-0.42083	-1.3312	-0.85	-0.79167	-1.2333	-0.54583	-83.479	7.177	97.762	169.108	11.094	162.403	15.808	185.475	-106.322	-16.305	21.434	-114.477	175.389	182.379	-33.612	-55.387	0.00043427	0.00038353	0.00021037	1343.9	5.8947e-06	9.6187e-06	843.78	434.44	5.6943e-06	1.356e-05	250.18	85.296	158.96	76.802	1.3416e-05	38.285	0.013341	0.023546	0.0066064	1339.5	0.0002348	0.0002659	877.08	437.4	0.00023674	0.00026167	281.49	95.914	163.56	77.553	0.0002414	43.203	224.895	1.549	24.777	-115.543	-9.914	-17.931	-117.479	-110.098	-12.502	-14.539	-113.297	-109.376	-105.389	-101.378	-34.228	-106.561	-8191	255	
29025.947	1	1	0	0	0.10931	0.30648	0.16405	0.1909	0.11252	0.14475	0.19985	0.22177	0.1193	0.21446	0.22549	0.20264	0.067066	0.17111	0.070177	0.23935	-0.74375	-1.1833	-0.17708	-1.4813	-0.71458	-0.56875	-1.3917	-0.45	-0.87083	-1.125	-0.58958	-1.2833	-0.86042	-0.64792	-1.3417	-0.5875	210.861	155.315	-63.729	-82.841	-92.832	-56.990	19.748	135.567	-80.612	107.239	133.100	-86.784	145.213	210.295	124.654	227.652	0.00030684	0.00092111	0.00019791	1350.6	1.2954e-05	1.2873e-05	850.03	436.88	3.4912e-06	3.0153e-06	250.58	85.2	158.66	76.783	6.8117e-06	38.534	0.012955	0.022661	0.0063677	1340.2	0.00023041	0.0002578	878.91	438.13	0.00023181	0.00025556	280.84	95.574	163.78	77.593	0.00023965	43.215	205.588	16.620	99.150	-115.266	-83.609	64.773	-117.745	-110.328	-52.085	159.783	-113.836	-109.803	-105.413	-101.628	-87.697	-106.472	-8191	255	
29026.068	1	1	0	0	0.28233	0.091833	0.20731	0.14715	0.16159	0.21069	0.054728	0.25544	0.063601	0.1174	0.22898	0.010961	0.2306	0.48672	0.21131	0.22525	-0.66875	-1.0396	-0.35625	-1.225	-0.98542	-0.56875	-1.425	-0.77917	-0.94583	-1.175	-0.36458	-1.1875	-1.0979	-0.67917	-1.4583	-0.69375	-18.635	166.611	86.455	199.478	-9.353	-75.656	136.990	213.270	76.876	135.298	-73.309	-97.465	144.176	-104.502	-83.595	149.082	0.00024581	0.00064712	0.00033262	1343.3	6.6441e-06	1.9404e-05	853.95	437.21	1.2199e-05	1.0413e-05	252.25	85.901	158.7	76.804	2.1977e-06	38.804	0.012679	0.022498	0.0064228	1339.6	0.00022889	0.00025715	883.47	438.81	0.00022985	0.00025499	283.42	96.423	163.5	77.716	0.00024013	43.533	229.816	154.889	48.987	-115.387	2.287	18.511	-117.483	-110.101	42.030	-59.569	-113.025	-109.304	-105.475	-101.439	-13.870	-106.287	-8191	255	
29026.162	1	1	0	0	0.23947	0.17287	0.1791	0.32863	0.12476	0.068317	0.048953	0.3264	0.069957	0.12447	0.27802	0.10369	0.17406	0.3338	0.13904	0.049114	-0.25417	-1.2437	-0.27917	-1.2812	-1.0917	-0.53333	-1.4438	-0.84167	-0.5875	-1.325	-0.5875	-0.95	-1.1021	-0.92292	-1.2062	-0.97083	172.775	20.447	-8.947	213.771	109.150	70.810	178.373	204.439	131.206	213.325	1.016	44.176	143.789	185.557	2.393	229.499	0.00022805	0.00099404	0.00014035	1351.3	8.0974e-06	2.0982e-05	854.59	437.28	9.4155e-06	1.4574e-05	252.47	86.626	158.76	76.825	5.1166e-07	38.66	0.012743	0.022487	0.0064755	1342.9	0.00022824	0.0002579	886.87	439.6	0.00023068	0.00025603	284.79	96.763	164.04	77.805	0.0002409	43.497	213.816	229.638	113.237	-115.280	-5.184	25.563	-117.014	-110.001	-59.168	22.988	-113.449	-108.987	-105.169	-101.423	170.898	-106.551	-8191	255	
29026.262	1	1	0	0	0.28848	0.21488	0.1826	0.22591	0.25454	0.26949	0.08404	0.3069	0.16422	0.10029	0.096558	0.21789	0.45558	0.16046	0.20386	0.12657	-0.40417	-1.2854	-0.47917	-1.1521	-1.2042	-0.53958	-1.4875	-0.95208	-0.42292	-1.2458	-0.57083	-0.8875	-1.1938	-0.5625	-1.0812	-0.92917	-75.544	182.820	-115.345	-56.112	-89.118	110.660	202.526	218.546	-11.554	-120.786	43.229	179.367	-93.468	-94.986	107.305	216.817	0.00026689	0.0012521	0.00023822	1346.4	8.3318e-06	3.4659e-06	843.8	435.78	1.1351e-05	8.4851e-06	251.34	85.692	159.27	76.486	6.979e-06	38.525	0.012754	0.022729	0.006485	1337.7	0.00022526	0.00025838	880.96	438.02	0.00022738	0.00025288	281.59	95.843	163.65	77.51	0.00023915	43.313	-115.677	181.742	-28.910	-115.274	80.089	-35.752	-117.423	-109.939	-59.417	-75.867	-113.419	-109.678	-105.735	-101.465	129.674	-106.277	-8191	255	
29026.381	1	1	0	0	0.14049	0.10084	0.036462	0.067222	0.018145	0.096242	0.333	0.27247	0.097924	0.12145	0.10585	0.19908	0.22619	0.46458	0.18299	0.11576	-0.13125	-1.2875	-0.53125	-1.0333	-1.3937	-0.53958	-1.3729	-1.275	-0.43125	-1.4521	-0.72083	-0.61667	-1.3542	-0.46875	-1.1063	-1.2042	-77.364	-92.303	-34.763	-89.727	-83.695	188.110	104.243	133.867	-58.376	-16.365	-24.602	231.137	186.533	224.354	98.666	212.764	0.00011695	0.00060962	0.00029435	1344.4	5.7557e-06	1.0292e-05	847.09	438.68	4.0394e-06	1.1384e-05	251.39	86.426	160.26	77.206	1.638e-05	38.924	0.01259	0.022509	0.0064561	1337.9	0.00022507	0.00025932	882.3	439.63	0.0002274	0.00025898	284.36	96.714	164.58	78.176	0.00024408	43.602	196.289	76.405	-27.077	-115.104	-44.133	-66.803	-117.236	-110.348	-20.071	169.802	-113.327	-109.861	-105.543	-101.391	18.195	-106.765	-8191	255	
29026.477	1	1	0	0	0.41561	0.061985	0.12437	0.20511	0.16559	0.078543	0.065403	0.15365	0.18981	0.34444	0.34124	0.37048	0.069795	0.22575	0.10848	0.10438	-0.05	-1.2271	-0.68333	-0.93542	-1.3188	-0.41458	-1.2	-1.2292	-0.51667	-1.1917	-0.76458	-0.6625	-1.4958	-0.73125	-0.86042	-1.1729	209.579	-49.742	52.238	202.321	146.138	-120.914	-84.676	98.538	-125.034	-83.801	226.419	209.811	152.468	222.294	44.160	23.481	0.00025153	4.0317e-05	0.00014129	1348.7	1.5989e-05	1.6897e-05	852.4	438.55	6.5448e-06	1.8236e-05	254.81	88.042	161.15	77.65	1.6621e-05	39.572	0.01286	0.023179	0.0065951	1341.3	0.00022888	0.00026496	887.03	440.62	0.00023406	0.00026188	286.78	97.821	166.15	78.897	0.00024694	44.408	221.844	-45.336	7.645	-115.116	-44.522	-72.982	-117.182	-109.927	48.619	39.571	-113.324	-108.966	-105.023	-101.165	18.362	-106.298	-8191	255	
29026.572	1	1	0	0	0.16845	0.17177	0.37961	0.32872	0.3478	0.20667	0.16948	0.38956	0.391	0.1031	0.22212	0.027294	0.4129	0.34981	0.028827	0.2102	-0.15833	-1.125	-0.80208	-0.7375	-1.3521	-0.5625	-1.0604	-1.6833	-0.46875	-1.1146	-1.2437	-0.56667	-1.3937	-0.85	-1.0375	-1.3563	34.407	231.100	98.600	189.899	71.472	-64.954	99.841	146.370	-80.880	104.197	-126.342	40.468	223.999	-98.555	204.623	-121.549	0.0001915	0.00098862	7.6968e-05	1343.9	1.1317e-05	6.0535e-06	865.39	438.96	3.8131e-06	1.7638e-05	260.17	89.292	162.2	78.698	4.2281e-06	39.883	0.013103	0.023714	0.0067281	1340.7	0.0002354	0.00027093	896.03	443.14	0.00024048	0.00027243	291.74	99.53	167.72	79.824	0.0002592	44.959	218.672	-91.426	67.122	-115.009	-10.138	-32.669	-117.380	-109.965	209.992	156.673	-113.395	-109.612	-105.247	-101.327	117.134	-106.077	-8191	255	
29026.668	1	1	0	0	0.20451	0.35198	0.21832	0.2594	0.15694	0.23817	0.1069	0.33256	0.11058	0.072426	0.26909	0.18898	0.2668	0.085492	0.050012	0.030076	-0.23125	-1.0354	-1.075	-0.55625	-1.2354	-0.60625	-0.76875	-1.3667	-0.53542	-1.0417	-1.1042	-0.47917	-1.375	-1.125	-0.67917	-1.4188	117.544	23.071	-13.007	139.135	-101.751	78.120	223.891	142.580	123.279	-5.488	182.671	165.482	224.032	94.150	169.141	-9.859	0.00021974	0.0015852	0.00019935	1347.6	7.8702e-06	1.7181e-05	851.18	435.61	6.1978e-06	7.2591e-06	251.84	86.762	160.9	77.515	1.0166e-05	38.885	0.013866	0.024953	0.0070094	1344.5	0.00024955	0.00028781	894.22	440.95	0.00025403	0.00028188	287.25	98.302	166.8	78.781	0.00025928	44.044	-119.123	-46.809	-112.550	-115.212	194.913	91.896	-117.345	-109.760	-34.914	-65.337	-113.684	-109.017	-105.208	-101.175	33.530	-106.419	-8191	255	
29026.766	1	1	0	0	0.35041	0.26369	0.22155	0.23106	0.12712	0.078038	0.13614	0.23928	0.12858	0.1619	0.31488	0.11256	0.047209	0.25487	0.086914	0.11951	-0.24167	-1.0542	-1.3062	-0.5875	-1.3333	-0.99583	-0.78125	-1.6167	-0.45833	-0.9375	-1.2583	-0.47708	-1.2708	-1.2375	-0.59167	-1.2833	110.361	-80.204	45.223	205.409	176.052	219.577	224.716	193.224	0.349	115.458	168.440	216.529	156.158	202.138	207.069	-5.245	9.8356e-05	0.00075365	0.00025695	1341.4	3.6411e-06	6.9007e-06	855.16	435.01	7.674e-06	2.1579e-05	252.92	85.725	159.4	77.013	1.3848e-05	38.919	0.013801	0.024507	0.0068672	1341.6	0.00024413	0.00027841	890.54	440	0.00024857	0.00027386	285.8	97.2	165.79	78.256	0.00025233	43.866	155.944	-94.308	-122.588	-115.128	202.605	-78.545	-117.254	-109.668	-50.654	-51.345	-113.947	-109.394	-105.212	-101.410	220.931	-106.181	-8191	255	
29026.861	1	1	0	0	0.21974	0.28512	0.16539	0.05454	0.44942	0.1346	0.21012	0.1614	0.094377	0.13118	0.14279	0.087468	0.2873	0.2433	0.14132	0.19899	-0.35625	-0.92083	-1.2938	-0.72083	-1.2354	-1.0042	-0.5625	-1.3833	-0.77708	-0.72708	-1.4146	-0.50833	-1.3083	-1.2812	-0.53125	-1.2146	-93.986	217.588	-48.049	-94.305	-9.794	172.964	171.193	163.967	-101.180	-68.690	140.727	73.151	207.824	155.479	-17.820	-68.683	0.00036411	0.0010649	0.00032442	1342.3	2.1924e-06	1.7908e-05	860.16	434.8	1.079e-05	1.442e-05	251.25	86.38	159.25	76.851	7.5664e-06	38.767	0.013517	0.023868	0.0067273	1341.5	0.00023799	0.00026763	889.92	438.58	0.00023911	0.00026366	283.63	97.205	164.88	78.13	0.00024603	43.724	-117.513	-74.808	-72.948	-115.037	-53.953	-53.553	-117.308	-109.657	85.411	103.026	-113.278	-108.899	-105.243	-101.301	1.752	-106.140	-8191	255	
29026.980	1	1	0	0	0.2136	0.088346	0.22314	0.21249	0.045348	0.12902	0.066851	0.3683	0.037743	0.15485	0.30025	0.32474	0.48391	0.43881	0.060477	0.14991	-0.32292	-0.42917	-1.3917	-0.62917	-1.0854	-1.2417	-0.62292	-1.5438	-0.68333	-0.7375	-1.4979	-0.57083	-1.1208	-1.2729	-0.48542	-1.4917	127.830	195.550	-54.790	200.866	99.985	213.775	56.260	220.925	208.037	-3.078	-100.750	186.466	-112.080	211.230	-121.437	157.332	0.00022822	0.0018119	0.00023621	1347.8	1.3639e-05	2.0949e-06	856.68	435.84	6.3329e-06	6.0425e-06	254.09	86.749	159.96	77.344	1.6127e-05	39.254	0.013301	0.023354	0.0066175	1341.9	0.00023672	0.00026593	891.56	440.24	0.00023959	0.00026303	285.96	97.628	165.75	78.362	0.00024729	44.414	194.452	-53.385	44.741	-114.940	-21.753	34.677	-117.449	-109.638	-58.982	69.815	-113.109	-109.419	-104.800	-100.983	-91.895	-106.488	-8191	255	
29027.078	1	1	0	0	0.13029	0.054749	0.12611	0.17461	0.16305	0.28588	0.13877	0.10581	0.10005	0.12759	0.21648	0.118	0.13518	0.051417	0.26873	0.031657	-0.50208	-0.63333	-1.3687	-0.90625	-0.87083	-1.4167	-0.47917	-1.5792	-0.81042	-0.48333	-1.4688	-0.66042	-0.94583	-1.3979	-0.16667	-1.3083	152.347	192.234	206.487	208.903	112.951	226.681	-115.591	192.035	129.115	-65.904	224.927	-17.823	209.848	-90.025	6.687	209.827	0.00026684	0.0010612	0.00036823	1337.5	1.3695e-05	3.5276e-06	849.52	438.77	8.5533e-06	1.0239e-05	256.03	86.565	160.9	77.778	1.2528e-05	39.326	0.013264	0.023498	0.0067171	1338.2	0.00023692	0.00027176	889.26	442.5	0.00024187	0.00026975	288.58	98.05	166.66	79.053	0.0002573	44.567	214.716	-54.647	105.970	-115.020	-44.316	-8.581	-116.788	-109.695	-106.838	125.446	-113.154	-109.605	-105.082	-101.293	-4.997	-105.953	-8191	255	
29027.172	1	1	0	0	0.18394	0.17301	0.25841	0.36841	0.17623	0.25574	0.30587	0.17155	0.11682	0.0079031	0.059664	0.27851	0.16228	0.17655	0.39411	0.25755	-0.84167	-0.41458	-1.3521	-0.86458	-0.70833	-1.4396	-0.57083	-1.4292	-1.1313	-0.44792	-1.3917	-0.8875	-0.8375	-1.6229	-0.54792	-1.0417	37.421	-72.289	178.366	154.303	141.097	158.596	169.118	211.829	-68.178	-110.615	37.386	176.006	173.026	197.577	171.301	-109.964	0.00021568	0.0015269	0.00042248	1330.2	1.3887e-05	1.7833e-05	847.4	439.61	3.6516e-06	1.1554e-05	251.41	86.901	160.86	77.94	9.2799e-06	38.905	0.013616	0.023909	0.0068794	1331.2	0.00024055	0.00027322	885.32	443.35	0.00024593	0.00027419	289.31	98.224	166.79	79.139	0.00026366	44.407	-85.385	-69.055	0.197	-115.016	12.252	-42.558	-117.050	-109.777	115.176	-30.726	-113.209	-109.235	-104.882	-100.759	-34.051	-105.909	-8191	255	
29027.244	1	1	0	0	0.2538	0.091077	0.068091	0.21857	0.20284	0.096253	0.21859	0.12736	0.25877	0.23828	0.26561	0.034703	0.2821	0.17473	0.11653	0.12563	-0.84792	-0.48333	-1.2375	-0.82917	-0.525	-1.3042	-0.55417	-1.1125	-1.3729	-0.3625	-1.3563	-1.0958	-0.72083	-1.7396	-0.71875	-0.94583	78.088	5.420	-43.614	142.454	123.298	109.187	131.499	179.125	-63.657	-56.346	82.094	67.102	-106.287	185.194	76.007	123.674	0.00029595	0.0009801	0.00043974	1323.2	8.288e-06	8.3969e-06	848.38	441.16	2.2317e-06	3.7607e-05	257.54	87.124	161.31	78.479	1.595e-05	39.668	0.013755	0.024565	0.0070353	1328	0.00024336	0.00027525	887.93	443.95	0.00024543	0.00027529	291.55	98.948	167.16	79.688	0.00026164	44.894	-116.289	37.262	-62.463	-114.658	-95.262	130.999	-117.466	-109.348	-77.365	26.856	-113.078	-109.235	-105.017	-101.085	68.805	-106.051	-8191	255	
29027.363	1	1	0	0	0.13046	0.12116	0.085535	0.10264	0.16727	0.22617	0.49658	0.24719	0.069777	0.10716	0.1292	0.24171	0.16046	0.26844	0.18098	0.12421	-1.1708	-0.33958	-1.1562	-1.1292	-0.35208	-1.3583	-0.81667	-1.1646	-1.3563	-0.64792	-1.2542	-1.2292	-0.49583	-1.5063	-0.62292	-0.85833	-93.220	-14.046	-44.469	0.087	124.470	51.155	135.208	177.654	175.729	21.204	228.334	194.714	-82.285	157.193	140.713	231.662	0.00014014	0.00058293	0.00040906	1332.6	4.3086e-06	1.6538e-05	856.37	440.96	3.9007e-06	1.3721e-05	256.68	87.837	161.71	78.548	7.2466e-06	39.607	0.013792	0.024645	0.0070531	1333.3	0.00024617	0.00028393	897.03	445.87	0.00025111	0.00028234	292.98	99.408	168.21	79.992	0.00026865	45.158	-113.151	227.584	58.543	-114.735	101.113	25.274	-117.002	-109.558	-116.028	152.264	-113.081	-109.340	-105.135	-101.182	12.134	-105.980	-8191	255	
29027.461	1	1	0	0	0.057462	0.24707	0.30444	0.13207	0.37725	0.36274	0.18457	0.35803	0.24178	0.19429	0.15492	0.051456	0.34442	0.10158	0.077016	0.086861	-0.99583	-0.68125	-1.0208	-1.3833	-0.28125	-1.3083	-0.97708	-0.56042	-1.3021	-0.76667	-0.91458	-1.3771	-0.6625	-1.525	-0.89167	-0.66667	-124.602	37.110	85.602	202.782	198.408	15.063	128.520	176.042	68.653	195.900	97.637	10.975	207.176	227.209	41.017	88.136	0.00018869	0.0011405	0.00031845	1334.6	8.4347e-06	2.1423e-05	857.56	439.18	7.2739e-06	3.8643e-06	255.42	86.516	160.53	77.433	1.0218e-05	38.477	0.014156	0.025473	0.0072586	1341.1	0.00025213	0.00029076	901.95	445.46	0.0002556	0.00028763	291.95	98.897	167.59	79.125	0.00027076	44.127	-106.000	-43.232	31.200	-115.039	-18.714	24.253	-117.371	-109.703	225.206	54.792	-113.183	-109.744	-105.058	-100.909	113.725	-106.191	-8191	255	
29027.557	1	1	0	0	0.24196	0.15058	0.12967	0.30268	0.29151	0.13228	0.34798	0.13737	0.097993	0.13627	0.23826	0.11935	0.20031	0.23887	0.31529	0.23041	-0.86667	-0.39792	-0.975	-1.4438	-0.25208	-1.3	-1.1313	-0.74375	-1.2833	-0.59375	-0.71875	-1.3542	-0.64167	-1.3333	-1.0938	-0.59375	41.703	29.188	90.022	209.729	86.759	149.827	177.199	42.112	128.949	-12.779	-26.992	-73.635	160.294	-118.763	218.707	196.826	0.00011133	0.0016275	0.00070461	1344.2	1.7301e-05	5.6577e-06	847.64	437.21	6.5987e-06	1.6922e-05	254.05	85.287	158.24	76.774	1.3872e-05	38.125	0.014287	0.025852	0.0072094	1345	0.00025375	0.0002889	890.28	442.24	0.00025265	0.0002833	287.22	97.277	165.09	78.365	0.00025866	43.75	202.882	-22.336	-32.992	-115.021	87.725	-5.429	-116.920	-109.872	-60.446	1.079	-112.950	-108.860	-105.046	-101.001	-45.907	-106.260	-8191	255	
29027.652	1	1	0	0	0.17768	0.18537	0.1044	0.37257	0.37971	0.46475	0.12317	0.35187	0.39614	0.40612	0.17067	0.15087	0.12863	0.2929	0.11291	0.25071	-0.93333	-0.62917	-0.57917	-1.7271	-0.59375	-1.1063	-1.2521	-0.72292	-1.1625	-0.78542	-0.62083	-1.375	-0.60417	-1.1292	-1.0812	-0.49375	-33.782	-68.736	85.820	-124.906	-41.729	102.480	78.518	173.323	25.891	4.441	-41.260	-124.298	207.663	195.308	-120.718	-8.985	0.00043004	0.001241	5.6729e-05	1335	9.7327e-06	1.4776e-05	845.3	436.25	5.0379e-06	9.3652e-06	254.08	85.624	158.61	76.464	1.0544e-05	38.213	0.013752	0.024539	0.006871	1337.5	0.00024624	0.00027717	884.69	441.4	0.00024853	0.00027845	286.58	96.762	165.32	78.002	0.00025522	43.667	198.680	175.976	-90.193	-115.196	185.350	18.481	-117.168	-109.495	-7.898	29.833	-112.851	-109.448	-104.917	-100.698	73.414	-106.141	-8191	255	
29027.773	1	1	0	0	0.17256	0.1083	0.31779	0.36638	0.1243	0.13649	0.1601	0.26907	0.089516	0.093903	0.18056	0.19488	0.080625	0.061312	0.076956	0.22589	-1.1979	-0.71042	-0.68542	-1.65	-0.57917	-1.0583	-1.2333	-0.86667	-1.0708	-1.0458	-0.57708	-1.4	-0.72917	-1.2396	-1.5271	-0.61458	-108.356	162.639	97.250	211.255	-55.385	-118.348	174.183	183.157	38.596	-10.966	137.604	171.386	144.499	-63.007	76.669	-105.978	0.00018072	0.00075542	0.00031754	1334.3	1.3028e-05	2.7763e-05	845.68	435.95	1.2609e-05	1.1472e-05	249.53	84.968	158.78	76.493	1.1928e-05	38.051	0.013717	0.024198	0.0068659	1336.4	0.000244	0.0002768	885.44	440.51	0.00024682	0.00027334	286.29	96.686	165.2	77.994	0.00025478	43.688	209.502	-57.767	-102.150	-114.673	10.084	-36.160	-117.252	-109.483	-93.346	-28.430	-113.140	-109.463	-105.087	-100.714	-109.389	-106.175	-8191	255	
29027.869	1	1	0	0	0.23444	0.21159	0.24982	0.069228	0.0082049	0.26857	0.21936	0.24313	0.17656	0.015349	0.16224	0.15761	0.1096	0.57083	0.13153	0.16773	-0.70417	-0.66458	-0.54583	-1.4708	-0.71458	-0.625	-1.2354	-0.59792	-1.0729	-0.9625	-0.34792	-1.3104	-0.91042	-0.825	-1.2812	-0.46667	-9.713	109.794	93.384	160.421	23.318	-33.916	-76.962	179.256	-97.322	-115.417	-16.528	42.900	-111.293	217.510	49.512	194.936	0.00038592	0.0021613	0.00029303	1330.5	2.4812e-06	7.3713e-06	846.18	435.22	2.5664e-06	1.8175e-05	248.48	84.032	156.93	76.158	1.4005e-05	37.74	0.013578	0.02414	0.0067783	1330.6	0.0002409	0.00027065	883.48	439.22	0.00024343	0.00026987	283.7	95.714	163.87	77.651	0.0002524	43.162	184.535	-113.252	-62.679	-114.712	-86.561	84.783	-117.251	-109.666	59.849	53.058	-113.375	-109.572	-105.198	-100.934	92.232	-106.548	-8191	255	
29027.941	1	1	0	0	0.31281	0.079348	0.15906	0.11084	0.18998	0.14613	0.13588	0.20065	0.11655	0.24596	0.37276	0.21747	0.21499	0.078056	0.32652	0.39861	-0.53958	-1.0854	-0.34792	-1.4646	-0.78542	-0.53958	-1.2583	-0.675	-1.0792	-1.2812	-0.51875	-1.1625	-0.81042	-0.5625	-1.25	-0.89792	-64.562	-103.476	-97.937	154.405	2.646	173.498	218.183	-75.843	18.367	-46.839	175.926	-126.747	83.497	208.282	167.283	117.126	0.00022733	0.00035073	0.00030897	1329.3	6.3511e-06	1.4033e-05	834.9	433.69	7.7832e-06	1.2493e-05	248.42	85.167	156.96	76.463	1.8637e-06	37.937	0.013373	0.023711	0.0067397	1328.5	0.00023837	0.00026911	877.78	439.19	0.00024246	0.00026852	284.19	96.183	163.65	77.901	0.00025341	43.42	-118.884	64.283	-38.548	-114.908	-33.438	117.051	-117.203	-109.563	-2.198	147.079	-113.489	-109.664	-105.232	-100.789	-41.011	-106.299	-8191	255	
29028.062	1	1	0	0	0.20629	0.10861	0.051944	0.34795	0.10984	0.18028	0.26309	0.21836	0.032109	0.20693	0.23685	0.14278	0.17348	0.24651	0.1838	0.084304	-0.47917	-1.3167	-0.39375	-1.225	-0.95208	-0.70833	-1.4875	-0.88125	-0.77083	-1.4479	-0.44167	-1.05	-0.98333	-0.44583	-1.3833	-0.74167	-94.853	-52.788	103.330	221.127	-39.967	53.315	116.176	225.927	52.756	136.593	148.505	-86.752	171.629	119.764	79.762	142.888	0.00020582	5.2059e-05	0.00038376	1327.4	3.4338e-06	1.1462e-05	848.96	438.43	1.1014e-05	1.7852e-05	252.25	85.655	159.18	76.75	3.0556e-06	38.848	0.013407	0.02381	0.0068438	1328.2	0.00024035	0.00027285	885.93	442.19	0.00024635	0.0002757	286.74	97.16	164.83	78.281	0.00025835	43.918	-117.766	12.311	-77.479	-114.794	53.280	104.021	-117.568	-110.604	28.487	-27.140	-113.856	-110.130	-105.826	-101.753	62.822	-107.196	-8191	255	
29028.156	1	1	0	0	0.25609	0.24829	0.1754	0.35485	0.13371	0.21963	0.3895	0.33214	0.2859	0.16044	0.17375	0.1231	0.38622	0.19573	0.040369	0.18254	-0.13958	-1.2917	-0.25417	-1.3042	-0.9875	-0.3875	-1.4208	-0.82083	-0.60417	-1.3188	-0.25833	-1.0562	-1.1708	-0.36458	-1.2125	-0.77083	73.787	201.167	-112.041	-122.125	-108.888	-5.578	133.910	196.165	204.052	111.305	150.094	61.974	223.303	-107.488	158.945	-55.981	0.00012967	0.00067968	5.3284e-05	1333.3	9.2312e-06	1.0797e-05	853.42	439.2	3.873e-06	2.2348e-05	257.23	86.479	160.95	78.17	1.2157e-05	39.278	0.013465	0.024197	0.0069636	1333.9	0.00024372	0.0002792	891.96	443.41	0.00024693	0.00027934	291.78	98.627	167.19	79.392	0.00026359	44.73	-106.091	-102.610	175.056	-115.679	22.515	-50.843	-117.840	-110.702	-64.702	44.410	-114.304	-110.122	-106.250	-102.097	-63.181	-107.166	-8191	255	
#DATA ENDS
