BOXY.EXE: ISS Imagent and Oximeter Data Acquisition Program Version 0.80
Ascii Record File

#ACQ INFORMATION
2  Detector Channels 
16  External MUX Channels 
1  Auxiliary Channels 
5000  Waveform (CCF) Frequency (Hz)
1  Waveforms Skipped 
30  Waveforms Averaged 
1  Cycles Averaged 
16  Acquisitions per Waveform 
10.0806  Updata Rate (Hz) 

#FILE INFORMATION
TRUE -- External MUX Channel results are PARSED.
FALSE -- AC DC and Phase are NOT grouped.
TRUE -- Companion Program Settings File CREATED.
FALSE -- AC data not excluded
FALSE -- DC data not excluded
FALSE -- Phase data not excluded
FALSE -- Auxillary Chn. data not excluded
Tab delimiters

#CALIBRATION STATE
TRUE -- Waveform Calibration Values APPLIED.


#AUX CALIBRATION VALUES
Val Type	aux-1	

Term	1.0000e+00	
Factor	0.0000e+00	


#WF CALIBRATION VALUES
A = Detector Channel
Val Type	A-AC1	A-AC2	A-AC3	A-AC4	A-AC5	A-AC6	A-AC7	A-AC8	A-AC9	A-AC10	A-AC11	A-AC12	A-AC13	A-AC14	A-AC15	A-AC16	A-DC1	A-DC2	A-DC3	A-DC4	A-DC5	A-DC6	A-DC7	A-DC8	A-DC9	A-DC10	A-DC11	A-DC12	A-DC13	A-DC14	A-DC15	A-DC16	A-Ph1	A-Ph2	A-Ph3	A-Ph4	A-Ph5	A-Ph6	A-Ph7	A-Ph8	A-Ph9	A-Ph10	A-Ph11	A-Ph12	A-Ph13	A-Ph14	A-Ph15	A-Ph16	

Term	0.00000e+00	0.00000e+00	0.00000e+00	0.00000e+00	0.00000e+00	0.00000e+00	0.00000e+00	0.00000e+00	0.00000e+00	0.00000e+00	0.00000e+00	0.00000e+00	0.00000e+00	0.00000e+00	0.00000e+00	0.00000e+00	0.00000e+00	0.00000e+00	0.00000e+00	0.00000e+00	0.00000e+00	0.00000e+00	0.00000e+00	0.00000e+00	0.00000e+00	0.00000e+00	0.00000e+00	0.00000e+00	0.00000e+00	0.00000e+00	0.00000e+00	0.00000e+00	0.00000e+00	0.00000e+00	0.00000e+00	0.00000e+00	0.00000e+00	0.00000e+00	0.00000e+00	0.00000e+00	0.00000e+00	0.00000e+00	0.00000e+00	0.00000e+00	0.00000e+00	0.00000e+00	0.00000e+00	0.00000e+00	
Factor	1.00000e+00	1.00000e+00	1.00000e+00	1.00000e+00	1.00000e+00	1.00000e+00	1.00000e+00	1.00000e+00	1.00000e+00	1.00000e+00	1.00000e+00	1.00000e+00	1.00000e+00	1.00000e+00	1.00000e+00	1.00000e+00	1.00000e+00	1.00000e+00	1.00000e+00	1.00000e+00	1.00000e+00	1.00000e+00	1.00000e+00	1.00000e+00	1.00000e+00	1.00000e+00	1.00000e+00	1.00000e+00	1.00000e+00	1.00000e+00	1.00000e+00	1.00000e+00	X	X	X	X	X	X	X	X	X	X	X	X	X	X	X	X	

B = Detector Channel
Val Type	B-AC1	B-AC2	B-AC3	B-AC4	B-AC5	B-AC6	B-AC7	B-AC8	B-AC9	B-AC10	B-AC11	B-AC12	B-AC13	B-AC14	B-AC15	B-AC16	B-DC1	B-DC2	B-DC3	B-DC4	B-DC5	B-DC6	B-DC7	B-DC8	B-DC9	B-DC10	B-DC11	B-DC12	B-DC13	B-DC14	B-DC15	B-DC16	B-Ph1	B-Ph2	B-Ph3	B-Ph4	B-Ph5	B-Ph6	B-Ph7	B-Ph8	B-Ph9	B-Ph10	B-Ph11	B-Ph12	B-Ph13	B-Ph14	B-Ph15	B-Ph16	

Term	0.00000e+00	0.00000e+00	0.00000e+00	0.00000e+00	0.00000e+00	0.00000e+00	0.00000e+00	0.00000e+00	0.00000e+00	0.00000e+00	0.00000e+00	0.00000e+00	0.00000e+00	0.00000e+00	0.00000e+00	0.00000e+00	0.00000e+00	0.00000e+00	0.00000e+00	0.00000e+00	0.00000e+00	0.00000e+00	0.00000e+00	0.00000e+00	0.00000e+00	0.00000e+00	0.00000e+00	0.00000e+00	0.00000e+00	0.00000e+00	0.00000e+00	0.00000e+00	-1.59263e+02	-1.35366e+02	-1.22785e+02	-1.81606e+02	-7.89346e+01	-5.72216e+01	-1.56575e+02	-1.62015e+02	-7.73410e+01	-6.58398e+01	-1.71773e+02	-1.69662e+02	-1.85582e+02	-1.76518e+02	-7.73154e+01	-1.48785e+02	
Factor	2.57673e-05	1.35732e-04	4.29484e-05	1.60521e-01	1.34668e-06	1.50830e-06	1.73562e-01	5.04505e-02	1.28541e-06	1.76270e-06	8.78298e-02	2.84354e-02	2.48919e-02	9.05555e-03	1.36247e-06	1.28161e-02	7.70257e-06	9.89319e-06	2.77655e-06	8.54020e-02	1.04570e-07	1.10558e-07	8.68692e-02	2.69635e-02	1.04314e-07	1.10505e-07	4.53325e-02	1.47671e-02	1.33880e-02	4.87488e-03	1.06932e-07	6.69256e-03	X	X	X	X	X	X	X	X	X	X	X	X	X	X	X	X	



#DISTANCE SETTINGS
A = Detector Channel
A-1	A-2	A-3	A-4	A-5	A-6	A-7	A-8	A-9	A-10	A-11	A-12	A-13	A-14	A-15	A-16	

2.5000e+00	3.0000e+00	2.5000e+00	3.0000e+00	2.0000e+00	3.0000e+00	1.5000e+00	3.0000e+00	3.0000e+00	3.0000e+00	3.0000e+00	3.0000e+00	3.0000e+00	3.0000e+00	1.5000e+00	3.0000e+00	

B = Detector Channel
B-1	B-2	B-3	B-4	B-5	B-6	B-7	B-8	B-9	B-10	B-11	B-12	B-13	B-14	B-15	B-16	

1.0000e+01	1.0000e+01	1.0000e+01	1.4400e+00	1.0000e+01	1.0000e+01	1.5100e+00	1.9400e+00	1.0000e+01	1.0000e+01	1.9900e+00	2.4900e+00	2.4100e+00	2.9000e+00	1.0000e+01	2.9800e+00	




#DATA BEGINS
time	group	step	mark	flag	A-AC1	A-AC2	A-AC3	A-AC4	A-AC5	A-AC6	A-AC7	A-AC8	A-AC9	A-AC10	A-AC11	A-AC12	A-AC13	A-AC14	A-AC15	A-AC16	A-DC1	A-DC2	A-DC3	A-DC4	A-DC5	A-DC6	A-DC7	A-DC8	A-DC9	A-DC10	A-DC11	A-DC12	A-DC13	A-DC14	A-DC15	A-DC16	A-Ph1	A-Ph2	A-Ph3	A-Ph4	A-Ph5	A-Ph6	A-Ph7	A-Ph8	A-Ph9	A-Ph10	A-Ph11	A-Ph12	A-Ph13	A-Ph14	A-Ph15	A-Ph16	B-AC1	B-AC2	B-AC3	B-AC4	B-AC5	B-AC6	B-AC7	B-AC8	B-AC9	B-AC10	B-AC11	B-AC12	B-AC13	B-AC14	B-AC15	B-AC16	B-DC1	B-DC2	B-DC3	B-DC4	B-DC5	B-DC6	B-DC7	B-DC8	B-DC9	B-DC10	B-DC11	B-DC12	B-DC13	B-DC14	B-DC15	B-DC16	B-Ph1	B-Ph2	B-Ph3	B-Ph4	B-Ph5	B-Ph6	B-Ph7	B-Ph8	B-Ph9	B-Ph10	B-Ph11	B-Ph12	B-Ph13	B-Ph14	B-Ph15	B-Ph16	aux-1	digaux	

7302.161	1	1	0	768	0.39694	0.16782	0.13282	0.30551	0.14462	0.19861	0.38357	0.26203	0.16566	0.21302	0.050031	0.10515	0.14068	0.26434	0.41793	0.34486	0.077083	-1.2	-0.46042	-0.55417	-1.1958	-0.4125	-0.925	-1.0187	-0.24792	-1.2792	-0.89792	-0.53542	-1.1833	-0.50208	-0.74167	-0.98542	432.866	450.530	185.280	480.792	505.576	306.634	509.628	435.768	215.283	418.673	360.038	418.914	503.805	172.281	262.106	182.970	0.0008082	0.0014509	0.00057982	1059.8	4.8186e-06	1.2038e-05	808.77	408.18	1.7051e-05	2.0744e-05	334.74	115.97	153.14	70.151	1.5219e-05	48.823	0.018561	0.023678	0.0066487	1214.5	0.00025133	0.00026626	977.97	456.43	0.00024881	0.0002649	427.46	145.39	178.94	79.122	0.00025513	62.942	516.655	304.504	342.109	182.912	201.640	284.976	181.451	187.684	265.055	268.784	184.855	187.943	191.010	195.264	278.215	191.252	-8191	255	
7302.257	1	1	0	0	0.1906	0.17475	0.10813	0.21268	0.27783	0.11477	0.36276	0.3596	0.10252	0.20704	0.09271	0.21578	0.26709	0.19198	0.29003	0.42079	0.12917	-0.97292	-0.51875	-0.69167	-1.3354	-0.40833	-0.74792	-1.0479	-0.31875	-1.1229	-0.74375	-0.42083	-1.1938	-0.49375	-0.725	-1.075	386.273	375.069	383.035	520.228	251.229	299.487	509.361	464.978	453.403	256.749	343.514	196.614	512.504	507.369	527.906	440.210	0.00032312	0.0012046	0.0007423	1057	1.6049e-05	1.0832e-05	805.98	410.08	4.5477e-06	1.7606e-05	333.89	116.37	154.62	70.468	6.974e-06	48.556	0.018452	0.023606	0.0066038	1213.2	0.00024852	0.00026345	974.11	455.72	0.00024816	0.00026519	427.49	146.13	180.24	79.769	0.0002538	62.812	513.303	317.407	264.140	183.058	301.923	279.844	181.186	187.615	293.074	290.532	184.302	188.045	191.289	195.189	362.225	191.142	-8191	255	
7302.353	1	1	0	0	0.048669	0.15988	0.26239	0.064128	0.16667	0.14787	0.21734	0.19006	0.085208	0.18514	0.43041	0.3335	0.1731	0.50439	0.16409	0.13783	0.20208	-1.0333	-0.72917	-0.28125	-1.1187	-0.37292	-0.63542	-1.1708	-0.14167	-0.81458	-0.80625	-0.55417	-1.3083	-0.70833	-0.60833	-1.025	307.656	329.463	330.090	236.288	497.766	178.950	503.403	436.655	280.909	199.878	451.483	434.844	430.809	451.249	493.892	341.728	0.00033274	0.0017734	0.00065829	1059.4	1.0573e-05	6.0053e-06	794.15	403.22	1.5578e-05	1.0979e-05	325.15	111.5	150.34	68.254	1.9059e-05	46.744	0.018468	0.023496	0.0066003	1208.2	0.00024555	0.00026054	958.15	448.17	0.00024278	0.000258	415.61	140.74	175.03	77.015	0.00024883	60.427	177.444	387.821	297.148	183.033	209.831	282.109	181.337	187.561	256.688	327.183	184.692	187.593	191.053	195.079	248.352	191.311	-8191	255	
7302.449	1	1	0	0	0.11498	0.044403	0.25126	0.33613	0.1857	0.32565	0.40232	0.41117	0.13781	0.30239	0.096066	0.14488	0.16703	0.25908	0.073213	0.013729	0.22917	-0.73542	-0.93542	-0.24792	-0.93958	-0.79792	-0.49375	-1.3708	-0.09375	-0.74167	-1.0021	-0.26667	-1.0187	-0.65417	-0.3625	-1.0583	382.591	457.582	301.942	526.902	273.413	448.250	496.624	479.969	414.636	223.347	371.374	374.158	197.736	512.886	398.570	190.623	0.00069545	0.00068801	0.00055533	1051.2	1.2152e-05	2.0051e-05	790.26	403.08	1.904e-05	2.4293e-06	326.04	111.53	148.98	66.98	2.2392e-05	45.632	0.018018	0.023064	0.0064794	1197.4	0.0002442	0.0002586	953.78	446.89	0.0002435	0.00025755	415.58	140.84	173.87	75.837	0.00024916	59.177	517.681	245.522	302.922	183.107	294.171	221.014	181.004	187.494	258.086	391.425	184.284	187.634	191.476	195.221	258.411	191.139	-8191	255	
7302.544	1	1	0	0	0.27391	0.1318	0.12257	0.19578	0.13267	0.20123	0.17937	0.18557	0.027333	0.23614	0.045679	0.092777	0.1801	0.39451	0.082205	0.24286	-0.03125	-0.89583	-0.88542	-0.49167	-1.0333	-0.64792	-0.35417	-1.1417	-0.32917	-0.55833	-1.2771	-0.17083	-1.1229	-0.7875	-0.22083	-1.2833	180.020	476.865	211.565	473.239	232.908	262.538	500.144	458.488	511.887	474.368	349.451	408.798	445.906	476.710	211.354	437.335	0.00073143	0.0013405	0.00059192	1035.1	7.4811e-06	3.0522e-05	787.08	397.36	1.5963e-05	1.5815e-05	326.3	111.5	149.26	67.827	2.487e-05	46.362	0.017916	0.02288	0.0064325	1185.1	0.00024268	0.00025783	948.91	442.18	0.00024289	0.0002591	416.2	140.89	174.25	76.556	0.00025113	60.148	172.765	201.162	489.925	182.752	349.782	334.621	180.870	187.548	402.611	280.913	184.662	188.004	191.008	195.218	312.983	191.337	-8191	255	
7302.640	1	1	0	0	0.22371	0.23037	0.089161	0.23586	0.14047	0.29162	0.072134	0.10289	0.091557	0.23718	0.19724	0.38673	0.025051	0.097867	0.21063	0.11323	-0.016667	-0.41875	-1.0312	-0.30208	-0.85625	-0.68125	-0.39375	-1.2917	-0.42083	-0.525	-1.2583	-0.22292	-0.99792	-0.99375	-0.2125	-0.98333	526.112	234.564	275.471	194.682	410.672	403.806	402.665	279.796	273.200	256.786	510.829	172.446	399.090	237.474	445.071	239.098	0.0005234	0.0011868	0.00038124	1040.1	1.5085e-05	1.1254e-05	786.3	397.18	9.2203e-06	1.7243e-05	323.41	111.06	148.46	67.009	1.122e-05	46.49	0.018212	0.023201	0.0064964	1188	0.00024452	0.00025834	950.38	442.48	0.00024358	0.00025752	414.64	140.19	173.53	75.966	0.0002505	60.423	510.414	246.931	310.188	182.926	366.871	241.251	180.979	187.810	334.086	340.887	185.009	187.735	191.146	195.316	366.696	191.436	-8191	255	
7302.761	1	1	0	0	0.26011	0.25669	0.093089	0.50927	0.13688	0.34009	0.2205	0.34127	0.16715	0.10594	0.11257	0.23641	0.18033	0.21445	0.28336	0.11085	-0.091667	-0.32708	-1.1542	-0.2125	-0.66042	-0.875	-0.19167	-1.2729	-0.60417	-0.32083	-1.1792	-0.25417	-0.61458	-1.0833	-0.035417	-0.99375	417.234	257.490	354.511	482.351	342.268	207.624	461.827	432.510	187.265	249.187	228.914	201.566	488.332	186.419	327.611	407.056	0.00065868	0.0027712	0.00022823	1036.7	1.9975e-05	7.8092e-06	784.76	397.27	3.3758e-05	1.0065e-05	318.43	108.94	146.65	65.64	1.0299e-05	44.615	0.018257	0.02335	0.0065651	1193.2	0.0002464	0.0002606	952.8	442.87	0.00024335	0.0002574	411.16	137.86	171.32	74.431	0.00024527	58.209	174.620	253.191	384.261	182.904	344.484	519.879	181.018	187.518	329.061	320.968	184.636	187.336	191.170	195.153	337.518	191.300	-8191	255	
7302.857	1	1	0	0	0.074661	0.18086	0.090416	0.2127	0.14428	0.14191	0.20082	0.51171	0.08284	0.29387	0.19897	0.22352	0.13525	0.53209	0.16118	0.3745	-0.35625	-0.125	-1.0125	-0.3	-0.62708	-0.89375	-0.17083	-1.1021	-0.69375	-0.070833	-1.2437	-0.50625	-0.5625	-1.2521	-0.14583	-0.90417	180.961	320.657	350.025	175.931	441.827	342.655	431.965	481.364	372.074	280.614	475.268	460.062	527.301	523.692	416.587	520.424	0.00099637	0.00077317	0.00070368	1036	2.1049e-05	1.686e-05	775.51	397.44	3.1852e-06	1.8991e-05	320.9	109.68	148.62	66.807	2.7107e-05	45.039	0.017812	0.022721	0.006394	1181.5	0.00024118	0.00025472	939.95	443.36	0.00024005	0.00025662	410.42	138.88	173.53	75.666	0.0002455	58.782	510.007	441.704	361.221	182.737	457.669	455.028	181.477	187.818	234.986	361.069	184.290	188.034	191.179	194.967	304.057	191.880	-8191	255	
7302.953	1	1	0	0	0.089252	0.058861	0.11128	0.20506	0.31391	0.46387	0.091418	0.39613	0.06979	0.12428	0.37055	0.023417	0.34032	0.37312	0.10236	0.22532	-0.34792	-0.23333	-0.95625	-0.67917	-0.44792	-1.1917	-0.175	-0.85417	-0.93542	-0.27708	-1.1667	-0.52292	-0.49583	-1.1	-0.15833	-0.70417	340.556	221.473	395.753	511.839	286.026	188.465	445.196	450.522	372.689	510.875	468.762	347.722	491.454	484.440	392.006	433.003	0.00075069	0.0011575	0.00078711	1031.3	3.9878e-06	2.1419e-05	772.89	394.96	1.1966e-05	1.8143e-05	318.85	109.82	148.41	66.815	9.9544e-06	45.299	0.01783	0.022803	0.0063983	1179.6	0.00023932	0.00025413	934.83	439.85	0.00024167	0.00025542	410.15	138.65	172.76	75.688	0.00024503	59.279	175.700	245.466	236.395	182.882	317.983	401.978	180.965	187.718	318.837	472.718	185.068	187.677	190.999	194.978	207.940	191.258	-8191	255	
7303.049	1	1	0	0	0.026681	0.052771	0.11434	0.2408	0.050295	0.12401	0.14779	0.15982	0.091641	0.16526	0.10004	0.25799	0.1594	0.26583	0.33191	0.2529	-0.35208	-0.1375	-0.76667	-0.6875	-0.22083	-1.0667	-0.31458	-0.92708	-1.1042	-0.28125	-0.98125	-0.69167	-0.36667	-1.1667	-0.40625	-0.50417	432.373	460.449	472.750	450.430	332.873	273.710	518.050	185.204	208.315	299.655	351.056	195.506	200.375	274.271	249.937	415.375	0.00065048	0.0017453	0.00016764	1033.7	2.1582e-05	7.6606e-06	774.93	394.86	1.8212e-05	4.8594e-06	319.24	108.49	145.83	65.667	1.9754e-05	45.434	0.017908	0.022805	0.006406	1181.5	0.0002408	0.00025443	938.2	437.9	0.00023886	0.00025389	408.35	137.22	170.45	74.54	0.00024661	59.053	505.778	488.741	240.112	183.101	348.905	377.024	181.138	187.586	298.739	209.489	184.646	187.543	191.294	195.206	265.730	191.354	-8191	255	
7303.145	1	1	0	0	0.077819	0.43768	0.086687	0.11711	0.28402	0.039348	0.24811	0.041074	0.14047	0.27483	0.098972	0.24576	0.19287	0.21704	0.15505	0.12419	-0.42083	-0.17917	-0.88333	-0.81458	-0.29167	-1.1792	-0.71458	-0.76458	-1.0562	-0.22708	-1.0187	-0.81042	-0.25208	-1.0812	-0.5625	-0.40208	310.131	527.445	486.124	492.384	512.590	185.437	209.014	465.505	297.155	409.798	343.744	522.486	393.859	493.027	416.178	481.465	0.00081957	0.0016543	0.00040322	1040.7	7.4151e-06	2.1838e-05	788.64	398	1.5983e-05	1.3377e-05	323.61	110.5	146.97	65.71	9.3071e-06	45.585	0.017945	0.022969	0.0064749	1189.6	0.00024282	0.00025765	950.49	443.12	0.00024255	0.00025747	412.16	139.38	171.76	74.84	0.00024699	58.909	527.740	318.547	364.763	183.113	335.038	357.385	181.258	187.658	329.872	351.196	184.664	188.075	191.042	195.287	354.053	191.752	-8191	255	
7303.241	1	1	0	0	0.054488	0.14243	0.32386	0.083624	0.16115	0.21562	0.12927	0.11948	0.25374	0.24262	0.19624	0.32575	0.33144	0.29538	0.24209	0.29485	-0.45625	0.083333	-0.63125	-0.81667	-0.033333	-0.86667	-0.54375	-0.47708	-1.3458	-0.16875	-0.63125	-0.96042	-0.34375	-1.0771	-0.575	-0.24167	226.939	244.488	377.823	209.455	501.646	352.695	191.423	303.955	297.750	274.789	191.694	423.064	185.900	179.111	515.008	422.393	0.00050864	0.00077635	0.00026604	1033.9	1.232e-05	1.1643e-05	782.65	398.69	1.2004e-05	1.0221e-05	323.14	109.39	146.52	66.382	8.7325e-06	44.591	0.017919	0.022893	0.0064721	1185.6	0.00024313	0.00025877	944.2	442.1	0.00024281	0.00025625	412	138.39	171.53	75.105	0.00024606	58.356	495.625	273.298	271.274	183.302	276.553	404.437	180.980	187.510	225.881	321.441	184.781	187.579	191.108	195.119	265.116	190.918	-8191	255	
7303.338	1	1	0	0	0.12209	0.012772	0.11714	0.042552	0.15567	0.18367	0.14576	0.22998	0.13632	0.18039	0.11296	0.33367	0.050042	0.3909	0.038281	0.078032	-0.79375	-0.26458	-0.62917	-1.1646	-0.022917	-0.90208	-0.5875	-0.35625	-1.0708	-0.37083	-0.6625	-1.1271	-0.28125	-0.95	-0.72292	-0.23333	391.513	332.696	414.173	180.340	480.913	334.349	319.613	250.977	196.929	212.367	346.649	521.315	404.744	495.293	207.498	421.859	0.00062834	0.0010383	0.00061657	1027.9	6.2867e-06	1.7455e-05	778.23	394.99	2.3722e-05	1.7288e-05	321.83	109.74	148.93	66.8	1.093e-05	45.678	0.0178	0.022627	0.0063236	1173.9	0.0002395	0.00025267	931.99	439.28	0.00023874	0.00025291	408.13	138.51	172.58	75.603	0.00024643	59.299	514.091	301.518	304.713	182.763	413.520	405.530	180.980	187.484	317.337	248.251	184.895	187.579	190.720	195.200	201.388	191.035	-8191	255	
7303.456	1	1	0	0	0.14371	0.10705	0.20505	0.093718	0.25559	0.041095	0.26398	0.40213	0.27853	0.029094	0.2553	0.34805	0.15129	0.12098	0.13301	0.16153	-0.87292	-0.28542	-0.40833	-1.1083	-0.10417	-0.67708	-0.97292	-0.25208	-0.87708	-0.3625	-0.62708	-1.075	-0.26875	-0.95833	-0.9	-0.11458	219.920	454.587	382.266	453.112	369.432	171.795	395.489	469.608	437.394	380.998	524.762	184.801	192.286	478.844	407.222	343.880	0.00075553	0.00029387	0.00046021	1029.7	2.0916e-05	2.9265e-05	776.11	390.75	1.1521e-05	9.6519e-06	319.32	109	145.74	65.58	1.8364e-05	44.494	0.017823	0.022782	0.0064153	1182.3	0.00024091	0.00025514	939.93	438.04	0.00023876	0.00025523	407.11	137.04	170.32	74.318	0.00024777	58.444	170.235	365.424	226.024	182.972	462.299	497.326	181.180	187.698	204.491	433.390	184.600	187.475	191.178	195.516	349.649	191.374	-8191	255	
7303.553	1	1	0	0	0.30609	0.26214	0.058945	0.10624	0.11529	0.20562	0.12732	0.13998	0.17625	0.063572	0.10594	0.071018	0.047041	0.29173	0.11703	0.13634	-0.38125	-0.3875	-0.14792	-1.1979	-0.23333	-0.61042	-1.0333	-0.22708	-1.0729	-0.80417	-0.53125	-1.3396	-0.41667	-0.92083	-0.97292	-0.2	244.597	198.106	459.612	172.566	412.291	322.521	508.603	462.699	326.911	370.729	454.699	170.418	522.377	183.622	426.843	416.941	0.00031491	0.0014198	0.00010426	1036.1	1.124e-05	1.6746e-05	778.47	393.55	2.0034e-05	1.2125e-05	320.03	108.99	144.83	65.267	1.4976e-05	44.082	0.018038	0.022955	0.0064931	1184.9	0.00024347	0.00025803	945.55	439.36	0.00024325	0.00025766	409.95	138.02	170.18	74.054	0.00024815	58.199	192.748	350.906	507.709	182.825	405.531	266.996	181.267	187.713	309.113	366.161	184.492	187.638	191.121	195.314	357.273	191.058	-8191	255	
7303.649	1	1	0	0	0.081613	0.023547	0.01866	0.16632	0.20937	0.45115	0.25731	0.26707	0.11907	0.062548	0.051053	0.30301	0.26054	0.1765	0.082489	0.19832	-0.525	-0.64583	-0.12917	-1.3208	-0.10625	-0.4375	-1.2146	-0.32292	-0.81667	-0.97292	-0.32083	-1.1625	-0.60417	-0.50833	-1.0812	-0.27292	418.602	505.586	233.331	484.265	218.948	193.213	422.280	221.739	238.484	350.773	310.235	407.371	457.187	520.812	270.897	344.966	0.00091941	0.0021025	0.00037805	1028.7	1.2526e-05	1.5197e-05	780.93	391.17	1.4441e-05	1.4386e-05	319.33	108.61	144.89	65.195	1.3624e-05	44.772	0.018	0.023038	0.0064993	1179.1	0.0002434	0.00025787	941.91	437.24	0.00024479	0.00025725	409.24	138.31	170.79	74.417	0.00024976	58.668	498.487	282.009	207.010	182.858	447.415	196.382	180.750	187.524	307.899	180.664	184.476	187.522	191.195	195.222	468.479	191.355	-8191	255	
7303.722	1	1	0	0	0.1749	0.12759	0.15424	0.33562	0.19019	0.052059	0.024967	0.17743	0.089711	0.20522	0.29443	0.19417	0.32796	0.27806	0.35601	0.021723	-0.5	-0.94792	-0.13125	-1.1708	-0.44167	-0.425	-1.2125	-0.40625	-0.66875	-0.91875	-0.275	-1.3021	-0.5625	-0.3875	-1.2812	-0.075	437.128	191.684	303.627	473.233	366.837	346.679	521.955	455.250	381.453	262.518	517.229	456.947	525.200	473.498	366.379	283.584	0.00077856	0.0021858	0.00030218	1033.5	1.1375e-05	3.0715e-06	769.7	387.16	7.1284e-06	2.7782e-05	313.03	107.09	143.59	64.157	1.0378e-05	43.407	0.018128	0.023058	0.0064733	1180.8	0.00024218	0.00025663	934.33	434.91	0.00023964	0.0002549	401.18	135.3	168.53	72.875	0.00024442	56.915	170.619	277.873	237.695	182.812	302.976	296.441	180.912	187.720	255.554	388.321	184.719	188.019	191.110	195.326	347.149	190.875	-8191	255	
7303.841	1	1	0	0	0.19657	0.16969	0.04814	0.13717	0.28151	0.11317	0.17237	0.40901	0.20663	0.2753	0.28697	0.28216	0.15183	0.12128	0.1053	0.1965	-0.3625	-0.89792	0.020833	-1.1104	-0.56875	-0.30208	-1.1583	-0.35833	-0.66458	-1.1208	0.025	-0.975	-0.86667	-0.22083	-1.2854	-0.31875	489.500	223.599	318.152	431.432	421.510	283.825	435.919	455.991	508.081	316.737	425.435	383.189	512.372	195.233	257.074	486.442	0.00051708	0.00072592	0.00070683	1028.9	1.7807e-05	1.9093e-05	762.55	389.37	2.8549e-05	2.1167e-05	311.55	104.59	141.72	62.702	6.0873e-06	42.102	0.017799	0.022705	0.0063998	1174.1	0.00024039	0.00025447	925.83	433.95	0.00023902	0.00025373	401.12	133.69	166.85	71.795	0.00024487	55.78	196.827	334.716	341.609	183.153	270.220	288.589	180.927	187.345	294.205	402.121	184.492	187.836	191.128	195.148	240.347	190.795	-8191	255	
7303.937	1	1	0	0	0.26802	0.36104	0.22982	0.23039	0.3536	0.4087	0.22363	0.21677	0.15689	0.20902	0.33546	0.041649	0.13762	0.17116	0.17086	0.16379	-0.18542	-0.79583	-0.00625	-0.92917	-0.72917	-0.29583	-1.2146	-0.56667	-0.56458	-1.1771	-0.23333	-0.9375	-0.76458	-0.2125	-1.2167	-0.66875	424.848	316.682	337.241	510.649	370.070	515.618	467.528	400.212	265.229	225.118	464.425	514.472	178.240	240.059	309.794	239.430	0.0001443	0.0020178	0.00058539	1022.2	2.4278e-05	6.1102e-06	760.62	385	7.9643e-06	1.9867e-05	311.89	106.66	142.23	63.897	1.3297e-05	43.313	0.017792	0.022751	0.0063852	1167.6	0.00024011	0.00025407	923.73	430.08	0.00024053	0.00025435	401.85	135.46	167.98	72.949	0.00024735	57.192	518.091	440.651	505.879	182.981	339.029	388.148	181.313	187.393	266.769	296.746	185.155	187.701	190.998	195.459	450.302	191.400	-8191	255	
7304.033	1	1	0	0	0.22143	0.10491	0.095473	0.15998	0.1475	0.17695	0.32601	0.30669	0.06397	0.21499	0.11184	0.12755	0.14119	0.23567	0.21863	0.3154	-0.18958	-1.1083	-0.37917	-0.76042	-0.63125	-0.20833	-1.1354	-0.725	-0.375	-1.225	-0.4625	-0.8	-1.0688	-0.1875	-0.93542	-0.45625	452.159	390.044	508.546	481.670	430.916	194.264	469.343	225.781	385.011	515.955	199.301	307.009	268.638	255.674	280.229	465.515	0.00049132	0.0008786	0.00040116	1023.2	1.9612e-05	3.0699e-05	764.4	386.87	1.4973e-05	1.2479e-05	310.61	105.65	142.54	63.902	1.8171e-05	43.181	0.018009	0.022981	0.0064468	1172.1	0.00024082	0.00025622	929.75	432.73	0.00024131	0.00025722	402.12	134.99	167.38	72.923	0.00024895	57.358	520.715	261.977	489.797	183.106	405.791	332.145	181.263	187.350	486.742	257.428	184.702	187.909	190.838	195.166	302.046	191.631	-8191	255	
7304.154	1	1	0	0	0.13415	0.15051	0.23269	0.3383	0.16366	0.13416	0.20332	0.38708	0.11599	0.23231	0.023173	0.17551	0.33164	0.049723	0.18362	0.1428	0.21667	-1.0271	-0.0625	-0.8	-1.0187	-0.125	-0.99375	-0.76042	-0.27083	-1.075	-0.40625	-0.61667	-1.2479	-0.275	-0.84792	-0.7125	183.107	356.696	390.982	195.977	395.436	369.703	484.753	453.723	493.856	308.786	239.973	393.700	423.531	483.908	371.749	212.817	0.00083484	0.002612	0.00033671	1024.3	1.0324e-05	6.5528e-06	773.27	387.59	1.9164e-05	1.0808e-05	309.84	104.46	140.32	62.373	4.1335e-06	41.596	0.018111	0.023224	0.006486	1174.1	0.00024397	0.0002571	934.36	433.22	0.0002428	0.0002567	401.61	133.87	165.69	71.346	0.0002445	55.335	171.438	214.952	513.007	183.246	318.471	336.037	181.015	187.469	327.874	269.113	184.741	187.890	191.248	195.049	332.982	191.471	-8191	255	
7304.248	1	1	0	0	0.24238	0.22769	0.18709	0.20801	0.19049	0.12927	0.09094	0.22303	0.24955	0.17107	0.3071	0.32517	0.18475	0.19196	0.1893	0.17352	0.19583	-1.0125	-0.29583	-0.59167	-1.1604	-0.24583	-0.8375	-0.95417	-0.11042	-0.94583	-0.525	-0.56875	-1.1313	-0.4125	-0.80833	-0.78333	176.760	444.979	359.401	490.073	352.516	456.893	251.086	182.991	440.968	279.650	463.753	442.099	225.000	416.932	401.532	525.135	0.00042302	0.00040432	0.00053413	1009	6.7149e-06	1.9177e-05	757.32	379.77	4.3865e-06	1.228e-05	303.86	101.08	139.31	61.36	2.1473e-05	41.08	0.017663	0.02242	0.006307	1156.3	0.00023655	0.00024939	917.59	424.14	0.00023508	0.0002499	392.5	129.94	162.92	70.185	0.00023962	54.505	187.437	353.984	236.922	183.106	260.193	337.924	181.083	187.468	201.281	448.715	184.283	187.803	191.097	195.259	399.524	191.041	-8191	255	
7304.322	1	1	0	0	0.14609	0.12128	0.1878	0.43412	0.25263	0.22259	0.059188	0.23695	0.35196	0.32149	0.32841	0.26277	0.37523	0.24813	0.33142	0.11834	0.15208	-0.8875	-0.42292	-0.26042	-1.0729	-0.24583	-0.67083	-1.0208	-0.24167	-0.9875	-0.625	-0.33333	-1.0771	-0.39167	-0.49375	-1.1854	296.997	218.450	206.723	272.114	329.219	327.586	493.280	413.787	380.795	260.509	215.977	470.506	173.367	440.528	267.977	364.046	0.00059229	0.0010486	0.00036909	1012.3	2.0192e-05	2.1942e-05	754.22	379.92	1.054e-05	9.0508e-06	306.96	101.93	139.67	62.185	4.3116e-06	41.908	0.017429	0.022141	0.0062408	1154.2	0.00023309	0.00024738	911.88	424.64	0.00023225	0.00024652	392.33	130.78	163.48	70.863	0.00023982	55.446	182.485	236.480	406.276	182.996	354.350	441.872	181.235	187.529	296.022	297.491	184.387	187.444	191.184	195.327	171.942	191.326	-8191	255	
7304.442	1	1	0	0	0.13088	0.21248	0.13186	0.16862	0.083242	0.18651	0.18341	0.092825	0.046127	0.19492	0.090361	0.071147	0.2109	0.27992	0.19582	0.056653	0.26042	-0.82292	-0.50625	-0.4375	-1.1146	-0.29375	-0.6125	-1.1625	-0.2	-0.74792	-0.88125	-0.12708	-1.0167	-0.56042	-0.43958	-1.0438	505.124	289.081	372.286	489.904	174.150	425.511	423.538	422.882	227.384	363.394	175.683	253.414	494.057	234.697	300.975	177.949	0.00058561	0.0025782	0.00051354	1016.5	2.2591e-05	2.3552e-06	755.07	382.59	2.1829e-05	1.9193e-05	307.31	102.46	138.49	61.27	1.841e-05	41.465	0.017533	0.022414	0.0063125	1160.7	0.0002371	0.00025191	917.49	427.48	0.00023468	0.00024921	394.96	130.98	162.97	70.231	0.00024063	54.855	528.024	295.864	464.446	183.181	214.536	427.749	180.962	187.905	282.690	429.855	184.432	187.804	191.283	195.762	269.919	191.140	-8191	255	
7304.537	1	1	0	0	0.061185	0.021562	0.17965	0.17093	0.13357	0.1943	0.10745	0.19651	0.2819	0.15366	0.1508	0.20194	0.14975	0.10317	0.16499	0.15193	0.2	-0.57083	-0.69792	-0.16667	-1.0375	-0.62708	-0.35833	-1.1458	-0.26667	-0.71875	-1.0417	-0.06875	-1.0917	-0.48333	-0.15	-1.0833	273.321	400.205	512.271	352.315	221.044	294.432	452.375	297.040	363.033	177.318	415.294	186.667	391.850	219.165	170.305	329.919	0.0003525	0.0018016	0.00081407	1014.2	4.1427e-06	3.8403e-05	753.47	382.22	2.5473e-05	2.6429e-05	307.43	102.83	138.11	61.994	1.4934e-05	41.354	0.017521	0.022423	0.0062818	1154.9	0.00023628	0.00024901	915.53	424.55	0.00023566	0.00025156	395.99	131.36	163.28	70.842	0.00024381	55.424	493.520	508.460	227.110	183.180	367.799	309.277	181.397	188.008	283.604	288.279	184.567	187.938	191.238	195.497	255.416	191.669	-8191	255	
7304.633	1	1	0	0	0.11164	0.053235	0.11502	0.20671	0.24586	0.079968	0.26083	0.24098	0.083181	0.056433	0.31464	0.19448	0.25089	0.31822	0.15437	0.10623	0.1125	-0.79375	-0.78333	-0.17083	-1.1979	-0.57292	-0.25208	-1.125	-0.066667	-0.46667	-1.0583	-0.1625	-0.96458	-0.72292	-0.3375	-1.1354	475.706	517.570	317.085	513.332	492.789	377.953	480.673	524.768	213.459	365.589	444.054	300.497	456.996	516.217	277.968	470.850	0.00063586	0.00086138	0.00070369	1008.8	2.3745e-05	1.2869e-05	750.31	378.51	2.1596e-05	1.9612e-05	303.77	100.59	137.76	61.348	1.4835e-05	41.13	0.017698	0.022669	0.006362	1155.5	0.00023868	0.00025144	910.9	423.77	0.00023745	0.00025146	392.49	129.21	162.39	70.207	0.00024255	54.642	174.334	331.767	246.943	182.796	297.153	404.181	180.985	187.683	519.324	270.893	184.555	187.854	191.482	195.559	428.552	191.440	-8191	255	
7304.754	1	1	0	0	0.1463	0.072332	0.24211	0.43158	0.04529	0.18313	0.303	0.22025	0.24905	0.28011	0.035637	0.17694	0.11748	0.35168	0.20305	0.2362	-0.13958	-0.3375	-0.73542	-0.275	-0.75417	-0.61667	-0.1875	-1.1042	-0.49583	-0.54792	-1.1187	-0.50208	-0.86667	-1.0021	-0.19375	-1.0021	445.187	368.357	431.984	185.681	407.873	175.689	171.209	464.171	447.252	353.555	477.793	348.773	234.596	186.327	443.812	498.127	0.00074251	0.0014128	0.00046078	1010.5	1.6619e-06	1.2187e-05	747.68	380.44	9.0745e-06	1.4952e-05	302	99.089	136.43	60.314	6.1423e-06	39.932	0.017717	0.02257	0.0063225	1152.9	0.00023831	0.0002512	907.45	423.69	0.00023644	0.00025092	389.91	127.89	160.69	68.976	0.00024186	53.741	508.021	314.125	457.654	182.795	293.543	477.861	181.001	187.791	399.366	291.399	184.587	187.924	191.411	195.440	172.184	191.555	-8191	255	
7304.850	1	1	0	0	0.37251	0.21149	0.13937	0.36882	0.22387	0.13154	0.09359	0.29169	0.11696	0.10939	0.15673	0.18041	0.32137	0.21783	0.037562	0.35237	-0.0875	-0.18333	-1.0438	-0.53958	-0.68333	-0.96458	-0.24375	-1.0125	-0.66458	-0.2875	-1.1583	-0.11875	-0.73542	-0.99375	-0.15833	-0.96042	439.099	512.065	199.433	445.052	208.779	499.354	396.970	413.749	251.058	476.817	343.805	421.933	190.726	218.406	223.592	455.725	0.00056362	0.002105	0.0002398	1004	1.5982e-05	2.9582e-05	750.21	377.66	8.9795e-06	1.3454e-05	304.25	98.466	136.44	60.715	1.3155e-05	40.217	0.017563	0.022471	0.0063826	1150.2	0.00024016	0.00025371	909.49	424.37	0.00023935	0.00025544	393.48	128.66	161.46	69.512	0.00024505	54.018	176.138	283.105	209.103	182.899	360.971	400.369	181.451	187.922	199.973	354.830	184.716	187.775	191.406	195.585	317.274	191.737	-8191	255	
7304.946	1	1	0	0	0.092687	0.28489	0.22071	0.23759	0.20226	0.34949	0.050354	0.34703	0.14079	0.37779	0.10838	0.24389	0.15534	0.076504	0.27956	0.31454	-0.097917	-0.26042	-0.875	-0.22917	-0.50208	-0.98958	-0.14792	-1.1792	-0.74583	-0.16458	-1.2313	-0.23333	-0.58333	-1.1521	-0.10417	-0.96458	381.802	291.564	406.331	475.632	319.089	378.407	491.018	490.018	436.827	470.692	370.419	478.890	205.319	438.530	366.103	426.859	0.0010114	0.0014428	0.00051355	998.51	8.0956e-06	2.0041e-05	744.3	376.44	1.9899e-05	1.575e-05	303.22	98.873	135.43	60.704	3.1346e-05	40.3	0.017651	0.022598	0.0063685	1146.7	0.00023893	0.00025375	904.61	421.42	0.0002379	0.00025341	392.2	127.78	160.83	69.319	0.00024619	54.177	174.498	518.397	269.048	183.245	295.627	391.630	181.184	187.800	300.533	229.069	184.422	187.953	191.612	195.415	351.427	191.400	-8191	255	
7305.018	1	1	0	0	0.11291	0.42801	0.21298	0.15922	0.13455	0.21059	0.19102	0.18252	0.14657	0.12736	0.063004	0.14275	0.18367	0.092091	0.31689	0.20161	-0.25	-0.18958	-0.87917	-0.39375	-0.34167	-1.1333	-0.26458	-1.0125	-0.84792	-0.12083	-0.97708	-0.39792	-0.45	-1.1542	-0.20625	-0.76458	197.705	202.898	427.995	486.909	235.492	391.794	443.579	528.344	385.318	365.110	507.425	177.086	467.582	361.548	473.764	173.970	0.00043924	0.0023342	0.00064804	997.68	1.3215e-05	1.2996e-05	746.88	374.02	1.0921e-05	3.0977e-05	299.33	97.449	133.18	58.898	1.4321e-05	38.97	0.01778	0.022734	0.0063877	1150.2	0.00023945	0.00025393	906.94	419.66	0.00023906	0.00025374	390.58	126.33	158.47	67.87	0.00024464	52.93	192.827	222.957	186.979	183.091	201.658	203.092	181.228	187.662	314.420	340.687	184.838	188.255	191.457	195.632	401.506	191.949	-8191	255	
7305.138	1	1	0	0	0.081971	0.18284	0.075199	0.37767	0.21581	0.19019	0.19444	0.29038	0.21953	0.33087	0.15706	0.29938	0.1462	0.35578	0.17389	0.21548	-0.61875	0.027083	-0.98125	-0.72708	-0.24583	-1.1	-0.50417	-0.61458	-0.98542	-0.22083	-1.2229	-0.75625	-0.38125	-1.2771	-0.41042	-0.475	375.859	525.914	510.379	507.132	227.044	379.221	504.928	454.992	355.229	197.168	182.290	458.926	353.729	170.288	434.224	173.632	0.00075863	0.0019855	0.0010917	995.63	1.3078e-05	2.0031e-05	737.27	370.76	1.782e-06	2.7215e-05	295.98	95.062	133.43	58.842	8.4538e-06	38.381	0.017762	0.022633	0.0063881	1143.4	0.00023941	0.00025344	899.49	416.73	0.00023691	0.00025153	385.19	124.37	157.64	67.447	0.00024126	52.066	187.063	238.631	235.613	182.629	211.670	292.137	181.222	187.802	372.186	366.147	184.467	187.686	191.644	195.704	348.388	191.512	-8191	255	
7305.234	1	1	0	0	0.084857	0.19029	0.22632	0.26716	0.14763	0.14362	0.067765	0.13828	0.23601	0.056321	0.15181	0.12215	0.036218	0.056967	0.20615	0.16237	-0.59167	-0.30208	-1.0604	-0.875	-0.19792	-1.0292	-0.41875	-0.61458	-1.0708	-0.083333	-0.85833	-0.8	-0.20417	-1.1958	-0.35833	-0.36667	371.257	194.698	467.954	513.564	357.423	263.219	494.359	368.956	417.322	435.369	484.240	306.312	242.799	292.515	458.296	264.178	0.00061909	0.0014868	0.00034942	994.28	1.0888e-05	1.953e-06	727.95	372.06	3.3448e-05	1.7521e-05	292.48	94.476	132.92	58.184	9.2169e-06	37.97	0.017456	0.022315	0.0062631	1137.3	0.00023515	0.00024899	887.76	415.22	0.00023484	0.00024996	380.88	123.33	157.51	67.074	0.00024111	51.789	501.767	208.941	478.837	183.049	275.466	478.238	181.266	187.999	339.132	307.988	184.489	187.670	191.413	195.580	279.867	191.718	-8191	255	
7305.331	1	1	0	0	0.24314	0.16301	0.29412	0.30015	0.083182	0.14339	0.3039	0.14639	0.19719	0.11558	0.10616	0.22061	0.032204	0.14728	0.32725	0.16424	-0.68333	-0.23333	-0.83542	-0.94375	-0.23333	-0.95417	-0.47917	-0.28125	-1.2854	-0.21667	-0.68125	-0.85	-0.20208	-0.8125	-0.525	-0.43125	288.029	174.745	254.504	192.178	328.307	175.352	512.594	470.580	298.924	448.822	276.653	171.291	422.879	359.224	445.236	435.605	0.00031178	0.0010563	0.00089346	996.14	1.8281e-05	1.9618e-05	725.25	368.44	5.0384e-06	9.424e-06	293.28	93.97	131.34	57.279	2.4524e-05	38.007	0.017508	0.022448	0.0063253	1137.8	0.00023675	0.00025005	887.48	413.83	0.0002363	0.00025007	381.89	122.93	155.96	66.404	0.00024149	51.505	518.494	174.453	227.879	182.942	262.173	353.996	181.029	187.968	209.135	291.414	184.456	188.091	191.665	195.671	352.382	191.547	-8191	255	
7305.425	1	1	0	0	0.22272	0.13852	0.3182	0.24221	0.20504	0.20688	0.12788	0.36581	0.0862	0.16338	0.20656	0.38297	0.30168	0.28452	0.26724	0.096214	-0.81667	-0.097917	-0.4375	-1.0229	-0.1375	-0.95208	-0.7125	-0.36667	-1.1667	-0.35	-0.56875	-0.9	-0.2	-0.92917	-0.76042	-0.26458	429.890	431.153	524.279	437.640	510.111	498.953	452.315	512.579	393.064	366.832	282.259	474.289	498.695	500.730	287.217	471.013	0.00056243	0.0025489	0.00045321	985.62	2.738e-05	2.7797e-05	732.78	368.21	6.1136e-06	1.8283e-05	291.88	93.945	130.88	57.249	2.2841e-05	37.457	0.017557	0.022427	0.0063206	1131.2	0.00023708	0.00025135	887.58	413.13	0.000236	0.00024985	381.87	122.76	155.81	66.19	0.00024239	51.146	529.608	206.981	508.046	183.028	228.804	296.150	181.249	187.960	175.890	279.035	184.719	188.040	191.563	195.746	253.402	191.633	-8191	255	
7305.546	1	1	0	0	0.04745	0.19152	0.065984	0.11059	0.11746	0.31573	0.2655	0.18908	0.064602	0.30586	0.36136	0.16199	0.43773	0.14416	0.12495	0.25633	-0.55625	-0.26875	-0.46458	-1.3312	-0.075	-0.76667	-0.8875	-0.060417	-1.1146	-0.42708	-0.42292	-1.1521	-0.40417	-0.77708	-0.8375	-0.1875	262.339	338.587	407.018	468.999	207.134	356.689	447.390	507.855	183.317	364.875	480.067	240.042	178.408	522.245	267.244	202.403	0.00050781	0.0010341	9.4531e-05	982.87	8.8208e-06	2.3254e-05	729.78	368.92	2.2488e-05	9.4336e-06	293.32	93.925	131.16	57.528	2.1915e-05	37.624	0.017663	0.022512	0.0063093	1129.7	0.00023786	0.00025226	887.44	413.2	0.00023807	0.0002528	382.31	123.23	156.04	66.429	0.00024299	51.358	193.193	522.223	321.929	182.965	421.540	320.098	180.961	187.605	358.674	426.404	185.182	188.189	191.533	195.768	280.720	191.369	-8191	255	
7305.617	1	1	0	0	0.063534	0.31652	0.40195	0.18778	0.13421	0.053183	0.17107	0.60952	0.26395	0.2163	0.39957	0.099217	0.05735	0.22038	0.129	0.1533	-0.53333	-0.56667	-0.26458	-0.94167	-0.064583	-0.66875	-0.93958	-0.21458	-0.95417	-0.55417	-0.12292	-1.0583	-0.3375	-0.45	-0.975	-0.13333	447.698	456.978	470.334	459.885	467.388	255.366	474.191	506.705	270.349	413.152	454.964	186.544	298.976	512.257	238.380	504.918	0.00076331	0.00034321	0.00047944	983.93	7.2996e-06	2.3312e-05	722.46	365.76	1.5476e-05	6.9892e-06	290.83	93.094	131.05	57.527	4.7472e-06	37.745	0.017629	0.022473	0.0063077	1131	0.00023624	0.00024977	882.06	410.38	0.00023545	0.00025021	378.58	122.04	155.38	66.37	0.00024043	51.302	188.360	480.701	316.100	183.027	308.898	360.555	181.124	187.972	324.465	353.824	184.839	187.603	191.254	195.766	319.582	191.940	-8191	255	
7305.713	1	1	0	0	0.24662	0.21989	0.18339	0.20984	0.17608	0.076617	0.10921	0.26181	0.21992	0.050285	0.1627	0.13931	0.082146	0.078725	0.19848	0.3473	-0.68958	-0.63542	-0.089583	-1.2083	-0.26042	-0.43125	-1.0562	-0.31667	-0.79792	-0.70833	-0.25208	-1.0458	-0.48542	-0.54583	-0.9125	-0.23333	372.797	514.905	438.775	486.572	376.722	187.476	490.771	523.495	322.134	381.376	505.734	227.074	489.028	478.392	192.816	459.166	0.00056972	0.00063715	0.0006021	982.02	8.3362e-06	1.307e-05	725.22	365.31	1.2245e-05	6.2423e-06	293	93.949	131.41	57.951	2.0067e-05	38.291	0.017563	0.022464	0.0062907	1130	0.00023581	0.00025074	884.04	411.28	0.00023501	0.00024991	379.73	122.41	156	66.904	0.00024068	51.907	200.153	170.449	286.974	183.326	497.402	377.267	181.330	187.810	280.494	459.547	184.864	187.860	191.486	195.578	233.133	191.595	-8191	255	
7305.834	1	1	0	0	0.25407	0.1494	0.32214	0.15655	0.08404	0.31001	0.097457	0.093498	0.17649	0.13377	0.13881	0.21606	0.11465	0.11413	0.090687	0.19664	-0.54792	-0.70833	-0.15417	-0.97708	-0.46667	-0.45	-0.98333	-0.26458	-0.53333	-1.1375	-0.20208	-1.0333	-0.52917	-0.39583	-1.1854	-0.29583	500.365	523.204	388.674	528.910	213.680	510.883	453.943	230.495	181.754	452.241	523.633	379.700	498.302	477.083	201.293	521.382	0.00049257	0.001523	0.00045203	996.41	1.9e-05	2.342e-05	743.31	368.44	1.252e-05	9.0479e-06	295.37	94.545	133.27	58.65	5.7391e-06	38.83	0.017575	0.022473	0.006315	1138.2	0.00023876	0.00025237	899.93	415.03	0.00023686	0.00025133	384.51	124.32	157.09	67.582	0.00024268	52.753	514.618	280.401	227.534	183.070	248.087	187.686	181.023	187.418	457.484	486.514	184.369	188.044	191.294	195.810	499.229	191.556	-8191	255	
7305.930	1	1	0	0	0.1902	0.1576	0.13316	0.25902	0.29375	0.07902	0.34311	0.24331	0.095659	0.13559	0.034226	0.068955	0.2002	0.14857	0.060496	0.11805	-0.29375	-1.0958	-0.0625	-1.0688	-0.5125	-0.34375	-1.1646	-0.3	-0.54167	-1.0896	-0.31875	-0.99375	-0.66042	-0.40625	-1.2375	-0.42083	301.811	513.743	191.528	474.911	332.864	263.527	505.198	459.068	380.254	424.883	348.532	267.160	479.786	208.431	450.963	182.304	0.0004799	0.0020808	0.00061772	997.76	1.5239e-05	1.3495e-05	747.9	373.03	1.6784e-05	3.7001e-06	298.28	96.268	133.24	58.959	1.6585e-05	39.283	0.017661	0.022538	0.0063511	1148.1	0.00023866	0.00025388	910.57	418.27	0.00023874	0.00025218	388.3	126.08	158.02	67.979	0.00024472	53.021	178.332	403.843	291.880	182.817	393.397	407.722	180.954	187.705	295.795	182.280	184.614	188.076	191.260	195.912	472.538	191.713	-8191	255	
7306.026	1	1	0	0	0.03465	0.05062	0.201	0.044344	0.25676	0.18307	0.23042	0.095231	0.11896	0.28489	0.18889	0.17562	0.24688	0.13252	0.23798	0.14996	-0.09375	-0.975	-0.08125	-0.98542	-0.6625	-0.2125	-1.2833	-0.49167	-0.55208	-0.94167	-0.23333	-0.74167	-1.0271	-0.35208	-1.0771	-0.6875	430.116	369.135	241.404	220.381	217.821	211.468	489.620	184.478	509.607	375.186	516.824	192.349	184.326	419.784	501.642	464.630	0.00026568	0.00044012	0.00019896	1006.8	9.0262e-06	1.9963e-05	752.39	373.12	9.4472e-06	2.997e-05	303.42	97.674	134.62	59.965	6.6738e-06	40.165	0.017841	0.02261	0.0063395	1151	0.000239	0.0002536	916.08	419.23	0.00023925	0.0002539	391.87	127.18	159.71	69.01	0.00024494	53.746	174.757	475.927	268.205	183.387	256.432	354.882	181.124	187.430	368.119	405.408	184.789	188.035	191.460	195.439	291.387	191.573	-8191	255	
7306.122	1	1	0	0	0.28673	0.17483	0.30602	0.063636	0.027509	0.11017	0.10339	0.28447	0.28353	0.17529	0.17789	0.10316	0.12348	0.22794	0.03926	0.28094	0.014583	-0.86667	-0.095833	-0.73125	-1	-0.23125	-1.0479	-0.60625	-0.24375	-1.1396	-0.22917	-0.67083	-1.1875	-0.27917	-0.975	-0.57917	241.583	494.103	430.245	501.838	502.708	255.348	495.356	175.894	399.041	422.913	498.800	529.691	236.921	487.344	342.890	389.851	0.00063911	0.00289	0.00016423	1010.7	2.175e-05	2.2625e-05	753.57	375.4	8.2833e-06	1.8908e-05	299.66	97.141	134.78	60.342	2.1965e-05	40.373	0.017706	0.022556	0.0063029	1157.6	0.00023805	0.00025014	913.24	420.62	0.00023637	0.0002499	387.85	126.5	159.87	69.323	0.00024207	53.85	170.262	359.537	358.105	183.169	525.589	253.239	181.256	187.768	295.181	343.545	184.459	188.186	191.527	195.788	522.242	191.616	-8191	255	
7306.219	1	1	0	0	0.036294	0.15824	0.11708	0.14788	0.1694	0.18716	0.037888	0.18713	0.1494	0.26137	0.2318	0.086609	0.15343	0.24283	0.1363	0.29835	0.15208	-1.2208	-0.23333	-0.8	-0.91667	-0.20208	-0.83542	-0.76042	-0.13125	-0.93125	-0.48958	-0.55	-1.0521	-0.31042	-0.8875	-0.64583	313.534	477.952	449.039	456.093	197.286	269.066	274.720	429.160	229.390	422.604	448.935	218.383	493.152	456.008	275.312	180.502	0.00029057	0.0014157	0.00099093	1007.2	1.401e-05	1.7784e-05	762.33	376.31	3.7925e-06	1.7509e-05	300.63	96.592	133.36	59.495	7.7998e-06	39.724	0.017629	0.022541	0.006287	1155.9	0.00023598	0.00025148	914.62	419.64	0.00023637	0.00024914	387.2	125.76	158.63	68.304	0.00024288	53.263	184.522	239.989	328.749	183.077	300.149	398.036	181.091	188.150	407.710	190.475	184.988	188.362	191.680	195.699	198.301	191.331	-8191	255	
7306.315	1	1	0	0	0.066847	0.02821	0.20733	0.2296	0.10933	0.22299	0.19754	0.17096	0.20512	0.19831	0.18063	0.14633	0.084676	0.50229	0.0989	0.058688	0.17917	-1.1063	-0.36458	-0.63333	-1.1479	-0.18125	-1.0125	-1.125	-0.25	-1.0604	-0.57917	-0.45833	-1.125	-0.36458	-0.68542	-0.90208	414.275	218.221	498.689	507.132	486.422	387.737	427.292	503.113	358.989	180.913	458.310	499.764	505.459	516.467	513.024	418.543	0.00050196	0.0019328	0.0004756	1016.8	2.8469e-05	1.4848e-05	756.73	375.65	8.8723e-06	1.4107e-05	301.03	98.327	135.49	59.831	6.8754e-06	39.914	0.01757	0.022501	0.0063667	1155.8	0.00023774	0.00025162	918.36	420.75	0.00023712	0.0002515	389.81	127.12	159.88	68.757	0.00024286	53.572	173.461	304.644	310.267	183.260	257.401	291.015	180.991	187.523	488.111	383.224	184.702	188.284	191.817	195.482	171.881	191.638	-8191	255	
7306.434	1	1	0	0	0.18906	0.22096	0.29181	0.48977	0.023329	0.20791	0.13568	0.30176	0.15841	0.27949	0.16834	0.068942	0.073754	0.25474	0.036144	0.025859	0.32917	-1.0146	-0.38333	-0.30833	-0.87292	-0.25208	-0.49792	-0.9875	-0.25208	-0.86042	-0.70417	-0.11458	-1.3312	-0.42917	-0.59167	-1.0771	375.269	432.805	527.530	489.406	501.189	273.067	327.500	507.942	230.710	396.672	432.333	262.713	346.328	529.559	359.635	291.428	0.00054622	0.00043529	0.00048406	1013.4	7.1437e-06	2.2163e-05	750.89	377.12	9.7245e-06	6.7773e-06	303.69	98.611	135.96	59.969	6.8591e-06	39.568	0.017633	0.022483	0.0063234	1153.3	0.00023736	0.00025211	914.95	421.11	0.00023716	0.00025302	391.38	127.88	160.67	68.791	0.00024346	53.483	511.092	193.503	206.217	183.008	330.166	443.704	181.444	187.812	233.859	187.595	184.947	187.849	191.588	195.593	474.588	191.259	-8191	255	
7306.530	1	1	0	0	0.12427	0.094243	0.1675	0.10147	0.12734	0.10932	0.1598	0.44196	0.32165	0.22356	0.26191	0.091379	0.43054	0.11878	0.26157	0.37024	0.20417	-0.95833	-0.65833	-0.39792	-1.0312	-0.24792	-0.58333	-1.2167	-0.25417	-0.98958	-0.92083	-0.17292	-1.2188	-0.48542	-0.29375	-1.0021	280.375	329.395	231.825	447.097	475.869	378.729	493.077	451.350	384.348	408.743	501.768	246.081	201.591	382.756	340.231	512.304	0.00023146	0.0004165	0.0010179	999.45	2.0091e-05	1.0694e-05	748.78	373.49	1.1533e-05	1.7479e-05	295.46	96.078	134.17	58.989	1.9491e-05	38.882	0.017643	0.022635	0.0063373	1151.1	0.00023758	0.00025047	908.78	417.4	0.00023435	0.00024944	383.79	124.77	158.32	67.679	0.00024149	52.571	487.625	403.726	380.286	183.045	303.995	214.831	181.299	187.974	395.528	262.403	185.130	188.060	191.490	195.427	230.386	191.250	-8191	255	
7306.626	1	1	0	0	0.052515	0.16407	0.071694	0.17017	0.5028	0.42968	0.30192	0.34005	0.38633	0.024431	0.085423	0.18781	0.1338	0.13908	0.17745	0.29358	0.37292	-0.64583	-0.71458	-0.24375	-0.95417	-0.45208	-0.41042	-1.2479	-0.33958	-0.64583	-0.975	-0.41458	-1.0187	-0.74167	-0.25625	-0.94583	181.636	288.872	436.976	464.417	529.932	288.418	175.433	490.625	295.987	503.427	492.995	453.229	217.110	250.324	184.594	485.152	0.00023206	0.00064796	0.00042825	999.58	1.2429e-05	1.2206e-05	749.26	372.99	2.4582e-06	1.6714e-05	294.81	96.237	133.21	58.779	2.1792e-05	38.593	0.017422	0.02245	0.0062719	1148.1	0.00023678	0.00025066	903.94	417.83	0.00023394	0.00024808	382.32	124.36	158.32	67.607	0.00024035	52.032	195.207	517.070	241.990	182.783	270.416	466.075	181.521	187.981	316.495	328.762	184.473	187.847	191.791	195.794	348.898	191.485	-8191	255	
7306.722	1	1	0	0	0.041557	0.085468	0.10329	0.19187	0.25015	0.22601	0.13551	0.078321	0.16086	0.20289	0.080588	0.24068	0.12449	0.24616	0.17274	0.34983	0.2125	-0.40833	-0.81458	-0.375	-1.0063	-0.59375	-0.33333	-1.1771	-0.083333	-0.55625	-1.0167	-0.12292	-0.93958	-1.0417	-0.15833	-1.0771	242.473	510.365	424.952	342.778	377.207	178.304	402.583	435.450	337.718	318.797	249.297	493.344	394.119	414.298	375.579	402.554	0.00075944	0.0027305	0.00035146	1004.2	1.609e-05	7.2297e-06	738.51	373.44	2.6967e-05	2.8643e-05	298.07	95.786	134	58.675	8.3019e-06	39.162	0.017329	0.022338	0.0062976	1146.3	0.0002365	0.00025028	903.37	418.37	0.000236	0.00025079	387.15	125.12	158.84	67.899	0.00024128	52.688	181.979	275.581	382.454	183.094	292.258	409.856	181.150	187.560	265.357	413.612	185.141	188.134	191.710	195.632	320.919	191.673	-8191	255	
7306.843	1	1	0	0	0.10602	0.21872	0.34423	0.29429	0.14072	0.13889	0.088102	0.43182	0.16096	0.16635	0.20806	0.13906	0.060555	0.16826	0.2585	0.12699	0.10208	-0.44375	-0.875	-0.41875	-0.87917	-0.70208	-0.2375	-1.2208	-0.44792	-0.42917	-1.2208	-0.26667	-0.87292	-0.87917	-0.020833	-1.1708	173.998	402.175	469.166	509.790	525.759	478.114	375.028	395.648	268.272	457.476	507.847	477.620	435.172	449.511	281.984	381.065	0.00052235	0.0022827	0.00022473	1002.8	6.6068e-06	1.3315e-05	741.67	373.64	1.6165e-05	1.9676e-06	299.16	96.08	133.42	59.232	1.2821e-05	38.862	0.017535	0.022447	0.0063038	1146.2	0.00023683	0.00025109	904.87	419.19	0.00023709	0.00025073	387.2	125.07	158.71	67.927	0.0002441	52.579	496.283	527.357	353.299	183.058	307.503	289.395	181.218	187.714	172.432	314.694	184.839	188.064	191.541	195.577	337.530	191.905	-8191	255	
7306.914	1	1	0	0	0.072114	0.20512	0.16611	0.074534	0.021422	0.44239	0.26946	0.20011	0.1611	0.19306	0.11788	0.23323	0.18634	0.27266	0.10383	0.17715	-0.014583	-0.18333	-1.0896	-0.48125	-0.625	-0.91875	-0.24167	-1.1313	-0.52292	-0.34167	-1.2646	-0.40208	-0.84792	-1.0562	-0.12292	-0.79375	381.602	497.209	482.459	423.846	497.083	307.343	406.928	475.317	336.879	254.787	482.966	301.784	226.760	487.993	317.600	199.765	0.00060964	0.0014058	0.0005706	1001.5	1.5898e-05	1.9127e-05	746.12	372.92	1.1692e-05	1.9072e-05	298.34	95.288	134.33	58.349	2.8188e-05	38.769	0.017763	0.02256	0.0063531	1148.9	0.00023914	0.00025188	905.92	418.48	0.00023697	0.00025271	387.17	124.66	158.66	67.529	0.0002429	52.389	171.570	213.993	208.049	183.113	321.664	176.941	180.974	187.949	215.565	206.114	185.095	188.273	191.663	195.943	275.288	191.854	-8191	255	
7307.011	1	1	0	0	0.14236	0.10379	0.045549	0.11671	0.28569	0.040029	0.2975	0.27212	0.1701	0.28645	0.18087	0.14444	0.19988	0.37799	0.21622	0.038786	-0.26667	-0.34792	-0.89375	-0.24375	-0.67292	-1.0354	-0.32292	-1.1521	-0.81458	-0.36042	-1.2979	-0.40417	-0.49583	-1.1688	-0.27917	-0.72083	388.296	424.978	192.808	524.740	347.019	490.244	382.865	502.942	184.781	366.290	489.639	345.651	527.398	439.290	493.348	510.935	0.00044501	0.0011127	0.00016657	1002.4	5.5348e-06	1.7039e-05	741.95	375.9	2.0836e-05	1.9467e-05	295.51	95.837	134.13	58.703	2.9354e-05	38.016	0.017624	0.022707	0.0063526	1148.6	0.00023911	0.00025345	900.56	420.25	0.00023789	0.00025197	385.35	124.5	158.55	67.532	0.00024203	51.454	170.589	499.854	508.799	182.889	360.277	194.659	181.016	188.142	503.525	271.593	184.752	187.650	191.759	195.842	301.126	191.587	-8191	255	
7307.107	1	1	0	0	0.3458	0.20116	0.11438	0.27155	0.16524	0.249	0.082947	0.1426	0.067581	0.18756	0.22146	0.23109	0.48257	0.21136	0.32498	0.033551	-0.41458	-0.28958	-1.2188	-0.62083	-0.37083	-1.2	-0.56667	-0.99167	-0.84583	-0.23958	-1.15	-0.61042	-0.51667	-1.2542	-0.15	-0.82917	219.192	474.665	273.897	173.540	391.512	460.526	232.936	454.201	394.485	210.260	449.804	503.629	494.550	462.971	334.334	256.970	0.00070599	0.0014971	0.00027221	992.34	2.4642e-06	7.215e-06	728.28	370.08	1.3422e-05	2.4201e-05	292.04	94.529	133.41	58.279	3.3314e-06	37.858	0.017573	0.022385	0.006285	1138.4	0.00023554	0.0002484	887.24	414.63	0.00023414	0.00024886	380.43	123.17	157.93	67.285	0.00024289	51.676	181.456	277.478	361.749	183.112	339.396	450.334	181.178	187.964	472.857	344.785	185.049	188.486	191.622	195.840	251.158	191.544	-8191	255	
7307.227	1	1	0	0	0.25423	0.061094	0.048888	0.25382	0.26658	0.12326	0.27309	0.33552	0.21636	0.037616	0.048407	0.17587	0.15089	0.30517	0.07298	0.090459	-0.50833	-0.32917	-1.1042	-0.85	-0.36458	-1.0979	-0.24583	-0.76042	-1.1396	-0.1	-0.88125	-0.63542	-0.35625	-1.0292	-0.2375	-0.58125	175.958	514.858	255.377	462.394	447.846	511.865	421.362	189.005	465.579	521.660	359.706	261.707	200.609	468.549	364.263	366.094	0.00060599	0.0018485	0.00021423	986.99	3.2495e-06	2.3957e-05	733.25	369.47	8.0763e-06	2.5866e-05	294.27	94.587	133.64	58.241	2.0387e-05	37.866	0.017583	0.022482	0.0063354	1137.4	0.00023855	0.00025024	893.04	415.2	0.00023544	0.00024878	381.49	123.15	158	67.135	0.00024289	51.622	513.384	219.942	260.456	183.045	334.883	186.157	181.466	187.999	287.411	520.556	184.750	188.442	191.534	195.718	301.008	191.693	-8191	255	
7307.322	1	1	0	0	0.12033	0.10186	0.11116	0.066286	0.18676	0.21572	0.061763	0.22093	0.062842	0.084349	0.14733	0.20155	0.30326	0.40756	0.135	0.06639	-0.5125	-0.13958	-0.90625	-0.75	-0.16667	-1.1021	-0.43333	-0.5875	-1.0271	-0.10833	-0.71458	-0.90625	-0.14375	-1.2687	-0.4875	-0.47917	322.475	424.083	374.757	517.978	171.908	473.031	204.656	442.510	528.233	368.605	515.746	191.313	444.154	507.284	255.895	441.310	0.00059153	0.00098242	0.00036017	992.88	9.0535e-06	1.8051e-05	734.43	372.52	9.1746e-06	6.2731e-06	296.86	94.367	133.29	57.815	1.8409e-05	37.603	0.017673	0.022488	0.0063466	1142.8	0.00023893	0.00025195	894.21	416.64	0.0002373	0.00025171	384.45	123.63	158.02	66.836	0.00024267	51.29	171.749	245.955	435.626	182.970	317.562	360.566	181.073	188.132	360.261	330.404	185.245	188.016	191.759	196.032	510.568	191.561	-8191	255	
7307.418	1	1	0	0	0.16854	0.17169	0.037687	0.46237	0.10233	0.27119	0.25282	0.35208	0.070668	0.24698	0.1697	0.13376	0.33299	0.14635	0.063759	0.20433	-0.68333	-0.010417	-0.72917	-0.94375	-0.15625	-1.0396	-0.475	-0.48333	-1.0354	-0.26667	-0.68958	-0.89583	-0.10625	-1.0187	-0.61667	-0.24792	201.887	468.246	182.798	498.915	351.745	300.460	172.695	191.012	517.499	239.457	442.502	432.938	518.383	442.964	284.275	482.653	0.00056008	0.0015814	0.00020617	1000.6	9.6889e-06	1.1446e-05	729.73	371.36	1.5446e-05	2.372e-05	297.57	94.561	132.83	57.768	3.7102e-06	37.426	0.017637	0.022573	0.0063598	1139.7	0.00023811	0.00025343	895.43	417.39	0.00023849	0.00025466	385.92	123.83	157.7	66.959	0.00024371	51.396	529.881	246.578	362.265	182.903	292.082	396.451	181.246	188.208	252.597	171.069	184.798	188.554	191.383	195.789	351.210	191.750	-8191	255	
7307.516	1	1	0	0	0.15849	0.06679	0.079883	0.062547	0.1375	0.15675	0.15053	0.29171	0.34145	0.26327	0.23777	0.096065	0.29241	0.25053	0.18747	0.060337	-0.76667	-0.4125	-0.45417	-1.1521	-0.3125	-0.975	-0.78542	-0.31042	-1.15	-0.43958	-0.65625	-1.1125	-0.20417	-0.85625	-0.58125	-0.17292	273.726	307.735	458.879	298.005	341.040	175.217	498.263	184.057	260.770	333.390	228.622	237.160	487.464	255.811	342.281	424.826	0.00038583	0.001266	0.0001833	993.29	1.2522e-05	1.3278e-05	722.45	366.66	3.3496e-06	1.67e-05	290.47	92.712	131.42	57.922	4.7883e-06	37.764	0.017665	0.022701	0.0063122	1136.1	0.00023688	0.00025187	884.23	412.21	0.00023472	0.00025058	379.08	122	156.33	66.563	0.00024088	51.442	200.178	477.185	383.065	183.177	301.499	293.025	181.133	188.042	202.000	445.419	185.263	188.277	191.634	195.582	266.264	191.833	-8191	255	
7307.610	1	1	0	0	0.19075	0.30813	0.25187	0.34864	0.17401	0.14563	0.1221	0.12054	0.15177	0.071708	0.1625	0.15722	0.05927	0.28745	0.22491	0.089725	-0.7875	-0.3125	-0.33958	-1.1792	-0.2375	-0.73125	-0.85	-0.29375	-1.0104	-0.34375	-0.5125	-1.2042	-0.26042	-0.76667	-0.70417	-0.19167	496.096	264.270	519.180	476.424	458.788	518.451	497.208	474.041	272.123	229.461	299.771	284.613	228.345	463.875	221.389	411.909	0.00045626	0.0015154	0.00027308	993.18	1.5304e-05	2.9339e-05	728.25	369.57	1.5932e-05	7.0249e-06	294.83	95.907	133.03	58.804	2.3625e-05	38.285	0.017502	0.02236	0.0062667	1136.6	0.00023626	0.00025106	892.14	415.94	0.00023556	0.0002492	382.83	123.98	158.36	67.879	0.00024215	52.212	179.759	297.633	224.407	182.894	415.621	382.875	181.615	188.050	300.865	276.965	184.559	187.336	191.557	195.695	374.630	191.613	-8191	255	
7307.706	1	1	0	0	0.042183	0.22332	0.17748	0.27145	0.1542	0.23082	0.17666	0.27069	0.16485	0.086729	0.15795	0.15315	0.03653	0.11221	0.1879	0.4141	-0.66875	-0.56875	-0.20833	-1.1708	-0.42292	-0.75208	-1.0187	-0.28542	-0.96458	-0.55833	-0.36042	-1.2229	-0.44167	-0.75	-0.92917	-0.31667	281.248	406.883	190.840	182.705	419.292	508.259	499.081	501.591	482.789	196.524	214.821	342.909	239.258	467.560	455.611	340.953	0.0010954	0.00069243	0.00045877	997.5	1.2671e-05	1.6911e-05	730.25	372.44	2.4081e-05	1.2897e-05	296.06	94.615	134.75	58.745	8.9177e-06	38.492	0.017577	0.022464	0.0063193	1143.4	0.00023644	0.00025243	894.98	416.76	0.00023568	0.00024954	384.09	124.05	158.53	67.615	0.00024278	52.139	197.447	316.125	235.013	183.311	460.552	341.657	181.255	187.912	275.095	271.593	184.840	188.312	191.819	195.850	294.871	191.464	-8191	255	
7307.802	1	1	0	0	0.19124	0.30497	0.11172	0.32393	0.12769	0.1755	0.12802	0.3205	0.26356	0.2261	0.091845	0.064611	0.19518	0.12137	0.082235	0.33488	-0.65417	-0.62708	-0.014583	-1.1917	-0.30208	-0.5875	-1.0667	-0.35	-0.97083	-0.73542	-0.095833	-1.0312	-0.47083	-0.34792	-1.1396	-0.14167	198.796	467.175	291.815	181.403	450.068	510.833	350.472	476.485	318.889	301.387	189.683	271.074	382.267	514.306	244.199	467.192	0.00080703	0.00095547	0.00067398	999.14	1.4944e-05	2.6608e-05	740.52	376.25	1.5922e-05	3.3128e-05	300.47	96.354	134.83	59.96	3.7946e-05	39.541	0.017602	0.022589	0.0063466	1145.3	0.00023899	0.00025374	901.19	420.38	0.00023961	0.00025365	388.92	125.79	160.15	69.021	0.00024591	53.633	511.839	171.545	350.299	183.214	325.851	434.733	181.174	187.863	343.100	336.745	185.041	187.998	191.828	195.778	343.231	191.374	-8191	255	
7307.923	1	1	0	0	0.25221	0.1745	0.23534	0.25366	0.056146	0.2106	0.30089	0.23938	0.15997	0.11674	0.33314	0.2401	0.22377	0.26588	0.27034	0.26182	-0.26458	-0.775	-0.11875	-1.0521	-0.57708	-0.4375	-1.1063	-0.20417	-0.73542	-1.0396	-0.22083	-0.84583	-0.49167	-0.42708	-1.075	-0.13542	204.659	397.399	241.849	366.641	232.045	397.218	494.127	491.016	192.669	331.421	497.849	241.554	519.004	468.390	222.144	221.551	0.00042003	0.00053981	0.00071372	1005.8	1.5532e-05	1.108e-05	744.55	374.61	1.1314e-05	1.5936e-05	299.26	96.581	135.63	59.988	1.1094e-05	39.303	0.017909	0.022838	0.0063914	1154.5	0.00024068	0.00025609	906.98	421.45	0.00023955	0.00025393	388.48	125.94	160.39	68.939	0.00024482	53.166	525.493	359.226	171.094	183.119	307.008	212.317	181.343	188.014	437.801	518.831	184.924	188.340	191.437	196.043	382.617	191.799	-8191	255	
7308.019	1	1	0	0	0.12107	0.30081	0.24323	0.13967	0.018697	0.09281	0.14839	0.35861	0.16516	0.23579	0.17384	0.096655	0.12923	0.13272	0.10533	0.15191	-0.27083	-0.70417	-0.14583	-1.1458	-0.60625	-0.29375	-1.3375	-0.20833	-0.39583	-0.92917	-0.04375	-0.84792	-0.7875	-0.23958	-1.15	-0.34792	319.832	401.733	264.788	508.484	355.236	477.541	269.495	465.424	189.746	479.849	337.561	199.058	488.494	213.533	315.013	211.952	0.0009342	0.00062626	0.00019413	1006.5	1.2374e-05	3.1187e-05	742.94	376.74	2.0146e-05	5.5734e-06	296.85	95.747	134.97	59.824	1.0912e-05	38.329	0.01781	0.022798	0.0063916	1152.2	0.00023979	0.00025485	901.78	420.92	0.00023971	0.00025454	386.48	125.18	159.96	68.698	0.00024586	52.311	185.591	495.784	438.725	182.964	319.590	188.362	181.162	187.981	460.664	324.447	184.768	188.541	191.671	195.784	244.578	191.344	-8191	255	
7308.115	1	1	0	0	0.071213	0.34179	0.068796	0.24081	0.068507	0.16373	0.25489	0.20464	0.24048	0.063937	0.047554	0.24797	0.015028	0.25411	0.14903	0.17153	0.052083	-0.83958	-0.058333	-1.0375	-0.67917	-0.064583	-1.0292	-0.40417	-0.41458	-1.1333	-0.35208	-0.86042	-0.95625	-0.12292	-1.0438	-0.49792	329.461	479.628	412.493	479.003	286.269	403.970	522.934	199.318	393.451	527.929	516.064	490.267	505.798	474.138	187.849	428.646	0.0005323	0.00065334	0.00051895	992.95	3.2604e-06	2.3893e-05	732.81	374.6	5.1619e-06	1.0671e-05	297.56	96.268	134.87	60.008	2.7173e-05	39.118	0.017783	0.022716	0.0063932	1143.9	0.00023926	0.00025537	895.9	419.49	0.00023945	0.00025566	387.65	125.59	160.68	69.132	0.00024636	52.864	527.344	368.745	243.180	183.044	378.240	502.882	180.946	187.816	197.417	205.553	184.749	188.070	191.526	195.996	174.583	191.147	-8191	255	
7308.212	1	1	0	0	0.24709	0.19998	0.24434	0.12215	0.063217	0.17615	0.10479	0.22145	0.014712	0.12876	0.23889	0.056674	0.32613	0.04305	0.25925	0.30471	-0.029167	-0.93125	-0.083333	-0.77708	-0.77292	-0.18542	-1.0917	-0.51458	-0.30208	-1.0438	-0.28542	-0.7375	-1.0063	-0.22917	-0.81667	-0.69792	193.078	176.254	369.376	180.724	362.599	434.604	386.834	182.261	215.147	432.071	449.681	283.462	425.427	437.358	484.440	508.356	0.00059529	0.0019696	7.1964e-05	996.84	1.9985e-05	2.2343e-05	731.62	378.79	2.0531e-05	3.0401e-05	295.81	96.47	135.66	59.871	2.5437e-05	39.353	0.017942	0.022887	0.0064531	1147.7	0.00024166	0.00025587	897.55	421.59	0.00024153	0.00025657	388.25	126.24	160.97	69.12	0.00024821	53.217	508.393	316.720	251.437	183.200	241.550	459.941	180.963	187.742	306.287	294.536	184.968	188.100	191.432	195.805	280.578	191.696	-8191	255	
7308.308	1	1	0	0	0.099165	0.13111	0.13589	0.15512	0.19591	0.29493	0.42171	0.2109	0.059241	0.1417	0.031232	0.23355	0.26154	0.23688	0.38482	0.44238	-0.070833	-1.0938	-0.28333	-0.74792	-0.91667	-0.052083	-1.0792	-0.9375	-0.3375	-1.0083	-0.29583	-0.62917	-0.93542	-0.19375	-0.81667	-0.79583	428.812	341.890	393.659	483.914	388.895	316.060	477.839	529.579	357.557	451.642	529.106	280.191	431.243	520.512	523.442	488.706	0.00069997	0.0021877	0.00018668	996.56	1.1098e-05	1.5909e-05	740.89	375.06	1.3174e-05	1.676e-05	298.63	96.153	135.37	59.651	1.1414e-05	38.957	0.018043	0.023137	0.0064735	1147.6	0.00024295	0.00025679	902.17	421.34	0.00024188	0.00025629	388.85	126.16	160.73	68.675	0.00024862	52.82	173.399	209.909	432.333	183.252	297.148	280.719	181.245	187.807	231.160	261.962	185.134	188.260	191.665	196.204	483.376	191.827	-8191	255	
7308.402	1	1	0	0	0.2165	0.27997	0.17011	0.085	0.10308	0.11153	0.064136	0.20366	0.23684	0.13079	0.20984	0.49951	0.24247	0.20001	0.1135	0.16113	0.0875	-1.1354	-0.31458	-0.65417	-0.85625	-0.025	-0.72708	-0.86458	-0.125	-1.2104	-0.38542	-0.44167	-1.0396	-0.33958	-0.59792	-1.0083	404.600	512.857	394.027	264.373	295.685	482.054	437.446	471.944	307.779	224.300	459.981	432.234	359.779	178.846	256.726	238.700	0.00065868	0.0021798	0.00036683	992.14	1.233e-05	1.4274e-05	732.08	373.46	7.2512e-06	7.7656e-06	293.09	94.294	133.79	58.515	2.5507e-05	37.318	0.017995	0.023086	0.0064359	1140.2	0.00024129	0.0002549	896.86	418.29	0.00024091	0.00025529	383.71	123.77	158.6	67.342	0.00024478	51.137	519.684	267.132	435.228	182.997	298.612	211.181	181.270	187.607	525.617	393.624	184.443	188.065	192.152	195.765	270.393	191.967	-8191	255	
7308.523	1	1	0	0	0.11656	0.33595	0.15802	0.14125	0.1326	0.048715	0.19611	0.29039	0.31381	0.23607	0.23228	0.30241	0.23402	0.19369	0.37238	0.24363	0.21042	-1.0729	-0.48333	-0.32708	-1	-0.33958	-0.82083	-1.0417	-0.0375	-0.99167	-0.72083	-0.19375	-1.2687	-0.4125	-0.60208	-0.9375	196.342	260.019	263.763	398.502	474.252	466.527	464.542	497.996	325.994	242.283	471.984	417.373	471.259	507.192	241.036	516.419	0.00056385	0.00088837	0.00018251	983.25	6.5287e-06	8.3319e-06	715.72	368.79	5.9176e-06	2.5586e-05	289.93	93.05	133.05	58.467	2.0554e-05	37.658	0.017682	0.022467	0.0063232	1129.4	0.00023631	0.00025108	876.32	412.77	0.00023604	0.00025185	377.95	122.15	157.42	67.151	0.0002449	51.204	176.843	393.522	298.259	183.094	238.983	240.495	181.647	188.020	190.978	420.863	184.913	188.184	191.948	195.812	272.855	191.269	-8191	255	
7308.619	1	1	0	0	0.13378	0.17879	0.13011	0.24543	0.33212	0.12815	0.12299	0.28743	0.2955	0.13591	0.2039	0.13675	0.23132	0.14971	0.28432	0.19496	0.18542	-0.69583	-0.69792	-0.17708	-0.98333	-0.53958	-0.56042	-1.0646	-0.064583	-0.89167	-0.99167	-0.32083	-1.0833	-0.44792	-0.44583	-1.1	281.691	238.598	493.859	193.731	280.618	291.611	455.632	425.935	303.706	330.453	216.745	514.734	223.690	523.323	412.242	524.247	0.00074368	0.0010036	0.00019216	985.03	2.5082e-06	1.3346e-05	721.76	372.61	1.2894e-05	9.593e-06	294.21	95.66	135.16	60.276	1.9774e-05	39.887	0.017733	0.022735	0.00638	1130.9	0.00024024	0.00025384	884.13	418.08	0.00023994	0.00025522	385.33	125.27	160.33	69.395	0.00024885	53.98	505.786	415.292	428.578	183.192	460.131	466.035	181.502	187.855	364.201	439.182	184.842	187.922	191.561	195.712	264.923	191.868	-8191	255	
7308.715	1	1	0	0	0.094914	0.35006	0.25712	0.061466	0.20887	0.1178	0.19564	0.18856	0.30687	0.040677	0.16241	0.15049	0.14985	0.16683	0.19552	0.12378	0.25	-0.6125	-0.725	0.01875	-0.99167	-0.57083	-0.67917	-1.0688	-0.20833	-0.83542	-0.9125	-0.25	-1.1021	-0.84375	-0.24167	-1.3333	210.214	242.515	186.354	489.557	416.525	420.401	481.104	495.548	501.931	422.062	412.842	354.138	513.184	459.807	421.557	199.861	0.00046227	0.00031699	0.00018566	1007.5	1.1816e-05	1.8363e-05	742.46	376.3	5.5877e-06	1.4972e-05	300.31	98.079	137.35	61.395	6.374e-06	40.718	0.018114	0.023205	0.0064933	1154.3	0.00024496	0.00025964	912.65	423.44	0.00024251	0.00025844	392.05	127.87	162.79	70.575	0.00024975	54.901	172.581	420.707	382.673	182.939	174.117	327.118	181.275	187.865	217.730	319.293	185.022	188.176	191.429	195.633	285.177	191.482	-8191	255	
7308.787	1	1	0	0	0.12751	0.10732	0.18945	0.17913	0.12637	0.24505	0.12748	0.13873	0.19779	0.26997	0.15094	0.23748	0.44189	0.13377	0.25647	0.036289	0.033333	-0.43542	-1.0333	-0.25625	-0.95625	-0.82917	-0.36667	-1.1437	-0.37292	-0.40625	-1.1354	-0.1625	-0.91042	-0.73125	-0.24375	-1.0688	363.609	430.099	355.710	510.918	415.510	189.094	430.587	393.796	204.210	512.675	357.471	236.430	490.503	176.189	285.165	285.906	0.00050602	0.0018861	0.00029908	1009.8	1.1604e-05	6.6259e-06	756.24	381.47	3.1829e-05	4.8785e-06	305	99.115	138.43	61.306	1.4514e-05	40.754	0.018153	0.023301	0.0065415	1159.6	0.00024569	0.00026107	922.39	427.99	0.00024521	0.00025926	396.13	129.42	163.78	70.633	0.00024986	54.496	501.020	263.052	205.633	183.469	386.833	292.100	181.222	187.787	246.194	339.903	184.365	187.838	191.671	195.433	266.240	191.755	-8191	255	
7308.883	1	1	0	0	0.18102	0.13175	0.1088	0.19945	0.051016	0.27085	0.25146	0.46582	0.15621	0.27433	0.099796	0.27585	0.35201	0.36938	0.16043	0.13386	0.041667	-0.43333	-1.0021	-0.31042	-0.78125	-0.72708	-0.29375	-1.2458	-0.38958	-0.42917	-0.94167	-0.32917	-0.93542	-0.97292	-0.23333	-1.1792	504.966	201.226	507.161	509.761	205.255	184.599	448.478	488.060	457.927	290.128	232.992	492.285	523.416	521.858	505.067	411.202	0.00073046	0.0012272	0.00060495	1000.2	7.7215e-06	3.115e-06	738.76	379.54	7.1752e-06	1.3284e-05	297.2	97.124	137.3	60.528	1.5119e-05	39.58	0.018199	0.023348	0.0065172	1154.3	0.00024589	0.00025907	911.09	425.88	0.00024422	0.00025845	390.28	127.2	162.43	69.73	0.00024837	53.45	527.783	310.448	282.688	183.432	331.481	498.066	181.115	187.933	497.576	264.986	184.738	187.794	191.621	195.849	336.280	191.502	-8191	255	
7309.003	1	1	0	0	0.072546	0.2311	0.23235	0.14603	0.31872	0.10929	0.25105	0.62212	0.34832	0.2193	0.20217	0.12074	0.092989	0.10371	0.047393	0.1297	-0.12083	-0.42708	-0.93958	-0.41875	-0.65	-0.76667	-0.0083333	-1.0458	-0.66667	-0.31875	-1.1667	-0.38125	-0.83958	-1.0771	-0.21458	-0.95833	457.243	326.455	338.865	296.553	271.467	209.594	475.268	519.573	333.159	508.138	460.933	468.486	450.710	528.168	251.891	439.017	0.00056072	0.0010583	0.00043708	994.7	1.3516e-05	2.8434e-06	734.61	376.74	1.696e-05	8.0981e-06	298.11	97.192	137.22	61.351	1.3805e-05	39.624	0.017938	0.022862	0.0064528	1146.8	0.00024241	0.00025582	896.91	423.61	0.00024311	0.00025786	388.51	127.24	162.99	70.405	0.00025027	53.857	512.609	257.621	176.317	182.989	293.073	221.424	181.643	187.871	381.288	528.219	184.657	187.909	191.599	195.553	346.975	191.930	-8191	255	
7309.100	1	1	0	0	0.12255	0.10011	0.18344	0.29601	0.10944	0.23793	0.10741	0.097648	0.44572	0.063518	0.13441	0.18493	0.31906	0.22699	0.1795	0.2431	-0.18958	-0.26667	-0.925	-0.375	-0.38958	-0.96875	-0.047917	-1.1833	-0.80417	-0.25208	-1.2375	-0.4125	-0.54792	-1.1875	-0.29583	-0.84792	196.806	456.605	471.091	519.693	436.816	340.823	487.093	412.330	214.487	435.675	474.709	510.016	213.414	171.637	459.650	178.161	0.00055836	0.00093874	0.00037072	996.78	1.2609e-05	2.0223e-05	738.11	375.02	2.2644e-06	1.7326e-05	299.28	96.973	136.81	61.105	7.3433e-06	39.788	0.018098	0.02328	0.0065365	1149.2	0.00024497	0.00026029	902.62	422.91	0.00024395	0.00025975	390.95	127.18	162.68	70.186	0.00025109	54.21	529.167	231.279	447.970	182.652	194.819	321.723	181.248	187.792	500.684	389.666	184.601	187.576	191.873	196.046	309.939	191.228	-8191	255	
7309.196	1	1	0	0	0.22866	0.27704	0.12152	0.10272	0.13206	0.058267	0.4001	0.28233	0.16072	0.28507	0.1127	0.15685	0.13364	0.11573	0.14125	0.20114	-0.25	-0.12083	-0.98542	-0.53542	-0.30208	-1.0063	-0.2	-0.87917	-0.72708	0.016667	-0.80417	-0.47708	-0.24792	-1.3896	-0.17708	-0.68542	447.432	318.970	269.213	261.459	495.365	367.737	174.008	518.537	363.081	210.848	313.245	448.160	205.220	486.343	528.974	477.049	0.0010882	0.0015491	0.00029419	997.59	1.5116e-05	7.5951e-06	741.8	378.25	8.0106e-06	1.3843e-05	299.53	98.183	137.1	61.143	2.0867e-05	40.099	0.018302	0.023454	0.0065955	1152.6	0.00024688	0.00026329	909.61	426.15	0.00024749	0.00026223	394.48	128.5	163.25	70.269	0.00025229	54.382	514.333	332.505	279.751	182.919	231.128	249.723	181.580	188.073	235.105	430.598	185.174	188.403	191.591	195.980	213.452	191.997	-8191	255	
7309.316	1	1	0	0	0.1075	0.23934	0.069138	0.24704	0.18803	0.15138	0.3258	0.056732	0.15992	0.13518	0.11112	0.2414	0.14609	0.13039	0.30874	0.17467	-0.60833	0.0125	-0.75208	-0.76042	-0.26458	-1.0854	-0.44375	-0.66875	-0.78958	-0.064583	-0.99583	-0.54583	-0.45208	-1.3167	-0.13958	-0.53542	323.469	288.691	335.705	483.688	383.428	298.097	513.219	508.173	329.837	372.586	297.563	528.991	267.918	503.201	333.656	501.410	0.00076673	0.00074999	0.00037165	996.64	1.8483e-05	1.8425e-05	742.98	381.9	1.5575e-06	1.2722e-05	303.72	98.642	137.94	61.155	1.5079e-05	40.308	0.018418	0.023517	0.0065824	1153.2	0.00024893	0.00026388	911.51	428.88	0.00024985	0.00026447	397.92	129.14	164.27	70.655	0.00025214	54.176	180.786	342.679	524.160	183.038	351.005	297.666	181.019	188.161	496.287	490.155	185.255	188.097	192.035	195.895	372.534	191.703	-8191	255	
7309.388	1	1	0	0	0.098055	0.14018	0.13255	0.18777	0.10223	0.059465	0.15154	0.11183	0.12748	0.022157	0.16303	0.12661	0.040651	0.12724	0.085458	0.12646	-0.61667	-0.225	-0.61042	-0.64375	-0.22083	-1.2208	-0.43125	-0.51042	-1.0646	-0.18958	-1.025	-0.92917	-0.35208	-1.1771	-0.51042	-0.55417	237.122	387.537	217.294	192.638	238.192	170.423	484.281	426.896	352.493	209.982	282.714	467.048	194.115	204.771	357.403	287.204	0.0007453	0.0020968	0.00036151	990.66	1.6668e-05	6.2814e-06	724.68	374.8	6.1346e-06	5.5556e-06	291.44	95.448	135.93	60.494	3.0642e-05	38.908	0.018146	0.023358	0.0065107	1144.3	0.00024444	0.00025815	888.7	421.15	0.00024111	0.00025663	383.64	124.99	161.62	69.736	0.00024783	52.918	210.812	270.161	280.401	182.979	371.542	443.697	181.167	188.079	349.386	215.922	184.680	187.915	191.475	195.766	243.154	191.702	-8191	255	
7309.484	1	1	0	0	0.24689	0.27038	0.35503	0.32888	0.079157	0.24597	0.19843	0.25536	0.16941	0.075448	0.33712	0.21947	0.050301	0.44082	0.18302	0.15188	-0.68542	-0.325	-0.79792	-0.8625	-0.079167	-1.0833	-0.53542	-0.45417	-1.1875	-0.19375	-0.81667	-0.91042	-0.21042	-1.0604	-0.57292	-0.37083	483.089	490.717	399.701	189.710	314.632	414.228	515.757	449.904	228.976	411.767	481.745	478.278	351.972	510.485	222.231	217.870	0.00030907	0.00083448	0.00064442	981.07	1.7485e-05	1.7034e-05	707.38	373.6	1.4448e-05	5.8518e-06	291.02	94.45	134.96	60.098	1.8562e-05	38.301	0.01787	0.022926	0.0064418	1135.4	0.00024112	0.00025575	878.8	419.09	0.00023931	0.00025469	380.37	123.89	160.04	68.82	0.00024593	52.334	234.808	440.629	485.528	182.925	311.937	346.346	181.135	188.013	309.901	326.254	185.045	187.863	191.626	196.034	241.904	191.671	-8191	255	
7309.603	1	1	0	0	0.11137	0.11818	0.33061	0.063756	0.18601	0.24983	0.16189	0.13923	0.11862	0.099784	0.26056	0.43562	0.095273	0.29403	0.12116	0.36794	-0.71458	-0.35417	-0.65417	-1.0396	-0.097917	-0.87708	-0.72292	-0.37083	-1.1083	-0.42708	-0.48958	-0.92292	-0.21667	-0.99375	-0.77083	-0.18958	235.802	425.834	210.494	503.352	301.692	478.599	181.088	437.930	171.176	361.592	497.323	483.644	200.068	470.591	376.881	450.893	0.00077313	0.00019522	0.00026699	978.49	1.1467e-05	7.6279e-06	722.38	373.86	1.6167e-05	1.2773e-05	294.41	95.547	135.03	59.788	5.8774e-06	38.554	0.017947	0.022879	0.0064278	1133.8	0.00024134	0.0002578	890.69	420.19	0.00024168	0.00025689	384.56	125.13	160.25	68.869	0.00024723	52.72	175.986	296.502	248.721	182.527	208.918	297.893	181.199	187.697	392.352	228.551	184.701	187.844	191.631	195.986	319.496	191.655	-8191	255	
7309.699	1	1	0	0	0.33736	0.14014	0.13416	0.29638	0.10102	0.16484	0.10881	0.094029	0.18813	0.035708	0.11051	0.18678	0.17549	0.14045	0.37596	0.096393	-0.65625	-0.27708	-0.15208	-1.0604	-0.11667	-0.82083	-1.0333	-0.36042	-0.96458	-0.36458	-0.425	-1.0875	-0.22917	-0.95208	-0.86458	-0.089583	468.692	431.565	362.679	435.957	481.086	251.034	197.790	506.452	468.839	294.011	382.907	297.859	496.576	503.326	505.753	410.882	0.00047497	0.00077377	0.00012662	988.19	1.6064e-05	4.9069e-06	726.19	374.45	1.4814e-05	1.5106e-05	298.47	96.851	135.64	60.244	1.3364e-05	38.973	0.017997	0.02295	0.00644	1139.4	0.00024255	0.00025817	893.79	420.97	0.00024251	0.00025704	388.72	126.75	161.3	69.439	0.0002496	53.195	523.480	516.521	256.141	183.053	522.063	398.183	181.017	187.707	262.525	327.658	185.065	187.913	191.609	195.713	176.629	191.523	-8191	255	
7309.795	1	1	0	0	0.23489	0.32158	0.15999	0.17935	0.24374	0.11684	0.056998	0.16855	0.064718	0.27574	0.14789	0.21451	0.22765	0.41175	0.15565	0.13226	-0.56042	-0.51875	-0.125	-1.0354	-0.325	-0.57917	-0.8	-0.20417	-0.81875	-0.63333	-0.17292	-1.075	-0.37917	-0.55	-1.0729	-0.20417	233.909	294.374	296.735	256.443	380.390	219.364	468.355	509.295	286.430	511.099	359.065	226.845	405.399	469.904	456.387	452.665	0.00067377	0.000983	0.00026401	986.9	1.1396e-05	2.8835e-05	723.84	373.33	1.611e-05	6.1598e-06	295.16	95.341	134.92	59.523	7.0083e-06	37.696	0.018063	0.023023	0.0064758	1135.8	0.00024272	0.00025698	888.25	419.44	0.00024177	0.00025506	384.2	124.69	159.52	68.329	0.0002434	51.636	173.845	320.514	368.025	183.065	226.205	385.746	181.188	187.865	352.471	172.231	184.306	188.186	191.273	195.773	334.286	190.927	-8191	255	
7309.916	1	1	0	0	0.21397	0.1388	0.045549	0.27002	0.40973	0.076305	0.13093	0.31637	0.17807	0.27624	0.19208	0.06408	0.13974	0.21156	0.12561	0.33152	-0.55	-0.825	-0.083333	-1.1708	-0.27292	-0.30625	-0.92083	-0.29792	-0.9125	-0.83958	-0.29375	-0.88125	-0.4	-0.425	-1.1125	-0.30417	415.185	365.601	186.989	171.022	419.062	356.517	224.605	171.768	224.019	504.537	481.172	526.619	489.932	529.477	513.353	470.675	0.00063726	0.0010586	0.00034912	978.1	1.504e-05	3.2079e-05	693.02	365.46	7.973e-06	2.4347e-05	280.3	91.604	132.29	58.182	1.3664e-05	36.731	0.017624	0.022597	0.0062946	1120	0.00023603	0.00025109	855.75	408.87	0.00023479	0.00024801	369.58	120.26	156.33	66.984	0.00024092	50.411	505.459	247.405	251.035	183.140	441.182	324.482	181.399	187.883	529.479	481.528	184.917	187.998	191.457	195.420	462.304	191.866	-8191	255	
7310.012	1	1	0	0	0.15786	0.30621	0.085956	0.14667	0.28257	0.34898	0.18298	0.099687	0.15086	0.13861	0.23273	0.26937	0.3087	0.10345	0.12705	0.28952	-0.48125	-0.65	-0.175	-1.1083	-0.42292	-0.37708	-1.0333	-0.11458	-0.56667	-0.90833	-0.016667	-1.0396	-0.59167	-0.28542	-1.1063	-0.28958	335.750	332.897	351.430	171.506	521.878	412.082	274.416	272.798	529.535	419.509	499.834	325.096	480.297	521.044	371.263	456.800	0.00068948	0.0004713	0.00036719	961.93	2.0998e-05	3.6494e-05	697.21	366.38	7.9653e-06	5.1447e-06	286.23	93.707	133.19	58.899	9.5972e-06	37.601	0.017449	0.02224	0.0062335	1111.4	0.00023448	0.00024945	857.77	411.98	0.00023477	0.00025033	374.48	122.03	158.01	67.941	0.00024124	51.631	188.701	515.066	392.145	183.059	278.005	520.099	181.126	187.588	403.496	283.856	184.852	187.445	191.296	195.727	231.681	191.374	-8191	255	
7310.084	1	1	0	0	0.038453	0.16702	0.15178	0.11631	0.097867	0.28757	0.13438	0.21474	0.33047	0.24739	0.090855	0.09335	0.30504	0.18598	0.028483	0.29008	0.00625	-0.92083	-0.01875	-0.81667	-0.55	-0.21042	-1.0875	-0.28542	-0.3875	-0.9375	-0.12292	-0.89583	-0.7	-0.31875	-0.875	-0.27917	344.280	170.504	249.450	453.430	328.380	400.961	442.928	461.214	224.492	524.065	500.917	496.931	506.027	508.663	416.379	442.933	0.00062296	0.0004668	0.0008499	969.74	3.2403e-06	4.062e-06	713.35	370.38	3.4211e-06	3.7522e-06	289.72	95.367	133.73	59.355	5.0877e-06	38.608	0.017648	0.022525	0.0063662	1117.7	0.00023842	0.00025275	873.81	416	0.00023805	0.00025222	380.17	124.25	158.66	68.203	0.00024355	52.062	523.274	386.930	283.128	183.256	415.131	489.296	181.214	188.181	288.740	444.284	184.913	187.883	191.264	195.704	476.708	191.179	-8191	255	
7310.204	1	1	0	0	0.26513	0.079173	0.20905	0.059729	0.068647	0.23463	0.36567	0.18746	0.18962	0.19842	0.11348	0.36585	0.29834	0.19885	0.063134	0.26573	-0.039583	-0.86042	-0.16458	-0.82708	-0.7625	0.064583	-1.0125	-0.45	-0.43125	-1.0979	-0.14792	-0.8	-0.9625	-0.36458	-1.0167	-0.47917	516.324	382.762	319.801	203.958	460.883	266.159	506.139	492.837	300.946	285.598	529.363	451.370	475.756	452.248	399.184	391.079	0.00079904	0.0025864	0.00060978	972.67	6.5026e-06	8.8093e-06	715.18	370.57	1.552e-05	4.3043e-06	294.17	95.74	134.84	60.207	2.1948e-05	39.026	0.017626	0.02257	0.0063086	1120.4	0.00023944	0.00025319	878.61	415.16	0.00023742	0.00025137	383.4	125.25	159.76	68.966	0.00024439	52.831	509.142	269.747	516.348	183.477	377.324	438.670	181.138	187.815	171.169	382.542	184.497	188.314	191.478	195.594	359.680	191.678	-8191	255	
7310.299	1	1	0	0	0.27458	0.16886	0.088	0.088072	0.20573	0.12955	0.10941	0.37289	0.10346	0.24803	0.33793	0.13573	0.20379	0.24388	0.28847	0.22988	0.039583	-1.0667	-0.035417	-0.62917	-0.8625	-0.13542	-0.91875	-0.54792	-0.18333	-1.0458	-0.24167	-0.56042	-0.96875	-0.27083	-0.8	-0.5375	272.382	280.032	283.818	349.073	515.529	368.217	516.477	487.319	374.956	476.467	523.159	430.071	398.795	188.006	435.823	308.387	0.00050157	0.00201	0.0007078	979.77	8.6665e-06	2.2386e-05	712.75	370.24	1.7973e-05	1.0529e-05	289.71	93.988	133.97	59.136	1.9733e-05	37.761	0.017718	0.022635	0.0063487	1126.6	0.00023705	0.00025146	875.04	413.95	0.00023502	0.00024939	377.34	122.87	158.11	67.849	0.0002394	51.487	501.366	324.055	264.818	183.415	310.562	412.768	181.374	187.840	500.760	427.629	184.598	187.574	191.433	195.392	448.063	191.219	-8191	255	
7310.395	1	1	0	0	0.11277	0.17157	0.15068	0.098573	0.11859	0.13447	0.29575	0.16987	0.09938	0.10962	0.10451	0.13548	0.053825	0.22728	0.19862	0.13367	0.26875	-1.1375	-0.2875	-0.63333	-0.89792	-0.0375	-0.85625	-0.87708	-0.17708	-0.84792	-0.6125	-0.38333	-1.1083	-0.30833	-0.76667	-0.77083	371.343	411.142	467.892	213.078	293.175	495.363	468.995	447.167	305.051	286.029	511.397	277.583	278.127	437.841	384.342	427.148	0.00069456	0.00010507	0.00058423	969.97	4.0931e-06	1.3178e-05	693.83	366	2.5851e-06	3.0038e-05	283.83	91.615	132.5	58.03	9.8761e-06	37.253	0.017422	0.022086	0.0061987	1110.7	0.00023288	0.00024496	853.54	410.28	0.00023161	0.00024525	369.61	120.76	157.01	66.92	0.00023777	50.778	523.414	199.272	275.689	183.203	395.636	303.547	181.583	187.916	182.612	276.558	184.540	187.795	191.407	195.794	459.486	191.041	-8191	255	
7310.491	1	1	0	0	0.25774	0.15882	0.10832	0.22654	0.34587	0.15066	0.079466	0.35054	0.31727	0.101	0.11174	0.39043	0.17133	0.13446	0.033861	0.2561	0.23125	-0.84375	-0.275	-0.45625	-0.96458	-0.20625	-0.80625	-0.90208	-0.077083	-1.025	-0.55625	-0.28542	-1.1854	-0.21667	-0.53125	-1.0562	249.104	287.409	464.576	505.500	294.666	227.062	202.408	476.730	284.827	505.693	315.011	478.634	291.768	507.175	485.353	529.067	0.00043223	0.0012777	0.00029428	968.37	1.6173e-05	7.1874e-06	700.93	368.25	1.8801e-05	1.4483e-05	287.79	93.308	133.37	59.223	1.2336e-05	38.516	0.017244	0.022113	0.0061939	1111.6	0.0002338	0.00024824	862.56	412.83	0.00023555	0.00025149	376.78	122.64	158.14	67.978	0.00024065	51.96	196.802	302.571	263.681	183.416	352.422	278.888	181.345	187.697	317.479	218.460	184.695	187.853	191.728	195.459	238.420	191.079	-8191	255	
7310.587	1	1	0	0	0.10018	0.042337	0.12299	0.1811	0.06881	0.14231	0.13681	0.21705	0.19204	0.33641	0.25606	0.084493	0.18142	0.12885	0.33238	0.18787	0.28958	-0.86875	-0.55	-0.42708	-1.0438	-0.3625	-0.65	-0.95417	-0.31458	-0.98333	-0.65208	-0.20417	-1.1375	-0.49167	-0.35	-1.0896	256.136	526.182	184.602	476.381	229.035	405.057	517.225	479.950	192.643	526.081	186.552	417.215	417.107	407.649	469.410	188.441	0.00093349	0.0010718	0.00017451	982.49	1.183e-05	1.8667e-05	711.81	370.96	9.0839e-06	1.4277e-05	289.9	95.264	133.94	59.692	7.9502e-06	39.222	0.017548	0.022321	0.0062716	1120.2	0.00023581	0.00025092	872	415.02	0.00023629	0.00025123	380.96	124.52	159.3	68.617	0.00024395	52.867	180.791	240.548	193.768	183.039	286.202	353.432	180.929	188.139	399.304	224.282	184.622	187.804	191.476	195.594	369.757	191.284	-8191	255	
7310.683	1	1	0	0	0.1745	0.10198	0.34081	0.2506	0.099274	0.24302	0.3341	0.19226	0.10189	0.24406	0.22155	0.29669	0.26911	0.28027	0.16665	0.090547	0.31875	-0.84792	-0.61667	-0.25417	-1.1083	-0.2625	-0.325	-1.0208	-0.25	-0.97917	-0.70208	-0.18125	-1.1667	-0.64375	-0.49375	-1.1458	478.680	236.247	300.793	368.425	528.610	297.601	253.147	408.820	305.879	295.449	320.370	484.997	516.767	517.517	462.933	460.101	0.00054273	0.00018407	0.00030375	974.92	1.5895e-05	1.3203e-05	721.37	372.89	9.9515e-06	3.077e-05	294.69	94.934	134.39	59.343	1.3246e-05	38.767	0.017794	0.022699	0.0064152	1125.4	0.00024018	0.00025343	884.32	418.03	0.00023788	0.00025294	382.98	124.99	159.38	68.233	0.00024321	52.288	185.161	209.751	413.154	183.186	516.378	318.379	181.593	187.898	451.237	266.207	184.907	187.892	191.556	195.814	232.142	191.574	-8191	255	
7310.780	1	1	0	0	0.14059	0.16348	0.11652	0.1791	0.039734	0.081564	0.08808	0.28905	0.11983	0.2041	0.068746	0.20328	0.14519	0.32926	0.18144	0.27939	0.10417	-0.60625	-0.725	0.01875	-0.92083	-0.43958	-0.44375	-1.1896	-0.28125	-0.73958	-1.1896	-0.125	-0.96458	-0.41667	-0.2375	-0.94375	423.209	277.987	437.996	445.331	177.608	486.610	207.813	430.853	415.424	285.290	444.901	191.426	397.374	524.926	363.003	217.657	0.00038185	0.0007318	0.00043905	973.02	3.2799e-05	1.8767e-05	712.34	371.09	7.6306e-06	2.2275e-05	291.22	93.835	133.59	58.957	4.675e-06	37.74	0.017641	0.022492	0.0063359	1122.2	0.00023825	0.00025193	873.47	415.68	0.00023515	0.00025117	378.34	122.9	157.81	67.593	0.0002393	51.343	187.881	364.897	358.857	183.071	228.264	374.149	181.150	187.976	332.043	396.037	184.810	188.167	191.393	195.905	408.705	191.710	-8191	255	
7310.876	1	1	0	0	0.20585	0.19012	0.10418	0.1774	0.10761	0.17624	0.21164	0.14466	0.17701	0.30472	0.31519	0.090687	0.11501	0.11551	0.18216	0.24902	0.045833	-0.52292	-0.8	-0.20833	-0.71458	-0.68125	-0.15	-1.0354	-0.20625	-0.43542	-0.97917	-0.09375	-1.0167	-0.775	-0.31042	-0.775	469.389	314.343	481.091	381.888	212.805	466.794	374.927	416.933	452.691	333.176	451.932	484.594	527.050	268.537	178.788	201.392	0.00056299	0.0015577	0.0001574	969.83	1.8971e-05	8.4089e-06	702.82	367.48	4.5613e-06	3.1269e-05	289.41	93.843	133.55	59.217	1.444e-05	38.422	0.01733	0.022295	0.0062502	1112.4	0.00023473	0.00024852	861.81	412.71	0.00023521	0.00024945	376.73	122.7	158.79	68.001	0.00024119	51.87	202.704	487.820	384.405	183.226	363.025	243.969	181.608	187.774	433.262	307.887	184.589	187.989	191.790	195.708	267.758	192.005	-8191	255	
7310.996	1	1	0	0	0.15797	0.046095	0.11753	0.38449	0.18388	0.13868	0.20251	0.17829	0.1344	0.30891	0.15553	0.10777	0.079291	0.38749	0.029802	0.10054	0.010417	-0.28958	-0.79167	-0.18333	-0.71667	-0.85833	-0.17083	-1.1167	-0.3	-0.095833	-1.0688	-0.05	-0.63542	-0.80208	-0.1875	-1.075	304.479	212.119	374.106	431.063	520.144	333.003	454.614	391.131	348.676	170.977	219.861	446.666	480.241	483.636	183.839	472.488	8.9237e-05	0.00066168	0.00011492	968.99	1.3244e-05	1.046e-05	708.38	371.57	1.6701e-05	1.8534e-05	291.41	94.569	135.2	59.069	1.9406e-05	38.449	0.017526	0.022503	0.0062752	1117.4	0.00023619	0.0002504	872.46	415.46	0.00023678	0.00025001	379.2	123.91	159.24	68.058	0.00024296	52.171	220.624	527.679	327.120	183.160	288.380	457.048	181.403	188.202	252.570	430.062	184.592	188.019	191.756	195.778	446.031	191.862	-8191	255	
7311.093	1	1	0	0	0.16494	0.14519	0.022138	0.29593	0.15893	0.19312	0.18457	0.094965	0.019621	0.059313	0.14613	0.11602	0.28547	0.37228	0.15381	0.34171	-0.14583	-0.16458	-1.2375	-0.23958	-0.69375	-0.77292	-0.11667	-1.0167	-0.59792	-0.28333	-1.1396	-0.04375	-0.42917	-1.0646	-0.1625	-0.8125	247.173	256.116	398.853	494.747	477.167	269.939	304.661	444.640	409.780	447.194	408.467	198.008	188.449	463.890	290.483	432.500	0.00059163	0.00078444	0.00054036	969.7	1.5878e-05	1.2383e-05	711.55	372.86	1.4531e-05	3.1089e-05	294.48	95.193	134.21	58.886	8.379e-06	38.139	0.017683	0.022644	0.006312	1122.1	0.00023991	0.00025289	877.49	417.79	0.0002388	0.00025225	382.99	124.33	158.75	67.754	0.00024568	51.992	512.012	217.681	426.500	182.912	323.724	411.733	181.372	187.789	315.166	413.447	185.049	188.267	191.690	195.607	463.052	191.505	-8191	255	
7311.189	1	1	0	0	0.19951	0.19704	0.25694	0.20798	0.28317	0.06326	0.16098	0.37588	0.15457	0.11802	0.24502	0.14951	0.23197	0.26029	0.1002	0.077755	-0.2375	-0.20417	-0.80208	-0.50625	-0.46667	-0.99583	-0.34583	-0.97708	-0.63333	-0.28333	-0.98542	-0.34167	-0.5	-1	-0.1375	-0.86458	447.171	365.665	466.973	472.747	293.961	399.831	494.147	199.634	292.147	228.362	357.036	505.616	409.105	409.739	190.311	486.681	0.00044026	0.00055853	0.00040391	974.93	1.2684e-05	1.7968e-05	719.73	370.72	8.3632e-06	1.625e-05	293.09	93.954	134.4	59.127	1.1728e-05	38.158	0.017783	0.022646	0.0063542	1125.4	0.00023949	0.00025295	880.37	415.29	0.00023711	0.00025178	382.57	124.02	159.02	68.138	0.00024412	52.039	226.259	504.087	286.949	183.419	245.818	499.155	181.386	187.994	335.071	215.109	184.807	188.245	191.820	195.888	340.740	192.077	-8191	255	
7311.285	1	1	0	0	0.18677	0.076634	0.071548	0.29088	0.24878	0.1947	0.056975	0.12452	0.090371	0.038432	0.17845	0.20955	0.34016	0.23747	0.17633	0.11482	-0.56458	-0.1375	-0.75417	-0.57083	-0.3625	-1.0042	-0.21042	-0.8375	-0.6875	-0.0041667	-1.1	-0.67708	-0.3625	-1.1396	-0.13333	-0.5125	243.352	478.279	360.599	486.529	196.260	295.540	473.773	474.096	299.449	522.216	464.707	177.395	469.466	521.713	193.749	498.719	0.00044485	0.00063074	0.00049958	977.81	1.5199e-05	1.5425e-05	705.16	371.65	1.6046e-05	1.3696e-05	291.25	93.691	134.71	59.194	1.8842e-05	37.776	0.017743	0.022624	0.0063344	1124.3	0.00023903	0.00025201	874.23	415.55	0.00023755	0.00025079	379.15	122.91	158.63	67.998	0.00024066	51.809	523.002	333.769	265.392	183.049	519.759	502.555	181.646	188.259	432.880	377.294	184.585	188.143	191.767	195.666	399.322	191.521	-8191	255	
7311.381	1	1	0	0	0.22322	0.21912	0.23688	0.18726	0.13046	0.081826	0.34136	0.21938	0.030153	0.29626	0.20713	0.23338	0.24959	0.11509	0.096966	0.16095	-0.53125	-0.0083333	-0.86667	-0.72083	-0.32708	-1.1562	-0.34792	-0.6875	-0.85625	0.066667	-0.97292	-0.6625	-0.20625	-1.0896	-0.25417	-0.34167	181.763	440.510	283.777	468.831	467.858	526.622	301.971	209.781	293.838	260.978	291.836	470.832	466.677	181.836	233.228	327.194	0.00089512	0.00060565	0.00069319	978.01	1.8498e-05	1.5979e-05	711.62	369.33	1.324e-06	2.5345e-05	291.41	93.803	134.44	58.711	9.6917e-06	38.012	0.017518	0.022422	0.0063042	1122.7	0.00023585	0.00025065	869.83	414.8	0.00023494	0.00024968	378.27	122.53	158.35	67.591	0.00024228	51.406	525.414	286.443	190.250	182.922	453.578	290.828	181.587	187.802	236.327	384.786	185.032	187.802	191.722	196.017	417.851	191.885	-8191	255	
7311.475	1	1	0	0	0.43042	0.20047	0.1341	0.17953	0.2635	0.16487	0.13958	0.24185	0.19355	0.076368	0.1959	0.34073	0.1148	0.18657	0.19181	0.1532	-0.5125	-0.17083	-0.875	-0.90417	-0.070833	-0.75	-0.38958	-0.38125	-0.93333	-0.18542	-0.8	-0.85625	-0.26458	-1.05	-0.22292	-0.24583	310.063	473.639	368.025	499.902	211.856	485.280	424.287	203.807	418.208	504.165	486.123	519.355	183.130	441.178	497.987	263.414	0.00070648	0.0012804	0.00044312	967.98	4.6852e-06	1.7768e-05	718.6	370.62	1.2563e-05	2.824e-05	292.52	94.405	133.76	58.868	2.2391e-05	38.109	0.01751	0.022271	0.0062974	1120.7	0.00023619	0.00025079	877.5	415.17	0.00023681	0.00025027	381.44	123.32	158.74	68.036	0.00024302	52.088	182.131	212.982	213.290	183.337	362.195	393.167	181.778	188.109	349.664	430.925	185.200	188.415	192.009	195.985	185.199	191.466	-8191	255	
7311.596	1	1	0	0	0.21111	0.10565	0.20902	0.35996	0.083225	0.31615	0.28977	0.11601	0.061156	0.088037	0.4079	0.29189	0.2307	0.11324	0.36503	0.17741	-0.54583	-0.21667	-0.64375	-1.0167	0.035417	-0.95	-0.59167	-0.3	-1.1313	-0.014583	-0.47083	-0.86458	-0.14167	-1.0208	-0.60833	-0.34792	256.422	384.522	260.927	436.993	333.397	292.094	195.533	502.390	269.656	381.261	458.361	193.964	184.845	362.956	378.656	320.306	0.00048772	0.0014227	0.00066988	985.03	6.7156e-06	4.5618e-06	725.14	374.58	1.0146e-05	2.3475e-05	295.9	95.424	135.91	59.997	3.0171e-05	39.344	0.017569	0.022548	0.0063476	1130.5	0.00023858	0.00025318	887.67	419.4	0.000238	0.00025251	385.53	125.35	160.12	68.955	0.00024439	52.989	527.174	208.234	201.352	183.204	218.165	171.732	180.963	188.123	367.721	347.685	184.922	188.366	191.742	196.260	263.521	191.622	-8191	255	
7311.692	1	1	0	0	0.20365	0.24486	0.13874	0.29574	0.23202	0.12173	0.29496	0.26617	0.10882	0.12303	0.18438	0.19751	0.14284	0.25786	0.14141	0.11792	-0.52083	-0.36042	-0.49167	-1.0521	0.058333	-0.8375	-0.67083	-0.28958	-0.90833	-0.26042	-0.43542	-0.87292	-0.25833	-0.91875	-0.69792	-0.29583	517.250	449.524	299.682	487.025	401.504	227.959	514.061	454.256	344.122	268.361	305.433	507.491	468.649	181.785	395.327	421.453	0.00071502	0.00098977	0.00057277	986.76	8.1759e-06	3.5285e-06	730.38	375.79	9.6669e-06	2.1653e-05	299.26	96.17	136	60.292	8.3323e-06	38.287	0.017815	0.022717	0.0063793	1134.3	0.00024031	0.0002543	892.76	421.86	0.00023887	0.00025389	387.19	125.46	160.65	69.011	0.00024401	52.28	193.515	511.713	415.845	183.088	193.122	383.741	181.647	188.008	241.097	240.808	184.777	188.127	191.642	195.778	293.028	191.701	-8191	255	
7311.788	1	1	0	0	0.059529	0.25535	0.25356	0.27198	0.13931	0.23669	0.4973	0.17386	0.13695	0.073531	0.18358	0.22884	0.36187	0.15536	0.094375	0.12767	-0.55	-0.37708	-0.22292	-1.0938	-0.025	-0.74167	-0.95625	-0.097917	-0.95	-0.55208	-0.36458	-1.1958	-0.19375	-0.63125	-0.96042	-0.30208	252.213	244.992	342.428	403.246	444.816	506.367	466.906	172.118	231.238	466.280	482.163	187.362	175.936	303.684	294.275	450.728	0.00043081	0.0014905	0.00016389	975.6	1.5551e-05	1.3453e-05	710.18	373.05	1.8754e-05	2.2394e-05	290.39	94.482	135.18	59.811	1.4867e-05	38.323	0.01766	0.022625	0.0063348	1126.5	0.0002374	0.00025125	875.03	416.06	0.0002356	0.0002495	377.83	123.16	159.49	68.448	0.00024092	51.861	176.941	523.657	510.603	183.484	490.905	335.240	181.419	187.904	394.952	335.918	184.939	188.131	191.426	196.072	228.721	191.632	-8191	255	
7311.884	1	1	0	0	0.24083	0.10621	0.10879	0.1692	0.23334	0.1561	0.11906	0.40548	0.23879	0.2654	0.17541	0.086279	0.22468	0.22935	0.3056	0.092091	-0.58542	-0.5	-0.2625	-1.2917	0.01875	-0.73542	-1.0854	-0.23125	-0.78542	-0.55417	-0.33333	-1.1333	-0.25208	-0.475	-0.98958	-0.17292	395.720	286.884	372.754	296.671	482.133	350.832	416.994	446.235	407.934	515.745	478.182	299.712	436.276	476.452	328.242	479.246	0.00068428	0.0012719	0.00047533	981.71	2.3339e-06	2.8911e-06	710.41	372.2	2.174e-05	2.2096e-05	292.35	95.164	135.37	59.859	1.0907e-05	38.948	0.017585	0.022393	0.0063048	1125.2	0.00023708	0.0002511	873.93	417.78	0.00023718	0.00025102	381.02	123.83	160.48	68.794	0.00024509	52.411	527.155	243.907	202.028	183.395	325.588	386.636	181.167	188.465	353.502	198.384	185.366	188.664	191.564	195.942	527.122	191.506	-8191	255	
7311.981	1	1	0	0	0.44648	0.32066	0.21713	0.035705	0.19852	0.10203	0.27265	0.30115	0.15898	0.15013	0.20736	0.24091	0.18169	0.24964	0.32235	0.1786	-0.5	-0.69375	-0.17917	-1.1729	-0.31458	-0.24583	-1.0396	-0.06875	-0.67708	-0.63125	-0.2125	-1.1479	-0.44792	-0.475	-1.0375	-0.1125	405.866	356.679	413.854	503.430	325.914	330.163	283.155	205.845	220.958	430.879	186.825	449.152	479.589	497.589	373.151	209.180	0.00078499	0.00091811	0.0005699	981.95	4.1094e-06	1.2116e-05	720.53	373.59	9.6169e-06	9.544e-06	293.86	95.156	135.09	59.588	1.5792e-05	38.228	0.017832	0.022649	0.0063709	1131.1	0.00023907	0.00025272	884.96	418.84	0.00023849	0.0002528	383.78	124.81	159.85	68.473	0.00024304	52.254	170.626	383.008	227.632	183.452	469.407	225.905	181.443	188.215	262.937	368.029	185.023	188.662	191.714	195.976	529.534	191.936	-8191	255	
#DATA ENDS
