BOXY.EXE: ISS Imagent and Oximeter Data Acquisition Program Version 0.80
Ascii Record File

#ACQ INFORMATION
2  Detector Channels 
16  External MUX Channels 
1  Auxiliary Channels 
5000  Waveform (CCF) Frequency (Hz)
1  Waveforms Skipped 
30  Waveforms Averaged 
1  Cycles Averaged 
16  Acquisitions per Waveform 
10.0806  Updata Rate (Hz) 

#FILE INFORMATION
TRUE -- External MUX Channel results are PARSED.
FALSE -- AC DC and Phase are NOT grouped.
TRUE -- Companion Program Settings File CREATED.
FALSE -- AC data not excluded
FALSE -- DC data not excluded
FALSE -- Phase data not excluded
FALSE -- Auxillary Chn. data not excluded
Tab delimiters

#CALIBRATION STATE
TRUE -- Waveform Calibration Values APPLIED.


#AUX CALIBRATION VALUES
Val Type	aux-1	

Term	1.0000e+00	
Factor	0.0000e+00	


#WF CALIBRATION VALUES
A = Detector Channel
Val Type	A-AC1	A-AC2	A-AC3	A-AC4	A-AC5	A-AC6	A-AC7	A-AC8	A-AC9	A-AC10	A-AC11	A-AC12	A-AC13	A-AC14	A-AC15	A-AC16	A-DC1	A-DC2	A-DC3	A-DC4	A-DC5	A-DC6	A-DC7	A-DC8	A-DC9	A-DC10	A-DC11	A-DC12	A-DC13	A-DC14	A-DC15	A-DC16	A-Ph1	A-Ph2	A-Ph3	A-Ph4	A-Ph5	A-Ph6	A-Ph7	A-Ph8	A-Ph9	A-Ph10	A-Ph11	A-Ph12	A-Ph13	A-Ph14	A-Ph15	A-Ph16	

Term	0.00000e+00	0.00000e+00	0.00000e+00	0.00000e+00	0.00000e+00	0.00000e+00	0.00000e+00	0.00000e+00	0.00000e+00	0.00000e+00	0.00000e+00	0.00000e+00	0.00000e+00	0.00000e+00	0.00000e+00	0.00000e+00	0.00000e+00	0.00000e+00	0.00000e+00	0.00000e+00	0.00000e+00	0.00000e+00	0.00000e+00	0.00000e+00	0.00000e+00	0.00000e+00	0.00000e+00	0.00000e+00	0.00000e+00	0.00000e+00	0.00000e+00	0.00000e+00	0.00000e+00	0.00000e+00	0.00000e+00	0.00000e+00	0.00000e+00	0.00000e+00	0.00000e+00	0.00000e+00	0.00000e+00	0.00000e+00	0.00000e+00	0.00000e+00	0.00000e+00	0.00000e+00	0.00000e+00	0.00000e+00	
Factor	1.00000e+00	1.00000e+00	1.00000e+00	1.00000e+00	1.00000e+00	1.00000e+00	1.00000e+00	1.00000e+00	1.00000e+00	1.00000e+00	1.00000e+00	1.00000e+00	1.00000e+00	1.00000e+00	1.00000e+00	1.00000e+00	1.00000e+00	1.00000e+00	1.00000e+00	1.00000e+00	1.00000e+00	1.00000e+00	1.00000e+00	1.00000e+00	1.00000e+00	1.00000e+00	1.00000e+00	1.00000e+00	1.00000e+00	1.00000e+00	1.00000e+00	1.00000e+00	X	X	X	X	X	X	X	X	X	X	X	X	X	X	X	X	

B = Detector Channel
Val Type	B-AC1	B-AC2	B-AC3	B-AC4	B-AC5	B-AC6	B-AC7	B-AC8	B-AC9	B-AC10	B-AC11	B-AC12	B-AC13	B-AC14	B-AC15	B-AC16	B-DC1	B-DC2	B-DC3	B-DC4	B-DC5	B-DC6	B-DC7	B-DC8	B-DC9	B-DC10	B-DC11	B-DC12	B-DC13	B-DC14	B-DC15	B-DC16	B-Ph1	B-Ph2	B-Ph3	B-Ph4	B-Ph5	B-Ph6	B-Ph7	B-Ph8	B-Ph9	B-Ph10	B-Ph11	B-Ph12	B-Ph13	B-Ph14	B-Ph15	B-Ph16	

Term	0.00000e+00	0.00000e+00	0.00000e+00	0.00000e+00	0.00000e+00	0.00000e+00	0.00000e+00	0.00000e+00	0.00000e+00	0.00000e+00	0.00000e+00	0.00000e+00	0.00000e+00	0.00000e+00	0.00000e+00	0.00000e+00	0.00000e+00	0.00000e+00	0.00000e+00	0.00000e+00	0.00000e+00	0.00000e+00	0.00000e+00	0.00000e+00	0.00000e+00	0.00000e+00	0.00000e+00	0.00000e+00	0.00000e+00	0.00000e+00	0.00000e+00	0.00000e+00	-1.16366e+02	-1.34525e+02	-1.24640e+02	-1.81440e+02	-6.20949e+01	-6.64202e+01	-1.56427e+02	-1.62015e+02	-6.69733e+01	-6.15982e+01	-1.71980e+02	-1.69516e+02	-1.84939e+02	-1.76465e+02	-6.54987e+01	-1.48787e+02	
Factor	1.61643e-05	1.38122e-04	4.24785e-05	1.47321e-01	1.18619e-06	1.52504e-06	1.65925e-01	4.94256e-02	1.07980e-06	1.67298e-06	8.54847e-02	2.70576e-02	2.30815e-02	8.67598e-03	1.25400e-06	1.23377e-02	1.12576e-05	2.02003e-05	5.73018e-06	7.73108e-02	2.02464e-07	2.30455e-07	8.19583e-02	2.61172e-02	2.05112e-07	2.28814e-07	4.35796e-02	1.39337e-02	1.23178e-02	4.61571e-03	2.14390e-07	6.36437e-03	X	X	X	X	X	X	X	X	X	X	X	X	X	X	X	X	



#DISTANCE SETTINGS
A = Detector Channel
A-1	A-2	A-3	A-4	A-5	A-6	A-7	A-8	A-9	A-10	A-11	A-12	A-13	A-14	A-15	A-16	

2.5000e+00	3.0000e+00	2.5000e+00	3.0000e+00	2.0000e+00	3.0000e+00	1.5000e+00	3.0000e+00	3.0000e+00	3.0000e+00	3.0000e+00	3.0000e+00	3.0000e+00	3.0000e+00	1.5000e+00	3.0000e+00	

B = Detector Channel
B-1	B-2	B-3	B-4	B-5	B-6	B-7	B-8	B-9	B-10	B-11	B-12	B-13	B-14	B-15	B-16	

1.0000e+01	1.0000e+01	1.0000e+01	1.4400e+00	1.0000e+01	1.0000e+01	1.5100e+00	1.9400e+00	1.0000e+01	1.0000e+01	1.9900e+00	2.4900e+00	2.4100e+00	2.9000e+00	1.0000e+01	2.9800e+00	




#DATA BEGINS
time	group	step	mark	flag	A-AC1	A-AC2	A-AC3	A-AC4	A-AC5	A-AC6	A-AC7	A-AC8	A-AC9	A-AC10	A-AC11	A-AC12	A-AC13	A-AC14	A-AC15	A-AC16	A-DC1	A-DC2	A-DC3	A-DC4	A-DC5	A-DC6	A-DC7	A-DC8	A-DC9	A-DC10	A-DC11	A-DC12	A-DC13	A-DC14	A-DC15	A-DC16	A-Ph1	A-Ph2	A-Ph3	A-Ph4	A-Ph5	A-Ph6	A-Ph7	A-Ph8	A-Ph9	A-Ph10	A-Ph11	A-Ph12	A-Ph13	A-Ph14	A-Ph15	A-Ph16	B-AC1	B-AC2	B-AC3	B-AC4	B-AC5	B-AC6	B-AC7	B-AC8	B-AC9	B-AC10	B-AC11	B-AC12	B-AC13	B-AC14	B-AC15	B-AC16	B-DC1	B-DC2	B-DC3	B-DC4	B-DC5	B-DC6	B-DC7	B-DC8	B-DC9	B-DC10	B-DC11	B-DC12	B-DC13	B-DC14	B-DC15	B-DC16	B-Ph1	B-Ph2	B-Ph3	B-Ph4	B-Ph5	B-Ph6	B-Ph7	B-Ph8	B-Ph9	B-Ph10	B-Ph11	B-Ph12	B-Ph13	B-Ph14	B-Ph15	B-Ph16	aux-1	digaux	

28991.961	1	1	0	256	0.24105	0.11722	0.073997	0.10634	0.11715	0.11641	0.22228	0.1781	0.14533	0.11853	0.25232	0.30029	0.48552	0.13617	0.26105	0.13028	-0.31667	-0.375	-1.2812	-0.55625	-0.62083	-1.1229	-0.46042	-1	-1.0187	-0.40417	-1.1688	-0.575	-0.67708	-1.1333	-0.23958	-0.87292	260.267	489.949	277.863	227.597	343.423	196.021	389.316	434.825	472.294	352.927	192.072	469.024	488.717	144.259	357.653	205.445	0.0003009	0.00013207	0.00034394	997.89	2.3677e-06	6.0023e-06	638.77	312.52	1.8363e-06	1.5648e-05	191.9	61.001	113.27	52.803	3.6305e-06	28.143	0.0075928	0.013429	0.003864	1015.5	0.0001359	0.00015623	669.17	321.37	0.00013932	0.00015674	214.96	68.502	118.75	54.983	0.00014988	31.807	205.753	337.432	210.141	154.387	396.994	419.150	152.078	159.646	424.840	371.804	156.030	160.232	164.499	168.270	362.630	163.233	-8191	255	
28992.057	1	1	0	0	0.072698	0.13853	0.23209	0.055273	0.17897	0.14442	0.22012	0.27351	0.11022	0.19599	0.31021	0.16945	0.1749	0.045409	0.047138	0.057886	-0.65417	0.0375	-1.0229	-0.69375	-0.3125	-1.4104	-0.63958	-0.84375	-0.99583	-0.39583	-1.0729	-0.76667	-0.42917	-1.0521	-0.46042	-0.74375	193.036	381.910	430.058	469.716	411.946	194.551	459.304	443.795	223.861	493.040	439.689	162.380	414.341	161.678	400.659	478.930	0.00034501	0.0012849	0.00016089	1000.3	9.7942e-06	1.1847e-06	627.72	310.19	1.0139e-05	6.5835e-06	191	59.901	111.86	52.563	1.1154e-05	27.934	0.007964	0.014157	0.0040188	1017.6	0.00014062	0.00015964	660.69	319.71	0.00013911	0.00015698	212.48	67.566	118.1	54.773	0.0001473	31.551	222.030	183.020	178.164	154.041	283.086	408.104	152.153	159.857	281.683	326.882	156.622	160.187	164.611	168.128	232.462	162.875	-8191	255	
28992.129	1	1	0	0	0.12318	0.20895	0.069223	0.018782	0.24886	0.19925	0.31349	0.12374	0.29387	0.14779	0.13636	0.053003	0.15657	0.27257	0.21012	0.039729	-0.73542	-0.18333	-0.93958	-0.99375	-0.2375	-1.1917	-0.41875	-0.75208	-1.0771	-0.26042	-1.1917	-0.81458	-0.39792	-1.1833	-0.46458	-0.63333	461.247	249.154	171.870	278.352	441.990	411.907	491.071	419.168	175.272	309.999	367.357	147.790	437.248	494.353	238.921	377.224	0.00020002	0.00082908	4.2876e-05	991.96	7.9815e-06	8.8887e-06	629.93	311.38	1.0439e-05	5.496e-06	191.36	60.299	111.85	52.606	1.8373e-06	27.866	0.0077739	0.01383	0.0039223	1012.5	0.00013743	0.00015721	661.17	319.96	0.00013929	0.00015665	213.42	68.001	118.01	54.729	0.00014841	31.375	200.440	247.176	461.898	154.313	224.057	273.032	151.857	159.754	249.633	260.815	156.006	160.499	164.241	168.202	383.063	162.916	-8191	255	
28992.248	1	1	0	0	0.1626	0.079627	0.2414	0.24338	0.19783	0.24788	0.1977	0.22605	0.013439	0.11673	0.24073	0.2592	0.2097	0.037094	0.083734	0.18585	-0.70417	-0.375	-0.85208	-0.88333	-0.25417	-1.3062	-0.65417	-0.41042	-1.2917	-0.2125	-0.72708	-1.2083	-0.31458	-1.1021	-0.84792	-0.22708	255.715	487.913	163.777	461.996	491.131	328.419	169.147	397.517	276.643	426.745	471.481	167.311	165.647	302.516	318.273	229.312	0.00025287	0.0007895	0.00020891	1001.4	2.5826e-06	2.8865e-06	627	311.3	7.5308e-06	1.243e-05	191.42	60.126	112.04	52.36	2.0424e-06	28.044	0.0078392	0.014057	0.0039357	1017.1	0.0001388	0.00015938	663.39	320.19	0.00014197	0.00015928	214.24	67.97	118.13	54.552	0.00014868	31.655	207.649	249.440	186.127	154.223	371.586	196.504	152.243	159.696	239.021	315.917	156.370	160.537	164.500	168.431	474.786	163.317	-8191	255	
28992.346	1	1	0	0	0.13382	0.30255	0.20613	0.26934	0.084639	0.2464	0.2848	0.028342	0.21244	0.22784	0.12685	0.18956	0.20103	0.13555	0.41123	0.10645	-0.75625	-0.38125	-0.80625	-1.2	-0.37917	-1.1417	-0.91458	-0.41458	-1.0396	-0.3875	-0.52917	-1.1125	-0.19583	-0.98542	-0.8125	-0.15833	338.876	323.343	345.794	462.685	495.691	403.423	383.741	492.685	479.515	406.669	182.631	179.710	484.790	455.238	467.743	405.462	0.00031415	0.0013969	0.00031857	1001.8	6.5753e-06	1.4911e-05	637.46	311.8	4.8894e-06	6.8022e-06	190.77	60.804	112.07	52.468	1.1424e-05	27.905	0.0079622	0.014112	0.0039706	1019	0.00014219	0.00016199	667.41	321.02	0.00014442	0.00016134	214.81	68.366	118.61	54.815	0.00014853	31.719	216.017	199.004	195.250	154.431	275.867	270.731	152.035	159.869	387.279	236.315	157.109	160.201	164.407	168.398	252.380	163.305	-8191	255	
28992.441	1	1	0	0	0.14829	0.18784	0.025404	0.22697	0.15886	0.18082	0.34707	0.11128	0.15406	0.30268	0.37276	0.1947	0.26418	0.085979	0.22308	0.16291	-0.8375	-0.30417	-0.42917	-1.1771	-0.34375	-0.87917	-0.98542	-0.38125	-1.2146	-0.5625	-0.47917	-1.3312	-0.48333	-0.90625	-0.93333	-0.36042	193.700	247.383	186.556	144.971	481.100	359.263	164.329	335.356	322.592	299.765	457.149	435.093	147.402	451.154	329.405	417.762	0.00026136	0.0011995	0.00020074	1003.6	4.6032e-06	7.5455e-06	633.58	309.4	3.7681e-06	5.1022e-06	190.42	60.373	111.82	51.921	4.8344e-07	27.693	0.0080089	0.014187	0.0040177	1020.2	0.00014324	0.00016373	664.73	319.81	0.00014529	0.00016077	213.77	68.243	118.31	54.443	0.00015165	31.514	197.750	200.902	192.519	154.566	209.150	293.715	151.522	159.684	268.987	346.209	156.347	160.142	163.992	168.274	426.728	162.604	-8191	255	
28992.537	1	1	0	0	0.11513	0.021626	0.09977	0.10165	0.084033	0.35075	0.16874	0.37751	0.36189	0.28939	0.21013	0.098441	0.23417	0.15297	0.081094	0.21099	-0.74375	-0.68958	-0.32083	-1.4438	-0.24583	-0.56042	-1.1688	-0.48333	-1.1583	-0.91667	-0.44375	-1.2167	-0.72708	-0.91042	-1.0688	-0.49167	167.391	431.412	383.569	452.599	224.662	428.099	466.999	169.097	262.184	234.513	424.121	383.681	434.370	477.309	486.972	368.634	0.00020195	0.00034447	0.00034207	997.27	5.5014e-06	1.176e-05	626.83	310.55	4.4352e-06	3.9458e-06	189.29	60.417	111.81	52.514	5.9658e-06	27.752	0.0082397	0.014505	0.0040752	1017.8	0.00014705	0.00016543	662.6	320.38	0.00014841	0.0001642	214.16	68.36	118.17	54.569	0.00015256	31.523	206.901	337.472	237.359	153.845	263.290	363.770	151.458	159.146	243.175	345.189	155.404	159.748	163.815	167.799	309.277	162.169	-8191	255	
28992.656	1	1	0	0	0.40772	0.058963	0.1718	0.17694	0.27563	0.29564	0.1594	0.32544	0.074073	0.16852	0.32481	0.22536	0.11894	0.35476	0.085948	0.11905	-0.61667	-0.69375	-0.33958	-1.3354	-0.49375	-0.77917	-1.2062	-0.2875	-1.0854	-0.73542	-0.29792	-0.96042	-0.72708	-0.5625	-1.1479	-0.25417	257.200	392.888	183.175	145.160	338.957	251.097	432.031	458.447	359.497	150.191	384.371	470.238	165.907	479.876	181.868	158.042	0.00014413	0.00031566	0.00022522	1004.1	1.0021e-05	1.7992e-05	625.02	308.95	7.9275e-06	1.1266e-05	189.95	60.363	111.32	51.629	8.1566e-06	27.169	0.0082785	0.01458	0.0041719	1025.4	0.00014984	0.00016914	667.24	320.56	0.00015297	0.00017004	215.06	68.451	118.08	54.349	0.0001599	31.443	222.063	165.545	320.422	153.556	307.606	282.807	151.410	158.784	266.986	254.592	155.004	160.073	163.825	167.594	167.643	162.919	-8191	255	
28992.752	1	1	0	0	0.12609	0.17724	0.22578	0.21924	0.29881	0.23567	0.061627	0.054618	0.073137	0.2186	0.42768	0.10036	0.13366	0.1026	0.17352	0.1105	-0.48542	-1.0083	-0.24167	-1.4354	-0.55625	-0.54583	-1.3	-0.55625	-0.83542	-1.0833	-0.28125	-0.98125	-0.72083	-0.55625	-1.1333	-0.43333	217.793	469.558	453.423	250.111	338.444	435.200	314.256	487.391	289.103	381.838	409.708	431.806	310.277	203.879	328.682	334.047	0.00029585	0.00074991	0.00017405	1006	6.8915e-06	1.3609e-05	637.28	310.47	7.9644e-06	1.5419e-05	191.11	60.771	111.06	52.011	1.3759e-06	27.773	0.0084998	0.015028	0.0043016	1028.9	0.00015058	0.00016956	671.24	320.99	0.00015087	0.00016875	215.24	68.612	118.15	54.444	0.00015703	31.724	200.764	227.572	150.954	153.849	202.053	314.441	151.176	159.044	217.970	223.028	155.614	159.520	163.399	167.769	228.110	162.019	-8191	255	
28992.824	1	1	0	0	0.23102	0.28757	0.2085	0.10247	0.070383	0.2569	0.17859	0.2779	0.0593	0.20736	0.20985	0.2037	0.17503	0.049291	0.18805	0.18354	-0.18125	-1.0167	-0.072917	-1.0979	-0.6875	-0.33333	-1.4125	-0.38333	-0.4	-1.1354	-0.09375	-0.96042	-0.92083	-0.49792	-1.0063	-0.575	377.965	494.809	261.415	217.051	336.865	235.314	401.996	376.101	385.763	379.169	286.900	146.961	487.301	432.183	365.988	325.903	0.0002095	0.00012654	0.00028887	997.62	4.6029e-06	9.5914e-06	629.1	309.42	6.3919e-06	1.3031e-05	189.22	59.228	111.06	51.63	7.7649e-06	27.052	0.0083085	0.014734	0.0041771	1023.9	0.00014607	0.00016599	664.81	319.79	0.00014606	0.00016177	213.15	67.84	117.67	54.102	0.00015196	31.061	203.685	141.247	269.445	153.747	390.513	184.942	151.461	158.957	219.275	235.791	155.308	159.651	163.598	167.865	252.143	162.408	-8191	255	
28992.943	1	1	0	0	0.23373	0.16654	0.32651	0.13073	0.038683	0.24332	0.42005	0.27263	0.21164	0.30697	0.13948	0.084417	0.14245	0.12355	0.089152	0.18853	-0.22917	-0.98542	-0.1625	-0.94375	-0.95833	-0.35417	-1.2521	-0.79375	-0.66875	-1.1667	-0.31667	-0.64167	-1.1896	-0.35	-1.2812	-0.6625	162.503	448.546	407.791	207.579	180.172	382.334	362.118	462.908	368.952	445.466	415.270	396.120	434.458	497.535	315.833	434.272	0.00028758	0.00038869	7.2871e-05	992.15	3.3384e-06	1.2068e-05	625.25	308.97	4.0505e-06	5.7056e-06	187.44	59.685	110.24	51.352	4.7348e-06	27.201	0.0080655	0.014483	0.0040704	1014.7	0.00014466	0.00016405	658.66	318.93	0.00014596	0.00016391	212.53	67.568	117.2	53.755	0.00015398	31.002	195.656	159.054	199.311	153.719	310.440	423.532	151.719	159.059	219.489	321.415	155.909	160.130	163.811	167.799	271.257	161.996	-8191	255	
28993.039	1	1	0	0	0.29511	0.23436	0.13777	0.2351	0.12528	0.31876	0.18759	0.22536	0.30805	0.047156	0.1526	0.19121	0.20079	0.39645	0.29413	0.44791	0.047917	-1.1146	-0.4	-1.0042	-1.0333	-0.23542	-1.2229	-0.8125	-0.37292	-1.2083	-0.4	-0.61667	-1.0479	-0.41458	-0.97083	-0.74792	219.772	171.937	491.854	494.824	152.410	217.756	213.024	381.030	176.273	224.483	351.141	326.400	491.476	144.593	146.714	479.130	0.00039097	0.00067742	0.00019149	996.36	1.0656e-05	4.1165e-06	624.98	308.82	5.6141e-06	6.8223e-06	188.55	60.114	111.46	51.695	2.7494e-06	27.491	0.0081269	0.014533	0.0041325	1017.7	0.00014491	0.00016507	661.26	319.02	0.00014649	0.00016514	213.66	68.073	117.84	54.155	0.00015472	31.387	195.849	223.543	306.489	153.583	341.011	338.677	151.612	158.705	247.215	341.204	155.351	159.748	163.812	167.682	486.711	162.654	-8191	255	
28993.137	1	1	0	0	0.2028	0.090355	0.149	0.32159	0.17696	0.11466	0.22263	0.19734	0.27705	0.22923	0.34304	0.037022	0.1204	0.15088	0.25012	0.16141	0.25625	-1.3104	-0.42708	-0.83958	-1.0396	-0.27917	-1.1167	-0.90833	-0.37917	-1.0979	-0.61458	-0.46042	-1.1063	-0.50208	-0.9	-1.0542	444.120	252.767	467.957	497.182	319.808	326.510	443.544	461.212	434.547	458.614	425.314	469.653	410.220	267.054	435.047	494.933	0.00039217	0.00099571	0.00027731	998.1	1.1459e-05	3.5914e-06	631.36	311.21	6.7193e-06	8.3726e-06	190.72	61.408	112.27	52.255	3.1743e-06	28.077	0.0082848	0.014683	0.0041529	1017.5	0.00014581	0.00016797	665.73	321.04	0.0001494	0.0001661	215.44	69.261	118.92	54.721	0.00015695	31.943	196.449	241.919	252.555	153.633	254.914	393.451	151.329	159.282	181.106	173.194	155.672	159.228	163.607	167.452	243.298	162.911	-8191	255	
28993.258	1	1	0	0	0.10906	0.21132	0.18865	0.20645	0.24932	0.053454	0.12585	0.33316	0.078609	0.18817	0.36457	0.079554	0.077782	0.24703	0.18485	0.23535	0.175	-1.175	-0.46042	-0.50625	-1.1104	-0.26042	-0.91667	-0.95833	-0.12917	-1.0271	-0.52917	-0.48125	-1.1958	-0.38542	-0.62708	-1.1437	195.779	213.803	144.535	445.801	312.702	381.788	446.962	453.473	494.985	274.417	499.646	181.434	150.783	499.400	358.246	218.717	0.00023792	0.00099529	0.00018587	995.88	5.3818e-06	9.7546e-06	629.7	311.62	8.0919e-06	6.4913e-06	191.28	61.045	112.91	52.515	6.8425e-06	28.096	0.0084751	0.014973	0.0042245	1016.6	0.00015062	0.00017189	666.26	321.73	0.00015312	0.00017085	216.78	69.424	119.64	55.016	0.00015958	32.025	206.131	260.713	242.826	153.781	274.354	500.860	151.528	159.064	443.441	213.335	155.256	160.013	163.645	167.704	152.068	162.704	-8191	255	
28993.354	1	1	0	0	0.10428	0.22264	0.20023	0.10395	0.12839	0.08103	0.14619	0.31644	0.060136	0.27846	0.18083	0.089953	0.22878	0.21421	0.22825	0.20108	0.29375	-1.0187	-0.52708	-0.57708	-1.2458	-0.29167	-0.61042	-1.1167	-0.39792	-0.95208	-0.775	-0.19792	-1.125	-0.60208	-0.55625	-1.2083	480.145	163.603	410.138	488.244	155.106	472.129	352.583	356.671	156.088	460.966	419.303	204.407	398.661	464.031	163.651	443.989	0.00025652	0.00048178	0.00018048	981.93	4.7772e-06	7.6284e-06	616.07	311.65	5.4679e-06	6.8732e-06	190.01	60.578	113.14	52.516	1.0908e-05	27.709	0.0085786	0.015126	0.0043055	1007.4	0.00015228	0.00017415	657.83	321.62	0.00015751	0.00017431	216.52	69.507	119.9	55.11	0.00016479	32.01	213.398	164.707	286.495	153.586	312.109	271.283	151.447	158.811	282.198	339.970	155.642	160.058	163.724	167.539	204.378	161.918	-8191	255	
28993.426	1	1	0	0	0.29762	0.43763	0.20806	0.31561	0.12422	0.15591	0.37113	0.40956	0.13906	0.083854	0.14503	0.11919	0.35992	0.20597	0.14485	0.15051	0.0125	-0.72083	-0.725	-0.33125	-1.1354	-0.725	-0.68958	-1.3542	-0.29375	-0.85625	-0.93542	-0.36667	-1.2146	-0.69167	-0.44375	-1.2792	149.552	395.847	425.305	159.878	397.914	288.494	153.782	141.366	321.783	185.173	163.748	230.619	443.367	480.670	434.613	467.133	0.00028299	0.00054139	0.00043387	992.67	2.7959e-06	4.2102e-06	624.82	309.97	2.1571e-06	1.2951e-05	189.58	60.781	112.37	52.076	1.2429e-05	27.873	0.00885	0.015544	0.0044033	1014.6	0.00015852	0.00017902	662.24	321.4	0.00016197	0.00017948	217.19	69.823	119.96	54.942	0.000169	32.09	187.099	315.269	284.172	153.754	394.433	422.867	151.453	159.177	206.802	488.574	155.413	159.328	163.731	167.684	335.453	162.463	-8191	255	
28993.547	1	1	0	0	0.45976	0.11779	0.21908	0.16775	0.21074	0.15883	0.091724	0.075388	0.18267	0.47882	0.1667	0.37768	0.13918	0.25048	0.14971	0.093897	-0.029167	-0.69375	-0.84375	-0.35	-0.99792	-0.5375	-0.42083	-1.2875	-0.4625	-0.67083	-1.125	-0.32083	-1.1938	-0.79792	-0.31875	-1.3312	159.125	416.114	357.281	452.231	381.740	478.585	471.241	188.517	223.353	465.521	409.762	457.130	340.601	144.225	411.753	367.296	0.00028217	0.00081507	0.00068168	994.62	5.6947e-06	9.0649e-06	628.83	309.82	6.4326e-06	7.4169e-06	190.46	60.851	112.4	52.676	5.0742e-06	28.118	0.009037	0.015908	0.0045158	1019.1	0.00015908	0.0001798	667.74	321.81	0.0001607	0.00017711	217.01	69.787	119.99	55.159	0.00016549	32.3	193.141	242.363	248.341	153.549	198.725	191.176	151.531	159.002	280.631	329.690	155.459	159.641	163.912	168.016	208.750	162.753	-8191	255	
28993.641	1	1	0	0	0.036923	0.147	0.068444	0.26205	0.16917	0.13477	0.066526	0.2437	0.084648	0.15584	0.31094	0.21029	0.074193	0.18395	0.15958	0.33402	-0.2	-0.59375	-0.96042	-0.40625	-1.0792	-0.82708	-0.46667	-1.2646	-0.64167	-0.56667	-0.9125	-0.3875	-0.99792	-1.1458	-0.21667	-1.3854	240.421	287.852	340.374	477.546	252.104	324.884	248.094	471.590	423.944	462.258	333.148	218.548	409.710	488.207	498.752	481.219	0.00024713	0.00029235	0.00025684	990.8	2.8528e-06	4.8862e-06	628.8	310.14	3.4984e-06	1.3822e-05	190.34	60.786	112.7	52.012	6.1814e-06	27.558	0.0088323	0.015575	0.0043957	1018.9	0.00015394	0.00017456	667.73	321.77	0.00015536	0.00017383	217.16	69.532	119.7	54.712	0.00016591	31.867	212.218	248.259	427.782	153.722	356.093	282.611	151.507	159.197	232.540	351.414	155.098	159.925	163.970	168.066	249.505	161.960	-8191	255	
28993.736	1	1	0	0	0.2206	0.19248	0.37498	0.17313	0.32064	0.55585	0.16233	0.29092	0.061759	0.14728	0.27162	0.083728	0.16527	0.041577	0.12635	0.26907	-0.38333	-0.65	-0.96875	-0.42292	-0.92292	-1.075	-0.33125	-1.2667	-0.51875	-0.49375	-1.1562	-0.13125	-0.95417	-1.0271	-0.36875	-1.1521	161.905	353.333	482.417	247.138	166.260	205.616	473.549	412.276	204.320	156.366	294.521	398.238	186.582	459.116	417.427	285.854	0.00028649	0.00060858	0.00012931	991.22	5.437e-06	9.752e-06	617.16	307	5.0744e-06	1.098e-05	186.68	59.789	111.03	51.285	8.7204e-06	26.637	0.0088341	0.015649	0.0044281	1015.3	0.00015407	0.00017659	658.26	319.03	0.00015609	0.00017689	212.95	68.337	118.17	54.072	0.00016559	31.089	210.885	384.352	281.515	153.589	265.541	360.115	151.795	159.158	286.851	367.362	155.714	159.835	163.872	167.717	308.244	162.485	-8191	255	
28993.832	1	1	0	0	0.1392	0.13817	0.11432	0.12877	0.24302	0.17449	0.18581	0.28041	0.061298	0.35029	0.19393	0.096585	0.14674	0.21426	0.070108	0.084443	-0.33958	-0.34583	-1.1063	-0.43125	-0.63958	-1.2563	-0.19583	-0.98333	-0.85833	-0.375	-1.3563	-0.51042	-0.5625	-1.2104	-0.42292	-0.87917	312.929	161.956	446.087	481.150	313.621	497.673	341.998	453.805	151.327	216.424	393.796	182.475	436.724	429.266	271.100	405.891	0.00026026	0.00079857	0.00019307	984.48	1.6473e-06	3.8689e-06	615.32	305.62	8.7272e-06	5.2092e-06	186.08	59.095	110.62	51.266	6.2163e-06	27.192	0.0087268	0.015508	0.0044179	1014	0.00015391	0.00017826	658.3	318.3	0.00015648	0.00017532	213.21	68.11	117.69	53.88	0.00016577	31.217	215.453	353.580	207.835	153.552	467.446	337.027	151.737	159.435	314.145	266.507	155.294	159.775	163.693	167.742	236.879	162.835	-8191	255	
28993.953	1	1	0	0	0.34938	0.33074	0.19472	0.21477	0.13905	0.25644	0.11038	0.085832	0.026081	0.15253	0.5017	0.30869	0.197	0.29941	0.16362	0.26347	-0.56042	-0.15	-0.99792	-0.60833	-0.40625	-1.2104	-0.25625	-0.8875	-0.92708	-0.18958	-1.2104	-0.72083	-0.73333	-1.2521	-0.42708	-0.84375	296.362	232.890	444.967	158.851	444.653	242.134	455.370	460.058	245.377	279.013	467.217	152.358	429.144	499.221	361.955	357.544	0.00037729	0.0007939	0.00043338	984.58	3.8667e-06	5.6453e-06	621.08	306.28	4.1613e-06	2.8822e-06	188.29	59.853	111.02	51.346	9.272e-06	27.26	0.0086696	0.015516	0.0043733	1010.7	0.00015345	0.00017584	659.6	318.69	0.00015688	0.00017516	214.36	68.427	118.14	53.881	0.00016416	31.322	203.107	269.304	252.117	153.752	264.185	377.786	151.713	159.099	321.726	194.365	155.753	159.613	163.680	167.922	200.574	162.934	-8191	255	
28994.049	1	1	0	0	0.10297	0.05146	0.14235	0.32837	0.14815	0.098693	0.06286	0.26725	0.12122	0.26818	0.071918	0.28235	0.35781	0.12608	0.1944	0.23763	-0.76042	-0.4625	-1.0354	-0.88958	-0.5625	-1.0938	-0.33125	-0.6625	-1.0312	-0.32708	-1.1896	-0.82708	-0.53542	-1.1979	-0.51875	-0.775	390.219	347.553	435.061	455.441	336.765	375.161	335.264	441.550	412.678	228.616	209.712	257.506	453.794	500.689	271.212	393.940	0.00034337	0.00092716	0.00027524	989.4	3.5166e-06	7.8969e-06	621.02	307.58	5.3625e-06	8.5835e-06	188.61	59.894	111.28	51.562	5.6297e-06	27.02	0.0086802	0.01531	0.0043483	1010.3	0.00015516	0.00017881	659.99	318.86	0.00015981	0.00017936	214.89	68.686	118.65	54.172	0.00016839	31.393	201.078	213.484	219.910	153.628	158.764	493.938	151.582	159.004	250.794	316.126	155.849	159.682	163.909	167.895	379.925	162.422	-8191	255	
28994.121	1	1	0	0	0.32661	0.060669	0.11154	0.23601	0.18361	0.035935	0.21074	0.20502	0.27336	0.1101	0.14046	0.29103	0.051375	0.28343	0.14143	0.15866	-0.82292	-0.18542	-0.9125	-0.85417	-0.17917	-1.225	-0.61042	-0.65208	-1.1229	-0.054167	-0.75417	-0.81667	-0.24167	-1.1938	-0.35625	-0.37917	198.010	442.277	239.459	422.071	311.590	388.974	163.277	482.043	282.256	418.377	455.199	184.627	380.479	476.363	462.235	442.453	0.0003799	0.0016387	0.00014736	982.17	4.0212e-06	5.6521e-06	615.34	305.29	1.1555e-05	5.5144e-06	185.41	59.569	111.07	51.344	2.1503e-06	26.815	0.0089846	0.015779	0.0044734	1007.1	0.00015869	0.00018201	655.22	317.06	0.00016257	0.00017998	212.9	68.458	118.22	54.171	0.00017102	31.318	181.639	265.882	145.672	153.656	370.446	392.464	151.237	159.291	265.036	321.840	155.870	159.903	163.796	168.075	176.712	162.746	-8191	255	
28994.217	1	1	0	0	0.28184	0.18674	0.02515	0.12845	0.13358	0.16427	0.24074	0.19721	0.13952	0.066931	0.083191	0.23804	0.1875	0.23225	0.08608	0.13666	-0.67708	-0.19167	-0.73542	-0.93958	-0.21458	-1.1271	-0.68333	-0.62917	-1.0458	-0.22083	-0.79583	-0.82292	-0.30833	-1.0312	-0.5125	-0.30417	267.682	409.218	332.641	482.627	409.458	216.815	436.548	471.172	256.282	173.539	433.567	311.696	231.894	215.187	350.509	153.201	0.00023431	0.00065271	0.00027026	976.01	5.8472e-06	5.4196e-06	612.27	305.82	8.2035e-06	1.6306e-05	184.19	59.239	110.47	51.311	1.0152e-05	26.806	0.0091344	0.016146	0.0045347	1005.3	0.00016356	0.00018683	654.9	318.4	0.00016564	0.00018632	213.16	68.587	118.34	54.082	0.0001776	31.396	190.835	183.708	482.443	153.662	328.413	262.072	151.527	159.100	282.779	220.918	155.804	159.896	163.691	167.952	268.063	162.670	-8191	255	
28994.338	1	1	0	0	0.23964	0.16344	0.16414	0.13538	0.13835	0.28014	0.23107	0.11826	0.15954	0.25931	0.12468	0.1726	0.31746	0.082723	0.11925	0.16766	-0.73125	-0.24792	-0.66875	-1.1625	-0.30625	-0.9625	-0.80625	-0.40625	-0.9125	-0.14167	-0.53125	-1.0562	-0.31458	-0.98333	-0.79375	-0.39792	272.183	206.866	407.175	316.240	331.153	387.465	402.341	464.291	426.986	299.261	197.782	195.331	497.533	374.379	187.371	437.137	0.0002411	0.00044604	0.00011621	984.69	3.4791e-06	5.5045e-06	614.41	305.48	6.6273e-06	1.5846e-05	184.74	58.925	110.89	50.904	7.0047e-06	26.706	0.0095672	0.01693	0.0048044	1015.2	0.0001722	0.0001943	662.75	318.96	0.00017613	0.00019652	215.57	69.024	118.77	53.999	0.00018143	31.427	186.110	315.600	160.342	153.648	250.180	245.197	151.540	159.096	218.264	363.632	155.800	159.888	163.693	168.148	248.080	162.317	-8191	255	
28994.434	1	1	0	0	0.18164	0.15821	0.19592	0.28329	0.2131	0.20492	0.19059	0.094252	0.11204	0.16254	0.12969	0.24669	0.24951	0.26299	0.13665	0.12734	-0.7	-0.4375	-0.58125	-1.2896	-0.375	-0.85208	-0.90208	-0.52292	-1.1063	-0.56667	-0.29792	-1.3604	-0.425	-0.8375	-1.0583	-0.3875	172.453	322.029	488.886	482.639	314.428	150.564	482.706	481.847	142.364	233.542	268.387	212.788	239.455	473.963	352.467	399.513	0.00023454	0.00075211	0.00034998	990.56	7.8034e-06	7.4076e-06	617.87	304.59	9.0703e-06	4.8732e-06	184.77	59.793	110.5	51.202	9.4276e-06	26.742	0.0096699	0.01702	0.0048282	1019.1	0.00016777	0.00018982	662.36	317.48	0.00016722	0.00018609	214.79	68.922	118.25	53.91	0.00017199	31.247	199.722	494.542	237.162	153.794	208.359	323.200	151.652	159.238	207.884	336.059	155.444	160.164	164.064	168.205	279.425	162.780	-8191	255	
28994.529	1	1	0	0	0.23033	0.15935	0.26623	0.072871	0.084844	0.058699	0.15661	0.090952	0.16303	0.11522	0.065637	0.17784	0.099717	0.21893	0.16594	0.068429	-0.80833	-0.51667	-0.39583	-1.4312	-0.33333	-0.95	-1.1313	-0.36042	-1.0333	-0.85417	-0.4	-1.0667	-0.5875	-0.91667	-1.05	-0.29375	389.337	180.409	271.063	170.761	474.954	199.884	426.902	437.472	357.838	262.838	392.620	255.103	349.096	412.067	356.445	464.179	0.00033518	0.00030505	0.00011173	989.35	1.134e-05	8.7217e-06	615.51	302.3	6.3054e-06	8.1219e-06	182.26	58.629	109.29	50.305	1.4441e-05	26.46	0.009064	0.016084	0.0045701	1015.2	0.00016104	0.00018249	657.64	315.44	0.00016205	0.00018149	211.04	67.499	117.02	53.03	0.00016995	30.632	197.783	205.473	186.868	153.927	329.056	194.924	151.672	159.185	280.592	274.145	155.646	160.044	163.877	168.091	201.437	163.131	-8191	255	
28994.627	1	1	0	0	0.098898	0.16989	0.19471	0.086752	0.10583	0.29808	0.2428	0.067736	0.26122	0.17554	0.46684	0.37141	0.3079	0.031648	0.095866	0.23065	-0.6875	-0.81458	-0.21875	-1.1875	-0.43333	-0.67917	-1.3708	-0.4125	-0.94375	-1.1104	-0.50625	-1.2604	-0.61458	-0.64167	-1.0854	-0.43125	471.612	363.956	363.978	405.995	269.917	239.365	437.225	440.838	216.909	311.390	190.703	473.518	492.766	171.536	437.345	403.858	0.0002768	0.00026127	0.00013815	981.96	6.1523e-06	2.8591e-06	610.65	302.12	3.469e-06	1.2436e-05	182.38	57.767	108.43	50.231	1.2253e-05	26.154	0.008886	0.016035	0.0045234	1007.8	0.00015761	0.00017932	652.56	313.66	0.00015885	0.00017785	209.69	66.791	116.24	52.876	0.0001669	30.425	193.346	438.427	313.887	153.824	324.684	243.895	151.527	159.211	341.875	280.582	156.048	159.875	163.672	168.204	232.222	162.976	-8191	255	
28994.721	1	1	0	0	0.32644	0.17895	0.15533	0.070631	0.21992	0.1833	0.2997	0.26402	0.045342	0.23514	0.06585	0.16007	0.2679	0.27884	0.054438	0.25637	-0.57917	-0.78333	-0.19583	-1.1562	-0.46458	-0.25625	-1.1625	-0.52917	-0.90417	-1.3	-0.15833	-1.275	-0.72083	-0.5625	-1.0521	-0.45833	335.802	316.775	239.901	382.046	180.704	219.542	390.116	411.666	230.448	163.535	154.545	304.158	496.192	455.808	396.221	481.860	0.00028371	0.00057845	0.0001364	981.2	8.2337e-06	6.9297e-06	608.42	301.03	5.375e-06	1.369e-05	182.54	58.109	108.25	50.491	1.0077e-05	26.274	0.0088477	0.015755	0.004475	1007.5	0.00015588	0.00017647	652.96	313.59	0.0001584	0.00017805	210.37	67.143	116.27	53.065	0.00016862	30.778	228.430	270.675	299.199	154.040	146.114	275.475	151.587	159.225	259.521	314.005	155.749	159.623	163.702	167.965	275.004	162.246	-8191	255	
28994.818	1	1	0	0	0.083858	0.10025	0.15712	0.23793	0.14201	0.2298	0.34934	0.24105	0.11889	0.16586	0.11465	0.18011	0.055037	0.37949	0.28812	0.24567	-0.24375	-1.1792	-0.18333	-1.1958	-0.84375	-0.45208	-1.2875	-0.45417	-0.7375	-1.25	-0.22083	-1.1396	-1.1625	-0.33542	-1.1	-0.50208	415.561	377.823	284.800	391.038	238.875	489.638	398.719	473.499	379.863	299.415	158.783	433.868	417.672	466.702	173.861	403.636	0.00031193	0.00042949	0.00011204	982.26	7.2442e-06	7.328e-06	615.93	301.18	5.5444e-06	6.9521e-06	184.67	59.142	109.69	50.883	7.4708e-06	26.818	0.0088694	0.015994	0.0045002	1009	0.00015966	0.00018183	658.62	314.69	0.00016263	0.00018263	213.28	68.086	117.23	53.524	0.00017073	31.261	185.243	201.634	223.300	153.859	397.420	334.055	151.837	159.290	405.765	188.810	155.382	159.550	163.930	168.226	310.715	162.808	-8191	255	
28994.938	1	1	0	0	0.030362	0.15039	0.18599	0.054017	0.15351	0.10019	0.18809	0.17633	0.11684	0.095291	0.067227	0.10079	0.24744	0.3314	0.21552	0.17801	-0.1375	-0.87708	-0.34792	-1.0875	-0.98958	-0.3625	-1.2708	-0.60625	-0.39167	-1.1542	-0.2875	-0.82292	-1.0604	-0.49792	-1.0979	-0.7875	337.497	451.536	488.338	354.442	344.967	477.390	387.454	153.101	327.587	252.830	485.385	205.911	211.545	231.202	229.231	150.698	0.00038033	0.00081758	0.00043256	990.29	1.0264e-05	4.2467e-06	624.66	303.23	8.8453e-06	1.1608e-05	183.51	58.593	109.64	50.46	4.5978e-06	26.616	0.0090975	0.016192	0.0045878	1016.2	0.00016414	0.00018601	664.05	316.38	0.00016739	0.00018683	212.54	68.027	117.62	53.391	0.00017611	31.128	194.034	305.024	201.179	153.811	295.471	335.349	151.971	159.219	320.221	151.889	155.598	159.646	163.850	168.230	286.074	162.459	-8191	255	
28995.033	1	1	0	0	0.27976	0.36905	0.22308	0.30083	0.14514	0.25351	0.15555	0.20231	0.29219	0.22826	0.43313	0.058773	0.38232	0.41611	0.2716	0.16935	0.097917	-1.1313	-0.14583	-0.65417	-1.0979	-0.18542	-1.1688	-0.61458	-0.39792	-1.1042	-0.6375	-0.51875	-1.2229	-0.30625	-0.77083	-0.88333	310.246	162.488	257.317	469.186	163.057	257.537	345.073	201.108	250.246	455.378	173.348	461.706	460.224	475.204	277.248	391.348	0.00031245	0.0010341	0.00064096	980.74	1.1066e-05	2.7881e-06	614.84	302.26	5.7087e-06	4.5502e-06	183.39	58.683	109.9	50.71	3.257e-06	26.3	0.0094874	0.016847	0.0048235	1011.4	0.00017021	0.00019444	659.03	315.81	0.00017337	0.00019293	213.64	68.78	118.26	53.561	0.00018094	31.248	206.588	249.478	298.144	154.216	327.120	467.084	152.173	159.211	389.549	165.021	156.029	159.853	164.116	168.063	326.048	162.688	-8191	255	
28995.129	1	1	0	0	0.38818	0.059524	0.13058	0.11758	0.040951	0.2036	0.025268	0.39597	0.17283	0.18475	0.42514	0.079926	0.24889	0.064356	0.20763	0.16139	-0.079167	-1.1917	-0.57083	-0.78125	-0.97292	-0.39792	-0.95208	-1.0854	-0.32292	-1.2437	-0.49375	-0.36667	-1.1313	-0.42708	-0.65833	-0.88958	409.952	450.612	349.343	146.714	222.525	372.578	268.545	423.994	231.021	348.070	464.795	311.781	497.911	475.748	469.316	415.164	0.00035571	0.00062557	0.00037351	978.61	6.3478e-06	8.2489e-06	619.73	302.93	1.1263e-05	1.137e-05	184.6	59.555	110.45	50.452	6.4021e-06	26.609	0.0097174	0.017195	0.0048943	1013.5	0.00017258	0.0001975	662.22	317.03	0.00017613	0.00019586	216.07	69.259	118.59	53.591	0.00018131	31.336	203.238	281.924	175.910	154.207	265.341	203.582	151.773	159.167	272.402	372.358	155.653	160.307	163.982	168.236	253.831	162.920	-8191	255	
28995.227	1	1	0	0	0.19649	0.10163	0.18738	0.13642	0.16517	0.30714	0.094017	0.19572	0.13382	0.18938	0.2608	0.23922	0.22655	0.28141	0.20883	0.20395	0.10833	-1.1063	-0.40833	-0.7875	-1.0938	-0.38958	-0.96458	-1.0917	-0.29167	-1.125	-0.78125	-0.32292	-1.2125	-0.50417	-0.58333	-1.2458	445.855	389.469	352.789	203.239	200.329	159.988	167.973	398.497	146.079	283.616	296.259	151.568	441.146	462.586	401.584	393.809	0.00030469	0.00088218	7.8404e-05	981.06	7.4384e-06	1.1911e-06	618.82	304.56	8.8011e-06	2.2042e-05	185.69	59.189	110.26	50.739	6.5699e-06	26.787	0.0095501	0.016769	0.0047568	1013.2	0.00016807	0.00019152	662.96	317.07	0.00016818	0.00018638	214.63	68.619	118.29	53.509	0.00017732	31.213	195.259	304.120	467.290	154.164	279.098	466.724	151.929	159.421	302.437	313.772	155.677	160.160	164.147	168.242	220.307	162.716	-8191	255	
28995.322	1	1	0	0	0.073293	0.060847	0.14126	0.319	0.039601	0.10417	0.12089	0.39145	0.033781	0.16417	0.072792	0.11288	0.11927	0.10821	0.1535	0.30951	0.13958	-0.85833	-0.5	-0.38333	-1.1583	-0.41458	-0.75	-1.25	-0.425	-1.1542	-0.7875	-0.21458	-1.4125	-0.75417	-0.62917	-1.2354	466.359	194.885	483.469	497.502	383.470	259.751	497.659	465.851	192.929	321.615	495.274	445.903	185.600	189.386	240.313	223.593	0.00028908	0.0014277	0.00012644	984.6	3.6783e-06	9.1389e-06	621.22	303.27	6.6564e-06	9.8457e-06	182.29	58.47	109.17	49.837	8.6415e-06	25.746	0.0094944	0.016791	0.0047963	1016.5	0.00016829	0.00019142	663.68	316.26	0.00017098	0.00019067	212.96	68.107	116.83	52.69	0.00018273	30.538	190.795	183.764	363.877	153.853	287.426	392.583	152.054	159.641	251.388	429.235	156.386	160.238	164.239	168.087	232.158	162.925	-8191	255	
28995.418	1	1	0	0	0.10311	0.053368	0.12832	0.4252	0.11693	0.22093	0.11313	0.2164	0.11328	0.1447	0.26387	0.12664	0.21417	0.25438	0.24901	0.15057	0.00625	-0.97708	-0.89792	-0.6375	-1.175	-0.50625	-0.63542	-1.2667	-0.36042	-1.0208	-1.1708	-0.50833	-1.1646	-0.79583	-0.54375	-1.1167	161.212	383.123	218.717	435.881	153.811	228.139	144.140	404.941	402.402	348.027	470.238	461.460	454.177	440.202	359.429	166.952	0.00018154	0.0011111	0.00036694	982.31	1.0046e-05	9.6291e-06	610.03	300.24	5.3063e-06	1.94e-05	178.93	56.743	107.6	49.317	6.2902e-06	25.526	0.0095743	0.016888	0.0048323	1014.5	0.00016804	0.00019249	652.86	312.73	0.00017089	0.00019221	209.67	66.736	115.74	52.235	0.00017942	30.204	204.614	275.801	273.793	154.059	278.127	294.284	151.617	159.633	439.845	271.813	155.670	160.004	164.160	168.157	302.239	162.913	-8191	255	
28995.514	1	1	0	0	0.072398	0.055907	0.12984	0.28953	0.09262	0.16971	0.19135	0.24347	0.24729	0.25788	0.060956	0.12366	0.20296	0.19345	0.11262	0.26076	-0.070833	-0.67917	-0.94167	-0.40417	-1.2062	-0.5625	-0.57917	-1.3479	-0.2875	-0.61458	-1.0146	-0.26042	-0.94375	-0.88125	-0.33125	-1.075	300.511	427.065	400.749	488.564	418.742	159.177	446.032	455.712	361.102	256.003	200.344	499.167	181.965	326.744	202.089	459.239	0.00016394	0.0013671	0.00042106	976.97	6.6953e-06	2.2748e-06	608.47	296.93	2.4581e-06	1.2042e-05	179.68	57.087	107.31	49.047	4.026e-06	25.607	0.0094399	0.016799	0.0047652	1006.2	0.00016552	0.00018919	650.39	311.74	0.00016649	0.00018734	208.15	66.384	115.45	52.013	0.00017599	30.132	207.170	436.440	282.054	153.983	367.330	460.153	151.900	159.368	324.120	299.901	156.082	160.203	164.123	168.242	402.529	163.437	-8191	255	
28995.633	1	1	0	0	0.10514	0.226	0.2489	0.22429	0.04852	0.12714	0.08369	0.11699	0.19211	0.24895	0.090491	0.20202	0.078254	0.25722	0.23147	0.16352	-0.28125	-0.65208	-1.1979	-0.28958	-0.825	-0.98542	-0.32083	-1.275	-0.53542	-0.49167	-1.1604	-0.25625	-0.82917	-1.0583	-0.10417	-1.0667	365.024	416.373	337.971	457.097	436.522	211.344	494.096	249.601	245.742	250.983	388.132	453.543	431.695	159.278	336.519	158.242	0.00022232	0.0010358	0.00027787	972.17	8.4822e-06	3.8474e-06	607.08	297.42	3.1653e-06	1.005e-05	179.51	56.711	107.14	48.777	1.4345e-05	25.463	0.0093758	0.016617	0.0047583	1005.1	0.00016692	0.00019131	649.84	311.18	0.00017078	0.00019137	209.31	66.466	114.96	51.919	0.00017943	30.166	164.398	245.288	435.212	153.955	377.692	279.167	152.244	159.612	337.908	198.174	155.635	160.278	164.105	168.275	281.618	163.029	-8191	255	
28995.729	1	1	0	0	0.12199	0.15756	0.22548	0.13952	0.14389	0.019497	0.21839	0.44639	0.23808	0.075974	0.10757	0.48259	0.22462	0.19277	0.11681	0.11673	-0.17708	-0.5125	-1.0792	-0.47708	-0.70833	-1.0667	-0.50208	-1.1375	-0.78333	-0.52917	-1.2125	-0.5625	-0.81458	-1.2062	-0.32083	-0.98333	435.088	232.236	434.661	359.860	268.568	242.004	380.766	487.359	429.700	466.415	277.209	298.928	468.210	224.675	437.929	342.531	0.00024691	0.0012691	0.00036322	973.15	2.695e-06	8.1486e-06	606.15	296.27	5.9671e-06	3.8211e-06	178.48	56.373	106.28	48.793	1.232e-05	25.287	0.0096147	0.017087	0.004859	1006.4	0.00017257	0.00019702	654.16	311.22	0.00017801	0.00019949	209.82	66.861	115.02	51.834	0.00018677	30.145	229.707	167.306	180.705	153.983	210.250	279.568	151.988	159.477	188.242	270.701	156.290	160.418	164.327	168.144	255.781	163.119	-8191	255	
28995.824	1	1	0	0	0.11779	0.12534	0.26071	0.19233	0.12031	0.22323	0.15431	0.12215	0.40265	0.12092	0.20317	0.065011	0.13958	0.23927	0.24263	0.31043	-0.525	-0.25625	-1.2062	-0.67083	-0.85417	-1.225	-0.24792	-1.1917	-0.78542	-0.22917	-1.0583	-0.47292	-0.6375	-1.1688	-0.32292	-1.1125	297.097	234.104	362.957	470.239	206.779	389.158	336.139	464.025	278.212	412.586	449.456	220.087	197.503	471.767	430.319	405.054	0.00014791	0.00037187	0.0002115	981.32	1.0193e-05	5.1689e-06	598.85	295.05	4.0542e-07	1.2463e-05	175.55	54.649	105.44	48.23	1.7957e-05	24.827	0.01008	0.017926	0.0050738	1009.3	0.00018044	0.00020559	649.29	309.8	0.00018518	0.00020863	208.31	65.589	114.47	51.459	0.00019662	29.925	186.096	345.702	484.258	154.169	343.493	439.610	151.718	159.506	460.800	299.282	156.239	160.050	164.219	168.475	301.273	163.419	-8191	255	
28995.922	1	1	0	0	0.13711	0.074385	0.15093	0.13422	0.26964	0.14638	0.16073	0.23125	0.16943	0.1883	0.27346	0.23412	0.17984	0.26948	0.11152	0.15202	-0.46875	-0.36875	-1.1208	-0.66458	-0.69167	-1.1729	-0.5	-1.0688	-1.0917	-0.21875	-1.0812	-0.71875	-0.58958	-1.4125	-0.31458	-0.78333	393.476	375.004	153.235	402.513	398.181	268.321	435.969	438.779	219.931	254.391	276.468	360.657	291.695	438.217	349.385	266.556	0.00030975	0.00094809	0.00042156	973.55	1.7238e-05	6.5833e-06	601.35	293.7	9.5446e-06	1.1243e-05	174.97	54.743	104.89	48.103	7.2629e-06	24.881	0.010593	0.018822	0.0052571	1013	0.00018517	0.00020965	651.99	309.29	0.00018646	0.00020815	207.78	65.717	114.21	51.356	0.00018932	29.776	199.728	435.886	204.172	153.915	362.794	204.342	152.057	159.551	365.684	319.347	156.063	160.438	164.301	168.433	260.625	162.882	-8191	255	
28996.018	1	1	0	0	0.14102	0.11447	0.18913	0.4388	0.041565	0.13578	0.1158	0.30643	0.076916	0.049323	0.18931	0.27801	0.074828	0.27919	0.45589	0.21547	-0.73333	-0.15625	-1.1229	-0.9875	-0.24167	-1.1792	-0.61042	-0.78333	-1.3458	-0.34375	-1.0021	-0.82083	-0.37708	-1.3292	-0.65	-0.70208	409.401	240.548	283.331	490.124	280.082	288.741	470.423	445.880	158.051	470.174	475.187	458.694	453.983	154.512	423.376	254.364	0.00021441	0.0003347	0.00067303	980.93	2.6031e-06	5.203e-06	598.16	296.66	3.1911e-06	1.3409e-05	174.93	55.595	106.24	48.456	7.1908e-06	25.235	0.010004	0.017607	0.0049182	1007.4	0.00017389	0.00019757	647.92	309.55	0.00017599	0.00019491	206.69	65.753	114.21	51.481	0.0001818	29.958	203.108	335.244	278.259	153.953	213.571	392.085	151.397	159.762	241.532	297.326	156.429	159.925	164.370	168.646	178.582	163.343	-8191	255	
28996.113	1	1	0	0	0.080624	0.18413	0.21162	0.28216	0.16587	0.045171	0.13467	0.04582	0.094991	0.090719	0.1449	0.26599	0.2065	0.27903	0.19689	0.06816	-0.94167	-0.37708	-0.86667	-1.0229	-0.28125	-1.0729	-0.55625	-0.75417	-1.1896	-0.23958	-0.78958	-1.0229	-0.22292	-1.2854	-0.60208	-0.38542	397.380	368.977	402.953	492.693	171.053	165.528	287.514	221.286	326.091	167.104	256.946	478.134	177.834	396.754	229.620	290.342	0.00038509	0.0015293	0.00047348	977.5	9.4423e-06	2.0649e-06	600.68	293.48	8.6803e-06	5.7683e-06	175.67	55.214	105.3	48.056	4.5746e-06	24.978	0.0097479	0.017311	0.0048852	1008	0.00017179	0.00019482	649.16	308.8	0.00017463	0.00019426	207.29	65.583	114.09	51.16	0.00018427	29.811	206.513	208.572	252.931	154.108	286.597	169.495	151.694	159.548	264.293	371.755	156.225	160.663	164.252	168.423	178.305	163.338	-8191	255	
28996.211	1	1	0	0	0.233	0.16217	0.21299	0.20881	0.17902	0.089994	0.12858	0.28599	0.063007	0.13562	0.26582	0.58642	0.31594	0.20699	0.3151	0.12783	-0.91667	-0.33542	-0.86458	-1.1333	-0.3125	-0.93958	-0.925	-0.47083	-1.0792	-0.40417	-0.71458	-1.3417	-0.34167	-1.0708	-0.8875	-0.48333	477.107	442.847	380.793	192.327	322.924	370.173	395.837	463.582	406.621	370.999	398.193	397.625	249.071	440.413	496.574	173.443	0.00030415	0.00077964	0.00013501	974.69	1.2163e-05	1.1847e-05	599.66	291.8	5.2105e-06	9.3334e-06	171.75	54.334	104.22	47.259	3.3891e-06	24.41	0.0097683	0.017156	0.0048896	1006	0.00017142	0.00019511	644.35	305.97	0.00017427	0.00019367	203.57	64.55	112.42	50.411	0.0001815	29.046	189.141	279.975	433.812	154.080	335.519	405.527	151.970	159.476	418.696	238.601	155.919	160.133	164.117	168.577	358.644	163.378	-8191	255	
28996.307	1	1	0	0	0.23923	0.35491	0.12447	0.23168	0.19308	0.27584	0.032145	0.24876	0.15949	0.18145	0.11981	0.12875	0.079841	0.17004	0.28197	0.19013	-0.77708	-0.43542	-0.53958	-1.3292	-0.1125	-0.95	-0.78542	-0.42292	-1.2229	-0.59792	-0.46875	-1.2146	-0.40417	-0.9875	-0.97083	-0.25625	195.567	321.363	154.386	146.534	348.661	493.385	345.282	146.149	417.570	166.221	474.593	331.833	394.348	438.857	468.546	156.981	0.00018895	0.00083443	0.00066123	968.25	4.615e-06	5.2106e-06	588.99	289.96	1.5413e-05	1.0995e-05	174.45	54.639	104.27	47.607	8.2764e-06	24.753	0.0095258	0.0169	0.0047782	997.63	0.00016787	0.00019064	638.99	303.84	0.0001679	0.00018712	202.7	64.206	111.98	50.408	0.00017705	29.005	199.179	276.847	178.645	154.042	198.896	267.356	151.928	159.622	241.654	329.980	155.839	160.319	164.316	168.375	302.523	163.164	-8191	255	
28996.428	1	1	0	0	0.20814	0.18386	0.14146	0.18479	0.14435	0.15168	0.073088	0.19737	0.25132	0.26354	0.068122	0.22634	0.14648	0.29775	0.089905	0.20502	-0.85417	-0.49375	-0.23542	-1.2458	-0.37917	-0.8	-1.0021	-0.38125	-0.9875	-0.575	-0.375	-1.1604	-0.475	-0.83958	-1.0708	-0.55625	185.627	388.609	471.653	404.346	331.814	316.245	428.581	187.583	318.778	187.496	337.118	142.261	466.191	158.443	161.526	433.412	0.00036853	0.001122	0.00024056	960.09	8.9135e-06	1.2304e-05	595.09	291.14	1.3367e-05	1.9384e-06	173.89	55.267	104.5	48.041	6.084e-06	24.796	0.0091886	0.016557	0.0046543	990.16	0.00016305	0.00018722	637	303.67	0.00016484	0.00018604	203.45	64.739	112.77	50.765	0.0001747	29.302	195.831	261.721	201.308	154.140	341.437	449.357	151.973	159.681	249.274	482.269	155.701	160.496	164.214	168.340	189.385	162.882	-8191	255	
28996.521	1	1	0	0	0.12386	0.066779	0.14103	0.24233	0.10075	0.12247	0.11427	0.20127	0.19716	0.37431	0.23293	0.24729	0.36176	0.053692	0.2129	0.10227	-0.79792	-0.7375	-0.43125	-1.2625	-0.32708	-0.60417	-1.3021	-0.38125	-1.0938	-0.81042	-0.44375	-1.2521	-0.81875	-0.62292	-1.3979	-0.31667	406.350	410.634	304.258	473.134	275.559	414.360	142.243	181.817	222.849	352.055	358.384	373.679	145.560	222.386	301.192	237.983	0.0001716	0.0013694	0.00018086	960.45	1.3863e-05	1.339e-05	596.79	292.03	1.1465e-06	1.3006e-05	174.79	55.726	105.2	48.11	5.1694e-06	24.876	0.0091911	0.016528	0.0046874	992.57	0.00016614	0.00019224	641.34	305.38	0.00017029	0.00019073	204.56	65.23	113.42	51.111	0.00017752	29.573	202.868	260.678	345.953	154.151	193.516	166.505	152.211	159.734	261.289	268.918	155.716	160.452	164.155	168.387	202.061	162.798	-8191	255	
28996.619	1	1	0	0	0.13668	0.12728	0.26917	0.17178	0.1408	0.23881	0.30415	0.14935	0.20657	0.077131	0.29859	0.16179	0.39746	0.026059	0.24883	0.39393	-0.5625	-0.775	-0.23958	-1.5125	-0.72917	-0.67708	-1.1292	-0.49375	-0.88125	-0.95833	-0.24583	-1.0375	-0.70208	-0.57708	-0.96875	-0.56875	328.000	188.719	172.705	367.332	158.825	187.083	394.925	437.174	167.883	305.329	380.195	173.434	446.146	434.487	230.439	451.921	0.00028919	0.0014714	0.00022887	965.4	5.2837e-06	2.7659e-06	595.21	291.2	5.5627e-06	1.4316e-05	175.98	55.412	105.01	48.375	6.8202e-06	24.955	0.009318	0.016699	0.0047618	996.2	0.00016881	0.00019168	641.62	305.11	0.00017237	0.00019355	204.64	65.238	113.55	51.308	0.00018143	29.613	215.846	241.049	390.613	154.132	401.972	325.503	151.842	159.402	278.263	212.034	156.141	160.089	164.485	168.316	179.379	163.143	-8191	255	
28996.713	1	1	0	0	0.14587	0.10597	0.27313	0.34763	0.25627	0.2341	0.15798	0.12743	0.22514	0.1781	0.13913	0.096875	0.2097	0.21747	0.19729	0.17336	-0.32917	-1.0396	-0.22917	-1.2104	-0.71875	-0.3875	-1.2563	-0.4625	-0.60208	-1.0354	-0.38958	-1.1354	-1.0292	-0.43125	-1.175	-0.45625	434.256	191.401	422.944	165.574	283.028	236.487	345.298	493.236	194.891	437.908	379.018	465.206	161.636	316.217	334.781	486.453	0.00033271	0.00098952	0.00023016	965.13	3.8634e-06	6.4047e-06	591.72	291.55	2.6065e-06	9.2421e-06	172.84	55.593	105.02	48.253	8.2032e-06	24.836	0.0097041	0.017187	0.0048821	996.9	0.00017573	0.00019914	638.7	305.76	0.00017768	0.00019845	204.91	65.625	113.84	51.272	0.00018459	29.72	204.773	254.804	444.184	154.137	273.756	311.603	152.037	159.590	384.386	385.320	156.393	160.263	164.279	168.247	463.782	163.143	-8191	255	
28996.809	1	1	0	0	0.17064	0.1526	0.18928	0.29967	0.18075	0.23337	0.25101	0.054573	0.26227	0.21681	0.22121	0.14169	0.13309	0.11465	0.11767	0.070357	-0.1875	-1.1979	-0.32708	-1.2208	-0.93542	-0.32083	-1.2021	-0.83958	-0.54167	-1.3208	-0.37917	-0.85417	-1.1	-0.29375	-1.2292	-0.84167	234.830	343.056	475.681	400.649	243.684	326.477	150.154	198.221	330.893	198.165	410.875	221.984	342.307	438.043	275.176	144.680	0.00028262	0.00045431	0.00029828	966.46	8.4613e-06	8.1851e-06	591.76	292.73	4.8012e-06	6.8448e-06	175.69	55.73	105.51	48.367	1.5058e-05	24.947	0.0099844	0.017568	0.0049718	999.01	0.00017789	0.00020299	641.92	306.82	0.00018091	0.00020079	206.27	65.9	114.29	51.43	0.00018574	29.791	211.876	452.733	216.405	154.128	322.496	223.552	152.134	159.500	361.834	494.675	155.749	160.848	164.542	168.339	257.538	163.102	-8191	255	
28996.906	1	1	0	0	0.12011	0.23214	0.14775	0.3728	0.085135	0.22021	0.17102	0.16637	0.23985	0.037501	0.16894	0.16633	0.15681	0.26406	0.081103	0.157	0.0041667	-1.1854	-0.25417	-0.94792	-1.0021	-0.32917	-1.1667	-0.71458	-0.49375	-1.4104	-0.39167	-0.78333	-1.3	-0.25208	-1.0708	-0.825	221.512	328.037	423.643	495.699	354.197	169.466	146.702	423.233	443.233	435.063	247.247	172.724	165.755	177.354	262.458	294.989	0.00018141	0.0011573	0.00015691	972.62	8.6699e-06	8.0641e-06	601.52	292.38	3.8365e-06	7.9081e-06	174.35	56.349	106.83	48.535	9.7662e-06	25.212	0.0097979	0.017153	0.0048306	998.61	0.00017104	0.00019162	644.03	306.56	0.0001708	0.00018873	205.1	66.046	114.43	51.679	0.00017514	30.017	164.591	196.618	204.389	154.266	200.536	218.046	151.944	159.542	235.208	353.093	155.964	160.145	164.243	168.347	322.390	163.094	-8191	255	
28997.025	1	1	0	0	0.12988	0.1706	0.16486	0.29912	0.099003	0.26674	0.17923	0.3541	0.090403	0.21529	0.26554	0.13955	0.17416	0.013764	0.16022	0.077961	-0.06875	-1.1271	-0.30625	-0.8	-1.0958	-0.23542	-1.0646	-0.87917	-0.37708	-1.3813	-0.58125	-0.59792	-1.3208	-0.34792	-0.8	-1.0292	227.743	455.095	375.938	493.340	335.197	155.147	358.966	449.161	333.670	144.777	163.523	376.888	177.642	204.680	283.144	280.893	0.00024977	0.00080514	8.6082e-05	972.05	1.4108e-05	7.6013e-06	601.9	294.15	7.9457e-06	1.0003e-05	175.84	56.046	106.41	48.587	5.3192e-06	24.951	0.0093255	0.016368	0.0046307	1000.3	0.00016625	0.00018815	647.08	307.09	0.00016751	0.00018633	204.58	65.873	114.14	51.432	0.00017628	29.584	192.903	396.303	277.322	154.200	348.313	252.312	152.074	159.628	345.080	326.721	155.875	160.630	164.499	168.718	276.839	162.883	-8191	255	
28997.121	1	1	0	0	0.10191	0.10808	0.21094	0.38288	0.076349	0.10894	0.11503	0.071861	0.15272	0.13365	0.10603	0.1548	0.24049	0.21801	0.1332	0.17309	0.020833	-1.1604	-0.35625	-0.57708	-1.2104	-0.58958	-0.95208	-1.1104	-0.28958	-0.925	-0.81458	-0.42917	-1.2687	-0.57917	-0.89792	-1.2292	433.883	202.944	252.373	483.384	206.044	169.882	449.438	467.867	463.999	165.961	323.956	475.069	440.629	468.501	302.677	433.449	0.00021267	0.00051522	0.00031817	968.15	9.5423e-06	1.1955e-05	596.48	289.92	7.839e-06	5.2887e-06	173.9	55.093	105.42	47.749	2.0507e-05	24.924	0.0093205	0.016366	0.0047282	998.44	0.000167	0.00019073	640.53	304.56	0.00016909	0.00018754	203.86	64.832	113.11	50.811	0.00017378	29.347	198.994	143.333	230.579	154.260	293.733	358.757	151.904	159.546	354.553	195.421	155.449	160.551	164.423	168.406	290.334	163.266	-8191	255	
28997.219	1	1	0	0	0.21268	0.093944	0.060624	0.13675	0.14549	0.33004	0.16486	0.26035	0.17289	0.12524	0.067893	0.11873	0.24138	0.2153	0.079549	0.081763	0.12083	-1.0396	-0.68542	-0.38958	-1.1729	-0.44792	-0.98542	-1.2021	-0.275	-1.2958	-0.83125	-0.54375	-1.3604	-0.80417	-0.54167	-1.2583	498.626	196.871	429.646	179.553	145.704	155.783	357.267	272.845	294.956	336.454	266.857	262.586	262.571	377.055	315.507	448.620	0.00036711	0.00099865	0.00023439	964.89	1.6708e-06	5.1135e-06	597.91	291.06	3.4303e-06	4.1206e-06	174.78	56.096	105.69	48.329	1.6145e-06	25.182	0.0091935	0.016266	0.0046156	994.38	0.00016207	0.00018437	642.11	304.72	0.00016287	0.00018314	204.3	65.179	113.71	51.182	0.00017113	29.478	179.912	181.063	301.772	154.309	271.569	401.669	151.871	159.690	249.728	231.685	156.434	160.477	164.493	168.815	384.029	163.149	-8191	255	
28997.314	1	1	0	0	0.15841	0.31836	0.087869	0.13509	0.26383	0.11868	0.21315	0.26897	0.13645	0.092349	0.032194	0.18258	0.19292	0.27487	0.084031	0.051875	0.054167	-1.0208	-0.94792	-0.51875	-1.1417	-0.58958	-0.6125	-1.3583	-0.19583	-0.90833	-0.89583	-0.18542	-1.1708	-0.62083	-0.51875	-1.2542	156.358	344.376	385.043	444.745	489.857	255.251	367.531	402.361	454.421	248.824	290.867	280.423	144.608	474.863	376.458	201.420	0.00013656	0.00075938	0.00027979	964.87	9.2653e-06	1.2247e-05	596.88	293.45	3.3502e-06	6.8167e-06	177.51	56.078	106.44	48.758	1.4587e-06	25.728	0.0089742	0.015874	0.0045398	991.78	0.00015766	0.00018248	641.9	305.82	0.00016079	0.00018145	205.62	65.754	114.15	51.617	0.00017212	30.005	235.421	302.890	210.393	154.330	314.763	218.936	152.212	159.288	297.171	272.405	155.902	160.692	164.023	168.502	302.011	162.505	-8191	255	
28997.410	1	1	0	0	0.37971	0.21211	0.29652	0.024638	0.19438	0.16945	0.17924	0.18357	0.12746	0.13079	0.086665	0.224	0.2064	0.1174	0.067314	0.32799	-0.083333	-0.56875	-0.7875	-0.31458	-1.1333	-0.60417	-0.45833	-1.2875	-0.17917	-0.87708	-1.1583	-0.32917	-0.89375	-0.92292	-0.35417	-1.1896	442.029	252.717	480.842	460.353	388.511	388.516	480.345	457.318	331.577	190.300	409.319	208.245	196.798	472.400	250.428	321.613	0.00043069	0.00074784	0.00031307	968	4.4035e-06	6.4126e-06	605.89	296.21	1.6745e-06	9.1607e-06	177.37	56.082	107.53	48.982	5.3386e-06	25.763	0.0092105	0.016338	0.0046407	996.55	0.00016292	0.00018846	649.11	308.7	0.00016871	0.00018879	208.08	66.388	115.29	52.017	0.00017768	30.157	191.326	307.209	354.067	153.732	285.665	322.537	151.818	159.439	258.502	186.439	156.380	159.878	163.984	167.983	336.404	163.007	-8191	255	
28997.508	1	1	0	0	0.062666	0.22299	0.26922	0.13856	0.14043	0.18753	0.28119	0.17021	0.22883	0.37922	0.079663	0.28431	0.12423	0.081543	0.23932	0.18074	-0.1625	-0.6125	-1.0542	-0.42083	-0.91458	-0.84167	-0.1875	-1.3875	-0.37292	-0.43542	-1.2729	-0.24583	-0.97917	-1.0125	-0.3875	-1.3708	199.716	332.655	329.705	299.881	205.865	210.179	407.518	479.193	483.185	266.378	186.835	199.702	487.180	158.291	457.243	420.023	0.00032695	0.00073039	0.00028763	965.77	3.4417e-06	8.9266e-06	594.01	293.7	7.7844e-06	7.2743e-06	177.33	56.409	107.57	49.229	5.8079e-06	25.619	0.0094064	0.016748	0.0046825	994.52	0.00016798	0.00018989	641.61	307.04	0.00016795	0.00018847	206.24	66.151	115.16	52.15	0.00017522	30.131	203.322	164.962	269.043	153.887	201.872	200.341	151.919	159.422	263.297	165.313	155.597	160.289	164.123	168.217	304.745	162.723	-8191	255	
28997.602	1	1	0	0	0.11534	0.18784	0.20882	0.20383	0.04151	0.040962	0.16929	0.30843	0.31236	0.23814	0.058068	0.23658	0.3393	0.37035	0.27032	0.18125	-0.17708	-0.43958	-1.2146	-0.5	-0.75833	-0.95833	-0.42708	-1.225	-0.66667	-0.32083	-1.1646	-0.095833	-0.93125	-1.2479	-0.40417	-1.1521	299.907	410.624	282.187	153.803	146.429	305.664	398.388	151.929	430.067	272.551	419.122	474.814	160.818	474.342	159.934	418.491	0.00025369	0.00050833	7.7475e-05	960.67	4.2416e-06	5.0843e-06	599.92	296.06	8.8712e-06	8.9284e-06	177.82	57.231	107.74	49.282	1.8523e-05	25.839	0.0095064	0.016708	0.0047143	993.22	0.00016848	0.00019127	643.81	308.9	0.00017342	0.0001919	207.77	66.953	115.95	52.441	0.00018005	30.527	208.013	151.946	286.708	153.837	286.074	361.663	151.756	159.553	343.825	264.925	156.204	159.987	164.088	168.276	206.039	163.042	-8191	255	
28997.699	1	1	0	0	0.10103	0.20841	0.1668	0.043985	0.1636	0.2139	0.17952	0.042998	0.076115	0.13285	0.21366	0.15349	0.043814	0.13615	0.15148	0.24377	-0.2125	-0.32708	-1.075	-0.39583	-0.87292	-1.2542	-0.47292	-1.0646	-0.86667	-0.44583	-1.3312	-0.4375	-0.82292	-1.2583	-0.44792	-0.975	364.303	313.480	446.597	170.020	321.580	376.828	423.515	500.513	252.912	437.238	443.690	500.075	320.972	194.950	492.194	173.938	0.00029519	0.0009805	0.00011011	962.31	7.6321e-06	2.897e-06	604.23	295.97	6.3509e-06	1.0132e-06	180.3	57.414	108.01	49.659	3.764e-06	25.912	0.0097019	0.017188	0.0048572	998.5	0.0001746	0.00019721	649.25	310.27	0.00017535	0.00019606	210.51	67.505	116.25	52.746	0.0001826	30.739	198.113	200.801	283.601	154.004	343.130	339.335	152.633	159.734	294.180	276.651	155.889	160.359	164.478	168.379	463.257	163.317	-8191	255	
28997.818	1	1	0	0	0.4684	0.04287	0.18165	0.23813	0.11031	0.19557	0.14493	0.25399	0.24227	0.17884	0.33182	0.30928	0.11722	0.24074	0.091819	0.13457	-0.46667	-0.25208	-1.0771	-0.60208	-0.55625	-1.225	-0.40833	-1.0604	-1.0187	-0.38333	-1.0729	-0.41042	-0.63125	-1.3375	-0.25	-1.0146	439.338	210.901	235.479	162.549	278.362	465.001	480.975	468.761	207.990	214.818	418.153	432.033	437.025	492.121	447.696	436.241	0.00045219	0.00053586	0.00028035	971.01	9.5572e-06	8.3316e-06	606.25	296.94	8.5856e-06	1.515e-05	181.17	58.129	108.37	50.065	1.5884e-05	26.449	0.0097978	0.017242	0.004805	1002.2	0.00016966	0.00019077	651.29	311.05	0.00016968	0.00018907	209.9	67.626	116.4	52.837	0.00017645	30.832	196.541	265.251	268.589	153.852	215.898	389.867	151.831	159.744	244.290	327.467	156.311	160.025	164.553	168.366	249.670	162.946	-8191	255	
28997.891	1	1	0	0	0.14733	0.26828	0.21319	0.25446	0.13287	0.10609	0.039041	0.11228	0.062496	0.22552	0.26531	0.21285	0.42541	0.21083	0.18321	0.30048	-0.86458	-0.26667	-1.2333	-0.88542	-0.37708	-1.1792	-0.29375	-0.91875	-0.88958	-0.4875	-1.1812	-0.71042	-0.46667	-1.3979	-0.42292	-0.58333	247.516	397.165	365.210	474.688	256.709	146.007	172.410	192.075	393.703	491.391	177.901	362.143	226.593	462.258	365.474	491.274	0.00030496	0.00034144	0.00035081	967.92	1.502e-05	7.2597e-06	602.37	296.58	6.4562e-06	9.1794e-06	179.53	57.247	107.93	49.752	6.7034e-06	25.843	0.0093933	0.016422	0.0046885	999.24	0.00016527	0.00018577	646.37	309.99	0.0001684	0.00018632	207.57	66.818	115.58	52.458	0.00017176	30.3	203.450	262.608	186.316	154.012	231.658	234.655	152.232	159.800	172.446	242.099	155.885	160.368	164.447	168.449	386.449	163.589	-8191	255	
28997.986	1	1	0	0	0.26409	0.15279	0.12311	0.34932	0.18895	0.06554	0.038296	0.096112	0.088805	0.26882	0.29014	0.27384	0.13725	0.094268	0.13024	0.095969	-0.8625	-0.079167	-1.1167	-1.0167	-0.22917	-1.4167	-0.57083	-0.63333	-1.2208	-0.40208	-0.9125	-0.825	-0.38333	-1.3375	-0.49792	-0.6625	465.641	403.391	492.963	453.319	379.993	424.920	354.858	157.638	145.883	174.776	373.693	192.291	247.833	419.184	202.256	492.057	0.00027798	0.00089307	0.00028591	963.26	4.3056e-06	1.1189e-05	598.11	296.35	3.2607e-06	9.0331e-06	180.3	56.771	107.99	49.443	1.9296e-06	25.947	0.0090686	0.016052	0.004592	990.56	0.00015918	0.00018172	641.89	308.93	0.0001614	0.00018025	206.87	66.296	115.11	52.197	0.00017122	30.175	207.415	495.684	223.684	154.231	327.114	266.674	152.065	160.014	292.213	228.734	156.481	160.271	164.613	168.622	276.159	163.087	-8191	255	
28998.107	1	1	0	0	0.26659	0.12429	0.05696	0.084811	0.15105	0.059492	0.15032	0.13735	0.26662	0.25447	0.31117	0.012126	0.29569	0.11887	0.19327	0.10173	-0.84792	-0.38958	-0.925	-1.1521	-0.33333	-1.4396	-0.75417	-0.65833	-1.1917	-0.44792	-0.91458	-1.2062	-0.37917	-1.3125	-0.78125	-0.36667	474.650	404.194	362.367	176.009	229.355	427.828	454.837	480.903	303.774	468.522	480.323	386.973	486.421	437.122	470.303	357.230	0.00030457	0.00057924	0.00031088	966.12	3.4241e-06	1.1543e-05	600.33	295.66	5.9639e-06	1.289e-05	179.77	57.279	108.72	49.855	8.3893e-06	25.884	0.0090688	0.016089	0.0045655	995.05	0.00016168	0.0001835	644.54	308.71	0.00016225	0.00018117	207.65	66.68	115.28	52.436	0.00017126	30.285	219.943	369.883	500.169	154.214	447.006	234.016	152.156	159.945	263.281	209.242	156.477	160.497	164.726	168.693	304.759	163.234	-8191	255	
28998.203	1	1	0	0	0.23846	0.19149	0.19399	0.2675	0.10278	0.12557	0.093684	0.2029	0.30674	0.25777	0.19156	0.28803	0.21296	0.17377	0.1819	0.077167	-0.92083	-0.4375	-0.8	-1.2938	-0.33958	-1.1583	-0.84167	-0.37917	-1.3167	-0.57292	-0.79375	-1.1292	-0.32083	-1.0438	-0.85208	-0.42083	495.594	384.008	217.846	451.050	476.747	312.529	232.673	344.007	447.215	277.510	154.211	231.857	403.285	308.778	475.197	399.216	0.00020763	0.00032494	0.00015509	967.09	1.0773e-05	7.5912e-06	604.68	297.46	9.7492e-06	1.0902e-05	182.04	58.322	108.75	50.067	4.9992e-06	26.43	0.008991	0.016006	0.0045502	992.99	0.00015772	0.00018294	647.78	309.64	0.00016049	0.00018057	209.36	67.213	115.72	52.707	0.00017068	30.64	209.568	462.246	270.006	154.201	243.924	334.971	152.054	159.753	330.202	299.712	156.456	161.115	164.256	168.584	213.252	163.249	-8191	255	
28998.299	1	1	0	0	0.27881	0.18086	0.23902	0.16116	0.40648	0.18669	0.131	0.3087	0.17204	0.080106	0.091814	0.19033	0.34271	0.25316	0.096543	0.27869	-0.71875	-0.45417	-0.5875	-1.3104	-0.4375	-0.95625	-0.98333	-0.38958	-1.1187	-0.51042	-0.48125	-1.0812	-0.41875	-0.97708	-0.86875	-0.4125	262.853	366.572	295.630	428.966	180.189	237.530	428.159	454.917	224.791	167.143	342.329	389.109	474.812	163.206	237.645	365.957	0.00025612	0.00076442	0.00028246	964.46	5.9293e-06	9.4791e-06	603.93	299.39	6.0491e-06	1.286e-05	180.26	57.339	108.51	49.619	8.8514e-06	26.115	0.0090047	0.016029	0.0045841	995.19	0.00015911	0.00018365	646.44	310.78	0.00016182	0.00018387	208.36	66.631	115.77	52.508	0.00017142	30.376	193.419	462.963	231.508	154.295	231.320	399.998	152.065	159.759	281.532	287.370	156.099	160.240	164.033	168.546	250.711	162.932	-8191	255	
28998.420	1	1	0	0	0.1916	0.17412	0.27679	0.19895	0.11574	0.13564	0.13846	0.22972	0.26911	0.20964	0.34212	0.19871	0.18015	0.5087	0.027367	0.25575	-0.87083	-0.38958	-0.33125	-1.2542	-0.12708	-0.57708	-1.1146	-0.38958	-1.0979	-0.61042	-0.42083	-1.2812	-0.54375	-0.73542	-1.1187	-0.16458	341.010	301.738	182.193	155.211	341.311	442.303	196.612	484.860	394.171	243.559	158.511	402.048	459.276	155.469	495.624	232.612	0.00034023	0.0011289	0.00013755	966.24	4.1949e-06	7.9661e-06	596.22	297.01	4.2745e-06	2.0291e-05	180.16	57.504	107.81	49.702	5.4689e-06	25.813	0.0090603	0.016211	0.0045994	990.94	0.00016185	0.00018516	643.61	309.77	0.00016602	0.00018609	208.72	66.846	115.86	52.588	0.00017331	30.359	213.481	261.717	327.125	154.344	330.152	327.912	152.333	159.507	395.688	312.354	156.006	160.112	164.116	168.427	280.644	163.280	-8191	255	
28998.490	1	1	0	0	0.21994	0.12329	0.18933	0.18517	0.1186	0.16176	0.10624	0.24125	0.070251	0.022716	0.33143	0.049928	0.21675	0.093641	0.19853	0.081909	-0.55	-0.69167	-0.14167	-1.2833	-0.34792	-0.65833	-1.3167	-0.35625	-1.1313	-1.0354	-0.20417	-1.0938	-0.50833	-0.63958	-1.0833	-0.25625	486.363	161.640	313.246	497.641	146.208	348.849	334.364	432.722	417.553	395.224	362.848	455.526	412.345	473.863	328.142	214.569	0.00031548	0.0006209	0.00017232	961	4.9021e-06	9.8582e-06	603.38	298.39	5.8926e-06	1.2896e-05	183.13	57.939	108.35	50.002	9.7964e-06	26.332	0.0093074	0.016527	0.0046512	993.64	0.0001652	0.00018722	647.76	310.39	0.00016725	0.00018716	209.18	67.324	116.05	52.833	0.00017284	30.632	195.023	372.413	325.673	154.083	310.121	439.874	151.532	159.612	311.543	454.646	156.027	160.314	164.105	168.312	256.606	162.514	-8191	255	
28998.588	1	1	0	0	0.16472	0.065776	0.22544	0.048848	0.049859	0.021767	0.0094536	0.089154	0.27698	0.068528	0.37177	0.070194	0.073792	0.35252	0.3577	0.079399	-0.33333	-0.92083	-0.11667	-1.3667	-0.6125	-0.56458	-1.2479	-0.47708	-0.87708	-1.0271	-0.2625	-1.1292	-0.94375	-0.7	-1.3521	-0.40208	321.124	356.140	453.206	159.487	274.090	195.126	325.666	392.397	230.235	277.405	151.702	358.897	162.482	495.500	473.573	277.666	0.00023742	0.0018324	0.00032365	968.96	4.1067e-06	6.1299e-06	607.61	299.31	5.1162e-06	8.2503e-06	180.69	57.957	108.81	50.242	7.2694e-06	26.113	0.0093652	0.01651	0.0046369	998.03	0.00016734	0.00018783	650.36	311.84	0.00016849	0.0001862	210.24	67.781	116.91	53.112	0.00017472	30.985	196.887	199.769	260.492	153.954	211.160	391.742	152.160	159.340	255.306	190.618	155.678	160.259	164.393	168.303	357.465	163.231	-8191	255	
28998.705	1	1	0	0	0.11233	0.081241	0.29839	0.35192	0.063897	0.15566	0.29785	0.12908	0.1156	0.07641	0.21222	0.23121	0.19127	0.15739	0.35224	0.2513	-0.35833	-1.0354	-0.45208	-0.93333	-0.79583	-0.26667	-1.2792	-0.40833	-0.67292	-1.075	-0.37083	-0.83958	-0.8875	-0.35	-1.1208	-0.74583	345.904	423.661	254.727	480.187	209.280	282.595	171.324	409.448	291.794	436.675	420.763	207.201	494.971	474.575	413.380	419.938	0.00026111	0.0004405	9.3124e-05	972.43	6.8211e-07	6.863e-06	609.1	298.36	1.1606e-05	8.4052e-06	179.76	57.907	108.48	49.691	9.1222e-07	26.077	0.0094474	0.016697	0.0047318	1003.4	0.00017106	0.00019197	653.48	312.48	0.00017265	0.00019115	210.04	67.76	116.59	52.752	0.00017871	30.7	192.882	367.503	352.547	154.373	281.682	341.349	151.924	159.544	273.985	309.340	156.131	160.571	164.333	168.224	141.831	163.005	-8191	255	
28998.803	1	1	0	0	0.16908	0.093116	0.11187	0.093851	0.14074	0.1176	0.33795	0.30951	0.18109	0.19373	0.080574	0.19207	0.1232	0.10578	0.1461	0.17246	-0.14167	-1.0979	-0.14583	-1.1083	-0.83333	-0.28125	-1.2229	-0.7125	-0.2125	-1.2188	-0.3	-0.825	-1.1583	-0.1125	-1.2271	-0.70208	326.943	491.566	237.929	239.971	318.520	246.852	381.411	472.337	261.293	417.900	426.815	395.835	460.094	396.413	350.889	441.366	0.00037938	0.00030118	7.4087e-05	964.66	7.3084e-06	6.0451e-06	602.37	296.8	9.5364e-06	2.0931e-05	179.27	57.439	108.46	49.882	7.8989e-06	26.175	0.0095796	0.016777	0.0047517	995.96	0.00016803	0.00019063	647.14	311.06	0.0001699	0.0001885	208.93	67.339	116.28	52.82	0.00017528	30.7	197.234	491.255	308.494	154.208	186.820	439.823	152.151	159.692	303.319	334.033	156.324	161.107	164.458	168.636	257.240	162.993	-8191	255	
28998.898	1	1	0	0	0.21292	0.24792	0.2337	0.22735	0.041215	0.18368	0.14807	0.41915	0.14615	0.40912	0.34964	0.14429	0.15853	0.10715	0.06748	0.22858	0.1375	-1.3542	-0.33125	-0.83125	-1.0708	-0.1	-1.0562	-0.89167	-0.40833	-1.1833	-0.45	-0.84167	-1.0625	-0.47083	-0.9	-0.87292	174.182	421.713	151.812	339.004	355.627	346.257	430.590	393.031	403.298	289.318	429.500	372.830	147.547	489.368	245.274	460.558	0.00026934	0.00045978	0.00032074	967.11	1.6966e-06	3.6026e-06	605.56	298.9	3.9387e-06	5.6128e-06	180.94	57.608	108.39	50.038	2.0701e-06	26.082	0.0093094	0.016435	0.00469	994.98	0.00016619	0.00018642	648.65	311.52	0.00016921	0.00018744	210.53	67.891	116.79	52.926	0.00017956	30.843	231.038	187.065	266.737	154.224	417.305	249.952	152.170	159.577	450.851	147.369	155.909	160.496	164.141	168.213	380.505	163.268	-8191	255	
28998.994	1	1	0	0	0.10867	0.026579	0.26685	0.52702	0.27017	0.14834	0.023248	0.041158	0.16647	0.20235	0.079464	0.18277	0.18387	0.13602	0.21079	0.076554	0.060417	-1.1083	-0.35417	-0.7125	-1.1812	-0.27708	-1.1375	-0.99792	-0.25208	-1.2521	-0.63958	-0.49375	-1.3813	-0.34583	-0.61667	-0.82708	234.898	192.105	358.580	444.967	159.165	383.788	433.575	171.382	235.757	214.110	402.395	479.936	411.927	409.227	452.640	325.680	0.000301	0.0010319	0.00030968	971.24	7.4901e-06	3.5977e-06	608.14	299.12	1.0438e-05	1.3116e-05	182.25	58.382	109.01	50.25	8.7925e-06	26.364	0.0094897	0.016722	0.0048126	1000.4	0.00016783	0.00019139	651.75	312.81	0.00017087	0.00018963	211.76	68.18	116.87	53.193	0.00018318	31.01	221.679	262.521	286.561	154.382	281.616	142.419	152.106	159.557	337.345	219.871	156.001	160.259	164.323	168.213	220.304	163.091	-8191	255	
28999.115	1	1	0	0	0.25893	0.24956	0.18653	0.4182	0.23788	0.31202	0.14154	0.080484	0.15499	0.078192	0.11847	0.098404	0.13276	0.16099	0.29913	0.35317	0.041667	-1.0167	-0.35625	-0.65	-1.4708	-0.17708	-0.94375	-1.2604	-0.1125	-1.2812	-0.56667	-0.3625	-1.3229	-0.45	-0.61667	-0.86667	431.415	428.076	178.639	433.561	228.441	159.756	354.532	449.707	442.068	160.390	319.730	478.796	224.648	150.295	353.286	472.909	0.00030872	0.00038531	0.00012123	970.95	6.2299e-06	8.0703e-06	610.17	299.27	1.4093e-05	2.2905e-05	181.52	57.915	108.79	49.76	5.2817e-06	25.901	0.0095487	0.017114	0.004917	1004.2	0.00017241	0.0001952	656.9	313.41	0.00017443	0.00019581	213.29	68.441	117.17	52.953	0.00018835	30.845	218.524	197.058	393.938	154.130	253.332	347.182	151.960	159.559	255.709	347.295	155.954	160.676	164.307	168.604	302.642	163.275	-8191	255	
28999.188	1	1	0	0	0.047922	0.066754	0.1329	0.19784	0.16877	0.30149	0.10049	0.17039	0.29661	0.25463	0.049669	0.29901	0.058591	0.31676	0.14258	0.033286	0.00625	-1.1521	-0.8125	-0.43958	-0.9375	-0.47083	-0.79583	-1.2979	-0.1125	-1.0354	-0.81458	-0.37292	-1.0417	-0.3125	-0.44792	-1.35	389.952	175.834	215.071	404.791	144.030	169.346	379.403	202.593	195.841	200.589	358.960	265.298	359.386	194.083	296.412	219.534	0.00017878	0.0018085	0.00032556	975.57	9.536e-06	1.0116e-05	606.46	297.1	5.7929e-06	1.0228e-05	178.57	57.116	107.31	48.806	1.3754e-05	25.456	0.0099772	0.017827	0.0050796	1008.5	0.00017869	0.00020617	654.96	312.65	0.00018352	0.00020762	211.77	67.89	116.54	52.327	0.00019775	30.516	195.264	183.170	478.776	154.253	236.313	239.174	152.429	159.678	292.304	213.684	156.227	160.558	164.290	168.604	280.467	163.500	-8191	255	
28999.283	1	1	0	0	0.22287	0.20575	0.027816	0.37615	0.39107	0.087129	0.081327	0.045707	0.14134	0.399	0.16813	0.025422	0.25143	0.41951	0.16138	0.1811	0.09375	-0.85833	-0.96458	-0.3875	-1.1208	-0.56458	-0.45	-1.3062	-0.35	-0.86042	-1.1083	-0.31667	-1.3167	-0.75	-0.425	-1.2208	324.478	141.813	318.279	497.585	439.826	207.498	421.403	497.527	250.408	410.857	201.438	360.677	151.831	488.631	215.683	176.271	0.00037792	0.0019892	0.00017937	973.54	1.0004e-05	4.5878e-06	606.3	295.81	6.4149e-06	4.7803e-06	177.59	57.596	108.58	48.902	1.0192e-06	25.62	0.010377	0.018631	0.0052895	1011.2	0.00018532	0.00021353	657.63	312.08	0.00018753	0.00021157	212.07	68.321	117.2	52.396	0.00019635	30.683	198.886	243.136	249.157	154.459	294.683	287.344	152.642	159.610	284.329	247.337	156.454	160.269	164.490	168.392	475.262	163.405	-8191	255	
28999.379	1	1	0	0	0.14267	0.16641	0.075764	0.27602	0.099057	0.18981	0.10071	0.10373	0.29292	0.18245	0.24172	0.35238	0.07025	0.21301	0.08661	0.14799	-0.054167	-0.80208	-0.97292	-0.39375	-0.96875	-0.75417	-0.34583	-1.125	-0.020833	-0.65833	-1.0792	-0.31667	-1.1729	-0.65417	-0.29375	-1.1896	299.265	251.343	277.315	186.350	193.785	396.680	420.333	267.233	226.182	463.489	340.122	431.054	496.925	440.849	285.239	383.111	0.0002235	0.00058015	0.0003213	968.45	6.7559e-06	6.6074e-06	606.6	296.92	6.8582e-06	3.2308e-06	178.96	58.35	108.66	49.699	8.0592e-06	26.058	0.010334	0.018622	0.0052039	1008.5	0.00018179	0.00020945	656.49	312.39	0.00018506	0.00020537	212.65	68.605	117.94	52.874	0.00019015	31.027	171.280	225.208	257.740	154.224	359.202	195.378	152.215	159.707	378.365	278.786	156.445	160.406	164.936	168.342	175.468	163.374	-8191	255	
28999.498	1	1	0	0	0.15359	0.047707	0.090965	0.10185	0.13054	0.21331	0.13695	0.19832	0.12022	0.18306	0.2395	0.094613	0.17037	0.067209	0.12458	0.10053	0.010417	-0.66042	-1.1479	-0.36042	-1.0812	-0.89583	-0.35	-1.0063	-0.30208	-0.71667	-1.2167	-0.33958	-0.925	-1.0167	-0.37708	-1.0479	344.302	389.034	285.585	229.906	198.984	288.831	414.080	470.016	400.806	441.031	495.329	469.029	324.782	143.078	302.059	210.780	0.00025796	0.00082564	0.00012422	971.85	6.2935e-06	4.2401e-06	605.1	298.7	6.6189e-06	4.0067e-06	182.23	58.642	110.13	50.072	4.4091e-06	26.247	0.010268	0.018149	0.0050835	1004.8	0.00018257	0.00020783	656.65	313.46	0.00018782	0.00020628	214.77	69.332	118.73	53.215	0.00019066	31.231	203.758	200.342	341.213	154.309	332.921	298.221	152.264	159.699	369.739	335.159	156.531	160.328	164.349	168.326	249.247	163.446	-8191	255	
28999.594	1	1	0	0	0.11614	0.11734	0.18448	0.070889	0.33705	0.35405	0.05734	0.17764	0.12441	0.077604	0.15652	0.19458	0.11833	0.19983	0.18949	0.10059	-0.15	-0.37083	-1.0771	-0.46458	-0.88333	-0.95833	-0.26667	-1.2062	-0.75417	-0.54375	-0.93333	-0.34792	-0.92083	-1.2396	-0.1	-1.0458	349.211	362.454	350.271	180.906	332.746	251.149	489.271	433.741	212.022	492.176	238.411	153.410	411.049	174.652	355.505	259.176	0.00039053	0.0008645	0.00027578	964.21	1.0854e-05	5.5919e-06	603.97	297.53	4.9027e-06	8.0324e-06	179.42	57.809	108.49	49.557	1.1429e-05	25.893	0.010268	0.018074	0.0050943	1003.3	0.00018187	0.00020631	652.31	312.47	0.00018591	0.0002048	211.91	68.58	117.41	52.828	0.00018942	30.876	205.267	216.889	272.171	154.336	356.760	303.532	152.353	159.812	346.419	476.179	155.937	160.061	164.498	168.495	334.185	163.170	-8191	255	
28999.689	1	1	0	0	0.068213	0.10677	0.2074	0.27307	0.19626	0.12782	0.36151	0.045333	0.013965	0.12911	0.031747	0.10364	0.1399	0.046568	0.23836	0.17782	-0.40208	-0.3125	-1.0521	-0.7625	-0.6125	-1.1313	-0.24167	-1.1958	-0.79167	-0.34583	-1.1729	-0.34583	-0.5625	-1.0917	-0.3375	-0.92917	182.454	481.118	312.803	161.701	450.492	348.705	166.481	364.296	364.922	351.051	500.132	483.908	453.923	490.286	216.835	472.188	0.0001629	0.00061335	0.00023554	966.27	1.0481e-05	4.2798e-06	602.02	296.5	1.1877e-05	1.7305e-05	180.48	57.724	108.33	49.877	5.0907e-06	26.029	0.010236	0.017949	0.0051034	1002.7	0.00018203	0.00020466	651.32	312.16	0.00018374	0.00020186	212.04	68.504	117.13	52.839	0.00018902	31.045	210.433	481.000	198.928	154.195	265.812	266.998	151.894	159.945	291.750	281.221	156.563	160.452	164.493	168.546	350.927	163.368	-8191	255	
28999.787	1	1	0	0	0.091241	0.15749	0.14402	0.21064	0.35983	0.10897	0.25298	0.214	0.14709	0.084913	0.14353	0.1683	0.17156	0.13135	0.182	0.2429	-0.60417	-0.27292	-1.0958	-0.47917	-0.38333	-1.1479	-0.48958	-0.84167	-0.81667	-0.47083	-0.95208	-0.71667	-0.55208	-1.2604	-0.21667	-0.80417	471.037	191.241	404.604	454.585	432.668	315.127	419.420	490.196	172.090	329.430	493.143	227.012	214.519	384.014	155.816	493.144	0.00019148	0.00095391	0.00024226	960.52	2.5835e-06	1.7522e-06	603.91	296.8	7.1372e-06	1.0291e-05	181.08	58.164	109.72	50.159	5.9769e-06	26.327	0.010075	0.017682	0.0050565	1001.9	0.00018041	0.000203	652.59	312.73	0.00018265	0.00020254	213.59	69.086	118.32	53.363	0.00019295	31.463	215.123	299.391	160.502	154.301	310.193	327.512	151.939	159.930	272.650	320.662	156.481	160.163	164.694	168.197	263.180	163.361	-8191	255	
28999.883	1	1	0	0	0.185	0.16705	0.13022	0.21349	0.099457	0.20562	0.098298	0.21147	0.20875	0.13086	0.20755	0.12491	0.1848	0.21589	0.15696	0.12334	-0.59792	-0.21042	-0.99167	-0.77292	-0.49583	-1.0667	-0.6	-0.85625	-0.96667	-0.20417	-1.05	-0.83125	-0.49583	-1.2771	-0.4875	-0.59167	370.153	301.616	142.630	237.812	236.218	334.547	383.260	467.943	434.003	279.660	170.225	345.666	472.001	423.491	383.660	418.044	0.00028049	0.0013705	0.00042977	966.53	7.7314e-06	1.2813e-05	603.86	299.89	5.237e-06	8.06e-06	183.96	59.515	110.2	50.284	9.6125e-06	26.685	0.01028	0.01813	0.0052105	1002.2	0.00018177	0.00020765	657.58	315.42	0.00018565	0.00020839	216.86	70.33	119.07	53.737	0.0002021	31.791	184.610	167.130	284.502	154.262	151.313	157.311	152.275	159.902	278.444	265.978	156.383	159.880	164.463	168.239	317.314	163.086	-8191	255	
28999.979	1	1	0	0	0.33411	0.041956	0.26253	0.45935	0.12236	0.22072	0.06057	0.16149	0.24958	0.10247	0.22959	0.043633	0.068441	0.20555	0.07663	0.25922	-0.74792	-0.26667	-0.97292	-1.0271	-0.20208	-1.1417	-0.51667	-0.7625	-1.125	-0.13958	-1.0375	-1.0167	-0.44375	-1.2812	-0.71042	-0.40208	300.330	175.209	371.706	414.237	214.119	441.984	463.622	377.353	462.632	295.622	149.870	247.178	260.738	470.969	299.168	373.518	0.00031305	0.00038431	0.00021449	962.58	8.6144e-06	4.2303e-06	600.57	297.54	7.3144e-06	1.4984e-05	181.95	58.383	109.07	49.823	8.6929e-06	26.089	0.010572	0.018986	0.0054565	1003.7	0.00019061	0.00021829	658.2	314.48	0.0001943	0.00021888	216.86	69.838	118.52	53.402	0.00020563	31.347	185.547	397.753	285.942	154.199	291.945	425.981	152.693	159.881	260.139	474.900	155.785	159.867	164.314	168.628	266.592	163.321	-8191	255	
29000.100	1	1	0	0	0.13005	0.14603	0.29045	0.16263	0.13841	0.050438	0.40438	0.11821	0.27511	0.22551	0.17045	0.38648	0.24682	0.18619	0.073392	0.25613	-0.82292	-0.175	-0.70833	-1.2896	-0.3625	-1.1167	-0.71458	-0.60833	-1.275	-0.36458	-0.66875	-1.1229	-0.30625	-1.0187	-0.5875	-0.35417	398.475	434.156	380.885	460.057	438.261	145.540	450.712	144.703	420.616	190.871	215.306	188.019	156.857	213.954	171.778	323.148	0.00037204	0.0014148	0.00013125	961.54	5.8379e-06	8.1711e-07	598.12	297.49	9.3464e-07	1.0106e-05	180.08	58.091	108.9	49.955	3.5795e-06	26.104	0.010672	0.018977	0.0054022	999	0.00018681	0.00021585	652.5	313.41	0.00018999	0.00021453	214.8	69.346	118.19	53.341	0.00020035	31.278	194.804	269.747	183.716	154.153	355.674	311.008	152.023	159.805	310.152	448.299	156.329	160.604	164.347	168.493	340.833	163.125	-8191	255	
29000.195	1	1	0	0	0.17642	0.078817	0.06768	0.22392	0.13978	0.41997	0.16781	0.18094	0.026691	0.44423	0.18003	0.18026	0.17796	0.13691	0.22836	0.33388	-0.70833	-0.3125	-0.56458	-1.1042	-0.079167	-1.0063	-0.89792	-0.49167	-1.1708	-0.55417	-0.60417	-1.1167	-0.49375	-1.0708	-0.93542	-0.36042	373.314	364.962	183.770	472.677	291.606	435.298	396.888	356.544	341.565	277.887	430.850	446.339	408.746	339.467	329.248	312.710	0.00033334	0.00015692	9.8622e-05	962	9.7541e-06	8.1662e-06	601.78	297.9	6.2675e-06	2.8496e-06	181.47	58.877	108.58	49.959	5.9287e-06	26.359	0.01044	0.018643	0.0053235	998.14	0.0001868	0.00021538	653.97	314.06	0.00018898	0.00021374	215.11	69.516	118.63	53.412	0.00019831	31.386	205.057	269.545	266.602	154.381	231.850	236.793	152.275	159.675	242.446	346.976	156.478	160.285	164.538	168.478	281.705	163.332	-8191	255	
29000.293	1	1	0	0	0.21748	0.21703	0.023754	0.079035	0.16626	0.17415	0.33649	0.12301	0.13776	0.19614	0.35872	0.20311	0.1408	0.15125	0.089711	0.074885	-0.76042	-0.47292	-0.40625	-1.2146	-0.22917	-0.79167	-1.175	-0.51667	-1.0167	-0.72708	-0.45833	-1.275	-0.45208	-0.93542	-0.98958	-0.42083	177.131	415.037	296.244	497.520	373.583	332.800	443.867	162.705	273.592	401.576	487.679	166.742	148.370	468.513	155.270	211.008	0.00028246	0.00083982	9.8969e-05	961.44	7.6761e-06	9.9668e-06	606.9	299.01	6.7717e-06	1.3142e-05	184.56	59.272	110.54	50.49	6.8576e-06	26.704	0.010529	0.018899	0.0053132	999.95	0.00018842	0.0002162	659.46	314.83	0.00019078	0.00021541	217.84	70.391	119.4	53.763	0.0002001	31.771	213.743	326.698	341.530	154.347	480.483	441.827	152.292	159.690	216.712	230.903	156.018	160.515	164.488	169.007	293.998	163.289	-8191	255	
29000.389	1	1	0	0	0.27539	0.19982	0.057601	0.14113	0.25753	0.14059	0.20197	0.18287	0.079701	0.1365	0.28483	0.099261	0.20295	0.043292	0.11336	0.24461	-0.89375	-0.54375	-0.37292	-1.3729	-0.38958	-0.59375	-1.2417	-0.43958	-1.0063	-0.775	-0.30625	-0.975	-0.3625	-0.77292	-1.1292	-0.38125	152.203	475.178	471.243	171.267	290.612	298.239	361.487	467.646	437.927	387.758	412.083	294.693	391.750	362.387	231.979	437.125	0.00017587	0.0012478	0.00023038	963.18	4.726e-06	9.0103e-06	608.5	300.27	4.5981e-06	8.3094e-06	183.6	58.633	109.4	50.156	7.3558e-06	26.186	0.010657	0.018899	0.0053114	1002	0.00018839	0.00021518	661.26	315.22	0.00019028	0.00021341	216.78	69.854	119.07	53.457	0.00019927	31.356	192.640	173.203	322.197	154.585	293.521	227.926	152.257	160.041	308.013	465.801	156.315	160.532	164.457	168.713	315.739	163.374	-8191	255	
29000.484	1	1	0	0	0.17669	0.18965	0.12753	0.38179	0.08674	0.1109	0.090971	0.11021	0.28412	0.28212	0.1379	0.14886	0.10898	0.096695	0.14767	0.24862	-0.575	-0.85625	-0.15625	-1.1063	-0.59792	-0.58958	-1.1458	-0.56667	-0.92083	-1	-0.18542	-1.1812	-0.66667	-0.4625	-1.2333	-0.5375	216.913	159.212	288.185	421.300	245.561	327.196	366.382	351.438	252.501	351.198	230.264	157.589	256.315	185.362	345.768	491.790	0.00028445	0.0010616	0.00037858	955.16	6.2095e-06	3.0462e-06	600.42	296.98	7.2763e-06	1.1367e-05	182.1	58.275	109.8	49.821	5.0091e-06	25.812	0.010742	0.018802	0.0052908	995.62	0.00018834	0.00021274	651.62	313.68	0.00019094	0.00021153	214.42	69.548	118.81	53.334	0.00019665	31.418	193.833	364.106	269.674	154.630	171.945	340.549	151.743	159.891	255.284	303.600	156.324	160.429	164.670	168.849	396.112	163.337	-8191	255	
29000.580	1	1	0	0	0.22132	0.16489	0.14566	0.2619	0.38629	0.37711	0.10866	0.06219	0.10672	0.16219	0.16291	0.15935	0.12368	0.17276	0.40819	0.2043	-0.59583	-1.1417	-0.19583	-1.2396	-0.73958	-0.45625	-1.2563	-0.38542	-0.83542	-1.0438	-0.3	-0.96667	-0.92917	-0.38333	-1.075	-0.44167	201.230	423.744	491.391	158.701	168.099	334.972	375.927	303.921	174.940	439.463	263.833	219.465	199.517	198.721	390.065	479.709	0.00030839	0.00052757	0.00017875	963.39	4.746e-06	5.212e-06	603.94	298.53	2.4842e-06	8.9344e-06	181.84	58.801	109.08	49.889	1.4151e-05	26.36	0.010754	0.018857	0.0053528	1001	0.00019148	0.0002178	658.86	314.92	0.00019645	0.00021619	216.74	70.235	119.19	53.45	0.00020397	31.676	220.297	226.976	440.005	154.645	285.639	322.657	152.441	160.057	204.779	340.720	156.539	160.899	164.395	168.591	207.639	163.788	-8191	255	
29000.676	1	1	0	0	0.053517	0.19512	0.18234	0.22831	0.33645	0.08077	0.43128	0.24967	0.12932	0.019718	0.33404	0.35938	0.047939	0.14961	0.15318	0.14859	-0.052083	-1.1604	-0.38958	-1.0521	-0.76458	-0.30417	-1.0125	-0.70208	-0.65625	-1.2542	-0.5375	-1	-1.1646	-0.475	-1.2354	-0.64792	341.997	212.000	427.211	415.476	257.433	145.445	174.800	437.687	304.462	399.616	478.516	413.111	394.355	448.332	368.622	469.121	0.00040366	0.00051694	0.0002447	962.32	1.0156e-05	1.6766e-05	605.88	299.36	1.096e-05	1.1065e-05	183.07	59.023	110.16	50.018	1.0356e-05	26.624	0.011023	0.019385	0.005492	1002.2	0.0001942	0.00022031	661.36	316.12	0.00019709	0.00021845	218.54	70.959	119.86	53.732	0.00020883	32.149	207.409	207.574	290.008	154.229	332.672	252.879	152.441	160.067	352.150	352.415	156.193	160.780	164.520	168.520	275.141	163.594	-8191	255	
29000.795	1	1	0	0	0.25028	0.19601	0.14991	0.20919	0.1194	0.069958	0.18079	0.21111	0.12929	0.19478	0.044495	0.17617	0.13244	0.057606	0.10359	0.26311	-0.18958	-1.1187	-0.36667	-0.9875	-0.91667	-0.19792	-1.3333	-0.7	-0.625	-1.1313	-0.37083	-0.91042	-1.1792	-0.41458	-1.0167	-0.78333	361.681	261.709	266.174	497.482	184.901	233.252	185.741	446.135	317.354	186.854	228.529	145.170	500.176	501.693	234.872	423.712	0.00030165	0.00070558	4.1598e-05	960.18	1.0893e-05	1.1663e-05	607.68	300.46	1.093e-05	1.8853e-05	183.2	59.792	110.41	50.378	6.1562e-06	26.478	0.011255	0.019899	0.0057247	1005.7	0.00020239	0.00022932	669.04	317.71	0.00020659	0.00022822	221.63	72.012	120.6	54.105	0.00022228	32.278	202.187	319.594	338.862	154.682	501.030	291.082	152.575	159.902	352.425	262.907	156.532	160.392	164.747	169.017	338.667	163.444	-8191	255	
29000.891	1	1	0	0	0.087332	0.096691	0.064657	0.13599	0.17029	0.23112	0.19562	0.32744	0.3118	0.18928	0.18222	0.11526	0.24871	0.3691	0.3051	0.23125	-0.10208	-1.0438	-0.525	-0.86667	-1.0375	-0.33125	-1.1688	-0.92708	-0.38333	-1.1521	-0.57292	-0.575	-1.2	-0.40625	-0.98958	-0.74583	410.433	425.895	457.153	353.307	425.278	379.026	411.818	469.008	185.584	333.050	375.090	265.984	151.022	469.624	298.977	487.921	0.00038821	0.0016125	0.00036071	958.62	3.6339e-06	8.3192e-06	601.63	297.49	3.1007e-06	2.1775e-06	181.15	59.366	109.69	50.042	9.2133e-06	26.192	0.011688	0.02086	0.0060286	1005.8	0.00020899	0.00023952	664.57	317.45	0.00021227	0.00023463	220.19	71.394	119.96	53.866	0.00022254	31.97	193.431	476.142	365.677	154.747	404.991	251.685	152.491	160.127	283.554	271.633	156.242	160.417	164.822	169.063	216.088	163.008	-8191	255	
29000.988	1	1	0	0	0.23676	0.16478	0.14502	0.2612	0.24053	0.27149	0.09357	0.12503	0.21236	0.068024	0.15724	0.20823	0.37431	0.04428	0.089193	0.26853	0.14375	-1.0583	-0.51458	-0.6125	-1.0688	-0.27292	-0.9875	-1.0646	-0.42708	-1.0979	-0.8125	-0.57917	-1.3458	-0.62917	-0.90625	-1.1562	487.838	389.501	190.957	395.156	213.619	484.815	401.261	154.399	309.964	183.725	438.062	178.697	474.603	176.580	229.815	215.071	0.00027509	0.00097609	0.00014777	959.1	3.6947e-06	7.4376e-06	599.51	298.7	8.0304e-06	1.006e-05	181.92	58.224	109.44	49.949	5.1435e-06	26.282	0.0115	0.020471	0.0058675	1005.2	0.00020016	0.00023061	661.72	316.44	0.00020236	0.00022922	218.83	70.618	119.31	53.497	0.0002117	31.712	196.091	280.847	372.738	154.441	161.282	259.298	152.476	159.714	356.276	412.697	155.927	160.100	164.461	168.579	296.974	163.747	-8191	255	
29001.059	1	1	0	0	0.14659	0.025752	0.18377	0.064171	0.1395	0.13316	0.1895	0.12422	0.089415	0.23634	0.11795	0.2425	0.08798	0.36196	0.27159	0.14114	0.19583	-1.1938	-0.48125	-0.6	-1.0458	-0.32083	-0.76667	-1.1271	-0.14167	-0.98333	-0.9375	-0.38542	-1.3	-0.5	-0.73333	-1.2458	422.898	230.315	402.727	251.379	308.508	374.314	480.579	442.526	228.956	448.849	285.370	233.981	286.786	362.413	335.422	450.181	0.00035104	0.00019833	0.00015654	962.25	6.1025e-07	4.0455e-06	604.6	297.63	8.6123e-06	1.2577e-05	181.82	59.254	109.45	49.992	6.6098e-06	26.313	0.011008	0.019882	0.0056479	1003.8	0.00019637	0.00022766	663.52	315.72	0.0002004	0.00022626	219.07	70.728	119.54	53.724	0.00021416	31.887	199.202	148.813	352.336	154.575	489.281	193.861	152.763	160.062	234.885	442.856	156.517	160.613	164.770	168.441	224.746	163.459	-8191	255	
29001.180	1	1	0	0	0.259	0.10114	0.21631	0.052834	0.10347	0.24332	0.081092	0.254	0.013906	0.067161	0.036734	0.20937	0.26574	0.10472	0.15824	0.16158	0.11458	-1.0146	-0.6875	-0.43333	-1.1688	-0.5375	-0.67708	-1.1479	-0.325	-1.0646	-0.88958	-0.3625	-1.2104	-0.5375	-0.57917	-1.1562	251.338	277.226	154.501	422.674	164.526	365.934	241.221	436.799	154.162	264.661	412.837	346.992	157.723	143.797	197.948	180.628	0.00030879	0.0017403	0.00034318	961.95	2.6725e-06	2.9496e-06	609.12	300.88	1.3636e-05	1.0115e-06	184.62	59.218	109.74	49.791	1.1831e-05	26.12	0.011304	0.020187	0.0056813	1003.8	0.00019974	0.00023186	668.08	317.72	0.00020548	0.00023062	220.97	71.045	119.61	53.595	0.00021345	31.766	179.397	200.200	287.513	154.548	154.966	443.646	152.568	160.007	303.986	332.164	156.587	160.793	164.851	168.506	220.399	163.176	-8191	255	
29001.275	1	1	0	0	0.093966	0.20856	0.2475	0.059758	0.015997	0.29302	0.3815	0.18768	0.155	0.17724	0.095331	0.12222	0.41102	0.22482	0.21275	0.12563	-0.0125	-0.62292	-0.93125	-0.42708	-1.0917	-0.68542	-0.50625	-1.0896	-0.49792	-0.73958	-1.0604	-0.2	-1.2	-0.78542	-0.2875	-1.1667	466.641	204.106	159.684	369.771	343.923	461.687	421.005	399.749	370.154	502.045	205.270	181.179	146.319	479.803	460.349	257.547	0.00034609	0.00076268	0.00049085	958.14	9.7993e-06	1.3575e-05	607.36	295.7	8.3869e-06	1.5739e-05	179.95	57.841	108.23	49.142	4.0604e-06	25.484	0.011406	0.020379	0.0057453	1003.6	0.0002049	0.00023422	662.8	315.14	0.00020831	0.0002327	217.59	69.983	118.92	52.964	0.00021718	31.416	192.896	487.787	149.288	154.455	203.011	218.398	152.559	160.031	211.097	292.185	156.318	160.429	164.672	168.759	273.497	163.333	-8191	255	
29001.371	1	1	0	0	0.097207	0.15118	0.21547	0.15027	0.19028	0.12962	0.18022	0.11078	0.13687	0.069695	0.20658	0.071151	0.3793	0.30311	0.2236	0.23111	0.0083333	-0.6	-1.0562	-0.35	-0.94167	-0.95	-0.36875	-1.4438	-0.45	-0.57292	-1.1479	-0.25833	-1.1375	-1.075	-0.26042	-1.0479	156.634	388.994	323.457	168.044	267.717	270.144	404.632	313.641	461.376	279.566	154.395	405.964	175.730	162.607	285.314	416.583	0.00033155	0.0006486	0.00030391	955.79	1.0714e-05	8.1492e-06	602.75	296.67	6.6754e-06	2.2189e-05	181.95	57.859	108.25	49.328	3.3044e-06	26.024	0.01186	0.020892	0.0058785	1004.3	0.00020993	0.00023744	662.33	315.46	0.00021218	0.00023323	218.12	70.214	118.97	53.165	0.00021742	31.676	173.832	320.912	454.621	154.377	287.359	268.362	152.534	159.856	445.343	266.553	156.618	160.480	164.849	168.818	281.754	163.610	-8191	255	
29001.469	1	1	0	0	0.085778	0.19097	0.085282	0.40095	0.062527	0.16986	0.14727	0.35285	0.1637	0.16051	0.3139	0.25896	0.069955	0.39513	0.13371	0.1232	-0.20625	-0.29583	-1.1292	-0.35	-0.9	-0.95208	-0.375	-1.2188	-0.43958	-0.48542	-1.1792	-0.39167	-0.90417	-1.1333	-0.14167	-1.1646	307.008	178.851	399.369	479.823	250.789	494.879	389.434	148.149	204.115	390.316	286.652	489.330	283.549	142.289	349.719	459.058	0.0001449	0.00032476	0.00020307	956.85	3.8347e-06	2.4735e-05	606.67	298.48	7.5255e-06	4.9907e-06	181.33	58.415	110.04	49.823	1.2156e-05	26.14	0.011666	0.020381	0.0057769	1001.5	0.0002053	0.00023036	663.87	315.84	0.00020824	0.00022647	219.15	71.025	120.1	53.551	0.00021416	31.964	235.874	193.527	288.144	154.541	243.269	312.925	152.424	160.169	234.403	177.754	156.703	160.851	164.889	168.855	259.860	163.582	-8191	255	
29001.590	1	1	0	0	0.016011	0.17712	0.15983	0.092363	0.15762	0.27187	0.16322	0.18131	0.19669	0.13568	0.16759	0.097243	0.37433	0.15986	0.13752	0.25459	-0.25208	-0.47708	-1.1083	-0.54583	-0.57292	-1.1229	-0.35	-1.0021	-0.62292	-0.31875	-1.2354	-0.43542	-0.43542	-1.2687	-0.25	-1.1375	338.619	479.920	487.601	435.975	484.025	270.401	230.111	442.609	283.266	294.678	168.514	499.260	170.977	311.203	289.343	442.466	9.0771e-05	0.0015053	0.0004407	957.79	3.9942e-06	7.748e-06	605.79	299.71	2.0774e-06	2.0411e-05	185.96	59.158	110.53	49.698	7.9829e-06	26.357	0.011488	0.020227	0.0057323	1003.1	0.00020505	0.00023089	665.39	317.54	0.00020755	0.00022908	221.46	71.472	120.25	53.54	0.00021769	32.076	213.847	229.615	237.508	154.603	153.225	152.441	152.715	160.420	227.028	266.156	156.693	160.636	164.663	168.826	325.349	163.453	-8191	255	
29001.660	1	1	0	0	0.28868	0.24051	0.30375	0.0746	0.11135	0.27606	0.15637	0.29313	0.24823	0.067958	0.18855	0.09918	0.16414	0.27411	0.053972	0.099545	-0.58125	-0.24167	-1.1729	-0.73333	-0.31042	-0.92083	-0.4	-0.83958	-0.71875	-0.17917	-1.2417	-0.63333	-0.675	-1.4042	-0.40208	-0.92917	149.197	199.683	231.083	468.596	143.532	143.960	408.994	456.227	238.237	324.473	399.310	182.657	446.112	490.478	145.483	500.596	0.00034744	0.0006365	0.00050431	965.22	8.1942e-06	5.6089e-06	604.85	297.99	9.9279e-06	2.3327e-05	181.06	58.206	108.89	49.672	9.9976e-06	25.843	0.011603	0.020485	0.0058495	1008.4	0.00020699	0.00023558	666.24	317.07	0.00021123	0.00023364	219.64	71.188	119.16	53.271	0.00022155	31.763	202.854	275.565	211.565	154.455	297.169	302.406	152.712	160.029	229.198	294.749	156.735	160.588	165.053	168.938	319.615	163.788	-8191	255	
29001.779	1	1	0	0	0.32993	0.17584	0.13284	0.28339	0.058319	0.15781	0.11667	0.17982	0.48329	0.11153	0.068606	0.18981	0.030735	0.14118	0.063753	0.05817	-0.55625	-0.035417	-1.2083	-0.8375	-0.37292	-1.2563	-0.49583	-1.0208	-1.0812	-0.33333	-0.89583	-0.76875	-0.42083	-1.1667	-0.15625	-0.80833	341.586	264.157	280.278	160.723	468.280	235.878	166.498	293.234	322.768	497.559	240.768	201.089	493.844	451.313	329.895	213.055	0.00034026	0.00077105	0.0001124	959.05	1.4378e-05	6.2404e-06	602.24	297.68	5.7944e-06	1.6282e-05	180.45	58.174	108.85	49.453	8.3591e-06	25.901	0.01169	0.02072	0.0059407	1006.4	0.0002097	0.00023812	663.76	316.22	0.00021269	0.00023838	220.22	71.026	119.21	53.391	0.00022056	31.827	192.566	148.825	199.717	154.385	333.678	263.569	152.756	160.070	283.024	329.118	156.845	160.371	165.058	169.232	365.028	163.610	-8191	255	
#DATA ENDS
