BOXY.EXE: ISS Imagent and Oximeter Data Acquisition Program Version 0.80
Ascii Record File

#ACQ INFORMATION
2  Detector Channels 
16  External MUX Channels 
1  Auxiliary Channels 
5000  Waveform (CCF) Frequency (Hz)
1  Waveforms Skipped 
30  Waveforms Averaged 
1  Cycles Averaged 
16  Acquisitions per Waveform 
10.0806  Updata Rate (Hz) 

#FILE INFORMATION
TRUE -- External MUX Channel results are PARSED.
FALSE -- AC DC and Phase are NOT grouped.
TRUE -- Companion Program Settings File CREATED.
FALSE -- AC data not excluded
FALSE -- DC data not excluded
FALSE -- Phase data not excluded
FALSE -- Auxillary Chn. data not excluded
Tab delimiters

#CALIBRATION STATE
TRUE -- Waveform Calibration Values APPLIED.


#AUX CALIBRATION VALUES
Val Type	aux-1	

Term	1.0000e+00	
Factor	0.0000e+00	


#WF CALIBRATION VALUES
A = Detector Channel
Val Type	A-AC1	A-AC2	A-AC3	A-AC4	A-AC5	A-AC6	A-AC7	A-AC8	A-AC9	A-AC10	A-AC11	A-AC12	A-AC13	A-AC14	A-AC15	A-AC16	A-DC1	A-DC2	A-DC3	A-DC4	A-DC5	A-DC6	A-DC7	A-DC8	A-DC9	A-DC10	A-DC11	A-DC12	A-DC13	A-DC14	A-DC15	A-DC16	A-Ph1	A-Ph2	A-Ph3	A-Ph4	A-Ph5	A-Ph6	A-Ph7	A-Ph8	A-Ph9	A-Ph10	A-Ph11	A-Ph12	A-Ph13	A-Ph14	A-Ph15	A-Ph16	

Term	0.00000e+00	0.00000e+00	0.00000e+00	0.00000e+00	0.00000e+00	0.00000e+00	0.00000e+00	0.00000e+00	0.00000e+00	0.00000e+00	0.00000e+00	0.00000e+00	0.00000e+00	0.00000e+00	0.00000e+00	0.00000e+00	0.00000e+00	0.00000e+00	0.00000e+00	0.00000e+00	0.00000e+00	0.00000e+00	0.00000e+00	0.00000e+00	0.00000e+00	0.00000e+00	0.00000e+00	0.00000e+00	0.00000e+00	0.00000e+00	0.00000e+00	0.00000e+00	0.00000e+00	0.00000e+00	0.00000e+00	0.00000e+00	0.00000e+00	0.00000e+00	0.00000e+00	0.00000e+00	0.00000e+00	0.00000e+00	0.00000e+00	0.00000e+00	0.00000e+00	0.00000e+00	0.00000e+00	0.00000e+00	
Factor	1.00000e+00	1.00000e+00	1.00000e+00	1.00000e+00	1.00000e+00	1.00000e+00	1.00000e+00	1.00000e+00	1.00000e+00	1.00000e+00	1.00000e+00	1.00000e+00	1.00000e+00	1.00000e+00	1.00000e+00	1.00000e+00	1.00000e+00	1.00000e+00	1.00000e+00	1.00000e+00	1.00000e+00	1.00000e+00	1.00000e+00	1.00000e+00	1.00000e+00	1.00000e+00	1.00000e+00	1.00000e+00	1.00000e+00	1.00000e+00	1.00000e+00	1.00000e+00	X	X	X	X	X	X	X	X	X	X	X	X	X	X	X	X	

B = Detector Channel
Val Type	B-AC1	B-AC2	B-AC3	B-AC4	B-AC5	B-AC6	B-AC7	B-AC8	B-AC9	B-AC10	B-AC11	B-AC12	B-AC13	B-AC14	B-AC15	B-AC16	B-DC1	B-DC2	B-DC3	B-DC4	B-DC5	B-DC6	B-DC7	B-DC8	B-DC9	B-DC10	B-DC11	B-DC12	B-DC13	B-DC14	B-DC15	B-DC16	B-Ph1	B-Ph2	B-Ph3	B-Ph4	B-Ph5	B-Ph6	B-Ph7	B-Ph8	B-Ph9	B-Ph10	B-Ph11	B-Ph12	B-Ph13	B-Ph14	B-Ph15	B-Ph16	

Term	0.00000e+00	0.00000e+00	0.00000e+00	0.00000e+00	0.00000e+00	0.00000e+00	0.00000e+00	0.00000e+00	0.00000e+00	0.00000e+00	0.00000e+00	0.00000e+00	0.00000e+00	0.00000e+00	0.00000e+00	0.00000e+00	0.00000e+00	0.00000e+00	0.00000e+00	0.00000e+00	0.00000e+00	0.00000e+00	0.00000e+00	0.00000e+00	0.00000e+00	0.00000e+00	0.00000e+00	0.00000e+00	0.00000e+00	0.00000e+00	0.00000e+00	0.00000e+00	-4.62441e+01	-1.32572e+02	-1.29572e+02	-1.81597e+02	-4.15668e+01	-5.83256e+01	-1.56500e+02	-1.62015e+02	-3.67652e+01	-6.24913e+01	-1.72056e+02	-1.69104e+02	-1.85187e+02	-1.76509e+02	-5.71229e+01	-1.48960e+02	
Factor	2.03475e-05	1.44044e-04	3.70300e-05	1.49915e-01	1.81671e-06	1.56856e-06	1.65062e-01	4.98778e-02	1.21743e-06	1.38476e-06	8.58732e-02	2.76831e-02	2.39861e-02	8.83716e-03	1.25044e-06	1.25509e-02	3.11720e-06	3.47186e-06	9.65345e-07	7.81745e-02	3.75463e-08	3.82462e-08	8.07447e-02	2.60758e-02	3.75634e-08	3.82832e-08	4.31824e-02	1.40095e-02	1.25879e-02	4.64319e-03	3.78202e-08	6.36179e-03	X	X	X	X	X	X	X	X	X	X	X	X	X	X	X	X	



#DISTANCE SETTINGS
A = Detector Channel
A-1	A-2	A-3	A-4	A-5	A-6	A-7	A-8	A-9	A-10	A-11	A-12	A-13	A-14	A-15	A-16	

2.5000e+00	3.0000e+00	2.5000e+00	3.0000e+00	2.0000e+00	3.0000e+00	1.5000e+00	3.0000e+00	3.0000e+00	3.0000e+00	3.0000e+00	3.0000e+00	3.0000e+00	3.0000e+00	1.5000e+00	3.0000e+00	

B = Detector Channel
B-1	B-2	B-3	B-4	B-5	B-6	B-7	B-8	B-9	B-10	B-11	B-12	B-13	B-14	B-15	B-16	

1.0000e+01	1.0000e+01	1.0000e+01	1.4400e+00	1.0000e+01	1.0000e+01	1.5100e+00	1.9400e+00	1.0000e+01	1.0000e+01	1.9900e+00	2.4900e+00	2.4100e+00	2.9000e+00	1.0000e+01	2.9800e+00	




#DATA BEGINS
time	group	step	mark	flag	A-AC1	A-AC2	A-AC3	A-AC4	A-AC5	A-AC6	A-AC7	A-AC8	A-AC9	A-AC10	A-AC11	A-AC12	A-AC13	A-AC14	A-AC15	A-AC16	A-DC1	A-DC2	A-DC3	A-DC4	A-DC5	A-DC6	A-DC7	A-DC8	A-DC9	A-DC10	A-DC11	A-DC12	A-DC13	A-DC14	A-DC15	A-DC16	A-Ph1	A-Ph2	A-Ph3	A-Ph4	A-Ph5	A-Ph6	A-Ph7	A-Ph8	A-Ph9	A-Ph10	A-Ph11	A-Ph12	A-Ph13	A-Ph14	A-Ph15	A-Ph16	B-AC1	B-AC2	B-AC3	B-AC4	B-AC5	B-AC6	B-AC7	B-AC8	B-AC9	B-AC10	B-AC11	B-AC12	B-AC13	B-AC14	B-AC15	B-AC16	B-DC1	B-DC2	B-DC3	B-DC4	B-DC5	B-DC6	B-DC7	B-DC8	B-DC9	B-DC10	B-DC11	B-DC12	B-DC13	B-DC14	B-DC15	B-DC16	B-Ph1	B-Ph2	B-Ph3	B-Ph4	B-Ph5	B-Ph6	B-Ph7	B-Ph8	B-Ph9	B-Ph10	B-Ph11	B-Ph12	B-Ph13	B-Ph14	B-Ph15	B-Ph16	aux-1	digaux	

14196.647	1	1	0	768	0.20855	0.11808	0.094063	0.1022	0.096907	0.32242	0.07593	0.19682	0.18235	0.28309	0.27004	0.41409	0.40973	0.062724	0.12309	0.16475	-0.20208	-1.3125	-0.20833	-0.97083	-1.075	-0.225	-1.4146	-0.88333	-0.41875	-1.3417	-0.53542	-0.89792	-1.2979	-0.41042	-1.2354	-0.87917	246.705	164.570	-57.550	150.219	123.369	49.981	159.998	173.034	241.534	151.228	268.168	-58.666	273.428	148.831	63.521	203.886	0.00017309	0.00073786	0.00015602	1400.8	3.7174e-06	7.5214e-06	1398.9	372.67	1.1499e-06	6.0172e-06	423.69	139.8	122.18	41.692	6.6351e-06	51.62	0.00040766	0.00040672	0.00011422	1409.1	4.4353e-06	4.4987e-06	1405.9	377.44	4.5765e-06	4.4884e-06	428.05	142.16	124.34	42.482	4.4744e-06	52.343	270.203	-10.546	13.834	-67.815	108.411	78.151	-67.843	-63.360	187.845	91.546	-63.747	-59.104	-58.614	-54.180	101.240	-55.192	-8191	255	
14196.743	1	1	0	0	0.032289	0.12325	0.31961	0.53443	0.18086	0.25389	0.1965	0.10521	0.04938	0.10965	0.32862	0.23471	0.26084	0.11686	0.17774	0.086034	0.020833	-1.2021	-0.49167	-1.1667	-1.3146	-0.35	-1.3646	-1.1354	-0.39583	-1.3979	-0.65625	-0.89375	-1.3625	-0.41875	-1.0708	-1.0667	71.831	-63.588	-37.768	226.828	-27.776	71.610	210.794	215.025	-45.057	-35.012	227.396	187.332	176.261	45.206	22.541	-3.613	0.00018336	0.00072691	4.2971e-05	1400.9	2.0647e-06	1.7233e-06	1396	373.78	4.6037e-06	3.9945e-06	424.92	139.97	121.98	41.683	4.6263e-06	51.354	0.00040559	0.00041116	0.00011568	1408.3	4.5549e-06	4.6634e-06	1403	377.59	4.5936e-06	4.5307e-06	427.79	142.36	124.12	42.51	4.5756e-06	52.313	272.248	-22.871	-69.806	-67.790	162.488	31.428	-67.842	-63.196	88.734	76.865	-63.986	-58.772	-58.485	-54.257	118.914	-54.775	-8191	255	
14196.839	1	1	0	0	0.16729	0.19666	0.45218	0.31219	0.051867	0.11126	0.25807	0.01106	0.081596	0.14194	0.21687	0.1601	0.18464	0.23375	0.10649	0.22914	-0.18542	-1.3417	-0.50417	-0.69792	-1.2167	-0.49167	-1.1313	-1.3417	-0.46042	-1.3979	-0.71875	-0.71042	-1.3458	-0.57083	-1.0271	-1.1667	3.304	118.930	81.310	-73.608	155.308	-13.703	208.730	215.408	21.972	168.132	220.217	228.397	-39.663	-49.335	258.721	256.272	0.00020129	0.00032702	0.00011483	1393	5.5389e-06	4.9343e-06	1389.3	373.01	1.0121e-06	5.1415e-06	424.55	139.23	122.22	41.744	4.66e-06	51.642	0.00041158	0.00041759	0.00011797	1405.7	4.5517e-06	4.6288e-06	1402.2	377.49	4.6295e-06	4.6229e-06	428.13	141.99	124.46	42.509	4.6822e-06	52.471	264.890	14.537	21.496	-67.853	92.943	57.967	-67.762	-63.373	97.108	83.426	-63.774	-58.904	-58.600	-54.259	88.848	-55.278	-8191	255	
14196.935	1	1	0	0	0.15689	0.15907	0.16226	0.40218	0.041242	0.022848	0.11524	0.34166	0.2147	0.096519	0.065066	0.26881	0.13668	0.079982	0.18216	0.36436	-0.035417	-1.2479	-0.7125	-0.47708	-1.3792	-0.43542	-1.0792	-1.4104	-0.57083	-1.1917	-1.0667	-0.76458	-1.5958	-0.50208	-0.87083	-1.3708	171.319	64.968	58.293	222.958	-61.295	30.285	239.981	267.695	-34.768	-49.223	266.747	-63.991	86.149	66.103	51.457	210.665	0.00023302	0.00061163	0.000142	1403.3	4.5574e-06	7.3752e-06	1392.6	373.17	2.4062e-06	3.254e-06	424.59	139.43	121.52	41.651	5.1848e-06	51.51	0.00041948	0.00042866	0.00011833	1408.3	4.68e-06	4.6328e-06	1402.9	377.54	4.6848e-06	4.6834e-06	428.97	142.02	124.26	42.532	4.6899e-06	52.332	274.274	-37.396	-11.228	-67.869	106.579	84.766	-68.060	-63.228	91.157	84.425	-64.022	-59.045	-58.437	-54.085	74.489	-54.923	-8191	255	
14197.031	1	1	0	0	0.2712	0.19003	0.14957	0.11828	0.18339	0.21514	0.12181	0.3674	0.10285	0.014856	0.27363	0.048143	0.16323	0.34732	0.01157	0.11596	0.1	-1.1521	-1.0417	-0.63333	-1.2563	-0.49583	-1.0063	-1.5292	-0.5625	-0.96458	-0.9875	-0.48125	-1.3833	-0.79375	-0.58542	-1.2062	-35.459	-72.285	52.863	260.442	181.576	34.841	217.191	205.937	39.235	168.214	270.061	39.012	234.190	-34.149	146.960	3.143	0.00017638	0.00041134	0.00021493	1396.3	5.7633e-06	5.6879e-06	1399	371.99	2.3144e-06	3.1731e-06	424.92	139.55	122.29	41.687	4.0597e-06	51.611	0.0004214	0.00043205	0.00012148	1405.1	4.7225e-06	4.7334e-06	1405.1	377.06	4.7839e-06	4.7832e-06	428.53	142.16	124.64	42.469	4.7482e-06	52.314	247.863	4.567	-7.397	-67.806	87.814	50.270	-67.761	-63.206	60.730	70.566	-63.839	-59.225	-58.649	-54.605	86.570	-55.468	-8191	255	
14197.128	1	1	0	0	0.32193	0.27754	0.21675	0.27691	0.065631	0.074782	0.20208	0.2046	0.2157	0.27653	0.19415	0.0089657	0.061431	0.35534	0.18475	0.084596	-0.027083	-1.1292	-1.0083	-0.50833	-1.0625	-0.59375	-0.67708	-1.3458	-0.29375	-0.775	-1.025	-0.47917	-1.2521	-0.87708	-0.6	-1.2542	140.160	253.332	277.389	247.127	36.467	139.344	133.112	221.254	16.052	-27.445	38.190	136.551	69.099	228.009	149.675	231.069	0.00019527	0.00043728	9.4471e-05	1398.2	4.1297e-06	3.8045e-06	1391.8	373.78	1.904e-06	3.3252e-06	423.24	139.16	121.87	41.684	3.8824e-06	51.623	0.00042508	0.00043114	0.0001189	1408.3	4.757e-06	4.7087e-06	1403.5	377.82	4.7216e-06	4.7717e-06	427.96	142.07	124.19	42.471	4.7279e-06	52.472	265.806	-8.453	16.732	-68.385	72.949	100.595	-68.249	-63.837	108.093	90.521	-64.211	-59.403	-59.132	-54.591	54.353	-55.570	-8191	255	
14197.248	1	1	0	0	0.23459	0.26113	0.22944	0.23852	0.17208	0.20995	0.36535	0.064876	0.070299	0.16961	0.24638	0.20579	0.26483	0.36991	0.32137	0.18318	0.072917	-0.92292	-0.97292	-0.31042	-1.0104	-0.75417	-0.475	-1.3083	-0.34167	-0.57708	-1.3896	-0.43542	-1.1896	-0.76667	-0.31667	-1.3687	259.318	157.971	211.204	-9.504	184.162	-19.093	267.728	-11.248	221.771	253.195	-39.119	-69.683	1.199	238.688	143.907	274.026	0.00015728	0.00063385	0.00014304	1395.8	2.8216e-06	1.0467e-05	1398.2	373.73	3.6295e-06	5.4987e-06	424.98	139.06	122.06	41.764	4.0825e-06	51.543	0.00043021	0.00043424	0.00012038	1407.4	4.7981e-06	4.7168e-06	1403.7	377.64	4.748e-06	4.6844e-06	428.98	141.89	124.31	42.488	4.7267e-06	52.473	254.153	-11.252	10.445	-68.274	120.716	42.798	-68.031	-63.302	32.844	81.449	-64.162	-59.477	-58.798	-55.011	40.030	-55.255	-8191	255	
14197.343	1	1	0	0	0.097625	0.093507	0.11584	0.21442	0.14813	0.19787	0.2444	0.24888	0.16733	0.0369	0.22574	0.1673	0.099582	0.15318	0.086717	0.1934	0.025	-0.5625	-1.1375	-0.3875	-0.81458	-0.80208	-0.38542	-1.3771	-0.6	-0.41042	-1.25	-0.38542	-1.0562	-1.0583	-0.23125	-1.2042	108.404	210.263	-66.315	220.124	46.850	29.062	199.372	238.257	271.633	189.508	-70.804	215.705	221.118	271.253	-2.107	267.177	0.0001473	0.0003455	0.00023364	1396.1	7.5685e-06	4.1341e-06	1393.7	374.31	2.3807e-06	3.7885e-06	423.45	139.17	122.02	41.657	7.9394e-06	51.638	0.00042724	0.00043661	0.00012	1406.3	4.7348e-06	4.6593e-06	1402.5	377.65	4.8057e-06	4.7222e-06	427.75	141.97	124.32	42.435	4.6955e-06	52.369	260.918	15.924	39.848	-68.126	96.908	81.097	-68.081	-63.482	110.395	139.779	-64.222	-59.539	-58.517	-54.640	70.097	-55.461	-8191	255	
14197.441	1	1	0	0	0.38636	0.097444	0.085036	0.28391	0.11061	0.25592	0.26794	0.41147	0.13766	0.2165	0.14595	0.36056	0.13661	0.16807	0.15198	0.19662	-0.21875	-0.58958	-1.1646	-0.7125	-0.83125	-1.1938	-0.45	-1.1708	-0.75417	-0.51042	-1.4271	-0.56458	-0.96875	-1.2646	-0.24375	-1.175	35.208	58.459	-18.540	235.629	132.938	50.770	197.530	253.972	-9.493	9.790	120.015	258.265	-60.996	245.634	207.542	239.343	0.00015344	0.00047986	0.0001269	1396.3	4.5684e-06	8.6469e-06	1391.8	372.76	2.2089e-06	5.1136e-06	424.98	139	122.06	41.519	2.9145e-06	51.437	0.0004218	0.00042899	0.00012006	1405.7	4.6816e-06	4.675e-06	1401.4	377.45	4.7637e-06	4.6683e-06	428.04	142.01	124.43	42.408	4.7108e-06	52.322	255.252	11.827	29.295	-68.125	43.675	70.803	-68.117	-63.376	-70.848	67.497	-64.247	-59.348	-58.705	-54.732	49.626	-55.268	-8191	255	
14197.537	1	1	0	0	0.20157	0.14313	0.28545	0.21608	0.090305	0.19184	0.20562	0.18414	0.14394	0.13276	0.029921	0.03932	0.34267	0.24213	0.1677	0.16795	-0.20833	-0.325	-1.2542	-0.65208	-0.54792	-1.0729	-0.57708	-1.2271	-0.80833	-0.375	-1.4083	-0.60208	-0.83125	-0.94167	-0.2	-1	224.648	264.410	237.575	228.086	-54.041	271.785	277.493	204.447	260.136	102.214	230.441	180.678	247.315	130.833	-43.458	-67.509	0.00019803	0.00030905	0.0001138	1394.4	4.9332e-06	6.6343e-06	1392.9	373.35	3.4222e-06	7.4671e-06	424.42	139.21	122.15	41.544	4.6837e-06	51.391	0.00042807	0.00043452	0.0001203	1405.5	4.8346e-06	4.6484e-06	1402.4	377.6	4.8431e-06	4.7655e-06	427.78	142.04	124.16	42.395	4.8075e-06	52.309	256.167	-11.904	40.300	-68.245	110.789	59.740	-67.983	-63.284	115.668	102.032	-64.057	-59.330	-58.806	-54.637	132.492	-55.139	-8191	255	
14197.631	1	1	0	0	0.1247	0.24266	0.053184	0.21793	0.20681	0.21165	0.26229	0.032012	0.18424	0.32039	0.076393	0.16958	0.18101	0.23429	0.12171	0.15822	-0.6625	-0.26458	-0.84167	-0.74375	-0.41875	-1.4167	-0.4125	-1.0667	-0.92708	-0.24792	-1.1354	-0.66667	-0.59583	-1.3021	-0.25	-0.9625	11.935	58.881	252.082	212.963	233.708	52.183	137.388	248.868	-70.960	121.277	163.569	-79.316	257.939	-72.849	35.320	-51.579	0.00019584	0.00058367	0.00010244	1393.1	5.582e-06	4.969e-06	1395.9	372.95	4.0404e-06	4.9676e-06	424.12	139.36	121.82	41.606	2.5759e-06	51.481	0.00042935	0.00043798	0.00012017	1403.6	4.7721e-06	4.8366e-06	1401.7	377.93	4.8589e-06	4.7582e-06	427.95	142.1	124.29	42.383	4.8646e-06	52.369	269.622	40.349	7.880	-68.271	100.841	73.188	-67.914	-63.288	45.073	64.589	-64.254	-59.224	-58.478	-54.547	109.192	-55.175	-8191	255	
14197.727	1	1	0	0	0.35065	0.49431	0.12682	0.15363	0.21349	0.22079	0.1918	0.14733	0.076537	0.12018	0.18404	0.25296	0.18671	0.2225	0.26448	0.07207	-0.75625	-0.3125	-1.0875	-0.95833	-0.3375	-1.1958	-0.59583	-1.0479	-1.0604	-0.20208	-1.1646	-0.8625	-0.44375	-1.2333	-0.3625	-0.57708	28.489	132.951	-7.482	152.883	180.774	-46.220	180.030	202.422	-57.694	-23.150	240.743	-73.846	248.791	251.419	-22.087	229.998	0.00015386	0.00047927	0.00018318	1397.4	5.5321e-06	3.3448e-06	1386.6	372.45	2.1639e-06	4.7717e-06	425.39	139.61	121.63	41.495	3.2539e-06	51.495	0.00042984	0.00044908	0.00012283	1406.4	4.8558e-06	4.9156e-06	1400.8	377.56	4.8661e-06	4.8524e-06	428.62	141.88	124.06	42.392	4.9782e-06	52.368	269.119	-8.020	-0.323	-68.160	130.537	59.719	-67.788	-63.225	121.697	101.161	-63.855	-59.381	-58.749	-54.351	95.065	-54.945	-8191	255	
14197.823	1	1	0	0	0.18762	0.11818	0.3293	0.093049	0.11983	0.17224	0.17008	0.11144	0.21325	0.49937	0.38813	0.14795	0.46481	0.090975	0.17829	0.10605	-0.63542	-0.054167	-0.95833	-1.1	-0.2	-1.2854	-0.65417	-0.59375	-1.3146	-0.24167	-1.2375	-1.0125	-0.48125	-1.1083	-0.58333	-0.43333	40.315	-39.932	137.661	273.247	49.597	-0.736	218.973	243.712	138.641	-46.890	208.852	251.276	226.638	273.018	67.353	244.398	0.00017372	0.00098082	0.00014531	1391.4	3.9781e-06	7.7235e-06	1388.1	373.2	4.1679e-06	2.5297e-06	424.46	138.78	121.85	41.478	2.8145e-06	51.498	0.00043521	0.00045619	0.00012124	1404.2	4.9569e-06	4.9204e-06	1398	377.62	4.9089e-06	4.9787e-06	428.17	141.87	124.19	42.414	5.0766e-06	52.313	273.604	15.292	5.034	-68.124	55.437	79.586	-67.940	-63.065	123.688	76.659	-63.765	-59.101	-58.822	-54.306	48.576	-55.047	-8191	255	
14197.944	1	1	0	0	0.34994	0.22542	0.16386	0.25699	0.21939	0.35425	0.31048	0.39615	0.21333	0.052488	0.098588	0.30785	0.26173	0.19704	0.099206	0.31323	-0.62708	-0.16875	-0.775	-1.1708	-0.33125	-1.1083	-0.95	-0.64167	-1.2313	-0.34792	-1.0104	-0.93958	-0.46458	-1.15	-0.55833	-0.48125	135.243	72.965	-69.544	-73.648	-16.308	6.947	-72.502	227.406	139.242	189.813	225.984	224.389	204.728	-81.089	227.241	187.152	0.00016406	0.00079351	9.6946e-05	1394.9	5.1602e-06	7.4508e-06	1395	372.66	5.5323e-07	5.2774e-06	423.25	139.14	121.41	41.646	3.7877e-06	51.515	0.00044249	0.00045884	0.00012436	1405.8	5.0891e-06	5.0176e-06	1402.4	377.37	4.9307e-06	5.0704e-06	428.82	142.16	124.08	42.435	4.9943e-06	52.355	271.573	23.487	-14.383	-68.045	148.307	84.425	-68.049	-63.253	97.881	65.028	-64.128	-59.379	-58.803	-54.355	95.013	-54.932	-8191	255	
14198.040	1	1	0	0	0.16235	0.054048	0.079399	0.49454	0.068805	0.080911	0.27675	0.12541	0.075137	0.23848	0.12339	0.2263	0.20916	0.30253	0.24339	0.32311	-0.875	-0.34792	-0.66667	-1.1708	-0.21042	-0.99375	-0.78542	-0.51875	-1.0875	-0.45208	-0.93333	-1.1958	-0.51667	-1.1396	-0.57292	-0.35208	179.000	83.005	28.711	259.077	221.686	86.539	158.788	-62.422	-15.360	18.189	195.349	230.902	243.931	240.296	-49.857	-11.429	0.00014213	0.00024591	7.7649e-05	1396.3	1.8717e-06	3.1219e-06	1391.4	373.38	2.4588e-06	4.7658e-06	424.04	138.85	122.04	41.437	2.2471e-06	51.488	0.00044636	0.00046199	0.0001286	1405.8	5.0884e-06	5.0202e-06	1400.9	377.49	5.061e-06	5.0997e-06	428.38	141.99	124.16	42.481	5.0563e-06	52.379	259.726	-16.332	0.576	-68.117	138.701	94.286	-67.961	-63.275	116.670	69.557	-63.942	-59.165	-58.780	-54.204	27.981	-55.100	-8191	255	
14198.136	1	1	0	0	0.14693	0.21566	0.029733	0.2748	0.24665	0.23048	0.43827	0.23464	0.090189	0.18029	0.30459	0.15697	0.09251	0.11984	0.25816	0.090824	-0.68542	-0.33542	-0.60625	-1.3813	-0.18542	-0.89167	-0.96875	-0.5625	-1.0292	-0.60833	-0.55208	-1.4208	-0.52917	-1.1146	-0.8875	-0.091667	203.947	232.557	-12.980	225.634	167.019	255.690	225.596	185.320	153.342	152.121	245.841	-43.385	-10.807	269.424	-43.883	253.196	0.00019097	0.00073192	7.531e-05	1399.1	6.5608e-06	2.7929e-06	1388.2	372.81	1.6763e-06	4.246e-06	424.77	139.11	121.53	41.743	1.9216e-06	51.273	0.00045431	0.00046636	0.00012933	1407.9	5.1905e-06	5.0899e-06	1401.4	377.5	5.1384e-06	5.1763e-06	428.12	141.96	124.18	42.478	5.2276e-06	52.352	264.920	19.409	-32.168	-67.904	116.838	129.668	-67.962	-63.040	98.442	94.679	-63.750	-59.144	-58.686	-54.347	83.593	-55.119	-8191	255	
14198.208	1	1	0	0	0.23975	0.10422	0.39035	0.26847	0.082063	0.10911	0.23237	0.19468	0.073003	0.19553	0.072462	0.37545	0.41324	0.3796	0.11763	0.16139	-0.725	-0.49583	-0.39583	-1.1833	-0.16875	-0.775	-1.2604	-0.44167	-1.1375	-0.62292	-0.5375	-1.2833	-0.40625	-0.99375	-1.1625	-0.275	173.212	184.407	-67.974	151.251	2.292	105.352	229.301	260.616	22.916	12.040	186.952	-63.581	254.182	-50.784	59.260	178.483	0.0001747	0.00066513	6.9484e-05	1396.5	5.1508e-06	4.6514e-06	1394.1	373.78	1.4845e-06	7.2964e-06	426.27	139.36	122.23	41.681	1.0057e-06	51.432	0.00046561	0.00047063	0.00013092	1406.1	5.2196e-06	5.1907e-06	1403.8	377.98	5.1355e-06	5.2204e-06	428.95	142.2	124.23	42.426	5.1666e-06	52.298	269.184	-7.435	34.206	-67.962	50.670	41.282	-67.734	-63.241	53.316	79.455	-64.161	-59.370	-58.690	-54.475	37.820	-54.972	-8191	255	
14198.329	1	1	0	0	0.35514	0.10199	0.2725	0.38942	0.10447	0.17501	0.50039	0.29214	0.10095	0.26574	0.32867	0.25819	0.26843	0.14154	0.06113	0.18751	-0.67292	-0.44375	-0.12083	-1.5063	-0.25625	-0.75	-1.2958	-0.56458	-1.0708	-0.85417	-0.45208	-1.4417	-0.68333	-0.71875	-1.1042	-0.28333	222.925	109.722	10.976	242.147	-52.136	224.686	214.157	189.923	-17.478	181.927	246.557	-63.174	221.482	200.103	61.688	261.348	0.00016269	0.00046992	4.8285e-05	1396.8	6.1037e-06	5.3891e-06	1394.2	372.96	3.5845e-06	6.388e-06	424.42	139.15	121.99	41.783	4.5405e-06	51.405	0.00046298	0.0004728	0.00013178	1408.2	5.1728e-06	5.1401e-06	1402.7	377.93	5.1916e-06	5.0758e-06	428.6	142.07	124.3	42.513	5.163e-06	52.27	269.095	-15.479	8.304	-67.902	97.910	75.032	-67.994	-63.100	131.542	60.821	-64.094	-59.007	-58.824	-54.359	56.964	-55.018	-8191	255	
14198.423	1	1	0	0	0.16147	0.022766	0.079555	0.29643	0.16478	0.071383	0.23618	0.19679	0.20961	0.2242	0.12928	0.41894	0.11508	0.1204	0.05885	0.11898	-0.525	-0.8875	-0.22083	-1.2	-0.5625	-0.33958	-1.3563	-0.48125	-0.80417	-0.91875	-0.22917	-1.0958	-0.66667	-0.4875	-1.2188	-0.45833	-71.333	-24.439	230.091	271.627	22.464	-40.347	259.823	169.295	-48.194	82.350	136.239	258.221	-23.081	-20.540	8.062	253.724	0.00016086	0.00064497	3.8743e-05	1399.9	2.4554e-06	6.7377e-06	1392.6	372.53	1.1499e-06	1.7309e-06	424.87	139.19	122.37	41.778	4.7454e-06	51.23	0.00045294	0.00046395	0.00012909	1408.7	5.2058e-06	5.1401e-06	1403	377.4	5.1657e-06	5.17e-06	428.47	141.92	124.4	42.539	5.1319e-06	52.364	-80.424	-18.952	231.501	-67.929	156.717	85.473	-67.747	-63.159	152.484	72.457	-64.025	-59.034	-58.586	-54.188	50.652	-55.103	-8191	255	
14198.521	1	1	0	0	0.16412	0.30032	0.15032	0.21787	0.13116	0.23706	0.36219	0.14351	0.13336	0.15993	0.15407	0.2144	0.17421	0.069982	0.40979	0.28657	-0.40625	-0.98958	-0.17083	-1.1792	-0.59583	-0.38542	-1.2188	-0.53958	-0.69167	-1.1083	-0.34167	-1.2375	-0.83542	-0.41667	-1.1854	-0.76875	38.701	14.483	41.396	239.987	-21.946	14.736	271.672	-21.673	-1.333	49.966	167.355	121.732	166.747	3.125	36.975	177.047	0.00018097	0.00098294	0.00016211	1399.5	2.9196e-06	6.1796e-06	1391.4	373.18	4.2915e-06	7.3882e-06	425.42	138.91	121.43	41.638	4.609e-06	51.454	0.00046491	0.00047104	0.00013099	1409.2	5.1908e-06	5.1977e-06	1402.5	378.11	5.1972e-06	5.1815e-06	428.49	142.01	124.01	42.503	5.197e-06	52.283	265.473	-17.561	4.891	-67.864	98.229	83.786	-68.206	-63.184	49.709	77.563	-63.654	-59.210	-58.822	-54.231	132.483	-55.349	-8191	255	
14198.640	1	1	0	0	0.14101	0.10527	0.14491	0.26647	0.33241	0.072407	0.24197	0.0618	0.097255	0.26411	0.11144	0.13914	0.12977	0.27021	0.26152	0.27733	-0.36875	-1.15	-0.15	-1.2896	-0.89375	-0.22917	-1.2833	-0.61458	-0.63958	-1.1479	-0.62292	-1.1021	-1.0812	-0.19583	-1.0958	-0.62083	-65.766	98.629	207.179	262.899	173.285	268.472	250.850	-67.015	-0.129	16.827	248.220	31.412	189.912	253.640	-63.744	202.871	0.00018828	0.00064223	0.00015126	1398.5	6.1302e-06	4.0834e-06	1389.5	372.97	2.9467e-06	6.4523e-06	423.31	139.11	122.12	41.602	2.3395e-06	51.455	0.00046874	0.00047759	0.00013442	1408	5.2871e-06	5.285e-06	1402.7	377.83	5.3219e-06	5.2452e-06	428.41	141.97	124.34	42.478	5.2834e-06	52.397	268.700	-5.936	-13.446	-67.872	103.032	88.537	-67.548	-63.058	42.049	52.890	-63.808	-59.122	-58.515	-54.529	77.525	-55.084	-8191	255	
14198.736	1	1	0	0	0.22936	0.10794	0.21613	0.2982	0.32885	0.29753	0.26691	0.50057	0.27073	0.10355	0.26441	0.28891	0.142	0.2741	0.253	0.21147	-0.11667	-1.1375	-0.22917	-1.1229	-1.0375	-0.39792	-1.4104	-0.67083	-0.59583	-1.0021	-0.44583	-0.96667	-1.0938	-0.25	-1.2208	-0.84792	108.250	17.238	67.388	266.312	43.433	240.743	248.020	214.858	260.939	6.483	253.160	253.857	14.658	230.824	14.499	-68.046	0.00013982	9.856e-05	7.2034e-05	1396.2	1.8793e-06	6.4583e-06	1390.8	372.3	2.2604e-06	6.3386e-06	423.33	139.09	121.45	41.535	4.0445e-06	51.257	0.00047583	0.00048894	0.00013572	1408.6	5.3412e-06	5.3232e-06	1401.6	377.53	5.2687e-06	5.3618e-06	428.72	142.18	124.09	42.502	5.2925e-06	52.317	260.935	-17.992	13.503	-67.956	259.178	100.514	-67.761	-63.234	10.126	42.866	-63.867	-58.968	-58.736	-54.226	67.804	-55.089	-8191	255	
14198.808	1	1	0	0	0.06994	0.10428	0.13456	0.37974	0.23312	0.073153	0.073251	0.046942	0.34965	0.25263	0.1959	0.16372	0.13784	0.25698	0.080881	0.032233	0.0125	-1.0812	-0.39167	-0.83542	-1.0708	-0.4	-1.2479	-0.89167	-0.30417	-1.1417	-0.48542	-0.82708	-1.4333	-0.25417	-0.98125	-1.1229	94.245	109.554	152.670	231.975	212.784	105.814	33.248	47.993	198.366	-66.000	-79.010	214.669	-54.887	-7.191	-21.403	194.697	0.00017409	0.00057727	0.00010447	1401.4	4.3528e-06	6.2969e-06	1396.4	373.52	2.0013e-07	4.6748e-06	424.93	139.34	121.82	41.575	2.1953e-06	51.52	0.00047454	0.00048976	0.0001356	1409.5	5.4369e-06	5.3992e-06	1405.7	377.96	5.4598e-06	5.4422e-06	428.65	142.09	124.36	42.488	5.3642e-06	52.422	265.202	47.185	3.905	-67.937	104.307	94.765	-67.667	-63.072	146.149	52.206	-63.736	-58.950	-58.517	-54.392	86.518	-55.206	-8191	255	
14198.928	1	1	0	0	0.34016	0.013025	0.19958	0.15109	0.27094	0.21042	0.064146	0.094581	0.13307	0.24771	0.1893	0.28172	0.20008	0.31201	0.16597	0.2106	0.1	-1.0896	-0.44792	-0.88125	-1.2104	-0.19375	-1.2771	-1.1333	-0.375	-1.2479	-0.5625	-0.54375	-1.3333	-0.4875	-0.65417	-0.90833	36.910	121.432	232.872	271.809	65.364	59.085	110.790	125.817	236.540	227.843	-72.080	207.348	67.700	226.358	9.207	201.550	0.00017604	0.00044227	0.00024488	1399.2	6.5642e-06	1.2809e-06	1387.9	373.44	1.6763e-06	3.1814e-06	423.39	139.34	121.87	41.52	1.747e-06	51.425	0.00047499	0.0004943	0.00013923	1409.1	5.4472e-06	5.4512e-06	1401.9	378.17	5.4695e-06	5.3836e-06	428.49	142.24	124.12	42.421	5.3953e-06	52.355	262.185	-49.017	31.066	-67.879	98.048	176.865	-67.789	-63.208	130.140	102.390	-63.995	-59.153	-58.767	-53.916	78.978	-54.766	-8191	255	
14199.024	1	1	0	0	0.2234	0.2499	0.032547	0.18515	0.23755	0.28206	0.25702	0.23542	0.14573	0.095968	0.057933	0.19577	0.16969	0.15675	0.13672	0.14974	0.075	-0.92708	-0.33958	-0.6125	-1.0542	-0.25833	-0.90417	-1.0271	-0.34792	-1.2563	-0.6375	-0.40833	-1.2938	-0.38125	-0.84167	-1.1583	65.781	26.255	241.102	-78.556	71.342	138.771	243.084	268.686	-26.401	118.358	164.225	278.484	56.081	-17.525	276.808	79.947	0.00021658	0.00050051	9.7288e-05	1400.1	5.9981e-06	3.7308e-06	1393.3	372.99	3.0671e-06	3.5363e-06	423.23	139.68	121.39	41.736	2.7312e-06	51.237	0.00048433	0.00048809	0.0001374	1409.6	5.4054e-06	5.3759e-06	1404.6	377.83	5.4405e-06	5.4817e-06	428.59	142.41	123.97	42.516	5.2818e-06	52.346	268.715	3.795	34.624	-67.915	120.487	68.523	-67.716	-63.081	89.892	90.084	-63.789	-59.020	-58.735	-54.160	66.400	-55.147	-8191	255	
14199.121	1	1	0	0	0.11611	0.10577	0.24416	0.10715	0.2592	0.2012	0.24522	0.16889	0.23586	0.11075	0.21765	0.30946	0.16323	0.28743	0.078697	0.29192	0.022917	-1.0521	-0.68125	-0.48125	-1.2437	-0.51042	-0.775	-1.1333	-0.29167	-1.0229	-0.87917	-0.33125	-1.2938	-0.55208	-0.68333	-1.2396	220.093	-21.678	-48.637	-75.606	143.133	134.950	179.740	246.909	50.155	276.532	-65.001	248.765	273.381	201.317	87.623	-50.082	0.00017883	0.00077233	8.6992e-05	1398.9	3.1561e-06	8.3947e-06	1397.6	374.72	2.1438e-06	4.1762e-06	423.93	139.52	122.14	41.458	2.5926e-06	51.444	0.00047212	0.00048737	0.00013501	1408.6	5.3793e-06	5.3799e-06	1405.5	378.16	5.396e-06	5.3081e-06	428.55	142.32	124.35	42.427	5.3376e-06	52.472	231.944	-16.639	-23.490	-67.876	48.408	64.147	-67.740	-63.310	-49.510	60.833	-64.048	-58.957	-58.635	-54.264	27.387	-55.040	-8191	255	
14199.241	1	1	0	0	0.13052	0.025539	0.18061	0.35665	0.26443	0.26594	0.17063	0.066545	0.15138	0.18298	0.29659	0.16757	0.22964	0.038458	0.052683	0.038084	0.13333	-1.0708	-0.84792	-0.44167	-1.2104	-0.50208	-0.77083	-1.1396	-0.28958	-0.8	-1.0271	-0.34583	-1.3458	-0.8375	-0.55208	-1.4438	56.665	-13.154	84.973	243.896	-59.973	142.586	173.313	211.992	265.274	62.590	232.524	-42.921	-36.349	273.767	-45.136	215.243	0.00018764	0.00079334	0.00015567	1398.6	1.1787e-06	5.702e-06	1398.6	372.36	3.4439e-06	5.4266e-06	423.51	139.74	122.08	41.744	6.0721e-07	51.449	0.00047622	0.00048304	0.00013428	1410.5	5.3674e-06	5.3503e-06	1404.9	377.77	5.3628e-06	5.3697e-06	429.01	142.13	124.45	42.495	5.3257e-06	52.48	256.408	-11.680	33.786	-67.801	10.510	80.709	-67.682	-63.004	126.832	79.950	-63.883	-59.026	-58.694	-54.569	85.389	-55.030	-8191	255	
14199.337	1	1	0	0	0.080042	0.19139	0.29815	0.27098	0.2415	0.10141	0.26612	0.2909	0.17452	0.20475	0.014718	0.07874	0.14414	0.072094	0.11772	0.28747	-0.01875	-0.8875	-0.85625	-0.38125	-1.0938	-0.65625	-0.54792	-1.3396	-0.4	-0.76875	-1.2333	-0.36042	-1.0771	-0.80208	-0.40417	-1.1292	248.558	267.353	-7.358	253.221	229.209	130.205	200.421	235.688	27.521	-21.433	48.820	270.445	-72.911	94.246	156.439	222.212	0.00014379	0.00074976	8.0153e-05	1399.1	4.273e-06	3.2762e-06	1396.2	373.76	1.482e-06	9.0767e-06	424.95	139.12	121.96	41.598	2.8815e-06	51.253	0.00047861	0.00048511	0.00013334	1408.3	5.2416e-06	5.324e-06	1405.2	378.84	5.3752e-06	5.321e-06	429.26	142.06	124.41	42.451	5.2869e-06	52.43	263.793	23.247	15.870	-67.962	71.871	144.221	-67.658	-63.000	99.687	87.762	-63.664	-59.078	-58.427	-54.393	49.629	-54.910	-8191	255	
14199.432	1	1	0	0	0.10438	0.15564	0.1418	0.058974	0.2102	0.14242	0.43612	0.2759	0.22312	0.28312	0.1318	0.18944	0.19028	0.10444	0.1451	0.24556	0.0625	-0.61667	-0.92292	-0.41667	-0.88542	-0.7125	-0.40208	-1.275	-0.50833	-0.6625	-1.1958	-0.38542	-1.0792	-1.1208	-0.24583	-1.3458	180.764	11.760	49.320	94.835	93.567	44.855	-77.655	244.703	76.453	143.801	250.999	161.454	-60.664	215.683	73.028	183.717	0.00018783	0.00049056	0.00015364	1401	4.6524e-06	2.5176e-06	1395.1	373.25	1.31e-06	4.313e-06	422.86	139.75	122.46	41.83	7.4165e-06	51.335	0.00047518	0.00048304	0.00013342	1411.2	5.2719e-06	5.3757e-06	1405.8	378.13	5.263e-06	5.2792e-06	428.07	142.4	124.53	42.619	5.2576e-06	52.429	245.568	-26.151	-7.034	-67.889	60.692	120.504	-67.568	-63.170	37.234	54.781	-63.850	-58.942	-58.447	-54.359	96.678	-55.066	-8191	255	
14199.505	1	1	0	0	0.17106	0.10628	0.18374	0.03723	0.12495	0.11853	0.04874	0.43955	0.10144	0.096114	0.11622	0.30077	0.30861	0.21687	0.30207	0.24258	-0.097917	-0.27917	-1.0542	-0.6	-0.74167	-1.1229	-0.64167	-1.4167	-0.55833	-0.44583	-1.2479	-0.34167	-0.77083	-0.97917	-0.11042	-1.3083	145.754	50.342	120.393	-8.465	-14.562	24.300	84.020	247.346	142.780	164.943	275.527	269.361	237.104	241.414	16.733	-63.793	0.00020568	0.00082533	0.00012211	1398.3	6.9923e-06	4.6303e-06	1396.6	374.26	2.5239e-06	4.702e-06	423.05	138.91	122.31	41.636	5.0854e-06	51.586	0.00046651	0.00047928	0.0001325	1409.1	5.2236e-06	5.2383e-06	1407.7	378.51	5.1629e-06	5.3029e-06	428.51	142.17	124.61	42.508	5.3075e-06	52.54	250.920	7.083	-22.989	-67.846	106.125	111.564	-67.647	-62.918	54.567	34.415	-63.729	-59.055	-58.432	-54.442	100.382	-54.744	-8191	255	
14199.624	1	1	0	0	0.24502	0.13282	0.25568	0.44912	0.16532	0.23119	0.14091	0.31533	0.19879	0.20592	0.41096	0.18408	0.35221	0.068267	0.057352	0.056908	-0.275	-0.34375	-1.2479	-0.36667	-0.62708	-1.0458	-0.45	-1.1437	-0.62917	-0.23542	-1.3021	-0.59792	-0.8625	-1.1917	-0.29792	-1.2458	-80.888	19.213	121.792	267.084	171.254	98.078	222.033	237.335	-32.675	73.229	210.752	95.343	226.699	54.904	-58.152	142.533	0.00016086	0.00060838	9.689e-05	1403.4	6.033e-06	7.9197e-06	1397.9	373.31	6.3752e-06	6.3783e-06	425.89	139.27	122.6	41.571	2.0426e-06	51.664	0.00046451	0.00047876	0.0001337	1413.6	5.248e-06	5.2352e-06	1408.1	378.3	5.2387e-06	5.2833e-06	429.97	142.3	124.55	42.532	5.2958e-06	52.581	261.162	59.747	22.657	-68.136	84.047	89.995	-67.591	-62.915	80.546	57.295	-63.875	-59.310	-58.411	-54.441	97.325	-54.973	-8191	255	
14199.720	1	1	0	0	0.23558	0.059671	0.11365	0.16823	0.17207	0.18297	0.51952	0.18208	0.077934	0.17069	0.051611	0.18226	0.20109	0.29356	0.054181	0.27179	-0.38125	-0.41667	-1.2396	-0.75208	-0.88125	-1.0792	-0.59167	-1.0042	-0.75417	-0.21042	-1.2667	-0.6625	-0.75208	-1.0938	-0.35417	-1.0438	143.534	234.791	50.188	-68.611	239.103	57.620	192.695	272.764	97.021	-72.775	120.700	176.873	257.888	-59.845	255.381	234.008	0.00016422	0.00067301	9.8156e-05	1402	2.9177e-06	3.0973e-06	1398.9	374.29	3.7976e-06	6.4572e-06	425.63	138.95	122.14	41.871	3.291e-06	51.57	0.00046696	0.00047868	0.0001304	1413.2	5.2377e-06	5.1867e-06	1408.9	378.49	5.2949e-06	5.2111e-06	429.52	142.04	124.32	42.626	5.2481e-06	52.589	261.544	37.024	11.683	-67.673	113.284	44.382	-67.678	-62.943	175.891	47.746	-63.434	-59.082	-58.244	-53.798	67.211	-54.920	-8191	255	
14199.816	1	1	0	0	0.043681	0.082182	0.27781	0.27277	0.043682	0.010782	0.36305	0.24176	0.15719	0.036738	0.13531	0.16846	0.31082	0.28088	0.016984	0.13512	-0.52917	-0.15417	-0.96667	-0.81875	-0.45625	-1.3813	-0.75208	-1.1292	-0.8875	-0.2375	-1.15	-0.88958	-0.57917	-1.0417	-0.13333	-0.67083	115.348	140.413	-0.736	228.938	264.847	124.405	179.084	261.501	103.012	178.798	-64.483	87.952	260.235	276.381	47.366	-43.846	0.00022972	0.00062674	0.00011642	1401.5	9.384e-06	2.2143e-06	1396.9	373.37	6.1842e-06	8.2058e-06	424.11	139.53	122.34	41.952	5.3424e-06	51.516	0.00046362	0.00048406	0.00013166	1413.7	5.298e-06	5.309e-06	1407.8	378.53	5.3742e-06	5.3226e-06	429.11	142.21	124.51	42.665	5.3917e-06	52.465	259.700	15.106	41.916	-67.750	120.986	148.352	-67.681	-62.958	73.960	61.193	-63.908	-59.290	-58.629	-54.271	82.019	-55.105	-8191	255	
14199.912	1	1	0	0	0.36664	0.18677	0.19069	0.22257	0.20956	0.15845	0.2414	0.17003	0.031972	0.18839	0.33235	0.18302	0.37157	0.22377	0.35151	0.17935	-0.58542	-0.20417	-0.99792	-0.775	-0.23125	-1.0896	-0.20417	-0.67917	-1.0583	-0.17292	-1.05	-1.0458	-0.45833	-1.2729	-0.46667	-0.79167	17.866	278.592	65.368	267.146	61.882	-39.940	202.909	224.901	104.941	141.506	272.113	199.257	232.071	174.224	96.544	178.178	0.00018846	0.00056484	0.00017668	1404	1.5202e-06	4.8481e-06	1402.9	372.37	1.5329e-06	6.1457e-06	424.7	139.21	121.63	41.895	1.7865e-06	51.592	0.00047989	0.000494	0.00013384	1413.6	5.4771e-06	5.3154e-06	1407.9	378.33	5.4521e-06	5.5041e-06	429.39	142.22	124.4	42.614	5.455e-06	52.471	268.915	-53.886	39.886	-67.929	185.065	95.434	-67.898	-63.033	37.341	118.812	-63.840	-59.137	-58.811	-54.364	75.708	-54.689	-8191	255	
14200.033	1	1	0	0	0.21127	0.076832	0.29505	0.26704	0.06899	0.14621	0.11209	0.087331	0.16585	0.24748	0.21536	0.065096	0.25967	0.18672	0.25429	0.32716	-0.86875	-0.22708	-0.89792	-0.94167	-0.30417	-1.1833	-0.68333	-0.5875	-1.0312	-0.31875	-1.0312	-1.1063	-0.33333	-1.1812	-0.57292	-0.46458	82.666	-13.736	22.245	-22.358	77.870	195.291	156.398	185.734	82.850	127.098	200.359	170.641	232.103	252.740	28.238	257.222	0.00014106	0.00096815	0.00017633	1402.4	6.8427e-06	2.5891e-06	1393.4	374.28	3.8951e-06	5.3258e-06	424.87	139.24	121.63	41.716	1.9953e-06	51.367	0.00047966	0.00049789	0.00013543	1412.7	5.4585e-06	5.3397e-06	1405.7	378.39	5.3741e-06	5.4715e-06	429.3	142.29	124.17	42.592	5.3446e-06	52.438	256.728	16.825	-4.335	-67.820	84.193	101.161	-67.768	-63.082	36.442	92.008	-63.665	-58.806	-58.409	-54.093	122.991	-54.600	-8191	255	
14200.105	1	1	0	0	0.18368	0.13101	0.22833	0.3933	0.20785	0.21337	0.12766	0.08867	0.14741	0.23569	0.3541	0.22091	0.31921	0.1477	0.072143	0.32317	-0.67917	-0.18333	-0.68542	-1.1812	-0.2	-0.86458	-0.89167	-0.46667	-1.1792	-0.21458	-0.87917	-1	-0.38333	-1.0521	-0.55	-0.2875	-15.281	169.662	94.912	241.788	268.731	179.620	-41.257	150.363	250.126	-42.628	237.556	20.331	275.482	267.693	193.791	244.479	0.00015422	0.00039552	0.00015211	1404.2	6.6423e-06	5.3024e-06	1392.6	373.4	4.8842e-06	3.7575e-06	424.85	139.47	122.26	41.738	2.4462e-06	51.496	0.00047664	0.00049478	0.00013384	1412.9	5.422e-06	5.3897e-06	1407.2	378.57	5.3475e-06	5.4283e-06	428.99	142.3	124.53	42.547	5.3586e-06	52.545	262.660	44.286	-9.350	-67.915	140.636	75.095	-67.778	-62.990	100.083	89.892	-63.745	-58.774	-58.506	-54.022	50.662	-55.333	-8191	255	
14200.201	1	1	0	0	0.2017	0.090977	0.23522	0.12271	0.15456	0.10985	0.29539	0.28423	0.23902	0.038414	0.17782	0.2504	0.10056	0.15408	0.30022	0.22186	-0.71667	-0.05625	-0.84375	-1.3813	-0.16667	-1.0896	-1.0875	-0.35833	-1.0688	-0.4625	-0.76875	-1.2188	-0.34583	-1.0146	-0.6875	-0.21875	28.436	215.204	135.025	273.905	18.252	77.964	171.689	244.834	-70.096	235.988	-33.047	-45.054	116.406	257.703	25.611	-46.296	0.00017333	0.00054694	6.1726e-05	1403.1	4.2062e-06	5.1731e-06	1390.6	372.61	3.5371e-06	5.0953e-06	425.49	139.48	121.82	41.721	3.3892e-06	51.53	0.00047427	0.00048914	0.00013644	1413.2	5.3106e-06	5.2985e-06	1405.5	378.05	5.4194e-06	5.3925e-06	429.22	142.35	124.34	42.532	5.3944e-06	52.415	261.516	0.951	23.334	-68.186	216.360	36.191	-67.949	-63.270	134.518	45.090	-64.019	-59.224	-58.838	-54.542	82.310	-54.961	-8191	255	
14200.322	1	1	0	0	0.14527	0.23911	0.3974	0.28314	0.22171	0.20876	0.31026	0.28042	0.21324	0.1095	0.2956	0.21296	0.2591	0.14772	0.16277	0.1703	-0.72083	-0.375	-0.52292	-1.2792	-0.24375	-0.75417	-0.95833	-0.59375	-1.1625	-0.33125	-0.54167	-1.375	-0.51667	-0.8875	-0.92708	-0.27917	-54.488	61.474	125.673	221.601	245.205	98.240	255.028	191.434	75.250	256.581	228.393	-36.709	-71.252	-64.548	-69.251	165.030	0.00018078	0.00058602	8.0212e-05	1401.3	6.5506e-06	7.0616e-06	1394.7	373.85	6.5459e-06	2.8662e-06	424.17	139.92	121.42	41.681	5.0107e-06	51.449	0.00047628	0.0005044	0.00013639	1411.7	5.4158e-06	5.3589e-06	1404.9	378.43	5.3931e-06	5.5358e-06	429.16	142.23	124.34	42.576	5.4478e-06	52.459	258.136	30.488	4.619	-68.242	67.078	86.774	-68.181	-63.605	85.135	76.151	-64.151	-59.513	-58.973	-54.352	136.974	-55.229	-8191	255	
14200.416	1	1	0	0	0.30026	0.14781	0.19435	0.28345	0.33964	0.36012	0.30708	0.15704	0.28434	0.19276	0.2034	0.084619	0.48803	0.51556	0.10908	0.30606	-0.70625	-0.53542	-0.38542	-1.3896	-0.275	-0.69583	-1.2854	-0.5125	-0.9	-0.575	-0.42708	-1.3625	-0.4375	-0.70833	-0.90208	-0.1375	55.239	228.657	129.975	-76.131	204.278	253.151	209.022	-9.510	61.018	274.720	226.432	208.031	199.848	-32.322	2.098	209.077	0.00016954	0.00034545	8.4889e-05	1400.2	5.3098e-06	3.7111e-06	1392.9	372.82	3.3925e-06	5.1027e-06	423.69	139.35	121.53	41.552	3.1773e-06	50.999	0.00047614	0.00049481	0.00013726	1412.2	5.3584e-06	5.434e-06	1405.4	377.94	5.3848e-06	5.3373e-06	428.28	142.08	124.4	42.576	5.3692e-06	52.231	276.864	26.822	-13.353	-68.217	116.460	93.611	-68.623	-64.097	89.180	62.498	-64.873	-59.859	-59.558	-55.042	98.207	-55.774	-8191	255	
14200.512	1	1	0	0	0.097493	0.12209	0.059458	0.16537	0.255	0.1468	0.097289	0.21477	0.29819	0.075647	0.23511	0.26741	0.087751	0.33248	0.28844	0.15739	-0.59167	-0.57917	-0.3125	-1.4583	-0.56667	-0.55208	-1.2833	-0.475	-0.79792	-0.63542	-0.30208	-1.2479	-0.64583	-0.56042	-1.2375	-0.15833	100.312	71.504	-27.495	204.697	149.916	201.490	108.507	172.858	-13.612	172.971	270.435	99.799	185.631	229.356	-69.109	268.650	0.00016562	0.00060823	0.00020001	1398.4	6.7857e-06	2.2551e-06	1400.8	372.29	4.0473e-06	3.631e-06	423.83	139.25	122.11	41.461	3.1447e-06	51.523	0.00047194	0.00049228	0.00013369	1411.4	5.3532e-06	5.3358e-06	1407.7	378.03	5.3074e-06	5.3002e-06	429.03	142.3	124.28	42.504	5.3233e-06	52.475	259.241	29.813	3.567	-68.819	115.957	36.488	-68.800	-64.024	103.845	28.739	-64.719	-59.970	-59.466	-55.045	74.570	-56.000	-8191	255	
14200.610	1	1	0	0	0.13043	0.17015	0.1943	0.3679	0.18679	0.1005	0.3044	0.11008	0.079424	0.14343	0.15298	0.10953	0.25764	0.38701	0.22925	0.24428	-0.49792	-0.79583	-0.13333	-1.2896	-0.575	-0.47083	-1.2812	-0.3375	-0.87708	-0.7375	-0.39375	-1.2042	-0.5875	-0.36875	-1.3271	-0.56042	190.920	218.568	249.896	234.381	122.596	67.752	195.263	201.775	272.059	140.666	-65.440	261.404	194.179	274.936	55.567	169.935	0.00010484	0.00053969	0.00015164	1401.5	1.234e-06	7.2978e-06	1396.1	372.47	3.8272e-06	4.1523e-06	423.95	139.73	121.9	41.792	4.5942e-06	51.222	0.00046968	0.00049021	0.00013549	1412.1	5.354e-06	5.3065e-06	1407.3	378.02	5.1722e-06	5.3436e-06	428.97	142.46	124.48	42.586	5.317e-06	52.296	235.738	40.460	19.352	-68.681	141.581	68.166	-68.760	-64.212	63.419	69.183	-64.782	-60.026	-59.861	-55.430	54.268	-55.796	-8191	255	
14200.704	1	1	0	0	0.11613	0.12421	0.16123	0.021303	0.29607	0.082257	0.18293	0.2058	0.20248	0.21239	0.22074	0.10929	0.32725	0.3317	0.21499	0.091573	-0.44583	-0.99792	-0.1	-1.3208	-0.66667	-0.22083	-1.4042	-0.56875	-0.66042	-1.0688	-0.34792	-0.93125	-0.93542	-0.29792	-1.0542	-0.5875	120.140	200.700	-58.399	-45.515	153.445	150.509	210.183	162.165	142.683	40.083	227.073	21.308	-55.441	218.198	161.918	250.650	0.00019678	0.0003727	0.0001254	1404.4	5.9132e-06	2.7371e-06	1391.2	373.41	2.6434e-06	3.9296e-06	424.63	139.45	121.77	41.485	4.4523e-06	51.419	0.0004734	0.00048835	0.00013723	1412.6	5.3692e-06	5.3767e-06	1406.8	377.91	5.3667e-06	5.3825e-06	428.51	142.46	124.21	42.464	5.4158e-06	52.305	249.418	39.662	10.937	-68.871	71.471	68.950	-68.722	-64.114	66.849	44.938	-64.776	-59.803	-59.707	-55.393	85.341	-55.897	-8191	255	
14200.801	1	1	0	0	0.18964	0.17734	0.047981	0.41052	0.099075	0.072296	0.24827	0.13818	0.069414	0.14848	0.17352	0.34682	0.2691	0.19625	0.21592	0.19956	-0.21875	-1.1	-0.14583	-1.2083	-0.88333	-0.095833	-1.4167	-0.67292	-0.63333	-1.2917	-0.45	-0.96875	-1.15	-0.48542	-1.0438	-0.59583	62.478	-50.126	150.587	256.315	14.966	105.672	174.641	166.751	180.528	-63.853	248.021	207.926	46.176	-72.215	21.715	239.639	0.0001152	9.3192e-05	0.00013429	1398.5	8.1415e-06	3.0622e-06	1394.7	373.48	3.6207e-06	6.6594e-06	425.26	139.6	121.26	41.617	3.032e-06	51.25	0.0004859	0.00049287	0.00013898	1411.2	5.4139e-06	5.4773e-06	1407.9	378.13	5.5502e-06	5.4077e-06	429.69	142.25	124.34	42.548	5.3807e-06	52.373	273.932	-1.382	-8.950	-68.811	92.683	-14.499	-68.853	-64.295	38.807	120.676	-64.935	-60.085	-59.804	-55.296	84.813	-56.094	-8191	255	
14200.921	1	1	0	0	0.33749	0.17789	0.30357	0.22498	0.15873	0.13029	0.24911	0.18123	0.2502	0.24044	0.17298	0.14024	0.17643	0.10013	0.12796	0.25109	-0.0041667	-1.225	-0.225	-0.95625	-0.81458	-0.27083	-1.2708	-0.71667	-0.30208	-1.2083	-0.5625	-0.75208	-1.0938	-0.30833	-0.96458	-0.83125	78.799	-10.197	231.561	238.851	150.874	-74.703	165.090	242.249	211.580	-52.381	234.315	161.732	268.162	130.687	46.869	166.825	0.00013508	0.00037785	9.8936e-05	1396.8	6.2854e-06	4.8855e-06	1395.2	373.25	3.3116e-06	6.2258e-06	424.56	138.96	121.8	41.438	4.5325e-06	51.514	0.00048289	0.0004935	0.00013631	1411.5	5.4413e-06	5.5043e-06	1406.1	378.12	5.5434e-06	5.425e-06	429.21	142.21	124.4	42.494	5.4075e-06	52.431	274.169	5.712	17.715	-68.763	131.333	59.923	-68.591	-64.125	79.712	95.230	-64.913	-59.745	-59.608	-55.470	40.713	-56.039	-8191	255	
14201.017	1	1	0	0	0.18704	0.074183	0.25312	0.073826	0.30679	0.2739	0.10698	0.49998	0.1466	0.18523	0.1916	0.31918	0.19388	0.33439	0.14504	0.30408	0.1625	-1.1083	-0.27708	-0.97292	-1.0438	-0.22292	-1.2812	-0.775	-0.26667	-1.0625	-0.49375	-0.67083	-1.1521	-0.35	-0.92708	-0.88542	45.409	-3.352	59.358	220.303	5.368	220.236	-73.445	177.597	120.708	71.276	189.785	-60.258	74.530	219.918	1.717	162.867	0.00019757	0.00060078	0.00019792	1399.3	5.7555e-06	5.3668e-06	1397.4	371.46	2.3276e-06	4.4405e-06	423.29	139.88	121.74	41.539	3.4258e-06	51.327	0.00048736	0.00049719	0.0001387	1412.6	5.4597e-06	5.5732e-06	1406.6	377.84	5.5609e-06	5.4894e-06	428.7	142.24	124.34	42.491	5.4263e-06	52.415	240.484	17.290	-26.408	-68.851	95.427	41.116	-68.735	-64.150	92.451	80.713	-65.068	-60.368	-59.468	-55.385	18.925	-56.248	-8191	255	
14201.113	1	1	0	0	0.074616	0.23268	0.25329	0.13329	0.1378	0.096963	0.28392	0.26807	0.15825	0.0056505	0.14085	0.15296	0.345	0.12636	0.10178	0.17633	0.047917	-1.0812	-0.41667	-0.69792	-1.1479	-0.1875	-0.94792	-1.0875	-0.28333	-1.0521	-0.51875	-0.50208	-1.2	-0.50625	-0.81875	-1.125	1.631	246.900	234.755	266.036	-38.516	261.521	272.464	143.782	-28.165	2.461	-42.594	232.248	269.844	53.926	26.109	251.899	0.00014371	0.0008367	0.00012344	1403.3	6.8812e-06	4.8475e-06	1397.1	374.05	9.5644e-07	7.1e-06	424.06	139.6	121.65	41.735	6.4684e-06	51.024	0.00048926	0.00049484	0.00014162	1412.9	5.5048e-06	5.5806e-06	1406.9	378.47	5.5863e-06	5.4393e-06	429.41	142.49	124.38	42.586	5.6276e-06	52.322	271.640	24.508	33.643	-68.828	89.504	68.524	-68.676	-64.388	124.034	66.087	-64.683	-59.763	-59.504	-55.433	92.070	-55.853	-8191	255	
14201.210	1	1	0	0	0.10901	0.070922	0.39333	0.37183	0.18844	0.092478	0.19029	0.17366	0.26133	0.13065	0.33017	0.25305	0.16411	0.14132	0.011507	0.29217	0.19792	-1.0667	-0.54792	-0.52917	-0.97083	-0.40208	-0.93125	-1.2208	-0.30833	-0.99167	-0.59583	-0.43958	-1.4521	-0.5	-0.73958	-1.1271	-63.398	-53.906	-44.036	243.843	-9.073	94.511	261.930	268.765	-27.408	-43.517	236.858	209.580	221.950	157.682	-65.629	-60.963	0.00012737	0.00062762	0.00011359	1398.3	2.8551e-06	4.5912e-06	1394.5	371.86	2.9357e-06	5.4019e-06	425.33	138.46	121.76	41.702	1.7452e-06	51.374	0.00050093	0.00050171	0.00014053	1413.1	5.5907e-06	5.625e-06	1406.2	378.12	5.6289e-06	5.5322e-06	429.94	142.1	124.55	42.552	5.6191e-06	52.453	240.980	1.198	-17.811	-68.860	161.999	176.789	-68.790	-64.298	112.454	74.329	-64.894	-60.072	-59.642	-55.397	49.678	-55.890	-8191	255	
14201.330	1	1	0	0	0.16409	0.11916	0.11638	0.061708	0.24027	0.17291	0.03298	0.27405	0.14766	0.21818	0.34414	0.33925	0.23273	0.11996	0.14778	0.2103	0.18958	-1.1729	-0.67708	-0.38542	-1.1854	-0.41042	-0.84375	-1.2208	-0.34792	-1.1396	-1.0458	-0.28333	-1.3083	-0.46875	-0.32083	-1.0438	-2.685	127.251	-39.608	244.749	143.313	228.361	210.027	269.548	-51.578	43.262	229.048	215.873	267.361	246.766	46.805	59.908	0.00013645	0.00072157	4.4432e-05	1395.2	9.3535e-06	7.3207e-06	1393.7	373.1	1.7836e-06	2.8848e-06	423.56	139.26	121.94	41.907	4.6324e-06	51.682	0.00049353	0.00050497	0.00014047	1411.3	5.5463e-06	5.5095e-06	1408.6	378.9	5.5299e-06	5.5045e-06	429.59	142.29	124.56	42.585	5.5933e-06	52.564	229.209	-21.007	82.266	-68.897	85.840	75.027	-68.910	-64.186	36.380	113.128	-65.109	-60.120	-59.540	-55.317	147.004	-55.991	-8191	255	
14201.402	1	1	0	0	0.17129	0.10683	0.1014	0.12965	0.046541	0.23768	0.28245	0.28936	0.27713	0.10594	0.38765	0.049032	0.32943	0.22423	0.24344	0.13976	0.12083	-0.80833	-1.0604	-0.31667	-1.1646	-0.55208	-0.66875	-1.3	-0.34167	-0.87292	-1.1646	-0.28958	-1.2479	-0.7625	-0.40208	-1.0833	216.176	268.205	164.098	-12.755	245.889	157.565	149.799	157.446	121.470	60.847	212.356	145.449	262.073	254.099	65.296	30.564	0.00016244	0.00041326	0.00015052	1403.4	8.16e-06	3.4113e-06	1391.9	372.37	1.8379e-06	8.7021e-06	423.97	138.58	122	41.516	9.8142e-07	51.657	0.00049461	0.00050496	0.00014157	1415	5.4694e-06	5.5283e-06	1409	377.97	5.5393e-06	5.5783e-06	429.73	142.16	124.44	42.538	5.6168e-06	52.549	267.738	0.618	-7.354	-68.812	45.492	70.463	-68.718	-64.222	123.281	54.349	-64.971	-59.906	-59.793	-55.559	149.780	-56.080	-8191	255	
14201.496	1	1	0	0	0.26541	0.11932	0.16444	0.19218	0.089747	0.26331	0.3105	0.12626	0.090521	0.26884	0.12532	0.22444	0.1997	0.080315	0.20062	0.57749	0.041667	-0.84792	-1.0667	-0.53125	-0.98333	-0.65833	-0.70208	-1.35	-0.39792	-0.64167	-1.3125	-0.51875	-1.15	-0.88542	-0.1875	-1.2896	125.978	42.935	190.580	153.154	-26.888	17.251	158.373	216.578	135.264	154.995	3.397	224.404	255.545	179.410	62.461	208.050	0.00015215	0.00038323	0.00012921	1402.7	3.755e-06	9.5558e-06	1399	373.91	2.1546e-06	4.1081e-06	423.5	138.93	121.78	41.556	3.8276e-06	51.593	0.00049348	0.00051302	0.00014011	1415.5	5.4698e-06	5.6663e-06	1409.4	378.7	5.4529e-06	5.5639e-06	429.3	142.16	124.46	42.508	5.4612e-06	52.542	254.881	25.551	-4.413	-68.832	68.624	126.473	-68.845	-64.080	48.378	115.523	-64.928	-60.036	-59.431	-55.334	121.612	-56.135	-8191	255	
14201.592	1	1	0	0	0.22611	0.21197	0.23195	0.29189	0.13322	0.15163	0.21183	0.22104	0.19719	0.042065	0.20082	0.23696	0.13683	0.093504	0.1825	0.34015	-0.25625	-0.425	-1.2646	-0.48542	-0.9375	-0.95	-0.58542	-1.3646	-0.525	-0.72708	-1.3042	-0.375	-1.2437	-1.0625	-0.24583	-1.2563	58.331	-15.017	39.532	187.568	104.254	93.780	226.872	213.709	204.710	273.488	218.337	154.733	-79.572	4.678	54.100	-81.200	0.00016985	0.00056403	8.8021e-05	1406.5	4.1804e-06	2.2269e-06	1392.4	373.64	5.0498e-06	2.3196e-06	425.92	139.19	122.08	41.537	2.9598e-06	51.414	0.00048906	0.00050749	0.00014025	1415.2	5.4393e-06	5.5685e-06	1406.9	378.69	5.6e-06	5.5413e-06	429.3	142.14	124.66	42.568	5.5065e-06	52.56	268.966	-19.471	-27.751	-68.802	101.327	70.422	-68.765	-64.019	115.720	90.395	-64.724	-60.216	-59.540	-55.420	105.626	-55.880	-8191	255	
14201.713	1	1	0	0	0.27724	0.28795	0.2705	0.15901	0.12225	0.25174	0.11791	0.2847	0.21706	0.24829	0.081074	0.16946	0.16617	0.11504	0.23335	0.22267	-0.125	-0.42708	-1.2313	-0.55625	-1.0438	-0.90208	-0.56042	-1.4104	-0.62917	-0.35417	-1.1104	-0.36667	-0.89167	-0.9375	-0.19375	-1.1521	275.236	196.233	-18.664	-3.226	252.067	90.873	225.180	216.292	-77.609	96.213	124.251	173.843	250.002	151.552	27.385	25.387	0.00013989	0.0004835	0.00013464	1397.5	3.6335e-06	2.0475e-06	1400.3	373.94	2.9691e-06	5.4438e-06	424.46	139.46	121.72	41.623	4.1354e-06	51.501	0.00049021	0.00049698	0.00013546	1414	5.4673e-06	5.4816e-06	1410.1	379.28	5.4906e-06	5.4641e-06	429.51	142.34	124.41	42.589	5.5456e-06	52.523	245.543	20.587	-11.041	-68.885	143.397	68.883	-68.764	-64.236	53.305	130.290	-64.967	-59.948	-59.678	-55.425	108.675	-55.933	-8191	255	
14201.809	1	1	0	0	0.2057	0.18535	0.31869	0.17217	0.046816	0.1508	0.33252	0.49956	0.23371	0.10106	0.28165	0.1777	0.10282	0.26623	0.098099	0.19919	-0.28125	-0.4625	-1.0562	-0.56042	-0.54792	-0.97917	-0.55417	-1.1854	-0.64792	-0.24792	-1.375	-0.59792	-0.88333	-0.94375	-0.34792	-1.0354	16.075	191.152	263.467	214.177	246.930	136.594	256.544	229.955	107.968	164.033	211.979	150.594	10.667	276.929	121.375	-40.945	0.00016928	0.00045744	0.00019265	1402.8	5.0901e-06	5.1575e-06	1396.4	372.96	4.2021e-06	7.4945e-06	425.33	139.23	122.24	41.749	3.7912e-06	51.8	0.00048859	0.00050484	0.00013811	1414.4	5.547e-06	5.5738e-06	1409	378.73	5.5642e-06	5.5385e-06	430.1	142.4	124.51	42.645	5.4447e-06	52.644	263.770	-35.641	8.024	-68.781	78.362	72.168	-68.824	-64.054	89.903	90.761	-64.851	-60.092	-59.523	-55.243	78.606	-55.987	-8191	255	
14201.905	1	1	0	0	0.11237	0.12693	0.12544	0.17257	0.1914	0.14799	0.17384	0.034495	0.24124	0.033657	0.19821	0.15923	0.14841	0.24669	0.36281	0.18827	-0.66042	-0.24583	-0.99167	-0.78125	-0.52292	-1.2229	-0.60625	-0.99167	-0.79792	-0.27917	-1.4229	-0.87708	-0.52083	-1.2313	-0.31667	-1.0479	33.412	-66.936	241.174	248.678	143.925	90.624	201.392	204.966	-47.652	-40.074	201.479	274.096	267.432	170.472	66.855	190.437	0.00014404	0.00052781	7.9276e-05	1407.2	3.2195e-06	5.0818e-06	1398.9	374.35	3.5902e-06	2.7248e-06	424.09	139.07	121.82	41.654	3.9291e-06	51.541	0.00048542	0.00049784	0.00013387	1414.3	5.4349e-06	5.3507e-06	1408	379.44	5.4479e-06	5.4065e-06	429.57	142.36	124.47	42.633	5.3905e-06	52.447	267.142	7.673	49.565	-68.984	100.272	94.816	-68.872	-64.073	70.325	25.280	-64.918	-60.102	-59.610	-55.456	37.161	-56.115	-8191	255	
14202.002	1	1	0	0	0.24282	0.086047	0.23766	0.44326	0.057327	0.10294	0.25729	0.15312	0.14606	0.41971	0.12198	0.22764	0.196	0.077276	0.15321	0.1745	-0.525	-0.19375	-1.1833	-0.83125	-0.43542	-1.1583	-0.51875	-0.93958	-1.125	-0.36458	-1.2646	-0.75208	-0.38125	-1.3937	-0.45625	-1.0083	148.836	263.249	-37.283	237.336	266.549	219.803	219.559	-80.190	124.537	189.810	49.336	258.064	-23.425	176.056	-60.020	153.975	0.00017273	0.00055603	0.00016808	1402.4	3.1136e-06	7.6984e-06	1398.2	374.72	5.7163e-06	4.1588e-06	423.75	138.98	122	41.674	5.4946e-06	51.543	0.00047976	0.00049214	0.00013359	1414.6	5.3633e-06	5.4129e-06	1407.2	379.3	5.3121e-06	5.3596e-06	428.87	142.3	124.46	42.59	5.3297e-06	52.507	254.531	-4.759	5.284	-69.079	104.001	93.986	-68.826	-64.044	51.484	54.070	-64.712	-59.965	-59.776	-55.084	48.836	-55.920	-8191	255	
14202.098	1	1	0	0	0.10277	0.20713	0.17427	0.15193	0.044084	0.27602	0.087515	0.16496	0.15345	0.020996	0.45301	0.21871	0.12707	0.37361	0.016627	0.16396	-0.69583	-0.23333	-0.90625	-0.98958	-0.55208	-1.1083	-0.79792	-0.82083	-1.0979	-0.36875	-1.0896	-0.96875	-0.38542	-1.1708	-0.275	-0.63333	-70.617	74.077	119.527	-76.780	-70.081	56.037	208.290	266.769	32.689	266.934	213.540	-5.536	-51.575	-66.350	-18.157	-28.893	0.00017138	0.00083057	3.0665e-05	1405.6	6.394e-06	5.0298e-06	1397.3	374.17	1.347e-06	3.3955e-06	424.31	139.13	122.09	41.71	3.0293e-06	51.913	0.00047045	0.00048209	0.00013289	1413.2	5.38e-06	5.2114e-06	1410.2	379.19	5.2779e-06	5.332e-06	430.33	142.43	124.53	42.633	5.3128e-06	52.654	247.633	0.296	-21.461	-68.853	96.022	37.055	-68.743	-64.172	162.532	47.975	-64.533	-59.908	-59.716	-55.150	92.934	-55.792	-8191	255	
14202.194	1	1	0	0	0.18485	0.15336	0.087809	0.11893	0.29312	0.012041	0.12875	0.20149	0.16948	0.11007	0.16572	0.13025	0.22391	0.014282	0.17937	0.22322	-0.70833	-0.17708	-1.1146	-1.0417	-0.26042	-1.1313	-0.75417	-0.63125	-1.2167	-0.19792	-1.0167	-1.0042	-0.45833	-1.3375	-0.6875	-0.31875	274.333	136.418	-39.351	208.476	229.920	176.566	179.986	-79.359	219.692	204.552	233.518	-68.577	197.134	-21.440	-28.998	174.062	0.00019955	0.00053533	0.00016598	1404.8	5.7956e-06	8.7845e-06	1404.4	375.11	4.352e-06	3.3153e-06	424.37	139.31	122.27	41.649	1.9178e-06	51.518	0.00046869	0.00048239	0.00013448	1415.5	5.2429e-06	5.2346e-06	1410.7	379.34	5.1952e-06	5.3128e-06	429.76	142.15	124.76	42.632	5.2371e-06	52.478	260.542	9.279	-7.185	-68.968	252.139	80.247	-68.828	-64.124	75.002	91.047	-64.728	-60.073	-59.417	-55.394	67.594	-55.907	-8191	255	
14202.290	1	1	0	0	0.21678	0.25539	0.07273	0.26985	0.32306	0.030394	0.38966	0.17608	0.21758	0.14339	0.29563	0.35102	0.34255	0.17462	0.19907	0.29356	-0.80625	-0.33125	-0.75833	-1.0771	-0.16667	-1.2083	-0.86667	-0.50833	-1.1021	-0.61667	-0.73125	-1.0312	-0.35625	-1.1938	-0.68125	-0.48958	179.080	203.294	103.563	240.179	268.261	28.599	157.393	131.322	-60.601	-40.627	194.589	213.931	276.257	-66.468	225.511	264.165	0.00017292	0.00051626	0.0001415	1404.4	3.4807e-06	7.5376e-06	1400.6	374.44	1.172e-06	5.5564e-07	425.04	139.53	121.81	41.776	4.9317e-06	51.694	0.00046374	0.00048049	0.00013391	1416.5	5.2576e-06	5.2178e-06	1411.2	379.26	5.2081e-06	5.3352e-06	430.44	142.42	124.54	42.671	5.2763e-06	52.527	248.627	8.468	32.547	-68.854	116.248	72.403	-68.776	-64.318	53.020	252.838	-64.849	-59.759	-59.790	-55.155	80.590	-55.810	-8191	255	
14202.411	1	1	0	0	0.10467	0.22412	0.20456	0.055011	0.16026	0.17073	0.39338	0.31702	0.16343	0.32832	0.13943	0.17636	0.30216	0.21326	0.35638	0.094402	-0.78125	-0.4	-0.66875	-1.2188	-0.052083	-0.93958	-1.0771	-0.4	-1.025	-0.41667	-0.5	-0.93333	-0.21042	-1.05	-0.83958	-0.22708	252.093	223.029	-79.659	31.435	97.829	100.436	207.970	-69.260	76.803	-44.813	186.775	230.887	-81.480	-27.905	178.390	-6.172	0.00019011	0.00060523	0.00016499	1401.5	5.1743e-06	5.7136e-06	1396.8	373.99	1.5209e-06	4.0678e-06	423.39	139.41	122.23	41.714	3.198e-06	51.636	0.00046929	0.00047714	0.00013162	1413.7	5.336e-06	5.1533e-06	1409.1	379.07	5.1891e-06	5.2084e-06	429.01	142.56	124.75	42.59	5.2278e-06	52.541	241.181	-38.811	45.011	-68.994	141.575	29.213	-69.005	-64.090	158.024	85.531	-64.781	-60.031	-59.458	-55.426	56.225	-55.957	-8191	255	
14202.505	1	1	0	0	0.21028	0.18612	0.18031	0.16416	0.24399	0.22834	0.10317	0.26824	0.17171	0.17491	0.2035	0.49967	0.2054	0.13249	0.35294	0.2259	-0.825	-0.32292	-0.55208	-1.3	-0.32292	-0.925	-1.1042	-0.44167	-1.3771	-0.58542	-0.6125	-1.2687	-0.47292	-0.74375	-0.91875	-0.32708	251.441	56.597	-6.435	226.486	66.971	218.988	274.478	-69.425	161.457	176.606	268.963	207.484	257.791	249.003	270.496	209.221	0.00017152	0.00060137	0.00019387	1403.6	4.6131e-06	7.6647e-06	1399	373.7	2.2446e-06	6.4248e-06	424.16	139.89	121.9	41.656	3.6732e-06	51.608	0.0004663	0.00048048	0.00013276	1415.1	5.2258e-06	5.2301e-06	1408.8	379.05	5.2581e-06	5.3372e-06	429.08	142.47	124.41	42.583	5.226e-06	52.546	276.070	0.838	22.184	-68.805	99.212	81.161	-68.881	-64.110	-30.228	79.689	-64.698	-60.254	-59.596	-55.358	25.598	-55.839	-8191	255	
14202.601	1	1	0	0	0.17309	0.056141	0.10009	0.27706	0.11995	0.1556	0.1495	0.13676	0.14956	0.15615	0.11867	0.28448	0.22464	0.33155	0.29459	0.19634	-0.68125	-0.62708	-0.28958	-1.5792	-0.37292	-0.64375	-1.2917	-0.40833	-1.0958	-0.76458	-0.53958	-1.2792	-0.57083	-0.7875	-1.0646	-0.25208	74.386	63.822	244.301	194.123	5.283	205.417	-75.821	254.203	210.727	213.764	217.390	150.952	-66.074	140.265	21.680	158.617	0.00014639	0.00058327	0.00021356	1405.5	5.6329e-06	4.0841e-06	1398.4	374.06	8.0748e-07	3.7375e-06	425.18	139.54	121.92	41.81	5.4651e-06	51.651	0.0004652	0.0004736	0.00013153	1416.4	5.2455e-06	5.183e-06	1408	379.37	5.231e-06	5.2333e-06	429.61	142.38	124.71	42.669	5.258e-06	52.555	277.524	30.263	-35.906	-68.825	96.928	64.699	-68.763	-64.148	142.155	53.688	-64.518	-60.216	-59.609	-55.014	136.843	-56.093	-8191	255	
14202.697	1	1	0	0	0.14763	0.10815	0.10211	0.32532	0.01328	0.060226	0.43627	0.11976	0.2525	0.070163	0.34997	0.29034	0.22482	0.31026	0.21384	0.18459	-0.52708	-0.71875	-0.25208	-1.3167	-0.49583	-0.50417	-1.2667	-0.28958	-0.88958	-0.88333	-0.23125	-1.0896	-0.68542	-0.63333	-1.1167	-0.28125	273.450	148.823	-34.792	210.025	40.413	69.848	199.903	274.582	-9.613	68.668	251.019	-37.664	-10.479	-50.790	160.018	270.247	0.00019369	0.00042711	6.9139e-06	1403.8	4.9832e-06	2.9416e-06	1400.8	374.21	2.3977e-06	4.4132e-06	423.73	139.5	121.54	41.656	2.5524e-06	51.571	0.00045669	0.00047882	0.00013236	1415.5	5.1925e-06	5.2689e-06	1408.6	379.17	5.2442e-06	5.2737e-06	428.74	142.6	124.29	42.605	5.1928e-06	52.536	263.908	-79.124	-56.038	-68.757	75.702	81.944	-68.852	-64.079	-47.531	48.488	-64.672	-60.058	-59.611	-55.347	16.598	-55.813	-8191	255	
14202.793	1	1	0	0	0.21105	0.28165	0.29006	0.41989	0.32864	0.09634	0.091971	0.44524	0.32154	0.20424	0.19165	0.27186	0.24802	0.27718	0.056485	0.37631	-0.45625	-0.87708	-0.077083	-1.3729	-0.72708	-0.51458	-1.5	-0.44792	-0.8625	-1.0292	-0.40208	-1.4583	-0.62083	-0.475	-1.2667	-0.43958	76.555	-10.430	277.371	266.168	161.114	224.896	194.780	210.267	179.478	274.485	135.191	246.866	-70.667	272.947	108.385	173.840	0.00023472	0.0008485	0.0001672	1408.2	5.3451e-06	4.0707e-06	1396.8	373.56	4.4649e-06	4.3669e-06	424.19	139.58	122.53	41.586	3.6833e-06	51.481	0.00046747	0.00048291	0.00013321	1415.5	5.34e-06	5.2775e-06	1410.2	378.89	5.3746e-06	5.2897e-06	429.23	142.33	124.62	42.523	5.2537e-06	52.452	267.987	34.373	10.075	-68.743	97.488	92.211	-68.732	-64.204	97.460	69.664	-65.025	-60.074	-59.439	-55.278	85.896	-56.347	-8191	255	
14202.890	1	1	0	0	0.1386	0.17207	0.053016	0.3466	0.043634	0.085919	0.36188	0.2292	0.34594	0.033088	0.10527	0.19867	0.21545	0.12158	0.087998	0.17943	-0.26875	-1.2687	-0.32917	-1.0542	-0.85625	-0.42083	-1.2646	-0.58542	-0.62917	-1.2167	-0.53542	-1.0979	-0.80208	-0.29792	-1.1542	-0.45208	39.192	257.392	41.690	243.344	86.300	-69.386	242.603	130.578	167.689	-19.096	52.989	225.441	-80.174	175.932	79.497	242.107	0.00017051	0.00066888	5.5277e-05	1407	3.4634e-06	2.4313e-06	1402.1	373.57	3.7771e-06	8.2488e-06	425.45	139.67	121.97	41.647	6.0682e-06	51.57	0.00047545	0.00049105	0.00013424	1415.9	5.3803e-06	5.381e-06	1410.3	379.27	5.4119e-06	5.3398e-06	429.86	142.5	124.54	42.602	5.2928e-06	52.494	270.372	-20.962	-31.384	-68.862	129.777	71.096	-68.923	-64.121	39.632	48.920	-64.712	-60.011	-59.282	-55.111	41.837	-56.102	-8191	255	
14203.010	1	1	0	0	0.11636	0.092503	0.031612	0.36334	0.4155	0.23372	0.098637	0.25904	0.086261	0.21375	0.49802	0.30872	0.16289	0.31947	0.13505	0.29365	-0.20833	-1.3021	-0.22083	-1.0625	-0.77917	-0.23333	-1.2896	-0.45417	-0.58125	-1.0938	-0.57708	-0.86667	-1.075	-0.2375	-1.025	-0.78125	134.190	97.129	-75.863	-80.246	233.939	224.691	-28.391	-68.795	91.799	237.433	238.172	269.399	202.673	-40.878	243.463	267.821	0.00011568	0.00052752	0.00014953	1404.3	5.1646e-06	7.4049e-06	1398.8	373.1	7.4118e-07	4.5832e-06	426.13	139.07	122.07	41.608	3.6478e-06	51.426	0.00047334	0.00047792	0.00013683	1416	5.3593e-06	5.3372e-06	1409.3	378.85	5.3885e-06	5.2273e-06	429.99	142.38	124.49	42.563	5.2553e-06	52.484	275.178	-35.161	-15.341	-68.780	97.384	79.769	-68.713	-64.030	210.207	48.786	-64.933	-60.231	-59.576	-55.179	95.374	-56.181	-8191	255	
14203.106	1	1	0	0	0.20572	0.15912	0.14293	0.49122	0.15108	0.16563	0.44293	0.33297	0.18117	0.05036	0.2499	0.10204	0.13303	0.10122	0.18786	0.33304	-0.010417	-1.1042	-0.34375	-0.86042	-0.80417	-0.375	-1.1938	-0.85208	-0.39167	-1.0729	-0.39792	-0.82917	-1.2771	-0.20833	-0.99792	-0.81458	160.285	-33.570	259.165	201.579	-12.326	5.215	228.219	267.963	252.078	115.121	-29.606	230.210	235.654	265.420	189.297	209.762	0.00023306	0.00049972	0.00013746	1404.5	4.1424e-06	9.8481e-06	1397.3	374.01	3.5057e-06	3.6388e-06	422.4	139.48	121.85	41.557	3.2682e-06	51.347	0.00047032	0.00047525	0.00013285	1415	5.2502e-06	5.2268e-06	1409.2	378.8	5.2622e-06	5.2172e-06	428.36	142.4	124.32	42.54	5.2054e-06	52.421	263.550	45.455	-38.262	-68.844	82.292	96.346	-68.790	-64.300	105.559	80.331	-64.626	-60.046	-59.585	-55.354	59.663	-55.942	-8191	255	
14203.203	1	1	0	0	0.077866	0.1215	0.19009	0.37164	0.08776	0.17438	0.23827	0.25322	0.12427	0.11913	0.22046	0.29893	0.077465	0.054231	0.17961	0.51509	0.14583	-1.1917	-0.41042	-0.8	-1.1042	-0.27917	-1.2083	-0.72708	-0.31042	-1.0625	-0.49375	-0.60625	-1.3417	-0.27292	-0.85625	-0.925	-27.816	273.793	-21.701	220.635	-55.065	107.925	-16.042	-81.889	205.667	207.047	194.431	277.420	190.675	91.935	132.833	259.053	0.00015574	0.00053949	0.00016117	1401.3	7.576e-06	7.637e-06	1397	374.56	1.7052e-06	2.3552e-06	425.27	139.61	121.88	41.654	5.8384e-06	51.571	0.00046849	0.00047533	0.00013369	1414	5.166e-06	5.184e-06	1408.2	378.75	5.149e-06	5.1147e-06	429.2	142.34	124.36	42.52	5.1372e-06	52.372	250.089	70.000	14.799	-68.718	101.822	72.811	-68.855	-64.181	102.993	97.503	-64.714	-60.063	-59.586	-55.287	92.110	-56.207	-8191	255	
14203.274	1	1	0	0	0.029083	0.2304	0.18481	0.27207	0.26361	0.095423	0.11382	0.27306	0.34604	0.13601	0.23866	0.090924	0.35756	0.14046	0.095427	0.27714	0.00625	-1.0312	-0.64583	-0.6	-1.2146	-0.51458	-0.95417	-1.0542	-0.014583	-1.2042	-0.67292	-0.47708	-1.2125	-0.41667	-0.725	-1.0479	56.448	227.316	21.435	-20.863	58.618	72.507	22.243	216.740	-21.354	-41.172	196.648	142.559	261.530	177.507	276.171	235.898	0.00020446	0.00033455	0.00011641	1398	3.5912e-06	7.5498e-06	1395.1	373.78	3.1411e-06	1.4997e-06	423.99	139.79	121.52	41.655	2.4816e-06	51.43	0.00045938	0.00046098	0.00012972	1411.8	5.0124e-06	5.1409e-06	1406.5	378.63	5.1071e-06	5.1034e-06	428.88	142.38	124.4	42.596	5.0701e-06	52.435	259.387	-19.303	20.682	-68.840	144.403	115.974	-68.716	-64.329	89.874	42.862	-64.871	-59.650	-59.585	-55.366	108.520	-56.173	-8191	255	
14203.370	1	1	0	0	0.093492	0.20331	0.098291	0.33023	0.019351	0.22699	0.3676	0.12409	0.28057	0.091265	0.38995	0.074798	0.1567	0.14782	0.13787	0.42717	0.15417	-1.0792	-0.56875	-0.63125	-1.2208	-0.20625	-0.87292	-1.1208	-0.125	-0.91458	-0.72708	-0.14583	-1.2208	-0.49167	-0.54792	-1.2854	-2.590	52.914	109.902	249.006	-77.777	-0.655	232.448	116.287	244.334	164.069	27.967	232.477	-45.708	237.769	131.865	256.442	0.00018589	0.00048497	0.0001114	1402.1	7.5151e-06	7.9605e-06	1401.9	373.34	1.6125e-06	8.8721e-06	424.22	139.73	122.29	41.812	6.2071e-06	51.4	0.00045397	0.00046476	0.00013044	1412.4	5.1079e-06	5.0777e-06	1407.6	378.59	5.2171e-06	5.1096e-06	429.16	142.38	124.61	42.605	4.9987e-06	52.451	270.017	24.653	3.417	-68.605	88.469	63.564	-68.722	-64.140	-32.203	71.238	-65.002	-59.661	-59.416	-55.070	75.730	-56.250	-8191	255	
14203.489	1	1	0	0	0.19676	0.12023	0.054742	0.14066	0.23249	0.09631	0.20627	0.29996	0.19369	0.17453	0.041042	0.34865	0.1459	0.26768	0.054311	0.29427	0.24583	-0.76042	-0.59375	-0.45208	-1.1063	-0.3625	-0.85208	-1.3	-0.24792	-0.825	-0.86667	-0.24792	-1.0792	-0.5625	-0.39375	-1.1187	76.116	98.977	151.159	263.684	55.138	19.685	240.432	-73.381	-51.579	-81.812	80.267	232.079	-45.510	227.375	21.408	228.383	0.00020362	0.00046185	0.00014341	1400.1	3.288e-06	2.0724e-06	1398	373.79	2.523e-06	3.5587e-06	426.41	139.56	122.39	41.785	3.6702e-06	51.912	0.00045283	0.00046072	0.0001279	1413.7	5.0201e-06	4.9715e-06	1409.3	379.32	4.9826e-06	4.951e-06	430.45	142.37	124.73	42.634	4.9585e-06	52.61	268.765	8.342	50.265	-68.573	62.708	138.250	-68.553	-64.108	88.716	79.947	-64.768	-60.043	-59.517	-55.200	37.116	-56.216	-8191	255	
14203.585	1	1	0	0	0.15021	0.15461	0.23046	0.26024	0.061037	0.16046	0.35578	0.20274	0.18727	0.094074	0.44244	0.074347	0.31111	0.23155	0.28504	0.32848	-0.09375	-0.925	-0.83542	-0.39375	-1.15	-0.675	-0.67708	-1.2521	-0.37292	-0.67083	-1.2375	-0.325	-1.1542	-0.56875	-0.32708	-1.1437	86.813	-71.186	119.768	265.365	88.370	130.220	204.592	249.032	-16.904	276.638	199.184	-62.634	193.695	-32.891	-27.868	199.622	0.00013002	0.00053204	9.2811e-05	1403.1	6.7473e-06	7.6069e-06	1401.5	375.65	1.5812e-06	2.2107e-06	425.43	139.8	122.94	41.538	4.2622e-06	51.693	0.00043991	0.00044291	0.00012264	1414.5	4.8794e-06	4.9414e-06	1408.5	379.54	4.9544e-06	4.8711e-06	430.05	142.46	124.88	42.629	4.9534e-06	52.656	246.434	-25.065	-1.572	-68.720	96.457	85.807	-68.577	-64.220	146.156	10.138	-64.845	-59.990	-59.384	-55.277	105.207	-55.710	-8191	255	
14203.682	1	1	0	0	0.21439	0.099729	0.17884	0.50497	0.17989	0.21221	0.17925	0.14126	0.18889	0.16725	0.040208	0.14687	0.19157	0.17306	0.21098	0.3526	0.11667	-0.83542	-0.96667	-0.25625	-1.0271	-0.63125	-0.34167	-1.2146	-0.36458	-0.58542	-0.96458	-0.32292	-0.91042	-0.7125	-0.066667	-1.2292	89.892	175.476	202.549	222.890	50.815	-20.979	225.225	-63.471	84.076	194.319	193.444	217.240	-3.423	-81.135	-44.175	251.664	0.00011339	0.00042976	0.00019632	1404.7	4.8634e-06	6.0621e-06	1399.7	375.15	2.5964e-06	4.3657e-06	425.42	139.7	121.92	41.769	5.4884e-06	51.613	0.00044516	0.00045653	0.00012342	1414.7	5.0033e-06	4.9243e-06	1409.4	379.52	4.9732e-06	4.9066e-06	430.14	142.49	124.61	42.621	4.8987e-06	52.591	-74.041	-21.064	-16.962	-68.765	66.562	132.447	-68.731	-64.366	93.857	68.195	-64.842	-60.071	-59.451	-55.277	63.638	-55.666	-8191	255	
14203.802	1	1	0	0	0.14664	0.25908	0.25543	0.29597	0.33405	0.17303	0.35398	0.2042	0.22019	0.089909	0.21558	0.14367	0.093943	0.087045	0.057413	0.14341	-0.18333	-0.52292	-1.0583	-0.28958	-0.95208	-1.0583	-0.40833	-1.3167	-0.48958	-0.41458	-1.2208	-0.44583	-0.83958	-0.91667	-0.18333	-1.3458	185.588	235.162	187.323	-75.947	221.785	267.299	189.389	228.163	80.980	-25.907	247.370	159.888	-76.456	191.883	-53.848	-37.462	0.00020692	0.00037284	0.00014998	1402	4.0253e-06	4.6719e-06	1394.6	374.39	2.6121e-06	5.0617e-06	424.85	139.66	122.2	41.615	4.7132e-06	51.578	0.00044138	0.00044281	0.00012359	1413	4.9128e-06	4.9552e-06	1408	379.26	4.9612e-06	4.8951e-06	429.86	142.7	124.68	42.605	4.9667e-06	52.567	254.098	-20.285	12.979	-68.769	88.556	84.183	-68.650	-64.043	134.624	65.570	-64.839	-59.866	-59.538	-55.172	106.825	-56.020	-8191	255	
14203.874	1	1	0	0	0.056516	0.2054	0.16634	0.43162	0.12652	0.16521	0.10384	0.21271	0.17811	0.1345	0.16499	0.11137	0.20191	0.13986	0.22528	0.22023	-0.19167	-0.33542	-1.2396	-0.45833	-0.80625	-0.96667	-0.33333	-1.1938	-0.49167	-0.4	-1.3167	-0.32083	-0.73333	-1.0021	-0.18542	-1.0354	31.620	262.420	129.226	-40.430	228.735	-51.337	262.251	226.928	-76.499	54.616	-31.838	258.159	71.524	156.933	258.336	264.425	0.00019367	0.00065242	6.6722e-05	1399.8	2.2857e-06	4.1515e-06	1395.5	373.96	1.1722e-06	7.8018e-06	425.18	140.51	122.14	41.954	2.461e-06	51.569	0.00044645	0.00045264	0.00012351	1413.1	4.932e-06	4.9407e-06	1408.6	379.08	4.9457e-06	4.9241e-06	429.69	142.9	124.89	42.741	4.9365e-06	52.492	250.747	31.781	16.865	-68.643	113.948	90.020	-68.654	-63.843	127.609	67.324	-64.774	-59.955	-59.273	-55.256	72.873	-55.850	-8191	255	
14203.970	1	1	0	0	0.34629	0.14464	0.30874	0.35358	0.19474	0.22105	0.43441	0.28813	0.17814	0.10042	0.082497	0.23777	0.15399	0.14134	0.3365	0.074666	-0.33958	-0.0020833	-1.0917	-0.48333	-0.53542	-1.0417	-0.44792	-1.1708	-0.89792	-0.30208	-1.1646	-0.44375	-0.57292	-1.1708	-0.27708	-0.83125	69.087	221.320	263.034	256.820	263.390	79.639	215.925	224.517	-42.206	190.273	151.255	253.689	91.270	9.735	22.756	238.155	0.0001468	0.0005925	0.00012508	1401.2	6.0375e-06	4.18e-06	1399.8	375.61	1.9951e-06	3.8186e-06	425.54	139.68	122.66	41.857	3.6882e-06	51.762	0.00044173	0.00045545	0.00012332	1414	4.8568e-06	4.8401e-06	1408.9	379.48	4.9182e-06	4.9391e-06	429.96	142.67	124.91	42.679	4.9072e-06	52.594	268.007	3.162	-23.103	-68.747	157.720	102.276	-68.722	-63.924	70.076	37.047	-64.779	-60.093	-59.484	-55.181	40.996	-55.620	-8191	255	
14204.091	1	1	0	0	0.1045	0.26164	0.067529	0.14054	0.12478	0.060406	0.13654	0.16142	0.1514	0.13049	0.21071	0.039708	0.20585	0.38356	0.088233	0.11417	-0.48125	-0.11875	-1.1979	-0.725	-0.53125	-1.2896	-0.46458	-0.91458	-0.97292	-0.18542	-1.0625	-0.57292	-0.37292	-1.4792	-0.09375	-0.92708	96.151	-77.770	248.639	256.233	32.307	-42.294	104.582	266.275	2.855	-29.896	-75.466	34.326	-81.084	221.567	183.962	202.549	0.00015078	0.00033622	0.00016624	1405.3	2.0605e-06	4.9699e-06	1399.7	375.04	2.486e-06	1.6851e-06	427.06	139.78	122.28	41.853	4.1315e-06	51.769	0.00044179	0.00044904	0.00012399	1415.6	4.8527e-06	4.8849e-06	1409.8	379.64	4.917e-06	4.8686e-06	431.19	142.72	125.07	42.66	4.8839e-06	52.658	251.912	7.304	5.097	-68.769	54.758	32.115	-68.883	-64.099	93.126	83.439	-64.779	-60.087	-59.238	-55.347	48.292	-55.760	-8191	255	
14204.187	1	1	0	0	0.1066	0.28196	0.19648	0.46123	0.053936	0.092484	0.2622	0.21294	0.2676	0.10499	0.14419	0.029391	0.23424	0.2355	0.19166	0.1306	-0.61458	0.020833	-1.0562	-0.74792	-0.35625	-1.2125	-0.41875	-0.93333	-1.0833	-0.39375	-1.1313	-0.80208	-0.45625	-1.2479	-0.47708	-0.60208	251.734	-31.132	128.766	219.337	34.600	-77.973	219.784	269.126	161.899	-21.560	145.664	-32.358	-61.921	-47.000	-65.747	-1.196	0.00014962	0.00047481	0.00018025	1402.9	4.4402e-06	2.751e-06	1398.4	374.78	3.062e-06	5.9817e-06	426.65	140.6	122.37	42.045	5.0972e-06	51.691	0.00043121	0.00044821	0.00012204	1417	4.9156e-06	4.9152e-06	1413.8	380.5	4.8267e-06	4.8532e-06	430.8	142.85	125.05	42.806	4.7697e-06	52.623	266.910	21.607	31.479	-68.898	118.793	124.125	-68.781	-63.818	105.547	70.183	-64.772	-59.919	-59.390	-55.489	49.908	-55.714	-8191	255	
14204.283	1	1	0	0	0.10381	0.059563	0.20833	0.23153	0.16602	0.27932	0.13478	0.0703	0.17942	0.12586	0.22304	0.17794	0.34709	0.097376	0.12804	0.089072	-0.60208	-0.24375	-0.96875	-0.85	-0.2125	-1.2958	-0.65	-0.75833	-1.1833	-0.064583	-1.1146	-1.1917	-0.3	-1.1812	-0.47083	-0.57917	270.149	156.384	-76.339	-62.624	257.428	-29.082	-29.912	260.050	162.076	138.723	-48.991	227.509	251.673	107.587	236.520	160.788	0.00012788	0.00054342	0.00016035	1411.5	3.0573e-06	6.2253e-06	1398.5	374.28	2.493e-06	4.8322e-06	425.63	140.06	122.34	42.067	2.0476e-06	51.649	0.00043131	0.0004436	0.00012187	1419.4	4.8318e-06	4.8286e-06	1412.9	379.46	4.8587e-06	4.7728e-06	430.75	142.87	125.18	42.797	4.8334e-06	52.65	259.317	4.287	30.404	-68.721	153.350	87.646	-68.762	-63.931	48.378	87.729	-64.506	-60.154	-59.300	-55.245	41.772	-55.900	-8191	255	
14204.402	1	1	0	0	0.11271	0.22361	0.11801	0.078131	0.12767	0.077248	0.34528	0.26621	0.17053	0.11234	0.11523	0.15746	0.084486	0.30058	0.12027	0.37677	-0.69167	-0.4375	-0.98333	-1.1729	-0.33125	-1.1917	-0.72292	-0.6875	-0.98333	-0.50833	-0.99167	-0.99375	-0.25	-1.0771	-0.68125	-0.27083	20.622	180.615	162.392	123.954	-32.052	179.661	207.508	213.084	117.555	-73.891	209.099	276.947	132.007	245.706	50.095	149.490	0.00011947	0.00042683	5.5968e-05	1406.1	4.4979e-06	7.0687e-06	1400	374.98	1.8671e-06	6.3954e-06	426.75	140.41	122.62	41.72	2.0591e-06	51.715	0.00043497	0.00044172	0.00012322	1417.2	4.9016e-06	4.8435e-06	1410.7	380.24	4.9024e-06	4.9002e-06	431.58	142.85	124.97	42.675	4.8389e-06	52.577	271.192	-39.852	-16.201	-68.861	48.572	61.585	-68.638	-64.037	55.696	96.342	-64.749	-59.890	-59.551	-55.094	131.201	-55.612	-8191	255	
14204.498	1	1	0	0	0.072171	0.16291	0.19249	0.29506	0.11604	0.11652	0.17018	0.11383	0.07485	0.068121	0.18245	0.12998	0.33237	0.22937	0.36638	0.21227	-0.74583	-0.29583	-0.6	-1.2812	-0.28958	-1.0646	-0.83125	-0.41042	-1.05	-0.40625	-0.70833	-1.2667	-0.32083	-0.95	-0.61667	-0.325	101.342	49.813	21.527	215.072	149.112	-21.249	113.183	271.326	220.070	140.064	259.197	-62.706	-49.887	-42.159	217.914	254.118	0.00016381	0.00062188	8.3049e-05	1405.1	1.914e-06	2.6121e-06	1402	374.93	2.0704e-06	4.1562e-06	426.44	140.31	122.08	42.043	6.1642e-06	51.794	0.00043509	0.000442	0.00012148	1416.2	4.9606e-06	4.7551e-06	1409.8	379.76	4.9705e-06	4.838e-06	430.3	142.86	124.95	42.8	4.9143e-06	52.616	260.586	20.955	-68.437	-68.772	7.167	41.330	-68.575	-63.877	73.764	32.306	-64.774	-60.016	-59.563	-55.298	91.897	-55.677	-8191	255	
14204.570	1	1	0	0	0.029309	0.23151	0.11936	0.12287	0.15266	0.12441	0.18801	0.17654	0.092889	0.17014	0.3088	0.32716	0.22049	0.15899	0.2774	0.15974	-0.79583	-0.36458	-0.43958	-1.375	-0.16875	-0.82083	-1.2	-0.60833	-1.0187	-0.5125	-0.72083	-1.4104	-0.29792	-1.0938	-0.76042	-0.48333	171.606	275.549	40.124	252.467	225.414	-20.647	215.976	152.871	-32.563	-78.041	233.807	213.795	204.743	246.959	73.249	-75.922	0.00012511	0.00035107	0.00016833	1403.3	8.5569e-07	9.4681e-06	1399.8	374.09	4.0959e-06	3.2278e-06	428.18	139.56	122.45	41.913	7.3254e-07	51.651	0.00043193	0.00044591	0.00012112	1416	4.9337e-06	4.8605e-06	1410.2	379.33	4.9089e-06	4.8771e-06	431.23	142.72	125.03	42.773	4.7873e-06	52.624	255.182	53.616	20.210	-68.917	133.431	105.599	-68.621	-64.007	101.649	93.920	-64.643	-60.054	-59.562	-55.243	170.569	-55.802	-8191	255	
14204.666	1	1	0	0	0.16284	0.045534	0.11174	0.40788	0.2437	0.14273	0.053092	0.48225	0.17762	0.21985	0.36636	0.12031	0.25326	0.095031	0.22986	0.13395	-0.85208	-0.44792	-0.375	-1.3583	-0.41458	-0.67292	-1.1833	-0.52083	-0.85208	-0.48125	-0.4	-1.4813	-0.39375	-0.63542	-1.05	-0.225	-36.845	24.086	111.521	245.551	237.400	-43.716	192.176	181.716	71.406	119.984	242.560	-10.777	15.165	248.093	269.663	155.365	0.0001864	0.00029393	0.00013047	1405.9	5.5904e-06	5.7604e-06	1400.7	373.78	2.1183e-06	3.1901e-06	426.37	140.58	122.38	41.95	6.1219e-06	51.911	0.00043338	0.00044062	0.00012158	1418.4	4.8378e-06	4.7995e-06	1411.9	379.32	4.8413e-06	4.816e-06	430.44	143.07	125.02	42.743	4.7914e-06	52.677	264.064	-12.045	-15.230	-68.679	65.736	27.829	-68.671	-64.212	63.536	63.002	-64.909	-59.933	-59.729	-55.257	30.887	-55.780	-8191	255	
14204.786	1	1	0	0	0.14847	0.19471	0.15542	0.55546	0.22973	0.10689	0.30594	0.02568	0.33824	0.46593	0.30047	0.14068	0.15621	0.098296	0.18167	0.19538	-0.63125	-0.71667	-0.325	-1.375	-0.275	-0.57083	-1.1792	-0.35417	-0.92708	-0.70208	-0.37917	-1.2479	-0.67292	-0.58542	-1.1396	-0.26667	35.068	-77.091	-22.291	242.982	4.447	9.546	232.034	150.767	37.482	-15.283	106.218	-48.527	123.888	1.448	218.925	171.882	0.0001737	0.00048911	0.00022099	1407.5	6.0437e-06	2.9536e-06	1395.9	374.74	9.9355e-07	3.676e-06	425.89	139.23	122.24	42.094	3.3929e-06	51.758	0.00042979	0.00044007	0.00012189	1419.2	4.8957e-06	4.8148e-06	1410.8	379.75	4.8466e-06	4.9345e-06	431.21	142.85	124.79	42.795	4.8104e-06	52.62	263.828	5.253	10.233	-68.723	120.402	69.867	-68.697	-63.996	15.851	110.550	-64.542	-59.883	-59.664	-55.153	93.030	-55.878	-8191	255	
14204.883	1	1	0	0	0.18816	0.1525	0.049359	0.14463	0.21818	0.16417	0.10168	0.10604	0.11357	0.14557	0.37641	0.1047	0.033188	0.036748	0.19271	0.14174	-0.575	-0.86042	-0.30208	-1.5208	-0.66042	-0.61875	-1.2437	-0.46042	-0.95625	-1	-0.11042	-1.4062	-0.7875	-0.60417	-1.2563	-0.35833	107.625	114.235	271.684	199.061	158.166	274.305	175.393	158.701	205.713	99.674	202.789	-61.724	102.400	-33.435	174.677	-21.142	0.0001517	0.00085136	0.00012803	1408.5	5.4325e-06	7.0346e-06	1403	375.42	2.5964e-06	4.8069e-06	427.24	140.67	121.96	41.875	5.8759e-06	51.951	0.00043878	0.00044462	0.00012311	1419	4.9142e-06	4.8615e-06	1412.3	379.88	4.9123e-06	4.7901e-06	430.85	143.24	124.93	42.751	4.8477e-06	52.644	255.065	9.730	10.496	-68.651	122.523	32.595	-68.679	-64.088	149.207	89.760	-64.501	-59.941	-59.313	-55.285	75.867	-56.128	-8191	255	
14204.979	1	1	0	0	0.22815	0.13144	0.38583	0.19403	0.11063	0.21934	0.28811	0.19924	0.068319	0.10311	0.060981	0.15911	0.29602	0.088088	0.083041	0.1741	-0.45208	-1.0438	-0.29167	-1.2521	-0.46875	-0.42917	-1.4708	-0.53958	-0.62083	-1.0979	-0.45	-1.1	-0.90208	-0.37083	-1.2375	-0.60417	166.875	126.583	14.554	-38.535	148.636	-2.449	199.234	239.972	38.947	-53.867	88.260	254.169	-68.507	-17.237	153.637	-78.492	0.00017445	0.00096377	0.00017762	1409.9	6.1238e-07	3.4498e-06	1397.9	374.45	3.4575e-06	7.8023e-06	426.46	140.38	123.34	41.908	1.5672e-06	51.404	0.00043597	0.00044473	0.00012386	1418.9	4.8317e-06	4.8125e-06	1411.9	379.13	4.8258e-06	4.8612e-06	430.93	142.85	125.19	42.773	4.9244e-06	52.625	270.100	-9.800	6.234	-68.679	94.463	94.508	-68.728	-64.162	119.934	34.881	-64.953	-59.913	-59.618	-55.137	-23.529	-55.947	-8191	255	
14205.075	1	1	0	0	0.22301	0.10762	0.063271	0.32004	0.25311	0.089398	0.12363	0.27221	0.23231	0.12621	0.37061	0.030762	0.15555	0.23556	0.10758	0.084742	-0.27917	-1.05	-0.16458	-1.2729	-0.62292	-0.20417	-1.5875	-0.5375	-0.6	-1.0854	-0.42917	-0.96458	-0.72292	-0.44167	-1.1562	-0.61458	-64.716	37.848	41.942	251.289	123.242	257.430	62.920	248.057	275.911	230.299	240.712	79.451	254.655	-78.273	240.399	143.362	0.00013999	0.00046415	8.4411e-05	1408.7	5.2451e-06	4.7044e-06	1399.4	375.22	3.199e-06	4.8974e-06	425.13	139.98	122.38	41.955	3.3861e-06	51.631	0.00043647	0.00044255	0.0001247	1417.4	4.8958e-06	4.8901e-06	1412.6	379.71	4.8105e-06	4.8581e-06	430.18	142.75	125.01	42.777	4.7814e-06	52.625	264.339	-0.332	44.889	-68.582	106.417	86.342	-68.797	-63.945	84.337	59.719	-64.683	-59.949	-59.384	-54.948	60.902	-56.037	-8191	255	
14205.171	1	1	0	0	0.18302	0.16239	0.054986	0.18436	0.19762	0.27979	0.1289	0.28434	0.114	0.20898	0.28453	0.1318	0.42998	0.062139	0.032265	0.17954	-0.16458	-1.0125	-0.26875	-1.0708	-0.78958	-0.15833	-1.3813	-0.73125	-0.57083	-1.2083	-0.56667	-0.94167	-0.99583	-0.27917	-1.1375	-0.78542	208.912	214.332	160.184	236.896	228.558	-74.784	222.518	-38.201	111.076	-28.654	260.393	206.202	255.473	-68.668	9.809	268.513	0.00017554	0.00038377	0.00019192	1405.1	4.399e-06	9.5946e-06	1401.5	374.61	1.7371e-06	4.7037e-06	425.89	140.17	122.61	41.954	4.7122e-06	51.641	0.00043796	0.00044033	0.00012485	1417	4.8644e-06	4.8991e-06	1413.6	379.46	4.8375e-06	4.8441e-06	430.15	142.85	125.08	42.745	4.7842e-06	52.652	255.451	2.142	0.829	-68.756	29.911	61.227	-68.582	-63.987	100.761	94.597	-64.693	-59.796	-59.586	-54.874	72.986	-55.841	-8191	255	
14205.267	1	1	0	0	0.10269	0.16225	0.058777	0.39119	0.32391	0.23702	0.12354	0.091217	0.1621	0.14305	0.27779	0.23543	0.048564	0.10842	0.092565	0.25781	0.025	-0.9375	-0.19167	-1.0063	-1.0604	-0.10417	-1.3208	-0.86458	-0.37292	-1.0896	-0.56875	-0.6125	-1.1979	-0.20208	-1.1	-0.83958	157.658	122.695	26.545	-70.900	81.637	261.615	254.727	-76.455	-31.618	-44.868	276.723	216.295	49.301	275.030	244.621	183.108	0.0001831	0.00054322	8.9463e-05	1406	3.9103e-06	1.571e-06	1404.3	376.28	2.2199e-06	5.2719e-06	426.76	140.23	123.04	41.963	3.1813e-06	51.823	0.00043635	0.00043502	0.00012433	1419.4	4.9181e-06	4.9346e-06	1415.4	380.42	4.8461e-06	4.7624e-06	431.21	143.12	125.14	42.79	4.7748e-06	52.66	268.289	12.626	31.916	-68.560	75.859	110.562	-68.465	-64.003	121.606	53.404	-64.886	-59.740	-59.679	-55.143	61.610	-55.993	-8191	255	
14205.363	1	1	0	0	0.10438	0.21871	0.090237	0.1233	0.17717	0.23171	0.32208	0.21529	0.10681	0.093721	0.25096	0.09946	0.17231	0.16146	0.093048	0.16602	0.15417	-1.3	-0.40417	-0.71042	-1.1167	-0.325	-1.1729	-0.925	-0.2875	-1.0688	-0.61042	-0.69375	-1.3646	-0.39375	-0.89792	-1.1979	-65.558	-12.970	140.639	-65.715	-2.149	22.809	212.826	247.100	148.107	77.181	223.580	141.980	68.907	86.729	-31.625	-30.150	0.00016633	0.00088424	0.00010772	1408.8	7.3655e-06	6.3868e-06	1402.5	375.56	4.1062e-06	5.8536e-06	425.62	139.78	122.41	41.873	3.3477e-06	51.698	0.00043036	0.00043676	0.00011905	1418.4	4.7024e-06	4.7907e-06	1411.7	379.18	4.7596e-06	4.6658e-06	430.51	142.88	124.92	42.763	4.6921e-06	52.562	265.626	-2.783	-36.712	-68.543	136.086	104.690	-68.500	-64.206	46.160	74.702	-64.610	-59.874	-59.763	-55.170	67.819	-55.903	-8191	255	
14205.484	1	1	0	0	0.16117	0.23306	0.11144	0.60241	0.16918	0.24969	0.25961	0.24677	0.18639	0.13738	0.18861	0.18411	0.33316	0.05485	0.042697	0.19455	0.11042	-0.94583	-0.62917	-0.67708	-1.1167	-0.22083	-1.0021	-0.96042	-0.085417	-1.2083	-0.6125	-0.33958	-1.2479	-0.30417	-0.5875	-1.0875	119.341	-57.903	103.547	238.257	242.538	-60.004	210.042	222.239	179.148	-54.511	65.076	-44.338	120.472	78.651	265.940	240.948	0.00017314	0.00062964	7.2576e-05	1411	6.3015e-06	9.7821e-06	1407.4	374.66	4.4367e-06	1.3379e-06	425.59	140.72	122.07	41.852	1.8821e-06	51.819	0.00042145	0.00043061	0.00012038	1420.6	4.7204e-06	4.7433e-06	1415.2	379.89	4.8471e-06	4.8108e-06	430.75	143.11	125.03	42.789	4.7909e-06	52.68	254.719	35.292	-51.287	-68.660	110.645	76.185	-68.814	-64.181	60.433	64.488	-64.976	-59.607	-59.587	-55.208	203.042	-55.879	-8191	255	
14205.578	1	1	0	0	0.30275	0.11097	0.077686	0.2904	0.10141	0.034434	0.22626	0.022132	0.094878	0.19104	0.12982	0.13241	0.15164	0.11819	0.18974	0.10955	0.13958	-0.91667	-0.57292	-0.38542	-1.0417	-0.4375	-0.84375	-1.0833	-0.23333	-0.9125	-0.80208	-0.36042	-1.1708	-0.46458	-0.3625	-1.2417	153.047	241.287	-69.589	187.850	45.646	156.368	248.218	-56.857	254.682	79.599	127.282	230.992	215.995	275.338	25.791	243.881	0.00018019	0.0006765	0.0001552	1408.7	2.3123e-06	4.7059e-06	1404.4	375.54	2.102e-06	4.5341e-06	427.19	140.74	123.37	42.022	6.1676e-06	52.244	0.00043749	0.00043217	0.00012299	1421	4.8225e-06	4.7911e-06	1416.4	379.96	4.7427e-06	4.7358e-06	431.29	143.29	125.33	42.833	4.6615e-06	52.926	249.047	-33.452	14.270	-68.789	128.960	95.450	-68.575	-64.144	59.229	68.471	-64.758	-59.781	-59.732	-55.279	118.528	-55.956	-8191	255	
14205.674	1	1	0	0	0.049595	0.089963	0.20473	0.046846	0.05835	0.14729	0.36843	0.095054	0.32139	0.16559	0.12203	0.23152	0.26895	0.16847	0.17136	0.18624	0.13958	-0.85208	-0.83125	-0.36042	-1.1042	-0.65625	-0.86667	-1.2292	-0.26042	-1.0333	-1.0854	-0.32708	-1.0938	-0.59375	-0.39583	-1.2125	141.352	203.464	204.123	242.398	233.510	5.151	257.158	139.628	135.651	125.281	-76.759	194.123	277.066	25.009	-39.392	232.251	0.00016844	0.00070958	0.00011906	1410.6	7.4414e-06	7.2086e-06	1403.1	375.31	2.9891e-06	4.7593e-06	426.89	140.07	122.92	41.861	3.9503e-06	52.018	0.00041011	0.00042327	0.00011589	1421.2	4.5336e-06	4.5958e-06	1415.2	379.92	4.734e-06	4.5501e-06	431.33	143.25	125.46	42.881	4.6703e-06	52.827	266.513	-11.520	52.334	-68.585	156.706	80.658	-68.667	-64.158	89.361	67.167	-64.825	-60.004	-59.351	-55.151	94.094	-55.853	-8191	255	
14205.771	1	1	0	0	0.076053	0.11346	0.17253	0.13171	0.34821	0.024806	0.084064	0.29912	0.055476	0.09999	0.14155	0.077985	0.24446	0.21523	0.14537	0.31897	-0.04375	-0.825	-0.93125	-0.50417	-1.0417	-0.84167	-0.46667	-1.4958	-0.30208	-0.48333	-1.1104	-0.28958	-1.1771	-0.82292	-0.33125	-1.3229	7.527	-55.793	-31.601	258.700	33.949	243.251	192.707	253.059	-37.242	49.676	220.220	129.498	268.734	212.774	-7.347	270.418	0.0002309	0.00087332	0.00010907	1411.9	5.0454e-06	6.281e-06	1406.2	376.46	2.5537e-06	2.5343e-06	427.47	140.64	123.53	41.897	3.3744e-06	51.804	0.00041866	0.00042589	0.00011928	1422.6	4.6358e-06	4.5795e-06	1417.3	380.97	4.7108e-06	4.6912e-06	432.25	143.41	125.79	42.879	4.7584e-06	52.76	269.172	6.854	-14.814	-68.699	120.082	88.526	-68.762	-64.061	128.272	85.923	-64.691	-59.725	-59.534	-55.189	68.589	-56.202	-8191	255	
14205.867	1	1	0	0	0.25957	0.14091	0.18333	0.27181	0.27463	0.063731	0.36858	0.26636	0.42814	0.13854	0.095712	0.30464	0.084853	0.19949	0.20948	0.31073	0.014583	-0.70417	-0.88333	-0.38958	-0.92292	-1.05	-0.50208	-1.0667	-0.3625	-0.7	-1.3042	-0.42917	-1	-0.82708	-0.08125	-1.0958	108.795	126.672	130.430	257.108	83.867	97.911	226.892	211.959	9.157	142.975	-9.931	-77.209	254.741	-4.812	-31.139	263.536	0.00021378	0.00046463	0.00015806	1412.8	2.9646e-06	3.0614e-06	1409.2	376.03	2.3862e-06	4.7373e-06	429.14	140.55	123.33	42.052	4.1006e-06	51.985	0.00042371	0.00043671	0.00011998	1422.8	4.7446e-06	4.7605e-06	1419.1	381.03	4.7266e-06	4.7029e-06	432.79	143.35	125.5	42.883	4.7214e-06	52.853	255.664	-32.318	-26.749	-68.779	98.500	92.662	-68.583	-64.075	93.590	74.838	-64.517	-60.238	-59.482	-55.050	56.430	-55.832	-8191	255	
14205.963	1	1	0	0	0.055306	0.053033	0.070865	0.23997	0.12785	0.32334	0.14323	0.2623	0.088301	0.18885	0.078993	0.23903	0.20004	0.18964	0.19875	0.29244	-0.11875	-0.35833	-1.1333	-0.36667	-0.78333	-0.78125	-0.43542	-1.3167	-0.51875	-0.61042	-1.1979	-0.37917	-1.0708	-1.0896	-0.22083	-1.3604	57.106	123.749	178.072	215.710	257.441	48.642	273.999	193.130	222.761	-31.528	-31.555	193.917	-34.298	-2.653	-49.504	197.125	0.00015872	0.00057444	0.0001502	1414.3	7.0233e-06	5.8556e-06	1406.5	377.57	4.7766e-06	6.7759e-06	428.78	140.29	123.32	42.037	4.948e-06	51.982	0.00042044	0.00043129	0.00011833	1422	4.7373e-06	4.6689e-06	1418.5	381.61	4.773e-06	4.698e-06	432.64	143.36	125.7	42.917	4.8039e-06	52.814	238.697	-4.380	-14.458	-68.680	129.927	16.044	-68.463	-63.900	101.165	66.977	-64.745	-59.694	-59.276	-55.218	84.021	-55.956	-8191	255	
14206.084	1	1	0	0	0.20555	0.076859	0.080049	0.25984	0.23625	0.40877	0.35607	0.34372	0.082435	0.16121	0.26262	0.15703	0.2247	0.43518	0.30642	0.29491	-0.275	-0.22917	-1.1271	-0.64167	-0.73125	-1.0938	-0.4125	-1.3833	-0.75625	-0.45417	-1.3417	-0.73958	-0.82708	-1.35	-0.10208	-1.1437	238.262	235.798	269.528	270.584	-56.823	131.309	191.500	229.538	0.636	-11.837	236.220	267.828	182.289	-62.778	190.165	217.442	0.00018657	0.00044387	0.00011405	1413	6.0904e-06	3.0064e-06	1412.7	377.92	3.7326e-06	4.071e-06	429.46	140.48	123.91	42.173	2.9338e-06	52.05	0.00042415	0.00043385	0.00011961	1422.8	4.6957e-06	4.7993e-06	1420.4	381.63	4.8005e-06	4.8161e-06	432.49	143.62	125.86	42.952	4.8693e-06	52.933	273.409	9.960	-2.288	-68.732	119.590	77.015	-68.895	-63.712	180.181	73.714	-64.493	-60.007	-59.271	-55.124	105.200	-55.786	-8191	255	
14206.180	1	1	0	0	0.15808	0.1578	0.020238	0.28182	0.12252	0.3844	0.32527	0.095513	0.2418	0.09934	0.22581	0.15194	0.18119	0.10733	0.16257	0.26331	-0.3875	-0.30208	-1.0812	-0.70417	-0.56042	-1	-0.40417	-1.1125	-0.78958	-0.39583	-1.2604	-0.5375	-0.54583	-1.0208	-0.22292	-0.93333	-1.443	260.812	103.446	208.453	185.043	240.892	215.918	-59.853	-30.724	38.163	223.817	-55.461	209.263	246.111	-53.394	225.979	0.00019057	0.00036066	4.7982e-05	1417	3.313e-06	5.1113e-06	1411.9	376.17	3.953e-06	7.2913e-06	429.92	140.64	123.54	42.165	4.4345e-06	52.401	0.00043009	0.00044088	0.00012069	1426.5	4.7124e-06	4.7422e-06	1419.7	381.56	4.7117e-06	4.7069e-06	433.06	143.61	125.73	43.015	4.6468e-06	52.966	273.834	-7.333	29.843	-68.822	102.324	90.473	-68.531	-63.951	55.508	73.369	-64.482	-60.034	-59.462	-55.055	66.868	-55.526	-8191	255	
14206.276	1	1	0	0	0.22365	0.16334	0.16624	0.2955	0.15978	0.014701	0.16953	0.57965	0.25366	0.13495	0.067319	0.17764	0.10423	0.057528	0.25438	0.052234	-0.5125	-0.2375	-1.0354	-0.73125	-0.26458	-1.1271	-0.4125	-0.97917	-0.83333	-0.4875	-1.2625	-0.6875	-0.52708	-1.2146	-0.26458	-0.83958	187.720	151.518	222.349	200.756	53.513	132.223	140.193	240.719	69.607	-76.193	28.628	-74.447	-81.277	-42.090	26.977	232.684	0.0001855	0.0004025	0.00011538	1413.2	6.9564e-06	5.4815e-06	1410.3	376.33	4.3482e-06	3.9574e-06	429.08	141.18	123.21	42.049	4.906e-06	51.99	0.00041803	0.00042242	0.00011654	1425.4	4.5635e-06	4.4247e-06	1418	381.51	4.5276e-06	4.5889e-06	432.74	143.56	125.76	42.967	4.639e-06	52.909	260.226	11.353	-45.771	-68.804	119.973	87.691	-68.636	-63.778	47.591	43.439	-64.763	-59.896	-59.528	-55.169	93.813	-55.729	-8191	255	
14206.372	1	1	0	0	0.14772	0.15575	0.25328	0.49276	0.20763	0.28346	0.35976	0.19681	0.085719	0.24289	0.068881	0.1591	0.23747	0.1042	0.065032	0.26223	-0.52292	-0.28333	-1.0375	-0.97917	-0.28542	-1.3333	-0.63542	-0.80833	-1.2167	-0.30208	-1.0271	-0.90625	-0.57083	-1.4083	-0.47917	-0.69792	198.301	-46.881	-49.672	250.953	4.250	2.470	202.490	213.194	168.167	22.275	81.480	219.705	170.021	119.439	185.050	248.269	0.00016721	0.00042	8.7473e-05	1414	7.3805e-06	6.7362e-06	1410.2	377.24	2.7393e-06	2.1237e-06	430.16	140.7	123.6	42.075	3.8344e-06	52.35	0.00041616	0.00042147	0.00011752	1425.3	4.7175e-06	4.6037e-06	1420	381.72	4.6919e-06	4.6762e-06	433.46	143.68	125.83	43.001	4.6955e-06	52.984	270.093	3.116	13.355	-68.785	73.846	63.817	-68.724	-64.010	138.419	92.870	-64.677	-59.902	-59.351	-55.162	106.916	-55.666	-8191	255	
14206.466	1	1	0	0	0.12921	0.026633	0.16625	0.25894	0.26992	0.26435	0.21679	0.4148	0.086993	0.18213	0.16064	0.349	0.048449	0.047623	0.24922	0.35527	-0.73333	-0.11458	-1.075	-1.0229	-0.29375	-1.2083	-0.63333	-0.63542	-1.3125	-0.44792	-0.97083	-0.92292	-0.26042	-1.1417	-0.43958	-0.25833	127.400	223.175	114.415	244.647	76.419	68.103	-73.376	233.449	233.785	37.950	203.260	223.275	-6.434	56.385	199.619	1.116	0.00013758	0.00022342	0.000129	1418.3	5.6422e-06	2.6201e-06	1407.2	376.6	3.4582e-06	6.3405e-06	428.92	140.92	123.76	42.361	4.1908e-06	52.252	0.00042516	0.00043662	0.00011891	1428.1	4.7422e-06	4.7031e-06	1420.3	381.51	4.6575e-06	4.7131e-06	433.09	144	126.23	43.207	4.6611e-06	53.035	270.897	58.971	-12.513	-68.696	100.968	82.451	-68.631	-63.968	60.974	79.787	-64.307	-59.828	-59.227	-54.877	69.954	-55.666	-8191	255	
#DATA ENDS
