BOXY.EXE: ISS Imagent and Oximeter Data Acquisition Program Version 0.80
Ascii Record File

#ACQ INFORMATION
2  Detector Channels 
16  External MUX Channels 
1  Auxiliary Channels 
5000  Waveform (CCF) Frequency (Hz)
1  Waveforms Skipped 
30  Waveforms Averaged 
1  Cycles Averaged 
16  Acquisitions per Waveform 
10.0806  Updata Rate (Hz) 

#FILE INFORMATION
TRUE -- External MUX Channel results are PARSED.
FALSE -- AC DC and Phase are NOT grouped.
TRUE -- Companion Program Settings File CREATED.
FALSE -- AC data not excluded
FALSE -- DC data not excluded
FALSE -- Phase data not excluded
FALSE -- Auxillary Chn. data not excluded
Tab delimiters

#CALIBRATION STATE
TRUE -- Waveform Calibration Values APPLIED.


#AUX CALIBRATION VALUES
Val Type	aux-1	

Term	1.0000e+00	
Factor	0.0000e+00	


#WF CALIBRATION VALUES
A = Detector Channel
Val Type	A-AC1	A-AC2	A-AC3	A-AC4	A-AC5	A-AC6	A-AC7	A-AC8	A-AC9	A-AC10	A-AC11	A-AC12	A-AC13	A-AC14	A-AC15	A-AC16	A-DC1	A-DC2	A-DC3	A-DC4	A-DC5	A-DC6	A-DC7	A-DC8	A-DC9	A-DC10	A-DC11	A-DC12	A-DC13	A-DC14	A-DC15	A-DC16	A-Ph1	A-Ph2	A-Ph3	A-Ph4	A-Ph5	A-Ph6	A-Ph7	A-Ph8	A-Ph9	A-Ph10	A-Ph11	A-Ph12	A-Ph13	A-Ph14	A-Ph15	A-Ph16	

Term	0.00000e+00	0.00000e+00	0.00000e+00	0.00000e+00	0.00000e+00	0.00000e+00	0.00000e+00	0.00000e+00	0.00000e+00	0.00000e+00	0.00000e+00	0.00000e+00	0.00000e+00	0.00000e+00	0.00000e+00	0.00000e+00	0.00000e+00	0.00000e+00	0.00000e+00	0.00000e+00	0.00000e+00	0.00000e+00	0.00000e+00	0.00000e+00	0.00000e+00	0.00000e+00	0.00000e+00	0.00000e+00	0.00000e+00	0.00000e+00	0.00000e+00	0.00000e+00	0.00000e+00	0.00000e+00	0.00000e+00	0.00000e+00	0.00000e+00	0.00000e+00	0.00000e+00	0.00000e+00	0.00000e+00	0.00000e+00	0.00000e+00	0.00000e+00	0.00000e+00	0.00000e+00	0.00000e+00	0.00000e+00	
Factor	1.00000e+00	1.00000e+00	1.00000e+00	1.00000e+00	1.00000e+00	1.00000e+00	1.00000e+00	1.00000e+00	1.00000e+00	1.00000e+00	1.00000e+00	1.00000e+00	1.00000e+00	1.00000e+00	1.00000e+00	1.00000e+00	1.00000e+00	1.00000e+00	1.00000e+00	1.00000e+00	1.00000e+00	1.00000e+00	1.00000e+00	1.00000e+00	1.00000e+00	1.00000e+00	1.00000e+00	1.00000e+00	1.00000e+00	1.00000e+00	1.00000e+00	1.00000e+00	X	X	X	X	X	X	X	X	X	X	X	X	X	X	X	X	

B = Detector Channel
Val Type	B-AC1	B-AC2	B-AC3	B-AC4	B-AC5	B-AC6	B-AC7	B-AC8	B-AC9	B-AC10	B-AC11	B-AC12	B-AC13	B-AC14	B-AC15	B-AC16	B-DC1	B-DC2	B-DC3	B-DC4	B-DC5	B-DC6	B-DC7	B-DC8	B-DC9	B-DC10	B-DC11	B-DC12	B-DC13	B-DC14	B-DC15	B-DC16	B-Ph1	B-Ph2	B-Ph3	B-Ph4	B-Ph5	B-Ph6	B-Ph7	B-Ph8	B-Ph9	B-Ph10	B-Ph11	B-Ph12	B-Ph13	B-Ph14	B-Ph15	B-Ph16	

Term	0.00000e+00	0.00000e+00	0.00000e+00	0.00000e+00	0.00000e+00	0.00000e+00	0.00000e+00	0.00000e+00	0.00000e+00	0.00000e+00	0.00000e+00	0.00000e+00	0.00000e+00	0.00000e+00	0.00000e+00	0.00000e+00	0.00000e+00	0.00000e+00	0.00000e+00	0.00000e+00	0.00000e+00	0.00000e+00	0.00000e+00	0.00000e+00	0.00000e+00	0.00000e+00	0.00000e+00	0.00000e+00	0.00000e+00	0.00000e+00	0.00000e+00	0.00000e+00	-1.16366e+02	-1.34525e+02	-1.24640e+02	-1.81440e+02	-6.20949e+01	-6.64202e+01	-1.56427e+02	-1.62015e+02	-6.69733e+01	-6.15982e+01	-1.71980e+02	-1.69516e+02	-1.84939e+02	-1.76465e+02	-6.54987e+01	-1.48787e+02	
Factor	1.61643e-05	1.38122e-04	4.24785e-05	1.47321e-01	1.18619e-06	1.52504e-06	1.65925e-01	4.94256e-02	1.07980e-06	1.67298e-06	8.54847e-02	2.70576e-02	2.30815e-02	8.67598e-03	1.25400e-06	1.23377e-02	1.12576e-05	2.02003e-05	5.73018e-06	7.73108e-02	2.02464e-07	2.30455e-07	8.19583e-02	2.61172e-02	2.05112e-07	2.28814e-07	4.35796e-02	1.39337e-02	1.23178e-02	4.61571e-03	2.14390e-07	6.36437e-03	X	X	X	X	X	X	X	X	X	X	X	X	X	X	X	X	



#DISTANCE SETTINGS
A = Detector Channel
A-1	A-2	A-3	A-4	A-5	A-6	A-7	A-8	A-9	A-10	A-11	A-12	A-13	A-14	A-15	A-16	

2.5000e+00	3.0000e+00	2.5000e+00	3.0000e+00	2.0000e+00	3.0000e+00	1.5000e+00	3.0000e+00	3.0000e+00	3.0000e+00	3.0000e+00	3.0000e+00	3.0000e+00	3.0000e+00	1.5000e+00	3.0000e+00	

B = Detector Channel
B-1	B-2	B-3	B-4	B-5	B-6	B-7	B-8	B-9	B-10	B-11	B-12	B-13	B-14	B-15	B-16	

1.0000e+01	1.0000e+01	1.0000e+01	1.4400e+00	1.0000e+01	1.0000e+01	1.5100e+00	1.9400e+00	1.0000e+01	1.0000e+01	1.9900e+00	2.4900e+00	2.4100e+00	2.9000e+00	1.0000e+01	2.9800e+00	




#DATA BEGINS
time	group	step	mark	flag	A-AC1	A-AC2	A-AC3	A-AC4	A-AC5	A-AC6	A-AC7	A-AC8	A-AC9	A-AC10	A-AC11	A-AC12	A-AC13	A-AC14	A-AC15	A-AC16	A-DC1	A-DC2	A-DC3	A-DC4	A-DC5	A-DC6	A-DC7	A-DC8	A-DC9	A-DC10	A-DC11	A-DC12	A-DC13	A-DC14	A-DC15	A-DC16	A-Ph1	A-Ph2	A-Ph3	A-Ph4	A-Ph5	A-Ph6	A-Ph7	A-Ph8	A-Ph9	A-Ph10	A-Ph11	A-Ph12	A-Ph13	A-Ph14	A-Ph15	A-Ph16	B-AC1	B-AC2	B-AC3	B-AC4	B-AC5	B-AC6	B-AC7	B-AC8	B-AC9	B-AC10	B-AC11	B-AC12	B-AC13	B-AC14	B-AC15	B-AC16	B-DC1	B-DC2	B-DC3	B-DC4	B-DC5	B-DC6	B-DC7	B-DC8	B-DC9	B-DC10	B-DC11	B-DC12	B-DC13	B-DC14	B-DC15	B-DC16	B-Ph1	B-Ph2	B-Ph3	B-Ph4	B-Ph5	B-Ph6	B-Ph7	B-Ph8	B-Ph9	B-Ph10	B-Ph11	B-Ph12	B-Ph13	B-Ph14	B-Ph15	B-Ph16	aux-1	digaux	

28319.447	1	1	0	768	0.22455	0.19143	0.14907	0.30379	0.11025	0.086892	0.14762	0.16405	0.069813	0.14979	0.26226	0.10788	0.011221	0.20011	0.20641	0.1499	-0.80625	-0.50833	-0.61875	-1.2646	-0.22292	-0.9625	-1.1625	-0.62083	-0.97292	-0.65	-0.57917	-1.3125	-0.43958	-1.0125	-1.1708	-0.46042	282.038	192.994	75.410	22.701	282.943	57.321	43.005	262.875	261.232	254.632	314.926	350.625	151.911	254.950	291.220	61.883	0.00030978	0.00031998	7.7203e-05	1382.8	5.7791e-06	5.2815e-06	1372.4	364.89	3.6825e-06	5.6552e-06	419.35	137.42	119.89	40.814	5.6174e-06	50.345	0.00087277	0.0012825	0.00035754	1396.7	1.3054e-05	1.4175e-05	1392.3	372.98	1.2739e-05	1.4305e-05	425.41	141.05	122.7	41.957	1.3446e-05	51.894	159.015	148.451	127.917	25.430	172.926	166.543	25.403	30.205	181.471	177.946	29.446	34.476	34.594	39.139	159.108	38.300	-8191	255	
28319.543	1	1	0	0	0.11763	0.038747	0.078383	0.31463	0.075532	0.27405	0.17778	0.31969	0.11701	0.048092	0.22278	0.053644	0.35851	0.21191	0.16726	0.12751	-0.80625	-0.50833	-0.425	-1.2229	-0.27917	-0.82083	-1.2875	-0.48958	-0.90208	-0.59583	-0.45625	-1.5729	-0.475	-0.63958	-1.2542	-0.32708	98.694	77.941	218.927	287.787	141.726	145.959	287.183	349.674	64.074	61.354	254.900	63.923	370.225	363.429	371.747	36.990	0.00029362	0.00052375	0.00012316	1380.7	4.7473e-06	6.7619e-06	1377.3	365.06	1.8182e-06	2.9971e-06	417.03	137.35	119.67	40.848	1.7701e-06	50.532	0.0008629	0.0012895	0.00036199	1395.8	1.3188e-05	1.4143e-05	1391.1	372.59	1.3239e-05	1.3998e-05	423.93	141.14	122.8	41.986	1.3312e-05	51.907	158.234	101.643	97.529	25.492	188.438	167.056	25.386	30.131	178.698	174.836	29.652	34.237	34.880	39.220	159.355	38.678	-8191	255	
28319.639	1	1	0	0	0.17206	0.25192	0.096049	0.13823	0.35004	0.19348	0.39023	0.278	0.1525	0.056277	0.45425	0.22216	0.1706	0.20265	0.12464	0.079648	-0.4375	-0.53958	-0.50417	-1.4896	-0.4875	-0.66667	-1.3729	-0.40625	-0.95	-0.73125	-0.45417	-1.2687	-0.77083	-0.73542	-1.225	-0.24375	298.739	205.911	168.299	46.458	276.911	186.599	333.282	289.913	286.239	135.132	355.062	327.195	291.978	358.379	32.723	189.557	0.00027785	0.00071298	0.00010815	1378.1	3.7662e-06	3.9837e-06	1375.1	365.67	3.4272e-06	5.817e-06	417.65	137.64	119.68	40.828	4.2835e-06	50.795	0.00087493	0.001229	0.00035489	1396.6	1.3233e-05	1.4285e-05	1390.9	372.58	1.2897e-05	1.4145e-05	424.78	141.14	122.68	41.896	1.3347e-05	51.967	156.877	103.008	82.328	25.521	158.897	157.252	25.374	30.181	183.683	179.425	29.659	34.604	34.642	39.259	156.538	38.617	-8191	255	
28319.734	1	1	0	0	0.14567	0.071878	0.16939	0.22747	0.1969	0.2082	0.084812	0.24061	0.1029	0.13234	0.054038	0.23498	0.27419	0.27388	0.30074	0.11738	-0.63125	-0.96875	-0.23542	-1.4646	-0.6125	-0.49583	-1.4042	-0.62292	-0.79167	-1.1313	-0.47083	-1.1083	-0.98333	-0.46458	-1.275	-0.67917	42.097	131.437	50.275	367.808	208.399	371.495	322.717	308.041	219.556	182.620	268.308	45.488	54.025	371.950	266.190	47.909	0.00031327	0.00058038	0.00013235	1386	3.4409e-06	3.6024e-06	1373.4	365.99	4.4228e-06	4.343e-06	415.55	137.34	119.6	40.861	4.4392e-06	50.451	0.00087819	0.0012323	0.00035426	1397.8	1.3366e-05	1.4088e-05	1389.5	372.46	1.3474e-05	1.3764e-05	423.48	141.1	122.63	41.878	1.3073e-05	51.826	156.748	103.678	103.171	25.687	179.308	165.909	25.548	30.297	167.540	152.309	29.812	34.575	34.717	39.098	201.268	38.304	-8191	255	
28319.830	1	1	0	0	0.27818	0.33581	0.14583	0.35969	0.10939	0.097606	0.30553	0.1679	0.067506	0.20263	0.35004	0.31687	0.36152	0.15598	0.11421	0.1886	-0.45	-1.3438	-0.079167	-1.1562	-0.71042	-0.32917	-1.5458	-0.66042	-0.51875	-1.2146	-0.44167	-1.1167	-0.98542	-0.375	-1.0604	-0.675	173.924	110.522	205.547	340.690	354.491	232.206	312.997	333.954	302.594	139.095	329.050	40.005	361.952	50.930	108.095	78.362	0.00028433	0.00055682	0.00014188	1376.8	3.0887e-06	5.0366e-06	1374.9	365.88	3.9235e-06	6.4914e-06	415.53	137.12	119.26	40.78	4.4235e-06	50.536	0.00086602	0.0012426	0.00035793	1393.8	1.3237e-05	1.4128e-05	1389.4	372.76	1.3216e-05	1.4111e-05	423.75	140.79	122.59	41.808	1.3321e-05	51.967	156.771	107.706	109.920	25.609	205.604	173.657	25.546	30.340	158.012	179.073	29.518	34.404	34.380	38.985	181.008	38.537	-8191	255	
28319.928	1	1	0	0	0.11488	0.085431	0.21367	0.23791	0.13186	0.13196	0.20411	0.28635	0.3848	0.031916	0.10709	0.1386	0.040305	0.35791	0.21616	0.14489	-0.16667	-1.1042	-0.35833	-1.2708	-0.85208	-0.38542	-1.3896	-0.79583	-0.46458	-1.2333	-0.57083	-1.0542	-1.1354	-0.525	-1.1542	-0.62917	26.061	164.867	96.286	310.611	13.489	57.638	338.129	23.910	34.008	34.781	14.425	357.332	120.976	357.402	230.465	234.034	0.00028094	0.00036321	0.0001573	1382.1	2.8288e-06	4.5051e-06	1378	366.95	3.4644e-06	6.5074e-06	416.66	136.72	119.33	40.693	4.7345e-06	50.543	0.00086829	0.001222	0.00035261	1395	1.3091e-05	1.4056e-05	1392	372.76	1.3198e-05	1.3795e-05	423.77	140.93	122.59	41.858	1.3341e-05	51.836	156.530	97.168	114.674	25.494	149.168	188.244	25.439	30.072	186.591	129.797	29.543	34.153	34.656	39.153	153.640	38.503	-8191	255	
28320.047	1	1	0	0	0.10728	0.077593	0.14871	0.10779	0.16264	0.15412	0.22318	0.1012	0.17883	0.15847	0.17221	0.34096	0.080517	0.29104	0.10099	0.11317	-0.11667	-1.1187	-0.3125	-1.1833	-1.0292	-0.27083	-1.2417	-0.84167	-0.36875	-1.2687	-0.475	-0.71667	-1.15	-0.33542	-1.0708	-0.86667	37.261	371.898	21.250	270.452	174.640	238.470	313.872	179.006	361.984	362.935	322.261	332.901	223.148	276.051	276.120	171.002	0.0002863	0.00054298	0.00013301	1376.7	4.9505e-06	4.9904e-06	1372.8	365.88	5.4246e-06	2.6055e-06	416.59	137.08	119.15	40.865	3.9654e-06	50.685	0.00087512	0.0012521	0.00035502	1394.4	1.3025e-05	1.412e-05	1391.7	372.6	1.3242e-05	1.3795e-05	424.51	140.92	122.54	41.955	1.3717e-05	51.847	156.648	105.150	106.726	25.423	187.308	146.385	25.511	30.056	177.798	185.210	29.379	34.165	34.612	39.238	155.577	38.516	-8191	255	
28320.143	1	1	0	0	0.16464	0.1731	0.17606	0.19387	0.098041	0.12739	0.2161	0.24228	0.2578	0.1291	0.31228	0.1799	0.15338	0.21185	0.14403	0.31106	-0.045833	-1.2917	-0.32292	-0.9375	-1.1187	-0.28333	-1.1896	-1.1854	-0.28542	-1.2896	-0.54583	-0.5	-1.275	-0.42083	-0.77292	-0.91667	312.471	189.521	330.021	350.832	372.266	97.252	330.820	327.916	93.182	330.639	327.603	182.476	300.487	303.960	137.713	235.357	0.00029134	0.00021836	4.7898e-05	1379.1	4.2967e-06	5.406e-06	1374.6	366.87	2.8665e-06	4.7521e-06	418.78	136.58	119.5	40.72	3.3917e-06	50.664	0.0008871	0.001232	0.00036416	1396.1	1.276e-05	1.4336e-05	1390.6	372.52	1.3365e-05	1.3976e-05	423.97	140.69	122.65	41.807	1.352e-05	51.811	155.849	127.428	108.358	25.589	192.419	187.342	25.391	30.258	157.208	175.867	29.545	34.131	34.355	39.157	160.155	38.522	-8191	255	
28320.238	1	1	0	0	0.22322	0.10345	0.18511	0.14481	0.2678	0.085648	0.075271	0.35178	0.1917	0.1285	0.29703	0.24027	0.10419	0.12941	0.15638	0.1854	0.0375	-1.1375	-0.70833	-0.72292	-1.0438	-0.44792	-1.1146	-1.0292	-0.29375	-1.1688	-0.66458	-0.47292	-1.3792	-0.45833	-0.7625	-1.1021	259.061	256.439	98.841	29.686	105.979	330.116	104.719	316.460	292.736	109.095	22.562	356.866	140.391	370.662	328.159	258.644	0.00031305	0.00021253	0.00013126	1377.8	5.0731e-06	4.211e-06	1372.2	364.9	3.4932e-06	7.1403e-06	417.26	137.23	119.36	40.749	4.1031e-06	50.647	0.00088853	0.0012576	0.00036397	1395.2	1.3096e-05	1.4668e-05	1390.7	372.03	1.3449e-05	1.4329e-05	424.15	140.99	122.48	41.868	1.3576e-05	51.891	154.027	139.079	131.496	25.566	194.836	166.323	25.552	30.186	151.229	171.618	29.430	34.086	34.527	39.277	204.318	38.336	-8191	255	
28320.336	1	1	0	0	0.15301	0.31508	0.10315	0.28889	0.24834	0.23212	0.19295	0.10356	0.19518	0.25898	0.13115	0.13596	0.15086	0.12753	0.23825	0.12712	0.14167	-1.0396	-0.76042	-0.51042	-1.225	-0.19375	-1.1083	-1.2104	-0.16042	-0.92917	-1.0771	-0.61042	-1.4458	-0.44792	-0.4625	-1.2646	69.771	195.571	263.301	367.559	24.785	61.982	239.377	281.990	218.151	147.811	365.582	325.721	330.146	55.960	317.339	190.574	0.00028301	0.00055764	0.00012331	1382.2	4.7062e-06	4.3732e-06	1376.6	364.28	3.4185e-06	6.4578e-06	415.82	136.8	119.27	40.672	4.8459e-06	50.615	0.00088023	0.001282	0.0003607	1395.2	1.304e-05	1.462e-05	1391.2	371.83	1.3182e-05	1.4146e-05	423.53	140.88	122.53	41.755	1.369e-05	51.92	158.991	91.772	112.396	25.503	166.135	157.563	25.517	30.366	202.767	173.731	29.565	34.224	34.709	39.045	175.088	38.197	-8191	255	
28320.432	1	1	0	0	0.2227	0.078008	0.070766	0.16784	0.1607	0.076363	0.19239	0.35764	0.089119	0.36649	0.27305	0.113	0.081446	0.20089	0.35864	0.18372	0.22917	-0.8875	-0.84375	-0.3625	-1.1938	-0.41458	-0.71667	-1.2167	-0.14792	-0.95625	-1.0229	-0.32083	-1.1854	-0.76458	-0.46458	-1.2396	362.342	193.179	211.006	129.130	130.575	358.418	304.559	364.092	37.866	254.274	369.978	42.161	299.837	312.852	160.474	341.283	0.00025148	0.00041103	0.00013328	1382.1	5.3119e-06	1.583e-06	1373.1	367.05	3.9603e-06	3.7699e-06	416.22	137.17	118.96	40.669	4.5575e-06	50.572	0.00086656	0.0012533	0.00035786	1396.4	1.3261e-05	1.4349e-05	1392.5	372.54	1.331e-05	1.3934e-05	424.54	140.72	122.46	41.793	1.3906e-05	51.881	158.947	91.152	124.905	25.608	204.111	151.865	25.605	30.143	172.349	168.571	29.582	33.968	34.711	39.026	179.566	38.374	-8191	255	
28320.527	1	1	0	0	0.083986	0.1905	0.3127	0.11259	0.22769	0.21372	0.11855	0.14114	0.27176	0.17899	0.20269	0.21684	0.073826	0.21439	0.072284	0.29229	-0.054167	-0.70417	-0.92917	-0.52083	-1.1542	-0.59375	-0.62083	-1.3729	-0.2875	-0.77917	-1.0146	-0.275	-1.1562	-0.96042	-0.4	-1.3833	282.508	125.967	117.410	306.669	320.970	159.040	341.674	305.886	53.683	357.091	323.569	333.397	220.116	23.076	277.765	53.614	0.00025742	0.00046142	9.1979e-05	1380.2	3.0848e-06	6.005e-06	1375.1	366.62	4.4335e-06	7.1603e-06	416.27	137.17	119.33	40.733	4.3307e-06	50.406	0.00088361	0.0012735	0.00035833	1395.1	1.3255e-05	1.4633e-05	1390.3	373.02	1.3645e-05	1.4387e-05	423.49	141.08	122.6	41.771	1.37e-05	51.822	156.373	102.395	107.871	25.589	180.448	179.720	25.470	30.272	167.373	180.923	29.665	34.160	34.844	38.977	190.937	38.350	-8191	255	
28320.623	1	1	0	0	0.25926	0.31882	0.01244	0.018451	0.096435	0.31486	0.19189	0.29039	0.28558	0.19637	0.017774	0.26703	0.2952	0.13404	0.13819	0.26044	0.029167	-0.63125	-1.0208	-0.41875	-1.0396	-0.79792	-0.38333	-1.3708	-0.5125	-0.52083	-1.2917	-0.39167	-0.87917	-0.98125	-0.23333	-1.2396	232.033	292.608	246.733	45.735	136.950	334.493	256.636	316.290	309.163	369.778	130.964	22.640	345.035	357.295	67.153	319.445	0.00026546	0.0005467	7.9772e-05	1377	4.6961e-06	4.1572e-06	1377.8	366.48	4.4811e-06	6.491e-06	418.6	136.66	119.55	40.628	6.7141e-06	50.512	0.00088107	0.0012654	0.00036199	1394.6	1.2855e-05	1.4381e-05	1391.7	372.48	1.3331e-05	1.4151e-05	424.28	140.92	122.59	41.779	1.34e-05	51.949	160.117	90.488	96.239	25.465	187.833	178.196	25.716	30.105	167.159	167.575	29.910	34.464	34.599	39.276	160.589	38.388	-8191	255	
28320.742	1	1	0	0	0.26672	0.12254	0.29126	0.22852	0.39679	0.042276	0.39902	0.19119	0.024752	0.046091	0.22293	0.097546	0.35204	0.20208	0.11745	0.15616	-0.029167	-0.36042	-1.1	-0.39583	-0.90625	-1.1437	-0.26458	-1.2583	-0.50417	-0.61875	-1.3771	-0.56667	-0.85625	-1.0354	-0.4125	-1.3563	43.703	177.473	117.489	301.036	257.410	338.512	323.137	279.356	342.095	194.002	355.595	344.979	15.845	370.482	161.133	342.091	0.00027703	0.00061239	0.00026583	1380.9	5.5624e-06	6.3128e-06	1378.9	366.03	2.6196e-06	6.0508e-06	416.84	137.47	119.54	40.702	4.5216e-06	50.879	0.00088387	0.0012315	0.00035293	1394.3	1.3094e-05	1.4439e-05	1393.6	372.65	1.3501e-05	1.4216e-05	424.09	141.2	123.02	41.903	1.3846e-05	52.05	161.070	111.108	104.622	25.474	168.354	138.909	25.501	30.324	160.899	148.025	29.642	34.160	34.460	39.359	180.622	38.438	-8191	255	
28320.838	1	1	0	0	0.10119	0.13016	0.016528	0.049152	0.15235	0.17758	0.34225	0.3199	0.11529	0.15729	0.097144	0.23926	0.16736	0.34735	0.247	0.20494	-0.2875	-0.21458	-1.1583	-0.52917	-0.975	-1.1313	-0.48125	-1.2292	-0.92708	-0.57708	-1.3958	-0.46667	-0.68542	-1.3125	-0.35417	-1.0146	157.871	236.969	244.869	314.879	262.939	242.437	341.540	332.426	359.786	360.753	321.709	363.198	70.653	293.748	203.052	97.109	0.00028757	0.00067022	0.00015374	1382.4	7.0713e-06	4.9088e-06	1376.1	366.88	5.2293e-06	3.5744e-06	416.63	137.81	119.58	40.787	2.1842e-06	50.593	0.00088511	0.0012745	0.0003622	1397.9	1.3553e-05	1.4259e-05	1392.2	373.59	1.3398e-05	1.4201e-05	424.28	141.29	122.77	41.858	1.4199e-05	52.044	153.357	105.735	105.610	25.409	183.389	158.471	25.701	30.314	187.580	180.067	29.590	34.015	34.780	39.033	187.009	38.550	-8191	255	
28320.936	1	1	0	0	0.29147	0.25765	0.048161	0.36488	0.07523	0.10914	0.14	0.05772	0.070676	0.38227	0.2335	0.21256	0.10842	0.25861	0.14434	0.10191	-0.6875	-0.1125	-1.1688	-0.70417	-0.56875	-1.2604	-0.50208	-1.0417	-0.85208	-0.24375	-1.2292	-0.54167	-0.63333	-1.1854	-0.18958	-1.1125	119.788	85.283	175.656	322.094	221.456	311.235	355.436	128.682	318.501	299.188	354.841	347.120	357.743	335.978	370.283	284.151	0.00027918	0.00051136	0.00017123	1384	4.9944e-06	5.2987e-06	1384.6	367.1	2.897e-06	5.5518e-06	420.16	137.63	120.03	41.076	4.3336e-06	50.633	0.00090662	0.0012877	0.00036379	1403.3	1.3502e-05	1.4351e-05	1397.7	373.99	1.346e-05	1.4624e-05	426.19	141.51	123.22	42.175	1.4771e-05	52.151	147.602	91.110	125.023	25.496	175.588	159.679	25.537	30.298	186.072	170.477	29.679	34.021	34.805	38.738	174.207	38.442	-8191	255	
28321.008	1	1	0	0	0.2593	0.051502	0.22542	0.27209	0.14965	0.083882	0.10015	0.16455	0.16779	0.09444	0.18053	0.1121	0.19822	0.12852	0.046824	0.32373	-0.6875	-0.25833	-1.2188	-0.83125	-0.48958	-1.3438	-0.61875	-1.0958	-0.91458	-0.19167	-1.4708	-0.78958	-0.49583	-1.4688	-0.45833	-0.69792	162.717	74.595	285.817	371.254	320.952	40.442	333.397	321.009	359.492	226.130	238.674	203.280	68.860	172.271	287.020	298.060	0.00030639	0.00063736	0.00013416	1387	4.5689e-06	4.2431e-06	1390.4	368.9	3.1787e-06	5.2891e-06	421.4	137.92	120.26	41.009	3.2658e-06	51.01	0.00089831	0.0013055	0.00037221	1405.5	1.4042e-05	1.4911e-05	1403.4	374.78	1.3842e-05	1.4918e-05	427.85	141.76	123.57	42.186	1.4652e-05	52.311	155.377	92.975	113.131	25.653	157.837	156.864	25.435	30.335	183.919	192.305	29.536	34.269	34.937	38.871	185.023	38.256	-8191	255	
28321.127	1	1	0	0	0.46473	0.060407	0.084089	0.076327	0.064116	0.19069	0.22174	0.24179	0.10247	0.096152	0.2943	0.18431	0.1505	0.12418	0.16211	0.079291	-0.62917	-0.10417	-1.0396	-0.85208	-0.22708	-1.2271	-0.49792	-0.83333	-1.0708	-0.20833	-0.97917	-1.0063	-0.31667	-1.2833	-0.39583	-0.34792	14.223	248.114	306.920	70.863	252.726	220.387	325.684	264.933	141.443	159.384	249.590	63.515	250.103	243.676	246.578	217.807	0.00032304	0.00066453	8.7757e-05	1398.9	3.7779e-06	3.2012e-06	1396.8	370.6	1.7538e-06	3.7088e-06	423.48	139.33	121.12	41.296	3.5557e-06	51.344	0.00091968	0.0013723	0.00037664	1415.4	1.3991e-05	1.5236e-05	1411.5	377.89	1.4165e-05	1.5578e-05	430.52	143.1	124.7	42.542	1.5015e-05	52.647	160.108	92.146	117.398	25.289	206.748	144.869	25.073	29.972	156.696	157.775	29.426	33.759	34.304	38.655	169.655	38.140	-8191	255	
28321.223	1	1	0	0	0.23222	0.16565	0.11847	0.096809	0.16936	0.13117	0.24565	0.26717	0.10224	0.054297	0.2626	0.13147	0.22506	0.34512	0.042455	0.14719	-0.63333	-0.016667	-0.77292	-1.05	-0.35208	-1.0938	-0.79792	-0.54375	-1.1479	-0.083333	-1.1729	-1.1958	-0.41875	-1.1354	-0.65833	-0.575	143.960	100.185	321.235	332.996	349.379	125.696	85.109	305.831	72.660	135.988	100.277	141.673	13.844	44.005	185.545	351.513	0.00027818	0.0005017	9.6487e-05	1412.7	3.7167e-06	3.9684e-06	1405.5	374.35	3.1447e-06	6.3721e-06	427.74	140.49	122.14	41.452	7.9283e-06	51.547	0.00093825	0.0014198	0.00040728	1428.7	1.4373e-05	1.6094e-05	1424.4	381.82	1.4777e-05	1.6106e-05	435.28	144.05	125.72	42.745	1.5589e-05	52.921	153.100	63.123	108.100	24.945	155.947	160.210	24.955	29.765	190.347	198.755	29.171	33.709	34.140	38.740	165.851	38.126	-8191	255	
28321.318	1	1	0	0	0.096793	0.11336	0.13497	0.33073	0.093269	0.072866	0.37148	0.2522	0.17619	0.059797	0.14274	0.28704	0.2224	0.17542	0.19759	0.23019	-0.81458	-0.3	-0.64583	-1.1979	-0.29583	-0.89167	-1.0333	-0.48125	-1.1104	-0.29167	-0.79167	-1.1313	-0.27083	-1.1854	-0.97708	-0.50833	302.367	298.193	116.896	297.398	194.802	363.142	332.398	284.406	244.817	338.159	202.647	301.180	299.875	349.218	251.144	351.841	0.00029671	0.00051522	0.00022295	1424	6.095e-06	5.921e-06	1418.8	377.7	2.8333e-06	3.8393e-06	429.8	140.6	123.78	41.838	3.8438e-06	51.719	0.00095486	0.0014609	0.00040597	1441.1	1.4763e-05	1.6464e-05	1435.8	384.78	1.5294e-05	1.6823e-05	437.07	144.59	126.45	42.986	1.631e-05	53.09	160.585	103.466	113.613	24.892	168.180	170.887	24.857	29.722	198.249	137.685	29.294	33.544	34.255	38.754	182.482	38.033	-8191	255	
28321.439	1	1	0	0	0.17916	0.062266	0.15516	0.30036	0.23421	0.19097	0.36288	0.1289	0.114	0.30863	0.072663	0.35376	0.15804	0.19235	0.2152	0.17028	-0.76667	-0.63542	-0.525	-1.4438	-0.31667	-0.91667	-1.2042	-0.38542	-1.1021	-0.45833	-0.57917	-1.2188	-0.44167	-1.2021	-0.63333	-0.50625	118.773	330.316	178.036	17.548	49.854	254.190	296.262	27.711	203.545	260.036	338.401	322.869	114.725	365.237	138.426	40.805	0.00030767	0.00042841	0.00011528	1439.3	4.4847e-06	5.2766e-06	1431.8	379.71	3.3742e-06	7.3654e-06	432.78	141.38	123.85	42.298	3.2077e-06	52.286	0.0010057	0.0015076	0.00043238	1455.9	1.5935e-05	1.6849e-05	1449.9	387.66	1.5693e-05	1.6858e-05	440.17	145.4	127.05	43.285	1.5497e-05	53.441	153.083	88.812	71.925	25.111	182.000	173.884	24.943	29.554	185.507	154.630	29.212	33.503	34.080	38.638	188.695	38.055	-8191	255	
28321.535	1	1	0	0	0.15827	0.10453	0.20741	0.21561	0.23173	0.24311	0.069411	0.089733	0.12866	0.29371	0.031345	0.18888	0.31741	0.13908	0.10441	0.20783	-0.83125	-0.32292	-0.48958	-1.3208	-0.18125	-0.86875	-1.1521	-0.45208	-1.1354	-0.7125	-0.63125	-1.3042	-0.45208	-0.84792	-1.1125	-0.37917	147.009	182.623	86.797	299.238	286.272	211.255	253.708	349.787	294.150	190.902	236.388	12.799	275.675	125.348	153.327	302.967	0.00030748	0.0003855	0.00011253	1442.4	5.7592e-06	4.0065e-06	1432	380.66	2.3193e-06	7.2359e-06	431.74	141.86	123.31	42.144	3.2276e-06	51.786	0.00097904	0.0014829	0.00041361	1460.2	1.55e-05	1.6479e-05	1451.4	388.97	1.5223e-05	1.6693e-05	439.83	145.63	127.1	43.185	1.5784e-05	53.328	154.792	140.855	132.877	24.997	168.762	166.373	25.104	29.519	186.643	177.830	29.098	33.707	33.962	38.335	169.433	38.072	-8191	255	
28321.607	1	1	0	0	0.30081	0.14506	0.31028	0.12459	0.28606	0.17366	0.23677	0.29358	0.084522	0.080891	0.36889	0.24572	0.22057	0.2234	0.19654	0.52065	-0.69167	-0.75625	-0.39167	-1.4813	-0.37083	-0.79583	-1.1958	-0.51042	-1.0812	-0.80625	-0.54792	-1.3833	-0.72292	-0.60417	-1.2417	-0.23333	21.865	118.546	148.093	340.068	334.128	241.430	13.152	286.432	223.858	213.974	304.427	315.997	370.665	320.735	262.523	276.781	0.00028738	0.00040516	0.00010316	1442.4	7.1961e-06	5.1525e-06	1443.2	382.47	3.6309e-06	4.7972e-06	433.6	141.71	123.15	42.181	4.8024e-06	52.213	0.00098812	0.0015041	0.00041734	1461.3	1.5678e-05	1.6905e-05	1455.5	389.18	1.5383e-05	1.6745e-05	440.31	145.77	127.12	43.197	1.5332e-05	53.547	157.421	93.164	106.830	25.045	175.236	173.957	25.082	29.666	205.452	183.769	29.204	33.607	34.256	38.550	171.445	37.759	-8191	255	
28321.729	1	1	0	0	0.3603	0.037442	0.31445	0.25049	0.2136	0.029535	0.3665	0.3095	0.1756	0.18747	0.15196	0.13459	0.24035	0.33224	0.077823	0.089371	-0.65417	-0.77083	0.01875	-1.2604	-0.6125	-0.46875	-1.4188	-0.38125	-0.77917	-1.1187	-0.35417	-1.4667	-0.53958	-0.61875	-1.1646	-0.4125	318.860	215.746	115.666	341.758	365.375	169.508	339.373	345.556	101.678	68.996	278.507	186.939	339.124	12.411	153.396	286.650	0.000263	0.00031147	0.00014776	1445.9	2.689e-06	6.9763e-06	1437.5	381.14	1.1194e-06	6.3253e-06	432.2	141.46	123.83	42.008	4.1678e-06	52.075	0.00096996	0.0014388	0.00040189	1462.1	1.4839e-05	1.6134e-05	1452.6	388.42	1.4921e-05	1.6107e-05	440.48	145.66	127.51	43.222	1.5449e-05	53.528	151.895	81.722	104.472	25.097	187.236	182.059	25.059	29.538	143.268	165.115	29.014	33.888	34.153	38.663	166.982	38.114	-8191	255	
28321.822	1	1	0	0	0.087758	0.22342	0.29715	0.11065	0.23379	0.2459	0.11772	0.34347	0.069971	0.12244	0.24942	0.17057	0.19619	0.11657	0.040882	0.13677	-0.56667	-0.93333	-0.3125	-1.4042	-0.54792	-0.5375	-1.3583	-0.50833	-0.59792	-1.1542	-0.51458	-1.1812	-0.85417	-0.47292	-1.3042	-0.5125	226.132	220.596	116.268	335.342	165.923	296.764	319.248	321.803	157.324	178.658	313.397	292.084	345.712	54.607	331.656	301.693	0.00028016	0.00021105	0.0001583	1450	4.1703e-06	3.9329e-06	1436.7	382.74	5.5446e-06	7.2776e-06	432.15	142.15	124.36	42.194	4.8188e-06	52.342	0.00098532	0.0014338	0.00041444	1465.3	1.5101e-05	1.6345e-05	1456	389.03	1.5034e-05	1.5628e-05	440.46	146.24	127.69	43.37	1.5368e-05	53.602	152.888	102.497	108.585	24.928	173.298	156.555	24.878	29.487	164.534	160.592	29.174	33.562	34.100	38.685	169.885	37.931	-8191	255	
28321.920	1	1	0	0	0.12876	0.21702	0.29298	0.23067	0.20872	0.070191	0.25256	0.18582	0.33779	0.20918	0.11866	0.13801	0.31917	0.37578	0.14881	0.23933	-0.35833	-0.98542	-0.3375	-1.1562	-0.65417	-0.4125	-1.5771	-0.67917	-0.52083	-1.1583	-0.31875	-1.0333	-0.98542	-0.31042	-1.325	-0.55833	304.534	89.348	267.765	347.591	332.464	112.388	236.121	37.856	342.577	100.481	353.795	23.720	339.891	344.742	35.985	20.896	0.00031868	0.0005321	0.00012825	1450.5	3.2932e-06	5.9009e-06	1442	382.67	3.1273e-06	5.9748e-06	433.33	142.86	124.21	42.418	4.0681e-06	52.414	0.00094813	0.0014168	0.00040712	1466.4	1.4592e-05	1.5949e-05	1457.8	389.53	1.4716e-05	1.5378e-05	440.34	146.71	127.86	43.435	1.5018e-05	53.77	165.412	84.703	106.082	25.076	176.122	155.104	25.020	29.562	177.167	173.993	29.280	33.625	33.941	38.722	175.373	38.018	-8191	255	
28322.039	1	1	0	0	0.18958	0.10528	0.15439	0.2691	0.09762	0.068406	0.24091	0.35241	0.093294	0.19715	0.18747	0.32571	0.22546	0.16247	0.17412	0.17348	0.022917	-1.1604	-0.31875	-0.9625	-1.025	-0.22292	-1.3188	-0.85625	-0.54792	-1.2354	-0.40417	-0.98958	-1	-0.19583	-1.0458	-0.63958	284.609	306.387	31.362	359.054	350.056	155.356	31.736	319.845	173.764	301.746	21.219	369.825	301.060	15.146	86.538	230.182	0.00031216	0.00044605	0.00017192	1455.8	5.5667e-06	2.8215e-06	1442.5	383.89	3.9947e-06	6.2867e-06	435.9	142.46	124.9	42.286	3.1525e-06	52.246	0.00094358	0.0014042	0.0003965	1468.1	1.4579e-05	1.5717e-05	1458.9	390.56	1.4702e-05	1.4959e-05	442.52	146.69	128.22	43.476	1.4987e-05	53.803	161.174	61.425	104.252	25.147	191.243	194.193	24.936	29.485	191.097	146.365	28.979	33.673	34.159	38.437	191.252	38.081	-8191	255	
28322.137	1	1	0	0	0.087061	0.24972	0.31169	0.34065	0.04916	0.11506	0.13091	0.24526	0.20131	0.20047	0.15817	0.27528	0.27576	0.1334	0.16504	0.23725	0.18125	-1.0938	-0.36667	-0.81667	-1.125	-0.1	-1.325	-0.91458	-0.47083	-1.1604	-0.48125	-0.85	-1.2979	-0.35208	-0.94375	-0.89792	12.258	276.380	125.205	353.262	130.661	18.587	175.136	263.575	93.814	199.194	327.140	363.926	20.459	21.247	151.146	146.350	0.00029217	0.00053129	0.00012582	1454.7	2.9699e-06	2.3905e-06	1445.2	383.66	2.8791e-06	7.5315e-06	433.72	143.07	124.4	42.524	6.1306e-06	52.443	0.00097156	0.0013729	0.00040548	1469	1.4466e-05	1.5641e-05	1462.3	391.02	1.4414e-05	1.5203e-05	441.82	146.95	128.34	43.641	1.4645e-05	54.008	148.330	95.352	136.331	24.945	147.587	215.858	25.008	29.626	175.818	157.142	29.241	33.673	33.988	38.833	148.277	38.050	-8191	255	
28322.232	1	1	0	0	0.19581	0.17436	0.32997	0.36271	0.07949	0.37535	0.26955	0.41446	0.14801	0.16504	0.1513	0.30924	0.28288	0.22022	0.099347	0.28131	0.14375	-1.1292	-0.15208	-0.6625	-1.1812	-0.39375	-1.0979	-0.99583	-0.1875	-1.0625	-0.58125	-0.54167	-1.5729	-0.39583	-0.59375	-1.0104	46.889	17.274	89.685	308.343	151.601	86.112	342.725	258.695	280.881	271.156	353.308	355.340	252.097	43.250	41.059	45.548	0.00030974	0.00043465	9.8909e-05	1459.8	4.8667e-06	4.4315e-06	1449.9	384.7	1.8938e-06	6.8591e-06	435.89	143.77	125.77	42.68	5.2359e-06	52.47	0.00093598	0.0013729	0.00039074	1471.3	1.4424e-05	1.5512e-05	1463	392.18	1.4494e-05	1.5298e-05	443.82	147.66	128.95	43.819	1.4561e-05	54.112	148.909	93.024	106.566	25.113	170.376	165.614	25.193	29.628	197.977	137.871	29.017	33.552	34.240	38.730	161.700	37.818	-8191	255	
28322.303	1	1	0	0	0.049299	0.18255	0.10704	0.11445	0.24535	0.12801	0.30626	0.34331	0.17518	0.10175	0.19547	0.14517	0.22324	0.32571	0.091108	0.25043	0.32708	-1.1792	-0.6	-0.68125	-1.15	-0.46042	-1.025	-1.2917	-0.24792	-1.0771	-0.5625	-0.50833	-1.2917	-0.45	-0.75417	-0.98125	167.637	294.270	304.521	200.123	180.431	152.306	293.064	318.671	217.750	268.587	317.436	366.826	51.294	57.200	64.034	249.439	0.00030452	0.00061274	0.00024547	1451.9	4.1344e-06	7.2027e-06	1444.8	386.35	3.3681e-06	6.6047e-06	435.73	143.58	126	42.618	4.2498e-06	52.846	0.00093785	0.001355	0.00038993	1469.5	1.4421e-05	1.581e-05	1463.5	393.14	1.4707e-05	1.5483e-05	443.82	147.73	129.08	43.734	1.4922e-05	54.262	154.793	101.867	101.882	25.106	180.764	171.743	25.137	29.510	182.559	177.487	29.204	33.709	34.307	38.273	172.381	38.124	-8191	255	
28322.424	1	1	0	0	0.21284	0.24319	0.16082	0.4265	0.07321	0.081254	0.26948	0.377	0.19246	0.15512	0.292	0.11829	0.28865	0.10623	0.12404	0.143	0.13125	-1.05	-0.65833	-0.53125	-1.0854	-0.65208	-0.81667	-1.3333	-0.097917	-0.93958	-1.0104	-0.43958	-1.3708	-0.50625	-0.45208	-1.4104	273.470	357.254	220.239	323.299	265.765	18.009	326.899	296.377	158.434	213.096	350.558	274.708	330.857	308.048	138.192	283.948	0.00028155	0.00043522	0.00012722	1456	4.985e-06	5.5216e-06	1446.6	383.71	3.9663e-06	4.2692e-06	436.29	143.45	125.2	42.52	3.2444e-06	52.628	0.00095411	0.0013677	0.00038741	1470.1	1.4547e-05	1.5813e-05	1463.9	391.97	1.4367e-05	1.5388e-05	443.49	147.5	128.62	43.657	1.4934e-05	53.969	153.946	96.027	125.095	25.199	186.598	198.233	25.173	29.510	172.582	156.548	29.020	33.620	34.000	38.705	223.071	37.917	-8191	255	
28322.520	1	1	0	0	0.2297	0.32181	0.13749	0.15669	0.16308	0.13864	0.30021	0.17156	0.18869	0.054038	0.11123	0.1045	0.12937	0.22166	0.040045	0.16448	0.054167	-0.7125	-0.69792	-0.34792	-1.2979	-0.44792	-0.82708	-1.2333	-0.38125	-0.84792	-1.2021	-0.28333	-1.425	-0.63125	-0.39375	-1.2896	151.382	286.783	104.352	362.486	94.894	224.265	290.042	252.410	316.016	154.727	90.388	191.728	20.543	287.509	86.922	22.149	0.00027357	0.00076209	0.00018464	1456.4	4.7465e-06	4.5761e-06	1447.1	385.56	3.4762e-06	6.3294e-06	436.34	142.91	124.95	42.613	4.7578e-06	52.779	0.00096675	0.001384	0.00039135	1471.5	1.451e-05	1.5804e-05	1462.1	392.5	1.463e-05	1.5871e-05	443.14	147.24	128.47	43.684	1.5085e-05	54.026	145.186	109.484	101.744	25.062	195.744	184.703	25.242	29.644	169.970	158.189	29.042	33.784	34.255	38.450	175.256	37.835	-8191	255	
28322.615	1	1	0	0	0.20836	0.25538	0.30055	0.44646	0.21208	0.080839	0.22254	0.17805	0.094607	0.28822	0.17428	0.29895	0.12088	0.22911	0.37252	0.10646	0.0375	-0.56458	-1.0625	-0.4375	-1.2	-0.62708	-0.64792	-1.2896	-0.475	-0.64375	-1.075	-0.44583	-1.2208	-0.93125	-0.30208	-1.1521	307.091	357.982	174.864	319.191	46.060	105.088	88.487	262.443	74.651	322.496	25.581	39.299	40.330	80.818	187.563	328.330	0.00030183	0.00068439	0.00018376	1453.9	5.3094e-06	5.0635e-06	1449.2	385.03	2.3806e-06	8.7428e-06	435.26	143.47	125.55	42.622	5.1786e-06	52.933	0.00097759	0.0014153	0.00039754	1471.6	1.4742e-05	1.6206e-05	1463.7	392.22	1.4896e-05	1.5835e-05	443.41	147.42	128.93	43.777	1.5202e-05	54.26	162.626	119.617	113.611	25.188	192.275	159.407	24.874	29.683	180.599	174.570	29.103	33.672	34.338	38.387	187.254	37.980	-8191	255	
28322.713	1	1	0	0	0.17992	0.17322	0.22296	0.40498	0.21988	0.17576	0.14217	0.20973	0.20262	0.21392	0.069177	0.13542	0.18488	0.024537	0.22086	0.24812	0.014583	-0.56875	-1.1708	-0.58333	-0.95208	-0.73125	-0.5375	-1.2938	-0.2625	-0.55625	-1.1896	-0.54375	-1.0833	-0.84583	-0.20833	-1.3396	173.278	294.441	294.171	370.973	12.548	298.634	277.754	353.604	279.615	187.258	358.639	208.608	363.364	73.787	229.557	289.547	0.00028221	0.00058661	0.00014795	1458.7	3.904e-06	5.5398e-06	1449.8	386.18	4.9285e-06	5.616e-06	437.76	143.36	125.71	42.719	4.6417e-06	52.798	0.0009751	0.0013961	0.00039573	1475.5	1.4539e-05	1.5721e-05	1467.4	393.02	1.4902e-05	1.5732e-05	444.3	147.61	128.86	43.774	1.515e-05	54.211	152.155	88.980	66.802	25.040	187.775	155.223	25.108	29.688	184.542	170.191	29.073	33.744	34.033	38.687	176.815	37.859	-8191	255	
28322.830	1	1	0	0	0.14446	0.22256	0.2358	0.25224	0.055189	0.17398	0.13064	0.21723	0.095732	0.27957	0.25305	0.058469	0.22042	0.26441	0.21086	0.21631	-0.22292	-0.36458	-1.0271	-0.3875	-0.88333	-1.0646	-0.59792	-1.2667	-0.48125	-0.42292	-1.3854	-0.67083	-0.87917	-1.1125	-0.29375	-0.91667	47.457	240.599	347.513	301.964	84.269	30.061	243.158	14.684	92.483	343.249	24.916	21.572	348.609	32.205	30.788	87.607	0.00028271	0.00047624	8.951e-05	1456.5	6.1103e-06	3.079e-06	1449.9	385.29	2.2771e-06	5.7477e-06	434.84	143.82	125.73	42.591	3.0159e-06	52.725	0.00096384	0.0013809	0.00039402	1475.7	1.4557e-05	1.5664e-05	1466.4	392.83	1.4831e-05	1.5664e-05	444.18	147.79	128.9	43.837	1.5708e-05	54.278	155.400	56.377	137.779	25.075	156.354	156.083	25.015	29.620	207.317	163.255	29.023	33.556	34.145	38.197	163.087	37.998	-8191	255	
28322.904	1	1	0	0	0.070662	0.16794	0.1622	0.3072	0.24433	0.1277	0.14156	0.23998	0.12914	0.22697	0.19613	0.11229	0.19421	0.21192	0.19271	0.16465	-0.39375	-0.32917	-1.1646	-0.74167	-0.65417	-1.0833	-0.52083	-1.1688	-0.8	-0.43958	-1.3563	-0.45208	-0.72708	-1.1458	-0.3125	-0.83958	239.468	338.629	289.516	14.305	173.463	72.465	258.783	315.032	44.728	319.518	31.467	338.339	344.577	96.141	97.918	238.306	0.00028277	0.00034268	0.00010588	1454.1	3.4162e-06	4.8534e-06	1446	386.35	3.8971e-06	4.309e-06	437	143.83	125.41	42.826	6.1717e-06	52.926	0.00094304	0.0013791	0.00039659	1473	1.4682e-05	1.5453e-05	1465	393.38	1.4541e-05	1.5722e-05	444.04	147.66	128.86	43.834	1.5322e-05	54.3	157.769	67.662	117.676	24.938	188.098	196.038	25.084	29.618	189.463	164.859	29.269	33.704	34.475	38.665	156.370	38.008	-8191	255	
28323.002	1	1	0	0	0.14744	0.10114	0.29765	0.3357	0.073697	0.18779	0.35262	0.032001	0.13913	0.21281	0.4094	0.070727	0.35349	0.12826	0.17253	0.062637	-0.44792	-0.34167	-0.95208	-0.73125	-0.74167	-1.1021	-0.58125	-1.1313	-1.0125	-0.40208	-1.3479	-0.68333	-0.36042	-1.1187	-0.19375	-0.99792	306.177	49.178	366.526	341.534	305.050	360.459	326.420	238.449	73.735	364.748	257.154	364.403	355.302	308.166	345.173	65.848	0.00027767	0.00069099	0.00017061	1458.1	4.1531e-06	4.7574e-06	1449.4	386.08	2.909e-06	4.1258e-06	437.14	144.55	125.65	42.638	5.9126e-06	52.984	0.00095594	0.0014085	0.00039713	1473.4	1.4266e-05	1.5672e-05	1466.3	393.15	1.4446e-05	1.5793e-05	445.05	148.17	128.93	43.841	1.5083e-05	54.285	153.593	120.071	87.141	24.965	170.006	150.072	25.088	29.793	166.460	192.807	28.931	33.492	34.277	38.541	173.977	38.037	-8191	255	
28323.119	1	1	0	0	0.25582	0.24433	0.081791	0.10647	0.19413	0.14681	0.0264	0.42282	0.11361	0.068527	0.40469	0.3149	0.066367	0.13366	0.082929	0.22689	-0.52083	-0.22917	-0.99583	-0.84167	-0.43125	-1.1146	-0.71875	-1.1167	-1.0833	-0.2625	-1.2792	-0.95208	-0.38542	-1.2521	-0.28542	-0.90625	186.567	201.299	335.729	52.703	30.286	202.892	264.863	347.039	221.086	295.918	300.062	15.860	69.685	136.939	270.674	262.343	0.00028245	0.0004128	0.00013301	1464.3	5.355e-06	7.1919e-06	1451.6	385.92	4.5459e-06	4.7229e-06	437.68	143.41	126.02	42.632	2.7027e-06	52.99	0.00095408	0.0014359	0.00040377	1476.6	1.4906e-05	1.5685e-05	1467.6	393.21	1.4486e-05	1.6012e-05	444.95	147.99	129.14	43.853	1.5269e-05	54.34	153.849	115.813	125.331	24.880	204.456	161.628	24.942	29.880	163.987	153.956	29.064	33.709	34.203	38.673	196.603	37.891	-8191	255	
28323.217	1	1	0	0	0.17231	0.25851	0.066325	0.29362	0.12955	0.12715	0.43999	0.28183	0.20429	0.17448	0.10252	0.23121	0.24311	0.14766	0.13581	0.1333	-0.68333	-0.26458	-0.94375	-1.1021	-0.6375	-1.1708	-0.70208	-0.78542	-1.2146	-0.36042	-1.0354	-0.83125	-0.42917	-1.2146	-0.4625	-0.57083	220.525	27.345	252.146	328.393	134.527	73.501	307.146	79.438	13.551	93.211	30.142	97.032	38.143	209.800	164.448	338.581	0.000331	0.00026968	0.00020456	1455.1	5.7049e-06	7.9369e-06	1445.5	385.47	4.3838e-06	5.8163e-06	436.29	143.84	125.62	42.764	4.1995e-06	52.737	0.00095211	0.001408	0.00039439	1475.2	1.4668e-05	1.5527e-05	1466.1	393.04	1.4617e-05	1.6112e-05	444.44	147.99	128.98	43.875	1.5025e-05	54.151	154.343	93.794	127.484	24.979	183.886	177.028	25.272	29.893	181.678	201.647	29.007	33.543	34.286	38.571	162.826	37.851	-8191	255	
28323.312	1	1	0	0	0.090935	0.1347	0.13361	0.37613	0.27168	0.28662	0.18391	0.40111	0.15816	0.23053	0.38449	0.33286	0.30748	0.067933	0.14837	0.16293	-0.85833	-0.31458	-0.97083	-1.075	-0.25625	-1.0979	-0.8	-0.57292	-1.0438	-0.225	-0.86875	-0.89167	-0.29167	-1.0812	-0.80208	-0.55417	177.250	298.725	257.314	332.862	149.328	40.825	339.797	345.184	290.694	153.075	305.678	59.662	370.936	192.295	78.469	239.208	0.00027153	0.00037246	0.00012519	1454.1	2.9904e-06	3.9029e-06	1449.8	386.54	3.6288e-06	4.9082e-06	436.02	143.69	125.61	42.644	4.2446e-06	52.738	0.00093849	0.0013975	0.00038946	1471.8	1.4438e-05	1.5761e-05	1465.5	393.57	1.4703e-05	1.6036e-05	443.5	147.73	129.18	43.824	1.5163e-05	54.185	155.854	78.310	102.207	25.044	197.385	160.941	25.078	29.753	166.702	140.241	29.341	33.655	34.209	38.854	187.978	37.794	-8191	255	
28323.408	1	1	0	0	0.17742	0.22065	0.24233	0.51079	0.11856	0.080282	0.040286	0.25921	0.33719	0.18497	0.11899	0.27596	0.30628	0.22512	0.25063	0.33377	-0.95	-0.29583	-0.73333	-1.3896	-0.41667	-1	-0.99375	-0.63125	-1.2458	-0.31667	-0.69583	-1.1083	-0.27708	-0.95	-0.8125	-0.45833	214.061	274.258	301.993	28.136	357.698	82.043	263.161	310.450	22.051	66.382	357.437	365.260	251.730	35.797	370.046	248.758	0.00031286	0.00043426	0.00013872	1457.9	3.9599e-06	5.3871e-06	1445.8	386.8	3.6942e-06	5.6087e-06	438.21	143.83	125.94	42.793	4.5726e-06	52.73	0.00095272	0.0013709	0.00039257	1475.1	1.4811e-05	1.5414e-05	1465	393.4	1.4373e-05	1.5717e-05	445.31	148.07	129.2	43.945	1.4949e-05	54.241	160.174	89.560	139.925	25.024	193.675	154.265	24.805	29.981	157.948	167.410	29.378	33.801	34.351	38.596	151.394	38.047	-8191	255	
28323.504	1	1	0	0	0.045252	0.22075	0.15259	0.027773	0.13873	0.046225	0.24495	0.11618	0.18449	0.18578	0.050815	0.2918	0.13382	0.27673	0.1989	0.19661	-0.94167	-0.56667	-0.55833	-1.3979	-0.19792	-0.97917	-1.0333	-0.50625	-1.1708	-0.61042	-0.58333	-1.2646	-0.55	-1.1146	-1.0167	-0.15208	150.076	180.660	235.788	305.671	120.218	286.690	273.223	333.566	182.103	14.660	124.856	48.556	19.407	336.307	216.255	333.248	0.00029504	0.00042335	0.0001709	1458.1	3.9902e-06	4.3704e-06	1454.6	384.73	3.4217e-06	4.8923e-06	437.01	143.66	125.6	42.652	5.5849e-07	52.825	0.00094754	0.0013688	0.00039807	1474.8	1.4583e-05	1.555e-05	1468.4	392.95	1.4818e-05	1.6337e-05	444.29	147.8	129.02	43.906	1.497e-05	54.27	151.351	120.436	116.605	25.050	162.857	176.671	25.100	29.666	220.648	171.590	29.192	33.758	34.431	38.710	191.695	38.074	-8191	255	
28323.600	1	1	0	0	0.062601	0.13703	0.15589	0.36775	0.36266	0.18194	0.31575	0.17305	0.14151	0.29295	0.15563	0.41839	0.20343	0.38929	0.1088	0.22445	-0.55625	-0.70208	-0.38542	-1.3937	-0.34792	-0.9	-1.2333	-0.42292	-0.96042	-0.67292	-0.4	-1.2292	-0.43958	-0.81042	-1.0063	-0.19167	127.370	288.878	89.181	321.311	264.054	137.555	344.572	292.671	71.298	67.292	293.704	272.156	337.992	320.520	136.092	18.064	0.00032469	0.00054644	0.0001009	1463.9	4.2058e-06	6.8744e-06	1452.5	385.2	5.7643e-06	3.4482e-06	436.78	144.24	126.05	42.865	3.4235e-06	52.904	0.00094714	0.0013669	0.00039099	1477.4	1.4404e-05	1.5515e-05	1468.2	393.1	1.4521e-05	1.5908e-05	444.81	148.29	129.34	43.953	1.4672e-05	54.276	154.484	120.910	111.818	25.077	169.660	192.298	24.911	29.725	158.378	164.890	29.362	33.537	34.275	38.644	179.228	37.850	-8191	255	
28323.721	1	1	0	0	0.16992	0.18802	0.51991	0.31043	0.11267	0.092781	0.18592	0.24634	0.16461	0.062323	0.090118	0.29768	0.3079	0.036089	0.11497	0.06158	-0.44167	-0.61042	-0.57917	-1.4583	-0.40417	-0.75625	-1.3458	-0.38958	-1.0542	-0.91458	-0.48958	-1.2125	-0.60625	-0.71875	-1.1646	-0.36875	56.234	302.916	316.074	347.646	300.479	68.988	281.447	352.707	362.111	93.238	192.565	315.193	322.948	83.593	323.137	321.210	0.00030739	0.00050685	0.00018029	1461.7	3.3298e-06	5.4877e-06	1452	384.86	3.2585e-06	4.7989e-06	438.09	143.65	124.6	42.554	4.8153e-06	52.686	0.00097088	0.0014167	0.00039549	1478.7	1.4871e-05	1.5439e-05	1470.8	392.76	1.4766e-05	1.5801e-05	444.37	147.83	128.63	43.753	1.4938e-05	54.118	155.844	105.637	86.602	25.074	198.827	139.330	24.932	29.752	166.245	178.372	29.263	33.531	34.055	38.558	165.281	37.886	-8191	255	
28323.816	1	1	0	0	0.092736	0.31105	0.1206	0.11464	0.2723	0.42626	0.34755	0.16123	0.16856	0.14036	0.23887	0.092798	0.27001	0.10517	0.089575	0.081375	-0.60625	-1.0458	-0.26042	-1.3833	-0.62083	-0.5375	-1.3708	-0.53958	-0.82083	-0.85208	-0.42708	-1.4167	-0.69583	-0.57083	-1.1021	-0.39375	66.390	348.400	343.684	315.489	163.228	191.692	258.182	360.119	169.885	349.744	283.356	67.694	160.956	215.233	316.945	60.376	0.00025915	0.00057865	0.00015157	1466	5.6979e-06	4.8171e-06	1450.3	385.29	2.768e-06	5.7409e-06	435.03	143.91	124.83	42.595	5.3065e-06	52.553	0.00096605	0.0013938	0.000406	1478.5	1.4934e-05	1.5805e-05	1467.9	392.43	1.4773e-05	1.5724e-05	443.35	147.7	128.65	43.704	1.512e-05	53.902	158.063	86.484	101.347	25.242	168.956	182.891	25.018	29.347	142.535	176.436	29.130	33.651	34.309	38.364	185.919	37.946	-8191	255	
28323.912	1	1	0	0	0.29044	0.062338	0.14666	0.13904	0.04492	0.20268	0.051146	0.1634	0.23948	0.090214	0.28086	0.06628	0.063534	0.062574	0.10118	0.21978	-0.31667	-0.89167	-0.18125	-1.2542	-0.58542	-0.48958	-1.3792	-0.43333	-0.65417	-1.0292	-0.44792	-1.0271	-0.88542	-0.31458	-1.2583	-0.55833	158.714	273.723	256.440	53.468	42.666	62.799	219.904	221.615	87.358	333.570	371.277	264.672	104.652	56.124	159.713	195.767	0.00031671	0.00042296	0.00020934	1456.5	6.4422e-06	6.8679e-06	1448	385.13	4.6071e-06	4.0701e-06	435.83	143.82	125.54	42.482	3.7131e-06	52.646	0.00096921	0.0014193	0.00040564	1475.6	1.472e-05	1.6146e-05	1468.1	392.7	1.4862e-05	1.5996e-05	443	147.68	129.07	43.72	1.4917e-05	54.22	154.573	122.125	98.305	25.125	192.911	173.276	24.887	29.632	180.493	171.449	29.212	33.899	34.156	38.886	177.389	37.993	-8191	255	
28324.008	1	1	0	0	0.14415	0.033213	0.27082	0.27381	0.15567	0.046562	0.090079	0.15633	0.22435	0.079205	0.22602	0.07995	0.071035	0.057288	0.17874	0.26009	-0.32292	-1.2062	-0.41875	-1.0812	-0.86042	-0.25208	-1.3146	-0.65	-0.48333	-1.1729	-0.38125	-1.0667	-0.89583	-0.31875	-1.2729	-0.82917	50.736	284.192	97.176	279.172	145.065	344.258	44.108	334.110	91.471	306.303	212.755	209.771	53.916	125.462	355.932	80.992	0.00028328	0.00029358	0.00012463	1462.4	4.9142e-06	5.8137e-06	1454	386.46	5.7568e-06	4.0785e-06	436.66	143.47	125.55	42.531	3.2784e-06	52.427	0.00097468	0.0014113	0.0003997	1477.4	1.4649e-05	1.5683e-05	1469	392.75	1.4703e-05	1.6282e-05	444.1	147.51	128.91	43.765	1.5085e-05	54.005	154.472	53.931	113.324	25.129	182.018	171.280	25.160	29.400	192.331	176.722	29.086	33.848	34.159	38.498	136.988	37.839	-8191	255	
28324.129	1	1	0	0	0.087476	0.17114	0.1547	0.24962	0.12792	0.15196	0.39663	0.19155	0.077473	0.12275	0.16698	0.22257	0.16145	0.18122	0.15906	0.074258	-0.25	-1.0354	-0.11667	-0.9375	-0.97708	-0.19167	-1.3208	-0.74583	-0.54792	-1.2188	-0.4875	-0.93333	-1.0896	-0.22708	-1.0667	-0.71875	284.845	180.647	277.012	38.833	250.944	161.618	273.799	293.280	135.404	340.583	15.162	327.632	174.113	38.952	292.001	78.633	0.00026424	0.00025228	0.00011198	1461.2	3.7996e-06	4.1101e-06	1450	385.61	4.9284e-06	6.0529e-06	436.62	144.09	125.01	42.557	5.0517e-06	52.656	0.00098406	0.0014522	0.00041175	1475.9	1.4739e-05	1.6293e-05	1468.8	392.4	1.4847e-05	1.5648e-05	443.94	147.83	128.65	43.659	1.5231e-05	54.128	155.567	126.017	113.571	25.027	206.131	191.102	25.163	29.547	192.203	142.350	29.303	33.792	34.474	38.669	178.961	37.907	-8191	255	
28324.199	1	1	0	0	0.18726	0.35591	0.13292	0.36827	0.25225	0.16521	0.30446	0.54562	0.1737	0.33595	0.08241	0.072717	0.21959	0.32737	0.078368	0.14726	0.14792	-1.1875	-0.17708	-0.88125	-0.97083	-0.47917	-1.1021	-0.73125	-0.35208	-1.1833	-0.73958	-0.61667	-1.2083	-0.31042	-0.80417	-0.96042	248.580	26.323	25.138	370.900	171.652	109.663	69.151	314.503	267.292	241.239	52.049	259.702	367.017	317.846	251.756	324.480	0.00031236	0.00050305	0.00013442	1456.2	3.5591e-06	2.9577e-06	1450.1	385.69	4.8296e-06	4.2717e-06	433.97	142.92	125.25	42.324	5.1987e-06	52.697	0.00097266	0.0014212	0.00040861	1474.9	1.5013e-05	1.6408e-05	1467.9	392.49	1.5084e-05	1.6238e-05	442.91	147.59	128.86	43.646	1.5438e-05	54.099	148.335	107.954	146.299	25.040	191.657	182.390	25.183	29.583	173.400	156.524	29.278	33.738	34.078	38.640	156.600	37.820	-8191	255	
28324.297	1	1	0	0	0.097496	0.30429	0.19575	0.38702	0.20212	0.2982	0.18871	0.38965	0.18289	0.12041	0.2284	0.36103	0.37433	0.29338	0.079641	0.25943	0.16875	-1.075	-0.23958	-0.66458	-0.99792	-0.28958	-1.0854	-0.96667	-0.28542	-1.0854	-0.88333	-0.52917	-1.2687	-0.64583	-0.74792	-1.2875	337.801	125.429	176.662	362.782	101.758	314.938	239.936	287.687	32.726	286.573	278.243	293.311	335.674	344.510	15.161	293.192	0.0002935	0.00039813	0.00021494	1458.5	3.2725e-06	2.8428e-06	1451.4	385.51	2.5689e-06	2.8025e-06	436.12	143.36	125.21	42.882	3.6411e-06	52.8	0.00098183	0.0013757	0.00041133	1476.3	1.4464e-05	1.6149e-05	1470.1	392.55	1.4757e-05	1.5873e-05	444.42	147.9	128.82	43.887	1.4783e-05	54.152	159.655	83.406	112.267	25.092	203.683	201.129	25.221	29.586	174.181	169.678	29.163	33.926	34.347	38.400	170.509	37.918	-8191	255	
28324.393	1	1	0	0	0.03156	0.29213	0.21874	0.27477	0.23512	0.1619	0.25269	0.23463	0.065455	0.37184	0.046241	0.21759	0.086796	0.21176	0.069318	0.25854	0.0625	-1.0667	-0.59375	-0.58125	-1.225	-0.49167	-0.98958	-1.2375	-0.30833	-1.0604	-0.77292	-0.47292	-1.35	-0.38333	-0.77917	-1.2812	201.841	48.736	175.530	342.483	295.746	64.760	308.251	354.825	257.259	250.329	13.999	304.367	40.412	14.363	319.568	318.106	0.00026355	0.00036182	0.00017355	1464.4	4.9999e-06	2.2307e-06	1453.6	384.47	4.1862e-06	5.0177e-06	436.05	143.63	125.29	42.548	2.6498e-06	52.635	0.00095003	0.0013841	0.00039566	1478.6	1.4653e-05	1.6091e-05	1468.6	392.74	1.5027e-05	1.5777e-05	444.24	147.64	128.92	43.749	1.5087e-05	54.006	152.323	130.843	117.677	25.168	203.709	127.208	25.196	29.707	199.436	176.682	28.941	33.887	34.310	38.648	165.304	37.728	-8191	255	
28324.514	1	1	0	0	0.075418	0.14395	0.088091	0.21749	0.080366	0.053197	0.42363	0.17099	0.3015	0.13035	0.14368	0.084177	0.089736	0.23212	0.34584	0.14581	0.27292	-0.90208	-0.89375	-0.58125	-1.1938	-0.4625	-0.88542	-1.4688	-0.24792	-0.92292	-0.875	-0.44375	-1.3438	-0.59583	-0.49792	-1.2188	288.826	175.105	338.839	344.119	240.737	108.472	356.727	213.988	223.152	14.883	187.966	196.911	361.192	272.010	239.902	252.355	0.00027104	0.00054819	0.0002129	1460.8	3.5881e-06	6.2327e-06	1449.4	384.38	4.5488e-06	4.8917e-06	436.37	143.55	125.53	42.589	6.1784e-06	52.762	0.00095788	0.0013967	0.00040493	1477.3	1.4558e-05	1.6302e-05	1467.6	392.52	1.4959e-05	1.5712e-05	443.7	147.57	129.01	43.759	1.496e-05	54.098	161.172	95.417	91.918	24.944	195.880	173.947	24.827	29.617	202.905	113.511	28.994	33.464	34.129	38.185	206.318	37.991	-8191	255	
28324.609	1	1	0	0	0.097836	0.0574	0.17483	0.21074	0.053848	0.14314	0.23477	0.38277	0.14352	0.16705	0.26604	0.26598	0.31397	0.10126	0.17518	0.22633	0.14792	-0.79792	-0.9875	-0.58958	-1.175	-0.67083	-0.74167	-1.3292	-0.33125	-0.59792	-0.9375	-0.3375	-1.0167	-0.8375	-0.30833	-1.3229	164.109	101.718	338.125	301.435	316.515	204.572	337.893	339.627	354.089	334.901	361.201	272.027	328.605	17.500	287.793	27.110	0.00029485	0.00039845	0.00014889	1455.7	4.569e-06	4.1989e-06	1455.1	386.24	4.6236e-06	3.8281e-06	436.29	143.98	125.79	42.62	6.5498e-06	52.633	0.00096056	0.0014068	0.00040196	1473.1	1.4321e-05	1.602e-05	1469.2	393.36	1.4965e-05	1.5982e-05	443.98	147.97	129.02	43.811	1.5017e-05	54.175	154.902	104.224	73.166	24.837	218.946	170.546	24.901	29.429	148.342	195.657	28.855	33.574	34.184	38.643	176.069	37.582	-8191	255	
28324.705	1	1	0	0	0.11596	0.062627	0.19376	0.02962	0.17529	0.17544	0.27961	0.18473	0.13308	0.28902	0.33842	0.046975	0.28056	0.15202	0.11566	0.12494	0.125	-0.6875	-1.0208	-0.56875	-0.99583	-0.73958	-0.61458	-1.4146	-0.44167	-0.60625	-1.2708	-0.35625	-1.3021	-0.78958	-0.3375	-1.3021	175.305	125.449	15.357	16.355	103.083	36.252	309.872	338.267	239.618	192.427	343.913	222.736	306.732	356.909	241.907	262.571	0.00030215	0.00057784	0.00010115	1462.2	4.6404e-06	4.4571e-06	1449.9	384.67	5.1526e-06	5.5264e-06	436.01	143.59	125.59	42.529	3.6413e-06	52.771	0.00095971	0.0013889	0.00039683	1477.2	1.46e-05	1.5991e-05	1469	392.75	1.4508e-05	1.5514e-05	444.07	148.07	129.09	43.816	1.517e-05	54.241	154.494	85.683	101.280	24.877	178.139	166.454	24.893	29.575	193.699	155.590	28.909	33.788	34.085	38.320	177.415	37.785	-8191	255	
28324.803	1	1	0	0	0.04119	0.24745	0.23885	0.42525	0.21032	0.20315	0.23722	0.25831	0.13855	0.027936	0.10507	0.23331	0.20126	0.12465	0.062836	0.25112	-0.06875	-0.66458	-1.4167	-0.35625	-0.92083	-1.0104	-0.24792	-1.275	-0.5875	-0.52917	-1.2833	-0.37083	-0.98333	-0.83958	-0.35	-1.2729	298.060	82.641	86.905	326.811	53.589	151.707	311.116	363.573	202.380	238.678	174.040	358.769	23.342	12.392	93.286	24.227	0.00030794	0.00040437	9.9438e-05	1456.8	3.6794e-06	3.9131e-06	1453.4	384.81	3.9266e-06	9.0505e-06	437.23	143.57	125.23	42.566	2.1902e-06	52.711	0.00095563	0.0013749	0.0003931	1474.9	1.4145e-05	1.6032e-05	1469.8	392.32	1.4913e-05	1.5513e-05	444.27	147.8	128.91	43.789	1.4983e-05	54.141	156.781	86.314	138.621	24.970	182.910	194.717	24.917	29.609	191.347	180.826	28.881	33.593	34.210	38.271	165.193	37.848	-8191	255	
28324.896	1	1	0	0	0.071473	0.049545	0.17211	0.14474	0.33033	0.30483	0.29313	0.36103	0.21223	0.064559	0.27093	0.20121	0.049381	0.24797	0.051616	0.14299	-0.097917	-0.48958	-1.2833	-0.63333	-0.73958	-0.82917	-0.51875	-1.2583	-0.5125	-0.34375	-1.1688	-0.44792	-1.0125	-1.0521	-0.32708	-1.2104	206.164	121.705	51.460	228.714	161.243	41.568	328.988	292.287	290.103	234.253	333.614	321.106	88.586	150.667	339.892	63.377	0.00025945	0.00055726	0.00010864	1459.5	3.2163e-06	8.043e-06	1446.7	384.89	5.3279e-06	5.6847e-06	435.96	143.64	125.85	42.419	6.3203e-06	52.743	0.00094766	0.0013963	0.00039434	1474.9	1.4352e-05	1.5773e-05	1467.3	392.39	1.4398e-05	1.5604e-05	443.4	147.7	128.98	43.738	1.504e-05	54.106	157.185	107.493	116.106	24.851	174.913	168.554	24.959	29.711	169.240	149.982	29.099	33.507	34.102	38.265	147.251	37.979	-8191	255	
28324.992	1	1	0	0	0.1702	0.24239	0.3237	0.30981	0.06461	0.1852	0.11152	0.30177	0.36266	0.078985	0.12486	0.16152	0.1493	0.16871	0.1469	0.14747	-0.39375	-0.35833	-1.1292	-0.67083	-0.3625	-1.2604	-0.45833	-1.2375	-0.78125	-0.39375	-1.2458	-0.68125	-0.61458	-1.3312	-0.42708	-1.0854	253.266	112.802	314.475	286.756	340.139	15.109	256.218	334.740	189.295	43.141	262.247	331.656	347.513	155.427	95.292	87.463	0.00026712	0.00037437	0.00012468	1457.4	6.0319e-06	2.4223e-06	1452.8	386.84	2.5224e-06	5.0702e-06	435.55	143.82	125.04	42.544	6.6815e-06	52.662	0.00095296	0.001418	0.00038538	1474.9	1.4686e-05	1.565e-05	1467.9	393.1	1.437e-05	1.5603e-05	444.02	147.61	128.86	43.705	1.4927e-05	54.08	159.871	88.443	111.276	24.864	192.401	143.359	24.946	29.494	166.786	163.034	29.135	33.647	34.125	38.410	142.590	37.734	-8191	255	
28325.090	1	1	0	0	0.062489	0.21382	0.098682	0.16483	0.28753	0.25968	0.06632	0.1516	0.1197	0.17761	0.29237	0.091338	0.24768	0.11709	0.069208	0.23139	-0.3875	-0.35	-1.1917	-0.84375	-0.49583	-1.1812	-0.53542	-0.87708	-1.1396	-0.30208	-1.2146	-0.76667	-0.47917	-1.3458	-0.29167	-0.69583	137.719	307.648	170.990	232.697	134.444	60.615	68.530	36.128	38.608	303.475	330.539	369.637	277.595	142.837	76.993	313.430	0.00026764	0.00043531	0.00016775	1459.2	4.7343e-06	3.3291e-06	1449	385.38	5.0263e-06	7.404e-06	436.5	142.94	125.45	42.763	4.0638e-06	52.834	0.00095751	0.0013917	0.00039915	1474.3	1.455e-05	1.5945e-05	1466.4	392.68	1.4647e-05	1.5842e-05	443.98	147.26	128.87	43.78	1.5223e-05	54.139	155.985	84.737	121.330	25.075	192.527	139.933	25.025	29.625	172.659	163.700	29.096	33.509	34.195	38.443	197.363	37.990	-8191	255	
28325.209	1	1	0	0	0.12352	0.27856	0.31689	0.34896	0.23181	0.23691	0.30676	0.35339	0.33987	0.27853	0.16719	0.31553	0.35415	0.15142	0.26807	0.35276	-0.61042	-0.15417	-1.0979	-0.81042	-0.28125	-1.3312	-0.55417	-0.72292	-1.0458	-0.12708	-1.0688	-0.87292	-0.41875	-1.3021	-0.54167	-0.97917	250.577	229.387	23.846	327.644	228.430	245.287	326.014	332.390	109.184	197.465	292.847	358.336	348.110	297.300	263.776	342.123	0.00027961	0.00038541	0.0001785	1461.7	3.6352e-06	3.6273e-06	1448.1	383.98	4.2294e-06	3.7941e-06	436.43	143.72	125.25	42.444	4.9238e-06	52.556	0.00095289	0.0014192	0.00040065	1477	1.4664e-05	1.5691e-05	1465.4	391.93	1.4613e-05	1.5975e-05	444.22	147.78	128.65	43.709	1.5156e-05	54.004	154.459	47.579	113.098	24.756	183.168	180.997	24.907	29.618	149.249	172.389	29.083	33.575	34.224	38.696	192.718	38.133	-8191	255	
28325.305	1	1	0	0	0.167	0.024047	0.23553	0.21007	0.23213	0.18405	0.26021	0.18911	0.033044	0.15804	0.16171	0.19953	0.34237	0.26758	0.16508	0.020009	-0.47708	-0.51042	-1.0479	-1.0438	-0.44792	-0.9375	-0.67292	-0.65	-1.2083	-0.46875	-0.87917	-1.0208	-0.46667	-1.1875	-0.5875	-0.41458	78.566	295.585	95.097	349.031	288.965	369.350	22.074	267.033	25.406	290.932	18.741	126.598	342.817	43.783	108.132	206.895	0.00030301	0.00048317	0.00015601	1450.8	4.1134e-06	5.5749e-06	1452.1	386.12	2.2283e-06	4.5779e-06	436.26	143.41	125.21	42.646	4.8692e-06	52.593	0.00097482	0.001411	0.00038673	1475.7	1.4774e-05	1.582e-05	1469.6	392.89	1.4987e-05	1.5792e-05	444.5	147.65	128.87	43.751	1.5056e-05	54.038	152.495	112.355	84.253	25.065	193.335	163.127	24.996	29.722	207.271	190.096	29.294	33.545	34.330	38.780	163.969	38.358	-8191	255	
28325.400	1	1	0	0	0.24463	0.21221	0.11764	0.32267	0.0098466	0.12546	0.11892	0.16429	0.10877	0.21424	0.060972	0.10103	0.20587	0.23775	0.11719	0.046413	-0.65	-0.33333	-0.69167	-1.1875	-0.25625	-1.2625	-0.90208	-0.45	-1.3354	-0.27083	-0.90625	-1.3083	-0.33125	-1.1125	-0.66667	-0.49375	337.604	49.411	314.635	300.653	294.554	213.104	235.011	358.988	43.034	213.101	134.873	336.553	359.351	65.818	357.177	71.113	0.00028285	0.00046758	0.00015504	1465.8	3.7897e-06	6.5425e-06	1448.5	384.16	3.716e-06	3.0767e-06	434.91	143.72	125.92	42.649	3.1115e-06	52.797	0.0009663	0.0014013	0.00039495	1476.6	1.4814e-05	1.5545e-05	1466.4	392.18	1.463e-05	1.5698e-05	443.23	147.71	128.9	43.713	1.4964e-05	54.229	149.047	92.907	117.189	24.878	163.301	171.268	24.993	29.522	180.170	190.779	29.214	33.527	34.351	38.774	157.448	37.616	-8191	255	
28325.496	1	1	0	0	0.11355	0.17552	0.16395	0.17817	0.11209	0.27445	0.45287	0.047591	0.21778	0.077577	0.14133	0.1111	0.20319	0.29482	0.12797	0.30277	-0.90833	-0.43958	-0.57708	-1.4396	-0.42708	-0.92292	-0.81875	-0.60208	-1.1375	-0.44792	-0.825	-1.225	-0.40625	-1.2542	-0.93542	-0.38333	25.350	73.498	301.712	323.534	358.835	326.029	297.358	254.421	116.824	73.946	327.562	230.799	116.991	333.470	143.134	312.729	0.00031498	0.00038227	0.00010171	1462	5.5507e-06	3.653e-06	1448.8	385.03	3.1442e-06	4.1374e-06	434.72	143.55	125.76	42.703	3.5886e-06	52.964	0.00095127	0.001387	0.00039043	1476.6	1.4846e-05	1.5415e-05	1465.8	391.9	1.4542e-05	1.5873e-05	443.75	147.75	129.07	43.827	1.4887e-05	54.258	157.925	108.985	131.435	24.973	168.324	144.205	25.008	29.543	217.411	159.848	29.417	33.701	34.321	38.577	203.861	37.919	-8191	255	
28325.594	1	1	0	0	0.20097	0.29479	0.10736	0.21403	0.23949	0.2277	0.28636	0.25441	0.23646	0.29477	0.34919	0.092412	0.10919	0.10474	0.022608	0.085413	-0.925	-0.58542	-0.50208	-1.3396	-0.10417	-0.91667	-0.95	-0.3625	-1.2021	-0.53125	-0.48958	-1.3646	-0.37292	-0.9875	-0.91667	-0.35625	170.603	346.519	218.322	360.743	367.301	22.404	334.181	314.600	160.896	141.934	55.256	307.121	286.017	269.075	90.843	45.454	0.00029236	0.00041549	0.00015878	1460.5	5.3329e-06	5.4162e-06	1451.6	385.37	4.3851e-06	7.5707e-06	435.71	144.15	125.7	42.652	4.6639e-06	52.705	0.00094097	0.0013923	0.00039169	1476.7	1.4535e-05	1.5376e-05	1467.6	392.64	1.4396e-05	1.5329e-05	443.21	147.97	129.1	43.839	1.4867e-05	54.13	154.129	67.621	114.773	25.075	175.184	160.414	24.971	29.783	188.362	147.858	29.123	33.561	34.018	38.604	179.503	37.877	-8191	255	
28325.689	1	1	0	0	0.27272	0.23773	0.13791	0.45409	0.23674	0.234	0.17058	0.19802	0.26122	0.10912	0.14517	0.27493	0.030736	0.058241	0.22489	0.11882	-0.42708	-0.48542	-0.45208	-1.5146	-0.19583	-0.91667	-1.3042	-0.58125	-1.3646	-0.90208	-0.40417	-1.2938	-0.59375	-0.79792	-1.0646	-0.43333	268.636	361.121	238.936	360.247	350.784	337.283	349.921	15.770	70.884	101.003	185.505	340.769	170.875	303.325	299.445	163.068	0.00030655	8.0157e-05	0.00012147	1454.9	6.6233e-06	6.0678e-06	1447	385.29	3.0681e-06	9.8526e-06	437.87	144.55	125.7	42.818	3.0476e-06	53.194	0.00093223	0.0013673	0.00038829	1473.3	1.4206e-05	1.5363e-05	1464.4	392.23	1.377e-05	1.499e-05	444.05	148.16	129.19	44.025	1.4135e-05	54.418	154.827	74.459	82.283	25.113	203.935	136.648	24.947	29.734	183.727	179.666	29.174	33.616	34.024	38.491	175.511	37.818	-8191	255	
28325.811	1	1	0	0	0.10405	0.15775	0.05797	0.10362	0.21142	0.20121	0.050004	0.4284	0.19927	0.3715	0.27701	0.15384	0.19933	0.33964	0.26052	0.066091	-0.85625	-0.65625	-0.28542	-1.2729	-0.56458	-0.49167	-1.3125	-0.38125	-1.1625	-0.91458	-0.2875	-1.2146	-0.6375	-0.45417	-1.2104	-0.33542	81.340	175.388	347.365	337.341	115.073	272.103	59.122	306.246	338.717	332.005	370.776	324.612	321.813	320.600	355.445	55.405	0.00027801	0.00029811	0.00015162	1461	4.2356e-06	7.5152e-06	1452.9	386.34	2.8255e-06	5.8571e-06	437.89	144.44	126.13	42.963	5.2347e-06	53.042	0.00088895	0.001316	0.00036968	1477.1	1.3383e-05	1.4835e-05	1468.4	393.17	1.3434e-05	1.4533e-05	444.45	148.45	129.57	44.038	1.4048e-05	54.468	154.826	51.734	102.794	25.134	169.801	173.325	25.095	29.783	193.450	178.741	29.223	33.654	34.326	38.434	164.294	37.869	-8191	255	
28325.904	1	1	0	0	0.24823	0.17848	0.24052	0.46831	0.069964	0.095843	0.087272	0.41712	0.097682	0.056672	0.42018	0.15567	0.17813	0.40306	0.086616	0.12528	-0.40208	-0.78333	-0.1625	-1.3438	-0.70833	-0.57708	-1.5708	-0.725	-0.8125	-1.0938	-0.25417	-1.3375	-0.70208	-0.44167	-1.1063	-0.5875	211.258	252.902	180.060	343.866	296.985	60.161	347.531	294.269	106.333	308.685	276.681	353.595	36.944	339.704	170.541	59.423	0.00028965	0.00049331	0.00020286	1456.6	5.1909e-06	6.2717e-06	1450.3	384.51	6.5169e-07	5.2472e-06	435.63	144.29	125.51	42.842	4.7335e-06	52.812	0.00090662	0.0013248	0.00037652	1473.4	1.3923e-05	1.5287e-05	1467	392.4	1.4182e-05	1.477e-05	443.12	148.08	129.18	43.89	1.4377e-05	54.277	154.241	102.494	98.609	25.064	199.440	174.747	25.050	29.623	155.475	147.816	29.272	33.652	34.055	38.731	172.594	37.875	-8191	255	
28326.002	1	1	0	0	0.28638	0.096107	0.23142	0.37979	0.055267	0.31808	0.24333	0.42161	0.13183	0.068172	0.17172	0.13677	0.055085	0.1841	0.11741	0.27392	-0.42708	-1.1021	-0.23542	-1.2875	-0.69583	-0.37708	-1.5104	-0.5875	-0.67708	-1.1375	-0.675	-1.2667	-0.93125	-0.39583	-1.2437	-0.50417	297.922	52.513	105.989	315.258	203.544	102.797	321.383	348.742	151.252	239.148	81.473	133.008	272.477	347.899	225.008	25.128	0.00031673	0.00078309	9.6563e-05	1463.5	5.0481e-06	4.1236e-06	1451.7	385.5	4.6623e-06	7.3052e-06	435.83	144.75	126.18	42.724	5.8832e-06	53.212	0.00092622	0.0013351	0.00038452	1479.6	1.4242e-05	1.516e-05	1470.7	393.24	1.4196e-05	1.5107e-05	444.74	148.64	129.74	44.023	1.451e-05	54.573	156.722	71.462	97.858	25.018	200.784	191.207	25.243	29.767	188.603	137.686	29.220	33.822	34.186	38.444	180.361	38.035	-8191	255	
28326.072	1	1	0	0	0.16767	0.2639	0.087625	0.3011	0.28484	0.2154	0.38078	0.33389	0.14077	0.23504	0.26343	0.35004	0.20447	0.40103	0.24099	0.087404	-0.41042	-1.2188	-0.33542	-1.1729	-0.81667	-0.48958	-1.3396	-0.88125	-0.42917	-1.3104	-0.475	-0.94375	-1.1708	-0.39583	-1.3708	-0.85208	326.636	208.868	202.826	341.442	97.172	259.353	318.943	37.703	332.573	54.026	13.195	341.185	318.522	309.051	260.677	125.247	0.00029722	0.00065019	0.00012665	1472.6	5.595e-06	4.8508e-06	1463.6	388.11	5.0286e-06	5.7638e-06	437.95	145.7	127.05	43.345	5.0556e-06	53.427	0.00094475	0.0013419	0.00037789	1485.2	1.4042e-05	1.5297e-05	1477.3	395.7	1.4172e-05	1.5067e-05	446.95	149.46	130.57	44.447	1.4396e-05	54.905	155.742	95.633	90.718	25.021	205.975	177.474	25.081	29.606	169.153	165.266	29.248	33.758	34.234	38.633	154.163	37.923	-8191	255	
28326.193	1	1	0	0	0.038967	0.10545	0.29335	0.15593	0.19765	0.078518	0.18876	0.12751	0.22405	0.134	0.33293	0.25956	0.072501	0.15144	0.090072	0.16885	0.058333	-1.1375	-0.0041667	-0.94375	-1.0562	-0.21875	-1.2125	-1.0875	-0.50208	-1.125	-0.59792	-0.80833	-1.1104	-0.2875	-1.0021	-0.72917	183.818	55.678	313.406	307.496	287.920	31.984	358.002	347.007	260.267	317.727	310.182	340.325	347.329	358.535	161.384	283.430	0.00028265	0.00037686	0.00010179	1475	5.5026e-06	5.3018e-06	1463.2	387.98	5.7034e-06	9.6275e-06	438.58	145.82	126.87	43.01	4.5452e-06	53.262	0.00093725	0.0013204	0.0003733	1489.1	1.4164e-05	1.4985e-05	1482.1	395.73	1.451e-05	1.4985e-05	447.88	149.69	130.63	44.305	1.4639e-05	54.665	155.811	55.465	148.518	25.032	197.113	157.468	25.238	29.692	186.850	169.509	29.222	33.590	34.272	38.632	181.335	38.007	-8191	255	
28326.289	1	1	0	0	0.21275	0.23417	0.26418	0.22174	0.2114	0.11814	0.27903	0.20941	0.20733	0.29644	0.32704	0.19147	0.38927	0.29213	0.38282	0.36273	-0.11042	-1.1396	-0.40833	-0.775	-1.0771	-0.48542	-1.2437	-0.87292	-0.41875	-1.1625	-0.53542	-0.78542	-1.2	-0.43125	-1.1167	-0.94583	244.967	361.379	266.328	350.001	181.589	37.542	304.903	361.176	365.838	25.197	295.845	347.033	17.755	197.593	272.626	306.411	0.00029287	0.00042999	0.00011846	1478.7	6.8024e-06	3.5425e-06	1462.1	389.28	2.5746e-06	7.6119e-06	439.74	145.63	127.45	43.188	3.4617e-06	53.289	0.00095474	0.0013613	0.00038908	1493	1.4349e-05	1.569e-05	1481.7	396.12	1.4774e-05	1.548e-05	448.3	149.68	130.56	44.31	1.5048e-05	54.736	156.313	102.138	125.347	25.074	182.007	120.685	25.159	29.655	157.918	149.165	29.235	33.673	34.175	38.768	174.672	38.130	-8191	255	
28326.385	1	1	0	0	0.083103	0.12714	0.17265	0.12922	0.16399	0.21162	0.24904	0.094445	0.23396	0.12155	0.059594	0.24455	0.30431	0.28876	0.13218	0.32501	-0.05625	-1.15	-0.57083	-0.85417	-1.225	-0.32708	-1.2896	-1.2833	-0.44375	-1.1521	-0.75625	-0.44375	-1.2792	-0.44792	-0.7875	-1.0208	188.309	278.944	162.460	325.474	197.761	355.852	329.159	316.772	302.291	345.118	207.457	284.389	168.992	277.062	305.595	303.243	0.00025288	0.00053083	0.0001456	1482.8	3.6565e-06	4.6081e-06	1467	389.79	4.1574e-06	2.3702e-06	441.67	145.98	127.79	43.477	3.6647e-06	53.897	0.00094119	0.0013524	0.00039282	1496.9	1.4365e-05	1.56e-05	1486.7	397.21	1.3998e-05	1.5001e-05	448.57	150.16	131.44	44.668	1.4675e-05	55.227	158.302	94.780	80.809	25.174	198.092	114.889	25.096	29.538	191.477	146.920	29.264	33.694	34.088	38.528	163.402	37.697	-8191	255	
28326.482	1	1	0	0	0.060883	0.2358	0.095948	0.5667	0.12446	0.071599	0.4796	0.31597	0.063137	0.28194	0.10849	0.37204	0.090338	0.13944	0.055597	0.03077	-0.060417	-1.1292	-0.62917	-0.66667	-1.2083	-0.39583	-0.75833	-1.2687	-0.33125	-1.1208	-1.0667	-0.4125	-1.1042	-0.60208	-0.61042	-1.2729	295.088	232.223	160.739	325.493	103.941	239.936	335.091	315.303	151.567	258.825	333.290	289.578	361.775	182.933	133.473	38.742	0.00027314	0.00050077	0.0001903	1484.8	4.8925e-06	4.6224e-06	1484.2	393.39	3.8482e-06	3.594e-06	441.76	147.89	129.17	43.727	5.9679e-06	53.686	0.00094398	0.0013322	0.00038352	1501.9	1.3792e-05	1.5355e-05	1495.3	400.16	1.4235e-05	1.4947e-05	450.72	151.76	132.31	44.916	1.4306e-05	55.212	161.194	117.602	109.122	25.146	206.083	129.576	25.248	29.522	207.349	188.231	29.142	33.638	34.177	38.567	187.082	37.998	-8191	255	
28326.602	1	1	0	0	0.27792	0.062403	0.12387	0.42218	0.24884	0.052034	0.25973	0.15833	0.22833	0.22211	0.20097	0.17196	0.083125	0.10379	0.18423	0.094308	0.085417	-1.0083	-0.93125	-0.53125	-1.275	-0.44167	-0.94167	-1.2792	-0.28125	-1.1437	-1.1562	-0.43333	-1.1958	-0.61875	-0.55625	-1.3	195.506	286.084	30.797	343.642	49.841	170.095	257.749	335.510	102.547	328.684	346.733	14.864	335.023	322.438	103.679	12.414	0.00028664	0.00060985	0.0001159	1479.8	3.314e-06	5.7448e-06	1469.7	390.1	4.9211e-06	4.8513e-06	440.92	146.22	127.6	43.253	4.9237e-06	53.435	0.0009208	0.001333	0.00038341	1496	1.3839e-05	1.5105e-05	1486.4	397.4	1.4532e-05	1.4944e-05	448.67	149.98	131.04	44.451	1.4621e-05	54.851	157.037	100.105	107.059	25.433	200.941	167.892	25.214	29.759	185.614	143.002	29.416	33.870	34.435	38.796	177.080	38.046	-8191	255	
28326.674	1	1	0	0	0.20473	0.14796	0.11435	0.33817	0.24234	0.23554	0.22593	0.23285	0.20141	0.056088	0.19173	0.11307	0.17273	0.16262	0.19258	0.25977	0.079167	-0.8875	-0.93333	-0.53958	-1.1313	-0.60833	-0.69375	-1.5542	-0.39792	-0.88958	-1.1667	-0.39375	-1.0312	-0.90417	-0.4125	-1.3396	292.145	288.183	54.687	370.734	359.954	223.738	325.344	304.253	253.026	61.633	329.005	324.017	248.817	13.159	104.285	276.004	0.00031187	0.00045024	0.00016456	1484.4	6.4843e-06	4.9383e-06	1474.4	391.15	5.3384e-06	4.7289e-06	442.6	147.56	128.63	43.528	5.5421e-06	53.786	0.00095312	0.0013426	0.00037897	1498.6	1.3765e-05	1.5233e-05	1489.2	398.83	1.3881e-05	1.4914e-05	450.37	151.07	131.7	44.685	1.4429e-05	55.209	152.539	96.206	118.182	25.260	199.914	187.083	25.115	29.910	184.806	177.733	29.151	33.816	34.409	38.367	174.495	38.335	-8191	255	
28326.770	1	1	0	0	0.17158	0.21654	0.093017	0.17341	0.057035	0.12433	0.14612	0.1682	0.20903	0.046238	0.26672	0.035819	0.13415	0.17662	0.10338	0.22685	0.083333	-0.61667	-1.05	-0.62708	-1.1812	-0.83333	-0.51042	-1.3813	-0.41042	-0.77917	-1.1458	-0.33958	-1.2875	-0.91458	-0.34375	-1.2979	171.027	47.373	190.579	360.585	20.804	196.144	306.102	301.367	129.613	245.337	359.926	100.367	302.940	320.992	119.351	97.245	0.00028935	0.0005664	0.0001397	1481	4.1196e-06	5.074e-06	1470.7	391.18	2.9559e-06	6.5706e-06	442.41	147.04	128.25	43.636	6.2599e-06	53.936	0.0009198	0.001359	0.00037874	1497.8	1.4273e-05	1.5269e-05	1490.9	398.2	1.4248e-05	1.5187e-05	449.72	150.86	131.89	44.788	1.4822e-05	55.398	154.707	90.628	110.712	25.237	175.547	167.912	25.096	29.740	159.569	166.657	29.319	33.889	34.503	38.355	170.079	38.097	-8191	255	
28326.891	1	1	0	0	0.21872	0.10064	0.27192	0.31154	0.38655	0.020539	0.20838	0.17606	0.31052	0.073152	0.15691	0.36472	0.17356	0.14414	0.062936	0.067887	-0.083333	-0.58125	-0.98125	-0.80208	-1.1021	-0.95208	-0.58333	-1.2292	-0.74167	-0.50833	-1.1458	-0.54167	-1.0438	-1.0604	-0.30208	-1.3813	217.200	186.650	320.079	55.186	230.266	299.727	316.465	358.331	99.780	294.329	315.199	345.408	41.738	322.298	284.772	287.147	0.00026643	0.00046109	0.00012323	1485	3.8381e-06	3.9514e-06	1478.6	394.38	4.4886e-06	4.3512e-06	445.2	147.8	129.06	43.944	5.0752e-06	54.025	0.00093478	0.0013621	0.0003741	1503.6	1.4161e-05	1.5012e-05	1495.9	401.34	1.4084e-05	1.5238e-05	453.41	151.95	132.75	45.064	1.4419e-05	55.544	152.615	88.472	122.121	25.126	175.168	164.369	25.173	29.870	177.737	162.542	29.461	33.905	34.550	38.447	168.627	38.129	-8191	255	
28326.984	1	1	0	0	0.16118	0.15079	0.098891	0.33754	0.079572	0.23579	0.34188	0.17649	0.036516	0.19063	0.12804	0.36142	0.55646	0.060036	0.21858	0.18671	-0.39375	-0.23125	-1.1271	-0.625	-0.84167	-1.0438	-0.52292	-1.2854	-0.77292	-0.42083	-1.3062	-0.6	-0.97917	-1.1917	-0.28125	-1.3771	150.085	339.684	339.772	349.674	169.003	334.245	334.666	366.616	152.711	329.797	33.703	316.953	310.108	365.442	296.592	23.152	0.00030464	0.00068411	0.00012412	1487.5	7.1046e-06	1.9303e-06	1476.6	391.91	3.7085e-06	5.6897e-06	443.3	146.8	128.54	43.493	4.5871e-06	53.678	0.00093298	0.0013286	0.00037326	1504.3	1.4169e-05	1.5408e-05	1495.3	399.63	1.4209e-05	1.5369e-05	451.79	151.2	132	44.765	1.5011e-05	55.272	153.689	96.967	108.650	25.275	187.880	159.041	25.086	30.014	177.087	148.605	29.475	33.569	34.468	38.776	188.243	38.111	-8191	255	
28327.080	1	1	0	0	0.1609	0.13192	0.22334	0.28346	0.22784	0.27915	0.18868	0.35732	0.12361	0.081489	0.14369	0.011889	0.2268	0.26038	0.1332	0.32171	-0.39792	-0.46875	-1.1125	-0.6625	-0.63333	-1.1	-0.53958	-1.3604	-0.85	-0.27292	-1.2771	-0.60625	-0.65208	-1.3896	-0.27708	-1.0771	109.281	246.888	143.537	13.093	348.249	161.564	315.010	321.952	273.899	145.874	344.127	268.195	250.237	306.150	144.985	320.690	0.00032366	0.0004835	0.00014071	1482.9	6.7405e-06	3.7365e-06	1484.8	394.79	5.1973e-06	6.4181e-06	444.88	148.62	129.7	44.232	4.2445e-06	54.195	0.00094466	0.0013827	0.00038001	1505	1.4156e-05	1.5273e-05	1497.3	401.24	1.4078e-05	1.4671e-05	452.48	152.36	133.08	45.368	1.4115e-05	55.867	154.907	120.585	126.321	25.050	185.255	157.636	25.203	29.835	162.166	164.330	29.313	33.844	34.312	38.409	147.562	37.924	-8191	255	
28327.201	1	1	0	0	0.16332	0.071152	0.14066	0.28024	0.089706	0.25089	0.37596	0.27021	0.12782	0.36582	0.17802	0.46372	0.037107	0.11047	0.17958	0.23003	-0.55208	-0.175	-1.0354	-0.81458	-0.49583	-1.1479	-0.5875	-1.0646	-0.93958	-0.34375	-1.3104	-0.68958	-0.45417	-1.4854	-0.17292	-0.6875	14.049	82.546	297.395	297.310	104.281	287.472	340.290	321.719	227.913	137.807	22.092	325.534	147.596	217.285	48.215	281.079	0.00030756	0.00047113	0.00019828	1489.5	4.9196e-06	5.754e-06	1484.9	396.47	4.3975e-06	4.7839e-06	446.37	149.11	130.65	44.492	3.532e-06	54.635	0.00090669	0.0013106	0.00035852	1509.1	1.383e-05	1.4559e-05	1501.8	403.04	1.3866e-05	1.4535e-05	454.24	153.24	134.01	45.597	1.4471e-05	56.03	157.118	78.758	113.963	25.145	170.284	161.851	25.451	29.903	207.236	159.901	29.290	33.733	34.387	38.729	189.389	38.281	-8191	255	
28327.299	1	1	0	0	0.24652	0.14591	0.13857	0.33894	0.08259	0.087344	0.36949	0.20234	0.11052	0.13719	0.25481	0.23921	0.35044	0.32378	0.18761	0.51272	-0.71667	-0.19167	-0.77083	-0.99792	-0.30208	-1.2104	-0.60833	-0.68333	-1.0854	-0.21667	-1.0875	-0.80625	-0.27083	-1.1625	-0.41458	-0.54375	282.405	304.860	131.423	357.369	338.120	28.373	302.152	359.025	191.494	19.825	19.615	307.767	334.452	348.958	211.810	326.239	0.00032233	0.00050404	0.00019474	1499.6	3.4439e-06	4.4994e-06	1485.6	397.48	3.8365e-06	5.5884e-06	447.74	148.52	130.59	44.245	7.9132e-06	54.539	0.00093049	0.0012983	0.00036767	1514.7	1.3855e-05	1.4418e-05	1504.9	403.88	1.3735e-05	1.4809e-05	455.73	152.97	133.84	45.473	1.4502e-05	56.097	156.867	104.403	119.706	25.246	200.916	160.896	24.976	29.851	177.593	162.696	29.532	33.599	34.072	38.493	187.891	38.088	-8191	255	
28327.369	1	1	0	0	0.1155	0.047491	0.011367	0.14151	0.11361	0.13582	0.19571	0.29727	0.32446	0.14242	0.068084	0.22629	0.18439	0.089012	0.18555	0.18736	-0.47708	-0.31458	-0.7125	-1.1646	-0.51667	-1.0646	-0.77917	-0.5	-1.1708	-0.38958	-1.0125	-1.1042	-0.36667	-1.3708	-0.52292	-0.29792	317.118	101.573	30.229	45.858	43.346	162.918	319.204	323.617	124.814	265.981	72.598	52.899	53.149	54.843	83.019	290.450	0.00031719	0.00037316	0.00012606	1499.6	4.2363e-06	5.4298e-06	1486.3	396.21	3.5165e-06	5.2871e-06	445.48	149.01	129.91	44.217	1.6627e-06	54.334	0.00091192	0.0012883	0.00037465	1513.2	1.3818e-05	1.4809e-05	1503.6	402.96	1.3773e-05	1.4602e-05	454.01	153.3	133.51	45.434	1.4216e-05	55.766	157.057	82.966	81.699	25.086	192.336	141.270	24.956	29.913	183.659	203.287	28.982	33.315	33.828	38.315	192.910	37.587	-8191	255	
28327.490	1	1	0	0	0.12652	0.15371	0.2006	0.40619	0.23365	0.1271	0.081445	0.34541	0.11907	0.21743	0.20816	0.32179	0.25501	0.2344	0.12098	0.31992	-0.70417	-0.1625	-0.6375	-1.2354	-0.17917	-1.025	-0.74792	-0.31875	-1.0625	-0.39583	-0.77083	-1.1604	-0.45208	-1.2146	-0.64375	-0.51667	333.578	113.052	277.835	16.502	149.966	278.800	14.048	326.325	290.650	11.529	207.476	350.089	362.194	326.617	182.497	39.415	0.00029462	0.00028008	0.00013762	1495.2	5.9164e-06	4.7308e-06	1484.3	394.08	3.3679e-06	6.8385e-06	446.47	148.53	128.94	44.143	3.6764e-06	54.499	0.000891	0.0012936	0.00037021	1511.7	1.3639e-05	1.4552e-05	1502.1	401.89	1.3675e-05	1.501e-05	454.39	152.77	132.97	45.288	1.4278e-05	55.814	155.566	86.922	133.750	24.894	168.957	162.379	25.022	29.463	148.426	146.128	29.173	33.522	34.044	38.369	170.156	37.909	-8191	255	
28327.586	1	1	0	0	0.055756	0.18219	0.078282	0.37606	0.32009	0.24467	0.18205	0.14107	0.15457	0.21088	0.17472	0.25871	0.28748	0.45873	0.10955	0.072086	-0.79583	-0.26458	-0.49583	-1.4	-0.0625	-1.175	-0.90417	-0.51042	-1.0854	-0.30833	-0.58542	-1.0021	-0.43333	-0.92917	-0.86042	-0.36875	242.031	212.448	368.579	332.757	28.716	49.045	283.404	60.717	57.616	259.566	101.551	73.541	88.686	301.600	231.103	91.587	0.00029331	0.00056745	0.00016018	1492.4	4.7793e-06	1.8354e-06	1481.8	394.97	5.6403e-06	6.8975e-06	446.04	148.5	128.93	43.862	4.0192e-06	54.063	0.00089486	0.0013366	0.00037292	1511.1	1.4017e-05	1.5083e-05	1498.2	401.11	1.3986e-05	1.4983e-05	452.81	152.46	132.65	45.102	1.4508e-05	55.565	154.395	84.344	90.832	24.859	185.022	190.932	25.093	29.631	186.173	172.796	29.328	33.416	34.185	38.579	188.646	37.767	-8191	255	
28327.684	1	1	0	0	0.28018	0.084527	0.076562	0.14983	0.089664	0.0878	0.15841	0.29044	0.24404	0.085311	0.20085	0.079021	0.30948	0.011972	0.17317	0.20052	-0.41458	-0.43958	-0.43125	-1.2062	-0.29583	-0.82708	-1.0396	-0.54792	-1.1021	-0.54167	-0.48958	-1.3604	-0.2375	-0.79792	-1.0375	-0.34167	223.386	350.244	366.179	315.049	344.332	345.854	14.457	328.140	208.349	58.959	12.179	136.293	292.546	150.552	366.627	182.368	0.00030017	0.00049914	0.00010009	1494.3	3.3169e-06	6.9325e-06	1480.9	393.78	3.2892e-06	5.832e-06	445.3	147.87	129.73	44.17	4.1447e-06	54.484	0.00092045	0.0013787	0.00038572	1509.6	1.3997e-05	1.4931e-05	1500.2	401.16	1.4042e-05	1.4816e-05	453.21	152.11	132.95	45.277	1.4536e-05	55.798	153.051	69.856	90.271	25.026	163.633	178.534	24.847	29.469	169.565	141.617	29.040	33.551	34.061	38.363	193.186	37.905	-8191	255	
28327.779	1	1	0	0	0.18373	0.034352	0.11535	0.18754	0.20285	0.10246	0.027805	0.056451	0.26339	0.12993	0.17434	0.25164	0.12364	0.071566	0.20024	0.010549	-0.52917	-0.5	-0.19375	-1.2292	-0.31667	-0.5875	-1.2979	-0.44375	-0.95	-0.69375	-0.375	-1.1271	-0.66875	-0.77708	-1.0167	-0.31042	253.231	216.185	152.195	301.240	276.031	24.871	323.607	269.881	358.563	316.174	365.836	27.716	288.531	363.173	307.324	326.788	0.00029716	0.00043553	0.00021528	1495.5	5.1147e-06	4.8313e-06	1485.1	394.35	4.549e-06	6.3069e-06	445.25	148.5	129.65	44.068	5.0683e-06	54.171	0.00092531	0.0013583	0.00038073	1510.6	1.4003e-05	1.5131e-05	1501.9	401.78	1.4144e-05	1.5454e-05	452.61	152.3	133.01	45.126	1.4926e-05	55.661	161.301	105.305	113.243	24.993	167.495	147.423	24.971	29.542	174.441	142.030	29.317	33.633	34.262	38.468	189.053	37.880	-8191	255	
28327.873	1	1	0	0	0.2099	0.17364	0.2471	0.27257	0.047977	0.21987	0.36439	0.11165	0.30699	0.298	0.16062	0.34811	0.1686	0.085978	0.095573	0.22977	-0.49167	-0.83542	-0.075	-1.4896	-0.32708	-0.47917	-1.3438	-0.27917	-0.94792	-0.95625	-0.225	-1.0458	-0.66875	-0.5875	-1.0938	-0.62292	219.464	263.936	354.169	325.487	71.861	190.379	285.824	200.485	339.129	142.342	272.107	324.822	307.481	295.678	201.470	147.705	0.00032211	0.00029576	0.00016168	1499.1	6.0526e-06	5.9262e-06	1483	393.29	2.1899e-06	5.1792e-06	446.17	147.87	129.29	44.096	5.8877e-06	53.971	0.00094184	0.0013787	0.00039044	1514.1	1.4434e-05	1.5185e-05	1501.1	400.62	1.4296e-05	1.5445e-05	453.03	152.4	132.77	45.213	1.4169e-05	55.613	156.972	117.861	101.257	24.983	202.903	204.118	24.932	29.576	199.816	167.050	29.240	33.597	34.082	38.620	191.553	37.994	-8191	255	
28327.969	1	1	0	0	0.20014	0.34986	0.33001	0.048506	0.10503	0.076476	0.076346	0.20009	0.16687	0.10127	0.236	0.20143	0.17498	0.12167	0.0921	0.26654	-0.42708	-0.88542	-0.06875	-1.3813	-0.57708	-0.24583	-1.3813	-0.44583	-0.59792	-0.97292	-0.31875	-1.2708	-0.675	-0.46667	-1.0729	-0.56042	193.243	157.249	308.103	206.923	64.443	302.857	321.871	259.980	345.989	299.233	56.528	298.942	368.490	341.672	169.547	266.562	0.00032875	0.00053878	6.8065e-05	1497.3	4.8562e-06	4.3593e-06	1485.9	396.37	4.0095e-06	6.2018e-06	442.98	148.56	129.3	44.099	6.1307e-06	54.428	0.00092657	0.0013182	0.00037385	1511.9	1.3897e-05	1.4943e-05	1503.3	402.15	1.4005e-05	1.4551e-05	452.63	152.59	133.04	45.286	1.4114e-05	55.76	152.265	99.578	126.657	25.201	171.979	161.023	25.042	29.541	169.667	165.496	29.391	33.692	34.179	38.510	194.942	37.806	-8191	255	
28328.064	1	1	0	0	0.25827	0.060152	0.16733	0.3019	0.16924	0.10341	0.28839	0.057964	0.23924	0.21599	0.31559	0.079537	0.16334	0.11289	0.26053	0.15774	-0.23542	-0.94167	-0.16458	-1.3042	-0.59167	-0.46667	-1.4375	-0.525	-0.63958	-1.0604	-0.43333	-1.2042	-0.76667	-0.35208	-0.975	-0.62917	359.410	68.915	47.196	334.761	305.611	353.620	288.111	225.662	110.861	199.614	370.343	275.844	348.718	299.085	366.928	275.057	0.0002887	0.00048756	8.0418e-05	1496.4	3.4553e-06	5.6952e-06	1480.6	394.74	5.7258e-06	5.7502e-06	447.54	148.26	129.78	44.055	4.6918e-06	54.387	0.0009322	0.0013205	0.00037583	1511.4	1.4263e-05	1.4948e-05	1501	401.23	1.3963e-05	1.4643e-05	452.66	152.24	132.9	45.242	1.3938e-05	55.769	159.242	119.934	62.080	25.091	174.283	146.769	25.313	29.934	167.192	180.738	29.658	33.981	34.448	38.452	154.910	38.076	-8191	255	
28328.162	1	1	0	0	0.27419	0.13423	0.15155	0.16977	0.14063	0.14741	0.4971	0.34125	0.13293	0.1515	0.072552	0.33626	0.13131	0.16741	0.14554	0.088641	0.0041667	-1.1187	-0.10208	-1.0625	-1.0146	-0.14167	-1.3146	-0.83958	-0.30833	-1.1979	-0.33958	-0.925	-0.89583	-0.14583	-1.1521	-0.67708	352.311	158.096	259.339	20.377	49.619	365.792	339.323	330.024	57.681	47.623	106.767	288.939	246.375	350.586	212.855	129.155	0.0003156	0.00040784	0.00015595	1498.8	4.8512e-06	5.4526e-06	1489.6	393.09	4.2926e-06	3.9287e-06	446.55	148.7	130.04	44.114	4.2497e-06	54.331	0.00093239	0.0013112	0.00037096	1513.2	1.4043e-05	1.4891e-05	1502.8	400.75	1.4417e-05	1.4736e-05	452.85	152.77	133.28	45.363	1.4475e-05	55.767	154.537	90.796	109.653	25.194	172.514	168.236	25.268	29.779	160.629	141.407	29.185	33.575	34.104	38.434	157.193	37.714	-8191	255	
28328.260	1	1	0	0	0.11492	0.11473	0.10469	0.21175	0.33977	0.15233	0.34375	0.11069	0.12523	0.11534	0.069501	0.15513	0.28662	0.1698	0.12625	0.49525	0.12917	-0.99792	0.04375	-0.85625	-1.0167	-0.3875	-1.3625	-0.67083	-0.3875	-1.2646	-0.62708	-0.7875	-0.91667	-0.39167	-0.99167	-0.83542	99.731	217.260	163.077	246.340	368.617	175.111	280.830	235.571	222.737	105.875	212.703	199.584	330.080	19.228	277.644	42.359	0.00028168	0.00049004	0.0001867	1492.6	4.4437e-06	5.0669e-06	1486.6	393.93	3.5501e-06	3.7207e-06	446.27	148.44	129.69	44.076	4.2705e-06	54.352	0.00093617	0.001304	0.00037404	1511.4	1.3745e-05	1.5217e-05	1502.2	401.33	1.4343e-05	1.4656e-05	453.15	152.54	133.03	45.228	1.4194e-05	55.742	156.727	89.679	130.620	25.175	174.766	168.323	25.246	29.515	178.572	190.140	29.285	33.832	34.347	38.552	136.678	37.857	-8191	255	
28328.379	1	1	0	0	0.13769	0.12853	0.065656	0.16226	0.072593	0.010494	0.37999	0.15309	0.10107	0.042509	0.24487	0.33242	0.19061	0.30741	0.21527	0.25686	0.18958	-0.90208	-0.28125	-0.88542	-1.0396	-0.25833	-1.1896	-1.1	-0.29167	-1.0792	-0.4875	-0.55417	-1.1792	-0.39792	-0.96667	-1.1	277.815	277.659	299.744	37.012	128.748	317.947	313.636	315.285	317.891	193.719	326.868	48.377	35.647	323.002	196.971	307.397	0.00029034	0.00063447	0.000157	1491.6	3.0813e-06	6.9096e-06	1487.7	395.12	6.3022e-06	5.5813e-06	446.87	148.45	130.49	44.341	5.9548e-06	54.471	0.00092322	0.001318	0.00037863	1511.9	1.3501e-05	1.5441e-05	1504.7	402.53	1.3926e-05	1.4535e-05	453.81	152.69	133.73	45.47	1.4001e-05	55.983	152.510	93.524	140.208	25.110	214.595	159.518	25.133	29.746	178.700	143.024	28.996	33.681	34.279	38.793	168.418	37.894	-8191	255	
28328.475	1	1	0	0	0.10874	0.075807	0.15297	0.36502	0.28892	0.114	0.19295	0.33784	0.0704	0.099905	0.24241	0.50082	0.39669	0.14345	0.22934	0.14507	0.38125	-1.025	-0.46875	-0.89583	-1.1208	-0.089583	-1.0104	-1.1167	-0.054167	-1.0917	-0.7125	-0.38958	-1.3417	-0.53542	-0.7625	-1.0312	19.298	217.247	218.768	32.201	288.082	43.404	367.186	367.756	40.696	87.757	32.195	277.852	321.882	315.497	195.982	296.383	0.00029704	0.00071676	0.00018202	1499.4	5.6204e-06	3.2931e-06	1488.9	393.96	4.0303e-06	2.5277e-06	446.76	148.9	129.77	44.253	5.0463e-06	54.527	0.00092533	0.0013261	0.00037941	1512.8	1.3731e-05	1.4675e-05	1505.7	401.29	1.3848e-05	1.4833e-05	452.95	152.66	133.26	45.391	1.4528e-05	55.918	155.666	84.125	92.295	25.253	192.866	164.355	25.450	29.762	164.800	147.310	29.609	34.046	34.162	38.413	174.611	37.579	-8191	255	
28328.570	1	1	0	0	0.085175	0.15567	0.10658	0.16117	0.25887	0.053576	0.30045	0.26834	0.16682	0.13346	0.2985	0.16213	0.28316	0.23203	0.1598	0.21532	0.10833	-0.87083	-0.66042	-0.54375	-1.2646	-0.59792	-0.8875	-1.2083	-0.29792	-1.0063	-0.8125	-0.40833	-1.1208	-0.52292	-0.53958	-1.1583	229.524	296.340	151.983	19.580	369.743	71.949	322.696	282.661	316.757	275.898	343.643	228.294	24.560	71.376	149.465	22.948	0.00031152	0.00062292	0.00020348	1495.1	2.3092e-06	7.7711e-06	1492.1	395.01	4.1359e-06	5.0332e-06	448.1	148.83	129.65	44.177	5.3802e-06	54.598	0.00093227	0.0013179	0.00037991	1510.6	1.3468e-05	1.5238e-05	1505.3	401.97	1.4022e-05	1.505e-05	453.61	152.89	133.51	45.389	1.4553e-05	56.003	158.977	110.195	94.275	25.259	184.968	153.235	25.125	29.727	175.261	171.150	29.127	33.928	34.145	38.346	182.780	37.664	-8191	255	
28328.668	1	1	0	0	0.19182	0.13746	0.13252	0.32434	0.13363	0.17404	0.2924	0.12193	0.069481	0.30449	0.35342	0.15475	0.27977	0.18327	0.18549	0.11509	0.17917	-0.95417	-0.7625	-0.40833	-0.99792	-0.51458	-0.8375	-1.2833	-0.25625	-0.97917	-1.0312	-0.30625	-1.2	-0.50208	-0.39792	-1.3188	118.856	182.921	328.557	339.088	213.590	275.771	335.975	30.650	182.721	359.249	347.475	196.830	276.101	23.573	330.463	310.027	0.00029984	0.00056905	0.00015572	1497.8	4.9407e-06	6.5588e-06	1491.4	393.14	4.33e-06	2.8103e-06	446.99	148.68	130.09	44.198	5.3804e-06	54.552	0.0009413	0.0013425	0.00037824	1512.9	1.3967e-05	1.5332e-05	1506.2	401.28	1.4219e-05	1.478e-05	454.29	152.7	133.76	45.394	1.4433e-05	55.982	149.196	103.344	91.178	25.228	200.331	152.598	25.045	29.806	175.186	181.467	29.231	33.771	34.096	38.415	186.106	38.056	-8191	255	
28328.764	1	1	0	0	0.080031	0.1413	0.12558	0.24521	0.10491	0.20101	0.5241	0.16143	0.35689	0.2492	0.31621	0.29092	0.20219	0.25173	0.26066	0.22487	0.083333	-0.73333	-0.84792	-0.58958	-1.125	-0.77083	-0.61667	-1.4729	-0.23125	-0.59167	-1.2521	-0.20417	-1.1375	-0.83333	-0.35417	-1.25	106.085	66.669	338.987	297.459	141.102	210.011	271.449	178.851	245.064	194.173	304.241	207.983	340.153	43.001	110.580	63.472	0.00032867	0.00055214	0.00021172	1499.5	2.4497e-06	6.8054e-06	1490.1	394.14	5.4428e-06	4.9181e-06	445.28	148.47	130.77	44.4	7.941e-06	54.476	0.00092491	0.0013235	0.0003793	1514.2	1.367e-05	1.5203e-05	1505.8	401.86	1.4257e-05	1.4846e-05	453.01	152.69	133.81	45.436	1.4621e-05	55.984	155.913	101.152	105.145	25.165	200.983	175.277	25.300	29.814	166.026	161.313	29.000	33.824	34.419	38.331	168.813	37.854	-8191	255	
28328.885	1	1	0	0	0.26027	0.17176	0.13151	0.1584	0.24608	0.035782	0.19178	0.21453	0.20859	0.33447	0.11625	0.080231	0.30042	0.14298	0.22276	0.085134	0.14375	-0.54583	-0.925	-0.47292	-0.97708	-0.7375	-0.475	-1.0917	-0.43333	-0.71667	-1.1792	-0.42083	-1.0667	-0.82917	-0.31875	-1.15	75.991	20.907	58.960	338.563	56.555	235.453	331.882	296.406	128.560	368.571	183.731	15.283	338.027	320.050	319.441	57.729	0.00029807	0.00028636	0.00011098	1495.9	3.7299e-06	4.7022e-06	1485.7	394.03	4.0755e-06	5.8953e-06	445.72	149.24	130.39	44.419	3.3833e-06	54.966	0.00092847	0.0013396	0.00037101	1511.5	1.3966e-05	1.5004e-05	1503.8	401.76	1.4424e-05	1.5113e-05	453.38	152.75	133.7	45.469	1.4497e-05	56.041	155.501	107.724	64.330	25.088	168.048	149.514	25.050	29.580	199.300	159.912	29.122	33.285	34.059	38.454	163.823	37.785	-8191	255	
28328.979	1	1	0	0	0.11316	0.059903	0.090597	0.27934	0.12946	0.37745	0.09321	0.16084	0.18701	0.23652	0.20108	0.2164	0.42278	0.097827	0.077706	0.14676	-0.12292	-0.11042	-1.0771	-0.50625	-0.78542	-0.82708	-0.43542	-1.1458	-0.68125	-0.34167	-1.2958	-0.5	-0.82292	-1.2271	-0.25208	-1.0583	214.034	38.066	304.770	316.681	35.372	105.359	277.686	368.966	44.195	134.903	302.133	294.569	359.178	338.629	73.143	366.183	0.00032976	0.00061303	0.000153	1494.4	3.544e-06	5.3758e-06	1493.6	396.27	5.2638e-06	3.7147e-06	448.57	150.14	131.19	44.733	3.8402e-06	55.271	0.00094123	0.0013724	0.00036733	1513.1	1.4068e-05	1.4821e-05	1508.5	403.52	1.4028e-05	1.4877e-05	456.41	154.37	134.9	46.033	1.4337e-05	56.628	156.596	85.722	118.675	25.083	191.380	150.921	25.329	29.903	154.785	177.013	29.116	33.681	34.127	38.235	159.474	38.119	-8191	255	
28329.074	1	1	0	0	0.0868	0.19807	0.10236	0.40736	0.1952	0.28279	0.090328	0.31247	0.0656	0.15597	0.21655	0.3043	0.37741	0.057685	0.15291	0.21032	-0.31458	-0.35208	-1.2167	-0.38542	-0.62292	-0.93333	-0.49792	-1.0938	-0.65625	-0.60208	-1.275	-0.58958	-0.82083	-1.0875	-0.25417	-1.0396	84.300	302.457	214.782	337.879	283.250	312.420	333.315	345.212	38.256	268.643	366.402	350.840	358.278	309.392	285.825	202.466	0.00030883	0.00043645	0.00025346	1508.3	5.2323e-06	6.634e-06	1493	398.7	5.5724e-06	4.4244e-06	449.96	150.41	131.69	44.763	4.7448e-06	55.37	0.0009053	0.0012915	0.00036375	1522.4	1.3802e-05	1.4735e-05	1512.8	405.88	1.3179e-05	1.4711e-05	457.91	154.74	135.38	46.08	1.4009e-05	56.695	153.610	52.515	97.718	25.009	163.441	172.204	25.231	29.620	195.326	159.728	29.106	33.736	34.373	38.541	193.767	38.136	-8191	255	
28329.170	1	1	0	0	0.21844	0.060219	0.25291	0.076517	0.26719	0.14279	0.254	0.11788	0.14609	0.31881	0.03287	0.10761	0.17914	0.037211	0.1604	0.16889	-0.30833	-0.3875	-1.1	-0.61667	-0.67917	-1.2417	-0.62708	-1.2021	-0.72083	-0.325	-1.2146	-0.69167	-0.59375	-1.2729	-0.37083	-0.92292	94.114	18.376	228.417	325.218	112.900	91.605	275.086	335.951	145.543	83.509	284.347	345.163	345.937	364.226	78.228	23.505	0.00029495	0.00037301	0.00011113	1500.3	4.0336e-06	4.824e-06	1492.4	397.38	5.9182e-06	7.2867e-06	450.97	150.24	131.31	44.876	5.8695e-06	55.129	0.00090809	0.0012896	0.00036234	1517.1	1.3384e-05	1.4289e-05	1509.1	404.72	1.346e-05	1.4339e-05	457.02	154.36	135.05	46.024	1.4202e-05	56.601	160.600	105.478	97.662	25.014	184.200	164.732	25.047	29.884	173.340	174.058	29.260	33.476	34.417	38.436	168.153	37.968	-8191	255	
28329.266	1	1	0	0	0.19562	0.43083	0.13527	0.41779	0.14931	0.057087	0.60585	0.33797	0.13726	0.11467	0.26935	0.13766	0.20612	0.25715	0.15869	0.21899	-0.72083	-0.26667	-1.1042	-0.81458	-0.45417	-0.94583	-0.42917	-1.0583	-1.0333	-0.15833	-1.3	-0.86042	-0.49375	-1.2833	-0.49792	-0.75417	49.012	99.104	233.873	301.466	135.489	48.235	279.037	290.764	36.151	230.224	34.413	53.470	368.127	39.234	139.892	197.728	0.00030516	0.00037063	0.00012434	1498.8	3.9113e-06	7.2898e-06	1494	397.82	5.2165e-06	6.5015e-06	448.17	150.44	131.01	44.503	4.4956e-06	55.304	0.00090068	0.0012793	0.00035518	1517.2	1.341e-05	1.4441e-05	1510.8	404.41	1.3647e-05	1.4486e-05	455.96	154.27	134.64	45.852	1.4548e-05	56.452	152.178	82.951	92.275	25.132	197.816	141.094	25.150	29.897	178.242	142.002	29.652	33.875	34.534	38.644	160.685	38.023	-8191	255	
#DATA ENDS
