BOXY.EXE: ISS Imagent and Oximeter Data Acquisition Program Version 0.80
Ascii Record File

#ACQ INFORMATION
2  Detector Channels 
16  External MUX Channels 
1  Auxiliary Channels 
5000  Waveform (CCF) Frequency (Hz)
1  Waveforms Skipped 
30  Waveforms Averaged 
1  Cycles Averaged 
16  Acquisitions per Waveform 
10.0806  Updata Rate (Hz) 

#FILE INFORMATION
TRUE -- External MUX Channel results are PARSED.
FALSE -- AC DC and Phase are NOT grouped.
TRUE -- Companion Program Settings File CREATED.
FALSE -- AC data not excluded
FALSE -- DC data not excluded
FALSE -- Phase data not excluded
FALSE -- Auxillary Chn. data not excluded
Tab delimiters

#CALIBRATION STATE
TRUE -- Waveform Calibration Values APPLIED.


#AUX CALIBRATION VALUES
Val Type	aux-1	

Term	1.0000e+00	
Factor	0.0000e+00	


#WF CALIBRATION VALUES
A = Detector Channel
Val Type	A-AC1	A-AC2	A-AC3	A-AC4	A-AC5	A-AC6	A-AC7	A-AC8	A-AC9	A-AC10	A-AC11	A-AC12	A-AC13	A-AC14	A-AC15	A-AC16	A-DC1	A-DC2	A-DC3	A-DC4	A-DC5	A-DC6	A-DC7	A-DC8	A-DC9	A-DC10	A-DC11	A-DC12	A-DC13	A-DC14	A-DC15	A-DC16	A-Ph1	A-Ph2	A-Ph3	A-Ph4	A-Ph5	A-Ph6	A-Ph7	A-Ph8	A-Ph9	A-Ph10	A-Ph11	A-Ph12	A-Ph13	A-Ph14	A-Ph15	A-Ph16	

Term	0.00000e+00	0.00000e+00	0.00000e+00	0.00000e+00	0.00000e+00	0.00000e+00	0.00000e+00	0.00000e+00	0.00000e+00	0.00000e+00	0.00000e+00	0.00000e+00	0.00000e+00	0.00000e+00	0.00000e+00	0.00000e+00	0.00000e+00	0.00000e+00	0.00000e+00	0.00000e+00	0.00000e+00	0.00000e+00	0.00000e+00	0.00000e+00	0.00000e+00	0.00000e+00	0.00000e+00	0.00000e+00	0.00000e+00	0.00000e+00	0.00000e+00	0.00000e+00	0.00000e+00	0.00000e+00	0.00000e+00	0.00000e+00	0.00000e+00	0.00000e+00	0.00000e+00	0.00000e+00	0.00000e+00	0.00000e+00	0.00000e+00	0.00000e+00	0.00000e+00	0.00000e+00	0.00000e+00	0.00000e+00	
Factor	1.00000e+00	1.00000e+00	1.00000e+00	1.00000e+00	1.00000e+00	1.00000e+00	1.00000e+00	1.00000e+00	1.00000e+00	1.00000e+00	1.00000e+00	1.00000e+00	1.00000e+00	1.00000e+00	1.00000e+00	1.00000e+00	1.00000e+00	1.00000e+00	1.00000e+00	1.00000e+00	1.00000e+00	1.00000e+00	1.00000e+00	1.00000e+00	1.00000e+00	1.00000e+00	1.00000e+00	1.00000e+00	1.00000e+00	1.00000e+00	1.00000e+00	1.00000e+00	X	X	X	X	X	X	X	X	X	X	X	X	X	X	X	X	

B = Detector Channel
Val Type	B-AC1	B-AC2	B-AC3	B-AC4	B-AC5	B-AC6	B-AC7	B-AC8	B-AC9	B-AC10	B-AC11	B-AC12	B-AC13	B-AC14	B-AC15	B-AC16	B-DC1	B-DC2	B-DC3	B-DC4	B-DC5	B-DC6	B-DC7	B-DC8	B-DC9	B-DC10	B-DC11	B-DC12	B-DC13	B-DC14	B-DC15	B-DC16	B-Ph1	B-Ph2	B-Ph3	B-Ph4	B-Ph5	B-Ph6	B-Ph7	B-Ph8	B-Ph9	B-Ph10	B-Ph11	B-Ph12	B-Ph13	B-Ph14	B-Ph15	B-Ph16	

Term	0.00000e+00	0.00000e+00	0.00000e+00	0.00000e+00	0.00000e+00	0.00000e+00	0.00000e+00	0.00000e+00	0.00000e+00	0.00000e+00	0.00000e+00	0.00000e+00	0.00000e+00	0.00000e+00	0.00000e+00	0.00000e+00	0.00000e+00	0.00000e+00	0.00000e+00	0.00000e+00	0.00000e+00	0.00000e+00	0.00000e+00	0.00000e+00	0.00000e+00	0.00000e+00	0.00000e+00	0.00000e+00	0.00000e+00	0.00000e+00	0.00000e+00	0.00000e+00	-2.56295e+01	-1.44903e+02	-1.46208e+02	-1.81557e+02	-1.10190e+02	-6.80644e+01	-1.59026e+02	-1.62015e+02	-3.84505e+01	-8.16621e+01	-1.72371e+02	-1.70803e+02	-1.81112e+02	-1.77111e+02	-8.23039e+01	-1.49802e+02	
Factor	2.04882e-05	7.53207e-05	2.45854e-05	1.58408e-01	9.99100e-07	8.80246e-07	1.70930e-01	4.43404e-02	8.59531e-07	9.60360e-07	7.59286e-02	2.81762e-02	3.25531e-02	8.07940e-03	1.02540e-06	1.17635e-02	7.21442e-07	7.39326e-07	2.06340e-07	8.04690e-02	8.08779e-09	8.09940e-09	8.12938e-02	2.26284e-02	8.09526e-09	8.11344e-09	3.67682e-02	1.35681e-02	1.59473e-02	4.06331e-03	8.14387e-09	5.65090e-03	X	X	X	X	X	X	X	X	X	X	X	X	X	X	X	X	



#DISTANCE SETTINGS
A = Detector Channel
A-1	A-2	A-3	A-4	A-5	A-6	A-7	A-8	A-9	A-10	A-11	A-12	A-13	A-14	A-15	A-16	

2.5000e+00	3.0000e+00	2.5000e+00	3.0000e+00	2.0000e+00	3.0000e+00	1.5000e+00	3.0000e+00	3.0000e+00	3.0000e+00	3.0000e+00	3.0000e+00	3.0000e+00	3.0000e+00	1.5000e+00	3.0000e+00	

B = Detector Channel
B-1	B-2	B-3	B-4	B-5	B-6	B-7	B-8	B-9	B-10	B-11	B-12	B-13	B-14	B-15	B-16	

1.0000e+01	1.0000e+01	1.0000e+01	1.4400e+00	1.0000e+01	1.0000e+01	1.5100e+00	1.9400e+00	1.0000e+01	1.0000e+01	1.9900e+00	2.4900e+00	2.4100e+00	2.9000e+00	1.0000e+01	2.9800e+00	




#DATA BEGINS
time	group	step	mark	flag	A-AC1	A-AC2	A-AC3	A-AC4	A-AC5	A-AC6	A-AC7	A-AC8	A-AC9	A-AC10	A-AC11	A-AC12	A-AC13	A-AC14	A-AC15	A-AC16	A-DC1	A-DC2	A-DC3	A-DC4	A-DC5	A-DC6	A-DC7	A-DC8	A-DC9	A-DC10	A-DC11	A-DC12	A-DC13	A-DC14	A-DC15	A-DC16	A-Ph1	A-Ph2	A-Ph3	A-Ph4	A-Ph5	A-Ph6	A-Ph7	A-Ph8	A-Ph9	A-Ph10	A-Ph11	A-Ph12	A-Ph13	A-Ph14	A-Ph15	A-Ph16	B-AC1	B-AC2	B-AC3	B-AC4	B-AC5	B-AC6	B-AC7	B-AC8	B-AC9	B-AC10	B-AC11	B-AC12	B-AC13	B-AC14	B-AC15	B-AC16	B-DC1	B-DC2	B-DC3	B-DC4	B-DC5	B-DC6	B-DC7	B-DC8	B-DC9	B-DC10	B-DC11	B-DC12	B-DC13	B-DC14	B-DC15	B-DC16	B-Ph1	B-Ph2	B-Ph3	B-Ph4	B-Ph5	B-Ph6	B-Ph7	B-Ph8	B-Ph9	B-Ph10	B-Ph11	B-Ph12	B-Ph13	B-Ph14	B-Ph15	B-Ph16	aux-1	digaux	

1581.615	1	1	0	768	0.15119	0.27766	0.16515	0.40804	0.29782	0.083141	0.28036	0.24551	0.14881	0.28548	0.14723	0.32947	0.089465	0.13824	0.075187	0.24328	-1.0958	-0.81875	-0.6375	-1.6271	-0.59167	-1.0292	-1.5938	-0.625	-1.2667	-1.0979	-0.79583	-1.6521	-0.71875	-0.96667	-1.2479	-0.425	179.137	16.388	-75.395	180.578	-47.657	217.051	143.385	-119.263	-42.206	195.502	-130.890	132.502	113.044	171.837	146.274	171.589	0.00048894	0.00030613	0.00016103	1374.3	1.0664e-06	1.8899e-06	1380.1	382.17	2.5103e-06	7.6672e-06	434.2	146.34	126.62	43.728	6.5992e-06	53.911	0.00045008	0.0004511	0.0001157	1373.9	4.9457e-06	4.7886e-06	1384.5	383.98	4.9908e-06	4.85e-06	434.78	146.53	127.22	44.066	4.5471e-06	54.079	-63.664	-51.857	-86.824	-123.212	7.464	29.225	-123.264	-118.642	-27.424	10.151	-119.076	-114.500	-114.265	-109.805	-31.417	-110.714	-8191	255	
1581.712	1	1	0	0	0.099797	0.19157	0.18933	0.38511	0.059233	0.14746	0.29339	0.37742	0.11497	0.14032	0.26187	0.23765	0.28443	0.032284	0.24671	0.22802	-0.88542	-1.0063	-0.60208	-1.5542	-0.84583	-0.95833	-1.5958	-0.76667	-1.2458	-1.35	-0.67917	-1.775	-0.96875	-0.95625	-1.3625	-0.59375	-15.937	-100.540	-51.032	157.155	-101.852	-99.559	119.182	174.249	71.669	166.858	171.982	-8.898	192.416	-17.369	-43.253	152.810	0.00047194	0.00073215	0.00017195	1367.6	5.091e-07	7.2347e-06	1379.6	381.96	1.215e-06	3.8035e-06	435.71	146.5	126.97	43.774	8.3645e-06	53.995	0.00045621	0.00043033	0.00011193	1372.8	5.0119e-06	4.6479e-06	1380.6	384.31	4.9371e-06	4.6869e-06	433.96	146.97	127.18	44.074	4.3779e-06	54.381	-47.471	-72.484	-41.197	-122.956	22.812	17.835	-123.349	-118.860	-127.628	3.914	-119.124	-114.319	-114.412	-109.347	10.318	-110.841	-8191	255	
1581.808	1	1	0	0	0.08162	0.2247	0.093875	0.17585	0.15298	0.09301	0.19256	0.16228	0.2393	0.19166	0.1166	0.14233	0.19655	0.29358	0.070319	0.15586	-0.66042	-1.1313	-0.42083	-1.5646	-0.93958	-0.72917	-1.7833	-0.7125	-1.0688	-1.1313	-0.81875	-1.5479	-0.94792	-0.80208	-1.3312	-1.025	165.017	130.094	197.154	163.860	-134.602	-17.679	211.450	127.221	65.181	20.042	222.547	156.594	177.535	-81.848	83.619	212.725	0.00040184	0.00048689	0.00016453	1377.7	7.395e-06	4.622e-06	1383.4	382.21	8.1132e-06	5.411e-06	436.84	146.7	128.07	43.775	4.1715e-06	53.999	0.00044988	0.00042391	0.00010984	1378	4.9219e-06	4.5398e-06	1380.9	385.5	4.8057e-06	4.5967e-06	434.41	147.32	127.21	43.915	4.3824e-06	54.445	-61.153	211.809	-5.608	-123.299	-66.855	-42.508	-123.381	-118.505	12.628	6.499	-119.059	-114.816	-114.501	-109.676	-63.075	-110.422	-8191	255	
1581.904	1	1	0	0	0.15765	0.10027	0.11831	0.19887	0.11259	0.086928	0.19706	0.23441	0.09181	0.12075	0.30756	0.18634	0.1936	0.34289	0.42341	0.15509	-0.675	-1.2979	-0.40208	-1.4708	-0.96875	-0.75833	-1.5646	-0.86667	-1.0833	-1.4458	-0.65	-1.2708	-1.0521	-0.76042	-1.4958	-0.825	-82.667	180.871	105.726	196.837	-74.355	-25.580	207.532	211.506	188.644	130.152	183.889	198.104	218.444	178.451	141.828	125.457	0.00036728	0.00056079	4.3708e-05	1375.9	4.4253e-06	2.5919e-06	1379.1	381.84	6.7062e-06	5.3506e-06	434.88	146.52	127.74	43.653	4.0856e-06	54.063	0.00043648	0.00041973	0.00011136	1379.2	4.787e-06	4.4341e-06	1381.8	385.62	4.6766e-06	4.5026e-06	434.95	147.44	126.82	43.868	4.5794e-06	54.538	-55.724	-66.785	-13.999	-123.315	-95.386	15.986	-123.089	-118.640	14.361	-12.746	-119.101	-114.659	-114.046	-109.501	-32.420	-110.251	-8191	255	
1582.000	1	1	0	0	0.062398	0.027491	0.11722	0.2998	0.063576	0.14581	0.38045	0.16381	0.18326	0.39486	0.14173	0.12449	0.23272	0.11573	0.18226	0.14629	-0.44167	-1.5021	-0.62292	-1.4104	-1.3354	-0.57708	-1.5833	-0.94167	-0.71458	-1.3479	-0.53125	-1.1917	-1.3021	-0.48125	-1.2812	-1.1375	139.008	184.643	161.938	203.544	209.242	-71.877	150.175	14.125	-113.611	136.217	106.975	-131.153	134.948	167.795	-75.459	-15.592	0.0003622	0.00029556	6.0033e-05	1373.6	4.8017e-06	5.207e-06	1384.3	382.39	4.8571e-06	4.7565e-06	436.04	146.99	127.36	43.586	6.1908e-06	54.141	0.00042773	0.00040491	0.0001171	1378.4	4.7108e-06	4.3076e-06	1384.8	385.51	4.6039e-06	4.3667e-06	436.26	147.29	126.38	43.744	4.7817e-06	54.418	-73.562	-136.179	-73.745	-123.308	105.468	58.184	-123.277	-118.598	4.421	-50.531	-119.010	-114.820	-114.282	-109.791	-86.525	-110.443	-8191	255	
1582.096	1	1	0	0	0.14598	0.42273	0.25582	0.29061	0.39996	0.042435	0.23573	0.16894	0.14809	0.12784	0.32882	0.24284	0.10665	0.37838	0.22834	0.26808	-0.41458	-1.4125	-0.41667	-1.2146	-1.1437	-0.52292	-1.4396	-1.1083	-0.52708	-1.4	-0.69167	-1.1417	-1.3375	-0.45625	-1.2104	-1.2875	86.676	23.174	-67.827	175.268	-86.824	24.129	214.963	154.214	171.353	-103.954	199.100	9.749	-24.316	159.667	-28.583	-132.043	0.00046779	0.00030581	6.9991e-05	1371.3	2.3348e-06	2.6778e-06	1383.9	383.41	2.1217e-06	4.4676e-06	437.1	146.45	126.91	43.684	2.9432e-06	54.209	0.00041797	0.00039856	0.00012378	1377	4.607e-06	4.3088e-06	1389	385.36	4.5331e-06	4.4457e-06	437.35	147.07	126.18	43.86	5.0845e-06	54.436	-43.427	35.433	20.030	-122.968	14.359	78.626	-123.277	-118.800	21.385	9.579	-118.989	-114.527	-114.156	-109.682	32.788	-110.513	-8191	255	
1582.217	1	1	0	0	0.18719	0.20728	0.16447	0.10769	0.34177	0.083641	0.094143	0.11065	0.20487	0.16449	0.031701	0.29333	0.19228	0.20677	0.1147	0.26584	-0.047917	-1.3438	-0.77292	-1.1042	-1.2208	-0.6	-1.5187	-1.3188	-0.62083	-1.4813	-0.81667	-1.0333	-1.6542	-0.77083	-1.0708	-1.2708	201.000	-98.989	130.831	163.074	-133.141	-38.358	159.225	193.566	-126.134	181.414	153.729	172.065	212.962	199.928	221.762	166.745	0.00038636	0.00013096	0.00020691	1373.2	1.8279e-06	7.5322e-06	1381.4	383.56	7.0635e-06	4.9482e-06	435.42	146.38	126.94	43.678	1.9652e-06	54.194	0.00041877	0.00041732	0.00013226	1376.3	4.6599e-06	4.6526e-06	1389.9	386.12	4.6397e-06	4.8963e-06	439.68	147.55	126.87	44.22	5.492e-06	54.844	-51.407	48.823	-77.300	-123.062	-41.109	-73.599	-123.140	-118.485	8.548	-74.037	-119.150	-114.861	-113.962	-109.701	-7.467	-110.596	-8191	255	
1582.311	1	1	0	0	0.11388	0.2076	0.31197	0.44821	0.04878	0.15321	0.12645	0.20656	0.19455	0.10079	0.41265	0.20235	0.33969	0.21052	0.12339	0.28901	-0.25625	-1.4271	-0.8125	-0.8375	-1.3208	-0.71458	-1.3	-1.5187	-0.45208	-1.55	-1.0604	-1.0187	-1.4229	-0.60417	-0.8625	-1.2771	23.269	133.767	55.379	171.264	-42.262	-57.482	144.672	213.005	56.155	-110.922	192.858	213.396	201.185	205.172	154.891	191.200	0.00044778	0.00028876	4.5458e-05	1380.3	2.6195e-06	1.4799e-06	1384.2	386.52	1.9242e-06	7.2257e-06	436.84	147.11	127.35	44.034	7.1051e-06	54.253	0.00044846	0.00048649	0.00014588	1388.7	5.0628e-06	5.5358e-06	1400.9	388.91	5.0681e-06	5.6832e-06	442.38	148.54	128.15	44.785	5.8152e-06	55.038	-45.196	-106.704	20.068	-123.220	-6.800	-64.699	-123.097	-118.808	-54.657	-103.474	-119.124	-114.741	-114.056	-109.590	-43.674	-110.731	-8191	255	
1582.407	1	1	0	0	0.087991	0.15121	0.11535	0.26595	0.11744	0.40799	0.21406	0.46059	0.13424	0.090423	0.23362	0.59264	0.17691	0.1405	0.21441	0.2557	-0.097917	-1.2812	-0.78958	-0.79792	-1.5312	-0.67917	-0.99375	-1.5396	-0.66458	-1.4438	-1.2396	-0.78958	-1.5542	-0.80208	-0.88333	-1.4229	106.852	138.220	28.058	172.848	-130.990	-76.330	100.543	222.862	62.690	99.339	-80.905	157.502	16.144	211.394	-66.075	150.225	0.00048978	0.00046304	0.0003236	1382.7	7.2669e-06	5.1732e-06	1394.8	386.92	3.7971e-06	9.4735e-06	437.81	146.45	127.44	43.534	4.6769e-06	53.761	0.00047417	0.00053797	0.00014969	1394.5	5.2715e-06	5.913e-06	1404.2	390.37	5.1916e-06	5.9027e-06	442.2	148.11	128.19	44.606	5.5828e-06	54.595	-50.052	-48.531	-31.252	-123.053	-21.856	-81.136	-123.114	-118.731	-51.914	-25.973	-119.076	-114.673	-114.030	-109.875	-95.452	-110.465	-8191	255	
1582.503	1	1	0	0	0.08319	0.27224	0.19206	0.1358	0.23689	0.030207	0.090702	0.27726	0.092273	0.21047	0.32796	0.1789	0.082347	0.2095	0.14737	0.059165	-0.3	-1.2	-1.0042	-0.775	-1.3625	-0.82083	-1.0771	-1.5083	-0.4125	-0.94792	-1.3083	-0.59583	-1.45	-0.77917	-0.95625	-1.3854	116.805	-130.810	-67.394	-93.732	15.851	181.260	-85.821	176.815	-69.137	69.079	113.809	174.044	-126.524	173.874	195.059	199.353	0.00060144	4.1601e-05	4.0056e-05	1385.1	4.7361e-06	2.2208e-06	1389.6	386.34	7.3624e-06	8.0673e-06	436.35	145.88	127.38	43.431	4.4708e-06	54.036	0.00048809	0.00053655	0.00014293	1392.7	5.484e-06	5.9661e-06	1401.5	389.55	5.5824e-06	5.9345e-06	441.49	147.4	128.75	44.512	5.583e-06	54.63	-63.266	-27.719	-86.411	-123.169	176.384	-47.890	-123.155	-118.709	-117.927	-67.904	-119.095	-114.774	-114.333	-109.762	1.893	-110.478	-8191	255	
1582.600	1	1	0	0	0.12386	0.28522	0.17971	0.25309	0.36669	0.10032	0.23059	0.27669	0.15905	0.19035	0.11023	0.1472	0.10438	0.33952	0.11236	0.23055	-0.14167	-1.1333	-1.2437	-0.56042	-1.2437	-0.84375	-0.93958	-1.6104	-0.65833	-0.9	-1.4438	-0.50208	-1.475	-1.3375	-0.41042	-1.4417	94.721	164.427	-37.829	195.167	-92.539	-63.550	208.754	-105.472	-44.254	21.821	187.317	-69.828	4.668	183.847	173.492	114.533	0.00049002	0.00060286	0.00013884	1380.2	1.2253e-06	1.1127e-05	1393.4	387.95	2.8179e-06	3.386e-06	438.77	146.53	127.93	43.731	4.1535e-06	54.002	0.00053547	0.00054777	0.00014674	1392.5	6.0477e-06	6.1488e-06	1404.8	391.31	6.2373e-06	6.1429e-06	444.03	148.69	130.53	44.844	5.9019e-06	55.14	-68.170	-18.548	-94.226	-123.090	108.965	5.769	-123.284	-118.446	90.956	-27.819	-119.050	-114.641	-114.294	-109.864	71.302	-110.547	-8191	255	
1582.696	1	1	0	0	0.14045	0.12967	0.19162	0.24496	0.26071	0.10432	0.43026	0.1998	0.18341	0.15249	0.24006	0.13418	0.2754	0.39317	0.45818	0.22224	-0.27292	-0.8	-1.3813	-0.79375	-1.1833	-0.95833	-0.54583	-1.6354	-0.55208	-0.71458	-1.3937	-0.53333	-1.2396	-1.0667	-0.33125	-1.4146	93.374	36.086	78.385	180.724	118.805	65.894	139.804	-63.282	-101.074	-10.662	-115.831	127.896	62.409	120.442	-45.822	205.555	0.00035527	0.00013927	0.00023249	1391.9	3.5062e-06	7.7774e-06	1398.2	389.6	3.9508e-06	7.4576e-06	439.72	147.24	127.6	43.559	4.5572e-06	54.012	0.00060091	0.00057747	0.00015398	1406.9	6.6464e-06	6.3605e-06	1415.2	394.2	6.6903e-06	6.2392e-06	445.91	149.8	131.25	44.83	5.8809e-06	55.447	-59.812	-117.897	-13.329	-123.132	196.193	20.140	-122.970	-118.636	-28.194	46.640	-119.054	-114.690	-114.147	-109.507	79.564	-110.672	-8191	255	
1582.816	1	1	0	0	0.20336	0.077517	0.17223	0.37617	0.35193	0.25666	0.38747	0.44013	0.15378	0.10513	0.42757	0.14539	0.22157	0.11039	0.20951	0.32845	-0.39583	-0.60625	-1.2667	-0.67083	-1.1354	-1.3021	-0.56667	-1.6083	-0.43958	-0.73958	-1.45	-0.74583	-1.0896	-1.4417	-0.56875	-1.5938	179.091	77.696	-65.719	-88.909	-61.575	181.944	198.126	176.186	105.648	-52.363	167.892	124.379	-68.880	201.400	161.377	111.440	0.00043817	0.00018231	6.7209e-05	1398.7	6.0378e-06	7.8495e-06	1404.4	388.44	3.6235e-06	5.198e-06	440	146.66	128.78	43.643	4.2409e-06	54.225	0.00061224	0.00056344	0.00015019	1417.5	6.5631e-06	6.1933e-06	1416	395.51	6.5698e-06	6.0668e-06	445.25	149.96	130.98	44.671	5.6828e-06	55.541	-49.050	-57.541	-34.753	-123.192	-18.357	-4.283	-123.151	-118.571	4.482	38.887	-119.093	-114.851	-114.139	-109.912	103.997	-110.668	-8191	255	
1582.913	1	1	0	0	0.095663	0.14942	0.047809	0.29733	0.025791	0.21915	0.21026	0.1758	0.28444	0.16877	0.16363	0.1388	0.074878	0.13545	0.23001	0.15151	-0.5375	-0.49792	-1.4458	-0.85833	-1.0146	-1.3646	-0.65	-1.55	-0.90417	-0.57083	-1.6688	-0.82708	-0.89375	-1.5562	-0.43333	-1.3708	-107.281	112.703	48.941	200.990	44.451	38.045	69.859	17.248	-18.856	-34.845	-94.685	33.597	66.302	191.811	115.711	-132.066	0.00043107	0.00071162	0.00010479	1400.6	3.2752e-06	3.0396e-06	1406.1	388.97	6.5922e-06	1.0871e-05	438.38	145.89	128.35	43.74	6.2694e-06	53.802	0.00058161	0.00053784	0.00014485	1418	6.215e-06	5.9505e-06	1417.1	395.94	6.2122e-06	5.7261e-06	444.12	150.1	130.24	44.531	5.629e-06	55.377	-47.130	-54.117	10.992	-123.271	-38.925	72.051	-123.133	-118.509	25.375	16.802	-119.039	-114.745	-113.965	-109.689	-95.475	-110.338	-8191	255	
1583.009	1	1	0	0	0.16543	0.059168	0.071835	0.27145	0.11513	0.15739	0.29757	0.35095	0.059626	0.34088	0.17959	0.23976	0.18483	0.183	0.11907	0.22765	-0.68542	-0.63125	-1.2167	-1.0042	-0.80625	-1.4354	-0.725	-1.4604	-1.2375	-0.54583	-1.5312	-1.0521	-0.6875	-1.5063	-0.5125	-1.225	15.011	92.155	-28.531	198.063	112.835	-23.885	187.409	178.313	82.154	3.881	172.822	183.653	-133.710	-112.204	96.841	86.185	0.00044711	0.00070142	0.0001189	1399.9	7.7074e-06	5.456e-06	1400.9	389.69	6.3546e-06	1.007e-05	438.36	146.29	127.87	43.636	8.5008e-06	53.743	0.00054293	0.00049996	0.00014345	1414.2	5.7281e-06	5.4451e-06	1411.3	394.19	5.6829e-06	5.2099e-06	442.3	149.04	128.56	44.103	5.4774e-06	54.777	-43.789	-42.968	142.765	-122.997	-15.409	12.090	-123.080	-118.721	24.357	-54.758	-119.105	-114.682	-114.083	-109.475	-40.099	-110.558	-8191	255	
1583.103	1	1	0	0	0.12726	0.15989	0.24838	0.026454	0.22944	0.33416	0.31834	0.011551	0.18993	0.17782	0.2975	0.15925	0.22595	0.16414	0.0030702	0.17527	-0.89583	-0.5875	-1.3	-0.98125	-0.59792	-1.5604	-0.81042	-0.98958	-1.3312	-0.63542	-1.3813	-0.95417	-0.68542	-1.5875	-0.51667	-1.0354	-94.259	72.283	-74.872	164.737	201.301	-33.132	142.645	191.710	46.761	175.626	136.151	-22.516	128.786	189.406	138.432	-103.901	0.00044974	0.0005766	0.00011204	1387	6.8654e-06	5.1289e-06	1390.2	387.18	5.0742e-06	8.6894e-06	433.77	146.03	127.12	43.228	4.4384e-06	53.756	0.00048668	0.0004485	0.00013695	1398.9	5.1124e-06	4.8512e-06	1401.1	390.49	5.0315e-06	4.7172e-06	438.38	147.48	127.07	43.666	5.3575e-06	54.326	-61.039	-82.032	-46.288	-123.044	-43.193	-23.888	-123.150	-118.409	-2.384	-2.839	-118.849	-114.575	-113.840	-109.628	195.684	-110.394	-8191	255	
1583.177	1	1	0	0	0.14336	0.033574	0.10184	0.25503	0.36214	0.072747	0.40939	0.14749	0.11518	0.22899	0.23407	0.33467	0.20089	0.28356	0.16177	0.25112	-0.925	-0.51667	-1.3083	-1.0438	-0.45	-1.3854	-0.94792	-1.0938	-1.3333	-0.59792	-1.3438	-1.2604	-0.38958	-1.5708	-0.65417	-1.0333	31.418	-107.206	223.662	-132.391	-9.912	-98.783	158.620	114.613	49.891	45.057	162.171	216.882	171.038	-128.975	-132.653	192.361	0.00038308	0.00034748	0.00015304	1386.4	1.0468e-05	5.8319e-06	1391.4	385.12	5.9596e-06	1.3646e-06	436.21	145.49	127.34	43.343	3.5737e-06	53.459	0.00045177	0.00042893	0.00013521	1390.8	4.7849e-06	4.7273e-06	1400.2	388.04	4.7937e-06	4.7392e-06	438.54	146.61	126.37	43.702	5.3168e-06	54.01	-33.530	190.426	-52.100	-123.021	-76.715	-20.492	-122.818	-118.283	-30.235	97.120	-118.873	-114.851	-113.874	-109.373	-60.968	-110.226	-8191	255	
1583.295	1	1	0	0	0.11684	0.22979	0.15675	0.066193	0.31424	0.060014	0.22613	0.45971	0.12571	0.27641	0.19202	0.017488	0.26693	0.17835	0.16589	0.13357	-0.87708	-0.57083	-1.1104	-1.4479	-0.48125	-1.2604	-0.97083	-1.05	-1.2125	-0.47917	-1.2396	-1.2854	-0.59375	-1.4646	-0.95208	-0.92708	210.106	46.622	56.519	40.783	158.471	-14.647	-100.804	161.069	38.392	8.783	-81.587	114.899	175.598	-101.346	64.807	-87.822	0.00033106	0.00023188	5.1507e-05	1381.4	7.0593e-06	6.7631e-06	1392.1	384.29	1.7873e-06	2.9452e-07	433.29	145.09	126.68	43.264	7.5406e-06	53.787	0.00043067	0.0004393	0.0001323	1385.8	4.5062e-06	4.8095e-06	1395	385.9	4.5154e-06	4.8682e-06	435.78	146.05	125.45	43.704	5.1211e-06	53.885	-42.640	-66.238	16.193	-123.120	-67.917	75.097	-122.926	-118.409	26.755	-6.148	-118.723	-114.470	-114.371	-109.734	-14.534	-110.200	-8191	255	
1583.392	1	1	0	0	0.088226	0.087139	0.13656	0.032769	0.064553	0.091093	0.20068	0.13458	0.21078	0.23505	0.43794	0.10915	0.22687	0.14303	0.06425	0.45913	-0.93333	-0.76667	-1.0688	-1.4417	-0.54375	-1.2333	-0.95	-0.97083	-1.3979	-0.54375	-0.94792	-1.35	-0.65208	-1.3292	-1.0104	-0.49167	76.338	-18.592	87.530	105.779	210.521	-30.278	-89.398	82.037	112.048	92.576	154.619	-91.171	153.121	207.826	-80.829	186.521	0.00034349	0.00034639	0.00020639	1380.6	9.1631e-06	8.3359e-07	1384.4	385.15	3.4789e-06	6.318e-06	433.21	145.65	126.27	43.119	6.4183e-06	53.731	0.00040949	0.00045331	0.00012744	1379.4	4.4392e-06	4.9806e-06	1391.1	386.14	4.5181e-06	5.0809e-06	435.82	145.62	125.73	43.681	4.9474e-06	53.704	-58.971	-18.992	-63.055	-123.017	-82.401	123.587	-123.153	-118.391	-73.658	-114.579	-118.794	-114.661	-114.058	-109.447	-33.789	-110.133	-8191	255	
1583.488	1	1	0	0	0.23048	0.19293	0.090124	0.13772	0.068831	0.2286	0.25972	0.074892	0.15294	0.16548	0.35226	0.11645	0.25094	0.27982	0.14164	0.22511	-1.1917	-0.52083	-0.9	-1.7146	-0.54792	-1.2938	-1.2458	-0.63333	-1.3687	-0.74167	-1	-1.4062	-0.80833	-1.2271	-1.0354	-0.64167	-58.434	-73.150	-50.540	-132.565	143.027	180.955	171.534	-90.251	-49.135	185.776	174.530	216.821	168.023	-94.586	-55.404	103.515	0.00045423	0.00085082	0.00016588	1373.5	9.7393e-07	3.1058e-06	1383.4	384.66	2.4896e-06	6.5214e-06	434.37	144.76	126.02	43.041	6.0771e-06	53.63	0.00041602	0.00046561	0.00012188	1377.4	4.5992e-06	5.0692e-06	1388.3	385.16	4.6494e-06	5.1522e-06	434.45	145.36	125.78	43.642	4.8111e-06	53.562	-64.265	-60.595	-26.212	-123.132	20.911	29.915	-123.054	-118.337	-24.815	88.779	-119.044	-114.939	-113.992	-109.496	-59.639	-110.034	-8191	255	
1583.584	1	1	0	0	0.21659	0.18468	0.14896	0.16081	0.2347	0.17173	0.24806	0.21782	0.20233	0.17103	0.29254	0.22874	0.11524	0.22852	0.2487	0.36548	-0.91042	-0.76875	-0.56875	-1.5854	-0.43125	-1.1042	-1.3542	-0.69167	-1.3833	-0.84375	-0.53125	-1.6896	-0.77917	-1.0604	-1.2354	-0.66875	33.049	206.682	-14.979	182.744	19.055	-106.328	158.863	68.248	51.013	-112.414	203.274	211.502	72.869	195.091	66.159	177.575	0.00049857	0.00028952	0.00020853	1373.5	2.4625e-06	4.2715e-06	1380.1	384.9	2.4586e-06	4.5598e-06	434.98	145.05	126.42	43.304	3.7076e-06	53.375	0.00044048	0.00046361	0.00011919	1373.9	4.8436e-06	4.9787e-06	1384.7	384.46	4.8545e-06	4.9691e-06	433.72	144.96	125.99	43.596	4.6508e-06	53.421	-58.413	-51.488	-48.405	-123.212	-114.618	75.530	-122.940	-118.532	-41.533	-68.544	-118.762	-114.392	-114.016	-109.461	18.613	-110.189	-8191	255	
1583.705	1	1	0	0	0.32605	0.062689	0.011663	0.15766	0.10996	0.095567	0.19785	0.41228	0.076548	0.29661	0.09551	0.14162	0.26206	0.12465	0.087825	0.0939	-1.0042	-1.1271	-0.45417	-1.6104	-0.66458	-1.075	-1.5562	-0.5	-1.3229	-0.87917	-0.86667	-1.4792	-0.74167	-0.83125	-1.4729	-0.73125	36.939	23.700	-98.087	211.627	-89.441	70.318	-130.875	201.628	112.141	93.100	-88.265	-114.892	160.106	164.267	222.084	152.506	0.00049138	0.00060035	0.00019363	1370.5	2.5304e-06	6.5734e-06	1377.1	382.09	5.1025e-06	8.1374e-06	432.05	144.73	124.42	43.02	1.1113e-05	53.248	0.00045143	0.00044153	0.00011502	1370.4	4.9424e-06	4.7331e-06	1378.9	383.66	4.9715e-06	4.7887e-06	430.89	144.84	125.68	43.325	4.5164e-06	53.519	-72.236	-51.445	-44.354	-122.982	71.012	-2.748	-122.986	-118.537	8.772	9.134	-118.714	-114.770	-114.114	-109.564	0.194	-110.204	-8191	255	
1583.776	1	1	0	0	0.12969	0.10974	0.26861	0.20157	0.24725	0.15509	0.25748	0.1678	0.19056	0.20348	0.14262	0.35706	0.18937	0.1475	0.18859	0.18051	-0.89167	-0.9875	-0.53125	-1.6229	-0.62917	-0.86458	-1.5833	-0.7125	-1.0583	-1.3396	-0.68958	-1.4021	-0.93542	-0.86875	-1.2188	-0.78125	-19.949	-92.445	107.138	89.464	46.542	-83.045	173.335	192.345	62.849	-81.988	164.325	-116.317	194.391	-135.473	-131.944	-58.364	0.00029721	0.00058575	7.5406e-05	1370.4	4.4418e-06	5.4719e-06	1378.1	381.67	5.8847e-06	7.0779e-06	432.11	143.88	125.45	42.994	5.1306e-06	53.322	0.00045947	0.00043152	0.00011071	1370.8	4.9724e-06	4.63e-06	1375.9	383.56	4.978e-06	4.6794e-06	430.35	144.92	125.75	43.215	4.3369e-06	53.615	-46.307	-80.044	-64.251	-123.063	-7.665	0.970	-122.990	-118.518	-1.878	30.335	-118.973	-114.492	-114.215	-109.385	57.954	-110.380	-8191	255	
1583.897	1	1	0	0	0.24809	0.09097	0.065682	0.16002	0.065063	0.16785	0.04695	0.19948	0.16836	0.31623	0.13783	0.20951	0.21319	0.28869	0.090867	0.25278	-0.57083	-1.0979	-0.54792	-1.4896	-0.78333	-0.66042	-1.6646	-0.94167	-0.85625	-1.5125	-0.58333	-1.2687	-1.0688	-0.70625	-1.4042	-0.76458	123.273	-88.854	153.572	89.066	-76.845	100.874	159.583	202.181	-43.777	148.367	183.160	86.885	220.007	206.861	-123.571	178.861	0.00028507	0.00039815	6.1801e-05	1369.8	1.1709e-06	5.2364e-06	1374.3	380.99	6.9863e-06	6.0917e-06	431.73	144.13	125.75	42.638	6.9074e-06	53.189	0.00044202	0.00041791	0.00010846	1371.6	4.8081e-06	4.4464e-06	1372.9	383.51	4.7481e-06	4.4781e-06	429.15	144.91	124.96	42.961	4.3256e-06	53.67	-43.663	-75.315	-109.698	-122.898	-35.458	8.571	-123.056	-118.399	-38.417	37.556	-118.853	-114.455	-114.083	-109.569	199.809	-110.207	-8191	255	
1583.993	1	1	0	0	0.13601	0.23915	0.15095	0.15994	0.14372	0.15392	0.22898	0.076296	0.19916	0.12365	0.23812	0.030633	0.2338	0.032187	0.2594	0.10212	-0.50625	-1.4979	-0.32292	-1.6083	-0.92708	-0.65417	-1.6958	-0.94167	-0.79167	-1.2812	-0.57708	-1.3333	-0.91875	-0.52083	-1.4542	-0.89167	-110.974	-60.096	63.402	167.883	39.900	-57.924	-127.005	96.457	169.619	-134.780	-121.841	-85.491	-119.840	121.595	195.269	40.813	0.00043603	0.0002592	8.8421e-05	1361.6	4.3477e-06	5.5214e-06	1371.9	380.41	4.8392e-06	3.5933e-06	432.8	143.53	125.72	42.891	4.0015e-06	53.156	0.00042673	0.00039885	0.00010977	1367.7	4.634e-06	4.3097e-06	1370.8	383.21	4.5452e-06	4.3454e-06	430.3	144.91	124.72	43.022	4.516e-06	53.688	-43.699	-82.418	110.866	-122.816	27.259	12.718	-123.035	-118.400	-32.038	-14.683	-118.951	-114.507	-114.014	-109.324	-88.048	-110.433	-8191	255	
1584.089	1	1	0	0	0.13564	0.042057	0.22032	0.23065	0.21654	0.24876	0.24468	0.34273	0.2218	0.25	0.01346	0.21239	0.18789	0.22643	0.017843	0.22284	-0.42083	-1.3229	-0.68958	-1.0812	-1.1208	-0.44167	-1.5771	-0.95833	-0.76458	-1.4583	-0.69167	-1.1875	-1.2188	-0.46667	-1.4292	-0.87917	-20.994	-62.145	-12.999	-126.561	211.594	193.331	168.412	23.076	41.680	214.604	37.898	211.817	210.910	164.577	46.104	113.577	0.00036768	0.00033452	4.1411e-05	1364.3	5.6227e-06	2.7302e-06	1369.3	381.49	6.8457e-06	8.1279e-06	429.01	144.02	124.91	42.748	6.8175e-06	53.166	0.00041541	0.0003919	0.00011657	1367.4	4.5586e-06	4.1692e-06	1372.8	383.47	4.4877e-06	4.2821e-06	430.46	144.86	124.48	42.874	4.7624e-06	53.605	-40.432	32.558	-79.219	-122.891	-29.352	44.429	-122.901	-118.248	28.115	8.164	-118.894	-114.420	-113.834	-109.387	192.371	-110.161	-8191	255	
1584.185	1	1	0	0	0.12607	0.28501	0.16553	0.017124	0.20662	0.36191	0.21214	0.48163	0.1997	0.19891	0.20836	0.16282	0.19721	0.067698	0.11051	0.42783	-0.19375	-1.2958	-0.52708	-1.2708	-1.2958	-0.45833	-1.3083	-1.1812	-0.59583	-1.4688	-0.71458	-0.96875	-1.4333	-0.5	-1.05	-1.1417	126.306	152.968	-108.710	163.858	-50.867	-33.078	96.569	-78.668	19.996	2.727	140.455	169.056	-51.353	195.341	-98.490	132.496	0.00043249	0.0008796	9.1302e-05	1358.2	2.7576e-06	3.4305e-06	1365.6	381.24	2.2315e-06	5.0277e-06	429.63	144.59	125.54	42.763	9.4172e-06	53.413	0.00040303	0.00038875	0.00012148	1363	4.4143e-06	4.2058e-06	1372.3	382.88	4.3239e-06	4.2785e-06	431.02	144.56	124.2	42.945	4.8056e-06	53.453	-59.466	-74.218	169.971	-122.874	-17.485	-26.145	-122.815	-118.275	-72.698	-85.386	-118.959	-114.229	-113.883	-109.350	-0.189	-110.219	-8191	255	
1584.304	1	1	0	0	0.10245	0.34941	0.25197	0.36884	0.098181	0.054567	0.08189	0.09245	0.37733	0.20313	0.28309	0.22303	0.26158	0.091625	0.1784	0.4254	-0.11042	-1.5604	-0.5875	-1	-1.2875	-0.58958	-1.3917	-1.3146	-0.59792	-1.45	-0.85833	-0.84583	-1.4792	-0.84167	-1.0792	-1.3438	-112.706	-74.226	-49.475	208.677	-118.442	146.576	142.354	171.300	178.606	145.998	140.731	180.232	44.450	-18.899	-50.979	145.066	0.00043533	0.00042956	0.00016381	1362.6	4.7632e-06	4.8126e-06	1374.1	381.2	5.3996e-06	3.2039e-06	430.93	144.44	125.29	42.73	3.7815e-06	53.019	0.00039328	0.00039624	0.00012281	1360	4.3127e-06	4.3844e-06	1375.4	382.63	4.1974e-06	4.5031e-06	430.9	144.26	124.09	42.978	4.7958e-06	53.251	-51.182	135.990	-82.340	-122.755	-30.995	151.731	-122.990	-118.380	80.354	-77.632	-118.726	-114.306	-113.875	-109.403	-0.747	-110.479	-8191	255	
1584.400	1	1	0	0	0.32026	0.074183	0.18335	0.14817	0.30891	0.13485	0.12398	0.19826	0.1528	0.097786	0.091859	0.33812	0.084419	0.34853	0.12398	0.18964	-0.15417	-1.2771	-0.71042	-0.97083	-1.3792	-0.48333	-1.1625	-1.4021	-0.39375	-1.3458	-1.1271	-0.57083	-1.6208	-0.8	-0.85417	-1.5063	219.184	190.580	-123.482	-100.909	187.757	223.565	198.435	130.827	179.549	172.434	164.742	-112.474	105.589	196.272	55.313	127.299	0.00032116	0.00052149	4.978e-05	1362.5	3.2919e-06	7.2194e-06	1369.7	381.54	5.0393e-06	2.0205e-06	429.28	143.71	125.44	42.669	2.6658e-06	52.915	0.0003864	0.00042321	0.00012369	1361.3	4.2775e-06	4.7225e-06	1374.4	382.01	4.2512e-06	4.8203e-06	430.62	144.26	124.26	43.181	4.7836e-06	53.336	-57.180	-84.964	-62.762	-122.850	-1.900	1.282	-122.686	-118.247	37.142	-118.603	-118.732	-114.146	-114.103	-109.351	47.273	-110.052	-8191	255	
1584.472	1	1	0	0	0.32064	0.36286	0.12454	0.10079	0.12014	0.28915	0.20551	0.23574	0.23257	0.14864	0.21507	0.13916	0.20135	0.21431	0.14348	0.32071	-0.20417	-1.2188	-0.79167	-0.67708	-1.2542	-0.72917	-1.2667	-1.6167	-0.47083	-1.3687	-1.2458	-0.46667	-1.5854	-0.87917	-0.525	-1.5271	-20.629	70.162	-75.654	206.922	-120.459	27.145	159.376	175.447	55.801	-75.301	158.846	182.672	-78.260	176.159	54.420	109.111	0.00047359	0.00017481	0.0001028	1365	3.1038e-06	4.5356e-06	1369.4	380.35	7.6306e-07	6.1505e-06	429.47	143.98	125.3	42.63	5.9479e-06	53.146	0.00039621	0.00044557	0.00012107	1361.8	4.3668e-06	4.9036e-06	1373.3	381.58	4.3932e-06	4.8534e-06	430.05	143.82	124.37	43.227	4.5686e-06	53.18	-72.183	0.882	-55.707	-122.906	-87.973	9.381	-122.567	-118.343	-21.714	4.225	-118.867	-114.471	-113.928	-109.241	21.619	-110.126	-8191	255	
1584.593	1	1	0	0	0.1278	0.13264	0.37445	0.10589	0.17046	0.1628	0.25087	0.16535	0.14969	0.15426	0.21189	0.12999	0.085675	0.020375	0.035403	0.2287	-0.175	-1.1437	-1.1229	-0.77708	-1.275	-0.725	-0.92917	-1.6625	-0.4875	-1.1146	-1.1833	-0.70833	-1.4375	-0.99792	-0.60833	-1.4729	-25.974	72.394	154.160	167.243	163.317	-116.590	192.835	-99.823	147.135	207.043	86.842	139.381	188.301	-125.738	163.905	-125.380	0.00044532	0.000192	0.00012191	1360.6	4.0671e-06	3.6536e-06	1376	380.34	1.1201e-06	1.0499e-05	429.79	144.34	125.35	42.89	6.0225e-06	53.508	0.00041683	0.00044324	0.0001176	1359.1	4.5703e-06	4.8762e-06	1373.4	381.33	4.6412e-06	4.8857e-06	430.36	143.9	125.14	43.247	4.534e-06	53.359	-57.220	-7.444	-44.048	-122.662	-29.159	22.807	-122.760	-118.276	-130.160	-8.155	-118.751	-114.398	-113.727	-109.467	54.721	-110.183	-8191	255	
1584.689	1	1	0	0	0.29818	0.16968	0.1149	0.11665	0.1697	0.28975	0.23102	0.32779	0.1424	0.082412	0.16724	0.14046	0.11309	0.28098	0.24337	0.2745	-0.2	-1.0312	-1.2854	-0.52708	-1.3396	-0.93958	-0.71875	-1.45	-0.60833	-0.8	-1.3042	-0.54167	-1.3563	-1.1625	-0.6	-1.4542	170.628	1.087	4.927	148.738	181.110	169.499	158.380	-122.442	105.888	156.600	125.867	132.532	140.733	186.090	131.339	127.875	0.00056167	0.00038432	0.00011662	1359.5	6.0191e-06	3.8244e-06	1369.5	381.4	6.2362e-06	4.9675e-06	430.76	143.49	125.52	42.803	9.3719e-06	53.164	0.00044264	0.00044171	0.00011784	1358.2	4.8953e-06	4.8877e-06	1372.3	381.81	4.9534e-06	4.8186e-06	430.67	143.88	125.66	43.154	4.4617e-06	53.287	-55.247	-64.563	2.242	-123.302	195.631	41.200	-123.387	-118.699	-23.308	51.337	-119.178	-114.887	-114.352	-109.916	-6.217	-110.469	-8191	255	
1584.785	1	1	0	0	0.20978	0.1348	0.2349	0.16161	0.18462	0.16402	0.070979	0.20418	0.047443	0.10671	0.29078	0.22187	0.19329	0.098874	0.1493	0.49807	-0.1	-0.61458	-1.3104	-0.56042	-1.0354	-1.0771	-0.65208	-1.6938	-0.70625	-0.7125	-1.4167	-0.5375	-1.1542	-0.95208	-0.25	-1.4729	135.005	23.260	110.163	204.110	-96.286	17.171	176.100	136.277	-36.746	12.462	-50.972	217.399	221.652	139.811	120.797	159.282	0.00035621	0.00039779	0.00016261	1361.7	4.1252e-06	4.1299e-06	1374.9	381.61	2.377e-06	8.8503e-06	431.31	143.42	125.7	42.755	3.6627e-06	53.014	0.0004558	0.00042435	0.00011323	1361.3	4.9313e-06	4.6521e-06	1371	382.36	4.927e-06	4.6071e-06	429.77	144.15	125.46	43.099	4.2757e-06	53.407	-51.009	-47.483	-67.862	-123.223	-124.252	44.989	-123.364	-118.797	6.304	2.942	-119.201	-114.811	-114.527	-110.102	9.704	-110.773	-8191	255	
1584.881	1	1	0	0	0.26159	0.24516	0.22507	0.087002	0.060059	0.4017	0.020505	0.45202	0.17603	0.17739	0.046321	0.31704	0.028994	0.25116	0.1211	0.15497	-0.19167	-0.79583	-1.3125	-0.77083	-0.99583	-1.0542	-0.71458	-1.6229	-0.825	-0.6875	-1.4979	-0.61458	-1.0562	-1.25	-0.31667	-1.3042	167.684	53.943	-112.811	199.113	133.781	107.757	143.178	201.371	84.550	-129.873	19.142	-0.419	188.684	158.099	-24.717	13.070	0.00043377	0.00019142	0.00019545	1356.8	3.9568e-06	3.7105e-06	1370.4	380.07	3.6885e-06	4.4287e-06	428.68	143.74	125.21	42.733	2.5388e-06	53.528	0.00044851	0.00041377	0.00010968	1362.9	4.8471e-06	4.577e-06	1368.8	382.38	4.8173e-06	4.484e-06	428.67	144.58	125.2	43.032	4.3237e-06	53.757	-46.598	-36.474	-41.282	-123.410	-34.518	-56.882	-123.466	-118.762	69.254	41.769	-119.465	-115.149	-114.123	-109.906	74.296	-111.009	-8191	255	
1585.000	1	1	0	0	0.17393	0.24851	0.092801	0.485	0.13535	0.27066	0.2417	0.086659	0.084853	0.17223	0.34892	0.26737	0.26912	0.22017	0.0066268	0.24139	-0.50208	-0.45208	-1.2625	-0.67917	-0.625	-1.4167	-0.65417	-1.4188	-1.0792	-0.47083	-1.6396	-0.85	-0.6	-1.3458	-0.35208	-1.2458	74.778	147.677	-35.731	179.560	149.151	156.653	165.264	-100.774	16.320	-5.708	196.556	188.158	-129.608	187.084	-133.149	75.645	0.00036089	0.00044988	0.00010456	1359.9	7.0976e-06	7.3699e-06	1372.6	379.41	5.5833e-06	3.4757e-06	429.93	144.05	125.03	42.806	5.4195e-06	53.281	0.00043647	0.0004085	0.00010942	1365	4.6703e-06	4.3901e-06	1367.5	383.17	4.6624e-06	4.3299e-06	429.28	144.97	124.8	42.922	4.3775e-06	53.649	-70.020	-35.287	-97.097	-123.409	11.403	29.470	-123.598	-118.815	26.293	-19.960	-119.257	-114.869	-114.603	-110.069	-59.589	-110.743	-8191	255	
1585.073	1	1	0	0	0.14038	0.10335	0.077693	0.46257	0.1676	0.38533	0.36772	0.40468	0.16688	0.023993	0.22667	0.030956	0.10433	0.18941	0.25232	0.10787	-0.58125	-0.37917	-1.3625	-0.7875	-0.67292	-1.4521	-0.90208	-1.3792	-1.0854	-0.77292	-1.2979	-0.83125	-0.74167	-1.5667	-0.50833	-1.1208	6.869	13.526	75.890	175.808	-3.111	-34.268	163.818	173.483	-71.455	143.864	-108.114	0.217	42.185	59.160	-50.008	216.398	0.00040529	0.00039253	7.1879e-05	1356.3	6.8635e-06	6.2903e-06	1368	380.63	9.8243e-07	5.0187e-07	428.02	143.86	125.55	42.783	2.313e-06	53.194	0.00041827	0.00038599	0.00011148	1362.2	4.4468e-06	4.232e-06	1368.5	382.56	4.5139e-06	4.1716e-06	429.14	144.48	124.54	42.823	4.6244e-06	53.422	-45.347	-51.635	-131.541	-123.517	-86.342	-6.575	-123.332	-118.834	74.206	-112.849	-119.269	-114.858	-114.625	-110.171	-132.788	-110.935	-8191	255	
1585.169	1	1	0	0	0.20924	0.30538	0.054655	0.16936	0.11719	0.14095	0.13869	0.2788	0.20832	0.097508	0.19305	0.079435	0.19486	0.044344	0.10783	0.29156	-0.73542	-0.35833	-1.1917	-0.77083	-0.6375	-1.3958	-0.79375	-1.2875	-1	-0.38333	-1.6125	-1.0479	-0.69375	-1.6042	-0.6125	-1.0042	119.053	168.148	-31.678	161.872	-41.736	113.120	79.196	97.203	-132.460	11.529	214.417	-98.947	204.714	-94.553	210.890	-88.044	0.0004346	0.00014131	3.1578e-05	1357	1.7005e-06	4.0914e-06	1371.8	381.78	4.3937e-06	2.1765e-06	429.35	143.43	125.41	42.657	2.4212e-06	53.185	0.00041249	0.0003766	0.00011801	1362.9	4.3855e-06	4.2202e-06	1372.4	382.71	4.4327e-06	4.1708e-06	430.21	144.13	124.11	42.854	4.8598e-06	53.303	-49.976	205.071	-105.048	-123.394	-90.742	28.982	-123.387	-118.818	67.483	-119.096	-119.313	-115.076	-114.086	-110.225	-103.213	-110.770	-8191	255	
1585.266	1	1	0	0	0.1964	0.099464	0.36925	0.17797	0.074966	0.19457	0.29043	0.34791	0.081259	0.3158	0.24094	0.1594	0.16557	0.046436	0.19007	0.095542	-0.92917	-0.59167	-1.4521	-1.1667	-0.64792	-1.5042	-0.94583	-1.075	-1.3104	-0.56458	-1.3687	-1.225	-0.56042	-1.5583	-0.81667	-0.8375	181.979	135.362	203.606	195.559	77.343	50.771	168.101	125.442	92.799	-73.254	147.463	-136.762	-120.308	-56.269	193.737	210.607	0.00040642	0.00031795	0.00029351	1356.4	9.5054e-06	2.3026e-06	1371.1	380.88	5.987e-06	5.1182e-06	430.48	143.84	125.29	42.689	1.8674e-06	53.093	0.00040602	0.00039405	0.00012328	1360.2	4.339e-06	4.3912e-06	1375.3	382.4	4.3585e-06	4.3947e-06	431.65	144.22	123.97	42.964	4.8702e-06	53.361	-47.053	-107.474	-31.218	-123.469	-10.547	122.650	-123.544	-119.042	-16.005	-32.576	-119.208	-115.040	-114.627	-110.041	-29.520	-110.808	-8191	255	
1585.385	1	1	0	0	0.22699	0.068652	0.36654	0.072339	0.20929	0.23067	0.33755	0.39339	0.094652	0.15669	0.45496	0.31164	0.36784	0.040549	0.1193	0.19299	-1.2021	-0.40833	-1.0917	-1.2417	-0.43333	-1.1646	-1.0542	-0.98333	-1.4312	-0.66458	-1.1729	-1.2979	-0.4625	-1.275	-0.9	-0.52292	-126.072	79.077	32.527	147.871	64.379	-3.934	119.828	146.607	186.572	0.109	173.801	197.060	2.038	20.660	84.475	202.953	0.00041804	0.00034166	0.00019463	1360.9	4.9594e-06	1.8435e-06	1372.9	380.49	5.5982e-06	3.9722e-06	430.51	143.71	125.87	42.824	1.6017e-06	53.171	0.00039358	0.00040906	0.00012109	1361.3	4.1599e-06	4.5656e-06	1375.6	381.54	4.235e-06	4.6499e-06	431.28	144.18	123.98	43.103	4.774e-06	53.297	-52.743	76.419	-17.152	-123.616	5.531	-54.843	-123.461	-118.662	-11.673	201.806	-119.243	-114.862	-114.827	-109.912	0.199	-111.180	-8191	255	
1585.481	1	1	0	0	0.21284	0.10415	0.18877	0.14446	0.17034	0.14868	0.1491	0.3078	0.18415	0.24909	0.17173	0.40898	0.070508	0.34582	0.29912	0.097655	-1.0646	-0.47083	-0.89583	-1.4375	-0.46042	-1.1729	-1.2167	-0.73958	-1.4146	-0.71875	-1.1708	-1.2396	-0.69583	-1.2625	-1.0375	-0.62917	203.147	210.883	-54.050	114.064	-99.263	-81.299	154.598	122.266	153.900	187.166	-113.295	212.413	122.679	195.751	-127.067	74.528	0.00046058	0.00016643	0.00013663	1354.8	3.1332e-06	1.1495e-06	1367.2	380.39	3.6156e-06	3.2698e-06	429.22	143.56	124.85	42.614	6.7697e-06	53.058	0.00039479	0.00044001	0.00011989	1359	4.2684e-06	4.8418e-06	1371.6	381.68	4.3733e-06	4.895e-06	430.44	144.13	124.33	43.208	4.7364e-06	53.16	-59.112	-85.543	-57.668	-123.301	15.298	-51.237	-123.528	-119.095	-41.626	88.337	-119.320	-115.133	-114.841	-110.117	-50.248	-110.761	-8191	255	
1585.577	1	1	0	0	0.30525	0.21225	0.32605	0.041091	0.077451	0.19936	0.31469	0.24723	0.29037	0.14332	0.22003	0.12012	0.13453	0.087233	0.34128	0.25939	-0.98542	-0.58958	-0.90417	-1.475	-0.49792	-1.1333	-1.1854	-0.56667	-1.2854	-0.88542	-0.95208	-1.4479	-0.42083	-1.1917	-1.0042	-0.56458	-92.455	-90.399	169.799	118.193	49.937	76.300	196.708	204.802	-130.684	-42.355	-82.807	145.406	105.965	209.940	-61.844	-106.104	0.00054329	0.00021756	0.00023049	1359.4	6.4876e-06	5.2396e-06	1372	381.69	6.0867e-06	1.5823e-06	430.95	143.48	125.21	42.776	9.6948e-06	52.915	0.00041203	0.00045387	0.00011854	1358.7	4.4817e-06	4.8826e-06	1374.1	381.5	4.5928e-06	4.9765e-06	430.77	143.99	124.8	43.273	4.7234e-06	53.11	-66.030	159.777	-27.971	-123.505	138.514	-16.131	-123.363	-118.798	-60.386	21.676	-119.344	-115.034	-114.637	-109.850	15.118	-110.676	-8191	255	
1585.673	1	1	0	0	0.18963	0.28465	0.14307	0.32138	0.15209	0.18098	0.3605	0.048499	0.094472	0.074488	0.12759	0.40696	0.23862	0.2796	0.19354	0.17546	-0.83958	-0.77917	-0.7	-1.4479	-0.59792	-1.1333	-1.4208	-0.63125	-1.2833	-0.87708	-0.78542	-1.5667	-0.5125	-0.98125	-1.2979	-0.54167	105.737	-75.378	206.434	-81.729	140.356	26.514	188.360	-82.847	-20.399	188.493	-118.905	155.827	217.505	-103.463	-59.803	74.249	0.00053487	0.00085973	0.0002753	1359.2	3.3766e-06	3.8462e-06	1366.4	380.47	6.6651e-06	3.0101e-06	429.97	144.01	125.13	42.714	7.3346e-06	53.061	0.00043997	0.00045361	0.0001181	1359.6	4.8418e-06	4.8904e-06	1370.6	381.6	4.8912e-06	4.9069e-06	429.96	144.09	125.42	43.161	4.6772e-06	53.205	-55.490	-74.002	-94.215	-123.388	-95.144	30.009	-123.424	-119.030	-25.852	102.948	-119.202	-114.836	-114.592	-109.759	-35.571	-110.439	-8191	255	
1585.769	1	1	0	0	0.20688	0.45385	0.0963	0.19617	0.24979	0.26271	0.41952	0.19613	0.021148	0.13518	0.054036	0.10771	0.17535	0.35003	0.05483	0.067255	-0.8875	-0.99167	-0.44375	-1.5021	-0.575	-0.88542	-1.55	-0.55208	-1.2333	-1.0979	-0.69792	-1.4792	-0.86042	-0.78125	-1.4438	-0.57083	-133.031	165.754	179.241	163.946	-11.312	-109.563	178.809	178.040	-37.472	135.638	-132.982	-120.838	157.188	-92.140	-109.854	207.237	0.00046233	0.00041567	9.1245e-05	1357	3.7844e-07	1.1967e-06	1368.8	379.97	3.6365e-06	9.5058e-06	431.06	144.31	124.77	42.82	9.622e-06	53.04	0.00045745	0.00044673	0.0001163	1359.7	5.0387e-06	4.796e-06	1369.3	381.8	5.0402e-06	4.8008e-06	429.5	144.57	125.45	43.131	4.529e-06	53.346	-47.663	-62.569	-130.997	-123.282	127.063	-94.389	-123.474	-118.822	-17.646	3.082	-119.170	-114.705	-114.412	-109.880	-29.524	-110.745	-8191	255	
1585.865	1	1	0	0	0.10434	0.24802	0.15222	0.25169	0.20476	0.29521	0.22081	0.066724	0.32027	0.15166	0.32917	0.19749	0.094211	0.18426	0.060193	0.25201	-0.92083	-0.78542	-0.675	-1.5333	-0.55	-0.70833	-1.85	-0.79375	-1.1896	-1.2292	-0.78958	-1.4396	-1.1146	-0.79167	-1.1958	-0.64583	1.131	-128.534	216.121	186.765	94.427	-48.291	-106.303	133.661	-134.990	-18.357	-127.592	139.551	122.498	-73.461	210.517	-45.368	0.00036206	0.00067396	0.00011335	1359.2	4.6347e-07	3.6998e-06	1368.7	381.26	5.8358e-06	6.0123e-06	429.24	144.05	124.73	42.583	8.4391e-06	53.281	0.00046239	0.00043448	0.00011215	1363.9	5.0861e-06	4.7022e-06	1370.1	383.35	4.9772e-06	4.7413e-06	428.46	144.79	125.48	43.043	4.4482e-06	53.646	-60.074	-11.532	-135.600	-123.120	153.514	4.860	-123.319	-118.814	28.101	-17.509	-119.152	-115.054	-114.432	-109.774	-42.411	-110.739	-8191	255	
1585.986	1	1	0	0	0.10652	0.085643	0.17098	0.48142	0.20328	0.26353	0.21576	0.2274	0.11084	0.20836	0.35598	0.43336	0.072797	0.28541	0.073777	0.14386	-0.50625	-1.2125	-0.49792	-1.5979	-0.89792	-0.675	-1.6604	-0.67708	-0.78958	-1.2667	-0.59167	-1.4354	-0.96875	-0.54583	-1.4479	-0.71667	160.152	187.452	-26.819	194.515	171.518	-55.209	103.798	158.189	72.240	40.184	202.756	-133.409	-95.829	106.182	133.267	105.544	0.00031764	0.00024415	9.8087e-05	1361.3	1.1913e-05	2.6877e-06	1367.1	381.68	7.5528e-06	5.1225e-06	428.92	143.86	125.88	42.793	4.8358e-06	53.193	0.0004521	0.0004272	0.00011287	1367.6	4.9861e-06	4.5991e-06	1370.2	383.77	4.9086e-06	4.6757e-06	429.34	145.08	125.39	43.11	4.5525e-06	53.785	-48.890	-8.187	-96.246	-123.313	-37.086	22.852	-123.410	-118.922	-6.854	-17.590	-119.241	-114.919	-114.340	-109.806	34.689	-110.834	-8191	255	
1586.082	1	1	0	0	0.27832	0.22119	0.1006	0.52937	0.20875	0.065851	0.26438	0.10454	0.1315	0.22689	0.17831	0.10524	0.12846	0.30837	0.1619	0.29746	-0.6	-1.1708	-0.38958	-1.3479	-1.15	-0.275	-1.5521	-0.7	-0.7	-1.3375	-0.66042	-1.2292	-1.1146	-0.52292	-1.2958	-0.88125	-41.304	-41.595	53.078	188.954	59.739	62.009	111.030	-130.450	175.678	-31.614	123.915	200.960	182.340	17.068	137.908	183.307	0.0003902	0.00029702	0.0002129	1366.5	4.928e-06	7.3597e-06	1370.4	382.4	1.6951e-06	4.1573e-06	430.94	144.29	124.79	42.845	4.0514e-06	53.215	0.00044402	0.00041847	0.00011719	1370.6	4.8538e-06	4.4926e-06	1372.3	384.64	4.8121e-06	4.5912e-06	431.68	145.59	125.13	43.12	4.9344e-06	53.882	-43.364	-67.786	-82.437	-123.317	-28.271	36.262	-123.473	-118.793	-11.636	45.031	-119.321	-114.944	-114.427	-109.793	-97.607	-110.507	-8191	255	
1586.176	1	1	0	0	0.065721	0.12742	0.071573	0.28409	0.10703	0.2463	0.24939	0.34008	0.11706	0.33579	0.19423	0.23439	0.37647	0.25663	0.12415	0.082731	-0.175	-1.1958	-0.38958	-1.1896	-1.2333	-0.34375	-1.4	-0.83333	-0.57292	-1.5	-0.57083	-1.0438	-1.3479	-0.47083	-1.1792	-0.98958	123.348	92.188	-35.089	-94.216	10.061	-2.126	-120.915	134.894	46.913	190.275	116.705	196.376	-119.425	-123.507	-85.400	137.408	0.00037388	0.00045583	9.12e-05	1363	7.5328e-06	3.4877e-06	1367.8	381.93	5.2094e-06	4.4012e-06	430.51	143.8	125.61	42.842	4.1425e-06	53.392	0.00044578	0.00042057	0.00012679	1372.3	4.9198e-06	4.5647e-06	1377.5	385.04	4.8365e-06	4.5693e-06	433.11	145.24	125.4	43.103	5.1963e-06	53.867	-57.975	-117.913	-79.592	-123.345	-64.627	81.858	-123.461	-118.658	18.936	154.835	-119.188	-114.864	-114.322	-109.914	-63.025	-110.662	-8191	255	
1586.297	1	1	0	0	0.41903	0.063497	0.031278	0.21638	0.26154	0.11798	0.098094	0.1038	0.2666	0.20034	0.26292	0.48084	0.23722	0.19752	0.074204	0.1696	-0.31458	-1.3875	-0.58542	-1.0521	-1.2917	-0.35417	-1.3917	-1.0812	-0.43542	-1.2667	-0.84583	-0.94792	-1.3104	-0.5875	-1.2396	-0.89583	148.451	73.070	204.904	146.525	-52.928	13.951	191.958	220.763	-95.878	150.413	110.620	195.929	-97.345	-1.570	-134.761	209.212	0.00048382	0.00022851	0.00014182	1363.4	1.3162e-06	2.0421e-06	1374.2	382.11	6.6244e-06	2.5127e-06	428.09	143.98	125.66	42.802	4.4384e-06	53.264	0.00043312	0.00042183	0.00013365	1371	4.7755e-06	4.5823e-06	1380.3	384.45	4.6721e-06	4.6275e-06	433.13	145	125.17	43.137	5.1915e-06	53.705	-52.390	-26.596	-109.793	-123.238	-16.357	83.502	-122.946	-118.813	50.220	185.728	-119.509	-114.802	-114.409	-109.929	-9.936	-110.769	-8191	255	
1586.369	1	1	0	0	0.15991	0.15201	0.11452	0.074817	0.2318	0.14964	0.19022	0.24068	0.25019	0.13243	0.13469	0.19572	0.17716	0.35137	0.070627	0.14224	-0.23333	-1.3667	-0.49583	-0.9	-1.5333	-0.50208	-1.2979	-1.4667	-0.4625	-1.25	-0.80625	-0.74792	-1.4521	-0.47917	-0.975	-1.375	-31.304	203.607	-52.648	58.225	170.214	154.676	126.153	137.481	-72.542	36.868	-53.491	205.647	112.055	137.383	-72.024	-133.168	0.00039851	0.00027965	0.00020003	1366.7	3.8008e-06	6.2402e-06	1371.6	381.54	7.5049e-06	2.666e-06	430.23	144.61	124.73	42.891	5.3168e-06	53.242	0.00041713	0.00042962	0.00013303	1369.3	4.6e-06	4.8234e-06	1379.9	383.78	4.5131e-06	4.8715e-06	433.04	144.89	124.56	43.336	5.0665e-06	53.616	-51.560	-97.479	-51.003	-123.097	6.177	28.332	-123.258	-118.741	17.223	2.667	-119.369	-114.740	-114.411	-109.931	-85.069	-110.569	-8191	255	
1586.465	1	1	0	0	0.20733	0.11294	0.34323	0.19943	0.075603	0.097488	0.093396	0.084257	0.1482	0.11395	0.12419	0.16833	0.28802	0.27218	0.17367	0.24675	-0.0125	-1.2896	-0.725	-0.59583	-1.375	-0.60625	-1.1646	-1.3729	-0.48958	-1.2771	-1.0958	-0.78333	-1.3708	-0.69375	-1.0146	-1.3146	-8.336	123.035	29.364	-119.955	217.917	208.522	7.663	27.753	-128.014	78.095	167.437	115.850	168.063	220.865	171.730	177.929	0.00039105	0.00041066	0.00012868	1364.3	2.7194e-06	6.4411e-06	1372.5	380.73	2.7634e-06	4.2989e-06	431.18	144.47	125.25	42.852	6.5782e-06	53.15	0.00041147	0.0004543	0.0001295	1366.8	4.5209e-06	5.0321e-06	1380.4	383.91	4.531e-06	5.0964e-06	433.35	144.76	124.82	43.437	5.0057e-06	53.469	-56.391	-100.375	-53.132	-123.239	6.853	135.015	-123.183	-118.849	-113.070	-51.242	-119.292	-114.719	-114.599	-109.847	-51.522	-110.702	-8191	255	
1586.561	1	1	0	0	0.27275	0.091653	0.16557	0.38844	0.098554	0.24185	0.13376	0.18051	0.24379	0.14369	0.20247	0.37892	0.21232	0.29897	0.1764	0.22488	-0.18333	-1.2375	-1.1063	-0.59375	-1.3583	-0.61042	-0.8875	-1.2812	-0.50208	-1.2792	-1.2563	-0.52708	-1.3979	-0.86875	-0.56042	-1.3229	186.583	-101.646	95.856	201.126	129.054	-98.823	157.548	212.939	-104.410	187.478	177.334	139.566	129.164	147.734	139.354	95.043	0.00039202	0.0007161	0.00016592	1361.6	4.4368e-06	8.2968e-06	1373.7	381.81	5.0521e-06	2.9058e-06	430.94	143.56	125.55	42.54	1.4061e-06	53.013	0.00041998	0.00046964	0.00012588	1364.4	4.6274e-06	5.2062e-06	1378.6	383.34	4.6826e-06	5.1652e-06	432.55	144.21	125.41	43.377	4.8262e-06	53.374	-61.856	-127.339	-33.316	-123.161	-81.030	-24.599	-123.438	-118.955	-40.568	-31.641	-119.150	-114.906	-114.527	-110.242	175.398	-110.470	-8191	255	
1586.682	1	1	0	0	0.29704	0.20127	0.099789	0.13968	0.2924	0.1011	0.16708	0.24282	0.25659	0.1333	0.3125	0.36883	0.36066	0.20226	0.11557	0.14452	-0.26042	-1.075	-1.0667	-0.84583	-1.375	-0.82083	-0.93958	-1.4083	-0.54583	-1.125	-1.2687	-0.42083	-1.2313	-1.0063	-0.43958	-1.5354	143.572	-109.502	53.971	217.426	-6.512	-81.501	130.940	124.945	201.078	86.625	182.092	-134.747	177.887	-132.193	-47.101	141.940	0.00043329	0.00042558	0.00015522	1364.9	5.8552e-06	4.8929e-06	1376.6	382.21	6.4191e-06	5.4818e-06	432.1	144.37	125.98	42.763	4.7059e-06	53.158	0.00044165	0.00046816	0.00012364	1363.5	4.9056e-06	5.1693e-06	1377.2	383.34	4.9456e-06	5.0447e-06	431.58	144.22	125.8	43.281	4.7283e-06	53.377	-59.283	-81.733	-66.776	-123.100	-135.266	-5.133	-123.188	-118.782	-23.145	-4.841	-119.315	-114.894	-114.259	-110.061	-28.922	-110.586	-8191	255	
1586.778	1	1	0	0	0.19692	0.077543	0.10728	0.2533	0.11036	0.20892	0.16452	0.24454	0.17343	0.2048	0.28129	0.21575	0.38407	0.13417	0.15652	0.15275	-0.125	-0.87917	-1.1417	-0.70417	-1.075	-0.90417	-0.52917	-1.5875	-0.4	-0.98542	-1.4771	-0.54583	-1.3687	-0.91667	-0.40833	-1.4937	99.043	106.895	12.195	178.697	19.251	91.994	198.099	153.031	214.607	122.293	-121.843	122.218	-126.024	154.541	-108.811	78.291	0.00045236	0.00054884	0.00022159	1361.1	3.1607e-07	4.5854e-06	1370.6	380.9	7.3788e-07	6.1191e-06	429.69	143.41	125.4	42.859	4.6665e-06	53.156	0.00046032	0.00045063	0.00011938	1363.7	4.9947e-06	4.916e-06	1375.5	382.58	5.0383e-06	4.8115e-06	430.6	144.24	125.61	43.257	4.5124e-06	53.497	-45.141	-83.594	-42.255	-123.311	-135.729	72.502	-123.056	-118.677	57.840	4.381	-119.195	-114.776	-114.167	-110.060	-18.266	-110.762	-8191	255	
1586.874	1	1	0	0	0.25152	0.16258	0.043203	0.43615	0.36418	0.10259	0.13967	0.2486	0.089462	0.32518	0.27879	0.17549	0.16067	0.2714	0.13919	0.25318	-0.35208	-0.925	-1.3271	-0.79375	-0.88958	-0.96667	-0.80833	-1.4958	-0.85625	-0.6125	-1.3729	-0.49792	-1.1375	-1.1542	-0.58542	-1.5125	96.965	205.574	203.417	186.886	-29.935	184.072	210.554	-71.864	56.118	-82.214	152.270	-129.456	-126.627	47.968	123.562	23.249	0.00043208	0.00036854	3.0749e-05	1362.6	1.7143e-06	4.5949e-06	1373.4	381.33	3.2821e-06	5.6588e-06	432.57	143.97	126.31	42.79	4.3321e-06	53.211	0.00046218	0.00043333	0.00011452	1364.6	4.9991e-06	4.6977e-06	1372.5	383.96	4.9685e-06	4.6274e-06	429.83	144.51	125.74	43.136	4.3274e-06	53.494	-48.659	-24.582	-79.062	-123.408	-68.948	-10.255	-123.273	-118.598	-28.517	-25.035	-119.185	-114.672	-114.405	-110.133	19.764	-110.596	-8191	255	
1586.946	1	1	0	0	0.097801	0.35173	0.39954	0.26524	0.029205	0.12238	0.35849	0.28298	0.1481	0.15728	0.032585	0.45673	0.17462	0.20107	0.32474	0.24354	-0.57708	-0.55833	-1.2229	-0.67917	-0.91458	-1.125	-0.58958	-1.3708	-0.81042	-0.70417	-1.5333	-0.68542	-0.96875	-1.15	-0.35	-1.2542	99.704	-23.177	-99.205	-121.388	33.135	23.966	207.310	188.185	20.320	122.565	149.787	-78.857	-6.059	217.286	118.964	158.469	0.00042476	0.00031935	0.00019581	1358.3	4.5696e-06	3.4238e-06	1370.1	381.98	9.7777e-06	4.4719e-06	428.69	143.96	125.69	42.793	3.2762e-06	53.174	0.00044809	0.00041455	0.00010941	1364.6	4.809e-06	4.5511e-06	1369.5	383.93	4.8625e-06	4.4764e-06	428.78	144.87	125.43	43.076	4.2784e-06	53.626	-52.130	-65.426	-79.533	-123.306	-86.085	-26.150	-123.147	-118.736	47.638	-66.365	-119.382	-114.764	-114.189	-109.969	-86.971	-110.526	-8191	255	
1587.066	1	1	0	0	0.2211	0.030788	0.17662	0.4464	0.23536	0.19798	0.11161	0.34831	0.33168	0.1154	0.12805	0.22326	0.088475	0.24554	0.1792	0.25476	-0.5625	-0.50833	-1.35	-0.78333	-0.71458	-1.2479	-0.6125	-1.2375	-0.88542	-0.65417	-1.4625	-0.59375	-0.87083	-1.2854	-0.55833	-1.1917	13.142	-94.391	-60.270	160.134	164.491	38.308	92.469	181.979	-111.573	116.664	-102.549	37.393	122.824	-89.653	176.213	73.861	0.00031869	0.0002262	6.1564e-05	1357.1	4.4832e-06	5.5202e-06	1369.9	381.11	3.1725e-06	4.4426e-06	430.49	143.75	125.77	42.822	3.8372e-06	53.286	0.00043686	0.00040529	0.00011095	1365.4	4.6637e-06	4.3728e-06	1371.4	383.72	4.6548e-06	4.3264e-06	429.61	145.02	124.9	43.012	4.49e-06	53.609	-55.111	-114.534	-23.651	-123.354	6.967	30.816	-123.444	-118.582	-22.266	28.331	-119.140	-114.842	-114.088	-109.743	-58.948	-110.608	-8191	255	
1587.162	1	1	0	0	0.2037	0.29228	0.04386	0.44291	0.034509	0.30548	0.16781	0.1221	0.13137	0.37261	0.2318	0.13828	0.0826	0.2596	0.099279	0.066893	-0.6625	-0.25208	-1.2604	-0.65417	-0.71667	-1.3521	-0.56042	-1.1896	-1.1854	-0.44583	-1.2188	-0.97292	-0.75417	-1.3646	-0.56042	-1.0146	-46.814	33.650	42.680	197.832	163.743	96.987	204.667	-93.410	-54.745	-81.553	186.272	170.567	-22.328	211.166	118.550	193.088	0.00042642	4.025e-05	6.5829e-05	1361.3	4.7428e-06	2.9025e-06	1375.3	382.43	5.2319e-06	6.0651e-06	432.13	143.55	125.54	42.782	6.1905e-06	53.285	0.00042477	0.00039387	0.00011604	1368	4.5929e-06	4.3672e-06	1377.2	383.95	4.626e-06	4.2807e-06	432.03	144.86	124.98	42.912	4.8099e-06	53.663	-51.143	64.235	190.516	-123.182	-39.507	106.455	-123.395	-118.745	-7.435	49.764	-119.087	-115.137	-114.309	-109.943	-9.773	-110.424	-8191	255	
1587.259	1	1	0	0	0.24593	0.072632	0.27437	0.42608	0.26458	0.16009	0.31036	0.026237	0.25886	0.10865	0.17225	0.37473	0.26928	0.073307	0.34736	0.061553	-0.89375	-0.12708	-1.1437	-1.0688	-0.35	-1.4271	-0.70625	-1.1771	-1.0667	-0.44792	-1.3896	-1.3833	-0.625	-1.5354	-0.5625	-0.90833	171.392	-116.750	-38.723	216.531	-127.730	-118.095	176.701	-109.767	142.356	105.086	134.522	202.420	223.036	-71.134	62.342	50.306	0.00046128	0.00025328	7.2696e-05	1361	5.8712e-06	2.3701e-06	1370	381.23	5.2051e-06	3.2879e-06	428.26	144.22	125.43	42.652	2.2005e-06	53.517	0.00042412	0.00039475	0.00012388	1365.6	4.5515e-06	4.3466e-06	1377.5	383.97	4.566e-06	4.3366e-06	432.45	145.03	124.49	43.041	4.9967e-06	53.642	-52.093	29.615	32.217	-123.309	10.993	-46.330	-123.423	-118.517	-3.936	-103.147	-119.121	-114.845	-114.277	-109.982	-98.535	-110.557	-8191	255	
1587.377	1	1	0	0	0.0060745	0.099299	0.32028	0.24424	0.1337	0.15121	0.40995	0.40834	0.18975	0.21528	0.39475	0.10291	0.16957	0.14961	0.059227	0.31216	-0.80417	-0.46458	-1.3354	-1.25	-0.375	-1.4125	-0.8375	-1.0854	-1.4167	-0.66042	-1.4125	-1.2458	-0.57083	-1.5312	-0.6125	-1.0438	-77.611	-46.310	140.031	155.371	-91.645	-89.293	201.490	-129.145	-76.544	151.909	183.605	112.814	186.531	77.791	-2.466	177.556	0.00046008	0.00022634	5.0941e-05	1364.4	1.8977e-06	3.7841e-06	1372.7	381.99	3.5129e-06	3.7524e-06	429.83	144.14	125.77	42.77	9.2369e-06	53.27	0.00041216	0.00040617	0.00012686	1366.8	4.4116e-06	4.5019e-06	1377.6	383.26	4.4473e-06	4.5924e-06	432.66	144.79	124.54	43.159	4.9937e-06	53.407	-40.375	62.335	-80.580	-123.193	-47.619	208.122	-123.513	-118.786	49.819	-50.305	-119.043	-114.931	-114.126	-109.904	-23.395	-110.427	-8191	255	
1587.474	1	1	0	0	0.24788	0.32652	0.20623	0.054295	0.12649	0.10142	0.27108	0.12317	0.14573	0.15895	0.32452	0.10597	0.20969	0.18067	0.13133	0.089992	-0.91875	-0.35625	-0.92917	-1.3333	-0.30208	-1.3792	-0.825	-0.825	-1.4167	-0.67708	-0.98542	-1.2604	-0.3875	-1.325	-0.92292	-0.63333	-101.952	-119.698	4.615	11.162	141.255	8.931	114.386	215.540	39.843	-46.399	-110.085	67.105	180.772	171.162	147.731	-72.333	0.00043941	0.00037582	7.7926e-05	1364.7	4.5754e-06	2.0893e-06	1374.9	383.01	3.8234e-06	1.8149e-06	429.76	144.31	125.84	42.842	7.1752e-06	53.011	0.00039965	0.0004275	0.00012408	1365.2	4.3138e-06	4.7707e-06	1379.8	383.61	4.3505e-06	4.8506e-06	431.66	144.51	124.43	43.243	4.8687e-06	53.264	-51.722	121.407	-63.818	-123.389	-40.756	100.869	-123.359	-118.754	-44.532	-30.997	-118.829	-114.901	-114.273	-109.698	34.613	-110.514	-8191	255	
1587.570	1	1	0	0	0.066735	0.15856	0.37622	0.39244	0.16717	0.1216	0.097292	0.14229	0.22473	0.17663	0.17477	0.097816	0.19321	0.16543	0.076299	0.15921	-1.0063	-0.42292	-0.79792	-1.3604	-0.52708	-1.3042	-1.3	-0.65	-1.4021	-0.82708	-1.1146	-1.6063	-0.47708	-1.2	-1.0938	-0.64583	211.636	144.242	162.643	177.286	134.619	62.920	97.757	-61.649	47.003	131.156	122.628	47.648	-124.932	175.072	-38.432	152.149	0.0003734	0.00033157	9.0049e-05	1370.5	1.813e-06	1.0407e-06	1371.7	381.6	4.9584e-06	4.4351e-06	429.7	143.9	125.59	42.774	5.6542e-06	52.935	0.00039983	0.00044616	0.0001209	1365.8	4.3319e-06	4.8818e-06	1377	382.64	4.4276e-06	4.9693e-06	431.24	144.21	124.51	43.31	4.7337e-06	53.188	-50.241	-57.521	-58.485	-123.341	-55.091	24.782	-123.184	-118.839	-68.099	2.108	-118.944	-114.847	-114.528	-109.738	-0.350	-110.562	-8191	255	
1587.666	1	1	0	0	0.15035	0.070243	0.23664	0.23994	0.068019	0.19803	0.034094	0.2068	0.48414	0.058242	0.31374	0.18892	0.13387	0.044341	0.22511	0.13772	-1.1792	-0.52708	-0.7125	-1.5729	-0.44792	-1.1125	-1.4375	-0.80625	-1.2854	-0.79583	-0.82292	-1.6083	-0.79583	-1.0625	-1.05	-0.70417	102.240	70.428	60.417	171.962	190.123	-57.076	211.100	-109.366	26.265	-86.014	33.054	156.612	82.926	166.182	-99.231	151.205	0.00050495	0.00022521	0.00014029	1361.9	4.9483e-06	2.2171e-06	1373.3	380.75	5.8201e-06	4.6767e-06	430.67	144.64	125.57	42.751	2.8284e-06	52.993	0.00041148	0.00045212	0.00011748	1363.3	4.5192e-06	4.8986e-06	1373.4	382.04	4.6063e-06	4.8979e-06	430.59	144.19	124.98	43.282	4.6094e-06	53.148	-56.966	216.522	-115.856	-123.300	-135.179	-58.462	-123.257	-118.809	20.542	-59.420	-119.030	-114.546	-114.315	-109.827	-40.401	-110.683	-8191	255	
1587.762	1	1	0	0	0.295	0.18394	0.19053	0.17353	0.14889	0.2587	0.27528	0.15146	0.16441	0.21113	0.035605	0.083968	0.10956	0.20017	0.27483	0.11131	-0.97292	-0.84792	-0.71667	-1.6167	-0.41458	-1.1583	-1.35	-0.65208	-1.2458	-0.84167	-0.66458	-1.5812	-0.61042	-1.1313	-1.2521	-0.62083	200.867	171.495	-78.901	203.866	222.146	66.796	158.102	157.087	-68.679	52.560	106.258	-109.878	120.620	120.704	-90.242	208.950	0.00046916	0.00046195	0.00015243	1358	2.315e-06	5.9672e-06	1370.6	381.3	3.2086e-06	4.3624e-06	429.91	144.12	125.61	42.942	4.2835e-06	53.267	0.00043146	0.00044112	0.00011414	1360.2	4.7823e-06	4.7686e-06	1372.6	381.96	4.802e-06	4.7687e-06	429.22	144.2	125.47	43.176	4.5366e-06	53.178	-59.850	-92.424	-42.869	-123.275	105.485	9.026	-123.281	-118.655	170.201	-14.429	-118.987	-114.797	-114.226	-109.650	-75.294	-110.399	-8191	255	
1587.858	1	1	0	0	0.046684	0.27469	0.19944	0.13594	0.093062	0.065702	0.34803	0.34923	0.21097	0.17539	0.2087	0.099796	0.19052	0.091623	0.19136	0.045987	-0.79583	-0.91667	-0.33125	-1.6583	-0.62917	-0.78125	-1.6042	-0.6375	-1.2208	-1.1146	-0.59583	-1.6896	-0.81875	-1.0083	-1.2208	-0.51458	-73.173	197.815	-106.287	162.973	2.507	-117.083	222.417	-132.673	190.375	162.284	-67.323	21.841	-40.458	-80.197	-34.188	202.246	0.00042393	0.0002849	3.9047e-05	1364.8	3.3355e-06	4.0994e-06	1373.6	380.19	5.0663e-06	7.6724e-06	429.79	144.62	125.61	42.907	4.4245e-06	52.98	0.00044374	0.0004319	0.00011196	1364	4.9349e-06	4.6511e-06	1372.5	382.53	4.9597e-06	4.6728e-06	428.91	144.56	125.68	43.168	4.3593e-06	53.165	-51.910	-70.269	-8.418	-123.231	115.076	26.366	-123.182	-118.628	8.064	12.017	-119.205	-114.836	-114.353	-109.690	4.263	-110.438	-8191	255	
1587.979	1	1	0	0	0.21395	0.01807	0.30945	0.26488	0.19912	0.30588	0.32811	0.20752	0.11227	0.19114	0.21928	0.15612	0.13696	0.27734	0.17811	0.078927	-0.62292	-1.1167	-0.40417	-1.5292	-0.7	-0.63333	-1.6354	-0.68958	-1.0875	-1.2229	-0.6375	-1.4542	-0.91667	-0.56458	-1.3333	-0.69583	32.079	134.199	-123.776	166.039	62.885	87.002	117.815	136.625	56.377	123.414	132.366	-42.982	156.049	216.806	213.032	-135.580	0.00056047	0.00066823	0.00010529	1362	4.1443e-06	4.1896e-06	1374.7	380.83	6.7175e-06	5.4509e-06	431.51	144.03	125.11	42.957	3.6473e-06	52.927	0.00044554	0.0004201	0.0001083	1365.3	4.8788e-06	4.4696e-06	1371.6	383.13	4.7288e-06	4.4695e-06	429.69	144.62	125.15	43.045	4.2806e-06	53.38	-45.174	-55.504	-89.347	-123.028	-25.149	-57.051	-123.149	-118.778	3.726	-60.113	-119.179	-114.781	-114.434	-109.757	-90.135	-110.644	-8191	255	
1588.073	1	1	0	0	0.16601	0.20658	0.24975	0.19687	0.049421	0.15158	0.080069	0.071018	0.091967	0.087298	0.19019	0.079671	0.14514	0.13399	0.26321	0.0997	-0.46875	-1.0604	-0.41042	-1.4146	-1.025	-0.64583	-1.5875	-0.72917	-0.88125	-1.3083	-0.66458	-1.3479	-0.97083	-0.58125	-1.5583	-0.72292	191.743	13.084	35.182	215.678	-35.804	204.937	111.472	99.578	-6.133	35.418	170.305	-53.419	188.389	-95.532	161.352	198.114	0.00042239	0.00058783	3.9088e-05	1366.8	3.9055e-06	4.2208e-06	1373.8	380.59	6.7758e-06	6.1558e-06	432.27	144.31	125.54	42.853	7.9701e-06	52.952	0.00043376	0.000409	0.00010818	1368	4.7248e-06	4.4099e-06	1372.4	383.43	4.7331e-06	4.4444e-06	429.74	145.3	125.02	43.055	4.4795e-06	53.544	-60.449	-77.844	184.387	-123.440	-6.027	-11.267	-123.451	-118.783	-3.012	-2.429	-119.147	-114.643	-114.370	-109.931	-43.341	-110.536	-8191	255	
1588.169	1	1	0	0	0.115	0.25178	0.077133	0.20032	0.22929	0.1406	0.25233	0.21272	0.1759	0.36466	0.27014	0.2145	0.23907	0.15166	0.24384	0.28533	-0.3625	-1.4	-0.45208	-1.3833	-1.1208	-0.48958	-1.8583	-0.97708	-0.65833	-1.3521	-0.70417	-1.2917	-1.2687	-0.62292	-1.3375	-0.92083	153.800	161.141	156.294	171.707	171.159	35.474	140.185	177.711	-81.943	193.244	177.883	29.027	-70.954	92.315	-135.097	155.347	0.00035676	0.00059901	4.9549e-05	1363.2	4.4435e-06	7.8951e-06	1371.1	382.06	2.293e-06	5.352e-06	430.97	143.53	125.96	42.796	5.2483e-06	52.988	0.00042651	0.00040295	0.0001146	1369.5	4.6338e-06	4.3509e-06	1374.6	384.54	4.5863e-06	4.362e-06	430.89	145.11	125	42.979	4.6833e-06	53.453	-58.466	-96.721	-59.952	-123.123	-51.947	20.383	-123.513	-118.840	-12.564	72.036	-119.264	-114.765	-114.607	-110.013	-26.837	-110.610	-8191	255	
1588.243	1	1	0	0	0.29251	0.30625	0.22504	0.21224	0.047409	0.36137	0.31241	0.20412	0.15617	0.17199	0.20538	0.20587	0.35754	0.19982	0.31191	0.25354	-0.26667	-1.1979	-0.44375	-1.1125	-1.0688	-0.28958	-1.4188	-1.0854	-0.7125	-1.6	-0.62083	-1.0604	-1.3271	-0.71875	-1.2625	-1.0542	-70.512	-124.438	172.929	202.012	79.302	-42.017	193.077	191.615	-5.038	160.875	216.647	138.150	206.869	177.167	179.464	100.571	0.00040598	0.00059173	9.2538e-05	1364.9	3.3776e-06	5.3059e-06	1367.5	381.6	6.1636e-06	6.1669e-06	431.92	144.1	125.72	42.86	3.472e-06	53.172	0.00041958	0.00039548	0.00012118	1369.4	4.6002e-06	4.2826e-06	1378.6	383.89	4.5708e-06	4.3495e-06	432.59	145.16	125.02	42.986	4.9502e-06	53.563	-44.502	-22.395	-87.600	-123.040	-48.976	3.347	-123.332	-118.789	17.544	5.687	-119.290	-114.669	-114.428	-110.046	-4.492	-110.520	-8191	255	
1588.339	1	1	0	0	0.29841	0.255	0.27252	0.44356	0.18378	0.17478	0.18029	0.10046	0.27238	0.24033	0.17901	0.057492	0.086718	0.28599	0.2043	0.017987	-0.18333	-1.4312	-0.61458	-1.0979	-1.4021	-0.4	-1.5354	-1.2229	-0.525	-1.5104	-0.87917	-0.93125	-1.5958	-0.71042	-1.2021	-1.0667	214.137	-64.442	60.678	196.489	204.513	190.702	129.783	46.418	217.452	-11.084	-136.330	138.491	206.165	202.390	160.139	103.169	0.0004067	0.00036224	0.00010332	1366	8.9739e-06	3.4587e-06	1379.3	380.91	4.0624e-06	4.2463e-06	429.63	144.43	124.65	42.668	4.8599e-06	52.897	0.0004141	0.00040514	0.00012691	1368.4	4.5389e-06	4.4516e-06	1382.4	383.26	4.4692e-06	4.5898e-06	432.9	145.04	124.56	43.15	5.0848e-06	53.387	-58.412	-13.303	221.031	-123.255	10.946	-2.713	-123.291	-118.657	23.983	13.193	-119.035	-114.661	-114.566	-109.632	41.907	-110.716	-8191	255	
1588.458	1	1	0	0	0.12085	0.18335	0.38664	0.37442	0.12832	0.39174	0.33188	0.10265	0.14295	0.12374	0.18559	0.4792	0.30296	0.22282	0.032244	0.21453	-0.089583	-1.1688	-0.63958	-0.97708	-1.4458	-0.51042	-1.3167	-1.3771	-0.30625	-1.4562	-0.99375	-0.64583	-1.3896	-0.45	-1.1437	-1.3396	-98.736	55.617	90.916	197.877	153.219	-3.571	124.326	168.444	178.936	20.281	-76.801	-129.908	192.038	138.305	-86.629	153.277	0.00037269	0.00037409	5.9577e-05	1366.6	5.6841e-06	3.099e-06	1373	380.79	4.5913e-06	3.2316e-06	431.98	143.78	125.71	42.881	7.0791e-06	52.764	0.00040583	0.00042552	0.00012957	1368.1	4.4608e-06	4.7259e-06	1379.6	383.01	4.3462e-06	4.7846e-06	432.97	144.51	124.55	43.295	4.9216e-06	53.195	-64.877	-126.782	0.397	-123.184	-46.340	-98.012	-123.431	-118.815	-8.464	209.329	-119.312	-114.883	-114.308	-109.869	-9.334	-110.682	-8191	255	
1588.554	1	1	0	0	0.10865	0.19831	0.2154	0.07952	0.12448	0.19104	0.28849	0.24199	0.19375	0.098213	0.25907	0.11498	0.27178	0.32989	0.16116	0.31989	-0.2	-1.1083	-0.76875	-0.74583	-1.6229	-0.75625	-1.1958	-1.5042	-0.67083	-1.2292	-1.2458	-0.72292	-1.5708	-0.78958	-0.96667	-1.4917	154.167	132.651	156.426	187.739	-94.362	-12.515	188.479	194.297	195.527	200.146	167.578	-107.696	94.339	222.435	39.905	88.741	0.00045598	0.00029404	0.00025709	1364.6	3.0482e-06	4.2842e-06	1373.9	381.89	5.9787e-06	1.1413e-06	432.42	144.09	125.45	42.983	3.0944e-06	52.958	0.00039992	0.00044607	0.00012457	1366	4.361e-06	4.9299e-06	1378.8	383.22	4.3969e-06	4.9399e-06	431.71	144.33	124.59	43.369	4.7451e-06	53.265	-57.670	215.454	-69.045	-123.289	76.183	-112.977	-123.427	-118.880	13.494	-27.326	-119.155	-115.036	-114.467	-109.833	146.752	-110.865	-8191	255	
1588.650	1	1	0	0	0.30616	0.35375	0.18756	0.042798	0.022126	0.19294	0.32238	0.15303	0.15711	0.18087	0.18959	0.29157	0.10957	0.21431	0.26205	0.1792	-0.039583	-1.1292	-1.0812	-0.54167	-1.6313	-0.85625	-1.0438	-1.4542	-0.56042	-1.3292	-1.2583	-0.58125	-1.3479	-0.71875	-0.64167	-1.6125	-136.801	130.043	157.697	122.884	-63.776	-116.410	213.670	210.021	53.683	159.532	-40.841	207.801	62.503	139.381	-110.881	35.228	0.00062937	0.00013582	6.6102e-05	1361.9	3.7578e-06	4.14e-06	1372.5	380.21	2.4096e-06	7.4606e-06	430.87	144.45	125.15	42.853	7.7146e-06	53.104	0.00040732	0.00045701	0.00012054	1365.4	4.4903e-06	4.9856e-06	1374.7	382.37	4.531e-06	4.9477e-06	430.31	144.17	124.93	43.296	4.5867e-06	53.099	-61.911	211.348	-79.096	-123.272	-61.814	-1.145	-123.447	-118.839	-28.479	-75.494	-119.283	-115.012	-114.252	-110.052	59.464	-110.560	-8191	255	
1588.746	1	1	0	0	0.15856	0.071156	0.12022	0.20644	0.17292	0.098779	0.34685	0.14572	0.20829	0.10427	0.13888	0.23014	0.22654	0.074538	0.18767	0.17895	-0.16042	-1.0187	-1.2229	-0.56875	-1.4312	-0.87917	-1.0688	-1.5458	-0.62292	-0.93542	-1.4354	-0.51875	-1.4125	-0.80417	-0.46667	-1.4167	107.071	-11.310	72.920	34.900	-72.473	193.980	142.844	137.891	165.011	-125.545	3.214	199.132	190.129	119.937	221.732	144.290	0.00042082	0.00040897	0.00010176	1361.6	5.2232e-06	5.468e-06	1371	380.71	7.6643e-06	5.0008e-06	430.51	144.41	125.63	42.841	1.3788e-06	52.882	0.00042692	0.00044398	0.00011788	1360.5	4.6558e-06	4.8844e-06	1373.4	381.7	4.7491e-06	4.7697e-06	429.7	143.68	125.34	43.212	4.4825e-06	53.076	-55.434	-30.889	190.870	-123.384	-112.126	30.966	-123.336	-118.545	19.449	-84.709	-119.077	-114.842	-114.454	-110.023	-29.226	-110.523	-8191	255	
1588.842	1	1	0	0	0.24757	0.089487	0.20295	0.12108	0.07525	0.17048	0.13634	0.16761	0.080316	0.1598	0.049101	0.14399	0.22109	0.14638	0.1477	0.13044	-0.12708	-0.9	-1.1271	-0.65833	-1.2563	-0.97083	-0.63542	-1.7542	-0.75833	-0.78542	-1.5688	-0.73125	-1.4167	-1.1396	-0.625	-1.5625	-31.940	29.648	-113.773	-134.524	130.419	144.231	-95.294	165.567	140.479	-88.669	66.970	177.385	210.189	193.112	-113.845	125.317	0.00044408	0.000539	0.00010998	1357.9	2.3887e-06	4.5592e-06	1371.6	381.58	1.6813e-06	1.6736e-06	431.41	144.23	125.18	42.781	7.5371e-06	53.022	0.00044597	0.00043208	0.0001148	1361.3	4.8951e-06	4.7478e-06	1373.6	382.82	4.9554e-06	4.6568e-06	430.04	144.31	125.36	43.105	4.3809e-06	53.133	-51.466	-84.927	-40.155	-123.427	-69.277	-14.973	-123.412	-118.700	5.227	83.032	-119.402	-114.668	-114.085	-109.865	11.434	-110.607	-8191	255	
1588.939	1	1	0	0	0.17754	0.12437	0.0707	0.22217	0.24565	0.1287	0.35362	0.17309	0.076401	0.16599	0.11612	0.21453	0.25104	0.17983	0.15303	0.16961	-0.27917	-0.80208	-1.3875	-0.53333	-1.075	-1.0604	-0.80208	-1.4792	-0.82083	-0.61875	-1.3583	-0.57292	-1.15	-1.2375	-0.36875	-1.5312	115.806	-60.610	200.390	161.473	96.552	215.592	111.542	207.031	73.494	2.268	197.886	176.903	178.055	159.440	47.388	21.808	0.00039453	0.00059352	0.00010785	1362.5	4.7551e-06	5.5182e-06	1371.6	381.15	3.4882e-06	4.5654e-06	428.02	144.05	125.32	42.824	7.8348e-06	52.666	0.00045278	0.00042291	0.00011208	1365.5	4.9203e-06	4.6593e-06	1373	382.92	4.9266e-06	4.614e-06	429.18	144.87	125.58	43.161	4.3105e-06	53.372	-52.163	-47.537	-136.603	-123.349	-134.656	46.011	-123.428	-118.933	50.530	-5.601	-119.327	-114.825	-113.916	-109.885	-81.096	-110.690	-8191	255	
1589.059	1	1	0	0	0.31032	0.10907	0.1457	0.25789	0.083004	0.20264	0.14294	0.47045	0.25784	0.044219	0.14296	0.32151	0.2289	0.18217	0.18487	0.18316	-0.48542	-0.75417	-1.3542	-0.71667	-1.0042	-1.2792	-0.5875	-1.4937	-0.76875	-0.7875	-1.6	-0.675	-1.2625	-1.4229	-0.28333	-1.3438	-65.762	-33.379	73.833	169.776	7.619	6.294	132.151	127.999	-135.993	139.579	-33.613	112.687	186.827	97.210	204.153	85.767	0.00047754	0.00054535	0.00015414	1363.3	4.638e-06	6.9455e-06	1367.3	381.02	3.996e-06	7.556e-06	429.98	143.62	124.91	42.852	1.6566e-06	52.981	0.00044991	0.00041933	0.00010989	1368.5	4.8428e-06	4.5763e-06	1370.4	383.98	4.8803e-06	4.5606e-06	429.54	145.01	125.16	43.189	4.4667e-06	53.591	-50.083	-2.256	-58.510	-123.214	-40.789	-12.869	-123.340	-118.628	-83.435	3.752	-119.165	-114.731	-114.434	-109.819	-91.143	-110.681	-8191	255	
1589.154	1	1	0	0	0.091666	0.13214	0.26899	0.30067	0.30451	0.17802	0.2665	0.20622	0.27047	0.080274	0.20756	0.088891	0.20771	0.26455	0.10757	0.21667	-0.64167	-0.43958	-1.4062	-0.775	-0.80833	-1.1458	-0.65833	-1.4062	-0.8125	-0.59583	-1.5792	-0.9	-0.69583	-1.3333	-0.50208	-1.1771	133.692	86.441	54.829	128.172	-25.460	-26.215	195.773	196.582	168.337	99.361	144.066	-71.003	156.037	189.693	128.410	159.813	0.00043424	0.00061763	0.00010633	1357.4	4.4684e-06	4.4071e-06	1373.6	380.75	1.8877e-06	7.4719e-06	431.77	144.54	125.5	42.763	5.4682e-06	53.145	0.00044289	0.00040998	0.00011515	1368.9	4.6985e-06	4.5039e-06	1373.2	384.53	4.7377e-06	4.4232e-06	430.67	145.55	125.11	43.088	4.6631e-06	53.625	-67.970	-35.093	-65.057	-123.555	36.066	-9.398	-123.210	-118.606	-49.957	36.793	-119.005	-114.626	-114.194	-110.158	-4.415	-110.669	-8191	255	
1589.250	1	1	0	0	0.074129	0.17151	0.089971	0.19639	0.24877	0.16052	0.33648	0.19239	0.13917	0.033608	0.29284	0.379	0.28588	0.37897	0.18849	0.29171	-0.79375	-0.44583	-1.3854	-1.1167	-0.8125	-1.4875	-0.82083	-1.2979	-1.3396	-0.43125	-1.4375	-1.1146	-0.67083	-1.4771	-0.52292	-1.1042	180.682	-107.757	160.301	160.517	-95.296	206.851	159.761	202.963	-14.514	99.299	208.176	223.366	158.382	147.006	158.974	221.146	0.00045616	0.00041661	6.0824e-05	1363	3.6869e-06	3.2436e-06	1375.3	382.03	6.2885e-06	5.9425e-06	430.22	143.87	126.42	42.88	3.914e-06	52.813	0.00043026	0.00039494	0.00011959	1367.7	4.5793e-06	4.3578e-06	1376.2	383.95	4.5842e-06	4.2864e-06	431.42	144.94	124.96	42.973	4.8366e-06	53.342	-43.049	28.102	55.238	-123.306	13.659	-7.125	-123.332	-118.582	12.129	-34.261	-119.184	-114.746	-114.483	-109.816	-93.280	-110.825	-8191	255	
1589.348	1	1	0	0	0.10369	0.086128	0.058941	0.2699	0.062693	0.064454	0.33519	0.27252	0.098677	0.11597	0.26854	0.06298	0.16008	0.2182	0.14715	0.095854	-0.92083	-0.28333	-1.2563	-1.1271	-0.55417	-1.4813	-0.77917	-1.1896	-1.2479	-0.47083	-1.4542	-1.1458	-0.72917	-1.5438	-0.65	-0.94375	195.377	-121.804	-30.879	167.786	96.538	178.243	149.374	-80.368	-31.331	-45.833	221.648	-59.650	148.914	119.586	68.381	-78.813	0.00040836	0.00021429	8.9915e-06	1365	7.449e-06	2.2362e-06	1375.8	381.75	6.3962e-06	1.5796e-06	430.74	144.7	125.37	42.885	4.6239e-06	53.078	0.00041468	0.00038987	0.00012328	1367.5	4.4284e-06	4.3402e-06	1377.1	383.55	4.4874e-06	4.326e-06	432.22	144.72	124.5	43.093	4.9189e-06	53.347	-53.803	-85.898	-29.540	-123.533	10.264	63.864	-123.395	-118.770	2.804	108.064	-119.249	-114.794	-114.451	-109.867	13.671	-110.432	-8191	255	
1589.467	1	1	0	0	0.25505	0.10812	0.2875	0.37588	0.28745	0.27295	0.16503	0.31715	0.29937	0.064715	0.12274	0.066676	0.12671	0.21023	0.2867	0.32928	-0.99583	-0.56875	-1.1187	-1.1562	-0.31458	-1.3917	-0.62292	-1.0396	-1.3208	-0.34583	-1.3146	-1.2104	-0.6125	-1.5104	-0.82708	-1.0604	73.386	186.332	215.816	201.204	222.524	34.002	145.090	192.524	4.819	207.827	209.299	169.366	18.045	189.695	1.537	174.333	0.00039163	0.00053549	0.00023744	1362	7.7264e-06	2.7692e-06	1374.6	382.16	1.5366e-06	1.6341e-06	432.08	143.42	125.42	42.846	5.5685e-06	53.162	0.00040223	0.00040315	0.00012427	1363.4	4.2768e-06	4.5098e-06	1377.4	383.03	4.3116e-06	4.5176e-06	431.52	144.31	124.24	43.194	4.8577e-06	53.24	-55.292	2.975	-15.721	-123.355	-17.920	-64.552	-123.435	-118.537	-38.245	217.866	-119.001	-114.539	-114.264	-109.568	-0.118	-110.581	-8191	255	
1589.538	1	1	0	0	0.02656	0.22967	0.25222	0.19168	0.053323	0.20943	0.15021	0.25184	0.11091	0.11467	0.29711	0.028906	0.016844	0.24875	0.22234	0.16471	-0.94583	-0.55625	-0.94167	-1.3792	-0.62083	-1.375	-0.9125	-0.825	-1.5167	-0.68125	-1.0646	-1.4146	-0.67083	-1.3229	-0.83958	-0.65208	-109.397	58.212	199.431	157.088	49.206	128.903	96.363	190.049	-6.320	58.360	-120.324	-132.438	175.260	-134.018	-44.591	113.227	0.00047762	0.0003915	0.00015131	1362.1	1.8422e-06	4.3317e-06	1371	381.05	1.4166e-06	1.4923e-06	428.28	144.37	124.77	42.783	2.0093e-06	53.038	0.00039379	0.00042392	0.00012118	1362.4	4.1816e-06	4.6624e-06	1374.9	381.95	4.2196e-06	4.6609e-06	429.89	144.17	123.79	43.203	4.6612e-06	53.026	-46.777	222.846	-41.280	-123.190	186.744	188.422	-123.237	-118.535	22.032	91.052	-118.688	-114.933	-114.159	-109.778	-108.362	-110.306	-8191	255	
1589.659	1	1	0	0	0.29257	0.093886	0.23812	0.22448	0.35999	0.18223	0.13286	0.34906	0.036723	0.1291	0.19841	0.2068	0.073785	0.23824	0.10617	0.19465	-1.0167	-0.525	-0.85208	-1.5187	-0.35625	-1.2042	-1.1479	-0.74583	-1.4021	-0.78542	-0.9	-1.4208	-0.5	-1.3792	-0.91042	-0.62708	-110.575	-121.893	54.409	155.074	208.895	152.208	160.488	198.511	151.646	98.926	169.939	166.164	204.694	206.555	-69.020	169.263	0.00050167	9.8245e-05	0.00011659	1360.5	7.8342e-06	3.0435e-06	1368.9	381.36	3.8323e-06	2.6935e-06	430.4	144.97	125.2	42.957	1.3418e-06	52.983	0.00039008	0.00043663	0.00011645	1360.1	4.2063e-06	4.7733e-06	1372.5	381.67	4.3051e-06	4.7987e-06	430.14	144.2	124.33	43.238	4.5214e-06	52.778	-38.397	118.362	-78.447	-123.105	-122.572	150.207	-123.112	-118.522	-38.637	-116.720	-119.110	-114.959	-114.229	-109.936	143.862	-110.602	-8191	255	
1589.755	1	1	0	0	0.096464	0.11988	0.4972	0.31199	0.21067	0.10579	0.19762	0.24052	0.19464	0.042481	0.26911	0.16378	0.33156	0.069414	0.11105	0.32016	-1.025	-0.88333	-0.63125	-1.5167	-0.50208	-0.9125	-1.25	-0.525	-1.2313	-0.95417	-0.71875	-1.4208	-0.68958	-1.1833	-1.2667	-0.64375	-11.903	-121.112	69.575	175.389	132.121	124.349	216.846	186.467	22.218	206.282	170.752	149.533	-108.650	-66.993	186.207	206.274	0.00041248	3.0071e-05	0.00011996	1356	4.7846e-06	4.3263e-06	1367.5	380.44	3.3576e-06	6.9441e-06	429.77	144.01	124.61	42.72	2.2052e-06	53.025	0.00040449	0.00043541	0.00011255	1357.6	4.4526e-06	4.7387e-06	1369.2	381.27	4.5712e-06	4.7897e-06	428.91	143.59	124.74	43.105	4.4614e-06	52.844	-53.571	65.050	-74.092	-123.295	192.951	-46.002	-123.336	-118.801	-77.683	0.743	-118.918	-114.875	-114.600	-109.691	-41.171	-110.557	-8191	255	
1589.851	1	1	0	0	0.20213	0.24166	0.10071	0.27528	0.096716	0.078008	0.51324	0.20109	0.21468	0.095593	0.21416	0.30686	0.2084	0.24422	0.020451	0.4159	-0.89792	-0.82917	-0.60625	-1.7	-0.57292	-0.94792	-1.3917	-0.78125	-1.2604	-0.99792	-0.72083	-1.4375	-0.59583	-1.2354	-1.3	-0.61667	115.696	-7.177	196.931	165.755	31.164	166.823	176.016	-106.057	-78.745	-41.608	-117.626	195.784	51.420	-104.177	14.770	190.697	0.00052205	0.00056295	9.5522e-05	1362.6	2.4986e-06	7.9747e-06	1367.5	380.93	2.0352e-06	2.2895e-06	431.99	144.49	125.2	42.844	8.0351e-06	53.073	0.0004285	0.00042829	0.00011137	1359.5	4.7005e-06	4.579e-06	1370	381.38	4.7248e-06	4.646e-06	429.22	143.83	125.04	43.161	4.3875e-06	52.833	-66.506	-69.571	-73.386	-123.148	-102.618	25.303	-123.465	-118.587	-59.648	38.935	-119.033	-114.900	-114.397	-109.871	-6.971	-110.425	-8191	255	
1589.947	1	1	0	0	0.30136	0.3938	0.20615	0.26132	0.22529	0.14036	0.2383	0.32847	0.21055	0.13296	0.13786	0.26168	0.15513	0.21028	0.078146	0.24878	-0.85833	-0.89792	-0.30208	-1.6104	-0.61875	-0.78125	-1.4562	-0.84583	-1.1187	-1.1875	-0.47083	-1.5146	-0.69792	-0.82083	-1.4604	-0.46458	-77.476	-6.458	208.647	-131.352	-4.116	-59.589	169.280	199.117	135.755	58.460	188.039	189.586	-103.132	181.989	-108.309	193.427	0.00046801	0.00026275	0.00013211	1368.6	1.0486e-06	5.2501e-06	1365	380.93	3.8024e-06	3.3298e-06	428.95	144.06	125.22	42.898	4.5276e-06	52.882	0.00043936	0.00041569	0.00010903	1364.8	4.8144e-06	4.5221e-06	1371.1	381.84	4.8629e-06	4.5162e-06	428.16	144.44	125.15	43.096	4.2606e-06	53.024	-58.713	-74.838	-50.308	-123.215	82.231	-40.167	-123.287	-118.715	27.293	-64.585	-119.417	-114.689	-114.451	-109.740	35.023	-110.919	-8191	255	
1590.043	1	1	0	0	0.15385	0.39918	0.10341	0.37564	0.43737	0.19315	0.45677	0.28851	0.36331	0.24986	0.40645	0.29218	0.23049	0.099704	0.23727	0.24579	-0.58125	-1.0938	-0.325	-1.6187	-0.6375	-0.89167	-1.4167	-0.80208	-1.0542	-1.2354	-0.68542	-1.2563	-0.85208	-0.56667	-1.3687	-0.77083	-94.059	65.373	112.785	175.191	104.565	134.295	181.107	191.316	138.016	106.445	174.067	-125.524	151.933	94.771	-25.383	92.573	0.00037	0.00063434	0.00010333	1366.3	3.4393e-06	2.4655e-06	1370.6	380.27	2.9389e-06	8.9458e-06	429.48	143.99	125.43	42.783	3.9689e-06	52.665	0.00043868	0.00041326	0.00010609	1367.4	4.8234e-06	4.4549e-06	1370.3	382.49	4.7388e-06	4.4583e-06	428.11	144.79	124.98	43.097	4.2491e-06	53.277	-55.749	-83.054	-110.267	-123.432	-15.860	17.191	-123.141	-118.772	7.930	-31.021	-118.971	-114.901	-114.327	-109.565	-94.881	-110.630	-8191	255	
1590.140	1	1	0	0	0.11593	0.052632	0.24204	0.087288	0.092041	0.011336	0.27453	0.39509	0.16469	0.24598	0.055803	0.16477	0.45635	0.13157	0.10847	0.14398	-0.82917	-1.1958	-0.49583	-1.5292	-0.95625	-0.80417	-1.6646	-0.98542	-0.84167	-1.3062	-0.54375	-1.3687	-0.97708	-0.50833	-1.5958	-0.7875	202.151	77.009	179.924	141.944	-12.205	152.549	197.202	151.539	197.079	-84.781	-88.849	-131.445	129.126	208.759	-76.808	90.633	0.00047984	0.00063381	3.7318e-05	1362.9	7.6241e-06	3.0072e-06	1375	381.82	8.0128e-06	4.32e-06	429.81	143.88	125.4	42.748	4.0867e-06	52.95	0.00042662	0.00040294	0.00010855	1367.9	4.6789e-06	4.3669e-06	1372.2	383.92	4.5871e-06	4.3345e-06	428.89	145.04	124.67	43.009	4.4013e-06	53.323	-36.377	-68.812	172.583	-123.302	-29.729	21.444	-123.229	-118.491	22.109	-27.565	-119.113	-114.906	-114.268	-109.953	-102.548	-110.564	-8191	255	
1590.236	1	1	0	0	0.20853	0.076446	0.12451	0.093989	0.36819	0.12049	0.37441	0.061923	0.30065	0.19771	0.18278	0.2216	0.14993	0.18275	0.084823	0.16714	-0.40417	-1.4125	-0.45	-1.3604	-1.2333	-0.50833	-1.5979	-1.0708	-0.7125	-1.4708	-0.84583	-1.0979	-1.175	-0.70833	-1.2229	-1.0458	77.687	-80.521	38.336	209.825	200.610	-11.271	148.108	118.072	-103.848	40.492	170.258	128.604	-133.129	-50.701	-9.957	216.522	0.00043157	0.00046978	9.5296e-05	1363.1	4.5072e-07	6.6801e-06	1370.9	381.76	2.6396e-06	7.7244e-06	430.22	143.59	125.79	42.838	5.6961e-06	52.766	0.00041793	0.00039155	0.00011241	1367.8	4.5591e-06	4.2328e-06	1373.8	383.48	4.4942e-06	4.2632e-06	430.58	144.62	124.84	42.875	4.6901e-06	53.256	-35.658	-45.335	-85.829	-123.082	10.109	32.980	-123.393	-118.603	26.444	-29.165	-119.343	-114.522	-114.425	-109.799	-17.287	-110.747	-8191	255	
1590.330	1	1	0	0	0.24145	0.22462	0.20477	0.25867	0.11525	0.14032	0.253	0.18439	0.12165	0.20598	0.10609	0.16427	0.14859	0.36587	0.071176	0.16956	-0.32292	-1.3625	-0.67917	-1.0125	-1.1417	-0.36667	-1.5271	-1.2396	-0.69583	-1.5979	-0.92917	-0.98958	-1.5646	-0.87292	-1.2979	-1.0708	123.886	169.612	203.940	197.361	125.540	-1.498	168.610	183.021	120.833	-77.440	68.577	173.728	-77.987	161.874	195.799	150.084	0.00044956	0.00041907	0.00011164	1364.5	4.751e-06	4.1797e-06	1372.7	381.47	3.2525e-06	5.2088e-06	431.1	143.82	125.35	42.824	3.531e-06	52.752	0.00040776	0.00038809	0.00011937	1368.4	4.4888e-06	4.206e-06	1378.3	383.27	4.3801e-06	4.2548e-06	430.95	144.56	124.31	42.949	4.8579e-06	53.187	-40.924	-73.567	-100.776	-123.230	-84.804	75.042	-123.407	-118.767	30.337	-16.774	-119.408	-114.852	-114.493	-109.813	0.517	-110.843	-8191	255	
1590.428	1	1	0	0	0.27029	0.27498	0.34344	0.13937	0.044043	0.12746	0.23743	0.47774	0.38026	0.15394	0.10046	0.1951	0.23491	0.15887	0.23223	0.13852	-0.15833	-1.4646	-0.50417	-0.93542	-1.2812	-0.34375	-1.4667	-1.3354	-0.46667	-1.5375	-0.92708	-0.8125	-1.5854	-0.54167	-0.9625	-1.1458	12.621	-10.157	-45.136	-113.884	177.033	48.177	111.114	124.128	101.580	-128.944	-0.737	140.457	210.182	144.851	60.071	-98.971	0.00042234	0.00010861	0.00020158	1369	3.4134e-06	4.4252e-06	1372	381.95	2.2898e-06	2.8075e-06	429.77	144.98	124.42	42.833	1.2128e-06	52.977	0.00039826	0.00039557	0.00012382	1368	4.3585e-06	4.3416e-06	1376.7	382.77	4.2717e-06	4.3915e-06	431.65	144.72	123.9	43.092	4.8358e-06	53.081	-45.960	79.270	-76.717	-123.190	-46.384	117.067	-123.228	-118.830	6.821	18.561	-119.298	-114.911	-114.507	-109.924	6.571	-110.804	-8191	255	
1590.547	1	1	0	0	0.04646	0.24386	0.30818	0.27734	0.091798	0.335	0.16313	0.10461	0.29726	0.22494	0.27337	0.4101	0.15117	0.25646	0.18022	0.16321	-0.12292	-1.2313	-0.71875	-0.88333	-1.3042	-0.4	-1.2437	-1.4042	-0.48958	-1.3896	-0.91875	-0.67292	-1.4708	-0.61458	-1.2125	-1.3729	132.871	206.293	108.355	194.983	-83.619	123.781	120.822	176.087	-61.463	99.537	110.945	175.403	217.477	214.035	222.257	86.592	0.0005077	0.00068161	0.00012747	1365.9	3.9964e-06	1.366e-06	1376.9	380.89	4.4164e-06	5.6186e-06	430.49	144.33	125.66	42.89	5.1987e-06	53.18	0.00038633	0.0004106	0.00012093	1365.6	4.1817e-06	4.5173e-06	1378.2	382.28	4.1194e-06	4.5352e-06	430.57	144.08	123.88	43.198	4.6242e-06	53.042	-54.539	196.543	-67.468	-123.203	-57.198	0.957	-123.046	-118.591	35.459	-67.286	-118.996	-114.829	-114.286	-109.769	41.073	-110.800	-8191	255	
1590.643	1	1	0	0	0.26289	0.18814	0.068205	0.27206	0.16951	0.37726	0.35889	0.42519	0.22519	0.30629	0.19287	0.3364	0.20095	0.11642	0.11265	0.1396	-0.17917	-1.3542	-0.79167	-0.67292	-1.4271	-0.84375	-1.0875	-1.6833	-0.5125	-1.3292	-1.0958	-0.67917	-1.6125	-0.72083	-0.79792	-1.2812	144.596	-25.371	78.051	156.194	22.514	130.222	125.951	130.133	-74.480	94.567	70.743	153.040	17.645	160.340	110.840	11.551	0.00036936	0.00021781	9.1914e-05	1362.7	5.6444e-06	4.2121e-06	1372.7	382.5	3.3384e-06	3.2279e-06	430.57	144.33	125.07	42.726	2.0341e-06	52.992	0.00037639	0.00042169	0.00011746	1361.6	4.1801e-06	4.6656e-06	1373.7	382.13	4.1568e-06	4.6677e-06	430.51	144.14	124.03	43.245	4.5214e-06	52.872	-58.483	160.486	-74.412	-123.024	-58.520	10.999	-123.415	-118.863	23.459	-13.467	-119.220	-114.744	-114.482	-110.125	5.370	-110.859	-8191	255	
1590.739	1	1	0	0	0.17249	0.049848	0.31143	0.27412	0.13729	0.3572	0.25805	0.24707	0.10591	0.049149	0.31825	0.098463	0.097641	0.35738	0.046661	0.21918	0.010417	-1.0167	-0.84583	-0.65417	-1.3125	-0.81458	-0.98125	-1.6083	-0.36458	-1.3854	-1.1354	-0.44792	-1.5417	-0.82708	-0.63542	-1.3208	-85.498	146.846	81.350	215.954	104.250	-14.750	190.870	-80.501	-78.338	5.923	120.578	-126.952	65.191	213.064	39.599	152.100	0.00040309	0.00074202	0.00013851	1361.6	5.3784e-06	3.2492e-06	1372.1	380.98	5.4366e-06	9.8041e-06	430.33	144.18	124.96	42.676	6.0027e-06	52.976	0.00039374	0.00043445	0.00011433	1359.4	4.3462e-06	4.7286e-06	1371.9	381.17	4.3378e-06	4.6886e-06	429.37	143.86	124.58	43.165	4.3857e-06	52.875	-71.430	-109.208	-82.890	-123.314	176.078	-53.320	-123.266	-118.635	-77.647	38.354	-119.193	-114.596	-114.118	-109.858	-16.773	-110.719	-8191	255	
1590.835	1	1	0	0	0.044246	0.26794	0.12334	0.17353	0.073704	0.03168	0.14276	0.41117	0.077612	0.14401	0.097677	0.15493	0.26177	0.26157	0.43232	0.289	0.11667	-1.0458	-1.1625	-0.70625	-1.2708	-0.80417	-0.94792	-1.4917	-0.72708	-0.91458	-1.5063	-0.65625	-1.2333	-1.025	-0.6375	-1.2896	-80.199	-62.179	-86.629	189.474	130.495	-99.441	109.749	122.180	-21.215	171.593	37.980	203.898	178.768	-98.854	-71.893	-127.807	0.00047966	0.00038964	0.00017956	1366.9	6.2528e-06	3.6053e-06	1373.5	380.52	4.1557e-06	4.2305e-07	429.18	144.3	125.92	43.015	4.2707e-06	52.851	0.00041401	0.00042297	0.00011214	1362.5	4.5911e-06	4.6645e-06	1371.7	381.37	4.6439e-06	4.6059e-06	428.7	143.79	125.18	43.182	4.3387e-06	52.854	-57.613	-45.872	-18.825	-123.206	190.525	9.586	-123.200	-118.784	-54.094	204.565	-119.264	-114.710	-114.132	-109.974	-29.429	-110.551	-8191	255	
1590.932	1	1	0	0	0.2003	0.1497	0.23906	0.22442	0.22418	0.1792	0.17372	0.33002	0.20632	0.19042	0.20458	0.19018	0.26542	0.17703	0.19941	0.08645	-0.24375	-0.96042	-1.1812	-0.51042	-1.0812	-1.025	-0.675	-1.5354	-0.45833	-0.72917	-1.4937	-0.43333	-1.2667	-1.0667	-0.43542	-1.3833	176.770	-69.801	200.766	157.559	-21.092	1.879	164.158	158.982	203.629	9.484	216.146	152.619	-104.064	124.254	20.326	220.792	0.00045816	0.0005514	0.00016406	1357.2	1.8506e-06	2.4424e-06	1374.8	380.68	6.9571e-06	2.3208e-06	430	144.1	125.58	42.827	1.8033e-06	53.096	0.00043478	0.00041835	0.00011049	1360.6	4.7804e-06	4.5685e-06	1371.2	382.09	4.8182e-06	4.5187e-06	428.12	143.99	125.21	43.088	4.1989e-06	52.984	-43.091	-50.006	-69.357	-123.204	-36.264	57.041	-123.346	-118.523	24.618	-54.940	-119.069	-114.761	-114.306	-109.973	51.041	-110.436	-8191	255	
1591.028	1	1	0	0	0.17287	0.17488	0.11545	0.21164	0.25818	0.20309	0.23696	0.31464	0.13976	0.21805	0.22826	0.14074	0.13343	0.18486	0.30141	0.10066	-0.28125	-0.73958	-1.2458	-0.76042	-1.0167	-1.1396	-0.76042	-1.4438	-0.67292	-0.89792	-1.5438	-0.59167	-0.99583	-1.3083	-0.26458	-1.4333	22.096	144.187	168.407	216.992	-132.064	-8.655	191.056	-133.212	159.450	152.876	154.162	-69.563	-73.098	189.702	192.702	3.107	0.00042342	0.00065502	0.00011673	1367	4.191e-06	6.1529e-06	1367.5	380.31	4.4738e-06	5.1102e-06	429.51	144.01	124.85	42.909	4.0547e-06	52.762	0.00043898	0.00040652	0.00010755	1365.4	4.7195e-06	4.4386e-06	1367.4	382.3	4.7124e-06	4.36e-06	427.88	144.44	124.84	43.113	4.1107e-06	53.281	-43.349	-79.288	-109.122	-123.277	-0.207	39.893	-123.408	-118.603	56.288	63.945	-119.147	-114.790	-114.488	-109.714	21.280	-110.661	-8191	255	
1591.148	1	1	0	0	0.1734	0.075252	0.18819	0.26467	0.12836	0.3399	0.13526	0.22513	0.2298	0.026763	0.16751	0.20362	0.14203	0.19131	0.27923	0.16505	-0.46458	-0.50833	-1.275	-0.79792	-1.1208	-1.4688	-0.55	-1.5625	-0.90833	-0.60417	-1.5958	-0.7375	-0.975	-1.3396	-0.29792	-1.4688	182.035	103.805	-32.278	145.199	-13.706	40.093	107.843	165.956	-78.330	130.436	206.280	-127.173	97.887	101.314	130.994	-132.110	0.00044383	0.00050286	3.0256e-05	1363.5	3.7146e-06	5.2472e-06	1376.5	381.19	5.8205e-06	1.9275e-06	429.26	144.53	125.48	42.752	5.4184e-06	52.778	0.00042543	0.00039352	0.00010538	1365.9	4.5747e-06	4.3314e-06	1370.9	382.95	4.5782e-06	4.2248e-06	427.38	144.87	124.91	42.996	4.2158e-06	53.329	-48.194	-34.690	-113.460	-123.357	-95.577	-44.323	-123.393	-118.524	9.616	-10.045	-119.130	-114.594	-114.109	-109.914	-100.742	-110.553	-8191	255	
1591.243	1	1	0	0	0.25769	0.17276	0.28344	0.24981	0.20561	0.27777	0.34934	0.099096	0.058115	0.20898	0.099339	0.17929	0.26916	0.21755	0.18285	0.30878	-0.58333	-0.42708	-1.4333	-0.875	-0.66875	-1.2083	-0.80208	-1.2708	-0.99583	-0.48542	-1.4708	-0.80417	-0.775	-1.3646	-0.54375	-1.4	217.348	138.412	17.603	-80.041	-46.092	-13.722	179.129	101.842	188.714	121.026	130.341	191.779	-130.097	62.436	-84.841	180.971	0.00053954	0.00055792	0.00019216	1360.5	4.27e-06	1.6747e-06	1370.4	381.14	3.0679e-06	4.8112e-06	431.15	144.3	125.53	42.961	5.5622e-06	52.951	0.00041725	0.00038613	0.00010925	1365.7	4.4556e-06	4.2184e-06	1370.6	383.3	4.4467e-06	4.155e-06	429.49	144.89	124.7	42.96	4.4583e-06	53.295	-52.466	-50.449	-39.222	-123.189	-82.749	-56.705	-123.330	-118.551	-47.366	38.677	-119.275	-114.744	-113.984	-109.716	-48.459	-110.242	-8191	255	
1591.339	1	1	0	0	0.2436	0.2388	0.10989	0.35356	0.14592	0.19817	0.56573	0.38509	0.12251	0.18504	0.11637	0.16989	0.086637	0.23974	0.19892	0.13112	-0.71458	-0.575	-1.2542	-1	-0.73958	-1.3729	-0.75625	-1.2208	-1.0438	-0.375	-1.4458	-1.0729	-0.58542	-1.5771	-0.55	-1.0042	221.746	-12.221	146.222	185.903	-106.159	128.417	146.718	209.754	-32.192	-131.625	202.498	-114.844	155.317	128.397	126.795	158.234	0.00044759	0.00017034	3.1123e-05	1361.7	4.108e-06	6.1874e-06	1373.9	381.74	9.0363e-07	5.1733e-06	430.6	144.26	125.39	42.964	7.622e-06	53.059	0.00040509	0.00037603	0.00011532	1365.3	4.4092e-06	4.1549e-06	1374.4	382.76	4.4348e-06	4.0852e-06	430.69	144.64	124.13	42.971	4.714e-06	53.155	-48.266	216.187	66.886	-123.181	23.837	25.309	-123.327	-118.755	-32.167	48.557	-118.787	-114.775	-114.004	-109.549	-71.230	-110.317	-8191	255	
1591.435	1	1	0	0	0.11599	0.21991	0.12099	0.51457	0.10697	0.14488	0.12187	0.26194	0.20626	0.068895	0.070223	0.14995	0.33218	0.12178	0.18743	0.38717	-0.91042	-0.28542	-1.175	-1.2917	-0.60417	-1.3083	-0.69375	-1.0854	-1.2729	-0.60208	-1.3208	-1.0646	-0.52292	-1.5104	-0.7125	-1.0812	163.026	212.826	-130.000	-129.003	1.410	15.434	119.050	179.409	-95.515	101.844	160.114	114.171	-115.852	146.104	-112.893	164.394	0.00041489	0.00058825	6.656e-05	1359.3	6.217e-06	2.0986e-06	1369.6	381.67	8.2672e-06	3.7344e-06	428.58	144.41	125.45	43.014	2.9258e-06	52.813	0.00039745	0.00037677	0.00011914	1363.9	4.241e-06	4.1855e-06	1375.4	382.41	4.282e-06	4.1925e-06	430.59	144.29	124.13	43.121	4.7165e-06	53.009	-48.686	-127.195	-87.513	-123.088	-11.500	183.576	-123.333	-118.361	28.487	200.632	-119.079	-114.537	-114.305	-109.627	46.321	-110.693	-8191	255	
#DATA ENDS
