BOXY.EXE: ISS Imagent and Oximeter Data Acquisition Program Version 0.80
Ascii Record File

#ACQ INFORMATION
2  Detector Channels 
16  External MUX Channels 
1  Auxiliary Channels 
5000  Waveform (CCF) Frequency (Hz)
1  Waveforms Skipped 
30  Waveforms Averaged 
1  Cycles Averaged 
16  Acquisitions per Waveform 
10.0806  Updata Rate (Hz) 

#FILE INFORMATION
TRUE -- External MUX Channel results are PARSED.
FALSE -- AC DC and Phase are NOT grouped.
TRUE -- Companion Program Settings File CREATED.
FALSE -- AC data not excluded
FALSE -- DC data not excluded
FALSE -- Phase data not excluded
FALSE -- Auxillary Chn. data not excluded
Tab delimiters

#CALIBRATION STATE
TRUE -- Waveform Calibration Values APPLIED.


#AUX CALIBRATION VALUES
Val Type	aux-1	

Term	1.0000e+00	
Factor	0.0000e+00	


#WF CALIBRATION VALUES
A = Detector Channel
Val Type	A-AC1	A-AC2	A-AC3	A-AC4	A-AC5	A-AC6	A-AC7	A-AC8	A-AC9	A-AC10	A-AC11	A-AC12	A-AC13	A-AC14	A-AC15	A-AC16	A-DC1	A-DC2	A-DC3	A-DC4	A-DC5	A-DC6	A-DC7	A-DC8	A-DC9	A-DC10	A-DC11	A-DC12	A-DC13	A-DC14	A-DC15	A-DC16	A-Ph1	A-Ph2	A-Ph3	A-Ph4	A-Ph5	A-Ph6	A-Ph7	A-Ph8	A-Ph9	A-Ph10	A-Ph11	A-Ph12	A-Ph13	A-Ph14	A-Ph15	A-Ph16	

Term	0.00000e+00	0.00000e+00	0.00000e+00	0.00000e+00	0.00000e+00	0.00000e+00	0.00000e+00	0.00000e+00	0.00000e+00	0.00000e+00	0.00000e+00	0.00000e+00	0.00000e+00	0.00000e+00	0.00000e+00	0.00000e+00	0.00000e+00	0.00000e+00	0.00000e+00	0.00000e+00	0.00000e+00	0.00000e+00	0.00000e+00	0.00000e+00	0.00000e+00	0.00000e+00	0.00000e+00	0.00000e+00	0.00000e+00	0.00000e+00	0.00000e+00	0.00000e+00	0.00000e+00	0.00000e+00	0.00000e+00	0.00000e+00	0.00000e+00	0.00000e+00	0.00000e+00	0.00000e+00	0.00000e+00	0.00000e+00	0.00000e+00	0.00000e+00	0.00000e+00	0.00000e+00	0.00000e+00	0.00000e+00	
Factor	1.00000e+00	1.00000e+00	1.00000e+00	1.00000e+00	1.00000e+00	1.00000e+00	1.00000e+00	1.00000e+00	1.00000e+00	1.00000e+00	1.00000e+00	1.00000e+00	1.00000e+00	1.00000e+00	1.00000e+00	1.00000e+00	1.00000e+00	1.00000e+00	1.00000e+00	1.00000e+00	1.00000e+00	1.00000e+00	1.00000e+00	1.00000e+00	1.00000e+00	1.00000e+00	1.00000e+00	1.00000e+00	1.00000e+00	1.00000e+00	1.00000e+00	1.00000e+00	X	X	X	X	X	X	X	X	X	X	X	X	X	X	X	X	

B = Detector Channel
Val Type	B-AC1	B-AC2	B-AC3	B-AC4	B-AC5	B-AC6	B-AC7	B-AC8	B-AC9	B-AC10	B-AC11	B-AC12	B-AC13	B-AC14	B-AC15	B-AC16	B-DC1	B-DC2	B-DC3	B-DC4	B-DC5	B-DC6	B-DC7	B-DC8	B-DC9	B-DC10	B-DC11	B-DC12	B-DC13	B-DC14	B-DC15	B-DC16	B-Ph1	B-Ph2	B-Ph3	B-Ph4	B-Ph5	B-Ph6	B-Ph7	B-Ph8	B-Ph9	B-Ph10	B-Ph11	B-Ph12	B-Ph13	B-Ph14	B-Ph15	B-Ph16	

Term	0.00000e+00	0.00000e+00	0.00000e+00	0.00000e+00	0.00000e+00	0.00000e+00	0.00000e+00	0.00000e+00	0.00000e+00	0.00000e+00	0.00000e+00	0.00000e+00	0.00000e+00	0.00000e+00	0.00000e+00	0.00000e+00	0.00000e+00	0.00000e+00	0.00000e+00	0.00000e+00	0.00000e+00	0.00000e+00	0.00000e+00	0.00000e+00	0.00000e+00	0.00000e+00	0.00000e+00	0.00000e+00	0.00000e+00	0.00000e+00	0.00000e+00	0.00000e+00	-1.59263e+02	-1.35366e+02	-1.22785e+02	-1.81606e+02	-7.89346e+01	-5.72216e+01	-1.56575e+02	-1.62015e+02	-7.73410e+01	-6.58398e+01	-1.71773e+02	-1.69662e+02	-1.85582e+02	-1.76518e+02	-7.73154e+01	-1.48785e+02	
Factor	2.57673e-05	1.35732e-04	4.29484e-05	1.60521e-01	1.34668e-06	1.50830e-06	1.73562e-01	5.04505e-02	1.28541e-06	1.76270e-06	8.78298e-02	2.84354e-02	2.48919e-02	9.05555e-03	1.36247e-06	1.28161e-02	7.70257e-06	9.89319e-06	2.77655e-06	8.54020e-02	1.04570e-07	1.10558e-07	8.68692e-02	2.69635e-02	1.04314e-07	1.10505e-07	4.53325e-02	1.47671e-02	1.33880e-02	4.87488e-03	1.06932e-07	6.69256e-03	X	X	X	X	X	X	X	X	X	X	X	X	X	X	X	X	



#DISTANCE SETTINGS
A = Detector Channel
A-1	A-2	A-3	A-4	A-5	A-6	A-7	A-8	A-9	A-10	A-11	A-12	A-13	A-14	A-15	A-16	

2.5000e+00	3.0000e+00	2.5000e+00	3.0000e+00	2.0000e+00	3.0000e+00	1.5000e+00	3.0000e+00	3.0000e+00	3.0000e+00	3.0000e+00	3.0000e+00	3.0000e+00	3.0000e+00	1.5000e+00	3.0000e+00	

B = Detector Channel
B-1	B-2	B-3	B-4	B-5	B-6	B-7	B-8	B-9	B-10	B-11	B-12	B-13	B-14	B-15	B-16	

1.0000e+01	1.0000e+01	1.0000e+01	1.4400e+00	1.0000e+01	1.0000e+01	1.5100e+00	1.9400e+00	1.0000e+01	1.0000e+01	1.9900e+00	2.4900e+00	2.4100e+00	2.9000e+00	1.0000e+01	2.9800e+00	




#DATA BEGINS
time	group	step	mark	flag	A-AC1	A-AC2	A-AC3	A-AC4	A-AC5	A-AC6	A-AC7	A-AC8	A-AC9	A-AC10	A-AC11	A-AC12	A-AC13	A-AC14	A-AC15	A-AC16	A-DC1	A-DC2	A-DC3	A-DC4	A-DC5	A-DC6	A-DC7	A-DC8	A-DC9	A-DC10	A-DC11	A-DC12	A-DC13	A-DC14	A-DC15	A-DC16	A-Ph1	A-Ph2	A-Ph3	A-Ph4	A-Ph5	A-Ph6	A-Ph7	A-Ph8	A-Ph9	A-Ph10	A-Ph11	A-Ph12	A-Ph13	A-Ph14	A-Ph15	A-Ph16	B-AC1	B-AC2	B-AC3	B-AC4	B-AC5	B-AC6	B-AC7	B-AC8	B-AC9	B-AC10	B-AC11	B-AC12	B-AC13	B-AC14	B-AC15	B-AC16	B-DC1	B-DC2	B-DC3	B-DC4	B-DC5	B-DC6	B-DC7	B-DC8	B-DC9	B-DC10	B-DC11	B-DC12	B-DC13	B-DC14	B-DC15	B-DC16	B-Ph1	B-Ph2	B-Ph3	B-Ph4	B-Ph5	B-Ph6	B-Ph7	B-Ph8	B-Ph9	B-Ph10	B-Ph11	B-Ph12	B-Ph13	B-Ph14	B-Ph15	B-Ph16	aux-1	digaux	

7225.678	1	1	0	256	0.16756	0.2536	0.10334	0.081768	0.21911	0.18018	0.16829	0.38392	0.26172	0.11961	0.31057	0.012531	0.23033	0.25094	0.0963	0.19807	-0.49375	-0.875	-0.3875	-1.2583	-0.58125	-0.62083	-1.1646	-0.34583	-0.8125	-0.78958	-0.27083	-1.1958	-0.62292	-0.69792	-1.1562	-0.15833	232.917	525.055	352.824	272.801	240.130	509.582	471.331	479.217	281.573	320.053	518.406	193.238	427.617	511.328	323.489	196.595	0.00069674	0.0014612	0.00053087	930.23	1.2078e-05	9.4303e-06	499.95	333.52	1.1981e-05	1.2094e-05	193.03	92.003	154.43	80.619	2.6107e-06	50.003	0.012324	0.015624	0.0044054	1016.5	0.00016568	0.00017542	610.93	360.66	0.00016437	0.00017492	254.96	111.13	168.76	85.269	0.00016793	58.568	180.175	263.590	301.752	186.467	209.217	472.257	185.148	191.121	284.024	264.213	188.416	191.118	194.573	198.694	359.163	194.905	-8191	255	
7225.774	1	1	0	0	0.11805	0.091938	0.23024	0.16822	0.072922	0.26179	0.2593	0.15621	0.034833	0.26511	0.035481	0.10306	0.39296	0.12834	0.15341	0.09508	-0.30417	-0.98958	0.029167	-1.2667	-0.57083	-0.25625	-0.99792	-0.3	-0.75208	-1.1562	-0.5125	-0.90417	-0.90625	-0.38333	-1.2625	-0.45625	283.211	515.604	417.190	219.473	470.306	503.518	440.760	452.109	469.252	375.551	485.958	401.277	174.504	177.800	238.972	213.578	0.00084311	0.0014842	0.00029958	932.84	6.0281e-06	5.1112e-06	498.19	332.15	5.1342e-06	3.9282e-06	192.34	91.602	153.72	80.182	1.0012e-05	49.704	0.012322	0.015679	0.0044383	1023.4	0.00016616	0.00017658	611.14	360.37	0.00016645	0.00017641	254.4	111.12	168.41	84.803	0.00017087	58.229	181.074	294.330	287.479	186.529	349.461	422.640	183.814	191.683	246.711	225.669	188.419	191.182	194.937	198.577	440.301	194.846	-8191	255	
7225.872	1	1	0	0	0.043072	0.073469	0.12388	0.25775	0.3243	0.039791	0.17357	0.23654	0.11437	0.11094	0.16508	0.041264	0.34826	0.24467	0.2289	0.13167	-0.38958	-1.0542	-0.18125	-1.3354	-0.63125	-0.13542	-1.2604	-0.57083	-0.52083	-1.0771	-0.2125	-0.85417	-0.96042	-0.30208	-0.94375	-0.34583	251.652	408.037	358.936	458.488	468.451	183.062	207.712	466.455	434.973	378.050	310.940	341.554	202.799	199.196	509.653	505.244	0.0006817	0.001572	0.00020739	933.24	6.1954e-06	1.2788e-05	499.01	332.07	2.2463e-05	7.4289e-06	193.05	92.91	153.99	80.141	7.5173e-06	49.988	0.01243	0.015647	0.0043856	1019.9	0.00016438	0.00017242	611.73	358.66	0.00016105	0.00017107	253.93	110.95	168.23	84.738	0.00016602	58.476	517.979	211.922	365.719	186.336	281.507	497.749	184.210	191.192	224.316	432.697	188.097	191.159	195.255	198.709	337.581	194.820	-8191	255	
7225.966	1	1	0	0	0.39852	0.084927	0.14633	0.37284	0.26146	0.12392	0.33183	0.16637	0.16516	0.22046	0.1655	0.086106	0.15978	0.26133	0.27622	0.15875	-0.17708	-0.88958	-0.175	-0.82917	-0.8875	-0.2125	-1.1771	-0.56458	-0.47917	-1.0542	-0.4125	-0.92083	-0.93542	-0.29167	-1.0396	-0.62708	363.742	487.596	340.004	491.920	353.380	326.012	464.747	513.951	239.907	430.361	433.937	423.109	512.298	484.084	392.398	474.232	0.00051648	0.0011046	0.00031171	941.01	2.3811e-06	1.1108e-05	507.2	334.48	9.9309e-06	1.1216e-05	192.12	90.686	152.46	79.283	7.8519e-06	49.195	0.012142	0.01537	0.004322	1027.4	0.0001614	0.00017086	617.61	359.47	0.00015874	0.00016705	252.48	109.18	166.15	83.648	0.00016057	57.272	513.348	281.294	317.473	186.563	446.794	314.958	184.375	191.543	186.127	467.104	187.993	191.460	194.905	198.737	336.424	194.777	-8191	255	
7226.063	1	1	0	0	0.18332	0.11774	0.11076	0.13806	0.07533	0.24457	0.014238	0.21824	0.093691	0.17132	0.11659	0.1541	0.25306	0.20927	0.048738	0.27053	-0.095833	-0.97292	-0.20208	-0.86667	-1.05	-0.24792	-0.97083	-0.85625	-0.24167	-0.95833	-0.42917	-0.59167	-1.075	-0.36875	-0.93958	-0.8625	252.748	531.664	294.781	510.782	434.438	188.207	504.841	493.538	320.743	279.318	508.102	229.043	473.598	493.450	409.115	399.211	0.00082783	0.00044814	5.0289e-05	941.75	6.3573e-06	8.0281e-06	501.26	329.41	5.2245e-06	1.8021e-05	188.52	89.527	150.7	78.679	1.9367e-05	48.45	0.01169	0.014857	0.0042064	1022.5	0.00015592	0.00016461	607.43	355.1	0.00015435	0.00016371	246	106.99	164.35	82.941	0.00015855	56.569	512.043	494.327	427.093	186.255	376.273	303.573	184.389	191.130	307.382	421.108	188.422	191.263	195.260	198.967	288.904	194.768	-8191	255	
7226.159	1	1	0	0	0.39443	0.39641	0.23839	0.21844	0.17817	0.12317	0.1049	0.16844	0.18704	0.11913	0.24459	0.20283	0.3491	0.32264	0.20526	0.091106	0.1	-0.82292	-0.29792	-0.56458	-0.975	-0.28958	-1.0604	-0.84792	-0.25625	-1.0229	-0.4875	-0.41875	-1.2333	-0.30208	-0.73542	-0.97708	517.552	407.155	389.355	431.346	379.232	289.756	437.451	489.228	268.778	230.865	391.990	376.477	517.763	529.687	263.061	459.331	0.00067602	0.0012143	0.00035438	957.96	1.7471e-06	1.0563e-06	514.12	331.53	1.8652e-05	4.1659e-06	190.63	89.661	152.4	79.774	8.8257e-06	48.984	0.011654	0.014775	0.0041406	1039.2	0.00015548	0.00016399	615.65	356.13	0.00015463	0.00016436	248.16	107.63	165.51	83.825	0.0001581	57.055	184.650	262.249	200.093	186.815	191.078	454.921	184.422	191.252	338.084	516.582	188.262	191.400	195.161	198.792	297.913	194.515	-8191	255	
7226.279	1	1	0	0	0.219	0.17042	0.092692	0.35485	0.12328	0.10926	0.32358	0.34519	0.1797	0.094064	0.27641	0.31419	0.19905	0.29137	0.15409	0.21443	-0.04375	-1.0229	-0.59375	-0.61875	-0.95	-0.33333	-0.80625	-0.87083	-0.03125	-1.1729	-0.55625	-0.22917	-1.3	-0.33542	-0.67917	-1.0396	310.522	362.603	459.647	480.298	283.776	286.590	487.583	451.372	292.066	504.555	315.692	526.169	476.677	515.266	433.054	462.175	0.00072812	0.00019888	0.00034654	972.61	2.5032e-06	1.59e-05	521.31	332.74	8.9957e-06	2.9069e-05	190.76	89.387	152.41	79.398	9.6502e-06	49.436	0.011541	0.014604	0.0040875	1050.7	0.00015275	0.00016229	620.15	355.95	0.00015152	0.00016037	246.45	106.84	164.7	83.521	0.00015711	57.087	523.759	239.933	403.296	186.362	412.215	394.698	184.584	191.383	317.482	395.718	187.818	191.638	195.204	198.819	312.866	194.855	-8191	255	
7226.375	1	1	0	0	0.26858	0.22058	0.071535	0.31482	0.22004	0.079009	0.14683	0.28537	0.22027	0.1713	0.35876	0.23526	0.25891	0.20389	0.34721	0.15779	0.10417	-1.1833	-0.64583	-0.38333	-1.1146	-0.40208	-0.77083	-1.1521	-0.31042	-1.1917	-0.85	-0.19583	-1.1146	-0.47083	-0.38958	-1.0167	325.668	522.493	509.088	522.649	240.932	444.874	191.488	194.999	404.835	286.302	430.306	481.767	508.361	525.962	179.922	476.127	0.00074685	0.0019699	0.00035816	975.13	1.4451e-05	9.5526e-06	520.82	332.73	1.3996e-06	2.1734e-05	191.78	89.839	151.31	79.252	2.1171e-05	49.726	0.011532	0.014731	0.0041495	1056.8	0.00015654	0.00016541	625.75	357.89	0.00015709	0.00016659	249.25	107.77	165.74	83.791	0.0001602	57.517	176.226	253.969	208.450	186.471	343.648	365.536	184.954	191.469	295.778	453.969	188.295	191.584	195.129	198.494	400.885	194.968	-8191	255	
7226.472	1	1	0	0	0.26919	0.20591	0.13592	0.20474	0.22399	0.17346	0.068266	0.072018	0.21343	0.2033	0.091792	0.25674	0.12017	0.070007	0.13181	0.1891	0.25833	-0.76875	-0.62292	-0.35833	-1.0458	-0.46875	-0.25625	-1.1625	-0.095833	-0.73542	-0.89167	-0.23542	-1.0229	-0.76042	-0.23333	-1.2354	414.178	302.069	379.819	203.081	211.104	347.603	386.966	476.257	512.206	234.032	484.196	485.598	522.129	239.054	488.835	194.436	0.00057297	0.0010214	0.00011996	982.79	1.616e-05	1.1611e-05	527.28	336.45	9.4978e-06	8.0875e-06	192.53	91.437	154.69	80.855	1.5949e-06	49.937	0.011599	0.014841	0.0041388	1062.9	0.00015616	0.00016476	628.94	359.98	0.00015488	0.0001645	249.82	109.07	167.58	84.989	0.00015919	57.927	510.720	202.335	511.133	186.336	239.199	330.240	184.583	191.744	382.711	385.125	188.488	191.791	195.310	198.711	429.112	194.928	-8191	255	
7226.568	1	1	0	0	0.24742	0.12894	0.12958	0.18902	0.14881	0.16948	0.32798	0.085118	0.19057	0.15867	0.16684	0.24512	0.2185	0.13495	0.085903	0.14366	0.13542	-0.71042	-0.93125	-0.30417	-0.95833	-0.70833	-0.29375	-1.2167	-0.34375	-0.65208	-0.82083	-0.24167	-1.1354	-0.87292	-0.32708	-1.3354	475.290	274.660	197.953	471.010	384.123	413.879	502.281	308.491	472.616	268.937	486.478	177.647	500.300	277.964	327.044	403.815	0.00047437	0.001379	0.00041926	985.55	9.9853e-06	1.3557e-05	521.85	335.62	5.5551e-06	1.3806e-05	191.3	91.401	155.82	81.433	1.4955e-05	50.21	0.011588	0.014642	0.0041078	1063.6	0.000155	0.00016358	623.63	360.96	0.00015395	0.0001635	248.49	108.65	168.3	85.447	0.00015737	57.949	499.212	350.274	201.729	186.592	508.352	406.946	184.475	191.704	325.047	174.197	188.230	191.501	195.362	198.738	301.407	194.938	-8191	255	
7226.664	1	1	0	0	0.17195	0.14263	0.26666	0.16357	0.24063	0.30109	0.25935	0.48966	0.21769	0.13338	0.1059	0.20401	0.16115	0.22113	0.40236	0.050692	0.022917	-0.5875	-1.1292	-0.38333	-1.1375	-0.84167	-0.36458	-1.1854	-0.45833	-0.51458	-1.2271	-0.31667	-0.88333	-1.1313	-0.17083	-0.99583	184.308	475.189	285.679	178.360	479.998	395.346	496.685	514.101	192.052	208.306	398.844	216.433	465.797	240.623	190.281	492.335	0.00063521	0.0016024	9.6112e-05	987.21	1.4855e-05	1.7603e-05	524.05	337.79	1.1101e-05	2.2155e-06	195.28	92.824	157.6	82.5	1.3781e-05	51.14	0.011475	0.014573	0.0040734	1061.2	0.00015343	0.000162	625.51	362.46	0.00015364	0.00016251	250.68	110.31	170.17	86.596	0.0001561	59.078	524.256	373.790	190.368	186.421	298.792	356.961	184.790	191.471	310.214	359.900	188.807	191.551	195.554	198.808	335.445	194.986	-8191	255	
7226.760	1	1	0	0	0.12021	0.25403	0.032884	0.16467	0.19195	0.14171	0.046146	0.26739	0.16686	0.25938	0.062003	0.17079	0.13263	0.30298	0.10524	0.16113	-0.047917	-0.41667	-1.2104	-0.25625	-0.67292	-0.9125	-0.23542	-1.2313	-0.59583	-0.27708	-1.1875	-0.45417	-0.98542	-1.3042	-0.1875	-1.3312	528.041	417.770	449.843	466.105	291.321	452.421	301.506	216.220	524.179	307.538	247.573	203.140	499.427	188.366	251.771	410.661	0.00075488	0.00042697	0.00022836	980.08	8.1077e-06	2.1894e-05	523.67	336.91	1.4074e-05	1.7409e-05	194.7	92.519	155.96	81.8	1.2094e-05	51.133	0.011423	0.014539	0.0040707	1058	0.00015428	0.00016349	624.48	361.52	0.00015447	0.00016407	251.36	110.04	169.38	85.9	0.00015808	58.938	528.846	304.032	193.138	186.541	529.395	521.543	184.183	191.617	297.250	297.852	188.893	191.473	195.214	198.803	210.273	195.397	-8191	255	
7226.879	1	1	0	0	0.20468	0.13516	0.11586	0.34457	0.14594	0.12889	0.25057	0.15193	0.16047	0.1332	0.17007	0.30779	0.26813	0.080575	0.16728	0.013617	-0.35	-0.33542	-1.0479	-0.42708	-0.63125	-1.0229	-0.33542	-1.2375	-0.81458	-0.20208	-1.0854	-0.42292	-0.725	-1.4021	-0.20625	-1	359.812	267.174	427.217	216.669	211.894	460.261	511.075	174.238	444.554	520.797	421.784	192.438	179.118	384.750	432.976	367.953	0.00052447	0.00083846	9.1439e-05	978.08	5.608e-06	1.4381e-05	523.98	337.98	1.9702e-05	1.6115e-05	199.66	93.04	155.97	81.655	1.0526e-05	51.231	0.011566	0.014658	0.0040881	1057.7	0.00015413	0.00016326	626.47	362.38	0.00015261	0.00016241	253.17	110.59	168.97	85.729	0.00015702	58.868	176.319	244.666	257.431	186.506	282.349	177.754	184.803	191.662	250.700	256.126	187.991	191.680	195.108	198.895	306.813	195.201	-8191	255	
7226.975	1	1	0	0	0.20332	0.18415	0.12761	0.13822	0.11919	0.19706	0.10527	0.22365	0.047485	0.24181	0.30987	0.16491	0.18008	0.31018	0.075192	0.33141	-0.6625	-0.28958	-1.125	-0.40208	-0.27292	-0.9125	-0.37083	-0.97708	-1.1875	-0.083333	-1.1708	-0.6	-0.53958	-1.3583	-0.28125	-0.90833	505.747	403.747	518.238	390.984	512.624	205.821	385.600	234.468	224.716	341.188	385.049	181.856	181.222	514.816	497.026	502.195	0.00085777	0.0020065	0.00025927	979.72	1.4909e-05	4.3487e-06	520.24	335.08	1.4717e-05	7.0162e-06	191.55	91.72	154.33	81.241	1.9438e-05	50.287	0.011515	0.014517	0.0040858	1057.8	0.00015572	0.00016378	621.42	359.98	0.00015507	0.00016555	249.71	109.54	168.13	85.449	0.00016005	58.426	183.740	256.644	308.509	186.508	230.123	218.102	184.364	191.412	307.431	423.340	188.443	191.699	195.070	198.844	237.315	194.766	-8191	255	
7227.071	1	1	0	0	0.14678	0.013683	0.25607	0.33856	0.20643	0.074564	0.21498	0.1739	0.18725	0.2372	0.083538	0.21142	0.018895	0.042069	0.12198	0.35235	-0.75833	-0.1125	-0.98333	-0.92917	-0.125	-1.1083	-0.44792	-0.78125	-1.0667	-0.045833	-0.94792	-0.725	-0.27708	-1.3375	-0.34375	-0.625	372.392	368.613	354.734	493.134	401.522	457.098	208.094	217.207	230.210	230.718	514.699	480.777	441.985	453.089	407.197	417.055	0.00067873	0.0010716	0.00054191	968.42	1.8638e-05	1.4082e-05	516.76	332.24	8.6622e-06	5.1335e-06	192.03	91.655	153.92	81.419	7.5332e-06	50.766	0.011527	0.01466	0.0040784	1046.6	0.00015308	0.00016022	615.18	357.11	0.00015061	0.00015887	247.91	108.72	167.4	85.273	0.00015274	58.418	499.649	360.623	381.988	186.755	240.939	202.469	184.253	191.606	301.667	231.650	188.103	191.455	195.062	198.596	442.896	194.986	-8191	255	
7227.143	1	1	0	0	0.18082	0.26303	0.1839	0.062711	0.19717	0.11237	0.29301	0.053338	0.10083	0.1761	0.22309	0.13618	0.26595	0.21711	0.21952	0.044019	-0.70625	-0.11458	-1.0938	-0.84583	-0.125	-1.2542	-0.325	-0.65417	-1.0146	-0.24167	-0.88958	-0.85833	-0.42708	-1.4667	-0.54375	-0.36042	442.220	426.981	278.121	368.433	175.331	286.883	510.731	469.648	183.118	355.529	526.714	487.989	508.004	500.143	190.944	279.721	0.00064277	0.0012483	0.0004623	969.51	1.4979e-05	1.1262e-05	522.61	335.58	1.1217e-05	8.5085e-06	195.21	92.543	155.63	81.155	7.7861e-06	51.044	0.011132	0.014104	0.0039584	1044.9	0.00014809	0.00015674	617.93	358.2	0.00014825	0.00015656	248.94	109.33	167.58	85.123	0.00015223	58.62	517.994	247.515	282.777	186.459	310.313	455.280	184.542	191.587	325.049	310.603	187.995	191.772	195.328	198.502	283.466	194.996	-8191	255	
7227.264	1	1	0	0	0.33543	0.23634	0.23129	0.22439	0.10459	0.2438	0.059769	0.31585	0.11939	0.20732	0.35622	0.081653	0.16061	0.39583	0.17299	0.16244	-0.65833	-0.029167	-0.81875	-0.99792	-0.16458	-1.1979	-0.65208	-0.60208	-1.1458	-0.37917	-0.7	-1.0542	-0.23958	-1.2792	-0.49583	-0.44583	227.455	407.254	431.217	482.793	337.335	409.041	531.788	495.315	421.139	216.700	462.508	491.009	271.335	186.292	449.126	416.342	0.00077709	0.0022675	0.00054463	975	1.2801e-05	1.047e-05	520.67	336.64	1.0778e-05	2.74e-05	194.15	93.521	155.23	81.412	1.8111e-05	51.222	0.011132	0.014309	0.0039947	1049.7	0.00014986	0.00015918	621.96	359.34	0.00014975	0.00016114	250.15	110.3	167.78	85.449	0.00015559	58.763	179.336	290.533	380.688	186.606	330.598	276.440	184.262	191.514	231.201	289.040	188.830	191.454	195.002	198.620	211.273	195.197	-8191	255	
7227.360	1	1	0	0	0.13431	0.34676	0.14324	0.14086	0.20692	0.086861	0.22598	0.076899	0.11608	0.16853	0.030719	0.19814	0.16035	0.35855	0.1142	0.33055	-0.74583	-0.28333	-0.56667	-1.2292	-0.095833	-1.2229	-0.7625	-0.64167	-0.96875	-0.34792	-0.67917	-1.0104	-0.25417	-1.275	-0.72292	-0.0875	174.122	437.780	271.309	175.605	398.266	317.429	517.745	430.219	412.712	180.133	310.275	197.521	524.395	530.222	454.046	460.362	0.00096102	0.0010993	0.00055873	972.52	2.1897e-06	4.8483e-06	522.88	334.78	7.2798e-06	1.1302e-05	196.74	93.022	154.55	81.399	1.4564e-05	51.439	0.011402	0.01452	0.0040689	1050.4	0.00015296	0.00016242	624.54	359.1	0.00015273	0.0001627	252.6	110.52	167.61	85.503	0.00015674	59.168	523.359	304.048	267.016	186.425	496.641	190.437	184.296	191.482	342.985	333.823	188.217	191.435	194.950	198.742	256.747	194.705	-8191	255	
7227.456	1	1	0	0	0.12468	0.24181	0.20076	0.14235	0.054	0.16499	0.25311	0.08943	0.17253	0.082297	0.16819	0.26889	0.069727	0.27469	0.12497	0.11288	-0.7375	-0.38333	-0.35625	-0.93333	-0.12083	-0.91458	-0.84375	-0.2375	-1.0333	-0.51458	-0.37292	-1.3	-0.3	-1.075	-0.96875	-0.25	390.584	499.308	410.584	186.364	194.338	377.203	270.406	199.269	412.332	296.862	349.258	419.966	178.764	475.801	529.420	445.006	0.00051623	0.0013671	0.00043529	973.77	4.0869e-06	1.0118e-05	518.76	332.24	7.3238e-06	1.0123e-05	190.86	90.306	153.06	80.982	3.3739e-05	50.148	0.011515	0.014628	0.0041511	1052.4	0.00015581	0.00016615	621.68	357.43	0.00015641	0.00016779	249.72	109.08	167.29	85.407	0.00016659	58.749	527.378	274.135	315.801	186.453	364.291	207.000	184.677	191.502	226.453	491.570	188.324	191.448	194.943	198.897	251.886	194.913	-8191	255	
7227.552	1	1	0	0	0.1361	0.1609	0.070018	0.17784	0.14395	0.2289	0.19904	0.19852	0.36402	0.18159	0.13995	0.29617	0.26812	0.25553	0.306	0.063481	-0.88125	-0.51042	-0.3875	-1.0958	-0.17292	-0.59583	-1.025	-0.32917	-1.1562	-0.52917	-0.25	-1.2687	-0.5125	-0.90417	-0.72917	-0.30625	262.435	336.367	233.563	410.681	314.654	312.700	251.463	455.838	182.553	249.857	304.385	489.806	453.877	510.634	406.283	182.598	0.00072314	0.00090876	9.2907e-05	961.29	4.1404e-06	1.4996e-05	507.94	329.08	6.8086e-06	1.9137e-05	187.35	90.014	152.16	80.531	1.4913e-05	50.337	0.012297	0.015742	0.0044001	1051.7	0.00016638	0.00017568	618.68	357.53	0.00016586	0.00017555	249.82	108.67	166.81	85.041	0.00016455	58.712	526.676	386.794	193.471	186.335	175.788	317.414	184.318	191.570	224.978	456.029	188.487	191.458	194.893	198.905	318.483	195.023	-8191	255	
7227.671	1	1	0	0	0.17845	0.10082	0.23642	0.42337	0.20225	0.056737	0.092343	0.26809	0.19563	0.20011	0.26466	0.30378	0.20804	0.12856	0.064429	0.13662	-0.57083	-0.74375	-0.28542	-1.2	-0.35833	-0.5625	-1.2271	-0.29167	-1.0292	-0.78958	-0.18333	-1.2271	-0.61667	-0.79792	-0.95208	-0.22083	244.650	242.004	218.895	520.044	240.255	173.864	531.610	221.121	420.823	250.025	524.186	203.907	194.892	213.817	344.799	440.919	0.0005179	0.00036592	0.00019718	969.89	1.453e-05	1.0329e-05	515.32	333.09	4.8264e-06	8.4506e-06	192.88	92.053	153.46	81.297	7.6477e-06	51.311	0.011946	0.015048	0.0042438	1051	0.00015798	0.00016694	622.04	359.07	0.00015775	0.00016617	251.91	110.08	167.55	85.562	0.00015979	59.094	525.623	204.467	372.307	186.592	351.547	187.472	184.538	191.697	365.555	393.158	188.133	191.648	194.951	198.965	352.779	194.874	-8191	255	
7227.744	1	1	0	0	0.1284	0.22059	0.28194	0.16998	0.18178	0.4924	0.19094	0.62851	0.13142	0.29778	0.1394	0.17101	0.050318	0.36402	0.10654	0.025677	-0.39583	-0.7625	-0.37292	-1.2021	-0.45	-0.42917	-1.2854	-0.34167	-0.72292	-1.1458	-0.33542	-1.0271	-0.71667	-0.72292	-1.0604	-0.38542	258.558	520.605	367.961	531.534	222.995	351.193	444.592	522.009	519.581	446.280	494.030	421.286	409.041	526.501	412.005	248.371	0.00039862	0.00085392	0.00041364	975.99	1.0976e-05	1.0448e-05	520.86	336.37	8.2799e-06	9.4975e-06	194.62	92.583	155.76	81.874	1.0373e-05	51.804	0.01171	0.014853	0.0041741	1053.8	0.00015747	0.00016655	626.31	360.89	0.00015709	0.00016625	254.32	111.13	169.11	86.255	0.0001613	59.945	174.157	253.896	179.237	186.465	305.920	439.953	184.244	191.460	359.546	335.449	188.839	191.317	194.768	198.773	196.600	194.607	-8191	255	
7227.840	1	1	0	0	0.15972	0.39594	0.14301	0.22415	0.093703	0.095612	0.23591	0.28269	0.20401	0.15467	0.034888	0.18022	0.14715	0.037905	0.095204	0.19547	-0.24583	-0.99583	-0.077083	-0.85208	-0.46042	-0.2375	-1.1729	-0.46042	-0.475	-0.90208	-0.25625	-1.2167	-0.81458	-0.36667	-1.0042	-0.475	310.750	414.130	275.430	224.254	267.520	215.037	454.995	452.714	398.484	175.424	389.129	274.696	276.297	525.307	238.642	362.167	0.00091727	0.0015568	0.00053715	977.49	8.8538e-06	3.5657e-06	529.07	335.25	1.5314e-05	6.0315e-06	196.6	92.963	154.64	81.799	3.3652e-06	51.522	0.011814	0.014883	0.0041762	1059.9	0.00015653	0.00016589	632.14	361.01	0.00015605	0.00016594	254.08	111.31	168.34	86.011	0.00015959	59.644	185.116	228.586	468.930	186.325	531.175	424.091	184.730	191.353	264.758	301.829	188.371	191.702	194.956	198.850	287.667	194.740	-8191	255	
7227.959	1	1	0	0	0.052504	0.26626	0.21509	0.21696	0.16433	0.21883	0.073481	0.1253	0.11485	0.090157	0.14028	0.13299	0.26604	0.40095	0.14425	0.029933	-0.26875	-1.1125	-0.1	-1.15	-0.83125	-0.1	-1.1042	-0.58958	-0.5	-0.99792	-0.325	-0.88333	-1.0479	-0.35833	-1.1063	-0.60833	251.697	369.836	383.538	504.784	310.018	214.232	431.870	289.587	304.031	254.841	461.679	368.857	481.416	189.406	276.769	296.439	0.00094211	0.0017475	0.00048758	978.57	1.1906e-05	1.1756e-05	516.25	332.71	2.6999e-06	7.6854e-06	192.61	92.241	154.23	81.29	6.0554e-06	51.078	0.011653	0.014808	0.0041567	1055.6	0.00015656	0.00016601	623.29	359.01	0.00015762	0.00016596	250.84	110.09	167.88	85.638	0.00016047	59.161	174.789	200.168	268.648	186.487	235.561	188.053	184.285	191.311	184.722	501.359	188.558	191.743	194.936	198.749	375.007	194.667	-8191	255	
7228.055	1	1	0	0	0.071901	0.046294	0.095987	0.13362	0.092926	0.2319	0.22722	0.23795	0.17866	0.24912	0.21892	0.092878	0.20494	0.40843	0.039158	0.15004	0.022917	-1.2417	-0.31667	-1.0417	-1.125	-0.40625	-1.2208	-0.84583	-0.30208	-1.2375	-0.1375	-0.67083	-1.1896	-0.39375	-1.1167	-0.86875	404.581	458.333	391.903	488.514	325.379	515.404	461.344	456.909	199.219	187.667	451.131	391.334	469.470	485.536	425.776	437.924	0.00070414	0.0023126	0.00040099	969.66	1.799e-05	3.1821e-06	520.57	333.71	9.6407e-06	2.435e-05	192.51	91.685	154.47	81.312	4.7477e-06	50.668	0.011778	0.015016	0.0041978	1054.5	0.00015786	0.00016881	625.02	359.52	0.00015787	0.00016695	251.19	109.91	168.28	85.448	0.00016343	58.939	180.026	531.939	328.189	186.611	402.229	305.391	184.364	191.354	410.705	314.075	188.078	191.511	195.060	198.790	180.555	195.015	-8191	255	
7228.152	1	1	0	0	0.24044	0.082224	0.091168	0.21541	0.3083	0.24404	0.052862	0.40769	0.055422	0.43695	0.23195	0.088955	0.17213	0.16383	0.21581	0.1118	-0.0875	-1.1812	-0.23333	-0.76875	-0.95417	-0.11875	-1.0833	-0.83333	-0.35417	-1.1562	-0.44583	-0.575	-1.0812	-0.3375	-0.86875	-0.7625	252.223	483.886	327.273	438.146	220.317	215.683	439.611	474.143	423.544	443.924	487.518	436.461	245.761	492.083	234.676	313.473	0.00068459	0.0005298	0.00067972	976.29	1.7696e-05	6.281e-06	524.1	333.39	2.4682e-06	1.846e-05	193.07	92.436	155.13	81.231	1.3315e-05	51.665	0.011871	0.015057	0.0042177	1056.7	0.00015892	0.00016828	625.9	359.68	0.00015731	0.00016799	252.48	110.65	168.66	85.808	0.00016252	59.575	180.460	243.603	376.455	186.428	359.332	433.597	184.590	191.373	484.774	284.866	188.548	191.521	195.017	198.689	266.980	194.919	-8191	255	
7228.272	1	1	0	0	0.15316	0.055134	0.21609	0.063187	0.104	0.081257	0.0087224	0.30485	0.24815	0.15625	0.095404	0.16363	0.14299	0.24746	0.26084	0.20365	0.0625	-1.475	-0.36667	-0.65	-1.1375	-0.39583	-0.80625	-1.0146	-0.075	-1.1375	-0.675	-0.43125	-1.3333	-0.50417	-0.76042	-1.0667	486.689	373.548	460.207	227.179	514.380	347.613	341.523	524.747	465.410	437.796	357.695	445.820	519.808	506.487	517.634	439.367	0.00071413	0.00077731	0.00044233	976.47	9.2959e-06	1.2952e-05	525.14	333.79	5.2639e-06	1.0522e-05	194.6	93.152	155.16	81.983	1.3649e-05	52.172	0.011849	0.015076	0.0042211	1058	0.00015784	0.00016829	630.11	360.18	0.00015658	0.00016656	253.97	111.65	168.89	86.119	0.00016086	59.982	528.407	256.210	442.116	186.557	309.472	271.144	184.749	191.349	486.238	194.711	188.252	191.582	195.044	198.704	291.813	194.520	-8191	255	
7228.368	1	1	0	0	0.209	0.032504	0.10549	0.25778	0.16457	0.1074	0.13886	0.19983	0.10222	0.19427	0.13754	0.068679	0.29042	0.25045	0.20669	0.19468	0.17083	-0.95625	-0.58958	-0.56875	-1.2417	-0.41667	-0.69167	-1.2812	-0.19583	-1.0646	-0.94583	-0.35	-1.4438	-0.66667	-0.52083	-1.2229	525.484	444.618	475.014	428.420	332.077	415.534	358.484	532.412	265.087	269.771	509.870	492.821	244.345	445.231	493.918	313.799	0.00065189	0.0014727	0.00037968	979.54	4.1125e-06	1.5207e-05	531.61	336.13	1.0458e-05	1.9535e-05	194.63	92.811	155.01	81.371	1.4514e-05	51.26	0.011702	0.014917	0.0041802	1060.6	0.00015823	0.00016628	632.43	361.38	0.00015822	0.00016745	253.77	111.18	168.54	85.658	0.00016228	59.452	514.201	517.785	178.693	186.534	251.422	381.125	184.428	191.184	463.548	400.428	188.054	191.489	195.290	198.682	300.464	194.987	-8191	255	
7228.440	1	1	0	0	0.22943	0.12883	0.21259	0.11839	0.12506	0.21042	0.10306	0.19078	0.19718	0.36063	0.23056	0.42586	0.14049	0.28764	0.17833	0.12115	0.22708	-0.76875	-0.62292	-0.44167	-1.0125	-0.46458	-0.37292	-1.1208	-0.21458	-0.7875	-0.83958	-0.30833	-1.1125	-0.88958	-0.27083	-1.2208	206.089	175.511	467.589	429.656	265.639	510.844	525.889	494.192	250.014	497.747	427.271	473.271	342.730	467.439	242.747	245.627	0.00066132	0.00087042	0.00019069	974.7	2.3252e-05	1.853e-05	521.48	335.11	1.1077e-05	1.4892e-05	194.08	92.773	155.08	81.749	5.8068e-06	51.607	0.011764	0.014873	0.0041788	1054.8	0.00015679	0.00016605	622.36	359.69	0.00015589	0.00016533	252.17	110.86	168.77	85.888	0.00015991	59.719	181.295	499.156	241.152	186.620	401.664	297.046	185.006	191.468	348.820	185.736	187.975	191.186	195.072	198.767	230.485	195.126	-8191	255	
7228.561	1	1	0	0	0.24221	0.15872	0.22078	0.22423	0.071677	0.14088	0.075575	0.59893	0.1466	0.13318	0.17083	0.082404	0.21905	0.1936	0.070219	0.22045	0.15208	-0.80417	-0.92292	-0.27292	-0.99375	-0.52083	-0.46042	-1.4625	-0.31667	-0.73333	-1.0625	-0.3125	-1.1208	-0.79792	-0.21667	-1.3813	268.844	438.256	444.943	494.293	480.660	406.893	497.216	461.103	398.473	297.570	280.623	268.237	491.058	468.067	462.765	507.309	0.00078016	0.0019144	0.0006352	978.11	8.4825e-06	9.0067e-06	526.99	338.9	1.2946e-05	2.016e-05	198.51	96.068	157.65	83.402	9.9509e-06	53.234	0.01185	0.014923	0.0042134	1057	0.0001572	0.0001664	629.56	363.69	0.00015643	0.00016539	256.02	113.14	171.17	87.435	0.00015905	61.134	524.205	275.559	206.918	186.506	322.121	364.549	184.467	191.544	377.869	263.720	188.511	191.599	195.081	198.609	282.999	195.036	-8191	255	
7228.657	1	1	0	0	0.2009	0.19996	0.3284	0.25606	0.039163	0.16039	0.16452	0.097022	0.092991	0.22027	0.093976	0.083978	0.18981	0.11857	0.19196	0.14724	-0.0020833	-0.53542	-1.0042	-0.50417	-0.98542	-0.61458	-0.25625	-1.0458	-0.33958	-0.54792	-1.3083	-0.25	-1.3312	-0.89792	-0.24375	-1.2583	355.306	470.160	508.995	462.599	353.067	466.912	502.945	452.403	427.705	474.910	371.654	199.995	501.372	493.077	506.799	508.472	0.00074273	0.0016746	0.00044016	986.82	9.4377e-06	4.0466e-06	529.13	338.71	1.502e-05	1.6032e-05	199.9	96.063	156.68	82.499	1.9877e-05	53.238	0.011663	0.014757	0.004133	1062.9	0.00015551	0.00016493	631.97	363.91	0.00015378	0.00016264	256.54	113.15	170.5	86.764	0.00015553	60.84	174.205	312.833	365.218	186.448	304.384	373.018	184.473	191.503	333.097	425.842	188.131	191.077	194.779	198.324	323.556	194.940	-8191	255	
7228.751	1	1	0	0	0.1119	0.099336	0.2115	0.088746	0.35743	0.053131	0.061383	0.29841	0.1396	0.17292	0.076552	0.3392	0.11155	0.28934	0.23391	0.22355	-0.083333	-0.38542	-1.0021	-0.325	-0.67708	-0.75625	-0.19792	-1.2583	-0.5125	-0.36042	-1.2292	-0.25208	-1.0146	-1.0063	-0.35	-1.4062	410.689	262.312	368.659	342.368	260.377	281.584	526.579	474.900	490.117	428.628	494.755	465.107	184.017	530.143	454.480	450.074	0.00082557	0.00082071	0.00011888	984.14	5.4676e-06	1.0244e-05	533	340.9	2.5178e-06	1.1444e-05	202.6	96.363	158.41	83.597	5.9172e-06	54.473	0.011364	0.0144	0.0040337	1056.4	0.00015092	0.00015996	631.48	364.16	0.00014977	0.0001571	257.34	113.75	171.01	87.445	0.00015308	61.599	518.777	266.638	474.674	186.198	530.121	314.156	184.287	191.277	316.857	437.256	188.334	191.117	194.743	198.527	278.656	194.828	-8191	255	
7228.847	1	1	0	0	0.12693	0.19772	0.0725	0.30357	0.27421	0.12857	0.25138	0.25139	0.20348	0.10715	0.16351	0.17606	0.10696	0.13328	0.13328	0.10385	-0.24167	-0.3	-1.2563	-0.47917	-0.49167	-0.94583	-0.11875	-0.9875	-0.68542	-0.36042	-1.0688	-0.28542	-0.63542	-1.1729	-0.20625	-0.9375	364.698	318.188	207.150	182.251	318.773	441.822	444.349	467.954	509.731	347.939	328.575	423.259	510.007	505.666	317.721	526.584	0.00072456	0.0018925	0.00037478	984.94	1.2021e-05	4.4477e-06	533.83	340.53	3.5979e-06	2.0977e-05	200.42	96.229	157.32	83.319	7.248e-06	53.25	0.011163	0.01426	0.0040057	1060.1	0.00015089	0.00016016	634.01	364.3	0.00015163	0.00016024	256.19	113.02	170.45	87.13	0.00015447	60.768	175.939	287.497	460.687	186.460	312.696	486.509	184.358	191.435	401.334	212.375	188.223	191.400	195.072	198.707	206.265	195.100	-8191	255	
7228.968	1	1	0	0	0.027042	0.19049	0.21132	0.2318	0.19535	0.17011	0.11459	0.052084	0.1484	0.18899	0.19307	0.20863	0.45101	0.37245	0.03799	0.15782	-0.23958	-0.31458	-1.2083	-0.58125	-0.47292	-1.1812	-0.38958	-1.0229	-1.0063	-0.18958	-1.2958	-0.66458	-0.6125	-1.375	-0.26458	-0.91458	260.322	496.070	413.965	409.434	187.424	474.231	446.987	344.791	305.837	200.550	525.186	530.533	177.794	523.269	489.125	220.989	0.001007	0.00089217	0.00012803	984.78	1.4301e-05	1.2635e-05	524.11	338.63	7.9068e-06	2.0207e-05	197.85	95.076	156.94	82.949	2.5963e-06	52.732	0.011332	0.014424	0.0040521	1057.2	0.00015313	0.00016156	624.35	362.96	0.00015126	0.00016161	254.41	112.17	169.93	86.783	0.0001556	60.234	520.880	484.274	215.741	186.399	302.323	525.812	184.521	191.444	421.601	307.555	188.159	191.347	195.027	198.592	366.054	194.727	-8191	255	
7229.040	1	1	0	0	0.04341	0.047747	0.106	0.34009	0.019471	0.16335	0.29351	0.097135	0.2143	0.15264	0.12287	0.15791	0.18495	0.49818	0.082107	0.12607	-0.51042	-0.3125	-1.1479	-0.64375	-0.50208	-1.1771	-0.4	-0.88958	-0.81667	-0.25208	-1.0417	-0.73542	-0.42292	-1.3854	-0.075	-0.64375	389.463	193.863	456.976	493.329	443.995	179.827	522.805	504.514	400.442	411.131	444.941	529.748	449.995	492.158	424.497	399.423	0.0006275	0.0010375	0.0001161	977.94	2.2575e-05	1.2609e-05	526.43	336.84	1.5482e-05	1.0858e-05	198.01	94.5	156.5	82.809	9.6349e-06	53.043	0.011427	0.014473	0.0040678	1052.8	0.00015203	0.00016158	625.82	361.61	0.00015214	0.00016054	253.4	112.15	169.55	86.582	0.00015525	60.567	518.906	284.119	408.343	186.342	361.204	529.018	184.640	191.482	288.424	247.665	188.109	191.211	194.878	198.709	243.993	194.566	-8191	255	
7229.136	1	1	0	0	0.14308	0.29372	0.16564	0.23721	0.29046	0.15747	0.27014	0.19152	0.36573	0.094266	0.057022	0.14825	0.29325	0.33292	0.086722	0.064946	-0.66875	-0.0041667	-0.95625	-0.81042	-0.46458	-1	-0.43125	-0.63125	-0.97083	-0.40833	-1.0479	-0.68125	-0.22708	-1.2771	-0.35208	-0.67083	509.049	374.330	358.529	475.641	392.645	296.371	394.521	253.037	299.247	484.292	192.588	312.780	199.439	486.035	330.448	523.183	0.00058748	0.0001957	0.00015647	979.25	5.6826e-06	1.1113e-05	534.04	339.25	6.1599e-06	1.3158e-05	203.29	98.101	160.1	84.265	9.6854e-06	55.319	0.011285	0.014379	0.0040167	1050.6	0.00014881	0.00015685	628.2	362.18	0.00014587	0.00015442	256.45	114.29	171.4	87.888	0.00014781	62.368	510.978	424.862	262.864	186.254	180.648	518.550	184.384	191.602	289.796	396.660	188.586	191.174	194.860	198.567	422.205	194.675	-8191	255	
7229.232	1	1	0	0	0.1969	0.057119	0.34849	0.37471	0.10917	0.17404	0.23625	0.24451	0.41747	0.2404	0.36364	0.12539	0.45959	0.35874	0.10781	0.069207	-0.78125	-0.31875	-1.0542	-1.1688	-0.2125	-1.1125	-0.48542	-0.5625	-1.3104	-0.46042	-0.7625	-1.1542	-0.39583	-1.1625	-0.64375	-0.39167	408.416	287.850	502.864	182.990	273.633	268.271	526.806	227.781	213.786	406.289	242.886	473.175	513.806	183.770	390.121	211.240	0.00082421	0.00087322	0.00047594	980.23	5.0291e-06	1.3971e-05	534.57	342.13	1.944e-05	3.4224e-06	205.12	98.719	158.99	84.328	8.6523e-06	55.198	0.010801	0.0137	0.0038665	1050.4	0.00014446	0.00015444	632.51	364.39	0.00014638	0.00015448	258.04	114.67	171.41	87.801	0.00014873	62.343	530.602	391.730	216.875	186.198	243.721	430.190	184.300	191.500	352.463	230.417	188.602	190.976	195.046	198.457	291.513	194.931	-8191	255	
7229.353	1	1	0	0	0.13595	0.12464	0.27347	0.17162	0.20187	0.31284	0.20636	0.38977	0.25814	0.34941	0.37356	0.30037	0.15983	0.24831	0.15419	0.16685	-0.50208	-0.19792	-0.74375	-0.97708	-0.1625	-1.0562	-0.71667	-0.34792	-1.2563	-0.30417	-0.58542	-1.2229	-0.41042	-1.2062	-0.675	-0.49167	500.541	205.032	290.132	481.819	202.268	455.838	355.358	492.485	515.446	292.597	507.103	475.060	338.305	495.407	227.611	196.774	0.00086632	0.0023185	0.00015359	977.45	1.4582e-05	1.4932e-05	537.26	342.04	6.8101e-06	1.2639e-05	202.67	98.342	159.47	83.914	8.1175e-06	54.265	0.010935	0.01395	0.0039056	1051.2	0.00014655	0.00015523	632.44	365.64	0.00014642	0.00015579	257.4	114.43	171.21	87.677	0.00015014	61.477	509.895	322.924	360.875	186.372	186.286	281.965	184.346	191.461	332.130	362.039	187.932	191.345	195.015	198.906	221.827	195.052	-8191	255	
7229.449	1	1	0	0	0.13666	0.077387	0.24721	0.44532	0.10314	0.1778	0.18682	0.15852	0.1265	0.42431	0.17303	0.14964	0.30301	0.21322	0.055902	0.21656	-0.81458	-0.31042	-0.5	-1.2188	-0.22292	-0.89583	-0.85417	-0.40417	-1.0708	-0.3625	-0.61458	-1.1771	-0.42292	-1.0771	-0.94375	-0.32708	405.101	485.214	192.054	486.012	527.791	186.058	396.183	410.015	427.430	333.948	442.692	235.410	528.889	481.157	475.710	497.865	0.00077659	0.0025199	0.00029178	979.23	1.2138e-05	3.6664e-06	533.36	340.63	9.616e-06	2.7519e-05	203.68	98.031	160.02	84.836	1.4663e-05	55.073	0.01102	0.013925	0.0039429	1048.9	0.00014907	0.0001571	626.47	363.93	0.00014848	0.00015723	257.97	115.11	172.51	88.498	0.00015337	62.585	527.407	316.912	527.796	186.545	202.635	419.195	184.919	191.511	313.731	315.790	188.421	191.782	194.975	198.751	241.223	194.618	-8191	255	
7229.545	1	1	0	0	0.20248	0.13362	0.26081	0.084368	0.20201	0.24853	0.18222	0.08846	0.44258	0.090996	0.22569	0.24064	0.35568	0.04628	0.088073	0.28417	-0.58958	-0.39375	-0.50208	-1.3375	-0.18542	-0.98125	-1.1021	-0.31875	-1.225	-0.58333	-0.42917	-1.0708	-0.35208	-0.79375	-0.9125	-0.2125	197.677	232.655	323.665	252.710	274.381	332.917	210.199	407.769	279.785	340.939	365.195	498.579	520.603	363.686	221.339	529.646	0.00056562	0.0012657	0.00032036	969.15	3.8547e-06	6.6178e-06	524.99	338.67	1.1174e-05	1.8974e-05	201.96	97.248	157.3	83.83	1.0796e-05	54.672	0.011321	0.014353	0.0040141	1044.8	0.00015104	0.00016065	624.15	363.21	0.00015298	0.00016143	257.98	114.29	170.63	87.654	0.00015518	62.104	515.022	302.748	221.387	186.645	211.559	401.882	184.343	191.274	233.428	373.961	188.404	191.379	194.724	198.689	335.993	195.262	-8191	255	
7229.641	1	1	0	0	0.14197	0.18697	0.018694	0.24811	0.20997	0.087368	0.056525	0.1443	0.2675	0.054138	0.14047	0.14152	0.19666	0.35662	0.32616	0.23591	-0.4375	-0.74583	-0.32083	-1.3438	-0.3625	-0.70833	-1.1604	-0.35625	-0.95417	-0.69583	-0.17917	-1.2979	-0.28125	-0.72083	-1.0958	-0.32708	298.256	313.945	196.624	176.971	470.478	439.121	442.605	351.823	235.144	516.821	321.929	438.997	194.136	531.953	407.843	508.961	0.00069514	0.0014729	0.00051088	964.99	1.043e-05	1.901e-05	531.61	338.71	8.0404e-06	2.8736e-06	201.73	97.819	158.11	82.966	7.0754e-06	54.023	0.011268	0.014324	0.0040116	1043.2	0.00015122	0.00016074	629.41	363.25	0.00015007	0.00015932	258.54	114.37	170.39	87.086	0.00015548	61.736	181.566	267.682	265.516	186.600	472.372	384.263	184.600	191.601	403.563	495.928	188.483	191.635	194.790	198.882	296.017	194.997	-8191	255	
7229.737	1	1	0	0	0.26366	0.22751	0.061757	0.067484	0.095432	0.21497	0.1736	0.40048	0.18278	0.12893	0.17435	0.18207	0.24059	0.25406	0.0080315	0.1235	-0.44167	-0.65	-0.34375	-1.2188	-0.4	-0.48958	-1.0417	-0.30208	-0.76458	-0.96875	-0.12708	-1.1437	-0.58125	-0.76875	-1.0312	-0.43958	210.411	341.101	425.079	196.804	240.531	278.078	482.766	496.235	476.342	357.603	240.292	242.044	458.125	206.390	473.017	364.708	0.00078258	0.00045637	0.00037436	975.12	1.7751e-05	1.9345e-05	536.03	341.48	1.0729e-05	1.8859e-05	202.43	98.655	157.93	83.577	1.2604e-05	54.172	0.011392	0.014461	0.0040625	1051	0.00015365	0.00016287	636.68	365.5	0.00015316	0.00016236	260.3	115.36	171.62	87.6	0.00015887	62.012	179.792	263.647	242.418	186.561	244.255	330.397	184.398	191.304	258.520	479.666	188.316	191.095	194.772	198.621	349.090	194.901	-8191	255	
7229.833	1	1	0	0	0.14459	0.11908	0.15107	0.26885	0.096062	0.17794	0.217	0.28696	0.20353	0.067519	0.26031	0.14677	0.17027	0.35389	0.1269	0.35395	-0.41667	-0.63542	-0.19167	-1.1167	-0.44583	-0.27083	-1.2125	-0.41875	-0.60417	-1.0187	-0.15625	-1.3021	-0.82292	-0.68542	-1.1896	-0.35833	522.972	402.825	376.109	198.242	204.541	271.481	414.999	488.074	409.840	197.584	182.039	451.742	332.312	484.030	464.326	454.016	0.00069378	0.00025059	0.00011317	967.08	2.4205e-06	9.0337e-06	525.89	336.09	2.338e-06	1.2236e-05	197.69	94.411	154.34	80.736	1.2386e-06	51.864	0.011597	0.014735	0.0041463	1048.7	0.00015596	0.00016647	627.35	361.49	0.00015711	0.00016698	255.4	112.28	168.58	85.633	0.00016291	59.862	174.624	322.682	398.255	186.450	358.835	305.917	184.023	191.460	513.725	423.292	188.728	191.638	195.218	198.973	381.669	194.772	-8191	255	
7229.952	1	1	0	0	0.11692	0.095239	0.22229	0.085481	0.21265	0.28742	0.25655	0.37487	0.1994	0.078394	0.32735	0.22213	0.066917	0.50335	0.067234	0.20725	-0.10208	-0.99583	-0.070833	-0.92083	-0.7375	-0.3875	-1.0625	-0.45625	-0.41875	-0.91458	-0.18333	-0.91875	-0.97292	-0.54167	-1.0708	-0.73333	479.396	330.975	505.834	183.337	188.150	411.874	497.482	488.702	284.669	307.476	413.406	429.866	503.236	204.218	227.768	449.209	0.00070019	0.00046558	0.00041324	962.12	1.6803e-05	7.0678e-06	515.12	333.25	7.7583e-06	6.4963e-06	197.29	94.155	156.13	81.414	1.066e-05	52.402	0.011831	0.015018	0.0042259	1043.4	0.00015836	0.00016714	621.13	358.53	0.0001573	0.00016715	255.32	112.05	169.06	85.725	0.00016103	60.298	513.086	379.555	294.245	186.743	286.634	344.682	184.665	191.375	303.407	285.138	188.157	192.013	195.024	198.877	333.277	194.590	-8191	255	
7230.048	1	1	0	0	0.13704	0.22306	0.2889	0.11332	0.15167	0.20124	0.1958	0.3162	0.12864	0.085495	0.024972	0.092468	0.095028	0.26062	0.10767	0.18583	-0.19375	-1.2708	-0.16875	-0.8875	-0.83333	-0.275	-1.1125	-0.78542	-0.27917	-1.1396	-0.40833	-0.59792	-1.0833	-0.24583	-1.3021	-0.73542	257.732	501.636	241.150	418.584	191.444	290.064	338.303	452.379	389.749	342.522	247.300	473.297	276.736	500.062	466.707	452.864	0.00063141	0.00053271	0.0001947	965.99	4.9227e-06	1.5569e-05	519.77	334.77	3.9867e-06	1.9172e-05	199.76	96.256	155.75	81.768	1.9814e-05	53.12	0.011645	0.014884	0.0041638	1045.7	0.00015645	0.0001661	627.66	360.4	0.00015711	0.00016547	257.49	113.61	169.95	86.068	0.00016128	60.953	507.898	286.944	502.168	186.806	259.160	326.752	184.279	191.588	357.713	329.774	188.266	191.146	195.170	198.956	356.255	194.688	-8191	255	
7230.145	1	1	0	0	0.027272	0.11536	0.24526	0.072094	0.14902	0.044686	0.22278	0.28782	0.074194	0.093702	0.23409	0.13095	0.20745	0.16204	0.17294	0.17543	0.11875	-1.0667	-0.32083	-0.71875	-0.98542	-0.16667	-1.1083	-0.71667	-0.31458	-1.225	-0.54375	-0.69375	-1.1771	-0.40833	-0.95833	-1.0396	460.018	305.511	471.509	340.223	489.304	517.833	453.754	475.076	328.452	419.981	520.514	241.191	464.324	463.778	442.337	479.830	0.00069194	0.0005112	0.00012939	965.23	2.5493e-05	5.6036e-06	527.85	334.92	1.1071e-05	1.2801e-05	201.69	96.77	154.98	82.058	1.94e-05	52.984	0.011688	0.014847	0.0041573	1045.9	0.00015675	0.00016605	630.06	361.19	0.00015537	0.00016536	258.42	114.08	169.25	85.881	0.00015909	60.916	175.798	284.257	393.398	186.589	264.761	369.563	184.699	191.329	287.875	356.902	187.981	191.313	195.103	198.857	337.714	194.960	-8191	255	
7230.241	1	1	0	0	0.038619	0.023564	0.13297	0.20786	0.30598	0.22664	0.081215	0.29468	0.10361	0.11197	0.1269	0.26884	0.16165	0.23361	0.025518	0.2194	0.22083	-1.0521	-0.43958	-0.63542	-1.1063	-0.26042	-0.83958	-0.98125	0.014583	-1.0688	-0.71458	-0.46875	-1.5042	-0.61875	-0.73958	-1.0646	205.014	425.958	401.531	489.050	327.173	304.855	522.124	445.800	299.511	291.194	409.281	496.437	191.643	523.415	310.817	471.811	0.00060605	0.0008787	0.00053008	963.9	9.7819e-06	7.5986e-06	532.17	337.67	7.2087e-06	1.1042e-05	199.33	95.049	155.17	81.016	5.0646e-06	51.884	0.011575	0.014742	0.0041139	1045.5	0.00015538	0.00016459	633.31	361.73	0.00015579	0.00016492	257.55	112.87	168.43	85.153	0.0001597	59.762	519.804	269.992	414.032	186.847	316.370	221.945	184.589	191.380	252.455	460.031	188.225	192.245	195.424	198.902	211.907	194.930	-8191	255	
7230.337	1	1	0	0	0.15843	0.14076	0.10029	0.23809	0.42784	0.087419	0.098438	0.24891	0.22716	0.30833	0.25226	0.19447	0.49381	0.27234	0.26113	0.052424	0.17708	-1.0729	-0.5375	-0.5875	-1.2542	-0.3	-0.84167	-0.99375	-0.00625	-1.2146	-0.61458	-0.4125	-1.3083	-0.54375	-0.73958	-1.1667	293.927	356.416	438.666	425.089	244.098	344.206	201.593	459.919	432.025	259.876	459.436	427.661	531.605	533.263	458.508	340.697	0.00053772	0.0010085	0.00047596	962.43	1.5402e-05	1.2702e-05	519.83	332.92	9.9783e-06	1.3594e-05	193.93	94.334	153.47	81.025	5.9126e-06	52.107	0.011664	0.014807	0.0041761	1040.1	0.00015644	0.00016578	622.74	358.19	0.00015475	0.00016551	253.88	112.05	168.08	85.387	0.00016046	60.034	529.513	296.494	259.479	186.324	338.181	331.554	184.770	191.383	315.643	381.095	188.590	192.081	195.140	198.814	411.927	194.754	-8191	255	
7230.433	1	1	0	0	0.20565	0.082765	0.14919	0.1704	0.28667	0.10385	0.28149	0.22236	0.10642	0.21595	0.22761	0.17771	0.25953	0.40761	0.32235	0.21993	0.23542	-1.1771	-0.80833	-0.3875	-1.2167	-0.39167	-0.57292	-1.175	0.0375	-0.82917	-0.76042	-0.26667	-1.2458	-0.53958	-0.28125	-1.2542	389.449	391.007	360.606	190.611	445.482	365.184	205.590	182.164	401.525	505.647	183.734	178.168	175.117	519.022	289.567	381.140	0.00079567	0.001862	0.00066362	965.28	4.5195e-06	1.2987e-05	528	336.49	2.3288e-05	7.2145e-06	198.66	94.698	155.7	81.706	5.1857e-06	52.644	0.011704	0.014853	0.0041481	1044.1	0.00015777	0.00016503	626.74	361.09	0.00015652	0.00016539	256.35	112.7	169.18	85.867	0.00015975	60.444	524.242	431.677	354.823	186.654	194.690	358.169	184.325	191.527	347.339	205.282	188.762	191.415	194.918	198.633	415.424	194.833	-8191	255	
7230.529	1	1	0	0	0.10885	0.071552	0.13119	0.044707	0.15581	0.079207	0.26041	0.097798	0.09613	0.24364	0.39641	0.1005	0.24964	0.16129	0.11459	0.35465	0.20208	-0.90833	-0.74375	-0.25833	-1.0562	-0.47292	-0.57708	-1.3958	-0.33333	-0.84792	-1.0542	-0.083333	-1.2167	-0.88125	-0.49375	-1.2625	186.436	374.661	363.191	452.098	518.782	327.197	441.560	330.909	305.164	521.989	506.569	224.037	502.770	311.538	412.349	360.747	0.00077561	0.0010134	0.00035558	964.37	4.499e-06	8.7567e-06	523.89	335.53	2.1611e-05	3.9471e-06	199.35	95.675	156.23	81.746	9.6852e-06	53.07	0.01174	0.014891	0.0041931	1045.9	0.00015774	0.00016584	628.19	360.54	0.0001555	0.00016393	256.77	113.01	169.15	85.794	0.00015903	60.907	525.796	450.096	187.958	186.456	501.914	226.276	184.865	191.428	334.612	373.951	188.961	191.623	195.221	198.593	286.716	194.490	-8191	255	
7230.648	1	1	0	0	0.12729	0.1694	0.084365	0.2742	0.21519	0.03937	0.14195	0.13802	0.25875	0.061963	0.14497	0.32007	0.10795	0.092598	0.08002	0.11478	0.047917	-0.57083	-0.90208	-0.15208	-0.95833	-0.64375	-0.43125	-1.2771	-0.27917	-0.62292	-1.1708	-0.30208	-1.15	-0.90417	-0.14792	-1.1167	197.718	214.874	246.743	246.047	209.855	250.312	469.495	499.072	430.083	517.587	184.981	463.849	271.667	349.599	285.083	188.035	0.00053215	0.0012917	0.00048568	961.09	2.468e-05	7.9471e-06	530.55	339.43	1.2965e-05	1.8545e-05	202.69	97.829	157.7	83.126	1.7145e-05	54.408	0.011545	0.014641	0.0041222	1046	0.00015535	0.0001636	635.3	364.21	0.000154	0.00016375	260.99	115.04	170.85	86.96	0.00015823	61.962	529.894	224.186	381.634	186.491	330.894	358.067	184.642	191.738	367.150	316.249	188.171	191.540	195.037	198.628	222.927	195.231	-8191	255	
7230.744	1	1	0	0	0.17735	0.21986	0.14673	0.18546	0.18323	0.12709	0.041379	0.055033	0.29988	0.21785	0.18305	0.22846	0.096346	0.30292	0.12703	0.20388	0.04375	-0.51042	-0.87917	-0.33542	-0.82917	-0.87708	-0.39375	-1.1792	-0.5	-0.52708	-1.1229	-0.40833	-1.0583	-1.0729	-0.21667	-1.125	310.819	370.685	436.821	176.299	195.123	385.768	270.310	520.701	386.337	421.869	439.614	231.488	471.554	201.174	192.196	444.106	0.00060112	0.0014206	0.00057101	971.41	1.3357e-05	9.2032e-06	529.58	339.07	5.466e-06	2.9648e-05	198.33	95.254	154.71	81.482	1.055e-05	52.181	0.011475	0.014603	0.0040989	1050.2	0.00015521	0.00016322	631.43	363.77	0.00015561	0.00016538	257.28	112.78	168.61	85.548	0.00016062	60.064	191.351	258.982	515.762	186.591	328.245	304.619	184.616	191.628	315.430	298.473	188.993	191.503	195.014	198.921	243.649	195.194	-8191	255	
7230.840	1	1	0	0	0.29795	0.34131	0.15347	0.32604	0.10384	0.13554	0.10631	0.2088	0.12076	0.084115	0.2241	0.060512	0.14007	0.2983	0.1157	0.21655	-0.075	-0.16667	-1.0292	-0.41875	-0.92917	-1.1333	-0.29792	-1.2604	-0.77083	-0.3125	-1.1292	-0.34375	-0.94792	-1.1792	-0.21458	-0.89167	332.551	220.114	492.568	511.121	424.401	492.511	493.726	500.610	296.263	444.302	452.035	277.451	445.774	492.945	417.787	481.243	0.00081624	0.00090285	0.00024008	957.1	1.2288e-05	8.8879e-06	513.63	331.72	4.3855e-06	2.1935e-05	194.89	93.333	154.17	80.579	1.3493e-05	51.481	0.011676	0.014865	0.0041339	1041.4	0.00015619	0.00016486	619.02	358.44	0.00015535	0.00016546	253.29	111.11	167.42	84.928	0.00016066	59.475	176.357	266.745	396.244	186.756	259.245	248.900	184.826	191.802	387.210	280.601	188.236	191.748	195.435	198.710	436.204	195.093	-8191	255	
7230.914	1	1	0	0	0.12876	0.13861	0.22743	0.090065	0.1901	0.14104	0.1504	0.081874	0.3594	0.21522	0.10472	0.31645	0.33093	0.24538	0.086099	0.20972	-0.30625	-0.42917	-0.99167	-0.39792	-0.525	-1.2958	-0.0041667	-1.1729	-0.84583	-0.20625	-1.1333	-0.55	-0.80625	-1.0812	-0.2125	-1.0625	298.087	428.569	473.395	184.813	467.498	417.925	246.933	398.619	430.783	269.722	217.121	490.376	200.399	437.973	322.492	182.868	0.00092532	0.0020549	0.0005159	961.29	1.5735e-05	1.5126e-05	517.47	334.88	9.4016e-06	3.998e-06	197.49	94.231	154.52	81.373	4.9051e-06	52.242	0.011751	0.015003	0.0042066	1043.6	0.00015865	0.00016833	622.7	359.71	0.00015719	0.00016673	255.5	112.08	168.62	85.448	0.0001605	60.133	518.457	354.372	248.135	186.685	309.902	287.764	184.341	191.645	271.006	386.211	188.694	191.654	195.462	198.837	213.334	195.477	-8191	255	
7231.033	1	1	0	0	0.078836	0.20407	0.16177	0.20964	0.33662	0.30567	0.17235	0.099136	0.044167	0.10704	0.36041	0.22081	0.27626	0.13357	0.14724	0.19786	-0.46875	-0.13333	-1.0021	-0.54792	-0.45	-1.2229	-0.35417	-0.93542	-0.97292	-0.26875	-1.0917	-0.7125	-0.50208	-1.2729	-0.41875	-0.8375	455.670	280.908	196.602	259.302	392.241	182.998	487.566	397.270	274.404	520.572	519.548	366.856	511.320	324.100	248.770	219.252	0.00091984	0.0005069	0.00045114	962.89	5.6415e-06	6.5235e-06	522.87	336.34	8.9749e-06	1.1241e-05	196.97	95.816	155.63	81.731	1.3565e-05	52.385	0.011825	0.014945	0.0042139	1045.5	0.00015745	0.00016727	627.02	361.95	0.00015688	0.00016712	256.87	113.54	169.54	86.003	0.00016194	60.571	184.427	369.629	202.895	186.590	231.041	300.447	184.588	191.709	287.672	448.989	188.697	191.695	195.267	198.902	187.048	195.676	-8191	255	
7231.129	1	1	0	0	0.26669	0.2147	0.33711	0.32922	0.29206	0.13059	0.2554	0.18836	0.13993	0.20576	0.052896	0.13322	0.159	0.27096	0.11682	0.24949	-0.53333	-0.045833	-0.95625	-0.71458	-0.4	-1.0521	-0.35417	-0.83958	-0.90833	-0.14375	-1.0083	-0.76667	-0.42083	-1.2229	-0.27917	-0.54167	265.752	303.912	402.530	461.760	493.204	234.803	458.554	193.189	458.606	502.635	462.870	390.053	369.207	482.958	422.859	465.735	0.00074486	0.0011789	0.00024205	963.3	1.1251e-05	1.184e-05	522.33	337.1	4.8811e-06	1.921e-05	200.12	96.633	156.5	81.498	6.6872e-06	53.002	0.01177	0.01492	0.004181	1044.5	0.00015828	0.00016716	627.66	361.97	0.00015779	0.00016533	259.14	113.84	169.27	85.815	0.00015836	60.577	175.448	245.627	258.954	186.649	377.615	357.442	184.662	191.472	229.550	329.720	188.365	191.616	195.410	198.870	317.882	195.155	-8191	255	
7231.225	1	1	0	0	0.18382	0.10153	0.25104	0.24854	0.062029	0.23756	0.10292	0.2676	0.18915	0.057907	0.069956	0.22628	0.175	0.19779	0.092755	0.4048	-0.61458	-0.091667	-0.96667	-0.85	-0.30208	-1.0521	-0.56667	-0.64792	-1.1917	-0.058333	-0.83958	-0.80625	-0.16458	-1.3271	-0.525	-0.6375	458.316	285.740	371.067	465.194	193.104	526.799	523.879	492.845	174.267	281.112	212.611	490.960	525.612	521.082	304.022	241.395	0.00083469	0.0006268	6.2409e-05	969.01	7.6627e-06	2.268e-05	519.82	336.74	6.1265e-06	7.5282e-06	198.91	94.825	155.45	81.25	2.571e-06	51.773	0.011578	0.014672	0.0041335	1044.4	0.00015525	0.00016445	623.82	361.01	0.00015569	0.00016504	255.79	112.37	168.66	85.435	0.00015819	59.55	529.828	336.968	495.177	186.638	285.334	351.445	184.769	191.541	259.543	370.387	188.575	191.994	194.892	198.818	203.172	195.012	-8191	255	
7231.321	1	1	0	0	0.10262	0.12021	0.32279	0.084915	0.08994	0.1051	0.40553	0.30806	0.096382	0.21949	0.12179	0.23329	0.042163	0.29214	0.23075	0.15875	-0.81042	-0.17708	-0.72083	-0.8875	-0.010417	-1.0063	-0.5375	-0.49583	-1.1979	-0.26458	-0.80208	-0.98958	-0.3	-1.15	-0.50833	-0.36042	184.422	217.083	347.192	271.397	201.537	483.304	443.195	524.535	251.458	220.856	353.493	179.470	308.736	494.671	489.805	455.833	0.00070974	0.0014167	0.00058162	963.24	7.8006e-06	1.2838e-05	514.4	333.49	1.6418e-05	1.6611e-05	195.11	93.673	153.76	80.635	1.541e-05	51.293	0.011577	0.014736	0.0041072	1038.5	0.00015459	0.00016404	616.17	358.09	0.00015392	0.00016381	251.92	110.93	166.96	84.787	0.00015723	58.888	187.581	197.010	309.947	186.512	289.155	429.644	184.496	191.506	345.419	401.930	188.217	191.450	195.171	198.856	275.592	194.890	-8191	255	
7231.442	1	1	0	0	0.2913	0.27909	0.068419	0.38628	0.15276	0.19414	0.35674	0.20799	0.084467	0.16131	0.28594	0.28296	0.20375	0.33237	0.15323	0.1069	-0.66667	-0.2	-0.62292	-1.0208	-0.32292	-0.82083	-0.86667	-0.31458	-0.96458	-0.40208	-0.70417	-1.15	-0.46875	-1.0979	-0.8375	-0.25625	347.296	364.443	420.145	174.770	317.559	308.005	432.457	468.698	199.166	407.374	489.488	372.846	206.883	472.719	313.433	245.663	0.00073745	0.0010664	0.00048	959.64	9.2752e-06	1.6099e-05	518.12	333.24	1.354e-05	1.1424e-05	198.23	93.981	154.51	80.734	5.8248e-06	51.947	0.011457	0.014419	0.0040748	1035.4	0.00015263	0.0001602	616.15	357.77	0.00015259	0.00016163	254.03	111.5	167.62	84.976	0.00015506	59.491	531.569	269.633	194.982	186.386	321.638	394.700	184.847	191.399	525.045	210.732	189.241	191.630	195.131	198.809	393.028	195.029	-8191	255	
7231.538	1	1	0	0	0.073935	0.10013	0.10173	0.14359	0.20016	0.18866	0.28232	0.3266	0.1044	0.18773	0.10863	0.07111	0.2028	0.36847	0.18736	0.10424	-0.63125	-0.425	-0.39792	-1.0812	-0.2375	-0.80625	-0.94167	-0.41042	-1.1167	-0.52292	-0.39792	-1.1688	-0.4125	-1.0896	-1.0896	-0.41458	254.137	388.262	465.509	200.700	302.317	523.146	316.433	504.547	367.955	202.981	248.346	253.380	516.749	456.183	344.152	379.229	0.00082597	0.001005	0.00040263	958.68	1.2212e-05	5.3708e-06	520.81	336.67	5.4588e-06	3.3899e-05	201.66	95.889	155.84	81.645	1.4977e-05	52.927	0.011358	0.01439	0.0040386	1035.2	0.00014984	0.00015857	619.74	360.82	0.00015061	0.00015904	255.76	113.06	168.86	85.84	0.00015396	60.438	506.167	296.629	183.525	186.680	365.689	222.621	184.595	191.565	337.831	375.769	188.720	191.253	194.814	198.858	225.383	194.376	-8191	255	
7231.634	1	1	0	0	0.21047	0.24334	0.26705	0.10015	0.23406	0.079161	0.20439	0.079963	0.030151	0.15129	0.20929	0.098349	0.16906	0.1745	0.423	0.40197	-0.72708	-0.52083	-0.40417	-1.2729	-0.39167	-0.53125	-1.1271	-0.225	-0.90208	-0.57083	-0.28542	-1.375	-0.725	-0.72917	-1.0625	-0.34792	474.989	353.268	520.967	247.916	510.903	390.616	341.601	229.521	291.903	242.033	484.262	492.534	207.953	367.760	485.657	472.286	0.0010023	0.0015839	0.00035645	973.65	1.3862e-05	1.4059e-05	528.84	339.54	1.1903e-05	1.8933e-05	204.06	97.697	158.47	82.895	1.5364e-06	53.275	0.011235	0.014223	0.0039657	1043.9	0.00015029	0.00015867	626.06	362.98	0.00014842	0.00015864	258.06	114.57	170.9	86.778	0.00015316	60.682	524.127	265.243	278.665	186.654	204.816	353.354	183.970	191.396	264.118	385.199	188.420	191.625	194.664	198.936	391.762	194.434	-8191	255	
7231.730	1	1	0	0	0.30924	0.17039	0.19331	0.20173	0.29893	0.16741	0.16976	0.34444	0.11414	0.12441	0.036809	0.030372	0.25064	0.17051	0.17674	0.098525	-0.77917	-0.62292	-0.25417	-1.4062	-0.39792	-0.62083	-1.2104	-0.41875	-0.72708	-0.81458	-0.17083	-1.3021	-0.425	-0.60417	-1.0917	-0.41667	237.891	409.007	420.993	515.130	391.229	256.559	407.323	485.934	274.862	285.186	177.915	463.878	495.521	530.801	244.032	247.196	0.00082589	0.0011286	0.0006511	959.81	6.8783e-06	6.3987e-06	517.27	333.35	2.0253e-05	8.025e-06	196.2	93.616	154.62	80.582	3.2504e-06	50.696	0.011199	0.014302	0.0040156	1038.8	0.00015129	0.00016027	617.79	358.43	0.00015188	0.00016114	252.49	110.83	167.36	84.585	0.00015487	58.448	511.785	229.154	284.602	186.826	450.413	323.974	184.274	191.513	267.480	206.017	188.610	191.090	194.956	198.721	194.703	194.434	-8191	255	
7231.825	1	1	0	0	0.20007	0.17902	0.25191	0.13406	0.22797	0.31248	0.058932	0.23562	0.18756	0.096225	0.16771	0.077555	0.061422	0.10647	0.15106	0.12576	-0.38333	-0.8625	-0.11458	-1.2208	-0.58542	-0.54583	-1.2229	-0.26875	-0.90625	-0.89792	-0.39583	-1.1396	-0.90625	-0.50417	-1.3438	-0.42292	401.319	510.661	469.851	426.425	355.500	338.147	382.226	175.086	299.179	461.810	529.157	341.051	317.305	519.346	407.842	429.753	0.00081537	0.0014024	0.00030056	947.68	1.7591e-05	5.3888e-06	508.01	331.66	7.5636e-06	3.0452e-05	193.74	93.53	153.97	80.512	7.5905e-06	51.181	0.011301	0.014333	0.0040426	1028.6	0.00015105	0.00015959	608.37	355.36	0.00015	0.00016038	249.96	110.22	166.46	84.421	0.00015411	58.864	181.605	208.796	478.165	186.446	327.890	445.675	184.298	191.327	253.353	411.024	188.339	191.622	194.827	198.875	498.406	194.481	-8191	255	
7231.921	1	1	0	0	0.31303	0.11291	0.29436	0.4685	0.0042766	0.20626	0.25417	0.20912	0.11041	0.1648	0.31799	0.27474	0.11066	0.06124	0.096409	0.18198	-0.28958	-1.0833	-0.24167	-1.1958	-0.75	-0.49167	-1.3479	-0.575	-0.74375	-1.0208	-0.64792	-1.0167	-0.79375	-0.46042	-1.2062	-0.71458	286.414	322.709	190.970	522.318	260.127	268.438	468.970	472.707	511.493	408.699	441.456	264.027	183.134	472.361	421.437	466.748	0.00077885	0.0012041	0.00036829	953.56	2.3393e-05	5.3859e-06	518.88	332.88	2.6227e-06	2.5773e-05	198.09	95.646	154.6	80.655	7.6766e-06	51.841	0.011169	0.014196	0.0040114	1030.4	0.00015087	0.0001609	614.58	357.71	0.00014868	0.00015887	253.02	112.05	167.3	84.791	0.00015365	59.244	527.477	257.292	185.367	186.474	323.173	436.159	184.268	191.502	215.247	325.681	188.499	191.294	194.895	198.812	487.060	194.641	-8191	255	
7232.041	1	1	0	0	0.10723	0.033664	0.23926	0.086356	0.13604	0.080627	0.29837	0.23723	0.34229	0.15302	0.33149	0.19034	0.22571	0.058194	0.090815	0.087804	-0.17083	-1.0708	-0.3375	-1.0542	-0.94167	-0.38958	-1.1167	-0.66042	-0.64167	-1.1458	-0.32917	-0.7875	-1.0729	-0.42917	-1.1146	-0.71875	413.149	478.513	320.912	474.408	377.923	525.698	444.278	448.829	302.887	338.645	480.164	386.081	238.516	512.528	246.172	196.804	0.00088145	0.0025161	0.00040467	954.5	1.5232e-05	1.8092e-05	519	333.25	3.9429e-06	4.5481e-06	199.25	95.568	155.44	80.992	1.0604e-05	52.085	0.011226	0.014261	0.0040107	1031.6	0.00014878	0.00015826	617.12	357.08	0.00014824	0.00015684	253.12	111.98	167.67	84.719	0.00015222	59.434	185.516	486.366	346.766	186.518	350.381	202.352	184.127	191.340	295.827	346.027	188.253	191.256	195.232	198.497	390.155	194.956	-8191	255	
7232.137	1	1	0	0	0.15228	0.14741	0.25671	0.051649	0.21359	0.17267	0.15439	0.27992	0.077072	0.1627	0.13773	0.10393	0.23559	0.17241	0.23222	0.059832	0.12917	-1.4146	-0.25	-0.75208	-0.92292	-0.19792	-1.25	-0.85208	-0.22708	-1.0958	-0.40417	-0.75833	-1.5333	-0.5875	-0.99792	-0.625	280.731	295.623	461.717	418.163	271.214	487.656	533.005	482.885	359.263	373.726	439.703	309.791	529.561	262.645	291.697	307.666	0.00077825	0.0010088	0.00017782	963.19	1.2263e-05	2.8227e-06	525.63	331.84	9.6842e-06	1.5377e-06	195.44	93.263	153.09	79.805	1.1628e-05	50.34	0.011104	0.014091	0.0039634	1035.7	0.00014916	0.00015812	620.17	356.62	0.00014911	0.00015947	251.07	110.48	166.07	83.714	0.00015639	58.138	532.962	259.481	332.078	186.762	374.500	249.771	184.964	191.368	494.452	210.200	188.150	191.566	194.858	198.818	286.031	194.724	-8191	255	
7232.209	1	1	0	0	0.062034	0.044227	0.29254	0.18913	0.18916	0.031379	0.15861	0.11079	0.13395	0.19047	0.15623	0.18285	0.10324	0.40752	0.33833	0.16139	0.15833	-1.3583	-0.41042	-0.60417	-1.0438	-0.3125	-1.0688	-0.87083	-0.29167	-1.3333	-0.53542	-0.58333	-1.2854	-0.3375	-1.0083	-1.0146	330.453	250.177	460.025	463.666	212.710	500.397	338.929	201.088	373.602	414.324	215.093	481.333	179.221	174.873	181.171	457.809	0.00092616	0.00092004	0.00036931	948.6	1.9897e-05	2.2433e-05	508.2	327.32	1.9075e-05	1.8092e-05	192.68	90.809	151.37	78.454	2.7103e-05	49.686	0.01138	0.014445	0.0040663	1027.7	0.00015364	0.00016335	608.63	353.12	0.00015336	0.00016199	247.73	108.3	163.98	82.788	0.00015413	57.349	531.083	500.141	247.271	186.528	220.896	244.751	184.309	191.503	281.053	383.641	187.930	191.652	194.844	198.695	313.260	194.922	-8191	255	
7232.305	1	1	0	0	0.09073	0.22765	0.15028	0.12274	0.35353	0.076794	0.27378	0.1033	0.12675	0.16784	0.074106	0.21861	0.28416	0.17974	0.28906	0.023243	-0.0020833	-1.1167	-0.41875	-0.50625	-1.0417	-0.38125	-0.85	-1.0312	-0.27083	-1.2062	-0.46458	-0.675	-1.0104	-0.56667	-0.81458	-0.95417	460.508	395.476	369.847	400.197	420.777	408.860	357.860	479.157	262.281	269.251	427.989	469.068	255.835	179.381	289.970	232.036	0.00083561	0.0011406	0.00021962	949.85	1.1649e-05	3.5818e-06	511.08	328.49	1.6858e-05	3.1122e-05	192.39	91.901	151.37	78.989	1.6242e-05	49.767	0.011234	0.014148	0.0039966	1023.9	0.0001488	0.00015837	606.69	352.16	0.0001499	0.0001592	247.51	108.69	163.99	82.732	0.00015397	57.457	520.281	303.119	391.457	186.821	230.398	266.072	184.619	191.299	346.895	355.481	188.098	191.624	194.988	198.483	349.438	194.986	-8191	255	
7232.426	1	1	0	0	0.18729	0.29887	0.022242	0.20572	0.28361	0.20485	0.017067	0.18022	0.2078	0.17851	0.28909	0.30069	0.39492	0.34683	0.074775	0.13138	0.070833	-1.2396	-0.71667	-0.54583	-1.0583	-0.46875	-0.90833	-1.1042	-0.44167	-1.0354	-0.84375	-0.29375	-1.3896	-0.55625	-0.60625	-1.3	410.979	258.714	259.411	479.796	432.560	502.292	408.495	213.827	508.413	175.456	251.286	420.319	179.276	467.044	234.072	288.751	0.00084161	0.00083394	0.00057723	951.57	2.6703e-06	1.3031e-05	513.04	328.47	2.2799e-05	3.9521e-06	197.1	93.743	154.28	80.626	6.5265e-06	51.894	0.011261	0.014362	0.0039945	1026	0.00015081	0.0001595	611.93	353.97	0.00014955	0.000157	250.85	110.4	166.78	84.378	0.00015016	59.132	519.002	463.090	244.882	186.715	381.467	232.614	184.633	191.322	285.858	293.982	188.457	191.233	194.919	198.548	244.316	194.634	-8191	255	
7232.522	1	1	0	0	0.20775	0.090926	0.056593	0.34864	0.18452	0.23527	0.10952	0.23474	0.17145	0.21646	0.16538	0.083874	0.20964	0.1708	0.073008	0.19304	0.13958	-1.0042	-0.78958	-0.40417	-1.325	-0.57083	-0.52708	-1.2646	-0.35417	-0.85625	-0.93542	-0.36458	-1.0792	-0.6375	-0.5625	-1.3271	447.022	492.649	308.929	487.344	213.119	462.185	276.981	420.200	422.607	328.754	373.833	497.798	506.157	486.263	477.966	201.486	0.00071416	0.0024775	0.00033918	958.35	2.7005e-06	1.633e-05	517.4	332.65	1.503e-05	2.6204e-05	198.1	95.152	154.24	80.41	1.0758e-05	52.287	0.010956	0.01392	0.0038854	1029.8	0.00014682	0.00015464	615.52	356	0.00014619	0.00015511	251.34	110.99	166.34	84.349	0.00014815	59.258	514.799	251.790	376.812	186.516	204.224	305.218	184.687	191.416	403.562	309.507	187.967	191.613	194.963	198.860	500.702	195.061	-8191	255	
7232.618	1	1	0	0	0.09112	0.1702	0.1246	0.34978	0.41521	0.30381	0.28743	0.16358	0.28383	0.1566	0.19293	0.12777	0.075752	0.18297	0.047099	0.23699	0.054167	-0.78958	-0.9	-0.25417	-1.0354	-0.57083	-0.57917	-1.5438	-0.40417	-0.74375	-1.2167	-0.28125	-1.3	-1.0104	-0.25417	-1.2458	407.466	303.597	259.345	495.696	309.714	354.186	319.425	488.800	182.591	318.159	180.162	182.883	407.850	254.045	429.733	183.580	0.0009383	0.0015716	7.3019e-05	961.16	5.1613e-06	1.9086e-05	513.8	328.56	6.8025e-06	1.4325e-05	192.29	92.133	150.43	78.769	5.2508e-06	49.995	0.010843	0.013821	0.003863	1028	0.00014473	0.00015298	609.48	352.07	0.00014385	0.00015298	245.17	107.64	162.93	82.555	0.00014611	56.932	514.387	359.406	250.178	186.482	299.851	286.624	184.775	191.186	398.675	394.341	188.248	191.515	195.344	198.734	396.615	194.759	-8191	255	
7232.714	1	1	0	0	0.21209	0.19245	0.18881	0.17364	0.21724	0.31898	0.1525	0.28568	0.043813	0.21613	0.12789	0.077922	0.23956	0.19279	0.21766	0.21194	-0.125	-0.64167	-1.0312	-0.55208	-1.1625	-0.80625	-0.3375	-1.1896	-0.425	-0.54583	-1.2646	-0.27917	-1.2521	-1.1396	-0.29167	-1.2021	532.742	512.756	473.664	491.517	340.335	476.878	463.166	462.613	419.572	435.182	437.882	243.831	218.661	198.016	410.105	449.625	0.00083863	0.00086928	0.00044366	947.75	8.2232e-06	1.275e-05	504.87	325.88	1.6278e-05	1.7025e-06	189.65	89.919	151.01	78.545	8.6177e-06	49.583	0.01053	0.01354	0.0037838	1016.3	0.00014194	0.00014967	596.57	347.8	0.00014072	0.00015007	241.41	106.12	161.99	82.021	0.00014371	56.504	506.136	321.527	279.892	186.229	280.921	300.519	184.281	191.486	517.505	213.450	188.665	191.333	195.240	198.753	312.929	194.813	-8191	255	
7232.811	1	1	0	0	0.13799	0.10875	0.21142	0.21668	0.041189	0.21253	0.19885	0.23835	0.032165	0.19	0.24056	0.10095	0.063484	0.0924	0.056796	0.18603	-0.09375	-0.30833	-1.0583	-0.45833	-0.75417	-0.77708	-0.39792	-1.2062	-0.69375	-0.22708	-1.0646	-0.20417	-0.95208	-1.0292	-0.22292	-1.0792	425.604	231.391	467.058	517.061	438.544	228.271	443.491	473.923	495.327	285.592	178.132	509.026	519.982	197.802	511.564	256.531	0.00055366	0.0016697	0.0001199	943.94	6.7451e-06	2.5713e-06	509.42	327.09	1.1763e-05	9.3093e-06	191.83	92.028	151.24	79.045	1.3322e-05	50.07	0.010436	0.013268	0.003706	1011.7	0.00013796	0.00014562	596.24	347.96	0.00013676	0.00014475	241.49	106.74	162.24	82.292	0.00013724	56.882	526.987	489.682	451.523	186.388	399.575	390.357	184.649	191.660	223.943	276.588	188.178	191.625	195.273	198.889	217.039	194.784	-8191	255	
7232.905	1	1	0	0	0.035609	0.20101	0.13295	0.46412	0.29601	0.078916	0.21039	0.36569	0.10834	0.30277	0.18465	0.36492	0.12245	0.2293	0.2198	0.16248	-0.0875	-0.20208	-0.98125	-0.42083	-0.65625	-1.1083	-0.10625	-0.98958	-0.50417	-0.27708	-1.2292	-0.425	-0.61042	-1.0625	-0.44167	-0.92083	310.887	285.837	462.924	502.306	278.603	257.447	371.497	326.933	410.693	476.480	288.966	499.453	482.675	518.560	274.534	438.949	0.00089583	0.0010369	0.00010119	946.31	1.8626e-05	1.5254e-05	514.65	329.94	1.4161e-05	1.1139e-05	195.08	92.234	151.85	79.36	1.2948e-05	50.723	0.010103	0.012799	0.0035546	1007.9	0.00013314	0.00014139	599.19	348.48	0.00013262	0.00014103	242.32	107.26	162.65	82.375	0.00013548	57.17	523.430	324.431	339.034	186.338	224.528	332.627	184.297	191.681	216.617	378.215	188.288	192.044	195.104	198.765	313.456	195.012	-8191	255	
7233.003	1	1	0	0	0.044461	0.095388	0.19193	0.059214	0.12148	0.2642	0.25166	0.41525	0.15814	0.23236	0.25302	0.090763	0.18171	0.21889	0.11641	0.30938	-0.31667	-0.20208	-0.95208	-0.5625	-0.6125	-1.0938	-0.24583	-0.91667	-0.74792	-0.27292	-1.2542	-0.525	-0.69375	-1.2333	-0.1	-0.92292	515.823	392.212	302.289	329.960	221.665	192.349	380.178	351.007	207.242	531.711	503.160	176.965	507.358	508.787	212.743	232.339	0.00064597	0.00094117	0.0002729	953.58	9.3526e-06	1.2405e-05	522.05	332.13	1.7522e-05	9.758e-06	196.55	93.874	151.73	79.442	1.3199e-05	50.886	0.0098365	0.012414	0.0034921	1011.9	0.00013126	0.00013885	600.71	349.85	0.00013014	0.00013834	242.64	107.84	161.82	82.34	0.00013341	57.085	519.788	272.881	233.193	186.719	314.069	384.313	184.988	191.854	388.381	393.790	188.280	191.782	195.026	198.813	281.548	195.143	-8191	255	
7233.122	1	1	0	0	0.060875	0.054062	0.21778	0.35376	0.24526	0.14304	0.33108	0.19024	0.34773	0.18411	0.12741	0.34462	0.24991	0.29158	0.32205	0.21858	-0.58542	-0.19375	-0.95	-0.78333	-0.42083	-1.3062	-0.32917	-0.82917	-0.98333	-0.16458	-0.9125	-0.66667	-0.5875	-1.325	-0.17292	-0.63333	346.840	348.819	485.812	468.209	437.543	288.629	488.844	501.144	285.050	217.175	478.590	490.026	505.769	174.299	459.545	346.605	0.00072787	0.0011351	0.00046499	952.01	1.1309e-05	8.3878e-06	513.42	329.5	6.8799e-06	3.388e-05	195.13	92.005	150.95	78.87	3.0582e-06	49.829	0.009707	0.01231	0.0034571	1009.5	0.00012923	0.00013705	593.89	347.1	0.00012883	0.00013651	239.28	105.79	161.24	81.808	0.000132	56.093	508.006	200.584	207.885	186.275	263.286	349.179	184.932	191.621	532.703	318.867	188.517	191.961	195.058	198.847	300.660	194.909	-8191	255	
7233.218	1	1	0	0	0.27696	0.17976	0.22421	0.2628	0.32844	0.21765	0.2767	0.31354	0.033474	0.26594	0.032797	0.24067	0.2771	0.31776	0.15089	0.28421	-0.75625	-0.11667	-0.9125	-0.77292	-0.35417	-0.96458	-0.49375	-0.675	-1.075	-0.22708	-0.89375	-0.78542	-0.40208	-1.3667	-0.36458	-0.46667	437.291	345.414	465.524	210.847	321.222	494.127	375.897	525.467	442.018	246.967	249.030	447.188	456.361	490.028	494.892	508.278	0.00084392	0.0011807	0.00020183	944.79	5.945e-06	2.8743e-06	502.31	326.97	8.6878e-06	2.2312e-05	190.77	89.729	149.54	78.251	2.5869e-06	49.203	0.0097424	0.012391	0.003451	1006.3	0.0001303	0.00013759	585.68	344	0.00012977	0.00013848	237.03	104.22	159.92	81.246	0.00013272	55.764	181.950	294.810	215.213	186.379	201.338	246.535	184.799	191.434	305.341	312.888	188.371	191.266	195.297	198.804	275.326	195.053	-8191	255	
7233.314	1	1	0	0	0.096114	0.18166	0.1439	0.25198	0.41156	0.053295	0.1104	0.3096	0.28806	0.26375	0.078984	0.081021	0.28098	0.3219	0.088949	0.11453	-0.55	-0.05	-0.92708	-1.0729	-0.30625	-1.1167	-0.35208	-0.64375	-1.0979	-0.22083	-0.58958	-0.93542	-0.52083	-1.3333	-0.6875	-0.4625	405.912	446.047	370.722	508.209	288.093	485.525	464.848	528.208	223.047	523.958	336.446	523.204	512.679	526.720	185.867	380.705	0.00066902	0.00046904	0.00030499	944.4	1.0392e-05	6.7315e-06	506.15	325.95	1.8742e-05	1.6936e-05	190.14	91.019	149.69	77.848	5.4215e-06	49.767	0.0097807	0.012343	0.003481	1004.2	0.00013049	0.00013875	589.51	345.23	0.00013068	0.00013999	238.6	105.16	160.1	81.13	0.00013538	56.131	518.793	501.850	318.391	186.621	374.312	270.604	184.564	191.507	312.594	297.360	188.411	191.784	195.204	198.676	333.971	194.952	-8191	255	
7233.435	1	1	0	0	0.049501	0.27182	0.27136	0.26646	0.05795	0.047821	0.08613	0.19506	0.11732	0.36595	0.19355	0.14602	0.44066	0.034026	0.1527	0.40754	-0.68125	-0.30833	-0.66875	-1.175	-0.1875	-1.1896	-0.82083	-0.31458	-1.0958	-0.33958	-0.45417	-1.1313	-0.3625	-1.0833	-0.85	-0.32292	354.836	226.788	211.867	193.608	377.899	174.593	283.020	185.921	235.426	405.624	213.205	474.912	480.039	187.550	470.788	379.838	0.00080615	0.00092493	0.00018168	951.59	6.2356e-06	1.1112e-05	513.85	329.31	1.2627e-05	2.8321e-05	195.54	92.653	152.61	79.694	1.3157e-05	51.252	0.0099635	0.012666	0.0035519	1011.7	0.00013361	0.00014219	601.26	348.65	0.00013458	0.00014211	245.01	108.14	163.51	83.16	0.00013981	58.004	523.701	454.099	316.057	186.538	212.964	279.977	184.854	191.647	281.679	387.112	188.983	191.328	195.196	198.923	477.180	194.970	-8191	255	
7233.506	1	1	0	0	0.082063	0.27789	0.098051	0.19075	0.1094	0.11939	0.21853	0.31233	0.24658	0.099565	0.076762	0.31874	0.067971	0.28894	0.19428	0.11142	-0.78125	-0.39792	-0.41458	-1.1396	-0.1375	-0.93542	-0.94792	-0.058333	-1.0812	-0.37708	-0.49583	-1.1021	-0.18958	-0.94375	-0.75	-0.40833	308.732	203.516	518.845	454.856	401.373	450.828	244.409	523.999	447.137	325.879	216.564	210.273	516.880	511.629	212.698	263.085	0.00069569	0.00084434	0.00027447	961.21	1.602e-06	8.9015e-06	519.84	332.29	1.1621e-05	9.6881e-06	199.08	94.508	153.82	80.599	1.1963e-05	51.346	0.010359	0.013132	0.0036769	1024.8	0.00013831	0.00014693	610.17	352.96	0.00013705	0.00014628	248.17	109.53	165.01	83.918	0.00014327	58.426	522.099	521.065	432.927	186.523	295.801	265.632	185.003	191.814	198.695	319.339	188.070	191.752	195.093	199.044	376.042	194.761	-8191	255	
7233.602	1	1	0	0	0.14538	0.18213	0.093545	0.17148	0.24583	0.25748	0.15309	0.17149	0.19681	0.35633	0.23059	0.07652	0.0667	0.30074	0.19856	0.17493	-1.0625	-0.63333	-0.32708	-1.3	-0.1625	-0.85833	-1.0187	-0.28958	-1.0312	-0.47917	-0.575	-1.0271	-0.37708	-0.76458	-0.92083	-0.38958	523.727	512.693	218.293	205.539	491.384	255.163	378.844	523.655	363.291	471.036	301.814	376.413	466.679	513.961	378.837	412.551	0.00048049	0.0015892	0.00018234	951.74	1.5377e-05	1.0244e-05	513.77	327.53	1.1026e-05	1.3334e-05	190.94	91.64	151.42	79.667	8.1663e-06	49.729	0.01052	0.01339	0.0037704	1021.9	0.00014217	0.00015175	604.08	350.74	0.00014291	0.00015203	244.67	107.54	163.49	83.062	0.00014559	57.127	499.152	307.418	245.465	186.577	423.717	337.641	184.406	191.642	178.912	316.893	188.660	191.423	195.007	198.938	422.909	194.862	-8191	255	
7233.723	1	1	0	0	0.2784	0.30396	0.19437	0.29666	0.37615	0.11649	0.18215	0.1047	0.096882	0.063251	0.33504	0.24929	0.47693	0.45495	0.10761	0.1904	-0.62292	-0.70208	-0.31042	-1.3062	-0.46875	-0.64167	-1.1938	-0.38958	-1.0917	-0.78542	-0.13958	-1.2896	-0.54583	-0.74167	-1.2479	-0.32083	256.214	493.414	416.617	525.928	439.609	287.848	485.599	227.417	344.788	409.873	526.002	451.644	468.246	491.971	197.944	424.010	0.00087968	0.00028789	0.00024368	951.73	1.0669e-05	9.5706e-06	508.87	327.38	8.2043e-06	4.1899e-06	192.24	91.675	151.79	79.56	3.0932e-06	50.133	0.010705	0.013646	0.0037832	1019.8	0.00014276	0.00015155	599.42	350.2	0.00014227	0.00015175	245.04	107.74	163.64	83.099	0.00014632	57.505	519.189	243.188	233.820	186.611	280.841	297.529	184.202	191.521	310.363	304.400	188.859	191.803	194.771	199.053	275.969	194.939	-8191	255	
7233.817	1	1	0	0	0.01517	0.12209	0.12138	0.20924	0.089532	0.33218	0.064531	0.14626	0.059441	0.17785	0.12462	0.23135	0.30174	0.42747	0.27231	0.12198	-0.4625	-0.76875	-0.15208	-1.2625	-0.51875	-0.40833	-1.1437	-0.44375	-0.90417	-0.93958	-0.28542	-1.05	-0.62083	-0.76667	-1.1021	-0.25417	191.456	281.911	345.127	483.263	274.849	191.858	499.510	454.171	217.364	267.767	349.520	434.449	523.786	481.007	511.060	420.758	0.000652	0.00061092	0.00020227	955	1.225e-05	2.2099e-06	512.91	330.09	1.1404e-05	1.4439e-05	194.39	92.367	151.71	79.544	2.4168e-05	50.468	0.01069	0.013601	0.003807	1023.1	0.00014302	0.00015167	606.21	351.16	0.00014255	0.00015045	246.33	108.14	163.69	83.027	0.00014586	57.551	525.155	221.687	292.981	186.415	181.246	490.324	184.788	191.457	296.341	193.013	188.863	191.401	195.325	198.842	193.568	194.725	-8191	255	
7233.914	1	1	0	0	0.0829	0.13604	0.08213	0.25467	0.086545	0.21431	0.14915	0.57918	0.045996	0.3204	0.32944	0.095001	0.089337	0.26347	0.15742	0.053685	-0.28333	-0.9625	-0.1375	-1.2667	-0.65	-0.4375	-1.2354	-0.52917	-0.72083	-1.0417	-0.41042	-0.9375	-0.77708	-0.50417	-1.0292	-0.45208	301.305	187.196	227.224	527.696	293.278	415.194	458.760	433.018	517.841	460.725	517.906	524.446	370.863	507.738	222.079	253.749	0.00081352	0.00042203	0.0001983	952.97	1.1418e-05	1.8086e-05	518.71	329.22	5.9112e-06	1.3327e-05	195.33	92.609	152.19	79.119	3.7983e-06	50.814	0.01061	0.013493	0.0037855	1024	0.00014099	0.0001492	608.97	350.94	0.00014071	0.00014909	246.32	108.36	163.44	82.689	0.00014289	57.71	175.429	256.904	237.073	186.790	378.147	196.175	184.903	191.587	290.119	437.622	188.695	191.329	194.907	198.869	352.026	194.626	-8191	255	
7234.010	1	1	0	0	0.16383	0.16176	0.10342	0.1615	0.16559	0.042735	0.11638	0.34794	0.14009	0.026396	0.10887	0.031564	0.27477	0.28753	0.1956	0.19135	-0.24375	-1.0146	-0.25	-1.125	-0.88958	-0.22708	-1.1979	-0.46458	-0.48125	-1.1042	-0.39583	-0.93542	-0.94375	-0.36875	-1.1625	-0.38125	261.482	498.650	252.333	439.328	427.201	349.420	428.076	190.365	283.250	381.331	291.632	407.349	464.172	506.829	343.054	341.985	0.00079034	0.0014373	0.00028876	959.22	1.0988e-05	9.3277e-06	521.34	330.23	6.3858e-06	4.0877e-05	196.21	93.316	152.18	79.603	6.1468e-06	50.407	0.010463	0.013208	0.0037368	1026.9	0.00014048	0.000148	612.43	352.72	0.00014154	0.0001506	248.28	109.13	164.65	83.477	0.00014788	57.8	513.334	302.692	394.011	186.814	301.050	360.597	184.702	191.705	226.919	332.768	188.696	191.363	195.037	199.011	230.635	195.172	-8191	255	
7234.106	1	1	0	0	0.087313	0.18257	0.32992	0.092714	0.28351	0.15296	0.11343	0.28814	0.13955	0.18296	0.11281	0.091739	0.16593	0.26612	0.26533	0.34358	0.0041667	-1.0438	-0.21875	-0.85625	-0.7625	-0.31667	-1.0833	-0.65625	-0.31667	-1.1396	-0.3625	-0.91875	-1.075	-0.23958	-1.0479	-0.74375	530.713	380.414	323.648	363.492	394.085	179.452	493.029	445.695	400.083	412.797	263.967	409.217	188.763	486.468	458.355	458.504	0.00082929	0.0015334	0.00034201	951.95	2.4226e-05	7.153e-07	514.18	328.66	1.1664e-05	1.2858e-05	192.6	92.616	154.11	80.716	1.5269e-05	50.729	0.01092	0.013839	0.0038916	1025.8	0.00014731	0.0001559	608.64	352.31	0.00014907	0.00015928	247.17	109.39	166.82	84.594	0.00015605	58.609	529.857	405.693	286.350	186.508	241.463	245.177	184.751	191.894	253.994	352.588	188.768	191.514	195.084	199.051	348.387	194.587	-8191	255	
7234.202	1	1	0	0	0.17538	0.16237	0.13481	0.24986	0.29256	0.1568	0.064167	0.32762	0.048811	0.088081	0.30078	0.20595	0.17428	0.19737	0.062558	0.19246	0.30417	-1.0167	-0.14583	-0.85833	-0.95208	-0.045833	-0.85208	-0.78542	-0.27083	-1.125	-0.375	-0.64583	-1.3646	-0.26875	-0.8375	-0.79583	528.056	436.778	495.691	195.196	458.574	229.523	506.033	491.984	449.775	211.331	504.446	475.370	487.797	175.134	209.528	180.564	0.00094663	0.00097051	0.00017512	954.63	4.6656e-06	1.2678e-05	507.92	332.51	4.7528e-06	1.4011e-05	195.34	96.396	158.87	82.695	1.7504e-05	52.459	0.011514	0.014633	0.0041213	1035.3	0.00015642	0.00016468	613.58	358.45	0.00015688	0.00016706	255.18	113.97	172.06	87.093	0.0001616	60.708	521.862	301.225	250.350	186.441	376.985	310.288	185.076	191.428	260.493	354.425	188.342	191.154	195.112	198.552	328.357	194.976	-8191	255	
7234.298	1	1	0	0	0.32913	0.081408	0.36461	0.14709	0.18476	0.33515	0.15247	0.26981	0.15056	0.18137	0.30823	0.1585	0.33829	0.21017	0.16192	0.1808	0.15417	-1.1458	-0.32917	-0.45417	-1.1458	-0.1375	-0.7	-0.725	-0.1375	-1.1604	-0.43333	-0.48125	-1.1458	-0.36042	-0.75208	-1.1854	258.881	247.606	506.822	461.252	432.245	321.161	269.451	496.876	492.810	442.103	421.595	521.442	457.824	486.462	175.215	523.332	0.00052692	0.0017181	0.00041282	959.95	5.3383e-06	9.5177e-06	516.82	341.71	1.2024e-05	2.3498e-05	203.04	99.404	161.44	84.734	1.4269e-05	54.002	0.011856	0.015166	0.0042529	1040.8	0.00016042	0.00016996	622.6	366.31	0.00016085	0.00016988	262.93	117.77	176.07	88.82	0.00016503	62.121	531.558	295.099	189.417	186.916	245.225	278.931	184.760	191.536	339.342	251.989	188.635	191.104	195.085	198.885	313.780	194.328	-8191	255	
7234.394	1	1	0	0	0.21357	0.14354	0.21259	0.23015	0.19957	0.20944	0.18429	0.29332	0.24417	0.1892	0.3034	0.051529	0.059994	0.27763	0.23735	0.2428	0.2875	-0.94375	-0.41042	-0.41667	-1.2917	-0.17917	-0.77292	-1.0812	-0.26458	-1.1437	-0.80417	-0.29583	-1.3021	-0.52083	-0.73125	-1.0771	391.544	286.316	206.397	421.659	271.424	237.469	201.775	530.100	489.984	238.345	506.721	209.971	187.010	457.790	211.184	306.058	0.00069779	0.00099305	0.00010408	959.78	1.1864e-05	4.9073e-06	522.66	341.32	6.7719e-06	2.4039e-05	205.68	99.445	162.38	84.338	1.8645e-05	54.095	0.012119	0.015291	0.0042707	1043.9	0.000161	0.00017092	625.71	367.57	0.00016165	0.00017077	264.1	118.17	176.36	88.999	0.00016781	62.37	506.449	228.737	322.402	186.661	277.824	474.817	184.814	191.593	204.750	301.872	188.275	191.616	194.949	198.690	296.328	195.091	-8191	255	
7234.515	1	1	0	0	0.42298	0.010439	0.159	0.26712	0.17959	0.17323	0.049884	0.26066	0.049625	0.2258	0.1925	0.18469	0.46852	0.10827	0.25428	0.49722	0.18958	-0.83958	-0.66667	-0.23125	-1.0562	-0.48542	-0.67917	-1.3062	-0.17292	-0.94167	-0.825	-0.2875	-1.275	-0.61875	-0.5375	-1.0438	457.329	205.683	471.601	532.074	502.355	209.935	439.548	474.306	470.238	386.538	214.186	393.999	526.715	196.988	336.446	502.782	0.00053335	0.0015464	0.00078043	953.46	1.1564e-05	1.7763e-05	511.15	340.93	6.437e-06	1.8186e-05	199.82	97.429	160.68	83.567	6.1821e-06	52.234	0.012364	0.01572	0.004428	1045.6	0.00016757	0.00017756	627.02	368.19	0.00016637	0.00017883	264.12	117.09	175.8	88.329	0.0001723	61.131	505.108	263.781	229.648	186.745	230.644	369.421	184.593	191.762	295.548	326.863	188.539	191.920	195.178	198.619	353.531	195.145	-8191	255	
7234.611	1	1	0	0	0.026386	0.18748	0.20242	0.12102	0.1118	0.20455	0.4145	0.27912	0.12387	0.091532	0.20413	0.19104	0.27179	0.095637	0.14619	0.34625	0.0083333	-0.82292	-0.87708	-0.14375	-0.98542	-0.47917	-0.46667	-1.2958	-0.29167	-0.71667	-1.1146	-0.19167	-1	-0.96042	-0.275	-1.1104	179.172	502.911	182.790	515.462	247.442	396.519	440.789	221.168	354.629	516.364	418.817	518.938	487.870	482.825	253.589	530.552	0.0009506	0.00043582	0.00057221	952.64	6.3931e-06	2.2311e-05	498.84	337.95	9.1942e-06	8.8335e-06	199.76	97.299	160.85	83.25	4.3248e-06	51.747	0.012621	0.016026	0.004524	1039.5	0.00017032	0.0001789	617.14	366.74	0.00017043	0.00018093	263.42	117.16	175.94	88.027	0.00017521	60.789	516.469	238.799	249.600	187.039	221.516	241.668	184.661	191.788	260.462	460.401	188.392	191.316	194.739	198.306	418.067	194.446	-8191	255	
7234.707	1	1	0	0	0.08669	0.058784	0.45644	0.215	0.032504	0.24237	0.32922	0.18574	0.049629	0.1664	0.12172	0.092195	0.35066	0.39407	0.33829	0.24192	0.0875	-0.78125	-0.85208	-0.14375	-1.1083	-0.77708	-0.38958	-1.2729	-0.27917	-0.56875	-0.98125	-0.22083	-1.1875	-1.0271	-0.17708	-1.225	251.625	436.909	186.798	219.826	278.415	459.767	496.124	452.712	184.458	250.075	238.656	240.117	182.632	509.704	407.936	346.778	0.00078929	0.00061885	0.00012538	939.64	8.1268e-06	9.5058e-06	508.65	339.97	5.379e-06	8.7862e-06	205.38	101.28	165.05	85.145	1.1886e-05	53.905	0.012763	0.016213	0.004576	1034.2	0.00016991	0.00018016	622.38	368.67	0.00016629	0.00017761	266.07	119.88	179.45	89.576	0.00016954	62.598	518.863	424.674	428.331	186.275	301.678	350.205	184.010	191.469	328.233	421.734	188.137	190.827	194.808	198.269	250.081	194.460	-8191	255	
7234.803	1	1	0	0	0.17825	0.2026	0.18701	0.31817	0.39646	0.24355	0.23715	0.31544	0.20705	0.095436	0.14691	0.2146	0.29164	0.3666	0.15248	0.24079	0.095833	-0.55833	-1.1167	-0.3625	-0.98542	-0.81875	-0.2125	-1.2667	-0.47292	-0.45625	-1.2333	-0.26458	-1.0542	-1.1063	-0.1875	-1.1313	372.935	489.270	280.889	524.345	410.797	247.020	199.239	461.865	241.763	353.011	263.599	482.703	219.815	499.570	302.192	448.123	0.00067862	0.0009294	0.00033826	950.65	9.9749e-06	1.5933e-05	508.08	344.11	1.3787e-05	5.1544e-06	205.41	101.19	163.02	83.954	7.1089e-06	53.682	0.012329	0.015678	0.0044102	1036	0.00016553	0.0001764	622.61	370.29	0.00016518	0.00017632	267.38	120.08	178.02	88.826	0.00017192	62.25	532.964	290.316	292.139	186.282	176.996	417.595	184.325	191.109	347.623	372.030	188.001	190.695	194.501	198.230	313.943	194.053	-8191	255	
7234.898	1	1	0	0	0.21057	0.33536	0.058292	0.10173	0.12735	0.1617	0.14443	0.23089	0.25482	0.091446	0.11353	0.093232	0.10621	0.29903	0.088685	0.3152	-0.05	-0.30625	-1.1104	-0.3875	-0.74583	-0.975	-0.28333	-1.1104	-0.52083	-0.34375	-1.2354	-0.37917	-0.72083	-0.95625	-0.17083	-0.97917	263.124	329.918	335.035	305.742	297.970	392.472	345.105	523.426	418.485	483.550	214.867	286.603	518.341	504.321	482.293	513.313	0.00089737	0.0021077	0.00034083	946.5	7.6268e-06	7.3609e-06	512.03	341.69	8.2751e-06	1.2424e-05	205.24	100.55	163.33	83.914	8.5277e-06	53.256	0.012525	0.015909	0.0044807	1040.2	0.00017018	0.00017915	628.04	371.05	0.00016837	0.00017761	268.11	119.65	177.82	88.365	0.00016926	61.896	184.475	309.605	472.939	185.914	399.515	247.510	184.596	191.444	364.778	297.451	188.166	190.593	194.701	198.325	292.934	194.300	-8191	255	
7234.996	1	1	0	0	0.047535	0.30132	0.10643	0.15963	0.33908	0.072933	0.10221	0.1401	0.11371	0.18907	0.368	0.16679	0.052672	0.25417	0.074457	0.19132	-0.32917	-0.28125	-1.0583	-0.47917	-0.61667	-1.1479	-0.14792	-1.0833	-0.78542	-0.18958	-1.0208	-0.575	-0.50625	-1.2521	-0.21875	-0.87292	437.629	344.966	510.935	474.658	447.475	442.579	442.538	447.599	254.164	464.539	233.554	518.326	190.694	509.704	236.825	387.986	0.00067834	0.0021187	0.00018606	947.83	7.6298e-06	8.1598e-06	508.48	339.84	5.9283e-06	1.7436e-05	201.98	98.688	161.37	82.677	7.3483e-06	51.186	0.01231	0.015791	0.0044495	1039.2	0.00016713	0.00017676	622.68	369.08	0.00016791	0.00017917	265.09	117.95	176.68	87.678	0.00017474	60.532	183.624	224.426	267.299	186.178	343.280	408.207	183.995	191.022	365.391	403.939	187.879	190.658	194.896	198.209	233.093	194.243	-8191	255	
7235.115	1	1	0	0	0.25629	0.23619	0.29022	0.22835	0.11466	0.2746	0.075236	0.20646	0.2366	0.30142	0.16091	0.36367	0.19424	0.20286	0.10094	0.20236	-0.56875	-0.21458	-1.0438	-0.40625	-0.45833	-0.99583	-0.55417	-0.89583	-0.98542	-0.31042	-1.225	-0.52292	-0.47917	-1.3563	-0.375	-0.87708	410.603	530.087	249.657	426.706	372.262	289.869	440.874	474.452	306.289	361.089	208.551	486.521	494.237	516.782	421.653	200.161	0.00054606	0.0021085	0.00036204	938.73	1.1206e-05	9.6771e-06	498.6	333.54	4.1512e-06	1.5034e-05	198.75	97.255	161.17	83.116	2.2418e-05	52.422	0.012917	0.016395	0.004569	1033.5	0.0001726	0.00018264	617.91	364.79	0.00017137	0.00018206	262.83	117.25	176.04	88.205	0.00017454	61.449	195.142	304.193	323.069	186.446	318.743	532.510	184.125	191.356	364.610	349.725	188.357	190.660	194.755	198.336	515.787	194.560	-8191	255	
7235.211	1	1	0	0	0.28598	0.17359	0.27047	0.087213	0.095876	0.086543	0.43331	0.37709	0.22588	0.25572	0.11972	0.13789	0.52927	0.30417	0.16841	0.27285	-0.7125	-0.31458	-0.97292	-0.64792	-0.17083	-1.2021	-0.34375	-0.80417	-0.91458	-0.16875	-0.96458	-0.69167	-0.32083	-1.4167	-0.6375	-0.725	486.447	459.903	183.900	380.690	279.948	399.588	485.645	456.142	453.186	219.209	273.295	439.976	517.624	504.130	190.353	512.591	0.0010481	0.00091954	0.00067319	944.99	1.0401e-05	6.0688e-06	507.28	337.83	7.3161e-06	2.0825e-06	202.26	99.2	162.26	83.779	1.7656e-05	53.41	0.0127	0.016124	0.0045292	1034.5	0.00016922	0.00017938	621.36	367.08	0.00016783	0.00017803	264.6	118.61	177	88.576	0.00017127	62.094	176.559	323.746	231.839	186.276	296.059	367.539	183.788	191.618	350.519	376.285	188.099	190.982	194.844	198.504	304.456	194.665	-8191	255	
7235.307	1	1	0	0	0.09654	0.26528	0.10326	0.16799	0.15179	0.25866	0.23461	0.24443	0.3389	0.18175	0.14423	0.13699	0.17985	0.35986	0.11831	0.096639	-0.65417	-0.30208	-0.84792	-1.0229	-0.30208	-1.1167	-0.4375	-0.55625	-1.0688	-0.34375	-0.79792	-0.76667	-0.2375	-1.2125	-0.45	-0.45833	457.005	476.692	251.295	199.754	269.810	453.336	439.626	479.503	470.514	500.255	521.731	494.430	188.135	199.877	262.618	388.765	0.00058713	0.0014224	0.0005742	945.88	1.4744e-05	1.1366e-05	519.26	346.2	1.6229e-05	9.1427e-06	206.78	101.56	164.75	85.218	6.3899e-06	54.514	0.012436	0.015851	0.0044512	1036.1	0.00016687	0.00017573	628.34	373.16	0.00016581	0.0001756	268.72	120.48	179.45	89.805	0.00016961	62.84	185.598	382.018	258.077	186.297	183.339	374.371	184.634	191.654	231.185	407.565	187.814	190.675	194.883	198.734	265.498	194.601	-8191	255	
7235.403	1	1	0	0	0.2019	0.14717	0.081168	0.17212	0.27838	0.3291	0.17947	0.15296	0.1595	0.12369	0.11685	0.16325	0.33286	0.37122	0.083558	0.22294	-0.60625	-0.18125	-0.68333	-0.95208	-0.125	-1.1479	-0.68958	-0.53542	-1.2313	-0.25208	-0.68958	-0.82708	-0.24792	-1.1542	-0.65833	-0.32708	388.480	333.687	216.379	277.541	357.879	434.620	378.639	292.520	444.112	451.986	185.784	269.976	519.086	196.023	395.037	479.889	0.00066281	0.00048738	0.0005097	956.92	6.5151e-06	1.4296e-05	516.18	346.21	1.0333e-05	1.2066e-05	206.33	101.59	164.79	85.275	7.4721e-06	54.022	0.012399	0.015785	0.0044316	1042.7	0.00016598	0.00017592	629.6	373.3	0.00016619	0.00017626	269.14	120.56	179.31	89.802	0.00016948	62.541	177.250	512.395	268.842	186.364	190.995	342.797	184.348	191.403	453.483	320.565	188.431	191.361	194.689	198.605	344.521	194.531	-8191	255	
7235.499	1	1	0	0	0.045352	0.12731	0.26422	0.24733	0.33788	0.14831	0.12627	0.43118	0.090604	0.21287	0.37057	0.30942	0.12183	0.013233	0.044443	0.22316	-0.72083	-0.41875	-0.44792	-1.2062	-0.31458	-1.0438	-0.8625	-0.52708	-1	-0.47708	-0.60417	-1.0438	-0.55	-1.0104	-0.91875	-0.31042	394.946	204.346	429.898	496.224	334.886	252.197	440.802	469.272	277.074	351.835	238.624	516.536	499.898	358.104	456.495	360.736	0.00077533	0.00055102	0.00079954	948.85	3.0661e-06	1.3033e-05	510.53	340.99	1.1313e-05	1.1725e-05	200.28	98.175	160.82	83.512	1.6175e-05	52.065	0.012507	0.015829	0.0044876	1040	0.00016732	0.00017554	620.64	368.83	0.00016624	0.00017458	262.36	116.69	175.06	88.029	0.00016203	60.269	514.889	235.258	310.190	186.554	336.688	307.932	184.266	191.524	510.831	341.402	188.072	190.880	194.635	198.554	453.254	194.473	-8191	255	
#DATA ENDS
