BOXY.EXE: ISS Imagent and Oximeter Data Acquisition Program Version 0.80
Ascii Record File

#ACQ INFORMATION
2  Detector Channels 
16  External MUX Channels 
1  Auxiliary Channels 
5000  Waveform (CCF) Frequency (Hz)
1  Waveforms Skipped 
30  Waveforms Averaged 
1  Cycles Averaged 
16  Acquisitions per Waveform 
10.0806  Updata Rate (Hz) 

#FILE INFORMATION
TRUE -- External MUX Channel results are PARSED.
FALSE -- AC DC and Phase are NOT grouped.
TRUE -- Companion Program Settings File CREATED.
FALSE -- AC data not excluded
FALSE -- DC data not excluded
FALSE -- Phase data not excluded
FALSE -- Auxillary Chn. data not excluded
Tab delimiters

#CALIBRATION STATE
TRUE -- Waveform Calibration Values APPLIED.


#AUX CALIBRATION VALUES
Val Type	aux-1	

Term	1.0000e+00	
Factor	0.0000e+00	


#WF CALIBRATION VALUES
A = Detector Channel
Val Type	A-AC1	A-AC2	A-AC3	A-AC4	A-AC5	A-AC6	A-AC7	A-AC8	A-AC9	A-AC10	A-AC11	A-AC12	A-AC13	A-AC14	A-AC15	A-AC16	A-DC1	A-DC2	A-DC3	A-DC4	A-DC5	A-DC6	A-DC7	A-DC8	A-DC9	A-DC10	A-DC11	A-DC12	A-DC13	A-DC14	A-DC15	A-DC16	A-Ph1	A-Ph2	A-Ph3	A-Ph4	A-Ph5	A-Ph6	A-Ph7	A-Ph8	A-Ph9	A-Ph10	A-Ph11	A-Ph12	A-Ph13	A-Ph14	A-Ph15	A-Ph16	

Term	0.00000e+00	0.00000e+00	0.00000e+00	0.00000e+00	0.00000e+00	0.00000e+00	0.00000e+00	0.00000e+00	0.00000e+00	0.00000e+00	0.00000e+00	0.00000e+00	0.00000e+00	0.00000e+00	0.00000e+00	0.00000e+00	0.00000e+00	0.00000e+00	0.00000e+00	0.00000e+00	0.00000e+00	0.00000e+00	0.00000e+00	0.00000e+00	0.00000e+00	0.00000e+00	0.00000e+00	0.00000e+00	0.00000e+00	0.00000e+00	0.00000e+00	0.00000e+00	0.00000e+00	0.00000e+00	0.00000e+00	0.00000e+00	0.00000e+00	0.00000e+00	0.00000e+00	0.00000e+00	0.00000e+00	0.00000e+00	0.00000e+00	0.00000e+00	0.00000e+00	0.00000e+00	0.00000e+00	0.00000e+00	
Factor	1.00000e+00	1.00000e+00	1.00000e+00	1.00000e+00	1.00000e+00	1.00000e+00	1.00000e+00	1.00000e+00	1.00000e+00	1.00000e+00	1.00000e+00	1.00000e+00	1.00000e+00	1.00000e+00	1.00000e+00	1.00000e+00	1.00000e+00	1.00000e+00	1.00000e+00	1.00000e+00	1.00000e+00	1.00000e+00	1.00000e+00	1.00000e+00	1.00000e+00	1.00000e+00	1.00000e+00	1.00000e+00	1.00000e+00	1.00000e+00	1.00000e+00	1.00000e+00	X	X	X	X	X	X	X	X	X	X	X	X	X	X	X	X	

B = Detector Channel
Val Type	B-AC1	B-AC2	B-AC3	B-AC4	B-AC5	B-AC6	B-AC7	B-AC8	B-AC9	B-AC10	B-AC11	B-AC12	B-AC13	B-AC14	B-AC15	B-AC16	B-DC1	B-DC2	B-DC3	B-DC4	B-DC5	B-DC6	B-DC7	B-DC8	B-DC9	B-DC10	B-DC11	B-DC12	B-DC13	B-DC14	B-DC15	B-DC16	B-Ph1	B-Ph2	B-Ph3	B-Ph4	B-Ph5	B-Ph6	B-Ph7	B-Ph8	B-Ph9	B-Ph10	B-Ph11	B-Ph12	B-Ph13	B-Ph14	B-Ph15	B-Ph16	

Term	0.00000e+00	0.00000e+00	0.00000e+00	0.00000e+00	0.00000e+00	0.00000e+00	0.00000e+00	0.00000e+00	0.00000e+00	0.00000e+00	0.00000e+00	0.00000e+00	0.00000e+00	0.00000e+00	0.00000e+00	0.00000e+00	0.00000e+00	0.00000e+00	0.00000e+00	0.00000e+00	0.00000e+00	0.00000e+00	0.00000e+00	0.00000e+00	0.00000e+00	0.00000e+00	0.00000e+00	0.00000e+00	0.00000e+00	0.00000e+00	0.00000e+00	0.00000e+00	-9.65827e+01	-1.43805e+02	-1.39444e+02	-1.81677e+02	-5.59979e+01	-8.92971e+01	-1.59950e+02	-1.62015e+02	-5.08740e+01	-7.88643e+01	-1.72352e+02	-1.71128e+02	-1.81284e+02	-1.77091e+02	-7.77532e+01	-1.49524e+02	
Factor	1.36684e-05	1.02022e-04	2.72554e-05	1.62761e-01	7.49054e-07	1.57017e-06	1.72592e-01	4.32996e-02	7.46595e-07	8.31903e-07	7.37064e-02	2.64361e-02	3.12763e-02	7.71586e-03	1.03788e-06	1.11046e-02	1.01505e-06	1.06720e-06	2.95085e-07	8.33522e-02	1.16206e-08	1.16285e-08	8.30791e-02	2.23858e-02	1.15920e-08	1.16152e-08	3.63287e-02	1.30762e-02	1.58931e-02	3.95424e-03	1.15352e-08	5.46625e-03	X	X	X	X	X	X	X	X	X	X	X	X	X	X	X	X	



#DISTANCE SETTINGS
A = Detector Channel
A-1	A-2	A-3	A-4	A-5	A-6	A-7	A-8	A-9	A-10	A-11	A-12	A-13	A-14	A-15	A-16	

2.5000e+00	3.0000e+00	2.5000e+00	3.0000e+00	2.0000e+00	3.0000e+00	1.5000e+00	3.0000e+00	3.0000e+00	3.0000e+00	3.0000e+00	3.0000e+00	3.0000e+00	3.0000e+00	1.5000e+00	3.0000e+00	

B = Detector Channel
B-1	B-2	B-3	B-4	B-5	B-6	B-7	B-8	B-9	B-10	B-11	B-12	B-13	B-14	B-15	B-16	

1.0000e+01	1.0000e+01	1.0000e+01	1.4400e+00	1.0000e+01	1.0000e+01	1.5100e+00	1.9400e+00	1.0000e+01	1.0000e+01	1.9900e+00	2.4900e+00	2.4100e+00	2.9000e+00	1.0000e+01	2.9800e+00	




#DATA BEGINS
time	group	step	mark	flag	A-AC1	A-AC2	A-AC3	A-AC4	A-AC5	A-AC6	A-AC7	A-AC8	A-AC9	A-AC10	A-AC11	A-AC12	A-AC13	A-AC14	A-AC15	A-AC16	A-DC1	A-DC2	A-DC3	A-DC4	A-DC5	A-DC6	A-DC7	A-DC8	A-DC9	A-DC10	A-DC11	A-DC12	A-DC13	A-DC14	A-DC15	A-DC16	A-Ph1	A-Ph2	A-Ph3	A-Ph4	A-Ph5	A-Ph6	A-Ph7	A-Ph8	A-Ph9	A-Ph10	A-Ph11	A-Ph12	A-Ph13	A-Ph14	A-Ph15	A-Ph16	B-AC1	B-AC2	B-AC3	B-AC4	B-AC5	B-AC6	B-AC7	B-AC8	B-AC9	B-AC10	B-AC11	B-AC12	B-AC13	B-AC14	B-AC15	B-AC16	B-DC1	B-DC2	B-DC3	B-DC4	B-DC5	B-DC6	B-DC7	B-DC8	B-DC9	B-DC10	B-DC11	B-DC12	B-DC13	B-DC14	B-DC15	B-DC16	B-Ph1	B-Ph2	B-Ph3	B-Ph4	B-Ph5	B-Ph6	B-Ph7	B-Ph8	B-Ph9	B-Ph10	B-Ph11	B-Ph12	B-Ph13	B-Ph14	B-Ph15	B-Ph16	aux-1	digaux	

3843.910	1	1	0	768	0.22382	0.087956	0.21937	0.17659	0.11513	0.14059	0.10886	0.37214	0.13608	0.14165	0.1006	0.2401	0.21812	0.23114	0.082536	0.33444	0.022917	-0.85	-0.35	-0.31458	-1.1333	-0.28958	-0.75417	-0.81667	-0.060417	-0.84792	-0.62917	-0.27708	-0.93125	-0.25833	-0.64375	-0.9375	362.367	404.679	538.753	435.863	470.259	430.288	236.209	486.808	417.430	433.547	459.991	206.147	396.567	264.074	441.121	510.269	0.0004209	0.00075981	0.00012555	471.39	2.0212e-06	1.1219e-05	585.68	153.03	1.3886e-06	6.2037e-07	241.71	87.011	47.628	20.385	4.0296e-06	42.134	0.0010642	0.0012629	0.00036821	578.72	1.4128e-05	1.603e-05	716.94	187.23	1.5845e-05	1.805e-05	299.9	107.45	70.989	27.181	1.8762e-05	51.094	231.220	181.218	317.256	192.371	410.430	231.617	192.061	197.555	374.802	181.696	196.436	201.274	200.839	206.757	180.344	205.218	-8191	255	
3844.006	1	1	0	0	0.15766	0.073354	0.20555	0.14153	0.24475	0.19058	0.13548	0.036161	0.10668	0.21781	0.14602	0.15888	0.2373	0.17019	0.11014	0.10736	0.47917	-1.0167	-0.63542	-0.48333	-0.9625	-0.22917	-0.59167	-0.82917	-0.089583	-0.94583	-0.68125	-0.020833	-0.90417	-0.34375	-0.575	-1.1229	358.910	420.530	310.589	514.441	396.966	526.050	238.889	249.004	315.589	183.323	219.983	253.761	196.267	278.747	216.316	439.583	0.0004876	0.00030862	0.00017542	465.22	4.3313e-06	1.0582e-05	579.62	151.27	4.5631e-06	2.3288e-06	237.43	86.77	47.724	20.312	4.3823e-06	42.546	0.0015823	0.0018466	0.00049506	604.37	1.8869e-05	2.0986e-05	734.72	191.55	1.9776e-05	2.1996e-05	306.91	110.62	76.646	28.626	2.1707e-05	53.055	224.541	271.811	349.222	192.619	221.921	227.900	191.977	197.766	358.578	286.957	196.476	201.275	201.207	206.961	464.212	205.411	-8191	255	
3844.102	1	1	0	0	0.29159	0.19794	0.03997	0.1113	0.30692	0.23157	0.095663	0.20539	0.050844	0.096804	0.27571	0.15187	0.25191	0.28063	0.1659	0.19832	0.11042	-0.72708	-0.60833	-0.1	-0.94792	-0.47083	-0.52917	-0.89583	-0.29167	-0.83333	-0.84792	-0.3125	-1.1187	-0.47917	-0.26875	-1.1812	291.337	255.754	185.902	357.172	474.007	430.141	256.423	309.148	496.907	196.071	507.926	451.601	309.006	382.067	454.120	520.952	0.00042211	0.0015615	0.00032963	462.48	8.9147e-06	1.2206e-05	578.67	150.03	8.4786e-06	1.3013e-05	237.6	85.968	46.814	20.355	1.2232e-05	42.485	0.0020133	0.0023151	0.00061613	638.37	2.5481e-05	2.6847e-05	765.49	199.19	2.5616e-05	2.7277e-05	324.26	117.44	88.518	31.736	3.1151e-05	58.137	232.182	309.101	296.457	192.687	227.178	412.882	192.335	197.757	526.644	385.261	196.653	201.241	200.745	206.749	383.202	205.344	-8191	255	
3844.198	1	1	0	0	0.31564	0.26447	0.14402	0.17341	0.03207	0.15754	0.24053	0.18332	0.1468	0.2123	0.19728	0.16512	0.15266	0.17103	0.17831	0.26509	0.16042	-0.76667	-0.59375	-0.1375	-0.66667	-0.64583	-0.5	-0.90417	-0.475	-0.89375	-0.83542	-0.1875	-0.93958	-0.29167	-0.22708	-1.1292	404.296	395.388	458.606	453.398	183.579	264.047	189.238	531.286	291.042	347.968	190.135	494.054	417.891	388.517	331.138	517.136	0.00049458	0.0008664	0.00032411	463.95	1.2205e-05	3.0813e-05	575.64	148.87	1.2188e-05	3.0799e-06	235.84	85.11	46.275	20.012	2.3946e-05	41.509	0.0031584	0.0034588	0.00094259	737.79	4.312e-05	4.4391e-05	892.03	235.53	4.8376e-05	4.8845e-05	387.24	140.92	122.6	39.542	5.4917e-05	70.25	207.215	308.135	340.414	192.731	227.180	387.054	192.233	197.253	248.017	360.663	196.619	201.167	200.920	207.024	334.919	204.884	-8191	255	
3844.294	1	1	0	0	0.14639	0.1461	0.15876	0.3148	0.38546	0.1857	0.13086	0.10882	0.34235	0.16123	0.19595	0.21236	0.25448	0.17046	0.088949	0.3101	-0.0625	-0.37292	-0.94167	-0.25208	-0.91875	-0.78125	-0.4125	-1.1521	-0.35	-0.58125	-0.79792	-0.36042	-0.89375	-0.6	-0.27083	-1.0458	526.933	532.922	184.945	382.120	182.378	342.451	387.476	299.470	305.527	450.386	246.128	476.320	257.975	214.024	283.283	456.629	0.00040434	0.0030294	0.00029103	441.83	1.0575e-05	2.2144e-05	552.43	143.11	8.456e-06	1.0075e-05	227.28	82.62	44.937	19.482	1.7629e-05	41.289	0.006138	0.0063926	0.0017597	971.65	8.1864e-05	7.7862e-05	1088.9	292.07	8.0118e-05	7.3182e-05	451.86	167.36	155.17	45.441	7.0133e-05	77.711	203.365	320.195	330.519	192.141	471.406	371.600	192.139	197.150	517.208	444.236	196.287	200.455	201.577	206.769	499.481	204.683	-8191	255	
3844.391	1	1	0	0	0.1511	0.28615	0.10301	0.11249	0.12068	0.10531	0.30286	0.2985	0.064276	0.12267	0.14889	0.092323	0.076121	0.37473	0.30721	0.064956	-0.072917	-0.50833	-0.87708	-0.079167	-0.89792	-0.725	0.0020833	-1.0833	-0.60417	-0.32917	-1.0688	-0.027083	-0.62708	-0.84167	-0.29375	-0.8375	520.081	333.321	208.110	348.471	282.885	506.521	519.642	252.829	511.888	343.466	466.300	539.106	440.237	532.859	442.422	229.301	0.0002276	0.0035017	0.00017698	437.52	9.2808e-06	1.0683e-05	554.17	142.3	8.6163e-06	1.0735e-05	229.24	83.238	44.89	19.681	1.5757e-05	41.605	0.0069622	0.0065635	0.0017046	949.2	6.9641e-05	6.2337e-05	971.67	260.48	5.6183e-05	4.8611e-05	371.57	136.98	104.56	33.178	3.5145e-05	59.883	218.252	286.430	535.731	191.757	388.213	372.430	192.155	197.514	458.577	398.469	196.353	200.866	201.182	206.717	533.956	205.261	-8191	255	
3844.511	1	1	0	0	0.26033	0.15422	0.29164	0.16333	0.058588	0.17903	0.31713	0.14807	0.04914	0.1591	0.11249	0.12202	0.2107	0.27152	0.19439	0.19517	0.072917	-0.083333	-0.91458	-0.3375	-0.89792	-0.93958	-0.047917	-0.72917	-0.3375	-0.28958	-1.1646	-0.4	-0.49375	-0.92083	0.091667	-0.86042	191.907	307.984	475.470	471.389	388.424	448.846	452.373	450.367	344.662	309.737	492.245	501.440	379.960	488.272	326.611	344.248	0.0004108	0.00047447	0.00010538	446.51	3.7781e-06	4.5664e-06	566.84	144.9	2.2351e-06	4.4456e-06	235.57	85.749	45.988	19.954	7.0543e-06	42.212	0.0031069	0.002863	0.00074501	673.44	2.7436e-05	2.4338e-05	740.17	193.15	2.0996e-05	1.8864e-05	294.42	108.43	69.926	25.877	1.5921e-05	50.848	241.116	438.435	458.702	192.234	328.481	212.174	191.643	197.693	336.167	428.873	196.472	201.260	201.536	207.049	254.029	205.438	-8191	255	
3844.606	1	1	0	0	0.16742	0.26173	0.15009	0.16187	0.15626	0.027104	0.2067	0.23132	0.12082	0.19736	0.067323	0.17152	0.058972	0.29538	0.12945	0.07428	-0.16042	-0.15	-0.9625	-0.070833	-0.27083	-0.8875	-0.11042	-0.71458	-0.82083	-0.1375	-1.0396	-0.45208	-0.36458	-1.025	-0.24792	-0.90625	337.509	305.507	343.059	232.413	261.312	362.854	447.958	278.756	534.340	446.151	538.638	377.073	506.252	499.490	310.061	446.993	0.00031065	0.00051272	0.00018925	462.22	3.9143e-06	7.0249e-06	583.08	148.63	2.5407e-06	2.4311e-06	239.66	87.25	47.014	20.287	7.7343e-06	42.624	0.0013831	0.0013238	0.0003705	579.3	1.4137e-05	1.3493e-05	692.35	180.47	1.3756e-05	1.3118e-05	285.16	104.75	65.523	25.07	1.4301e-05	50.284	229.370	318.998	531.789	192.289	354.249	330.254	192.257	197.831	295.838	409.735	196.628	201.084	200.637	206.813	209.254	205.248	-8191	255	
3844.702	1	1	0	0	0.24946	0.086359	0.41601	0.22295	0.43201	0.40298	0.08878	0.29891	0.13117	0.098096	0.19953	0.091666	0.25179	0.18129	0.075115	0.34906	-0.25208	0.16458	-0.84792	-0.275	-0.25	-0.95625	-0.27917	-0.55	-0.63542	-0.04375	-0.98125	-0.59792	-0.49167	-1.1125	-0.2125	-0.71875	279.287	241.998	220.245	477.385	343.266	499.403	414.160	208.107	507.112	279.018	536.176	480.842	257.423	473.806	291.380	400.053	0.00043869	0.00080912	0.00017178	463.85	1.6836e-06	2.8463e-06	581.29	149.81	2.8151e-06	4.3016e-06	239.29	87.899	47.514	20.639	7.2592e-06	43.639	0.0012509	0.0012438	0.00038024	580.46	1.4042e-05	1.3779e-05	703.89	182.56	1.4872e-05	1.4675e-05	294.19	107.59	68.472	26.272	1.7713e-05	52.306	243.527	258.413	275.396	192.536	454.870	252.656	191.949	197.895	336.004	262.306	196.302	201.099	201.171	206.438	250.386	205.472	-8191	255	
3844.798	1	1	0	0	0.17759	0.053942	0.17122	0.2642	0.29317	0.19679	0.1191	0.05846	0.24971	0.078147	0.11989	0.14234	0.062044	0.25601	0.059158	0.13413	-0.27292	0.054167	-0.91667	-0.54792	-0.014583	-1.0979	-0.55833	-0.87083	-0.8125	-0.05	-0.8875	-0.68125	-0.375	-1.1667	-0.2625	-0.46458	264.910	508.206	323.934	364.486	429.006	501.735	436.107	270.964	271.233	349.961	191.252	452.926	513.688	336.156	449.002	403.348	0.00039497	0.00071359	0.00018118	465.16	3.911e-06	7.3921e-06	584.33	149.86	3.1598e-06	6.5299e-06	241.14	88.91	47.985	20.981	4.7484e-06	44.258	0.0015129	0.0015927	0.00050871	615.72	1.936e-05	2.035e-05	760.58	196.87	2.1852e-05	2.2742e-05	324.56	117.73	79.679	29.635	2.6522e-05	56.331	224.599	509.175	534.999	192.730	440.226	264.690	191.944	197.900	440.773	215.306	196.577	201.069	200.674	206.445	479.004	205.325	-8191	255	
3844.894	1	1	0	0	0.35736	0.10692	0.19861	0.15216	0.078617	0.20191	0.26517	0.13669	0.18203	0.067334	0.10019	0.16779	0.14274	0.30699	0.31367	0.24625	-0.4	-0.15208	-0.84583	-0.71042	-0.070833	-0.88333	-0.56458	-0.64167	-0.59167	-0.19583	-0.94167	-0.78542	0.029167	-1.0667	-0.44792	-0.45417	387.504	246.864	287.155	421.791	369.681	485.133	532.369	267.134	296.116	334.615	238.811	450.641	497.906	200.883	529.749	492.643	0.00045797	0.00093231	4.1302e-05	454.01	9.6842e-06	2.2136e-05	570.04	150.24	2.6223e-06	5.0302e-06	240.09	88.95	48.372	21.156	9.5318e-06	44.509	0.0020779	0.0022346	0.00066831	640.54	2.3799e-05	2.5991e-05	780.87	203.81	2.5712e-05	2.7914e-05	335.29	121.51	84.486	31.466	3.0032e-05	58.265	222.817	494.651	523.211	192.819	404.589	265.371	191.725	197.870	484.910	244.717	196.615	200.830	201.177	206.465	367.782	205.206	-8191	255	
3844.990	1	1	0	0	0.23451	0.11148	0.17689	0.043854	0.066313	0.13589	0.16893	0.096486	0.062986	0.053735	0.074178	0.051284	0.15373	0.34227	0.42068	0.078694	-0.55833	-0.4125	-0.63542	-0.6625	-0.14792	-1.025	-0.53958	-0.40833	-1.1187	-0.10417	-0.85833	-1.1167	-0.18542	-0.88958	-0.51042	-0.47708	446.666	290.649	255.323	425.936	196.535	364.668	417.073	410.210	444.385	386.382	527.600	207.504	253.481	517.549	355.579	500.067	0.00043894	0.0011894	0.00061481	443.7	5.1839e-06	2.6842e-05	553.18	146.67	2.5427e-06	4.6033e-06	233.66	87.016	47.346	21.029	1.746e-05	43.881	0.0023988	0.0027662	0.00078052	658.44	2.8305e-05	3.211e-05	793.02	208.14	2.9993e-05	3.3751e-05	340.06	123.71	89.572	33.351	3.422e-05	59.924	220.736	232.169	343.762	192.758	324.179	504.212	191.977	197.822	536.553	183.641	196.768	200.853	200.416	206.176	365.991	204.894	-8191	255	
3845.086	1	1	0	0	0.11766	0.21564	0.16236	0.056803	0.34981	0.27007	0.17677	0.21654	0.32834	0.20891	0.15432	0.11781	0.087931	0.24921	0.22992	0.10728	-0.63958	-0.225	-0.39167	-0.68125	-0.39375	-0.90208	-0.59583	-0.3375	-1.175	-0.41667	-0.53542	-0.95417	-0.10208	-0.75208	-0.6875	-0.475	277.088	492.619	443.260	192.823	317.205	468.173	237.484	376.435	219.582	264.130	417.038	334.105	500.074	291.573	389.534	391.519	0.00050706	0.00074677	0.00055149	421.1	9.7175e-06	1.9275e-06	530.9	142.42	1.1686e-05	6.4931e-06	230.25	86.385	46.861	20.95	1.4333e-05	43.862	0.0029483	0.0034598	0.00090171	670.95	3.4063e-05	3.7961e-05	796.3	210.1	3.4478e-05	3.8131e-05	343	126.25	96.842	35.194	3.8405e-05	61.939	194.415	245.886	296.134	192.446	271.127	429.744	192.052	197.711	240.525	449.164	197.001	200.815	200.643	206.735	399.110	204.764	-8191	255	
3845.207	1	1	0	0	0.28418	0.059304	0.072954	0.15739	0.12273	0.18382	0.28383	0.19666	0.18227	0.2577	0.19809	0.35146	0.12553	0.11199	0.15791	0.14781	-0.68333	-0.28125	-0.26458	-1.0187	-0.12708	-0.9	-0.89167	-0.38333	-0.89792	-0.40417	-0.31042	-1.0875	-0.15208	-0.8	-0.63958	-0.33125	451.479	365.376	420.068	251.966	372.340	361.056	405.957	474.699	350.629	276.074	187.119	434.052	436.519	478.845	348.030	432.425	0.0005519	0.0012931	0.00026457	420.61	1.0614e-05	1.4094e-05	530.15	142.46	1.4678e-05	1.3574e-05	229.26	86.794	47.392	21.119	1.3529e-05	44.355	0.0035776	0.0040367	0.0010189	704.5	4.0714e-05	4.1389e-05	805.63	211.99	3.7351e-05	3.7849e-05	339.37	125.14	97.004	33.834	3.3406e-05	59.914	217.307	339.134	255.354	192.657	196.673	426.448	192.051	197.600	223.455	381.452	196.710	200.725	200.745	206.798	366.596	204.958	-8191	255	
3845.303	1	1	0	0	0.15516	0.12106	0.10653	0.24463	0.18873	0.1492	0.17008	0.2032	0.11799	0.20354	0.22812	0.16186	0.10841	0.10598	0.16784	0.23155	-0.60833	-0.46458	-0.43958	-1.1542	-0.25417	-0.53333	-0.99792	-0.2125	-0.97917	-0.59792	-0.083333	-1.0979	-0.24792	-0.76875	-1.0917	-0.46042	381.994	414.994	527.608	347.674	519.034	453.590	186.434	514.584	461.417	192.140	215.218	321.125	514.502	442.932	464.080	442.519	0.00048652	0.0014685	0.00042893	423.05	6.9577e-06	2.2285e-05	536.17	142.6	6.3115e-06	1.5751e-05	230.51	86.823	47.177	21.244	8.1307e-06	44.007	0.0032247	0.0033151	0.00084097	666.18	3.7461e-05	3.6468e-05	793.42	211.87	3.9349e-05	3.8131e-05	344.64	128.95	103.15	34.556	3.6303e-05	62.328	205.772	338.508	372.518	192.141	263.061	374.358	192.056	197.462	239.770	365.516	196.298	200.543	200.801	207.300	410.561	204.890	-8191	255	
3845.398	1	1	0	0	0.17239	0.17928	0.21211	0.33387	0.057206	0.36447	0.13556	0.33389	0.28198	0.19187	0.21843	0.10619	0.10066	0.18123	0.13005	0.3726	-0.5125	-0.42708	-0.20208	-1.0063	-0.36875	-0.52917	-0.96458	-0.1375	-0.73542	-0.71875	-0.225	-0.71667	-0.2875	-0.59375	-0.98333	-0.1875	388.868	210.913	528.963	500.392	406.096	274.954	417.014	479.365	200.719	199.999	507.924	491.580	391.327	219.045	189.627	506.401	0.00031484	0.0014574	0.00020478	423.22	9.5647e-06	2.1166e-05	537.34	141.61	6.8247e-06	1.2986e-05	226.46	84.787	46.538	20.679	8.4016e-06	43.054	0.0037061	0.0035713	0.00091333	697.21	4.0292e-05	3.6098e-05	785.03	212.1	3.7656e-05	3.4645e-05	332.76	126.83	98.208	32.732	3.2664e-05	60.529	217.574	270.873	303.208	192.230	376.226	404.369	192.012	197.256	261.901	407.364	196.596	200.965	201.471	206.565	378.507	204.761	-8191	255	
3845.471	1	1	0	0	0.28962	0.1527	0.1442	0.093593	0.15418	0.23448	0.15847	0.23682	0.51574	0.048199	0.11787	0.11215	0.25476	0.081195	0.31723	0.18737	-0.20625	-0.50625	-0.09375	-1.075	-0.55833	-0.47083	-1.2104	-0.275	-0.64792	-0.80417	-0.3125	-1.0979	-0.3875	-0.22292	-0.86042	-0.27917	414.249	269.504	255.223	447.323	273.439	378.939	498.018	497.873	429.722	236.990	493.276	474.990	488.140	333.885	379.372	424.784	0.0002092	0.00043831	0.00027363	422.71	1.086e-05	3.0337e-06	532.72	142.69	2.2945e-06	3.858e-06	229.26	85.461	46.456	20.518	3.4417e-06	43.553	0.0032352	0.0030704	0.0008049	681.96	3.6051e-05	3.264e-05	769.13	212.1	3.3814e-05	3.069e-05	322.99	123.51	88.972	30.266	2.637e-05	57.464	258.832	301.111	200.725	192.578	443.072	221.282	191.837	197.235	439.241	323.624	196.217	200.636	201.420	206.478	345.497	205.259	-8191	255	
3845.590	1	1	0	0	0.30788	0.30362	0.11709	0.36132	0.11317	0.094629	0.15326	0.23998	0.20042	0.055075	0.18119	0.26447	0.11299	0.18985	0.31032	0.1512	-0.13958	-0.93542	0.0041667	-0.94167	-0.74167	-0.30208	-0.9375	-0.29375	-0.56458	-0.78125	-0.17917	-0.89583	-0.49167	-0.36042	-1.0458	-0.6125	350.005	396.778	434.425	509.566	530.425	389.964	379.643	315.836	311.018	286.796	381.297	517.328	448.663	448.711	449.597	214.841	0.00028067	0.00076538	5.7194e-05	436.57	1.0919e-05	1.1667e-05	553.42	146.09	6.4143e-06	8.233e-06	234.99	86.702	47.84	21.076	8.628e-06	44.189	0.0023412	0.0022122	0.00058581	629.21	2.4225e-05	2.2555e-05	727.64	199.44	2.3934e-05	2.2658e-05	308.78	116.35	77.594	28.131	2.0422e-05	55.077	239.964	267.459	236.021	192.420	369.911	308.258	191.636	197.835	371.665	293.226	196.194	200.890	201.097	206.568	324.550	205.224	-8191	255	
3845.686	1	1	0	0	0.16397	0.14546	0.16176	0.090369	0.19017	0.41049	0.15815	0.28444	0.10317	0.13391	0.23029	0.14486	0.2215	0.16535	0.075792	0.19144	-0.23125	-0.77917	-0.30625	-1.1917	-0.71875	-0.072917	-0.86667	-0.5125	-0.37708	-0.83125	-0.21667	-0.76667	-0.75	-0.097917	-0.79167	-0.52708	187.624	317.574	508.507	511.138	275.010	301.511	183.600	482.932	430.636	279.327	308.041	188.421	190.776	439.707	529.491	468.466	0.00031753	0.00055396	0.00025067	450.49	7.754e-06	8.0655e-06	575.82	150.29	6.4458e-06	9.5472e-06	241.42	88.965	48.311	21.225	2.9193e-06	44.563	0.0017439	0.0017184	0.00049085	609.18	1.9032e-05	1.7906e-05	723.02	192.64	1.8234e-05	1.763e-05	303.7	112.77	73.48	27.564	1.9704e-05	54.642	237.592	329.797	537.921	192.445	393.896	328.065	191.958	197.585	418.435	349.692	196.374	201.036	201.283	206.279	478.944	205.445	-8191	255	
3845.782	1	1	0	0	0.26715	0.24178	0.070921	0.059794	0.32286	0.12907	0.066328	0.18632	0.20615	0.30522	0.23078	0.37542	0.28563	0.118	0.4416	0.13884	-0.089583	-1.0542	-0.064583	-0.40625	-0.73125	-0.039583	-0.775	-0.525	-0.2875	-0.98542	-0.072917	-0.8375	-0.81875	-0.05	-0.67083	-0.56875	532.486	510.823	498.294	441.069	462.081	418.435	191.163	519.442	505.167	183.957	190.017	190.226	522.213	347.731	359.379	537.973	0.00037715	0.00099651	0.00018803	459.41	1.0204e-05	6.999e-06	575.17	150.18	4.5255e-06	7.737e-06	240.18	88.303	47.617	20.786	3.2213e-06	43.983	0.0016476	0.0016641	0.00050825	609.49	1.8487e-05	1.7911e-05	727.85	191.74	1.8306e-05	1.8244e-05	307.45	112.04	73.644	27.572	2.1327e-05	54.198	228.648	290.115	440.408	192.474	436.197	350.746	192.022	197.390	365.938	316.832	196.288	200.972	201.302	206.688	499.353	205.343	-8191	255	
3845.903	1	1	0	0	0.17833	0.12747	0.15787	0.1976	0.097119	0.25568	0.24803	0.171	0.35137	0.091313	0.25125	0.043751	0.071635	0.18262	0.29233	0.19649	0.0625	-0.71458	-0.4125	-0.64375	-0.73542	-0.22083	-0.72917	-0.48333	-0.20625	-0.78542	-0.45417	-0.52292	-0.875	-0.18125	-0.75833	-0.74583	278.558	449.504	418.048	215.733	490.316	190.718	274.957	352.143	520.222	287.397	274.144	249.735	228.115	422.727	396.154	266.257	0.00040805	0.00080356	0.00028486	457.69	4.8449e-06	5.9046e-06	574.08	150.34	1.8157e-06	8.0619e-06	240.99	88.339	47.644	20.884	8.4888e-06	44.01	0.0016998	0.0017838	0.00054956	609.43	1.9338e-05	1.9457e-05	737.09	191.6	1.8707e-05	1.9411e-05	309.89	111.45	73.151	27.869	2.1113e-05	53.899	236.182	497.133	262.066	192.484	426.646	185.337	191.713	197.476	289.558	200.239	196.394	201.204	200.872	206.514	309.689	205.208	-8191	255	
3845.999	1	1	0	0	0.23935	0.24998	0.022799	0.23114	0.10758	0.21708	0.075827	0.33086	0.053471	0.13471	0.18763	0.20312	0.080706	0.27899	0.21264	0.32353	0.24167	-0.94167	-0.11458	-0.47917	-0.73125	-0.33125	-0.98542	-0.6125	-0.11875	-0.97292	-0.27917	-0.58333	-0.97083	0.10208	-0.65625	-0.925	491.158	202.767	196.067	272.204	503.762	367.615	235.797	453.076	495.365	449.344	451.851	457.973	428.855	505.414	228.639	470.675	0.0004427	0.0010405	0.00013021	462.14	1.4809e-06	1.5264e-05	581.13	150.61	1.0965e-05	5.276e-06	242.39	89.188	48.011	21.083	3.0926e-06	44.648	0.0016667	0.0018765	0.00055177	611.84	1.9263e-05	2.0658e-05	743.61	192.27	1.8687e-05	2.0487e-05	310.28	111.79	73.099	28.3	2.0225e-05	54.01	241.170	524.236	306.483	192.584	432.185	228.267	191.933	197.329	329.424	255.577	196.782	201.192	201.162	206.684	380.069	205.095	-8191	255	
3846.071	1	1	0	0	0.30125	0.18638	0.2444	0.17836	0.11607	0.33064	0.13577	0.060218	0.083824	0.11876	0.13466	0.16475	0.12082	0.1394	0.17338	0.1508	0.225	-0.93542	-0.57292	-0.28333	-0.85833	0.05	-0.7125	-0.85833	-0.12917	-0.79792	-0.67083	-0.29583	-0.8875	-0.15208	-0.68542	-1.0917	511.393	528.097	291.427	228.933	513.356	364.306	454.373	196.909	481.624	453.664	509.646	192.699	232.066	215.888	342.365	495.716	0.00044859	0.0010045	0.00010118	465.57	8.1996e-06	8.2349e-06	587.79	153.33	6.8973e-06	2.8255e-06	245.56	89.582	48.786	21.171	8.7821e-06	44.887	0.0016181	0.0018863	0.0005144	607.34	1.8326e-05	2.0379e-05	740.05	191.91	1.8224e-05	2.0524e-05	309.03	111.48	73.589	28.471	1.9276e-05	53.966	214.423	523.436	291.627	192.725	254.965	271.872	192.110	197.606	283.492	387.512	196.354	201.139	201.047	206.531	329.735	205.139	-8191	255	
3846.191	1	1	0	0	0.082049	0.089337	0.19823	0.29004	0.099755	0.25455	0.14152	0.2531	0.16681	0.19313	0.18396	0.36703	0.040527	0.01005	0.13541	0.13006	0.42917	-0.65	-0.42708	0.095833	-0.95	-0.46458	-0.6	-0.98125	-0.079167	-0.92917	-0.675	-0.2	-0.88333	-0.4625	-0.48125	-1.1313	379.870	425.535	183.554	491.316	326.484	455.394	465.378	489.688	185.347	324.671	236.540	503.160	450.460	369.824	212.562	231.667	0.00038823	0.00020532	4.8423e-05	468.47	5.991e-06	1.0422e-05	581.8	150.79	4.8539e-06	4.8915e-06	240.77	88.583	48.799	20.95	3.1023e-06	44.384	0.0016478	0.0019125	0.00049635	605.99	1.9248e-05	2.1086e-05	732.67	190.35	1.9427e-05	2.1124e-05	305.71	110.35	75.086	28.412	1.9116e-05	53.457	215.717	235.611	316.387	192.449	207.378	307.796	192.141	197.544	250.879	372.073	196.721	201.020	201.115	206.651	311.850	205.111	-8191	255	
3846.287	1	1	0	0	0.10363	0.058608	0.081824	0.18635	0.25396	0.083088	0.29035	0.11947	0.40932	0.15438	0.1356	0.089962	0.18801	0.11206	0.23538	0.14965	0.275	-0.58125	-0.79167	-0.027083	-0.63333	-0.32708	-0.45625	-0.75625	-0.28333	-0.8	-0.79583	-0.03125	-1.0146	-0.45417	-0.17917	-0.93333	324.375	409.739	269.563	199.586	239.818	327.248	422.242	196.477	268.424	314.532	410.733	210.299	331.603	476.681	269.500	223.471	0.00043865	0.00043513	0.00033838	466.59	3.6594e-06	4.087e-06	586.82	152.17	2.5401e-06	2.088e-06	243.2	88.653	48.319	21.02	3.4217e-06	44.589	0.0017565	0.0019016	0.00048794	602.21	2.0122e-05	2.0553e-05	729.23	190.18	1.9923e-05	2.0003e-05	303.48	110.22	75.206	27.961	1.7942e-05	53.395	220.306	331.372	218.169	192.666	206.422	308.977	191.992	197.432	236.662	236.918	196.396	200.595	201.018	206.858	294.269	205.471	-8191	255	
3846.384	1	1	0	0	0.054157	0.10622	0.094304	0.35033	0.16631	0.33334	0.21956	0.25908	0.092001	0.18309	0.20937	0.14235	0.15511	0.15769	0.21512	0.21422	0.016667	-0.51875	-0.61875	-0.033333	-0.89583	-0.5125	-0.13958	-0.90417	-0.28542	-0.50625	-0.79792	-0.17917	-0.87708	-0.51667	0.020833	-0.9	391.667	374.567	315.589	221.823	313.847	273.209	520.708	457.293	402.157	257.998	209.310	315.688	517.811	454.339	494.066	234.024	0.00036573	0.00089042	4.7576e-05	470.31	2.6356e-06	4.7655e-06	590.65	153.91	2.8693e-06	6.6539e-06	246.2	90.293	48.908	21.158	3.9717e-06	45.075	0.0017523	0.0017674	0.00045917	604.43	1.97e-05	1.883e-05	725.06	191.03	1.9513e-05	1.8376e-05	302.81	110.86	74.628	27.589	1.6512e-05	53.724	220.715	308.224	239.907	192.177	339.001	270.914	191.806	197.568	351.006	357.551	196.702	200.456	201.019	206.667	295.423	205.329	-8191	255	
3846.502	1	1	0	0	0.24795	0.038776	0.17276	0.17649	0.24374	0.15451	0.17703	0.12692	0.23544	0.15591	0.18617	0.09455	0.26817	0.022578	0.047403	0.088549	0.097917	-0.4875	-0.8	-0.21875	-0.72708	-0.38958	-0.05	-1.0167	-0.30833	-0.25417	-1.1542	-0.25625	-0.55417	-0.57917	-0.21042	-1.2604	262.833	252.564	251.310	491.343	416.663	386.966	187.450	290.253	500.906	302.834	219.002	475.193	538.661	434.833	291.812	253.408	0.00038496	0.00066555	0.00029623	475.42	2.2995e-06	1.0542e-05	599.01	155.07	5.2476e-06	2.7898e-06	248.24	91.118	49.023	21.277	3.2115e-07	45.189	0.0016624	0.0015829	0.00041875	606.19	1.8455e-05	1.7e-05	723.11	191.33	1.7891e-05	1.6484e-05	299.98	110.93	72.678	27.082	1.5135e-05	53.457	218.784	289.720	228.939	192.128	495.655	296.091	191.909	197.412	378.876	332.759	196.201	201.051	201.326	206.791	224.053	205.384	-8191	255	
3846.599	1	1	0	0	0.201	0.30526	0.11581	0.12793	0.10917	0.12315	0.069879	0.20794	0.085197	0.12013	0.15372	0.38617	0.18195	0.10533	0.21615	0.14102	0.15	-0.23958	-0.8875	-0.29375	-0.72292	-0.75208	-0.22917	-0.9125	-0.29375	-0.21875	-1.1354	-0.23125	-0.33125	-0.90417	-0.24167	-0.73958	505.480	218.206	470.227	235.546	231.411	474.981	451.656	332.101	526.251	309.745	287.505	187.043	288.468	531.860	188.380	225.351	0.00045513	0.00033478	0.00024606	473.44	3.5167e-06	4.6192e-06	594.4	154.1	2.8463e-06	5.265e-06	245.79	89.863	48.462	21.109	8.1429e-06	44.745	0.0015003	0.001432	0.00038383	599.07	1.6481e-05	1.5492e-05	709.44	189.63	1.6404e-05	1.5239e-05	295.51	109.6	70.533	26.527	1.4849e-05	52.964	231.682	362.204	348.632	192.033	392.395	385.729	191.831	197.492	422.644	460.561	196.293	200.666	201.046	206.521	225.389	205.113	-8191	255	
3846.695	1	1	0	0	0.06108	0.1522	0.0752	0.28614	0.17939	0.042101	0.058196	0.14012	0.12675	0.14603	0.22225	0.1036	0.21461	0.34394	0.17815	0.1701	-0.14375	-0.32083	-1.0292	-0.2	-0.63333	-0.69792	-0.14375	-0.72292	-0.68333	-0.095833	-1.0063	-0.24792	-0.54167	-0.66458	-0.0125	-0.925	491.361	292.236	308.451	486.794	497.946	400.299	197.045	535.438	306.808	355.142	183.747	480.784	194.051	462.189	200.357	403.734	0.00033824	0.00083317	6.6724e-05	471.96	4.0037e-06	4.2661e-06	591.89	154.69	8.119e-07	4.66e-06	247.58	89.689	49.038	21.116	9.1904e-06	45.081	0.0014201	0.0013789	0.00038906	601.75	1.6018e-05	1.5329e-05	714.16	190.97	1.6071e-05	1.5161e-05	298.46	110.15	70.331	26.619	1.5839e-05	53.51	226.299	232.457	182.101	192.160	348.854	457.856	191.969	197.593	338.323	254.337	196.235	200.824	201.620	206.524	220.500	205.492	-8191	255	
3846.766	1	1	0	0	0.27736	0.22622	0.081061	0.18043	0.28289	0.15096	0.14101	0.31618	0.048891	0.11292	0.019429	0.25926	0.37313	0.16934	0.25391	0.18472	-0.091667	-0.079167	-0.83542	-0.24792	-0.4125	-0.95208	0.010417	-0.74375	-0.68958	0.14375	-1.0562	-0.50625	-0.16875	-0.94375	-0.039583	-0.39792	485.244	369.476	275.561	504.379	189.456	224.774	269.670	451.107	274.572	401.468	211.346	463.325	238.029	411.020	447.809	533.322	0.00036331	0.00054066	0.00016944	477.53	2.0126e-06	4.7402e-06	599.11	155.3	1.6754e-06	4.7691e-06	249.35	89.936	49.1	21.163	1.3437e-05	44.947	0.0014235	0.0014032	0.00041515	607.51	1.5938e-05	1.5348e-05	727.45	191.4	1.5989e-05	1.5351e-05	303.63	110.9	70.178	26.782	1.6838e-05	53.555	228.399	234.310	491.416	192.584	371.645	391.411	191.936	197.631	276.722	298.692	196.132	201.331	200.702	206.712	231.453	205.330	-8191	255	
3846.887	1	1	0	0	0.12288	0.22234	0.36973	0.32979	0.090761	0.17568	0.10823	0.032531	0.18458	0.073968	0.049081	0.23188	0.048804	0.13293	0.096706	0.18405	-0.21875	-0.077083	-1.0417	-0.49167	-0.26042	-0.75833	-0.24167	-0.73958	-0.9	0.15833	-0.84167	-0.40208	-0.20625	-1.0146	-0.26667	-0.49583	520.227	331.865	530.276	205.883	460.274	439.572	497.959	206.750	461.926	216.579	211.790	404.256	333.744	222.796	467.304	366.306	0.00033623	0.00055385	0.00018533	479.76	4.9797e-06	1.13e-05	600.57	155.66	5.5252e-06	6.3437e-06	248.88	90.627	49.135	21.319	7.2986e-06	44.897	0.0014066	0.0014039	0.0004342	607.15	1.5525e-05	1.5303e-05	734.81	191.33	1.5629e-05	1.5418e-05	305.65	110.23	70.033	26.945	1.7615e-05	53.306	241.040	187.294	497.956	192.372	406.246	302.461	191.849	197.712	324.211	345.294	196.337	201.033	201.197	206.640	219.882	205.516	-8191	255	
3846.983	1	1	0	0	0.12427	0.024334	0.2645	0.19088	0.15819	0.20039	0.056033	0.32298	0.085981	0.14081	0.15073	0.11588	0.093695	0.044001	0.12748	0.37933	-0.58958	-0.027083	-0.6625	-0.7625	-0.085417	-1.2354	-0.29167	-0.46458	-0.96458	-0.047917	-0.825	-0.84792	-0.13333	-1.0417	-0.26458	-0.48958	270.349	474.174	200.058	368.646	182.654	539.167	197.174	418.334	205.752	521.979	521.275	339.577	212.537	329.803	211.903	519.128	0.00037176	0.00046406	0.00025991	478.56	2.8495e-06	1.1272e-05	598.66	154.13	2.7346e-06	7.6436e-06	248.48	89.157	49.001	21.098	5.0281e-06	44.7	0.001407	0.0014853	0.00045216	603.09	1.5712e-05	1.6356e-05	735.1	189.42	1.5816e-05	1.666e-05	306.94	109.75	70.022	27.143	1.7842e-05	52.965	232.994	511.467	219.216	192.525	298.473	219.675	191.639	197.568	459.350	200.016	196.334	200.913	201.325	206.763	238.693	205.122	-8191	255	
3847.079	1	1	0	0	0.18819	0.27271	0.22317	0.065786	0.11469	0.10963	0.15497	0.10194	0.08713	0.17428	0.094109	0.19253	0.33614	0.14357	0.25033	0.1776	-0.48958	-0.24167	-0.67292	-0.62292	-0.28333	-1.0438	-0.3625	-0.35417	-0.79375	-0.01875	-0.5875	-0.78542	-0.1375	-0.86458	-0.525	-0.32292	189.830	517.376	403.552	253.930	493.826	368.060	373.036	282.294	348.608	428.924	501.448	351.256	534.566	483.657	203.458	533.980	0.00049993	0.0010221	0.00015279	479.69	1.4497e-06	1.6076e-06	599.96	155.4	6.2604e-07	1.1265e-06	248.83	90.148	48.533	21.085	2.8278e-06	45.065	0.0014023	0.0015695	0.00045272	603.25	1.5648e-05	1.7265e-05	737.85	189.81	1.5698e-05	1.7396e-05	305.49	109.67	69.766	27.437	1.7284e-05	53.17	223.595	503.482	350.556	192.531	307.412	295.524	191.823	197.485	253.915	527.217	196.428	200.697	200.688	206.450	187.671	205.287	-8191	255	
3847.175	1	1	0	0	0.19127	0.17702	0.18139	0.084903	0.15161	0.20303	0.18836	0.085709	0.075093	0.13691	0.1891	0.13165	0.23986	0.15962	0.14008	0.1516	-0.64375	-0.0375	-0.53958	-0.84792	-0.0875	-0.90625	-0.51875	-0.42708	-0.68958	-0.25208	-0.45	-0.60208	-0.079167	-0.80208	-0.49375	-0.38333	474.393	418.315	324.261	534.208	516.485	499.332	342.782	432.792	483.361	437.743	204.691	249.085	476.003	407.545	332.948	231.507	0.00032822	0.00080126	6.6109e-05	481.56	9.5136e-06	7.5655e-06	602.11	155.63	4.0081e-06	6.2027e-06	249.09	90.817	48.801	21.39	5.5561e-06	45.292	0.0014136	0.0016358	0.00043849	603.94	1.5915e-05	1.7862e-05	736.87	190.15	1.603e-05	1.7805e-05	304.14	109.49	70.45	27.618	1.648e-05	53.163	223.117	539.025	275.059	192.387	190.638	308.665	191.883	197.495	258.256	335.511	196.423	200.808	200.937	206.736	421.830	205.463	-8191	255	
3847.296	1	1	0	0	0.12449	0.18971	0.026444	0.079096	0.14244	0.036938	0.14837	0.11663	0.13315	0.084774	0.32393	0.085731	0.088004	0.06013	0.075839	0.35843	-0.55625	0.04375	-0.35417	-0.8875	0.041667	-0.80208	-0.8	-0.375	-0.83333	-0.25625	-0.55208	-0.88333	-0.0125	-0.81667	-0.68333	-0.10417	422.626	455.970	222.786	452.556	200.775	367.810	236.922	411.104	342.242	225.520	482.975	436.655	524.169	230.140	359.962	539.381	0.0005363	0.00041993	0.0002626	482.48	4.3019e-06	1.5336e-05	604.31	155.19	7.7969e-06	4.2725e-07	248.02	90.372	48.843	21.243	1.1777e-05	45.001	0.0014399	0.001627	0.00041607	601.43	1.642e-05	1.7849e-05	734.23	189.42	1.6862e-05	1.8088e-05	303.55	109.55	72.203	27.734	1.6781e-05	53.1	224.408	286.035	258.142	192.212	415.172	351.359	191.820	197.441	263.228	346.892	196.385	200.855	200.817	206.751	350.943	205.044	-8191	255	
3847.368	1	1	0	0	0.16489	0.16315	0.19977	0.18116	0.12107	0.25147	0.24285	0.31006	0.066716	0.26781	0.25414	0.28541	0.19735	0.1818	0.0507	0.1803	-0.45625	-0.31042	-0.35	-0.6125	-0.027083	-0.62917	-0.78542	-0.25833	-0.77917	-0.50833	-0.475	-0.98333	-0.20833	-0.7375	-0.83333	-0.072917	487.660	283.333	363.020	379.718	230.804	253.064	482.820	213.408	245.553	361.822	499.943	495.817	438.827	358.720	485.247	198.572	0.00035762	0.00099924	0.00024055	476.64	9.7974e-06	1.5505e-05	600.3	154.14	8.3012e-06	1.2857e-05	246.61	89.486	48.237	21.03	4.1933e-06	44.767	0.0015952	0.0016965	0.00043085	604.58	1.8568e-05	1.8818e-05	734.16	190.27	1.9197e-05	1.9179e-05	305.06	110.65	75.554	27.966	1.8135e-05	53.661	220.961	293.111	251.837	192.322	277.050	319.268	191.895	197.240	302.570	316.113	196.627	200.945	200.557	206.972	264.006	205.172	-8191	255	
3847.464	1	1	0	0	0.12289	0.18755	0.15294	0.28829	0.22157	0.39562	0.12875	0.25654	0.25427	0.079426	0.0731	0.053044	0.2001	0.27633	0.21018	0.17589	-0.46875	-0.39375	-0.03125	-0.93958	-0.2	-0.74583	-0.56667	-0.13125	-0.76042	-0.33958	-0.10208	-1.1417	-0.31875	-0.33333	-0.75417	-0.075	420.295	327.154	276.423	498.817	376.849	500.014	490.515	193.015	365.377	337.940	219.188	411.362	443.106	469.919	189.978	354.009	0.00049894	0.00067988	6.3566e-05	475.37	4.4585e-06	1.1556e-05	601.56	154.12	4.0182e-06	1.0629e-05	245.88	89.491	48.349	20.963	6.0161e-06	44.627	0.0018224	0.0018088	0.00047081	618.8	2.1258e-05	1.9997e-05	746.89	194.76	2.1561e-05	2.0199e-05	308.88	113.12	78.257	28.193	1.9441e-05	54.705	215.176	287.732	216.397	192.294	186.548	393.863	191.370	197.505	297.420	402.597	196.515	200.623	200.852	206.832	500.749	205.302	-8191	255	
3847.585	1	1	0	0	0.15693	0.050208	0.14907	0.51143	0.30677	0.040476	0.19621	0.17696	0.18817	0.21121	0.10744	0.23416	0.079438	0.3251	0.19495	0.1754	-0.52917	-0.63542	-0.17708	-0.675	-0.1125	-0.56875	-0.99583	-0.095833	-0.8125	-0.71667	-0.2625	-0.95833	-0.054167	-0.3875	-1.0458	-0.24375	263.731	417.714	360.552	461.117	250.050	312.354	207.523	468.611	528.236	226.592	234.322	328.140	208.656	228.807	464.057	188.957	0.00039774	0.0001578	0.00017539	477.8	9.0722e-06	1.3801e-05	599.63	153.35	9.3007e-06	6.3669e-06	247.58	89.216	48.458	21.095	6.4018e-06	44.785	0.0019606	0.0018866	0.00049188	633.61	2.2003e-05	2.005e-05	749.46	197.22	2.1335e-05	1.9438e-05	307.82	113.79	76.739	27.804	1.8182e-05	54.911	233.984	520.582	279.099	192.500	357.296	348.343	191.972	197.296	338.049	274.480	196.386	200.942	201.127	207.051	255.538	205.011	-8191	255	
3847.679	1	1	0	0	0.045076	0.36965	0.16748	0.45984	0.21557	0.15839	0.2537	0.045873	0.19837	0.26036	0.38619	0.10471	0.015347	0.11957	0.22475	0.1095	-0.18333	-0.50417	0.11667	-0.93125	-0.35833	-0.36875	-0.7875	-0.022917	-0.69375	-0.81667	-0.32292	-0.78542	-0.49792	-0.54583	-1.0396	-0.25	469.151	524.686	290.358	494.110	244.815	217.697	181.790	459.832	373.205	214.372	430.347	439.982	400.129	268.199	200.411	215.448	0.00027326	0.00032275	8.8084e-05	478.57	3.8131e-06	8.6829e-06	603.07	154.04	7.7708e-06	7.7529e-07	245.89	88.809	47.87	20.725	5.243e-06	44.152	0.0018	0.0017305	0.00046014	632.71	2.0021e-05	1.8412e-05	742.92	196.76	1.9538e-05	1.8433e-05	305.17	113.06	74.213	27.232	1.7988e-05	54.324	239.370	281.775	347.607	192.122	348.958	394.937	191.659	197.230	339.977	530.651	196.348	200.851	201.168	206.728	180.488	205.205	-8191	255	
3847.775	1	1	0	0	0.18329	0.25808	0.18569	0.11024	0.11402	0.11937	0.11396	0.21628	0.31011	0.056752	0.22795	0.24606	0.11698	0.17008	0.14468	0.11002	-0.15625	-0.90208	-0.15208	-0.68125	-0.45833	-0.19583	-1.1167	-0.2625	-0.40208	-0.95417	-0.30625	-0.91875	-0.46875	-0.1125	-0.97708	-0.39792	360.083	521.462	529.826	229.308	235.629	390.665	258.829	478.588	355.912	401.755	451.175	515.801	306.516	264.216	233.538	268.969	0.00040855	0.00022058	0.00011183	471.9	4.352e-06	8.5271e-06	597.57	152.32	4.3442e-06	4.7497e-06	243.38	88.576	47.585	20.718	9.431e-06	44.144	0.0016609	0.0016217	0.00044837	618.34	1.7732e-05	1.6525e-05	727.93	190.67	1.6614e-05	1.5854e-05	298.18	109.73	69.939	26.311	1.6407e-05	53.01	236.115	210.873	500.951	192.510	330.254	329.830	191.650	197.389	424.141	244.221	196.335	200.741	200.874	206.565	330.680	205.111	-8191	255	
3847.871	1	1	0	0	0.05053	0.19797	0.15526	0.19623	0.11252	0.19041	0.24997	0.19833	0.24362	0.19029	0.24666	0.032444	0.15963	0.075019	0.249	0.164	0.15208	-0.90833	0.083333	-0.6875	-0.62917	-0.11667	-1.1771	-0.15	-0.21667	-0.87708	-0.31875	-0.74167	-0.73542	0.0083333	-0.87917	-0.63125	442.580	446.162	297.303	505.474	459.613	312.136	187.951	461.241	307.227	413.052	359.151	521.255	416.957	342.897	233.485	486.049	0.00037617	0.00048054	0.00019761	476.21	7.5981e-06	3.231e-06	602.57	153.73	3.7731e-06	1.746e-06	246.05	88.904	48.138	20.818	4.8349e-06	44.569	0.0014325	0.0014375	0.00042355	608.68	1.6458e-05	1.5693e-05	735.91	191.85	1.6778e-05	1.6328e-05	305.91	111.05	71.28	26.761	1.8336e-05	53.644	225.244	396.354	488.882	192.517	268.959	470.902	191.790	197.073	402.561	201.300	196.491	201.110	201.089	206.279	183.467	205.355	-8191	255	
3847.967	1	1	0	0	0.15158	0.16796	0.24771	0.1653	0.19962	0.11364	0.056754	0.2313	0.10417	0.13144	0.35973	0.24937	0.096486	0.12933	0.14561	0.28722	-0.03125	-0.90625	0.027083	-0.5875	-0.95833	-0.21667	-0.93333	-0.50625	-0.35	-0.99792	-0.35625	-0.49375	-0.7875	-0.16042	-0.89792	-0.64167	313.474	344.924	439.493	508.808	352.523	334.335	431.229	418.522	204.787	472.535	317.617	427.201	211.566	339.136	247.850	472.244	0.00038891	0.00078003	0.00018286	475.25	1.8525e-06	7.1633e-06	599	153.75	2.0094e-06	6.0814e-06	249.11	89.062	48.277	20.847	3.5413e-06	44.736	0.0014877	0.0015277	0.00046738	612.69	1.6817e-05	1.6451e-05	745.31	191.57	1.6609e-05	1.6631e-05	307.86	110.19	70.306	26.796	1.8129e-05	53.34	231.289	272.713	198.554	192.740	412.471	512.436	191.873	197.381	414.158	322.281	195.982	201.415	200.540	206.679	324.555	205.336	-8191	255	
3848.064	1	1	0	0	0.047642	0.31493	0.19075	0.19815	0.2333	0.028685	0.18939	0.13393	0.080807	0.18134	0.34241	0.29653	0.25272	0.17188	0.082428	0.28924	0.27917	-0.91667	-0.29583	-0.57083	-1.0063	-0.12917	-0.95	-0.65417	-0.00625	-0.97917	-0.41875	-0.32708	-1.1083	-0.21458	-0.6875	-0.51667	234.457	504.319	518.754	236.055	343.136	420.699	421.306	389.269	508.280	479.009	387.476	421.886	504.565	329.057	522.057	458.142	0.00035459	0.0013408	0.00024853	478.19	5.1327e-06	7.4769e-06	601.01	153.5	4.5478e-06	9.8126e-06	245.59	88.502	47.853	20.685	1.851e-06	44.142	0.0014327	0.0015453	0.00046787	607.43	1.6382e-05	1.7124e-05	743.9	190	1.6314e-05	1.7522e-05	305.82	108.97	69.85	26.963	1.8245e-05	52.605	209.491	191.178	273.816	192.499	438.743	181.577	191.878	197.102	381.332	201.917	196.108	201.282	200.629	206.272	395.877	205.170	-8191	255	
3848.184	1	1	0	0	0.17816	0.080656	0.073362	0.30784	0.27262	0.20713	0.11657	0.13659	0.29684	0.10012	0.26218	0.19211	0.22435	0.46374	0.2413	0.10554	0.4125	-0.7125	-0.20417	-0.3	-1.0812	-0.2125	-0.77083	-0.84167	-0.25625	-0.73542	-0.53333	-0.325	-0.86875	-0.16042	-0.29792	-0.69583	483.344	318.360	256.786	493.409	445.968	199.320	409.162	438.062	394.480	320.206	188.816	418.007	204.507	268.896	203.193	320.123	0.00032422	0.00046303	0.00023161	474.53	2.5123e-06	7.3211e-06	597.21	153.36	4.0126e-06	6.6727e-06	246.88	88.114	47.854	20.658	2.7786e-06	44.242	0.0014566	0.001675	0.00047597	605.22	1.6737e-05	1.8482e-05	741.39	189.89	1.6812e-05	1.8963e-05	307.15	109.35	71.304	27.671	1.8953e-05	53.126	234.332	507.787	313.973	192.411	317.485	207.419	191.912	197.336	491.457	203.632	196.395	200.914	201.070	206.096	426.211	205.055	-8191	255	
3848.280	1	1	0	0	0.24953	0.11226	0.13653	0.1268	0.13205	0.1662	0.10202	0.17998	0.27642	0.28352	0.014465	0.21336	0.089	0.17825	0.059668	0.13069	0.22917	-0.75417	-0.42292	-0.33542	-1.0187	-0.36042	-0.62917	-0.85417	0.05625	-0.92292	-0.57917	-0.28542	-0.7375	-0.06875	-0.21042	-0.79583	305.047	446.971	400.081	449.509	363.598	414.646	526.673	527.615	516.705	306.314	420.727	188.120	340.870	533.218	191.689	362.030	0.00044136	0.00098315	0.00024477	475.56	2.0417e-06	4.6032e-06	598.98	153.47	2.4577e-06	3.1963e-06	246	88.747	47.624	20.749	9.913e-06	44.259	0.0015704	0.0018419	0.00049004	611.84	1.8203e-05	2.0465e-05	747.77	191.66	1.8555e-05	2.0937e-05	309.23	110.46	73.783	28.231	1.9373e-05	53.447	222.983	477.441	192.857	192.801	279.597	272.096	192.187	197.301	225.540	340.523	196.558	200.938	200.556	206.775	355.151	205.354	-8191	255	
3848.376	1	1	0	0	0.081562	0.21442	0.2416	0.17476	0.1407	0.053476	0.4005	0.098419	0.21382	0.16671	0.13161	0.10891	0.046865	0.22381	0.27838	0.016895	0.38333	-0.72083	-0.68333	-0.12292	-0.98542	-0.40833	-0.47292	-1.0479	-0.18125	-0.88542	-0.80625	-0.16042	-0.9875	-0.45833	-0.30417	-0.94167	275.112	295.554	376.491	266.079	282.118	488.124	490.894	228.207	195.268	464.218	316.091	472.389	530.688	515.480	431.998	394.277	0.00045527	0.001239	0.00020453	476.46	1.0278e-05	8.5463e-06	601.5	153.01	4.2368e-06	6.8256e-06	246.01	88.954	47.786	20.829	4.4162e-06	44.31	0.0017138	0.0019326	0.00048999	614.57	1.979e-05	2.0994e-05	746.6	191.75	1.9577e-05	2.0333e-05	306.96	109.89	73.921	27.762	1.7892e-05	53.016	217.232	339.921	280.573	192.469	261.009	357.509	191.851	197.513	219.404	320.413	196.171	201.204	200.850	206.537	396.306	205.093	-8191	255	
3848.471	1	1	0	0	0.10155	0.10007	0.014951	0.14541	0.077106	0.17433	0.23633	0.21703	0.20058	0.32152	0.070341	0.13922	0.22636	0.2284	0.080584	0.105	0.23542	-0.49167	-0.5875	-0.04375	-0.68333	-0.28542	-0.29583	-0.97917	-0.32292	-0.7125	-1.0292	-0.027083	-0.77083	-0.55833	-0.20833	-1.0229	323.235	391.392	444.957	509.132	292.592	256.534	457.507	418.623	212.646	223.735	341.059	445.929	209.865	505.597	280.270	457.912	0.00043653	0.00098552	1.7693e-05	475.61	2.1384e-06	4.3787e-06	596.67	152.45	6.8869e-06	1.9384e-05	243.29	87.79	46.935	20.749	1.2764e-05	43.917	0.0017075	0.0017779	0.00045534	605.61	1.9232e-05	1.8954e-05	730.79	188.84	1.9291e-05	1.8742e-05	300.72	108.63	73.632	27.203	1.7064e-05	52.397	225.840	408.349	189.157	192.336	318.929	405.284	192.001	197.170	238.455	391.451	196.406	200.996	200.809	206.736	378.155	205.074	-8191	255	
3848.591	1	1	0	0	0.17472	0.11742	0.22945	0.085284	0.14463	0.12898	0.16942	0.020728	0.18306	0.18195	0.12343	0.10253	0.12217	0.13407	0.13707	0.12536	-0.035417	-0.57083	-0.84583	0.033333	-1.0333	-0.65417	-0.52708	-1.1354	-0.38125	-0.59583	-1.0417	-0.12083	-0.88542	-0.52917	-0.25833	-1.0958	345.828	343.925	352.577	229.961	370.904	490.800	493.376	356.143	437.958	366.974	532.079	445.353	245.745	495.462	486.114	410.589	0.00034726	0.0005371	0.00018088	473.48	2.8099e-06	5.8365e-06	595.44	152.86	2.5624e-06	3.2087e-06	243.82	88.115	47.81	20.548	3.6095e-06	44.165	0.0016844	0.001653	0.0004351	605.44	1.9313e-05	1.8187e-05	729.11	190.3	1.98e-05	1.8364e-05	301.87	110.03	74.401	27.078	1.7217e-05	53.257	211.206	283.354	239.065	192.479	379.621	422.061	191.589	197.061	458.725	396.723	196.294	200.583	200.544	206.575	426.548	205.014	-8191	255	
3848.663	1	1	0	0	0.28904	0.047779	0.056514	0.1445	0.23915	0.06975	0.12499	0.11294	0.089319	0.095799	0.19763	0.32603	0.062794	0.16498	0.12089	0.27616	0.12917	-0.33958	-0.96667	-0.19792	-0.77292	-0.725	-0.39167	-1.1167	-0.5125	-0.31875	-0.84792	-0.17292	-0.45417	-0.68333	-0.045833	-0.84167	463.950	285.692	446.311	467.846	314.175	253.981	285.637	453.573	346.855	396.287	489.935	464.400	532.917	322.877	495.229	466.303	0.00035854	0.00058405	0.00011561	478.06	4.3853e-06	9.8784e-06	599.91	153.79	4.039e-06	8.0078e-06	245.06	88.801	47.675	20.768	8.0906e-06	44.215	0.0017323	0.0016496	0.0004397	617.24	1.9253e-05	1.7849e-05	732.13	193.06	1.9189e-05	1.7732e-05	301.95	111.65	73.733	27.12	1.7118e-05	53.894	228.961	312.059	238.102	191.944	439.162	366.538	192.089	197.485	403.208	309.880	196.548	200.956	201.163	206.782	282.143	205.242	-8191	255	
3848.759	1	1	0	0	0.14798	0.1963	0.090069	0.16706	0.12006	0.29089	0.33764	0.14778	0.14469	0.090935	0.17665	0.0042841	0.28933	0.40228	0.14662	0.21787	-0.15417	-0.25	-0.95	-0.10417	-0.46042	-0.86042	-0.19375	-0.85208	-0.30833	-0.054167	-0.83333	-0.37292	-0.75833	-0.73542	-0.070833	-0.7625	263.175	387.933	265.834	468.428	489.515	398.249	521.664	458.378	373.060	203.784	443.363	339.845	226.913	525.791	288.138	507.230	0.00035314	0.00017412	8.6265e-05	478.82	4.8858e-07	1.8132e-05	605.04	154.23	2.3167e-06	8.8611e-06	248.05	89.257	48.021	20.842	1.3371e-05	44.566	0.0016913	0.0016216	0.00044287	627.05	1.8819e-05	1.7747e-05	738.54	195.5	1.8572e-05	1.7168e-05	304.57	112.5	72.331	26.849	1.7022e-05	54.022	236.387	249.402	325.963	192.307	400.077	406.541	191.436	197.412	303.579	369.704	196.117	200.595	201.239	206.475	268.424	205.300	-8191	255	
3848.855	1	1	0	0	0.22978	0.11851	0.12814	0.21164	0.073693	0.28811	0.14689	0.093908	0.15588	0.40642	0.33884	0.30322	0.18135	0.1319	0.048297	0.057297	-0.010417	-0.064583	-0.97917	-0.475	-0.54375	-1.0021	0.077083	-0.72292	-0.70208	-0.28125	-1.0792	-0.24167	-0.3375	-0.78333	-0.016667	-0.8625	410.184	224.928	330.569	429.017	275.872	179.980	518.633	339.596	424.888	244.892	383.568	514.148	273.479	519.263	490.964	430.141	0.00030043	0.00072706	0.0002203	477.18	3.878e-06	2.9539e-06	600.01	153.02	7.7267e-06	2.9571e-06	246.17	88.336	47.802	20.597	4.2705e-06	44.14	0.0015633	0.0015223	0.00044323	623.57	1.7583e-05	1.6801e-05	736.54	193.77	1.7518e-05	1.6601e-05	305.68	111.4	71.465	26.686	1.828e-05	53.706	231.497	249.095	242.064	192.499	447.130	360.935	191.819	197.499	338.922	512.888	196.130	200.945	201.074	206.410	252.310	205.208	-8191	255	
3848.952	1	1	0	0	0.088793	0.21856	0.11473	0.13579	0.14839	0.144	0.43196	0.17603	0.19955	0.10085	0.37413	0.23592	0.12176	0.18752	0.33646	0.21573	-0.32292	-0.097917	-0.70208	-0.40833	-0.32708	-0.85417	-0.1125	-0.3375	-0.59167	0.027083	-1.1437	-0.68542	-0.39375	-0.93958	-0.14375	-0.46667	329.170	267.287	379.081	181.347	211.296	224.503	490.515	343.468	481.839	445.244	515.270	512.341	446.816	390.098	348.183	430.804	0.00038496	0.0008349	0.00019914	478.56	4.9038e-06	1.2898e-05	608.02	154.01	5.3064e-06	6.3982e-06	247.09	88.885	47.746	20.753	2.4237e-06	44.428	0.0015719	0.00156	0.00048104	625.54	1.7741e-05	1.7369e-05	752.55	194.41	1.8073e-05	1.7401e-05	310.94	111.97	71.995	26.95	1.966e-05	53.942	231.002	305.691	493.962	192.329	326.952	288.058	191.641	197.133	301.088	305.249	196.162	200.989	200.811	206.465	487.275	205.763	-8191	255	
3849.072	1	1	0	0	0.24376	0.23987	0.18455	0.31551	0.11367	0.23629	0.26646	0.071666	0.1217	0.18634	0.34754	0.1474	0.15614	0.16059	0.17704	0.2425	-0.39792	0.041667	-0.97917	-0.75625	-0.0625	-0.69375	-0.22083	-0.33958	-0.75625	-0.10417	-0.81667	-0.58125	-0.13542	-0.89167	-0.37292	-0.61667	255.921	219.963	224.421	471.708	328.219	207.819	452.088	226.229	424.259	450.876	186.482	370.819	445.811	460.512	325.548	244.574	0.00035029	0.00046759	3.0786e-05	479.92	3.5833e-06	1.1624e-05	603	154.12	5.8308e-06	7.3082e-06	248.37	89.189	48.35	20.76	5.5289e-06	44.787	0.0015894	0.0016277	0.00051209	625.61	1.7877e-05	1.8143e-05	760.81	194.08	1.7836e-05	1.802e-05	314.21	111.53	71.484	27.279	1.9767e-05	53.89	236.586	346.867	467.392	192.489	207.548	256.669	191.906	197.611	515.457	274.832	196.398	200.922	200.680	206.630	295.796	205.378	-8191	255	
3849.168	1	1	0	0	0.28234	0.16408	0.12528	0.15362	0.13348	0.2021	0.32814	0.32259	0.14665	0.24518	0.21099	0.14422	0.15374	0.27508	0.034824	0.13067	-0.56667	-0.039583	-0.65833	-0.68125	-0.17292	-0.91875	-0.44167	-0.475	-0.97708	0.03125	-0.59583	-0.79583	-0.04375	-0.99583	-0.15833	-0.45208	332.709	227.052	315.988	467.374	333.388	360.358	480.982	491.895	522.167	438.689	278.805	528.937	285.402	304.853	467.488	219.969	0.0004515	0.0012348	0.0003115	480.53	8.1879e-06	1.6385e-05	606.28	155.15	1.0824e-05	4.6552e-06	249.43	89.277	48.213	20.896	5.3753e-06	44.714	0.0015634	0.0017043	0.00051193	621.54	1.7499e-05	1.8965e-05	761.8	193.79	1.7687e-05	1.9268e-05	315.02	111.55	72.009	27.893	2.0024e-05	53.808	236.259	460.941	265.281	192.437	335.531	219.513	191.973	197.511	383.880	255.875	196.648	200.710	201.110	206.755	501.589	205.209	-8191	255	
3849.265	1	1	0	0	0.13631	0.20301	0.17968	0.37745	0.21506	0.22152	0.28024	0.2075	0.064585	0.19068	0.14263	0.18988	0.16838	0.086595	0.1913	0.39218	-0.62083	-0.19375	-0.24167	-0.81458	-0.19583	-1.075	-0.39375	-0.22083	-0.81667	-0.19583	-0.70208	-0.84375	-0.12292	-0.95833	-0.46667	-0.30625	188.452	470.487	520.142	344.957	340.493	451.074	476.662	531.005	449.696	217.169	252.585	498.579	368.890	238.418	257.352	492.552	0.00040468	0.000132	0.00045251	475.48	4.0697e-07	1.0962e-05	598.07	153.19	1.2843e-06	4.999e-06	246.16	88.753	47.678	20.81	6.9356e-06	44.122	0.0015799	0.001829	0.00050459	613.17	1.7526e-05	1.9887e-05	748.26	190.83	1.7501e-05	1.983e-05	307.94	110.03	71.263	27.693	1.8684e-05	53.073	226.358	465.366	283.062	192.484	207.695	528.702	191.669	197.407	383.629	304.493	196.632	201.030	200.902	206.488	346.332	205.533	-8191	255	
3849.361	1	1	0	0	0.11365	0.040735	0.37648	0.35618	0.22544	0.084873	0.12081	0.15197	0.2321	0.1451	0.24924	0.1896	0.38216	0.16376	0.23921	0.38714	-0.58958	-0.085417	-0.63333	-0.92292	0	-0.65625	-0.62083	-0.21458	-0.82708	-0.51875	-0.68542	-0.875	-0.052083	-0.44792	-0.62917	-0.23542	426.833	416.093	487.616	447.966	231.316	416.680	411.340	184.739	264.660	282.163	521.613	463.412	479.003	465.436	305.322	492.690	0.0004174	0.0010426	0.0003913	476.52	3.3571e-06	1.1793e-05	600.76	153.04	7.372e-06	3.5087e-06	246.52	88.583	48.102	20.943	7.1717e-06	44.627	0.0015673	0.0018232	0.00046961	607.82	1.7413e-05	1.9288e-05	738.36	188.41	1.7287e-05	1.8898e-05	303.85	108.67	71.332	27.525	1.7157e-05	52.791	222.289	486.347	331.630	192.424	261.345	274.762	191.631	197.547	250.524	376.815	196.541	201.311	200.622	206.581	235.797	205.705	-8191	255	
3849.457	1	1	0	0	0.0053924	0.19057	0.20113	0.31511	0.12931	0.10509	0.15178	0.25058	0.23403	0.061583	0.14974	0.23418	0.1491	0.18498	0.1994	0.078587	-0.33958	-0.33333	-0.38958	-0.88542	-0.2125	-0.50208	-0.63333	-0.175	-1.0917	-0.24167	-0.26875	-0.98542	-0.070833	-0.57708	-0.90833	-0.34792	331.542	358.207	227.729	202.814	399.180	307.696	430.732	502.826	403.918	336.946	503.333	202.830	180.620	365.670	520.648	496.929	0.00047488	0.00034426	0.00024672	481.51	9.829e-06	5.1883e-06	602.32	154.43	7.1292e-06	6.8317e-06	249.14	89.588	48.045	21.039	5.5075e-06	44.869	0.001557	0.0017149	0.00043195	604.27	1.7628e-05	1.8315e-05	736.01	188.8	1.784e-05	1.8228e-05	304.38	109.35	72.353	27.318	1.671e-05	53.078	220.186	291.347	252.473	192.495	230.261	344.498	191.908	197.449	294.096	323.666	196.450	201.041	200.701	206.582	375.472	205.317	-8191	255	
3849.553	1	1	0	0	0.29373	0.24935	0.048778	0.27598	0.30522	0.067362	0.31654	0.12595	0.070459	0.25428	0.033402	0.21064	0.036948	0.12035	0.29963	0.19274	-0.50208	-0.38542	-0.26667	-1.2042	-0.2125	-0.55208	-0.97917	-0.26875	-0.88125	-0.50208	-0.325	-0.925	-0.18958	-0.39167	-0.9375	-0.1	201.293	201.108	326.940	495.316	332.287	482.801	439.006	321.582	412.950	235.834	305.620	355.902	205.807	471.224	275.690	440.194	0.00050266	0.0010036	0.00012083	478.68	2.129e-06	7.5186e-06	604.85	154.5	3.2316e-06	1.108e-05	247.84	89.467	47.951	20.813	9.222e-06	44.24	0.0016144	0.0016675	0.0004292	608.58	1.8827e-05	1.8325e-05	739.82	191	1.9266e-05	1.8438e-05	305	110.25	74.318	27.332	1.7571e-05	53.287	233.853	256.002	362.937	192.491	240.378	405.039	191.954	197.543	322.562	296.872	196.488	200.869	201.069	206.789	304.078	205.211	-8191	255	
3849.672	1	1	0	0	0.1231	0.15764	0.11979	0.11397	0.29475	0.35205	0.16235	0.39045	0.068829	0.092317	0.11516	0.10672	0.16355	0.058152	0.10428	0.22667	-0.37083	-0.45208	-0.35208	-0.76875	-0.24792	-0.65417	-0.89583	-0.20833	-0.86042	-0.54375	-0.13333	-1.0604	-0.35208	-0.39167	-0.65208	-0.21458	403.781	400.997	233.310	299.903	208.711	417.069	204.515	269.730	337.059	206.235	449.277	201.314	226.026	238.401	371.169	210.847	0.00033537	0.00088405	0.00016312	473.41	1.3651e-06	5.7592e-06	597.24	151.77	2.2678e-06	1.6752e-06	245.44	88.085	47.167	20.502	3.508e-06	44.052	0.0017527	0.0017165	0.00045341	613.35	2.0514e-05	1.9004e-05	734.79	192	2.0535e-05	1.9128e-05	303.74	111.45	75.222	27.235	1.8077e-05	53.72	205.628	256.284	338.532	192.414	481.899	237.706	192.127	197.367	371.440	331.421	196.287	200.696	200.776	206.442	257.162	205.141	-8191	255	
3849.768	1	1	0	0	0.30925	0.22841	0.058333	0.17089	0.010282	0.13274	0.069806	0.091686	0.041824	0.31506	0.19995	0.1361	0.076766	0.2755	0.15424	0.0794	-0.42083	-0.75625	-0.027083	-0.78542	-0.4875	-0.32708	-1.0208	-0.17917	-0.725	-0.81042	-0.19167	-0.67708	-0.24167	-0.3375	-1.0646	-0.20833	528.558	439.804	196.648	445.623	399.663	301.969	522.123	342.168	516.013	209.461	326.463	479.128	400.051	230.543	294.939	464.820	0.0003318	0.00039074	0.00016565	472.56	2.0459e-06	3.2664e-06	597	153.26	6.0502e-06	3.175e-06	246.33	89.171	47.632	20.642	3.5168e-06	44.563	0.0017825	0.0017204	0.00045452	620.52	1.9973e-05	1.8433e-05	736.18	194.01	1.9654e-05	1.8319e-05	303.51	112.05	73.776	26.981	1.7352e-05	54.168	224.195	245.641	360.796	192.020	301.103	326.736	191.744	197.074	356.316	290.625	196.322	200.943	201.098	206.834	232.910	205.318	-8191	255	
3849.864	1	1	0	0	0.26	0.081908	0.26026	0.085663	0.12163	0.1018	0.042877	0.20078	0.20007	0.20215	0.22278	0.24083	0.36393	0.02461	0.060413	0.26057	-0.42292	-0.64792	-0.1125	-1.0083	-0.50833	-0.38958	-0.96667	-0.23333	-0.43542	-0.88125	-0.475	-0.83542	-0.5375	-0.29792	-0.93125	-0.37083	370.770	443.445	204.379	533.446	310.956	523.998	319.270	522.996	460.613	344.608	276.440	204.888	219.603	332.507	298.708	369.526	0.00033346	0.0003477	0.00022186	477.05	2.8031e-06	7.8776e-06	602.47	153.08	7.6001e-06	3.3274e-06	248.64	89.085	48.261	20.74	6.5424e-06	44.743	0.0016622	0.0016229	0.00044101	624.51	1.8573e-05	1.7278e-05	738.89	194.49	1.8102e-05	1.7219e-05	305.54	112.72	72.694	26.974	1.7959e-05	54.749	237.151	338.162	188.196	192.600	444.040	322.831	191.619	197.241	363.999	323.596	196.216	201.005	201.164	206.646	235.188	205.155	-8191	255	
3849.960	1	1	0	0	0.16255	0.14246	0.17687	0.060024	0.20962	0.14111	0.31265	0.21852	0.056407	0.019843	0.3201	0.19905	0.23456	0.1608	0.39614	0.13606	-0.33958	-0.9625	-0.33542	-0.81875	-0.56875	-0.025	-1.1146	-0.33333	-0.43125	-0.86458	-0.11875	-0.63542	-0.81667	-0.22292	-0.91042	-0.54792	331.539	415.969	529.202	198.846	245.074	201.134	512.190	482.011	463.076	309.309	422.379	532.939	408.885	373.961	242.704	484.002	0.00035946	0.00038203	0.00033547	480.21	5.1907e-06	6.7484e-06	604.05	154.12	5.8105e-06	5.2843e-06	247.65	89.541	47.647	20.674	1.187e-05	44.435	0.0016462	0.0016282	0.00047647	633.69	1.8731e-05	1.7681e-05	752.84	196.27	1.8477e-05	1.7794e-05	310.81	113.59	73.1	27.085	2.0064e-05	54.806	230.915	320.187	203.647	192.490	387.871	291.656	191.724	197.146	330.487	271.027	196.375	201.275	201.071	206.519	219.608	205.254	-8191	255	
3850.056	1	1	0	0	0.21917	0.13982	0.10284	0.15868	0.18076	0.38985	0.30345	0.19676	0.085401	0.30044	0.42611	0.2295	0.14498	0.087409	0.059086	0.23828	-0.16875	-0.90625	-0.05	-0.62083	-0.74583	-0.15833	-1.0042	-0.66875	-0.57083	-0.98333	-0.42292	-0.60208	-0.62708	-0.15833	-1.0938	-0.46875	314.069	249.715	407.478	535.452	329.426	274.485	431.657	270.540	262.388	266.993	513.320	412.814	434.196	492.612	422.917	325.974	0.00042334	0.00090981	0.00012083	474.49	5.0396e-06	8.5547e-06	600.86	153.02	4.9e-06	1.3892e-05	245.78	88.577	47.432	20.424	6.111e-06	44.188	0.0017147	0.0017337	0.00053734	635.01	1.9952e-05	1.9424e-05	765.06	197.68	1.9808e-05	1.9533e-05	316.57	113.68	74.245	27.505	2.2204e-05	54.875	232.237	206.932	227.897	192.407	343.599	238.122	191.588	197.250	400.064	240.733	196.141	201.122	200.646	206.478	470.933	205.346	-8191	255	
3850.153	1	1	0	0	0.02307	0.015576	0.079752	0.22767	0.40658	0.174	0.15581	0.024089	0.091534	0.23572	0.18442	0.076673	0.18732	0.25726	0.27841	0.076117	0.28333	-0.89167	-0.16875	-0.61458	-1.1812	-0.19167	-1.0146	-0.50625	-0.0625	-1.05	-0.65833	-0.60833	-0.98958	-0.2125	-0.84375	-0.86458	485.044	231.198	388.689	229.951	513.663	265.494	440.848	323.390	260.465	441.088	181.411	200.355	261.857	483.168	378.026	249.293	0.00037673	0.00025181	7.3556e-05	474.89	4.3347e-06	1.2357e-05	602.07	152.8	3.0367e-06	1.282e-05	246.21	89.146	47.69	20.663	3.4037e-06	44.612	0.00179	0.001881	0.00058363	638.81	2.0544e-05	2.0902e-05	780.72	198.99	2.0937e-05	2.1992e-05	326.42	115.89	76.96	28.843	2.5211e-05	56.199	225.660	479.574	503.931	192.673	293.675	534.176	191.921	197.286	422.655	234.696	196.350	200.966	200.667	206.321	389.512	205.670	-8191	255	
3850.273	1	1	0	0	0.18854	0.20479	0.22363	0.12596	0.070572	0.047824	0.26485	0.32191	0.20566	0.31214	0.22516	0.066832	0.19747	0.10561	0.18137	0.25498	0.2125	-0.85833	-0.077083	-0.33333	-0.91042	0.16042	-0.8125	-0.81458	-0.070833	-1.1187	-0.30417	-0.46667	-1.0438	-0.09375	-0.76042	-0.79792	477.321	226.134	385.877	511.059	322.798	195.375	450.140	457.696	332.348	402.026	506.881	244.204	184.197	352.281	327.149	290.963	0.00034817	0.0011813	0.00019505	479.14	8.0238e-07	2.6668e-06	602.99	154.52	3.8941e-06	6.856e-06	247.73	89.921	48.152	20.547	1.4146e-05	44.771	0.0019806	0.0022574	0.00067038	661.15	2.3579e-05	2.5934e-05	812.83	205.82	2.4054e-05	2.6973e-05	337.47	119.33	81.304	30.343	2.736e-05	57.239	250.479	517.167	284.205	192.429	311.985	299.670	191.866	197.322	268.426	249.356	196.233	200.937	200.460	206.597	356.223	205.190	-8191	255	
3850.368	1	1	0	0	0.25096	0.29561	0.085981	0.086381	0.07105	0.013108	0.23991	0.27991	0.077166	0.11216	0.073603	0.11951	0.17913	0.048302	0.2832	0.21675	0.16042	-0.91667	-0.33958	-0.42917	-1.0063	-0.21042	-0.91042	-0.86458	-0.039583	-0.69375	-0.53542	-0.5625	-0.75833	-0.17708	-0.58542	-0.87083	290.145	435.857	307.744	344.918	505.768	425.426	425.473	369.883	247.764	201.103	441.247	413.114	211.972	456.300	241.604	488.323	0.00044949	0.0011222	0.00015901	477.74	1.2657e-06	1.7414e-05	599.96	153.2	3.4448e-06	7.1325e-06	246.35	88.974	47.937	20.288	1.2941e-05	44.215	0.00217	0.0025537	0.0006956	667.38	2.4926e-05	2.8194e-05	809.26	205.51	2.4875e-05	2.8133e-05	332.35	118.08	81.388	30.333	2.5925e-05	56.315	227.092	496.765	400.024	192.516	473.718	191.366	191.850	197.347	232.827	248.238	196.298	200.761	200.578	206.013	355.987	205.201	-8191	255	
3850.464	1	1	0	0	0.13894	0.34118	0.1363	0.33528	0.095294	0.098037	0.1053	0.1612	0.28664	0.09859	0.29315	0.052427	0.26308	0.16229	0.14923	0.3763	0.21875	-0.77708	-0.57083	-0.175	-0.70833	-0.033333	-0.60625	-0.96667	-0.16875	-0.92292	-0.5875	-0.11667	-0.96667	-0.19792	-0.27083	-1.0375	242.927	217.723	348.323	528.842	282.306	215.440	239.165	215.488	317.702	236.645	444.808	292.875	304.418	501.471	437.338	454.900	0.0004538	0.0009323	0.0002661	472.34	1.0222e-05	1.2716e-05	596.24	152.44	8.7456e-06	2.9674e-06	246.92	88.705	48.179	20.521	7.9996e-06	44.269	0.0022039	0.0025784	0.00066056	654.68	2.5463e-05	2.8028e-05	791.93	202.44	2.5443e-05	2.7705e-05	327.28	116.67	82.211	30.093	2.4715e-05	56.055	216.090	380.815	282.349	192.272	203.585	321.065	191.871	197.245	240.464	313.812	196.513	200.857	200.615	206.259	332.257	205.428	-8191	255	
3850.537	1	1	0	0	0.09507	0.25169	0.13784	0.3641	0.2608	0.078354	0.14858	0.21938	0.26398	0.22481	0.31528	0.14168	0.028581	0.041019	0.18777	0.042837	0.40208	-0.6875	-0.74792	-0.16458	-0.91042	-0.33125	-0.36458	-0.94583	-0.22292	-0.61667	-0.51875	-0.15208	-0.89375	-0.52708	-0.26667	-1.0979	205.029	268.267	457.558	179.053	497.627	470.884	337.268	534.527	284.819	373.818	515.167	466.984	335.611	412.403	535.694	347.650	0.00052686	0.0014381	0.00033392	471.4	4.8969e-06	2.0222e-06	598.49	153.28	9.4607e-06	1.0415e-05	248.73	89.477	47.76	20.61	9.3556e-06	44.49	0.0022973	0.002508	0.00063188	652.41	2.6608e-05	2.7149e-05	787.39	202.61	2.6727e-05	2.6867e-05	327.18	117.11	84.497	29.914	2.4008e-05	56.194	213.827	313.247	495.903	192.106	253.094	479.318	191.885	196.913	273.529	350.569	196.065	200.805	200.990	206.539	439.023	205.302	-8191	255	
3850.656	1	1	0	0	0.33669	0.18246	0.28426	0.050045	0.17456	0.29564	0.085772	0.29579	0.13799	0.091258	0.25995	0.35998	0.094515	0.14166	0.22459	0.19246	-0.15	-0.30625	-0.55417	-0.1125	-0.775	-0.50833	-0.42292	-1.0896	-0.3	-0.28958	-0.8375	-0.16667	-0.93958	-0.7	0.010417	-0.91875	198.029	417.541	456.264	273.566	220.847	496.412	482.056	501.701	519.020	222.756	256.095	179.519	346.598	500.374	198.171	417.119	0.00043535	0.00024164	0.00039444	477.53	5.2536e-06	1.2628e-05	608.93	154.19	3.7134e-06	4.1894e-06	249.05	89.959	48.309	20.778	3.0573e-06	44.973	0.0023665	0.0023653	0.00060333	652.46	2.6273e-05	2.4757e-05	780.33	201.79	2.5694e-05	2.3805e-05	321.77	116.71	82.809	29.055	2.1902e-05	56.34	225.991	316.849	282.367	192.210	534.480	377.230	191.884	197.340	496.258	343.253	196.445	200.856	201.038	206.669	312.425	205.213	-8191	255	
3850.752	1	1	0	0	0.17177	0.15121	0.37055	0.17967	0.046629	0.17572	0.10621	0.090344	0.28907	0.070053	0.08024	0.091342	0.06334	0.14867	0.24867	0.058339	0.11875	-0.41875	-0.7875	-0.14583	-0.93333	-0.7	-0.38958	-0.83125	-0.31667	-0.3625	-0.94167	0.047917	-0.83333	-0.87083	-0.17708	-1.0958	457.034	406.148	258.745	439.278	185.973	288.257	215.425	185.504	185.980	516.480	333.827	498.027	390.944	522.125	379.769	387.093	0.00031413	0.00061369	0.00035591	480.42	8.688e-06	5.986e-06	601.79	153.72	9.022e-06	8.5749e-06	247.49	88.991	47.752	20.392	3.4077e-06	44.29	0.0022444	0.002144	0.00056209	653.9	2.5445e-05	2.3242e-05	769.84	202.73	2.5558e-05	2.323e-05	318.87	117.45	82.29	28.584	2.2116e-05	56.404	236.940	275.310	316.064	192.139	363.571	532.720	191.801	197.114	444.510	339.511	196.461	200.969	201.320	206.315	528.266	204.998	-8191	255	
3850.848	1	1	0	0	0.31063	0.30901	0.12762	0.18671	0.23694	0.060905	0.18774	0.16634	0.1687	0.22004	0.30187	0.14495	0.17307	0.30891	0.2753	0.27095	-0.25833	-0.070833	-0.84167	-0.15833	-0.68958	-0.80208	-0.35625	-1.1021	-0.35208	-0.38542	-1.3354	-0.16458	-0.58542	-0.67292	0.12917	-0.9375	240.988	193.129	444.311	484.344	216.841	247.028	297.344	182.476	355.845	510.739	235.310	249.934	451.329	269.090	212.992	486.317	0.00034457	0.00067162	0.00021754	470.67	7.3952e-06	3.8425e-06	591.43	152.55	3.1184e-06	5.599e-06	245.51	88.643	47.491	20.462	4.0965e-06	44.391	0.0022261	0.0021139	0.00056403	656.76	2.5124e-05	2.2908e-05	761.63	203.73	2.4384e-05	2.2373e-05	317.33	117.97	80.026	28.212	2.1784e-05	56.594	231.412	292.230	247.244	192.048	371.159	242.386	191.906	196.976	427.124	354.992	196.299	200.607	201.493	206.329	200.593	205.007	-8191	255	
3850.945	1	1	0	0	0.037211	0.15824	0.046807	0.21557	0.24639	0.041873	0.13712	0.14264	0.11214	0.30312	0.31724	0.014907	0.13899	0.3163	0.043184	0.20657	-0.014583	-0.17292	-0.84167	-0.016667	-0.51458	-0.83333	-0.08125	-0.70625	-0.56042	-0.13958	-1.1125	-0.095833	-0.50625	-0.95208	-0.033333	-0.9125	260.370	531.907	394.210	193.775	530.439	196.332	377.305	246.455	184.502	503.345	216.794	297.129	419.342	214.827	244.530	483.864	0.00029619	0.00038007	0.00040525	471.56	5.8552e-06	1.2659e-05	595.86	153.66	2.2873e-06	5.459e-06	247.79	88.833	47.741	20.349	9.7158e-06	44.669	0.0020845	0.0020078	0.00056367	660.42	2.3432e-05	2.2041e-05	770.73	205.3	2.3282e-05	2.1825e-05	321.45	118.72	78.844	28.086	2.2772e-05	56.858	242.244	533.616	506.807	192.296	398.908	454.093	191.385	197.155	395.636	423.428	196.153	200.685	201.187	206.514	308.739	205.170	-8191	255	
3851.065	1	1	0	0	0.082846	0.15912	0.1668	0.069746	0.13008	0.3508	0.12539	0.32356	0.074912	0.046407	0.15056	0.11863	0.14031	0.4108	0.083521	0.16911	-0.2875	-0.13542	-0.89375	-0.16458	-0.19792	-0.54167	-0.10208	-0.60833	-0.67292	-0.22917	-0.9	-0.50625	-0.1125	-0.84583	-0.0041667	-0.43125	353.748	295.938	305.402	521.776	392.679	533.050	524.769	536.603	525.709	397.200	452.288	508.394	418.439	536.197	205.637	188.852	0.00035228	0.00092048	0.00013438	477.3	2.7914e-06	9.466e-06	606	154.85	2.897e-06	2.8249e-06	248.99	89.766	47.783	20.46	1.4406e-05	44.504	0.0019854	0.0019438	0.00058223	660.97	2.2235e-05	2.1305e-05	782.68	204.5	2.2179e-05	2.1305e-05	326.24	118.56	77.997	28.065	2.4185e-05	56.555	240.930	322.060	506.826	192.163	428.483	323.533	191.743	197.528	298.117	223.905	196.366	201.035	201.165	206.383	243.290	205.280	-8191	255	
3851.137	1	1	0	0	0.21314	0.059037	0.31393	0.078397	0.078625	0.15575	0.056339	0.22972	0.15904	0.093733	0.2162	0.22952	0.18824	0.29632	0.14459	0.14984	-0.47292	-0.23542	-1.0979	-0.60625	-0.2625	-0.825	-0.30625	-0.49583	-0.61042	0.17292	-0.88125	-0.20417	-0.1375	-0.86667	-0.14375	-0.53125	325.908	401.095	189.231	193.032	425.127	507.118	515.812	491.155	531.604	285.723	393.003	454.405	525.404	262.020	475.884	377.897	0.00042214	0.00090873	0.00036823	470.93	4.3132e-06	9.3919e-06	594.98	151.92	3.4268e-06	4.2787e-06	242.78	87.994	46.944	20.257	4.8285e-06	43.9	0.0019821	0.0019871	0.00062737	653.37	2.2232e-05	2.1842e-05	783.56	201.68	2.2423e-05	2.2154e-05	326.42	116.49	77.325	28.097	2.5146e-05	55.546	226.406	508.291	494.859	192.416	207.456	242.612	191.785	197.127	427.789	478.311	196.199	200.561	201.270	206.287	268.728	205.340	-8191	255	
3851.233	1	1	0	0	0.07799	0.28075	0.098656	0.082296	0.1621	0.18641	0.096305	0.17686	0.08554	0.16706	0.10751	0.17703	0.21255	0.15386	0.28313	0.18591	-0.34583	0.0020833	-0.58958	-0.475	-0.12917	-0.90417	-0.41875	-0.525	-1.0021	-0.077083	-0.95417	-0.68333	-0.033333	-0.97708	-0.22083	-0.39375	423.669	283.523	486.917	407.947	500.817	394.511	422.985	432.514	536.744	510.318	272.821	451.861	529.593	433.256	293.948	498.229	0.00048035	0.00050455	0.00017557	467.39	6.4659e-06	1.7736e-05	593.29	152.16	7.5522e-06	9.9207e-06	244.26	88.493	46.921	20.237	3.6496e-06	44.041	0.001949	0.0020704	0.00064517	644.35	2.2102e-05	2.3118e-05	787.59	200.67	2.2479e-05	2.381e-05	329.29	116.25	77.26	28.679	2.5456e-05	55.471	232.098	180.977	262.130	192.434	345.550	188.607	191.910	197.367	429.176	200.031	196.381	200.922	200.986	206.322	301.641	205.298	-8191	255	
3851.354	1	1	0	0	0.31442	0.11587	0.18218	0.12608	0.17204	0.19506	0.19116	0.21112	0.20356	0.12718	0.13455	0.2353	0.31685	0.10956	0.12753	0.13334	-0.49583	-0.12917	-0.62292	-0.94167	-0.23333	-0.98125	-0.26667	-0.31667	-0.82292	-0.097917	-0.74792	-0.79375	0.035417	-1.0229	-0.54583	-0.28125	244.063	432.520	533.841	516.525	532.387	475.437	330.427	481.660	315.233	300.935	521.268	525.755	502.935	371.544	281.150	430.974	0.00033926	0.001398	3.7525e-05	472.55	1.2027e-06	1.9193e-05	591.37	152.35	1.1877e-05	8.8934e-06	247.19	88.694	47.31	20.49	3.2928e-06	44.32	0.0019433	0.0022144	0.00063797	642.59	2.1717e-05	2.4114e-05	783.2	199.01	2.1481e-05	2.4054e-05	325.05	114.78	76.108	28.875	2.3409e-05	55.053	231.327	495.771	386.526	192.088	297.881	248.955	191.912	197.489	372.182	275.191	196.606	200.871	200.905	206.219	382.696	205.357	-8191	255	
3851.450	1	1	0	0	0.29252	0.16044	0.34698	0.26457	0.12558	0.044392	0.041856	0.01059	0.35642	0.14655	0.26894	0.1721	0.094619	0.22185	0.40375	0.23228	-0.6625	-0.16458	-0.70833	-0.73333	0.035417	-0.76875	-0.37292	-0.13333	-0.75625	0.054167	-0.44792	-0.75833	-0.14792	-0.90417	-0.425	-0.20833	303.678	296.916	206.602	419.914	354.895	296.197	386.112	302.392	325.129	444.164	415.883	191.591	506.964	534.585	464.717	474.609	0.00043194	0.00035408	0.00017458	474.32	3.5017e-06	5.3582e-06	601.03	153.46	3.1987e-06	1.9406e-06	247.05	88.593	47.71	20.379	8.5149e-06	44.507	0.0018688	0.0022083	0.00059317	638.35	2.1535e-05	2.4619e-05	779.34	198.28	2.1632e-05	2.4547e-05	322.68	114.75	76.965	29.081	2.238e-05	54.909	214.609	364.397	390.257	192.218	526.206	513.592	191.681	197.465	300.276	487.063	196.445	201.090	200.295	206.079	385.844	205.246	-8191	255	
3851.544	1	1	0	0	0.15349	0.24627	0.22285	0.17195	0.33471	0.13381	0.38072	0.21289	0.26801	0.23142	0.15316	0.24278	0.1624	0.21595	0.072904	0.13106	-0.71875	-0.30625	-0.39792	-0.80417	-0.10208	-0.77292	-0.76458	-0.26875	-1.0979	-0.35417	-0.63958	-1.0812	0.01875	-0.55417	-0.71667	-0.06875	279.266	229.572	367.045	408.359	248.573	477.604	451.397	499.705	525.591	264.057	470.727	182.621	389.404	198.312	278.036	413.853	0.00053782	0.00062692	0.00014135	471.87	7.3434e-06	1.1229e-05	596.13	151.75	9.6765e-06	1.5058e-05	244.72	88.122	47.303	20.304	8.0145e-06	44.095	0.0019533	0.0022618	0.00057204	631.45	2.2585e-05	2.4747e-05	768.91	196.2	2.2995e-05	2.4697e-05	317.96	113.68	78.933	28.994	2.2373e-05	54.717	207.441	193.969	230.994	192.128	229.576	337.482	191.886	197.161	311.777	350.240	196.147	200.690	200.533	206.585	339.045	205.399	-8191	255	
3851.665	1	1	0	0	0.37831	0.21267	0.094609	0.16393	0.21971	0.088441	0.30013	0.081464	0.27002	0.26652	0.37203	0.12601	0.13512	0.18469	0.14212	0.16174	-0.46042	-0.033333	-0.22083	-0.95833	0.033333	-0.475	-0.81875	-0.0125	-0.89792	-0.44583	-0.20625	-0.99583	-0.36042	-0.80833	-0.96875	-0.3125	257.296	242.087	185.795	224.728	191.198	469.323	491.835	292.554	266.217	366.234	536.194	465.214	329.777	533.335	417.780	504.169	0.00051599	0.00085836	0.00019156	468.81	9.1572e-06	1.493e-05	596.72	151.77	3.8258e-06	1.3427e-05	246.56	88.161	47.149	20.329	6.0834e-06	44.122	0.0021222	0.0022822	0.00057726	635.1	2.4765e-05	2.4981e-05	773.78	198.39	2.5404e-05	2.5187e-05	321.73	115.46	82.669	29.218	2.3301e-05	55.642	210.407	355.650	379.553	192.392	297.983	317.859	191.653	197.589	272.227	403.200	196.346	200.533	200.533	206.362	410.232	205.278	-8191	255	
3851.761	1	1	0	0	0.089034	0.092553	0.19976	0.29612	0.23286	0.16593	0.22036	0.14407	0.18367	0.37389	0.22027	0.13667	0.24922	0.021056	0.078537	0.21578	-0.77292	-0.49583	-0.06875	-1.2208	-0.26667	-0.6625	-0.94167	-0.20833	-0.8125	-0.76667	-0.23125	-1.1708	-0.2125	-0.53125	-0.85208	-0.08125	283.544	211.651	285.489	518.162	277.342	222.044	504.720	510.787	526.953	256.647	511.546	531.734	248.773	467.456	416.603	226.143	0.00039045	0.0012418	3.8015e-05	474.46	3.9711e-06	1.2354e-05	593.29	152.88	1.1268e-05	1.2898e-05	247.25	88.595	47.335	20.419	1.6978e-05	44.455	0.0023234	0.0022992	0.00059266	649.94	2.6688e-05	2.5088e-05	778.69	201.89	2.6681e-05	2.4924e-05	322.38	117.26	83.299	28.936	2.268e-05	56.263	222.000	322.640	422.430	192.285	297.292	289.158	191.940	197.001	327.598	379.873	196.139	200.614	201.188	206.624	381.453	205.060	-8191	255	
3851.833	1	1	0	0	0.10804	0.29245	0.25112	0.10959	0.17839	0.045241	0.031947	0.10425	0.36456	0.10001	0.43303	0.21995	0.05041	0.038336	0.25958	0.08651	-0.4375	-0.60833	0.18958	-0.92708	-0.22708	-0.40208	-1.225	-0.39792	-0.79167	-0.83125	-0.20625	-0.96667	-0.27917	-0.34167	-0.82292	-0.095833	370.353	480.206	440.732	517.547	432.337	532.612	467.995	236.760	535.402	365.329	497.616	509.244	189.011	455.504	378.945	284.238	0.00042472	0.00066157	0.00017172	476.85	9.8774e-06	2.9885e-05	603.73	154.63	8.3475e-06	5.2249e-06	250.58	89.656	47.646	20.402	8.9114e-06	44.544	0.0022897	0.002185	0.00057012	657.55	2.5829e-05	2.3503e-05	776.1	204.46	2.5571e-05	2.3642e-05	321.58	119.05	82.536	28.776	2.2815e-05	57.082	231.516	276.753	306.137	192.010	376.439	344.565	191.833	196.949	434.836	326.333	196.289	201.008	201.035	206.566	362.395	205.112	-8191	255	
3851.929	1	1	0	0	0.105	0.083917	0.10014	0.34131	0.14133	0.35063	0.071794	0.12987	0.12307	0.2022	0.20322	0.21203	0.23055	0.19169	0.26159	0.11768	-0.34583	-0.64583	0.020833	-0.83333	-0.31667	-0.15625	-0.93333	-0.17917	-0.47708	-1.0458	-0.17917	-1.0104	-0.62917	-0.29167	-0.88958	-0.37917	205.891	369.432	359.642	514.258	298.334	260.981	260.734	226.814	439.158	209.737	364.600	377.010	454.904	428.006	352.064	451.390	0.00036574	0.00022731	0.0001868	474.29	3.1374e-06	1.2392e-05	595.79	152.08	8.2418e-06	4.5231e-06	246.96	89.055	47.532	20.391	1.8668e-05	44.495	0.002275	0.0022057	0.00059141	670.21	2.6052e-05	2.4031e-05	777.93	206.93	2.5584e-05	2.3938e-05	323.32	120.4	82.142	28.766	2.3936e-05	57.705	251.343	205.492	489.979	192.000	412.456	277.763	191.689	197.393	384.336	355.013	196.433	200.718	201.444	206.433	211.657	205.285	-8191	255	
3852.049	1	1	0	0	0.17803	0.24731	0.22308	0.20777	0.2214	0.14076	0.035501	0.14518	0.10673	0.15828	0.1607	0.18117	0.14751	0.018222	0.35046	0.23875	-0.24583	-0.8	-0.11042	-0.95	-0.48542	-0.16667	-0.98542	-0.17083	-0.25833	-0.76667	-0.15417	-0.65625	-0.55417	0.01875	-0.71667	-0.27917	469.243	283.303	502.943	501.694	426.018	480.808	536.136	245.119	388.079	523.784	435.089	538.939	470.711	306.964	315.597	196.319	0.00023928	0.00065416	0.00017455	475.89	4.4036e-06	5.1476e-06	602.25	152.86	8.1316e-06	6.0488e-06	246.23	89.17	47.449	20.301	1.4177e-05	44.723	0.0022592	0.0022311	0.00062968	680.91	2.568e-05	2.4411e-05	794	209.83	2.554e-05	2.4438e-05	330.76	122.23	82.485	29.054	2.6075e-05	58.494	237.192	341.462	494.271	192.392	401.536	495.926	191.940	197.181	394.698	296.979	196.323	200.978	201.211	206.523	527.432	205.180	-8191	255	
3852.146	1	1	0	0	0.13083	0.089873	0.055335	0.08235	0.094036	0.35175	0.14652	0.24425	0.26906	0.10953	0.16939	0.20561	0.077135	0.11655	0.074756	0.27576	0.083333	-0.7375	0.025	-0.52917	-0.57083	-0.175	-1.0021	-0.43333	-0.3	-0.81042	0.0125	-0.81042	-0.75417	-0.25	-0.86458	-0.56875	272.633	340.512	469.581	250.834	519.663	287.643	481.611	184.965	286.768	360.152	514.792	453.836	190.378	186.060	342.475	485.745	0.00027476	0.00079537	0.00015592	480.31	8.5738e-06	1.4272e-05	606.49	153.88	6.3287e-06	3.7051e-06	248.22	89.623	47.758	20.535	1.2717e-05	44.818	0.0022758	0.0022572	0.00067546	685.16	2.5389e-05	2.4224e-05	808.79	210.28	2.5298e-05	2.4486e-05	336.5	122.03	82.428	29.291	2.7771e-05	58.636	214.982	269.641	252.449	192.570	402.335	374.240	191.938	197.540	407.702	400.423	195.900	200.760	201.106	206.321	234.801	205.473	-8191	255	
3852.242	1	1	0	0	0.20358	0.22293	0.18732	0.04463	0.32603	0.21167	0.15775	0.063433	0.035437	0.4085	0.099698	0.20599	0.063237	0.11072	0.16138	0.053227	0.13125	-0.80833	-0.10833	-0.66458	-0.75208	-0.47083	-1.2167	-0.57708	-0.35	-1.1354	-0.085417	-0.3875	-0.75	-0.1	-0.51458	-0.4875	321.871	456.826	316.054	181.399	380.964	482.012	530.080	233.139	233.876	454.929	188.711	412.088	405.121	490.045	428.849	354.854	0.00036462	0.00067605	0.00024241	479.73	9.1204e-06	1.0739e-05	606.5	153.66	8.0631e-06	6.387e-06	248.83	89.058	47.421	20.397	4.8356e-06	43.96	0.0022849	0.0023461	0.00072977	688.63	2.6373e-05	2.6306e-05	833.89	213.41	2.7277e-05	2.78e-05	351.45	124.7	86.858	30.681	3.2925e-05	59.556	217.027	231.740	243.375	192.391	351.631	291.181	191.799	197.301	395.472	291.989	196.212	200.783	201.078	206.080	431.865	205.428	-8191	255	
3852.338	1	1	0	0	0.19218	0.11616	0.31397	0.28492	0.21533	0.266	0.12264	0.063662	0.16667	0.14435	0.13457	0.18047	0.23685	0.18205	0.15436	0.25984	0.33958	-0.96042	-0.425	-0.64167	-0.86458	-0.20208	-0.99583	-0.43542	-0.16667	-1	-0.29375	-0.425	-0.9125	0.01875	-0.55208	-0.59375	276.216	360.348	284.188	474.565	538.386	479.724	484.451	283.665	470.695	262.585	444.253	505.998	443.960	229.591	451.065	516.455	0.00048229	0.00069739	0.0001421	468.19	4.2623e-06	2.2251e-05	588.84	149.49	7.6864e-06	9.0793e-06	243.36	87.934	46.087	19.932	4.5369e-06	43.501	0.0026404	0.0028686	0.00088576	708.13	3.0936e-05	3.2385e-05	857.83	217.18	3.155e-05	3.3834e-05	359.36	126.53	90.076	32.167	3.6451e-05	60.116	237.465	479.767	283.120	192.198	332.019	223.245	191.959	197.388	388.027	203.968	196.120	201.089	200.652	206.024	433.093	205.155	-8191	255	
3852.434	1	1	0	0	0.27587	0.096199	0.20857	0.31386	0.034303	0.18906	0.17411	0.24949	0.24896	0.12631	0.3088	0.16455	0.1563	0.036307	0.2231	0.082743	0.37917	-0.83125	-0.31042	-0.37708	-0.82083	-0.16875	-0.67292	-0.69792	-0.20208	-1.0208	-0.53958	-0.59792	-1.1604	-0.31458	-0.68958	-1.0604	234.971	269.667	214.798	471.080	351.829	242.888	390.723	512.255	203.038	492.018	227.910	419.929	236.231	258.682	296.878	496.049	0.00046218	0.0017844	0.00010845	462.78	4.8843e-06	3.0932e-05	583.86	148.98	4.4513e-06	7.7557e-06	241	87.164	46.375	19.891	1.105e-05	43.363	0.0028543	0.0033039	0.0009455	717.21	3.3209e-05	3.6967e-05	870.02	221.2	3.4664e-05	3.9711e-05	370.91	131.04	96.943	34.557	4.0616e-05	62.14	240.039	505.065	237.876	192.595	196.375	183.208	192.099	197.177	246.872	218.794	195.987	201.247	200.611	206.452	344.566	205.321	-8191	255	
3852.530	1	1	0	0	0.26067	0.057542	0.14745	0.23473	0.016411	0.12142	0.12054	0.29194	0.34153	0.21927	0.18982	0.12641	0.13685	0.12528	0.06918	0.36803	0.27083	-1.0063	-0.59792	-0.19375	-0.94792	-0.19792	-0.67083	-0.87917	-0.29167	-0.84375	-0.63542	-0.18542	-0.94167	-0.36458	-0.275	-0.74167	264.443	368.179	501.540	532.393	502.880	211.100	243.523	179.455	373.409	470.870	223.731	383.110	206.025	319.512	392.235	474.428	0.00041934	0.0015015	0.00012385	460.51	5.4085e-06	9.2418e-06	585.48	148.44	1.3123e-05	4.0115e-06	239.89	86.743	46.157	20.007	8.8633e-06	43.686	0.0032946	0.0038575	0.0010172	735.03	3.7412e-05	4.2252e-05	884.24	224.81	3.833e-05	4.3352e-05	371.16	131.4	99.646	35.059	3.903e-05	61.753	218.957	506.586	274.598	192.701	221.882	531.607	191.688	197.153	278.462	386.019	196.512	201.113	200.461	206.746	393.640	205.456	-8191	255	
3852.626	1	1	0	0	0.23013	0.036617	0.076471	0.27444	0.15064	0.16354	0.32411	0.2371	0.13753	0.2073	0.26456	0.089966	0.21558	0.49061	0.22755	0.28166	0.32708	-0.85	-0.62083	-0.23958	-0.89167	-0.39583	-0.73333	-1.0333	0.0375	-0.57083	-0.80833	-0.066667	-0.89375	-0.17708	-0.27083	-0.975	321.564	476.344	187.937	201.893	453.504	274.290	265.930	502.098	505.816	314.670	494.871	410.336	343.988	272.206	263.844	444.107	0.00050119	0.00045849	0.00021938	459.21	8.791e-06	1.3315e-05	585.66	148.32	1.5692e-05	7.9278e-06	240.43	86.679	46.01	19.835	8.577e-06	43.276	0.0033503	0.0038142	0.00096733	726.51	3.797e-05	4.0554e-05	862.65	219.34	3.7526e-05	3.9649e-05	357.75	127.24	98.718	33.844	3.6615e-05	60.638	209.569	410.387	305.025	192.487	229.672	240.734	191.816	197.258	235.168	428.114	196.125	201.075	200.491	206.847	343.899	205.026	-8191	255	
3852.745	1	1	0	0	0.13348	0.032102	0.37737	0.30961	0.25675	0.12744	0.31395	0.2173	0.26567	0.13323	0.10057	0.11906	0.18015	0.06474	0.16792	0.3603	0.33333	-0.89375	-0.6	-0.45833	-0.88542	-0.35208	-0.4	-0.83125	0.10833	-0.52708	-0.77083	-0.12083	-1.0875	-0.74792	-0.33542	-0.92917	419.550	314.348	208.459	418.003	531.232	378.208	429.914	387.851	306.983	252.734	501.046	220.987	501.901	389.147	401.598	345.293	0.00067472	0.0025473	0.00038222	450.67	1.3029e-05	2.41e-05	571.16	146.36	1.238e-05	1.0544e-05	238.72	86.089	45.904	19.879	8.5106e-06	43.211	0.003499	0.0037077	0.00093977	713.6	4.0028e-05	3.9518e-05	844.28	216.76	3.8904e-05	3.7416e-05	348.46	125.42	96.73	32.285	3.2621e-05	59.449	207.142	298.673	260.358	192.239	256.747	326.871	192.085	197.283	281.796	387.637	196.501	200.618	200.543	206.864	376.898	205.345	-8191	255	
3852.841	1	1	0	0	0.29178	0.032036	0.14487	0.34414	0.12742	0.27261	0.14638	0.21634	0.058793	0.10256	0.10591	0.06893	0.043843	0.010886	0.19735	0.074597	0.052083	-0.59583	-0.89167	0.06875	-0.68958	-0.47708	-0.2	-1.2396	-0.1	-0.49375	-0.8875	-0.11667	-0.69792	-0.59167	-0.12292	-1.0583	376.150	464.034	398.111	498.596	342.625	200.904	373.402	435.780	414.815	437.350	508.704	229.183	343.995	354.246	396.769	347.195	0.00039891	0.00098523	0.00028156	456.5	1.0862e-05	8.3747e-06	583.73	147.42	1.328e-05	8.4499e-06	239.75	87.322	46.461	20.028	1.2027e-05	43.774	0.0032677	0.003229	0.0008355	704.9	3.7923e-05	3.5424e-05	833.83	217.54	3.8142e-05	3.5045e-05	347.8	127.99	98.071	32.049	3.1937e-05	60.512	219.543	278.643	318.867	192.124	390.173	303.989	192.068	197.300	347.430	279.534	196.386	200.580	201.219	206.836	363.770	205.032	-8191	255	
3852.937	1	1	0	0	0.099438	0.15852	0.26147	0.21667	0.27103	0.033854	0.21563	0.24983	0.08579	0.27058	0.38675	0.055581	0.06208	0.17126	0.13507	0.16071	0.01875	-0.2375	-0.97708	-0.5625	-0.85417	-0.68542	-0.077083	-1.1437	-0.32083	-0.41458	-1.1396	-0.47292	-0.74375	-0.76667	-0.058333	-0.98125	412.133	313.176	456.525	237.859	240.992	355.942	484.821	420.277	311.554	220.688	205.909	340.900	298.611	464.001	506.348	419.195	0.00028149	0.00074853	3.7964e-05	462.22	7.5548e-06	2.7493e-05	592.68	149.7	4.8557e-06	9.6245e-06	245.44	88.677	47.353	20.268	7.212e-06	44.595	0.0031697	0.0029891	0.00077652	705.71	3.4385e-05	3.1328e-05	812.91	215.8	3.3109e-05	2.9969e-05	336.19	125.62	90.027	30.423	2.7346e-05	59.807	232.206	212.309	351.437	191.935	374.625	326.545	191.890	197.274	354.371	440.495	196.350	200.796	201.375	206.473	251.321	205.245	-8191	255	
3853.034	1	1	0	0	0.047736	0.20809	0.20211	0.31025	0.062259	0.099628	0.14166	0.088631	0.20214	0.14238	0.1726	0.14396	0.31923	0.25418	0.1198	0.20587	0.13958	-0.19375	-0.85833	-0.066667	-0.49375	-0.71667	-0.10625	-1.1167	-0.26875	-0.24792	-0.97917	-0.13958	-0.44583	-0.88125	-0.25417	-0.62292	210.964	336.165	200.714	293.791	193.014	509.621	370.380	358.308	197.191	321.955	482.108	453.269	200.845	512.441	509.535	199.788	0.00031986	0.0015377	0.00012174	468.66	7.4266e-06	1.2721e-05	593.54	150.8	9.4788e-06	4.7888e-06	244.05	88.309	46.157	20.187	6.2732e-06	44.127	0.002691	0.0025874	0.00069047	696.13	2.977e-05	2.7401e-05	794.84	211.82	2.8522e-05	2.6474e-05	329.11	123.29	84.737	29.369	2.6272e-05	58.662	246.101	198.471	490.591	192.054	406.587	440.033	191.917	197.368	447.972	281.939	195.829	200.780	201.061	206.665	247.520	205.106	-8191	255	
3853.130	1	1	0	0	0.28586	0.026583	0.28562	0.10274	0.15718	0.13582	0.18949	0.24634	0.16123	0.11184	0.072453	0.08126	0.13771	0.094041	0.095007	0.33231	-0.12917	-0.03125	-0.97917	-0.36667	-0.42292	-0.74375	-0.16458	-0.55625	-0.38958	0.125	-1.0812	-0.35208	-0.52917	-1.1229	0.0041667	-0.7	529.687	490.306	255.544	185.427	327.658	394.890	508.903	474.221	198.733	444.830	255.873	271.453	490.962	211.631	312.880	526.783	0.00033454	0.00088883	0.00030846	461.71	7.5052e-06	1.0721e-05	585.5	149.83	1.2853e-05	8.2934e-06	245.61	87.867	47.031	20.243	1.2056e-05	44.32	0.0024067	0.0023233	0.00065928	674.41	2.6106e-05	2.4567e-05	783.93	207.49	2.5488e-05	2.4116e-05	328.44	121.16	81.267	28.736	2.612e-05	58.074	243.546	326.493	501.717	192.297	360.045	408.978	191.436	197.358	426.938	337.686	196.058	200.898	201.023	206.333	225.955	205.073	-8191	255	
3853.226	1	1	0	0	0.13962	0.16114	0.14596	0.16739	0.057233	0.1754	0.071057	0.31661	0.42383	0.38295	0.33089	0.12062	0.26179	0.27361	0.12612	0.35653	-0.10208	-0.014583	-0.69792	-0.325	-0.33958	-0.97083	-0.1875	-0.5	-0.66458	-0.15833	-1	-0.35833	-0.19583	-0.97083	-0.19792	-0.70417	389.969	179.611	393.341	243.363	463.643	294.331	536.470	316.585	448.485	290.223	523.639	225.033	225.644	483.880	419.065	520.012	0.00035038	0.00038982	0.00017345	464.15	4.3584e-06	1.3309e-05	595.37	151	3.4871e-06	6.3782e-06	245.61	89.052	47.004	20.378	9.6447e-06	44.924	0.0022248	0.0022084	0.00067296	669.96	2.477e-05	2.3722e-05	795.93	206.59	2.4472e-05	2.3604e-05	333.14	120.18	80.164	28.698	2.6874e-05	57.865	236.520	226.430	508.618	192.588	373.105	218.889	191.484	197.549	388.739	199.959	196.315	200.997	201.430	206.518	236.170	205.668	-8191	255	
3853.347	1	1	0	0	0.14836	0.13136	0.21934	0.13722	0.22339	0.088113	0.19246	0.29393	0.082071	0.16146	0.1335	0.30311	0.21869	0.24756	0.1936	0.10385	-0.30833	0.066667	-0.76458	-0.34167	-0.25833	-1.1167	-0.43542	-0.275	-0.63958	-0.0375	-0.94375	-0.475	-0.1125	-1.025	-0.33958	-0.69167	461.397	221.095	255.061	520.976	184.234	455.012	419.606	389.330	523.857	455.155	263.216	429.631	515.489	208.904	441.725	312.008	0.00036507	0.0010183	0.00032752	472.65	5.3445e-06	2.3695e-05	598.3	152.32	1.0966e-06	1.5322e-06	249.11	89.37	47.656	20.534	8.1631e-06	44.887	0.0021661	0.0022157	0.00069987	667.03	2.4208e-05	2.4093e-05	806.49	204.84	2.3686e-05	2.4116e-05	336.53	119.84	80.032	29.302	2.7657e-05	57.691	243.684	520.007	193.210	192.366	313.670	186.605	191.722	197.508	253.311	274.073	196.274	201.385	201.117	206.509	233.555	205.500	-8191	255	
3853.443	1	1	0	0	0.14233	0.11869	0.10651	0.20727	0.049793	0.16988	0.059651	0.10957	0.21773	0.18753	0.1597	0.40929	0.061205	0.27806	0.33629	0.19341	-0.3875	0.125	-0.86042	-0.52708	-0.085417	-0.82292	-0.36875	-0.51875	-0.9625	0.022917	-0.59583	-0.63958	-0.20625	-1.25	-0.39167	-0.22917	248.501	186.826	231.425	206.971	439.239	530.210	383.043	263.243	507.207	481.835	329.678	188.961	288.254	253.513	486.186	397.495	0.00036728	0.001221	0.00035768	468.71	4.7199e-06	1.482e-05	593.47	151.19	2.1134e-06	8.2507e-06	245.17	88.646	47.113	20.211	6.4199e-06	44.04	0.0021411	0.0023406	0.00070697	658.7	2.3815e-05	2.5391e-05	801.58	202.11	2.3501e-05	2.5618e-05	332.62	117.67	78.929	29.352	2.684e-05	56.411	237.492	523.952	290.715	192.162	399.533	525.966	191.915	197.312	264.864	206.172	196.440	201.054	200.585	206.020	386.352	205.463	-8191	255	
3853.537	1	1	0	0	0.13902	0.10739	0.18013	0.31254	0.18764	0.14691	0.17114	0.21448	0.22167	0.1167	0.24374	0.1578	0.21553	0.2731	0.1897	0.060939	-0.62917	-0.1125	-0.52917	-0.8125	0.09375	-0.72292	-0.44792	-0.29375	-1.2271	-0.12708	-0.50625	-0.79167	0	-0.8125	-0.39583	-0.275	362.770	394.247	530.137	190.655	517.885	520.383	291.043	241.323	209.784	465.390	508.673	535.576	297.425	492.357	530.188	496.952	0.0004227	0.001748	0.00022026	461.74	3.1169e-06	7.3452e-06	588.9	150.5	8.6636e-06	8.3173e-06	245.28	88.013	46.823	20.126	2.0341e-06	44.309	0.0020814	0.0024435	0.00068839	647.54	2.4007e-05	2.7288e-05	793.99	201.58	2.4285e-05	2.7759e-05	332.14	117.82	80.118	29.992	2.6242e-05	56.421	224.995	496.928	329.304	192.132	457.699	520.230	191.845	197.334	284.363	191.104	196.779	200.882	200.190	206.534	223.062	205.334	-8191	255	
3853.633	1	1	0	0	0.3262	0.22744	0.29951	0.4412	0.12633	0.14859	0.43603	0.14399	0.16133	0.53879	0.24034	0.23573	0.23791	0.094645	0.10088	0.19085	-0.68958	-0.052083	-0.39583	-1.0271	0.025	-0.74583	-0.53125	0.010417	-0.90208	-0.18542	-0.5125	-0.93958	-0.091667	-0.6	-0.4125	-0.26875	471.805	297.168	289.442	486.732	418.660	450.556	524.015	524.909	239.684	328.426	190.273	198.616	454.968	396.828	298.858	538.685	0.00055642	0.00075553	0.00031495	464.75	4.683e-06	6.835e-06	592.37	150.2	1.2615e-05	9.0798e-06	246.5	89.242	47.033	20.277	1.9419e-06	44.588	0.0021691	0.0025568	0.00066373	648.77	2.4811e-05	2.8149e-05	794.3	201.77	2.5397e-05	2.8565e-05	331.77	118.25	82.468	30.32	2.6082e-05	56.925	229.380	481.899	337.580	192.525	269.869	539.044	192.072	197.494	244.889	299.467	196.489	201.081	199.908	206.758	535.006	205.286	-8191	255	
3853.729	1	1	0	0	0.19165	0.23326	0.17053	0.12347	0.24222	0.17828	0.20169	0.12012	0.25774	0.11314	0.25451	0.047256	0.19951	0.04161	0.24627	0.18409	-0.61667	-0.13958	-0.37917	-0.88333	-0.15833	-0.69375	-0.5625	-0.077083	-0.94583	-0.5125	-0.49167	-0.84167	0.064583	-0.48125	-0.6	-0.20625	468.380	244.299	231.016	217.842	373.360	185.335	452.034	384.827	317.699	514.888	508.122	433.881	382.402	367.291	536.161	406.943	0.00045135	0.0014796	0.0001217	466.88	1.1118e-05	3.0416e-06	599.87	151.45	1.4775e-05	9.4189e-06	245.18	89.894	47.144	20.223	1.257e-05	44.24	0.002369	0.0026806	0.0006763	656.99	2.7327e-05	2.8874e-05	798.75	203.39	2.7537e-05	2.8691e-05	331.39	118.75	85.174	30.332	2.6048e-05	56.899	225.890	277.636	502.621	192.230	256.896	426.535	191.835	197.399	251.339	372.996	196.706	200.972	200.282	207.037	371.665	205.559	-8191	255	
#DATA ENDS
