BOXY.EXE: ISS Imagent and Oximeter Data Acquisition Program Version 0.80
Ascii Record File

#ACQ INFORMATION
2  Detector Channels 
16  External MUX Channels 
1  Auxiliary Channels 
5000  Waveform (CCF) Frequency (Hz)
1  Waveforms Skipped 
30  Waveforms Averaged 
1  Cycles Averaged 
16  Acquisitions per Waveform 
10.0806  Updata Rate (Hz) 

#FILE INFORMATION
TRUE -- External MUX Channel results are PARSED.
FALSE -- AC DC and Phase are NOT grouped.
TRUE -- Companion Program Settings File CREATED.
FALSE -- AC data not excluded
FALSE -- DC data not excluded
FALSE -- Phase data not excluded
FALSE -- Auxillary Chn. data not excluded
Tab delimiters

#CALIBRATION STATE
TRUE -- Waveform Calibration Values APPLIED.


#AUX CALIBRATION VALUES
Val Type	aux-1	

Term	1.0000e+00	
Factor	0.0000e+00	


#WF CALIBRATION VALUES
A = Detector Channel
Val Type	A-AC1	A-AC2	A-AC3	A-AC4	A-AC5	A-AC6	A-AC7	A-AC8	A-AC9	A-AC10	A-AC11	A-AC12	A-AC13	A-AC14	A-AC15	A-AC16	A-DC1	A-DC2	A-DC3	A-DC4	A-DC5	A-DC6	A-DC7	A-DC8	A-DC9	A-DC10	A-DC11	A-DC12	A-DC13	A-DC14	A-DC15	A-DC16	A-Ph1	A-Ph2	A-Ph3	A-Ph4	A-Ph5	A-Ph6	A-Ph7	A-Ph8	A-Ph9	A-Ph10	A-Ph11	A-Ph12	A-Ph13	A-Ph14	A-Ph15	A-Ph16	

Term	0.00000e+00	0.00000e+00	0.00000e+00	0.00000e+00	0.00000e+00	0.00000e+00	0.00000e+00	0.00000e+00	0.00000e+00	0.00000e+00	0.00000e+00	0.00000e+00	0.00000e+00	0.00000e+00	0.00000e+00	0.00000e+00	0.00000e+00	0.00000e+00	0.00000e+00	0.00000e+00	0.00000e+00	0.00000e+00	0.00000e+00	0.00000e+00	0.00000e+00	0.00000e+00	0.00000e+00	0.00000e+00	0.00000e+00	0.00000e+00	0.00000e+00	0.00000e+00	0.00000e+00	0.00000e+00	0.00000e+00	0.00000e+00	0.00000e+00	0.00000e+00	0.00000e+00	0.00000e+00	0.00000e+00	0.00000e+00	0.00000e+00	0.00000e+00	0.00000e+00	0.00000e+00	0.00000e+00	0.00000e+00	
Factor	1.00000e+00	1.00000e+00	1.00000e+00	1.00000e+00	1.00000e+00	1.00000e+00	1.00000e+00	1.00000e+00	1.00000e+00	1.00000e+00	1.00000e+00	1.00000e+00	1.00000e+00	1.00000e+00	1.00000e+00	1.00000e+00	1.00000e+00	1.00000e+00	1.00000e+00	1.00000e+00	1.00000e+00	1.00000e+00	1.00000e+00	1.00000e+00	1.00000e+00	1.00000e+00	1.00000e+00	1.00000e+00	1.00000e+00	1.00000e+00	1.00000e+00	1.00000e+00	X	X	X	X	X	X	X	X	X	X	X	X	X	X	X	X	

B = Detector Channel
Val Type	B-AC1	B-AC2	B-AC3	B-AC4	B-AC5	B-AC6	B-AC7	B-AC8	B-AC9	B-AC10	B-AC11	B-AC12	B-AC13	B-AC14	B-AC15	B-AC16	B-DC1	B-DC2	B-DC3	B-DC4	B-DC5	B-DC6	B-DC7	B-DC8	B-DC9	B-DC10	B-DC11	B-DC12	B-DC13	B-DC14	B-DC15	B-DC16	B-Ph1	B-Ph2	B-Ph3	B-Ph4	B-Ph5	B-Ph6	B-Ph7	B-Ph8	B-Ph9	B-Ph10	B-Ph11	B-Ph12	B-Ph13	B-Ph14	B-Ph15	B-Ph16	

Term	0.00000e+00	0.00000e+00	0.00000e+00	0.00000e+00	0.00000e+00	0.00000e+00	0.00000e+00	0.00000e+00	0.00000e+00	0.00000e+00	0.00000e+00	0.00000e+00	0.00000e+00	0.00000e+00	0.00000e+00	0.00000e+00	0.00000e+00	0.00000e+00	0.00000e+00	0.00000e+00	0.00000e+00	0.00000e+00	0.00000e+00	0.00000e+00	0.00000e+00	0.00000e+00	0.00000e+00	0.00000e+00	0.00000e+00	0.00000e+00	0.00000e+00	0.00000e+00	-8.46031e+01	-1.24328e+02	-1.34512e+02	-1.81699e+02	-5.65765e+01	-6.78973e+01	-1.56588e+02	-1.62015e+02	-4.89682e+01	-6.14460e+01	-1.72047e+02	-1.69354e+02	-1.85172e+02	-1.76661e+02	-5.95041e+01	-1.48927e+02	
Factor	1.85394e-05	1.34008e-04	4.54980e-05	1.65179e-01	1.51047e-06	1.75494e-06	1.84651e-01	5.45619e-02	1.21076e-06	1.81770e-06	9.52945e-02	3.13381e-02	2.68894e-02	1.02662e-02	1.54598e-06	1.46995e-02	3.18428e-06	3.57193e-06	9.92978e-07	8.46290e-02	3.85947e-08	3.91772e-08	8.89079e-02	2.80802e-02	3.85441e-08	3.91043e-08	4.71625e-02	1.56485e-02	1.38985e-02	5.29215e-03	3.88907e-08	7.31696e-03	X	X	X	X	X	X	X	X	X	X	X	X	X	X	X	X	



#DISTANCE SETTINGS
A = Detector Channel
A-1	A-2	A-3	A-4	A-5	A-6	A-7	A-8	A-9	A-10	A-11	A-12	A-13	A-14	A-15	A-16	

2.5000e+00	3.0000e+00	2.5000e+00	3.0000e+00	2.0000e+00	3.0000e+00	1.5000e+00	3.0000e+00	3.0000e+00	3.0000e+00	3.0000e+00	3.0000e+00	3.0000e+00	3.0000e+00	1.5000e+00	3.0000e+00	

B = Detector Channel
B-1	B-2	B-3	B-4	B-5	B-6	B-7	B-8	B-9	B-10	B-11	B-12	B-13	B-14	B-15	B-16	

1.0000e+01	1.0000e+01	1.0000e+01	1.4400e+00	1.0000e+01	1.0000e+01	1.5100e+00	1.9400e+00	1.0000e+01	1.0000e+01	1.9900e+00	2.4900e+00	2.4100e+00	2.9000e+00	1.0000e+01	2.9800e+00	




#DATA BEGINS
time	group	step	mark	flag	A-AC1	A-AC2	A-AC3	A-AC4	A-AC5	A-AC6	A-AC7	A-AC8	A-AC9	A-AC10	A-AC11	A-AC12	A-AC13	A-AC14	A-AC15	A-AC16	A-DC1	A-DC2	A-DC3	A-DC4	A-DC5	A-DC6	A-DC7	A-DC8	A-DC9	A-DC10	A-DC11	A-DC12	A-DC13	A-DC14	A-DC15	A-DC16	A-Ph1	A-Ph2	A-Ph3	A-Ph4	A-Ph5	A-Ph6	A-Ph7	A-Ph8	A-Ph9	A-Ph10	A-Ph11	A-Ph12	A-Ph13	A-Ph14	A-Ph15	A-Ph16	B-AC1	B-AC2	B-AC3	B-AC4	B-AC5	B-AC6	B-AC7	B-AC8	B-AC9	B-AC10	B-AC11	B-AC12	B-AC13	B-AC14	B-AC15	B-AC16	B-DC1	B-DC2	B-DC3	B-DC4	B-DC5	B-DC6	B-DC7	B-DC8	B-DC9	B-DC10	B-DC11	B-DC12	B-DC13	B-DC14	B-DC15	B-DC16	B-Ph1	B-Ph2	B-Ph3	B-Ph4	B-Ph5	B-Ph6	B-Ph7	B-Ph8	B-Ph9	B-Ph10	B-Ph11	B-Ph12	B-Ph13	B-Ph14	B-Ph15	B-Ph16	aux-1	digaux	

20655.869	1	1	0	256	0.33995	0.30316	0.14595	0.14404	0.21132	0.18247	0.23743	0.05083	0.19359	0.099475	0.25784	0.27259	0.229	0.12851	0.10445	0.098426	0.052083	-0.70625	-0.89375	-0.17708	-0.93333	-0.4625	-0.4125	-1.0417	-0.23542	-0.77292	-0.9125	0.022917	-1.05	-0.77917	-0.11667	-1.2417	70.206	209.447	226.254	104.934	9.460	254.210	228.773	231.257	267.632	258.062	-50.294	221.666	203.840	125.888	254.290	57.287	3.9275e-05	0.00012795	8.4756e-05	983.83	7.4985e-07	2.0939e-06	1082.6	201.37	2.2123e-06	4.031e-06	259.82	74.653	57.389	17.592	3.2924e-06	25.202	8.1975e-05	7.6149e-05	1.9775e-05	956.54	8.4619e-07	7.9538e-07	1052.4	197.97	8.1408e-07	8.0237e-07	253.63	74.333	57.142	17.493	8.3542e-07	24.96	230.821	107.836	-17.182	-74.374	42.603	40.010	-74.054	-66.486	65.955	41.561	-67.238	-60.290	-59.779	-52.632	78.663	-53.057	-8191	255	
20655.990	1	1	0	0	0.23632	0.062481	0.17142	0.034123	0.37164	0.097363	0.13695	0.27759	0.40935	0.10653	0.22097	0.092494	0.5156	0.15011	0.085559	0.14973	0.027083	-0.68333	-0.83125	-0.38125	-0.89583	-0.59167	-0.17292	-1.4125	-0.45417	-0.64167	-1.1958	-0.26667	-0.75417	-0.94583	-0.24375	-1.2083	159.786	260.510	197.519	161.084	231.300	-79.968	5.011	-34.499	70.434	237.813	168.472	186.043	208.477	52.577	147.322	4.118	6.1309e-05	0.00021485	8.9178e-05	987.28	1.6626e-06	3.2858e-06	1081.3	200.9	1.1269e-06	1.572e-06	258.87	74.885	57.608	17.739	1.7708e-06	24.988	8.3946e-05	7.379e-05	2.0124e-05	956.65	8.5198e-07	7.7416e-07	1053.5	197.64	8.7519e-07	8.1704e-07	253.79	74.429	57.224	17.498	8.5163e-07	24.787	229.971	32.184	-13.795	-74.444	83.381	67.597	-74.296	-66.802	43.754	102.500	-67.052	-60.440	-59.498	-52.822	59.612	-52.915	-8191	255	
20656.086	1	1	0	0	0.17353	0.14647	0.15845	0.13672	0.11151	0.23521	0.16671	0.13264	0.049243	0.28876	0.083754	0.27424	0.14862	0.24339	0.077548	0.11931	-0.027083	-0.45	-1.2021	-0.36042	-0.74583	-0.8	-0.2	-1.0375	-0.3875	-0.51458	-1.0354	-0.32917	-0.67292	-0.9875	-0.23958	-1.0583	130.263	-35.100	162.491	183.702	184.533	-50.463	197.639	54.739	17.516	189.076	271.312	184.468	-44.045	-83.567	-36.660	228.925	6.1482e-05	0.00022601	7.5733e-05	982.96	2.2867e-06	2.2942e-06	1076.2	201.83	1.4121e-06	3.4003e-06	259.63	74.415	57.427	17.567	2.7798e-06	25.314	8.4967e-05	7.8322e-05	2.0505e-05	955.71	8.7964e-07	8.4639e-07	1050.1	197.85	8.5608e-07	8.3447e-07	254.06	74.241	56.997	17.449	8.543e-07	24.893	218.731	25.446	15.353	-75.049	86.099	15.486	-74.889	-67.489	28.543	48.688	-67.707	-61.087	-60.325	-53.374	86.601	-53.917	-8191	255	
20656.182	1	1	0	0	0.23157	0.17451	0.17049	0.10432	0.18881	0.080455	0.25605	0.11845	0.12323	0.19908	0.1565	0.16804	0.092675	0.23198	0.1017	0.26129	-0.17708	-0.25625	-1.1271	-0.37083	-0.65417	-0.90208	-0.28958	-1.1625	-0.74583	-0.4	-1.1729	-0.39375	-0.67083	-1.1667	0.054167	-0.95417	123.135	188.160	69.091	234.676	228.994	78.412	233.592	156.513	1.406	213.460	241.476	87.053	166.426	184.806	76.319	91.240	6.3082e-05	0.00017928	4.1284e-05	989.36	9.7641e-07	5.7171e-06	1082.6	201.86	1.3726e-06	1.0873e-06	258.5	74.707	57.496	17.562	2.264e-07	25.025	8.5259e-05	7.5569e-05	2.0137e-05	956.71	8.7546e-07	8.3929e-07	1051.9	197.87	8.5335e-07	8.7488e-07	253.42	74.228	57.154	17.462	8.9919e-07	24.822	226.618	30.723	46.929	-75.345	67.111	73.737	-74.987	-67.516	14.753	78.237	-67.784	-61.249	-60.644	-53.729	54.581	-54.360	-8191	255	
20656.277	1	1	0	0	0.025461	0.29203	0.24653	0.2834	0.13194	0.26639	0.2451	0.24052	0.17821	0.30537	0.14515	0.011335	0.055026	0.31118	0.22311	0.18693	-0.51875	-0.14167	-1.1063	-0.3625	-0.39167	-0.99375	-0.25	-0.88125	-0.77708	-0.058333	-1.3229	-0.49583	-0.26875	-1.0646	-0.085417	-0.80625	263.377	-56.384	3.107	-78.312	-44.355	9.572	254.493	261.794	100.292	220.705	141.095	164.344	97.504	169.767	120.968	-76.578	5.653e-05	0.00024083	5.5847e-05	985.37	1.0523e-06	4.7433e-06	1078	201.21	5.5402e-07	1.5456e-06	259.68	74.32	57.61	17.581	1.3195e-06	24.9	8.6871e-05	7.9051e-05	2.1798e-05	956.04	9.2225e-07	8.6582e-07	1051.4	197.5	9.1888e-07	9.1186e-07	254.54	74.23	57.083	17.463	9.0575e-07	24.734	214.485	-23.784	31.228	-75.436	88.189	63.905	-75.451	-67.407	227.044	127.476	-67.773	-61.270	-60.302	-53.639	82.931	-53.754	-8191	255	
20656.373	1	1	0	0	0.21148	0.29795	0.25288	0.27664	0.18285	0.1692	0.30291	0.11856	0.25893	0.10548	0.15148	0.15271	0.14145	0.045493	0.16253	0.15935	-0.28333	-0.085417	-1.0167	-0.46875	-0.26458	-0.86667	-0.20417	-0.85208	-0.83333	-0.13958	-1.1021	-0.62708	-0.18958	-1.1042	-0.27083	-0.675	20.891	251.986	17.780	248.168	208.172	6.881	177.000	227.001	-15.802	7.137	264.982	-46.476	163.356	197.776	161.768	83.951	6.5107e-05	0.00027123	8.0412e-05	981.75	2.8238e-06	2.5547e-06	1074.7	200.97	7.9399e-07	3.1107e-06	260.9	74.859	57.417	17.596	3.1922e-06	25.037	9.0586e-05	8.4655e-05	2.3256e-05	955.26	9.8215e-07	8.5472e-07	1049	197.47	9.3044e-07	8.9859e-07	254.02	74.395	56.979	17.473	9.4002e-07	24.801	223.677	8.760	-8.639	-75.525	94.265	42.710	-75.175	-67.353	90.984	59.339	-67.931	-61.022	-60.359	-53.708	91.650	-54.180	-8191	255	
20656.471	1	1	0	0	0.078734	0.10015	0.16154	0.071122	0.16825	0.19379	0.12542	0.19058	0.26997	0.078875	0.19086	0.1941	0.14381	0.36741	0.14046	0.097819	-0.57708	-0.14583	-0.8125	-0.79375	-0.27917	-1.2667	-0.53125	-0.57083	-1.0646	-0.24375	-0.95	-0.82917	-0.22708	-1.0083	-0.55	-0.42292	-47.262	-65.467	211.276	149.203	224.756	-84.081	199.854	-74.121	-76.417	238.578	224.323	-71.277	158.969	-58.977	249.134	45.702	7.2132e-05	4.6421e-05	8.3269e-05	982.11	1.6335e-06	1.6871e-06	1074.9	200.28	8.6958e-07	4.264e-06	259.46	74.863	57.588	17.562	1.5931e-06	25.176	8.7561e-05	8.1507e-05	2.145e-05	954.63	9.356e-07	8.4296e-07	1050.8	197.29	8.8017e-07	9.1789e-07	253.65	74.37	57.15	17.476	9.0964e-07	24.83	218.809	45.531	2.498	-75.487	29.338	53.843	-75.157	-67.696	161.461	79.009	-68.125	-61.253	-60.626	-53.622	44.538	-54.261	-8191	255	
20656.590	1	1	0	0	0.16976	0.012238	0.054641	0.29958	0.16484	0.069437	0.21563	0.18915	0.1882	0.21958	0.084048	0.2289	0.18373	0.075695	0.080648	0.1321	-0.61667	-0.16458	-0.75417	-0.725	-0.28333	-1.0063	-0.5875	-0.36042	-0.95625	-0.1375	-0.84375	-0.89167	-0.10417	-1.0875	-0.50417	-0.45833	238.062	-31.163	234.530	256.442	47.669	-23.565	204.476	-79.925	47.225	25.778	-22.620	157.651	21.730	239.198	245.492	253.788	6.636e-05	0.00032163	9.59e-05	987.39	1.4974e-06	1.8856e-06	1073	201.42	4.027e-07	3.578e-06	259.16	74.213	57.502	17.608	2.2352e-06	25.19	8.3568e-05	7.9133e-05	2.2197e-05	954.92	8.9894e-07	8.3578e-07	1049.6	197.9	8.678e-07	8.4286e-07	254.15	74.249	57.01	17.508	8.7982e-07	24.901	215.599	-7.859	-23.469	-75.703	137.077	27.916	-75.199	-67.786	173.263	78.957	-68.288	-61.434	-60.511	-53.366	70.586	-53.865	-8191	255	
20656.686	1	1	0	0	0.22156	0.2023	0.19324	0.17246	0.2833	0.26909	0.19093	0.12886	0.24287	0.13019	0.074538	0.41183	0.23769	0.16329	0.13206	0.2814	-0.68542	-0.03125	-0.65	-0.98958	-0.2	-0.97292	-0.72708	-0.38125	-1.1604	-0.38542	-0.73542	-1.0542	-0.083333	-0.9375	-0.61042	-0.18333	4.539	182.160	43.006	271.846	272.086	243.382	231.634	-42.566	-18.593	251.089	159.138	181.640	145.618	272.785	254.120	134.766	4.2961e-05	0.00024302	4.9721e-05	979.74	1.7904e-06	4.5426e-06	1074.5	201.81	2.092e-06	2.862e-06	258.31	74.502	57.3	17.533	1.4645e-06	25.074	8.4231e-05	7.4028e-05	2.1246e-05	954.47	8.9307e-07	8.286e-07	1049.1	197.71	8.7921e-07	8.5826e-07	253.24	74.275	56.932	17.535	8.2764e-07	24.854	216.395	7.092	-45.369	-75.570	94.600	37.179	-75.338	-67.579	109.549	73.180	-68.245	-61.496	-60.546	-53.433	72.228	-54.273	-8191	255	
20656.781	1	1	0	0	0.25873	0.26326	0.28454	0.33947	0.093875	0.14196	0.40028	0.093492	0.3049	0.15547	0.22262	0.17303	0.088346	0.32903	0.27744	0.17211	-0.85417	-0.31667	-0.48125	-1.0271	-0.12708	-0.94375	-0.85625	-0.30208	-1.0187	-0.36667	-0.19167	-1.1042	-0.23125	-0.76875	-0.675	-0.04375	-35.574	1.174	246.551	0.922	224.271	3.178	212.389	49.967	119.434	50.055	-82.920	-61.032	156.910	231.672	77.758	229.225	3.877e-05	0.00021714	0.00011154	981.57	2.2311e-06	1.4715e-06	1073.7	200.33	1.1383e-06	3.8696e-06	257.93	74.343	57.615	17.646	2.643e-06	25.014	8.1285e-05	7.5926e-05	2.0873e-05	952.63	8.8953e-07	7.5277e-07	1046.8	197.52	8.2926e-07	7.9211e-07	253	74.127	56.889	17.487	8.039e-07	24.799	226.616	-10.424	-15.432	-75.612	71.701	100.306	-75.281	-67.393	77.266	49.439	-68.059	-61.299	-61.053	-53.887	51.855	-54.512	-8191	255	
20656.879	1	1	0	0	0.19833	0.24644	0.088735	0.28123	0.10612	0.2138	0.1685	0.10502	0.10114	0.11895	0.018274	0.20187	0.056422	0.23928	0.084196	0.28157	-0.57917	-0.19167	-0.44167	-1.0875	-0.20833	-0.83958	-0.8625	-0.15625	-0.78333	-0.41042	-0.33333	-1.2104	-0.18125	-0.83542	-0.93125	-0.25208	0.868	263.923	27.435	251.188	42.065	243.879	269.447	192.265	-45.521	-37.434	110.435	239.802	219.988	271.009	107.691	115.969	5.3033e-05	0.000312	6.8601e-05	978.06	1.4552e-06	3.2823e-06	1074.5	200.63	1.5568e-06	2.6528e-06	258.82	74.591	57.3	17.485	1.1828e-06	24.956	7.6536e-05	7.1654e-05	1.9347e-05	951.46	8.4836e-07	7.4559e-07	1046.2	197.11	7.9682e-07	7.4917e-07	253	74.17	56.942	17.423	7.6485e-07	24.773	216.454	29.551	29.167	-75.494	111.273	56.693	-75.322	-67.700	83.240	76.700	-68.080	-61.430	-60.913	-53.845	50.204	-54.709	-8191	255	
20656.975	1	1	0	0	0.041534	0.076155	0.087136	0.36494	0.013699	0.30428	0.34318	0.1346	0.15971	0.016198	0.29999	0.12511	0.16013	0.30528	0.05219	0.22638	-0.825	-0.51875	-0.22083	-1.4667	-0.22708	-0.75625	-1.1292	-0.20625	-0.92708	-0.76458	-0.25625	-0.925	-0.28125	-0.58958	-0.93542	0.01875	62.805	10.736	34.523	226.959	17.918	184.053	173.909	164.028	213.941	-23.437	236.253	224.594	-12.446	-64.479	-1.087	-54.366	6.6719e-05	0.00032555	7.8707e-05	977.76	1.4228e-06	1.9533e-06	1066.3	200.84	9.1019e-07	8.9796e-07	257.86	74.142	57.352	17.502	3.138e-06	24.92	7.6668e-05	6.9288e-05	1.926e-05	949.13	8.2118e-07	7.3351e-07	1042.3	197.12	7.6912e-07	7.3378e-07	253.07	73.986	56.835	17.406	7.4889e-07	24.752	229.497	28.740	3.817	-75.438	14.846	90.642	-75.373	-67.456	62.811	101.964	-67.862	-61.537	-60.761	-53.606	98.425	-54.305	-8191	255	
20657.070	1	1	0	0	0.19006	0.11996	0.26355	0.41474	0.043936	0.16134	0.25099	0.19165	0.10264	0.10993	0.22841	0.062731	0.1408	0.017109	0.07346	0.19159	-0.47708	-0.5875	-0.12917	-1.1938	-0.42292	-0.54792	-1.1125	-0.26458	-0.82292	-0.73958	-0.0375	-0.95833	-0.48333	-0.41667	-0.98542	-0.14583	247.934	117.541	-16.903	227.700	47.185	147.493	210.004	144.202	-1.591	27.224	267.453	238.939	-23.273	46.571	55.114	143.297	4.2719e-05	0.00017729	9.7502e-05	977.48	1.2079e-06	3.9203e-06	1068.6	201.2	1.5926e-06	2.5475e-06	257.18	74.54	56.828	17.511	2.4623e-06	24.949	8.0735e-05	6.6996e-05	1.9591e-05	950.3	8.5391e-07	7.6738e-07	1043.7	196.94	8.1457e-07	7.4852e-07	252.51	74.122	56.519	17.418	7.864e-07	24.709	215.806	12.087	-3.903	-75.501	99.719	53.427	-75.455	-67.595	88.321	52.328	-68.046	-61.454	-60.681	-54.401	15.287	-53.928	-8191	255	
20657.166	1	1	0	0	0.077388	0.36399	0.12449	0.15454	0.37679	0.18331	0.17826	0.41663	0.073281	0.08939	0.042914	0.11475	0.16121	0.20689	0.28969	0.17588	-0.34583	-0.63542	-0.15833	-1.0667	-0.33542	-0.32708	-1.1979	-0.31458	-0.70417	-1.0104	-0.25625	-1.0208	-0.57083	-0.325	-1.2521	-0.26458	-42.887	115.870	177.464	190.999	-2.740	-29.379	126.925	-79.544	-17.191	177.732	-34.543	-12.175	271.293	257.928	89.830	66.830	5.4856e-05	0.00011826	4.4619e-05	978.97	1.8885e-06	3.5925e-06	1067.4	199.89	1.1434e-06	1.5287e-06	258.33	74.591	57.094	17.682	2.7701e-06	25.032	8.1902e-05	7.2108e-05	2.0743e-05	950.72	8.7481e-07	8.1154e-07	1044.6	196.77	8.5632e-07	7.8526e-07	252.7	74.176	56.743	17.43	7.8843e-07	24.769	229.320	-7.745	16.504	-75.383	34.744	72.055	-75.292	-67.930	-2.544	101.656	-68.285	-61.361	-61.137	-54.223	78.573	-53.917	-8191	255	
20657.285	1	1	0	0	0.19017	0.19689	0.099402	0.26228	0.11118	0.18564	0.2579	0.045078	0.087212	0.25289	0.30053	0.13239	0.35938	0.18025	0.24407	0.22384	-0.08125	-1.0083	-0.17083	-0.99167	-0.58958	-0.42708	-1.0833	-0.2875	-0.47292	-1.0125	-0.11875	-0.86667	-0.92292	-0.08125	-1.1146	-0.5375	92.696	-67.687	-12.221	-41.692	15.470	51.417	218.422	153.505	186.905	211.330	150.620	19.310	238.523	190.503	74.299	16.631	5.3915e-05	0.00015315	7.8333e-05	978.27	1.3772e-06	1.8657e-06	1075.2	199.02	2.6436e-06	1.8176e-06	259.71	74.733	57.057	17.579	1.9503e-06	24.748	8.3906e-05	7.2823e-05	1.9984e-05	951.1	8.5921e-07	7.9783e-07	1044.7	196.56	8.1689e-07	7.2262e-07	252.6	73.999	56.789	17.397	7.3285e-07	24.594	220.307	41.019	-21.895	-75.635	180.502	43.854	-75.230	-67.636	68.055	94.162	-68.059	-60.931	-60.948	-53.764	54.200	-54.441	-8191	255	
20657.381	1	1	0	0	0.11015	0.11392	0.26138	0.23531	0.12007	0.35818	0.23459	0.11905	0.23908	0.16297	0.1247	0.15842	0.21748	0.12621	0.1175	0.058409	-0.20208	-0.88542	-0.25417	-1.0021	-0.69792	-0.17292	-1.2375	-0.47917	-0.53333	-1.1812	-0.125	-0.68542	-0.88125	-0.225	-0.95	-0.58542	245.086	176.636	33.793	232.733	-17.203	247.940	187.781	214.119	135.546	35.771	130.170	185.284	111.935	-72.841	90.817	245.744	6.4808e-05	0.00016397	3.7684e-05	975.72	2.6376e-06	2.3981e-06	1068.3	199.19	1.0126e-06	2.1205e-06	257.05	74.148	56.932	17.411	2.1442e-06	24.748	7.9846e-05	6.7852e-05	1.916e-05	946.31	8.81e-07	7.8616e-07	1040.5	196.15	8.4026e-07	7.2571e-07	251.26	73.537	56.539	17.326	7.9612e-07	24.6	231.538	10.811	30.373	-75.343	103.537	57.418	-75.249	-67.950	63.858	52.376	-68.412	-61.081	-61.003	-53.928	51.968	-54.159	-8191	255	
20657.479	1	1	0	0	0.1157	0.16173	0.31695	0.12226	0.10691	0.19823	0.14482	0.3552	0.1572	0.046094	0.10537	0.061845	0.082883	0.31621	0.24756	0.17371	0.095833	-1.0896	-0.125	-0.8375	-1.0333	0.03125	-1.1562	-0.56458	-0.04375	-0.98958	-0.43542	-0.60625	-0.98125	-0.033333	-0.99792	-0.72708	-38.608	218.864	84.082	-33.961	211.278	-5.074	69.984	-21.355	-63.751	-60.448	116.397	91.930	142.478	250.804	206.232	-37.235	4.255e-05	0.00026427	9.4882e-05	970.45	1.708e-06	3.212e-06	1062.3	199.01	8.3023e-07	3.2106e-06	257.03	73.591	56.848	17.413	1.2672e-06	24.883	7.8824e-05	7.0955e-05	2.09e-05	946.25	8.0004e-07	7.8665e-07	1038.8	195.95	8.3095e-07	7.7761e-07	251.57	73.555	56.48	17.318	7.8502e-07	24.584	240.140	19.351	-28.045	-75.214	58.023	69.213	-75.089	-67.708	152.439	86.741	-68.300	-61.105	-60.628	-54.104	114.980	-54.689	-8191	255	
20657.551	1	1	0	0	0.13959	0.053165	0.086625	0.10759	0.19786	0.20095	0.09897	0.25751	0.24989	0.053645	0.11296	0.1247	0.13986	0.1116	0.17967	0.15774	0.070833	-0.92292	-0.19583	-0.54583	-1.0063	-0.11875	-0.91458	-0.65208	-0.15833	-1.1958	-0.61667	-0.41667	-1.0792	-0.16875	-0.7875	-0.84375	-6.139	152.558	102.457	-14.023	103.527	-51.924	148.269	71.777	102.650	166.417	184.363	5.927	11.400	-35.664	234.370	181.067	5.6723e-05	0.00031539	6.4591e-05	970.71	1.9979e-06	2.8622e-06	1065.3	198.68	1.2396e-06	4.8644e-06	254.22	73.451	56.741	17.516	2.9186e-06	24.787	7.9687e-05	7.1059e-05	2.0325e-05	945.48	8.363e-07	8.0379e-07	1039.7	196.05	8.2043e-07	7.4632e-07	251.08	73.65	56.484	17.35	8.1152e-07	24.602	216.761	-9.550	-30.205	-75.405	84.866	81.485	-75.049	-67.815	51.169	55.246	-68.678	-61.335	-60.724	-53.917	101.078	-54.676	-8191	255	
20657.670	1	1	0	0	0.32323	0.082893	0.19739	0.040728	0.12127	0.28785	0.22688	0.11231	0.10925	0.10091	0.11482	0.061853	0.11099	0.22316	0.088092	0.25948	0.15208	-1.1146	-0.41875	-0.55208	-0.975	-0.17917	-0.76458	-1.0771	-0.18333	-1.1646	-0.54375	-0.55833	-1.1833	-0.32083	-0.7375	-1.1021	126.807	-21.516	89.137	222.757	18.871	57.225	160.182	131.930	172.409	5.590	-62.941	228.819	86.673	52.429	-6.416	184.864	4.9495e-05	0.00020185	8.4487e-05	972.25	2.1966e-06	2.2493e-06	1068.9	200.11	8.5074e-07	2.2041e-06	256.7	74.292	57.107	17.41	2.7666e-06	24.713	8.0516e-05	7.1037e-05	2.0689e-05	945.63	8.6484e-07	8.2223e-07	1041.4	196.77	8.4163e-07	7.9219e-07	252.21	73.703	56.622	17.337	8.1241e-07	24.64	255.657	-35.142	5.452	-75.498	90.305	65.866	-75.371	-67.549	-61.955	112.593	-68.235	-61.191	-60.724	-53.943	70.449	-54.153	-8191	255	
20657.766	1	1	0	0	0.15878	0.12432	0.077872	0.22266	0.036337	0.059694	0.091936	0.10802	0.15123	0.15535	0.19513	0.1862	0.018377	0.1889	0.20836	0.23407	0.17917	-0.96667	-0.5625	-0.23333	-1.2208	-0.18125	-0.66042	-1.0521	-0.20625	-0.82708	-0.72292	-0.24167	-1.2167	-0.46042	-0.54792	-1.0854	265.215	55.676	148.299	244.570	183.681	171.739	120.005	227.886	156.025	-19.700	26.314	264.179	59.860	217.283	97.533	-83.877	6.3051e-05	0.00017437	7.0586e-05	967.63	3.1751e-06	3.8412e-06	1064.5	199.59	1.5267e-06	2.619e-06	258.28	73.384	57.098	17.411	1.7352e-06	24.838	8.2499e-05	7.1007e-05	2.0364e-05	944.62	8.4643e-07	7.7832e-07	1039.9	195.94	8.2573e-07	7.6457e-07	251.92	73.549	56.572	17.299	8.1938e-07	24.685	217.657	12.028	2.259	-75.559	96.403	77.586	-75.152	-67.873	-2.740	79.292	-68.304	-61.218	-60.534	-54.015	65.146	-54.495	-8191	255	
20657.861	1	1	0	0	0.26656	0.068195	0.15053	0.090347	0.21379	0.11242	0.3031	0.22916	0.24883	0.030954	0.15147	0.13263	0.15842	0.15461	0.19505	0.30102	0.22917	-0.87292	-0.65625	-0.43542	-1.0083	-0.35625	-0.72708	-1.0729	-0.28333	-0.86875	-0.9375	-0.13958	-1.0521	-0.51042	-0.55833	-1.1979	197.313	38.526	43.896	198.399	94.798	37.439	197.323	247.055	45.266	35.059	205.069	264.669	-56.535	16.777	106.486	-76.826	6.8934e-05	0.00023415	8.7957e-05	972.61	1.7589e-06	1.9778e-06	1068.9	200.11	2.2182e-07	4.4072e-06	258.84	73.816	56.916	17.436	2.9229e-06	24.843	8.2612e-05	6.9623e-05	2.0186e-05	946.37	8.4699e-07	8.024e-07	1040.8	196.46	8.4853e-07	8.1899e-07	252.35	73.657	56.604	17.347	8.2837e-07	24.638	202.686	20.741	9.940	-75.396	64.303	34.287	-75.131	-67.723	160.400	61.962	-68.381	-61.196	-60.463	-53.663	99.803	-54.213	-8191	255	
20657.957	1	1	0	0	0.27777	0.19271	0.23761	0.28294	0.33734	0.074288	0.21676	0.24734	0.33909	0.24428	0.23413	0.035689	0.22313	0.27895	0.24372	0.14662	0.0625	-0.75625	-1.0417	-0.475	-0.96667	-0.49583	-0.48542	-1.2271	-0.21042	-0.73542	-1.0646	-0.060417	-0.97917	-0.83542	-0.30208	-1.3354	179.118	148.154	156.810	238.348	50.860	103.711	180.001	198.074	221.591	-6.047	-29.992	242.046	236.814	126.576	-58.476	-23.424	6.8832e-05	0.00023438	0.00014297	978.48	2.2337e-06	3.047e-06	1066.1	199.73	5.7132e-07	6.0611e-07	258.79	73.99	56.804	17.364	1.7984e-06	25.047	8.2924e-05	7.6544e-05	2.0817e-05	944.12	8.3694e-07	8.1946e-07	1041.9	196.29	8.8676e-07	7.864e-07	252.34	73.598	56.511	17.325	8.3591e-07	24.698	211.876	-24.139	-10.792	-75.614	32.101	73.267	-75.177	-67.751	126.363	131.085	-68.029	-61.411	-60.725	-53.926	29.573	-53.918	-8191	255	
20658.078	1	1	0	0	0.17599	0.28296	0.15537	0.056388	0.083312	0.35766	0.22348	0.10573	0.23954	0.1491	0.056343	0.20366	0.27253	0.17149	0.081815	0.12685	0.041667	-0.54792	-0.99792	-0.29167	-0.89375	-0.72083	-0.25	-1.2437	-0.46667	-0.53125	-1.1979	-0.25	-0.82708	-0.63333	-0.13542	-1.275	35.587	95.659	242.980	197.123	254.553	222.108	176.812	257.716	-78.454	92.907	273.397	241.315	-0.172	258.377	12.423	209.877	7.7601e-05	0.0002439	8.8693e-05	970.22	3.8523e-07	2.1646e-06	1067.3	200.19	7.3325e-07	1.1136e-06	257.53	74.095	57.049	17.556	1.724e-06	24.962	8.2493e-05	7.4973e-05	2.0068e-05	944.63	8.4265e-07	7.593e-07	1039.5	196.6	8.7158e-07	8.1679e-07	251.9	73.588	56.597	17.378	8.4409e-07	24.672	216.579	-16.101	-16.474	-75.403	253.570	84.753	-75.086	-67.640	108.595	67.670	-68.637	-61.058	-60.988	-53.817	108.692	-54.361	-8191	255	
20658.176	1	1	0	0	0.15688	0.27414	0.12746	0.19308	0.2795	0.073125	0.45307	0.10616	0.15401	0.25428	0.31022	0.063058	0.23839	0.17853	0.30064	0.11694	0.08125	-0.29792	-0.93542	-0.23125	-0.87083	-0.86875	-0.37708	-1.1542	-0.39792	-0.43542	-1.1833	-0.21875	-0.80625	-0.98958	-0.10833	-1.25	-53.862	264.942	198.264	-72.482	262.926	141.295	235.929	209.134	-70.069	6.578	191.318	161.400	220.335	-25.436	188.632	-40.975	5.204e-05	0.00019197	7.8106e-05	972.56	2.0114e-06	2.3362e-06	1068.7	200.83	1.3312e-06	2.6589e-06	258.61	73.819	57.602	17.436	2.1548e-06	24.795	8.236e-05	7.2399e-05	2.0749e-05	944.53	8.449e-07	8.0762e-07	1040.7	196.77	8.6291e-07	8.1443e-07	252.33	73.73	56.799	17.323	8.1282e-07	24.663	220.382	-44.254	-37.304	-75.334	85.329	67.477	-75.190	-67.645	77.620	102.679	-68.180	-61.443	-60.459	-53.641	67.525	-54.255	-8191	255	
20658.271	1	1	0	0	0.08893	0.10454	0.079778	0.1426	0.25909	0.29054	0.054192	0.29829	0.063896	0.11639	0.29097	0.16905	0.19816	0.32495	0.075147	0.44048	-0.20625	-0.28333	-1.0063	-0.32292	-0.52917	-0.94375	-0.14792	-1.1521	-0.775	-0.37292	-1.1396	-0.22708	-0.77292	-1.1021	-0.13958	-0.9125	110.839	29.368	260.881	189.601	185.702	21.673	206.391	-61.125	-62.598	228.107	-63.767	180.353	59.711	138.765	208.609	-68.889	7.502e-05	0.00034204	4.047e-05	968.67	1.7187e-06	2.1904e-06	1066	200.17	1.3996e-06	2.5476e-06	257.49	74.321	57.133	17.426	1.7587e-06	25.1	8.2048e-05	7.2614e-05	2e-05	945.72	8.4241e-07	7.7881e-07	1042.1	196.78	8.7688e-07	8.0058e-07	252.48	73.827	56.691	17.362	8.7358e-07	24.73	226.982	5.023	8.915	-75.266	102.232	48.730	-75.030	-67.535	82.983	87.885	-68.371	-61.259	-60.575	-53.815	98.440	-53.773	-8191	255	
20658.365	1	1	0	0	0.20223	0.25336	0.12659	0.24134	0.10829	0.28646	0.37593	0.21775	0.11545	0.15773	0.090976	0.27187	0.31409	0.15752	0.033054	0.011997	-0.41875	-0.18333	-0.98958	-0.69792	-0.38333	-1.0312	-0.34583	-0.95	-0.75208	-0.2625	-1.0438	-0.44583	-0.41667	-1.1187	-0.15417	-0.86875	-57.196	126.258	162.837	169.607	-13.015	85.510	272.322	-76.512	-32.814	-6.651	240.793	83.916	214.650	172.862	-39.459	210.193	6.4312e-05	0.00021071	8.812e-05	975.42	1.7829e-06	2.4626e-06	1069.8	200.27	2.3021e-06	2.0611e-06	258.64	74.157	56.925	17.558	2.2138e-06	24.766	8.2791e-05	7.5837e-05	1.9239e-05	947.42	8.5455e-07	7.8224e-07	1043.7	196.51	8.4363e-07	8.2225e-07	252.91	73.747	56.582	17.417	8.8096e-07	24.688	239.577	4.499	14.978	-75.487	49.115	77.579	-75.236	-67.444	45.956	181.899	-67.778	-61.225	-60.481	-53.811	39.475	-54.175	-8191	255	
20658.463	1	1	0	0	0.27605	0.057278	0.35293	0.2307	0.21812	0.16147	0.044869	0.18504	0.14762	0.12658	0.065672	0.15473	0.17489	0.12619	0.13785	0.068347	-0.35625	-0.1375	-1.0146	-0.59792	-0.475	-1.0187	-0.46667	-0.71667	-0.79375	-0.12917	-1.0146	-0.57917	-0.25208	-1.175	-0.34792	-0.51458	230.075	-54.486	195.879	195.369	169.387	33.472	257.800	139.421	-46.121	-22.119	181.032	244.483	72.634	183.566	-75.137	248.228	6.4027e-05	0.00020706	5.4974e-05	972.63	2.6081e-06	3.7011e-06	1071.1	200.41	4.897e-07	2.591e-06	257.87	73.954	56.722	17.352	1.0316e-06	24.994	8.1564e-05	7.7905e-05	2.1268e-05	946.88	8.9427e-07	7.9962e-07	1042.7	196.86	8.6475e-07	8.8148e-07	252.4	73.824	56.648	17.3	8.4676e-07	24.699	211.242	3.329	-41.506	-75.352	65.989	49.815	-75.004	-67.401	60.144	83.788	-68.346	-61.459	-60.781	-54.190	49.090	-54.766	-8191	255	
20658.559	1	1	0	0	0.16647	0.22388	0.23303	0.20147	0.14029	0.057135	0.37983	0.19708	0.31142	0.13602	0.14286	0.25621	0.19652	0.21342	0.16564	0.28205	-0.58333	0.0125	-0.95208	-0.89167	-0.09375	-1.225	-0.19583	-0.69167	-0.94583	-0.05625	-1.0917	-0.83958	-0.24375	-1.0646	-0.20833	-0.41458	100.728	158.519	270.187	219.150	89.932	60.335	241.505	52.214	88.761	68.331	211.840	-53.775	271.384	107.031	141.536	251.880	6.7041e-05	0.00023838	8.7005e-05	971.4	1.6794e-06	9.3109e-07	1064.7	199.87	2.4233e-06	2.4355e-06	256.85	74.362	57.356	17.499	7.807e-07	24.979	8.366e-05	7.664e-05	2.0639e-05	946.12	9.1486e-07	7.9766e-07	1039.4	196.27	8.5753e-07	8.5573e-07	251.83	73.693	56.697	17.398	8.5187e-07	24.688	221.018	13.805	-30.393	-75.610	58.636	26.304	-75.007	-67.778	101.802	70.544	-68.191	-61.007	-60.595	-53.625	37.579	-53.770	-8191	255	
20658.680	1	1	0	0	0.15017	0.079667	0.07245	0.37941	0.29862	0.21176	0.3052	0.086597	0.0362	0.089428	0.14704	0.041258	0.19932	0.26611	0.081934	0.039994	-0.73958	-0.12292	-0.70417	-0.92917	-0.16667	-1.2062	-0.525	-0.43958	-1.2771	-0.15625	-0.67292	-0.78125	-0.27292	-0.89167	-0.43333	-0.45417	267.218	79.219	141.174	-72.561	-10.479	249.261	242.517	256.720	86.031	245.226	202.499	147.915	143.008	177.279	206.061	151.547	4.7236e-05	0.00019453	0.00013625	970.16	1.5039e-06	8.7193e-07	1066.2	200.31	1.3758e-06	3.7809e-06	257.36	73.243	56.779	17.507	2.5178e-06	24.828	8.4005e-05	7.7541e-05	2.0058e-05	943.27	8.6018e-07	7.6175e-07	1039.1	196.68	8.1609e-07	7.882e-07	251.43	73.327	56.427	17.391	8.2594e-07	24.663	220.578	36.711	-16.126	-75.325	88.044	63.726	-75.173	-67.321	198.212	63.433	-68.048	-61.422	-60.468	-53.724	83.727	-54.097	-8191	255	
20658.775	1	1	0	0	0.091789	0.069687	0.21049	0.20986	0.12164	0.20237	0.29628	0.091569	0.25518	0.060233	0.10906	0.24702	0.061146	0.1591	0.14911	0.19673	-0.78125	-0.1	-0.71875	-0.96458	-0.04375	-1.0417	-0.63958	-0.40208	-1.1625	-0.29167	-0.85625	-0.8875	-0.13958	-0.82292	-0.50833	-0.36667	49.049	-10.784	-65.553	228.724	47.029	208.957	212.675	252.464	235.064	103.739	-50.529	49.213	243.028	-59.542	73.496	-12.894	5.6748e-05	7.6736e-05	9.1565e-05	969.35	1.6124e-06	9.7048e-07	1065.3	200.03	1.078e-06	2.819e-06	259.54	73.864	57.127	17.512	2.1905e-06	24.989	8.0397e-05	7.5331e-05	2.0106e-05	943.47	8.5415e-07	7.7024e-07	1036.1	196.4	8.0935e-07	7.7239e-07	252.32	73.536	56.583	17.356	7.6372e-07	24.726	215.486	36.409	-43.806	-75.467	76.201	33.253	-75.224	-67.602	88.351	40.711	-67.985	-61.519	-60.774	-53.560	82.661	-53.802	-8191	255	
20658.846	1	1	0	0	0.15682	0.16793	0.067753	0.045912	0.26799	0.067638	0.176	0.31517	0.19984	0.10374	0.39139	0.13326	0.04402	0.34578	0.1451	0.33056	-0.59792	-0.2125	-0.56042	-1.1583	-0.19792	-1.0438	-0.86875	-0.1625	-1.075	0.0083333	-0.64375	-0.975	-0.10625	-0.82292	-0.825	-0.15625	-17.915	226.524	89.547	220.587	252.686	141.208	268.092	251.534	255.022	-13.432	-65.234	168.574	-51.689	249.654	17.349	244.500	4.5286e-05	0.00013245	5.4589e-05	968.1	1.3993e-06	6.4205e-07	1065.3	198.64	1.1177e-06	2.2828e-06	257.23	73.898	56.951	17.444	3.8113e-06	24.764	7.7252e-05	7.0181e-05	1.8941e-05	941.61	8.2987e-07	7.2706e-07	1037.5	195.96	7.4615e-07	7.3402e-07	251.18	73.531	56.333	17.301	7.1397e-07	24.616	233.588	8.408	-29.031	-75.811	32.798	28.146	-75.061	-67.707	32.838	95.564	-68.003	-61.078	-60.587	-53.827	92.027	-53.788	-8191	255	
20658.943	1	1	0	0	0.1606	0.078472	0.20897	0.16204	0.068144	0.40897	0.26572	0.05872	0.14646	0.14418	0.20783	0.1762	0.17358	0.26369	0.30228	0.20155	-0.775	-0.35208	-0.43958	-1.2604	0.027083	-0.89583	-0.98958	-0.13958	-0.9625	-0.51667	-0.27083	-1.3021	-0.3375	-0.61875	-0.98333	-0.1625	-20.322	166.129	270.329	149.711	17.809	224.455	-39.631	-7.421	22.522	-46.096	-53.277	96.182	-45.130	38.237	147.024	-28.667	7.662e-05	0.00021741	8.279e-05	969.42	3.2366e-06	3.7672e-06	1062.5	200.06	1.172e-06	2.4573e-06	256.63	74.416	56.991	17.424	1.5327e-06	24.958	7.292e-05	6.5895e-05	1.9287e-05	940.4	7.9988e-07	7.0078e-07	1035.6	196.4	7.4599e-07	7.6685e-07	250.97	73.644	56.369	17.344	7.356e-07	24.698	218.022	-4.146	12.972	-75.269	49.607	49.669	-75.514	-67.595	34.791	74.621	-67.984	-61.017	-60.598	-53.101	37.731	-53.965	-8191	255	
20659.062	1	1	0	0	0.18418	0.33097	0.19606	0.048698	0.24582	0.21517	0.16062	0.18584	0.24712	0.033978	0.26403	0.089028	0.061822	0.27676	0.086936	0.081007	-0.5625	-0.41458	-0.26667	-1.0708	-0.29792	-0.81667	-1.0438	-0.22292	-1.0771	-0.61875	-0.33958	-0.92083	-0.38542	-0.44167	-0.8625	-0.16042	221.072	13.410	23.547	-14.777	229.128	-77.911	195.045	30.428	-65.591	220.792	206.827	213.252	195.896	28.483	203.671	-83.061	5.9606e-05	0.00021932	2.5891e-05	969.57	2.1392e-06	3.8675e-06	1064.1	198.8	1.5698e-06	1.7496e-06	256.88	74.015	56.938	17.555	1.7776e-06	24.975	7.503e-05	6.7718e-05	1.8486e-05	943.21	8.1298e-07	7.207e-07	1036.9	195.73	7.5554e-07	7.3459e-07	251.37	73.465	56.323	17.323	7.2167e-07	24.679	238.469	11.811	9.074	-75.270	35.274	60.532	-75.223	-67.601	53.468	81.709	-68.152	-60.980	-60.794	-53.407	84.406	-54.722	-8191	255	
20659.158	1	1	0	0	0.15071	0.047529	0.18701	0.15257	0.29434	0.47991	0.28939	0.15843	0.26915	0.21745	0.057185	0.18797	0.23384	0.1002	0.10999	0.25174	-0.51458	-0.61667	-0.13958	-0.91667	-0.4125	-0.52292	-1.3062	-0.29583	-0.84583	-0.62917	-0.21875	-1.275	-0.39792	-0.44583	-1.0833	-0.27708	8.326	37.201	31.685	230.980	73.850	-70.587	221.973	46.357	41.717	-36.648	108.555	140.982	242.018	120.415	44.806	243.024	6.1109e-05	0.00022637	7.2645e-05	963.61	2.252e-06	1.508e-06	1063.4	200.39	1.2186e-06	3.5625e-06	258.27	73.422	56.472	17.336	2.3598e-06	24.819	7.7139e-05	6.6326e-05	1.9022e-05	940.03	8.1041e-07	7.1515e-07	1034.9	196.08	7.9537e-07	7.42e-07	251.35	73.474	56.404	17.333	7.5772e-07	24.661	209.762	39.773	4.500	-75.200	77.300	83.750	-75.144	-67.348	-11.367	73.524	-67.873	-61.107	-60.708	-53.368	70.605	-54.193	-8191	255	
20659.256	1	1	0	0	0.45985	0.055456	0.11795	0.47773	0.054181	0.28037	0.26993	0.2071	0.085119	0.03485	0.20824	0.082233	0.046136	0.099221	0.21926	0.1483	-0.45208	-0.60417	0.035417	-1.0854	-0.51875	-0.18333	-1.175	-0.24583	-0.73542	-0.88958	-0.17083	-0.89792	-0.65833	-0.2625	-1.1146	-0.13125	183.465	162.200	28.923	-82.079	141.413	-62.782	253.378	191.185	-39.331	163.126	273.884	192.758	145.057	231.791	247.115	-57.885	5.8077e-05	0.00023148	7.8786e-05	964.3	1.4149e-06	2.4276e-06	1065.6	199.25	7.2527e-07	3.529e-06	255.69	73.994	56.924	17.534	2.0972e-06	24.698	7.9401e-05	6.9668e-05	2.0153e-05	940.63	8.8189e-07	7.9122e-07	1036.5	195.95	8.283e-07	7.763e-07	250.7	73.653	56.377	17.35	7.8162e-07	24.638	221.197	10.319	0.006	-75.441	100.267	61.914	-75.202	-67.668	188.830	51.704	-68.079	-61.097	-60.567	-53.497	105.813	-54.197	-8191	255	
20659.352	1	1	0	0	0.16248	0.19647	0.13664	0.091645	0.1972	0.12504	0.24663	0.38043	0.15243	0.059318	0.16484	0.045842	0.021953	0.092573	0.099735	0.18458	-0.36042	-0.85417	-0.20208	-1.1833	-0.43542	-0.30625	-1.2271	-0.325	-0.70417	-0.99583	-0.30833	-1.0979	-0.67708	-0.22917	-0.99583	-0.32292	268.424	140.966	84.796	96.743	170.426	235.740	201.069	188.652	246.494	169.295	128.384	269.888	77.775	-54.092	230.091	54.845	4.6085e-05	0.00034514	5.0878e-05	968.22	2.1592e-06	3.1669e-06	1063.2	199.39	1.1998e-06	3.412e-06	256.22	74.138	57.122	17.675	2.2655e-06	24.653	7.964e-05	7.2108e-05	1.9688e-05	941.81	8.6235e-07	7.9603e-07	1036.7	196.16	8.4098e-07	7.2571e-07	250.82	73.765	56.49	17.434	7.6615e-07	24.59	223.487	42.923	8.130	-75.310	111.712	65.813	-75.341	-67.640	50.910	110.836	-68.079	-60.880	-60.656	-53.958	149.973	-54.016	-8191	255	
20659.445	1	1	0	0	0.048209	0.10523	0.15517	0.16557	0.091998	0.067189	0.12953	0.09834	0.24902	0.20629	0.17943	0.1702	0.10064	0.16129	0.03463	0.099625	-0.08125	-1.0729	-0.041667	-0.90833	-0.7625	0.0125	-1.4083	-0.47083	-0.38958	-0.95	-0.34375	-0.6875	-0.97292	0.010417	-0.77917	-0.42292	148.231	157.997	273.452	197.363	104.044	-26.735	246.283	195.777	62.819	-13.933	-1.318	-57.997	274.219	105.166	59.096	217.514	5.0969e-05	0.00029949	9.4857e-05	970.28	2.8158e-06	2.1833e-06	1062.6	200.41	7.9367e-07	1.2796e-06	257.49	74.092	56.48	17.553	2.3519e-06	24.987	8.2758e-05	7.0434e-05	1.9702e-05	941.88	8.0848e-07	7.9505e-07	1035.2	196.49	8.1368e-07	7.4266e-07	250.97	73.632	56.341	17.351	7.7927e-07	24.663	223.644	37.120	-10.153	-74.992	83.949	140.247	-74.962	-67.504	87.950	-1.657	-68.126	-61.132	-61.007	-53.345	65.023	-54.454	-8191	255	
20659.543	1	1	0	0	0.2045	0.068911	0.19354	0.37508	0.14621	0.23609	0.15466	0.12617	0.20146	0.21056	0.22131	0.16634	0.19067	0.26017	0.23744	0.16556	0.033333	-1.0021	-0.17083	-0.82708	-0.91458	-0.083333	-1.1979	-0.65417	-0.21875	-1.1354	-0.30417	-0.72708	-0.99167	-0.085417	-0.89167	-0.66667	180.390	-9.601	135.841	-58.298	53.339	27.536	248.941	-32.684	57.425	-22.046	227.183	-53.496	-16.150	-24.749	35.262	23.587	4.4215e-05	0.00031435	8.0086e-05	966.92	1.9518e-06	1.5869e-06	1063.5	199.66	1.2017e-06	2.8557e-06	257.62	73.987	56.615	17.461	2.0872e-06	24.816	8.3985e-05	7.4051e-05	1.9671e-05	940.26	8.1547e-07	8.3048e-07	1036.4	195.92	8.2878e-07	7.4608e-07	251.26	73.567	56.347	17.315	7.6744e-07	24.618	201.859	8.324	11.725	-75.259	102.141	61.248	-75.069	-67.665	103.069	55.998	-67.844	-60.988	-60.617	-53.729	48.602	-54.266	-8191	255	
20659.639	1	1	0	0	0.14169	0.23728	0.17351	0.30054	0.31352	0.19116	0.28856	0.1133	0.077805	0.1362	0.096735	0.18652	0.13241	0.31703	0.19391	0.2502	0.03125	-0.98542	-0.14792	-0.65625	-0.99375	-0.24792	-1.0458	-0.72917	-0.18958	-1.15	-0.46042	-0.51042	-0.89375	-0.31667	-0.92083	-0.93125	20.908	157.578	54.848	-84.546	206.624	228.008	246.158	186.845	-65.233	155.760	-75.775	237.805	182.199	-18.680	237.109	67.200	7.0771e-05	0.00023889	8.1317e-05	969.61	1.7752e-06	2.658e-06	1060.1	198.97	5.745e-07	3.5153e-06	255.74	74.057	57.015	17.348	7.4397e-07	24.751	8.3813e-05	6.8306e-05	2.0513e-05	941.71	8.6766e-07	7.8159e-07	1035.4	195.72	8.572e-07	7.7875e-07	250.78	73.486	56.426	17.326	7.8089e-07	24.621	234.758	-4.115	-20.186	-75.215	54.453	97.417	-74.690	-67.457	47.992	132.305	-68.178	-61.153	-60.676	-53.520	65.538	-53.742	-8191	255	
20659.760	1	1	0	0	0.28903	0.23288	0.29293	0.10938	0.48246	0.072616	0.25469	0.32162	0.13836	0.1977	0.10028	0.1679	0.13191	0.090392	0.13282	0.085107	0.1625	-1.0125	-0.22917	-0.5	-1.1812	-0.17917	-0.91875	-0.9125	-0.18333	-1.2292	-0.61667	-0.46042	-1.1708	-0.39167	-0.725	-0.94583	222.761	147.185	134.714	-60.359	94.201	133.199	-65.310	271.522	58.395	76.851	171.301	-45.848	272.771	111.848	13.723	60.066	5.2508e-05	0.00029778	8.3946e-05	967.45	1.6711e-06	1.9669e-06	1063	200.31	2.0843e-06	1.6491e-06	257	73.954	57.238	17.454	1.1389e-06	24.669	8.3521e-05	7.3135e-05	2.1405e-05	941.97	8.4916e-07	8.0721e-07	1037.8	196.25	8.034e-07	7.438e-07	251.48	73.627	56.56	17.299	7.881e-07	24.624	236.085	37.830	-19.278	-74.990	85.273	132.188	-74.974	-67.595	117.934	121.524	-68.198	-61.084	-60.892	-53.995	37.851	-54.095	-8191	255	
20659.855	1	1	0	0	0.12243	0.018898	0.055057	0.33302	0.19491	0.19062	0.13832	0.33618	0.20546	0.11422	0.19465	0.18389	0.078147	0.12908	0.045321	0.072396	0.24792	-0.92917	-0.5375	-0.2625	-1.0979	-0.25	-0.84583	-0.90625	-0.0625	-0.8875	-0.70625	-0.45833	-1.2708	-0.36667	-0.53958	-0.85625	139.354	42.796	10.247	245.990	145.718	128.073	250.386	201.958	34.851	132.761	183.615	212.287	103.899	-82.497	181.998	51.726	5.844e-05	0.00029137	0.00010483	970.72	8.2876e-07	8.8619e-07	1063	199.2	1.0724e-06	2.4677e-06	255.73	74.487	56.913	17.444	1.5506e-06	24.655	7.9335e-05	6.8812e-05	1.9562e-05	942.2	8.0197e-07	7.6885e-07	1035.6	195.82	8.1778e-07	7.4551e-07	250.96	73.704	56.518	17.303	7.4597e-07	24.612	238.498	14.638	-6.800	-74.951	112.889	76.740	-74.814	-67.578	43.264	16.291	-67.988	-60.758	-60.279	-53.156	65.972	-53.820	-8191	255	
20659.951	1	1	0	0	0.13577	0.1688	0.14075	0.18215	0.20622	0.1816	0.26145	0.4192	0.27242	0.33056	0.16436	0.23302	0.042735	0.1466	0.22557	0.05991	0.34167	-0.87083	-0.69167	-0.54583	-1.0812	-0.30417	-0.6875	-1.15	-0.041667	-0.67292	-0.76458	-0.0875	-1.0708	-0.48333	-0.52917	-1.0042	71.422	236.149	89.178	41.267	181.328	263.869	214.125	255.395	-49.273	-51.056	-19.352	-1.203	173.853	233.915	216.490	211.729	5.4849e-05	0.00022814	0.00011855	971.51	3.0659e-06	7.2003e-07	1065.6	199.79	1.4677e-06	3.9409e-06	255.26	74.054	57.137	17.555	2.7645e-06	24.809	8.1332e-05	7.1602e-05	1.9187e-05	941.84	8.0663e-07	7.531e-07	1038.9	195.81	8.4548e-07	7.6229e-07	250.55	73.518	56.494	17.327	7.9118e-07	24.651	235.016	23.639	10.121	-75.258	72.063	92.562	-74.946	-67.422	85.381	66.783	-67.840	-60.820	-60.339	-53.430	114.677	-54.261	-8191	255	
20660.072	1	1	0	0	0.32347	0.34089	0.14891	0.22305	0.17826	0.075888	0.065607	0.26771	0.33544	0.20707	0.20278	0.065554	0.066807	0.30026	0.06438	0.074521	0.16042	-0.65208	-0.76875	-0.25833	-1.125	-0.3625	-0.3625	-1.0021	-0.13958	-0.80417	-0.88542	-0.083333	-1.1063	-0.63958	-0.37083	-1.0333	-42.126	-42.115	11.895	252.399	270.429	63.969	33.530	172.557	68.277	194.193	-34.371	-54.169	-37.179	-83.944	172.266	108.870	4.8273e-05	0.00028923	7.0388e-05	968.02	1.0076e-06	2.3766e-06	1066.4	199.34	1.4952e-06	2.5818e-06	256.62	73.556	56.865	17.609	3.2509e-06	24.788	7.7902e-05	7.1654e-05	1.9653e-05	941.5	8.3357e-07	7.8558e-07	1037.5	195.55	8.2902e-07	7.8144e-07	250.71	73.455	56.489	17.325	8.0131e-07	24.606	208.461	-23.297	-34.996	-75.109	119.949	67.751	-74.770	-67.350	19.445	75.505	-67.950	-60.870	-60.485	-53.331	82.326	-53.974	-8191	255	
20660.145	1	1	0	0	0.10601	0.37503	0.11636	0.18662	0.1025	0.21229	0.063575	0.33636	0.33017	0.059722	0.14119	0.11667	0.056291	0.077219	0.13074	0.17019	-0.020833	-0.47917	-0.87917	-0.23542	-0.9375	-0.50208	-0.38542	-1.0875	-0.15625	-0.53542	-0.86042	-0.15833	-0.92083	-0.68333	-0.20833	-1.2583	-69.171	213.203	201.967	-75.359	240.100	225.202	271.258	232.053	265.998	208.282	40.712	104.982	255.334	-41.307	-3.361	46.859	7.7557e-05	0.00014135	7.1854e-05	967.52	1.3841e-06	2.5258e-06	1065.5	199.66	2.3272e-07	3.555e-06	254.96	73.466	57.152	17.55	2.9226e-06	24.953	7.9972e-05	7.0925e-05	1.8736e-05	940.64	8.277e-07	7.6942e-07	1036.2	195.54	8.4717e-07	7.6987e-07	250.62	73.551	56.554	17.34	7.9167e-07	24.68	240.268	-5.947	-14.741	-75.174	105.322	66.592	-74.977	-67.426	164.875	37.155	-68.103	-60.961	-60.400	-53.681	90.638	-54.050	-8191	255	
20660.240	1	1	0	0	0.19047	0.25687	0.23065	0.10099	0.11773	0.095645	0.44289	0.11857	0.30495	0.23201	0.2281	0.091146	0.22728	0.14769	0.054413	0.19663	-0.05625	-0.55833	-0.91458	-0.25833	-0.80625	-0.7375	-0.34375	-1.1	-0.40833	-0.37708	-1.1604	-0.30417	-0.58958	-0.80417	-0.075	-1.0562	195.380	246.730	240.516	20.255	239.604	12.598	248.655	164.157	162.120	-46.877	152.376	-43.906	-47.050	182.329	176.879	-29.461	4.934e-05	0.0002424	7.8421e-05	970.89	1.6694e-06	3.6964e-06	1063.4	198.53	1.8487e-06	4.2782e-06	256.28	73.589	56.913	17.447	3.5706e-06	24.7	8.0569e-05	7.164e-05	1.9305e-05	942.66	8.1732e-07	7.6314e-07	1037.2	195.89	8.1537e-07	8.0107e-07	250.69	73.503	56.456	17.349	8.3647e-07	24.589	225.675	27.503	-7.131	-75.217	81.155	65.441	-74.700	-67.488	71.450	47.471	-68.118	-60.717	-60.499	-53.745	78.747	-54.214	-8191	255	
20660.359	1	1	0	0	0.22202	0.039145	0.18188	0.28573	0.17398	0.22304	0.30365	0.097062	0.031204	0.16003	0.24806	0.17155	0.069418	0.060584	0.1116	0.2003	-0.14167	-0.15625	-1.1708	-0.20208	-0.87708	-0.92083	-0.31667	-1.1375	-0.71458	-0.45	-1.3833	-0.29375	-0.6625	-0.99792	-0.21042	-1.1146	-12.674	263.918	237.615	-42.916	54.841	269.283	206.969	229.961	47.188	196.956	-21.451	-70.471	84.431	33.050	-4.337	-20.675	4.7256e-05	0.00023144	3.6798e-05	967.79	1.7397e-06	1.7909e-06	1064.9	198.75	1.9458e-06	3.419e-06	256.5	74.523	57.156	17.385	1.5705e-06	24.64	8.2234e-05	7.4013e-05	2.0222e-05	941.6	8.831e-07	8.1195e-07	1036.7	195.72	8.9246e-07	8.1695e-07	251.33	73.704	56.484	17.271	8.6086e-07	24.543	217.362	2.436	-67.762	-75.295	90.339	77.271	-74.980	-67.521	80.555	63.642	-67.688	-61.065	-60.733	-53.531	80.088	-53.827	-8191	255	
20660.455	1	1	0	0	0.15699	0.15109	0.077874	0.26773	0.14154	0.073703	0.12112	0.06767	0.23588	0.1721	0.16598	0.17376	0.11856	0.10942	0.16426	0.19214	-0.34792	-0.21667	-1.1083	-0.63542	-0.50417	-1.0458	-0.36458	-0.90208	-0.82083	-0.19583	-1.0729	-0.4	-0.58333	-1.2417	-0.28333	-0.90625	-80.166	60.864	-47.412	167.505	54.812	13.870	225.138	205.154	195.401	136.486	239.408	24.528	23.898	152.702	184.670	-73.906	4.8617e-05	0.00024501	8.2297e-05	969.38	2.0825e-06	2.6092e-06	1061.4	199.33	1.7753e-06	1.9472e-06	255.8	74.101	57.063	17.447	1.0833e-06	24.71	8.4629e-05	7.8203e-05	2.1531e-05	941.4	9.0513e-07	8.1742e-07	1036.5	195.66	8.776e-07	8.5565e-07	250.69	73.528	56.418	17.312	8.351e-07	24.63	220.858	-9.376	-15.645	-75.253	97.449	69.856	-74.943	-67.224	94.859	60.733	-68.147	-60.834	-60.403	-53.206	34.331	-53.994	-8191	255	
20660.551	1	1	0	0	0.16902	0.19298	0.14115	0.3222	0.19484	0.087297	0.41092	0.31125	0.093951	0.29128	0.13867	0.10015	0.27083	0.28714	0.26773	0.2654	-0.39792	0.0083333	-0.96875	-0.73125	-0.37917	-1.0729	-0.31458	-0.89167	-0.84583	-0.1375	-1.1	-0.45625	-0.325	-0.94792	-0.11667	-0.775	64.008	-20.192	-54.645	231.005	268.895	-83.748	201.284	258.180	7.038	83.432	252.313	244.708	-28.851	-17.430	-60.045	230.411	6.1432e-05	0.0001997	0.00010347	966.22	1.9497e-06	3.4652e-06	1061.2	199.16	2.178e-06	2.1077e-06	257.46	74.164	57.335	17.387	1.5299e-06	24.693	8.2387e-05	7.6953e-05	2.0253e-05	938.16	8.7023e-07	8.5259e-07	1033.5	196.08	8.8989e-07	8.0759e-07	251.37	73.42	56.532	17.287	8.4458e-07	24.582	215.894	-7.298	13.087	-75.065	86.923	2.839	-75.056	-67.330	57.969	37.947	-68.010	-60.729	-60.533	-53.750	101.019	-53.929	-8191	255	
20660.646	1	1	0	0	0.15567	0.25477	0.10639	0.22118	0.12309	0.23892	0.24373	0.23598	0.1229	0.3084	0.1456	0.15976	0.24455	0.19679	0.14415	0.25118	-0.31667	0.075	-0.90833	-0.65833	-0.35833	-0.89792	-0.42083	-0.57083	-0.9	-0.22917	-0.87708	-0.51458	-0.14375	-0.99792	-0.28333	-0.69583	204.900	-20.425	-64.709	263.504	265.134	128.670	206.500	264.034	256.488	83.128	269.792	146.131	239.569	-66.941	181.537	-74.821	6.9952e-05	0.00024352	0.00010789	968.72	9.7381e-07	3.3033e-06	1061	198.26	1.6074e-06	3.1502e-06	255.27	73.944	56.889	17.458	2.5231e-06	24.908	8.3063e-05	7.6737e-05	2.0832e-05	938.4	9.0448e-07	8.1097e-07	1034	195.24	8.3175e-07	8.3569e-07	250.9	73.545	56.438	17.33	8.611e-07	24.609	221.266	23.875	24.377	-75.199	89.133	49.186	-74.832	-67.449	53.734	106.114	-67.962	-60.917	-60.247	-53.297	55.917	-53.837	-8191	255	
20660.742	1	1	0	0	0.14731	0.12261	0.16471	0.40342	0.27163	0.19827	0.23738	0.14453	0.13774	0.14343	0.30156	0.12829	0.18369	0.21168	0.10043	0.059515	-0.60625	-0.066667	-0.99792	-0.62292	-0.2625	-1.1104	-0.39375	-0.46875	-1.0958	-0.22083	-0.86667	-0.91667	-0.15	-1.0604	-0.39792	-0.42292	-52.611	110.498	182.800	221.088	-55.355	237.960	118.801	207.225	28.980	173.027	198.762	82.534	-63.278	218.056	160.895	82.392	4.6233e-05	0.00027555	0.00010722	971.09	2.7316e-06	3.7917e-06	1066	199.93	1.0613e-06	3.296e-06	255.05	74.231	57.108	17.587	1.414e-06	24.622	8.4397e-05	7.9483e-05	2.0081e-05	941.44	8.9274e-07	8.0925e-07	1035.2	195.95	8.4468e-07	8.5948e-07	250.69	73.561	56.534	17.367	8.3429e-07	24.58	223.973	10.049	17.631	-75.150	60.908	79.621	-74.956	-67.252	73.378	77.275	-67.966	-61.118	-60.344	-53.589	53.078	-53.987	-8191	255	
20660.840	1	1	0	0	0.18207	0.20523	0.072962	0.32154	0.12161	0.14303	0.27372	0.30379	0.13625	0.2224	0.22916	0.18325	0.17445	0.34488	0.21834	0.018399	-0.87708	-0.16875	-0.76875	-1.025	-0.0083333	-1.1146	-0.70625	-0.4	-1.2917	-0.30625	-0.98333	-0.85	-0.077083	-1.2437	-0.51042	-0.33542	220.507	19.034	222.154	230.680	-35.072	68.717	189.177	228.422	222.190	-25.878	164.924	259.958	-54.191	63.527	20.210	253.872	6.409e-05	0.00022204	0.0001017	966.19	2.3169e-06	2.2033e-06	1059.6	199.28	1.6029e-06	2.249e-06	256.97	74.055	56.618	17.51	1.8024e-06	24.626	8.2068e-05	7.5651e-05	2.0383e-05	939.55	8.6396e-07	8.0803e-07	1034.4	195.59	8.4026e-07	8.2469e-07	251.08	73.631	56.38	17.32	8.3129e-07	24.64	240.047	-15.445	7.796	-75.171	81.683	61.314	-75.008	-67.517	66.886	99.179	-68.007	-61.059	-60.448	-53.556	34.342	-53.932	-8191	255	
20660.936	1	1	0	0	0.19171	0.084577	0.069487	0.21006	0.12718	0.15263	0.31087	0.32617	0.04383	0.25189	0.15519	0.20453	0.095257	0.1822	0.083848	0.17769	-0.77083	-0.15	-0.80625	-1.2021	-0.39375	-0.90833	-0.92917	-0.4625	-1.0063	-0.29583	-0.49583	-1.0792	-0.058333	-0.94375	-0.64375	-0.21458	194.904	182.305	225.776	150.516	-84.317	236.767	220.035	256.263	251.417	-51.434	106.528	200.696	255.768	-17.361	-6.859	5.422	6.8205e-05	0.00024941	7.1044e-05	967.25	2.6111e-06	2.7773e-06	1062.3	199.09	1.4712e-06	2.0641e-06	256.69	73.907	56.503	17.463	2.5474e-06	24.85	8.1889e-05	7.4185e-05	2.0356e-05	939.77	8.9829e-07	8.2264e-07	1035.1	195.65	8.4404e-07	8.3667e-07	251.06	73.279	56.383	17.333	8.5227e-07	24.685	214.575	4.194	1.894	-75.120	97.388	71.061	-75.021	-67.097	83.141	76.187	-67.779	-60.913	-60.211	-53.185	86.288	-53.880	-8191	255	
20661.031	1	1	0	0	0.19724	0.19433	0.095137	0.34272	0.19973	0.064893	0.16181	0.15335	0.073832	0.20404	0.1012	0.23401	0.25263	0.20745	0.46802	0.078456	-0.65208	-0.39792	-0.44792	-1.0708	-0.34792	-0.84375	-0.98333	-0.34792	-1.0312	-0.44583	-0.37708	-1.1562	-0.2875	-0.64167	-0.68958	-0.045833	142.303	-47.951	221.697	151.495	149.422	-75.001	213.454	173.430	121.807	14.777	-14.497	-46.013	183.918	270.584	180.590	232.190	6.66e-05	0.00027996	8.2662e-05	967.82	1.1143e-06	4.9948e-06	1061.3	199.05	2.179e-06	2.3081e-06	255.01	74.242	57.118	17.508	2.9164e-06	24.766	8.112e-05	7.7481e-05	2.1181e-05	939.97	9.2233e-07	7.9342e-07	1035.4	196.09	8.5528e-07	8.3708e-07	250.97	73.692	56.585	17.289	8.1986e-07	24.61	212.274	-3.027	-5.753	-75.197	38.385	90.440	-74.855	-67.259	44.320	69.975	-67.576	-60.646	-60.412	-53.269	97.970	-54.005	-8191	255	
20661.152	1	1	0	0	0.1541	0.1733	0.11617	0.008123	0.17012	0.13253	0.23041	0.090191	0.23845	0.31197	0.090572	0.10525	0.1539	0.053315	0.096573	0.23802	-0.57917	-0.53333	-0.24375	-1.1854	-0.2875	-0.67917	-1.0438	-0.20833	-1.1125	-0.63958	-0.35625	-1.1583	-0.38333	-0.62708	-0.90833	-0.0625	57.723	140.265	210.403	155.580	270.817	76.997	232.899	113.448	4.859	171.363	41.108	-26.833	111.665	108.009	100.097	254.892	4.4959e-05	0.00015125	5.4212e-05	967.08	1.4679e-06	2.9658e-06	1059.1	198.27	2.0192e-06	2.8254e-06	256.97	73.856	56.663	17.509	8.4189e-07	24.731	8.368e-05	7.4616e-05	2.0993e-05	938.85	8.605e-07	7.895e-07	1033.6	195.39	8.0605e-07	7.873e-07	251.07	73.516	56.371	17.316	8.3907e-07	24.597	222.552	-7.866	-35.967	-75.004	41.772	62.175	-75.156	-67.105	27.470	87.363	-67.781	-60.812	-60.196	-52.913	114.496	-53.740	-8191	255	
20661.246	1	1	0	0	0.17503	0.035561	0.26171	0.16674	0.23824	0.065297	0.16416	0.26044	0.13175	0.15722	0.13988	0.047923	0.15524	0.10156	0.1637	0.019423	-0.75	-0.72708	-0.12708	-1.275	-0.35	-0.52083	-1.0333	-0.3125	-0.8625	-0.87083	-0.43333	-1.1625	-0.38958	-0.53125	-0.99583	-0.19167	273.532	147.281	266.802	-76.925	28.426	129.287	246.235	216.514	141.626	26.656	-38.470	181.085	252.402	273.999	141.107	142.035	5.1189e-05	0.0002645	7.3637e-05	962.96	2.5156e-07	3.1716e-06	1056.5	198.99	5.3875e-07	2.4848e-06	256.62	73.909	56.632	17.375	2.1454e-06	24.854	8.2466e-05	7.5241e-05	2.0339e-05	938.61	8.9894e-07	7.9032e-07	1033.6	195.82	8.5078e-07	7.8404e-07	251.29	73.581	56.212	17.269	7.9588e-07	24.676	225.785	11.339	-34.598	-74.943	166.705	105.612	-74.956	-67.068	-4.462	74.665	-67.604	-60.642	-60.321	-53.101	60.290	-53.894	-8191	255	
20661.344	1	1	0	0	0.23249	0.17162	0.13031	0.39708	0.31386	0.2905	0.12987	0.27933	0.31208	0.42186	0.19935	0.065813	0.19792	0.22324	0.17174	0.17472	-0.52708	-0.6875	-0.22917	-1.2125	-0.47917	-0.5625	-1.3271	-0.3125	-0.84375	-0.775	-0.17083	-1.2104	-0.45625	-0.52083	-1.0229	-0.44792	190.024	218.807	84.310	237.834	37.723	196.010	194.696	-32.769	-53.914	59.845	209.600	246.026	267.592	-7.585	259.013	67.669	6.7372e-05	0.00010507	9.3627e-05	967.59	1.8773e-06	3.7764e-06	1062.6	198.93	1.116e-06	2.6915e-06	256.6	73.977	57.347	17.565	2.2639e-06	24.649	8.1929e-05	7.251e-05	2.0335e-05	940.55	8.6388e-07	8.2142e-07	1033	195.94	8.4243e-07	8.097e-07	250.75	73.593	56.518	17.296	8.3372e-07	24.542	221.232	-46.788	-20.862	-74.998	104.500	85.965	-74.747	-67.178	141.347	83.042	-67.550	-60.900	-60.200	-53.358	35.068	-53.923	-8191	255	
20661.441	1	1	0	0	0.29858	0.22878	0.12614	0.1929	0.20424	0.14968	0.26899	0.41283	0.11631	0.17603	0.15332	0.29037	0.32857	0.28126	0.09105	0.28817	-0.45833	-0.8625	-0.13333	-1.0562	-0.54792	-0.575	-1.2563	-0.26042	-0.57083	-1.1021	-0.11042	-1.1229	-0.68125	-0.26458	-0.99375	-0.30417	40.698	-42.162	264.083	-10.304	125.869	-52.812	89.480	140.684	156.067	236.032	-40.075	-46.148	251.826	-19.105	-58.603	220.657	5.8647e-05	0.0003031	9.6877e-05	966	2.4617e-06	1.5889e-06	1060.2	199.48	2.2372e-06	2.5353e-06	257.91	73.599	56.888	17.449	3.8927e-06	24.979	8.2851e-05	7.2183e-05	2.144e-05	940.58	8.6315e-07	7.9913e-07	1034.7	195.88	8.4669e-07	7.75e-07	251.49	73.551	56.516	17.322	8.274e-07	24.658	198.832	2.964	-21.946	-75.051	93.432	108.139	-74.728	-67.257	59.331	65.579	-67.707	-60.416	-60.092	-53.625	55.446	-54.247	-8191	255	
20661.535	1	1	0	0	0.23672	0.26838	0.12862	0.040859	0.25603	0.028484	0.32165	0.19863	0.089638	0.22062	0.16813	0.1467	0.063708	0.098004	0.2813	0.055764	-0.12917	-1.0208	-0.058333	-0.92708	-0.70833	-0.25625	-1.35	-0.49167	-0.57292	-0.99167	-0.3	-0.84375	-0.79167	-0.32917	-1.2083	-0.44792	207.175	-63.419	214.450	221.315	157.186	258.734	217.598	155.359	253.657	220.865	147.582	200.039	178.687	34.477	268.699	-79.900	7.0243e-05	0.00014327	5.8752e-05	965.47	2.8085e-06	2.1837e-06	1060.5	198.97	7.1655e-07	1.6574e-06	256.43	74.019	56.633	17.573	3.3717e-06	24.888	8.041e-05	7.1558e-05	2.0526e-05	941.29	9.1309e-07	8.4721e-07	1034.8	195.72	8.5704e-07	7.7736e-07	250.54	73.439	56.277	17.34	8.3291e-07	24.654	229.738	29.101	25.606	-75.076	75.854	66.121	-74.924	-67.228	91.653	95.957	-67.894	-60.722	-60.656	-53.607	77.607	-53.978	-8191	255	
20661.631	1	1	0	0	0.11916	0.26138	0.31174	0.29959	0.23527	0.36759	0.08407	0.103	0.12827	0.044854	0.27386	0.089661	0.16378	0.056945	0.17147	0.16697	0.054167	-0.91875	-0.27083	-0.78542	-0.81667	-0.11875	-1.1604	-0.50625	-0.36042	-1.1375	-0.275	-0.84792	-0.89375	0.0125	-1.0771	-0.76875	78.287	-1.046	16.354	262.206	41.482	162.610	-7.410	236.863	23.963	-62.919	198.783	40.410	4.191	12.078	168.341	-51.003	5.1687e-05	0.00026293	8.1811e-05	967.71	7.7542e-07	8.7313e-07	1066.7	199.64	6.4419e-07	2.3512e-06	257.38	73.616	56.59	17.325	2.8173e-06	24.892	8.3388e-05	7.1937e-05	2.1093e-05	939.64	8.449e-07	8.3692e-07	1038.5	195.78	8.6523e-07	8.0319e-07	251.4	73.503	56.41	17.259	8.2043e-07	24.542	208.714	6.463	38.652	-74.830	12.537	7.056	-74.679	-67.421	132.577	101.546	-67.849	-60.778	-60.107	-52.888	91.937	-54.084	-8191	255	
20661.752	1	1	0	0	0.32907	0.24582	0.052536	0.25194	0.12889	0.11463	0.17572	0.24155	0.062591	0.068544	0.27296	0.33211	0.19237	0.23776	0.23942	0.22719	0.09375	-1.1125	-0.27917	-0.77708	-0.96042	-0.25	-1.375	-0.67708	-0.27708	-1.175	-0.28958	-0.63542	-1.0479	-0.08125	-0.87917	-0.8125	255.832	40.834	-7.152	2.027	163.208	210.185	90.658	100.362	260.083	73.316	-55.793	257.495	265.176	61.946	-9.080	-42.584	4.3094e-05	9.6778e-05	5.3049e-05	967.54	5.2375e-07	3.4692e-06	1061.6	198.5	1.2411e-06	2.9156e-06	256.51	73.755	57.043	17.443	2.0122e-06	24.918	8.3713e-05	7.4944e-05	2.1976e-05	941.45	8.5495e-07	8.2468e-07	1036.5	195.34	9.1181e-07	8.2738e-07	251.05	73.742	56.465	17.344	8.193e-07	24.673	213.344	-52.079	-42.094	-74.994	79.221	69.800	-74.722	-67.249	47.523	32.566	-67.710	-61.155	-60.552	-53.504	83.659	-54.251	-8191	255	
20661.848	1	1	0	0	0.24144	0.36648	0.09651	0.2603	0.15538	0.14904	0.35791	0.25441	0.11924	0.14561	0.1494	0.26014	0.15779	0.34233	0.28453	0.29637	0.035417	-1.0771	-0.31875	-0.70833	-0.8875	-0.029167	-0.9375	-0.92917	-0.21667	-1.1625	-0.50833	-0.48542	-1.2188	-0.25833	-0.87292	-0.83542	254.730	3.371	40.289	-71.755	91.547	50.755	217.884	210.085	47.289	239.237	173.008	267.169	-49.903	-52.925	112.161	196.133	3.6528e-05	0.00016573	5.8971e-05	966.98	2.354e-06	2.864e-06	1064.1	199.84	1.706e-06	2.3727e-06	258.18	73.785	56.558	17.426	9.5178e-07	24.814	8.4762e-05	7.6715e-05	2.0515e-05	940.99	8.7899e-07	8.4402e-07	1037.3	195.83	8.5937e-07	7.7003e-07	251.56	73.447	56.158	17.294	8.372e-07	24.559	231.104	-12.171	-18.324	-75.281	48.381	86.070	-74.909	-67.557	99.903	46.439	-68.119	-61.393	-60.571	-53.640	91.050	-54.043	-8191	255	
20661.943	1	1	0	0	0.124	0.22325	0.30408	0.20585	0.17227	0.26243	0.076418	0.2307	0.35196	0.24841	0.022045	0.17931	0.29093	0.093508	0.15708	0.13925	0.22292	-0.98333	-0.60417	-0.41458	-1.0187	-0.27917	-0.94167	-0.78958	-0.095833	-1.0063	-0.72708	-0.26458	-1.1271	-0.36667	-0.58125	-1.0146	206.909	263.576	-58.306	180.238	65.435	138.297	144.415	184.079	142.375	-60.159	-25.700	237.726	-18.861	26.733	268.446	213.772	5.3818e-05	0.00017658	6.669e-05	964.13	1.4647e-06	2.1255e-06	1057.1	199.47	8.6126e-07	2.6185e-06	256.93	73.637	56.467	17.406	6.3414e-07	24.955	8.4762e-05	7.2012e-05	2.167e-05	942.12	8.6388e-07	8.2076e-07	1035.9	195.5	8.7881e-07	7.9545e-07	250.67	73.53	56.37	17.324	7.9191e-07	24.622	226.882	-2.830	-22.302	-75.096	16.367	84.470	-75.012	-67.662	0.770	55.003	-68.118	-60.856	-60.475	-53.319	97.152	-54.339	-8191	255	
20662.039	1	1	0	0	0.14923	0.11895	0.06871	0.18968	0.25324	0.28069	0.33571	0.41108	0.2078	0.27947	0.10218	0.19393	0.22799	0.26596	0.073546	0.19083	0.18958	-0.90208	-0.56875	-0.36667	-0.99792	-0.40833	-0.7125	-0.99167	-0.29375	-1.0354	-0.78125	-0.39375	-1.2021	-0.45	-0.52917	-1.15	228.614	238.688	46.179	265.500	-2.744	211.898	217.885	245.681	-51.672	-51.690	-49.515	-69.444	250.726	136.823	232.627	198.614	6.7336e-05	0.00016609	7.0692e-05	964.96	1.6404e-06	2.7698e-06	1064.6	199.07	8.2371e-07	1.6106e-06	256.87	73.187	56.752	17.432	1.5609e-06	24.641	8.4636e-05	7.3463e-05	2.0896e-05	940.43	8.2866e-07	8.0779e-07	1038.3	195.7	8.7929e-07	8.0506e-07	250.77	73.467	56.419	17.304	8.3558e-07	24.65	234.855	27.929	85.731	-75.407	86.090	35.535	-74.813	-67.325	119.785	71.694	-68.100	-61.071	-60.492	-53.599	62.738	-54.075	-8191	255	
20662.137	1	1	0	0	0.1766	0.15665	0.089868	0.025855	0.13156	0.10359	0.27442	0.20376	0.080517	0.071008	0.069465	0.13147	0.43718	0.079322	0.21575	0.071846	0.19375	-0.91875	-0.69375	-0.47292	-1.0229	-0.48125	-0.37708	-1.0312	-0.00625	-0.81458	-0.89375	-0.26875	-1.075	-0.48125	-0.25417	-1.2229	79.103	136.200	-21.377	133.227	170.016	53.074	230.662	257.029	-72.253	138.598	146.510	91.938	169.389	64.412	47.881	-20.410	4.5666e-05	0.00020548	4.3174e-05	967.83	1.2968e-06	2.309e-06	1066.2	199.38	3.2127e-06	3.333e-06	257.95	73.91	56.887	17.47	1.3814e-06	24.608	8.5425e-05	7.4914e-05	2.0462e-05	941.4	8.6605e-07	7.922e-07	1037.4	195.62	8.7969e-07	8.0547e-07	251.38	73.568	56.489	17.317	8.7472e-07	24.561	206.366	4.730	-34.884	-75.165	67.671	47.450	-74.931	-67.387	86.422	71.472	-67.954	-61.192	-60.573	-53.337	135.731	-53.739	-8191	255	
20662.232	1	1	0	0	0.18421	0.07617	0.077575	0.38012	0.12276	0.12663	0.30753	0.072622	0.2814	0.14458	0.10899	0.25049	0.37512	0.074761	0.21094	0.15583	0.20208	-0.73958	-0.79792	-0.325	-1.0063	-0.66458	-0.40208	-1.1521	-0.40208	-0.64167	-0.925	-0.30417	-1.0854	-0.7	-0.41875	-0.975	-39.517	49.283	0.093	251.463	19.081	132.675	171.419	212.940	85.304	11.679	43.170	236.449	237.886	-82.796	121.156	-46.129	4.6072e-05	0.00029103	5.8225e-05	969.78	3.273e-06	2.4141e-06	1063.3	199.53	2.1182e-06	1.3136e-06	256.23	73.879	56.78	17.431	1.8112e-06	24.737	8.5272e-05	7.67e-05	2.1428e-05	942.73	8.8695e-07	8.286e-07	1036.6	196.04	8.8812e-07	8.5524e-07	251.05	73.645	56.459	17.31	8.5794e-07	24.641	227.279	36.417	-14.343	-75.124	77.899	33.640	-75.044	-67.559	81.897	11.529	-67.813	-60.917	-60.317	-53.795	33.223	-54.289	-8191	255	
20662.328	1	1	0	0	0.1386	0.04861	0.17405	0.23161	0.11397	0.14874	0.17604	0.050303	0.062301	0.15636	0.14355	0.17684	0.05464	0.15164	0.108	0.10794	0.091667	-0.53333	-0.93333	-0.26458	-1.0312	-0.70208	-0.37292	-0.92708	-0.45	-0.70208	-0.95625	-0.35208	-0.81667	-0.86042	-0.24167	-1.1708	39.354	102.506	216.020	-21.341	-15.619	-46.985	207.728	263.932	-77.365	97.537	-16.197	175.457	216.445	-36.902	223.514	-58.617	5.4295e-05	0.00023866	7.2735e-05	969.93	1.1706e-06	2.2476e-06	1062.5	199.34	1.8276e-07	5.1175e-06	258.27	73.984	56.613	17.446	1.9564e-06	24.723	8.8238e-05	8.0287e-05	2.127e-05	942.08	9.3656e-07	8.348e-07	1038.5	196.03	9.139e-07	8.5427e-07	251.69	73.68	56.361	17.326	8.9011e-07	24.535	244.428	-1.482	-38.522	-75.396	97.139	85.797	-74.756	-67.519	82.625	81.033	-67.641	-61.078	-60.354	-53.129	42.523	-53.897	-8191	255	
20662.424	1	1	0	0	0.20949	0.11812	0.22807	0.020828	0.21797	0.20265	0.10929	0.05596	0.20827	0.19173	0.31489	0.25087	0.19813	0.29776	0.078728	0.34842	0.05625	-0.34583	-0.975	-0.11458	-0.63958	-0.91875	-0.30417	-1.0938	-0.5375	-0.37292	-1.3042	-0.34375	-0.70417	-0.9375	-0.10625	-1.1083	-41.275	-78.400	14.047	32.252	-39.168	242.249	234.423	-8.780	194.086	225.945	-5.863	245.418	270.220	247.913	193.624	-24.544	5.0899e-05	0.00021196	0.00010003	967.94	1.7252e-06	3.0895e-06	1066.5	199.54	1.1622e-06	2.5987e-06	257.57	73.908	56.929	17.324	1.7727e-06	24.948	9.0314e-05	7.705e-05	2.1308e-05	942.1	9.1397e-07	8.4998e-07	1037.1	195.98	8.9334e-07	8.4245e-07	251.21	73.593	56.515	17.303	8.8954e-07	24.604	239.391	9.237	-1.635	-75.210	84.634	70.066	-74.847	-67.483	46.619	36.108	-67.789	-60.879	-60.767	-53.543	69.602	-53.687	-8191	255	
20662.545	1	1	0	0	0.37988	0.31171	0.24799	0.45209	0.33094	0.35831	0.14672	0.32273	0.27609	0.20177	0.18777	0.13637	0.12278	0.10985	0.35151	0.21363	-0.25833	-0.375	-1.0312	-0.40208	-0.68542	-0.96458	-0.31458	-0.89167	-0.50208	-0.31458	-1.1208	-0.19375	-0.72708	-1.1646	-0.1375	-0.85	198.959	261.121	29.096	249.748	212.472	29.148	160.234	-44.663	35.528	-70.492	165.683	183.415	244.818	-12.302	245.844	246.435	7.6376e-05	0.00023356	6.1936e-05	969.72	1.637e-06	2.7712e-06	1068.1	200.48	4.9711e-07	3.0306e-06	256.73	73.72	56.946	17.475	2.3341e-06	24.838	8.7342e-05	7.9535e-05	2.1335e-05	942.52	9.2121e-07	8.446e-07	1040.5	196.14	9.2763e-07	9.038e-07	250.9	73.562	56.432	17.337	8.8517e-07	24.655	229.653	-10.534	-33.807	-75.033	87.526	22.252	-74.946	-67.342	187.436	72.339	-67.874	-61.018	-60.392	-53.237	83.518	-53.959	-8191	255	
20662.615	1	1	0	0	0.14534	0.21201	0.19654	0.10297	0.17804	0.18476	0.17876	0.07419	0.10323	0.13227	0.15965	0.16648	0.39433	0.11391	0.10603	0.30577	-0.45625	-0.28958	-1.0187	-0.33542	-0.43542	-1.0812	-0.27917	-0.83958	-0.78333	-0.23125	-1.1167	-0.47917	-0.50833	-1.1375	-0.18542	-0.78958	-28.190	69.611	210.000	-79.841	258.139	-43.938	179.294	245.168	-15.483	156.572	258.288	269.844	-53.958	45.207	-76.189	198.338	4.9973e-05	0.00022272	3.2916e-05	972.63	2.7165e-06	3.8898e-06	1066	199.46	1.2172e-06	2.7609e-06	256.54	74.053	57.188	17.513	3.3139e-06	24.876	8.5093e-05	8.1522e-05	2.216e-05	944.66	9.1244e-07	8.7618e-07	1039.2	196.2	9.1912e-07	8.9932e-07	251.3	73.755	56.534	17.378	9.1652e-07	24.68	235.280	13.571	54.907	-75.121	115.489	87.866	-74.838	-67.267	74.392	70.372	-67.637	-60.876	-60.241	-53.348	74.554	-54.033	-8191	255	
20662.713	1	1	0	0	0.063876	0.28478	0.22344	0.13582	0.16872	0.14526	0.35927	0.077235	0.17757	0.20592	0.11196	0.20533	0.14456	0.22557	0.093796	0.066943	-0.36458	-0.16875	-0.93542	-0.62917	-0.55833	-1.0187	-0.48333	-0.75417	-1.0812	-0.0625	-1.3104	-0.6875	-0.2375	-1.2375	-0.32083	-0.45208	78.628	171.090	223.488	-31.717	-13.738	-79.579	152.681	200.566	206.713	270.433	184.858	-1.278	123.379	145.448	130.019	104.562	3.6551e-05	0.00020988	0.00011072	972.69	3.5697e-07	4.0636e-06	1065.4	200.63	1.4675e-06	3.1596e-06	257.46	73.849	56.868	17.466	3.2651e-06	24.639	9.0586e-05	8.3769e-05	2.1496e-05	944.27	9.5305e-07	8.8565e-07	1038.4	196.24	9.1309e-07	8.7545e-07	251.93	73.628	56.469	17.286	9.0413e-07	24.557	230.505	-29.966	-18.516	-75.117	-30.612	55.327	-75.051	-67.151	60.758	109.222	-67.991	-60.736	-60.301	-53.178	38.129	-54.388	-8191	255	
20662.832	1	1	0	0	0.1587	0.15711	0.041645	0.2724	0.087411	0.17185	0.0090653	0.062319	0.013822	0.068651	0.38716	0.1924	0.13385	0.1482	0.35181	0.23707	-0.28125	-0.1625	-0.67083	-0.71458	-0.12708	-1.1771	-0.39167	-0.48125	-1.0146	-0.23333	-1.0083	-0.84792	-0.175	-1.0667	-0.38542	-0.50833	-72.754	-11.009	152.219	256.686	67.218	43.407	109.275	78.722	-80.260	122.059	22.125	72.147	-31.112	29.269	163.012	9.087	5.4896e-05	0.00028067	0.00010264	968.29	3.3896e-07	2.2547e-06	1061.8	199.51	1.3279e-06	2.5875e-06	257.6	73.747	56.726	17.375	1.1275e-06	24.962	8.6685e-05	8.4499e-05	2.1223e-05	943.04	9.68e-07	8.9169e-07	1037.7	196.32	8.98e-07	8.8905e-07	252.08	73.407	56.386	17.333	9.149e-07	24.693	221.611	5.075	-24.329	-75.094	109.084	69.145	-74.863	-67.269	75.298	55.857	-67.714	-60.675	-60.622	-53.858	61.648	-54.014	-8191	255	
20662.928	1	1	0	0	0.11692	0.19867	0.22583	0.099445	0.1732	0.031195	0.19607	0.12424	0.13954	0.16862	0.25328	0.061872	0.26103	0.18876	0.22028	0.41444	-0.69375	-0.095833	-0.75208	-0.79583	-0.36042	-1.0542	-0.55208	-0.45833	-1.0688	-0.24375	-0.83125	-1.0042	-0.089583	-0.95208	-0.38958	-0.50833	35.558	194.896	186.377	-74.416	45.992	140.311	170.849	248.034	176.934	246.887	176.622	258.337	270.830	-43.747	73.869	124.128	3.2054e-05	0.00043464	7.3079e-05	970.87	1.0403e-06	4.0459e-06	1062.3	199.15	1.619e-06	2.2614e-06	258.36	74.201	57.113	17.523	2.0225e-06	24.946	8.6672e-05	8.0063e-05	2.3213e-05	943.18	9.2893e-07	8.7994e-07	1038.1	196.49	8.9679e-07	9.0412e-07	251.82	73.763	56.631	17.367	8.6589e-07	24.697	200.776	22.704	-13.531	-75.033	37.564	78.085	-75.165	-67.015	129.012	106.765	-67.977	-60.860	-60.301	-53.388	54.535	-53.922	-8191	255	
20663.025	1	1	0	0	0.11691	0.099055	0.19215	0.33459	0.097016	0.27826	0.24258	0.26599	0.057113	0.33435	0.35065	0.51744	0.24193	0.24415	0.20413	0.17966	-0.6125	-0.225	-0.775	-0.93333	-0.24167	-0.97708	-0.8125	-0.36458	-1.1979	-0.475	-0.60417	-1.0438	-0.11667	-1.0958	-0.6	-0.37917	-71.996	53.624	258.081	-81.052	141.734	38.642	-22.311	243.512	245.711	269.167	223.099	239.353	46.964	251.924	35.799	257.576	6.3985e-05	0.00029552	4.3632e-05	968.92	1.3125e-06	3.7311e-06	1058.9	200.04	2.2147e-06	4.5241e-06	256.21	73.809	57.036	17.338	5.2331e-07	24.938	8.782e-05	8.0413e-05	2.2466e-05	944.25	9.676e-07	8.8296e-07	1038	196.34	9.2875e-07	9.1863e-07	250.9	73.403	56.58	17.296	9.6708e-07	24.709	222.387	24.725	42.182	-75.136	33.424	52.696	-74.807	-67.226	81.681	85.962	-67.593	-60.688	-60.495	-53.338	66.748	-54.093	-8191	255	
20663.121	1	1	0	0	0.033524	0.21618	0.15636	0.22901	0.19391	0.12843	0.19979	0.13951	0.061839	0.079528	0.34753	0.20696	0.12493	0.20814	0.061077	0.0949	-0.76042	-0.18333	-0.28333	-1.0271	-0.17917	-1.1042	-0.96667	-0.13333	-1.1167	-0.44792	-0.54167	-1.2458	-0.42917	-0.80833	-0.82083	-0.20417	272.237	171.116	243.471	7.021	-21.790	-26.365	200.985	-47.340	273.971	-12.628	230.643	222.474	79.667	-7.571	270.809	223.612	4.8218e-05	0.00029655	4.3019e-05	974.03	7.8352e-07	5.5784e-07	1066.4	199.26	4.3354e-07	1.0297e-06	258.13	73.617	56.642	17.348	2.2705e-06	24.777	8.7906e-05	8.7021e-05	2.3587e-05	945.64	1.0033e-06	9.1838e-07	1040.6	195.87	9.5461e-07	9.3459e-07	252.07	73.789	56.416	17.334	9.0615e-07	24.639	231.320	45.311	76.035	-75.058	125.928	149.156	-74.882	-67.169	208.452	67.379	-67.630	-60.928	-60.598	-53.094	48.913	-53.848	-8191	255	
20663.240	1	1	0	0	0.23417	0.30622	0.088655	0.11415	0.1724	0.07019	0.10096	0.16966	0.088555	0.23918	0.25161	0.23131	0.20096	0.17852	0.2027	0.52209	-0.70208	-0.6375	-0.42083	-1.1875	-0.32083	-0.88333	-0.8625	-0.17292	-1.0771	-0.37083	-0.32917	-1.0583	-0.095833	-0.62708	-0.88125	-0.31667	99.069	-63.501	-62.975	231.507	104.674	23.540	222.475	229.965	238.120	140.352	268.881	-63.711	-71.281	186.010	59.921	43.394	5.7431e-05	0.00012248	5.0307e-05	971.25	2.1117e-06	3.9289e-06	1066.3	199.93	1.3845e-06	4.1533e-06	256.75	74.317	56.993	17.407	2.3867e-06	24.867	8.9963e-05	8.528e-05	2.3314e-05	945.55	9.8593e-07	9.0108e-07	1039.7	196.16	9.4843e-07	9.3313e-07	251.58	73.703	56.464	17.315	9.6206e-07	24.676	215.645	-28.014	-41.969	-75.266	102.978	37.283	-75.036	-67.126	69.535	104.461	-67.618	-60.647	-60.335	-52.835	69.461	-54.085	-8191	255	
20663.312	1	1	0	0	0.13507	0.06721	0.074044	0.27597	0.039221	0.20023	0.12986	0.33276	0.057257	0.046431	0.18562	0.28853	0.15393	0.21381	0.26039	0.37138	-0.65625	-0.64792	-0.1875	-1.2229	-0.225	-0.775	-0.98333	-0.25208	-0.94792	-0.6375	-0.085417	-1.0396	-0.30625	-0.49167	-1.0083	-0.2625	208.584	64.033	-30.289	-79.794	-76.235	132.704	238.193	191.855	242.893	-74.926	-5.213	224.760	4.785	257.936	174.695	116.820	5.7927e-05	0.00026005	7.4892e-05	976.24	2.1031e-06	4.3187e-06	1072.6	199.27	1.1529e-06	2.8271e-06	256.33	74.275	56.777	17.591	2.7881e-06	24.745	9.4626e-05	8.4729e-05	2.4123e-05	946.51	1.0064e-06	9.3348e-07	1042.8	196.27	9.367e-07	9.2596e-07	251.73	73.76	56.548	17.429	8.556e-07	24.66	203.667	8.815	-37.550	-74.881	60.374	74.582	-74.955	-67.299	104.722	67.563	-67.843	-60.937	-60.246	-53.645	87.082	-54.004	-8191	255	
20663.432	1	1	0	0	0.12186	0.089084	0.21001	0.18703	0.27953	0.19515	0.044109	0.17678	0.092709	0.23195	0.34312	0.11356	0.35506	0.2211	0.093126	0.12808	-0.74792	-0.66667	-0.16875	-1.0604	-0.11875	-0.50417	-0.97917	-0.33958	-0.775	-0.76875	-0.18958	-1.1208	-0.30417	-0.25	-0.95417	-0.14583	134.559	191.809	204.114	252.263	20.845	-76.357	218.745	228.126	-11.081	-76.222	227.511	-62.029	207.594	187.493	203.642	183.893	6.3649e-05	0.00026043	9.6715e-05	977.33	1.4068e-06	1.9334e-06	1070	200.19	1.8435e-06	2.4662e-06	258.1	74.335	57.12	17.386	2.0573e-06	24.808	8.6214e-05	8.1552e-05	2.3579e-05	947.84	9.6503e-07	8.943e-07	1041.9	196.58	9.6778e-07	9.0657e-07	252.33	73.932	56.575	17.385	9.0267e-07	24.665	208.371	22.934	10.574	-74.884	137.710	35.480	-74.902	-67.172	53.368	97.904	-67.694	-60.768	-60.392	-53.387	53.148	-53.498	-8191	255	
20663.527	1	1	0	0	0.20799	0.10702	0.19738	0.23657	0.13062	0.16766	0.32278	0.12473	0.052794	0.28311	0.24427	0.31593	0.14151	0.19281	0.037859	0.20584	-0.50833	-0.83333	-0.11667	-1.1896	-0.53542	-0.30417	-1.1021	-0.27917	-0.5875	-1.0312	-0.05	-1.1479	-0.4625	-0.26875	-1.1083	-0.36875	-49.738	188.159	263.433	-68.712	74.910	-32.883	190.786	99.980	6.706	-18.256	220.271	-78.330	-32.366	266.364	-72.842	156.690	4.9528e-05	0.00018313	9.6249e-05	972.39	2.1547e-06	3.6171e-06	1068.3	200.08	6.4113e-07	2.8182e-06	257.67	73.908	56.847	17.485	3.1451e-06	25.031	8.8576e-05	7.8583e-05	2.2512e-05	947.18	9.434e-07	9.0671e-07	1041.1	196.67	9.2313e-07	8.5133e-07	252.46	73.791	56.604	17.377	8.6888e-07	24.724	220.927	-4.449	-43.233	-75.052	94.673	61.115	-74.849	-67.308	87.307	125.976	-67.914	-60.758	-60.180	-53.479	73.849	-54.270	-8191	255	
20663.623	1	1	0	0	0.10752	0.060505	0.17315	0.18179	0.067724	0.12158	0.2967	0.28463	0.32558	0.14963	0.30447	0.24415	0.19827	0.32913	0.40511	0.11872	-0.16875	-0.8875	-0.15	-1.0146	-0.48958	-0.21458	-1.3208	-0.65208	-0.46875	-0.99583	-0.32917	-0.92292	-0.69167	-0.13333	-1.0354	-0.32708	27.075	235.777	-3.377	259.836	257.730	-15.195	257.977	218.683	105.581	87.070	200.085	226.496	213.141	-45.290	-23.408	190.155	4.6718e-05	0.0001887	7.7149e-05	971.3	2.4055e-06	3.1105e-06	1068.9	199.68	1.9431e-06	3.4641e-06	257.92	73.935	56.842	17.475	2.2872e-06	25.066	8.9147e-05	7.8263e-05	2.2958e-05	944.99	1.0069e-06	8.9822e-07	1041.1	196.59	9.4329e-07	8.9753e-07	251.79	73.634	56.521	17.349	8.8809e-07	24.718	222.095	-15.836	12.485	-75.120	107.419	83.293	-74.639	-67.230	83.640	42.778	-68.066	-60.757	-60.587	-53.614	84.623	-53.931	-8191	255	
20663.721	1	1	0	0	0.10379	0.18132	0.4523	0.0909	0.089791	0.058997	0.42828	0.41322	0.20514	0.23393	0.19721	0.30056	0.062988	0.24146	0.047185	0.048481	-0.2375	-1.2	-0.097917	-0.86875	-0.80625	-0.27917	-1.2104	-0.63958	-0.37708	-0.98542	-0.28125	-0.86667	-0.88542	-0.089583	-0.95208	-0.61458	38.809	121.489	178.903	227.785	263.140	62.049	219.454	203.876	78.820	149.857	-72.635	-61.903	242.421	-60.307	252.262	79.259	7.3137e-05	5.369e-05	0.00010042	975.56	1.7852e-06	2.2274e-06	1065.1	200.77	2.1294e-06	9.5498e-07	258.43	73.996	57.022	17.478	1.6286e-06	25.042	9.249e-05	8.1976e-05	2.3896e-05	947.53	9.7564e-07	9.0736e-07	1043.1	196.5	9.8095e-07	8.6437e-07	252.21	73.728	56.589	17.409	8.8144e-07	24.727	191.253	10.553	13.343	-75.245	91.348	123.985	-74.818	-67.454	63.028	64.623	-67.990	-60.622	-60.332	-53.511	27.740	-53.637	-8191	255	
20663.842	1	1	0	0	0.070716	0.16386	0.27019	0.12119	0.082345	0.10603	0.24246	0.18485	0.19841	0.33183	0.016371	0.13975	0.060168	0.41679	0.13677	0.36199	0.077083	-0.81042	-0.19375	-0.95417	-0.80417	-0.19792	-1.0479	-0.71667	-0.27292	-1.0042	-0.28542	-0.53542	-1.1104	-0.1625	-1.0292	-0.53125	58.537	105.721	-10.946	262.900	240.579	137.699	200.648	78.075	-33.040	135.870	55.910	18.727	-49.252	-64.204	223.108	-25.780	4.463e-05	0.00010226	6.594e-05	976.34	1.3244e-06	3.1662e-06	1070.1	200.18	1.2178e-06	2.2559e-06	257.43	73.993	57.245	17.534	1.0227e-06	24.833	9.0719e-05	8.1008e-05	2.3136e-05	948.09	9.6342e-07	8.9928e-07	1042.8	196.44	9.8544e-07	8.4881e-07	251.99	73.69	56.552	17.383	9.2495e-07	24.65	212.050	-15.531	15.463	-75.065	117.139	54.206	-74.573	-67.515	59.963	60.453	-67.873	-60.549	-60.272	-54.062	75.682	-54.160	-8191	255	
20663.912	1	1	0	0	0.24395	0.099579	0.27814	0.35422	0.17318	0.38446	0.09424	0.098877	0.13601	0.10815	0.28515	0.098696	0.41085	0.28275	0.1328	0.092039	0.18333	-1.0896	-0.24375	-0.60417	-1.0646	-0.20417	-1.1479	-0.6875	-0.14792	-1.1917	-0.56875	-0.42292	-1.0562	-0.29792	-0.94792	-0.76042	-77.075	99.616	69.377	273.921	185.236	261.343	84.775	178.712	-80.629	-71.231	166.966	98.216	108.316	243.920	50.280	186.688	4.9173e-05	0.0003738	9.4652e-05	977.02	1.0782e-06	2.926e-06	1068.5	200.13	4.9327e-07	2.7485e-06	258.65	74.024	57.313	17.358	1.3979e-06	25.067	8.6725e-05	8.0674e-05	2.2361e-05	948.08	9.0247e-07	8.8124e-07	1041	196.57	9.261e-07	8.6469e-07	252.99	73.72	56.676	17.337	8.2918e-07	24.776	217.553	3.676	-16.395	-75.109	66.306	85.274	-74.643	-67.176	51.897	103.983	-67.938	-61.076	-60.214	-53.229	96.834	-53.965	-8191	255	
20664.010	1	1	0	0	0.20558	0.26333	0.037182	0.37885	0.17727	0.17375	0.1312	0.10009	0.11253	0.21299	0.12547	0.22591	0.058306	0.14051	0.20918	0.14185	0.16042	-1.0729	-0.54792	-0.44167	-1.0729	-0.027083	-0.8875	-0.92917	-0.10208	-1.1396	-0.66458	-0.47708	-1.0312	-0.16875	-0.67917	-0.95417	108.276	260.974	77.250	241.088	79.616	253.876	41.508	204.287	251.334	239.704	180.625	104.796	4.141	252.802	251.445	140.836	4.1308e-05	0.0003835	9.8378e-05	976.4	2.5035e-06	2.7115e-06	1073.3	199.38	8.7246e-07	3.4946e-06	258.6	73.911	57.285	17.382	2.5243e-06	25.064	8.9558e-05	7.699e-05	2.1761e-05	946.96	9.2145e-07	8.9732e-07	1044.2	196.18	9.363e-07	8.3137e-07	251.97	73.898	56.678	17.35	9.1093e-07	24.727	215.769	13.355	8.166	-75.093	91.850	74.574	-74.861	-67.268	129.263	44.275	-67.721	-60.654	-60.444	-53.300	68.678	-54.182	-8191	255	
20664.105	1	1	0	0	0.28344	0.25412	0.079846	0.15512	0.23001	0.19119	0.24774	0.24875	0.063193	0.18009	0.21136	0.19237	0.22997	0.051234	0.10267	0.23704	0.26667	-0.85417	-0.52917	-0.34792	-1.0896	-0.33958	-0.70208	-1.0167	-0.0875	-1.1417	-0.75208	-0.40625	-1.2146	-0.40625	-0.72708	-1.0042	77.576	168.089	-50.200	-76.199	107.409	165.156	230.815	-53.650	232.285	176.629	209.804	68.222	-10.648	-3.298	121.519	-40.978	7.2479e-05	9.2353e-05	8.0327e-05	973.9	2.0743e-06	2.9519e-06	1073.6	199.51	1.055e-06	7.0384e-07	258.87	73.96	57.549	17.502	2.2469e-06	24.842	8.8742e-05	8.336e-05	2.2212e-05	948.49	9.1904e-07	9.1054e-07	1047	196.46	9.5766e-07	8.5769e-07	251.95	73.763	56.696	17.436	8.671e-07	24.706	237.295	-38.667	-47.184	-75.036	35.236	47.628	-74.621	-67.230	90.129	16.717	-67.481	-60.838	-60.660	-53.314	92.843	-53.932	-8191	255	
20664.225	1	1	0	0	0.050035	0.11169	0.29486	0.12471	0.10172	0.19662	0.37108	0.27299	0.18014	0.15001	0.13773	0.10112	0.22534	0.24986	0.1066	0.087838	0.26458	-0.91875	-0.80417	-0.33542	-1.2292	-0.425	-0.72917	-0.92917	-0.22083	-0.89583	-0.91667	-0.091667	-0.92708	-0.6125	-0.3375	-1.0604	270.579	101.113	-38.440	-64.404	249.576	-11.961	220.624	195.547	7.470	-33.823	210.437	251.169	-54.954	181.432	246.704	104.919	5.292e-05	0.00020515	7.2826e-05	979.26	2.971e-06	2.4989e-06	1071.3	199.64	9.5397e-07	3.5822e-06	258.14	74.045	57.24	17.529	1.3274e-06	24.882	8.8032e-05	8.0822e-05	2.1757e-05	949.39	8.8342e-07	8.5831e-07	1045.5	196.2	9.2353e-07	8.3708e-07	252.31	73.757	56.716	17.414	8.9919e-07	24.689	212.579	-30.563	3.573	-74.771	86.058	82.693	-74.573	-67.093	107.353	62.342	-67.658	-60.311	-60.324	-53.532	37.592	-53.682	-8191	255	
20664.320	1	1	0	0	0.071875	0.24849	0.17459	0.21685	0.18165	0.031543	0.35033	0.25894	0.068375	0.36922	0.14254	0.12157	0.096915	0.15634	0.22602	0.11725	0.12083	-0.66458	-0.73542	-0.24792	-0.96042	-0.46458	-0.35833	-1.1021	-0.33333	-0.73958	-0.96458	-0.23125	-0.90417	-0.64583	-0.27292	-1.2271	242.413	111.734	-26.746	-28.019	62.718	9.699	250.612	220.366	48.076	174.197	257.141	-45.557	-57.815	-74.378	266.197	198.544	3.1722e-05	0.00029863	3.9114e-05	972.55	3.2584e-06	1.0081e-06	1069.5	201.18	1.9147e-06	3.0394e-06	257.99	73.952	57.233	17.557	1.8895e-06	24.781	8.916e-05	7.9133e-05	2.1372e-05	948.07	9.0866e-07	8.6035e-07	1045.2	197.17	9.1301e-07	8.6323e-07	251.71	73.781	57.006	17.406	8.496e-07	24.688	237.143	37.337	-1.902	-74.844	38.398	57.572	-74.772	-66.896	104.364	66.054	-67.664	-60.975	-60.264	-53.739	62.816	-53.905	-8191	255	
20664.416	1	1	0	0	0.14878	0.099081	0.15513	0.3487	0.16991	0.10714	0.12	0.091618	0.11809	0.152	0.26733	0.2254	0.11212	0.28286	0.10663	0.22111	-0.085417	-0.55	-1.1812	-0.36042	-1.2021	-0.55417	-0.51667	-1.2354	-0.46875	-0.73125	-1.1063	-0.33125	-0.88333	-0.66875	-0.23333	-1.2604	84.343	-3.477	260.406	224.616	199.138	192.395	219.677	-60.310	123.451	120.028	246.473	207.778	-17.386	117.424	235.355	25.889	5.4861e-05	0.00027672	4.6041e-05	974.45	2.0447e-06	2.3703e-06	1071.8	200.1	1.0468e-06	1.8913e-06	258.39	74.048	57.084	17.582	2.1678e-06	24.702	8.7535e-05	7.8568e-05	2.0414e-05	947.27	9.1011e-07	8.3774e-07	1044	196.82	8.7487e-07	8.4278e-07	252.42	73.706	56.609	17.406	8.5333e-07	24.621	214.724	15.877	-19.486	-74.949	86.543	31.253	-74.553	-66.872	83.694	63.946	-67.995	-60.728	-60.387	-53.207	34.300	-53.789	-8191	255	
20664.512	1	1	0	0	0.21357	0.13249	0.29471	0.35769	0.37076	0.20533	0.22062	0.20793	0.2566	0.18097	0.2476	0.079756	0.29082	0.064628	0.12885	0.14055	0.15625	-0.42917	-0.92708	-0.35208	-0.77708	-0.89375	-0.2375	-1.1625	-0.44375	-0.40625	-1.0208	-0.26042	-0.71042	-0.79167	-0.13333	-1.1417	34.279	188.326	-52.152	245.334	66.702	79.983	241.196	113.132	-9.808	-67.532	7.153	150.384	-84.717	125.046	233.142	162.931	5.0278e-05	0.00034966	8.3348e-05	969.42	1.3163e-06	2.8423e-06	1070.7	201.04	1.052e-06	3.6707e-06	256.77	74.021	57.083	17.531	2.0255e-06	24.883	8.4556e-05	7.8486e-05	2.0656e-05	946.92	8.835e-07	8.7324e-07	1042.7	196.67	8.9382e-07	8.3072e-07	251.96	73.933	56.718	17.428	8.4838e-07	24.681	226.207	24.083	5.887	-74.961	97.480	42.266	-74.630	-67.113	62.012	50.815	-67.245	-60.641	-60.128	-53.615	76.396	-53.377	-8191	255	
20664.607	1	1	0	0	0.12343	0.2022	0.080469	0.18119	0.3612	0.24099	0.2238	0.29957	0.24508	0.20397	0.31123	0.053425	0.15652	0.28407	0.044263	0.04744	-0.21042	-0.55	-1.0438	-0.29792	-0.81875	-0.725	-0.25208	-1.1396	-0.8	-0.3625	-1.3979	-0.25833	-0.64792	-0.86458	-0.083333	-1.0083	43.063	70.587	118.828	-46.146	-77.659	103.740	172.054	-6.848	101.131	-29.739	236.231	207.536	196.036	272.787	100.081	21.832	6.7625e-05	0.00017062	8.1856e-05	973.76	6.0134e-07	2.6893e-06	1067.3	199.31	9.0901e-07	9.1096e-07	258.09	74.183	57.017	17.462	2.6158e-06	25.135	8.7773e-05	7.9684e-05	2.1064e-05	947.82	9.2531e-07	8.419e-07	1041	196.67	9.1968e-07	8.8156e-07	252.06	73.802	56.645	17.368	8.6483e-07	24.74	226.243	-48.620	0.394	-74.989	98.020	55.747	-74.810	-66.948	15.364	123.153	-67.851	-60.907	-60.197	-53.640	102.905	-53.845	-8191	255	
20664.705	1	1	0	0	0.1939	0.30277	0.19678	0.35834	0.20092	0.19422	0.29167	0.10274	0.12858	0.2002	0.062187	0.028678	0.16617	0.22189	0.13914	0.040137	-0.30833	-0.12708	-1.0438	-0.4375	-0.41667	-0.925	-0.38333	-1.0792	-0.8875	-0.097917	-0.93542	-0.11042	-0.60208	-1.1042	-0.24583	-0.88542	135.437	183.604	-21.125	245.947	201.083	64.461	233.035	-62.195	214.355	-72.399	241.609	251.408	-38.529	211.308	-49.816	56.248	5.4191e-05	0.0002335	7.6334e-05	971.11	1.924e-06	3.6605e-06	1069.9	199.43	1.0037e-06	3.8896e-06	256.89	73.78	57.572	17.491	2.5081e-06	25.162	8.9558e-05	7.9855e-05	2.1171e-05	946.39	9.0963e-07	8.5276e-07	1042.3	196.59	9.0418e-07	8.3952e-07	252.09	73.747	56.823	17.435	9.0299e-07	24.755	235.924	3.735	16.306	-75.138	71.024	39.413	-74.829	-67.108	53.214	66.885	-67.763	-60.962	-60.253	-53.033	128.482	-53.809	-8191	255	
20664.824	1	1	0	0	0.16514	0.22004	0.15881	0.19485	0.2184	0.079133	0.26242	0.059773	0.067038	0.4912	0.12017	0.10573	0.24945	0.19418	0.13984	0.10663	-0.43125	-0.020833	-1.0562	-0.68333	-0.43333	-1.2896	-0.12708	-0.78958	-0.87292	-0.14375	-1.3125	-0.2625	-0.34792	-1.1146	-0.12708	-0.82917	195.368	119.147	209.641	78.947	158.095	59.079	268.890	110.928	264.304	-51.335	-62.561	165.844	-52.295	202.367	-30.802	36.332	6.9673e-05	0.00016434	9.7927e-05	973.88	2.0216e-06	1.0117e-06	1069	200.44	1.0293e-06	3.3157e-06	257.81	73.701	57.39	17.529	4.0109e-06	24.922	8.502e-05	7.6841e-05	2.0255e-05	947.66	8.6508e-07	7.9864e-07	1041.8	196.9	8.344e-07	8.1875e-07	251.98	73.721	56.696	17.349	8.4766e-07	24.714	232.308	1.159	5.434	-75.093	81.023	75.778	-74.661	-67.042	60.219	95.852	-67.596	-60.634	-60.074	-53.403	80.903	-54.029	-8191	255	
20664.920	1	1	0	0	0.16549	0.16749	0.25258	0.2101	0.093132	0.15929	0.13659	0.21723	0.17627	0.11342	0.24413	0.21446	0.35534	0.28978	0.25813	0.24576	-0.45	-0.20208	-0.96875	-0.73958	-0.24792	-1.0333	-0.47083	-0.62292	-1.0271	-0.16458	-0.85625	-0.775	-0.47292	-0.925	-0.085417	-0.53125	77.832	52.750	71.520	188.609	257.361	1.211	145.888	113.816	110.369	-37.690	179.135	-80.745	107.751	62.821	177.522	265.254	6.6258e-05	0.00027332	9.7934e-05	976.99	2.3162e-06	2.2731e-06	1067.5	200.54	2.8413e-07	3.3057e-06	256.95	74.082	56.71	17.591	1.3629e-06	25.16	8.3621e-05	7.4795e-05	2.0257e-05	947.66	8.8752e-07	7.8363e-07	1041.3	196.74	8.7431e-07	8.2966e-07	252.07	73.891	56.409	17.417	8.355e-07	24.789	212.546	22.218	16.853	-75.016	84.268	14.656	-74.772	-67.122	102.593	89.950	-67.984	-60.860	-59.822	-53.480	58.188	-54.007	-8191	255	
20665.016	1	1	0	0	0.18605	0.45567	0.31862	0.25395	0.044959	0.1113	0.24087	0.05354	0.11229	0.087638	0.18341	0.23189	0.15691	0.31102	0.12419	0.07756	-0.65417	-0.097917	-0.73958	-0.91042	-0.0625	-1.0812	-0.73958	-0.51458	-1.1187	-0.28958	-0.79792	-0.91667	-0.022917	-1.1	-0.3625	-0.50833	-66.664	-7.499	-7.654	150.752	-40.963	210.376	243.726	-83.909	180.639	239.133	253.441	33.994	-47.231	167.678	31.750	126.117	6.237e-05	0.00013346	6.602e-05	975.24	1.1071e-06	2.3272e-06	1067.5	200.04	9.0495e-07	1.2509e-06	256.05	73.894	57.237	17.559	1.8552e-06	24.81	8.3886e-05	7.5308e-05	2.0755e-05	945.9	8.6147e-07	7.7612e-07	1041.6	196.32	8.1673e-07	8.3089e-07	252.1	73.737	56.637	17.436	8.3105e-07	24.727	228.837	43.273	22.826	-74.951	60.047	84.734	-74.824	-67.154	45.342	56.262	-67.513	-61.148	-60.393	-52.759	85.189	-53.665	-8191	255	
20665.111	1	1	0	0	0.053142	0.10646	0.25104	0.078514	0.037978	0.14749	0.020318	0.10526	0.1151	0.24482	0.14032	0.23369	0.25897	0.082283	0.14086	0.16786	-0.59167	-0.072917	-0.75208	-1.0729	-0.21875	-1.0021	-0.56042	-0.44167	-1.1583	-0.3	-0.7875	-0.96042	-0.225	-1.0167	-0.51875	-0.30208	55.371	74.674	-17.186	176.842	-32.623	70.746	146.767	241.229	147.100	-6.768	-1.585	272.896	216.608	-53.309	262.304	-78.180	6.6588e-05	0.00024292	0.00011484	975.79	2.9379e-06	3.4929e-06	1064.7	200.67	1.0892e-06	2.1275e-06	258.92	73.903	56.885	17.513	1.9112e-06	25.123	8.2413e-05	7.923e-05	2.0915e-05	947.41	8.9717e-07	7.966e-07	1040.3	196.6	8.7704e-07	8.471e-07	252.37	73.719	56.548	17.396	8.2602e-07	24.763	227.480	32.911	20.855	-74.936	83.851	64.205	-74.817	-67.140	115.078	64.257	-67.430	-60.639	-60.175	-53.112	40.197	-53.379	-8191	255	
20665.207	1	1	0	0	0.21347	0.14174	0.13933	0.089891	0.18323	0.2301	0.24247	0.04727	0.35155	0.17193	0.03185	0.043781	0.20536	0.17175	0.10931	0.25214	-0.63958	-0.30208	-0.66875	-1.025	-0.22917	-1.0042	-0.84375	-0.37083	-0.75833	-0.39583	-0.46875	-1.0312	-0.31042	-0.81667	-0.74167	-0.21042	224.662	190.511	200.865	-1.381	94.836	-68.811	244.272	193.292	11.116	-56.238	86.178	88.406	251.619	261.895	231.462	8.715	6.6459e-05	0.00042372	7.1729e-05	970.98	1.7253e-06	2.2298e-06	1069.8	199.48	1.2026e-06	1.5254e-06	256.75	73.849	56.925	17.525	8.0406e-07	25.088	8.2626e-05	7.4802e-05	1.9965e-05	946.37	8.7296e-07	7.8461e-07	1042.5	196.34	7.9698e-07	8.4685e-07	251.57	73.716	56.644	17.433	8.0966e-07	24.771	245.372	7.206	0.303	-74.890	65.157	94.001	-74.790	-66.890	48.763	73.486	-67.602	-60.719	-60.329	-52.876	15.698	-53.485	-8191	255	
20665.305	1	1	0	0	0.070718	0.082855	0.18263	0.34367	0.041966	0.080417	0.3184	0.11047	0.1964	0.1084	0.15819	0.3484	0.46452	0.12813	0.15217	0.10044	-0.53333	-0.33333	-0.48333	-1.2646	-0.13333	-0.83958	-0.8625	0.027083	-1.0604	-0.6	-0.45208	-1.0417	-0.21667	-0.65625	-0.69167	-0.00625	209.558	-79.632	-71.593	-72.285	-44.470	-4.763	-83.183	-74.938	22.186	141.882	167.424	122.025	-58.891	-29.148	193.876	-70.178	5.1634e-05	0.00020701	5.721e-05	974.67	2.1569e-06	3.7301e-06	1069.8	199.39	5.1041e-07	4.1105e-06	257.21	73.808	56.922	17.484	2.78e-06	24.933	7.7604e-05	7.0546e-05	2.0296e-05	945.96	8.4498e-07	7.8044e-07	1041.3	196.43	8.0581e-07	7.7842e-07	251.9	73.667	56.576	17.349	8.0374e-07	24.752	228.331	-4.765	-21.860	-75.014	99.869	71.759	-74.712	-67.062	19.428	53.577	-67.368	-60.597	-60.173	-53.348	36.321	-53.528	-8191	255	
20665.426	1	1	0	0	0.066961	0.16698	0.1698	0.43989	0.091646	0.12377	0.10143	0.10324	0.16596	0.17837	0.25536	0.08113	0.15104	0.2529	0.064708	0.30977	-0.61667	-0.53333	-0.29375	-1.1021	-0.17917	-0.60625	-0.96667	-0.027083	-0.88333	-0.61875	-0.13542	-1.0958	-0.25	-0.54583	-0.80625	-0.16042	206.387	214.693	82.609	230.171	265.517	2.930	160.829	241.012	-66.744	123.274	-60.207	119.592	154.779	16.920	-35.471	134.523	6.0768e-05	9.3461e-05	7.9817e-05	971.34	3.3779e-07	2.0167e-06	1067.5	198.41	2.5311e-06	1.8741e-06	257.52	74.365	56.835	17.554	3.005e-06	24.835	8.2679e-05	7.4393e-05	2.0925e-05	946.38	8.5656e-07	7.6771e-07	1041.7	196.15	8.2533e-07	8.2225e-07	251.7	73.797	56.445	17.407	7.9483e-07	24.62	228.225	13.075	15.349	-75.133	36.708	61.730	-75.092	-67.555	86.138	18.242	-67.516	-60.929	-60.689	-53.414	102.810	-54.286	-8191	255	
20665.521	1	1	0	0	0.37289	0.094055	0.20692	0.2204	0.14519	0.19112	0.169	0.040825	0.17287	0.18001	0.21573	0.30023	0.10257	0.28224	0.29791	0.07884	-0.57917	-0.65625	-0.25208	-1.1708	-0.52917	-0.58125	-1.0854	-0.22083	-0.72292	-0.825	-0.16667	-1.0333	-0.35	-0.47917	-0.98125	-0.2875	172.319	189.755	34.210	83.096	-32.826	54.743	214.102	-84.963	-12.148	-55.683	108.221	-37.320	187.213	-74.431	-26.411	106.876	6.3541e-05	0.00022162	4.8321e-05	976.21	1.9776e-06	2.5873e-06	1067.2	199.63	8.9342e-07	3.4954e-06	256.26	74.13	56.792	17.566	3.7526e-06	24.851	8.1969e-05	7.6097e-05	2.0954e-05	946.33	8.8253e-07	8.188e-07	1041.5	196.26	8.6973e-07	8.2673e-07	252.1	73.682	56.536	17.35	8.4976e-07	24.682	235.044	-25.116	53.505	-75.266	105.789	92.324	-74.930	-67.528	54.068	67.759	-67.715	-60.770	-60.604	-53.058	77.005	-54.291	-8191	255	
20665.617	1	1	0	0	0.14181	0.21161	0.28019	0.15807	0.2381	0.25897	0.087632	0.0314	0.23805	0.079418	0.46429	0.034007	0.16072	0.1187	0.095516	0.26081	-0.42292	-0.85	-0.016667	-0.95208	-0.5875	-0.35625	-1.0667	-0.2	-0.66042	-0.66042	-0.26042	-1.0604	-0.32292	-0.36667	-1.2	-0.12083	219.375	22.409	159.357	-58.041	-14.052	-73.184	-15.759	230.272	151.200	223.002	193.144	139.718	-70.987	-29.039	-54.427	24.441	9.0814e-05	0.00018293	3.6667e-05	973.51	4.0791e-07	3.4942e-06	1069.5	198.96	8.1179e-07	9.0057e-07	256.57	74.77	57.204	17.583	1.7098e-06	24.808	8.6407e-05	7.7727e-05	2.2092e-05	947.08	8.9242e-07	8.2754e-07	1042.3	196.35	8.8178e-07	8.6966e-07	251.41	73.971	56.546	17.417	8.7634e-07	24.674	211.873	-9.413	-33.781	-75.203	41.399	27.794	-74.826	-67.360	47.730	96.256	-67.852	-60.785	-60.572	-53.496	65.746	-54.614	-8191	255	
20665.713	1	1	0	0	0.050165	0.21406	0.22462	0.095612	0.15992	0.21481	0.079685	0.13958	0.10872	0.28421	0.065874	0.29788	0.089166	0.16294	0.049231	0.21595	-0.41875	-0.89375	-0.039583	-1.1833	-0.64792	-0.16875	-1.2333	-0.27708	-0.47708	-0.93958	-0.20417	-0.85417	-0.74375	-0.29792	-1.0896	-0.34167	-35.283	192.966	168.550	128.469	165.993	45.822	200.198	228.736	186.132	181.566	165.098	-47.315	52.616	269.746	76.809	215.398	6.0531e-05	0.00032362	8.0726e-05	975.05	6.2471e-07	1.2086e-06	1070.4	199.86	1.2724e-06	1.4577e-06	255.51	74.093	57.21	17.495	2.1073e-06	24.903	8.7727e-05	7.7184e-05	2.2249e-05	947.4	8.8905e-07	8.6394e-07	1040.6	196.42	8.9222e-07	8.2893e-07	251.54	73.76	56.564	17.381	8.0804e-07	24.601	216.793	16.655	1.322	-75.133	111.217	70.652	-74.919	-67.217	70.885	69.448	-67.739	-60.790	-60.907	-53.461	92.965	-53.720	-8191	255	
#DATA ENDS
