BOXY.EXE: ISS Imagent and Oximeter Data Acquisition Program Version 0.80
Ascii Record File

#ACQ INFORMATION
2  Detector Channels 
16  External MUX Channels 
1  Auxiliary Channels 
5000  Waveform (CCF) Frequency (Hz)
1  Waveforms Skipped 
30  Waveforms Averaged 
1  Cycles Averaged 
16  Acquisitions per Waveform 
10.0806  Updata Rate (Hz) 

#FILE INFORMATION
TRUE -- External MUX Channel results are PARSED.
FALSE -- AC DC and Phase are NOT grouped.
TRUE -- Companion Program Settings File CREATED.
FALSE -- AC data not excluded
FALSE -- DC data not excluded
FALSE -- Phase data not excluded
FALSE -- Auxillary Chn. data not excluded
Tab delimiters

#CALIBRATION STATE
TRUE -- Waveform Calibration Values APPLIED.


#AUX CALIBRATION VALUES
Val Type	aux-1	

Term	1.0000e+00	
Factor	0.0000e+00	


#WF CALIBRATION VALUES
A = Detector Channel
Val Type	A-AC1	A-AC2	A-AC3	A-AC4	A-AC5	A-AC6	A-AC7	A-AC8	A-AC9	A-AC10	A-AC11	A-AC12	A-AC13	A-AC14	A-AC15	A-AC16	A-DC1	A-DC2	A-DC3	A-DC4	A-DC5	A-DC6	A-DC7	A-DC8	A-DC9	A-DC10	A-DC11	A-DC12	A-DC13	A-DC14	A-DC15	A-DC16	A-Ph1	A-Ph2	A-Ph3	A-Ph4	A-Ph5	A-Ph6	A-Ph7	A-Ph8	A-Ph9	A-Ph10	A-Ph11	A-Ph12	A-Ph13	A-Ph14	A-Ph15	A-Ph16	

Term	0.00000e+00	0.00000e+00	0.00000e+00	0.00000e+00	0.00000e+00	0.00000e+00	0.00000e+00	0.00000e+00	0.00000e+00	0.00000e+00	0.00000e+00	0.00000e+00	0.00000e+00	0.00000e+00	0.00000e+00	0.00000e+00	0.00000e+00	0.00000e+00	0.00000e+00	0.00000e+00	0.00000e+00	0.00000e+00	0.00000e+00	0.00000e+00	0.00000e+00	0.00000e+00	0.00000e+00	0.00000e+00	0.00000e+00	0.00000e+00	0.00000e+00	0.00000e+00	0.00000e+00	0.00000e+00	0.00000e+00	0.00000e+00	0.00000e+00	0.00000e+00	0.00000e+00	0.00000e+00	0.00000e+00	0.00000e+00	0.00000e+00	0.00000e+00	0.00000e+00	0.00000e+00	0.00000e+00	0.00000e+00	
Factor	1.00000e+00	1.00000e+00	1.00000e+00	1.00000e+00	1.00000e+00	1.00000e+00	1.00000e+00	1.00000e+00	1.00000e+00	1.00000e+00	1.00000e+00	1.00000e+00	1.00000e+00	1.00000e+00	1.00000e+00	1.00000e+00	1.00000e+00	1.00000e+00	1.00000e+00	1.00000e+00	1.00000e+00	1.00000e+00	1.00000e+00	1.00000e+00	1.00000e+00	1.00000e+00	1.00000e+00	1.00000e+00	1.00000e+00	1.00000e+00	1.00000e+00	1.00000e+00	X	X	X	X	X	X	X	X	X	X	X	X	X	X	X	X	

B = Detector Channel
Val Type	B-AC1	B-AC2	B-AC3	B-AC4	B-AC5	B-AC6	B-AC7	B-AC8	B-AC9	B-AC10	B-AC11	B-AC12	B-AC13	B-AC14	B-AC15	B-AC16	B-DC1	B-DC2	B-DC3	B-DC4	B-DC5	B-DC6	B-DC7	B-DC8	B-DC9	B-DC10	B-DC11	B-DC12	B-DC13	B-DC14	B-DC15	B-DC16	B-Ph1	B-Ph2	B-Ph3	B-Ph4	B-Ph5	B-Ph6	B-Ph7	B-Ph8	B-Ph9	B-Ph10	B-Ph11	B-Ph12	B-Ph13	B-Ph14	B-Ph15	B-Ph16	

Term	0.00000e+00	0.00000e+00	0.00000e+00	0.00000e+00	0.00000e+00	0.00000e+00	0.00000e+00	0.00000e+00	0.00000e+00	0.00000e+00	0.00000e+00	0.00000e+00	0.00000e+00	0.00000e+00	0.00000e+00	0.00000e+00	0.00000e+00	0.00000e+00	0.00000e+00	0.00000e+00	0.00000e+00	0.00000e+00	0.00000e+00	0.00000e+00	0.00000e+00	0.00000e+00	0.00000e+00	0.00000e+00	0.00000e+00	0.00000e+00	0.00000e+00	0.00000e+00	-9.65827e+01	-1.43805e+02	-1.39444e+02	-1.81677e+02	-5.59979e+01	-8.92971e+01	-1.59950e+02	-1.62015e+02	-5.08740e+01	-7.88643e+01	-1.72352e+02	-1.71128e+02	-1.81284e+02	-1.77091e+02	-7.77532e+01	-1.49524e+02	
Factor	1.36684e-05	1.02022e-04	2.72554e-05	1.62761e-01	7.49054e-07	1.57017e-06	1.72592e-01	4.32996e-02	7.46595e-07	8.31903e-07	7.37064e-02	2.64361e-02	3.12763e-02	7.71586e-03	1.03788e-06	1.11046e-02	1.01505e-06	1.06720e-06	2.95085e-07	8.33522e-02	1.16206e-08	1.16285e-08	8.30791e-02	2.23858e-02	1.15920e-08	1.16152e-08	3.63287e-02	1.30762e-02	1.58931e-02	3.95424e-03	1.15352e-08	5.46625e-03	X	X	X	X	X	X	X	X	X	X	X	X	X	X	X	X	



#DISTANCE SETTINGS
A = Detector Channel
A-1	A-2	A-3	A-4	A-5	A-6	A-7	A-8	A-9	A-10	A-11	A-12	A-13	A-14	A-15	A-16	

2.5000e+00	3.0000e+00	2.5000e+00	3.0000e+00	2.0000e+00	3.0000e+00	1.5000e+00	3.0000e+00	3.0000e+00	3.0000e+00	3.0000e+00	3.0000e+00	3.0000e+00	3.0000e+00	1.5000e+00	3.0000e+00	

B = Detector Channel
B-1	B-2	B-3	B-4	B-5	B-6	B-7	B-8	B-9	B-10	B-11	B-12	B-13	B-14	B-15	B-16	

1.0000e+01	1.0000e+01	1.0000e+01	1.4400e+00	1.0000e+01	1.0000e+01	1.5100e+00	1.9400e+00	1.0000e+01	1.0000e+01	1.9900e+00	2.4900e+00	2.4100e+00	2.9000e+00	1.0000e+01	2.9800e+00	




#DATA BEGINS
time	group	step	mark	flag	A-AC1	A-AC2	A-AC3	A-AC4	A-AC5	A-AC6	A-AC7	A-AC8	A-AC9	A-AC10	A-AC11	A-AC12	A-AC13	A-AC14	A-AC15	A-AC16	A-DC1	A-DC2	A-DC3	A-DC4	A-DC5	A-DC6	A-DC7	A-DC8	A-DC9	A-DC10	A-DC11	A-DC12	A-DC13	A-DC14	A-DC15	A-DC16	A-Ph1	A-Ph2	A-Ph3	A-Ph4	A-Ph5	A-Ph6	A-Ph7	A-Ph8	A-Ph9	A-Ph10	A-Ph11	A-Ph12	A-Ph13	A-Ph14	A-Ph15	A-Ph16	B-AC1	B-AC2	B-AC3	B-AC4	B-AC5	B-AC6	B-AC7	B-AC8	B-AC9	B-AC10	B-AC11	B-AC12	B-AC13	B-AC14	B-AC15	B-AC16	B-DC1	B-DC2	B-DC3	B-DC4	B-DC5	B-DC6	B-DC7	B-DC8	B-DC9	B-DC10	B-DC11	B-DC12	B-DC13	B-DC14	B-DC15	B-DC16	B-Ph1	B-Ph2	B-Ph3	B-Ph4	B-Ph5	B-Ph6	B-Ph7	B-Ph8	B-Ph9	B-Ph10	B-Ph11	B-Ph12	B-Ph13	B-Ph14	B-Ph15	B-Ph16	aux-1	digaux	

3911.661	1	1	0	256	0.17214	0.21609	0.10693	0.16613	0.13044	0.26515	0.083336	0.29305	0.12089	0.11923	0.12586	0.19338	0.1194	0.2438	0.29028	0.025432	-0.51667	-0.61667	-0.08125	-1.1146	-0.091667	-0.20417	-0.82083	0.016667	-0.48333	-0.53125	-0.027083	-0.71042	-0.13542	-0.12917	-0.725	-0.15625	66.081	-13.443	-99.751	84.561	156.628	-80.086	-4.697	176.365	-62.939	39.393	-103.486	250.368	77.328	238.522	60.625	-50.330	0.0001302	0.00083283	0.00038338	440.02	2.0913e-06	2.5502e-05	606.92	142.26	3.9622e-06	6.5686e-06	251.88	94.877	46.175	20.065	1.6509e-05	47.17	0.0025446	0.0024292	0.00063895	644.56	2.877e-05	2.6328e-05	799.89	199.39	2.8341e-05	2.5972e-05	331.01	128.7	84.698	28.996	2.5282e-05	60.924	-93.907	-67.902	-20.203	-91.663	71.991	10.281	-91.848	-86.497	-29.290	71.339	-87.239	-82.733	-82.682	-77.604	-100.430	-78.389	-8191	255	
3911.781	1	1	0	0	0.33341	0.11108	0.48633	0.18751	0.21886	0.15164	0.23991	0.28308	0.07471	0.46142	0.19878	0.18364	0.26587	0.16149	0.19929	0.17754	-0.18125	-0.58125	0.11042	-0.59583	-0.27083	-0.010417	-0.89583	-0.054167	-0.27917	-0.56458	0.022917	-0.67917	-0.11875	0.025	-0.69375	-0.010417	-81.241	74.321	-22.851	198.464	-64.388	117.968	-9.713	-47.905	166.704	88.962	3.085	237.111	-53.309	-101.981	151.903	126.846	0.00020293	0.00018975	0.0002073	441.92	9.1582e-06	3.0398e-05	605.51	142.1	1.1089e-05	7.1281e-06	248.94	95.387	46.468	20.235	6.9645e-06	47.301	0.0024723	0.0023978	0.00064908	657.7	2.8135e-05	2.6125e-05	808.54	202.05	2.8052e-05	2.6595e-05	334.64	131.05	84.2	29.101	2.7021e-05	61.83	-100.641	-7.512	100.664	-91.531	48.169	24.378	-91.986	-86.229	77.674	48.844	-87.119	-82.612	-82.601	-77.506	-50.943	-78.293	-8191	255	
3911.878	1	1	0	0	0.22982	0.37013	0.25487	0.24873	0.15276	0.092605	0.26706	0.26189	0.30279	0.091733	0.18727	0.13326	0.11137	0.22336	0.074947	0.15237	-0.10208	-0.88125	0.13333	-0.88958	-0.54792	-0.0375	-1.0542	-0.085417	-0.14583	-0.93333	-0.03125	-0.50417	-0.4	0.12083	-0.6625	-0.30208	216.448	-0.038	-77.562	-14.225	-78.993	180.787	-100.180	147.142	93.009	237.717	240.681	190.265	86.918	-89.846	-27.575	162.371	0.00014456	0.00091796	0.00035341	440.2	1.0639e-05	7.3431e-06	607.52	144.01	2.2876e-06	8.1504e-06	252.65	96.536	46.956	20.118	1.0909e-05	47.79	0.002427	0.0024045	0.00068558	661.34	2.7125e-05	2.5494e-05	818.42	202.41	2.6257e-05	2.5198e-05	339.01	129.75	82.066	28.634	2.7171e-05	61.16	-83.215	-73.090	116.401	-91.280	-2.798	64.102	-91.680	-86.162	10.544	124.029	-87.219	-82.268	-83.169	-77.700	196.820	-78.136	-8191	255	
3911.949	1	1	0	0	0.27912	0.10281	0.18697	0.070662	0.27861	0.18589	0.16788	0.18706	0.028464	0.079528	0.11149	0.065018	0.19154	0.10897	0.044213	0.10735	0.28542	-0.78333	0.10833	-0.55208	-0.48958	0.08125	-0.86875	-0.17917	-0.25	-0.88542	-0.0875	-0.44167	-0.67083	-0.039583	-0.725	-0.56667	238.470	39.061	5.767	-81.166	170.109	89.505	215.808	60.650	-98.899	158.847	133.202	31.311	65.144	-49.184	92.433	224.329	0.00011505	0.00050396	0.00029945	444.19	5.1964e-06	1.3768e-05	614	146.38	6.0965e-06	5.1563e-06	254.05	96.576	47.382	20.155	1.1131e-05	47.575	0.002277	0.0023055	0.00068549	641.67	2.411e-05	2.2737e-05	807.57	196.46	2.2959e-05	2.2433e-05	335.08	125.8	78.409	28.078	2.5788e-05	59.427	182.377	161.575	146.561	-91.523	0.916	113.196	-92.089	-86.394	-39.903	127.332	-87.776	-82.601	-82.843	-77.426	115.009	-78.378	-8191	255	
3912.070	1	1	0	0	0.26086	0.21073	0.23968	0.068519	0.22081	0.073771	0.21658	0.040629	0.22129	0.13392	0.23034	0.19016	0.30923	0.19432	0.12215	0.3554	0.18542	-0.93125	-0.36042	-0.53333	-0.65	0.045833	-1.0021	-0.4875	0.022917	-1.0542	-0.22083	-0.45417	-0.70833	0.0375	-0.69792	-0.49583	252.287	-82.457	24.343	4.426	-10.125	39.462	-104.060	117.126	83.039	4.142	185.250	195.276	-98.672	49.466	17.397	154.584	0.00016109	0.00066374	0.00010396	445.28	4.2015e-06	1.925e-05	617.31	144.84	5.3842e-06	1.0154e-05	255.06	96.549	46.825	20.003	1.0406e-05	47.919	0.0020205	0.0021316	0.00065851	625.35	2.3125e-05	2.3177e-05	814.75	194.4	2.25e-05	2.3893e-05	338.57	125.13	78.023	28.358	2.569e-05	59.091	226.090	26.151	99.074	-91.461	54.732	227.963	-91.638	-86.530	-90.041	140.027	-87.471	-82.833	-83.091	-78.063	-39.913	-78.547	-8191	255	
3912.164	1	1	0	0	0.16981	0.12834	0.2026	0.14711	0.10737	0.40489	0.30282	0.039147	0.14637	0.068507	0.10267	0.19525	0.18089	0.23163	0.15669	0.14101	0.61042	-0.64583	0.0625	-0.26458	-0.58333	0.14167	-0.725	-0.54167	-0.0625	-0.66667	-0.21667	-0.28125	-0.95833	-0.17083	-0.5625	-0.7	229.107	39.861	164.406	134.884	-83.640	204.695	234.725	26.340	127.606	12.350	-77.799	-42.273	47.312	215.837	82.192	237.191	0.00017927	0.0007227	0.00028392	448.54	2.8893e-06	1.7967e-05	619.65	146.68	3.7928e-06	1.0203e-05	259.75	97.13	47.537	20.169	1.0589e-05	47.821	0.0019747	0.0022206	0.00065215	621.7	2.2536e-05	2.4411e-05	814.55	194.94	2.2328e-05	2.5044e-05	338.9	124.93	78.297	28.914	2.4925e-05	59.085	200.027	60.943	-6.472	-91.556	15.233	174.637	-91.619	-86.272	-75.067	218.706	-87.223	-82.936	-82.240	-77.355	-25.557	-78.276	-8191	255	
3912.262	1	1	0	0	0.091823	0.12831	0.19102	0.1338	0.20805	0.2443	0.2544	0.33858	0.10634	0.090611	0.1369	0.080242	0.3586	0.028101	0.12532	0.20969	0.26667	-0.7625	-0.49792	-0.32917	-1.0479	-0.20417	-0.38958	-0.56458	0.0020833	-0.625	-0.43958	-0.16875	-0.85417	0.025	-0.375	-0.93125	175.790	-57.983	-67.545	85.101	116.866	190.720	162.136	-48.891	114.289	-48.709	183.050	179.656	76.671	185.906	18.196	227.745	0.00023064	0.0002048	0.00030113	450.33	6.1179e-06	1.5152e-05	625.12	148.42	2.1511e-06	7.7284e-06	262.9	97.798	47.623	20.353	1.0272e-05	48.075	0.0019375	0.0023063	0.00061626	615.14	2.2213e-05	2.4682e-05	807.35	194.45	2.194e-05	2.4899e-05	336.8	124.46	77.848	28.77	2.2776e-05	58.436	224.866	224.430	-74.406	-91.602	76.983	135.378	-91.869	-86.497	-4.149	250.161	-87.493	-82.909	-82.977	-77.355	44.909	-78.340	-8191	255	
3912.381	1	1	0	0	0.071988	0.045325	0.055179	0.044492	0.21892	0.15999	0.26413	0.092368	0.014214	0.069632	0.13487	0.34269	0.11886	0.095085	0.075559	0.26297	0.20833	-0.64375	-0.52917	-0.033333	-0.72083	-0.00625	-0.34583	-0.80625	0.13958	-0.77708	-0.70208	-0.070833	-0.90833	-0.2	-0.31458	-0.68125	71.544	-86.851	248.666	88.937	-101.233	-81.175	-5.348	11.233	198.555	170.928	226.852	192.083	187.222	-8.421	-91.103	216.850	0.00031742	0.00061356	0.00015759	453.97	4.4986e-06	7.7857e-06	626.66	148.38	7.4147e-06	9.0702e-06	260.3	97.764	46.859	19.992	1.398e-05	47.666	0.0019186	0.0022081	0.00056526	606.14	2.1646e-05	2.3789e-05	790.58	191.19	2.168e-05	2.3526e-05	328.35	121.95	77.466	28.029	2.1143e-05	57.361	199.415	-2.634	-66.776	-91.267	142.680	61.004	-91.796	-86.456	-91.694	44.011	-87.728	-82.739	-82.777	-78.018	14.605	-78.320	-8191	255	
3912.477	1	1	0	0	0.29888	0.25873	0.21271	0.25825	0.24994	0.30084	0.11248	0.14281	0.020496	0.15027	0.075986	0.089146	0.15441	0.078362	0.13294	0.11985	0.3125	-0.5625	-0.43958	-0.17083	-1.0187	-0.30417	-0.425	-1.05	-0.0083333	-0.57708	-0.60833	-0.020833	-0.77708	-0.31042	-0.11667	-0.875	74.482	23.038	-0.842	-87.374	154.504	185.674	-83.038	218.868	61.685	12.810	-75.888	85.874	152.345	245.953	49.611	-68.368	0.00031242	0.00098206	0.00021608	450.68	9.7237e-06	1.1212e-05	625.19	147.99	4.696e-06	5.4572e-06	260.25	97.18	47.293	19.955	7.8129e-06	47.752	0.0019529	0.0021272	0.00054264	600.47	2.2544e-05	2.2948e-05	785.5	190.2	2.2673e-05	2.2747e-05	327.42	121.99	78.89	27.796	2.0739e-05	57.641	212.046	-59.689	-49.693	-91.705	220.085	91.528	-91.702	-86.745	163.796	83.637	-87.329	-82.436	-82.562	-77.917	-31.015	-78.430	-8191	255	
3912.549	1	1	0	0	0.038429	0.037874	0.40217	0.096747	0.29536	0.16416	0.05632	0.12608	0.32496	0.050639	0.095023	0.15801	0.22041	0.23343	0.12929	0.13854	0.3125	-0.68333	-0.68333	-0.077083	-0.81042	-0.64583	-0.175	-0.82917	-0.10417	-0.41458	-0.71042	-0.016667	-0.6375	-0.51458	0.070833	-0.90833	137.328	21.154	18.042	-4.080	9.216	174.093	93.223	41.762	69.698	155.069	80.384	191.799	219.367	239.384	188.750	45.156	0.00020242	0.00062925	0.00015157	448.7	2.5767e-06	2.4358e-06	630.63	149.95	3.938e-06	1.5725e-05	263.69	98.51	48.458	20.177	1.0547e-05	48.073	0.0020114	0.0020173	0.00051948	600.92	2.2722e-05	2.1601e-05	782.73	192.21	2.2656e-05	2.1445e-05	327.68	123.17	79.13	27.303	1.9633e-05	57.981	209.642	-11.234	-61.440	-91.585	50.660	-32.595	-91.672	-86.587	86.487	1.018	-87.585	-82.755	-82.179	-77.794	20.900	-78.384	-8191	255	
3912.645	1	1	0	0	0.057323	0.15641	0.12917	0.11587	0.13801	0.12284	0.25971	0.10113	0.1451	0.12094	0.082665	0.25024	0.153	0.13206	0.075293	0.20627	0.37708	-0.072917	-0.58958	-0.035417	-0.57917	-0.4	-0.033333	-0.77917	-0.12083	-0.34792	-1	-0.029167	-0.51875	-0.4	0.10833	-0.76042	82.345	51.168	178.749	189.638	99.577	203.563	-90.312	49.104	189.553	175.853	214.460	240.793	107.029	0.300	120.039	192.857	0.00029664	0.00066397	0.00025003	452.62	8.6979e-06	1.505e-05	629.89	152.37	5.8772e-06	3.8649e-06	265.67	99.457	48.867	20.244	6.1871e-06	48.019	0.0019661	0.0018864	0.00049479	606.02	2.1951e-05	2.0194e-05	776.26	194.44	2.1479e-05	1.9788e-05	326.16	124.11	77.55	26.967	1.8467e-05	57.994	243.852	18.787	-21.755	-91.611	87.855	-17.445	-91.757	-86.551	82.284	29.888	-87.646	-82.577	-83.216	-77.999	41.290	-78.470	-8191	255	
3912.766	1	1	0	0	0.14953	0.14089	0.23168	0.15742	0.10274	0.05124	0.051666	0.19048	0.21236	0.1676	0.10041	0.40484	0.045767	0.0895	0.15649	0.25759	0.21875	-0.077083	-0.67083	-0.225	-0.875	-0.81875	-0.18125	-0.80417	-0.49167	-0.25208	-1.0354	-0.0625	-0.55833	-0.73542	0.1625	-0.83542	-13.784	-41.298	-15.765	247.291	16.952	121.552	-27.179	123.597	194.295	-66.600	92.278	-98.120	255.229	178.200	-1.687	44.811	2.5478e-05	0.00041948	0.00018003	453.05	6.1891e-06	3.0425e-06	624.61	151.48	1.0685e-05	5.8727e-06	262.14	98.339	48.663	19.908	3.1547e-06	47.702	0.0018253	0.0017723	0.00047145	606.41	2.0503e-05	1.8972e-05	767.84	194.45	2.0147e-05	1.8771e-05	323.4	123.46	75.461	26.447	1.8257e-05	57.676	250.378	-16.647	162.681	-91.430	-17.768	-36.291	-91.830	-86.491	75.385	42.348	-87.319	-82.736	-82.654	-77.529	243.809	-78.430	-8191	255	
3912.862	1	1	0	0	0.10772	0.20033	0.31633	0.082565	0.38455	0.39369	0.075901	0.030459	0.15524	0.22737	0.10234	0.35857	0.068952	0.24065	0.17397	0.29854	-0.1375	-0.15625	-0.7875	-0.27292	-0.35417	-0.93333	-0.19375	-0.79375	-0.51875	-0.11667	-0.87083	-0.089583	-0.28333	-0.73333	0.089583	-0.69375	122.133	38.246	99.520	68.659	-92.695	160.888	-83.384	-80.613	-98.219	91.966	129.976	-101.539	211.263	-79.459	188.029	174.083	0.00018555	0.00079997	0.00013993	456.42	7.7354e-06	2.156e-05	629.63	150.94	2.3624e-06	5.1843e-06	262.24	98.264	48.249	19.829	9.073e-06	47.86	0.0017144	0.0016733	0.00046859	605.57	1.9204e-05	1.8169e-05	770	193.49	1.8999e-05	1.8035e-05	324.74	123.22	73.999	26.11	1.8943e-05	57.781	-97.325	-7.790	115.278	-91.358	-26.641	-11.580	-92.195	-86.514	24.138	-2.877	-87.593	-82.964	-82.936	-77.906	249.926	-78.370	-8191	255	
3912.958	1	1	0	0	0.26397	0.29737	0.16459	0.11655	0.172	0.080077	0.21827	0.27719	0.20328	0.19659	0.24699	0.11917	0.16559	0.11402	0.2975	0.18439	-0.2125	-0.15833	-0.97292	-0.35625	-0.52708	-0.925	-0.31458	-0.77083	-0.58125	-0.089583	-1.1292	-0.47708	-0.1625	-1.1562	-0.34167	-0.89583	217.307	-18.931	-71.952	205.148	74.606	73.957	35.049	159.816	53.108	6.663	184.339	191.694	212.490	-70.908	-30.824	-28.029	0.00010765	0.00022727	0.00016026	455.1	4.1962e-06	6.6607e-06	628.93	150.4	3.2031e-06	3.6259e-06	264.76	99.438	48.192	19.845	6.9627e-06	48.407	0.0016672	0.00165	0.00049204	604.56	1.8756e-05	1.8004e-05	778.35	192.04	1.8488e-05	1.7768e-05	327.74	122.88	73.18	26.013	1.9557e-05	57.564	-101.337	-8.797	33.517	-91.717	1.680	48.360	-92.030	-86.552	14.089	-85.497	-87.155	-83.105	-82.691	-77.950	-47.331	-78.219	-8191	255	
3913.054	1	1	0	0	0.20072	0.17419	0.19019	0.15156	0.1188	0.15344	0.25057	0.064736	0.12195	0.34146	0.27922	0.19363	0.27833	0.098568	0.091245	0.46942	-0.26458	-0.2875	-0.7375	-0.38542	-0.12292	-0.825	-0.08125	-0.35	-0.70208	-0.0625	-1.0083	-0.70833	0.01875	-1.0104	-0.18333	-0.77292	154.016	38.402	137.258	244.545	147.745	44.706	247.456	-83.612	174.588	119.811	181.118	-75.346	53.721	20.836	-37.987	247.062	9.5041e-05	0.00057187	0.00022222	457.86	1.8708e-06	6.6492e-06	627.74	151.13	1.7848e-06	3.4326e-06	264.68	99.18	47.692	19.661	3.4805e-06	47.741	0.0015923	0.0016249	0.00050078	596.91	1.7993e-05	1.7744e-05	781.36	189.63	1.7736e-05	1.7811e-05	327.28	121.52	71.883	25.943	1.9556e-05	56.712	-88.425	94.533	125.007	-91.797	-37.923	228.596	-91.873	-86.548	90.652	226.614	-87.109	-82.992	-82.351	-77.762	43.349	-78.415	-8191	255	
3913.173	1	1	0	0	0.10337	0.12369	0.036561	0.22279	0.18898	0.11747	0.23873	0.20226	0.1388	0.13709	0.29418	0.14546	0.34548	0.19137	0.12848	0.17519	-0.45208	-0.052083	-0.69375	-0.57917	-0.25	-0.92917	-0.35208	-0.60417	-0.59583	-0.03125	-0.6375	-0.6625	-0.23125	-1.0271	-0.47083	-0.55	144.873	190.382	84.658	106.718	66.534	96.371	206.880	239.842	178.711	15.210	184.428	100.970	-34.654	-26.941	-34.473	246.745	0.00015962	0.0002566	0.00013219	449.57	5.5781e-06	9.0045e-06	626.95	148.55	1.8162e-06	7.9448e-06	261.81	98.03	47.786	19.438	6.1661e-06	47.501	0.0015352	0.0016489	0.00049953	585.83	1.7313e-05	1.803e-05	776.17	186.47	1.7277e-05	1.828e-05	324.4	119.8	71.178	26.046	1.9251e-05	56.258	228.534	128.764	166.143	-91.384	7.815	153.049	-91.520	-86.484	-49.632	253.557	-87.326	-82.818	-82.976	-77.835	45.789	-78.497	-8191	255	
3913.245	1	1	0	0	0.079471	0.18533	0.11712	0.062405	0.10999	0.12422	0.06261	0.080316	0.14936	0.13653	0.24818	0.07669	0.074199	0.19655	0.20118	0.10615	-0.43333	-0.28125	-0.75625	-0.71667	0.045833	-0.92708	-0.2875	-0.32708	-0.73333	-0.016667	-0.64583	-0.8625	-0.1375	-0.92708	-0.49167	-0.38542	-94.590	232.107	215.071	107.042	86.128	14.090	53.132	197.052	-98.547	144.961	229.144	200.118	69.206	185.530	-87.421	212.491	0.00020694	0.001003	0.00028027	451.63	3.3659e-06	1.7054e-06	626.98	148.15	2.4575e-06	5.8062e-06	262.99	98.231	47.561	19.739	9.0633e-06	47.819	0.0015326	0.0017307	0.00049626	585.77	1.7624e-05	1.9465e-05	775.93	186.94	1.8137e-05	2.0157e-05	326.52	120.96	73.037	27.079	2.0427e-05	57.137	227.186	78.756	-71.000	-91.621	80.191	25.721	-91.751	-86.281	37.436	-14.717	-87.214	-83.121	-82.364	-77.580	-9.536	-78.473	-8191	255	
3913.343	1	1	0	0	0.27009	0.12479	0.21486	0.26372	0.025709	0.13167	0.13227	0.079161	0.20167	0.18104	0.10891	0.31444	0.17365	0.14035	0.192	0.15978	-0.64583	-0.15417	-0.56042	-0.82292	0.03125	-0.92292	-0.66458	-0.27708	-1.1229	-0.18542	-0.57708	-1.0063	-0.035417	-1.0396	-0.60833	-0.29792	-24.927	-103.829	167.705	202.205	-40.469	169.476	-99.445	-103.450	65.624	19.480	250.583	240.007	-80.730	-86.803	-54.018	-59.386	0.00017505	0.0004386	0.0003061	452.31	4.3278e-06	5.3157e-06	630.74	149.44	7.1289e-06	6.9481e-06	263.78	98.274	46.962	19.832	8.969e-06	47.928	0.0017062	0.0019931	0.00053404	598.24	1.9885e-05	2.2574e-05	790.07	190.96	2.0755e-05	2.3209e-05	333.1	123.06	76.805	28.137	2.2037e-05	58.175	229.191	134.282	-23.943	-91.583	204.256	241.445	-91.786	-86.270	251.780	145.415	-87.297	-82.969	-82.735	-77.887	-17.673	-78.270	-8191	255	
3913.461	1	1	0	0	0.084942	0.12481	0.1811	0.18076	0.067406	0.16489	0.09262	0.13325	0.1718	0.33431	0.17262	0.092996	0.23106	0.12636	0.073661	0.22403	-0.62292	-0.089583	-0.28958	-0.8	0.041667	-0.81667	-0.59792	-0.039583	-0.84583	-0.1875	-0.2875	-0.65208	-0.0375	-0.71458	-0.58333	-0.15	57.647	-60.310	-1.963	68.511	219.271	236.520	-92.116	91.382	24.351	78.543	194.893	11.664	248.149	7.570	76.454	117.064	0.00031899	0.00031526	0.00023178	454.56	5.892e-06	1.3405e-05	626.7	149.48	6.2618e-06	1.2911e-05	261.13	97.402	47.181	19.714	1.4583e-05	47.333	0.0019715	0.0022451	0.00057379	611.77	2.3266e-05	2.4919e-05	798.71	194.12	2.3546e-05	2.4701e-05	333.7	123.43	79.947	28.133	2.1959e-05	57.65	193.336	68.826	-58.804	-91.638	180.911	1.055	-91.763	-86.525	231.850	-33.872	-87.363	-82.854	-83.078	-77.809	30.344	-78.660	-8191	255	
3913.558	1	1	0	0	0.034292	0.11496	0.17761	0.010114	0.11828	0.11763	0.20614	0.064974	0.41212	0.33046	0.54364	0.16852	0.19564	0.26421	0.1498	0.18192	-0.65208	-0.34167	-0.33125	-1.0938	-0.047917	-0.65833	-0.88958	-0.17292	-1.0187	-0.36042	-0.085417	-0.90833	-0.31458	-0.56875	-0.8	-0.2875	96.350	167.616	138.226	140.187	57.325	65.207	161.153	177.675	245.432	92.166	-103.028	206.561	205.280	208.005	-83.655	121.220	0.00022704	0.00091767	0.0002296	449.67	2.4519e-06	1.5264e-05	626.11	146.98	1.0878e-06	3.9488e-06	259.75	97.075	47.397	19.599	6.4601e-06	47.071	0.0021036	0.0022071	0.00055933	607.21	2.4125e-05	2.3623e-05	789.39	191.95	2.4165e-05	2.349e-05	329.11	123.11	80.777	27.578	2.1718e-05	57.758	222.788	26.585	-29.893	-91.477	145.471	17.733	-92.001	-86.550	59.811	41.914	-87.323	-82.819	-82.970	-78.070	-66.152	-78.530	-8191	255	
3913.654	1	1	0	0	0.098954	0.19982	0.29862	0.18928	0.29367	0.24137	0.24114	0.045474	0.074084	0.12236	0.1084	0.21341	0.17554	0.16033	0.1143	0.23708	-0.30208	-0.47292	-0.27083	-0.89583	-0.16042	-0.49792	-1.0312	0.047917	-0.825	-0.70208	-0.35	-1.1104	-0.17292	-0.44792	-0.8	-0.225	220.329	45.063	-30.969	165.734	182.089	7.762	129.673	139.709	225.407	67.716	154.870	-23.698	249.462	190.095	95.776	242.095	0.00029267	0.0011921	0.00013329	445.84	4.5537e-06	1.2512e-05	622.43	146.73	4.4412e-06	5.3025e-06	259.22	96.367	46.577	19.412	8.4555e-06	47.19	0.0021944	0.0021423	0.0005558	614.64	2.5389e-05	2.3573e-05	791.65	194.54	2.5791e-05	2.3861e-05	331.22	125.47	82.424	27.773	2.2667e-05	59.111	205.804	-26.692	51.739	-91.582	-85.320	-9.626	-91.920	-86.626	208.220	25.122	-87.597	-82.857	-82.583	-77.340	111.684	-78.688	-8191	255	
3913.750	1	1	0	0	0.12654	0.21493	0.080977	0.053343	0.079552	0.34003	0.10632	0.12464	0.11604	0.094531	0.14799	0.20448	0.14806	0.32374	0.214	0.1711	-0.30625	-0.70417	-0.25625	-0.94792	-0.0625	-0.19167	-1.0833	-0.32708	-0.4875	-0.4625	-0.21458	-0.96667	-0.44167	-0.14583	-0.83125	-0.31667	93.544	130.608	45.577	143.869	213.591	68.424	-62.091	219.060	235.539	111.808	-92.550	5.531	215.551	-27.521	68.332	205.979	0.00023956	0.0019387	9.6988e-05	447.6	4.2036e-06	1.1395e-05	623.93	146.06	7.2882e-06	4.7104e-06	258.35	96.136	46.317	19.509	2.8747e-06	47.239	0.0023123	0.0022167	0.00058318	635.61	2.6446e-05	2.4271e-05	800.8	198.69	2.6572e-05	2.4474e-05	333.03	128.43	82.853	27.892	2.3472e-05	60.267	226.496	-58.706	252.162	-91.399	3.273	-22.231	-91.831	-86.242	58.905	234.841	-87.480	-82.932	-82.645	-77.430	-31.553	-78.283	-8191	255	
3913.846	1	1	0	0	0.07897	0.14938	0.19282	0.21369	0.259	0.1015	0.23479	0.19281	0.096483	0.13501	0.20886	0.12171	0.048712	0.077989	0.21554	0.02117	-0.25208	-0.81042	-0.03125	-0.97917	-0.56875	-0.29375	-1.0938	-0.25208	-0.68958	-0.85417	-0.31042	-0.75833	-0.725	-0.1875	-0.90417	-0.31042	61.940	249.946	110.082	236.528	164.345	26.193	224.023	201.358	227.469	170.903	229.175	-18.599	16.811	-32.649	145.777	142.185	0.00022801	0.0012776	5.9209e-05	444.27	8.0919e-06	1.8291e-05	619.42	146.59	3.2607e-06	8.6759e-06	257.44	96.646	46.871	19.498	1.1256e-05	47.221	0.0023	0.0022228	0.0006039	646.04	2.6015e-05	2.4204e-05	803.66	201.84	2.5972e-05	2.4449e-05	337.02	129.74	82.291	28.051	2.5351e-05	60.827	227.124	-24.704	-70.372	-91.359	35.230	13.010	-91.960	-86.284	125.058	71.854	-87.531	-83.035	-82.591	-77.349	198.701	-78.418	-8191	255	
3913.942	1	1	0	0	0.18636	0.17413	0.20045	0.14163	0.20364	0.18401	0.13208	0.45458	0.05862	0.058293	0.14253	0.025503	0.33249	0.21776	0.31446	0.096739	-0.19375	-0.82292	-0.1875	-1.0042	-0.71042	-0.39375	-1.2146	-0.32292	-0.62292	-1.0833	-0.39375	-0.93542	-0.75	-0.35	-1.1187	-0.47292	86.266	207.821	242.713	-43.644	83.157	92.706	11.582	-24.677	24.538	179.941	53.864	159.964	-80.125	-63.837	6.009	209.213	0.00031696	0.00077779	0.00022572	447.77	6.0008e-06	1.3604e-05	622.73	147.91	3.6536e-06	6.7579e-06	258.17	96.465	47.318	19.668	1.3182e-05	47.292	0.0023184	0.0023113	0.00066797	661.67	2.6737e-05	2.5491e-05	826.24	207.36	2.68e-05	2.5809e-05	348.57	131.43	83.883	28.549	2.8288e-05	61.402	-97.238	69.663	106.479	-91.132	69.057	-91.093	-91.909	-86.716	67.191	241.011	-87.441	-82.813	-83.143	-78.086	182.122	-78.543	-8191	255	
3914.063	1	1	0	0	0.085523	0.058165	0.15639	0.27282	0.17898	0.078969	0.15004	0.20046	0.014929	0.16677	0.15222	0.18319	0.27983	0.10039	0.12855	0.26972	-0.079167	-0.92083	-0.19167	-0.75	-0.52292	-0.29167	-1.0125	-0.51042	-0.38958	-0.99792	-0.18542	-0.90625	-0.82708	-0.26667	-1.0542	-0.46667	107.152	13.862	-56.635	98.575	-46.133	242.794	98.748	-94.288	193.912	198.841	-34.751	-99.396	-19.027	120.340	-52.670	25.547	0.00013808	0.00058792	0.00020023	451.76	8.9421e-06	9.431e-06	619.23	149.51	4.8861e-06	4.8329e-06	259.18	96.798	47.256	19.791	1.2622e-05	47.404	0.002381	0.0024039	0.00074309	668.99	2.7725e-05	2.6675e-05	849.61	209.8	2.7805e-05	2.7409e-05	360.69	133.23	86.874	29.822	3.2812e-05	62.631	198.447	189.496	144.176	-91.223	19.918	-30.092	-91.666	-86.696	50.967	240.309	-87.567	-82.802	-83.208	-77.612	-85.167	-78.558	-8191	255	
3914.157	1	1	0	0	0.16795	0.023591	0.034531	0.1598	0.14756	0.21636	0.044968	0.1696	0.095041	0.17893	0.088115	0.15751	0.034196	0.13227	0.12278	0.20051	0.10417	-0.76667	-0.085417	-0.49167	-0.78958	-0.1125	-0.90417	-0.51458	-0.016667	-0.93333	-0.15208	-0.61042	-1.075	-0.3125	-1.1125	-0.83542	174.846	67.564	180.989	210.793	120.313	91.890	47.191	-102.384	28.936	20.031	-91.368	167.943	245.671	-89.864	75.049	183.724	0.00013565	0.0012415	0.00016191	448.2	8.8809e-06	4.3306e-06	619.96	149.1	1.1768e-05	1.8434e-05	259.25	97.021	47.331	19.809	1.1947e-05	47.252	0.0026411	0.0027718	0.00086258	681.97	3.0301e-05	3.0663e-05	875.19	213.35	3.0156e-05	3.1319e-05	370.05	134.69	89.139	31.101	3.5005e-05	62.645	-56.041	202.236	-90.661	-91.305	-3.143	218.023	-92.094	-86.638	82.836	192.543	-87.508	-82.355	-82.925	-77.631	22.917	-78.472	-8191	255	
3914.253	1	1	0	0	0.22072	0.21949	0.14839	0.27343	0.21324	0.14838	0.18878	0.25893	0.18369	0.078317	0.08865	0.54018	0.063075	0.12186	0.14998	0.081202	0.25625	-0.99792	-0.46042	-0.57083	-0.93958	-0.28958	-1.0125	-0.57917	-0.14792	-0.75833	-0.44167	-0.14167	-1.0271	-0.14375	-0.74583	-0.98542	79.968	116.220	79.316	119.816	-14.982	147.359	217.091	200.558	152.774	94.131	147.539	201.390	153.503	-28.175	105.667	-38.573	0.00015794	0.0011519	0.00039072	434.74	7.4801e-06	2.6981e-05	609.06	145.55	3.2068e-06	6.9402e-06	254.5	95.04	46.195	19.572	6.4092e-06	46.649	0.0026832	0.0030004	0.00088791	671.79	3.0425e-05	3.3006e-05	865.46	210.23	3.0358e-05	3.3777e-05	364.91	132.6	88.617	31.682	3.4636e-05	62.011	205.038	182.894	-20.377	-91.630	35.522	175.727	-91.835	-86.304	77.706	205.679	-87.300	-82.966	-82.710	-77.678	33.387	-78.489	-8191	255	
3914.349	1	1	0	0	0.17843	0.15981	0.24868	0.10261	0.32203	0.21809	0.25783	0.16829	0.010012	0.32213	0.19955	0.40941	0.086795	0.21549	0.11235	0.21173	0.077083	-0.9125	-0.48333	-0.30208	-1.0292	-0.072917	-0.51042	-0.88542	-0.064583	-1	-0.73125	-0.37917	-0.9	-0.21458	-0.6875	-1.0729	216.772	160.815	137.978	92.810	13.110	223.082	235.059	-102.485	74.085	-25.630	91.113	-57.893	237.325	222.214	-3.319	-73.827	0.00026346	0.00075282	0.0002141	437.35	5.9237e-06	1.7211e-05	605.74	144.45	4.1388e-06	5.9738e-06	253.7	94.235	45.76	19.586	1.619e-05	46.882	0.0027336	0.0032309	0.00088727	672.92	3.1568e-05	3.5808e-05	864.55	210.06	3.1587e-05	3.5712e-05	362.06	132.11	90.071	32.106	3.3614e-05	61.958	212.791	165.455	2.436	-91.365	213.489	214.539	-91.721	-86.274	-26.900	73.157	-87.528	-82.686	-83.405	-77.376	19.657	-78.286	-8191	255	
3914.470	1	1	0	0	0.16492	0.16027	0.13558	0.12994	0.095598	0.45502	0.23545	0.084157	0.19929	0.17847	0.069117	0.21128	0.031633	0.22774	0.023869	0.15173	0.24375	-0.98958	-0.40625	-0.00625	-0.80833	-0.17083	-0.7125	-1.0792	0.08125	-0.72083	-0.7125	-0.15625	-1.0312	-0.14375	-0.48333	-1.0146	196.051	-99.575	-25.922	39.042	150.716	23.841	14.668	231.643	120.456	221.794	-97.812	146.242	165.526	166.360	115.131	-43.513	0.00027976	0.001066	0.00022844	435.65	1.6067e-05	4.4794e-06	607.13	145.5	1.094e-05	8.9885e-06	254.88	95.278	45.766	19.832	8.1589e-06	46.64	0.0028319	0.0033039	0.00085252	667	3.2581e-05	3.5669e-05	852.9	208.71	3.2615e-05	3.5657e-05	358.36	131.54	91.664	31.947	3.2039e-05	61.531	187.430	70.562	0.317	-91.169	191.966	-24.444	-91.633	-86.089	253.357	8.313	-87.631	-82.826	-83.216	-77.405	-1.914	-78.092	-8191	255	
3914.542	1	1	0	0	0.25681	0.28264	0.28954	0.12879	0.066364	0.24874	0.17373	0.17923	0.32117	0.23006	0.22293	0.26813	0.12891	0.16408	0.19402	0.24457	0.2375	-0.59375	-0.68542	-0.18125	-0.95208	-0.47292	-0.59375	-1.1833	-0.24375	-0.63125	-0.80833	-0.31875	-0.93125	-0.5625	-0.42083	-1.0729	112.603	252.861	142.469	-48.967	217.204	-31.062	250.548	85.474	-76.524	133.981	251.263	233.156	207.979	-52.063	-82.409	247.515	0.00028244	0.0023751	0.00013008	436.37	1.0343e-05	1.8495e-05	608.09	145.1	1.2533e-05	1.274e-05	254.06	95.508	45.95	19.814	1.1043e-05	46.536	0.0029119	0.0031763	0.00080862	660.09	3.3378e-05	3.4052e-05	842.26	206.34	3.3113e-05	3.3246e-05	352.58	130.19	92.071	31.18	3.0221e-05	61.119	248.788	-53.997	-44.247	-91.823	223.880	-21.695	-91.769	-86.004	224.235	43.950	-87.920	-82.997	-82.739	-77.674	23.762	-78.271	-8191	255	
3914.638	1	1	0	0	0.13743	0.28632	0.15955	0.31435	0.12482	0.23605	0.065904	0.28279	0.1059	0.1563	0.1809	0.1283	0.37008	0.27085	0.11943	0.27	0.020833	-0.65208	-0.87292	-0.12083	-0.75625	-0.41458	-0.2625	-0.86458	-0.0125	-0.42917	-0.78542	-0.020833	-0.9375	-0.64167	-0.24583	-1.1625	-76.534	-89.781	-1.328	-88.070	166.835	237.253	2.572	208.910	102.462	-77.465	189.445	178.283	-100.307	129.304	96.109	-62.346	0.00023771	0.0011394	0.00032768	436.92	3.8359e-06	1.4418e-05	603.53	144.91	2.8218e-06	1.1437e-05	251.33	93.729	46.003	19.66	1.2346e-05	46.426	0.0029333	0.0029768	0.00077017	655.53	3.3688e-05	3.2279e-05	830.71	206.29	3.3925e-05	3.2174e-05	348.22	130.55	92.725	30.659	2.9808e-05	61.408	204.334	-66.088	1.895	-91.719	175.086	18.450	-91.559	-86.851	90.744	0.307	-87.143	-82.884	-83.210	-77.726	29.432	-78.175	-8191	255	
3914.734	1	1	0	0	0.2182	0.20755	0.28506	0.41981	0.083343	0.14958	0.25955	0.11796	0.12745	0.075217	0.1489	0.05073	0.082982	0.18866	0.22949	0.19522	-0.11042	-0.42708	-0.64792	-0.0875	-0.89375	-0.59792	-0.08125	-0.84375	-0.35417	-0.38542	-0.89792	-0.12917	-0.8	-0.84167	-0.25	-0.9125	56.591	212.043	-50.399	198.888	157.763	194.655	88.967	163.561	-32.857	147.631	-99.249	245.525	236.865	247.662	162.830	237.220	7.1402e-05	0.00042992	0.00026221	431.44	2.6625e-06	2.2924e-05	603.74	144.26	4.5722e-06	1.6473e-06	251.25	93.833	46.188	19.805	5.8321e-06	46.933	0.0029739	0.0028894	0.00075765	664.78	3.3841e-05	3.1168e-05	824.25	208.42	3.3375e-05	3.0751e-05	345.65	131.85	91.181	30.262	2.8934e-05	62.337	181.598	25.012	-18.495	-91.646	62.475	12.043	-91.783	-86.531	59.247	208.154	-87.033	-82.828	-82.398	-77.509	40.810	-78.128	-8191	255	
3914.855	1	1	0	0	0.16186	0.0173	0.26957	0.17595	0.25195	0.38108	0.37849	0.087306	0.1392	0.086863	0.25509	0.044499	0.071808	0.10622	0.10382	0.20883	0.19375	-0.11042	-0.8	-0.010417	-0.49167	-0.65	0.027083	-0.89583	-0.47708	-0.17708	-0.96042	-0.49792	-0.54167	-0.77917	-0.33958	-1.0146	122.352	149.118	-23.313	123.556	94.343	-95.501	237.318	-55.006	234.329	2.199	-91.115	9.737	20.539	82.752	16.826	215.725	0.00022616	0.0010414	0.00023636	434.42	9.2488e-06	8.8867e-06	609.53	144.91	1.2574e-05	5.7534e-06	253.27	94.997	45.976	19.687	2.1913e-06	47.083	0.0028517	0.0027633	0.00073714	673.75	3.2187e-05	3.0019e-05	825.41	210.86	3.1835e-05	2.9709e-05	347.89	133.82	89.468	30.085	2.9364e-05	63.187	207.670	-89.698	208.165	-91.495	86.793	-99.158	-91.974	-86.412	79.651	77.772	-87.239	-82.674	-82.530	-77.573	163.068	-78.180	-8191	255	
3914.951	1	1	0	0	0.074722	0.10673	0.091083	0.14008	0.080393	0.24428	0.11668	0.126	0.14443	0.23188	0.34077	0.10217	0.25401	0.16677	0.092208	0.1864	0.029167	-0.064583	-0.98542	-0.091667	-0.53542	-0.77083	-0.125	-0.7375	-0.36875	-0.075	-0.98958	-0.1625	-0.41042	-0.51875	-0.095833	-0.82917	11.135	-99.130	-75.340	121.238	-33.951	-0.961	16.069	85.555	82.207	245.718	192.804	215.590	30.191	-84.920	71.119	209.542	0.00018789	0.0013535	0.00021986	436.27	9.0753e-06	1.3689e-05	612.51	145.05	9.0236e-06	4.6521e-06	254.26	95.031	45.97	19.839	1.8473e-05	47.134	0.0027708	0.0027309	0.0007614	681.93	3.1094e-05	2.9407e-05	837.82	212.56	3.0913e-05	2.9127e-05	352.59	134.37	87.959	29.862	3.0655e-05	63.053	246.595	-56.518	174.614	-91.217	20.306	-48.132	-91.760	-86.230	36.518	63.356	-87.318	-82.607	-82.471	-77.468	192.190	-77.986	-8191	255	
3915.045	1	1	0	0	0.23816	0.265	0.1156	0.15946	0.12353	0.16403	0.21301	0.072654	0.026002	0.10961	0.14754	0.10902	0.14973	0.034799	0.24705	0.24197	-0.12917	-0.17083	-0.95833	-0.34583	-0.37917	-0.84583	0.0041667	-0.79583	-0.66875	0.0625	-1.0312	-0.39167	-0.49167	-1.0479	-0.425	-0.89375	164.058	99.651	-88.326	-38.954	202.744	164.510	-69.868	177.080	-21.188	125.919	82.151	194.051	177.529	161.781	-35.185	211.799	0.00010454	0.0013835	0.00018595	438.49	2.3531e-06	4.5594e-06	602.51	144.55	3.1457e-06	5.432e-06	251.54	94.675	46.466	19.685	2.1686e-05	47.031	0.0026632	0.0026723	0.00079626	677.5	3.0317e-05	2.893e-05	842.13	209.55	2.9849e-05	2.8568e-05	354.43	132.48	86.858	29.685	3.1806e-05	62.316	240.780	-66.541	194.327	-91.646	124.170	-4.281	-91.824	-86.204	56.890	-32.298	-87.450	-82.637	-82.389	-77.597	192.092	-78.109	-8191	255	
3915.143	1	1	0	0	0.1592	0.31877	0.079344	0.043321	0.17736	0.15594	0.1724	0.23193	0.2019	0.0989	0.063717	0.091007	0.05999	0.24361	0.31525	0.072236	-0.27083	-0.014583	-0.92292	-0.48542	-0.21458	-1.0479	-0.3375	-0.63542	-0.97292	0.0020833	-0.95208	-0.66458	-0.060417	-0.97708	-0.2125	-0.81667	86.625	104.925	0.501	168.622	232.314	40.815	228.248	-92.982	61.125	31.567	184.732	50.067	20.772	-91.941	9.717	252.427	0.00024939	0.00031278	0.00025189	436.23	1.0945e-06	8.1685e-06	608.55	145.14	8.5217e-06	9.3933e-06	255.91	95.114	46.227	19.813	1.0299e-05	47.166	0.0025936	0.0026576	0.00082449	667.58	2.9494e-05	2.9095e-05	851.8	208.07	2.9231e-05	2.9016e-05	359.31	131.62	86.323	30.122	3.2793e-05	62.124	-73.088	245.640	92.583	-91.772	246.878	12.422	-92.011	-86.257	53.233	173.038	-87.169	-82.849	-82.610	-77.394	173.028	-78.147	-8191	255	
3915.238	1	1	0	0	0.10097	0.044604	0.068475	0.15932	0.076158	0.11091	0.17178	0.27701	0.20582	0.15939	0.20049	0.15169	0.25449	0.39566	0.17232	0.11011	-0.5	-0.064583	-0.75625	-0.56458	-0.18333	-1.0396	-0.28958	-0.39167	-0.9	-0.0625	-0.82917	-0.87917	-0.16875	-0.97083	-0.30417	-0.325	-31.513	140.575	31.818	-49.927	94.950	247.380	202.535	156.774	83.674	-70.917	199.736	178.469	-94.257	-66.036	187.278	20.525	0.00011656	0.00054767	0.00021689	441.22	1.0591e-05	2.0159e-05	615.5	146.06	3.9361e-06	4.2026e-06	257.4	96.352	46.891	19.865	4.0043e-06	47.348	0.0025784	0.0027929	0.00084871	666.75	2.9433e-05	3.0829e-05	863.96	208.46	2.923e-05	3.1119e-05	362.25	131.83	86.504	30.764	3.2415e-05	61.849	209.607	229.828	54.303	-91.946	8.436	199.286	-91.669	-86.127	18.868	245.914	-87.286	-82.857	-82.531	-77.967	11.283	-77.813	-8191	255	
3915.334	1	1	0	0	0.14786	0.26579	0.068866	0.17299	0.16693	0.1105	0.12156	0.4691	0.14379	0.22449	0.35406	0.090082	0.1868	0.044428	0.15984	0.091084	-0.48333	0	-0.75208	-0.67708	-0.10833	-0.79583	-0.3875	-0.25625	-0.8125	-0.22083	-0.53333	-0.90208	-0.1625	-0.97708	-0.55417	-0.38958	-68.371	-13.472	-84.501	-21.695	231.267	66.975	244.162	-97.799	110.989	1.018	238.659	114.840	243.296	179.147	152.910	28.948	0.00019691	0.0011944	0.00050354	440.16	5.5135e-06	4.2501e-06	618.6	146.13	7.9951e-07	4.5284e-06	257.12	95.325	46.106	19.601	1.874e-05	46.952	0.0025152	0.0028862	0.00081691	660.04	2.8555e-05	3.1688e-05	854.97	206.07	2.8459e-05	3.1815e-05	356.45	129.98	85.496	30.772	3.092e-05	60.961	217.650	87.894	27.490	-91.819	-70.948	-76.336	-91.545	-86.294	132.862	165.753	-87.264	-82.519	-82.351	-77.212	43.930	-78.417	-8191	255	
3915.430	1	1	0	0	0.23514	0.11484	0.079481	0.19585	0.14292	0.20013	0.086794	0.11418	0.092787	0.20873	0.11547	0.15672	0.17674	0.19613	0.23687	0.038964	-0.46875	0.0083333	-0.27083	-0.93125	-0.0375	-0.76667	-0.72292	-0.025	-0.87917	-0.24167	-0.65208	-1.0479	-0.15625	-0.92708	-0.6625	-0.43958	-104.633	-102.554	-39.514	-99.684	-99.816	156.505	235.664	-95.897	176.171	-91.175	-8.561	175.051	75.785	-91.223	59.361	162.792	0.00024206	0.00023794	8.8037e-05	438.26	2.9458e-06	1.8278e-05	612.65	145.68	1.0917e-05	7.2923e-06	255.75	95.028	46.043	19.761	6.6492e-06	47.082	0.0025278	0.0029473	0.00077718	649.8	2.8822e-05	3.2217e-05	839.33	203.47	2.8975e-05	3.2127e-05	350.75	128.62	86.412	30.804	2.9372e-05	60.528	209.154	-42.294	-95.066	-91.400	-80.440	32.313	-91.594	-86.692	-40.282	87.240	-87.503	-82.600	-83.220	-77.690	163.866	-78.161	-8191	255	
3915.550	1	1	0	0	0.23607	0.14314	0.22122	0.22198	0.20104	0.051001	0.18838	0.19712	0.1776	0.20764	0.21456	0.378	0.2469	0.27798	0.1608	0.22827	-0.55625	-0.49583	-0.41875	-1.1729	-0.0020833	-0.66667	-0.87917	-0.43125	-1.0167	-0.37708	-0.6125	-1.0396	-0.075	-0.75	-0.475	-0.14167	-45.920	56.199	106.337	194.621	45.527	-1.884	249.914	86.708	10.882	207.163	-94.059	213.513	202.652	242.902	24.223	-91.745	0.00026823	0.00086002	0.00046605	441.19	1.7186e-06	8.2819e-06	614.49	146.02	7.4343e-06	5.1199e-06	257.24	95.468	46.028	19.889	5.1335e-06	47.226	0.002593	0.0029305	0.00074978	646.61	3.0162e-05	3.1808e-05	835.57	203.24	3.044e-05	3.1492e-05	349.88	128.59	88.711	30.706	2.8811e-05	60.75	216.149	20.477	-1.124	-91.445	195.070	57.042	-91.763	-86.524	211.379	-11.475	-87.298	-82.492	-82.851	-77.231	-18.265	-78.285	-8191	255	
3915.647	1	1	0	0	0.046005	0.30119	0.049189	0.10372	0.10613	0.21307	0.19067	0.06133	0.22023	0.1166	0.14137	0.1562	0.17701	0.31273	0.21839	0.28377	-0.4375	-0.20417	-0.16875	-0.87917	0.1125	-0.53958	-0.85	-0.05	-0.96875	-0.3875	-0.32083	-0.74792	-0.17917	-0.5875	-0.95833	-0.28958	146.287	140.081	65.247	188.464	97.985	-37.375	81.191	151.180	-3.934	-8.345	195.458	123.353	158.846	249.745	16.541	210.971	0.00034911	0.00067835	0.00016049	440.9	9.6696e-06	1.9714e-05	620.73	147.32	1.0766e-06	2.9793e-06	257.75	95.577	46.9	20.08	1.3198e-05	47.666	0.002728	0.0028562	0.00073511	649.01	3.135e-05	3.092e-05	835.93	204.48	3.1657e-05	3.0764e-05	349.83	130.01	90.809	30.5	2.8529e-05	61.583	210.349	22.656	-44.970	-91.610	227.865	47.544	-92.130	-86.552	-86.852	65.028	-87.184	-82.667	-82.256	-77.424	20.938	-78.588	-8191	255	
3915.743	1	1	0	0	0.1372	0.38756	0.2518	0.17281	0.069425	0.064742	0.32124	0.072583	0.16843	0.17876	0.23456	0.060912	0.16853	0.11968	0.11193	0.32058	-0.43125	-0.54792	-0.17917	-0.95833	-0.19375	-0.45625	-0.78542	-0.03125	-0.97917	-0.68958	-0.51458	-1.1042	-0.42708	-0.64792	-1.1063	-0.46042	-90.619	239.723	16.861	177.056	172.766	94.756	176.819	236.904	75.150	92.810	19.250	133.849	67.453	89.212	-25.188	171.456	0.00026621	0.00050275	0.00012244	439.55	2.1294e-06	6.6269e-06	617.91	146.56	7.9093e-06	4.0437e-06	257.11	95.396	46.645	19.854	1.0438e-05	47.056	0.0028353	0.0027874	0.00072801	656.86	3.2196e-05	2.9907e-05	829.53	206.26	3.1835e-05	2.9617e-05	345.41	130.81	90.172	29.999	2.7828e-05	61.635	236.531	62.914	-35.061	-91.496	-78.072	11.537	-91.709	-86.514	37.657	96.698	-87.199	-82.478	-82.706	-77.320	54.186	-78.344	-8191	255	
3915.839	1	1	0	0	0.022633	0.17021	0.077915	0.16767	0.1253	0.17096	0.15897	0.3011	0.07433	0.12809	0.23863	0.09948	0.035931	0.33505	0.1385	0.20644	-0.44792	-0.54583	-0.1	-0.89167	-0.37083	-0.2375	-0.81875	-0.064583	-0.99583	-0.74167	-0.46042	-1.1708	-0.28542	-0.25833	-0.81042	-0.28542	246.689	116.050	84.297	197.203	183.303	24.060	163.425	252.718	121.830	202.186	162.797	14.144	112.289	64.410	244.978	-47.021	0.0001704	0.00035201	0.00010054	438.41	1.7185e-05	1.2639e-05	618.51	145.82	8.0331e-06	4.9962e-06	256.59	95.194	46.539	19.84	1.2288e-05	47.106	0.0027656	0.0026767	0.0007098	663.01	3.1485e-05	2.8994e-05	824.4	208.4	3.111e-05	2.892e-05	344.32	132.36	88.88	29.801	2.8184e-05	62.5	192.438	-38.135	-91.349	-91.714	-31.951	44.394	-91.554	-86.286	77.168	67.754	-87.290	-82.531	-82.980	-77.783	134.469	-78.422	-8191	255	
3915.935	1	1	0	0	0.26426	0.13202	0.045946	0.067279	0.27031	0.10353	0.062152	0.11225	0.17989	0.13505	0.1346	0.17882	0.22568	0.34678	0.30403	0.15948	-0.23333	-0.72292	-0.25833	-0.78125	-0.46875	-0.325	-1.1208	-0.13542	-0.51042	-0.85833	-0.0875	-0.75833	-0.64167	-0.25	-0.77083	-0.4	242.197	-44.834	41.861	200.326	-45.113	147.296	83.148	217.064	120.913	-10.237	192.855	240.965	242.761	241.735	68.918	201.104	0.00012298	0.00095594	0.00011462	442.91	7.3125e-06	1.1555e-05	614.36	146.14	5.7995e-06	6.4814e-06	255.73	95.841	47.358	19.975	1.7812e-05	47.67	0.0027277	0.0026711	0.00072703	680.52	3.1179e-05	2.915e-05	837.57	212.62	3.1112e-05	2.9641e-05	352.03	135.91	90.199	30.291	3.1355e-05	64.254	183.588	-40.107	214.283	-91.748	68.197	-6.456	-91.705	-86.517	42.560	28.695	-87.444	-82.682	-83.006	-77.200	189.759	-78.076	-8191	255	
3916.031	1	1	0	0	0.16207	0.11649	0.23078	0.11656	0.070047	0.20901	0.12982	0.10744	0.094306	0.037126	0.22509	0.084739	0.17358	0.18901	0.11002	0.32712	-0.18958	-0.83542	-0.26458	-0.96042	-0.72708	-0.095833	-1.2062	-0.5125	-0.43333	-0.77917	-0.089583	-0.75625	-0.6625	-0.21042	-0.99167	-0.41667	203.581	120.995	250.265	235.509	21.547	-58.864	221.795	157.763	193.827	110.706	173.776	-64.347	132.482	186.364	-42.839	112.145	0.00011955	0.0016693	0.00023314	442.67	5.8906e-06	1.822e-05	617.07	146.37	4.4191e-06	3.152e-06	255.67	97.294	46.862	19.938	1.197e-05	47.798	0.0028395	0.0028426	0.00081392	702.76	3.2373e-05	3.0491e-05	868.49	217.9	3.2118e-05	3.1233e-05	364.38	138.19	91.278	30.619	3.4221e-05	64.531	235.323	-35.860	87.937	-91.669	172.054	-88.937	-91.598	-86.399	10.699	86.963	-87.115	-82.674	-82.719	-77.554	216.743	-78.188	-8191	255	
3916.150	1	1	0	0	0.2072	0.14034	0.050999	0.34907	0.17749	0.072576	0.18387	0.12969	0.074329	0.23493	0.18635	0.20953	0.33841	0.12747	0.09814	0.14552	0	-0.97708	-0.15625	-0.72083	-0.8	-0.13125	-0.89792	-0.26667	-0.18125	-0.86042	-0.22292	-0.78958	-0.68125	-0.00625	-0.91458	-0.74167	-45.791	126.469	27.164	185.308	-74.731	166.588	-79.027	167.533	-38.647	-72.817	76.542	165.270	-60.509	18.058	211.207	-68.314	9.2114e-05	0.00047037	0.00035239	444.55	4.0699e-06	1.2226e-05	616.73	147.51	9.032e-06	7.3042e-06	255.22	96.055	46.466	19.724	1.2656e-05	47.395	0.0028037	0.0028669	0.00087333	696.85	3.2124e-05	3.0613e-05	879.32	215.63	3.1781e-05	3.1353e-05	367.64	135.75	90.102	30.617	3.5748e-05	63.676	-103.023	-32.682	104.378	-91.572	31.748	236.294	-91.847	-86.300	48.882	179.297	-87.116	-82.710	-82.135	-77.372	230.031	-78.055	-8191	255	
3916.246	1	1	0	0	0.1195	0.28758	0.47154	0.080047	0.25604	0.23125	0.26265	0.25876	0.078223	0.18402	0.2946	0.028496	0.13831	0.22596	0.061903	0.19709	0.00625	-0.78125	-0.17708	-0.62083	-0.75833	-0.14583	-1.0187	-0.68958	-0.10417	-1.0875	-0.38542	-0.66667	-1.0271	-0.13542	-0.75625	-0.94375	213.855	178.066	-57.782	-92.400	7.451	-12.885	254.235	143.506	-83.751	189.444	218.309	165.504	211.793	191.681	248.257	206.997	0.00031274	0.00085009	0.00021909	445.66	9.6016e-06	1.4542e-05	615.77	146.16	1.4102e-06	8.96e-06	256.33	95.869	46.697	19.685	5.2739e-06	47.208	0.0027769	0.0029867	0.00091772	690.25	3.2316e-05	3.2496e-05	891.83	214.89	3.194e-05	3.3897e-05	373.72	135.33	90.957	31.463	3.6808e-05	63.539	-103.411	52.640	-15.985	-91.784	31.806	215.479	-91.838	-86.421	-20.756	201.351	-87.389	-82.787	-82.918	-77.960	6.331	-78.444	-8191	255	
3916.342	1	1	0	0	0.11215	0.17259	0.088436	0.25992	0.15823	0.21232	0.12266	0.070067	0.13034	0.22698	0.093308	0.17195	0.0032073	0.14895	0.25729	0.24113	0.22292	-0.85625	-0.14792	-0.49583	-1.0333	-0.27292	-0.99375	-0.90625	-0.20208	-1.0417	-0.63125	-0.54375	-1.1854	-0.21875	-0.76875	-0.86458	139.387	242.953	156.089	164.100	119.865	124.480	127.424	-53.517	53.548	224.948	238.400	-70.479	111.614	1.318	80.895	-77.028	0.00010372	0.00014841	0.00021885	441.64	5.0356e-06	1.8212e-05	618.15	145.98	9.7835e-06	7.6793e-06	257.53	95.585	46.677	19.74	2.0492e-05	47.763	0.0028097	0.0032374	0.00093876	689.41	3.2759e-05	3.5238e-05	893.92	215.23	3.2201e-05	3.6327e-05	374.18	135.36	91.753	32.466	3.6283e-05	63.728	177.183	67.610	-7.670	-91.252	221.547	224.766	-91.628	-86.527	-6.323	160.956	-87.263	-82.715	-82.767	-77.580	-10.118	-78.550	-8191	255	
3916.414	1	1	0	0	0.23701	0.062692	0.20363	0.22886	0.11779	0.046284	0.21938	0.049512	0.18292	0.20502	0.10248	0.31074	0.14407	0.060502	0.1863	0.23301	-0.15417	-0.97292	-0.53958	-0.27292	-0.97917	-0.38542	-0.81458	-0.97083	-0.35625	-1.0438	-0.55417	-0.23125	-0.925	-0.45208	-0.40833	-1.0667	248.967	235.307	1.576	133.743	194.116	205.496	24.974	164.111	169.695	241.534	77.685	221.866	-35.158	-33.316	237.115	75.550	0.00028679	0.00045938	0.00027407	439.36	5.4726e-06	1.4972e-05	623.17	146.07	1.63e-06	4.067e-06	258.06	96.521	45.963	19.933	2.0599e-05	47.425	0.002858	0.0034074	0.00092007	685.97	3.3055e-05	3.7078e-05	884.33	213.86	3.2999e-05	3.742e-05	370.55	135.03	92.747	32.944	3.4871e-05	63.373	197.394	194.246	-80.586	-91.212	191.964	155.434	-91.814	-86.521	152.427	-15.674	-87.286	-82.809	-82.917	-77.768	28.518	-78.266	-8191	255	
3916.535	1	1	0	0	0.20565	0.23646	0.14874	0.062366	0.19507	0.17968	0.2696	0.14506	0.13649	0.13041	0.098966	0.2306	0.18575	0.19876	0.037943	0.29675	0.31042	-0.80833	-0.79375	-0.34167	-1.1021	-0.46875	-0.76042	-1.1479	-0.39792	-0.8875	-0.94375	-0.16042	-0.91667	-0.41667	-0.41458	-1.0938	95.811	74.512	209.673	185.094	-16.522	-78.483	224.510	39.631	15.833	-9.278	163.250	-101.686	146.208	-63.274	29.478	174.488	0.00029114	0.00092928	0.00039316	437.85	5.2974e-06	1.4725e-05	612.53	144.61	1.3565e-05	1.3279e-05	253.53	95.052	45.856	19.762	1.3596e-05	46.986	0.0029654	0.0034753	0.00089029	679.78	3.4627e-05	3.7913e-05	870.89	211.15	3.4888e-05	3.7772e-05	363.42	133.32	95.046	32.768	3.4309e-05	62.853	208.617	87.993	-35.299	-91.330	234.971	131.248	-91.440	-86.427	-92.505	-37.363	-87.477	-82.228	-82.853	-77.432	135.124	-78.198	-8191	255	
3916.631	1	1	0	0	0.11364	0.10815	0.086565	0.17757	0.12923	0.090799	0.1681	0.13626	0.12672	0.35281	0.28428	0.17511	0.13185	0.083784	0.075785	0.020961	0.15417	-0.82917	-0.5375	-0.18542	-0.87292	-0.4375	-0.47708	-0.96667	-0.37917	-0.67083	-0.8875	-0.21875	-1.0812	-0.53958	-0.29583	-1.125	-43.087	7.556	-0.660	226.064	189.386	-103.292	213.584	240.610	-18.460	-40.339	-76.310	-79.281	-57.238	41.689	13.565	157.308	0.00044225	0.0018975	0.00025016	432.04	6.4844e-06	3.2877e-05	609.26	143.84	1.0493e-05	1.3812e-05	252.9	94.362	45.533	19.839	1.3087e-05	47.068	0.0031685	0.0034401	0.00087095	675.32	3.6654e-05	3.7203e-05	864.55	211.34	3.7076e-05	3.7129e-05	362.76	133.87	98.198	32.659	3.3997e-05	63.61	215.623	17.662	-96.812	-91.525	205.694	-11.888	-91.543	-86.463	236.543	-32.603	-87.341	-82.413	-82.410	-77.494	26.497	-78.122	-8191	255	
3916.727	1	1	0	0	0.06211	0.25502	0.13378	0.40571	0.14326	0.095572	0.19311	0.15128	0.22948	0.25589	0.43423	0.33447	0.095581	0.25355	0.17271	0.24252	0.1375	-0.6625	-0.89167	-0.32708	-1.0854	-0.63125	-0.38958	-0.84167	-0.10833	-0.34167	-0.92917	-0.058333	-0.9	-0.575	-0.26875	-1.1292	184.521	-40.904	218.878	-55.395	172.955	25.410	246.690	-85.534	160.916	133.454	-82.099	151.285	-93.250	-25.801	88.620	229.182	0.00014101	0.0002252	0.00019979	435.08	2.941e-06	2.4267e-05	614.05	143.75	5.2335e-06	5.9046e-06	254.32	95.16	45.844	20.004	3.3321e-06	47.496	0.0033612	0.0033777	0.00087509	688.35	3.865e-05	3.6585e-05	866.52	214.47	3.8703e-05	3.6199e-05	363.4	136.58	99.285	32.408	3.378e-05	64.639	183.092	-71.582	217.104	-91.477	192.352	34.299	-91.642	-86.093	-98.418	-65.585	-87.192	-82.422	-82.114	-77.472	84.953	-78.106	-8191	255	
3916.823	1	1	0	0	0.077752	0.05094	0.11577	0.17678	0.018313	0.27549	0.229	0.28818	0.17345	0.13143	0.03405	0.31259	0.081026	0.17354	0.073134	0.20062	-0.0375	-0.375	-0.8125	-0.091667	-0.53125	-0.63542	-0.2375	-0.86667	-0.35625	-0.54583	-1.2229	-0.16042	-0.74792	-0.725	0.19792	-0.92708	245.150	-74.726	32.210	-18.926	12.672	251.730	161.554	-42.970	225.579	-80.329	212.784	205.233	73.884	-17.137	53.841	-19.312	0.00011575	0.00066721	0.00042297	434.93	4.8389e-06	2.5089e-05	612.92	144.41	4.5715e-06	1.8757e-05	254.26	94.762	46.445	19.744	1.4536e-05	46.775	0.0034084	0.0032824	0.00086748	705.61	3.8933e-05	3.6006e-05	868.07	220.08	3.8796e-05	3.567e-05	364.07	139.04	99.086	32.085	3.3878e-05	65.307	-86.455	42.984	-37.664	-91.879	16.396	-37.018	-91.716	-86.165	7.412	5.445	-87.105	-83.012	-82.811	-77.362	-89.789	-78.263	-8191	255	
3916.944	1	1	0	0	0.02404	0.011617	0.13375	0.19499	0.38102	0.16819	0.064731	0.11374	0.12097	0.12197	0.25249	0.17021	0.17732	0.1908	0.062824	0.087985	0.083333	-0.25	-0.69583	-0.04375	-0.52917	-0.82083	-0.37083	-1.2292	-0.55417	-0.52708	-1.1417	-0.4125	-0.775	-1.0604	-0.13125	-1.175	173.675	-98.444	-52.195	-90.907	-59.632	-100.101	-89.416	-18.897	41.656	197.031	111.648	-65.846	-69.394	166.465	-25.018	181.416	0.000171	0.00097536	0.00015891	429.96	4.2692e-06	9.9464e-06	607.87	142.65	1.0951e-05	4.8463e-06	250.19	93.497	45.937	19.661	1.5564e-05	46.67	0.0033598	0.0032469	0.00087129	715.97	3.7986e-05	3.5441e-05	863.92	221.71	3.7808e-05	3.5264e-05	363.08	139.96	97.204	31.834	3.5218e-05	65.88	190.946	-18.486	67.655	-91.756	17.018	-0.858	-91.497	-86.045	101.202	-66.363	-87.624	-82.638	-81.968	-77.740	196.363	-78.319	-8191	255	
3917.015	1	1	0	0	0.14871	0.38255	0.2591	0.094016	0.18768	0.10802	0.037566	0.202	0.37687	0.27059	0.22677	0.20187	0.080886	0.12573	0.16895	0.24705	-0.34583	-0.25	-0.84167	-0.225	-0.60208	-0.80625	-0.091667	-0.77083	-0.27708	-0.14375	-1.0542	-0.61458	-0.42292	-1.1063	-0.15208	-0.93542	78.395	-40.286	-75.081	34.952	21.393	-17.090	144.948	242.176	-8.076	196.768	197.733	248.715	231.462	-51.493	-45.773	215.266	0.00015958	0.000847	0.00044683	430.82	4.5813e-06	8.7728e-06	604.03	142.96	7.6154e-06	5.1067e-06	250.08	93.963	45.929	19.707	2.1339e-05	46.689	0.003278	0.0032141	0.00091136	722.81	3.702e-05	3.498e-05	876.02	223.41	3.6903e-05	3.5094e-05	369.82	140.94	95.791	31.676	3.7163e-05	65.95	-75.812	-38.255	108.784	-91.555	37.720	-96.577	-91.624	-86.350	13.172	46.644	-87.175	-82.648	-82.691	-77.578	207.822	-77.777	-8191	255	
3917.112	1	1	0	0	0.30889	0.23527	0.074255	0.22318	0.20034	0.20225	0.086793	0.18258	0.29818	0.050932	0.25036	0.31822	0.27585	0.10583	0.20255	0.17906	-0.21458	-0.025	-0.88333	-0.32917	-0.41458	-1.2125	-0.14375	-0.74583	-0.6875	-0.42917	-1.3708	-0.81042	-0.52917	-1.1688	-0.25625	-0.70208	44.355	70.200	132.192	180.476	229.873	82.585	244.979	-32.003	22.214	194.518	-67.624	-91.297	231.884	84.465	-97.948	159.134	0.0002713	0.00026632	0.00010944	435.55	9.3862e-06	2.8734e-06	601.93	142.56	9.9961e-07	1.105e-06	250.42	94.416	45.525	19.609	2.926e-05	46.844	0.0032248	0.0032058	0.00097263	725.44	3.6722e-05	3.5397e-05	895.55	222.55	3.6748e-05	3.5317e-05	377.36	140.39	95.922	32.112	4.0184e-05	65.988	240.467	80.475	142.727	-91.490	35.375	108.005	-91.770	-86.211	233.413	97.033	-87.445	-82.476	-82.650	-77.539	202.646	-77.843	-8191	255	
3917.232	1	1	0	0	0.10467	0.066633	0.12902	0.21836	0.21469	0.24388	0.35478	0.11025	0.064012	0.078312	0.29799	0.29218	0.34265	0.31403	0.095091	0.21933	-0.5625	-0.22292	-0.98542	-0.81667	-0.39792	-1.1688	-0.22708	-0.625	-0.74583	-0.32083	-1.025	-0.75833	-0.25625	-1.0187	-0.50208	-0.6	16.669	-31.385	-54.064	-88.152	240.784	153.950	124.425	-68.922	76.052	-39.279	-97.815	251.020	-23.268	184.821	-94.146	220.973	4.6684e-05	0.0007707	0.00035643	434.66	7.2416e-06	1.6318e-05	605.28	141.58	4.2704e-07	9.9518e-06	249.35	93.434	45.271	19.543	1.0103e-05	46.451	0.0032526	0.003344	0.0010457	722.16	3.6845e-05	3.6736e-05	909.08	219.77	3.6576e-05	3.6683e-05	380.21	138.13	94.374	32.421	4.0868e-05	64.72	132.002	206.316	120.339	-91.465	60.872	151.235	-91.806	-86.041	121.106	176.221	-87.113	-82.693	-82.191	-77.739	-21.708	-78.394	-8191	255	
3917.327	1	1	0	0	0.22418	0.20771	0.10626	0.16309	0.18242	0.15423	0.24428	0.089486	0.29866	0.37552	0.23531	0.052137	0.18145	0.18241	0.083574	0.09661	-0.70417	-0.32917	-0.76458	-0.58542	-0.13333	-1.0875	-0.47292	-0.6625	-1.0812	-0.30833	-1.0417	-0.8125	-0.15	-0.975	-0.18542	-0.26458	16.969	140.683	-56.399	187.182	141.942	-66.258	213.598	-5.112	68.003	133.121	67.337	234.541	251.764	27.685	-96.024	200.552	8.0115e-05	0.0016498	0.00018874	426.95	5.1518e-06	2.7825e-05	597.59	140.13	9.2171e-06	1.313e-05	246.67	92.484	44.938	19.296	9.8094e-06	46.015	0.0031938	0.0034547	0.0010482	705.01	3.6092e-05	3.8388e-05	903.83	215.46	3.6055e-05	3.8761e-05	376.73	136.32	93.288	32.937	4.011e-05	64.024	-55.316	112.754	-48.220	-91.661	221.487	157.685	-91.461	-86.312	39.917	157.907	-87.252	-82.486	-82.475	-77.562	49.464	-78.313	-8191	255	
3917.423	1	1	0	0	0.21715	0.11381	0.044959	0.050125	0.039939	0.11159	0.28592	0.40374	0.14566	0.22113	0.25618	0.20378	0.12885	0.12471	0.077761	0.2676	-0.58333	-0.22083	-0.76667	-1.1	-0.33542	-1.0812	-0.49167	-0.3	-1.0562	-0.23542	-0.75833	-1.0521	-0.43542	-1.1417	-0.71667	-0.33958	228.603	-2.153	179.178	7.944	85.044	-26.915	-86.317	181.573	-28.496	8.938	176.763	81.656	161.822	210.031	213.120	216.589	0.00012136	5.7561e-05	0.00024229	427.62	8.6402e-06	1.6827e-05	598.59	140.02	3.7685e-06	8.8064e-06	248.39	92.043	43.979	19.344	2.2516e-05	46.027	0.0031479	0.0036459	0.0010227	699.61	3.5911e-05	4.031e-05	896.26	214.27	3.6121e-05	4.0719e-05	374.13	135.89	94.546	33.652	3.9395e-05	63.846	200.134	207.749	210.150	-91.564	-74.504	201.529	-91.747	-86.252	-57.453	77.737	-87.385	-82.451	-82.167	-77.262	18.880	-78.087	-8191	255	
3917.543	1	1	0	0	0.21857	0.15938	0.052289	0.18265	0.20403	0.11888	0.27458	0.42777	0.17288	0.29304	0.18781	0.22703	0.27457	0.1039	0.21161	0.11659	-0.65417	-0.14167	-0.51042	-0.85	-0.12292	-0.88542	-0.76875	-0.30208	-0.9625	-0.27292	-0.64583	-1.0604	-0.047917	-0.68958	-0.66458	-0.38542	30.952	168.077	-16.432	-100.917	-94.824	-53.307	210.388	188.137	4.633	16.905	171.623	-1.344	46.075	121.212	70.775	-77.814	0.00027746	0.0002915	0.00067565	424.18	9.1143e-06	1.1498e-05	600.38	139.86	7.2838e-06	2.299e-06	247.69	92.726	44.027	19.533	1.1931e-05	46.073	0.0032558	0.0038248	0.0010055	698.7	3.7586e-05	4.2029e-05	889.34	214.03	3.8018e-05	4.184e-05	370.53	135.7	97.331	33.891	3.8552e-05	63.815	205.991	83.401	-36.172	-91.551	-95.276	174.854	-91.365	-85.837	-97.957	82.100	-87.573	-82.531	-82.685	-77.529	41.069	-77.950	-8191	255	
3917.640	1	1	0	0	0.11665	0.13584	0.062307	0.29922	0.055823	0.069519	0.18401	0.3033	0.35294	0.097634	0.13042	0.34508	0.067331	0.040682	0.23323	0.15068	-0.53333	-0.30417	-0.23333	-1.1167	-0.10833	-0.6875	-0.77917	0.06875	-0.93958	-0.3375	-0.5125	-0.96458	-0.2125	-1.0604	-0.75833	-0.22292	130.169	46.654	-72.944	189.524	-62.210	233.388	-74.120	127.609	15.938	16.662	148.252	-87.456	123.352	127.033	-79.931	189.247	0.00029345	0.0011713	0.00028697	427.28	7.2827e-06	2.8449e-05	597.29	139.95	1.2405e-05	1.2474e-05	245.72	91.021	43.479	19.237	1.034e-05	45.584	0.0034388	0.0038479	0.00098114	696.93	3.9867e-05	4.208e-05	885.56	214.02	4.0979e-05	4.2378e-05	370.94	136.28	101.83	34.006	3.9656e-05	64.04	202.008	27.810	25.342	-91.062	216.602	-4.994	-91.824	-86.301	233.137	-5.755	-87.153	-82.787	-82.438	-77.702	56.957	-78.093	-8191	255	
3917.711	1	1	0	0	0.19155	0.17751	0.017924	0.086548	0.18292	0.065844	0.26466	0.20988	0.25758	0.14081	0.37008	0.043585	0.11994	0.15374	0.42016	0.10323	-0.575	-0.54167	-0.42292	-1.2021	-0.36875	-0.69375	-1.1146	-0.42292	-0.85625	-0.65	-0.41667	-1.0146	-0.24792	-0.50417	-0.94583	-0.32708	220.047	-71.601	184.658	-70.893	15.376	-26.221	78.948	218.929	22.672	54.773	184.918	104.619	27.905	-99.529	129.859	165.774	0.00030183	0.00072707	0.00034499	420.56	1.8409e-05	4.0174e-05	589.56	136.52	4.0944e-06	1.2096e-05	242.14	90.594	43.811	19.256	1.0493e-05	45.466	0.0038047	0.0039396	0.0010134	707.33	4.3681e-05	4.2728e-05	886.69	215.2	4.4066e-05	4.2235e-05	368.59	137.76	105.28	33.923	4.0306e-05	65.096	202.829	-59.818	-27.666	-91.643	184.031	-8.312	-91.594	-86.438	-95.328	11.165	-87.109	-82.494	-82.424	-77.527	70.933	-77.853	-8191	255	
3917.832	1	1	0	0	0.17036	0.17426	0.085819	0.33823	0.26382	0.069033	0.30798	0.2413	0.26146	0.16876	0.13838	0.27252	0.11934	0.28473	0.1414	0.16102	-0.65417	-0.50833	-0.28958	-0.85417	-0.3625	-0.55833	-1.1521	-0.29792	-0.8875	-0.81042	-0.44583	-1.0063	-0.54167	-0.40833	-1.0208	-0.10833	13.581	29.576	224.686	-92.928	119.407	-26.764	224.387	238.870	-25.403	170.363	198.050	-93.455	16.396	250.692	164.161	34.818	0.00027642	0.00078075	0.00013004	419.24	3.5453e-06	2.6615e-05	593.11	136.95	1.7452e-05	1.1165e-05	242.58	90.846	43.69	19.111	1.3429e-05	45.598	0.0039908	0.0039314	0.0010313	730.24	4.613e-05	4.3243e-05	897.12	223.42	4.673e-05	4.3577e-05	373.57	142.97	107.94	34.183	4.1582e-05	67.117	231.510	-58.058	-7.349	-91.439	25.708	146.611	-91.611	-86.409	69.778	10.785	-87.277	-82.620	-82.534	-77.031	37.005	-78.071	-8191	255	
3917.928	1	1	0	0	0.093817	0.20576	0.068135	0.27001	0.30078	0.14354	0.067063	0.34306	0.29216	0.2409	0.26898	0.28947	0.11615	0.10856	0.09541	0.32238	-0.30208	-0.55833	-0.19375	-0.94792	-0.57917	-0.41875	-1.1562	-0.125	-0.69792	-0.77708	-0.18333	-1.0021	-0.29792	-0.34375	-0.81458	-0.325	-102.770	-33.211	-20.084	157.653	31.806	110.056	-12.733	122.323	158.031	63.467	-91.437	-101.951	196.245	239.876	239.351	170.648	3.4826e-05	0.00064306	0.0001255	420.31	7.5514e-06	1.531e-05	590.32	136.37	1.7027e-05	6.6558e-06	240.46	89.731	44.215	19.3	1.0909e-05	45.472	0.0040896	0.0039826	0.0010534	751.07	4.638e-05	4.3415e-05	902.69	228.63	4.6758e-05	4.446e-05	377.81	146.6	108.25	34.487	4.3289e-05	68.028	-38.078	-9.966	-13.251	-91.373	18.752	29.948	-91.610	-86.469	75.063	15.560	-87.393	-82.454	-82.079	-77.407	-16.392	-78.073	-8191	255	
3918.024	1	1	0	0	0.29623	0.14378	0.14478	0.28482	0.29134	0.23584	0.060657	0.31452	0.18649	0.14925	0.18359	0.33527	0.078407	0.1768	0.14961	0.11277	-0.225	-0.65208	0.066667	-0.89375	-0.39375	-0.19583	-0.97917	-0.24375	-0.64167	-1.0292	-0.23958	-1.0729	-0.575	-0.31875	-1.0583	-0.46042	-9.418	250.837	-3.634	159.880	-93.107	63.395	-57.486	214.547	-98.165	174.617	77.071	225.808	123.243	246.819	218.713	-98.873	0.00016242	0.00037124	0.00027581	411.7	4.3687e-06	1.5018e-05	575.09	134.47	7.2139e-06	1.8233e-05	235.12	89.079	43.015	18.935	2.2612e-05	44.75	0.004013	0.0039988	0.0010792	755.89	4.5167e-05	4.2928e-05	900.7	228.67	4.4955e-05	4.3357e-05	374.49	144.33	104.39	33.607	4.3583e-05	67.302	-81.549	-32.076	114.301	-91.705	-24.660	-45.743	-91.976	-86.035	43.267	31.778	-87.260	-82.185	-82.637	-77.386	159.758	-78.360	-8191	255	
3918.120	1	1	0	0	0.17712	0.16735	0.3069	0.19	0.086248	0.086285	0.12466	0.24839	0.22022	0.092573	0.053295	0.2108	0.10249	0.080774	0.14453	0.41847	-0.029167	-0.90417	-0.1375	-0.75	-0.74583	-0.3	-1.1583	-0.17083	-0.61458	-0.96667	-0.4625	-0.9625	-0.55	-0.35208	-1.0125	-0.57083	-50.263	-26.920	8.055	-67.029	249.848	45.652	-24.620	199.220	-21.715	254.634	87.096	128.516	75.611	243.519	79.419	184.057	0.00021953	0.0015576	0.00018503	408.56	5.7952e-06	6.0177e-06	571.61	134.61	4.0351e-06	7.2518e-06	237.06	90.191	43.703	19.238	1.5407e-05	45.431	0.0038655	0.003905	0.0011159	750.78	4.4244e-05	4.2107e-05	905.57	227.2	4.3699e-05	4.2413e-05	380.06	143.79	103	33.507	4.5247e-05	67.205	-103.903	2.535	253.854	-91.394	96.000	32.773	-91.242	-86.223	24.365	137.700	-86.930	-82.383	-82.865	-77.246	209.177	-77.933	-8191	255	
3918.239	1	1	0	0	0.3179	0.13657	0.26444	0.13375	0.13265	0.23874	0.2643	0.32436	0.2283	0.062279	0.077014	0.086944	0.24306	0.21424	0.068624	0.31094	-0.14167	-0.93958	-0.11458	-0.56875	-0.85	-0.13542	-0.925	-0.77917	-0.52292	-1.0562	-0.33125	-0.69792	-0.66667	0.010417	-1.0063	-0.85208	-64.208	-72.371	99.006	55.511	30.695	11.506	-21.207	170.845	102.256	70.898	247.789	159.584	75.272	162.487	213.503	142.507	9.9421e-05	0.00094357	0.00035217	412.98	6.1013e-06	7.1291e-06	580.64	136.03	1.0568e-05	1.3332e-05	238.37	90.823	43.582	19.118	8.8682e-06	45.781	0.0037799	0.0038552	0.0011636	750.61	4.3876e-05	4.2573e-05	931.17	227.35	4.345e-05	4.322e-05	391.7	144.61	103.86	34.118	4.7321e-05	67.259	-87.733	198.944	93.329	-91.247	102.649	166.696	-91.789	-86.416	46.254	236.440	-87.255	-82.437	-82.256	-77.216	215.859	-77.928	-8191	255	
3918.311	1	1	0	0	0.35921	0.12878	0.17765	0.0080107	0.076389	0.1988	0.25269	0.10631	0.15847	0.2032	0.14924	0.17619	0.035612	0.12701	0.21652	0.23943	-0.17083	-0.90208	-0.22708	-0.75833	-1.1063	-0.225	-0.95625	-0.75	-0.26458	-1.0958	-0.53333	-0.56042	-1.1125	-0.32917	-0.83125	-0.91042	193.943	38.926	-32.399	26.883	116.856	65.887	-101.880	196.275	11.510	-49.824	48.475	165.739	103.485	-30.800	136.006	150.993	7.7174e-05	0.00038318	6.5216e-05	418.21	9.9982e-06	1.5492e-05	587.94	136.53	1.0539e-05	1.721e-05	241.32	91.213	44.135	19.388	1.7803e-05	45.494	0.0037441	0.0039755	0.0012034	742.59	4.2623e-05	4.3314e-05	937.28	224.82	4.1791e-05	4.362e-05	389.8	141.62	100.55	34.213	4.5133e-05	66.016	168.067	-40.349	132.927	-91.082	115.558	117.141	-91.792	-85.970	81.813	233.214	-87.216	-82.096	-82.174	-77.128	25.702	-78.264	-8191	255	
3918.407	1	1	0	0	0.28357	0.13694	0.13084	0.19904	0.10722	0.11456	0.11227	0.078654	0.33771	0.23305	0.16037	0.081667	0.25522	0.032555	0.32835	0.065849	0.0020833	-1.0375	-0.34375	-0.46042	-0.89792	-0.31667	-0.71458	-0.71042	-0.0625	-0.875	-0.36458	-0.21458	-0.93542	-0.17292	-0.69167	-0.61667	222.264	189.712	-101.192	227.734	17.145	-64.395	-88.304	133.136	-52.185	155.727	200.343	55.437	-28.378	150.714	-56.066	129.895	0.00021955	0.0022288	0.00035091	415.85	1.4346e-05	2.4935e-05	584.52	135.76	7.0656e-06	5.9871e-06	242.07	91.062	44.053	19.042	2.7113e-05	45.688	0.0035051	0.0039456	0.0011242	716.9	3.9339e-05	4.224e-05	904.37	216.55	3.8019e-05	4.2061e-05	374.48	136.19	95.922	33.571	4.0702e-05	63.894	-99.051	126.862	-58.578	-91.455	44.764	175.496	-91.310	-86.171	146.486	217.092	-87.480	-82.203	-82.834	-76.980	5.214	-77.988	-8191	255	
3918.503	1	1	0	0	0.032821	0.058157	0.38209	0.13657	0.11793	0.18235	0.050756	0.39992	0.24042	0.38372	0.10563	0.066841	0.37111	0.1526	0.099138	0.15309	0.58958	-0.70625	-0.37292	-0.25625	-1.0875	-0.26458	-0.96458	-0.90833	-0.22708	-0.98542	-0.625	-0.25417	-0.9	-0.2125	-0.39583	-0.84792	160.275	235.309	114.766	233.248	193.181	246.916	108.333	228.865	234.594	83.506	45.462	121.292	-36.981	-102.521	43.561	222.864	0.00037838	0.0011941	0.00027632	415.53	5.9021e-06	1.5675e-05	589.88	138.54	1.4382e-05	1.1301e-05	245	92.098	44.544	19.43	5.0598e-06	46.147	0.0032513	0.003797	0.001014	689.34	3.6774e-05	4.0549e-05	878.22	211.6	3.6136e-05	4.0376e-05	364.93	133.76	94.822	33.328	3.7101e-05	63.107	204.263	79.082	39.651	-91.212	185.804	-102.348	-91.353	-86.398	-80.986	161.363	-86.981	-82.441	-82.287	-77.005	9.006	-77.935	-8191	255	
3918.624	1	1	0	0	0.13874	0.33247	0.27595	0.20546	0.11398	0.15618	0.092572	0.39813	0.32847	0.12704	0.10422	0.23581	0.11597	0.10758	0.12081	0.10906	0.45417	-0.67083	-0.40833	-0.22708	-0.93333	0	-0.5	-0.87292	-0.12292	-0.65625	-0.63958	-0.13958	-1.0333	-0.38542	-0.3375	-1.1646	-91.904	-15.065	26.937	156.602	-40.516	108.657	82.942	233.730	254.000	77.220	-60.693	36.094	-66.056	-23.498	-81.326	221.045	0.00049297	0.0029816	0.00014969	422.63	1.4829e-05	9.1904e-06	595.07	139.82	6.5254e-06	1.5383e-05	244.81	91.986	44.345	19.782	6.132e-06	46.585	0.0032007	0.0036642	0.0009424	678.86	3.7009e-05	3.9262e-05	864.68	209.72	3.6671e-05	3.8989e-05	360.89	132.74	96.316	33.092	3.5488e-05	63.22	204.921	-44.927	-20.756	-91.324	212.810	-56.078	-91.204	-85.918	-62.183	38.050	-86.965	-82.134	-82.242	-77.161	51.566	-78.163	-8191	255	
3918.720	1	1	0	0	0.062781	0.092359	0.25222	0.11044	0.18834	0.16938	0.02991	0.053816	0.18871	0.12761	0.12674	0.16477	0.057868	0.071649	0.18561	0.54823	0.27917	-0.60208	-0.62708	-0.09375	-0.875	-0.5	-0.39167	-1.1458	-0.10208	-0.65625	-0.81667	-0.13125	-0.68125	-0.35208	-0.10833	-1.0354	-70.661	51.879	-68.903	65.308	-67.544	-6.420	-32.860	162.626	-70.028	-96.755	147.424	178.306	29.328	-81.965	242.838	193.526	0.00029544	0.0011397	0.00052822	427.01	7.1335e-06	1.4229e-05	596.43	140.76	6.9156e-06	4.3639e-06	246.37	93.233	44.439	19.815	1.3627e-05	46.384	0.0033024	0.0035414	0.00091495	680.25	3.8596e-05	3.835e-05	863.63	211.32	3.8183e-05	3.7736e-05	358.98	133	97.015	32.346	3.3527e-05	62.709	212.325	-30.445	-58.637	-91.613	196.646	43.359	-91.467	-85.993	253.773	40.150	-87.000	-82.449	-82.045	-77.334	50.968	-78.011	-8191	255	
3918.816	1	1	0	0	0.10252	0.13638	0.14493	0.097444	0.25211	0.26749	0.21973	0.05831	0.13331	0.11568	0.14078	0.3714	0.24283	0.38126	0.18365	0.13602	-0.052083	-0.52917	-0.5625	-0.10625	-0.57917	-0.43125	-0.13958	-0.84583	-0.052083	-0.4125	-0.725	-0.033333	-0.63542	-0.56042	-0.14583	-0.775	-3.324	11.288	-67.201	235.064	-15.885	-54.372	52.743	16.311	120.187	9.925	178.138	158.661	149.525	175.814	176.321	-49.974	0.00030135	0.0012987	1.5953e-05	421.57	4.2451e-06	1.3854e-05	596.6	139	7.2933e-06	1.0013e-05	245.77	91.512	44.869	19.498	1.3729e-05	46.095	0.0032024	0.0032061	0.000836	662.77	3.5502e-05	3.364e-05	829.71	204.67	3.4485e-05	3.2598e-05	345.17	129.65	92.412	30.964	3.1005e-05	61.995	212.793	-67.142	-80.109	-91.336	51.950	4.993	-91.399	-86.116	-39.720	24.031	-87.215	-82.414	-82.408	-77.259	68.836	-77.907	-8191	255	
3918.912	1	1	0	0	0.16518	0.069227	0.14225	0.13719	0.04438	0.2048	0.24075	0.2314	0.29217	0.20967	0.1906	0.11482	0.22311	0.17598	0.098548	0.3584	0.17083	-0.25625	-0.76875	0.15	-0.45625	-0.64375	-0.17708	-1.1167	-0.37917	-0.44792	-1.1187	-0.40208	-0.6125	-0.74792	-0.11042	-1.0542	142.234	-35.433	229.193	157.483	-81.626	166.230	217.337	130.283	-43.333	228.674	166.816	57.084	-24.125	37.220	34.349	-99.483	0.00019283	0.0005738	0.00024219	421.42	6.0182e-06	1.5268e-05	590.84	138.15	8.8788e-06	1.1669e-05	244.07	92.23	45.087	19.711	1.0119e-05	46.149	0.0030221	0.0029873	0.00079988	662.85	3.4346e-05	3.2427e-05	823.17	206.45	3.4092e-05	3.2233e-05	344.09	131.37	91.234	30.889	3.0748e-05	62.746	216.676	3.937	112.129	-91.757	87.712	-58.602	-91.606	-86.321	91.007	36.906	-87.053	-82.283	-82.494	-76.795	34.180	-77.897	-8191	255	
3919.008	1	1	0	0	0.073502	0.032625	0.25029	0.080697	0.10293	0.11802	0.14954	0.26265	0.11187	0.39043	0.27298	0.14229	0.13277	0.086117	0.21042	0.077741	0.10833	-0.41458	-0.92917	-0.42917	-0.72083	-0.85625	-0.33958	-1.1229	-0.39792	-0.23958	-1.1958	-0.41458	-0.62708	-0.95625	0.041667	-0.98125	4.666	24.956	213.354	-75.771	10.427	220.197	-102.004	251.420	103.543	149.001	200.733	211.674	184.942	199.847	226.215	-95.634	0.00020821	0.0016232	0.00028783	423.98	9.8479e-06	7.3125e-06	590.64	140.23	5.5087e-06	1.7467e-06	246.95	92.813	45.677	19.892	8.7282e-06	46.747	0.0029495	0.0029087	0.0007919	672.74	3.3424e-05	3.191e-05	827.48	208.92	3.2947e-05	3.1349e-05	346.69	132.6	89.814	30.746	3.0944e-05	63.13	247.428	-40.390	92.907	-91.223	96.820	52.658	-91.571	-86.147	18.877	87.667	-87.300	-82.387	-82.318	-77.043	-93.501	-78.049	-8191	255	
3919.105	1	1	0	0	0.031888	0.29243	0.22398	0.16073	0.089048	0.272	0.20267	0.1081	0.20701	0.15435	0.16733	0.25067	0.12094	0.18576	0.1869	0.15235	-0.18333	-0.40208	-1.0479	-0.37083	-0.54792	-0.80625	-0.36875	-0.65417	-0.45	0.014583	-0.95625	-0.32917	-0.325	-0.75833	-0.15208	-0.75208	-3.757	-84.737	37.264	-43.214	-25.513	-81.284	93.077	-12.411	146.144	2.644	236.394	144.432	12.054	57.118	220.503	251.316	8.8702e-05	0.0015474	0.00012747	424.37	3.8895e-06	1.807e-05	594.95	139.79	8.2558e-06	7.1039e-06	244.86	92.886	45.563	19.811	3.4862e-06	46.487	0.0028396	0.0028278	0.00080455	672.3	3.1862e-05	3.0846e-05	833.82	208.57	3.1796e-05	3.0443e-05	348.95	132.15	88.523	30.446	3.1817e-05	62.437	247.542	-23.641	120.712	-91.280	-91.450	-19.607	-91.734	-86.092	45.599	176.812	-87.117	-82.416	-82.456	-77.735	-47.245	-77.859	-8191	255	
3919.223	1	1	0	0	0.074974	0.13611	0.063179	0.14194	0.047603	0.15256	0.041393	0.35743	0.040335	0.37344	0.11368	0.14018	0.10624	0.13403	0.05764	0.097776	-0.22083	0.039583	-0.81875	-0.1625	-0.066667	-0.91667	-0.2125	-0.475	-0.52292	0.12083	-0.775	-0.064583	-0.34167	-1.0271	0.1375	-0.64167	249.277	-99.018	16.105	209.566	22.935	10.576	33.769	-66.467	-80.573	59.947	102.288	-91.414	-98.309	189.257	68.528	-15.841	0.00020761	0.0012039	0.00019821	423.28	9.6457e-06	2.3562e-05	589.66	138.89	3.2786e-06	7.3278e-06	243.87	92.519	45.053	19.767	2.9424e-06	45.824	0.0027839	0.002783	0.00083005	665.41	3.1351e-05	3.0625e-05	834.32	205.63	3.1804e-05	3.0701e-05	351.08	131.14	88.122	30.596	3.3786e-05	62.173	218.249	255.402	212.233	-91.463	108.037	16.222	-91.376	-86.294	87.353	232.458	-86.980	-82.566	-82.797	-77.053	251.005	-77.807	-8191	255	
3919.320	1	1	0	0	0.044794	0.23229	0.047065	0.10072	0.18029	0.37685	0.26135	0.14995	0.14284	0.21998	0.11225	0.15074	0.082109	0.10846	0.16999	0.39805	-0.20625	-0.097917	-0.71667	-0.45208	-0.23958	-0.85833	-0.2	-0.6375	-0.91458	-0.28958	-0.92083	-0.57708	-0.27292	-0.875	-0.37917	-0.69167	84.770	-63.782	-54.809	252.861	127.859	123.007	111.788	168.010	84.368	224.086	-68.032	236.096	-69.460	-102.533	151.128	211.047	0.00021689	0.00088932	8.1359e-05	423.9	1.6559e-06	1.2617e-05	591.38	139.66	4.8626e-06	8.9293e-06	245.63	92.012	45.192	19.708	4.6217e-06	46.518	0.0028363	0.002905	0.0008874	670.31	3.2335e-05	3.255e-05	855.2	207.8	3.263e-05	3.2868e-05	359.31	132.48	89.905	31.524	3.5971e-05	63.081	-85.155	117.860	-37.270	-91.496	73.783	105.574	-91.671	-85.883	57.779	203.259	-87.009	-82.427	-82.416	-77.525	115.505	-77.870	-8191	255	
3919.416	1	1	0	0	0.1037	0.10236	0.34474	0.15326	0.17972	0.097349	0.282	0.072588	0.23837	0.35766	0.2637	0.05266	0.15195	0.11344	0.010399	0.061499	-0.69167	-0.19583	-0.875	-0.78333	-0.34375	-0.83125	-0.20833	-0.33333	-0.85833	-0.23125	-0.68958	-0.75417	-0.21458	-0.90208	-0.38542	-0.31667	133.052	-83.440	226.966	165.982	83.533	206.073	214.492	125.618	-68.797	92.094	197.572	102.883	117.834	-3.532	-20.959	163.328	0.00023137	0.00091232	0.00024283	424.55	6.8221e-06	3.9341e-05	594.98	139.64	4.8791e-06	2.4739e-06	247.26	93.006	45.256	19.769	1.59e-05	46.954	0.0029283	0.0031901	0.00094102	679.82	3.3305e-05	3.5625e-05	871.54	210.27	3.3664e-05	3.6032e-05	365.67	134.29	91.826	32.842	3.759e-05	63.753	242.066	114.460	-79.517	-91.095	5.781	206.914	-91.756	-85.785	44.234	145.157	-86.919	-82.358	-82.186	-76.962	43.933	-78.275	-8191	255	
3919.512	1	1	0	0	0.093537	0.18426	0.12139	0.037849	0.20293	0.23271	0.12579	0.11223	0.14674	0.17211	0.23177	0.31023	0.15629	0.275	0.27034	0.16049	-0.425	0.14167	-0.53125	-0.81458	-0.1125	-0.95	-0.34375	-0.20417	-0.82083	-0.34167	-0.67292	-0.96667	-0.28958	-0.95833	-0.39583	-0.26667	15.202	-55.214	223.026	-56.630	24.686	32.030	139.374	204.327	-23.052	159.795	-39.494	-78.894	-14.918	6.575	44.197	93.710	0.00022179	0.00065286	0.00027507	426.17	5.5763e-06	2.244e-05	596.84	140.72	7.462e-06	3.0082e-06	246.32	92.193	44.411	19.986	1.181e-05	46.486	0.0030281	0.0034373	0.00095757	686.83	3.4409e-05	3.8132e-05	874.49	210.92	3.477e-05	3.8613e-05	364.64	134.32	93.36	33.503	3.7421e-05	63.432	209.839	26.396	-66.167	-91.606	-46.327	186.577	-91.806	-86.405	241.883	-67.004	-87.132	-82.523	-82.181	-77.396	86.307	-77.795	-8191	255	
3919.608	1	1	0	0	0.21387	0.15069	0.18882	0.16171	0.15674	0.12646	0.21785	0.24058	0.047991	0.039028	0.24019	0.30392	0.17191	0.10953	0.20861	0.26466	-0.55833	-0.425	-0.71458	-0.96667	-0.18333	-0.88333	-0.76667	-0.42917	-0.99167	-0.40208	-0.75208	-1.1042	-0.28542	-0.83542	-0.62083	-0.25417	51.277	144.783	103.954	-96.860	87.984	228.073	193.463	-97.329	108.422	242.691	81.806	201.204	9.294	251.967	-99.893	92.903	0.00027031	0.0012983	0.0001689	420.46	4.7256e-06	5.964e-06	592.85	139.4	1.0469e-05	4.505e-06	246.07	91.776	44.218	19.921	7.6701e-06	46.398	0.003175	0.0036414	0.00095121	684.37	3.6285e-05	3.9913e-05	869.68	210.04	3.6517e-05	3.9331e-05	361.35	133.24	95.021	33.366	3.5969e-05	62.968	234.272	89.600	24.033	-91.242	223.121	6.882	-91.758	-86.080	-92.620	182.544	-87.130	-82.497	-82.268	-77.430	-20.990	-77.730	-8191	255	
3919.704	1	1	0	0	0.35275	0.16553	0.16452	0.15781	0.20717	0.12227	0.056309	0.1396	0.084076	0.25479	0.20604	0.076775	0.15174	0.18388	0.15674	0.096087	-0.69167	-0.80833	-0.475	-1.0396	-0.15833	-0.73542	-0.7625	-0.029167	-1.0354	-0.63542	-0.50833	-0.97083	-0.15417	-0.55208	-0.88125	-0.46667	122.566	213.931	160.545	74.392	-38.631	168.815	150.232	243.106	54.126	99.559	230.883	215.314	-69.090	67.165	-5.263	-16.659	0.00035987	0.00061011	0.00061316	422.47	6.3552e-06	2.7772e-05	593.44	139.1	8.7674e-06	9.3658e-06	244.02	92.325	44.89	20.01	1.3731e-05	46.385	0.0032563	0.0035738	0.00092012	678.91	3.7625e-05	3.8928e-05	861.74	209.17	3.7937e-05	3.8245e-05	357.58	133.06	96.47	32.889	3.4834e-05	62.775	213.152	39.150	-23.601	-91.238	241.428	-22.946	-91.617	-86.162	-90.816	-25.518	-87.110	-82.305	-82.068	-76.777	-39.264	-78.137	-8191	255	
3919.800	1	1	0	0	0.23065	0.17573	0.16269	0.084308	0.075093	0.25943	0.094386	0.19741	0.3014	0.29342	0.17977	0.055957	0.032887	0.017183	0.082267	0.26832	-0.76875	-0.62917	-0.40417	-1.1542	-0.29167	-0.37708	-0.77083	-0.21667	-0.8625	-0.67083	-0.51667	-0.80417	-0.23125	-0.76458	-0.8625	-0.37083	186.542	145.440	147.662	76.141	9.277	242.951	62.303	44.551	221.862	-85.036	202.468	218.029	145.464	10.827	122.795	222.585	0.0003006	0.00059994	0.00069034	425.82	7.7134e-06	2.1615e-05	598.67	140.45	5.5356e-06	5.6149e-06	246.57	93.389	45.781	20.107	1.5655e-05	46.851	0.0032509	0.0033029	0.00085924	667.92	3.5715e-05	3.4022e-05	835.65	203.49	3.3757e-05	3.2224e-05	343.85	129.71	90.683	31.093	3.0473e-05	61.843	210.465	-18.148	1.705	-91.302	166.527	9.752	-91.659	-86.319	-47.311	15.977	-86.842	-82.401	-82.347	-77.119	78.939	-77.805	-8191	255	
3919.921	1	1	0	0	0.10592	0.15316	0.22563	0.19704	0.17949	0.25318	0.1986	0.28809	0.21995	0.15898	0.36077	0.068804	0.30683	0.31653	0.05405	0.10065	-0.56667	-0.46042	-0.375	-1.0708	-0.66875	-0.54167	-1.1833	-0.27083	-0.71458	-0.48542	-0.21458	-0.99167	-0.36667	-0.34375	-0.71458	-0.29583	-15.621	227.018	101.086	-21.980	-78.374	46.930	224.645	-84.572	-19.093	1.005	243.841	30.405	236.970	149.698	184.400	202.647	0.00020352	0.0019061	0.00011874	425.77	2.0236e-06	8.2495e-06	596.33	139.61	8.5313e-06	7.5861e-06	244.9	91.961	45.227	20.028	6.8045e-06	46.121	0.0029262	0.0029278	0.00076349	656.1	3.3226e-05	3.1617e-05	823.55	204.24	3.3732e-05	3.2213e-05	342.88	131.32	91.93	31.105	3.1026e-05	62.365	213.906	-54.440	41.924	-90.971	43.717	181.245	-91.461	-86.108	-18.716	-15.795	-86.756	-82.162	-82.320	-77.065	-3.771	-77.672	-8191	255	
3920.015	1	1	0	0	0.093611	0.07207	0.065318	0.18096	0.053652	0.11437	0.30969	0.16405	0.19537	0.24875	0.19278	0.14461	0.19001	0.26269	0.36377	0.15683	-0.36667	-0.85625	-0.275	-1.0042	-0.3875	-0.27708	-1.1437	-0.16875	-0.775	-0.87917	-0.41875	-1.1292	-0.59375	-0.21458	-0.80208	-0.46042	-19.909	243.994	190.480	-85.821	37.972	-102.478	199.866	-86.466	-99.264	65.086	183.768	-74.130	115.184	-55.457	-101.305	163.832	2.8125e-05	0.0007677	0.00025161	422.37	5.8673e-06	3.7149e-06	592.77	138.76	5.0295e-06	7.8871e-06	242.2	91.984	45.322	19.996	9.5204e-07	46.387	0.002998	0.0029942	0.0007971	676.62	3.4605e-05	3.2866e-05	833.89	210.67	3.5108e-05	3.3497e-05	348.54	135.01	93.634	31.616	3.3502e-05	64.228	-48.223	4.425	190.307	-91.130	51.830	83.865	-91.390	-86.132	116.018	109.160	-87.055	-82.243	-81.262	-77.523	-59.347	-78.248	-8191	255	
3920.112	1	1	0	0	0.12719	0.12726	0.055677	0.2181	0.081218	0.40562	0.14309	0.046851	0.12245	0.058392	0.24994	0.27251	0.23068	0.26315	0.19458	0.45125	-0.43333	-0.85833	-0.083333	-0.99792	-0.63542	-0.25417	-1.1479	-0.058333	-0.6625	-1.0083	-0.43125	-1.1042	-0.54583	-0.2	-0.80417	-0.54792	65.946	236.865	-98.529	117.836	46.981	-63.941	45.938	158.994	-97.328	80.435	220.819	136.417	234.903	191.861	56.336	164.554	0.00025157	0.00047091	0.00043237	425.67	1.4219e-05	1.6267e-05	587.98	140.06	6.8252e-06	8.9831e-06	243.56	92.655	45.246	20.005	6.2711e-06	46.496	0.00313	0.0031493	0.00087065	700.67	3.609e-05	3.4227e-05	852.9	215.78	3.5869e-05	3.4675e-05	357.26	137.68	94.349	31.926	3.5952e-05	64.945	249.997	-21.747	146.318	-91.525	56.547	9.160	-91.776	-86.259	66.426	44.734	-86.895	-82.394	-82.286	-77.410	181.787	-78.166	-8191	255	
3920.185	1	1	0	0	0.12923	0.14904	0.2314	0.2289	0.18084	0.17393	0.14339	0.16752	0.099067	0.12563	0.29834	0.22451	0.18799	0.17231	0.20937	0.30755	-0.14167	-0.82083	-0.24167	-0.77083	-0.65417	-0.010417	-1.1146	-0.33542	-0.23542	-1.0479	-0.45833	-0.93958	-0.84167	-0.1	-1.0104	-0.30208	239.523	25.946	84.810	28.649	115.410	160.867	197.197	48.394	90.188	157.808	145.029	242.195	77.545	212.304	35.590	236.588	0.000221	0.00058986	0.00016253	424.34	5.3538e-06	5.4017e-06	590.68	139.21	9.1908e-06	8.2012e-06	242.74	91.871	44.677	19.793	1.5042e-05	46.329	0.003161	0.0032017	0.00093138	706.65	3.6412e-05	3.4793e-05	871.98	216.62	3.6223e-05	3.5074e-05	362.95	136.73	94.165	31.743	3.7238e-05	64.106	215.897	-47.120	26.106	-91.230	26.782	-57.442	-91.865	-86.127	14.803	-24.974	-87.159	-82.499	-82.144	-77.345	208.396	-77.990	-8191	255	
3920.306	1	1	0	0	0.03426	0.14213	0.31462	0.45362	0.2101	0.12851	0.13926	0.30265	0.1218	0.12245	0.11077	0.24027	0.29502	0.24877	0.35303	0.035467	-0.091667	-0.66458	-0.054167	-0.38958	-0.675	0.12292	-1.0438	-0.38958	-0.054167	-1.0833	-0.16667	-0.66042	-0.94375	-0.15625	-0.68333	-0.66042	13.651	62.101	19.958	135.832	120.766	-3.000	151.610	192.669	75.791	84.440	49.706	-101.305	-35.884	242.468	47.073	104.848	0.0001254	0.0010367	0.00020076	420.4	4.3058e-06	7.2249e-06	580.61	136.79	7.1516e-06	6.7046e-06	240.55	90.843	44.527	19.499	6.8926e-06	45.723	0.0030575	0.003148	0.00094367	686.58	3.4723e-05	3.3795e-05	861.48	210.61	3.427e-05	3.4493e-05	359.75	133.11	91.633	31.562	3.7448e-05	62.873	-98.409	181.244	94.772	-91.219	76.052	100.347	-91.922	-86.026	25.643	180.110	-87.338	-82.147	-82.691	-77.281	242.917	-78.233	-8191	255	
3920.400	1	1	0	0	0.14198	0.15891	0.17527	0.18486	0.086405	0.20748	0.15823	0.094805	0.21586	0.22321	0.15121	0.43423	0.16058	0.2522	0.11518	0.19626	0.2875	-0.82708	-0.35208	-0.6	-0.88542	0.125	-0.76875	-0.60625	-0.25	-0.91458	-0.34375	-0.34583	-0.82708	0.052083	-0.77708	-0.95208	174.516	10.931	54.413	-11.278	98.336	-36.040	193.684	-4.527	117.734	89.488	59.046	241.577	-63.154	-63.637	242.518	230.046	0.00023014	0.00070571	3.6832e-05	417.27	8.7139e-06	7.6734e-06	581.41	135.72	1.1031e-05	7.1647e-06	240.47	91.355	44.136	19.62	1.0276e-05	45.61	0.0029997	0.00322	0.00096069	679.44	3.4804e-05	3.5662e-05	864.59	208.94	3.4399e-05	3.6538e-05	361.72	133.13	92.043	32.346	3.8023e-05	62.873	-65.125	185.690	49.718	-91.080	-1.894	147.803	-91.450	-86.001	22.655	-101.083	-87.163	-82.325	-82.721	-77.365	102.208	-78.065	-8191	255	
3920.496	1	1	0	0	0.20802	0.12402	0.063607	0.14958	0.16062	0.18368	0.23555	0.24923	0.21117	0.11955	0.38756	0.24637	0.055615	0.1952	0.28672	0.035554	0.1	-0.86667	-0.25417	-0.41042	-0.80417	-0.25	-0.68958	-0.7125	0.047917	-0.80833	-0.45417	-0.42292	-1.0417	-0.21458	-0.51667	-0.86875	-11.715	89.281	96.615	135.486	187.637	10.155	-78.634	236.221	-94.647	44.368	81.703	109.269	45.187	200.549	193.633	204.765	0.00020771	0.00077186	0.00026946	417.93	8.3658e-06	2.6937e-05	586.04	138.58	6.5373e-06	4.7475e-06	241.15	92.035	44.168	19.673	4.6811e-06	45.904	0.0030011	0.0033875	0.00095214	672.93	3.4004e-05	3.6633e-05	858.93	207.48	3.3512e-05	3.6764e-05	356.56	131.39	90.714	32.329	3.5395e-05	62.254	237.469	31.100	25.629	-91.431	-17.588	154.745	-91.775	-86.489	134.228	213.153	-87.151	-82.216	-82.407	-77.605	27.305	-77.897	-8191	255	
3920.592	1	1	0	0	0.061382	0.26944	0.12483	0.14993	0.32488	0.13215	0.17394	0.12522	0.037096	0.21697	0.10386	0.14614	0.21033	0.27887	0.11679	0.069538	0.24792	-0.68958	-0.45417	-0.23333	-1.0479	-0.14167	-0.58542	-0.81458	-0.035417	-1.0104	-0.75	-0.26458	-0.85417	-0.23542	-0.40417	-1.2104	-78.772	-5.516	138.519	162.624	46.872	205.905	113.668	246.616	137.943	-25.299	-41.152	-50.619	-40.730	222.279	-90.786	188.389	0.00026354	0.0015883	0.00018962	417.12	1.4175e-06	2.4138e-05	588.51	138.31	8.7712e-06	6.2451e-06	241.81	91.76	43.884	19.86	3.8573e-06	45.937	0.0029012	0.0033465	0.00089941	665.4	3.3758e-05	3.6751e-05	851.74	206.44	3.4134e-05	3.7566e-05	355.36	131.33	92.88	32.903	3.5794e-05	62.507	209.709	67.359	-92.146	-91.259	213.464	95.931	-91.739	-86.167	-95.491	111.207	-87.242	-82.187	-82.115	-77.487	51.159	-78.028	-8191	255	
3920.713	1	1	0	0	0.34947	0.24461	0.19503	0.3204	0.16008	0.099194	0.39159	0.43751	0.067091	0.15722	0.21356	0.20266	0.20395	0.27422	0.1432	0.18352	0.36458	-0.725	-0.60417	-0.31458	-1.0458	-0.175	-0.2875	-0.74167	-0.05	-0.87917	-0.825	-0.1625	-1.1167	-0.43542	-0.2625	-1.2271	125.568	175.687	75.257	243.618	90.055	-15.551	101.263	172.527	-88.108	228.065	-91.871	185.243	-69.999	-77.776	80.692	177.119	0.00030758	0.0007425	0.00021415	415.63	1.1727e-05	2.041e-05	582.37	135.89	1.4714e-05	3.0006e-06	238.91	90.62	43.603	19.697	4.4113e-06	45.495	0.0031499	0.0035448	0.00092939	669.04	3.7219e-05	3.8984e-05	853.13	206.98	3.7197e-05	3.8919e-05	355.48	131.36	96.91	33.167	3.6021e-05	62.577	200.713	-75.084	-54.016	-91.211	211.737	-36.506	-91.500	-86.440	-98.311	56.635	-87.272	-82.272	-81.855	-77.884	-34.329	-78.187	-8191	255	
3920.809	1	1	0	0	0.24841	0.1585	0.21798	0.015743	0.017249	0.10224	0.18462	0.031548	0.17462	0.066542	0.19617	0.43059	0.19727	0.20807	0.21935	0.4631	0.11458	-0.55625	-0.60625	-0.016667	-1.1125	-0.49583	-0.36458	-0.975	-0.32083	-0.75208	-0.86875	-0.0020833	-0.79167	-0.5125	-0.22083	-1.3125	31.425	-50.065	110.129	228.378	7.107	157.804	137.962	216.417	219.480	-51.524	166.440	-78.478	-57.854	178.191	-4.433	170.950	0.00020498	0.00047364	9.8682e-05	413.56	4.5665e-06	1.1732e-05	586.18	136.97	1.364e-05	5.2433e-06	240.04	91.075	44.433	19.785	8.9799e-06	46.03	0.0033593	0.0035456	0.00092787	672.5	3.9009e-05	3.8653e-05	852.89	209.14	3.9286e-05	3.8337e-05	356.4	132.57	98.977	33.042	3.5362e-05	63.206	167.285	190.951	56.501	-91.286	24.931	56.396	-91.637	-86.377	-88.507	253.628	-87.454	-82.585	-82.033	-77.482	-22.181	-77.996	-8191	255	
3920.905	1	1	0	0	0.26519	0.16372	0.2678	0.2126	0.45201	0.14999	0.072678	0.1059	0.1475	0.23795	0.34364	0.14097	0.076799	0.15407	0.055852	0.29283	0.052083	-0.46667	-0.72917	0.020833	-0.86042	-0.71458	-0.29792	-1.0688	-0.25417	-0.5125	-0.93958	-0.24792	-0.91875	-0.9	-0.23542	-1.1562	186.171	-97.782	134.175	235.945	187.035	133.586	148.585	243.600	83.799	75.372	218.970	234.812	177.482	158.928	192.011	163.041	0.00019681	0.0014674	0.00011091	419.04	5.6045e-06	4.1971e-07	586.85	136.77	5.6434e-06	6.6538e-06	240.61	91.645	45.184	20.032	1.1253e-05	45.972	0.0034261	0.00341	0.00090544	682.97	3.9187e-05	3.7151e-05	848.63	211.54	3.9153e-05	3.6995e-05	354.99	134.83	98.914	32.859	3.5097e-05	64.593	253.109	-66.981	-10.856	-91.575	170.719	-10.511	-91.693	-86.512	106.976	14.682	-87.090	-82.796	-82.436	-77.497	7.002	-78.323	-8191	255	
3921.001	1	1	0	0	0.1012	0.23678	0.11954	0.10719	0.26491	0.14045	0.25347	0.34835	0.25707	0.14578	0.21699	0.14536	0.19229	0.17704	0.3418	0.039931	-0.085417	-0.38542	-0.99375	-0.22708	-0.68333	-0.83125	-0.40625	-1.0979	-0.55625	-0.35208	-1.1417	-0.083333	-0.48333	-0.85208	-0.2125	-1.0187	238.332	197.670	-14.125	241.477	47.649	-17.621	223.717	199.144	63.176	-37.646	-88.206	143.973	221.774	176.839	150.462	-6.649	7.0053e-05	0.0004016	0.00038315	417.78	7.729e-06	1.9536e-05	583.91	137.68	2.6086e-06	1.7236e-05	241.84	91.482	45.209	20.021	1.1518e-05	45.99	0.0034679	0.0034116	0.00091758	700.91	3.9674e-05	3.7639e-05	853.28	217.03	3.98e-05	3.741e-05	357.58	138.01	99.454	33.098	3.6464e-05	65.885	159.709	-28.190	-56.613	-91.708	110.675	-79.812	-91.590	-86.180	-19.515	-18.489	-87.314	-82.461	-82.979	-77.492	20.897	-77.896	-8191	255	
3921.097	1	1	0	0	0.19435	0.33049	0.086521	0.38498	0.074862	0.071554	0.33372	0.29603	0.13261	0.17744	0.17985	0.095579	0.098402	0.24497	0.27915	0.19607	-0.0375	-0.31458	-1.0438	-0.35833	-0.6	-0.575	-0.1125	-1.0854	-0.62083	-0.027083	-0.90417	-0.31042	-0.6	-0.99167	0.0125	-1	65.147	243.701	240.674	203.425	-31.835	164.436	180.411	134.185	-38.867	251.274	-3.154	-12.748	180.478	179.730	99.762	100.365	5.6229e-05	0.00036961	0.00016744	416.9	6.2229e-06	1.3553e-05	582.71	136.99	1.2208e-05	5.8127e-06	239.69	90.712	44.671	19.975	1.0882e-05	46.077	0.0035413	0.0034826	0.00095966	722.91	4.0499e-05	3.8615e-05	868.89	222.67	4.074e-05	3.8494e-05	365.14	141.72	100.44	33.504	3.9513e-05	67.192	6.220	6.995	162.004	-91.958	23.210	-65.633	-91.623	-86.290	17.767	55.946	-87.352	-82.572	-82.325	-77.392	214.444	-77.871	-8191	255	
3921.192	1	1	0	0	0.24209	0.086784	0.12316	0.072584	0.18271	0.33533	0.14426	0.33563	0.29911	0.11258	0.14923	0.15185	0.24251	0.14111	0.30714	0.17922	-0.33542	-0.12083	-0.84583	-0.36667	-0.36667	-1.1021	-0.22708	-0.82292	-0.65833	-0.33333	-1.0542	-0.4	-0.25208	-0.95417	-0.095833	-1.0792	233.101	56.344	48.512	179.188	-82.832	150.420	-77.058	192.455	208.806	108.460	135.860	59.144	89.903	80.922	-43.467	-36.146	0.00014575	0.00060721	0.0004386	420.34	5.7433e-06	2.0123e-05	583.6	138.25	4.6616e-06	4.6782e-06	241.87	91.898	45.303	20.036	1.0164e-05	46.612	0.0035861	0.0035461	0.0010379	741.43	4.0814e-05	3.9244e-05	891.74	225.82	4.0622e-05	3.8753e-05	376.01	142.89	100.16	33.623	4.2187e-05	67.485	222.595	-43.575	155.481	-91.605	93.066	9.667	-91.971	-86.358	-38.631	69.604	-87.627	-82.658	-82.131	-77.592	146.994	-77.959	-8191	255	
3921.313	1	1	0	0	0.050188	0.11458	0.16818	0.30525	0.11077	0.088687	0.1129	0.24327	0.19026	0.16336	0.062959	0.060877	0.27798	0.11466	0.22722	0.12604	-0.4375	-0.027083	-0.81042	-0.50833	-0.5375	-1.2167	-0.46875	-0.91667	-0.90833	0.12083	-0.90625	-0.60833	-0.3625	-1.0438	-0.20208	-0.6	-8.915	-41.003	155.524	-43.815	240.215	-35.925	130.476	-9.671	189.802	240.065	75.032	-26.403	-68.652	175.586	35.007	107.985	0.00022948	0.0014016	0.00017101	420.62	1.0309e-05	3.1648e-05	588.97	139.72	5.8917e-06	1.2769e-05	243.45	92.732	45.195	19.874	9.5992e-06	46.197	0.0035694	0.0035715	0.001101	739.63	4.0257e-05	3.9537e-05	910.96	224.98	4.0141e-05	3.9078e-05	381.62	141.28	98.591	33.477	4.1179e-05	65.305	238.884	-15.353	189.244	-91.710	44.027	212.777	-92.106	-86.176	-13.137	197.174	-87.286	-82.630	-82.464	-77.732	-91.067	-77.769	-8191	255	
3921.409	1	1	0	0	0.44047	0.082118	0.18787	0.023924	0.12301	0.12361	0.11145	0.28166	0.30429	0.18036	0.2894	0.17597	0.21377	0.11026	0.03623	0.30189	-0.15	-0.10833	-0.87708	-0.55417	-0.05625	-1.2333	-0.28958	-0.5625	-0.89375	-0.089583	-0.97292	-0.70208	0.10833	-0.84375	-0.41875	-0.77292	133.880	-52.039	-84.799	-25.735	-77.316	114.393	212.854	214.705	-63.678	47.007	217.936	144.394	223.909	132.487	153.880	249.814	0.0001576	0.0014562	0.00014165	420.28	7.6665e-06	9.315e-06	591.38	138.33	9.0491e-06	2.8627e-06	242.39	91.796	44.326	19.75	9.4526e-06	45.895	0.0032242	0.0032801	0.00098899	689.02	3.4442e-05	3.4971e-05	869.49	210.27	3.4759e-05	3.5219e-05	363.62	134.42	92.561	32.688	3.9074e-05	63.799	-81.572	144.959	65.214	-91.816	94.513	231.699	-91.636	-86.302	81.289	223.364	-87.246	-82.496	-82.523	-76.727	-24.253	-77.863	-8191	255	
3921.480	1	1	0	0	0.14328	0.12707	0.21027	0.27493	0.1355	0.1334	0.19315	0.24781	0.20715	0.25944	0.11529	0.22299	0.088312	0.34605	0.21847	0.25105	-0.46667	-0.17292	-0.91875	-0.75625	-0.01875	-0.70833	-0.26667	-0.42708	-0.79375	-0.13125	-0.90833	-0.875	-0.31875	-0.80833	-0.17917	-0.43333	-90.325	145.162	-36.968	221.638	141.296	123.894	88.186	62.550	195.242	26.387	238.951	44.629	246.587	169.922	240.262	223.307	0.00012177	0.0014103	0.00045927	416.83	4.6457e-06	1.0284e-05	586.47	136.53	2.6743e-06	8.294e-06	242.32	90.787	44.569	19.742	1.6448e-05	45.887	0.0031685	0.0034903	0.001029	696.37	3.6676e-05	3.9894e-05	888.02	214.27	3.7317e-05	4.065e-05	373.3	136.78	96.196	34.419	4.1478e-05	64.905	-57.562	155.173	-19.619	-91.632	-50.699	143.657	-91.743	-86.075	-1.814	195.543	-87.128	-82.503	-82.452	-76.908	5.093	-78.150	-8191	255	
#DATA ENDS
