BOXY.EXE: ISS Imagent and Oximeter Data Acquisition Program Version 0.80
Ascii Record File

#ACQ INFORMATION
2  Detector Channels 
16  External MUX Channels 
1  Auxiliary Channels 
5000  Waveform (CCF) Frequency (Hz)
1  Waveforms Skipped 
30  Waveforms Averaged 
1  Cycles Averaged 
16  Acquisitions per Waveform 
10.0806  Updata Rate (Hz) 

#FILE INFORMATION
TRUE -- External MUX Channel results are PARSED.
FALSE -- AC DC and Phase are NOT grouped.
TRUE -- Companion Program Settings File CREATED.
FALSE -- AC data not excluded
FALSE -- DC data not excluded
FALSE -- Phase data not excluded
FALSE -- Auxillary Chn. data not excluded
Tab delimiters

#CALIBRATION STATE
TRUE -- Waveform Calibration Values APPLIED.


#AUX CALIBRATION VALUES
Val Type	aux-1	

Term	1.0000e+00	
Factor	0.0000e+00	


#WF CALIBRATION VALUES
A = Detector Channel
Val Type	A-AC1	A-AC2	A-AC3	A-AC4	A-AC5	A-AC6	A-AC7	A-AC8	A-AC9	A-AC10	A-AC11	A-AC12	A-AC13	A-AC14	A-AC15	A-AC16	A-DC1	A-DC2	A-DC3	A-DC4	A-DC5	A-DC6	A-DC7	A-DC8	A-DC9	A-DC10	A-DC11	A-DC12	A-DC13	A-DC14	A-DC15	A-DC16	A-Ph1	A-Ph2	A-Ph3	A-Ph4	A-Ph5	A-Ph6	A-Ph7	A-Ph8	A-Ph9	A-Ph10	A-Ph11	A-Ph12	A-Ph13	A-Ph14	A-Ph15	A-Ph16	

Term	0.00000e+00	0.00000e+00	0.00000e+00	0.00000e+00	0.00000e+00	0.00000e+00	0.00000e+00	0.00000e+00	0.00000e+00	0.00000e+00	0.00000e+00	0.00000e+00	0.00000e+00	0.00000e+00	0.00000e+00	0.00000e+00	0.00000e+00	0.00000e+00	0.00000e+00	0.00000e+00	0.00000e+00	0.00000e+00	0.00000e+00	0.00000e+00	0.00000e+00	0.00000e+00	0.00000e+00	0.00000e+00	0.00000e+00	0.00000e+00	0.00000e+00	0.00000e+00	0.00000e+00	0.00000e+00	0.00000e+00	0.00000e+00	0.00000e+00	0.00000e+00	0.00000e+00	0.00000e+00	0.00000e+00	0.00000e+00	0.00000e+00	0.00000e+00	0.00000e+00	0.00000e+00	0.00000e+00	0.00000e+00	
Factor	1.00000e+00	1.00000e+00	1.00000e+00	1.00000e+00	1.00000e+00	1.00000e+00	1.00000e+00	1.00000e+00	1.00000e+00	1.00000e+00	1.00000e+00	1.00000e+00	1.00000e+00	1.00000e+00	1.00000e+00	1.00000e+00	1.00000e+00	1.00000e+00	1.00000e+00	1.00000e+00	1.00000e+00	1.00000e+00	1.00000e+00	1.00000e+00	1.00000e+00	1.00000e+00	1.00000e+00	1.00000e+00	1.00000e+00	1.00000e+00	1.00000e+00	1.00000e+00	X	X	X	X	X	X	X	X	X	X	X	X	X	X	X	X	

B = Detector Channel
Val Type	B-AC1	B-AC2	B-AC3	B-AC4	B-AC5	B-AC6	B-AC7	B-AC8	B-AC9	B-AC10	B-AC11	B-AC12	B-AC13	B-AC14	B-AC15	B-AC16	B-DC1	B-DC2	B-DC3	B-DC4	B-DC5	B-DC6	B-DC7	B-DC8	B-DC9	B-DC10	B-DC11	B-DC12	B-DC13	B-DC14	B-DC15	B-DC16	B-Ph1	B-Ph2	B-Ph3	B-Ph4	B-Ph5	B-Ph6	B-Ph7	B-Ph8	B-Ph9	B-Ph10	B-Ph11	B-Ph12	B-Ph13	B-Ph14	B-Ph15	B-Ph16	

Term	0.00000e+00	0.00000e+00	0.00000e+00	0.00000e+00	0.00000e+00	0.00000e+00	0.00000e+00	0.00000e+00	0.00000e+00	0.00000e+00	0.00000e+00	0.00000e+00	0.00000e+00	0.00000e+00	0.00000e+00	0.00000e+00	0.00000e+00	0.00000e+00	0.00000e+00	0.00000e+00	0.00000e+00	0.00000e+00	0.00000e+00	0.00000e+00	0.00000e+00	0.00000e+00	0.00000e+00	0.00000e+00	0.00000e+00	0.00000e+00	0.00000e+00	0.00000e+00	-1.59263e+02	-1.35366e+02	-1.22785e+02	-1.81606e+02	-7.89346e+01	-5.72216e+01	-1.56575e+02	-1.62015e+02	-7.73410e+01	-6.58398e+01	-1.71773e+02	-1.69662e+02	-1.85582e+02	-1.76518e+02	-7.73154e+01	-1.48785e+02	
Factor	2.57673e-05	1.35732e-04	4.29484e-05	1.60521e-01	1.34668e-06	1.50830e-06	1.73562e-01	5.04505e-02	1.28541e-06	1.76270e-06	8.78298e-02	2.84354e-02	2.48919e-02	9.05555e-03	1.36247e-06	1.28161e-02	7.70257e-06	9.89319e-06	2.77655e-06	8.54020e-02	1.04570e-07	1.10558e-07	8.68692e-02	2.69635e-02	1.04314e-07	1.10505e-07	4.53325e-02	1.47671e-02	1.33880e-02	4.87488e-03	1.06932e-07	6.69256e-03	X	X	X	X	X	X	X	X	X	X	X	X	X	X	X	X	



#DISTANCE SETTINGS
A = Detector Channel
A-1	A-2	A-3	A-4	A-5	A-6	A-7	A-8	A-9	A-10	A-11	A-12	A-13	A-14	A-15	A-16	

2.5000e+00	3.0000e+00	2.5000e+00	3.0000e+00	2.0000e+00	3.0000e+00	1.5000e+00	3.0000e+00	3.0000e+00	3.0000e+00	3.0000e+00	3.0000e+00	3.0000e+00	3.0000e+00	1.5000e+00	3.0000e+00	

B = Detector Channel
B-1	B-2	B-3	B-4	B-5	B-6	B-7	B-8	B-9	B-10	B-11	B-12	B-13	B-14	B-15	B-16	

1.0000e+01	1.0000e+01	1.0000e+01	1.4400e+00	1.0000e+01	1.0000e+01	1.5100e+00	1.9400e+00	1.0000e+01	1.0000e+01	1.9900e+00	2.4900e+00	2.4100e+00	2.9000e+00	1.0000e+01	2.9800e+00	




#DATA BEGINS
time	group	step	mark	flag	A-AC1	A-AC2	A-AC3	A-AC4	A-AC5	A-AC6	A-AC7	A-AC8	A-AC9	A-AC10	A-AC11	A-AC12	A-AC13	A-AC14	A-AC15	A-AC16	A-DC1	A-DC2	A-DC3	A-DC4	A-DC5	A-DC6	A-DC7	A-DC8	A-DC9	A-DC10	A-DC11	A-DC12	A-DC13	A-DC14	A-DC15	A-DC16	A-Ph1	A-Ph2	A-Ph3	A-Ph4	A-Ph5	A-Ph6	A-Ph7	A-Ph8	A-Ph9	A-Ph10	A-Ph11	A-Ph12	A-Ph13	A-Ph14	A-Ph15	A-Ph16	B-AC1	B-AC2	B-AC3	B-AC4	B-AC5	B-AC6	B-AC7	B-AC8	B-AC9	B-AC10	B-AC11	B-AC12	B-AC13	B-AC14	B-AC15	B-AC16	B-DC1	B-DC2	B-DC3	B-DC4	B-DC5	B-DC6	B-DC7	B-DC8	B-DC9	B-DC10	B-DC11	B-DC12	B-DC13	B-DC14	B-DC15	B-DC16	B-Ph1	B-Ph2	B-Ph3	B-Ph4	B-Ph5	B-Ph6	B-Ph7	B-Ph8	B-Ph9	B-Ph10	B-Ph11	B-Ph12	B-Ph13	B-Ph14	B-Ph15	B-Ph16	aux-1	digaux	

6376.556	1	1	0	256	0.10688	0.24222	0.11767	0.22759	0.1867	0.24984	0.015946	0.22364	0.44747	0.13203	0.092352	0.18905	0.21173	0.11471	0.12282	0.16778	0.19375	-0.6375	-0.63958	-0.052083	-1.0479	-0.16458	-0.31458	-1.1667	-0.13125	-0.54375	-0.82708	-0.041667	-0.89583	-0.4125	-0.10625	-0.96667	-7.984	-17.511	-118.232	126.824	15.498	219.951	52.299	154.299	-131.695	-113.854	-67.375	-64.776	-128.657	5.482	189.856	-24.787	0.0001962	0.00040386	7.9518e-05	1026.3	3.5703e-06	1.526e-06	1108.7	213.81	4.1933e-06	1.5448e-06	271.7	77.014	60.405	17.624	4.4881e-06	24.738	0.00039909	0.00042644	0.00012252	1008.2	4.9379e-06	4.8853e-06	1100.2	212.66	4.8212e-06	4.8516e-06	270.92	77.78	60.742	17.88	4.7449e-06	25.217	174.451	-21.977	8.438	-127.357	-13.640	34.935	-127.266	-119.812	-41.482	46.642	-120.282	-113.882	-113.260	-106.082	-4.139	-106.054	-8191	255	
6376.652	1	1	0	0	0.1696	0.17794	0.18211	0.27126	0.31166	0.19531	0.22373	0.16227	0.15711	0.2149	0.14873	0.33162	0.25658	0.1619	0.17261	0.13638	0.13958	-0.48125	-0.80208	-0.085417	-0.85625	-0.525	-0.14167	-1.0625	-0.16875	-0.3875	-1.125	-0.0083333	-0.77292	-0.68333	0.17708	-1.1083	40.314	128.342	159.653	-117.938	134.457	-121.349	133.861	-111.757	79.672	-86.699	158.816	202.927	191.527	-16.770	198.032	199.982	0.00019587	0.00026406	0.00013037	1024.2	2.069e-06	1.5115e-06	1108.1	214.2	2.4517e-06	2.6908e-06	273.3	77.101	60.467	17.574	1.2393e-06	24.566	0.00040588	0.00043928	0.00012433	1009.1	4.7775e-06	4.8104e-06	1099.3	212.86	4.7495e-06	4.7625e-06	271.44	77.82	60.943	17.889	4.8088e-06	25.158	183.908	-89.255	-7.773	-127.295	-96.165	3.000	-127.256	-120.002	-32.572	22.153	-119.796	-113.913	-113.151	-105.959	-107.256	-106.380	-8191	255	
6376.748	1	1	0	0	0.21059	0.20738	0.074368	0.3019	0.038636	0.35477	0.34235	0.24689	0.14818	0.10151	0.11822	0.16214	0.050393	0.24098	0.093878	0.07728	0.033333	-0.2875	-0.80208	-0.23958	-0.70417	-0.82292	-0.095833	-1.0729	-0.31667	-0.31042	-0.98333	-0.15417	-0.60833	-0.87708	-0.033333	-0.82708	-123.996	-106.925	-27.529	155.640	20.916	101.077	169.066	137.679	105.626	-116.782	10.911	128.814	-46.910	40.104	22.410	31.900	0.0002273	0.00035664	0.00015405	1026.6	8.4501e-07	2.711e-06	1115.9	214.04	2.1844e-07	2.2053e-06	272.1	77.354	60.468	17.524	1.7741e-06	24.573	0.00040366	0.00043693	0.0001184	1010.2	4.8255e-06	4.7169e-06	1103.7	213.18	4.7904e-06	4.9407e-06	271.8	77.923	60.874	17.923	4.9122e-06	25.164	177.473	-18.076	-27.192	-127.424	-21.284	60.993	-127.267	-119.806	48.066	19.847	-119.737	-113.690	-113.304	-105.635	47.327	-106.339	-8191	255	
6376.844	1	1	0	0	0.27189	0.26761	0.25118	0.24968	0.074914	0.10826	0.16503	0.28808	0.090448	0.18439	0.14129	0.15406	0.043491	0.18128	0.08731	0.13316	-0.066667	-0.15625	-0.92292	-0.31042	-0.51458	-0.86458	-0.075	-0.94375	-0.6625	-0.091667	-0.97083	-0.16458	-0.48958	-0.69167	-0.16667	-0.92708	74.069	177.574	145.551	147.455	74.781	-41.712	-125.342	116.859	-12.255	45.397	48.354	112.943	190.471	164.823	-121.680	-15.834	0.00022744	0.00015148	9.9683e-05	1022	3.9493e-06	5.5667e-06	1113.5	214.1	1.3025e-06	4.0325e-06	272.46	76.579	60.459	17.556	6.3004e-06	24.631	0.00040716	0.00045366	0.00012226	1008.8	4.9703e-06	4.7738e-06	1101.8	212.97	4.8315e-06	4.7966e-06	271.73	77.666	60.869	17.882	4.8055e-06	25.104	180.782	-51.904	-39.219	-127.225	-20.348	103.378	-127.278	-119.480	-85.337	27.177	-120.211	-113.763	-113.608	-105.513	28.018	-105.995	-8191	255	
6376.939	1	1	0	0	0.040926	0.17516	0.068264	0.074681	0.020086	0.41181	0.26766	0.15141	0.1091	0.023245	0.096139	0.17107	0.33967	0.078764	0.14508	0.10322	-0.20833	0.01875	-1.025	-0.58333	-0.43125	-0.99583	-0.47292	-0.92708	-0.85417	0.020833	-0.975	-0.2625	-0.15	-0.97708	-0.17083	-0.88125	37.837	-69.250	-8.340	-13.740	-103.939	-102.123	112.243	28.186	-94.038	-27.695	-84.761	-94.110	-103.245	166.660	12.613	200.562	0.0002113	0.00024977	0.0001092	1023	2.405e-06	3.0979e-06	1116	214.66	3.5485e-06	4.3319e-06	271.46	77.242	60.764	17.63	2.6689e-06	24.821	0.00039882	0.00043691	0.0001239	1008.8	4.8357e-06	4.9452e-06	1103.2	213.15	4.8232e-06	5.0132e-06	271.16	77.93	60.919	17.879	5.0066e-06	25.243	196.264	-55.085	-56.002	-126.909	2.128	-14.500	-127.173	-119.785	-21.373	-35.631	-119.911	-113.975	-112.881	-105.682	-47.244	-106.086	-8191	255	
6377.035	1	1	0	0	0.28066	0.090145	0.21812	0.097808	0.17836	0.18106	0.24363	0.15831	0.24234	0.017388	0.26138	0.42108	0.17201	0.079899	0.12418	0.24625	-0.35208	0.12292	-1.025	-0.50833	-0.25	-0.98333	-0.34375	-0.6	-0.96042	-0.10625	-0.8875	-0.56875	-0.21667	-0.99375	-0.11042	-0.78958	201.514	184.803	217.805	152.054	18.249	85.581	205.134	-40.941	48.977	36.707	29.482	-89.636	156.277	-8.506	-128.083	113.973	0.00021268	0.00022419	8.6062e-05	1026.5	1.6142e-06	1.8588e-06	1103.1	213.53	2.4445e-07	3.6196e-06	269.6	76.748	60.567	17.68	1.933e-06	24.764	0.00041122	0.00047013	0.00012387	1008.9	5.0167e-06	4.9081e-06	1098.2	212.37	4.8945e-06	5.17e-06	270.79	77.734	61.035	17.918	5.0822e-06	25.195	183.905	-116.186	2.850	-127.241	-50.792	64.565	-127.108	-119.810	182.711	17.107	-120.319	-113.697	-113.003	-105.261	54.651	-105.814	-8191	255	
6377.133	1	1	0	0	0.089005	0.058164	0.16867	0.19568	0.087409	0.13828	0.18422	0.020855	0.11785	0.15312	0.2725	0.15128	0.14134	0.16543	0.19355	0.067089	-0.48333	-0.21458	-0.53125	-0.64167	-0.125	-0.95	-0.24583	-0.44792	-0.81875	-0.077083	-0.79167	-0.65417	-0.26875	-0.95208	-0.34167	-0.56458	132.006	-82.583	-101.164	148.687	-7.994	-9.866	117.410	14.924	104.147	-51.593	-44.018	210.318	85.990	-114.065	53.632	-100.349	0.00019766	0.00027974	8.8835e-05	1025.4	1.2341e-06	3.3251e-06	1112.2	214.15	4.2142e-06	2.4309e-06	272.7	76.791	60.569	17.585	1.9339e-06	24.779	0.00042476	0.00048477	0.00013273	1008.9	5.1108e-06	5.0246e-06	1102	212.43	5.0542e-06	5.1937e-06	271.28	77.535	60.988	17.92	5.1145e-06	25.262	174.965	-34.939	-56.837	-127.164	-27.755	33.980	-127.207	-119.745	-45.314	15.184	-120.094	-113.791	-112.829	-105.278	17.037	-106.093	-8191	255	
6377.252	1	1	0	0	0.073854	0.14051	0.34142	0.13108	0.16318	0.17742	0.075108	0.35347	0.18646	0.15052	0.17937	0.15529	0.27984	0.30695	0.30889	0.29175	-0.70208	0.00625	-0.625	-0.89375	0.079167	-1.0063	-0.54375	-0.24375	-0.87917	0.035417	-0.73958	-0.61667	-0.20417	-0.93958	-0.425	-0.29583	-123.714	218.629	-39.864	-82.610	137.941	36.607	177.840	150.399	203.688	109.135	116.218	-127.471	164.696	194.428	111.722	-64.514	0.00022906	0.00032441	8.1772e-05	1023.7	3.4119e-06	1.3624e-06	1114.5	213.23	5.2957e-06	1.2318e-06	270.97	76.689	60.192	17.612	3.4974e-06	24.802	0.00040747	0.00047498	0.00012782	1010.1	5.1037e-06	4.9942e-06	1102.9	212.64	4.9495e-06	4.9578e-06	271.11	77.646	60.808	17.917	4.9077e-06	25.226	174.197	-9.341	-33.880	-127.012	21.308	-50.608	-127.431	-119.782	-11.161	59.069	-119.512	-113.771	-113.092	-105.415	54.448	-105.573	-8191	255	
6377.348	1	1	0	0	0.13339	0.17403	0.22802	0.14349	0.047245	0.37457	0.073193	0.15157	0.080367	0.33211	0.30154	0.17443	0.27914	0.13624	0.2423	0.11767	-0.67292	-0.095833	-0.6125	-1.0312	0.05625	-0.8375	-0.68125	-0.31875	-1.0354	-0.18333	-0.68958	-0.75	-0.17292	-0.96458	-0.49167	-0.275	26.503	43.614	-87.458	-132.352	-34.477	168.635	126.391	212.966	183.348	172.320	-119.685	-125.371	-26.784	150.083	-8.244	-125.240	0.0001732	0.0005161	5.7532e-05	1026.6	2.9326e-06	3.6456e-06	1109.4	213.36	1.9102e-06	2.3148e-06	271.92	76.796	60.281	17.488	7.0988e-07	24.754	0.00040639	0.00047193	0.00012628	1010.1	5.0139e-06	5.2082e-06	1101.8	212.49	5.0297e-06	5.1949e-06	271.06	77.637	60.739	17.848	4.9665e-06	25.2	171.066	-43.319	-54.834	-127.348	-32.711	24.750	-127.188	-119.766	-86.159	15.366	-119.985	-113.632	-113.474	-105.626	-69.572	-106.567	-8191	255	
6377.444	1	1	0	0	0.27454	0.076194	0.21264	0.13812	0.054041	0.1277	0.040802	0.32195	0.069951	0.1381	0.1533	0.016476	0.090239	0.14322	0.065501	0.090552	-0.71458	-0.18542	-0.45833	-1.1021	0.010417	-0.9125	-0.90208	-0.47292	-0.91458	-0.25625	-0.52083	-1.0187	-0.4125	-0.79792	-0.86875	-0.17917	-45.028	-97.519	83.922	-115.465	85.135	218.089	186.947	113.322	81.034	78.954	127.674	-68.511	-63.496	163.383	-52.155	-124.477	0.00022351	0.00018165	9.9452e-05	1021.7	1.932e-06	3.7374e-06	1117.1	213.44	1.4542e-06	3.8291e-06	270.65	76.739	60.177	17.622	3.1586e-06	24.656	0.00041313	0.00046238	0.00012933	1008.7	5.0071e-06	4.9965e-06	1101.8	212.38	4.8973e-06	5.1046e-06	270.19	77.798	60.645	17.86	5.0634e-06	25.133	180.478	-4.663	-20.211	-127.192	8.408	-32.919	-127.488	-119.606	-31.887	31.030	-119.965	-113.691	-113.111	-105.642	-5.337	-105.514	-8191	255	
6377.540	1	1	0	0	0.2024	0.13559	0.1871	0.34859	0.24777	0.18928	0.19885	0.10533	0.083717	0.077651	0.17562	0.19167	0.28523	0.074717	0.29872	0.17298	-0.68958	-0.5875	-0.45625	-1.2958	-0.30208	-0.86667	-0.95833	-0.16667	-0.94375	-0.36458	-0.53958	-0.94583	-0.27708	-0.71458	-0.72708	-0.3	7.760	-122.211	-97.698	207.355	22.889	216.402	170.498	136.742	5.766	-121.110	170.102	221.546	218.299	41.194	-128.573	-112.911	0.00014784	0.00056905	5.0674e-05	1026.3	3.2373e-06	9.4726e-07	1110.7	212.85	2.0317e-06	2.9414e-06	269.31	76.968	60.312	17.549	3.2052e-06	24.51	0.00040453	0.00047535	0.00012579	1009.3	5.0407e-06	4.9899e-06	1102	212.53	4.9964e-06	5.1983e-06	270.9	77.538	60.807	17.853	4.9434e-06	25.097	182.650	-33.737	-45.287	-126.983	6.462	150.030	-127.414	-119.771	-44.724	42.129	-120.115	-113.798	-113.461	-105.330	0.420	-106.055	-8191	255	
6377.635	1	1	0	0	0.26556	0.20635	0.15387	0.043333	0.16065	0.22226	0.37208	0.15017	0.051965	0.22188	0.11358	0.1473	0.26389	0.12449	0.12075	0.14878	-0.53333	-0.40208	-0.31667	-1.2729	-0.23125	-0.5375	-1.0521	-0.275	-0.85833	-0.69583	-0.27708	-1.0833	-0.19583	-0.43333	-1.175	-0.077083	46.905	-136.263	19.336	-81.892	208.697	173.474	100.510	142.809	130.140	164.893	114.135	-75.863	174.646	-58.139	20.461	144.853	0.00024347	0.00036444	7.0654e-05	1025.4	2.3758e-06	1.9414e-06	1114.1	214.07	7.3735e-07	3.5344e-06	270.32	76.949	59.946	17.522	2.6442e-06	24.536	0.00041207	0.00045857	0.00012211	1009.9	4.8416e-06	4.822e-06	1102	212.58	4.6972e-06	4.8643e-06	271.34	77.646	60.701	17.81	4.8892e-06	25.132	178.406	-51.726	-31.708	-127.155	28.308	40.273	-127.101	-119.680	5.618	18.269	-119.668	-113.413	-113.184	-105.259	-21.712	-106.314	-8191	255	
6377.731	1	1	0	0	0.28457	0.31071	0.16278	0.076102	0.17794	0.1575	0.18589	0.13671	0.061757	0.16157	0.093374	0.26479	0.10344	0.29112	0.19868	0.34461	-0.51042	-0.79167	-0.19167	-1.1417	-0.43958	-0.30625	-1.0771	-0.077083	-1.0271	-0.61458	-0.16875	-1.2604	-0.23542	-0.3875	-1.1354	-0.09375	183.109	-98.746	-106.334	-128.573	-75.868	192.232	107.303	151.802	87.722	-14.910	221.782	-0.215	99.930	-128.485	117.114	123.810	0.0001546	0.00021477	3.1325e-05	1029.4	1.2533e-06	2.8816e-06	1111.6	213.57	3.8549e-06	3.3315e-06	272.47	76.603	60.293	17.458	1.6833e-06	24.494	0.00040238	0.00045265	0.0001272	1011.2	5.108e-06	5.0795e-06	1101.7	212.53	4.7845e-06	4.9237e-06	271.19	77.397	60.536	17.848	4.7954e-06	25.133	172.390	-76.253	173.132	-127.068	81.412	70.965	-127.036	-119.655	-14.055	11.611	-119.799	-113.807	-113.290	-105.260	5.177	-106.379	-8191	255	
6377.851	1	1	0	0	0.20758	0.12789	0.3037	0.32237	0.098143	0.1925	0.072418	0.15755	0.25935	0.254	0.085084	0.22843	0.29198	0.22789	0.091264	0.24944	-0.32292	-0.83958	-0.035417	-1.1021	-0.39792	-0.40208	-1.1875	-0.39792	-0.71042	-0.9375	-0.22708	-0.96667	-0.47083	-0.1375	-0.94167	-0.17083	175.400	110.822	6.941	101.697	-53.664	55.502	222.186	101.450	103.918	177.878	210.686	188.241	207.102	-115.821	200.399	116.898	0.00020041	0.00028588	9.9969e-05	1028.7	1.7926e-06	2.5599e-06	1110.7	213.56	2.1507e-06	4.2547e-06	272.33	76.904	59.79	17.52	3.6307e-06	24.639	0.00041042	0.00046329	0.00013216	1011.8	4.8623e-06	4.8646e-06	1101.9	212.99	4.9606e-06	4.8141e-06	270.81	77.6	60.56	17.875	4.7273e-06	25.108	175.986	-88.100	-70.599	-127.206	81.665	15.933	-127.055	-119.700	-73.241	19.117	-120.085	-113.566	-113.050	-105.378	14.615	-106.079	-8191	255	
6377.948	1	1	0	0	0.073939	0.1036	0.071783	0.23053	0.14765	0.20199	0.33688	0.34829	0.049104	0.28952	0.087284	0.14286	0.059394	0.21238	0.078515	0.18369	-0.1875	-0.91458	-0.19167	-1.0312	-0.46042	-0.077083	-0.98333	-0.29167	-0.54792	-1.1875	-0.39375	-0.77292	-0.68125	-0.12292	-1.0625	-0.35208	201.320	147.818	-61.331	-133.536	-72.089	-121.093	106.868	165.610	-93.042	-127.408	168.509	-90.173	138.387	109.828	152.275	-135.028	0.00020309	0.00032526	7.948e-05	1027.5	3.5501e-06	2.4161e-06	1109.7	213.54	4.0232e-06	3.9432e-06	271.82	76.494	60.319	17.568	4.3652e-06	24.617	0.00039805	0.00045074	0.00012539	1011.5	5.0751e-06	5.0097e-06	1101.6	212.23	4.9238e-06	5.0567e-06	270.4	77.405	60.735	17.866	5.196e-06	25.123	173.179	-20.757	-72.718	-126.947	9.586	91.891	-127.152	-119.920	-9.327	-54.655	-119.609	-113.730	-113.323	-105.478	-39.397	-106.256	-8191	255	
6378.044	1	1	0	0	0.24145	0.054147	0.2466	0.36701	0.071119	0.12028	0.23293	0.28185	0.14196	0.091189	0.10228	0.151	0.24592	0.067462	0.1496	0.25155	-0.045833	-1.0333	0.052083	-0.87708	-0.69583	-0.18125	-1.2042	-0.38542	-0.50208	-0.84583	-0.20625	-0.7375	-0.90625	0.097917	-0.88958	-0.52917	102.509	-119.066	-61.060	192.954	108.863	-125.108	166.290	-132.497	-130.581	118.786	157.881	3.101	-128.881	-35.265	69.538	-16.330	0.00022248	0.00025272	0.00010627	1023.8	3.6278e-06	5.1076e-06	1113.4	212.6	1.6421e-06	3.8076e-06	270.95	76.402	59.918	17.677	2.957e-06	24.386	0.00043175	0.00047211	0.00013501	1011.5	5.2466e-06	5.3764e-06	1104.4	212.29	5.0694e-06	5.1574e-06	270.51	77.528	60.643	17.877	5.0592e-06	25.031	176.142	-17.951	-78.355	-127.086	-32.035	43.922	-126.997	-120.100	7.573	41.732	-120.049	-113.619	-113.401	-105.409	-29.843	-106.109	-8191	255	
6378.140	1	1	0	0	0.024529	0.29625	0.081672	0.23321	0.43085	0.19469	0.13357	0.17669	0.13737	0.078881	0.10367	0.095118	0.060976	0.28079	0.080731	0.074127	0.20625	-1.1021	-0.275	-0.7375	-0.86875	-0.010417	-1.2208	-0.62708	-0.054167	-1.0271	-0.14583	-0.7625	-1.0021	0.14792	-0.9375	-0.64792	-118.502	-55.701	107.802	-129.943	2.050	-23.190	-107.509	-63.188	166.135	-52.269	100.745	-45.046	103.430	200.615	199.345	-87.063	0.00019802	0.00015464	7.9063e-05	1026.6	2.5186e-06	4.4929e-06	1116	213.66	2.3773e-06	2.7002e-06	270.59	76.675	60.021	17.712	3.7467e-07	24.716	0.00042199	0.00045639	0.00013111	1011.7	4.9172e-06	5.0544e-06	1102	212.73	5.1948e-06	5.0807e-06	270.58	77.525	60.655	17.896	5.0588e-06	25.173	186.473	-39.517	-13.013	-127.066	0.165	-13.664	-127.082	-119.689	-4.253	-9.995	-119.745	-113.820	-112.766	-105.435	-53.407	-105.958	-8191	255	
6378.236	1	1	0	0	0.027253	0.24062	0.17905	0.1518	0.30713	0.23064	0.089517	0.20356	0.21676	0.097992	0.1083	0.4988	0.18137	0.041674	0.019622	0.37022	0.15417	-1.025	-0.36458	-0.73542	-1.0333	-0.24375	-1.0792	-0.50833	-0.44792	-0.89792	-0.40833	-0.45208	-0.84375	-0.15	-0.81875	-0.65208	52.166	213.312	46.953	77.560	169.575	31.650	180.103	143.001	-72.912	148.214	212.711	142.829	85.443	-132.426	-0.363	-131.589	0.00021561	0.00027531	0.0001226	1029.6	1.5546e-06	2.0898e-06	1117.4	212.5	2.3862e-06	3.7237e-06	273.2	76.476	60.317	17.621	2.0327e-06	24.56	0.00041989	0.00047586	0.00013415	1014.1	5.0374e-06	5.3208e-06	1104.3	212.56	5.0727e-06	5.0722e-06	271.34	77.39	60.764	17.798	4.9737e-06	25.131	189.885	-60.495	-88.582	-127.002	20.503	34.100	-126.861	-119.999	-27.508	28.769	-120.116	-113.650	-113.105	-105.867	-2.865	-106.316	-8191	255	
6378.330	1	1	0	0	0.1448	0.20139	0.21057	0.13478	0.12253	0.093841	0.26984	0.069215	0.1821	0.083629	0.28119	0.12493	0.24822	0.38744	0.34447	0.10122	0.033333	-1.1562	-0.38333	-0.64792	-1.0562	-0.20625	-0.86042	-0.77292	-0.20625	-1.0771	-0.35208	-0.41458	-1.1375	-0.05625	-0.60625	-0.95	35.422	-79.777	-136.229	87.912	13.095	206.042	209.365	-89.824	117.541	154.281	47.917	-74.652	204.669	220.216	163.317	64.712	0.0002177	0.00015399	7.234e-05	1027.6	2.5758e-06	1.179e-06	1118.9	213.81	2.3094e-06	1.6665e-06	271.93	76.697	59.818	17.595	2.1148e-06	24.766	0.00042019	0.00044583	0.00012597	1011.4	4.9821e-06	4.9691e-06	1103	212.84	4.9688e-06	5.1306e-06	270.8	77.626	60.616	17.821	4.9888e-06	25.168	175.253	-105.989	-58.576	-126.968	-38.230	32.351	-126.999	-119.734	-4.398	-68.054	-119.932	-113.644	-113.153	-105.032	14.918	-106.046	-8191	255	
6378.451	1	1	0	0	0.31909	0.23229	0.10089	0.24635	0.3072	0.067979	0.46013	0.20594	0.20868	0.1138	0.36694	0.23663	0.082594	0.12856	0.075311	0.31889	0.33958	-0.81875	-0.36042	-0.51042	-1.1396	-0.11875	-0.70625	-1.0812	-0.085417	-0.98125	-0.55833	-0.38958	-1.1771	-0.33542	-0.46875	-1.1292	80.035	-71.535	54.096	-117.184	-133.771	66.838	-134.116	-125.239	187.751	-1.906	132.107	202.460	-24.244	50.435	112.382	-96.532	0.00018988	0.00038089	9.5428e-05	1027	8.0026e-07	1.3891e-06	1117.9	213.87	2.8274e-06	2.2216e-06	271.63	76.25	60.118	17.565	2.103e-06	24.625	0.00039986	0.0004352	0.00012618	1011.6	4.8368e-06	5.1007e-06	1103.5	212.09	4.9456e-06	4.8585e-06	270.77	77.396	60.758	17.857	5.0349e-06	25.101	174.873	-41.284	-29.065	-127.201	201.426	-37.625	-126.851	-119.774	14.836	119.415	-119.862	-113.970	-113.115	-105.775	-31.091	-105.673	-8191	255	
6378.547	1	1	0	0	0.35233	0.2683	0.23572	0.026703	0.30777	0.067918	0.17503	0.2557	0.087094	0.17292	0.30268	0.12437	0.32155	0.071814	0.12809	0.13201	0.16875	-0.83542	-0.6875	-0.40208	-0.99375	-0.62083	-0.60625	-1.0583	-0.41875	-0.72708	-0.80208	-0.14583	-1.1271	-0.73958	-0.5	-1.0958	148.705	52.207	97.244	45.640	-65.265	23.453	-89.678	132.521	5.370	40.966	128.742	208.699	159.680	126.248	-9.138	135.878	0.0001639	0.00034692	0.00013173	1022.2	1.6081e-06	2.1202e-06	1119.7	213.24	1.425e-06	1.3102e-06	272.05	77.188	60.163	17.645	2.4976e-06	24.572	0.00040448	0.0004576	0.00013017	1009.5	4.9699e-06	5.1833e-06	1102.3	212.56	5.0253e-06	5.1486e-06	270.59	77.514	60.663	17.866	5.085e-06	25.09	181.114	-46.930	-39.717	-126.989	-17.449	20.727	-126.805	-119.846	-71.297	10.977	-119.722	-113.696	-112.896	-105.638	-17.413	-106.145	-8191	255	
6378.643	1	1	0	0	0.21025	0.071582	0.11576	0.099904	0.31444	0.097067	0.31344	0.27552	0.073428	0.12561	0.11298	0.19881	0.1238	0.19245	0.058514	0.096541	0.0875	-0.79375	-0.70625	-0.25208	-1.2208	-0.55833	-0.48958	-1.0312	-0.1	-0.69375	-0.83333	-0.25208	-1.2271	-0.61667	-0.29375	-1.0771	-17.209	-97.841	111.632	204.202	71.353	-1.327	140.591	164.224	71.982	151.918	70.721	-98.853	-129.846	151.542	60.057	190.689	0.00020635	0.00027177	9.0464e-05	1018.3	1.6793e-06	2.461e-06	1109.3	213.71	1.4895e-06	3.3426e-06	271.23	76.512	60.309	17.749	2.7517e-06	24.55	0.00040533	0.00045676	0.00012514	1008.6	4.9601e-06	5.0852e-06	1100.9	212.87	5.069e-06	4.8187e-06	270.46	77.462	60.739	17.863	5.0287e-06	25.033	167.487	-12.826	-23.197	-126.798	145.840	-21.032	-126.755	-119.616	14.658	-12.687	-120.159	-113.588	-112.855	-105.187	-13.254	-106.220	-8191	255	
6378.715	1	1	0	0	0.20169	0.14115	0.14185	0.25774	0.19339	0.12591	0.18126	0.27465	0.19058	0.10295	0.071824	0.18394	0.19591	0.074799	0.1927	0.032495	0.175	-0.53958	-0.94167	-0.14583	-0.99792	-0.625	-0.4125	-1.2083	-0.31875	-0.53958	-1.1896	-0.13125	-0.88958	-0.6125	-0.15417	-1.1604	175.097	20.073	41.370	196.030	-22.776	169.334	203.862	96.914	-42.536	-117.791	10.808	66.738	-97.934	-122.584	198.757	126.206	0.00017116	7.9405e-05	0.00010576	1025	1.7941e-06	2.3946e-06	1110.9	212.82	3.7501e-06	4.366e-06	270.59	76.109	60.395	17.672	3.7701e-06	24.512	0.00040241	0.00046292	0.00012629	1010.8	4.9032e-06	5.1601e-06	1100.3	212.35	4.8508e-06	5.0402e-06	270.35	77.373	60.773	17.839	4.9683e-06	24.952	177.565	-69.376	-16.758	-126.920	-33.387	64.013	-127.156	-119.430	-37.127	32.601	-120.054	-113.570	-112.822	-105.070	33.431	-106.337	-8191	255	
6378.836	1	1	0	0	0.13456	0.21441	0.11612	0.13166	0.12769	0.18945	0.077055	0.1241	0.059169	0.38139	0.23916	0.1676	0.046317	0.35776	0.14168	0.22538	0.175	-0.32708	-1.0438	-0.24375	-0.78125	-0.69583	-0.44167	-1.0708	-0.51458	-0.4	-1.0833	-0.14375	-0.88125	-0.91458	-0.10208	-1.1187	-26.300	-66.608	-33.851	-13.900	111.589	22.224	11.852	91.071	-114.035	60.326	168.261	23.013	75.038	-108.894	204.615	103.527	0.0001904	0.00035533	0.00010109	1022.3	3.3929e-06	2.6895e-06	1113.5	213.91	3.2189e-06	3.0573e-06	271.48	76.579	60.253	17.669	6.0157e-06	24.502	0.0004066	0.00046047	0.00012513	1008.8	5.0167e-06	5.0698e-06	1102.3	212.33	5.0512e-06	5.1847e-06	270.68	77.476	60.739	17.841	5.069e-06	24.992	177.376	-38.750	10.089	-127.002	-46.897	14.325	-126.967	-119.680	-91.540	16.917	-119.635	-113.399	-112.774	-105.252	1.391	-105.280	-8191	255	
6378.932	1	1	0	0	0.21788	0.18315	0.17801	0.34938	0.21556	0.13033	0.26892	0.10406	0.15187	0.20164	0.13838	0.20604	0.22372	0.14522	0.073652	0.066758	0.029167	-0.28333	-1.1063	-0.18542	-0.825	-0.96875	0.014583	-1.0562	-0.55625	-0.32083	-1.1167	-0.091667	-0.67083	-0.79792	-0.22917	-1.2125	212.731	-137.022	73.585	131.281	106.224	198.733	215.052	-83.003	21.246	95.623	61.854	188.137	157.443	-83.064	127.694	125.325	0.00025297	0.00024746	9.2999e-05	1027.4	1.1877e-06	2.3843e-06	1116.8	212.73	3.1224e-06	1.8364e-06	271.75	77.005	60.437	17.552	1.2069e-06	24.66	0.00042639	0.00046047	0.00012483	1009.1	5.0849e-06	5.0714e-06	1102.3	212.2	5.0516e-06	5.0996e-06	270.83	77.562	60.792	17.816	4.9062e-06	25.09	176.563	-64.247	-22.455	-126.943	-33.562	87.335	-126.922	-119.594	-27.271	26.048	-119.734	-113.688	-112.643	-105.353	61.404	-105.597	-8191	255	
6379.028	1	1	0	0	0.20665	0.17775	0.27981	0.1065	0.24342	0.086541	0.27969	0.52426	0.28418	0.24656	0.08839	0.037171	0.12753	0.19435	0.13331	0.20724	-0.27917	-0.45833	-1.1396	-0.51875	-0.58958	-0.85	-0.2	-1.1313	-0.72292	-0.36042	-1.1979	-0.43958	-0.43958	-1.0854	-0.064583	-1.0271	156.692	-105.352	207.553	202.004	181.472	199.843	137.434	187.476	59.582	73.760	168.209	92.130	-37.962	15.470	178.865	211.731	0.00021243	0.00031237	2.2317e-05	1027	1.3545e-06	4.063e-06	1113.9	211.75	3.2927e-06	4.8165e-06	271.25	76.611	60.31	17.556	1.8723e-06	24.485	0.00041883	0.00047032	0.00012671	1009.9	5.0601e-06	5.1778e-06	1102.6	211.51	4.8628e-06	5.0742e-06	269.87	77.422	60.881	17.831	5.1864e-06	25.043	185.411	-53.407	-64.281	-127.050	-35.874	40.694	-127.105	-119.324	-37.224	-24.373	-119.724	-113.609	-113.263	-105.630	19.590	-105.699	-8191	255	
6379.124	1	1	0	0	0.091089	0.17191	0.18123	0.21217	0.21016	0.20307	0.10949	0.12851	0.15644	0.15116	0.14953	0.30136	0.1194	0.083744	0.17815	0.078693	-0.37917	-0.175	-0.92917	-0.53958	-0.4125	-0.85833	-0.45	-0.94375	-0.72708	-0.079167	-1.1917	-0.47292	-0.2375	-1.1042	-0.30625	-0.59375	21.227	-31.034	139.024	101.433	-108.955	123.326	197.737	136.549	116.452	176.625	134.243	220.770	175.121	5.851	25.683	133.576	0.00019804	0.00038899	6.0871e-05	1020.2	3.2703e-06	3.3427e-06	1111.8	213.22	3.9027e-06	3.2977e-06	272.22	76.521	60.171	17.566	2.6755e-06	24.593	0.0004126	0.00048227	0.00012748	1007.2	5.1239e-06	5.1016e-06	1100.5	212.07	4.9356e-06	5.1748e-06	270.52	77.413	60.755	17.815	5.0904e-06	25.061	164.958	-65.020	-23.562	-126.966	-21.506	-2.256	-126.911	-119.589	-24.069	33.330	-119.467	-113.507	-112.932	-105.157	-72.884	-105.929	-8191	255	
6379.220	1	1	0	0	0.21878	0.020746	0.028832	0.23643	0.14967	0.2437	0.25266	0.10217	0.2642	0.31356	0.14189	0.24242	0.22418	0.19986	0.12191	0.26491	-0.28958	-0.01875	-0.68542	-0.68542	-0.28125	-1.1167	-0.45417	-0.60208	-1.0625	-0.060417	-1.0083	-0.49792	-0.18125	-0.98125	-0.34792	-0.6625	-114.836	166.687	170.474	166.966	-18.903	168.203	-75.279	145.107	-10.816	27.711	12.708	161.051	17.758	143.394	40.819	-131.296	0.00019701	4.67e-05	7.5406e-05	1024.5	9.6891e-07	4.2504e-06	1114	212.32	2.6247e-06	1.9781e-06	270.34	77.3	60.031	17.555	1.8931e-06	24.62	0.00041127	0.00045529	0.00012433	1009.9	5.0272e-06	5.1198e-06	1099.7	212.15	4.9067e-06	4.9939e-06	270.08	77.504	60.576	17.803	4.9786e-06	25.074	175.100	-66.685	-97.288	-127.064	-18.699	8.692	-126.939	-119.079	-57.267	19.310	-119.575	-113.457	-112.916	-105.296	-70.982	-105.458	-8191	255	
6379.339	1	1	0	0	0.24891	0.24893	0.14706	0.097203	0.20885	0.12343	0.17657	0.060861	0.18241	0.33881	0.16907	0.24526	0.056468	0.18535	0.11444	0.11801	-0.625	-0.11042	-0.86042	-0.83542	-0.13333	-1.0146	-0.55833	-0.58958	-1.075	-0.36458	-0.96667	-0.75	-0.28542	-1.075	-0.48542	-0.54583	158.896	129.378	4.896	42.016	-119.361	156.701	-90.758	-137.065	57.664	74.504	-123.188	149.341	219.191	184.717	155.054	162.819	0.00025944	0.00027798	0.00011628	1023.4	2.5636e-06	5.5328e-06	1107.9	213.22	2.8799e-06	3.1078e-06	272.94	77.437	60.079	17.538	1.9249e-06	24.554	0.00040525	0.00046135	0.00012715	1007	4.9333e-06	4.9463e-06	1100.4	212.27	4.9658e-06	4.9851e-06	270.74	77.617	60.625	17.817	4.9665e-06	25.027	171.369	-8.929	-56.021	-126.745	-25.369	26.807	-126.811	-119.439	-26.368	37.059	-119.616	-113.231	-113.063	-105.466	-12.545	-105.400	-8191	255	
6379.412	1	1	0	0	0.18991	0.10312	0.098022	0.2701	0.22586	0.22001	0.15983	0.17605	0.45206	0.26128	0.090399	0.20448	0.17172	0.19655	0.013018	0.14753	-0.69375	-0.24167	-0.775	-1.0646	-0.12292	-1.1187	-0.53125	-0.34583	-1.1042	-0.32917	-1.0104	-0.95417	-0.18542	-0.80833	-0.55417	-0.26042	-63.924	6.007	162.095	-122.341	-130.739	131.172	89.201	156.298	15.944	53.399	204.331	198.338	14.354	120.589	-133.910	190.393	0.00020247	9.5036e-05	7.2605e-05	1022.5	9.108e-07	1.3135e-06	1113.4	213.64	2.9016e-06	5.236e-06	270.73	76.808	60.453	17.619	2.9152e-06	24.63	0.00039325	0.00046698	0.00012374	1008	5.0187e-06	4.8973e-06	1099	212.63	4.9471e-06	5.0006e-06	270.23	77.638	60.657	17.828	4.8941e-06	25.072	167.556	-126.084	-30.309	-126.481	14.716	-28.926	-126.663	-119.424	-32.779	27.875	-119.214	-113.513	-112.848	-104.461	12.429	-105.781	-8191	255	
6379.531	1	1	0	0	0.22053	0.029143	0.21465	0.10399	0.22938	0.24327	0.27892	0.27682	0.049641	0.14213	0.19781	0.104	0.35047	0.32829	0.016155	0.2698	-0.73125	-0.27083	-0.56458	-1.1854	-0.17917	-0.8375	-0.65625	-0.25833	-1	-0.1125	-0.45417	-0.84375	-0.047917	-0.82083	-0.60833	-0.21042	-82.449	127.484	-90.604	5.719	133.394	198.986	196.451	182.238	-104.504	206.686	-113.647	-10.078	153.502	-67.468	-50.929	85.473	0.00017276	0.00023191	9.8103e-05	1022.2	2.1446e-07	6.3754e-07	1106.9	213.18	4.0718e-06	4.4075e-06	271.71	77.045	60.028	17.505	3.1086e-06	24.343	0.00041153	0.00047372	0.00012826	1007.1	5.1368e-06	5.0223e-06	1099.3	211.77	5.1674e-06	5.3015e-06	270.08	77.533	60.584	17.778	5.0666e-06	25.005	182.203	1.947	-19.076	-126.668	-2.524	197.936	-126.776	-119.325	-38.085	3.745	-119.868	-113.106	-113.123	-105.349	18.732	-105.859	-8191	255	
6379.628	1	1	0	0	0.19339	0.15054	0.26468	0.19573	0.037047	0.10314	0.13253	0.091837	0.07492	0.1513	0.14073	0.048514	0.069619	0.14282	0.26841	0.04207	-0.72292	-0.31042	-0.39167	-1.1479	-0.075	-1.0292	-0.77708	-0.23333	-1.0479	-0.34167	-0.425	-1.0271	0.010417	-0.56875	-0.75625	-0.20417	-57.739	156.667	210.815	134.521	-132.606	175.575	79.847	-115.380	100.308	161.257	45.568	-30.713	190.747	136.422	11.353	-68.086	0.00017118	0.00041879	7.3226e-05	1023.2	2.2341e-06	2.1791e-06	1106.7	213.35	1.8455e-06	3.4194e-06	271.31	76.512	59.727	17.469	3.235e-06	24.409	0.00042008	0.00048883	0.00012976	1007.3	5.223e-06	5.3605e-06	1098.4	211.74	5.0818e-06	5.4467e-06	270.24	77.29	60.388	17.773	5.2312e-06	25.008	172.808	-44.040	12.770	-126.869	12.164	-2.807	-126.654	-119.343	-30.809	19.237	-119.297	-112.939	-112.543	-105.230	-33.980	-105.327	-8191	255	
6379.724	1	1	0	0	0.40713	0.13892	0.11919	0.28116	0.15556	0.1572	0.1355	0.31009	0.10563	0.20392	0.083106	0.0068854	0.12656	0.25595	0.036383	0.02621	-0.65625	-0.27292	-0.375	-1.0938	-0.18958	-0.66875	-0.87292	-0.15208	-0.95	-0.55625	-0.33958	-0.94583	-0.22083	-0.48333	-0.81042	-0.13958	199.063	192.643	55.323	-123.491	75.874	125.257	-102.424	-111.609	-9.699	-19.714	203.524	-35.668	165.837	127.469	-42.484	-10.831	0.00023367	0.00036847	5.9589e-05	1023	2.866e-06	2.4189e-06	1107.2	213.16	1.5923e-06	1.7477e-06	270.04	76.887	60.176	17.508	2.8523e-06	24.538	0.00042277	0.00048668	0.00013485	1007.6	5.1318e-06	5.2531e-06	1098.7	212.2	5.1105e-06	5.2271e-06	270.01	77.289	60.513	17.815	5.1354e-06	24.968	179.760	-97.356	-62.454	-126.656	-10.094	3.570	-126.826	-119.414	-16.723	22.753	-119.684	-113.227	-112.194	-105.037	-2.346	-105.324	-8191	255	
6379.820	1	1	0	0	0.18188	0.11772	0.13245	0.17626	0.17291	0.21407	0.49071	0.098892	0.22827	0.16504	0.10295	0.15917	0.035534	0.14517	0.23524	0.041159	-0.57708	-0.40625	-0.060417	-1.1729	-0.30208	-0.27083	-1.2458	-0.3125	-0.69375	-0.67292	-0.089583	-1.2812	-0.48542	-0.3625	-0.98333	-0.22708	111.415	205.957	31.403	212.413	184.081	-14.284	182.057	-30.629	-75.431	163.000	-44.440	123.586	164.028	167.489	-63.435	188.024	0.0001831	0.00048283	9.0551e-05	1023	2.8196e-06	2.8425e-06	1109.9	212.82	1.3871e-06	3.4124e-06	270.75	76.559	60.428	17.38	2.9821e-06	24.47	0.00043166	0.00047862	0.00013377	1007.7	5.3344e-06	5.2015e-06	1098.1	211.81	5.1227e-06	5.29e-06	270.08	77.318	60.695	17.729	5.1532e-06	24.965	168.581	5.003	-55.484	-126.559	74.025	-17.230	-126.746	-119.171	-44.640	-28.176	-119.416	-113.228	-112.715	-104.603	8.230	-105.541	-8191	255	
6379.940	1	1	0	0	0.26609	0.17499	0.16168	0.31408	0.084199	0.032321	0.23642	0.076363	0.37045	0.20129	0.22056	0.22243	0.18858	0.25332	0.046185	0.20978	-0.51458	-0.71458	-0.0375	-1.1396	-0.28958	-0.40208	-1.2458	-0.27292	-0.84167	-0.88958	-0.39792	-0.99375	-0.34792	-0.36458	-0.93125	-0.27292	-12.292	38.514	-5.759	185.263	-111.502	179.837	-50.525	184.083	120.730	159.312	96.914	197.370	-135.706	164.413	-90.311	149.496	0.00020757	0.00031684	7.7069e-05	1019.8	2.8205e-06	2.2546e-06	1112.2	213.68	2.4207e-06	2.6912e-06	271.72	76.627	59.88	17.503	2.5219e-06	24.31	0.00042549	0.00047005	0.00013143	1006.8	5.2544e-06	5.1069e-06	1097.4	212.25	5.1411e-06	5.0892e-06	270.37	77.353	60.461	17.745	5.0507e-06	24.915	176.853	-53.107	196.876	-126.640	68.584	8.856	-126.659	-119.060	194.942	16.428	-119.386	-113.116	-112.675	-104.916	-34.244	-105.424	-8191	255	
6380.012	1	1	0	0	0.19434	0.26502	0.21161	0.046074	0.20148	0.25708	0.18334	0.14933	0.069299	0.066561	0.22503	0.27084	0.2009	0.17605	0.038954	0.16038	-0.18542	-0.82917	-0.0020833	-1.2167	-0.74792	-0.22917	-1.1187	-0.35208	-0.6375	-1.0271	-0.15208	-1.0667	-0.58125	-0.14583	-1.1604	-0.1125	-95.902	119.875	35.638	72.392	-131.608	154.660	89.460	-108.925	-97.808	-31.872	216.723	-125.450	-88.146	-31.384	218.236	13.286	0.00021066	0.0005777	9.6799e-05	1020.5	2.3902e-06	3.1762e-06	1108.7	214.07	1.4317e-06	3.5522e-06	272.9	76.606	60.458	17.586	4.3633e-07	24.473	0.00040467	0.00046861	0.00013132	1006.8	4.9113e-06	5.1129e-06	1098.4	212.26	4.8943e-06	5.0346e-06	270.87	77.385	60.791	17.835	4.9527e-06	24.973	166.473	-35.465	-57.036	-126.717	-66.063	18.402	-126.430	-119.036	48.820	-21.762	-119.515	-113.213	-112.758	-104.979	-99.117	-105.415	-8191	255	
6380.108	1	1	0	0	0.12862	0.2424	0.052817	0.27903	0.041462	0.364	0.021135	0.083806	0.10748	0.12215	0.091279	0.25329	0.3181	0.08137	0.2604	0.13663	-0.25625	-0.99167	-0.22292	-0.90625	-0.65	-0.36458	-1.3021	-0.42917	-0.50417	-1.0875	-0.17292	-0.85833	-0.72708	-0.175	-0.96667	-0.42917	190.192	192.187	-79.418	165.118	204.854	-27.531	52.074	-125.178	211.048	140.139	211.594	157.865	-58.514	11.402	-117.550	182.659	0.00019723	0.00013562	6.4419e-05	1027.1	1.598e-06	1.6854e-06	1110.7	213	1.8334e-06	3.624e-06	271.37	76.504	59.754	17.513	2.8113e-06	24.478	0.00040642	0.00045589	0.00013046	1008.8	4.9686e-06	5.2469e-06	1099	211.83	5.0079e-06	5.0795e-06	270.34	77.381	60.459	17.798	5.1138e-06	24.963	176.420	-43.832	-28.012	-126.756	44.424	-16.957	-126.738	-119.426	-69.613	15.928	-119.307	-113.302	-112.485	-104.802	-29.711	-105.271	-8191	255	
6380.229	1	1	0	0	0.097755	0.19032	0.10555	0.41859	0.17816	0.19197	0.39239	0.15546	0.064268	0.13865	0.25246	0.22539	0.039913	0.11303	0.061438	0.094677	0.03125	-1.1896	-0.097917	-0.83333	-0.9	-0.0875	-1.2208	-0.67083	-0.31667	-1.1083	-0.3625	-0.93542	-0.87708	0.0083333	-0.85	-0.42083	207.890	118.978	180.424	186.296	8.377	23.602	136.455	198.765	126.419	3.383	194.158	200.331	-97.668	135.993	-25.942	155.700	0.00018969	0.00033	0.00016973	1024.2	2.4405e-06	2.2968e-06	1111.7	212.1	2.3266e-06	2.1908e-06	272.43	75.792	60.135	17.332	2.8328e-06	24.66	0.00041987	0.00047493	0.00012903	1009	5.1276e-06	5.2181e-06	1099.2	211.56	5.2333e-06	5.3084e-06	270.17	77.185	60.525	17.688	5.1701e-06	25.033	182.598	-70.419	-38.505	-126.551	29.628	-69.231	-126.647	-119.215	76.239	65.935	-119.469	-113.008	-112.721	-105.041	-43.663	-105.796	-8191	255	
6380.323	1	1	0	0	0.13745	0.089837	0.2424	0.12854	0.29419	0.13964	0.36147	0.12926	0.12413	0.18529	0.1553	0.16476	0.196	0.2295	0.20922	0.21631	-0.00625	-0.9875	-0.125	-0.78125	-0.84583	-0.2	-1.1021	-0.56458	-0.30625	-1.1208	-0.36042	-0.60833	-0.9625	-0.25	-1.0938	-0.64792	-124.642	4.479	167.317	-130.842	19.462	127.994	132.338	199.787	-11.323	154.092	72.286	151.687	180.610	195.373	197.194	52.160	0.00021878	0.00041132	8.4747e-05	1025.9	2.7907e-06	5.5873e-07	1109.3	212.92	2.387e-06	2.981e-06	271.58	76.205	60.193	17.432	2.8009e-06	24.425	0.00042736	0.00047508	0.00013558	1009.1	5.2908e-06	5.1942e-06	1099.2	211.69	5.2285e-06	5.4189e-06	269.92	77.172	60.545	17.746	5.1405e-06	24.927	182.592	-54.631	-78.968	-126.729	-87.366	101.849	-126.385	-119.317	-10.974	69.834	-119.686	-113.047	-112.599	-105.571	0.140	-105.891	-8191	255	
6380.419	1	1	0	0	0.12546	0.12472	0.10722	0.25273	0.22831	0.39541	0.34412	0.30818	0.070176	0.34828	0.040249	0.25694	0.13447	0.08263	0.039	0.24902	0.41667	-1.0354	-0.27292	-0.56875	-0.85417	-0.05625	-1.1104	-0.88542	-0.41042	-1.0917	-0.37917	-0.41667	-1.1125	-0.22708	-0.77083	-0.94792	189.236	-99.822	-39.805	144.519	-14.051	108.810	131.689	-115.053	205.913	191.811	216.530	-5.276	-70.938	221.616	-38.269	123.863	0.00019115	0.00039752	6.5233e-05	1024.4	1.3067e-06	8.1704e-07	1114.4	213.43	3.5645e-06	4.8254e-06	270.16	76.892	59.971	17.51	3.578e-06	24.39	0.0004302	0.00047221	0.00013259	1008.6	5.1235e-06	5.3238e-06	1100.9	212.18	5.2183e-06	5.3362e-06	269.43	77.461	60.474	17.745	5.1325e-06	24.965	166.247	-25.584	-29.379	-126.482	-47.421	-32.755	-126.672	-119.326	0.752	26.131	-119.236	-112.980	-112.644	-104.760	-40.630	-105.037	-8191	255	
6380.516	1	1	0	0	0.20363	0.03661	0.19684	0.088226	0.099353	0.27883	0.15207	0.18707	0.104	0.22997	0.177	0.10522	0.12181	0.24378	0.025296	0.058353	0.35417	-0.94583	-0.47292	-0.575	-1.0729	-0.19375	-0.80417	-0.76875	-0.016667	-1.0438	-0.57292	-0.49167	-1.1354	-0.2875	-0.8625	-1.1333	-119.457	-102.103	-90.830	-13.627	149.126	-77.551	217.919	186.124	1.248	77.812	-12.669	211.669	-48.707	-71.179	204.806	-107.677	0.00019582	0.00026097	4.532e-05	1027.6	2.9309e-06	4.1914e-07	1113	212.78	2.1327e-06	2.7033e-06	271	76.685	60.271	17.406	2.5502e-06	24.308	0.00043595	0.00046727	0.00013341	1010.4	5.1213e-06	5.2101e-06	1100.1	212.05	5.1001e-06	5.092e-06	269.75	77.256	60.674	17.747	5.1321e-06	24.948	173.231	-53.565	155.921	-126.532	-19.681	45.334	-126.484	-118.777	-41.990	30.089	-119.512	-113.382	-112.360	-105.202	0.374	-105.716	-8191	255	
6380.636	1	1	0	0	0.011028	0.26288	0.21536	0.27922	0.33031	0.10486	0.27688	0.22729	0.14638	0.22283	0.061723	0.30524	0.11746	0.07524	0.15867	0.28787	0.17917	-0.79583	-0.625	-0.38542	-1.2792	-0.34792	-0.71458	-1.0979	0.041667	-0.91667	-0.7125	-0.20833	-1.1688	-0.31042	-0.37708	-1.0583	8.296	-119.629	142.942	209.466	-73.951	-49.151	-127.981	-129.226	82.085	-3.721	172.802	175.908	197.459	-43.315	-92.743	-14.658	0.00021514	0.00019494	7.2574e-05	1021.9	1.3062e-06	5.4343e-06	1113.7	211.86	3.3203e-06	4.7857e-06	269.83	75.991	59.848	17.496	6.4615e-07	24.284	0.00043061	0.00046601	0.00012585	1006.9	5.0045e-06	5.2209e-06	1099.9	211.53	5.2044e-06	5.1353e-06	269.14	77.063	60.331	17.716	5.0632e-06	24.917	182.000	-64.209	-62.395	-126.473	-67.266	38.169	-126.342	-119.298	-59.979	19.681	-119.209	-112.915	-112.487	-104.592	115.807	-105.838	-8191	255	
6380.708	1	1	0	0	0.14811	0.20218	0.19346	0.17932	0.18296	0.14432	0.37624	0.17264	0.28728	0.079213	0.11114	0.14243	0.174	0.24719	0.095147	0.36633	0.34167	-0.66875	-0.67083	-0.45833	-1.0083	-0.28333	-0.57292	-1.1187	-0.1125	-0.82083	-1.0167	-0.13333	-1.2167	-0.51042	-0.4	-1.0812	-81.265	67.588	-15.359	193.121	-73.243	217.803	162.591	75.521	140.343	96.261	-55.525	-121.236	128.517	212.019	185.034	-105.598	0.00021891	0.00015009	0.00013553	1017.8	1.1058e-06	3.4154e-06	1107.2	213.02	2.0131e-06	9.065e-07	270.03	76.465	59.987	17.472	1.2228e-06	24.486	0.00042916	0.00046249	0.00012958	1005.6	5.1259e-06	5.1465e-06	1096.2	211.89	5.1957e-06	5.1894e-06	269.59	77.053	60.533	17.749	5.474e-06	24.935	173.588	-14.794	-71.624	-126.395	-76.168	15.285	-126.262	-118.932	-15.160	-7.016	-119.103	-113.076	-112.570	-105.234	-42.607	-105.202	-8191	255	
6380.804	1	1	0	0	0.12579	0.21607	0.049167	0.28687	0.42145	0.10844	0.18206	0.18491	0.093835	0.11053	0.24631	0.15034	0.21539	0.27367	0.28384	0.03319	0.13958	-0.50417	-0.93125	-0.40417	-0.97292	-0.31667	-0.39583	-1.1063	-0.089583	-0.63542	-1.1479	-0.19792	-1.1313	-0.65833	-0.2	-1.3312	-52.997	63.931	216.603	177.822	-7.033	142.046	201.294	198.796	156.336	45.074	67.405	-76.238	124.383	125.205	166.314	-114.233	0.00016633	0.00037616	0.000101	1026.8	2.5174e-06	2.7571e-06	1112	214.22	2.1854e-06	3.0271e-06	270.23	76.22	60.034	17.529	1.4026e-06	24.486	0.00043311	0.00049324	0.0001362	1009.6	5.2409e-06	5.4929e-06	1098.8	212.13	5.398e-06	5.6162e-06	269.83	77.171	60.473	17.742	5.4312e-06	24.98	170.376	-28.856	-45.924	-126.442	-27.286	146.365	-126.322	-119.063	-11.517	70.682	-118.967	-113.220	-112.061	-104.956	54.050	-105.113	-8191	255	
6380.900	1	1	0	0	0.1963	0.231	0.15123	0.20634	0.17736	0.052423	0.19294	0.18778	0.19396	0.25316	0.10054	0.37511	0.18439	0.42065	0.32442	0.24082	0.21667	-0.81042	-0.97917	-0.30833	-0.92292	-0.81042	-0.38125	-1.0875	-0.095833	-0.575	-1.0729	-0.18958	-0.7875	-0.7875	-0.33333	-1.0542	163.165	85.851	19.345	-74.423	29.156	30.696	185.103	61.502	-114.804	-53.818	53.510	23.284	125.167	129.268	197.325	-28.554	0.00021394	0.00034593	6.114e-05	1020.7	2.2099e-06	3.661e-06	1111.4	212.22	1.9435e-06	4.6116e-06	269.91	76.332	60.065	17.324	2.2716e-06	24.242	0.00043449	0.00048639	0.00013743	1007.6	5.4411e-06	5.5397e-06	1100.2	212.05	5.4367e-06	5.2142e-06	269.23	77.239	60.464	17.733	5.3323e-06	24.89	174.498	-18.935	-7.322	-126.262	-44.818	45.632	-126.240	-118.828	-1.565	16.751	-119.339	-113.038	-112.789	-104.506	45.036	-104.844	-8191	255	
6381.021	1	1	0	0	0.27768	0.37775	0.19561	0.29192	0.05877	0.12597	0.13241	0.24756	0.017808	0.16456	0.16479	0.056018	0.15925	0.23631	0.31667	0.28301	-0.13958	-0.46667	-0.87292	-0.34583	-0.72708	-0.60833	-0.38958	-1.2417	-0.39167	-0.275	-1.1125	-0.27292	-0.79583	-0.95417	-0.089583	-1.0021	170.870	120.307	143.154	171.856	67.071	-54.936	84.763	-100.550	189.360	139.644	183.383	-75.497	-21.630	-90.773	8.384	194.275	0.00024108	0.00046783	5.4677e-05	1022.8	4.4989e-06	2.3314e-06	1113.2	213.1	1.0449e-06	4.7679e-06	271.31	76.294	60.272	17.46	2.8387e-06	24.423	0.00044104	0.00050389	0.00013845	1007.8	5.3762e-06	5.5164e-06	1099.1	211.53	5.2279e-06	5.3349e-06	269.98	77.157	60.566	17.7	5.3337e-06	24.962	169.014	-47.531	-43.726	-126.171	-15.319	44.763	-126.315	-118.603	220.467	60.365	-119.030	-112.734	-112.060	-104.949	17.507	-105.073	-8191	255	
6381.117	1	1	0	0	0.13764	0.088349	0.078245	0.17316	0.10292	0.29127	0.32054	0.11303	0.26791	0.31576	0.2656	0.15724	0.058786	0.22293	0.027872	0.12259	0.0041667	-0.28333	-1.0729	-0.45208	-0.69583	-0.91042	-0.375	-0.90833	-0.62292	-0.29375	-1.1708	-0.3	-0.6125	-0.99583	-0.066667	-0.97083	-23.555	-10.723	-100.640	141.656	204.651	145.593	219.563	160.708	136.473	212.369	167.238	131.670	-101.493	79.093	33.710	-52.437	0.00017269	0.00054331	0.00011092	1022	8.0006e-07	7.0953e-07	1104.1	212.8	1.4828e-06	4.2364e-06	272.33	76.056	60.141	17.428	2.1051e-06	24.299	0.0004373	0.00049924	0.000133	1007.6	5.0989e-06	5.5804e-06	1097.5	211.77	5.164e-06	5.3553e-06	270.26	77.122	60.612	17.718	5.5061e-06	24.977	163.030	-60.559	-25.308	-126.209	-54.745	-44.396	-125.932	-118.720	-38.880	23.482	-119.092	-112.534	-112.299	-104.295	16.329	-105.105	-8191	255	
6381.213	1	1	0	0	0.096705	0.3527	0.094674	0.26703	0.21254	0.12078	0.15721	0.16323	0.15059	0.0055116	0.16114	0.17639	0.015491	0.2417	0.31603	0.18967	-0.27708	0.022917	-1.1271	-0.51667	-0.37708	-0.7125	-0.47708	-0.99167	-0.68542	-0.28333	-1.1292	-0.47708	-0.42292	-1.0458	-0.025	-0.75208	33.728	70.334	-86.818	112.925	-112.349	108.321	101.282	223.203	36.069	31.771	124.193	217.741	-131.585	185.519	8.605	206.258	0.00016447	0.00048379	3.9293e-05	1024.4	2.8969e-06	3.8956e-06	1113.9	212.6	2.7199e-06	3.6891e-06	271.4	77.091	59.796	17.492	1.8732e-06	24.483	0.0004393	0.00049992	0.00013591	1007.6	5.242e-06	5.559e-06	1100.1	211.89	5.2442e-06	5.2529e-06	269.91	77.495	60.403	17.781	5.2426e-06	24.996	176.640	-35.048	-49.348	-126.242	16.316	37.459	-126.289	-118.526	-37.627	37.773	-118.965	-112.848	-112.765	-104.991	-45.086	-105.757	-8191	255	
6381.309	1	1	0	0	0.26118	0.23448	0.35719	0.14762	0.19005	0.24327	0.30429	0.51863	0.090082	0.055316	0.18754	0.14636	0.14796	0.51124	0.15222	0.10296	-0.45208	-0.016667	-0.94583	-0.525	-0.40208	-1.2437	-0.28542	-0.77083	-0.75	0.11042	-1.0292	-0.39583	-0.33958	-1.1646	-0.19167	-0.65417	195.645	-17.013	-63.953	-105.382	104.132	99.755	94.428	215.382	136.675	132.040	-87.396	150.370	131.110	195.270	9.752	208.335	0.00017477	9.9434e-05	0.00011614	1023.8	3.8654e-06	3.2321e-06	1109.1	213.69	1.8975e-06	5.3038e-06	271.42	76.197	60.278	17.586	2.5003e-06	24.371	0.00042805	0.00047941	0.0001337	1007.2	5.1614e-06	5.2236e-06	1098.2	212.15	5.0677e-06	5.5011e-06	270.24	77.329	60.693	17.78	5.0421e-06	24.94	176.458	-63.374	-71.418	-126.622	20.995	25.315	-126.912	-119.182	-43.280	58.028	-119.253	-113.439	-112.677	-104.764	1.342	-105.846	-8191	255	
6381.404	1	1	0	0	0.2386	0.032254	0.058979	0.12352	0.20446	0.092126	0.12443	0.041536	0.2124	0.31164	0.17292	0.18026	0.20216	0.19079	0.074746	0.2177	-0.41667	-0.0020833	-0.80625	-0.77917	-0.075	-1.0583	-0.38125	-0.51875	-1.175	-0.16875	-0.93958	-0.75625	-0.2875	-1.1063	-0.28958	-0.41875	82.339	175.236	139.424	139.871	72.230	-71.842	156.456	151.531	43.758	206.390	-108.571	58.267	-35.486	-51.225	127.264	-125.890	0.00021227	0.00026804	4.6703e-05	1024.7	3.8415e-06	1.4672e-06	1111	214.35	2.1396e-06	2.7666e-06	271.06	76.082	60.113	17.589	2.0925e-06	24.333	0.00041525	0.00047784	0.00012928	1007.2	5.1132e-06	5.1693e-06	1096.9	212.11	4.936e-06	5.124e-06	269.83	77.244	60.551	17.809	5.2011e-06	25.044	174.403	-28.059	-75.663	-126.472	-1.844	48.753	-126.646	-119.262	23.749	12.193	-119.415	-112.994	-112.466	-105.102	-44.616	-105.403	-8191	255	
6381.502	1	1	0	0	0.093894	0.21169	0.35158	0.19194	0.13262	0.29664	0.20009	0.35725	0.088673	0.014115	0.22067	0.27646	0.3105	0.18954	0.17571	0.16427	-0.66042	-0.025	-0.80417	-0.5125	-0.17083	-1.1125	-0.66667	-0.425	-0.99167	-0.10833	-0.89792	-0.92708	-0.077083	-1.2042	-0.54375	-0.1625	-93.721	-99.976	124.432	215.845	21.741	44.514	164.864	-119.831	-64.858	152.511	181.523	199.972	-10.123	169.679	-135.418	85.549	0.00021753	0.00018087	8.3014e-05	1022.5	1.0575e-06	1.2896e-06	1110.5	212.97	2.5083e-06	4.4975e-06	271.01	76.272	59.91	17.446	7.7083e-07	24.356	0.00041491	0.00047032	0.00012741	1007.8	5.2601e-06	5.2822e-06	1099.3	211.76	5.2646e-06	5.3247e-06	269.59	77.034	60.519	17.753	5.2276e-06	24.964	166.411	-75.984	-76.476	-126.662	-11.770	48.284	-126.687	-119.077	-109.614	48.453	-119.306	-113.399	-112.571	-104.998	32.892	-105.445	-8191	255	
6381.620	1	1	0	0	0.069054	0.15765	0.082785	0.34449	0.10029	0.094279	0.40275	0.1189	0.16875	0.20108	0.30338	0.11928	0.25046	0.21578	0.18069	0.29638	-0.6625	-0.19167	-0.7	-0.9125	0.052083	-1.2021	-0.64375	-0.21458	-1.025	-0.077083	-0.62083	-1.1375	-0.047917	-0.82917	-0.38542	-0.25833	-77.520	10.134	-25.728	146.733	-14.340	27.298	152.406	51.858	206.800	-77.745	-119.010	179.311	154.695	218.269	203.736	-118.488	0.00018376	0.00033295	0.00010779	1021.4	1.705e-06	3.9234e-06	1108.5	213.2	8.4228e-07	2.5127e-06	270.82	76.322	60.033	17.389	1.304e-06	24.608	0.00043624	0.00050748	0.00013636	1006.4	5.3095e-06	5.3764e-06	1098.6	211.94	5.2444e-06	5.5027e-06	269.79	77.225	60.466	17.719	5.3005e-06	25.01	176.756	-63.105	-10.096	-126.638	-63.322	54.775	-126.637	-119.106	-27.462	-90.066	-119.369	-113.229	-112.456	-104.936	-65.899	-105.886	-8191	255	
6381.717	1	1	0	0	0.26387	0.26802	0.22248	0.17548	0.21474	0.25191	0.10644	0.089682	0.3362	0.12777	0.26663	0.21963	0.042507	0.16943	0.12438	0.36143	-0.67292	-0.064583	-0.54583	-1.0354	-0.025	-0.8625	-0.77083	-0.27917	-0.96667	-0.38125	-0.46875	-1.0333	-0.17917	-0.79167	-0.55833	-0.3	176.809	199.502	37.190	-106.847	80.823	186.259	66.456	156.883	-42.016	-0.375	148.584	-54.504	143.008	14.194	85.972	-87.889	0.00020091	0.00019679	8.7119e-05	1021.5	4.1498e-06	2.5205e-06	1110.8	212.42	3.4206e-06	2.9719e-06	272.28	76.29	59.752	17.533	3.4087e-06	24.757	0.00042621	0.0005002	0.00013448	1007.2	5.1366e-06	5.3851e-06	1096.5	211.66	5.1216e-06	5.2453e-06	270.08	77.213	60.513	17.78	5.3192e-06	25.088	179.601	-21.406	-51.010	-127.013	15.039	32.558	-127.210	-119.685	-74.966	20.247	-119.593	-113.807	-112.768	-105.546	-14.442	-105.570	-8191	255	
6381.813	1	1	0	0	0.090424	0.062308	0.11164	0.24671	0.086501	0.16146	0.068236	0.16173	0.30526	0.24885	0.070182	0.20503	0.19021	0.065109	0.076361	0.27549	-0.65208	-0.2	-0.25208	-1.2313	-0.22917	-0.70833	-0.97708	-0.26458	-0.825	-0.39792	-0.53542	-1.0187	-0.10833	-0.76458	-0.99583	-0.1375	19.527	136.929	122.042	172.818	-93.317	37.558	9.430	0.401	-49.968	58.321	-81.895	76.981	-52.063	145.188	179.200	194.545	0.00018039	0.00034155	0.00010759	1021.1	2.5411e-06	1.3593e-06	1107.8	212.5	1.0114e-06	2.9806e-06	272.48	76.24	59.572	17.565	2.3788e-06	24.541	0.00042226	0.00046595	0.00013558	1007.9	5.384e-06	5.4049e-06	1100.1	211.93	5.2815e-06	5.4974e-06	270.59	77.087	60.39	17.803	5.0917e-06	25.015	169.101	-42.441	-10.578	-126.876	-50.996	-7.849	-127.075	-119.713	-32.985	-13.960	-119.785	-113.516	-113.251	-105.584	-29.965	-105.936	-8191	255	
6381.909	1	1	0	0	0.19826	0.071616	0.053721	0.15347	0.19496	0.0077879	0.29215	0.10063	0.16248	0.2891	0.16765	0.24773	0.18092	0.25895	0.36298	0.062496	-0.54792	-0.47292	-0.275	-1.2563	-0.18958	-0.71042	-1.0354	-0.16458	-1.0708	-0.86667	-0.13333	-1.0625	-0.47917	-0.63542	-0.87292	-0.05625	153.242	100.192	6.890	58.559	137.292	89.236	182.778	48.962	-31.936	154.138	81.438	177.248	34.829	95.241	43.291	-100.879	0.00019303	0.00039824	0.00015096	1024.5	3.8217e-06	2.5124e-06	1105.9	212.61	2.676e-06	4.5139e-06	270.61	76.863	59.972	17.388	3.3262e-06	24.551	0.00042273	0.00047508	0.00013728	1009.2	5.3588e-06	5.3103e-06	1098.1	211.96	5.2359e-06	5.3408e-06	269.81	77.302	60.391	17.737	5.1817e-06	24.969	180.386	-75.176	-41.084	-126.942	-15.558	17.737	-127.203	-119.837	-59.509	114.866	-120.054	-113.517	-113.226	-105.606	-51.609	-106.699	-8191	255	
6382.005	1	1	0	0	0.17983	0.17233	0.23347	0.45296	0.12172	0.22652	0.22663	0.23185	0.24524	0.062586	0.33073	0.15235	0.25217	0.096239	0.29264	0.21076	-0.37917	-0.55833	-0.1875	-1.0688	-0.26875	-0.4	-1.1167	-0.22708	-0.95	-0.75625	-0.10208	-1.0354	-0.37917	-0.3875	-1.1479	-0.27708	73.942	98.570	-82.499	216.624	-66.315	-133.127	187.432	192.093	58.345	-40.970	-57.351	146.986	168.051	-91.125	-22.670	36.330	0.00017534	0.0005463	8.7688e-05	1018.9	2.0363e-06	4.5028e-06	1110.2	212.02	3.3654e-06	6.3183e-06	269.95	76.337	59.952	17.446	2.738e-06	24.781	0.0004093	0.00049862	0.00013499	1006.9	5.1459e-06	5.1898e-06	1098.8	211.61	5.0796e-06	5.3065e-06	269.7	77.142	60.451	17.756	4.981e-06	25.076	177.346	-65.848	-23.151	-127.489	-11.582	14.582	-127.748	-120.108	16.908	78.006	-120.292	-113.484	-113.241	-105.999	-51.442	-106.319	-8191	255	
6382.101	1	1	0	0	0.19742	0.20961	0.13963	0.36356	0.097225	0.092117	0.18085	0.27533	0.21959	0.17949	0.078993	0.33848	0.24259	0.32438	0.17366	0.081925	-0.31042	-0.77708	-0.085417	-1.2375	-0.39375	-0.29792	-1.1792	-0.22708	-0.64792	-0.94167	-0.20208	-1.0604	-0.22083	-0.325	-1.0292	-0.22917	218.608	140.689	17.979	181.203	118.939	-137.757	123.436	169.156	-63.366	-94.121	173.632	143.543	-45.173	-31.467	-55.817	153.645	0.00021256	0.00048318	5.8331e-05	1022.1	1.4841e-06	3.626e-06	1106.8	212.86	8.4796e-07	3.415e-06	270.49	76.143	59.585	17.476	4.271e-06	24.387	0.00042558	0.0004758	0.0001343	1008.1	5.3466e-06	5.1486e-06	1097.2	211.73	5.0844e-06	5.2662e-06	269.66	77.135	60.357	17.782	5.0162e-06	24.993	189.337	-56.690	-31.883	-127.206	12.121	41.708	-127.545	-119.984	-93.634	26.639	-120.020	-114.044	-113.724	-105.745	5.721	-106.539	-8191	255	
6382.197	1	1	0	0	0.22554	0.19657	0.1512	0.1713	0.15167	0.045375	0.2567	0.13089	0.26228	0.21779	0.2451	0.17034	0.25382	0.080355	0.23645	0.084152	-0.14167	-0.87292	-0.10417	-1.1271	-0.64792	-0.22917	-1.0375	-0.30625	-0.52292	-0.96875	-0.18958	-1.0854	-0.62292	-0.31667	-1.0604	-0.3875	55.958	203.865	-58.727	192.258	-32.957	-95.324	-133.841	64.649	-52.486	33.044	172.974	-117.936	193.567	94.784	194.100	171.786	0.00016395	0.00020175	0.00010197	1019.1	2.7512e-06	4.2719e-06	1105.1	212.8	1.2019e-06	4.3418e-06	270.33	76.732	59.93	17.394	3.8019e-06	24.474	0.0004041	0.00045886	0.00012844	1007.7	5.1965e-06	5.2794e-06	1096.3	211.58	5.026e-06	5.1725e-06	269.53	77.38	60.457	17.748	4.973e-06	25.005	185.323	19.305	-5.762	-127.299	-30.116	-15.318	-127.433	-120.186	41.876	-12.752	-120.136	-114.018	-113.515	-105.494	-25.032	-105.987	-8191	255	
6382.316	1	1	0	0	0.12622	0.28446	0.16504	0.13011	0.25078	0.21584	0.39524	0.0427	0.30829	0.18594	0.11543	0.056503	0.15621	0.086664	0.36675	0.28093	-0.19375	-1.0917	-0.10208	-0.83125	-0.73958	-0.25625	-1.2604	-0.21875	-0.21875	-1.0271	-0.066667	-0.75208	-0.91458	-0.17083	-1.1542	-0.41667	76.686	-28.889	190.977	20.878	66.015	-2.977	187.270	210.295	-65.996	54.636	29.026	133.542	193.441	198.916	152.071	183.180	0.00024033	0.0004895	7.1861e-05	1022.6	4.5014e-06	2.3756e-06	1105.9	211.46	2.1503e-06	3.8793e-06	270.92	76.936	60.094	17.461	2.6009e-07	24.4	0.00041145	0.00045313	0.00012502	1008.2	4.9623e-06	5.0852e-06	1096.1	211.69	4.871e-06	4.9851e-06	269.38	77.51	60.484	17.735	4.9547e-06	24.957	174.622	-58.318	-34.353	-127.365	47.941	18.971	-127.201	-120.142	-30.811	53.079	-119.973	-114.175	-113.379	-105.640	149.068	-106.343	-8191	255	
6382.412	1	1	0	0	0.16808	0.046683	0.18314	0.2749	0.1993	0.10016	0.23205	0.029429	0.20327	0.10951	0.10061	0.20474	0.045716	0.118	0.10385	0.19108	0.027083	-1.1146	-0.18958	-1.0063	-0.99167	-0.0875	-1.1604	-0.73333	-0.44792	-1.0667	-0.33125	-0.90833	-0.93333	-0.31458	-0.77917	-0.66458	-3.259	-137.797	-25.773	170.113	50.450	-131.313	199.252	-132.670	-82.565	-91.424	33.956	91.578	-75.115	148.105	-75.172	196.744	0.00019825	0.00053296	0.0001088	1025.6	3.9027e-06	1.6161e-06	1109	212.41	2.4883e-06	2.5953e-06	270.21	76.228	59.777	17.5	2.9543e-06	24.152	0.00041502	0.00046978	0.0001298	1007.8	5.1217e-06	5.307e-06	1098.7	211.57	5.2287e-06	5.3606e-06	269.42	77.013	60.456	17.775	5.0746e-06	24.829	181.862	-61.737	-53.040	-127.287	47.989	55.332	-127.355	-119.853	-10.901	-18.797	-120.128	-113.795	-113.269	-105.396	-65.883	-106.664	-8191	255	
6382.509	1	1	0	0	0.1591	0.1178	0.011809	0.11191	0.22544	0.20595	0.27224	0.32184	0.15968	0.31494	0.44312	0.24326	0.2119	0.13966	0.39177	0.099196	0.027083	-1.0979	-0.13125	-0.65	-1.0042	0.041667	-1.2062	-0.71667	-0.10208	-1.0438	-0.475	-0.60625	-0.89375	-0.23125	-0.74583	-0.55	140.195	97.865	58.938	-79.104	17.265	-62.892	169.895	-95.139	-99.593	218.250	207.084	206.365	169.747	-85.398	171.974	-44.647	0.00021792	0.00012291	6.8501e-05	1022	1.7835e-06	4.1993e-06	1110.4	213.12	2.0234e-06	2.632e-06	270.54	76.776	60.172	17.441	2.7873e-06	24.366	0.00041846	0.00047244	0.00013089	1007.3	4.9867e-06	5.0836e-06	1096.6	212.12	5.0725e-06	5.1541e-06	269.35	77.334	60.496	17.694	5.0904e-06	24.922	174.023	-34.304	-47.849	-127.329	72.759	34.314	-127.405	-119.998	-11.136	9.643	-120.152	-113.697	-113.079	-106.013	-17.948	-106.400	-8191	255	
6382.582	1	1	0	0	0.023876	0.026605	0.32443	0.29359	0.36212	0.17863	0.52535	0.21038	0.11298	0.36085	0.14246	0.10368	0.28373	0.23453	0.10978	0.27622	0.14375	-0.94167	-0.34375	-0.52083	-0.93542	-0.097917	-0.93125	-0.80625	-0.014583	-1.1896	-0.57292	-0.4625	-1.0229	-0.20417	-0.8	-0.80208	133.525	18.992	-95.698	-116.206	203.714	136.495	184.337	186.794	-27.470	-132.914	8.028	-91.674	-14.236	91.301	171.281	221.471	0.00021624	0.00031858	0.00010909	1024.2	2.0172e-06	2.6952e-06	1107.9	212.68	2.2046e-06	1.9782e-06	269.63	76.428	59.919	17.497	1.1592e-06	24.446	0.00042372	0.0004698	0.00012715	1007.5	5.0712e-06	5.1248e-06	1097.7	211.6	5.1018e-06	5.1426e-06	268.83	77.136	60.49	17.724	4.9953e-06	24.887	183.064	-71.279	-4.930	-127.201	-15.844	23.193	-127.438	-119.899	-48.794	-48.837	-120.124	-113.859	-113.544	-105.772	-15.542	-106.532	-8191	255	
6382.701	1	1	0	0	0.28429	0.20686	0.32125	0.17877	0.30485	0.09492	0.23783	0.036787	0.14588	0.20056	0.24298	0.20533	0.19901	0.26526	0.20701	0.043392	0.27917	-1.1396	-0.35208	-0.28333	-1.0458	-0.0041667	-0.83125	-0.83125	0.083333	-0.74583	-0.675	-0.4875	-1.0396	-0.2625	-0.6	-0.76667	-127.350	-77.432	122.733	-136.684	-29.454	55.100	190.208	212.967	168.152	164.739	99.760	145.103	81.738	-136.353	11.961	149.904	0.00022094	0.00043193	3.0548e-05	1025.5	1.5518e-06	3.2125e-06	1112.3	212.19	8.6239e-07	1.6159e-06	269.47	76.641	59.595	17.451	1.7997e-06	24.432	0.00041064	0.00047516	0.00012903	1007	4.8867e-06	5.021e-06	1098.9	211.84	5.1144e-06	5.0199e-06	269.69	77.255	60.297	17.734	4.9901e-06	24.956	174.686	-52.732	-1.567	-127.037	-96.375	42.045	-127.286	-119.916	201.063	56.251	-120.427	-113.891	-113.618	-105.722	23.598	-106.336	-8191	255	
6382.797	1	1	0	0	0.288	0.22479	0.27797	0.28519	0.27575	0.080583	0.19941	0.12513	0.19727	0.25416	0.2077	0.30722	0.040964	0.052051	0.24654	0.12323	0.25625	-0.92708	-0.59167	-0.45833	-1.0625	-0.17708	-0.65208	-0.83542	-0.16875	-0.83542	-0.84792	-0.29167	-1.0583	-0.35625	-0.32083	-0.91458	72.610	220.741	172.296	166.869	176.362	19.473	125.507	157.732	180.377	69.265	-122.557	198.231	131.147	205.509	21.930	50.303	0.00023218	0.00033749	0.00013323	1023.5	1.6441e-06	5.2323e-06	1104.5	212.72	1.7308e-06	9.8863e-07	269.49	76.384	60.105	17.534	1.8855e-06	24.39	0.00041361	0.00045748	0.0001269	1007	4.9172e-06	5.064e-06	1095.5	211.61	5.0675e-06	5.0146e-06	269.27	77.254	60.438	17.799	4.9567e-06	24.955	176.116	-13.949	-54.915	-127.240	91.137	41.169	-127.242	-120.010	-15.715	-52.206	-120.276	-113.738	-113.423	-105.494	70.959	-106.121	-8191	255	
6382.893	1	1	0	0	0.1351	0.089896	0.3777	0.41837	0.097398	0.23573	0.18014	0.087135	0.085621	0.24218	0.12077	0.21429	0.073426	0.10041	0.014919	0.10134	0.075	-0.625	-0.65208	-0.38125	-0.95833	-0.49167	-0.55833	-1.1229	-0.24375	-0.575	-0.98542	-0.2625	-1.0542	-0.52292	-0.20625	-1.0417	22.848	120.007	-113.510	151.745	58.074	-44.736	-87.057	133.727	66.398	-46.506	154.573	-116.559	-126.680	24.629	193.070	-7.006	0.00016747	0.000244	0.00010767	1020.8	3.4575e-06	1.9133e-06	1108	211.42	1.2499e-06	5.3024e-06	269.44	76.272	60.073	17.527	2.6259e-06	24.656	0.00040751	0.00045779	0.0001261	1007.8	5.0527e-06	5.1437e-06	1094.7	211.39	5.0138e-06	5.1456e-06	269.1	77.288	60.503	17.749	4.8592e-06	25.016	181.729	-59.666	-40.665	-127.311	-51.977	6.868	-127.104	-119.871	-45.220	41.582	-120.143	-113.772	-112.986	-105.701	-17.432	-106.136	-8191	255	
6383.014	1	1	0	0	0.22313	0.41193	0.056622	0.025521	0.23064	0.14182	0.13323	0.17737	0.31789	0.061729	0.13581	0.1654	0.24628	0.077243	0.33449	0.26482	0.15208	-0.58333	-1.0042	-0.18333	-0.88542	-0.40625	-0.31875	-0.85833	-0.17292	-0.59583	-0.90833	-0.10208	-0.85833	-0.59792	-0.13542	-1.1208	86.235	16.815	98.847	94.529	-75.498	204.711	87.075	171.588	119.174	-16.992	-74.070	118.923	-129.766	54.612	52.051	155.762	0.00020634	0.000377	3.5507e-05	1019.6	2.7865e-06	3.0148e-06	1111.4	212.28	2.7227e-06	3.7903e-06	270.81	75.544	59.702	17.461	2.929e-06	24.684	0.00041138	0.00046075	0.00012953	1004.9	4.8631e-06	5.1723e-06	1096.6	211.37	4.9177e-06	5.0878e-06	269.28	77.041	60.354	17.753	5.0124e-06	25.033	179.582	-28.708	-35.231	-127.204	-10.011	62.302	-127.374	-119.799	-39.686	-18.911	-120.273	-114.175	-112.944	-105.485	29.410	-106.053	-8191	255	
6383.110	1	1	0	0	0.2808	0.20058	0.17875	0.050786	0.16309	0.076326	0.077663	0.30575	0.052708	0.1051	0.12345	0.13306	0.087788	0.019983	0.34571	0.28337	0.11458	-0.46875	-1.0312	-0.36667	-0.91042	-0.7375	-0.44375	-1.3021	-0.4625	-0.45	-1.1271	-0.225	-0.68958	-0.71042	-0.12292	-1.1292	-126.701	14.426	69.655	-1.098	-40.282	122.103	-84.828	178.705	44.654	-95.919	215.872	200.631	195.883	48.041	192.658	146.114	0.00020033	0.00046774	9.9533e-05	1022.3	7.4521e-07	4.2831e-06	1108.5	212.54	1.3945e-06	2.7735e-06	268.71	76.235	60.291	17.299	1.887e-06	24.347	0.00042225	0.00045927	0.00013045	1008.1	5.166e-06	5.2137e-06	1096.1	211.44	5.082e-06	5.1435e-06	269.03	77.089	60.561	17.681	5.1405e-06	24.933	189.616	-40.481	-75.752	-127.310	66.143	-8.293	-127.233	-119.631	-69.950	18.387	-119.870	-113.999	-113.382	-105.543	43.953	-106.253	-8191	255	
6383.182	1	1	0	0	0.18898	0.21542	0.062283	0.24687	0.062282	0.19865	0.15758	0.12762	0.23991	0.23011	0.22944	0.26337	0.081636	0.1171	0.18611	0.21571	-0.097917	-0.33333	-1.175	-0.4375	-0.75208	-0.86875	-0.22292	-0.9875	-0.62708	-0.40208	-1.1104	-0.097917	-0.77083	-0.89792	0.025	-1.1354	26.239	118.996	-73.956	178.338	31.276	-15.402	101.322	-23.767	-11.158	63.794	212.480	167.990	17.242	107.721	-6.004	133.611	0.00017404	0.00041484	8.3222e-05	1017.2	2.2735e-06	3.5831e-06	1106	212.27	9.7094e-07	4.9265e-06	269.91	76.198	59.783	17.321	2.9809e-06	24.397	0.0004234	0.00048031	0.00012936	1005	5.093e-06	5.1338e-06	1097.3	211.26	5.0325e-06	5.0549e-06	268.48	76.961	60.502	17.718	5.1223e-06	24.883	187.964	-19.795	-78.268	-127.091	-41.574	45.486	-127.188	-119.688	-18.613	20.810	-120.058	-113.524	-113.195	-105.785	6.086	-105.893	-8191	255	
6383.302	1	1	0	0	0.34905	0.17316	0.2662	0.049696	0.17433	0.1078	0.049938	0.2661	0.27948	0.078662	0.15115	0.1955	0.08251	0.35267	0.14703	0.12963	-0.14583	-0.175	-1.0167	-0.24583	-0.57708	-1.0417	-0.48958	-0.96667	-0.72917	-0.26875	-1.2125	-0.31667	-0.46667	-1.1688	-0.34792	-0.79167	162.307	-10.804	96.518	154.829	-71.642	-53.280	-76.926	220.447	-121.416	180.595	-81.909	-123.517	-115.188	188.017	15.419	136.697	0.0001692	0.00033239	0.00010258	1018.3	3.1566e-06	2.2607e-06	1111.8	212.66	2.9594e-06	3.6885e-06	267.89	76.412	60.084	17.439	2.4241e-06	24.462	0.00042422	0.00047726	0.00013082	1006.1	5.03e-06	5.0394e-06	1096.7	211.54	5.2396e-06	5.2775e-06	268.96	77.053	60.509	17.757	5.1806e-06	24.909	171.889	-84.832	3.148	-126.824	-53.082	-9.072	-127.290	-119.946	-46.713	-30.684	-119.911	-113.779	-112.738	-105.502	-26.584	-105.882	-8191	255	
6383.397	1	1	0	0	0.032321	0.28403	0.42256	0.11462	0.28367	0.13145	0.11588	0.35317	0.1764	0.13392	0.1834	0.086255	0.29274	0.18091	0.11825	0.21595	-0.32083	-0.091667	-0.85417	-0.34583	-0.55833	-0.88542	-0.30833	-0.93333	-0.64375	-0.19167	-1.1208	-0.29375	-0.079167	-1.0229	-0.083333	-0.82917	127.287	62.504	97.606	-115.039	71.676	1.355	167.981	169.621	208.595	167.200	201.622	173.334	220.807	131.713	212.180	124.668	0.00018152	0.00021509	6.9917e-05	1021.6	1.6165e-06	4.28e-06	1108.5	212.63	2.2057e-06	5.4339e-06	269.58	76.016	60.174	17.362	2.3367e-06	24.369	0.0004101	0.00048223	0.00013071	1006.4	5.0799e-06	5.0739e-06	1095.6	211.8	5.1229e-06	5.1283e-06	268.95	77.203	60.494	17.726	5.0521e-06	24.951	174.090	-18.891	-40.218	-126.975	-16.089	15.323	-127.102	-119.624	-27.905	29.636	-119.662	-113.650	-113.473	-105.819	-22.649	-105.728	-8191	255	
6383.493	1	1	0	0	0.30474	0.080503	0.24524	0.27027	0.336	0.19634	0.29696	0.10734	0.2262	0.13198	0.3331	0.30778	0.32214	0.27585	0.12662	0.11973	-0.47708	-0.13125	-0.96875	-0.48958	-0.28333	-1.0625	-0.33125	-0.79583	-0.83333	-0.30208	-0.83333	-0.58333	-0.21458	-1.2021	-0.20625	-0.59375	184.991	-4.264	65.100	177.612	17.557	50.610	66.458	178.422	61.579	194.998	205.763	206.943	-112.454	51.405	100.275	89.411	0.00024408	0.00045754	0.00015761	1020.8	3.6507e-06	2.9278e-06	1106.1	212.64	1.1466e-06	4.4313e-06	270.55	76.579	59.905	17.437	4.5201e-06	24.432	0.0004139	0.0004589	0.00012413	1006.2	4.9997e-06	5.1824e-06	1094.3	211.83	4.9805e-06	5.2524e-06	268.96	77.119	60.308	17.71	5.1394e-06	24.902	176.755	-44.324	-18.289	-126.971	-40.511	-7.752	-126.845	-119.398	4.411	-66.421	-119.638	-113.623	-112.650	-105.246	0.611	-105.800	-8191	255	
6383.613	1	1	0	0	0.20432	0.24268	0.15358	0.29795	0.098533	0.27522	0.092578	0.223	0.23687	0.12683	0.22398	0.25471	0.14954	0.17488	0.24788	0.20177	-0.39792	-0.18125	-0.96042	-0.56667	-0.16667	-1.0312	-0.42292	-0.4625	-0.86458	-0.1875	-1.0083	-0.78542	-0.12917	-0.99167	-0.3125	-0.35208	-45.570	-73.105	35.482	208.135	2.639	163.970	149.038	-118.181	-86.380	153.681	-102.508	9.761	-76.180	198.372	21.292	-133.094	0.00018395	0.00031186	0.00011038	1014.9	6.2203e-07	3.1453e-06	1103.9	212.67	2.0532e-06	4.3247e-06	268.71	75.968	59.971	17.199	1.9998e-06	24.337	0.00041305	0.00047116	0.00012422	1002.7	5.0607e-06	4.9809e-06	1093.2	211.17	4.8002e-06	5.0943e-06	268.39	76.954	60.385	17.629	5.0966e-06	24.912	169.139	-63.848	-30.605	-126.956	-31.358	34.188	-127.248	-119.641	-80.144	-7.221	-119.474	-113.696	-112.758	-105.354	-88.569	-105.779	-8191	255	
6383.710	1	1	0	0	0.16479	0.046512	0.065162	0.25185	0.17774	0.17944	0.13453	0.24022	0.28315	0.31107	0.11548	0.11368	0.14508	0.13973	0.14788	0.24711	-0.66458	-0.029167	-0.82083	-0.83125	-0.08125	-0.91042	-0.51667	-0.36042	-0.97083	-0.12917	-0.81458	-0.84167	0.0020833	-1.0042	-0.31042	-0.38125	-39.483	-28.047	-106.556	71.164	191.811	64.039	186.792	210.441	176.020	-128.479	168.762	87.192	173.814	155.319	216.296	158.885	0.00022847	0.00021493	9.0345e-05	1021.9	1.9703e-06	2.4908e-06	1109.7	212.07	3.1929e-06	4.9396e-06	270.86	76.617	59.413	17.396	2.4159e-06	24.327	0.0004134	0.00047382	0.00012769	1006.2	4.9721e-06	5.1525e-06	1096.7	211.39	5.0349e-06	5.034e-06	269.08	77.234	60.136	17.731	5.0543e-06	24.918	178.975	-44.405	-39.921	-126.728	2.743	52.741	-126.877	-119.127	-37.659	23.487	-119.355	-113.479	-112.871	-105.242	-44.927	-105.538	-8191	255	
6383.806	1	1	0	0	0.22116	0.30921	0.18631	0.12367	0.077776	0.25437	0.12751	0.27878	0.082926	0.13152	0.3225	0.11326	0.070539	0.091757	0.15156	0.11018	-0.74167	-0.12917	-0.5875	-1.0562	-0.10625	-1.0333	-0.68333	-0.18542	-0.875	-0.12292	-0.5875	-0.93958	-0.16458	-0.75208	-0.55208	-0.08125	220.351	11.020	218.110	145.812	-93.371	-130.983	50.269	207.821	216.796	177.734	145.033	-116.764	-127.961	-111.557	132.096	33.420	0.00020041	0.00040499	0.00015738	1020.9	3.2721e-06	1.9233e-06	1106.8	211.39	3.2409e-06	5.9844e-06	268.99	76.548	59.853	17.678	3.6727e-06	24.333	0.00041035	0.00046191	0.00012898	1005.9	5.1202e-06	5.076e-06	1094.5	211.01	4.941e-06	5.0752e-06	269.07	77.223	60.194	17.752	5.0407e-06	24.89	180.742	-70.534	-35.319	-126.801	-39.039	-2.442	-126.904	-119.255	-33.275	5.266	-119.767	-113.635	-112.610	-105.255	24.348	-105.539	-8191	255	
6383.877	1	1	0	0	0.16797	0.12364	0.089892	0.031294	0.12538	0.2357	0.36504	0.30684	0.2871	0.19352	0.30348	0.15879	0.20146	0.22404	0.28465	0.14346	-0.56667	-0.075	-0.5375	-1.0271	0.025	-0.80833	-0.88542	-0.22708	-0.91042	-0.13958	-0.52083	-1.2042	-0.15833	-0.77917	-0.71458	-0.16667	99.965	-118.362	91.154	-106.335	-25.465	155.180	89.476	64.668	179.264	-0.469	188.065	161.860	200.011	-129.616	184.152	129.474	0.00019548	0.00045957	6.0245e-05	1020.1	2.9622e-06	2.8877e-06	1107.7	212.19	2.6975e-06	4.8092e-06	271.31	76.053	60.116	17.473	4.4832e-06	24.512	0.00041466	0.00048268	0.00013202	1004.7	5.1122e-06	4.9509e-06	1096.5	211.62	4.9175e-06	5.1401e-06	269.82	77.096	60.491	17.76	4.9443e-06	24.941	178.924	-32.274	-82.676	-126.788	-94.390	4.833	-126.877	-119.325	-19.460	-14.621	-119.493	-113.537	-112.712	-105.122	-50.525	-105.669	-8191	255	
6383.974	1	1	0	0	0.20249	0.23989	0.22503	0.17025	0.11094	0.2151	0.15069	0.26335	0.22152	0.32619	0.36155	0.1505	0.10439	0.15269	0.13816	0.28897	-0.57292	-0.35833	-0.30417	-1.0938	-0.15	-0.625	-0.90625	-0.22708	-1.1313	-0.45625	-0.25	-1.1771	-0.12292	-0.64167	-0.73333	-0.16667	76.945	115.240	-82.646	-120.597	86.906	147.469	-122.761	-125.361	-5.093	127.069	154.947	-42.872	-102.452	143.816	-83.524	168.614	0.0002005	0.00018034	7.6653e-05	1025.2	2.1873e-06	1.9126e-06	1099.6	213.17	2.5196e-06	4.3287e-06	269.78	76.495	59.933	17.424	2.0432e-06	24.49	0.00041255	0.00047425	0.00013121	1005.2	5.1071e-06	5.0758e-06	1093.4	212.09	5.1246e-06	5.3694e-06	269.55	76.983	60.394	17.701	5.1575e-06	24.972	176.354	-37.009	11.430	-127.103	33.353	-14.892	-127.157	-119.618	-64.450	-26.232	-119.351	-113.800	-112.999	-105.119	32.263	-106.128	-8191	255	
6384.094	1	1	0	0	0.17433	0.013477	0.074682	0.30186	0.076137	0.10638	0.06697	0.13848	0.022874	0.044451	0.092769	0.18326	0.16617	0.26754	0.1801	0.1392	-0.65417	-0.39792	-0.20417	-1.275	-0.32917	-0.6875	-1.1104	-0.11875	-0.79583	-0.4125	-0.11458	-0.97708	-0.27917	-0.675	-0.93333	-0.19792	136.525	2.463	-79.592	140.501	-82.593	171.450	152.387	124.093	218.417	14.478	131.826	212.912	91.909	159.295	-134.602	121.587	0.00018643	0.00020002	0.0001701	1019.7	3.6034e-06	4.9817e-06	1103.4	210.64	2.7383e-06	2.3955e-06	269.72	76.583	59.641	17.476	1.4711e-06	24.401	0.00042839	0.00047695	0.00013587	1004.7	5.1812e-06	5.2181e-06	1094	210.55	5.1842e-06	5.357e-06	268.93	77.237	60.256	17.717	5.1554e-06	24.881	185.090	-52.697	-87.997	-126.901	-56.230	46.328	-127.311	-119.531	-53.695	20.179	-119.612	-113.813	-113.110	-105.469	-49.068	-105.820	-8191	255	
6384.190	1	1	0	0	0.27509	0.15944	0.11362	0.17364	0.080031	0.091695	0.13462	0.16665	0.080828	0.26441	0.093007	0.075836	0.057218	0.090752	0.14717	0.12483	-0.52292	-0.5875	-0.11667	-1.1854	-0.32917	-0.53958	-1.1375	-0.25	-0.76042	-0.90833	-0.11458	-1.0542	-0.45833	-0.36042	-1.1042	-0.23958	181.327	42.549	6.682	212.780	143.908	188.726	-98.355	158.845	-129.737	212.937	216.093	-108.992	200.848	81.484	-121.770	17.211	0.00020189	0.0003207	5.1935e-05	1017.1	1.8116e-06	1.1308e-06	1103.7	212.31	1.3895e-06	2.1643e-06	269.15	76.092	60.005	17.384	2.007e-06	24.519	0.00042367	0.00048514	0.00013524	1003.2	5.3128e-06	5.3027e-06	1094.2	211.35	5.2263e-06	5.2428e-06	268.88	77.083	60.292	17.664	4.926e-06	24.899	189.547	-40.460	-104.496	-126.971	-32.303	69.967	-126.871	-119.369	-49.482	80.692	-119.799	-113.569	-112.870	-105.087	-23.594	-105.836	-8191	255	
6384.286	1	1	0	0	0.1961	0.3049	0.094668	0.35766	0.12423	0.21578	0.1892	0.28708	0.11062	0.10756	0.24686	0.14891	0.25193	0.14162	0.052784	0.092568	-0.225	-0.71667	-0.10625	-1.0542	-0.49167	-0.23125	-1.2437	-0.22292	-0.74583	-0.81875	-0.05	-0.97292	-0.51875	-0.2125	-1.0271	-0.37292	-15.412	-128.543	214.527	190.700	-112.914	-136.200	132.104	215.939	148.636	-103.033	68.051	127.633	-62.484	131.586	135.325	42.325	0.00021081	0.00020127	7.372e-05	1017	2.1924e-06	1.899e-06	1111.3	210.91	3.7696e-06	4.0631e-06	268.95	76.188	60.075	17.357	3.16e-06	24.202	0.00042286	0.00047741	0.00013434	1003.4	5.3174e-06	5.225e-06	1095.6	210.73	5.1761e-06	5.2195e-06	268.52	77.049	60.217	17.651	5.0614e-06	24.805	179.812	-60.269	-63.124	-127.026	-19.684	-9.025	-127.011	-119.664	-70.095	0.508	-119.691	-113.736	-113.121	-104.755	-33.662	-105.674	-8191	255	
6384.383	1	1	0	0	0.18745	0.2938	0.16277	0.38842	0.26903	0.26072	0.22115	0.21807	0.13657	0.16803	0.20083	0.4381	0.2347	0.30289	0.2016	0.34972	-0.21458	-0.98125	0.0625	-0.96042	-0.5125	-0.23542	-1.15	-0.325	-0.4125	-0.88958	-0.085417	-0.80833	-0.67292	-0.18333	-1.0146	-0.20208	59.786	97.025	42.756	155.551	179.889	52.947	105.842	-66.866	-129.141	170.457	18.022	201.846	-127.891	127.089	103.974	83.364	0.00022795	0.00020513	0.00011839	1016.5	2.5749e-06	3.7999e-06	1106	212.02	2.6041e-06	3.2834e-06	269.04	76.296	59.268	17.368	2.4942e-06	24.278	0.00042321	0.00047401	0.00013532	1004.8	5.2777e-06	5.2213e-06	1095.2	211.27	5.2598e-06	5.4536e-06	268.44	77.089	60.14	17.659	5.0378e-06	24.854	189.774	-80.836	-15.996	-126.769	-44.986	22.647	-126.853	-119.566	-40.490	43.246	-119.805	-113.689	-113.146	-105.002	-16.549	-105.883	-8191	255	
6384.477	1	1	0	0	0.078832	0.072115	0.11924	0.085266	0.07711	0.21538	0.32658	0.27344	0.24749	0.16368	0.22627	0.38451	0.03369	0.26138	0.21195	0.050118	0.029167	-1.0979	0.027083	-0.8	-0.69167	-0.14583	-1.1708	-0.54792	-0.33958	-0.975	-0.1625	-0.72708	-0.875	-0.18333	-1.025	-0.4375	-88.286	17.923	121.439	9.587	61.131	153.966	192.090	218.856	-5.827	-98.609	195.632	99.276	-62.714	144.517	160.326	-33.526	0.00021306	0.00015253	9.9405e-05	1022	1.2645e-06	2.971e-06	1100.4	211.7	1.8768e-06	5.5086e-06	267.74	75.985	59.813	17.355	5.1279e-06	24.384	0.00043799	0.00048316	0.00013605	1004.3	5.2638e-06	5.422e-06	1094.8	211.02	5.2185e-06	5.2384e-06	268.42	76.892	60.364	17.649	5.1187e-06	24.88	177.695	-131.451	21.278	-126.511	10.927	24.541	-126.683	-119.126	-63.100	20.873	-119.567	-112.859	-113.167	-104.874	12.756	-105.828	-8191	255	
6384.575	1	1	0	0	0.16157	0.32754	0.1484	0.21367	0.11806	0.223	0.093763	0.28108	0.1593	0.22744	0.12322	0.17394	0.20482	0.1635	0.12636	0.081791	-0.0083333	-0.8375	-0.10833	-0.74167	-0.72917	0.0125	-1.0667	-0.55417	-0.13333	-1.0063	-0.19167	-0.525	-1.0542	-0.089583	-0.88958	-0.58333	190.806	-129.898	31.261	-135.070	-126.632	-62.394	62.949	131.149	-75.789	160.985	-122.118	200.670	184.080	220.464	208.982	5.143	0.0001871	0.00043647	0.00013532	1016.6	2.0909e-06	2.5654e-06	1106.8	211.93	4.3974e-06	1.1221e-06	269.26	76.275	59.406	17.341	3.7861e-06	24.495	0.00043754	0.00047776	0.00013415	1003.8	5.2444e-06	5.1633e-06	1094.6	211.15	5.092e-06	5.4207e-06	268.63	77.114	60.245	17.673	5.0675e-06	24.865	174.806	-43.110	-43.529	-126.596	-73.453	0.024	-126.675	-119.398	-10.356	-9.846	-119.402	-113.336	-112.580	-104.576	39.327	-105.501	-8191	255	
6384.694	1	1	0	0	0.14096	0.0826	0.078693	0.26218	0.17953	0.30067	0.25474	0.067684	0.079789	0.086433	0.13545	0.12093	0.16739	0.1958	0.12298	0.076904	0.16667	-1.0042	-0.32083	-0.65208	-0.95208	-0.095833	-1.0583	-0.61042	-0.1375	-0.95625	-0.29375	-0.28333	-1.0271	-0.14167	-0.70833	-0.73542	115.608	6.841	209.129	-126.253	185.270	-36.583	138.035	175.533	-92.628	-76.783	38.806	27.944	85.749	157.922	-73.330	33.756	0.00018521	0.0002118	0.00010709	1021	2.0393e-06	1.8985e-06	1111.8	212.7	2.175e-06	2.215e-06	267.96	75.413	60.053	17.374	1.3945e-06	24.267	0.00042895	0.00047114	0.00013725	1004.5	5.3483e-06	5.439e-06	1096.9	211.42	5.2463e-06	5.4228e-06	269.12	76.923	60.299	17.688	5.2744e-06	24.895	184.537	-44.443	-58.366	-126.312	-49.887	-1.168	-126.506	-119.120	-40.538	0.768	-119.416	-113.452	-112.813	-104.938	1.118	-105.658	-8191	255	
6384.790	1	1	0	0	0.098169	0.020085	0.22332	0.17361	0.11702	0.14021	0.092828	0.15867	0.19445	0.060009	0.14064	0.25497	0.13635	0.11441	0.26458	0.12498	0.42917	-0.97708	-0.20208	-0.4875	-1.0708	-0.20208	-0.78958	-1.0812	-0.15417	-1.0771	-0.37917	-0.23125	-0.99167	-0.30833	-0.65	-0.87292	130.839	175.071	-112.608	173.853	-15.751	-74.529	101.474	130.234	174.403	62.211	-71.273	0.348	145.430	202.184	7.473	140.061	0.00016888	0.00038303	5.0424e-05	1027.2	4.6297e-06	6.8522e-07	1108.4	213.05	1.0934e-06	5.7499e-06	268.11	76.53	59.615	17.57	3.2679e-06	24.343	0.00044144	0.00049064	0.00014148	1008.6	5.3237e-06	5.5353e-06	1096.7	211.44	5.3606e-06	5.5393e-06	268.16	77.131	60.25	17.739	5.3448e-06	24.899	176.103	-46.874	-47.964	-126.557	26.600	-78.677	-126.382	-119.286	30.298	-32.228	-119.340	-113.119	-112.364	-104.791	-69.934	-105.831	-8191	255	
6384.886	1	1	0	0	0.052575	0.091535	0.11094	0.3533	0.086243	0.20491	0.085868	0.29865	0.15656	0.24289	0.30391	0.18738	0.18841	0.31033	0.22931	0.10349	0.2875	-0.64583	-0.35208	-0.41667	-0.94583	-0.21042	-0.90208	-0.97917	0.066667	-0.95417	-0.65417	-0.095833	-0.93958	-0.20417	-0.5625	-1.0146	150.856	-129.854	0.119	-133.392	32.761	22.136	122.284	184.892	110.170	-89.551	161.274	192.960	57.271	221.757	130.226	173.168	0.00016264	0.00041772	7.6106e-05	1021.7	2.6775e-06	1.1518e-06	1109	213.53	3.5306e-06	3.0153e-06	269.2	76.066	60.154	17.355	1.54e-06	24.386	0.00045152	0.00050249	0.00014076	1005.2	5.4228e-06	5.5493e-06	1096.2	211.72	5.3615e-06	5.4223e-06	268.47	76.961	60.414	17.711	5.319e-06	24.854	165.998	-42.471	-13.119	-126.366	-4.210	84.240	-126.280	-118.976	0.267	38.651	-119.414	-113.243	-112.565	-105.219	4.588	-105.524	-8191	255	
6384.982	1	1	0	0	0.30261	0.49214	0.18721	0.15708	0.044803	0.1895	0.30073	0.050652	0.18517	0.13919	0.19331	0.080371	0.031989	0.19169	0.058823	0.18318	0.24792	-0.9375	-0.50833	-0.25	-0.87917	-0.21875	-0.57917	-0.84583	-0.1125	-0.79792	-0.83333	-0.32708	-1.0333	-0.37708	-0.25	-1.0979	-79.002	175.200	10.213	182.950	-98.545	74.591	-80.197	168.979	60.893	-65.008	31.874	-133.473	177.975	174.525	174.995	-84.674	0.00021449	0.00019488	0.00013549	1019.8	4.6385e-06	4.6014e-06	1107.6	212.59	1.4456e-06	5.6415e-06	269.08	76.175	60.188	17.46	3.1072e-06	24.38	0.00043993	0.00049495	0.00013514	1006.4	5.2975e-06	5.3066e-06	1097.7	211.5	5.3904e-06	5.3758e-06	268.99	76.876	60.414	17.745	5.2606e-06	24.957	171.749	-19.318	-13.515	-126.704	-57.992	8.317	-126.562	-119.262	-75.394	18.711	-119.552	-112.992	-112.658	-104.770	-8.028	-105.790	-8191	255	
6385.078	1	1	0	0	0.10641	0.1464	0.21539	0.25903	0.12789	0.23338	0.027666	0.34943	0.08112	0.26974	0.18826	0.29996	0.13346	0.2538	0.40292	0.2699	0.25	-0.71458	-0.63333	-0.11667	-0.94167	-0.48958	-0.38958	-1.0854	-0.19167	-0.71667	-0.91042	-0.12083	-1.0625	-0.4125	-0.25833	-1.0375	-137.105	-20.719	179.959	199.690	76.600	-92.223	129.145	-107.125	85.250	221.370	112.123	209.662	-53.494	195.980	167.729	159.725	0.00021654	0.00038965	4.3847e-05	1016.8	1.7434e-06	3.1565e-06	1102.7	213.16	2.248e-06	2.8559e-06	269.07	76.073	59.737	17.303	2.8433e-06	24.404	0.00043755	0.00049843	0.00013441	1004.7	5.3193e-06	5.4337e-06	1094.9	211.63	5.3711e-06	5.415e-06	268.94	76.96	60.378	17.647	5.2399e-06	24.859	176.552	-70.006	-23.631	-126.531	8.037	54.573	-126.875	-119.401	-72.257	-35.515	-119.458	-113.447	-112.801	-105.062	-2.101	-105.556	-8191	255	
6385.175	1	1	0	0	0.069275	0.075885	0.17901	0.097623	0.23691	0.11887	0.11542	0.29482	0.062661	0.092317	0.28018	0.16084	0.244	0.29446	0.14002	0.31935	0.29167	-0.58542	-0.7625	-0.37708	-1.0187	-0.59583	-0.44375	-1.1833	-0.14792	-0.69375	-0.89375	0.014583	-0.93125	-0.62292	-0.19792	-0.96667	114.609	-90.543	34.252	-27.583	-97.828	122.011	-20.814	213.785	-124.420	-60.382	160.968	23.112	-93.823	43.814	-136.471	107.465	0.00020314	0.00015572	1.8287e-05	1021.1	2.3505e-06	3.6797e-06	1107.2	211.62	3.5411e-06	2.6387e-06	270.14	76.418	59.489	17.361	3.966e-07	24.073	0.0004317	0.00048654	0.00013226	1006.2	5.2239e-06	5.3457e-06	1095.5	211.57	5.2663e-06	5.3141e-06	268.36	77.186	60.23	17.694	5.4413e-06	24.83	181.477	-4.994	-31.138	-126.646	-67.851	21.259	-126.633	-119.351	-40.409	29.858	-119.511	-113.777	-113.055	-105.285	-76.786	-105.935	-8191	255	
6385.295	1	1	0	0	0.063761	0.14717	0.21412	0.30287	0.33163	0.090638	0.21535	0.10074	0.32673	0.23154	0.24654	0.055735	0.1357	0.32549	0.11654	0.20434	0.35	-0.21042	-0.84583	-0.14167	-0.7	-0.5875	-0.21667	-1.0958	-0.29583	-0.31042	-0.98542	-0.19792	-0.78958	-0.76042	-0.11667	-0.88333	131.816	-45.923	192.167	165.107	-116.504	174.909	149.944	220.091	38.537	159.127	106.619	221.898	-79.731	205.422	-89.710	206.758	0.00016511	0.00031474	5.8153e-05	1023.9	3.2004e-06	2.1018e-06	1106.7	212.25	3.1933e-06	5.8692e-06	269.49	75.899	59.908	17.299	1.9629e-06	24.278	0.0004369	0.00049142	0.0001383	1006.3	5.549e-06	5.4134e-06	1096.4	211.3	5.2876e-06	5.4329e-06	268.64	76.825	60.45	17.634	5.4328e-06	24.932	188.769	-37.494	1.705	-127.111	-2.308	58.315	-127.384	-119.901	-25.478	27.764	-119.756	-114.040	-113.181	-106.034	2.061	-106.345	-8191	255	
6385.391	1	1	0	0	0.068066	0.047345	0.21232	0.18774	0.18245	0.11499	0.18884	0.15313	0.071278	0.10766	0.096799	0.2521	0.11644	0.093851	0.31609	0.16867	-0.039583	-0.28333	-0.93333	-0.12292	-0.62083	-0.60625	-0.17292	-1.0979	-0.36667	-0.28125	-1.1521	-0.37917	-0.73333	-0.71875	-0.125	-0.875	-12.306	43.938	-109.255	166.050	179.410	-111.469	175.249	76.828	-14.705	61.185	-101.807	-115.752	-75.221	-106.808	145.026	-75.482	0.00021299	0.0004359	5.462e-05	1013.9	9.9877e-07	2.7979e-06	1108.1	212.27	2.1978e-06	1.0286e-06	269.65	76.058	60.025	17.307	2.1619e-06	24.292	0.00042261	0.00050511	0.00013434	1004.1	5.071e-06	5.401e-06	1095.4	211.64	5.3415e-06	5.3816e-06	268.91	77.139	60.427	17.651	5.3268e-06	24.879	173.426	-64.653	-82.019	-127.436	-31.016	-32.419	-127.722	-119.867	1.887	3.171	-120.295	-114.061	-113.161	-105.853	-30.035	-106.211	-8191	255	
6385.486	1	1	0	0	0.27492	0.17702	0.29226	0.26904	0.10606	0.19294	0.045026	0.012063	0.11453	0.16983	0.20543	0.23855	0.21873	0.082391	0.029027	0.087231	-0.091667	-0.12917	-0.9375	-0.24792	-0.43125	-0.87708	-0.29792	-1.0229	-0.66875	-0.077083	-0.93125	-0.3875	-0.34167	-0.93125	-0.10417	-0.63333	-100.489	33.267	-83.766	180.626	-107.843	179.063	129.910	151.904	61.993	104.778	63.308	181.522	-106.186	-80.729	137.193	-105.020	0.00022518	0.00030078	0.00010519	1020.2	2.1921e-06	2.4274e-06	1103.4	210.79	2.4784e-06	5.3074e-06	270	76.371	59.993	17.333	1.2926e-06	24.373	0.00043629	0.00049709	0.00013323	1005.1	5.2925e-06	5.4584e-06	1093	211.02	5.325e-06	5.4868e-06	269.33	77.011	60.41	17.678	5.5531e-06	24.875	170.097	-8.385	-38.415	-127.487	-12.405	100.975	-127.722	-120.050	-92.688	18.463	-120.582	-113.829	-113.043	-105.782	20.756	-106.202	-8191	255	
6385.582	1	1	0	0	0.12159	0.082119	0.13345	0.26048	0.22226	0.20542	0.38171	0.14798	0.16899	0.098969	0.078542	0.20223	0.19634	0.14437	0.08508	0.10644	-0.3875	-0.047917	-1.0854	-0.47917	-0.39792	-0.88125	-0.11458	-0.81042	-0.53333	-0.12292	-0.925	-0.37708	-0.14792	-0.94167	-0.175	-0.84167	170.994	203.316	-76.944	207.547	66.834	92.775	132.256	149.138	-4.934	-116.281	-100.357	-4.758	213.137	173.168	169.111	83.646	0.00021938	0.000287	0.00011653	1018	1.4939e-06	1.9726e-06	1103.8	213.15	2.4044e-06	4.4067e-06	269.62	76.175	59.863	17.288	3.6913e-06	24.44	0.00044001	0.00048411	0.00014093	1005.4	5.6442e-06	5.4706e-06	1096	211.73	5.4313e-06	5.7182e-06	269.25	76.963	60.408	17.646	5.4769e-06	24.906	180.600	-55.790	-16.204	-127.478	104.121	35.003	-127.371	-120.020	-17.018	-13.721	-120.359	-114.325	-113.725	-105.694	5.866	-105.955	-8191	255	
6385.678	1	1	0	0	0.10867	0.26479	0.059464	0.20254	0.21346	0.15698	0.14199	0.16467	0.15392	0.26102	0.052311	0.10981	0.38509	0.16688	0.081036	0.12284	-0.425	-0.14583	-0.94792	-0.45	-0.29167	-1.0688	-0.45625	-0.55208	-0.68333	-0.21875	-0.78333	-0.38542	-0.24583	-1.1604	0.0083333	-0.8	174.795	-90.173	-130.429	-133.122	74.261	94.012	195.783	165.059	-85.931	22.252	48.969	-131.409	-85.350	-91.958	149.941	-134.830	0.0002112	0.00016342	6.5356e-05	1018.1	1.2891e-06	1.7247e-06	1109.5	212.26	3.7652e-06	2.8587e-06	267.86	75.791	59.721	17.499	3.0119e-06	24.346	0.00042956	0.0004946	0.00013131	1005	5.2152e-06	5.1916e-06	1096.4	211.27	5.2322e-06	5.3795e-06	268.53	76.778	60.339	17.705	5.1891e-06	24.883	182.262	-21.916	-43.640	-127.552	26.998	71.468	-127.633	-120.181	-18.613	4.578	-120.059	-114.225	-113.434	-105.593	0.647	-106.146	-8191	255	
6385.774	1	1	0	0	0.054122	0.2173	0.21099	0.39775	0.1218	0.039277	0.36633	0.11579	0.16513	0.19708	0.2742	0.41074	0.21194	0.198	0.10986	0.076908	-0.50208	-0.05625	-0.83333	-0.66875	0.022917	-1.0167	-0.60625	-0.67708	-1.0583	-0.15833	-0.90833	-0.67083	-0.025	-0.90417	-0.34792	-0.41458	66.867	-112.049	97.135	123.842	210.277	-89.404	137.259	-135.536	16.241	70.044	182.439	205.243	-81.989	32.857	-25.675	-114.383	0.0002243	0.00015313	0.00011875	1013.1	2.03e-06	4.1265e-06	1103	212.25	8.7809e-07	3.7758e-06	270.01	76.072	59.774	17.437	2.7013e-06	24.333	0.00042631	0.00048534	0.00013412	1002.1	5.3246e-06	5.2151e-06	1093.3	211.44	5.1385e-06	5.336e-06	268.98	76.925	60.118	17.646	5.1849e-06	24.897	171.934	-76.132	-65.115	-127.504	66.485	40.112	-127.593	-120.211	206.376	104.849	-120.013	-114.260	-113.809	-106.202	30.550	-105.910	-8191	255	
6385.870	1	1	0	0	0.28222	0.27194	0.24239	0.34733	0.19579	0.16786	0.10401	0.14833	0.14474	0.21587	0.13216	0.27394	0.13595	0.1716	0.12505	0.018935	-0.68125	0.11042	-0.92083	-0.78958	-0.091667	-1.2021	-0.41875	-0.35208	-0.94375	-0.2	-0.62292	-0.87292	-0.13958	-1.0042	-0.475	-0.33125	-2.961	-25.101	-87.705	-113.125	-65.228	193.391	76.962	-66.728	38.643	149.462	208.528	105.623	124.114	160.303	74.279	201.117	0.00024477	0.0002461	5.199e-05	1016.5	2.3409e-06	9.6765e-07	1105.2	212.04	1.5846e-06	3.8118e-06	268.85	76.155	59.699	17.317	1.7437e-06	24.348	0.0004196	0.00047984	0.0001324	1002.9	5.3178e-06	5.1004e-06	1093.9	211.02	5.1248e-06	5.2582e-06	268.93	76.966	60.349	17.643	5.2501e-06	24.861	172.164	-59.819	-83.416	-127.795	4.956	24.106	-127.458	-120.058	-57.232	18.908	-120.181	-114.020	-113.356	-105.979	-57.136	-106.271	-8191	255	
6385.966	1	1	0	0	0.11941	0.26407	0.20543	0.22973	0.13362	0.13663	0.08619	0.10791	0.21174	0.21698	0.14666	0.09749	0.24386	0.46686	0.13846	0.05224	-0.69583	-0.35625	-0.50833	-1.05	-0.16458	-0.83958	-0.64583	-0.42083	-1.1875	-0.26458	-0.75417	-1	-0.089583	-0.96875	-0.76458	-0.15833	7.266	59.385	-30.766	-110.720	60.735	-117.845	-82.743	-61.587	-0.577	106.290	216.270	141.201	209.878	-85.552	205.431	-98.374	0.00021094	0.00047095	0.00015943	1020.4	3.772e-06	1.4577e-06	1105.1	211.7	2.3621e-06	2.2776e-06	268.8	75.906	59.622	17.393	9.5543e-07	24.394	0.00043032	0.00048765	0.00013547	1005.6	5.3002e-06	5.3522e-06	1094.3	210.97	5.124e-06	5.4069e-06	269.26	76.924	60.275	17.665	5.1926e-06	24.943	176.824	-15.493	-64.817	-127.537	-16.162	-31.156	-127.666	-119.491	13.775	41.511	-120.499	-114.478	-113.618	-105.521	-20.667	-106.785	-8191	255	
6386.063	1	1	0	0	0.17451	0.10672	0.27362	0.19831	0.051361	0.23901	0.1911	0.38631	0.14007	0.12272	0.17592	0.32364	0.13903	0.12828	0.065179	0.28687	-0.63958	-0.20833	-0.36667	-1.2479	-0.19167	-0.6625	-0.74375	-0.20417	-0.93333	-0.40833	-0.48958	-1.0417	-0.15417	-1.0667	-0.84167	-0.14167	-47.895	-50.303	-48.883	124.418	-50.665	208.274	144.129	182.610	31.353	165.335	125.627	217.390	-29.823	-106.813	-36.793	54.417	0.00018489	0.00023566	5.9197e-05	1013.9	1.2191e-06	3.5726e-06	1107.3	212.4	3.1222e-06	3.4816e-06	268.97	75.787	59.505	17.428	2.1944e-06	24.239	0.0004182	0.00048339	0.00013287	1003.8	5.2067e-06	5.3045e-06	1094.4	211.17	5.1059e-06	5.2186e-06	268.69	76.961	60.23	17.709	5.0374e-06	24.869	185.444	-56.429	-65.957	-127.212	-30.340	-14.650	-127.685	-120.230	-11.938	57.731	-120.362	-114.404	-113.530	-105.920	29.000	-106.040	-8191	255	
6386.183	1	1	0	0	0.13116	0.11571	0.088162	0.0858	0.14338	0.23939	0.21094	0.13068	0.17406	0.27902	0.2894	0.1961	0.16628	0.16219	0.058194	0.092835	-0.82708	-0.56875	-0.34792	-1.0792	-0.09375	-0.675	-0.98958	-0.15417	-0.96458	-0.58542	-0.28542	-1.0271	-0.21042	-0.63958	-0.85208	-0.11667	-137.388	29.809	213.933	47.873	-37.450	-120.713	90.219	33.182	-16.177	157.393	178.307	150.724	123.032	219.480	-91.497	-90.314	0.00019835	0.00019582	0.00013585	1022.8	1.4463e-06	1.8436e-06	1107.6	211.49	2.2038e-06	2.8105e-06	269.54	75.97	59.53	17.274	1.979e-06	24.381	0.00042778	0.00049031	0.00013469	1005.5	5.2588e-06	5.1078e-06	1094.1	211.42	5.057e-06	5.2665e-06	269.22	76.789	60.242	17.609	4.9483e-06	24.898	162.444	-40.071	-52.692	-127.434	5.290	52.786	-127.755	-120.004	-46.715	30.708	-120.208	-114.028	-113.447	-105.546	-19.816	-106.456	-8191	255	
6386.278	1	1	0	0	0.087807	0.03499	0.055067	0.064676	0.1955	0.23618	0.46341	0.16857	0.14256	0.091094	0.079982	0.29013	0.05026	0.25277	0.18149	0.09317	-0.45625	-0.66667	-0.12917	-1.0187	0.083333	-0.6375	-1.0125	-0.16458	-0.94583	-0.66458	-0.10208	-1.1333	-0.32917	-0.425	-1.0187	-0.033333	-115.581	145.309	-110.813	-80.434	71.007	-77.310	204.782	173.002	-55.436	-78.984	-51.887	-134.939	-58.540	-136.301	-113.749	67.492	0.0001745	0.0002912	5.9671e-05	1014.7	2.8266e-06	2.5102e-06	1104.2	212.46	1.4572e-06	2.4252e-06	269.28	76.314	59.461	17.248	2.4472e-06	24.208	0.00042451	0.00048038	0.00013725	1003.7	5.3662e-06	5.3167e-06	1093.8	211.26	5.3496e-06	5.3275e-06	268.59	76.883	60.114	17.619	5.1075e-06	24.86	170.538	-77.944	-74.253	-127.294	-13.537	28.146	-127.345	-120.036	-82.869	-22.692	-120.527	-113.801	-113.815	-105.626	-17.626	-106.142	-8191	255	
6386.376	1	1	0	0	0.20096	0.25455	0.23394	0.21869	0.013094	0.23859	0.10857	0.033387	0.083087	0.12158	0.16451	0.15177	0.10222	0.25555	0.1117	0.20296	-0.57917	-0.55	0.064583	-1.0979	-0.39375	-0.44375	-1.0729	-0.28125	-0.69375	-0.75625	-0.041667	-1.0187	-0.33542	-0.2375	-1.0042	-0.12917	71.202	-32.621	102.470	131.753	171.627	-71.899	111.686	110.985	-128.629	98.293	39.902	-42.663	-99.544	-48.886	49.770	153.437	0.00018092	0.00037542	6.7939e-05	1022	1.9042e-06	5.3039e-06	1101.7	212.13	2.6216e-06	4.7113e-06	269.78	75.79	59.597	17.406	2.308e-06	24.409	0.00042313	0.0004818	0.00013753	1006.8	5.3701e-06	5.3612e-06	1093.4	211.31	5.2626e-06	5.4028e-06	268.83	76.895	60.18	17.666	5.1579e-06	24.814	179.733	-22.160	-28.839	-127.327	-17.842	27.561	-127.424	-120.225	39.276	68.517	-120.346	-113.933	-113.461	-105.909	-77.097	-106.193	-8191	255	
#DATA ENDS
