BOXY.EXE: ISS Imagent and Oximeter Data Acquisition Program Version 0.80
Ascii Record File

#ACQ INFORMATION
2  Detector Channels 
16  External MUX Channels 
1  Auxiliary Channels 
5000  Waveform (CCF) Frequency (Hz)
1  Waveforms Skipped 
30  Waveforms Averaged 
1  Cycles Averaged 
16  Acquisitions per Waveform 
10.0806  Updata Rate (Hz) 

#FILE INFORMATION
TRUE -- External MUX Channel results are PARSED.
FALSE -- AC DC and Phase are NOT grouped.
TRUE -- Companion Program Settings File CREATED.
FALSE -- AC data not excluded
FALSE -- DC data not excluded
FALSE -- Phase data not excluded
FALSE -- Auxillary Chn. data not excluded
Tab delimiters

#CALIBRATION STATE
TRUE -- Waveform Calibration Values APPLIED.


#AUX CALIBRATION VALUES
Val Type	aux-1	

Term	1.0000e+00	
Factor	0.0000e+00	


#WF CALIBRATION VALUES
A = Detector Channel
Val Type	A-AC1	A-AC2	A-AC3	A-AC4	A-AC5	A-AC6	A-AC7	A-AC8	A-AC9	A-AC10	A-AC11	A-AC12	A-AC13	A-AC14	A-AC15	A-AC16	A-DC1	A-DC2	A-DC3	A-DC4	A-DC5	A-DC6	A-DC7	A-DC8	A-DC9	A-DC10	A-DC11	A-DC12	A-DC13	A-DC14	A-DC15	A-DC16	A-Ph1	A-Ph2	A-Ph3	A-Ph4	A-Ph5	A-Ph6	A-Ph7	A-Ph8	A-Ph9	A-Ph10	A-Ph11	A-Ph12	A-Ph13	A-Ph14	A-Ph15	A-Ph16	

Term	0.00000e+00	0.00000e+00	0.00000e+00	0.00000e+00	0.00000e+00	0.00000e+00	0.00000e+00	0.00000e+00	0.00000e+00	0.00000e+00	0.00000e+00	0.00000e+00	0.00000e+00	0.00000e+00	0.00000e+00	0.00000e+00	0.00000e+00	0.00000e+00	0.00000e+00	0.00000e+00	0.00000e+00	0.00000e+00	0.00000e+00	0.00000e+00	0.00000e+00	0.00000e+00	0.00000e+00	0.00000e+00	0.00000e+00	0.00000e+00	0.00000e+00	0.00000e+00	0.00000e+00	0.00000e+00	0.00000e+00	0.00000e+00	0.00000e+00	0.00000e+00	0.00000e+00	0.00000e+00	0.00000e+00	0.00000e+00	0.00000e+00	0.00000e+00	0.00000e+00	0.00000e+00	0.00000e+00	0.00000e+00	
Factor	1.00000e+00	1.00000e+00	1.00000e+00	1.00000e+00	1.00000e+00	1.00000e+00	1.00000e+00	1.00000e+00	1.00000e+00	1.00000e+00	1.00000e+00	1.00000e+00	1.00000e+00	1.00000e+00	1.00000e+00	1.00000e+00	1.00000e+00	1.00000e+00	1.00000e+00	1.00000e+00	1.00000e+00	1.00000e+00	1.00000e+00	1.00000e+00	1.00000e+00	1.00000e+00	1.00000e+00	1.00000e+00	1.00000e+00	1.00000e+00	1.00000e+00	1.00000e+00	X	X	X	X	X	X	X	X	X	X	X	X	X	X	X	X	

B = Detector Channel
Val Type	B-AC1	B-AC2	B-AC3	B-AC4	B-AC5	B-AC6	B-AC7	B-AC8	B-AC9	B-AC10	B-AC11	B-AC12	B-AC13	B-AC14	B-AC15	B-AC16	B-DC1	B-DC2	B-DC3	B-DC4	B-DC5	B-DC6	B-DC7	B-DC8	B-DC9	B-DC10	B-DC11	B-DC12	B-DC13	B-DC14	B-DC15	B-DC16	B-Ph1	B-Ph2	B-Ph3	B-Ph4	B-Ph5	B-Ph6	B-Ph7	B-Ph8	B-Ph9	B-Ph10	B-Ph11	B-Ph12	B-Ph13	B-Ph14	B-Ph15	B-Ph16	

Term	0.00000e+00	0.00000e+00	0.00000e+00	0.00000e+00	0.00000e+00	0.00000e+00	0.00000e+00	0.00000e+00	0.00000e+00	0.00000e+00	0.00000e+00	0.00000e+00	0.00000e+00	0.00000e+00	0.00000e+00	0.00000e+00	0.00000e+00	0.00000e+00	0.00000e+00	0.00000e+00	0.00000e+00	0.00000e+00	0.00000e+00	0.00000e+00	0.00000e+00	0.00000e+00	0.00000e+00	0.00000e+00	0.00000e+00	0.00000e+00	0.00000e+00	0.00000e+00	-8.46031e+01	-1.24328e+02	-1.34512e+02	-1.81699e+02	-5.65765e+01	-6.78973e+01	-1.56588e+02	-1.62015e+02	-4.89682e+01	-6.14460e+01	-1.72047e+02	-1.69354e+02	-1.85172e+02	-1.76661e+02	-5.95041e+01	-1.48927e+02	
Factor	1.85394e-05	1.34008e-04	4.54980e-05	1.65179e-01	1.51047e-06	1.75494e-06	1.84651e-01	5.45619e-02	1.21076e-06	1.81770e-06	9.52945e-02	3.13381e-02	2.68894e-02	1.02662e-02	1.54598e-06	1.46995e-02	3.18428e-06	3.57193e-06	9.92978e-07	8.46290e-02	3.85947e-08	3.91772e-08	8.89079e-02	2.80802e-02	3.85441e-08	3.91043e-08	4.71625e-02	1.56485e-02	1.38985e-02	5.29215e-03	3.88907e-08	7.31696e-03	X	X	X	X	X	X	X	X	X	X	X	X	X	X	X	X	



#DISTANCE SETTINGS
A = Detector Channel
A-1	A-2	A-3	A-4	A-5	A-6	A-7	A-8	A-9	A-10	A-11	A-12	A-13	A-14	A-15	A-16	

2.5000e+00	3.0000e+00	2.5000e+00	3.0000e+00	2.0000e+00	3.0000e+00	1.5000e+00	3.0000e+00	3.0000e+00	3.0000e+00	3.0000e+00	3.0000e+00	3.0000e+00	3.0000e+00	1.5000e+00	3.0000e+00	

B = Detector Channel
B-1	B-2	B-3	B-4	B-5	B-6	B-7	B-8	B-9	B-10	B-11	B-12	B-13	B-14	B-15	B-16	

1.0000e+01	1.0000e+01	1.0000e+01	1.4400e+00	1.0000e+01	1.0000e+01	1.5100e+00	1.9400e+00	1.0000e+01	1.0000e+01	1.9900e+00	2.4900e+00	2.4100e+00	2.9000e+00	1.0000e+01	2.9800e+00	




#DATA BEGINS
time	group	step	mark	flag	A-AC1	A-AC2	A-AC3	A-AC4	A-AC5	A-AC6	A-AC7	A-AC8	A-AC9	A-AC10	A-AC11	A-AC12	A-AC13	A-AC14	A-AC15	A-AC16	A-DC1	A-DC2	A-DC3	A-DC4	A-DC5	A-DC6	A-DC7	A-DC8	A-DC9	A-DC10	A-DC11	A-DC12	A-DC13	A-DC14	A-DC15	A-DC16	A-Ph1	A-Ph2	A-Ph3	A-Ph4	A-Ph5	A-Ph6	A-Ph7	A-Ph8	A-Ph9	A-Ph10	A-Ph11	A-Ph12	A-Ph13	A-Ph14	A-Ph15	A-Ph16	B-AC1	B-AC2	B-AC3	B-AC4	B-AC5	B-AC6	B-AC7	B-AC8	B-AC9	B-AC10	B-AC11	B-AC12	B-AC13	B-AC14	B-AC15	B-AC16	B-DC1	B-DC2	B-DC3	B-DC4	B-DC5	B-DC6	B-DC7	B-DC8	B-DC9	B-DC10	B-DC11	B-DC12	B-DC13	B-DC14	B-DC15	B-DC16	B-Ph1	B-Ph2	B-Ph3	B-Ph4	B-Ph5	B-Ph6	B-Ph7	B-Ph8	B-Ph9	B-Ph10	B-Ph11	B-Ph12	B-Ph13	B-Ph14	B-Ph15	B-Ph16	aux-1	digaux	

20504.369	1	1	0	768	0.059801	0.10144	0.16794	0.26526	0.2238	0.20097	0.21198	0.11301	0.089658	0.26159	0.27557	0.19175	0.28892	0.12508	0.18994	0.085595	0.28125	-1.1917	-0.77917	-0.4	-1.0396	-0.40208	-0.78958	-1.3958	-0.24583	-1.2146	-0.87708	-0.51667	-1.3312	-0.54167	-0.67917	-1.1583	131.212	-100.690	79.821	-139.798	-105.585	73.958	125.229	22.852	-144.803	-51.732	82.216	179.325	175.831	78.226	123.043	168.354	0.00040818	0.00044119	0.0001037	1361.7	2.9818e-06	5.8695e-06	1357.9	368.46	4.8553e-06	7.7723e-06	421.3	140.07	122.39	41.968	2.4504e-06	51.858	0.00052249	0.0005171	0.00014581	1375.5	5.7783e-06	5.7307e-06	1373.3	373.98	5.8241e-06	5.7675e-06	426.94	143.22	124.55	43.017	5.9304e-06	53.257	-116.682	-82.281	-139.069	-161.638	-47.317	-34.786	-161.900	-157.197	-40.898	49.392	-157.439	-153.417	-152.668	-148.197	-75.320	-148.824	-8191	255	
20504.467	1	1	0	0	0.073872	0.24338	0.24721	0.11154	0.14412	0.10337	0.038271	0.18825	0.25392	0.12588	0.13074	0.08667	0.22318	0.17782	0.028233	0.18493	-0.077083	-1.0646	-0.78125	-0.49583	-1.2708	-0.37917	-0.78958	-1.3479	-0.425	-0.91875	-1.2083	-0.55417	-1.3833	-0.71667	-0.60417	-1.575	11.830	168.045	-126.728	141.927	-91.258	112.332	-20.147	163.751	181.523	-171.660	154.839	155.830	131.702	20.419	22.531	80.942	0.00047978	0.00025968	0.00014721	1365.9	3.2007e-06	5.8563e-06	1363.8	367.86	6.265e-06	5.5696e-06	422.59	140.12	121.71	41.93	1.9862e-06	51.937	0.0005392	0.00053836	0.00015062	1378.5	6.0063e-06	5.9739e-06	1377.1	374.27	5.9415e-06	5.8683e-06	427.92	143.33	124.47	42.979	5.8915e-06	53.191	-112.804	-81.818	-44.729	-161.743	32.271	-16.076	-161.740	-157.056	-56.904	-24.070	-157.780	-153.342	-152.585	-148.236	-57.963	-149.013	-8191	255	
20504.562	1	1	0	0	0.18337	0.19503	0.14901	0.26737	0.017569	0.13292	0.34042	0.22496	0.26168	0.56564	0.16589	0.26103	0.24446	0.15026	0.11184	0.16935	-0.020833	-0.9625	-1.2563	-0.59375	-1.025	-0.69167	-0.62708	-1.4875	-0.54375	-0.49583	-1.25	-0.56875	-1.2958	-0.78125	-0.47917	-1.4958	-151.181	88.922	-73.047	132.685	-44.430	65.647	114.373	-145.894	169.518	164.200	65.118	-127.927	129.401	162.656	-42.859	183.775	0.00042265	0.00034197	0.00011127	1364.4	1.5298e-06	8.1359e-06	1364.9	367.71	8.2906e-06	6.8248e-06	418.72	139.97	122.68	41.87	8.2017e-06	51.863	0.00053903	0.00053406	0.00014918	1377.4	5.8845e-06	5.8724e-06	1379.6	373.91	5.8799e-06	5.808e-06	426.57	143.18	124.72	42.955	5.8359e-06	53.078	-116.131	-90.392	-97.073	-161.827	-49.847	-19.560	-161.993	-157.241	-36.686	-0.600	-157.803	-153.584	-152.956	-148.458	-24.481	-149.203	-8191	255	
20504.658	1	1	0	0	0.21471	0.019153	0.35935	0.14801	0.051548	0.060388	0.12726	0.035099	0.24782	0.21702	0.1321	0.26858	0.19096	0.19338	0.2105	0.19872	-0.060417	-0.60208	-0.93542	-0.32917	-1.2	-0.85625	-0.68333	-1.4667	-0.53125	-0.71875	-1.3396	-0.40833	-1.1854	-0.775	-0.40625	-1.2021	-156.315	43.088	-107.417	-98.289	-9.834	-55.521	133.556	-148.560	-158.780	17.584	135.328	-131.745	-13.975	-173.303	172.294	37.146	0.00044628	0.00020016	5.458e-05	1365.4	4.622e-06	4.6904e-06	1361.4	368.7	6.1885e-06	6.4469e-06	419.43	140.82	121.86	41.915	7.9054e-06	51.763	0.00052412	0.00052781	0.00014743	1377.4	5.7633e-06	5.8376e-06	1375.1	373.69	5.8095e-06	5.706e-06	426.35	143.14	124.37	42.855	5.8356e-06	53.121	-125.233	-66.641	8.453	-161.936	-67.279	-54.230	-161.946	-157.126	-37.752	28.771	-157.868	-153.391	-152.864	-148.248	-12.874	-148.833	-8191	255	
20504.754	1	1	0	0	0.28193	0.18662	0.19272	0.36424	0.13269	0.28429	0.10379	0.15165	0.27289	0.18082	0.38095	0.2382	0.2966	0.23116	0.26751	0.25192	-0.070833	-0.26875	-1.1437	-0.53958	-1.0125	-1.15	-0.6375	-1.3687	-0.50833	-0.69167	-1.3354	-0.49375	-1.0375	-1.1771	-0.054167	-1.3958	117.185	-82.132	47.362	167.771	-82.922	-157.933	174.468	118.728	-161.051	-36.590	109.266	71.547	-107.732	112.389	-169.284	-106.029	0.00041115	0.000263	0.00010231	1361.8	5.1675e-06	1.5484e-06	1360.9	367.14	1.6457e-06	2.9233e-06	417.89	139.71	121.91	41.919	6.3167e-06	51.83	0.00053003	0.00052917	0.00014849	1376.5	5.8132e-06	5.922e-06	1375.5	373.75	5.8503e-06	5.8548e-06	426.41	143	124.47	42.922	5.8659e-06	53.08	-118.998	-85.996	-93.724	-161.907	-52.826	-35.353	-161.818	-157.229	-39.550	-15.305	-157.658	-153.491	-152.816	-148.308	-7.753	-148.971	-8191	255	
20504.850	1	1	0	0	0.16952	0.24004	0.11023	0.2358	0.20053	0.077869	0.020778	0.065605	0.23031	0.30075	0.28246	0.21175	0.49294	0.35084	0.23838	0.3116	-0.34167	-0.52083	-1.1833	-0.8125	-0.7125	-1.0688	-0.57292	-1.3479	-0.85833	-0.45417	-1.3354	-0.51458	-0.89167	-1.225	-0.50625	-1.1521	22.882	-137.057	-79.064	136.028	92.069	152.747	-110.050	-114.493	108.251	176.214	136.665	52.126	-161.667	145.158	19.573	98.919	0.00045026	0.00041083	0.00014561	1362.6	6.2228e-06	8.242e-06	1358.7	369.04	3.6396e-06	4.6756e-06	421.08	139.41	121.73	41.845	7.1405e-06	51.952	0.00053446	0.00053814	0.00014885	1375.9	5.7979e-06	5.9369e-06	1376.2	374.41	5.9002e-06	5.9025e-06	426.53	142.83	124.48	42.905	5.9478e-06	53.12	-113.400	-75.751	-106.403	-161.658	-23.133	-29.711	-161.846	-157.269	-21.065	-45.186	-157.807	-153.456	-152.465	-148.294	-31.549	-148.892	-8191	255	
20504.971	1	1	0	0	0.033517	0.12434	0.1284	0.11532	0.11404	0.025622	0.3768	0.12	0.21671	0.052243	0.32572	0.2495	0.14168	0.096863	0.18631	0.02098	-0.58542	-0.12708	-1.1333	-0.61042	-0.87083	-1.125	-0.52292	-1.1271	-1.0583	-0.49792	-1.2938	-0.68542	-0.67083	-1.2042	-0.275	-1.1542	-128.298	-151.577	-97.422	-144.076	-39.848	50.476	140.235	-72.771	-32.432	-88.605	130.689	146.862	143.678	166.200	18.162	86.909	0.00039305	0.00039328	8.8563e-05	1361.7	5.6821e-06	3.6257e-06	1357	367.69	7.5555e-06	6.8182e-06	421.25	139.58	121.82	42.058	7.5453e-06	51.874	0.00053017	0.00054242	0.00014962	1377.6	5.8799e-06	5.8549e-06	1376.9	374.02	5.9432e-06	5.8743e-06	427.44	143.05	124.52	42.981	5.929e-06	53.133	-112.601	-63.658	-127.487	-161.624	-45.219	-37.058	-161.930	-156.857	-30.323	13.647	-157.545	-153.468	-152.706	-148.148	-40.172	-148.756	-8191	255	
20505.064	1	1	0	0	0.16149	0.11805	0.13459	0.11462	0.30928	0.16259	0.25147	0.26613	0.21151	0.13578	0.24297	0.2928	0.23021	0.13496	0.026858	0.016284	-0.50417	-0.24375	-1.3875	-0.65833	-0.52917	-1.3292	-0.43542	-1.0292	-0.92083	-0.25625	-1.3854	-0.8	-0.70833	-1.0896	-0.4125	-0.70208	77.392	10.518	153.959	-160.904	38.215	-50.624	136.552	-169.378	169.744	-57.963	103.341	91.281	44.389	-2.857	99.336	178.423	0.00039149	5.2757e-05	0.00021354	1362.9	7.8529e-06	5.889e-06	1362.5	368.91	7.3851e-06	5.4021e-06	419.05	140.13	121.52	41.836	9.6509e-07	51.882	0.00053629	0.0005495	0.0001501	1377.4	5.9458e-06	5.9182e-06	1376.7	374.15	5.9464e-06	6.0445e-06	426.77	143.21	124.36	42.921	5.8865e-06	53.169	-118.650	-138.916	-142.866	-161.864	-55.259	-20.356	-161.799	-156.939	-29.074	3.797	-157.451	-153.473	-152.843	-148.030	165.088	-148.788	-8191	255	
20505.162	1	1	0	0	0.10416	0.11142	0.16652	0.30759	0.27556	0.17572	0.3133	0.2529	0.23791	0.1806	0.056633	0.36928	0.39319	0.14879	0.094405	0.1137	-0.73958	-0.24167	-0.92708	-0.92292	-0.49583	-1.1812	-0.66875	-0.66042	-1.2083	-0.17708	-0.93125	-0.8875	-0.57083	-1.25	-0.42917	-0.83333	178.004	-89.148	-154.167	157.211	-64.978	32.701	105.443	163.764	53.551	56.632	153.374	146.272	-162.430	148.933	97.929	55.702	0.00047307	0.00055575	0.00022585	1363.5	4.5748e-06	5.998e-06	1356.3	369.7	5.9482e-06	3.5627e-06	420.15	139.92	121.88	42.138	3.5666e-06	51.751	0.00054255	0.00054878	0.00014632	1376.2	5.9531e-06	5.9069e-06	1375.6	374.3	5.9841e-06	5.8708e-06	426.68	143.16	124.46	42.946	5.8973e-06	53.047	-112.196	-125.485	-108.736	-161.589	-33.849	-38.325	-161.800	-156.980	-48.298	-31.185	-157.629	-153.214	-152.313	-147.806	-19.720	-148.526	-8191	255	
20505.258	1	1	0	0	0.22746	0.25388	0.18113	0.2006	0.15161	0.12292	0.20493	0.23376	0.10918	0.15878	0.039518	0.1819	0.17259	0.16308	0.2472	0.15806	-0.85417	-0.27708	-1.1021	-1.0146	-0.27917	-1.4937	-0.7375	-0.75208	-1.2313	-0.28542	-1.1771	-1.0854	-0.47708	-1.1688	-0.53125	-0.575	65.421	-158.067	164.273	151.112	108.617	159.321	107.425	5.779	-113.212	-95.825	99.769	-99.603	123.353	113.526	161.281	12.299	0.00043447	0.00050424	0.00013986	1358.5	6.6906e-06	4.0661e-06	1361.7	368.87	3.6524e-06	5.4902e-06	420.65	140.02	121.63	41.885	5.9834e-06	51.763	0.00053945	0.00054088	0.00014855	1376.4	5.9536e-06	5.8563e-06	1376.5	374.35	5.9054e-06	5.8416e-06	427.59	143.12	124.5	42.916	5.8752e-06	53.058	-118.271	-90.700	-86.197	-161.656	-50.922	-25.707	-161.593	-156.744	-42.834	-16.873	-157.519	-153.279	-152.651	-147.758	-40.916	-148.712	-8191	255	
20505.354	1	1	0	0	0.16498	0.3787	0.12949	0.37706	0.078958	0.14385	0.1034	0.49074	0.33903	0.088063	0.18229	0.30463	0.23709	0.28374	0.34282	0.21557	-0.85208	-0.26875	-0.90625	-1.2938	-0.27083	-1.2687	-0.96875	-0.75417	-1.3146	-0.425	-0.93542	-1.225	-0.6375	-1.225	-0.79167	-0.53125	-72.903	-69.038	122.855	108.388	175.360	169.804	102.115	143.362	-134.155	182.719	-150.074	166.083	-170.144	-117.944	51.107	119.520	0.00043331	0.00050312	0.00019347	1362.8	3.9703e-06	3.121e-06	1353.1	367.95	7.1319e-06	4.1417e-06	420.35	139.63	121.39	42.18	3.734e-06	51.633	0.00053528	0.00053462	0.00014827	1377.6	5.9445e-06	5.8503e-06	1373.5	374.21	5.8989e-06	5.7768e-06	427.17	143.15	124.26	43.045	5.9803e-06	53.099	-119.409	-93.457	-111.807	-161.713	-32.339	-38.085	-161.632	-157.003	-46.015	52.035	-157.444	-153.278	-152.839	-147.903	-11.804	-148.761	-8191	255	
20505.449	1	1	0	0	0.046096	0.10518	0.27658	0.34709	0.095899	0.14502	0.066226	0.33446	0.24392	0.23909	0.095704	0.15046	0.051703	0.24159	0.31513	0.099169	-0.95417	-0.43333	-0.7125	-1.1417	-0.27917	-1.05	-1.0271	-0.52708	-1.2375	-0.55417	-0.86875	-1.3583	-0.28542	-1.1667	-0.8625	-0.51667	105.924	-134.157	-69.910	148.806	45.737	-23.767	100.599	114.377	-34.153	152.809	21.364	-166.844	169.340	179.809	-107.984	29.912	0.00044885	0.00043306	0.0002443	1367.3	4.9015e-06	1.1006e-06	1359.5	367.23	7.4317e-06	5.3795e-06	419.09	140.33	121.62	41.748	3.3881e-06	51.556	0.00053359	0.00054328	0.00015131	1380	5.9483e-06	5.8524e-06	1377.7	374.26	5.8766e-06	5.8103e-06	426.97	143.15	124.38	42.876	5.9897e-06	53.071	-114.571	-75.882	-103.744	-161.742	-34.245	-76.036	-161.896	-157.115	-37.296	-40.989	-157.664	-153.349	-152.958	-148.277	-4.497	-149.079	-8191	255	
20505.547	1	1	0	0	0.092092	0.17355	0.12071	0.4009	0.098668	0.16404	0.17038	0.10998	0.17363	0.14282	0.099808	0.23601	0.17844	0.083657	0.12592	0.11779	-0.96875	-0.61042	-0.47708	-1.2021	-0.4	-1.1688	-1.1417	-0.47083	-1.1833	-0.68542	-0.60833	-1.1333	-0.46875	-1.0875	-0.975	-0.41667	-126.153	-17.396	-82.323	180.519	-171.314	155.315	-1.704	-126.319	114.852	-32.038	-37.964	131.416	132.147	55.612	133.855	136.631	0.00044626	0.00036894	9.0671e-05	1366	4.9464e-06	7.3896e-06	1358.9	367.68	5.4821e-06	7.6859e-06	420.08	139.94	121.53	41.992	3.3925e-06	51.746	0.0005305	0.00054211	0.00015051	1379.7	5.8838e-06	5.9037e-06	1376.9	373.84	5.8317e-06	5.9672e-06	427.05	143.22	124.42	43.006	5.9726e-06	53.088	-117.350	-89.558	-99.089	-161.671	-1.562	-7.996	-161.902	-157.246	-29.142	35.148	-157.878	-153.434	-152.848	-148.412	-29.929	-149.005	-8191	255	
20505.668	1	1	0	0	0.19487	0.12676	0.24	0.33894	0.14675	0.078581	0.38983	0.034952	0.26816	0.28168	0.083618	0.1095	0.036229	0.19295	0.25397	0.2675	-0.72083	-0.46042	-0.45	-1.4167	-0.37083	-0.85417	-1.25	-0.46042	-1.25	-0.80625	-0.45208	-1.3333	-0.40417	-0.62292	-0.92917	-0.19583	-168.707	-174.916	161.192	146.077	111.172	-126.475	180.314	-146.327	163.008	-42.784	183.102	-118.583	-92.016	174.046	42.225	-27.667	0.00043102	0.00047976	0.00020034	1364.7	8.0557e-06	6.3162e-06	1359.7	367.77	5.8899e-06	2.2964e-06	419	140.15	121.33	42.034	4.4598e-06	51.859	0.00052645	0.00053507	0.0001493	1380.4	5.9188e-06	5.8841e-06	1379.5	374.09	5.8257e-06	5.9787e-06	426.79	143.35	124.44	43.01	5.9577e-06	53.137	-114.850	-79.546	-73.058	-161.699	-26.470	-38.274	-161.933	-157.272	-36.521	23.932	-157.575	-153.360	-152.972	-148.405	-15.812	-148.995	-8191	255	
20505.764	1	1	0	0	0.21981	0.12898	0.03053	0.14298	0.1268	0.25177	0.41119	0.13807	0.0037911	0.20259	0.18805	0.23	0.10943	0.089313	0.16829	0.38053	-0.57083	-0.74792	-0.55	-1.4167	-0.30208	-0.65	-1.1562	-0.325	-1.125	-0.85625	-0.43542	-1.3125	-0.475	-0.51875	-1.2146	-0.49583	-174.466	2.717	113.051	126.693	-159.635	126.295	89.528	76.494	18.692	-158.136	106.279	-94.255	31.217	136.935	22.102	102.703	0.00040475	0.00029157	0.00015679	1364.1	3.9004e-06	4.0113e-06	1362.4	367.92	4.6177e-06	2.8625e-06	421.71	139.86	121.76	42.128	2.4068e-06	51.99	0.00053069	0.00053831	0.00015023	1379.3	5.8194e-06	5.9211e-06	1377.2	373.82	5.8875e-06	5.8854e-06	427.2	143.36	124.47	43.057	5.899e-06	53.124	-119.935	-77.588	-87.294	-161.752	-37.427	-13.859	-161.944	-157.431	-43.030	-7.928	-157.572	-153.482	-153.066	-148.284	-60.509	-149.151	-8191	255	
20505.859	1	1	0	0	0.26449	0.13149	0.2555	0.33912	0.21591	0.059556	0.23059	0.32481	0.054597	0.092817	0.2634	0.29603	0.15376	0.33534	0.36347	0.27322	-0.59375	-0.80833	-0.29167	-1.4813	-0.58125	-0.53125	-1.4688	-0.55417	-0.81875	-1.0271	-0.34583	-1.3208	-0.67292	-0.5375	-1.2354	-0.375	-113.144	-51.155	27.382	116.463	141.400	-49.944	71.468	142.290	75.336	-51.991	146.027	131.741	-167.350	-164.603	-42.341	126.505	0.00044249	0.0002507	0.00020415	1367.6	3.6561e-06	4.6326e-06	1356.7	369.44	6.0043e-06	8.9903e-06	418.97	140.07	121.77	41.956	6.0969e-06	51.759	0.00052829	0.00053702	0.00014952	1379.7	5.9275e-06	5.8643e-06	1378.4	375.17	5.866e-06	5.8015e-06	426.69	143.29	124.43	42.968	5.8258e-06	53.098	-114.722	-4.064	-102.965	-161.715	-37.041	-23.801	-161.894	-156.960	-21.022	-32.698	-157.642	-153.329	-152.910	-148.325	-43.272	-149.124	-8191	255	
20505.932	1	1	0	0	0.20972	0.19361	0.19264	0.35056	0.25435	0.13051	0.20325	0.18715	0.25821	0.2064	0.18322	0.21514	0.085248	0.23464	0.079856	0.12304	-0.49167	-1.0312	-0.20625	-1.4333	-0.65833	-0.38542	-1.2375	-0.54583	-0.66875	-1.0542	-0.42917	-1.0354	-0.8125	-0.49167	-1.1417	-0.67083	-93.063	-11.238	128.729	118.820	140.812	-90.811	91.949	132.016	-32.843	6.199	88.692	122.453	160.179	106.560	17.442	101.223	0.00044354	0.00057565	0.00015549	1368.2	2.1849e-07	4.9368e-06	1358.7	368.37	4.3842e-06	7.9799e-06	420.33	139.91	121.81	41.977	5.3814e-06	51.894	0.0005291	0.00053395	0.00014857	1380.2	5.7566e-06	5.7695e-06	1377.2	373.84	5.8264e-06	5.845e-06	426.84	143.18	124.44	42.95	5.7273e-06	53.171	-117.372	-97.602	-134.672	-161.583	116.084	-12.685	-161.689	-157.179	-31.813	-22.797	-157.775	-153.550	-152.850	-147.947	-3.930	-148.738	-8191	255	
20506.051	1	1	0	0	0.21253	0.18069	0.22293	0.22417	0.33496	0.42755	0.20186	0.20456	0.17469	0.23693	0.29032	0.31871	0.12809	0.39149	0.17	0.23894	-0.25417	-1.0208	-0.15417	-1.2083	-0.86042	-0.32083	-1.3875	-0.8125	-0.66458	-1.3354	-0.55	-1.0792	-1.225	-0.20625	-1.2521	-0.62292	142.841	-145.649	-80.187	129.783	-26.741	-0.162	-137.724	169.999	-29.604	31.179	140.426	-168.303	-137.227	136.319	-170.556	89.333	0.00044576	0.00070881	0.00017232	1361.4	5.6649e-06	3.8707e-06	1365.3	368.58	7.0111e-06	4.6097e-06	420.76	140.39	121.86	42.087	8.0275e-07	51.786	0.0005217	0.00053256	0.00014713	1378.3	5.9002e-06	5.7641e-06	1378.2	374	5.8404e-06	5.7503e-06	427.5	143.26	124.46	42.976	5.786e-06	53.117	-113.957	-103.096	-119.464	-161.544	-44.805	-26.546	-161.910	-157.017	-15.980	23.332	-157.567	-153.187	-152.715	-148.138	-22.303	-148.752	-8191	255	
20506.146	1	1	0	0	0.059607	0.31714	0.055306	0.28615	0.11629	0.16572	0.25129	0.20816	0.19394	0.22222	0.20937	0.14499	0.10542	0.10947	0.20202	0.15722	-0.085417	-1.2062	-0.34792	-1.1292	-0.96458	-0.325	-1.1896	-0.84583	-0.58542	-1.0708	-0.48125	-0.99583	-1.0667	-0.3	-0.98958	-0.9	-32.721	-64.358	141.066	150.089	110.206	-139.530	-173.196	58.516	-23.131	3.988	80.642	181.734	-92.471	146.527	-150.499	40.741	0.00040781	0.00031514	9.6658e-05	1361.7	6.5212e-06	2.3446e-06	1368.4	368.15	2.5086e-06	1.3743e-06	421.8	140.12	121.94	41.882	5.467e-06	51.73	0.00053012	0.00052435	0.00014813	1378.8	5.8324e-06	5.7776e-06	1379.5	374.21	5.8614e-06	5.7435e-06	427.4	143.43	124.51	42.921	5.808e-06	53.13	-113.377	-58.023	-86.455	-161.975	-54.502	-38.114	-162.139	-157.594	-5.685	149.830	-158.023	-153.418	-152.933	-148.182	-46.237	-149.337	-8191	255	
20506.244	1	1	0	0	0.069703	0.19503	0.29907	0.41669	0.07939	0.14264	0.39506	0.17829	0.19384	0.32542	0.21463	0.18226	0.16157	0.21607	0.06141	0.20474	-0.18958	-1.1396	-0.525	-0.86042	-0.89583	-0.30625	-1.2292	-1.0771	-0.21667	-1.0854	-0.65	-0.7875	-1.2146	-0.35	-1.0771	-0.79167	-32.918	-139.302	111.354	176.819	-33.056	-88.137	84.678	154.331	-23.698	-71.347	92.516	-158.512	68.594	-13.582	88.530	175.337	0.00047246	0.00040103	0.00014701	1366.3	5.7134e-06	7.5156e-06	1357.4	368.97	4.3724e-06	8.7412e-06	420.7	139.97	122.32	42.08	6.5609e-06	51.764	0.00052338	0.00052315	0.00014614	1378	5.7891e-06	5.7791e-06	1376.3	374.26	5.7676e-06	5.7092e-06	426.99	143.28	124.79	43.013	5.7619e-06	53.155	-116.057	-109.326	-49.849	-162.082	-7.294	-41.332	-161.956	-157.337	-43.162	5.002	-158.326	-153.770	-153.046	-148.336	-8.982	-149.078	-8191	255	
20506.363	1	1	0	0	0.085603	0.17822	0.20107	0.098332	0.083672	0.28152	0.1638	0.31188	0.15973	0.10139	0.053458	0.16119	0.11624	0.093918	0.14659	0.019933	-0.033333	-1.1729	-0.57708	-0.71875	-1.375	-0.44375	-1.0063	-1.2708	-0.40417	-1.3229	-0.50417	-0.56875	-1.3917	-0.33125	-0.77708	-1.0396	-45.582	18.374	43.351	-31.907	-41.671	96.324	-133.389	167.781	-140.810	49.199	-36.471	-45.791	102.289	122.495	-137.205	28.218	0.00043663	0.00066889	7.6693e-05	1362.5	3.9016e-06	2.521e-06	1362.4	369.17	5.6169e-06	8.0068e-06	420.23	139.57	121.73	41.91	6.262e-06	51.857	0.00052462	0.00051597	0.00014588	1378	5.655e-06	5.7604e-06	1376.4	374.65	5.7798e-06	5.6696e-06	426.73	143.16	124.46	42.957	5.7865e-06	53.205	-114.266	-72.551	-121.311	-162.065	-18.897	-48.352	-162.133	-157.320	-3.779	-26.914	-158.072	-153.742	-152.893	-148.388	-26.745	-149.153	-8191	255	
20506.459	1	1	0	0	0.057538	0.21494	0.2244	0.20844	0.14134	0.11902	0.43642	0.15824	0.30724	0.10962	0.13569	0.23478	0.10574	0.12833	0.19347	0.027158	0.1375	-1.1812	-0.71458	-0.76458	-1.3104	-0.51458	-0.87083	-1.1542	-0.35	-0.94167	-0.63333	-0.5125	-1.5271	-0.52083	-0.64792	-1.2229	-83.378	32.316	-69.628	-149.043	-144.845	-70.626	160.565	105.820	102.008	90.567	114.419	146.445	-105.644	-85.872	-91.839	-20.207	0.00039712	0.00058643	0.0001351	1360.7	2.8342e-06	2.7987e-06	1361.1	368.83	2.5504e-06	3.2592e-06	419.23	139.55	122.19	42.042	3.4035e-06	51.903	0.00051788	0.00052991	0.00014742	1377.6	5.7024e-06	5.6637e-06	1377.4	374.22	5.704e-06	5.6681e-06	427.02	143.14	124.54	43.031	5.6604e-06	53.121	-120.932	-54.930	-84.849	-161.877	-70.801	-11.741	-162.112	-157.460	-49.171	-30.218	-158.124	-153.544	-153.009	-148.726	-13.007	-149.309	-8191	255	
20506.529	1	1	0	0	0.08507	0.19869	0.021873	0.41871	0.16223	0.24617	0.30178	0.16257	0.018877	0.20972	0.10085	0.22637	0.25157	0.2363	0.039416	0.10139	0.25208	-1.125	-0.82083	-0.67083	-1.225	-0.35833	-0.79167	-1.2354	-0.21042	-1.1313	-0.86042	-0.36875	-1.3	-0.67708	-0.62708	-1.3563	44.548	-11.889	-30.987	-152.470	182.628	149.075	-156.774	132.126	48.028	-4.682	-165.691	-165.273	-78.668	-64.664	67.759	102.075	0.00046055	0.00023403	0.00016378	1363.2	7.9762e-06	6.1793e-06	1359.3	368.56	5.8839e-06	8.5551e-06	420.53	140.63	122.1	42.138	8.0649e-06	51.638	0.00051502	0.00051497	0.00014563	1377.9	5.6559e-06	5.6341e-06	1376.5	374.28	5.6193e-06	5.6657e-06	427.34	143.23	124.36	43.057	5.7432e-06	53.117	-117.144	-96.011	-49.771	-162.053	-68.848	34.799	-162.144	-157.656	-23.602	-13.885	-158.155	-154.012	-153.088	-148.647	-38.036	-149.322	-8191	255	
20506.650	1	1	0	0	0.42447	0.27031	0.0555	0.2966	0.26215	0.22418	0.16134	0.089867	0.024414	0.10079	0.277	0.070397	0.13675	0.15721	0.29334	0.10241	0.10208	-0.98333	-0.92083	-0.45208	-0.99583	-0.77917	-0.83958	-1.2458	-0.24792	-1.0604	-1.1625	-0.3625	-1.3042	-0.61458	-0.50833	-1.4271	117.729	-50.903	75.016	137.265	-93.703	93.254	178.013	109.294	26.597	65.851	87.310	102.631	27.657	182.142	-25.600	129.798	0.00042543	5.6263e-05	8.9811e-05	1364.7	8.1002e-06	5.4852e-07	1359.4	367.82	5.0041e-06	2.5529e-06	419.94	139.76	122.59	41.815	5.3203e-06	51.943	0.00051377	0.00051981	0.00014511	1378.4	5.664e-06	5.6445e-06	1377.5	374.43	5.71e-06	5.6409e-06	426.83	142.96	124.54	42.926	5.766e-06	53.185	-117.675	-39.201	-127.907	-162.147	-36.118	6.202	-162.052	-157.389	-21.571	-56.569	-158.211	-153.539	-153.244	-148.507	-42.973	-149.207	-8191	255	
20506.746	1	1	0	0	0.1612	0.097577	0.031796	0.17006	0.182	0.15354	0.2562	0.08161	0.1798	0.12588	0.14486	0.099588	0.11022	0.27812	0.15708	0.34453	0.089583	-0.92917	-0.94375	-0.44792	-1.0479	-0.77708	-0.625	-1.4917	-0.41875	-0.97292	-1.2917	-0.38125	-1.4729	-0.94583	-0.50417	-1.2479	86.489	-172.341	69.796	85.713	-62.321	72.821	111.726	47.047	163.462	16.449	-154.212	137.904	127.542	124.162	-99.198	126.746	0.00041837	0.0008812	0.00018522	1362.6	5.5877e-07	9.0142e-06	1359	369.37	4.6097e-06	8.7067e-06	420.73	139.92	121.75	41.762	2.0523e-06	51.814	0.00051743	0.00052272	0.00014492	1376.9	5.6018e-06	5.8274e-06	1374.7	374.5	5.7766e-06	5.6956e-06	427.1	143.04	124.65	42.89	5.7397e-06	53.148	-115.870	-101.216	-65.567	-161.919	-134.449	-26.557	-161.892	-157.450	-32.076	-32.363	-158.049	-153.396	-152.953	-148.490	-12.610	-149.259	-8191	255	
20506.844	1	1	0	0	0.15162	0.23672	0.19518	0.14036	0.11587	0.26974	0.31051	0.21736	0.33746	0.27021	0.076665	0.38045	0.36952	0.28215	0.10543	0.30337	-0.091667	-0.67708	-1.2333	-0.54167	-1.0833	-1.0667	-0.52292	-1.2708	-0.45417	-0.6625	-1.3792	-0.50625	-1.1167	-1.0167	-0.33333	-1.2417	33.425	-39.224	94.797	98.246	110.255	-47.549	148.413	160.254	-61.532	132.144	180.411	169.600	156.198	124.854	81.668	103.615	0.00040414	0.00066989	0.00018283	1361.4	6.3596e-06	1.055e-05	1360.2	368.03	4.714e-06	2.5676e-06	421.13	139.91	122.1	42.104	1.5563e-06	51.986	0.00051872	0.0005258	0.00014467	1375.9	5.7341e-06	5.7059e-06	1374.5	374.44	5.7856e-06	5.6549e-06	427.24	143.04	124.61	42.984	5.7911e-06	53.18	-114.869	-101.284	-69.381	-161.865	3.278	-26.563	-162.112	-157.188	-72.906	-19.966	-157.881	-153.647	-152.785	-148.499	-58.219	-148.963	-8191	255	
20506.965	1	1	0	0	0.23794	0.32057	0.058381	0.14406	0.023847	0.062823	0.24965	0.10122	0.342	0.018241	0.21372	0.084631	0.30128	0.34236	0.10919	0.13283	-0.26458	-0.5875	-1.2729	-0.44167	-0.82917	-0.89375	-0.48125	-1.1104	-0.55	-0.60625	-1.3042	-0.575	-0.85625	-1.1521	-0.32917	-1.1771	-118.153	-157.853	168.995	-175.512	151.578	121.665	139.125	33.721	63.553	-38.642	75.276	79.472	173.082	-111.734	-149.735	-159.035	0.00047767	0.00042552	0.00016833	1358.2	5.7493e-06	6.1291e-06	1358.1	369.67	7.1432e-06	3.2907e-06	421.45	140.19	122.31	42.018	5.7459e-06	51.432	0.00052222	0.00052046	0.00014316	1377.3	5.8162e-06	5.6953e-06	1375.5	374.92	5.7781e-06	5.6604e-06	427.65	143.13	124.7	42.985	5.6632e-06	53.071	-113.121	-63.891	-62.296	-162.316	-12.634	-51.664	-162.307	-157.754	-60.368	-7.409	-158.318	-153.996	-153.364	-148.787	-44.106	-149.725	-8191	255	
20507.059	1	1	0	0	0.3741	0.15481	0.37411	0.17435	0.078915	0.15665	0.21809	0.15746	0.11454	0.096877	0.24621	0.065576	0.21739	0.084292	0.083325	0.24977	-0.30833	-0.4	-1.2687	-0.59375	-0.63542	-1.1646	-0.35625	-1.3292	-0.76458	-0.19792	-1.2792	-0.61667	-0.7375	-1.1917	-0.4375	-1.4	95.439	46.008	47.896	-160.285	-57.632	-116.729	35.169	-67.204	0.655	118.804	126.812	43.182	-91.208	-163.461	78.830	-153.342	0.00039596	0.00024081	0.00015271	1359.7	4.7283e-06	5.2436e-06	1359.8	368.6	4.6835e-06	7.6955e-06	421.63	139.4	121.97	42.007	3.9484e-06	51.861	0.0005247	0.00053347	0.00014495	1377.4	5.8453e-06	5.8095e-06	1376.9	374.27	5.8868e-06	5.7658e-06	427.84	143.03	124.6	43	5.8129e-06	53.186	-115.261	-53.123	-106.890	-162.343	-1.276	-28.943	-162.516	-157.799	-38.899	-43.651	-158.306	-154.091	-153.553	-149.071	-38.133	-149.581	-8191	255	
20507.154	1	1	0	0	0.048403	0.10287	0.21894	0.2528	0.15522	0.2656	0.26942	0.18624	0.09637	0.21584	0.19087	0.2516	0.17831	0.10956	0.17234	0.41317	-0.39583	-0.12917	-1.0562	-0.63333	-0.5	-1.3625	-0.4625	-1.05	-0.80625	-0.53333	-1.5229	-0.82917	-0.73958	-1.2417	-0.37083	-1.2125	121.670	162.156	-112.939	152.385	93.299	148.962	92.000	125.667	64.434	-63.951	139.253	-1.186	164.431	106.450	-81.899	102.588	0.0004327	0.00022835	0.00022402	1362.4	4.6816e-06	2.8214e-06	1361.5	367.97	5.2096e-06	4.1224e-06	418.89	140.13	121.47	41.95	3.3278e-06	52.015	0.00053316	0.00052956	0.00014613	1378.1	5.824e-06	5.676e-06	1379.6	374.41	5.7566e-06	5.6671e-06	426.76	143.15	124.43	42.972	5.8262e-06	53.148	-115.399	-66.019	-107.290	-162.342	-10.006	-70.977	-162.347	-157.656	0.159	-78.755	-158.387	-154.084	-153.401	-148.851	-63.482	-149.463	-8191	255	
20507.227	1	1	0	0	0.092799	0.054788	0.087984	0.32006	0.29564	0.2088	0.24361	0.29023	0.10022	0.19412	0.19228	0.17462	0.031211	0.31999	0.18787	0.14691	-0.75417	-0.37292	-0.99167	-0.91875	-0.55833	-1.4542	-0.49375	-1.0604	-0.94375	-0.17083	-1.2583	-0.57292	-0.48125	-1.2271	-0.56458	-0.5875	-14.202	-16.659	-168.952	116.582	-43.255	-19.506	115.783	162.668	-80.577	174.873	62.932	181.021	-30.822	173.536	-10.671	16.015	0.00048992	0.00051388	0.00010129	1361.4	5.1835e-06	5.1283e-06	1356.5	368.06	4.9016e-06	3.5954e-06	420.38	140.61	121.85	42.059	3.4219e-06	51.548	0.0005328	0.00052964	0.00014496	1376	5.7717e-06	5.7456e-06	1374.8	374.07	5.716e-06	5.7834e-06	426.82	143	124.39	42.915	5.7713e-06	53.03	-117.574	-60.842	-42.002	-162.441	-56.765	-25.955	-162.726	-157.594	-53.783	1.190	-158.302	-154.140	-153.350	-148.949	-13.113	-149.736	-8191	255	
20507.348	1	1	0	0	0.08892	0.25189	0.24192	0.15141	0.03744	0.15903	0.15852	0.27993	0.08803	0.13452	0.19094	0.38285	0.23508	0.30005	0.2164	0.23282	-0.58542	-0.19583	-1.1729	-0.82917	-0.33333	-1.4979	-0.51667	-0.72708	-1.2146	-0.13958	-1.0125	-0.92292	-0.46042	-1.3542	-0.53125	-0.65	-128.862	-168.963	-151.260	-136.957	10.520	100.440	119.981	155.242	134.596	-56.366	178.759	133.758	-168.180	-167.095	63.156	156.384	0.00047512	0.00023813	0.00011097	1359.5	3.7327e-06	5.5622e-06	1356.2	369.03	6.861e-06	6.2284e-06	420.04	139.33	121.42	42.006	4.3447e-06	51.715	0.00051825	0.00052218	0.00014401	1376.2	5.7e-06	5.6688e-06	1374.6	374.52	5.7061e-06	5.7127e-06	427.64	142.83	124.15	42.966	5.8512e-06	53.17	-117.661	-90.787	-95.121	-162.418	-40.102	-34.861	-162.173	-157.681	-9.312	-35.986	-158.198	-154.180	-153.480	-148.681	-38.643	-149.350	-8191	255	
20507.443	1	1	0	0	0.24435	0.40482	0.27545	0.19009	0.18217	0.10897	0.30628	0.21404	0.18269	0.085255	0.20827	0.15708	0.1464	0.14482	0.26977	0.4103	-0.7625	-0.33125	-0.81875	-1.1021	-0.40417	-1.2042	-0.80208	-0.55625	-1.2146	-0.33333	-1.0042	-0.85625	-0.24167	-1.3354	-0.54792	-0.73333	-78.194	-42.307	9.471	173.499	-97.135	-153.237	131.073	116.779	29.188	160.807	124.236	-154.533	-160.622	92.448	76.043	-167.897	0.00044286	0.00044399	0.0002189	1363.1	3.7251e-06	3.8355e-06	1355.5	367.62	4.8227e-06	1.967e-06	421.86	139.64	121.78	41.998	5.7985e-06	51.846	0.00052173	0.00052786	0.00014597	1378.2	5.6216e-06	5.7099e-06	1374.4	374.17	5.7552e-06	5.7223e-06	427.37	142.96	124.47	43.018	5.7498e-06	53.142	-118.015	-97.099	-117.749	-162.279	-47.965	-8.015	-162.552	-157.615	-8.935	-87.477	-158.396	-154.345	-153.589	-148.718	-60.483	-149.332	-8191	255	
20507.539	1	1	0	0	0.19925	0.18315	0.19696	0.11533	0.39577	0.18386	0.41162	0.39704	0.18966	0.15345	0.24748	0.24199	0.075027	0.3644	0.18212	0.15113	-0.67292	-0.37292	-0.86458	-1.0042	-0.3	-0.97083	-0.85208	-0.2875	-1.1375	-0.23542	-0.89583	-1.2104	-0.40625	-1.2521	-0.89375	-0.55	-89.955	173.385	20.643	93.704	42.370	-19.397	137.243	111.285	-135.856	-22.959	114.811	99.614	-95.321	-135.510	77.359	136.821	0.00042309	0.00048275	0.00018766	1359.6	4.587e-06	4.9146e-06	1353.8	369.43	3.2223e-06	9.2404e-06	422.76	139.83	121.75	41.782	8.2063e-06	51.863	0.00050886	0.00052917	0.00014655	1376.4	5.8093e-06	5.7303e-06	1372.6	374.8	5.7199e-06	5.8229e-06	428.37	143.21	124.71	42.935	5.837e-06	53.208	-113.232	-88.127	-63.550	-162.415	-64.199	-12.508	-162.424	-157.776	-10.980	-22.939	-158.286	-153.833	-153.539	-148.560	-39.948	-149.493	-8191	255	
20507.635	1	1	0	0	0.18701	0.24684	0.085798	0.26586	0.086967	0.17145	0.080164	0.19786	0.072738	0.054847	0.16853	0.015686	0.21988	0.34536	0.29477	0.33706	-0.78542	-0.44583	-0.67708	-1.2021	-0.35417	-1.0583	-0.83125	-0.46667	-1.275	-0.59583	-0.75417	-1.2437	-0.39792	-1.0292	-1.0688	-0.39167	-59.092	-3.173	87.331	144.145	-11.308	-26.758	-160.443	-167.347	-79.805	-23.014	-170.266	13.586	140.180	150.749	-83.898	92.785	0.00044023	0.0002416	0.00021673	1359	2.3372e-06	6.9773e-06	1356.5	369.76	4.6522e-06	4.7874e-06	421.22	140.19	121.89	41.991	3.2429e-06	51.731	0.00052543	0.0005272	0.00014611	1376.9	5.835e-06	5.8138e-06	1375.2	374.53	5.7805e-06	5.8188e-06	427.59	143	124.39	43.009	5.8013e-06	53.08	-115.656	-83.295	-57.967	-162.239	-16.940	-9.077	-162.410	-157.590	-37.607	-19.432	-158.218	-154.029	-153.433	-148.738	39.777	-149.336	-8191	255	
20507.756	1	1	0	0	0.3146	0.12488	0.11672	0.25409	0.25349	0.25743	0.57342	0.35133	0.23204	0.16035	0.28117	0.13174	0.074248	0.27416	0.1687	0.38394	-0.7125	-0.66667	-0.48333	-1.3167	-0.41667	-0.86458	-0.9875	-0.38958	-1.2021	-0.575	-0.65417	-1.2542	-0.49375	-1	-1.1229	-0.29167	-17.348	-34.278	39.319	-163.610	-94.030	61.926	113.016	137.462	-90.501	-109.163	-169.696	-109.828	7.375	168.669	59.217	139.892	0.00042885	0.00039208	0.00013402	1364.7	6.7951e-07	9.5647e-06	1360.7	369.69	5.6967e-06	5.1012e-06	419.3	140.17	121.45	42.087	5.5103e-06	51.944	0.00052762	0.00053471	0.00014663	1379.5	5.8961e-06	5.7766e-06	1377	375.05	5.8544e-06	5.8205e-06	427.06	143.08	124.37	43.072	5.792e-06	53.153	-113.631	-75.438	-42.148	-162.297	-21.383	-71.231	-162.730	-157.800	-21.941	-16.777	-158.365	-153.978	-153.112	-148.799	4.425	-149.578	-8191	255	
20507.828	1	1	0	0	0.2983	0.10989	0.045745	0.10583	0.16418	0.18489	0.14112	0.15064	0.28797	0.1531	0.44312	0.29482	0.26853	0.33388	0.26214	0.16919	-0.89375	-0.83542	-0.44167	-1.4667	-0.43125	-0.90417	-1.4542	-0.39583	-1.2229	-0.8625	-0.5375	-1.4208	-0.625	-0.82083	-1.2042	-0.51667	140.072	93.140	-80.856	138.484	126.642	-133.299	81.536	-139.606	-6.769	166.228	163.297	131.502	123.733	160.127	133.378	105.397	0.0004329	0.00045067	0.0002024	1363.6	3.6002e-06	1.4727e-06	1360.2	368.24	6.305e-06	7.8555e-06	420.38	139.97	121.61	41.915	7.715e-06	51.788	0.00052709	0.00053767	0.00014914	1379.4	5.8691e-06	5.8479e-06	1378.9	374.42	5.8894e-06	5.8999e-06	427.92	143.25	124.73	43.02	5.8808e-06	53.145	-115.334	-120.214	-110.092	-162.158	-25.319	104.744	-162.574	-157.566	-43.147	-23.725	-158.276	-153.809	-153.337	-148.871	-11.191	-149.333	-8191	255	
20507.924	1	1	0	0	0.068554	0.40386	0.11345	0.25563	0.28825	0.056025	0.46691	0.21266	0.14041	0.19264	0.3581	0.20618	0.073032	0.31093	0.15567	0.30586	-0.80208	-0.91458	-0.28542	-1.2	-0.43958	-0.57083	-1.5979	-0.31667	-1.1604	-0.85417	-0.53333	-1.1625	-0.37917	-0.41875	-1.1917	-0.40208	-160.323	177.665	-71.932	126.633	-46.307	154.452	76.660	177.903	62.001	136.452	135.359	79.772	118.066	142.793	-117.104	119.050	0.00042818	0.00040903	3.6343e-05	1362.8	4.3338e-06	3.3065e-06	1362.3	368.01	5.2381e-06	2.4526e-06	422.44	140.28	122.23	42.131	4.9239e-06	51.799	0.00053107	0.00053742	0.00014922	1379.4	5.9265e-06	5.7996e-06	1377.9	374.52	5.8487e-06	5.7279e-06	428.05	143.38	124.52	42.997	5.633e-06	53.076	-119.226	-34.735	-96.165	-162.220	20.383	-79.074	-162.288	-157.755	-45.504	-23.201	-158.401	-153.987	-153.391	-148.585	-26.216	-149.260	-8191	255	
20508.045	1	1	0	0	0.12727	0.21401	0.17136	0.40403	0.10376	0.19326	0.15604	0.56303	0.21845	0.037309	0.044432	0.12819	0.17117	0.044712	0.28441	0.07757	-0.60833	-0.82083	-0.20833	-1.2417	-0.54792	-0.42292	-1.4542	-0.625	-0.93958	-1.0854	-0.21458	-1.2729	-0.75	-0.55833	-1.2188	-0.47083	77.601	-70.054	-123.088	128.574	-139.040	122.148	-109.032	160.466	-38.468	-166.695	-106.807	-173.083	-123.881	-26.903	-49.763	-73.778	0.00040156	0.00062607	0.00012252	1365.8	4.1246e-06	2.7989e-06	1357.7	368.28	2.8795e-06	4.6197e-06	420.31	139.61	122.22	42.096	7.9872e-06	52.123	0.00051429	0.00050992	0.00014395	1379.7	5.7078e-06	5.5458e-06	1376.6	374.16	5.5045e-06	5.6129e-06	426.38	143.09	124.36	42.99	5.6075e-06	53.118	-112.477	-90.299	-64.010	-162.076	-3.936	-98.250	-162.298	-157.574	-24.412	-10.741	-158.028	-153.793	-153.387	-148.660	-14.965	-149.373	-8191	255	
20508.139	1	1	0	0	0.26839	0.079811	0.0054838	0.25971	0.12058	0.10702	0.16572	0.22131	0.34421	0.15631	0.09015	0.21789	0.38609	0.14363	0.11324	0.20653	-0.4875	-1.0146	-0.25417	-1.0729	-0.72708	-0.275	-1.3854	-0.44792	-0.71667	-1.1042	-0.3875	-1.3479	-1.0167	-0.48542	-1.1542	-0.5875	-160.161	25.424	28.056	159.439	-56.470	172.283	158.611	77.823	-105.457	40.708	111.116	137.748	-134.490	-161.043	-155.606	-77.728	0.00045711	0.00065556	4.3731e-05	1365.6	6.04e-06	1.5573e-06	1361.4	368.67	5.1379e-06	7.2275e-06	421.55	140.4	121.53	42.103	5.8805e-06	51.731	0.00051071	0.00050988	0.00014282	1380.1	5.5962e-06	5.5696e-06	1376.1	374.51	5.6054e-06	5.5394e-06	427.58	143.07	124.35	42.99	5.613e-06	53.119	-116.321	-74.350	-125.787	-162.157	-34.434	10.823	-162.459	-157.735	-39.680	-4.017	-158.180	-153.982	-153.453	-148.773	-31.521	-149.315	-8191	255	
20508.234	1	1	0	0	0.31264	0.09201	0.11516	0.09867	0.24719	0.17812	0.24198	0.20823	0.16007	0.3216	0.23242	0.13764	0.2515	0.25118	0.16358	0.049163	-0.18333	-1.0833	-0.2375	-1.4438	-0.79167	-0.40208	-1.3312	-0.69167	-0.55208	-1.1958	-0.40625	-0.77917	-1.0875	-0.1875	-1.0229	-0.58958	175.983	-7.402	-47.367	-118.051	147.261	102.701	123.957	-164.350	7.326	180.858	135.750	-171.028	147.010	127.930	141.596	-117.792	0.00048725	0.00055581	8.4349e-05	1364.2	4.6864e-06	2.8646e-06	1362.4	368.37	4.0274e-06	4.0667e-06	421.44	140.41	121.78	41.989	7.1542e-06	51.932	0.00050717	0.00050082	0.00014372	1377.5	5.6202e-06	5.5245e-06	1377.3	373.62	5.4679e-06	5.4354e-06	427.22	143.44	124.35	42.895	5.4756e-06	53.049	-110.236	-70.237	-104.104	-162.108	-51.694	-23.013	-162.229	-157.600	-38.708	-45.709	-158.112	-153.617	-153.345	-148.756	8.752	-149.452	-8191	255	
20508.330	1	1	0	0	0.074038	0.084402	0.23165	0.23721	0.073697	0.15328	0.17255	0.32798	0.18868	0.22591	0.26241	0.24957	0.34419	0.164	0.15183	0.058941	-0.15417	-0.97917	-0.31042	-1.125	-0.80625	-0.27917	-1.4542	-0.74583	-0.30417	-1.2479	-0.60833	-0.69375	-0.975	-0.21875	-1.0187	-0.86458	-148.055	-0.611	-159.112	144.845	182.543	75.987	133.356	134.014	-141.521	69.297	124.751	172.002	141.941	78.504	60.347	-84.164	0.00041691	0.0003426	8.8126e-05	1361.3	7.2007e-06	5.1736e-06	1361.8	368.23	3.8145e-06	3.83e-06	418.89	139.93	121.43	42.081	3.187e-06	51.75	0.00049301	0.00048532	0.00013755	1375.5	5.3549e-06	5.2978e-06	1376.6	373.48	5.3734e-06	5.3549e-06	426.13	142.87	124.38	42.958	5.413e-06	53.066	-120.297	-87.949	-68.105	-161.943	-34.269	26.108	-162.390	-157.616	-10.263	35.180	-157.957	-153.584	-153.175	-148.779	-59.866	-149.347	-8191	255	
20508.428	1	1	0	0	0.074936	0.22898	0.17763	0.13112	0.22725	0.20959	0.2696	0.14054	0.023047	0.046749	0.19989	0.34738	0.058982	0.3041	0.24139	0.20296	0.097917	-1.2042	-0.48542	-0.84792	-1.0375	-0.18958	-1.2062	-0.84375	-0.41667	-1.2208	-0.72708	-0.77292	-1.15	-0.3	-0.9625	-0.9375	63.748	36.130	177.959	-92.732	104.124	-165.215	102.017	163.326	3.506	17.495	181.098	141.504	115.987	104.160	-131.475	-161.272	0.00047061	0.00037111	0.00020342	1367.7	4.0142e-06	5.9692e-06	1360.2	368.2	1.9623e-06	6.8744e-06	419.8	140.34	121.87	41.87	2.9705e-06	51.811	0.00049936	0.0005041	0.00013912	1379.1	5.4072e-06	5.6003e-06	1375.9	374.16	5.5313e-06	5.5433e-06	426.2	143.03	124.24	42.888	5.4608e-06	53.115	-115.726	-138.553	-99.103	-162.107	-35.779	-40.630	-162.175	-157.619	21.445	-22.247	-158.060	-153.730	-153.243	-148.641	-55.176	-149.350	-8191	255	
20508.523	1	1	0	0	0.13311	0.21497	0.26789	0.21279	0.029253	0.12913	0.44417	0.020019	0.27274	0.020929	0.17124	0.10074	0.25966	0.24196	0.11337	0.22359	0.0083333	-1.2104	-0.37917	-0.77292	-1.2375	-0.3375	-1.0021	-1.1875	-0.17292	-1.1021	-0.625	-0.7375	-1.3333	-0.37292	-0.97917	-1.1604	-128.980	-43.889	44.392	146.793	-99.209	42.497	173.061	39.162	-118.085	-99.438	-20.507	175.924	181.136	141.451	13.937	176.251	0.00042258	0.00059249	0.00022722	1365	6.1462e-06	9.2743e-06	1361.1	368.99	5.8424e-06	8.6072e-06	420.36	140.58	121.7	41.949	5.6337e-06	51.786	0.00050618	0.00050713	0.00014173	1379.2	5.5514e-06	5.6072e-06	1374.9	373.95	5.6275e-06	5.4925e-06	426.46	143.22	124.36	42.923	5.505e-06	53.008	-110.356	-60.325	-88.142	-162.013	-22.774	-5.035	-162.103	-157.713	-7.055	-35.870	-158.031	-153.754	-153.244	-148.545	-19.081	-149.635	-8191	255	
20508.645	1	1	0	0	0.17021	0.12853	0.12587	0.33597	0.099474	0.2032	0.30704	0.24025	0.060295	0.12605	0.080694	0.28843	0.11502	0.18627	0.19043	0.20877	0.072917	-1.1417	-0.58333	-0.58542	-1.3354	-0.34792	-1.0042	-1.2125	-0.37083	-1.1688	-0.84375	-0.49375	-1.2812	-0.36458	-0.83333	-1.075	150.569	-81.749	-58.448	164.350	-153.431	-61.076	124.944	128.198	-139.214	-45.368	-95.829	73.483	88.586	123.527	-110.749	139.846	0.000428	0.00014355	9.0288e-05	1363	7.2028e-06	6.4179e-06	1361.7	368.49	2.8685e-06	5.3617e-06	420.69	139.64	121.88	42.221	3.9524e-06	51.955	0.00050517	0.0005121	0.00014132	1378.6	5.5402e-06	5.6039e-06	1376.6	373.66	5.6364e-06	5.5631e-06	426.82	142.8	124.43	42.975	5.5282e-06	53.092	-114.587	-174.049	-79.412	-162.073	-52.525	-32.679	-162.126	-157.598	-0.590	-3.057	-157.556	-153.467	-153.071	-148.435	-15.439	-149.274	-8191	255	
20508.740	1	1	0	0	0.044223	0.21126	0.29951	0.24504	0.15982	0.1111	0.21431	0.53339	0.049462	0.23072	0.34147	0.28294	0.19659	0.26271	0.26373	0.20461	0.083333	-0.77917	-0.73542	-0.5625	-1.4042	-0.46042	-0.7125	-1.2667	-0.11667	-0.94167	-1.1208	-0.33542	-1.4458	-0.66458	-0.48333	-1.1437	-82.210	58.010	-21.039	-167.871	151.165	161.231	-161.087	109.056	-149.975	-166.097	171.471	155.057	37.598	172.867	1.111	134.203	0.000436	8.4935e-05	8.3708e-05	1364.6	6.6894e-06	5.8698e-06	1361.5	369.39	4.1887e-06	5.9871e-06	421.84	140.24	121.72	41.945	4.6823e-06	51.871	0.00051637	0.00051245	0.00014121	1378.7	5.5953e-06	5.5641e-06	1377.7	374.32	5.6123e-06	5.4823e-06	427.49	143.06	124.34	42.943	5.5232e-06	53.099	-114.433	-144.075	-84.025	-161.850	-12.391	-102.372	-162.043	-157.396	-80.735	-20.065	-158.050	-153.737	-153.202	-148.289	-63.402	-149.314	-8191	255	
20508.836	1	1	0	0	0.2626	0.25935	0.2227	0.2764	0.20694	0.26029	0.28322	0.093973	0.17697	0.30435	0.26133	0.65973	0.11891	0.36132	0.16865	0.029701	-0.033333	-0.87917	-1.05	-0.34583	-1.0229	-0.59583	-0.70625	-1.4188	-0.46042	-1.0604	-1.1146	-0.375	-1.2729	-0.825	-0.3875	-1.2375	-69.666	68.179	0.662	129.514	-129.938	-96.380	137.298	108.409	146.113	91.651	-136.337	165.199	-32.192	-171.491	-33.223	-174.030	0.00043537	0.00045368	0.00025799	1365.3	5.2467e-06	3.775e-06	1354.5	369.25	7.3705e-06	5.8151e-06	421.24	140.35	121.59	41.987	2.9106e-06	51.75	0.00050452	0.00050549	0.00013694	1377.8	5.448e-06	5.5015e-06	1374	374.27	5.49e-06	5.4348e-06	426.49	143.08	124.2	42.827	5.3727e-06	53.013	-114.786	-80.025	-101.522	-161.838	-40.880	-11.859	-162.101	-157.507	-47.545	-4.938	-157.971	-153.594	-152.949	-148.553	-63.840	-149.582	-8191	255	
20508.932	1	1	0	0	0.31164	0.24531	0.25809	0.36018	0.026171	0.055403	0.11021	0.032016	0.064118	0.10036	0.15685	0.27994	0.21196	0.39866	0.14298	0.17822	0.00625	-0.68542	-1.075	-0.39583	-1.0083	-0.76667	-0.66042	-1.3646	-0.38333	-0.775	-1.2854	-0.52708	-1.3771	-0.67917	-0.3	-1.2833	103.271	172.937	-134.245	-168.073	-31.241	-51.895	119.251	-138.515	-116.041	-163.764	21.374	80.345	-154.720	-146.725	17.182	75.904	0.00039909	0.00074529	0.00015936	1362.4	3.928e-06	4.2398e-06	1359.8	368.97	7.2491e-06	6.4422e-06	419.7	140.4	121.08	41.87	8.3501e-06	52.016	0.00049685	0.00049782	0.0001374	1376.5	5.4703e-06	5.4886e-06	1376.9	374.23	5.477e-06	5.4374e-06	425.81	143.07	124.06	42.923	5.4596e-06	53.148	-110.229	-86.077	-75.748	-162.165	-25.110	-11.370	-161.869	-157.489	-22.026	-3.307	-158.104	-153.803	-152.817	-148.548	-6.390	-149.013	-8191	255	
20509.051	1	1	0	0	0.23261	0.22366	0.24349	0.27234	0.067548	0.38054	0.37351	0.21847	0.29014	0.23036	0.32441	0.29976	0.247	0.21709	0.27523	0.00056942	-0.2	-0.58125	-1.0479	-0.58542	-1.1146	-1.1812	-0.71667	-1.3312	-0.7	-0.525	-1.3792	-0.47917	-1.0562	-0.95208	-0.29583	-1.2542	-144.052	23.853	-47.260	-174.864	65.287	78.763	131.113	125.382	156.491	-105.566	-156.990	127.341	181.516	84.154	-23.754	180.000	0.00045509	0.00048847	0.00010857	1360.6	5.8744e-06	6.3709e-06	1354.3	367.68	5.6771e-06	5.2886e-06	420.12	140.32	122.52	42.08	3.9511e-06	51.817	0.00050134	0.00049938	0.0001376	1376.6	5.4777e-06	5.4305e-06	1374.5	373.72	5.5124e-06	5.4656e-06	426.55	143.15	124.47	42.959	5.5462e-06	53.162	-114.497	-92.302	-77.853	-161.998	-2.595	-35.757	-162.113	-157.483	-39.941	-8.208	-158.005	-153.446	-152.864	-148.502	-52.889	-149.091	-8191	255	
20509.123	1	1	0	0	0.28016	0.0949	0.23944	0.13347	0.15599	0.12519	0.078868	0.41835	0.091978	0.37605	0.40576	0.14613	0.30827	0.14438	0.1444	0.22769	-0.08125	-0.58542	-1.0688	-0.7	-0.70625	-1.275	-0.52292	-1.3083	-0.81042	-0.49167	-1.2042	-0.38542	-1.0021	-1.2208	-0.40625	-1.0792	-62.146	-131.210	108.264	-142.812	138.935	112.149	37.863	-141.084	-71.045	-25.327	172.874	183.389	169.912	184.284	-59.519	157.039	0.00042237	0.00042147	0.0002993	1360.3	5.9999e-06	4.217e-06	1355.4	368.36	5.8559e-06	5.7506e-06	419.07	139.86	121.64	41.986	7.7946e-06	51.868	0.00049807	0.00050096	0.00013716	1375.4	5.4022e-06	5.414e-06	1373.1	373.92	5.4142e-06	5.3576e-06	426.94	142.79	124.19	42.949	5.507e-06	53.016	-116.334	-95.010	-83.411	-162.045	-86.910	-54.630	-162.193	-157.169	-15.089	-33.347	-157.997	-153.634	-152.854	-148.640	-28.482	-149.123	-8191	255	
20509.219	1	1	0	0	0.2341	0.18349	0.17457	0.17867	0.11185	0.14141	0.11681	0.12196	0.13282	0.20236	0.084027	0.40425	0.20259	0.32078	0.052657	0.12147	-0.3375	-0.42917	-1.3167	-0.55625	-0.69375	-1.0854	-0.5625	-1.2104	-0.7375	-0.49375	-1.3208	-0.66667	-0.75208	-1.1875	-0.39792	-0.87708	63.249	-74.308	23.978	-166.966	-45.737	-78.478	128.450	69.252	93.301	5.898	67.867	174.856	94.555	140.427	118.941	155.321	0.00046888	0.00058802	0.00015332	1363.3	2.3982e-06	5.2529e-06	1357.8	369.49	4.257e-06	1.5831e-06	421.09	140.2	121.53	41.854	3.9643e-06	51.766	0.00049583	0.00049304	0.0001382	1377.2	5.4594e-06	5.3587e-06	1374.5	373.93	5.437e-06	5.4196e-06	426.79	143.09	124.23	42.904	5.5879e-06	53.107	-117.412	-109.361	-108.907	-162.053	-5.055	-58.281	-162.028	-157.162	-40.062	-11.758	-157.731	-153.517	-152.982	-148.481	-79.186	-149.127	-8191	255	
20509.314	1	1	0	0	0.11769	0.079831	0.17933	0.26985	0.15785	0.038594	0.14391	0.15271	0.25227	0.18219	0.5427	0.1993	0.12721	0.076017	0.17455	0.32652	-0.44583	-0.25625	-1.1688	-0.73333	-0.58542	-1.4104	-0.67083	-1.1354	-1.1	-0.29792	-1.2812	-0.83333	-0.62083	-1.5042	-0.48333	-0.90833	45.398	183.330	-15.378	87.308	-12.844	-60.263	70.832	110.644	-171.006	139.406	-165.089	182.170	131.446	79.579	56.879	-20.925	0.00042963	0.00036976	0.00023679	1359.7	4.2645e-06	6.2486e-06	1359.8	368.47	4.073e-06	4.2895e-06	419.57	140.16	121.95	41.679	1.0644e-05	51.931	0.00049984	0.00050393	0.00013859	1374.3	5.4568e-06	5.442e-06	1375.4	374.45	5.4684e-06	5.5202e-06	426.15	142.97	124.33	42.858	5.5345e-06	53.037	-120.009	-83.810	-92.944	-161.838	-31.735	12.681	-161.953	-157.318	-40.913	-66.164	-157.909	-153.465	-152.936	-148.365	-35.451	-149.039	-8191	255	
20509.436	1	1	0	0	0.073572	0.31573	0.13813	0.25496	0.12215	0.0875	0.34451	0.20647	0.36179	0.14872	0.12536	0.065732	0.29651	0.33469	0.16852	0.060801	-0.53125	-0.34167	-1.1187	-0.95625	-0.59167	-1.3458	-0.55208	-0.97083	-1.0583	-0.23542	-1.2646	-0.79167	-0.66458	-1.2667	-0.59792	-0.86458	-89.382	-119.940	-123.131	151.453	89.168	-138.370	154.841	116.828	69.316	52.821	55.438	76.536	-153.883	99.946	58.244	-72.946	0.00042589	9.1238e-05	8.2452e-05	1362.9	9.249e-07	6.4353e-06	1354.4	368.8	2.8799e-06	3.9385e-06	421.52	140.29	121.6	41.993	7.3417e-06	51.994	0.00049985	0.00051221	0.00014088	1375.3	5.4571e-06	5.5135e-06	1373.3	374.06	5.5601e-06	5.5422e-06	427.11	143.08	124.14	42.958	5.5064e-06	53.182	-116.911	-4.671	-75.693	-161.840	-74.281	-45.028	-162.017	-157.139	-37.973	-17.898	-157.896	-153.623	-152.840	-148.635	-31.133	-149.244	-8191	255	
20509.531	1	1	0	0	0.18517	0.10952	0.13118	0.3493	0.1085	0.07976	0.15945	0.087863	0.38493	0.17448	0.2649	0.32319	0.071864	0.23249	0.11698	0.055894	-0.87917	-0.19792	-1.0417	-0.98958	-0.34375	-1.2125	-0.64583	-0.81667	-1.3542	-0.34792	-1.1042	-1.0562	-0.3625	-1.1583	-0.55417	-0.67917	-78.387	60.666	165.699	180.784	-2.199	174.027	126.302	136.817	149.717	14.092	-170.788	60.767	107.742	-131.509	106.453	-52.666	0.00042541	0.00019682	0.00012673	1357.3	6.8003e-06	6.6576e-06	1359.7	368.18	5.7775e-06	3.2893e-06	419.93	139.88	122.04	42.036	5.3993e-06	51.946	0.00050074	0.00050619	0.00013815	1375.7	5.4999e-06	5.4885e-06	1374.2	373.84	5.4279e-06	5.4972e-06	426.97	142.99	124.35	42.938	5.4839e-06	53.11	-114.308	-83.512	-83.330	-161.909	-31.544	-39.205	-162.058	-157.105	-43.221	-43.781	-157.570	-153.559	-152.879	-148.407	-54.764	-148.860	-8191	255	
20509.629	1	1	0	0	0.11867	0.095149	0.11162	0.37762	0.22725	0.11593	0.17088	0.15447	0.20686	0.089224	0.099009	0.1117	0.045383	0.31977	0.075218	0.22451	-0.7125	-0.22083	-0.93333	-1.0083	-0.32083	-1.3563	-0.98958	-0.75417	-1.3375	-0.38542	-1.1667	-1.0521	-0.37708	-1.2917	-0.64792	-0.55625	120.387	-124.852	101.868	-165.585	-118.358	-152.340	-118.655	88.026	-131.424	102.129	-60.343	-154.398	121.361	-172.655	-78.427	154.164	0.000439	0.00021367	7.6424e-05	1363.7	7.4168e-06	8.1373e-06	1357.1	369.1	5.2822e-06	4.34e-06	418.55	139.99	121.77	42.11	6.5158e-06	51.806	0.00050358	0.00050304	0.00013666	1376.8	5.4985e-06	5.5326e-06	1373.7	374.13	5.4247e-06	5.4626e-06	427.26	142.93	124.32	42.943	5.5264e-06	53.009	-113.313	-101.865	-31.730	-161.889	-12.961	24.566	-161.928	-157.207	-33.075	-21.352	-157.645	-153.604	-152.852	-148.456	-20.665	-148.984	-8191	255	
20509.725	1	1	0	0	0.18662	0.19811	0.1368	0.27724	0.22864	0.24296	0.26092	0.439	0.15984	0.12826	0.17355	0.22838	0.23591	0.032315	0.27399	0.27519	-0.92292	-0.11875	-0.92708	-1.1458	-0.37917	-1.3	-0.97083	-0.65833	-1.1542	-0.36458	-0.80833	-1.2146	-0.29792	-1.1271	-0.72708	-0.40208	-166.707	182.378	-28.917	149.012	-135.583	160.482	143.270	173.629	-152.370	-128.891	-141.088	33.156	172.494	65.659	113.913	104.160	0.00040416	0.00056903	0.0001713	1360.2	2.9319e-06	4.6351e-06	1356.1	369.85	4.9034e-06	8.0549e-06	421.26	139.29	121.94	41.951	7.7237e-06	51.608	0.00049656	0.00049569	0.00013663	1375.5	5.4772e-06	5.4069e-06	1374.2	374.48	5.4778e-06	5.3939e-06	426.79	142.82	124.41	42.905	5.4388e-06	52.962	-117.129	-86.826	-90.312	-161.862	-27.150	-41.489	-162.042	-157.048	-11.804	5.639	-157.702	-153.553	-152.761	-148.322	-28.356	-148.660	-8191	255	
20509.820	1	1	0	0	0.2978	0.063042	0.33111	0.31424	0.15153	0.025023	0.33938	0.3229	0.091684	0.24217	0.082631	0.20207	0.1505	0.15496	0.16348	0.084086	-1.0187	-0.3875	-0.62708	-1.4354	-0.33958	-1.0521	-1.1604	-0.45625	-1.3896	-0.49583	-0.80417	-1.1729	-0.32083	-1.0292	-0.9	-0.45833	141.163	165.359	-94.418	177.034	123.360	77.448	-146.800	-173.223	-22.822	-142.275	88.007	-138.126	167.799	-80.910	159.144	-145.593	0.00041724	0.00029059	0.00018116	1363.1	7.8485e-06	7.417e-07	1358.7	367.59	6.0875e-06	2.1855e-06	420.2	139.56	121.27	41.889	5.5698e-06	51.827	0.0005006	0.00050219	0.00013727	1376.7	5.5145e-06	5.3971e-06	1372.8	373.9	5.4318e-06	5.4459e-06	426.54	142.93	124.2	42.881	5.4784e-06	53.052	-115.042	-84.669	-112.218	-161.870	-29.736	-104.458	-162.059	-157.211	-27.192	-91.574	-157.692	-153.498	-152.778	-148.045	16.077	-148.886	-8191	255	
20509.918	1	1	0	0	0.11909	0.17263	0.098689	0.18276	0.41158	0.10783	0.42741	0.062819	0.19742	0.082473	0.45144	0.1642	0.23221	0.19543	0.35056	0.11201	-0.87917	-0.46458	-0.71458	-1.4875	-0.39792	-0.98958	-1.2208	-0.23958	-1.3292	-0.57083	-0.74792	-1.3937	-0.45	-0.97292	-1.0583	-0.37708	-42.278	116.353	-45.770	81.191	-165.660	82.141	165.931	22.417	157.066	89.984	-170.362	134.454	74.559	74.579	144.512	182.680	0.00043865	0.00067995	0.00018661	1364.7	4.303e-06	3.9729e-06	1358.2	368.76	4.8759e-06	3.9961e-06	422.25	140.04	121.79	41.984	5.2875e-06	51.873	0.00049879	0.00049368	0.00013852	1376.9	5.474e-06	5.4087e-06	1374.3	374.09	5.4636e-06	5.4234e-06	427.38	143	124.26	42.943	5.4438e-06	53.1	-115.349	-113.875	-83.595	-161.907	-7.529	-60.590	-162.012	-157.229	4.621	-26.856	-157.495	-153.223	-152.900	-148.231	-24.480	-148.761	-8191	255	
20510.014	1	1	0	0	0.061436	0.39032	0.19622	0.18917	0.24163	0.13966	0.32503	0.15165	0.28615	0.16458	0.14785	0.25792	0.087114	0.42697	0.20359	0.29669	-0.88542	-0.66042	-0.28542	-1.3042	-0.50208	-0.80625	-1.3479	-0.41667	-1.1542	-0.84792	-0.31042	-1.4583	-0.41458	-0.81667	-1.2729	-0.32292	19.966	182.395	33.942	164.532	-148.078	-143.846	100.733	117.950	-61.421	152.443	-146.503	58.944	172.086	131.097	-173.612	76.763	0.00044947	0.00050003	0.00017303	1364.3	4.3962e-06	2.7552e-06	1359.6	367.56	6.1221e-06	9.042e-06	420.05	139.57	121.57	41.936	1.9866e-06	51.769	0.00049761	0.00049053	0.00013883	1377.6	5.5042e-06	5.4359e-06	1374	373.56	5.4798e-06	5.3611e-06	426.87	142.9	124.18	42.938	5.5168e-06	52.924	-118.102	-66.877	-92.450	-161.714	12.359	14.866	-161.967	-157.135	-25.353	-25.292	-157.805	-153.517	-152.900	-148.125	-39.689	-148.618	-8191	255	
20510.133	1	1	0	0	0.3181	0.16473	0.11078	0.24068	0.15645	0.20583	0.25286	0.036142	0.19981	0.34355	0.14717	0.51944	0.19237	0.3486	0.088152	0.15669	-0.67708	-0.70625	-0.30833	-1.4813	-0.49167	-0.53125	-1.5479	-0.44583	-1.1146	-1.0625	-0.36667	-1.275	-0.70417	-0.70625	-1.1208	-0.46458	-105.097	60.272	121.696	-159.784	27.853	166.365	-125.151	-145.851	-58.081	83.133	139.034	95.546	171.217	-168.526	135.527	-152.350	0.00042809	0.00024828	0.00013266	1361.8	6.4684e-06	5.7749e-06	1355.9	366.88	3.975e-06	6.5701e-06	419.77	139.44	121.72	42.223	1.917e-06	51.815	0.0004978	0.00050019	0.00014182	1377.8	5.5322e-06	5.4487e-06	1373.3	373.5	5.4288e-06	5.4669e-06	426.66	142.85	124.43	42.995	5.5483e-06	53.022	-113.884	-85.319	-96.065	-161.797	-40.835	16.510	-162.116	-157.153	-50.326	4.490	-157.540	-153.463	-152.967	-148.175	23.478	-149.128	-8191	255	
20510.229	1	1	0	0	0.11329	0.11451	0.26102	0.069172	0.27877	0.27271	0.35484	0.41327	0.093122	0.25704	0.25172	0.22409	0.19558	0.21922	0.40905	0.049106	-0.49792	-0.95625	-0.28333	-1.4979	-0.55	-0.35833	-1.4083	-0.40833	-0.8375	-1.1146	-0.37917	-0.91875	-0.99167	-0.35417	-1.2563	-0.47708	-171.277	120.269	24.755	-97.043	148.993	78.289	148.186	146.261	110.402	-43.246	93.210	138.049	171.079	165.251	-164.752	-20.931	0.00043567	0.00043904	0.00015491	1366.2	4.7711e-06	5.8562e-06	1358.4	368.12	4.9593e-06	3.6236e-06	421.16	139.52	122.12	41.916	3.4844e-07	51.694	0.00049559	0.00050837	0.000142	1379.2	5.4739e-06	5.4459e-06	1374	373.8	5.4869e-06	5.5167e-06	426.72	142.86	124.3	42.851	5.4375e-06	53.058	-109.106	-82.972	-103.285	-161.655	-22.209	-8.414	-161.826	-157.183	-31.697	41.592	-157.603	-153.327	-152.895	-148.273	156.035	-149.305	-8191	255	
20510.324	1	1	0	0	0.31201	0.14452	0.082811	0.17995	0.12926	0.076297	0.08577	0.32453	0.26544	0.11485	0.13055	0.17811	0.17527	0.14862	0.14307	0.051235	-0.24375	-1.0229	-0.2375	-1.3021	-0.83958	-0.50417	-1.5063	-0.58958	-0.7875	-1.1812	-0.31875	-0.98542	-0.82708	-0.2625	-1.2542	-0.59583	-50.153	-129.962	183.263	152.188	165.489	-44.688	-57.504	136.251	-80.226	-109.267	174.921	163.763	82.323	96.102	-130.759	58.256	0.0004228	0.00036188	0.00020591	1363.7	2.9448e-06	8.7204e-06	1357.8	368.23	6.9593e-06	3.3012e-06	421.42	140.41	121.51	42.149	3.2014e-06	51.903	0.00049427	0.00050273	0.00013953	1377	5.5309e-06	5.577e-06	1375.1	373.83	5.4888e-06	5.5095e-06	426.68	143.11	124.18	42.962	5.432e-06	52.995	-113.897	-49.590	-86.447	-161.822	-31.314	-43.049	-161.956	-157.410	-50.616	-25.117	-157.585	-153.440	-152.796	-148.101	-2.228	-148.807	-8191	255	
20510.420	1	1	0	0	0.30054	0.24033	0.29578	0.23766	0.10159	0.29216	0.31893	0.13274	0.071424	0.26355	0.21118	0.11156	0.23982	0.11951	0.24175	0.43758	-0.18125	-1.0875	-0.2875	-1.2167	-0.9625	-0.2125	-1.2792	-0.68125	-0.67083	-1.4021	-0.65208	-1.1521	-1.0896	-0.42917	-1.2125	-0.75625	-98.948	131.558	-3.769	120.922	45.907	-112.775	137.673	49.933	-46.311	-50.917	177.566	48.797	111.538	171.954	85.754	117.510	0.00045093	0.00035125	6.6662e-05	1363.9	4.1536e-06	5.66e-06	1359.5	368.64	4.5572e-06	6.4835e-06	419.85	140.15	121.65	41.955	5.8458e-06	51.801	0.00050481	0.00050249	0.00013783	1378.2	5.5496e-06	5.5415e-06	1374.4	373.76	5.5913e-06	5.4152e-06	426.12	142.9	124.19	42.962	5.4447e-06	53.051	-112.917	-139.075	-92.080	-161.684	-19.662	-20.638	-161.751	-157.172	-49.674	-19.532	-157.508	-153.148	-152.939	-148.019	-48.194	-149.034	-8191	255	
20510.516	1	1	0	0	0.20029	0.075199	0.14736	0.23304	0.14377	0.26322	0.27406	0.21877	0.12755	0.16386	0.043398	0.13865	0.26459	0.22629	0.043298	0.09604	-0.054167	-1.2708	-0.4125	-1.0896	-1.1833	-0.14375	-1.2125	-0.70417	-0.3625	-1.2771	-0.54167	-0.92917	-1.2708	-0.26875	-1.25	-0.78958	76.697	160.543	135.734	120.682	149.972	-12.435	138.754	108.281	-87.309	108.820	16.543	152.782	-165.917	-156.674	-164.052	-50.089	0.00046232	0.0006335	0.00013035	1361.8	7.9239e-06	2.5423e-06	1357.4	368.15	2.0523e-06	3.697e-06	419.75	139.32	121.16	41.953	3.4759e-06	51.693	0.00049701	0.00050085	0.00013869	1375.8	5.5146e-06	5.4525e-06	1375	373.89	5.5565e-06	5.3513e-06	426.14	142.81	123.97	42.876	5.4545e-06	52.957	-115.415	-77.179	-102.138	-162.176	-70.245	-41.486	-162.280	-157.744	-74.118	-24.942	-158.157	-153.918	-153.517	-148.581	-62.898	-149.342	-8191	255	
20510.611	1	1	0	0	0.022449	0.25243	0.26654	0.21998	0.22413	0.1069	0.021088	0.22691	0.039486	0.1705	0.18019	0.31296	0.11275	0.2904	0.10989	0.13629	-0.22083	-1.3813	-0.28958	-0.90625	-1.0958	-0.31458	-1.2979	-1.1854	-0.2375	-1.3375	-0.54792	-0.60208	-1.2958	-0.47083	-1.0917	-0.91667	84.111	96.414	60.085	-147.180	119.504	102.645	-48.428	153.100	19.973	14.744	-8.773	119.939	-47.170	130.969	140.585	-175.637	0.00047939	0.00039276	0.00020888	1360.3	7.1756e-06	6.7151e-06	1354	369.66	7.6052e-06	3.5908e-06	419.78	139.51	121.82	41.817	6.1552e-06	51.668	0.00050257	0.00049825	0.00014058	1375.8	5.4978e-06	5.5929e-06	1373.4	374.42	5.5644e-06	5.4762e-06	426.92	142.81	124.16	42.923	5.5185e-06	52.912	-115.691	-152.311	-128.025	-162.157	-65.327	-25.168	-162.557	-157.777	-49.001	68.201	-158.127	-153.748	-153.443	-148.814	-35.407	-149.839	-8191	255	
20510.732	1	1	0	0	0.087644	0.11262	0.033286	0.27987	0.15662	0.13112	0.38054	0.14069	0.34828	0.21493	0.083256	0.31314	0.084302	0.30234	0.20388	0.17837	0.085417	-1.1771	-0.61875	-0.68333	-1.2563	-0.32292	-1.0604	-1.1208	-0.25417	-1.1833	-0.75833	-0.75	-1.3062	-0.45625	-0.85625	-1.0292	-86.813	-92.416	-175.052	151.564	-82.831	161.352	98.518	38.456	90.137	19.624	74.909	-168.068	-145.953	-152.179	120.530	143.472	0.00046066	0.00072107	7.1656e-05	1364.1	3.8663e-06	3.303e-06	1358	366.86	8.2676e-06	8.2129e-06	419.36	140.18	121.98	42.035	6.5894e-06	51.934	0.00051075	0.00050235	0.00014203	1377.7	5.5282e-06	5.5126e-06	1375.5	373.88	5.6364e-06	5.5539e-06	426.91	143.16	124.39	42.953	5.5351e-06	53.075	-115.995	-62.994	-142.215	-162.117	-101.358	12.359	-162.247	-157.716	0.978	-9.863	-158.309	-153.864	-153.420	-148.936	-65.801	-149.657	-8191	255	
20510.828	1	1	0	0	0.10278	0.05888	0.13808	0.2199	0.10553	0.043641	0.098034	0.21811	0.18811	0.12051	0.20175	0.31014	0.056073	0.063727	0.098431	0.15909	0.2	-0.99375	-0.73958	-0.66667	-1.2958	-0.40417	-0.89167	-1.4333	-0.30625	-1.2729	-0.85208	-0.4875	-1.1688	-0.54375	-0.75	-1.2229	33.047	-75.923	132.317	124.544	-47.962	136.749	140.732	153.072	52.580	142.061	172.169	-151.972	27.668	77.459	-8.983	148.668	0.00044872	0.00030879	0.00014989	1364.6	5.051e-06	6.2079e-06	1361.7	366.96	5.0729e-06	6.4611e-06	416.81	139.69	121.9	41.816	7.2668e-06	51.533	0.00050535	0.00050669	0.00014072	1376.5	5.5201e-06	5.5537e-06	1374.8	373.62	5.532e-06	5.3943e-06	425.9	142.69	124.35	42.873	5.5504e-06	52.94	-117.592	-83.514	-115.041	-162.171	-24.922	-58.081	-162.440	-157.770	-64.122	13.072	-158.281	-153.748	-153.244	-148.816	-15.613	-149.453	-8191	255	
20510.924	1	1	0	0	0.1151	0.25273	0.17445	0.29305	0.059318	0.11733	0.13556	0.33091	0.036661	0.08433	0.26375	0.2427	0.2168	0.22962	0.15287	0.32115	0.18125	-0.8875	-0.69583	-0.50833	-1.3208	-0.50625	-0.77292	-1.3708	0.03125	-0.81042	-0.98125	-0.35417	-1.4688	-0.35833	-0.31458	-1.2229	-24.680	89.144	133.945	151.699	-6.749	105.389	-126.784	-166.752	-16.756	-137.240	105.109	135.244	-163.269	-128.424	157.025	-102.714	0.00042692	0.00045274	0.00012053	1362.9	5.367e-06	8.1935e-06	1361.7	366.35	3.7374e-06	4.438e-06	420.78	139.83	121.86	41.954	3.0899e-06	51.941	0.00050007	0.0004993	0.00013937	1376.9	5.4324e-06	5.4473e-06	1375.6	373.21	5.5018e-06	5.4281e-06	426.69	142.86	124.32	42.909	5.5514e-06	53.079	-116.858	-52.559	-90.036	-162.279	-1.791	-37.624	-162.219	-157.544	-62.689	-33.536	-158.154	-153.959	-153.084	-148.659	-71.121	-149.554	-8191	255	
20510.996	1	1	0	0	0.22175	0.38659	0.086553	0.16478	0.17983	0.18907	0.21279	0.14601	0.21339	0.28024	0.090498	0.16851	0.17427	0.066689	0.20136	0.23813	0.11458	-1.0854	-0.93958	-0.58958	-0.99167	-0.65	-0.82083	-1.3771	-0.2625	-0.75208	-1.1792	-0.27292	-1.1333	-0.75417	-0.45417	-1.2917	-110.651	96.630	97.741	107.127	163.830	-155.116	131.051	163.110	-24.607	155.712	-112.996	36.235	-113.488	-96.329	-129.528	91.969	0.00043074	0.00044598	9.0345e-05	1359.2	3.7399e-06	5.133e-06	1360	368.64	5.5241e-06	5.4973e-06	419.88	139.7	121.39	41.833	3.5812e-06	51.944	0.00049981	0.00049338	0.00013946	1374.1	5.4188e-06	5.4545e-06	1373.8	374.18	5.3816e-06	5.4608e-06	426.89	142.75	124.22	42.896	5.4997e-06	53.098	-117.646	-84.700	-97.310	-162.112	-23.212	14.367	-162.253	-157.536	-44.880	1.360	-158.384	-153.809	-153.140	-148.743	-60.245	-149.114	-8191	255	
20511.094	1	1	0	0	0.13993	0.31869	0.24501	0.23971	0.086463	0.079161	0.17415	0.43582	0.15002	0.11808	0.14036	0.28428	0.41458	0.2146	0.33066	0.12793	0.125	-0.63333	-1.0208	-0.35417	-1.1896	-0.76458	-0.58542	-1.3188	-0.49375	-1.0292	-1.2354	-0.28125	-1.1667	-0.97917	-0.44583	-1.3188	-128.993	73.081	77.173	141.390	-146.882	-143.805	-114.916	123.264	-64.714	128.759	47.515	133.949	-139.524	139.861	-130.533	-72.201	0.00045609	0.0003879	0.00020112	1363.8	6.137e-06	3.3735e-06	1359.6	367.79	5.1133e-06	5.9009e-06	419.01	139.73	121.96	41.886	7.1893e-07	51.912	0.00049553	0.00048659	0.00013815	1375	5.4102e-06	5.4174e-06	1374.3	373.7	5.452e-06	5.3506e-06	426.8	142.89	124.33	42.928	5.4517e-06	53.078	-113.625	-83.867	-73.884	-162.107	-13.537	-39.877	-162.261	-157.458	-48.260	-11.687	-158.109	-153.735	-152.969	-148.909	-9.781	-149.138	-8191	255	
20511.213	1	1	0	0	0.089225	0.08281	0.22513	0.288	0.16427	0.12166	0.13459	0.03984	0.049636	0.16897	0.087497	0.19548	0.08928	0.086203	0.21298	0.12879	-0.089583	-0.61042	-1.1646	-0.27292	-0.94792	-0.93542	-0.81458	-1.3375	-0.70208	-0.58958	-1.4229	-0.43542	-1.0917	-0.9375	-0.27083	-1.1625	-97.848	152.888	-147.315	167.371	21.155	16.687	-93.153	78.454	-80.185	128.624	37.543	96.623	133.277	71.351	-59.180	40.773	0.00045486	0.00025999	0.00011754	1362.7	4.2759e-06	7.09e-07	1357.4	368.04	5.9691e-06	4.9184e-06	421.42	139.9	121.82	41.859	4.0201e-06	51.691	0.00049033	0.00049968	0.00013825	1374.8	5.442e-06	5.4829e-06	1374.2	374.29	5.4918e-06	5.4995e-06	427.02	142.8	124.24	42.88	5.4707e-06	52.96	-116.895	-119.451	-101.852	-162.144	-49.039	-8.532	-162.171	-157.725	-48.630	-65.962	-158.074	-153.696	-153.037	-148.701	-31.137	-149.530	-8191	255	
20511.309	1	1	0	0	0.10447	0.27352	0.1934	0.077339	0.12264	0.15254	0.22007	0.11186	0.18271	0.14499	0.26137	0.23799	0.11939	0.08893	0.12812	0.16038	-0.18125	-0.53333	-1.2083	-0.49583	-0.91875	-0.97292	-0.40208	-1.2104	-0.51667	-0.52083	-1.375	-0.46667	-0.89792	-0.95	-0.21458	-1.1187	-96.357	-94.004	20.951	122.235	-156.925	146.412	140.842	-39.636	-67.152	113.908	142.060	170.086	-63.207	-140.938	-54.477	133.203	0.00041161	0.00064458	0.00011997	1362.2	4.4757e-06	3.9263e-06	1357.3	367.79	5.9405e-06	8.2984e-07	419.09	139.38	122.24	41.797	4.6548e-06	51.605	0.0004972	0.00049781	0.00013933	1375.4	5.4341e-06	5.4164e-06	1373.3	373.74	5.4619e-06	5.4557e-06	426.15	142.66	124.42	42.863	5.4133e-06	53.02	-110.184	-57.753	-148.579	-162.058	3.918	-32.093	-162.156	-157.477	-26.399	16.093	-158.209	-153.875	-153.192	-148.620	-33.047	-149.212	-8191	255	
20511.404	1	1	0	0	0.31886	0.36782	0.022665	0.20065	0.11749	0.093436	0.28933	0.29218	0.28074	0.14184	0.15712	0.25561	0.11639	0.21259	0.098069	0.18563	-0.38125	-0.30625	-1.2229	-0.77917	-0.52292	-1.2	-0.45833	-1.1688	-0.69375	-0.39583	-1.2146	-0.6	-0.84792	-1.2208	-0.2625	-1.1187	-138.996	-21.951	21.950	92.225	95.360	-113.018	118.130	135.507	0.989	182.774	-144.959	-113.814	-102.109	137.666	70.207	165.578	0.00045283	0.00030114	7.1956e-05	1361.4	4.6828e-06	7.0351e-06	1356.6	369.13	6.0086e-06	5.4406e-06	419.77	139.29	121.77	41.954	6.4207e-06	51.988	0.00050043	0.0004948	0.00013534	1376.3	5.501e-06	5.4313e-06	1372.6	374.33	5.5232e-06	5.3977e-06	426.15	142.69	124.15	42.877	5.4172e-06	53.137	-115.806	-77.749	-4.908	-161.999	-37.176	-35.976	-162.187	-157.455	-25.689	2.939	-158.234	-153.617	-153.152	-148.651	-67.694	-149.233	-8191	255	
20511.525	1	1	0	0	0.093142	0.30777	0.2598	0.16937	0.12672	0.066723	0.15587	0.16677	0.46489	0.16134	0.059149	0.21032	0.14086	0.16187	0.3012	0.23643	-0.43542	-0.17917	-1.075	-0.81667	-0.46458	-1.2083	-0.66458	-0.9125	-0.93542	-0.175	-1.2542	-0.57083	-0.64792	-1.3646	-0.26042	-0.80625	-59.538	-12.802	-113.292	178.003	164.257	61.002	72.750	9.667	-151.610	84.588	51.501	154.417	-83.415	-164.788	57.390	-62.896	0.00042055	0.00068874	0.00015411	1362.7	7.7803e-06	6.2402e-06	1357.3	369.46	5.4669e-06	1.0765e-06	422.38	139.57	121.37	41.922	5.5129e-06	51.637	0.00049852	0.00049332	0.0001379	1374.9	5.5508e-06	5.3597e-06	1373.8	374.83	5.5206e-06	5.4492e-06	427.78	142.85	124.04	42.908	5.4627e-06	52.964	-112.056	-61.037	-61.642	-162.134	-42.207	-60.502	-162.084	-157.392	5.260	-39.563	-157.741	-153.670	-153.023	-148.557	-36.868	-149.291	-8191	255	
20511.598	1	1	0	0	0.13749	0.14045	0.086827	0.10571	0.12785	0.21374	0.30802	0.12333	0.18212	0.13679	0.23865	0.11675	0.22327	0.30168	0.26831	0.31405	-0.74792	-0.19167	-1.1063	-0.85208	-0.33958	-1.2708	-0.68542	-0.90625	-1.2	-0.1875	-1.0479	-0.86458	-0.56875	-1.3167	-0.4	-0.78958	19.012	70.790	101.084	156.568	129.605	13.203	134.782	86.989	168.484	37.326	150.668	-96.512	-172.766	143.330	108.358	126.127	0.00047718	0.00041362	0.00021257	1357.9	5.8326e-06	2.6407e-06	1358.3	367.34	2.8423e-06	6.2104e-06	420.32	139.49	121.8	42.129	4.75e-06	51.987	0.00050353	0.00049789	0.00013655	1374	5.4427e-06	5.3645e-06	1373.3	373.63	5.4834e-06	5.4114e-06	426.5	142.78	124.25	42.915	5.411e-06	53.057	-119.146	-70.522	-116.432	-161.871	-20.462	83.899	-161.981	-157.552	-60.997	-12.572	-157.931	-153.692	-153.027	-148.636	-23.813	-149.045	-8191	255	
20511.693	1	1	0	0	0.11477	0.1402	0.22871	0.35265	0.058646	0.1019	0.26462	0.17866	0.27037	0.13457	0.17359	0.16573	0.15488	0.21777	0.18984	0.051706	-0.67708	-0.08125	-0.8875	-1.0896	-0.23125	-1.2521	-0.92083	-0.875	-1.1313	-0.34375	-1.1021	-1.0854	-0.63125	-1.4208	-0.7375	-0.62708	80.546	-114.415	155.844	148.787	-121.150	173.842	110.795	-142.911	162.426	145.464	176.333	6.105	171.925	32.234	-62.282	2.731	0.00041465	0.00015138	0.00013734	1363.3	3.9789e-06	4.9162e-06	1354	366.63	4.1489e-06	6.5111e-06	420.97	139.45	121.5	42.169	3.3982e-06	51.804	0.00048735	0.00049215	0.000137	1374.5	5.4166e-06	5.2537e-06	1370.8	373.74	5.38e-06	5.3667e-06	426.03	142.46	124.09	42.97	5.401e-06	53.06	-114.347	-17.201	-86.567	-161.841	-32.290	-40.707	-162.039	-157.322	-38.960	-88.541	-157.687	-153.665	-153.096	-148.354	-58.019	-148.735	-8191	255	
20511.812	1	1	0	0	0.045561	0.23424	0.050517	0.24806	0.25482	0.1621	0.2508	0.090186	0.089056	0.086025	0.17748	0.421	0.26167	0.049731	0.34826	0.17816	-0.80417	-0.29792	-0.87917	-1.1292	-0.40208	-1.2	-0.71042	-0.7	-1.1625	-0.37917	-0.875	-1.2021	-0.38125	-1.3146	-0.6125	-0.62917	1.421	88.887	-126.434	165.939	3.976	149.501	121.832	152.891	166.200	-7.262	-35.269	155.258	-148.522	127.150	99.995	80.872	0.0004157	0.00050725	0.00010061	1359.9	4.2111e-06	5.3367e-06	1349.9	368.37	4.3997e-06	6.0053e-06	419.02	140	121.5	41.944	7.6854e-06	51.7	0.00048663	0.00049036	0.000135	1373.4	5.3758e-06	5.316e-06	1368.9	374.14	5.3315e-06	5.3656e-06	426.64	142.89	123.99	42.809	5.4e-06	53.01	-121.053	-65.613	-63.155	-161.833	-78.138	0.763	-162.347	-157.405	-24.194	-24.429	-157.814	-153.629	-153.005	-148.595	-4.013	-149.227	-8191	255	
20511.910	1	1	0	0	0.30231	0.055855	0.24589	0.11078	0.182	0.38085	0.2579	0.40903	0.26195	0.1193	0.15165	0.18636	0.13988	0.20244	0.064796	0.16665	-0.70208	-0.35208	-0.66042	-1.275	-0.22917	-1.1729	-1.0229	-0.55	-1.3708	-0.31667	-0.77917	-1.3396	-0.49583	-1.2708	-0.7125	-0.63125	-35.758	90.556	-96.243	-82.157	-158.016	2.264	109.541	140.771	-138.311	-35.232	-158.224	55.413	-134.376	-94.444	-52.164	108.693	0.00043117	0.0007627	0.00011408	1356.8	4.8622e-06	5.6132e-06	1354	366.22	5.4767e-06	3.4388e-06	418.55	139.17	121.06	41.986	4.1315e-06	51.685	0.00048333	0.00049191	0.00013577	1371.7	5.3027e-06	5.3546e-06	1370.7	373.38	5.3246e-06	5.3397e-06	425.94	142.65	123.83	42.899	5.3625e-06	52.981	-118.897	-98.116	-117.039	-162.121	-49.885	-7.685	-162.146	-157.359	-42.550	-71.796	-157.936	-153.581	-152.865	-148.432	-32.664	-149.006	-8191	255	
20512.006	1	1	0	0	0.020927	0.21625	0.29434	0.062146	0.42057	0.1204	0.11727	0.14955	0.21883	0.27285	0.29339	0.021106	0.11456	0.25007	0.25423	0.36996	-0.78958	-0.37083	-0.69792	-1.3021	-0.22917	-0.90417	-1.2646	-0.64375	-1.3312	-0.54792	-0.6875	-1.3438	-0.46458	-1.0729	-0.96042	-0.28125	101.087	174.192	-23.466	159.590	-149.099	-167.950	84.699	-153.698	29.490	153.196	180.474	-41.790	-119.487	-10.439	-94.607	-171.062	0.00041131	0.00052865	0.00011962	1356.9	3.319e-06	6.7006e-06	1357.7	367.87	4.4994e-06	3.0409e-06	420.71	140.09	122.28	42.121	5.5496e-06	51.766	0.00048247	0.0004891	0.00013836	1372.2	5.3826e-06	5.3302e-06	1370.9	373.5	5.2679e-06	5.3834e-06	425.99	142.63	124.09	42.89	5.3643e-06	52.958	-109.231	-108.143	-70.114	-162.077	4.374	-56.779	-162.213	-157.334	-52.663	-57.059	-157.953	-153.664	-153.141	-148.453	-15.427	-149.035	-8191	255	
20512.125	1	1	0	0	0.040735	0.18527	0.19567	0.13114	0.12225	0.08044	0.10806	0.30361	0.16572	0.2552	0.17276	0.28827	0.27959	0.17484	0.061941	0.14745	-0.82083	-0.74792	-0.65417	-1.5688	-0.23333	-0.76042	-1.2625	-0.525	-1.1625	-0.65	-0.47083	-1.2396	-0.61458	-1.0729	-1.2042	-0.45417	135.512	151.684	148.378	145.899	-45.383	-165.028	17.505	131.632	92.801	100.532	119.553	-172.292	90.073	-168.790	23.021	100.261	0.00044269	0.00023402	0.0001808	1354.8	6.5815e-06	5.5325e-06	1356.2	368.02	4.1834e-06	5.8594e-06	419.2	140.41	121.66	42.079	2.9492e-06	52.001	0.0004856	0.00049071	0.0001371	1372.2	5.2918e-06	5.3592e-06	1370.3	373.07	5.3148e-06	5.2832e-06	425.79	142.69	124.05	42.873	5.3377e-06	53.031	-115.238	-64.959	-91.315	-161.850	-20.673	-36.788	-162.063	-157.316	-24.359	-26.827	-158.032	-153.493	-152.946	-148.527	-14.129	-149.284	-8191	255	
20512.221	1	1	0	0	0.14166	0.19769	0.18762	0.21399	0.083295	0.19375	0.19908	0.12696	0.047005	0.12317	0.27402	0.29705	0.19107	0.15547	0.17371	0.20713	-0.68542	-0.78125	-0.48958	-1.4	-0.49167	-0.7375	-1.3188	-0.38958	-1.35	-0.92292	-0.4375	-1.375	-0.56042	-0.67083	-1.1896	-0.52292	-163.157	-154.502	143.622	170.366	-123.796	-165.168	74.334	172.103	-4.468	153.850	-136.848	-161.158	128.354	-117.644	117.738	-159.581	0.00042496	0.00040439	0.00012566	1354	6.4267e-06	5.8989e-06	1355.9	367.43	5.3246e-06	4.7852e-06	418.57	139.57	121.65	42.054	2.3135e-06	51.654	0.00048228	0.00048448	0.00013519	1370.8	5.3541e-06	5.3982e-06	1370.7	373.39	5.333e-06	5.2956e-06	425.44	142.55	124.08	42.9	5.3045e-06	52.951	-114.816	-54.089	-116.942	-161.843	-2.351	-26.291	-161.927	-157.440	8.169	-44.565	-157.829	-154.080	-153.066	-148.423	-79.547	-149.368	-8191	255	
20512.293	1	1	0	0	0.15815	0.21231	0.10741	0.13021	0.25736	0.25594	0.49519	0.35425	0.15654	0.10621	0.16298	0.2806	0.24271	0.32954	0.088561	0.097641	-0.72917	-1.0708	-0.42083	-1.5	-0.34583	-0.58542	-1.2979	-0.37917	-0.92083	-1.1271	-0.47917	-1.2896	-0.76042	-0.70417	-1.1604	-0.47917	149.184	-170.962	63.768	-124.499	77.298	-96.227	184.342	138.972	-93.612	137.025	120.533	-93.180	180.307	137.606	-39.435	168.153	0.00045506	0.00040002	0.00014997	1356.4	2.0174e-06	5.8482e-06	1358.2	367.76	2.8155e-06	2.9457e-06	419.35	139.69	121.49	41.811	5.2081e-06	51.765	0.00048442	0.00048748	0.00013446	1371.8	5.4087e-06	5.3016e-06	1371.4	373.03	5.3419e-06	5.3461e-06	425.76	142.54	123.96	42.83	5.251e-06	52.879	-114.869	-69.388	-65.652	-161.906	-66.359	8.622	-162.088	-157.355	-113.956	-10.888	-157.752	-153.384	-152.945	-148.414	-31.476	-149.036	-8191	255	
20512.412	1	1	0	0	0.056384	0.32895	0.19238	0.37899	0.24517	0.065509	0.26871	0.21982	0.18187	0.20074	0.34316	0.39879	0.15379	0.13164	0.057941	0.10392	-0.475	-1.0583	-0.39167	-1.2188	-0.6875	-0.50417	-1.3979	-0.64375	-0.71875	-1.1104	-0.43958	-1.3854	-0.75625	-0.46458	-1.2875	-0.31042	-154.725	88.587	-86.128	121.471	145.504	-100.977	146.834	100.978	-107.357	-27.356	-107.917	-121.369	140.607	171.187	0.668	-121.632	0.00042369	0.00068283	0.00018805	1363.3	4.8176e-06	6.7357e-06	1356	368.02	2.8425e-06	4.9852e-06	419.48	139.45	121	41.995	4.5696e-06	51.801	0.0004774	0.00047965	0.00013185	1373	5.2552e-06	5.2213e-06	1370.6	372.92	5.2361e-06	5.3074e-06	425.13	142.42	123.59	42.849	5.1766e-06	52.959	-117.713	-108.911	-67.532	-161.894	21.494	-54.966	-162.006	-157.455	-32.435	-3.541	-157.798	-154.032	-152.952	-148.534	-71.555	-149.060	-8191	255	
20512.510	1	1	0	0	0.24787	0.056069	0.12373	0.27856	0.1251	0.075837	0.22951	0.29139	0.07477	0.15046	0.12134	0.16452	0.065782	0.34166	0.23684	0.22502	-0.1125	-1.05	-0.31042	-1.3021	-0.78125	-0.3875	-1.4396	-0.525	-0.56042	-1.2563	-0.28125	-0.97292	-1.0854	-0.45208	-1.3125	-0.62917	143.596	35.934	183.611	180.207	142.914	58.928	130.683	151.769	165.716	41.096	136.914	-169.519	30.817	164.722	-125.807	86.368	0.00041608	0.00045761	0.00011673	1354.1	5.2956e-06	2.8882e-06	1355	367.53	5.3877e-06	2.8103e-06	419.27	140.09	121.76	41.982	3.9311e-06	51.807	0.00048251	0.00047359	0.00013326	1372.1	5.2387e-06	5.1846e-06	1370.2	373.75	5.2118e-06	5.1926e-06	425.59	142.55	123.84	42.851	5.2673e-06	52.942	-115.061	-119.164	-113.875	-161.985	-4.340	31.686	-162.104	-157.567	-33.504	-49.209	-157.726	-153.736	-153.147	-148.444	0.646	-149.202	-8191	255	
20512.605	1	1	0	0	0.17168	0.28306	0.30339	0.27621	0.065067	0.52182	0.11017	0.20829	0.28704	0.13783	0.14223	0.16131	0.11213	0.11007	0.1031	0.058563	-0.21042	-1.1313	-0.3375	-1.1938	-0.86042	-0.42917	-1.3521	-0.76042	-0.51875	-1.375	-0.67292	-1.0083	-1.0396	-0.3625	-1.0625	-0.74583	-2.938	-10.401	33.996	135.110	162.361	150.739	-96.960	98.245	161.946	99.580	170.370	123.027	165.213	123.731	135.064	-44.626	0.00043377	0.00042633	0.00017549	1361	3.2647e-06	3.8029e-06	1357.1	367.54	4.0316e-06	6.1434e-06	420.81	140.11	120.83	41.832	5.1368e-06	51.782	0.00047205	0.00047655	0.0001338	1372.1	5.2507e-06	5.2209e-06	1374.5	373.28	5.2962e-06	5.1985e-06	425.78	142.6	123.79	42.815	5.2978e-06	52.943	-119.064	-77.836	-93.955	-161.809	-42.130	-21.849	-161.890	-157.544	-20.239	-44.477	-157.803	-153.682	-152.883	-148.601	53.609	-149.136	-8191	255	
20512.701	1	1	0	0	0.21647	0.23424	0.25435	0.447	0.17436	0.23477	0.13357	0.27411	0.090659	0.14695	0.14435	0.11874	0.30934	0.20489	0.083034	0.11625	0.0125	-0.93542	-0.48542	-0.8375	-0.875	-0.24792	-1.4604	-1.0229	-0.54583	-1.2521	-0.60208	-0.94792	-1.2958	-0.44583	-1.2604	-0.71458	-51.157	-55.485	-121.521	168.935	-118.566	-131.871	170.657	104.734	-24.516	-94.453	163.201	-137.397	147.292	184.032	-113.233	-136.896	0.00044939	0.00028485	7.4294e-05	1357.3	5.9964e-06	1.2136e-06	1353.7	368.04	5.4237e-06	4.8729e-06	419.65	139.57	121.21	41.907	3.7456e-06	51.702	0.00048134	0.00048364	0.00013585	1371.4	5.2313e-06	5.3563e-06	1369.2	373.53	5.2466e-06	5.2964e-06	425.58	142.52	123.83	42.83	5.3727e-06	52.983	-120.129	-91.287	-18.886	-161.993	-10.493	23.198	-162.185	-157.484	-35.602	-0.515	-157.802	-153.388	-153.129	-148.264	-52.823	-149.150	-8191	255	
20512.799	1	1	0	0	0.13517	0.083376	0.22259	0.1195	0.055547	0.23704	0.25357	0.21923	0.14258	0.2396	0.29115	0.15703	0.41102	0.24317	0.20456	0.27329	0.014583	-0.99583	-0.43333	-0.9375	-1.0729	-0.32292	-1.2458	-1.1167	-0.2625	-1.3167	-0.52917	-0.76667	-1.2333	-0.48958	-1.0063	-0.91042	109.864	30.075	-75.846	106.040	-59.274	105.161	-135.318	133.152	-132.885	77.475	156.861	-107.318	129.086	162.265	34.156	18.655	0.00042384	0.00042358	2.4474e-05	1361.5	3.0069e-06	5.7972e-06	1357.4	367.11	7.249e-06	6.8388e-06	420.59	139.51	121.36	41.799	5.2856e-06	51.732	0.00049029	0.00048988	0.00013504	1373.3	5.3442e-06	5.4015e-06	1371.4	373.04	5.3426e-06	5.3307e-06	426.26	142.45	123.8	42.829	5.399e-06	52.996	-112.022	-90.165	-62.276	-161.829	-58.071	-33.840	-162.069	-157.440	-24.137	-9.993	-157.828	-153.839	-153.049	-148.774	31.920	-149.353	-8191	255	
20512.895	1	1	0	0	0.074337	0.23823	0.22969	0.42878	0.23205	0.055115	0.018245	0.20918	0.085457	0.14268	0.10529	0.058197	0.22182	0.072436	0.30279	0.083992	0.064583	-1.2188	-0.54792	-0.65833	-1.3229	-0.39583	-0.94167	-1.2396	-0.25417	-1.2625	-0.59375	-0.6	-1.3188	-0.375	-0.92708	-1.3667	-101.245	-116.499	-1.376	167.140	-145.356	-25.102	59.095	154.143	-72.977	48.274	-146.827	-76.602	145.018	-122.240	-31.566	97.838	0.00045337	0.00021398	0.00013699	1356.9	6.014e-06	5.6171e-06	1356.9	367.14	2.4538e-06	4.0452e-06	419.84	139.81	120.72	41.846	3.0502e-06	52.001	0.00048554	0.0004888	0.00013594	1371.4	5.3512e-06	5.4013e-06	1372.2	373.48	5.3657e-06	5.3073e-06	425.14	142.69	123.61	42.858	5.4101e-06	53.011	-113.489	-105.386	-90.966	-161.969	-47.497	-65.736	-161.778	-157.453	-47.122	-72.278	-158.082	-153.737	-153.269	-148.593	-26.870	-149.316	-8191	255	
20512.990	1	1	0	0	0.33024	0.1436	0.12232	0.15968	0.11832	0.14441	0.34876	0.36039	0.18812	0.18137	0.27938	0.30829	0.29842	0.14938	0.079163	0.23273	0.10833	-1.0479	-0.7625	-0.57083	-1.0562	-0.41667	-1.0229	-1.2625	-0.20625	-1.1646	-0.87292	-0.36042	-1.4271	-0.40625	-0.83125	-1.175	154.872	-104.265	113.563	-164.025	121.853	102.944	113.274	180.364	41.073	47.836	121.815	98.180	145.162	-128.658	135.562	12.625	0.00045911	0.00074076	0.00013985	1360.1	6.1983e-06	6.9407e-06	1356.8	368.39	3.8216e-06	5.2388e-06	418.51	138.83	122.22	42.015	5.4437e-06	51.886	0.00048566	0.00049451	0.00013672	1372.6	5.3435e-06	5.4357e-06	1372.8	373.75	5.361e-06	5.3258e-06	425.79	142.41	124.08	42.915	5.3544e-06	52.983	-118.689	-78.686	-127.309	-161.852	-50.865	-32.033	-161.951	-157.592	11.428	-32.179	-158.141	-153.768	-153.057	-148.729	-48.737	-149.360	-8191	255	
20513.086	1	1	0	0	0.18895	0.1257	0.19218	0.14985	0.37854	0.1783	0.30082	0.17519	0.052639	0.33517	0.22884	0.26436	0.24957	0.20409	0.27226	0.23217	0.077083	-1.0812	-0.9125	-0.50625	-1.1521	-0.70417	-0.69583	-1.3417	-0.40417	-1.0104	-0.89375	-0.40208	-1.1896	-0.38125	-0.40417	-1.3312	121.479	137.621	34.196	169.827	-171.599	96.023	111.189	-156.232	-132.164	91.042	141.034	162.550	-143.601	138.133	-58.936	-148.001	0.00044068	0.00030551	0.00013871	1359.1	7.1839e-06	7.8744e-06	1355	367.99	7.9976e-06	5.5404e-06	418.86	139.88	121.77	41.742	3.1111e-06	51.926	0.00049126	0.00048924	0.00013569	1373.1	5.4276e-06	5.4218e-06	1371.7	373.39	5.3532e-06	5.3778e-06	425.79	142.53	124.13	42.79	5.3121e-06	52.976	-114.416	-43.213	-100.382	-161.996	-61.219	-18.217	-162.062	-157.555	-13.791	-64.597	-158.050	-153.714	-153.148	-148.597	-35.278	-149.230	-8191	255	
20513.205	1	1	0	0	0.3084	0.30053	0.32615	0.1745	0.24884	0.31936	0.24453	0.15627	0.28849	0.026321	0.15353	0.13225	0.050369	0.13898	0.19891	0.25363	0.09375	-0.80208	-0.92708	-0.5	-1.1187	-0.63125	-0.49167	-1.4625	-0.37083	-0.81042	-1.3937	-0.40417	-1.1021	-0.77083	-0.42917	-1.3875	151.930	149.346	70.397	87.398	-152.101	89.409	115.893	109.425	-122.516	-51.600	108.688	128.226	-156.019	152.905	-39.330	-167.909	0.00044318	0.00051189	0.00021547	1359.5	6.4826e-06	7.4361e-06	1356.4	368.73	4.3218e-06	1.7206e-06	420.28	139.09	120.94	41.769	7.355e-06	51.63	0.00049494	0.00048839	0.00013521	1371.9	5.3768e-06	5.3839e-06	1371.1	373.52	5.3807e-06	5.3392e-06	425.25	142.28	123.75	42.764	5.4051e-06	52.994	-116.039	-112.194	-104.062	-162.004	-58.359	-31.672	-162.009	-157.373	-34.201	-101.547	-157.940	-153.652	-152.883	-148.507	-41.055	-149.049	-8191	255	
20513.301	1	1	0	0	0.21976	0.081496	0.37521	0.23564	0.18894	0.03699	0.16196	0.25155	0.31623	0.090524	0.12546	0.32063	0.12489	0.31649	0.29635	0.039343	-0.047917	-0.73542	-1.15	-0.62292	-1.2062	-0.83542	-0.53542	-1.1583	-0.375	-0.61875	-1.325	-0.42917	-1.2333	-0.84375	-0.425	-1.3458	11.891	78.477	-90.255	141.726	21.765	43.005	39.966	158.923	99.890	29.062	-164.334	170.289	34.712	-165.173	79.811	76.648	0.00043016	0.00060638	0.00020949	1362.4	2.5203e-06	3.4864e-06	1358.4	367.73	5.6424e-06	3.5434e-06	418.35	139.68	121.62	41.769	7.4072e-06	51.418	0.00049738	0.00049139	0.00013621	1372.6	5.4606e-06	5.4337e-06	1371.2	373.23	5.4663e-06	5.3708e-06	425.38	142.35	124	42.769	5.3604e-06	52.915	-105.017	-87.783	-51.792	-161.974	111.571	-40.610	-162.008	-157.353	-36.479	-7.291	-157.929	-153.727	-152.761	-148.472	-23.643	-149.014	-8191	255	
20513.396	1	1	0	0	0.16271	0.095775	0.23747	0.10098	0.22961	0.14155	0.086442	0.12682	0.42005	0.18484	0.1511	0.109	0.23314	0.3168	0.25945	0.22802	-0.15417	-0.85833	-0.98542	-0.51667	-0.98542	-0.81042	-0.40833	-1.3354	-0.375	-0.57917	-1.4979	-0.36875	-0.97292	-0.975	-0.18333	-1.2812	28.420	-150.758	-125.267	-99.050	-3.868	-107.659	7.892	109.522	-29.144	-92.868	111.814	123.095	114.214	117.873	-75.658	-127.792	0.0004101	0.00048999	0.0001482	1358.3	3.7731e-06	5.2341e-06	1353.6	367.48	3.461e-06	4.9571e-06	420.81	139.3	121.48	41.892	5.1695e-06	51.795	0.0004975	0.0005001	0.00013581	1370.7	5.4633e-06	5.3949e-06	1370.3	373.35	5.4741e-06	5.457e-06	425.66	142.32	123.88	42.846	5.5044e-06	52.946	-113.996	-98.234	-141.953	-161.834	-24.804	-97.701	-162.009	-157.346	-22.636	16.996	-158.103	-153.577	-152.938	-148.582	-42.490	-149.257	-8191	255	
20513.492	1	1	0	0	0.26807	0.16393	0.19134	0.19622	0.30858	0.11597	0.032176	0.25819	0.27462	0.18576	0.10688	0.27944	0.19605	0.12731	0.14396	0.12825	-0.27083	-0.48333	-1.3458	-0.65208	-0.72083	-0.99583	-0.36667	-1.1479	-0.65833	-0.45833	-1.275	-0.54167	-0.92708	-1.2146	-0.38125	-1.0958	-133.612	183.805	-52.817	-112.729	-53.816	65.452	-157.554	139.130	129.609	39.007	38.681	125.226	-166.227	45.752	44.156	31.148	0.000438	0.00063815	4.8812e-05	1357.2	4.5761e-06	5.4961e-06	1354.6	367.44	6.064e-06	7.0211e-06	418.01	139.63	121.01	41.901	3.6315e-06	51.878	0.00050034	0.00050067	0.00013694	1372.4	5.3807e-06	5.3628e-06	1371	373.79	5.4888e-06	5.3678e-06	425.01	142.68	123.73	42.818	5.3258e-06	52.999	-113.672	-48.528	16.377	-161.911	-37.143	-20.996	-162.099	-157.329	-49.075	-7.980	-157.933	-153.608	-152.742	-148.423	-9.449	-149.034	-8191	255	
20513.590	1	1	0	0	0.16935	0.23209	0.18058	0.14241	0.23624	0.15164	0.2959	0.075436	0.066753	0.297	0.3605	0.13097	0.095692	0.048201	0.24549	0.1691	-0.48333	-0.19583	-1.1271	-0.56667	-0.72083	-1.1771	-0.5625	-1.0729	-0.71667	-0.35208	-1.3	-0.60208	-0.68958	-1.125	-0.18542	-1.0562	-12.293	-7.314	37.978	154.565	47.939	160.369	177.166	163.095	111.370	-78.423	156.677	162.107	-172.669	18.385	159.469	142.745	0.0004417	0.00047966	0.00015275	1360.6	3.4405e-06	7.7642e-06	1356.9	367.17	2.8427e-06	5.6113e-06	419.71	139.38	121.36	41.83	3.3841e-06	51.54	0.00048743	0.00049692	0.00013518	1372.4	5.355e-06	5.2906e-06	1371.2	373.19	5.36e-06	5.3694e-06	425.39	142.2	123.81	42.772	5.4356e-06	52.779	-112.210	-115.414	-97.936	-162.007	-1.946	-10.761	-162.286	-157.302	-1.350	-7.403	-157.681	-153.766	-152.716	-148.488	8.079	-149.337	-8191	255	
20513.686	1	1	0	0	0.22932	0.011242	0.082796	0.1704	0.34369	0.17254	0.23873	0.24582	0.25245	0.19615	0.10846	0.18556	0.25213	0.37928	0.092915	0.37038	-0.54792	-0.13958	-1.0187	-0.75208	-0.59167	-1.3479	-0.42292	-0.97083	-1.0729	-0.32083	-1.4167	-0.55	-0.4875	-1.1771	-0.325	-0.80417	-117.350	-26.445	-26.041	156.850	-19.898	-84.617	154.661	149.391	-4.699	-173.719	109.675	176.529	81.861	146.104	157.752	155.020	0.00044915	0.00075664	0.00018231	1360	2.7863e-06	3.8322e-06	1356.4	367.69	2.7306e-06	5.2516e-06	418.44	139.36	121.43	41.869	6.4648e-06	51.668	0.00049005	0.00049282	0.00013646	1373.3	5.4177e-06	5.3145e-06	1373	373.43	5.3861e-06	5.3713e-06	425.7	142.33	123.86	42.812	5.4906e-06	52.961	-115.204	-96.837	-96.210	-162.062	-42.945	-27.430	-161.934	-157.174	-46.619	-10.910	-157.926	-153.452	-152.884	-148.349	-23.505	-148.987	-8191	255	
20513.807	1	1	0	0	0.27315	0.31287	0.01579	0.18222	0.052462	0.17885	0.095349	0.46804	0.32692	0.11741	0.19658	0.16576	0.2053	0.23955	0.20963	0.14188	-0.66875	-0.15625	-1.0896	-0.75417	-0.49375	-1.3604	-0.5125	-0.82292	-1.0021	-0.25	-1.2042	-0.925	-0.55833	-1.2958	-0.43958	-0.52917	-136.744	-48.063	-149.182	105.868	-116.363	-108.361	-119.478	110.375	-24.852	-146.299	150.388	182.400	55.443	155.432	72.102	-62.760	0.00043276	0.000804	0.00016061	1360.4	5.5233e-06	8.0414e-06	1358.7	368.56	3.392e-06	3.9529e-06	421.12	139.72	121.52	41.817	5.8891e-06	51.646	0.00049685	0.00050001	0.00013879	1373.5	5.3965e-06	5.434e-06	1372.4	374.01	5.4313e-06	5.4604e-06	425.87	142.48	123.83	42.742	5.4847e-06	52.931	-117.082	-99.536	-72.559	-161.867	-48.169	-30.339	-162.103	-157.150	-77.665	11.979	-157.711	-153.605	-153.015	-148.400	-18.469	-148.932	-8191	255	
20513.902	1	1	0	0	0.10637	0.14245	0.12663	0.45606	0.19572	0.12867	0.096543	0.22423	0.34027	0.058515	0.069528	0.032686	0.28221	0.40225	0.04711	0.15271	-0.70625	-0.29792	-0.63125	-1.2521	-0.25625	-1.2729	-0.77083	-0.83958	-1.2521	-0.2875	-1.0688	-1.0063	-0.19583	-1.2771	-0.63958	-0.69583	-112.767	92.702	105.611	119.797	-37.470	-41.666	175.316	122.311	-147.283	141.280	-98.609	12.009	168.746	162.261	37.238	149.211	0.00038915	0.00052074	0.00011196	1357.3	2.6037e-06	7.7576e-06	1356.2	368.71	3.8017e-06	2.6866e-06	420.41	138.7	121.36	41.799	5.0769e-06	51.646	0.00048634	0.0004976	0.00013723	1372.7	5.3467e-06	5.43e-06	1369.8	373.62	5.3792e-06	5.4096e-06	425.72	142.24	123.9	42.805	5.3195e-06	52.981	-118.922	-92.549	-47.145	-161.873	-53.159	-34.112	-161.897	-157.290	-36.382	-31.886	-157.524	-153.583	-152.859	-148.326	40.598	-148.667	-8191	255	
20513.996	1	1	0	0	0.11008	0.11758	0.24654	0.32879	0.11813	0.051387	0.38919	0.22379	0.034242	0.21065	0.2814	0.18628	0.13642	0.08245	0.10545	0.074801	-0.87292	-0.3625	-0.94792	-1.0917	-0.2875	-1.0417	-0.92708	-0.60417	-1.2458	-0.44167	-1.0792	-1.1583	-0.29375	-1.1292	-0.675	-0.78125	181.423	173.704	139.758	168.234	122.700	-38.927	60.587	142.848	165.749	108.822	178.525	-110.102	-105.890	-64.379	-136.216	161.085	0.00043622	0.00033686	0.00018169	1356.1	1.4633e-06	6.8356e-06	1352.1	367.37	5.3673e-06	3.7503e-06	418.63	138.95	121.12	41.859	4.3358e-06	51.593	0.00049165	0.00049497	0.00013509	1373.2	5.4173e-06	5.3341e-06	1371.2	372.89	5.398e-06	5.3978e-06	425.33	142.18	123.67	42.802	5.3887e-06	52.863	-113.808	-40.448	-111.870	-161.691	-80.893	-29.445	-161.916	-157.172	-32.738	67.331	-157.772	-153.330	-152.831	-148.146	-52.318	-149.045	-8191	255	
20514.094	1	1	0	0	0.36577	0.21817	0.079232	0.35447	0.14815	0.066543	0.05444	0.045754	0.24784	0.19964	0.23407	0.061829	0.062136	0.07556	0.05991	0.053138	-0.9375	-0.28958	-0.68125	-1.4021	-0.17083	-1.1958	-0.9875	-0.38125	-1.0938	-0.48958	-0.65	-1.2354	-0.42083	-1.0208	-0.93125	-0.26042	-130.989	111.704	112.008	140.188	-132.344	-124.154	34.330	-56.802	-79.004	-137.456	-10.803	2.499	98.974	157.014	32.812	132.887	0.00048389	0.00065317	0.00014267	1355.6	3.3615e-06	3.9274e-06	1355.8	369.02	1.0783e-06	8.3768e-06	418.29	139.31	121.05	41.887	4.5219e-06	51.735	0.00048994	0.0004975	0.00013696	1372.4	5.4407e-06	5.395e-06	1370.4	373.66	5.3196e-06	5.381e-06	424.93	142.27	123.75	42.802	5.2944e-06	52.854	-118.333	-83.199	-118.055	-161.939	-22.135	-35.086	-162.159	-157.324	-70.743	-42.855	-157.765	-153.457	-152.877	-147.916	-50.753	-148.897	-8191	255	
20514.189	1	1	0	0	0.18127	0.24061	0.3939	0.38796	0.17375	0.19212	0.36268	0.33556	0.099519	0.081833	0.41864	0.25165	0.22005	0.15805	0.15385	0.26088	-0.96042	-0.5125	-0.61458	-1.4292	-0.44792	-1.2021	-1.0458	-0.5125	-1.3563	-0.49583	-0.74583	-1.2313	-0.51875	-1.1771	-1.075	-0.28333	-111.544	27.772	26.831	181.537	35.479	-137.357	95.358	-171.675	-76.721	84.535	149.238	174.317	150.676	6.704	-15.962	71.891	0.00045791	0.00059416	4.9133e-05	1362.7	5.7297e-06	5.9376e-06	1353	368.18	4.4082e-06	3.2262e-06	420.4	138.41	121.56	41.93	2.4678e-06	51.649	0.00049265	0.00049106	0.00013354	1373.9	5.428e-06	5.3055e-06	1370.9	373.36	5.2932e-06	5.3079e-06	425.74	142.05	123.87	42.8	5.2353e-06	52.828	-113.728	-93.599	-74.230	-161.952	-41.799	-8.331	-161.843	-157.249	-40.835	-44.871	-157.778	-153.453	-152.812	-148.233	-63.940	-149.025	-8191	255	
#DATA ENDS
