BOXY.EXE: ISS Imagent and Oximeter Data Acquisition Program Version 0.80
Ascii Record File

#ACQ INFORMATION
2  Detector Channels 
16  External MUX Channels 
1  Auxiliary Channels 
5000  Waveform (CCF) Frequency (Hz)
1  Waveforms Skipped 
30  Waveforms Averaged 
1  Cycles Averaged 
16  Acquisitions per Waveform 
10.0806  Updata Rate (Hz) 

#FILE INFORMATION
TRUE -- External MUX Channel results are PARSED.
FALSE -- AC DC and Phase are NOT grouped.
TRUE -- Companion Program Settings File CREATED.
FALSE -- AC data not excluded
FALSE -- DC data not excluded
FALSE -- Phase data not excluded
FALSE -- Auxillary Chn. data not excluded
Tab delimiters

#CALIBRATION STATE
TRUE -- Waveform Calibration Values APPLIED.


#AUX CALIBRATION VALUES
Val Type	aux-1	

Term	1.0000e+00	
Factor	0.0000e+00	


#WF CALIBRATION VALUES
A = Detector Channel
Val Type	A-AC1	A-AC2	A-AC3	A-AC4	A-AC5	A-AC6	A-AC7	A-AC8	A-AC9	A-AC10	A-AC11	A-AC12	A-AC13	A-AC14	A-AC15	A-AC16	A-DC1	A-DC2	A-DC3	A-DC4	A-DC5	A-DC6	A-DC7	A-DC8	A-DC9	A-DC10	A-DC11	A-DC12	A-DC13	A-DC14	A-DC15	A-DC16	A-Ph1	A-Ph2	A-Ph3	A-Ph4	A-Ph5	A-Ph6	A-Ph7	A-Ph8	A-Ph9	A-Ph10	A-Ph11	A-Ph12	A-Ph13	A-Ph14	A-Ph15	A-Ph16	

Term	0.00000e+00	0.00000e+00	0.00000e+00	0.00000e+00	0.00000e+00	0.00000e+00	0.00000e+00	0.00000e+00	0.00000e+00	0.00000e+00	0.00000e+00	0.00000e+00	0.00000e+00	0.00000e+00	0.00000e+00	0.00000e+00	0.00000e+00	0.00000e+00	0.00000e+00	0.00000e+00	0.00000e+00	0.00000e+00	0.00000e+00	0.00000e+00	0.00000e+00	0.00000e+00	0.00000e+00	0.00000e+00	0.00000e+00	0.00000e+00	0.00000e+00	0.00000e+00	0.00000e+00	0.00000e+00	0.00000e+00	0.00000e+00	0.00000e+00	0.00000e+00	0.00000e+00	0.00000e+00	0.00000e+00	0.00000e+00	0.00000e+00	0.00000e+00	0.00000e+00	0.00000e+00	0.00000e+00	0.00000e+00	
Factor	1.00000e+00	1.00000e+00	1.00000e+00	1.00000e+00	1.00000e+00	1.00000e+00	1.00000e+00	1.00000e+00	1.00000e+00	1.00000e+00	1.00000e+00	1.00000e+00	1.00000e+00	1.00000e+00	1.00000e+00	1.00000e+00	1.00000e+00	1.00000e+00	1.00000e+00	1.00000e+00	1.00000e+00	1.00000e+00	1.00000e+00	1.00000e+00	1.00000e+00	1.00000e+00	1.00000e+00	1.00000e+00	1.00000e+00	1.00000e+00	1.00000e+00	1.00000e+00	X	X	X	X	X	X	X	X	X	X	X	X	X	X	X	X	

B = Detector Channel
Val Type	B-AC1	B-AC2	B-AC3	B-AC4	B-AC5	B-AC6	B-AC7	B-AC8	B-AC9	B-AC10	B-AC11	B-AC12	B-AC13	B-AC14	B-AC15	B-AC16	B-DC1	B-DC2	B-DC3	B-DC4	B-DC5	B-DC6	B-DC7	B-DC8	B-DC9	B-DC10	B-DC11	B-DC12	B-DC13	B-DC14	B-DC15	B-DC16	B-Ph1	B-Ph2	B-Ph3	B-Ph4	B-Ph5	B-Ph6	B-Ph7	B-Ph8	B-Ph9	B-Ph10	B-Ph11	B-Ph12	B-Ph13	B-Ph14	B-Ph15	B-Ph16	

Term	0.00000e+00	0.00000e+00	0.00000e+00	0.00000e+00	0.00000e+00	0.00000e+00	0.00000e+00	0.00000e+00	0.00000e+00	0.00000e+00	0.00000e+00	0.00000e+00	0.00000e+00	0.00000e+00	0.00000e+00	0.00000e+00	0.00000e+00	0.00000e+00	0.00000e+00	0.00000e+00	0.00000e+00	0.00000e+00	0.00000e+00	0.00000e+00	0.00000e+00	0.00000e+00	0.00000e+00	0.00000e+00	0.00000e+00	0.00000e+00	0.00000e+00	0.00000e+00	-1.59263e+02	-1.35366e+02	-1.22785e+02	-1.81606e+02	-7.89346e+01	-5.72216e+01	-1.56575e+02	-1.62015e+02	-7.73410e+01	-6.58398e+01	-1.71773e+02	-1.69662e+02	-1.85582e+02	-1.76518e+02	-7.73154e+01	-1.48785e+02	
Factor	2.57673e-05	1.35732e-04	4.29484e-05	1.60521e-01	1.34668e-06	1.50830e-06	1.73562e-01	5.04505e-02	1.28541e-06	1.76270e-06	8.78298e-02	2.84354e-02	2.48919e-02	9.05555e-03	1.36247e-06	1.28161e-02	7.70257e-06	9.89319e-06	2.77655e-06	8.54020e-02	1.04570e-07	1.10558e-07	8.68692e-02	2.69635e-02	1.04314e-07	1.10505e-07	4.53325e-02	1.47671e-02	1.33880e-02	4.87488e-03	1.06932e-07	6.69256e-03	X	X	X	X	X	X	X	X	X	X	X	X	X	X	X	X	



#DISTANCE SETTINGS
A = Detector Channel
A-1	A-2	A-3	A-4	A-5	A-6	A-7	A-8	A-9	A-10	A-11	A-12	A-13	A-14	A-15	A-16	

2.5000e+00	3.0000e+00	2.5000e+00	3.0000e+00	2.0000e+00	3.0000e+00	1.5000e+00	3.0000e+00	3.0000e+00	3.0000e+00	3.0000e+00	3.0000e+00	3.0000e+00	3.0000e+00	1.5000e+00	3.0000e+00	

B = Detector Channel
B-1	B-2	B-3	B-4	B-5	B-6	B-7	B-8	B-9	B-10	B-11	B-12	B-13	B-14	B-15	B-16	

1.0000e+01	1.0000e+01	1.0000e+01	1.4400e+00	1.0000e+01	1.0000e+01	1.5100e+00	1.9400e+00	1.0000e+01	1.0000e+01	1.9900e+00	2.4900e+00	2.4100e+00	2.9000e+00	1.0000e+01	2.9800e+00	




#DATA BEGINS
time	group	step	mark	flag	A-AC1	A-AC2	A-AC3	A-AC4	A-AC5	A-AC6	A-AC7	A-AC8	A-AC9	A-AC10	A-AC11	A-AC12	A-AC13	A-AC14	A-AC15	A-AC16	A-DC1	A-DC2	A-DC3	A-DC4	A-DC5	A-DC6	A-DC7	A-DC8	A-DC9	A-DC10	A-DC11	A-DC12	A-DC13	A-DC14	A-DC15	A-DC16	A-Ph1	A-Ph2	A-Ph3	A-Ph4	A-Ph5	A-Ph6	A-Ph7	A-Ph8	A-Ph9	A-Ph10	A-Ph11	A-Ph12	A-Ph13	A-Ph14	A-Ph15	A-Ph16	B-AC1	B-AC2	B-AC3	B-AC4	B-AC5	B-AC6	B-AC7	B-AC8	B-AC9	B-AC10	B-AC11	B-AC12	B-AC13	B-AC14	B-AC15	B-AC16	B-DC1	B-DC2	B-DC3	B-DC4	B-DC5	B-DC6	B-DC7	B-DC8	B-DC9	B-DC10	B-DC11	B-DC12	B-DC13	B-DC14	B-DC15	B-DC16	B-Ph1	B-Ph2	B-Ph3	B-Ph4	B-Ph5	B-Ph6	B-Ph7	B-Ph8	B-Ph9	B-Ph10	B-Ph11	B-Ph12	B-Ph13	B-Ph14	B-Ph15	B-Ph16	aux-1	digaux	

6347.576	1	1	0	256	0.11573	0.16599	0.061881	0.18266	0.33296	0.052322	0.045448	0.32516	0.15783	0.14142	0.16763	0.26046	0.24668	0.26202	0.071595	0.061906	-0.46875	-0.46458	0.039583	-1.1	-0.18333	-0.59375	-1.2208	-0.18125	-0.9625	-0.59792	-0.3125	-1.0167	-0.35208	-0.46458	-1.0479	-0.38125	161.963	133.364	-37.742	-128.288	2.348	-83.969	90.895	183.823	104.272	155.775	-134.853	188.036	-114.949	212.021	148.168	-63.651	0.00049128	0.00033651	0.00013044	1384.6	1.2291e-06	3.1862e-06	1383.7	375.44	5.0112e-06	7.2689e-06	430.53	141.96	123.55	42.639	4.7541e-06	52.466	0.00069506	0.00074817	0.00020686	1398.6	7.9791e-06	7.9388e-06	1405.9	382.67	8.0617e-06	8.0959e-06	436.42	145.52	126.79	43.611	7.9029e-06	54.014	177.180	-115.364	-34.341	-128.822	18.724	66.880	-129.182	-124.608	-49.874	-6.384	-124.766	-121.109	-120.766	-115.850	-10.919	-116.305	-8191	255	
6347.672	1	1	0	0	0.25827	0.23499	0.27288	0.14864	0.16833	0.12087	0.12058	0.28897	0.20698	0.28272	0.23801	0.16271	0.16946	0.12278	0.076109	0.050727	-0.4875	-0.45	-0.24583	-1.3333	-0.42083	-0.46042	-1.1708	-0.24375	-0.9875	-0.67917	-0.05	-0.97083	-0.37083	-0.44792	-1.1	-0.21042	-39.118	166.918	169.627	-103.496	13.858	26.989	167.709	206.811	-34.989	-73.211	91.598	-40.288	164.644	108.165	-94.226	-104.551	0.00053861	0.00054502	0.00014862	1387	4.937e-06	3.1243e-06	1382.1	374.92	1.8412e-06	5.5628e-06	428.6	142.05	123.65	42.612	1.336e-06	52.389	0.00069182	0.00075225	0.00021016	1401.7	8.1262e-06	8.3045e-06	1402.8	381.81	8.1032e-06	8.2167e-06	436.82	145.49	126.57	43.567	7.9996e-06	53.873	173.747	-38.336	-43.296	-128.929	-30.825	34.383	-129.673	-124.688	-97.499	-38.097	-125.017	-121.411	-120.494	-115.647	-14.651	-116.313	-8191	255	
6347.769	1	1	0	0	0.14601	0.030762	0.14162	0.18452	0.15849	0.28059	0.32787	0.20783	0.3273	0.089044	0.30835	0.080219	0.15742	0.1472	0.10691	0.1833	-0.32708	-0.8	-0.11458	-1.3271	-0.45625	-0.23333	-1.275	-0.33125	-0.58958	-0.8125	-0.11458	-0.975	-0.58542	-0.28125	-1.0042	-0.23542	172.237	38.332	194.687	124.296	-103.556	107.434	133.072	164.926	-66.646	-33.597	162.945	-120.852	185.359	12.218	38.262	120.786	0.00044907	0.00038917	0.00020638	1385.9	4.0243e-06	6.7556e-06	1385.5	375.91	3.0388e-06	3.4464e-06	430.13	142.14	123.58	42.301	5.0709e-06	52.365	0.00068259	0.00074966	0.00021124	1401.8	8.2567e-06	8.4441e-06	1406.6	382.32	8.2371e-06	8.28e-06	437.04	145.59	126.68	43.431	8.1665e-06	53.888	175.480	-22.885	-45.688	-129.038	-66.072	12.407	-129.301	-124.630	-64.222	28.388	-125.053	-121.318	-120.191	-115.265	11.341	-116.196	-8191	255	
6347.865	1	1	0	0	0.063558	0.10893	0.14806	0.12835	0.25246	0.37047	0.24971	0.46146	0.11493	0.11758	0.052556	0.35398	0.18591	0.18531	0.12077	0.13778	0.041667	-0.89583	-0.19583	-1.075	-0.54167	-0.40625	-1.2542	-0.30417	-0.55833	-1.0479	-0.0625	-0.90208	-0.7625	-0.27292	-1.05	-0.5625	-83.540	-28.839	116.925	-139.629	31.559	146.987	-125.876	105.029	202.819	-124.181	174.519	-86.348	-71.316	-68.067	84.700	-44.850	0.00050538	0.00044054	0.00013832	1388.8	9.8057e-07	2.2707e-06	1382.2	376.18	3.0593e-06	8.4882e-06	427.89	141.77	124.03	42.374	6.012e-06	52.259	0.00070793	0.00077165	0.00020992	1402.7	8.3876e-06	8.2898e-06	1403.8	382.14	8.4364e-06	8.3908e-06	436.63	145.56	126.63	43.56	8.3433e-06	53.901	171.556	-57.426	-37.666	-128.875	-10.223	-1.263	-129.149	-124.538	-58.213	1.926	-124.869	-120.964	-120.590	-115.363	-38.787	-116.373	-8191	255	
6347.961	1	1	0	0	0.19026	0.22605	0.15972	0.203	0.3058	0.079213	0.35189	0.39093	0.11469	0.33671	0.028801	0.15565	0.24545	0.38018	0.18637	0.13213	-0.016667	-0.95417	-0.052083	-1.0083	-0.59792	0.0375	-1.2625	-0.38333	-0.33333	-0.90625	-0.41875	-0.94792	-0.9	-0.14792	-0.88333	-0.3625	-21.949	115.656	92.650	153.472	-80.324	-84.753	168.976	140.199	-97.471	63.937	59.403	171.052	173.662	69.601	110.775	122.290	0.00052807	0.0005321	0.00013511	1388.9	3.1245e-06	3.0646e-06	1388.4	374.99	2.0311e-06	2.2993e-06	430.33	141.61	123.43	42.489	3.4023e-06	52.095	0.00072574	0.00078391	0.00022255	1405.6	8.5965e-06	8.7661e-06	1407.7	382.29	8.4546e-06	8.5694e-06	436.71	145.47	126.69	43.481	8.5247e-06	53.938	173.883	-54.805	-84.793	-129.059	-34.094	-39.841	-129.125	-124.559	-12.622	51.321	-124.815	-120.977	-120.678	-115.636	-34.343	-116.503	-8191	255	
6348.081	1	1	0	0	0.16034	0.13119	0.15626	0.25053	0.11178	0.13562	0.2502	0.3375	0.18041	0.049038	0.22849	0.16448	0.088384	0.043349	0.20149	0.15318	0.0041667	-0.94792	-0.0625	-0.8	-0.69583	-0.1125	-1.025	-0.69375	-0.44167	-0.82917	-0.48125	-0.72083	-1.1104	-0.0125	-0.88958	-0.7	149.372	87.387	-93.894	166.778	161.000	-17.545	67.986	-78.877	43.118	105.223	209.900	183.746	69.127	-76.436	189.824	32.101	0.00054123	0.00062452	0.00013604	1385	2.8875e-06	6.2198e-06	1381.8	375.3	4.3068e-06	3.133e-06	428.48	142.04	123.19	42.566	3.5327e-06	52.37	0.00073685	0.00076309	0.00022003	1403.4	8.3773e-06	8.4959e-06	1406.2	382.21	8.4359e-06	8.3035e-06	436.52	145.56	126.36	43.522	8.3237e-06	53.814	176.247	-64.685	-38.762	-128.986	-44.952	18.895	-129.179	-124.658	-45.671	12.174	-124.778	-120.934	-120.448	-115.533	4.578	-116.222	-8191	255	
6348.176	1	1	0	0	0.11152	0.25406	0.13377	0.13581	0.17302	0.064659	0.13228	0.2872	0.20878	0.053441	0.13081	0.25295	0.10784	0.33729	0.075977	0.085032	0.19792	-0.95833	-0.28333	-0.6625	-0.93333	-0.125	-0.90833	-0.71042	0.052083	-1.1229	-0.45417	-0.56042	-1.0396	-0.19583	-0.67917	-0.85417	164.017	3.279	90.352	205.019	-2.758	-3.545	134.407	150.346	141.093	159.643	193.383	217.346	-106.024	-135.741	-50.724	-85.807	0.00054075	0.00049514	0.00013065	1388.3	3.2591e-06	4.0813e-06	1378.8	376.43	5.2502e-06	3.5817e-06	427.58	141.47	123.87	42.467	3.6569e-06	52.337	0.0007126	0.00074444	0.00020874	1403.7	8.0312e-06	8.3879e-06	1404.8	382.13	8.003e-06	8.2317e-06	435.8	145.31	126.54	43.486	7.8336e-06	53.804	168.690	-47.820	-20.247	-129.136	-23.779	11.857	-129.184	-124.615	-35.784	9.205	-124.860	-120.827	-120.720	-115.402	20.162	-116.248	-8191	255	
6348.249	1	1	0	0	0.13816	0.14162	0.025312	0.16083	0.13421	0.025022	0.41762	0.23495	0.099568	0.093211	0.35801	0.4804	0.11655	0.14875	0.11591	0.050028	0.23958	-1.0146	-0.3	-0.63333	-0.99583	-0.18542	-1.0646	-0.86667	-0.22292	-0.93333	-0.72917	-0.35	-1.1792	-0.18125	-0.74583	-0.95417	-126.800	-62.494	86.985	-140.100	20.466	-135.592	173.935	176.953	-54.497	4.608	-115.882	199.296	179.153	183.039	-132.691	116.399	0.00051356	0.00049035	0.00010463	1385.3	5.5186e-06	3.9461e-06	1387	375.42	5.7891e-06	4.6721e-06	425.77	141.95	123.16	42.192	2.8707e-06	52.048	0.00071915	0.00073737	0.00020481	1401.6	8.0473e-06	8.1716e-06	1406.5	381.5	8.0285e-06	8.0618e-06	435.5	145.4	126.46	43.399	8.1564e-06	53.708	172.629	-56.605	-74.840	-128.744	-7.797	3.762	-129.156	-124.714	-24.043	-21.226	-124.990	-121.263	-120.560	-115.573	12.084	-116.340	-8191	255	
6348.370	1	1	0	0	0.099838	0.2845	0.096374	0.32426	0.21397	0.21104	0.060358	0.11213	0.29937	0.069526	0.30963	0.14667	0.095343	0.032107	0.128	0.023017	0.3125	-0.96667	-0.31042	-0.38542	-0.92083	-0.14375	-0.60417	-0.89375	0.10208	-0.825	-0.57083	-0.20625	-1.1417	-0.26875	-0.51042	-1.0646	-91.229	-62.027	-69.812	168.454	163.198	-74.642	14.970	-91.232	-5.164	5.864	193.464	114.467	-107.323	164.018	122.578	-46.883	0.0005421	0.00030205	0.00023251	1385.3	4.2658e-06	5.1981e-06	1384.1	375.54	3.2204e-06	7.0592e-06	428	141.41	123.55	42.401	2.5969e-06	52.213	0.00069954	0.00073896	0.00021086	1401.6	8.1072e-06	8.2564e-06	1405.6	382.18	8.3008e-06	8.1177e-06	436.06	145.2	126.7	43.471	8.1266e-06	53.792	171.825	-74.631	-56.340	-129.004	-58.843	20.197	-129.216	-124.640	-23.550	1.103	-124.816	-121.119	-120.510	-115.794	-0.986	-116.098	-8191	255	
6348.464	1	1	0	0	0.057108	0.19165	0.15446	0.27169	0.25111	0.13544	0.47511	0.10684	0.11515	0.22319	0.20588	0.21891	0.21578	0.31316	0.13355	0.18413	0.36042	-0.71875	-0.67708	-0.13333	-1	-0.29792	-0.51875	-1.1146	-0.11667	-0.76875	-0.75417	-0.14167	-1.1479	-0.37917	-0.38542	-0.88958	89.747	-118.780	70.002	199.726	166.083	200.885	145.109	209.293	109.935	5.486	205.940	141.282	152.504	122.750	33.949	174.743	0.00043974	0.00056937	0.00015874	1384.7	2.1859e-06	4.9863e-06	1386.8	374.66	3.5582e-06	6.5899e-06	430.58	141.4	123.91	42.443	4.4729e-06	52.066	0.00071238	0.00074145	0.00020942	1401.3	8.1301e-06	8.1924e-06	1406.3	381.78	8.1543e-06	8.2768e-06	436.79	144.97	126.84	43.441	8.0105e-06	53.817	174.359	-56.917	-19.213	-129.108	-45.813	-30.147	-129.175	-124.638	-24.008	21.216	-124.759	-121.066	-120.566	-115.537	3.906	-116.334	-8191	255	
6348.560	1	1	0	0	0.1105	0.16899	0.11606	0.31298	0.20923	0.032341	0.17797	0.18644	0.088328	0.25586	0.15792	0.11105	0.16094	0.047927	0.034115	0.060205	0.40208	-0.67083	-0.7125	-0.24792	-0.84583	-0.37708	-0.45	-1.0271	0.125	-0.54583	-0.90833	-0.22292	-1.0021	-0.56667	-0.23125	-1.0333	-7.130	-120.821	116.896	204.161	-11.797	-8.722	137.062	170.663	135.778	26.104	-139.966	-41.147	94.544	-63.281	-95.648	81.100	0.00049116	0.00033979	8.8901e-05	1384.9	2.214e-06	5.194e-06	1387.7	374.83	6.5767e-06	5.4575e-06	427.09	142.05	123.42	42.261	2.2437e-06	52.37	0.00070726	0.00073533	0.0002062	1401.6	8.0743e-06	8.3025e-06	1405.3	381.81	8.1045e-06	8.2103e-06	435.17	145.58	126.61	43.339	8.0328e-06	53.906	169.622	-21.738	-84.716	-128.809	-20.857	40.936	-129.357	-124.672	-45.168	-7.565	-125.228	-121.299	-120.764	-115.914	-48.045	-116.544	-8191	255	
6348.657	1	1	0	0	0.14123	0.12104	0.030994	0.28515	0.28221	0.072873	0.12941	0.41807	0.12285	0.19438	0.33814	0.16419	0.097065	0.114	0.15029	0.1335	0.17292	-0.53125	-0.70833	-0.25833	-0.77708	-0.56042	-0.30417	-1.2458	-0.11875	-0.32917	-0.91875	0.15	-0.78125	-0.84792	-0.00625	-1.1187	171.043	36.845	-78.350	140.252	212.298	191.877	-140.387	121.420	-54.523	213.979	126.794	66.615	185.567	129.317	194.647	78.441	0.00047348	0.00032287	0.00016956	1381.5	2.0667e-06	5.8426e-06	1385.1	374.82	2.5166e-06	5.0467e-06	428.17	142.15	123.58	42.425	3.6141e-06	52.246	0.0006958	0.00072262	0.00020767	1400	8.0351e-06	8.1097e-06	1404.8	381.86	8.0639e-06	8.0031e-06	435.89	145.44	126.28	43.34	7.9969e-06	53.761	177.474	-107.661	-57.407	-129.242	-30.922	22.056	-129.558	-124.689	-42.575	-34.241	-124.911	-121.621	-120.460	-115.875	-3.627	-116.307	-8191	255	
6348.777	1	1	0	0	0.10056	0.13633	0.14285	0.65766	0.16181	0.2281	0.045427	0.10181	0.1637	0.18422	0.22725	0.16867	0.081912	0.12259	0.20934	0.34975	0.1375	-0.31875	-0.94375	-0.20208	-0.77917	-0.75833	-0.21667	-1.275	-0.20625	-0.37083	-1.0271	-0.13333	-0.81042	-0.83125	-0.125	-0.88542	79.582	70.023	131.738	194.301	-44.443	54.141	-82.494	157.912	148.061	-83.369	-44.391	157.053	-133.808	184.413	-41.609	84.204	0.00054379	0.00039418	0.00017998	1378.4	6.6898e-06	6.7497e-06	1382.5	375.46	3.7865e-06	5.4933e-06	426.9	141.42	123.74	42.284	3.117e-06	51.994	0.00069713	0.00073006	0.00020461	1397.5	7.9456e-06	8.168e-06	1403.2	381.51	8.0745e-06	7.9566e-06	435.22	144.98	126.55	43.401	8.2362e-06	53.713	180.159	-0.651	-67.168	-129.171	-20.520	21.208	-128.990	-124.602	-51.093	14.221	-124.891	-121.082	-120.191	-115.400	1.337	-116.166	-8191	255	
6348.873	1	1	0	0	0.19763	0.081249	0.16391	0.17676	0.21432	0.32196	0.17724	0.1234	0.10569	0.13145	0.19587	0.37374	0.15095	0.147	0.12072	0.12513	0.064583	-0.17917	-0.86042	-0.21042	-0.62083	-0.92083	-0.25417	-0.94167	-0.69375	-0.1875	-1.1042	-0.21042	-0.59375	-1.2104	-0.029167	-0.94375	151.779	63.197	-102.667	165.935	109.076	151.970	3.398	-133.763	-132.504	-18.899	102.466	168.533	-130.415	209.748	-99.621	-76.736	0.0004792	0.00063064	7.576e-05	1382.2	3.1115e-06	6.9603e-06	1383	376.17	3.7772e-06	4.3476e-06	430.06	141.78	123.28	42.237	5.9099e-06	52.301	0.00069554	0.00073049	0.00020369	1399.9	8.0904e-06	8.2785e-06	1404.1	381.98	8.0022e-06	8.295e-06	435.93	145.13	126.29	43.369	7.9595e-06	53.808	172.183	-34.533	-79.205	-129.278	-70.875	18.051	-129.224	-124.498	-39.759	-9.288	-125.169	-121.199	-120.738	-115.933	8.072	-116.111	-8191	255	
6348.970	1	1	0	0	0.13449	0.076555	0.23424	0.12595	0.3223	0.11283	0.33339	0.18171	0.17337	0.092417	0.12043	0.25606	0.13798	0.10797	0.053212	0.13512	-0.0375	-0.14375	-0.8	-0.49792	-0.42083	-0.8	-0.2125	-0.94792	-0.55	-0.20208	-1.0833	-0.17292	-0.52292	-1.0083	0.054167	-0.90833	160.258	-118.462	93.918	142.871	175.087	-137.742	173.892	163.539	5.150	-61.286	176.230	166.755	-140.823	159.113	66.047	169.992	0.0005317	0.00036382	0.00013926	1385.4	1.3899e-06	5.1308e-06	1389	376.1	6.6673e-06	4.0094e-06	428.12	142.14	123.54	42.242	7.8246e-06	52.383	0.00069657	0.00073552	0.00020268	1398.7	7.9734e-06	8.0717e-06	1405.8	381.71	8.1504e-06	8.103e-06	436.31	145.19	126.36	43.352	8.0727e-06	53.745	174.459	-32.928	-53.762	-129.102	8.858	-15.399	-129.401	-124.457	-28.884	6.524	-124.868	-121.291	-120.343	-115.619	-2.674	-116.222	-8191	255	
6349.066	1	1	0	0	0.15613	0.1311	0.44253	0.095197	0.099079	0.34302	0.1312	0.20329	0.15755	0.11734	0.15544	0.080424	0.36859	0.14081	0.40435	0.057679	-0.42083	-0.14583	-0.99167	-0.46458	-0.25833	-0.9875	-0.25625	-0.70208	-0.78958	-0.35833	-1.0187	-0.47292	-0.375	-1.0792	-0.1125	-0.72917	-51.190	-118.396	210.930	-125.532	216.156	-62.828	161.288	55.203	-44.521	24.596	55.413	-112.070	-136.476	37.293	76.674	215.592	0.00050496	0.00039683	4.7263e-05	1387.2	3.1008e-06	3.911e-06	1383.1	374.64	3.5795e-06	3.6962e-06	428.06	141.72	123.38	42.348	2.6045e-06	52.303	0.0007152	0.00074999	0.00020678	1399.4	8.0549e-06	8.17e-06	1404.6	381.78	8.0745e-06	8.2496e-06	435.62	145.23	126.5	43.382	8.2609e-06	53.859	175.251	-87.008	-82.105	-128.789	-27.425	6.856	-129.107	-124.528	-67.037	3.517	-124.802	-121.355	-120.744	-115.650	-22.514	-116.517	-8191	255	
6349.162	1	1	0	0	0.18263	0.39147	0.22055	0.32626	0.15834	0.27854	0.20979	0.17702	0.22641	0.11586	0.074522	0.10638	0.20256	0.13958	0.078504	0.19447	-0.28125	-0.035417	-0.84583	-0.5875	-0.19583	-1.0354	-0.28125	-0.7625	-0.9375	-0.072917	-1.0125	-0.72292	-0.3	-1.0458	-0.18333	-0.45833	139.965	59.048	128.831	-134.454	192.052	-35.930	2.373	201.000	212.555	106.877	-68.577	46.348	216.574	-138.576	102.134	161.761	0.00050368	0.00035057	0.00014995	1382.1	3.0259e-06	2.0672e-06	1378.7	375.5	5.4879e-06	6.2427e-06	427.72	141.71	123.9	42.264	4.2536e-06	52.452	0.00070827	0.0007613	0.0002026	1399.7	8.0802e-06	8.2131e-06	1402.4	382.18	8.0393e-06	8.2902e-06	435.63	145.09	126.54	43.366	8.2596e-06	53.794	169.316	-59.762	-48.594	-129.353	-25.484	52.967	-129.271	-124.589	-37.710	9.232	-124.887	-121.093	-120.623	-115.570	-14.696	-116.242	-8191	255	
6349.258	1	1	0	0	0.17139	0.13538	0.065582	0.12282	0.16283	0.21375	0.097756	0.12499	0.3339	0.21188	0.16283	0.23044	0.31514	0.29316	0.13067	0.226	-0.4125	0.0875	-0.86042	-0.8	-0.089583	-0.9375	-0.53333	-0.43125	-0.93333	-0.29792	-0.8	-0.66042	-0.13333	-0.93125	-0.45	-0.61875	164.818	-5.006	150.803	188.196	51.276	-127.186	172.263	10.999	130.102	88.062	143.485	173.315	127.132	214.729	-9.407	101.234	0.00050803	0.0003119	0.00013721	1381.9	2.9152e-06	6.7869e-06	1382.2	375.11	2.8453e-06	4.3768e-06	426.78	141.56	123.32	42.308	3.6788e-06	52.085	0.00070381	0.00074568	0.00020402	1400	7.8445e-06	8.0982e-06	1403.8	381.76	7.9457e-06	8.1426e-06	435.4	145.22	126.46	43.459	7.8933e-06	53.814	170.839	-37.759	-33.995	-128.994	7.406	12.801	-129.253	-124.516	-41.452	-14.999	-124.612	-121.207	-120.087	-115.240	-21.009	-115.943	-8191	255	
6349.377	1	1	0	0	0.099636	0.15362	0.10352	0.19841	0.17162	0.12441	0.26304	0.17561	0.14504	0.29872	0.23982	0.065398	0.061649	0.14565	0.29172	0.32385	-0.6375	-0.0020833	-0.59375	-0.92917	-0.17917	-0.99167	-0.72917	-0.53333	-0.85625	-0.36458	-0.80625	-1	-0.18333	-1.0792	-0.42708	-0.39792	-93.406	25.998	214.193	153.236	205.017	76.152	136.217	159.390	-97.720	-87.457	-101.566	-95.935	-7.354	-89.869	216.271	156.373	0.00049268	0.00064634	0.00020775	1384.2	4.6842e-06	4.1711e-06	1382.3	375.24	2.8907e-06	3.5195e-06	427.35	141.59	124.04	42.109	3.7708e-06	51.882	0.0006801	0.00073504	0.00020283	1398.5	7.9554e-06	7.8015e-06	1403.1	381.46	7.8774e-06	8.0155e-06	435.78	145.06	126.54	43.322	7.8713e-06	53.736	174.859	-25.484	-32.643	-129.071	-26.654	39.394	-128.993	-124.476	-52.402	21.896	-124.734	-121.164	-120.548	-115.666	9.895	-116.131	-8191	255	
6349.473	1	1	0	0	0.13305	0.1122	0.063692	0.13148	0.1048	0.12148	0.13566	0.06215	0.31937	0.28057	0.071067	0.35294	0.11941	0.24108	0.23734	0.24136	-0.60208	-0.18958	-0.51458	-1.15	-0.11875	-0.88958	-0.68333	-0.35833	-1.1417	-0.21875	-0.76667	-1.0208	-0.16458	-0.98542	-0.67083	-0.25417	-93.629	27.819	52.052	216.124	-92.494	205.125	127.319	162.505	143.600	43.360	-85.213	161.521	65.088	142.189	83.832	71.793	0.00048418	0.00051247	0.00025967	1381.6	3.5488e-06	4.9205e-06	1380.6	374.29	3.3377e-06	6.4088e-06	427.39	141.44	123.34	42.469	3.1138e-06	52.419	0.00067534	0.0007289	0.00020753	1396.9	7.8288e-06	8.0021e-06	1401	381.17	7.7968e-06	8.0441e-06	435.04	144.96	126.32	43.422	7.8764e-06	53.788	170.617	-88.136	-37.040	-129.208	-19.149	44.927	-129.142	-124.607	-31.545	30.708	-124.504	-120.926	-120.338	-115.423	-15.373	-116.148	-8191	255	
6349.545	1	1	0	0	0.22454	0.24804	0.111	0.41117	0.073479	0.31007	0.2987	0.25625	0.1024	0.19682	0.079496	0.11142	0.23588	0.17274	0.21556	0.30819	-0.59792	-0.42708	-0.25	-1.1104	-0.175	-0.62917	-1.0771	-0.39167	-1.15	-0.38125	-0.45	-1.2292	-0.072917	-0.87083	-0.77708	0.06875	-46.661	149.690	86.556	193.102	-93.420	-87.028	-141.812	142.596	3.136	54.211	119.234	50.713	200.962	104.120	148.563	81.660	0.00052046	0.00034392	0.00017522	1381.3	3.7883e-06	3.4911e-06	1375	374.49	2.5219e-06	6.4404e-06	428.08	141.65	123.52	42.357	1.8291e-06	52.306	0.00067608	0.00072294	0.00020155	1397.7	7.8281e-06	7.9035e-06	1398.6	380.75	7.6721e-06	8.0519e-06	435.28	144.97	126.3	43.437	8.1244e-06	53.786	169.121	-64.581	-46.184	-129.050	-0.447	6.542	-129.502	-124.641	-16.093	9.023	-124.856	-121.282	-120.512	-115.388	9.599	-115.990	-8191	255	
6349.641	1	1	0	0	0.17906	0.18711	0.11928	0.24882	0.058372	0.23132	0.10692	0.18155	0.23295	0.25105	0.23174	0.13512	0.4913	0.22424	0.34293	0.18797	-0.625	-0.5625	-0.25417	-1.2812	-0.29792	-0.67708	-1.0562	-0.11042	-0.89375	-0.64167	-0.45833	-1.1688	-0.18958	-0.65417	-0.79167	-0.054167	-30.918	-91.300	89.448	-103.717	-108.225	7.842	-132.747	162.185	106.432	123.489	106.537	216.411	194.390	-99.858	-54.209	184.191	0.00055804	0.00048791	0.00016731	1381.4	2.8609e-06	5.7071e-06	1381.2	374.82	4.5219e-06	5.8144e-06	427.83	140.96	123.37	42.415	4.7308e-06	52.345	0.00069243	0.00071996	0.00019955	1398.2	7.9567e-06	7.9275e-06	1401.9	380.75	7.7964e-06	8.0063e-06	435.21	144.8	126.14	43.345	7.904e-06	53.771	171.741	-37.922	-60.114	-129.120	-64.132	2.044	-129.369	-124.567	-50.380	-16.872	-124.870	-121.416	-120.635	-115.814	-10.055	-116.039	-8191	255	
6349.762	1	1	0	0	0.073055	0.31606	0.065491	0.25333	0.10206	0.11819	0.42222	0.2299	0.16791	0.0024343	0.18337	0.16293	0.11839	0.25578	0.19719	0.10112	-0.53125	-0.46875	-0.29167	-1.1313	-0.33333	-0.34583	-1.35	-0.23333	-0.73958	-0.59167	-0.34167	-1.1917	-0.175	-0.69375	-0.87083	-0.1625	-70.371	-71.684	-34.662	179.107	134.605	178.810	166.387	215.855	30.739	119.404	-119.066	208.823	120.025	-118.686	101.086	172.741	0.00051361	0.00047531	9.2071e-05	1377.8	6.0566e-06	7.5846e-06	1379	374.26	4.5305e-06	3.8706e-06	428.91	141.38	122.8	42.281	7.0381e-06	52.101	0.00068298	0.00073964	0.00020288	1396	7.8994e-06	7.9551e-06	1401.2	380.99	7.8242e-06	8.2803e-06	435.38	144.98	125.96	43.362	8.0571e-06	53.718	173.336	-30.196	-19.564	-129.047	-31.461	3.862	-129.266	-124.605	-38.338	15.851	-124.794	-121.099	-120.512	-115.561	-18.215	-116.090	-8191	255	
6349.858	1	1	0	0	0.12859	0.2915	0.31558	0.2653	0.10594	0.16943	0.17157	0.13729	0.11848	0.27662	0.27702	0.17176	0.04988	0.092069	0.28161	0.17628	-0.34792	-0.53125	-0.10417	-1.1771	-0.57292	-0.425	-1.3042	-0.097917	-0.75208	-0.54167	-0.225	-1.0792	-0.42292	-0.43125	-0.9	-0.24792	-115.762	93.423	113.160	62.662	-66.718	21.729	145.864	-117.952	73.615	175.275	188.848	138.284	14.743	153.863	-8.515	161.832	0.00045647	0.00049368	0.0001558	1383.3	3.2548e-06	5.1449e-06	1381.2	374.01	4.7369e-06	3.8692e-06	426.36	141.62	123.15	42.276	4.0247e-06	52.304	0.00070178	0.00073912	0.00020523	1398.8	7.87e-06	8.1286e-06	1402.1	381.23	7.835e-06	7.9174e-06	434.83	145.06	126.28	43.393	7.8936e-06	53.754	170.101	-38.331	-27.679	-128.890	-36.879	9.632	-129.370	-124.496	-34.046	-3.864	-124.947	-120.792	-120.433	-115.242	-27.906	-116.053	-8191	255	
6349.954	1	1	0	0	0.18386	0.17004	0.16837	0.29532	0.17736	0.204	0.20568	0.19766	0.12208	0.35641	0.21858	0.16318	0.19111	0.38005	0.22634	0.063331	-0.11458	-0.77917	-0.077083	-1.0417	-0.29792	-0.033333	-1.2	-0.21875	-0.375	-0.97083	-0.11667	-1.0458	-0.60208	-0.14792	-0.95833	-0.31458	-76.916	198.295	156.954	-135.771	-49.619	180.216	164.235	-134.678	-27.160	129.763	-135.486	179.832	62.235	24.574	58.498	110.676	0.00049191	0.00039271	0.00017792	1380.7	6.1073e-06	3.7379e-06	1379.5	374.4	4.0144e-06	6.3765e-06	428.63	141.35	123.33	42.316	5.6008e-06	52.079	0.00067301	0.00072068	0.00020445	1397	7.9255e-06	7.9277e-06	1401.5	380.8	7.8157e-06	7.8854e-06	435.4	144.86	126.4	43.423	7.9288e-06	53.682	174.215	-80.598	-62.946	-129.012	-34.714	37.183	-129.363	-124.891	-2.170	-5.929	-124.918	-121.223	-120.668	-115.618	-22.600	-116.415	-8191	255	
6350.050	1	1	0	0	0.17704	0.24419	0.1557	0.35073	0.15997	0.28877	0.25295	0.27344	0.070203	0.19865	0.38012	0.316	0.38333	0.083996	0.1026	0.20714	-0.16667	-0.64792	0.05625	-0.86458	-0.475	-0.025	-1.1479	-0.28542	-0.425	-0.86667	-0.275	-0.8625	-0.68958	-0.027083	-1.0271	-0.30625	45.731	-119.529	-14.026	158.209	149.102	190.670	181.138	127.322	-97.944	-32.874	-139.223	203.025	92.843	194.334	132.877	116.184	0.00050121	0.00030033	0.00010939	1381	6.112e-06	3.6088e-06	1383.7	373.55	1.0018e-06	5.6477e-06	428.06	141.9	123.21	42.234	4.0764e-06	52.158	0.00068643	0.00073407	0.00020786	1398.6	8.0937e-06	8.2601e-06	1402.8	380.94	8.0119e-06	8.1882e-06	434.9	145.09	126.17	43.346	8.0718e-06	53.692	173.840	-56.360	-52.542	-129.168	-6.485	-40.083	-129.375	-124.728	-37.892	-3.225	-125.144	-121.448	-120.851	-115.749	22.155	-116.098	-8191	255	
6350.146	1	1	0	0	0.22593	0.023752	0.045817	0.41285	0.14732	0.11292	0.11777	0.27049	0.23085	0.13745	0.05679	0.11303	0.16907	0.1722	0.12685	0.17508	0	-1.0812	-0.025	-1.0271	-0.59583	-0.225	-1.0896	-0.63333	-0.11042	-1.0042	-0.17917	-0.65208	-0.84792	-0.12917	-1.0688	-0.51875	31.175	-129.909	95.323	185.170	47.365	89.311	76.375	176.618	41.692	174.345	139.368	-112.032	-88.360	14.946	211.332	141.293	0.00050057	0.00041479	0.00015519	1383.3	2.1076e-06	2.924e-06	1381.9	374.35	4.6681e-06	5.7567e-06	426.81	141.32	122.89	42.426	5.6864e-06	51.977	0.00070357	0.00074419	0.00021045	1399.5	7.9652e-06	8.1633e-06	1400.3	380.73	7.9155e-06	7.9681e-06	435.32	144.9	126.01	43.387	7.9432e-06	53.653	177.788	-36.034	-70.578	-128.977	-1.065	9.170	-129.545	-124.673	-22.243	20.767	-125.084	-121.529	-120.387	-115.635	2.844	-116.617	-8191	255	
6350.242	1	1	0	0	0.072602	0.35799	0.065601	0.4216	0.33446	0.040803	0.1005	0.18842	0.13181	0.050761	0.046267	0.16799	0.27289	0.076896	0.034831	0.078346	0.16875	-0.8375	-0.24792	-0.70833	-0.77917	0.010417	-0.97292	-0.7125	-0.095833	-0.92917	-0.36458	-0.5375	-1.0417	-0.091667	-0.87917	-0.45625	-125.397	-36.540	-84.995	157.931	117.279	20.359	52.033	-142.440	79.966	-18.667	206.985	205.565	187.589	138.862	127.862	33.127	0.00048149	0.0005859	0.000208	1376.6	3.3623e-06	4.1651e-06	1386.4	373.91	6.0481e-06	5.4669e-06	428.62	141.05	123.19	42.217	4.621e-06	52.125	0.00069402	0.00072948	0.00020691	1396.9	8.0486e-06	8.1986e-06	1404.6	380.72	7.9956e-06	7.8933e-06	435.6	144.59	126.3	43.299	8.1103e-06	53.731	177.062	-61.890	-36.362	-129.108	-35.794	-10.521	-129.604	-124.857	-50.642	-0.978	-124.867	-121.096	-120.855	-115.855	14.676	-116.707	-8191	255	
6350.338	1	1	0	0	0.15464	0.243	0.078274	0.30131	0.13606	0.20047	0.17309	0.3379	0.2067	0.29348	0.23237	0.08559	0.19216	0.20387	0.34371	0.31934	0.28542	-0.98958	-0.13333	-0.65625	-1.1437	-0.19583	-1.0417	-0.96667	-0.20208	-1.0625	-0.51458	-0.40417	-1.0083	-0.22708	-0.66042	-0.75417	206.525	26.941	-129.651	142.974	32.743	86.111	194.302	163.922	-11.100	-28.265	124.940	-5.482	-89.178	-45.384	-70.961	-6.105	0.0004957	0.0002099	0.00013291	1385.8	4.826e-06	5.8145e-06	1382.1	374.86	3.8184e-06	4.9738e-06	427.89	141.44	123.74	42.336	4.6937e-06	51.995	0.00070825	0.00074296	0.00020876	1400.9	8.0832e-06	8.1921e-06	1404.4	381.29	8.2549e-06	8.2699e-06	435.03	145.27	126.41	43.339	7.9963e-06	53.601	172.368	-104.217	-112.641	-128.968	9.817	-23.571	-129.279	-124.792	-34.752	4.639	-124.998	-121.125	-120.791	-115.715	-15.996	-116.326	-8191	255	
6350.457	1	1	0	0	0.088026	0.080186	0.22105	0.072538	0.40718	0.31961	0.31049	0.28467	0.12496	0.28246	0.44371	0.15938	0.29738	0.25636	0.13497	0.40984	0.16042	-0.89375	-0.38125	-0.52292	-1.1646	-0.34583	-0.97917	-0.94583	-0.08125	-0.9125	-0.5875	-0.27917	-1.1854	-0.23125	-0.64792	-1.05	147.594	-48.947	-50.336	-114.762	-26.002	147.329	176.278	140.672	-12.237	-133.711	160.519	-51.196	181.160	188.151	205.040	171.508	0.0004921	0.00032351	0.00018387	1380.9	2.9235e-06	5.4085e-06	1385.7	374.43	4.1538e-06	7.4816e-06	427.57	141.24	123.39	42.137	2.708e-06	52.252	0.00072577	0.00075248	0.00021177	1398	7.9255e-06	8.1862e-06	1402.6	380.85	7.9498e-06	7.9405e-06	434.83	144.94	126.28	43.358	8.0266e-06	53.7	177.610	-17.002	-32.702	-128.899	-43.569	27.971	-129.519	-124.512	-25.604	24.381	-125.042	-120.911	-120.701	-115.679	-36.019	-116.433	-8191	255	
6350.553	1	1	0	0	0.16123	0.15218	0.14718	0.14424	0.21167	0.18123	0.087169	0.041427	0.2415	0.22748	0.28662	0.23119	0.1767	0.1012	0.25955	0.27735	0.29167	-0.84583	-0.425	-0.43333	-1.1125	-0.24167	-0.67292	-1.0229	-0.00625	-0.66667	-0.83542	-0.18542	-1.0063	-0.24792	-0.39792	-1.2062	138.821	166.468	38.785	-117.584	214.324	123.754	101.037	-13.470	-131.099	-121.985	206.507	204.007	-18.298	17.823	-111.027	197.882	0.00046756	0.00069845	9.9485e-05	1388.5	5.4877e-06	5.9089e-06	1383.4	374.96	6.0425e-06	3.8543e-06	427.11	141.6	124.04	42.214	3.2735e-06	52.188	0.00070146	0.00072183	0.00020715	1399.7	7.9194e-06	8.2891e-06	1403.9	380.57	8.0624e-06	8.1792e-06	434.44	145.19	126.26	43.312	8.0782e-06	53.684	170.227	-77.561	-51.467	-128.949	-33.426	10.957	-129.340	-124.509	-25.639	15.286	-125.242	-121.206	-120.519	-115.772	-15.369	-116.422	-8191	255	
6350.650	1	1	0	0	0.10443	0.13037	0.083583	0.40856	0.4195	0.18601	0.3219	0.25643	0.20645	0.038171	0.043533	0.048669	0.075716	0.067641	0.26709	0.16301	0.26875	-0.73125	-0.72917	-0.17083	-1.2125	-0.35208	-0.3375	-1.0708	-0.085417	-0.83333	-0.93542	-0.21042	-0.8875	-0.53542	-0.27292	-1.0479	16.410	70.846	-87.921	191.266	72.114	81.300	143.330	118.138	-72.006	-85.536	-15.168	50.820	-98.320	-2.650	-105.830	-135.777	0.00049284	0.00049346	0.00018467	1378.7	3.8472e-06	3.3673e-06	1386.6	375.27	3.3504e-06	5.8662e-06	426.97	141.6	123.57	42.239	4.7626e-06	51.857	0.00069724	0.00073061	0.00020799	1396.5	7.8613e-06	8.1555e-06	1403.8	381.29	8.0539e-06	8.016e-06	434.34	145.04	126.32	43.331	8.0114e-06	53.593	168.194	-82.294	-49.266	-128.854	26.789	30.598	-129.243	-124.694	4.250	8.120	-124.807	-121.108	-120.451	-115.712	-16.156	-116.214	-8191	255	
6350.770	1	1	0	0	0.12391	0.025526	0.10146	0.14897	0.037529	0.16324	0.34113	0.066525	0.20614	0.21139	0.23851	0.1954	0.23382	0.42184	0.14731	0.19884	0.15	-0.65	-0.75	-0.25	-1.0354	-0.39375	-0.48542	-1.2917	-0.1625	-0.56458	-0.70417	0.0125	-1.0167	-0.52083	-0.30417	-1.0667	-63.591	-87.157	7.411	61.120	51.458	-12.436	112.058	89.710	-96.567	95.399	-86.232	-114.106	-61.667	180.222	69.173	124.282	0.00045698	0.00040223	0.00014322	1378.8	2.4919e-06	5.6978e-06	1384.1	374.19	2.5835e-06	6.6794e-06	427.27	141	123.29	42.184	2.8605e-06	52.172	0.00069809	0.00072266	0.00020522	1396.1	7.8756e-06	8.0459e-06	1402.3	380.65	8.0489e-06	8.0429e-06	434.74	144.83	126.2	43.283	7.9245e-06	53.649	171.110	-56.849	-10.310	-129.003	-59.219	19.857	-129.387	-124.600	-23.422	32.524	-124.810	-121.273	-120.634	-115.490	-32.537	-116.111	-8191	255	
6350.842	1	1	0	0	0.25045	0.32795	0.21125	0.25494	0.18392	0.12005	0.48483	0.22921	0.213	0.18376	0.32352	0.18125	0.3592	0.14522	0.048788	0.21445	0.24375	-0.40625	-0.8375	-0.045833	-0.76458	-0.57292	-0.40417	-1.05	-0.22917	-0.47083	-0.98333	-0.19792	-0.79792	-0.73125	-0.016667	-1.0021	153.607	-50.351	-17.967	-133.059	-118.735	176.647	153.142	186.155	32.273	-58.297	-132.718	-125.105	160.824	-126.289	-79.692	216.456	0.00052532	0.00076864	0.00020857	1381.1	4.4431e-06	4.0437e-06	1385.6	374.18	1.9284e-06	5.4025e-06	427.27	141.64	123.09	42.213	2.8034e-06	52.167	0.0007002	0.00074415	0.00020117	1396.6	7.8937e-06	8.1058e-06	1403.6	381.2	8.0863e-06	8.146e-06	434.93	144.75	126.22	43.283	8.1529e-06	53.732	171.974	-28.837	-32.068	-129.085	-20.265	12.766	-129.036	-124.525	-27.875	-5.174	-124.812	-121.050	-120.344	-115.373	7.051	-115.824	-8191	255	
6350.938	1	1	0	0	0.13459	0.22932	0.042964	0.13667	0.16894	0.23252	0.12211	0.18996	0.23216	0.21345	0.17345	0.36526	0.23332	0.37525	0.12055	0.0422	0.13125	-0.14375	-0.975	-0.095833	-0.72083	-0.83125	-0.25625	-1.0812	-0.39792	-0.39375	-1.1	-0.16875	-0.65625	-0.61875	-0.1625	-0.97708	112.665	120.465	-29.139	151.862	214.318	-67.342	142.515	115.912	102.657	-91.640	156.147	139.675	211.906	184.251	8.920	-31.070	0.00056052	0.00053751	0.00016667	1383.4	1.8096e-06	6.3908e-06	1380.8	374.99	4.3019e-06	9.1952e-06	426.42	141.73	122.97	42.468	4.3836e-06	52.032	0.00069925	0.00074749	0.00020596	1399	7.9323e-06	8.1164e-06	1401.7	381.17	7.9674e-06	8.3694e-06	434.65	145.05	125.96	43.44	8.0428e-06	53.627	176.252	-57.830	-36.940	-128.904	-41.259	10.261	-129.246	-124.306	-32.813	16.245	-124.478	-121.078	-120.339	-115.558	6.570	-116.005	-8191	255	
6351.059	1	1	0	0	0.31644	0.39013	0.20237	0.45988	0.021191	0.024368	0.29416	0.21091	0.20893	0.22513	0.22534	0.17221	0.088944	0.13071	0.11187	0.06128	-0.01875	-0.19375	-0.93542	-0.38542	-0.65417	-0.97083	-0.06875	-1.0438	-0.65	-0.22917	-1.1917	-0.39167	-0.5	-0.99167	-0.070833	-0.98542	69.363	217.646	79.727	152.717	79.969	215.488	125.442	141.651	-132.664	68.327	-74.644	113.991	181.543	204.785	6.061	202.206	0.0005215	0.00055548	0.00014254	1375.9	4.3403e-06	5.4275e-06	1378.1	375.16	4.4419e-06	5.4498e-06	427.26	141.98	123.24	42.094	3.1332e-06	52.265	0.00070583	0.00073655	0.0002055	1396.4	8.0048e-06	8.0749e-06	1400.4	381.09	7.9787e-06	8.1737e-06	435.34	145.03	126.41	43.294	8.1571e-06	53.725	176.328	-73.710	-42.139	-128.791	-51.790	-6.587	-129.230	-124.253	-53.325	-1.584	-124.685	-120.954	-120.345	-115.370	-46.057	-115.759	-8191	255	
6351.153	1	1	0	0	0.16344	0.051123	0.077407	0.37439	0.12565	0.19368	0.28643	0.35029	0.11025	0.065456	0.28073	0.28961	0.14684	0.13249	0.30825	0.13052	-0.070833	-0.10417	-0.75625	-0.35417	-0.5125	-0.86667	-0.25833	-1.0604	-0.68958	-0.010417	-1.1708	-0.45	-0.33125	-1.2021	-0.05625	-0.77292	-80.214	60.857	202.985	-137.493	-37.431	-95.986	203.194	152.378	190.072	-2.864	135.267	150.779	-50.907	185.380	16.366	-90.387	0.00047753	0.00071662	0.00016451	1380.5	5.1059e-06	5.4383e-06	1375.9	374.3	3.3685e-06	6.4006e-06	425.67	141.55	122.96	42.193	4.3164e-06	52.119	0.00069644	0.0007369	0.00020481	1397.6	8.014e-06	8.053e-06	1400	380.77	8.0091e-06	8.1062e-06	434.28	144.65	126.09	43.255	7.9577e-06	53.68	179.481	-51.133	-35.293	-128.858	-39.545	11.648	-129.389	-124.266	-47.994	31.827	-124.593	-121.195	-120.249	-115.516	-32.090	-115.923	-8191	255	
6351.249	1	1	0	0	0.17119	0.18841	0.0908	0.3003	0.1176	0.15966	0.195	0.081055	0.086961	0.1534	0.10531	0.12624	0.3713	0.039899	0.22116	0.46889	-0.49167	0.025	-0.94167	-0.49167	-0.175	-1.0187	-0.29792	-0.88333	-0.77917	-0.075	-1.1437	-0.43333	-0.37083	-0.9625	-0.23333	-0.65	-127.177	138.625	137.634	139.621	-121.670	17.836	174.599	205.615	19.055	-36.556	49.402	191.338	118.920	215.827	-26.408	164.260	0.00048764	0.0006268	0.00019761	1383	6.3001e-06	5.8347e-06	1379.8	373.57	4.3571e-06	1.0506e-05	424.89	141.13	123.22	42.375	4.935e-06	51.997	0.00067884	0.00071163	0.00020221	1395.3	7.9928e-06	8.0047e-06	1399.1	380.76	7.8909e-06	8.0261e-06	434.09	144.82	126.15	43.298	7.9943e-06	53.589	179.118	-66.984	-34.893	-128.932	38.460	13.423	-129.122	-124.071	-19.766	7.965	-124.457	-121.056	-120.336	-115.549	-37.946	-115.989	-8191	255	
6351.345	1	1	0	0	0.19162	0.18202	0.068144	0.36384	0.17172	0.27488	0.10564	0.31062	0.22017	0.16157	0.20123	0.23675	0.25474	0.22782	0.19363	0.12806	-0.50625	-0.010417	-0.93333	-0.775	-0.16667	-0.87292	-0.40208	-0.67083	-1	-0.21667	-0.8625	-0.69792	-0.32917	-1.3438	-0.12292	-0.51458	127.046	24.935	34.255	214.890	-124.723	24.138	173.432	186.079	-84.027	212.042	90.845	-7.003	154.487	216.107	-16.453	136.659	0.00055292	0.00055093	0.00022247	1382	2.2987e-06	4.1722e-06	1381.3	374.01	3.5526e-06	8.5961e-06	426.61	140.75	123.05	42.188	4.9457e-06	52.162	0.00069277	0.00075497	0.00020219	1397.3	7.7952e-06	8.0763e-06	1399.9	380.44	7.922e-06	8.3357e-06	434.12	144.66	126.17	43.318	8.1003e-06	53.716	172.552	-46.392	-36.362	-128.747	-5.934	-0.535	-128.893	-124.157	-47.614	-2.124	-124.335	-120.809	-120.427	-115.457	-7.121	-116.213	-8191	255	
6351.419	1	1	0	0	0.18765	0.10433	0.27852	0.38791	0.13839	0.04096	0.30207	0.14826	0.24623	0.16689	0.078908	0.066485	0.11935	0.22656	0.055502	0.16617	-0.44167	0.0020833	-0.97708	-1.0521	-0.19583	-0.99583	-0.60208	-0.5375	-1.0438	-0.0875	-0.88542	-0.79583	-0.11458	-0.95	-0.23542	-0.36458	75.327	167.487	-13.893	174.332	-125.290	19.028	140.723	211.840	-132.031	117.387	90.662	73.711	50.440	-139.940	-17.203	42.288	0.00056732	0.00064885	0.00018656	1378.3	6.2183e-06	6.6615e-06	1376.9	375.11	6.4561e-06	6.1644e-06	429.06	140.56	123.2	42.137	3.0775e-06	52.072	0.00068068	0.00073407	0.00019962	1396.7	8.0312e-06	7.9574e-06	1400.1	380.7	7.8672e-06	8.1196e-06	434.83	144.67	126.07	43.256	7.8152e-06	53.587	180.908	-61.118	-42.767	-129.049	-1.231	13.716	-129.120	-124.229	-43.562	12.690	-124.586	-121.099	-120.389	-115.460	-16.051	-115.848	-8191	255	
6351.538	1	1	0	0	0.26714	0.29227	0.055409	0.16984	0.066167	0.23583	0.21555	0.13319	0.26542	0.16368	0.083628	0.02661	0.19091	0.14499	0.029271	0.13641	-0.63958	-0.079167	-0.68542	-0.93333	0.089583	-1.0812	-0.5875	-0.41458	-0.87708	-0.11875	-0.69583	-0.98542	-0.11458	-1.1333	-0.5	-0.17292	133.217	157.538	-98.282	-115.919	-68.143	119.258	172.796	161.197	46.702	3.590	-126.143	160.969	176.564	206.457	89.015	-81.607	0.00053268	0.00051856	0.00011989	1380.7	4.0372e-06	6.2528e-06	1381	373.78	4.0042e-06	4.0875e-06	428.09	141.47	122.98	42.074	3.2734e-06	51.999	0.00067359	0.00071767	0.00019643	1396.4	7.7318e-06	7.839e-06	1398.8	380.66	7.749e-06	7.8256e-06	434.44	144.86	126.08	43.215	7.9174e-06	53.617	177.561	-37.956	-47.189	-129.073	-18.848	-17.623	-129.386	-124.405	-62.630	13.926	-124.773	-121.312	-120.676	-115.790	-5.713	-116.069	-8191	255	
6351.634	1	1	0	0	0.11988	0.094625	0.12581	0.032621	0.094459	0.36231	0.31366	0.11413	0.20221	0.079251	0.13804	0.12481	0.23974	0.12671	0.11732	0.24656	-0.65417	-0.12917	-0.40625	-1.1854	-0.095833	-0.9875	-0.69583	-0.41042	-1.0354	-0.097917	-0.47292	-0.95417	-0.28125	-0.9375	-0.50833	-0.325	-1.317	122.636	69.938	-59.151	50.366	14.276	147.493	151.870	60.242	-140.726	138.016	142.822	154.318	-3.230	-19.280	167.716	0.00046229	0.00055964	0.00011073	1378	4.0355e-06	5.6558e-06	1378.1	372.85	4.2264e-06	3.3807e-06	427.79	140.87	122.91	41.959	2.8183e-06	52.087	0.00066831	0.00073529	0.00019867	1397.1	7.8959e-06	7.8837e-06	1399	380.03	7.8403e-06	8.0169e-06	434.58	145.02	125.81	43.19	8.0087e-06	53.687	172.800	-56.570	-17.784	-128.872	6.001	14.496	-129.285	-124.448	-48.838	7.485	-124.761	-121.104	-120.459	-115.422	-19.551	-116.135	-8191	255	
6351.730	1	1	0	0	0.33732	0.40222	0.13772	0.26488	0.26191	0.19212	0.20385	0.17599	0.20063	0.24989	0.37985	0.32429	0.088488	0.1625	0.14536	0.31403	-0.58542	-0.36042	-0.32292	-0.97292	0.04375	-0.8	-0.88125	-0.022917	-0.76042	-0.425	-0.43125	-1.1292	-0.225	-0.62917	-0.7625	-0.1625	113.529	-97.899	16.103	181.200	69.153	74.240	138.287	157.437	210.244	-113.476	149.902	-131.748	90.455	167.298	-87.032	167.864	0.00046744	0.00060935	9.0869e-05	1379.9	2.7757e-06	4.057e-06	1380	373.62	5.9833e-06	5.324e-06	426.34	141.05	122.64	42.18	6.4732e-06	51.896	0.00067983	0.0007348	0.00019812	1398	7.9314e-06	7.9121e-06	1398.9	380.1	7.7627e-06	7.9593e-06	433.92	144.48	126.02	43.222	7.6712e-06	53.551	173.995	-46.458	-76.567	-128.896	-60.376	34.173	-129.035	-124.314	-57.521	13.359	-124.617	-121.154	-120.438	-115.367	-6.681	-116.346	-8191	255	
6351.851	1	1	0	0	0.2742	0.056768	0.29334	0.1108	0.21962	0.085966	0.28192	0.21246	0.21567	0.085757	0.11047	0.059076	0.11125	0.12815	0.25305	0.2994	-0.38125	-0.35833	-0.2625	-1.1792	-0.17083	-0.7125	-1.0229	-0.30833	-1.1042	-0.29167	-0.28542	-0.98542	-0.31042	-0.43333	-0.9875	-0.19792	-120.691	156.192	-70.605	-89.130	203.341	-89.938	142.511	76.089	-134.869	207.994	124.003	186.652	-131.014	149.192	85.965	172.701	0.00049819	0.0003144	0.00021032	1378.7	3.5753e-06	6.9065e-06	1379.4	374.55	4.5153e-06	7.7358e-06	427.02	141.05	122.63	42.214	4.7446e-06	51.965	0.00067454	0.00072189	0.00020044	1395.2	7.9098e-06	7.8644e-06	1398.7	380.56	7.7616e-06	7.9416e-06	434.2	144.68	125.72	43.195	7.7641e-06	53.573	176.379	-104.348	-37.537	-128.948	-2.701	39.648	-129.232	-124.487	-58.633	28.234	-124.958	-121.164	-120.459	-115.712	-12.995	-115.815	-8191	255	
6351.947	1	1	0	0	0.211	0.059525	0.17459	0.085123	0.18441	0.10563	0.32152	0.22178	0.2365	0.15194	0.19497	0.31798	0.15269	0.0874	0.23048	0.23472	-0.40208	-0.60833	0.0041667	-1.125	-0.19167	-0.32292	-1.1708	-0.34167	-0.96667	-0.71875	-0.16875	-1.0292	-0.40208	-0.625	-0.97917	-0.045833	139.991	-114.497	54.292	-91.235	-52.503	-14.089	158.457	-133.880	-27.626	15.935	120.715	176.804	200.822	202.988	-98.120	206.581	0.00055756	0.00054337	0.00012065	1379.6	6.8939e-06	5.6472e-06	1379.8	374.95	1.9175e-06	2.7101e-06	426.13	140.82	123.12	42.158	4.012e-06	52.014	0.00069017	0.00070691	0.00020229	1394.9	8.0085e-06	7.9169e-06	1397.4	380.79	7.8796e-06	7.8514e-06	433.73	144.44	125.87	43.245	7.9871e-06	53.55	173.486	-63.508	-38.304	-128.875	-16.737	7.000	-129.453	-124.589	-107.286	5.826	-124.861	-120.999	-120.711	-115.295	-20.962	-116.116	-8191	255	
6352.043	1	1	0	0	0.2964	0.15031	0.25669	0.30976	0.21261	0.18855	0.10103	0.40308	0.20815	0.14561	0.065412	0.16427	0.33966	0.20234	0.16477	0.30117	-0.24583	-0.775	-0.095833	-1.1437	-0.18125	-0.32083	-1.2062	-0.20208	-0.76667	-0.77292	-0.13125	-1	-0.67292	-0.40833	-0.90625	-0.28958	197.796	205.386	216.072	175.252	134.418	-34.784	189.660	201.918	-38.561	108.178	174.440	159.698	-135.166	-98.834	213.981	47.646	0.00047853	0.00073343	9.9131e-05	1378.3	5.1356e-06	5.6338e-06	1382.2	373.03	5.6743e-06	6.6576e-06	428.66	140.94	123.25	42.405	4.4869e-06	52.141	0.0006771	0.00071711	0.00020014	1395.9	7.6144e-06	7.6988e-06	1400.3	379.42	7.5638e-06	7.7231e-06	434.64	144.72	125.75	43.321	7.6265e-06	53.686	170.430	-31.157	-29.598	-128.955	-6.879	-14.816	-129.245	-124.463	-41.985	-9.348	-124.624	-121.248	-120.692	-115.700	9.631	-116.042	-8191	255	
6352.139	1	1	0	0	0.050388	0.050586	0.31922	0.14542	0.48254	0.18449	0.39576	0.08425	0.037094	0.20436	0.15692	0.070621	0.25209	0.21824	0.13148	0.18214	-0.2625	-0.83333	0.029167	-1.0604	-0.57917	-0.30417	-1.3292	-0.34583	-0.56458	-0.82292	-0.13542	-0.96667	-0.48542	-0.27708	-0.87292	-0.48125	171.086	62.097	-112.164	103.766	-93.954	-70.085	169.281	-140.030	-86.980	-98.321	135.318	85.094	206.750	162.287	-59.703	160.141	0.00054012	0.00032004	0.00019043	1378.5	3.5297e-06	4.7083e-06	1380.1	374	5.1355e-06	4.7357e-06	426.55	140.88	122.89	42.313	5.7054e-06	52.201	0.00066427	0.00070005	0.0002007	1394.4	7.8567e-06	7.9263e-06	1398.4	380.09	7.8311e-06	7.8732e-06	433.67	144.56	125.88	43.291	7.8466e-06	53.586	172.819	-21.574	-85.683	-128.967	-39.745	27.457	-129.492	-124.592	-26.939	-17.836	-124.796	-121.140	-120.731	-115.617	-16.544	-116.280	-8191	255	
6352.235	1	1	0	0	0.092763	0.24002	0.096117	0.28163	0.081184	0.15841	0.35183	0.11593	0.075289	0.21632	0.17236	0.13986	0.094721	0.19621	0.36303	0.060874	-0.014583	-0.65833	-0.077083	-0.94792	-0.71042	-0.027083	-1.1271	-0.53542	-0.39167	-0.92917	-0.014583	-0.73542	-0.72708	-0.022917	-0.99792	-0.61458	-137.916	-102.409	151.432	-109.022	-11.652	167.716	165.378	141.151	123.651	180.987	180.217	195.100	-7.415	1.428	-80.554	-103.818	0.00043797	0.00056279	0.00012407	1379.2	5.2097e-06	5.941e-06	1374.9	373.97	3.0822e-06	2.3426e-06	427.17	141.66	123.21	42.104	2.5957e-06	51.893	0.00067542	0.00071971	0.00020192	1395.9	7.9538e-06	8.1762e-06	1397.7	379.64	7.9604e-06	8.0157e-06	433.66	144.92	126.01	43.169	7.9825e-06	53.463	175.811	-84.978	-59.854	-129.057	-21.182	-3.000	-129.306	-124.467	-39.876	21.814	-124.746	-121.096	-120.451	-115.523	-22.150	-116.114	-8191	255	
6352.331	1	1	0	0	0.15804	0.032688	0.065994	0.0328	0.073085	0.26831	0.23462	0.11626	0.29881	0.16814	0.0733	0.20362	0.14598	0.24978	0.22393	0.20521	0.14167	-0.78333	0.064583	-0.68333	-0.76458	-0.16875	-1.1708	-0.55	-0.29167	-1.1771	-0.25417	-0.74583	-1.0396	-0.18542	-0.86667	-0.31667	129.027	178.048	168.402	5.412	46.928	-3.819	-115.582	158.378	104.023	-79.102	172.490	62.305	106.968	-124.095	-86.700	-27.316	0.00049319	0.00025078	0.0001205	1378.2	4.2604e-06	3.6133e-06	1382.4	372.63	6.4278e-06	4.2834e-06	425.01	141.17	122.61	42.14	2.6496e-06	52.011	0.00069386	0.0007323	0.00020179	1397.6	7.9157e-06	8.2562e-06	1401.6	380.43	8.0526e-06	7.8783e-06	434.07	144.65	125.82	43.241	7.933e-06	53.606	172.619	-55.542	-54.794	-128.886	6.789	71.833	-129.206	-124.611	-19.904	-28.947	-124.669	-120.992	-120.588	-115.667	0.248	-116.049	-8191	255	
6352.450	1	1	0	0	0.10942	0.17465	0.20025	0.34811	0.11246	0.21184	0.42673	0.13067	0.17815	0.17032	0.10233	0.30282	0.23758	0.10916	0.17716	0.25202	0.29375	-0.91458	-0.0875	-0.74583	-0.97292	-0.28333	-1.2563	-0.77917	-0.17083	-0.99167	-0.44792	-0.54583	-0.95833	-0.10625	-0.875	-0.70417	-110.783	52.634	71.270	195.082	2.843	111.749	178.283	193.539	-54.925	-76.263	-26.267	205.136	-130.527	152.362	-86.007	162.339	0.00047375	0.00061273	0.00016609	1377.9	5.1934e-06	4.2006e-06	1380.6	374.14	7.2958e-06	8.9936e-06	426.17	140.66	123.26	42.15	4.3431e-06	52.176	0.00068705	0.00072527	0.00020087	1395.5	8.0466e-06	8.0431e-06	1400.5	380.02	7.9059e-06	8.0553e-06	433.78	144.41	126.02	43.16	7.9923e-06	53.637	176.889	-47.783	-42.561	-128.748	-10.802	54.465	-129.107	-124.447	-28.265	13.874	-124.874	-120.841	-120.391	-115.676	-19.030	-116.231	-8191	255	
6352.546	1	1	0	0	0.30678	0.22532	0.17183	0.35038	0.31391	0.13027	0.23778	0.13858	0.084816	0.22501	0.24169	0.086647	0.12297	0.030228	0.30263	0.1671	0.1875	-1.0688	-0.13958	-0.72917	-0.875	-0.089583	-0.84792	-0.77917	-0.095833	-0.96667	-0.49792	-0.30208	-1.1688	-0.22917	-0.53542	-0.98125	145.637	86.136	-43.306	-126.801	50.951	-102.925	128.931	108.206	-61.754	101.831	160.505	-39.460	-109.860	62.156	-68.710	93.412	0.00048024	0.00020249	4.5713e-05	1375.2	3.1229e-06	4.9341e-06	1375.6	373.9	3.6331e-06	4.0881e-06	425.75	141.07	122.55	42.27	4.3754e-06	52.108	0.00069368	0.00073385	0.00020973	1395.5	7.787e-06	7.9924e-06	1398.4	379.78	7.9307e-06	8.176e-06	433.58	144.49	125.74	43.258	7.9577e-06	53.617	176.416	-34.056	-77.626	-128.754	7.462	-42.774	-129.010	-124.477	-51.821	-13.755	-124.782	-120.868	-120.401	-115.355	30.406	-115.949	-8191	255	
6352.643	1	1	0	0	0.15567	0.058384	0.2855	0.17807	0.28584	0.36366	0.31957	0.41299	0.085301	0.12759	0.14537	0.22657	0.15138	0.14205	0.14864	0.13831	0.39167	-0.84167	-0.52708	-0.37917	-0.89167	-0.025	-0.8625	-0.93958	0.13542	-0.84792	-0.72708	-0.31042	-1.0208	-0.30208	-0.625	-1.0125	63.521	46.380	-43.407	-134.193	31.721	217.112	162.526	192.140	157.918	52.920	200.357	-138.737	189.222	190.655	141.849	-115.599	0.00046137	0.00040153	0.00016155	1382.1	4.4537e-06	4.0779e-06	1379.3	374.38	3.8214e-06	8.9036e-06	425.09	140.96	123.27	42.226	4.8355e-06	52.235	0.00070557	0.00072536	0.00020421	1397.7	7.6488e-06	8.2838e-06	1398.5	380.24	8.0671e-06	8.0832e-06	433.43	144.52	126.06	43.203	8.117e-06	53.612	178.739	-35.456	-38.471	-128.955	-36.906	4.887	-129.082	-124.366	-39.033	26.888	-124.810	-120.876	-120.267	-115.301	-14.670	-115.990	-8191	255	
6352.739	1	1	0	0	0.091173	0.21594	0.4322	0.11438	0.2253	0.065442	0.13229	0.11361	0.15431	0.12252	0.35455	0.23419	0.21371	0.090149	0.11031	0.31304	0.36667	-0.8625	-0.53958	-0.52083	-0.91458	-0.2	-0.61042	-1.0917	-0.17708	-0.89375	-0.76458	-0.26042	-0.98542	-0.38333	-0.40417	-0.8375	-102.714	-123.754	180.333	110.683	129.015	-131.657	144.262	-107.191	-119.142	161.798	167.358	199.428	186.974	-133.215	47.893	201.834	0.00053242	0.00053187	0.00020515	1380.3	3.3576e-06	3.0451e-06	1381.8	374.29	4.7086e-06	4.7873e-06	426.4	140.98	123.11	42.146	6.2426e-06	51.857	0.0007095	0.00073787	0.00020671	1396.8	7.8704e-06	8.1504e-06	1400.4	380.67	8.0678e-06	8.182e-06	433.65	144.47	126.07	43.203	8.1335e-06	53.559	177.269	-36.479	-39.062	-128.758	-13.219	14.560	-129.122	-124.218	-25.145	26.527	-124.745	-120.892	-120.177	-115.453	-4.424	-115.962	-8191	255	
6352.835	1	1	0	0	0.15598	0.24551	0.23907	0.16216	0.13169	0.10657	0.081556	0.17101	0.17034	0.054279	0.15402	0.11578	0.23436	0.10431	0.096948	0.20743	0.45	-0.68958	-0.53542	-0.29167	-1.1458	-0.26667	-0.51042	-0.85	-0.022917	-0.74792	-0.9	-0.2125	-1.1896	-0.37083	-0.13958	-1.0292	59.876	89.593	214.246	154.706	185.741	-65.836	107.478	146.062	-5.062	141.478	100.559	140.649	-103.556	-50.360	124.497	-69.040	0.000545	0.00040733	9.6818e-05	1380.2	4.7108e-06	6.6523e-06	1380	373.25	3.2156e-06	6.5482e-06	427.2	141.25	123.43	42.103	4.2155e-06	52.053	0.00070154	0.00072787	0.00020425	1395.3	7.9225e-06	8.0963e-06	1400.7	379.86	8.1662e-06	8.0616e-06	434.22	144.41	126.15	43.222	8.1143e-06	53.634	180.001	-41.463	-47.067	-128.688	-37.345	16.241	-128.863	-124.341	-29.313	24.631	-124.668	-120.959	-120.350	-115.305	-25.709	-116.036	-8191	255	
6352.931	1	1	0	0	0.11133	0.087515	0.1253	0.35135	0.15064	0.10201	0.12302	0.13039	0.095421	0.40476	0.038253	0.25577	0.030384	0.064628	0.10004	0.24541	0.34375	-0.7	-0.72708	-0.10833	-0.80208	-0.53333	-0.45208	-1.0771	-0.2	-0.53333	-0.99167	-0.26042	-1.0063	-0.45	0.022917	-1.0021	68.686	-48.960	-8.456	183.322	-128.051	83.141	174.742	190.888	117.095	-79.285	117.019	177.876	-58.991	-53.067	-61.510	192.620	0.00049358	0.00061836	0.00015683	1379.8	3.677e-06	4.8795e-06	1380.2	374.67	6.1343e-06	4.249e-06	424.9	140.83	122.66	42.211	6.0857e-06	51.874	0.00069363	0.00072441	0.00020701	1395.2	7.8674e-06	8.1104e-06	1400.4	379.98	7.9587e-06	8.214e-06	433.33	144.41	125.83	43.128	8.0615e-06	53.584	176.096	-78.989	-64.929	-128.689	-12.133	13.395	-129.010	-124.296	-24.567	-20.861	-124.565	-121.146	-120.227	-115.539	-22.503	-115.953	-8191	255	
6353.027	1	1	0	0	0.057679	0.053876	0.23902	0.427	0.35029	0.10504	0.21341	0.18634	0.22731	0.10058	0.23301	0.072261	0.13888	0.19107	0.24816	0.47395	0.2375	-0.40625	-0.79583	-0.35833	-1.025	-0.69167	-0.42292	-1.225	-0.41042	-0.375	-1.1875	-0.30625	-0.94792	-0.73125	-0.089583	-0.93125	140.680	-58.994	-8.525	164.967	-92.406	56.078	172.423	170.310	81.114	199.106	-137.187	151.050	-62.962	83.483	197.122	179.447	0.00047619	0.00045312	0.0001197	1384.8	5.8336e-06	1.5563e-06	1375.5	373.24	5.402e-06	8.5862e-06	425.13	141.36	123.32	42.06	4.0879e-06	52.154	0.00068648	0.00072573	0.00020435	1396.4	7.8846e-06	8.0929e-06	1398.1	379.62	7.9789e-06	7.864e-06	433.42	144.4	125.94	43.13	7.9502e-06	53.621	177.179	-45.242	-56.647	-128.730	-29.783	-7.141	-128.951	-124.428	-40.335	-10.961	-124.721	-121.086	-120.161	-115.537	-13.865	-115.941	-8191	255	
6353.123	1	1	0	0	0.011108	0.22069	0.068366	0.42144	0.16138	0.026644	0.11415	0.095503	0.11306	0.19851	0.050994	0.18549	0.11455	0.33416	0.17261	0.22506	-0.11875	-0.39583	-1.1812	-0.425	-0.65833	-0.625	-0.19167	-1.1208	-0.37917	-0.2625	-1.0042	-0.25208	-0.75	-0.77292	-0.11875	-1.1375	-118.028	19.652	-16.791	180.573	89.423	-117.088	-101.911	211.379	82.881	-120.980	-73.727	28.354	159.518	202.646	174.409	163.170	0.00049997	0.00030761	0.00013147	1376.6	3.0534e-06	4.1436e-06	1371.3	373.66	5.2606e-06	7.4302e-06	426.35	140.58	122.82	42.141	3.7775e-06	51.854	0.00066586	0.00071975	0.00020254	1392.8	7.6989e-06	7.9496e-06	1397.1	379.78	7.8733e-06	7.9029e-06	433.25	144.1	125.73	43.197	7.9181e-06	53.524	170.979	-41.391	-38.013	-128.725	-0.096	-13.988	-128.857	-124.217	-24.171	1.702	-124.694	-121.040	-119.952	-115.597	-31.893	-116.397	-8191	255	
6353.242	1	1	0	0	0.073712	0.098582	0.14451	0.38812	0.22986	0.29928	0.25936	0.47238	0.1453	0.050051	0.1613	0.29448	0.36902	0.068458	0.072163	0.12832	-0.083333	-0.17292	-0.98333	-0.30625	-0.30833	-0.99167	-0.11458	-0.69167	-0.63958	-0.045833	-1.2125	-0.30417	-0.50833	-1	-0.125	-1.0625	203.857	-59.498	183.776	136.459	87.144	94.828	187.917	120.510	89.038	-76.187	-102.844	-138.218	186.535	126.920	183.050	112.059	0.00052768	0.00031727	0.00019861	1379	5.3622e-06	3.9853e-06	1376.6	373.73	4.8424e-06	3.0682e-06	426.11	141.22	123.5	42.12	6.1618e-06	51.867	0.00066894	0.00071278	0.00019746	1393.8	7.4826e-06	7.8554e-06	1397	380.35	7.8839e-06	7.9552e-06	433.86	144.36	125.91	43.211	7.8555e-06	53.467	173.292	-50.837	-65.059	-128.857	-16.425	-0.758	-129.038	-124.425	-58.333	-35.737	-124.609	-120.842	-120.404	-115.483	-49.935	-115.914	-8191	255	
6353.316	1	1	0	0	0.28178	0.12362	0.17166	0.30711	0.24552	0.17566	0.32042	0.21067	0.1583	0.25283	0.33339	0.11368	0.26784	0.27951	0.028107	0.13645	-0.32083	-0.12708	-0.80208	-0.58333	-0.37292	-1.0438	-0.23125	-1.0708	-0.7	0.15208	-1.0542	-0.37917	-0.49167	-1.0979	0.085417	-0.85	188.811	-69.290	67.916	192.812	137.026	207.252	96.526	-43.736	33.532	-126.478	193.742	217.362	176.105	182.607	40.149	133.150	0.00047132	0.00044077	0.00014094	1376.4	4.0926e-06	2.699e-06	1374.3	375.16	2.756e-06	6.5561e-06	424.81	140.71	123.05	42.065	4.4223e-06	52.116	0.00068425	0.00074201	0.00020032	1393.9	7.8146e-06	7.9885e-06	1396.3	380.28	8.0506e-06	8.0855e-06	433.73	144.31	125.84	43.199	7.8637e-06	53.614	170.474	-47.922	-30.862	-128.864	-13.652	0.253	-129.094	-124.394	-47.641	0.170	-124.654	-121.066	-120.445	-115.310	-55.496	-115.855	-8191	255	
6353.412	1	1	0	0	0.078557	0.09367	0.12287	0.2666	0.034658	0.029248	0.21373	0.10703	0.14212	0.054079	0.27254	0.092532	0.16069	0.21114	0.24492	0.22248	-0.40625	0.054167	-0.98333	-0.51042	-0.40625	-1.0375	-0.4	-0.81042	-0.82083	0.00625	-1.0312	-0.65833	-0.29375	-1.1146	-0.33333	-0.62708	-24.533	138.675	191.297	175.824	94.718	209.190	187.200	180.483	-88.862	124.258	-111.817	-100.002	-36.467	-141.183	-21.878	167.763	0.00048146	0.00065295	0.00020955	1377.4	4.5355e-06	4.0876e-06	1377.5	373.49	2.4505e-06	6.3518e-06	426.2	140.72	122.56	42.198	1.5713e-06	51.88	0.00068251	0.00073321	0.0002041	1394.8	7.7996e-06	7.8243e-06	1397	380.4	7.6225e-06	7.9253e-06	433.83	144.3	125.76	43.29	7.7853e-06	53.538	174.296	-70.285	-62.242	-128.863	18.105	-43.408	-129.034	-124.294	-59.520	26.120	-124.386	-121.008	-120.231	-115.465	-25.249	-115.842	-8191	255	
6353.531	1	1	0	0	0.34497	0.27513	0.10333	0.17737	0.11291	0.078355	0.50267	0.26681	0.21482	0.080308	0.25036	0.10459	0.057836	0.25299	0.026593	0.15944	-0.5	-0.04375	-0.93542	-0.67708	0.083333	-1.0083	-0.51458	-0.67083	-0.82292	0.00625	-1.0479	-0.78958	-0.25417	-1.3646	-0.27292	-0.54583	170.326	32.963	170.305	-115.049	-21.655	94.392	120.338	-141.026	1.105	100.096	-78.426	-81.606	45.476	-78.556	-19.414	-98.574	0.00049212	0.00061105	0.00018365	1375.6	3.6927e-06	6.3186e-06	1376.2	373.5	3.2998e-06	6.6852e-06	425.2	140.85	122.87	42.001	2.6089e-06	52.125	0.00069594	0.00071404	0.00019641	1392.7	7.8162e-06	7.8727e-06	1396.4	379.75	7.8118e-06	7.8861e-06	433.33	144.42	125.74	43.22	8.0502e-06	53.581	181.436	-54.392	-64.062	-128.768	-73.742	-1.734	-128.973	-124.268	-49.480	-5.912	-124.618	-120.969	-119.945	-115.404	21.180	-115.975	-8191	255	
6353.627	1	1	0	0	0.017033	0.056294	0.18255	0.19892	0.39905	0.18754	0.18567	0.17657	0.28041	0.18117	0.4822	0.17793	0.040135	0.27365	0.11769	0.3159	-0.82708	-0.17292	-0.75417	-0.88333	-0.23542	-0.99583	-0.71875	-0.70833	-1.1812	-0.15208	-0.96042	-0.85833	-0.29375	-1.0417	-0.42292	-0.40208	94.316	65.833	-23.947	172.445	25.669	207.082	204.266	192.984	-124.423	99.204	173.677	142.518	119.988	113.311	-39.865	163.708	0.00049492	0.00052714	0.00010908	1379.8	4.1708e-06	4.5466e-06	1373.8	371.64	4.9867e-06	2.7602e-06	426.77	141.34	122.71	42.189	3.4812e-06	51.949	0.00068372	0.00072309	0.00020057	1395.2	7.7475e-06	7.8367e-06	1396.4	379.24	7.7946e-06	7.8353e-06	433.98	144.59	125.65	43.214	7.9317e-06	53.568	166.831	-26.469	-69.232	-128.751	-33.695	44.618	-128.985	-124.012	-25.752	15.559	-124.096	-120.716	-120.337	-115.095	2.685	-115.708	-8191	255	
6353.723	1	1	0	0	0.15259	0.1174	0.039573	0.21475	0.19103	0.094915	0.18724	0.16385	0.27636	0.21739	0.053891	0.18027	0.22784	0.16209	0.19314	0.031396	-0.48958	-0.13958	-0.64792	-1.1458	-0.095833	-0.98333	-0.77083	-0.48958	-0.925	-0.12083	-0.92292	-0.93333	-0.28958	-1.0667	-0.575	-0.38542	137.840	148.030	93.537	106.448	205.498	-20.255	141.379	-133.479	198.155	36.796	172.943	-43.843	-114.097	190.904	58.486	188.116	0.00045257	0.00059265	0.00013471	1375.7	5.2411e-06	4.389e-06	1377.5	372.94	6.0893e-06	6.7869e-06	425.03	140.86	122.82	42.303	5.6516e-06	51.936	0.00068466	0.00072453	0.00020306	1394.3	7.8301e-06	7.8255e-06	1396.9	379.87	7.7638e-06	7.899e-06	433.38	144.3	125.66	43.272	7.7739e-06	53.467	170.104	-63.527	-57.924	-128.741	0.309	49.736	-128.875	-124.147	-39.183	22.941	-124.460	-120.748	-120.358	-115.069	-38.980	-115.657	-8191	255	
6353.819	1	1	0	0	0.089192	0.3244	0.33474	0.18384	0.079165	0.071553	0.25945	0.13902	0.1096	0.094354	0.068358	0.31495	0.15984	0.18213	0.16339	0.22474	-0.76667	-0.20625	-0.6625	-1.0875	-0.1625	-0.93958	-0.90625	-0.50208	-1.2	-0.53333	-0.61667	-1.2125	-0.22292	-0.91875	-0.8	-0.38542	-46.842	206.969	65.719	189.684	168.993	-90.338	183.158	-101.596	56.838	105.061	80.416	172.343	177.469	167.389	177.580	133.900	0.00041718	0.00032183	8.9985e-05	1384	5.0021e-06	5.0622e-06	1374.2	374.41	3.5771e-06	7.0907e-06	426.82	141.19	123.65	42.154	5.7168e-06	51.884	0.0006802	0.00071285	0.00019856	1395.8	7.6979e-06	7.8752e-06	1396.8	379.9	7.7779e-06	8.1228e-06	433.26	144.6	125.96	43.197	7.9225e-06	53.461	175.313	-64.867	-48.431	-128.643	-18.095	1.787	-129.107	-124.114	-38.846	14.720	-124.647	-120.804	-120.353	-115.159	-29.737	-115.930	-8191	255	
6353.940	1	1	0	0	0.14503	0.15404	0.12334	0.27704	0.34853	0.25643	0.22815	0.15243	0.14937	0.23519	0.1037	0.059485	0.075365	0.27965	0.019954	0.058249	-0.6125	-0.43333	-0.44792	-1.2396	-0.095833	-0.76458	-1.0938	-0.375	-0.96875	-0.40833	-0.34375	-1.1458	-0.21667	-0.67083	-0.9125	-0.43333	-49.154	-109.473	10.008	-135.784	-28.823	189.940	195.520	112.382	200.021	-126.379	165.993	120.943	-114.514	-89.029	32.546	4.659	0.00051058	0.00049901	0.00015469	1376.2	3.807e-06	4.6819e-06	1378.4	372.4	3.6536e-06	6.6673e-06	425.96	141.35	122.7	42.171	1.9855e-06	51.994	0.00068323	0.00071412	0.00019934	1393.5	7.9761e-06	7.8185e-06	1397	379.85	7.712e-06	7.8233e-06	433.4	144.46	125.64	43.233	7.9103e-06	53.518	178.209	-53.598	-25.941	-128.852	-39.585	-0.487	-128.947	-124.307	-26.152	0.772	-124.536	-120.906	-120.085	-115.097	-19.413	-116.052	-8191	255	
6354.011	1	1	0	0	0.20834	0.072969	0.24766	0.28661	0.23562	0.21328	0.24199	0.19677	0.2057	0.25366	0.18582	0.27882	0.18411	0.18579	0.32848	0.15018	-0.7125	-0.54167	-0.35208	-1.2167	0.027083	-0.66042	-1.0938	-0.21458	-0.79167	-0.52083	-0.29792	-1.1458	-0.33333	-0.63542	-0.65	-0.17083	149.069	41.189	91.133	198.384	82.210	-116.294	-113.247	121.658	-81.929	0.638	84.329	137.275	-8.731	177.289	31.692	-136.536	0.00053764	0.00064819	0.00010039	1380.9	4.1543e-06	3.7235e-06	1375.5	374.35	4.3665e-06	4.8798e-06	426.74	140.61	123.27	42.283	1.8075e-06	51.996	0.00068272	0.00073329	0.00020096	1397.1	7.9497e-06	7.8669e-06	1396.5	380.07	7.8629e-06	7.9635e-06	432.85	144.18	125.69	43.253	7.8394e-06	53.507	176.567	-63.219	-46.239	-128.682	-23.342	18.167	-129.018	-124.126	-38.534	-24.915	-124.380	-120.743	-120.277	-115.238	-36.373	-115.892	-8191	255	
6354.132	1	1	0	0	0.054752	0.27365	0.22858	0.47246	0.055385	0.18174	0.32676	0.093268	0.07696	0.046625	0.23373	0.093554	0.15312	0.11043	0.013955	0.34469	-0.57917	-0.67083	-0.016667	-1.0958	-0.29583	-0.42917	-1.1521	-0.25	-0.64167	-0.76875	-0.077083	-1.0833	-0.29792	-0.43333	-0.9125	-0.079167	-112.297	63.484	165.484	182.006	-57.907	95.265	128.256	211.541	-52.238	-87.338	179.899	-84.857	-111.616	-93.876	-17.849	153.430	0.00047984	0.00041648	0.00015842	1380.5	1.0449e-06	4.4176e-06	1383.1	374	6.358e-06	7.6335e-06	426.58	141.41	122.97	42.083	2.5602e-06	52.262	0.00067773	0.00072507	0.00020064	1395.5	7.7721e-06	7.9984e-06	1398.6	379.54	7.6229e-06	7.8882e-06	433.66	144.51	125.71	43.168	7.6675e-06	53.599	176.129	-41.946	-31.863	-128.576	-50.307	19.677	-128.819	-124.221	-56.589	20.584	-124.572	-120.947	-120.186	-115.104	23.140	-116.091	-8191	255	
6354.228	1	1	0	0	0.059841	0.074484	0.17222	0.085151	0.12683	0.087727	0.47137	0.25621	0.1258	0.32906	0.38839	0.29046	0.2278	0.15715	0.20094	0.23946	-0.29792	-0.67083	-0.12292	-1.1833	-0.38542	-0.25833	-1.1271	-0.38125	-0.65417	-0.78125	-0.17083	-1.1375	-0.5125	-0.3875	-0.89375	-0.28125	178.271	194.737	-25.415	-92.158	93.926	87.548	83.540	-112.304	74.011	146.887	189.383	-135.436	64.995	192.403	-14.185	65.571	0.00050601	0.00059381	0.00021609	1382.5	5.0784e-06	6.1612e-06	1378.6	373.72	3.0616e-06	4.0266e-06	426.53	140.85	123.14	42.192	3.7853e-06	51.826	0.00067726	0.00072299	0.00019796	1395.2	7.6881e-06	8.0429e-06	1398.4	379.55	7.7998e-06	7.9616e-06	433.12	144.28	125.89	43.168	7.7294e-06	53.494	173.756	-80.824	-17.617	-128.588	-19.229	8.058	-128.674	-124.084	-28.679	-3.966	-124.448	-120.530	-119.829	-115.207	-21.119	-115.957	-8191	255	
6354.323	1	1	0	0	0.11878	0.15986	0.14841	0.16423	0.13441	0.21879	0.25781	0.27087	0.24933	0.1863	0.25396	0.12596	0.073246	0.28244	0.074301	0.1778	-0.17708	-0.70833	0.0041667	-1.0792	-0.61042	-0.21042	-1.1292	-0.29792	-0.48125	-0.97917	-0.12083	-0.83333	-0.85	-0.34167	-1.0063	-0.38958	-0.504	103.748	116.645	172.657	138.891	191.269	165.600	158.181	-141.140	181.286	179.570	133.683	-118.450	-53.532	38.069	40.700	0.00048067	0.00052915	0.00012792	1376.1	4.7718e-06	2.9612e-06	1379.1	374.07	5.5764e-06	5.1798e-06	424.79	140.73	122.58	42.2	1.9663e-06	52.011	0.00068508	0.00072787	0.00020496	1392.8	7.7791e-06	7.883e-06	1398.5	379.86	7.6395e-06	7.923e-06	432.84	144.51	125.58	43.19	7.755e-06	53.485	173.659	-52.683	-65.043	-128.543	-21.317	58.972	-128.730	-124.345	-41.091	-7.518	-124.455	-120.756	-119.946	-115.126	-11.773	-115.882	-8191	255	
6354.419	1	1	0	0	0.20985	0.19013	0.16678	0.084917	0.17863	0.11738	0.33306	0.39344	0.23853	0.086413	0.2953	0.17495	0.22131	0.11142	0.23673	0.23859	0.091667	-0.97708	0.025	-0.975	-0.71875	-0.05625	-1.225	-0.38958	-0.37292	-1.2354	-0.2625	-0.79167	-0.975	-0.14792	-0.86042	-0.59792	111.782	171.131	-114.418	195.928	107.612	-93.895	-110.036	189.828	-58.374	51.518	213.197	159.650	171.565	-76.130	57.884	4.196	0.00048958	0.00070872	0.0001393	1378.5	4.7362e-06	3.7909e-06	1376.9	373.76	6.1549e-06	6.2737e-06	427.41	141.32	122.93	42.179	2.0193e-06	51.937	0.00068102	0.00072303	0.00020281	1392.3	7.7708e-06	7.9286e-06	1396.7	379.67	7.8429e-06	7.9685e-06	433.74	144.48	125.72	43.16	7.9268e-06	53.493	178.440	-52.948	-79.304	-128.756	-28.468	43.558	-128.849	-124.006	-35.492	23.424	-124.358	-120.712	-120.243	-115.229	-8.570	-115.859	-8191	255	
6354.539	1	1	0	0	0.12608	0.14122	0.11689	0.39004	0.1549	0.043025	0.21755	0.12242	0.20198	0.13088	0.12206	0.34334	0.25196	0.11002	0.10952	0.2889	0.060417	-0.89792	0.035417	-0.85	-0.60833	-0.27083	-1.2062	-0.48333	-0.34792	-1.0667	-0.21458	-0.55833	-1.0146	-0.19167	-0.81667	-0.51042	50.662	-12.817	24.608	177.216	-32.572	191.470	145.618	18.576	203.305	61.047	-55.807	-54.698	208.815	70.427	-106.992	-72.204	0.00050413	0.00049155	0.00017786	1386.4	2.1454e-06	4.1777e-06	1380	373.36	3.3799e-06	6.5186e-06	428.37	141.14	122.7	42.129	5.8224e-06	52.045	0.00068275	0.00071717	0.00020136	1396.4	7.9469e-06	8.0507e-06	1398.3	379.65	7.7842e-06	7.7671e-06	434.03	144.41	125.67	43.22	7.694e-06	53.536	172.246	-78.812	-50.728	-128.511	-28.581	-24.554	-128.583	-124.026	-17.565	4.584	-124.355	-120.795	-120.124	-115.090	-12.295	-115.739	-8191	255	
6354.611	1	1	0	0	0.26582	0.14372	0.32233	0.26112	0.32334	0.30624	0.42958	0.11906	0.17619	0.010146	0.12358	0.082378	0.15238	0.076055	0.11331	0.12606	0.13125	-1.0312	-0.21667	-0.53125	-0.725	-0.01875	-1.1896	-0.69167	-0.18958	-1.0583	-0.46667	-0.5875	-0.94375	-0.15833	-0.77917	-0.71875	125.342	140.324	5.448	118.139	6.269	106.908	175.844	-71.170	-78.422	183.386	205.619	75.243	116.348	-74.824	70.099	79.909	0.00042828	0.00035681	0.00015385	1381	4.7818e-06	4.4023e-06	1374.7	374.23	6.1406e-06	3.6955e-06	425.05	140.91	122.74	42.177	4.2741e-06	51.918	0.0006885	0.00070691	0.00020527	1393.3	7.6728e-06	7.957e-06	1396.8	380.15	7.8746e-06	7.8334e-06	432.9	144.41	125.6	43.122	7.6559e-06	53.445	174.036	-49.625	-37.204	-128.537	-24.083	42.246	-128.619	-124.157	-37.687	5.643	-124.509	-120.638	-119.879	-115.124	-25.142	-115.669	-8191	255	
6354.707	1	1	0	0	0.14778	0.27217	0.26939	0.25185	0.12999	0.11847	0.32242	0.23004	0.047618	0.30205	0.31996	0.18132	0.10111	0.24904	0.13924	0.26238	0.31875	-1.0375	-0.16875	-0.40208	-1.0875	-0.18542	-0.81458	-0.93125	-0.25	-1.1458	-0.65417	-0.40625	-0.88958	-0.45417	-0.7	-0.88958	35.652	179.318	3.731	167.648	217.200	-114.264	214.717	-126.883	64.022	-124.480	144.962	-141.847	101.006	-57.641	-85.035	87.827	0.00051104	0.00047548	0.00014846	1376.4	3.3978e-06	5.7203e-06	1377.4	373.27	3.195e-06	3.2864e-06	426.22	140.58	122.92	41.921	3.2669e-06	51.959	0.00068349	0.00072278	0.00019772	1393.7	7.7005e-06	7.8927e-06	1398.1	379.36	7.8318e-06	7.7261e-06	432.8	144.27	125.73	43.155	7.6928e-06	53.499	170.616	-47.320	-60.899	-128.281	12.324	21.946	-128.458	-124.002	-37.245	26.997	-124.331	-120.499	-119.920	-114.884	-0.475	-115.684	-8191	255	
6354.803	1	1	0	0	0.049724	0.19699	0.18459	0.19993	0.083448	0.28025	0.41584	0.21432	0.083809	0.26148	0.13359	0.28187	0.25678	0.051485	0.079756	0.18661	0.34375	-0.76042	-0.54792	-0.4	-1.0167	-0.26667	-0.91042	-1.0063	-0.11667	-0.82292	-0.67083	-0.33333	-0.96042	-0.34583	-0.67708	-0.98125	178.111	-122.251	158.539	184.125	-64.269	178.716	133.869	179.561	-73.350	49.610	123.056	-91.270	-119.897	206.047	147.566	189.164	0.00047586	0.00028571	0.00010201	1376.7	2.7725e-06	4.0098e-06	1375.5	374.39	4.6773e-06	6.3691e-06	427.6	141.08	123.08	42.221	3.1367e-06	52.35	0.0006811	0.00070848	0.0002016	1395.2	7.7037e-06	7.9855e-06	1398.6	379.81	7.757e-06	7.67e-06	433.67	144.44	125.67	43.193	7.855e-06	53.587	170.909	-72.940	-22.568	-128.479	-36.962	-24.396	-128.534	-124.092	-44.390	-6.031	-124.369	-120.477	-120.288	-115.005	-3.643	-115.881	-8191	255	
6354.924	1	1	0	0	0.24829	0.25582	0.13425	0.040865	0.068517	0.16446	0.37929	0.31893	0.04344	0.12366	0.086067	0.40863	0.34171	0.47446	0.15816	0.21014	0.1875	-0.8625	-0.5875	-0.43333	-0.99167	-0.25417	-0.56042	-1.1354	-0.24792	-0.925	-0.75417	-0.11667	-1.2021	-0.33958	-0.38542	-0.8875	-132.748	-90.891	180.616	80.180	161.042	119.980	167.300	205.572	46.552	73.916	-9.262	207.273	-56.258	210.172	135.159	168.329	0.00046424	0.00056123	0.00013594	1380	5.0295e-06	5.4657e-06	1379.5	372.64	5.8153e-06	3.0157e-06	425.38	140.31	122.64	42.071	3.5552e-06	51.901	0.00067874	0.00071614	0.00019826	1393.6	7.6519e-06	7.7967e-06	1397.1	379.42	7.9391e-06	7.7192e-06	433.66	144.14	125.41	43.117	7.612e-06	53.563	179.658	-61.196	-53.711	-128.339	2.464	-10.290	-129.004	-124.106	-46.739	-23.822	-124.486	-120.464	-120.013	-115.212	-8.825	-115.630	-8191	255	
6355.020	1	1	0	0	0.072391	0.23735	0.37767	0.095347	0.11314	0.12092	0.19684	0.38632	0.17859	0.060036	0.33135	0.34053	0.29714	0.08662	0.20056	0.12607	0.27708	-0.79167	-0.54792	-0.50208	-0.99167	-0.38958	-0.525	-1.0521	-0.18125	-0.65833	-0.92708	-0.19375	-1.3188	-0.74792	-0.14167	-1.2125	174.290	216.049	-100.295	160.696	72.966	4.139	156.310	149.636	56.900	41.675	139.415	192.864	77.700	110.059	45.780	57.766	0.00049214	0.00041807	0.00014159	1381.5	2.2916e-06	4.1897e-06	1375.3	372.9	5.3365e-06	1.3812e-06	425.39	140.95	123.39	42.008	1.7846e-06	52.108	0.00067431	0.00070334	0.00019627	1395	7.6739e-06	7.8856e-06	1396.3	379.29	7.7175e-06	7.7818e-06	432.59	144.44	125.85	43.152	7.8359e-06	53.482	176.628	-60.166	-65.059	-128.318	20.647	0.194	-128.437	-123.913	-18.780	41.575	-124.511	-120.135	-120.135	-115.149	-24.708	-115.871	-8191	255	
6355.116	1	1	0	0	0.18846	0.13646	0.039515	0.37461	0.032905	0.20357	0.27841	0.08315	0.024431	0.10504	0.23855	0.17742	0.23311	0.072195	0.006555	0.11772	0.17917	-0.69792	-0.88958	-0.31875	-0.87917	-0.30625	-0.3625	-1.275	-0.35	-0.3	-0.87708	-0.16458	-0.95625	-0.68958	-0.18333	-1.1354	155.619	-65.365	17.988	180.106	5.854	187.717	151.702	-83.318	154.813	-0.611	209.750	-125.292	-83.359	-49.430	42.817	152.048	0.00045727	0.00050704	6.331e-05	1381.6	6.0477e-06	5.9443e-06	1381.9	373.39	3.0513e-06	8.9309e-06	424.09	141.43	122.4	42.275	4.0065e-06	51.958	0.00068283	0.0007101	0.00019988	1393.5	7.6214e-06	7.8865e-06	1398.7	379.62	7.7948e-06	7.8898e-06	432.9	144.54	125.57	43.218	7.7846e-06	53.429	175.987	-76.097	-15.216	-128.496	-49.877	19.839	-128.614	-124.091	-26.664	11.602	-124.412	-120.586	-119.723	-114.852	-17.911	-115.852	-8191	255	
6355.212	1	1	0	0	0.32272	0.0369	0.093731	0.60671	0.1765	0.25566	0.22247	0.17005	0.094176	0.20526	0.095868	0.30061	0.21869	0.37566	0.11896	0.36618	0.058333	-0.4375	-1.0396	-0.56875	-0.625	-0.78333	-0.36875	-1.1375	-0.49375	-0.38125	-1.1854	-0.32708	-0.94792	-0.93542	-0.10833	-1.1437	16.861	13.259	-85.032	184.212	212.706	151.630	175.778	203.678	124.821	126.965	127.576	170.858	201.686	-101.240	-89.924	139.469	0.00047131	0.00031234	0.00018072	1379.6	2.7346e-06	5.549e-06	1373.4	372.99	5.7891e-06	7.8026e-06	424.61	141.01	123.15	42.226	2.5013e-06	51.996	0.00067465	0.0007045	0.00019638	1393.1	7.6447e-06	7.7393e-06	1395	379.72	7.8789e-06	7.9184e-06	432.86	144.26	125.93	43.185	7.7423e-06	53.615	167.860	-55.598	-33.153	-128.323	-66.143	-6.552	-128.762	-123.848	-36.010	18.562	-124.127	-120.364	-119.785	-115.072	-19.618	-115.485	-8191	255	
6355.308	1	1	0	0	0.1635	0.29726	0.12319	0.29245	0.34712	0.15986	0.30362	0.33745	0.12989	0.32345	0.54576	0.27202	0.51367	0.047535	0.27223	0.12752	-0.12292	-0.37708	-0.99792	-0.50833	-0.63958	-0.63958	-0.28125	-1.3125	-0.49792	-0.21875	-1.1562	-0.275	-0.7	-1.0187	-0.047917	-1.1458	160.779	-84.093	163.731	201.109	-118.113	112.651	178.335	113.159	196.547	-78.977	164.912	108.976	181.079	-92.998	207.888	146.956	0.00054102	0.00055551	0.000155	1376.6	4.8565e-06	3.7325e-06	1374.4	373.53	3.9709e-06	5.8726e-06	426.86	141.04	123.17	41.984	3.4245e-06	52.12	0.00066476	0.00070732	0.00019429	1392.8	7.6706e-06	7.8658e-06	1398.1	379.87	7.697e-06	7.7623e-06	433.05	144.5	125.76	43.195	7.8659e-06	53.493	178.342	-64.800	-43.779	-128.259	-15.653	-6.262	-128.589	-124.017	-51.683	14.326	-124.373	-120.457	-119.678	-114.979	-24.927	-115.442	-8191	255	
6355.403	1	1	0	0	0.29662	0.12995	0.25343	0.23674	0.33779	0.016345	0.28874	0.35858	0.16355	0.072656	0.094893	0.2362	0.083464	0.28783	0.27886	0.23265	-0.15208	-0.37917	-0.86875	-0.42292	-0.46875	-0.84167	-0.47917	-1.2188	-0.69167	-0.35208	-1.1104	-0.34167	-0.44167	-1.1729	-0.12708	-1.025	140.125	-88.851	88.809	172.018	173.960	-0.579	211.812	139.558	14.784	158.942	88.414	-83.920	-125.141	202.488	-38.688	166.081	0.00052014	0.00049109	9.3528e-05	1377.8	4.1874e-06	5.7729e-06	1375.3	373.8	3.5519e-06	4.6881e-06	425.54	140.94	122.65	41.954	5.9699e-06	52.212	0.00068717	0.00071262	0.00019726	1393.7	7.7451e-06	7.7718e-06	1396.5	379.95	7.7653e-06	7.9119e-06	433.12	144.29	125.69	43.181	8.0573e-06	53.539	174.566	-81.552	-58.805	-128.300	-28.451	21.266	-128.722	-123.774	-24.029	8.482	-123.985	-120.721	-119.508	-114.898	10.926	-115.512	-8191	255	
6355.501	1	1	0	0	0.20037	0.14521	0.18127	0.16169	0.2191	0.25152	0.2068	0.049627	0.33544	0.12252	0.12269	0.23051	0.011704	0.18394	0.21834	0.27248	-0.38958	-0.25	-1.0812	-0.50208	-0.54792	-0.99167	-0.40625	-1.0667	-0.77917	-0.083333	-1.0938	-0.37917	-0.5	-0.97917	-0.075	-0.69792	-91.902	-106.295	147.304	178.284	17.885	132.078	165.135	174.065	70.641	83.149	23.642	214.709	86.883	-78.015	10.474	137.748	0.00047682	0.00028249	0.00018426	1377.9	1.4968e-06	5.2466e-06	1380.5	373.2	5.9575e-06	6.1638e-06	427	141.45	122.85	42.18	4.6775e-06	52.063	0.0006845	0.00072387	0.00019994	1394	7.856e-06	7.9713e-06	1398.4	379.46	7.8164e-06	8.0507e-06	433.12	144.53	125.73	43.199	8.0511e-06	53.561	179.754	-79.521	-8.146	-128.170	25.219	22.084	-128.560	-123.546	-33.327	6.497	-124.013	-120.412	-119.465	-114.880	-13.912	-115.384	-8191	255	
6355.620	1	1	0	0	0.073018	0.28261	0.1153	0.35815	0.23299	0.034818	0.18205	0.022757	0.2856	0.12383	0.096995	0.2561	0.16399	0.36363	0.24122	0.12194	-0.29792	-0.12917	-0.86042	-0.72708	-0.26667	-1.0708	-0.40417	-0.725	-0.82708	-0.14375	-0.96458	-0.69792	-0.375	-1.1729	-0.27917	-0.77708	-97.392	-137.505	-118.631	193.787	-79.865	-78.363	-139.384	-78.222	127.491	111.184	-93.537	-115.223	192.932	185.945	66.457	127.012	0.00048051	0.00033298	0.00013989	1379.8	2.0463e-06	5.1706e-06	1370.5	373.49	4.1344e-06	5.2239e-06	425.44	140.76	122.78	42.048	5.347e-06	52.158	0.00068912	0.0007166	0.00019887	1393	7.7813e-06	7.9077e-06	1394.8	379.8	7.701e-06	8.0095e-06	433.1	144.27	125.71	43.106	7.9689e-06	53.54	171.821	-65.039	-44.430	-128.248	-13.371	6.185	-128.692	-123.907	-22.699	0.775	-124.404	-120.670	-120.088	-115.118	-16.520	-115.679	-8191	255	
6355.716	1	1	0	0	0.20808	0.11551	0.1688	0.25206	0.087049	0.15478	0.34343	0.053724	0.1273	0.082786	0.07458	0.050508	0.22712	0.12622	0.2178	0.38239	-0.57917	-0.2	-0.75625	-0.75833	-0.18542	-0.99375	-0.52292	-0.43958	-1.0167	-0.23125	-1.0167	-1.0479	-0.25208	-1.1104	-0.34792	-0.4875	153.293	112.286	167.536	197.520	186.392	62.374	216.288	-1.297	-81.406	59.271	178.235	130.464	78.313	194.379	113.467	184.758	0.00047671	0.00071696	0.00017099	1379.7	3.9223e-06	3.9648e-06	1378	373.56	4.4312e-06	6.8876e-06	426.13	140.94	123.34	42.021	4.2783e-06	52.027	0.00068161	0.00072886	0.00019509	1393.5	7.8214e-06	7.8787e-06	1396.4	379.79	7.7092e-06	8.0576e-06	433.92	144.35	125.9	43.106	7.9406e-06	53.543	177.287	-38.207	-63.586	-128.410	-39.311	18.092	-128.684	-123.886	-39.459	27.036	-124.122	-120.592	-119.674	-115.072	-36.039	-115.726	-8191	255	
6355.812	1	1	0	0	0.12354	0.12967	0.14416	0.40923	0.23552	0.21944	0.28188	0.20875	0.21316	0.15875	0.23971	0.23083	0.14983	0.49485	0.25432	0.16459	-0.59583	0.0125	-0.65417	-1.0375	-0.15	-0.96042	-0.53542	-0.59583	-1.1708	-0.25	-0.68125	-0.86875	-0.01875	-1.0521	-0.35833	-0.16875	31.631	-25.592	47.026	184.013	79.294	153.497	141.265	155.272	-96.195	113.902	153.221	43.565	-134.210	213.018	-132.632	217.811	0.00051412	0.00042187	0.00012172	1378.9	3.6205e-06	3.6622e-06	1376.5	373.34	2.9029e-06	2.7264e-06	427.66	140.86	122.3	42.09	5.2374e-06	52.016	0.00066871	0.00073987	0.00019671	1394.5	7.9026e-06	7.7849e-06	1397.8	379.18	7.6579e-06	7.8452e-06	433.14	144.25	125.46	43.178	8.0551e-06	53.425	179.071	-24.124	-54.398	-128.631	-52.468	-27.029	-128.796	-123.933	-31.585	46.706	-124.379	-120.618	-119.930	-115.071	-7.691	-115.691	-8191	255	
6355.908	1	1	0	0	0.25154	0.01512	0.19226	0.14628	0.069619	0.099082	0.10763	0.18931	0.2459	0.15319	0.14866	0.16654	0.14261	0.085897	0.18074	0.045389	-0.81875	-0.15	-0.65625	-1.1208	0.029167	-0.86458	-0.62917	-0.46458	-1.0271	-0.31875	-0.81875	-1.0833	-0.16875	-1.0083	-0.53958	-0.31458	34.604	205.663	59.275	169.384	-80.861	57.321	123.548	195.839	175.922	103.782	197.463	-32.901	147.825	-96.068	62.308	44.616	0.00047652	0.00033278	0.00015255	1377.5	4.4354e-06	7.3416e-06	1377.7	373.16	4.065e-06	3.4183e-06	425.21	141.12	122.48	42.182	5.1326e-06	52.248	0.00067762	0.0007206	0.00020518	1393	7.8804e-06	8.1025e-06	1396.7	379.26	7.8307e-06	7.9598e-06	433.01	144.4	125.64	43.145	7.8107e-06	53.447	177.080	-71.974	-56.607	-128.453	-5.716	22.482	-128.937	-123.899	-52.591	-1.110	-124.224	-120.644	-119.986	-114.948	3.539	-115.641	-8191	255	
6356.004	1	1	0	0	0.10394	0.22635	0.059478	0.38299	0.13797	0.2759	0.16818	0.069825	0.32135	0.15361	0.089143	0.022594	0.31407	0.010808	0.10167	0.18516	-0.67292	-0.57917	-0.46875	-1.175	-0.10417	-1.0187	-0.975	-0.25208	-1.0271	-0.31042	-0.60208	-1.0458	-0.18333	-0.9375	-0.67292	-0.13125	-38.985	148.428	-10.039	163.203	93.486	86.328	128.508	-134.063	-54.420	168.557	144.190	58.148	-105.394	-36.107	98.092	116.440	0.00048132	0.0004645	0.00014582	1376.7	4.0077e-06	4.095e-06	1378	372.98	1.1443e-06	7.0862e-06	424.58	140.59	123	42.275	5.4543e-06	52.093	0.00067067	0.00072694	0.00020073	1392.5	7.7617e-06	7.8662e-06	1397.2	379.25	7.7388e-06	7.8594e-06	432.31	144.36	125.56	43.265	7.8221e-06	53.484	177.930	-56.005	-40.000	-128.519	2.958	39.353	-128.725	-123.862	47.923	29.225	-124.373	-120.799	-119.818	-114.841	-13.206	-115.560	-8191	255	
6356.100	1	1	0	0	0.16595	0.075563	0.097692	0.37385	0.12083	0.20795	0.11505	0.38236	0.13097	0.10312	0.014848	0.27021	0.29465	0.24984	0.20529	0.32922	-0.66042	-0.30625	-0.3	-1.2812	-0.3125	-0.64583	-0.95417	-0.26458	-0.94375	-0.39167	-0.41042	-1.0167	-0.23125	-0.53542	-0.8125	-0.070833	184.310	-134.513	174.676	-129.041	107.658	-130.025	92.000	207.059	120.100	216.247	190.692	109.173	180.173	188.465	-139.783	210.115	0.00051027	0.00039339	0.00017245	1377.7	3.4645e-06	4.4731e-06	1377.5	373.41	3.5483e-06	6.5708e-06	427.02	140.51	122.5	42.174	3.4331e-06	52.221	0.00066927	0.00072626	0.00020516	1392.8	7.7796e-06	7.8893e-06	1396	379.4	7.8424e-06	7.8521e-06	433.36	144.2	125.69	43.203	7.8967e-06	53.538	178.654	-59.814	-46.297	-128.463	-32.701	-7.568	-128.517	-123.646	-38.311	41.170	-123.966	-120.263	-119.967	-114.746	-50.922	-115.624	-8191	255	
6356.221	1	1	0	0	0.4568	0.13619	0.25053	0.20902	0.27081	0.16858	0.28033	0.17137	0.26165	0.10493	0.19354	0.085795	0.23195	0.21241	0.0972	0.19919	-0.39792	-0.2875	-0.24583	-1.1604	-0.052083	-0.48958	-1.1792	-0.20833	-0.84792	-0.64792	-0.23958	-0.97708	-0.42708	-0.625	-0.89583	-0.25417	-103.825	0.416	57.240	155.349	170.460	25.926	146.504	139.291	-123.809	88.698	156.655	-38.608	111.419	191.770	-117.213	169.149	0.00046068	0.00060064	6.3362e-05	1375.9	5.7596e-06	2.9901e-06	1379.3	372.99	2.9728e-06	8.9247e-06	425.18	140.8	122.61	42.057	4.1506e-06	51.654	0.00067449	0.00071738	0.00019895	1394.2	7.8491e-06	7.8271e-06	1397.7	379.5	7.7355e-06	7.8396e-06	432.6	144.32	125.43	43.085	7.8243e-06	53.383	177.476	-43.087	-77.775	-128.493	-10.542	71.128	-128.690	-123.892	-54.260	13.527	-124.063	-120.568	-119.950	-114.867	27.300	-115.760	-8191	255	
6356.315	1	1	0	0	0.16598	0.12252	0.12343	0.26704	0.066002	0.2168	0.24654	0.28962	0.09085	0.022842	0.27752	0.44024	0.21516	0.17412	0.079703	0.27277	-0.45417	-0.69583	-0.027083	-1.1042	-0.2375	-0.30833	-1.2167	-0.070833	-0.74792	-0.6125	-0.091667	-1.0042	-0.36875	-0.44583	-0.88958	-0.1625	48.081	76.396	-59.550	156.767	-21.593	55.250	166.372	126.957	-131.534	95.588	207.841	95.802	187.714	-80.730	120.301	186.912	0.00048419	0.00043145	9.5985e-05	1381.7	4.7977e-06	5.6357e-06	1377.9	373.49	5.8851e-06	6.8959e-06	424.99	140.71	123	42.093	3.4747e-06	51.912	0.00067407	0.00071367	0.00020052	1394.8	7.7314e-06	7.8496e-06	1397.5	379.34	7.9111e-06	7.9333e-06	432.92	144.18	125.68	43.135	7.7278e-06	53.449	169.640	-92.327	-71.316	-128.776	-6.359	19.389	-129.059	-124.149	-38.741	6.528	-124.491	-120.929	-120.319	-115.315	-21.168	-115.834	-8191	255	
6356.412	1	1	0	0	0.25666	0.076391	0.35664	0.48438	0.17473	0.11294	0.11126	0.19677	0.078944	0.25382	0.1603	0.082233	0.54563	0.22927	0.25115	0.18784	-0.37292	-0.80625	0.064583	-0.86667	-0.30208	-0.15625	-1.1208	-0.31458	-0.67083	-0.85208	-0.18333	-0.975	-0.65625	-0.25208	-1.1333	-0.15833	191.117	168.247	-47.955	208.287	88.885	157.204	-140.372	128.751	-25.228	-5.650	-123.555	-50.931	179.997	-95.915	-120.135	147.549	0.00049879	0.00037123	9.2249e-05	1382	2.4478e-06	5.2021e-06	1374.6	373.96	4.4993e-06	6.33e-06	423.88	141.32	122.58	42.121	6.1183e-06	52.033	0.00067866	0.00072715	0.00020181	1394.1	7.8998e-06	7.951e-06	1395.9	379.64	7.752e-06	7.8838e-06	432.72	144.4	125.85	43.151	7.6998e-06	53.49	176.579	-32.956	-74.067	-128.551	-27.945	6.030	-128.742	-124.002	-30.428	33.296	-124.530	-120.511	-120.083	-114.996	-16.440	-115.842	-8191	255	
6356.483	1	1	0	0	0.35557	0.14599	0.022424	0.30146	0.1548	0.075304	0.073119	0.15969	0.18519	0.20062	0.28273	0.36838	0.11568	0.16379	0.074029	0.1446	0.064583	-0.72083	-0.064583	-1.0875	-0.59583	-0.26042	-1.1729	-0.47917	-0.42292	-0.95833	-0.047917	-0.83125	-0.76458	-0.19375	-0.93958	-0.32708	-42.877	39.886	188.241	-84.176	93.442	210.293	-123.047	169.688	106.495	79.658	-131.172	187.812	49.138	-105.964	173.073	208.935	0.00044989	0.00013651	0.00015644	1382.1	4.8239e-06	4.1596e-06	1376.1	372.67	7.4279e-06	3.6539e-06	426.62	141.2	122.63	42.282	3.7833e-06	51.914	0.0006703	0.00070285	0.00020127	1397.3	7.7852e-06	7.8218e-06	1395.8	379.19	7.752e-06	7.8488e-06	433.03	144.32	125.56	43.215	7.4754e-06	53.486	172.146	-74.415	-57.622	-128.598	-38.023	31.910	-129.075	-124.195	-45.912	0.754	-124.635	-120.892	-120.051	-115.333	-54.691	-115.545	-8191	255	
6356.604	1	1	0	0	0.10556	0.2462	0.10882	0.22726	0.012661	0.19888	0.23134	0.21937	0.1877	0.17034	0.13951	0.35182	0.22126	0.26108	0.03251	0.25913	-0.23958	-0.9875	-0.077083	-0.96042	-0.59375	-0.097917	-1.0833	-0.61042	-0.16875	-1.1833	-0.22292	-0.64167	-0.70625	-0.28958	-1.0938	-0.60833	7.162	106.928	3.353	149.910	136.556	24.549	208.214	188.382	169.622	-40.775	87.624	211.279	173.415	197.821	-85.780	81.196	0.00046088	0.00057651	8.7706e-05	1379.4	4.7859e-06	5.2076e-06	1378.4	373.63	2.027e-06	3.1689e-06	425.35	140.84	122.49	41.851	4.671e-06	51.868	0.00066618	0.00071361	0.00020087	1395.7	7.7763e-06	7.9927e-06	1396.6	379.31	7.8739e-06	7.966e-06	432.93	144.2	125.51	43.091	7.9675e-06	53.426	171.615	-40.059	-13.666	-128.539	-21.567	17.369	-128.862	-124.218	-17.933	30.469	-124.367	-120.600	-120.151	-114.938	-31.563	-115.915	-8191	255	
6356.700	1	1	0	0	0.078462	0.3964	0.17903	0.4906	0.083142	0.054034	0.1758	0.31345	0.15391	0.13481	0.19731	0.076721	0.076955	0.26793	0.33614	0.29435	0.13125	-0.94375	-0.17708	-0.84375	-0.77917	0.0125	-1.0896	-0.53333	-0.39167	-1.0562	-0.37083	-0.83125	-0.96042	-0.31667	-0.93958	-0.72083	58.529	203.418	-13.259	195.336	-123.335	-43.052	142.239	122.371	116.805	169.286	187.449	74.716	-73.070	180.796	-52.296	152.639	0.00053702	0.00036317	0.00011586	1379.7	3.7765e-06	1.7739e-06	1383.8	372.29	3.5039e-06	4.5299e-06	425.02	141.46	123.18	42.166	2.6876e-06	51.944	0.00069025	0.00071212	0.0002037	1397.3	7.9806e-06	8.36e-06	1399.6	379.29	8.1639e-06	8.3178e-06	433.27	144.64	125.86	43.167	8.2685e-06	53.527	176.732	-29.351	-48.188	-128.457	-7.480	-2.104	-128.909	-124.199	-21.912	-14.935	-124.375	-120.527	-119.876	-114.925	42.919	-115.748	-8191	255	
6356.796	1	1	0	0	0.32814	0.1446	0.34561	0.3373	0.372	0.076067	0.2238	0.13064	0.10546	0.012964	0.24445	0.090153	0.45261	0.14711	0.17833	0.15232	0.11458	-0.98125	-0.1125	-0.73958	-0.94375	-0.014583	-0.98542	-0.73958	-0.01875	-0.94792	-0.41458	-0.50833	-1.1021	-0.0375	-0.80417	-0.88333	154.310	-34.168	-30.035	204.341	116.394	65.363	188.918	147.053	65.813	189.686	203.942	217.735	188.536	151.944	-56.325	139.851	0.00047874	0.00057398	0.00014364	1383.3	3.4751e-06	2.6334e-06	1374.7	372.68	4.3563e-06	3.805e-06	425.54	140.54	123.48	42.245	6.7245e-06	51.967	0.00070756	0.00074547	0.0002102	1397.1	7.9262e-06	8.2739e-06	1399.2	379.95	8.0587e-06	8.1557e-06	433.54	144.48	126.11	43.288	7.9118e-06	53.564	176.646	-103.660	-19.365	-128.197	-21.474	68.808	-128.788	-124.185	-31.529	7.474	-124.340	-120.685	-120.216	-114.973	-14.655	-115.683	-8191	255	
6356.892	1	1	0	0	0.033128	0.043563	0.42712	0.22858	0.14765	0.10033	0.099334	0.090038	0.17184	0.23329	0.011982	0.12535	0.40623	0.12033	0.097563	0.048007	0.30833	-0.88333	-0.29167	-0.58333	-1.1896	-0.16458	-1.05	-1.0312	-0.066667	-1.0063	-0.76667	-0.34375	-1.125	-0.25833	-0.68542	-1.1083	-87.467	80.970	-126.712	145.348	2.636	-29.867	157.657	211.466	-131.339	2.455	-5.461	198.821	-133.297	119.784	146.403	40.696	0.00051647	0.00040081	0.0001621	1381.8	3.1193e-06	5.0085e-06	1378.9	373.5	6.3423e-06	8.6105e-06	427.15	140.63	123.24	42.169	3.4154e-06	52.038	0.00069832	0.00072569	0.00020745	1398	7.8758e-06	8.0825e-06	1400.1	379.84	8.1037e-06	8.0804e-06	433.76	144.29	125.97	43.214	7.9789e-06	53.525	174.232	-40.434	-36.737	-128.545	0.290	50.922	-128.719	-124.070	-21.638	-22.304	-124.327	-120.491	-119.901	-115.076	-49.423	-115.612	-8191	255	
6357.013	1	1	0	0	0.088076	0.24372	0.12464	0.1534	0.22975	0.23045	0.15433	0.1832	0.29796	0.22907	0.042818	0.25844	0.065151	0.095288	0.059583	0.34548	0.13542	-0.83958	-0.60208	-0.45417	-0.79583	-0.34375	-0.64792	-0.94583	-0.19167	-0.83542	-0.75	-0.35208	-1.2542	-0.35	-0.7125	-1.2479	213.048	-100.073	-102.057	-110.745	-50.591	22.618	130.278	-127.234	-71.740	182.624	37.793	-112.828	193.314	149.431	-29.796	164.937	0.00054165	0.00027701	0.00020154	1380.9	3.0948e-06	2.5666e-06	1378.3	371.87	3.2213e-06	7.001e-06	427.59	141.12	122.64	42.025	5.3467e-06	51.991	0.0006953	0.00072696	0.00020526	1397.2	7.7698e-06	8.2905e-06	1400.4	379.5	7.9885e-06	8.0015e-06	434.48	144.31	125.81	43.199	8.1152e-06	53.478	171.797	-30.866	6.228	-128.409	-60.471	45.098	-128.590	-124.083	-35.709	14.302	-124.270	-120.396	-119.803	-115.133	-22.535	-115.486	-8191	255	
6357.109	1	1	0	0	0.12107	0.24836	0.12843	0.048008	0.11955	0.24194	0.25299	0.0713	0.07542	0.065124	0.14775	0.15034	0.071852	0.16862	0.077225	0.2358	0.18125	-0.85833	-0.57917	-0.2625	-0.84167	-0.21667	-0.71875	-1.2271	-0.21042	-0.88333	-0.9125	-0.20625	-1.0604	-0.49375	-0.42083	-1.0458	-65.982	191.303	124.322	200.712	112.888	-16.081	212.450	136.692	-41.868	137.814	-52.476	98.582	123.643	148.362	-31.119	95.558	0.00049247	0.00064024	0.00014512	1384.7	3.1575e-06	3.6049e-06	1383.1	373.95	5.1745e-06	6.5755e-06	425.06	140.96	123.14	42.061	2.032e-06	51.939	0.00070679	0.0007471	0.00020879	1397.4	8.1798e-06	8.13e-06	1401.3	380.57	8.2643e-06	8.3265e-06	433.89	144.7	125.9	43.249	8.1542e-06	53.627	175.954	-57.367	-60.701	-128.440	-17.667	10.395	-128.750	-124.040	-20.808	-4.024	-124.673	-120.729	-119.913	-115.122	-13.627	-115.631	-8191	255	
6357.181	1	1	0	0	0.25085	0.12971	0.13404	0.2598	0.16851	0.29542	0.46266	0.1884	0.11516	0.37128	0.26351	0.23975	0.4436	0.23042	0.16182	0.094861	0.089583	-0.70208	-0.85	-0.12917	-1.025	-0.59167	-0.6125	-1.2479	-0.29167	-0.80625	-0.9	-0.35	-1.2771	-0.4875	-0.28958	-1.3417	107.412	-122.741	134.085	199.080	-93.049	70.029	-141.902	160.225	-105.016	-118.733	-42.522	194.072	54.886	-60.230	-56.183	-20.461	0.00054664	0.00051837	0.00014547	1380.8	2.6022e-06	4.6855e-06	1380.7	372.71	4.8769e-06	7.8483e-06	427.18	140.42	122.97	42.225	3.7543e-06	52.072	0.00070535	0.00075403	0.00020896	1397.8	7.9582e-06	8.3154e-06	1402.5	379.61	8.1347e-06	8.3337e-06	434.51	144.59	125.99	43.263	8.1433e-06	53.638	176.321	-62.538	-26.571	-128.557	-34.333	39.077	-128.751	-123.956	-45.678	0.670	-124.359	-120.840	-120.062	-115.314	-6.572	-115.696	-8191	255	
6357.301	1	1	0	0	0.19837	0.24831	0.39324	0.27323	0.077204	0.14502	0.26334	0.36944	0.25821	0.31289	0.1946	0.14402	0.16548	0.11246	0.15517	0.1633	0.3375	-0.47292	-0.85417	-0.40625	-0.71875	-0.67708	-0.11667	-1.1354	-0.31875	-0.55	-0.925	-0.10833	-1.0854	-0.6625	-0.089583	-1.1354	-54.274	126.298	129.566	150.406	-113.611	-15.537	114.315	-135.873	-140.608	-53.015	131.432	212.750	216.747	-141.194	169.367	-98.228	0.00047846	0.00061926	0.00015733	1383.6	6.224e-06	5.2904e-06	1384.4	373.07	4.5529e-06	5.5267e-06	426.14	141.18	123.11	42.159	2.6532e-06	52.093	0.00071016	0.00076862	0.00021337	1397.9	8.0974e-06	8.4054e-06	1403.7	380.47	8.2738e-06	8.2998e-06	434.11	144.41	126.06	43.232	8.1143e-06	53.567	173.273	-46.071	-55.743	-128.378	-30.697	16.067	-128.534	-123.979	-48.662	-1.888	-124.542	-120.506	-120.088	-115.200	-18.680	-115.802	-8191	255	
6357.396	1	1	0	0	0.10664	0.25942	0.32917	0.15075	0.20476	0.097185	0.33844	0.39795	0.20904	0.2626	0.1945	0.2135	0.29886	0.091985	0.12308	0.24874	0.15833	-0.25625	-0.95833	-0.26042	-0.7125	-0.85	-0.1875	-1.0438	-0.34583	-0.50208	-1.05	-0.26458	-0.90417	-1.025	0.016667	-0.93125	23.232	102.483	187.014	204.894	-46.105	193.131	125.926	200.688	-5.734	85.403	194.283	-75.100	-105.937	50.424	-83.771	142.976	0.00047518	0.00052427	6.4324e-05	1386.4	6.9265e-06	4.7991e-06	1378.8	373.42	7.0652e-06	6.0065e-06	424.54	141.47	122.88	42.113	1.8586e-06	52.032	0.00070291	0.00075434	0.00020561	1398	8.0743e-06	8.059e-06	1399.9	379.86	8.2432e-06	8.1267e-06	433.19	144.38	125.79	43.2	8.0228e-06	53.554	178.106	-35.613	-51.433	-129.138	-39.258	26.454	-129.534	-124.635	-16.705	8.086	-125.291	-121.323	-120.810	-115.742	-103.651	-116.585	-8191	255	
#DATA ENDS
