BOXY.EXE: ISS Imagent and Oximeter Data Acquisition Program Version 0.80
Ascii Record File

#ACQ INFORMATION
2  Detector Channels 
16  External MUX Channels 
1  Auxiliary Channels 
5000  Waveform (CCF) Frequency (Hz)
1  Waveforms Skipped 
30  Waveforms Averaged 
1  Cycles Averaged 
16  Acquisitions per Waveform 
10.0806  Updata Rate (Hz) 

#FILE INFORMATION
TRUE -- External MUX Channel results are PARSED.
FALSE -- AC DC and Phase are NOT grouped.
TRUE -- Companion Program Settings File CREATED.
FALSE -- AC data not excluded
FALSE -- DC data not excluded
FALSE -- Phase data not excluded
FALSE -- Auxillary Chn. data not excluded
Tab delimiters

#CALIBRATION STATE
TRUE -- Waveform Calibration Values APPLIED.


#AUX CALIBRATION VALUES
Val Type	aux-1	

Term	1.0000e+00	
Factor	0.0000e+00	


#WF CALIBRATION VALUES
A = Detector Channel
Val Type	A-AC1	A-AC2	A-AC3	A-AC4	A-AC5	A-AC6	A-AC7	A-AC8	A-AC9	A-AC10	A-AC11	A-AC12	A-AC13	A-AC14	A-AC15	A-AC16	A-DC1	A-DC2	A-DC3	A-DC4	A-DC5	A-DC6	A-DC7	A-DC8	A-DC9	A-DC10	A-DC11	A-DC12	A-DC13	A-DC14	A-DC15	A-DC16	A-Ph1	A-Ph2	A-Ph3	A-Ph4	A-Ph5	A-Ph6	A-Ph7	A-Ph8	A-Ph9	A-Ph10	A-Ph11	A-Ph12	A-Ph13	A-Ph14	A-Ph15	A-Ph16	

Term	0.00000e+00	0.00000e+00	0.00000e+00	0.00000e+00	0.00000e+00	0.00000e+00	0.00000e+00	0.00000e+00	0.00000e+00	0.00000e+00	0.00000e+00	0.00000e+00	0.00000e+00	0.00000e+00	0.00000e+00	0.00000e+00	0.00000e+00	0.00000e+00	0.00000e+00	0.00000e+00	0.00000e+00	0.00000e+00	0.00000e+00	0.00000e+00	0.00000e+00	0.00000e+00	0.00000e+00	0.00000e+00	0.00000e+00	0.00000e+00	0.00000e+00	0.00000e+00	0.00000e+00	0.00000e+00	0.00000e+00	0.00000e+00	0.00000e+00	0.00000e+00	0.00000e+00	0.00000e+00	0.00000e+00	0.00000e+00	0.00000e+00	0.00000e+00	0.00000e+00	0.00000e+00	0.00000e+00	0.00000e+00	
Factor	1.00000e+00	1.00000e+00	1.00000e+00	1.00000e+00	1.00000e+00	1.00000e+00	1.00000e+00	1.00000e+00	1.00000e+00	1.00000e+00	1.00000e+00	1.00000e+00	1.00000e+00	1.00000e+00	1.00000e+00	1.00000e+00	1.00000e+00	1.00000e+00	1.00000e+00	1.00000e+00	1.00000e+00	1.00000e+00	1.00000e+00	1.00000e+00	1.00000e+00	1.00000e+00	1.00000e+00	1.00000e+00	1.00000e+00	1.00000e+00	1.00000e+00	1.00000e+00	X	X	X	X	X	X	X	X	X	X	X	X	X	X	X	X	

B = Detector Channel
Val Type	B-AC1	B-AC2	B-AC3	B-AC4	B-AC5	B-AC6	B-AC7	B-AC8	B-AC9	B-AC10	B-AC11	B-AC12	B-AC13	B-AC14	B-AC15	B-AC16	B-DC1	B-DC2	B-DC3	B-DC4	B-DC5	B-DC6	B-DC7	B-DC8	B-DC9	B-DC10	B-DC11	B-DC12	B-DC13	B-DC14	B-DC15	B-DC16	B-Ph1	B-Ph2	B-Ph3	B-Ph4	B-Ph5	B-Ph6	B-Ph7	B-Ph8	B-Ph9	B-Ph10	B-Ph11	B-Ph12	B-Ph13	B-Ph14	B-Ph15	B-Ph16	

Term	0.00000e+00	0.00000e+00	0.00000e+00	0.00000e+00	0.00000e+00	0.00000e+00	0.00000e+00	0.00000e+00	0.00000e+00	0.00000e+00	0.00000e+00	0.00000e+00	0.00000e+00	0.00000e+00	0.00000e+00	0.00000e+00	0.00000e+00	0.00000e+00	0.00000e+00	0.00000e+00	0.00000e+00	0.00000e+00	0.00000e+00	0.00000e+00	0.00000e+00	0.00000e+00	0.00000e+00	0.00000e+00	0.00000e+00	0.00000e+00	0.00000e+00	0.00000e+00	-2.56295e+01	-1.44903e+02	-1.46208e+02	-1.81557e+02	-1.10190e+02	-6.80644e+01	-1.59026e+02	-1.62015e+02	-3.84505e+01	-8.16621e+01	-1.72371e+02	-1.70803e+02	-1.81112e+02	-1.77111e+02	-8.23039e+01	-1.49802e+02	
Factor	2.04882e-05	7.53207e-05	2.45854e-05	1.58408e-01	9.99100e-07	8.80246e-07	1.70930e-01	4.43404e-02	8.59531e-07	9.60360e-07	7.59286e-02	2.81762e-02	3.25531e-02	8.07940e-03	1.02540e-06	1.17635e-02	7.21442e-07	7.39326e-07	2.06340e-07	8.04690e-02	8.08779e-09	8.09940e-09	8.12938e-02	2.26284e-02	8.09526e-09	8.11344e-09	3.67682e-02	1.35681e-02	1.59473e-02	4.06331e-03	8.14387e-09	5.65090e-03	X	X	X	X	X	X	X	X	X	X	X	X	X	X	X	X	



#DISTANCE SETTINGS
A = Detector Channel
A-1	A-2	A-3	A-4	A-5	A-6	A-7	A-8	A-9	A-10	A-11	A-12	A-13	A-14	A-15	A-16	

2.5000e+00	3.0000e+00	2.5000e+00	3.0000e+00	2.0000e+00	3.0000e+00	1.5000e+00	3.0000e+00	3.0000e+00	3.0000e+00	3.0000e+00	3.0000e+00	3.0000e+00	3.0000e+00	1.5000e+00	3.0000e+00	

B = Detector Channel
B-1	B-2	B-3	B-4	B-5	B-6	B-7	B-8	B-9	B-10	B-11	B-12	B-13	B-14	B-15	B-16	

1.0000e+01	1.0000e+01	1.0000e+01	1.4400e+00	1.0000e+01	1.0000e+01	1.5100e+00	1.9400e+00	1.0000e+01	1.0000e+01	1.9900e+00	2.4900e+00	2.4100e+00	2.9000e+00	1.0000e+01	2.9800e+00	




#DATA BEGINS
time	group	step	mark	flag	A-AC1	A-AC2	A-AC3	A-AC4	A-AC5	A-AC6	A-AC7	A-AC8	A-AC9	A-AC10	A-AC11	A-AC12	A-AC13	A-AC14	A-AC15	A-AC16	A-DC1	A-DC2	A-DC3	A-DC4	A-DC5	A-DC6	A-DC7	A-DC8	A-DC9	A-DC10	A-DC11	A-DC12	A-DC13	A-DC14	A-DC15	A-DC16	A-Ph1	A-Ph2	A-Ph3	A-Ph4	A-Ph5	A-Ph6	A-Ph7	A-Ph8	A-Ph9	A-Ph10	A-Ph11	A-Ph12	A-Ph13	A-Ph14	A-Ph15	A-Ph16	B-AC1	B-AC2	B-AC3	B-AC4	B-AC5	B-AC6	B-AC7	B-AC8	B-AC9	B-AC10	B-AC11	B-AC12	B-AC13	B-AC14	B-AC15	B-AC16	B-DC1	B-DC2	B-DC3	B-DC4	B-DC5	B-DC6	B-DC7	B-DC8	B-DC9	B-DC10	B-DC11	B-DC12	B-DC13	B-DC14	B-DC15	B-DC16	B-Ph1	B-Ph2	B-Ph3	B-Ph4	B-Ph5	B-Ph6	B-Ph7	B-Ph8	B-Ph9	B-Ph10	B-Ph11	B-Ph12	B-Ph13	B-Ph14	B-Ph15	B-Ph16	aux-1	digaux	

1547.087	1	1	0	256	0.18446	0.079152	0.11834	0.15511	0.19446	0.16254	0.25772	0.26848	0.10907	0.14087	0.26469	0.22329	0.1504	0.25272	0.26847	0.18143	-1.0958	-0.68958	-0.525	-1.4896	-0.42708	-1.1792	-1.425	-0.82083	-1.3813	-0.68333	-0.63542	-1.325	-0.57708	-0.99583	-1.2083	-0.50208	13.398	238.798	137.914	219.618	94.993	-40.497	179.362	248.609	233.368	-64.709	221.241	-66.536	162.972	-58.203	8.241	29.192	0.00017957	0.00060102	0.00012172	1107.1	1.3537e-06	7.8524e-06	1215	236.09	8.4515e-06	5.6359e-06	300.08	83.909	66.861	19.274	5.9556e-06	26.998	0.00051637	0.00056379	0.00013805	1092.7	5.7247e-06	6.0362e-06	1202.7	238.62	5.9366e-06	6.1436e-06	303.11	87.404	71.749	21.055	5.4991e-06	28.589	251.685	256.364	65.211	-73.308	219.582	19.213	-73.022	-65.715	254.641	-31.429	-66.015	-59.170	-58.837	-52.460	-46.306	-52.674	-8191	255	
1547.208	1	1	0	0	0.25393	0.19928	0.12443	0.47447	0.10794	0.084349	0.38677	0.26405	0.2467	0.28791	0.19453	0.083075	0.1999	0.18499	0.26564	0.11593	-0.92917	-0.90625	-0.46458	-1.5312	-0.66042	-1.0063	-1.375	-0.61875	-1.3542	-1	-0.39792	-1.4104	-0.63333	-0.925	-1.2646	-0.52083	266.745	-33.888	146.568	273.093	39.272	-66.284	184.898	-83.730	147.807	9.530	101.013	274.094	211.542	-20.907	62.456	-79.742	0.00015304	0.00047736	0.00019305	1108.4	4.3996e-06	3.5425e-06	1222.5	236.89	5.8036e-06	1.2454e-06	301.06	83.566	66.131	19.294	9.4646e-07	26.738	0.00053836	0.00053494	0.00013148	1092.4	5.9271e-06	5.6076e-06	1201	238.3	5.9126e-06	5.5498e-06	301.77	87.036	71.592	20.808	5.1599e-06	28.592	265.564	-35.401	267.785	-73.419	140.618	34.434	-73.341	-65.878	53.117	64.996	-66.069	-59.057	-58.898	-52.207	36.943	-52.727	-8191	255	
1547.304	1	1	0	0	0.24849	0.12267	0.1769	0.41147	0.39665	0.3098	0.1687	0.19607	0.16508	0.21137	0.35727	0.34695	0.15869	0.30584	0.089707	0.17094	-0.75833	-0.99583	-0.66875	-1.4521	-0.71667	-0.69583	-1.675	-0.56042	-1.1313	-1.0312	-0.55	-1.3625	-0.80417	-0.7	-1.3479	-0.43958	229.698	256.808	254.315	227.374	-60.917	197.363	198.232	258.060	-57.615	-9.164	205.070	159.751	23.406	273.758	145.154	123.205	0.00013671	0.00022392	0.00014607	1102.5	3.6225e-06	1.2946e-06	1217.5	237.13	6.4231e-06	5.9545e-06	300.24	83.466	66.416	19.177	6.3435e-06	26.923	0.00054081	0.00050802	0.00012753	1092.5	6.0687e-06	5.3566e-06	1199.2	239.87	5.9857e-06	5.4468e-06	301.05	87.734	71.695	20.657	5.116e-06	29.022	-70.670	-2.064	20.875	-73.281	105.630	172.306	-73.022	-65.900	48.481	-35.624	-65.996	-58.904	-58.995	-52.022	265.776	-52.641	-8191	255	
1547.400	1	1	0	0	0.31016	0.19658	0.18435	0.41828	0.2442	0.27228	0.17984	0.26441	0.16302	0.14309	0.25706	0.15931	0.078535	0.3162	0.17405	0.34187	-0.68542	-0.8875	-0.575	-1.4312	-0.92292	-0.7375	-1.5542	-0.50833	-1.0146	-1.1063	-0.70833	-1.5021	-0.76042	-0.44792	-1.5312	-0.67083	-35.276	83.131	111.433	242.378	111.109	244.475	226.250	229.062	48.969	124.054	185.288	269.665	-69.509	-49.517	-72.972	5.443	0.00010533	0.00058417	0.00016926	1107	6.178e-06	4.9623e-06	1216.9	235.75	4.734e-06	6.624e-06	299.37	83.814	65.713	19.207	1.9824e-06	26.788	0.00052705	0.00048838	0.00012575	1098.2	5.8774e-06	5.1828e-06	1197.8	240.54	5.6772e-06	5.2199e-06	300.5	87.977	70.833	20.462	5.0567e-06	29.011	105.651	-33.780	-6.279	-73.441	-24.329	-32.736	-73.173	-66.101	-4.651	128.448	-66.301	-59.541	-58.956	-52.162	-81.112	-52.555	-8191	255	
1547.496	1	1	0	0	0.2582	0.29851	0.21981	0.25265	0.19652	0.13752	0.12992	0.31223	0.16188	0.30247	0.4213	0.147	0.090398	0.045503	0.13902	0.11237	-0.57708	-1.0312	-0.53542	-1.4625	-0.99792	-0.48542	-1.5187	-0.74375	-0.85625	-1.2271	-0.475	-0.98333	-1.2771	-0.55625	-1.3396	-0.72292	58.139	71.628	157.772	-41.487	223.479	272.575	-68.205	-83.594	213.107	119.681	-72.619	247.414	119.240	165.646	-23.053	171.584	0.00010196	0.00078319	0.00014582	1105.2	3.3726e-06	2.8506e-06	1216.9	235.81	4.5399e-06	3.2155e-06	299.77	83.727	66.346	19.276	4.4653e-06	26.746	0.00048921	0.00046463	0.00012525	1096.7	5.5071e-06	4.9346e-06	1198.4	240.45	5.3861e-06	5.1751e-06	302.24	88.353	70.63	20.567	5.4473e-06	29.207	-35.510	4.494	24.464	-73.450	-82.018	69.627	-73.230	-65.886	39.688	23.667	-66.146	-58.902	-58.577	-52.557	-70.961	-52.476	-8191	255	
1547.590	1	1	0	0	0.013226	0.15969	0.20765	0.50904	0.075473	0.22785	0.054784	0.15633	0.10884	0.1624	0.27276	0.29469	0.15305	0.24277	0.2771	0.27506	-0.22292	-1.0812	-0.35	-1.2229	-1.0562	-0.34792	-1.5187	-0.82083	-0.69167	-1.3813	-0.65208	-0.95625	-1.1521	-0.625	-1.3771	-0.92083	231.543	100.332	177.615	241.756	200.230	-35.618	210.139	184.592	-33.862	-67.186	209.183	250.771	209.798	-52.321	179.375	-39.252	0.00020726	0.00036937	0.00016636	1102.2	4.2437e-06	4.5153e-06	1216.3	235.51	5.0152e-06	4.6511e-06	299.49	83.581	66.142	19.165	1.3123e-06	26.932	0.0004769	0.00047221	0.0001372	1096.9	5.3324e-06	4.8562e-06	1199.3	239.5	5.054e-06	4.9365e-06	303.53	87.789	69.841	20.386	5.7013e-06	29.052	179.208	-55.110	177.550	-73.159	-30.901	83.581	-73.059	-66.083	8.574	8.949	-66.219	-58.893	-59.415	-51.911	175.326	-52.440	-8191	255	
1547.687	1	1	0	0	0.19098	0.296	0.17636	0.32566	0.25384	0.085628	0.37274	0.32054	0.42991	0.15109	0.14725	0.29882	0.080396	0.043421	0.15206	0.11786	-0.4625	-1.2833	-0.42917	-0.98542	-1.1167	-0.69583	-1.5271	-0.8	-0.58333	-1.2521	-0.62083	-0.975	-1.1979	-0.45625	-1.2958	-1.0625	244.918	198.604	108.583	253.366	176.060	169.086	243.576	184.721	229.571	108.525	-63.030	141.827	261.847	-56.422	177.727	-68.222	0.00014156	0.00041625	0.00012744	1098	6.6002e-06	5.4856e-06	1220.8	236.58	2.4479e-06	4.0609e-07	299.06	83.822	65.515	19.281	7.4395e-06	26.876	0.00045918	0.00045921	0.00014677	1095.7	5.2826e-06	4.9575e-06	1206.5	239.84	5.1548e-06	5.2133e-06	305.34	87.744	70.191	20.557	6.0908e-06	28.939	6.442	230.688	157.948	-73.514	-44.216	44.285	-73.041	-65.918	232.938	230.895	-65.887	-59.054	-58.612	-52.051	39.323	-52.297	-8191	255	
1547.785	1	1	0	0	0.33182	0.26318	0.20916	0.20694	0.22295	0.3213	0.24479	0.26172	0.10147	0.13618	0.14887	0.1304	0.22444	0.3163	0.29395	0.20103	-0.15	-1.3937	-0.47917	-1.1437	-1.2583	-0.50833	-1.2292	-1	-0.51042	-1.4479	-0.77708	-0.8125	-1.2521	-0.51458	-1.3417	-1.2333	24.057	93.835	149.751	-57.374	269.572	200.570	229.717	194.114	105.202	14.692	162.306	10.260	-62.485	-59.652	-36.549	86.422	9.5264e-05	0.00042293	0.00020241	1099.7	4.7035e-06	6.6207e-06	1221.4	235.61	3.5796e-06	9.4157e-06	298.72	83.544	66.012	19.098	4.5234e-06	26.987	0.000461	0.00048504	0.00015597	1091.2	5.2378e-06	5.2765e-06	1207.2	238.83	4.9852e-06	5.4421e-06	305.91	87.315	69.783	20.675	5.9599e-06	28.786	184.019	62.962	247.078	-73.304	-58.037	165.956	-73.091	-66.068	26.669	222.939	-65.961	-59.155	-58.492	-52.061	-31.524	-52.581	-8191	255	
1547.903	1	1	0	0	0.04738	0.22022	0.33203	0.38144	0.31349	0.19609	0.3798	0.089022	0.062975	0.053246	0.072375	0.12284	0.45142	0.075806	0.3098	0.097641	-0.20208	-1.4438	-0.88958	-0.73542	-1.1437	-0.42292	-1.2479	-1.2729	-0.5125	-1.2479	-0.98958	-0.74167	-1.4	-0.55	-0.94167	-1.2646	160.571	47.522	56.722	241.038	193.749	24.408	259.991	248.041	-83.458	-55.966	-20.174	264.454	44.145	229.636	-0.412	244.386	0.00010079	0.00022122	1.4047e-05	1105.9	1.5962e-06	5.6603e-06	1210.9	235.76	5.083e-06	4.7302e-06	298.83	83.557	65.467	19.301	7.8673e-06	26.877	0.00044347	0.00050296	0.00015172	1090.1	5.0073e-06	5.5656e-06	1203.4	238.33	4.868e-06	5.6873e-06	304.44	86.978	69.488	20.984	5.7821e-06	28.669	249.881	86.952	33.483	-73.120	242.240	58.376	-72.778	-66.086	48.607	149.628	-65.954	-59.059	-58.797	-51.875	34.430	-52.400	-8191	255	
1548.000	1	1	0	0	0.29196	0.1793	0.28351	0.51593	0.37937	0.023476	0.21288	0.23196	0.14024	0.11221	0.20448	0.36419	0.20514	0.057514	0.27717	0.17498	-0.05	-1.0125	-0.96042	-0.78333	-1.3479	-0.61667	-1.2229	-1.5417	-0.40417	-1.2146	-1.075	-0.60417	-1.4167	-0.67292	-0.82708	-1.5104	148.665	-46.622	231.778	228.048	-75.899	-29.727	250.866	231.509	29.982	266.634	147.005	-31.525	111.224	128.356	26.966	247.339	0.00011582	0.00055998	7.9725e-05	1105.5	7.0422e-06	1.603e-06	1217.5	234.55	6.6977e-07	3.7679e-06	298.97	83.371	65.481	19.225	5.5511e-06	26.854	0.0004519	0.00054003	0.00014894	1089.6	5.2278e-06	5.9648e-06	1199.3	237.55	5.102e-06	5.9956e-06	303.65	86.638	70.147	21.068	5.5702e-06	28.536	273.049	119.691	-40.770	-73.160	44.526	-6.395	-73.137	-65.992	30.533	252.345	-66.062	-59.244	-58.690	-52.003	19.396	-52.518	-8191	255	
1548.096	1	1	0	0	0.27839	0.24126	0.10835	0.33696	0.2239	0.055645	0.04338	0.15247	0.23273	0.10751	0.13603	0.059908	0.30724	0.074239	0.15011	0.11978	-0.225	-1.1271	-1.0542	-0.76042	-1.3021	-0.58958	-1.0688	-1.5125	-0.44167	-1.1042	-1.1917	-0.49375	-1.4979	-0.76458	-0.65	-1.275	101.282	268.471	-6.083	235.364	116.945	188.799	139.400	218.431	223.393	-76.123	249.286	-80.512	203.508	235.031	217.439	103.049	0.00022982	0.00026491	0.00013771	1097.7	5.7006e-06	4.1078e-06	1216.8	234.56	3.4631e-06	4.646e-06	298.39	84.027	65.552	19.197	2.3158e-06	26.852	0.00047596	0.00055537	0.00014207	1084.7	5.5219e-06	6.1358e-06	1198.4	236.52	5.5187e-06	6.1142e-06	301.71	86.365	70.59	21	5.3158e-06	28.436	250.815	-4.282	-55.398	-73.217	182.002	-28.937	-73.029	-65.969	215.693	66.530	-66.107	-59.107	-58.400	-52.142	79.372	-52.918	-8191	255	
1548.192	1	1	0	0	0.097644	0.030923	0.25645	0.10546	0.14348	0.17593	0.23813	0.26581	0.3064	0.25034	0.28399	0.26508	0.12171	0.24746	0.11915	0.13902	-0.13542	-1.0146	-1.2271	-0.66667	-1.3917	-0.9	-0.80208	-1.3958	-0.54583	-0.99583	-1.3958	-0.49375	-1.3333	-1.1104	-0.63125	-1.4667	136.516	-4.321	1.714	129.780	153.381	5.178	239.200	201.118	172.018	6.433	233.998	227.261	215.218	-49.424	-63.528	227.542	0.00026395	0.0005063	6.4871e-05	1098.5	7.3174e-06	6.0299e-06	1209.3	232.96	2.0605e-06	1.491e-06	295.3	82.982	65.249	19.065	8.225e-06	26.352	0.00050583	0.00053981	0.00013541	1082.3	5.6659e-06	5.7864e-06	1189	233.96	5.5696e-06	5.3946e-06	297.23	85.215	69.908	20.505	4.6728e-06	27.93	248.310	-60.371	94.773	-73.281	-83.128	46.529	-72.873	-66.004	235.254	-28.493	-66.211	-58.583	-58.607	-52.020	20.375	-52.493	-8191	255	
1548.288	1	1	0	0	0.10258	0.2601	0.037725	0.10677	0.12186	0.017064	0.11089	0.23915	0.33701	0.18911	0.1889	0.067655	0.12155	0.36378	0.097673	0.05924	-0.27292	-0.8875	-1.1938	-0.55417	-1.3333	-0.91042	-0.67083	-1.5021	-0.8	-0.65833	-1.3896	-0.40833	-1.2042	-0.99167	-0.69792	-1.3813	106.655	160.307	240.033	-69.344	-2.081	261.906	101.206	144.879	183.915	65.095	196.474	-24.911	260.207	210.118	24.479	103.796	0.00019496	0.00058052	0.00016303	1096	5.9344e-06	4.9361e-06	1204.8	229.87	1.0687e-06	2.0623e-06	294.61	82.228	65.021	18.965	5.3393e-06	26.419	0.00048221	0.00046053	0.00011931	1074.2	5.367e-06	5.0824e-06	1179.3	231.76	5.4865e-06	4.9741e-06	295.37	85.15	69.867	20.333	4.576e-06	28.2	-72.456	-36.199	-16.351	-73.081	-22.418	53.655	-73.088	-65.960	-56.702	24.620	-66.084	-58.991	-58.332	-52.544	-4.097	-52.480	-8191	255	
1548.384	1	1	0	0	0.097745	0.13644	0.1034	0.22413	0.1993	0.25966	0.29673	0.075963	0.079219	0.2193	0.22897	0.21054	0.28972	0.19726	0.28014	0.084248	-0.225	-0.7125	-1.0625	-0.39167	-0.99792	-0.97708	-0.69583	-1.3875	-0.92708	-0.63542	-1.4792	-0.61875	-0.92917	-1.2104	-0.48958	-1.3667	147.775	196.309	-40.213	-80.682	274.940	148.854	229.258	177.178	-13.827	207.842	10.801	254.920	247.769	239.542	-26.106	-48.837	0.0001844	0.00014503	0.00022913	1084.8	5.9807e-06	4.2062e-06	1201.3	230.53	8.725e-06	7.9834e-06	294.21	82.731	65.514	18.928	4.7764e-06	26.742	0.00049831	0.00044621	0.00011895	1074.8	5.4752e-06	4.9876e-06	1177.7	232.93	5.5111e-06	4.8236e-06	294.58	85.998	69.752	20.256	4.6045e-06	28.543	-13.326	208.933	-34.586	-73.278	20.866	43.254	-72.834	-65.685	-12.318	-7.031	-65.929	-58.974	-58.976	-52.444	171.651	-52.496	-8191	255	
1548.505	1	1	0	0	0.067988	0.054872	0.23951	0.30253	0.04443	0.059177	0.18162	0.1854	0.19083	0.034805	0.12266	0.29981	0.11734	0.090656	0.18205	0.12246	-0.54167	-0.56875	-1.3	-0.79583	-0.9625	-1.2229	-0.675	-1.3708	-0.88333	-0.45	-1.6417	-0.67083	-0.98542	-1.425	-0.61042	-1.2625	-45.250	194.608	139.659	-3.571	-18.669	92.089	87.329	257.810	262.463	-47.646	190.831	254.050	191.262	4.944	28.429	248.096	3.0032e-05	0.00017725	7.4284e-05	1096.4	5.397e-06	2.4696e-06	1205.9	231.57	5.8511e-06	2.7469e-06	293.27	81.882	65.335	18.94	5.728e-06	26.733	0.0004957	0.000439	0.00012239	1084.3	5.3327e-06	4.9544e-06	1182.1	234.32	5.3981e-06	4.7317e-06	295.14	86.533	69.301	20.25	4.7391e-06	28.676	10.254	-48.775	212.532	-73.389	116.653	230.538	-73.031	-65.599	-46.954	-26.268	-66.215	-59.206	-58.725	-52.038	135.052	-52.009	-8191	255	
1548.599	1	1	0	0	0.14365	0.1841	0.12414	0.23156	0.35737	0.21306	0.076006	0.14248	0.091935	0.10035	0.14847	0.11503	0.22682	0.18338	0.15998	0.1634	-0.64583	-0.65208	-1.2479	-0.80833	-0.97083	-1.1	-0.65417	-1	-1.0021	-0.41875	-1.2854	-0.85417	-0.88125	-1.3875	-0.42708	-1.1604	254.322	1.336	39.727	265.899	167.620	-13.145	19.426	147.833	-38.195	237.961	-77.476	261.708	91.670	103.498	-36.247	224.049	0.00017023	0.00020721	0.00012064	1086.9	3.8595e-06	2.1066e-06	1206.1	230.56	4.466e-06	4.6662e-06	295.74	82.861	65.733	19.063	5.9796e-06	26.512	0.00046338	0.00042565	0.00012303	1082.3	4.9591e-06	4.7448e-06	1181.7	234.11	5.054e-06	4.5417e-06	296.57	86.643	68.845	20.138	4.9252e-06	28.516	-71.932	-57.173	136.230	-73.230	72.998	83.804	-72.956	-65.911	47.555	5.763	-65.921	-59.140	-58.536	-51.681	165.993	-52.646	-8191	255	
1548.695	1	1	0	0	0.16259	0.078243	0.26214	0.48255	0.11435	0.059698	0.15039	0.10594	0.017308	0.23451	0.22452	0.071049	0.2648	0.29127	0.11051	0.092344	-0.68958	-0.41042	-1.4062	-0.6375	-0.7125	-1.4125	-0.575	-0.95208	-1.1958	-0.38542	-1.4729	-0.88333	-0.625	-1.4188	-0.68958	-1	93.786	-70.311	154.015	254.802	24.375	234.386	232.791	-81.358	185.795	1.007	222.191	254.486	-30.870	256.802	238.636	21.158	2.1532e-05	0.00017566	0.00028784	1093	4.9112e-06	6.243e-06	1201.1	231.31	1.436e-06	3.5387e-06	296.15	82.671	65.778	19.09	1.0029e-05	26.448	0.00043572	0.00040292	0.0001269	1082	4.6795e-06	4.5171e-06	1183.9	233.4	4.7642e-06	4.4083e-06	297.33	86.035	68.197	20.137	5.1548e-06	28.314	-17.504	63.948	64.708	-73.111	-28.013	59.882	-73.117	-65.811	55.077	142.944	-65.938	-58.988	-58.573	-52.030	169.849	-52.608	-8191	255	
1548.767	1	1	0	0	0.23158	0.16816	0.22285	0.14151	0.16576	0.1332	0.018081	0.34972	0.29938	0.057619	0.099413	0.21362	0.16805	0.203	0.35055	0.23473	-0.94792	-0.45	-1.1333	-1.1229	-0.63333	-1.2188	-0.69792	-1.0729	-1.0854	-0.42708	-1.1854	-1.1375	-0.44792	-1.3458	-0.69792	-1.0146	0.007	225.201	135.954	-75.930	-78.287	37.130	57.185	-57.754	74.954	-19.245	-38.198	45.149	-44.304	6.987	16.314	229.670	0.00013106	0.00035721	0.00013894	1089.5	2.6545e-06	3.9581e-06	1206.8	230.48	3.7714e-06	2.7344e-06	291.58	82.71	65.191	18.865	7.0212e-06	26.659	0.00041395	0.0003941	0.00012953	1075.8	4.3123e-06	4.361e-06	1182.3	231.04	4.315e-06	4.1452e-06	295.29	84.823	66.864	19.79	4.8346e-06	27.773	180.465	200.098	130.072	-73.285	-30.977	172.240	-72.764	-65.652	14.943	206.864	-65.972	-59.231	-58.960	-51.751	250.774	-52.025	-8191	255	
1548.888	1	1	0	0	0.013058	0.25834	0.23514	0.15154	0.033395	0.21797	0.186	0.35413	0.16167	0.074259	0.0222	0.063241	0.076049	0.34274	0.11837	0.22053	-0.78333	-0.375	-1.1833	-0.96042	-0.64167	-1.3021	-0.67292	-0.90208	-1.3333	-0.4625	-1.1979	-1.2771	-0.64792	-1.3563	-0.6625	-0.71667	-30.532	87.601	-27.270	228.845	188.903	223.055	127.318	237.745	246.966	151.359	237.703	228.035	128.088	48.535	107.662	-55.523	4.8997e-05	0.0005922	0.00015132	1085.6	5.8879e-06	4.0092e-06	1196.3	229.9	4.704e-06	6.7786e-06	294.09	82.976	64.684	18.85	3.0321e-06	26.681	0.00037228	0.00037566	0.00012071	1065.3	3.9267e-06	4.2701e-06	1175.9	229.63	4.0201e-06	4.27e-06	294.28	84.182	66.391	19.967	4.7101e-06	27.579	216.383	108.206	213.124	-73.173	-0.686	209.733	-73.064	-65.776	2.498	221.661	-65.881	-58.815	-58.729	-51.770	240.146	-52.940	-8191	255	
1548.984	1	1	0	0	0.23141	0.11019	0.095974	0.37855	0.13112	0.193	0.17527	0.37053	0.22106	0.13059	0.1482	0.081216	0.34256	0.25057	0.098958	0.40208	-0.91875	-0.55833	-0.9875	-1.3396	-0.41875	-1.4479	-1.0042	-0.61458	-1.4333	-0.52917	-1.1313	-1.1688	-0.32083	-1.3417	-0.87292	-0.52708	180.159	95.017	-12.986	236.795	36.932	58.192	-73.240	203.097	80.395	-65.583	-11.970	140.232	-5.475	5.231	18.266	229.348	9.3169e-05	0.0001876	7.7458e-05	1084.8	2.9531e-06	4.6328e-06	1196.3	229.77	1.2092e-06	2.8399e-06	293.82	82.419	65.025	18.959	4.565e-06	26.476	0.0003615	0.00039923	0.00011706	1062.7	3.8283e-06	4.5177e-06	1171.1	228.6	3.9483e-06	4.492e-06	292.66	83.749	66.385	20.088	4.5335e-06	27.474	-21.723	190.324	-50.657	-73.341	17.933	-25.710	-73.192	-65.577	236.738	-2.552	-65.849	-59.048	-58.555	-51.683	-30.479	-52.590	-8191	255	
1549.080	1	1	0	0	0.43268	0.35053	0.15643	0.13934	0.045389	0.21017	0.31622	0.32709	0.26594	0.2928	0.23665	0.10722	0.25706	0.21746	0.15841	0.2177	-1.0583	-0.49583	-0.84375	-1.3604	-0.43958	-1.2938	-1.0458	-0.69583	-1.4792	-0.82083	-0.99167	-1.4625	-0.4625	-1.1792	-1.0875	-0.58958	130.176	167.280	-80.171	-65.800	176.037	257.948	182.316	-59.740	28.884	161.209	236.506	14.080	40.899	236.560	209.250	227.411	1.0571e-05	0.00036982	0.00019052	1088.8	1.7367e-06	3.6935e-06	1200.6	229.84	3.669e-06	6.3765e-06	292.18	82.49	64.532	18.987	3.5996e-06	26.464	0.00036642	0.00042764	0.00011153	1060.3	4.028e-06	4.7154e-06	1170.2	228.75	4.1653e-06	4.7505e-06	291.26	83.809	66.79	20.146	4.3652e-06	27.361	104.235	166.541	6.766	-73.091	120.283	157.105	-73.012	-65.939	108.517	119.737	-65.868	-59.250	-58.848	-51.499	43.685	-52.165	-8191	255	
1549.176	1	1	0	0	0.26138	0.1566	0.22411	0.18715	0.3014	0.12682	0.46965	0.29382	0.29021	0.16347	0.28701	0.17241	0.10464	0.11179	0.24029	0.18031	-1.0604	-0.73958	-0.41667	-1.4875	-0.44583	-1.2708	-1.3854	-0.61875	-1.35	-0.81458	-0.89375	-1.5792	-0.59375	-1.0458	-1.2687	-0.37292	-76.385	158.756	-27.055	235.731	157.096	-67.199	237.825	263.894	-61.888	138.765	-83.157	1.396	-1.087	242.578	-22.051	171.072	8.0051e-05	0.00022023	5.9514e-05	1079.6	2.0967e-06	5.1398e-06	1198	229.63	6.8576e-06	4.4756e-06	292.87	82.203	64.481	18.863	2.2429e-06	26.397	0.00038488	0.00043236	0.00010585	1058	4.2283e-06	4.6562e-06	1166.9	227.64	4.317e-06	4.6221e-06	290.2	83.383	66.899	19.993	4.1312e-06	27.204	227.611	194.395	64.716	-73.205	-25.388	12.627	-73.137	-65.649	-6.979	205.502	-66.089	-59.009	-58.875	-51.685	-70.164	-52.380	-8191	255	
1549.297	1	1	0	0	0.095058	0.23208	0.23525	0.19692	0.14744	0.11572	0.16732	0.42009	0.36167	0.20867	0.12192	0.37845	0.097531	0.20202	0.21382	0.19681	-1.0833	-0.825	-0.49167	-1.5521	-0.55417	-1.0354	-1.5896	-0.64792	-1.3208	-1.0042	-0.74792	-1.2979	-0.71875	-0.97292	-1.2417	-0.58958	-27.828	199.315	-64.089	240.459	134.291	234.459	195.697	252.312	113.164	160.574	266.712	-76.147	275.836	-51.971	107.973	96.715	0.00016648	0.00027933	0.00011483	1082.3	3.0492e-06	3.27e-06	1193.4	228.6	2.5234e-06	3.0498e-06	291	82.271	64.457	18.774	6.7026e-06	26.413	0.00039992	0.00040928	0.0001002	1056.3	4.4e-06	4.3175e-06	1163.9	227.15	4.4143e-06	4.3047e-06	288.71	83.204	67.211	19.778	3.956e-06	27.254	265.388	-65.704	-14.278	-73.169	154.333	85.276	-72.973	-65.671	224.834	83.467	-65.916	-58.566	-58.848	-51.926	57.254	-52.173	-8191	255	
1549.368	1	1	0	0	0.11373	0.027279	0.21539	0.22459	0.082708	0.14807	0.30581	0.16534	0.27035	0.11866	0.080393	0.098599	0.0939	0.23054	0.31646	0.024011	-0.85625	-1.0521	-0.36875	-1.4917	-0.7875	-0.85	-1.4937	-0.51458	-1.3021	-1.1229	-0.59583	-1.6562	-0.6875	-0.77083	-1.4562	-0.52708	19.070	86.491	238.818	232.642	137.868	140.653	258.422	-78.936	262.248	-20.118	223.231	247.576	-54.135	-53.172	-38.968	219.918	0.00010505	0.00031714	3.4751e-05	1081	4.4375e-06	7.435e-06	1190.9	228.12	2.8097e-06	3.475e-06	289.9	81.935	64.535	18.925	3.9845e-06	26.513	0.00040202	0.00038418	9.6101e-05	1053.8	4.5015e-06	4.0811e-06	1160	227.08	4.5235e-06	4.0921e-06	287.74	83.355	67.295	19.646	3.7696e-06	27.359	-14.365	-25.671	67.359	-73.173	20.972	43.691	-72.950	-65.673	16.013	73.539	-65.832	-58.826	-58.367	-52.130	47.336	-52.623	-8191	255	
1549.465	1	1	0	0	0.14044	0.23522	0.23058	0.33076	0.097245	0.23467	0.18065	0.20375	0.19765	0.093008	0.20549	0.25358	0.16949	0.34614	0.31061	0.0814	-0.70417	-1.125	-0.33958	-1.7062	-0.85833	-0.76667	-1.5042	-0.70833	-0.96875	-1.1104	-0.49583	-1.4688	-0.85417	-0.55	-1.4083	-0.58125	-49.666	-17.601	149.577	236.707	-42.506	52.021	161.155	159.036	255.143	34.584	248.322	265.028	216.745	267.665	187.122	193.181	5.7881e-05	0.00044779	5.8584e-05	1075.5	5.6079e-06	5.745e-06	1192.2	227.13	7.8919e-07	4.9982e-06	290.37	81.629	63.882	18.807	2.5674e-06	26.142	0.00039377	0.00036309	9.1622e-05	1053.3	4.3282e-06	3.7771e-06	1157.4	227	4.2388e-06	3.9074e-06	287.04	83.59	66.535	19.562	3.7732e-06	27.456	220.432	-54.089	52.737	-73.253	38.119	67.982	-72.843	-65.753	28.707	65.640	-65.646	-58.793	-58.931	-52.044	-47.752	-52.945	-8191	255	
1549.585	1	1	0	0	0.15297	0.48374	0.21403	0.16823	0.16039	0.1536	0.31199	0.12224	0.22442	0.081324	0.17757	0.17948	0.23645	0.39913	0.27015	0.1329	-0.575	-1.3188	-0.4125	-1.4167	-0.9625	-0.55417	-1.6688	-0.59792	-1.1021	-1.3292	-0.70625	-1.2354	-1.0812	-0.55833	-1.4438	-0.8375	189.626	45.845	272.856	-70.198	99.700	180.099	247.434	245.513	-30.082	234.469	7.113	273.543	258.048	-54.962	-47.491	122.267	6.1639e-05	0.00026505	3.6616e-05	1079	2.6892e-07	6.0422e-07	1185.6	227.63	2.712e-06	6.2685e-06	291.89	81.77	64.275	18.787	6.25e-06	26.386	0.00038143	0.00035562	9.3603e-05	1057.5	4.1886e-06	3.7022e-06	1157.4	228.1	4.0954e-06	3.899e-06	287.54	84.181	66.491	19.495	3.9378e-06	27.608	-40.585	11.817	31.647	-73.232	-35.086	198.623	-72.860	-66.015	30.399	91.443	-66.273	-58.847	-58.770	-52.122	130.180	-52.951	-8191	255	
1549.680	1	1	0	0	0.063794	0.18812	0.0735	0.23386	0.096708	0.060229	0.181	0.0084619	0.27544	0.19244	0.27343	0.098767	0.22845	0.17336	0.075156	0.093438	-0.575	-1.4208	-0.51875	-1.2979	-1.0187	-0.54167	-1.4896	-0.7125	-0.8125	-1.3146	-0.52708	-1.275	-1.0333	-0.43333	-1.4271	-0.96458	157.362	185.293	143.970	253.176	202.940	255.773	226.393	224.279	264.925	2.587	140.362	234.519	269.148	40.610	11.984	238.104	5.3347e-05	0.00013726	0.0001474	1075.8	6.2227e-06	3.2841e-06	1182	227.24	2.8137e-06	9.5714e-07	290.78	82.308	64.601	18.698	6.6692e-06	26.481	0.00035888	0.00034637	9.8973e-05	1055	4.0492e-06	3.679e-06	1156.5	227.95	3.9377e-06	3.7944e-06	288.78	83.958	66.153	19.435	4.189e-06	27.664	135.030	77.522	119.563	-73.191	7.711	75.692	-73.121	-65.584	84.957	249.820	-65.879	-58.904	-58.989	-51.245	202.279	-52.702	-8191	255	
1549.776	1	1	0	0	0.063132	0.14898	0.1871	0.156	0.24071	0.058926	0.19681	0.2196	0.10892	0.10683	0.27423	0.22967	0.11452	0.1695	0.056085	0.23635	-0.17292	-1.3896	-0.69167	-1.3146	-1.2021	-0.27917	-1.4271	-0.96042	-0.45833	-1.4917	-0.74167	-0.87917	-1.2062	-0.52083	-1.2083	-1.0354	-59.123	82.296	-80.892	211.564	53.055	217.947	165.846	199.819	201.393	230.011	-57.279	-83.358	202.670	196.899	-61.480	236.386	0.00012367	0.00042332	7.2277e-05	1075.8	1.5896e-06	2.9553e-06	1182.2	228.03	2.1154e-06	6.3887e-06	289.15	81.872	64.056	18.671	1.4336e-06	26.296	0.0003469	0.00034769	0.00010761	1055.6	3.933e-06	3.6361e-06	1160.5	227.39	3.8472e-06	3.779e-06	289.26	83.489	65.85	19.443	4.3695e-06	27.403	258.727	256.582	33.127	-73.228	105.157	120.079	-72.818	-66.004	5.029	174.013	-66.234	-58.858	-58.707	-51.544	6.860	-52.191	-8191	255	
1549.896	1	1	0	0	0.12936	0.05876	0.1338	0.24173	0.19289	0.13788	0.35526	0.17107	0.19876	0.22569	0.29957	0.24389	0.22405	0.1711	0.16766	0.074821	-0.41667	-1.3396	-0.6625	-1.0042	-1.3042	-0.43125	-1.4813	-1.0729	-0.42708	-1.3792	-0.76042	-0.94375	-1.4208	-0.47292	-1.0042	-1.0625	155.555	-50.926	-75.679	264.365	250.047	187.769	272.056	44.291	241.799	195.293	203.401	147.175	-13.452	40.541	64.832	247.092	7.5127e-05	0.00054458	7.0512e-05	1076	3.0438e-06	7.5302e-07	1186.3	227.22	1.5906e-06	2.8331e-06	289.56	81.43	64.809	18.784	1.859e-06	26.366	0.00033566	0.0003456	0.00011155	1052.8	3.8511e-06	3.7462e-06	1161.1	226.74	3.7142e-06	3.8412e-06	289.68	82.969	65.68	19.528	4.3903e-06	27.226	232.529	0.929	54.250	-73.169	-10.545	197.712	-72.970	-65.607	200.804	31.941	-66.104	-58.821	-58.819	-51.399	146.865	-51.913	-8191	255	
1549.992	1	1	0	0	0.17561	0.10148	0.14775	0.041647	0.17004	0.17204	0.16074	0.13838	0.2173	0.050982	0.22239	0.078883	0.1138	0.13086	0.23849	0.22004	-0.3125	-1.35	-0.63125	-0.83958	-1.2646	-0.50833	-1.2646	-1.2271	-0.40833	-1.3583	-0.92917	-0.68125	-1.4771	-0.41042	-1.075	-1.2229	248.384	35.725	269.725	73.937	-73.042	66.964	252.979	173.870	-42.991	-59.501	-81.348	29.757	-35.873	200.351	20.969	64.107	0.00010916	0.00019105	0.00016408	1076.9	1.6271e-06	5.2802e-06	1186.8	226.81	1.3955e-06	2.0688e-06	289.98	81.563	63.75	18.702	1.0581e-05	26.411	0.00033087	0.00035855	0.00011251	1048.1	3.7091e-06	3.9417e-06	1159.6	226.1	3.5441e-06	4.003e-06	288.81	82.644	65.302	19.6	4.1752e-06	27.105	-72.906	112.522	-31.726	-73.349	262.728	231.422	-72.805	-66.023	165.421	84.922	-66.110	-59.017	-58.652	-52.057	36.795	-52.574	-8191	255	
1550.064	1	1	0	0	0.21205	0.211	0.12191	0.2886	0.080435	0.17058	0.23632	0.41457	0.12087	0.072124	0.11326	0.055302	0.19652	0.19864	0.18447	0.28401	-0.11875	-1.1958	-0.79167	-0.58958	-1.1833	-0.64167	-1.0708	-1.2958	-0.47917	-1.1646	-1.0792	-0.63125	-1.5438	-0.72292	-0.98542	-1.3146	84.434	-48.094	40.420	-82.570	240.631	138.799	173.365	177.236	42.768	-16.743	204.084	14.492	-66.566	253.806	162.359	-69.320	6.8873e-05	0.00056759	0.00011289	1075.7	3.1953e-06	4.7751e-06	1185.6	226.09	3.1406e-07	3.4462e-06	289.67	81.924	63.733	18.725	4.4907e-06	26.409	0.00031698	0.00036915	0.00010506	1046.3	3.6132e-06	4.0688e-06	1156.4	225.03	3.4525e-06	4.1243e-06	287.36	81.999	65.022	19.637	3.8784e-06	26.965	150.959	142.380	-52.016	-73.017	51.815	57.995	-73.022	-65.773	136.637	132.391	-65.940	-58.672	-58.710	-52.400	61.896	-52.351	-8191	255	
1550.185	1	1	0	0	0.21724	0.14638	0.22361	0.044538	0.095869	0.19732	0.20098	0.1816	0.11765	0.20711	0.15047	0.18379	0.28258	0.25869	0.16052	0.33911	-0.16667	-1.25	-0.85625	-0.67708	-1.3646	-0.79375	-0.84167	-1.3125	-0.48125	-1.2437	-1.2396	-0.53333	-1.4125	-0.775	-0.675	-1.5792	208.344	-35.320	252.801	231.374	69.573	166.281	-79.244	195.631	194.712	-4.186	34.293	-7.819	-26.511	-55.976	-29.163	-7.798	0.00013733	0.0001183	6.5595e-05	1073.1	1.1945e-06	5.7823e-07	1187.1	225.91	4.3911e-06	4.0661e-06	290.42	80.895	63.657	18.636	1.9868e-06	26.273	0.00032298	0.00037817	9.9492e-05	1042.9	3.7255e-06	4.2112e-06	1154.1	224.38	3.6744e-06	4.1641e-06	287.06	81.809	65.41	19.585	3.6328e-06	26.816	261.002	200.898	-31.063	-73.243	174.960	10.575	-72.790	-65.735	229.322	61.680	-65.983	-58.626	-58.297	-51.709	20.714	-52.864	-8191	255	
1550.281	1	1	0	0	0.26192	0.11194	0.12301	0.28977	0.046298	0.21176	0.28371	0.034444	0.14599	0.31542	0.13837	0.17544	0.27842	0.20823	0.12302	0.07032	-0.35	-1.2437	-1.2917	-0.52917	-1.225	-0.80208	-0.9625	-1.4625	-0.52083	-1.1104	-1.2417	-0.44583	-1.3438	-0.95208	-0.48958	-1.6104	20.613	34.868	4.750	270.088	89.959	-11.391	-77.313	122.763	5.582	-6.284	-37.950	-45.320	236.050	-71.694	203.299	130.685	0.000225	0.00043823	0.00010525	1069.4	6.4169e-06	5.9021e-06	1184	225.97	4.0068e-06	7.7236e-06	288.67	81.785	63.867	18.635	1.3627e-06	26.294	0.000337	0.00036776	9.4917e-05	1039.9	3.8129e-06	4.0386e-06	1147.1	223.82	3.8109e-06	3.9009e-06	284.67	81.805	65.548	19.457	3.4266e-06	26.74	246.319	-5.031	75.640	-73.181	69.197	73.133	-72.984	-65.727	-56.401	13.976	-65.816	-59.145	-58.581	-51.918	255.243	-51.846	-8191	255	
1550.377	1	1	0	0	0.25537	0.25819	0.25754	0.20988	0.059804	0.25356	0.18237	0.28836	0.21116	0.15091	0.081209	0.2391	0.22705	0.26667	0.11624	0.098172	-0.24583	-0.96667	-1.3333	-0.42708	-1.3937	-0.9	-0.82708	-1.5479	-0.52708	-1.0083	-1.4875	-0.45625	-1.45	-0.86875	-0.65	-1.4375	57.574	273.672	-68.520	274.544	-30.982	-1.904	245.633	235.542	78.119	129.411	184.927	-76.677	270.492	-69.395	259.245	4.309	0.00019494	0.00024802	5.8769e-05	1064.8	4.4754e-06	4.7826e-06	1174.4	225.47	1.9448e-06	4.864e-06	286.92	81.22	63.962	18.623	4.4839e-06	26.065	0.00034572	0.0003431	8.8682e-05	1035.5	3.8585e-06	3.7606e-06	1142.2	223.12	3.8669e-06	3.6147e-06	282.86	81.49	65.385	19.29	3.2328e-06	26.638	247.491	13.474	-82.551	-73.269	3.119	33.083	-72.855	-65.407	-61.869	93.256	-65.847	-58.686	-58.565	-51.663	78.334	-52.216	-8191	255	
1550.473	1	1	0	0	0.098032	0.22659	0.28482	0.06851	0.0872	0.16192	0.19609	0.30343	0.15651	0.1587	0.12007	0.13531	0.29734	0.021242	0.099006	0.15741	-0.25833	-0.67292	-1.3438	-0.5875	-1.1354	-1.0646	-0.5875	-1.5604	-0.65833	-0.65208	-1.6063	-0.54583	-1.1021	-1.0208	-0.43958	-1.6146	195.608	-49.343	-1.750	227.553	193.216	68.756	267.682	256.179	-4.853	82.733	-59.055	218.530	167.236	-58.556	35.180	189.756	0.00015502	0.00035387	0.00011544	1066.1	2.7397e-06	5.7581e-06	1171.1	225.34	4.4108e-06	7.0245e-06	288.78	81.033	63.58	18.55	4.1907e-06	25.94	0.00034986	0.00031983	8.5304e-05	1036.3	3.9195e-06	3.5814e-06	1139.4	223.72	3.9925e-06	3.528e-06	283.61	81.899	65.506	19.254	3.2328e-06	26.833	215.794	260.607	-5.848	-73.147	-52.814	48.741	-72.763	-65.410	213.481	35.519	-66.034	-58.822	-58.715	-51.923	89.862	-52.325	-8191	255	
1550.592	1	1	0	0	0.078181	0.020028	0.18478	0.066935	0.099077	0.24178	0.27392	0.18849	0.30816	0.228	0.23218	0.21591	0.23933	0.28129	0.21724	0.20158	-0.55	-0.60417	-1.4083	-0.75	-0.99375	-1.2333	-0.64375	-1.2875	-0.83125	-0.61667	-1.55	-0.51667	-0.94583	-1.1688	-0.49792	-1.2458	37.149	2.447	-26.562	84.421	194.516	222.364	240.722	159.796	186.300	-80.780	221.530	170.362	165.756	36.654	193.403	-52.556	5.9406e-05	0.00019972	9.9141e-05	1060.8	2.1938e-06	3.546e-06	1173.5	224.19	4.79e-06	4.2111e-06	286	81.013	63.114	18.496	3.4889e-06	26.185	0.00035422	0.00030531	8.2727e-05	1036.4	3.6816e-06	3.3805e-06	1135.4	222.75	3.6376e-06	3.2051e-06	281.22	81.704	64.401	18.999	3.1842e-06	26.801	247.655	241.652	-44.665	-72.971	-7.107	87.958	-73.005	-65.485	67.846	61.516	-65.766	-58.787	-58.015	-51.473	86.946	-51.753	-8191	255	
1550.664	1	1	0	0	0.094566	0.10172	0.20648	0.25933	0.23622	0.048298	0.5736	0.21661	0.29649	0.085523	0.3144	0.21238	0.13811	0.082985	0.071603	0.26359	-0.68333	-0.32083	-1.5083	-0.6125	-0.71667	-1.2458	-0.69375	-1.5083	-0.9875	-0.36875	-1.5896	-0.5875	-0.66875	-1.2687	-0.42292	-1.1063	221.946	148.984	198.888	219.539	253.504	159.885	238.986	227.468	-23.365	-16.086	271.891	187.552	264.684	273.973	240.229	269.351	6.102e-05	0.00024445	0.0001554	1063.3	3.4233e-06	2.4525e-06	1170.4	224.24	4.9401e-06	2.3309e-06	286.75	80.506	63.547	18.445	2.4408e-06	25.766	0.00032077	0.00028769	8.2367e-05	1032.6	3.4567e-06	3.2313e-06	1133.5	222.74	3.4452e-06	3.1081e-06	281.35	81.538	64.139	18.955	3.2252e-06	26.699	250.624	-1.576	190.040	-73.155	81.320	23.873	-72.977	-65.444	91.810	125.952	-65.768	-58.590	-58.418	-51.411	275.950	-52.274	-8191	255	
1550.760	1	1	0	0	0.12467	0.27212	0.15115	0.30919	0.16313	0.085848	0.34541	0.14016	0.14962	0.19479	0.27575	0.071904	0.10009	0.2156	0.13259	0.27196	-0.67083	-0.39375	-1.3958	-0.82917	-0.7	-1.3729	-0.66042	-1.2271	-1.0625	-0.4625	-1.4521	-0.9125	-0.53125	-1.4937	-0.51875	-1.1396	116.163	115.067	254.172	-71.145	249.288	177.047	226.431	195.307	239.658	178.874	76.294	119.820	28.784	51.866	197.158	69.484	5.0968e-06	9.9325e-05	8.0345e-05	1053.7	2.0134e-06	4.6259e-06	1166.4	223.27	3.1935e-06	2.9756e-07	286.1	80.596	62.804	18.523	5.7372e-06	26.13	0.0003022	0.00027512	8.4271e-05	1030.5	3.2128e-06	3.1452e-06	1132.8	221.82	3.3437e-06	3.0486e-06	282.01	81.515	63.588	18.914	3.5472e-06	26.681	244.348	213.114	6.302	-73.171	-27.095	265.260	-72.847	-65.585	206.118	95.030	-65.905	-58.783	-59.157	-51.994	172.168	-52.188	-8191	255	
1550.858	1	1	0	0	0.26686	0.0091067	0.068272	0.14502	0.14169	0.17744	0.10046	0.14094	0.17892	0.23124	0.099565	0.092255	0.36361	0.1102	0.19472	0.26711	-0.89167	-0.58333	-1.3542	-0.98958	-0.65208	-1.2771	-0.82917	-1	-1.175	-0.6	-1.3	-0.95625	-0.55	-1.5583	-0.6875	-0.9	141.226	144.827	216.569	133.617	-76.162	-29.311	242.721	-36.623	-33.958	267.027	100.471	-53.002	-15.118	195.361	152.619	-65.530	6.1872e-05	0.00024963	0.00010136	1057.8	6.8867e-06	4.691e-06	1167.4	223.58	2.0758e-06	1.9522e-06	286.7	80.923	63.637	18.41	2.6381e-06	26.032	0.00029415	0.00027573	9.1076e-05	1029.8	3.1156e-06	3.0864e-06	1136.2	221.03	3.1958e-06	3.023e-06	282.74	81.158	63.563	18.926	3.6757e-06	26.523	275.938	3.151	50.528	-72.926	43.504	48.017	-72.896	-65.846	-10.226	44.461	-66.025	-59.073	-58.440	-51.623	-19.945	-52.063	-8191	255	
1550.977	1	1	0	0	0.075109	0.083865	0.12791	0.248	0.087024	0.033545	0.1571	0.1491	0.03352	0.12026	0.22013	0.28892	0.036545	0.17199	0.076823	0.24848	-0.94583	-0.48958	-1.2792	-1.1333	-0.5	-1.3479	-0.91458	-0.90625	-1.35	-0.43125	-1.2333	-1.2167	-0.64792	-1.45	-0.78542	-0.96667	192.264	-9.463	-2.909	208.446	41.707	120.277	233.995	160.028	55.867	274.761	275.719	192.900	272.895	175.822	220.596	223.484	8.7514e-05	0.00010233	4.5208e-05	1056.5	5.2758e-07	1.3489e-06	1168.2	224.1	2.6458e-06	1.8948e-06	286.03	80.24	63.158	18.453	3.0035e-06	26.026	0.00029033	0.00028435	9.3861e-05	1027.5	3.0582e-06	3.2031e-06	1135	220.71	3.1169e-06	3.1662e-06	282.39	80.672	63.129	18.982	3.6409e-06	26.259	-37.040	-63.120	7.251	-72.960	-80.392	18.375	-72.781	-65.701	88.650	-40.247	-65.831	-58.802	-58.526	-52.271	13.562	-52.322	-8191	255	
1551.073	1	1	0	0	0.18058	0.24156	0.12017	0.19528	0.19349	0.25971	0.11146	0.13801	0.011414	0.1127	0.10705	0.084442	0.1213	0.2597	0.17239	0.21402	-1.0771	-0.4125	-1.125	-1.2958	-0.33333	-1.25	-0.93542	-0.79583	-1.4104	-0.67083	-1.1646	-1.1938	-0.40625	-1.3375	-1.0167	-0.61458	-79.030	-78.987	176.488	227.061	68.723	231.539	233.176	235.025	198.511	12.618	215.914	-25.913	-62.960	-68.879	107.942	-80.691	0.00012367	0.00024266	2.7424e-05	1058.6	3.04e-06	1.8606e-06	1165	223.37	3.471e-06	1.4663e-06	286.95	80.707	62.628	18.447	5.5e-06	25.985	0.00027668	0.00029734	8.9881e-05	1023.8	2.9174e-06	3.3149e-06	1132.1	219.9	2.985e-06	3.3441e-06	281.25	80.372	62.569	18.965	3.3563e-06	26.126	259.280	114.301	142.030	-73.213	44.278	81.027	-72.703	-65.702	146.143	178.372	-65.574	-58.314	-58.265	-51.780	4.524	-52.478	-8191	255	
1551.169	1	1	0	0	0.21316	0.12796	0.24803	0.15686	0.10909	0.16283	0.27015	0.15144	0.050119	0.10709	0.29716	0.15257	0.081104	0.074451	0.11525	0.19783	-1.0354	-0.28125	-0.97708	-1.4417	-0.36875	-1.1417	-1.0396	-0.50417	-1.2208	-0.64375	-1.0042	-1.1313	-0.73125	-1.1854	-0.86667	-0.49167	-29.825	110.902	252.952	179.951	262.555	41.964	244.119	-32.225	106.054	-24.684	215.588	110.008	157.044	232.280	252.606	-14.916	6.5979e-05	0.0001502	0.00011122	1048.7	1.3836e-06	2.5139e-06	1161.6	221.71	2.6797e-06	4.9991e-06	284.46	80.287	63.488	18.365	4.1908e-06	25.731	0.000266	0.00030573	8.158e-05	1017.2	2.839e-06	3.3311e-06	1125.2	218.37	2.9119e-06	3.3502e-06	279.16	79.856	62.874	18.929	3.0487e-06	25.806	227.512	-67.314	-5.534	-73.170	70.103	267.848	-72.759	-65.224	-78.382	269.684	-66.254	-58.164	-58.070	-51.289	-18.763	-51.994	-8191	255	
1551.265	1	1	0	0	0.28436	0.16157	0.066546	0.091535	0.089553	0.12373	0.12533	0.35802	0.18262	0.20963	0.12534	0.17101	0.13771	0.21313	0.080697	0.080544	-1.0792	-0.52083	-0.83542	-1.3937	-0.425	-1.2271	-1.2896	-0.63958	-1.4312	-0.65833	-0.70833	-1.4604	-0.47083	-1.0646	-1.2333	-0.36667	228.426	-17.330	131.887	160.558	105.929	148.957	170.674	-64.679	205.595	150.920	-82.191	25.282	193.298	83.054	229.730	-29.202	0.00017862	0.00012104	0.00010556	1045.8	3.5205e-06	1.5638e-06	1157.4	220.59	1.6246e-06	4.4237e-06	280.58	79.487	62.772	18.236	4.0069e-06	25.683	0.00025859	0.00029479	7.3243e-05	1009.3	2.782e-06	3.0845e-06	1115.5	216.26	2.7762e-06	3.0553e-06	274.39	78.86	62.172	18.621	2.7213e-06	25.615	-70.631	-80.369	25.865	-73.018	195.547	36.628	-73.003	-65.538	240.160	92.935	-65.734	-59.055	-58.105	-51.705	32.664	-52.193	-8191	255	
1551.361	1	1	0	0	0.11618	0.30253	0.28256	0.40569	0.14994	0.10203	0.18732	0.14196	0.21856	0.24149	0.1467	0.017277	0.17409	0.049034	0.10296	0.11406	-0.7375	-0.56458	-0.85208	-1.5146	-0.50833	-0.75208	-1.375	-0.53125	-1.1333	-0.92708	-0.72083	-1.3563	-0.64583	-1.0021	-1.1854	-0.49792	253.631	251.043	57.483	181.201	70.836	-31.128	211.876	-0.003	46.080	-50.058	205.121	55.166	142.815	148.622	-54.039	159.927	4.4546e-05	6.8865e-05	3.5672e-05	1036.5	2.217e-06	1.3882e-06	1152.3	220.2	2.3578e-06	2.6675e-06	282.18	79.921	62.423	18.417	4.9413e-06	25.597	0.0002582	0.00027172	6.6361e-05	1002.2	2.8798e-06	2.922e-06	1108.8	215.47	2.9667e-06	2.9589e-06	274.31	78.93	62.452	18.641	2.7164e-06	25.651	202.372	71.355	240.113	-73.044	163.272	2.449	-72.811	-65.632	262.407	70.817	-65.777	-58.842	-58.179	-51.567	44.988	-52.060	-8191	255	
1551.457	1	1	0	0	0.07392	0.21302	0.031054	0.05621	0.08793	0.18799	0.19319	0.20875	0.22001	0.33906	0.19039	0.16713	0.044811	0.15199	0.16544	0.27154	-0.81458	-0.72708	-0.4375	-1.4458	-0.70625	-0.8375	-1.5229	-0.47917	-1.2771	-0.925	-0.45208	-1.2875	-0.87292	-0.80833	-1.3458	-0.525	165.744	97.119	179.733	4.536	10.463	-68.453	241.052	230.728	-30.625	256.585	263.385	-63.014	264.059	262.954	17.215	163.017	2.9676e-05	0.00038353	9.2044e-05	1039.2	5.3791e-06	1.7894e-06	1151.7	220.74	3.1673e-06	4.1928e-06	283.58	79.482	62.46	18.334	7.1399e-06	25.545	0.00027583	0.00026885	6.6233e-05	1004.4	3.0717e-06	2.853e-06	1109.2	216.05	3.1002e-06	2.873e-06	274.72	79.27	62.806	18.538	2.6472e-06	25.746	131.123	-70.868	17.468	-72.821	157.489	207.499	-72.906	-65.408	29.499	46.696	-65.437	-58.477	-58.809	-51.551	72.028	-52.143	-8191	255	
1551.578	1	1	0	0	0.029577	0.20562	0.038449	0.22564	0.15481	0.18623	0.16675	0.39396	0.11374	0.21597	0.27014	0.15578	0.2984	0.21155	0.13177	0.11618	-0.82083	-0.66667	-0.38542	-1.5396	-0.65833	-0.77292	-1.6396	-0.55208	-1.0854	-1.1187	-0.60417	-1.45	-0.63542	-0.65	-1.3646	-0.55	65.104	76.620	186.542	-65.058	92.059	155.729	192.879	182.170	244.513	180.390	254.207	206.953	72.924	-35.720	8.191	90.142	6.2925e-05	0.00051951	0.00011421	1040.9	3.0783e-06	2.9319e-06	1154.1	219.3	3.5913e-06	2.4794e-06	283.55	79.807	62.616	18.352	3.6039e-06	25.508	0.00027436	0.00024983	6.3889e-05	1005.3	3.0757e-06	2.6563e-06	1109.2	215.74	2.9751e-06	2.676e-06	273.7	79.18	62.564	18.469	2.526e-06	25.838	-81.847	60.741	-7.891	-72.819	37.302	34.417	-73.377	-65.969	108.415	218.832	-66.834	-59.415	-59.204	-51.914	10.631	-53.493	-8191	255	
1551.672	1	1	0	0	0.23645	0.35745	0.14958	0.23948	0.33487	0.12548	0.23189	0.21258	0.24738	0.18316	0.34854	0.16772	0.12502	0.044808	0.1303	0.23196	-0.56875	-1.1646	-0.44792	-1.4042	-0.78333	-0.45833	-1.3292	-0.49167	-0.61042	-1.1292	-0.48958	-1.2687	-0.6	-0.54792	-1.1854	-0.5875	273.512	-34.533	127.941	-79.360	-77.878	271.413	234.126	235.239	239.782	-27.776	-51.695	107.072	-64.484	-48.755	49.356	168.198	0.00012641	0.00025509	0.00010508	1035.9	2.5559e-06	2.2102e-06	1146.1	219.33	5.9347e-06	4.3523e-06	281.59	79.56	62.595	18.303	2.3255e-06	25.633	0.00025741	0.00023898	6.1212e-05	1004.4	2.7679e-06	2.4548e-06	1105.7	216.06	2.6181e-06	2.4323e-06	272.94	78.923	61.72	18.27	2.2994e-06	25.651	240.977	23.877	-10.644	-73.726	103.919	-55.147	-73.410	-66.183	85.973	7.400	-66.338	-59.241	-59.166	-52.084	145.663	-52.568	-8191	255	
1551.769	1	1	0	0	0.036248	0.28846	0.15849	0.34799	0.23332	0.21858	0.32162	0.097187	0.27633	0.11108	0.068763	0.18269	0.17897	0.059191	0.34925	0.20934	-0.46042	-1.2542	-0.47917	-1.3292	-0.95417	-0.53542	-1.6625	-0.72708	-0.7125	-1.3396	-0.58125	-1.2604	-1.1417	-0.42708	-1.3208	-0.80417	204.038	153.898	130.058	196.212	42.075	22.957	199.661	-82.670	-27.668	89.582	15.123	28.500	255.772	-49.916	199.367	261.867	0.00011237	0.00032039	5.0827e-05	1027.5	3.6625e-06	1.0941e-06	1140	217.21	4.1855e-06	5.4999e-06	279.45	78.832	61.398	18.023	1.3554e-06	25.668	0.00021682	0.00020158	5.6045e-05	993.52	2.3e-06	2.0888e-06	1092.7	213.18	2.2015e-06	2.1345e-06	269.63	78.005	60.364	18.069	2.35e-06	25.566	-57.223	-41.577	49.387	-73.487	22.334	-39.429	-73.197	-65.822	160.859	39.407	-66.305	-59.081	-59.161	-52.028	235.836	-52.702	-8191	255	
1551.865	1	1	0	0	0.21812	0.15365	0.23212	0.19163	0.21942	0.28942	0.24048	0.12353	0.19261	0.091046	0.26982	0.097645	0.17035	0.13948	0.12268	0.20782	-0.45417	-1.1896	-0.56458	-1.1729	-1.0104	-0.58333	-1.3604	-0.79167	-0.45625	-1.4875	-0.82083	-1.0938	-1.1938	-0.35625	-1.1542	-0.8875	240.411	-80.619	-79.374	233.768	231.157	240.192	166.680	223.681	123.591	4.361	84.269	89.124	170.815	24.317	250.319	201.492	3.915e-05	0.00021692	5.7901e-05	1023.1	5.2528e-06	4.8956e-06	1132.1	218.2	2.7401e-06	4.7597e-06	278.8	79.654	62.297	18.134	3.0626e-06	25.56	0.00020522	0.00020174	6.1086e-05	987.16	2.3819e-06	2.1936e-06	1092.3	213.65	2.2835e-06	2.2829e-06	271.67	78.434	60.901	18.15	2.6571e-06	25.645	-29.363	-71.688	-51.241	-73.272	94.900	87.221	-73.239	-66.229	2.863	81.474	-66.228	-59.002	-59.128	-52.098	-10.663	-52.108	-8191	255	
1551.961	1	1	0	0	0.094434	0.08471	0.23021	0.15378	0.19282	0.090764	0.36111	0.19163	0.23436	0.36082	0.31086	0.28982	0.049543	0.10111	0.19781	0.24714	-0.29583	-1.3833	-0.67708	-0.98333	-1.2875	-0.46667	-1.4479	-0.96875	-0.65833	-1.3042	-0.64375	-0.87083	-1.4458	-0.50833	-1.3563	-1.125	12.394	15.536	191.775	-37.018	272.146	-5.891	242.189	100.523	-5.547	116.940	275.182	174.716	-15.895	258.424	33.911	253.868	5.3185e-05	0.00014897	4.4527e-05	1024.2	6.1141e-07	3.1412e-06	1140.2	216.29	3.553e-06	7.9031e-07	280.15	79.548	61.8	18.197	4.5434e-06	25.708	0.0002103	0.00021074	6.7361e-05	989.41	2.3788e-06	2.253e-06	1097.1	212.62	2.2151e-06	2.308e-06	272.34	78.14	60.685	18.152	2.681e-06	25.545	-78.897	-62.720	-25.911	-73.458	-65.810	225.552	-73.307	-66.171	274.274	-13.747	-66.320	-59.157	-58.877	-52.068	7.469	-52.621	-8191	255	
1552.057	1	1	0	0	0.30769	0.09514	0.070154	0.22504	0.21739	0.099404	0.31899	0.31226	0.054809	0.13093	0.19819	0.18066	0.15244	0.17978	0.047617	0.16216	-0.24792	-1.4104	-0.58542	-0.86458	-1.4458	-0.38958	-1.3896	-1.2563	-0.42292	-1.3479	-0.83542	-0.7875	-1.2917	-0.48958	-1.0958	-1.2021	206.136	59.209	14.428	165.584	102.238	245.506	-75.703	209.125	-79.190	67.474	-66.677	174.829	8.436	-43.858	-1.919	-77.552	0.00013747	0.00026635	0.0001065	1026.9	1.5537e-06	5.8779e-06	1133.2	216.34	5.5175e-06	3.4747e-06	279.64	79.124	61.346	18.202	5.8906e-06	25.608	0.00020215	0.0002171	6.8766e-05	989.44	2.2899e-06	2.3798e-06	1095.7	212.32	2.2075e-06	2.4385e-06	272.01	77.847	60.374	18.285	2.6008e-06	25.479	-68.326	261.675	-39.984	-73.488	-13.233	164.968	-73.203	-65.872	34.616	41.975	-66.294	-59.101	-58.647	-51.951	2.741	-52.609	-8191	255	
1552.153	1	1	0	0	0.16068	0.095139	0.37017	0.19843	0.10412	0.15251	0.14601	0.10635	0.13972	0.30361	0.33387	0.15833	0.3566	0.28307	0.2354	0.17078	-0.225	-1.1458	-1.025	-0.65833	-1.425	-0.4625	-1.175	-1.2833	-0.6625	-1.3563	-0.93542	-0.64583	-1.2	-0.54583	-0.94792	-1.2292	116.511	55.606	66.852	164.275	-83.413	-80.279	-79.236	233.609	217.112	15.432	270.287	136.024	128.495	258.398	8.287	157.757	1.3008e-05	0.00033919	0.00011646	1024.5	3.0485e-06	4.8274e-06	1135.7	216.98	2.6318e-06	2.8698e-06	278.6	78.844	62.361	18.184	4.1605e-06	25.63	0.00019572	0.00022706	6.5358e-05	986.18	2.2248e-06	2.4985e-06	1094	212.44	2.164e-06	2.5505e-06	270.97	77.565	60.793	18.343	2.4884e-06	25.425	-24.923	73.346	171.206	-73.262	46.950	208.578	-73.400	-66.033	-5.375	92.941	-66.443	-59.362	-58.719	-52.517	252.582	-52.541	-8191	255	
1552.274	1	1	0	0	0.233	0.1423	0.14255	0.18954	0.22417	0.09792	0.38345	0.19598	0.082503	0.077345	0.078502	0.18253	0.15194	0.20525	0.18324	0.10042	-0.060417	-1.2104	-1.0125	-0.59583	-1.4458	-0.49792	-1.0167	-1.4021	-0.33333	-1.1562	-1.2979	-0.57708	-1.3896	-0.86667	-0.89167	-1.4854	239.866	242.283	153.303	189.508	3.314	37.456	185.634	-69.728	258.524	185.129	274.449	251.142	139.059	87.778	16.081	56.903	0.00011358	9.6885e-05	7.5188e-05	1026.4	3.9947e-06	3.984e-06	1133.8	218.29	3.2745e-06	4.6287e-06	279.93	78.838	61.721	18.094	5.9455e-06	25.686	0.00020133	0.00023963	6.3566e-05	986.03	2.3172e-06	2.6208e-06	1091.3	212.78	2.2848e-06	2.6369e-06	271.61	77.55	60.635	18.32	2.3166e-06	25.399	261.419	-78.439	-3.544	-73.604	86.423	18.962	-73.214	-65.968	196.096	64.851	-66.392	-58.692	-58.831	-52.124	-5.819	-53.115	-8191	255	
1552.370	1	1	0	0	0.20721	0.05391	0.11916	0.41624	0.086277	0.14693	0.2997	0.22075	0.11667	0.14218	0.1233	0.26124	0.1387	0.19863	0.33714	0.3293	-0.2125	-1.1396	-1.1708	-0.4875	-1.3833	-0.91458	-0.72083	-1.4271	-0.38542	-1.1812	-1.2729	-0.35208	-1.2687	-0.81667	-0.71667	-1.4292	45.231	79.907	236.946	226.500	250.156	224.520	222.286	134.443	-76.714	242.823	167.901	227.614	-14.638	262.192	265.806	131.610	7.9718e-05	0.0006536	0.00016973	1021.9	1.2636e-06	4.8273e-06	1139	217.44	2.3989e-06	1.526e-06	280.31	79.649	62.324	18.126	1.4981e-06	25.416	0.00021364	0.00023797	5.965e-05	983.99	2.3855e-06	2.6056e-06	1091.8	212.25	2.416e-06	2.574e-06	270.91	77.636	61.198	18.311	2.2807e-06	25.336	265.615	-13.575	9.423	-73.451	-67.554	125.946	-73.192	-65.948	223.842	20.823	-66.264	-59.200	-58.672	-52.469	-30.756	-52.835	-8191	255	
1552.464	1	1	0	0	0.4379	0.074621	0.083654	0.3459	0.034647	0.04912	0.35683	0.37315	0.057193	0.11248	0.13981	0.060409	0.27035	0.15382	0.20506	0.13367	-0.14167	-0.96458	-1.1208	-0.50417	-1.3604	-0.79167	-0.77917	-1.625	-0.53125	-0.9625	-1.3208	-0.31458	-1.4188	-0.88542	-0.47708	-1.5333	73.068	184.053	68.274	210.385	16.603	261.655	218.439	249.371	-7.872	151.998	214.593	60.952	108.498	71.314	-33.379	-55.921	0.00011044	0.00045404	7.7197e-05	1020.8	4.8329e-06	9.4096e-07	1134	217.68	2.756e-06	4.9551e-06	281.5	78.99	62.046	18.201	4.1061e-06	25.698	0.00022997	0.000228	5.9885e-05	983.65	2.5857e-06	2.553e-06	1088.8	212.28	2.6189e-06	2.4795e-06	270.56	77.467	61.258	18.29	2.2466e-06	25.465	-69.987	20.293	-19.540	-73.317	-16.690	55.952	-73.052	-65.922	72.322	98.544	-66.298	-59.112	-58.684	-52.286	41.750	-52.639	-8191	255	
1552.538	1	1	0	0	0.13556	0.16503	0.20811	0.14087	0.055857	0.19959	0.13369	0.55893	0.17963	0.51681	0.10878	0.2556	0.121	0.043472	0.069014	0.18944	-0.0375	-0.95208	-1.375	-0.675	-1.2938	-1.0688	-0.71875	-1.4521	-0.7875	-0.67292	-1.4042	-0.38333	-1.0875	-0.97917	-0.67917	-1.6063	147.572	181.389	208.542	220.510	-47.761	-60.399	273.053	233.643	-17.519	9.847	20.860	-43.263	5.252	249.725	190.842	246.452	0.00012848	0.00030058	0.00014156	1018.2	4.198e-06	2.0673e-06	1130.8	218.24	2.2619e-06	6.8851e-06	278.73	78.784	61.578	18.012	1.2059e-06	25.658	0.00024712	0.00022465	5.9196e-05	982.3	2.7048e-06	2.4954e-06	1088.5	212.79	2.7068e-06	2.3961e-06	270.23	77.903	61.381	18.138	2.2584e-06	25.552	-46.575	3.285	159.525	-73.523	17.272	194.464	-72.920	-65.540	105.899	45.072	-66.044	-58.959	-58.711	-52.055	158.418	-52.480	-8191	255	
1552.658	1	1	0	0	0.20054	0.14383	0.12715	0.28001	0.13892	0.20765	0.16524	0.057773	0.20498	0.24002	0.11648	0.13271	0.14648	0.27942	0.16167	0.12636	-0.29167	-0.58333	-1.4438	-0.56042	-1.0354	-1.2313	-0.49167	-1.15	-0.72292	-0.59792	-1.4125	-0.35625	-0.97708	-1.2042	-0.49375	-1.2437	237.596	58.620	263.822	249.462	36.904	189.333	185.389	266.699	110.542	109.823	-52.931	209.931	261.835	237.952	26.954	-49.240	4.2398e-05	0.00032152	5.6656e-05	1015.8	1.4507e-06	2.1226e-06	1134.2	217.69	3.7126e-06	1.7972e-06	277.71	78.993	61.582	18.07	3.0682e-06	25.577	0.00024911	0.00021695	5.9303e-05	983.93	2.6795e-06	2.4542e-06	1088.5	213	2.7172e-06	2.3405e-06	269.81	78.214	61.147	18.215	2.2867e-06	25.676	-25.157	-21.989	83.639	-73.372	-20.213	-10.288	-73.162	-65.948	114.189	-4.442	-66.272	-59.012	-59.032	-51.768	274.752	-52.587	-8191	255	
1552.753	1	1	0	0	0.082436	0.26203	0.19761	0.11012	0.060981	0.20197	0.23901	0.10642	0.25524	0.18174	0.109	0.2623	0.0955	0.25815	0.13995	0.034444	-0.58958	-0.725	-1.3062	-0.6125	-0.76875	-1.2479	-0.49167	-1.1812	-0.97292	-0.38125	-1.3458	-0.61042	-0.86042	-1.3083	-0.50625	-1.1479	146.656	-16.443	16.435	-47.452	141.583	237.760	134.148	174.301	-0.670	250.446	177.512	-34.940	226.047	166.896	238.506	-30.812	0.0001133	0.00022222	2.8286e-05	1017.4	6.8118e-07	9.9225e-07	1130	217.41	9.8142e-07	1.0443e-06	280.15	78.414	61.987	18.181	6.7563e-06	25.684	0.00024259	0.00021377	5.9934e-05	986.76	2.5487e-06	2.3962e-06	1087.6	213.41	2.5704e-06	2.3415e-06	271.15	78.322	61.066	18.198	2.4352e-06	25.787	272.940	7.785	-73.072	-73.310	25.569	215.635	-73.197	-65.922	136.291	13.904	-65.998	-59.025	-58.688	-51.965	68.597	-52.528	-8191	255	
1552.849	1	1	0	0	0.15389	0.28922	0.1209	0.099899	0.30737	0.32732	0.3003	0.08985	0.12551	0.01116	0.27958	0.38709	0.18312	0.022147	0.34248	0.072261	-0.52083	-0.46875	-1.1688	-0.85	-0.60833	-1.4729	-0.79792	-1.1562	-1.2625	-0.59583	-1.4833	-0.72917	-0.75833	-1.3375	-0.39583	-1.1167	76.990	3.271	-71.655	-82.835	108.900	138.653	229.618	157.964	219.003	119.116	24.510	-44.975	192.729	169.161	225.434	60.857	6.5672e-05	0.00034009	2.6752e-05	1019.7	6.8754e-06	5.3914e-06	1128	218.33	3.8143e-06	3.6529e-06	279.63	78.585	62.082	18.261	3.4415e-06	25.767	0.00023161	0.00020913	6.3309e-05	988.22	2.4835e-06	2.3746e-06	1089.5	213.99	2.5231e-06	2.2915e-06	271.69	78.324	60.72	18.213	2.6346e-06	25.793	262.624	55.513	-73.127	-73.511	90.537	52.590	-73.164	-65.512	-25.261	273.631	-66.164	-59.234	-58.950	-52.016	2.959	-52.824	-8191	255	
1552.945	1	1	0	0	0.19888	0.067013	0.14213	0.32094	0.37037	0.1452	0.042083	0.19379	0.037401	0.12842	0.22577	0.19456	0.046022	0.20096	0.050713	0.077805	-0.77083	-0.66875	-1.2646	-0.95625	-0.68333	-1.3667	-0.68333	-1.0667	-1.3479	-0.47292	-1.3854	-0.99167	-0.72708	-1.4813	-0.71667	-0.92292	58.204	64.238	-61.407	-69.874	43.397	235.187	-11.280	-56.754	130.406	190.684	-36.781	154.568	216.242	158.958	246.629	258.271	8.6296e-05	9.528e-05	0.0001447	1026.6	5.2513e-06	8.5255e-07	1135.4	216.8	1.7255e-06	3.085e-06	280.7	78.754	61.481	18.046	3.3409e-06	25.686	0.00022797	0.00021114	6.9175e-05	991.85	2.4515e-06	2.3884e-06	1095.7	213.5	2.5549e-06	2.3763e-06	273.9	78.55	60.813	18.314	2.9016e-06	25.778	275.589	153.056	75.829	-73.434	0.315	-43.713	-72.900	-65.580	106.641	215.540	-66.473	-58.910	-58.602	-51.681	194.844	-52.764	-8191	255	
1553.066	1	1	0	0	0.045442	0.16593	0.071564	0.23063	0.007919	0.0078844	0.096469	0.29943	0.41149	0.10041	0.21273	0.24042	0.08924	0.10625	0.15126	0.11154	-0.86667	-0.5125	-1.0646	-1.0229	-0.66458	-1.3479	-0.77292	-1.0417	-1.3479	-0.35833	-1.2958	-1.0688	-0.35833	-1.3438	-0.54167	-0.79375	203.872	42.082	208.772	250.611	-36.064	210.516	259.609	272.108	94.537	-55.911	157.125	267.610	161.556	254.405	2.870	-54.366	5.6741e-05	0.00031854	0.00015975	1027.2	3.5801e-06	5.7612e-06	1135.7	218.38	2.6056e-06	3.9662e-06	280.1	79.605	62.52	18.322	4.9936e-06	25.623	0.00023359	0.00022395	7.4175e-05	993.55	2.4583e-06	2.5566e-06	1101.5	213.92	2.5612e-06	2.532e-06	274.43	78.711	61.156	18.503	3.0253e-06	25.721	163.024	47.274	-3.259	-73.409	-0.630	150.427	-73.104	-65.778	93.873	191.805	-65.815	-59.433	-58.660	-51.992	271.174	-52.444	-8191	255	
1553.162	1	1	0	0	0.3092	0.15566	0.24206	0.25311	0.2377	0.15496	0.3491	0.4269	0.21182	0.40006	0.13513	0.18758	0.096118	0.11665	0.19885	0.2427	-1.1104	-0.35417	-1.1729	-1.2146	-0.6875	-1.2771	-0.80417	-0.90417	-1.2188	-0.56667	-1.0562	-1.2208	-0.47083	-1.1833	-0.87708	-0.91667	-2.505	166.521	21.736	253.675	47.147	32.890	245.764	232.271	262.097	178.013	177.611	-78.222	108.294	221.399	229.890	-55.335	0.00010949	0.00011643	0.0001502	1030.7	6.9727e-07	1.2877e-06	1142.3	219.04	7.0029e-06	6.6139e-06	282.18	79.328	62.382	18.383	7.1665e-06	25.796	0.0002331	0.00024383	7.5641e-05	994.9	2.5036e-06	2.7997e-06	1104.8	214.64	2.5913e-06	2.8443e-06	275.16	78.722	61.306	18.61	3.0429e-06	25.755	-77.619	130.379	-28.149	-73.409	48.751	126.858	-73.177	-65.744	60.630	157.464	-65.846	-58.800	-58.655	-51.934	55.654	-52.442	-8191	255	
1553.258	1	1	0	0	0.13693	0.042889	0.085776	0.17282	0.20844	0.25125	0.19002	0.18823	0.17074	0.41973	0.22808	0.15188	0.1523	0.13511	0.11335	0.15419	-1.1313	-0.36667	-0.95833	-1.3521	-0.3375	-1.2292	-1.0063	-0.62083	-1.3875	-0.65625	-1.0729	-1.25	-0.58333	-1.2563	-0.76458	-0.60625	-3.978	-7.853	250.404	-76.337	59.876	193.625	174.290	-39.345	245.429	259.598	221.758	-70.371	-4.213	-43.344	-52.028	201.691	0.00016472	0.0002833	1.3064e-05	1036.4	1.8969e-06	9.3692e-07	1144.1	219.8	3.7808e-06	5.1861e-06	282.02	79.242	62.686	18.334	5.756e-06	25.842	0.00023782	0.00027122	7.547e-05	999.06	2.5691e-06	3.0343e-06	1105.5	215.62	2.703e-06	3.1146e-06	275.84	78.831	61.935	18.819	3.0032e-06	25.77	235.154	-55.954	-1.363	-73.416	28.306	126.341	-73.296	-65.782	213.513	202.380	-66.251	-59.327	-58.501	-51.814	112.713	-52.720	-8191	255	
1553.354	1	1	0	0	0.32629	0.02689	0.15985	0.24961	0.11219	0.15942	0.3965	0.063299	0.11861	0.18146	0.19262	0.14977	0.21556	0.17399	0.11523	0.1657	-0.83125	-0.65417	-0.925	-1.4438	-0.36458	-1.2	-1.1271	-0.50417	-1.3583	-0.78333	-0.73542	-1.4958	-0.5125	-1.1458	-1.1271	-0.425	244.483	55.584	30.915	213.005	-79.846	30.520	133.069	40.051	-53.336	123.788	222.998	159.032	228.011	-6.876	-79.740	181.233	4.5597e-05	0.00018898	0.00010884	1030.1	5.0972e-06	7.4928e-06	1143.2	219.23	2.8527e-06	5.0691e-06	281.67	79.591	62.613	18.422	2.2237e-06	25.773	0.00025446	0.00029	7.3047e-05	999.27	2.7656e-06	3.164e-06	1107.3	215.19	2.8851e-06	3.1971e-06	275.41	79.099	62.239	18.773	2.917e-06	25.819	226.877	-47.730	3.197	-73.476	197.428	89.810	-73.176	-65.646	275.771	27.145	-65.784	-58.863	-58.969	-51.894	54.635	-52.750	-8191	255	
1553.450	1	1	0	0	0.26078	0.18564	0.15643	0.1148	0.13615	0.06664	0.19546	0.094137	0.16214	0.35762	0.0692	0.25235	0.27515	0.098756	0.15396	0.13168	-0.95833	-0.69583	-0.48125	-1.5	-0.45208	-1.1583	-1.3271	-0.76667	-1.0979	-0.70625	-0.74792	-1.4854	-0.39583	-0.9125	-1.175	-0.2375	145.270	-82.236	267.871	-43.002	-19.423	95.127	34.549	-68.016	140.943	93.891	139.611	263.226	197.833	234.843	197.247	5.850	0.00012642	0.00066709	0.00010987	1037.2	2.7792e-06	1.8655e-06	1152	219.44	4.2444e-06	4.366e-06	282.84	79.514	62.696	18.226	5.4697e-06	25.91	0.00027091	0.00029368	7.0979e-05	1001.7	3.0041e-06	3.1185e-06	1110.3	215.4	3.0784e-06	3.1884e-06	275.15	79.102	62.963	18.713	2.8558e-06	25.862	269.920	-34.250	-66.624	-73.340	-27.293	38.583	-73.199	-65.595	-62.701	-52.757	-66.204	-58.648	-58.639	-51.746	-27.420	-52.525	-8191	255	
1553.545	1	1	0	0	0.10064	0.21522	0.31635	0.15699	0.21528	0.27458	0.024265	0.1669	0.31265	0.19342	0.24857	0.18458	0.44874	0.10944	0.074406	0.12486	-0.8625	-0.84792	-0.38125	-1.5833	-0.42083	-1.0583	-1.4688	-0.65833	-1.2167	-0.93542	-0.54583	-1.2854	-0.83125	-0.75625	-1.2333	-0.54375	66.262	226.252	-24.624	274.134	36.405	50.183	-80.759	224.069	179.071	75.085	161.708	270.480	146.238	217.066	191.557	-62.965	0.00014272	0.00032523	0.00014546	1034.3	5.3378e-06	5.2343e-06	1145.7	219.85	5.1391e-06	5.1834e-06	282.66	80.013	62.562	18.259	2.9497e-06	25.813	0.00028235	0.00027919	6.937e-05	1002.1	3.1238e-06	2.9509e-06	1107.8	215.84	3.1532e-06	2.9889e-06	274.59	79.398	63.2	18.626	2.7888e-06	25.876	235.329	-25.702	-19.429	-73.257	63.845	93.556	-73.000	-65.859	76.910	33.247	-65.674	-59.392	-59.006	-51.570	4.640	-52.531	-8191	255	
1553.665	1	1	0	0	0.11742	0.16648	0.17157	0.49689	0.15177	0.078769	0.11612	0.28337	0.096703	0.04119	0.18557	0.11537	0.13091	0.35557	0.26728	0.25663	-0.68958	-0.72708	-0.39792	-1.4312	-0.61667	-0.77292	-1.4292	-0.4875	-1.025	-1.0396	-0.48125	-1.3583	-0.64583	-0.64583	-1.1708	-0.46667	194.225	85.581	-81.757	192.283	101.326	234.316	143.570	227.512	-24.336	82.016	220.639	109.887	-59.557	-60.895	132.937	96.236	6.3956e-05	6.6063e-06	0.00011448	1039.2	8.1654e-06	2.0133e-06	1149.6	220.15	4.4202e-06	7.8262e-06	281.7	79.456	62.28	18.331	3.6798e-06	25.606	0.00029275	0.00027079	6.8976e-05	1006	3.2524e-06	2.8655e-06	1108.3	216.36	3.198e-06	2.9336e-06	274.3	79.484	62.955	18.511	2.7441e-06	25.967	-82.369	247.121	-1.423	-73.204	-8.446	21.111	-73.037	-65.788	11.713	56.679	-65.911	-59.330	-58.563	-51.888	15.947	-52.527	-8191	255	
1553.762	1	1	0	0	0.27314	0.097627	0.091688	0.30312	0.12732	0.060364	0.29254	0.45999	0.19182	0.12748	0.03882	0.046123	0.12562	0.059038	0.26887	0.17839	-0.44792	-0.91458	-0.24167	-1.5312	-0.77708	-0.69375	-1.1437	-0.58542	-0.96875	-1.2313	-0.53542	-1.175	-0.7375	-0.49167	-1.2729	-0.68333	68.154	147.707	75.638	233.712	-80.127	84.586	174.249	250.357	-6.305	1.041	29.659	99.273	208.837	209.875	211.407	-14.285	0.00018409	0.00046419	8.1554e-05	1036.3	4.717e-06	1.3888e-06	1147.3	219.61	3.6461e-06	3.761e-06	281.65	79.811	61.96	18.23	3.1271e-06	25.642	0.00028063	0.00026043	6.5963e-05	1006.8	3.137e-06	2.7524e-06	1107.1	216.67	3.0603e-06	2.8649e-06	274.24	79.765	62.519	18.497	2.8307e-06	26.056	264.435	-56.524	179.331	-73.173	63.527	78.235	-72.914	-65.987	98.953	118.677	-66.039	-59.332	-58.540	-52.110	104.657	-52.575	-8191	255	
1553.833	1	1	0	0	0.27139	0.28704	0.075155	0.16465	0.21556	0.28474	0.41876	0.31617	0.073642	0.16338	0.31409	0.052183	0.32646	0.4316	0.24419	0.24845	-0.3375	-1.2833	-0.425	-1.2687	-0.78333	-0.56042	-1.5625	-0.74375	-0.74375	-1.3333	-0.63542	-1.1833	-1.0854	-0.36667	-1.3438	-0.76042	260.934	-11.764	174.607	-62.937	15.696	-10.339	243.351	226.058	178.292	211.915	234.032	259.047	35.994	272.836	87.389	145.659	6.5766e-05	0.00057563	0.00015184	1035.5	4.7167e-06	3.4121e-06	1146.5	220.15	4.8174e-06	3.7982e-06	284.38	79.462	62.765	18.151	3.5609e-06	25.72	0.00027036	0.00025663	6.9417e-05	1007	2.9989e-06	2.6901e-06	1108.8	217.59	2.9162e-06	2.7588e-06	275.73	79.784	62.487	18.457	2.9558e-06	26.126	251.051	-22.486	74.269	-73.215	28.677	18.432	-72.980	-65.736	93.649	74.960	-65.922	-58.911	-58.395	-51.730	146.982	-52.337	-8191	255	
1553.929	1	1	0	0	0.056192	0.13741	0.26051	0.14246	0.14847	0.1718	0.34962	0.1618	0.21413	0.16124	0.17497	0.34798	0.16747	0.0423	0.30009	0.055005	-0.19792	-1.2958	-0.3875	-1.1896	-0.84167	-0.52708	-1.3354	-0.88958	-0.74792	-1.4	-0.66667	-1.1875	-1.0271	-0.425	-1.1708	-0.93542	236.262	50.989	176.649	269.437	-43.889	66.190	249.880	249.382	56.498	127.349	267.216	249.866	99.371	197.428	13.887	212.975	2.0871e-05	0.0002099	7.5285e-05	1039.7	4.3029e-06	3.0391e-06	1146.4	220.04	1.9922e-06	3.0229e-06	282.13	79.285	62.62	18.23	3.6647e-06	25.794	0.00025993	0.00025235	7.5738e-05	1009.5	2.9304e-06	2.6805e-06	1110.5	217.12	2.7827e-06	2.7379e-06	275.84	79.555	62.129	18.4	3.1433e-06	26.053	34.880	-76.109	108.571	-73.316	-5.840	80.879	-73.031	-65.692	-53.213	49.035	-66.075	-58.870	-59.010	-52.208	-27.718	-52.464	-8191	255	
1554.050	1	1	0	0	0.027586	0.10332	0.16034	0.11266	0.083384	0.36746	0.20221	0.050593	0.20581	0.14451	0.14277	0.29947	0.10649	0.25376	0.063955	0.17647	-0.225	-1.5167	-0.48958	-1.0792	-1.2854	-0.62708	-1.2958	-1.0604	-0.43333	-1.3771	-0.5125	-1.0562	-1.1229	-0.34792	-1.1521	-0.92708	242.416	165.629	185.916	-43.237	141.627	-1.959	249.026	242.212	106.577	153.520	152.601	247.050	-17.088	210.801	180.822	196.307	6.1028e-05	0.0002584	0.00010083	1039.8	3.3941e-06	4.4676e-06	1144	219.63	9.4458e-07	3.3129e-06	282.1	80.033	62.194	18.209	4.5392e-06	25.7	0.00024861	0.0002496	8.0227e-05	1007.6	2.8656e-06	2.6805e-06	1111	216.64	2.7464e-06	2.8055e-06	276.75	79.551	62.231	18.477	3.2386e-06	25.844	218.878	78.647	-47.988	-73.269	60.537	112.511	-72.917	-65.486	45.214	187.967	-65.821	-58.522	-58.870	-51.836	97.440	-52.233	-8191	255	
1554.146	1	1	0	0	0.18968	0.27834	0.047478	0.32699	0.36278	0.088163	0.10285	0.19981	0.16047	0.12269	0.1274	0.22724	0.13239	0.24277	0.25257	0.39841	-0.05625	-1.3104	-0.43333	-1.0208	-1.2708	-0.32708	-1.2896	-1.1771	-0.45417	-1.2583	-0.825	-0.89375	-1.3229	-0.54167	-1.225	-1.1417	204.593	-71.320	-55.285	210.484	-77.361	222.783	-59.680	-79.249	-45.781	271.928	-43.163	243.578	49.839	-81.277	270.678	267.407	9.1694e-05	0.00040706	4.2745e-05	1035.9	4.9762e-06	2.4581e-06	1152.3	219.52	3.4748e-06	1.6333e-06	281.73	79.849	62.629	18.117	5.9217e-06	25.712	0.00024734	0.00025801	8.2952e-05	1004.1	2.7789e-06	2.8185e-06	1114.6	216.1	2.6747e-06	2.9397e-06	277.26	79.271	62.036	18.599	3.1679e-06	25.815	-53.452	72.860	272.268	-72.973	48.674	111.563	-72.798	-65.578	-15.770	27.592	-65.971	-58.948	-58.943	-51.375	34.408	-52.630	-8191	255	
1554.242	1	1	0	0	0.15757	0.16683	0.069044	0.29614	0.39432	0.20943	0.070743	0.20432	0.098922	0.24301	0.27236	0.35602	0.066056	0.22036	0.18115	0.11551	0.027083	-1.1604	-0.70625	-0.64167	-1.1521	-0.46875	-0.96875	-1.2938	-0.26875	-1.1646	-0.8	-0.68125	-1.2313	-0.4375	-0.91458	-1.2042	83.218	171.363	28.970	-78.252	-12.280	255.174	26.796	220.475	221.631	145.410	-77.053	30.009	206.530	226.798	-51.923	-18.127	0.00011411	0.00037922	0.00018689	1033.4	3.1908e-06	1.0189e-06	1153.7	219.76	3.2073e-06	3.0207e-06	282.2	79.704	62.225	18.393	3.6367e-06	25.497	0.00023991	0.00027716	8.2205e-05	1002	2.7492e-06	3.0657e-06	1115.5	216.23	2.6683e-06	3.1062e-06	277.07	79.116	62.079	18.758	3.064e-06	25.739	221.295	131.824	-22.164	-73.056	100.413	118.686	-72.901	-65.730	75.042	34.692	-65.978	-58.444	-58.655	-51.784	-36.391	-52.031	-8191	255	
1554.338	1	1	0	0	0.060496	0.072023	0.078121	0.51783	0.24437	0.16736	0.28265	0.26657	0.24079	0.19926	0.29954	0.19739	0.15115	0.33255	0.16188	0.1988	-0.11458	-1.0375	-0.80208	-0.45	-1.2917	-0.575	-1.0521	-1.3188	-0.3125	-1.1875	-1.0562	-0.40625	-1.2833	-0.71458	-0.67292	-1.4438	126.905	130.681	137.202	239.319	172.137	275.902	251.837	228.767	119.396	209.895	205.280	-32.057	260.535	250.564	269.189	-73.261	0.00015786	0.0002236	9.52e-05	1039.1	2.2963e-06	3.431e-06	1151.8	219.49	4.6773e-06	6.33e-07	283.13	79.439	62.481	18.227	4.1508e-06	25.63	0.00024048	0.00028831	7.7923e-05	1002.3	2.8069e-06	3.2076e-06	1113.3	216.16	2.7565e-06	3.2033e-06	276.3	78.835	62.258	18.718	2.9337e-06	25.777	-28.264	243.664	-9.618	-73.209	-60.813	86.011	-72.743	-65.534	-56.783	60.887	-66.136	-58.927	-58.524	-52.171	27.077	-52.236	-8191	255	
1554.435	1	1	0	0	0.27273	0.075878	0.082597	0.13728	0.24891	0.22654	0.086163	0.15514	0.17292	0.17069	0.20809	0.21266	0.17901	0.059439	0.094634	0.10524	-0.054167	-0.97708	-1.2396	-0.61667	-1.3583	-0.825	-0.94792	-1.4646	-0.34583	-1.1812	-1.2896	-0.5375	-1.2437	-1.0083	-0.53542	-1.5458	90.557	-44.571	275.063	259.075	-8.080	238.932	68.823	-48.975	79.831	250.659	137.443	205.857	225.650	-21.719	89.862	259.692	0.00012889	0.00015149	0.00011824	1038.6	1.6478e-06	3.1415e-06	1145.7	219.42	5.143e-06	4.1514e-06	281.68	79.897	62.602	18.278	2.8152e-06	25.511	0.00025834	0.00029601	7.5424e-05	1001.6	2.9399e-06	3.2392e-06	1109.5	215.93	2.9312e-06	3.1625e-06	275.38	78.948	62.657	18.747	2.8058e-06	25.692	253.998	131.508	-60.297	-73.209	188.469	89.708	-72.746	-65.704	99.282	146.536	-65.980	-58.683	-58.537	-51.595	85.245	-52.251	-8191	255	
1554.531	1	1	0	0	0.16267	0.24748	0.23834	0.079253	0.22751	0.072194	0.29008	0.13703	0.42007	0.20656	0.2385	0.091447	0.11914	0.23218	0.40201	0.20321	-0.13125	-0.725	-1.0396	-0.27917	-1.2646	-0.81042	-0.78125	-1.3667	-0.38958	-0.82083	-1.3	-0.49792	-1.3229	-0.72708	-0.50625	-1.2958	218.547	195.933	-33.363	181.364	214.076	57.196	243.796	271.424	140.329	242.045	199.697	190.880	216.974	274.880	3.405	212.109	3.204e-05	6.5338e-05	6.2693e-05	1043.5	7.3393e-07	4.9384e-06	1151.8	221.15	3.2397e-06	4.1306e-06	281.89	79.825	63.42	18.263	9.2847e-07	25.599	0.00027493	0.00028337	7.3142e-05	1004.8	3.0956e-06	3.1388e-06	1109.3	216.26	3.1377e-06	3.0233e-06	275.37	78.817	63.134	18.65	2.7488e-06	25.732	-78.258	205.436	124.621	-73.221	162.827	-27.372	-72.668	-65.515	55.793	-16.540	-66.035	-59.097	-58.865	-51.713	-43.268	-52.566	-8191	255	
1554.627	1	1	0	0	0.26956	0.38441	0.13151	0.20662	0.078162	0.13405	0.27222	0.2069	0.18704	0.10374	0.27123	0.35849	0.13078	0.24119	0.23232	0.27205	-0.13542	-0.92917	-1.1604	-0.33958	-1.0812	-0.76458	-0.49792	-1.6208	-0.6125	-0.75	-1.1958	-0.525	-1.1604	-0.97917	-0.36667	-1.4542	-7.691	200.444	-31.046	200.220	-81.959	-69.327	239.471	19.770	43.563	70.255	177.027	206.827	185.593	47.956	264.256	-66.859	8.442e-05	0.00019467	7.3132e-05	1037.8	1.9098e-06	3.624e-06	1148.8	218.85	1.9894e-06	3.219e-06	283.22	79.651	62.582	18.312	2.1348e-06	25.56	0.00028992	0.00026917	7.1726e-05	1004.6	3.2049e-06	3.0088e-06	1109.3	216.05	3.2485e-06	2.8613e-06	275.2	79.331	63.029	18.628	2.6738e-06	25.864	234.043	-20.778	42.157	-73.147	85.834	36.997	-73.023	-65.613	74.721	23.115	-66.183	-58.673	-58.331	-52.032	79.333	-52.880	-8191	255	
1554.746	1	1	0	0	0.11396	0.22672	0.17955	0.22285	0.25666	0.17614	0.048882	0.17159	0.23642	0.13605	0.31596	0.10648	0.15156	0.11856	0.1811	0.27651	-0.225	-0.61875	-1.2437	-0.7	-0.92708	-1.2896	-0.65625	-1.3646	-0.80208	-0.64792	-1.5458	-0.59375	-0.84792	-1.1104	-0.3875	-1.3604	108.970	26.214	33.534	-12.284	2.517	117.180	250.436	250.425	-7.863	109.621	271.759	-22.426	-61.665	77.550	151.336	81.733	5.741e-05	0.00020673	0.00013167	1040.5	1.8418e-06	3.3902e-06	1148.8	220.27	7.4861e-06	1.8754e-06	282.72	79.475	63.4	18.22	2.4958e-06	25.673	0.00029635	0.00025951	7.0529e-05	1008.5	3.2103e-06	2.9336e-06	1109.2	217.41	3.281e-06	2.8162e-06	275.26	79.837	63.199	18.585	2.7366e-06	26.143	173.197	88.104	-76.394	-72.996	-20.402	-69.815	-73.142	-65.585	53.853	110.376	-65.832	-58.915	-58.727	-51.953	-47.465	-52.270	-8191	255	
1554.842	1	1	0	0	0.043969	0.13401	0.27788	0.28517	0.26434	0.1923	0.15991	0.10007	0.18316	0.037553	0.19328	0.095374	0.19718	0.059448	0.11093	0.20045	-0.51458	-0.60417	-1.2542	-0.82292	-0.85	-1.3271	-0.7625	-1.3771	-0.93542	-0.3625	-1.3667	-0.6375	-0.78542	-1.3479	-0.37917	-1.15	160.460	174.414	245.179	249.868	-46.387	161.563	-13.562	233.683	-32.648	272.571	243.562	234.120	52.252	259.245	-58.183	210.888	0.00011482	0.00017456	0.00010656	1041.8	2.2104e-06	2.4794e-06	1150	218.75	4.5877e-06	1.6537e-06	282.57	79.506	62.373	18.403	3.4632e-06	25.675	0.00029016	0.00025583	7.1981e-05	1009.9	3.0603e-06	2.8618e-06	1110.3	217.38	3.1078e-06	2.7422e-06	275.99	79.938	62.609	18.588	2.8122e-06	26.08	182.504	13.241	39.078	-73.081	-64.582	-25.981	-72.872	-65.363	39.548	55.408	-66.151	-58.827	-58.508	-52.060	27.541	-52.033	-8191	255	
1554.938	1	1	0	0	0.26644	0.10867	0.14607	0.32505	0.31737	0.34675	0.066102	0.42815	0.30292	0.081272	0.13331	0.24517	0.15707	0.34369	0.19404	0.18415	-0.40208	-0.37292	-1.2604	-0.85417	-0.80833	-1.3438	-0.725	-1.2062	-1.0562	-0.50417	-1.3937	-0.75833	-0.7125	-1.1104	-0.34375	-1.0792	161.080	97.421	129.115	271.059	-45.843	-35.243	102.618	235.617	119.089	218.060	-32.353	-81.286	265.538	-71.725	102.027	218.397	0.00020397	0.00025584	6.9776e-05	1043	2.3414e-06	2.4545e-06	1153	218.98	5.1755e-06	2.9209e-06	283.46	80.271	62.547	18.341	1.5765e-06	25.59	0.0002739	0.00024799	7.369e-05	1011.6	2.9316e-06	2.8174e-06	1113.5	217.05	2.9884e-06	2.6809e-06	276.77	80.258	62.388	18.513	3.0258e-06	26.059	-12.229	-64.054	-32.473	-73.190	67.309	9.170	-73.172	-65.688	161.521	22.685	-66.360	-59.080	-58.249	-52.056	200.867	-52.178	-8191	255	
1555.059	1	1	0	0	0.25382	0.11883	0.19957	0.028998	0.16206	0.27154	0.11467	0.22518	0.1822	0.14831	0.2434	0.18035	0.2071	0.12556	0.33711	0.1301	-0.65625	-0.24792	-1.1833	-0.925	-0.52917	-1.2708	-0.61042	-1.0708	-1.1479	-0.30417	-1.3417	-0.83542	-0.46458	-1.5833	-0.39375	-0.95625	57.357	164.463	-46.686	205.064	-73.869	-16.175	-15.175	145.535	258.392	177.468	245.039	0.733	52.326	-49.279	205.774	-67.685	6.3074e-05	0.00023058	5.8413e-05	1043.4	5.1739e-06	3.506e-06	1150.5	220.68	3.5337e-06	2.0894e-06	284.26	79.62	62.799	18.289	2.3583e-06	25.795	0.00026481	0.00024705	7.8007e-05	1011.5	2.8442e-06	2.757e-06	1115.1	217.69	2.9517e-06	2.6956e-06	277.94	79.839	62.304	18.595	3.2304e-06	26	-54.912	26.230	-64.494	-73.432	7.859	26.019	-73.090	-65.506	-5.758	-57.140	-65.908	-58.879	-58.852	-52.070	273.338	-52.496	-8191	255	
1555.130	1	1	0	0	0.051556	0.084334	0.11433	0.35133	0.34067	0.24231	0.044575	0.17678	0.061327	0.085263	0.018508	0.17703	0.17457	0.18131	0.22399	0.16458	-0.88333	-0.47917	-1.0396	-0.95208	-0.36042	-1.3896	-0.675	-0.8375	-1.1896	-0.38333	-1.1542	-1.0958	-0.25208	-1.3771	-0.54583	-0.9125	170.345	76.598	-70.313	222.609	158.225	-39.460	3.737	-13.662	24.394	173.081	-10.278	-2.327	-21.412	-80.132	72.970	-52.819	6.5384e-05	0.00015865	3.8991e-05	1044.6	3.1274e-06	1.9658e-06	1153.3	220.68	3.9669e-06	2.8339e-06	282.22	79.461	62.933	18.185	1.9566e-06	25.722	0.00026195	0.00024926	8.2924e-05	1009.6	2.7607e-06	2.8399e-06	1117	217.03	2.8643e-06	2.8267e-06	278.33	79.736	62.062	18.597	3.3479e-06	25.894	272.245	-81.056	-42.645	-73.313	-10.786	58.099	-72.759	-65.711	189.243	7.641	-65.912	-59.113	-58.415	-51.587	-41.841	-52.179	-8191	255	
1555.227	1	1	0	0	0.15793	0.099841	0.24388	0.061197	0.14728	0.10419	0.2569	0.084159	0.15005	0.11559	0.039717	0.090871	0.076084	0.25968	0.23631	0.1835	-1.0417	-0.30417	-1.0604	-1.2458	-0.26667	-1.425	-0.83542	-0.87708	-1.1958	-0.51667	-1.1042	-1.2437	-0.5875	-1.1083	-0.72708	-0.6375	205.643	65.525	209.585	135.476	221.951	4.117	248.652	-59.158	13.590	213.912	257.084	220.025	-26.757	150.186	-42.371	268.467	9.3946e-05	0.00036969	4.1631e-05	1041.1	2.1315e-06	2.7038e-06	1153.6	219.06	6.2003e-07	1.9296e-06	283.02	79.8	62.729	18.407	6.8791e-06	25.649	0.00025872	0.00026769	8.2653e-05	1009.2	2.717e-06	3.0303e-06	1119.3	216.8	2.7925e-06	3.0508e-06	278.04	79.418	62.245	18.701	3.26e-06	25.864	252.846	178.361	274.282	-73.393	-83.033	170.307	-73.307	-65.604	120.829	5.591	-65.521	-58.814	-58.648	-51.439	4.950	-52.529	-8191	255	
1555.347	1	1	0	0	0.1321	0.23936	0.16097	0.19244	0.24549	0.21214	0.14155	0.38772	0.22402	0.15133	0.098181	0.24712	0.19293	0.094527	0.17236	0.10492	-0.73333	-0.54167	-0.9	-1.1688	-0.38542	-1.2604	-0.84167	-0.44583	-1.3646	-0.53125	-0.9625	-1.3	-0.32917	-1.1812	-0.74375	-0.56875	22.957	8.311	200.182	-76.619	-77.371	107.934	156.054	209.961	262.391	55.152	-31.664	209.049	255.554	-18.183	266.811	-59.998	7.4381e-05	0.0001458	7.2445e-05	1034.9	2.2907e-06	1.1336e-06	1154.5	221.08	1.8235e-06	5.8859e-06	282.81	80.271	62.242	18.165	4.6341e-06	25.838	0.00025167	0.00028624	7.9631e-05	1007.1	2.6918e-06	3.191e-06	1116.8	216.85	2.8071e-06	3.2526e-06	277.14	79.604	62.319	18.789	3.158e-06	25.812	-52.125	40.197	-18.566	-73.229	-65.032	-22.533	-73.145	-65.663	206.664	97.521	-65.800	-58.879	-58.306	-51.492	87.826	-52.251	-8191	255	
1555.443	1	1	0	0	0.24054	0.13508	0.3405	0.082005	0.047498	0.088823	0.3076	0.060337	0.024752	0.048153	0.11755	0.051471	0.21925	0.37526	0.093778	0.16602	-0.95833	-0.34167	-0.65417	-1.4167	-0.26875	-1.25	-1.0688	-0.40208	-1.2062	-0.54583	-0.75833	-1.3521	-0.46875	-1.0021	-0.99792	-0.41667	223.247	220.365	215.321	187.242	-67.285	70.804	185.090	210.086	190.221	100.455	184.764	221.042	80.317	70.936	-80.809	90.741	0.00012635	1.4248e-05	4.9402e-05	1039.2	3.9227e-06	2.3748e-06	1153.9	219.95	5.6121e-06	4.5473e-06	283.79	79.952	62.43	18.421	2.9329e-06	25.851	0.00025927	0.00029921	7.5246e-05	1007.7	2.8175e-06	3.2437e-06	1114.6	216.19	2.9216e-06	3.287e-06	276.84	79.251	62.619	18.848	3.0242e-06	25.834	-74.543	148.659	-31.971	-73.276	118.673	108.516	-72.859	-65.722	40.042	12.939	-65.978	-58.880	-58.468	-51.604	-7.070	-52.640	-8191	255	
1555.538	1	1	0	0	0.23545	0.29126	0.042794	0.28605	0.26678	0.15829	0.22549	0.1635	0.17242	0.20898	0.19828	0.18246	0.15267	0.12978	0.23267	0.20846	-1.0083	-0.65208	-0.74167	-1.4708	-0.35208	-1.0729	-1.2	-0.5375	-1.2687	-0.79583	-0.71458	-1.4021	-0.51458	-0.83542	-1.1437	-0.51458	269.483	-58.868	273.787	263.279	91.681	169.030	223.934	245.695	98.335	130.412	-54.195	235.150	-43.799	219.319	77.644	232.462	8.7261e-05	0.00016902	0.00017774	1046.6	4.2427e-06	5.5952e-06	1152.1	220.41	3.8231e-06	2.7868e-06	285.22	79.999	62.614	18.297	3.3077e-06	25.706	0.00027053	0.0002986	7.2516e-05	1008.7	3.0637e-06	3.1812e-06	1114.8	216.48	3.1454e-06	3.2436e-06	276.46	79.247	62.912	18.724	2.9236e-06	25.746	-76.157	-65.502	-38.205	-73.142	77.945	107.466	-73.222	-65.768	134.580	185.185	-65.928	-58.798	-58.870	-52.043	49.850	-52.342	-8191	255	
1555.634	1	1	0	0	0.019011	0.20915	0.10423	0.11721	0.15596	0.086368	0.17612	0.16822	0.023082	0.13248	0.088348	0.25791	0.26299	0.078332	0.18229	0.088426	-0.79167	-0.83958	-0.31667	-1.45	-0.625	-0.83542	-1.35	-0.49375	-1.0896	-0.93958	-0.56042	-1.3188	-0.64167	-0.95208	-1.3083	-0.44167	123.585	52.737	227.139	268.784	-42.132	30.784	142.191	4.297	101.848	-5.076	-69.489	245.634	165.657	-9.226	102.800	136.282	0.00011109	0.00018107	5.8731e-05	1043.3	2.2029e-06	4.948e-06	1155.8	220.44	5.8413e-07	1.5615e-06	283.53	80.296	62.661	18.23	6.1029e-06	25.566	0.00028856	0.00029073	7.1189e-05	1008.8	3.2494e-06	3.0822e-06	1113.2	216.52	3.2724e-06	3.1477e-06	275.44	79.697	63.239	18.688	2.8925e-06	25.877	258.210	5.194	46.985	-73.039	45.953	-8.088	-72.755	-65.683	-42.421	228.998	-66.007	-59.074	-58.672	-51.640	12.547	-52.210	-8191	255	
1555.730	1	1	0	0	0.1633	0.2208	0.047454	0.082999	0.15934	0.16482	0.13665	0.37947	0.29467	0.14868	0.19444	0.21409	0.13786	0.14736	0.15222	0.36984	-0.75	-0.93333	-0.56667	-1.4479	-0.69167	-0.91042	-1.5083	-0.62917	-1.3521	-1.0562	-0.58125	-1.3292	-0.85833	-0.60833	-1.3958	-0.57917	135.115	21.122	139.169	203.028	232.570	-27.563	-65.207	199.554	199.204	121.468	267.055	258.990	244.185	184.190	125.118	-44.394	3.7969e-05	0.0001865	7.2952e-05	1041.4	8.3151e-06	1.2283e-06	1156.6	220.79	4.6437e-06	2.1578e-06	283.1	79.568	62.754	18.289	5.3846e-06	25.671	0.00030199	0.00028057	7.0659e-05	1010	3.3966e-06	2.9824e-06	1113.1	217.58	3.3329e-06	3.0092e-06	276.18	79.82	63.499	18.668	2.8623e-06	26.118	51.299	-32.408	15.864	-73.125	65.735	-63.763	-73.004	-65.653	136.532	57.964	-66.259	-58.809	-58.801	-51.658	-12.277	-52.549	-8191	255	
1555.826	1	1	0	0	0.15393	0.11022	0.28928	0.32182	0.17179	0.20689	0.22412	0.068363	0.17091	0.21076	0.15635	0.14069	0.3241	0.30436	0.07115	0.11795	-0.50625	-1.0229	-0.39792	-1.5042	-0.66458	-0.6625	-1.6083	-0.6	-0.9125	-1.4208	-0.42917	-1.275	-0.9	-0.36667	-1.3354	-0.50208	168.022	117.777	170.813	-82.745	-71.023	166.870	187.446	34.805	228.727	250.290	264.527	176.899	259.771	156.177	51.988	109.653	7.8941e-05	0.00027436	0.00014589	1042.6	3.7962e-06	2.1446e-06	1149.9	220.18	3.2833e-06	3.4534e-06	283.28	79.958	63.273	18.284	2.7776e-06	25.687	0.0002989	0.00027824	7.0239e-05	1013.1	3.2999e-06	2.9111e-06	1113.6	218.03	3.2135e-06	2.9723e-06	275.98	80.322	63.283	18.62	2.9151e-06	26.215	107.504	-23.870	38.307	-73.146	80.022	103.538	-73.106	-65.729	72.867	68.892	-65.681	-58.374	-58.449	-51.836	69.414	-52.444	-8191	255	
1555.922	1	1	0	0	0.42039	0.19449	0.2017	0.31584	0.1202	0.083591	0.26637	0.2168	0.097131	0.048016	0.085436	0.14373	0.1867	0.1717	0.056753	0.075252	-0.51875	-1.1104	-0.28542	-1.2667	-0.87708	-0.40833	-1.3979	-0.7375	-0.81042	-1.4042	-0.43333	-1.0104	-0.84792	-0.46458	-1.5042	-0.925	-64.842	29.033	115.710	167.071	275.779	-78.962	218.181	248.263	245.702	-58.749	165.866	130.103	250.438	257.819	246.309	117.384	4.4295e-05	0.00035345	9.7513e-05	1043.4	2.0623e-06	3.421e-06	1156.2	219.8	1.2402e-06	5.1119e-06	282.51	79.693	62.195	18.2	5.3961e-06	25.707	0.00028803	0.00027247	7.2496e-05	1015.7	3.1932e-06	2.8102e-06	1116.9	217.92	3.0621e-06	2.87e-06	276.87	80.402	62.883	18.597	3.1077e-06	26.257	-4.815	-65.183	88.425	-72.942	-9.505	65.525	-72.641	-65.642	-72.423	261.029	-65.686	-58.677	-58.852	-51.727	118.987	-52.639	-8191	255	
1556.018	1	1	0	0	0.32104	0.18688	0.033667	0.15719	0.055165	0.13877	0.1317	0.49802	0.22031	0.17481	0.2472	0.3719	0.3001	0.1223	0.091169	0.13183	-0.097917	-1.2625	-0.48333	-1.0438	-1.0854	-0.49375	-1.3458	-0.65625	-0.6875	-1.2271	-0.5625	-1.0958	-1.2	-0.20417	-1.3312	-0.76667	-28.032	243.864	225.700	211.068	-25.494	172.533	100.155	221.138	147.763	273.451	-75.520	246.488	3.097	274.177	211.538	-28.917	2.6199e-05	0.00076477	8.5001e-05	1039.8	3.6342e-06	2.3398e-06	1153.1	220.89	5.3366e-07	4.4814e-06	283.19	79.936	63.251	18.21	4.0068e-06	25.521	0.00027146	0.00026564	7.7491e-05	1015.1	3.1208e-06	2.7977e-06	1117.3	218.72	2.959e-06	2.904e-06	277.5	80.319	62.952	18.558	3.2408e-06	26.125	-44.301	-62.632	132.808	-72.962	-25.617	18.684	-72.737	-65.838	261.987	54.326	-65.782	-58.829	-58.252	-51.715	35.844	-52.351	-8191	255	
1556.139	1	1	0	0	0.2336	0.17088	0.38006	0.4007	0.060245	0.18089	0.37108	0.038009	0.15064	0.20278	0.23719	0.1324	0.15877	0.15685	0.22844	0.26096	-0.03125	-1.1812	-0.475	-1.0708	-1.2125	-0.22708	-1.3083	-1.0438	-0.37083	-1.3771	-0.73542	-0.87292	-1.4208	-0.44792	-1.2437	-0.91042	99.014	170.497	12.740	267.406	261.981	83.505	227.344	-12.520	222.573	141.444	-59.305	-35.704	-76.981	211.311	268.851	252.618	8.1028e-05	0.00027043	0.00010298	1045.8	3.9923e-06	4.6156e-06	1149.7	219.62	5.7259e-06	1.2431e-06	284.26	80.026	62.703	18.261	2.5114e-06	25.537	0.00026561	0.00026593	8.4284e-05	1015.1	3.0143e-06	2.8012e-06	1120.9	217.96	2.9092e-06	2.9158e-06	278.74	79.986	62.621	18.6	3.3616e-06	25.99	35.585	-75.567	34.667	-72.945	218.880	119.090	-72.754	-65.363	-66.252	74.377	-65.323	-58.818	-58.420	-51.605	147.417	-52.259	-8191	255	
1556.235	1	1	0	0	0.16069	0.035167	0.11151	0.47015	0.11001	0.26137	0.12961	0.24286	0.0992	0.16232	0.15201	0.017736	0.11781	0.13045	0.17988	0.22232	0.047917	-1.1667	-0.55208	-0.94375	-1.2375	-0.29583	-1.2167	-0.98958	-0.63542	-1.4125	-0.7125	-0.85625	-1.2875	-0.57292	-0.875	-0.97708	-38.869	46.036	46.654	275.343	70.566	241.085	199.340	243.587	16.768	-7.234	240.131	198.268	32.363	198.747	7.320	184.467	0.00014427	0.00026248	9.1401e-05	1041.4	4.55e-06	1.1572e-06	1151.2	221.11	1.5632e-06	2.3847e-06	283.52	80.575	62.68	18.283	2.2625e-06	25.817	0.000258	0.00026819	8.503e-05	1010.8	2.9147e-06	2.9257e-06	1118.6	217.75	2.7785e-06	3.0317e-06	278.59	79.672	62.534	18.679	3.2957e-06	25.983	-75.530	179.124	-15.878	-73.190	12.531	215.111	-72.702	-65.717	-73.181	-52.279	-66.155	-59.106	-58.858	-51.679	63.980	-52.540	-8191	255	
1556.331	1	1	0	0	0.18277	0.085099	0.18565	0.23964	0.11688	0.3133	0.1556	0.21755	0.19918	0.29549	0.32953	0.17379	0.15303	0.12231	0.039162	0.084953	0.066667	-1.4354	-0.67083	-0.8375	-1.25	-0.49583	-1.1604	-1.3312	-0.39375	-1.4375	-0.86667	-0.6625	-1.4062	-0.725	-0.94167	-1.3625	151.642	66.011	31.269	-77.497	121.154	254.971	257.475	269.656	109.399	190.914	228.776	-42.311	110.489	-53.314	201.351	237.847	0.00014213	0.00057351	0.00012463	1043.6	3.3478e-06	5.0235e-06	1155.5	220.29	1.4629e-06	4.7562e-06	282.19	79.924	62.858	18.354	1.0076e-06	25.808	0.00024784	0.00028212	8.3727e-05	1010.4	2.7793e-06	3.1041e-06	1117.2	216.89	2.7299e-06	3.1613e-06	277.44	79.56	62.3	18.816	3.1716e-06	25.869	-70.697	21.655	-19.369	-72.928	55.830	178.412	-72.463	-65.464	181.196	211.232	-66.058	-59.226	-58.105	-51.748	129.790	-52.480	-8191	255	
1556.428	1	1	0	0	0.20198	0.13856	0.14582	0.16076	0.16337	0.09663	0.093161	0.27596	0.031976	0.1143	0.34759	0.013821	0.28499	0.1298	0.1635	0.23686	-0.24167	-1.2938	-0.89583	-0.80417	-1.4083	-0.62708	-1.1896	-1.4208	-0.26458	-1.2437	-0.92917	-0.35208	-1.4417	-0.57917	-0.91875	-1.2958	162.742	169.845	49.448	245.465	194.839	172.814	234.819	219.938	193.993	165.648	249.197	-51.855	70.138	270.071	93.820	143.052	7.3768e-05	0.00026364	0.00022166	1043.2	1.914e-06	2.3414e-06	1149.8	219.17	2.9679e-06	2.4593e-06	283.32	80.414	62.7	18.153	4.0596e-06	25.908	0.00024852	0.00029719	8.1067e-05	1009.3	2.8225e-06	3.2633e-06	1116.1	216.34	2.7823e-06	3.2735e-06	276.69	79.309	62.552	18.776	2.9541e-06	25.89	207.550	53.833	6.633	-73.226	51.101	16.637	-72.768	-65.539	-45.670	96.493	-65.840	-59.119	-58.683	-51.981	14.773	-52.406	-8191	255	
1556.524	1	1	0	0	0.16807	0.23318	0.082674	0.3234	0.16942	0.24936	0.13807	0.57847	0.27828	0.034339	0.28195	0.16073	0.23826	0.077797	0.20419	0.18498	-0.0041667	-1.1167	-0.90833	-0.51667	-1.4833	-0.76875	-0.91458	-1.3896	-0.44375	-1.2917	-1.2188	-0.59583	-1.3792	-0.97708	-0.89583	-1.2771	-13.853	45.918	3.561	249.800	-80.517	131.688	168.611	251.762	191.437	107.757	-38.501	150.272	-34.238	234.671	199.920	183.699	7.6793e-05	0.0004443	7.0328e-06	1040.2	2.7583e-06	3.031e-06	1161	221.28	1.4167e-06	1.4571e-06	283.49	79.513	62.622	18.204	2.314e-06	25.689	0.00025859	0.00029639	7.6797e-05	1008.5	2.9788e-06	3.2787e-06	1116.7	216.41	2.9709e-06	3.2466e-06	276.48	78.987	62.99	18.797	2.8529e-06	25.892	190.694	266.204	190.089	-73.218	199.977	171.151	-72.852	-65.469	-66.177	56.429	-66.028	-58.870	-59.103	-51.780	144.655	-52.369	-8191	255	
1556.620	1	1	0	0	0.1287	0.32687	0.048995	0.27481	0.060491	0.020838	0.38658	0.14576	0.094011	0.21195	0.13156	0.10951	0.046133	0.17755	0.058865	0.12618	-0.125	-0.97083	-0.97708	-0.4375	-1.2125	-0.87292	-0.82917	-1.325	-0.81458	-1.0312	-1.3375	-0.55625	-1.3729	-0.94167	-0.47292	-1.3417	-70.182	123.786	-32.171	246.753	193.109	-50.759	273.873	181.224	207.117	-61.144	182.285	225.644	86.420	59.262	31.074	-42.949	0.00016917	0.00034223	8.8407e-05	1041.1	5.8087e-06	3.7088e-06	1158.6	220.81	2.4925e-06	4.6346e-06	284.01	79.959	62.848	18.341	3.8467e-06	25.64	0.00028257	0.00029202	7.4918e-05	1009.1	3.1912e-06	3.2138e-06	1115.1	217.05	3.2043e-06	3.1149e-06	276.67	79.311	63.392	18.791	2.7833e-06	25.861	-66.380	-45.579	9.868	-73.105	-9.614	131.651	-72.856	-65.624	243.089	-48.392	-65.856	-58.835	-58.802	-51.409	77.939	-51.807	-8191	255	
1556.739	1	1	0	0	0.10845	0.13619	0.22436	0.15585	0.11985	0.10993	0.23196	0.075474	0.1357	0.13007	0.076333	0.18091	0.1513	0.21236	0.15957	0.19767	-0.054167	-0.72917	-1.4062	-0.56667	-1.1354	-0.98958	-0.85833	-1.3813	-0.70625	-0.7875	-1.3542	-0.45417	-1.1958	-0.98333	-0.57708	-1.3542	-55.481	263.573	222.352	197.258	56.634	-26.241	89.910	-64.737	234.077	138.559	211.518	196.308	-49.637	174.148	129.950	-71.421	0.00015846	0.00058047	4.0629e-05	1049.7	9.391e-07	4.4832e-06	1150.5	220.19	2.2581e-06	3.0518e-06	284.46	80.354	62.896	18.328	5.5518e-06	25.53	0.00029582	0.00027511	7.2205e-05	1010.7	3.2687e-06	3.0414e-06	1113	217.13	3.3263e-06	2.9398e-06	276.13	79.652	63.472	18.67	2.7458e-06	25.959	-32.649	-72.975	108.653	-73.109	-33.470	6.859	-72.907	-65.653	-61.539	19.637	-66.224	-58.689	-58.662	-52.030	42.524	-52.420	-8191	255	
1556.835	1	1	0	0	0.22296	0.42002	0.16152	0.25534	0.24436	0.060287	0.38286	0.31604	0.062807	0.15257	0.26529	0.16202	0.08179	0.19528	0.20438	0.194	-0.1875	-0.59167	-1.3271	-0.45208	-0.91667	-1.0354	-0.70833	-1.4708	-0.82708	-0.54167	-1.4833	-0.57708	-1	-1.1854	-0.3875	-1.2313	102.982	260.588	23.083	-74.733	256.377	-2.240	91.765	166.237	90.594	-27.113	178.573	-44.890	18.156	-27.888	182.828	-37.237	7.2829e-05	0.00036055	6.6643e-05	1046.7	3.2097e-06	1.0003e-06	1157	219.87	3.351e-06	2.7031e-06	283.63	80.217	62.931	18.337	1.0036e-06	25.766	0.00030297	0.00026414	7.1404e-05	1012	3.2496e-06	2.9594e-06	1115.8	217.72	3.2419e-06	2.8207e-06	275.83	79.957	63.31	18.654	2.6935e-06	26.114	158.921	-33.126	-21.996	-72.952	-4.935	91.113	-72.799	-65.530	96.314	50.203	-65.761	-58.532	-58.725	-52.058	243.808	-52.639	-8191	255	
1556.931	1	1	0	0	0.18127	0.060977	0.076754	0.23883	0.298	0.065866	0.098953	0.11184	0.14758	0.22919	0.16947	0.32681	0.21955	0.017244	0.1877	0.12714	-0.36875	-0.35417	-1.3396	-0.75833	-0.875	-1.3354	-0.59792	-1.2667	-0.77292	-0.42083	-1.6313	-0.69792	-0.97708	-1.0833	-0.40208	-1.3354	-78.458	107.759	-52.451	202.082	50.963	57.036	194.098	263.438	162.436	58.762	113.741	167.596	153.591	236.571	-66.328	141.759	0.00010768	0.00019845	2.8941e-05	1044	2.614e-06	7.0695e-06	1160.1	221.49	2.7457e-06	7.2634e-06	283.97	80.324	62.375	18.337	6.4236e-06	25.792	0.00028922	0.00025431	7.1137e-05	1015.7	3.1019e-06	2.8715e-06	1117.3	218.18	3.1462e-06	2.775e-06	276.76	80.459	62.602	18.609	2.8072e-06	26.253	257.105	241.534	91.874	-73.143	14.266	-0.020	-72.925	-65.514	107.487	51.614	-65.768	-58.898	-58.755	-51.904	33.726	-52.383	-8191	255	
#DATA ENDS
