BOXY.EXE: ISS Imagent and Oximeter Data Acquisition Program Version 0.80
Ascii Record File

#ACQ INFORMATION
2  Detector Channels 
16  External MUX Channels 
1  Auxiliary Channels 
5000  Waveform (CCF) Frequency (Hz)
1  Waveforms Skipped 
30  Waveforms Averaged 
1  Cycles Averaged 
16  Acquisitions per Waveform 
10.0806  Updata Rate (Hz) 

#FILE INFORMATION
TRUE -- External MUX Channel results are PARSED.
FALSE -- AC DC and Phase are NOT grouped.
TRUE -- Companion Program Settings File CREATED.
FALSE -- AC data not excluded
FALSE -- DC data not excluded
FALSE -- Phase data not excluded
FALSE -- Auxillary Chn. data not excluded
Tab delimiters

#CALIBRATION STATE
TRUE -- Waveform Calibration Values APPLIED.


#AUX CALIBRATION VALUES
Val Type	aux-1	

Term	1.0000e+00	
Factor	0.0000e+00	


#WF CALIBRATION VALUES
A = Detector Channel
Val Type	A-AC1	A-AC2	A-AC3	A-AC4	A-AC5	A-AC6	A-AC7	A-AC8	A-AC9	A-AC10	A-AC11	A-AC12	A-AC13	A-AC14	A-AC15	A-AC16	A-DC1	A-DC2	A-DC3	A-DC4	A-DC5	A-DC6	A-DC7	A-DC8	A-DC9	A-DC10	A-DC11	A-DC12	A-DC13	A-DC14	A-DC15	A-DC16	A-Ph1	A-Ph2	A-Ph3	A-Ph4	A-Ph5	A-Ph6	A-Ph7	A-Ph8	A-Ph9	A-Ph10	A-Ph11	A-Ph12	A-Ph13	A-Ph14	A-Ph15	A-Ph16	

Term	0.00000e+00	0.00000e+00	0.00000e+00	0.00000e+00	0.00000e+00	0.00000e+00	0.00000e+00	0.00000e+00	0.00000e+00	0.00000e+00	0.00000e+00	0.00000e+00	0.00000e+00	0.00000e+00	0.00000e+00	0.00000e+00	0.00000e+00	0.00000e+00	0.00000e+00	0.00000e+00	0.00000e+00	0.00000e+00	0.00000e+00	0.00000e+00	0.00000e+00	0.00000e+00	0.00000e+00	0.00000e+00	0.00000e+00	0.00000e+00	0.00000e+00	0.00000e+00	0.00000e+00	0.00000e+00	0.00000e+00	0.00000e+00	0.00000e+00	0.00000e+00	0.00000e+00	0.00000e+00	0.00000e+00	0.00000e+00	0.00000e+00	0.00000e+00	0.00000e+00	0.00000e+00	0.00000e+00	0.00000e+00	
Factor	1.00000e+00	1.00000e+00	1.00000e+00	1.00000e+00	1.00000e+00	1.00000e+00	1.00000e+00	1.00000e+00	1.00000e+00	1.00000e+00	1.00000e+00	1.00000e+00	1.00000e+00	1.00000e+00	1.00000e+00	1.00000e+00	1.00000e+00	1.00000e+00	1.00000e+00	1.00000e+00	1.00000e+00	1.00000e+00	1.00000e+00	1.00000e+00	1.00000e+00	1.00000e+00	1.00000e+00	1.00000e+00	1.00000e+00	1.00000e+00	1.00000e+00	1.00000e+00	X	X	X	X	X	X	X	X	X	X	X	X	X	X	X	X	

B = Detector Channel
Val Type	B-AC1	B-AC2	B-AC3	B-AC4	B-AC5	B-AC6	B-AC7	B-AC8	B-AC9	B-AC10	B-AC11	B-AC12	B-AC13	B-AC14	B-AC15	B-AC16	B-DC1	B-DC2	B-DC3	B-DC4	B-DC5	B-DC6	B-DC7	B-DC8	B-DC9	B-DC10	B-DC11	B-DC12	B-DC13	B-DC14	B-DC15	B-DC16	B-Ph1	B-Ph2	B-Ph3	B-Ph4	B-Ph5	B-Ph6	B-Ph7	B-Ph8	B-Ph9	B-Ph10	B-Ph11	B-Ph12	B-Ph13	B-Ph14	B-Ph15	B-Ph16	

Term	0.00000e+00	0.00000e+00	0.00000e+00	0.00000e+00	0.00000e+00	0.00000e+00	0.00000e+00	0.00000e+00	0.00000e+00	0.00000e+00	0.00000e+00	0.00000e+00	0.00000e+00	0.00000e+00	0.00000e+00	0.00000e+00	0.00000e+00	0.00000e+00	0.00000e+00	0.00000e+00	0.00000e+00	0.00000e+00	0.00000e+00	0.00000e+00	0.00000e+00	0.00000e+00	0.00000e+00	0.00000e+00	0.00000e+00	0.00000e+00	0.00000e+00	0.00000e+00	-9.65827e+01	-1.43805e+02	-1.39444e+02	-1.81677e+02	-5.59979e+01	-8.92971e+01	-1.59950e+02	-1.62015e+02	-5.08740e+01	-7.88643e+01	-1.72352e+02	-1.71128e+02	-1.81284e+02	-1.77091e+02	-7.77532e+01	-1.49524e+02	
Factor	1.36684e-05	1.02022e-04	2.72554e-05	1.62761e-01	7.49054e-07	1.57017e-06	1.72592e-01	4.32996e-02	7.46595e-07	8.31903e-07	7.37064e-02	2.64361e-02	3.12763e-02	7.71586e-03	1.03788e-06	1.11046e-02	1.01505e-06	1.06720e-06	2.95085e-07	8.33522e-02	1.16206e-08	1.16285e-08	8.30791e-02	2.23858e-02	1.15920e-08	1.16152e-08	3.63287e-02	1.30762e-02	1.58931e-02	3.95424e-03	1.15352e-08	5.46625e-03	X	X	X	X	X	X	X	X	X	X	X	X	X	X	X	X	



#DISTANCE SETTINGS
A = Detector Channel
A-1	A-2	A-3	A-4	A-5	A-6	A-7	A-8	A-9	A-10	A-11	A-12	A-13	A-14	A-15	A-16	

2.5000e+00	3.0000e+00	2.5000e+00	3.0000e+00	2.0000e+00	3.0000e+00	1.5000e+00	3.0000e+00	3.0000e+00	3.0000e+00	3.0000e+00	3.0000e+00	3.0000e+00	3.0000e+00	1.5000e+00	3.0000e+00	

B = Detector Channel
B-1	B-2	B-3	B-4	B-5	B-6	B-7	B-8	B-9	B-10	B-11	B-12	B-13	B-14	B-15	B-16	

1.0000e+01	1.0000e+01	1.0000e+01	1.4400e+00	1.0000e+01	1.0000e+01	1.5100e+00	1.9400e+00	1.0000e+01	1.0000e+01	1.9900e+00	2.4900e+00	2.4100e+00	2.9000e+00	1.0000e+01	2.9800e+00	




#DATA BEGINS
time	group	step	mark	flag	A-AC1	A-AC2	A-AC3	A-AC4	A-AC5	A-AC6	A-AC7	A-AC8	A-AC9	A-AC10	A-AC11	A-AC12	A-AC13	A-AC14	A-AC15	A-AC16	A-DC1	A-DC2	A-DC3	A-DC4	A-DC5	A-DC6	A-DC7	A-DC8	A-DC9	A-DC10	A-DC11	A-DC12	A-DC13	A-DC14	A-DC15	A-DC16	A-Ph1	A-Ph2	A-Ph3	A-Ph4	A-Ph5	A-Ph6	A-Ph7	A-Ph8	A-Ph9	A-Ph10	A-Ph11	A-Ph12	A-Ph13	A-Ph14	A-Ph15	A-Ph16	B-AC1	B-AC2	B-AC3	B-AC4	B-AC5	B-AC6	B-AC7	B-AC8	B-AC9	B-AC10	B-AC11	B-AC12	B-AC13	B-AC14	B-AC15	B-AC16	B-DC1	B-DC2	B-DC3	B-DC4	B-DC5	B-DC6	B-DC7	B-DC8	B-DC9	B-DC10	B-DC11	B-DC12	B-DC13	B-DC14	B-DC15	B-DC16	B-Ph1	B-Ph2	B-Ph3	B-Ph4	B-Ph5	B-Ph6	B-Ph7	B-Ph8	B-Ph9	B-Ph10	B-Ph11	B-Ph12	B-Ph13	B-Ph14	B-Ph15	B-Ph16	aux-1	digaux	

2912.987	1	1	0	768	0.13553	0.11628	0.25564	0.047834	0.23959	0.22208	0.21254	0.18422	0.069456	0.33026	0.068898	0.27605	0.26569	0.12212	0.30505	0.13115	-0.39792	-0.74792	-1.1292	-0.47708	-1.0833	-1.0958	-0.55	-1.4292	-0.70417	-0.74583	-1.4021	-0.275	-1.0542	-1.1021	-0.375	-1.3875	163.139	188.370	-73.413	159.977	-24.914	35.552	176.217	178.867	87.929	101.436	-106.606	229.492	40.176	129.418	93.820	-76.568	0.00023719	0.0012782	0.00056022	619.2	2.2251e-05	1.2997e-05	755.48	149.41	1.6522e-05	1.2117e-05	220.69	68.992	42.35	15.777	8.4293e-06	32.041	0.0065161	0.0063658	0.0016791	1085.6	7.2202e-05	6.9056e-05	1182	276.82	7.1143e-05	6.5818e-05	411.39	143.64	136.15	38.122	5.9012e-05	62.896	-49.683	-51.579	-47.667	-113.384	-0.307	42.455	-112.299	-107.635	12.692	31.352	-107.628	-102.523	-100.385	-96.027	144.324	-98.000	-8191	255	
2913.083	1	1	0	0	0.13606	0.25166	0.2207	0.18666	0.18852	0.11827	0.31209	0.17979	0.43852	0.15763	0.30724	0.23843	0.047667	0.12515	0.21943	0.33182	-0.50208	-0.57083	-1.2333	-0.65417	-1.1729	-1.2042	-0.37083	-1.375	-0.99167	-0.38125	-1.4417	-0.70417	-0.71458	-1.3208	-0.45833	-1.3708	191.408	-7.956	85.559	231.735	-56.529	-74.669	-94.200	149.747	7.458	-16.423	0.176	185.706	0.890	-64.416	150.361	9.649	0.00014731	0.0011828	0.00038841	623.49	2.0605e-05	3.3535e-05	761.37	150.18	5.3556e-06	6.2244e-06	220.97	68.997	42.529	15.56	1.5696e-05	31.043	0.0060729	0.0059096	0.0015614	1105.9	6.8672e-05	6.6485e-05	1177.5	281.96	6.9086e-05	6.3288e-05	407.84	145.57	131.11	36.602	5.7705e-05	61.777	208.382	-19.522	-56.769	-113.016	71.295	-20.090	-112.834	-108.045	-57.534	18.928	-108.091	-102.215	-102.394	-95.981	202.350	-97.562	-8191	255	
2913.179	1	1	0	0	0.12257	0.12784	0.13188	0.20963	0.10222	0.095798	0.022467	0.26009	0.15831	0.11267	0.055547	0.052762	0.21184	0.089839	0.061489	0.23493	-0.63958	-0.43333	-1.3208	-0.62708	-0.85625	-1.4208	-0.58542	-1.1458	-0.7875	-0.48542	-1.2313	-0.80208	-0.71875	-1.2104	-0.42917	-1.0125	167.942	-35.888	-58.498	-26.925	26.924	-81.344	196.906	131.802	156.712	54.951	74.963	86.721	-47.073	222.557	226.781	-115.676	0.00035789	0.0033908	0.00020326	644.86	1.5719e-05	3.0588e-05	776.68	153.21	6.0267e-06	1.9013e-05	220.88	68.475	41.341	14.922	3.6666e-05	30.072	0.0056992	0.0054363	0.0014943	1108.3	6.2061e-05	5.9362e-05	1173.8	275.71	6.2329e-05	5.6474e-05	401.39	140.32	122.38	34.082	5.7198e-05	59.003	-0.849	-32.447	163.569	-113.286	61.888	-14.075	-113.260	-107.198	87.557	8.841	-108.046	-102.033	-102.032	-95.875	-122.189	-97.084	-8191	255	
2913.275	1	1	0	0	0.22292	0.15802	0.16267	0.46751	0.11209	0.076228	0.09266	0.14585	0.10732	0.27879	0.42773	0.096239	0.13899	0.21283	0.11434	0.21513	-0.69375	-0.37083	-1.3646	-0.64375	-0.77917	-1.4854	-0.65833	-1.0792	-1.1417	-0.52708	-1.4146	-0.65625	-0.65625	-1.2979	-0.53125	-1.0396	-75.024	166.010	-18.649	231.147	212.491	-13.288	-122.261	-61.998	-35.968	-49.144	186.384	69.764	204.734	222.647	214.722	173.071	0.00019353	0.0010903	0.00094332	660.13	1.3024e-05	2.5498e-05	785.37	154.63	9.2173e-06	1.2347e-05	222.58	68.314	41.351	14.522	2.3043e-05	29.693	0.0052659	0.0049407	0.0014781	1091.7	5.7308e-05	5.4442e-05	1186.6	268.53	5.7573e-05	5.1513e-05	400.1	134.34	115.37	32.287	5.7472e-05	56.547	-119.237	58.819	138.365	-112.736	48.130	34.732	-112.970	-107.119	-107.244	24.280	-108.200	-102.231	-101.829	-95.982	204.835	-96.665	-8191	255	
2913.371	1	1	0	0	0.021552	0.025939	0.1628	0.33853	0.38565	0.31962	0.098856	0.12515	0.1223	0.086984	0.10908	0.3226	0.13486	0.019418	0.19159	0.15715	-0.84583	-0.55417	-1.1875	-1.0667	-0.38958	-1.5333	-0.58333	-1.0729	-1.1708	-0.32708	-1.4021	-1.0729	-0.49375	-1.4958	-0.55625	-1	167.950	195.326	-66.600	222.681	194.272	88.892	-111.746	171.502	40.809	-71.404	-120.006	154.904	-18.521	-97.560	182.962	-29.563	0.0001785	0.00060989	0.00043664	663.25	1.9443e-05	1.2619e-05	787.69	154.11	9.5609e-06	1.7335e-05	223.78	67.349	40.989	14.338	1.3932e-05	29.576	0.0049793	0.0047114	0.0014971	1074.5	5.4257e-05	5.2608e-05	1199.2	262.71	5.4653e-05	5.0757e-05	401.96	131.55	112	32.218	5.8982e-05	55.319	-119.026	192.162	202.906	-112.916	67.105	9.981	-112.949	-107.558	92.384	215.012	-107.906	-101.879	-101.838	-96.515	-88.473	-97.099	-8191	255	
2913.467	1	1	0	0	0.057806	0.18658	0.064187	0.24908	0.14925	0.19642	0.32219	0.24851	0.38109	0.18285	0.069258	0.25831	0.30713	0.21513	0.036747	0.28104	-0.72083	-0.4	-1.175	-1.0625	-0.62292	-1.225	-0.80208	-0.71458	-1.4438	-0.24792	-1.2583	-0.925	-0.50417	-1.3104	-0.88333	-0.54375	21.841	36.898	123.818	-93.406	52.607	-30.859	191.278	-36.924	-109.527	210.997	180.572	155.481	-85.883	-85.842	4.298	-106.583	0.00025758	0.0024951	0.00028321	664.39	1.0061e-05	4.5429e-05	792.3	155.46	1.1619e-05	1.1655e-05	223.22	67.258	41.453	14.068	4.9665e-06	28.708	0.0047909	0.0048417	0.0015189	1065.6	5.2144e-05	5.4337e-05	1207.8	259.14	5.2839e-05	5.3421e-05	399.4	128.59	108.45	32.627	5.8312e-05	53.893	-29.776	139.279	129.407	-112.309	78.049	200.368	-112.822	-107.473	26.684	173.833	-108.024	-102.358	-102.753	-96.750	55.876	-97.284	-8191	255	
2913.588	1	1	0	0	0.12895	0.29687	0.043138	0.24138	0.12824	0.17373	0.051987	0.15782	0.15288	0.20198	0.10635	0.20144	0.14737	0.1088	0.15337	0.32145	-0.93333	-0.41458	-0.9875	-1.1375	-0.37292	-1.2313	-0.99375	-0.64792	-1.3604	-0.6875	-1.0292	-1.1417	-0.43333	-1.3	-0.84375	-0.72292	-85.292	203.085	25.307	-107.911	49.269	137.972	-77.217	186.485	147.151	195.920	213.779	206.050	-78.731	39.244	217.290	128.148	0.0002294	0.0015091	0.00040008	664.68	1.4789e-05	3.5737e-05	793.98	154.12	1.6274e-05	1.8011e-05	224.17	67.512	40.088	14.196	6.1016e-06	29.171	0.004537	0.005042	0.0014716	1049.6	4.9697e-05	5.5444e-05	1191.2	253.49	4.9855e-05	5.4784e-05	390.64	125.75	105.49	32.959	5.6061e-05	52.865	228.226	92.687	75.208	-112.650	1.020	183.104	-112.497	-107.230	-49.654	199.687	-107.644	-102.105	-102.630	-96.125	40.526	-96.472	-8191	255	
2913.683	1	1	0	0	0.40059	0.1714	0.10595	0.06999	0.092189	0.18317	0.10993	0.25302	0.27312	0.12542	0.16005	0.087683	0.032787	0.1467	0.19842	0.17243	-0.9375	-0.53542	-0.70208	-1.4062	-0.37917	-1.3312	-0.88958	-0.54375	-1.2958	-0.80208	-1.1187	-1.275	-0.52292	-1.1938	-1.0958	-0.46458	77.721	72.078	208.213	-10.137	150.451	179.118	97.255	208.329	-16.620	172.063	206.181	-4.960	182.124	-28.084	89.341	-100.009	0.00022552	0.0027169	0.00050901	659.78	1.3926e-05	2.2457e-05	789.17	153.31	2.9448e-05	1.1793e-05	222.53	66.32	40.121	14.222	2.3419e-05	28.939	0.0044841	0.0052957	0.0014458	1044.3	5.1441e-05	5.9484e-05	1193.7	254.04	5.3042e-05	5.9497e-05	392.06	125.84	109.19	33.417	5.461e-05	51.372	234.158	125.219	4.021	-112.545	-110.429	-79.167	-112.652	-107.390	234.544	-110.779	-107.492	-101.684	-102.631	-95.754	-2.799	-96.714	-8191	255	
2913.779	1	1	0	0	0.32059	0.21363	0.039174	0.11708	0.17758	0.16339	0.21487	0.099553	0.079539	0.1112	0.046268	0.28178	0.095285	0.055949	0.036057	0.13041	-0.98125	-0.48125	-0.65417	-1.425	-0.43542	-1.1521	-1.1167	-0.60833	-1.3125	-0.80208	-0.84167	-1.2938	-0.44375	-1.0521	-1.0917	-0.48333	40.023	-111.660	181.649	183.332	-42.409	171.729	221.594	101.722	-4.629	189.015	-21.523	-88.978	-43.167	28.395	37.089	92.741	0.00032583	0.0016652	0.00021789	657.63	1.7376e-05	2.1449e-05	785	152.61	1.3879e-05	1.1117e-05	219.32	65.919	39.569	14.273	1.8526e-05	29.141	0.0044721	0.0051258	0.0013291	1000.2	5.0583e-05	5.5799e-05	1157.9	244.21	5.3344e-05	5.7453e-05	382.77	122.66	112.78	33.2	5.4271e-05	51.152	208.444	173.786	203.440	-112.608	216.941	127.855	-113.021	-107.165	230.309	-70.414	-108.214	-101.914	-102.444	-96.486	25.471	-96.967	-8191	255	
2913.875	1	1	0	0	0.23399	0.11491	0.086093	0.081746	0.24879	0.24013	0.0074284	0.11121	0.2202	0.10098	0.23829	0.043966	0.29916	0.22201	0.20504	0.48258	-0.9875	-0.64792	-0.58333	-1.2313	-0.40208	-1.0125	-1.3521	-0.63958	-1.1771	-0.83958	-0.42292	-1.5625	-0.45833	-0.69375	-1.1812	-0.47083	24.389	102.084	168.434	-117.424	94.314	-42.848	98.156	-80.081	-121.922	-70.592	173.825	159.521	-76.751	11.236	-20.121	213.644	0.00038514	0.0017039	0.00041675	651.3	8.1365e-06	2.0494e-05	773.63	149.67	2.8319e-06	1.1478e-05	219.91	66.155	40.041	14.342	1.3771e-05	28.951	0.0048148	0.0052078	0.0013339	990.62	5.4189e-05	5.4542e-05	1135.4	238.32	5.3403e-05	5.3509e-05	365.82	117.74	109.97	31.165	4.8753e-05	49.375	212.589	-89.142	-19.361	-112.735	-115.710	98.285	-112.718	-107.270	-86.059	-21.333	-107.679	-101.958	-101.714	-95.998	1.534	-97.332	-8191	255	
2913.971	1	1	0	0	0.14582	0.21734	0.22686	0.049111	0.26068	0.045572	0.028288	0.11463	0.13998	0.15232	0.35574	0.11264	0.22595	0.24422	0.30089	0.073686	-0.75625	-0.86667	-0.42083	-1.2979	-0.5125	-0.63333	-1.3375	-0.32708	-1.1646	-0.79167	-0.27292	-1.5958	-0.47292	-0.8125	-1.3167	-0.37708	30.749	16.918	205.723	145.496	78.201	-57.541	-14.424	-114.438	148.150	-61.434	-97.497	227.693	94.616	-99.850	154.201	-56.711	0.00025577	0.0012065	0.00021284	640.42	1.2902e-05	1.2789e-05	774.56	150.09	5.0057e-06	5.6315e-06	219.77	66.509	40.156	14.609	1.892e-05	29.485	0.0045719	0.0047098	0.0011889	965.02	5.2142e-05	4.988e-05	1100.2	236.61	5.1477e-05	4.9887e-05	354.49	118.12	108.64	30.292	4.499e-05	50.232	197.420	-35.814	193.027	-113.000	174.276	-28.470	-112.548	-107.689	129.410	51.808	-107.757	-102.622	-101.825	-95.123	35.094	-97.370	-8191	255	
2914.067	1	1	0	0	0.21183	0.10412	0.073854	0.35212	0.28997	0.1655	0.13556	0.10017	0.32254	0.062606	0.1168	0.28891	0.078703	0.40189	0.17254	0.13377	-0.65417	-0.65625	-0.425	-1.3563	-0.57917	-0.5875	-1.3271	-0.37917	-1.0167	-1.1521	-0.53958	-1.2208	-0.575	-0.56875	-1.175	-0.6375	-52.019	233.411	113.532	231.333	-49.993	-97.479	38.883	-95.669	-121.161	50.475	22.900	192.693	-31.084	-123.330	131.133	207.548	0.00015854	0.00061115	0.00012012	636.73	4.4108e-06	2.1548e-05	773.2	150.06	7.3799e-06	1.5479e-05	219.45	67.79	41.329	14.827	1.3965e-05	30.097	0.0043461	0.0044152	0.0010929	961.83	5.0063e-05	4.6777e-05	1071.7	237.93	4.9251e-05	4.765e-05	346.16	120.28	106.09	29.685	4.2209e-05	51.129	-52.286	48.546	9.863	-112.781	-11.892	53.865	-112.958	-107.378	74.654	10.513	-107.722	-102.013	-102.034	-95.766	-35.381	-96.978	-8191	255	
2914.188	1	1	0	0	0.11043	0.28264	0.10982	0.12963	0.16058	0.19453	0.17841	0.089026	0.45603	0.18831	0.10337	0.15895	0.27607	0.30255	0.25047	0.16657	-0.91458	-0.84792	-0.50417	-1.1021	-0.75417	-0.56667	-1.3667	-0.6	-0.93958	-1.1396	-0.47292	-1.2208	-0.7375	-0.65417	-1.1979	-0.67083	117.647	50.927	28.132	174.923	149.031	-66.003	-122.106	151.735	151.078	186.337	22.222	-14.564	122.628	181.317	120.497	72.950	0.0001904	0.000596	0.00012312	635.23	3.2844e-06	1.9258e-05	763.1	148.51	9.5967e-06	9.2038e-06	217.16	67.554	41.085	14.821	1.2361e-05	29.956	0.0040865	0.0041369	0.0010226	953.68	4.6094e-05	4.2455e-05	1044.3	234.83	4.441e-05	4.3315e-05	337.87	118.58	101.39	28.608	4.1203e-05	51.216	-41.413	57.796	200.921	-113.170	160.681	38.529	-112.698	-107.630	-9.883	52.676	-108.052	-101.304	-101.411	-95.591	10.105	-97.691	-8191	255	
2914.284	1	1	0	0	0.069666	0.19808	0.21369	0.15154	0.028361	0.19774	0.072151	0.21945	0.14198	0.19992	0.19199	0.22428	0.16918	0.34612	0.18381	0.2952	-0.38958	-1.05	-0.25208	-1.1292	-1.0375	-0.4875	-1.4625	-0.55417	-0.73958	-1.2771	-0.63542	-0.91875	-0.9125	-0.52083	-1.1542	-0.71667	-4.388	81.420	37.928	82.942	-41.389	224.229	145.208	185.101	84.494	-13.233	161.687	215.117	-77.272	149.634	-29.716	112.194	0.00012417	0.0015028	0.00063249	636.14	1.0088e-05	1.4346e-05	759.04	149.79	8.5284e-06	7.6844e-06	217.3	67.915	40.486	14.745	1.8939e-05	30.112	0.0038975	0.0039299	0.0010511	960.6	4.5558e-05	4.1418e-05	1057.7	238.99	4.4698e-05	4.2999e-05	348.81	120.12	102.09	28.436	4.4498e-05	51.835	-115.152	19.551	129.980	-112.612	-65.397	6.706	-112.795	-107.337	36.129	-20.764	-107.832	-102.094	-101.592	-96.249	-108.609	-97.148	-8191	255	
2914.380	1	1	0	0	0.13204	0.1343	0.25804	0.050002	0.13191	0.2755	0.24951	0.26604	0.13645	0.10273	0.14028	0.061491	0.27252	0.11059	0.016822	0.23729	-0.34583	-1.25	-0.43958	-1.2437	-1.1896	-0.45625	-1.4417	-0.52083	-0.50208	-1.5229	-0.44375	-0.83542	-0.95625	-0.55833	-1.2021	-0.83542	-57.202	-60.432	-3.819	-94.805	73.629	-10.246	155.456	-90.960	225.457	-5.021	-10.784	142.829	8.789	38.642	149.528	104.195	0.00013495	0.0014014	0.00047736	638.77	9.598e-06	1.248e-05	760.77	149.46	1.1202e-05	1.4588e-05	217.75	67.906	40.589	14.696	1.8166e-05	29.908	0.003912	0.0038786	0.001132	956.72	4.5372e-05	4.0419e-05	1073.1	238.2	4.407e-05	4.2101e-05	357.67	119.63	101.99	28.469	4.7467e-05	52.043	-19.893	-55.888	158.436	-112.526	16.920	-100.904	-112.988	-107.531	33.289	20.603	-107.928	-101.633	-101.278	-95.964	142.616	-97.172	-8191	255	
2914.474	1	1	0	0	0.27536	0.33599	0.041598	0.11031	0.13627	0.062274	0.27438	0.27074	0.098361	0.13758	0.21808	0.12048	0.16791	0.22076	0.093976	0.12345	0.045833	-1.325	-0.50417	-0.98333	-1.1333	-0.5625	-1.3646	-0.94792	-0.40417	-1.1833	-0.61458	-0.82083	-1.1604	-0.49792	-1.1771	-1.1875	-86.636	-116.478	217.162	61.768	79.732	-121.902	204.669	205.352	90.505	115.182	-111.447	232.861	-0.388	7.493	19.567	49.548	0.0003269	0.0018747	0.00012132	632.36	1.3109e-05	1.7958e-05	758.96	148.31	1.3909e-05	1.9064e-05	220.15	68.598	41.116	14.446	8.0292e-06	29.824	0.0039374	0.0040122	0.0012408	964.95	4.6565e-05	4.3237e-05	1105	241.09	4.4799e-05	4.4971e-05	370.94	120.58	101.66	29.223	4.9177e-05	51.541	-90.061	4.458	66.882	-112.713	70.148	-103.095	-112.857	-107.681	65.925	198.359	-107.663	-101.502	-101.160	-96.503	-93.564	-97.175	-8191	255	
2914.548	1	1	0	0	0.096982	0.061515	0.1672	0.12055	0.087268	0.23181	0.30948	0.072396	0.19042	0.19695	0.062048	0.048117	0.29996	0.24008	0.22484	0.19426	-0.0875	-1.2146	-0.49583	-0.61458	-1.5333	-0.52292	-1.3167	-1.2125	-0.48958	-1.2208	-0.72083	-0.65833	-1.5333	-0.375	-1.1812	-1.1146	210.313	142.088	135.381	163.605	-81.943	181.849	199.874	117.956	68.107	30.581	200.718	-48.083	228.187	121.683	-79.398	137.001	0.00032224	0.0020912	0.00028598	633.83	5.6996e-06	1.5414e-05	766.52	148.55	1.1028e-05	1.8249e-05	219.17	67.21	40.346	14.445	1.7064e-05	29.591	0.0037851	0.004115	0.0012494	954.49	4.4088e-05	4.4388e-05	1099.9	237.09	4.199e-05	4.5658e-05	365.53	117.15	97.188	29.547	4.6774e-05	50.324	-23.389	164.685	-16.052	-112.611	30.467	223.733	-112.569	-107.259	66.822	-110.771	-107.786	-101.378	-101.587	-96.547	62.175	-97.032	-8191	255	
2914.667	1	1	0	0	0.019697	0.20058	0.093005	0.36274	0.12553	0.21578	0.16122	0.26066	0.048704	0.1142	0.17645	0.34528	0.24843	0.14817	0.10392	0.16266	-0.035417	-1.1896	-0.77917	-0.69792	-1.3354	-0.54792	-1.0229	-1.2375	-0.33958	-1.2792	-0.86875	-0.6375	-1.4312	-0.29583	-0.93542	-1.1708	101.246	-5.729	-73.427	206.319	36.764	189.134	138.327	201.049	-104.208	67.696	181.260	-89.997	-89.434	195.805	-47.265	207.586	0.00021094	0.0010378	0.00043739	642.5	9.552e-06	4.0918e-05	766.61	149.06	4.691e-06	1.3315e-05	219.4	67.561	40.596	14.623	1.2178e-05	29.999	0.0035571	0.0041925	0.0011996	939.5	4.1762e-05	4.5629e-05	1082.1	232.84	4.0196e-05	4.633e-05	358.44	114.74	95.43	29.96	4.4682e-05	49.65	175.697	-88.058	-37.247	-112.501	-13.427	180.257	-112.763	-107.164	9.804	226.836	-107.727	-101.957	-102.144	-96.061	-9.405	-96.308	-8191	255	
2914.763	1	1	0	0	0.12217	0.12534	0.19829	0.14031	0.052374	0.24273	0.039204	0.040949	0.29441	0.12003	0.34945	0.39852	0.10545	0.12951	0.13088	0.22114	0.075	-1.2583	-0.67083	-0.62292	-1.1979	-0.41875	-0.88333	-1.3708	-0.45417	-0.95833	-1.1604	-0.42708	-1.4688	-0.61042	-0.68542	-1.2708	34.001	29.817	60.150	135.701	-15.546	-34.428	184.634	33.933	220.913	16.501	-22.327	185.726	144.576	145.330	-112.025	162.435	0.00026253	0.00035434	0.00044242	642.48	8.9319e-06	2.17e-05	772.19	149.33	3.8896e-06	7.8086e-06	221.67	68.091	40.46	14.736	2.1801e-05	30.217	0.0034893	0.0041913	0.0011395	919.17	4.0687e-05	4.5097e-05	1061.7	226.71	3.9428e-05	4.4386e-05	349.4	110.74	94.697	29.525	4.1621e-05	48.27	220.950	198.307	-68.449	-112.642	-100.521	216.774	-112.229	-107.476	-123.254	-67.834	-107.688	-101.219	-102.320	-95.500	36.768	-97.007	-8191	255	
2914.859	1	1	0	0	0.12691	0.12299	0.1971	0.1551	0.17274	0.28932	0.18548	0.21563	0.19428	0.077623	0.3268	0.22833	0.33836	0.25421	0.24116	0.15327	0.11667	-1.125	-0.89792	-0.70833	-1.2083	-0.68125	-0.67292	-1.3604	-0.44583	-1.0083	-1.1792	-0.41042	-1.3417	-0.68542	-0.58333	-1.4208	-86.188	23.107	228.423	-3.010	33.382	-66.647	172.377	185.126	-10.213	30.016	168.284	170.949	135.986	165.440	24.397	114.221	0.0003421	0.00061102	0.00017933	643.29	1.4603e-05	4.1322e-06	770.66	150.07	1.0681e-05	2.3843e-06	221.2	67.64	39.969	14.468	1.3959e-05	29.664	0.0035535	0.0040938	0.0010994	905.08	4.2204e-05	4.5463e-05	1058.9	225.39	4.2363e-05	4.4683e-05	350.02	109.4	98.247	29.369	4.1295e-05	47.383	200.893	-29.748	-48.534	-112.763	-114.296	198.792	-112.490	-107.662	205.971	183.224	-108.038	-101.727	-102.575	-95.646	36.022	-97.031	-8191	255	
2914.955	1	1	0	0	0.087006	0.23484	0.18246	0.29647	0.30163	0.15602	0.23898	0.2748	0.094701	0.12193	0.29323	0.074561	0.28501	0.26066	0.070497	0.10392	-0.039583	-0.95625	-1.0875	-0.29167	-1.2375	-0.59375	-0.85625	-1.3729	-0.33542	-0.85417	-1.1646	-0.51667	-1.0979	-1.0479	-0.37292	-1.4458	111.370	78.731	-59.669	-108.186	217.527	157.697	116.549	232.796	-46.563	169.808	184.827	17.486	166.689	198.588	211.275	219.956	0.00023869	0.0010555	0.00028606	644.72	8.3019e-06	1.0899e-06	770.52	151.25	1.3767e-05	1.0966e-05	220.63	67.027	39.924	14.274	2.1861e-05	28.708	0.003771	0.0040163	0.0010771	905.29	4.348e-05	4.3883e-05	1048	224.33	4.3564e-05	4.274e-05	344.11	108.73	99.181	28.7	3.9764e-05	46.902	219.016	-49.311	-55.147	-112.729	153.724	-24.940	-112.291	-107.561	-121.111	66.955	-107.972	-102.473	-102.224	-96.085	13.010	-97.198	-8191	255	
2915.076	1	1	0	0	0.20572	0.050505	0.14706	0.30302	0.072654	0.22234	0.30255	0.15313	0.33456	0.24731	0.046306	0.11479	0.2023	0.05253	0.19157	0.15205	-0.20417	-0.70625	-1.0083	-0.42917	-1.2479	-0.92292	-0.525	-1.3937	-0.7125	-0.68542	-1.2208	-0.61042	-1.0854	-1.0417	-0.36042	-1.1979	-46.379	214.507	-55.709	197.686	46.489	-37.894	99.536	173.942	186.716	37.112	-124.350	79.397	-100.516	199.377	-124.994	-82.747	0.00036048	0.00092138	0.00033427	652.41	4.617e-06	2.3161e-05	783.05	152.21	8.6128e-06	4.1827e-06	221.28	64.963	40.102	13.78	1.697e-05	28.226	0.0039194	0.0039302	0.0010537	921.76	4.4651e-05	4.3636e-05	1046.5	229.39	4.4784e-05	4.2408e-05	341.4	110.67	99.909	28.26	3.9103e-05	47.612	208.798	-39.380	55.892	-113.226	63.652	17.404	-112.903	-107.807	-2.772	-79.233	-107.794	-102.785	-101.653	-96.535	-36.595	-97.088	-8191	255	
2915.147	1	1	0	0	0.25755	0.094583	0.092104	0.22418	0.1666	0.35263	0.31929	0.073916	0.24028	0.48421	0.13663	0.23167	0.21374	0.1681	0.13712	0.2546	-0.24792	-0.64167	-1.0917	-0.32083	-1.0208	-0.92708	-0.59375	-1.3667	-0.625	-0.65417	-1.1979	-0.51667	-0.9375	-1.1354	-0.46875	-1.0542	61.562	-45.179	166.611	229.208	-94.529	158.070	219.320	211.955	53.560	-62.270	182.426	229.414	104.436	210.141	-4.469	90.838	1.9463e-05	0.001699	0.00053855	654.5	6.8332e-06	7.405e-06	778.49	153	4.8425e-06	8.9383e-06	221.92	65.4	40.261	13.721	7.2871e-06	27.844	0.0040043	0.0039453	0.0010363	951.15	4.5135e-05	4.3836e-05	1045	235.82	4.5299e-05	4.2268e-05	340.52	114	99.539	28.117	3.9001e-05	48.539	12.157	-26.636	4.465	-112.980	-58.480	210.273	-112.908	-107.318	-100.321	-11.103	-108.243	-102.281	-102.338	-96.353	57.932	-97.169	-8191	255	
2915.268	1	1	0	0	0.30705	0.14085	0.29898	0.083811	0.30481	0.18846	0.19053	0.22905	0.1083	0.13589	0.20432	0.2913	0.027605	0.15126	0.17423	0.2161	-0.36458	-0.52083	-1.2979	-0.35625	-0.77708	-1.3271	-0.63958	-1.1896	-0.88333	-0.45208	-1.35	-0.55417	-0.87917	-1.2104	-0.35	-1.1708	-97.529	-87.047	-21.813	174.372	65.418	108.563	-24.486	146.653	0.796	224.522	-103.328	46.512	159.180	-49.594	92.688	168.205	0.00026392	0.0025387	0.00035506	661.9	5.5135e-06	2.359e-05	783.25	154.39	7.4531e-06	1.1626e-05	219.99	65.046	40.201	13.775	1.3189e-05	28.036	0.0039652	0.0038443	0.0010301	970.68	4.3766e-05	4.2339e-05	1047.8	237.46	4.3778e-05	4.015e-05	340.52	114.66	96.844	27.421	3.9322e-05	48.526	-101.648	-43.444	190.237	-112.892	75.550	33.655	-112.888	-107.763	-41.457	25.067	-108.180	-102.178	-101.459	-95.823	215.501	-96.812	-8191	255	
2915.364	1	1	0	0	0.037768	0.31177	0.29318	0.1336	0.13127	0.15125	0.16324	0.19524	0.11918	0.17354	0.18182	0.1302	0.14726	0.10673	0.1627	0.16886	-0.37292	-0.3875	-1.3625	-0.54583	-0.81458	-1.5	-0.42917	-1.1979	-1.0292	-0.54583	-1.4479	-0.68333	-0.75	-1.2417	-0.42292	-1.0312	83.487	221.245	163.780	196.013	-44.802	125.033	-117.345	108.903	-3.261	8.221	-119.811	68.085	185.834	194.139	-95.474	-58.029	0.00036388	0.0022264	0.00050346	664.17	9.528e-06	1.3569e-05	787.24	154.76	1.0842e-05	1.0741e-05	220.54	65.744	39.986	13.662	2.7442e-05	28.389	0.003825	0.0036462	0.0010436	977.3	4.2771e-05	4.096e-05	1070.5	239.02	4.3863e-05	3.9263e-05	348.84	115.9	96.811	27.109	4.2021e-05	48.511	213.636	6.904	150.052	-112.808	-45.818	-66.178	-112.758	-107.269	2.926	61.798	-108.239	-102.345	-101.212	-96.011	215.835	-96.749	-8191	255	
2915.460	1	1	0	0	0.052484	0.21063	0.081007	0.27168	0.11493	0.18093	0.12227	0.20893	0.19606	0.15956	0.36028	0.21934	0.07808	0.028299	0.11625	0.27436	-0.59375	-0.29167	-1.1958	-0.75	-0.63333	-1.2271	-0.325	-0.88958	-1.0958	-0.29792	-1.3521	-0.77708	-0.32083	-1.2958	-0.37292	-0.95417	71.373	70.888	173.738	91.490	10.897	76.639	163.067	206.151	-94.677	-29.813	208.775	-0.894	83.398	183.362	163.627	-115.290	0.00010291	0.0013528	3.0772e-05	664.57	1.143e-05	2.4091e-05	787.26	154.23	6.1984e-06	2.1721e-06	222.05	66.715	40.498	14.015	2.4935e-05	28.981	0.0037582	0.0034916	0.0010896	969.34	4.132e-05	3.946e-05	1082.9	236.03	4.2707e-05	3.8561e-05	356.71	116.41	96.257	27.55	4.5009e-05	49.159	105.358	49.338	-116.680	-112.976	80.218	-21.396	-113.315	-107.343	215.988	218.827	-108.228	-102.130	-101.651	-95.528	227.401	-96.780	-8191	255	
2915.557	1	1	0	0	0.26305	0.077111	0.084337	0.18662	0.28577	0.035766	0.31878	0.31074	0.081408	0.043626	0.11297	0.19614	0.17282	0.25873	0.37125	0.14323	-0.80417	-0.26667	-1.1146	-0.89167	-0.33542	-0.97917	-0.37292	-0.83125	-0.99583	-0.41667	-1.0104	-0.9125	-0.49792	-1.2292	-0.52083	-0.625	113.178	157.160	44.739	138.609	187.253	-13.658	78.311	-113.697	-117.940	-63.775	-121.460	192.626	-91.932	-120.163	-23.492	182.008	0.00012768	0.00090992	0.00051027	659.63	1.2081e-05	1.4326e-05	791.29	153.7	8.1423e-06	1.0683e-05	222.66	67.25	40.631	14.091	6.9663e-06	28.972	0.0037864	0.0036429	0.0011574	968.1	4.0646e-05	4.0818e-05	1096.4	234.13	4.1469e-05	3.9873e-05	358.22	115.49	93.455	28.025	4.541e-05	48.582	-4.275	63.054	203.683	-112.830	65.087	220.927	-112.462	-107.267	19.607	172.523	-107.956	-102.306	-101.621	-95.830	-41.913	-97.028	-8191	255	
2915.675	1	1	0	0	0.11282	0.15507	0.14918	0.27022	0.26429	0.22244	0.11583	0.13094	0.15963	0.19058	0.20879	0.2556	0.031252	0.17705	0.14505	0.21727	-0.81042	-0.45833	-1.1812	-0.69583	-0.27292	-1.3813	-0.74583	-0.54167	-1.0063	-0.46667	-1.0667	-1.1104	-0.45	-1.0729	-0.6	-0.63333	148.896	190.921	45.155	-120.337	-38.116	60.992	183.180	216.158	165.908	123.753	215.593	-93.435	-18.904	224.656	-64.112	206.039	7.0354e-05	0.0011973	0.00056733	658.48	6.49e-06	2.6672e-05	783.33	152.74	8.2853e-06	1.4878e-05	222.05	66.007	39.88	13.819	2.1178e-05	28.801	0.0036088	0.0038113	0.0011538	958.59	3.9447e-05	4.2806e-05	1093.3	232.31	4.0302e-05	4.2449e-05	353.94	113.66	90.615	28.201	4.4013e-05	47.461	223.101	110.909	-23.437	-112.877	22.065	168.805	-112.883	-107.213	-2.026	200.839	-108.075	-101.561	-101.626	-96.137	89.255	-96.726	-8191	255	
2915.772	1	1	0	0	0.11764	0.079329	0.082782	0.2161	0.12241	0.22346	0.10283	0.048854	0.25378	0.24158	0.34875	0.074921	0.085589	0.10255	0.21471	0.28555	-0.91042	-0.4375	-0.8875	-1.1604	-0.022917	-1.1646	-0.68958	-0.34375	-1.2437	-0.40208	-1	-1.0021	-0.56667	-1.1583	-0.85417	-0.24792	99.968	147.070	-29.733	203.884	137.987	123.650	180.348	30.189	180.524	-110.911	223.006	-100.732	-51.090	-93.124	30.900	-119.784	0.00028825	0.0014923	0.00054503	653.48	3.1916e-06	1.9013e-05	775.16	151.52	2.8092e-06	9.0356e-06	220.99	67.315	39.259	14.039	1.0622e-05	28.944	0.0034326	0.0039087	0.0011007	938.84	3.8049e-05	4.3877e-05	1077.6	228.12	3.9351e-05	4.41e-05	349.49	112.31	90.517	28.607	4.2577e-05	46.739	-112.552	180.351	-15.009	-112.750	67.674	132.216	-112.561	-107.202	9.420	208.879	-107.664	-101.829	-102.350	-96.574	13.719	-96.488	-8191	255	
2915.843	1	1	0	0	0.34256	0.012861	0.21522	0.17221	0.16355	0.15355	0.20105	0.26127	0.032226	0.057166	0.17987	0.21859	0.14537	0.21899	0.15503	0.15818	-0.91875	-0.15208	-0.625	-1.2687	-0.24583	-1.0896	-0.96875	-0.60625	-1.1229	-0.85625	-0.67083	-1.2208	-0.11042	-0.95417	-0.88125	-0.45	43.863	157.193	210.462	94.773	229.985	120.426	138.025	232.284	-39.081	72.054	147.811	110.467	222.542	-83.745	-77.453	53.773	0.00022792	0.0022475	0.00033675	654.73	1.0577e-05	1.162e-05	783.32	153.06	1.3647e-05	1.4144e-05	222.25	66.284	39.685	14.07	5.9603e-06	28.607	0.0034325	0.0039885	0.0010528	925.48	3.8434e-05	4.3684e-05	1071.7	225.51	4.0148e-05	4.401e-05	345.35	109.84	93.094	28.45	4.1852e-05	45.744	210.407	177.606	-22.319	-112.762	213.932	108.702	-112.782	-107.394	215.386	89.759	-107.886	-102.062	-102.602	-96.172	-53.561	-96.671	-8191	255	
2915.964	1	1	0	0	0.14776	0.12085	0.14525	0.091224	0.11502	0.055981	0.13637	0.22262	0.15182	0.017403	0.072902	0.21182	0.31271	0.17786	0.20444	0.14135	-0.84792	-0.4125	-0.37917	-1.1271	-0.31458	-0.92292	-1.0271	-0.41042	-1.1417	-0.88125	-0.73333	-1.1958	-0.34583	-0.86458	-0.90833	-0.5	147.455	139.225	101.962	-58.498	112.664	-34.375	137.691	-44.057	-41.716	182.800	-99.531	163.264	-18.346	183.824	126.121	-95.637	0.00037851	0.0014086	0.00031355	658.59	1.5639e-05	1.9681e-05	786.48	153.94	9.393e-06	1.7475e-05	222.07	66.311	39.841	13.882	1.3274e-05	28.458	0.003607	0.0040415	0.0010471	926.6	4.1427e-05	4.3986e-05	1077.5	225.09	4.2727e-05	4.4542e-05	346.05	109.57	98.174	28.567	4.2517e-05	45.76	206.008	-60.047	-88.999	-112.760	190.806	42.978	-112.904	-107.746	-81.766	82.477	-107.686	-102.078	-101.945	-95.953	42.777	-96.590	-8191	255	
2916.060	1	1	0	0	0.10483	0.28503	0.041396	0.1801	0.19688	0.055576	0.19495	0.029991	0.25406	0.17638	0.037896	0.18493	0.29125	0.22074	0.14832	0.085033	-0.61042	-0.72083	-0.33125	-1.6958	-0.28125	-1.0021	-1.0958	-0.27292	-1.0938	-0.68542	-0.36042	-1.2646	-0.46667	-0.65208	-1.2104	-0.21667	-57.374	215.155	-125.669	232.763	197.366	-24.393	202.203	-55.551	197.733	-36.002	80.050	-101.779	38.116	-75.079	60.674	160.692	0.00041297	0.00076719	0.00050452	664.41	1.5418e-05	8.9962e-06	784.11	154.31	1.0754e-05	7.2514e-06	222.06	65.024	39.513	13.821	1.0439e-05	28.177	0.0038814	0.0041355	0.0010577	937.63	4.5071e-05	4.4546e-05	1079.7	228.09	4.5716e-05	4.5223e-05	345.12	110.86	101.33	28.365	4.1815e-05	46.346	214.365	-54.412	4.425	-112.956	204.094	57.519	-112.557	-107.960	-7.093	55.197	-107.944	-102.839	-102.234	-95.732	26.676	-97.195	-8191	255	
2916.156	1	1	0	0	0.21398	0.054196	0.21871	0.25412	0.085806	0.15059	0.038952	0.15952	0.19119	0.28988	0.30706	0.22583	0.095538	0.13289	0.28072	0.35379	-0.80625	-0.91875	-0.27292	-1.575	-0.5875	-0.95208	-1.3375	-0.45833	-1.05	-0.9	-0.49375	-1.3438	-0.65	-0.4625	-1.25	-0.42708	-97.076	-53.726	216.551	79.698	192.472	1.299	72.033	-125.565	117.538	-30.369	153.988	216.856	53.807	-103.690	168.744	-68.662	0.00026211	0.00017888	0.00028412	667.41	9.48e-06	1.083e-05	792.41	153.41	9.6179e-06	8.7401e-06	223.18	65.469	40.118	13.732	9.8282e-06	27.85	0.0039733	0.004047	0.0010171	947.47	4.5544e-05	4.3252e-05	1074.5	233.39	4.6296e-05	4.5289e-05	344.75	114.62	103.86	28.522	4.1651e-05	48.037	181.545	98.379	-34.226	-112.889	209.200	17.851	-113.066	-107.789	4.663	55.231	-107.993	-102.275	-101.698	-96.063	-94.431	-97.433	-8191	255	
2916.252	1	1	0	0	0.18174	0.1771	0.12624	0.10986	0.15602	0.088882	0.26733	0.23793	0.081415	0.22878	0.12511	0.28216	0.064264	0.14008	0.15446	0.39812	-0.73125	-0.78333	-0.3125	-1.4292	-0.6125	-0.45625	-1.375	-0.56458	-0.75625	-1.1958	-0.28958	-1.2792	-0.62917	-0.55833	-1.1437	-0.51458	224.386	105.093	-73.999	169.706	20.658	36.916	171.409	-89.247	-67.518	45.645	172.503	130.408	227.911	178.589	11.428	158.807	9.4749e-05	0.0021438	0.0001117	666.41	1.7477e-06	1.0112e-06	797.64	156.37	1.1665e-05	1.2465e-05	224.56	65.173	39.921	13.558	1.5939e-05	27.641	0.0040654	0.0041023	0.001013	976.82	4.6429e-05	4.3316e-05	1076	240.66	4.5758e-05	4.5006e-05	344.88	117.21	103.54	28.197	4.1917e-05	49.347	-98.738	-65.102	212.146	-113.013	-17.877	-93.275	-112.555	-107.250	77.462	-8.388	-107.857	-102.431	-102.184	-96.279	-22.679	-97.374	-8191	255	
2916.371	1	1	0	0	0.16625	0.14643	0.11139	0.157	0.095297	0.08583	0.10036	0.32491	0.19722	0.10782	0.19474	0.095331	0.24566	0.025974	0.091628	0.26478	-0.3125	-1.1375	-0.38958	-1.1562	-0.82083	-0.22708	-1.3146	-0.50417	-0.82917	-1.2646	-0.33333	-1.0875	-0.78125	-0.24583	-1.4	-0.67083	31.923	-56.931	-0.873	103.783	231.222	1.609	106.115	185.640	-99.632	75.484	119.238	-88.751	168.687	-82.324	142.359	227.022	0.00022759	0.0015898	0.00020463	673.44	1.3038e-05	3.3171e-05	796.97	157.48	1.5042e-05	5.7014e-06	222.08	64.945	40.062	13.44	6.9017e-06	27.213	0.0040678	0.0041265	0.0010479	1001.1	4.6492e-05	4.2577e-05	1085	244.73	4.4686e-05	4.294e-05	345	116.09	100.2	27.018	4.2228e-05	48.631	-72.473	-52.825	85.484	-112.559	62.895	15.534	-112.692	-107.407	-33.078	-22.560	-108.279	-102.358	-102.798	-95.915	220.037	-97.085	-8191	255	
2916.445	1	1	0	0	0.13517	0.093254	0.13342	0.38074	0.10306	0.1228	0.10555	0.33505	0.13061	0.32099	0.37606	0.22033	0.024437	0.23799	0.053667	0.066525	-0.50833	-1.1417	-0.23125	-0.98958	-0.89583	-0.44792	-1.4167	-0.81667	-0.53958	-1.5438	-0.35	-1.0375	-1.0146	-0.32083	-1.3563	-0.74583	15.402	-55.939	93.642	209.035	109.093	174.539	159.229	232.334	115.426	-108.466	199.653	114.095	166.932	147.555	-116.302	125.364	0.00011682	0.0018912	0.00013883	678.73	4.6532e-06	1.4003e-05	800.32	157.39	8.2982e-06	1.3506e-05	222.63	64.315	39.366	13.449	1.5424e-05	27.697	0.0038566	0.003875	0.0010737	995.46	4.4758e-05	4.003e-05	1093.1	243.27	4.2495e-05	4.0221e-05	349	113.28	96.304	25.884	4.1795e-05	47.414	205.202	-25.994	123.216	-112.707	-37.493	44.268	-112.811	-107.639	2.790	-17.206	-108.232	-102.563	-102.125	-95.742	205.251	-96.774	-8191	255	
2916.541	1	1	0	0	0.18454	0.073512	0.093025	0.1188	0.12852	0.26517	0.034312	0.085517	0.35164	0.21853	0.19065	0.18586	0.026923	0.021162	0.34405	0.08388	-0.12708	-1.3229	-0.26667	-1.0375	-1.1896	-0.50208	-1.3583	-0.92708	-0.52708	-1.4583	-0.5125	-0.87083	-1.1187	-0.40833	-0.925	-0.91667	-110.603	-39.696	98.611	-56.393	-17.358	56.361	176.625	116.852	-8.540	-54.985	149.295	-50.314	-80.738	-87.275	-52.839	109.560	0.00019757	0.0010105	0.00060197	683.28	7.3244e-06	1.2921e-06	807.84	158.21	1.3212e-05	2.1027e-06	224.17	65.743	40.362	13.501	1.1952e-05	27.947	0.0035782	0.0035564	0.0010735	975.35	4.1619e-05	3.7359e-05	1100	238.58	3.9404e-05	3.8219e-05	352.2	111.52	93.601	25.835	4.1798e-05	46.724	-61.147	-92.952	153.758	-112.326	-67.993	178.782	-112.823	-107.331	41.340	176.978	-107.818	-101.568	-102.202	-95.855	158.419	-97.057	-8191	255	
2916.637	1	1	0	0	0.041535	0.088961	0.21041	0.20169	0.16964	0.2442	0.21076	0.079985	0.23267	0.27907	0.3128	0.31392	0.12532	0.30904	0.26933	0.20791	0.027083	-1.1812	-0.21042	-0.62292	-1.0063	-0.52708	-1.1771	-0.825	-0.27292	-1.1792	-0.53958	-0.8125	-1.2354	-0.48958	-0.90833	-0.99583	98.634	-14.521	19.052	60.307	75.736	52.909	119.872	-40.466	11.971	121.483	-94.038	-51.917	161.531	219.912	228.085	103.289	0.00017424	0.001785	0.00034953	687.19	1.3391e-05	1.1722e-05	815.58	159.08	7.9818e-06	1.082e-05	228.38	66.652	40.45	13.591	6.1461e-06	27.916	0.0033551	0.0034937	0.001074	960.16	3.9127e-05	3.7222e-05	1103	236.3	3.7455e-05	3.9011e-05	357.13	111.3	93.02	26.785	4.3144e-05	46.839	-64.793	117.351	-13.085	-112.777	53.321	-123.712	-112.310	-107.512	54.999	197.468	-107.996	-101.764	-101.911	-96.287	-36.167	-96.941	-8191	255	
2916.756	1	1	0	0	0.06152	0.18686	0.12088	0.23584	0.19287	0.29997	0.24602	0.22966	0.099288	0.11644	0.047537	0.11836	0.13016	0.33635	0.021576	0.23918	-0.21667	-1.3167	-0.28542	-0.7875	-1.1375	-0.3375	-1.0417	-1.1542	-0.31875	-1.1021	-0.75625	-0.64167	-1.1708	-0.52917	-0.86458	-1.275	23.707	-116.775	95.044	63.648	23.628	135.645	232.300	164.238	77.900	-97.023	220.801	74.529	-2.425	196.398	36.530	234.092	0.00022058	0.00091143	4.1375e-05	687.9	1.9463e-05	1.2359e-05	815.67	159.56	1.073e-05	9.1119e-06	228.35	65.451	40.411	13.376	7.7197e-06	27.243	0.0033035	0.0037375	0.0011021	962.91	3.8423e-05	4.0076e-05	1104.2	236.88	3.6755e-05	4.1639e-05	357.8	110.41	92.216	27.646	4.3377e-05	46.659	-39.589	172.117	4.343	-112.695	6.754	183.719	-112.541	-107.321	3.299	-110.054	-108.130	-101.970	-103.034	-96.441	225.299	-97.147	-8191	255	
2916.852	1	1	0	0	0.12206	0.13224	0.34156	0.21299	0.21155	0.1506	0.065693	0.19635	0.10395	0.21755	0.2078	0.26872	0.056862	0.051967	0.11771	0.42449	0.041667	-1.2563	-0.52708	-0.475	-1.1562	-0.60417	-0.93333	-1.1479	-0.24375	-1.3167	-0.86667	-0.37083	-1.3417	-0.54792	-0.67292	-1.1646	-80.941	62.534	27.903	150.849	225.204	80.294	34.704	65.987	20.060	65.669	-118.643	113.153	126.108	203.007	9.256	204.758	0.00042159	0.0019236	0.0001222	693.75	3.435e-06	2.0498e-05	823.17	160.93	1.2358e-05	1.9666e-06	228.01	65.621	39.653	13.08	1.8261e-05	27.098	0.0033576	0.0040573	0.0011409	973.35	4.0155e-05	4.4788e-05	1121.3	240.95	3.9309e-05	4.5278e-05	361.58	110	94.02	28.305	4.3092e-05	45.803	196.251	121.926	-95.220	-112.704	5.292	180.084	-112.761	-107.331	216.619	182.238	-108.249	-101.828	-101.781	-96.112	32.156	-96.807	-8191	255	
2916.948	1	1	0	0	0.20507	0.39374	0.074311	0.29065	0.11401	0.18765	0.1572	0.28418	0.10742	0.21826	0.19164	0.32999	0.18805	0.21756	0.2884	0.20885	-0.052083	-0.95625	-0.94375	-0.3	-1.375	-0.29792	-0.86667	-1.2104	-0.43125	-0.84583	-1.1542	-0.33333	-1.1875	-0.69583	-0.64583	-1.2458	-40.323	-99.090	188.113	-13.279	-20.339	69.879	233.089	230.703	227.996	199.659	-63.904	227.277	108.329	-4.141	-104.058	-76.934	0.00039615	0.00087912	0.00014879	691.03	6.0854e-06	1.944e-05	816.66	161.05	1.5117e-05	1.1158e-05	226.85	65.125	39.715	13.237	9.1587e-06	26.909	0.003496	0.0041512	0.0011176	965.6	4.1558e-05	4.6089e-05	1117	239.8	4.2027e-05	4.6666e-05	362.6	109.29	98.161	28.604	4.2869e-05	45.209	210.757	-13.174	15.991	-112.707	-32.298	-122.360	-112.253	-107.542	-117.483	149.221	-107.630	-102.214	-101.752	-96.695	-24.141	-96.680	-8191	255	
2917.044	1	1	0	0	0.13178	0.14758	0.24585	0.30763	0.13976	0.19375	0.05607	0.098764	0.18178	0.1702	0.13652	0.18331	0.21303	0.050097	0.30702	0.1071	0.1	-0.9125	-0.75625	-0.47292	-1.1583	-0.64583	-0.82917	-1.2667	-0.425	-0.79167	-0.92917	-0.46458	-1.1917	-0.80833	-0.59792	-1.3083	-19.776	-17.505	189.035	230.928	229.203	146.814	-63.367	86.075	164.119	116.580	-123.925	203.738	-75.371	26.644	-28.080	184.842	0.00038235	0.00078652	0.00016978	696.13	9.803e-06	5.7781e-06	825.07	163.16	5.9612e-06	1.0537e-05	230.87	64.665	40.686	13.314	5.3217e-06	26.919	0.003738	0.0041299	0.0011017	956.52	4.2968e-05	4.4709e-05	1107.3	236.5	4.2728e-05	4.3519e-05	353.59	105.75	96.556	27.312	3.8733e-05	43.538	214.373	-49.565	-3.041	-112.511	-112.928	-51.431	-112.674	-108.086	-72.583	26.549	-108.315	-101.906	-102.163	-96.156	24.377	-96.705	-8191	255	
2917.140	1	1	0	0	0.096933	0.08112	0.066358	0.29689	0.10657	0.17429	0.20229	0.4306	0.057084	0.07614	0.19484	0.013197	0.22525	0.19142	0.25808	0.19991	-0.0375	-0.675	-1.0083	-0.32292	-1.2042	-0.75	-0.69167	-1.2563	-0.6125	-0.73333	-1.4021	-0.37708	-0.73542	-0.89167	-0.44792	-1.2958	-9.773	11.881	-65.754	101.279	98.654	102.894	-41.304	-112.623	146.734	9.425	-29.259	21.054	152.287	-119.261	138.521	61.031	0.00035189	0.001812	0.00037641	698.66	4.7266e-06	1.1698e-05	825.83	162.44	1.1325e-05	1.3083e-05	229.95	65.485	40.214	13.269	1.6309e-05	26.706	0.0035858	0.0037125	0.00099046	940.13	4.108e-05	4.0829e-05	1074.8	231.48	4.124e-05	3.9607e-05	341.78	104.5	94.684	26.322	3.5631e-05	43.336	193.001	-83.823	-72.432	-112.659	-51.271	-77.600	-112.567	-107.996	165.023	7.573	-108.293	-102.607	-102.374	-96.345	8.532	-97.470	-8191	255	
2917.237	1	1	0	0	0.22379	0.15573	0.26548	0.14516	0.25272	0.14459	0.18026	0.13295	0.023898	0.072681	0.064247	0.049406	0.11514	0.18155	0.0657	0.30253	-0.225	-0.84583	-1.075	-0.58542	-0.96667	-0.88125	-0.48958	-1.2896	-0.6375	-0.80417	-1.3604	-0.57917	-0.94792	-1.0083	-0.45208	-1.4708	-81.331	44.765	136.891	100.053	-111.788	1.711	-77.879	170.437	-12.684	-68.850	81.661	137.068	94.543	153.490	84.000	170.973	0.00013703	0.00088645	0.00029438	696.88	1.7853e-06	2.2986e-05	831.04	164.12	2.4306e-06	1.0165e-05	230.81	65.59	40.761	13.278	1.5811e-05	26.872	0.0035288	0.0035039	0.00092153	942.48	3.9882e-05	3.8786e-05	1062	234.37	4.0288e-05	3.8039e-05	338.2	107.29	94.867	26.373	3.4932e-05	44.612	219.301	-24.945	3.900	-112.817	126.355	-29.804	-112.388	-107.791	15.006	-25.877	-107.979	-102.820	-102.627	-96.191	11.932	-97.375	-8191	255	
2917.357	1	1	0	0	0.14369	0.11732	0.2321	0.21407	0.08384	0.14684	0.11126	0.014314	0.25205	0.10829	0.55782	0.15838	0.14047	0.20987	0.31209	0.078799	-0.27917	-0.65417	-1.1125	-0.4375	-0.75833	-0.70417	-0.6625	-1.3333	-0.86667	-0.37708	-1.2896	-0.34583	-0.65208	-1.0896	-0.23333	-1.1354	-9.831	-60.241	133.448	-104.068	179.833	81.800	228.040	34.990	-19.515	-32.643	201.928	-109.741	218.333	164.420	-99.629	-61.310	0.00016169	0.00081903	0.0002818	699.29	9.9628e-06	1.9176e-05	828.03	163.79	6.2715e-06	1.2017e-05	231.25	65.597	41.05	13.487	1.0312e-05	26.887	0.0035738	0.0034894	0.00091644	968.48	3.9964e-05	3.9003e-05	1062.3	238.24	4.0231e-05	3.7513e-05	337.79	109.41	93.199	25.979	3.4939e-05	45.328	-58.487	5.766	-93.179	-112.735	4.000	50.329	-112.877	-107.561	50.760	29.606	-108.295	-102.702	-101.763	-96.450	-107.639	-97.188	-8191	255	
2917.453	1	1	0	0	0.055882	0.11085	0.24766	0.13547	0.055509	0.16414	0.070967	0.13122	0.045954	0.33204	0.24652	0.082466	0.14614	0.098259	0.062988	0.20607	-0.50833	-0.54167	-1.1896	-0.52708	-0.85208	-1.2667	-0.37083	-1	-0.93542	-0.29792	-1.1688	-0.60417	-0.77083	-1.025	-0.24583	-0.96042	-87.911	-88.310	197.793	89.175	154.586	78.096	227.909	119.076	108.495	-11.746	-122.321	200.159	94.162	143.511	199.985	203.788	0.00013059	0.001523	0.00020446	706.17	6.1283e-06	1.9718e-05	823.31	163	4.2216e-06	1.5168e-05	227.48	64.759	40.457	13.442	1.3716e-05	27.173	0.0034983	0.0033773	0.00091796	978.73	3.8778e-05	3.7375e-05	1063.2	236.89	3.8647e-05	3.5117e-05	335.23	108.43	89.608	25.062	3.4956e-05	44.659	-119.647	-45.302	124.282	-112.308	127.591	7.736	-112.990	-107.551	107.621	62.175	-108.297	-102.005	-101.477	-96.452	178.966	-96.919	-8191	255	
2917.548	1	1	0	0	0.070359	0.094922	0.1896	0.33529	0.23664	0.1324	0.21086	0.24684	0.12569	0.14685	0.10328	0.084352	0.21069	0.22621	0.13976	0.33252	-0.56458	-0.175	-1.0667	-0.7	-0.57708	-1.2896	-0.54167	-0.93125	-0.94792	-0.2875	-1.2563	-0.72083	-0.59167	-1.1229	-0.45625	-1.0583	182.070	15.769	232.541	201.942	-29.679	31.162	230.058	-8.399	84.820	162.759	21.017	131.023	107.549	-103.960	34.861	191.551	0.00012184	0.0018879	0.00020918	690.89	8.3085e-06	1.9881e-05	809.08	161.19	6.1506e-06	1.7237e-05	227.1	65.548	40.361	13.389	2.5916e-05	27.188	0.0032953	0.0031169	0.00093157	957.73	3.7114e-05	3.5521e-05	1066.9	234.79	3.8741e-05	3.4847e-05	343.64	110.5	91.528	25.533	4.0146e-05	46.116	-120.564	-35.467	-118.188	-112.594	-47.688	10.107	-112.879	-107.678	83.614	-13.219	-108.250	-102.327	-101.428	-96.014	222.837	-96.378	-8191	255	
2917.668	1	1	0	0	0.10561	0.1053	0.18683	0.05989	0.096929	0.15321	0.24613	0.28637	0.26222	0.095594	0.037392	0.23132	0.23069	0.14462	0.065961	0.066857	-0.5875	-0.42917	-1.3312	-0.66458	-0.38542	-1.3229	-0.49167	-0.9625	-0.9375	-0.35833	-1.1229	-0.87708	-0.52083	-1.4562	-0.5125	-0.76667	-88.465	66.099	44.229	-104.693	51.716	155.931	170.352	155.448	73.008	-4.662	-15.110	-105.464	109.894	73.382	231.302	18.879	2.8782e-05	0.0013894	0.00029283	690.61	1.2548e-05	1.9193e-06	815.77	159.11	7.1329e-07	1.0783e-05	225.88	65.395	40.21	13.183	3.2867e-05	27.273	0.0035784	0.0033806	0.0010742	983.16	4.0048e-05	3.8744e-05	1110	239.34	4.1367e-05	3.8049e-05	358.51	112.97	93.223	26.479	4.4481e-05	46.661	132.986	-96.340	184.951	-112.612	38.892	-81.742	-112.926	-107.461	27.278	-107.921	-108.064	-102.278	-102.093	-95.899	191.754	-96.695	-8191	255	
2917.740	1	1	0	0	0.087686	0.17943	0.25637	0.11517	0.024084	0.14571	0.15485	0.066253	0.21135	0.22445	0.52934	0.096716	0.13058	0.19836	0.2276	0.33533	-0.75833	-0.22292	-1.1958	-0.86458	-0.48542	-1.2292	-0.29167	-0.80208	-0.98333	-0.64375	-0.98125	-0.92917	-0.57708	-1.1292	-0.58333	-0.64167	45.738	56.158	-36.151	136.517	130.496	-34.930	176.599	138.366	186.119	10.281	207.731	214.889	-3.567	211.750	-92.547	206.295	0.00018395	0.0010247	0.00036551	685.97	8.1092e-06	1.7837e-05	815.11	158.9	1.0193e-05	1.7514e-05	226.44	65.317	39.919	13.063	4.8242e-06	27.201	0.0036589	0.003664	0.0011508	987.77	3.9735e-05	4.0795e-05	1120.7	236.79	3.9524e-05	3.8967e-05	354.23	109.82	88.191	26.184	4.1277e-05	44.616	-87.582	203.814	135.934	-112.643	58.140	213.604	-112.480	-107.201	45.742	184.512	-107.630	-101.969	-101.517	-96.462	-0.375	-96.446	-8191	255	
2917.836	1	1	0	0	0.41715	0.11896	0.12133	0.19508	0.28695	0.18753	0.35413	0.028674	0.26876	0.10403	0.15144	0.35215	0.11487	0.22346	0.12323	0.16633	-0.82292	-0.325	-0.91042	-1.1896	-0.19583	-1.3104	-0.77708	-0.61458	-1.2021	-0.60208	-0.93958	-1.2271	-0.125	-1.2687	-0.67083	-0.54167	46.759	-41.351	216.493	-123.016	-103.560	54.943	213.436	49.875	15.270	53.700	-123.589	-52.401	-90.918	176.766	176.975	113.102	8.5425e-05	0.0017209	0.00031411	676.55	4.2126e-06	2.5715e-05	803.81	157.61	3.7492e-06	6.0426e-06	224.43	64.602	39.235	13.204	9.7937e-06	26.858	0.0031785	0.0034583	0.0010131	936.63	3.4385e-05	3.8198e-05	1071.7	227.28	3.5248e-05	3.8428e-05	341.1	106.51	84.916	26.275	3.9735e-05	43.704	222.440	132.484	-47.301	-112.695	27.089	151.245	-112.330	-107.579	112.391	149.811	-107.750	-101.919	-102.316	-96.022	5.476	-96.519	-8191	255	
2917.932	1	1	0	0	0.18071	0.13464	0.1223	0.30635	0.12388	0.017276	0.25694	0.1853	0.3451	0.088904	0.47044	0.25056	0.30086	0.1144	0.031331	0.22639	-0.93542	-0.37917	-0.87083	-0.91042	-0.41667	-1.0792	-0.92708	-0.55208	-1.2812	-0.53333	-0.65417	-1.2021	-0.2375	-1.0187	-1.0438	-0.17917	-117.860	-62.362	207.286	-33.462	-9.044	141.280	139.414	197.175	-18.303	-123.030	-105.077	79.445	-115.283	215.150	127.954	-35.801	0.00016394	0.00047649	0.0002221	675.02	4.2205e-06	1.234e-05	798.4	155.19	4.6266e-07	1.2484e-05	223.32	64.944	39.462	13.587	5.3932e-06	28.011	0.0030943	0.0036169	0.0009916	925.4	3.4589e-05	4.0008e-05	1063.4	223.01	3.6015e-05	4.0541e-05	339.01	106.22	87.311	27.162	3.9907e-05	44.346	202.666	126.470	-17.562	-112.739	149.842	16.519	-112.670	-107.250	-81.414	194.153	-107.907	-101.488	-102.083	-95.583	198.343	-96.760	-8191	255	
2918.053	1	1	0	0	0.16271	0.27628	0.18973	0.17612	0.26751	0.28792	0.089111	0.20928	0.34963	0.24979	0.20701	0.054345	0.25537	0.21598	0.048141	0.14348	-0.9625	-0.56458	-0.81042	-1.2938	-0.325	-0.99167	-1.1063	-0.29375	-1.3438	-0.44375	-0.8125	-1.1542	-0.37292	-1.2917	-0.78125	-0.54375	-119.884	-10.695	-42.408	161.344	124.363	-97.080	-121.732	151.947	-114.977	34.039	147.858	-64.889	179.441	-61.178	-78.468	27.363	0.00029927	0.00035402	0.0004511	659.29	2.1019e-05	1.6483e-05	786.72	152.95	1.7844e-05	4.8652e-06	222.7	66.129	38.673	13.782	4.4168e-06	28.669	0.0032996	0.0038156	0.0010023	913.65	3.7658e-05	4.1772e-05	1061.1	219.51	3.8782e-05	4.1904e-05	337.96	106.46	90.971	27.533	3.9618e-05	44.488	227.152	39.211	-82.528	-112.226	218.275	25.021	-112.428	-107.260	179.927	153.884	-107.631	-101.938	-102.877	-96.325	7.507	-96.579	-8191	255	
2918.149	1	1	0	0	0.15186	0.22755	0.051619	0.25167	0.096933	0.055572	0.10947	0.27677	0.19689	0.11532	0.20999	0.024112	0.15691	0.19204	0.24094	0.23095	-0.78958	-0.62708	-0.4625	-1.3146	-0.51667	-0.7625	-1.1021	-0.38958	-0.95833	-0.93958	-0.46667	-1.2062	-0.37083	-0.92083	-1.2229	-0.3125	156.883	161.605	-3.590	188.353	-49.941	-108.401	108.477	178.146	222.912	46.461	194.397	182.306	170.924	-63.928	-89.435	224.256	0.00030923	0.00079439	0.00024456	657.95	1.0702e-05	2.2921e-05	793.17	151.78	5.9411e-06	7.8648e-06	224.03	66.579	39.78	14.236	1.314e-05	28.866	0.003443	0.0037634	0.00097317	900.81	3.8889e-05	3.9641e-05	1052.3	216.57	3.9212e-05	3.984e-05	332.33	105.22	92.583	27.116	3.7541e-05	44.507	232.226	101.033	-25.012	-112.543	-81.638	41.796	-112.179	-107.389	176.646	-12.945	-107.491	-101.980	-102.270	-95.909	36.929	-96.892	-8191	255	
2918.245	1	1	0	0	0.21412	0.16713	0.18677	0.13891	0.15261	0.16825	0.32299	0.16653	0.091717	0.1138	0.18724	0.061177	0.12606	0.036924	0.3375	0.43754	-0.82292	-0.63333	-0.375	-1.2687	-0.325	-0.73333	-1.2896	-0.375	-1.0292	-1.0125	-0.41875	-1.2812	-0.60417	-0.51458	-1.05	-0.57708	-108.825	177.928	155.132	113.068	-69.962	-60.280	175.200	150.495	-51.735	140.482	-72.798	-70.696	-114.109	84.076	-115.248	144.365	0.00014554	0.00085234	0.00061343	650.06	2.2897e-06	1.7481e-05	784.01	150.61	2.1973e-06	1.2345e-05	222.22	66.708	39.413	14.168	5.7917e-06	28.651	0.0034922	0.0036346	0.00092546	889.21	3.9495e-05	3.7987e-05	1026.1	215.45	3.9166e-05	3.8251e-05	324.21	105.55	92.394	26.538	3.5564e-05	44.902	201.306	-95.592	-29.493	-112.380	-115.908	86.697	-112.294	-107.255	110.199	-0.185	-107.456	-101.825	-101.629	-95.681	144.443	-97.122	-8191	255	
2918.317	1	1	0	0	0.19177	0.12967	0.045323	0.23123	0.21279	0.10109	0.16719	0.015184	0.13027	0.13058	0.14579	0.18233	0.054008	0.19008	0.18361	0.11666	-0.47917	-0.85417	-0.26458	-1.2812	-0.74375	-0.50625	-1.4333	-0.325	-0.93333	-0.9875	-0.45208	-1.2896	-0.54792	-0.5125	-1.0812	-0.5375	-72.936	140.830	67.728	213.799	231.585	196.550	-12.864	219.262	35.674	-85.619	152.329	-29.684	149.484	-116.181	-18.313	200.664	7.987e-05	0.0014059	0.00044908	648.54	2.4034e-06	5.6413e-06	778.09	150.82	3.9573e-06	1.4369e-05	222.89	66.17	40.009	13.95	5.3897e-06	28.857	0.003458	0.0034959	0.00087547	897.21	3.9377e-05	3.6939e-05	1011.5	219.6	3.8628e-05	3.7702e-05	320.14	107.15	91.857	25.999	3.4112e-05	45.439	-88.016	-69.917	-53.280	-112.382	-6.486	38.096	-112.514	-107.627	205.543	-22.253	-107.661	-101.845	-101.260	-95.325	82.604	-96.875	-8191	255	
2918.438	1	1	0	0	0.14712	0.17102	0.2443	0.096126	0.070227	0.20379	0.1727	0.33851	0.20406	0.30431	0.058932	0.11951	0.15375	0.10693	0.092927	0.21565	-0.44583	-1.0229	-0.46458	-1.3354	-0.78125	-0.44792	-1.3958	-0.38542	-0.775	-0.97708	-0.43542	-1.15	-0.65	-0.37083	-1.0646	-0.57292	199.156	-101.824	117.774	-43.924	175.647	153.910	37.028	4.851	81.414	-15.390	-106.178	-94.035	-10.601	206.169	84.009	-98.050	0.0001454	0.00072085	0.00018426	648.41	1.2115e-05	1.3991e-05	783.97	151.51	9.0681e-06	1.178e-05	222.13	66.254	40.157	13.918	1.3633e-05	29.02	0.0033201	0.0033811	0.00083819	902.16	3.794e-05	3.5714e-05	1008.6	222.81	3.7668e-05	3.6836e-05	321.05	108.74	90.968	25.663	3.4507e-05	46.132	184.975	0.231	120.380	-112.554	-21.326	65.015	-112.641	-107.353	-10.256	40.561	-107.862	-101.833	-101.222	-95.492	-89.319	-96.748	-8191	255	
2918.534	1	1	0	0	0.19781	0.092982	0.058147	0.28249	0.06314	0.15533	0.21003	0.1295	0.23728	0.27465	0.11471	0.24187	0.037365	0.1544	0.44643	0.086456	-0.30625	-1.0667	0.052083	-1.2188	-0.76042	-0.42708	-1.3771	-0.64792	-0.63542	-0.93125	-0.425	-0.91667	-0.96042	-0.30417	-1.3042	-0.4875	-96.156	84.100	41.272	205.705	47.128	123.909	154.107	107.704	3.558	-56.388	215.745	181.034	1.738	174.503	169.218	-80.717	0.00020199	0.0012255	0.00044473	647.97	8.0887e-06	1.0961e-05	780.06	153.27	3.5115e-06	1.212e-05	222.26	66.139	39.997	13.807	1.4808e-05	28.42	0.0032403	0.0032713	0.00085636	907.43	3.7111e-05	3.3789e-05	1011.8	223.84	3.6039e-05	3.4708e-05	323.59	107.77	89.103	24.692	3.537e-05	45.461	-112.106	3.885	163.352	-112.580	47.525	10.808	-112.452	-107.035	81.493	17.006	-107.487	-101.927	-101.966	-95.404	208.023	-96.557	-8191	255	
2918.630	1	1	0	0	0.334	0.36959	0.035609	0.12619	0.23055	0.25335	0.12488	0.098936	0.13614	0.27064	0.14094	0.08466	0.37249	0.20714	0.090346	0.19176	-0.060417	-1.3354	-0.15417	-1.0875	-0.80625	-0.29792	-1.225	-0.73333	-0.49792	-1.3687	-0.65625	-0.97292	-1.0938	-0.44167	-1.2792	-0.84583	-124.588	177.863	168.624	135.099	189.254	-118.663	-60.146	19.618	-8.373	224.542	143.862	115.043	201.114	-80.685	221.071	189.296	0.00014641	0.00095909	0.00019184	653.38	7.1848e-06	3.6951e-05	781.4	153.92	6.6209e-06	9.3224e-07	222.64	65.379	39.932	13.663	2.2968e-06	28.251	0.003134	0.0031036	0.00089606	907.46	3.6651e-05	3.2777e-05	1025.1	224.92	3.5783e-05	3.3985e-05	331.33	106.62	88.2	24.356	3.6568e-05	44.92	219.300	8.873	88.159	-112.401	32.154	-4.110	-112.450	-107.261	35.980	187.726	-107.771	-101.672	-101.682	-95.924	166.178	-96.775	-8191	255	
2918.749	1	1	0	0	0.14498	0.16338	0.11791	0.2397	0.23586	0.30508	0.21581	0.33337	0.11499	0.08388	0.15628	0.082774	0.14877	0.26847	0.26411	0.12093	-0.0375	-1.2646	-0.19375	-1.0667	-1.025	-0.40208	-1.5104	-0.65625	-0.6125	-1.2104	-0.51042	-0.77917	-1.1521	-0.33542	-1.1437	-0.76875	-18.666	28.624	38.047	206.527	124.623	63.524	176.880	154.834	101.320	145.776	103.934	218.764	166.860	218.429	149.113	145.203	0.00024147	0.00018007	0.00052783	657.59	5.4451e-06	1.8955e-06	780.32	154.29	1.0462e-05	6.4225e-06	221.39	65.562	40.306	13.379	5.8462e-06	27.853	0.0030687	0.0030614	0.00094212	904.49	3.5894e-05	3.2968e-05	1037.3	224.16	3.4802e-05	3.438e-05	335.92	105.83	87.07	24.607	3.8039e-05	44.549	-45.716	84.946	164.975	-112.794	-3.761	178.550	-112.317	-107.270	-14.854	153.575	-108.245	-101.698	-100.989	-96.244	20.108	-97.064	-8191	255	
2918.845	1	1	0	0	0.19027	0.2135	0.25214	0.2227	0.20074	0.23605	0.26273	0.093007	0.17824	0.23282	0.19316	0.18692	0.1588	0.10905	0.24825	0.090335	0.029167	-1.1688	-0.30208	-0.86458	-1.1854	-0.37708	-1.0896	-0.95625	-0.37292	-1.2354	-0.75208	-0.79583	-1.2396	-0.575	-0.99375	-1.0833	-114.553	-79.281	-14.369	223.126	70.479	7.959	105.860	149.001	93.632	9.486	117.470	197.808	147.888	112.049	210.302	-30.702	0.00013304	0.00057371	0.00018461	662.94	1.3993e-05	2.7127e-05	789	155.66	1.102e-05	6.4146e-06	225.04	65.491	40.153	13.291	1.165e-05	27.443	0.002999	0.0032064	0.00097786	905.69	3.5029e-05	3.4733e-05	1046.8	225.2	3.3566e-05	3.5935e-05	339.48	105.14	85.5	25.211	3.7681e-05	44.051	-64.220	115.463	165.788	-112.246	30.510	158.003	-112.280	-107.018	72.028	-118.852	-107.972	-101.631	-101.618	-95.736	1.406	-96.557	-8191	255	
2918.941	1	1	0	0	0.38516	0.030718	0.15116	0.30212	0.23812	0.08109	0.22899	0.10528	0.018074	0.11785	0.16903	0.24319	0.145	0.18779	0.30308	0.22738	0.058333	-1.4458	-0.575	-0.77917	-1.0271	-0.39375	-1.0917	-1.0917	-0.17917	-1.2875	-0.86042	-0.6625	-1.5042	-0.38333	-0.86042	-1.2979	-100.095	-96.496	105.038	182.848	-84.745	2.604	153.986	73.548	15.400	185.961	209.493	136.181	221.983	222.159	166.480	161.212	0.00032991	0.0015191	0.00034875	666.54	4.9253e-06	9.7312e-06	790.04	155.29	7.8011e-06	7.776e-06	222.98	65.489	39.615	13.286	1.0586e-05	27.032	0.002862	0.0033187	0.00095385	900.01	3.3065e-05	3.5717e-05	1034.8	221.5	3.1737e-05	3.6179e-05	332.73	102.63	83.395	25.385	3.6181e-05	43.085	-98.146	217.194	229.433	-112.263	53.632	133.174	-112.261	-107.344	-106.219	209.667	-108.064	-102.080	-102.005	-95.851	25.745	-96.727	-8191	255	
2919.037	1	1	0	0	0.17154	0.32329	0.17586	0.089335	0.23962	0.3005	0.030994	0.39084	0.24776	0.15415	0.34406	0.28864	0.096849	0.10021	0.15115	0.24187	0.072917	-1.1771	-0.71667	-0.51042	-1.3625	-0.33958	-0.87083	-1.3083	-0.3	-1.1333	-0.90208	-0.47708	-1.1979	-0.60208	-0.5	-1.2854	-23.635	203.600	107.418	-81.458	67.826	77.942	-73.290	210.832	171.954	-64.139	205.840	-82.048	-116.746	219.697	161.091	170.901	0.00029072	0.00075913	0.00051053	670.14	1.3299e-05	4.105e-06	791.14	158.42	1.0752e-05	6.7942e-06	226.24	65.292	39.868	13.184	1.1284e-05	27.071	0.0028709	0.0034565	0.00095574	903.64	3.4489e-05	3.8667e-05	1046.6	224.47	3.411e-05	3.8787e-05	337.93	102.61	86.734	26.163	3.6852e-05	42.918	190.477	201.281	-80.818	-112.430	-83.577	180.675	-112.577	-107.277	-110.121	178.363	-107.819	-101.737	-102.817	-95.852	125.743	-96.671	-8191	255	
2919.133	1	1	0	0	0.13427	0.13167	0.087652	0.32263	0.26377	0.13219	0.0335	0.11167	0.26245	0.15262	0.15777	0.15731	0.19339	0.27499	0.26206	0.34708	-0.15417	-0.99583	-0.98333	-0.55833	-1.2792	-0.77292	-0.58333	-1.2146	-0.29375	-1.0958	-1.175	-0.46875	-1.1792	-0.7	-0.72083	-1.3271	27.319	211.421	-41.538	171.098	88.678	20.088	85.405	131.216	39.200	216.668	123.643	60.072	87.292	23.139	127.244	-121.363	0.00034783	0.00094569	0.00040447	685.84	1.2951e-05	2.7617e-06	812.96	161.32	1.6672e-05	7.02e-06	229.91	64.908	39.475	13.094	6.1261e-06	26.824	0.0031129	0.0036324	0.00098016	918.25	3.7735e-05	4.1067e-05	1075.2	229.29	3.8905e-05	4.1983e-05	349.39	104.62	93.956	27.2	3.9124e-05	43.57	181.967	107.331	-41.843	-112.506	220.252	113.465	-112.227	-107.471	230.001	36.174	-108.164	-101.709	-102.626	-96.154	108.417	-96.600	-8191	255	
2919.230	1	1	0	0	0.25377	0.14015	0.18678	0.14352	0.20824	0.062506	0.32052	0.3737	0.15366	0.23951	0.36676	0.15525	0.27756	0.23038	0.072655	0.2864	-0.28333	-0.78542	-1.1625	-0.3125	-1.0854	-0.74167	-0.6125	-1.4438	-0.48125	-0.76042	-1.1958	-0.52708	-0.96875	-0.75417	-0.50417	-1.15	-14.915	-7.783	128.811	108.324	-30.680	18.020	175.721	151.379	220.003	-97.582	209.288	-111.357	-119.863	-11.745	94.422	-118.990	0.00028235	0.00088865	0.0004911	695.76	1.7921e-05	1.9476e-05	829.55	161.87	8.7919e-06	1.033e-05	230.93	64.198	40.365	12.935	1.1698e-05	26.593	0.0035329	0.0038111	0.0010207	940.48	4.1369e-05	4.2363e-05	1096.5	232.97	4.247e-05	4.2683e-05	353.59	106.39	98.793	27.458	3.9558e-05	44.278	212.049	148.206	5.027	-112.504	-110.260	26.148	-112.392	-107.616	226.927	-20.081	-108.180	-101.935	-102.195	-95.732	-28.408	-96.755	-8191	255	
2919.350	1	1	0	0	0.15732	0.065086	0.0055088	0.098818	0.094689	0.078942	0.077598	0.15527	0.18907	0.087205	0.30084	0.43312	0.20028	0.16866	0.12137	0.23925	-0.16458	-0.81667	-1.1167	-0.36667	-1.1063	-0.99583	-0.5125	-1.4479	-0.6375	-0.76667	-1.2521	-0.43542	-0.86875	-0.89792	-0.44167	-1.5229	-13.635	-87.822	13.611	184.166	135.512	-94.607	91.898	206.447	-12.038	175.649	231.537	-90.218	54.220	129.890	116.228	-80.921	3.701e-05	0.0019215	0.00042057	701.49	4.4997e-06	2.0309e-05	832.11	163.21	2.5666e-06	1.1693e-05	231.34	63.89	40.143	12.682	1.0355e-05	26.116	0.0038471	0.0038996	0.0010417	965.92	4.4686e-05	4.3954e-05	1100.2	240.01	4.5426e-05	4.312e-05	353.43	109.13	100.86	27.496	3.9365e-05	45.359	179.844	-60.240	-1.201	-112.444	185.163	-22.115	-112.279	-107.560	-52.132	80.271	-107.979	-102.369	-101.929	-96.419	7.504	-97.195	-8191	255	
2919.445	1	1	0	0	0.34966	0.22513	0.22398	0.2209	0.15356	0.19662	0.22693	0.24454	0.38396	0.14339	0.22703	0.1185	0.14162	0.15224	0.094149	0.36525	-0.18958	-0.71042	-1.1854	-0.36458	-0.94792	-1.0688	-0.43542	-1.2396	-0.43125	-0.6375	-1.0521	-0.45208	-0.92708	-1.05	-0.325	-1.3167	90.003	176.687	138.249	194.311	-107.232	6.209	182.030	205.094	81.833	-66.975	144.726	-8.545	21.154	158.457	172.747	168.389	0.00014405	0.00082056	0.00036032	699.24	1.0419e-05	2.4868e-05	833.08	163.42	7.2801e-06	1.521e-05	229.34	63.389	40.688	12.917	2.4355e-06	25.716	0.0040004	0.0039273	0.0010334	989.93	4.5021e-05	4.3631e-05	1094	244.61	4.5481e-05	4.2665e-05	350.67	112.4	100.93	27.59	3.9818e-05	46.83	17.422	42.692	17.971	-112.521	-90.183	-4.213	-112.733	-107.818	203.018	5.400	-108.182	-102.351	-102.197	-95.423	-51.708	-97.000	-8191	255	
2919.541	1	1	0	0	0.15374	0.098154	0.27128	0.23541	0.26531	0.16247	0.099304	0.38972	0.099596	0.14006	0.16584	0.16708	0.18876	0.53701	0.031707	0.1041	-0.33333	-0.49167	-1.2354	-0.40208	-0.89583	-1.1917	-0.47292	-1.3354	-0.73958	-0.65208	-1.3854	-0.65	-0.81042	-1.0417	-0.5125	-1.1688	-20.247	-14.109	-102.450	52.035	95.353	-41.043	150.769	-45.188	115.734	-106.210	-70.905	162.021	205.596	205.232	-112.210	151.801	7.7478e-05	0.0014878	0.00026515	712.77	1.4208e-05	2.0106e-05	841.15	165.91	2.1392e-06	9.393e-06	231.53	63.8	40.95	12.698	6.1458e-06	25.738	0.0041229	0.0040128	0.0010644	1031.1	4.5917e-05	4.4286e-05	1112.6	252.99	4.5445e-05	4.1583e-05	353.81	114.13	98.388	26.686	3.9191e-05	46.062	-42.663	13.521	174.288	-112.640	65.486	21.129	-112.897	-107.968	-59.280	-19.989	-108.896	-102.170	-101.686	-96.277	192.010	-96.951	-8191	255	
2919.614	1	1	0	0	0.17689	0.27088	0.045703	0.18864	0.20879	0.11626	0.35243	0.21131	0.10448	0.18534	0.20216	0.2707	0.27105	0.29751	0.07031	0.28805	-0.62292	-0.12917	-1.225	-0.42917	-0.69583	-1.0458	-0.62083	-1.1542	-1.0375	-0.43333	-1.3458	-0.775	-0.70208	-1.2625	-0.19375	-1.0875	-11.959	-76.257	161.365	150.980	-25.308	-77.516	140.806	-65.416	225.872	-12.607	203.715	181.869	177.316	-105.722	132.225	-78.047	5.8385e-05	0.0016306	0.00037586	714.39	1.4254e-05	1.4769e-05	832.2	166.64	5.1875e-06	8.5477e-06	232.65	64.862	40.276	12.706	1.9902e-05	25.785	0.0037893	0.0035839	0.0010073	1006.6	4.0568e-05	3.875e-05	1092.1	244.63	4.0396e-05	3.6417e-05	348.67	110.8	93.013	25.281	3.9047e-05	44.742	219.800	-103.216	152.345	-112.526	18.619	-52.000	-113.216	-107.761	129.395	-35.824	-108.126	-102.641	-102.669	-96.363	-110.207	-96.629	-8191	255	
2919.733	1	1	0	0	0.09485	0.17516	0.017179	0.15977	0.2442	0.17716	0.27441	0.027995	0.11739	0.22891	0.22244	0.42599	0.23193	0.12276	0.10897	0.10117	-0.74792	-0.375	-1.1625	-0.71667	-0.59375	-1.1437	-0.62083	-1.0125	-0.93542	-0.39792	-1.2646	-0.62708	-0.49583	-1.3083	-0.23542	-0.85833	107.704	-103.939	88.316	204.840	-94.581	107.068	99.121	-66.432	61.324	-6.914	-90.481	22.563	171.467	-81.267	38.128	-52.086	5.9349e-05	0.00080221	0.00052815	714.71	3.8173e-06	1.3003e-05	834.15	166.73	1.4083e-05	1.1104e-05	231.84	63.875	39.988	12.554	1.0214e-05	25.687	0.0035931	0.0033729	0.0010379	1004.3	4.013e-05	3.8334e-05	1117.2	245.87	4.1226e-05	3.7016e-05	357.94	111.06	92.804	25.205	4.1544e-05	44.319	148.079	27.752	183.539	-112.512	-54.147	54.476	-112.919	-107.385	57.227	-7.600	-107.978	-102.649	-101.864	-96.308	218.237	-96.694	-8191	255	
2919.829	1	1	0	0	0.11089	0.22644	0.1634	0.072133	0.15252	0.057224	0.2494	0.23885	0.18619	0.024865	0.014537	0.17432	0.19494	0.12021	0.097496	0.15195	-0.83333	-0.24792	-1.1667	-1.0833	-0.4375	-1.3062	-0.525	-0.8	-1.2917	-0.56667	-1.1229	-0.97708	-0.34375	-1.3625	-0.55208	-0.61875	-78.490	-117.166	209.265	199.736	3.074	72.223	109.597	152.369	-38.913	5.476	-63.650	168.467	228.527	226.072	17.251	-121.318	0.0002051	0.00060462	0.00011524	706.92	1.2641e-05	5.3798e-06	834.62	165.38	2.6624e-06	8.4523e-06	231.87	64.075	40.993	12.65	1.5197e-05	25.77	0.0035109	0.0033813	0.0010713	996.22	3.9098e-05	3.869e-05	1128.9	243.96	4.0343e-05	3.8482e-05	362.13	110.74	91.222	25.788	4.2816e-05	44.19	-49.772	51.589	47.189	-112.428	26.053	-104.906	-112.877	-107.448	48.477	-86.541	-107.844	-102.516	-102.415	-96.182	-31.643	-96.570	-8191	255	
2919.925	1	1	0	0	0.07742	0.27496	0.21331	0.25087	0.2299	0.061359	0.12381	0.19445	0.1673	0.15489	0.15321	0.14528	0.24545	0.30323	0.30191	0.26388	-0.77917	-0.24583	-0.98542	-0.94375	-0.30625	-1.1167	-0.9125	-0.63333	-1.2437	-0.34792	-1.0333	-1.0812	-0.34375	-1.2437	-0.5875	-0.5375	228.383	-101.210	118.026	204.272	21.954	127.354	87.239	201.924	231.627	200.470	22.189	1.818	-90.461	95.205	43.271	88.947	8.4816e-05	0.0019807	9.1916e-05	710.99	1.6591e-05	3.4768e-05	846.69	166.79	3.0435e-06	1.9155e-05	235.19	64.531	40.505	12.774	1.102e-05	26.068	0.0034084	0.0035317	0.0010727	988.08	3.6554e-05	3.9111e-05	1127.2	239.6	3.7291e-05	3.8925e-05	357.3	108.42	87.745	25.972	4.0987e-05	43.248	-6.713	157.676	95.749	-112.244	1.894	202.406	-112.682	-107.434	17.124	194.103	-107.653	-102.466	-101.435	-96.416	27.928	-96.817	-8191	255	
2920.021	1	1	0	0	0.15822	0.15606	0.25854	0.2092	0.04612	0.12809	0.29795	0.22239	0.16723	0.28502	0.11395	0.27502	0.11728	0.095473	0.17944	0.11189	-0.83125	-0.27292	-0.80625	-1.0958	-0.11875	-1.2917	-0.88333	-0.57083	-1.2437	-0.37917	-0.87292	-1.1875	-0.18125	-1.1417	-0.77708	-0.37708	110.531	37.583	-37.755	168.325	83.430	-93.416	139.641	143.046	18.288	12.998	-5.526	177.372	64.805	90.354	23.229	-68.305	0.00021094	0.00152	0.00027563	721.39	3.7892e-06	1.0621e-06	845.88	167.52	3.8573e-06	1.4964e-05	235.67	64.468	40.633	12.718	4.8464e-06	25.473	0.0031946	0.0036517	0.0010426	988.73	3.5853e-05	4.114e-05	1130.3	239.92	3.7299e-05	4.1529e-05	357.47	108.24	89.389	26.889	4.2056e-05	43.099	-36.695	158.004	-50.318	-112.331	-80.413	75.058	-112.627	-107.390	122.247	218.925	-107.752	-102.716	-102.507	-96.140	58.880	-96.854	-8191	255	
2920.142	1	1	0	0	0.098404	0.13443	0.17242	0.10752	0.27481	0.29203	0.18074	0.2261	0.13361	0.25748	0.26008	0.064118	0.16231	0.10156	0.058899	0.15452	-0.79792	-0.36458	-0.52292	-1.2104	-0.42083	-0.94167	-0.95417	-0.5	-1.4125	-0.7375	-0.55208	-1.3146	-0.325	-1.3208	-0.9125	-0.38542	37.185	-8.942	105.484	103.093	120.321	101.163	198.979	177.154	180.387	146.802	-7.597	191.346	136.692	59.761	123.614	159.413	0.00029432	0.00086449	0.00024277	732.84	8.8623e-06	2.9086e-06	865.1	172.65	1.599e-05	9.9718e-06	240.86	65.239	40.3	12.612	7.982e-06	25.096	0.003392	0.0039862	0.0010682	1004.8	3.8579e-05	4.3944e-05	1150.5	243.11	3.925e-05	4.328e-05	360.49	107.07	92.044	26.85	4.0991e-05	41.877	205.118	179.438	-3.265	-112.226	223.737	85.643	-112.448	-107.393	198.924	171.762	-108.364	-102.831	-102.835	-95.876	21.127	-96.007	-8191	255	
2920.214	1	1	0	0	0.27153	0.055225	0.055125	0.27701	0.12649	0.046819	0.15379	0.2923	0.070362	0.045098	0.23537	0.20389	0.31043	0.21721	0.23306	0.10184	-0.71667	-0.41042	-0.56042	-1.3208	-0.34167	-1.0667	-1.2542	-0.41667	-1.3042	-0.43125	-0.65625	-1.2729	-0.39167	-0.60833	-1.25	-0.36667	138.803	115.825	68.896	210.262	-2.607	193.632	73.263	222.060	130.946	189.370	-116.657	68.900	-50.318	11.670	204.947	-104.179	0.00020194	0.0014735	9.2733e-05	742.39	1.1224e-05	2.3882e-05	875.82	175.75	4.5927e-06	1.3673e-05	246.02	65.212	41.501	12.881	2.2098e-05	25.125	0.0035231	0.0040191	0.001047	1009.2	4.1307e-05	4.4482e-05	1167.2	246.2	4.2372e-05	4.4192e-05	365.69	107.33	96.893	26.816	4.0824e-05	41.521	217.198	-71.797	-25.373	-112.316	-106.315	-61.153	-112.766	-107.580	194.926	68.285	-108.365	-102.722	-103.578	-96.877	28.495	-97.151	-8191	255	
2920.310	1	1	0	0	0.21205	0.21197	0.22984	0.17855	0.082971	0.1954	0.28045	0.14012	0.15476	0.17266	0.23752	0.10684	0.06028	0.13484	0.057277	0.26999	-0.97083	-0.64792	-0.56667	-1.3917	-0.36875	-0.96042	-1.0375	-0.52708	-1.2646	-0.86875	-0.51875	-1.2292	-0.57083	-0.375	-1.3125	-0.57083	-11.194	125.698	54.024	-25.073	203.262	84.449	210.765	166.327	32.267	229.619	180.308	-105.490	-106.386	24.635	63.202	153.132	5.0958e-05	0.001114	0.00049692	757.32	7.9262e-06	1.9327e-05	891.22	182.26	2.5063e-07	8.434e-06	251.06	66.394	42.768	12.879	1.8678e-05	25.049	0.0036429	0.0038834	0.00099849	1006.2	4.1545e-05	4.1075e-05	1158	248.39	4.1246e-05	4.1054e-05	360.4	106.49	96.73	25.827	3.7119e-05	40.817	230.346	-112.770	-50.037	-112.832	203.063	-87.507	-112.345	-107.920	75.140	-63.248	-108.350	-102.713	-102.719	-97.423	-29.490	-97.663	-8191	255	
2920.431	1	1	0	0	0.04921	0.14277	0.3094	0.35151	0.21915	0.21822	0.20654	0.25962	0.17926	0.25039	0.039876	0.089803	0.121	0.19074	0.30583	0.16451	-0.81458	-0.85208	-0.23542	-1.2875	-0.44167	-0.86875	-1.1854	-0.46042	-1.2062	-0.97292	-0.52292	-1.1854	-0.4875	-0.58958	-1.175	-0.39792	205.046	-19.605	9.330	165.134	122.756	-3.937	-67.849	201.160	-89.899	204.719	-26.591	213.864	-0.470	187.158	96.443	184.190	0.00030571	0.00074817	0.00048975	756.16	4.3374e-06	1.7353e-05	893.17	181.77	4.0198e-06	4.0008e-06	252.03	66.478	43.189	12.948	7.2365e-06	24.561	0.0034821	0.0035423	0.00088712	993.18	3.8937e-05	3.7054e-05	1123.2	246.58	3.8486e-05	3.7455e-05	349.06	105.76	94.7	25.017	3.4636e-05	41.209	222.704	111.740	-37.048	-112.834	-60.596	56.736	-112.708	-108.158	79.329	-35.887	-108.428	-103.143	-102.490	-96.769	-45.062	-97.492	-8191	255	
2920.527	1	1	0	0	0.16013	0.12552	0.2677	0.18583	0.032522	0.11686	0.047858	0.12758	0.42075	0.094328	0.23333	0.22497	0.090968	0.13898	0.11814	0.20471	-0.64375	-0.86875	-0.48542	-1.3521	-0.65208	-0.52083	-1.3188	-0.47917	-0.82083	-0.9	-0.61042	-1.3188	-0.54167	-0.35625	-1.1354	-0.48542	197.800	211.596	-95.746	227.679	116.109	147.740	187.632	212.671	-44.708	-108.784	125.245	124.038	155.951	-88.721	-118.377	-112.085	0.00016024	0.00039879	0.00021038	759.22	6.7722e-06	1.0441e-05	894.08	183.3	1.5127e-06	9.3898e-06	255.99	66.871	43.707	13.118	4.073e-06	25.261	0.0033943	0.0034678	0.00085337	1009.7	3.8785e-05	3.624e-05	1120	252.24	3.753e-05	3.6686e-05	349.77	108.29	94.412	24.829	3.3821e-05	42.355	-54.820	-93.343	-112.379	-112.793	130.960	10.401	-112.645	-108.235	209.612	-17.596	-108.740	-103.247	-102.651	-96.485	185.601	-97.840	-8191	255	
2920.621	1	1	0	0	0.19824	0.30721	0.13903	0.22835	0.12786	0.062546	0.19246	0.19743	0.053579	0.24277	0.18399	0.20038	0.03316	0.13596	0.34743	0.093298	-0.53125	-0.99583	-0.34375	-1.275	-0.95625	-0.55208	-1.525	-0.59167	-0.93333	-1.1854	-0.57917	-1.1729	-0.83542	-0.53542	-1.3604	-0.60625	-1.972	185.511	216.166	-110.734	-87.148	148.998	183.179	169.497	-68.841	3.123	191.217	159.961	42.242	-3.659	54.644	188.105	9.8597e-05	0.000135	0.00010821	771.4	8.6642e-06	2.514e-05	910.81	187.82	8.2819e-06	1.419e-05	258.56	68.946	45.714	13.554	1.1463e-05	25.681	0.0032869	0.0033345	0.00084383	1027.9	3.769e-05	3.4769e-05	1132.5	257.54	3.6464e-05	3.531e-05	355.84	110.4	94.083	24.448	3.3842e-05	42.733	227.459	-35.528	-103.015	-112.502	-17.145	-40.633	-112.953	-107.867	22.948	39.333	-108.891	-103.003	-102.550	-96.306	-114.091	-97.516	-8191	255	
2920.719	1	1	0	0	0.1138	0.11306	0.076426	0.053016	0.17357	0.15416	0.035273	0.22926	0.17174	0.069293	0.10846	0.16727	0.069234	0.14543	0.15457	0.24123	-0.3875	-1.25	-0.2875	-1.2646	-1.0167	-0.51875	-1.5833	-0.57917	-0.83125	-1.2979	-0.51458	-1.0479	-0.85	-0.55208	-1.2771	-0.63333	233.608	152.017	-67.609	206.017	27.768	-47.327	-98.413	157.914	-112.656	87.770	71.694	29.034	164.195	-46.232	12.440	135.930	0.00011749	0.00030713	0.00042284	784.53	9.1485e-06	1.4465e-05	928.01	192.42	4.0212e-06	9.7809e-06	266.08	72.438	46.488	13.65	6.1799e-06	25.781	0.0030922	0.0031033	0.00084049	1028.3	3.5368e-05	3.174e-05	1150.9	259.22	3.4106e-05	3.2365e-05	363.47	110.46	91.743	23.555	3.3079e-05	41.614	-91.824	41.503	152.538	-112.289	47.240	6.748	-112.792	-107.927	-109.803	30.780	-108.571	-102.589	-103.001	-96.457	186.198	-96.986	-8191	255	
2920.838	1	1	0	0	0.13307	0.2446	0.099122	0.054487	0.15447	0.27492	0.21225	0.10097	0.24089	0.28004	0.29266	0.25526	0.23813	0.18467	0.23489	0.21745	-0.32083	-1.2521	-0.34792	-0.9875	-1.1271	-0.36875	-1.2083	-0.83958	-0.53542	-1.2375	-0.52917	-0.98958	-0.99792	-0.37083	-1.0187	-0.82708	17.054	195.355	-124.423	-100.026	-104.013	212.135	197.721	-23.958	219.282	-66.767	-95.741	-75.472	215.971	138.413	-39.192	169.024	0.0002367	0.00099477	0.00014655	790.91	7.0616e-06	5.775e-06	929.31	195.78	3.7019e-06	2.0963e-06	268.83	72.143	47.174	13.515	1.3796e-05	25.726	0.0028453	0.0028181	0.00083138	1012.1	3.2527e-05	2.9102e-05	1145.4	257.17	3.1331e-05	3.0248e-05	364.75	107.65	89.246	23.172	3.3704e-05	40.863	-56.883	16.345	174.240	-112.359	-10.223	-83.393	-112.687	-107.965	55.658	-83.136	-108.913	-102.890	-103.161	-97.179	-114.238	-96.963	-8191	255	
2920.910	1	1	0	0	0.10279	0.34276	0.17409	0.20238	0.21304	0.13849	0.2715	0.05858	0.083892	0.1389	0.17905	0.36662	0.31941	0.18721	0.25105	0.28864	-0.22083	-1.1792	-0.54583	-0.91458	-1.2375	-0.16458	-1.1417	-0.93333	-0.31458	-1.1854	-0.72917	-0.52083	-1.2812	-0.44583	-1.0396	-0.975	-52.669	223.706	95.564	223.979	-70.466	14.790	145.577	62.904	-102.422	-33.009	-50.531	-114.184	-94.127	-15.943	27.855	168.097	1.1915e-05	0.0004701	0.00018797	788.85	2.754e-06	7.8448e-06	925.11	196.87	7.2091e-06	4.1494e-06	267.94	71.73	46.52	13.383	5.7626e-06	25.811	0.0027276	0.0028209	0.00086488	1005.3	3.1678e-05	2.9881e-05	1145.8	255.43	2.9595e-05	3.0068e-05	361.84	104.95	85.566	23.129	3.2397e-05	40.12	-51.857	139.185	-1.501	-112.492	57.035	181.725	-112.797	-107.926	8.209	206.628	-108.832	-102.489	-102.601	-97.056	-63.201	-97.262	-8191	255	
2921.030	1	1	0	0	0.019523	0.14	0.16075	0.12834	0.19552	0.058399	0.11948	0.1447	0.15279	0.08427	0.080899	0.45179	0.30847	0.27746	0.22486	0.10319	0.06875	-1.2437	-0.59375	-0.74583	-1.0729	-0.36667	-1.1063	-0.91667	-0.37083	-1.3937	-0.71458	-0.75833	-1.2729	-0.43958	-0.8875	-1.1854	74.892	176.090	34.884	152.628	61.967	-5.750	131.246	-121.856	-54.927	-38.963	230.375	-97.415	94.748	61.804	81.258	89.563	0.00010759	0.0016586	0.00030331	775.6	8.1305e-06	4.0149e-05	919.78	193.91	7.1452e-06	1.2822e-05	266.98	71.521	46.734	13.35	1.2521e-05	25.898	0.0025299	0.0028287	0.0008515	984.7	3.006e-05	3.1351e-05	1141	254.19	2.9174e-05	3.2485e-05	365.17	105.83	85.497	24.066	3.2938e-05	40.102	-15.055	148.539	175.284	-112.478	101.392	189.414	-112.785	-107.792	24.600	208.501	-108.205	-102.997	-103.242	-96.910	34.501	-97.560	-8191	255	
2921.126	1	1	0	0	0.22892	0.25844	0.10536	0.11975	0.17014	0.15316	0.10754	0.10343	0.32347	0.082621	0.18359	0.24919	0.29653	0.17292	0.18147	0.33244	0	-1.1479	-0.67917	-0.66667	-1.2521	-0.36667	-0.97083	-1.0708	-0.4625	-1.3146	-0.9125	-0.36875	-1.4708	-0.56458	-0.74375	-1.4083	195.572	220.311	108.874	-114.065	-117.091	-83.646	185.787	132.751	-107.273	-124.031	188.828	204.854	-79.021	204.235	-52.888	-97.082	0.00020891	0.0010147	0.00027634	774.42	1.289e-05	1.0652e-05	907.97	191.69	1.3783e-05	4.1575e-06	263.41	70.912	45.156	13.28	3.4361e-06	25.344	0.0025204	0.0030029	0.00084484	973.2	2.9218e-05	3.2385e-05	1119.5	248.48	2.8336e-05	3.2658e-05	356.41	103.14	84.379	24.238	3.1944e-05	39.304	210.823	172.155	-0.421	-112.387	66.535	225.720	-112.605	-108.014	19.219	140.974	-108.494	-102.893	-103.040	-97.342	64.040	-97.140	-8191	255	
2921.222	1	1	0	0	0.092659	0.11305	0.29001	0.23338	0.1997	0.17624	0.24071	0.22407	0.10917	0.24008	0.16265	0.13152	0.10543	0.20077	0.18044	0.20142	-0.11042	-1.0229	-0.82083	-0.57708	-1.3438	-0.60625	-0.89583	-1.3604	-0.125	-0.99792	-0.93542	-0.34583	-1.3792	-0.46667	-0.51875	-1.4333	49.471	-110.417	85.422	-123.088	90.186	228.151	213.392	149.329	224.250	187.513	92.549	-106.520	-3.513	-94.373	199.115	-124.754	0.00036736	0.00025295	0.00028202	760.84	1.1584e-05	1.864e-05	900.01	190.32	8.6084e-06	7.3824e-06	259.8	70.621	45.32	13.274	1.0371e-05	25.381	0.0025803	0.0030767	0.00083377	957.26	3.0128e-05	3.34e-05	1105.8	244.88	2.9788e-05	3.3042e-05	353.53	101.56	86.027	24.239	3.1317e-05	38.786	214.414	-3.286	-80.254	-112.464	187.327	-20.822	-112.704	-108.158	-115.508	-33.816	-108.721	-103.349	-103.159	-97.363	-46.733	-96.908	-8191	255	
2921.319	1	1	0	0	0.21574	0.235	0.14675	0.082462	0.01238	0.14227	0.19759	0.22931	0.082641	0.24564	0.27826	0.16818	0.038581	0.34431	0.15711	0.045961	0.095833	-0.8875	-0.93333	-0.53958	-1.0833	-0.62917	-0.55208	-1.0479	-0.5375	-0.75625	-1.1354	-0.39792	-1.1771	-0.71458	-0.39583	-1.4021	-36.072	-82.384	185.370	-5.128	30.415	182.176	153.353	173.874	76.201	33.574	171.750	-73.849	18.388	-17.652	-6.488	222.507	0.00019239	0.00057026	0.00016894	756.91	9.0219e-06	2.1069e-05	896.72	188.6	1.5915e-05	8.7008e-06	259.54	70.3	45.429	13.464	1.989e-05	25.699	0.0027229	0.0030577	0.00082383	946.62	3.1982e-05	3.3695e-05	1101.1	242.71	3.1986e-05	3.2933e-05	352.36	101.03	87.998	24.173	3.0561e-05	38.557	173.893	-74.179	16.013	-112.414	218.907	69.756	-112.903	-107.908	-78.228	2.705	-108.605	-103.010	-102.776	-97.082	43.332	-97.023	-8191	255	
2921.439	1	1	0	0	0.30585	0.16854	0.023078	0.10609	0.2121	0.24486	0.10068	0.22638	0.023747	0.24299	0.14557	0.30187	0.24166	0.38978	0.1851	0.30063	-0.14167	-1.0125	-0.95208	-0.5375	-1.0604	-0.79583	-0.48333	-1.2229	-0.55625	-0.67917	-1.2708	-0.125	-1.0021	-0.80417	-0.35208	-1.0938	5.618	113.829	10.907	167.142	-13.490	151.399	17.319	227.901	144.204	162.382	163.445	-6.080	198.718	-73.841	-37.335	3.702	0.00018992	0.0007812	0.00051255	749.16	3.1822e-06	7.2445e-06	892.11	187.71	1.4586e-05	1.3107e-05	261.23	70.191	44.677	13.337	1.6286e-05	25.874	0.0028254	0.002945	0.00078921	936.44	3.2354e-05	3.2275e-05	1086.7	240.31	3.2189e-05	3.134e-05	346.44	100.9	87.44	23.639	2.8378e-05	38.746	217.963	-21.249	-46.704	-112.631	155.881	-24.251	-112.615	-108.076	-124.323	17.111	-108.487	-103.246	-102.699	-96.674	-12.586	-97.228	-8191	255	
2921.511	1	1	0	0	0.39251	0.071754	0.24693	0.16535	0.16662	0.14588	0.17146	0.23279	0.24208	0.27391	0.092323	0.21346	0.16677	0.17756	0.11723	0.18924	0.079167	-0.51458	-1.0604	-0.10625	-1.2812	-0.98125	-0.28125	-1.3583	-0.5125	-0.74375	-1.2771	-0.23333	-0.8625	-0.98333	-0.064583	-1.4458	40.849	106.088	31.692	-106.150	228.348	-119.969	130.105	38.061	24.914	101.385	12.922	59.406	-27.672	-27.802	8.377	174.788	0.00022496	0.00048413	0.0001208	745.61	1.4649e-06	1.3615e-05	888.27	184.57	4.456e-06	9.9626e-06	259.09	70.174	45.105	13.298	1.9932e-05	25.724	0.002797	0.0027859	0.00073498	933.43	3.1398e-05	3.051e-05	1061.1	238.04	3.1188e-05	2.9473e-05	337.3	101.33	85.618	23.18	2.6707e-05	38.951	-91.976	-24.729	-75.179	-112.885	181.699	-108.036	-112.492	-107.927	36.772	33.933	-108.459	-102.838	-103.099	-96.539	117.675	-97.344	-8191	255	
2921.607	1	1	0	0	0.24481	0.085461	0.10279	0.30839	0.28807	0.12917	0.31045	0.089886	0.065316	0.071589	0.18787	0.1738	0.18497	0.19717	0.4003	0.21825	-0.18958	-0.59167	-1.1313	-0.38333	-0.77292	-1.0646	-0.58125	-1.4271	-0.71458	-0.4	-1.2437	-0.49583	-0.99792	-1.1125	-0.48125	-1.1833	136.086	60.537	97.590	173.497	21.307	-10.251	135.438	206.824	86.056	140.560	213.990	-69.800	44.012	215.617	104.667	-14.863	5.9572e-06	0.00057505	0.00034308	742.46	5.8064e-06	7.3495e-06	881.42	186.13	6.1107e-06	9.5401e-06	259.09	70.204	45.242	13.287	1.5383e-06	25.663	0.002746	0.0027017	0.00070269	940.06	3.0723e-05	2.9905e-05	1055.5	240.98	3.0791e-05	2.8958e-05	336.19	103.21	85.282	23.091	2.7179e-05	39.851	-57.068	-48.157	-96.737	-112.713	47.776	153.042	-112.501	-107.931	135.429	22.383	-108.644	-103.093	-102.611	-96.388	-16.137	-96.913	-8191	255	
2921.701	1	1	0	0	0.26453	0.16176	0.30319	0.20342	0.20546	0.26813	0.12232	0.099594	0.064387	0.26265	0.10609	0.11219	0.23949	0.11236	0.1247	0.052715	-0.47917	-0.24583	-1.2875	-0.52083	-0.84375	-1.1917	-0.45	-1.2375	-0.88125	-0.29583	-1.3854	-0.57292	-0.5875	-1.3896	-0.26667	-1.2687	-113.641	-60.519	-5.838	-122.350	-100.195	55.754	30.637	-109.319	3.660	224.394	-114.555	-29.859	214.092	201.414	-111.938	108.177	0.00033479	0.00077039	0.00034517	741.18	5.07e-06	1.9575e-05	878.09	185.33	5.0475e-06	7.06e-06	257.14	70.096	45.316	13.205	1.0507e-05	25.671	0.0027695	0.0026876	0.0007299	954.33	3.1312e-05	3.0433e-05	1064.8	244.93	3.217e-05	2.9417e-05	343.52	106.23	86.967	23.29	2.9947e-05	40.709	-76.236	-34.219	112.425	-112.596	62.309	-12.886	-112.830	-108.074	-11.673	46.524	-108.719	-103.539	-102.661	-96.217	172.060	-96.578	-8191	255	
2921.799	1	1	0	0	0.12524	0.15278	0.1988	0.2334	0.19881	0.13886	0.19032	0.14776	0.11496	0.18999	0.20097	0.1701	0.10509	0.12108	0.08849	0.15917	-0.31875	-0.33542	-1.2479	-0.6625	-0.55417	-1.2271	-0.36458	-0.95	-1.1375	-0.25833	-1.3042	-0.47292	-0.48958	-1.2375	-0.30417	-1.0187	-9.178	29.978	103.231	187.961	56.606	53.198	149.690	195.511	223.411	28.563	63.876	-62.110	131.596	229.787	-4.819	111.706	0.00010003	0.0013311	0.00019676	748.58	8.9986e-06	1.1585e-05	880.12	187.17	5.542e-06	7.587e-06	258.58	70.309	45.424	13.275	8.887e-06	25.643	0.0028641	0.0026999	0.00079451	971.58	3.1834e-05	2.9994e-05	1087	247.68	3.2293e-05	2.9025e-05	351.06	106.93	86.92	23.136	3.2473e-05	40.762	-125.096	-72.485	114.331	-112.517	32.154	15.826	-112.864	-107.590	130.944	71.422	-108.244	-102.645	-102.688	-96.615	-72.045	-97.150	-8191	255	
2921.918	1	1	0	0	0.24119	0.066879	0.087988	0.13326	0.15961	0.23591	0.14263	0.062901	0.10912	0.079955	0.22759	0.103	0.37842	0.1204	0.1539	0.065289	-0.54167	-0.29167	-1.0146	-0.61875	-0.5875	-1.2812	-0.35417	-1.0812	-0.975	-0.54583	-1.1542	-0.59167	-0.36042	-1.2708	-0.425	-0.66458	126.342	233.919	-52.797	-116.405	206.010	2.072	-43.271	-56.995	-3.904	105.058	217.910	142.622	215.329	56.748	2.479	43.850	0.00011134	0.0012203	0.00045067	749.92	4.3706e-06	1.6077e-05	892.97	189.16	7.2399e-06	2.4218e-06	259.7	70.613	45.835	13.156	1.4159e-05	25.509	0.0028973	0.0027403	0.00086429	984.21	3.268e-05	3.1109e-05	1122.8	252.57	3.36e-05	3.067e-05	362.34	108.23	87.982	23.553	3.4457e-05	40.492	-78.653	179.792	202.867	-112.567	-29.003	-36.942	-113.027	-107.812	51.294	-57.551	-108.827	-102.893	-102.622	-96.940	179.723	-97.004	-8191	255	
2922.014	1	1	0	0	0.053901	0.18681	0.12318	0.030561	0.10516	0.17266	0.21977	0.25708	0.25384	0.032594	0.18284	0.39811	0.084101	0.14459	0.1741	0.29524	-0.59375	-0.18333	-1.1604	-1.1688	-0.34167	-1.1854	-0.58333	-0.86458	-1.1313	-0.3375	-1.0292	-0.84583	-0.30625	-1.1	-0.52292	-0.72708	-48.951	154.386	98.623	220.879	127.004	108.411	-85.177	120.042	-3.585	-71.589	90.664	39.679	-21.350	65.891	-90.012	129.831	0.00011956	0.00094779	0.00051913	760.04	1.5973e-05	9.8033e-06	905.62	191.9	4.7981e-06	1.8993e-05	263.52	70.99	46.714	13.131	1.1523e-05	25.025	0.00285	0.0028226	0.00088566	992.66	3.1566e-05	3.224e-05	1141.2	255.27	3.2806e-05	3.2654e-05	369.92	109.6	88.883	24.686	3.7355e-05	41.139	-40.383	65.057	44.022	-112.665	4.417	84.388	-112.871	-107.801	160.010	203.531	-108.701	-102.967	-103.306	-97.405	42.266	-97.315	-8191	255	
2922.111	1	1	0	0	0.22865	0.16517	0.069153	0.25599	0.21339	0.078288	0.20307	0.1107	0.23472	0.062912	0.46495	0.17764	0.17463	0.19447	0.22817	0.26992	-0.90208	-0.30208	-1.0021	-0.91875	-0.11458	-1.0625	-0.6875	-0.74583	-1.0521	-0.36458	-1.0396	-0.89792	-0.21875	-1.2771	-0.57292	-0.7125	64.554	178.436	118.864	30.246	154.024	62.346	-96.326	190.843	144.989	218.610	208.489	-122.180	-19.193	-121.500	66.835	110.706	0.00013863	0.0014115	9.0221e-05	771.89	6.1291e-06	1.4336e-05	904.11	195.46	8.7071e-06	7.6851e-06	266.73	71.372	46.667	13.267	5.5751e-06	25.075	0.0029825	0.0032535	0.00097212	1020.3	3.3663e-05	3.758e-05	1171.5	264.35	3.5779e-05	3.9014e-05	384.61	114.53	93.695	26.723	4.1094e-05	42.388	86.686	94.104	81.518	-112.431	-54.832	200.538	-112.935	-108.037	-7.966	178.910	-108.524	-103.112	-102.886	-97.516	84.025	-97.614	-8191	255	
2922.207	1	1	0	0	0.23646	0.29582	0.2498	0.1331	0.14324	0.13898	0.10597	0.32082	0.16985	0.20112	0.0745	0.13306	0.12905	0.14087	0.14544	0.112	-0.82917	-0.33333	-0.87292	-1.15	-0.29167	-0.85208	-1.0021	-0.4375	-1.2687	-0.3375	-0.69167	-1.3792	-0.11042	-1.1271	-0.73333	-0.46875	58.495	-89.053	53.436	-121.197	-95.169	-95.492	205.983	165.038	-37.322	-87.131	169.861	233.084	146.479	-124.555	-11.692	167.718	8.8557e-05	0.0015462	0.00018412	780.69	6.603e-06	9.5209e-06	916.01	201.52	2.5193e-06	2.0443e-05	272.22	73.579	50.008	13.731	2.8645e-06	25.181	0.0032404	0.0037313	0.001024	1041.1	3.5634e-05	4.0743e-05	1186.1	269.2	3.6448e-05	4.0702e-05	385.33	112.94	93.873	26.401	3.7174e-05	40.483	230.382	137.443	71.022	-112.507	-103.787	83.444	-113.057	-108.044	121.799	180.113	-108.739	-104.093	-104.054	-98.134	201.652	-98.184	-8191	255	
2922.303	1	1	0	0	0.17408	0.11154	0.043275	0.27194	0.039017	0.21531	0.17589	0.10159	0.092596	0.034937	0.14085	0.31249	0.34851	0.12935	0.22018	0.0049038	-0.84167	-0.4625	-0.48125	-1.2812	-0.33333	-1.0854	-1.0312	-0.28333	-1.3708	-0.625	-0.63542	-1.4625	-0.43958	-0.92292	-0.99583	-0.19792	182.191	212.693	-111.244	220.400	-50.882	110.395	195.980	44.673	-71.727	129.897	162.213	160.228	-39.750	-13.838	47.637	158.230	0.00026907	0.0010881	0.00023432	850.57	1.3984e-05	1.3082e-05	982.84	218.22	1.1365e-05	1.2994e-06	294.42	76.566	52.185	14.267	2.1963e-06	25.449	0.0030078	0.0034883	0.0009157	1072.8	3.3396e-05	3.6979e-05	1220.9	275.21	3.3629e-05	3.6371e-05	392.07	111.31	95.6	25.852	3.3881e-05	38.803	208.793	32.393	-80.740	-112.924	182.150	150.313	-113.329	-108.485	-96.266	22.866	-109.961	-104.561	-104.720	-98.838	55.511	-99.018	-8191	255	
2922.399	1	1	0	0	0.23695	0.16406	0.056458	0.34456	0.15106	0.28104	0.22107	0.085688	0.15022	0.058273	0.053573	0.46495	0.13245	0.088118	0.18253	0.16236	-0.64583	-0.64583	-0.34375	-1.3167	-0.50208	-0.76042	-1.3937	-0.43542	-1.2104	-0.62292	-0.64167	-1.2708	-0.5125	-0.67083	-0.96667	-0.26667	87.808	1.759	119.924	173.329	34.387	177.788	157.870	-10.139	58.662	83.343	-125.177	-65.141	218.789	-49.874	179.905	185.295	0.00038507	0.0016581	0.00027246	860.31	5.8889e-06	6.9863e-06	985.54	219.52	1.4893e-05	8.6576e-06	295.64	76.962	53.124	14.4	9.3364e-06	25.621	0.0029131	0.003199	0.00083076	1059.6	3.2973e-05	3.4192e-05	1200.5	273.21	3.3772e-05	3.4707e-05	387.26	110.04	97.602	25.505	3.307e-05	39.016	220.718	-63.173	-92.801	-113.236	217.363	-21.826	-113.857	-109.124	219.606	-30.887	-109.663	-105.228	-104.545	-98.570	-24.715	-99.555	-8191	255	
2922.520	1	1	0	0	0.25372	0.052894	0.032085	0.13335	0.29115	0.079494	0.33298	0.41873	0.087414	0.12955	0.075066	0.26797	0.04796	0.19479	0.19005	0.18389	-0.62917	-0.82083	-0.43542	-1.3563	-0.33958	-0.61042	-1.3229	-0.28125	-0.78958	-0.88333	-0.37708	-1.3396	-0.37708	-0.81458	-1.1875	-0.31042	-7.686	-26.597	226.569	101.690	224.345	-73.168	163.494	210.806	24.868	132.307	194.166	88.568	-20.176	194.194	-52.082	124.603	0.00029022	0.0015931	0.00054722	869.93	5.5525e-06	1.2301e-05	985.02	222.41	2.8904e-06	8.9423e-06	301.76	81.222	56.014	14.727	7.8953e-06	26.307	0.0030548	0.0031911	0.00082164	1073.8	3.5064e-05	3.4414e-05	1198.7	278.39	3.5362e-05	3.4827e-05	390.44	116.5	102.92	25.918	3.279e-05	40.858	-112.464	-40.435	-48.466	-113.291	214.662	7.169	-113.835	-109.290	-67.698	55.369	-110.093	-105.375	-104.464	-99.866	39.214	-100.433	-8191	255	
2922.614	1	1	0	0	0.19478	0.19046	0.1642	0.22528	0.17205	0.27454	0.21416	0.25083	0.043039	0.25732	0.27135	0.07785	0.0057887	0.20229	0.13219	0.37621	-0.81875	-0.72708	-0.41042	-1.2812	-0.52083	-0.5125	-1.3958	-0.4375	-0.85417	-0.85625	-0.2	-1.1562	-0.67917	-0.46042	-1.1688	-0.19375	232.626	54.890	-14.716	213.202	51.977	225.546	154.755	164.633	78.097	178.419	91.911	16.550	92.993	-70.780	52.389	-124.447	6.5036e-05	0.00077468	0.00012159	858.68	1.5894e-05	3.3145e-05	1001.6	225.36	1.3233e-05	5.9971e-06	306.52	84.205	57.432	14.781	1.3434e-06	26.453	0.0031593	0.0032158	0.00080434	1078.2	3.5904e-05	3.4001e-05	1204.7	285.43	3.5325e-05	3.4583e-05	391.8	120.53	103.96	25.87	3.1898e-05	41.995	159.629	-35.517	-67.139	-113.534	32.152	27.598	-113.809	-109.361	12.308	75.635	-110.673	-105.821	-105.341	-99.402	-49.341	-100.663	-8191	255	
2922.712	1	1	0	0	0.22201	0.28909	0.035181	0.055153	0.050104	0.2406	0.28974	0.1322	0.1795	0.1993	0.039544	0.26248	0.086728	0.21464	0.21288	0.17117	-0.67292	-0.92917	-0.21042	-1.2354	-0.85	-0.33542	-1.4583	-0.425	-0.85208	-1.0042	-0.54583	-1.1167	-0.55208	-0.4875	-1.1542	-0.46875	64.478	26.442	-12.530	-68.565	-64.330	-96.776	-115.203	197.105	102.319	-106.772	146.791	104.282	201.554	46.872	-111.419	163.058	0.00020301	0.0011056	0.00039561	853.25	1.2946e-06	1.783e-05	997.14	225.76	6.2526e-06	9.2065e-06	307.53	85.838	58.4	15.039	1.3841e-05	26.963	0.0031603	0.0032382	0.00080272	1094.5	3.6667e-05	3.4487e-05	1212.1	292.9	3.6376e-05	3.5546e-05	398.37	125.31	105.87	26.105	3.2739e-05	43.544	-38.941	-76.214	-27.292	-113.655	-52.982	-21.956	-114.120	-109.646	102.466	12.517	-110.964	-106.378	-105.556	-99.538	172.678	-100.617	-8191	255	
2922.806	1	1	0	0	0.149	0.14381	0.17907	0.2558	0.0437	0.30589	0.070916	0.20293	0.1682	0.17756	0.13935	0.16169	0.21258	0.061653	0.096646	0.33355	-0.3125	-1.0896	-0.24583	-1.1292	-0.74792	-0.40417	-1.3958	-0.6	-0.53958	-1.1521	-0.50417	-1.2292	-0.98333	-0.34375	-1.05	-0.725	-36.759	123.647	131.566	214.847	-37.680	-46.623	184.020	103.032	-20.529	6.320	215.785	-12.672	5.153	156.978	-57.026	102.861	7.7929e-05	0.00067996	0.0003003	848.58	2.0348e-06	1.4145e-05	996.55	226.58	1.0963e-05	1.6273e-05	309.98	86.604	58.188	15.237	1.0599e-05	27.584	0.003112	0.0031472	0.00081556	1090.9	3.5637e-05	3.2704e-05	1214.4	294.25	3.4937e-05	3.3395e-05	402.17	125.68	104.26	25.669	3.3641e-05	43.985	-86.551	-29.594	208.249	-113.720	16.215	-65.443	-114.340	-109.807	36.826	20.246	-111.355	-106.070	-105.877	-99.639	119.059	-100.898	-8191	255	
#DATA ENDS
