BOXY.EXE: ISS Imagent and Oximeter Data Acquisition Program Version 0.80
Ascii Record File

#ACQ INFORMATION
2  Detector Channels 
16  External MUX Channels 
1  Auxiliary Channels 
5000  Waveform (CCF) Frequency (Hz)
1  Waveforms Skipped 
30  Waveforms Averaged 
1  Cycles Averaged 
16  Acquisitions per Waveform 
10.0806  Updata Rate (Hz) 

#FILE INFORMATION
TRUE -- External MUX Channel results are PARSED.
FALSE -- AC DC and Phase are NOT grouped.
TRUE -- Companion Program Settings File CREATED.
FALSE -- AC data not excluded
FALSE -- DC data not excluded
FALSE -- Phase data not excluded
FALSE -- Auxillary Chn. data not excluded
Tab delimiters

#CALIBRATION STATE
TRUE -- Waveform Calibration Values APPLIED.


#AUX CALIBRATION VALUES
Val Type	aux-1	

Term	1.0000e+00	
Factor	0.0000e+00	


#WF CALIBRATION VALUES
A = Detector Channel
Val Type	A-AC1	A-AC2	A-AC3	A-AC4	A-AC5	A-AC6	A-AC7	A-AC8	A-AC9	A-AC10	A-AC11	A-AC12	A-AC13	A-AC14	A-AC15	A-AC16	A-DC1	A-DC2	A-DC3	A-DC4	A-DC5	A-DC6	A-DC7	A-DC8	A-DC9	A-DC10	A-DC11	A-DC12	A-DC13	A-DC14	A-DC15	A-DC16	A-Ph1	A-Ph2	A-Ph3	A-Ph4	A-Ph5	A-Ph6	A-Ph7	A-Ph8	A-Ph9	A-Ph10	A-Ph11	A-Ph12	A-Ph13	A-Ph14	A-Ph15	A-Ph16	

Term	0.00000e+00	0.00000e+00	0.00000e+00	0.00000e+00	0.00000e+00	0.00000e+00	0.00000e+00	0.00000e+00	0.00000e+00	0.00000e+00	0.00000e+00	0.00000e+00	0.00000e+00	0.00000e+00	0.00000e+00	0.00000e+00	0.00000e+00	0.00000e+00	0.00000e+00	0.00000e+00	0.00000e+00	0.00000e+00	0.00000e+00	0.00000e+00	0.00000e+00	0.00000e+00	0.00000e+00	0.00000e+00	0.00000e+00	0.00000e+00	0.00000e+00	0.00000e+00	0.00000e+00	0.00000e+00	0.00000e+00	0.00000e+00	0.00000e+00	0.00000e+00	0.00000e+00	0.00000e+00	0.00000e+00	0.00000e+00	0.00000e+00	0.00000e+00	0.00000e+00	0.00000e+00	0.00000e+00	0.00000e+00	
Factor	1.00000e+00	1.00000e+00	1.00000e+00	1.00000e+00	1.00000e+00	1.00000e+00	1.00000e+00	1.00000e+00	1.00000e+00	1.00000e+00	1.00000e+00	1.00000e+00	1.00000e+00	1.00000e+00	1.00000e+00	1.00000e+00	1.00000e+00	1.00000e+00	1.00000e+00	1.00000e+00	1.00000e+00	1.00000e+00	1.00000e+00	1.00000e+00	1.00000e+00	1.00000e+00	1.00000e+00	1.00000e+00	1.00000e+00	1.00000e+00	1.00000e+00	1.00000e+00	X	X	X	X	X	X	X	X	X	X	X	X	X	X	X	X	

B = Detector Channel
Val Type	B-AC1	B-AC2	B-AC3	B-AC4	B-AC5	B-AC6	B-AC7	B-AC8	B-AC9	B-AC10	B-AC11	B-AC12	B-AC13	B-AC14	B-AC15	B-AC16	B-DC1	B-DC2	B-DC3	B-DC4	B-DC5	B-DC6	B-DC7	B-DC8	B-DC9	B-DC10	B-DC11	B-DC12	B-DC13	B-DC14	B-DC15	B-DC16	B-Ph1	B-Ph2	B-Ph3	B-Ph4	B-Ph5	B-Ph6	B-Ph7	B-Ph8	B-Ph9	B-Ph10	B-Ph11	B-Ph12	B-Ph13	B-Ph14	B-Ph15	B-Ph16	

Term	0.00000e+00	0.00000e+00	0.00000e+00	0.00000e+00	0.00000e+00	0.00000e+00	0.00000e+00	0.00000e+00	0.00000e+00	0.00000e+00	0.00000e+00	0.00000e+00	0.00000e+00	0.00000e+00	0.00000e+00	0.00000e+00	0.00000e+00	0.00000e+00	0.00000e+00	0.00000e+00	0.00000e+00	0.00000e+00	0.00000e+00	0.00000e+00	0.00000e+00	0.00000e+00	0.00000e+00	0.00000e+00	0.00000e+00	0.00000e+00	0.00000e+00	0.00000e+00	-9.65827e+01	-1.43805e+02	-1.39444e+02	-1.81677e+02	-5.59979e+01	-8.92971e+01	-1.59950e+02	-1.62015e+02	-5.08740e+01	-7.88643e+01	-1.72352e+02	-1.71128e+02	-1.81284e+02	-1.77091e+02	-7.77532e+01	-1.49524e+02	
Factor	1.36684e-05	1.02022e-04	2.72554e-05	1.62761e-01	7.49054e-07	1.57017e-06	1.72592e-01	4.32996e-02	7.46595e-07	8.31903e-07	7.37064e-02	2.64361e-02	3.12763e-02	7.71586e-03	1.03788e-06	1.11046e-02	1.01505e-06	1.06720e-06	2.95085e-07	8.33522e-02	1.16206e-08	1.16285e-08	8.30791e-02	2.23858e-02	1.15920e-08	1.16152e-08	3.63287e-02	1.30762e-02	1.58931e-02	3.95424e-03	1.15352e-08	5.46625e-03	X	X	X	X	X	X	X	X	X	X	X	X	X	X	X	X	



#DISTANCE SETTINGS
A = Detector Channel
A-1	A-2	A-3	A-4	A-5	A-6	A-7	A-8	A-9	A-10	A-11	A-12	A-13	A-14	A-15	A-16	

2.5000e+00	3.0000e+00	2.5000e+00	3.0000e+00	2.0000e+00	3.0000e+00	1.5000e+00	3.0000e+00	3.0000e+00	3.0000e+00	3.0000e+00	3.0000e+00	3.0000e+00	3.0000e+00	1.5000e+00	3.0000e+00	

B = Detector Channel
B-1	B-2	B-3	B-4	B-5	B-6	B-7	B-8	B-9	B-10	B-11	B-12	B-13	B-14	B-15	B-16	

1.0000e+01	1.0000e+01	1.0000e+01	1.4400e+00	1.0000e+01	1.0000e+01	1.5100e+00	1.9400e+00	1.0000e+01	1.0000e+01	1.9900e+00	2.4900e+00	2.4100e+00	2.9000e+00	1.0000e+01	2.9800e+00	




#DATA BEGINS
time	group	step	mark	flag	A-AC1	A-AC2	A-AC3	A-AC4	A-AC5	A-AC6	A-AC7	A-AC8	A-AC9	A-AC10	A-AC11	A-AC12	A-AC13	A-AC14	A-AC15	A-AC16	A-DC1	A-DC2	A-DC3	A-DC4	A-DC5	A-DC6	A-DC7	A-DC8	A-DC9	A-DC10	A-DC11	A-DC12	A-DC13	A-DC14	A-DC15	A-DC16	A-Ph1	A-Ph2	A-Ph3	A-Ph4	A-Ph5	A-Ph6	A-Ph7	A-Ph8	A-Ph9	A-Ph10	A-Ph11	A-Ph12	A-Ph13	A-Ph14	A-Ph15	A-Ph16	B-AC1	B-AC2	B-AC3	B-AC4	B-AC5	B-AC6	B-AC7	B-AC8	B-AC9	B-AC10	B-AC11	B-AC12	B-AC13	B-AC14	B-AC15	B-AC16	B-DC1	B-DC2	B-DC3	B-DC4	B-DC5	B-DC6	B-DC7	B-DC8	B-DC9	B-DC10	B-DC11	B-DC12	B-DC13	B-DC14	B-DC15	B-DC16	B-Ph1	B-Ph2	B-Ph3	B-Ph4	B-Ph5	B-Ph6	B-Ph7	B-Ph8	B-Ph9	B-Ph10	B-Ph11	B-Ph12	B-Ph13	B-Ph14	B-Ph15	B-Ph16	aux-1	digaux	

1698.310	1	1	0	256	0.12357	0.03634	0.15354	0.22474	0.30178	0.12624	0.21055	0.26419	0.14493	0.0039966	0.33864	0.089208	0.26918	0.28191	0.10467	0.052389	-0.83125	-0.39583	-1.1417	-0.98958	-0.45417	-1.2396	-0.84792	-1.0292	-1.0396	-0.28958	-1.4896	-0.66667	-0.45417	-1.4104	-0.65833	-0.79375	336.111	364.608	118.459	367.220	229.140	177.285	117.135	46.207	188.620	122.493	364.661	333.139	370.090	361.596	280.190	74.994	0.00017008	8.2551e-05	6.679e-05	1052.1	1.7478e-06	9.4065e-06	1145.3	226.11	3.4616e-06	2.3063e-06	284.92	79.207	61.516	17.904	5.5286e-06	25.08	0.00030215	0.00029073	9.3694e-05	1029.3	3.5243e-06	3.5517e-06	1121.8	224.71	3.9008e-06	3.9574e-06	284.47	80.844	64.017	18.777	5.0535e-06	26.263	201.981	75.594	171.318	50.737	272.302	197.394	50.789	58.560	219.859	201.619	57.583	64.975	65.445	72.462	245.107	71.503	-8191	255	
1698.405	1	1	0	0	0.33825	0.18351	0.074023	0.33625	0.14332	0.20722	0.32171	0.20164	0.078329	0.39853	0.24413	0.20868	0.058325	0.14298	0.17559	0.29746	-0.94167	-0.35417	-0.92292	-0.91667	-0.43333	-1.1	-0.90208	-0.83958	-1.2833	-0.4875	-1.1833	-1.2042	-0.525	-1.4792	-0.79167	-0.67708	44.935	264.998	332.404	385.129	219.928	315.638	364.578	320.648	292.302	286.805	349.026	382.473	308.370	373.278	289.492	40.365	0.00020004	0.00040759	0.00010057	1082.1	1.9697e-06	6.0719e-06	1183.4	230.99	3.2453e-06	5.477e-06	293.58	81.245	64.118	18.541	6.074e-06	25.788	0.00041629	0.00044343	0.00013525	1066.7	4.7627e-06	5.1253e-06	1166.5	232.98	5.0513e-06	5.4374e-06	296.9	84.234	67.183	19.859	6.248e-06	27.402	200.864	101.630	397.607	50.462	223.496	217.107	50.833	57.968	163.711	146.805	57.590	64.827	65.031	71.821	295.769	71.632	-8191	255	
1698.501	1	1	0	0	0.2968	0.10929	0.34175	0.35017	0.052962	0.12585	0.15149	0.38963	0.36397	0.23478	0.26425	0.15658	0.11712	0.097728	0.28832	0.27223	-1.1771	-0.43542	-0.98542	-1.4417	-0.42917	-1.35	-1.1271	-0.43333	-1.1854	-0.50625	-0.9	-1.2542	-0.47083	-1.0479	-1.0417	-0.49583	209.587	206.754	249.023	356.453	159.362	247.155	324.559	41.648	110.383	48.537	49.887	370.191	79.381	254.531	345.399	321.145	0.00020503	0.00082159	0.00024391	1124.6	1.1414e-06	1.1492e-05	1221.2	239.65	2.53e-06	2.177e-06	300.39	82.504	65.575	18.748	4.6314e-06	25.82	0.00050865	0.00058779	0.00016659	1113.7	5.8992e-06	6.7645e-06	1211.6	243.1	6.0117e-06	6.6953e-06	305.93	86.273	69.003	20.286	6.163e-06	27.487	173.106	110.149	394.359	50.267	169.908	170.423	50.540	58.174	281.154	131.420	57.441	64.517	65.409	71.767	122.073	71.168	-8191	255	
1698.599	1	1	0	0	0.12152	0.28577	0.2759	0.23077	0.14532	0.052547	0.098053	0.12709	0.068571	0.11911	0.31283	0.041224	0.31049	0.08451	0.20657	0.10315	-0.97292	-0.6875	-1.0792	-1.2563	-0.39375	-1.2146	-1.0354	-0.63125	-1.325	-0.61458	-0.98125	-1.3417	-0.39792	-1.0354	-1.075	-0.41458	158.129	393.099	118.518	57.444	73.862	304.413	298.528	302.709	284.768	55.491	321.267	140.859	355.879	85.350	112.453	398.904	0.00025752	0.00017542	0.00011516	1131.1	4.4532e-06	1.6671e-05	1225.9	241	5.2837e-06	2.5793e-06	301.23	83.669	65.319	18.757	5.1446e-06	25.989	0.00050906	0.00059245	0.00015336	1119.9	5.747e-06	6.5651e-06	1214.3	243.05	6.0041e-06	6.6216e-06	304.77	85.97	69.263	20.209	5.5553e-06	27.226	196.201	78.111	99.123	50.376	189.129	193.853	50.445	58.010	265.209	206.334	57.565	64.903	64.933	71.613	165.865	71.355	-8191	255	
1698.718	1	1	0	0	0.13055	0.067397	0.18548	0.16737	0.26317	0.17754	0.37433	0.11153	0.19557	0.0065076	0.18184	0.28269	0.33906	0.33363	0.34002	0.079923	-1.0187	-0.71458	-0.60625	-1.3563	-0.59583	-1.0333	-1.3521	-0.32083	-1.3021	-0.91875	-0.81458	-1.2687	-0.42917	-0.88333	-1.2396	-0.48333	92.605	98.703	368.937	320.165	51.939	173.940	307.938	314.036	192.266	212.285	351.877	278.756	209.910	321.274	245.203	331.466	0.00024733	0.00024821	0.00011023	1125	5.2776e-06	4.6375e-06	1218.1	238.64	5.6744e-06	2.4633e-06	297.41	81.955	65.18	18.719	7.2471e-06	25.695	0.00049104	0.00053883	0.0001323	1109.2	5.3458e-06	5.5521e-06	1197	238.97	5.3744e-06	5.5598e-06	298.8	84.243	68.559	19.868	4.9227e-06	26.896	187.770	172.325	378.042	50.605	170.593	85.995	50.639	58.031	265.238	331.486	57.361	64.903	65.261	71.764	209.613	71.150	-8191	255	
1698.814	1	1	0	0	0.06071	0.30515	0.34169	0.11512	0.28782	0.064097	0.23716	0.37891	0.20093	0.024099	0.075876	0.13954	0.14361	0.10337	0.22879	0.2384	-0.88958	-0.78333	-0.375	-1.4458	-0.64375	-0.86667	-1.4875	-0.40417	-1.3146	-0.8375	-0.5625	-1.6396	-0.61875	-0.91875	-1.2917	-0.35625	159.340	240.732	97.793	46.758	315.869	330.885	371.216	349.849	373.910	298.133	120.545	240.373	87.967	302.017	84.290	180.694	0.00024723	0.0004692	9.6611e-05	1116.8	1.4132e-06	2.6646e-06	1194.6	233.12	6.2069e-06	3.9383e-06	289.25	80.261	63.025	18.306	2.6275e-06	25.55	0.00046809	0.00047113	0.00011522	1091.4	4.8772e-06	4.4941e-06	1169.7	231.77	4.3896e-06	4.0032e-06	286.74	80.91	64.572	18.815	3.3009e-06	26.001	183.871	106.786	56.530	50.352	148.586	151.890	50.628	58.457	236.839	131.805	57.861	64.906	65.206	71.835	280.246	71.264	-8191	255	
1698.910	1	1	0	0	0.19565	0.11391	0.11459	0.068007	0.25197	0.17473	0.43529	0.60354	0.20173	0.26528	0.37553	0.058771	0.22738	0.11083	0.32814	0.24389	-0.81875	-0.8	-0.59792	-1.2583	-0.64375	-0.60417	-1.7271	-0.62083	-1.1083	-1.1229	-0.67292	-1.3396	-0.72292	-0.47917	-1.5312	-0.4875	349.497	241.070	320.841	304.629	159.814	285.990	363.308	327.072	167.614	186.668	115.521	364.649	54.438	231.100	335.737	338.831	0.00023578	0.00022825	8.3383e-05	1076.9	8.3331e-07	5.3973e-06	1167.9	228.95	1.5381e-06	3.5735e-06	285.16	79.727	62.554	18.121	1.819e-06	25.594	0.00032864	0.00031388	7.7995e-05	1051.6	3.5634e-06	3.1738e-06	1136.1	225.55	3.3283e-06	3.0549e-06	280.1	79.457	62.992	18.492	2.7806e-06	25.845	167.616	361.548	127.116	50.713	55.761	265.456	50.972	58.295	239.206	146.232	58.046	65.133	65.480	72.190	361.764	71.553	-8191	255	
1699.006	1	1	0	0	0.25163	0.16461	0.097642	0.3143	0.20127	0.18115	0.10665	0.13855	0.038036	0.16722	0.20594	0.043028	0.20395	0.11223	0.14755	0.17081	-0.66458	-1.1833	-0.66667	-1.4146	-0.7875	-0.66458	-1.3479	-0.65625	-0.87083	-1.1562	-0.51667	-1.1396	-0.8	-0.61458	-1.2521	-0.48542	323.618	45.628	257.982	270.512	147.255	336.853	308.881	326.299	311.975	316.557	342.367	356.520	235.825	238.383	320.120	236.330	0.00013182	0.00029396	7.191e-05	1061.1	2.4243e-06	2.8603e-06	1158.7	225.86	2.0479e-06	1.8559e-06	286.43	79.018	61.855	18.097	4.9941e-06	25.466	0.00028727	0.00027282	6.8996e-05	1036.9	3.1841e-06	2.8535e-06	1122.8	223.86	3.1526e-06	2.9249e-06	278.99	79.48	62.338	18.386	2.78e-06	25.76	193.581	109.143	88.833	50.618	200.171	121.760	50.634	58.298	248.788	243.595	57.911	65.316	65.251	72.094	163.650	71.724	-8191	255	
1699.102	1	1	0	0	0.078502	0.2176	0.21514	0.31627	0.23973	0.26951	0.18294	0.32265	0.17755	0.11701	0.20319	0.16794	0.22808	0.22587	0.13353	0.30215	-0.36458	-1.3062	-0.51667	-1.4229	-0.88333	-0.53958	-1.5521	-0.69375	-0.94167	-1.3	-0.47917	-1.0521	-0.97292	-0.42292	-1.175	-0.86042	386.831	85.463	252.370	87.573	161.145	313.918	289.168	397.059	215.753	136.483	314.715	343.016	107.810	160.372	121.683	299.202	0.00016264	0.0003992	0.00015501	1060.7	6.3995e-07	3.6779e-06	1140.8	224.58	3.9873e-06	1.2873e-06	281.49	78.617	61.647	17.908	2.5808e-06	25.203	0.0002695	0.00026283	7.0395e-05	1031.7	3.0254e-06	2.784e-06	1110.1	221.74	2.8917e-06	2.7638e-06	276.5	78.562	61.611	18.12	2.643e-06	25.501	172.520	123.194	90.776	50.814	137.027	117.504	50.940	58.247	222.378	301.069	57.759	65.080	65.261	72.467	231.453	71.837	-8191	255	
1699.198	1	1	0	0	0.13747	0.31714	0.1248	0.051282	0.22023	0.24929	0.11032	0.3412	0.17851	0.098935	0.24975	0.22694	0.13041	0.25811	0.079618	0.38274	-0.34583	-1.3813	-0.43958	-1.0438	-0.81458	-0.38333	-1.2646	-0.79792	-0.63125	-1.4646	-0.59583	-1.2021	-1.2208	-0.45625	-1.3438	-0.90417	361.366	349.876	167.681	214.566	344.360	113.815	329.752	56.683	111.322	227.280	261.281	284.750	199.663	79.626	382.498	73.460	0.00016076	0.0001065	9.1747e-05	1043.7	2.9314e-06	2.1969e-06	1125.9	221.35	3.8876e-06	4.2546e-06	278.02	78.109	61.027	17.726	5.069e-06	25.056	0.00023395	0.00022341	6.3786e-05	1015.2	2.5269e-06	2.2892e-06	1094.4	217.82	2.4262e-06	2.3535e-06	272.74	77.376	60.729	17.894	2.8461e-06	25.208	172.790	203.242	72.096	50.842	166.913	95.648	50.935	58.127	232.923	162.935	57.831	65.272	65.226	72.137	247.322	71.706	-8191	255	
1699.319	1	1	0	0	0.47815	0.011431	0.093537	0.23817	0.29306	0.17609	0.0963	0.23309	0.13156	0.025492	0.059671	0.17988	0.18458	0.059076	0.050141	0.15335	-0.19792	-1.3146	-0.42917	-1.0917	-1.0562	-0.32083	-1.3396	-0.99375	-0.52083	-1.3188	-0.71875	-0.67708	-1.2563	-0.55	-1.175	-0.975	389.670	366.496	284.896	343.669	226.124	313.134	276.229	376.664	270.828	187.582	154.939	250.623	350.786	276.631	115.028	114.034	0.00020971	0.0006279	8.4029e-05	1039.7	4.1374e-06	3.5477e-06	1136.7	220.22	3.5388e-06	2.7528e-06	278.98	77.472	60.541	17.78	1.0883e-06	24.87	0.00024575	0.00024893	7.8203e-05	1011.6	2.9082e-06	2.78e-06	1102.2	218.54	2.8606e-06	2.8158e-06	275.08	77.734	60.98	18.016	3.0264e-06	25.203	183.876	88.058	184.161	50.546	205.967	156.590	51.083	58.233	182.046	109.133	57.667	65.269	65.456	72.148	328.446	71.511	-8191	255	
1699.413	1	1	0	0	0.07653	0.18794	0.14191	0.076223	0.059663	0.34039	0.21066	0.19692	0.158	0.15691	0.098397	0.24007	0.11141	0.24885	0.19098	0.12947	-0.11042	-1.3104	-0.46875	-0.97708	-1.3208	-0.58958	-1.3833	-0.92708	-0.39375	-1.4604	-0.80208	-0.53958	-1.3479	-0.44583	-1.1229	-1.1083	258.480	310.218	50.293	263.715	285.531	228.599	262.666	385.659	134.541	200.915	196.227	173.422	179.811	137.955	158.408	64.796	0.00021633	0.00054173	7.1778e-05	1042.8	2.6767e-06	9.2932e-07	1138.4	220.24	7.0902e-07	6.0771e-06	279.52	77.237	61.12	17.749	1.0866e-06	24.817	0.00023964	0.00024529	7.5647e-05	1013.6	2.6046e-06	2.6431e-06	1104.7	217.57	2.5358e-06	2.7547e-06	274.54	77.322	60.843	18.106	3.075e-06	25.242	189.391	67.143	124.679	50.812	168.134	237.017	51.087	58.387	217.348	189.176	57.518	65.308	65.379	72.329	208.323	71.332	-8191	255	
1699.510	1	1	0	0	0.25061	0.12289	0.097736	0.12974	0.32989	0.12915	0.32289	0.24232	0.28661	0.14325	0.1624	0.11467	0.12169	0.23105	0.11478	0.36564	-0.079167	-1.2729	-0.65625	-0.77917	-1.3542	-0.61042	-1.0521	-1.2104	-0.48333	-1.1958	-0.92708	-0.55833	-1.4333	-0.66458	-0.88333	-1.4521	355.214	238.285	267.768	115.428	125.465	305.346	347.448	386.963	164.499	56.898	75.426	78.616	122.777	335.044	45.838	143.461	0.00020807	0.0001226	0.00013359	1044.6	1.37e-06	1.0572e-05	1136.8	221.17	3.2364e-06	1.7475e-06	278.33	77.882	60.819	17.698	3.3434e-06	24.99	0.00024971	0.00028596	8.4538e-05	1016	2.9578e-06	3.3271e-06	1107.7	219.18	2.9951e-06	3.4475e-06	276	78.189	61.478	18.228	3.3116e-06	25.356	172.708	222.243	113.482	50.786	309.218	111.020	51.072	58.293	195.487	209.782	57.647	64.802	65.450	72.051	72.997	71.248	-8191	255	
1699.606	1	1	0	0	0.18025	0.15382	0.16043	0.14633	0.12632	0.10695	0.07548	0.38267	0.2316	0.13643	0.30897	0.1965	0.23029	0.056868	0.30217	0.077827	0.0020833	-1.2396	-0.80208	-0.62083	-1.5375	-0.61667	-0.86875	-1.3458	-0.40208	-1.3646	-1.1333	-0.50417	-1.4292	-0.65833	-0.77292	-1.3771	370.073	330.369	66.016	352.244	134.573	78.440	316.545	339.568	78.780	202.161	85.517	351.093	109.366	229.811	240.784	311.914	0.00018039	0.00021508	0.00010452	1051	5.0788e-06	7.1193e-06	1135.1	221.43	5.2026e-06	3.9106e-06	278.55	77.747	61.35	17.723	9.8922e-07	24.715	0.00027125	0.00031444	8.3068e-05	1021.6	2.9722e-06	3.3756e-06	1109.3	218.36	2.9395e-06	3.3133e-06	274.81	77.54	61.34	18.165	3.0556e-06	25.12	185.060	152.998	159.668	50.501	206.679	155.861	51.056	58.285	203.901	135.440	57.628	65.195	65.551	71.758	91.612	71.476	-8191	255	
1699.702	1	1	0	0	0.037853	0.047069	0.24363	0.13656	0.20264	0.21537	0.070024	0.076861	0.17	0.1369	0.18786	0.33337	0.11586	0.039057	0.18912	0.15701	-0.05625	-1.0521	-0.99167	-0.59583	-1.3917	-0.68958	-0.88958	-1.2625	-0.3625	-0.93125	-1.0604	-0.57292	-1.4188	-0.79792	-0.73125	-1.5667	191.044	392.153	58.603	352.619	234.065	45.297	365.448	80.303	352.448	167.563	98.143	364.934	331.481	226.694	310.264	124.695	0.00018806	0.00014838	5.36e-05	1049.2	5.5298e-06	6.774e-06	1137.2	219.54	3.9695e-06	3.2541e-06	279.54	76.381	60.864	17.601	3.3174e-06	24.5	0.00027697	0.00030394	7.855e-05	1018.7	3.1001e-06	3.3782e-06	1105.5	216.42	3.1237e-06	3.2517e-06	273.91	76.889	61.277	18.026	2.8332e-06	24.815	191.393	223.431	101.829	50.645	217.841	149.853	51.140	58.615	258.928	249.563	57.672	65.516	65.573	72.012	50.929	71.379	-8191	255	
1699.798	1	1	0	0	0.13716	0.28163	0.14863	0.29796	0.14878	0.22564	0.2685	0.30254	0.17904	0.21828	0.077459	0.26987	0.11055	0.15725	0.1221	0.10303	-0.027083	-0.975	-1.2979	-0.74167	-1.425	-0.78125	-0.63958	-1.3646	-0.61042	-1.0562	-1.2396	-0.5	-1.2417	-0.96458	-0.36458	-1.475	393.402	311.572	84.448	394.299	391.128	111.656	349.231	378.169	116.011	213.423	66.193	253.395	266.979	87.720	78.268	362.939	0.00023352	0.00048456	9.1943e-05	1038.7	2.4436e-06	5.7989e-06	1125.8	217.3	2.0376e-06	2.7443e-06	276.34	76.652	60.29	17.62	3.1164e-06	24.703	0.00027757	0.00027788	7.1538e-05	1011.1	3.0316e-06	2.9507e-06	1094.4	214.55	3.0673e-06	2.9062e-06	271.05	76.717	60.866	17.892	2.6642e-06	24.738	188.650	349.972	373.322	50.828	255.996	115.899	51.044	58.509	237.999	217.125	57.944	65.026	65.650	72.618	66.940	71.726	-8191	255	
1699.894	1	1	0	0	0.073091	0.22945	0.33992	0.1982	0.35581	0.030418	0.2864	0.12086	0.15805	0.1347	0.2543	0.10658	0.23709	0.10429	0.17465	0.11748	0.022917	-0.64583	-1.1938	-0.50833	-0.9375	-1.0792	-0.58333	-1.4917	-0.72292	-0.45417	-1.3312	-0.48542	-1.1229	-0.98958	-0.51667	-1.4229	215.577	369.123	151.865	347.983	182.470	239.027	291.501	168.089	223.008	288.480	336.534	355.876	386.125	90.052	247.475	334.081	0.00023912	0.00048361	4.3781e-05	1039	1.2747e-06	4.5578e-06	1123.3	217.88	3.5525e-06	4.3507e-06	275.01	76.436	60.173	17.527	4.5464e-07	24.662	0.00028327	0.00026303	6.9491e-05	1007.6	3.0682e-06	2.8636e-06	1090.6	214.14	3.1292e-06	2.8311e-06	270.06	76.587	60.775	17.722	2.6055e-06	24.761	189.693	103.458	328.379	50.801	352.060	106.245	51.099	58.471	217.117	174.530	57.627	65.011	65.710	72.314	170.418	72.075	-8191	255	
1699.990	1	1	0	0	0.30355	0.075268	0.25462	0.13641	0.20964	0.34547	0.21509	0.52223	0.24392	0.05249	0.23616	0.1747	0.17906	0.14367	0.22657	0.13663	-0.42917	-0.57292	-1.3729	-0.49792	-0.96667	-1.1771	-0.53333	-1.2021	-0.725	-0.52917	-1.3229	-0.63542	-1.0771	-1.1042	-0.3625	-1.3375	218.434	174.954	305.753	216.792	130.423	363.282	42.851	400.077	210.336	314.052	81.763	217.840	391.234	271.833	272.863	73.856	0.00012537	0.000254	8.8238e-05	1035.1	2.2201e-06	5.9001e-06	1117.6	216.3	1.8716e-06	2.5684e-06	274.53	76.561	60.411	17.517	7.2394e-06	24.329	0.00027867	0.00025815	6.7971e-05	1006.5	3.084e-06	2.8312e-06	1088.2	214.13	3.0258e-06	2.7686e-06	269.72	76.767	60.736	17.714	2.6065e-06	24.785	180.497	332.571	393.390	50.835	104.312	215.192	51.097	58.296	186.783	167.368	57.863	64.996	65.146	72.364	185.947	71.890	-8191	255	
1700.111	1	1	0	0	0.10865	0.097219	0.31041	0.32758	0.091468	0.13164	0.18583	0.12894	0.17756	0.1681	0.048922	0.33017	0.16119	0.046106	0.12444	0.01374	-0.40833	-0.58333	-1.4979	-0.51875	-0.65	-1.2354	-0.61875	-1.1729	-0.77083	-0.35208	-1.4937	-0.84583	-0.76667	-1.4396	-0.4	-1.1417	121.466	359.022	82.352	400.246	63.260	56.758	256.148	372.616	114.629	292.088	94.421	372.302	224.695	67.742	147.154	260.515	0.00017742	0.00061641	0.00013072	1032	3.5497e-06	4.7615e-06	1120.5	216.15	5.0164e-07	1.6218e-06	276.61	76.566	60.55	17.486	5.0792e-06	24.327	0.00027299	0.00024997	6.8753e-05	1006.7	2.9358e-06	2.7895e-06	1088.9	214.17	2.9291e-06	2.649e-06	270.66	76.817	60.528	17.718	2.7363e-06	24.725	173.052	139.208	114.243	50.776	126.812	235.263	51.212	58.493	274.431	245.540	57.589	65.183	65.356	72.635	125.631	71.515	-8191	255	
1700.205	1	1	0	0	0.07344	0.026807	0.27603	0.41296	0.22526	0.103	0.07177	0.037497	0.19682	0.24124	0.16123	0.23757	0.21769	0.22617	0.28957	0.28903	-0.60208	-0.37917	-1.2354	-0.80625	-0.65208	-1.4167	-0.61875	-1.1604	-1.1917	-0.3375	-1.4813	-0.71458	-0.6875	-1.1625	-0.37917	-0.97083	145.007	245.032	351.134	385.175	349.086	260.446	260.632	354.593	232.378	155.346	364.900	74.588	102.194	274.392	200.323	312.784	0.00017277	0.00046581	1.43e-05	1035.5	1.0064e-06	2.1873e-06	1115.3	217.26	4.2827e-06	1.2421e-06	277.21	76.483	60.191	17.435	1.3576e-06	24.35	0.00025828	0.00024333	6.9475e-05	1007.4	2.8394e-06	2.6579e-06	1087.7	214.24	2.8252e-06	2.6295e-06	271.25	76.862	60.298	17.679	2.8976e-06	24.742	162.755	340.211	179.985	50.449	178.369	170.878	50.948	58.587	211.759	235.004	57.616	64.944	65.605	72.217	148.279	71.690	-8191	255	
1700.279	1	1	0	0	0.19203	0.14592	0.22603	0.02452	0.21698	0.12713	0.25028	0.32296	0.076028	0.21991	0.20161	0.143	0.10578	0.2836	0.13775	0.062969	-0.95	-0.41042	-1.2708	-0.85833	-0.69167	-1.2479	-0.66042	-0.87083	-1.2833	-0.30417	-1.2417	-0.91667	-0.57708	-1.3208	-0.43542	-1.0104	290.636	315.654	157.476	281.833	260.530	255.544	383.131	381.594	210.644	153.392	397.392	43.362	103.281	323.523	220.197	290.690	0.00016451	0.00031887	0.0001365	1026.7	1.756e-06	2.9685e-06	1114.3	216.58	2.2838e-06	5.218e-06	275.74	76.742	60.181	17.537	5.1852e-06	24.279	0.00025539	0.0002381	7.5073e-05	1002.5	2.7829e-06	2.6833e-06	1086.2	214.32	2.8213e-06	2.6741e-06	271.93	76.83	60.256	17.749	3.1621e-06	24.568	179.231	244.878	161.393	50.550	269.343	163.031	50.800	58.666	141.892	176.416	57.760	65.304	65.650	72.107	195.724	71.635	-8191	255	
1700.399	1	1	0	0	0.16837	0.2702	0.21675	0.38081	0.20772	0.15849	0.10577	0.04116	0.1298	0.048536	0.29152	0.217	0.13139	0.25782	0.28175	0.049737	-0.86875	-0.475	-1.1167	-1.1646	-0.30208	-1.3563	-0.63333	-0.98125	-1.35	-0.38333	-1.1729	-1.0854	-0.57292	-1.3833	-0.80833	-0.65625	216.611	74.987	385.150	42.808	366.066	346.239	199.711	305.687	234.434	109.197	307.644	363.732	323.067	102.014	345.512	199.948	0.00021725	0.00047629	3.8456e-05	1027.6	2.805e-06	9.8706e-06	1112.8	215.64	5.7136e-07	2.2947e-06	276.45	76.624	60.231	17.604	3.1272e-06	24.437	0.0002623	0.00026066	8.3386e-05	1003.5	2.9065e-06	2.979e-06	1089.6	214.28	3.0304e-06	3.0789e-06	273.35	77.246	60.764	17.933	3.6215e-06	24.834	174.894	226.191	112.279	50.648	293.429	160.511	50.887	58.191	374.536	177.247	57.934	65.282	65.653	72.285	242.139	71.679	-8191	255	
1700.494	1	1	0	0	0.092306	0.12493	0.01199	0.17494	0.095123	0.29515	0.16895	0.28072	0.31061	0.11986	0.3052	0.099785	0.12744	0.085187	0.085108	0.11524	-0.97917	-0.37292	-0.95417	-1.3375	-0.37083	-1.2375	-0.72292	-0.75833	-1.1792	-0.275	-1.0792	-1.1646	-0.45833	-1.4208	-0.77708	-0.65417	203.223	258.330	80.473	143.067	192.542	84.246	155.828	327.831	228.774	196.534	132.902	307.834	361.854	298.828	300.746	254.225	0.00023125	0.00043323	7.9582e-05	1035.9	3.8226e-06	4.1655e-06	1131.2	218.66	3.0622e-06	4.6083e-06	277.72	77.385	60.886	17.58	1.1983e-06	24.255	0.00028966	0.00031282	9.2742e-05	1010.5	3.1501e-06	3.4869e-06	1100.4	216.47	3.1109e-06	3.4085e-06	274.52	77.608	60.976	17.985	3.278e-06	24.658	187.272	61.103	158.395	50.398	204.923	85.177	50.955	58.579	65.462	179.040	58.025	64.708	65.461	71.991	68.455	71.786	-8191	255	
1700.590	1	1	0	0	0.3081	0.049365	0.37456	0.52697	0.277	0.057454	0.58036	0.16731	0.044628	0.17142	0.16043	0.20396	0.053811	0.18092	0.20853	0.16284	-1.1208	-0.67708	-0.97083	-1.3771	-0.40625	-1.2583	-1.0333	-0.74583	-1.3125	-0.52292	-0.86667	-1.2979	-0.40625	-1.1354	-1.0562	-0.45625	130.340	331.098	122.604	377.321	207.638	222.956	344.701	177.044	348.170	172.436	325.206	311.271	343.430	389.518	236.693	391.885	0.00014954	0.00057761	4.9802e-05	1035.7	5.8185e-07	7.2917e-06	1127.4	219.03	3.6238e-06	1.6769e-06	277.72	77.364	60.237	17.51	1.5204e-06	24.131	0.00025688	0.00028661	7.6021e-05	1008.1	2.6648e-06	3.07e-06	1095.5	215.03	2.6919e-06	3.0623e-06	272.71	76.881	60.357	17.851	2.9113e-06	24.48	181.115	166.954	295.618	50.700	226.104	202.839	50.834	58.647	222.674	121.962	57.900	65.028	65.240	72.428	249.413	72.008	-8191	255	
1700.711	1	1	0	0	0.1182	0.13956	0.17565	0.11879	0.0779	0.1051	0.21301	0.14518	0.1478	0.14388	0.27652	0.083374	0.13006	0.20381	0.15389	0.21135	-0.81458	-0.60625	-0.76458	-1.5042	-0.35833	-1.0542	-1.1542	-0.55208	-1.2229	-0.7625	-0.65417	-1.4583	-0.49792	-1.1479	-0.99375	-0.36875	343.088	265.439	347.418	200.855	318.538	383.015	368.432	45.630	206.742	121.773	46.391	135.872	124.795	89.489	387.563	382.062	0.00024112	0.00060924	0.00012313	1031.5	1.4596e-06	2.3367e-06	1122	217.63	2.7493e-06	1.3915e-06	276.08	77.164	60.426	17.422	4.5611e-06	24.142	0.00025689	0.00029414	7.4494e-05	1006.4	2.9245e-06	3.2435e-06	1093.8	215.21	3.0173e-06	3.2961e-06	272.28	77.072	60.881	17.893	2.9539e-06	24.446	177.009	272.501	98.658	50.666	277.357	281.525	50.826	58.415	138.074	191.798	57.666	65.069	65.820	72.053	178.963	71.532	-8191	255	
1700.807	1	1	0	0	0.15435	0.238	0.022314	0.12719	0.070151	0.24461	0.35468	0.062085	0.045582	0.16093	0.16086	0.13383	0.18059	0.031058	0.32742	0.12158	-1.0292	-0.86667	-0.67917	-1.4625	-0.37292	-0.91875	-1.3167	-0.46042	-1.3375	-0.78958	-0.76458	-1.4542	-0.4	-0.95625	-1.1521	-0.26667	81.844	315.778	163.810	374.640	41.083	338.133	317.972	286.419	276.780	159.103	370.685	395.819	378.828	138.212	170.984	228.304	0.00017963	0.00043936	2.3855e-05	1038.3	4.7574e-06	8.4486e-06	1121.7	218.07	2.7888e-06	1.5365e-06	278.04	77.482	60.7	17.471	2.2168e-06	24.322	0.00027664	0.00028889	7.2236e-05	1008.6	3.033e-06	3.0223e-06	1090.9	214.97	3.0774e-06	3.0934e-06	272.73	77.128	61.383	17.915	3.0089e-06	24.621	191.537	80.490	270.893	50.756	276.195	228.183	51.040	58.311	283.826	209.361	58.097	65.108	65.528	72.046	98.966	71.526	-8191	255	
1700.878	1	1	0	0	0.079365	0.29592	0.088518	0.23613	0.078064	0.17517	0.23848	0.28625	0.14167	0.12602	0.18412	0.18656	0.084961	0.11558	0.15638	0.021296	-0.85417	-0.775	-0.43125	-1.4458	-0.35208	-0.78125	-1.4562	-0.33542	-1.0979	-0.94792	-0.425	-1.2833	-0.46667	-0.68958	-1.2375	-0.375	206.498	87.465	61.264	358.246	313.505	219.631	321.522	97.656	175.769	173.688	280.081	138.701	109.501	381.752	296.974	67.835	0.00019203	0.00041486	1.6194e-05	1039.3	3.5821e-06	7.147e-06	1134	217.85	2.2178e-06	9.4282e-07	278.59	76.953	60.979	17.56	4.0494e-06	24.216	0.00030338	0.00030305	7.6171e-05	1012.6	3.5059e-06	3.2806e-06	1102.4	216.5	3.4898e-06	3.283e-06	273.38	77.49	61.831	17.954	2.9658e-06	24.704	196.491	100.696	164.400	50.809	265.849	219.128	50.660	58.229	239.293	297.874	58.090	65.207	65.296	72.089	246.071	72.036	-8191	255	
1700.999	1	1	0	0	0.079162	0.11168	0.11178	0.20098	0.020278	0.11957	0.10663	0.26045	0.11438	0.24776	0.23056	0.27355	0.036699	0.093128	0.050385	0.30176	-0.82292	-0.80417	-0.34583	-1.4062	-0.59792	-0.59792	-1.5083	-0.56042	-1.0542	-1.0562	-0.52083	-1.2687	-0.70625	-0.58542	-1.3208	-0.47083	315.248	63.679	237.585	331.677	216.054	211.061	56.915	391.244	289.423	84.543	48.560	336.832	247.648	63.881	195.427	355.259	0.00018859	0.0001128	3.8904e-05	1042.5	2.1634e-06	3.3808e-06	1133.9	219.61	3.6548e-06	2.0164e-06	278.23	77.551	60.912	17.635	3.5347e-06	24.41	0.00030848	0.00029159	7.3083e-05	1015.4	3.3721e-06	3.0348e-06	1100.6	217.03	3.2928e-06	3.1105e-06	272.88	77.763	61.657	17.921	2.9165e-06	24.869	199.694	171.309	157.569	50.966	208.875	118.371	50.987	58.333	166.679	148.846	57.833	65.073	65.612	71.960	115.457	71.927	-8191	255	
1701.095	1	1	0	0	0.17201	0.25704	0.16645	0.23552	0.20089	0.075466	0.55714	0.35141	0.051124	0.15223	0.088154	0.12403	0.23983	0.22167	0.33711	0.29622	-0.60833	-1.4312	-0.15833	-1.4396	-0.96458	-0.6375	-1.5479	-0.56458	-0.75208	-1.3521	-0.23125	-1.3146	-0.97083	-0.49792	-1.3042	-0.75208	234.922	396.883	78.433	362.698	73.899	143.757	283.425	357.615	271.078	382.592	370.795	68.574	40.669	71.319	72.013	395.211	0.00015153	0.00045977	5.2276e-05	1046.4	1.6075e-06	4.3315e-06	1141.3	219.03	2.1226e-06	5.8226e-07	279.2	77.323	61.256	17.656	6.9956e-06	24.4	0.00029661	0.00028814	7.4111e-05	1019.9	3.4326e-06	3.0967e-06	1104.6	218.09	3.4033e-06	3.2508e-06	274.38	78.321	62.271	18.017	3.3038e-06	25.125	200.779	85.376	72.686	50.720	326.128	90.623	51.272	58.260	298.668	268.896	57.439	65.506	65.593	72.199	204.276	71.746	-8191	255	
1701.191	1	1	0	0	0.12551	0.34007	0.25857	0.18353	0.087365	0.11826	0.32676	0.052058	0.15151	0.36167	0.41727	0.38097	0.23174	0.28983	0.015321	0.1555	-0.45208	-1.3896	-0.28542	-1.2771	-0.93125	-0.66667	-1.2437	-0.73125	-0.86875	-1.3438	-0.3875	-1.1917	-0.91667	-0.575	-1.3521	-0.82708	295.246	294.547	183.312	360.563	302.081	328.822	379.962	94.173	268.842	281.626	375.575	307.504	172.447	65.156	203.796	149.441	0.00014171	0.00044826	0.00012056	1046.6	1.8835e-06	9.114e-06	1138.8	220.3	3.133e-06	4.8365e-06	279.04	77.617	60.982	17.66	3.7965e-06	24.388	0.00031358	0.00030684	8.3677e-05	1025.2	3.5476e-06	3.1676e-06	1110.1	218.95	3.3514e-06	3.24e-06	275.37	78.291	61.771	17.979	3.3231e-06	25.002	184.649	159.841	150.500	50.625	74.539	137.080	51.034	58.237	207.413	60.752	57.649	65.581	65.090	72.137	113.438	71.172	-8191	255	
1701.287	1	1	0	0	0.18166	0.041927	0.216	0.089918	0.063367	0.25884	0.50746	0.11177	0.22482	0.27552	0.1327	0.24347	0.22667	0.19305	0.25457	0.20928	-0.097917	-1.1417	-0.35833	-1.15	-0.98333	-0.275	-1.2958	-0.83333	-0.65625	-1.3542	-0.52083	-0.91458	-1.2104	-0.32708	-1.1583	-0.71042	49.549	119.952	69.263	387.812	250.568	167.279	348.954	377.644	110.811	220.934	232.675	340.990	124.803	381.501	169.965	372.608	0.00021302	0.00026546	0.00015366	1050	4.3708e-07	2.0631e-06	1140.3	220.76	1.9645e-06	3.8471e-06	278.32	77.925	61.105	17.621	4.7567e-06	24.566	0.0002913	0.00028507	8.504e-05	1025.7	3.2915e-06	2.981e-06	1112.3	218.88	3.201e-06	3.1178e-06	275.75	78.196	61.773	17.942	3.5822e-06	25.062	160.973	143.997	118.817	50.786	150.308	342.415	50.922	58.181	263.252	267.267	57.791	65.069	65.447	72.192	190.389	71.561	-8191	255	
1701.406	1	1	0	0	0.23772	0.24061	0.22215	0.23985	0.24284	0.20571	0.4198	0.14119	0.11447	0.10904	0.38661	0.20748	0.18032	0.1394	0.11205	0.46733	-0.15	-1.3146	-0.66667	-0.89375	-1.1604	-0.26667	-1.3646	-1.0729	-0.52083	-1.1625	-0.66458	-0.56875	-1.325	-0.26667	-1.2104	-0.99583	80.506	88.882	108.605	44.786	231.196	122.540	336.258	117.649	76.133	212.535	114.317	45.187	370.742	56.609	95.207	393.460	0.0001965	0.00014472	0.00011272	1052	1.0646e-06	3.9904e-06	1141	220.37	3.2743e-06	3.6431e-06	280.86	77.773	61.353	17.823	2.4834e-06	24.539	0.00030103	0.00030202	9.5767e-05	1028.5	3.5256e-06	3.357e-06	1117.4	219.98	3.5201e-06	3.5703e-06	279.52	78.935	62.437	18.292	4.018e-06	25.154	182.057	201.998	83.012	50.703	131.103	138.053	50.783	58.186	240.505	81.094	57.763	65.020	65.195	72.040	125.189	71.486	-8191	255	
1701.503	1	1	0	0	0.10768	0.32174	0.16179	0.21858	0.47383	0.15864	0.34632	0.15776	0.23632	0.093505	0.15628	0.17442	0.1474	0.12509	0.16801	0.071791	-0.089583	-1.2729	-0.74792	-0.88125	-1.4083	-0.56875	-1.1583	-1.1708	-0.38125	-1.3563	-0.56458	-0.57292	-1.3312	-0.46667	-1.0042	-1.1667	257.143	133.317	231.412	325.053	41.261	196.194	363.179	379.613	155.058	194.447	351.131	351.128	361.054	289.058	237.686	380.749	0.0002305	0.00035048	0.00010607	1058.8	1.5471e-06	4.7914e-06	1148.3	223.21	3.7044e-06	3.5028e-06	280.07	78.465	61.544	17.808	3.3115e-06	24.549	0.00031128	0.00033598	0.00010283	1033.4	3.4735e-06	3.6686e-06	1122.5	221.1	3.3979e-06	3.7083e-06	279.61	78.975	62.406	18.307	3.8882e-06	25.23	189.051	138.296	152.481	50.762	152.291	220.395	51.021	58.327	184.274	186.487	57.928	65.287	65.299	71.985	229.983	71.848	-8191	255	
1701.574	1	1	0	0	0.11569	0.16796	0.12685	0.32121	0.17737	0.22429	0.36933	0.090689	0.22811	0.31478	0.17349	0.12804	0.098738	0.19821	0.31226	0.17625	0.0041667	-1.1625	-0.89375	-0.56458	-1.3354	-0.59583	-1.0896	-1.2062	-0.30208	-1.1812	-0.67708	-0.25625	-1.4604	-0.32917	-0.92083	-1.2479	316.190	282.921	66.407	383.755	342.606	348.632	61.973	55.694	112.930	309.638	360.706	292.564	320.666	244.134	136.214	314.430	0.00018147	0.00018782	8.9049e-05	1065.8	1.862e-06	1.9365e-06	1148.2	221.73	4.3038e-06	5.2101e-06	283.02	78.451	61.763	17.711	2.7663e-06	24.379	0.0003019	0.0003523	9.8307e-05	1036.6	3.4126e-06	3.8108e-06	1120.2	220.72	3.2223e-06	3.7247e-06	279.44	78.526	62.2	18.267	3.3866e-06	24.945	182.568	42.032	334.212	50.628	217.335	376.292	51.072	58.233	206.850	154.725	57.655	65.309	65.509	71.951	126.763	71.617	-8191	255	
1701.670	1	1	0	0	0.21709	0.18389	0.043259	0.17592	0.17407	0.032771	0.17276	0.29448	0.31478	0.15054	0.069053	0.092762	0.40282	0.29954	0.23951	0.15667	0.13125	-1.0542	-0.84375	-0.37917	-1.2792	-0.6	-0.93125	-1.2437	-0.54375	-1.0917	-0.97083	-0.53542	-1.4208	-0.68333	-0.84792	-1.4	77.193	71.846	74.843	363.468	42.039	364.230	387.907	323.696	154.971	139.212	359.134	246.719	325.358	372.592	252.600	341.873	0.00016774	0.00026448	5.3169e-05	1053.3	3.0394e-06	8.778e-06	1136.2	221.83	4.7289e-06	2.5228e-06	280.2	77.868	60.821	17.612	3.8343e-06	24.319	0.0002795	0.00032372	8.4747e-05	1026.7	3.0966e-06	3.4431e-06	1110.9	219.61	3.0342e-06	3.4036e-06	276.12	77.803	61.62	18.087	3.059e-06	24.775	191.995	269.294	67.569	50.827	147.692	172.561	50.950	58.186	242.360	142.679	57.726	65.005	65.336	72.139	172.231	71.831	-8191	255	
1701.791	1	1	0	0	0.17128	0.10497	0.19174	0.21143	0.26134	0.12671	0.2655	0.049475	0.18981	0.27514	0.10106	0.097996	0.22243	0.26138	0.094305	0.10729	0.020833	-1.0979	-1.0646	-0.62083	-1.2458	-0.69583	-0.75625	-1.45	-0.45	-1.0146	-0.97917	-0.42292	-1.2833	-0.62917	-0.55208	-1.525	350.010	82.887	350.303	371.310	190.747	340.439	364.555	319.043	106.468	188.602	352.725	288.283	359.632	65.838	108.121	244.153	0.0001875	0.00035026	7.9336e-05	1053.2	2.7154e-06	9.0762e-06	1139.9	220.88	3.8739e-06	2.3468e-06	278.67	78.141	61.31	17.649	3.8675e-06	24.334	0.00028566	0.00031337	8.0509e-05	1023.1	3.2534e-06	3.4378e-06	1108.3	218.7	3.2981e-06	3.4054e-06	276.04	77.85	61.949	18.061	3.0076e-06	24.624	182.481	134.106	184.675	50.676	210.937	54.091	51.047	58.298	199.113	76.381	57.840	65.316	65.478	72.385	130.261	71.983	-8191	255	
1701.887	1	1	0	0	0.26412	0.29945	0.10906	0.11892	0.22334	0.3787	0.21468	0.074954	0.094623	0.20306	0.15685	0.10486	0.19579	0.071984	0.10857	0.30913	-0.1375	-0.90625	-1.1646	-0.57917	-1.2229	-0.91042	-0.49375	-1.3312	-0.24167	-0.72292	-1.2146	-0.5625	-1.1542	-0.86458	-0.41667	-1.275	75.840	336.656	104.416	295.853	275.571	268.000	53.542	274.099	199.039	292.476	78.501	302.813	228.867	343.814	330.714	86.688	0.00020984	0.00019427	0.00012701	1048.1	2.2218e-06	5.6549e-06	1139.6	221.5	2.9772e-06	1.0978e-06	276.85	77.57	61.15	17.562	3.3766e-06	24.353	0.00029496	0.00029515	7.5989e-05	1017.8	3.2854e-06	3.1845e-06	1103.4	217.92	3.2711e-06	3.1083e-06	273.52	77.526	61.696	17.935	2.8572e-06	24.681	199.072	99.717	179.427	50.762	278.326	90.736	51.309	58.296	242.171	203.236	57.849	64.865	65.908	72.012	147.380	71.973	-8191	255	
1701.983	1	1	0	0	0.12725	0.0988	0.12368	0.17639	0.19397	0.15607	0.31472	0.38917	0.25133	0.17064	0.17278	0.23083	0.098928	0.10341	0.22788	0.13814	-0.19583	-0.79375	-1.4229	-0.41875	-1.1646	-1.0125	-0.70417	-1.4062	-0.70417	-0.68333	-1.1187	-0.52917	-1.0562	-1.3208	-0.42917	-1.3104	129.557	242.812	329.110	398.662	318.866	213.005	48.116	306.790	329.444	55.487	267.379	163.694	93.171	348.524	163.128	256.309	0.00016201	0.00038707	3.1715e-05	1046.6	4.1062e-06	3.034e-06	1132.3	220.43	2.4011e-06	1.6242e-06	279.4	77.481	60.676	17.588	2.5819e-06	24.525	0.0003059	0.00028523	7.5196e-05	1018.8	3.4527e-06	3.163e-06	1102	217.83	3.5051e-06	3.1601e-06	274.76	78.004	62.164	18.044	3.0634e-06	24.966	194.598	112.273	143.140	50.783	258.496	369.223	50.685	58.495	227.498	55.220	57.755	65.316	65.786	72.040	112.729	71.943	-8191	255	
1702.079	1	1	0	0	0.11781	0.19957	0.14424	0.11279	0.14664	0.29937	0.4419	0.26029	0.095862	0.25039	0.26562	0.20129	0.099478	0.20974	0.17106	0.18546	-0.23333	-0.63958	-1.3646	-0.51458	-0.99792	-1.1646	-0.62917	-1.425	-1.025	-0.44375	-1.4021	-0.54375	-0.94583	-1.2938	-0.41667	-1.3792	346.664	391.727	97.644	222.840	188.048	238.563	355.250	300.829	145.821	89.464	341.363	386.549	102.315	380.878	293.922	354.458	0.00013139	0.00060778	9.3948e-05	1051.5	7.6634e-07	5.3773e-06	1139.2	221.08	2.3841e-06	2.0573e-06	278.75	78.568	61.075	17.593	6.2489e-07	24.243	0.00033153	0.00030512	8.1061e-05	1025.2	3.6102e-06	3.3927e-06	1108.5	219.44	3.5669e-06	3.2127e-06	275.62	78.754	62.09	18.001	3.0798e-06	24.953	181.669	106.227	99.958	50.559	107.613	386.790	51.192	58.612	288.113	317.534	57.785	65.192	65.637	72.236	255.503	71.550	-8191	255	
1702.176	1	1	0	0	0.16124	0.15527	0.24549	0.26042	0.23812	0.24191	0.25557	0.33111	0.11319	0.08648	0.16144	0.10033	0.048038	0.2265	0.20513	0.2676	-0.50625	-0.55625	-1.45	-0.63958	-0.82083	-1.3083	-0.76667	-1.3937	-0.8875	-0.39792	-1.3875	-0.52083	-0.91458	-1.3646	-0.525	-0.99375	86.021	48.428	230.437	282.381	42.695	65.681	334.138	257.172	294.256	124.428	398.803	54.221	399.517	387.736	361.328	46.564	0.00010033	0.00014792	0.00012129	1050.5	1.0632e-06	4.9921e-06	1136.3	220.59	2.3454e-06	5.5511e-06	280.96	77.823	60.98	17.756	4.5694e-06	24.421	0.00031994	0.00029567	8.1804e-05	1026.4	3.5082e-06	3.3499e-06	1109	220.31	3.6563e-06	3.2866e-06	277.34	78.846	62.297	18.136	3.4343e-06	25.188	226.448	115.367	122.501	50.359	355.885	244.150	50.808	58.383	332.309	124.164	57.720	64.585	65.935	72.049	192.385	71.575	-8191	255	
1702.272	1	1	0	0	0.098012	0.19097	0.1809	0.1484	0.24051	0.06389	0.3922	0.25689	0.11781	0.098975	0.19829	0.20812	0.062094	0.15591	0.01883	0.038745	-0.49583	-0.3875	-1.2125	-0.76667	-0.71458	-1.2458	-0.425	-1.0271	-1.2604	-0.38333	-1.4396	-0.79167	-0.60625	-1.3146	-0.43958	-0.99167	278.403	312.185	139.585	44.452	198.208	346.736	316.807	319.552	329.469	265.293	382.787	345.592	251.525	323.018	240.731	231.500	0.00015526	0.00029528	1.4154e-05	1050.5	2.5641e-06	6.2275e-06	1137.4	221.29	2.6586e-06	5.3706e-06	279.81	77.814	61.126	17.757	7.0342e-06	24.251	0.00032075	0.00029664	8.9102e-05	1027.5	3.4934e-06	3.3117e-06	1112.7	220.64	3.5468e-06	3.2679e-06	278.25	78.786	62.088	18.098	3.6661e-06	25.012	180.298	109.106	204.112	50.482	228.069	378.187	50.968	58.466	256.267	164.476	57.781	64.992	65.461	71.716	259.120	71.562	-8191	255	
1702.392	1	1	0	0	0.19673	0.096748	0.23272	0.32298	0.19294	0.19503	0.46735	0.1371	0.18813	0.27051	0.13589	0.1579	0.22192	0.22421	0.14759	0.36323	-0.9125	-0.30208	-1.1708	-0.96667	-0.53333	-1.2042	-0.83333	-0.85417	-1.1	-0.40417	-1.2333	-0.8875	-0.32292	-1.3958	-0.41042	-1.0167	120.896	337.478	68.069	380.293	56.413	64.657	375.199	80.705	162.597	233.630	132.429	145.475	299.567	362.949	91.001	153.407	0.00015944	0.00011331	9.9574e-05	1052.1	6.2702e-06	8.2467e-06	1138.6	221.44	2.5944e-06	3.4054e-06	279.23	77.9	60.922	17.501	8.3684e-06	24.278	0.00030674	0.00028821	9.17e-05	1025.5	3.2122e-06	3.0767e-06	1110.1	219.24	3.1811e-06	3.0126e-06	277.03	78.143	61.499	17.905	3.5179e-06	24.908	190.281	388.757	86.974	50.467	219.086	161.690	51.131	58.403	242.998	188.157	57.521	64.923	65.812	72.073	155.191	71.893	-8191	255	
1702.487	1	1	0	0	0.10423	0.47883	0.35603	0.35796	0.19955	0.09532	0.15172	0.2068	0.20288	0.11695	0.13202	0.055726	0.031109	0.16113	0.1963	0.23358	-0.80833	-0.39583	-1.2021	-1.2146	-0.42917	-1.2687	-0.88125	-0.79792	-1.3104	-0.62292	-1.3042	-1.3104	-0.42083	-1.3125	-0.57917	-0.51875	323.884	68.997	346.161	376.849	150.648	154.083	395.180	84.156	292.842	305.432	112.310	121.278	131.503	140.039	94.721	324.463	0.00015536	0.0004466	5.1842e-05	1052.3	2.3707e-06	6.1068e-06	1138	220.66	1.6815e-06	5.1206e-06	278.91	77.305	61.267	17.537	2.3543e-06	24.334	0.00028787	0.00029057	9.1818e-05	1025	3.1539e-06	3.291e-06	1110.3	219.42	3.2643e-06	3.3915e-06	277.66	78.237	61.759	18.074	3.8069e-06	24.899	178.467	120.415	112.128	50.603	160.568	142.682	51.059	58.574	144.933	159.776	58.049	65.135	65.368	72.000	68.680	71.290	-8191	255	
1702.583	1	1	0	0	0.37144	0.18004	0.27476	0.21366	0.20704	0.10479	0.20398	0.25788	0.12927	0.15403	0.08818	0.033871	0.19627	0.11099	0.30104	0.10481	-0.77917	-0.45625	-0.925	-1.1833	-0.52083	-1.3708	-0.8375	-0.83125	-1.3083	-0.48125	-0.96042	-1.2646	-0.5	-1.4396	-0.775	-0.47083	123.473	88.003	371.002	330.630	392.629	245.819	302.169	339.164	55.903	151.681	43.861	319.222	161.032	212.378	399.291	317.071	0.0002009	0.00028576	6.3326e-05	1050.4	1.8192e-06	4.5718e-06	1136.9	220.93	2.6449e-06	1.5122e-06	279.94	78.41	61.834	17.449	1.6344e-06	24.384	0.00029821	0.00032736	9.4366e-05	1025.4	3.1448e-06	3.4549e-06	1110.7	219.38	3.0099e-06	3.3712e-06	277.52	78.239	61.389	17.941	3.1814e-06	24.642	202.260	142.568	366.308	50.632	375.302	147.787	51.252	58.420	208.734	53.498	57.629	65.136	65.508	72.458	386.762	71.869	-8191	255	
1702.679	1	1	0	0	0.24881	0.078164	0.18892	0.1321	0.35157	0.13647	0.23082	0.085121	0.080301	0.34463	0.27582	0.22835	0.25079	0.16583	0.18574	0.072646	-1.0875	-0.4	-0.72917	-1.4167	-0.40625	-1.0896	-1.0896	-0.68542	-1.3604	-0.55417	-0.94792	-1.3354	-0.55625	-1.1104	-1.025	-0.51875	342.935	91.777	142.465	395.489	65.262	341.051	345.258	55.266	380.767	210.945	362.811	112.546	118.993	70.999	261.876	285.096	0.00021521	0.00033164	4.4904e-05	1049	1.9659e-06	3.1314e-06	1132.7	220.18	4.2678e-06	1.8865e-06	279.37	77.284	61.009	17.557	3.7641e-06	24.26	0.00025646	0.00029867	7.8319e-05	1019.2	2.8559e-06	3.2457e-06	1105.5	217.6	2.9303e-06	3.3366e-06	275.52	77.406	61.221	17.965	3.1082e-06	24.547	181.034	96.991	271.324	50.669	242.975	63.474	51.027	58.403	271.009	108.548	57.785	64.969	65.628	72.004	188.816	71.859	-8191	255	
1702.800	1	1	0	0	0.24279	0.010258	0.11289	0.13439	0.16015	0.19281	0.20698	0.29925	0.012389	0.072253	0.25772	0.045683	0.12574	0.19353	0.1878	0.11857	-1.0104	-0.625	-0.83542	-1.3	-0.35625	-1.125	-1.1979	-0.71875	-1.3333	-0.73958	-0.81667	-1.3625	-0.33958	-0.6875	-1.2542	-0.39792	115.734	189.563	265.510	42.529	209.450	317.747	370.055	366.018	357.485	186.768	356.624	390.356	212.312	157.454	274.443	250.358	0.00017288	0.00023966	0.00018059	1046	2.2943e-06	2.6758e-06	1134.3	220.28	2.7315e-06	1.1447e-06	278.95	77.858	61.488	17.504	2.6831e-06	23.989	0.0002754	0.0003038	7.6361e-05	1019.7	2.9847e-06	3.2083e-06	1103.6	216.9	2.9283e-06	3.11e-06	273.58	77.322	61.36	17.861	2.8289e-06	24.283	179.341	391.859	65.921	50.615	205.106	117.406	50.997	58.336	226.234	289.858	58.122	65.042	65.520	71.985	230.506	71.841	-8191	255	
1702.871	1	1	0	0	0.21258	0.27058	0.063922	0.15892	0.066513	0.19181	0.36184	0.37242	0.056188	0.20202	0.20125	0.17409	0.40289	0.056679	0.05762	0.038614	-0.95	-0.7125	-0.40208	-1.4208	-0.30833	-0.88958	-1.2646	-0.59792	-1.2417	-0.93125	-0.47708	-1.2125	-0.68333	-0.83125	-1.3	-0.36042	313.842	348.607	155.350	359.999	350.625	227.625	372.516	302.168	297.137	308.419	394.109	234.398	134.764	297.446	146.395	51.821	0.00017743	0.00047964	6.1578e-05	1046.1	3.7262e-06	5.0608e-06	1129.5	220.24	5.8321e-06	1.2813e-06	278.25	77.377	60.948	17.45	3.5381e-06	24.053	0.00027249	0.00028501	7.2004e-05	1015.3	3.1168e-06	3.1006e-06	1101.1	217.15	3.2503e-06	3.2431e-06	274.04	77.457	61.859	17.903	3.055e-06	24.533	200.292	118.722	181.346	50.683	191.640	307.484	50.800	58.492	208.678	150.659	57.781	65.064	65.553	72.046	333.956	71.536	-8191	255	
1702.968	1	1	0	0	0.004812	0.19977	0.16812	0.071043	0.16186	0.14211	0.28818	0.2476	0.22393	0.25746	0.12104	0.13503	0.11186	0.11476	0.15887	0.14625	-0.82083	-0.89167	-0.44583	-1.3958	-0.54583	-0.78125	-1.3188	-0.30833	-1.1896	-0.85625	-0.54375	-1.3979	-0.52917	-0.8125	-1.3	-0.68125	341.785	78.533	397.632	49.684	319.734	274.138	335.396	60.513	63.670	304.229	227.171	263.016	260.854	183.840	187.188	369.615	0.00014653	6.6183e-05	0.00012849	1047.1	2.6316e-06	3.5819e-06	1131.2	220.13	1.464e-06	1.797e-06	278.92	77.628	60.735	17.428	3.2073e-06	24.427	0.00030418	0.00029736	7.3765e-05	1016.2	3.3904e-06	3.042e-06	1100.3	217.1	3.2815e-06	3.0804e-06	273.67	77.599	61.501	17.812	2.8335e-06	24.653	182.836	250.539	134.463	50.784	169.007	345.874	51.010	58.243	154.070	332.497	57.647	65.203	65.557	72.288	161.147	72.072	-8191	255	
1703.064	1	1	0	0	0.1659	0.19605	0.23038	0.234	0.23731	0.096235	0.14721	0.13817	0.25377	0.14552	0.11348	0.47611	0.047821	0.052611	0.11221	0.16969	-0.66042	-1.1146	-0.36458	-1.4479	-0.6875	-0.71667	-1.4375	-0.60625	-0.95417	-0.98125	-0.46458	-1.3354	-0.99792	-0.65208	-1.3396	-0.43958	373.194	182.406	84.405	397.446	152.740	237.550	358.637	295.483	186.048	352.893	265.673	351.609	291.221	162.280	241.058	204.031	0.00018898	0.00021468	9.7946e-05	1039.2	1.4507e-06	2.8955e-06	1134.6	219.96	1.3609e-06	3.4061e-06	278.1	77.696	60.936	17.626	1.7489e-06	24.172	0.00029567	0.0002813	7.1457e-05	1013.7	3.3765e-06	3.0191e-06	1100.8	217.76	3.4317e-06	3.2381e-06	274.27	78.315	61.996	17.91	3.1153e-06	24.886	178.874	89.418	138.589	50.750	100.960	250.286	51.147	58.160	382.259	59.451	57.801	65.105	65.359	72.270	144.486	71.443	-8191	255	
1703.184	1	1	0	0	0.34311	0.24374	0.24499	0.088971	0.12441	0.48597	0.092837	0.21246	0.25658	0.20893	0.094504	0.15601	0.12845	0.082085	0.30971	0.20464	-0.725	-1.1292	-0.42083	-1.2667	-0.86667	-0.53333	-1.6562	-0.83333	-0.70833	-1.3687	-0.62708	-1.3854	-1.0729	-0.52917	-1.2042	-0.625	60.268	325.861	81.045	193.005	95.772	252.609	202.146	279.795	359.732	64.889	143.789	331.459	199.508	297.835	269.298	356.489	0.0001921	0.0005616	0.00012649	1051.4	3.6099e-06	3.9211e-06	1134.4	220.93	1.2244e-06	1.8191e-06	279.16	77.92	60.567	17.478	1.7245e-06	24.339	0.0003134	0.00030351	7.8578e-05	1024.3	3.497e-06	3.1323e-06	1106.6	219.12	3.3229e-06	3.1159e-06	275	78.4	61.694	17.86	3.1058e-06	24.891	178.569	112.871	162.632	50.895	242.257	121.250	51.114	58.573	397.537	198.569	58.063	65.075	65.093	72.648	227.640	71.268	-8191	255	
1703.279	1	1	0	0	0.28054	0.22726	0.26637	0.076574	0.04842	0.2847	0.14169	0.41997	0.34893	0.30027	0.18491	0.33068	0.23456	0.1366	0.2688	0.26545	-0.44375	-1.2854	-0.17083	-1.0896	-0.94167	-0.51875	-1.4896	-0.61042	-0.64792	-1.3167	-0.57917	-1.1917	-1.0896	-0.47708	-1.2021	-0.75417	115.372	271.220	364.548	211.064	377.147	373.762	374.307	173.907	369.293	59.011	334.197	375.056	381.163	69.729	66.353	363.811	0.00019516	2.8159e-05	5.0602e-05	1046.5	8.8204e-07	5.0441e-06	1133.2	219.88	2.4949e-06	4.822e-06	279.6	77.495	61.423	17.58	3.616e-06	24.524	0.00029187	0.00028032	7.8272e-05	1022.6	3.2927e-06	3.0274e-06	1106.1	219.27	3.2167e-06	3.0668e-06	276.12	78.348	61.984	17.902	3.3355e-06	24.933	186.076	202.601	104.068	50.757	197.243	337.784	50.995	58.300	216.867	139.499	57.518	65.308	65.587	72.182	185.085	71.990	-8191	255	
1703.375	1	1	0	0	0.064306	0.14969	0.11183	0.26892	0.10769	0.097827	0.28788	0.19465	0.062787	0.20779	0.10033	0.28744	0.24796	0.17605	0.25777	0.23362	-0.26875	-1.4458	-0.2875	-1.2437	-1.0562	-0.2625	-1.2437	-0.90833	-0.4625	-1.4042	-0.58125	-0.975	-1.2104	-0.47083	-1.1417	-0.86875	125.225	243.250	305.410	72.062	351.339	260.155	339.300	79.890	248.356	202.370	117.143	243.098	183.371	74.941	348.153	374.888	0.00022125	0.00023358	0.00019217	1047.2	3.9981e-06	1.8058e-06	1136.4	219.99	3.2434e-06	3.4067e-06	278.04	77.692	61.43	17.632	5.9436e-06	24.437	0.00028997	0.00028418	8.6409e-05	1027	3.2599e-06	3.0011e-06	1110.5	219.13	3.0964e-06	3.0362e-06	276.61	78.323	61.677	17.906	3.3657e-06	24.875	181.025	269.900	49.371	50.638	251.429	43.559	51.169	58.270	232.727	202.740	57.582	64.982	65.573	72.153	238.715	71.625	-8191	255	
1703.473	1	1	0	0	0.11321	0.048894	0.14954	0.079965	0.11892	0.21008	0.34147	0.30066	0.12912	0.26231	0.16082	0.11677	0.39758	0.18164	0.22158	0.085099	-0.11042	-1.4167	-0.59167	-0.90625	-1.3021	-0.34583	-1.3042	-1.0583	-0.46667	-1.4083	-0.78333	-0.85	-1.2333	-0.4375	-1.0583	-1.0292	375.981	119.431	87.289	380.346	141.560	144.872	334.419	299.161	194.294	117.632	78.358	344.969	49.806	384.048	364.380	351.813	0.00018316	0.00073216	0.000132	1053.7	1.8746e-06	5.8634e-06	1140.3	220.8	2.9662e-06	5.5917e-06	281.22	78.606	61.191	17.625	5.8826e-06	24.595	0.0002749	0.00027806	8.8527e-05	1025.5	3.1294e-06	3.0425e-06	1113.1	218.84	3.0613e-06	3.167e-06	277.69	78.444	61.775	17.929	3.5343e-06	24.954	191.290	144.390	115.366	50.962	229.106	149.178	51.001	58.259	207.819	148.479	57.933	64.708	65.756	71.723	151.518	71.967	-8191	255	
1703.567	1	1	0	0	0.13167	0.10859	0.073336	0.11881	0.12792	0.12574	0.29395	0.15821	0.052602	0.15031	0.28513	0.19122	0.20184	0.1067	0.12522	0.10173	-0.21875	-1.0417	-0.5875	-0.79375	-1.3333	-0.24583	-1.3792	-1.2542	-0.32083	-1.3188	-0.7875	-0.67708	-1.2604	-0.57917	-0.82708	-1.3292	198.180	314.392	321.028	85.417	296.941	352.261	379.561	43.872	311.194	214.197	390.766	399.115	118.569	359.280	135.165	150.307	0.00014615	0.0005375	0.00010346	1053.4	3.9432e-06	7.391e-06	1137.5	219.97	1.5084e-06	2.0688e-06	280.69	77.764	61.361	17.625	4.0446e-06	24.229	0.00027607	0.00029653	9.0182e-05	1026.4	3.0954e-06	3.3135e-06	1114.3	219.04	3.0306e-06	3.4318e-06	278.07	78.258	61.93	18.103	3.6167e-06	24.885	174.993	171.296	117.595	50.883	202.394	174.583	51.197	58.386	206.490	178.200	57.798	65.473	65.289	72.455	167.782	71.199	-8191	255	
1703.663	1	1	0	0	0.1885	0.079109	0.29323	0.22027	0.15295	0.25789	0.46178	0.14094	0.07357	0.41485	0.23447	0.12133	0.11691	0.37729	0.20607	0.27343	-0.18333	-1.3479	-0.85625	-0.725	-1.3771	-0.65208	-1.125	-1.2208	-0.37917	-1.1854	-0.85417	-0.45	-1.3583	-0.65208	-0.8	-1.1979	378.573	259.677	386.967	378.849	168.587	379.348	328.438	44.889	360.041	143.327	386.714	156.151	399.078	77.130	117.881	66.834	0.00020693	0.0004549	0.00015128	1053.9	3.9597e-06	9.7961e-06	1141.6	221.67	1.4669e-06	1.672e-06	281.04	77.87	61.728	17.556	5.3408e-06	24.495	0.00028922	0.00033568	9.4441e-05	1028.7	3.2745e-06	3.7215e-06	1118.2	219.96	3.2714e-06	3.7683e-06	278.28	78.395	62.351	18.215	3.4873e-06	24.934	182.032	74.844	199.008	50.793	245.729	148.751	50.998	58.230	352.523	89.984	57.573	65.016	65.340	72.102	154.889	71.874	-8191	255	
1703.759	1	1	0	0	0.21751	0.25607	0.096075	0.2902	0.12778	0.25594	0.1542	0.55535	0.14617	0.16666	0.25527	0.06475	0.23169	0.17775	0.20627	0.16341	-0.066667	-1.0292	-0.87708	-0.45417	-1.3542	-0.55417	-0.91667	-1.4	-0.35625	-1.1667	-1.0688	-0.44375	-1.3333	-0.70417	-0.71458	-1.4292	356.332	142.162	283.730	84.073	331.592	180.607	259.129	331.745	347.401	192.973	48.099	156.348	44.011	358.361	88.182	254.225	0.00020898	0.00019898	6.2418e-05	1057	9.818e-07	4.2285e-06	1150.7	222.73	2.1074e-06	2.3106e-06	282.54	77.555	61.791	17.493	4.8132e-06	24.313	0.00029412	0.00034208	8.929e-05	1029.9	3.2888e-06	3.6811e-06	1119	220.48	3.3003e-06	3.6224e-06	278.77	78.08	62.443	18.147	3.1807e-06	24.65	194.414	266.568	168.536	50.783	155.771	244.526	51.095	58.262	294.821	153.458	57.917	65.033	65.360	72.185	231.839	71.398	-8191	255	
1703.880	1	1	0	0	0.19903	0.14163	0.085685	0.22636	0.24275	0.17738	0.30388	0.12894	0.29709	0.18655	0.40047	0.31314	0.20747	0.23382	0.13294	0.13519	-0.19792	-0.88958	-1.0187	-0.54167	-1.3458	-0.71875	-0.78333	-1.6604	-0.5625	-0.98958	-1.2104	-0.56458	-1.2083	-0.94375	-0.61458	-1.3667	295.688	165.307	302.109	362.984	371.106	156.539	337.923	350.795	211.254	315.200	357.196	98.164	96.706	45.678	112.431	192.657	0.00022577	0.00021943	7.9854e-05	1057.5	4.8018e-06	4.8874e-06	1142.9	220.37	3.2857e-06	2.0898e-06	279.54	77.999	61.212	17.506	1.3533e-06	24.327	0.00029186	0.00030894	7.813e-05	1024.6	3.149e-06	3.2427e-06	1109.7	218.33	3.1771e-06	3.2495e-06	275.6	77.705	62.014	17.976	2.9649e-06	24.646	174.013	209.495	254.139	50.878	206.228	187.638	50.960	58.297	208.783	128.854	57.881	65.045	65.417	71.893	170.639	71.623	-8191	255	
1703.976	1	1	0	0	0.16046	0.10447	0.058355	0.14375	0.1207	0.23942	0.16249	0.27279	0.041811	0.072529	0.30734	0.3212	0.16001	0.055625	0.19311	0.24476	-0.125	-0.8	-1.2333	-0.51875	-1.1042	-0.88333	-0.59167	-1.2208	-0.53958	-0.87917	-1.2542	-0.47292	-1.2208	-1.0625	-0.51875	-1.4917	113.988	332.073	211.296	270.350	80.800	215.165	56.050	385.998	252.642	286.462	364.927	335.067	318.925	346.261	386.359	285.777	0.0002199	0.00024526	0.00014744	1048.7	2.7955e-06	2.7874e-06	1134.7	221.57	2.6739e-06	3.1408e-06	279.44	77.852	61.036	17.581	2.4868e-06	24.286	0.00030159	0.0002957	7.5838e-05	1021.7	3.3124e-06	3.1981e-06	1107.8	218.72	3.2535e-06	3.0118e-06	275.08	77.731	61.621	17.941	2.7336e-06	24.58	182.700	324.413	96.131	51.006	203.031	125.202	50.984	58.422	225.670	219.598	57.766	65.220	65.428	72.089	223.182	71.782	-8191	255	
1704.072	1	1	0	0	0.078793	0.19728	0.090024	0.20484	0.049191	0.20325	0.13227	0.10872	0.060593	0.2924	0.073759	0.15088	0.24992	0.23244	0.19839	0.14813	-0.42917	-0.76458	-1.2354	-0.48125	-1.1583	-1.2188	-0.52083	-1.4	-0.58542	-0.65625	-1.3813	-0.59167	-1.0854	-1.0708	-0.33542	-1.3083	332.592	223.654	122.677	44.690	134.080	275.974	399.534	318.460	128.013	332.962	299.466	379.668	399.301	245.202	191.563	309.854	0.00018358	7.9784e-05	0.00010818	1053.1	8e-07	3.3255e-06	1140.2	220.61	1.1631e-06	1.3954e-06	279.73	78.175	61.202	17.489	5.4736e-06	24.306	0.00029576	0.00026988	7.2338e-05	1023.6	3.2413e-06	2.9499e-06	1106.2	218.69	3.2345e-06	2.9309e-06	275.05	77.851	61.833	17.872	2.7111e-06	24.662	173.857	50.139	142.737	50.777	213.127	113.903	50.869	58.607	322.367	156.134	57.516	65.259	65.578	72.023	114.779	71.802	-8191	255	
1704.169	1	1	0	0	0.17386	0.04051	0.30488	0.20092	0.10316	0.12104	0.22302	0.20067	0.10833	0.19108	0.2345	0.2116	0.34748	0.31355	0.079896	0.16456	-0.46042	-0.68958	-1.2896	-0.73333	-0.93542	-1.075	-0.63125	-1.3021	-0.76042	-0.44167	-1.5187	-0.50208	-0.72708	-1.2521	-0.30208	-1.3188	361.634	383.405	56.918	43.777	327.886	373.481	323.600	286.927	43.931	81.386	144.057	284.466	320.551	399.726	385.270	312.176	0.00014082	0.00029397	5.703e-05	1047.2	2.3836e-06	1.8418e-06	1137.3	222.28	3.4493e-07	2.6986e-06	281.28	78.065	61.099	17.739	3.1477e-06	24.417	0.00029012	0.00027	7.2049e-05	1023.8	3.2554e-06	3.1251e-06	1109.2	219.91	3.4816e-06	3.2182e-06	277.01	78.732	62.497	18.078	3.1482e-06	25.082	198.955	43.146	110.374	50.643	299.742	152.141	51.203	58.491	61.398	42.857	58.012	65.146	65.789	72.045	183.819	72.120	-8191	255	
1704.265	1	1	0	0	0.17957	0.068387	0.18416	0.24249	0.13807	0.017203	0.18237	0.11338	0.10225	0.24755	0.19655	0.11523	0.30548	0.18575	0.17155	0.15477	-0.61875	-0.325	-1.3062	-0.59792	-0.71875	-1.5292	-0.63333	-1.2938	-0.825	-0.36458	-1.3792	-0.60625	-0.78333	-1.1958	-0.48958	-1.1187	130.630	315.878	363.869	63.718	208.912	364.263	312.733	387.522	288.225	306.253	66.396	362.548	233.418	390.030	385.158	280.780	0.0001725	0.00021305	0.00011524	1054.9	2.2451e-06	4.8438e-06	1143.5	223.17	1.9547e-06	1.5388e-06	281.53	77.836	61.256	17.697	5.8925e-06	24.542	0.00031948	0.00029521	8.2454e-05	1033	3.4007e-06	3.1827e-06	1114.8	221.41	3.378e-06	3.1057e-06	278.02	78.764	62.094	18.052	3.2499e-06	25.021	184.902	256.752	154.917	50.676	363.170	144.227	51.019	58.435	114.815	148.917	57.996	64.827	65.552	71.937	194.715	71.232	-8191	255	
1704.361	1	1	0	0	0.23034	0.088579	0.087029	0.3549	0.1349	0.093874	0.33528	0.10839	0.10728	0.4109	0.010949	0.19233	0.066336	0.13944	0.20305	0.10115	-0.72083	-0.39792	-1.3021	-0.74375	-0.64375	-1.325	-0.65625	-1.3312	-1.1083	-0.30417	-1.4458	-0.88333	-0.63542	-1.2979	-0.58958	-1.0396	353.976	150.672	286.167	387.955	211.439	342.154	366.344	55.447	379.684	71.451	306.320	219.558	278.122	294.597	380.968	263.760	0.00013454	0.00038483	8.3709e-05	1056.8	2.6759e-06	3.1668e-06	1147.9	222.27	4.9764e-06	3.1021e-06	281.36	78.002	61.648	17.573	1.8939e-06	24.465	0.00029391	0.00027935	8.4631e-05	1031.9	3.2164e-06	3.0585e-06	1115.4	220.92	3.2299e-06	3.0152e-06	277.91	78.626	62.015	17.95	3.4995e-06	24.99	183.558	370.243	104.640	50.550	43.017	242.130	50.996	58.267	293.261	82.007	57.923	65.182	65.560	72.143	153.830	71.443	-8191	255	
1704.480	1	1	0	0	0.089392	0.13396	0.15639	0.34784	0.075528	0.074388	0.24925	0.14406	0.12675	0.20416	0.13153	0.12503	0.37857	0.086744	0.1486	0.19633	-0.78125	-0.4625	-1.2125	-0.89375	-0.57917	-1.3917	-0.87292	-1.0479	-1.3917	-0.40417	-1.4208	-1.0438	-0.6625	-1.4375	-0.73542	-0.62083	106.903	374.432	52.778	62.328	148.690	155.575	60.312	83.738	314.861	60.812	328.323	84.796	257.120	375.733	63.983	377.445	0.00017193	0.00068065	0.00010608	1055.5	4.4169e-06	3.6274e-06	1143.1	222.79	2.055e-06	1.3899e-06	283.42	77.747	61.335	17.577	2.8413e-06	24.405	0.00029687	0.00028302	9.0281e-05	1029.9	3.2019e-06	3.132e-06	1118.1	220.91	3.1741e-06	3.0395e-06	278.96	78.378	61.801	17.921	3.3759e-06	24.802	190.045	134.631	101.681	50.634	152.391	205.229	51.083	58.497	226.196	354.988	57.757	64.931	66.136	72.022	138.661	71.687	-8191	255	
1704.576	1	1	0	0	0.12211	0.22731	0.09196	0.18289	0.10353	0.18057	0.28569	0.096897	0.11732	0.055715	0.14801	0.21024	0.076744	0.21012	0.18524	0.10507	-0.95	-0.3375	-1.1708	-1.2271	-0.42292	-1.4583	-0.71875	-0.88958	-1.4312	-0.36875	-1.025	-1.0812	-0.45	-1.2979	-0.76875	-0.6125	176.396	319.771	128.566	87.712	266.860	80.158	351.138	82.561	276.068	125.825	138.931	110.850	120.200	385.539	86.380	105.629	0.00011331	0.00051339	0.00013543	1054	2.2558e-06	6.6592e-06	1139.5	223.13	3.3008e-06	3.4655e-06	282.26	77.673	61.182	17.635	2.7204e-06	24.369	0.00026703	0.00027498	8.5535e-05	1026.7	2.9222e-06	3.0912e-06	1111.4	220.09	2.9648e-06	3.1382e-06	278.21	78.319	61.611	18.069	3.5434e-06	24.859	180.861	84.019	43.728	50.837	215.781	192.622	51.099	58.390	153.475	199.352	57.838	64.812	65.150	72.082	106.172	71.491	-8191	255	
1704.672	1	1	0	0	0.20459	0.16383	0.024162	0.16638	0.033133	0.23723	0.34569	0.20074	0.091244	0.24937	0.039444	0.097153	0.32509	0.12464	0.17524	0.22136	-1.0812	-0.38125	-1.1854	-1.3188	-0.4875	-1.1958	-0.88958	-0.66042	-1.3604	-0.6	-0.93542	-1.2771	-0.50625	-1.3021	-0.85625	-0.51458	104.613	141.181	44.574	362.437	310.667	82.168	47.208	296.763	271.197	312.342	355.150	109.685	362.271	288.565	88.831	190.006	0.00018279	0.0004896	0.00013404	1051.3	2.6657e-06	5.5698e-06	1138.2	220.67	2.1025e-06	2.2252e-06	282.51	78.132	61.138	17.556	1.6264e-06	24.373	0.00028128	0.00031318	8.8297e-05	1025	3.0083e-06	3.4079e-06	1110.6	219.61	3.0481e-06	3.4455e-06	278.03	78.197	61.557	18.092	3.3903e-06	24.742	176.197	137.570	252.215	50.641	214.506	136.365	51.163	58.460	225.459	327.784	58.045	65.182	65.489	72.695	97.607	72.153	-8191	255	
1704.744	1	1	0	0	0.086416	0.10874	0.095468	0.18698	0.16186	0.2658	0.24272	0.34005	0.15542	0.12684	0.27432	0.33809	0.31974	0.13687	0.091915	0.2256	-0.93542	-0.59792	-0.89167	-1.3604	-0.2625	-1.3146	-1.1646	-0.59792	-1.5396	-0.44792	-0.96042	-1.4937	-0.60625	-1.0375	-1.075	-0.35208	300.020	229.217	41.448	360.417	42.068	81.129	352.013	302.049	225.288	174.079	340.191	84.982	117.608	67.640	219.816	195.440	0.00015197	0.00088346	0.00011445	1049.5	1.6113e-06	6.9054e-06	1140.4	221.56	1.7321e-06	5.2867e-06	280.52	78.318	61.525	17.588	1.2317e-06	24.308	0.00027923	0.00032795	8.6234e-05	1024.3	3.1624e-06	3.649e-06	1111.2	219.24	3.3022e-06	3.7096e-06	277.43	78.556	62.054	18.207	3.5143e-06	24.838	177.296	119.653	391.066	50.654	169.813	232.191	51.033	58.485	189.279	106.811	57.772	64.875	65.541	72.275	113.502	71.683	-8191	255	
1704.864	1	1	0	0	0.086958	0.29926	0.035888	0.15275	0.09076	0.02897	0.064854	0.19173	0.19024	0.070135	0.10638	0.22284	0.13647	0.19774	0.064391	0.19713	-0.94375	-0.58333	-0.57292	-1.5458	-0.35417	-1.0312	-1.2188	-0.62917	-1.2521	-0.82708	-0.86042	-1.3729	-0.42708	-0.87917	-1.0292	-0.60208	136.581	237.156	375.958	250.019	176.481	78.753	344.007	351.309	242.797	399.835	266.500	94.785	49.214	44.220	119.364	133.260	0.00021535	0.00035664	5.6257e-05	1052.8	3.1158e-06	4.5493e-06	1137.3	221.51	4.0897e-06	3.0802e-06	280.69	78.093	61.311	17.81	5.3698e-06	24.441	0.00031048	0.00035001	8.8244e-05	1028.2	3.5256e-06	3.7482e-06	1112.7	219.71	3.5942e-06	3.792e-06	277.71	78.257	62.344	18.225	3.3838e-06	24.895	186.462	102.832	106.134	50.785	262.283	358.494	51.083	58.467	223.251	338.847	57.951	65.280	65.583	72.098	239.537	71.136	-8191	255	
1704.960	1	1	0	0	0.31065	0.064032	0.10585	0.066422	0.12681	0.15641	0.28128	0.31742	0.13043	0.082289	0.026611	0.17118	0.19433	0.17493	0.16253	0.2672	-0.90417	-0.9375	-0.49792	-1.45	-0.61042	-1.0917	-1.4583	-0.46458	-1.3521	-0.85833	-0.72708	-1.4146	-0.575	-0.9625	-1.5063	-0.45625	68.309	253.155	61.109	398.194	163.528	69.576	371.281	65.700	235.520	119.138	63.150	345.347	188.091	378.158	315.525	62.913	0.00019627	0.00033616	8.0548e-05	1056	2.4852e-06	5.6669e-06	1141.7	221.51	4.2807e-06	1.4614e-06	281.4	78.112	62.131	17.666	2.3943e-06	24.545	0.00033588	0.00034624	8.6844e-05	1027.4	3.8335e-06	3.7322e-06	1114.3	220.31	3.9432e-06	3.7895e-06	278.56	78.798	63.294	18.243	3.5254e-06	25.009	175.050	279.739	332.078	50.677	206.239	70.951	51.150	58.365	168.613	97.391	57.603	64.919	65.613	72.333	270.581	71.950	-8191	255	
1705.057	1	1	0	0	0.050342	0.12331	0.12217	0.16715	0.18884	0.090814	0.076823	0.30125	0.21954	0.20103	0.25038	0.27503	0.098631	0.21536	0.1862	0.070171	-0.67708	-0.66667	-0.35208	-1.5458	-0.52708	-0.78125	-1.4125	-0.49167	-1.1396	-1.0729	-0.74375	-1.3917	-0.54375	-0.675	-1.3125	-0.40208	274.297	48.941	312.719	45.696	69.627	229.046	224.182	274.883	338.833	111.799	343.981	341.384	106.226	88.353	258.358	365.669	0.000158	0.00049946	0.00010491	1052.4	9.1856e-07	2.044e-06	1145.8	222.44	3.1191e-06	2.4485e-06	282.36	78.758	60.807	17.715	9.2869e-07	24.607	0.00035946	0.00034588	8.7932e-05	1032.2	4.0643e-06	3.7535e-06	1119.1	221.78	4.1424e-06	3.8788e-06	279.34	79.646	63.561	18.375	3.739e-06	25.392	165.780	391.268	352.487	50.473	203.497	339.250	50.803	58.471	147.193	196.742	57.858	64.889	65.303	72.515	120.825	71.791	-8191	255	
1705.153	1	1	0	0	0.0767	0.15997	0.39996	0.10029	0.16269	0.20419	0.17637	0.092564	0.23234	0.1371	0.16605	0.42274	0.11898	0.23334	0.14043	0.31875	-0.74583	-1.1167	-0.375	-1.4562	-0.72708	-0.58542	-1.5542	-0.59167	-0.9125	-1.1521	-0.68333	-1.3417	-0.77708	-0.59375	-1.3896	-0.66875	205.348	317.626	267.649	199.619	115.809	116.347	255.965	158.262	310.440	370.487	357.057	368.653	393.898	324.893	44.179	301.000	0.00015437	0.00050648	8.6739e-05	1064.3	1.8298e-06	8.0915e-06	1154.5	224.36	3.7511e-06	2.5531e-06	284.39	78.929	62.438	17.844	1.1781e-06	24.544	0.00038882	0.00037612	9.5509e-05	1044.6	4.5078e-06	4.0288e-06	1126.6	224.03	4.393e-06	4.0651e-06	281.5	80.245	64.151	18.445	3.6889e-06	25.518	171.220	214.544	190.808	50.587	252.755	74.049	50.772	58.563	222.159	196.810	57.910	65.278	65.356	72.260	74.102	71.640	-8191	255	
1705.272	1	1	0	0	0.13043	0.10908	0.14832	0.17453	0.19325	0.27483	0.19512	0.42087	0.13942	0.06447	0.10637	0.28303	0.021701	0.02964	0.23859	0.054656	-0.51458	-1.2208	-0.18958	-1.1646	-0.83125	-0.425	-1.5854	-0.72083	-0.98542	-1.2875	-0.50625	-1.2021	-0.87708	-0.42292	-1.1812	-0.58125	171.735	354.822	391.607	350.728	59.608	235.604	358.906	45.743	283.747	88.288	327.255	70.752	145.028	288.340	116.206	81.166	0.00020922	0.00049743	0.00011039	1066.8	1.5673e-06	3.1798e-06	1156.9	224.97	2.2156e-06	3.0475e-06	285.64	79.078	61.896	17.792	7.4503e-06	24.607	0.00036516	0.00034455	9.0023e-05	1048.8	3.947e-06	3.5143e-06	1129.5	223.9	3.7127e-06	3.5617e-06	281.83	79.985	63.371	18.286	3.4931e-06	25.416	187.515	364.953	101.783	50.695	95.843	175.309	51.230	58.258	379.106	227.852	57.487	65.195	65.276	71.925	238.833	71.927	-8191	255	
1705.345	1	1	0	0	0.060818	0.17052	0.14411	0.10325	0.31415	0.0079236	0.31327	0.30215	0.10086	0.089045	0.10339	0.20666	0.17771	0.13791	0.099601	0.098753	-0.3375	-1.2542	-0.425	-1.1583	-0.9375	-0.44167	-1.5312	-0.70417	-0.44792	-1.2896	-0.5125	-1.0833	-1.1187	-0.45208	-1.3354	-0.61667	302.283	293.932	351.250	52.299	189.500	347.329	365.427	312.160	198.508	231.661	254.933	289.047	137.528	204.445	187.731	331.394	0.00017673	0.00034332	0.00016304	1068.4	1.788e-06	6.728e-06	1163.2	224.42	3.2799e-06	2.3359e-06	285.76	79.247	62.551	17.694	3.1963e-06	24.466	0.0003278	0.00031543	8.8867e-05	1049.8	3.6245e-06	3.3719e-06	1133.1	223.93	3.4979e-06	3.3576e-06	282.44	79.932	63.165	18.153	3.6372e-06	25.324	185.231	102.280	195.409	50.746	214.055	153.106	50.807	58.156	214.309	163.413	57.627	64.798	65.583	72.437	217.740	71.634	-8191	255	
1705.441	1	1	0	0	0.10547	0.18581	0.18504	0.18199	0.081535	0.22936	0.23932	0.37973	0.18855	0.14752	0.18518	0.20793	0.22742	0.16248	0.13501	0.11997	-0.14167	-1.3604	-0.34792	-1.1958	-1.1313	-0.65833	-1.2583	-0.9375	-0.49583	-1.2583	-0.54583	-0.90208	-0.95417	-0.36458	-1.2583	-0.85208	337.026	79.172	158.315	281.730	185.389	332.013	374.770	337.485	281.197	41.194	134.124	389.091	306.808	84.330	224.277	342.349	0.00020008	0.00061819	6.8276e-05	1071.3	7.5234e-07	4.3877e-06	1158.1	225.5	3.6766e-06	3.7492e-06	284.02	78.81	61.694	17.837	9.2774e-07	24.591	0.00031507	0.00031197	9.5465e-05	1046.4	3.5771e-06	3.32e-06	1132.2	224.08	3.4636e-06	3.3577e-06	282.58	79.868	63.007	18.187	3.7585e-06	25.306	193.610	123.094	108.929	50.781	248.173	57.205	51.025	58.531	239.379	194.880	57.457	65.021	65.460	71.968	232.585	71.784	-8191	255	
1705.560	1	1	0	0	0.13327	0.28976	0.16004	0.25318	0.11344	0.22175	0.36729	0.29309	0.1581	0.17577	0.30144	0.10103	0.14142	0.18148	0.36358	0.41909	-0.058333	-1.3937	-0.56875	-1.0333	-1.3937	-0.5875	-1.2125	-0.92708	-0.2125	-1.2	-0.81667	-0.9625	-1.3354	-0.3875	-1.1479	-1	130.368	346.718	205.070	305.004	215.812	351.628	51.514	367.342	58.633	102.659	308.081	308.228	291.255	360.178	175.815	189.089	0.00010781	6.1218e-05	0.00014052	1067.7	5.4166e-06	1.1045e-06	1152.3	224.84	4.3943e-06	7.9714e-07	285.2	78.706	62.385	17.792	3.2176e-06	24.542	0.00029453	0.00030278	9.5223e-05	1043.8	3.3686e-06	3.2975e-06	1131.3	223.53	3.2619e-06	3.4175e-06	283.02	79.46	62.889	18.294	3.7799e-06	25.205	197.325	242.125	55.489	50.791	205.110	109.534	51.236	58.090	136.544	194.521	57.553	65.294	65.970	72.474	129.421	71.747	-8191	255	
1705.656	1	1	0	0	0.19319	0.21088	0.019266	0.11607	0.34554	0.42583	0.27847	0.1219	0.21127	0.15303	0.11082	0.036526	0.085238	0.37522	0.1233	0.080849	0.066667	-1.3396	-0.78333	-0.8375	-1.3979	-0.70208	-1.1688	-1.2583	-0.5375	-1.2104	-0.92917	-0.87708	-1.2146	-0.5125	-1.1437	-1.3208	336.943	305.408	55.402	346.331	318.589	297.501	319.458	209.393	324.545	176.254	120.634	235.230	272.628	199.742	300.633	127.021	0.00014727	0.00030573	6.8249e-05	1067.5	2.4379e-06	1.2725e-05	1158.1	224.85	3.7604e-06	3.2196e-06	283.9	79.154	61.899	17.864	3.5448e-06	24.683	0.00028961	0.00032144	9.5709e-05	1042.4	3.2393e-06	3.4634e-06	1130.9	223.29	3.1873e-06	3.5639e-06	281.85	79.405	62.609	18.373	3.6638e-06	25.183	172.752	155.209	93.393	50.959	153.549	193.808	50.968	58.178	283.052	221.478	58.079	65.070	65.762	72.378	387.939	71.731	-8191	255	
1705.752	1	1	0	0	0.12882	0.032984	0.045059	0.038132	0.25693	0.075095	0.18358	0.31197	0.034749	0.21054	0.19246	0.21945	0.082042	0.19342	0.050267	0.18246	-0.077083	-1.2625	-0.94375	-0.575	-1.2521	-0.56042	-1.0938	-1.2708	-0.375	-1.2917	-0.975	-0.28958	-1.3583	-0.49583	-0.91458	-1.2104	187.367	385.412	271.743	113.391	208.778	397.133	76.853	281.241	186.712	92.411	91.077	362.482	148.646	382.540	379.822	72.723	0.0001528	0.00058238	8.3154e-05	1068.7	3.4174e-06	6.6232e-06	1152	225.72	4.0248e-06	1.5552e-06	285.1	78.766	62.184	17.842	3.4177e-06	24.621	0.00030025	0.00035335	9.8305e-05	1045.1	3.5727e-06	3.9827e-06	1131.6	223.76	3.5066e-06	4.0871e-06	283.25	79.595	63.221	18.518	3.7691e-06	25.313	201.563	122.839	397.646	50.844	257.174	200.651	51.128	58.191	216.412	205.428	57.537	65.537	65.510	72.269	378.585	71.603	-8191	255	
1705.873	1	1	0	0	0.16121	0.1876	0.22598	0.22684	0.12877	0.094778	0.16781	0.31619	0.10732	0.089676	0.14093	0.20392	0.15136	0.25133	0.20172	0.19791	-0.054167	-1.0292	-0.90833	-0.73125	-1.3813	-0.65833	-0.81667	-1.4896	-0.38333	-1.1104	-1.2	-0.50625	-1.3813	-0.75417	-0.47292	-1.2667	170.285	152.683	156.799	389.924	188.693	61.581	372.209	327.835	209.554	115.167	137.184	336.405	177.133	65.562	81.220	77.421	0.00014505	0.00022284	1.2958e-05	1068.8	4.5128e-06	5.2461e-06	1160.9	223.92	2.1441e-06	3.8607e-06	286.23	79.004	62.11	17.926	4.6194e-06	24.656	0.00031749	0.00037617	9.7121e-05	1044.8	3.6536e-06	4.0815e-06	1133.1	223.81	3.7095e-06	4.1098e-06	283.36	79.663	63.654	18.642	3.7547e-06	25.337	189.712	184.703	223.756	50.814	213.382	269.355	50.975	58.560	286.417	201.379	57.666	65.034	65.750	72.314	176.639	71.713	-8191	255	
1705.969	1	1	0	0	0.22487	0.073288	0.16067	0.30848	0.14305	0.07949	0.35493	0.14842	0.042806	0.25611	0.3376	0.15323	0.25575	0.18013	0.053671	0.13103	-0.097917	-0.98542	-1.2687	-0.54792	-1.3792	-1.0146	-0.725	-1.4229	-0.39167	-0.85833	-1.375	-0.58542	-1.2833	-0.83333	-0.49583	-1.4167	333.875	285.976	144.388	68.661	386.422	172.951	339.482	326.830	116.194	263.908	304.791	346.257	356.676	387.262	40.555	177.177	0.00022049	0.0008107	5.7448e-05	1068.6	4.3756e-06	2.3559e-06	1158.4	227.34	3.2e-07	3.0239e-06	285.96	79.486	62.284	17.9	6.4278e-07	24.895	0.00035873	0.00038594	9.8209e-05	1047.4	4.0494e-06	4.2007e-06	1136.5	225.65	4.0973e-06	4.0721e-06	284.38	80.113	64.21	18.676	3.6411e-06	25.464	188.430	62.968	366.060	50.616	303.798	249.201	51.123	58.304	234.720	93.185	57.933	64.680	65.631	72.040	170.673	71.669	-8191	255	
1706.041	1	1	0	0	0.067604	0.14143	0.056195	0.33186	0.15264	0.17709	0.13689	0.072923	0.12406	0.12607	0.23886	0.22234	0.12398	0.22195	0.35568	0.042106	-0.0020833	-0.9625	-1.2417	-0.59792	-0.96875	-1.1375	-0.44167	-1.4771	-0.31458	-0.60625	-1.3188	-0.59583	-1.0583	-0.98542	-0.27917	-1.2687	312.787	281.712	94.788	345.004	173.612	155.474	65.071	331.570	305.307	77.784	78.540	105.239	366.157	373.361	73.192	219.723	0.00024076	0.00042849	4.5816e-05	1081.8	3.4931e-06	9.5436e-07	1166.8	229.27	2.2029e-06	2.6548e-06	287.58	79.9	63.021	18.076	8.4178e-06	24.944	0.00036971	0.00036515	9.3623e-05	1055.4	4.1556e-06	3.935e-06	1141.5	227.01	4.1218e-06	3.815e-06	284.47	80.412	64.535	18.663	3.4682e-06	25.57	197.490	172.585	148.520	50.846	147.115	85.040	51.116	58.517	237.870	64.693	57.661	64.893	65.500	71.883	173.233	71.359	-8191	255	
1706.161	1	1	0	0	0.068274	0.15115	0.1139	0.069743	0.32182	0.27785	0.08615	0.074936	0.44499	0.019794	0.11674	0.058423	0.20277	0.20646	0.25988	0.10671	-0.27917	-0.53333	-1.3854	-0.51042	-1.0396	-1.1208	-0.67917	-1.5833	-0.66667	-0.86667	-1.4167	-0.40208	-1.1104	-1.15	-0.46042	-1.3583	150.728	147.413	51.282	373.434	154.723	341.262	327.842	104.098	348.308	45.442	104.647	326.941	388.399	63.721	101.517	296.222	0.00019808	0.00032066	0.00014674	1082.6	3.2567e-06	1.1835e-05	1163.5	229.06	1.1601e-06	1.487e-06	288.36	79.473	63.728	17.995	3.7486e-06	24.956	0.00037171	0.00033729	9.007e-05	1055.9	4.0135e-06	3.7093e-06	1138.8	227.33	3.9032e-06	3.4903e-06	283.93	80.458	64.328	18.583	3.214e-06	25.597	185.945	182.819	154.901	50.605	245.462	121.012	51.087	58.172	279.297	219.980	57.706	65.301	65.554	72.399	253.687	71.586	-8191	255	
1706.258	1	1	0	0	0.15622	0.37836	0.23898	0.29636	0.33844	0.065292	0.37486	0.064217	0.21585	0.15915	0.21143	0.017891	0.16379	0.21921	0.29426	0.11063	-0.19375	-0.64167	-1.3146	-0.71875	-0.95625	-1.3521	-0.64167	-1.3062	-0.84583	-0.43542	-1.3542	-0.5875	-0.72917	-1.3292	-0.44375	-1.2167	342.075	206.831	367.400	359.858	276.415	233.457	357.278	237.074	123.816	270.262	378.459	374.335	361.110	171.483	336.997	371.660	0.00020738	0.0003805	7.7673e-05	1076.5	3.3995e-06	9.4422e-06	1164.4	228.25	3.6806e-06	1.677e-06	287.18	79.359	63.061	18.204	1.9049e-06	24.927	0.00034551	0.00031277	8.4629e-05	1055.1	3.75e-06	3.5309e-06	1136.8	227.69	3.8575e-06	3.4511e-06	284.14	80.706	64.091	18.615	3.4145e-06	25.785	188.964	80.891	354.837	51.020	179.240	161.647	50.877	58.589	88.596	294.178	57.930	65.191	65.485	71.781	236.646	71.679	-8191	255	
1706.352	1	1	0	0	0.3236	0.18586	0.15865	0.18292	0.063312	0.35395	0.21104	0.25289	0.10617	0.047842	0.15984	0.41094	0.13579	0.23272	0.15433	0.12161	-0.57292	-0.36875	-1.4292	-0.78125	-0.67708	-1.1125	-0.4625	-0.98542	-0.86458	-0.4375	-1.4271	-0.62917	-0.79583	-1.3042	-0.53958	-1.0583	50.958	136.239	121.632	338.992	214.837	71.724	363.479	388.233	152.209	156.112	380.103	73.888	379.408	101.452	238.602	344.021	0.00010728	7.3568e-05	0.00010924	1078.8	4.8218e-06	2.3834e-06	1165	229.71	1.7035e-06	2.6226e-06	287.23	79.685	62.722	18.183	5.0504e-06	24.888	0.00034072	0.00032178	8.9458e-05	1056.9	3.7388e-06	3.5143e-06	1136.2	227.95	3.7714e-06	3.4468e-06	285.31	80.839	63.834	18.606	3.6637e-06	25.846	203.667	244.108	139.676	50.528	213.349	143.334	50.997	58.599	241.921	284.175	57.886	65.200	65.611	71.880	214.154	71.347	-8191	255	
1706.448	1	1	0	0	0.11727	0.20992	0.31118	0.43975	0.13896	0.37004	0.063287	0.28323	0.082202	0.19599	0.15118	0.12966	0.077161	0.39222	0.19314	0.26985	-0.73542	-0.38542	-1.3604	-0.81667	-0.74167	-1.3208	-0.75208	-1.0438	-1.275	-0.50208	-1.3729	-0.80208	-0.65417	-1.2563	-0.46458	-0.99792	399.882	215.438	224.175	350.051	153.558	336.211	259.753	374.438	137.180	59.843	386.392	113.709	237.487	63.524	335.596	305.136	0.00015043	0.00046545	0.00013823	1076.1	2.8921e-06	3.7679e-06	1161.1	228.28	2.3469e-06	4.8282e-06	288.16	79.43	62.884	18.35	4.2294e-06	24.948	0.00033711	0.00031302	9.7318e-05	1054.5	3.6905e-06	3.5002e-06	1139.1	227.9	3.6687e-06	3.4042e-06	285.84	80.789	63.814	18.657	3.8947e-06	25.791	158.082	135.537	157.212	50.690	199.663	228.995	51.102	58.361	257.482	173.953	57.996	64.985	65.762	72.163	187.489	71.999	-8191	255	
1706.569	1	1	0	0	0.13438	0.22509	0.17502	0.063224	0.23703	0.12954	0.24128	0.34529	0.49024	0.16061	0.15521	0.129	0.25155	0.13004	0.37166	0.24431	-0.97917	-0.57917	-1.3917	-0.9375	-0.53333	-1.4667	-0.65625	-1.0021	-1.0958	-0.22292	-1.4021	-1.0958	-0.56042	-1.475	-0.56458	-1.0125	47.696	88.925	363.645	266.045	132.031	323.551	363.486	397.333	59.208	391.693	324.233	349.742	315.238	343.053	138.770	385.927	0.00014278	0.00026873	0.00010174	1076.7	2.3793e-06	4.9055e-06	1163.9	229.09	1.7862e-06	1.865e-06	288.52	78.996	62.302	18.141	7.2706e-06	25.339	0.00032902	0.00031845	0.00010099	1054.6	3.5768e-06	3.555e-06	1139.8	227.82	3.6693e-06	3.5444e-06	286.12	80.596	63.803	18.723	4.0828e-06	25.838	181.627	86.830	162.407	50.595	140.066	167.297	50.767	58.310	262.508	140.916	57.920	65.018	65.959	72.062	205.959	71.911	-8191	255	
1706.640	1	1	0	0	0.057869	0.14073	0.18475	0.13428	0.10378	0.072226	0.21306	0.28982	0.18021	0.09415	0.2133	0.15079	0.094666	0.11857	0.22955	0.18046	-0.94583	-0.325	-1.2083	-1.0458	-0.60833	-1.1854	-0.87083	-0.88125	-1.3917	-0.41667	-1.4083	-1.0458	-0.52292	-1.3521	-0.625	-0.8375	57.402	153.422	298.498	82.252	112.681	122.912	76.371	344.251	301.214	223.804	170.668	129.579	311.499	58.711	294.191	343.615	0.00015731	0.00039345	9.5606e-05	1073.8	3.7197e-06	5.4928e-06	1166.4	229.4	4.4613e-06	2.6443e-06	288.4	79.83	62.642	18.165	1.9939e-06	25.15	0.00032702	0.00032973	0.00010245	1052.5	3.5066e-06	3.6657e-06	1141.3	227.21	3.5043e-06	3.6613e-06	286.51	80.455	63.476	18.679	3.8985e-06	25.742	181.268	190.094	211.651	50.598	231.750	190.753	51.003	58.371	188.533	184.029	58.019	64.877	65.631	72.106	160.206	71.686	-8191	255	
1706.737	1	1	0	0	0.2011	0.090885	0.19072	0.26212	0.27112	0.16833	0.20547	0.1899	0.18087	0.10198	0.2154	0.091825	0.14309	0.21011	0.15931	0.049381	-0.97708	-0.34792	-0.93333	-1.2208	-0.45208	-1.2104	-1.0729	-0.63542	-1.5063	-0.65625	-1.0208	-1.2896	-0.33958	-1.4146	-0.8375	-0.7125	265.539	58.340	298.380	89.206	371.288	344.137	342.399	84.167	350.570	67.576	52.394	145.277	117.953	370.375	169.415	239.145	0.00017843	0.00035816	0.00018344	1076.4	2.8875e-06	5.7889e-06	1168.1	228.29	2.7557e-06	3.6054e-06	287.06	79.637	63.233	18.323	1.1833e-06	25.134	0.00030836	0.00034528	9.8442e-05	1051.9	3.3966e-06	3.8379e-06	1140.3	226.67	3.4242e-06	3.8466e-06	285.1	80.206	63.594	18.834	3.799e-06	25.633	192.603	117.543	91.505	50.922	244.062	179.903	50.985	58.340	176.703	175.894	57.619	65.120	65.172	72.554	117.940	72.159	-8191	255	
1706.833	1	1	0	0	0.20911	0.25497	0.14972	0.097799	0.24024	0.26728	0.42758	0.15226	0.029261	0.33437	0.16736	0.15921	0.30969	0.10944	0.41968	0.11168	-0.83333	-0.5625	-0.975	-1.5396	-0.46875	-1.1146	-1.1562	-0.54583	-1.3646	-0.43333	-0.83958	-1.4167	-0.42083	-1.2188	-0.83333	-0.64792	73.079	339.522	168.987	399.125	180.275	76.677	344.418	120.063	225.290	163.473	383.657	376.749	272.076	49.336	74.482	105.531	0.000214	0.00027638	5.762e-05	1073.9	1.1608e-06	1.3811e-05	1164.9	228.57	5.5668e-07	5.1493e-06	287.7	80.371	62.503	18.093	1.6401e-06	25.16	0.00031424	0.00036383	9.5907e-05	1051	3.487e-06	4.0378e-06	1138.5	226.52	3.5758e-06	4.0149e-06	284.86	80.348	63.779	18.795	3.7094e-06	25.689	181.075	63.149	48.565	50.845	233.199	202.699	50.902	58.387	181.066	156.822	57.910	65.045	65.379	72.060	334.431	71.145	-8191	255	
1706.953	1	1	0	0	0.37495	0.33288	0.20049	0.1497	0.18278	0.080291	0.22372	0.2172	0.061071	0.056062	0.31122	0.28979	0.25309	0.23761	0.36268	0.2297	-0.94375	-0.6125	-0.69375	-1.7083	-0.55417	-1.1333	-1.4292	-0.56667	-1.3104	-0.69583	-0.6	-1.4729	-0.53542	-1.1	-0.84792	-0.33958	206.361	158.360	289.889	386.664	388.672	346.817	352.965	356.112	146.924	128.512	242.431	397.573	290.829	72.751	252.978	52.899	0.00023088	0.00036112	0.00011029	1071.9	2.2341e-06	5.5064e-06	1163	229.77	6.2228e-06	1.9727e-06	286.74	79.335	62.923	18.062	3.7209e-06	25.294	0.00033059	0.0003684	9.1914e-05	1048.3	3.704e-06	3.9224e-06	1137	226.72	3.7808e-06	4.0105e-06	284.58	80.209	64.13	18.771	3.625e-06	25.726	195.440	235.782	381.788	50.691	220.185	280.651	51.056	58.274	217.868	188.547	57.622	65.501	65.547	72.219	221.445	71.481	-8191	255	
1707.050	1	1	0	0	0.23978	0.12504	0.091223	0.32524	0.029673	0.092188	0.11497	0.17521	0.13396	0.15556	0.21906	0.13808	0.2699	0.26799	0.12809	0.26439	-0.93542	-0.74167	-0.43125	-1.4312	-0.49375	-0.91042	-1.3083	-0.475	-1.0979	-0.67292	-0.68125	-1.3854	-0.73333	-1.0583	-1.3813	-0.48125	219.527	338.468	67.799	398.149	214.762	275.948	397.497	355.527	254.261	162.152	279.593	373.936	303.092	54.332	310.383	339.945	0.00027717	0.00035593	2.0539e-05	1078	3.0649e-06	2.5347e-06	1166.2	229.12	3.3018e-07	3.7463e-07	288.15	79.895	62.809	18.307	4.6579e-06	25.106	0.00035337	0.00036456	9.1719e-05	1050.6	4.0882e-06	3.9233e-06	1139.3	227.33	4.0676e-06	3.976e-06	285	80.496	64.568	18.811	3.6262e-06	25.722	181.794	214.847	56.734	50.618	233.044	128.335	50.975	58.403	300.799	355.899	57.908	65.173	66.016	72.013	203.474	71.642	-8191	255	
1707.146	1	1	0	0	0.11394	0.11044	0.34609	0.16834	0.016334	0.1945	0.095767	0.16243	0.26326	0.27044	0.12974	0.091796	0.31895	0.22073	0.16492	0.12526	-0.775	-0.96875	-0.42917	-1.7	-0.71042	-0.96458	-1.3687	-0.57917	-1.225	-1.05	-0.61667	-1.3729	-0.625	-0.7375	-1.4167	-0.50208	195.480	183.521	59.859	249.082	139.147	133.255	366.639	314.616	243.699	336.729	312.487	41.363	75.375	216.433	379.548	189.635	0.0001621	0.00033765	4.4907e-05	1076.5	7.4225e-07	3.0215e-06	1161.6	229.29	6.1914e-06	2.0136e-06	287.39	79.525	62.878	18.122	4.0995e-06	25.125	0.00037224	0.00035748	9.1093e-05	1054.8	4.1754e-06	3.7538e-06	1136.6	227.46	4.0906e-06	3.7841e-06	284.09	80.52	64.681	18.75	3.5578e-06	25.883	162.319	386.125	329.345	50.749	375.461	385.007	50.870	58.258	138.320	213.673	57.793	65.172	65.330	72.475	383.718	71.855	-8191	255	
1707.242	1	1	0	0	0.073963	0.13889	0.31904	0.19318	0.11963	0.2094	0.34444	0.021769	0.18381	0.064013	0.17647	0.10378	0.020898	0.078484	0.30576	0.20239	-0.64167	-1.0187	-0.31042	-1.2458	-0.75417	-0.75625	-1.4604	-0.50417	-1.0167	-1.1646	-0.525	-1.2812	-0.93958	-0.67083	-1.2625	-0.66458	131.238	398.057	193.840	88.135	364.850	123.921	334.691	233.239	61.385	304.490	200.477	397.520	320.740	142.755	260.530	361.562	0.00024003	0.00056251	2.9408e-05	1084.5	5.2356e-06	5.9282e-06	1166.6	229.71	1.3347e-06	4.5343e-06	289.04	79.518	63.056	18.197	6.8785e-06	25.219	0.00036513	0.00034944	8.7889e-05	1059.2	4.1619e-06	3.7348e-06	1137.5	228.53	4.0855e-06	3.8316e-06	284.72	80.883	64.678	18.715	3.6228e-06	26.113	188.660	396.001	222.535	50.625	185.193	187.638	50.983	58.362	95.942	224.401	57.985	65.065	65.341	72.479	143.064	71.697	-8191	255	
1707.338	1	1	0	0	0.25177	0.085113	0.1255	0.2924	0.068002	0.049406	0.18197	0.22974	0.062987	0.14443	0.16666	0.26868	0.23999	0.35025	0.25346	0.21446	-0.66458	-1.1375	-0.49792	-1.4729	-0.97708	-0.625	-1.5979	-0.58542	-0.78333	-1.3146	-0.53958	-1.475	-1.0417	-0.81042	-1.3375	-0.89167	374.306	258.812	261.833	394.283	121.988	166.991	330.701	249.649	57.405	179.649	359.742	64.360	315.387	46.210	140.161	356.434	0.00015259	0.00029443	0.00019908	1082.1	8.3986e-07	7.5771e-06	1168	228.8	2.6523e-06	2.9952e-06	287.61	79.56	62.758	18.228	1.429e-06	25.042	0.00036836	0.00035643	9.3522e-05	1060	4.1591e-06	3.7016e-06	1142.4	229.12	3.9576e-06	3.7501e-06	285	81.264	64.498	18.694	3.7649e-06	26.074	201.602	382.478	118.601	50.897	269.114	184.962	50.794	58.263	200.090	389.513	57.781	64.943	65.503	72.321	102.646	72.015	-8191	255	
1707.434	1	1	0	0	0.13845	0.32068	0.051436	0.23178	0.13714	0.048163	0.30649	0.30296	0.057739	0.24299	0.14313	0.2857	0.12502	0.020325	0.23295	0.040658	-0.52292	-1.1479	-0.54583	-1.2083	-0.85417	-0.38542	-1.4375	-0.8875	-0.62083	-1.3	-0.60208	-1.1917	-1.0667	-0.37917	-1.2979	-0.93125	352.066	49.434	245.981	64.297	328.520	201.892	337.295	384.756	364.581	132.045	174.555	356.620	232.127	160.385	311.403	306.112	0.00017381	0.00038949	3.2421e-05	1076.6	2.3836e-06	7.3901e-06	1169.3	228.66	3.0216e-06	5.8265e-07	288.23	79.934	62.901	18.338	3.6566e-06	25.075	0.00034492	0.00033708	9.6522e-05	1058.9	3.9008e-06	3.5881e-06	1142.5	229.14	3.851e-06	3.6914e-06	286.22	81.182	64.28	18.747	4.0822e-06	26.103	193.262	165.236	133.745	50.729	160.044	200.727	51.087	58.509	247.283	392.803	57.927	65.316	64.935	72.327	240.941	71.339	-8191	255	
1707.553	1	1	0	0	0.11546	0.21248	0.14805	0.18604	0.15636	0.21546	0.10417	0.32214	0.021947	0.08769	0.076599	0.15074	0.09813	0.037325	0.046384	0.23858	-0.19167	-1.2604	-0.3	-1.0708	-1.3	-0.39792	-1.4208	-0.97708	-0.45833	-1.3042	-0.625	-0.94167	-1.2479	-0.63125	-1.1812	-0.83958	228.323	247.741	172.270	349.232	106.499	265.439	40.597	340.719	87.856	142.536	253.419	62.443	350.139	214.771	351.700	256.989	0.00019855	0.00067192	0.00013606	1082.9	1.4908e-06	2.1689e-06	1168.2	229.42	2.0181e-06	1.4234e-06	288.77	79.928	63.151	18.239	3.936e-06	25.155	0.00034345	0.00034343	0.00010503	1062	3.9313e-06	3.6536e-06	1148.2	229.13	3.8175e-06	3.7015e-06	287.66	81.356	64.478	18.796	4.2604e-06	26.084	178.409	191.037	109.381	50.951	133.635	295.966	51.119	58.289	387.389	199.674	57.905	65.096	65.677	72.580	236.298	71.477	-8191	255	
1707.649	1	1	0	0	0.095554	0.37001	0.064946	0.32161	0.28979	0.18443	0.22426	0.17858	0.075704	0.15777	0.15268	0.15816	0.17113	0.22362	0.20448	0.41014	-0.083333	-1.3	-0.44583	-1.0958	-1.1083	-0.3	-1.2083	-1.0479	-0.39792	-1.1812	-0.79792	-0.61042	-1.1583	-0.55208	-1.1708	-0.87917	91.131	370.181	157.854	71.229	380.745	106.655	320.504	361.912	353.733	300.784	392.501	41.350	382.863	130.267	130.506	87.664	9.2409e-05	0.00059315	0.00013785	1087.2	3.4076e-06	7.7818e-06	1171.6	229.56	1.935e-06	8.4667e-07	288.94	79.448	63.251	18.368	6.62e-06	25.315	0.00033706	0.0003512	0.00010884	1062.6	3.8188e-06	3.8048e-06	1148.1	229.02	3.6692e-06	3.8569e-06	288.16	81.226	64.256	18.865	4.305e-06	25.985	172.981	99.435	167.000	50.726	224.991	213.519	50.856	58.522	82.465	90.354	57.923	64.922	65.220	71.770	237.665	71.736	-8191	255	
1707.745	1	1	0	0	0.13959	0.15826	0.085081	0.19228	0.075628	0.24801	0.17197	0.19151	0.019176	0.17005	0.16798	0.29542	0.080366	0.26139	0.0353	0.025115	-0.058333	-1.1167	-0.62708	-0.675	-1.3604	-0.59792	-1.1167	-1.3333	-0.40208	-1.1979	-0.66042	-0.40625	-1.2375	-0.06875	-0.99375	-1	58.440	325.745	373.794	380.212	343.979	60.376	346.744	329.977	321.568	270.981	376.862	369.390	369.593	166.003	392.184	148.461	0.00013331	0.00061413	0.00014826	1087	2.3473e-06	9.2832e-06	1172.8	229.7	3.0278e-06	2.4939e-06	289.2	79.862	63.265	18.285	9.5512e-07	25.375	0.00033252	0.00036957	0.00010942	1062.6	3.7487e-06	4.0401e-06	1150.6	228.81	3.6213e-06	4.145e-06	288.84	81.022	64.359	18.988	4.1193e-06	26.001	185.894	102.836	69.375	50.534	223.706	192.530	50.900	58.082	246.934	131.344	57.601	65.054	65.404	71.674	374.182	71.242	-8191	255	
1707.841	1	1	0	0	0.06259	0.35911	0.2386	0.35155	0.08202	0.14627	0.25704	0.23386	0.12938	0.17588	0.49411	0.024684	0.094571	0.10165	0.26419	0.16994	0.070833	-1.1458	-0.86042	-0.75625	-1.4062	-0.55	-1.1979	-1.3438	-0.39583	-1.0688	-1.0854	-0.575	-1.3229	-0.57292	-0.75833	-1.2729	149.050	349.710	248.029	363.149	369.340	360.256	319.912	160.162	168.585	245.197	351.037	133.493	62.449	326.386	283.329	326.821	0.00019972	0.00028677	5.6497e-05	1085.2	1.3426e-06	3.7165e-06	1177.9	230.55	4.0083e-06	2.0785e-06	289.41	80.167	63.579	18.339	7.2009e-06	25.295	0.00032713	0.00038476	0.00010531	1060.1	3.7119e-06	4.23e-06	1150.5	229.11	3.6516e-06	4.2135e-06	287.24	80.81	64.503	19.007	3.977e-06	25.958	164.309	92.010	363.017	50.666	195.620	162.160	50.773	58.179	247.897	237.452	57.784	64.873	65.312	71.603	135.228	71.107	-8191	255	
1707.938	1	1	0	0	0.21763	0.16234	0.18206	0.087298	0.16064	0.20215	0.42213	0.11268	0.35118	0.13027	0.13378	0.14489	0.22554	0.13347	0.10146	0.14863	-0.064583	-1.0375	-1.0104	-0.66458	-1.275	-0.67708	-0.81042	-1.3146	-0.38958	-1.0875	-1.0312	-0.45	-1.3646	-0.65417	-0.52083	-1.3979	298.965	355.484	138.398	357.691	343.885	255.039	331.370	59.520	51.212	360.312	371.789	301.786	60.295	212.033	331.362	119.348	0.00022023	0.00016342	3.2817e-05	1081.1	8.9489e-07	2.3992e-06	1177.4	230.46	5.3293e-06	3.97e-06	287.76	79.859	63.54	18.25	3.0876e-06	25.485	0.00033918	0.00039131	0.0001011	1059.4	3.8505e-06	4.3121e-06	1150.1	229.05	3.8724e-06	4.2657e-06	287.01	80.932	64.938	19.012	3.8333e-06	26.048	179.448	322.169	104.178	50.812	248.504	49.806	50.817	58.085	292.190	150.883	57.498	64.990	65.656	72.404	103.938	70.834	-8191	255	
1708.034	1	1	0	0	0.20828	0.11844	0.21724	0.31096	0.18462	0.22402	0.35704	0.11276	0.13893	0.14372	0.21159	0.1702	0.27096	0.20659	0.12521	0.19438	-0.0083333	-1.1792	-1.1167	-0.60208	-1.2021	-0.8	-0.63542	-1.4875	-0.3375	-0.94792	-1.1604	-0.45208	-1.2812	-0.675	-0.50208	-1.3792	389.125	307.083	269.601	366.644	252.590	368.859	385.785	286.635	354.844	388.434	357.677	361.143	169.591	64.838	55.228	176.518	0.00027472	0.0007934	2.9537e-05	1084.4	1.1132e-06	4.6577e-06	1169.4	230.6	4.8508e-06	1.1245e-06	289.3	80.09	63.413	18.247	1.9822e-06	25.124	0.00036392	0.00038466	9.9756e-05	1059.6	4.0944e-06	4.2577e-06	1147.2	228.89	4.126e-06	4.0759e-06	287.51	80.931	65.141	18.974	3.7536e-06	25.868	181.539	77.361	190.475	50.340	293.496	82.380	50.751	58.038	194.415	161.464	57.649	64.783	65.103	71.801	193.102	71.887	-8191	255	
1708.130	1	1	0	0	0.20154	0.189	0.15134	0.25821	0.16574	0.12878	0.25408	0.3132	0.22955	0.046648	0.3271	0.2376	0.21508	0.099339	0.32144	0.22297	-0.30417	-0.85208	-1.1042	-0.575	-1.0875	-0.875	-0.65625	-1.6146	-0.52708	-0.82708	-1.3896	-0.44167	-1.0729	-0.98125	-0.46458	-1.2417	73.327	240.095	66.148	101.328	346.091	197.586	60.566	377.693	367.837	200.330	346.475	371.032	383.311	70.284	135.318	369.516	0.00020209	0.0001304	6.9783e-05	1088.1	3.9507e-06	2.6551e-06	1170.2	230.89	1.3164e-06	3.1587e-06	290.86	79.576	63.374	18.483	1.92e-06	25.335	0.00038178	0.00037596	9.7414e-05	1061.8	4.2843e-06	4.0774e-06	1145.9	229.36	4.365e-06	4.0383e-06	287.5	80.826	65.345	18.988	3.6992e-06	26.108	183.650	207.685	99.463	50.594	282.532	117.477	50.739	58.089	240.490	158.492	57.276	64.758	65.478	71.789	182.008	71.601	-8191	255	
#DATA ENDS
