BOXY.EXE: ISS Imagent and Oximeter Data Acquisition Program Version 0.80
Ascii Record File

#ACQ INFORMATION
2  Detector Channels 
16  External MUX Channels 
1  Auxiliary Channels 
5000  Waveform (CCF) Frequency (Hz)
1  Waveforms Skipped 
30  Waveforms Averaged 
1  Cycles Averaged 
16  Acquisitions per Waveform 
10.0806  Updata Rate (Hz) 

#FILE INFORMATION
TRUE -- External MUX Channel results are PARSED.
FALSE -- AC DC and Phase are NOT grouped.
TRUE -- Companion Program Settings File CREATED.
FALSE -- AC data not excluded
FALSE -- DC data not excluded
FALSE -- Phase data not excluded
FALSE -- Auxillary Chn. data not excluded
Tab delimiters

#CALIBRATION STATE
TRUE -- Waveform Calibration Values APPLIED.


#AUX CALIBRATION VALUES
Val Type	aux-1	

Term	1.0000e+00	
Factor	0.0000e+00	


#WF CALIBRATION VALUES
A = Detector Channel
Val Type	A-AC1	A-AC2	A-AC3	A-AC4	A-AC5	A-AC6	A-AC7	A-AC8	A-AC9	A-AC10	A-AC11	A-AC12	A-AC13	A-AC14	A-AC15	A-AC16	A-DC1	A-DC2	A-DC3	A-DC4	A-DC5	A-DC6	A-DC7	A-DC8	A-DC9	A-DC10	A-DC11	A-DC12	A-DC13	A-DC14	A-DC15	A-DC16	A-Ph1	A-Ph2	A-Ph3	A-Ph4	A-Ph5	A-Ph6	A-Ph7	A-Ph8	A-Ph9	A-Ph10	A-Ph11	A-Ph12	A-Ph13	A-Ph14	A-Ph15	A-Ph16	

Term	0.00000e+00	0.00000e+00	0.00000e+00	0.00000e+00	0.00000e+00	0.00000e+00	0.00000e+00	0.00000e+00	0.00000e+00	0.00000e+00	0.00000e+00	0.00000e+00	0.00000e+00	0.00000e+00	0.00000e+00	0.00000e+00	0.00000e+00	0.00000e+00	0.00000e+00	0.00000e+00	0.00000e+00	0.00000e+00	0.00000e+00	0.00000e+00	0.00000e+00	0.00000e+00	0.00000e+00	0.00000e+00	0.00000e+00	0.00000e+00	0.00000e+00	0.00000e+00	0.00000e+00	0.00000e+00	0.00000e+00	0.00000e+00	0.00000e+00	0.00000e+00	0.00000e+00	0.00000e+00	0.00000e+00	0.00000e+00	0.00000e+00	0.00000e+00	0.00000e+00	0.00000e+00	0.00000e+00	0.00000e+00	
Factor	1.00000e+00	1.00000e+00	1.00000e+00	1.00000e+00	1.00000e+00	1.00000e+00	1.00000e+00	1.00000e+00	1.00000e+00	1.00000e+00	1.00000e+00	1.00000e+00	1.00000e+00	1.00000e+00	1.00000e+00	1.00000e+00	1.00000e+00	1.00000e+00	1.00000e+00	1.00000e+00	1.00000e+00	1.00000e+00	1.00000e+00	1.00000e+00	1.00000e+00	1.00000e+00	1.00000e+00	1.00000e+00	1.00000e+00	1.00000e+00	1.00000e+00	1.00000e+00	X	X	X	X	X	X	X	X	X	X	X	X	X	X	X	X	

B = Detector Channel
Val Type	B-AC1	B-AC2	B-AC3	B-AC4	B-AC5	B-AC6	B-AC7	B-AC8	B-AC9	B-AC10	B-AC11	B-AC12	B-AC13	B-AC14	B-AC15	B-AC16	B-DC1	B-DC2	B-DC3	B-DC4	B-DC5	B-DC6	B-DC7	B-DC8	B-DC9	B-DC10	B-DC11	B-DC12	B-DC13	B-DC14	B-DC15	B-DC16	B-Ph1	B-Ph2	B-Ph3	B-Ph4	B-Ph5	B-Ph6	B-Ph7	B-Ph8	B-Ph9	B-Ph10	B-Ph11	B-Ph12	B-Ph13	B-Ph14	B-Ph15	B-Ph16	

Term	0.00000e+00	0.00000e+00	0.00000e+00	0.00000e+00	0.00000e+00	0.00000e+00	0.00000e+00	0.00000e+00	0.00000e+00	0.00000e+00	0.00000e+00	0.00000e+00	0.00000e+00	0.00000e+00	0.00000e+00	0.00000e+00	0.00000e+00	0.00000e+00	0.00000e+00	0.00000e+00	0.00000e+00	0.00000e+00	0.00000e+00	0.00000e+00	0.00000e+00	0.00000e+00	0.00000e+00	0.00000e+00	0.00000e+00	0.00000e+00	0.00000e+00	0.00000e+00	-1.92451e+02	-1.27396e+02	-1.21933e+02	-1.81702e+02	-8.52248e+01	-7.17860e+01	-1.59827e+02	-1.62015e+02	-9.79175e+01	-6.25268e+01	-1.72064e+02	-1.71235e+02	-1.81225e+02	-1.77148e+02	-7.86684e+01	-1.49556e+02	
Factor	3.17922e-05	1.27293e-04	3.00469e-05	1.53336e-01	1.19824e-06	1.32970e-06	1.61206e-01	4.07326e-02	1.19885e-06	1.02860e-06	6.92827e-02	2.47474e-02	3.05553e-02	7.28990e-03	1.03716e-06	1.04097e-02	2.12434e-06	2.26520e-06	6.27488e-07	8.18888e-02	2.46237e-08	2.48108e-08	8.10272e-02	2.18854e-02	2.46444e-08	2.48727e-08	3.58425e-02	1.28119e-02	1.63559e-02	3.93248e-03	2.46604e-08	5.42419e-03	X	X	X	X	X	X	X	X	X	X	X	X	X	X	X	X	



#DISTANCE SETTINGS
A = Detector Channel
A-1	A-2	A-3	A-4	A-5	A-6	A-7	A-8	A-9	A-10	A-11	A-12	A-13	A-14	A-15	A-16	

2.5000e+00	3.0000e+00	2.5000e+00	3.0000e+00	2.0000e+00	3.0000e+00	1.5000e+00	3.0000e+00	3.0000e+00	3.0000e+00	3.0000e+00	3.0000e+00	3.0000e+00	3.0000e+00	1.5000e+00	3.0000e+00	

B = Detector Channel
B-1	B-2	B-3	B-4	B-5	B-6	B-7	B-8	B-9	B-10	B-11	B-12	B-13	B-14	B-15	B-16	

1.0000e+01	1.0000e+01	1.0000e+01	1.4400e+00	1.0000e+01	1.0000e+01	1.5100e+00	1.9400e+00	1.0000e+01	1.0000e+01	1.9900e+00	2.4900e+00	2.4100e+00	2.9000e+00	1.0000e+01	2.9800e+00	




#DATA BEGINS
time	group	step	mark	flag	A-AC1	A-AC2	A-AC3	A-AC4	A-AC5	A-AC6	A-AC7	A-AC8	A-AC9	A-AC10	A-AC11	A-AC12	A-AC13	A-AC14	A-AC15	A-AC16	A-DC1	A-DC2	A-DC3	A-DC4	A-DC5	A-DC6	A-DC7	A-DC8	A-DC9	A-DC10	A-DC11	A-DC12	A-DC13	A-DC14	A-DC15	A-DC16	A-Ph1	A-Ph2	A-Ph3	A-Ph4	A-Ph5	A-Ph6	A-Ph7	A-Ph8	A-Ph9	A-Ph10	A-Ph11	A-Ph12	A-Ph13	A-Ph14	A-Ph15	A-Ph16	B-AC1	B-AC2	B-AC3	B-AC4	B-AC5	B-AC6	B-AC7	B-AC8	B-AC9	B-AC10	B-AC11	B-AC12	B-AC13	B-AC14	B-AC15	B-AC16	B-DC1	B-DC2	B-DC3	B-DC4	B-DC5	B-DC6	B-DC7	B-DC8	B-DC9	B-DC10	B-DC11	B-DC12	B-DC13	B-DC14	B-DC15	B-DC16	B-Ph1	B-Ph2	B-Ph3	B-Ph4	B-Ph5	B-Ph6	B-Ph7	B-Ph8	B-Ph9	B-Ph10	B-Ph11	B-Ph12	B-Ph13	B-Ph14	B-Ph15	B-Ph16	aux-1	digaux	

8032.686	1	1	0	768	0.082859	0.12364	0.34234	0.23924	0.27371	0.1578	0.25019	0.30449	0.052526	0.35681	0.32004	0.18069	0.064601	0.054804	0.236	0.1146	0.11042	-0.052083	-0.77083	-0.10417	-0.27292	-0.67083	0.18958	-0.775	-0.35625	0.033333	-0.93125	-0.10833	-0.45208	-0.58333	0.03125	-0.93125	120.250	-57.308	-76.237	80.838	140.363	61.468	-32.365	-167.012	-76.539	76.735	124.153	99.948	-118.646	70.167	-101.984	-29.562	0.0005506	0.0028273	0.00046314	839.86	2.8988e-05	1.5483e-05	812.69	172.81	2.255e-05	2.2064e-05	225.13	72.334	40.898	14.526	2.0019e-05	35.356	0.017186	0.017689	0.0048664	1488.7	0.0001987	0.00019434	1421.6	347.65	0.00019664	0.00019172	497.01	174.23	167.5	44.544	0.00018631	78.042	-165.961	-133.372	129.275	-160.894	-115.120	138.129	-161.619	-155.416	-17.429	88.320	-156.167	-150.274	-149.896	-143.212	-45.798	-144.909	-8191	255	
8032.782	1	1	0	0	0.17515	0.26542	0.20553	0.17963	0.0348	0.22452	0.44722	0.057384	0.16201	0.18952	0.25506	0.33367	0.16018	0.16688	0.11238	0.078052	-0.020833	0.18125	-0.60625	-0.085417	-0.11667	-0.73542	-0.0125	-0.6625	-0.50625	0.21042	-0.92292	-0.079167	-0.19167	-0.825	0.097917	-0.68958	-66.286	-84.742	52.326	-134.814	62.195	53.127	-7.936	-156.707	-104.392	46.047	-23.818	-117.504	-111.362	109.231	-86.776	-74.016	0.00034908	0.0041635	0.00060099	834.64	1.6895e-05	1.965e-05	811	172.4	3.4956e-05	1.0731e-05	225.69	72.212	40.537	14.634	1.5715e-05	35.21	0.016393	0.016915	0.0047381	1466.5	0.00018717	0.00018466	1401.1	340.55	0.00018625	0.00018448	494.46	172.25	163.02	43.896	0.00018979	78.219	-127.924	4.460	-131.081	-160.943	-16.887	-94.626	-161.237	-155.519	-102.988	1.414	-156.000	-149.758	-149.023	-143.347	104.455	-144.329	-8191	255	
8032.878	1	1	0	0	0.22253	0.051303	0.1403	0.36264	0.11518	0.15418	0.11242	0.21419	0.16262	0.19439	0.20794	0.2234	0.16287	0.093962	0.09148	0.20828	-0.064583	0.24583	-0.70208	-0.43125	0.0041667	-0.87292	-0.23542	-0.48958	-0.84792	0.11458	-0.78125	-0.51042	-0.020833	-0.70625	0.19375	-0.42083	150.491	139.538	-107.431	146.352	55.829	-3.272	103.309	-159.465	51.222	-127.219	-30.505	131.441	92.415	-149.368	132.828	83.198	0.00082334	0.0031855	0.00070993	843.89	5.446e-06	2.3278e-05	807.88	173.34	3.3502e-05	1.4853e-05	225.63	72.408	40.618	14.715	1.3224e-05	34.517	0.016351	0.017017	0.0049324	1484.8	0.00019094	0.00019067	1449.1	348.35	0.00019378	0.00019254	516.49	176.29	169.44	45.759	0.00020526	79.919	129.684	-60.426	-117.587	-160.809	-6.828	71.489	-161.018	-155.197	-90.516	119.950	-155.931	-149.986	-150.328	-143.796	-133.984	-144.617	-8191	255	
8032.975	1	1	0	0	0.19215	0.23101	0.20763	0.24936	0.12643	0.13149	0.25292	0.31625	0.24064	0.0072225	0.17914	0.066943	0.11397	0.26017	0.42213	0.24285	-0.18958	0.0375	-0.56875	-0.52917	-0.16875	-0.75833	-0.22083	-0.42917	-0.74583	0.13958	-0.70417	-0.51458	0.13542	-0.96875	0.014583	-0.3	166.341	58.553	146.083	77.308	-171.525	-98.782	113.442	163.031	147.106	3.636	54.945	137.778	-72.441	103.325	103.146	113.324	0.00051909	0.00039122	0.00068407	849.58	1.6733e-05	1.9483e-05	812.03	174.2	9.411e-06	2.0208e-05	226.47	72.92	41.544	14.958	1.1574e-05	34.697	0.017248	0.018122	0.0053482	1521.5	0.00019949	0.00020186	1492.7	353.99	0.00020055	0.00020184	531.2	177.82	171.28	46.942	0.00021107	79.742	159.582	181.598	-147.461	-160.751	-171.370	185.686	-161.221	-155.492	-140.033	171.879	-155.798	-149.682	-149.531	-143.170	-49.266	-144.054	-8191	255	
8033.071	1	1	0	0	0.28035	0.22044	0.092218	0.37869	0.072446	0.10159	0.28022	0.21934	0.23448	0.12022	0.173	0.15322	0.17771	0.18135	0.23245	0.1869	-0.43125	0.12917	-0.51042	-0.68333	0.020833	-0.90833	-0.17083	-0.33542	-0.95625	0.0083333	-0.59792	-0.55625	0.075	-0.74792	-0.2625	-0.2375	-99.000	-140.540	-22.414	93.521	-54.832	110.231	101.185	-22.918	-74.753	-97.161	57.433	166.424	-42.875	-5.175	-57.923	-159.679	0.00084947	0.0018244	0.00099646	850.53	2.0495e-05	3.0178e-05	817.51	175.99	2.5947e-05	3.8674e-05	228.17	72.354	41.396	14.948	2.773e-05	35.35	0.01726	0.018481	0.0053417	1505.2	0.00019729	0.00020581	1495.5	352.57	0.00019986	0.00020773	534.47	178.88	173.68	48.431	0.0002135	80.759	-99.314	148.422	55.414	-160.531	-53.590	127.596	-161.092	-155.373	-21.598	-108.886	-155.580	-149.688	-151.208	-142.842	-84.709	-143.519	-8191	255	
8033.167	1	1	0	0	0.28205	0.05196	0.10816	0.057075	0.30104	0.16104	0.096713	0.29475	0.28158	0.11785	0.25969	0.13209	0.21069	0.27703	0.50815	0.094431	-0.44375	0.28125	-0.36458	-0.98542	-0.091667	-0.76042	-0.225	-0.3	-0.67292	-0.070833	-0.41667	-0.72083	0.19167	-0.53958	-0.37708	0	-80.867	11.370	27.463	-3.867	105.440	-76.264	78.176	121.438	120.388	-125.115	100.582	-29.996	85.352	-152.852	145.349	4.078	0.00015799	0.0018866	0.00085639	853.51	1.2835e-05	9.0238e-06	819.84	176.51	2.5372e-05	9.3205e-06	227.04	72.089	40.652	14.435	2.7211e-05	35.104	0.017515	0.019488	0.0054436	1520	0.00020114	0.00021438	1504.6	354.49	0.00020323	0.00021527	530.29	177.45	173.56	48.762	0.00021047	79.674	-11.763	-145.170	43.734	-160.677	-87.225	56.856	-161.192	-155.282	103.056	42.007	-155.349	-149.362	-150.815	-142.435	-42.298	-143.969	-8191	255	
8033.287	1	1	0	0	0.071481	0.15826	0.20284	0.2319	0.31906	0.080847	0.28863	0.27405	0.10488	0.037013	0.19928	0.15186	0.05361	0.079875	0.15643	0.11843	-0.49375	0.033333	-0.26667	-0.91875	0.10417	-0.6	-0.56458	0.0125	-0.75625	-0.10625	-0.35417	-0.71875	-0.064583	-0.625	-0.39167	-0.077083	-158.350	157.051	-71.657	156.319	36.307	-74.579	127.597	105.229	69.254	184.019	-158.052	-158.646	115.579	140.261	60.636	121.136	0.0014632	0.00093517	0.0003927	852.14	1.9892e-05	2.6935e-05	805.98	175.19	6.9704e-06	4.0349e-05	226.5	72.261	40.477	14.879	2.6155e-05	35.246	0.017644	0.019823	0.0053771	1517.6	0.00020522	0.00021836	1490.3	353.07	0.00020746	0.00022058	529.1	178.79	179.81	49.921	0.00021328	81.02	67.242	181.756	-53.817	-160.549	-48.285	177.951	-160.774	-155.299	167.101	-1.839	-155.459	-149.573	-151.387	-142.503	41.715	-144.402	-8191	255	
8033.382	1	1	0	0	0.053555	0.015551	0.23565	0.19808	0.13715	0.26496	0.2584	0.12558	0.25319	0.055642	0.18048	0.31339	0.33684	0.46871	0.060601	0.21319	-0.33958	-0.26875	-0.18333	-0.83542	-0.014583	-0.59583	-0.63125	0.14583	-0.67083	-0.24167	-0.13125	-0.92292	0.091667	-0.52292	-0.73125	-0.089583	-128.370	-50.573	139.837	91.852	46.099	-35.918	-157.754	45.345	-115.768	-54.234	14.113	180.869	106.618	-7.573	-10.708	-165.384	0.0010544	0.0042125	0.0011285	846.66	2.3394e-05	1.1223e-05	814.92	176.32	3.0832e-05	2.6045e-05	233.19	73.056	41.21	15.449	2.3313e-05	35.758	0.018564	0.020522	0.0054733	1538.3	0.0002191	0.00022863	1521.9	364.07	0.00022475	0.0002304	545.54	185.51	190.22	51.43	0.00022003	83.389	134.694	24.968	-11.029	-160.570	-172.869	-74.478	-160.923	-155.149	-149.194	45.653	-154.915	-149.850	-150.644	-142.041	-156.018	-144.009	-8191	255	
8033.478	1	1	0	0	0.06465	0.12952	0.10987	0.072254	0.054444	0.31943	0.29824	0.37375	0.16151	0.082457	0.16407	0.15267	0.33415	0.20127	0.046268	0.075189	-0.39375	-0.32083	0.047917	-0.94375	0.1125	-0.44167	-0.67917	0.047917	-0.59167	-0.34792	0.04375	-0.77292	-0.16667	-0.35417	-0.6875	0.0020833	-49.710	45.435	79.631	-90.831	-73.593	-134.459	92.114	-127.129	47.582	-37.429	-152.070	65.923	117.087	9.053	50.889	67.720	0.0011523	0.0019386	0.00028384	840.57	2.8858e-05	4.7755e-05	811.66	176.72	3.9479e-05	6.284e-06	232.41	75.382	42.037	15.859	2.8681e-05	36.619	0.019681	0.020866	0.0055949	1556.5	0.00022932	0.00022793	1527.3	368.56	0.00023176	0.00023019	549.93	190.37	195.62	51.864	0.00022321	85.705	135.968	-67.963	183.669	-160.758	125.757	-12.289	-160.988	-155.225	-170.432	1.353	-155.694	-150.439	-149.192	-143.537	-142.028	-144.742	-8191	255	
8033.574	1	1	0	0	0.29482	0.48935	0.16121	0.087012	0.1222	0.1874	0.32963	0.11086	0.18004	0.19376	0.14263	0.10201	0.11584	0.10806	0.11671	0.23331	-0.17083	-0.3125	0.13958	-0.92083	-0.15833	-0.32083	-0.80417	-0.016667	-0.525	-0.52917	0.070833	-0.7625	-0.32708	-0.13125	-0.72917	-0.016667	-110.259	158.740	-10.493	17.499	-167.201	153.046	134.566	172.485	-144.151	78.485	-86.183	-135.273	-140.188	5.593	-43.735	-150.207	0.00090966	0.0022225	0.0010513	834.77	7.3444e-06	6.682e-06	813.37	176.91	1.143e-05	1.2322e-05	234.72	77.017	43.28	15.747	3.6274e-06	36.181	0.02024	0.021007	0.0056758	1580.3	0.00023627	0.00023148	1540.2	376.55	0.00023724	0.0002316	556.69	196.82	199.38	52.178	0.00022541	87.254	159.705	-95.601	110.054	-160.616	142.768	103.468	-160.742	-155.413	119.922	-18.543	-155.440	-150.444	-150.293	-142.814	-28.143	-144.531	-8191	255	
8033.670	1	1	0	0	0.035054	0.29969	0.070273	0.30897	0.18037	0.17841	0.21044	0.18214	0.059679	0.18652	0.051287	0.39467	0.079282	0.14123	0.26121	0.30551	-0.16875	-0.38333	0.19375	-0.80208	-0.24167	0.020833	-0.93125	-0.054167	-0.3875	-0.53125	0.041667	-0.90833	-0.425	-0.0041667	-0.84792	-0.32292	90.599	-158.711	-138.788	186.220	83.306	-16.406	171.316	126.959	30.406	92.229	-39.454	121.918	144.107	73.962	14.528	-142.601	0.00045063	0.0019874	0.00079064	828.61	1.5649e-05	3.5277e-05	803.98	174.71	2.3832e-05	2.4895e-05	236.52	78.815	44.757	16.104	7.9037e-06	37.211	0.020362	0.021005	0.005697	1588	0.00023349	0.00022849	1535.8	381.96	0.00023586	0.0002313	558.55	200.03	197.26	51.913	0.00022448	88.401	149.045	39.916	-172.975	-160.761	120.480	55.882	-160.976	-155.469	28.201	-167.810	-155.382	-149.866	-149.871	-143.384	55.653	-145.352	-8191	255	
8033.766	1	1	0	0	0.13642	0.087314	0.27377	0.42281	0.087411	0.096293	0.057468	0.43178	0.14339	0.038213	0.13825	0.12556	0.086819	0.23727	0.127	0.12174	0.079167	-0.76875	0.16042	-1.0708	-0.42292	0.0625	-0.8375	0.0020833	-0.33958	-0.67917	-0.0020833	-0.65833	-0.4	0.14583	-0.92917	-0.18125	-128.921	69.051	-17.142	150.051	-164.767	-21.303	70.363	144.247	-87.055	140.976	-136.723	-43.820	-157.296	184.571	84.863	129.110	0.00028106	0.0018457	0.00044741	832.91	2.196e-05	2.4265e-05	808.19	180.06	1.3074e-05	2.1503e-05	239.68	80.934	46.268	16.342	7.2718e-06	37.724	0.01973	0.020508	0.0056349	1596.4	0.000229	0.00022443	1539.9	385.35	0.00022988	0.00022892	567.39	203.75	198.14	52.445	0.00023096	90.018	-140.670	-169.061	-32.648	-160.198	-3.563	-0.125	-160.668	-155.351	16.919	-41.423	-155.853	-149.709	-149.299	-143.279	99.030	-144.364	-8191	255	
8033.887	1	1	0	0	0.099735	0.16059	0.13155	0.22033	0.19007	0.1858	0.17348	0.073152	0.28383	0.064568	0.22755	0.094592	0.14617	0.17544	0.14896	0.21113	0.40208	-0.82708	0.17917	-0.575	-0.69583	0.0375	-0.87083	-0.37917	-0.22292	-0.73333	-0.0125	-0.60208	-0.725	0.070833	-0.5375	-0.23125	57.680	-86.854	185.308	-164.406	-157.467	103.595	40.542	70.729	-76.029	-133.823	59.911	-166.696	44.421	106.976	43.239	170.267	0.0010974	0.0028535	0.00066498	827.82	2.5843e-06	2.7828e-05	812.42	177.62	4.2348e-05	1.6013e-05	237.21	79.509	44.309	16.058	8.2826e-06	36.812	0.019938	0.02088	0.0058706	1610.6	0.00022951	0.00022612	1564	384.86	0.00022575	0.00022557	566.22	199.29	191.84	51.177	0.00023057	87.847	116.400	6.026	-150.763	-160.128	173.422	-9.396	-160.710	-155.123	-141.706	27.281	-155.312	-149.607	-149.750	-144.167	-146.223	-144.546	-8191	255	
8033.983	1	1	0	0	0.080934	0.37602	0.057318	0.31622	0.22029	0.077708	0.13001	0.092293	0.089151	0.29825	0.094969	0.14321	0.095588	0.29003	0.22899	0.065105	0.47083	-0.75625	0.066667	-0.54167	-0.62083	0.075	-0.94167	-0.26042	-0.175	-0.80208	-0.041667	-0.41875	-0.80208	0.077083	-0.64792	-0.54375	-100.909	55.556	-97.101	140.042	-127.481	1.027	158.546	-47.614	79.161	123.178	-45.481	100.373	77.380	-80.462	-17.015	120.859	0.00064578	0.0019764	0.0015712	825.64	2.2352e-05	5.0809e-06	802.93	175.1	2.5015e-05	1.5657e-05	234.87	77.777	42.737	15.678	2.214e-05	36.347	0.019266	0.020431	0.0058832	1579.9	0.00022413	0.00022273	1555.8	376.55	0.00022114	0.00022283	562.79	192.71	186.39	49.863	0.00022565	84.896	132.551	80.028	-167.618	-160.021	122.778	-106.601	-160.879	-154.611	-62.038	-169.376	-154.843	-149.198	-150.789	-143.911	159.603	-143.579	-8191	255	
8034.079	1	1	0	0	0.075189	0.08124	0.34497	0.091923	0.3264	0.17282	0.07458	0.33805	0.047958	0.19368	0.11605	0.071741	0.11378	0.047854	0.2817	0.29464	0.35208	-0.84167	-0.14375	-0.29583	-0.72292	0.15208	-0.66458	-0.3875	0.18125	-0.74583	-0.15	-0.30417	-0.69583	0.24583	-0.4875	-0.67708	-146.612	22.550	21.698	-109.473	-167.348	22.119	-85.972	-172.145	-110.190	96.800	180.754	53.129	99.810	20.946	23.581	106.747	0.00086542	0.0036355	0.00078037	820.98	6.0224e-06	2.6812e-05	799.87	175.57	1.567e-05	1.0421e-05	233.8	76.721	42.907	15.752	2.5724e-05	36.231	0.018421	0.019727	0.0056773	1522.8	0.0002117	0.00021473	1525.3	364.46	0.00021158	0.00021942	556.46	188.12	183.4	50.285	0.00022496	84.293	118.817	85.289	-3.669	-160.482	-132.724	155.602	-160.622	-154.769	-25.013	-64.950	-154.917	-149.065	-150.369	-142.785	-77.984	-143.866	-8191	255	
8034.176	1	1	0	0	0.17498	0.17685	0.10627	0.079735	0.073763	0.10141	0.15837	0.18954	0.040661	0.20462	0.19468	0.060059	0.10133	0.30537	0.28701	0.0043748	0.44583	-0.82292	-0.13958	-0.1625	-0.92708	0.083333	-0.77708	-0.72708	-0.0083333	-0.82917	-0.29375	0.04375	-0.68333	0.11458	-0.31875	-0.74375	-60.396	60.967	13.787	109.010	-78.140	-1.031	133.744	-121.360	-164.715	10.475	-149.121	-60.099	-145.549	61.659	175.662	46.277	0.0016162	0.0041989	0.0004918	829.58	1.769e-05	2.3108e-05	808.97	175.51	1.9919e-05	4.6195e-05	230.52	75.687	41.664	15.226	5.0137e-05	36.362	0.018349	0.02025	0.0057184	1534.1	0.00021243	0.00022098	1526.3	363.09	0.00021108	0.00022289	549.06	185.27	180.69	50.403	0.00021909	82.836	184.179	-172.157	-24.306	-159.656	-155.210	-100.218	-160.118	-155.172	-84.601	-116.539	-154.981	-148.922	-149.712	-143.289	11.330	-143.692	-8191	255	
8034.247	1	1	0	0	0.21162	0.045623	0.31331	0.1614	0.027991	0.17178	0.34166	0.1399	0.12063	0.14378	0.059832	0.14487	0.18723	0.087568	0.052377	0.31146	0.43958	-0.63542	-0.28542	-0.12083	-0.68333	-0.1375	-0.35625	-0.7	0.1	-0.67292	-0.4625	-0.052083	-0.81667	-0.11042	-0.21042	-0.8875	47.052	132.134	-128.894	96.762	119.439	-170.082	162.108	151.993	93.522	178.620	81.968	25.265	-49.068	144.779	130.689	63.862	0.0001953	0.001146	0.00025459	841.79	1.7897e-05	2.0775e-05	808.33	175.42	2.7121e-05	1.8655e-05	231.1	74.65	41.331	15.003	5.1401e-06	35.599	0.018155	0.020361	0.0055819	1527.9	0.00021128	0.00022366	1515.2	360.71	0.00021123	0.00022556	543.46	183.55	182.56	50.853	0.00021758	82.644	96.437	-114.126	50.306	-159.897	-159.110	-99.229	-160.284	-155.031	178.747	-69.387	-155.226	-148.376	-150.926	-142.723	-32.749	-144.165	-8191	255	
8034.366	1	1	0	0	0.15172	0.13929	0.27224	0.14655	0.119	0.27515	0.33837	0.36014	0.25859	0.31994	0.29442	0.25611	0.23627	0.59933	0.24366	0.17625	0.37917	-0.55625	-0.425	0.19792	-0.8625	-0.1125	-0.15625	-0.70833	0.0083333	-0.53958	-0.47292	0.058333	-0.84792	-0.26667	-0.15	-1.0187	71.715	-89.418	6.166	168.000	92.351	106.593	84.707	159.956	-146.497	80.491	150.867	165.477	87.937	141.752	39.744	86.729	0.0014538	0.002873	0.00077005	831.45	3.7409e-05	4.1745e-05	805.5	174.81	1.9e-05	7.7639e-06	229.65	73.601	41.998	15.276	2.0075e-05	36.138	0.018544	0.020714	0.0055394	1524.3	0.00021673	0.00022653	1507.8	360.21	0.00021713	0.00022611	539.17	182.68	185.71	50.659	0.00021435	82.413	100.810	-101.241	-13.292	-160.055	-167.649	-90.818	-160.801	-154.829	179.672	-23.346	-154.731	-149.437	-150.503	-142.443	58.067	-143.923	-8191	255	
8034.462	1	1	0	0	0.25573	0.16986	0.29163	0.25769	0.076843	0.20455	0.37692	0.46423	0.13589	0.18469	0.15499	0.18888	0.097927	0.30811	0.18903	0.10745	0.475	-0.26458	-0.71042	-0.10417	-0.67292	-0.25625	-0.13125	-0.88958	0.08125	-0.3625	-0.64375	0.20417	-0.73542	-0.08125	0.083333	-1.0542	-95.371	-78.682	168.865	85.292	145.741	-80.030	124.668	151.168	-46.629	65.846	-152.654	72.232	-40.737	174.630	49.421	143.086	0.0013614	0.0023421	0.00071332	841.9	5.5686e-05	2.2573e-05	803.99	176.04	8.914e-06	1.9459e-05	231.01	75.524	40.88	15.609	1.1552e-05	36.161	0.018965	0.020549	0.0055089	1526.9	0.00022197	0.00022443	1500.9	361.35	0.00022241	0.00022459	539.46	184.63	190.41	50.93	0.00021493	83.898	125.263	24.319	-117.374	-159.755	-92.672	80.810	-159.886	-154.960	17.501	49.613	-155.185	-150.042	-150.228	-143.178	-19.100	-143.996	-8191	255	
8034.558	1	1	0	0	0.1427	0.29656	0.06422	0.2909	0.12194	0.27061	0.14433	0.27109	0.18508	0.092105	0.083777	0.10102	0.4095	0.11237	0.28993	0.088394	0.50208	-0.34792	-0.91875	0.1	-0.83542	-0.48958	-0.11458	-0.81875	0.0020833	-0.25208	-0.75	0.06875	-0.61458	-0.3375	0.30625	-0.97708	62.097	175.339	-128.477	164.284	-83.893	112.104	151.818	73.286	-13.591	13.900	135.753	136.377	141.118	-40.545	43.327	183.128	0.0012815	0.001967	0.0009914	845.02	1.698e-05	2.5317e-05	810.98	176.09	4.6127e-05	1.5328e-05	228.96	75.088	42.311	15.39	2.3048e-05	35.796	0.019528	0.020355	0.0055216	1542.6	0.0002265	0.00022218	1501.1	364.81	0.00022487	0.00022002	538.78	186.89	192.66	50.503	0.00021484	84.749	100.755	147.303	84.560	-160.426	172.605	-38.646	-160.598	-155.184	-82.009	-122.391	-155.189	-149.649	-151.239	-142.533	-116.560	-144.208	-8191	255	
8034.655	1	1	0	0	0.15455	0.046614	0.18752	0.032682	0.34743	0.097525	0.22608	0.1327	0.045563	0.11305	0.21248	0.19729	0.32145	0.36699	0.21116	0.19381	0.20417	-0.03125	-0.76875	0.052083	-0.54792	-0.45625	-0.058333	-0.65833	-0.0625	-0.035417	-0.80208	-0.085417	-0.60625	-0.825	0.066667	-0.80208	-155.719	-126.125	178.944	6.412	185.043	39.062	105.658	-26.244	153.022	-22.645	-118.933	-109.767	161.734	95.093	112.355	114.446	7.256e-05	0.00041346	0.00044407	844.58	8.0212e-06	7.9309e-06	801.86	175.97	2.027e-05	8.414e-06	229.91	74.947	41.858	15.379	1.5201e-05	35.498	0.019708	0.020235	0.005515	1561.7	0.00022618	0.00021955	1493.4	369.78	0.00022372	0.00021741	532.62	187.65	188.61	49.676	0.00021013	84.142	113.579	150.479	-24.807	-160.895	58.453	-13.245	-160.330	-155.096	-5.000	44.690	-155.039	-148.563	-149.079	-142.645	-136.896	-143.472	-8191	255	
8034.775	1	1	0	0	0.15914	0.17088	0.14418	0.28986	0.22159	0.12005	0.044511	0.090487	0.28989	0.20526	0.16436	0.085777	0.10422	0.095638	0.13221	0.19473	0.16458	-0.1	-0.68125	-0.18125	-0.38542	-0.80833	-0.060417	-0.81875	-0.19375	0.075	-0.93958	-0.0125	-0.20833	-0.64792	0.08125	-0.74167	-154.008	-77.361	63.802	113.945	-19.661	-11.333	-67.341	-139.823	-112.236	-70.758	-85.824	71.472	130.284	159.120	-109.848	-28.686	0.00044169	0.0031233	0.00077376	806.02	2.8259e-05	2.3267e-05	773.69	168.67	2.7039e-05	1.8271e-05	222.86	72.088	42.025	15.211	1.0254e-05	35.712	0.019035	0.019449	0.0053645	1546.5	0.00021756	0.00021342	1471.1	366.37	0.00021815	0.00021216	531.25	187.46	184.39	49.262	0.00021124	84.951	-115.690	58.300	47.816	-158.896	3.216	67.118	-159.353	-154.005	-12.030	108.470	-153.769	-148.128	-148.948	-141.937	-23.267	-142.976	-8191	255	
8034.847	1	1	0	0	0.15805	0.058366	0.14014	0.25351	0.22033	0.13715	0.13716	0.30332	0.067186	0.088735	0.25591	0.10311	0.039995	0.13895	0.26235	0.043316	-0.091667	0.0875	-0.72292	-0.05625	-0.34375	-0.61458	-0.05	-0.71042	-0.56042	0.09375	-0.92292	-0.11458	-0.09375	-0.75417	0.0875	-0.56667	66.602	178.448	26.751	-143.222	122.732	170.705	-5.889	97.784	71.550	177.930	72.463	32.169	67.493	116.224	-115.870	89.970	0.00038887	0.0058472	0.00085533	824.03	2.5419e-05	3.4781e-05	793.74	172.89	8.6535e-06	3.2415e-06	229.84	74.064	43.232	15.433	2.3764e-05	36.353	0.01855	0.019176	0.0053782	1551.7	0.00021151	0.00021038	1484.6	366.29	0.00021104	0.00020843	534.18	187.79	180.34	48.295	0.0002106	83.558	-34.867	-83.498	186.702	-159.393	-87.665	50.257	-160.309	-154.405	62.150	-54.130	-154.434	-148.855	-149.510	-143.219	-132.133	-143.378	-8191	255	
8034.967	1	1	0	0	0.19711	0.22593	0.40477	0.23416	0.080219	0.052126	0.27378	0.316	0.25811	0.023722	0.06277	0.13195	0.24215	0.048105	0.19292	0.31205	-0.20417	0.054167	-0.7125	-0.30833	-0.1	-0.89375	-0.0041667	-0.425	-0.72083	0.34375	-0.72917	-0.28333	-0.066667	-0.73333	-0.033333	-0.63958	-12.563	-36.722	-107.303	126.790	19.830	143.657	137.403	153.324	-64.171	186.788	113.818	89.018	-91.552	72.120	-107.061	17.745	0.00088407	0.0016705	0.00088504	826.39	1.2413e-05	1.2568e-05	801.28	175.24	2.6682e-05	1.4578e-05	229.06	74.164	41.568	15.283	2.426e-05	35.771	0.017872	0.018495	0.0053195	1518.5	0.00020145	0.00020112	1473.2	356.6	0.00020099	0.00019911	527.82	180.83	172.73	46.862	0.00020737	80.746	139.896	-105.421	-160.520	-159.749	-70.668	167.741	-159.575	-153.844	-144.375	178.872	-155.632	-149.272	-147.716	-143.504	149.297	-143.719	-8191	255	
8035.064	1	1	0	0	0.17381	0.27632	0.090885	0.076153	0.15945	0.06352	0.39092	0.26103	0.19009	0.079179	0.14559	0.016545	0.25249	0.19594	0.13302	0.24681	-0.59792	0.10208	-0.71667	-0.52292	0.19375	-0.63333	-0.26875	-0.66458	-0.7125	-0.029167	-0.76042	-0.42292	0.0125	-0.77917	0.13542	-0.26667	91.126	-149.020	-141.804	-12.420	103.724	11.239	21.383	165.675	100.767	-82.330	141.086	109.362	-9.757	-50.530	107.452	-135.515	0.00081598	0.00080779	0.00028767	834.23	1.9728e-05	2.5363e-05	796.37	172.89	2.0372e-05	1.0133e-05	227.09	74.831	42.031	15.33	1.4467e-05	35.723	0.017086	0.018056	0.0052822	1495.3	0.0001969	0.000201	1472.7	351.93	0.00019951	0.00020214	529.93	179.37	171.84	47.391	0.00020899	80.083	144.694	-18.365	-123.035	-159.832	42.876	94.911	-159.902	-154.568	-33.791	-165.085	-155.028	-149.732	-148.897	-142.656	-28.147	-143.383	-8191	255	
8035.160	1	1	0	0	0.093503	0.21894	0.11715	0.047426	0.032238	0.14534	0.19822	0.097396	0.064773	0.098917	0.32166	0.19944	0.16295	0.27478	0.22282	0.12428	-0.30833	0.091667	-0.3	-0.5875	0.0375	-0.86458	-0.30833	-0.033333	-0.91042	-0.027083	-0.56875	-0.73333	0.27292	-0.94583	-0.24583	-0.28958	-110.414	19.680	15.923	-91.746	-52.395	-66.269	-122.086	155.042	158.503	-41.595	-128.562	-160.909	113.347	-26.354	144.563	-20.419	0.00055857	0.0025286	0.00056166	837.54	2.2576e-05	1.7576e-05	804.46	174.98	5.0616e-06	4.8192e-05	231.32	75.925	42.644	15.572	3.2714e-05	36.414	0.016975	0.018304	0.0052897	1483.5	0.0001944	0.00020289	1473.1	348.51	0.00019539	0.00020356	526.96	178.3	171.1	48.256	0.00020709	80.147	174.685	-64.310	-71.603	-160.426	-137.595	-122.845	-160.215	-154.056	73.622	-140.119	-154.465	-149.291	-148.918	-142.563	39.047	-143.635	-8191	255	
8035.256	1	1	0	0	0.27135	0.2519	0.17058	0.17543	0.17728	0.065308	0.3687	0.02243	0.26685	0.052002	0.24546	0.029212	0.14281	0.28864	0.076502	0.26036	-0.46667	-0.041667	-0.31875	-0.93125	0.091667	-0.65208	-0.40208	-0.08125	-0.91667	0.027083	-0.40208	-0.77917	0.04375	-0.69375	-0.44583	-0.070833	63.675	-166.590	-96.592	110.950	184.810	40.564	138.229	-122.527	40.851	-21.958	-127.298	-133.207	154.170	158.739	-46.049	69.092	0.0009035	0.0054527	0.0010279	836.93	1.9404e-05	1.8732e-05	806.81	174.93	1.288e-05	2.2654e-05	230.2	74.932	42.137	15.403	2.4448e-05	36.064	0.017056	0.018879	0.0052752	1481.8	0.00019588	0.00020751	1468.5	347.09	0.00019754	0.00020954	523.78	177.45	171.66	48.649	0.00020578	79.78	148.541	171.086	-2.701	-159.952	166.067	72.184	-160.115	-154.258	71.625	-131.005	-153.899	-149.020	-150.344	-142.174	0.056	-143.076	-8191	255	
8035.375	1	1	0	0	0.14149	0.078342	0.29748	0.21527	0.20593	0.06272	0.33275	0.15176	0.20848	0.16003	0.078849	0.15341	0.23986	0.20319	0.15817	0.13082	-0.44375	-0.029167	-0.3125	-0.91667	0.11458	-0.80417	-0.72292	0.020833	-0.81042	-0.28333	-0.37708	-0.89792	0.18125	-0.69375	-0.43542	-0.14792	110.566	-130.981	140.722	174.906	79.386	15.392	59.625	109.490	-149.161	180.914	-34.848	153.620	-137.076	-29.427	-68.508	112.567	0.0010682	0.0023492	0.00024256	839.36	2.3139e-05	7.3185e-06	809.82	175.35	3.6356e-05	3.4175e-05	227.33	73.286	41.811	15.179	2.3215e-05	35.836	0.017383	0.019374	0.0052454	1493.7	0.00020188	0.00021439	1470.3	349.3	0.00020369	0.00021398	519.73	176.17	175.25	48.663	0.0002032	79.101	101.963	-128.625	31.751	-159.782	-137.482	-89.795	-159.804	-154.654	159.002	-48.341	-154.567	-149.096	-150.309	-142.637	10.010	-143.481	-8191	255	
8035.471	1	1	0	0	0.095819	0.12321	0.12451	0.15115	0.16155	0.17944	0.10148	0.17852	0.13446	0.23038	0.1426	0.19392	0.11969	0.069825	0.12926	0.10289	-0.36875	-0.25625	-0.033333	-0.92292	-0.035417	-0.77292	-0.89583	0.0375	-0.85833	-0.27292	-0.175	-0.84375	0.03125	-0.61458	-0.71875	0	-145.938	45.835	134.797	-20.380	-111.000	163.922	160.799	122.143	-8.907	29.632	110.189	16.497	-7.018	-43.359	170.064	115.026	0.00095155	0.0050961	0.00021934	826.16	3.0944e-05	4.3837e-05	787.23	171.7	3.2553e-05	1.9202e-05	227.36	73.905	40.967	15.446	2.5014e-05	35.729	0.017733	0.019324	0.0051308	1472.7	0.00020355	0.00021024	1444.2	343.59	0.00020513	0.00020813	512.47	175.71	176.99	48.01	0.00019949	78.992	90.736	-57.075	-46.908	-159.357	-100.385	51.678	-160.186	-154.573	154.499	-17.242	-154.462	-148.830	-150.850	-142.190	58.841	-143.721	-8191	255	
8035.543	1	1	0	0	0.045456	0.12195	0.17381	0.044634	0.11069	0.11838	0.16269	0.26078	0.048569	0.13969	0.19064	0.12084	0.14108	0.092787	0.21659	0.19274	-0.42083	-0.17917	-0.01875	-0.94792	0.18125	-0.30417	-0.91458	-0.13333	-0.74583	-0.43958	-0.03125	-0.92708	-0.091667	-0.17083	-0.7875	0.039583	185.659	66.017	40.975	91.794	-116.916	-8.624	162.651	101.777	-83.874	110.812	156.546	75.404	-136.570	-139.869	130.291	175.177	0.0012095	0.0013852	7.1779e-05	825.6	1.1717e-05	1.8663e-05	793.25	172.02	1.8611e-05	2.6696e-05	229.56	74.031	42.075	15.465	1.6587e-05	35.914	0.017893	0.019029	0.0050873	1477.6	0.00020799	0.00020659	1444.7	347.1	0.00020998	0.00020833	515.64	178.09	180.51	48.058	0.00020167	80.329	110.791	-2.362	-45.673	-159.855	107.069	-159.472	-160.044	-154.316	31.816	134.568	-153.810	-149.515	-149.494	-141.982	173.122	-144.053	-8191	255	
8035.663	1	1	0	0	0.23527	0.045009	0.092198	0.21464	0.31545	0.11403	0.12132	0.17726	0.13791	0.076344	0.22519	0.35296	0.3026	0.10264	0.14051	0.16586	-0.33958	-0.40417	0.033333	-0.96042	-0.19583	-0.23125	-0.98958	-0.079167	-0.59375	-0.475	-0.0875	-1.0375	-0.32083	-0.12083	-0.85208	-0.075	15.921	23.630	92.350	-155.691	162.695	-137.361	81.636	176.881	-168.029	-44.260	138.826	155.892	-150.962	-69.430	-11.861	-155.198	0.000966	0.0026362	0.00031471	829.77	1.2971e-05	1.3293e-05	802.34	172.02	9.5498e-06	4.2595e-05	225.75	74.829	42.491	15.398	2.8158e-05	35.642	0.01829	0.018911	0.0050956	1496.4	0.00021201	0.00020608	1454.6	352.89	0.0002127	0.00020831	515.77	182.14	182.39	47.778	0.00020186	81.345	161.484	106.528	-114.597	-159.776	111.371	67.493	-160.254	-154.372	-6.449	-9.515	-154.224	-149.567	-149.813	-142.041	-127.112	-143.583	-8191	255	
8035.759	1	1	0	0	0.13183	0.1184	0.14671	0.1207	0.050524	0.216	0.20233	0.11488	0.14134	0.1021	0.014936	0.27011	0.10827	0.089315	0.17039	0.085025	-0.29792	-0.63958	0.15625	-0.87708	-0.34167	-0.075	-1.1417	-0.039583	-0.64792	-0.77292	0.0625	-0.8125	-0.225	0.033333	-0.83125	-0.058333	139.937	-108.450	7.594	168.366	152.125	-121.843	176.344	-115.963	107.832	-42.645	-151.887	-149.385	-54.715	22.767	1.458	143.716	0.0014977	0.0039176	0.00037664	833.18	3.7557e-05	2.4371e-05	799.71	172.77	3.2736e-05	1.0356e-05	225.61	74.066	41.801	15.151	1.8585e-05	35.667	0.018301	0.018805	0.005098	1509.8	0.00020859	0.00020327	1445.9	355.46	0.00020806	0.00020424	513.38	183.22	179.92	47.552	0.00020289	82.425	137.690	-45.803	-79.436	-160.063	57.966	29.806	-160.011	-154.834	-69.603	-61.528	-154.272	-149.397	-148.974	-141.966	102.505	-143.829	-8191	255	
8035.856	1	1	0	0	0.058915	0.086569	0.090946	0.28583	0.090869	0.12748	0.029806	0.16257	0.32533	0.40837	0.23405	0.17035	0.068965	0.24016	0.18682	0.17626	0.085417	-0.74583	0.2	-0.8	-0.41875	-0.16667	-1.1604	-0.085417	-0.2875	-0.83958	-0.072917	-0.6625	-0.57292	-0.0625	-0.76667	-0.21667	-98.700	-71.892	-64.030	154.047	97.697	-91.281	129.412	97.113	69.287	-12.899	97.558	173.506	-60.312	73.569	-100.029	-154.258	0.00037001	0.0028038	0.00027289	834.92	3.3427e-05	2.8606e-05	800.8	174.99	2.7658e-05	1.6753e-05	228.48	74.158	41.889	15.34	3.8381e-05	35.596	0.0181	0.018975	0.0052384	1542.5	0.00021216	0.00020851	1479.5	367.59	0.00021362	0.0002126	534.45	190.01	184.65	48.94	0.00021605	84.843	133.171	101.557	116.924	-159.238	33.080	115.504	-160.029	-154.581	19.431	27.155	-154.725	-148.997	-150.585	-142.715	36.278	-143.874	-8191	255	
8035.952	1	1	0	0	0.11093	0.10218	0.12718	0.2233	0.08984	0.09411	0.13484	0.28674	0.1816	0.28405	0.24979	0.32578	0.081912	0.32203	0.2204	0.20328	0.22292	-0.82708	-0.0020833	-0.63333	-0.60208	0.11875	-1.0042	-0.3875	-0.17708	-0.90625	-0.027083	-0.59583	-0.55417	-0.09375	-0.94375	-0.1625	10.460	-123.831	-27.948	88.024	-106.629	-62.379	120.017	181.250	-46.775	-34.952	51.160	-149.808	31.486	19.346	117.937	171.829	0.00063195	0.0026498	0.00021582	825.82	3.179e-05	3.6385e-05	805.23	173.69	2.4795e-05	1.2959e-05	227.8	75.092	41.631	15.175	1.5362e-05	35.699	0.018489	0.019399	0.0054916	1552.5	0.00021431	0.0002105	1506	367.59	0.00021129	0.00021165	538.54	187.73	180.74	48.002	0.000216	83.118	112.219	-138.378	122.673	-159.741	-57.522	49.519	-160.171	-154.593	-3.809	-107.151	-154.966	-148.587	-149.540	-143.094	-30.405	-143.430	-8191	255	
8036.072	1	1	0	0	0.18669	0.11655	0.12908	0.054192	0.059344	0.26249	0.19358	0.25121	0.085697	0.16819	0.17824	0.035955	0.11975	0.12625	0.12577	0.10984	0.28958	-0.67292	-0.05625	-0.41667	-0.58333	0.18958	-0.93333	-0.51458	0.11458	-0.78958	-0.21042	-0.47917	-0.8375	0.1375	-0.48542	-0.55417	88.958	-135.490	-33.624	71.182	-80.307	76.170	174.504	55.558	-39.656	-18.473	104.545	154.511	-70.848	79.762	165.324	-104.737	0.00032293	0.00077202	0.00086309	833.14	1.1034e-05	1.3726e-05	797.02	172.43	1.9009e-06	1.7849e-05	224.51	73.444	40.755	15.119	2.6502e-05	35.058	0.018023	0.019066	0.0055114	1535.6	0.00020908	0.00020881	1508.4	361.85	0.00020812	0.00021088	540.93	184.38	178.78	48.167	0.00021961	82.562	-147.590	149.767	-169.929	-159.210	-116.122	148.251	-160.013	-154.180	62.059	63.230	-154.603	-148.948	-147.646	-143.356	119.581	-143.651	-8191	255	
8036.144	1	1	0	0	0.17924	0.22878	0.2711	0.21366	0.13931	0.12269	0.21611	0.24758	0.093568	0.16704	0.11848	0.16072	0.2555	0.015307	0.181	0.19272	0.35833	-0.75833	0.022917	-0.40417	-0.725	-0.016667	-0.72708	-0.52292	0.21458	-0.975	-0.30208	-0.21875	-0.87083	0.11458	-0.72083	-0.76875	-151.908	-123.319	114.401	178.711	-40.039	27.462	103.267	183.526	-71.554	94.198	-57.026	-107.547	-168.155	-69.626	76.431	180.332	0.00047876	0.0038084	0.00040688	835.06	1.8479e-05	4.4629e-05	802.27	173.61	2.4015e-05	9.1309e-06	228.73	74.277	42.796	15.185	9.9889e-06	36.146	0.01795	0.019348	0.0056256	1531	0.00020991	0.0002137	1522	362.09	0.00020871	0.00021751	548.87	184.89	179.91	49.528	0.000221	82.716	60.046	22.045	36.705	-159.430	-35.432	-169.410	-160.512	-154.644	30.051	-38.063	-155.052	-148.869	-149.007	-143.114	13.975	-143.995	-8191	255	
8036.240	1	1	0	0	0.051505	0.15249	0.24304	0.16947	0.098684	0.19692	0.079959	0.44675	0.079101	0.28736	0.22925	0.2506	0.20141	0.35625	0.14054	0.27536	0.46875	-0.79375	-0.20208	-0.16042	-0.85208	-0.014583	-0.74792	-0.68958	-0.09375	-0.76875	-0.25208	-0.0625	-0.92083	0.047917	-0.225	-0.87708	-171.633	123.383	-67.457	-54.011	-156.754	-111.389	-39.547	100.065	173.404	-141.084	-90.728	150.856	160.118	51.984	-153.844	109.781	0.00029979	0.0018184	0.0013742	833.13	9.3034e-06	4.7851e-05	800.93	176.03	1.4023e-05	4.0454e-05	226.88	74.811	42.11	15.547	1.0522e-05	35.623	0.018038	0.020037	0.0056347	1527.9	0.00021155	0.00022148	1523.7	363.25	0.00020942	0.00022339	545.29	184.44	181.43	50.596	0.00021906	82.796	61.829	113.092	-61.948	-159.842	120.132	-119.306	-160.350	-154.144	-7.827	146.921	-154.065	-148.639	-149.436	-142.645	-50.531	-143.225	-8191	255	
8036.336	1	1	0	0	0.1461	0.11409	0.1696	0.071141	0.14699	0.26	0.32588	0.28798	0.078919	0.162	0.27132	0.12293	0.10805	0.072544	0.27858	0.22466	0.6	-0.69167	-0.48958	0	-0.77708	-0.18125	-0.30833	-0.8375	-0.039583	-0.6625	-0.70417	-0.070833	-0.58333	-0.225	-0.14375	-0.71042	90.008	-77.916	38.991	116.341	-171.464	48.207	171.313	99.410	166.857	-80.859	178.882	-93.501	-17.760	-71.172	-140.007	118.389	0.00099711	0.0031022	0.0007023	842.33	4.8243e-05	2.8444e-05	808.39	173.87	2.6697e-05	5.767e-06	227.96	74.98	42.616	15.382	3.4614e-05	35.532	0.018138	0.020434	0.0055802	1527.2	0.00021209	0.00022409	1509.5	360.96	0.00021176	0.00022667	543.16	183.31	184.63	51.118	0.00021792	82.874	108.199	161.255	-52.989	-159.521	144.501	-42.479	-159.984	-154.273	-131.170	-167.336	-155.028	-149.846	-150.844	-143.114	-26.463	-144.028	-8191	255	
8036.455	1	1	0	0	0.013841	0.069435	0.17786	0.18442	0.079361	0.24198	0.05721	0.17049	0.12075	0.092121	0.22108	0.043445	0.11684	0.20972	0.14251	0.2768	0.325	-0.54583	-0.49792	-0.022917	-0.79792	-0.35417	-0.23125	-0.79792	-0.1	-0.525	-0.88333	0.072917	-0.72917	-0.35417	-0.05625	-0.80417	9.695	20.375	35.525	-165.723	-64.662	-11.635	-96.579	70.046	-31.896	-82.705	-119.161	62.908	26.748	118.115	-137.898	125.124	0.00035026	0.0032079	0.0010097	837.21	4.3835e-05	1.6217e-05	801.11	174.6	2.1693e-05	2.796e-05	227.26	73.153	41.579	15.53	1.4335e-05	35.463	0.018755	0.020951	0.0055974	1536.9	0.00022068	0.00022817	1505.3	361.05	0.00021793	0.00022664	538.23	182.65	186.88	50.75	0.00021519	82.153	130.596	25.451	8.983	-160.394	-171.132	38.122	-160.917	-155.461	-37.624	-98.567	-155.785	-149.295	-151.262	-142.729	-36.188	-144.478	-8191	255	
8036.551	1	1	0	0	0.054904	0.3053	0.2775	0.24904	0.23153	0.1501	0.23827	0.091358	0.16302	0.022631	0.18179	0.11275	0.09541	0.18419	0.06784	0.075492	0.48542	-0.40417	-0.68125	0.1125	-0.90625	-0.22917	-0.14167	-1.0646	0.12083	-0.43125	-0.79583	0.11875	-0.73958	-0.49792	0.085417	-0.68958	-22.462	107.877	169.739	39.544	-127.290	-48.617	184.769	-32.898	-4.546	148.271	-110.519	120.448	43.174	-130.191	134.551	-146.131	0.0018699	0.0019598	0.00084386	834.65	7.8455e-06	4.1495e-05	806.69	175.24	3.7748e-05	2.812e-05	229.47	74.247	41.866	15.285	3.3807e-05	35.693	0.019052	0.02046	0.0054783	1521.9	0.00022214	0.00022286	1495.9	361.01	0.00022248	0.0002227	536.57	183.86	190.36	50.545	0.00021364	83.13	112.991	-15.652	119.945	-160.077	155.694	93.463	-161.106	-155.346	138.430	-22.660	-154.948	-149.197	-150.396	-143.000	58.084	-144.042	-8191	255	
8036.647	1	1	0	0	0.063405	0.36902	0.22501	0.077943	0.23424	0.32548	0.16875	0.45738	0.13992	0.19246	0.20932	0.20054	0.10104	0.27158	0.17034	0.019907	0.30833	-0.052083	-0.58125	-0.15833	-0.45208	-0.40625	0.11667	-0.95417	-0.2625	-0.29583	-0.76458	0.04375	-0.59375	-0.45208	0.10625	-0.78333	118.650	-40.211	-148.748	-33.911	30.409	36.022	157.011	168.950	40.773	-33.254	90.483	143.474	184.918	-97.947	71.875	-28.378	0.0014463	0.002259	0.00061691	846.89	1.9249e-05	1.4853e-05	806.75	176.55	4.0656e-05	3.0991e-05	226.72	73.466	42.88	15.452	2.1637e-05	35.905	0.019343	0.020129	0.005459	1536.5	0.00022409	0.00021906	1488.5	363.08	0.0002226	0.00021714	531.05	184.33	188.27	49.407	0.00020944	83.3	135.854	-23.542	74.018	-159.689	-15.919	84.022	-159.743	-155.299	94.606	-16.753	-154.785	-149.053	-149.472	-143.279	70.864	-143.897	-8191	255	
8036.744	1	1	0	0	0.19966	0.11228	0.17535	0.24346	0.22581	0.11931	0.05518	0.17341	0.20904	0.12659	0.24317	0.074496	0.24239	0.31832	0.30533	0.11679	0.25625	-0.14792	-0.8625	-0.125	-0.58542	-0.70417	0.21875	-0.92917	0.00625	-0.16667	-0.93125	-0.0125	-0.42292	-0.58333	-0.0125	-0.82083	-150.964	-124.743	99.370	-57.833	-13.037	-89.471	10.740	152.261	142.880	-63.651	99.288	-104.786	67.986	78.769	44.715	79.234	0.00027646	0.0034709	0.00076225	837.32	6.6057e-06	2.005e-05	805.9	175.89	2.9092e-05	9.3623e-06	226.78	73.33	41.509	15.151	6.7064e-06	35.423	0.019241	0.019644	0.0053713	1549.5	0.00022222	0.00021693	1483.6	368.51	0.00022171	0.00021495	529.81	186.91	187.32	49.114	0.00020947	84.086	-5.060	-74.209	114.347	-160.129	-21.141	-38.071	-160.160	-154.875	-23.598	159.161	-154.896	-149.505	-149.179	-142.386	87.109	-143.682	-8191	255	
8036.840	1	1	0	0	0.26606	0.06565	0.21074	0.069602	0.048541	0.11066	0.23646	0.22196	0.29044	0.083514	0.11437	0.16278	0.15703	0.30229	0.29697	0.07872	0.2125	0.083333	-0.84375	-0.064583	-0.225	-0.45208	0.075	-0.5875	-0.35208	-0.035417	-0.81042	-0.0125	-0.29167	-0.71458	0.12083	-0.58958	66.270	98.446	-117.506	104.326	-6.860	-4.496	111.001	-31.887	-47.965	-47.615	-102.810	67.949	156.131	-36.624	70.777	25.217	0.00070193	0.0024984	0.00045097	843.09	1.4824e-05	1.7311e-05	803.76	175.05	1.5619e-05	1.909e-05	225.45	73.317	41.68	15.446	2.6936e-05	35.719	0.019045	0.019541	0.0054157	1564.2	0.0002192	0.00021568	1487.8	371.76	0.00021941	0.00021455	534.81	188.73	185.06	49.113	0.00021446	85.183	87.373	-71.304	-45.861	-159.565	111.463	-85.043	-160.800	-154.549	87.093	99.547	-154.353	-148.888	-149.486	-142.286	161.993	-143.341	-8191	255	
8036.936	1	1	0	0	0.25247	0.061582	0.26005	0.27623	0.1291	0.19686	0.24957	0.073399	0.40091	0.060359	0.052573	0.33228	0.24237	0.26982	0.14169	0.18359	-0.035417	0.35833	-0.79792	-0.091667	-0.070833	-0.71667	-0.089583	-0.59792	-0.49375	0.26667	-0.63333	-0.13333	0.020833	-0.83542	0.13958	-0.475	85.915	66.294	58.848	-119.870	97.611	-1.448	98.582	66.716	-121.722	55.352	98.969	169.138	-171.670	-2.120	183.122	181.323	0.00029618	0.0012694	0.0014016	844.92	2.5426e-05	2.3158e-05	802.75	175.84	3.9836e-05	1.3694e-05	228.67	74.614	42.425	15.314	3.1519e-05	36.07	0.018774	0.019429	0.0055136	1577.3	0.00021651	0.00021478	1504.3	373.28	0.00021641	0.00021314	544.33	190.2	183.88	49.286	0.00021941	85.233	7.635	-5.867	-129.605	-160.742	-1.423	-10.522	-161.217	-155.753	-26.214	37.588	-156.062	-150.191	-150.177	-143.477	-146.263	-144.056	-8191	255	
8037.057	1	1	0	0	0.10392	0.25686	0.17419	0.19194	0.18553	0.087042	0.13562	0.17274	0.19706	0.17283	0.12226	0.17614	0.072423	0.2547	0.18367	0.16184	-0.033333	0.28333	-0.77292	-0.19375	-0.035417	-0.62917	0.0125	-0.24375	-0.70833	0.09375	-0.88125	-0.27708	0.00625	-0.7375	-0.06875	-0.40833	-140.652	77.570	-80.595	145.726	61.171	-109.915	156.600	165.620	115.935	-62.625	-67.595	-62.581	-22.451	-0.080	172.407	178.526	0.00080761	0.0016573	0.00058413	834.97	1.261e-05	2.0467e-05	809.49	174.38	3.2378e-05	7.5779e-06	227.34	73.329	42.343	15.154	6.6662e-05	35.541	0.018734	0.019547	0.0056809	1573.8	0.00021513	0.00021651	1526.8	370.03	0.00021619	0.00021514	550.93	188.82	183.91	49.636	0.00022643	84.553	-135.943	178.569	-87.447	-161.022	154.254	-149.003	-161.814	-155.348	20.004	146.492	-156.549	-150.509	-150.658	-143.774	-107.105	-144.949	-8191	255	
8037.153	1	1	0	0	0.21768	0.28034	0.19007	0.10369	0.10496	0.16104	0.14898	0.24843	0.18483	0.19898	0.24728	0.10198	0.09285	0.070213	0.089733	0.38988	-0.33542	0.022917	-0.59375	-0.66458	0.16458	-0.85208	-0.22083	-0.2875	-0.55417	0.19583	-0.63125	-0.38958	0.016667	-0.81042	-0.0041667	-0.18958	57.702	-66.655	22.088	-118.033	-21.037	-66.862	165.121	-29.085	-171.510	152.842	-167.678	18.082	-88.897	121.761	118.841	140.008	0.00023794	0.00079937	0.00093634	836.38	1.5446e-05	2.4218e-05	801.69	175.95	1.32e-05	8.1348e-06	228.3	72.815	42.296	15.146	4.8107e-05	35.179	0.01877	0.019863	0.0058265	1564.8	0.00021509	0.00022026	1542.4	369.28	0.00021892	0.00022282	561.05	189.57	186.27	51.104	0.00023591	85.236	34.541	-6.136	171.800	-161.026	-44.433	173.189	-161.827	-155.507	85.866	-100.595	-155.753	-150.249	-150.534	-144.773	15.249	-145.099	-8191	255	
8037.249	1	1	0	0	0.24099	0.13926	0.38461	0.046184	0.07452	0.076402	0.23416	0.17207	0.13902	0.056581	0.13549	0.33744	0.18198	0.44538	0.25275	0.13524	-0.39792	0.26875	-0.28333	-0.38542	0.13125	-0.46667	-0.29583	-0.125	-0.76042	0.052083	-0.5	-0.74167	0.039583	-0.65625	-0.31458	-0.1125	112.776	-40.466	-61.490	88.534	115.480	-24.045	96.504	-8.672	51.687	-141.231	-52.695	-161.952	67.560	-38.433	-112.692	-141.446	0.00052978	0.0020386	0.00019071	841.84	6.5373e-05	3.9027e-06	797.35	176.15	2.9376e-05	8.9508e-06	226.24	73.256	43.008	15.268	3.5601e-05	35.99	0.019301	0.020902	0.0059821	1583.1	0.00022218	0.00023401	1568	373.99	0.00022452	0.00023427	567.85	191.53	188.32	52.474	0.000234	85.223	169.745	-66.258	77.234	-161.161	-50.534	144.186	-161.459	-155.946	38.455	170.877	-156.146	-150.040	-151.486	-145.089	16.089	-145.106	-8191	255	
8037.368	1	1	0	0	0.073771	0.17085	0.26284	0.32572	0.1516	0.2311	0.13849	0.20029	0.072717	0.17043	0.25028	0.1784	0.22976	0.09856	0.26609	0.087922	-0.50625	0.18542	-0.3	-0.83958	0.19583	-0.55833	-0.36042	0.25417	-0.78958	-0.16667	-0.44583	-0.76667	0.05625	-0.67083	-0.43542	0.0625	-143.101	55.282	12.381	128.644	-111.111	180.316	-161.328	-120.621	91.394	-93.975	-153.137	103.337	-83.555	129.040	173.962	135.709	0.00050807	0.00050957	0.0011314	840.26	7.8634e-06	2.0342e-05	797.5	176.14	2.508e-05	1.4234e-05	231.38	73.626	41.751	15.274	1.6912e-05	35.672	0.019299	0.021507	0.0059458	1576.7	0.00022159	0.00023762	1557.7	373.12	0.00022481	0.00023782	558.86	189.09	187.88	52.556	0.00022767	84.203	150.875	48.639	-47.514	-161.209	-162.563	-118.223	-161.697	-155.510	-106.998	-168.474	-155.226	-150.058	-151.341	-144.027	116.035	-144.373	-8191	255	
8037.439	1	1	0	0	0.15998	0.23939	0.066432	0.1024	0.1932	0.17816	0.36446	0.18865	0.2345	0.14475	0.096428	0.17577	0.13712	0.041384	0.037945	0.13716	-0.42708	0.027083	-0.08125	-0.88333	-0.0041667	-0.56875	-0.52292	0.0875	-0.95	0.029167	-0.11667	-0.88542	-0.041667	-0.55625	-0.55	-0.035417	-148.277	-159.769	-130.047	-0.722	58.038	-155.480	165.192	90.783	-1.795	-34.769	179.606	-151.710	-7.979	75.435	-92.032	-14.680	0.00089821	0.0042373	0.00074962	839.09	4.3028e-05	2.2987e-05	808.67	173.54	4.2434e-05	2.5751e-05	226.46	73.146	41.162	15.143	1.6241e-05	35	0.019199	0.021353	0.005732	1554.3	0.0002195	0.00023134	1516.6	362.78	0.00022121	0.00023191	543.28	185.46	187.38	51.628	0.00022328	83.06	122.021	71.776	0.041	-161.203	-160.225	-24.556	-161.569	-155.638	-97.667	32.974	-155.540	-150.343	-152.009	-143.740	-27.396	-144.162	-8191	255	
8037.536	1	1	0	0	0.1479	0.2755	0.1155	0.19824	0.080063	0.086164	0.3469	0.1935	0.085522	0.04246	0.10574	0.16515	0.083647	0.085411	0.26406	0.23159	-0.43542	-0.25833	-0.11667	-0.77083	0.1375	-0.5875	-0.57292	0.17083	-0.63125	-0.38542	-0.052083	-0.7625	-0.095833	-0.2625	-0.72917	-0.04375	79.972	158.408	-138.740	-107.227	-62.135	-93.262	153.478	180.975	124.314	-70.899	31.973	156.867	100.680	111.970	132.633	132.815	0.00084444	0.00050412	0.0010655	828.5	3.1418e-05	1.4241e-05	789.07	172.84	9.9132e-06	1.0858e-05	225.65	73.712	40.962	15.341	1.5643e-05	36.109	0.019495	0.021147	0.0056468	1545.7	0.00022605	0.00023154	1511.5	362.41	0.00022722	0.00022928	540.02	185.7	190.9	51.141	0.00021885	83.286	113.087	-37.294	1.696	-161.087	184.834	164.669	-161.727	-156.159	-107.773	-8.487	-155.554	-150.502	-151.209	-143.090	-71.595	-144.714	-8191	255	
8037.632	1	1	0	0	0.54778	0.19636	0.1404	0.13094	0.34007	0.21514	0.23141	0.25684	0.28398	0.16187	0.074673	0.22611	0.24568	0.14952	0.23836	0.18884	-0.12292	-0.48125	0.0375	-0.675	0.039583	-0.47917	-0.75208	0.095833	-0.49792	-0.22708	0.01875	-0.84375	-0.064583	-0.097917	-0.52708	0.30625	-78.688	-153.736	16.037	69.898	8.244	-11.071	130.348	150.324	136.273	-135.197	-97.021	19.705	40.622	-6.488	-39.457	-94.922	0.00052513	0.0027951	0.00021618	827.95	3.3327e-05	2.3526e-05	799.36	175.72	5.5e-05	3.0263e-05	232.21	75.872	42.116	15.402	3.1173e-05	36.481	0.019628	0.02072	0.0055538	1540.4	0.0002292	0.00022738	1511.2	367.58	0.00023184	0.00022932	547.22	191.19	197.65	51.76	0.00022462	86.261	113.617	-156.824	-78.683	-161.585	-72.665	59.125	-161.635	-156.048	28.085	46.077	-156.189	-150.163	-152.018	-142.960	37.379	-145.758	-8191	255	
8037.752	1	1	0	0	0.20325	0.38503	0.076563	0.1057	0.33718	0.15618	0.10878	0.1152	0.18705	0.35244	0.070498	0.077257	0.22164	0.16013	0.050155	0.24463	-0.25	-0.36667	0.325	-0.925	-0.08125	-0.06875	-0.89167	0.058333	-0.50208	-0.43333	0.13125	-0.62708	-0.31458	-0.14375	-0.75625	0.05	123.819	-10.201	-116.878	41.190	-43.856	-119.266	124.828	138.250	-69.971	20.867	-19.846	156.729	-68.216	143.055	-173.740	-160.411	0.00067242	0.0012113	0.0010045	825.58	2.9182e-05	2.7374e-05	796.65	173.7	3.61e-05	2.7043e-06	227.4	75.269	42.532	14.931	2.3364e-05	35.914	0.020372	0.020905	0.0056518	1573.1	0.00023391	0.00022723	1514.8	373.98	0.00023316	0.00022837	546.74	193.69	195.73	51.178	0.00022252	86.928	92.307	161.302	145.979	-161.081	-7.194	103.872	-161.158	-156.723	17.045	120.019	-155.747	-150.573	-151.509	-143.685	149.964	-144.835	-8191	255	
8037.848	1	1	0	0	0.081119	0.22974	0.13965	0.2591	0.27268	0.023352	0.16981	0.18774	0.11662	0.28711	0.22616	0.30019	0.22603	0.3799	0.12447	0.21879	-0.17917	-0.37292	0.1	-0.99167	-0.15833	0.05625	-0.87917	-0.0083333	-0.4125	-0.85625	0.11667	-0.67292	-0.23958	0.08125	-0.64167	0.17292	-72.083	-58.421	55.476	163.349	126.072	174.133	155.053	119.687	-173.942	-95.951	-105.330	163.888	-114.323	-122.330	98.729	177.155	0.00072289	0.0049537	0.00089215	832.49	3.6683e-05	3.8374e-05	790.69	173.79	1.0568e-05	1.5119e-05	227.07	73.139	41.763	15.171	2.8828e-05	35.533	0.020109	0.020666	0.0056208	1585.7	0.00023015	0.00022435	1507.7	375.58	0.00022696	0.0002232	539.85	192.2	190.39	49.733	0.00021993	85.905	-166.507	-64.334	-166.425	-161.039	3.310	-9.064	-161.304	-156.171	-75.297	-86.189	-156.072	-149.760	-150.491	-144.294	162.671	-144.486	-8191	255	
8037.945	1	1	0	0	0.12204	0.19088	0.17064	0.34659	0.11302	0.15483	0.080878	0.16421	0.34098	0.24206	0.23075	0.19318	0.18924	0.082607	0.13785	0.40542	0.11875	-0.7875	0.060417	-0.78958	-0.56042	0.10625	-0.79167	-0.15	-0.18542	-0.77292	0.11667	-0.62708	-0.39583	0.05625	-0.68958	-0.077083	-115.896	-40.104	-113.402	173.131	156.053	-89.737	152.807	156.710	-72.040	46.781	103.054	98.873	-165.487	-58.394	134.886	7.281	0.0012419	0.0028236	0.0011839	827.8	1.568e-05	3.9978e-05	794.7	174.24	5.8457e-05	2.9366e-05	227.1	74.288	41.555	15.358	3.9568e-05	35.994	0.01931	0.020211	0.0055852	1578.4	0.00022339	0.00021937	1509.8	374.92	0.00022228	0.00022065	544.05	192.85	187.66	49.68	0.00022318	86.551	137.246	54.782	-107.366	-160.935	-2.314	82.114	-161.717	-155.896	-63.294	-138.504	-156.090	-150.102	-149.736	-143.344	-167.892	-144.595	-8191	255	
8038.016	1	1	0	0	0.08422	0.13957	0.27176	0.15419	0.20921	0.1484	0.26617	0.11561	0.14788	0.24373	0.19976	0.16611	0.17096	0.14761	0.20965	0.26503	0.31667	-0.86042	0.072917	-0.51875	-0.75417	0.11667	-0.99792	-0.15417	-0.022917	-0.66042	0.0125	-0.39375	-0.7875	0.066667	-0.86667	-0.075	103.521	-161.035	-37.567	151.000	140.307	-86.259	87.601	-147.452	-13.346	43.441	120.403	-126.080	23.365	-52.369	-99.149	56.408	0.00074807	0.00068583	0.00066841	832.53	3.3211e-05	8.2115e-07	802.19	176.12	1.5696e-05	3.4022e-05	226.96	75.249	41.883	15.397	9.9309e-06	36.3	0.018963	0.019954	0.0056674	1578.7	0.00022099	0.00021694	1531.2	373.97	0.00021877	0.00021934	554.32	192.25	187.13	49.818	0.00022923	86.198	155.793	75.564	-70.337	-160.471	-120.596	-22.304	-161.179	-155.884	-61.417	146.265	-155.974	-149.958	-149.906	-143.263	151.954	-144.860	-8191	255	
8038.137	1	1	0	0	0.15826	0.13128	0.23965	0.038263	0.19631	0.24287	0.23829	0.23572	0.1955	0.095636	0.052719	0.13762	0.085798	0.092332	0.03381	0.3205	0.38125	-0.89792	-0.0041667	-0.19792	-0.70625	0.0875	-0.85	-0.38333	0.010417	-0.87917	-0.23125	-0.15208	-0.78125	0.13542	-0.68125	-0.5125	57.348	171.617	-99.657	-55.662	7.056	-3.136	-138.058	-129.818	-84.761	153.272	125.192	92.188	-111.419	-106.664	113.412	115.549	0.00081921	0.0030411	0.00073066	834.97	1.1921e-05	1.9232e-05	802.28	173.92	1.5776e-05	3.5021e-05	227.55	73.254	41.554	14.929	3.2904e-05	35.454	0.018989	0.020077	0.0058262	1568.5	0.00021992	0.00021923	1547.9	371.48	0.00021826	0.00022189	558.08	189.03	185.69	49.791	0.00023107	84.485	-166.306	-156.786	1.329	-160.797	-167.316	-48.907	-161.607	-156.226	-0.448	-113.280	-156.175	-149.369	-151.735	-143.534	-166.204	-144.733	-8191	255	
8038.233	1	1	0	0	0.1697	0.24307	0.35463	0.12196	0.14688	0.16194	0.22651	0.31247	0.060849	0.25564	0.24559	0.34586	0.070707	0.20644	0.10384	0.31437	0.5	-0.81458	-0.25	-0.30417	-0.81458	-0.10833	-0.71458	-0.58125	0.20625	-0.90208	-0.35	-0.16667	-0.88958	0.0375	-0.66458	-0.69583	97.658	165.716	33.747	-95.180	-32.420	-69.329	168.098	-173.220	-71.318	-42.620	110.171	-112.224	94.543	-165.337	86.695	64.957	0.00042953	0.0047091	0.00051585	825.67	7.4944e-06	3.2687e-05	798.97	173.45	2.4671e-05	4.6006e-05	222.59	72.381	41.463	14.759	2.2576e-05	35.783	0.018595	0.020335	0.0058394	1549.1	0.0002166	0.00022112	1537.5	365.04	0.00021389	0.00022338	550.97	184.48	182.27	49.991	0.00022664	83.535	163.360	-166.955	158.849	-160.694	-113.636	-137.391	-161.425	-155.331	115.774	-122.158	-156.321	-149.890	-151.176	-143.873	158.066	-144.851	-8191	255	
8038.329	1	1	0	0	0.18323	0.10009	0.11211	0.32879	0.28615	0.24189	0.19217	0.19484	0.049404	0.033515	0.080954	0.036028	0.041647	0.10573	0.11789	0.22228	0.61667	-0.625	-0.039583	-0.21458	-0.69375	-0.089583	-0.56042	-0.80833	0.025	-0.73125	-0.30208	-0.10625	-0.70625	0.020833	-0.41875	-0.9	-90.545	98.135	-105.134	135.021	-11.352	115.579	120.015	123.753	86.129	-170.532	-21.153	-36.621	-29.494	142.739	7.886	-118.581	0.0004632	0.0049994	0.00061881	832.11	3.1753e-05	3.722e-05	794.57	174.96	3.0651e-05	3.2518e-05	227.75	72.929	41.882	14.946	1.6842e-05	35.734	0.018418	0.020565	0.0057331	1540.5	0.00021474	0.00022554	1525.4	364.34	0.00021343	0.00022868	549.51	184.99	183.61	51.081	0.00022332	83.59	-24.935	184.217	157.986	-160.339	-113.212	-109.528	-160.733	-155.464	158.378	-0.315	-155.966	-150.297	-150.529	-143.794	11.441	-144.527	-8191	255	
8038.448	1	1	0	0	0.34433	0.055594	0.15267	0.14762	0.13995	0.026592	0.36653	0.4413	0.32984	0.038959	0.042933	0.12222	0.23364	0.23608	0.06151	0.17776	0.60625	-0.67292	-0.33125	0.0125	-0.79583	0.079167	-0.26875	-1.0021	0.1375	-0.81042	-0.42292	0.22708	-0.92292	-0.27083	-0.11875	-1.0625	-122.408	-27.766	-77.020	-160.987	-22.411	170.352	17.280	167.297	133.934	-76.294	-35.894	107.711	113.986	-37.987	-102.353	136.159	0.00099941	0.0038659	0.00062817	833.77	3.1265e-05	2.8026e-05	796.9	172.66	1.6057e-05	1.5923e-05	225.36	72.115	40.726	14.879	1.7702e-05	35.569	0.018541	0.020927	0.0056673	1529.4	0.00021682	0.00022884	1512.5	362.32	0.00021564	0.00022911	540.75	182.63	184.4	50.633	0.00021578	82.301	137.664	-59.192	-35.635	-161.004	140.721	-146.298	-160.548	-155.315	-149.825	156.920	-156.163	-150.220	-150.402	-143.480	102.888	-143.930	-8191	255	
8038.544	1	1	0	0	0.10734	0.26535	0.2302	0.0072144	0.24974	0.12924	0.047774	0.12207	0.21947	0.32999	0.21958	0.082498	0.32758	0.2107	0.057159	0.17542	0.46667	-0.52917	-0.475	-0.039583	-0.56875	-0.39583	-0.2125	-0.92708	-0.03125	-0.54583	-0.75625	0.08125	-0.75	-0.37083	-0.060417	-1.0833	173.159	60.718	-127.563	127.083	-116.130	-77.074	171.131	98.344	-138.958	9.967	58.042	56.449	-71.222	19.864	29.904	157.464	0.0016758	0.0012134	0.00098873	830.62	3.0233e-05	1.2409e-05	792.04	172.97	2.7236e-05	1.6588e-05	225.23	72.008	40.917	14.76	1.3061e-05	35.208	0.0186	0.020598	0.0055018	1510.5	0.00021762	0.00022377	1484.5	356.08	0.00021588	0.00022281	527.85	178.49	183.17	49.266	0.00021046	80.961	90.146	103.858	-90.461	-160.879	-128.372	-83.782	-160.912	-155.213	-145.336	164.350	-155.719	-149.718	-150.623	-142.623	146.427	-144.319	-8191	255	
8038.640	1	1	0	0	0.23473	0.068646	0.1698	0.08037	0.035079	0.28823	0.13018	0.1575	0.17183	0.30963	0.17717	0.28263	0.05394	0.10413	0.113	0.33281	0.33958	-0.43542	-0.5625	-0.14167	-0.80625	-0.475	-0.075	-0.97708	-0.083333	-0.4375	-0.925	-0.06875	-0.67083	-0.48333	0.085417	-0.94375	-79.461	-140.575	54.534	-134.750	30.099	40.434	167.097	-56.268	-45.216	-170.322	-161.652	176.231	-130.004	-163.573	-121.886	138.413	0.0010905	0.0028828	0.00081939	829.14	1.5712e-05	1.3192e-05	800.59	171.54	9.1594e-06	6.1882e-06	225.38	73.148	40.211	14.483	1.4493e-05	35.581	0.018774	0.019997	0.0053787	1503.6	0.00021903	0.00021827	1467.5	354.19	0.00021704	0.00021554	524.15	177.8	183.89	48.333	0.00020486	80.96	122.955	113.030	-0.971	-161.080	-146.234	-24.046	-161.308	-155.455	-157.053	-103.873	-155.871	-149.535	-150.230	-143.827	-48.300	-145.169	-8191	255	
8038.737	1	1	0	0	0.24484	0.35966	0.26482	0.34337	0.10699	0.20117	0.11259	0.27513	0.17064	0.61867	0.16777	0.22923	0.19027	0.13568	0.41116	0.083291	0.25833	-0.2625	-0.68542	0.1125	-0.49375	-0.37708	0.0125	-0.89792	-0.1125	-0.23542	-0.98958	0.052083	-0.55208	-0.46042	0.00625	-1.0312	117.981	-61.486	64.296	-167.081	56.293	-120.178	-151.737	154.491	56.235	-83.443	-105.490	182.180	63.675	-101.197	-42.477	124.668	0.00063937	0.0017397	0.0010782	828.6	1.8542e-05	2.4345e-05	797.23	173.75	9.0637e-06	9.7684e-06	222.99	72.34	40.211	14.356	1.0028e-05	35.279	0.01869	0.019336	0.005249	1498.7	0.00021611	0.00021118	1454.5	355.35	0.00021535	0.00020929	517.24	178.93	181.45	47.453	0.00020124	81.129	155.468	8.104	-83.237	-160.760	-137.413	90.635	-160.610	-156.053	126.983	-68.284	-155.292	-149.824	-150.050	-143.058	-144.398	-144.512	-8191	255	
8038.833	1	1	0	0	0.072819	0.1103	0.12312	0.2025	0.060294	0.18327	0.39365	0.11318	0.041444	0.19245	0.057888	0.084366	0.24302	0.25449	0.32553	0.17496	0.19167	-0.14167	-0.8	-0.11458	-0.50417	-0.69792	-0.075	-0.97292	-0.12917	-0.01875	-0.77083	-0.10417	-0.39583	-0.71667	0.0625	-0.80625	-4.235	25.213	105.338	159.598	-149.045	95.691	-171.568	58.970	106.348	27.366	121.547	173.423	102.244	-157.944	-156.945	-134.456	0.00067286	0.0012419	0.00012716	829.32	2.0731e-05	8.795e-06	798.76	172.72	1.9546e-05	1.4512e-05	224.49	70.957	40.115	14.34	2.1255e-05	34.922	0.018343	0.01877	0.005142	1508.4	0.00021088	0.00020543	1439.9	354.87	0.00020966	0.00020332	510.17	178.54	176.11	46.182	0.00019813	80.701	98.051	49.688	159.216	-160.945	53.605	162.659	-161.284	-155.524	-21.138	-3.239	-156.108	-150.536	-149.568	-143.442	135.391	-144.065	-8191	255	
8038.929	1	1	0	0	0.096965	0.22439	0.11938	0.17468	0.19836	0.23474	0.18202	0.029728	0.10301	0.08906	0.23625	0.034348	0.14047	0.1094	0.041055	0.1012	0.24583	0.095833	-0.90208	-0.097917	-0.20417	-0.94583	-0.15208	-0.74583	-0.26042	0.0875	-0.92083	-0.23125	-0.27917	-0.72917	0.072917	-0.81042	22.260	-18.422	77.725	173.403	-163.326	61.361	134.889	39.589	48.191	71.198	-160.951	-0.471	-133.662	-57.241	87.470	49.762	0.00045637	0.0031119	9.918e-05	830.61	5.6587e-05	2.9283e-05	790.17	170.82	1.4984e-05	1.5896e-05	224.59	71.427	39.617	14.542	4.2301e-05	35.351	0.017805	0.018186	0.0050543	1501.5	0.00020294	0.00019955	1427.1	352.48	0.0002021	0.00019782	506.74	178.46	172.3	45.846	0.00019919	80.682	4.554	30.637	-96.801	-160.834	47.629	-22.122	-160.806	-155.254	143.271	102.816	-155.860	-149.474	-148.484	-142.929	-140.672	-144.614	-8191	255	
8039.049	1	1	0	0	0.12848	0.36871	0.13592	0.20137	0.23745	0.010376	0.19051	0.13116	0.13324	0.1868	0.38139	0.20399	0.083396	0.11509	0.1927	0.074702	-0.075	0.23542	-0.79375	-0.12708	-0.1625	-0.85833	0.077083	-0.53333	-0.50417	0.075	-0.88958	-0.16458	-0.21875	-0.97917	0.17083	-0.425	-167.413	-4.996	-138.979	53.019	11.655	12.188	-117.286	-114.855	85.717	5.846	-113.160	112.027	173.534	120.337	169.205	-139.185	0.00078868	0.0028314	0.00074818	828.27	1.4443e-05	2.9509e-05	797.45	174.15	4.621e-05	1.8269e-05	223.57	72.509	40.786	14.963	1.243e-05	35.699	0.017352	0.017976	0.0051131	1504.5	0.0001989	0.0001981	1446.3	354.6	0.00020005	0.00019712	516.97	179.29	171.82	46.031	0.00020541	81.019	-145.452	-19.975	179.280	-160.717	63.760	-54.173	-161.040	-155.037	-133.918	172.492	-155.483	-148.946	-150.860	-143.219	-144.454	-143.804	-8191	255	
8039.146	1	1	0	0	0.060215	0.14895	0.17026	0.29141	0.064997	0.14716	0.16439	0.067041	0.21035	0.1362	0.29555	0.12034	0.16543	0.039987	0.15462	0.13115	-0.29792	0.089583	-0.65	-0.32917	0.052083	-0.67917	-0.2125	-0.63542	-0.60625	-0.072917	-0.69167	-0.40417	-0.11667	-0.92083	-0.17292	-0.31667	-63.647	165.493	-32.271	52.307	-59.698	-162.982	82.828	182.533	62.535	175.454	-121.452	153.079	60.767	-12.867	-113.946	-105.999	0.00093987	0.0027413	0.00017218	838.1	1.8413e-05	3.8105e-05	799.54	174.02	2.1131e-05	4.8314e-06	226.19	72.557	41.276	14.671	2.3953e-05	35.387	0.017223	0.018027	0.0052754	1507.6	0.00019956	0.00019938	1469.5	354	0.00020015	0.00019977	525.64	178.58	171.33	46.225	0.00020764	80.202	176.239	-122.104	-60.465	-159.603	147.367	5.264	-161.143	-155.045	31.442	138.992	-155.809	-148.790	-151.048	-143.299	124.630	-144.063	-8191	255	
8039.240	1	1	0	0	0.033985	0.12481	0.18528	0.32873	0.12699	0.1831	0.19889	0.1625	0.13074	0.055549	0.32139	0.13618	0.15701	0.25923	0.25885	0.24703	-0.19792	0.33333	-0.60833	-0.39792	-0.16042	-0.78958	-0.12708	-0.35625	-0.65	0.033333	-0.49792	-0.55208	0.085417	-0.9	-0.097917	-0.24167	95.278	-139.676	123.670	89.911	81.425	72.205	-120.287	-155.874	0.330	137.134	-136.601	9.974	50.658	177.371	61.791	-7.202	0.0015088	0.0048741	0.00078987	835.62	2.9674e-05	5.0042e-06	804.95	171.79	3.3916e-05	5.0349e-05	222.89	71.813	40.558	14.444	2.3327e-05	35.399	0.017048	0.018149	0.0052847	1488.3	0.00019581	0.00020032	1472.7	347.64	0.00019677	0.00020065	523.34	174.9	168.37	46.405	0.00020654	78.424	152.556	175.486	92.935	-160.315	-25.183	-141.216	-160.849	-154.998	-112.262	-113.011	-155.147	-150.268	-149.559	-142.543	1.104	-143.734	-8191	255	
8039.313	1	1	0	0	0.14525	0.28782	0.048235	0.15967	0.10541	0.1993	0.19445	0.19698	0.35501	0.14351	0.19251	0.1563	0.30337	0.16122	0.10642	0.14394	-0.61875	0.01875	-0.37083	-0.58958	0.14583	-0.90833	-0.4625	-0.14167	-0.89375	0.022917	-0.66875	-0.72292	0.20417	-0.8125	-0.27708	-0.12292	-54.196	108.336	22.681	-173.245	-13.793	149.121	78.288	46.734	-19.339	36.878	-120.993	137.372	162.589	-57.143	181.783	-92.485	0.00093596	0.0024878	0.00086039	830.59	2.4905e-05	3.5215e-05	794.77	172.97	1.6918e-05	1.5444e-05	226.42	72.476	41.239	14.819	1.4017e-05	35.621	0.016764	0.018294	0.00521	1465.9	0.00019112	0.00020203	1451.3	342.84	0.00019332	0.00020244	513.23	172.88	166.26	46.97	0.00020264	78.353	72.988	-163.656	45.425	-160.426	10.760	143.113	-160.753	-155.271	-118.855	-167.377	-155.433	-149.349	-150.216	-143.117	139.695	-143.766	-8191	255	
8039.410	1	1	0	0	0.10562	0.2507	0.089351	0.25389	0.16698	0.32756	0.29927	0.1894	0.10126	0.096346	0.2551	0.17417	0.091023	0.27651	0.069588	0.21433	-0.3125	0.089583	-0.28333	-0.75417	0.15833	-0.59583	-0.5875	-0.10833	-0.73542	-0.14167	-0.38333	-0.75	0.21458	-0.55625	-0.4375	0.0020833	117.466	12.339	179.002	172.546	-118.076	-82.128	126.289	171.849	-117.119	135.394	-168.199	169.118	35.206	110.956	116.459	166.669	0.00077256	0.002576	0.0012539	829.88	2.1015e-05	2.2847e-05	797.56	174.03	1.1696e-05	1.1124e-05	228.88	73.075	40.793	15.016	3.074e-05	36.16	0.016747	0.018714	0.0051246	1468.3	0.00019257	0.00020573	1447.4	342.18	0.00019371	0.00020532	512.86	173.02	168.15	47.465	0.00019879	78.497	119.461	7.035	-63.248	-160.675	-118.231	120.151	-160.767	-155.017	150.895	-82.252	-155.267	-149.748	-150.641	-143.281	19.252	-144.451	-8191	255	
8039.528	1	1	0	0	0.28224	0.14652	0.12681	0.043211	0.21862	0.12669	0.33908	0.15675	0.20171	0.1137	0.09086	0.32929	0.078562	0.085753	0.14678	0.15259	-0.27708	-0.21875	-0.17917	-0.81458	0.32292	-0.64375	-0.49375	-0.17292	-0.68333	-0.21667	-0.29583	-0.79583	0.13333	-0.44583	-0.525	0.05625	8.142	-45.272	-70.421	-101.327	-142.159	62.241	159.713	182.005	105.819	42.099	-51.303	137.595	-136.940	91.321	135.370	138.129	0.0012477	0.0036849	0.00046734	831.41	1.6926e-05	3.3612e-05	802.6	173.44	4.3559e-05	1.4146e-05	229.03	73.292	41.151	14.888	3.254e-05	35.874	0.016987	0.018884	0.0050427	1467.1	0.00019758	0.0002079	1452.2	344.4	0.00020144	0.00021011	514.8	175.02	175.28	48.056	0.00020117	78.849	111.755	-63.048	-133.982	-160.334	-163.479	29.893	-160.823	-154.877	-167.171	-12.175	-155.578	-149.883	-151.035	-143.238	-123.837	-144.333	-8191	255	
8039.625	1	1	0	0	0.11574	0.45077	0.15995	0.26456	0.37575	0.26322	0.21487	0.26233	0.23588	0.18286	0.055773	0.24662	0.10953	0.13692	0.24838	0.049626	-0.56458	-0.15	-0.064583	-0.83542	0.03125	-0.54167	-0.8	-0.025	-0.8125	-0.35833	-0.0041667	-0.87917	0.04375	-0.6125	-0.6	0.022917	5.501	59.056	42.388	162.829	-30.953	-132.437	136.235	103.459	82.265	-91.795	170.790	156.052	167.565	94.436	-70.154	-145.914	0.00068005	0.0036186	0.00014018	846.14	1.4614e-05	4.4996e-05	802.17	175.46	1.275e-05	9.5715e-06	224.92	73.025	41.022	15.041	1.4019e-05	35.616	0.01781	0.019287	0.0051302	1485.9	0.00020715	0.00021047	1461	349.24	0.00021122	0.00021247	516	176.64	180.75	48.119	0.00020625	80.093	136.752	42.171	25.716	-160.376	-90.477	5.853	-161.262	-155.611	-106.552	-172.275	-154.985	-150.117	-151.095	-142.804	30.443	-144.638	-8191	255	
8039.721	1	1	0	0	0.26825	0.06449	0.2066	0.11712	0.14122	0.10937	0.13653	0.16675	0.24817	0.015744	0.3985	0.26372	0.11592	0.24684	0.11431	0.26034	-0.19583	-0.41042	0.14167	-0.91458	-0.26458	-0.425	-0.73542	-0.039583	-0.53542	-0.41667	-0.058333	-0.95833	-0.24167	-0.1	-0.6625	0.052083	-24.711	-170.495	-53.943	90.364	-147.513	43.887	86.542	125.276	-36.349	-8.366	-88.601	180.426	145.797	135.106	90.020	162.907	0.00093799	0.0040821	0.00032922	839.76	5.3291e-06	2.2581e-05	805.46	175.13	1.9203e-05	5.4649e-06	228.54	72.77	41.231	15.021	3.9384e-05	36.183	0.018574	0.019365	0.0051916	1506.8	0.00021635	0.00021295	1473.8	356.33	0.00021956	0.00021716	527.49	183.42	187.92	49.172	0.00021316	83.829	160.872	-168.973	38.063	-160.324	113.738	35.414	-160.855	-155.533	-8.230	40.963	-155.390	-150.221	-150.406	-142.209	-22.304	-144.274	-8191	255	
8039.817	1	1	0	0	0.077227	0.30564	0.24992	0.11057	0.14592	0.091549	0.23762	0.22856	0.07578	0.086311	0.31404	0.23205	0.096241	0.23828	0.37746	0.37513	-0.26875	-0.57292	0.2625	-0.87917	-0.21875	0.025	-0.81667	0.020833	-0.52708	-0.55625	0.1375	-0.79167	-0.20625	0	-0.625	-0.1	-164.100	117.406	-118.287	114.408	56.716	-148.558	144.366	118.787	18.703	-53.138	-162.907	98.045	171.442	-120.531	-152.153	-86.759	0.0013447	0.0020475	0.00068638	837.34	3.3013e-05	2.5244e-05	804.44	174.44	2.7008e-05	8.6252e-06	226.1	72.981	41.256	14.473	2.9866e-05	36.487	0.019548	0.020154	0.0054217	1551.2	0.00022441	0.00021696	1488.2	364.38	0.00022101	0.00021465	525.26	184.85	184.34	48.061	0.00020723	83.628	152.476	-0.457	161.390	-160.400	-133.312	36.527	-160.566	-155.522	-47.877	-90.265	-156.368	-150.143	-150.137	-143.642	16.758	-144.670	-8191	255	
8039.913	1	1	0	0	0.050047	0.029432	0.13787	0.28736	0.03763	0.22995	0.23316	0.19006	0.12257	0.30798	0.2637	0.31002	0.090406	0.14484	0.14119	0.022872	-0.14375	-0.46667	0.24375	-0.76458	-0.3875	-0.058333	-0.87292	-0.11042	-0.27708	-0.72292	0.15625	-0.55625	-0.31042	0.10833	-0.675	-0.16042	-141.553	100.920	89.753	168.710	75.703	169.319	-141.226	128.264	84.148	-10.341	-135.617	164.235	153.578	41.241	113.491	-58.714	0.00047217	0.0013831	0.00030598	838.38	3.2125e-05	2.8573e-05	802.55	175.72	2.6226e-05	2.6051e-05	226.88	72.741	41.394	14.46	3.075e-05	35.64	0.018692	0.01938	0.0052741	1550.7	0.00021733	0.00021222	1487	369.59	0.00021982	0.00021815	535.9	189.61	186.18	48.624	0.00021456	84.88	167.414	-138.196	-85.575	-160.505	-14.027	102.000	-160.854	-155.318	7.891	-58.649	-155.640	-149.972	-150.046	-143.921	-157.516	-143.955	-8191	255	
8040.009	1	1	0	0	0.31472	0.088189	0.10291	0.069765	0.19056	0.13265	0.21029	0.10606	0.23101	0.074137	0.1669	0.19423	0.2676	0.15735	0.2109	0.10074	0.17083	-0.58542	0.27083	-0.52917	-0.35	0.035417	-0.71667	0	-0.17083	-0.85208	0.19167	-0.51458	-0.48333	0.21667	-0.70208	-0.21042	159.093	171.380	169.772	114.813	32.828	-4.917	102.848	-154.863	-166.340	114.759	58.091	-94.495	131.144	-161.716	-10.293	159.008	0.00048929	0.0031755	0.00046287	822.65	3.8517e-05	1.3592e-05	793.47	171.78	4.2414e-05	1.2524e-05	225.53	72.12	41.225	15.083	1.9476e-05	36.195	0.018457	0.019076	0.0052688	1524.3	0.00020777	0.00020306	1457.6	357.06	0.00020367	0.00020211	516.56	181.19	174.3	46.274	0.00020551	82.111	111.853	21.024	-55.215	-160.543	-22.028	159.474	-161.158	-155.097	-73.166	131.023	-155.525	-149.612	-149.215	-142.830	-142.383	-143.783	-8191	255	
8040.130	1	1	0	0	0.32916	0.16952	0.35741	0.11065	0.098018	0.22659	0.29027	0.20894	0.18946	0.16203	0.01695	0.20065	0.17383	0.12509	0.16862	0.42856	0.36875	-0.63958	-0.16042	-0.51458	-0.39792	0.1125	-0.65208	-0.2625	0.097917	-0.83333	0.022917	-0.54583	-0.57708	0.11875	-0.56667	-0.43958	-134.246	51.290	52.302	122.854	-121.503	124.713	118.193	126.759	-34.407	-64.507	-61.490	2.920	174.036	-57.511	50.512	155.551	0.00082235	0.00098991	0.00054109	828.53	2.9708e-05	1.5765e-05	798.26	173.55	1.8634e-05	3.1562e-05	228.51	74.691	42.007	15.383	1.9685e-05	36.86	0.017337	0.018262	0.0052207	1503	0.00020055	0.00019794	1462.5	355.69	0.00020079	0.00020199	527.09	182.27	175.77	47.479	0.00021389	83.701	156.175	-79.348	-172.740	-160.343	19.728	-51.788	-160.837	-154.772	146.299	-144.654	-155.457	-149.598	-150.681	-142.817	122.187	-143.905	-8191	255	
8040.226	1	1	0	0	0.20971	0.13281	0.14739	0.22725	0.14746	0.13506	0.079356	0.35833	0.10388	0.057964	0.20496	0.25417	0.16394	0.0145	0.19082	0.30045	0.26875	-0.95833	0.060417	-0.42917	-0.64583	0.17292	-0.525	-0.29375	0.18958	-0.72292	-0.077083	-0.26042	-0.71042	0.19167	-0.86667	-0.67083	181.713	-37.045	170.769	164.262	54.323	55.793	109.690	168.523	120.645	-37.516	66.239	147.389	28.627	-59.808	93.548	161.812	0.00078423	0.0033563	0.00041839	826.26	1.5918e-05	6.1884e-06	801.09	176.58	2.4772e-05	1.1005e-05	230.48	75.861	42.916	15.328	1.5113e-05	36.931	0.017745	0.018956	0.005506	1521.7	0.00020859	0.00020952	1511	363.18	0.00020842	0.00021446	547.56	185.94	180.09	48.877	0.00021996	84.068	110.103	168.015	-52.535	-159.840	12.506	-166.131	-160.589	-154.320	4.987	-117.393	-155.070	-149.339	-150.134	-142.378	-18.533	-144.368	-8191	255	
8040.322	1	1	0	0	0.15507	0.25601	0.010199	0.2442	0.14933	0.29427	0.31925	0.12926	0.44136	0.11062	0.22225	0.38817	0.11654	0.19184	0.092665	0.3912	0.44167	-0.83333	-0.20208	-0.225	-0.8625	0.10208	-0.61458	-0.59792	0.28958	-0.63125	-0.35625	-0.33958	-0.91042	-0.03125	-0.47708	-0.85208	74.964	153.864	98.324	160.767	-139.650	155.413	78.111	-138.902	-150.129	-7.439	65.363	-139.066	-100.838	87.395	93.524	145.434	0.00058226	0.0020268	0.00061713	826.28	6.1815e-06	6.0095e-05	801.07	174.53	2.583e-05	2.5414e-05	228.86	74.841	41.395	15.149	3.0072e-05	36.603	0.018054	0.019862	0.0056914	1527.6	0.00021222	0.00021906	1531.4	365.14	0.00021385	0.0002257	556.87	188.84	186.21	51.513	0.00023203	85.659	155.364	147.729	-112.584	-159.813	-87.124	-114.809	-160.841	-154.860	-35.210	-99.804	-154.892	-148.779	-150.247	-143.993	34.595	-144.280	-8191	255	
8040.418	1	1	0	0	0.11516	0.23521	0.10059	0.18378	0.1696	0.18074	0.14892	0.053759	0.11267	0.34882	0.089265	0.11671	0.2379	0.061893	0.028037	0.14157	0.52292	-0.78125	-0.28542	-0.058333	-0.89792	-0.064583	-0.51458	-0.85625	0.14583	-0.88333	-0.35	-0.17083	-0.95833	-0.0625	-0.16458	-0.77083	-126.919	9.206	124.617	121.371	46.889	91.705	-39.444	-95.587	11.451	136.707	94.461	75.844	73.573	13.156	125.591	-58.820	0.00034774	0.00073735	0.00072095	820.81	6.1891e-05	4.9469e-05	793.53	174.1	2.3722e-05	2.5557e-05	227.8	74.816	41.329	14.822	1.9715e-06	37.104	0.019007	0.021281	0.0059119	1552.4	0.0002221	0.00023232	1542.2	369.33	0.00021912	0.00023372	556.28	187.43	185.61	51.591	0.00022465	85.158	131.864	-155.030	-37.465	-160.288	-159.030	-116.925	-160.723	-155.042	-138.349	-58.287	-155.152	-148.912	-150.313	-144.534	84.817	-143.933	-8191	255	
8040.537	1	1	0	0	0.036773	0.21957	0.14864	0.12872	0.34159	0.14659	0.147	0.13099	0.11965	0.013969	0.29767	0.17709	0.20882	0.23995	0.13014	0.088058	0.57917	-0.40417	-0.29583	0.03125	-0.78542	-0.0020833	-0.4875	-0.9625	0.13542	-0.56875	-0.60833	0.010417	-0.79583	-0.16875	-0.01875	-0.80833	184.106	-97.261	44.079	154.646	59.820	-72.119	-142.203	120.620	-167.042	10.121	-108.972	125.493	-117.463	117.518	-152.163	161.985	0.0012946	0.0017393	0.00054341	830.3	1.85e-05	3.1251e-05	794.02	175.54	1.7239e-05	8.0858e-06	230.11	74.57	41.253	14.933	1.0255e-05	37.297	0.018787	0.021135	0.0056972	1533.8	0.00021975	0.00023075	1518.9	365.04	0.00021802	0.00023075	548.56	185.98	187.18	51.428	0.000219	84.168	122.826	-158.846	-55.960	-159.947	-124.774	-153.688	-160.059	-154.861	-160.936	51.106	-155.058	-149.168	-149.998	-142.525	97.226	-144.164	-8191	255	
8040.609	1	1	0	0	0.079129	0.34965	0.19981	0.17175	0.133	0.10167	0.12552	0.25668	0.2371	0.13813	0.070263	0.29837	0.030517	0.27714	0.17754	0.37757	0.44375	-0.4875	-0.43333	0	-0.825	-0.35417	-0.22917	-0.87292	0.014583	-0.30417	-0.60417	0.052083	-0.60417	-0.085417	0.091667	-0.85833	-132.484	124.416	15.453	82.551	-11.894	-130.488	-147.951	-27.089	130.275	0.983	158.185	-120.136	-26.538	129.952	52.822	121.716	0.0019684	0.0024354	0.0008558	827.21	3.3112e-05	1.4376e-05	803.28	174.04	5.2328e-05	2.3988e-05	229.73	74.481	39.87	14.961	1.5958e-05	36.616	0.018865	0.02072	0.0055259	1513.6	0.00021798	0.00022258	1488.8	356.95	0.00021638	0.00022136	534.35	181.5	185.77	49.879	0.00021202	82.481	142.144	19.980	-86.175	-160.397	-42.888	112.962	-160.675	-155.060	-134.461	88.523	-154.880	-149.417	-150.203	-143.296	-116.577	-144.081	-8191	255	
8040.729	1	1	0	0	0.14112	0.33513	0.24571	0.13931	0.097277	0.18489	0.1823	0.11379	0.27621	0.23032	0.44428	0.10991	0.076755	0.30255	0.052522	0.38257	0.4125	-0.34583	-0.68125	-0.058333	-0.51458	-0.06875	-0.1125	-0.82917	0.12083	-0.33542	-0.74583	0.10208	-0.80417	-0.19167	0.097917	-0.74583	179.291	-120.054	-104.205	65.297	-84.965	-66.852	-136.490	99.401	39.750	-45.995	97.992	-4.055	117.636	-161.902	-82.103	135.316	0.0018203	0.0011984	4.1198e-05	830.16	3.0088e-05	2.6206e-05	801.31	174.81	4.0089e-05	1.1524e-05	226.27	73.578	40.68	15.021	1.7411e-05	36.468	0.018828	0.019895	0.0053904	1507.2	0.00022056	0.00021947	1474.8	357.79	0.0002199	0.00021723	529.08	181.1	185.56	48.872	0.00020706	82.607	130.885	104.946	49.773	-160.165	185.473	7.727	-161.170	-154.889	-81.900	166.231	-155.336	-150.096	-149.192	-143.278	-34.291	-144.797	-8191	255	
8040.826	1	1	0	0	0.2256	0.12793	0.15027	0.034439	0.093495	0.18009	0.12984	0.43098	0.19416	0.20845	0.10703	0.14891	0.12197	0.15842	0.0981	0.10645	0.30625	-0.26458	-0.62708	0.2125	-0.725	-0.39583	0.1625	-0.87708	-0.014583	0.0625	-0.725	0.052083	-0.45625	-0.51042	0.091667	-0.85625	-84.137	-116.745	174.704	-111.756	-93.941	-9.972	169.511	150.052	39.499	48.843	52.026	8.171	-113.871	113.005	-47.724	89.874	0.00048766	0.0040879	0.00079654	824.07	5.9615e-06	2.136e-05	802.4	173.38	2.1305e-05	6.4044e-06	226.92	74.886	41.228	15.15	1.0173e-05	37.104	0.018877	0.019427	0.0052667	1501.6	0.00021713	0.00021206	1457.7	358.39	0.00021742	0.00021082	523.58	183.4	184.27	48.545	0.00020519	84.113	174.076	-22.584	-3.101	-160.455	165.307	48.185	-160.546	-155.859	-2.482	-99.482	-155.281	-150.056	-150.804	-142.915	-32.548	-144.128	-8191	255	
8040.922	1	1	0	0	0.3715	0.28508	0.23605	0.23966	0.20903	0.19978	0.063193	0.28509	0.22515	0.043469	0.11341	0.14856	0.091584	0.28711	0.24349	0.12656	0.34167	-0.033333	-0.58125	-0.11042	-0.44583	-0.6	0.060417	-0.77083	-0.11667	-0.0375	-0.81458	-0.085417	-0.21667	-0.78958	0.24583	-0.71458	-34.058	-95.317	-34.078	-153.600	-10.717	-165.709	161.822	130.191	-132.907	141.400	150.666	111.050	165.982	-167.552	-84.262	-168.144	0.0003966	0.0030547	0.00037507	833.02	1.0795e-05	3.2035e-05	794.98	173.82	3.5898e-05	1.8397e-05	228.94	75.395	42.205	15.167	4.576e-06	36.993	0.018743	0.019271	0.0052828	1527.4	0.00021636	0.00021126	1462.3	363.56	0.00021591	0.00021089	526.71	186.21	182.28	48.598	0.00020731	85.086	152.801	-64.638	64.935	-160.754	-74.289	134.276	-160.902	-156.187	35.887	-5.847	-155.228	-148.891	-150.181	-142.888	-113.124	-144.228	-8191	255	
8041.018	1	1	0	0	0.034025	0.2154	0.14269	0.15975	0.31048	0.36813	0.16317	0.28243	0.13986	0.09991	0.16125	0.16655	0.29137	0.2599	0.054875	0.22943	-0.035417	0.0375	-0.78125	0.058333	-0.175	-0.7375	0.039583	-0.60833	-0.36875	0.089583	-0.925	-0.035417	-0.1	-0.78958	0.17292	-0.6875	125.017	23.158	95.055	107.028	40.436	138.119	120.082	-154.710	87.239	-68.389	-172.780	79.530	89.862	37.783	-153.858	124.192	0.00056954	0.0029377	0.00023645	827.96	3.3183e-05	3.5198e-05	797.14	173.36	2.2561e-05	2.5769e-05	228.32	74.147	40.757	15.109	4.0728e-05	36.841	0.018521	0.019095	0.0053154	1539.5	0.00021183	0.00020986	1469.4	363.94	0.00021108	0.00020661	527.11	185.32	178.14	47.418	0.00020645	83.578	-136.980	66.485	13.431	-160.667	-110.530	-160.577	-160.474	-155.097	-107.384	48.551	-155.968	-149.079	-149.952	-142.955	-156.975	-143.711	-8191	255	
8041.139	1	1	0	0	0.11848	0.19745	0.17039	0.19603	0.0592	0.1424	0.44485	0.022372	0.028739	0.13532	0.019833	0.22053	0.30091	0.11032	0.37658	0.075147	-0.1875	0.15625	-0.82083	-0.31875	-0.085417	-0.78125	-0.035417	-0.57917	-0.59375	0.066667	-0.9125	-0.20625	0.0875	-0.96042	-0.0020833	-0.64375	-158.573	62.690	85.096	-138.862	167.565	-122.180	107.089	22.047	-119.511	-112.852	-55.227	150.099	-109.227	30.249	156.947	-94.679	0.0013243	0.0032388	0.0004391	820.13	2.6852e-05	1.7371e-05	792.43	173.89	1.4925e-05	2.7369e-05	228.16	73.267	40.61	14.971	1.8942e-05	36.835	0.017896	0.018539	0.0053049	1517.5	0.00020417	0.00020361	1465	359.6	0.00020536	0.00020246	529.04	183.14	175.38	47.252	0.00021063	83.209	129.328	-39.427	172.641	-160.400	-115.984	28.151	-160.431	-154.586	83.824	-167.235	-154.817	-148.849	-148.441	-142.113	-141.275	-143.478	-8191	255	
8041.210	1	1	0	0	0.19016	0.25153	0.12173	0.31588	0.30094	0.091165	0.14599	0.18466	0.033757	0.11264	0.14812	0.091465	0.26672	0.13034	0.11523	0.099988	-0.085417	0.12708	-0.78958	-0.34583	-0.083333	-0.725	-0.022917	-0.24583	-0.49375	0.095833	-0.78333	-0.29167	0.10833	-0.73542	0.014583	-0.21458	-40.354	90.262	-19.311	132.376	175.292	103.226	107.161	-44.135	-31.333	47.919	179.354	137.175	-160.476	-120.317	131.278	-113.278	0.00096567	0.0027224	0.00072302	822.28	2.2203e-05	4.8041e-05	806.93	173.11	2.0814e-05	1.7067e-05	228.74	73.77	41.92	15.163	2.6672e-05	36.84	0.017768	0.018535	0.0054268	1518.1	0.00020384	0.00020457	1486.6	357.92	0.00020496	0.00020394	537.37	182.49	175.04	47.887	0.0002156	83.086	147.655	122.295	170.526	-160.282	-46.917	63.316	-160.355	-154.765	-113.405	133.782	-154.875	-148.939	-149.137	-142.367	-114.468	-142.998	-8191	255	
8041.306	1	1	0	0	0.21959	0.15436	0.30846	0.14348	0.13045	0.016563	0.17898	0.31574	0.090333	0.036442	0.12876	0.045899	0.095515	0.11438	0.3463	0.18239	-0.33542	0.17708	-0.75208	-0.48958	0.18542	-0.80833	-0.17917	-0.22292	-0.81667	0.10208	-0.28542	-0.64375	0.089583	-0.93958	-0.23125	-0.2375	-14.874	107.876	-168.458	181.077	-156.126	-128.316	121.683	174.919	73.352	164.046	155.599	10.563	167.601	156.749	126.082	-6.249	0.00048056	0.0029489	0.00077047	833.2	1.6563e-05	3.732e-05	801.72	174.58	5.5869e-06	3.8221e-05	228.19	74.153	40.471	14.856	2.7142e-05	36.841	0.017721	0.018803	0.005488	1506.8	0.00020209	0.0002091	1501.4	355.7	0.00020332	0.00020819	537.06	180.51	172.07	47.761	0.00021143	81.149	56.960	-146.824	-96.848	-159.468	85.105	-91.099	-160.707	-154.794	-55.715	-109.773	-155.147	-149.183	-150.245	-142.940	-10.915	-143.673	-8191	255	
8041.403	1	1	0	0	0.13005	0.081829	0.018534	0.077691	0.20858	0.091582	0.15418	0.068864	0.30713	0.19733	0.11491	0.15273	0.11345	0.25753	0.4955	0.22152	-0.44375	0.27708	-0.675	-0.5625	0.27292	-0.75833	-0.35833	-0.041667	-0.78333	0.28958	-0.61667	-0.55625	0.18333	-0.68333	-0.21875	-0.060417	-36.417	83.151	89.027	145.999	10.060	66.865	-19.890	147.407	-161.004	108.366	60.848	145.212	-131.545	67.259	-30.937	133.121	0.00080423	0.0032336	0.00057324	825.72	7.0378e-06	4.2599e-05	803.5	173.86	1.5744e-05	1.4864e-05	225.91	73.289	40.626	14.807	5.1104e-05	36.394	0.017238	0.018896	0.0053692	1487	0.00019711	0.00020838	1472.3	348.35	0.00019877	0.00020876	524.4	176.54	169.93	48.044	0.00020751	80.02	166.768	-166.112	-169.813	-159.714	-146.126	-32.819	-160.443	-154.650	100.759	-61.236	-154.643	-148.998	-149.741	-142.194	-17.402	-144.156	-8191	255	
8041.499	1	1	0	0	0.32336	0.24982	0.03139	0.28738	0.010025	0.21171	0.046969	0.06847	0.15912	0.19364	0.14185	0.39759	0.20218	0.24583	0.19277	0.13066	-0.38542	0.0875	-0.2625	-0.85833	0.19167	-0.68542	-0.57292	0.14375	-0.85208	-0.18958	-0.31042	-0.72917	0.12917	-0.7125	-0.35417	-0.022917	151.645	-76.641	16.023	-112.608	-13.744	72.724	-159.062	131.305	-83.046	48.132	-101.287	-139.375	157.749	-71.953	184.239	-44.353	0.00061534	0.003888	0.00073482	820.63	5.0253e-05	1.7652e-05	788.24	173.69	1.8276e-05	1.9413e-05	227.18	73.052	41.68	15.058	2.1421e-05	36.489	0.017197	0.0192	0.0052446	1477.4	0.00019704	0.00021024	1453.8	344.81	0.00019913	0.00021036	517.45	175.71	171.67	48.314	0.00020394	79.77	183.851	-153.220	-12.683	-160.292	-126.396	141.832	-160.119	-154.758	-150.489	127.442	-154.681	-149.590	-149.877	-142.724	-35.626	-143.503	-8191	255	
8041.618	1	1	0	0	0.18174	0.18544	0.025559	0.1112	0.11708	0.16174	0.37542	0.23214	0.23389	0.22399	0.12132	0.14018	0.25043	0.045241	0.037082	0.23711	-0.48542	-0.091667	-0.0875	-0.84792	0.03125	-0.58958	-0.69375	0.14375	-0.65625	-0.23958	-0.05625	-0.9625	0.22708	-0.42083	-0.58958	-0.01875	-148.715	-19.901	82.313	4.431	119.587	-66.741	120.730	44.282	-20.779	53.494	165.608	109.397	186.354	-148.975	-46.116	98.841	0.0014964	0.0019716	0.00058016	831.35	4.9711e-05	2.076e-05	798.99	173.71	3.9874e-06	3.6268e-05	227.43	73.08	40.29	14.78	2.9811e-05	36.52	0.017447	0.019331	0.0051668	1476.8	0.00020223	0.00021195	1453.5	345.07	0.00020477	0.00021129	516.59	175.76	175.01	48.069	0.00020131	79.554	81.965	-96.903	-112.793	-160.313	-122.608	-101.743	-160.166	-155.089	160.201	137.130	-154.666	-149.016	-150.733	-142.450	-154.629	-143.318	-8191	255	
8041.714	1	1	0	0	0.15241	0.22434	0.19859	0.1168	0.082265	0.16356	0.095205	0.19916	0.32611	0.088196	0.19012	0.10386	0.17026	0.093898	0.053417	0.078842	-0.27292	-0.3125	-0.00625	-0.73125	0.039583	-0.40208	-0.84375	0.10833	-0.77708	-0.40625	-0.077083	-0.84792	0.041667	-0.42708	-0.575	-0.05	126.822	117.642	30.678	70.673	-22.201	177.623	55.853	74.184	-94.804	-108.925	-169.050	182.772	63.741	-54.703	65.736	82.882	0.0016308	0.0025571	0.00033008	827.5	3.029e-05	1.0671e-05	799.54	172.36	4.6677e-05	3.7813e-05	228.1	73	40.02	14.617	1.6749e-05	35.61	0.017893	0.019259	0.0051148	1472.9	0.00020605	0.00020823	1445	344.38	0.00020781	0.00020804	510.47	174.84	177.31	47.209	0.00019995	79.067	115.061	-142.838	-99.232	-160.290	184.674	-55.367	-160.783	-155.191	-123.286	128.666	-155.018	-149.726	-150.575	-141.700	-29.415	-144.433	-8191	255	
8041.810	1	1	0	0	0.28459	0.21122	0.095333	0.3516	0.27258	0.17449	0.27226	0.21878	0.12555	0.39967	0.2569	0.21124	0.25956	0.054157	0.090744	0.18176	-0.26458	-0.44375	0.1375	-0.79792	0.01875	-0.125	-0.8125	0.0125	-0.64375	-0.53333	-0.097917	-0.82292	-0.15417	-0.29167	-0.78542	-0.11458	42.178	12.157	170.484	168.596	-14.001	-19.791	164.498	-166.195	-96.559	-92.620	59.966	151.459	108.321	-101.591	78.000	-165.957	0.00070459	0.0017882	0.00031837	830.67	1.1994e-05	2.8113e-05	792.74	171.74	2.1359e-05	6.0923e-06	221.89	71.636	39.961	14.488	1.8888e-05	35.451	0.017999	0.018645	0.005009	1467.5	0.00020633	0.00020058	1418.8	341.51	0.0002048	0.00020069	499.71	172.8	174.21	45.464	0.00019143	78.403	133.644	13.810	-55.009	-160.572	160.475	-33.111	-160.353	-155.056	-42.250	29.445	-154.813	-149.763	-150.602	-141.976	-52.419	-144.148	-8191	255	
8041.906	1	1	0	0	0.046807	0.25423	0.12677	0.19536	0.22371	0.23045	0.24886	0.17226	0.036477	0.14309	0.16348	0.16883	0.27623	0.10566	0.1819	0.18912	-0.22708	-0.5875	0.00625	-0.75833	-0.40417	-0.4	-0.85833	-0.022917	-0.65417	-0.67917	0.010417	-0.78333	-0.31875	-0.045833	-0.76875	-0.095833	-153.464	83.509	178.902	-91.788	178.261	-167.681	182.388	82.416	34.991	-82.809	126.758	182.094	113.664	134.687	100.910	73.872	0.00064547	0.0012848	0.000327	824.55	2.9253e-05	3.926e-05	795.02	171.56	3.2921e-05	2.342e-05	224.71	72.451	40.629	14.877	1.5409e-05	36.085	0.017351	0.017783	0.0047912	1455.9	0.00019953	0.00019342	1406.1	343.97	0.00019884	0.00019526	497.35	175.49	172.92	45.481	0.00019148	80.061	128.286	-34.819	1.019	-160.584	-25.943	53.482	-160.537	-155.277	16.258	23.261	-155.154	-149.789	-150.347	-142.176	-82.646	-143.998	-8191	255	
8042.002	1	1	0	0	0.1417	0.078598	0.10161	0.31083	0.28416	0.081174	0.32114	0.22992	0.15125	0.30453	0.25743	0.24135	0.053348	0.39063	0.2761	0.30595	-0.085417	-0.79583	0.15208	-0.85	-0.22292	0.041667	-0.82292	-0.23125	-0.4375	-0.8	0.033333	-0.81042	-0.325	-0.058333	-0.84583	-0.19792	106.817	117.113	-61.842	168.502	-163.386	-150.348	114.910	59.238	90.474	-0.765	162.185	144.130	118.015	159.548	161.686	121.145	0.00016048	0.0029316	0.00048199	830.48	4.555e-06	4.4208e-07	796.39	173.78	4.8947e-05	1.0346e-05	225.94	72.723	40.247	14.656	1.9273e-05	35.915	0.017255	0.0179	0.0048693	1482.9	0.00019973	0.00019399	1421	350.8	0.0001992	0.00019564	502.27	177.56	170.57	45.187	0.00019443	80.377	-156.616	2.825	-101.804	-159.835	163.159	7.145	-160.581	-154.680	-50.886	-12.078	-155.388	-149.099	-150.629	-142.713	60.375	-144.050	-8191	255	
8042.098	1	1	0	0	0.17375	0.16385	0.17738	0.24826	0.16315	0.28606	0.16537	0.2625	0.051325	0.2338	0.10064	0.18424	0.23044	0.1581	0.16799	0.097046	0.32083	-0.65	0.075	-0.69792	-0.43958	0.1375	-0.96458	-0.25417	-0.23958	-0.71458	0.1	-0.59375	-0.67708	0.079167	-0.8875	-0.38958	-171.508	2.352	97.702	-136.108	-135.992	39.502	136.556	-141.080	57.190	-148.025	99.692	73.104	-105.347	-167.722	-93.614	25.260	0.0001527	0.0016857	0.00046269	824.29	7.6014e-06	3.5732e-06	791.65	171.43	1.1626e-05	7.0184e-06	225.33	72.982	40.007	14.441	2.3135e-05	35.831	0.016799	0.017549	0.0048871	1479.2	0.00019375	0.0001893	1416	345.87	0.00019108	0.00018988	499.44	174.29	165.38	43.982	0.00019378	79.123	119.268	-59.811	145.065	-159.815	-109.853	157.824	-160.877	-154.602	63.387	-55.122	-155.074	-148.749	-150.157	-142.751	-169.323	-143.431	-8191	255	
8042.219	1	1	0	0	0.046608	0.12078	0.086681	0.12129	0.16718	0.067386	0.21982	0.1418	0.097512	0.16941	0.27356	0.37848	0.33601	0.29929	0.043377	0.33624	0.34792	-0.8125	0.18125	-0.60208	-0.73333	0.089583	-0.73333	-0.23125	-0.18542	-0.6875	-0.072917	-0.46875	-0.68542	0.095833	-0.75208	-0.50417	184.319	186.622	9.211	-163.982	58.368	-106.082	181.210	-82.844	111.402	60.435	149.383	-26.070	119.809	40.259	-73.591	63.025	0.00077752	0.0049226	0.00021082	828.11	2.081e-05	8.9662e-06	794.71	171.67	1.0019e-05	2.1561e-05	226.27	72.804	40.3	15.014	7.231e-06	36.595	0.016355	0.017164	0.0049438	1458.7	0.00018901	0.00018657	1422.7	343.58	0.00018745	0.00018778	504.18	172.43	165.1	44.496	0.00019755	79.201	156.653	-3.760	-161.976	-159.696	64.989	45.409	-160.781	-154.397	-40.869	176.228	-155.471	-149.154	-149.594	-142.491	174.607	-143.387	-8191	255	
8042.313	1	1	0	0	0.17375	0.27005	0.30694	0.24666	0.20451	0.16837	0.29192	0.23583	0.35976	0.15022	0.26533	0.31658	0.29665	0.10596	0.28421	0.16362	0.39583	-0.68958	-0.10833	-0.42083	-0.66458	0.04375	-0.78333	-0.59583	-0.18958	-1.0146	-0.022917	-0.16458	-0.94167	-0.029167	-0.84583	-0.72083	-121.553	107.933	128.791	-155.336	-87.268	-29.770	116.400	-130.208	161.710	35.982	98.099	67.777	-146.488	-27.121	-172.159	82.479	0.0012686	0.0039625	0.00053318	830.6	1.9516e-05	1.4818e-05	797.66	174.65	4.7283e-05	2.3505e-05	228.15	74.114	41.361	15.071	2.5014e-05	36.851	0.016184	0.017343	0.0050496	1458.3	0.0001889	0.00018958	1440.4	342.9	0.00018751	0.00019269	515.12	173.56	165.78	45.542	0.00020035	79.357	135.049	111.903	-147.971	-159.690	-2.265	-133.311	-160.186	-154.267	-90.626	183.859	-154.767	-148.406	-150.022	-142.521	-125.650	-143.379	-8191	255	
8042.409	1	1	0	0	0.29373	0.063485	0.22976	0.20313	0.11465	0.11896	0.065594	0.25339	0.057466	0.23018	0.34397	0.13917	0.19421	0.34566	0.21523	0.25221	0.61458	-0.96667	-0.225	-0.375	-0.75	0.0625	-0.65	-0.57917	0.19375	-0.69167	-0.41042	-0.17083	-0.78125	0.18958	-0.4	-0.85	-122.523	60.816	-153.481	147.153	-27.635	91.411	-72.818	130.282	-19.502	-85.636	169.982	65.230	116.783	-143.121	-105.294	134.919	0.00053681	0.0037821	0.00067686	836.32	1.1906e-05	2.0758e-05	799.52	174.73	3.3517e-05	4.1183e-05	230.66	73.458	41.738	14.926	3.8382e-05	36.378	0.016247	0.017831	0.0050978	1453.7	0.00018846	0.00019491	1448.4	340.51	0.00018576	0.00019636	511.83	171.22	163.95	45.75	0.00019627	78.123	-150.688	135.014	-105.914	-159.739	-91.129	-128.345	-159.753	-154.682	37.794	-104.577	-154.659	-148.430	-149.842	-142.075	-10.156	-143.012	-8191	255	
8042.506	1	1	0	0	0.10539	0.059783	0.11972	0.059971	0.1098	0.18992	0.071919	0.22318	0.18046	0.16207	0.27549	0.25424	0.077082	0.094489	0.2082	0.12521	0.475	-0.64167	-0.17708	0.03125	-0.70833	0.091667	-0.43958	-0.8625	0.26875	-0.70417	-0.29583	0.010417	-0.67292	0.089583	-0.25	-0.97917	-108.360	179.892	82.190	-92.024	2.560	55.002	157.010	127.938	131.676	-24.930	168.878	-83.224	107.121	-87.613	113.327	-37.337	0.00026171	0.0014643	0.00021441	825.44	1.4791e-05	3.5373e-05	800.92	172.32	1.5963e-05	1.4294e-05	224.94	72.189	40.991	14.662	1.8644e-05	36.259	0.016089	0.018143	0.0050317	1443.3	0.00018788	0.00019862	1427.1	339.02	0.00018705	0.00020025	504.09	169.22	164.19	46.305	0.00019343	77.458	-161.854	22.949	-23.322	-159.642	-70.918	165.695	-160.073	-154.682	-107.709	-81.863	-154.555	-148.762	-149.878	-142.600	16.037	-143.130	-8191	255	
#DATA ENDS
