BOXY.EXE: ISS Imagent and Oximeter Data Acquisition Program Version 0.80
Ascii Record File

#ACQ INFORMATION
2  Detector Channels 
16  External MUX Channels 
1  Auxiliary Channels 
5000  Waveform (CCF) Frequency (Hz)
1  Waveforms Skipped 
30  Waveforms Averaged 
1  Cycles Averaged 
16  Acquisitions per Waveform 
10.0806  Updata Rate (Hz) 

#FILE INFORMATION
TRUE -- External MUX Channel results are PARSED.
FALSE -- AC DC and Phase are NOT grouped.
TRUE -- Companion Program Settings File CREATED.
FALSE -- AC data not excluded
FALSE -- DC data not excluded
FALSE -- Phase data not excluded
FALSE -- Auxillary Chn. data not excluded
Tab delimiters

#CALIBRATION STATE
TRUE -- Waveform Calibration Values APPLIED.


#AUX CALIBRATION VALUES
Val Type	aux-1	

Term	1.0000e+00	
Factor	0.0000e+00	


#WF CALIBRATION VALUES
A = Detector Channel
Val Type	A-AC1	A-AC2	A-AC3	A-AC4	A-AC5	A-AC6	A-AC7	A-AC8	A-AC9	A-AC10	A-AC11	A-AC12	A-AC13	A-AC14	A-AC15	A-AC16	A-DC1	A-DC2	A-DC3	A-DC4	A-DC5	A-DC6	A-DC7	A-DC8	A-DC9	A-DC10	A-DC11	A-DC12	A-DC13	A-DC14	A-DC15	A-DC16	A-Ph1	A-Ph2	A-Ph3	A-Ph4	A-Ph5	A-Ph6	A-Ph7	A-Ph8	A-Ph9	A-Ph10	A-Ph11	A-Ph12	A-Ph13	A-Ph14	A-Ph15	A-Ph16	

Term	0.00000e+00	0.00000e+00	0.00000e+00	0.00000e+00	0.00000e+00	0.00000e+00	0.00000e+00	0.00000e+00	0.00000e+00	0.00000e+00	0.00000e+00	0.00000e+00	0.00000e+00	0.00000e+00	0.00000e+00	0.00000e+00	0.00000e+00	0.00000e+00	0.00000e+00	0.00000e+00	0.00000e+00	0.00000e+00	0.00000e+00	0.00000e+00	0.00000e+00	0.00000e+00	0.00000e+00	0.00000e+00	0.00000e+00	0.00000e+00	0.00000e+00	0.00000e+00	0.00000e+00	0.00000e+00	0.00000e+00	0.00000e+00	0.00000e+00	0.00000e+00	0.00000e+00	0.00000e+00	0.00000e+00	0.00000e+00	0.00000e+00	0.00000e+00	0.00000e+00	0.00000e+00	0.00000e+00	0.00000e+00	
Factor	1.00000e+00	1.00000e+00	1.00000e+00	1.00000e+00	1.00000e+00	1.00000e+00	1.00000e+00	1.00000e+00	1.00000e+00	1.00000e+00	1.00000e+00	1.00000e+00	1.00000e+00	1.00000e+00	1.00000e+00	1.00000e+00	1.00000e+00	1.00000e+00	1.00000e+00	1.00000e+00	1.00000e+00	1.00000e+00	1.00000e+00	1.00000e+00	1.00000e+00	1.00000e+00	1.00000e+00	1.00000e+00	1.00000e+00	1.00000e+00	1.00000e+00	1.00000e+00	X	X	X	X	X	X	X	X	X	X	X	X	X	X	X	X	

B = Detector Channel
Val Type	B-AC1	B-AC2	B-AC3	B-AC4	B-AC5	B-AC6	B-AC7	B-AC8	B-AC9	B-AC10	B-AC11	B-AC12	B-AC13	B-AC14	B-AC15	B-AC16	B-DC1	B-DC2	B-DC3	B-DC4	B-DC5	B-DC6	B-DC7	B-DC8	B-DC9	B-DC10	B-DC11	B-DC12	B-DC13	B-DC14	B-DC15	B-DC16	B-Ph1	B-Ph2	B-Ph3	B-Ph4	B-Ph5	B-Ph6	B-Ph7	B-Ph8	B-Ph9	B-Ph10	B-Ph11	B-Ph12	B-Ph13	B-Ph14	B-Ph15	B-Ph16	

Term	0.00000e+00	0.00000e+00	0.00000e+00	0.00000e+00	0.00000e+00	0.00000e+00	0.00000e+00	0.00000e+00	0.00000e+00	0.00000e+00	0.00000e+00	0.00000e+00	0.00000e+00	0.00000e+00	0.00000e+00	0.00000e+00	0.00000e+00	0.00000e+00	0.00000e+00	0.00000e+00	0.00000e+00	0.00000e+00	0.00000e+00	0.00000e+00	0.00000e+00	0.00000e+00	0.00000e+00	0.00000e+00	0.00000e+00	0.00000e+00	0.00000e+00	0.00000e+00	-1.16366e+02	-1.34525e+02	-1.24640e+02	-1.81440e+02	-6.20949e+01	-6.64202e+01	-1.56427e+02	-1.62015e+02	-6.69733e+01	-6.15982e+01	-1.71980e+02	-1.69516e+02	-1.84939e+02	-1.76465e+02	-6.54987e+01	-1.48787e+02	
Factor	1.61643e-05	1.38122e-04	4.24785e-05	1.47321e-01	1.18619e-06	1.52504e-06	1.65925e-01	4.94256e-02	1.07980e-06	1.67298e-06	8.54847e-02	2.70576e-02	2.30815e-02	8.67598e-03	1.25400e-06	1.23377e-02	1.12576e-05	2.02003e-05	5.73018e-06	7.73108e-02	2.02464e-07	2.30455e-07	8.19583e-02	2.61172e-02	2.05112e-07	2.28814e-07	4.35796e-02	1.39337e-02	1.23178e-02	4.61571e-03	2.14390e-07	6.36437e-03	X	X	X	X	X	X	X	X	X	X	X	X	X	X	X	X	



#DISTANCE SETTINGS
A = Detector Channel
A-1	A-2	A-3	A-4	A-5	A-6	A-7	A-8	A-9	A-10	A-11	A-12	A-13	A-14	A-15	A-16	

2.5000e+00	3.0000e+00	2.5000e+00	3.0000e+00	2.0000e+00	3.0000e+00	1.5000e+00	3.0000e+00	3.0000e+00	3.0000e+00	3.0000e+00	3.0000e+00	3.0000e+00	3.0000e+00	1.5000e+00	3.0000e+00	

B = Detector Channel
B-1	B-2	B-3	B-4	B-5	B-6	B-7	B-8	B-9	B-10	B-11	B-12	B-13	B-14	B-15	B-16	

1.0000e+01	1.0000e+01	1.0000e+01	1.4400e+00	1.0000e+01	1.0000e+01	1.5100e+00	1.9400e+00	1.0000e+01	1.0000e+01	1.9900e+00	2.4900e+00	2.4100e+00	2.9000e+00	1.0000e+01	2.9800e+00	




#DATA BEGINS
time	group	step	mark	flag	A-AC1	A-AC2	A-AC3	A-AC4	A-AC5	A-AC6	A-AC7	A-AC8	A-AC9	A-AC10	A-AC11	A-AC12	A-AC13	A-AC14	A-AC15	A-AC16	A-DC1	A-DC2	A-DC3	A-DC4	A-DC5	A-DC6	A-DC7	A-DC8	A-DC9	A-DC10	A-DC11	A-DC12	A-DC13	A-DC14	A-DC15	A-DC16	A-Ph1	A-Ph2	A-Ph3	A-Ph4	A-Ph5	A-Ph6	A-Ph7	A-Ph8	A-Ph9	A-Ph10	A-Ph11	A-Ph12	A-Ph13	A-Ph14	A-Ph15	A-Ph16	B-AC1	B-AC2	B-AC3	B-AC4	B-AC5	B-AC6	B-AC7	B-AC8	B-AC9	B-AC10	B-AC11	B-AC12	B-AC13	B-AC14	B-AC15	B-AC16	B-DC1	B-DC2	B-DC3	B-DC4	B-DC5	B-DC6	B-DC7	B-DC8	B-DC9	B-DC10	B-DC11	B-DC12	B-DC13	B-DC14	B-DC15	B-DC16	B-Ph1	B-Ph2	B-Ph3	B-Ph4	B-Ph5	B-Ph6	B-Ph7	B-Ph8	B-Ph9	B-Ph10	B-Ph11	B-Ph12	B-Ph13	B-Ph14	B-Ph15	B-Ph16	aux-1	digaux	

28643.676	1	1	0	512	0.13096	0.20113	0.07561	0.3114	0.082143	0.1304	0.14373	0.4842	0.09224	0.22523	0.1525	0.19884	0.28433	0.25529	0.097386	0.20755	0.089583	-0.59583	-0.89583	-0.43542	-0.9875	-0.60208	-0.6125	-1.2042	-0.28125	-0.52917	-1.0229	-0.35625	-1.0562	-0.8125	-0.25208	-1.1125	175.796	161.645	230.514	-73.407	70.731	252.540	223.376	228.482	169.769	7.839	231.839	207.540	239.775	240.131	29.901	-82.594	7.4449e-05	0.0011469	0.00020994	977.43	1.2961e-05	1.4818e-05	620.92	365.78	7.5767e-06	8.2877e-06	218.73	97.902	160.21	79.223	5.0346e-06	47.756	0.0158	0.027882	0.0079597	1048.4	0.00028204	0.00032145	711.72	391.21	0.0002859	0.00031841	270.53	114.44	174.22	84.14	0.00029508	55.269	190.001	-66.677	204.154	-81.466	216.910	52.576	-83.311	-75.572	157.924	78.183	-79.420	-75.175	-71.319	-67.429	205.196	-72.411	-8191	255	
28643.748	1	1	0	0	0.19251	0.15858	0.10556	0.38551	0.090423	0.095114	0.084315	0.20853	0.065338	0.23889	0.14679	0.16576	0.30916	0.18267	0.14318	0.18451	-0.11875	-0.48958	-0.89167	-0.31042	-0.97083	-0.80625	-0.27083	-1.0729	-0.37708	-0.37292	-1.1833	-0.29167	-1.2896	-1.0583	-0.28958	-1.2062	-65.745	6.940	14.219	216.048	69.540	141.494	239.102	-26.918	-7.056	251.729	228.786	74.559	228.567	247.415	47.561	40.814	0.00013112	0.00082916	0.00022021	978.95	9.6929e-06	3.5923e-06	620.37	365.18	5.8799e-06	1.7374e-05	218.76	96.911	159.98	79.561	6.3295e-06	48.126	0.015674	0.027885	0.0079386	1047.7	0.00028261	0.0003199	707.31	390.21	0.00028642	0.00031721	269.17	113.6	174.01	84.13	0.00029569	55.34	189.667	-4.807	-12.421	-81.580	86.369	-4.958	-83.775	-76.033	70.490	-16.582	-79.444	-75.428	-71.511	-67.445	-64.970	-72.054	-8191	255	
28643.844	1	1	0	0	0.05891	0.25286	0.2385	0.12006	0.21552	0.27439	0.12244	0.068703	0.34701	0.2703	0.11728	0.26248	0.22244	0.32807	0.2326	0.30484	-0.19583	-0.40208	-1.1812	-0.36875	-0.78542	-0.81667	-0.3625	-1.2563	-0.75417	-0.59583	-1.1	-0.5375	-0.6875	-1.3583	-0.26458	-1.0646	57.932	245.223	-40.686	-23.120	73.040	-75.334	184.099	222.148	119.905	74.976	198.353	-80.659	-68.061	234.421	-12.488	-63.952	8.8854e-05	0.00053274	0.00032918	979.26	8.2426e-06	3.3537e-06	619.66	364.7	1.0982e-05	1.1018e-05	215.04	96.159	160.27	79.477	1.1383e-05	48.116	0.015608	0.027774	0.0078789	1045.4	0.00027918	0.0003165	706.15	389.06	0.00028197	0.00031367	267.82	113.4	173.51	84.061	0.00029251	55.438	210.701	216.602	-69.863	-81.519	-86.167	99.175	-83.479	-75.895	-22.030	150.930	-79.163	-75.250	-71.597	-67.585	101.089	-71.844	-8191	255	
28643.963	1	1	0	0	0.19478	0.1263	0.16088	0.36923	0.13726	0.24699	0.28617	0.15623	0.1519	0.075689	0.18166	0.086708	0.20993	0.10902	0.1568	0.080024	-0.2375	-0.24167	-1.0542	-0.55625	-0.63125	-1.0167	-0.26667	-1.2271	-0.7625	-0.3625	-1.1229	-0.38125	-0.725	-1.1229	-0.30833	-1.0146	124.896	229.634	21.914	200.655	-47.061	124.364	146.672	265.879	48.583	-70.245	163.213	-68.003	215.060	222.465	180.997	155.744	0.00017307	0.00040064	0.00018998	976.91	7.2569e-06	1.5658e-05	619.4	363.23	9.0392e-06	3.0469e-07	217.05	97.032	159.87	79.949	5.2858e-06	48.463	0.015543	0.027715	0.0078492	1043.2	0.0002762	0.00031452	706.95	388.71	0.00027833	0.00031051	269.08	113.81	173.13	84.422	0.00028888	55.649	172.511	-5.144	-57.500	-81.726	116.478	29.859	-83.375	-75.690	61.392	125.346	-79.188	-75.369	-71.657	-67.481	-90.569	-72.117	-8191	255	
28644.059	1	1	0	0	0.21768	0.21059	0.11083	0.42175	0.27307	0.13179	0.29592	0.11585	0.26948	0.29263	0.087112	0.15668	0.22343	0.22348	0.16215	0.2286	-0.46667	-0.44792	-1.1979	-0.34375	-0.46042	-1.2104	-0.42708	-1.1792	-0.75625	-0.27917	-1.1771	-0.65208	-0.53125	-1.2625	-0.15	-0.95833	191.717	181.484	206.651	240.331	148.022	-71.348	225.994	243.875	150.353	163.837	43.543	109.850	-85.651	-83.392	47.013	213.070	0.00031429	0.00065671	0.00018223	973.25	8.5986e-06	9.9286e-07	625.19	362.29	5.9771e-06	7.6281e-06	217.86	97.456	159.35	78.97	3.8582e-06	48.271	0.015412	0.027393	0.0077626	1039.4	0.00027065	0.00030882	708.56	386.53	0.0002721	0.00030428	268.37	113.25	172.16	83.79	0.00028658	55.349	226.724	10.901	251.608	-81.586	77.279	62.486	-83.289	-75.581	239.093	36.408	-79.493	-75.240	-71.228	-67.435	136.941	-72.521	-8191	255	
28644.154	1	1	0	0	0.18017	0.12748	0.22053	0.15856	0.060407	0.36459	0.23218	0.27591	0.14794	0.11664	0.1505	0.1522	0.18061	0.077146	0.19892	0.13173	-0.45833	-0.21042	-1.0521	-0.64792	-0.34167	-1.1417	-0.4	-0.9875	-1.0854	-0.066667	-0.96875	-0.65833	-0.42292	-1.3271	-0.38125	-0.65417	59.154	-71.992	-22.286	-92.490	15.815	44.193	164.769	219.786	143.959	19.477	149.390	168.581	-40.767	202.621	209.755	91.658	0.00017225	0.0013125	0.00034875	968	4.6123e-06	6.7619e-07	618.82	359.65	4.2991e-06	1.8142e-05	215.14	96.076	157.47	79.038	9.2176e-06	47.79	0.015057	0.026751	0.0076829	1032	0.00026842	0.0003056	701.08	383.95	0.00027075	0.00030303	265.15	111.83	170.72	83.314	0.00028301	54.763	184.019	98.650	7.655	-81.666	168.311	201.359	-83.358	-75.843	-15.005	111.231	-79.209	-75.637	-71.352	-67.296	12.262	-72.380	-8191	255	
28644.252	1	1	0	0	0.036539	0.030632	0.078676	0.22423	0.075374	0.056874	0.38862	0.21362	0.14028	0.21478	0.087751	0.26312	0.29776	0.033204	0.072944	0.19241	-0.66042	-0.425	-0.84583	-0.8375	-0.24583	-1.0812	-0.45	-0.79167	-1.1979	-0.12292	-0.975	-0.91875	-0.46042	-1.2417	-0.43333	-0.70208	170.369	125.283	139.570	194.380	231.074	253.292	207.977	255.226	47.523	237.569	238.925	218.933	242.522	89.159	73.424	219.455	0.00029824	0.00085298	0.00017298	972.27	2.8098e-06	2.2701e-05	620.66	360.37	3.5755e-06	9.8652e-06	217.99	96.611	158.49	79.343	5.3027e-06	48.047	0.014978	0.026699	0.0075826	1034.5	0.00026754	0.00030442	703.45	384.53	0.00026966	0.00030483	265.92	112.58	171.46	83.732	0.00028347	55.014	187.402	-49.698	-47.835	-81.626	89.071	14.320	-83.564	-75.667	229.876	101.340	-78.774	-75.090	-71.349	-67.308	-45.322	-72.370	-8191	255	
28644.348	1	1	0	0	0.22094	0.066348	0.10049	0.2227	0.24831	0.21095	0.37261	0.41595	0.016568	0.12232	0.20165	0.11631	0.26906	0.29002	0.2068	0.02634	-0.7375	-0.23333	-0.79583	-1.0792	-0.13333	-1.1271	-0.59375	-0.55208	-1.175	-0.4875	-0.77708	-1.1354	-0.29375	-1.2667	-0.49167	-0.53333	8.817	63.561	6.620	243.780	253.841	-21.562	264.043	-92.277	251.493	183.111	236.713	-29.742	237.898	-63.618	-75.207	13.925	0.0001032	0.00079404	0.00020295	974.1	4.5666e-06	2.8635e-05	622.64	361.71	6.5365e-06	1.963e-05	217.29	96.271	158.56	79.78	3.9269e-06	48.269	0.015036	0.026905	0.0076348	1039	0.0002694	0.00030718	706.23	386.11	0.00027157	0.00030322	266.47	112.65	171.22	83.915	0.00028401	55.333	-78.622	-8.740	112.709	-81.498	-49.796	126.085	-83.613	-75.795	89.639	208.520	-79.188	-75.390	-71.462	-67.220	51.621	-72.258	-8191	255	
28644.443	1	1	0	0	0.17575	0.092186	0.17145	0.27807	0.14509	0.162	0.1309	0.20352	0.040632	0.14181	0.21679	0.13967	0.15684	0.13341	0.1563	0.34695	-0.81667	-0.3375	-0.56875	-1.1688	-0.17708	-1.0604	-0.725	-0.17292	-1.2667	-0.52917	-0.65417	-1.3229	-0.4625	-1.0896	-0.72292	-0.33333	147.928	183.008	258.243	264.010	258.801	-18.297	113.120	-74.386	209.866	0.085	259.655	-62.539	259.102	-89.384	148.125	221.922	0.00020559	0.001087	0.00020869	976.04	7.9535e-06	1.0106e-05	623.97	361.97	5.6995e-06	6.5679e-06	218.53	97.034	158.68	79.255	8.8345e-06	49.109	0.015074	0.026834	0.0075476	1038.8	0.00026759	0.0003067	710.07	385.51	0.00027233	0.0003058	268.09	113.27	171.72	83.978	0.00028415	56.057	248.785	-31.534	-7.885	-81.655	-59.177	62.428	-83.489	-75.858	176.344	98.848	-79.152	-75.222	-71.483	-67.112	134.227	-72.371	-8191	255	
28644.564	1	1	0	0	0.18466	0.14244	0.21635	0.20325	0.13262	0.085508	0.063667	0.40395	0.19912	0.23039	0.28579	0.27828	0.19025	0.36746	0.18299	0.22627	-0.77708	-0.50417	-0.46458	-1.2979	-0.045833	-1.0958	-0.75833	-0.49583	-1.0604	-0.58542	-0.51042	-1.1083	-0.3875	-1.0917	-1.0625	-0.28125	231.509	-71.918	-75.097	-0.140	-56.172	59.917	161.735	204.236	167.005	168.142	41.508	-77.552	-40.268	243.825	27.151	-39.107	0.00021039	0.0010021	0.0002052	975.54	4.269e-06	1.0633e-05	628.74	361.11	6.934e-06	1.0714e-05	220.07	96.874	158.01	79.797	1.02e-05	48.464	0.015051	0.026981	0.0076171	1041.7	0.00026827	0.00030537	712.16	385.45	0.00027184	0.00030434	268.05	112.81	171.53	84.037	0.00028321	55.39	222.558	258.905	102.504	-81.710	-38.942	64.909	-83.623	-75.937	113.190	137.062	-79.220	-75.280	-71.277	-67.343	51.629	-72.223	-8191	255	
28644.660	1	1	0	0	0.031405	0.1311	0.27709	0.20545	0.10626	0.27833	0.15243	0.45584	0.1592	0.092061	0.10381	0.28921	0.21736	0.27839	0.11732	0.18712	-0.76042	-0.40208	-0.25625	-1.3479	-0.19583	-0.8875	-0.9625	-0.23958	-1.15	-0.84167	-0.38958	-1.3417	-0.5875	-0.8125	-0.95625	-0.26042	120.896	163.140	108.658	-50.310	79.650	112.343	92.164	224.863	211.053	70.407	-41.770	-82.326	-55.129	235.224	-0.587	204.284	8.7588e-05	0.00068468	0.00033014	975.39	9.6503e-06	9.961e-06	625.71	360.51	1.26e-05	8.9003e-06	216.98	97.626	159.24	79.341	3.9062e-06	48.772	0.015103	0.026871	0.007543	1041	0.00026822	0.00030345	708.78	384.88	0.00027383	0.0003038	266.12	112.93	171.48	83.869	0.00028189	55.513	206.153	18.748	108.543	-81.368	187.259	191.765	-83.879	-75.822	-20.544	19.610	-79.574	-75.002	-71.633	-67.419	-66.694	-71.815	-8191	255	
28644.756	1	1	0	0	0.30175	0.23181	0.096751	0.29788	0.045837	0.22078	0.057732	0.14191	0.081129	0.13787	0.17559	0.23159	0.1521	0.10227	0.28758	0.19229	-0.625	-0.75417	-0.26875	-1.2313	-0.26875	-0.72708	-1.2146	-0.325	-1.1625	-0.83333	-0.2625	-1.0375	-0.39167	-0.78542	-1.2208	-0.37083	263.662	-93.364	180.709	213.247	64.440	208.586	171.891	227.577	186.266	42.355	-64.540	125.355	-64.973	206.803	205.636	178.773	0.00016869	0.0021941	8.3261e-05	979.51	1.5503e-05	5.1611e-06	624.81	360.15	1.3906e-05	2.6081e-05	218.73	97.022	158.17	79.637	6.3212e-06	48.788	0.014969	0.026578	0.0075715	1043.5	0.00026771	0.00030378	709.18	384.62	0.00027103	0.00030195	267.55	112.82	171.12	83.956	0.00028097	55.695	234.201	-12.520	80.674	-81.488	30.925	-86.694	-83.494	-75.787	8.371	44.933	-79.244	-74.923	-71.235	-67.124	143.038	-71.810	-8191	255	
28644.852	1	1	0	0	0.27531	0.19118	0.20328	0.13676	0.15632	0.054855	0.076727	0.31804	0.11667	0.20849	0.29281	0.12656	0.17634	0.13077	0.15734	0.12004	-0.51875	-1.05	-0.22917	-1.2125	-0.4625	-0.33542	-1.2458	-0.25	-0.825	-0.925	-0.39583	-1.1521	-0.59375	-0.51458	-1.1729	-0.52917	-32.106	-42.854	158.984	215.281	-27.885	193.058	209.872	-66.786	-45.826	-37.387	228.955	258.844	195.250	238.662	105.407	30.278	4.1055e-05	0.0015187	0.00026268	979.14	5.3437e-06	1.6226e-05	632.82	362.84	4.0241e-06	1.7394e-06	220.01	98.352	158.98	80.387	1.4813e-05	49.273	0.014943	0.026784	0.0075604	1045.2	0.00026777	0.00030446	714.99	386.65	0.00027233	0.00030362	269.16	114.12	172.23	84.557	0.00028436	56.202	198.605	48.221	83.190	-81.491	132.928	202.951	-83.320	-75.828	-41.406	184.891	-79.518	-75.037	-71.564	-67.057	132.254	-71.810	-8191	255	
28644.971	1	1	0	0	0.11821	0.28569	0.16856	0.099162	0.21337	0.1104	0.20109	0.33463	0.052471	0.24138	0.26254	0.079925	0.20991	0.072586	0.12027	0.27911	-0.44583	-0.98125	-0.18542	-1.1646	-0.8125	-0.41458	-1.3646	-0.6625	-0.7	-1.1958	-0.50833	-1.2896	-1.0229	-0.60625	-1.4042	-0.50417	50.654	220.083	-42.919	258.775	38.398	-76.234	179.353	205.877	-77.946	241.872	19.320	126.529	189.388	198.921	178.073	-93.400	0.00013525	0.0016267	0.00025618	981.17	3.964e-06	7.3131e-06	632.56	363.45	6.4561e-06	2.3649e-05	221.42	98.207	159.1	80.254	1.3128e-06	49.254	0.015077	0.0268	0.0076157	1046.3	0.00027045	0.00030656	718.86	387.75	0.00027389	0.00030485	270.83	114.69	172.41	84.672	0.00028688	56.495	244.786	-13.642	259.426	-81.156	77.434	1.460	-83.526	-75.536	3.427	147.475	-79.504	-74.908	-71.238	-67.270	-54.603	-72.221	-8191	255	
28645.043	1	1	0	0	0.14308	0.17586	0.10186	0.15428	0.013326	0.18956	0.18098	0.33409	0.17837	0.20355	0.11684	0.10151	0.121	0.41927	0.1888	0.1858	-0.1125	-1.3188	-0.28125	-1.1542	-0.8625	-0.22917	-1.1979	-0.51042	-0.54792	-1.3146	-0.50208	-0.97292	-1.0229	-0.60625	-1.3479	-0.86042	-29.432	222.267	250.047	-88.851	233.149	-25.206	195.349	256.588	170.127	-88.389	47.331	192.644	218.711	232.967	-30.576	216.015	0.00013942	0.00061664	0.00031108	983.7	1.6862e-05	1.2586e-05	634.27	365.05	5.3072e-06	3.7509e-06	218.62	97.693	158.92	79.927	1.3458e-05	48.58	0.015296	0.026951	0.0076944	1049.6	0.00027056	0.00030862	719.08	387.28	0.00027596	0.00030829	269.3	113.92	172.31	84.371	0.00028934	55.899	216.164	52.735	-61.275	-81.287	47.516	255.004	-83.688	-75.698	-14.718	231.356	-79.801	-75.218	-71.620	-67.040	55.057	-72.300	-8191	255	
28645.141	1	1	0	0	0.25238	0.012197	0.12385	0.33016	0.21612	0.14282	0.12087	0.29442	0.14079	0.012183	0.061559	0.14823	0.31109	0.088944	0.15387	0.3059	-0.125	-1.3354	-0.16042	-0.97708	-0.94167	-0.16042	-1.2604	-0.79792	-0.35208	-1.3458	-0.27917	-0.74167	-1.3167	-0.44583	-1.0792	-0.87292	187.629	214.670	209.288	-92.706	192.085	168.350	-38.774	-81.391	67.859	21.757	93.328	-21.449	204.797	181.492	136.896	-92.285	0.0003467	0.0011508	0.00036236	980.06	4.4797e-06	1.2381e-05	629.39	361.63	8.7507e-06	1.6128e-05	218.07	97.937	159.41	79.979	1.3884e-05	48.804	0.015238	0.027222	0.0077152	1047.9	0.00027335	0.0003116	714.29	386.91	0.00027593	0.0003071	269.36	114.03	172.35	84.421	0.00028898	56.073	243.263	-73.167	111.943	-81.494	207.789	76.009	-83.091	-75.615	-50.553	162.880	-79.480	-75.044	-71.513	-67.350	-33.840	-72.190	-8191	255	
28645.260	1	1	0	0	0.12389	0.2206	0.1799	0.2928	0.19569	0.073787	0.066323	0.010836	0.12035	0.10053	0.28281	0.10873	0.30866	0.26535	0.31273	0.14002	-0.16458	-1.2208	-0.38333	-0.75208	-0.95833	-0.23958	-1.1896	-0.83958	-0.21458	-1.2729	-0.475	-0.71667	-1.3667	-0.79583	-1.075	-1.0125	150.026	160.004	235.855	242.471	221.235	42.489	251.376	65.006	5.031	14.741	-78.981	14.779	-80.790	218.378	231.532	-60.350	8.119e-05	0.00067241	0.00039187	979.58	1.2497e-05	1.5631e-05	634.17	363.13	1.5489e-06	4.8456e-06	218.47	97.9	158.68	79.877	1.5378e-05	49.38	0.015283	0.027088	0.0077628	1045.5	0.00027079	0.00030979	715.32	386.76	0.00027481	0.00030727	269.17	113.78	172.09	84.269	0.00029036	56.348	249.139	-23.105	-24.460	-81.428	-7.369	79.455	-83.057	-75.796	262.807	159.105	-78.988	-75.399	-71.439	-67.367	-33.828	-72.246	-8191	255	
28645.355	1	1	0	0	0.25967	0.14391	0.12831	0.11487	0.014914	0.1505	0.14831	0.26402	0.21674	0.16107	0.23415	0.20233	0.17677	0.28806	0.24806	0.084275	0.035417	-0.97292	-0.57292	-0.65833	-1.2208	-0.32292	-1.0417	-0.9625	-0.23333	-0.975	-0.70625	-0.54792	-1.3646	-0.43125	-0.86042	-1.0271	13.267	21.101	209.863	-22.397	62.096	227.778	42.841	-92.345	249.748	104.287	31.454	259.704	182.967	242.766	69.294	-58.988	0.00012455	0.0011119	0.0005114	982.19	3.2847e-06	1.8578e-05	632.62	362.06	1.4394e-06	1.7051e-05	221.04	97.913	159.31	80.115	6.7331e-06	49.676	0.015283	0.027294	0.0077848	1048.4	0.00027209	0.00031211	717.11	388.18	0.00027738	0.00030831	270.46	114.62	172.98	84.685	0.00028812	56.846	156.602	59.404	-86.079	-81.361	216.999	76.686	-83.475	-75.470	239.540	157.187	-79.276	-74.893	-71.336	-67.008	-80.626	-72.233	-8191	255	
28645.451	1	1	0	0	0.096171	0.22297	0.091281	0.16123	0.11065	0.27585	0.085107	0.28346	0.16516	0.18107	0.19276	0.12383	0.21047	0.30619	0.048135	0.15805	0.17292	-1.2062	-0.64167	-0.53542	-1.1	-0.31042	-0.88542	-1.2271	-0.15833	-1.0562	-0.71458	-0.51875	-1.4729	-0.56458	-0.60417	-1.0625	164.717	148.933	-31.466	-3.977	-16.464	-27.355	-67.638	230.635	-7.879	-39.401	29.007	141.766	205.428	236.162	223.817	233.342	0.0002205	0.0010715	0.00056675	982.57	1.129e-05	8.0266e-06	637.52	364.23	6.2298e-07	1.7611e-05	219.34	97.999	158.64	80.021	1.4027e-05	49.005	0.015242	0.027172	0.0077461	1048.3	0.0002746	0.00030947	721.34	388.1	0.00027567	0.0003071	270.26	114.14	172.32	84.569	0.0002884	56.168	221.571	219.125	-33.077	-81.226	43.415	47.866	-83.155	-75.857	79.524	56.287	-79.740	-75.377	-71.421	-67.357	31.343	-72.370	-8191	255	
28645.549	1	1	0	0	0.13848	0.1308	0.16866	0.22191	0.11122	0.12901	0.30437	0.10135	0.31096	0.1589	0.12556	0.2263	0.20555	0.20067	0.081031	0.046553	0.066667	-1.0271	-0.75	-0.40208	-1.1479	-0.57708	-0.72083	-1.5354	-0.375	-0.96458	-1.2396	-0.24167	-1.3833	-0.55417	-0.58125	-1.2229	33.404	95.603	-14.136	100.502	71.231	2.206	-23.969	-76.361	43.244	183.292	-11.167	202.653	-91.943	248.135	-25.892	29.116	0.00016806	0.0010414	5.7763e-05	979.81	1.1376e-05	2.0844e-05	623.61	362.52	6.6218e-06	1.0124e-05	217.52	96.951	159.45	79.755	1.0457e-05	49.018	0.015221	0.027098	0.0076993	1045	0.00027236	0.00030932	710.92	386.65	0.00027557	0.00030852	267.35	113.46	172.26	84.278	0.00028842	55.869	186.116	37.789	190.805	-81.247	40.064	217.361	-83.305	-75.683	212.641	6.413	-79.310	-74.920	-71.489	-67.214	-89.459	-71.871	-8191	255	
28645.645	1	1	0	0	0.25798	0.098988	0.066354	0.11824	0.024292	0.10816	0.37719	0.42484	0.21284	0.27918	0.23629	0.21168	0.32414	0.20355	0.37898	0.22443	-0.075	-1.05	-1.0187	-0.47708	-1.1729	-0.65833	-0.50417	-1.3479	-0.19375	-1.0021	-1.0792	-0.32708	-1.325	-1.0229	-0.46042	-1.2521	149.312	120.036	-89.383	-27.977	9.113	104.200	248.813	207.373	227.441	201.545	157.652	229.963	-41.526	230.396	188.849	220.793	0.00031915	0.0015517	0.00028027	979.24	8.2185e-06	1.7853e-05	629.69	363.58	2.1336e-06	1.1745e-05	216.89	97.309	159.38	80.453	8.8047e-06	49.113	0.015368	0.027072	0.0077101	1044	0.00027006	0.00030743	714.09	387.21	0.00027482	0.00030609	268.21	113.69	172.61	84.659	0.00028699	56.096	232.812	-50.558	19.013	-81.443	13.450	8.895	-83.009	-75.691	-75.000	165.803	-79.343	-75.009	-71.309	-67.480	133.793	-72.284	-8191	255	
28645.740	1	1	0	0	0.24906	0.23346	0.040208	0.48261	0.28456	0.096774	0.3711	0.24339	0.20599	0.088215	0.2244	0.28957	0.38574	0.25255	0.12927	0.17371	0.05	-0.57917	-1.0271	-0.35417	-1.0125	-0.65833	-0.26458	-1.2875	-0.375	-0.59792	-1.2313	-0.31458	-0.99167	-1.0708	-0.19583	-1.2917	-57.288	238.004	46.036	213.680	-61.355	40.911	183.522	114.116	82.780	166.584	67.295	159.051	218.275	205.327	61.335	163.812	5.8172e-05	0.0010261	0.00025366	982.07	1.3373e-05	8.7735e-06	631	364.83	1.0811e-05	1.7855e-05	217.34	97.588	159.56	80.272	5.0383e-06	49.65	0.015251	0.027091	0.0076944	1046.9	0.00027143	0.00031018	715.24	388.36	0.00027713	0.0003069	268.73	114.08	173.01	84.828	0.00028743	56.483	188.461	-87.127	148.369	-81.618	115.873	46.558	-83.550	-75.715	-70.061	56.245	-79.175	-75.040	-70.992	-67.150	93.640	-72.262	-8191	255	
28645.838	1	1	0	0	0.19162	0.26813	0.22759	0.32373	0.2237	0.21264	0.22195	0.20262	0.077539	0.1632	0.19886	0.10979	0.36597	0.44731	0.15629	0.26285	-0.11042	-0.56667	-1.0854	-0.44375	-0.875	-0.89167	-0.50625	-1.5125	-0.53958	-0.53125	-1.2812	-0.31667	-1.1292	-1.1875	-0.18542	-1.1667	86.717	248.613	67.531	237.903	-29.233	28.748	212.163	-65.543	-90.071	109.872	-75.964	167.128	-80.245	252.432	27.834	260.920	0.00017429	0.00067457	0.00061248	980.11	6.3051e-06	2.3371e-05	627.2	365.31	1.1481e-05	2.0508e-05	218.99	98.528	161.4	80.212	7.2706e-06	49.545	0.015379	0.027249	0.0076755	1046.8	0.00027162	0.00030949	716.1	388.62	0.00027678	0.00030849	270.02	114.71	173.66	84.991	0.00028816	56.687	192.671	-1.073	5.390	-81.415	26.123	14.700	-83.279	-75.493	-73.176	229.572	-79.233	-75.346	-71.132	-67.284	76.009	-72.128	-8191	255	
28645.934	1	1	0	0	0.20009	0.22155	0.22543	0.33426	0.20759	0.23575	0.33526	0.16652	0.11904	0.23369	0.29505	0.13504	0.22279	0.25944	0.26219	0.14339	-0.1875	-0.29583	-1.2167	-0.475	-0.71042	-1.0021	-0.31042	-1.3125	-0.66458	-0.18958	-1.2396	-0.29375	-0.81458	-1.2563	-0.325	-1.2917	257.340	177.696	219.565	255.353	-22.097	203.494	-91.689	203.793	26.427	-25.212	132.406	-6.112	244.781	227.608	66.627	137.737	0.00025367	0.0010731	0.00033134	976.62	3.5771e-06	1.7419e-05	626.59	364.48	9.4503e-06	1.2395e-05	219.06	98.003	159.78	80.115	7.6551e-06	48.741	0.015326	0.027284	0.007726	1046.9	0.00027188	0.00030932	713.28	388.11	0.00027701	0.00030699	268.88	113.73	173	84.599	0.00028733	55.952	174.788	7.131	171.245	-81.149	-83.238	82.440	-83.484	-75.478	117.098	26.495	-79.400	-75.186	-71.418	-67.165	234.640	-71.977	-8191	255	
28646.053	1	1	0	0	0.2642	0.34436	0.12925	0.12091	0.17719	0.1938	0.24835	0.20996	0.20775	0.11656	0.19525	0.1379	0.18685	0.24649	0.14967	0.089151	-0.40208	-0.29167	-1.2042	-0.70208	-0.79792	-1.3563	-0.38333	-0.95625	-0.81042	-0.30417	-1.2583	-0.42917	-0.60417	-1.4021	-0.18333	-0.775	139.699	-66.576	52.526	-34.594	128.361	-82.362	234.368	222.959	118.045	77.344	223.553	199.227	245.016	230.248	108.051	-6.018	0.00014773	0.00093727	0.00051922	981.16	1.1624e-05	9.0193e-06	626.65	363.91	1.0815e-05	1.9187e-05	217.82	97.375	159.79	80.29	1.4239e-06	49.08	0.015306	0.027108	0.0076923	1046	0.00027196	0.00030933	711.57	388.53	0.00027581	0.00030565	267.83	113.3	172.87	84.691	0.00028696	56.035	234.430	74.207	21.729	-81.622	25.290	18.394	-83.353	-75.661	96.450	139.479	-79.422	-75.262	-71.256	-67.277	173.735	-71.845	-8191	255	
28646.148	1	1	0	0	0.22312	0.20414	0.44675	0.16091	0.11211	0.1497	0.26966	0.13713	0.1924	0.23383	0.21848	0.043111	0.12422	0.50432	0.20343	0.059105	-0.7625	-0.1	-0.96458	-0.61875	-0.28542	-1.1417	-0.47917	-0.85625	-1.0792	-0.375	-1.0333	-0.68333	-0.6375	-1.3417	-0.50833	-0.92917	-15.473	67.586	-71.016	207.034	179.469	60.463	195.096	126.559	197.867	94.910	231.117	-78.357	258.238	218.647	58.280	181.357	0.00017576	0.0014553	0.00035907	978.82	1.0604e-05	1.0463e-05	624.72	364.13	5.2166e-06	1.5494e-05	220.89	97.233	160.25	80.569	8.5477e-06	49.328	0.015273	0.02704	0.0076798	1042.9	0.00027054	0.00030727	709.32	387.95	0.00027412	0.00030589	269.39	113.64	173.17	84.945	0.00028834	56.323	229.379	-46.971	12.380	-81.307	-16.415	-43.870	-83.309	-75.300	27.677	24.654	-79.101	-75.237	-71.179	-67.162	15.629	-71.879	-8191	255	
28646.244	1	1	0	0	0.34921	0.12917	0.20022	0.055042	0.16687	0.22492	0.24593	0.1519	0.049989	0.074827	0.23832	0.22774	0.29815	0.21638	0.17662	0.14919	-0.65833	-0.2	-0.90833	-0.81458	-0.21667	-0.99375	-0.54583	-0.71042	-1.0542	-0.16875	-1.0125	-0.9375	-0.59583	-1.2125	-0.5375	-0.6	84.231	63.219	136.935	0.100	66.657	20.499	119.980	-77.885	195.044	-21.957	182.699	222.649	223.804	205.809	19.931	232.204	0.00018005	0.0011552	0.00023246	979.67	3.6417e-06	1.3696e-05	628.91	364.95	3.8399e-06	4.3719e-06	220.05	98.468	159.38	80.63	4.7008e-06	49.745	0.015247	0.027106	0.0077154	1043.8	0.00027051	0.00030767	714.49	388.59	0.00027452	0.00030832	269.94	114.47	173.25	85.07	0.00028675	56.792	241.427	17.240	-57.823	-81.383	90.458	3.395	-83.235	-75.533	-36.273	119.254	-79.527	-75.135	-71.110	-67.054	6.445	-71.834	-8191	255	
28646.340	1	1	0	0	0.18536	0.16093	0.14924	0.1139	0.33005	0.049634	0.11564	0.20614	0.32423	0.059314	0.069549	0.067689	0.094936	0.092024	0.064091	0.24878	-0.675	-0.35625	-0.90417	-1.0208	-0.28542	-1.1146	-0.60417	-0.60208	-1.1292	-0.32708	-0.95208	-1	-0.25417	-1.3604	-0.64167	-0.55833	-79.964	195.390	255.060	266.489	164.203	117.521	226.347	176.709	140.521	211.649	74.147	-56.816	28.280	173.749	163.916	258.297	8.5041e-05	0.00051108	0.00011519	975.71	7.993e-06	1.3853e-05	633.24	365.49	1.0408e-05	1.3095e-05	221.46	97.87	160.37	80.587	8.2985e-06	49.365	0.01532	0.027321	0.0077351	1045.1	0.00027295	0.00031076	719.56	389.55	0.00027752	0.00030946	271.42	114.69	173.14	85.028	0.00028904	56.602	141.537	205.473	27.570	-81.136	91.690	62.054	-83.281	-75.492	-66.021	26.775	-79.155	-75.028	-71.274	-67.087	192.210	-71.894	-8191	255	
28646.436	1	1	0	0	0.075247	0.029764	0.2892	0.14022	0.1688	0.23424	0.19521	0.30835	0.27926	0.029747	0.071461	0.27843	0.22148	0.18252	0.29088	0.32466	-0.75	-0.30625	-0.675	-1.125	-0.13542	-0.93542	-0.57708	-0.5125	-1.0854	-0.50833	-0.64167	-1.0396	-0.375	-1.1938	-0.89375	-0.36667	10.243	-20.768	233.808	194.377	102.539	25.527	93.123	225.323	-44.342	-42.147	264.308	240.087	75.473	209.581	158.296	203.333	0.00011967	0.00088519	0.00031236	981.59	1.098e-05	1.942e-06	626.16	363.74	1.1044e-05	1.153e-05	216.98	97.919	159.83	80.402	6.5736e-06	49.095	0.015278	0.027252	0.0077117	1044.8	0.00027328	0.00031065	713.39	388.88	0.00027611	0.00030891	268.12	113.73	172.85	84.948	0.00028765	56.199	156.067	23.519	-20.187	-81.551	36.116	-65.495	-83.290	-75.379	119.710	86.263	-79.144	-75.421	-71.299	-66.925	131.517	-72.210	-8191	255	
28646.531	1	1	0	0	0.10989	0.10255	0.078696	0.16457	0.046242	0.26342	0.16297	0.33687	0.13335	0.17665	0.21496	0.18295	0.14782	0.16738	0.10951	0.10098	-0.79375	-0.39583	-0.61458	-0.8875	-0.054167	-0.95417	-0.85208	-0.39167	-1.1479	-0.54583	-0.51667	-1.2771	-0.39375	-1.0646	-0.80625	-0.47292	-53.415	99.633	36.278	42.728	140.931	-35.170	179.287	183.066	-5.741	-8.660	257.608	53.080	-12.524	212.219	115.576	-4.276	0.00026332	0.0010076	0.00035081	973.25	7.9594e-06	1.145e-05	628.3	362.28	3.9394e-06	1.3704e-05	218.42	96.972	158.17	80.14	1.0616e-05	49.342	0.015229	0.027206	0.0077112	1044.6	0.0002695	0.00031001	713.51	388	0.00027501	0.00030786	268.86	113.37	172.19	84.883	0.00028624	56.331	218.701	250.739	244.441	-81.264	24.776	265.714	-83.538	-75.705	234.303	13.067	-78.867	-75.253	-71.360	-66.930	17.230	-71.870	-8191	255	
28646.652	1	1	0	0	0.1944	0.12954	0.13174	0.10494	0.13645	0.21633	0.33835	0.11442	0.19273	0.16158	0.34713	0.066364	0.50029	0.15186	0.048164	0.1174	-0.64167	-0.425	-0.42083	-1.2146	-0.28125	-0.94375	-1.0208	-0.19167	-1.1375	-0.68542	-0.49375	-1.1833	-0.49375	-0.92917	-0.97708	-0.325	99.249	265.336	53.322	221.828	7.017	68.754	242.924	24.418	6.017	253.976	124.301	-4.671	218.767	-86.518	201.217	-75.044	0.00023072	0.00069993	0.00025343	973.72	7.1438e-06	7.4626e-06	630.11	363.29	7.579e-06	1.8786e-05	218.51	97.994	159.3	80.507	2.3716e-06	49.599	0.015116	0.027208	0.0076897	1041	0.00027065	0.00030936	713.53	387.42	0.00027412	0.00030709	269.69	113.84	172.43	84.999	0.00028683	56.591	213.036	53.138	237.800	-81.097	165.852	72.768	-83.234	-75.829	-22.039	33.833	-79.113	-74.724	-71.187	-66.930	48.982	-72.268	-8191	255	
28646.748	1	1	0	0	0.20192	0.3258	0.14261	0.181	0.1184	0.061699	0.1526	0.21903	0.038106	0.37914	0.12999	0.08833	0.28982	0.36683	0.1731	0.042763	-0.39375	-0.72917	-0.30417	-1.0646	-0.48125	-0.6875	-1.2188	-0.4125	-1.0146	-0.79792	-0.28958	-1.2437	-0.46458	-0.8375	-1.2958	-0.25833	259.896	154.109	43.927	261.855	112.275	106.893	218.968	256.175	-6.085	71.479	173.336	-63.003	224.934	-54.226	-28.496	-23.417	0.00041024	0.0010095	0.00020907	979.48	8.5258e-06	5.3152e-06	634.61	364.02	8.6251e-06	2.3574e-06	221.85	98.221	159.65	80.574	3.5344e-06	49.824	0.015174	0.027096	0.0076524	1046.4	0.00026911	0.00030868	716.63	387.57	0.00027234	0.00030778	271.02	114.35	172.47	85.076	0.00028549	56.829	184.022	-39.485	175.193	-81.275	10.627	139.401	-83.002	-75.624	-8.981	-12.793	-79.138	-74.816	-71.393	-66.859	-65.861	-71.841	-8191	255	
28646.846	1	1	0	0	0.30104	0.13449	0.038703	0.14286	0.11026	0.12995	0.19281	0.18267	0.30622	0.35881	0.1822	0.34754	0.11787	0.3057	0.054145	0.1877	-0.625	-1.0292	-0.077083	-1.2875	-0.41042	-0.61458	-1.275	-0.27917	-0.88958	-1.0208	-0.16042	-1.2646	-0.78333	-0.67708	-1.2875	-0.4375	-73.894	260.797	-43.294	254.400	-28.195	95.713	258.348	139.304	61.864	197.662	-71.975	-85.058	259.821	241.047	17.238	124.738	0.00038498	0.0025321	0.00039981	983.71	1.0273e-05	7.4308e-06	634.26	363.04	5.3229e-06	1.5453e-05	218.4	96.784	157.97	79.749	5.628e-06	49.171	0.015166	0.026995	0.0076457	1047.5	0.00027036	0.00030678	717.86	387.72	0.00027309	0.00030651	267.7	112.93	171.11	84.368	0.00028379	56.055	218.906	0.583	-54.002	-81.303	114.455	-35.457	-83.253	-75.622	-6.316	153.518	-78.939	-75.331	-71.307	-67.315	124.010	-72.065	-8191	255	
28646.939	1	1	0	0	0.23682	0.16531	0.08239	0.19924	0.040413	0.28368	0.12703	0.26221	0.066284	0.21955	0.094986	0.078972	0.18138	0.39222	0.20955	0.257	-0.34792	-1.0292	-0.085417	-1.2729	-0.44583	-0.2875	-1.2958	-0.38333	-0.58958	-1.1917	-0.0375	-1.2062	-0.69792	-0.6875	-1.2479	-0.67083	-46.542	144.648	185.775	-60.943	220.319	111.172	-82.051	185.465	5.213	199.517	-26.704	159.632	237.932	231.898	225.799	63.825	0.00013072	0.0015575	0.00082474	972.54	5.3775e-06	8.0665e-06	627.67	361.33	6.0458e-06	1.359e-05	216.75	96.465	157.53	79.723	5.7967e-06	48.938	0.015249	0.027032	0.0076775	1040.9	0.00027456	0.00031067	712.87	386.73	0.00027945	0.00031122	267.61	112.65	171.12	84.304	0.00028908	56.208	230.960	40.218	-8.377	-81.023	-50.206	137.648	-83.268	-75.585	264.642	46.572	-79.282	-74.885	-71.026	-66.772	113.969	-72.132	-8191	255	
28647.035	1	1	0	0	0.32115	0.093496	0.088331	0.33586	0.12229	0.066464	0.32695	0.138	0.22163	0.2604	0.1242	0.25415	0.1058	0.22091	0.068112	0.15477	-0.23333	-1.0354	-0.08125	-0.85	-0.83125	-0.32292	-1.1583	-0.49583	-0.71458	-1.0688	-0.28125	-1.0083	-1.0458	-0.37292	-1.1542	-0.54375	53.073	-53.751	195.135	239.550	39.110	164.257	178.775	138.223	-68.015	222.337	68.791	52.454	81.775	260.516	88.624	222.691	0.00025192	0.0017003	0.00040539	983.49	1.5905e-05	1.0137e-05	634.09	363.43	1.3908e-05	3.5268e-06	217.59	97.423	158.12	80.271	6.2693e-06	49.054	0.015452	0.027387	0.0077854	1048.8	0.00027489	0.00031025	717.19	387.86	0.00027551	0.00030604	268.24	113.31	171.66	84.837	0.00028674	56.283	205.976	35.315	28.557	-81.432	94.677	-1.882	-83.298	-75.391	57.675	122.466	-79.273	-75.037	-71.120	-66.969	-62.163	-72.088	-8191	255	
28647.133	1	1	0	0	0.22242	0.19301	0.16261	0.26422	0.030011	0.23125	0.2702	0.082868	0.22613	0.20933	0.23403	0.16205	0.072131	0.28078	0.13143	0.14553	-0.1125	-1.1562	-0.2875	-1.0771	-1.1458	-0.22292	-1.3417	-0.73542	-0.39583	-0.87708	-0.32708	-0.9	-1.0354	-0.3875	-1.1083	-0.84792	-68.962	173.781	56.063	238.282	-88.013	47.969	240.341	197.400	-92.631	265.673	261.598	19.204	-42.683	-66.687	231.754	-71.238	5.2808e-05	0.00070644	0.00041084	985.8	6.0748e-06	1.837e-05	637.27	364.11	6.7012e-06	1.2702e-05	217.42	97.859	158.12	80.93	1.2957e-05	49.391	0.015235	0.027124	0.0076533	1050.1	0.00027109	0.00030909	718.85	388.56	0.00027505	0.0003057	269.49	113.87	171.48	85.045	0.00028501	56.639	140.582	-51.297	200.409	-80.990	-77.594	-38.966	-83.435	-75.389	227.391	83.731	-79.532	-74.907	-70.947	-67.110	154.986	-71.745	-8191	255	
28647.229	1	1	0	0	0.12524	0.22796	0.1715	0.18085	0.073671	0.067922	0.35176	0.12597	0.25667	0.26744	0.065288	0.13162	0.28301	0.18637	0.12291	0.23914	0.16875	-1.2271	-0.16458	-0.90208	-1.0312	-0.22292	-1.1542	-0.94167	-0.325	-1.2729	-0.5125	-0.57083	-1.2458	-0.43125	-1.0833	-0.93542	147.458	254.252	27.275	208.752	230.475	64.602	222.980	190.950	264.538	266.244	46.585	151.086	224.746	203.231	-62.639	231.528	0.00022844	0.00023011	0.000672	986.97	5.5579e-06	1.2375e-05	636.69	365.81	2.6101e-06	2.7921e-05	222.14	97.837	159.58	80.326	1.1939e-06	49.507	0.015164	0.026852	0.0077233	1052.2	0.00027046	0.00030642	722.63	389.27	0.00027417	0.00030533	270.92	114.4	172.62	84.941	0.00028716	56.607	141.729	184.577	-59.042	-81.146	62.261	64.174	-83.173	-75.341	145.050	80.512	-79.203	-74.621	-71.151	-67.031	11.982	-71.974	-8191	255	
28647.350	1	1	0	0	0.066205	0.22695	0.18992	0.14444	0.11747	0.060885	0.33381	0.070648	0.17222	0.16993	0.35175	0.3044	0.16462	0.14017	0.12969	0.054611	-0.054167	-0.98542	-0.39375	-0.65833	-1.1854	-0.34167	-1.0042	-0.92083	-0.25208	-1.2104	-0.56042	-0.52708	-1.3083	-0.64375	-0.78333	-1.0438	-48.691	85.124	-71.379	-73.772	-57.112	261.511	-53.217	-42.097	124.549	-23.351	142.612	239.817	-79.629	166.880	265.894	230.149	0.00018988	0.00029504	2.0127e-05	984.3	2.4728e-06	1.1737e-05	636.45	365.26	7.0975e-06	1.0459e-05	217.76	96.535	157.98	79.781	3.926e-06	48.974	0.015275	0.027019	0.0077457	1049.2	0.0002711	0.00030786	716.17	388.14	0.00027343	0.00030475	268.18	112.69	171.34	84.394	0.0002847	55.987	239.779	220.879	3.147	-80.839	16.912	133.121	-82.651	-75.175	-0.498	66.818	-78.821	-74.415	-70.711	-66.407	158.734	-71.958	-8191	255	
28647.445	1	1	0	0	0.13457	0.043971	0.06547	0.099718	0.15062	0.2102	0.20844	0.21877	0.16726	0.20171	0.18142	0.050269	0.34948	0.49116	0.11263	0.1696	-0.04375	-1.1104	-0.375	-0.42083	-0.89583	-0.33125	-0.78333	-1.225	-0.17917	-1.0458	-0.68125	-0.41458	-1.1708	-0.62917	-0.62708	-1.2542	30.968	180.823	233.676	-81.192	119.913	204.623	-85.012	233.679	56.169	156.520	178.938	185.967	-44.016	211.740	-37.518	-21.277	0.00011121	0.00094785	5.8647e-05	981.64	8.5696e-06	7.849e-06	629.76	364.09	1.203e-05	1.7486e-05	219.3	97.641	159.23	80.294	9.5006e-06	49.618	0.015071	0.026919	0.0077205	1044.5	0.00026797	0.00030736	715.04	387.81	0.00027277	0.00030484	267.83	113.04	172.2	84.698	0.00028464	56.137	256.258	44.731	131.069	-80.983	94.632	259.454	-82.959	-75.239	195.595	0.752	-78.582	-74.836	-71.058	-66.578	-48.708	-71.711	-8191	255	
28647.518	1	1	0	0	0.12384	0.10476	0.099849	0.16148	0.19232	0.080229	0.26493	0.25315	0.28844	0.16817	0.24661	0.27687	0.10063	0.29999	0.209	0.21337	0.20417	-1.0292	-0.69583	-0.36667	-1.1896	-0.35625	-0.86458	-1.2854	-0.027083	-0.70208	-0.725	-0.23333	-1.2354	-0.69167	-0.50208	-1.3271	-14.565	239.669	131.109	-62.966	37.750	76.771	-39.768	251.118	-57.838	-52.856	199.789	240.960	192.179	230.119	180.218	195.487	0.00013966	0.001189	0.00019198	982.15	9.2611e-06	1.3495e-05	631.49	365.15	8.011e-06	1.99e-05	216.33	97.075	159.39	80.246	4.4984e-06	49.487	0.015042	0.026909	0.0076731	1047.4	0.00026817	0.00030972	716.06	388.21	0.00027238	0.00030536	267.5	113.28	172.3	84.795	0.00028516	56.433	222.345	-10.444	-65.288	-81.050	69.048	113.718	-83.385	-75.625	-2.972	132.809	-79.634	-75.067	-71.238	-67.125	101.668	-72.441	-8191	255	
28647.613	1	1	0	0	0.076125	0.40803	0.19626	0.29122	0.22462	0.16195	0.05981	0.27829	0.14452	0.24369	0.013813	0.086291	0.28108	0.062812	0.1759	0.21048	0.17917	-0.99792	-0.73125	-0.38958	-1.1208	-0.55	-0.57708	-1.3479	-0.30833	-0.86667	-1.025	-0.14375	-1.0042	-0.71875	-0.30417	-1.0833	1.139	213.475	241.997	-42.849	-18.793	56.585	98.153	245.122	-8.588	249.188	248.227	-91.041	-89.425	9.961	197.905	250.954	7.338e-05	0.00076243	9.5786e-05	986.39	1.4503e-05	2.7223e-05	636.43	364.01	9.0957e-06	5.8205e-06	220.54	98.513	159.54	80.801	2.1925e-05	49.937	0.015159	0.026861	0.007678	1048.2	0.00026889	0.0003104	718.95	389.26	0.00027384	0.00030704	269.9	114.03	173.15	85.157	0.00028743	56.921	149.735	223.892	207.103	-81.055	-28.409	25.282	-83.295	-75.595	23.534	20.123	-79.725	-75.432	-71.367	-67.236	105.418	-72.233	-8191	255	
28647.732	1	1	0	0	0.10938	0.41553	0.18721	0.13098	0.24986	0.11157	0.12984	0.18576	0.14573	0.20323	0.24464	0.13913	0.33011	0.15137	0.34331	0.14969	-0.035417	-0.67083	-0.92917	-0.51458	-1	-0.96875	-0.33333	-1.2667	-0.3375	-0.67708	-1.15	-0.27917	-1.1875	-1.1771	-0.2625	-1.2146	84.797	-24.694	-6.605	217.401	107.929	-10.077	222.534	218.165	241.919	140.023	255.893	60.672	229.708	173.374	16.061	107.425	9.0859e-05	0.00046841	0.00012193	979.27	1.0645e-05	1.0782e-05	632.64	365.13	7.9797e-06	1.6775e-06	217.53	98.155	159.44	80.526	2.2923e-05	49.431	0.015232	0.027128	0.0076771	1048.3	0.00027115	0.00030944	718.43	389.07	0.00027276	0.0003075	268.44	114.07	173.05	85.06	0.00028588	56.441	-81.274	234.996	-52.112	-81.352	94.359	212.161	-83.522	-75.612	-91.635	221.929	-78.918	-75.317	-71.473	-67.282	54.395	-72.415	-8191	255	
28647.830	1	1	0	0	0.24465	0.19583	0.11396	0.2691	0.059907	0.15624	0.12131	0.28072	0.25535	0.16627	0.12748	0.23876	0.18528	0.56584	0.30938	0.12782	0.033333	-0.53125	-1.1958	-0.33958	-0.92292	-0.91458	-0.27083	-1.3542	-0.53958	-0.55625	-1.4729	-0.19792	-1.1479	-1.05	-0.25417	-1.2854	159.545	63.268	179.621	-66.206	-90.187	257.477	234.575	262.532	29.839	-77.965	113.812	104.292	215.594	-87.681	188.610	110.057	0.00024929	0.0022335	0.00029185	981.23	4.915e-06	7.3615e-06	628.42	365.27	7.4474e-06	6.7574e-06	217.32	96.836	158.54	80.156	6.0659e-06	49.296	0.015377	0.027089	0.0076872	1045.7	0.00027099	0.00030927	710.94	388.24	0.00027456	0.00030543	266.62	112.9	172	84.754	0.00028603	56.3	218.682	238.207	147.970	-81.607	147.890	64.566	-83.648	-75.632	205.687	242.436	-79.342	-75.133	-71.262	-67.536	264.078	-72.252	-8191	255	
28647.926	1	1	0	0	0.074656	0.11118	0.25961	0.070757	0.28602	0.26044	0.29041	0.15226	0.067233	0.30388	0.26045	0.052234	0.1076	0.25117	0.21022	0.076735	-0.1125	-0.34167	-0.97292	-0.51667	-0.70833	-1.1229	-0.44167	-1.1354	-0.46458	-0.35	-1.2563	-0.55833	-0.58333	-1.3146	-0.2375	-1.1021	8.964	81.355	243.833	119.890	217.468	71.962	206.835	71.719	162.714	86.983	183.326	170.387	216.536	195.719	24.303	84.078	0.00014448	0.00097814	0.00022338	978.44	1.2341e-05	7.5156e-06	628.91	364.68	3.8175e-06	1.0753e-05	218.39	97.097	160.13	80.468	1.0621e-05	49.421	0.015317	0.027095	0.0076844	1046.8	0.00027308	0.0003089	714.03	388.72	0.00027699	0.00030606	268.14	113.28	173.05	85.098	0.0002858	56.546	246.736	25.604	-0.930	-81.488	132.263	195.336	-83.677	-75.921	-79.509	188.299	-79.030	-75.473	-71.376	-67.114	21.570	-72.043	-8191	255	
28648.045	1	1	0	0	0.097823	0.24591	0.17395	0.24253	0.090755	0.30166	0.22867	0.31292	0.27636	0.19556	0.3344	0.30953	0.18395	0.38609	0.18632	0.087662	-0.51875	-0.10208	-1.0958	-0.59375	-0.47292	-1.0604	-0.4625	-1.0896	-0.90833	-0.28125	-1.0771	-0.44583	-0.57708	-1.3458	-0.16875	-0.975	207.473	186.385	243.297	-68.601	145.598	-46.059	160.545	-82.824	198.270	-62.906	9.261	172.038	-42.284	-78.573	128.777	209.142	0.00010843	0.00061885	0.00013028	982.36	8.9223e-06	8.323e-06	635.61	363.67	6.8166e-06	2.523e-05	218.6	97.963	160.75	81.205	1.1048e-05	49.625	0.015273	0.027188	0.0076461	1047.8	0.00027225	0.00030829	716.77	389.14	0.00027575	0.00030737	269.98	114.05	173.29	85.377	0.00028813	57.035	139.754	-67.250	183.713	-81.495	100.054	234.407	-83.564	-75.645	-84.920	76.729	-79.626	-75.505	-71.233	-66.977	165.216	-72.235	-8191	255	
28648.141	1	1	0	0	0.26449	0.068165	0.10305	0.22216	0.18847	0.10842	0.1639	0.12141	0.26855	0.4362	0.17358	0.13806	0.21752	0.14921	0.31605	0.31236	-0.38125	-0.24167	-0.99792	-0.37917	-0.30208	-1.0417	-0.45208	-1.1271	-0.87292	-0.26042	-1.0417	-0.775	-0.5875	-1.2938	-0.20417	-0.73958	225.810	-74.697	126.488	211.608	63.485	265.088	-83.462	183.445	187.948	264.761	157.567	258.769	-69.949	150.558	-11.691	106.427	0.00019544	0.0012318	0.00015673	983.28	4.5806e-06	1.2351e-05	632.64	366.56	7.0897e-06	1.5576e-05	221.74	98.754	160.75	80.974	7.879e-06	50.196	0.015232	0.02718	0.0076776	1049.8	0.00027242	0.00031037	720.27	391.11	0.00027535	0.00030569	271.46	115.03	173.57	85.625	0.00028932	57.312	-84.309	207.675	17.368	-81.525	51.838	181.597	-83.681	-75.528	-24.671	5.643	-79.255	-75.350	-71.212	-67.517	-4.129	-72.018	-8191	255	
28648.215	1	1	0	0	0.27371	0.28482	0.12214	0.36555	0.15638	0.24101	0.088376	0.43612	0.27472	0.11664	0.1627	0.16874	0.23348	0.34697	0.18861	0.20098	-0.52708	-0.1	-0.95833	-0.78333	-0.20833	-1.0125	-0.42292	-0.93125	-0.87083	-0.41458	-1.1583	-0.83958	-0.40417	-1.2583	-0.37292	-0.83542	222.359	235.990	-58.517	145.051	-89.447	29.959	240.235	246.197	-6.313	14.189	192.947	252.465	231.325	261.662	216.269	245.511	0.00027661	0.001109	0.00026697	983.74	8.0996e-06	1.5966e-05	630.85	365.95	1.0015e-05	4.3447e-06	220.8	97.667	160.18	80.714	1.0868e-05	49.686	0.015217	0.027124	0.0077436	1047.8	0.00027168	0.00030758	719.16	390.25	0.00027431	0.00030724	270.2	113.88	173.25	85.197	0.00029048	56.801	157.570	14.542	-43.996	-81.541	60.147	86.236	-83.776	-75.571	95.647	243.000	-79.391	-75.007	-71.186	-67.362	130.343	-71.955	-8191	255	
28648.332	1	1	0	0	0.24283	0.25345	0.15063	0.27855	0.050621	0.059936	0.20039	0.23546	0.20323	0.23114	0.093739	0.1877	0.13955	0.32309	0.11408	0.25563	-0.77917	-0.11667	-0.90625	-0.8875	-0.28958	-1.2396	-0.68958	-0.55208	-1.3521	-0.375	-0.94792	-1.0708	-0.30208	-1.3417	-0.55833	-0.53125	213.963	-70.878	88.791	240.072	42.666	-39.287	99.429	262.983	-21.197	-66.641	88.538	-5.121	-92.991	-43.140	213.859	202.028	4.5835e-05	0.00087617	0.00011741	983.28	6.193e-06	8.5568e-06	632.19	367.23	8.8008e-06	1.367e-05	221.55	98.572	159.79	81.028	7.9014e-06	50.187	0.015309	0.027247	0.0077501	1047.4	0.00027217	0.00030958	717.53	390.81	0.00027582	0.00030927	270.54	114.63	173.49	85.645	0.00029022	57.112	156.864	-73.897	155.172	-81.640	55.570	-57.463	-83.860	-75.832	-37.803	57.486	-78.933	-75.056	-71.166	-67.258	61.268	-72.049	-8191	255	
28648.430	1	1	0	0	0.22174	0.23713	0.11297	0.23223	0.12243	0.069666	0.19447	0.085739	0.07813	0.13351	0.23225	0.086458	0.22652	0.2555	0.16991	0.16964	-0.70833	-0.30417	-0.72708	-1.0458	-0.0875	-1.0812	-0.78125	-0.5	-1.1313	-0.45833	-0.73958	-1.075	-0.15208	-1.3146	-0.69375	-0.44375	221.019	176.096	126.285	211.333	49.686	-15.222	187.465	-89.614	-61.158	-7.565	208.275	-39.968	-38.316	-80.970	-70.853	173.139	0.00019971	0.0010559	0.00039442	983.14	5.7979e-06	1.6704e-05	635.87	367.33	9.7609e-06	2.2241e-05	221.24	98.615	161.5	81.661	1.8011e-05	50.248	0.015406	0.027375	0.0078204	1051.3	0.00027536	0.00031382	721.66	392.11	0.00027923	0.00031112	272.16	115.08	174.92	86.128	0.00029392	57.32	210.963	250.851	108.226	-81.801	153.893	43.543	-83.705	-75.641	183.338	23.102	-79.338	-75.105	-71.388	-67.203	79.602	-71.982	-8191	255	
28648.525	1	1	0	0	0.17067	0.26537	0.11839	0.23731	0.27093	0.31893	0.22202	0.18828	0.23502	0.25059	0.18492	0.2194	0.17891	0.2257	0.027066	0.041851	-0.56875	-0.25	-0.57708	-1.1708	-0.23542	-0.99792	-0.63333	-0.13542	-1.1562	-0.25208	-0.59792	-1.05	-0.31875	-1.125	-0.87708	-0.2375	27.865	128.788	25.125	-90.058	79.293	-14.405	186.475	228.726	182.241	56.911	-6.253	209.295	-40.304	183.256	-83.089	262.375	0.0002378	0.00025897	0.00024306	985.2	3.9655e-06	1.2399e-05	634.34	367.2	6.4831e-06	1.0983e-05	222.25	99.367	161.12	81.666	4.8425e-06	50.26	0.015359	0.027677	0.0078307	1053.2	0.00027503	0.00031331	719.5	391.99	0.00027694	0.00031383	272	115.23	174.4	86.181	0.00028872	57.499	143.233	177.694	-55.401	-81.555	14.139	77.118	-83.626	-75.764	222.439	85.529	-79.566	-74.952	-71.315	-67.077	-24.655	-72.162	-8191	255	
28648.646	1	1	0	0	0.38691	0.20036	0.4086	0.23354	0.054411	0.30962	0.38346	0.019655	0.11905	0.077895	0.25462	0.17462	0.091364	0.1079	0.077808	0.15531	-0.70833	-0.42917	-0.625	-1.2854	-0.2375	-0.76042	-1.0438	-0.21042	-1.1708	-0.59792	-0.41875	-1.4208	-0.50833	-1.0187	-1.0396	-0.34375	245.691	191.734	-30.526	-81.339	10.717	-32.344	233.196	246.932	-31.109	-7.763	214.687	36.724	-55.909	259.846	159.940	-91.134	0.00024917	0.00034192	0.00013585	984.48	9.274e-06	2.5288e-05	631	367.65	3.5891e-06	1.211e-05	220.89	98.877	160.22	81.218	6.511e-06	50.24	0.015358	0.02751	0.0077798	1049.6	0.00027261	0.000315	719.24	391.61	0.00027593	0.00031103	272.26	115.14	174.26	85.955	0.00028925	57.168	216.194	215.903	66.701	-81.393	127.131	27.746	-83.591	-75.452	-5.943	35.194	-79.647	-74.934	-71.075	-67.083	160.353	-72.068	-8191	255	
28648.742	1	1	0	0	0.05386	0.19366	0.31696	0.13013	0.18785	0.10429	0.12171	0.10752	0.27785	0.070649	0.052209	0.14832	0.11011	0.32191	0.21708	0.14793	-0.88125	-0.42292	-0.37917	-1.075	-0.3875	-0.52708	-1.125	-0.40208	-0.93125	-0.78542	-0.26875	-1.1458	-0.45417	-0.87917	-1.05	-0.37083	-62.419	42.544	54.893	176.198	200.187	103.491	221.558	-33.285	236.921	124.829	81.733	230.372	255.513	-71.309	69.853	188.996	0.00011174	0.0006579	0.00021657	981.18	9.6093e-06	9.5103e-06	630.18	365.3	4.3151e-06	2.2748e-06	217.92	97.648	161	81.24	6.8207e-06	49.632	0.015274	0.027418	0.0077486	1047.7	0.00027211	0.00031061	714.74	390.35	0.0002762	0.00030611	268.94	113.94	173.8	85.606	0.00028557	56.805	226.896	-49.274	118.204	-81.282	-29.934	19.663	-82.976	-75.489	54.725	226.927	-78.970	-74.923	-71.123	-67.224	21.033	-72.115	-8191	255	
28648.814	1	1	0	0	0.23362	0.26822	0.28173	0.41559	0.067458	0.12851	0.17261	0.25081	0.17922	0.12816	0.15325	0.16579	0.40269	0.33346	0.070238	0.17927	-0.58333	-0.67292	-0.26667	-1.3104	-0.42917	-0.77917	-1.2417	-0.23542	-0.8875	-0.97917	-0.34583	-1.2396	-0.5375	-0.81042	-1.1688	-0.28542	-60.881	255.911	21.149	227.592	-39.630	174.791	119.477	155.477	-92.346	245.734	-25.930	-7.298	243.583	265.179	125.685	164.842	0.00019237	0.00058439	0.00018536	976.51	1.3777e-05	1.6838e-05	626.75	365.56	1.3996e-05	3.8061e-06	219.32	97.639	159.8	81.081	2.0934e-06	50.01	0.015225	0.027209	0.0076665	1043.2	0.00027104	0.00030984	711.91	388.96	0.00027287	0.00030616	269.17	113.74	173.07	85.473	0.00028246	56.917	232.988	-93.005	-23.858	-81.161	126.040	66.983	-83.290	-75.671	88.227	52.099	-79.180	-74.917	-71.114	-66.894	56.425	-72.009	-8191	255	
28648.910	1	1	0	0	0.091419	0.15743	0.1989	0.20331	0.17991	0.2194	0.18275	0.20319	0.25254	0.26402	0.2181	0.12033	0.15195	0.26163	0.067458	0.16375	-0.38333	-1.0042	-0.27083	-1.1521	-0.87708	-0.61667	-1.2771	-0.4	-0.7625	-0.9375	-0.3375	-1.2125	-0.79792	-0.77292	-1.1	-0.56875	195.728	197.840	147.982	232.703	-91.758	-85.724	135.175	253.483	-39.331	37.361	261.796	-88.808	-90.554	190.520	214.556	227.407	0.00018956	0.00038728	0.00061429	978.19	3.1655e-07	1.1411e-05	629.8	365.52	4.6005e-06	5.8798e-06	219.57	98.467	159.54	80.999	2.8246e-06	50.177	0.01511	0.026907	0.0075745	1042.2	0.00027143	0.00030614	714.26	389.16	0.00027302	0.0003019	268.73	114.12	172.79	85.45	0.00028108	57.16	155.412	192.215	-15.757	-81.322	-76.514	16.279	-83.153	-75.238	-22.849	111.794	-78.874	-74.688	-70.823	-67.060	155.738	-71.758	-8191	255	
28649.029	1	1	0	0	0.21502	0.18509	0.22438	0.40633	0.3816	0.22705	0.092534	0.29085	0.23211	0.12827	0.05604	0.15337	0.042679	0.2799	0.13062	0.20438	-0.2875	-0.91042	-0.17083	-1.1396	-0.62292	-0.40417	-1.2625	-0.525	-0.525	-1.2583	-0.33125	-1.2271	-1.0063	-0.60208	-1.1542	-0.77083	8.181	233.228	29.220	237.648	-11.959	172.818	141.844	203.733	39.860	74.535	241.670	-25.445	57.754	251.883	77.345	149.508	0.00032774	0.0005055	0.00057778	987.02	1.3243e-05	5.1688e-06	633.77	366.5	5.69e-06	6.796e-06	221.07	99.417	159.44	81.357	5.019e-06	50.358	0.015057	0.026776	0.0076266	1046.2	0.00026766	0.0003042	717.2	389.7	0.00027125	0.00030062	269.9	114.86	172.66	85.705	0.00028126	57.377	225.216	167.784	-26.032	-81.120	126.740	49.845	-83.106	-75.267	247.373	159.640	-79.093	-74.876	-71.280	-67.000	96.023	-72.071	-8191	255	
28649.125	1	1	0	0	0.14077	0.30669	0.27608	0.43228	0.12586	0.3058	0.2113	0.045836	0.21028	0.084496	0.45494	0.31491	0.19362	0.32572	0.28902	0.27282	-0.14792	-1.0271	-0.32083	-1.2188	-1.1167	-0.13542	-1.2292	-0.68125	-0.50417	-1.1083	-0.34583	-0.83958	-1.075	-0.44375	-1.0771	-0.86667	99.550	14.431	26.774	-59.169	266.221	14.844	124.483	81.390	7.804	261.477	246.809	214.559	249.892	190.914	-51.857	257.210	0.00029953	0.00070923	0.00053546	982.06	6.7812e-06	6.7942e-06	627.51	365.5	8.4835e-06	1.0312e-05	219.39	97.686	157.9	80.446	7.4884e-06	49.447	0.015001	0.026461	0.0075521	1043.4	0.00026677	0.00030029	712.2	388.11	0.00026821	0.00029963	267.64	112.99	170.76	84.706	0.00028033	56.442	180.769	14.247	62.398	-80.987	91.154	46.908	-83.137	-75.251	58.944	243.465	-79.082	-74.732	-70.903	-66.702	83.839	-71.898	-8191	255	
28649.221	1	1	0	0	0.20345	0.30766	0.20363	0.28655	0.19908	0.10727	0.20931	0.19603	0.16365	0.17797	0.029158	0.16375	0.087158	0.23399	0.15988	0.214	-0.058333	-1.2188	-0.1625	-1.0812	-1.0979	-0.45	-1.2938	-0.74167	-0.33542	-1.0771	-0.37917	-0.73125	-1.1063	-0.33542	-1.1437	-0.84167	177.025	-35.651	226.615	199.123	-84.625	78.512	225.047	173.297	107.664	129.059	167.362	233.848	-36.847	-27.871	144.401	238.332	0.00032505	0.0005535	0.00027737	971.95	1.3076e-05	9.5902e-06	627.17	362.2	4.6213e-06	1.672e-05	217.3	97.122	158.64	80.759	5.2641e-06	49.971	0.014891	0.026223	0.0075564	1036.7	0.00026295	0.00029941	710.05	386.04	0.00026648	0.00029606	266.63	112.95	171.44	84.897	0.00028072	56.762	217.195	-51.935	-4.535	-81.101	8.649	-90.149	-83.027	-75.396	264.231	138.855	-79.032	-75.116	-70.950	-66.872	-69.801	-71.746	-8191	255	
28649.316	1	1	0	0	0.042935	0.13875	0.26904	0.33308	0.10898	0.1173	0.12636	0.15425	0.16939	0.17351	0.26408	0.23037	0.26343	0.54752	0.11076	0.10714	0.13333	-1.2146	-0.57083	-0.80208	-1.1458	-0.19583	-0.85	-1.1063	-0.20625	-1.1521	-0.59167	-0.45417	-1.3188	-0.42292	-0.6625	-0.79375	14.535	134.634	-58.971	160.693	166.070	-12.221	-75.830	223.728	118.419	-1.476	148.112	216.264	260.541	204.011	-74.093	172.559	0.00026992	0.00077766	0.0002256	980.09	1.0734e-05	4.2569e-06	634.39	362.58	3.3385e-06	9.1744e-06	220.55	97.635	158.16	80.885	1.1544e-05	50.151	0.014737	0.026337	0.0075201	1040.1	0.00026147	0.00030117	714.33	387.39	0.00026417	0.0002964	268.25	113.26	170.66	85.079	0.00027977	56.924	241.465	110.253	76.880	-80.769	63.838	28.532	-82.950	-75.090	-44.387	20.622	-79.552	-74.517	-71.212	-66.694	114.664	-71.829	-8191	255	
28649.412	1	1	0	0	0.098237	0.25772	0.14854	0.35712	0.20969	0.079374	0.18085	0.26163	0.24718	0.23753	0.10679	0.17502	0.18457	0.3097	0.21421	0.068951	0.10417	-0.9625	-0.52708	-0.59792	-1.0187	-0.46458	-0.72708	-1.0063	-0.21875	-1.075	-0.48542	-0.44792	-1.0271	-0.4875	-0.60417	-1.0938	-65.393	-67.553	52.719	243.714	-45.166	140.788	236.066	195.955	28.244	86.026	107.741	228.689	212.614	-84.199	202.700	148.185	0.0001194	0.00035126	8.6921e-05	980.88	1.2857e-05	1.4056e-05	634.87	364.5	8.1087e-06	8.7157e-06	220.47	97.595	158.08	80.738	1.815e-05	50.398	0.014747	0.026368	0.0075347	1042.1	0.00026112	0.00030085	718.33	388.14	0.00026644	0.00029906	269.5	113.25	170.78	85.099	0.00027991	57.378	-75.764	107.317	17.047	-80.965	61.246	-15.207	-82.920	-75.365	68.991	14.658	-79.343	-74.552	-71.011	-66.803	-78.306	-71.964	-8191	255	
28649.510	1	1	0	0	0.16449	0.11653	0.059428	0.072674	0.097622	0.16235	0.26417	0.3334	0.21487	0.16097	0.17571	0.2922	0.16655	0.14847	0.12923	0.31914	0.091667	-0.87708	-0.78958	-0.37083	-1.0104	-0.27917	-0.49583	-1.1625	-0.34583	-1.0271	-0.79792	-0.72083	-1.2625	-0.67292	-0.58125	-1.2375	135.762	187.099	-48.916	203.424	6.060	-21.883	107.940	202.672	114.597	128.394	153.228	73.620	-44.548	238.334	-44.888	253.300	0.00020177	0.0012889	0.00043324	977.88	4.2423e-06	1.8874e-05	642.86	366.32	7.0516e-06	1.4458e-05	223.7	98.687	158.41	80.925	1.4587e-05	50.611	0.014656	0.026417	0.0074655	1042.8	0.00026395	0.00030175	723.61	389.58	0.0002664	0.00029883	271.4	113.98	171.17	85.275	0.00027828	57.283	184.272	-62.719	-13.855	-80.884	240.874	26.843	-82.741	-75.361	72.932	39.036	-78.755	-74.340	-70.756	-66.621	256.357	-71.529	-8191	255	
28649.605	1	1	0	0	0.12223	0.15358	0.098112	0.24029	0.27126	0.18542	0.15833	0.24543	0.22532	0.017293	0.19499	0.23199	0.24527	0.26926	0.12481	0.13291	0.125	-0.93125	-0.71458	-0.3	-1.1479	-0.61458	-0.65	-1.2	-0.3375	-0.89583	-1.0083	-0.36667	-1.2563	-0.77917	-0.50417	-1.2792	248.147	60.204	102.051	237.378	138.765	22.222	184.412	210.913	245.440	149.652	264.002	-59.561	171.737	250.013	94.285	195.939	5.6043e-05	0.0012358	0.00047632	982.12	5.3514e-06	1.9147e-05	641.99	366.36	1.3122e-05	1.3311e-05	219.77	97.557	156.73	80.17	3.6376e-06	50.224	0.014859	0.026409	0.0074548	1044.3	0.00026226	0.00030083	718.58	387.59	0.00026633	0.00029633	268.26	112.76	169.88	84.605	0.00027553	56.879	13.674	-48.479	-71.134	-80.799	-7.025	224.385	-82.519	-75.020	-55.885	212.737	-78.664	-74.192	-70.959	-67.239	65.532	-72.014	-8191	255	
28649.727	1	1	0	0	0.23178	0.083516	0.11418	0.10746	0.20633	0.22422	0.066469	0.082121	0.29461	0.21588	0.31144	0.11812	0.30724	0.4278	0.19912	0.38164	0.23125	-0.68333	-0.91042	-0.37083	-1.1854	-0.63958	-0.5	-1.4708	-0.4375	-0.85	-1.1688	-0.33958	-1.2396	-0.89792	-0.34792	-1.2167	264.763	135.285	12.350	167.677	52.589	-7.605	230.417	-84.552	243.157	-37.088	212.158	212.942	181.195	225.027	89.187	216.012	0.00025728	0.00054574	0.0002041	981.76	5.5967e-06	3.9544e-06	636.62	366.75	5.44e-06	1.0338e-05	221.28	97.61	157.68	80.745	1.707e-06	50.699	0.014687	0.026173	0.0074297	1041.1	0.00026154	0.00029845	719.59	388.59	0.00026739	0.00029715	269.13	113.29	170.17	84.988	0.0002771	57.283	223.337	12.256	-31.552	-81.264	161.720	-6.838	-83.371	-75.656	75.008	-78.304	-79.368	-75.101	-71.223	-67.332	42.632	-72.110	-8191	255	
28649.822	1	1	0	0	0.20386	0.29875	0.20143	0.23571	0.23306	0.085261	0.20665	0.32639	0.13874	0.25185	0.11337	0.13321	0.17771	0.33906	0.21416	0.13428	-0.0083333	-0.40833	-1.2396	-0.42708	-0.89583	-0.81667	-0.37917	-1.3021	-0.525	-0.50625	-1.3667	-0.36875	-0.925	-1.0312	-0.2375	-1.1625	182.689	58.906	188.887	217.383	205.874	98.178	253.412	162.056	160.988	-43.097	-72.705	-37.097	226.234	266.173	54.780	-87.964	6.7759e-05	0.00098189	0.00031091	981.32	8.8666e-06	6.1208e-06	642.48	365.42	3.8958e-06	8.0785e-06	221.38	98.464	157.53	80.503	1.2494e-05	50.838	0.014804	0.026204	0.007432	1043.6	0.00026316	0.00029759	722.16	388.9	0.00026828	0.00029732	270.28	114	170.83	85.101	0.00027707	57.601	197.290	18.755	39.493	-81.243	-69.125	94.132	-82.935	-75.552	178.620	106.126	-79.181	-74.632	-71.061	-67.070	140.348	-71.503	-8191	255	
28649.920	1	1	0	0	0.22202	0.26039	0.346	0.29311	0.14931	0.25472	0.14183	0.24521	0.27707	0.071659	0.21711	0.13072	0.34297	0.25717	0.16865	0.20975	-0.36458	-0.5	-1.1625	-0.32917	-0.78958	-0.82292	-0.25833	-1.3646	-0.62708	-0.34583	-1.0063	-0.35625	-0.94583	-1.275	-0.38125	-1.3104	29.237	-92.099	75.364	217.041	31.533	18.154	226.628	235.050	-72.791	-28.354	108.033	213.602	235.140	256.518	112.043	252.707	0.00015742	0.00048357	0.00023041	984.79	8.2765e-06	2.3645e-06	646.51	367.64	2.2459e-06	8.2789e-06	224.98	98.838	158.08	80.961	1.2156e-05	50.845	0.014915	0.02623	0.0074177	1045.6	0.00026477	0.00030148	725.24	390.14	0.00026902	0.00029747	272.51	114.43	171.07	85.386	0.00027839	57.929	183.832	-51.138	-24.115	-81.228	-11.371	2.964	-83.494	-75.310	102.532	-3.872	-79.346	-74.846	-70.790	-67.039	38.281	-71.798	-8191	255	
28650.016	1	1	0	0	0.21472	0.18884	0.28189	0.22255	0.19367	0.17988	0.17847	0.34397	0.014413	0.24985	0.1209	0.28696	0.29738	0.33865	0.14066	0.11375	-0.4125	-0.325	-0.95	-0.4625	-0.625	-1.1542	-0.27917	-1.0292	-0.95625	-0.25833	-1.325	-0.64375	-0.8625	-1.2292	-0.10625	-1.1021	-57.338	40.268	-0.824	-89.971	-7.579	169.117	-29.542	-79.065	51.574	76.345	131.651	-79.368	-70.943	248.168	21.996	80.905	0.00015815	0.00060442	0.00037667	981.63	1.2055e-05	8.0512e-06	645.32	366.26	2.9479e-06	4.0156e-06	221.35	98.638	157.96	80.849	1.2746e-05	50.638	0.014934	0.026199	0.0074842	1047.8	0.00026555	0.00030027	726.33	390.4	0.00027084	0.00029875	270.94	114.37	171.04	85.13	0.0002788	57.408	217.133	-44.607	151.569	-81.324	-90.874	-78.603	-83.348	-75.542	45.062	16.524	-79.328	-74.746	-71.049	-67.306	249.339	-71.654	-8191	255	
28650.109	1	1	0	0	0.089716	0.15125	0.27033	0.1871	0.079532	0.2002	0.2071	0.22313	0.0976	0.14152	0.24426	0.14344	0.22761	0.30952	0.067233	0.048115	-0.49583	-0.375	-1.2188	-0.6125	-0.5375	-0.99375	-0.42917	-1.0146	-1.1458	-0.19792	-1.1625	-0.59375	-0.61667	-1.4854	-0.20417	-0.86875	55.783	121.480	150.391	-73.818	58.018	167.692	-59.774	222.137	241.371	-65.965	147.462	155.954	215.367	202.398	239.983	164.010	9.445e-05	0.00067028	0.00034481	979.47	4.2015e-06	4.0074e-06	639.64	367.08	1.0428e-05	8.4167e-06	221.95	98.422	158.42	80.952	9.0629e-06	50.754	0.014944	0.026319	0.0074997	1044.9	0.00026519	0.00030118	721.22	389.49	0.00026892	0.00029894	270.11	113.88	170.73	85.052	0.00028047	57.431	238.828	265.175	-35.427	-81.499	65.697	75.521	-83.366	-75.644	72.515	161.105	-78.860	-74.692	-70.858	-66.956	144.836	-71.557	-8191	255	
28650.205	1	1	0	0	0.19909	0.18431	0.24948	0.027665	0.34583	0.17807	0.22926	0.21253	0.16478	0.17745	0.11994	0.13623	0.14407	0.12035	0.15349	0.023845	-0.65625	-0.31667	-0.925	-0.69167	-0.46875	-1.3062	-0.54583	-0.87292	-1.1313	-0.23542	-1.1688	-0.83333	-0.48958	-1.2292	-0.44167	-0.76458	175.015	175.549	114.702	176.968	-22.585	24.805	212.687	181.058	10.562	206.444	2.737	165.637	-54.216	207.929	244.267	174.992	8.045e-05	0.00046938	0.00023144	983.16	8.3278e-06	8.8313e-06	637.46	365.88	3.7456e-06	1.5813e-05	220.71	98.213	158.53	80.839	9.6232e-06	51.023	0.014716	0.026262	0.0075202	1045.5	0.00026424	0.00030025	722.38	388.91	0.00026608	0.00029735	269.99	113.8	170.82	85.137	0.0002798	57.621	137.537	-73.242	42.953	-81.025	181.541	135.466	-83.384	-75.360	158.163	23.572	-79.394	-74.901	-70.818	-67.245	254.859	-72.082	-8191	255	
28650.326	1	1	0	0	0.094697	0.39121	0.1106	0.31426	0.014403	0.25333	0.52367	0.25463	0.20864	0.13154	0.095726	0.12616	0.35514	0.087129	0.038609	0.16404	-0.81458	-0.17708	-0.90833	-1.0292	-0.36458	-1.3104	-0.74375	-0.70208	-1.0917	-0.29583	-0.84583	-0.98333	-0.39167	-1.4062	-0.52083	-0.63333	-91.337	133.219	29.014	154.943	180.814	-5.949	192.627	-10.459	263.527	105.171	20.088	137.537	249.417	-60.391	90.620	260.326	8.7701e-05	0.0015962	0.00040666	981.59	5.7067e-06	2.7456e-05	643.32	366.29	7.1607e-06	2.1491e-05	223.29	98.676	158.77	81.17	4.4726e-06	50.998	0.014777	0.026338	0.00753	1045.7	0.00026335	0.00030128	725.32	388.94	0.00026582	0.00029982	271.39	114.39	171.5	85.43	0.0002809	57.923	208.735	266.149	-44.884	-81.387	50.440	56.223	-83.098	-75.370	-40.180	65.119	-79.112	-75.015	-70.964	-66.992	239.420	-72.040	-8191	255	
28650.422	1	1	0	0	0.082471	0.16248	0.43456	0.20633	0.14745	0.23301	0.17593	0.12181	0.090323	0.090767	0.11709	0.25195	0.13993	0.27281	0.23587	0.10084	-0.83958	-0.28542	-0.88333	-1.0354	-0.19583	-0.97917	-0.82917	-0.61458	-1.0896	-0.33125	-0.67917	-0.96875	-0.15625	-1.4542	-0.64792	-0.38333	158.976	-31.063	183.546	-65.136	258.818	-34.530	-58.556	191.322	194.507	229.376	-91.747	258.066	169.054	264.969	-2.857	177.449	2.4468e-05	0.0021318	0.00029181	987.4	4.6568e-06	9.7148e-06	647.51	367.12	1.2505e-05	1.0241e-05	223.72	98.476	158.63	81.236	1.0525e-05	50.815	0.014879	0.026456	0.0075315	1047.6	0.00026442	0.00030527	727.52	390.35	0.0002684	0.00030297	272.7	114.69	171.17	85.45	0.00028322	57.884	209.054	11.770	78.264	-81.136	69.524	38.366	-83.496	-75.120	-4.446	77.530	-79.228	-75.075	-71.148	-66.958	6.712	-71.953	-8191	255	
28650.518	1	1	0	0	0.10139	0.19936	0.14	0.23495	0.21	0.2775	0.20159	0.2506	0.068802	0.25174	0.22804	0.16843	0.2038	0.09234	0.39454	0.37392	-0.74167	-0.58333	-0.725	-1.2396	-0.27292	-1.1271	-1.0083	-0.55833	-1.3354	-0.37708	-0.48958	-1.0417	-0.47708	-1.1771	-0.85	-0.27708	47.341	-31.810	186.096	256.696	121.591	191.117	67.430	227.823	247.248	-57.817	-11.217	260.885	-78.050	131.364	226.501	246.062	7.9958e-05	0.0013433	0.00010791	981.38	8.6718e-06	2.4374e-05	643.04	364.58	1.2253e-05	1.7568e-05	222.43	97.941	157.84	80.547	1.1409e-06	50.265	0.01495	0.026943	0.0075852	1045	0.00026445	0.00030241	722.39	388.73	0.00026581	0.00029926	269.7	112.93	170.08	84.771	0.00027822	57.062	201.667	-4.554	83.653	-81.271	39.170	62.472	-83.701	-75.460	57.893	126.561	-78.562	-74.935	-71.244	-66.832	81.203	-72.055	-8191	255	
28650.613	1	1	0	0	0.16731	0.13372	0.16453	0.10846	0.050146	0.12868	0.29734	0.12376	0.043073	0.12051	0.28012	0.058844	0.37595	0.35432	0.17506	0.11508	-0.75208	-0.36042	-0.37708	-1.2563	-0.225	-0.925	-0.70417	-0.36667	-1.2833	-0.67083	-0.52083	-1.1667	-0.45	-0.9625	-1.0312	-0.35	14.013	178.809	-80.836	109.227	-87.335	8.870	226.345	180.066	-74.161	-37.784	259.357	211.909	243.117	243.315	93.271	-80.941	0.00017113	0.00078933	9.3203e-05	976.25	7.8092e-06	8.1855e-06	637.23	363.2	6.7422e-06	5.2414e-06	220.04	97.913	156.61	80.384	4.5797e-06	50.492	0.014809	0.026626	0.0074764	1038.9	0.00026397	0.00030167	718.4	386.72	0.00026807	0.00029926	268.72	113.21	169.85	84.81	0.00027762	57.402	158.154	21.555	3.727	-81.344	89.466	111.758	-82.850	-75.413	-63.602	111.762	-79.001	-74.485	-71.142	-66.716	198.042	-71.947	-8191	255	
28650.686	1	1	0	0	0.17014	0.085585	0.25809	0.10948	0.13137	0.18605	0.31561	0.1096	0.10183	0.19504	0.24271	0.20486	0.31401	0.16892	0.28899	0.2245	-0.6125	-0.55417	-0.2875	-1.2687	-0.39375	-0.79792	-1.1479	-0.43125	-1.1229	-0.675	-0.44375	-1.2583	-0.45625	-0.93542	-0.93958	-0.18958	245.462	60.375	-15.330	169.903	8.740	-13.846	205.054	187.553	-25.967	18.602	-14.045	-5.289	-54.075	187.201	136.168	181.713	0.00012684	0.0010649	0.00023727	985.4	9.1993e-06	1.4187e-05	635.44	364.3	8.7459e-06	1.2812e-05	220.99	98.1	157.92	81.044	3.4787e-06	50.695	0.014804	0.026405	0.0074426	1042.9	0.00026528	0.00030189	719.07	387.09	0.00026983	0.00029955	269.9	113.77	170.74	85.128	0.00027765	57.645	234.414	-23.468	86.282	-81.343	121.078	18.563	-82.864	-75.449	-3.942	57.318	-79.203	-74.970	-70.992	-66.906	-25.495	-72.125	-8191	255	
28650.807	1	1	0	0	0.23732	0.26342	0.098269	0.11379	0.11365	0.072292	0.20173	0.16928	0.075226	0.030497	0.28375	0.18376	0.20678	0.37913	0.26175	0.2646	-0.70833	-0.85833	-0.17083	-1.3917	-0.325	-0.67708	-1.1	-0.45833	-1.0771	-0.82083	-0.16667	-1.2875	-0.51875	-0.62917	-1.1292	-0.32292	249.907	-28.053	105.666	-85.251	263.218	-80.121	225.810	-86.439	143.245	-63.338	265.240	60.955	246.934	250.216	194.887	215.407	0.00023432	0.00037455	0.00037531	983.26	3.5413e-06	1.3373e-05	643.44	366.04	5.8529e-06	8.7014e-06	222.88	98.894	158.4	81.563	1.0769e-05	51.096	0.014885	0.026599	0.0075223	1046.9	0.00026575	0.00030304	724.18	389.57	0.00027099	0.00030204	271.88	114.98	171.74	85.574	0.00028191	58.084	232.168	106.390	83.561	-81.064	43.789	63.899	-83.409	-75.359	137.371	79.063	-78.991	-75.041	-70.860	-66.431	49.451	-71.891	-8191	255	
28650.902	1	1	0	0	0.38989	0.24163	0.045402	0.22939	0.14321	0.11808	0.27729	0.15342	0.18863	0.21207	0.15243	0.20309	0.30955	0.26056	0.26912	0.29735	-0.46667	-0.98958	-0.16458	-1.2208	-0.54167	-0.64792	-1.1833	-0.63333	-0.8	-1.0229	-0.35208	-1.1417	-0.91458	-0.51042	-1.0729	-0.49583	-9.054	41.437	127.993	252.237	-62.532	190.154	-87.078	-79.419	202.872	111.247	-40.775	256.002	-75.325	-89.482	245.916	254.380	0.00010456	0.0015239	0.00054174	984.41	7.6448e-06	1.6899e-05	646.88	367.38	1.3028e-06	1.4636e-05	223.5	99.093	159.33	81.208	1.0166e-05	50.866	0.015007	0.026628	0.0075208	1050.2	0.00026887	0.00030444	728.03	390.84	0.00027138	0.00030131	272.35	115.01	172.18	85.623	0.00028342	57.952	195.541	-14.597	44.523	-80.959	113.964	87.339	-83.145	-75.293	215.068	9.834	-79.184	-74.564	-71.046	-66.984	-60.807	-71.640	-8191	255	
28650.998	1	1	0	0	0.042275	0.15537	0.21973	0.38096	0.18472	0.1151	0.092468	0.33406	0.15955	0.047447	0.13066	0.18218	0.13409	0.40361	0.19935	0.36317	-0.23542	-0.9875	-0.12708	-1.3083	-0.73333	-0.45625	-1.3521	-0.56875	-0.62917	-1.2062	-0.38125	-1.025	-0.875	-0.53125	-1.2875	-0.59792	70.550	-67.149	208.458	210.096	239.322	-70.379	-48.348	225.558	-0.175	192.289	69.096	251.622	263.300	256.998	95.663	209.815	0.00018321	0.0013805	0.00025179	977	9.0956e-06	6.3276e-06	638.03	364.01	1.8308e-06	1.8824e-05	220.68	98.478	157.67	80.849	1.1465e-05	50.806	0.01505	0.026425	0.0075495	1042.4	0.00026858	0.00030393	718.92	388.44	0.00027151	0.00030107	269.73	114.13	170.8	85.209	0.00028464	57.753	156.143	11.607	155.364	-80.638	17.503	220.947	-82.991	-75.071	120.393	165.650	-79.267	-74.879	-71.296	-66.663	43.498	-71.292	-8191	255	
28651.096	1	1	0	0	0.16246	0.22592	0.048149	0.094276	0.23924	0.23258	0.069726	0.2664	0.15046	0.25908	0.20203	0.11768	0.27253	0.37686	0.081175	0.23834	-0.095833	-1.175	-0.17708	-1.075	-0.87917	-0.33958	-1.1104	-0.71458	-0.37708	-1.2896	-0.37708	-0.83542	-1.0187	-0.50833	-1.0562	-0.91458	164.041	20.560	265.589	-82.608	145.538	18.813	-41.743	243.025	-88.648	-19.721	106.705	-89.107	-92.322	232.901	104.584	209.344	9.4788e-05	0.0020762	0.00029667	977.5	1.2084e-05	1.2273e-05	636.21	364.9	8.4125e-06	1.6726e-05	221.14	98.306	158.69	80.745	3.0036e-06	50.873	0.015006	0.026549	0.0075812	1043.1	0.00026815	0.00029997	719.34	388.97	0.0002688	0.00030137	270.49	114.44	171.47	85.254	0.00028389	57.729	177.484	-59.802	-30.495	-80.973	157.270	34.280	-82.398	-74.970	90.464	95.551	-78.567	-74.542	-70.982	-66.733	220.707	-71.455	-8191	255	
28651.215	1	1	0	0	0.19849	0.0573	0.16633	0.15223	0.18112	0.11342	0.083877	0.14436	0.27095	0.070689	0.15666	0.05253	0.32387	0.21662	0.11264	0.14899	-0.05	-1.1375	-0.225	-0.75833	-0.92917	-0.18958	-1.1063	-0.75417	-0.57292	-1.3292	-0.38333	-0.66458	-1.2604	-0.55	-1.0625	-0.81458	-58.469	-77.041	36.701	-62.320	16.577	-63.486	55.283	217.589	55.217	93.982	-14.585	-63.524	248.616	213.998	138.312	137.856	0.00037985	0.00021397	0.00036735	980.95	4.7167e-06	8.9249e-06	634.48	366.56	8.6536e-06	1.2574e-05	221.49	99.167	157.76	81.047	9.7058e-06	51.09	0.014992	0.0266	0.0076404	1044.3	0.0002676	0.0003031	721.51	389.43	0.00026766	0.00030083	271.27	114.59	171.14	85.281	0.00028247	58.012	162.565	-38.534	-21.740	-80.463	5.475	14.568	-83.142	-75.276	-59.123	86.734	-79.058	-75.089	-71.548	-67.037	33.155	-72.362	-8191	255	
28651.311	1	1	0	0	0.02429	0.22134	0.22222	0.13119	0.23777	0.076221	0.19932	0.24117	0.12164	0.1801	0.16664	0.092835	0.19537	0.086583	0.31717	0.071139	0.23125	-1.2	-0.33542	-0.76458	-1.0042	-0.36458	-1.2437	-0.8125	-0.1875	-1.2208	-0.62917	-0.6	-1.2479	-0.325	-1.0167	-0.96875	-27.013	-82.616	115.331	236.029	-25.697	178.426	224.852	-18.816	161.164	9.276	241.891	27.595	232.629	263.124	-77.718	183.056	0.00025324	0.00089677	0.00059483	977.1	7.8709e-06	6.0987e-06	638.89	365.54	9.5256e-06	4.6327e-06	223.16	98.26	158.42	81.046	1.3451e-06	51.168	0.014858	0.026483	0.0076269	1042.4	0.00026403	0.00030306	723.13	389.35	0.00026964	0.00030187	272.75	114.65	171.06	85.457	0.00028388	58.147	173.337	16.582	61.232	-81.545	75.709	-1.845	-83.337	-75.863	152.404	67.043	-79.453	-75.024	-71.438	-67.334	-85.689	-72.196	-8191	255	
28651.406	1	1	0	0	0.17967	0.11726	0.40991	0.30818	0.27385	0.51731	0.068101	0.45774	0.27418	0.2136	0.19755	0.092354	0.15977	0.26259	0.3912	0.2224	0.25208	-1.0271	-0.35833	-0.46042	-1.1708	-0.40833	-0.90833	-1.0479	-0.31667	-1.0146	-0.8125	-0.6	-1.2979	-0.47917	-0.69792	-1.0646	213.597	-43.178	94.053	-63.666	91.680	179.177	-26.991	218.274	-11.356	180.732	231.316	163.761	-48.779	241.130	-90.397	-87.715	0.00025332	0.0015452	0.00013609	977.33	5.9564e-06	1.7566e-05	640.05	364.7	8.5344e-06	1.7457e-05	219.22	97.435	156.74	80.203	3.2422e-06	50.411	0.014777	0.026698	0.0075511	1040.1	0.00026296	0.00030146	719.38	388.04	0.0002672	0.00030017	269.29	113.17	169.44	84.533	0.00028002	57.194	193.243	218.008	114.612	-81.496	-56.629	-84.905	-83.625	-76.038	33.088	41.973	-79.264	-75.386	-71.450	-67.510	-46.940	-72.404	-8191	255	
28651.504	1	1	0	0	0.16385	0.093318	0.13629	0.42466	0.14834	0.22995	0.20148	0.6027	0.23928	0.17771	0.18888	0.30191	0.36424	0.20548	0.18237	0.24049	0.26042	-1.0312	-0.63542	-0.43542	-1.0729	-0.3375	-0.68958	-1.2708	-0.21042	-0.98542	-1.0396	-0.29167	-1.2125	-0.60833	-0.61875	-0.96667	142.680	163.705	180.831	211.458	-80.869	263.883	113.837	187.109	150.166	18.393	236.284	237.400	231.182	250.708	46.057	-79.379	0.00012487	0.0017731	0.00044586	969.69	2.0092e-05	1.0188e-05	629.72	362.37	1.1452e-05	1.5233e-05	220.89	96.742	155.71	80.032	1.2083e-05	50.227	0.014796	0.02636	0.0074611	1032.7	0.00026229	0.00029885	713.27	385.93	0.00026494	0.00029525	267.91	112.33	168.43	84.418	0.00027715	57.079	210.072	-50.338	-10.131	-81.461	6.671	137.828	-83.851	-75.827	23.076	33.004	-79.870	-75.364	-71.435	-67.248	-62.153	-72.259	-8191	255	
28651.600	1	1	0	0	0.059013	0.058493	0.055503	0.16632	0.19634	0.074447	0.12006	0.22683	0.11843	0.17306	0.28745	0.3079	0.19217	0.10638	0.27938	0.1301	0.072917	-0.8875	-0.75417	-0.4125	-1.2125	-0.59792	-0.61667	-1.3417	-0.41042	-1.0125	-0.99583	-0.34375	-1.2583	-0.64583	-0.47083	-1.2229	79.143	232.434	-31.846	130.429	249.113	166.375	-6.968	220.006	102.196	192.042	230.329	193.505	-61.442	190.974	140.584	189.026	0.00016331	0.0013306	0.00032323	965.59	1.174e-05	1.8006e-05	633.54	362.16	4.6586e-06	5.2204e-06	219.63	97.457	155.73	79.612	1.7616e-05	50.198	0.014707	0.026133	0.0074193	1032.7	0.00026232	0.0002976	714.84	385.57	0.00026657	0.00029858	267.32	112.54	167.92	84.065	0.00027549	57.186	228.877	5.649	0.365	-81.660	172.117	156.708	-83.724	-75.929	-76.230	111.408	-79.740	-75.203	-71.485	-67.444	112.598	-72.399	-8191	255	
28651.695	1	1	0	0	0.087628	0.3419	0.12568	0.14282	0.15491	0.22972	0.31891	0.18665	0.023473	0.06375	0.22121	0.1872	0.21328	0.20005	0.16586	0.22783	-0.075	-0.72917	-0.86042	-0.36042	-1.0146	-0.57083	-0.34375	-1.3354	-0.325	-0.73958	-1.0792	-0.24167	-1.1021	-0.7625	-0.325	-1.2333	167.831	-63.404	88.065	176.293	96.266	206.869	-90.633	-85.507	220.224	-54.705	182.044	-3.325	171.175	232.517	-81.440	190.035	0.00026382	0.0002532	0.00018787	971.69	7.0431e-06	1.3768e-05	639.17	363.18	7.5319e-06	2.1185e-05	220.49	97.009	154.9	79.612	1.1363e-05	51.028	0.014859	0.026311	0.0074287	1034.7	0.00026252	0.00029962	718.74	386.85	0.00026695	0.00029558	268.91	112.8	168.3	84.125	0.00027401	57.593	165.227	-61.295	95.312	-81.950	-50.991	40.801	-83.480	-75.935	15.681	-85.905	-79.440	-75.196	-71.602	-67.422	166.568	-72.410	-8191	255	
28651.814	1	1	0	0	0.036442	0.17008	0.13677	0.36301	0.32381	0.15591	0.31623	0.17808	0.19516	0.1713	0.30049	0.3558	0.077398	0.26117	0.076539	0.029144	0.14583	-0.51875	-1.0021	-0.39792	-1.0208	-0.70833	-0.5125	-1.2687	-0.27083	-0.43542	-1.0979	-0.22292	-1.1083	-1.0646	-0.31875	-1.0646	5.753	-58.623	154.624	227.132	261.146	84.680	193.032	-58.922	65.179	149.773	190.060	189.407	241.511	214.592	189.979	208.022	0.00027554	0.0012066	1.0043e-05	973.65	1.2591e-05	5.8061e-06	644.8	363.01	1.0916e-05	1.3379e-05	223.58	97.306	154.7	79.716	1.566e-05	50.347	0.014822	0.026285	0.0074134	1036.5	0.00026299	0.00029707	722.7	387.65	0.00026711	0.00029373	270.7	112.73	167.68	84.053	0.00027374	57.269	179.245	260.459	207.316	-81.704	155.256	250.009	-83.790	-75.804	53.757	5.865	-79.784	-75.165	-71.329	-67.336	49.454	-72.302	-8191	255	
28651.910	1	1	0	0	0.24039	0.14962	0.22707	0.092684	0.21444	0.065654	0.18048	0.21339	0.084101	0.14059	0.30623	0.061465	0.40743	0.22233	0.19758	0.23497	-0.28542	-0.43125	-1.0438	-0.42917	-0.72083	-0.9375	-0.32083	-1.1958	-0.52917	-0.31042	-1.0833	-0.42292	-0.68333	-1.2042	-0.14792	-1.0333	207.633	228.580	-26.301	-25.869	-47.691	204.890	175.207	221.501	-23.279	125.141	168.281	246.041	-50.613	190.584	154.609	-84.001	0.00032326	0.00048946	0.0002784	968.79	7.2292e-06	1.4305e-05	630.16	361.16	5.6631e-06	1.8728e-05	220.88	96.287	153.46	78.841	2.3276e-06	49.879	0.01472	0.02591	0.0073552	1030.1	0.00026056	0.00029422	713.14	385.54	0.00026452	0.00029351	267.63	111.35	166.09	83.124	0.00027395	56.724	215.994	57.473	-54.164	-82.029	77.874	-38.774	-83.685	-75.873	163.304	30.593	-79.953	-75.750	-71.582	-67.528	94.926	-72.489	-8191	255	
28651.982	1	1	0	0	0.27631	0.11353	0.22095	0.25457	0.1564	0.083304	0.26856	0.11387	0.17086	0.25742	0.22734	0.12258	0.3384	0.29604	0.14573	0.15282	-0.175	-0.24792	-1.2458	-0.59792	-0.55625	-1.1854	-0.30833	-1.0125	-0.70833	-0.27292	-1.2437	-0.40833	-0.78542	-1.0854	-0.2375	-1.1063	257.515	133.303	-6.065	256.445	-16.053	109.727	255.679	117.816	212.584	-73.937	71.107	217.786	237.934	-89.594	186.901	48.376	0.00020092	0.0011168	0.00037816	966.08	2.0387e-06	7.1519e-06	633.2	361.02	9.8485e-06	1.0286e-05	221.58	95.73	152.55	79.252	5.1367e-06	50.235	0.014637	0.025867	0.0073095	1026.7	0.00025774	0.00029536	713.35	385.1	0.00026255	0.00028927	267.66	110.95	165.82	83.291	0.00027125	56.778	247.405	255.834	-10.587	-81.588	218.657	195.911	-83.689	-76.064	35.687	7.272	-79.701	-75.358	-71.817	-67.588	-48.107	-72.177	-8191	255	
28652.102	1	1	0	0	0.079642	0.12242	0.24857	0.11836	0.064671	0.13408	0.2636	0.12476	0.14713	0.14473	0.069318	0.2469	0.10989	0.20315	0.07778	0.16562	-0.2125	-0.16042	-1.0292	-0.54792	-0.37083	-1.1229	-0.22917	-1.1583	-0.90625	-0.175	-1.1396	-0.54375	-0.53542	-1.2333	-0.22708	-0.87917	-36.733	165.159	214.168	240.817	137.528	-42.891	255.384	127.378	-83.931	95.465	182.671	149.179	72.202	253.725	-90.466	42.584	0.00023695	0.00080793	0.00013456	970.52	3.9701e-06	1.097e-05	635.88	361.85	1.557e-06	2.376e-05	222.27	95.737	153.2	79.01	1.1709e-05	50.045	0.014425	0.025553	0.0072714	1029.9	0.00025595	0.00029217	718.31	385.18	0.00025908	0.00028961	269.1	111.07	165.22	83.184	0.00027398	56.882	191.160	-39.196	-4.460	-81.944	201.368	40.548	-83.745	-76.072	-35.220	44.287	-79.631	-74.969	-71.512	-67.741	-3.514	-72.190	-8191	255	
28652.197	1	1	0	0	0.075514	0.075689	0.19703	0.29962	0.21334	0.17217	0.15222	0.11703	0.064993	0.24014	0.059918	0.087657	0.12246	0.14028	0.15431	0.13796	-0.61458	-0.22708	-0.90625	-0.69792	-0.54792	-1.2979	-0.36875	-0.79583	-0.76042	-0.29792	-1.1958	-0.63333	-0.425	-1.2708	-0.29167	-0.85	197.400	125.207	247.464	-51.589	56.255	139.408	55.838	234.798	146.697	254.510	161.807	188.924	-78.490	203.631	204.588	150.010	0.00010757	0.0016375	0.00031201	971.04	1.0801e-05	1.9128e-05	646.17	363.71	7.2082e-06	1.3186e-05	222.42	96.38	153.79	79.449	7.1287e-06	50.808	0.014414	0.025676	0.0072964	1031	0.00025721	0.00029291	723.3	386.28	0.00026069	0.00029275	270.64	111.76	165.75	83.577	0.0002735	57.284	248.063	15.427	-19.526	-81.833	-8.672	26.745	-84.136	-75.991	8.442	34.099	-79.269	-75.257	-71.549	-67.742	20.168	-72.469	-8191	255	
28652.295	1	1	0	0	0.099289	0.053328	0.27413	0.23329	0.038187	0.133	0.10356	0.14217	0.19229	0.12657	0.10904	0.10452	0.21861	0.23386	0.17079	0.24012	-0.72708	-0.175	-0.87292	-0.72917	-0.38333	-1.3417	-0.5375	-0.76042	-0.95417	-0.34792	-1.0542	-1	-0.20417	-1.3312	-0.70833	-0.5875	29.284	17.297	37.621	-89.818	-37.702	164.457	7.905	245.784	-42.495	216.064	0.175	9.677	-75.582	249.752	-56.159	204.127	0.00012438	0.00061764	0.00028038	970.52	1.4136e-05	8.1458e-06	646.9	363.31	1.0209e-05	9.8974e-06	224.2	95.867	152.2	78.64	5.9228e-06	49.785	0.014369	0.02581	0.0073221	1031	0.00025513	0.00029028	720.14	384.75	0.00025797	0.00029085	269.16	110.72	164.56	82.741	0.00027177	56.21	131.632	3.522	-47.631	-81.879	55.319	11.809	-84.046	-76.116	55.092	-70.743	-79.349	-75.377	-71.671	-67.519	-11.428	-72.236	-8191	255	
28652.391	1	1	0	0	0.088912	0.4399	0.22414	0.32548	0.2742	0.28625	0.086786	0.23293	0.18144	0.30618	0.090662	0.089073	0.25558	0.39258	0.12627	0.3136	-0.64375	-0.18333	-0.73542	-0.83125	-0.17708	-1.0667	-0.55	-0.6	-1.1042	-0.21667	-0.94375	-0.96042	-0.29583	-1.3146	-0.62917	-0.57083	-66.041	118.147	14.326	189.388	10.062	-89.512	21.780	240.368	198.653	52.621	262.930	-85.736	6.776	219.766	-11.657	-82.629	0.00016753	0.0022115	0.00039411	963.32	8.0662e-06	1.0257e-05	631.51	360.42	1.8231e-05	4.0642e-06	219.58	94.785	151.24	78.377	2.3586e-05	49.53	0.014282	0.025591	0.0072903	1025.1	0.00025574	0.00029141	711	383.74	0.00026022	0.00029114	265.95	109.85	163.57	82.513	0.00027201	56.14	164.151	59.026	48.798	-81.841	114.274	-19.721	-83.732	-76.029	10.829	77.269	-79.748	-75.268	-71.567	-67.513	-19.445	-72.604	-8191	255	
28652.512	1	1	0	0	0.17811	0.12677	0.1998	0.11851	0.3882	0.04834	0.12694	0.27843	0.10751	0.15503	0.30906	0.36265	0.074548	0.17799	0.1682	0.12072	-0.75208	-0.37708	-0.79792	-1.1583	-0.20208	-0.82292	-0.7375	-0.41667	-1.1187	-0.34167	-0.71875	-1.0875	-0.32083	-1.2	-0.62083	-0.18958	148.340	162.239	73.617	128.472	137.363	19.186	250.919	239.985	-9.593	191.073	211.176	222.858	246.630	195.497	6.153	164.821	8.4219e-05	0.00081113	0.00028466	962.82	3.3035e-06	4.6406e-06	637.39	360.21	2.1009e-06	5.1083e-06	220.85	95.353	152.07	78.492	7.0901e-06	49.805	0.014424	0.025776	0.0072587	1024.8	0.000256	0.00029386	713.72	383.38	0.00026086	0.00029015	266.82	110.28	164.52	82.636	0.00027129	56.476	191.412	-58.170	68.046	-81.765	45.559	44.420	-83.920	-76.128	188.817	246.997	-79.582	-75.402	-71.505	-67.446	-6.071	-72.222	-8191	255	
28652.607	1	1	0	0	0.06025	0.14301	0.16751	0.28195	0.20461	0.27347	0.14413	0.036365	0.32131	0.29816	0.067908	0.088804	0.28527	0.40222	0.13258	0.087063	-0.65208	-0.325	-0.58333	-1.1729	-0.16875	-0.8625	-0.94792	-0.51875	-0.94583	-0.6	-0.35625	-1.2375	-0.45208	-0.89792	-1.0438	-0.24792	-69.332	149.661	86.728	237.126	219.221	-47.762	54.132	-15.600	113.331	-0.970	86.146	-7.615	59.773	229.620	73.362	-6.031	0.00020519	0.0015726	0.00035294	970.56	5.7028e-06	6.4813e-06	638.87	362.81	2.2899e-06	1.2666e-05	222.14	95.546	152.65	78.857	7.3764e-06	50.138	0.014461	0.02573	0.0072946	1029.5	0.0002582	0.0002938	717.7	385.17	0.00026092	0.00029231	268.44	111.13	165.22	83.071	0.00027035	56.684	227.757	-71.441	-4.766	-81.969	98.741	-22.350	-83.860	-75.850	98.998	14.314	-79.502	-75.182	-71.952	-67.646	38.439	-72.306	-8191	255	
28652.680	1	1	0	0	0.24013	0.14124	0.089538	0.057526	0.2054	0.13365	0.052796	0.37804	0.15424	0.20638	0.37273	0.36487	0.19086	0.32416	0.22142	0.23072	-0.60833	-0.4125	-0.35208	-1.3708	-0.26042	-0.8625	-1.05	-0.36875	-1	-0.46458	-0.19583	-1.15	-0.39375	-0.77708	-1.1125	-0.28125	222.138	224.576	86.464	166.969	55.799	261.253	57.083	233.177	-22.068	-75.823	223.298	-89.401	-16.091	211.840	-43.830	173.680	0.00010754	0.0012784	3.1835e-05	967.49	4.6642e-06	2.0157e-06	639.19	363.12	1.2612e-06	1.2425e-05	223.34	95.768	151.81	78.691	7.2228e-06	50.046	0.01455	0.025871	0.007287	1029.5	0.0002599	0.00029668	719.89	384.79	0.00026377	0.00029351	269.63	111.18	164.85	82.957	0.00027304	56.712	195.852	204.582	86.602	-81.864	9.247	53.752	-83.789	-75.804	143.386	172.080	-79.690	-75.090	-71.417	-67.429	3.670	-72.407	-8191	255	
28652.775	1	1	0	0	0.34901	0.26105	0.13089	0.23854	0.13423	0.039127	0.30883	0.25836	0.16068	0.14431	0.29051	0.011135	0.050285	0.32024	0.33121	0.25162	-0.62292	-0.71667	-0.36875	-1.2354	-0.45833	-0.475	-1.2917	-0.34167	-0.87083	-0.7125	-0.24167	-1.2188	-0.68542	-0.62083	-1.1917	-0.17708	12.302	38.802	137.256	226.599	-85.472	123.074	196.039	257.630	20.369	213.699	43.034	84.598	-92.957	-46.660	183.935	199.993	0.00014265	0.00053435	0.00054071	967.96	7.6895e-06	1.4136e-05	632.17	362.15	5.3728e-06	7.21e-06	221.78	95.371	151.33	78.104	1.2748e-05	49.362	0.014577	0.025833	0.0072755	1028.4	0.00025895	0.00029382	711.51	383.81	0.000261	0.00029046	266.43	110.07	164	82.367	0.00027243	55.917	219.103	75.358	41.835	-81.857	198.729	35.830	-83.561	-76.201	225.948	93.411	-80.144	-75.066	-71.559	-67.427	25.849	-72.386	-8191	255	
28652.896	1	1	0	0	0.30136	0.43483	0.11183	0.027056	0.0052577	0.14598	0.32947	0.26651	0.11805	0.16221	0.4852	0.034714	0.067322	0.22196	0.2445	0.1304	-0.58542	-0.96667	-0.13542	-1.1625	-0.36458	-0.46875	-1.2625	-0.42083	-0.84583	-0.99792	-0.3625	-1.1187	-0.75625	-0.48958	-1.3417	-0.42917	71.111	46.009	121.775	-48.093	211.034	-36.956	-92.945	244.159	-4.922	-74.403	-74.576	139.046	189.908	231.080	254.726	157.046	0.00010652	0.00053347	0.00021134	958.8	1.6361e-06	3.1917e-06	629.64	360.2	4.8421e-06	1.3413e-05	219.79	95.15	152.69	78.029	2.0842e-06	49.563	0.014567	0.025779	0.0072773	1025	0.00025959	0.00029214	711.82	383.33	0.00026111	0.00029077	267.16	110.27	164.57	82.507	0.00027245	56.321	241.237	142.235	28.200	-81.802	85.707	-54.767	-83.805	-76.265	143.915	13.478	-79.696	-75.139	-71.620	-67.226	82.145	-72.219	-8191	255	
28652.990	1	1	0	0	0.14341	0.081537	0.379	0.10553	0.3293	0.073358	0.17267	0.13328	0.12386	0.11798	0.055338	0.17336	0.24036	0.51253	0.26864	0.3906	-0.22708	-0.90625	-0.020833	-1.1833	-0.59792	-0.16667	-1.1708	-0.42292	-0.67917	-1.0771	-0.36458	-1.0229	-1.0187	-0.3875	-1.075	-0.575	177.835	255.738	246.387	-63.630	-50.772	90.056	84.503	183.798	253.703	102.934	-56.465	218.062	-72.618	244.632	194.968	215.172	0.00010973	6.714e-05	0.00040581	968.13	8.2087e-06	1.2658e-05	629.54	361.74	1.6129e-06	1.6992e-05	221.62	95.478	151.49	78.644	8.2772e-06	49.905	0.014462	0.025819	0.0072755	1027.2	0.00025834	0.00029293	714.96	384.18	0.00026251	0.00029079	268.54	110.64	164.2	82.738	0.00027449	56.516	193.847	77.534	-44.211	-81.651	102.438	40.517	-84.243	-76.019	-55.671	93.789	-79.844	-75.434	-71.762	-67.511	13.231	-72.231	-8191	255	
28653.088	1	1	0	0	0.10384	0.1534	0.1721	0.43918	0.051469	0.14242	0.29512	0.2695	0.16769	0.17352	0.27624	0.098641	0.35293	0.18481	0.28857	0.1313	-0.29583	-0.81042	-0.24375	-1.0396	-0.70417	-0.14167	-0.9875	-0.76042	-0.43958	-1.0896	-0.30625	-0.82083	-1.0562	-0.35	-1.2021	-0.52708	250.514	-5.198	158.214	196.659	-21.318	104.129	225.391	223.019	248.443	56.637	-27.496	-11.860	243.261	-91.099	-3.746	145.480	0.00026401	0.00059646	8.1679e-05	971.5	3.0991e-06	8.0235e-06	637.62	360.8	8.7633e-06	7.9354e-06	222.95	95.432	151.7	78.674	4.3991e-07	49.941	0.014619	0.025838	0.0073457	1030.3	0.00025816	0.0002966	720.32	384.73	0.00026334	0.00029411	269.57	111.24	164.68	82.832	0.00027656	56.926	219.479	52.110	204.953	-81.718	57.309	-44.313	-83.951	-76.091	58.534	203.946	-79.506	-75.184	-71.468	-67.573	41.375	-72.305	-8191	255	
28653.207	1	1	0	0	0.025846	0.16995	0.29399	0.14693	0.12552	0.31227	0.094863	0.2522	0.080546	0.12159	0.2557	0.22578	0.32525	0.17353	0.19177	0.17392	0.15833	-1.1125	-0.19167	-0.87292	-0.94583	-0.27917	-1.0562	-0.775	-0.20417	-1.2104	-0.35417	-0.63125	-1.0125	-0.49583	-0.9625	-0.71667	-76.761	-50.623	257.685	-87.285	143.185	218.202	74.565	-14.579	-34.739	105.826	198.122	-88.225	-42.282	201.870	78.458	67.567	9.8029e-05	0.00017022	0.00010105	964.29	7.3943e-06	1.7928e-05	641.93	360.7	1.0175e-05	1.1303e-05	222.1	95.11	151.51	78.135	3.53e-06	50.114	0.014542	0.026077	0.0074714	1031	0.00026013	0.00029789	722.92	384.93	0.0002641	0.00029637	270.33	111.1	164.63	82.571	0.00027729	56.662	153.527	50.813	-77.100	-81.538	80.439	147.073	-84.187	-76.147	257.682	130.585	-80.173	-75.351	-71.648	-67.455	-54.484	-72.452	-8191	255	
28653.279	1	1	0	0	0.21675	0.16726	0.18037	0.22337	0.16013	0.11859	0.13977	0.29067	0.048347	0.078571	0.034064	0.23966	0.11646	0.21018	0.12423	0.36659	-0.014583	-1.1333	-0.35208	-0.81875	-1.0771	-0.12083	-1.1875	-0.87083	-0.3	-1.1896	-0.60625	-0.56458	-1.2792	-0.26667	-1.0312	-0.93333	218.642	34.393	-73.810	246.667	152.238	151.786	200.713	205.350	113.945	182.682	48.703	195.203	-42.850	241.244	122.212	248.088	9.6377e-05	0.00051297	0.00010889	964.3	6.4518e-06	8.3326e-06	637.3	361.32	9.6575e-06	1.1002e-05	222.41	94.324	151.88	78.307	9.1006e-06	49.544	0.014641	0.026121	0.007442	1028.7	0.00026081	0.00029833	717.42	384.72	0.00026438	0.00029531	269.17	110.72	164.75	82.68	0.00027746	56.476	122.061	-1.831	120.516	-81.739	197.042	73.416	-84.267	-76.225	-26.950	211.354	-79.621	-75.031	-71.527	-67.514	256.327	-72.584	-8191	255	
28653.375	1	1	0	0	0.088399	0.26445	0.25237	0.097932	0.28796	0.028627	0.20727	0.18039	0.11291	0.092287	0.13759	0.26981	0.30435	0.25865	0.12851	0.098006	0.14167	-0.92917	-0.49375	-0.6125	-1.1625	-0.39792	-1.0854	-0.92083	-0.41667	-1.2396	-0.6375	-0.42292	-1.2333	-0.32917	-0.71875	-1.0646	-91.138	196.030	-22.414	200.481	183.552	147.951	-36.649	162.432	61.600	-67.797	173.624	17.378	222.976	-73.085	-29.945	103.325	0.00017265	0.00036369	0.0002492	968.08	1.3133e-05	1.1453e-05	636.27	361.93	5.291e-06	2.341e-05	221.71	95.599	152.48	78.29	4.5946e-06	49.892	0.014695	0.026074	0.0074208	1029.3	0.00026089	0.00029835	717.49	384.84	0.00026436	0.0002981	268.73	111.11	164.85	82.755	0.0002775	56.675	183.590	9.653	235.281	-81.729	109.025	64.271	-83.818	-75.968	239.266	40.326	-79.374	-75.414	-71.526	-67.472	86.993	-72.787	-8191	255	
28653.494	1	1	0	0	0.36712	0.16928	0.12072	0.20802	0.11399	0.084067	0.17159	0.059894	0.30752	0.2262	0.14549	0.20745	0.10547	0.17935	0.22681	0.28858	0.18125	-1.0083	-0.48542	-0.56042	-1.3458	-0.5125	-0.84167	-1.1938	-0.24583	-1.0542	-0.77083	-0.27917	-1.3062	-0.78542	-0.49375	-1.0688	-2.684	197.928	-92.041	238.649	-4.213	232.574	166.686	94.754	110.879	102.734	-1.695	89.765	208.183	143.019	-74.087	147.550	6.1195e-05	0.0017413	0.00039868	967.09	1.1319e-05	7.9385e-06	638.43	361.3	2.813e-06	4.9666e-06	222.12	95.247	150.98	78.46	8.646e-06	50.236	0.014705	0.026264	0.0074805	1030.8	0.00026187	0.00030104	719.25	384.41	0.00026714	0.00029739	269.67	111.48	164.92	82.867	0.00027858	56.968	-86.621	3.903	15.195	-81.650	159.945	232.110	-84.120	-76.104	133.972	-42.537	-80.109	-75.494	-71.620	-67.491	208.106	-72.609	-8191	255	
#DATA ENDS
