BOXY.EXE: ISS Imagent and Oximeter Data Acquisition Program Version 0.80
Ascii Record File

#ACQ INFORMATION
2  Detector Channels 
16  External MUX Channels 
1  Auxiliary Channels 
5000  Waveform (CCF) Frequency (Hz)
1  Waveforms Skipped 
30  Waveforms Averaged 
1  Cycles Averaged 
16  Acquisitions per Waveform 
10.0806  Updata Rate (Hz) 

#FILE INFORMATION
TRUE -- External MUX Channel results are PARSED.
FALSE -- AC DC and Phase are NOT grouped.
TRUE -- Companion Program Settings File CREATED.
FALSE -- AC data not excluded
FALSE -- DC data not excluded
FALSE -- Phase data not excluded
FALSE -- Auxillary Chn. data not excluded
Tab delimiters

#CALIBRATION STATE
TRUE -- Waveform Calibration Values APPLIED.


#AUX CALIBRATION VALUES
Val Type	aux-1	

Term	1.0000e+00	
Factor	0.0000e+00	


#WF CALIBRATION VALUES
A = Detector Channel
Val Type	A-AC1	A-AC2	A-AC3	A-AC4	A-AC5	A-AC6	A-AC7	A-AC8	A-AC9	A-AC10	A-AC11	A-AC12	A-AC13	A-AC14	A-AC15	A-AC16	A-DC1	A-DC2	A-DC3	A-DC4	A-DC5	A-DC6	A-DC7	A-DC8	A-DC9	A-DC10	A-DC11	A-DC12	A-DC13	A-DC14	A-DC15	A-DC16	A-Ph1	A-Ph2	A-Ph3	A-Ph4	A-Ph5	A-Ph6	A-Ph7	A-Ph8	A-Ph9	A-Ph10	A-Ph11	A-Ph12	A-Ph13	A-Ph14	A-Ph15	A-Ph16	

Term	0.00000e+00	0.00000e+00	0.00000e+00	0.00000e+00	0.00000e+00	0.00000e+00	0.00000e+00	0.00000e+00	0.00000e+00	0.00000e+00	0.00000e+00	0.00000e+00	0.00000e+00	0.00000e+00	0.00000e+00	0.00000e+00	0.00000e+00	0.00000e+00	0.00000e+00	0.00000e+00	0.00000e+00	0.00000e+00	0.00000e+00	0.00000e+00	0.00000e+00	0.00000e+00	0.00000e+00	0.00000e+00	0.00000e+00	0.00000e+00	0.00000e+00	0.00000e+00	0.00000e+00	0.00000e+00	0.00000e+00	0.00000e+00	0.00000e+00	0.00000e+00	0.00000e+00	0.00000e+00	0.00000e+00	0.00000e+00	0.00000e+00	0.00000e+00	0.00000e+00	0.00000e+00	0.00000e+00	0.00000e+00	
Factor	1.00000e+00	1.00000e+00	1.00000e+00	1.00000e+00	1.00000e+00	1.00000e+00	1.00000e+00	1.00000e+00	1.00000e+00	1.00000e+00	1.00000e+00	1.00000e+00	1.00000e+00	1.00000e+00	1.00000e+00	1.00000e+00	1.00000e+00	1.00000e+00	1.00000e+00	1.00000e+00	1.00000e+00	1.00000e+00	1.00000e+00	1.00000e+00	1.00000e+00	1.00000e+00	1.00000e+00	1.00000e+00	1.00000e+00	1.00000e+00	1.00000e+00	1.00000e+00	X	X	X	X	X	X	X	X	X	X	X	X	X	X	X	X	

B = Detector Channel
Val Type	B-AC1	B-AC2	B-AC3	B-AC4	B-AC5	B-AC6	B-AC7	B-AC8	B-AC9	B-AC10	B-AC11	B-AC12	B-AC13	B-AC14	B-AC15	B-AC16	B-DC1	B-DC2	B-DC3	B-DC4	B-DC5	B-DC6	B-DC7	B-DC8	B-DC9	B-DC10	B-DC11	B-DC12	B-DC13	B-DC14	B-DC15	B-DC16	B-Ph1	B-Ph2	B-Ph3	B-Ph4	B-Ph5	B-Ph6	B-Ph7	B-Ph8	B-Ph9	B-Ph10	B-Ph11	B-Ph12	B-Ph13	B-Ph14	B-Ph15	B-Ph16	

Term	0.00000e+00	0.00000e+00	0.00000e+00	0.00000e+00	0.00000e+00	0.00000e+00	0.00000e+00	0.00000e+00	0.00000e+00	0.00000e+00	0.00000e+00	0.00000e+00	0.00000e+00	0.00000e+00	0.00000e+00	0.00000e+00	0.00000e+00	0.00000e+00	0.00000e+00	0.00000e+00	0.00000e+00	0.00000e+00	0.00000e+00	0.00000e+00	0.00000e+00	0.00000e+00	0.00000e+00	0.00000e+00	0.00000e+00	0.00000e+00	0.00000e+00	0.00000e+00	-8.46031e+01	-1.24328e+02	-1.34512e+02	-1.81699e+02	-5.65765e+01	-6.78973e+01	-1.56588e+02	-1.62015e+02	-4.89682e+01	-6.14460e+01	-1.72047e+02	-1.69354e+02	-1.85172e+02	-1.76661e+02	-5.95041e+01	-1.48927e+02	
Factor	1.85394e-05	1.34008e-04	4.54980e-05	1.65179e-01	1.51047e-06	1.75494e-06	1.84651e-01	5.45619e-02	1.21076e-06	1.81770e-06	9.52945e-02	3.13381e-02	2.68894e-02	1.02662e-02	1.54598e-06	1.46995e-02	3.18428e-06	3.57193e-06	9.92978e-07	8.46290e-02	3.85947e-08	3.91772e-08	8.89079e-02	2.80802e-02	3.85441e-08	3.91043e-08	4.71625e-02	1.56485e-02	1.38985e-02	5.29215e-03	3.88907e-08	7.31696e-03	X	X	X	X	X	X	X	X	X	X	X	X	X	X	X	X	



#DISTANCE SETTINGS
A = Detector Channel
A-1	A-2	A-3	A-4	A-5	A-6	A-7	A-8	A-9	A-10	A-11	A-12	A-13	A-14	A-15	A-16	

2.5000e+00	3.0000e+00	2.5000e+00	3.0000e+00	2.0000e+00	3.0000e+00	1.5000e+00	3.0000e+00	3.0000e+00	3.0000e+00	3.0000e+00	3.0000e+00	3.0000e+00	3.0000e+00	1.5000e+00	3.0000e+00	

B = Detector Channel
B-1	B-2	B-3	B-4	B-5	B-6	B-7	B-8	B-9	B-10	B-11	B-12	B-13	B-14	B-15	B-16	

1.0000e+01	1.0000e+01	1.0000e+01	1.4400e+00	1.0000e+01	1.0000e+01	1.5100e+00	1.9400e+00	1.0000e+01	1.0000e+01	1.9900e+00	2.4900e+00	2.4100e+00	2.9000e+00	1.0000e+01	2.9800e+00	




#DATA BEGINS
time	group	step	mark	flag	A-AC1	A-AC2	A-AC3	A-AC4	A-AC5	A-AC6	A-AC7	A-AC8	A-AC9	A-AC10	A-AC11	A-AC12	A-AC13	A-AC14	A-AC15	A-AC16	A-DC1	A-DC2	A-DC3	A-DC4	A-DC5	A-DC6	A-DC7	A-DC8	A-DC9	A-DC10	A-DC11	A-DC12	A-DC13	A-DC14	A-DC15	A-DC16	A-Ph1	A-Ph2	A-Ph3	A-Ph4	A-Ph5	A-Ph6	A-Ph7	A-Ph8	A-Ph9	A-Ph10	A-Ph11	A-Ph12	A-Ph13	A-Ph14	A-Ph15	A-Ph16	B-AC1	B-AC2	B-AC3	B-AC4	B-AC5	B-AC6	B-AC7	B-AC8	B-AC9	B-AC10	B-AC11	B-AC12	B-AC13	B-AC14	B-AC15	B-AC16	B-DC1	B-DC2	B-DC3	B-DC4	B-DC5	B-DC6	B-DC7	B-DC8	B-DC9	B-DC10	B-DC11	B-DC12	B-DC13	B-DC14	B-DC15	B-DC16	B-Ph1	B-Ph2	B-Ph3	B-Ph4	B-Ph5	B-Ph6	B-Ph7	B-Ph8	B-Ph9	B-Ph10	B-Ph11	B-Ph12	B-Ph13	B-Ph14	B-Ph15	B-Ph16	aux-1	digaux	

20561.049	1	1	0	256	0.11693	0.40829	0.085871	0.15979	0.21476	0.13883	0.44921	0.23552	0.071525	0.10816	0.19863	0.17542	0.11203	0.31786	0.22913	0.24516	-0.80417	-0.32292	-0.75417	-1.0625	-0.24583	-0.81042	-0.72917	-0.425	-1.175	-0.34167	-0.75625	-1.1771	-0.27292	-1.1771	-0.78958	-0.5	248.317	218.700	48.710	49.800	27.430	352.465	351.922	197.970	104.974	342.919	61.394	307.086	94.858	281.665	363.932	78.262	0.0002974	0.000446	0.00015592	1333.1	5.4375e-06	6.879e-06	1343.1	362.02	6.0597e-06	3.2329e-06	416.33	140.47	121.28	43.341	3.7117e-06	53.851	0.00038303	0.00037425	0.00010275	1342.8	4.1489e-06	4.118e-06	1347.3	366.03	4.1559e-06	4.1268e-06	419.33	143.24	123.8	44.031	4.1018e-06	54.547	195.941	112.120	98.056	34.261	190.211	164.692	34.529	39.449	188.405	189.973	38.865	43.568	43.970	48.190	118.695	47.280	-8191	255	
20561.170	1	1	0	0	0.10928	0.10686	0.14683	0.32322	0.096614	0.21481	0.23444	0.39448	0.09079	0.082308	0.22263	0.12724	0.25782	0.1577	0.25412	0.20751	-0.89375	-0.15417	-0.50208	-1.2833	-0.2125	-1.0375	-1.0792	-0.55	-1.2854	-0.40625	-0.6875	-1.3771	-0.5	-0.91458	-0.90208	-0.28958	329.423	144.150	162.714	303.675	209.826	53.732	150.224	354.762	214.471	371.870	293.271	42.734	80.293	171.817	359.154	354.415	0.00031343	0.00026523	0.00016486	1334.4	2.9464e-06	5.7727e-06	1337.6	362.81	3.9739e-06	2.7205e-06	417.07	141.09	122.26	43.068	5.4762e-06	54.328	0.0003811	0.00037662	0.00010419	1342.7	4.1833e-06	4.1601e-06	1347.8	366.35	4.1392e-06	4.0853e-06	419.81	143.41	123.98	43.972	4.1167e-06	54.729	189.521	113.681	114.208	34.418	171.202	166.732	34.504	39.456	199.317	132.873	38.702	43.621	44.030	48.365	190.509	47.503	-8191	255	
20561.266	1	1	0	0	0.20957	0.074516	0.20015	0.24017	0.11914	0.25008	0.11276	0.13512	0.0823	0.265	0.031495	0.30535	0.17416	0.32722	0.07424	0.165	-0.88958	-0.55833	-0.48542	-1.4083	-0.18333	-0.85208	-1.1979	-0.51458	-1.075	-0.52083	-0.49792	-1.3333	-0.39583	-0.775	-1.1187	-0.36875	350.181	187.261	132.430	56.211	152.815	47.772	286.438	381.409	363.772	230.498	28.195	342.864	215.609	144.120	176.265	341.224	0.00038086	0.00042228	0.00019075	1338.7	5.0176e-06	1.1987e-06	1339.5	363.02	7.0846e-06	6.3758e-06	416.86	141.2	122.18	43.174	5.2087e-06	53.864	0.00038592	0.00038458	0.00010494	1345.1	4.1671e-06	4.1345e-06	1347.4	366.64	4.1654e-06	4.1894e-06	419.47	143.25	123.78	43.914	4.2901e-06	54.512	195.174	143.123	126.950	34.570	207.284	216.007	34.537	39.450	200.415	158.541	38.770	43.491	43.961	48.315	223.844	47.466	-8191	255	
20561.361	1	1	0	0	0.20774	0.24161	0.11673	0.34746	0.24202	0.086403	0.16435	0.15238	0.02293	0.34629	0.21564	0.1567	0.17193	0.20786	0.0945	0.16631	-0.63125	-0.63125	-0.24792	-1.5333	-0.52917	-0.7125	-1.275	-0.37292	-0.98125	-0.81667	-0.26667	-1.1292	-0.50833	-0.55625	-1.1688	-0.19583	361.275	163.428	137.672	319.334	255.789	156.608	356.035	190.888	309.786	223.707	256.069	263.081	349.232	371.034	187.609	261.623	0.0003156	0.00077345	0.00018298	1334.7	7.8465e-06	5.1978e-06	1343.2	361.55	4.6034e-06	3.5696e-06	414.75	140.49	121.49	42.98	3.9046e-06	53.376	0.00039084	0.00039214	0.00010716	1344.5	4.2645e-06	4.2561e-06	1350.9	366.24	4.2372e-06	4.2717e-06	419.3	143.24	123.58	43.823	4.2153e-06	54.414	188.026	115.499	116.376	34.564	178.241	122.636	34.618	39.161	196.189	172.646	38.069	42.938	43.253	47.540	174.757	46.806	-8191	255	
20561.457	1	1	0	0	0.18057	0.33325	0.11483	0.22685	0.24283	0.27924	0.28722	0.2265	0.31326	0.055584	0.36675	0.16709	0.38509	0.29697	0.1297	0.096223	-0.68125	-0.91875	-0.38542	-1.3229	-0.48333	-0.65	-1.3771	-0.52292	-1.0167	-0.875	-0.32708	-1.2042	-0.64792	-0.41042	-1.0604	-0.34375	160.795	363.090	331.665	287.773	244.363	66.770	254.440	368.305	163.547	132.056	24.905	376.471	354.472	316.949	375.894	359.583	0.0003215	0.00030689	0.00022395	1337.4	6.3864e-06	2.7677e-06	1338.4	361.45	7.5673e-06	1.7376e-06	416.48	141.37	121.74	43.134	4.3008e-06	53.862	0.00038547	0.00038043	0.00010701	1346.3	4.2008e-06	4.1632e-06	1347.1	366.23	4.2246e-06	4.1713e-06	419.35	143.5	123.76	43.904	4.215e-06	54.538	187.709	182.121	92.081	34.191	215.845	184.430	34.106	39.091	213.388	199.505	38.490	43.163	43.987	47.761	202.714	46.981	-8191	255	
20561.555	1	1	0	0	0.24067	0.1195	0.048772	0.35684	0.28763	0.11849	0.10209	0.20168	0.11657	0.14722	0.15065	0.2032	0.18441	0.33564	0.23348	0.21728	-0.48542	-1.0146	-0.11875	-1.3729	-0.65833	-0.23125	-1.3771	-0.44792	-0.67292	-1.2	-0.26875	-1.0958	-0.83542	-0.36875	-1.1271	-0.57917	260.059	162.039	290.147	351.774	187.646	30.410	376.105	379.951	238.651	180.228	374.451	90.772	66.837	369.337	51.334	39.322	0.00032363	0.00068524	0.00018549	1334.3	4.4848e-06	2.3685e-06	1341.4	362.82	3.8629e-06	7.6489e-06	415.94	140.38	121.66	43.19	4.6905e-06	53.774	0.00038398	0.00038261	0.00010573	1344.1	4.1989e-06	4.2623e-06	1349.5	366.77	4.2447e-06	4.2031e-06	419.79	143.19	123.76	43.954	4.1815e-06	54.527	194.664	98.260	122.276	34.191	222.953	145.652	34.276	39.094	213.753	205.220	38.046	43.484	43.728	47.792	172.669	46.945	-8191	255	
20561.650	1	1	0	0	0.22068	0.061764	0.21585	0.36111	0.21035	0.14504	0.12925	0.17866	0.3583	0.10232	0.25041	0.17022	0.32216	0.34607	0.23753	0.1698	-0.28542	-1.125	-0.20625	-1.0708	-0.82083	-0.22917	-1.3229	-0.52917	-0.58125	-0.9875	-0.30417	-0.82292	-0.84792	-0.33125	-1.0708	-0.70625	246.870	49.874	22.446	266.571	298.769	91.776	158.441	193.993	264.057	265.533	317.109	87.282	110.109	354.694	173.030	26.454	0.00030363	0.00049318	4.9451e-05	1331.7	5.9571e-06	3.5431e-06	1342.9	361.47	6.8088e-06	4.2435e-06	415.54	140.77	122.04	43.189	3.2845e-06	53.767	0.00038681	0.00038493	0.00010817	1344.6	4.3025e-06	4.2759e-06	1350.9	366.64	4.2393e-06	4.1816e-06	419.75	143.43	123.79	43.935	4.1129e-06	54.519	191.753	112.534	66.484	33.891	215.651	169.313	34.208	38.932	215.840	215.239	38.364	43.162	43.783	47.794	160.892	47.313	-8191	255	
20561.746	1	1	0	0	0.14852	0.1635	0.17714	0.26727	0.074511	0.12448	0.36202	0.34168	0.19533	0.30232	0.22498	0.1706	0.042513	0.16604	0.16571	0.28062	-0.014583	-1.0979	-0.11875	-0.96042	-0.7625	-0.13125	-1.325	-0.63125	-0.37708	-1.1708	-0.24167	-0.66875	-1.1146	-0.175	-1.0771	-0.6375	217.905	260.501	268.544	276.955	226.703	139.277	331.443	374.013	378.246	176.872	250.037	29.432	237.721	380.882	175.402	360.463	0.00030846	0.00024654	0.00010931	1337.2	5.7234e-06	2.7059e-06	1344.8	362.07	3.7978e-06	5.9579e-06	416.25	140.54	121.59	43.124	2.7258e-06	53.854	0.00038487	0.00038047	0.00010733	1348.8	4.2355e-06	4.2036e-06	1352.4	366.3	4.2134e-06	4.1709e-06	419.96	143.22	123.85	43.954	4.198e-06	54.572	191.525	130.856	148.088	34.333	196.666	215.655	34.390	39.308	196.798	194.192	38.327	42.928	43.741	47.864	188.278	46.696	-8191	255	
20561.867	1	1	0	0	0.34444	0.15325	0.36976	0.294	0.20164	0.17503	0.30314	0.18355	0.23436	0.19228	0.27332	0.037208	0.41745	0.14614	0.21171	0.17998	0.060417	-0.94375	-0.125	-0.66458	-0.80208	-0.0875	-1.1021	-0.70625	-0.21458	-1.1167	-0.29375	-0.60625	-1.0354	-0.30208	-0.96458	-0.89167	256.732	283.335	248.474	356.801	39.100	208.458	300.949	356.906	324.276	152.394	25.185	274.332	23.238	357.382	66.662	297.858	0.00034025	0.00040347	0.00014471	1336.7	1.1979e-06	4.1979e-06	1342.1	362.81	4.1646e-06	5.74e-06	416.75	140.83	122.42	43.347	2.1478e-06	53.798	0.00038545	0.00038548	0.00010582	1346	4.2766e-06	4.2608e-06	1350.5	366.84	4.2464e-06	4.2049e-06	420.18	143.46	124.02	43.955	4.2354e-06	54.582	197.159	123.826	87.793	34.233	206.290	101.999	34.415	39.053	212.032	155.073	38.261	43.519	44.239	47.671	185.191	47.074	-8191	255	
20561.963	1	1	0	0	0.049635	0.10688	0.062544	0.10618	0.016421	0.05696	0.36901	0.3028	0.17575	0.076564	0.28039	0.15314	0.040315	0.098836	0.32135	0.12317	0.29375	-1.2292	-0.20208	-0.78542	-1.0333	-0.28958	-1.1771	-0.96042	-0.21875	-1.1	-0.56667	-0.52292	-1.2708	-0.21875	-0.64583	-0.96458	141.819	346.246	213.897	317.339	349.640	93.854	287.606	160.852	76.146	186.665	308.449	268.262	25.384	78.540	258.160	31.691	0.00025983	0.00081744	0.00024719	1338.4	3.5709e-06	5.7634e-06	1344.7	362.25	1.8546e-06	5.2131e-06	415.37	141.25	122.31	43.281	5.0658e-06	53.965	0.00039155	0.00038889	0.00010742	1345.9	4.2746e-06	4.3136e-06	1351.3	367.12	4.3007e-06	4.2651e-06	419.96	143.63	124.1	44.004	4.2478e-06	54.602	188.635	121.216	91.465	34.324	220.734	151.423	34.457	38.926	239.797	207.940	38.309	43.114	43.700	47.811	202.909	47.104	-8191	255	
20562.061	1	1	0	0	0.11297	0.19924	0.25235	0.35021	0.10369	0.14846	0.28002	0.17258	0.062545	0.057158	0.20884	0.17366	0.21122	0.10905	0.16594	0.1897	0.29792	-0.975	-0.36875	-0.39167	-1.2021	-0.35	-1.1021	-0.99792	-0.14375	-0.96042	-0.83958	-0.48542	-1.1771	-0.35417	-0.72917	-1.1375	22.609	198.186	138.146	379.630	110.955	137.309	307.361	334.169	135.747	378.034	163.009	26.963	364.792	22.866	250.422	303.281	0.00033106	0.00042647	0.00013605	1341	6.7562e-06	1.1518e-05	1348.1	362.12	3.3911e-06	6.2279e-06	414.29	140.89	121.63	43.083	4.7821e-06	53.491	0.00039295	0.00038993	0.00011025	1347.2	4.278e-06	4.3169e-06	1353.6	367.61	4.4108e-06	4.2532e-06	419.52	143.59	124.09	43.903	4.3401e-06	54.535	189.979	132.143	103.550	34.278	205.054	189.978	34.481	39.201	172.765	155.214	38.493	43.024	43.764	47.751	201.213	47.067	-8191	255	
20562.154	1	1	0	0	0.32894	0.19686	0.17798	0.40371	0.09361	0.13932	0.14155	0.34222	0.1118	0.045639	0.10894	0.32533	0.15161	0.31795	0.28981	0.24701	0.10833	-0.90208	-0.91667	-0.3125	-1.1729	-0.45417	-0.77292	-1.2417	-0.13125	-0.94792	-1	-0.4125	-1.1458	-0.44375	-0.52083	-1.0604	324.388	150.873	102.663	374.336	25.678	304.085	51.006	343.743	342.000	167.459	221.587	79.198	318.003	64.798	230.287	250.790	0.00031385	0.00020473	0.00021268	1341	4.4091e-06	5.8634e-06	1344	362.94	3.7415e-06	8.5641e-06	414.94	141	122.23	43.091	4.3628e-06	53.652	0.00040048	0.00039366	0.0001104	1350	4.4324e-06	4.3953e-06	1352.8	367.57	4.3736e-06	4.3111e-06	419.87	143.35	124.03	43.857	4.3955e-06	54.393	190.434	71.539	89.117	34.412	185.666	167.302	34.208	38.849	184.709	186.254	38.595	43.187	43.951	47.722	173.442	47.146	-8191	255	
20562.250	1	1	0	0	0.1244	0.17396	0.142	0.18246	0.32262	0.20587	0.16618	0.10452	0.10333	0.19242	0.28166	0.17011	0.1714	0.1455	0.071722	0.23403	0.18125	-0.78125	-0.77292	-0.31667	-1.0083	-0.48333	-0.575	-1.4688	-0.13958	-1.0187	-1.1771	-0.19583	-1.2687	-0.7625	-0.43542	-1.275	350.186	270.677	56.492	349.111	326.415	159.664	362.934	290.235	176.481	309.362	349.234	27.758	26.912	364.035	302.266	29.458	0.00029272	0.00032662	0.00015245	1343	8.166e-06	7.3796e-06	1344.9	361.95	3.8157e-06	6.0687e-06	414	140.19	121.54	42.975	3.9397e-06	53.566	0.00040903	0.00039918	0.00010953	1349.5	4.466e-06	4.359e-06	1351	366.62	4.4108e-06	4.4234e-06	418.74	142.94	123.64	43.779	4.5093e-06	54.303	193.810	86.387	112.046	34.029	195.299	210.115	34.434	39.078	190.567	168.171	38.527	43.407	43.891	47.806	145.800	47.192	-8191	255	
20562.348	1	1	0	0	0.12947	0.35022	0.15105	0.14894	0.20226	0.36672	0.28249	0.24644	0.18135	0.066013	0.15792	0.2799	0.17893	0.32694	0.14272	0.26133	0.15	-0.60208	-0.88542	-0.45	-1.1	-0.56042	-0.53125	-1.3083	-0.30208	-0.76875	-1.125	-0.21667	-1.125	-0.79792	-0.275	-1.3438	33.765	355.263	324.905	53.889	160.786	53.964	327.730	63.278	223.821	151.002	21.748	380.867	344.017	94.309	142.419	323.367	0.00032396	0.00055122	0.00023944	1341.2	6.5385e-06	6.4314e-06	1343.8	361.68	6.159e-06	3.0963e-06	414.29	139.86	121.31	43.072	3.6015e-06	53.532	0.00041504	0.00041217	0.00011567	1349.3	4.4783e-06	4.4837e-06	1351.2	366.46	4.4692e-06	4.5205e-06	418.75	142.87	123.5	43.709	4.5983e-06	54.303	192.400	92.013	93.675	34.305	199.684	189.563	34.248	39.057	215.658	120.268	38.483	43.371	43.737	47.791	233.632	47.245	-8191	255	
20562.467	1	1	0	0	0.20073	0.17559	0.17322	0.10091	0.17693	0.077435	0.11232	0.26267	0.16107	0.20055	0.21863	0.28571	0.072907	0.40746	0.12751	0.35838	0.13333	-0.51667	-1.1917	-0.40833	-0.9625	-0.75	-0.38333	-1.1792	-0.44167	-0.4875	-1.1875	-0.38125	-0.8875	-0.95625	-0.097917	-1.125	209.172	171.507	205.443	137.260	84.824	48.329	370.011	25.747	312.516	203.785	49.873	380.474	175.294	31.393	162.835	341.098	0.00028682	0.00068207	0.0001852	1339.9	7.6866e-06	4.2365e-06	1340.6	362.88	3.714e-06	2.2006e-06	416.84	139.35	121.69	42.897	7.6183e-06	53.424	0.00041368	0.00042141	0.00011406	1346.4	4.5079e-06	4.5044e-06	1350.5	367.37	4.5821e-06	4.4748e-06	420.41	142.63	123.5	43.739	4.5913e-06	54.22	190.724	108.791	88.854	34.345	205.661	195.713	34.447	39.154	210.774	196.332	38.502	43.468	43.726	47.791	214.234	47.092	-8191	255	
20562.562	1	1	0	0	0.18138	0.22166	0.084669	0.22002	0.20553	0.15044	0.077144	0.27255	0.094688	0.3112	0.055431	0.24504	0.21139	0.079867	0.1053	0.13077	-0.1125	-0.37083	-0.94792	-0.40208	-0.83333	-0.83125	-0.31667	-1.2083	-0.64375	-0.25625	-1.2563	-0.53125	-0.75833	-0.925	0.016667	-1.2854	184.020	251.090	123.872	285.827	171.171	305.754	164.847	231.452	320.728	189.426	248.062	282.419	264.283	269.787	332.436	361.522	0.0003018	0.00045331	0.00019851	1338.5	5.553e-06	1.3955e-06	1346.2	362.08	2.9394e-06	4.1651e-06	415.37	140.6	121.48	42.821	7.3772e-06	53.458	0.00041996	0.00042366	0.00011478	1347.2	4.551e-06	4.5574e-06	1351.8	366.79	4.5337e-06	4.5684e-06	419.28	142.75	123.5	43.602	4.6401e-06	54.23	202.348	129.505	89.396	34.271	190.576	177.272	34.665	39.236	178.647	130.682	38.585	43.224	44.076	47.917	195.889	47.423	-8191	255	
20562.658	1	1	0	0	0.081917	0.34597	0.095521	0.056652	0.30537	0.15602	0.40986	0.038414	0.14127	0.019802	0.090409	0.22341	0.36778	0.20181	0.22062	0.15729	-0.072917	-0.26458	-1.0896	-0.6	-0.82292	-1.0312	-0.43125	-1.1333	-0.49583	-0.275	-1.2125	-0.57708	-0.73125	-0.93125	-0.2875	-0.9875	53.559	60.379	296.401	335.557	94.326	37.179	290.784	318.475	199.713	157.442	65.307	309.106	335.599	27.416	226.206	23.712	0.00028638	0.00050831	0.00019883	1332	3.4872e-06	5.8757e-06	1342.2	362.09	3.7955e-06	2.2648e-06	417.05	139.98	120.98	42.775	6.7495e-06	53.051	0.00042218	0.00041934	0.00011833	1344.6	4.6356e-06	4.6426e-06	1350.7	366.75	4.6506e-06	4.6945e-06	420.21	142.62	123.33	43.617	4.7226e-06	54.112	193.984	117.396	135.831	34.415	191.184	182.937	34.454	39.334	230.679	195.702	38.401	43.288	43.974	47.688	190.917	47.229	-8191	255	
20562.730	1	1	0	0	0.0333	0.16926	0.10172	0.36733	0.10607	0.20539	0.18941	0.19447	0.058494	0.25212	0.23959	0.27231	0.2233	0.089215	0.083372	0.12814	-0.34167	-0.23333	-1.0438	-0.82708	-0.51042	-1.0958	-0.5	-1.2167	-0.90833	-0.20625	-1.075	-0.62708	-0.63333	-1.1479	-0.3	-0.80625	22.885	83.522	239.008	377.600	372.249	120.700	51.796	176.341	312.048	293.942	154.766	349.828	70.296	168.326	153.506	325.833	0.00034949	0.00040226	0.00022003	1339.1	2.4839e-06	4.6249e-06	1347.1	360.88	5.2754e-06	9.5987e-07	414.91	139.33	121.02	42.703	4.8172e-06	53.111	0.00042634	0.00043395	0.00011907	1348.6	4.7209e-06	4.6532e-06	1352	366.5	4.7848e-06	4.7765e-06	419.19	142.38	123.02	43.582	4.8277e-06	54.091	185.343	91.820	93.388	34.315	204.202	152.392	34.682	39.123	180.619	97.371	38.457	43.425	43.822	47.723	196.795	47.362	-8191	255	
20562.852	1	1	0	0	0.21426	0.045157	0.15191	0.20025	0.23597	0.19627	0.051598	0.3728	0.22256	0.27681	0.35262	0.22057	0.20939	0.18259	0.22556	0.21466	-0.44583	-0.17292	-1.0729	-0.46458	-0.35833	-1.1917	-0.58125	-0.80417	-0.82292	-0.26875	-1.0854	-0.86458	-0.49792	-1.1208	-0.30208	-0.72292	193.156	350.061	26.973	52.345	194.743	67.946	335.174	288.583	234.951	268.230	327.439	266.984	269.627	360.047	315.460	323.598	0.00030894	0.00032067	0.00012524	1338.5	7.2455e-06	5.5423e-06	1336.4	361.93	3.1166e-06	5.9526e-06	415.09	139.7	120.97	42.646	3.263e-06	53.16	0.00043918	0.0004452	0.00012137	1347.7	4.8042e-06	4.8121e-06	1349.8	365.74	4.8348e-06	4.7839e-06	418.88	142.34	123.25	43.471	4.8988e-06	54.001	188.859	62.133	110.961	34.367	147.635	175.012	34.422	39.150	215.480	123.216	38.719	43.332	43.819	47.867	162.832	47.085	-8191	255	
20562.945	1	1	0	0	0.22977	0.090904	0.30603	0.14556	0.069951	0.41049	0.16145	0.23509	0.095376	0.10959	0.35186	0.081975	0.081553	0.18338	0.11669	0.074973	-0.57292	-0.05625	-0.84583	-0.725	-0.20625	-1.0292	-0.6125	-0.62917	-1	-0.33958	-1.0833	-0.78333	-0.4375	-0.975	-0.4875	-0.33958	38.418	228.101	180.580	148.074	120.286	267.171	263.258	305.346	67.798	32.504	341.833	152.620	230.305	330.761	31.215	271.190	0.00031309	0.00065468	0.00019278	1334.1	4.4207e-06	4.2998e-06	1339.7	361.71	1.9441e-06	3.0974e-06	413.83	139.11	120.84	42.774	4.9258e-06	53.121	0.00044155	0.00044413	0.00012268	1346.9	4.9181e-06	4.8846e-06	1350.2	366.2	4.9081e-06	4.8871e-06	418.43	142.17	122.99	43.56	4.9673e-06	53.939	195.505	88.498	91.783	34.388	209.775	181.477	34.364	39.049	137.017	123.796	38.568	43.306	43.901	48.086	193.745	47.314	-8191	255	
20563.043	1	1	0	0	0.1456	0.041683	0.064086	0.14706	0.24131	0.32625	0.18155	0.37978	0.17386	0.1904	0.40637	0.13669	0.20863	0.16302	0.069592	0.20393	-0.78333	-0.0625	-0.84375	-1.125	-0.14375	-1.1375	-0.67292	-0.62708	-1.1354	-0.33958	-1.1208	-1.0375	-0.36042	-1.1667	-0.64583	-0.42708	160.415	224.529	362.528	289.361	108.212	50.442	314.833	351.152	332.243	318.062	361.137	149.093	316.543	342.261	221.165	174.457	0.00032811	0.00051392	0.00021266	1332.3	6.0696e-06	2.7321e-06	1342	361.04	5.5595e-06	5.6226e-06	412.67	139.03	121.19	42.687	4.0054e-06	52.99	0.00045508	0.00045974	0.0001273	1346.3	5.0276e-06	4.8612e-06	1350.4	365.89	5.0232e-06	5.103e-06	419.39	142.13	123.12	43.504	5.03e-06	53.954	185.727	119.433	82.925	34.087	193.802	174.144	34.355	39.416	206.911	158.525	38.375	43.391	43.864	47.656	196.697	47.021	-8191	255	
20563.141	1	1	0	0	0.24519	0.10824	0.16069	0.3867	0.21496	0.23899	0.10873	0.16389	0.24935	0.21507	0.32076	0.22931	0.076775	0.033165	0.092756	0.21512	-0.89792	-0.20208	-0.61458	-1.1437	-0.19583	-1.1042	-0.75833	-0.24375	-1.2	-0.34375	-0.75208	-1.1146	-0.22917	-0.97083	-0.83125	-0.10833	108.469	168.798	263.152	290.865	338.419	185.972	271.137	339.842	341.900	327.453	302.465	47.311	276.916	21.701	33.471	43.514	0.00032241	0.00012855	7.8949e-05	1339.9	5.3184e-06	6.0419e-06	1340.4	361.79	3.8736e-06	4.9856e-06	413.99	139.63	120.6	42.486	6.0853e-06	52.762	0.00045913	0.00046702	0.00012796	1348.8	5.0706e-06	4.9983e-06	1351.1	366.75	5.0343e-06	5.0852e-06	419.13	142.27	123.07	43.465	5.047e-06	53.869	190.525	234.105	82.815	34.128	161.822	191.562	34.216	38.870	238.476	181.298	38.515	43.193	43.789	47.791	207.835	47.243	-8191	255	
20563.260	1	1	0	0	0.16016	0.25192	0.24615	0.11711	0.072474	0.17214	0.11258	0.19272	0.37768	0.031466	0.31095	0.33951	0.22649	0.45422	0.052555	0.0067695	-0.69167	-0.29375	-0.52917	-1.0438	-0.4875	-0.97708	-0.92708	-0.29167	-1.1521	-0.49792	-0.74792	-1.2521	-0.23125	-0.94583	-0.9625	-0.20625	233.619	306.306	136.266	55.530	41.261	153.798	114.797	305.268	43.441	331.882	61.184	292.575	25.665	343.289	82.270	67.394	0.00028367	0.00035894	9.3516e-05	1339.2	6.336e-06	5.2011e-06	1344.7	360.73	4.3855e-06	2.4682e-06	416.07	140.11	120.73	42.671	6.452e-06	52.871	0.00045453	0.00046696	0.00012801	1349.4	5.0857e-06	5.0621e-06	1353	366.27	5.0052e-06	4.9957e-06	419.34	142.4	123.16	43.511	4.9328e-06	53.872	190.352	142.531	113.493	34.140	190.105	211.588	34.625	39.312	222.473	163.352	38.685	43.382	44.049	48.088	194.749	46.945	-8191	255	
20563.330	1	1	0	0	0.14209	0.25539	0.11188	0.26095	0.11739	0.34001	0.36832	0.24729	0.25178	0.04392	0.13135	0.14612	0.16806	0.32178	0.3108	0.28022	-0.67292	-0.50417	-0.28958	-1.3604	-0.11042	-0.77292	-1.1854	-0.42917	-1.0438	-0.71875	-0.48542	-1.0833	-0.35625	-0.66458	-1.0333	-0.45417	315.330	134.159	291.210	371.143	225.950	371.391	303.458	55.892	150.715	105.759	380.603	64.856	170.828	360.547	283.688	31.041	0.00033337	0.00045278	0.00013479	1340.3	8.0183e-06	1.7731e-06	1345.6	361.52	2.2262e-06	3.959e-06	414.53	139.79	120.98	42.781	2.5399e-06	52.805	0.00044819	0.0004611	0.00012678	1350.8	5.0939e-06	5.0171e-06	1353.5	366.03	4.9496e-06	5.0755e-06	418.94	142.5	123.12	43.537	5.0765e-06	53.954	196.584	112.291	99.458	34.332	196.511	186.666	34.354	39.178	221.208	153.940	38.739	43.391	43.978	48.239	186.639	46.869	-8191	255	
20563.428	1	1	0	0	0.10556	0.32051	0.22275	0.40231	0.099018	0.22851	0.19682	0.41121	0.19111	0.12128	0.11089	0.27619	0.23508	0.27839	0.172	0.24151	-0.60833	-0.74167	-0.21042	-1.3792	-0.25625	-0.62083	-1.2896	-0.39167	-1.0104	-0.6625	-0.35833	-1.1812	-0.275	-0.63958	-1.1458	-0.40208	277.717	244.380	185.199	313.568	356.934	106.469	302.940	354.386	31.243	369.687	57.140	376.826	36.369	344.846	201.223	333.432	0.00033872	0.00024495	7.8499e-05	1340.3	6.2892e-06	3.6644e-06	1342.8	361.96	5.1266e-06	5.7588e-06	413.12	139.52	120.32	42.592	4.9231e-06	52.823	0.00045316	0.00045944	0.00012798	1350.4	5.0819e-06	4.9908e-06	1354.2	366.26	5.022e-06	5.0044e-06	418.81	142.22	123.03	43.499	5.0121e-06	53.859	189.522	112.573	139.588	34.153	202.630	144.998	34.359	39.291	204.748	171.578	38.632	43.418	43.889	47.958	189.655	47.026	-8191	255	
20563.549	1	1	0	0	0.046003	0.11531	0.097814	0.17048	0.013843	0.22842	0.16318	0.33448	0.16811	0.30628	0.038119	0.02541	0.047382	0.20005	0.16101	0.1982	-0.62083	-0.7375	-0.25208	-1.2125	-0.54792	-0.48125	-1.2917	-0.35	-0.975	-0.77292	-0.40208	-1.2771	-0.58958	-0.6375	-1.2313	-0.625	331.401	199.674	376.107	352.409	160.536	237.403	220.079	312.593	253.787	352.647	245.982	329.780	286.109	253.543	378.941	22.371	0.0003389	0.00042628	5.7666e-05	1338	3.2648e-06	2.5428e-07	1345.2	361.21	1.3303e-06	2.0912e-06	415.26	138.77	120.81	42.367	4.8619e-06	53.197	0.00045236	0.00046409	0.00012787	1351.2	5.0842e-06	5.0511e-06	1352.6	365.84	5.0653e-06	5.1076e-06	418.7	141.96	123.02	43.367	5.0551e-06	53.937	193.562	80.599	230.496	34.187	213.050	99.354	34.445	39.125	240.322	150.039	38.357	43.180	43.629	47.619	170.502	46.593	-8191	255	
20563.645	1	1	0	0	0.14457	0.3609	0.1469	0.20037	0.234	0.25075	0.084303	0.13573	0.13931	0.18545	0.16813	0.18961	0.21083	0.075077	0.15367	0.068551	-0.50208	-0.95625	-0.28542	-1.275	-0.59167	-0.39792	-1.2729	-0.47917	-0.65625	-0.87917	-0.2625	-1.2583	-0.81458	-0.4625	-1.1042	-0.40417	291.216	369.384	56.451	306.674	350.044	283.223	26.592	342.916	205.806	29.705	322.718	333.245	366.666	118.377	314.468	123.864	0.00032685	0.00048	0.00017055	1335.3	6.1196e-06	4.9699e-06	1338.5	359.88	3.8813e-06	6.7605e-06	414.14	139.35	120.29	42.491	5.0027e-06	52.962	0.00045455	0.00046	0.00013053	1347.8	5.0115e-06	5.0521e-06	1351.1	365.62	5.0569e-06	5.0785e-06	418.51	142.06	122.81	43.413	5.1583e-06	53.878	192.088	125.417	132.407	34.270	222.617	233.602	34.400	38.983	208.367	199.220	38.267	43.056	43.432	47.467	214.495	47.205	-8191	255	
20563.740	1	1	0	0	0.27796	0.14769	0.21237	0.17866	0.12041	0.11536	0.096848	0.32815	0.25353	0.14491	0.20602	0.18029	0.16461	0.054697	0.15308	0.15846	-0.46042	-0.975	-0.2125	-1.4062	-0.86667	-0.35208	-1.2083	-0.74167	-0.44167	-1.1167	-0.3625	-1.0146	-1	-0.30208	-1.3021	-0.58125	106.635	60.002	152.216	58.754	370.973	232.424	379.119	31.118	178.941	233.593	224.709	20.954	52.296	183.783	203.616	180.025	0.00033119	0.00014531	0.00012718	1336.5	4.8007e-06	2.4669e-06	1340.7	361.66	3.6052e-06	6.8971e-06	415.17	139.44	120.4	42.587	5.4147e-06	52.836	0.00046631	0.00047379	0.00013214	1349.8	5.1652e-06	5.1689e-06	1352.7	365.87	5.1607e-06	5.1812e-06	419.02	142.19	122.95	43.398	5.0809e-06	53.817	183.734	78.227	93.882	34.130	200.290	224.261	34.157	38.938	197.331	140.953	38.105	43.348	43.465	47.629	201.545	46.853	-8191	255	
20563.859	1	1	0	0	0.18011	0.22806	0.29103	0.17059	0.086225	0.075131	0.22436	0.22587	0.14314	0.21275	0.12946	0.2386	0.14999	0.23323	0.14782	0.1824	-0.072917	-1.0562	-0.30208	-0.96458	-0.94792	-0.175	-1.1396	-0.69583	-0.34375	-1.0979	-0.4375	-0.675	-1.1187	-0.40417	-0.89792	-0.69792	151.726	296.103	324.041	351.707	68.943	251.608	88.507	44.917	101.066	181.915	313.696	198.348	353.965	25.355	281.587	375.710	0.00030992	0.00064721	0.00018115	1337.8	4.8893e-06	4.4228e-06	1344.5	361.39	4.5197e-06	8.5654e-06	412.15	139.41	120.55	42.377	4.7478e-06	53.004	0.00046374	0.00045657	0.00012839	1351.4	5.0332e-06	4.9971e-06	1354.3	366.41	5.0987e-06	4.9684e-06	417.86	142.3	123.09	43.407	4.9134e-06	53.85	195.351	144.024	128.077	34.073	209.238	164.969	34.113	38.780	195.788	193.365	38.318	42.990	43.558	47.665	132.349	46.852	-8191	255	
20563.955	1	1	0	0	0.064621	0.29634	0.162	0.28779	0.3201	0.048538	0.18918	0.15838	0.12757	0.1915	0.30704	0.3469	0.3235	0.25023	0.50594	0.19905	0.04375	-1.1229	-0.24375	-0.87083	-1.1479	0.025	-1.2104	-0.89167	-0.21042	-1.1167	-0.575	-0.49167	-1.3208	-0.275	-0.91458	-0.80833	48.643	193.987	197.306	314.836	340.853	41.056	294.376	207.607	97.111	318.312	347.523	105.549	299.918	128.163	361.868	260.548	0.00032813	0.00046964	0.00014462	1340.4	7.3134e-06	5.4417e-06	1346.3	361.27	3.2389e-06	9.224e-06	411.69	139.54	121.23	42.654	5.9644e-06	52.847	0.00044553	0.00045439	0.00012594	1353.3	5.041e-06	4.9582e-06	1356	366.3	4.9225e-06	4.8497e-06	418.44	141.99	123.37	43.444	4.9406e-06	53.859	184.576	166.398	116.227	34.341	180.194	231.951	34.209	38.744	187.216	142.129	38.240	43.315	43.553	47.835	169.465	46.888	-8191	255	
20564.027	1	1	0	0	0.16501	0.27061	0.26041	0.17403	0.074128	0.19641	0.47766	0.16033	0.12248	0.075855	0.12823	0.065062	0.18595	0.36221	0.059068	0.14097	0.11667	-1.1125	-0.40625	-0.7	-1.2979	-0.46667	-1.3271	-0.96458	-0.2875	-1.2104	-0.5625	-0.57917	-1.4125	-0.23125	-0.67708	-1.0125	357.435	362.063	98.918	85.538	347.756	278.732	308.884	329.358	63.320	221.880	31.159	294.468	74.329	35.263	291.405	88.995	0.00029143	0.00041574	0.00028674	1342.6	5.2492e-06	3.7252e-06	1345.1	360.14	5.5514e-06	6.1328e-06	414.61	139.46	120.98	42.51	5.7919e-06	52.899	0.00044597	0.00044813	0.00012402	1355.6	4.8451e-06	4.8964e-06	1354.1	365.84	4.8473e-06	4.9008e-06	418.6	142.06	123.17	43.36	4.8923e-06	53.719	200.490	62.234	131.545	34.250	197.455	216.156	34.158	38.736	206.619	162.963	38.141	43.175	43.543	47.826	216.285	47.066	-8191	255	
20564.146	1	1	0	0	0.050308	0.44211	0.10611	0.16299	0.1008	0.1842	0.20188	0.30406	0.14073	0.031696	0.21428	0.29134	0.077826	0.10496	0.037298	0.099157	0.17708	-0.95833	-0.44375	-0.575	-1.2458	-0.1	-0.89375	-1.2583	-0.31458	-0.96667	-0.6375	-0.38333	-1.1042	-0.25833	-0.58125	-1.1083	122.780	118.177	87.088	306.471	200.333	295.548	107.275	337.442	88.374	360.012	28.785	339.139	354.562	153.063	294.171	23.425	0.00031478	0.00053378	0.00012297	1339.7	6.8255e-06	4.4554e-06	1347.6	359.23	2.7713e-06	6.0117e-06	412.87	138.6	120.01	42.497	6.6424e-06	52.696	0.00043828	0.00043883	0.00012398	1353.4	4.8241e-06	4.8274e-06	1355.9	365.25	4.8661e-06	4.8372e-06	417.83	141.72	122.68	43.285	4.8052e-06	53.726	191.878	108.912	127.751	34.240	179.556	248.080	34.159	39.114	192.058	179.644	38.325	43.007	43.659	47.583	181.718	46.919	-8191	255	
20564.242	1	1	0	0	0.39574	0.2298	0.15778	0.069294	0.20353	0.347	0.29464	0.32252	0.0032724	0.07448	0.23564	0.074642	0.18663	0.29772	0.22579	0.25106	0.14583	-0.95208	-0.58958	-0.18958	-1.1917	-0.225	-0.69167	-1.1896	-0.12708	-0.93125	-0.77083	-0.17917	-1.1812	-0.3875	-0.5125	-1.0312	290.542	120.382	98.897	111.553	113.680	47.576	257.965	325.867	37.057	320.007	314.896	207.232	260.430	353.758	301.852	30.495	0.00031521	0.00043089	7.8145e-05	1343.2	5.1343e-06	8.0666e-06	1342.6	359.93	2.4195e-06	6.4296e-06	412.25	138.89	119.74	42.353	7.0351e-06	52.868	0.00044097	0.00044149	0.00012305	1353.8	4.895e-06	4.9078e-06	1353.9	364.72	4.8577e-06	4.8128e-06	418.15	141.68	122.59	43.269	4.8024e-06	53.668	199.293	129.698	122.292	34.132	190.014	168.931	34.163	39.017	197.529	168.224	38.014	43.238	43.808	47.777	164.913	47.181	-8191	255	
20564.340	1	1	0	0	0.1471	0.098143	0.27877	0.27231	0.13611	0.10491	0.18493	0.31582	0.23762	0.1761	0.34796	0.089049	0.015609	0.051996	0.12735	0.17688	0.14375	-0.69375	-0.57083	-0.49583	-0.96875	-0.47917	-0.41042	-1.2062	-0.125	-0.8	-1.1021	-0.26667	-1.0042	-0.48958	-0.5375	-1.1875	213.374	206.214	185.248	379.677	44.062	161.591	352.121	366.722	106.023	75.020	273.967	246.067	265.515	316.839	216.034	198.332	0.00029731	0.00027742	0.0001301	1340.2	6.8707e-06	5.4327e-06	1346.8	359.72	5.4262e-06	2.9881e-06	411.62	138.38	120.53	42.381	3.6725e-06	52.456	0.00043845	0.00043799	0.0001245	1351.4	4.8251e-06	4.8488e-06	1355.4	364.77	4.8331e-06	4.7272e-06	416.86	141.31	122.63	43.183	4.8058e-06	53.448	197.090	140.794	97.003	34.111	204.441	124.179	34.133	38.695	200.740	150.875	37.995	42.832	43.446	47.775	164.760	46.835	-8191	255	
20564.436	1	1	0	0	0.19389	0.098768	0.040343	0.25097	0.29504	0.031197	0.14497	0.25046	0.11132	0.29055	0.32493	0.060096	0.16877	0.33502	0.21241	0.18748	0.06875	-0.48333	-0.85417	-0.43958	-0.98542	-0.60833	-0.61458	-1.2042	-0.35208	-0.63125	-0.89167	-0.34375	-1.25	-0.7875	-0.24792	-1.2396	226.438	26.139	141.954	39.628	62.709	308.521	375.644	26.312	132.957	342.884	338.536	288.475	106.760	288.060	186.783	314.244	0.00028532	0.00058276	0.00012466	1342.1	7.0291e-06	5.6828e-06	1344.9	359.47	3.8862e-06	5.4312e-06	412.26	138.82	119.65	42.534	6.4547e-06	52.748	0.0004394	0.0004413	0.00012255	1350.5	4.8202e-06	4.792e-06	1353.9	364.32	4.8353e-06	4.7635e-06	417.8	141.53	122.32	43.266	4.8447e-06	53.557	187.476	136.362	127.842	33.867	207.454	156.480	33.957	39.125	199.396	177.347	37.921	42.628	43.108	47.144	176.664	46.648	-8191	255	
20564.557	1	1	0	0	0.15453	0.059805	0.11481	0.26198	0.12838	0.18537	0.28966	0.25097	0.059815	0.16091	0.21001	0.18037	0.1859	0.29323	0.061844	0.17218	0.10417	-0.57292	-0.97917	-0.37708	-0.95	-0.52292	-0.46875	-1.1625	-0.35833	-0.50208	-1.1354	-0.26667	-0.96042	-0.99167	-0.19167	-1.1104	75.015	142.323	173.166	324.578	104.469	119.418	71.412	262.888	165.302	298.821	337.135	195.094	294.439	337.632	305.907	353.001	0.00031802	0.00022684	0.00013108	1335.2	4.52e-06	1.1329e-06	1340	358.42	4.337e-06	6.2778e-06	411.74	138.54	120.22	42.503	3.9245e-06	52.605	0.00044029	0.00044184	0.00012259	1348.5	4.807e-06	4.7914e-06	1350.5	363.71	4.8117e-06	4.8417e-06	417.05	141.25	122.32	43.21	4.8306e-06	53.591	188.596	80.801	98.252	33.669	244.279	136.372	33.990	38.579	231.366	169.556	37.933	42.453	43.360	47.069	204.695	46.414	-8191	255	
20564.629	1	1	0	0	0.13114	0.082525	0.07442	0.19601	0.091031	0.0624	0.24092	0.17133	0.11336	0.17647	0.19672	0.40057	0.34375	0.1762	0.19714	0.16115	-0.10625	-0.26042	-1.0583	-0.175	-0.86042	-0.82917	-0.375	-1.1604	-0.29792	-0.36667	-1.2979	-0.12708	-0.92917	-1.0292	-0.2875	-1.0146	137.906	243.404	183.522	345.739	323.449	80.890	304.336	377.544	177.160	94.076	195.629	30.625	373.917	349.666	37.932	263.689	0.00032335	0.00020842	0.00018602	1334.1	4.7096e-06	5.0843e-06	1342.6	358.68	6.646e-06	5.3245e-06	412.45	138.36	120.17	42.177	6.1499e-06	52.743	0.00043753	0.00043662	0.00012185	1347.7	4.8286e-06	4.819e-06	1351.6	363.77	4.8174e-06	4.7968e-06	416.65	141.21	122.42	43.07	4.7861e-06	53.558	186.849	54.459	96.638	33.539	197.143	180.892	33.666	38.590	216.324	102.463	37.606	42.692	43.248	47.104	169.665	46.602	-8191	255	
20564.725	1	1	0	0	0.096596	0.12654	0.25313	0.14944	0.091782	0.29327	0.12525	0.16456	0.21812	0.13007	0.25199	0.26138	0.2926	0.28948	0.42116	0.18694	-0.17917	-0.46458	-1.1854	-0.40208	-0.76667	-0.86667	-0.30625	-1.0708	-0.7375	-0.27708	-1.2292	-0.41458	-0.54583	-1.2208	-0.15833	-1.2313	118.073	373.071	237.446	285.148	48.474	316.091	96.894	363.706	22.236	21.221	293.575	315.953	365.537	27.684	38.704	318.093	0.00034655	0.00041584	0.00010984	1335.2	3.282e-06	4.5144e-06	1339.5	357.52	4.1115e-06	3.9258e-06	412.87	137.38	120.13	42.259	4.5672e-06	52.677	0.00043841	0.00044261	0.00012199	1348.7	4.8034e-06	4.7555e-06	1348.2	363.29	4.8229e-06	4.8199e-06	417.51	140.91	122.43	43.119	4.8716e-06	53.535	191.199	98.477	105.663	33.575	192.524	149.635	33.733	38.415	188.417	183.739	37.615	42.562	43.321	47.377	223.012	46.724	-8191	255	
20564.820	1	1	0	0	0.084923	0.2175	0.29154	0.09278	0.14193	0.09975	0.46933	0.15318	0.26701	0.069209	0.081887	0.18305	0.19874	0.2273	0.19842	0.14876	-0.28542	-0.091667	-0.65833	-0.41042	-0.50625	-0.95208	-0.27917	-0.88542	-0.77292	-0.16458	-1.1125	-0.43958	-0.46458	-1.325	-0.175	-0.8125	145.205	76.061	220.359	64.240	189.506	57.013	352.873	133.043	183.590	102.856	251.838	231.637	315.565	100.322	305.744	287.757	0.00037943	0.00036345	0.00017925	1337	7.2178e-06	8.6421e-06	1336.5	358.56	1.7409e-06	9.2491e-07	410.87	137.94	119.77	42.201	6.2031e-07	52.425	0.00044427	0.00044448	0.0001222	1345.4	4.9183e-06	4.8654e-06	1347	363.4	4.891e-06	4.7741e-06	416.63	141.06	122.22	43.148	4.8732e-06	53.524	186.542	117.252	101.833	33.735	179.486	154.761	33.916	38.462	233.892	170.343	37.970	42.824	43.313	47.438	61.316	46.558	-8191	255	
20564.939	1	1	0	0	0.082877	0.15881	0.17636	0.20277	0.27584	0.064731	0.22231	0.29618	0.24696	0.19389	0.10373	0.10044	0.32056	0.17395	0.13163	0.27787	-0.54167	0.022917	-0.92708	-0.56667	-0.375	-1.1437	-0.42292	-0.78333	-0.89583	-0.34583	-1.2021	-0.71667	-0.31667	-1.0875	-0.17292	-0.60833	83.961	68.071	246.609	40.742	131.341	368.241	286.794	298.367	137.562	174.253	341.676	83.091	366.274	197.736	254.157	342.321	0.00026238	0.00029553	0.00017893	1337.5	5.0971e-06	8.9299e-06	1339.5	359.39	4.8218e-06	8.0711e-06	412.8	138.46	119.81	42.417	4.5828e-06	52.68	0.00043428	0.00044595	0.00012291	1347.6	4.8418e-06	4.7829e-06	1347.9	363.82	4.8187e-06	4.7921e-06	417.25	141.11	122.1	43.189	4.8487e-06	53.531	192.174	74.712	74.823	33.580	196.803	166.944	33.834	38.627	228.062	155.481	37.711	42.684	43.272	47.483	175.784	46.594	-8191	255	
20565.035	1	1	0	0	0.20391	0.17639	0.14862	0.088485	0.16657	0.025082	0.032538	0.24071	0.35233	0.16405	0.41871	0.33266	0.17979	0.18043	0.043862	0.19937	-0.55833	-0.0875	-0.86875	-0.65417	-0.11667	-1.1833	-0.61875	-0.67292	-1.0208	-0.25417	-1.0917	-0.92083	-0.25833	-1.0375	-0.29792	-0.5125	260.454	273.654	173.699	172.483	220.256	252.439	377.658	256.772	370.270	242.463	354.499	79.596	326.526	30.434	253.840	302.437	0.0003377	0.00021606	0.00013417	1337.9	6.0505e-06	7.0361e-06	1339.2	358.55	2.6794e-06	2.6375e-06	412.81	137.8	119.77	42.249	5.1045e-06	52.473	0.00044189	0.00044002	0.00012062	1346.9	4.8123e-06	4.7315e-06	1347.8	363.06	4.7268e-06	4.7832e-06	416.91	140.86	121.94	43.082	4.8425e-06	53.463	185.486	150.140	86.943	33.795	198.620	174.655	33.947	38.777	217.813	181.734	37.903	42.820	43.226	47.380	184.638	46.717	-8191	255	
20565.131	1	1	0	0	0.1208	0.12724	0.20932	0.332	0.10409	0.26506	0.10844	0.33829	0.030246	0.19307	0.42149	0.11188	0.18826	0.18247	0.10462	0.069633	-0.51667	-0.20833	-0.79375	-0.92917	-0.29167	-1.1938	-0.70625	-0.48958	-1.0375	-0.26875	-0.74375	-1.0271	-0.21875	-0.93125	-0.4625	-0.52083	241.000	332.786	167.745	30.750	345.604	316.366	261.489	371.010	319.802	186.817	336.707	311.996	259.816	41.791	202.956	343.600	0.00028787	0.00046691	0.00013748	1332.7	5.975e-06	1.4387e-06	1336	357.7	2.5924e-06	9.0346e-06	413.32	138.28	120.08	42.331	6.6357e-06	52.44	0.00043331	0.00043896	0.00012121	1345.9	4.8378e-06	4.7255e-06	1346.8	363.33	4.7581e-06	4.744e-06	417.19	141.36	122.12	43.144	4.7819e-06	53.473	192.331	102.992	111.337	33.902	181.561	202.478	33.678	38.708	138.823	170.889	38.088	42.862	43.226	47.498	157.951	46.640	-8191	255	
20565.229	1	1	0	0	0.39319	0.46059	0.14727	0.30123	0.12544	0.2489	0.14264	0.32735	0.18819	0.34607	0.1664	0.23327	0.25464	0.37198	0.30742	0.1863	-0.89375	-0.16042	-0.675	-0.92292	-0.095833	-1.1854	-0.85208	-0.37708	-1.1583	-0.17708	-0.77917	-1.1417	-0.24583	-0.83333	-0.76458	-0.44583	354.878	65.572	269.710	27.795	297.448	327.753	265.867	358.618	84.002	369.162	27.551	203.377	307.868	51.374	241.608	334.296	0.00031186	0.00062878	4.8814e-05	1331.5	4.778e-06	4.6082e-06	1335.6	357.22	4.8727e-06	3.3596e-06	410.97	138.53	119.42	42.304	3.157e-06	52.599	0.00043008	0.00044671	0.00012014	1344.9	4.8095e-06	4.7577e-06	1346.4	363.13	4.7055e-06	4.819e-06	416.05	141.25	122.03	43.072	4.8119e-06	53.45	184.851	83.785	47.694	33.876	233.537	209.728	34.032	38.851	214.326	222.016	37.893	42.848	43.196	47.598	175.281	46.833	-8191	255	
20565.324	1	1	0	0	0.31983	0.087745	0.22784	0.36881	0.088767	0.058321	0.35652	0.54116	0.27293	0.23371	0.45807	0.42069	0.14421	0.38768	0.14188	0.088693	-0.71042	-0.31875	-0.625	-1.1063	-0.4125	-0.8	-0.84167	-0.44792	-1.0729	-0.43542	-0.58125	-1.0688	-0.47083	-0.93333	-0.87708	-0.2875	252.327	50.457	86.878	333.924	139.711	368.991	352.051	298.893	298.472	107.961	328.326	359.345	353.464	358.846	341.404	377.473	0.00027822	0.00046834	0.00021543	1335.4	3.352e-06	4.9673e-06	1335.9	358.21	2.8162e-06	7.6316e-06	410.97	138.15	119.68	42.268	6.999e-06	52.565	0.00042924	0.00043461	0.00012119	1344.9	4.8644e-06	4.7924e-06	1345.9	363.12	4.7836e-06	4.7627e-06	415.65	140.99	122.25	43.089	4.7708e-06	53.431	189.184	111.223	103.008	33.740	198.767	135.566	34.136	38.963	209.491	205.317	38.113	42.994	43.474	47.404	189.094	47.070	-8191	255	
20565.420	1	1	0	0	0.18206	0.19381	0.26684	0.17626	0.29662	0.27172	0.17974	0.35845	0.2671	0.091008	0.07341	0.19106	0.32549	0.259	0.36272	0.18838	-0.62292	-0.48333	-0.35	-1.1854	-0.083333	-0.68333	-0.95	-0.125	-1.0208	-0.54583	-0.39167	-1.0229	-0.44583	-0.675	-0.98958	-0.33125	142.687	271.081	299.124	45.184	274.917	360.890	344.440	356.109	283.031	276.738	339.275	28.402	246.905	372.581	70.700	366.788	0.00033999	0.0004654	0.00022784	1336.9	4.1408e-06	6.0534e-06	1334.7	358.83	2.3299e-06	3.6967e-06	411.5	138.21	120.07	42.169	4.8991e-06	52.41	0.00043104	0.00044071	0.00012091	1345.8	4.7765e-06	4.7457e-06	1346.3	362.97	4.7914e-06	4.7791e-06	416.45	140.88	122.04	43.057	4.7643e-06	53.339	186.355	131.909	106.104	34.039	203.380	221.548	34.225	38.961	192.866	194.583	38.332	43.227	43.280	47.601	178.553	46.724	-8191	255	
20565.539	1	1	0	0	0.11279	0.30857	0.10724	0.34421	0.21287	0.13007	0.183	0.30851	0.21376	0.089434	0.16149	0.2121	0.2584	0.21262	0.075648	0.12607	-0.56667	-0.725	-0.085417	-1.5146	-0.33542	-0.61667	-1.25	-0.30833	-0.77292	-0.79583	-0.35	-1.2521	-0.625	-0.59583	-1.0729	-0.2625	316.120	64.417	126.538	350.136	291.032	77.365	355.872	293.023	330.676	308.948	305.494	295.720	342.769	35.454	192.803	123.403	0.00030143	0.00034213	3.7674e-05	1335.2	4.3346e-06	4.0262e-06	1338.2	357.7	4.7552e-06	5.7587e-06	410.75	138.33	119.69	42.306	6.0892e-06	52.467	0.0004329	0.00044536	0.000121	1346.2	4.8701e-06	4.7409e-06	1346.3	363.31	4.7759e-06	4.8025e-06	415.83	140.76	122.04	43.138	4.8247e-06	53.405	189.276	137.343	114.856	33.846	174.063	173.218	33.878	38.571	185.440	156.553	38.231	42.840	43.348	47.515	192.597	46.776	-8191	255	
20565.637	1	1	0	0	0.3009	0.29257	0.14866	0.485	0.052217	0.26205	0.17845	0.20242	0.19875	0.062347	0.33996	0.35821	0.11942	0.093624	0.19227	0.14159	-0.72292	-0.71042	-0.30417	-1.1854	-0.3875	-0.6375	-1.2292	-0.31458	-0.64792	-0.87708	-0.23333	-1.2021	-0.62292	-0.47292	-1.225	-0.2625	108.775	341.476	243.063	329.838	193.292	64.199	322.672	294.712	161.051	231.809	359.023	358.708	341.036	43.193	60.304	109.905	0.00028195	0.0003448	0.0001763	1335.1	5.1148e-06	1.7915e-06	1333.7	358.22	5.2884e-06	7.469e-06	411.82	138.29	119.73	42.206	5.9119e-06	52.322	0.00043172	0.00043939	0.00012401	1346.7	4.848e-06	4.8486e-06	1344.9	363.1	4.7631e-06	4.7742e-06	416.8	141.02	122.15	43.041	4.8262e-06	53.392	189.130	89.226	68.582	33.867	202.434	182.429	34.166	38.854	214.789	163.125	37.939	43.162	43.380	47.916	181.553	47.182	-8191	255	
20565.732	1	1	0	0	0.26925	0.23045	0.16916	0.13693	0.1846	0.13142	0.14737	0.33266	0.18016	0.17733	0.10551	0.20372	0.27584	0.21864	0.29637	0.25388	-0.45833	-0.89792	-0.17083	-1.3104	-0.44792	-0.46875	-1.4312	-0.59792	-0.58333	-1.0396	-0.2125	-1.0292	-0.59583	-0.475	-1.1375	-0.47708	118.372	331.787	109.991	337.029	109.328	53.863	263.587	342.361	209.333	139.740	192.885	360.135	305.040	377.346	156.676	340.759	0.00030915	0.00064452	0.00015963	1333.6	4.2779e-06	2.1387e-06	1335.2	358.01	3.6421e-06	4.2421e-06	410.65	138.11	119.5	42.02	4.5936e-06	52.504	0.00043026	0.00043831	0.00012429	1345.8	4.8303e-06	4.8208e-06	1344.3	363.06	4.7429e-06	4.7738e-06	416.31	140.81	121.92	42.935	4.7314e-06	53.436	194.031	127.770	90.109	34.160	177.476	172.261	34.076	38.881	211.603	165.837	38.076	43.231	43.579	47.498	196.135	46.849	-8191	255	
20565.828	1	1	0	0	0.076403	0.27705	0.20046	0.30716	0.11683	0.21083	0.17349	0.18914	0.19527	0.10955	0.24442	0.16995	0.065292	0.22023	0.21777	0.069118	-0.21667	-0.93333	-0.23333	-1.1667	-0.62083	-0.32917	-1.1083	-0.57292	-0.5375	-1.0208	-0.29583	-0.84375	-0.67083	-0.26875	-1.0396	-0.43125	343.673	141.259	218.640	338.152	214.577	308.459	330.657	246.379	209.167	25.324	23.982	289.980	311.736	59.510	193.425	351.840	0.00032283	0.0005587	0.00010318	1334.7	6.7059e-06	4.9476e-06	1333.3	358.9	4.3566e-06	4.2272e-06	411.59	137.98	119.39	42.165	3.6831e-06	52.545	0.00043361	0.00043839	0.00012111	1346.1	4.8295e-06	4.7901e-06	1345.2	362.91	4.8206e-06	4.7331e-06	415.87	140.98	121.95	43.03	4.7721e-06	53.373	186.573	88.106	89.770	34.134	210.115	180.426	33.919	38.989	209.994	210.412	38.216	43.038	43.857	47.441	213.487	46.888	-8191	255	
20565.924	1	1	0	0	0.058783	0.14631	0.30201	0.068302	0.16183	0.17053	0.057545	0.12102	0.40668	0.1099	0.038506	0.1253	0.10927	0.094393	0.081411	0.31161	-0.079167	-1.3188	0.03125	-1.1	-0.98958	-0.1875	-1.1917	-0.50208	-0.40417	-1.1521	-0.20208	-0.85833	-0.96458	-0.24167	-0.93958	-0.66667	163.563	203.413	246.739	332.213	302.244	358.736	80.590	375.096	260.060	27.709	376.913	312.852	86.259	305.326	173.488	362.043	0.0002943	0.00045219	8.386e-05	1334.8	4.3334e-06	6.2823e-07	1337.5	358.27	2.876e-06	2.7829e-06	410.85	138.56	120.08	42.171	4.6134e-06	52.452	0.00043226	0.00043499	0.00012282	1344.8	4.8128e-06	4.8107e-06	1346.1	362.98	4.8478e-06	4.7561e-06	416.04	140.89	122.13	43.013	4.9044e-06	53.291	193.487	84.943	138.070	33.989	207.763	115.232	33.857	38.536	216.971	176.449	37.905	43.028	43.464	47.489	176.131	46.650	-8191	255	
20566.020	1	1	0	0	0.11049	0.025624	0.24088	0.28375	0.097696	0.058746	0.26853	0.1817	0.26743	0.088688	0.035815	0.081143	0.29381	0.33722	0.11098	0.18308	0.09375	-0.96875	-0.2	-0.87917	-0.94583	-0.06875	-1.1146	-1.0187	-0.35417	-1.0417	-0.475	-0.60417	-1.2917	-0.39375	-0.73542	-0.84792	145.511	235.757	359.528	35.251	103.516	327.334	359.829	324.767	368.924	32.379	273.312	180.673	326.049	32.965	331.889	262.652	0.00029109	0.0004152	0.00018274	1331.8	5.4271e-06	4.2599e-06	1338	357.9	2.4119e-06	8.9577e-06	410.55	138.46	119.63	42.139	4.2023e-06	51.976	0.00043744	0.00044039	0.00012508	1343.4	4.797e-06	4.9219e-06	1346.2	362.77	4.8243e-06	4.8172e-06	416.03	140.8	121.79	42.955	4.9379e-06	53.248	191.391	111.348	126.965	33.776	207.353	119.610	33.880	38.554	229.580	177.085	37.925	42.918	43.354	47.565	170.088	46.818	-8191	255	
20566.115	1	1	0	0	0.19734	0.058713	0.36639	0.30738	0.31562	0.060816	0.13641	0.14652	0.44409	0.2656	0.20076	0.31788	0.088235	0.30537	0.31229	0.1494	0.2	-1.1042	-0.25833	-0.50833	-0.93542	-0.28125	-1.0104	-0.81042	-0.11458	-0.99792	-0.62917	-0.40833	-1.1063	-0.1875	-0.75833	-0.92708	181.591	339.302	272.663	342.765	321.012	346.568	276.082	256.617	277.911	216.793	60.159	234.001	37.882	357.786	357.613	22.049	0.0002985	0.00054747	0.00020184	1329.3	6.5068e-06	6.0961e-06	1333.8	357.55	3.5489e-06	5.265e-06	410.52	137.43	119.3	41.888	5.7025e-06	52.423	0.0004473	0.00044817	0.00012482	1343.3	4.8977e-06	4.9077e-06	1345.4	362.87	4.8936e-06	4.812e-06	415.84	140.63	121.77	42.893	4.8966e-06	53.394	192.203	106.862	71.540	34.099	208.155	173.900	34.029	38.735	202.828	175.477	37.962	42.772	43.314	47.490	203.983	46.921	-8191	255	
20566.236	1	1	0	0	0.18943	0.16809	0.22194	0.30177	0.28146	0.29442	0.27122	0.021234	0.25229	0.1126	0.1677	0.15066	0.20689	0.28878	0.30238	0.083708	0.32083	-1.1562	-0.50417	-0.54792	-1.1229	-0.30417	-0.76875	-1.1833	-0.085417	-1.1021	-0.84375	-0.29167	-1.3458	-0.4	-0.54583	-0.98542	263.286	97.492	272.240	37.004	146.261	103.722	297.300	183.041	207.496	363.090	342.041	372.311	38.342	32.178	47.604	44.114	0.00028018	0.00038032	0.00012842	1331.5	7.7489e-06	7.0143e-06	1332.5	358.52	3.2935e-06	1.5213e-06	410.45	137.89	119.46	42.036	3.8465e-06	52.545	0.00044699	0.0004452	0.00012346	1341.9	4.926e-06	4.8758e-06	1344.4	362.92	4.8226e-06	4.8225e-06	415.5	140.66	121.72	42.943	4.8711e-06	53.305	188.206	137.353	69.457	34.070	185.911	171.504	34.300	38.736	175.178	281.300	38.083	42.930	43.497	47.795	194.558	46.572	-8191	255	
20566.332	1	1	0	0	0.0028877	0.13247	0.35474	0.36267	0.21967	0.31425	0.16875	0.20219	0.31299	0.19118	0.25091	0.21503	0.37702	0.18431	0.37932	0.23522	0.18333	-0.78958	-0.5875	-0.58958	-1.0438	-0.15833	-0.52083	-1.2708	-0.11667	-0.69583	-0.83125	-0.20833	-1.3	-0.2875	-0.43958	-0.99375	248.695	368.787	205.555	39.194	182.179	269.017	179.869	341.865	165.998	293.652	285.035	315.065	359.384	359.049	238.448	288.867	0.00033839	0.00064302	0.00021825	1328.4	7.2647e-06	6.3236e-06	1332.6	356.62	5.3269e-06	3.7432e-06	412.06	137.47	119.38	42.071	4.8978e-06	52.587	0.00044716	0.00045061	0.00012554	1341.5	4.878e-06	4.8545e-06	1344	362.56	4.9185e-06	4.8231e-06	416.41	140.43	121.69	42.942	4.9526e-06	53.354	187.183	88.969	111.971	34.015	188.802	141.326	34.132	38.601	189.654	202.407	38.015	43.016	43.596	47.072	142.118	46.729	-8191	255	
20566.430	1	1	0	0	0.095662	0.1693	0.28594	0.08596	0.2003	0.22348	0.2174	0.22816	0.065035	0.18446	0.055635	0.058393	0.12831	0.42151	0.076197	0.065373	0.33333	-0.99167	-0.78125	-0.39375	-0.91458	-0.42292	-0.48958	-1.0479	-0.34167	-0.90625	-1.0292	-0.28333	-0.90833	-0.61042	-0.28333	-1.2521	178.232	270.485	51.752	299.070	188.966	76.592	299.398	21.610	281.219	159.271	238.741	210.491	353.513	181.072	102.363	177.164	0.00033453	0.00027801	0.00013716	1334.4	9.1036e-06	9.1317e-06	1338	357.15	5.4986e-06	7.697e-06	411.02	137.28	119.8	42.146	4.4511e-06	52.203	0.00045037	0.00043909	0.00012484	1344.5	4.869e-06	4.8594e-06	1345.1	362.09	4.9369e-06	4.8254e-06	415.77	140.65	121.83	42.96	4.8856e-06	53.24	193.003	133.248	115.932	33.969	199.164	187.576	34.277	38.944	167.843	149.214	37.885	42.967	43.513	47.431	187.995	46.616	-8191	255	
20566.500	1	1	0	0	0.18454	0.25507	0.2345	0.34973	0.21227	0.1813	0.30822	0.15068	0.16723	0.20182	0.28023	0.26631	0.32088	0.23444	0.1547	0.26784	0.17292	-0.57708	-0.78333	-0.575	-0.85417	-0.61667	-0.51458	-1.1646	-0.3	-0.51458	-1.1875	-0.16667	-0.83958	-0.69583	-0.30208	-1.3167	232.443	138.820	41.710	354.802	37.043	265.790	262.356	373.561	59.509	186.492	312.381	307.658	352.129	344.423	45.976	287.531	0.00029333	0.00045236	0.00019184	1331.5	4.0411e-06	4.2357e-06	1335.3	358.34	4.3954e-06	4.7781e-06	413.36	137.26	119.82	42.116	3.2857e-06	52.56	0.00043668	0.00044986	0.00012359	1343.6	4.8627e-06	4.8528e-06	1344.6	362.74	4.8717e-06	4.7413e-06	416.64	140.53	121.91	42.968	4.8002e-06	53.421	192.105	104.542	105.145	34.133	204.998	170.411	34.025	38.904	214.903	144.525	38.420	42.888	43.671	47.674	177.046	46.978	-8191	255	
20566.621	1	1	0	0	0.12589	0.12595	0.26195	0.19565	0.41955	0.34855	0.43097	0.29265	0.089398	0.18253	0.16216	0.28966	0.16623	0.097813	0.12916	0.12663	0.010417	-0.52292	-0.725	-0.45417	-0.80417	-0.92083	-0.1125	-1.2875	-0.32292	-0.39792	-1.2208	-0.10833	-1.0083	-0.7625	-0.13958	-1.0125	200.499	219.673	180.156	354.196	265.057	322.626	348.407	342.819	356.513	236.446	22.900	43.613	40.683	25.926	265.046	75.511	0.00027805	0.00037523	0.00015523	1329.1	7.899e-06	2.6862e-06	1334.3	358.23	4.6537e-06	6.1167e-06	411.1	137.99	120.05	42.09	7.0454e-06	52.418	0.00044021	0.00043789	0.00012083	1341.6	4.8335e-06	4.8075e-06	1344.9	362.86	4.8464e-06	4.7263e-06	415.54	140.8	121.93	43.005	4.8723e-06	53.356	188.415	129.699	132.407	34.054	195.917	160.755	34.317	38.831	191.536	182.548	38.231	43.013	43.276	47.572	183.274	46.659	-8191	255	
20566.717	1	1	0	0	0.1669	0.32597	0.10274	0.46022	0.16482	0.13155	0.41532	0.17537	0.2014	0.19181	0.21597	0.13525	0.18238	0.10497	0.13911	0.56598	-0.079167	-0.26875	-1.0458	-0.42083	-0.78958	-0.87917	-0.3	-1.2125	-0.425	-0.28958	-1.2062	-0.30833	-0.84167	-1.0438	-0.1125	-1.1854	274.856	161.433	130.333	356.584	64.306	285.704	337.291	138.116	175.396	366.036	316.736	364.443	303.590	125.439	51.865	370.697	0.00030142	0.00033005	5.0582e-05	1336	5.4729e-06	4.5508e-06	1336.4	358.16	4.1607e-06	1.5418e-06	411.67	137.47	119.63	42.179	5.3984e-06	52.378	0.00043723	0.00043759	0.00012099	1344.6	4.8453e-06	4.7883e-06	1344	362.97	4.7505e-06	4.8317e-06	416.68	140.53	121.89	42.996	4.8079e-06	53.344	189.977	129.577	124.035	33.596	152.861	201.077	34.102	38.837	209.155	134.690	38.233	42.953	43.457	47.242	172.844	46.917	-8191	255	
20566.812	1	1	0	0	0.15672	0.35165	0.12935	0.14974	0.24426	0.34768	0.16261	0.39515	0.23644	0.30362	0.17717	0.22179	0.076369	0.4039	0.28338	0.11893	-0.2625	-0.24167	-0.91042	-0.29167	-0.62708	-0.8625	-0.37708	-1.0208	-0.78958	-0.11042	-1.0792	-0.62917	-0.74167	-1.1771	-0.2125	-0.9125	117.375	162.051	59.266	34.692	36.639	270.179	322.149	297.132	86.991	320.546	373.332	128.764	372.491	23.048	107.251	295.992	0.00034568	0.00063101	0.00021149	1328.3	5.5203e-06	2.9569e-06	1336.6	357.7	4.7837e-06	4.9643e-06	412.91	137.73	119.62	42.206	9.7964e-06	52.339	0.00043312	0.00043682	0.00012173	1341.6	4.8438e-06	4.8266e-06	1345	362.83	4.876e-06	4.8109e-06	416.1	140.58	121.94	43.019	4.8397e-06	53.345	185.825	111.939	134.648	33.860	207.669	150.487	33.960	38.722	167.442	190.591	38.243	42.824	43.485	47.406	214.051	46.809	-8191	255	
20566.908	1	1	0	0	0.23766	0.16831	0.087255	0.30603	0.34722	0.098411	0.32275	0.18557	0.13928	0.3832	0.26744	0.12142	0.26927	0.24068	0.21951	0.083003	-0.5625	0.054167	-1.0438	-0.51667	-0.425	-0.96458	-0.43958	-1.1042	-0.72917	0.014583	-1.2188	-0.5375	-0.3125	-1.1375	-0.20208	-0.80625	112.328	65.883	184.371	28.369	263.754	179.179	299.574	24.635	123.795	64.398	126.662	150.874	358.383	367.995	292.006	104.696	0.00030225	0.00060594	0.00015355	1329.8	5.2028e-06	8.1195e-06	1332.1	359.03	3.9552e-06	4.088e-06	411.88	138.14	119.98	42.173	2.8767e-06	52.458	0.00043567	0.00044187	0.00012241	1341.8	4.7892e-06	4.7459e-06	1344.9	363.31	4.7803e-06	4.7724e-06	416.41	141.03	121.87	43.052	4.8693e-06	53.349	187.121	104.507	78.823	33.869	182.653	191.138	34.011	38.864	213.710	270.541	38.207	42.839	43.574	47.594	169.806	46.891	-8191	255	
20567.027	1	1	0	0	0.25815	0.039581	0.030069	0.30246	0.25231	0.20369	0.23811	0.21565	0.13275	0.068562	0.25898	0.097986	0.43391	0.14213	0.11925	0.29253	-0.34583	-0.09375	-0.82917	-0.68333	-0.27708	-0.99167	-0.51042	-0.7	-0.96667	-0.125	-1.15	-0.60625	-0.30417	-1.2021	-0.14375	-0.7625	188.037	109.135	286.544	71.420	50.918	191.606	338.497	342.376	284.968	330.189	324.821	339.290	364.471	242.253	59.034	343.653	0.00030609	0.00036242	0.00013146	1330.7	4.8066e-06	6.6307e-06	1337.7	358.35	2.4562e-06	2.2942e-06	411.11	138.29	119.51	42.253	2.5557e-06	52.405	0.00043503	0.00043614	0.00012117	1342.6	4.8582e-06	4.7509e-06	1344.5	363.47	4.7753e-06	4.7287e-06	416.03	140.86	121.95	43.051	4.8439e-06	53.339	189.405	95.949	111.396	34.039	224.425	191.567	34.090	38.815	181.100	149.617	38.330	43.003	43.691	47.369	227.663	46.857	-8191	255	
20567.123	1	1	0	0	0.16758	0.31322	0.30555	0.34647	0.15969	0.1043	0.33322	0.13169	0.1418	0.18655	0.11924	0.33041	0.29999	0.11612	0.017983	0.21154	-0.72083	-0.04375	-0.70208	-0.81458	0.033333	-0.95	-0.43958	-0.45417	-1.0333	-0.26042	-0.84792	-0.69375	-0.27917	-1.0979	-0.18333	-0.43542	228.421	93.539	219.583	31.828	299.325	63.982	342.831	356.371	93.137	202.659	263.547	42.375	39.852	347.789	358.823	273.255	0.00032169	0.00068855	0.00015349	1329.9	5.5673e-06	6.3462e-06	1330.2	357.54	5.1122e-06	5.7366e-06	409.95	138.25	119.04	42.361	9.8626e-06	52.45	0.00043213	0.00044126	0.00012163	1341.8	4.8228e-06	4.7337e-06	1343.8	362.9	4.8272e-06	4.8378e-06	416.16	140.47	121.78	43.082	4.8455e-06	53.392	194.773	123.458	125.940	33.848	171.142	140.501	34.058	38.895	200.142	188.009	38.238	43.034	43.452	47.611	167.068	46.714	-8191	255	
20567.221	1	1	0	0	0.23004	0.16841	0.073446	0.14288	0.094695	0.22111	0.26732	0.13825	0.15613	0.097043	0.31898	0.29856	0.035737	0.075459	0.26582	0.27251	-0.63542	-0.15625	-0.64167	-1.0646	-0.16667	-0.79792	-0.38333	-0.51667	-1.0333	-0.1625	-0.64792	-0.9625	-0.16458	-1.1292	-0.43125	-0.20625	346.132	125.763	228.094	355.972	65.851	98.131	284.755	371.874	228.931	311.914	332.273	307.548	245.271	371.585	255.756	296.363	0.00031186	0.00024994	5.3519e-05	1334.1	1.7347e-06	6.9875e-06	1332.3	358.02	4.1409e-06	1.0119e-06	411.02	137.89	119.75	42.306	2.138e-06	52.735	0.00042946	0.00044511	0.00012127	1341.7	4.857e-06	4.8061e-06	1343.6	363.07	4.7971e-06	4.8199e-06	416.54	140.97	122	43.039	4.8352e-06	53.5	191.475	147.421	109.171	33.928	164.043	158.395	34.055	38.814	222.019	295.039	38.329	42.922	43.532	47.664	172.534	46.781	-8191	255	
20567.316	1	1	0	0	0.33136	0.15459	0.13744	0.11638	0.16347	0.14641	0.099384	0.21297	0.23233	0.23657	0.088749	0.082227	0.43082	0.16928	0.10263	0.088626	-0.66042	-0.20417	-0.53958	-1.0625	-0.0875	-1.0187	-0.73333	-0.2875	-0.9125	-0.26042	-0.74375	-1.1333	-0.35	-0.87083	-0.76667	-0.36042	163.366	102.618	278.331	119.379	110.622	231.096	290.286	358.511	86.025	290.177	270.870	107.254	346.413	250.973	69.884	157.855	0.00033722	0.0003802	0.00015941	1332.8	1.1543e-06	2.9905e-06	1339.3	359.23	5.2606e-06	3.8412e-06	412.58	138.45	119.71	42.261	2.4602e-06	52.765	0.00043556	0.00044299	0.00012145	1343.1	4.8869e-06	4.7919e-06	1345.8	363.4	4.7877e-06	4.7565e-06	416.7	141.03	122.02	43.059	4.7002e-06	53.462	192.437	152.357	170.956	34.016	124.867	176.254	33.996	38.645	212.371	178.613	38.291	42.605	43.488	47.880	225.144	46.870	-8191	255	
20567.412	1	1	0	0	0.08222	0.17757	0.033567	0.29221	0.23213	0.083996	0.22295	0.1218	0.28041	0.068109	0.24653	0.56886	0.18673	0.10088	0.20006	0.26243	-0.65417	-0.14167	-0.4125	-1.3083	-0.09375	-0.85208	-0.95833	-0.50625	-1.0833	-0.48333	-0.51458	-1.1792	-0.16042	-0.88958	-0.64792	-0.085417	319.482	163.640	349.463	270.433	90.691	240.205	314.943	23.054	32.034	211.774	362.731	40.377	100.667	21.470	278.152	122.291	0.00032857	0.00041852	0.00020858	1329.8	3.3347e-06	6.1032e-06	1336.9	356.81	3.9264e-06	2.7553e-06	412.42	137.86	119.54	42.239	5.9144e-06	52.455	0.0004281	0.00044034	0.00012099	1342	4.7805e-06	4.7071e-06	1344.8	362.61	4.734e-06	4.7751e-06	416.15	140.85	121.85	43.013	4.8476e-06	53.296	194.705	115.600	89.776	33.968	189.830	170.448	33.983	39.007	217.736	170.990	38.320	43.114	43.647	47.674	207.210	46.563	-8191	255	
20567.510	1	1	0	0	0.14286	0.11704	0.2742	0.30831	0.08672	0.37546	0.48374	0.19272	0.13166	0.16753	0.12873	0.043134	0.22366	0.2557	0.16048	0.10972	-0.59375	-0.35208	-0.32292	-1.1854	-0.24583	-0.75625	-0.99583	-0.15833	-1.1	-0.44792	-0.28333	-1.35	-0.21667	-0.59792	-0.97708	-0.3625	123.890	244.274	56.753	349.944	199.984	59.078	365.041	298.553	185.760	278.492	144.699	69.580	310.051	319.856	227.418	25.437	0.00032166	0.00026362	0.00021915	1334.8	4.47e-06	4.8483e-06	1338.7	358.24	7.0372e-06	4.6354e-06	412.53	138.04	119.32	42.371	5.5979e-06	52.374	0.00043783	0.00044165	0.0001218	1343.1	4.8871e-06	4.7618e-06	1344.4	363.16	4.7889e-06	4.857e-06	416.7	140.92	121.82	43.095	4.8611e-06	53.34	188.176	118.203	164.677	34.054	167.690	146.916	33.967	38.623	207.214	201.540	38.369	43.205	43.342	47.775	159.876	46.945	-8191	255	
20567.631	1	1	0	0	0.099753	0.13704	0.0096188	0.24417	0.16515	0.16588	0.019951	0.042945	0.12365	0.085766	0.17674	0.11932	0.12793	0.3473	0.17619	0.25434	-0.6375	-0.6125	-0.1125	-1.3771	-0.15625	-0.59792	-1.1854	-0.15	-0.75	-0.45417	-0.089583	-1.1042	-0.325	-0.3625	-0.99375	-0.225	257.560	219.506	164.832	370.598	63.018	303.514	163.771	34.907	300.682	172.528	255.003	332.710	52.049	349.385	152.325	371.615	0.00028196	0.00054217	0.00015057	1329.6	5.9161e-06	7.4242e-06	1332.5	358.39	4.8123e-06	7.8878e-06	410.76	138.08	119.86	41.931	3.6647e-06	52.409	0.00043502	0.00044044	0.00012054	1343.3	4.9026e-06	4.8506e-06	1344.9	362.95	4.8997e-06	4.8612e-06	416.02	141.01	122.17	43.017	4.8395e-06	53.338	192.762	112.245	109.322	34.207	220.986	194.886	34.188	38.922	212.709	181.730	38.353	43.236	43.746	47.741	239.898	46.980	-8191	255	
20567.727	1	1	0	0	0.044998	0.26036	0.11471	0.17019	0.083355	0.10841	0.17043	0.25135	0.30175	0.30703	0.17684	0.11203	0.18789	0.32257	0.2582	0.32849	-0.45	-0.69583	-0.10208	-1.0417	-0.27917	-0.36667	-1.3042	-0.32917	-0.64583	-0.61875	-0.21667	-1.3521	-0.4125	-0.27083	-1.0646	-0.15208	328.075	207.781	321.019	335.407	57.281	165.564	349.934	57.568	98.773	129.330	324.553	375.435	69.184	349.161	205.089	266.669	0.00034612	0.00054241	0.00019893	1331.3	3.5771e-06	2.0939e-06	1336.4	357.7	4.0235e-06	6.5257e-06	410.54	138.14	119.86	42.227	6.0961e-06	52.363	0.00043808	0.00044346	0.00012476	1342.9	4.9246e-06	4.9444e-06	1344.8	363.23	4.8389e-06	4.8528e-06	416.45	140.88	122.07	43.026	4.8391e-06	53.3	190.241	111.150	85.069	34.074	169.349	166.969	34.102	39.247	222.426	161.084	38.255	43.150	43.646	47.709	187.402	47.121	-8191	255	
20567.797	1	1	0	0	0.05577	0.13103	0.076257	0.20509	0.12375	0.47002	0.26733	0.13373	0.19815	0.078143	0.13011	0.30572	0.17883	0.12149	0.10279	0.14097	-0.00625	-0.76667	-0.15625	-1.2979	-0.5625	-0.13333	-1.4354	-0.40833	-0.64375	-0.92708	-0.29792	-1.1167	-0.6	-0.37292	-1.1917	-0.44375	171.088	193.249	323.093	315.643	219.310	181.398	320.919	90.550	157.612	191.864	316.149	338.498	286.961	325.514	238.984	343.419	0.00032244	0.00031884	0.00016658	1329.8	5.2139e-06	1.4655e-06	1332.8	359.45	3.9777e-06	3.4908e-06	411.82	138.1	120.07	42.295	2.7563e-06	52.692	0.00043448	0.00044597	0.00012381	1342.6	4.8096e-06	4.7905e-06	1344.3	363.27	4.8199e-06	4.8212e-06	415.96	140.85	121.87	43.012	4.87e-06	53.486	189.882	144.987	84.238	34.208	155.816	115.259	34.220	38.902	174.271	131.235	38.379	43.236	43.587	47.655	182.615	46.790	-8191	255	
20567.895	1	1	0	0	0.05273	0.14028	0.24267	0.21838	0.14501	0.1159	0.21791	0.28546	0.28434	0.26351	0.24113	0.056981	0.19318	0.14503	0.18818	0.19589	-0.47708	-0.98125	-0.13958	-1.0312	-0.71458	-0.125	-1.2375	-0.43542	-0.39583	-1.0917	-0.25833	-0.95208	-0.81042	-0.3375	-1.0542	-0.41667	362.312	31.125	111.357	332.079	116.981	233.225	324.842	269.136	81.645	273.634	217.683	207.025	363.296	244.069	169.207	354.132	0.000314	0.00030059	0.00016449	1335.9	5.6661e-06	4.8944e-06	1334.7	358.96	3.1604e-06	5.5077e-06	411.72	137.87	119.98	42.205	3.582e-06	52.278	0.00043334	0.00044222	0.0001243	1343.7	4.8965e-06	4.7226e-06	1343	362.99	4.7895e-06	4.7576e-06	416.35	140.7	122.24	43.031	4.819e-06	53.299	190.320	129.203	103.655	34.103	206.698	158.491	34.372	39.014	152.876	186.337	38.132	43.155	43.562	47.622	184.649	47.063	-8191	255	
20568.012	1	1	0	0	0.18935	0.13936	0.15196	0.33039	0.17348	0.22807	0.39204	0.40827	0.28446	0.10435	0.069644	0.33648	0.28664	0.12012	0.28151	0.16874	0.10833	-1.05	-0.085417	-0.92083	-0.65417	-0.11458	-1.1417	-0.48125	-0.27083	-1.05	-0.2875	-0.8125	-0.86667	-0.085417	-1.2188	-0.56042	200.971	205.569	140.875	313.171	117.050	250.877	302.244	351.265	347.751	222.617	49.216	311.384	246.073	337.637	178.602	21.363	0.00031236	0.00014599	9.3743e-05	1331.1	5.1505e-06	6.8047e-06	1336.4	357.37	6.6036e-06	4.2857e-06	411.58	138	119.33	42.275	3.0068e-06	52.664	0.00043438	0.00043991	0.00012167	1341.9	4.7336e-06	4.695e-06	1345.1	362.46	4.8186e-06	4.7573e-06	415.89	140.71	121.65	43.068	4.7421e-06	53.355	193.996	143.552	123.393	34.211	215.086	193.965	34.404	39.100	202.806	180.614	38.465	43.182	43.721	47.971	189.862	46.888	-8191	255	
20568.109	1	1	0	0	0.27252	0.16727	0.098499	0.0064849	0.12822	0.091308	0.37308	0.25008	0.10676	0.081749	0.4358	0.28638	0.15927	0.37718	0.061284	0.091741	0.035417	-1.0271	-0.17083	-0.78958	-0.99583	-0.045833	-1.1083	-0.75625	-0.12917	-1.1063	-0.425	-0.62083	-0.97083	-0.1	-0.77708	-0.86458	306.842	172.940	350.085	45.408	235.646	290.566	314.862	346.687	179.045	141.903	335.361	274.309	350.558	361.400	256.951	27.022	0.00029805	0.00055833	0.00012432	1330.9	2.0282e-06	6.2934e-06	1335.1	357.65	4.2043e-06	2.9428e-06	411.17	137.89	119.25	42.278	4.4917e-06	52.404	0.00042439	0.00043968	0.00011916	1341.5	4.713e-06	4.7679e-06	1343.1	362.83	4.7522e-06	4.6901e-06	415.87	140.86	121.83	43.063	4.7168e-06	53.373	194.509	106.880	117.120	34.260	241.360	134.728	34.438	39.112	179.617	148.819	38.420	43.675	43.737	47.935	216.545	46.901	-8191	255	
20568.205	1	1	0	0	0.22003	0.25675	0.10272	0.25033	0.2113	0.33794	0.32922	0.09443	0.2225	0.071467	0.057152	0.37097	0.1285	0.29662	0.028131	0.1187	0.27083	-0.95208	-0.12292	-0.575	-0.92083	-0.13125	-1.0958	-0.94792	-0.09375	-1.1063	-0.57708	-0.57292	-1.1375	-0.29792	-0.975	-0.79375	211.535	182.428	36.767	286.174	200.527	41.332	317.986	32.385	39.190	241.577	318.739	306.064	296.673	307.535	174.398	241.537	0.00031619	0.00027179	0.00012151	1329.9	2.1594e-06	6.4471e-06	1334.6	357.59	3.8714e-06	5.3427e-06	412.74	138.19	119.69	42.077	5.9334e-06	52.38	0.00043297	0.00043223	0.00012037	1340.3	4.727e-06	4.8093e-06	1344.3	362.81	4.8127e-06	4.7307e-06	416.46	140.91	121.99	42.961	4.7469e-06	53.32	192.878	157.065	95.680	34.266	245.053	136.061	34.026	39.141	220.709	164.428	38.364	43.163	43.817	47.604	201.631	47.050	-8191	255	
20568.301	1	1	0	0	0.37258	0.21523	0.057315	0.40376	0.069375	0.19487	0.15437	0.065732	0.11121	0.093447	0.2404	0.23581	0.18606	0.07056	0.18654	0.27911	0.35	-0.8875	-0.35417	-0.45	-0.83333	-0.01875	-0.65	-1.0458	-0.010417	-0.99583	-0.69167	-0.31042	-1.0854	-0.28125	-0.49375	-1.0354	169.349	175.128	168.663	25.255	133.224	59.722	272.280	242.449	326.987	325.051	259.590	363.472	370.824	184.427	311.819	343.052	0.00032379	0.00023354	0.00023661	1329.5	4.719e-06	5.6183e-06	1334.1	358.5	3.8373e-06	6.563e-06	410.41	138.38	120.11	41.972	4.3083e-06	52.382	0.00043207	0.00043458	0.00012086	1341.7	4.7687e-06	4.7552e-06	1341.4	362.92	4.8508e-06	4.7799e-06	415.75	140.69	122.04	42.953	4.7985e-06	53.319	193.729	57.907	125.620	34.121	207.884	182.154	34.313	38.983	208.543	187.754	38.434	43.202	43.747	47.730	189.756	47.093	-8191	255	
20568.396	1	1	0	0	0.12342	0.20065	0.12416	0.40016	0.21641	0.16564	0.089457	0.21285	0.10388	0.34118	0.018219	0.16095	0.064446	0.20394	0.20865	0.29937	0.28542	-0.83333	-0.65833	-0.49792	-1.1729	-0.38333	-0.6625	-1.1333	-0.20625	-0.96042	-0.8625	-0.32083	-1.0646	-0.5	-0.52292	-1.0167	356.827	123.125	216.993	331.249	157.931	373.196	371.299	253.701	192.768	224.194	121.650	347.765	140.133	157.510	207.300	99.023	0.00029672	0.00035583	0.00018627	1330.1	6.173e-06	5.9586e-06	1334.9	358.09	2.8745e-06	7.44e-06	410.41	138.33	119.54	42.159	6.1168e-06	52.594	0.00043164	0.00043341	0.00012225	1339.2	4.7905e-06	4.7724e-06	1344	362.62	4.7901e-06	4.7029e-06	415.62	140.75	121.76	42.968	4.819e-06	53.253	190.972	99.331	132.459	34.236	194.296	159.446	34.261	39.179	165.970	212.101	38.489	43.240	43.777	47.916	176.910	47.153	-8191	255	
20568.492	1	1	0	0	0.2399	0.19775	0.08896	0.32362	0.24475	0.15606	0.20574	0.32229	0.2013	0.2377	0.20671	0.062541	0.31988	0.20039	0.38392	0.27752	0.25	-0.76042	-0.61667	-0.55417	-1.2854	-0.65	-0.56667	-1.2812	-0.22708	-0.76042	-0.92708	-0.19792	-1.175	-0.57917	-0.42083	-1.3417	38.358	331.315	373.070	344.755	312.662	64.036	335.802	281.551	64.379	349.764	328.660	253.597	69.490	59.635	85.665	368.637	0.00033559	0.0006036	6.5227e-05	1331.8	5.771e-06	9.1372e-06	1334	358.09	3.2489e-06	4.5059e-06	411.96	138.35	119.74	42.138	3.5812e-06	52.274	0.00043793	0.00043396	0.00012226	1342.4	4.7733e-06	4.8057e-06	1342	362.94	4.7866e-06	4.8137e-06	416.05	140.77	121.87	42.994	4.8392e-06	53.222	182.235	78.634	99.595	34.319	203.617	177.735	34.275	39.227	195.223	147.337	38.463	43.234	43.686	47.898	200.242	47.208	-8191	255	
20568.590	1	1	0	0	0.19034	0.27326	0.24261	0.34219	0.085493	0.19801	0.29275	0.29082	0.17917	0.1003	0.13476	0.23989	0.074681	0.25622	0.20922	0.21977	0.22708	-0.61875	-1.0292	-0.21875	-0.88958	-0.63958	-0.46667	-1.1521	-0.025	-0.46667	-1.0958	-0.16667	-1.1417	-0.59792	-0.38125	-1.0979	279.334	29.509	362.343	360.363	357.753	144.010	372.433	344.076	268.795	156.014	73.397	296.419	194.557	42.894	176.457	205.851	0.00031101	0.00047114	0.00011705	1333.6	4.7726e-06	4.1483e-06	1335.5	359.17	4.0234e-06	2.3951e-06	410.39	138.27	119.25	42.053	3.4348e-06	52.504	0.0004381	0.00043621	0.00012217	1341.5	4.851e-06	4.7888e-06	1343.9	363.07	4.8839e-06	4.7173e-06	415.03	140.44	121.54	42.924	4.7911e-06	53.277	197.932	98.594	117.487	34.134	184.530	189.919	34.491	39.265	194.625	205.437	38.709	43.271	44.003	47.762	209.437	47.409	-8191	255	
20568.711	1	1	0	0	0.15657	0.21001	0.029291	0.38016	0.2513	0.064333	0.17813	0.20165	0.024759	0.21105	0.17236	0.10433	0.4113	0.0867	0.057669	0.24803	0.070833	-0.4875	-0.95	-0.14375	-0.85625	-0.70833	-0.3625	-0.98958	-0.38125	-0.45208	-1.175	-0.19792	-0.79792	-0.95625	-0.23542	-1.2667	368.791	199.420	80.640	304.775	218.347	231.894	329.438	314.635	170.319	176.243	270.146	273.578	364.513	329.269	71.489	236.391	0.00031823	0.00020062	0.00020662	1328.4	3.1877e-06	2.9123e-06	1332.2	358.21	2.8232e-06	5.5635e-06	412.52	137.95	119.5	41.993	5.0771e-06	52.544	0.00043923	0.00043973	0.00012177	1338.4	4.8407e-06	4.7694e-06	1341.2	363.23	4.8474e-06	4.8265e-06	415.89	140.68	121.71	42.967	4.8638e-06	53.323	190.164	93.461	80.961	34.377	230.181	179.588	34.557	38.983	220.248	209.226	38.302	43.360	43.783	47.996	160.346	47.488	-8191	255	
20568.807	1	1	0	0	0.056808	0.020307	0.27986	0.14175	0.079502	0.26174	0.12303	0.17708	0.16125	0.22666	0.037996	0.12361	0.3046	0.032784	0.16226	0.072205	-0.052083	-0.3625	-1.1875	-0.33958	-0.775	-0.9375	-0.3125	-1.1313	-0.62292	-0.40833	-1.3333	-0.34792	-0.87083	-1.0292	-0.035417	-1.1354	122.038	162.457	56.560	321.820	148.989	307.958	105.554	340.276	303.981	250.869	35.272	26.529	22.289	148.988	174.090	33.984	0.00031584	0.00019142	0.00019313	1330.9	3.6333e-06	2.6069e-06	1332.3	357.94	2.9754e-06	7.2007e-06	409.88	136.73	119.46	42.063	5.7046e-06	52.316	0.00043539	0.00043639	0.00012131	1339.6	4.794e-06	4.6925e-06	1341.3	362.71	4.7297e-06	4.7944e-06	414.99	140.26	121.89	42.94	4.8078e-06	53.285	189.659	46.391	86.714	34.293	224.864	207.680	34.409	39.445	209.504	183.877	38.613	43.415	44.098	47.947	192.181	47.206	-8191	255	
20568.902	1	1	0	0	0.17118	0.24633	0.19993	0.24429	0.26314	0.13848	0.061755	0.24397	0.26065	0.12873	0.30893	0.19081	0.191	0.081777	0.12995	0.22192	-0.28333	-0.19167	-1	-0.39167	-0.65	-1.0417	-0.4125	-1.05	-0.75208	-0.22917	-1.1167	-0.39375	-0.57083	-1.3521	-0.41667	-1.1208	27.930	206.290	378.620	39.303	99.837	364.949	317.269	354.180	225.234	289.411	355.534	26.350	37.120	247.481	289.497	340.716	0.00028165	0.00048371	0.0001599	1328.5	4.3225e-06	2.8758e-06	1330.6	357.03	3.734e-06	4.7811e-06	410.72	138.49	119.5	42.073	6.2159e-06	52.303	0.00042935	0.00043378	0.0001202	1340.6	4.8206e-06	4.7604e-06	1340	362.69	4.7865e-06	4.732e-06	414.9	140.73	121.88	42.904	4.7316e-06	53.226	197.568	101.718	106.648	34.297	171.767	152.971	34.220	39.200	149.575	182.269	38.531	43.388	43.855	47.915	228.953	47.048	-8191	255	
20569.021	1	1	0	0	0.18817	0.17291	0.092076	0.47555	0.3048	0.3644	0.1525	0.41934	0.40577	0.094098	0.36495	0.25253	0.48797	0.3634	0.35729	0.11158	-0.4125	0.23333	-1.1271	-0.28542	-0.40625	-1.0604	-0.34167	-0.94167	-0.86458	-0.13958	-1.2042	-0.63333	-0.36667	-0.94167	-0.20833	-0.8375	317.859	146.887	309.969	353.189	105.621	309.032	270.903	350.395	307.944	355.835	50.175	366.203	344.255	29.093	52.341	308.669	0.00029532	0.00025427	0.00018639	1332.6	7.0078e-06	3.8408e-06	1331.3	358.02	3.8155e-06	7.3115e-06	409.73	138.05	119.53	42.189	6.3237e-06	52.553	0.00043536	0.00043706	0.0001213	1339.5	4.783e-06	4.7101e-06	1339	362.68	4.7436e-06	4.7488e-06	414.84	140.49	121.63	42.901	4.7144e-06	53.271	191.462	111.226	86.926	34.193	189.791	172.657	34.300	39.371	178.139	171.762	38.432	43.337	43.763	47.935	182.130	47.307	-8191	255	
20569.094	1	1	0	0	0.12938	0.25356	0.26232	0.18908	0.090885	0.15755	0.19206	0.21588	0.042459	0.10462	0.17467	0.037907	0.47776	0.28907	0.18562	0.23071	-0.58542	-0.08125	-0.8625	-0.63958	-0.3875	-1.1646	-0.34167	-0.82708	-0.75417	-0.31458	-1.1042	-0.78333	-0.25	-1.1625	-0.50625	-0.70208	341.266	301.446	132.716	319.913	70.058	64.967	324.527	289.438	47.923	278.234	373.761	23.651	21.905	60.771	120.915	210.350	0.00028648	0.00044823	0.00016702	1329.6	5.4747e-06	5.9554e-06	1329.7	357.95	3.4671e-06	5.0575e-06	409.46	137.55	119.06	42.044	4.2501e-06	52.32	0.00043473	0.00043598	0.00011822	1339.5	4.8153e-06	4.7125e-06	1340.7	362.63	4.6809e-06	4.8111e-06	415.67	140.36	121.64	42.878	4.7627e-06	53.174	185.264	96.923	104.563	34.284	162.971	148.460	34.299	39.105	236.597	151.274	38.452	43.368	43.835	47.662	187.277	47.317	-8191	255	
20569.189	1	1	0	0	0.058271	0.04825	0.14696	0.39932	0.26322	0.13678	0.25578	0.20241	0.17795	0.22241	0.15749	0.22109	0.081321	0.093576	0.095576	0.2913	-0.73125	-0.32917	-0.78958	-0.73958	-0.225	-0.92708	-0.66875	-0.51458	-1.1167	-0.24792	-1.1521	-0.79792	-0.28125	-1.1104	-0.33333	-0.60208	293.392	377.364	187.275	348.064	289.463	272.158	324.666	209.725	244.782	361.976	215.738	330.854	132.800	292.086	72.399	285.273	0.0002826	0.00035381	0.0001873	1329.7	6.118e-06	2.2916e-06	1334.8	358.16	6.1397e-06	4.6561e-06	411.03	137.42	119.29	42.182	4.993e-06	52.579	0.00042242	0.00043793	0.00011916	1339.2	4.7841e-06	4.7072e-06	1340.7	362.81	4.8281e-06	4.763e-06	414.98	140.25	121.66	42.949	4.7852e-06	53.353	192.659	67.415	82.071	34.164	188.932	135.872	34.422	39.124	187.303	191.528	38.529	43.150	43.838	47.856	208.773	47.458	-8191	255	
20569.311	1	1	0	0	0.18727	0.28117	0.37813	0.14847	0.10299	0.19266	0.26546	0.25135	0.18697	0.26087	0.18499	0.20403	0.11143	0.28452	0.30138	0.16237	-0.775	-0.11042	-0.97708	-1.125	-0.1875	-1.0812	-0.73125	-0.5625	-1.125	-0.32708	-1.0708	-1.0958	-0.19375	-1.0438	-0.78333	-0.46042	44.630	84.509	222.107	280.786	95.276	180.676	257.431	288.662	117.291	317.010	67.521	350.378	363.287	186.855	133.410	336.256	0.00032692	0.00055278	0.00018296	1326.9	5.9246e-06	7.4324e-06	1326.3	358.03	1.9345e-06	3.2272e-06	409.91	137.61	119.7	42.047	8.0961e-06	52.14	0.00043028	0.00043459	0.00011994	1338.8	4.7892e-06	4.7566e-06	1337.6	362.77	4.7575e-06	4.7583e-06	415.99	140.35	121.68	42.908	4.7879e-06	53.207	189.348	130.539	114.847	34.130	190.705	170.814	34.399	39.328	171.220	163.486	38.388	43.254	43.896	48.002	197.827	47.152	-8191	255	
20569.406	1	1	0	0	0.24389	0.34256	0.13849	0.23034	0.20824	0.05596	0.096481	0.38214	0.070248	0.27644	0.17498	0.32263	0.11076	0.31194	0.16669	0.043829	-0.52292	-0.2625	-0.77083	-1.0938	-0.35208	-1.1437	-0.73125	-0.43542	-1.1042	-0.13333	-0.62083	-1.05	-0.23958	-1.0021	-0.67292	-0.28125	375.301	56.269	164.677	286.622	53.305	226.271	376.791	325.987	233.283	69.401	69.387	314.097	39.244	346.150	294.703	205.039	0.00033172	0.00021319	0.00011275	1332.1	6.3912e-06	3.5638e-06	1331.3	357.54	4.3949e-06	1.0266e-06	410.72	137.93	119.39	42.133	1.7091e-06	52.183	0.00043595	0.00043447	0.00011986	1339.4	4.8403e-06	4.7093e-06	1340	362.24	4.7685e-06	4.7829e-06	415.89	140.38	121.61	43.017	4.7828e-06	53.173	192.949	148.792	49.074	34.396	171.090	158.323	34.375	39.282	215.655	113.479	38.603	43.411	43.805	47.982	146.868	47.325	-8191	255	
20569.502	1	1	0	0	0.26564	0.27878	0.12615	0.39203	0.15375	0.13224	0.1641	0.17863	0.14451	0.1454	0.27435	0.16262	0.19284	0.20732	0.046419	0.025969	-0.61042	-0.275	-0.29792	-1.1229	-0.25625	-1.0854	-0.94583	-0.25208	-1.2479	-0.60417	-0.44375	-1.0458	-0.29375	-0.73333	-0.91042	-0.29583	319.563	295.578	135.220	285.089	212.521	219.724	234.346	342.658	321.194	177.193	283.701	63.316	316.017	280.858	209.371	341.777	0.00029406	0.00034208	8.1074e-05	1327	2.0188e-06	3.7438e-06	1326.7	356.88	5.8489e-06	4.3951e-06	410.95	137.94	119.28	42.376	2.9569e-06	52.52	0.00042973	0.00043694	0.00012223	1338.7	4.752e-06	4.736e-06	1339.4	362.04	4.7234e-06	4.7978e-06	415.73	140.3	121.62	43.036	4.7614e-06	53.238	188.009	119.336	88.433	33.976	83.296	208.164	34.299	39.239	194.709	163.158	38.398	43.348	43.847	47.885	210.656	47.164	-8191	255	
20569.598	1	1	0	0	0.29257	0.1117	0.19711	0.22539	0.21098	0.23817	0.2556	0.22017	0.31637	0.33895	0.043943	0.15879	0.17763	0.24636	0.16311	0.25955	-0.7625	-0.44583	-0.20833	-1.2521	-0.23333	-0.96458	-1.175	-0.33542	-0.95	-0.48542	-0.19792	-1.1	-0.48542	-0.73333	-1.0375	-0.31042	376.371	238.556	352.162	319.438	120.378	150.217	32.479	328.191	177.346	360.548	249.806	314.696	290.728	367.617	61.276	312.523	0.00030905	0.00060428	0.0001465	1327.9	5.1849e-06	1.4441e-06	1329.8	357.12	4.1009e-06	3.2778e-06	412.09	137.77	119.15	42.254	5.0415e-06	52.23	0.00043243	0.00043598	0.00012015	1338.9	4.8736e-06	4.6711e-06	1340.3	362.24	4.7667e-06	4.802e-06	415.38	140.46	121.53	43.022	4.7048e-06	53.174	189.839	102.019	83.925	34.452	171.135	65.678	34.378	39.194	216.642	233.042	38.379	43.425	44.046	47.865	182.478	47.344	-8191	255	
20569.693	1	1	0	0	0.2309	0.27935	0.14501	0.35787	0.27286	0.20797	0.28312	0.16601	0.21179	0.34393	0.010677	0.25415	0.18716	0.26539	0.13588	0.15049	-0.67708	-0.71458	-0.18958	-1.0104	-0.32708	-0.50208	-1.1375	-0.24583	-0.99792	-0.59792	-0.19583	-1.1	-0.42917	-0.66458	-0.91042	-0.28125	244.424	108.069	164.366	45.793	99.033	234.984	368.645	362.704	38.877	97.438	291.020	340.563	74.939	298.167	194.363	378.161	0.00033259	0.00063656	0.00010383	1332.6	4.896e-06	6.5e-06	1331.6	357.85	4.5326e-06	5.2891e-06	411.16	137.91	119.69	42.135	6.2272e-06	52.2	0.00042896	0.00043292	0.00012089	1339.6	4.7692e-06	4.7561e-06	1340.2	362.12	4.7298e-06	4.7006e-06	414.86	140.39	121.75	42.928	4.8494e-06	53.155	195.754	133.527	91.868	34.131	201.323	141.863	34.416	39.240	241.416	186.743	38.532	43.446	43.842	47.871	199.500	47.311	-8191	255	
20569.789	1	1	0	0	0.164	0.22832	0.27902	0.2397	0.12392	0.088299	0.11933	0.39043	0.019582	0.19503	0.035486	0.27157	0.21075	0.062129	0.10845	0.25415	-0.34792	-0.70208	-0.12292	-1.35	-0.37083	-0.375	-1.3188	-0.30625	-0.73125	-0.9375	-0.22292	-1.1875	-0.64375	-0.56458	-1.2021	-0.43542	288.983	317.176	22.887	339.736	41.493	33.058	309.275	362.021	48.687	284.946	363.671	376.426	342.689	232.532	165.547	369.541	0.00031271	0.00025865	4.8589e-05	1331.1	2.8379e-06	1.3961e-06	1327.4	356.76	3.674e-06	8.6442e-06	410.48	137.87	119.13	42.271	2.7495e-06	52.332	0.00043261	0.00043595	0.00012295	1340	4.7819e-06	4.791e-06	1339.5	362.07	4.7869e-06	4.774e-06	414.88	140.49	121.39	42.917	4.7697e-06	53.194	187.021	92.149	86.745	34.401	193.897	105.858	34.311	39.132	217.562	177.234	38.555	43.600	43.606	48.125	172.904	47.142	-8191	255	
20569.887	1	1	0	0	0.31599	0.074144	0.24451	0.174	0.30187	0.23773	0.29839	0.23716	0.2581	0.034586	0.12507	0.094736	0.089985	0.10941	0.079862	0.26872	-0.32917	-0.74583	-0.13542	-1.3813	-0.45625	-0.43333	-1.4708	-0.45833	-0.6375	-1.1792	-0.18958	-1.1125	-0.83333	-0.34167	-1.0812	-0.36875	296.441	74.532	165.662	55.077	90.995	143.472	351.628	329.521	224.793	79.116	339.173	267.797	238.999	365.178	345.780	336.448	0.0003302	0.00028368	0.00023069	1332.2	6.3381e-06	2.0937e-06	1336	357.46	4.4362e-06	3.7291e-06	410.4	137.79	119.46	42.15	1.1769e-06	52.444	0.00043629	0.00043697	0.00012158	1340.4	4.7849e-06	4.7269e-06	1342.6	362.09	4.753e-06	4.7349e-06	415.29	140.29	121.53	42.943	4.7336e-06	53.196	187.116	119.281	98.293	34.309	181.281	185.493	34.590	39.328	192.347	159.083	38.513	43.460	43.867	48.010	204.096	47.131	-8191	255	
20569.982	1	1	0	0	0.085935	0.089699	0.12821	0.34173	0.11348	0.051115	0.12235	0.18256	0.047827	0.31609	0.22953	0.10863	0.39005	0.21261	0.17194	0.0323	-0.21667	-1.0583	-0.064583	-0.9375	-0.66875	-0.33958	-1.2583	-0.49792	-0.42708	-1.0438	-0.17917	-0.90833	-0.98542	-0.32083	-1.0708	-0.57708	371.521	357.568	327.136	353.737	369.041	311.472	354.286	375.931	220.842	366.672	335.996	60.737	375.422	58.585	337.363	264.686	0.00029849	0.00033904	0.00019115	1331.6	5.5357e-06	3.1912e-06	1334.7	356.32	3.2266e-06	6.4051e-06	408.71	137.72	119.68	42.088	3.201e-06	52.468	0.00042709	0.00043301	0.00012046	1339.7	4.8415e-06	4.7618e-06	1342.9	361.85	4.8095e-06	4.826e-06	414.77	140.52	121.52	42.891	4.7025e-06	53.286	195.175	124.455	97.286	34.480	201.640	188.929	34.737	39.433	185.758	169.980	38.624	43.532	43.966	47.728	241.624	47.371	-8191	255	
20570.102	1	1	0	0	0.11085	0.3783	0.20204	0.20979	0.13248	0.11856	0.20089	0.2086	0.016408	0.23814	0.080532	0.15314	0.18733	0.017767	0.29036	0.22944	0.0041667	-1.1708	-0.1125	-0.9875	-0.97708	-0.035417	-1.3083	-0.56458	-0.30625	-1.1167	-0.13542	-0.67083	-1.1354	-0.22708	-1.1604	-0.425	336.075	50.150	80.385	353.154	59.692	147.655	324.655	22.926	187.677	234.168	376.875	58.151	364.141	70.357	294.221	306.971	0.00031088	0.00015271	9.9211e-05	1330.3	6.4605e-06	4.1784e-06	1333.5	357.9	3.9102e-06	3.7754e-06	410.52	137.66	119.31	42.044	4.9981e-06	52.103	0.00043315	0.00043309	0.00012237	1340.4	4.8465e-06	4.8116e-06	1342.4	362.35	4.806e-06	4.7917e-06	415.67	140.5	121.65	42.934	4.755e-06	53.058	190.850	156.942	96.620	34.402	185.686	220.524	34.422	39.552	218.374	203.877	38.460	43.458	43.829	48.092	192.542	47.264	-8191	255	
20570.197	1	1	0	0	0.137	0.19639	0.21433	0.42766	0.1991	0.32197	0.27575	0.020503	0.25686	0.16642	0.23898	0.13071	0.40034	0.20789	0.093496	0.16681	0.058333	-1.1562	-0.29583	-0.8875	-1.0917	-0.25625	-1.0312	-0.60833	-0.24583	-1.0271	-0.52917	-0.39792	-1.0562	-0.25	-0.92292	-0.88125	271.486	90.359	90.849	365.846	91.213	240.912	327.500	220.661	168.073	65.683	321.487	205.050	55.659	53.623	254.027	316.048	0.0003495	0.00066113	0.00012571	1334.8	3.9008e-06	6.5965e-06	1337.8	357.13	6.592e-06	5.7408e-06	410.41	137.8	119.69	42.128	3.5286e-06	52.467	0.0004364	0.00043596	0.00012277	1342.3	4.8511e-06	4.775e-06	1344.3	362.49	4.8329e-06	4.7456e-06	415.11	140.6	121.6	42.963	4.7843e-06	53.301	187.973	76.894	75.864	34.565	211.061	188.412	34.607	39.524	200.474	208.963	38.535	43.539	43.952	47.988	230.986	47.359	-8191	255	
20570.295	1	1	0	0	0.21687	0.14819	0.23311	0.1645	0.13216	0.24529	0.31282	0.18184	0.16417	0.26412	0.16819	0.070811	0.30315	0.3137	0.089946	0.22913	0.175	-1.075	-0.40417	-0.80208	-0.97708	-0.32292	-0.91042	-0.8625	-0.19792	-1.2104	-0.70417	-0.425	-1.3375	-0.34792	-0.72292	-0.91042	204.992	116.270	276.379	256.160	280.917	235.643	369.257	306.859	211.743	300.153	364.031	117.918	58.857	49.935	167.552	331.868	0.00032408	0.000488	0.00011551	1329.2	4.624e-06	8.4362e-06	1331.7	357.51	4.3491e-06	4.1631e-06	410.3	138.01	119.34	42.169	5.8594e-06	52.438	0.00043532	0.00043504	0.00012192	1339.5	4.7102e-06	4.7673e-06	1341.7	362.38	4.7752e-06	4.7975e-06	415.1	140.45	121.67	42.89	4.7003e-06	53.217	196.529	130.716	76.684	34.561	239.017	173.575	34.615	39.263	180.249	180.103	38.706	43.591	44.260	48.040	168.236	47.289	-8191	255	
20570.391	1	1	0	0	0.11875	0.26773	0.1403	0.38017	0.21519	0.082156	0.32143	0.4072	0.15875	0.37821	0.1135	0.13967	0.23178	0.28133	0.20848	0.26295	0.19583	-1.0292	-0.42292	-0.38333	-1.0167	-0.43333	-0.87917	-1.0604	-0.11875	-0.94583	-0.675	-0.44167	-1.1854	-0.42292	-0.65208	-1.175	187.027	369.761	252.108	371.326	112.250	269.565	357.367	27.135	371.616	296.926	23.908	315.584	331.392	375.143	265.330	249.283	0.0003113	0.00025247	0.00019046	1331.7	6.2745e-06	2.6076e-06	1333.3	358.63	5.7263e-06	5.0178e-06	409.93	138.07	119.76	42.038	3.4769e-06	52.295	0.00043199	0.00043569	0.00012298	1341.5	4.6995e-06	4.8135e-06	1341.6	362.34	4.7608e-06	4.7693e-06	415.1	140.65	121.66	42.929	4.7853e-06	53.244	193.808	160.212	105.783	34.448	169.347	225.423	34.663	39.404	219.125	229.384	38.965	43.872	44.131	48.336	215.345	47.590	-8191	255	
20570.486	1	1	0	0	0.22906	0.17403	0.09963	0.25505	0.13865	0.22001	0.16199	0.13917	0.16405	0.23005	0.11405	0.29273	0.10241	0.23412	0.2206	0.098115	0.20833	-1.1583	-0.57292	-0.57917	-1.1521	-0.27917	-0.69375	-1.1292	-0.21042	-0.90417	-0.94792	-0.32708	-1.1313	-0.39792	-0.47083	-1.1146	269.127	268.496	343.414	279.069	156.007	359.779	294.343	24.290	260.256	169.205	22.867	368.490	335.639	337.804	199.080	92.410	0.00031785	0.00044943	0.00014772	1324.5	6.5712e-06	7.9001e-06	1331.7	358.17	2.4973e-06	3.6737e-06	411.52	137.69	119.39	42.205	1.109e-05	52.522	0.00043578	0.00043247	0.00012245	1338.6	4.7636e-06	4.7758e-06	1340.8	362.33	4.8071e-06	4.688e-06	415.69	140.56	121.53	42.974	4.836e-06	53.227	179.277	111.802	139.233	34.598	191.119	140.474	34.629	39.408	222.023	224.524	38.674	43.629	43.973	48.009	177.858	47.520	-8191	255	
20570.582	1	1	0	0	0.083721	0.13865	0.09811	0.56546	0.12926	0.2937	0.18242	0.42387	0.22592	0.22029	0.056612	0.22558	0.16626	0.16415	0.27833	0.32042	0.175	-0.86042	-0.925	-0.49583	-0.93333	-0.3	-0.60625	-1.2708	-0.077083	-0.86042	-1.1771	-0.16875	-1.2	-0.63542	-0.3625	-1.1187	229.316	187.190	239.833	363.518	326.033	296.929	297.395	327.271	185.111	79.868	300.991	352.807	58.730	378.679	51.500	307.129	0.000313	0.00040158	0.0001531	1329.7	4.7451e-06	5.6121e-06	1331.5	357.37	4.4393e-06	8.1696e-06	411.14	137.93	119.25	42.183	6.6597e-06	52.461	0.00042878	0.00043411	0.0001207	1340.3	4.7328e-06	4.7156e-06	1340.2	362.22	4.7392e-06	4.6867e-06	415.41	140.51	121.44	42.918	4.7921e-06	53.211	200.659	114.735	85.739	34.768	187.236	193.227	34.799	39.464	218.033	207.383	38.898	43.720	44.289	48.171	210.846	47.551	-8191	255	
20570.703	1	1	0	0	0.17716	0.18516	0.2143	0.12239	0.050992	0.071678	0.1557	0.10455	0.11054	0.29958	0.36828	0.26865	0.22499	0.20478	0.071873	0.15696	0.014583	-0.625	-0.90833	-0.26667	-0.95625	-0.64792	-0.49583	-0.975	-0.4375	-0.59792	-1.3021	-0.425	-1.0625	-0.86458	-0.14583	-1.2146	136.994	145.584	330.260	48.587	50.902	308.248	343.413	357.983	50.320	60.256	58.448	334.451	374.095	354.175	356.180	299.317	0.00032555	0.00021888	0.00013695	1333.4	6.6967e-06	3.3824e-06	1329.6	357.02	6.377e-06	8.697e-06	408.3	137.82	119.37	42.164	5.5601e-06	52.495	0.00043579	0.00043162	0.00012107	1340.5	4.7173e-06	4.7546e-06	1338.8	362.51	4.7539e-06	4.6706e-06	414.65	140.39	121.53	42.942	4.7735e-06	53.315	194.432	127.358	113.491	34.540	186.208	135.940	34.973	39.536	218.882	169.248	38.724	43.738	44.533	48.007	186.878	47.464	-8191	255	
20570.799	1	1	0	0	0.086132	0.10569	0.20671	0.20523	0.090086	0.090034	0.37545	0.21343	0.22615	0.11948	0.050639	0.131	0.19018	0.037172	0.057779	0.13466	-0.125	-0.65208	-1.0458	-0.49583	-0.88125	-0.85	-0.39167	-1.2	-0.2625	-0.41042	-1.1208	-0.40833	-0.9375	-0.9125	-0.25833	-1.2292	74.413	64.813	88.950	288.280	286.801	40.970	329.630	337.693	207.426	127.740	114.925	288.790	214.755	311.513	87.534	233.948	0.00032388	0.00031665	0.00014104	1334.7	3.89e-06	8.0206e-06	1334.6	357.76	3.7444e-06	5.5436e-06	412.07	138.34	119.6	42.147	6.7183e-06	52.628	0.0004275	0.00043389	0.00012179	1340.8	4.6731e-06	4.665e-06	1340.1	362.48	4.6885e-06	4.6668e-06	415.22	140.52	121.77	42.958	4.7929e-06	53.306	189.486	159.219	130.770	34.502	186.645	185.363	34.542	39.279	190.271	167.552	38.715	43.714	44.124	48.147	213.493	47.723	-8191	255	
20570.893	1	1	0	0	0.076048	0.32733	0.26613	0.19447	0.38279	0.27498	0.18133	0.25747	0.30931	0.18699	0.10673	0.073428	0.23458	0.24383	0.053286	0.33822	-0.175	-0.25	-0.97917	-0.325	-1.05	-1.0354	-0.39167	-1.1729	-0.49167	-0.43958	-1.3792	-0.4125	-0.80417	-1.1187	-0.32292	-1.1396	41.273	364.607	342.623	39.205	319.503	238.439	358.001	39.801	37.571	70.646	303.595	86.141	313.117	350.499	161.290	328.507	0.00027265	0.00041137	9.5661e-05	1331.8	5.0918e-06	1.4168e-06	1337.2	358.9	7.4442e-06	3.6517e-06	411.02	137.6	119.78	42.022	4.4862e-06	52.379	0.00043166	0.00042823	0.00011965	1340.5	4.7435e-06	4.7871e-06	1342.1	363.25	4.7186e-06	4.7887e-06	415.3	140.44	121.7	42.908	4.7431e-06	53.203	180.396	113.507	75.594	34.475	191.963	137.831	34.639	39.482	212.639	131.856	38.767	43.406	44.080	48.185	179.995	47.350	-8191	255	
#DATA ENDS
