BOXY.EXE: ISS Imagent and Oximeter Data Acquisition Program Version 0.80
Ascii Record File

#ACQ INFORMATION
2  Detector Channels 
16  External MUX Channels 
1  Auxiliary Channels 
5000  Waveform (CCF) Frequency (Hz)
1  Waveforms Skipped 
30  Waveforms Averaged 
1  Cycles Averaged 
16  Acquisitions per Waveform 
10.0806  Updata Rate (Hz) 

#FILE INFORMATION
TRUE -- External MUX Channel results are PARSED.
FALSE -- AC DC and Phase are NOT grouped.
TRUE -- Companion Program Settings File CREATED.
FALSE -- AC data not excluded
FALSE -- DC data not excluded
FALSE -- Phase data not excluded
FALSE -- Auxillary Chn. data not excluded
Tab delimiters

#CALIBRATION STATE
TRUE -- Waveform Calibration Values APPLIED.


#AUX CALIBRATION VALUES
Val Type	aux-1	

Term	1.0000e+00	
Factor	0.0000e+00	


#WF CALIBRATION VALUES
A = Detector Channel
Val Type	A-AC1	A-AC2	A-AC3	A-AC4	A-AC5	A-AC6	A-AC7	A-AC8	A-AC9	A-AC10	A-AC11	A-AC12	A-AC13	A-AC14	A-AC15	A-AC16	A-DC1	A-DC2	A-DC3	A-DC4	A-DC5	A-DC6	A-DC7	A-DC8	A-DC9	A-DC10	A-DC11	A-DC12	A-DC13	A-DC14	A-DC15	A-DC16	A-Ph1	A-Ph2	A-Ph3	A-Ph4	A-Ph5	A-Ph6	A-Ph7	A-Ph8	A-Ph9	A-Ph10	A-Ph11	A-Ph12	A-Ph13	A-Ph14	A-Ph15	A-Ph16	

Term	0.00000e+00	0.00000e+00	0.00000e+00	0.00000e+00	0.00000e+00	0.00000e+00	0.00000e+00	0.00000e+00	0.00000e+00	0.00000e+00	0.00000e+00	0.00000e+00	0.00000e+00	0.00000e+00	0.00000e+00	0.00000e+00	0.00000e+00	0.00000e+00	0.00000e+00	0.00000e+00	0.00000e+00	0.00000e+00	0.00000e+00	0.00000e+00	0.00000e+00	0.00000e+00	0.00000e+00	0.00000e+00	0.00000e+00	0.00000e+00	0.00000e+00	0.00000e+00	0.00000e+00	0.00000e+00	0.00000e+00	0.00000e+00	0.00000e+00	0.00000e+00	0.00000e+00	0.00000e+00	0.00000e+00	0.00000e+00	0.00000e+00	0.00000e+00	0.00000e+00	0.00000e+00	0.00000e+00	0.00000e+00	
Factor	1.00000e+00	1.00000e+00	1.00000e+00	1.00000e+00	1.00000e+00	1.00000e+00	1.00000e+00	1.00000e+00	1.00000e+00	1.00000e+00	1.00000e+00	1.00000e+00	1.00000e+00	1.00000e+00	1.00000e+00	1.00000e+00	1.00000e+00	1.00000e+00	1.00000e+00	1.00000e+00	1.00000e+00	1.00000e+00	1.00000e+00	1.00000e+00	1.00000e+00	1.00000e+00	1.00000e+00	1.00000e+00	1.00000e+00	1.00000e+00	1.00000e+00	1.00000e+00	X	X	X	X	X	X	X	X	X	X	X	X	X	X	X	X	

B = Detector Channel
Val Type	B-AC1	B-AC2	B-AC3	B-AC4	B-AC5	B-AC6	B-AC7	B-AC8	B-AC9	B-AC10	B-AC11	B-AC12	B-AC13	B-AC14	B-AC15	B-AC16	B-DC1	B-DC2	B-DC3	B-DC4	B-DC5	B-DC6	B-DC7	B-DC8	B-DC9	B-DC10	B-DC11	B-DC12	B-DC13	B-DC14	B-DC15	B-DC16	B-Ph1	B-Ph2	B-Ph3	B-Ph4	B-Ph5	B-Ph6	B-Ph7	B-Ph8	B-Ph9	B-Ph10	B-Ph11	B-Ph12	B-Ph13	B-Ph14	B-Ph15	B-Ph16	

Term	0.00000e+00	0.00000e+00	0.00000e+00	0.00000e+00	0.00000e+00	0.00000e+00	0.00000e+00	0.00000e+00	0.00000e+00	0.00000e+00	0.00000e+00	0.00000e+00	0.00000e+00	0.00000e+00	0.00000e+00	0.00000e+00	0.00000e+00	0.00000e+00	0.00000e+00	0.00000e+00	0.00000e+00	0.00000e+00	0.00000e+00	0.00000e+00	0.00000e+00	0.00000e+00	0.00000e+00	0.00000e+00	0.00000e+00	0.00000e+00	0.00000e+00	0.00000e+00	-1.92451e+02	-1.27396e+02	-1.21933e+02	-1.81702e+02	-8.52248e+01	-7.17860e+01	-1.59827e+02	-1.62015e+02	-9.79175e+01	-6.25268e+01	-1.72064e+02	-1.71235e+02	-1.81225e+02	-1.77148e+02	-7.86684e+01	-1.49556e+02	
Factor	3.17922e-05	1.27293e-04	3.00469e-05	1.53336e-01	1.19824e-06	1.32970e-06	1.61206e-01	4.07326e-02	1.19885e-06	1.02860e-06	6.92827e-02	2.47474e-02	3.05553e-02	7.28990e-03	1.03716e-06	1.04097e-02	2.12434e-06	2.26520e-06	6.27488e-07	8.18888e-02	2.46237e-08	2.48108e-08	8.10272e-02	2.18854e-02	2.46444e-08	2.48727e-08	3.58425e-02	1.28119e-02	1.63559e-02	3.93248e-03	2.46604e-08	5.42419e-03	X	X	X	X	X	X	X	X	X	X	X	X	X	X	X	X	



#DISTANCE SETTINGS
A = Detector Channel
A-1	A-2	A-3	A-4	A-5	A-6	A-7	A-8	A-9	A-10	A-11	A-12	A-13	A-14	A-15	A-16	

2.5000e+00	3.0000e+00	2.5000e+00	3.0000e+00	2.0000e+00	3.0000e+00	1.5000e+00	3.0000e+00	3.0000e+00	3.0000e+00	3.0000e+00	3.0000e+00	3.0000e+00	3.0000e+00	1.5000e+00	3.0000e+00	

B = Detector Channel
B-1	B-2	B-3	B-4	B-5	B-6	B-7	B-8	B-9	B-10	B-11	B-12	B-13	B-14	B-15	B-16	

1.0000e+01	1.0000e+01	1.0000e+01	1.4400e+00	1.0000e+01	1.0000e+01	1.5100e+00	1.9400e+00	1.0000e+01	1.0000e+01	1.9900e+00	2.4900e+00	2.4100e+00	2.9000e+00	1.0000e+01	2.9800e+00	




#DATA BEGINS
time	group	step	mark	flag	A-AC1	A-AC2	A-AC3	A-AC4	A-AC5	A-AC6	A-AC7	A-AC8	A-AC9	A-AC10	A-AC11	A-AC12	A-AC13	A-AC14	A-AC15	A-AC16	A-DC1	A-DC2	A-DC3	A-DC4	A-DC5	A-DC6	A-DC7	A-DC8	A-DC9	A-DC10	A-DC11	A-DC12	A-DC13	A-DC14	A-DC15	A-DC16	A-Ph1	A-Ph2	A-Ph3	A-Ph4	A-Ph5	A-Ph6	A-Ph7	A-Ph8	A-Ph9	A-Ph10	A-Ph11	A-Ph12	A-Ph13	A-Ph14	A-Ph15	A-Ph16	B-AC1	B-AC2	B-AC3	B-AC4	B-AC5	B-AC6	B-AC7	B-AC8	B-AC9	B-AC10	B-AC11	B-AC12	B-AC13	B-AC14	B-AC15	B-AC16	B-DC1	B-DC2	B-DC3	B-DC4	B-DC5	B-DC6	B-DC7	B-DC8	B-DC9	B-DC10	B-DC11	B-DC12	B-DC13	B-DC14	B-DC15	B-DC16	B-Ph1	B-Ph2	B-Ph3	B-Ph4	B-Ph5	B-Ph6	B-Ph7	B-Ph8	B-Ph9	B-Ph10	B-Ph11	B-Ph12	B-Ph13	B-Ph14	B-Ph15	B-Ph16	aux-1	digaux	

7515.373	1	1	0	256	0.25732	0.23383	0.25279	0.31142	0.15445	0.013805	0.26019	0.095455	0.15103	0.060406	0.099553	0.14277	0.16283	0.24283	0.29249	0.11578	-0.42708	-0.06875	-0.19583	-0.96875	0.19167	-0.62292	-0.90417	-0.070833	-0.85625	-0.15	-0.35208	-1.0083	-0.25	-0.54792	-0.53542	0.10208	-97.428	99.714	73.680	212.100	252.606	-81.130	202.807	204.069	53.838	-72.108	-99.515	56.166	235.945	-42.486	177.669	129.842	0.00015087	0.00032867	6.7779e-05	899.66	1.2465e-06	3.504e-06	983.2	192.08	3.4355e-06	3.0454e-06	243.24	68.404	53.862	15.957	2.328e-06	22.464	0.00016681	0.00018707	4.6247e-05	878.14	1.832e-06	2.003e-06	963.53	188.95	1.8591e-06	1.9943e-06	240.09	68.605	53.998	16.151	1.7838e-06	22.64	127.116	-49.075	-10.578	-90.333	248.788	28.107	-90.738	-82.452	-1.653	91.834	-83.366	-76.633	-76.686	-68.844	-55.782	-69.445	-8191	255	
7515.469	1	1	0	0	0.21276	0.10573	0.19672	0.41933	0.35242	0.064058	0.20688	0.13309	0.13901	0.048105	0.22052	0.087306	0.14582	0.23516	0.17605	0.12231	-0.20833	-0.28125	0.04375	-0.74583	0.225	-0.24167	-0.72083	0.14167	-0.59583	-0.35833	0.0020833	-0.68542	0.05	-0.17292	-0.62292	0.085417	236.553	-65.320	-21.763	222.454	57.957	70.067	228.119	-62.481	43.765	224.425	246.437	187.060	65.503	207.496	80.717	243.405	0.00014834	9.1422e-05	4.6613e-05	895.84	2.5323e-06	2.9633e-06	975.23	190.33	2.5878e-06	3.2445e-06	242.82	68.431	53.953	16.013	2.8831e-06	22.496	0.00017776	0.00018045	4.4061e-05	875.51	2.0047e-06	1.9182e-06	960.57	189.07	1.9892e-06	1.9675e-06	239.71	68.539	53.857	16.124	1.7818e-06	22.621	148.235	0.062	-0.363	-90.556	164.579	44.758	-90.463	-82.874	-46.079	78.566	-83.232	-76.404	-76.654	-68.068	34.113	-69.969	-8191	255	
7515.566	1	1	0	0	0.16186	0.084195	0.052667	0.11416	0.23681	0.14178	0.28887	0.21703	0.23213	0.15253	0.13873	0.17903	0.34732	0.14472	0.11401	0.20751	-0.25833	-0.3375	0.13542	-1.0354	-0.2	-0.23542	-0.98333	-0.016667	-0.51667	-0.34375	0.1625	-0.82917	0.11875	-0.17708	-0.7875	0.022917	0.981	140.939	111.167	186.445	28.052	-64.350	124.142	194.393	-23.900	119.618	221.576	105.075	151.450	237.337	90.783	196.801	0.0001124	0.00024707	6.1514e-05	895.89	1.2051e-06	4.9979e-06	977.98	189.88	4.2678e-06	1.604e-06	244.79	68.586	54.132	16.018	1.7272e-06	22.558	0.00018746	0.00017805	4.3665e-05	875.14	2.0727e-06	1.8664e-06	959.71	188.32	2.0315e-06	1.8543e-06	239.99	68.573	53.915	16.07	1.7841e-06	22.691	132.721	-39.833	-81.131	-90.445	162.584	68.129	-90.295	-82.864	-78.822	89.871	-83.293	-77.032	-76.825	-69.110	65.434	-69.670	-8191	255	
7515.662	1	1	0	0	0.044117	0.091264	0.24385	0.32968	0.13052	0.07513	0.19438	0.20141	0.28755	0.069971	0.06342	0.15566	0.19637	0.3221	0.14737	0.20385	-0.24583	-0.5875	0.066667	-0.92083	0.04375	0.0125	-0.98333	-0.010417	-0.37708	-0.58333	0.029167	-0.76458	-0.33333	-0.09375	-0.775	-0.075	101.124	93.997	38.671	58.532	200.114	-55.265	167.754	237.424	1.990	191.672	89.192	202.766	-97.636	126.675	-25.349	228.480	0.00016525	0.00010253	8.7921e-05	895.93	2.7632e-06	5.0367e-06	978.95	192.19	1.9012e-06	3.5543e-06	244.53	68.448	53.802	15.912	1.8877e-06	22.638	0.00018906	0.00016736	4.1965e-05	876.42	2.023e-06	1.7626e-06	959.1	189.11	1.9858e-06	1.77e-06	239.77	68.63	53.756	16.039	1.6915e-06	22.713	139.085	-48.714	2.461	-90.682	-21.171	48.832	-90.588	-82.824	-73.633	75.217	-83.725	-77.021	-76.332	-68.836	48.978	-69.085	-8191	255	
7515.758	1	1	0	0	0.080048	0.10882	0.21825	0.14395	0.31532	0.076723	0.17874	0.15105	0.15677	0.18953	0.085694	0.23485	0.33407	0.19028	0.050752	0.19445	0.066667	-0.61875	0.097917	-0.75833	-0.25417	0.125	-1.0167	-0.19792	-0.25833	-0.69583	0.0125	-0.75625	-0.42708	0.077083	-0.96667	-0.15208	254.708	114.603	111.432	205.124	-40.376	152.476	-80.846	-76.633	-68.905	-40.549	108.993	-4.587	131.750	-47.570	-93.778	120.207	0.00011882	0.00043865	8.7007e-05	894.85	4.2868e-06	5.3798e-06	979.87	191.25	1.4556e-06	2.335e-06	242.78	68.76	54.243	16.039	1.7412e-06	22.395	0.00017814	0.0001625	4.2098e-05	874.9	1.9511e-06	1.7195e-06	958.65	188.95	1.8876e-06	1.7276e-06	239.26	68.624	53.591	16.063	1.7358e-06	22.608	123.516	-21.198	-12.642	-90.586	36.534	32.537	-90.490	-82.822	68.168	114.876	-83.543	-76.854	-75.956	-68.901	69.208	-69.732	-8191	255	
7515.879	1	1	0	0	0.013115	0.27401	0.1258	0.28645	0.15041	0.09814	0.35738	0.13338	0.20565	0.090056	0.11752	0.30733	0.22449	0.14884	0.22866	0.081475	0.10625	-0.6375	-0.0041667	-0.75417	-0.43125	0.19792	-1.0854	-0.10833	-0.075	-0.91667	-0.033333	-0.43542	-0.63958	0.11667	-0.6	-0.072917	230.222	30.899	130.776	-70.245	168.452	127.783	246.299	81.735	-97.613	152.830	203.161	-92.781	68.615	-31.763	203.837	215.687	0.00016219	0.00012706	6.1205e-05	890.99	2.8315e-06	1.7284e-06	972.13	190.68	4.0808e-06	4.426e-06	242.93	68.283	53.605	15.947	2.4421e-07	22.225	0.00016809	0.00015667	4.6177e-05	873.03	1.8256e-06	1.675e-06	956.79	188.5	1.8382e-06	1.7717e-06	239.33	68.497	53.346	16.01	1.8655e-06	22.498	129.629	38.616	15.004	-90.731	-24.915	60.923	-90.103	-82.648	17.963	64.982	-83.579	-76.858	-76.951	-68.628	29.074	-69.474	-8191	255	
7515.975	1	1	0	0	0.14196	0.15586	0.21654	0.17207	0.076559	0.052096	0.063317	0.044589	0.19484	0.091766	0.19418	0.30947	0.16783	0.23416	0.082401	0.13759	0.42083	-0.69375	0.054167	-0.38125	-0.55625	0	-0.9875	-0.375	0.11042	-0.8	-0.016667	-0.30625	-0.67917	0.20625	-0.7875	-0.3125	-82.079	-57.785	129.050	49.273	-54.988	23.942	5.282	120.813	130.875	245.572	152.890	-66.420	112.181	257.174	142.648	6.485	0.00015782	0.00048797	7.3763e-05	888.16	3.8247e-06	4.7714e-06	973.66	191.29	1.7169e-06	1.5463e-06	242.77	68.52	54.107	15.857	9.4133e-07	22.513	0.00016068	0.00015658	4.7213e-05	871.4	1.8024e-06	1.6558e-06	955.58	188.75	1.7315e-06	1.7369e-06	239.44	68.491	53.629	15.98	1.9361e-06	22.598	131.264	-7.077	12.257	-90.117	77.628	32.521	-90.403	-82.916	243.777	6.193	-83.439	-76.577	-76.390	-68.877	182.711	-69.612	-8191	255	
7516.046	1	1	0	0	0.22977	0.081299	0.11949	0.24039	0.29487	0.13209	0.15742	0.17399	0.097341	0.29724	0.25998	0.056148	0.097698	0.070012	0.013819	0.20282	0.4375	-0.66875	0.14375	-0.25208	-0.60833	0.21667	-0.70417	-0.46458	0.31667	-0.65417	-0.32917	-0.22292	-0.69375	-0.01875	-0.4	-0.62292	257.643	62.302	85.570	190.491	-72.973	207.727	229.381	13.979	-14.610	166.941	154.370	14.227	98.813	-5.778	-82.508	-100.428	0.00010232	0.00041391	7.408e-05	893.46	2.1004e-06	1.5158e-06	970.85	190.2	4.0701e-06	9.316e-07	241.42	68.7	53.556	15.969	3.1922e-06	22.45	0.00015865	0.00015873	5.0928e-05	873.28	1.7361e-06	1.7254e-06	955.96	188.25	1.7359e-06	1.7345e-06	238.81	68.333	53.485	16.024	2.0462e-06	22.556	125.605	24.773	33.926	-90.415	-12.444	40.722	-90.252	-82.913	-20.110	53.098	-83.380	-76.819	-77.029	-68.521	43.378	-69.533	-8191	255	
7516.167	1	1	0	0	0.19262	0.1012	0.25864	0.11979	0.091903	0.1985	0.2126	0.0075891	0.066763	0.15402	0.19157	0.30438	0.3116	0.039455	0.25142	0.098338	0.34375	-0.61667	-0.15	-0.3375	-0.80833	0.21458	-0.70625	-0.61042	0.06875	-0.72917	-0.35	0.097917	-0.76875	-0.00625	-0.39583	-0.62083	185.490	121.022	104.686	-80.443	117.040	83.669	214.926	154.114	-21.865	198.215	-73.302	160.216	6.895	-56.414	-77.578	-55.810	0.00016163	0.00024341	0.00010113	888.9	1.6025e-06	2.5692e-06	977.35	189.22	3.1394e-06	9.2845e-07	243.32	68.23	53.598	15.853	2.9485e-06	22.251	0.00016058	0.00016146	5.04e-05	870.93	1.7396e-06	1.8109e-06	957.49	188	1.7349e-06	1.9021e-06	239.29	68.114	53.368	16.075	1.9422e-06	22.526	170.356	-3.085	12.018	-90.447	-25.648	48.249	-90.344	-82.787	7.932	116.241	-83.767	-76.964	-76.359	-68.549	33.334	-69.280	-8191	255	
7516.261	1	1	0	0	0.092524	0.31911	0.010006	0.10045	0.31866	0.037851	0.17978	0.10557	0.10632	0.27349	0.17366	0.11089	0.3413	0.37274	0.12817	0.31057	0.50208	-0.65833	-0.079167	-0.15417	-0.98125	0.014583	-0.4375	-0.82083	0.1625	-0.59792	-0.48125	-0.016667	-0.8125	-0.08125	-0.17917	-0.83125	173.521	214.934	166.904	-93.549	2.459	164.449	166.247	-28.192	-86.364	53.869	3.245	114.625	165.779	105.369	166.423	80.640	0.00019041	5.1619e-05	0.00010109	885.41	1.0139e-06	2.7984e-06	963.07	189.55	2.6191e-06	3.2808e-06	239.59	68.131	53.497	15.862	3.5725e-07	22.344	0.00015829	0.00018107	5.0313e-05	868.57	1.7659e-06	1.991e-06	952.35	187.64	1.7535e-06	2.001e-06	237.83	68.365	53.375	16.01	1.8744e-06	22.519	142.239	64.149	-8.725	-90.387	3.197	-45.004	-90.092	-82.951	-33.036	113.399	-83.254	-76.790	-76.224	-68.836	-59.100	-69.208	-8191	255	
7516.359	1	1	0	0	0.15524	0.15623	0.1675	0.23856	0.087167	0.041509	0.10775	0.25672	0.22918	0.093618	0.37511	0.36863	0.071028	0.097093	0.062441	0.055804	0.53125	-0.51042	-0.41875	0.0125	-0.6375	-0.075	-0.37708	-0.9375	0.058333	-0.41042	-0.61042	0.047917	-0.8625	-0.2	0.15208	-0.81875	31.653	30.801	12.150	-97.848	-91.177	235.137	152.231	204.568	125.311	198.746	122.790	241.771	-92.892	228.102	-15.652	-93.491	0.00012069	0.00017284	7.8344e-05	885.95	1.042e-06	1.9039e-06	969.3	190.69	2.0586e-06	3.4097e-06	240.53	67.882	53.581	15.817	3.2626e-06	22.097	0.00016606	0.00018618	4.7616e-05	868.07	1.8493e-06	2.1006e-06	954.99	188.57	1.8755e-06	2.0941e-06	238.17	68.068	53.453	16.038	1.7806e-06	22.483	131.105	38.772	4.156	-90.327	-59.606	61.349	-90.516	-82.853	34.570	43.875	-83.229	-76.484	-76.504	-68.856	-43.329	-69.452	-8191	255	
7516.478	1	1	0	0	0.12422	0.23685	0.071652	0.11981	0.18083	0.16139	0.47263	0.11139	0.11311	0.39158	0.10924	0.19875	0.18412	0.089477	0.15356	0.069839	0.3625	-0.61875	-0.49583	-0.13958	-0.78958	-0.25417	-0.027083	-0.76667	0.13333	-0.39792	-0.69792	0.014583	-0.6375	-0.2875	-0.066667	-0.67917	230.418	80.045	125.766	197.144	-25.551	242.735	193.971	132.250	-28.337	55.706	201.943	44.936	173.357	204.612	184.152	175.187	0.00016217	0.00045386	8.8992e-05	895.7	9.698e-07	1.8123e-06	970.38	191.06	3.5635e-06	2.7382e-06	240.53	68.37	53.326	15.87	7.4583e-07	22.278	0.00017813	0.0001867	4.6967e-05	873.04	1.9881e-06	1.9972e-06	955.01	188.52	1.9897e-06	1.9957e-06	238.19	68.377	53.645	16.052	1.7631e-06	22.533	148.003	-16.374	33.487	-90.463	163.867	79.829	-90.331	-82.869	231.613	-5.946	-83.120	-77.067	-76.165	-68.678	225.262	-69.452	-8191	255	
7516.574	1	1	0	0	0.10617	0.066898	0.11843	0.34096	0.10817	0.16431	0.2345	0.40148	0.1607	0.18971	0.051387	0.27529	0.22907	0.039125	0.070808	0.11417	0.30625	-0.16875	-0.58958	0.12708	-0.61042	-0.20625	-0.26667	-0.97083	-0.0625	-0.27083	-0.88542	0.21875	-0.79167	-0.3625	0.12292	-0.65833	69.943	207.309	219.662	212.173	90.592	98.262	182.270	-43.269	127.324	-50.648	-12.177	37.007	225.667	245.547	-61.329	133.036	0.00011628	0.00060446	6.3811e-05	886.48	2.548e-06	3.1694e-06	973.48	190.87	1.5723e-06	2.2519e-06	242.02	68.426	53.771	15.9	2.7974e-06	22.417	0.00019139	0.0001779	4.551e-05	870.1	2.0667e-06	1.9657e-06	957.37	188.71	2.093e-06	1.8565e-06	238.92	68.369	53.76	16.039	1.7218e-06	22.604	114.933	0.354	43.430	-90.319	57.639	70.599	-90.495	-82.842	137.996	-43.563	-83.539	-76.680	-76.577	-68.874	44.071	-69.653	-8191	255	
7516.646	1	1	0	0	0.1509	0.30672	0.11019	0.3684	0.18313	0.08146	0.28665	0.13084	0.15132	0.056015	0.044891	0.28542	0.33754	0.1553	0.14371	0.11085	0.16667	-0.10833	-0.69583	-0.085417	-0.53958	-0.55417	-0.375	-0.96042	-0.029167	-0.11458	-0.97917	0.010417	-0.45	-0.40208	0.066667	-0.9	114.881	169.802	-80.095	175.396	-62.820	129.456	205.115	216.831	153.330	61.140	-64.774	-70.975	-86.452	-29.017	63.461	-19.719	0.00016522	0.00060347	5.8228e-05	891.04	1.2743e-06	5.5401e-06	976.27	191.41	2.4064e-06	1.5957e-06	241.89	68.761	54.325	15.859	2.8169e-06	22.509	0.00019254	0.00016972	4.5962e-05	872.64	2.0641e-06	1.8879e-06	958.82	189.3	2.1497e-06	1.8092e-06	239.12	68.526	53.924	15.99	1.7288e-06	22.702	135.600	-1.466	-7.113	-90.465	-21.621	44.883	-90.382	-82.932	13.695	-40.846	-83.490	-76.795	-76.324	-68.527	34.934	-69.529	-8191	255	
7516.767	1	1	0	0	0.11582	0.087578	0.38515	0.19692	0.057693	0.27586	0.30607	0.074319	0.087028	0.1463	0.013059	0.051404	0.22764	0.20277	0.085562	0.12099	0.16875	-0.04375	-0.64583	0.010417	-0.50417	-0.54375	-0.1875	-0.82917	-0.44792	0.125	-0.93125	0.075	-0.37083	-0.72708	-0.03125	-0.61458	221.945	31.855	31.496	149.059	223.360	14.272	213.097	-19.053	4.785	125.337	115.217	-83.060	10.348	32.107	145.312	74.331	0.00019551	0.00042023	0.00010056	895.68	5.8081e-07	2.1558e-06	977.57	192.44	1.0035e-06	3.4185e-06	241.33	68.301	54.1	15.969	2.6012e-06	22.466	0.0001909	0.00016507	4.383e-05	875.62	1.9765e-06	1.835e-06	959.67	189.37	2.0441e-06	1.7599e-06	238.58	68.557	53.779	16.073	1.733e-06	22.689	129.634	-45.633	7.814	-90.399	241.831	104.072	-90.467	-83.152	115.897	71.205	-83.305	-76.721	-75.748	-68.768	3.822	-69.613	-8191	255	
7516.863	1	1	0	0	0.20902	0.26783	0.094788	0.21133	0.067651	0.14603	0.26405	0.062545	0.05723	0.1973	0.33289	0.061738	0.15355	0.20305	0.095092	0.28466	0.0375	0.077083	-0.67083	-0.10833	-0.19375	-0.8125	0.020833	-0.38958	-0.40625	0.20833	-0.78125	-0.11042	-0.29167	-0.79792	-0.064583	-0.52917	-92.914	8.074	73.807	-95.300	52.565	-92.188	201.489	67.490	-7.950	-48.888	190.862	105.709	219.316	220.770	-54.691	22.746	0.00016837	0.00052844	7.3115e-05	898.96	4.0536e-06	2.496e-07	980.21	192.14	3.125e-06	2.2833e-06	241.33	68.123	53.905	15.854	1.7191e-06	22.096	0.00017553	0.00015894	4.5115e-05	876.91	1.8389e-06	1.7963e-06	961.16	189.79	1.9368e-06	1.7497e-06	239.31	68.425	53.689	16.016	1.8521e-06	22.554	147.035	-50.232	-9.455	-90.410	18.684	86.676	-90.380	-82.915	16.323	73.164	-83.329	-76.538	-76.551	-68.637	107.132	-69.096	-8191	255	
7516.959	1	1	0	0	0.086554	0.13647	0.16952	0.34099	0.052378	0.15668	0.09982	0.12244	0.18984	0.065843	0.30419	0.28822	0.23431	0.1794	0.13935	0.28888	-0.15208	0.070833	-0.55625	-0.225	-0.14167	-0.84792	-0.016667	-0.58542	-0.70417	-0.072917	-1.025	-0.425	0.089583	-0.7375	0.05	-0.46875	-66.435	256.113	190.847	243.261	153.741	-30.069	30.304	-87.741	24.572	211.088	-74.805	181.296	234.219	191.391	-26.589	249.878	0.00013747	0.00010004	5.7112e-06	887.2	1.4529e-06	4.629e-06	967.19	190.07	2.6626e-06	2.7217e-06	240.61	67.387	53.566	15.879	2.5032e-06	22.374	0.00017809	0.0001552	4.8322e-05	873.37	1.8253e-06	1.7529e-06	957.59	188.78	1.8976e-06	1.7207e-06	239.6	68.247	53.629	16.036	2.0593e-06	22.575	136.540	228.880	200.303	-90.547	-2.625	37.653	-90.510	-82.758	-69.923	32.475	-83.034	-76.477	-76.389	-68.471	72.235	-69.674	-8191	255	
7517.055	1	1	0	0	0.16807	0.14192	0.03608	0.1553	0.33224	0.16471	0.10144	0.045671	0.063639	0.14038	0.12069	0.2117	0.10557	0.28275	0.24287	0.20203	-0.375	0.20417	-0.63333	-0.45	0.15833	-0.87083	-0.0375	-0.37708	-0.675	0.09375	-0.67083	-0.54792	0.29792	-0.72708	-0.14792	-0.2625	246.189	-77.424	64.310	234.464	1.283	-94.620	145.950	82.938	77.653	64.139	189.307	254.145	-88.089	227.960	54.297	93.917	0.00018182	8.0066e-05	6.8709e-05	884.36	3.0723e-06	3.4246e-06	964.22	191.09	4.8394e-06	6.1764e-07	242.42	68.399	53.553	15.866	4.2355e-06	22.314	0.0001707	0.00016311	5.3161e-05	870.46	1.8127e-06	1.8268e-06	957.24	189.04	1.8449e-06	1.8142e-06	239.21	68.471	53.337	15.991	2.1472e-06	22.531	118.365	-24.009	-64.098	-90.466	39.666	51.918	-89.992	-82.652	-30.608	117.270	-83.389	-77.034	-76.362	-68.736	66.801	-69.513	-8191	255	
7517.151	1	1	0	0	0.10106	0.14477	0.15076	0.12954	0.2082	0.22091	0.22304	0.15623	0.11178	0.081861	0.16075	0.23768	0.15356	0.047545	0.31289	0.12642	-0.48125	0.17083	-0.49583	-0.56458	0.10625	-0.87917	-0.31458	-0.2875	-0.7375	0.17708	-0.57708	-0.52917	-0.029167	-0.85417	-0.1375	-0.1	234.087	103.929	-79.431	124.869	59.975	133.222	190.374	-79.549	-42.065	-50.842	-72.770	78.396	154.502	1.381	36.986	-84.568	0.00013182	0.00030337	5.1804e-05	887.03	4.3861e-06	1.925e-06	971.8	190.58	2.2705e-06	1.8812e-06	243.72	67.957	53.701	15.881	3.5318e-06	22.401	0.00017058	0.00017133	5.3095e-05	870.47	1.7824e-06	1.9102e-06	958.87	188.86	1.8527e-06	1.9351e-06	240.4	68.418	53.439	16.058	2.1107e-06	22.565	143.065	-28.626	-6.625	-90.646	49.298	-10.164	-90.664	-82.468	-42.621	56.848	-82.989	-76.789	-76.342	-68.911	119.097	-69.399	-8191	255	
7517.270	1	1	0	0	0.12771	0.19383	0.17584	0.24276	0.31648	0.27465	0.42468	0.38577	0.46525	0.1969	0.074791	0.064211	0.19488	0.27696	0.24789	0.045634	-0.40625	0.11458	-0.2125	-0.74792	0.36458	-0.61875	-0.31667	-0.00625	-0.6625	0.052083	-0.39167	-0.65208	0.19375	-0.67292	-0.325	0.0020833	24.119	208.178	-49.673	173.045	-95.500	-25.773	220.664	176.967	82.253	168.656	-74.367	45.038	174.990	120.275	117.631	194.682	0.00011355	0.00011339	1.3593e-05	892.97	5.7664e-07	1.6636e-06	972.29	188.98	2.2168e-06	3.3673e-06	242.55	67.893	53.53	15.866	2.0155e-06	21.994	0.00017152	0.00018174	5.1528e-05	872.83	1.7422e-06	2.071e-06	959.06	188.25	1.8294e-06	2.071e-06	239.38	68.119	53.429	16.064	2.0504e-06	22.435	120.976	27.914	179.611	-90.526	-6.181	57.281	-90.539	-82.807	48.277	28.822	-83.077	-77.120	-76.786	-68.659	38.084	-69.273	-8191	255	
7517.342	1	1	0	0	0.053557	0.033261	0.27142	0.13314	0.11979	0.080837	0.17707	0.28694	0.069442	0.20343	0.24619	0.052619	0.1287	0.16268	0.084219	0.17973	-0.3625	-0.12917	-0.27708	-0.81875	0.12917	-0.58542	-0.53333	-0.06875	-0.71875	-0.014583	-0.40625	-0.84583	0.23333	-0.575	-0.44583	0.12917	248.263	182.132	-15.972	215.416	-76.318	231.196	144.233	-31.063	-63.057	255.150	252.998	136.922	34.353	201.919	98.309	-26.639	0.00011343	0.00042074	8.6048e-05	888.03	6.5156e-07	2.3039e-06	970.54	189.62	1.286e-06	1.3655e-06	242.66	67.831	54.116	15.867	1.3533e-06	22.238	0.00017154	0.00019187	4.9389e-05	872.24	1.7988e-06	2.1127e-06	957.98	187.95	1.9395e-06	2.1019e-06	240.02	68.369	53.702	16.055	1.8754e-06	22.538	110.511	7.699	-27.223	-90.489	13.306	61.096	-90.301	-82.635	238.564	136.719	-83.047	-76.303	-76.172	-68.431	17.305	-69.460	-8191	255	
7517.440	1	1	0	0	0.12499	0.10695	0.044682	0.56663	0.15624	0.2363	0.0029074	0.21545	0.26003	0.27053	0.23554	0.069233	0.090435	0.28807	0.21622	0.32262	-0.31875	0.00625	0.014583	-1.1167	0.17083	-0.32708	-0.74792	0.089583	-0.6875	-0.29583	-0.28125	-0.9125	0.091667	-0.46667	-0.67292	-0.020833	208.534	120.138	88.427	198.314	195.392	-9.749	189.864	-72.118	66.320	-37.102	-71.503	192.458	-87.162	-97.957	183.707	-93.006	0.00014029	0.00020899	6.3433e-05	887.52	2.2101e-06	3.9698e-06	969.74	189.57	1.5408e-06	3.141e-06	240.05	67.722	53.808	15.767	2.6979e-06	22.381	0.00017666	0.00018848	4.7319e-05	872.63	1.9516e-06	2.0537e-06	957.64	188.28	1.9941e-06	2.056e-06	238.89	68.268	53.747	16.042	1.8325e-06	22.575	130.557	-65.465	-1.712	-90.521	-34.686	24.991	-90.368	-82.677	123.919	44.537	-82.630	-76.929	-76.387	-68.309	-16.171	-70.215	-8191	255	
7517.559	1	1	0	0	0.12947	0.11013	0.062711	0.24728	0.37479	0.12033	0.20222	0.36247	0.27538	0.059427	0.27015	0.32078	0.091975	0.07788	0.11692	0.097259	-0.46042	-0.4	0	-0.78542	0.035417	-0.39167	-0.85625	0.095833	-0.61875	-0.46458	-0.00625	-0.72708	-0.05625	-0.30625	-0.67083	-0.045833	-43.793	-36.507	218.144	250.997	216.035	-16.166	222.557	197.448	42.508	-88.969	207.912	208.537	155.089	-94.610	66.501	-55.931	0.0002143	0.00039856	8.6556e-05	887.46	1.6628e-06	2.6273e-06	975.65	189.81	1.0705e-06	4.3982e-06	240.39	68.44	53.863	15.911	4.4848e-06	22.359	0.00018459	0.00018197	4.5644e-05	873.23	2.0573e-06	1.9338e-06	960.6	188.37	2.0787e-06	2.0038e-06	238.73	68.353	53.789	16.076	1.8351e-06	22.54	124.479	-14.254	-9.633	-90.438	28.426	33.180	-90.339	-82.787	-93.747	49.143	-83.297	-76.861	-76.624	-68.723	45.545	-69.313	-8191	255	
7517.655	1	1	0	0	0.30731	0.2015	0.3497	0.39682	0.05049	0.30209	0.030473	0.19851	0.084864	0.041122	0.20189	0.081105	0.23265	0.17491	0.09618	0.037908	-0.19167	-0.44583	0.22292	-0.85208	-0.27083	-0.10833	-0.95833	-0.058333	-0.35625	-0.59583	0.091667	-0.78958	-0.13125	-0.083333	-0.79167	-0.13333	40.130	9.202	63.864	203.558	118.558	148.801	-96.085	180.114	183.174	234.608	127.801	-84.061	202.425	-83.977	203.096	-32.499	0.0001591	0.00033151	6.8427e-05	890.2	9.774e-07	1.7398e-06	971.9	189.48	1.2938e-06	3.4278e-06	239.71	67.85	53.703	15.655	1.5759e-06	22.249	0.00019582	0.00017518	4.431e-05	873.43	2.0931e-06	1.8758e-06	957.85	188.45	2.0845e-06	1.9039e-06	238.76	68.331	53.761	15.966	1.833e-06	22.563	124.708	-5.901	-4.193	-90.424	97.870	225.058	-90.187	-82.470	85.310	67.012	-82.947	-76.636	-76.217	-68.401	7.436	-69.278	-8191	255	
7517.751	1	1	0	0	0.19587	0.10823	0.053716	0.13126	0.13451	0.18983	0.022788	0.061456	0.22548	0.13156	0.15881	0.271	0.055963	0.10712	0.068598	0.11178	-0.077083	-0.62292	0.14583	-0.97083	-0.21875	-0.016667	-0.8375	-0.029167	-0.47708	-0.63542	0.21875	-0.55	-0.59583	-0.070833	-0.81875	-0.089583	100.243	43.732	206.264	-29.561	238.730	20.444	236.873	44.846	257.360	100.647	188.281	-11.555	171.180	97.496	-11.206	215.511	8.1391e-05	0.00015289	3.9075e-05	883.88	3.1552e-06	5.3625e-06	973.98	189.28	1.4516e-06	2.4502e-07	241.17	67.755	53.813	15.822	2.8452e-06	22.414	0.00018753	0.00016576	4.4565e-05	871.35	2.0386e-06	1.8003e-06	957.82	188.45	1.9912e-06	1.8082e-06	238.74	68.233	53.617	16.019	1.7793e-06	22.557	110.958	-41.200	6.045	-90.276	-14.438	-1.877	-90.576	-82.927	-63.043	87.481	-83.107	-76.412	-76.489	-68.398	-10.404	-69.185	-8191	255	
7517.847	1	1	0	0	0.29503	0.069466	0.16347	0.28421	0.13947	0.083521	0.38418	0.29331	0.050819	0.14142	0.31752	0.086555	0.26362	0.048956	0.19862	0.098956	0.15417	-0.575	0.36667	-0.63125	-0.32708	0.18542	-1.0042	-0.027083	-0.34375	-0.53125	0.10417	-0.46667	-0.47708	0.091667	-0.76875	0.0020833	169.439	-30.121	32.637	199.721	43.555	56.992	239.279	205.374	250.756	111.728	78.873	-85.330	-72.352	253.528	59.411	237.471	0.00015464	0.00055299	2.5758e-05	894.59	4.1581e-06	1.9215e-06	978.06	191.32	2.463e-06	7.6573e-07	241.35	67.315	53.012	15.712	1.5711e-07	22.3	0.00018277	0.00016998	4.3846e-05	874.47	2.012e-06	1.7266e-06	959.07	189.02	1.912e-06	1.8183e-06	238.93	68.321	53.544	15.984	1.8961e-06	22.568	133.859	-55.934	33.829	-90.434	37.063	6.741	-90.442	-82.895	-43.171	15.539	-83.370	-76.584	-76.259	-68.823	-0.701	-70.009	-8191	255	
7517.943	1	1	0	0	0.34367	0.33912	0.42005	0.036359	0.23311	0.096323	0.28512	0.13908	0.13828	0.21516	0.074969	0.3357	0.22058	0.099026	0.27893	0.17105	0.05	-0.58542	0.2375	-0.45833	-0.4625	0.08125	-0.78125	-0.2875	-0.23542	-0.65833	-0.066667	-0.47083	-0.69375	0.15625	-0.82292	-0.3125	-53.224	198.706	210.336	203.049	-14.073	9.303	201.765	127.721	-37.892	19.384	255.354	252.250	12.595	203.037	200.419	183.834	0.00012412	0.00068934	5.8039e-05	890.36	1.4398e-06	4.6948e-06	965.77	189.28	2.1061e-06	8.8105e-07	241.81	67.915	53.433	15.895	1.9794e-06	22.156	0.00017637	0.00016123	4.808e-05	874.88	1.919e-06	1.7438e-06	956.19	188.42	1.8354e-06	1.7569e-06	239.37	68.309	53.478	16.002	1.9196e-06	22.465	129.370	-24.955	256.820	-90.238	18.642	26.266	-90.274	-82.761	-0.400	66.637	-83.477	-76.576	-76.719	-68.611	0.551	-69.355	-8191	255	
7518.039	1	1	0	0	0.37063	0.12875	0.35942	0.37358	0.30123	0.061151	0.17133	0.17223	0.074344	0.17345	0.066158	0.3273	0.048504	0.11135	0.11178	0.092307	0.225	-0.92292	-0.089583	-0.33125	-0.79167	0.17708	-0.7	-0.48125	0.14583	-0.77708	-0.23958	-0.36875	-0.68958	0.0625	-0.64375	-0.36667	-56.206	80.636	88.926	197.593	5.564	22.730	185.892	227.907	159.298	-50.227	-87.177	154.505	-58.223	150.406	94.580	171.753	0.00016425	0.00060083	0.00012121	885.58	2.3247e-06	7.557e-07	971.95	188.93	1.7793e-06	2.6681e-06	241.93	67.375	53.272	15.865	2.0626e-06	22.223	0.00016638	0.0001558	4.9773e-05	871.08	1.8356e-06	1.7156e-06	957.82	188.49	1.7392e-06	1.688e-06	240	68.308	53.211	15.964	2.0268e-06	22.5	118.510	-6.506	17.207	-90.309	42.817	201.515	-90.391	-82.725	-61.560	24.227	-82.986	-76.701	-76.739	-68.994	45.474	-69.427	-8191	255	
7518.158	1	1	0	0	0.35169	0.30257	0.14808	0.16875	0.2874	0.1504	0.57014	0.21805	0.21245	0.1532	0.28609	0.21864	0.10073	0.15193	0.1077	0.037952	0.25625	-0.85208	-0.089583	-0.34375	-0.68542	-0.052083	-0.59167	-0.51458	0.077083	-0.81042	-0.1875	-0.13333	-0.8375	0.10417	-0.39167	-0.55625	90.027	110.746	253.715	154.825	-44.893	76.087	230.322	206.307	193.298	-68.308	-69.054	254.932	149.932	156.751	247.679	31.953	7.3253e-05	0.00020723	2.6711e-05	881.41	1.8762e-06	1.455e-06	972.27	189.86	2.9756e-06	2.3324e-06	240.74	67.809	53.686	15.809	1.57e-06	22.311	0.00015919	0.00016272	5.0192e-05	871.33	1.744e-06	1.7559e-06	959.33	188.35	1.6873e-06	1.7433e-06	238.67	68.257	53.44	15.987	2.061e-06	22.581	131.345	245.636	21.758	-90.314	14.188	42.553	-90.220	-82.634	0.208	126.085	-83.085	-76.672	-76.175	-68.609	11.154	-69.709	-8191	255	
7518.254	1	1	0	0	0.17853	0.084062	0.17827	0.39524	0.24945	0.11042	0.19506	0.46638	0.25957	0.3205	0.20499	0.33329	0.047929	0.22581	0.27151	0.10548	0.51458	-0.55417	-0.14375	-0.21667	-0.96875	-0.077083	-0.49375	-0.74583	0.12917	-0.75625	-0.26875	-0.17917	-0.90208	0.05625	-0.45	-0.87708	179.692	140.438	114.477	200.463	112.327	254.178	241.760	223.291	-43.455	12.568	222.293	216.107	-57.941	232.574	39.134	71.501	0.00015329	0.00018263	5.2663e-05	890.27	2.7047e-06	3.1827e-06	960.63	188.48	3.3605e-06	2.0101e-06	238.68	67.616	53.15	15.771	1.0395e-06	22.094	0.00015695	0.00016884	5.1013e-05	871.86	1.7161e-06	1.8444e-06	956.93	187.53	1.6643e-06	1.9428e-06	238.95	68.102	53.318	15.967	1.8753e-06	22.451	112.009	-59.018	-28.000	-90.440	53.083	44.547	-90.243	-82.879	62.675	92.419	-83.496	-76.961	-75.883	-68.650	34.038	-69.816	-8191	255	
7518.350	1	1	0	0	0.31098	0.22664	0.1336	0.036544	0.039349	0.14754	0.25601	0.10531	0.15777	0.3401	0.23018	0.15687	0.13459	0.16129	0.14058	0.077062	0.65208	-0.62292	-0.38333	0.0083333	-0.71875	0.010417	-0.28542	-0.825	0.26042	-0.7375	-0.55208	0.1125	-0.83958	0.0020833	-0.24792	-0.77708	193.883	-39.145	154.369	-47.106	16.603	235.041	231.269	17.366	109.042	94.359	40.949	117.797	115.212	-88.276	-58.700	-21.664	3.4926e-05	0.00033902	5.9964e-05	886.52	2.3066e-06	4.3548e-06	970.45	189.76	4.0232e-07	3.1669e-06	240.76	68.083	53.209	15.618	2.1476e-06	21.979	0.00015632	0.00017684	4.8056e-05	870.64	1.7128e-06	2.0145e-06	957.87	188.32	1.7186e-06	1.9855e-06	239.32	68.186	53.315	15.98	1.7859e-06	22.394	117.264	-37.729	-43.652	-90.369	94.244	59.537	-90.182	-82.996	90.528	82.740	-83.341	-76.534	-76.111	-68.680	72.726	-69.015	-8191	255	
7518.447	1	1	0	0	0.025984	0.15958	0.30176	0.23387	0.086958	0.064652	0.14532	0.069415	0.24375	0.10212	0.10611	0.14215	0.29687	0.12772	0.03318	0.16773	0.725	-0.39583	-0.53958	-0.064583	-0.80625	-0.125	-0.41042	-0.72708	-0.025	-0.43542	-0.725	0.16875	-0.55625	-0.375	0.058333	-0.79167	-44.454	22.469	212.098	185.615	-28.071	169.715	-75.710	26.638	16.905	-0.110	214.291	242.275	160.090	-70.049	67.698	31.694	0.00014836	0.00030126	6.5328e-05	886.5	1.9256e-06	2.8076e-06	972.99	188.49	1.4087e-06	5.6726e-06	241.02	67.682	53.296	15.797	1.0641e-06	22.136	0.00016267	0.00018104	4.4787e-05	871.76	1.8631e-06	1.9704e-06	957	187.96	1.8685e-06	2.0001e-06	239.03	68.083	53.424	16.041	1.7124e-06	22.415	128.295	-6.850	-10.771	-90.415	18.726	141.017	-90.211	-82.575	-51.187	84.041	-83.163	-76.616	-75.906	-68.896	44.104	-69.306	-8191	255	
7518.567	1	1	0	0	0.036868	0.13603	0.085181	0.11341	0.08721	0.079514	0.19991	0.078435	0.10391	0.077795	0.23172	0.24346	0.088451	0.22933	0.20769	0.14614	0.4875	-0.275	-0.625	0.11875	-0.51875	-0.40417	-0.05625	-0.68542	-0.12083	-0.33333	-0.74167	0.14167	-0.64167	-0.39167	-0.01875	-0.93125	-62.184	196.685	125.102	125.809	199.682	49.712	250.187	117.978	22.925	-55.019	253.497	246.748	67.035	255.245	-24.560	164.767	0.00016916	6.859e-05	5.6798e-05	883.99	4.9618e-06	3.7194e-06	969.71	189.05	2.0179e-06	1.6932e-06	241.51	68.038	53.495	16.017	2.4325e-06	22.264	0.00017013	0.00017511	4.479e-05	871.06	1.9133e-06	1.956e-06	957.26	188.28	1.9469e-06	1.8156e-06	238.74	68.353	53.602	16.078	1.6637e-06	22.537	157.852	61.924	-15.726	-90.300	62.410	62.714	-89.987	-82.865	-81.160	34.548	-83.010	-76.826	-76.806	-68.767	-42.760	-69.194	-8191	255	
7518.639	1	1	0	0	0.10479	0.34982	0.13043	0.15917	0.19857	0.14005	0.069132	0.15111	0.32027	0.044292	0.13773	0.08766	0.082114	0.098777	0.24676	0.14132	0.325	-0.2125	-0.76875	0.03125	-0.62708	-0.46667	0.25625	-0.93333	0.033333	-0.01875	-0.83958	0.14167	-0.55625	-0.29583	-0.039583	-0.75625	124.995	59.203	194.965	169.567	152.863	152.276	129.166	-47.422	65.671	-56.510	-9.770	98.280	-49.374	168.892	239.543	18.369	0.00012285	0.00022379	6.2568e-05	887.33	1.3052e-06	4.1136e-06	971.24	189.05	2.704e-06	1.7437e-06	241.75	68.074	53.644	15.967	2.5655e-06	22.069	0.00018456	0.00016558	4.4118e-05	873.06	2.013e-06	1.8836e-06	957.49	188.42	2.0752e-06	1.7709e-06	239.4	68.329	53.784	16.059	1.6213e-06	22.444	120.361	11.153	-26.933	-90.222	-98.027	18.382	-90.475	-82.900	36.871	94.210	-82.870	-76.663	-76.427	-68.679	26.277	-69.256	-8191	255	
7518.735	1	1	0	0	0.34492	0.24203	0.23615	0.18896	0.16246	0.02939	0.19763	0.22505	0.19783	0.12288	0.15523	0.29248	0.25474	0.058418	0.12555	0.049283	0.064583	0.05625	-0.71875	-0.15	-0.46667	-0.41042	-0.072917	-0.92292	-0.26458	0.13125	-1.0146	-0.11042	-0.1625	-0.77083	0.17083	-0.89583	156.649	45.937	225.208	234.432	66.289	23.935	170.903	151.297	83.040	-90.538	140.067	230.191	131.481	139.693	86.320	19.385	8.9965e-05	0.00063544	6.636e-05	883.04	1.9859e-06	5.2953e-06	968.15	189.78	1.168e-06	3.7799e-06	241.19	68.091	53.723	16.032	3.1944e-06	22.396	0.00018564	0.00015983	4.3616e-05	871.38	2.003e-06	1.7874e-06	956.45	188.4	2.017e-06	1.7161e-06	238.71	68.474	53.632	16.078	1.6156e-06	22.614	166.099	-22.199	-59.479	-90.387	-61.056	47.639	-90.199	-82.816	-27.396	25.850	-83.556	-76.811	-76.933	-68.995	4.869	-69.601	-8191	255	
7518.831	1	1	0	0	0.23571	0.17076	0.31271	0.24391	0.22774	0.048433	0.22853	0.35986	0.13087	0.22827	0.1516	0.12694	0.10611	0.19561	0.035194	0.21653	0.010417	0.16458	-0.7625	-0.23125	-0.25208	-0.69375	-0.033333	-0.71458	-0.36042	0.14583	-1.0625	-0.11042	-0.33958	-0.90208	0.16042	-0.76042	129.689	10.193	162.969	-63.362	190.224	176.662	214.110	155.819	220.058	218.858	-93.074	216.581	-50.366	21.372	175.557	-46.594	0.00012346	0.00025394	3.1971e-05	889.63	3.477e-06	2.1025e-06	970.55	189.92	2.7969e-06	1.2717e-06	241.26	68.102	53.637	15.901	1.4398e-06	22.348	0.00018131	0.00015824	4.2468e-05	873.22	1.9074e-06	1.7158e-06	959.01	188.66	1.9068e-06	1.6867e-06	239.36	68.493	53.525	16.036	1.7614e-06	22.619	172.871	-14.267	-28.372	-90.439	33.525	52.399	-90.311	-82.412	38.181	8.811	-82.938	-76.337	-76.425	-68.811	68.818	-69.375	-8191	255	
7518.952	1	1	0	0	0.11254	0.23868	0.12287	0.14088	0.033745	0.12095	0.26034	0.21275	0.1452	0.12094	0.068323	0.042505	0.13325	0.11979	0.16672	0.043077	0.027083	0.3	-0.75	-0.35625	-0.03125	-0.84792	-0.089583	-0.61875	-0.55208	0.0125	-0.70208	-0.1	-0.0375	-0.95	0.077083	-0.35625	173.087	125.882	61.507	-91.200	71.655	11.820	137.922	225.354	241.489	-17.420	51.483	210.835	83.453	153.466	31.466	-75.792	0.00015914	0.00017293	6.6557e-05	887.4	2.7657e-06	2.0408e-06	970.42	189.87	2.1542e-06	2.8205e-06	242.5	68.036	53.336	15.808	2.3892e-06	22.174	0.00016837	0.00015065	4.5591e-05	874.12	1.8198e-06	1.6987e-06	957.93	188.73	1.795e-06	1.6538e-06	239.64	68.502	53.5	16.005	1.9161e-06	22.554	140.119	-11.606	-51.151	-90.236	-4.623	34.541	-90.459	-82.516	18.035	93.265	-83.305	-76.556	-76.526	-68.623	53.358	-70.002	-8191	255	
7519.048	1	1	0	0	0.22125	0.15257	0.23472	0.11662	0.13629	0.074769	0.075967	0.074748	0.1545	0.17505	0.2982	0.060185	0.24974	0.28783	0.22047	0.13564	-0.2375	0.13542	-0.75	-0.375	-0.10833	-0.85	-0.225	-0.56042	-0.71458	0.12083	-0.78542	-0.32917	0.11458	-0.84583	0.11458	-0.225	141.885	35.355	89.336	170.412	248.351	1.200	69.781	190.949	-52.085	41.552	-32.313	67.034	-90.682	-16.469	160.145	-31.835	0.00013607	0.00051064	3.1926e-05	882.64	1.5688e-06	4.2193e-06	969.7	189.39	2.4326e-06	2.6355e-06	239	67.653	53.421	15.904	1.1162e-06	22.264	0.00017104	0.00015309	4.8272e-05	871.62	1.7736e-06	1.703e-06	958.87	188.35	1.7874e-06	1.6808e-06	239.35	68.462	53.464	16.017	2.0002e-06	22.58	125.392	-30.833	144.238	-90.425	214.041	58.462	-90.111	-82.649	0.016	13.786	-83.129	-76.862	-75.834	-68.815	-83.503	-69.115	-8191	255	
7519.142	1	1	0	0	0.1457	0.10955	0.26238	0.24616	0.071615	0.19354	0.29339	0.33088	0.38413	0.2599	0.26092	0.25753	0.1279	0.080008	0.082447	0.111	-0.32083	0.29375	-0.64583	-0.53125	0.020833	-0.9375	-0.17083	-0.22917	-0.87292	0.054167	-0.65208	-0.44792	-0.022917	-0.70625	-0.027083	-0.25208	-25.176	79.870	54.634	217.922	92.124	14.010	183.772	-41.075	17.671	-24.741	117.558	39.600	-76.007	124.256	-68.304	-64.900	9.3224e-05	0.00018723	0.00011115	883.73	1.1033e-06	4.6099e-06	970	190.12	3.6649e-06	2.8739e-06	242.74	68.551	54.111	15.912	7.8985e-07	22.177	0.00016583	0.00015776	5.0288e-05	873.08	1.7488e-06	1.7565e-06	959.02	188.5	1.7779e-06	1.723e-06	239.89	68.62	53.834	16.078	2.0393e-06	22.508	99.750	6.817	-49.999	-90.379	232.635	75.729	-90.200	-82.832	-66.719	-16.227	-83.370	-76.690	-76.543	-68.416	30.903	-69.482	-8191	255	
7519.240	1	1	0	0	0.14582	0.10379	0.1143	0.060238	0.11768	0.14366	0.22028	0.23377	0.11516	0.076435	0.29209	0.27343	0.10072	0.049222	0.23696	0.10957	-0.24583	0.10625	-0.46875	-0.66875	0.29792	-0.76667	-0.4125	0.045833	-0.88125	0.091667	-0.56667	-0.525	0.0375	-0.78333	-0.2625	0.14167	209.794	95.416	221.620	106.894	159.563	208.148	145.169	181.532	27.501	141.114	-0.883	2.075	-53.922	226.715	160.295	78.007	0.00012627	0.00028562	3.1071e-05	885.7	3.8347e-07	8.99e-07	970.64	189.17	3.5016e-06	9.2656e-07	242.97	67.674	53.738	15.843	3.7578e-06	22.434	0.00016482	0.00016841	5.1155e-05	872.42	1.6793e-06	1.8902e-06	959.31	188.43	1.7753e-06	1.9104e-06	239.84	68.271	53.504	16.045	1.9515e-06	22.571	100.346	-4.811	76.713	-90.375	48.465	31.895	-90.310	-82.677	-43.838	112.406	-83.124	-76.853	-76.155	-68.637	62.951	-69.154	-8191	255	
7519.335	1	1	0	0	0.20539	0.21416	0.23045	0.37799	0.024853	0.22555	0.10981	0.30462	0.30939	0.12113	0.1209	0.32394	0.15301	0.32791	0.056556	0.092168	-0.38542	-0.0020833	-0.35833	-0.76042	0.22292	-0.50625	-0.49583	0.19167	-0.86875	-0.26875	-0.3125	-0.85417	-0.0125	-0.66458	-0.53542	0.058333	67.578	189.217	-2.711	234.081	212.283	9.341	227.148	252.973	-69.361	193.893	-14.606	204.058	17.802	-91.205	-2.810	86.822	0.00016541	0.00064337	8.1025e-05	890.03	1.5829e-06	4.4581e-06	967.9	190.75	3.4858e-06	1.6642e-06	242.66	68.227	53.849	15.828	1.6058e-06	22.364	0.00016063	0.0001788	4.8717e-05	874.45	1.7443e-06	1.978e-06	957.12	188.55	1.8098e-06	2.013e-06	239.72	68.348	53.645	16.047	1.8876e-06	22.577	110.453	-5.187	46.452	-90.457	76.704	39.090	-90.538	-82.530	51.112	108.354	-82.987	-76.899	-76.507	-68.535	-11.217	-69.690	-8191	255	
7519.431	1	1	0	0	0.17444	0.036057	0.13786	0.075968	0.27659	0.048897	0.16184	0.15049	0.2419	0.23861	0.24427	0.17716	0.16447	0.20989	0.081847	0.15072	-0.60208	-0.083333	-0.16042	-0.94583	0.2	-0.54167	-0.61667	0.077083	-0.725	-0.014583	-0.22083	-0.77292	0.070833	-0.42708	-0.4875	0.16042	250.412	189.776	91.323	66.079	117.055	242.396	240.218	157.920	57.991	51.679	-34.700	-63.375	-89.532	-40.045	-32.462	221.226	0.00014676	0.00024118	8.1234e-05	892.1	2.1331e-06	3.1432e-06	976.32	192.08	1.0259e-06	1.1916e-06	244.34	68.547	53.944	15.864	4.4869e-06	22.244	0.00017052	0.0001893	4.6388e-05	874.15	1.8182e-06	1.9749e-06	959.94	189.08	1.8791e-06	2.0441e-06	240.59	68.57	53.532	16.092	1.8085e-06	22.521	113.333	-34.871	-7.250	-90.332	-15.211	79.684	-90.738	-83.111	-70.796	61.296	-83.286	-76.453	-76.707	-68.523	45.225	-69.467	-8191	255	
7519.527	1	1	0	0	0.34085	0.1376	0.13477	0.095673	0.12331	0.24436	0.3036	0.2481	0.21893	0.018468	0.14793	0.53837	0.042274	0.19417	0.18942	0.14471	-0.32083	-0.19167	-0.039583	-1.0438	0.085417	-0.43333	-0.71875	0.0041667	-0.51667	-0.33542	-0.23125	-0.83125	-0.079167	-0.23333	-0.51042	0.10208	104.498	138.314	248.219	-13.445	124.025	-32.780	-53.556	196.046	39.654	194.410	196.433	249.515	60.031	206.345	-12.496	200.930	0.00016974	0.00047624	8.7482e-05	888.79	1.1877e-06	2.1777e-06	971.36	189.02	3.346e-06	2.9764e-06	242.32	68.405	53.34	15.862	1.7454e-06	22.041	0.00017497	0.00018653	4.4608e-05	874.03	1.9382e-06	1.9662e-06	958.68	187.72	1.9948e-06	1.9866e-06	239.81	68.55	53.674	16.073	1.7294e-06	22.464	149.203	-27.790	-12.572	-90.257	-74.275	38.448	-90.455	-82.676	-56.951	31.446	-83.154	-76.570	-76.274	-68.424	52.972	-68.837	-8191	255	
7519.648	1	1	0	0	0.055642	0.21998	0.16495	0.018976	0.14585	0.24888	0.19152	0.25172	0.25963	0.29718	0.018429	0.049964	0.33678	0.11217	0.19652	0.15723	-0.24583	-0.39167	0.0875	-0.9875	-0.010417	-0.32708	-0.88333	-0.097917	-0.68542	-0.53333	-0.1	-0.75417	-0.17083	-0.13542	-0.76458	-0.029167	102.036	64.180	-47.180	-31.875	153.446	-12.156	194.781	182.104	-63.254	252.529	254.542	77.054	175.601	119.864	-69.511	230.609	0.00013412	4.5354e-05	9.2363e-05	884.29	1.4952e-06	5.3524e-06	966.89	189.12	3.8085e-06	2.9298e-06	240.58	67.569	53.051	15.779	1.825e-06	22.009	0.00018495	0.00017301	4.2915e-05	872.29	2.036e-06	1.8714e-06	959.58	188.2	2.0342e-06	1.8861e-06	239.19	68.412	53.609	16.042	1.7367e-06	22.51	149.923	200.576	-2.128	-90.543	92.456	72.153	-90.262	-82.618	-56.056	154.381	-83.213	-76.383	-76.325	-68.689	41.234	-69.731	-8191	255	
7519.744	1	1	0	0	0.056313	0.19639	0.24433	0.1453	0.22996	0.14825	0.13266	0.34323	0.075103	0.10656	0.085679	0.1892	0.1964	0.10323	0.33389	0.075055	-0.27917	-0.42292	0.22292	-0.89792	-0.10625	-0.1	-0.88125	-0.025	-0.475	-0.62292	0.12083	-0.64375	-0.19167	-0.091667	-0.75833	0.052083	2.612	116.439	218.700	227.635	62.438	240.408	185.785	201.596	93.815	125.810	84.742	-49.163	198.259	1.994	230.136	230.202	0.00015337	0.00019064	4.9721e-05	884.33	5.1191e-07	3.1745e-06	965.3	189.71	3.1998e-06	1.1678e-06	240.49	67.796	52.796	15.723	2.3376e-06	22.131	0.0001869	0.00016469	4.2844e-05	873.31	2.0523e-06	1.7977e-06	956.68	188.74	2.0093e-06	1.8223e-06	238.96	68.505	53.681	15.979	1.7109e-06	22.544	114.339	6.509	55.181	-90.152	108.898	39.398	-90.430	-82.826	-67.716	38.240	-82.738	-76.437	-75.743	-68.445	17.862	-68.914	-8191	255	
7519.840	1	1	0	0	0.17957	0.075371	0.20403	0.24917	0.23133	0.2928	0.18948	0.18562	0.20838	0.12039	0.11859	0.20065	0.13914	0.25284	0.093862	0.079344	-0.014583	-0.60625	0.079167	-0.6375	-0.27083	0.11458	-0.90833	-0.029167	-0.3625	-0.56875	0.035417	-0.61875	-0.28542	0.1875	-0.72708	-0.12292	42.822	140.520	35.488	104.965	14.103	43.215	219.883	-55.678	138.728	-58.862	-92.421	245.688	199.082	219.277	-10.288	95.827	0.00018944	0.00011349	0.00013338	887.53	3.862e-06	5.1228e-06	970.04	189.28	3.602e-06	2.7096e-06	241.23	67.989	53.704	15.86	2.0696e-06	22.385	0.00018032	0.00016448	4.3733e-05	874.79	2.0132e-06	1.7246e-06	959.64	188.53	1.9474e-06	1.7545e-06	239.29	68.495	53.682	16.037	1.7757e-06	22.62	136.898	0.553	-1.567	-90.202	77.423	57.222	-90.282	-82.723	68.975	57.523	-83.264	-76.535	-76.170	-68.776	42.385	-69.303	-8191	255	
7519.936	1	1	0	0	0.16625	0.16281	0.13131	0.20432	0.20206	0.11252	0.19568	0.13049	0.14691	0.21203	0.31405	0.17531	0.23502	0.03618	0.10047	0.073692	0.04375	-0.86458	0.11458	-0.78542	-0.42708	0.091667	-0.6875	-0.30208	-0.16458	-0.94583	-0.05	-0.65417	-0.68333	-0.052083	-0.78542	-0.3375	56.587	200.166	252.094	210.434	-56.507	-69.670	117.654	-73.208	-3.401	181.030	151.082	75.654	259.066	17.443	250.449	218.171	0.00011115	0.00026935	3.8094e-05	890.38	1.2457e-06	1.8422e-06	974.89	188.84	1.1538e-06	2.8433e-06	242.18	68.171	53.358	15.819	1.8809e-06	22.3	0.00017575	0.00016397	4.5608e-05	876.85	1.855e-06	1.7432e-06	959.16	188.7	1.8658e-06	1.7167e-06	239.59	68.613	53.481	16.01	1.8439e-06	22.577	126.885	-88.373	93.580	-90.246	-29.096	86.880	-90.514	-82.816	-9.527	25.538	-82.969	-76.563	-76.442	-68.522	33.238	-69.480	-8191	255	
7520.032	1	1	0	0	0.19611	0.18994	0.31364	0.16157	0.1923	0.20876	0.16123	0.31326	0.1529	0.25756	0.23559	0.28251	0.076998	0.11421	0.079658	0.13434	0.425	-0.76458	0.26042	-0.43333	-0.66458	0.16458	-0.87292	-0.37292	0.097917	-0.94167	-0.17708	-0.42917	-0.91458	0.14583	-0.78958	-0.50625	-81.621	-84.466	238.406	151.219	15.715	237.787	113.274	176.703	-91.467	226.343	96.534	238.396	-4.777	120.950	14.695	243.909	0.00020201	0.0003477	7.0276e-05	884.24	3.0953e-06	3.4971e-06	971.27	189.41	1.4808e-06	3.9632e-06	241.77	67.661	53.308	15.955	2.2149e-06	22.284	0.00016919	0.00015064	4.7633e-05	873.55	1.7901e-06	1.6835e-06	962.22	188.47	1.7892e-06	1.6738e-06	239.55	68.466	53.518	16.028	1.9905e-06	22.582	126.931	-8.501	57.400	-90.092	-26.351	42.704	-90.210	-82.622	-12.729	40.059	-83.373	-76.247	-76.271	-68.080	204.537	-69.751	-8191	255	
7520.128	1	1	0	0	0.29282	0.28069	0.38889	0.31793	0.099745	0.061998	0.47501	0.12569	0.19828	0.16399	0.1789	0.18125	0.06862	0.29259	0.25356	0.17065	0.3125	-0.75417	0.054167	-0.30208	-0.8625	0.23125	-0.83542	-0.49583	0.089583	-0.65833	-0.00625	-0.3875	-0.78542	0.32292	-0.5875	-0.475	18.303	37.100	167.581	-90.086	112.786	164.637	172.035	-44.348	-89.472	258.231	210.528	109.332	-56.367	-38.305	-83.903	123.811	0.00020247	0.00031687	7.2976e-05	882.75	5.9625e-07	4.3501e-06	973.34	188.3	1.1605e-06	3.3317e-06	239.21	67.529	53.335	15.657	2.2257e-06	22.124	0.00016018	0.00015997	5.0934e-05	873.96	1.8051e-06	1.6848e-06	962.32	188.17	1.7299e-06	1.6962e-06	239.43	68.463	53.472	15.998	2.0177e-06	22.526	123.368	-19.185	-7.489	-89.897	75.801	84.715	-90.007	-82.803	50.997	64.992	-83.374	-76.688	-75.992	-68.313	61.577	-69.155	-8191	255	
7520.247	1	1	0	0	0.26989	0.016072	0.26915	0.18589	0.31355	0.35504	0.16593	0.09236	0.17511	0.14548	0.29479	0.1441	0.23843	0.074481	0.14498	0.33357	0.36042	-0.77917	-0.42292	-0.12708	-0.73958	-0.12917	-0.84167	-0.69375	0.21875	-0.75833	-0.31042	-0.19583	-0.79583	0.15625	-0.4	-0.55625	217.228	-0.576	72.829	206.275	80.035	55.500	182.820	91.043	256.796	35.443	196.144	-77.501	247.534	42.050	204.750	105.470	0.00015492	0.00030197	4.5407e-05	886.24	4.5414e-06	2.117e-06	969.66	189.24	1.7229e-06	3.6583e-06	238.92	67.596	53.147	15.843	3.6171e-06	22.226	0.00015906	0.00016251	5.28e-05	873.89	1.7706e-06	1.8316e-06	960.75	188.33	1.6718e-06	1.8749e-06	239.46	68.337	53.377	16.05	1.9861e-06	22.565	143.253	-84.155	15.853	-90.342	-6.267	22.302	-90.050	-82.624	25.005	90.333	-82.590	-76.388	-76.275	-68.484	64.602	-69.196	-8191	255	
7520.343	1	1	0	0	0.11903	0.1465	0.23446	0.35733	0.17499	0.40959	0.13229	0.14683	0.24057	0.074468	0.26079	0.2212	0.18893	0.23085	0.048407	0.074889	0.46667	-0.73542	-0.26458	-0.10208	-0.89167	-0.05625	-0.425	-0.90625	0.2	-0.74583	-0.475	0.06875	-0.73125	0.035417	-0.21458	-0.83958	167.130	6.244	-16.649	235.750	24.133	222.709	-38.231	225.191	61.779	201.784	219.303	258.673	193.913	152.089	74.399	137.683	0.00015203	0.00037265	6.8636e-05	887.82	4.8443e-06	1.4899e-06	971.02	189.45	1.8927e-06	3.7487e-06	241.4	68.06	53.102	15.865	7.2873e-07	22.147	0.00015869	0.00017393	4.9662e-05	874.06	1.7257e-06	1.9866e-06	960.38	188.37	1.7318e-06	1.954e-06	240.39	68.281	53.452	16.088	1.9048e-06	22.512	126.028	-9.492	-7.116	-90.293	40.283	-10.732	-90.305	-82.659	73.223	76.598	-83.281	-76.769	-76.159	-68.383	108.360	-69.485	-8191	255	
7520.440	1	1	0	0	0.14834	0.065482	0.29678	0.24446	0.0098423	0.15837	0.27288	0.12394	0.25043	0.12255	0.15804	0.079631	0.12797	0.36069	0.25426	0.12051	0.42917	-0.73542	-0.53125	-0.10833	-0.80625	-0.066667	-0.26667	-0.67917	0.375	-0.80833	-0.5	0.054167	-0.85833	-0.31667	-0.08125	-0.96458	152.369	181.061	116.064	-70.389	-32.654	206.615	241.107	152.824	39.669	-95.406	99.988	233.075	252.530	-82.191	-90.354	228.999	0.00015887	0.00035596	3.4377e-05	891.16	2.6474e-06	8.4374e-07	967.48	189.45	5.2113e-07	1.1881e-06	241.13	67.854	53.033	15.643	3.5184e-06	22.255	0.00015968	0.00018082	4.9262e-05	876.37	1.7387e-06	2.0514e-06	958.79	188.31	1.7967e-06	2.0535e-06	239.58	68.372	53.405	16.034	1.8613e-06	22.571	133.404	-21.252	0.453	-90.278	34.838	31.942	-90.253	-82.715	190.357	48.466	-83.472	-76.542	-75.960	-68.605	12.151	-69.624	-8191	255	
7520.511	1	1	0	0	0.23424	0.19838	0.11379	0.16166	0.17965	0.14634	0.36384	0.27837	0.2364	0.085589	0.30284	0.068814	0.15957	0.10959	0.20244	0.47728	0.46875	-0.41042	-0.43125	0.15833	-0.8	-0.25	-0.25833	-0.65208	0.15	-0.50208	-0.76042	0.09375	-0.54583	-0.34167	-0.035417	-0.76667	89.201	-46.141	13.229	226.621	19.847	-94.526	-95.881	220.121	257.284	-30.290	228.322	-92.052	252.885	-74.307	129.076	180.076	0.0001759	0.00051027	9.7661e-05	889.64	1.7607e-06	2.2845e-06	967.46	189.34	2.2208e-06	4.7478e-06	240.48	68.481	53.936	15.82	2.1844e-06	22.258	0.00017691	0.0001867	4.6012e-05	874.44	1.8936e-06	2.0615e-06	959.95	188.59	1.9626e-06	1.96e-06	239.4	68.462	53.929	16.036	1.7919e-06	22.556	169.353	19.868	4.435	-90.570	45.936	234.337	-90.053	-82.966	88.817	33.477	-83.343	-76.573	-76.134	-68.854	8.916	-69.602	-8191	255	
7520.632	1	1	0	0	0.15524	0.3315	0.087405	0.23055	0.17711	0.27437	0.53114	0.098726	0.12362	0.33114	0.19294	0.094332	0.075776	0.13931	0.17919	0.20101	0.36875	-0.39375	-0.6375	-0.06875	-0.65208	-0.37708	-0.3	-0.85417	0.079167	-0.25208	-1.0292	0.1375	-0.5125	-0.63125	0.079167	-0.96042	-41.763	-81.692	-88.193	231.374	172.240	34.536	176.713	58.229	-80.701	-97.673	3.443	235.209	145.673	234.428	119.770	125.839	9.9883e-05	0.00041851	4.4268e-05	883.04	3.6939e-06	1.0555e-06	977.35	189.95	2.7467e-06	2.1868e-06	241.84	68.3	53.543	15.973	1.8423e-06	22.103	0.00018381	0.00017824	4.6209e-05	872.31	1.997e-06	1.9212e-06	961.46	188.75	2.0657e-06	1.9358e-06	240.16	68.331	53.755	16.11	1.7789e-06	22.568	116.774	25.091	12.547	-90.199	68.346	123.200	-89.931	-82.945	-26.125	39.548	-83.497	-76.741	-76.018	-68.589	30.375	-69.194	-8191	255	
7520.728	1	1	0	0	0.30908	0.37192	0.15811	0.26059	0.21557	0.11518	0.12258	0.20271	0.26002	0.17974	0.1455	0.13013	0.17917	0.013914	0.322	0.22589	0.12708	-0.21042	-0.63958	-0.029167	-0.41042	-0.41667	0.0020833	-0.74792	-0.1375	-0.19583	-0.96042	-0.1	-0.3875	-0.88958	0.0625	-0.79792	-19.306	-31.064	164.092	256.518	200.175	241.049	162.811	254.991	28.516	154.555	160.064	-65.206	105.856	-33.417	-86.494	171.739	0.00017879	0.00053914	0.00012109	888.76	2.9688e-06	1.492e-06	967.64	189.47	3.7428e-06	2.4177e-06	241.14	68.163	52.985	15.628	3.2307e-06	22.179	0.00018967	0.00016903	4.4478e-05	874.67	2.066e-06	1.853e-06	958.36	188.87	2.0911e-06	1.7539e-06	239.47	68.46	53.61	15.991	1.6761e-06	22.661	135.888	-43.083	12.326	-90.231	-1.158	38.145	-89.979	-82.706	-70.180	33.421	-83.332	-76.463	-75.866	-68.716	28.141	-69.570	-8191	255	
7520.824	1	1	0	0	0.20348	0.12177	0.14643	0.21017	0.28661	0.12164	0.15468	0.24069	0.2051	0.3812	0.28995	0.10513	0.077052	0.23646	0.099028	0.24703	0.3	-0.15	-0.79792	-0.13333	-0.43125	-0.82708	-0.079167	-0.85208	-0.30833	-0.097917	-0.83542	-0.06875	-0.36458	-0.86458	0.058333	-0.64375	161.304	24.395	227.590	232.593	206.027	99.204	212.201	-27.568	156.356	-16.032	204.737	135.538	-32.297	17.150	203.615	107.993	0.00020211	0.00012646	8.0061e-05	893.02	3.0801e-06	1.6284e-06	976.1	190.28	1.9185e-06	3.5045e-06	241.96	68.133	53.571	15.888	1.6688e-06	22.231	0.00019267	0.00016097	4.2955e-05	876.75	2.018e-06	1.8052e-06	960.98	189.18	2.0343e-06	1.7232e-06	239.89	68.488	53.746	16.037	1.7054e-06	22.64	108.377	99.198	16.283	-90.427	19.403	51.031	-90.544	-82.653	-67.140	104.078	-82.888	-76.361	-76.132	-68.701	176.222	-69.396	-8191	255	
7520.920	1	1	0	0	0.12109	0.13055	0.10844	0.29767	0.22679	0.36514	0.13308	0.23327	0.18386	0.3246	0.079423	0.24734	0.059621	0.23887	0.16861	0.18752	-0.16875	0.2125	-0.94167	-0.31667	-0.26042	-0.83333	-0.077083	-0.625	-0.43542	0.15833	-0.79167	-0.0375	-0.035417	-0.8	0.13542	-0.54375	134.257	-11.621	48.375	-54.413	185.212	-22.604	-49.274	-100.086	154.089	107.864	237.612	-79.629	54.859	174.549	155.569	175.854	8.3571e-05	0.00024488	8.484e-05	884.51	2.6474e-06	2.5246e-06	972.78	190.37	1.7776e-06	2.7773e-06	242.31	68.374	53.891	15.767	1.7336e-06	22.409	0.00018007	0.00016175	4.5441e-05	875.03	1.9058e-06	1.7111e-06	959.72	188.78	1.954e-06	1.7143e-06	239.56	68.636	53.864	16.023	1.8457e-06	22.623	123.282	64.240	-3.421	-90.518	60.607	32.218	-90.196	-82.529	36.762	33.826	-83.233	-76.690	-76.535	-68.916	122.023	-69.545	-8191	255	
7521.039	1	1	0	0	0.13858	0.13731	0.1865	0.28148	0.19807	0.097994	0.043216	0.1083	0.26258	0.11325	0.42924	0.14673	0.051803	0.2439	0.10218	0.27969	-0.14583	0.20417	-0.89792	-0.28958	-0.052083	-0.75833	-0.1	-0.69583	-0.5	0.14792	-0.75	-0.21875	-0.016667	-0.97917	0.16042	-0.42708	132.320	141.788	24.213	185.947	-23.338	93.705	106.235	253.249	185.687	-13.120	211.016	-35.273	-8.353	-15.454	216.717	-83.207	9.8517e-05	0.00032227	7.8148e-05	891.73	9.9482e-07	2.7258e-06	974.14	189.03	3.0336e-06	2.7957e-06	241.01	67.555	53.792	15.749	3.1581e-06	22.225	0.00017317	0.00015536	4.7432e-05	877.15	1.8688e-06	1.7463e-06	960.09	188.56	1.8354e-06	1.6924e-06	239.71	68.463	53.584	16.009	1.9898e-06	22.599	101.956	-7.726	58.651	-90.335	7.754	39.188	-90.553	-82.986	-88.785	66.536	-83.322	-77.001	-76.619	-68.624	72.856	-69.263	-8191	255	
7521.113	1	1	0	0	0.26894	0.22697	0.13174	0.1333	0.49996	0.19791	0.36691	0.19106	0.1498	0.42838	0.086542	0.28732	0.24512	0.40369	0.18074	0.079234	-0.34375	0.16667	-0.61875	-0.28958	0.19792	-0.67708	-0.095833	-0.45833	-0.60833	0.15417	-0.66042	-0.44167	0.079167	-0.60208	0.0020833	-0.15208	-86.425	94.684	-60.939	209.466	212.991	177.368	211.501	233.988	115.120	220.872	-85.919	248.619	188.060	-72.317	41.662	86.717	0.00019858	0.00031198	5.6321e-05	885.89	5.4726e-07	4.8163e-06	967.81	189.96	3.3711e-06	3.3469e-06	241.64	67.786	53.764	15.877	1.4453e-06	22.369	0.00017	0.00015596	5.0715e-05	873.38	1.768e-06	1.7811e-06	959.31	188.82	1.792e-06	1.6954e-06	240.45	68.398	53.588	16.074	2.052e-06	22.612	122.256	14.548	11.614	-90.342	84.985	36.247	-90.333	-82.586	67.078	75.980	-82.941	-76.783	-75.953	-68.620	-62.237	-69.323	-8191	255	
7521.209	1	1	0	0	0.14	0.20556	0.14174	0.27158	0.1882	0.16823	0.10173	0.27413	0.071981	0.29002	0.30566	0.27696	0.12682	0.029344	0.24009	0.085024	-0.31458	0.32083	-0.61458	-0.74375	0.35208	-0.825	-0.30625	-0.10417	-0.83333	0.079167	-0.84792	-0.70417	-0.0125	-0.80625	-0.1	-0.010417	-66.249	97.672	-35.267	254.498	77.824	113.186	-24.677	166.168	48.723	199.340	-80.109	178.954	27.117	123.573	208.528	137.943	0.00022813	0.00029263	1.2485e-05	889.03	1.325e-06	2.0701e-06	975.95	191.66	7.6323e-07	4.4086e-06	243.08	68.394	53.417	15.867	3.8443e-06	22.432	0.00016626	0.00016191	5.1811e-05	873.36	1.6845e-06	1.7981e-06	961.98	189.01	1.7802e-06	1.7562e-06	240.51	68.643	53.461	16.067	2.0314e-06	22.58	112.115	-20.268	51.091	-90.597	7.543	42.536	-90.202	-82.748	31.005	67.358	-83.451	-76.713	-76.069	-68.903	112.968	-69.379	-8191	255	
7521.329	1	1	0	0	0.2319	0.23746	0.081572	0.12142	0.15246	0.058046	0.1296	0.24819	0.12236	0.027683	0.076192	0.20884	0.14494	0.060547	0.084867	0.16078	-0.29375	0.11667	-0.48125	-1.0042	0.0083333	-0.83958	-0.37917	-0.05625	-0.73958	0.08125	-0.51667	-0.66875	0.075	-0.56458	-0.37917	-0.085417	-11.058	131.475	209.979	162.773	18.088	-66.224	-14.318	-37.698	138.716	103.292	-64.071	188.798	147.620	256.702	125.465	16.509	0.00015215	0.00035182	5.5542e-05	887.72	2.5744e-06	7.2197e-07	976.23	189.88	2.6369e-06	2.2806e-06	241.89	68.343	53.181	15.709	3.2723e-06	22.371	0.00016362	0.00017437	5.06e-05	874.1	1.6537e-06	1.9003e-06	962.31	188.55	1.7277e-06	1.9036e-06	239.86	68.543	53.465	16.034	1.9619e-06	22.539	154.939	70.945	-9.573	-90.477	150.075	17.665	-90.403	-82.878	74.319	56.570	-83.216	-76.614	-76.182	-68.742	-31.900	-68.977	-8191	255	
7521.424	1	1	0	0	0.046827	0.12902	0.29298	0.06788	0.21012	0.064983	0.2391	0.22651	0.11361	0.044086	0.37513	0.33565	0.14786	0.1402	0.16064	0.2201	-0.375	-0.052083	-0.43125	-0.86458	0.12917	-0.70208	-0.51042	0.060417	-0.87292	-0.095833	-0.27917	-0.80625	0.089583	-0.66667	-0.49792	0.14375	42.583	66.473	-15.037	-56.672	-54.111	-95.369	229.236	150.331	106.529	42.483	-49.695	184.380	25.974	213.579	-76.922	219.665	0.0001574	0.00047711	6.8675e-05	884.5	5.0283e-06	8.6779e-07	967.12	189.53	1.5697e-06	2.9249e-06	241.72	68.048	53.559	15.819	3.0947e-06	22.478	0.00016158	0.00018236	4.9041e-05	873.95	1.7199e-06	1.9576e-06	959.78	188.37	1.7866e-06	2.0245e-06	240.21	68.305	53.478	16.084	1.8415e-06	22.619	113.009	5.403	56.893	-90.189	48.813	188.398	-90.045	-82.636	241.374	88.846	-83.059	-77.006	-76.067	-68.263	45.994	-69.520	-8191	255	
7521.520	1	1	0	0	0.30188	0.20662	0.26675	0.10791	0.084874	0.14497	0.22782	0.15503	0.10962	0.30647	0.21028	0.048403	0.083304	0.05929	0.3091	0.19277	-0.37917	-0.1125	-0.072917	-0.82708	0.16875	-0.54792	-0.51042	0.079167	-0.6875	-0.30208	-0.077083	-0.79375	-0.077083	-0.46875	-0.62708	0.033333	8.709	153.403	34.947	224.180	103.249	72.476	220.414	192.036	122.344	84.428	212.341	150.442	39.355	241.130	238.977	26.353	0.00019247	0.00021926	0.00010949	884.12	2.2531e-06	5.1987e-06	974.24	189	2.0091e-06	2.7856e-06	241.8	67.882	53.149	15.803	1.7584e-06	22.242	0.00017177	0.00018301	4.5565e-05	873.6	1.8259e-06	1.9903e-06	962.07	187.98	1.8763e-06	2.0122e-06	239.68	68.334	53.401	16.089	1.7755e-06	22.541	117.486	41.754	26.235	-90.444	65.477	8.403	-90.218	-82.609	81.571	58.876	-82.841	-76.780	-76.063	-68.739	11.296	-69.403	-8191	255	
7521.641	1	1	0	0	0.29207	0.15013	0.20916	0.15148	0.13064	0.12347	0.045744	0.027239	0.27083	0.15053	0.23878	0.18837	0.12749	0.171	0.012838	0.079498	-0.28542	-0.23125	-0.020833	-0.95208	0.016667	-0.60208	-0.83958	-0.03125	-0.8125	-0.33125	-0.020833	-0.87292	-0.125	-0.37917	-0.80208	0.052083	209.775	-83.461	229.200	247.391	54.076	175.456	-94.772	-16.013	-31.745	123.665	200.471	-80.523	202.658	214.197	19.634	153.662	0.00014851	0.00043727	2.9864e-05	890.74	1.4246e-06	5.4415e-06	971.33	189.44	2.5479e-06	3.3899e-06	242.54	68.482	53.459	15.878	1.5634e-06	22.355	0.00017925	0.00017743	4.3827e-05	874.28	1.9659e-06	1.9129e-06	959.49	188.12	2.0204e-06	1.9068e-06	239.93	68.584	53.606	16.063	1.7324e-06	22.594	134.001	-5.613	-89.181	-90.388	164.020	51.726	-90.599	-82.956	-0.294	23.096	-82.847	-76.360	-76.628	-68.631	117.638	-69.148	-8191	255	
7521.737	1	1	0	0	0.27451	0.21565	0.16955	0.14411	0.19629	0.16932	0.36957	0.32023	0.2164	0.18135	0.241	0.18911	0.12666	0.14329	0.18198	0.11797	-0.11042	-0.31875	0.27292	-0.79167	-0.054167	-0.30625	-0.83958	0.09375	-0.61042	-0.58125	0.027083	-0.74167	-0.1625	-0.083333	-0.89583	0.022917	-47.228	66.454	119.901	184.904	133.753	-39.723	144.478	249.169	-73.746	-76.605	197.593	14.635	145.436	29.380	32.453	184.713	0.00022913	0.00031563	1.4344e-05	889.45	5.7118e-07	1.4052e-06	972.12	189.76	1.4405e-06	2.3028e-06	241.79	67.744	53.457	15.852	2.3924e-06	22.11	0.00018546	0.00017253	4.305e-05	874.14	2.0381e-06	1.8086e-06	961.15	188.69	2.0468e-06	1.7952e-06	239.06	68.259	53.845	16.078	1.7254e-06	22.583	124.438	-36.159	18.812	-90.365	30.040	57.015	-90.216	-82.704	80.046	81.399	-83.015	-76.399	-76.402	-69.230	13.711	-68.942	-8191	255	
7521.808	1	1	0	0	0.141	0.17789	0.32606	0.28034	0.062437	0.14814	0.25864	0.17108	0.09492	0.23981	0.067609	0.079834	0.18572	0.28132	0.12799	0.12871	-0.0041667	-0.43958	0.11042	-0.92917	-0.066667	-0.17708	-1.025	-0.05625	-0.37292	-0.80417	0	-0.78125	-0.34375	-0.14792	-0.7625	-0.072917	184.212	133.115	67.008	257.973	-22.831	114.824	190.749	251.762	-16.292	-62.481	133.659	252.882	239.096	6.621	104.614	1.221	0.00016579	0.00017751	4.8627e-05	884.33	9.7288e-07	4.4285e-06	960.32	188.96	4.5631e-06	1.223e-06	239.48	67.807	53.546	15.715	2.7513e-06	22.181	0.00018219	0.00016399	4.1426e-05	874.72	1.9733e-06	1.7515e-06	957.59	188.72	1.9152e-06	1.7766e-06	239.06	68.46	53.803	15.988	1.6881e-06	22.584	135.981	-35.133	-6.947	-90.179	-35.729	39.997	-90.291	-82.749	42.596	84.206	-83.287	-76.034	-76.645	-68.713	20.083	-69.919	-8191	255	
7521.929	1	1	0	0	0.14052	0.14609	0.091968	0.090636	0.26651	0.062826	0.22672	0.084177	0.34654	0.14851	0.19793	0.12646	0.14873	0.13039	0.081013	0.12489	0.041667	-0.58958	0.085417	-0.90208	-0.28542	0.025	-1.0167	-0.14167	-0.17083	-0.83542	0.13542	-0.66458	-0.38125	-0.1	-0.74375	-0.091667	17.424	-28.426	71.632	-22.777	-54.322	131.474	91.661	184.034	30.080	114.226	138.202	193.176	-41.587	216.239	95.178	226.123	0.00018344	0.00029602	0.00010688	884.78	1.5973e-06	5.7152e-06	971.43	189.25	2.5319e-06	2.3905e-06	241.18	67.702	52.996	15.766	2.8087e-06	22.321	0.00017925	0.00015461	4.1917e-05	876.19	1.921e-06	1.7123e-06	958.74	188.17	1.8767e-06	1.6972e-06	239.88	68.412	53.446	16.011	1.7828e-06	22.672	127.419	30.223	-11.397	-90.539	-39.816	53.115	-90.435	-82.780	52.787	55.561	-83.111	-76.296	-76.619	-68.091	67.506	-69.695	-8191	255	
7522.025	1	1	0	0	0.097724	0.18286	0.17218	0.086139	0.1302	0.055776	0.26511	0.19971	0.28455	0.18035	0.29574	0.2522	0.070048	0.2491	0.20322	0.2388	0.18958	-0.80417	0.12083	-0.65833	-0.5625	0.13125	-0.85833	-0.28542	0.0083333	-0.65208	0.1	-0.45208	-0.67917	0.13333	-0.54167	-0.0375	211.103	35.953	215.719	-44.012	3.464	134.142	256.064	-58.813	-26.707	-67.593	133.360	234.576	-65.372	74.121	194.900	255.387	0.00011145	0.00017527	0.00014521	903.46	2.2963e-06	2.7089e-06	986.15	191.76	1.5947e-06	4.4846e-06	243.62	68.661	54.027	16.115	1.999e-06	22.421	0.00017145	0.00015437	4.5139e-05	879.67	1.8433e-06	1.6777e-06	964.93	189.02	1.8048e-06	1.7432e-06	240.11	68.802	53.581	16.128	1.8816e-06	22.71	117.579	-5.405	-28.436	-90.622	112.332	34.052	-90.949	-83.252	225.761	40.167	-83.823	-76.762	-76.434	-69.208	81.734	-69.693	-8191	255	
7522.121	1	1	0	0	0.22056	0.22057	0.065865	0.020853	0.25879	0.15383	0.22151	0.21903	0.054157	0.18032	0.11925	0.54776	0.1495	0.16407	0.060945	0.23683	0.12292	-0.64792	0.014583	-0.30417	-0.59375	0.17083	-0.96042	-0.26458	0.027083	-0.62083	-0.19167	-0.3125	-0.66667	0.035417	-0.775	-0.4125	45.103	234.903	78.737	140.821	63.617	-5.402	225.508	93.166	211.595	119.874	59.714	198.196	23.393	168.322	246.288	-97.491	0.00012841	0.00043901	7.6604e-05	897.57	3.2977e-06	2.3411e-06	978.15	191.32	2.3303e-06	2.1685e-06	241.67	68.014	53.694	15.877	8.4689e-07	22.054	0.00016493	0.00015409	4.8437e-05	877.55	1.8276e-06	1.6727e-06	962.6	189.01	1.765e-06	1.6933e-06	239.74	68.518	53.627	16.066	1.9625e-06	22.529	143.096	-10.966	54.586	-90.573	40.123	146.426	-90.429	-82.751	8.225	91.954	-83.500	-76.749	-75.777	-68.547	200.792	-69.870	-8191	255	
7522.216	1	1	0	0	0.073131	0.11182	0.14378	0.056002	0.12328	0.18447	0.17538	0.19708	0.081063	0.26286	0.27141	0.035504	0.14103	0.23543	0.025277	0.052835	0.2875	-0.87917	0.045833	-0.16458	-0.78958	0.2875	-0.6375	-0.60417	0.22708	-0.76875	-0.083333	-0.083333	-0.99167	0.072917	-0.3625	-0.50417	89.052	103.375	176.995	256.774	-11.925	47.578	247.850	151.031	-19.252	16.595	-85.513	9.273	250.031	242.773	257.415	-48.406	0.00019543	0.00034341	5.7266e-05	891.65	2.9733e-06	1.7919e-06	974.29	189.53	1.1412e-06	1.9119e-06	244.17	68.149	53.7	15.871	3.571e-06	22.386	0.00015999	0.00015854	5.1106e-05	877.96	1.7048e-06	1.7211e-06	963.61	188.25	1.6956e-06	1.7963e-06	240.55	68.583	53.68	16.078	1.9521e-06	22.568	119.987	-55.651	13.042	-90.485	-2.781	-38.463	-90.234	-82.814	-100.687	121.228	-83.344	-76.409	-76.163	-68.303	23.001	-69.705	-8191	255	
7522.314	1	1	0	0	0.28723	0.14133	0.14234	0.28787	0.080552	0.10046	0.091818	0.2183	0.13952	0.11862	0.13547	0.088842	0.2142	0.11922	0.1284	0.24806	0.41458	-0.82083	0.0041667	-0.20625	-0.84167	0.11667	-0.51667	-0.77083	0.11875	-0.61458	-0.32292	-0.20417	-0.9125	0.022917	-0.31458	-0.71042	-76.821	-63.790	25.684	213.802	173.129	36.915	-35.457	-95.691	-11.058	218.110	24.077	177.831	199.388	109.406	-41.727	-51.109	0.0001325	0.00021229	5.8535e-05	886.63	1.6037e-06	1.8027e-06	970.95	188.09	2.3015e-06	2.1292e-06	240.67	67.142	52.674	15.731	2.2953e-06	22.187	0.00015808	0.00016824	5.1113e-05	875.68	1.7328e-06	1.8754e-06	961.58	188.23	1.6754e-06	1.8557e-06	239.6	68.325	53.233	16.045	1.8805e-06	22.568	155.271	-37.389	-12.625	-90.439	8.182	68.569	-90.257	-82.674	9.420	106.592	-83.323	-76.696	-76.440	-68.661	41.444	-69.511	-8191	255	
7522.408	1	1	0	0	0.23741	0.17897	0.20102	0.15138	0.18824	0.052027	0.24339	0.17028	0.18942	0.28681	0.20249	0.10072	0.12027	0.30595	0.3161	0.20769	0.53958	-0.72083	-0.2375	-0.097917	-0.72292	-0.079167	-0.43125	-0.76042	0.05625	-0.52708	-0.5375	0.079167	-0.85208	-0.08125	-0.27917	-0.72917	48.563	7.562	-72.965	-65.505	181.635	197.595	252.711	120.485	197.843	-60.468	224.742	139.234	-30.132	180.379	157.201	218.905	0.0001775	0.00045517	0.00010642	890.05	2.9727e-06	3.9146e-06	968.41	188.63	4.042e-06	2.4194e-06	242.8	67.968	54.107	15.885	4.4074e-07	22.232	0.00015917	0.00018	4.9586e-05	876.48	1.6949e-06	1.9994e-06	959.83	188.33	1.7292e-06	1.9411e-06	240.29	68.504	53.56	16.1	1.8521e-06	22.58	122.070	4.336	-5.293	-90.145	12.757	1.971	-90.055	-82.656	-30.256	-21.875	-83.150	-76.868	-76.351	-68.912	17.441	-69.364	-8191	255	
7522.504	1	1	0	0	0.044566	0.39514	0.23062	0.18951	0.061405	0.2192	0.52995	0.22992	0.26035	0.024059	0.31515	0.23423	0.10528	0.208	0.079772	0.16209	0.39583	-0.47917	-0.39583	-0.01875	-0.66875	-0.19792	-0.54583	-0.9	0.225	-0.37083	-0.54167	0.09375	-0.925	-0.32708	-0.0083333	-0.90417	-97.919	150.566	238.691	199.156	240.397	94.616	206.385	192.601	224.854	77.878	183.745	203.842	164.245	171.572	61.072	24.487	0.00016749	0.0001758	8.6682e-05	887.03	2.1385e-06	2.3407e-06	971.1	189.51	1.7731e-06	2.6928e-06	239.76	68.136	52.813	15.63	2.1785e-06	22.29	0.00016155	0.00018242	4.6081e-05	875.36	1.8243e-06	1.9855e-06	960.42	188.28	1.7811e-06	1.9608e-06	238.81	68.47	53.403	16.031	1.7704e-06	22.573	119.850	-98.102	10.738	-90.295	-20.606	82.756	-90.031	-82.487	223.444	30.657	-83.257	-76.178	-76.080	-68.390	75.967	-69.666	-8191	255	
7522.600	1	1	0	0	0.064873	0.17748	0.20178	0.20148	0.20025	0.06614	0.050682	0.14827	0.012228	0.11885	0.15448	0.19608	0.18612	0.14333	0.21323	0.054665	0.42083	-0.33542	-0.57292	-0.0375	-0.76875	-0.31667	-0.16042	-0.99583	-0.04375	-0.30833	-0.75	-0.022917	-0.72917	-0.44583	0.020833	-0.85833	121.346	251.006	251.157	224.503	195.667	-35.216	-59.098	-80.048	-84.052	-39.395	190.032	-82.573	203.322	12.865	179.799	131.879	0.00018055	0.00056917	9.7126e-05	882.89	9.0261e-07	3.369e-06	970.6	189.29	6.5876e-07	2.9781e-06	242.4	67.762	53.179	15.766	3.6373e-06	22.239	0.0001759	0.00018115	4.4017e-05	873.14	1.9152e-06	1.9377e-06	960.71	188.39	1.9835e-06	1.9007e-06	240.22	68.563	53.687	16.022	1.6875e-06	22.591	145.246	22.297	-64.208	-90.274	41.046	102.687	-90.223	-82.634	147.878	83.950	-83.086	-76.463	-76.087	-68.486	61.085	-69.569	-8191	255	
7522.721	1	1	0	0	0.13341	0.031141	0.10347	0.11193	0.20932	0.012159	0.2695	0.12737	0.20214	0.26367	0.31151	0.2344	0.19538	0.050129	0.21019	0.14699	0.34792	-0.23542	-0.70208	0.095833	-0.75208	-0.42917	0.085417	-0.97917	-0.12083	-0.20417	-1.0958	-0.010417	-0.84375	-0.75833	0.13333	-0.8375	124.746	7.370	199.202	234.822	256.190	13.360	190.918	103.207	50.869	-51.751	236.042	126.291	216.190	-47.052	150.461	110.435	0.0001516	0.00028278	8.4097e-05	890.79	2.1321e-06	3.9311e-06	969.19	188.15	4.6672e-06	5.0478e-06	241.36	67.69	53.262	15.768	4.4265e-06	22.215	0.00018411	0.00016841	4.4614e-05	876.71	2.004e-06	1.8795e-06	960.14	188.36	2.0275e-06	1.8246e-06	240.1	68.451	53.724	16.044	1.688e-06	22.634	118.056	41.600	-73.468	-90.570	-45.143	90.019	-90.193	-82.324	9.964	58.294	-83.020	-76.654	-75.683	-68.949	69.844	-69.595	-8191	255	
7522.817	1	1	0	0	0.11515	0.086479	0.063995	0.1439	0.15343	0.13143	0.1157	0.097579	0.17451	0.079502	0.12283	0.43711	0.021087	0.10191	0.095221	0.23089	0.225	-0.17708	-0.71875	0.125	-0.475	-0.56667	-0.04375	-0.77083	-0.32708	-0.070833	-0.725	0.01875	-0.45625	-0.6375	0.064583	-0.66458	-92.294	-89.198	245.286	-77.996	199.439	104.510	182.140	130.046	212.873	213.146	31.836	184.881	52.087	-71.082	-17.625	256.702	0.00015536	0.00038716	0.00012902	885.61	3.519e-06	3.7056e-06	974.56	189.42	3.2263e-06	4.3545e-07	241.53	68.149	52.893	15.658	9.5582e-07	22.224	0.00018319	0.00016389	4.3859e-05	874.12	1.9743e-06	1.8249e-06	963.11	188.97	1.9878e-06	1.7109e-06	240.4	68.644	53.602	16.019	1.6614e-06	22.592	123.379	19.852	-29.135	-90.649	56.928	69.593	-90.160	-82.693	-22.537	82.215	-82.892	-76.892	-76.239	-68.552	99.286	-69.329	-8191	255	
7522.913	1	1	0	0	0.29646	0.12565	0.32056	0.35491	0.033125	0.32792	0.30369	0.1887	0.22891	0.11808	0.22795	0.15415	0.2959	0.27206	0.13273	0.1324	0.10833	0.033333	-0.77292	-0.26042	-0.3125	-0.70417	0.14583	-0.91875	-0.34792	-0.1	-0.94375	-0.058333	-0.2625	-0.9875	0.03125	-0.74792	176.942	188.609	77.553	250.567	65.202	154.755	143.274	224.179	95.283	29.770	203.388	52.400	-96.711	-85.613	-37.726	37.958	0.00015859	0.00033886	6.2212e-05	885.15	2.6142e-06	4.0236e-06	976.9	189.6	1.7521e-06	3.5732e-06	242.31	68.371	53.709	15.931	3.2555e-06	22.412	0.00018309	0.00015608	4.3395e-05	874.8	1.9661e-06	1.6981e-06	961.94	188.72	1.9457e-06	1.7041e-06	240.25	68.706	53.794	16.039	1.7167e-06	22.75	126.303	-32.162	10.014	-90.290	-21.223	70.636	-90.370	-82.789	-12.188	69.833	-83.212	-76.724	-75.985	-69.116	19.503	-69.042	-8191	255	
7523.009	1	1	0	0	0.27698	0.20398	0.2072	0.43237	0.0084873	0.10509	0.35803	0.17414	0.22212	0.31508	0.29396	0.22729	0.056891	0.074253	0.27841	0.089709	0.03125	0.13958	-0.75625	-0.20417	-0.19167	-0.6875	-0.085417	-0.55	-0.54583	0.2875	-0.80417	-0.39375	0.054167	-0.6625	0.010417	-0.60417	254.012	201.788	70.280	-87.117	219.940	-47.660	191.863	126.124	206.158	70.599	-91.458	175.647	152.939	211.659	185.976	-70.081	0.0001789	0.00036306	0.0001004	883.73	1.4494e-06	4.2186e-06	966.56	188.18	9.398e-07	2.8842e-06	242.08	66.973	53.395	15.839	2.0009e-06	22.304	0.0001767	0.00015482	4.4297e-05	874.7	1.8276e-06	1.6716e-06	960.03	188.57	1.857e-06	1.6536e-06	240.47	68.423	53.692	16.073	1.8348e-06	22.617	114.134	-40.401	20.664	-90.282	-26.430	93.561	-90.233	-82.490	143.338	101.531	-83.033	-76.366	-76.521	-68.614	77.978	-69.021	-8191	255	
7523.106	1	1	0	0	0.13469	0.093005	0.27483	0.33946	0.11857	0.4315	0.17795	0.18946	0.12083	0.050634	0.24226	0.066169	0.38946	0.05879	0.058079	0.36146	-0.16667	0.26042	-0.86875	-0.21875	0.06875	-0.725	-0.066667	-0.49375	-0.57708	0.10625	-0.61042	-0.41042	-0.12708	-0.79583	-0.16458	-0.36042	-96.559	232.887	-11.684	223.449	47.758	84.256	28.593	255.088	182.662	193.719	-95.256	-56.027	252.262	105.724	33.222	239.333	0.00013813	0.00028036	4.3839e-05	888.43	4.2878e-06	1.1133e-06	969.25	189.83	1.8604e-06	4.631e-06	241.71	67.52	53.153	15.747	2.3931e-06	22.366	0.00017037	0.00014926	4.64e-05	876.05	1.7559e-06	1.6591e-06	961.29	188.65	1.7883e-06	1.6616e-06	239.74	68.472	53.654	16.061	1.9826e-06	22.692	109.356	6.373	91.856	-90.486	12.176	34.792	-90.437	-82.675	-18.069	37.272	-83.393	-76.645	-76.256	-68.178	53.733	-69.243	-8191	255	
7523.202	1	1	0	0	0.23939	0.13427	0.16225	0.063152	0.12944	0.21822	0.19099	0.090472	0.054428	0.10924	0.11259	0.3234	0.35479	0.26768	0.26488	0.28574	-0.43958	0.04375	-0.68333	-0.57708	0.11042	-0.68542	-0.26458	-0.32292	-0.64167	0.15625	-0.82292	-0.66042	-0.01875	-0.56667	-0.15833	-0.27083	46.926	180.817	-17.073	101.498	167.078	82.366	188.378	44.226	137.844	-66.084	-54.050	4.511	244.075	-31.001	8.130	258.173	0.00015587	0.00030233	9.5961e-05	884.05	2.6381e-06	1.992e-06	967.8	187.98	2.6729e-06	2.0124e-06	240.62	67.646	53.487	15.665	3.2924e-06	22.265	0.00016491	0.0001521	4.973e-05	875.99	1.7196e-06	1.722e-06	961.34	188.7	1.7527e-06	1.6982e-06	240.24	68.543	53.55	16.036	2.0347e-06	22.62	123.691	-21.919	-11.006	-90.274	113.383	78.204	-90.179	-82.425	42.267	-55.141	-83.249	-76.896	-76.000	-68.622	29.819	-69.245	-8191	255	
7523.321	1	1	0	0	0.32274	0.20078	0.11247	0.14894	0.38562	0.16936	0.18553	0.2274	0.24997	0.27481	0.19149	0.2688	0.1668	0.10464	0.15128	0.23443	-0.38958	0.075	-0.525	-0.91667	0.11667	-0.77917	-0.26875	-0.16458	-0.70417	0.083333	-0.525	-0.46667	0.2	-0.85833	-0.40417	-0.054167	222.153	-98.115	4.074	208.277	117.790	224.265	188.417	214.068	143.936	-20.050	-45.217	245.790	217.732	-20.467	-7.249	-76.158	0.0001105	0.00020459	0.0001169	891.11	1.506e-06	2.4986e-06	971.61	190.31	1.475e-06	2.2868e-06	242.19	67.33	53.302	15.832	2.3738e-06	22.084	0.00016453	0.00016284	5.0298e-05	876.76	1.6774e-06	1.8492e-06	962.61	189.28	1.7282e-06	1.8363e-06	240.5	68.472	53.528	16.139	1.9659e-06	22.563	154.977	-56.717	-29.610	-90.500	94.133	56.921	-90.678	-82.979	-38.905	79.458	-83.452	-76.899	-76.507	-68.465	54.147	-69.681	-8191	255	
7523.417	1	1	0	0	0.057068	0.12901	0.10199	0.088771	0.048381	0.32766	0.067498	0.17499	0.25743	0.19331	0.28905	0.22349	0.18766	0.21505	0.21134	0.17904	-0.55625	0.00625	-0.52917	-0.94167	0.097917	-0.60208	-0.56875	-0.21667	-0.92708	0.016667	-0.45417	-0.82917	0.11042	-0.65417	-0.40208	0.20625	143.615	-1.303	247.042	237.862	129.038	-42.043	247.850	203.675	44.551	86.892	224.050	23.621	-58.731	204.209	202.235	-70.778	0.00019379	0.00039296	8.3979e-05	886.29	1.8768e-06	4.1993e-06	969.33	189.52	2.2309e-06	2.5692e-06	240.05	67.409	53.072	15.737	1.763e-06	22.2	0.00016109	0.00017323	4.9424e-05	875.19	1.6566e-06	1.9171e-06	962.65	188.67	1.7095e-06	1.9944e-06	239.76	68.222	53.468	16.093	1.9187e-06	22.617	130.915	32.746	-0.662	-90.271	92.103	29.975	-90.262	-82.711	3.355	47.390	-83.044	-76.634	-76.292	-68.310	41.856	-69.061	-8191	255	
7523.513	1	1	0	0	0.23602	0.2949	0.34635	0.23278	0.036495	0.19242	0.13512	0.14417	0.221	0.1978	0.26864	0.12838	0.026501	0.25165	0.016548	0.32073	-0.49583	-0.047917	-0.22083	-0.87917	0.054167	-0.65417	-0.7	0.058333	-0.9	-0.24167	-0.125	-0.83333	0.12708	-0.47083	-0.40417	0.1375	-59.529	57.047	-6.490	157.131	-71.497	-17.671	165.735	216.299	13.138	73.136	233.854	-50.883	-85.838	-86.357	211.144	-69.834	0.00010759	0.0003201	0.00012314	891.46	2.5912e-06	2.7014e-06	966.58	188.84	2.3746e-06	1.6991e-06	240.12	67.009	52.755	15.499	2.2131e-06	22.409	0.00016263	0.00018046	4.6235e-05	875.66	1.7416e-06	1.93e-06	960.72	188.48	1.8158e-06	1.983e-06	240.09	68.313	53.576	16.027	1.8003e-06	22.66	136.781	-9.878	-14.515	-90.313	4.740	116.251	-90.329	-82.433	133.317	33.728	-82.689	-76.994	-75.691	-68.208	57.274	-69.394	-8191	255	
7523.609	1	1	0	0	0.16527	0.38788	0.34511	0.14423	0.17936	0.28745	0.14817	0.22102	0.07345	0.15449	0.078574	0.18614	0.15817	0.25372	0.18334	0.12201	-0.41875	-0.175	-0.089583	-0.98958	-0.04375	-0.43958	-0.74792	-0.0020833	-0.72917	-0.32917	-0.06875	-0.82708	-0.027083	-0.275	-0.72292	0.28125	29.357	-20.336	230.440	-22.139	-36.883	4.123	218.597	219.398	27.943	-48.474	-14.715	166.131	103.419	250.057	11.541	136.542	0.00026791	0.00022604	8.4556e-05	880.43	3.7409e-06	2.0029e-06	967.38	188.42	3.0941e-06	2.2041e-06	240.92	67.323	52.708	15.717	2.6394e-06	22.322	0.00016791	0.00017833	4.3695e-05	874.62	1.877e-06	1.9279e-06	959.84	188.73	1.9307e-06	1.8953e-06	240.03	68.26	53.63	16.074	1.7201e-06	22.596	112.684	-33.274	30.045	-90.391	-6.447	42.872	-89.908	-82.544	-86.993	54.475	-82.498	-76.415	-75.878	-68.255	58.257	-69.509	-8191	255	
7523.705	1	1	0	0	0.11904	0.1629	0.41924	0.23575	0.078533	0.32852	0.38427	0.16036	0.073805	0.063111	0.1347	0.28672	0.18952	0.1395	0.15675	0.14307	-0.34792	-0.24375	0.020833	-0.98333	-0.16875	-0.2375	-0.6875	0.060417	-0.59375	-0.37708	0.064583	-0.60833	0.066667	-0.12292	-0.67708	0.03125	-20.487	36.573	-79.438	108.406	202.784	3.759	197.185	184.847	63.999	178.232	209.367	-42.684	53.775	-70.710	80.877	-32.525	0.00015155	0.00018257	5.2059e-05	888.5	9.0729e-07	4.3416e-06	972.38	188.87	2.6472e-06	6.7566e-07	241.48	67.639	52.971	15.86	3.5117e-06	22.382	0.00018067	0.00017645	4.2596e-05	875.88	1.9952e-06	1.8297e-06	962.94	188.53	1.9391e-06	1.8106e-06	240.35	68.616	53.804	16.087	1.6941e-06	22.575	126.147	-11.011	-19.732	-90.180	248.306	81.969	-90.154	-82.554	48.043	-44.902	-82.863	-76.573	-76.080	-68.511	-13.141	-69.437	-8191	255	
7523.801	1	1	0	0	0.15141	0.1903	0.1273	0.37899	0.31014	0.058159	0.12422	0.2073	0.22157	0.091332	0.24296	0.10509	0.29785	0.077365	0.14297	0.13426	-0.21667	-0.34583	0.16667	-0.80208	-0.054167	-0.22917	-0.98542	0.052083	-0.57083	-0.34583	0.21458	-0.88333	-0.23542	-0.16042	-0.8625	-0.13542	163.286	10.648	20.999	222.816	-92.664	-61.781	239.732	138.433	142.236	-78.381	145.892	152.779	-47.285	-40.464	-57.685	214.366	0.00014531	0.00062223	5.776e-05	885.49	1.0531e-06	4.2016e-06	962.34	188.31	3.3607e-06	3.2435e-07	239.41	67.413	52.846	15.674	8.2854e-07	22.002	0.00018321	0.00016136	4.114e-05	877.54	2.0438e-06	1.7584e-06	959.48	188.74	1.9885e-06	1.7466e-06	239.64	68.577	53.604	16.035	1.6648e-06	22.565	131.197	-12.292	-46.201	-90.199	145.021	94.930	-90.110	-82.526	11.827	244.752	-82.940	-76.104	-76.426	-68.119	167.648	-68.774	-8191	255	
7523.897	1	1	0	0	0.17255	0.2437	0.18052	0.15827	0.21163	0.203	0.087862	0.12803	0.17142	0.1332	0.2037	0.11923	0.27465	0.19754	0.17494	0.10437	-0.25417	-0.725	0.20417	-0.69375	-0.15833	0.2	-0.6375	0	-0.16042	-0.58542	0.066667	-0.88333	-0.36042	-0.070833	-0.83333	0.10208	14.441	192.169	102.889	220.375	78.591	244.267	239.320	188.336	70.619	41.010	-94.571	-21.859	184.945	226.718	50.164	110.022	0.00016151	0.00036928	8.26e-05	886.48	9.8634e-07	5.1564e-06	967.06	187.6	2.8407e-06	2.8532e-06	241.25	67.694	52.845	15.647	1.4624e-06	22.231	0.0001789	0.00015781	4.1013e-05	879.01	1.9099e-06	1.66e-06	960.79	188.29	1.913e-06	1.6734e-06	239.87	68.691	53.677	16.027	1.721e-06	22.642	143.851	39.595	-3.123	-90.037	134.530	-19.877	-90.407	-82.493	-35.172	38.516	-82.851	-76.735	-75.567	-68.548	124.418	-68.784	-8191	255	
7523.994	1	1	0	0	0.21873	0.14837	0.071905	0.22691	0.17173	0.053506	0.19233	0.11431	0.18318	0.073176	0.093511	0.26469	0.36424	0.16108	0.18632	0.30546	0.03125	-0.68958	0.029167	-0.71458	-0.60833	0.075	-1.1187	-0.16458	-0.31875	-0.86667	0.035417	-0.61458	-0.625	-0.0083333	-0.70833	-0.31667	132.736	45.775	-99.277	-93.015	22.583	-30.300	-87.626	6.237	18.821	58.540	101.327	226.197	258.262	-94.430	204.488	176.172	0.00019049	0.00013139	5.7798e-05	887.73	8.6743e-07	4.4905e-06	963.91	187.79	4.4101e-07	2.8047e-06	240.2	67.719	52.771	15.693	1.3408e-06	22.096	0.0001692	0.00015709	4.0625e-05	877.13	1.8099e-06	1.6222e-06	959.25	188.11	1.7813e-06	1.6791e-06	239.91	68.604	53.627	16.034	1.8118e-06	22.594	119.952	-5.814	130.283	-90.160	-26.791	10.679	-90.091	-82.682	24.857	59.616	-83.009	-75.916	-76.263	-68.603	38.536	-69.053	-8191	255	
7524.112	1	1	0	0	0.1606	0.076501	0.20887	0.2263	0.18091	0.20872	0.13257	0.40408	0.062307	0.10646	0.087631	0.077335	0.21919	0.024747	0.079259	0.16202	0.30208	-0.58125	0.1625	-0.65208	-0.73542	0.075	-0.875	-0.66042	0.09375	-0.9625	0.041667	-0.62917	-0.77083	0.21458	-0.7375	-0.3625	-35.718	13.594	49.961	228.521	-14.907	70.294	184.863	193.395	179.911	82.177	207.804	177.014	-22.966	249.183	-98.412	89.344	0.00012886	0.00032051	4.8671e-05	887.91	3.2922e-06	2.7143e-06	973.2	188.92	1.1539e-06	8.2088e-07	241.3	68.024	53.967	15.9	1.9992e-06	22.221	0.00016103	0.00014678	4.4293e-05	877.53	1.7613e-06	1.6824e-06	963.49	188.76	1.7535e-06	1.6531e-06	240.35	68.579	54.032	16.067	1.8742e-06	22.627	142.805	-1.401	30.786	-89.954	-16.482	63.831	-90.493	-82.808	-48.931	44.580	-83.082	-76.417	-76.088	-69.042	22.326	-69.218	-8191	255	
7524.209	1	1	0	0	0.27955	0.18039	0.079281	0.10457	0.074905	0.14321	0.36766	0.28362	0.076746	0.03952	0.14936	0.15738	0.13011	0.051827	0.26446	0.31475	0.5125	-0.57917	0.08125	-0.45208	-0.65833	0.21667	-0.85208	-0.37292	-0.01875	-0.99792	-0.21458	-0.35625	-0.85417	0.0125	-0.58125	-0.39167	76.227	84.195	13.295	73.210	104.122	65.465	172.501	143.562	212.286	-49.495	-75.504	253.959	67.598	-3.322	60.933	195.107	0.00014615	0.00029643	3.0798e-05	882.34	3.2036e-06	2.8922e-06	985.52	190.03	7.6842e-07	3.196e-07	242.95	68.405	53.508	15.796	2.9551e-06	22.171	0.00015873	0.0001514	4.8255e-05	877.81	1.7076e-06	1.6707e-06	968.2	189.09	1.6772e-06	1.6714e-06	241	68.839	53.577	16.082	1.9694e-06	22.577	129.206	-4.653	-28.256	-90.061	-74.166	8.346	-90.433	-83.043	128.884	9.572	-82.809	-76.518	-76.587	-68.758	-1.809	-69.652	-8191	255	
7524.282	1	1	0	0	0.17968	0.18947	0.24546	0.1963	0.097896	0.24792	0.25519	0.12321	0.10656	0.1597	0.087894	0.23432	0.14432	0.098574	0.034474	0.066136	0.41667	-0.8125	-0.03125	-0.31042	-0.64375	0.047917	-0.65833	-0.64375	0.15833	-0.58125	-0.40417	-0.13125	-0.82292	0.12292	-0.42708	-0.52917	-63.287	105.343	258.826	207.407	-16.909	-22.480	242.673	109.484	92.486	-52.737	119.766	185.706	29.452	-96.069	64.073	141.626	0.0001007	9.0641e-05	6.4427e-05	892.94	4.8344e-06	2.2165e-06	970.79	189.67	2.6406e-06	1.4762e-06	242.71	68.05	54.197	15.977	5.2173e-07	22.488	0.00015473	0.00016116	5.0467e-05	880.77	1.665e-06	1.7406e-06	963.81	188.89	1.6192e-06	1.7707e-06	241.31	68.807	53.965	16.138	1.9461e-06	22.687	149.425	8.435	-60.253	-90.349	-5.372	38.140	-90.167	-82.788	-48.147	-6.640	-83.310	-76.693	-76.352	-68.534	-59.937	-70.115	-8191	255	
7524.401	1	1	0	0	0.099556	0.15536	0.11356	0.2532	0.24692	0.10676	0.3844	0.39422	0.041902	0.1885	0.31532	0.18353	0.098155	0.1188	0.11484	0.077916	0.55417	-0.50625	-0.27917	-0.29375	-0.75	-0.039583	-0.5375	-0.73333	0.05625	-0.72292	-0.43333	0.0020833	-0.93333	0.0625	-0.275	-0.78333	-7.140	122.427	22.965	244.981	-45.901	3.153	256.660	220.558	126.879	124.790	-90.378	117.765	139.638	244.342	140.277	133.722	0.00014125	0.00023252	9.4877e-05	894.31	2.5119e-06	5.6795e-07	978.69	188.45	2.6673e-06	1.4192e-06	242.49	67.679	53.5	15.764	1.279e-06	22.089	0.00015374	0.00016918	4.9517e-05	879.92	1.6597e-06	1.8205e-06	966.04	188.75	1.6838e-06	1.9287e-06	240.58	68.436	53.578	16.043	1.7692e-06	22.54	126.848	-7.265	51.310	-90.459	-8.875	175.020	-90.041	-82.525	-71.439	128.217	-83.267	-76.660	-76.181	-68.589	124.573	-68.939	-8191	255	
7524.497	1	1	0	0	0.099674	0.15796	0.11199	0.042377	0.14976	0.23952	0.21036	0.28386	0.15608	0.13913	0.17517	0.055275	0.088765	0.097169	0.30666	0.17917	0.46667	-0.50625	-0.24792	0.025	-0.86042	-0.05625	-0.38542	-0.9	0.14375	-0.57083	-0.48542	0.17292	-0.82708	-0.11458	-0.2375	-0.6625	-51.088	149.191	255.579	236.387	135.345	142.355	235.206	207.551	38.704	13.751	-56.111	116.229	-70.277	-51.894	118.418	204.310	0.000185	0.00022012	5.2087e-05	888.74	3.0204e-07	1.975e-06	981.64	191.15	2.5042e-06	2.4945e-06	244.64	68.437	53.365	15.959	2.7602e-06	22.314	0.00015567	0.00017658	4.5561e-05	877.08	1.7086e-06	1.9537e-06	965.2	189.35	1.7111e-06	1.9881e-06	241.33	68.717	53.738	16.124	1.7112e-06	22.636	135.072	55.650	-74.940	-90.357	145.046	72.731	-90.335	-83.140	15.205	68.619	-83.358	-76.270	-76.574	-69.004	13.560	-69.504	-8191	255	
7524.593	1	1	0	0	0.34247	0.40354	0.2058	0.31845	0.45461	0.27966	0.081435	0.16238	0.15486	0.14462	0.16616	0.10798	0.35912	0.26161	0.076608	0.18091	0.51042	-0.66458	-0.45208	0.21458	-0.83542	-0.18542	-0.31875	-0.80833	0.047917	-0.4875	-0.85833	-0.027083	-0.69792	-0.40417	-0.075	-0.79792	234.615	239.771	110.019	233.724	69.813	92.876	-61.059	-6.771	-22.598	-95.812	68.319	220.068	175.529	196.133	-48.972	-2.586	0.00011729	0.00035121	8.0404e-05	892.75	3.1384e-06	4.8444e-06	976.88	189.82	3.5738e-06	1.9525e-06	241.42	67.771	53.669	15.871	3.6026e-06	22.377	0.00016953	0.00018327	4.4261e-05	879.1	1.8385e-06	1.9718e-06	965.06	188.93	1.8355e-06	1.8866e-06	240.82	68.581	53.76	16.139	1.7055e-06	22.655	111.528	8.803	-47.177	-90.472	23.673	78.036	-90.264	-82.747	-8.099	62.523	-83.245	-76.613	-76.569	-68.716	23.569	-69.504	-8191	255	
7524.689	1	1	0	0	0.23669	0.21397	0.33594	0.24472	0.14533	0.12004	0.2564	0.079435	0.043733	0.13652	0.15516	0.17377	0.036359	0.17721	0.15309	0.26507	0.38333	-0.2625	-0.72083	-0.041667	-0.75625	-0.48125	-0.089583	-0.99583	-0.0041667	-0.2875	-0.97917	0.14375	-0.66458	-0.36458	-0.014583	-0.95	200.862	-0.347	59.135	-99.774	157.309	-21.153	90.197	126.438	-73.042	-8.206	248.986	56.242	-17.675	190.801	203.300	149.413	0.00015195	4.8667e-05	6.6298e-05	894.9	1.5024e-06	3.2635e-06	972.64	191.33	3.0609e-06	1.6069e-06	241.56	68.402	54.194	15.802	1.8155e-06	22.496	0.00017715	0.00017179	4.343e-05	880.37	1.9343e-06	1.8283e-06	963.45	189.39	1.9885e-06	1.8575e-06	240.24	68.655	54.176	16.035	1.6536e-06	22.735	113.257	181.255	2.697	-90.376	-21.194	43.391	-90.104	-82.534	-46.113	50.672	-83.248	-76.641	-76.275	-69.088	28.796	-69.259	-8191	255	
7524.810	1	1	0	0	0.25327	0.054376	0.12816	0.35986	0.098306	0.072532	0.11105	0.069469	0.41122	0.14703	0.13217	0.12504	0.10219	0.17582	0.15021	0.19635	0.40833	-0.089583	-0.75625	0.0020833	-0.75	-0.43958	-0.047917	-0.93333	-0.12292	-0.06875	-0.8625	0.2875	-0.53542	-0.61875	-0.025	-0.825	164.532	-22.550	53.417	253.648	121.562	210.496	135.200	-98.318	12.994	195.120	-33.313	-87.657	89.215	175.046	174.738	107.144	0.00014915	0.00031028	0.00012389	889.78	3.764e-06	3.6066e-06	968.02	189.96	1.973e-06	2.5123e-06	242.72	67.708	53.298	15.891	1.941e-06	22.475	0.00018275	0.00016098	4.2636e-05	877.62	1.9848e-06	1.7506e-06	962.33	189.21	1.987e-06	1.6865e-06	240.57	68.688	53.733	16.109	1.6391e-06	22.734	138.848	-76.369	22.838	-90.473	99.406	18.805	-90.127	-82.433	24.298	80.253	-83.255	-76.431	-76.601	-68.569	-37.323	-69.261	-8191	255	
7524.906	1	1	0	0	0.1542	0.12469	0.41302	0.10505	0.26746	0.14624	0.16461	0.067277	0.18291	0.080693	0.10327	0.38331	0.10693	0.15306	0.13737	0.228	0.40625	0.11667	-0.83125	0.05	-0.35	-0.62292	0.0041667	-0.80833	-0.30625	-0.15833	-0.8375	-0.0875	-0.34375	-0.79792	0.08125	-0.62917	112.514	-1.788	239.379	-47.596	41.307	96.241	196.391	70.694	55.558	40.428	52.352	246.098	7.496	172.403	13.424	93.804	0.0001461	0.00036818	2.4049e-05	888.56	1.2723e-06	1.8496e-06	969.12	188.85	2.6249e-06	7.5135e-07	241.83	68.018	54.108	15.762	2.333e-06	22.269	0.00018399	0.0001595	4.2541e-05	878.69	1.9175e-06	1.7504e-06	963.72	188.91	1.9206e-06	1.6607e-06	240.66	68.8	53.893	16.072	1.6569e-06	22.634	128.627	-3.684	-42.814	-90.675	-15.372	40.269	-90.109	-82.595	92.231	51.767	-83.335	-76.336	-76.128	-68.426	75.206	-69.733	-8191	255	
7525.002	1	1	0	0	0.16514	0.076835	0.066461	0.15471	0.17812	0.11759	0.2743	0.23786	0.2247	0.22144	0.16113	0.26424	0.1703	0.01641	0.3933	0.1583	-0.047917	0.05	-0.82917	0.014583	-0.26458	-0.8	-0.1125	-0.74375	-0.525	0.13958	-0.93125	-0.0375	-0.16667	-0.87708	-0.066667	-0.74583	234.903	141.734	222.480	-55.500	-26.036	36.679	146.165	132.655	-41.979	15.619	131.240	103.283	83.179	158.811	212.332	154.262	0.00019119	0.0002506	5.9443e-05	888.89	1.4629e-06	6.6156e-07	969.04	187.36	1.7646e-06	2.2628e-06	240.29	67.788	52.736	15.719	2.1756e-06	22.186	0.00017417	0.00015255	4.2333e-05	878.42	1.8164e-06	1.6835e-06	963.38	188.86	1.814e-06	1.6583e-06	240.12	68.897	53.527	16.059	1.7144e-06	22.631	143.244	-50.246	-66.385	-90.242	105.692	144.379	-90.080	-82.601	65.361	35.089	-83.323	-76.607	-76.338	-68.278	114.007	-68.692	-8191	255	
7525.098	1	1	0	0	0.23561	0.24803	0.21436	0.20647	0.071973	0.11517	0.38096	0.086545	0.18922	0.038701	0.24432	0.35892	0.1993	0.097002	0.39737	0.20681	-0.064583	0.16667	-0.83125	-0.13542	0.04375	-0.92708	0.047917	-0.53125	-0.7125	0.12708	-0.74792	-0.29583	-0.22708	-1.0354	0.1125	-0.50417	38.699	75.236	36.295	250.332	242.205	15.430	252.902	121.405	123.764	-49.180	199.257	142.710	-34.458	67.890	180.713	203.712	0.00016601	0.00043014	2.907e-05	883.99	2.3969e-06	2.0365e-06	966.86	188.53	9.5935e-07	2.5421e-06	238	67.029	53.292	15.641	2.9649e-06	21.976	0.0001675	0.00015214	4.4333e-05	877.43	1.7672e-06	1.628e-06	963.44	189	1.8069e-06	1.6196e-06	240.16	68.457	53.681	16.014	1.8401e-06	22.641	144.721	-42.440	3.743	-90.398	-15.538	85.237	-90.290	-82.249	85.317	13.687	-82.943	-76.308	-76.313	-68.472	37.438	-68.934	-8191	255	
7525.193	1	1	0	0	0.14271	0.19795	0.23076	0.11108	0.068865	0.19703	0.42745	0.020833	0.097585	0.054136	0.089794	0.25319	0.11461	0.17165	0.072853	0.21401	-0.12917	0.26667	-0.61458	-0.74792	0.095833	-0.9	-0.175	-0.54583	-0.76667	0.079167	-0.72083	-0.25	-0.029167	-0.73333	-0.15625	-0.37292	216.313	-23.956	208.022	-59.107	-55.398	17.889	229.518	98.510	182.647	-86.321	-40.093	-39.711	-52.644	145.344	178.773	-11.235	0.00011331	0.00017152	8.2369e-05	879.14	5.4074e-07	8.3542e-07	968.73	188.78	1.004e-06	2.3436e-06	240.07	67.587	52.903	15.683	3.6854e-06	22.056	0.00016104	0.00014706	4.7675e-05	877.23	1.6994e-06	1.6112e-06	964.48	188.72	1.7125e-06	1.6122e-06	240.3	68.772	53.558	16.058	1.917e-06	22.578	122.914	12.893	-48.944	-89.940	76.482	-87.778	-90.438	-82.349	27.630	79.022	-83.241	-76.157	-76.068	-68.718	24.445	-68.746	-8191	255	
#DATA ENDS
