BOXY.EXE: ISS Imagent and Oximeter Data Acquisition Program Version 0.80
Ascii Record File

#ACQ INFORMATION
2  Detector Channels 
16  External MUX Channels 
1  Auxiliary Channels 
5000  Waveform (CCF) Frequency (Hz)
1  Waveforms Skipped 
30  Waveforms Averaged 
1  Cycles Averaged 
16  Acquisitions per Waveform 
10.0806  Updata Rate (Hz) 

#FILE INFORMATION
TRUE -- External MUX Channel results are PARSED.
FALSE -- AC DC and Phase are NOT grouped.
TRUE -- Companion Program Settings File CREATED.
FALSE -- AC data not excluded
FALSE -- DC data not excluded
FALSE -- Phase data not excluded
FALSE -- Auxillary Chn. data not excluded
Tab delimiters

#CALIBRATION STATE
TRUE -- Waveform Calibration Values APPLIED.


#AUX CALIBRATION VALUES
Val Type	aux-1	

Term	1.0000e+00	
Factor	0.0000e+00	


#WF CALIBRATION VALUES
A = Detector Channel
Val Type	A-AC1	A-AC2	A-AC3	A-AC4	A-AC5	A-AC6	A-AC7	A-AC8	A-AC9	A-AC10	A-AC11	A-AC12	A-AC13	A-AC14	A-AC15	A-AC16	A-DC1	A-DC2	A-DC3	A-DC4	A-DC5	A-DC6	A-DC7	A-DC8	A-DC9	A-DC10	A-DC11	A-DC12	A-DC13	A-DC14	A-DC15	A-DC16	A-Ph1	A-Ph2	A-Ph3	A-Ph4	A-Ph5	A-Ph6	A-Ph7	A-Ph8	A-Ph9	A-Ph10	A-Ph11	A-Ph12	A-Ph13	A-Ph14	A-Ph15	A-Ph16	

Term	0.00000e+00	0.00000e+00	0.00000e+00	0.00000e+00	0.00000e+00	0.00000e+00	0.00000e+00	0.00000e+00	0.00000e+00	0.00000e+00	0.00000e+00	0.00000e+00	0.00000e+00	0.00000e+00	0.00000e+00	0.00000e+00	0.00000e+00	0.00000e+00	0.00000e+00	0.00000e+00	0.00000e+00	0.00000e+00	0.00000e+00	0.00000e+00	0.00000e+00	0.00000e+00	0.00000e+00	0.00000e+00	0.00000e+00	0.00000e+00	0.00000e+00	0.00000e+00	0.00000e+00	0.00000e+00	0.00000e+00	0.00000e+00	0.00000e+00	0.00000e+00	0.00000e+00	0.00000e+00	0.00000e+00	0.00000e+00	0.00000e+00	0.00000e+00	0.00000e+00	0.00000e+00	0.00000e+00	0.00000e+00	
Factor	1.00000e+00	1.00000e+00	1.00000e+00	1.00000e+00	1.00000e+00	1.00000e+00	1.00000e+00	1.00000e+00	1.00000e+00	1.00000e+00	1.00000e+00	1.00000e+00	1.00000e+00	1.00000e+00	1.00000e+00	1.00000e+00	1.00000e+00	1.00000e+00	1.00000e+00	1.00000e+00	1.00000e+00	1.00000e+00	1.00000e+00	1.00000e+00	1.00000e+00	1.00000e+00	1.00000e+00	1.00000e+00	1.00000e+00	1.00000e+00	1.00000e+00	1.00000e+00	X	X	X	X	X	X	X	X	X	X	X	X	X	X	X	X	

B = Detector Channel
Val Type	B-AC1	B-AC2	B-AC3	B-AC4	B-AC5	B-AC6	B-AC7	B-AC8	B-AC9	B-AC10	B-AC11	B-AC12	B-AC13	B-AC14	B-AC15	B-AC16	B-DC1	B-DC2	B-DC3	B-DC4	B-DC5	B-DC6	B-DC7	B-DC8	B-DC9	B-DC10	B-DC11	B-DC12	B-DC13	B-DC14	B-DC15	B-DC16	B-Ph1	B-Ph2	B-Ph3	B-Ph4	B-Ph5	B-Ph6	B-Ph7	B-Ph8	B-Ph9	B-Ph10	B-Ph11	B-Ph12	B-Ph13	B-Ph14	B-Ph15	B-Ph16	

Term	0.00000e+00	0.00000e+00	0.00000e+00	0.00000e+00	0.00000e+00	0.00000e+00	0.00000e+00	0.00000e+00	0.00000e+00	0.00000e+00	0.00000e+00	0.00000e+00	0.00000e+00	0.00000e+00	0.00000e+00	0.00000e+00	0.00000e+00	0.00000e+00	0.00000e+00	0.00000e+00	0.00000e+00	0.00000e+00	0.00000e+00	0.00000e+00	0.00000e+00	0.00000e+00	0.00000e+00	0.00000e+00	0.00000e+00	0.00000e+00	0.00000e+00	0.00000e+00	-1.92451e+02	-1.27396e+02	-1.21933e+02	-1.81702e+02	-8.52248e+01	-7.17860e+01	-1.59827e+02	-1.62015e+02	-9.79175e+01	-6.25268e+01	-1.72064e+02	-1.71235e+02	-1.81225e+02	-1.77148e+02	-7.86684e+01	-1.49556e+02	
Factor	3.17922e-05	1.27293e-04	3.00469e-05	1.53336e-01	1.19824e-06	1.32970e-06	1.61206e-01	4.07326e-02	1.19885e-06	1.02860e-06	6.92827e-02	2.47474e-02	3.05553e-02	7.28990e-03	1.03716e-06	1.04097e-02	2.12434e-06	2.26520e-06	6.27488e-07	8.18888e-02	2.46237e-08	2.48108e-08	8.10272e-02	2.18854e-02	2.46444e-08	2.48727e-08	3.58425e-02	1.28119e-02	1.63559e-02	3.93248e-03	2.46604e-08	5.42419e-03	X	X	X	X	X	X	X	X	X	X	X	X	X	X	X	X	



#DISTANCE SETTINGS
A = Detector Channel
A-1	A-2	A-3	A-4	A-5	A-6	A-7	A-8	A-9	A-10	A-11	A-12	A-13	A-14	A-15	A-16	

2.5000e+00	3.0000e+00	2.5000e+00	3.0000e+00	2.0000e+00	3.0000e+00	1.5000e+00	3.0000e+00	3.0000e+00	3.0000e+00	3.0000e+00	3.0000e+00	3.0000e+00	3.0000e+00	1.5000e+00	3.0000e+00	

B = Detector Channel
B-1	B-2	B-3	B-4	B-5	B-6	B-7	B-8	B-9	B-10	B-11	B-12	B-13	B-14	B-15	B-16	

1.0000e+01	1.0000e+01	1.0000e+01	1.4400e+00	1.0000e+01	1.0000e+01	1.5100e+00	1.9400e+00	1.0000e+01	1.0000e+01	1.9900e+00	2.4900e+00	2.4100e+00	2.9000e+00	1.0000e+01	2.9800e+00	




#DATA BEGINS
time	group	step	mark	flag	A-AC1	A-AC2	A-AC3	A-AC4	A-AC5	A-AC6	A-AC7	A-AC8	A-AC9	A-AC10	A-AC11	A-AC12	A-AC13	A-AC14	A-AC15	A-AC16	A-DC1	A-DC2	A-DC3	A-DC4	A-DC5	A-DC6	A-DC7	A-DC8	A-DC9	A-DC10	A-DC11	A-DC12	A-DC13	A-DC14	A-DC15	A-DC16	A-Ph1	A-Ph2	A-Ph3	A-Ph4	A-Ph5	A-Ph6	A-Ph7	A-Ph8	A-Ph9	A-Ph10	A-Ph11	A-Ph12	A-Ph13	A-Ph14	A-Ph15	A-Ph16	B-AC1	B-AC2	B-AC3	B-AC4	B-AC5	B-AC6	B-AC7	B-AC8	B-AC9	B-AC10	B-AC11	B-AC12	B-AC13	B-AC14	B-AC15	B-AC16	B-DC1	B-DC2	B-DC3	B-DC4	B-DC5	B-DC6	B-DC7	B-DC8	B-DC9	B-DC10	B-DC11	B-DC12	B-DC13	B-DC14	B-DC15	B-DC16	B-Ph1	B-Ph2	B-Ph3	B-Ph4	B-Ph5	B-Ph6	B-Ph7	B-Ph8	B-Ph9	B-Ph10	B-Ph11	B-Ph12	B-Ph13	B-Ph14	B-Ph15	B-Ph16	aux-1	digaux	

7533.645	1	1	0	256	0.20276	0.11802	0.24137	0.30968	0.10652	0.31399	0.10085	0.1919	0.1509	0.08793	0.14595	0.069182	0.16045	0.39441	0.32499	0.30809	-0.52917	-0.03125	-0.525	-0.79792	0.10625	-0.82917	-0.43958	-0.20833	-0.78125	0	-0.6	-0.67292	0.14583	-0.84583	-0.041667	-0.1125	-21.959	184.634	171.054	190.477	-32.711	-7.121	-58.815	199.464	1.302	146.433	38.276	224.934	-59.588	-96.492	183.264	226.439	0.00039428	0.00042574	0.00015775	1287.8	7.5696e-06	4.9172e-06	1288.4	350.44	4.5615e-06	2.5528e-06	399.91	133.44	115.05	39.747	5.4485e-06	49.156	0.0012854	0.001392	0.00042307	1332.3	1.4227e-05	1.5484e-05	1344.9	364.89	1.421e-05	1.5723e-05	424.63	141.58	123.84	42.486	1.6142e-05	52.784	112.590	-73.687	-23.953	-93.069	-7.422	83.330	-93.218	-88.271	153.867	-48.194	-88.508	-84.793	-84.318	-79.092	-31.184	-79.804	-8191	255	
7533.740	1	1	0	0	0.14847	0.048294	0.027474	0.26362	0.16247	0.18442	0.25872	0.072802	0.12354	0.14695	0.060419	0.16326	0.058091	0.30836	0.19238	0.34125	-0.41667	-0.054167	-0.48333	-0.92708	0.13958	-0.6875	-0.56875	0.10417	-0.93333	-0.22708	-0.51458	-0.87917	0.17083	-0.80208	-0.50208	0.025	197.592	61.807	193.734	165.286	2.005	-92.978	248.032	101.737	31.483	-24.791	129.536	150.095	129.099	248.630	88.268	149.990	0.00040869	0.00027367	0.00016411	1276	4.5284e-06	1.0224e-06	1282	349.6	3.6775e-06	4.5706e-06	403.42	133.1	115.27	39.509	8.8142e-06	49.071	0.001246	0.001467	0.00040177	1327.2	1.3951e-05	1.5999e-05	1340.7	364.54	1.4196e-05	1.6281e-05	424.84	141.27	124.11	42.54	1.558e-05	52.549	153.234	178.590	-36.904	-92.915	-64.377	-31.349	-92.881	-88.163	12.435	22.881	-88.637	-84.618	-84.399	-79.442	-12.391	-80.382	-8191	255	
7533.811	1	1	0	0	0.059049	0.21105	0.16047	0.1252	0.20153	0.084186	0.21956	0.23643	0.14917	0.22043	0.18452	0.29498	0.039559	0.15652	0.083513	0.3931	-0.475	-0.19375	-0.06875	-0.97708	-0.010417	-0.48958	-0.67917	-0.029167	-0.81667	-0.26458	-0.32083	-0.95208	0.027083	-0.69583	-0.39167	0.14167	-64.269	35.928	-81.705	-92.995	217.876	20.251	242.486	144.832	-35.775	-90.154	128.044	-106.264	125.436	100.095	65.613	220.166	0.00049748	0.000836	0.00016971	1277.8	6.3702e-06	1.5735e-05	1284.3	349.73	8.1057e-06	8.7538e-06	403.75	132.49	115.26	39.559	5.0685e-06	49.298	0.0012796	0.001507	0.00038628	1327.3	1.4508e-05	1.6491e-05	1338.3	363.89	1.4835e-05	1.6493e-05	423.98	141.07	124.66	42.455	1.5146e-05	52.534	133.237	-80.587	-43.094	-93.027	116.701	-16.809	-93.089	-88.375	-44.557	6.741	-88.702	-84.658	-84.502	-79.043	11.269	-80.002	-8191	255	
7533.932	1	1	0	0	0.10734	0.12322	0.062741	0.38746	0.20753	0.042133	0.37527	0.31041	0.12278	0.10084	0.2205	0.3594	0.15285	0.14226	0.19839	0.080938	-0.50417	-0.00625	-0.027083	-1.0458	0.00625	-0.25625	-0.75208	0.14375	-0.65417	-0.38333	-0.20417	-1.0333	-0.14167	-0.31875	-0.60208	0.014583	76.165	206.738	-43.902	225.728	242.436	-88.598	221.721	231.455	238.161	-81.598	183.575	-74.755	182.085	240.144	98.123	222.146	0.00054554	0.00056502	8.4527e-05	1278.8	8.0097e-06	5.6468e-06	1286.4	349.2	5.1219e-06	2.9589e-06	403.36	132.71	115.39	39.848	5.5326e-06	49.156	0.0013564	0.001511	0.00037613	1326.4	1.5659e-05	1.6197e-05	1336.4	363.5	1.5808e-05	1.62e-05	423.21	140.79	125.12	42.425	1.4799e-05	52.554	131.617	-39.036	-8.028	-93.096	-88.251	62.626	-93.202	-88.294	-57.477	12.905	-88.753	-84.943	-84.210	-79.380	0.081	-80.117	-8191	255	
7534.028	1	1	0	0	0.11074	0.058396	0.12194	0.16238	0.15592	0.16583	0.49088	0.40278	0.12528	0.077311	0.2615	0.20456	0.097464	0.083862	0.11606	0.072534	-0.26667	-0.40625	0.072917	-1.0292	-0.016667	-0.34375	-0.8875	-0.077083	-0.74583	-0.51458	0.09375	-0.85417	-0.20417	-0.33125	-0.86875	0.09375	101.409	250.852	188.671	189.804	180.163	-2.547	178.942	234.301	244.235	162.780	244.253	179.200	213.702	62.054	148.424	188.500	0.00053019	0.0011117	0.00022755	1280	3.2975e-06	1.1766e-05	1293.6	351.62	4.2037e-06	9.377e-06	404.55	133.21	115.83	39.769	2.9225e-06	49.597	0.0014389	0.0014517	0.00036684	1324.9	1.62e-05	1.5495e-05	1336.7	364.24	1.6264e-05	1.5456e-05	422.06	141.23	125.48	42.367	1.4376e-05	52.751	121.445	-12.840	26.845	-92.957	189.029	34.516	-93.148	-88.581	196.475	13.483	-88.946	-85.126	-84.198	-79.058	-37.961	-80.030	-8191	255	
7534.124	1	1	0	0	0.15633	0.10475	0.036427	0.16405	0.13274	0.16833	0.24564	0.17574	0.11092	0.21788	0.37996	0.20064	0.094009	0.29303	0.26818	0.027564	-0.033333	-0.6125	0.052083	-0.91875	-0.41042	-0.13958	-1.0708	-0.11875	-0.46667	-0.44375	0.016667	-0.97292	-0.13333	-0.20625	-0.69375	-0.097917	3.902	-30.622	81.505	64.034	110.725	-61.864	144.744	157.495	222.204	46.849	250.603	218.327	-101.345	181.033	253.055	185.039	0.00043601	0.00055222	7.1608e-05	1281.8	2.4688e-06	1.238e-05	1292.5	351.48	4.4581e-06	7.2497e-06	404.45	133.87	116.14	39.651	5.0439e-06	49.265	0.001432	0.0013868	0.0003538	1328.7	1.6292e-05	1.4768e-05	1335.1	364.95	1.6112e-05	1.5087e-05	421.42	142.03	125.35	42.172	1.4165e-05	52.876	136.025	-47.665	7.076	-92.883	-94.797	44.278	-93.454	-88.303	-5.622	83.556	-88.868	-84.872	-84.423	-79.325	15.314	-80.153	-8191	255	
7534.221	1	1	0	0	0.085866	0.13548	0.20029	0.27694	0.084686	0.23779	0.2224	0.017188	0.013656	0.31196	0.44371	0.1202	0.12801	0.24666	0.10768	0.2934	-0.13958	-0.67708	0.070833	-0.71667	-0.36042	-0.25417	-0.975	-0.095833	-0.45208	-0.75833	0.04375	-0.64792	-0.51667	0.1375	-0.97083	-0.19375	-67.353	139.760	52.240	215.565	247.848	-13.062	238.261	253.201	226.151	61.246	247.647	188.344	202.719	199.601	188.871	103.285	0.00035443	0.00030271	7.5182e-05	1278.9	1.1383e-05	4.8782e-06	1282.2	348.86	4.7558e-06	5.2119e-06	402.99	133.1	115.67	39.447	5.7549e-06	49.116	0.0013914	0.0013572	0.00034672	1330.1	1.5897e-05	1.4457e-05	1332.7	365.33	1.5614e-05	1.4715e-05	422.28	142.03	124.72	42.069	1.4368e-05	53.019	165.696	22.408	86.564	-93.123	11.997	-4.853	-93.023	-88.327	-30.445	123.781	-88.479	-84.730	-84.292	-79.202	-6.272	-79.950	-8191	255	
7534.341	1	1	0	0	0.17222	0.099983	0.16544	0.28208	0.20039	0.073662	0.2202	0.22259	0.10914	0.32119	0.10213	0.18464	0.17517	0.18103	0.25641	0.11496	0.28333	-0.68125	0.014583	-0.8875	-0.41667	0.0875	-1.1667	-0.43958	-0.36667	-0.8875	-0.014583	-0.4125	-0.70833	-0.15417	-0.75	-0.28958	252.695	-73.712	55.428	235.347	195.269	86.065	218.356	89.277	12.739	172.754	-104.586	119.761	213.976	-88.122	175.088	74.181	0.00051707	0.00080529	0.00033586	1277.2	7.9976e-06	1.168e-05	1295	353.01	8.6566e-06	2.4511e-06	403.04	134.33	115.5	39.722	6.0023e-06	49.292	0.0013582	0.0013308	0.00035898	1331.1	1.5329e-05	1.4046e-05	1337.2	366.13	1.4966e-05	1.4451e-05	422	142.67	124.43	42.113	1.5099e-05	52.947	144.379	-61.032	-105.101	-92.979	-19.718	48.279	-92.987	-88.402	4.719	91.888	-89.030	-85.015	-84.593	-79.552	251.503	-80.487	-8191	255	
7534.437	1	1	0	0	0.43985	0.15194	0.05238	0.22326	0.13856	0.22638	0.30751	0.38678	0.083263	0.31712	0.077904	0.14086	0.27978	0.17438	0.2961	0.25036	0.40625	-0.68333	0.18125	-0.68958	-0.575	0.014583	-0.94792	-0.33542	-0.10417	-0.75	-0.17083	-0.64583	-0.90625	0.097917	-0.73958	-0.64792	243.429	55.166	169.943	181.935	12.080	13.040	217.876	207.482	-14.490	62.903	218.540	-53.369	186.278	-72.537	-3.623	-78.500	0.00046087	0.00159	9.7034e-05	1286.1	3.8404e-06	5.9589e-06	1289.1	350.85	1.2331e-05	3.6538e-06	403.7	133.85	115.55	39.615	1.3617e-06	49.45	0.0012844	0.0013072	0.00037804	1331.8	1.4813e-05	1.3551e-05	1338.2	365.44	1.442e-05	1.4017e-05	422.85	141.7	124.27	41.977	1.5751e-05	52.867	138.440	-22.915	134.371	-93.220	127.523	-8.602	-93.133	-88.561	-8.799	-38.277	-88.937	-84.630	-84.185	-79.579	-3.945	-80.488	-8191	255	
7534.509	1	1	0	0	0.056494	0.4186	0.15093	0.24157	0.2288	0.1978	0.25859	0.22805	0.13384	0.13599	0.077065	0.29862	0.25898	0.2843	0.24681	0.33661	0.26042	-0.72292	0.047917	-0.39375	-0.80417	0.18333	-0.84375	-0.64792	0.15833	-0.85	-0.30417	-0.33542	-0.81875	0.0375	-0.53125	-0.63542	238.665	80.045	-41.695	250.807	33.690	43.269	234.528	241.892	162.040	-65.050	-15.361	228.605	187.639	188.867	-16.137	184.182	0.00045069	0.00036516	0.00018186	1279	6.8401e-06	4.6046e-06	1287	350.03	2.1795e-06	7.0839e-06	402.87	133.61	115.16	39.633	9.529e-06	49.231	0.0012668	0.001297	0.00039816	1328.1	1.4539e-05	1.3831e-05	1339.5	364.71	1.4038e-05	1.4527e-05	424.49	141.25	123.88	42.002	1.628e-05	52.598	150.751	-49.695	78.228	-93.063	32.191	231.984	-93.164	-88.550	203.915	165.197	-89.148	-85.280	-84.484	-79.574	-46.293	-80.092	-8191	255	
7534.605	1	1	0	0	0.1252	0.22812	0.17002	0.27522	0.11357	0.37122	0.14375	0.084467	0.076035	0.29371	0.16134	0.1331	0.022649	0.086212	0.1663	0.28608	0.35208	-0.7	-0.070833	-0.33958	-0.775	0.19583	-0.83958	-0.87292	0.17083	-0.9125	-0.3125	-0.075	-0.88333	-0.033333	-0.40208	-0.76875	-94.192	201.473	-23.456	-89.821	180.716	-65.336	141.241	-90.942	-17.389	-58.951	166.456	251.974	241.486	181.543	215.020	216.489	0.00038203	0.00036297	0.00024684	1278.7	9.1573e-06	6.7769e-06	1286.5	350.49	1.1393e-05	2.3705e-06	403.02	132.38	115.28	39.501	4.1035e-06	49.016	0.0012347	0.0013394	0.00041228	1324	1.4381e-05	1.467e-05	1338.6	363.98	1.3777e-05	1.5172e-05	423.82	140.79	123.43	42.088	1.5895e-05	52.448	118.020	9.440	-1.497	-92.848	25.534	48.823	-93.171	-88.514	-51.009	223.065	-88.922	-84.914	-84.163	-79.368	-44.520	-80.316	-8191	255	
7534.724	1	1	0	0	0.24381	0.34047	0.1111	0.24791	0.048964	0.10302	0.36932	0.10533	0.10083	0.12353	0.28822	0.30847	0.24441	0.04851	0.084187	0.091969	0.48958	-0.77083	-0.31458	-0.27083	-0.7625	-0.11667	-0.72292	-0.91458	0.010417	-0.7875	-0.55208	-0.22708	-0.925	-0.28333	-0.47917	-0.93958	-11.198	67.420	151.279	245.928	170.546	6.561	239.651	248.059	186.223	120.394	228.919	-68.969	217.507	-23.225	226.489	-30.684	0.00030899	0.00041081	0.00010708	1283.4	1.4251e-06	2.4042e-06	1286.9	350.72	7.1544e-06	6.9018e-06	402.75	132.85	115.38	39.552	6.6788e-06	49.257	0.0012114	0.0014186	0.00040541	1324.4	1.4017e-05	1.5423e-05	1336.5	363.4	1.3606e-05	1.5896e-05	422.84	140.6	123.51	42.213	1.5309e-05	52.452	142.173	86.263	-71.768	-92.932	129.353	207.323	-93.260	-88.345	-13.260	-4.607	-88.976	-84.802	-84.264	-79.344	-0.135	-80.406	-8191	255	
7534.820	1	1	0	0	0.27951	0.16574	0.17515	0.35843	0.19622	0.30539	0.41751	0.23182	0.20998	0.31033	0.24042	0.16321	0.12304	0.01999	0.25515	0.090402	0.4875	-0.77708	-0.51042	-0.1875	-0.82708	-0.14792	-0.56667	-0.97708	0.064583	-0.45417	-0.61042	-0.09375	-0.99583	-0.1	-0.22292	-0.73333	58.234	130.644	-89.155	202.886	12.420	114.888	210.852	209.034	-69.260	25.632	169.200	220.362	209.423	154.298	-95.110	245.418	0.00020585	0.00080178	6.4682e-05	1281.4	7.8622e-06	2.5258e-06	1281.1	350.6	4.8186e-06	1.0373e-05	402.48	132.93	115.59	39.818	6.6631e-06	49.578	0.0012203	0.0014793	0.00039084	1322.5	1.4318e-05	1.5973e-05	1333.7	364	1.3897e-05	1.6069e-05	422.29	140.38	124.05	42.309	1.4651e-05	52.464	176.621	-23.413	24.039	-93.055	202.295	-6.184	-92.973	-88.434	39.468	42.425	-89.342	-85.030	-84.671	-79.514	0.152	-80.182	-8191	255	
7534.916	1	1	0	0	0.035111	0.2245	0.11816	0.39462	0.28285	0.18326	0.35173	0.17859	0.16853	0.26549	0.064071	0.09496	0.18963	0.12313	0.25365	0.040006	0.36042	-0.34583	-0.53958	-0.15	-0.61875	-0.20625	-0.14583	-1.1583	0.045833	-0.41042	-0.93333	-0.066667	-0.89792	-0.45417	0.039583	-1.0146	-19.145	-94.325	78.946	-105.973	-60.535	-104.040	171.656	160.663	218.804	112.033	197.967	211.870	101.700	159.075	41.408	-80.393	0.00044873	0.0011643	0.00019382	1282	5.2382e-06	1.234e-05	1285.5	349.9	4.006e-06	7.4263e-06	402.16	132.85	115.11	39.317	5.6908e-06	49.01	0.0012791	0.0014791	0.00037822	1320.5	1.4805e-05	1.5942e-05	1331.7	362.75	1.4819e-05	1.5839e-05	421.49	139.8	124.11	42.031	1.4387e-05	52.119	138.833	-13.023	7.092	-92.795	-56.118	-11.748	-93.243	-88.510	-9.679	53.914	-89.018	-84.962	-83.974	-79.474	-13.850	-80.063	-8191	255	
7535.037	1	1	0	0	0.1341	0.27675	0.14339	0.061428	0.06522	0.19823	0.11074	0.20673	0.27575	0.17862	0.11003	0.16946	0.076294	0.23235	0.12049	0.25554	0.43125	-0.44167	-0.6625	-0.14375	-0.7125	-0.32708	-0.20833	-1.1167	-0.10833	-0.3375	-0.77708	-0.079167	-0.58542	-0.53333	0.022917	-0.93333	-92.363	77.443	242.546	159.632	-65.928	137.070	191.626	47.290	-47.501	83.247	232.873	-94.872	-94.805	227.977	155.055	-100.535	0.00046821	0.00084044	0.00022065	1271.7	4.7952e-06	8.2363e-06	1280.3	347.75	7.7815e-06	3.1612e-06	399.32	132.34	114.79	39.036	6.8453e-06	48.795	0.0013766	0.0014464	0.00037366	1313.8	1.5944e-05	1.596e-05	1324.2	360.82	1.6113e-05	1.5737e-05	419.29	139.61	124.24	41.781	1.4211e-05	52.033	119.470	-17.157	7.578	-93.066	-17.585	25.526	-92.952	-88.304	195.185	80.657	-88.819	-84.956	-84.440	-79.686	93.504	-80.349	-8191	255	
7535.109	1	1	0	0	0.25278	0.12993	0.095782	0.30233	0.24186	0.11805	0.1489	0.28562	0.10217	0.12823	0.15942	0.024476	0.33565	0.13928	0.16124	0.47824	0.20417	-0.22708	-0.68542	0.016667	-0.54375	-0.54583	-0.175	-1.0063	0.016667	-0.095833	-0.94792	-0.0020833	-0.61667	-0.50833	0.04375	-0.925	66.721	137.422	155.266	-48.344	18.659	217.704	190.144	201.731	78.649	46.628	188.593	-44.853	217.003	245.497	142.638	184.223	0.00041466	0.00062627	0.00019794	1269.5	9.1394e-06	6.1024e-06	1271.8	346.52	7.5109e-06	7.3989e-06	398.45	130.58	113.59	39.213	3.2238e-06	48.53	0.0014406	0.0014098	0.00037174	1312.9	1.6469e-05	1.5413e-05	1321.7	360.75	1.6375e-05	1.4982e-05	418.46	139.67	124.05	41.771	1.3939e-05	52.201	150.536	-52.375	-8.364	-93.206	25.945	48.314	-93.123	-88.398	249.924	2.864	-88.861	-84.680	-84.426	-79.335	244.402	-80.136	-8191	255	
7535.205	1	1	0	0	0.26041	0.099198	0.33882	0.25149	0.024915	0.23055	0.11134	0.27099	0.14772	0.3267	0.23092	0.090188	0.13486	0.13342	0.1879	0.5375	0.25625	-0.16042	-0.72708	-0.26458	-0.32292	-0.59375	-0.066667	-0.9375	-0.225	-0.054167	-1.0104	-0.21667	-0.45833	-0.81458	0.16458	-0.68333	65.578	-92.097	4.063	-78.757	-104.397	196.798	103.548	248.222	-12.314	247.658	247.285	164.833	177.074	227.098	251.794	185.268	0.00063152	0.00039623	0.00013908	1265.9	4.4842e-06	4.4335e-06	1269.3	346.83	7.4747e-06	3.2905e-06	399.63	131.86	114.7	39.458	2.6562e-07	48.825	0.0014364	0.0013517	0.00036196	1314.7	1.6056e-05	1.5085e-05	1317.9	361.55	1.5933e-05	1.4682e-05	417.99	139.98	123.71	41.77	1.3529e-05	52.448	141.375	-78.623	-19.524	-92.908	76.554	69.379	-93.574	-88.590	-60.609	-47.653	-89.106	-85.212	-84.473	-79.520	-90.767	-80.489	-8191	255	
7535.325	1	1	0	0	0.16345	0.26013	0.090035	0.343	0.07081	0.045057	0.25761	0.073814	0.16571	0.22735	0.35174	0.2268	0.18045	0.14192	0.23491	0.33058	-0.0041667	-0.11875	-0.875	-0.225	-0.35625	-0.67708	-0.014583	-0.71042	-0.42708	0.11042	-0.96667	-0.095833	-0.3	-0.975	0.33125	-0.70833	174.285	69.860	10.097	227.935	49.599	31.500	218.354	238.387	-0.841	181.006	220.348	196.793	-62.100	20.748	79.861	215.569	0.00048053	0.0011352	0.00018161	1272.4	7.2793e-07	8.9249e-06	1276.4	349.34	1.0892e-05	4.1544e-06	401.43	132.34	114.4	39.408	4.752e-06	48.865	0.0013696	0.0012996	0.0003533	1320.5	1.525e-05	1.4297e-05	1322.8	362.92	1.5236e-05	1.4027e-05	418.61	140.94	123.07	41.68	1.4243e-05	52.437	140.608	-5.402	-7.826	-93.351	-17.048	14.222	-93.565	-88.587	-36.603	67.695	-89.041	-85.169	-84.706	-80.004	58.710	-80.139	-8191	255	
7535.422	1	1	0	0	0.2653	0.044383	0.14342	0.069577	0.075567	0.41167	0.064	0.27782	0.18389	0.29472	0.053753	0.24358	0.21786	0.073049	0.14342	0.10065	0.016667	-0.0875	-0.6	-0.22708	-0.11875	-0.87083	-0.29583	-0.55	-0.625	0.13333	-0.75625	-0.32083	-0.077083	-0.91458	0.0041667	-0.47083	-104.088	82.517	-104.622	90.597	-29.556	215.610	-96.162	198.925	88.489	141.284	-41.265	243.114	158.788	187.112	207.645	235.214	0.00043472	0.00084181	6.3853e-05	1272.8	1.1125e-05	1.1244e-05	1269.7	348.1	3.436e-06	6.0817e-06	401.47	132.04	114.46	39.178	2.7646e-06	48.713	0.0013347	0.0012697	0.00037406	1320	1.4801e-05	1.4393e-05	1322.6	362.27	1.5038e-05	1.3906e-05	419.87	140.33	122.81	41.504	1.5476e-05	52.309	160.664	-28.311	34.219	-93.494	-19.998	59.759	-93.753	-88.763	46.686	110.668	-89.166	-85.158	-84.568	-79.858	44.635	-80.424	-8191	255	
7535.518	1	1	0	0	0.1113	0.1013	0.14845	0.1566	0.077788	0.18296	0.29448	0.29187	0.18304	0.42214	0.22366	0.0606	0.049523	0.32067	0.17981	0.29764	-0.077083	0.28958	-0.85	-0.61875	0.1375	-0.7625	-0.175	-0.62083	-0.68333	0.11042	-0.7875	-0.47292	-0.0875	-0.95625	0.047917	-0.33958	-13.638	158.248	-5.318	158.060	220.178	86.976	176.915	158.545	9.480	86.434	-75.620	-51.458	-87.762	241.832	-58.422	239.730	0.00039068	0.0006776	0.00014515	1267.2	7.457e-06	6.3433e-06	1272.7	348.09	5.6951e-06	5.8058e-06	399.12	131.82	114.18	39.329	5.188e-06	48.947	0.0013172	0.001274	0.00040244	1316.9	1.4596e-05	1.4239e-05	1326.1	361.64	1.4819e-05	1.4094e-05	420.78	140.06	122.57	41.593	1.6281e-05	52.298	113.936	-68.135	-1.566	-93.446	0.916	57.627	-93.737	-88.534	-15.687	71.412	-89.309	-85.120	-84.766	-79.956	200.778	-80.378	-8191	255	
7535.638	1	1	0	0	0.052396	0.39749	0.22087	0.20492	0.0881	0.031515	0.35368	0.44581	0.047324	0.10093	0.1769	0.15959	0.21121	0.32233	0.15843	0.26293	-0.40833	0.12917	-0.66875	-0.61667	0.15	-0.79583	-0.56667	-0.29167	-0.7375	0.29792	-0.58542	-0.77708	0.1625	-1	-0.11042	-0.3	233.520	135.995	46.989	221.840	116.404	44.453	159.240	216.489	217.221	-47.633	-50.528	175.435	-22.803	-93.735	124.249	109.068	0.0004879	0.00039804	0.00014916	1266.6	7.5265e-06	8.5323e-06	1276.2	348.05	1.7033e-06	5.4942e-06	400.87	131.46	114.54	39.252	4.7508e-06	48.895	0.0012977	0.001299	0.0004158	1314.1	1.4152e-05	1.4623e-05	1328	361.37	1.4465e-05	1.4611e-05	422.23	139.8	122.41	41.718	1.6381e-05	52.177	137.652	35.937	160.289	-93.600	26.701	171.552	-93.700	-88.685	-88.106	229.766	-89.006	-85.347	-84.624	-79.606	147.232	-80.293	-8191	255	
7535.708	1	1	0	0	0.28173	0.12195	0.13785	0.089728	0.19458	0.10653	0.25432	0.06798	0.23654	0.087747	0.098068	0.12527	0.23363	0.19017	0.36981	0.19252	-0.28333	0.22708	-0.5875	-0.8375	0.16667	-0.65208	-0.30417	-0.13958	-0.76042	-0.0125	-0.625	-0.79583	0.22292	-0.76042	-0.15625	0.15417	58.935	-91.041	15.924	87.849	125.981	-69.435	211.412	-97.028	26.188	18.258	137.999	206.286	185.616	87.555	102.100	218.264	0.00023713	0.00047688	0.00023652	1270.8	8.4642e-06	8.7804e-06	1275.5	347.28	4.8578e-06	4.3289e-06	399.84	131.73	113.99	39.3	1.2861e-06	48.893	0.0012565	0.0013692	0.0004099	1315.2	1.3944e-05	1.5475e-05	1328.2	360.67	1.4086e-05	1.5629e-05	420.57	139.75	122.27	41.976	1.5891e-05	52.083	128.066	130.602	16.782	-93.524	-6.920	-55.911	-93.605	-88.557	-67.611	39.833	-88.869	-85.159	-84.190	-79.630	-73.833	-80.414	-8191	255	
7535.804	1	1	0	0	0.40777	0.18838	0.094076	0.22161	0.23297	0.051589	0.26653	0.44524	0.13116	0.017453	0.030869	0.36782	0.29471	0.10356	0.151	0.13586	-0.40417	0.070833	-0.24583	-0.9375	0.16458	-0.63333	-0.61458	-0.23542	-0.85833	-0.010417	-0.49167	-0.78958	0.04375	-0.64167	-0.38542	-0.16042	-21.644	76.765	-62.660	143.861	-22.412	182.415	204.045	195.518	-22.637	97.744	8.005	-100.966	114.518	85.622	-23.696	220.210	0.00039634	0.00027142	9.9776e-05	1274.3	1.8565e-06	7.2829e-06	1284.8	347.79	4.4465e-06	3.5344e-06	401.9	131.33	113.61	39.44	2.3935e-06	48.961	0.0012353	0.0014529	0.00039677	1315.8	1.3849e-05	1.6121e-05	1330.1	360.44	1.4245e-05	1.6396e-05	420.11	139.28	122.45	42.03	1.5455e-05	52.041	170.011	43.008	-67.958	-93.320	53.781	110.395	-93.305	-88.574	103.578	48.363	-89.043	-84.997	-84.323	-79.561	142.184	-80.298	-8191	255	
7535.901	1	1	0	0	0.16613	0.16354	0.19783	0.11586	0.16845	0.14072	0.30494	0.11089	0.096331	0.14408	0.27159	0.29689	0.14072	0.17914	0.27218	0.12251	-0.47917	-0.25417	-0.34375	-1.0708	0.1375	-0.61458	-0.63333	-0.085417	-0.75208	-0.27083	-0.17917	-0.81875	-0.041667	-0.34375	-0.63542	0.12917	238.188	169.008	231.494	152.393	166.319	-17.574	173.038	237.300	-28.361	15.340	-94.528	234.510	170.432	-33.499	114.195	-104.515	0.00060898	0.00057994	8.2957e-05	1269.8	3.3947e-06	8.0458e-06	1274.6	347.34	1.3438e-06	1.4275e-06	399.79	132.27	114.62	39.37	3.1979e-06	48.887	0.0012929	0.001513	0.0003836	1313.2	1.4496e-05	1.6399e-05	1324.9	359.57	1.4982e-05	1.6414e-05	419.44	139.54	123.3	41.982	1.5004e-05	51.959	125.745	251.722	-71.928	-93.256	-105.588	26.446	-93.620	-88.925	-10.882	-6.661	-89.281	-85.127	-84.529	-79.767	13.061	-80.597	-8191	255	
7536.021	1	1	0	0	0.14932	0.090019	0.089179	0.40686	0.085583	0.13515	0.21363	0.20549	0.095227	0.2071	0.20557	0.18178	0.12096	0.17205	0.16339	0.13741	-0.32083	-0.085417	0.0125	-0.99375	0.08125	-0.41042	-0.7125	0.033333	-0.78125	-0.22292	0.11042	-0.80625	0.027083	-0.30208	-0.82083	0.064583	237.548	48.478	215.898	188.818	240.559	2.467	154.995	-78.676	198.014	-18.258	187.467	99.969	44.700	-15.585	185.155	191.896	0.00046885	0.0012216	3.897e-05	1271.1	2.2284e-06	3.1264e-06	1282.3	347.01	5.0748e-06	5.9757e-06	399.26	131.86	114.02	39.344	6.6926e-06	48.65	0.0013525	0.0014769	0.00037346	1312.8	1.5486e-05	1.5843e-05	1324.7	359.51	1.5952e-05	1.6168e-05	417.81	139.46	123.85	41.892	1.4867e-05	51.87	122.748	-14.469	108.612	-93.342	130.130	114.086	-93.526	-88.684	75.410	37.122	-89.068	-84.995	-84.236	-79.136	-36.236	-79.936	-8191	255	
7536.117	1	1	0	0	0.21323	0.17302	0.02268	0.095506	0.089005	0.28093	0.13611	0.28771	0.14144	0.086073	0.22897	0.087179	0.16118	0.068413	0.32049	0.17653	-0.375	-0.30417	-0.11042	-1.0083	-0.066667	-0.16458	-0.98333	-0.066667	-0.6875	-0.55417	-0.029167	-0.91667	-0.17083	-0.31042	-0.6	-0.0041667	100.502	39.901	181.291	130.281	179.942	-13.614	240.418	202.598	107.532	72.964	164.301	198.147	181.822	-57.000	161.833	232.159	0.00044034	0.00072461	0.00021556	1265.9	4.3304e-06	1.38e-05	1272.7	346.33	7.7663e-06	9.8691e-06	399.24	131.71	113.33	39.157	6.3215e-06	48.597	0.0014325	0.0014456	0.00036527	1312.5	1.6317e-05	1.553e-05	1323.7	359.92	1.6555e-05	1.5752e-05	418.18	139.63	123.61	41.698	1.4545e-05	52.045	153.939	1.539	-45.754	-92.994	-63.981	69.388	-93.230	-88.247	25.281	53.446	-88.825	-84.771	-84.449	-79.226	-16.691	-79.928	-8191	255	
7536.213	1	1	0	0	0.291	0.24946	0.14204	0.15225	0.086542	0.19327	0.14861	0.33714	0.3045	0.26133	0.14071	0.086063	0.26662	0.16436	0.065796	0.20131	-0.22083	-0.47292	0.04375	-0.82083	-0.26667	-0.17708	-0.96667	-0.22708	-0.35	-0.63542	0	-0.825	-0.25625	-0.14792	-0.77083	-0.060417	223.473	243.035	82.134	247.011	-64.960	-89.150	222.685	227.400	149.637	51.355	154.137	221.385	166.104	238.360	71.888	-7.474	0.00026296	0.0015641	0.00010108	1262.1	6.6557e-06	4.658e-06	1265.1	343.77	2.7085e-06	2.8646e-06	397.7	130.27	112.88	38.776	2.3292e-06	48.267	0.0014658	0.0014249	0.00035979	1313.7	1.6609e-05	1.5073e-05	1318.4	359.65	1.6415e-05	1.5414e-05	416.48	139.74	123.49	41.431	1.438e-05	52.159	124.778	-18.587	4.895	-93.042	19.124	-65.643	-92.977	-88.231	9.899	116.279	-88.826	-84.437	-84.172	-79.009	84.218	-80.144	-8191	255	
7536.310	1	1	0	0	0.061565	0.18315	0.13025	0.28829	0.3261	0.25795	0.26542	0.23514	0.13752	0.053857	0.17516	0.1548	0.32706	0.21669	0.32481	0.051601	0.12917	-0.74167	0.020833	-0.8375	-0.21667	0.033333	-1.3396	0	-0.21042	-0.7	-0.1125	-0.8375	-0.22708	0.095833	-0.66667	-0.08125	-79.238	-49.526	139.407	239.058	-13.985	105.560	112.412	181.328	27.668	208.018	213.467	140.030	145.275	165.690	63.397	-30.237	0.00043041	0.00039308	0.00015256	1260.6	8.7712e-06	8.8462e-06	1261.2	342.41	4.9319e-06	2.5584e-06	397.9	131.1	114.13	38.849	4.1926e-06	48.342	0.0014397	0.00141	0.00036045	1317.2	1.6387e-05	1.4895e-05	1317.6	360.16	1.6112e-05	1.5316e-05	416.6	139.86	123.64	41.373	1.4861e-05	52.321	160.450	-102.622	-28.740	-93.007	12.645	32.871	-92.971	-88.377	28.426	45.709	-88.755	-84.519	-84.577	-79.377	206.845	-80.103	-8191	255	
7536.406	1	1	0	0	0.13899	0.2524	0.12395	0.26377	0.25363	0.067723	0.35574	0.11675	0.35473	0.33859	0.19967	0.20469	0.2152	0.28845	0.23953	0.27159	0.29375	-0.73125	0.29583	-0.84167	-0.60625	0.2	-1.1396	-0.18958	-0.275	-0.72292	0.039583	-0.68542	-0.51667	0.20833	-0.75833	-0.18125	-95.759	95.880	4.426	231.471	83.465	165.119	218.209	203.616	166.022	-46.159	230.198	209.317	117.132	185.878	246.351	145.257	0.00033808	0.0013004	0.00011935	1254.7	6.2886e-06	7.4648e-06	1259.2	341.92	9.3355e-06	6.5706e-06	395.03	131.01	113.03	38.867	4.702e-06	48.457	0.001404	0.0013823	0.00037654	1316.3	1.5972e-05	1.4565e-05	1317.6	359.91	1.5523e-05	1.5067e-05	417.37	140.15	122.81	41.344	1.5847e-05	52.36	143.740	-24.012	118.547	-92.803	52.550	10.354	-92.861	-88.140	-5.456	115.979	-89.008	-84.952	-84.088	-79.355	204.182	-80.269	-8191	255	
7536.502	1	1	0	0	0.14592	0.10297	0.11326	0.17134	0.21806	0.10685	0.38531	0.1952	0.11612	0.16662	0.13072	0.1844	0.25158	0.19198	0.44011	0.1751	0.26458	-0.75833	0.18542	-0.60208	-0.43542	0.2625	-0.81042	-0.62083	-0.10417	-1.0396	-0.16458	-0.47292	-0.6375	0.09375	-0.62083	-0.48958	87.009	-77.736	187.721	-78.841	190.602	69.433	-101.936	109.340	-46.891	253.526	244.528	135.945	175.307	213.673	27.880	223.666	0.00061056	0.0005958	6.9004e-05	1262.7	2.944e-06	5.041e-06	1271.3	344.18	3.806e-06	3.3504e-06	398.23	131.34	114.02	39.035	3.4988e-06	48.445	0.0013462	0.001367	0.00040054	1314.6	1.5716e-05	1.4277e-05	1323.3	360.24	1.512e-05	1.4947e-05	419.28	139.99	122.75	41.364	1.6861e-05	52.231	140.049	28.991	196.820	-92.911	15.643	33.278	-93.305	-88.278	66.550	17.204	-89.047	-84.813	-84.913	-79.588	26.464	-80.193	-8191	255	
7536.598	1	1	0	0	0.18197	0.27401	0.0073488	0.14227	0.25059	0.10015	0.30793	0.26265	0.19277	0.14702	0.32216	0.13961	0.27175	0.19366	0.33565	0.19994	0.37917	-0.725	-0.052083	-0.4875	-0.79792	0.13958	-0.8375	-0.54167	0.1375	-0.88125	-0.01875	-0.47292	-0.76042	0.28542	-0.66458	-0.50417	-96.248	-16.433	-16.570	103.137	159.645	218.496	221.710	150.843	-74.521	230.420	-37.746	226.418	234.494	207.086	192.823	-46.754	0.00042444	0.0003821	8.3931e-05	1267.5	6.771e-06	4.2906e-06	1270.9	345.2	5.9574e-06	3.1056e-06	398.32	132.01	113.52	38.998	1.8033e-06	48.652	0.001303	0.0013702	0.00042362	1314	1.5218e-05	1.4532e-05	1327.1	359.75	1.4689e-05	1.4983e-05	420.42	140.01	122.59	41.472	1.6979e-05	52.058	120.997	55.265	104.341	-92.890	-10.712	-20.968	-93.241	-88.671	-44.624	-84.491	-89.068	-84.553	-84.420	-79.495	100.063	-80.344	-8191	255	
7536.719	1	1	0	0	0.064471	0.07922	0.20475	0.46448	0.18048	0.24989	0.12373	0.24467	0.15763	0.048103	0.24488	0.17886	0.14746	0.16882	0.036901	0.27393	0.7	-0.63542	-0.05	-0.020833	-0.80417	-0.070833	-0.55833	-0.71042	0.28958	-0.78958	-0.45833	-0.052083	-0.85625	0.060417	-0.42917	-0.74792	141.072	86.369	-23.993	194.462	25.320	-105.965	183.692	185.797	251.485	-95.759	-90.983	216.424	16.692	-32.274	128.037	153.027	0.00047716	0.00027179	0.00026795	1265.5	6.3095e-06	6.7712e-06	1269.7	343.49	3.2492e-06	6.037e-06	396.87	130.29	113.01	38.8	6.9046e-06	48.41	0.0012859	0.0014071	0.00043499	1312.1	1.4845e-05	1.5415e-05	1326.3	358.77	1.4406e-05	1.5855e-05	420.96	139.11	122.14	41.623	1.6758e-05	51.89	129.627	-99.103	38.712	-93.036	5.973	221.024	-93.110	-88.322	195.471	161.380	-88.898	-84.402	-84.306	-79.411	-16.278	-79.845	-8191	255	
7536.813	1	1	0	0	0.10254	0.12695	0.16837	0.13035	0.097443	0.11362	0.28167	0.30239	0.20629	0.1487	0.15205	0.24314	0.23947	0.07719	0.16509	0.2936	0.53125	-0.75	-0.19792	-0.225	-0.78333	0.054167	-0.525	-0.93958	0.18333	-0.88542	-0.36875	-0.0625	-0.88958	-0.0625	-0.26875	-0.68542	71.211	239.680	246.334	191.420	19.213	-69.193	-101.091	206.489	68.949	131.662	-77.014	-22.207	-35.021	-3.033	104.387	182.618	0.00052981	0.00020542	0.00019287	1260.6	3.7053e-06	1.1699e-05	1271.6	344.23	2.1698e-06	4.2415e-06	397.69	130.66	113.41	38.977	2.8421e-06	48.67	0.0012647	0.0014925	0.00042757	1310.4	1.4723e-05	1.6585e-05	1325.4	359.2	1.4305e-05	1.6718e-05	419.99	139.02	122.28	41.813	1.5908e-05	51.943	137.955	-43.462	5.637	-92.884	66.773	18.372	-92.898	-88.427	71.473	-95.006	-89.192	-84.642	-84.357	-79.361	29.216	-80.416	-8191	255	
7536.909	1	1	0	0	0.20175	0.20671	0.15717	0.16418	0.039297	0.090153	0.33817	0.27391	0.15721	0.2054	0.14733	0.082216	0.15663	0.20304	0.10706	0.11487	0.725	-0.56458	-0.44583	0.03125	-0.71042	-0.19583	-0.43958	-0.93542	0.21042	-0.49792	-0.40417	0.033333	-0.95417	-0.3	-0.039583	-0.85417	-11.260	9.521	-38.707	-102.341	-49.017	-97.592	134.217	-93.196	-1.605	239.548	-89.364	-15.125	244.881	206.304	105.482	221.466	0.00051016	0.00083024	0.00038039	1267.3	6.9597e-06	4.8685e-06	1266.9	344.97	3.2279e-06	2.513e-06	398.62	130.93	113.53	39.027	7.7486e-06	48.623	0.001286	0.0015375	0.00040889	1311	1.4843e-05	1.6995e-05	1321.2	358.6	1.4896e-05	1.7034e-05	419.46	138.9	122.78	41.774	1.5373e-05	51.938	135.390	-40.936	-40.695	-93.122	142.468	188.305	-93.129	-88.394	90.967	84.887	-89.086	-84.496	-84.342	-79.461	61.511	-80.261	-8191	255	
7537.005	1	1	0	0	0.172	0.13131	0.29044	0.25494	0.10833	0.04894	0.16884	0.54037	0.13136	0.061029	0.31088	0.11279	0.16668	0.080758	0.24502	0.16614	0.43542	-0.35625	-0.43333	-0.058333	-0.82917	-0.17083	-0.11667	-1.0167	0.15417	-0.33125	-0.82917	0.020833	-0.74375	-0.27917	0.1625	-0.77917	-22.456	249.364	18.032	216.405	-19.096	-65.149	168.744	189.141	127.227	-81.951	122.490	-62.054	-45.514	-68.210	215.015	165.586	0.00054289	0.0011313	0.00019114	1263.2	6.0658e-06	3.1878e-07	1275.9	343.6	4.3948e-06	6.277e-06	397.73	130.71	112.21	38.948	8.7614e-06	48.485	0.0013499	0.0015512	0.00039872	1305.8	1.5756e-05	1.7009e-05	1321.7	357.96	1.5959e-05	1.6634e-05	419.12	138.58	122.93	41.703	1.5126e-05	51.754	90.827	18.943	29.737	-92.978	85.344	44.225	-93.176	-88.279	250.106	58.524	-89.126	-84.746	-84.289	-79.341	50.412	-79.970	-8191	255	
7537.102	1	1	0	0	0.1793	0.20543	0.15321	0.24582	0.2926	0.27359	0.21929	0.40361	0.24785	0.2401	0.30151	0.24286	0.062694	0.18392	0.22621	0.14728	0.325	-0.36875	-0.59583	0.064583	-0.56042	-0.45417	0.10208	-1.0979	0.10417	-0.30417	-0.77917	-0.070833	-0.59583	-0.51667	0.19167	-0.94583	29.814	-51.108	29.648	234.027	36.435	162.178	174.387	194.229	-102.430	-60.934	224.779	162.469	-62.943	229.607	129.522	99.531	0.00054226	0.0005367	0.00018416	1265.8	2.9736e-06	5.2851e-06	1272.5	345.88	4.6203e-06	8.141e-06	397.09	131.3	114.15	38.912	1.016e-05	48.696	0.0014421	0.0014975	0.00039439	1306.2	1.6561e-05	1.6538e-05	1318.2	358.88	1.6765e-05	1.6195e-05	417.96	139.06	124.15	41.645	1.4661e-05	52.027	127.227	27.409	-10.660	-93.295	20.799	40.597	-93.300	-88.422	4.012	21.531	-88.890	-84.696	-84.664	-79.196	-0.001	-80.279	-8191	255	
7537.198	1	1	0	0	0.15132	0.3181	0.24189	0.11646	0.11902	0.265	0.42577	0.17392	0.071332	0.34607	0.11964	0.3117	0.13186	0.13216	0.15319	0.13687	0.38333	-0.075	-0.675	-0.01875	-0.625	-0.38333	-0.010417	-0.87917	-0.175	0.05625	-0.85625	0.077083	-0.42083	-0.60833	0.22292	-1.0021	157.732	-47.155	-92.156	-100.617	-55.519	214.579	203.708	-91.691	-36.552	19.059	183.169	231.847	229.300	223.969	239.871	245.027	0.00028584	0.00044951	0.00028681	1264.8	3.2566e-06	1.0749e-05	1271.9	345.56	6.4474e-06	8.0437e-06	397.3	131.43	114.3	38.932	5.8658e-06	48.329	0.0014854	0.0014281	0.00038226	1308.2	1.6956e-05	1.5911e-05	1317.3	359.44	1.6948e-05	1.5572e-05	417.04	139.39	124.05	41.564	1.4419e-05	52.084	136.096	3.205	10.155	-93.008	25.912	76.956	-93.044	-88.330	40.279	30.278	-88.995	-84.848	-84.498	-79.441	69.245	-80.001	-8191	255	
7537.318	1	1	0	0	0.11813	0.15737	0.092361	0.28271	0.1365	0.10839	0.11637	0.25657	0.10212	0.20537	0.48745	0.18933	0.13207	0.14236	0.12867	0.14067	0.10625	0.17292	-0.63125	-0.072917	-0.3	-0.70208	-0.20417	-0.71875	-0.125	0.14583	-0.99583	-0.1	-0.37917	-0.6625	0.11667	-0.70625	84.329	247.257	-62.677	219.663	5.276	-105.742	185.080	-72.471	24.423	81.044	194.754	-87.892	205.749	116.228	78.816	249.534	0.00044538	0.0010385	0.00022473	1264.1	9.4539e-06	7.414e-06	1267.1	344.78	2.3143e-06	6.2753e-06	395.76	130.79	113.03	38.871	2.5476e-06	48.112	0.0014901	0.0014081	0.00037312	1314.3	1.6684e-05	1.5625e-05	1317.4	360.39	1.6751e-05	1.534e-05	416.89	139.8	123.18	41.561	1.4637e-05	52.157	124.564	-16.723	-3.582	-93.123	6.248	13.469	-93.057	-88.317	79.143	-0.467	-88.594	-84.839	-84.242	-79.390	6.562	-80.018	-8191	255	
7537.414	1	1	0	0	0.050864	0.23316	0.21147	0.045364	0.26251	0.21769	0.24652	0.21498	0.34669	0.12058	0.29508	0.21297	0.23938	0.1234	0.22775	0.13252	-0.09375	0.31875	-0.77083	-0.25833	-0.37708	-0.69375	0.0041667	-0.75417	-0.36667	0.25208	-0.96042	-0.1375	-0.23958	-0.825	0.30625	-0.52708	85.146	-86.779	174.114	-103.583	-14.344	-21.693	-91.693	165.804	14.632	197.957	252.405	186.429	245.678	70.678	-27.329	227.707	0.00044446	0.00088879	7.0181e-05	1260	6.3774e-06	3.3413e-06	1262.7	343.42	7.2182e-06	3.3314e-06	396.65	129.95	113.4	38.789	1.865e-06	48.529	0.0014537	0.0013862	0.00038154	1316.9	1.6118e-05	1.5338e-05	1317.8	359.94	1.6176e-05	1.489e-05	418	140.09	123.17	41.463	1.5241e-05	52.305	121.182	-37.014	-12.977	-93.126	31.942	88.079	-93.144	-88.277	-4.942	57.512	-88.837	-84.588	-83.870	-79.181	66.478	-79.701	-8191	255	
7537.511	1	1	0	0	0.28291	0.13059	0.22695	0.24719	0.085319	0.11529	0.11844	0.27567	0.25463	0.14791	0.137	0.22829	0.18247	0.41835	0.14754	0.32032	-0.12083	0.14375	-0.775	-0.33958	0.0375	-0.77292	-0.054167	-0.74167	-0.48542	0.32708	-0.7	-0.25208	-0.089583	-0.87708	-0.14375	-0.35833	1.283	223.151	-3.798	-61.316	-65.318	81.790	157.694	-75.218	208.625	127.873	88.321	186.074	-69.949	-99.890	230.498	227.285	0.00028151	0.00042812	8.8436e-05	1258.1	6.4018e-06	7.3183e-06	1264	345.32	8.2633e-06	1.0205e-05	396.76	130.91	113.51	39.013	3.3467e-06	48.472	0.0014056	0.0013513	0.00040255	1316.3	1.5609e-05	1.5055e-05	1320.6	360.49	1.5789e-05	1.4606e-05	419.38	139.86	122.69	41.467	1.6142e-05	52.282	101.759	-95.269	-54.257	-93.067	54.983	73.901	-93.059	-88.426	-7.219	24.305	-88.892	-84.906	-84.271	-79.084	243.971	-80.163	-8191	255	
7537.605	1	1	0	0	0.047515	0.15268	0.28605	0.2383	0.13746	0.05002	0.30699	0.10679	0.164	0.23456	0.14161	0.16146	0.37425	0.23504	0.073186	0.15696	-0.25208	0.17917	-0.68542	-0.67083	0.022917	-0.92292	-0.28958	-0.56667	-0.76875	0.23125	-0.80417	-0.53542	-0.016667	-1.0771	0.01875	-0.30833	67.441	58.212	216.486	144.987	-25.371	212.584	211.852	189.674	202.719	38.209	205.581	204.322	163.460	240.718	115.911	174.573	0.00051101	0.00029827	0.00023432	1262.5	2.4188e-06	8.6514e-06	1269.4	344.91	3.8654e-06	4.0511e-06	400.3	130.76	113.92	39.025	3.6796e-06	48.461	0.0013686	0.0013349	0.00042344	1315.4	1.5193e-05	1.4862e-05	1324.3	359.8	1.5452e-05	1.4862e-05	421.24	139.87	122.56	41.508	1.7056e-05	52.031	110.143	-73.883	18.418	-93.273	166.161	35.639	-93.178	-88.217	-30.313	55.836	-88.841	-85.000	-84.661	-79.374	177.924	-80.263	-8191	255	
7537.678	1	1	0	0	0.20172	0.19922	0.090893	0.34873	0.21524	0.1143	0.13385	0.17166	0.24675	0.19562	0.085351	0.10728	0.21291	0.17345	0.055342	0.15442	-0.33125	0.29375	-0.45625	-0.47292	0.31875	-0.70208	-0.21042	-0.45208	-0.61458	0.1875	-0.62083	-0.47917	0.15417	-0.7625	-0.010417	-0.035417	26.623	129.396	93.209	-99.278	168.563	-20.035	219.915	172.441	157.221	108.674	-54.172	-64.815	67.862	234.425	-90.294	249.995	0.0004469	1.8997e-05	0.00025825	1271.4	2.7295e-06	7.7626e-06	1265.5	345.06	3.7738e-06	8.386e-06	398.54	131.09	113.55	38.949	4.2033e-06	48.483	0.0013529	0.0013714	0.00043651	1314.7	1.4759e-05	1.5308e-05	1325.8	359.52	1.5126e-05	1.5504e-05	421.38	139.61	122.05	41.601	1.7283e-05	51.889	118.457	2.126	-42.087	-93.189	10.298	11.026	-93.213	-88.359	-41.479	18.256	-88.824	-84.913	-84.252	-79.314	-29.294	-80.031	-8191	255	
7537.797	1	1	0	0	0.36564	0.024281	0.089452	0.083528	0.073776	0.18733	0.208	0.2212	0.10885	0.050782	0.12822	0.13533	0.13485	0.18143	0.10614	0.3224	-0.37292	0.32292	-0.37917	-0.675	0.10833	-0.51042	-0.50417	-0.20417	-0.70625	0.26667	-0.49583	-0.86042	0.0375	-0.6125	-0.2875	-0.1	204.308	-18.541	85.693	227.624	48.233	-29.558	206.269	205.496	218.047	30.733	117.463	172.619	-46.247	239.885	220.881	211.058	0.00040344	0.00047795	0.00026722	1267.1	1.612e-06	1.1973e-05	1274	346.6	6.5647e-06	3.2965e-06	397.93	130.59	112.96	39.03	8.4003e-06	48.685	0.001307	0.001458	0.0004302	1314.9	1.4366e-05	1.6317e-05	1326.5	359.53	1.4728e-05	1.638e-05	420.41	139.15	121.95	41.823	1.6566e-05	51.972	149.357	-18.803	-55.132	-93.160	30.893	125.078	-93.098	-88.171	-30.541	116.629	-88.467	-84.878	-84.313	-79.220	19.107	-80.144	-8191	255	
7537.893	1	1	0	0	0.1796	0.22227	0.22601	0.28286	0.09388	0.15108	0.027478	0.13288	0.21073	0.29089	0.081207	0.19861	0.19148	0.32634	0.23071	0.051127	-0.29792	0.083333	-0.36667	-0.83542	0.029167	-0.72083	-0.71667	-0.1125	-0.69583	-0.091667	-0.34792	-0.91667	0.033333	-0.71875	-0.42708	-0.15	79.179	143.545	177.737	215.308	-103.717	130.077	225.599	193.517	4.219	-106.113	237.966	142.188	156.208	-60.361	167.620	-95.784	0.00046381	0.00031352	0.00014607	1268.9	4.0565e-06	4.6511e-06	1270.2	344.04	2.6645e-06	6.7571e-06	400.26	131.65	113.2	38.946	1.1292e-05	48.455	0.0013079	0.0015284	0.00041491	1312.6	1.4463e-05	1.6962e-05	1324.7	358.48	1.4963e-05	1.7111e-05	420.15	139.43	122.2	41.821	1.6203e-05	51.793	119.452	-58.031	-74.881	-93.077	-29.152	43.815	-93.278	-88.212	229.375	6.829	-88.877	-84.754	-84.589	-79.361	36.957	-80.058	-8191	255	
7537.990	1	1	0	0	0.11855	0.15441	0.20945	0.34615	0.27675	0.12746	0.11515	0.22693	0.16626	0.15891	0.14017	0.10278	0.22551	0.17139	0.10657	0.16069	-0.47083	-0.052083	0.03125	-0.97708	0.10208	-0.52083	-0.6625	0.077083	-0.76042	-0.10625	-0.25833	-0.73542	0.022917	-0.63958	-0.57083	0.0375	-88.389	127.788	-33.598	198.927	-4.027	29.731	106.744	144.233	45.776	67.444	-17.873	-93.370	3.660	230.798	58.341	232.297	0.00043998	0.00042327	0.00019683	1260.9	2.9614e-06	4.5633e-06	1270.1	344.23	7.1233e-06	2.7095e-06	396.68	130.51	113.81	38.976	3.0416e-06	47.922	0.0013649	0.0015853	0.00040052	1309	1.5432e-05	1.7174e-05	1322.5	358.22	1.5961e-05	1.725e-05	418.18	138.94	123.14	41.796	1.5584e-05	51.583	129.638	18.585	-7.126	-92.998	19.637	2.753	-93.101	-88.253	154.256	236.056	-88.766	-84.836	-84.384	-79.321	-62.580	-79.869	-8191	255	
7538.086	1	1	0	0	0.18055	0.32605	0.036929	0.26139	0.14721	0.28563	0.15273	0.18011	0.081851	0.11713	0.23293	0.18133	0.4424	0.15284	0.31836	0.1554	-0.20208	-0.22708	-0.0125	-1.0479	0.0625	-0.44167	-0.8	-0.15417	-0.78333	-0.37292	0.035417	-0.99792	-0.014583	-0.54792	-0.90208	0.054167	-20.431	188.269	139.415	154.047	136.433	-77.522	219.516	204.489	26.491	-0.647	248.557	-50.121	214.036	252.107	64.626	247.926	0.00051261	0.0008029	0.00018872	1264.7	1.6349e-06	8.0315e-06	1266.6	346.28	2.8096e-06	7.5101e-06	398.23	131.09	113.74	39.002	6.9439e-06	48.636	0.0014491	0.0015556	0.00038669	1309.2	1.6401e-05	1.6603e-05	1319.9	358.63	1.6746e-05	1.6783e-05	418.13	138.98	123.72	41.729	1.5417e-05	51.824	126.147	-39.596	52.685	-93.065	227.612	6.805	-93.033	-88.420	221.343	68.620	-88.743	-84.731	-84.546	-79.413	25.091	-80.411	-8191	255	
7538.206	1	1	0	0	0.067511	0.058451	0.20455	0.17793	0.10958	0.1012	0.2064	0.32212	0.17495	0.18679	0.12636	0.21736	0.097878	0.224	0.20161	0.44755	-0.29583	-0.22917	0.15625	-0.92917	-0.15625	-0.31458	-0.97917	-0.089583	-0.58125	-0.62708	-0.17083	-0.86042	-0.4375	-0.27917	-0.74583	-0.072917	-81.698	83.305	221.268	-27.303	90.594	200.042	210.249	215.030	-102.961	239.052	170.017	-50.218	90.441	-9.822	-82.996	229.771	0.00039082	0.00073196	8.2587e-05	1267.7	2.4662e-07	3.5784e-06	1272.7	345.02	1.3615e-06	5.0204e-06	397.99	131.12	112.95	39.071	6.9456e-06	48.357	0.0014981	0.001498	0.00037948	1311.3	1.7058e-05	1.6156e-05	1321.2	358.07	1.7044e-05	1.6083e-05	416.96	139.25	123.75	41.587	1.5036e-05	51.903	152.766	-51.414	32.373	-93.328	-6.211	208.541	-93.274	-88.220	-18.342	21.617	-89.055	-84.738	-84.525	-79.386	-24.159	-80.170	-8191	255	
7538.278	1	1	0	0	0.10657	0.24682	0.20065	0.17578	0.19874	0.063714	0.30441	0.16846	0.19647	0.15986	0.1043	0.11853	0.16039	0.23898	0.18525	0.1358	-0.41458	-0.39375	0.31875	-0.9875	-0.13958	-0.095833	-1.1208	-0.19583	-0.42708	-0.625	0.00625	-0.8375	-0.46875	-0.10625	-0.75417	-0.11458	53.216	147.874	68.109	198.481	162.225	-25.558	143.558	-87.396	-29.466	245.531	201.994	-33.117	225.550	213.670	53.133	220.303	0.00034359	0.0013484	0.0002879	1262.9	1.0268e-06	7.9239e-06	1272.4	344.09	9.421e-06	2.5459e-06	400.29	130.66	113.5	39.005	6.9119e-06	48.358	0.0014839	0.0014604	0.00036906	1311.8	1.7073e-05	1.5534e-05	1316.7	359.15	1.676e-05	1.5859e-05	417.01	139.61	123.63	41.528	1.4775e-05	52.198	119.608	9.898	-24.446	-93.214	142.452	46.012	-93.560	-88.686	29.567	114.860	-89.190	-85.095	-84.827	-79.399	80.968	-80.397	-8191	255	
7538.399	1	1	0	0	0.036573	0.21031	0.34466	0.45389	0.31592	0.068985	0.30112	0.36941	0.18468	0.099374	0.059619	0.19959	0.042549	0.10465	0.1202	0.15918	-0.12708	-0.7125	0.13125	-0.875	-0.4125	0.052083	-1.0167	-0.20208	-0.27292	-0.61042	-0.016667	-0.81875	-0.35417	0.05	-0.75833	-0.0625	11.613	-30.882	142.677	169.900	8.731	179.171	228.948	194.647	128.588	106.161	161.361	231.054	130.945	-61.080	-7.811	225.608	0.00047629	0.00038763	5.7247e-05	1267.6	1.0871e-05	1.443e-05	1274.7	343.63	4.2771e-06	9.2375e-06	397.9	130.84	113.23	38.952	2.3284e-06	48.634	0.0014472	0.0014378	0.00036624	1318.7	1.6458e-05	1.5117e-05	1321.1	359.73	1.618e-05	1.5448e-05	416.51	140.07	123.12	41.411	1.5063e-05	52.244	135.905	23.690	-106.030	-93.058	-37.561	46.829	-93.257	-88.515	-7.468	7.297	-88.855	-84.787	-84.287	-79.420	179.967	-80.184	-8191	255	
7538.495	1	1	0	0	0.20867	0.13986	0.24144	0.45331	0.10538	0.16363	0.24411	0.28533	0.15875	0.25636	0.17553	0.25863	0.28199	0.094034	0.060796	0.24707	0.33125	-0.74583	0.2	-0.87917	-0.46042	0.066667	-0.95625	-0.1625	-0.079167	-0.80417	-0.16458	-0.4625	-0.72708	-0.091667	-0.59167	-0.26875	229.397	-4.026	162.746	-95.614	150.030	-8.707	149.914	178.558	176.418	43.698	153.896	193.188	248.194	-105.871	166.395	-98.884	0.00044845	0.00079427	6.6904e-05	1264.2	5.1763e-06	9.6812e-06	1264.8	342.21	1.0118e-05	5.6674e-06	397.49	130.64	112.81	38.952	4.4765e-06	48.379	0.0013822	0.0013854	0.00038121	1317.9	1.5872e-05	1.4608e-05	1319.2	359.78	1.552e-05	1.5131e-05	418.38	139.99	122.79	41.433	1.5848e-05	52.322	149.393	-17.855	5.213	-93.230	115.856	50.855	-93.114	-88.049	-58.655	106.761	-88.866	-84.740	-84.415	-79.346	187.814	-80.118	-8191	255	
7538.591	1	1	0	0	0.27193	0.26389	0.10235	0.43357	0.28058	0.16791	0.092474	0.070691	0.12367	0.32285	0.088526	0.14722	0.19416	0.10291	0.14451	0.30793	0.45	-0.87292	0.066667	-0.52292	-0.49375	-0.04375	-0.76875	-0.59583	-0.11458	-0.79375	-0.18958	-0.49792	-0.81458	-0.125	-0.80208	-0.31875	185.616	188.338	55.602	218.663	90.358	180.809	76.213	-7.777	-51.250	158.864	-74.057	145.287	124.199	114.858	-90.654	179.009	0.00028349	0.00015283	1.3429e-05	1264.5	6.7474e-06	8.2047e-06	1272.8	345.96	4.118e-06	5.6496e-06	399.08	131.09	113.74	38.756	4.5676e-06	48.818	0.0013474	0.0013428	0.00040821	1315.8	1.5492e-05	1.4538e-05	1324.9	360.32	1.5136e-05	1.4833e-05	419.82	139.87	122.91	41.285	1.675e-05	52.183	152.012	-53.663	192.557	-93.051	-43.609	65.794	-93.228	-88.532	17.717	79.067	-89.348	-85.053	-84.285	-79.221	175.574	-80.185	-8191	255	
7538.687	1	1	0	0	0.25155	0.1816	0.43819	0.42459	0.083252	0.24413	0.18676	0.29205	0.25352	0.35835	0.34345	0.14542	0.24807	0.25586	0.21774	0.171	0.59583	-0.76042	0.21875	-0.50208	-0.68125	0.10417	-0.83958	-0.74792	-0.00625	-0.925	-0.27917	-0.12917	-1.0021	0.13125	-0.65208	-0.75	13.592	98.388	27.708	215.650	250.718	-50.783	123.401	-78.542	161.233	111.666	187.796	76.631	214.960	-85.163	-26.057	11.101	0.00026767	0.00043065	0.00016622	1265.9	6.2686e-06	4.5847e-06	1273.8	345.77	7.2698e-06	3.6888e-06	397.98	131.55	113.84	38.983	8.6083e-06	48.645	0.0013219	0.0013655	0.00043012	1312.3	1.5291e-05	1.4847e-05	1327.3	359.5	1.4791e-05	1.5147e-05	420.74	139.42	122.54	41.46	1.6906e-05	52.053	138.934	-29.301	-40.952	-92.957	49.756	36.107	-92.936	-88.323	-47.870	-90.545	-89.274	-84.938	-84.899	-79.748	26.636	-80.743	-8191	255	
7538.806	1	1	0	0	0.059267	0.31808	0.24929	0.33804	0.27311	0.14554	0.16236	0.52527	0.26739	0.21217	0.29522	0.145	0.15016	0.064038	0.25493	0.29499	0.42083	-0.59583	-0.26042	-0.225	-0.83542	0.29375	-0.61875	-0.64375	0.13958	-0.8375	-0.44792	-0.23542	-0.9875	-0.097917	-0.40417	-0.71458	-4.416	251.186	-34.893	205.670	219.438	-59.786	241.261	222.050	-37.887	-41.213	249.651	-86.233	10.773	-89.030	106.591	168.382	0.00030258	0.00034021	8.7263e-05	1268.4	2.2143e-06	3.6308e-06	1271.8	345.27	4.2115e-06	4.093e-06	398.88	131.38	113.52	39.065	7.485e-06	48.424	0.0012872	0.0014214	0.0004376	1312.4	1.4798e-05	1.5709e-05	1326.4	359.28	1.4524e-05	1.611e-05	420.93	139.26	121.99	41.594	1.6753e-05	51.935	153.082	225.880	-90.595	-93.278	-60.745	-102.012	-93.689	-88.981	214.052	126.545	-89.566	-85.203	-85.037	-79.980	58.017	-80.635	-8191	255	
7538.878	1	1	0	0	0.42661	0.038302	0.15351	0.17563	0.051806	0.23871	0.44327	0.24114	0.2987	0.24995	0.23141	0.26193	0.12502	0.034062	0.13725	0.26989	0.44375	-0.75	-0.27708	-0.085417	-0.91042	0.13958	-0.65417	-0.8375	0.12083	-0.71875	-0.5	-0.22292	-1.0333	-0.14375	-0.17083	-0.85208	160.279	24.995	-11.804	-100.344	28.341	104.241	-81.313	227.332	-58.892	29.497	222.643	201.810	-12.016	163.944	-12.643	238.580	0.00051986	0.00048917	0.00011205	1271.6	3.7214e-06	5.5508e-06	1275.4	345.72	5.1802e-06	7.1409e-06	398.54	130.89	113.97	38.947	5.9656e-06	48.45	0.0012587	0.001516	0.00042707	1311.1	1.4761e-05	1.6629e-05	1323.9	358.9	1.4527e-05	1.6987e-05	420.05	138.77	122.33	41.722	1.6193e-05	51.866	147.022	-20.220	67.939	-93.336	-62.169	-106.476	-93.475	-88.667	37.562	117.315	-89.448	-84.977	-84.352	-79.589	24.824	-80.496	-8191	255	
7538.974	1	1	0	0	0.11166	0.18117	0.26491	0.14844	0.14073	0.29086	0.099082	0.26516	0.072024	0.20539	0.14268	0.23008	0.23629	0.11594	0.17267	0.19881	0.50208	-0.59583	-0.48958	-0.24792	-0.76667	0.20833	-0.36875	-0.98958	0.052083	-0.65417	-0.66042	0.047917	-0.87083	-0.26458	-0.064583	-1.1458	71.354	12.008	155.526	-92.110	-66.635	210.654	163.326	167.862	242.343	236.546	128.991	201.288	-61.839	0.373	-1.134	170.706	0.00052152	0.00061292	0.00025042	1261.2	2.712e-06	5.7974e-06	1268.4	345.15	9.9484e-07	2.0279e-06	398.27	131.8	113.5	38.836	8.5419e-06	48.626	0.001308	0.0015543	0.00041024	1307.3	1.5005e-05	1.7189e-05	1321	358.59	1.5113e-05	1.7274e-05	418.64	138.95	122.88	41.754	1.5534e-05	51.8	120.649	113.828	-31.616	-93.110	154.107	-27.153	-92.933	-88.417	116.373	-88.823	-89.099	-85.017	-84.277	-79.758	11.118	-80.447	-8191	255	
7539.094	1	1	0	0	0.12769	0.10204	0.1986	0.2871	0.32514	0.23642	0.0694	0.24474	0.18353	0.16314	0.22859	0.10196	0.42511	0.1307	0.19049	0.016262	0.40417	-0.49375	-0.4375	-0.077083	-0.75625	-0.38333	-0.17083	-1.0521	0.15417	-0.27083	-0.75417	0.0125	-0.74583	-0.5125	0.00625	-0.90208	78.956	75.371	131.064	232.714	21.405	-95.942	-94.425	241.075	68.630	241.536	-73.423	222.739	-73.746	234.602	148.535	248.739	0.00058916	0.00069505	0.00018982	1267.3	3.8409e-06	5.0971e-06	1269.6	344.72	5.4015e-06	8.3316e-06	397.4	130.63	112.99	39.116	3.4822e-06	48.341	0.0013855	0.0015558	0.00039934	1307.6	1.6112e-05	1.7069e-05	1318.3	357.99	1.6204e-05	1.678e-05	418.7	138.47	123.41	41.706	1.5066e-05	51.72	122.907	-99.036	14.162	-93.069	209.247	46.703	-93.184	-88.497	138.884	59.472	-89.216	-84.782	-84.357	-79.507	43.211	-80.526	-8191	255	
7539.191	1	1	0	0	0.12504	0.20311	0.35015	0.281	0.1539	0.070739	0.33985	0.20731	0.18988	0.16327	0.22553	0.11599	0.31967	0.13169	0.19558	0.1306	0.59583	-0.16458	-0.58542	0.15417	-0.81458	-0.43542	-0.0875	-1.0354	-0.0020833	-0.27708	-0.92917	0.11667	-0.77708	-0.50625	0.052083	-1.2146	-12.600	201.539	-77.761	223.769	99.327	80.856	167.902	175.726	113.762	73.253	211.600	223.540	223.870	230.143	-58.239	167.452	0.00029959	0.00028171	0.00012347	1266.2	3.8142e-06	1.4018e-05	1264.9	344.59	1.1232e-05	4.9602e-06	400.04	131.18	114.25	38.983	7.9223e-06	48.626	0.0014556	0.001501	0.00038932	1307.2	1.6845e-05	1.6534e-05	1316.4	358.49	1.671e-05	1.6029e-05	418.32	138.64	123.71	41.598	1.4555e-05	51.917	147.486	10.960	-3.577	-93.063	246.289	37.871	-93.012	-88.230	180.049	26.506	-89.020	-84.870	-84.433	-79.493	18.719	-80.208	-8191	255	
7539.287	1	1	0	0	0.21882	0.097656	0.1486	0.078195	0.23309	0.25473	0.18125	0.27259	0.19476	0.13835	0.10534	0.152	0.17984	0.1151	0.16406	0.36514	0.35625	-0.22083	-0.67083	-0.17917	-0.50833	-0.48542	0.10208	-0.75	-0.091667	0.0020833	-0.85208	-0.083333	-0.40625	-0.70833	0.15417	-0.91042	111.768	89.873	173.418	-43.022	-78.226	35.265	238.665	218.928	62.522	159.407	230.344	245.704	189.371	-25.936	-103.534	226.653	0.00030048	0.0011049	5.3238e-05	1256.4	1.2297e-05	1.2793e-05	1273.6	346.16	3.3459e-06	1.0882e-05	397.28	130.89	113.58	38.955	8.0675e-06	48.577	0.0014978	0.001444	0.00038079	1307.4	1.6974e-05	1.6039e-05	1316.2	360.6	1.6999e-05	1.5615e-05	416.87	139.37	123.72	41.529	1.4466e-05	52.183	136.139	-7.632	55.383	-93.157	72.279	78.344	-93.242	-88.595	13.919	0.052	-89.007	-85.293	-84.770	-79.493	21.976	-80.199	-8191	255	
7539.383	1	1	0	0	0.15576	0.086263	0.25855	0.37177	0.071872	0.037539	0.2226	0.37633	0.19058	0.27604	0.3562	0.13204	0.21077	0.24853	0.094903	0.17545	0.060417	-0.23125	-0.86667	-0.10833	-0.34375	-0.60833	0.11458	-0.92083	-0.43125	0.03125	-0.89792	-0.022917	-0.45208	-0.84375	0.18333	-0.89583	3.465	-65.522	-13.283	210.552	-72.625	-83.621	244.580	183.725	-0.008	-16.940	227.491	-33.422	-77.191	188.077	-97.156	133.535	0.00039299	0.00038847	0.0001044	1261.7	4.3121e-06	8.7365e-06	1267.7	344.91	2.8559e-06	4.9864e-06	398.39	131.14	113.83	38.914	4.2296e-06	48.31	0.0014857	0.0014019	0.00037588	1313	1.663e-05	1.5576e-05	1315.1	360.12	1.6477e-05	1.511e-05	417.46	139.57	123.12	41.455	1.4362e-05	52.108	124.804	-61.378	-29.244	-93.124	-38.430	-42.113	-93.025	-88.190	96.827	106.376	-89.177	-85.154	-84.334	-79.571	133.427	-80.287	-8191	255	
7539.502	1	1	0	0	0.24899	0.20852	0.39853	0.20685	0.099214	0.17125	0.28243	0.32842	0.1111	0.12265	0.025118	0.1222	0.27616	0.15064	0.21025	0.18415	-0.15625	0.14583	-0.96875	-0.40208	-0.41667	-0.73333	-0.0020833	-0.67292	-0.3875	-0.072917	-0.84375	-0.40625	-0.28542	-0.96667	-0.047917	-0.85	52.041	96.524	69.650	232.396	166.000	-63.821	-68.002	162.710	14.993	161.999	121.118	157.603	-69.984	-96.098	158.041	-45.815	0.00048464	0.00097955	0.00019315	1262	7.8472e-06	1.1794e-05	1273.9	344.71	2.1177e-06	2.6461e-06	397.91	131.4	114.12	38.856	4.7616e-06	48.477	0.0014317	0.00137	0.00038193	1315	1.5912e-05	1.5148e-05	1319	360.15	1.6025e-05	1.4819e-05	418.21	140.15	122.88	41.372	1.5283e-05	52.309	133.639	-36.826	13.556	-93.097	-7.276	36.950	-93.294	-88.387	201.733	-23.511	-88.945	-84.900	-84.174	-79.568	5.518	-80.337	-8191	255	
7539.575	1	1	0	0	0.038534	0.1661	0.088412	0.21348	0.1765	0.21254	0.093518	0.34019	0.15482	0.079383	0.15288	0.1674	0.05371	0.377	0.39616	0.24676	-0.041667	0.14583	-0.62083	-0.32917	-0.025	-0.90208	-0.19375	-0.64375	-0.50833	0.12292	-0.76458	-0.23333	-0.095833	-0.88542	0.2125	-0.47083	67.710	-63.492	199.172	-31.394	145.923	57.358	82.324	222.205	-52.143	49.569	-97.668	203.083	-106.246	153.458	116.903	-74.474	0.00044457	0.0010966	4.7924e-05	1263.9	4.0794e-06	5.2248e-06	1265.5	345.21	8.7548e-06	7.3948e-06	397.32	130.58	112.97	38.892	1.5791e-06	48.303	0.0013993	0.0013371	0.00039856	1316.3	1.5391e-05	1.487e-05	1320.5	360.27	1.568e-05	1.4665e-05	419.37	139.63	122.54	41.378	1.6486e-05	52.141	118.139	-26.763	-81.079	-93.118	26.914	14.588	-93.326	-88.440	13.591	66.259	-88.988	-84.632	-84.293	-79.447	-14.731	-79.700	-8191	255	
7539.671	1	1	0	0	0.082118	0.095325	0.1409	0.076931	0.21285	0.16808	0.20143	0.18481	0.26336	0.3107	0.13524	0.25886	0.041986	0.059703	0.1228	0.10618	-0.21458	0.00625	-0.62708	-0.57292	-0.039583	-0.7875	-0.37083	-0.375	-0.76042	0.24167	-0.65833	-0.47917	-0.13542	-0.875	-0.40833	-0.4	129.908	-56.636	-52.325	-19.603	53.140	134.047	222.639	213.133	179.894	-77.369	60.540	149.226	211.994	-103.694	-24.034	-3.181	0.00054681	0.00099786	5.4522e-05	1260.2	5.609e-06	6.1398e-06	1274	345.57	5.2172e-06	4.2802e-06	398.44	130.82	112.84	38.765	4.0593e-06	48.313	0.0013761	0.0013278	0.00042323	1312.7	1.5157e-05	1.493e-05	1323.4	359.89	1.5249e-05	1.48e-05	420.28	139.33	121.95	41.372	1.7189e-05	51.97	156.393	6.696	175.228	-93.025	25.718	152.966	-93.159	-88.371	-12.865	159.053	-89.058	-84.838	-84.349	-79.240	-80.253	-80.020	-8191	255	
7539.768	1	1	0	0	0.056086	0.14202	0.023822	0.19481	0.3847	0.027123	0.054627	0.24292	0.035548	0.067257	0.38392	0.45038	0.11986	0.029127	0.14734	0.28374	-0.22083	0.37708	-0.725	-0.58958	0.077083	-0.84167	-0.10208	-0.3875	-0.83125	0.13958	-0.60833	-0.45417	0.12083	-0.94375	-0.14583	-0.047917	128.448	185.264	25.011	206.935	42.635	41.629	-45.204	231.990	195.476	-71.982	188.321	168.395	-99.972	135.165	49.359	163.806	0.00034248	0.0012324	0.00017039	1266.3	7.2975e-06	4.0256e-06	1264.3	344.22	8.3084e-06	6.8628e-06	396.23	130.01	112.68	38.731	3.9259e-06	48.18	0.0013414	0.0013749	0.00043714	1313	1.4825e-05	1.5552e-05	1323.2	359.07	1.5003e-05	1.5653e-05	419.7	138.94	121.82	41.506	1.715e-05	51.828	148.806	100.520	46.619	-93.226	0.165	65.763	-93.213	-88.317	-60.699	-88.473	-88.995	-84.796	-83.848	-79.287	25.174	-79.922	-8191	255	
7539.886	1	1	0	0	0.13523	0.23139	0.13766	0.10678	0.28737	0.17659	0.37476	0.20324	0.25141	0.20091	0.24693	0.20131	0.31358	0.1026	0.027301	0.2869	-0.55417	0.077083	-0.37292	-0.84792	0.15833	-0.675	-0.64583	0.0020833	-0.99167	-0.00625	-0.49583	-0.67917	0.052083	-0.9375	-0.49792	-0.17708	143.365	195.515	100.380	-63.608	199.610	-26.204	189.148	173.868	170.538	133.765	213.436	157.698	-36.672	143.532	-61.204	141.974	0.00051885	0.00022775	0.00021172	1266.2	8.4982e-06	7.8165e-06	1267.6	344.2	3.8753e-06	2.8579e-06	396.55	130.43	113.44	38.861	3.0936e-06	48.348	0.0013073	0.0014767	0.00043058	1309.9	1.4504e-05	1.6381e-05	1322.6	358.27	1.4912e-05	1.6711e-05	418.75	138.93	121.8	41.702	1.6879e-05	51.782	130.477	217.528	6.193	-93.005	50.732	55.806	-93.133	-88.311	25.458	130.159	-88.901	-84.886	-84.375	-79.561	35.169	-80.180	-8191	255	
7539.983	1	1	0	0	0.16142	0.22349	0.087205	0.27811	0.042205	0.057471	0.073674	0.072455	0.27799	0.17819	0.25775	0.29483	0.087221	0.33731	0.15659	0.036442	-0.38958	0.13958	-0.1125	-0.89583	0.17083	-0.62917	-0.45833	-0.19583	-0.72917	-0.0125	-0.19167	-0.93333	-0.12083	-0.66042	-0.425	0.13125	-61.985	-44.721	49.136	-18.090	212.111	226.719	216.538	176.764	139.571	92.114	170.401	246.053	152.944	242.952	234.725	181.516	0.00036826	0.00043798	0.00019979	1257.1	3.8363e-06	4.4669e-06	1260.8	342.68	1.1225e-05	3.8132e-06	399.02	130.42	112.99	38.918	9.5493e-06	48.287	0.0013252	0.0015708	0.00042126	1306.9	1.4892e-05	1.7291e-05	1317.7	356.9	1.5151e-05	1.7522e-05	418.82	138.82	122.15	41.716	1.6341e-05	51.683	124.628	56.349	-19.663	-92.687	-13.384	36.248	-93.298	-88.563	200.981	-6.322	-88.981	-84.647	-83.996	-79.111	13.128	-79.914	-8191	255	
7540.079	1	1	0	0	0.090925	0.12572	0.21062	0.15562	0.10105	0.12497	0.23007	0.29004	0.126	0.32856	0.23781	0.18882	0.20113	0.16489	0.26604	0.20977	-0.28958	-0.23958	-0.14167	-0.93958	0.22917	-0.48958	-0.775	-0.1875	-0.74375	-0.37083	-0.36042	-0.71875	-0.17292	-0.51458	-0.60625	0.13125	194.288	163.470	5.884	-106.330	33.619	177.006	216.940	201.909	-11.763	32.023	252.734	211.918	-36.343	190.255	71.493	191.293	0.0006139	0.0010798	9.7913e-05	1264.9	1.5162e-06	5.6908e-06	1262.3	343.84	1.8652e-06	1.1941e-05	396.01	130.36	113.21	38.818	7.6628e-06	48.329	0.0013911	0.0015954	0.00040903	1307.2	1.5772e-05	1.7458e-05	1318.2	356.87	1.6165e-05	1.743e-05	416.99	138.45	122.75	41.673	1.5989e-05	51.683	117.311	19.908	76.317	-93.034	134.412	42.203	-93.454	-88.401	215.175	-16.729	-88.694	-84.964	-84.176	-79.446	30.926	-80.240	-8191	255	
7540.175	1	1	0	0	0.10453	0.074471	0.16086	0.14653	0.057335	0.22221	0.21896	0.38173	0.18123	0.25434	0.066355	0.30179	0.31693	0.22169	0.069765	0.10483	-0.5875	-0.1875	-0.045833	-1.0063	-0.077083	-0.49375	-0.83958	-0.075	-0.60625	-0.43333	-0.22708	-1.0604	-0.1125	-0.53125	-0.73542	-0.10625	243.284	-96.109	-51.362	179.829	92.176	133.763	249.945	242.463	198.394	82.408	41.434	-78.821	-86.293	183.796	68.843	150.798	0.00055847	0.00077095	0.00025543	1257.7	4.595e-06	4.4593e-06	1265.1	343.96	4.0624e-06	5.6971e-06	398.97	130.76	112.69	38.982	1.3572e-06	48.257	0.0014666	0.0015721	0.0003935	1304.5	1.6726e-05	1.6796e-05	1317.2	357.04	1.6882e-05	1.6909e-05	417.05	138.48	123.41	41.544	1.5617e-05	51.65	106.378	14.119	11.482	-93.401	16.108	36.177	-93.368	-88.258	176.217	-73.086	-89.082	-84.928	-84.426	-79.442	47.708	-80.307	-8191	255	
7540.271	1	1	0	0	0.042944	0.077757	0.14764	0.28143	0.26761	0.019976	0.22775	0.14924	0.060615	0.12417	0.30702	0.18659	0.16667	0.16462	0.17077	0.19764	-0.17708	-0.4125	0.22708	-0.9	-0.064583	-0.31667	-0.93542	-0.066667	-0.57292	-0.61042	-0.041667	-0.81667	-0.05625	-0.16458	-0.74375	0.22708	235.387	-29.169	-95.539	217.966	143.600	172.257	200.127	-66.921	196.104	-63.865	229.081	161.631	-70.681	196.854	53.503	12.622	0.00055684	0.00090539	0.00022976	1258.8	1.5751e-06	9.0625e-06	1271	344.29	8.2032e-06	5.3309e-06	395.9	130.59	113.3	38.792	4.6434e-06	48.553	0.0015087	0.0015164	0.00038382	1305.5	1.7342e-05	1.6157e-05	1316.3	357.02	1.7306e-05	1.6268e-05	415.4	138.73	123.43	41.405	1.5215e-05	51.889	147.542	242.282	11.543	-93.258	-27.250	19.598	-93.332	-88.401	27.096	26.989	-89.011	-85.253	-84.434	-79.579	64.584	-80.516	-8191	255	
7540.367	1	1	0	0	0.097769	0.037353	0.13405	0.23741	0.14583	0.14139	0.3182	0.34926	0.027384	0.16071	0.074585	0.26492	0.10055	0.29734	0.22832	0.22055	-0.10625	-0.63542	0.10417	-0.86875	-0.2375	-0.025	-0.99167	-0.12292	-0.51875	-0.80208	0.125	-0.8875	-0.44583	0.125	-0.79792	-0.15	-80.274	216.527	184.223	-66.302	-98.390	104.416	173.674	218.934	238.237	174.101	155.336	210.025	-98.413	198.342	-64.920	145.078	0.0004443	0.00088145	0.00017552	1256.4	1.8963e-05	1.229e-05	1266.6	342.21	1.0558e-05	6.4513e-06	395.09	130.55	112.98	38.718	4.1237e-06	48.179	0.00152	0.0014668	0.00037396	1307.5	1.7335e-05	1.5729e-05	1312.8	357.84	1.7074e-05	1.5923e-05	415.29	139.4	123.02	41.286	1.5115e-05	51.985	141.908	-30.766	-13.360	-93.301	16.597	40.214	-93.284	-88.835	-38.012	54.200	-89.190	-85.188	-84.535	-79.544	-49.893	-80.613	-8191	255	
7540.488	1	1	0	0	0.30346	0.19053	0.0173	0.23445	0.09771	0.31943	0.23561	0.2454	0.084988	0.16936	0.36883	0.14343	0.012105	0.50905	0.074996	0.11837	0.1125	-0.71458	0.24583	-0.71667	-0.44792	-0.0125	-1.0438	-0.15208	-0.3375	-0.70625	0.064583	-0.62708	-0.64375	-0.091667	-0.81042	-0.15417	127.689	-27.434	109.189	21.629	202.574	8.869	228.140	166.136	185.055	173.410	175.302	185.452	97.639	-61.835	-78.389	84.499	0.00043536	7.9005e-05	0.00013151	1262.4	6.3428e-06	7.0214e-06	1266.9	342.56	6.8748e-06	3.6333e-06	397.72	130.6	113.12	38.76	5.0174e-06	48.095	0.0014777	0.0014416	0.00037459	1313.6	1.6871e-05	1.5342e-05	1314.1	358.44	1.6489e-05	1.5657e-05	416.05	139.8	122.6	41.274	1.546e-05	52.163	144.484	246.655	-14.439	-93.294	42.910	3.654	-93.370	-88.709	9.515	28.346	-89.363	-84.739	-84.964	-79.769	172.505	-80.209	-8191	255	
7540.582	1	1	0	0	0.12073	0.072025	0.1044	0.086929	0.17215	0.07068	0.1072	0.39044	0.099545	0.32837	0.18132	0.061781	0.077742	0.20612	0.1969	0.18153	0.13333	-0.60625	0.16875	-0.88958	-0.67083	0.09375	-1.025	-0.3	-0.14583	-0.64375	-0.022917	-0.5	-0.70833	0.033333	-0.61667	-0.29167	99.958	209.032	-75.765	-47.371	248.036	124.470	-63.385	154.022	-22.046	146.855	186.112	-0.155	-53.928	198.009	-5.451	103.071	0.00047082	0.00015695	0.00015324	1252.9	5.0945e-06	8.0532e-06	1260.1	342.34	8.2117e-06	4.9419e-06	396.23	130.54	112.76	38.886	3.9151e-06	48.2	0.0014256	0.001408	0.000392	1310.1	1.6087e-05	1.5029e-05	1315.3	358.22	1.586e-05	1.5314e-05	417.1	139.49	122.5	41.195	1.6372e-05	52.089	168.882	211.391	234.130	-92.974	-3.488	70.466	-93.325	-88.352	-61.286	97.879	-88.860	-85.047	-84.748	-79.604	174.689	-80.601	-8191	255	
7540.678	1	1	0	0	0.15542	0.088192	0.059625	0.29987	0.066145	0.20718	0.18501	0.47157	0.15705	0.36208	0.36937	0.26665	0.035974	0.20701	0.17844	0.12856	0.42917	-0.80625	0.10417	-0.6125	-0.62708	0.20833	-0.80833	-0.51458	-0.027083	-0.56042	-0.18125	-0.33542	-0.7875	-0.085417	-0.63958	-0.44792	27.061	-99.052	217.794	201.581	173.479	66.699	174.988	186.721	59.518	245.533	172.208	175.824	-78.390	-93.834	-62.018	54.389	0.00026778	0.0011925	6.3076e-05	1260.5	9.7164e-06	1.0259e-05	1264.9	343.75	6.6378e-06	7.3699e-06	397.31	130.1	113.26	38.971	3.3772e-06	47.982	0.0013603	0.0013753	0.00041168	1312	1.5735e-05	1.4433e-05	1320.3	358.8	1.5376e-05	1.5101e-05	418.79	139	122.31	41.25	1.7124e-05	51.904	128.222	18.499	-62.318	-93.109	-8.781	18.023	-93.312	-88.635	-13.433	72.329	-89.015	-84.929	-84.420	-79.541	227.209	-80.284	-8191	255	
7540.799	1	1	0	0	0.20949	0.22199	0.11525	0.076351	0.14687	0.38658	0.11615	0.37117	0.1921	0.10497	0.18219	0.20566	0.074134	0.1384	0.19554	0.22662	0.425	-0.82917	-0.077083	-0.38542	-0.82917	-0.033333	-0.82917	-0.5625	0.08125	-0.87292	-0.1875	-0.11458	-0.75208	-0.03125	-0.61875	-0.85	1.878	115.023	93.914	-66.065	25.381	180.902	46.658	158.141	160.205	250.084	152.076	-41.498	247.566	-53.587	-101.442	115.709	0.00031783	0.00029045	0.00015317	1262.1	3.0172e-06	1.086e-05	1265.7	343.18	3.2889e-06	2.6178e-06	395.67	130.72	113.1	38.785	6.9698e-06	48.535	0.0013326	0.0013946	0.00043451	1309.4	1.5407e-05	1.4966e-05	1322.1	357.9	1.476e-05	1.5583e-05	419.12	138.9	121.86	41.306	1.7356e-05	51.885	92.452	132.486	89.161	-93.058	244.299	60.816	-93.199	-88.523	-25.405	-5.274	-89.133	-84.809	-84.677	-79.484	9.378	-80.516	-8191	255	
7540.871	1	1	0	0	0.21362	0.25022	0.2248	0.14551	0.14467	0.17424	0.13595	0.25077	0.071733	0.31128	0.26916	0.097343	0.13049	0.085447	0.32843	0.11664	0.37917	-0.87708	-0.22083	-0.32083	-0.71458	0.072917	-0.76458	-0.66458	-0.0083333	-0.64583	-0.36875	-0.16042	-0.99167	0.029167	-0.60833	-0.7	17.803	221.619	-62.813	200.624	1.855	-73.189	-96.778	120.546	77.626	-5.527	-69.410	-69.694	105.089	201.080	36.636	181.670	0.00027978	0.0011318	8.9717e-05	1260	2.9541e-06	6.6019e-06	1269.9	344.22	4.1912e-06	5.2564e-06	397.39	130.81	112.3	38.797	1.7685e-05	48.486	0.0012887	0.0014676	0.00043672	1306.8	1.5013e-05	1.5903e-05	1321.6	357.92	1.4603e-05	1.6462e-05	419.29	138.76	121.65	41.46	1.6888e-05	51.867	161.123	-56.370	-93.066	-93.252	29.675	124.556	-93.328	-88.605	-24.860	-58.167	-88.805	-85.172	-84.279	-79.572	36.398	-80.001	-8191	255	
7540.967	1	1	0	0	0.2168	0.14445	0.15334	0.38139	0.40895	0.15282	0.1549	0.075089	0.15147	0.15353	0.1337	0.11998	0.097769	0.14606	0.092915	0.005279	0.58333	-0.73542	-0.31458	-0.10417	-0.87292	0.097917	-0.6875	-0.87292	0.20625	-0.66458	-0.62917	-0.1	-0.82292	-0.175	-0.041667	-0.96875	41.008	220.151	-45.247	-98.714	-83.772	238.335	-99.360	163.169	203.878	-41.758	215.562	-67.982	95.276	46.007	16.282	151.396	0.00045754	0.00021195	0.00030761	1259.5	3.4505e-06	7.1051e-06	1262	343.4	6.805e-06	3.9571e-06	396.69	130.91	113.07	38.878	1.2076e-05	47.981	0.0012743	0.0015404	0.00043046	1305.6	1.4805e-05	1.6778e-05	1318.8	357.32	1.4604e-05	1.7154e-05	418.44	138.63	122.01	41.598	1.6223e-05	51.683	155.899	79.116	-40.130	-93.155	138.068	-77.544	-93.158	-88.475	-47.837	158.522	-88.991	-84.957	-84.685	-79.570	21.997	-80.167	-8191	255	
7541.063	1	1	0	0	0.13974	0.19991	0.13775	0.26763	0.064657	0.12357	0.15924	0.076659	0.41579	0.154	0.14583	0.13501	0.01944	0.223	0.051494	0.05848	0.54375	-0.64583	-0.38958	-0.17917	-0.92292	-0.22917	-0.26458	-0.94792	0.25417	-0.6125	-0.73333	0.010417	-0.80833	-0.1375	-0.089583	-0.9625	-90.091	156.824	-57.211	247.915	104.072	9.935	175.323	-24.340	-4.003	-82.465	213.913	211.208	210.872	244.428	-101.535	191.019	0.00042446	0.00065726	0.00016986	1258	6.4737e-06	5.6632e-06	1271.4	343.74	4.698e-06	4.5954e-06	399.71	130.89	112.86	38.946	8.0693e-06	48.136	0.0013194	0.0015761	0.00041565	1303.9	1.5338e-05	1.736e-05	1316	357.42	1.5398e-05	1.7237e-05	418.57	138.26	122.39	41.662	1.5709e-05	51.53	134.840	-31.624	-3.575	-92.962	243.094	16.629	-93.239	-88.471	205.228	179.096	-89.068	-84.946	-84.467	-79.779	44.585	-80.141	-8191	255	
7541.184	1	1	0	0	0.021056	0.35379	0.086753	0.19356	0.15006	0.036021	0.14159	0.33318	0.20902	0.16904	0.088863	0.16022	0.19776	0.21173	0.0855	0.16065	0.66875	-0.35417	-0.58333	-0.08125	-0.72708	-0.20417	-0.42292	-1.0125	-0.091667	-0.25833	-0.85833	-0.0020833	-0.90625	-0.48542	0.0375	-0.83958	105.510	-24.059	233.704	178.468	-30.045	98.341	-80.471	207.554	-66.360	180.567	248.216	215.299	-64.398	246.205	21.306	-11.419	0.00046255	0.00062011	0.00020868	1257.3	1.3872e-06	2.8836e-06	1266.4	344.24	6.8252e-06	7.3439e-06	396.87	130.53	113.16	38.751	4.8499e-06	48.205	0.0014149	0.0015581	0.00040272	1301.1	1.6148e-05	1.7262e-05	1315.9	356.66	1.6639e-05	1.6858e-05	416.29	138.23	122.86	41.58	1.5389e-05	51.583	127.034	-13.015	-58.087	-93.177	45.546	212.356	-93.066	-88.523	217.373	67.826	-88.975	-84.995	-84.576	-79.777	53.922	-80.122	-8191	255	
7541.280	1	1	0	0	0.21666	0.11447	0.12339	0.0091975	0.23661	0.25464	0.41432	0.29554	0.28947	0.17677	0.17631	0.34089	0.10466	0.22498	0.098152	0.21124	0.19375	-0.27083	-0.7375	0.175	-0.66042	-0.20625	-0.19583	-1.0688	-0.12917	-0.24167	-0.84792	0.025	-0.4875	-0.56667	0.26667	-0.91875	227.302	-100.156	48.865	151.800	-4.356	105.453	194.617	243.382	147.411	1.026	159.523	245.432	-84.998	212.975	17.857	196.776	0.00031469	0.0010281	0.00023688	1257.2	7.148e-06	7.4949e-06	1266.9	344.33	5.1618e-06	4.6926e-06	397.91	130.73	112.92	38.994	8.274e-06	48.239	0.0014915	0.0015144	0.00038964	1303.9	1.696e-05	1.6517e-05	1314.6	357.29	1.7248e-05	1.6108e-05	416.32	138.56	123.31	41.504	1.4819e-05	51.638	104.602	1.404	-17.789	-93.150	30.418	-47.651	-93.174	-88.293	15.797	94.818	-89.110	-85.129	-84.445	-79.346	39.508	-80.400	-8191	255	
7541.376	1	1	0	0	0.10309	0.28734	0.12332	0.21665	0.254	0.29082	0.15936	0.24726	0.13951	0.30747	0.36772	0.17855	0.21104	0.16793	0.030481	0.22837	0.38542	-0.12292	-0.74792	0.077083	-0.46458	-0.51667	-0.24167	-0.93958	-0.041667	-0.10208	-0.99583	0.020833	-0.36042	-0.69375	0.1	-0.71667	143.858	243.410	56.056	215.723	-49.575	106.235	153.903	223.064	148.342	183.493	212.303	-92.274	-69.201	220.046	35.939	147.069	0.00038443	0.0010039	0.00010844	1256.3	2.9434e-06	9.7019e-06	1262.4	344.68	1.4755e-06	7.188e-06	397.1	129.88	113.19	38.92	4.1824e-07	48.387	0.0015134	0.0014454	0.00038005	1305.4	1.6933e-05	1.5796e-05	1310.8	358.01	1.7035e-05	1.5577e-05	415.67	138.9	123.05	41.418	1.4588e-05	51.819	134.687	-22.120	-28.048	-93.183	100.298	33.388	-93.105	-88.315	1.793	19.113	-89.212	-85.238	-84.571	-79.914	10.020	-80.133	-8191	255	
7541.448	1	1	0	0	0.11027	0.12154	0.32899	0.3239	0.068711	0.20429	0.32619	0.13267	0.17653	0.11256	0.078031	0.25088	0.24889	0.16136	0.20607	0.1535	0.2625	-0.047917	-0.87292	-0.091667	-0.4	-0.56875	-0.039583	-0.81042	-0.30833	0.14167	-1.0021	-0.03125	-0.4	-0.725	0.32083	-0.71667	34.187	177.527	46.460	182.955	-67.122	103.479	191.936	231.315	-39.210	109.073	-106.417	-61.029	-91.571	160.510	247.406	-95.005	0.00028247	0.00047991	0.00013279	1258.2	8.4997e-06	5.7138e-06	1265.3	344.06	3.555e-06	2.616e-06	396.52	130.16	112.87	38.866	2.6843e-06	48.227	0.0014975	0.0014195	0.00037632	1309.2	1.6755e-05	1.5653e-05	1311.2	358.69	1.6778e-05	1.5204e-05	415.56	138.96	122.81	41.316	1.4783e-05	51.993	177.248	-11.165	-59.697	-92.933	-14.233	-9.918	-93.125	-88.546	9.501	151.273	-89.199	-85.121	-84.819	-79.515	19.144	-80.281	-8191	255	
7541.568	1	1	0	0	0.1129	0.096137	0.28451	0.10424	0.22702	0.062312	0.32404	0.27856	0.11824	0.073478	0.24659	0.25249	0.061999	0.44787	0.24787	0.32266	0.060417	0.10625	-0.65417	-0.10208	-0.12917	-0.74583	0.18958	-0.84167	-0.66042	0.13125	-0.95833	-0.26875	-0.15208	-0.9	-0.04375	-0.575	-39.372	54.210	84.706	-100.172	-27.006	247.803	219.482	-92.445	-75.887	135.899	122.585	115.652	145.126	190.816	-68.590	236.196	0.00050152	0.00028197	0.00014719	1257.8	1.207e-05	9.8427e-06	1264	343.89	5.1281e-06	1.1945e-05	395.27	130.24	112.65	38.849	5.3611e-06	48.302	0.0014347	0.0013796	0.00039025	1309.3	1.607e-05	1.524e-05	1314.5	359.2	1.6104e-05	1.483e-05	416.22	139.23	122.13	41.276	1.5552e-05	52.064	115.543	-2.007	-76.786	-93.319	89.060	33.040	-93.367	-88.289	-4.601	61.793	-88.979	-84.897	-84.281	-79.445	191.974	-80.241	-8191	255	
7541.664	1	1	0	0	0.32157	0.1686	0.33302	0.14688	0.19439	0.17684	0.28023	0.18808	0.12825	0.098992	0.086955	0.25708	0.092029	0.12875	0.061557	0.26937	-0.20208	0.23333	-0.84167	-0.26042	-0.15625	-0.72083	-0.15625	-0.75417	-0.63958	0.064583	-0.675	-0.63542	0.0041667	-1.0792	0.15417	-0.54375	-54.099	36.242	233.148	208.340	-99.936	75.946	-23.867	180.276	88.385	-8.095	236.605	190.207	36.765	224.401	171.624	-103.933	0.00026912	0.00088725	0.00012895	1254.2	3.7233e-06	1.0098e-05	1266.7	343.74	2.9671e-06	2.0399e-06	396.94	130.23	113.07	38.775	4.2601e-06	48.417	0.0013944	0.0013391	0.0004093	1309.5	1.5505e-05	1.5033e-05	1318.3	358.95	1.5638e-05	1.4644e-05	418.8	139.2	122.14	41.282	1.6576e-05	52.056	177.314	-31.471	82.536	-93.170	11.362	81.710	-93.305	-88.528	178.549	69.382	-89.069	-84.966	-84.579	-79.529	-71.371	-80.671	-8191	255	
7541.760	1	1	0	0	0.17573	0.22622	0.055282	0.45011	0.32607	0.014063	0.29998	0.27746	0.24997	0.19842	0.24297	0.22051	0.22642	0.19301	0.14533	0.4222	-0.20208	0.25	-0.45417	-0.42708	-0.045833	-0.825	-0.13958	-0.46875	-0.7125	-0.05625	-0.75833	-0.475	0.033333	-0.80208	-0.11667	-0.20833	-78.862	-77.175	-95.906	221.522	117.022	15.982	-91.706	158.323	82.304	44.949	-77.626	-103.297	-104.343	252.751	-6.358	237.224	0.00026837	1.8719e-05	2.4196e-05	1256.6	3.0309e-06	3.604e-06	1259.5	344.89	2.374e-06	5.8455e-06	395.75	129.82	113.11	38.863	6.2039e-06	48.419	0.0013771	0.001341	0.00043212	1307.9	1.5243e-05	1.5073e-05	1319.2	358.87	1.5526e-05	1.4988e-05	419.64	138.97	121.95	41.306	1.713e-05	51.991	112.132	68.583	223.595	-93.514	32.942	20.917	-93.457	-88.567	-8.028	61.253	-89.085	-85.053	-84.549	-79.802	11.378	-80.202	-8191	255	
7541.879	1	1	0	0	0.18929	0.20145	0.13375	0.30661	0.10806	0.20576	0.11035	0.29062	0.10702	0.080649	0.14705	0.079818	0.040955	0.094895	0.17115	0.11749	-0.41875	0.24167	-0.28542	-0.62292	0.22292	-0.60417	-0.35833	-0.24167	-0.70833	0.0083333	-0.4875	-0.54375	0.022917	-1.0938	-0.027083	-0.24583	227.048	-72.516	14.604	250.518	201.200	-64.843	208.782	165.716	60.917	13.065	153.500	247.647	134.329	214.710	55.708	130.015	0.00024869	0.00076452	0.00015263	1261.4	1.2141e-05	6.4061e-06	1267.2	342.59	2.4496e-06	4.9524e-06	398.02	130.55	113.07	39.001	1.8397e-06	48.398	0.0013423	0.0013861	0.00043763	1307.2	1.4781e-05	1.5815e-05	1322.8	357.36	1.5041e-05	1.5755e-05	419.42	138.85	121.77	41.493	1.7233e-05	51.757	134.699	-54.871	-45.016	-93.371	-14.405	41.607	-93.437	-88.453	88.356	-31.287	-88.717	-85.149	-84.434	-79.421	42.544	-80.115	-8191	255	
7541.975	1	1	0	0	0.25842	0.21981	0.15983	0.090426	0.28756	0.062845	0.22764	0.22995	0.20291	0.3274	0.039313	0.26356	0.12288	0.28512	0.2826	0.0416	-0.31458	0.21042	-0.38333	-0.83542	0.17917	-0.60625	-0.47708	-0.14167	-0.69375	-0.029167	-0.50208	-0.94583	0.19375	-0.7	-0.42083	-0.025	217.999	13.833	49.844	205.649	35.508	217.170	149.154	230.368	226.040	10.495	155.375	208.089	-75.886	162.840	-68.667	112.824	0.00033305	0.00038984	0.0001535	1264.9	8.6326e-06	5.4889e-06	1265.5	343.82	7.0286e-06	2.2477e-06	397.28	130.98	113.76	38.887	3.3283e-06	48.309	0.0013069	0.0014869	0.00043102	1308	1.4509e-05	1.6555e-05	1320.6	357.39	1.4657e-05	1.672e-05	419.02	138.85	121.77	41.691	1.6611e-05	51.661	132.261	-68.015	-3.823	-93.377	-5.030	-27.499	-93.243	-88.676	51.553	-41.226	-89.018	-85.008	-84.571	-79.388	87.568	-80.162	-8191	255	
7542.049	1	1	0	0	0.057214	0.12184	0.46794	0.14001	0.051754	0.10593	0.16773	0.25898	0.28184	0.32642	0.29141	0.28937	0.12848	0.2176	0.24152	0.23834	-0.30625	0.0375	-0.21667	-0.76875	0.029167	-0.64375	-0.67083	-0.12083	-0.875	-0.0875	-0.31042	-0.98542	0.010417	-0.60833	-0.35417	-0.075	3.781	39.910	241.307	-67.451	229.738	-58.156	191.990	210.027	153.251	87.900	244.912	167.421	-95.353	125.292	-4.310	93.806	0.00050703	0.00055674	0.00034349	1257.2	5.1085e-06	5.5395e-06	1267	344.04	1.687e-06	1.3133e-06	397.78	131.03	113.67	38.719	4.2874e-06	48.313	0.0013105	0.0015569	0.00041499	1304.8	1.4794e-05	1.7206e-05	1318.8	357.38	1.5096e-05	1.7193e-05	418.07	138.74	121.93	41.629	1.5938e-05	51.579	145.847	-11.564	-4.399	-93.359	242.724	79.515	-93.654	-88.826	10.912	-94.914	-89.289	-85.342	-84.894	-79.434	66.172	-80.348	-8191	255	
7542.168	1	1	0	0	0.20552	0.2388	0.24537	0.32209	0.042537	0.48281	0.31852	0.2028	0.1677	0.38702	0.14847	0.25259	0.29875	0.13272	0.11664	0.13238	-0.21667	-0.20625	-0.11667	-0.88958	-0.05625	-0.44583	-0.5875	0.014583	-0.46667	-0.13958	-0.14375	-0.99583	0.11458	-0.475	-0.57083	0.054167	45.776	225.937	12.981	192.263	-102.424	23.426	186.105	187.860	115.944	50.007	210.845	217.122	-22.689	-76.080	67.101	247.432	0.00065658	0.00083138	0.00026529	1263.2	2.2491e-06	8.5892e-06	1264.6	343.97	4.074e-06	5.8316e-06	399.6	130.41	112.78	39.058	4.8968e-06	48.639	0.0013702	0.0015748	0.0004003	1305.5	1.564e-05	1.7035e-05	1316.2	357.12	1.5962e-05	1.7163e-05	417.51	138.29	122.47	41.619	1.5528e-05	51.543	134.285	18.603	-48.242	-93.258	-60.847	-13.997	-93.335	-88.532	190.732	81.120	-89.044	-84.845	-84.894	-79.392	36.466	-80.189	-8191	255	
7542.264	1	1	0	0	0.24929	0.18197	0.1762	0.12942	0.15503	0.03584	0.21663	0.14634	0.24636	0.08792	0.079225	0.19418	0.14531	0.1725	0.18559	0.18546	-0.42083	-0.05	0.11875	-0.85	0.010417	-0.22292	-0.77083	0.035417	-0.57917	-0.1875	0.016667	-0.86667	-0.05625	-0.27292	-0.71667	-0.010417	-71.835	242.072	154.125	179.871	-79.460	248.547	201.670	-43.391	-30.645	229.398	225.409	103.124	29.897	105.614	126.218	116.201	0.00048326	0.00045422	7.7342e-05	1261.6	5.9983e-06	5.0198e-06	1269	342.51	2.9488e-06	5.4522e-06	397.42	130.49	113.13	38.838	7.3275e-06	48.223	0.0014466	0.0015414	0.00038901	1305.7	1.6735e-05	1.6549e-05	1315.4	356.43	1.6855e-05	1.6742e-05	416.7	138.26	123.17	41.476	1.5177e-05	51.571	142.529	45.281	231.091	-93.296	28.840	-28.005	-93.452	-88.537	48.021	-13.655	-89.131	-84.949	-84.670	-79.214	43.485	-80.351	-8191	255	
7542.360	1	1	0	0	0.12495	0.043135	0.075383	0.13475	0.11876	0.05507	0.2539	0.43414	0.12261	0.054575	0.095902	0.36285	0.10763	0.12978	0.14518	0.20586	-0.23333	-0.42292	0.091667	-0.88958	-0.01875	-0.32708	-0.98542	0.0875	-0.52917	-0.55833	-0.052083	-0.72083	0.058333	-0.225	-0.55625	0.020833	10.307	-78.435	114.909	-8.472	227.462	5.508	-63.104	201.827	-8.855	9.055	-45.198	164.591	135.948	-43.229	25.606	202.257	0.0004736	0.0015356	0.00018879	1264.9	8.7505e-06	6.2232e-06	1267.5	344.31	7.7173e-06	9.2674e-06	396.01	131.04	113.33	38.728	4.2771e-06	48.275	0.0015077	0.0014928	0.00037971	1307.1	1.7041e-05	1.5922e-05	1315.7	357.76	1.7094e-05	1.6103e-05	415.16	138.85	123.03	41.348	1.4861e-05	51.807	135.899	-21.051	-13.648	-93.214	224.411	33.976	-93.213	-88.562	247.432	61.953	-88.935	-84.911	-84.366	-79.312	37.433	-80.439	-8191	255	
7542.481	1	1	0	0	0.24186	0.23965	0.1095	0.07877	0.16385	0.18655	0.19843	0.277	0.16024	0.19114	0.12664	0.26216	0.12918	0.19513	0.13842	0.29142	-0.15833	-0.4875	0.32708	-0.82917	-0.16042	0.022917	-1.1292	0.025	-0.41667	-0.60625	-0.054167	-0.77708	-0.24375	0.14167	-0.8125	-0.23125	-25.452	-43.998	56.477	-79.904	-7.043	13.415	225.968	214.824	11.142	-54.057	252.815	-96.539	-82.798	-50.870	42.939	235.656	0.00045342	0.00037281	0.00023978	1257.5	9.3521e-06	7.4661e-06	1260.9	344.02	6.0458e-06	6.3082e-06	394.77	130.35	112.75	38.887	6.9492e-06	48.133	0.0014987	0.0014425	0.00037115	1307.7	1.698e-05	1.5405e-05	1311.7	358.02	1.6715e-05	1.5687e-05	415.39	139.36	123.05	41.343	1.4709e-05	51.956	150.081	-82.536	-60.059	-93.115	5.999	29.571	-93.403	-88.440	-94.358	8.822	-88.916	-85.085	-84.373	-79.322	45.692	-80.326	-8191	255	
7542.577	1	1	0	0	0.1495	0.078146	0.25538	0.20987	0.15731	0.17663	0.36146	0.37339	0.23451	0.22105	0.21777	0.16413	0.11863	0.34232	0.47948	0.30631	0.15417	-0.5875	0.10833	-0.83333	-0.29375	0.17708	-0.84792	-0.25833	-0.40417	-0.7375	0.10625	-0.5125	-0.32292	0.064583	-0.88125	-0.16667	211.295	153.184	246.444	-71.091	154.846	-100.780	226.501	227.623	241.990	-8.293	201.350	-61.118	-2.064	170.113	193.613	121.626	0.00040853	0.00044053	0.00019949	1257.5	5.1174e-06	3.5093e-06	1264.6	343.45	6.6393e-06	4.2443e-06	399.11	130.64	112.84	38.751	2.6737e-06	48.154	0.0014413	0.0014063	0.00036712	1312.1	1.6229e-05	1.4893e-05	1313.3	358.8	1.5875e-05	1.4932e-05	415.86	139.33	122.48	41.187	1.4615e-05	51.949	136.526	22.322	13.021	-92.727	-11.074	40.378	-93.241	-88.274	6.683	50.908	-89.028	-84.880	-84.343	-79.214	237.572	-80.196	-8191	255	
7542.671	1	1	0	0	0.30568	0.20262	0.17308	0.2649	0.12068	0.15768	0.081345	0.24989	0.020337	0.069097	0.14562	0.10828	0.099951	0.21771	0.1117	0.12121	0.2125	-0.56667	0.40833	-0.61042	-0.42292	0.15208	-0.92083	-0.23542	-0.041667	-0.69583	0.064583	-0.4625	-0.74583	0.022917	-0.75833	-0.11875	-103.435	238.850	-98.386	220.520	79.569	146.596	-105.363	182.520	-35.776	154.410	225.525	-68.873	31.299	234.722	155.911	-67.249	0.00038016	0.00032577	0.00012017	1252.4	5.4598e-06	1.3459e-05	1262.8	343.01	1.124e-05	8.9725e-06	396.92	131.61	112.88	38.948	2.6639e-06	48.359	0.0013181	0.0013097	0.00036816	1306.3	1.4902e-05	1.3793e-05	1314.2	358.39	1.4565e-05	1.396e-05	417.44	139.59	121.86	41.233	1.4846e-05	51.847	154.855	-9.845	207.946	-92.946	-4.449	56.892	-93.039	-88.413	-9.443	52.611	-88.644	-84.836	-84.476	-79.406	-77.465	-80.114	-8191	255	
7542.745	1	1	0	0	0.18399	0.16012	0.048865	0.087161	0.095793	0.26388	0.11805	0.29516	0.41691	0.17109	0.02522	0.10437	0.26295	0.097397	0.093035	0.23198	0.21667	-0.52917	0.175	-0.51875	-0.60208	0.14375	-0.71458	-0.41458	-0.06875	-0.82708	-0.24583	-0.575	-0.63125	-0.11875	-0.55417	-0.35208	-15.972	111.356	-19.009	219.030	35.066	-70.845	-56.238	-72.729	-56.697	88.739	218.211	218.807	243.854	-44.356	198.719	209.732	0.00067207	0.00096804	9.872e-05	1259.4	5.0444e-06	5.2469e-06	1256.5	343.58	8.8482e-06	3.9301e-06	397.36	130.85	113.41	38.61	3.021e-06	48.306	0.0012552	0.0012383	0.00037698	1304.9	1.4228e-05	1.3438e-05	1312	357.91	1.4047e-05	1.3583e-05	417.72	138.83	121.57	41.072	1.5525e-05	51.69	132.872	-13.444	50.658	-92.964	-65.393	137.726	-92.854	-88.543	-53.500	78.747	-88.735	-84.617	-84.442	-79.175	-60.236	-80.218	-8191	255	
7542.864	1	1	0	0	0.39109	0.088475	0.27856	0.20892	0.25528	0.25267	0.013978	0.2429	0.16782	0.17491	0.46707	0.10172	0.19852	0.13521	0.13731	0.036895	0.47708	-0.62083	-0.03125	-0.32708	-0.6625	0.28125	-0.85417	-0.5875	0.11875	-0.74167	-0.32917	-0.39583	-0.67292	0.28333	-0.53542	-0.68125	24.883	223.599	209.347	198.167	140.235	120.575	47.469	169.389	-23.728	175.775	194.425	-28.088	-53.623	-19.989	230.867	250.906	0.00038904	0.00038221	0.00021641	1259.1	4.849e-06	6.0696e-06	1259.8	341.51	7.85e-06	6.2098e-06	396.02	130.32	112.91	38.903	6.1487e-06	48.21	0.0012162	0.0012706	0.00039825	1302.1	1.4102e-05	1.3824e-05	1313.7	356.25	1.3734e-05	1.441e-05	417.39	138.13	121.05	41.151	1.587e-05	51.464	126.813	213.995	-18.607	-92.921	-63.986	-5.947	-93.052	-88.221	-70.040	111.698	-89.102	-84.753	-84.395	-79.416	209.601	-80.185	-8191	255	
7542.960	1	1	0	0	0.29886	0.13441	0.043741	0.15498	0.22839	0.14529	0.25685	0.11976	0.073646	0.15993	0.14872	0.20841	0.14431	0.26908	0.11157	0.39725	0.51042	-0.56875	-0.075	-0.29375	-0.61458	0.1375	-0.66875	-0.77292	0.083333	-0.63958	-0.425	-0.14167	-0.64167	0.058333	-0.37292	-0.81875	200.006	36.473	225.164	184.779	-36.654	-84.283	149.502	187.503	47.334	39.727	175.577	-98.845	-2.789	221.030	-90.046	253.281	0.00038948	0.00049874	8.8606e-05	1254.4	3.165e-06	4.6971e-06	1270.3	343.72	6.1421e-06	4.5612e-06	397.79	130.31	112.71	38.789	1.0841e-06	48.297	0.0011984	0.0013504	0.0004039	1299.8	1.3927e-05	1.4815e-05	1316.9	356.85	1.3527e-05	1.5328e-05	417.42	138.19	120.97	41.262	1.5474e-05	51.432	135.116	150.518	-32.905	-92.738	1.915	239.084	-93.103	-88.438	9.372	40.219	-88.767	-84.602	-84.401	-79.251	229.800	-80.131	-8191	255	
7543.056	1	1	0	0	0.30964	0.14283	0.066359	0.51769	0.10797	0.12322	0.028027	0.070323	0.089425	0.13099	0.062571	0.27728	0.17103	0.38902	0.33944	0.029627	0.48542	-0.76042	-0.28542	0.04375	-0.73542	0.11875	-0.46458	-0.72083	0.23958	-0.7625	-0.57708	-0.14583	-0.83958	-0.20208	-0.1	-0.85625	92.009	218.053	84.477	244.785	-78.364	-43.166	160.006	221.411	213.066	245.682	-81.551	207.195	184.623	-87.917	-89.612	-20.409	0.0003766	0.00083281	0.0002715	1253.4	5.1152e-06	2.9011e-06	1259.5	344.48	3.9945e-06	4.4896e-06	395.03	129.73	112.7	38.612	1.0092e-05	48.112	0.0011858	0.0014282	0.00039484	1296	1.3939e-05	1.556e-05	1311	356.64	1.3642e-05	1.5857e-05	416.14	137.6	121.06	41.314	1.4916e-05	51.319	119.754	190.418	-44.598	-92.862	1.901	-2.380	-93.151	-88.269	2.739	215.724	-88.768	-84.636	-84.299	-79.077	16.978	-79.992	-8191	255	
7543.152	1	1	0	0	0.11038	0.13848	0.34634	0.093359	0.093819	0.30726	0.11946	0.040205	0.20697	0.18413	0.21933	0.18998	0.096927	0.069991	0.20277	0.64376	0.55833	-0.52708	-0.525	0.083333	-0.82083	-0.15	-0.45	-1.0583	0.19375	-0.38125	-0.5875	-0.10417	-0.85417	-0.21667	-0.11042	-0.925	-24.414	242.197	64.049	125.269	202.098	59.705	136.897	95.172	108.984	125.173	173.071	190.353	64.055	152.705	110.435	-104.272	0.00051516	0.00068647	0.0003122	1257	5.8461e-06	3.9007e-06	1261.1	343.18	3.6762e-06	4.7534e-06	394.71	129.6	112.62	38.647	6.5918e-06	48.031	0.0012299	0.0014622	0.00038137	1296.3	1.4433e-05	1.6084e-05	1310.7	356.3	1.4395e-05	1.6037e-05	415.19	137.42	121.61	41.383	1.4545e-05	51.214	136.338	17.417	-28.345	-92.909	237.479	108.237	-93.190	-88.475	139.472	114.565	-88.905	-84.592	-84.279	-79.269	4.555	-80.261	-8191	255	
7543.248	1	1	0	0	0.3707	0.086785	0.059057	0.4197	0.13784	0.1271	0.11875	0.082744	0.078363	0.22313	0.28484	0.13789	0.071618	0.22071	0.21757	0.19988	0.36042	-0.45833	-0.3	-0.05	-0.45625	-0.175	-0.26667	-0.9625	0.1	-0.26042	-0.81875	0.15625	-0.72708	-0.32708	0.072917	-0.86667	-5.084	206.081	38.097	176.584	242.245	182.533	233.421	152.275	162.817	237.720	167.166	-64.056	240.898	171.021	208.644	94.740	0.00034012	0.0013512	0.000211	1253.1	2.7861e-06	5.3281e-06	1262.2	342.96	3.3469e-06	6.7632e-06	397.52	130.32	112.66	39.091	8.2008e-06	48.264	0.0013127	0.001446	0.00037241	1295.7	1.5242e-05	1.5728e-05	1309.7	355.94	1.5469e-05	1.5476e-05	416.08	137.67	122.14	41.427	1.4154e-05	51.489	137.431	-41.411	-17.242	-92.978	119.377	50.447	-92.910	-88.587	223.129	39.035	-88.730	-84.898	-84.360	-79.343	33.722	-79.890	-8191	255	
7543.344	1	1	0	0	0.25927	0.23302	0.25479	0.18481	0.15017	0.36648	0.21461	0.37384	0.32066	0.15315	0.010745	0.057715	0.11594	0.29414	0.10912	0.25472	0.32917	-0.066667	-0.54792	0.16042	-0.73958	-0.24792	-0.09375	-0.9375	0.11667	-0.31042	-0.68958	0.14792	-0.71667	-0.80625	0.16667	-0.87708	39.571	142.259	-7.360	-77.678	242.384	209.270	-100.893	199.752	88.313	208.329	33.821	163.396	158.639	176.123	155.981	204.022	0.00046236	0.0012105	0.00017714	1249.9	6.8924e-06	9.1852e-06	1257.7	345.26	4.2761e-06	5.1047e-06	392.79	130.15	112.86	38.54	3.8681e-06	48.467	0.0013753	0.0013894	0.00036402	1296.5	1.5617e-05	1.5166e-05	1308.6	357	1.5762e-05	1.4843e-05	414.37	138.19	122.92	41.296	1.3494e-05	51.701	131.169	-38.277	41.406	-93.107	-74.427	49.490	-92.996	-88.211	69.789	62.261	-88.400	-84.570	-84.174	-79.198	53.004	-80.272	-8191	255	
7543.440	1	1	0	0	0.46414	0.10062	0.22378	0.29583	0.27831	0.13994	0.3172	0.20024	0.23329	0.098565	0.083755	0.10164	0.15672	0.17817	0.40044	0.061703	0.18125	-0.070833	-0.48542	-0.1375	-0.48958	-0.55	-0.16042	-1.0146	-0.19167	-0.12708	-0.9375	-0.072917	-0.5625	-0.725	0.17083	-0.86458	78.096	-25.616	87.418	225.541	24.921	-83.147	213.878	72.140	-67.022	211.893	-64.522	128.910	193.459	41.651	218.481	148.659	0.00041247	0.0013606	0.00021025	1258.7	5.6933e-06	8.0882e-06	1264.7	343.52	9.9797e-07	3.7376e-06	397.57	130.74	113.41	38.726	3.7439e-06	48.327	0.0013899	0.0013357	0.00035014	1301.1	1.5575e-05	1.4703e-05	1310.4	357.69	1.5678e-05	1.4349e-05	414.57	138.5	122.59	41.312	1.3285e-05	51.803	144.424	1.167	1.914	-93.051	103.513	15.774	-93.040	-88.180	210.230	3.789	-88.924	-85.055	-84.388	-79.180	-0.806	-80.307	-8191	255	
#DATA ENDS
