BOXY.EXE: ISS Imagent and Oximeter Data Acquisition Program Version 0.80
Ascii Record File

#ACQ INFORMATION
2  Detector Channels 
16  External MUX Channels 
1  Auxiliary Channels 
5000  Waveform (CCF) Frequency (Hz)
1  Waveforms Skipped 
30  Waveforms Averaged 
1  Cycles Averaged 
16  Acquisitions per Waveform 
10.0806  Updata Rate (Hz) 

#FILE INFORMATION
TRUE -- External MUX Channel results are PARSED.
FALSE -- AC DC and Phase are NOT grouped.
TRUE -- Companion Program Settings File CREATED.
FALSE -- AC data not excluded
FALSE -- DC data not excluded
FALSE -- Phase data not excluded
FALSE -- Auxillary Chn. data not excluded
Tab delimiters

#CALIBRATION STATE
TRUE -- Waveform Calibration Values APPLIED.


#AUX CALIBRATION VALUES
Val Type	aux-1	

Term	1.0000e+00	
Factor	0.0000e+00	


#WF CALIBRATION VALUES
A = Detector Channel
Val Type	A-AC1	A-AC2	A-AC3	A-AC4	A-AC5	A-AC6	A-AC7	A-AC8	A-AC9	A-AC10	A-AC11	A-AC12	A-AC13	A-AC14	A-AC15	A-AC16	A-DC1	A-DC2	A-DC3	A-DC4	A-DC5	A-DC6	A-DC7	A-DC8	A-DC9	A-DC10	A-DC11	A-DC12	A-DC13	A-DC14	A-DC15	A-DC16	A-Ph1	A-Ph2	A-Ph3	A-Ph4	A-Ph5	A-Ph6	A-Ph7	A-Ph8	A-Ph9	A-Ph10	A-Ph11	A-Ph12	A-Ph13	A-Ph14	A-Ph15	A-Ph16	

Term	0.00000e+00	0.00000e+00	0.00000e+00	0.00000e+00	0.00000e+00	0.00000e+00	0.00000e+00	0.00000e+00	0.00000e+00	0.00000e+00	0.00000e+00	0.00000e+00	0.00000e+00	0.00000e+00	0.00000e+00	0.00000e+00	0.00000e+00	0.00000e+00	0.00000e+00	0.00000e+00	0.00000e+00	0.00000e+00	0.00000e+00	0.00000e+00	0.00000e+00	0.00000e+00	0.00000e+00	0.00000e+00	0.00000e+00	0.00000e+00	0.00000e+00	0.00000e+00	0.00000e+00	0.00000e+00	0.00000e+00	0.00000e+00	0.00000e+00	0.00000e+00	0.00000e+00	0.00000e+00	0.00000e+00	0.00000e+00	0.00000e+00	0.00000e+00	0.00000e+00	0.00000e+00	0.00000e+00	0.00000e+00	
Factor	1.00000e+00	1.00000e+00	1.00000e+00	1.00000e+00	1.00000e+00	1.00000e+00	1.00000e+00	1.00000e+00	1.00000e+00	1.00000e+00	1.00000e+00	1.00000e+00	1.00000e+00	1.00000e+00	1.00000e+00	1.00000e+00	1.00000e+00	1.00000e+00	1.00000e+00	1.00000e+00	1.00000e+00	1.00000e+00	1.00000e+00	1.00000e+00	1.00000e+00	1.00000e+00	1.00000e+00	1.00000e+00	1.00000e+00	1.00000e+00	1.00000e+00	1.00000e+00	X	X	X	X	X	X	X	X	X	X	X	X	X	X	X	X	

B = Detector Channel
Val Type	B-AC1	B-AC2	B-AC3	B-AC4	B-AC5	B-AC6	B-AC7	B-AC8	B-AC9	B-AC10	B-AC11	B-AC12	B-AC13	B-AC14	B-AC15	B-AC16	B-DC1	B-DC2	B-DC3	B-DC4	B-DC5	B-DC6	B-DC7	B-DC8	B-DC9	B-DC10	B-DC11	B-DC12	B-DC13	B-DC14	B-DC15	B-DC16	B-Ph1	B-Ph2	B-Ph3	B-Ph4	B-Ph5	B-Ph6	B-Ph7	B-Ph8	B-Ph9	B-Ph10	B-Ph11	B-Ph12	B-Ph13	B-Ph14	B-Ph15	B-Ph16	

Term	0.00000e+00	0.00000e+00	0.00000e+00	0.00000e+00	0.00000e+00	0.00000e+00	0.00000e+00	0.00000e+00	0.00000e+00	0.00000e+00	0.00000e+00	0.00000e+00	0.00000e+00	0.00000e+00	0.00000e+00	0.00000e+00	0.00000e+00	0.00000e+00	0.00000e+00	0.00000e+00	0.00000e+00	0.00000e+00	0.00000e+00	0.00000e+00	0.00000e+00	0.00000e+00	0.00000e+00	0.00000e+00	0.00000e+00	0.00000e+00	0.00000e+00	0.00000e+00	2.70886e+01	-1.47570e+02	-1.59823e+02	-1.87769e+02	-7.16749e+01	-1.02766e+02	-1.57019e+02	-1.62015e+02	-1.01898e+02	-8.89711e+01	-1.73571e+02	-1.72116e+02	-1.82981e+02	-1.77625e+02	-1.07765e+02	-1.50887e+02	
Factor	4.90076e-05	9.02078e-05	2.72429e-05	5.41330e-01	1.00772e-06	1.22008e-06	1.72070e-01	5.71424e-02	1.21130e-06	1.00603e-06	1.10401e-01	3.27385e-02	3.12637e-02	9.63839e-03	1.14382e-06	1.41262e-02	4.51512e-07	4.55847e-07	1.26572e-07	2.20301e-01	4.97833e-09	4.98109e-09	7.62968e-02	2.65919e-02	4.98129e-09	4.97910e-09	4.73171e-02	1.42145e-02	1.38173e-02	4.35854e-03	4.97014e-09	6.06963e-03	X	X	X	X	X	X	X	X	X	X	X	X	X	X	X	X	



#DISTANCE SETTINGS
A = Detector Channel
A-1	A-2	A-3	A-4	A-5	A-6	A-7	A-8	A-9	A-10	A-11	A-12	A-13	A-14	A-15	A-16	

2.5000e+00	3.0000e+00	2.5000e+00	3.0000e+00	2.0000e+00	3.0000e+00	1.5000e+00	3.0000e+00	3.0000e+00	3.0000e+00	3.0000e+00	3.0000e+00	3.0000e+00	3.0000e+00	1.5000e+00	3.0000e+00	

B = Detector Channel
B-1	B-2	B-3	B-4	B-5	B-6	B-7	B-8	B-9	B-10	B-11	B-12	B-13	B-14	B-15	B-16	

1.0000e+01	1.0000e+01	1.0000e+01	1.4400e+00	1.0000e+01	1.0000e+01	1.5100e+00	1.9400e+00	1.0000e+01	1.0000e+01	1.9900e+00	2.4900e+00	2.4100e+00	2.9000e+00	1.0000e+01	2.9800e+00	




#DATA BEGINS
time	group	step	mark	flag	A-AC1	A-AC2	A-AC3	A-AC4	A-AC5	A-AC6	A-AC7	A-AC8	A-AC9	A-AC10	A-AC11	A-AC12	A-AC13	A-AC14	A-AC15	A-AC16	A-DC1	A-DC2	A-DC3	A-DC4	A-DC5	A-DC6	A-DC7	A-DC8	A-DC9	A-DC10	A-DC11	A-DC12	A-DC13	A-DC14	A-DC15	A-DC16	A-Ph1	A-Ph2	A-Ph3	A-Ph4	A-Ph5	A-Ph6	A-Ph7	A-Ph8	A-Ph9	A-Ph10	A-Ph11	A-Ph12	A-Ph13	A-Ph14	A-Ph15	A-Ph16	B-AC1	B-AC2	B-AC3	B-AC4	B-AC5	B-AC6	B-AC7	B-AC8	B-AC9	B-AC10	B-AC11	B-AC12	B-AC13	B-AC14	B-AC15	B-AC16	B-DC1	B-DC2	B-DC3	B-DC4	B-DC5	B-DC6	B-DC7	B-DC8	B-DC9	B-DC10	B-DC11	B-DC12	B-DC13	B-DC14	B-DC15	B-DC16	B-Ph1	B-Ph2	B-Ph3	B-Ph4	B-Ph5	B-Ph6	B-Ph7	B-Ph8	B-Ph9	B-Ph10	B-Ph11	B-Ph12	B-Ph13	B-Ph14	B-Ph15	B-Ph16	aux-1	digaux	

386.618	1	1	0	256	0.18551	0.074419	0.12358	0.16428	0.074973	0.24783	0.2102	0.21047	0.31597	0.32786	0.18375	0.13724	0.093127	0.25845	0.22057	0.13023	-2.5187	-2.6292	-2.5479	-2.7958	-2.7375	-2.6917	-2.9146	-2.6792	-2.7854	-2.6167	-2.6979	-2.8438	-2.5312	-2.7188	-2.9542	-2.6146	265.160	-15.602	26.310	12.313	-53.288	22.060	62.085	187.692	205.741	268.342	224.593	95.836	38.052	71.112	194.788	-67.871	0.00019334	0.00025246	7.5398e-05	1287.2	5.2964e-06	6.2183e-06	1345.9	271.57	3.428e-06	4.853e-06	337.13	93.284	73.754	21.272	3.848e-06	29.622	0.00016772	0.00016733	4.6663e-05	1090.6	1.8274e-06	1.8181e-06	1264.6	255.32	1.8165e-06	1.8231e-06	307.87	87.579	68.743	20.498	1.8514e-06	28.043	-60.299	33.931	-16.840	-57.164	154.524	38.071	-57.005	-50.113	66.934	74.915	-50.718	-43.608	-43.523	-36.848	65.919	-37.190	-8191	255	
386.714	1	1	0	0	0.20354	0.13634	0.17715	0.17318	0.17093	0.11566	0.18252	0.15844	0.17362	0.05342	0.28544	0.093678	0.37195	0.21968	0.18274	0.20119	-2.4417	-2.8187	-2.5229	-2.8542	-2.6479	-2.5604	-3.15	-2.7229	-2.85	-2.8438	-2.7542	-2.925	-2.5625	-2.6104	-2.9021	-2.5958	218.837	-46.399	176.548	-64.517	111.516	14.819	207.386	190.619	263.611	64.926	-59.353	81.860	-65.546	248.947	187.381	254.742	0.00026266	0.0003151	0.00010441	1271.4	1.6464e-06	3.3715e-06	1348.1	270.15	2.0601e-06	2.5922e-06	336.62	93.448	74.108	21.331	1.6939e-06	29.629	0.00016877	0.00016837	4.6737e-05	1091.4	1.842e-06	1.8364e-06	1265.9	255.37	1.8467e-06	1.8517e-06	307.8	87.687	68.974	20.53	1.8685e-06	28.047	-31.024	44.231	31.226	-57.271	98.261	78.183	-56.938	-50.171	158.229	18.394	-50.323	-43.832	-43.678	-36.912	145.242	-37.413	-8191	255	
386.833	1	1	0	0	0.12056	0.23324	0.15405	0.10119	0.089502	0.12239	0.32814	0.17527	0.16132	0.50874	0.088432	0.17985	0.10629	0.0052761	0.21612	0.20018	-2.4875	-2.6521	-2.5708	-3.0104	-2.725	-2.7812	-3.0542	-2.4667	-2.825	-2.9271	-2.5	-2.9792	-2.7188	-2.6625	-3.075	-2.625	-46.700	218.022	136.630	-43.991	206.464	64.949	164.906	249.517	-10.775	101.399	201.848	271.406	266.965	74.203	-23.008	185.651	0.00029726	0.00020793	9.7598e-05	1275.4	3.454e-06	4.2199e-06	1345	269.66	2.2475e-06	4.1985e-06	337.88	93.872	73.961	21.284	2.5163e-06	29.99	0.00017025	0.00017064	4.7322e-05	1091	1.8601e-06	1.8846e-06	1266.1	255.28	1.8636e-06	1.8613e-06	308.61	87.841	69.011	20.551	1.8657e-06	28.228	-49.538	43.807	7.756	-57.205	81.568	55.501	-57.155	-50.213	19.877	20.187	-49.809	-43.968	-43.402	-36.713	17.584	-37.511	-8191	255	
386.930	1	1	0	0	0.33462	0.12079	0.21336	0.17993	0.19921	0.082671	0.17377	0.14891	0.096702	0.36641	0.34946	0.2102	0.12377	0.19038	0.084321	0.11655	-2.2979	-2.7812	-2.6458	-2.8375	-2.6771	-2.6542	-3.1542	-2.7604	-2.8458	-2.875	-2.6417	-2.9729	-3.0458	-2.6271	-2.8604	-2.675	186.937	91.545	-33.096	-19.403	123.008	77.033	132.501	290.262	76.006	87.601	219.791	95.678	-67.331	-38.708	191.330	64.430	0.00026142	7.3289e-05	9.6373e-05	1270.3	5.5962e-06	5.6404e-06	1353.4	271.26	2.9936e-06	2.5902e-06	338.58	94	73.478	21.52	6.3545e-06	29.973	0.00017394	0.00017188	4.807e-05	1093.1	1.8851e-06	1.8953e-06	1268.6	256.05	1.9051e-06	1.905e-06	309.44	88.08	69.132	20.691	1.9339e-06	28.331	-34.674	159.960	-22.636	-57.356	47.791	96.964	-57.066	-50.138	75.985	252.191	-50.428	-43.821	-43.252	-36.953	74.724	-37.507	-8191	255	
387.026	1	1	0	0	0.30217	0.12529	0.18488	0.073002	0.15297	0.062843	0.30291	0.091929	0.14504	0.10973	0.18562	0.28991	0.1092	0.21219	0.20979	0.17178	-2.1312	-2.8792	-2.475	-2.8667	-2.8208	-2.4333	-2.9771	-2.8958	-2.7396	-2.8021	-2.8312	-2.6875	-2.8792	-2.5604	-3.0083	-2.7271	-32.653	-19.723	-64.320	-6.311	-30.148	111.565	229.948	157.459	231.404	55.189	15.573	220.883	146.779	27.381	280.111	152.125	8.31e-05	0.00016036	7.2119e-05	1273	3.4249e-06	8.758e-06	1351.7	271.62	3.9751e-06	4.2473e-06	338.95	93.248	73.726	21.211	3.1595e-06	29.814	0.00017831	0.00017746	4.9388e-05	1095.3	1.9278e-06	1.9269e-06	1269.7	256.5	1.9235e-06	1.9297e-06	309.04	88.028	69.201	20.557	1.8936e-06	28.204	-67.827	140.251	30.156	-57.295	243.735	116.243	-57.127	-50.203	89.886	24.713	-50.476	-43.891	-43.415	-37.017	11.651	-37.462	-8191	255	
387.122	1	1	0	0	0.12017	0.069943	0.15194	0.20975	0.12522	0.15968	0.1289	0.21077	0.49856	0.048059	0.038603	0.20209	0.15057	0.14279	0.086266	0.28278	-2.2417	-2.9708	-2.5187	-2.8667	-2.9146	-2.7375	-3.0438	-2.8729	-2.6208	-2.9521	-2.7271	-2.8896	-2.9208	-2.7021	-2.975	-2.8521	-55.063	136.895	71.532	-67.072	40.667	-44.060	144.826	253.234	213.577	175.443	46.289	-31.171	79.953	-60.800	155.725	264.362	0.00018143	0.00022432	9.6372e-05	1274.8	1.8395e-06	2.6699e-06	1350	270.46	3.035e-06	4.2454e-06	337.46	93.313	73.616	21.272	6.9541e-06	29.857	0.000176	0.0001736	4.7972e-05	1094.4	1.895e-06	1.8853e-06	1266.6	255.37	1.8706e-06	1.8745e-06	307.87	87.756	68.828	20.467	1.8489e-06	28.13	-35.882	-22.327	-22.859	-57.381	149.977	35.539	-57.087	-50.209	81.657	29.664	-50.315	-43.856	-43.724	-37.248	44.006	-37.319	-8191	255	
387.218	1	1	0	0	0.25617	0.12115	0.28314	0.072002	0.24092	0.11061	0.21731	0.18556	0.093749	0.081305	0.093294	0.11484	0.13165	0.10256	0.22787	0.31756	-2.1188	-2.9688	-2.6312	-2.9208	-2.8771	-2.4938	-2.9167	-2.9229	-2.5417	-3.0229	-2.7062	-2.9688	-3.0042	-2.7229	-3.0125	-2.8854	-11.736	212.355	110.347	255.750	30.671	134.005	248.929	263.883	120.785	149.544	174.998	59.302	-40.061	54.267	206.083	184.352	0.0002835	6.6494e-05	9.8819e-05	1277.1	3.2336e-06	1.9673e-06	1350.3	269.73	3.1264e-06	3.1207e-06	337.85	93.846	73.84	21.321	2.9048e-06	29.723	0.00017243	0.00016932	4.7713e-05	1090.6	1.8723e-06	1.8824e-06	1266.2	255.27	1.8953e-06	1.8727e-06	308.1	87.717	68.901	20.53	1.8868e-06	28.143	-53.465	12.765	-4.387	-57.158	129.228	-44.652	-57.017	-50.109	78.690	0.662	-50.269	-43.945	-43.674	-36.890	19.234	-37.364	-8191	255	
387.314	1	1	0	0	0.042094	0.16054	0.17401	0.12216	0.11589	0.08844	0.23603	0.20794	0.21689	0.21673	0.31713	0.13506	0.14248	0.18203	0.21162	0.26068	-2.2521	-2.9083	-2.7458	-2.7188	-3.1229	-2.6104	-3.1458	-2.975	-2.5417	-3.0375	-2.7625	-2.6396	-2.8521	-2.55	-2.7354	-2.8917	262.776	142.161	262.221	90.287	230.486	92.768	199.493	254.771	207.229	37.074	260.986	250.226	-5.004	83.048	24.573	87.719	0.00025422	0.00028654	8.1551e-05	1276.9	4.025e-06	1.9529e-06	1344.4	270.47	3.2687e-06	3.9004e-06	337.46	93.313	73.517	21.238	4.3323e-06	29.58	0.00017451	0.00017162	4.7991e-05	1095	1.8716e-06	1.8652e-06	1263.8	254.98	1.8817e-06	1.8455e-06	307.14	87.558	68.771	20.412	1.8539e-06	28.032	-20.675	72.721	-8.346	-57.190	137.707	3.725	-57.029	-50.293	79.373	-39.169	-50.805	-43.707	-43.634	-36.833	49.935	-37.106	-8191	255	
387.410	1	1	0	0	0.11108	0.16175	0.088307	0.23214	0.17078	0.16079	0.11682	0.37087	0.18235	0.0774	0.0585	0.061841	0.021311	0.10855	0.047303	0.22082	-2.2958	-2.8438	-2.7521	-2.6937	-2.9292	-2.5979	-2.775	-2.9083	-2.6167	-2.9188	-2.7292	-2.5479	-2.7896	-2.4813	-2.6083	-2.9396	287.873	284.068	69.943	242.194	-60.391	264.707	111.192	219.608	162.391	34.016	-60.705	127.580	-3.730	192.690	258.018	216.154	4.7439e-05	0.00021766	1.2864e-05	1263.5	6.3368e-06	3.0651e-06	1344.9	269.53	2.4132e-06	1.7038e-06	336.47	93.12	73.068	21.088	3.4656e-06	29.532	0.00016854	0.00016719	4.6318e-05	1085.8	1.8191e-06	1.7917e-06	1260.8	254.18	1.8218e-06	1.7751e-06	305.99	87.126	68.245	20.329	1.7901e-06	27.867	-13.363	-1.119	-26.292	-57.250	101.755	-31.504	-57.082	-50.151	27.998	106.407	-50.467	-43.593	-43.107	-36.442	79.468	-37.340	-8191	255	
387.506	1	1	0	0	0.17667	0.14991	0.18771	0.20938	0.027143	0.07337	0.02378	0.039332	0.12768	0.14606	0.25108	0.14619	0.32562	0.037145	0.29145	0.13972	-2.2417	-2.8937	-2.6521	-2.5417	-3.0625	-2.8	-2.8958	-2.9979	-2.425	-2.9292	-2.8021	-2.7188	-2.8521	-2.6625	-2.6396	-2.8854	241.399	83.183	288.700	274.206	-42.622	243.551	239.383	255.375	-58.851	120.754	114.909	-20.253	216.247	95.859	224.117	187.043	0.00013257	0.00047002	0.00012975	1267.8	2.3243e-06	2.3847e-06	1339.5	268.97	9.173e-07	1.7629e-06	334.99	92.45	73.033	21.175	5.0616e-06	29.689	0.00016445	0.00016355	4.5406e-05	1082.6	1.7654e-06	1.7625e-06	1256.4	253.47	1.7579e-06	1.7443e-06	304.89	86.809	68.179	20.251	1.7328e-06	27.813	-33.778	242.988	291.397	-57.058	-31.889	106.288	-57.124	-50.209	128.213	-15.095	-50.445	-43.952	-43.248	-36.517	77.898	-37.182	-8191	255	
387.627	1	1	0	0	0.064377	0.25585	0.11698	0.099817	0.19857	0.20188	0.39453	0.23612	0.066682	0.089036	0.13349	0.19393	0.16466	0.056682	0.22025	0.0071648	-2.0812	-2.7479	-2.7417	-2.6396	-3.0375	-2.6875	-2.7604	-3.0083	-2.6312	-2.8667	-2.7896	-2.5875	-3.0104	-2.7583	-2.7208	-3.0125	2.083	203.490	199.073	-48.397	200.995	166.316	232.266	-65.794	264.841	-65.688	-0.963	3.402	269.939	82.316	54.431	133.771	0.00031228	0.00026104	0.00011243	1258.8	1.0271e-06	1.5734e-06	1332.3	268.57	3.3504e-06	5.3488e-06	334.67	92.949	73.169	21.16	6.5118e-06	29.62	0.00015717	0.00015677	4.3434e-05	1075	1.6837e-06	1.6833e-06	1248.9	251.73	1.6631e-06	1.6553e-06	302.96	86.558	67.618	20.172	1.6504e-06	27.699	-66.502	66.494	3.310	-57.282	13.220	-59.980	-57.031	-50.057	-60.492	12.980	-50.623	-43.983	-43.580	-36.778	7.316	-37.435	-8191	255	
387.721	1	1	0	0	0.11601	0.082372	0.16549	0.15063	0.1145	0.021398	0.32847	0.25221	0.089658	0.10449	0.17473	0.042251	0.174	0.14006	0.02706	0.048335	-2.2792	-2.7417	-2.8479	-2.6708	-2.9208	-2.8583	-2.8208	-2.9896	-2.6083	-2.7854	-2.95	-2.6875	-2.8396	-2.7208	-2.6917	-2.9688	-30.706	213.477	215.231	229.033	82.139	-39.562	178.963	221.144	211.142	105.700	232.632	53.517	150.801	224.827	153.700	251.661	0.00026566	0.00021328	7.3606e-05	1254.1	2.7994e-06	9.0591e-07	1329.2	267.68	4.9958e-06	1.5323e-06	334.29	92.563	72.936	21.08	1.2263e-06	29.346	0.00015339	0.00015221	4.203e-05	1068.9	1.6672e-06	1.6739e-06	1247	251.67	1.6681e-06	1.6764e-06	303.28	86.306	67.674	20.138	1.657e-06	27.618	-54.642	103.412	-19.151	-57.209	-59.606	103.641	-57.082	-50.183	111.257	190.574	-50.274	-43.719	-43.202	-37.055	289.407	-37.122	-8191	255	
387.819	1	1	0	0	0.17777	0.075688	0.16011	0.18349	0.25424	0.191	0.046053	0.38799	0.093458	0.1107	0.15719	0.17725	0.039231	0.25334	0.12684	0.099088	-2.2271	-2.5938	-3.0542	-2.7313	-2.9521	-2.9542	-2.7687	-3.0854	-2.8042	-2.6437	-3.1188	-2.6417	-2.7917	-2.9354	-2.55	-3.0125	6.060	-55.418	56.914	156.904	-57.280	204.560	286.774	210.213	-35.971	125.719	89.354	269.532	-44.781	43.829	211.493	180.859	0.000253	0.00026659	8.1983e-05	1247.3	4.6533e-06	5.3367e-06	1328.1	266.12	3.8997e-06	3.2428e-06	332.58	91.996	72.776	20.977	2.7558e-06	29.404	0.00015027	0.00014987	4.1182e-05	1064.2	1.6041e-06	1.5922e-06	1242.8	249.82	1.5559e-06	1.5476e-06	300.21	85.387	66.88	19.889	1.5097e-06	27.303	-26.532	-3.355	-48.252	-56.764	78.742	37.706	-57.199	-50.044	264.557	245.652	-50.635	-44.038	-43.357	-36.762	44.862	-37.105	-8191	255	
387.914	1	1	0	0	0.12405	0.029265	0.29531	0.1469	0.21599	0.26382	0.21719	0.14874	0.11614	0.044372	0.21165	0.07647	0.067309	0.082534	0.17201	0.2183	-2.3021	-2.6188	-3.0125	-2.6312	-2.6854	-2.8917	-2.7271	-2.9479	-2.8333	-2.6688	-2.9854	-2.8021	-2.7625	-2.8125	-2.5646	-3.0792	-65.536	288.909	284.035	82.873	116.502	81.634	256.166	-45.066	283.021	248.549	260.054	239.545	186.954	-11.084	219.058	181.516	0.00012262	0.00040202	0.00014639	1247.8	5.1367e-06	2.8662e-06	1312.4	264.2	6.0573e-06	5.4044e-06	330.7	91.722	71.888	20.878	2.6528e-06	29.243	0.00013955	0.00013812	3.8281e-05	1051	1.5053e-06	1.5001e-06	1230.2	247.45	1.5385e-06	1.5294e-06	299.24	85.203	66.603	19.834	1.5202e-06	27.339	-44.006	12.559	2.682	-56.913	8.183	37.379	-56.937	-50.086	49.858	23.647	-50.287	-43.581	-43.221	-36.745	211.617	-37.095	-8191	255	
388.010	1	1	0	0	0.11568	0.3266	0.14203	0.18999	0.10685	0.19322	0.27249	0.17662	0.17327	0.16373	0.36772	0.27671	0.20632	0.090014	0.16011	0.1069	-2.3354	-2.6229	-2.9542	-2.8458	-2.6896	-2.8063	-2.8563	-2.9542	-2.7208	-2.5438	-2.8708	-2.7875	-2.7542	-2.8458	-2.6417	-2.9042	-39.176	184.265	-24.632	79.037	239.660	-0.873	198.814	-40.682	93.911	6.043	248.144	-12.154	26.317	249.549	50.133	127.395	0.00025335	0.00018368	9.6582e-05	1241	3.1127e-06	1.9055e-06	1302.1	262.78	4.6764e-07	2.8061e-06	325.6	90.832	71.23	20.655	4.4903e-06	28.975	0.00014002	0.00013797	3.7527e-05	1046.1	1.4538e-06	1.4555e-06	1220.7	245.33	1.4013e-06	1.3709e-06	293.61	83.829	65.333	19.451	1.3302e-06	26.844	-48.742	168.638	16.564	-57.115	182.544	-1.619	-56.820	-49.867	-16.949	-40.384	-50.303	-43.771	-43.072	-36.830	54.046	-36.848	-8191	255	
388.106	1	1	0	0	0.24973	0.16989	0.053344	0.051701	0.15021	0.12575	0.142	0.11353	0.083957	0.086732	0.081156	0.13017	0.10315	0.18312	0.11364	0.2342	-2.4104	-2.5292	-2.8667	-2.8604	-2.7542	-2.7625	-2.8042	-2.9479	-2.8729	-2.6583	-3.025	-2.8688	-2.7417	-2.9125	-2.5833	-2.7562	43.183	-52.511	48.055	137.604	-36.093	-51.973	267.523	200.848	190.357	280.498	68.951	134.712	-62.414	-31.665	213.028	246.878	0.0001042	0.0003032	7.7799e-05	1212.2	3.6537e-06	5.5149e-06	1289.6	259.6	2.4315e-06	8.9805e-07	325.02	90.142	71.139	20.7	2.959e-06	28.924	0.00012366	0.00012129	3.3397e-05	1021.2	1.325e-06	1.3057e-06	1201.1	242.15	1.3098e-06	1.3086e-06	292.02	83.319	65.024	19.42	1.3208e-06	26.84	273.762	38.722	277.236	-56.934	57.848	3.296	-56.865	-49.876	157.269	287.169	-50.519	-43.251	-43.392	-36.763	243.753	-36.918	-8191	255	
388.227	1	1	0	0	0.11728	0.26007	0.11797	0.084199	0.33614	0.1299	0.26062	0.18245	0.30643	0.18735	0.04173	0.063214	0.26629	0.12015	0.31336	0.17242	-2.3417	-2.5062	-2.75	-2.7896	-2.7521	-2.8438	-2.8271	-2.8042	-2.6958	-2.5062	-2.9854	-2.8271	-2.7	-3.0771	-2.8979	-2.6833	-45.263	186.144	88.236	4.415	127.800	256.009	226.497	-67.445	92.205	32.869	245.147	198.355	244.140	-27.869	38.934	-51.262	0.00016108	0.0003063	1.448e-05	1213.2	1.3149e-06	2.1058e-06	1290.9	259.6	3.9069e-06	1.9042e-06	327.32	91.011	70.416	20.64	4.1607e-07	29.073	0.00012361	0.00012218	3.3883e-05	1023.7	1.3427e-06	1.3263e-06	1206.5	242.77	1.3567e-06	1.3538e-06	293.23	83.824	64.897	19.46	1.3683e-06	26.869	-24.365	81.462	235.252	-57.071	32.575	108.905	-57.116	-49.780	37.815	169.807	-50.522	-43.600	-43.211	-36.531	8.267	-37.101	-8191	255	
388.323	1	1	0	0	0.2545	0.18484	0.24391	0.19012	0.15507	0.099474	0.24151	0.26959	0.19535	0.20113	0.43217	0.081051	0.1705	0.088431	0.09562	0.13625	-2.6271	-2.6646	-2.9479	-2.8208	-2.4458	-2.9125	-2.8312	-2.6833	-2.8625	-2.5729	-2.7625	-2.8354	-2.4604	-2.7	-2.5042	-2.5333	160.518	152.036	43.483	32.141	194.374	76.015	249.089	-7.162	217.418	162.883	286.394	-9.250	227.547	-18.047	134.802	81.543	0.00023525	0.00032076	0.0001304	1221.3	4.4487e-06	2.4866e-06	1291.7	259.82	3.3671e-06	2.113e-06	324.25	90.131	70.904	20.623	2.9508e-06	29.01	0.00012892	0.00012778	3.5807e-05	1028.7	1.4136e-06	1.4141e-06	1208	243.05	1.4201e-06	1.4066e-06	292.8	83.671	65.212	19.455	1.3536e-06	26.908	-67.514	-0.536	91.290	-57.154	42.281	115.256	-56.734	-49.895	247.698	-24.710	-50.517	-43.711	-43.500	-36.377	-22.618	-37.376	-8191	255	
388.419	1	1	0	0	0.22226	0.11725	0.31012	0.070505	0.18596	0.051848	0.37575	0.30863	0.10477	0.38686	0.21491	0.14926	0.15284	0.2532	0.10904	0.14574	-2.4021	-2.4792	-2.55	-2.7188	-2.5854	-2.8979	-2.8979	-2.6375	-2.9188	-2.7188	-2.6521	-2.8542	-2.6437	-2.9458	-2.8896	-2.5083	194.598	68.973	54.544	249.816	180.987	-47.255	207.811	140.990	215.199	170.734	-67.902	-10.630	171.648	238.217	227.513	109.653	0.00031366	0.00018186	3.0212e-05	1222.2	3.0495e-06	1.6075e-06	1296	259.01	5.693e-06	1.588e-06	325.46	89.654	71.294	20.711	4.9719e-06	28.93	0.00012435	0.00012292	3.3842e-05	1027.7	1.3131e-06	1.2874e-06	1207.2	242	1.2798e-06	1.2641e-06	291.95	83.159	64.943	19.395	1.2773e-06	26.799	-51.232	-33.472	36.432	-57.065	9.089	96.715	-56.998	-50.106	258.381	-1.381	-50.277	-43.595	-43.610	-36.338	38.586	-37.008	-8191	255	
388.515	1	1	0	0	0.26455	0.11191	0.08748	0.093007	0.11569	0.043553	0.23813	0.13423	0.26452	0.19462	0.35719	0.16471	0.31473	0.096485	0.01059	0.141	-2.4208	-2.6625	-2.6583	-2.875	-2.6458	-2.8542	-2.8042	-2.3937	-2.9417	-2.6958	-2.8312	-3.0854	-2.5125	-2.8708	-2.8104	-2.5563	85.248	198.452	129.973	122.453	116.314	258.987	216.677	237.011	171.204	179.077	214.231	33.463	229.055	60.323	19.036	122.091	0.0001933	0.00013383	6.1768e-05	1223.9	1.8103e-06	5.0981e-07	1290.9	259.52	2.653e-06	3.7003e-06	324.32	89.695	70.225	20.475	2.8662e-06	28.642	0.00011995	0.00011832	3.3052e-05	1024.7	1.3221e-06	1.3195e-06	1205.9	241.85	1.3558e-06	1.3573e-06	291.98	83.246	64.801	19.31	1.4088e-06	26.699	277.156	42.000	283.782	-57.091	-44.370	-7.002	-56.754	-50.121	229.155	131.287	-50.602	-43.581	-43.118	-36.759	104.291	-37.220	-8191	255	
388.611	1	1	0	0	0.095511	0.16219	0.19065	0.14432	0.07329	0.27685	0.49294	0.1244	0.17521	0.073494	0.13212	0.24447	0.16839	0.094711	0.23792	0.022527	-2.5021	-2.5833	-2.6583	-2.9854	-2.6458	-2.95	-2.925	-2.7417	-2.8	-2.6667	-2.6604	-3.0083	-2.675	-2.6354	-2.7104	-2.6396	-5.876	240.080	156.058	262.124	167.371	172.522	270.166	36.870	101.295	24.076	221.543	17.199	-61.262	37.888	115.378	48.831	0.00021124	0.00025876	1.8361e-05	1215.9	1.6733e-06	6.7909e-06	1285.6	256.7	4.6815e-06	4.9286e-06	321.21	89.653	70.253	20.354	9.1045e-07	28.796	0.00012985	0.00012854	3.5821e-05	1022.9	1.3752e-06	1.3515e-06	1201.8	240.36	1.3253e-06	1.3062e-06	289.82	82.824	64.208	19.152	1.2721e-06	26.462	-56.601	258.964	237.305	-57.444	137.458	26.950	-56.782	-49.852	131.790	52.388	-50.382	-43.720	-43.263	-36.609	23.922	-36.883	-8191	255	
388.706	1	1	0	0	0.014855	0.17449	0.26694	0.17635	0.1566	0.26349	0.33872	0.20864	0.034094	0.091921	0.101	0.17285	0.16729	0.031849	0.19624	0.20725	-2.3667	-2.6396	-2.5	-2.825	-2.5646	-2.8646	-3.0208	-2.5917	-2.8979	-2.6708	-2.675	-2.9562	-2.7354	-2.7667	-2.9479	-2.6375	174.216	60.168	19.330	26.302	11.289	254.238	194.697	159.982	57.202	-42.085	255.567	239.619	189.857	241.514	159.292	272.631	0.00026606	0.00031922	2.845e-05	1205.8	1.6396e-06	6.4341e-06	1274.4	254.05	1.3342e-06	4.5324e-06	319.84	88.903	69.666	20.291	4.3108e-07	28.564	0.00011523	0.00011399	3.1499e-05	1008.4	1.2261e-06	1.22e-06	1187.2	237.2	1.2212e-06	1.2269e-06	286.28	81.964	63.507	18.983	1.2365e-06	26.283	-53.586	171.427	195.629	-56.997	18.971	-40.073	-56.854	-49.972	57.146	59.929	-50.459	-43.589	-43.122	-36.590	84.510	-36.751	-8191	255	
388.802	1	1	0	0	0.20894	0.10775	0.15283	0.083036	0.26009	0.075246	0.23216	0.3702	0.093206	0.24066	0.22775	0.23463	0.17553	0.20158	0.067951	0.35038	-2.3354	-2.7667	-2.6646	-2.9271	-2.5229	-2.5771	-3.1146	-2.5312	-2.9646	-2.7062	-2.5104	-2.9292	-2.8146	-2.7229	-2.8896	-2.7458	113.765	5.353	-16.609	-35.942	-39.056	62.673	162.350	-56.966	215.839	203.432	195.185	-46.879	76.728	-14.485	60.071	235.377	0.00012679	0.00040966	6.3828e-05	1197.7	2.7316e-06	1.9558e-06	1268.9	254.12	2.8865e-06	4.0282e-06	319.15	88.924	69.315	20.225	1.1427e-06	28.283	0.00011639	0.00011589	3.1981e-05	1003.4	1.2459e-06	1.2688e-06	1185	236.91	1.2629e-06	1.2625e-06	286.31	81.987	63.646	18.977	1.2689e-06	26.194	15.102	7.027	-66.657	-56.934	230.448	38.446	-57.107	-50.021	287.716	54.289	-50.320	-43.880	-43.155	-36.448	207.814	-36.992	-8191	255	
388.900	1	1	0	0	0.27569	0.20168	0.19406	0.33908	0.2357	0.062894	0.24119	0.22587	0.17736	0.17248	0.33299	0.075784	0.080134	0.12878	0.13513	0.068959	-2.2687	-2.6813	-2.5604	-2.8167	-2.8417	-2.7	-3.0417	-2.6688	-2.6979	-3.0083	-2.6792	-2.7042	-2.7375	-2.5854	-2.8812	-2.5229	24.494	72.386	103.382	274.425	117.064	240.426	159.567	262.058	25.231	-25.745	291.600	247.342	266.334	286.970	261.124	242.443	0.0001325	0.00021589	6.9668e-05	1192.7	2.3473e-06	4.5779e-06	1272.3	253.27	4.6376e-07	2.2242e-06	319.36	88.383	69.028	20.199	2.3544e-06	28.421	0.00011752	0.00011569	3.2217e-05	1006.2	1.2801e-06	1.2755e-06	1187.5	236.79	1.2671e-06	1.2752e-06	286.26	81.697	63.39	18.899	1.244e-06	26.113	4.669	130.049	29.441	-56.916	137.658	63.712	-56.663	-49.665	-42.320	41.097	-49.862	-43.623	-42.920	-36.833	6.436	-36.989	-8191	255	
389.019	1	1	0	0	0.33283	0.11838	0.021878	0.090994	0.16434	0.17694	0.18072	0.25445	0.072401	0.15363	0.36206	0.24593	0.32251	0.15979	0.35733	0.082223	-2.2562	-2.8083	-2.4208	-2.8521	-2.7646	-2.6875	-2.925	-2.6146	-2.5979	-2.9104	-2.7208	-2.8979	-2.7042	-2.5646	-2.8208	-2.6937	57.693	192.076	284.160	270.382	108.773	217.710	208.484	192.910	-4.334	-50.340	239.934	5.118	193.515	14.816	243.278	158.315	0.00020021	0.00023096	0.00010937	1194.6	2.8096e-06	2.4289e-06	1264.5	252.24	1.5725e-06	1.0568e-06	317.54	88.57	68.966	19.928	1.3308e-06	28.039	0.00011692	0.00011459	3.1738e-05	999.94	1.2517e-06	1.2519e-06	1179.6	234.92	1.2368e-06	1.2382e-06	283.92	81.166	62.911	18.772	1.2347e-06	25.934	-64.327	38.206	-7.764	-56.817	90.059	205.627	-56.783	-49.875	201.653	235.321	-50.287	-43.631	-42.816	-36.447	146.003	-37.349	-8191	255	
389.090	1	1	0	0	0.12562	0.36252	0.30557	0.088602	0.069602	0.062154	0.42663	0.16494	0.16494	0.23998	0.23289	0.17284	0.1132	0.20694	0.061064	0.10103	-2.1083	-2.825	-2.4813	-2.8083	-2.5896	-2.4604	-3.0021	-2.5563	-2.5354	-2.8167	-2.7854	-2.5917	-2.7979	-2.6417	-2.8875	-2.6104	-0.941	2.900	239.736	-1.948	48.227	257.165	217.652	189.291	59.243	265.176	250.327	-55.537	289.212	8.092	-9.325	212.842	0.0001897	7.5563e-05	7.413e-05	1192	4.2605e-06	2.6444e-06	1256.4	250.48	3.1215e-06	3.9646e-06	315.91	87.745	68.43	19.845	2.5755e-06	27.827	0.00011655	0.00011501	3.1833e-05	997.01	1.2753e-06	1.267e-06	1174.9	233.67	1.2792e-06	1.275e-06	282.65	80.835	62.71	18.701	1.2847e-06	25.859	-6.713	142.787	-43.011	-56.635	115.609	100.476	-56.630	-49.614	-66.222	140.298	-50.122	-43.383	-43.028	-36.320	165.101	-37.017	-8191	255	
389.186	1	1	0	0	0.20704	0.062937	0.22432	0.022452	0.32786	0.24992	0.46842	0.14676	0.32088	0.14188	0.15013	0.32499	0.12494	0.14804	0.13717	0.099633	-2.1729	-2.7167	-2.5146	-2.6208	-2.7375	-2.525	-3.0146	-2.6271	-2.5625	-2.8646	-2.5458	-2.8396	-2.8208	-2.4813	-2.7	-2.7854	118.248	-38.773	191.551	105.743	247.187	-54.194	233.082	194.149	87.952	81.558	209.883	-45.689	-1.848	251.510	84.611	231.983	0.00016463	0.00042074	0.00010457	1177.1	2.842e-06	3.4156e-06	1255	247.97	6.2237e-06	3.8285e-06	312.81	87.693	68.21	19.734	4.2496e-06	27.934	0.00012171	0.00011834	3.3237e-05	994.85	1.3153e-06	1.3135e-06	1172.9	231.95	1.3363e-06	1.3345e-06	280.92	81.029	62.699	18.658	1.3631e-06	25.855	8.011	-42.586	-14.778	-56.710	105.729	-30.446	-56.860	-49.659	56.153	56.363	-50.154	-43.358	-43.316	-36.532	-14.987	-37.074	-8191	255	
389.307	1	1	0	0	0.067301	0.23134	0.042111	0.20554	0.19635	0.011626	0.27795	0.25164	0.23485	0.03617	0.10208	0.18785	0.23305	0.024333	0.15153	0.087808	-1.9792	-2.6688	-2.5104	-2.7271	-2.8229	-2.6688	-2.8792	-2.7021	-2.3167	-2.9646	-2.7313	-2.6688	-2.7375	-2.6188	-2.6771	-2.6458	194.114	266.734	233.281	-20.078	13.904	228.007	227.342	254.778	-63.118	35.682	227.633	69.589	260.912	23.785	232.423	-60.367	0.0001108	0.00031714	0.00010417	1184.9	3.549e-06	6.0756e-06	1252.4	247.9	2.7144e-06	2.3968e-06	311.18	86.869	68.251	19.569	1.4667e-06	27.605	0.00012799	0.00012558	3.45e-05	998.84	1.3916e-06	1.3879e-06	1172.4	232.41	1.4035e-06	1.4054e-06	281.04	80.686	62.901	18.627	1.3996e-06	25.755	271.494	-11.924	50.583	-57.026	75.233	34.982	-56.746	-49.314	-53.697	11.832	-50.366	-43.382	-42.995	-36.213	43.106	-37.005	-8191	255	
389.403	1	1	0	0	0.13066	0.041113	0.24309	0.30539	0.15323	0.062566	0.42234	0.16877	0.2033	0.36294	0.11302	0.35894	0.08595	0.10219	0.24697	0.082377	-2.1813	-2.85	-2.5729	-2.7313	-2.9813	-2.7438	-2.8771	-2.8729	-2.4333	-2.8021	-2.6646	-2.725	-2.7979	-2.6562	-2.5917	-2.7667	-20.232	88.640	111.948	80.274	171.269	284.336	236.843	-28.538	4.134	73.992	137.612	38.135	-14.545	-59.428	55.437	160.294	0.0002555	0.00021585	6.0999e-05	1179.4	1.0481e-06	1.656e-06	1255.6	247.62	3.2124e-06	4.7717e-06	311.83	86.864	67.976	19.648	2.4974e-06	27.545	0.0001299	0.00012789	3.5325e-05	1000	1.3873e-06	1.3939e-06	1175.2	232.11	1.4227e-06	1.4286e-06	281.29	80.822	62.747	18.642	1.4745e-06	25.852	257.154	94.072	-6.913	-57.031	132.203	238.140	-56.626	-49.685	74.741	165.499	-50.126	-43.414	-42.781	-36.198	13.285	-37.281	-8191	255	
389.499	1	1	0	0	0.29758	0.099668	0.033803	0.2523	0.089217	0.23295	0.27498	0.25875	0.20348	0.19899	0.29166	0.11303	0.10333	0.19493	0.063233	0.13013	-2.0771	-2.5417	-2.5687	-2.5917	-2.8604	-2.6729	-2.8375	-2.9917	-2.6562	-2.7	-2.8125	-2.6437	-2.9167	-2.6271	-2.5896	-2.875	27.809	-52.604	246.362	240.678	8.885	282.822	221.915	152.797	272.143	273.534	51.760	216.604	236.676	233.026	26.888	156.032	0.00020663	0.00040649	0.00014971	1199.1	6.5732e-06	2.8189e-06	1261.5	249.02	1.7622e-06	2.274e-06	312.08	87.464	68.372	19.608	5.2254e-06	27.912	0.0001374	0.00013571	3.7957e-05	1011.4	1.4963e-06	1.5027e-06	1182.1	233.31	1.5024e-06	1.5038e-06	282.63	81.132	63.274	18.684	1.5064e-06	25.972	-6.423	105.201	47.286	-56.964	-21.581	-30.638	-56.783	-49.739	256.051	143.118	-50.193	-43.358	-43.252	-36.567	-35.375	-36.791	-8191	255	
389.620	1	1	0	0	0.18656	0.28123	0.16487	0.050188	0.09367	0.16179	0.21506	0.082931	0.11622	0.25339	0.28092	0.12482	0.062165	0.093619	0.32702	0.12861	-2.1437	-2.8833	-2.8292	-2.5708	-2.7604	-2.5708	-2.8563	-2.9771	-2.5625	-2.8187	-2.8312	-2.7396	-2.8521	-2.7062	-2.6437	-2.9562	-5.789	101.687	6.411	-28.960	184.268	-15.373	258.177	221.311	-33.253	53.235	-55.077	257.472	-47.092	-3.254	220.485	106.998	0.00020314	0.00016473	5.8603e-05	1196.8	1.3974e-06	8.948e-07	1266.7	248.8	5.0161e-06	2.0626e-06	311.9	87.417	67.988	19.637	5.2622e-06	27.71	0.00013962	0.00013628	3.8293e-05	1012.4	1.4942e-06	1.4915e-06	1187.3	233.51	1.4851e-06	1.479e-06	283.23	81.098	63.142	18.708	1.4714e-06	25.916	-52.241	82.686	30.164	-57.159	-46.278	-15.153	-56.768	-49.890	-12.287	26.333	-50.150	-43.502	-42.767	-36.230	44.915	-37.065	-8191	255	
389.716	1	1	0	0	0.079122	0.12542	0.05175	0.14758	0.1144	0.18562	0.29968	0.3207	0.1744	0.36601	0.086272	0.12725	0.3259	0.18383	0.36215	0.23995	-2.15	-2.5979	-2.7188	-2.6354	-2.8708	-2.8396	-2.5833	-2.925	-2.5	-2.7167	-3.0104	-2.6667	-2.9521	-2.825	-2.6583	-2.8896	6.034	120.950	-56.234	-1.915	54.388	164.260	171.865	273.407	-11.493	-49.336	-51.568	-36.488	-7.910	-3.504	61.573	-44.882	0.00032982	0.00023767	3.6546e-05	1190.1	1.573e-06	1.2959e-06	1271.5	248.63	2.6541e-06	2.5264e-06	313.64	86.873	68.117	19.713	2.5032e-06	27.79	0.00013488	0.00013527	3.7377e-05	1013.3	1.4614e-06	1.4719e-06	1187.1	233.29	1.4431e-06	1.436e-06	283.09	80.817	63.006	18.643	1.4015e-06	25.789	-28.647	-16.747	-12.220	-57.381	26.952	-55.080	-56.914	-49.609	3.410	-44.924	-50.419	-43.399	-42.919	-36.026	161.246	-36.644	-8191	255	
389.788	1	1	0	0	0.3861	0.021739	0.25656	0.28686	0.42598	0.15733	0.28488	0.2715	0.080181	0.10825	0.20367	0.17331	0.1869	0.22994	0.060803	0.31176	-2.0833	-2.5354	-2.9354	-2.4271	-2.7604	-2.8146	-2.5812	-2.9708	-2.7104	-2.7687	-2.9188	-2.6542	-2.8688	-2.7542	-2.6417	-2.9917	-28.997	-9.834	262.528	31.470	-64.207	190.106	267.948	281.001	281.666	-22.429	-65.985	185.856	101.612	-16.370	10.036	250.312	0.0002078	0.00010931	3.8883e-05	1188.5	2.9855e-06	2.4924e-06	1260.9	247.82	4.5156e-06	2.7583e-06	308.64	87.034	68.059	19.523	2.247e-06	27.809	0.00012909	0.00012836	3.537e-05	1004.7	1.3571e-06	1.352e-06	1179.7	232.15	1.3172e-06	1.296e-06	279.56	80.295	62.375	18.448	1.2516e-06	25.584	246.508	262.841	39.749	-57.021	4.800	-64.058	-56.864	-49.763	101.181	27.101	-50.263	-43.840	-43.308	-36.310	87.149	-36.751	-8191	255	
389.907	1	1	0	0	0.23487	0.17037	0.028456	0.068306	0.13548	0.19986	0.22357	0.17642	0.20136	0.14197	0.1267	0.2214	0.22123	0.2668	0.070982	0.15905	-2.3312	-2.5854	-2.95	-2.5667	-2.7	-2.8354	-2.6625	-2.9271	-2.75	-2.6125	-2.9854	-2.6792	-2.7292	-2.7479	-2.6125	-3.0917	114.049	22.899	44.878	117.427	-8.388	240.937	243.941	204.578	209.773	139.482	204.486	212.629	-10.828	35.327	233.445	122.808	0.00018061	0.00026912	8.2273e-05	1181.8	2.0979e-06	9.0884e-07	1256.5	247.21	4.4337e-06	2.2916e-06	310.91	86.981	68.418	19.751	3.2628e-06	27.69	0.00011558	0.00011266	3.1654e-05	993.09	1.2207e-06	1.2224e-06	1172	230.85	1.2252e-06	1.2384e-06	279.38	80.355	62.525	18.577	1.2311e-06	25.638	21.982	78.830	-65.097	-56.833	121.584	221.108	-56.909	-49.555	137.470	158.178	-50.142	-43.812	-43.119	-36.482	45.064	-36.903	-8191	255	
390.003	1	1	0	0	0.12983	0.2502	0.21444	0.11472	0.12535	0.23635	0.27311	0.14317	0.041137	0.15183	0.02163	0.062125	0.14776	0.19152	0.037681	0.081732	-2.2667	-2.5312	-2.8292	-2.9083	-2.7396	-2.9271	-2.5375	-2.8146	-2.8125	-2.6625	-2.8104	-2.6833	-2.5875	-3.0604	-2.4854	-2.9646	187.826	232.790	-18.922	134.945	241.928	245.917	237.060	258.457	276.669	147.653	-64.956	216.785	174.288	19.940	-42.236	158.825	0.00013186	0.00016163	6.1605e-05	1189.1	2.855e-06	1.9158e-06	1258.5	246.73	6.4318e-07	4.5479e-06	311.97	87.351	68.452	19.739	4.1057e-06	27.892	0.00011565	0.00011218	3.1496e-05	993.13	1.2517e-06	1.2497e-06	1173.1	231.1	1.2538e-06	1.2589e-06	280.54	80.574	62.709	18.635	1.2449e-06	25.719	-16.928	240.735	58.010	-57.307	129.270	25.478	-56.862	-49.912	189.708	121.286	-50.155	-43.645	-43.291	-36.752	10.768	-36.595	-8191	255	
390.099	1	1	0	0	0.062811	0.12557	0.25544	0.16808	0.21555	0.15313	0.16258	0.25293	0.11763	0.28771	0.067223	0.22425	0.083498	0.094145	0.27328	0.18555	-2.3438	-2.6063	-2.9062	-2.8375	-2.5812	-2.9958	-2.8292	-2.8396	-2.7562	-2.5729	-2.9458	-2.7729	-2.5771	-2.9083	-2.725	-2.6229	279.240	171.410	17.425	191.137	212.719	130.722	217.981	244.347	13.075	17.877	273.336	230.036	223.923	240.918	74.688	31.711	0.00034535	0.00031759	0.00012638	1181.1	1.3715e-06	5.001e-06	1257	248.04	1.529e-06	2.5841e-06	312.21	87.098	68.542	19.692	3.1972e-06	27.794	0.00011558	0.00011287	3.1742e-05	992.78	1.2462e-06	1.2477e-06	1171.4	231.7	1.2654e-06	1.237e-06	279.87	80.553	62.597	18.537	1.2475e-06	25.666	-62.842	37.061	26.742	-56.717	224.141	272.959	-56.651	-49.413	-0.581	23.136	-50.166	-43.446	-43.239	-36.119	81.688	-36.792	-8191	255	
390.195	1	1	0	0	0.49175	0.20181	0.12567	0.12018	0.25009	0.10799	0.10843	0.188	0.077277	0.10306	0.16724	0.085756	0.25849	0.17454	0.20165	0.15811	-2.25	-2.3812	-2.8208	-2.5417	-2.4542	-2.8354	-2.9813	-2.6604	-2.7854	-2.4479	-2.8187	-2.7792	-2.5833	-2.8563	-2.6167	-2.8375	82.605	-2.271	148.091	191.711	255.437	113.996	252.267	-30.083	50.062	219.515	-43.839	178.753	-10.002	279.648	137.283	155.756	0.00023606	4.0448e-05	0.00010895	1184.1	3.3521e-06	3.185e-06	1251.9	248.15	4.5886e-06	2.5789e-06	314.78	86.847	68.464	19.639	5.8396e-06	27.726	0.00011475	0.00011355	3.1292e-05	990.83	1.2351e-06	1.2358e-06	1167	231.3	1.2363e-06	1.1955e-06	280.19	80.255	62.469	18.524	1.2232e-06	25.692	-60.702	2.449	4.680	-57.117	-4.776	-43.659	-56.903	-49.987	123.751	96.975	-50.123	-43.758	-42.780	-36.587	105.818	-37.009	-8191	255	
390.316	1	1	0	0	0.11564	0.0609	0.1348	0.12184	0.17592	0.068444	0.18387	0.35888	0.15204	0.098871	0.3022	0.36026	0.18712	0.18327	0.17159	0.10659	-2.375	-2.55	-2.6979	-2.7979	-2.6167	-2.8896	-2.8438	-2.5875	-2.8229	-2.5687	-2.8917	-2.8417	-2.525	-2.8646	-2.675	-2.6854	-8.966	169.825	2.417	230.105	0.948	86.679	236.839	237.638	-11.431	-18.471	203.142	143.093	31.451	100.887	191.127	183.484	0.00028321	8.3348e-05	4.4576e-05	1181.8	2.7108e-06	2.1048e-06	1251.6	247.41	4.7038e-07	5.7275e-06	312.7	87.448	68.035	19.674	2.5781e-06	27.825	0.00011451	0.00011202	3.1062e-05	991.31	1.2433e-06	1.2412e-06	1165.7	231.38	1.2667e-06	1.2644e-06	280.44	80.394	62.434	18.539	1.2839e-06	25.752	-56.673	-29.114	271.687	-57.033	74.648	53.357	-56.728	-49.618	77.628	40.952	-50.320	-43.632	-42.495	-36.263	-2.926	-36.878	-8191	255	
390.387	1	1	0	0	0.30139	0.07734	0.13595	0.20877	0.3941	0.22159	0.19622	0.26759	0.045113	0.080044	0.11427	0.064193	0.01176	0.23086	0.25623	0.19056	-2.4917	-2.2792	-2.8063	-2.7938	-2.4333	-3.0083	-2.9146	-2.5771	-2.9188	-2.5625	-2.7417	-2.8271	-2.4521	-2.9667	-2.7208	-2.5271	4.661	236.567	71.231	-17.065	204.874	165.393	291.573	262.206	114.073	178.656	4.981	91.164	37.350	-7.665	267.866	126.569	0.00036404	0.00032709	6.156e-05	1173.2	2.6275e-06	2.2742e-06	1256.8	249.14	3.3913e-06	3.9611e-06	311.46	86.925	68.034	19.618	5.081e-06	27.749	0.00012114	0.00011902	3.3293e-05	991.82	1.3139e-06	1.3351e-06	1171.8	232.35	1.3689e-06	1.3485e-06	281.26	80.66	62.738	18.619	1.3565e-06	25.811	-49.733	15.691	14.409	-57.069	104.539	82.571	-56.754	-49.736	22.033	111.172	-50.104	-43.141	-43.055	-36.319	70.004	-36.767	-8191	255	
390.484	1	1	0	0	0.19224	0.071648	0.10267	0.13134	0.10342	0.15036	0.13527	0.16949	0.0837	0.12074	0.16606	0.23857	0.12758	0.06647	0.16266	0.11388	-2.3833	-2.5042	-2.6771	-3.0583	-2.5771	-2.7938	-2.9021	-2.6917	-3.0625	-2.5563	-2.4396	-2.7833	-2.5604	-2.8604	-2.7667	-2.5979	289.968	61.706	275.514	42.670	11.869	178.532	-33.882	225.654	24.758	157.113	45.989	231.913	237.416	88.760	30.685	-25.001	0.00028031	0.00048436	5.6839e-06	1179.8	3.7447e-06	3.2758e-06	1254.4	248.59	2.4589e-06	4.9236e-06	310.43	87.571	68.409	19.867	1.553e-06	27.648	0.00012694	0.00012527	3.4987e-05	997.09	1.3763e-06	1.356e-06	1171.6	232.3	1.3463e-06	1.3245e-06	281.12	80.875	62.579	18.625	1.3255e-06	25.732	287.079	-28.984	131.918	-57.101	-42.303	-53.077	-56.912	-49.588	180.620	98.929	-49.851	-43.461	-42.761	-36.075	26.089	-36.927	-8191	255	
390.580	1	1	0	0	0.020799	0.35893	0.28926	0.031053	0.34578	0.27159	0.26246	0.20218	0.10286	0.34836	0.076368	0.1658	0.11533	0.21751	0.2164	0.14471	-2.5729	-2.5167	-2.8063	-2.9417	-2.5979	-2.7604	-3.0583	-2.6875	-2.9521	-2.8833	-2.8667	-2.8833	-2.6375	-2.6813	-2.8458	-2.4146	281.469	134.573	-42.745	8.631	0.229	201.962	204.390	286.823	184.460	275.061	280.314	290.891	40.582	190.593	109.884	158.718	9.2963e-05	0.00019145	9.3136e-05	1184.2	4.3704e-06	4.5416e-06	1255.3	247.43	1.9265e-06	3.0671e-06	313.26	86.855	67.948	19.835	1.3808e-06	27.925	0.00012127	0.00012086	3.349e-05	996.23	1.303e-06	1.2964e-06	1171.3	231.46	1.2984e-06	1.2973e-06	280.69	80.448	62.644	18.6	1.2869e-06	25.731	3.397	118.218	4.455	-57.035	86.356	88.479	-57.058	-49.646	11.444	146.578	-50.061	-43.500	-42.913	-36.380	-27.956	-36.867	-8191	255	
390.699	1	1	0	0	0.25023	0.17913	0.17164	0.19804	0.20201	0.17873	0.16189	0.2403	0.080794	0.14785	0.33118	0.24259	0.19751	0.11599	0.15998	0.36846	-2.5563	-2.6937	-2.5646	-2.9271	-2.5896	-2.7042	-2.9188	-2.7542	-2.675	-2.6292	-2.6188	-2.9542	-2.6646	-2.6583	-2.9396	-2.6042	-61.764	79.587	-0.040	208.660	-10.102	245.975	230.385	226.213	260.209	91.001	203.471	189.698	195.570	132.156	143.643	234.919	0.00016624	0.00020072	8.3525e-05	1178.1	1.2343e-06	1.6842e-06	1254.7	248.25	2.4791e-06	1.3157e-06	312.29	87.315	68.371	19.787	3.62e-06	27.732	0.00011884	0.00011524	3.2057e-05	991.02	1.256e-06	1.2427e-06	1169.2	231.38	1.2335e-06	1.2335e-06	280.6	80.432	62.372	18.598	1.1993e-06	25.571	-30.739	12.558	-22.710	-56.980	201.148	221.937	-56.767	-49.590	39.133	11.864	-50.150	-43.879	-43.262	-36.339	84.298	-37.138	-8191	255	
390.795	1	1	0	0	0.10579	0.039228	0.11485	0.13576	0.16263	0.18438	0.097389	0.29142	0.38674	0.26545	0.19068	0.071899	0.071722	0.1629	0.1219	0.04907	-2.4354	-2.7104	-2.4521	-2.8771	-2.5062	-2.6625	-2.9479	-2.7562	-2.8542	-2.8625	-2.7125	-2.7396	-2.5979	-2.6625	-2.6896	-2.4938	205.392	169.882	-34.054	153.754	218.627	55.743	243.985	272.195	280.721	18.490	135.153	238.077	230.006	269.254	16.117	10.943	0.00017992	0.00025122	4.15e-05	1173.2	1.668e-06	3.8243e-06	1247.7	247.53	2.8282e-06	5.7043e-06	312.67	87.312	67.733	19.864	3.7982e-06	28.09	0.00010888	0.00010784	2.9444e-05	981.66	1.1395e-06	1.1376e-06	1161.4	229.89	1.1285e-06	1.1262e-06	278.2	79.993	61.985	18.551	1.1087e-06	25.622	286.458	56.144	126.531	-56.957	95.833	-20.516	-56.910	-49.680	22.120	76.373	-50.010	-43.482	-42.902	-36.319	3.037	-36.567	-8191	255	
390.891	1	1	0	0	0.090384	0.081245	0.041547	0.13367	0.2328	0.20338	0.27625	0.17549	0.076744	0.04359	0.25986	0.22284	0.18037	0.062328	0.22989	0.18776	-2.2708	-2.7729	-2.4146	-2.8021	-2.6208	-2.65	-2.9521	-2.5729	-2.6792	-2.8792	-2.6583	-2.9229	-2.6792	-2.5542	-2.7479	-2.6813	114.098	191.452	277.749	55.381	-30.285	113.853	-36.819	-20.888	-37.903	177.565	-45.648	77.320	115.892	59.612	-4.446	290.005	0.00020369	5.3517e-05	7.973e-05	1173.8	6.9233e-06	1.8643e-06	1245.7	245.86	1.0314e-06	1.3593e-06	308.63	87.118	68.205	19.87	9.7659e-07	28.033	0.00010374	0.00010141	2.8472e-05	976.32	1.1254e-06	1.1309e-06	1159.9	229.7	1.1555e-06	1.1345e-06	278.09	80.021	62.071	18.595	1.1482e-06	25.739	277.967	-33.565	-48.727	-57.341	78.080	224.870	-56.792	-49.618	70.343	64.805	-50.263	-43.077	-43.015	-36.174	61.118	-36.634	-8191	255	
390.987	1	1	0	0	0.1181	0.131	0.061266	0.063751	0.26638	0.24569	0.016865	0.14651	0.27374	0.16062	0.15833	0.28743	0.21245	0.2686	0.07714	0.12702	-2.1958	-2.8937	-2.6458	-2.8583	-2.9542	-2.45	-3.0521	-2.7833	-2.5333	-2.8708	-2.6646	-2.7771	-2.8563	-2.6583	-2.8438	-2.8563	95.001	16.851	-13.875	20.678	34.139	126.937	184.603	189.841	72.547	235.302	182.156	251.000	161.430	-48.410	-47.986	288.758	0.00030934	0.0002734	2.8558e-05	1167.2	1.2036e-06	1.7321e-06	1243.3	246.48	1.9481e-06	1.4738e-06	311.62	86.949	67.815	19.803	2.3088e-06	28.062	0.00010666	0.00010529	2.9353e-05	977.99	1.14e-06	1.1393e-06	1158	230.23	1.1363e-06	1.1239e-06	278.47	80.016	61.978	18.563	1.1305e-06	25.653	-29.693	-25.398	215.835	-57.151	35.764	221.458	-56.813	-49.749	203.071	111.171	-49.788	-43.410	-42.966	-36.504	213.402	-37.104	-8191	255	
391.083	1	1	0	0	0.050502	0.1397	0.10178	0.23189	0.053669	0.35912	0.28069	0.041404	0.054651	0.09181	0.094805	0.38251	0.073908	0.095132	0.11285	0.41911	-2.1208	-2.7313	-2.5958	-2.7125	-2.7812	-2.5729	-2.9479	-2.7708	-2.7396	-2.7833	-2.5812	-2.7229	-2.8521	-2.5312	-2.875	-2.7042	165.267	164.606	-55.295	6.458	160.090	-18.651	214.071	49.534	185.330	103.888	4.547	193.788	270.994	-1.441	-52.710	164.825	0.0002369	0.0003182	0.00013432	1174.7	8.0047e-07	8.6109e-07	1247.5	247.65	3.3779e-06	6.8172e-07	311.74	87.524	67.688	19.782	4.0785e-06	28.183	0.00010531	0.0001033	2.8703e-05	977.27	1.121e-06	1.1323e-06	1156.9	230.19	1.1352e-06	1.1243e-06	278.58	80.354	62.029	18.548	1.1272e-06	25.733	-55.647	-18.748	6.250	-56.684	29.441	29.502	-56.827	-49.746	41.036	10.886	-50.468	-43.569	-42.910	-36.448	-22.660	-36.433	-8191	255	
391.179	1	1	0	0	0.15714	0.098286	0.19423	0.15917	0.11061	0.19519	0.10209	0.29457	0.13131	0.10774	0.11417	0.23866	0.095867	0.36754	0.29072	0.042044	-2.0021	-2.9208	-2.3312	-2.9125	-2.7708	-2.4896	-3.1021	-2.525	-2.6604	-2.9333	-2.5396	-2.5687	-2.8083	-2.4292	-2.9646	-2.6854	-42.806	-33.134	-53.277	183.874	6.567	123.649	51.291	279.702	28.639	137.853	101.533	260.958	199.005	-3.671	-38.385	-53.108	0.00027992	0.00010206	5.7384e-05	1168.7	3.343e-06	1.5879e-06	1238.2	248.03	1.5408e-06	3.7375e-06	311.72	86.769	67.961	19.857	4.4187e-06	27.982	0.00010574	0.00010382	2.8731e-05	975.41	1.1446e-06	1.1361e-06	1155.8	230.57	1.148e-06	1.1297e-06	278.63	79.962	62.088	18.574	1.1449e-06	25.717	-32.176	74.050	-19.554	-56.729	105.710	2.403	-56.579	-49.858	270.796	111.833	-50.191	-43.653	-43.016	-36.371	65.715	-36.905	-8191	255	
391.300	1	1	0	0	0.38644	0.080255	0.15327	0.071825	0.0096924	0.030645	0.11176	0.10449	0.15567	0.10403	0.16584	0.26707	0.24058	0.16605	0.074825	0.17044	-2.1604	-2.8354	-2.5146	-2.8771	-2.7792	-2.7104	-2.7458	-2.7583	-2.3688	-2.6854	-2.7208	-2.8438	-2.9417	-2.4042	-2.7438	-2.775	139.586	135.738	-61.599	42.479	65.002	-60.423	192.721	-5.037	-22.933	55.344	-38.784	290.089	253.311	-24.074	157.440	230.919	0.0002804	0.00023141	3.9146e-05	1176.1	1.9256e-06	3.4358e-06	1239.3	247.93	7.1226e-07	3.293e-06	311.44	86.771	68.266	19.89	6.2604e-07	27.976	0.00010854	0.00010643	2.9577e-05	979.34	1.1568e-06	1.159e-06	1157.6	230.53	1.163e-06	1.1521e-06	279.03	80.031	62.164	18.553	1.1704e-06	25.72	-11.190	90.635	202.774	-56.958	117.242	59.004	-56.703	-49.791	72.105	79.574	-50.312	-43.625	-43.153	-36.329	44.431	-36.656	-8191	255	
391.396	1	1	0	0	0.21393	0.20827	0.14291	0.20698	0.25821	0.092559	0.066505	0.049405	0.20667	0.10042	0.21523	0.25431	0.2134	0.13768	0.1662	0.092903	-2.0917	-2.8542	-2.5521	-2.5458	-2.9896	-2.5354	-2.9979	-2.8917	-2.4917	-2.8292	-2.7854	-2.5542	-2.825	-2.65	-2.625	-2.9917	260.988	-20.531	226.764	50.393	-14.777	250.989	219.838	-17.812	166.925	-44.641	22.809	138.890	184.486	-8.742	266.189	-33.899	0.00013666	0.00019071	0.00011539	1169.2	2.7698e-06	3.1172e-06	1242.4	248.12	4.1994e-06	4.0561e-06	311.19	86.816	68.063	19.833	4.6456e-06	27.842	0.00010904	0.0001055	2.9971e-05	978.03	1.1608e-06	1.1792e-06	1158.5	231.01	1.187e-06	1.1829e-06	279.16	80.205	62.153	18.588	1.1823e-06	25.729	-38.070	-36.011	262.400	-56.641	231.268	144.150	-56.627	-49.674	85.155	148.671	-49.867	-43.413	-43.028	-36.206	59.887	-36.716	-8191	255	
391.492	1	1	0	0	0.25229	0.072171	0.15012	0.15351	0.13379	0.26724	0.056951	0.039906	0.13098	0.30394	0.17057	0.38024	0.11081	0.11089	0.034216	0.097507	-1.9542	-2.5938	-2.6417	-2.5521	-2.825	-2.5896	-2.9146	-2.8729	-2.4771	-2.8896	-2.7917	-2.4125	-2.7042	-2.6813	-2.5729	-2.9562	-51.595	6.538	174.055	139.526	114.307	101.527	204.773	218.973	99.348	116.267	84.365	56.442	-28.530	256.193	277.644	168.756	0.00020944	0.00015298	9.5183e-05	1166.5	3.2632e-06	4.877e-06	1242.1	247.2	3.7084e-07	4.9525e-06	312.15	86.897	68.294	19.936	8.2192e-07	27.972	0.00010978	0.00010876	3.0086e-05	980.28	1.177e-06	1.1827e-06	1158.6	230.84	1.1784e-06	1.1821e-06	279.53	80.315	62.22	18.647	1.1892e-06	25.765	-65.381	-62.117	272.116	-56.717	134.812	12.350	-56.601	-49.621	-16.307	77.226	-50.084	-43.719	-43.313	-36.313	90.137	-37.056	-8191	255	
391.588	1	1	0	0	0.11004	0.17939	0.22658	0.12426	0.25662	0.27466	0.2812	0.16963	0.26244	0.18475	0.066837	0.28341	0.20202	0.17692	0.10733	0.16866	-2.075	-2.7229	-2.7333	-2.5979	-2.8146	-2.5687	-2.9792	-3.0646	-2.5604	-2.8354	-2.6896	-2.6063	-2.9062	-2.8229	-2.6312	-2.85	136.649	-43.984	171.766	186.657	167.458	237.340	179.126	-51.560	138.370	-12.250	-54.243	238.819	-63.333	241.302	73.412	-62.510	0.00025592	0.00033241	6.6288e-05	1164.3	2.333e-06	3.5484e-06	1241.6	247.24	2.2534e-06	2.087e-06	310.82	87.478	67.789	19.823	3.5017e-06	27.979	0.00010962	0.00010842	3.0196e-05	980.56	1.1639e-06	1.1767e-06	1158.5	230.9	1.1731e-06	1.1674e-06	278.99	80.345	62.172	18.633	1.1859e-06	25.795	-40.107	-10.293	-55.744	-57.293	88.659	275.194	-56.637	-49.632	57.613	27.995	-50.403	-43.504	-43.328	-36.249	158.238	-37.242	-8191	255	
391.685	1	1	0	0	0.13118	0.086847	0.27827	0.07587	0.094239	0.061696	0.4684	0.38935	0.32973	0.066273	0.15155	0.21266	0.23564	0.11447	0.3076	0.05554	-2.0292	-2.5833	-2.7833	-2.5146	-2.8646	-2.7396	-2.7771	-2.8396	-2.5854	-2.8333	-2.7938	-2.6792	-2.8083	-2.7854	-2.6104	-3.0333	133.146	78.322	124.408	262.496	4.967	252.478	286.005	105.917	-11.848	40.824	-17.712	189.050	218.365	221.363	148.106	-66.519	0.00023027	0.00020832	3.8639e-05	1171.1	3.9427e-06	3.3016e-06	1242.7	247.17	1.7411e-06	2.8898e-06	310.79	87.559	68.333	19.865	3.6318e-06	27.967	0.00010965	0.00010649	2.9922e-05	979.43	1.1649e-06	1.1619e-06	1159.4	231.32	1.1607e-06	1.1569e-06	279.07	80.141	62.22	18.609	1.1623e-06	25.73	-61.813	143.239	171.662	-57.093	133.959	107.885	-56.905	-49.688	68.537	17.545	-49.860	-43.381	-43.352	-36.201	7.593	-36.613	-8191	255	
391.779	1	1	0	0	0.092613	0.13543	0.16612	0.11081	0.076362	0.062889	0.11886	0.10658	0.1157	0.077593	0.12886	0.30444	0.30921	0.20928	0.32271	0.16634	-2.2104	-2.7604	-3.05	-2.5479	-2.7021	-2.8187	-2.7938	-2.7979	-2.5042	-2.6104	-2.8896	-2.6125	-2.7354	-2.8	-2.5833	-2.7854	36.020	-63.248	-57.323	82.683	129.300	-4.684	156.649	-0.261	192.970	39.307	186.987	255.969	236.019	192.778	-37.607	199.590	0.0002221	2.8238e-05	5.7671e-05	1170.4	1.7336e-06	1.157e-06	1243.7	247.34	1.0644e-06	3.4911e-06	313.1	86.778	68.385	19.863	3.4012e-06	28.068	0.00010658	0.00010519	2.957e-05	980.61	1.144e-06	1.1405e-06	1157.9	230.88	1.1456e-06	1.1336e-06	279.45	80.262	62.378	18.618	1.154e-06	25.769	-3.286	83.195	176.757	-57.258	64.423	76.871	-56.944	-50.224	19.392	53.320	-50.229	-43.674	-42.853	-36.369	262.424	-36.888	-8191	255	
391.875	1	1	0	0	0.12233	0.073744	0.24577	0.1843	0.094679	0.084548	0.17856	0.29411	0.055642	0.17733	0.1519	0.05747	0.29121	0.32705	0.11901	0.30611	-2.3042	-2.7375	-2.7917	-2.5333	-2.8375	-2.9292	-2.6063	-2.9208	-2.7417	-2.6833	-3.0458	-2.4708	-2.7417	-2.9437	-2.5	-2.6854	250.129	233.999	93.613	135.706	-28.328	-14.622	271.825	243.146	132.365	289.457	-27.831	258.723	283.964	198.734	200.335	236.618	0.00010959	6.5656e-05	6.8602e-05	1171.3	2.8776e-06	3.4588e-06	1244.1	248.24	2.6555e-06	1.0692e-06	313.34	87.447	68.187	19.929	3.9622e-06	28.177	0.00010757	0.00010537	2.9053e-05	979.06	1.1584e-06	1.1455e-06	1159	231.14	1.1489e-06	1.146e-06	279.61	80.371	62.201	18.651	1.1621e-06	25.82	-34.451	209.910	-52.089	-57.252	-47.954	32.167	-56.765	-49.650	93.100	33.481	-50.027	-43.738	-43.251	-36.418	69.576	-36.421	-8191	255	
391.996	1	1	0	0	0.039502	0.11762	0.10443	0.24511	0.31923	0.11571	0.24252	0.084944	0.064293	0.22852	0.16699	0.36425	0.085347	0.3137	0.075421	0.12416	-2.2687	-2.6417	-2.8208	-2.6417	-2.6958	-2.7771	-2.7104	-3.0312	-2.6646	-2.6562	-2.8208	-2.6479	-2.6167	-2.9167	-2.4354	-2.8708	50.381	271.641	54.397	273.733	-14.072	245.138	232.149	246.148	172.532	-5.292	117.419	83.371	169.476	-19.388	139.341	-41.117	7.6938e-05	0.00036505	2.399e-05	1173.7	4.1889e-06	2.1507e-06	1247.8	249.39	6.8777e-06	2.6879e-06	312.18	87.423	68.605	19.946	1.5261e-06	28.218	0.0001062	0.00010528	2.9127e-05	981.33	1.1641e-06	1.1549e-06	1160.4	231.66	1.1702e-06	1.1658e-06	279.28	80.525	62.508	18.659	1.1738e-06	25.873	286.082	-5.075	87.566	-56.909	140.119	40.004	-56.506	-49.684	-35.294	63.897	-50.296	-43.503	-42.977	-36.406	239.063	-36.831	-8191	255	
392.092	1	1	0	0	0.25125	0.057023	0.089923	0.088222	0.086934	0.14136	0.33553	0.13353	0.084412	0.16657	0.17646	0.23264	0.064679	0.10003	0.29008	0.33803	-2.2896	-2.3958	-2.8854	-2.6542	-2.5896	-2.9833	-2.7375	-2.85	-2.7562	-2.5917	-2.8187	-2.7208	-2.5563	-2.8625	-2.6167	-2.8688	249.555	43.987	100.557	125.032	61.647	1.413	197.111	211.549	266.108	-39.883	251.790	11.310	-67.676	262.855	-18.398	37.595	0.00011193	0.000246	4.754e-05	1171.2	1.2881e-06	2.6501e-06	1242.8	248.64	2.4534e-06	1.6017e-06	312.47	87.531	68.301	19.894	3.1596e-06	28.024	0.00010978	0.00010755	2.977e-05	979.46	1.1697e-06	1.1591e-06	1158.6	231.47	1.1701e-06	1.1752e-06	279.58	80.56	62.265	18.613	1.1705e-06	25.813	289.067	273.873	77.122	-56.857	11.103	8.907	-56.914	-50.018	217.711	203.491	-50.312	-43.604	-43.200	-36.506	43.319	-36.646	-8191	255	
392.188	1	1	0	0	0.10144	0.026999	0.13467	0.2731	0.11029	0.14417	0.22462	0.10037	0.1656	0.091243	0.19469	0.12526	0.048448	0.23219	0.16603	0.19608	-2.4562	-2.2667	-2.6937	-2.6542	-2.4688	-2.8896	-2.6063	-2.8292	-2.7979	-2.6333	-2.7375	-2.725	-2.5729	-2.8792	-2.6646	-2.7062	190.534	9.744	226.799	277.727	-0.273	159.637	268.663	145.758	276.169	84.053	118.968	-26.375	190.902	291.280	221.286	175.564	0.00015941	6.9796e-05	3.4536e-05	1171.4	1.0944e-06	4.6589e-06	1247.5	248.4	1.2345e-06	1.5744e-06	311.15	87.536	68.666	20.001	4.4702e-07	28.157	0.00010914	0.00010701	2.9874e-05	980.36	1.1779e-06	1.1617e-06	1159.1	231.67	1.1687e-06	1.1647e-06	279.8	80.399	62.467	18.679	1.1643e-06	25.822	249.588	4.450	108.186	-57.232	-11.047	89.945	-56.861	-49.694	129.001	282.530	-50.199	-43.781	-42.773	-36.354	265.667	-37.193	-8191	255	
392.260	1	1	0	0	0.25177	0.076603	0.30937	0.094035	0.093813	0.16584	0.28992	0.076581	0.27742	0.1099	0.2209	0.41237	0.10878	0.2435	0.14078	0.1401	-2.5417	-2.5062	-2.7958	-2.75	-2.5833	-3.1167	-2.7646	-2.7354	-2.9167	-2.6042	-3.0563	-2.825	-2.6229	-2.8833	-2.6583	-2.7687	120.000	76.554	191.617	133.180	45.696	54.358	187.896	290.905	17.313	-29.589	240.804	285.112	173.987	7.089	-48.475	-60.076	0.00018391	0.00038373	6.0322e-05	1175.7	2.944e-06	2.5862e-06	1242.2	248.78	3.7844e-06	2.6162e-06	311.54	87.668	68.326	19.949	2.7645e-06	28.248	0.0001085	0.00010635	2.9861e-05	980.7	1.1747e-06	1.1613e-06	1159.6	231.98	1.1785e-06	1.1703e-06	279.99	80.524	62.46	18.709	1.1753e-06	25.917	-67.546	-34.615	250.828	-57.160	65.474	92.964	-56.966	-49.759	115.101	83.745	-50.186	-43.185	-43.009	-36.201	176.657	-37.077	-8191	255	
392.380	1	1	0	0	0.23681	0.24571	0.17175	0.38356	0.12713	0.041501	0.2353	0.045371	0.071354	0.085206	0.041381	0.16566	0.075321	0.058554	0.19266	0.17765	-2.3625	-2.2167	-2.8125	-2.9062	-2.4667	-2.825	-2.8229	-2.6229	-3.0208	-2.5458	-2.7125	-2.8688	-2.5333	-2.8792	-2.7167	-2.6542	107.397	132.822	105.780	259.025	270.222	38.975	264.012	68.338	102.410	245.667	281.531	136.674	107.268	268.725	193.530	-25.436	0.0002094	0.00029907	0.00012003	1175.9	1.2156e-06	4.9856e-06	1246.6	249.91	2.3044e-06	8.6115e-07	314.01	87.955	68.553	19.924	1.5886e-06	28.139	0.00010959	0.00010802	2.9951e-05	981.12	1.1825e-06	1.176e-06	1162.6	232.31	1.1798e-06	1.1666e-06	280.74	80.822	62.536	18.741	1.17e-06	25.906	281.395	19.751	38.243	-56.821	81.680	99.553	-56.861	-49.726	81.387	74.420	-50.271	-43.447	-42.680	-36.075	124.677	-37.281	-8191	255	
392.477	1	1	0	0	0.074264	0.13796	0.027635	0.064304	0.16738	0.29028	0.061379	0.21836	0.18529	0.11249	0.11703	0.023102	0.06446	0.16243	0.29312	0.085964	-2.5812	-2.5812	-2.6229	-2.8625	-2.5687	-2.7708	-2.9271	-2.6063	-2.8021	-2.4521	-2.8021	-3.0104	-2.4479	-2.8625	-2.6479	-2.5146	78.830	98.575	151.803	267.920	195.926	79.371	280.980	247.883	-35.652	238.008	40.038	26.861	257.220	-44.427	137.389	-36.743	0.00024883	1.2087e-05	1.6297e-05	1168.4	2.4861e-06	3.4187e-06	1249.9	248.96	2.0215e-06	6.2283e-07	313.89	87.855	68.465	19.94	5.3546e-06	28.167	0.00010946	0.00010767	2.9732e-05	981.48	1.1612e-06	1.1706e-06	1161.4	232.54	1.1755e-06	1.1703e-06	280.93	80.751	62.446	18.712	1.1904e-06	25.948	273.110	57.688	58.023	-56.848	113.700	1.454	-57.043	-49.736	184.219	190.832	-50.210	-43.042	-43.539	-36.130	86.490	-37.307	-8191	255	
392.573	1	1	0	0	0.11364	0.20694	0.16571	0.1634	0.19421	0.39032	0.14905	0.10726	0.11737	0.020504	0.19464	0.075666	0.14873	0.078939	0.22639	0.23497	-2.3583	-2.5229	-2.5479	-2.8812	-2.475	-2.7854	-2.8667	-2.5792	-2.8542	-2.6104	-2.5812	-2.9729	-2.6688	-2.9313	-2.8042	-2.5604	247.808	-17.547	-42.797	254.852	21.951	253.608	269.264	244.607	-0.444	1.228	150.309	231.325	-12.881	270.371	-18.751	52.314	0.0002305	0.00019169	3.6925e-05	1174.8	3.3699e-06	3.8109e-06	1244.1	250.1	2.6224e-07	1.0563e-06	313.1	87.391	68.647	20.089	2.5998e-06	28.189	0.00011027	0.00010935	3.051e-05	982.03	1.1863e-06	1.1941e-06	1161.8	232.71	1.2055e-06	1.2025e-06	281.02	80.75	62.627	18.818	1.1929e-06	25.919	-21.604	-14.712	288.358	-57.065	7.116	13.072	-56.724	-49.727	-4.612	-37.697	-50.331	-43.788	-43.317	-36.354	-6.008	-36.642	-8191	255	
392.669	1	1	0	0	0.038423	0.20594	0.30724	0.060622	0.23594	0.21553	0.13155	0.12118	0.317	0.26512	0.22623	0.23974	0.098134	0.24599	0.26574	0.089043	-2.3479	-2.6625	-2.6667	-2.9562	-2.4521	-2.7313	-2.9875	-2.4708	-2.7396	-2.6396	-2.6167	-3.0729	-2.6542	-2.6771	-2.7167	-2.5792	124.355	237.248	92.479	115.446	286.193	186.721	254.228	203.353	50.889	3.227	207.259	22.081	273.324	-47.827	73.878	-14.376	0.00034035	0.00037468	6.9005e-05	1175.8	1.9031e-06	3.3757e-06	1245.6	250.27	3.6947e-06	3.5538e-06	313.77	87.652	68.608	19.94	4.083e-06	28.092	0.00011049	0.00010893	3.0421e-05	982.37	1.1917e-06	1.1882e-06	1163.3	232.69	1.1891e-06	1.1904e-06	281.03	80.861	62.594	18.742	1.1964e-06	25.966	-62.981	-20.061	-33.697	-57.089	144.297	46.918	-56.783	-49.579	72.210	69.376	-50.301	-43.457	-43.267	-36.272	129.258	-37.222	-8191	255	
392.788	1	1	0	0	0.16854	0.13808	0.30124	0.11201	0.18016	0.22317	0.39673	0.10655	0.13679	0.087007	0.17248	0.24938	0.2779	0.040427	0.2142	0.22763	-2.25	-2.6958	-2.6417	-2.8583	-2.5375	-2.6521	-3.0062	-2.6229	-2.8271	-2.95	-2.6792	-2.8125	-2.675	-2.7958	-2.9	-2.6625	287.355	292.265	86.708	285.921	-15.835	-26.193	218.536	-47.142	142.090	179.798	242.410	183.681	109.723	132.855	86.005	-0.626	0.00022482	0.00022839	3.649e-05	1179.6	1.3379e-06	7.0938e-07	1249.3	249.22	2.8362e-06	2.2341e-06	313.81	87.864	69.017	19.917	4.4134e-06	28.261	0.00011036	0.00010931	3.0647e-05	984.25	1.1793e-06	1.186e-06	1164.9	232.85	1.1803e-06	1.1814e-06	281.31	80.828	62.795	18.715	1.1864e-06	25.927	5.697	240.994	29.650	-57.162	149.130	180.323	-56.716	-49.601	272.748	20.279	-49.902	-43.493	-42.900	-36.353	120.909	-36.993	-8191	255	
392.884	1	1	0	0	0.20291	0.11151	0.25019	0.016402	0.11589	0.21701	0.23552	0.22827	0.063271	0.12352	0.20493	0.13325	0.088993	0.23342	0.16869	0.16119	-2.4292	-2.8375	-2.5771	-2.8333	-2.5792	-2.5146	-3.0563	-2.5729	-2.6396	-2.8083	-2.725	-2.8229	-2.7021	-2.5438	-2.9083	-2.5604	214.270	49.559	208.368	81.423	264.294	-57.613	191.434	231.424	72.858	82.751	125.293	142.661	-26.400	225.188	222.726	2.628	0.00032593	0.00033501	1.2334e-05	1174.1	2.0711e-06	2.2605e-06	1241.4	249.09	2.0378e-06	1.1246e-06	313.46	87.324	68.505	19.963	5.0501e-06	28.219	0.00011096	0.00010739	3.0085e-05	983.41	1.1627e-06	1.1728e-06	1161.6	232.22	1.1809e-06	1.1665e-06	281.29	80.816	62.533	18.732	1.1706e-06	25.915	289.317	2.864	20.297	-56.902	44.123	35.737	-56.602	-49.830	51.984	47.509	-50.159	-43.557	-43.003	-36.484	50.315	-36.724	-8191	255	
392.980	1	1	0	0	0.13923	0.038596	0.26937	0.13651	0.22911	0.19676	0.22476	0.15019	0.14988	0.19775	0.19198	0.11736	0.13434	0.26726	0.28438	0.26376	-2.2812	-2.6375	-2.4583	-2.7125	-2.7562	-2.6188	-3.0104	-2.5729	-2.7542	-2.8187	-2.5375	-2.9688	-2.8917	-2.6042	-2.9646	-2.7083	250.366	161.849	163.966	-36.560	-46.709	170.293	199.387	147.598	227.115	223.864	183.324	270.682	112.400	175.570	50.547	120.394	0.00024374	0.00024223	8.2988e-05	1174.7	1.5406e-06	2.0725e-06	1240.9	249.69	3.9416e-06	2.1822e-06	314.54	87.787	68.517	19.961	1.065e-06	28.22	0.00010874	0.00010703	2.9603e-05	982.15	1.1667e-06	1.1734e-06	1161.3	232.56	1.175e-06	1.1664e-06	281.34	80.716	62.617	18.721	1.1562e-06	25.882	-67.633	12.780	21.398	-57.355	69.546	147.811	-56.732	-49.971	52.817	60.407	-49.983	-43.634	-42.826	-36.815	-37.154	-36.927	-8191	255	
393.076	1	1	0	0	0.14367	0.20828	0.074965	0.06134	0.066804	0.085224	0.098038	0.28269	0.15572	0.22201	0.20996	0.056257	0.04725	0.18016	0.1235	0.18297	-2.2604	-2.9437	-2.6458	-2.8167	-2.6667	-2.7271	-3.0604	-2.6562	-2.675	-2.8542	-2.6542	-2.9646	-2.8104	-2.6458	-2.9708	-2.8458	222.226	214.966	205.074	255.119	98.102	174.373	213.215	-34.351	223.898	141.117	201.447	-49.962	186.530	27.785	-1.651	30.235	0.0002823	0.00039243	7.3353e-05	1170	1.7891e-06	2.4835e-06	1246.2	248.91	4.4044e-06	4.6588e-06	313.17	87.608	68.685	20.031	1.8014e-06	28.266	0.00010805	0.0001062	2.933e-05	981.34	1.1781e-06	1.167e-06	1160.8	232.45	1.1606e-06	1.1665e-06	281.14	80.671	62.717	18.764	1.1659e-06	25.96	-7.442	-7.857	-15.237	-56.854	143.269	153.026	-56.659	-49.784	-14.353	69.013	-50.351	-43.768	-42.852	-36.538	108.935	-36.892	-8191	255	
393.172	1	1	0	0	0.27487	0.22977	0.1702	0.1137	0.20752	0.087762	0.38527	0.2622	0.26034	0.1787	0.060832	0.24331	0.18942	0.15923	0.13124	0.14916	-2.075	-3	-2.7458	-2.7729	-2.9083	-2.6688	-3.0979	-2.9292	-2.6917	-2.8604	-2.7208	-2.9417	-2.7208	-2.5417	-3.0771	-2.575	116.327	67.379	128.413	199.326	160.137	77.741	251.416	188.381	219.669	111.814	183.114	273.018	119.038	57.336	211.532	257.628	0.00023048	0.00051401	6.5062e-05	1185	1.0545e-06	2.6377e-06	1248.1	250.64	2.0918e-06	1.0317e-06	314.2	88.24	68.645	20.101	2.0015e-06	28.218	0.00010904	0.0001074	2.9729e-05	984.5	1.186e-06	1.1789e-06	1163.7	233.07	1.1872e-06	1.1562e-06	281.61	80.935	62.501	18.775	1.1585e-06	25.987	263.862	61.029	-41.263	-57.248	-11.158	281.672	-57.019	-49.700	-11.106	183.010	-50.059	-43.685	-43.127	-36.469	3.564	-37.162	-8191	255	
393.268	1	1	0	0	0.088797	0.049636	0.042845	0.088889	0.18021	0.066967	0.0531	0.25145	0.16096	0.031389	0.15346	0.10221	0.017532	0.10651	0.10028	0.21294	-1.9625	-2.8354	-2.6417	-2.6729	-2.7771	-2.4396	-2.9271	-2.8771	-2.5458	-2.8854	-2.6083	-2.7896	-2.9479	-2.4562	-2.6813	-2.7292	280.665	9.368	-44.131	79.541	171.936	-33.811	93.375	282.621	183.981	19.654	213.595	233.853	55.051	73.693	134.812	281.047	0.00016452	0.00029705	6.6808e-05	1178.4	2.1138e-06	1.3381e-06	1248.8	250.75	2.1169e-06	1.2311e-06	314.83	88.413	69.039	20.135	1.2565e-06	28.141	0.00010911	0.00010658	2.9687e-05	985.43	1.1611e-06	1.1577e-06	1164.2	233.12	1.1823e-06	1.1612e-06	281.33	80.891	62.834	18.796	1.1699e-06	25.927	-47.703	13.121	8.549	-57.076	41.448	113.864	-56.861	-49.758	-43.579	91.300	-50.214	-43.799	-43.225	-36.390	-29.963	-37.049	-8191	255	
393.389	1	1	0	0	0.080139	0.13598	0.070391	0.095682	0.35119	0.11255	0.33103	0.19176	0.15129	0.11836	0.024408	0.18119	0.066518	0.23476	0.24328	0.1767	-1.9188	-2.8396	-2.575	-2.6646	-2.8438	-2.825	-2.8125	-2.8312	-2.5167	-2.9792	-2.8333	-2.6396	-3.075	-2.7396	-2.7812	-3.0125	76.644	0.628	71.182	-18.336	12.156	-36.266	231.830	123.050	61.634	149.057	95.145	8.499	-62.282	162.150	66.327	-53.044	0.00028749	5.3756e-05	2.0909e-05	1181.2	3.0899e-06	3.6955e-06	1250.7	250.46	2.6385e-06	4.0153e-06	313.75	87.988	68.502	20.062	2.5739e-06	28.262	0.00011033	0.00010859	3.0243e-05	984.01	1.1854e-06	1.1815e-06	1163.7	233.24	1.2053e-06	1.1824e-06	281.27	80.792	62.594	18.816	1.2039e-06	25.987	288.747	251.021	216.467	-57.301	92.366	43.229	-56.704	-49.832	134.288	-55.581	-50.161	-43.509	-43.638	-36.216	210.518	-36.898	-8191	255	
393.485	1	1	0	0	0.20191	0.077765	0.10359	0.11363	0.045086	0.17647	0.15831	0.29429	0.25189	0.1078	0.19528	0.086126	0.046304	0.12773	0.12441	0.078948	-2.175	-2.7458	-2.6479	-2.7396	-2.9667	-2.4479	-2.8083	-2.7917	-2.8083	-2.7562	-2.7125	-2.4208	-2.9	-2.6063	-2.6542	-2.8042	-26.676	57.072	202.418	9.509	158.593	256.642	70.433	269.803	291.620	83.440	186.515	266.318	92.826	-11.345	58.560	210.000	0.00015727	0.00020346	0.00014761	1175	1.3301e-06	2.7922e-06	1244	250.35	1.127e-06	2.0069e-06	313.27	87.992	68.519	19.93	7.907e-06	28.301	0.0001128	0.00011121	3.0529e-05	984.87	1.2044e-06	1.1902e-06	1160.9	233.29	1.2128e-06	1.1834e-06	282.13	80.904	62.698	18.752	1.2048e-06	25.965	-57.274	63.955	-46.805	-57.087	138.219	102.795	-57.048	-49.699	-44.340	226.724	-50.382	-43.652	-43.113	-36.476	47.438	-36.866	-8191	255	
393.557	1	1	0	0	0.20666	0.08776	0.035091	0.12687	0.193	0.14545	0.24013	0.13772	0.072322	0.21209	0.18795	0.33231	0.069431	0.26598	0.23071	0.10997	-2.2625	-2.7542	-2.6729	-2.6625	-2.8417	-2.5896	-2.6833	-3.0917	-2.4396	-2.7271	-2.8396	-2.3896	-2.8438	-2.7583	-2.7771	-2.8333	46.622	101.952	253.562	-30.066	231.814	-28.626	166.081	224.510	231.374	105.244	-19.511	214.870	277.830	200.453	258.949	-67.108	0.00019029	0.00013188	8.3765e-05	1178.3	2.7978e-06	1.6527e-06	1246.5	250.62	1.4932e-06	1.0858e-06	313.76	87.252	68.588	19.951	2.5363e-06	27.994	0.00011007	0.00010782	2.9901e-05	984.82	1.1751e-06	1.1642e-06	1161.6	233.07	1.183e-06	1.1689e-06	281.83	80.738	62.715	18.708	1.1754e-06	25.932	-62.155	7.408	-55.385	-57.122	18.052	55.721	-56.659	-49.973	-30.277	90.432	-49.953	-43.433	-43.179	-36.348	15.475	-36.660	-8191	255	
393.678	1	1	0	0	0.11289	0.19872	0.18048	0.18122	0.22146	0.13391	0.19422	0.2266	0.16728	0.076413	0.062437	0.18394	0.16622	0.095047	0.25783	0.11841	-2.1708	-2.4375	-2.9396	-2.6083	-2.8042	-2.4646	-2.575	-2.8917	-2.6146	-2.7229	-2.7625	-2.6792	-2.7625	-2.5521	-2.5187	-2.8375	228.114	85.566	-62.959	157.937	1.569	108.990	-41.332	208.965	42.289	-18.636	269.454	-61.553	263.890	61.681	256.459	243.892	0.00024417	0.00036327	7.9964e-05	1166.3	5.7776e-06	4.6719e-06	1242.5	250.61	3.2975e-06	2.5201e-06	313.95	87.891	68.761	20.075	3.0055e-06	28.175	0.00010757	0.00010661	2.9595e-05	979.37	1.1661e-06	1.1614e-06	1159.7	233.17	1.1743e-06	1.1605e-06	280.82	80.711	62.603	18.744	1.1342e-06	25.891	-25.227	46.289	11.626	-57.044	97.708	91.343	-56.754	-50.050	-40.855	174.267	-50.407	-43.596	-42.994	-36.298	126.655	-37.108	-8191	255	
393.772	1	1	0	0	0.19618	0.20093	0.25887	0.13313	0.043047	0.16076	0.077998	0.27256	0.37033	0.092549	0.036852	0.070772	0.23044	0.31214	0.14505	0.26341	-2.225	-2.6229	-2.75	-2.6521	-2.7896	-2.8583	-2.7917	-3.0438	-2.4979	-2.6708	-2.9333	-2.7687	-2.6958	-2.6875	-2.3104	-2.8917	-52.341	192.941	122.902	36.784	168.854	71.823	264.953	221.113	34.670	-48.283	55.459	-35.305	258.097	261.875	-32.226	-58.895	0.00021831	0.00030506	5.4597e-05	1167.6	4.7074e-06	3.588e-06	1240.2	249.59	5.3499e-06	2.2689e-06	314.86	88.196	68.983	19.87	3.0838e-06	28.396	0.00010647	0.00010534	2.9344e-05	976.81	1.1423e-06	1.1553e-06	1159	232.57	1.1596e-06	1.1422e-06	281.52	80.733	62.723	18.675	1.1356e-06	25.93	-28.378	-4.974	-6.554	-56.577	108.280	15.754	-56.778	-49.727	28.764	75.382	-50.041	-43.356	-42.895	-36.628	64.735	-37.295	-8191	255	
393.868	1	1	0	0	0.036012	0.14174	0.27092	0.17959	0.20196	0.15317	0.22531	0.071494	0.09374	0.085194	0.20466	0.23006	0.15776	0.19737	0.22507	0.21932	-2.225	-2.5146	-2.8417	-2.5375	-2.7167	-2.9896	-2.6	-2.8625	-2.7833	-2.7792	-2.9458	-2.7125	-2.6396	-2.7583	-2.4708	-2.7958	221.152	252.393	11.255	63.391	141.428	-26.403	215.193	264.426	-51.345	281.965	147.026	232.610	184.736	264.299	239.200	-45.495	0.00012208	0.00015014	8.4377e-05	1168.7	4.5214e-07	4.3539e-06	1237.7	248.88	2.9826e-06	3.2273e-06	310.9	87.737	69.04	20.083	2.1276e-06	28.342	0.00010532	0.000101	2.8452e-05	974.43	1.1026e-06	1.1075e-06	1155.3	232.12	1.0985e-06	1.0934e-06	279.76	80.503	62.497	18.732	1.0869e-06	25.867	277.381	25.836	-24.397	-56.912	242.816	42.400	-56.639	-49.662	147.874	31.991	-50.086	-43.579	-43.217	-36.476	12.564	-36.394	-8191	255	
393.964	1	1	0	0	0.13403	0.16237	0.085741	0.15768	0.13954	0.12088	0.098793	0.32048	0.098837	0.080356	0.20693	0.10922	0.12063	0.16161	0.10129	0.22112	-2.2313	-2.3875	-2.8187	-2.6458	-2.7708	-2.9875	-2.7229	-2.8563	-2.6125	-2.5854	-3.0042	-2.5479	-2.7625	-2.9458	-2.4708	-2.75	-48.359	185.342	17.614	-28.158	226.305	126.997	229.956	247.655	186.057	144.805	222.773	150.117	9.111	272.618	154.569	-5.767	0.00025738	0.0003066	4.1306e-05	1170.3	3.7088e-06	1.9507e-06	1240.5	249.55	3.4344e-06	2.2154e-06	314.83	87.908	68.444	20.128	1.7832e-06	28.288	0.00010042	9.8148e-05	2.7272e-05	971.28	1.0748e-06	1.081e-06	1155	232.33	1.0797e-06	1.0933e-06	280.47	80.59	62.32	18.776	1.0705e-06	25.934	283.155	61.341	50.313	-57.207	-13.826	47.247	-56.862	-49.989	88.574	98.787	-50.100	-43.424	-42.947	-36.692	-19.733	-36.829	-8191	255	
394.060	1	1	0	0	0.10213	0.11032	0.16139	0.067632	0.19035	0.12022	0.39923	0.17651	0.20189	0.17058	0.091189	0.3631	0.060744	0.11187	0.17826	0.092089	-2.2375	-2.5292	-2.7583	-2.625	-2.5146	-2.8	-2.7167	-2.8021	-2.7042	-2.6562	-2.9688	-2.7271	-2.675	-2.8396	-2.5375	-2.7542	22.788	119.624	-47.611	175.407	129.891	200.818	257.773	236.206	-12.028	-20.139	183.457	201.283	20.713	235.950	85.899	182.434	0.00023514	0.00014775	4.0241e-05	1160.7	2.3785e-06	1.4677e-06	1237.4	250.6	2.7443e-06	2.0996e-06	313.89	87.503	68.722	20.079	4.438e-06	28.493	0.00010029	9.9466e-05	2.7546e-05	968.69	1.0826e-06	1.067e-06	1152.9	232.86	1.0902e-06	1.0847e-06	280.08	80.428	62.51	18.745	1.0609e-06	25.951	-57.990	-29.320	279.623	-56.973	37.177	134.408	-56.842	-49.782	31.803	18.723	-50.098	-43.669	-42.687	-36.300	32.217	-36.985	-8191	255	
394.157	1	1	0	0	0.11491	0.19582	0.14621	0.1119	0.2794	0.092559	0.22742	0.14227	0.10709	0.2546	0.070401	0.12865	0.13983	0.12922	0.075967	0.13894	-2.3375	-2.5042	-2.6271	-2.7229	-2.5375	-3.0729	-2.7333	-2.7729	-2.7208	-2.5479	-2.7917	-2.8479	-2.5542	-2.9062	-2.4437	-2.5854	55.499	181.846	-61.247	227.687	-0.668	79.477	95.420	137.244	51.779	240.302	239.298	7.391	7.523	44.946	73.472	13.765	0.00023039	0.00027877	9.9435e-05	1156.9	1.8132e-06	4.2761e-06	1239.1	250.46	3.708e-06	2.9483e-06	311.61	87.695	68.514	20.044	4.3441e-06	28.166	9.9821e-05	9.7982e-05	2.6663e-05	967.3	1.0646e-06	1.0413e-06	1150.5	232.09	1.0454e-06	1.0383e-06	278.83	80.354	62.085	18.684	1.0384e-06	25.814	-18.432	16.307	288.874	-57.198	110.312	56.227	-56.812	-50.046	53.801	72.679	-50.235	-43.137	-43.087	-36.161	56.812	-36.728	-8191	255	
394.253	1	1	0	0	0.064338	0.062667	0.17198	0.090745	0.21004	0.20108	0.21699	0.13551	0.055952	0.18029	0.17846	0.09448	0.11695	0.26764	0.17072	0.14786	-2.5396	-2.6	-2.6979	-2.7271	-2.7521	-2.9313	-2.7729	-2.7479	-2.8271	-2.6917	-2.8646	-2.9271	-2.525	-2.8229	-2.5542	-2.6104	77.785	191.723	-52.146	152.662	-17.836	51.838	181.580	272.555	230.658	57.565	253.570	-31.715	143.494	142.572	252.841	-67.592	0.00010485	0.0001885	4.4605e-05	1153.4	4.0861e-06	1.6714e-06	1234.6	250.09	1.3552e-06	3.0241e-06	313.66	87.652	68.613	20.111	6.1437e-06	28.268	9.654e-05	9.4897e-05	2.6356e-05	964.83	1.0468e-06	1.034e-06	1146.9	231.7	1.0524e-06	1.0478e-06	279.73	80.409	62.286	18.714	1.0305e-06	25.822	-32.004	288.936	40.526	-56.956	106.568	-37.350	-56.610	-49.825	61.961	68.380	-50.187	-43.541	-42.996	-36.563	118.015	-36.876	-8191	255	
394.349	1	1	0	0	0.082859	0.2413	0.20938	0.26164	0.33187	0.41871	0.23496	0.051925	0.16012	0.16451	0.075139	0.10869	0.19701	0.22281	0.40512	0.1335	-2.6792	-2.5208	-2.7062	-2.7875	-2.4771	-2.7521	-2.7604	-2.7167	-2.9313	-2.4417	-2.7833	-2.8563	-2.5771	-2.7979	-2.55	-2.5687	-56.756	180.704	261.645	-42.594	265.103	61.566	244.750	44.305	280.722	-29.930	35.120	202.067	141.881	42.233	218.403	-24.610	0.0002872	0.00022697	0.00010297	1161.7	2.6289e-06	1.9446e-06	1233.8	250.31	4.3663e-06	2.1426e-06	314.86	88.07	68.647	20.083	3.7017e-06	28.277	9.6048e-05	9.423e-05	2.6298e-05	964.09	1.0256e-06	1.0066e-06	1148.4	232.01	1.0211e-06	1.0173e-06	279.04	80.455	62.244	18.693	1.0187e-06	25.851	288.673	15.499	37.898	-57.216	138.415	-30.825	-56.812	-49.879	78.509	239.668	-50.073	-43.602	-43.071	-36.506	245.617	-37.119	-8191	255	
394.469	1	1	0	0	0.16017	0.11554	0.24194	0.15531	0.12503	0.094354	0.14896	0.16361	0.097307	0.12467	0.12414	0.24387	0.079549	0.23122	0.2122	0.088674	-2.5187	-2.4854	-2.7021	-2.8521	-2.6312	-2.7562	-2.775	-2.7896	-2.7646	-2.5333	-2.7313	-2.8583	-2.6146	-2.9938	-2.9083	-2.4833	131.737	183.398	-43.187	234.196	287.756	-9.482	13.221	264.678	234.418	271.644	214.777	138.020	271.381	-38.132	97.436	183.828	0.00021278	0.00023326	7.4751e-05	1164.7	3.7121e-06	5.5499e-06	1236.4	248.75	3.3745e-06	3.1038e-06	315.33	88.269	68.565	20.062	3.4403e-06	28.309	9.5771e-05	9.4677e-05	2.5972e-05	966.74	1.0292e-06	1.0182e-06	1149.5	231.59	1.0268e-06	1.0174e-06	279.71	80.379	62.277	18.677	1.0206e-06	25.846	-66.880	-10.418	49.212	-56.569	81.003	-50.353	-56.627	-49.651	261.355	-7.174	-50.149	-43.600	-43.036	-36.408	284.831	-37.185	-8191	255	
394.566	1	1	0	0	0.21126	0.075266	0.1554	0.146	0.18881	0.38143	0.1459	0.13858	0.078638	0.11865	0.1817	0.21839	0.14685	0.20969	0.10777	0.1038	-2.3646	-2.6708	-2.6437	-3.0563	-2.5	-3.0208	-2.8937	-2.6437	-2.8104	-2.5062	-2.8146	-3.0354	-2.6729	-2.775	-2.7354	-2.6583	248.807	26.427	168.251	165.640	125.362	-64.832	-27.588	222.177	152.499	-66.736	290.940	234.778	67.266	-48.658	-36.465	207.966	0.00021683	0.00020221	0.00012145	1161.5	1.4755e-06	2.5904e-06	1235.1	248.88	2.1471e-06	1.5719e-06	314.47	87.772	68.271	20.126	2.6202e-06	28.197	9.5282e-05	9.2242e-05	2.5915e-05	964.65	1.0208e-06	1.0103e-06	1148.6	231.9	1.0247e-06	1.0188e-06	279.45	80.57	62.148	18.742	1.0268e-06	25.82	-61.158	-0.085	-4.387	-57.170	54.800	11.661	-56.664	-49.705	275.235	28.601	-49.959	-43.418	-43.094	-36.532	88.664	-36.792	-8191	255	
394.662	1	1	0	0	0.10881	0.12027	0.26554	0.25555	0.27538	0.080968	0.13116	0.071473	0.28437	0.18983	0.16334	0.066767	0.08882	0.27254	0.12185	0.12097	-2.6042	-2.6021	-2.5333	-2.9042	-2.8583	-2.7917	-3.0438	-2.9396	-2.7958	-2.7604	-2.5187	-2.8604	-2.6063	-2.6771	-2.7167	-2.6417	155.224	-15.185	81.480	277.857	-40.754	47.382	194.309	236.410	-24.606	118.070	1.693	-24.141	167.312	-13.972	217.527	254.181	0.00020326	0.00018859	0.00010205	1165.2	1.4768e-07	3.2884e-06	1231.9	249.48	9.7267e-07	2.0117e-06	313.63	88.132	68.978	20.131	3.3616e-06	28.532	9.5394e-05	9.2666e-05	2.6003e-05	965.52	1.0154e-06	1.0076e-06	1147.4	231.56	1.0248e-06	1.012e-06	279.15	80.464	62.279	18.677	1.0107e-06	25.969	-22.032	54.688	22.328	-57.015	148.833	219.618	-56.555	-49.832	-29.716	97.891	-50.185	-43.732	-42.931	-36.674	-67.529	-36.614	-8191	255	
394.781	1	1	0	0	0.077153	0.14679	0.308	0.073611	0.21673	0.091697	0.28846	0.032612	0.14498	0.080574	0.18743	0.20658	0.12817	0.29904	0.24334	0.33904	-2.3958	-2.6729	-2.4833	-2.8958	-2.8125	-2.7208	-2.8479	-2.6833	-2.7042	-2.8625	-2.625	-2.9771	-2.7	-2.7	-2.9958	-2.5604	-35.959	94.913	150.047	191.052	29.067	216.621	219.431	177.769	-39.402	85.261	170.976	186.437	226.264	222.094	57.551	164.905	0.00025201	0.00023961	3.4121e-05	1166.7	2.0006e-06	6.7722e-06	1230.4	249.24	6.0138e-06	4.6458e-06	312.12	87.777	68.887	20.076	6.9932e-06	28.315	9.409e-05	9.2319e-05	2.5964e-05	965.18	9.9524e-07	9.8776e-07	1145.4	231.7	9.9562e-07	9.9188e-07	278.64	80.197	62.087	18.679	1.0132e-06	25.835	-37.874	49.541	204.653	-57.383	80.117	79.058	-56.803	-49.715	-3.738	91.761	-50.074	-43.184	-43.262	-36.707	18.319	-36.968	-8191	255	
394.852	1	1	0	0	0.11824	0.12631	0.14087	0.17587	0.098496	0.32854	0.12241	0.31413	0.056074	0.35469	0.27826	0.14988	0.21146	0.12741	0.19616	0.28547	-2.1312	-2.7062	-2.5333	-3.0167	-2.5875	-2.7188	-3.0292	-2.7833	-2.7542	-2.6937	-2.5542	-2.8354	-2.8229	-2.5375	-2.8333	-2.3771	-14.239	18.239	-0.257	78.628	192.479	-36.409	261.739	286.867	234.126	280.122	166.976	116.174	181.731	176.409	-24.037	224.721	0.00012153	0.00011163	0.00020907	1154.6	8.8303e-07	1.9561e-06	1228.8	250.15	8.7038e-07	2.0985e-06	313.66	88.119	68.742	20.051	3.2019e-06	28.477	9.317e-05	9.1482e-05	2.5551e-05	962.31	1.0133e-06	9.9789e-07	1145.8	231.66	1.0082e-06	1.0102e-06	278.98	80.434	62.355	18.685	1.0046e-06	25.857	292.179	24.951	-33.615	-57.052	138.110	-16.949	-56.523	-49.713	178.921	55.080	-50.486	-43.228	-43.174	-36.623	29.346	-36.934	-8191	255	
394.950	1	1	0	0	0.14617	0.068651	0.079359	0.099285	0.23742	0.078381	0.21033	0.020837	0.16156	0.086008	0.33178	0.17771	0.22094	0.10081	0.099419	0.16492	-2.3312	-2.7646	-2.4979	-2.8979	-2.7396	-2.6417	-3.0042	-2.8021	-2.6146	-2.8125	-2.6646	-2.8583	-2.9375	-2.4958	-2.7896	-2.7833	131.332	-60.861	9.439	270.800	33.323	147.226	192.473	115.078	-12.225	208.140	-66.175	-66.162	-41.818	73.815	45.321	278.629	0.00018042	0.00030151	0.00010238	1158.6	2.3724e-06	1.7571e-06	1229	248.78	2.8176e-06	5.2254e-06	313.84	88.524	68.823	20.186	2.011e-06	28.4	9.4108e-05	9.2741e-05	2.5675e-05	962.73	1.0205e-06	1.0045e-06	1145.5	231.65	1.019e-06	1.0075e-06	279.54	80.55	62.193	18.726	1.0053e-06	25.847	-43.886	48.286	-25.211	-57.013	67.960	164.346	-56.772	-49.733	97.651	89.733	-50.128	-43.420	-42.791	-36.739	51.303	-36.893	-8191	255	
395.069	1	1	0	0	0.10606	0.26198	0.078222	0.17759	0.27924	0.19664	0.23395	0.086443	0.12134	0.17524	0.22052	0.42178	0.28016	0.11352	0.12489	0.3372	-2.4125	-2.7875	-2.6167	-2.6396	-2.7521	-2.4333	-3.0604	-2.7542	-2.5708	-2.7708	-2.5417	-2.8604	-2.7687	-2.4146	-3.0042	-2.6063	259.357	147.846	162.125	255.881	-12.055	86.835	289.469	5.414	38.539	96.673	258.779	-37.936	-40.163	244.062	290.185	172.483	0.00024278	0.00028529	7.9573e-05	1167.9	4.1433e-06	8.8328e-07	1231.9	248.84	3.4447e-06	1.5034e-06	314.49	88.108	68.557	20.149	1.8999e-06	28.341	9.3844e-05	9.1464e-05	2.5634e-05	964.57	9.9298e-07	9.8934e-07	1147	231.31	1.0037e-06	9.9293e-07	279.7	80.324	62.007	18.702	9.8444e-07	25.876	-41.500	91.363	-40.268	-57.220	130.427	216.576	-56.785	-49.580	227.063	-23.522	-50.062	-43.499	-43.556	-36.525	61.153	-37.095	-8191	255	
395.165	1	1	0	0	0.075748	0.11894	0.17123	0.056781	0.33596	0.28948	0.15542	0.10828	0.1615	0.25219	0.25762	0.15651	0.21054	0.20615	0.22177	0.16194	-2.0687	-3.025	-2.5917	-2.8583	-2.7479	-2.6229	-3.1521	-2.7313	-2.6646	-2.95	-2.5708	-2.7229	-2.9333	-2.4854	-2.9979	-2.7354	-27.124	198.774	231.897	148.192	53.758	-62.112	243.056	242.734	131.713	-7.442	281.084	-41.670	279.110	287.715	203.263	233.617	0.00014535	0.00020573	6.832e-05	1155.6	2.1027e-06	4.7325e-06	1234.4	249.33	2.797e-06	2.3333e-06	313.66	87.96	69.227	20.244	9.1247e-07	28.307	9.2829e-05	9.2196e-05	2.5923e-05	961.98	1.0022e-06	1.0071e-06	1145.7	231.9	1.0118e-06	1.0061e-06	279.34	80.524	62.471	18.701	9.9736e-07	25.874	-39.508	-14.444	23.801	-56.688	-35.882	65.580	-56.904	-49.409	37.584	80.285	-49.876	-43.241	-43.036	-36.428	13.694	-36.738	-8191	255	
395.261	1	1	0	0	0.49009	0.23771	0.19455	0.14909	0.11422	0.25223	0.20097	0.14854	0.15541	0.43218	0.14476	0.073182	0.31691	0.11855	0.094377	0.04114	-2.1292	-2.9062	-2.5	-2.5604	-2.825	-2.5	-2.9437	-2.8708	-2.6042	-2.8625	-2.5771	-2.5125	-2.9271	-2.5875	-2.8458	-3.0021	-36.269	103.932	-0.807	194.025	82.135	108.968	252.447	23.381	115.449	141.639	61.750	191.814	26.969	223.890	64.036	14.615	0.00021677	0.00031994	7.2604e-05	1166.6	2.9926e-06	1.9046e-06	1238.4	248.75	2.1245e-06	3.9164e-06	312.99	87.745	68.884	20.151	2.1729e-06	28.345	9.3917e-05	9.0784e-05	2.5049e-05	963.76	9.9268e-07	9.963e-07	1147.7	231.29	1.0024e-06	9.9238e-07	278.7	80.362	62.148	18.708	9.9428e-07	25.876	-5.545	32.877	15.677	-56.961	150.507	47.155	-56.797	-49.878	-4.679	-8.255	-50.098	-43.141	-42.710	-36.600	44.224	-36.686	-8191	255	
395.382	1	1	0	0	0.14031	0.02694	0.084113	0.18178	0.053693	0.23062	0.22641	0.2601	0.14126	0.14634	0.15135	0.25235	0.27876	0.13433	0.18381	0.11828	-2.1208	-2.8396	-2.5896	-2.6208	-2.9375	-2.7	-2.85	-3	-2.825	-2.7729	-2.7542	-2.5708	-2.9583	-2.4604	-2.7625	-2.75	-47.483	238.282	42.588	142.506	9.629	-8.266	238.240	166.711	202.842	177.368	180.809	22.741	278.766	257.080	102.771	79.633	0.00021341	0.00020488	0.00010333	1164.4	1.3013e-06	1.9032e-06	1234.5	249.17	3.2528e-06	2.8908e-06	314.53	88.421	69.037	20.168	3.9644e-06	28.319	9.3018e-05	9.0524e-05	2.5115e-05	963.42	9.8658e-07	9.7911e-07	1147.5	231.81	9.9911e-07	9.7958e-07	279.25	80.438	62.139	18.684	9.7673e-07	25.861	-51.096	-44.955	-4.852	-56.831	86.215	57.007	-56.639	-49.800	85.444	83.193	-50.303	-43.504	-42.931	-36.500	24.684	-37.136	-8191	255	
395.454	1	1	0	0	0.19858	0.25133	0.24948	0.056841	0.15037	0.2159	0.032841	0.25579	0.35926	0.17638	0.12242	0.1251	0.15591	0.26771	0.41306	0.11712	-2.1021	-2.875	-2.6646	-2.4938	-2.8396	-2.7542	-2.9104	-2.8458	-2.5458	-2.9188	-2.6854	-2.6375	-2.8063	-2.7	-2.8125	-2.9479	254.799	-54.505	-30.250	215.333	-32.749	186.434	273.872	196.810	103.875	137.412	205.084	283.000	260.592	32.158	74.464	169.176	0.00021336	0.00014089	0.00011617	1155.5	4.6144e-06	2.0397e-06	1238.9	250.26	3.8878e-06	2.7705e-06	312.95	87.844	68.464	20.12	3.8414e-06	28.246	9.1803e-05	8.9616e-05	2.4917e-05	960.88	9.9297e-07	9.7876e-07	1147.7	231.86	9.9935e-07	9.8667e-07	279.34	80.338	62.239	18.646	1.0015e-06	25.883	257.287	-27.164	20.869	-56.611	106.425	93.345	-56.850	-49.749	64.585	104.298	-50.095	-43.650	-43.020	-36.544	29.289	-37.049	-8191	255	
395.550	1	1	0	0	0.05608	0.063397	0.083835	0.18139	0.28613	0.13956	0.21331	0.16568	0.25136	0.13156	0.12608	0.29722	0.11741	0.061957	0.32551	0.14905	-2.0771	-2.9062	-2.6375	-2.5792	-3.0062	-2.575	-2.8729	-2.8667	-2.5646	-2.7521	-2.6937	-2.5771	-2.8063	-2.8792	-2.6562	-2.9875	74.094	-56.272	136.193	-18.614	87.126	210.380	260.877	-2.359	224.425	88.053	189.656	248.797	262.292	199.960	115.929	-1.104	0.00021966	0.00026011	5.2505e-05	1162.4	2.6763e-06	3.268e-06	1234.7	249.57	3.2395e-06	1.0388e-06	312.95	88.145	68.401	20.118	4.6021e-06	28.305	9.3697e-05	9.1122e-05	2.5757e-05	966.82	1.0099e-06	1.0046e-06	1148	231.69	1.0145e-06	1.0169e-06	279.48	80.503	62.022	18.69	1.0105e-06	25.838	278.650	-15.981	237.083	-57.286	6.142	57.032	-56.390	-49.648	72.878	128.935	-50.266	-43.468	-42.834	-36.186	54.733	-36.781	-8191	255	
395.646	1	1	0	0	0.14207	0.047056	0.090068	0.1771	0.13201	0.25369	0.20499	0.091814	0.13515	0.1321	0.32236	0.16353	0.19192	0.18201	0.38187	0.004979	-2.1542	-2.8146	-2.7604	-2.55	-2.925	-2.5187	-2.7687	-2.9667	-2.4458	-2.7042	-2.6104	-2.5229	-2.7104	-2.8104	-2.7771	-2.75	119.503	251.375	-18.678	267.289	4.974	92.079	215.726	-44.655	168.383	176.807	40.989	28.667	-57.944	224.472	184.567	-52.432	0.0002336	0.00021146	3.0014e-05	1156.9	1.8258e-06	1.9522e-06	1232.8	250.9	4.4438e-06	3.5721e-06	314.16	87.518	69.112	20.259	1.1358e-06	28.326	9.3772e-05	9.2506e-05	2.5712e-05	962.21	9.985e-07	1.0089e-06	1147.1	232.09	1.018e-06	1.0066e-06	279.67	80.27	62.307	18.738	1.0186e-06	25.902	-29.494	101.344	-39.707	-56.909	39.214	85.344	-56.592	-49.905	45.574	49.181	-49.918	-43.537	-43.000	-36.519	46.551	-36.862	-8191	255	
395.742	1	1	0	0	0.14603	0.35211	0.11175	0.15577	0.097605	0.090707	0.23647	0.13303	0.26323	0.1858	0.12247	0.17481	0.16289	0.2085	0.3436	0.14377	-1.9188	-2.5062	-2.7375	-2.4646	-2.5625	-2.6562	-2.6646	-2.9062	-2.4875	-2.8896	-2.8604	-2.5417	-2.8187	-2.825	-2.5479	-2.7792	45.752	-60.876	28.351	-64.399	-65.704	75.804	210.173	-55.684	57.600	231.998	111.501	212.617	-31.628	-18.174	31.416	76.489	0.00019818	0.00013386	1.7902e-05	1165.4	6.1381e-06	1.3649e-06	1234.5	250.58	1.9771e-06	4.7314e-06	315.04	88.146	68.805	20.07	5.6368e-06	28.37	9.495e-05	9.2868e-05	2.5964e-05	964.86	1.0018e-06	1.0009e-06	1147.1	231.89	1.0086e-06	9.893e-07	280.03	80.474	62.212	18.658	1.0079e-06	25.921	-11.351	57.658	186.384	-56.495	89.933	-60.990	-56.636	-49.691	105.577	46.213	-50.170	-43.375	-42.758	-36.306	120.569	-37.083	-8191	255	
395.861	1	1	0	0	0.2624	0.13481	0.061594	0.0096055	0.12776	0.14597	0.21556	0.15269	0.11596	0.061235	0.094977	0.060471	0.21251	0.030956	0.16786	0.089697	-2.0917	-2.4833	-2.8	-2.5479	-2.6125	-2.8563	-2.7229	-2.875	-2.5833	-2.6688	-3.0125	-2.6083	-2.6521	-2.6833	-2.45	-2.8458	239.867	186.767	227.172	40.150	-62.889	-58.287	283.225	282.022	241.687	-21.444	-60.212	165.090	-50.495	77.007	250.179	208.501	0.00010544	2.9443e-05	8.7129e-05	1157.8	1.6276e-06	2.3598e-06	1234.2	250.36	4.2641e-06	6.4782e-06	315.06	87.57	68.789	20.128	2.8995e-06	28.125	9.3946e-05	9.1447e-05	2.5798e-05	965.64	1.0032e-06	1.0142e-06	1148.2	232.15	1.0094e-06	1.003e-06	279.34	80.343	62.199	18.682	1.0153e-06	25.818	-41.825	92.211	-41.613	-56.773	60.930	50.354	-56.586	-49.766	23.419	56.710	-50.679	-43.791	-42.945	-36.246	9.748	-37.229	-8191	255	
395.957	1	1	0	0	0.033144	0.2247	0.095032	0.25779	0.1917	0.27133	0.22937	0.19043	0.33343	0.062153	0.14878	0.30066	0.13626	0.026727	0.077413	0.32535	-1.9875	-2.3917	-2.8375	-2.6417	-2.7146	-2.7313	-2.6604	-2.8833	-2.7208	-2.8542	-2.7896	-2.6875	-2.5917	-2.7167	-2.7375	-2.7625	44.744	207.291	82.189	291.920	278.699	113.013	212.425	265.019	6.743	94.721	195.205	-32.454	210.813	77.789	116.683	158.738	0.00010925	0.00024286	5.1506e-05	1156	2.7491e-06	3.526e-06	1235.7	249.68	2.2611e-06	1.9891e-06	313.07	88.064	69.001	19.972	3.4792e-06	28.408	9.4376e-05	9.3465e-05	2.5521e-05	964.71	1.0202e-06	1.0008e-06	1147.7	231.83	1.0139e-06	1.0129e-06	279.52	80.523	62.318	18.654	1.0179e-06	25.922	-61.455	20.424	191.341	-56.791	82.661	89.938	-56.636	-49.528	123.017	33.948	-50.264	-43.422	-42.944	-36.189	108.043	-36.764	-8191	255	
396.053	1	1	0	0	0.35765	0.2074	0.095183	0.13403	0.17062	0.1119	0.1529	0.15995	0.39526	0.20296	0.34066	0.22382	0.2119	0.075664	0.13478	0.28143	-2.3167	-2.5729	-2.7292	-2.6396	-2.5292	-2.8708	-2.6271	-2.7625	-2.4833	-2.6896	-3.0583	-2.5646	-2.5271	-2.8667	-2.6292	-2.8917	230.752	246.801	5.410	292.220	10.122	-14.699	220.581	114.122	9.581	196.487	269.302	182.404	126.223	40.936	30.223	72.820	0.00030502	0.00032743	9.1261e-05	1165.6	1.0001e-06	4.9322e-06	1237.7	249.46	1.785e-06	3.3409e-06	314	87.485	68.587	20.143	1.0438e-06	28.248	9.575e-05	9.4657e-05	2.5855e-05	964.94	1.0194e-06	1.0146e-06	1149.8	231.81	1.014e-06	1.0124e-06	280.35	80.318	62.313	18.713	1.0168e-06	25.892	-28.094	33.921	-55.963	-57.158	78.911	64.952	-56.748	-49.615	17.696	-17.294	-50.159	-43.651	-43.010	-36.266	-31.953	-36.761	-8191	255	
396.149	1	1	0	0	0.1511	0.25479	0.20395	0.35551	0.12182	0.064551	0.16047	0.15914	0.046803	0.024995	0.20031	0.12921	0.15363	0.17617	0.17996	0.11471	-2.3063	-2.6437	-2.7938	-2.7438	-2.6937	-2.8688	-2.6958	-2.8771	-2.9292	-2.4417	-2.9	-2.8542	-2.7188	-2.8583	-2.8104	-2.7729	109.568	263.821	144.838	-24.870	71.154	44.122	258.200	267.544	-44.898	35.338	209.942	-8.279	220.604	8.195	-41.040	235.815	0.00019893	0.00014029	7.674e-05	1157.4	1.5705e-06	1.3058e-06	1230.5	250.24	4.4944e-07	4.9e-06	314.63	88.104	68.61	20.093	1.6742e-06	28.375	9.6522e-05	9.4177e-05	2.6022e-05	965.02	1.0242e-06	1.0253e-06	1147.5	232.22	1.0451e-06	1.0237e-06	280.32	80.553	62.28	18.668	1.039e-06	25.906	-49.122	-19.169	74.858	-56.987	114.122	153.897	-56.689	-49.863	-15.447	87.811	-50.078	-43.284	-43.210	-36.399	64.991	-37.433	-8191	255	
396.244	1	1	0	0	0.050334	0.073359	0.066856	0.22704	0.2386	0.17263	0.12656	0.12299	0.18966	0.28431	0.26311	0.28808	0.085877	0.036084	0.10302	0.038543	-2.4021	-2.6688	-2.8833	-2.7271	-2.5833	-2.8917	-2.9292	-2.8021	-2.7333	-2.6021	-2.7771	-2.6833	-2.5583	-2.9125	-2.6917	-2.8	-49.138	130.007	5.748	224.735	220.974	-4.346	-16.023	174.224	10.266	23.910	171.181	171.391	-5.125	139.756	-64.443	198.780	0.00037782	0.00033472	9.4361e-05	1157.4	3.9292e-06	3.3187e-06	1231.3	250.15	3.4443e-06	1.9651e-06	314.9	88.035	68.814	20.276	2.4595e-06	28.445	9.7558e-05	9.4767e-05	2.6383e-05	966.14	1.0426e-06	1.0329e-06	1149.3	232.49	1.0588e-06	1.0427e-06	280.7	80.731	62.483	18.79	1.0515e-06	25.95	292.161	276.451	-16.652	-57.098	92.391	22.151	-56.668	-49.851	87.998	20.305	-50.090	-43.258	-43.311	-36.292	133.303	-37.135	-8191	255	
396.342	1	1	0	0	0.35	0.2798	0.26854	0.079391	0.22942	0.13303	0.062114	0.25651	0.24374	0.17227	0.18555	0.18417	0.045942	0.090893	0.083862	0.19847	-2.4854	-2.6146	-2.8208	-2.8229	-2.5521	-2.9667	-2.9708	-2.6521	-2.8854	-2.6146	-2.8583	-2.9396	-2.6583	-2.8479	-2.8042	-2.6396	255.724	264.284	-9.456	288.144	3.726	30.636	25.257	183.731	133.326	35.588	-60.474	248.450	-60.231	114.844	-51.864	87.465	0.00030633	0.00019432	4.058e-05	1165.6	2.5032e-06	8.413e-07	1237.3	251.84	1.7352e-06	3.2826e-06	314.49	87.83	68.74	20.125	6.5699e-07	28.395	9.7838e-05	9.5263e-05	2.6229e-05	967.93	1.0513e-06	1.0322e-06	1151.1	232.98	1.0569e-06	1.0529e-06	280.48	80.722	62.502	18.777	1.0595e-06	25.99	-64.169	-33.693	58.910	-56.808	59.290	-21.087	-56.837	-49.818	-40.172	55.594	-50.100	-43.383	-42.866	-36.840	-25.854	-36.746	-8191	255	
396.461	1	1	0	0	0.1158	0.047982	0.085284	0.41112	0.15994	0.067152	0.0027033	0.035111	0.057333	0.23708	0.24146	0.20832	0.022856	0.10375	0.013691	0.096368	-2.4813	-2.4708	-2.7979	-2.7958	-2.5604	-2.9542	-2.925	-2.6271	-2.9375	-2.6792	-2.8583	-3.0667	-2.6771	-2.8146	-2.6917	-2.5458	-35.984	23.640	56.644	-61.641	214.808	-6.087	12.480	-67.298	5.686	139.966	195.067	26.729	218.385	268.127	49.740	203.232	0.0004381	0.00047318	0.00014061	1164.1	4.1048e-06	5.2835e-06	1236.9	250.78	3.0006e-06	1.0419e-06	313.9	88.33	69.403	20.204	2.6218e-06	28.485	9.7926e-05	9.65e-05	2.6824e-05	969.6	1.0612e-06	1.0482e-06	1153.3	233.13	1.0855e-06	1.0582e-06	281.03	80.944	62.651	18.799	1.0614e-06	25.952	292.166	14.833	-3.639	-56.990	82.476	21.012	-56.640	-49.622	212.602	-19.087	-50.349	-43.539	-43.098	-36.472	28.606	-37.293	-8191	255	
#DATA ENDS
