BOXY.EXE: ISS Imagent and Oximeter Data Acquisition Program Version 0.80
Ascii Record File

#ACQ INFORMATION
2  Detector Channels 
16  External MUX Channels 
1  Auxiliary Channels 
5000  Waveform (CCF) Frequency (Hz)
1  Waveforms Skipped 
30  Waveforms Averaged 
1  Cycles Averaged 
16  Acquisitions per Waveform 
10.0806  Updata Rate (Hz) 

#FILE INFORMATION
TRUE -- External MUX Channel results are PARSED.
FALSE -- AC DC and Phase are NOT grouped.
TRUE -- Companion Program Settings File CREATED.
FALSE -- AC data not excluded
FALSE -- DC data not excluded
FALSE -- Phase data not excluded
FALSE -- Auxillary Chn. data not excluded
Tab delimiters

#CALIBRATION STATE
TRUE -- Waveform Calibration Values APPLIED.


#AUX CALIBRATION VALUES
Val Type	aux-1	

Term	1.0000e+00	
Factor	0.0000e+00	


#WF CALIBRATION VALUES
A = Detector Channel
Val Type	A-AC1	A-AC2	A-AC3	A-AC4	A-AC5	A-AC6	A-AC7	A-AC8	A-AC9	A-AC10	A-AC11	A-AC12	A-AC13	A-AC14	A-AC15	A-AC16	A-DC1	A-DC2	A-DC3	A-DC4	A-DC5	A-DC6	A-DC7	A-DC8	A-DC9	A-DC10	A-DC11	A-DC12	A-DC13	A-DC14	A-DC15	A-DC16	A-Ph1	A-Ph2	A-Ph3	A-Ph4	A-Ph5	A-Ph6	A-Ph7	A-Ph8	A-Ph9	A-Ph10	A-Ph11	A-Ph12	A-Ph13	A-Ph14	A-Ph15	A-Ph16	

Term	0.00000e+00	0.00000e+00	0.00000e+00	0.00000e+00	0.00000e+00	0.00000e+00	0.00000e+00	0.00000e+00	0.00000e+00	0.00000e+00	0.00000e+00	0.00000e+00	0.00000e+00	0.00000e+00	0.00000e+00	0.00000e+00	0.00000e+00	0.00000e+00	0.00000e+00	0.00000e+00	0.00000e+00	0.00000e+00	0.00000e+00	0.00000e+00	0.00000e+00	0.00000e+00	0.00000e+00	0.00000e+00	0.00000e+00	0.00000e+00	0.00000e+00	0.00000e+00	0.00000e+00	0.00000e+00	0.00000e+00	0.00000e+00	0.00000e+00	0.00000e+00	0.00000e+00	0.00000e+00	0.00000e+00	0.00000e+00	0.00000e+00	0.00000e+00	0.00000e+00	0.00000e+00	0.00000e+00	0.00000e+00	
Factor	1.00000e+00	1.00000e+00	1.00000e+00	1.00000e+00	1.00000e+00	1.00000e+00	1.00000e+00	1.00000e+00	1.00000e+00	1.00000e+00	1.00000e+00	1.00000e+00	1.00000e+00	1.00000e+00	1.00000e+00	1.00000e+00	1.00000e+00	1.00000e+00	1.00000e+00	1.00000e+00	1.00000e+00	1.00000e+00	1.00000e+00	1.00000e+00	1.00000e+00	1.00000e+00	1.00000e+00	1.00000e+00	1.00000e+00	1.00000e+00	1.00000e+00	1.00000e+00	X	X	X	X	X	X	X	X	X	X	X	X	X	X	X	X	

B = Detector Channel
Val Type	B-AC1	B-AC2	B-AC3	B-AC4	B-AC5	B-AC6	B-AC7	B-AC8	B-AC9	B-AC10	B-AC11	B-AC12	B-AC13	B-AC14	B-AC15	B-AC16	B-DC1	B-DC2	B-DC3	B-DC4	B-DC5	B-DC6	B-DC7	B-DC8	B-DC9	B-DC10	B-DC11	B-DC12	B-DC13	B-DC14	B-DC15	B-DC16	B-Ph1	B-Ph2	B-Ph3	B-Ph4	B-Ph5	B-Ph6	B-Ph7	B-Ph8	B-Ph9	B-Ph10	B-Ph11	B-Ph12	B-Ph13	B-Ph14	B-Ph15	B-Ph16	

Term	0.00000e+00	0.00000e+00	0.00000e+00	0.00000e+00	0.00000e+00	0.00000e+00	0.00000e+00	0.00000e+00	0.00000e+00	0.00000e+00	0.00000e+00	0.00000e+00	0.00000e+00	0.00000e+00	0.00000e+00	0.00000e+00	0.00000e+00	0.00000e+00	0.00000e+00	0.00000e+00	0.00000e+00	0.00000e+00	0.00000e+00	0.00000e+00	0.00000e+00	0.00000e+00	0.00000e+00	0.00000e+00	0.00000e+00	0.00000e+00	0.00000e+00	0.00000e+00	2.70886e+01	-1.47570e+02	-1.59823e+02	-1.87769e+02	-7.16749e+01	-1.02766e+02	-1.57019e+02	-1.62015e+02	-1.01898e+02	-8.89711e+01	-1.73571e+02	-1.72116e+02	-1.82981e+02	-1.77625e+02	-1.07765e+02	-1.50887e+02	
Factor	4.90076e-05	9.02078e-05	2.72429e-05	5.41330e-01	1.00772e-06	1.22008e-06	1.72070e-01	5.71424e-02	1.21130e-06	1.00603e-06	1.10401e-01	3.27385e-02	3.12637e-02	9.63839e-03	1.14382e-06	1.41262e-02	4.51512e-07	4.55847e-07	1.26572e-07	2.20301e-01	4.97833e-09	4.98109e-09	7.62968e-02	2.65919e-02	4.98129e-09	4.97910e-09	4.73171e-02	1.42145e-02	1.38173e-02	4.35854e-03	4.97014e-09	6.06963e-03	X	X	X	X	X	X	X	X	X	X	X	X	X	X	X	X	



#DISTANCE SETTINGS
A = Detector Channel
A-1	A-2	A-3	A-4	A-5	A-6	A-7	A-8	A-9	A-10	A-11	A-12	A-13	A-14	A-15	A-16	

2.5000e+00	3.0000e+00	2.5000e+00	3.0000e+00	2.0000e+00	3.0000e+00	1.5000e+00	3.0000e+00	3.0000e+00	3.0000e+00	3.0000e+00	3.0000e+00	3.0000e+00	3.0000e+00	1.5000e+00	3.0000e+00	

B = Detector Channel
B-1	B-2	B-3	B-4	B-5	B-6	B-7	B-8	B-9	B-10	B-11	B-12	B-13	B-14	B-15	B-16	

1.0000e+01	1.0000e+01	1.0000e+01	1.4400e+00	1.0000e+01	1.0000e+01	1.5100e+00	1.9400e+00	1.0000e+01	1.0000e+01	1.9900e+00	2.4900e+00	2.4100e+00	2.9000e+00	1.0000e+01	2.9800e+00	




#DATA BEGINS
time	group	step	mark	flag	A-AC1	A-AC2	A-AC3	A-AC4	A-AC5	A-AC6	A-AC7	A-AC8	A-AC9	A-AC10	A-AC11	A-AC12	A-AC13	A-AC14	A-AC15	A-AC16	A-DC1	A-DC2	A-DC3	A-DC4	A-DC5	A-DC6	A-DC7	A-DC8	A-DC9	A-DC10	A-DC11	A-DC12	A-DC13	A-DC14	A-DC15	A-DC16	A-Ph1	A-Ph2	A-Ph3	A-Ph4	A-Ph5	A-Ph6	A-Ph7	A-Ph8	A-Ph9	A-Ph10	A-Ph11	A-Ph12	A-Ph13	A-Ph14	A-Ph15	A-Ph16	B-AC1	B-AC2	B-AC3	B-AC4	B-AC5	B-AC6	B-AC7	B-AC8	B-AC9	B-AC10	B-AC11	B-AC12	B-AC13	B-AC14	B-AC15	B-AC16	B-DC1	B-DC2	B-DC3	B-DC4	B-DC5	B-DC6	B-DC7	B-DC8	B-DC9	B-DC10	B-DC11	B-DC12	B-DC13	B-DC14	B-DC15	B-DC16	B-Ph1	B-Ph2	B-Ph3	B-Ph4	B-Ph5	B-Ph6	B-Ph7	B-Ph8	B-Ph9	B-Ph10	B-Ph11	B-Ph12	B-Ph13	B-Ph14	B-Ph15	B-Ph16	aux-1	digaux	

1065.446	1	1	0	512	0.05872	0.24384	0.087115	0.25494	0.10032	0.10066	0.1354	0.066204	0.21346	0.14199	0.19237	0.18348	0.083965	0.1448	0.074606	0.10212	-2.1625	-2.5396	-2.3688	-2.8229	-2.2604	-2.6625	-2.825	-2.3708	-2.6667	-2.7208	-2.4604	-2.5208	-2.4813	-2.5958	-2.6813	-2.3229	450.857	155.098	332.333	307.035	372.035	415.289	368.087	489.162	162.659	227.579	416.235	336.829	474.987	277.264	298.727	274.402	0.00075244	0.00011933	6.2195e-05	536.99	1.1189e-06	1.2251e-06	750.91	135.61	3.0609e-06	1.0649e-06	220.14	54.697	29.13	13.144	1.8595e-06	28.046	6.9168e-05	6.5353e-05	1.8288e-05	451.44	7.2209e-07	7.0783e-07	696.35	125.73	7.1118e-07	7.2941e-07	194.04	49.755	26.807	12.14	7.1304e-07	24.969	352.516	306.542	442.819	160.600	455.300	293.241	159.740	165.199	266.645	459.127	163.272	169.522	170.513	176.863	189.586	174.491	-8191	255	
1065.544	1	1	0	0	0.30528	0.13128	0.079986	0.20113	0.25477	0.10841	0.11793	0.056512	0.566	0.04152	0.12516	0.41765	0.15549	0.080735	0.32167	0.2235	-2.0792	-2.5375	-2.3708	-2.6208	-2.4271	-2.4854	-2.7208	-2.3021	-2.6813	-2.8854	-2.3354	-2.825	-2.6042	-2.425	-2.7458	-2.5792	360.083	332.835	341.798	344.157	244.959	406.446	423.013	204.754	307.897	391.165	338.746	475.237	304.670	322.873	410.682	339.162	0.00072929	0.00024826	7.7834e-05	537.24	1.4297e-06	2.4578e-06	754.65	136.31	2.8241e-06	3.9127e-06	220.54	55.239	29.348	13.215	1.4807e-06	28.265	6.9094e-05	6.5978e-05	1.8077e-05	455.57	7.1718e-07	7.1338e-07	699.56	126.11	7.2298e-07	7.105e-07	195.07	49.97	26.833	12.223	7.0535e-07	25.213	343.120	241.839	465.848	160.634	350.148	270.672	159.878	165.414	242.942	248.115	163.253	169.383	170.570	177.311	262.896	174.753	-8191	255	
1065.638	1	1	0	0	0.23201	0.054477	0.07721	0.27822	0.21556	0.022319	0.15356	0.15557	0.05171	0.082418	0.42634	0.31981	0.065931	0.06291	0.16422	0.068156	-2.1896	-2.7062	-2.4375	-2.6583	-2.5104	-2.4521	-2.8104	-2.5979	-2.5417	-2.8625	-2.375	-2.6146	-2.5396	-2.4625	-2.6146	-2.5917	333.541	328.720	391.699	267.606	209.173	422.757	376.335	431.106	400.015	212.894	274.982	175.317	476.491	151.358	433.723	323.160	0.00088738	7.4421e-05	3.8732e-05	532.56	1.5175e-06	3.5755e-06	750.54	136.39	5.2406e-06	1.1583e-06	220.74	55.4	29.327	13.068	1.0138e-06	27.657	7.0565e-05	6.5421e-05	1.801e-05	452.83	7.1246e-07	7.2304e-07	698.99	126.22	7.153e-07	7.1632e-07	194.69	50.012	27	12.086	7.0194e-07	24.689	349.437	273.285	192.511	160.769	494.583	292.885	159.686	165.077	265.638	443.344	163.026	169.524	171.000	176.538	267.196	174.791	-8191	255	
1065.734	1	1	0	0	0.10018	0.1154	0.12092	0.19924	0.15631	0.1316	0.34742	0.18186	0.075336	0.21635	0.33657	0.53792	0.25668	0.21558	0.10663	0.04492	-1.9208	-2.6354	-2.4333	-2.6188	-2.4313	-2.5229	-2.7646	-2.5292	-2.4688	-2.8375	-2.25	-2.5042	-2.5187	-2.2042	-2.5146	-2.3063	430.383	417.963	442.855	470.169	412.657	264.558	147.824	400.686	369.481	351.625	503.081	227.730	209.225	336.021	160.349	435.523	0.00079973	0.00030617	5.7047e-05	530.08	8.0398e-08	2.3539e-06	751.36	136.38	2.2857e-06	2.7257e-06	220.58	54.977	29.39	13.059	1.797e-06	27.883	6.9544e-05	6.4825e-05	1.7972e-05	452.8	7.0586e-07	7.1085e-07	698.55	126.31	7.1089e-07	7.0273e-07	195.01	49.743	26.957	12.119	7.1181e-07	24.905	349.228	292.161	498.192	160.939	479.230	224.836	159.623	165.128	298.477	309.254	163.238	169.860	170.202	177.003	393.020	174.803	-8191	255	
1065.831	1	1	0	0	0.091197	0.11553	0.20245	0.092752	0.25088	0.17921	0.13404	0.27873	0.20355	0.17714	0.10856	0.13846	0.099804	0.042676	0.096257	0.10109	-2.2062	-2.6708	-2.4188	-2.4437	-2.6021	-2.2271	-2.7729	-2.4062	-2.4208	-2.7021	-2.4729	-2.6042	-2.5458	-2.3792	-2.7854	-2.7188	170.370	267.981	203.526	379.275	154.070	367.673	482.333	463.454	429.437	190.275	186.039	441.360	505.283	344.238	313.294	265.456	0.00087201	0.00014485	4.5449e-05	536	3.0103e-06	2.7785e-06	752.19	136.55	2.3421e-06	2.9704e-06	220.07	55.171	29.406	13.122	2.1732e-06	28.233	6.9636e-05	6.5511e-05	1.8223e-05	454.36	7.1645e-07	7.1078e-07	698.54	126.05	7.1554e-07	7.0586e-07	195.13	49.975	26.891	12.163	7.156e-07	25.187	344.325	267.505	480.127	160.685	309.443	294.603	159.601	164.958	276.850	287.017	163.391	169.603	170.391	177.007	231.703	174.470	-8191	255	
1065.951	1	1	0	0	0.13708	0.17854	0.042165	0.16846	0.1166	0.1994	0.25387	0.15328	0.12761	0.12536	0.13937	0.163	0.16481	0.26544	0.30701	0.21618	-2.0375	-2.7583	-2.4542	-2.5604	-2.6542	-2.1833	-2.5	-2.5708	-2.4396	-2.8333	-2.4688	-2.4396	-2.8063	-2.2729	-2.4292	-2.3396	252.005	422.475	185.734	448.401	466.791	410.660	405.422	237.454	214.628	275.630	436.289	285.788	281.468	157.647	282.719	395.854	0.00071937	0.00013391	4.8828e-05	533.52	2.1278e-06	3.8423e-06	752.31	136.48	3.0458e-06	2.1545e-06	220.02	55.145	29.626	13.181	1.8471e-06	27.707	6.9598e-05	6.5585e-05	1.8329e-05	455.13	7.1318e-07	7.0878e-07	698.63	126.04	7.2204e-07	7.0594e-07	195.37	49.98	26.947	12.103	7.0308e-07	24.843	345.216	189.690	408.481	160.945	313.164	352.820	159.607	164.902	273.523	248.192	163.483	169.567	170.736	177.295	446.418	174.668	-8191	255	
1066.047	1	1	0	0	0.33318	0.14052	0.094248	0.17847	0.096485	0.26161	0.29574	0.12334	0.19016	0.26077	0.16183	0.052279	0.10905	0.13254	0.17174	0.17221	-1.9792	-2.5792	-2.3625	-2.45	-2.5083	-2.3208	-2.525	-2.7313	-2.45	-2.7146	-2.6958	-2.3542	-2.5646	-2.4104	-2.5146	-2.6458	307.360	437.664	427.194	241.431	312.936	292.445	441.214	470.202	412.549	166.229	449.498	421.557	322.131	435.035	422.697	313.232	0.00078469	0.00022637	6.875e-05	543.38	2.0427e-06	3.5616e-06	751.98	136.55	2.8198e-06	2.1083e-06	222.63	55.566	29.121	13.032	1.448e-06	27.578	6.8755e-05	6.4547e-05	1.7863e-05	456.66	7.0264e-07	7.0594e-07	699.94	126.58	7.2012e-07	7.0409e-07	195.79	49.797	26.794	12.019	7.1532e-07	24.591	351.086	209.654	164.394	160.541	401.317	214.739	159.503	165.083	293.090	262.197	163.045	169.229	170.387	176.973	411.134	174.974	-8191	255	
1066.144	1	1	0	0	0.055897	0.08277	0.17136	0.33419	0.14198	0.40633	0.044459	0.35141	0.19572	0.11589	0.10706	0.065292	0.31863	0.38718	0.11828	0.11609	-1.9771	-2.6729	-2.4	-2.4938	-2.6479	-2.3896	-2.6375	-2.5917	-2.4458	-2.8167	-2.6208	-2.3021	-2.6167	-2.5333	-2.5687	-2.7646	479.583	317.021	198.303	440.030	373.568	419.120	266.116	474.654	364.818	396.752	161.454	203.135	464.688	411.996	370.198	387.731	0.00069718	0.00026594	0.00010938	537.87	1.5526e-06	3.2209e-06	754.5	137.99	3.2135e-06	1.7916e-06	220.61	55.144	29.166	13.009	2.5898e-06	27.948	6.8345e-05	6.4622e-05	1.8046e-05	457.82	7.0233e-07	6.9598e-07	700.42	126.88	7.2e-07	6.9333e-07	195.88	49.911	26.859	12.033	7.1889e-07	24.863	346.741	237.758	177.669	160.536	315.001	271.583	159.592	165.153	268.382	322.641	163.288	169.578	170.554	177.039	311.005	174.925	-8191	255	
1066.240	1	1	0	0	0.1865	0.13487	0.19974	0.12716	0.15641	0.068565	0.083554	0.024386	0.12079	0.1879	0.12433	0.18617	0.16457	0.086552	0.13514	0.03279	-1.9188	-2.7812	-2.5687	-2.3583	-2.6729	-2.4854	-2.5354	-2.7521	-2.25	-2.7438	-2.5563	-2.3583	-2.8312	-2.2396	-2.3812	-2.7188	293.835	337.283	441.383	442.802	484.844	492.240	506.294	195.699	164.004	286.333	291.924	258.856	208.995	364.921	154.274	281.740	0.00073807	0.00033107	8.1608e-05	539.94	1.6802e-06	2.8852e-06	754.94	137.07	1.5478e-06	3.2524e-06	223.03	55.681	29.109	13.032	4.2499e-07	28.128	6.9167e-05	6.4951e-05	1.8028e-05	456.3	7.1326e-07	7.0453e-07	703.23	126.82	7.0839e-07	7.0037e-07	196.55	50.166	26.875	12.084	7.1669e-07	25.024	340.959	261.588	211.366	160.377	247.440	215.397	159.515	165.006	180.221	289.022	162.935	169.454	170.738	177.076	288.980	175.012	-8191	255	
1066.336	1	1	0	0	0.11106	0.15657	0.26034	0.12644	0.031148	0.065708	0.15461	0.12943	0.33517	0.3495	0.04287	0.079927	0.052542	0.090814	0.091415	0.21717	-1.8396	-2.5042	-2.4833	-2.2708	-2.6792	-2.4333	-2.4396	-2.6979	-2.3937	-2.5146	-2.5542	-2.4542	-2.7146	-2.5333	-2.5396	-2.6792	219.794	292.201	245.327	366.740	312.736	383.074	367.120	461.437	168.703	337.587	281.923	166.086	243.550	264.869	364.730	167.080	0.00068979	0.00017832	6.2453e-05	535.98	3.0702e-06	1.521e-06	754.73	137.06	9.3667e-07	1.5116e-06	222.02	55.132	29.496	12.891	2.0046e-06	27.323	6.9068e-05	6.4637e-05	1.7797e-05	454.99	7.0481e-07	7.0897e-07	700.91	126.88	7.0773e-07	6.9532e-07	196.04	49.726	26.889	11.924	7.1323e-07	24.427	350.679	233.466	260.280	161.205	256.027	384.239	159.642	165.231	221.506	481.366	163.407	169.317	170.489	176.937	303.669	174.487	-8191	255	
1066.432	1	1	0	0	0.19218	0.12084	0.14978	0.10207	0.22717	0.21223	0.12372	0.16237	0.16614	0.11137	0.17113	0.11191	0.18059	0.35507	0.19632	0.15101	-1.9375	-2.4667	-2.4562	-2.2917	-2.7417	-2.5104	-2.35	-2.775	-2.5604	-2.5083	-2.6625	-2.4396	-2.6937	-2.6	-2.4083	-2.7104	332.455	194.584	326.462	176.232	311.564	236.945	453.583	469.842	302.145	389.604	480.091	238.604	394.485	462.876	443.624	415.257	0.00079191	0.00024399	8.0188e-05	536.43	1.99e-06	1.4421e-06	757.82	137.17	2.8472e-06	3.2184e-06	222.32	55.107	29.082	12.935	3.1166e-06	27.433	6.7884e-05	6.3875e-05	1.7736e-05	456.27	6.9513e-07	7.0668e-07	703.03	127.01	6.9869e-07	7.0151e-07	196.6	49.764	26.811	11.928	7.0436e-07	24.575	344.413	252.001	246.050	160.677	288.088	278.883	159.839	165.027	242.268	277.781	163.188	169.566	170.513	177.337	308.977	174.387	-8191	255	
1066.551	1	1	0	0	0.17205	0.02569	0.11966	0.092912	0.098291	0.093116	0.068207	0.12827	0.063381	0.07082	0.14038	0.2863	0.12908	0.040072	0.12855	0.31857	-2.0062	-2.5354	-2.6979	-2.4583	-2.5958	-2.5875	-2.3271	-2.5708	-2.3958	-2.4979	-2.8271	-2.4542	-2.5896	-2.5354	-2.4313	-2.6958	150.187	178.400	423.483	249.396	275.932	461.712	193.310	321.558	419.779	435.892	252.659	458.298	314.830	469.532	432.291	472.371	0.00072032	6.3668e-05	3.5411e-05	538.06	1.7021e-06	6.6491e-07	757.92	137.75	3.6918e-06	3.8492e-06	222.87	55.439	29.484	12.853	2.4648e-06	27.752	6.7642e-05	6.5066e-05	1.7883e-05	456.07	7.0158e-07	6.9996e-07	704.72	127.2	6.9706e-07	6.9634e-07	197.04	49.724	26.92	11.928	7.0719e-07	24.745	343.326	321.855	494.434	160.559	253.890	372.005	159.589	165.017	274.340	367.629	163.359	169.648	170.243	177.035	340.850	174.903	-8191	255	
1066.647	1	1	0	0	0.16361	0.18111	0.090641	0.16547	0.16907	0.24118	0.27602	0.092294	0.09299	0.12826	0.14177	0.09208	0.20014	0.17321	0.072992	0.31634	-1.9479	-2.5083	-2.5687	-2.3375	-2.2542	-2.5708	-2.4896	-2.7083	-2.6521	-2.4938	-2.8042	-2.4458	-2.7062	-2.6292	-2.3958	-2.4437	455.500	284.974	203.474	443.912	450.281	287.905	495.139	148.469	269.433	403.481	225.498	294.995	468.765	255.743	499.549	321.835	0.00077145	0.00018641	4.2768e-05	536.69	2.5838e-06	3.219e-06	761.51	138.3	3.1232e-06	2.6375e-06	223.29	54.861	29.269	12.749	4.031e-06	27.222	6.8896e-05	6.4347e-05	1.7822e-05	456.56	7.0421e-07	7.0228e-07	706.09	127.86	7.0077e-07	7.0819e-07	197.24	49.594	26.854	11.835	6.8879e-07	24.317	347.740	177.903	234.427	160.902	373.566	242.833	159.452	165.225	203.313	220.941	162.813	169.275	170.118	177.384	316.811	174.431	-8191	255	
1066.743	1	1	0	0	0.13131	0.10872	0.075254	0.13571	0.10443	0.2592	0.18477	0.11367	0.24753	0.19864	0.35972	0.068375	0.15647	0.19319	0.15205	0.2993	-2.1	-2.5229	-2.6646	-2.4208	-2.5146	-2.6333	-2.4188	-2.6917	-2.5646	-2.3521	-2.7521	-2.6958	-2.3083	-2.6229	-2.4271	-2.7583	180.431	236.140	342.954	222.749	478.245	490.492	500.988	261.340	260.924	277.910	504.308	432.677	436.729	425.653	363.642	405.250	0.0007932	0.00022295	7.8628e-05	540.66	8.8357e-07	2.0002e-06	757.03	138.12	4.595e-06	2.8066e-07	222.22	54.715	29.151	12.806	2.6562e-06	27.364	6.8613e-05	6.4335e-05	1.7874e-05	458.15	6.9895e-07	6.9788e-07	703.66	127.42	6.9643e-07	7.0416e-07	196.53	49.585	26.729	11.83	7.029e-07	24.437	337.930	259.428	186.573	160.420	369.036	318.341	159.649	164.751	288.879	424.441	163.382	169.240	170.194	177.038	324.947	174.781	-8191	255	
1066.815	1	1	0	0	0.24597	0.28703	0.11786	0.20134	0.17315	0.13584	0.09497	0.02748	0.16963	0.3237	0.19227	0.2155	0.24472	0.11381	0.2017	0.29437	-2.1917	-2.1583	-2.7042	-2.4354	-2.4896	-2.7167	-2.5417	-2.5312	-2.6354	-2.3	-2.7979	-2.5938	-2.3771	-2.6792	-2.3688	-2.5875	414.851	318.629	438.736	391.579	339.080	198.555	459.417	328.476	226.521	436.178	165.330	419.632	369.587	400.539	367.857	205.433	0.00068782	0.00017446	2.0106e-05	536.36	2.5834e-06	1.0912e-06	754.26	138.41	4.4576e-06	2.2455e-06	222	55.239	29.122	12.902	3.0253e-06	27.728	6.8372e-05	6.43e-05	1.7611e-05	456.7	6.8846e-07	6.9595e-07	703.58	127.56	7.0944e-07	7.0005e-07	196.5	49.691	26.782	11.896	7.0658e-07	24.747	339.845	185.171	163.648	160.585	228.489	253.993	159.504	164.814	213.321	290.134	163.386	169.428	170.868	177.116	357.120	174.355	-8191	255	
1066.935	1	1	0	0	0.1321	0.30233	0.10855	0.16037	0.087301	0.09802	0.21707	0.15915	0.32477	0.11495	0.097394	0.088672	0.015971	0.15754	0.17552	0.067131	-2.1729	-2.4083	-2.6375	-2.4667	-2.5979	-2.7667	-2.4562	-2.475	-2.6146	-2.4021	-2.7812	-2.6	-2.2167	-2.7583	-2.5687	-2.4188	395.990	434.597	270.394	352.269	400.456	272.575	423.294	272.697	272.788	242.427	471.904	180.687	419.423	501.383	316.902	506.558	0.00080257	0.00014758	6.8988e-05	540.51	3.0727e-06	2.3016e-06	761.95	138.28	2.5185e-06	1.0496e-06	221.63	55.178	29.076	12.913	3.227e-06	27.705	6.791e-05	6.3872e-05	1.805e-05	458.86	7.0555e-07	7.0462e-07	706.8	127.33	7.0996e-07	6.99e-07	196.75	49.638	26.863	11.935	6.9875e-07	24.707	338.999	168.648	407.718	160.850	268.392	468.411	159.588	165.181	247.921	336.149	163.167	169.561	171.069	177.455	241.854	174.301	-8191	255	
1067.032	1	1	0	0	0.12899	0.19854	0.12641	0.18194	0.1303	0.26847	0.14859	0.095735	0.14013	0.12648	0.069847	0.048245	0.096931	0.19592	0.040507	0.16303	-2.1437	-2.2917	-2.4188	-2.5229	-2.3646	-2.6208	-2.4479	-2.5146	-2.8063	-2.3542	-2.6083	-2.5938	-2.2625	-2.5042	-2.6271	-2.5271	389.906	298.437	371.328	419.984	229.095	286.117	437.145	170.371	448.132	478.368	467.046	398.413	483.593	216.881	376.818	380.059	0.00077754	0.0001482	4.9857e-05	536.92	1.3768e-06	4.35e-06	759.98	137.63	3.1914e-06	3.9061e-06	222.34	54.652	29.299	12.799	4.7719e-07	27.331	6.8129e-05	6.4063e-05	1.7685e-05	457.1	6.9743e-07	6.9808e-07	704.69	127.34	6.9771e-07	6.9989e-07	196.32	49.536	26.877	11.845	6.9201e-07	24.408	351.524	186.804	224.038	160.680	399.593	232.434	159.680	165.094	213.714	324.271	163.350	169.304	170.260	177.092	353.896	174.569	-8191	255	
1067.128	1	1	0	0	0.097668	0.063892	0.16206	0.13433	0.053153	0.01354	0.34568	0.31564	0.10883	0.22463	0.072796	0.15404	0.15117	0.2313	0.11316	0.095753	-2.3042	-2.3833	-2.6042	-2.4771	-2.4646	-2.675	-2.5292	-2.3104	-2.6479	-2.2687	-2.6333	-2.5354	-2.2729	-2.7271	-2.5208	-2.3167	302.846	235.306	332.499	430.780	284.746	463.268	453.299	284.534	268.703	394.433	279.895	457.553	226.830	467.972	195.497	283.122	0.00056548	9.7757e-05	6.3662e-05	537.94	1.1747e-06	1.7192e-06	755.71	137.89	2.6464e-06	1.9566e-06	221.7	54.719	29.497	12.88	3.4828e-06	27.627	6.764e-05	6.398e-05	1.7688e-05	457.97	6.9987e-07	6.9027e-07	702.77	127.35	7.1257e-07	6.9807e-07	196.32	49.686	26.886	11.925	7.0072e-07	24.666	350.241	221.024	153.674	161.515	344.344	286.729	159.670	165.091	194.734	278.528	163.331	169.287	170.361	176.859	208.453	175.121	-8191	255	
1067.224	1	1	0	0	0.34785	0.13036	0.11051	0.23537	0.16951	0.14972	0.20742	0.18442	0.090536	0.069693	0.24265	0.17445	0.18279	0.25883	0.091732	0.061122	-2.3563	-2.2854	-2.6896	-2.6396	-2.2687	-2.7313	-2.6562	-2.5333	-2.5312	-2.3958	-2.4417	-2.725	-2.3937	-2.5854	-2.7188	-2.4458	494.226	248.351	240.185	147.270	183.335	474.211	469.030	484.950	370.559	247.761	152.585	506.053	482.927	170.291	292.893	459.518	0.00071514	6.7799e-05	4.1751e-05	542.23	1.9208e-06	1.6526e-06	757.35	137.59	3.8178e-06	2.2774e-06	222.38	55.189	29.27	12.974	2.3787e-06	27.853	6.8104e-05	6.4797e-05	1.7718e-05	459.6	7.0612e-07	6.9368e-07	704.7	127.27	7.0198e-07	6.9842e-07	197.18	49.94	26.834	12.016	7.0309e-07	24.979	345.030	230.549	453.825	160.201	263.895	270.280	159.423	164.970	261.194	230.174	162.896	168.770	170.795	177.517	178.889	174.779	-8191	255	
1067.345	1	1	0	0	0.049905	0.022409	0.089045	0.20562	0.20547	0.34506	0.081952	0.055604	0.23795	0.14053	0.34907	0.075283	0.33258	0.2094	0.042134	0.049886	-2.2854	-2.3396	-2.4229	-2.7979	-2.3521	-2.5417	-2.7771	-2.3646	-2.8417	-2.3812	-2.3271	-2.5062	-2.2812	-2.5417	-2.5563	-2.3479	406.240	156.555	422.630	451.254	331.792	313.286	494.343	459.286	264.124	260.167	402.318	148.045	494.920	442.822	220.928	215.357	0.00062955	0.0001076	7.213e-05	537.85	1.1689e-06	2.1157e-06	756.97	137.33	3.2476e-06	1.99e-06	221.7	54.853	29.372	12.922	4.1968e-07	27.494	6.8145e-05	6.4102e-05	1.7884e-05	457	7.002e-07	7.0042e-07	703.97	127.17	6.9783e-07	7.0259e-07	196.94	49.576	26.819	11.882	6.9543e-07	24.548	342.873	431.923	258.680	160.664	183.444	370.161	159.640	165.205	295.583	225.720	163.204	169.325	170.381	177.368	300.623	174.482	-8191	255	
1067.416	1	1	0	0	0.161	0.21382	0.040875	0.13077	0.43645	0.17126	0.055945	0.13327	0.081409	0.05527	0.088249	0.21438	0.16162	0.2938	0.12517	0.16999	-2.1562	-2.4646	-2.3771	-2.6542	-2.4146	-2.5938	-2.9437	-2.3542	-2.4896	-2.3875	-2.5312	-2.7667	-2.3937	-2.5417	-2.7313	-2.4479	193.970	429.555	168.490	263.654	390.993	324.067	473.645	311.321	337.487	337.063	304.517	154.402	279.847	292.178	336.820	369.880	0.00082383	0.00010321	3.7604e-05	541.08	1.5049e-06	1.875e-06	757.36	138.27	3.7967e-06	1.7585e-06	224.34	55.037	29.551	12.872	1.0532e-06	27.78	6.7362e-05	6.3763e-05	1.7789e-05	457.87	6.9667e-07	6.9475e-07	705.22	127.65	6.9262e-07	6.8937e-07	197.78	49.614	26.907	11.914	7.0833e-07	24.739	349.117	200.857	190.010	160.384	218.547	320.031	159.600	165.000	244.267	282.637	163.392	169.152	171.189	176.867	404.653	174.415	-8191	255	
1067.512	1	1	0	0	0.066373	0.072627	0.090499	0.13966	0.045572	0.14935	0.28025	0.26682	0.065287	0.092023	0.20857	0.01677	0.094192	0.19834	0.058779	0.12221	-2.3812	-2.4979	-2.15	-2.9458	-2.5396	-2.6813	-2.675	-2.4	-2.7146	-2.4104	-2.3604	-2.6875	-2.5583	-2.3521	-2.7667	-2.45	362.705	282.729	362.340	201.773	378.487	187.211	446.531	442.259	230.262	180.727	225.126	491.775	256.598	165.397	504.424	206.073	0.0006834	0.00016047	3.9458e-05	537.84	3.4685e-07	6.5289e-07	759.5	137.94	3.7216e-06	5.4022e-07	223.65	55.356	29.409	12.955	2.6311e-06	28.229	6.6599e-05	6.4536e-05	1.7729e-05	458.28	6.8965e-07	6.9284e-07	706.32	127.76	6.9473e-07	6.8716e-07	197.85	50.009	26.92	11.979	7.0423e-07	25.062	345.855	253.286	202.232	161.026	407.273	207.396	159.759	164.673	236.059	188.775	163.255	169.820	170.595	177.175	267.054	174.776	-8191	255	
1067.631	1	1	0	0	0.21248	0.12958	0.25221	0.24329	0.17936	0.12549	0.25768	0.28683	0.21772	0.070179	0.053318	0.27192	0.098945	0.040359	0.049687	0.33098	-2.1688	-2.4938	-2.2479	-2.65	-2.5083	-2.3604	-2.8104	-2.4208	-2.3312	-2.5917	-2.4833	-2.4979	-2.5438	-2.2229	-2.8646	-2.4562	196.172	484.674	287.221	456.926	212.615	254.764	184.769	434.153	229.317	205.569	426.809	410.211	404.732	497.212	496.224	411.281	0.00065536	0.00025628	6.9325e-05	536.93	2.2539e-06	1.1124e-06	763.92	138.93	1.1984e-06	1.6109e-06	224.59	55.199	29.819	12.87	1.689e-06	27.813	6.7835e-05	6.4489e-05	1.7475e-05	457.86	6.9401e-07	6.9992e-07	708.32	128.02	6.9956e-07	6.8976e-07	198.06	49.868	27.035	11.953	6.9234e-07	24.876	351.461	245.632	484.734	160.716	317.003	206.093	159.449	165.169	298.221	290.555	163.346	169.506	170.497	177.192	216.705	174.716	-8191	255	
1067.727	1	1	0	0	0.08668	0.12354	0.13913	0.11421	0.16299	0.20822	0.25784	0.10389	0.0897	0.13073	0.12978	0.047372	0.29543	0.41834	0.13189	0.069572	-2.05	-2.6354	-2.3042	-2.6521	-2.5812	-2.4146	-2.6646	-2.4167	-2.4833	-2.4979	-2.6292	-2.6896	-2.7271	-2.2729	-2.5104	-2.4896	237.102	407.855	188.477	298.237	493.777	428.844	157.913	220.305	206.442	354.083	154.799	300.665	264.783	347.212	299.594	174.317	0.00077798	9.3971e-05	8.7415e-05	543.14	1.4571e-06	2.2479e-06	762.17	138.43	2.6926e-06	7.2688e-07	224.51	55.074	29.168	12.799	1.9788e-06	27.737	6.8277e-05	6.2611e-05	1.7581e-05	459.21	6.8404e-07	6.833e-07	706.94	127.61	6.9011e-07	6.8093e-07	197.66	49.738	26.876	11.849	6.9069e-07	24.754	341.916	244.664	469.305	160.704	304.584	267.198	159.568	165.120	341.335	310.426	162.710	169.424	170.131	177.361	257.571	174.537	-8191	255	
1067.824	1	1	0	0	0.45209	0.13634	0.13368	0.159	0.10025	0.01879	0.30155	0.22789	0.069728	0.28214	0.1019	0.10109	0.18558	0.16787	0.27097	0.17192	-1.9292	-2.8771	-2.3417	-2.5833	-2.5458	-2.4146	-2.8354	-2.3917	-2.3667	-2.8229	-2.4021	-2.5062	-2.6063	-2.2583	-2.6271	-2.4729	404.146	220.579	416.078	244.511	380.600	309.497	465.838	452.455	371.441	150.515	370.765	500.401	303.340	177.021	255.491	471.140	0.00088488	0.00024649	7.7377e-05	541.77	4.027e-06	2.1829e-06	767.86	138.24	1.4833e-06	3.418e-06	222.72	55.24	29.573	12.836	6.7154e-07	28.235	6.7574e-05	6.282e-05	1.7691e-05	459.45	6.9213e-07	6.9407e-07	710.82	127.98	6.8984e-07	6.9656e-07	197.97	49.874	26.927	11.883	6.8982e-07	25.009	346.164	220.922	293.194	160.942	231.471	259.111	159.577	165.054	347.565	332.337	163.329	169.204	170.529	177.281	328.137	174.553	-8191	255	
1067.944	1	1	0	0	0.1513	0.27245	0.12735	0.054522	0.12004	0.11689	0.10179	0.15046	0.18442	0.15483	0.12465	0.12475	0.17759	0.10624	0.20157	0.021952	-1.9792	-2.6688	-2.5812	-2.4562	-2.6583	-2.4562	-2.6917	-2.5187	-2.4229	-2.8354	-2.6	-2.5187	-2.5812	-2.4062	-2.7812	-2.4458	433.573	311.385	381.098	371.443	498.764	382.570	442.215	214.223	224.373	273.449	266.690	276.923	459.652	492.691	283.873	405.234	0.0007406	0.00022042	1.9508e-05	542.74	2.174e-07	2.8512e-06	768.82	140.11	2.4897e-06	9.3406e-07	227.8	54.803	29.495	12.676	3.2493e-06	27.871	6.6946e-05	6.3955e-05	1.7376e-05	459.27	6.9277e-07	6.9275e-07	711.51	128.58	6.982e-07	6.9008e-07	199.54	49.834	26.924	11.802	6.8712e-07	24.932	344.013	277.413	250.012	160.834	208.580	271.129	159.509	165.137	275.044	177.316	163.259	169.398	170.441	177.146	252.691	174.809	-8191	255	
1068.040	1	1	0	0	0.28915	0.1226	0.18408	0.14734	0.082078	0.1104	0.13305	0.18138	0.29396	0.068411	0.28141	0.30833	0.10199	0.14665	0.38755	0.18729	-2.0521	-2.7146	-2.5521	-2.5646	-2.8396	-2.475	-2.7292	-2.6833	-2.3375	-2.7542	-2.4792	-2.5708	-2.7938	-2.5604	-2.6396	-2.5771	431.924	250.735	488.187	176.249	231.469	400.666	349.019	368.285	253.481	486.466	403.978	490.756	382.897	327.463	297.264	472.038	0.00067361	0.00026647	2.7251e-05	542.55	1.5925e-06	4.0093e-06	767.04	139.18	3.7005e-06	9.4913e-07	226.92	55.388	29.305	12.688	1.3828e-06	27.747	6.7436e-05	6.3164e-05	1.7359e-05	460.35	6.7986e-07	6.8381e-07	712.25	128.48	6.8899e-07	6.8891e-07	199.05	49.691	26.945	11.745	6.8708e-07	24.694	336.205	427.917	222.787	160.583	385.549	186.188	159.617	164.859	241.887	307.212	163.384	169.126	170.574	177.175	403.801	174.790	-8191	255	
1068.112	1	1	0	0	0.061833	0.20916	0.18351	0.14819	0.27351	0.054691	0.28686	0.2241	0.089914	0.037701	0.14423	0.021651	0.061878	0.19037	0.16528	0.18156	-1.9438	-2.825	-2.3333	-2.2979	-2.6979	-2.4958	-2.7667	-2.4646	-2.1729	-2.5938	-2.35	-2.4375	-2.5083	-2.5083	-2.4146	-2.8708	243.579	227.209	407.401	384.772	367.325	367.751	493.518	406.974	196.725	207.082	335.239	293.074	164.329	220.027	353.600	427.508	0.00078735	0.0001396	2.041e-05	540.48	3.3148e-06	3.8225e-07	766.37	138.11	3.8459e-06	3.6817e-06	225.08	55.287	29.26	13.043	1.9118e-06	27.872	6.6417e-05	6.3189e-05	1.756e-05	460.7	6.9196e-07	6.9034e-07	709.76	128.23	6.9727e-07	6.8188e-07	199.29	49.888	26.955	11.908	6.8988e-07	24.833	338.787	180.063	503.465	160.616	184.093	298.619	159.801	164.924	232.390	252.998	163.330	169.339	170.591	176.499	272.094	175.104	-8191	255	
1068.208	1	1	0	0	0.092672	0.10471	0.19043	0.088687	0.089122	0.083609	0.28311	0.27157	0.13668	0.24119	0.082376	0.13438	0.22795	0.18088	0.16303	0.171	-1.7646	-2.6562	-2.4354	-2.3312	-2.5875	-2.5312	-2.5708	-2.4521	-2.2792	-2.5062	-2.5042	-2.3875	-2.6042	-2.3125	-2.4188	-2.7708	491.536	230.161	189.828	468.857	379.630	256.213	410.859	457.731	285.674	152.233	337.905	384.016	505.705	199.058	272.387	330.821	0.00082367	5.7963e-05	8.6796e-05	541.2	2.4605e-06	2.7695e-06	770.96	140.52	1.2015e-06	1.4547e-06	226.88	55.5	29.666	12.722	1.4356e-06	27.938	6.7122e-05	6.2741e-05	1.7527e-05	460.4	6.8764e-07	6.8951e-07	716.02	129.23	6.9863e-07	6.9522e-07	200.84	50.14	27.041	11.832	6.9857e-07	25.001	354.918	439.502	236.577	160.435	326.578	188.954	159.836	164.960	477.975	236.943	163.250	169.416	170.895	176.721	279.087	175.108	-8191	255	
1068.329	1	1	0	0	0.12251	0.069851	0.14199	0.0065297	0.3686	0.075389	0.055164	0.087116	0.18579	0.06261	0.058992	0.14919	0.16403	0.059351	0.16217	0.093557	-2.0667	-2.625	-2.5208	-2.4604	-2.6083	-2.3833	-2.4479	-2.7979	-2.45	-2.3271	-2.6771	-2.2583	-2.7833	-2.6437	-2.2	-2.8125	238.460	358.004	224.617	309.882	454.995	221.913	388.874	504.653	505.443	338.791	267.462	264.014	154.437	239.821	378.406	249.189	0.00069393	0.00014721	3.4497e-05	545.51	3.9214e-06	3.6155e-06	772.79	140.81	2.5237e-06	1.3858e-06	226.36	55.791	29.705	12.706	1.6223e-06	27.564	6.7597e-05	6.285e-05	1.7571e-05	461.58	6.8665e-07	6.9342e-07	715.96	129.62	6.9125e-07	6.9017e-07	200.68	49.966	27.163	11.7	6.8701e-07	24.556	354.177	168.869	329.006	160.927	309.807	300.477	159.696	164.904	263.482	335.093	163.255	169.018	170.312	177.376	176.559	174.672	-8191	255	
1068.423	1	1	0	0	0.066684	0.095781	0.092229	0.18173	0.12718	0.20956	0.14272	0.0014762	0.27693	0.56061	0.23353	0.2078	0.093864	0.091166	0.15418	0.047302	-1.8896	-2.2896	-2.6437	-2.2667	-2.4708	-2.4979	-2.3667	-2.5354	-2.4625	-2.5271	-2.5875	-2.375	-2.4938	-2.5979	-2.2896	-2.8937	497.032	444.404	296.017	501.242	324.085	152.423	306.174	180.000	473.103	247.903	387.741	501.505	262.313	360.465	452.252	397.892	0.00076882	7.3579e-05	6.0923e-05	550.1	1.1279e-06	2.2995e-06	770.42	140.2	1.577e-06	1.0388e-06	227.36	55.488	29.955	12.606	1.1497e-06	27.767	6.6254e-05	6.2593e-05	1.7394e-05	461.57	6.8865e-07	6.8534e-07	715.17	129.35	6.8607e-07	6.9555e-07	201.31	49.904	27.177	11.665	7.0166e-07	24.63	350.024	488.839	249.634	160.514	269.151	162.470	159.575	165.101	274.580	263.114	163.288	169.268	170.461	177.272	253.949	174.553	-8191	255	
1068.519	1	1	0	0	0.067871	0.07257	0.088695	0.15537	0.23103	0.094393	0.20635	0.245	0.29664	0.15704	0.12482	0.17534	0.18897	0.067748	0.17143	0.14666	-1.9958	-2.4562	-2.7083	-2.3229	-2.7458	-2.5792	-2.4437	-2.7521	-2.2792	-2.5604	-2.6771	-2.4104	-2.625	-2.6458	-2.2667	-2.6833	384.513	261.297	368.687	246.190	493.664	341.310	438.605	148.727	267.997	357.720	201.661	368.384	492.145	405.522	311.057	425.503	0.00075734	0.00029602	4.2395e-05	549.64	1.9259e-06	1.9769e-06	770.88	140.31	2.5791e-07	1.9062e-06	228.76	55.756	29.629	12.709	2.0534e-06	27.934	6.7681e-05	6.3549e-05	1.7216e-05	463.16	6.8442e-07	6.8207e-07	716.36	129.85	6.9595e-07	6.8599e-07	201.74	50.22	27.242	11.783	6.9795e-07	24.905	342.172	264.203	372.785	160.710	330.031	268.760	159.772	165.100	306.264	451.386	163.265	169.485	170.691	177.238	209.432	174.804	-8191	255	
1068.615	1	1	0	0	0.089101	0.29977	0.22384	0.22104	0.23858	0.044125	0.2865	0.11392	0.18266	0.24857	0.15607	0.26368	0.20271	0.07312	0.096421	0.18347	-1.9958	-2.6354	-2.7667	-2.3208	-2.5021	-2.6708	-2.5021	-2.7979	-2.4792	-2.4646	-2.9458	-2.5146	-2.6042	-2.5521	-2.2729	-2.7229	413.043	188.957	468.272	496.862	440.946	242.079	485.045	308.194	503.923	318.631	450.102	398.032	495.818	183.882	241.601	216.583	0.0006948	0.00027674	3.5412e-05	546.79	1.806e-06	3.349e-06	771.92	139.97	4.0677e-06	1.5842e-06	227.52	55.257	29.676	12.786	3.5314e-06	27.864	6.7277e-05	6.3121e-05	1.7516e-05	461.9	6.9036e-07	6.9118e-07	716.85	129.47	6.996e-07	6.9496e-07	201.33	50.182	27.232	11.866	6.9839e-07	24.895	353.080	209.829	188.418	160.887	162.886	259.434	159.502	165.226	223.044	306.990	163.169	169.566	169.871	176.981	197.441	174.263	-8191	255	
1068.712	1	1	0	0	0.096211	0.081677	0.16411	0.24127	0.22997	0.1119	0.16928	0.23149	0.15843	0.13564	0.096504	0.15162	0.10785	0.092323	0.069642	0.20081	-2.0854	-2.3521	-2.6917	-2.375	-2.35	-2.7958	-2.4667	-2.5563	-2.5583	-2.3604	-2.7333	-2.4292	-2.4729	-2.6896	-2.4062	-2.6188	248.123	359.666	328.587	247.854	381.737	381.930	397.819	436.904	221.040	293.786	400.951	156.166	462.822	482.767	490.302	383.289	0.00071067	0.00024257	6.9124e-05	547.47	3.16e-06	6.8646e-07	761.67	139.24	3.5443e-06	9.2866e-07	226.99	55.095	29.867	12.715	2.1368e-06	27.57	6.8071e-05	6.3952e-05	1.7582e-05	460.42	6.9828e-07	6.9258e-07	711.25	128.8	6.9241e-07	6.8921e-07	200.67	49.851	27.24	11.756	6.8917e-07	24.634	352.562	445.336	206.982	161.241	278.933	304.901	159.724	164.963	257.191	157.104	163.133	169.528	169.946	176.925	254.191	174.409	-8191	255	
1068.808	1	1	0	0	0.17194	0.14965	0.075819	0.18229	0.22886	0.055531	0.39944	0.16858	0.40293	0.24759	0.065205	0.030788	0.18965	0.17739	0.11064	0.11397	-2.1792	-2.2792	-2.6271	-2.4146	-2.5042	-2.7646	-2.4542	-2.4917	-2.4271	-2.3083	-2.6437	-2.6583	-2.3229	-2.625	-2.2833	-2.5646	206.333	393.110	205.620	295.896	189.960	180.570	427.384	335.991	197.840	398.395	430.969	406.116	264.147	172.394	391.471	239.942	0.00070882	0.00022923	9.0955e-06	542.88	2.5812e-06	2.6816e-06	767.9	139.67	3.2618e-06	1.7432e-06	227.33	55.662	29.672	12.763	1.2072e-06	27.815	6.8026e-05	6.4011e-05	1.7537e-05	460.14	7.0214e-07	6.8469e-07	712.57	128.64	7.0079e-07	6.9072e-07	200.96	49.999	27.214	11.759	6.8962e-07	24.731	350.909	234.279	241.348	160.805	292.407	306.355	159.547	165.310	201.116	263.764	163.622	169.538	170.116	177.226	269.520	174.291	-8191	255	
1068.904	1	1	0	0	0.12934	0.074518	0.16608	0.37107	0.20794	0.085503	0.12897	0.14916	0.15529	0.22106	0.21684	0.16436	0.19079	0.026369	0.15674	0.28864	-2.0646	-2.2438	-2.7354	-2.3438	-2.3833	-2.6521	-2.6688	-2.4188	-2.6	-2.55	-2.85	-2.6146	-2.075	-2.6521	-2.4354	-2.4458	264.234	318.115	186.940	428.420	192.650	199.528	396.733	200.159	189.494	210.710	472.491	278.481	423.249	386.693	379.839	409.090	0.0006902	0.00021021	1.4724e-05	546.87	1.7593e-06	7.9927e-07	773.82	139.96	3.4e-06	1.3201e-06	229.23	55.617	29.779	12.82	1.6743e-06	27.885	6.6305e-05	6.3564e-05	1.7423e-05	462.99	6.9087e-07	6.9136e-07	716.87	129.48	6.9781e-07	6.8826e-07	202.42	50.288	27.297	11.802	6.9409e-07	24.774	344.459	290.882	350.442	160.580	218.868	327.383	159.645	164.732	212.301	159.167	163.240	169.488	170.209	176.751	313.990	174.548	-8191	255	
1069.025	1	1	0	0	0.2905	0.054105	0.23036	0.14151	0.2367	0.038033	0.27531	0.17995	0.030648	0.11664	0.27091	0.1028	0.074413	0.12346	0.041896	0.4435	-2.1917	-2.2438	-2.55	-2.5229	-2.4021	-2.7417	-2.4146	-2.5938	-2.7188	-2.425	-2.6562	-2.6188	-2.1396	-2.4813	-2.5875	-2.5354	301.702	332.930	484.512	408.538	390.679	394.844	435.736	473.336	408.566	369.444	454.618	480.667	282.307	386.566	399.293	452.989	0.00075866	0.00021352	4.7152e-05	548.89	3.316e-06	2.5523e-06	773.61	140.5	2.9179e-06	1.8207e-06	228.34	55.476	30.13	12.568	9.459e-07	27.305	6.7055e-05	6.2867e-05	1.7477e-05	462.96	6.898e-07	6.7763e-07	715.97	129.53	6.9655e-07	6.8151e-07	201.22	50.014	27.28	11.618	6.8134e-07	24.201	340.376	263.160	190.357	160.975	294.618	301.652	159.668	165.168	233.637	434.420	163.068	168.883	170.509	176.890	183.316	174.609	-8191	255	
1069.121	1	1	0	0	0.10157	0.031734	0.23931	0.088031	0.18449	0.21706	0.19393	0.12115	0.072069	0.10408	0.27515	0.061499	0.17218	0.12146	0.13281	0.17222	-2.2917	-2.4958	-2.4208	-2.65	-2.3229	-2.775	-2.6646	-2.5563	-2.7062	-2.5375	-2.3604	-2.6063	-2.2208	-2.5083	-2.5271	-2.4562	245.007	447.066	358.972	192.478	264.787	159.353	295.572	259.284	326.851	310.458	432.886	303.492	177.833	153.676	206.970	173.952	0.00073262	8.5278e-05	5.3083e-05	543.64	2.1632e-06	2.5459e-06	767.03	139.77	3.6039e-06	3.0358e-06	227.41	55.071	29.688	12.587	2.0844e-06	27.383	6.7108e-05	6.1672e-05	1.7571e-05	460.84	6.7832e-07	6.7755e-07	713.51	129.12	6.9446e-07	6.7993e-07	200.83	49.759	27.082	11.626	6.7881e-07	24.398	341.891	358.920	435.317	160.943	245.460	212.376	159.431	165.208	278.416	332.947	163.173	169.621	170.467	177.228	249.699	174.525	-8191	255	
1069.217	1	1	0	0	0.20331	0.37173	0.28851	0.34609	0.32258	0.054312	0.24024	0.11694	0.22691	0.13425	0.25926	0.11461	0.12593	0.23762	0.10666	0.10187	-2.0667	-2.3917	-2.5833	-2.7375	-2.4083	-2.7375	-2.5979	-2.225	-2.5604	-2.6271	-2.6688	-2.6917	-2.2313	-2.7562	-2.525	-2.4229	156.787	337.828	182.234	491.626	175.629	281.462	497.935	319.323	326.824	292.998	459.405	443.573	258.740	170.453	231.821	374.438	0.00072816	0.00022271	8.1951e-05	544.96	1.3274e-06	4.9339e-06	768.55	139.63	2.8268e-06	4.2294e-06	228.01	55.76	29.769	12.639	2.9212e-06	27.68	6.6563e-05	6.2351e-05	1.7363e-05	460.35	6.8502e-07	6.7522e-07	713.66	129.1	6.9075e-07	6.866e-07	200.81	50.107	27.202	11.728	7.0088e-07	24.684	345.676	174.383	180.720	160.992	474.927	291.274	159.652	164.482	250.264	283.779	163.321	169.209	170.808	177.154	219.597	174.551	-8191	255	
1069.313	1	1	0	0	0.059435	0.12475	0.063053	0.094127	0.12654	0.029021	0.18387	0.24857	0.12774	0.16965	0.30888	0.12693	0.31901	0.032126	0.013477	0.075614	-2.2021	-2.3438	-2.4333	-2.6583	-2.4146	-2.5833	-2.5187	-2.3833	-2.7062	-2.4271	-2.3854	-2.7542	-2.3229	-2.4833	-2.6208	-2.3104	464.647	150.529	362.292	303.081	194.083	331.053	471.269	424.180	195.302	207.554	463.003	263.141	173.353	389.772	298.038	156.727	0.00060135	0.00020758	9.4855e-05	548.39	2.9466e-06	2.7383e-06	767.18	140.1	3.0071e-06	2.0239e-06	229.05	55.804	29.971	12.65	2.5038e-06	27.443	6.6373e-05	6.3164e-05	1.7696e-05	463.02	6.8816e-07	6.8508e-07	714.02	129.34	6.917e-07	6.8945e-07	201.83	50.063	27.301	11.731	6.9712e-07	24.517	340.938	232.406	206.646	160.705	319.207	260.188	159.488	165.100	350.846	248.582	163.326	168.888	170.070	177.030	286.658	175.010	-8191	255	
1069.407	1	1	0	0	0.12643	0.052796	0.080334	0.29318	0.26558	0.18733	0.060822	0.27506	0.23371	0.10823	0.29381	0.17717	0.068279	0.12865	0.26773	0.19183	-1.9688	-2.5208	-2.4813	-2.6937	-2.5833	-2.7042	-2.7604	-2.3896	-2.7271	-2.4479	-2.3542	-2.6479	-2.4562	-2.5375	-2.6188	-2.4354	444.020	320.322	375.685	186.703	282.407	436.886	164.202	220.280	303.399	273.886	499.962	315.065	355.026	233.892	449.655	149.381	0.0007092	0.00024253	4.5767e-05	540.69	1.7794e-06	2.5962e-06	769.55	139.91	5.2208e-06	1.2994e-06	227.34	55.258	29.677	12.705	2.5613e-06	27.227	6.7032e-05	6.2281e-05	1.7438e-05	459.95	6.8796e-07	6.8501e-07	713.85	128.98	6.8329e-07	6.8603e-07	200.74	49.86	27.104	11.694	6.9544e-07	24.379	349.423	200.341	183.652	160.375	331.043	357.749	159.906	164.950	280.906	308.331	163.366	169.398	170.195	177.115	239.376	174.877	-8191	255	
1069.504	1	1	0	0	0.026002	0.19634	0.19959	0.1062	0.14345	0.1141	0.2196	0.20708	0.14288	0.058473	0.18151	0.24956	0.13996	0.21009	0.36929	0.35156	-2.1	-2.3854	-2.3708	-2.5583	-2.3229	-2.5292	-2.7062	-2.2833	-2.5604	-2.5	-2.4062	-2.6792	-2.4542	-2.1958	-2.6396	-2.2479	185.779	337.021	400.895	326.157	381.321	287.423	237.213	236.064	379.223	455.324	357.247	349.748	186.642	186.479	414.892	477.151	0.00066843	0.00025687	3.0405e-05	545.83	9.4189e-07	1.7368e-06	771.06	139.95	2.5154e-06	3.9325e-06	228.77	55.488	29.86	12.615	9.6975e-07	27.845	6.657e-05	6.3412e-05	1.7805e-05	459.64	6.8543e-07	6.8334e-07	714.46	129.19	6.8834e-07	6.8659e-07	201.43	49.884	27.159	11.694	6.875e-07	24.676	346.445	269.734	306.552	160.368	273.236	326.180	159.391	164.617	304.821	261.894	163.171	169.043	170.432	177.145	250.513	174.526	-8191	255	
1069.624	1	1	0	0	0.23621	0.03358	0.12746	0.21552	0.16351	0.18713	0.27433	0.15979	0.1243	0.20215	0.088312	0.093392	0.27528	0.1566	0.092145	0.18331	-2.1333	-2.4292	-2.3896	-2.5729	-2.5354	-2.3104	-2.8875	-2.6125	-2.5646	-2.7438	-2.3812	-2.6146	-2.35	-2.4354	-2.5292	-2.3146	420.011	295.439	294.120	221.451	328.719	157.849	392.650	367.554	452.333	306.424	280.372	241.433	290.334	395.586	320.412	186.714	0.00068938	0.00024423	2.2496e-05	543.43	1.3297e-06	2.8799e-06	772.98	140.43	3.6428e-06	2.6913e-06	228.11	55.63	29.785	12.597	3.4087e-06	27.877	6.6372e-05	6.2465e-05	1.7419e-05	461.33	6.8579e-07	7.049e-07	718.77	129.54	6.9217e-07	6.8353e-07	201.8	50.138	27.204	11.702	6.8836e-07	24.772	341.595	228.435	329.583	160.762	223.002	306.737	159.542	164.951	270.323	411.314	163.164	169.130	170.666	176.670	233.782	174.173	-8191	255	
1069.720	1	1	0	0	0.19416	0.022421	0.25992	0.20073	0.14062	0.25787	0.16836	0.1907	0.10394	0.097183	0.056344	0.1539	0.014656	0.2562	0.24371	0.10549	-1.8771	-2.7292	-2.4313	-2.7604	-2.45	-2.3792	-2.8542	-2.45	-2.5208	-2.55	-2.3063	-2.5333	-2.6854	-2.4021	-2.6917	-2.6333	432.134	163.633	460.664	318.757	430.477	276.182	409.030	436.718	425.371	354.048	356.143	216.227	349.121	259.341	445.097	370.927	0.00061792	0.00031822	6.9588e-05	549.15	1.4748e-06	2.0684e-06	775.75	139.83	1.6736e-06	1.1978e-06	228.07	55.264	29.647	12.588	1.785e-06	27.437	6.902e-05	6.3257e-05	1.7351e-05	463.34	6.8522e-07	6.8153e-07	718.1	129.67	6.9149e-07	6.9174e-07	201.7	49.872	27.048	11.639	6.8232e-07	24.477	341.046	213.431	241.229	160.812	329.089	501.682	159.754	165.097	235.103	473.640	162.758	169.531	170.403	177.427	312.462	174.537	-8191	255	
1069.815	1	1	0	0	0.30391	0.18941	0.21651	0.074561	0.12329	0.057051	0.081299	0.25516	0.041116	0.11151	0.20319	0.089364	0.12714	0.16613	0.21166	0.085178	-1.9833	-2.6979	-2.1521	-2.7583	-2.8354	-2.5958	-2.8479	-2.4208	-2.5479	-2.875	-2.4354	-2.5438	-2.6354	-2.2771	-2.8667	-2.6	449.384	469.391	236.274	374.371	297.192	419.285	502.908	196.495	349.802	299.065	437.524	215.107	235.529	281.425	449.089	212.545	0.00069189	0.00023994	4.506e-05	538.75	8.3808e-07	2.9184e-06	775.28	140.55	3.6096e-06	4.472e-06	228.21	55.489	29.455	12.617	3.1862e-06	27.499	6.6421e-05	6.2718e-05	1.7324e-05	461.29	6.8831e-07	6.8561e-07	718.65	129.7	6.8641e-07	6.8585e-07	201.69	49.992	27.066	11.605	6.7518e-07	24.549	362.902	280.005	181.281	160.549	342.649	350.916	159.498	164.733	279.028	270.874	162.904	169.240	170.237	177.264	192.363	174.241	-8191	255	
1069.911	1	1	0	0	0.065559	0.18799	0.14429	0.15335	0.20737	0.036171	0.21097	0.06361	0.16552	0.076069	0.21206	0.10482	0.35571	0.17973	0.11705	0.038733	-2.1229	-2.5917	-2.2646	-2.3812	-2.5729	-2.2354	-2.5708	-2.6479	-2.4479	-2.6792	-2.3	-2.5625	-2.5958	-2.4062	-2.7812	-2.6063	258.179	464.595	363.989	253.234	439.154	309.064	340.379	216.182	280.970	353.632	380.749	451.234	486.398	431.233	356.169	288.984	0.00073949	0.00021474	4.1657e-05	542.39	2.3523e-06	3.7362e-06	774.05	139.83	4.0728e-06	8.6298e-07	229.22	55.393	29.993	12.661	8.8627e-07	27.931	6.7571e-05	6.3713e-05	1.7322e-05	461.6	6.7874e-07	6.8296e-07	719.86	129.82	6.9718e-07	6.6993e-07	202.42	50.023	27.158	11.633	6.8807e-07	24.794	344.367	468.380	184.543	160.857	272.814	249.716	159.617	164.847	220.793	220.048	163.457	169.193	170.326	177.282	374.570	174.438	-8191	255	
1070.007	1	1	0	0	0.14641	0.11921	0.18509	0.051871	0.21369	0.14887	0.23231	0.096749	0.29162	0.024743	0.17104	0.16714	0.13997	0.1544	0.13069	0.11968	-1.9688	-2.6208	-2.55	-2.4667	-2.7042	-2.5438	-2.8563	-2.5729	-2.5062	-2.775	-2.6375	-2.525	-2.6396	-2.4875	-2.6437	-2.6083	244.481	443.344	390.384	479.785	242.843	408.834	160.683	150.527	416.605	167.876	387.305	466.021	439.130	256.147	456.197	451.165	0.00082225	8.2598e-05	5.1762e-05	552.04	1.3974e-06	7.6024e-07	776.04	141.43	2.1122e-06	6.0331e-08	230.45	55.618	29.93	12.423	4.7559e-06	27.358	6.7044e-05	6.3086e-05	1.7414e-05	462.49	6.857e-07	6.768e-07	720.22	130.27	6.9419e-07	6.6996e-07	202.8	49.978	27.195	11.543	6.7477e-07	24.414	341.735	301.707	253.114	160.809	391.277	330.811	159.297	164.904	211.957	311.655	162.753	169.195	169.642	176.909	209.460	174.447	-8191	255	
1070.103	1	1	0	0	0.28857	0.2999	0.10009	0.1949	0.16182	0.15781	0.099723	0.19718	0.10724	0.14664	0.17747	0.10838	0.21421	0.032129	0.16191	0.35452	-1.8708	-2.5646	-2.5479	-2.1542	-2.55	-2.5708	-2.4708	-2.8167	-2.4458	-2.625	-2.4271	-2.2667	-2.4708	-2.3104	-2.4562	-2.6083	185.985	490.069	225.821	203.191	464.216	482.282	420.114	254.952	174.718	420.072	498.821	420.287	215.594	411.653	293.196	487.862	0.00084491	7.5991e-05	6.0133e-05	547.6	1.7998e-06	2.9915e-06	776.83	141.51	2.7985e-06	3.4343e-06	229.92	55.382	29.499	12.527	2.0877e-06	27.45	6.7082e-05	6.229e-05	1.713e-05	463.04	6.7753e-07	6.8183e-07	719.21	129.96	6.9068e-07	6.7771e-07	202.53	49.891	27.036	11.513	6.7647e-07	24.556	352.099	251.103	205.699	161.201	297.738	156.246	159.193	164.803	251.336	314.285	162.715	169.169	170.672	176.897	406.563	174.800	-8191	255	
1070.199	1	1	0	0	0.026529	0.080025	0.096425	0.22187	0.1007	0.16895	0.1537	0.265	0.085984	0.20631	0.29569	0.13251	0.12056	0.29067	0.28809	0.089886	-1.85	-2.6521	-2.4437	-2.3438	-2.6188	-2.5042	-2.5583	-2.6167	-2.4375	-2.4792	-2.6063	-2.3708	-2.5833	-2.5979	-2.6292	-2.6146	267.411	201.111	264.051	173.759	452.175	486.126	401.657	415.387	500.144	344.226	461.105	413.080	346.051	415.718	198.206	175.081	0.00083321	6.5992e-05	9.1358e-05	548.07	2.4315e-06	2.0874e-06	774.47	140.09	3.4452e-06	1.438e-06	230.06	55.714	29.902	12.462	5.6225e-07	27.754	6.6652e-05	6.246e-05	1.7317e-05	463.49	6.768e-07	6.8063e-07	719.19	129.79	6.8303e-07	6.7683e-07	202.99	50.019	27.26	11.556	6.6834e-07	24.652	350.993	253.233	195.973	160.756	324.736	286.307	159.914	164.748	228.232	181.423	162.856	169.413	170.083	176.687	306.518	174.972	-8191	255	
1070.295	1	1	0	0	0.073779	0.073908	0.16226	0.10443	0.077314	0.36155	0.27288	0.17206	0.11253	0.2724	0.17385	0.073438	0.26445	0.12822	0.15882	0.31698	-1.9375	-2.6875	-2.4875	-2.325	-2.7562	-2.3083	-2.5458	-2.7667	-2.4792	-2.7771	-2.7625	-2.3083	-2.4792	-2.4667	-2.3708	-2.8604	216.405	240.538	349.896	198.218	462.417	393.934	423.066	469.703	327.430	316.912	299.880	416.919	252.648	178.842	382.039	164.873	0.00070446	0.00014013	4.1486e-05	552.7	1.5952e-06	1.0451e-06	778.57	141.19	3.1884e-06	6.0722e-07	230.91	55.548	29.897	12.67	2.108e-06	27.617	6.625e-05	6.1762e-05	1.735e-05	463.47	6.8482e-07	6.7819e-07	722.4	130.5	6.885e-07	6.8507e-07	203.85	50.159	27.401	11.708	6.9615e-07	24.692	334.806	242.881	172.116	160.541	403.316	246.742	159.540	164.695	245.717	256.800	163.044	169.046	170.471	176.824	261.108	174.562	-8191	255	
1070.416	1	1	0	0	0.15505	0.024501	0.11869	0.15965	0.2743	0.10906	0.12563	0.069585	0.13093	0.037649	0.12661	0.14711	0.13558	0.054011	0.15355	0.088076	-2.1771	-2.7229	-2.7125	-2.2979	-2.6333	-2.7188	-2.3937	-2.7042	-2.4688	-2.6979	-2.8625	-2.5542	-2.7313	-2.5792	-2.5667	-2.8833	398.519	212.905	243.012	507.123	327.256	498.157	502.754	291.840	301.404	313.307	374.718	152.752	395.347	158.304	198.153	258.217	0.00082665	0.00025987	1.7108e-05	546.28	1.7346e-06	2.7608e-06	777.75	141.43	2.6454e-06	1.3626e-06	230.27	55.427	29.775	12.595	2.0999e-06	27.607	6.6615e-05	6.2259e-05	1.7244e-05	462.1	6.7774e-07	6.802e-07	719.19	130.01	6.8324e-07	6.8222e-07	202.77	50.056	27.389	11.615	6.911e-07	24.523	344.347	175.793	231.581	160.826	307.903	201.817	159.345	165.135	242.168	271.066	163.098	168.780	170.360	177.034	411.061	174.640	-8191	255	
1070.512	1	1	0	0	0.078745	0.20088	0.22716	0.13529	0.26201	0.074358	0.065994	0.123	0.12665	0.22208	0.11209	0.27248	0.17893	0.20785	0.24472	0.045768	-2.1688	-2.4125	-2.7646	-2.4958	-2.7396	-2.7438	-2.5854	-2.7208	-2.2562	-2.4813	-2.75	-2.1417	-2.6771	-2.6042	-2.3937	-2.8854	322.538	322.373	327.565	496.839	331.918	220.429	228.388	485.950	321.113	414.099	426.205	193.216	478.393	232.623	407.220	320.581	0.00076446	0.00014663	6.8172e-05	546.87	2.8813e-06	1.9393e-06	777.16	140.57	5.8201e-06	1.4152e-06	228.57	55.65	30.075	12.446	2.981e-06	27.589	6.628e-05	6.3512e-05	1.7431e-05	459.69	6.8176e-07	6.8148e-07	718.47	129.69	6.8591e-07	6.7871e-07	202.67	50.116	27.241	11.562	6.8417e-07	24.62	349.005	251.597	185.605	160.682	394.894	179.561	159.503	165.026	239.925	345.594	163.193	168.833	170.242	177.211	239.069	174.644	-8191	255	
1070.584	1	1	0	0	0.047229	0.28684	0.17235	0.037655	0.10285	0.18948	0.23974	0.24195	0.15673	0.11483	0.17461	0.11951	0.088681	0.23446	0.10337	0.23863	-2.1542	-2.4625	-2.6562	-2.5062	-2.775	-2.7646	-2.4667	-2.7875	-2.4375	-2.6229	-2.6542	-2.55	-2.4708	-2.6104	-2.5	-2.8125	283.440	470.756	479.339	316.843	460.415	236.245	170.121	243.826	190.266	413.250	445.733	502.426	504.973	397.239	259.511	193.831	0.00070813	0.00014596	2.6474e-05	541.67	3.2544e-06	7.882e-07	774.19	140.83	1.1358e-06	1.7557e-06	231.36	56.221	29.888	12.476	2.5202e-06	27.98	6.7586e-05	6.2645e-05	1.7456e-05	462.17	6.9726e-07	6.8305e-07	719.64	130.17	6.8341e-07	6.8863e-07	203.68	50.478	27.316	11.586	6.9406e-07	24.795	347.667	292.946	293.660	160.870	291.746	413.100	159.832	164.779	286.784	271.805	163.293	169.545	170.095	177.172	305.940	174.765	-8191	255	
1070.705	1	1	0	0	0.19936	0.036392	0.092768	0.073857	0.045897	0.11913	0.17374	0.13837	0.10291	0.17233	0.18511	0.064839	0.21212	0.10423	0.26556	0.21696	-2.0563	-2.3125	-2.6458	-2.575	-2.6375	-2.7	-2.6083	-2.6312	-2.5292	-2.5208	-2.8417	-2.5687	-2.4875	-2.6958	-2.3646	-2.6542	457.061	491.616	162.285	281.485	506.856	385.686	389.365	325.183	469.145	358.216	327.714	482.951	460.270	155.391	465.628	327.131	0.00084417	0.00010466	4.9104e-05	550.96	1.3114e-06	1.8482e-06	778.23	141.22	3.027e-06	6.1357e-07	230.28	55.684	29.938	12.505	3.1616e-06	27.331	6.7173e-05	6.2825e-05	1.7421e-05	464.21	6.8773e-07	6.814e-07	720.09	130.33	6.977e-07	6.7671e-07	203.22	50.039	27.326	11.566	6.8229e-07	24.397	344.742	475.928	171.581	160.706	377.335	501.079	159.959	165.107	492.133	409.825	162.824	168.965	170.360	176.502	249.548	174.978	-8191	255	
1070.801	1	1	0	0	0.13647	0.20081	0.14459	0.10741	0.1752	0.13278	0.11525	0.18128	0.095156	0.099438	0.062008	0.16941	0.18125	0.25839	0.14967	0.24775	-2.225	-2.3479	-2.5521	-2.4583	-2.4417	-2.8333	-2.5604	-2.5833	-2.5646	-2.4167	-2.7562	-2.5875	-2.3375	-2.8521	-2.4125	-2.8104	236.185	484.279	237.089	230.835	450.711	376.050	252.780	501.528	402.431	191.554	185.228	380.122	374.463	467.909	447.244	190.464	0.00075495	0.00020665	4.7291e-05	544.68	3.8266e-07	6.3611e-07	773.66	139.84	3.4881e-06	2.433e-06	228.61	55.547	29.728	12.698	1.9235e-06	27.567	6.5436e-05	6.3143e-05	1.7276e-05	460.03	6.8329e-07	6.7801e-07	719.76	129.71	6.8712e-07	6.8316e-07	202.26	50.055	27.276	11.656	6.8838e-07	24.638	344.603	233.546	160.064	160.504	465.250	376.020	159.284	165.008	227.776	342.096	163.351	169.330	169.917	176.957	357.038	174.507	-8191	255	
1070.897	1	1	0	0	0.20544	0.18275	0.26097	0.27804	0.032912	0.22843	0.12702	0.15388	0.012715	0.048757	0.17773	0.12449	0.17045	0.25568	0.045591	0.06008	-2.2125	-2.3312	-2.9313	-2.6146	-2.5833	-2.7646	-2.5958	-2.4417	-2.7	-2.375	-2.6333	-2.3792	-2.4458	-2.8125	-2.4313	-2.6188	175.127	255.313	242.708	464.034	492.445	365.043	388.354	313.952	196.733	297.978	386.692	380.395	490.405	430.757	276.867	337.920	0.0007331	0.00023181	5.7267e-05	544.22	2.6174e-06	1.4772e-06	775.03	140.43	4.1679e-06	3.7344e-07	229.18	55.651	29.906	12.649	1.8026e-06	27.836	6.6888e-05	6.3168e-05	1.7172e-05	460.8	6.9112e-07	6.9368e-07	719.54	129.86	6.8701e-07	6.8818e-07	202.87	50.108	27.268	11.652	6.9169e-07	24.847	342.048	276.919	172.902	160.883	326.094	249.434	159.555	165.149	255.157	502.778	162.879	169.064	170.684	177.075	232.043	174.940	-8191	255	
1071.016	1	1	0	0	0.16935	0.35564	0.3186	0.1381	0.13964	0.14134	0.092467	0.028861	0.20731	0.095653	0.29309	0.26116	0.18371	0.074918	0.16375	0.091717	-2.2188	-2.2042	-2.7083	-2.65	-2.3312	-2.825	-2.5979	-2.6208	-2.7604	-2.4813	-2.6292	-2.625	-2.5208	-2.5438	-2.5229	-2.625	477.098	371.291	313.111	372.209	296.069	275.445	420.146	354.609	341.730	498.746	398.199	344.280	216.280	187.920	180.560	360.043	0.00074498	0.00012605	4.762e-05	545.55	1.8954e-06	1.8325e-06	774.15	141.19	1.8053e-06	3.2546e-06	232.18	55.807	30.175	12.476	2.1951e-06	27.341	6.7002e-05	6.2348e-05	1.7353e-05	461.95	6.8726e-07	6.8138e-07	721.47	130.15	6.8647e-07	6.8265e-07	203.79	50.345	27.354	11.578	6.7455e-07	24.464	357.119	413.019	212.316	160.693	350.227	330.245	159.389	164.782	284.856	311.492	162.984	169.344	170.219	176.766	281.896	174.226	-8191	255	
1071.112	1	1	0	0	0.16027	0.042514	0.09788	0.1695	0.13697	0.23061	0.12962	0.13535	0.033233	0.15069	0.10731	0.08567	0.15373	0.22911	0.22684	0.22201	-2.35	-2.4104	-2.5833	-2.7938	-2.2979	-2.7167	-2.6542	-2.5292	-2.8979	-2.6063	-2.4917	-2.7333	-2.5646	-2.5979	-2.3833	-2.5729	154.031	426.688	429.470	433.547	228.189	310.629	428.736	307.624	283.122	492.927	444.403	328.266	453.555	407.278	256.968	453.286	0.00074308	7.8844e-05	3.6541e-05	548.16	3.0217e-06	8.8602e-07	774.18	140.37	2.1655e-06	9.5375e-07	229.32	55.458	29.674	12.579	3.8332e-06	27.251	6.5711e-05	6.2719e-05	1.7114e-05	461.53	6.7171e-07	6.7441e-07	718.73	129.84	6.8931e-07	6.8099e-07	202.83	50.147	27.181	11.577	6.7988e-07	24.407	349.707	501.882	256.606	160.775	260.270	283.553	159.651	165.011	400.866	488.118	163.308	169.020	170.387	177.145	267.625	174.594	-8191	255	
1071.208	1	1	0	0	0.13422	0.10128	0.1044	0.11959	0.14671	0.24809	0.1182	0.082817	0.22247	0.12907	0.077971	0.32026	0.3315	0.18003	0.072633	0.1774	-2.2896	-2.3917	-2.4562	-2.6	-2.6	-2.5687	-2.7125	-2.4813	-2.7313	-2.5042	-2.4708	-2.6771	-2.3563	-2.6208	-2.5104	-2.5062	345.389	506.024	372.405	465.164	398.000	337.197	415.057	194.372	343.391	484.863	476.795	277.307	163.327	186.414	378.494	492.382	0.00085493	0.0001663	9.8672e-05	548.91	1.1391e-06	1.8902e-06	776.19	140.76	1.1662e-06	1.7771e-06	231.15	55.629	30.008	12.514	3.3805e-06	27.743	6.6555e-05	6.1795e-05	1.7071e-05	462.3	6.8466e-07	6.692e-07	721.96	130.14	6.7892e-07	6.699e-07	204.08	50.326	27.32	11.602	6.8168e-07	24.786	348.522	177.234	180.009	160.683	206.625	502.302	159.527	164.915	189.674	215.803	163.008	168.918	170.056	176.925	276.334	174.475	-8191	255	
1071.304	1	1	0	0	0.26264	0.034846	0.12287	0.25461	0.15739	0.16312	0.091496	0.1145	0.14208	0.1981	0.3171	0.082121	0.08475	0.11393	0.27631	0.12499	-2.0792	-2.4417	-2.4958	-2.7229	-2.4604	-2.6021	-2.6896	-2.3896	-2.6833	-2.5333	-2.4979	-2.7208	-2.4375	-2.5375	-2.5625	-2.4479	158.533	276.607	279.710	439.793	304.882	481.237	261.161	196.064	297.591	372.975	498.919	461.621	408.837	183.097	148.397	433.796	0.00081523	3.3702e-05	4.7308e-05	548.59	1.7825e-06	6.878e-07	778.29	140.65	4.6663e-07	3.3601e-06	232.91	55.88	29.972	12.551	5.2873e-07	27.747	6.6611e-05	6.2738e-05	1.7377e-05	462.13	6.8643e-07	6.8626e-07	722.35	130.26	6.8412e-07	6.9177e-07	203.8	50.327	27.264	11.639	6.8595e-07	24.723	346.255	494.023	248.787	160.394	242.360	229.106	159.494	164.991	355.229	347.958	163.094	169.495	170.210	176.766	179.344	174.303	-8191	255	
1071.400	1	1	0	0	0.090663	0.080037	0.28336	0.11065	0.040652	0.16093	0.02945	0.14712	0.13561	0.098823	0.16932	0.1378	0.20331	0.17787	0.23592	0.078955	-2.2354	-2.425	-2.3458	-2.7208	-2.3312	-2.5604	-2.6688	-2.3937	-2.7354	-2.5458	-2.2729	-2.6917	-2.4208	-2.4938	-2.6188	-2.3167	242.317	503.397	306.915	452.145	497.674	445.879	433.062	150.572	451.290	214.307	330.612	233.423	385.352	462.727	152.578	150.153	0.00081019	0.00018615	7.0346e-05	542.17	1.5989e-06	2.7697e-06	772.81	141.17	2.1883e-06	2.6009e-06	230.92	55.454	29.791	12.485	2.1232e-06	27.303	6.5212e-05	6.145e-05	1.7368e-05	461.5	6.8932e-07	6.7915e-07	717.69	130.26	6.9126e-07	6.8254e-07	203.43	49.984	27.215	11.574	6.7686e-07	24.358	351.714	226.274	240.525	160.929	257.881	192.793	159.558	164.800	193.854	358.660	162.787	169.186	169.483	176.952	234.417	175.075	-8191	255	
1071.496	1	1	0	0	0.13669	0.2707	0.0028798	0.18995	0.11388	0.1398	0.13052	0.0065067	0.1275	0.14553	0.23888	0.18202	0.046828	0.20793	0.20228	0.25286	-2.2938	-2.4771	-2.3729	-2.6604	-2.4542	-2.6104	-2.7229	-2.4437	-2.575	-2.4896	-2.4771	-2.6667	-2.45	-2.325	-2.7292	-2.5167	231.938	401.693	442.195	460.914	273.008	197.999	503.931	294.582	318.884	457.477	506.749	444.988	219.386	338.742	374.049	152.839	0.00082023	0.00011024	1.3367e-05	545.51	2.535e-06	1.5556e-06	772.22	140.65	4.0098e-06	1.6592e-06	230.37	55.512	29.963	12.598	1.4607e-06	27.569	6.6127e-05	6.2555e-05	1.7359e-05	459.65	6.722e-07	6.7513e-07	717.08	129.9	6.8857e-07	6.7892e-07	202.95	50.078	27.249	11.63	6.7719e-07	24.574	342.160	216.451	490.859	160.676	271.378	255.443	159.710	165.025	241.038	239.082	162.959	169.325	170.226	177.136	232.852	174.616	-8191	255	
1071.593	1	1	0	0	0.11388	0.1276	0.15099	0.21188	0.1836	0.074632	0.091628	0.16645	0.22319	0.13221	0.15389	0.19908	0.10771	0.1324	0.067679	0.10822	-2.1937	-2.5125	-2.4354	-2.7479	-2.65	-2.6396	-2.9813	-2.4771	-2.6813	-2.4604	-2.2896	-2.6167	-2.3104	-2.3667	-2.5938	-2.4708	404.317	366.545	360.599	380.138	431.870	212.508	323.645	356.997	439.862	314.996	460.652	423.905	425.025	260.266	180.491	489.737	0.00071738	0.00027098	8.9494e-05	542.15	1.8204e-06	2.6828e-06	770.51	139.59	2.6112e-06	4.0534e-06	229.42	55.916	30.023	12.57	1.9206e-06	27.75	6.7336e-05	6.2928e-05	1.7469e-05	457.46	6.753e-07	6.816e-07	715.17	129.03	6.8485e-07	6.8265e-07	202.74	50.288	27.247	11.66	6.7965e-07	24.711	354.954	175.928	149.687	160.599	431.465	230.817	159.474	164.835	282.677	259.019	163.216	169.260	170.426	177.072	283.201	174.548	-8191	255	
1071.713	1	1	0	0	0.13794	0.067277	0.26105	0.21597	0.19543	0.35071	0.22785	0.15876	0.031792	0.12315	0.1408	0.24086	0.35702	0.15142	0.11992	0.04346	-2.1396	-2.675	-2.2333	-2.6813	-2.7396	-2.5938	-2.9188	-2.2854	-2.6396	-2.6958	-2.3458	-2.7542	-2.4979	-2.2625	-2.8125	-2.4458	330.528	208.952	402.816	310.505	326.845	383.183	468.685	384.861	505.318	201.812	489.806	447.727	379.874	194.501	362.899	410.125	0.00066688	0.00013136	3.1549e-05	545.8	3.9392e-06	1.9716e-06	774.6	141.19	3.0454e-06	1.151e-06	229.98	55.843	29.657	12.521	4.4114e-06	27.333	6.5808e-05	6.1642e-05	1.7381e-05	459.95	6.7346e-07	6.7446e-07	717.77	129.89	6.7599e-07	6.7476e-07	202.66	50.013	27.196	11.59	6.7234e-07	24.375	344.422	201.128	178.961	160.701	285.127	325.675	159.483	164.961	278.569	313.692	163.004	168.860	169.847	176.992	257.514	174.723	-8191	255	
1071.808	1	1	0	0	0.056894	0.026709	0.026189	0.23892	0.084966	0.18111	0.19475	0.18852	0.057825	0.16434	0.10991	0.23487	0.32361	0.11043	0.16944	0.18144	-2.0979	-2.7125	-2.4375	-2.5604	-2.5979	-2.5	-2.8292	-2.3167	-2.4417	-2.8167	-2.4479	-2.5854	-2.7396	-2.2833	-2.8396	-2.4688	505.684	505.410	450.894	284.619	192.203	395.969	396.677	477.221	192.485	154.064	314.719	420.545	205.593	181.844	461.252	414.184	0.00065487	0.00039348	7.6555e-05	544.52	3.55e-06	6.1252e-06	773.85	140.87	4.0256e-06	2.9247e-06	229.04	55.724	29.834	12.5	1.6714e-06	27.401	6.4852e-05	6.2208e-05	1.727e-05	460.07	6.8195e-07	6.8449e-07	717.37	129.49	6.8123e-07	6.7649e-07	202.66	50.063	27.21	11.583	6.6758e-07	24.469	351.882	278.989	250.703	160.303	253.643	290.370	159.507	165.080	233.546	265.553	162.803	168.972	169.964	177.372	241.804	174.550	-8191	255	
1071.881	1	1	0	0	0.12672	0.12203	0.14773	0.16032	0.26784	0.07848	0.070235	0.28326	0.13678	0.17657	0.16026	0.092405	0.16378	0.039788	0.21918	0.17168	-2.0792	-2.5667	-2.4917	-2.6271	-2.6625	-2.3187	-2.8208	-2.4896	-2.625	-2.7792	-2.4146	-2.45	-2.5771	-2.3146	-2.5396	-2.7354	450.195	178.209	374.367	478.147	383.020	274.096	238.675	475.441	251.041	216.422	200.992	182.322	181.175	384.866	186.148	166.138	0.00075788	6.3982e-05	6.232e-05	543.8	1.2836e-06	4.6866e-06	772	140.36	3.9214e-06	2.6926e-06	230.4	55.486	29.912	12.544	1.5513e-06	27.67	6.6382e-05	6.2536e-05	1.6897e-05	458.98	6.7217e-07	6.7854e-07	716.32	129.16	6.7681e-07	6.7058e-07	202.97	50.002	27.214	11.632	6.7341e-07	24.661	344.503	389.822	323.692	160.466	348.126	213.737	159.273	165.239	264.242	308.487	163.075	169.404	170.010	177.237	495.071	174.733	-8191	255	
1071.977	1	1	0	0	0.24197	0.26457	0.029756	0.21464	0.18597	0.13096	0.16305	0.31702	0.21547	0.14655	0.066351	0.1419	0.080894	0.21927	0.14719	0.22104	-1.8417	-2.6771	-2.6854	-2.5854	-2.9521	-2.5521	-2.7771	-2.5354	-2.2896	-2.7854	-2.5312	-2.3521	-2.6208	-2.3667	-2.8167	-2.4958	191.946	352.061	396.077	252.481	450.325	183.566	155.835	491.331	205.847	287.444	260.891	350.067	475.897	170.717	243.890	327.763	0.00076465	0.00034095	3.5417e-05	546.78	5.1061e-06	1.8839e-06	773.52	139.6	9.6825e-07	1.1488e-06	229.93	55.751	29.853	12.575	1.6921e-06	27.582	6.6702e-05	6.2587e-05	1.7312e-05	460.52	6.779e-07	6.7783e-07	718.59	129.52	6.7667e-07	6.7289e-07	202.81	50.272	27.21	11.585	6.6939e-07	24.595	342.511	219.300	298.464	160.949	320.247	229.707	159.626	164.846	326.387	202.403	162.893	169.347	170.130	176.913	287.646	174.343	-8191	255	
1072.096	1	1	0	0	0.19088	0.084002	0.10745	0.31739	0.11803	0.067688	0.085424	0.17893	0.054594	0.29482	0.28715	0.2824	0.14261	0.26054	0.19152	0.18667	-1.8417	-2.6604	-2.3375	-2.3375	-2.8271	-2.5292	-2.5083	-2.6625	-2.4729	-2.6437	-2.6521	-2.4833	-2.725	-2.5271	-2.5667	-2.7021	172.239	269.078	195.738	461.521	166.019	405.785	205.213	449.696	450.702	276.127	404.417	327.677	419.033	162.352	451.223	447.563	0.00083122	0.00011874	6.3737e-05	535.1	1.8799e-06	3.1069e-06	774.37	140.44	1.1862e-06	3.5051e-06	229.56	55.406	29.687	12.616	1.8178e-06	27.556	6.5677e-05	6.0893e-05	1.6975e-05	457.48	6.7161e-07	6.6931e-07	718.48	129.56	6.7935e-07	6.6092e-07	202.55	49.952	27.117	11.631	6.7537e-07	24.636	345.495	150.971	220.300	160.714	293.137	240.533	159.561	164.888	321.471	158.551	163.065	169.257	170.248	177.263	235.981	174.739	-8191	255	
1072.192	1	1	0	0	0.054569	0.30551	0.1547	0.11804	0.29129	0.14458	0.06883	0.18653	0.17802	0.071453	0.13847	0.17128	0.088641	0.24347	0.081302	0.146	-1.9646	-2.5375	-2.5167	-2.3042	-2.7167	-2.3292	-2.5729	-2.725	-2.3292	-2.575	-2.5625	-2.3104	-2.8021	-2.4208	-2.6562	-2.7542	242.309	496.255	222.434	304.390	317.839	369.458	308.361	371.851	188.495	267.140	351.914	466.219	376.178	288.938	341.506	175.718	0.00068213	0.00028981	4.671e-05	542.28	2.4911e-06	1.6917e-06	769.4	139.72	1.4473e-06	6.3219e-07	230.21	55.608	30.101	12.651	1.0534e-06	28.052	6.6487e-05	6.1798e-05	1.7334e-05	456.41	6.804e-07	6.609e-07	715.76	129.25	6.8332e-07	6.822e-07	203.04	50.129	27.223	11.66	6.7851e-07	24.872	337.432	206.334	198.643	160.209	288.923	198.121	159.552	164.577	414.278	206.753	162.619	169.080	169.554	177.279	244.355	174.680	-8191	255	
1072.288	1	1	0	0	0.18549	0.11997	0.15691	0.081001	0.18119	0.07716	0.079246	0.04929	0.32124	0.11246	0.11447	0.20314	0.20919	0.25327	0.17731	0.11145	-1.9813	-2.7188	-2.5521	-2.3604	-2.675	-2.4729	-2.5604	-2.6063	-2.4708	-2.7	-2.6063	-2.4521	-2.6688	-2.2896	-2.5167	-2.8187	191.964	324.170	430.603	187.336	241.614	160.051	342.552	482.595	454.822	479.352	462.461	202.490	485.874	218.742	249.058	315.760	0.00078518	0.00022943	5.5755e-05	540.77	1.5399e-06	1.2321e-06	768.34	140.03	3.5874e-06	2.3912e-06	229.3	55.305	29.508	12.653	2.9405e-06	28.044	6.5872e-05	6.1463e-05	1.7383e-05	456.25	6.8551e-07	6.7724e-07	715.77	129.03	6.9218e-07	6.7788e-07	202.26	50.163	27.166	11.713	6.8577e-07	24.953	350.175	444.130	176.759	160.216	331.958	429.266	159.192	164.928	262.783	292.038	163.261	169.219	170.760	177.047	165.161	174.426	-8191	255	
1072.385	1	1	0	0	0.084086	0.14356	0.19805	0.32505	0.13294	0.084891	0.49808	0.14083	0.055793	0.068543	0.23749	0.10452	0.097301	0.14697	0.21073	0.051697	-1.9333	-2.6063	-2.6937	-2.1958	-2.6771	-2.5479	-2.5271	-2.8146	-2.375	-2.5604	-2.7667	-2.3979	-2.6292	-2.6104	-2.5062	-2.5958	300.936	288.443	211.631	212.254	286.948	281.177	157.127	474.072	195.468	259.817	425.239	224.904	473.021	190.995	261.148	393.901	0.00069491	0.00018513	2.0534e-05	539.88	2.9325e-06	2.8925e-06	772.09	140.34	3.7534e-06	2.7115e-06	230.22	55.661	30.04	12.591	1.8992e-06	27.631	6.6539e-05	6.2332e-05	1.7268e-05	456.92	6.7632e-07	6.805e-07	715.75	129.17	6.9091e-07	6.7982e-07	202.61	50.142	27.277	11.629	6.779e-07	24.665	349.076	193.564	441.556	161.108	272.088	260.548	159.542	165.076	261.038	275.100	163.080	169.255	170.508	176.608	263.008	174.625	-8191	255	
1072.505	1	1	0	0	0.2201	0.27017	0.092553	0.12061	0.11859	0.028225	0.29285	0.11128	0.11035	0.1065	0.13961	0.14136	0.17368	0.1612	0.23051	0.10837	-2.0938	-2.5667	-2.5604	-2.175	-2.5646	-2.5687	-2.5208	-2.525	-2.4813	-2.4062	-2.7146	-2.4042	-2.5958	-2.6021	-2.2708	-2.8229	335.315	223.276	244.893	225.001	413.622	367.753	404.479	432.809	464.759	386.840	211.753	485.321	415.717	163.029	355.801	493.063	0.0007753	0.00038895	4.157e-05	541.82	2.6561e-06	4.7944e-06	770.15	141.15	1.3797e-06	1.4509e-06	230.51	55.337	29.539	12.46	2.7476e-06	27.748	6.6796e-05	6.2593e-05	1.7286e-05	458.1	6.7604e-07	6.8296e-07	715.53	129.35	6.7695e-07	6.7645e-07	202.65	50.082	27.068	11.617	6.774e-07	24.783	348.435	193.168	478.851	160.801	200.852	247.717	159.554	165.209	230.975	256.131	163.361	169.091	170.539	176.802	236.176	174.445	-8191	255	
1072.577	1	1	0	0	0.16455	0.20144	0.13674	0.20754	0.032113	0.076115	0.32827	0.13759	0.17849	0.36323	0.096223	0.21571	0.13543	0.28622	0.097324	0.1501	-1.9729	-2.375	-2.7292	-2.3563	-2.7417	-2.6312	-2.4688	-2.6417	-2.5563	-2.4146	-2.6417	-2.6604	-2.3688	-2.5667	-2.3167	-2.6521	469.581	341.951	317.708	446.791	227.225	387.023	448.398	457.256	273.608	291.153	480.194	152.903	454.769	474.939	241.714	178.806	0.00074395	0.0002092	8.7538e-06	536.92	1.4093e-06	2.0432e-06	774.82	140.18	1.4307e-06	1.3483e-06	228.8	55.402	29.337	12.557	2.5952e-06	28.008	6.5313e-05	6.235e-05	1.7269e-05	456.6	6.7627e-07	6.7547e-07	718.92	129.09	6.8956e-07	6.6198e-07	203.06	49.985	27.018	11.606	6.7953e-07	24.957	348.294	196.937	312.424	160.880	391.046	232.026	159.533	164.786	180.139	379.765	163.166	169.436	170.229	176.537	228.262	174.618	-8191	255	
1072.697	1	1	0	0	0.028051	0.11302	0.019757	0.11468	0.10773	0.13717	0.15168	0.089009	0.10522	0.12035	0.17148	0.047536	0.10481	0.030012	0.19778	0.19914	-2.2292	-2.4083	-2.4792	-2.3021	-2.5021	-2.6354	-2.5292	-2.7417	-2.2875	-2.5104	-2.9229	-2.3708	-2.4	-2.6875	-2.4646	-2.6188	461.243	420.002	267.767	411.081	282.159	333.207	207.272	284.742	464.579	218.298	400.355	330.620	217.401	440.006	255.080	346.855	0.00085279	0.00021901	4.0234e-05	539.54	1.7394e-06	4.7944e-07	776.25	140.49	2.3766e-06	1.6598e-06	229.44	55.967	29.647	12.566	2.8832e-06	27.788	6.634e-05	6.2856e-05	1.7285e-05	457.57	6.7383e-07	6.8743e-07	719.65	129.29	6.8968e-07	6.8403e-07	202.69	50.375	27.147	11.593	6.7566e-07	24.726	347.599	182.032	248.761	160.795	317.835	276.970	159.408	165.112	158.795	207.282	163.087	169.274	170.028	176.535	303.093	174.640	-8191	255	
1072.794	1	1	0	0	0.14839	0.24471	0.1811	0.16475	0.18724	0.065459	0.077358	0.15934	0.12306	0.069436	0.13412	0.16319	0.09733	0.26774	0.23439	0.13469	-2	-2.1917	-2.7854	-2.5208	-2.4958	-2.6437	-2.4354	-2.7708	-2.6042	-2.3875	-2.9208	-2.45	-2.3292	-2.7583	-2.3958	-2.5958	259.655	155.321	161.460	397.926	327.449	254.467	150.362	467.187	176.679	408.220	316.458	431.339	184.016	503.151	319.187	268.493	0.0007112	0.00028661	1.4583e-05	543.46	1.2883e-06	3.0202e-06	774.66	140.51	2.4837e-06	1.9693e-06	229.78	55.32	29.697	12.418	2.9096e-06	27.518	6.6496e-05	6.1675e-05	1.7204e-05	458.26	6.7412e-07	6.7558e-07	718	129.34	6.8748e-07	6.8056e-07	202.69	50.066	27.093	11.524	6.8272e-07	24.533	349.550	292.181	178.278	160.582	191.149	250.985	159.551	164.774	227.530	314.455	162.840	169.163	170.144	176.610	199.028	174.545	-8191	255	
1072.888	1	1	0	0	0.19643	0.10328	0.13328	0.097292	0.20465	0.041352	0.10545	0.21114	0.27805	0.15044	0.11956	0.19543	0.20478	0.061202	0.096168	0.082256	-2.2708	-2.5396	-2.5333	-2.6	-2.425	-2.8	-2.4083	-2.6292	-2.6146	-2.4521	-2.775	-2.3771	-2.3354	-2.6521	-2.5667	-2.4854	422.512	258.174	395.591	407.849	466.015	298.270	424.934	487.041	402.542	379.928	305.573	162.789	392.531	454.618	164.002	418.111	0.00076201	9.9669e-05	3.4512e-05	535.76	2.2943e-06	2.4465e-06	772.78	140	2.1384e-06	4.1434e-06	230.78	55.554	29.71	12.429	2.3465e-06	27.962	6.6037e-05	6.2429e-05	1.7144e-05	457.6	6.8694e-07	6.7749e-07	718.58	128.83	6.7367e-07	6.8254e-07	202.96	50.114	27.088	11.497	6.7564e-07	24.758	344.121	225.645	220.783	160.490	270.550	148.234	159.343	164.873	253.241	259.273	163.064	169.455	170.630	177.114	233.411	174.616	-8191	255	
1072.986	1	1	0	0	0.15794	0.078569	0.084655	0.17355	0.14049	0.14799	0.069019	0.16546	0.17406	0.028006	0.13415	0.12752	0.059743	0.22333	0.13695	0.42162	-2.325	-2.2354	-2.7917	-2.5667	-2.3917	-2.6979	-2.5354	-2.5333	-2.6063	-2.4292	-2.775	-2.6042	-2.3583	-2.7375	-2.5208	-2.5104	449.757	359.881	152.239	414.855	386.740	255.245	216.984	347.740	358.798	346.103	389.009	441.785	453.188	354.621	352.798	458.410	0.00084845	0.00015396	1.6062e-05	544.59	1.0543e-06	3.9967e-06	774.36	139.71	7.0727e-06	2.2593e-06	230.47	55.824	29.431	12.483	1.3541e-06	27.783	6.6857e-05	6.2188e-05	1.7302e-05	460.28	6.829e-07	6.7281e-07	720.55	129	6.8576e-07	6.8949e-07	203.25	50.197	27.002	11.53	6.7905e-07	24.725	344.147	211.816	295.520	160.094	242.870	258.185	159.443	164.738	241.449	298.789	163.449	169.144	169.986	176.603	358.614	174.514	-8191	255	
1073.105	1	1	0	0	0.078127	0.13143	0.091256	0.11975	0.083542	0.28437	0.092941	0.061819	0.14781	0.072059	0.28759	0.14334	0.11469	0.071312	0.12237	0.15196	-2.325	-2.2771	-2.7167	-2.575	-2.4521	-2.8604	-2.7042	-2.4125	-2.875	-2.3312	-2.6833	-2.6542	-2.5479	-2.6479	-2.4729	-2.4625	272.628	360.187	150.124	330.837	164.203	301.047	320.960	464.377	323.196	227.615	448.071	428.407	321.160	361.838	256.374	201.716	0.00076413	0.00014499	9.568e-05	545.99	1.6279e-06	2.4834e-06	778.69	139.1	1.2777e-06	1.3664e-06	229.68	54.99	29.632	12.416	3.0834e-06	27.496	6.6836e-05	6.2282e-05	1.7405e-05	459.56	6.8141e-07	6.7583e-07	720.38	129.18	6.8404e-07	6.7802e-07	202.76	49.85	27.034	11.489	6.7744e-07	24.451	345.898	187.210	247.423	160.523	389.910	301.141	159.701	165.219	418.195	263.578	162.856	169.014	169.947	176.643	250.237	174.456	-8191	255	
1073.176	1	1	0	0	0.043638	0.12142	0.090766	0.085887	0.20946	0.1771	0.026356	0.14097	0.24055	0.14306	0.18056	0.16803	0.092398	0.19487	0.19939	0.10541	-2.3312	-2.4604	-2.5854	-2.6917	-2.5729	-2.8292	-2.6979	-2.6167	-2.9	-2.5104	-2.5958	-2.8417	-2.4021	-2.6896	-2.6937	-2.6688	172.489	453.515	206.274	189.886	349.088	393.291	375.911	487.620	342.996	201.372	192.307	478.336	412.413	199.042	362.656	410.497	0.00076466	0.00015033	7.3624e-05	536.84	2.1236e-06	1.4786e-06	775.07	140.73	2.9232e-06	1.6609e-06	230.37	55.69	29.215	12.497	2.7768e-06	27.614	6.56e-05	6.1776e-05	1.7201e-05	458.62	6.7502e-07	6.7964e-07	719.4	129.41	6.9149e-07	6.7469e-07	202.92	50.161	26.946	11.553	6.6808e-07	24.646	339.853	250.308	309.325	160.614	199.314	198.841	159.281	164.841	289.957	217.950	163.050	169.231	170.489	176.612	305.478	174.696	-8191	255	
1073.273	1	1	0	0	0.12976	0.3468	0.30256	0.07573	0.020538	0.22665	0.13409	0.15388	0.25631	0.030784	0.15025	0.1362	0.11721	0.18823	0.25241	0.11733	-2.1354	-2.4562	-2.5521	-2.8354	-2.4646	-2.7417	-2.5896	-2.2708	-2.7583	-2.2854	-2.5729	-2.6375	-2.4208	-2.7292	-2.3646	-2.3812	334.080	325.128	474.703	280.964	215.286	205.001	453.666	306.310	417.137	442.828	431.731	358.808	361.852	405.472	485.848	376.569	0.00064527	4.6529e-06	6.7396e-05	540.11	2.0958e-06	1.349e-06	776.47	138.58	3.0292e-06	5.339e-07	231.13	55.884	29.727	12.593	1.9104e-06	27.668	6.6393e-05	6.124e-05	1.7375e-05	459.38	6.766e-07	6.75e-07	720.07	128.79	6.7461e-07	6.8636e-07	203.68	50.328	27.08	11.59	6.8212e-07	24.848	351.380	417.367	502.635	160.300	186.818	252.341	159.636	164.703	274.234	310.360	162.868	169.233	169.922	176.713	269.072	174.925	-8191	255	
1073.393	1	1	0	0	0.10213	0.19169	0.073924	0.19929	0.11163	0.12983	0.038282	0.1288	0.21178	0.22623	0.24364	0.19419	0.026004	0.097777	0.24383	0.15615	-2.2958	-2.4667	-2.5125	-2.6917	-2.5708	-2.4688	-2.7188	-2.3958	-2.75	-2.5333	-2.5583	-2.8458	-2.5667	-2.5583	-2.7354	-2.3729	183.113	301.232	315.097	291.136	387.348	314.500	506.812	473.405	418.277	258.847	269.937	403.425	272.982	243.528	474.745	377.472	0.00071212	0.00034395	6.1959e-05	540.87	3.7119e-06	2.148e-06	778.94	139.95	2.6946e-06	5.2321e-07	230.93	55.781	30.005	12.626	2.0422e-06	27.71	6.652e-05	6.1693e-05	1.7355e-05	459.45	6.8538e-07	6.6926e-07	721.06	129.38	6.6276e-07	6.7057e-07	203.95	50.444	27.303	11.623	6.8853e-07	24.637	352.553	216.026	504.518	160.449	308.816	233.797	159.353	165.065	349.810	225.434	163.267	169.276	170.582	176.777	218.181	174.723	-8191	255	
1073.489	1	1	0	0	0.12623	0.061437	0.075736	0.084597	0.076259	0.23823	0.39403	0.1438	0.30677	0.22259	0.14154	0.41858	0.11365	0.058587	0.070109	0.13492	-2.075	-2.3417	-2.4562	-2.4854	-2.5708	-2.7021	-2.7271	-2.5062	-2.7687	-2.6521	-2.5729	-2.8042	-2.6063	-2.3937	-2.6292	-2.4437	296.762	335.968	209.631	279.214	306.344	380.284	446.300	349.881	267.253	200.871	490.999	432.059	170.806	422.228	222.598	292.174	0.00070646	4.1125e-05	5.9219e-05	542.55	2.4275e-06	4.1322e-06	775.61	139.86	2.7622e-06	2.0732e-06	231.29	56.144	29.544	12.644	1.1526e-07	27.995	6.579e-05	6.1873e-05	1.7196e-05	458.34	6.6017e-07	6.7076e-07	719.61	129.23	6.7792e-07	6.6649e-07	204.02	50.456	27.199	11.658	6.757e-07	24.87	344.239	405.072	227.823	160.526	224.364	348.992	159.449	164.868	238.679	242.023	163.249	169.416	170.427	176.839	186.407	174.748	-8191	255	
1073.586	1	1	0	0	0.30662	0.12129	0.069627	0.28588	0.09293	0.031447	0.16162	0.21426	0.17906	0.086946	0.13198	0.2315	0.10078	0.082789	0.21278	0.20912	-2.1896	-2.4604	-2.3417	-2.8229	-2.7208	-2.4125	-2.8812	-2.4333	-2.6667	-2.6188	-2.525	-2.7479	-2.6125	-2.4417	-2.7771	-2.3917	433.268	224.140	263.536	295.698	470.348	256.423	497.696	444.753	165.433	354.287	217.341	481.282	422.478	394.040	293.875	443.375	0.00074735	9.645e-05	4.8449e-05	542.64	2.4844e-06	2.5711e-06	774.97	140.92	1.6801e-06	1.3016e-06	231.21	56.421	30.044	12.597	3.1005e-06	28.114	6.6176e-05	6.2645e-05	1.7416e-05	455.24	6.7149e-07	6.796e-07	718.89	129.63	6.7555e-07	6.8782e-07	203.37	50.651	27.331	11.686	6.7802e-07	25.059	343.207	319.246	249.363	160.472	338.813	334.452	159.476	164.826	286.196	221.056	163.190	169.137	169.765	177.060	295.016	174.331	-8191	255	
1073.682	1	1	0	0	0.032435	0.041677	0.078226	0.14643	0.25312	0.03044	0.04166	0.14607	0.039398	0.13121	0.25876	0.24836	0.12258	0.33919	0.18217	0.26474	-2.1813	-2.6729	-2.4188	-2.4604	-2.4437	-2.4833	-2.7188	-2.425	-2.5854	-2.7208	-2.3771	-2.55	-2.4458	-2.4313	-2.6792	-2.45	350.282	260.966	245.125	221.270	280.014	504.296	188.304	223.395	341.646	327.976	432.183	151.932	355.476	461.437	424.663	377.014	0.00081353	0.00026145	5.3115e-05	542.54	1.28e-06	2.8933e-06	773.29	140.24	6.5207e-06	5.7523e-08	231.14	56.423	29.886	12.718	3.3556e-06	27.97	6.5947e-05	6.1724e-05	1.7301e-05	458.05	6.9157e-07	6.8036e-07	718.75	129.47	6.86e-07	6.7365e-07	204.22	50.741	27.352	11.744	6.6507e-07	24.876	357.667	221.197	303.534	160.801	267.939	288.074	159.809	164.877	275.463	319.302	163.122	169.491	169.920	176.836	283.061	174.768	-8191	255	
1073.778	1	1	0	0	0.21736	0.19292	0.10032	0.25152	0.14924	0.12618	0.26623	0.082035	0.12751	0.19097	0.064055	0.21091	0.23005	0.22265	0.13241	0.18805	-1.9417	-2.4417	-2.4958	-2.8063	-2.6208	-2.4771	-2.95	-2.5083	-2.525	-2.9146	-2.4437	-2.7854	-2.5333	-2.4208	-2.6625	-2.5021	287.453	213.161	299.212	481.267	206.424	356.569	477.180	220.491	166.093	174.025	378.627	334.167	226.826	235.457	271.611	392.720	0.00092595	0.00012496	7.8598e-05	541.94	3.2945e-06	2.6388e-06	776.86	139.82	2.172e-06	1.8106e-06	231	55.82	30.094	12.595	1.467e-06	27.813	6.5623e-05	6.112e-05	1.6852e-05	456.81	6.6859e-07	6.7458e-07	719.17	129.45	6.8309e-07	6.705e-07	203.37	50.414	27.321	11.634	6.7122e-07	24.69	346.128	254.517	219.880	160.307	294.492	418.887	159.530	164.748	226.731	208.741	163.429	169.223	170.119	177.153	253.572	174.360	-8191	255	
1073.874	1	1	0	0	0.22736	0.16631	0.19581	0.083425	0.37811	0.16241	0.11192	0.3457	0.1647	0.059061	0.21917	0.12684	0.25378	0.20713	0.17281	0.072139	-2.0771	-2.7104	-2.5833	-2.7	-2.5896	-2.6208	-2.7792	-2.6188	-2.3396	-2.8021	-2.4292	-2.6021	-2.6021	-2.3438	-2.6437	-2.4583	420.539	345.023	507.148	159.552	319.377	201.659	340.421	333.551	473.966	286.042	431.213	487.905	499.419	366.846	324.591	328.335	0.00074072	0.00026885	5.1122e-05	539.17	1.3732e-06	9.8486e-07	773.26	139.94	5.2916e-06	1.5779e-06	231.68	56.148	30.185	12.544	1.2523e-06	27.885	6.5494e-05	6.1954e-05	1.6976e-05	455.46	6.7382e-07	6.6638e-07	716.58	129.14	6.7816e-07	6.6384e-07	203.67	50.465	27.242	11.639	6.7281e-07	24.815	343.140	234.879	244.590	160.411	335.668	364.195	159.733	165.148	224.233	219.791	162.899	168.885	170.486	176.671	291.162	174.530	-8191	255	
1073.968	1	1	0	0	0.19872	0.31674	0.065421	0.12208	0.24853	0.15418	0.15576	0.34588	0.13751	0.22454	0.021488	0.30825	0.25639	0.24635	0.1978	0.26441	-1.9896	-2.6896	-2.4104	-2.3625	-2.625	-2.3729	-2.8021	-2.6229	-2.2125	-2.5563	-2.35	-2.6292	-2.7708	-2.5	-2.7042	-2.65	312.087	368.772	167.689	412.665	195.982	272.978	383.194	450.700	328.377	360.693	374.418	155.620	326.591	446.320	503.408	460.263	0.00064459	0.00014356	4.5327e-05	535.01	3.1023e-06	1.3828e-06	770.02	139.9	2.2247e-06	1.3726e-06	232.76	56.242	29.795	12.631	1.9137e-06	28.031	6.6198e-05	6.1651e-05	1.7041e-05	454.62	6.7425e-07	6.8121e-07	715.63	128.9	6.8267e-07	6.7454e-07	204.09	50.68	27.315	11.712	6.7193e-07	25.092	350.333	190.259	226.385	160.593	323.845	183.705	159.293	164.838	224.797	360.687	162.917	169.401	170.187	176.848	230.631	174.527	-8191	255	
1074.066	1	1	0	0	0.25447	0.10492	0.11692	0.21165	0.12069	0.10777	0.21112	0.064384	0.093959	0.10923	0.044179	0.073177	0.22871	0.11949	0.092966	0.30364	-1.9583	-2.8354	-2.4729	-2.5083	-2.7417	-2.3438	-2.6125	-2.7146	-2.2375	-2.7542	-2.5312	-2.5062	-2.6917	-2.4688	-2.6396	-2.8312	244.865	453.469	328.277	479.059	329.683	490.079	464.890	203.594	341.837	188.804	410.836	486.072	446.672	413.823	484.444	448.942	0.00079971	0.00029901	6.2878e-05	540.98	1.53e-06	3.7304e-06	772.81	140.53	4.0348e-06	1.7099e-06	230	56.422	30.047	12.593	1.5919e-06	27.905	6.6066e-05	6.2055e-05	1.6996e-05	455.81	6.6328e-07	6.7343e-07	718.15	129.43	6.7371e-07	6.6061e-07	202.77	50.415	27.245	11.665	6.7696e-07	24.741	342.470	264.003	196.674	160.827	220.877	269.157	159.299	165.013	236.621	208.944	162.909	169.199	170.391	177.061	270.055	174.760	-8191	255	
1074.185	1	1	0	0	0.09753	0.10887	0.12481	0.29749	0.14395	0.15685	0.15998	0.16106	0.099755	0.059521	0.028873	0.063696	0.24651	0.36439	0.26671	0.11555	-1.7833	-2.6688	-2.4188	-2.4729	-2.7375	-2.3417	-2.7188	-2.9354	-2.3542	-2.8333	-2.5812	-2.3667	-2.8	-2.5375	-2.5229	-2.6167	423.293	442.459	348.413	199.572	337.494	236.655	376.809	306.007	471.067	190.965	147.935	164.980	221.456	459.674	341.059	473.416	0.00077265	7.8618e-05	1.0347e-05	541.15	2.2568e-06	2.792e-06	768.1	139.66	2.1003e-06	3.1089e-06	228.56	55.964	29.768	12.637	5.3636e-07	27.91	6.5967e-05	6.1919e-05	1.7152e-05	455.15	6.7605e-07	6.7437e-07	713.23	128.76	6.8879e-07	6.653e-07	202.44	50.398	27.154	11.714	6.7925e-07	24.835	347.657	478.517	284.600	160.538	281.969	300.990	159.304	164.993	275.572	239.133	162.962	169.095	170.388	176.880	412.469	174.505	-8191	255	
1074.281	1	1	0	0	0.24807	0.14608	0.14176	0.066095	0.27766	0.17626	0.0050498	0.34021	0.018397	0.11644	0.3077	0.19008	0.25884	0.19595	0.15235	0.22588	-1.8583	-2.6437	-2.5479	-2.3542	-2.55	-2.5229	-2.5354	-2.8375	-2.6063	-2.6583	-2.6854	-2.4375	-2.7188	-2.5729	-2.4979	-2.8458	237.352	276.673	428.394	367.320	431.823	468.462	308.219	195.109	458.057	396.246	417.058	431.683	237.532	339.935	176.142	166.734	0.00086961	0.0001275	7.35e-05	538.43	2.0487e-06	2.51e-06	770.84	139.05	1.1231e-06	5.8132e-07	230.89	55.942	29.886	12.744	3.1974e-06	28.319	6.752e-05	6.1596e-05	1.7079e-05	454.09	6.8249e-07	6.788e-07	715.08	128.7	6.8497e-07	6.7031e-07	203.13	50.529	27.397	11.747	6.7897e-07	25.177	348.704	396.563	230.957	160.323	225.394	153.176	159.991	164.679	480.442	163.693	162.819	168.915	170.410	176.859	276.235	174.829	-8191	255	
1074.377	1	1	0	0	0.15212	0.1387	0.13863	0.14198	0.072109	0.27351	0.2347	0.16907	0.12353	0.23715	0.033011	0.055504	0.15952	0.092446	0.083828	0.10546	-2.0312	-2.525	-2.625	-2.4938	-2.8688	-2.4479	-2.4417	-2.9313	-2.3146	-2.5646	-2.8396	-2.3688	-2.525	-2.6542	-2.5271	-2.7729	272.972	154.167	273.285	488.145	373.469	324.282	428.771	412.620	178.404	445.840	182.639	405.098	228.834	426.695	266.920	330.604	0.00073927	0.00013393	6.8907e-05	540.75	3.2719e-06	4.878e-06	772.83	139.43	4.7245e-06	2.6983e-06	229.68	55.853	29.464	12.726	2.1668e-06	28.088	6.6732e-05	6.1629e-05	1.7306e-05	454.16	6.7142e-07	6.7794e-07	716.43	128.43	6.8128e-07	6.7316e-07	203	50.402	27.225	11.733	6.827e-07	25.029	343.431	395.728	248.685	160.603	223.887	205.947	159.655	164.706	277.765	275.979	162.966	169.458	170.266	176.807	180.953	174.518	-8191	255	
1074.474	1	1	0	0	0.27794	0.27301	0.072352	0.25763	0.17538	0.17316	0.2018	0.06849	0.011221	0.33523	0.13405	0.053906	0.23672	0.18921	0.08337	0.16695	-2.0354	-2.5146	-2.6896	-2.4333	-2.6292	-2.7146	-2.6625	-2.8563	-2.6458	-2.5604	-2.6917	-2.4062	-2.6833	-2.5875	-2.4333	-2.8125	413.646	488.795	197.719	198.750	170.607	199.653	455.070	497.615	216.378	196.525	460.309	402.567	347.595	480.617	421.171	343.341	0.00067466	9.132e-05	1.7786e-05	539.26	3.1457e-06	4.3204e-06	770.74	138.48	1.2625e-06	9.9973e-07	227.4	55.825	29.363	12.459	3.6478e-06	27.931	6.6454e-05	6.1733e-05	1.7031e-05	455.02	6.7468e-07	6.7197e-07	715.37	128.21	6.8e-07	6.7225e-07	201.79	50.338	27.061	11.673	6.756e-07	24.938	344.489	243.918	301.216	160.235	326.605	312.063	159.523	164.698	498.419	176.595	163.098	169.396	170.484	176.930	272.694	174.456	-8191	255	
1074.570	1	1	0	0	0.14109	0.060859	0.11686	0.18072	0.32426	0.3574	0.1107	0.15613	0.15889	0.084413	0.30448	0.03937	0.020147	0.30102	0.065978	0.17573	-1.9604	-2.6917	-2.7125	-2.3937	-2.6646	-2.5812	-2.5458	-2.8	-2.6125	-2.3646	-2.7646	-2.325	-2.6958	-2.5729	-2.4146	-2.8354	499.014	351.447	200.212	488.391	377.254	425.593	455.135	341.857	170.187	243.292	291.633	183.076	293.781	432.680	360.226	449.035	0.0007369	8.7681e-05	6.3183e-05	535.21	1.074e-06	2.8143e-06	768.61	139.14	2.2633e-06	1.0051e-06	230.9	56.245	29.823	12.662	3.7533e-06	28.403	6.6494e-05	6.2227e-05	1.7389e-05	454.54	6.8098e-07	6.7866e-07	713.96	128.39	6.8853e-07	6.8533e-07	203.44	50.583	27.178	11.681	6.8262e-07	25.137	343.848	222.017	171.532	160.931	292.357	261.823	159.538	164.661	230.804	310.665	163.068	169.288	170.611	176.956	227.782	174.596	-8191	255	
1074.666	1	1	0	0	0.17047	0.018778	0.19311	0.21285	0.05624	0.037381	0.24086	0.166	0.22121	0.22329	0.016436	0.16602	0.21691	0.058694	0.13308	0.08363	-2.175	-2.5896	-2.7062	-2.5479	-2.6833	-2.675	-2.4771	-2.6542	-2.4521	-2.4188	-2.8167	-2.5271	-2.5042	-2.7771	-2.3104	-2.7646	282.261	269.349	276.188	155.459	498.511	359.692	446.526	215.148	196.136	278.618	370.986	501.727	316.747	439.339	285.059	428.943	0.00082909	3.2993e-05	2.9921e-05	533	2.7084e-06	2.4013e-06	772.21	138.19	4.2735e-07	2.5346e-06	231.1	56.552	29.997	12.857	3.0072e-06	28.445	6.6495e-05	6.1798e-05	1.7212e-05	453.28	6.7453e-07	6.8511e-07	717.62	128.13	6.7771e-07	6.8715e-07	203.37	50.805	27.219	11.817	6.7693e-07	25.352	335.334	170.829	162.959	160.383	281.016	362.859	159.359	164.646	252.485	233.453	162.933	169.308	170.400	177.275	238.525	174.582	-8191	255	
1074.787	1	1	0	0	0.1657	0.085465	0.12379	0.29306	0.23654	0.088093	0.4699	0.12983	0.27642	0.20485	0.088263	0.15728	0.093208	0.31695	0.21756	0.12497	-2.2354	-2.4271	-2.6833	-2.4292	-2.6583	-2.75	-2.4562	-2.5458	-2.3354	-2.3729	-2.7479	-2.4021	-2.2896	-2.8042	-2.3021	-2.5604	292.176	333.172	315.292	195.744	358.139	411.794	412.110	361.094	483.870	388.011	162.428	148.935	213.094	210.281	462.067	488.359	0.0007966	0.00013	7.0671e-05	534.38	1.4238e-06	3.0204e-06	774.42	138.32	5.3917e-07	1.7719e-06	230.85	56.117	29.906	12.709	1.8664e-06	28.255	6.7515e-05	6.1498e-05	1.7052e-05	454.52	6.7357e-07	6.7703e-07	715.16	128.39	6.7388e-07	6.8194e-07	203.06	50.381	27.213	11.753	6.7682e-07	25.026	343.942	478.064	158.968	160.587	388.774	365.734	159.585	164.681	311.400	260.071	162.904	169.057	170.215	176.559	218.073	174.674	-8191	255	
1074.881	1	1	0	0	0.1811	0.14309	0.24245	0.18596	0.10002	0.20594	0.22734	0.096112	0.35344	0.15207	0.16008	0.081423	0.063494	0.11648	0.26758	0.32052	-2.1646	-2.3292	-2.7188	-2.4833	-2.4521	-2.7313	-2.4167	-2.6458	-2.7583	-2.525	-2.5167	-2.4729	-2.4229	-2.7375	-2.4562	-2.45	233.540	326.927	186.190	398.864	295.105	332.164	478.208	361.625	346.782	408.990	446.037	422.962	501.703	196.209	182.920	352.610	0.00083841	0.00015064	1.829e-05	534.98	2.9467e-06	1.7469e-06	773.11	138.49	2.6169e-06	2.5514e-06	230.73	55.865	29.701	12.771	2.7276e-06	28.452	6.627e-05	6.2045e-05	1.7115e-05	452.58	6.7226e-07	6.6627e-07	716.32	128.03	6.8129e-07	6.7582e-07	202.82	50.555	27.126	11.757	6.8064e-07	25.179	347.207	256.744	424.183	160.955	304.777	267.360	159.524	165.044	237.746	242.977	162.940	169.233	169.698	176.796	219.510	174.484	-8191	255	
1074.977	1	1	0	0	0.23574	0.084953	0.14756	0.20028	0.058634	0.0095838	0.086463	0.16169	0.12627	0.23275	0.1176	0.0095572	0.25778	0.079604	0.16266	0.30956	-2.1625	-2.4083	-2.625	-2.7229	-2.2104	-2.9208	-2.7042	-2.6208	-2.6625	-2.4354	-2.7521	-2.5563	-2.3979	-2.7542	-2.3979	-2.5333	264.837	410.175	503.021	355.263	182.530	157.034	440.226	210.370	150.396	264.193	341.429	322.503	172.084	193.748	147.657	375.700	0.00078425	0.00030761	7.7997e-05	536.07	4.9696e-07	2.8997e-06	774.09	139.25	1.181e-06	3.2617e-06	230.85	56.58	29.977	12.903	2.7268e-06	28.626	6.5911e-05	6.1655e-05	1.7238e-05	454.9	6.8078e-07	6.8459e-07	716.11	128.35	6.905e-07	6.8434e-07	203.3	50.844	27.3	11.859	6.739e-07	25.419	342.733	216.581	219.588	160.659	280.897	321.783	159.426	164.796	195.799	216.431	163.644	169.323	169.840	177.284	267.102	174.232	-8191	255	
1075.051	1	1	0	0	0.19719	0.16952	0.21137	0.22277	0.17532	0.2402	0.053766	0.17775	0.23299	0.21363	0.16063	0.24377	0.23406	0.044066	0.16159	0.086738	-2.2062	-2.2104	-2.5771	-2.6417	-2.5646	-2.5792	-2.5687	-2.3917	-2.7979	-2.5646	-2.6542	-2.6729	-2.4125	-2.5958	-2.4333	-2.3792	172.306	234.268	476.375	418.027	257.991	232.806	485.547	174.419	221.047	239.612	487.420	170.283	407.232	285.654	158.078	369.474	0.00063803	7.3426e-05	7.381e-05	538.03	4.2824e-07	1.5849e-06	774.04	139.54	4.5411e-06	1.3772e-06	229.98	56.406	29.729	12.683	2.7893e-06	28.036	6.6145e-05	6.2618e-05	1.7111e-05	454.07	6.8868e-07	6.6237e-07	718.41	128.66	6.838e-07	6.7785e-07	203.35	50.75	27.31	11.734	6.8244e-07	24.981	354.040	359.327	221.621	160.843	308.131	335.143	159.738	164.609	255.435	299.733	162.995	168.975	170.403	177.265	215.061	174.400	-8191	255	
1075.169	1	1	0	0	0.52741	0.18536	0.072605	0.12977	0.1173	0.12056	0.20189	0.13166	0.13499	0.11346	0.13733	0.31226	0.13688	0.23371	0.16504	0.076263	-2.2	-2.2333	-2.4771	-2.5333	-2.3458	-2.6604	-2.5979	-2.4396	-2.7167	-2.4167	-2.6	-2.675	-2.3583	-2.6083	-2.3563	-2.2354	160.606	178.007	304.601	430.739	277.171	185.462	452.593	359.445	452.497	366.616	483.021	451.110	309.530	347.902	266.475	489.173	0.00061554	0.00021351	8.6353e-05	536.91	2.73e-06	3.6101e-06	772.24	139.08	4.3898e-06	9.5073e-07	230.36	55.975	29.863	12.6	1.9986e-06	27.975	6.583e-05	6.1624e-05	1.6939e-05	454.39	6.8048e-07	6.6973e-07	717.27	128.73	6.8331e-07	6.6833e-07	203.44	50.491	27.13	11.633	6.7666e-07	25.029	352.072	250.973	162.667	161.057	333.100	243.984	159.498	165.237	287.580	420.336	162.951	169.268	170.322	177.088	303.926	174.893	-8191	255	
1075.266	1	1	0	0	0.20441	0.35588	0.156	0.18481	0.32787	0.056348	0.10918	0.15521	0.26812	0.030181	0.21458	0.1294	0.29601	0.22127	0.26637	0.22838	-2.1688	-2.3875	-2.3333	-2.7479	-2.2687	-2.7896	-2.7333	-2.375	-2.6542	-2.3021	-2.6458	-2.5875	-2.275	-2.5833	-2.6333	-2.3875	235.165	341.880	228.134	475.247	413.007	397.466	419.002	371.842	377.706	506.979	355.706	246.607	257.354	298.907	202.047	217.378	0.0006335	3.7383e-05	4.9382e-05	533.2	3.3391e-06	3.2004e-06	769.43	139.17	1.8873e-06	1.5724e-06	230.99	56.309	29.898	12.727	3.8117e-06	28.281	6.593e-05	6.1452e-05	1.7223e-05	453.03	6.7301e-07	6.9036e-07	715.49	128.25	6.8659e-07	6.7821e-07	203.37	50.554	27.021	11.724	6.8081e-07	25.145	346.713	191.912	263.901	160.858	291.183	372.679	159.405	165.132	276.135	352.368	162.695	169.044	170.274	176.926	200.661	174.434	-8191	255	
#DATA ENDS
