BOXY.EXE: ISS Imagent and Oximeter Data Acquisition Program Version 0.80
Ascii Record File

#ACQ INFORMATION
2  Detector Channels 
16  External MUX Channels 
1  Auxiliary Channels 
5000  Waveform (CCF) Frequency (Hz)
1  Waveforms Skipped 
30  Waveforms Averaged 
1  Cycles Averaged 
16  Acquisitions per Waveform 
10.0806  Updata Rate (Hz) 

#FILE INFORMATION
TRUE -- External MUX Channel results are PARSED.
FALSE -- AC DC and Phase are NOT grouped.
TRUE -- Companion Program Settings File CREATED.
FALSE -- AC data not excluded
FALSE -- DC data not excluded
FALSE -- Phase data not excluded
FALSE -- Auxillary Chn. data not excluded
Tab delimiters

#CALIBRATION STATE
TRUE -- Waveform Calibration Values APPLIED.


#AUX CALIBRATION VALUES
Val Type	aux-1	

Term	1.0000e+00	
Factor	0.0000e+00	


#WF CALIBRATION VALUES
A = Detector Channel
Val Type	A-AC1	A-AC2	A-AC3	A-AC4	A-AC5	A-AC6	A-AC7	A-AC8	A-AC9	A-AC10	A-AC11	A-AC12	A-AC13	A-AC14	A-AC15	A-AC16	A-DC1	A-DC2	A-DC3	A-DC4	A-DC5	A-DC6	A-DC7	A-DC8	A-DC9	A-DC10	A-DC11	A-DC12	A-DC13	A-DC14	A-DC15	A-DC16	A-Ph1	A-Ph2	A-Ph3	A-Ph4	A-Ph5	A-Ph6	A-Ph7	A-Ph8	A-Ph9	A-Ph10	A-Ph11	A-Ph12	A-Ph13	A-Ph14	A-Ph15	A-Ph16	

Term	0.00000e+00	0.00000e+00	0.00000e+00	0.00000e+00	0.00000e+00	0.00000e+00	0.00000e+00	0.00000e+00	0.00000e+00	0.00000e+00	0.00000e+00	0.00000e+00	0.00000e+00	0.00000e+00	0.00000e+00	0.00000e+00	0.00000e+00	0.00000e+00	0.00000e+00	0.00000e+00	0.00000e+00	0.00000e+00	0.00000e+00	0.00000e+00	0.00000e+00	0.00000e+00	0.00000e+00	0.00000e+00	0.00000e+00	0.00000e+00	0.00000e+00	0.00000e+00	0.00000e+00	0.00000e+00	0.00000e+00	0.00000e+00	0.00000e+00	0.00000e+00	0.00000e+00	0.00000e+00	0.00000e+00	0.00000e+00	0.00000e+00	0.00000e+00	0.00000e+00	0.00000e+00	0.00000e+00	0.00000e+00	
Factor	1.00000e+00	1.00000e+00	1.00000e+00	1.00000e+00	1.00000e+00	1.00000e+00	1.00000e+00	1.00000e+00	1.00000e+00	1.00000e+00	1.00000e+00	1.00000e+00	1.00000e+00	1.00000e+00	1.00000e+00	1.00000e+00	1.00000e+00	1.00000e+00	1.00000e+00	1.00000e+00	1.00000e+00	1.00000e+00	1.00000e+00	1.00000e+00	1.00000e+00	1.00000e+00	1.00000e+00	1.00000e+00	1.00000e+00	1.00000e+00	1.00000e+00	1.00000e+00	X	X	X	X	X	X	X	X	X	X	X	X	X	X	X	X	

B = Detector Channel
Val Type	B-AC1	B-AC2	B-AC3	B-AC4	B-AC5	B-AC6	B-AC7	B-AC8	B-AC9	B-AC10	B-AC11	B-AC12	B-AC13	B-AC14	B-AC15	B-AC16	B-DC1	B-DC2	B-DC3	B-DC4	B-DC5	B-DC6	B-DC7	B-DC8	B-DC9	B-DC10	B-DC11	B-DC12	B-DC13	B-DC14	B-DC15	B-DC16	B-Ph1	B-Ph2	B-Ph3	B-Ph4	B-Ph5	B-Ph6	B-Ph7	B-Ph8	B-Ph9	B-Ph10	B-Ph11	B-Ph12	B-Ph13	B-Ph14	B-Ph15	B-Ph16	

Term	0.00000e+00	0.00000e+00	0.00000e+00	0.00000e+00	0.00000e+00	0.00000e+00	0.00000e+00	0.00000e+00	0.00000e+00	0.00000e+00	0.00000e+00	0.00000e+00	0.00000e+00	0.00000e+00	0.00000e+00	0.00000e+00	0.00000e+00	0.00000e+00	0.00000e+00	0.00000e+00	0.00000e+00	0.00000e+00	0.00000e+00	0.00000e+00	0.00000e+00	0.00000e+00	0.00000e+00	0.00000e+00	0.00000e+00	0.00000e+00	0.00000e+00	0.00000e+00	2.70886e+01	-1.47570e+02	-1.59823e+02	-1.87769e+02	-7.16749e+01	-1.02766e+02	-1.57019e+02	-1.62015e+02	-1.01898e+02	-8.89711e+01	-1.73571e+02	-1.72116e+02	-1.82981e+02	-1.77625e+02	-1.07765e+02	-1.50887e+02	
Factor	4.90076e-05	9.02078e-05	2.72429e-05	5.41330e-01	1.00772e-06	1.22008e-06	1.72070e-01	5.71424e-02	1.21130e-06	1.00603e-06	1.10401e-01	3.27385e-02	3.12637e-02	9.63839e-03	1.14382e-06	1.41262e-02	4.51512e-07	4.55847e-07	1.26572e-07	2.20301e-01	4.97833e-09	4.98109e-09	7.62968e-02	2.65919e-02	4.98129e-09	4.97910e-09	4.73171e-02	1.42145e-02	1.38173e-02	4.35854e-03	4.97014e-09	6.06963e-03	X	X	X	X	X	X	X	X	X	X	X	X	X	X	X	X	



#DISTANCE SETTINGS
A = Detector Channel
A-1	A-2	A-3	A-4	A-5	A-6	A-7	A-8	A-9	A-10	A-11	A-12	A-13	A-14	A-15	A-16	

2.5000e+00	3.0000e+00	2.5000e+00	3.0000e+00	2.0000e+00	3.0000e+00	1.5000e+00	3.0000e+00	3.0000e+00	3.0000e+00	3.0000e+00	3.0000e+00	3.0000e+00	3.0000e+00	1.5000e+00	3.0000e+00	

B = Detector Channel
B-1	B-2	B-3	B-4	B-5	B-6	B-7	B-8	B-9	B-10	B-11	B-12	B-13	B-14	B-15	B-16	

1.0000e+01	1.0000e+01	1.0000e+01	1.4400e+00	1.0000e+01	1.0000e+01	1.5100e+00	1.9400e+00	1.0000e+01	1.0000e+01	1.9900e+00	2.4900e+00	2.4100e+00	2.9000e+00	1.0000e+01	2.9800e+00	




#DATA BEGINS
time	group	step	mark	flag	A-AC1	A-AC2	A-AC3	A-AC4	A-AC5	A-AC6	A-AC7	A-AC8	A-AC9	A-AC10	A-AC11	A-AC12	A-AC13	A-AC14	A-AC15	A-AC16	A-DC1	A-DC2	A-DC3	A-DC4	A-DC5	A-DC6	A-DC7	A-DC8	A-DC9	A-DC10	A-DC11	A-DC12	A-DC13	A-DC14	A-DC15	A-DC16	A-Ph1	A-Ph2	A-Ph3	A-Ph4	A-Ph5	A-Ph6	A-Ph7	A-Ph8	A-Ph9	A-Ph10	A-Ph11	A-Ph12	A-Ph13	A-Ph14	A-Ph15	A-Ph16	B-AC1	B-AC2	B-AC3	B-AC4	B-AC5	B-AC6	B-AC7	B-AC8	B-AC9	B-AC10	B-AC11	B-AC12	B-AC13	B-AC14	B-AC15	B-AC16	B-DC1	B-DC2	B-DC3	B-DC4	B-DC5	B-DC6	B-DC7	B-DC8	B-DC9	B-DC10	B-DC11	B-DC12	B-DC13	B-DC14	B-DC15	B-DC16	B-Ph1	B-Ph2	B-Ph3	B-Ph4	B-Ph5	B-Ph6	B-Ph7	B-Ph8	B-Ph9	B-Ph10	B-Ph11	B-Ph12	B-Ph13	B-Ph14	B-Ph15	B-Ph16	aux-1	digaux	

1093.513	1	1	0	256	0.22644	0.044994	0.19941	0.19253	0.1152	0.29909	0.051607	0.14163	0.29666	0.15242	0.029588	0.13332	0.12028	0.15093	0.053937	0.13335	-2.0958	-2.3479	-2.2438	-2.4458	-2.2375	-2.3125	-2.6771	-2.2667	-2.4771	-2.5958	-2.3146	-2.6396	-2.4583	-2.4542	-2.5354	-2.3208	239.218	287.438	274.764	224.504	324.908	392.429	480.639	346.444	187.306	445.655	487.079	364.013	304.913	339.804	262.638	500.678	0.00064563	0.00026056	1.6537e-05	444.3	2.5313e-07	3.8582e-06	656.79	117.87	1.5909e-06	2.5798e-08	196.24	48.257	25.229	9.0337	2.4613e-06	21.542	5.328e-05	5.0304e-05	1.3908e-05	375.63	5.557e-07	5.5607e-07	608.41	108.28	5.6042e-07	5.6866e-07	173.49	43.352	23.038	8.4591	5.6705e-07	19.29	349.808	189.637	300.355	161.117	212.484	240.209	160.098	165.232	160.021	401.930	163.637	169.919	169.623	177.185	238.164	175.460	-8191	255	
1093.632	1	1	0	0	0.11794	0.1819	0.04624	0.27814	0.16898	0.18449	0.081743	0.065828	0.215	0.18539	0.12724	0.077096	0.28886	0.14177	0.3889	0.23356	-2.0792	-2.5187	-2.2396	-2.5812	-2.5167	-2.5333	-2.7687	-2.1771	-2.5563	-2.65	-2.4042	-2.5187	-2.4396	-2.4104	-2.8646	-2.3875	395.823	451.060	324.451	202.391	373.349	241.271	280.787	425.299	230.169	370.126	368.769	248.822	223.722	157.464	170.264	330.442	0.0005543	0.0001999	9.516e-05	440.14	1.4685e-06	3.8713e-06	651.08	118.61	2.4247e-06	3.6075e-06	199.65	48.726	26.023	9.362	1.0543e-06	21.922	5.536e-05	5.1436e-05	1.4308e-05	373.73	5.6227e-07	5.5842e-07	607.26	108.76	5.595e-07	5.6282e-07	175.62	43.907	23.492	8.6521	5.612e-07	19.73	336.443	237.355	178.452	161.072	213.492	260.131	159.917	165.045	227.922	254.723	163.687	168.967	170.061	177.089	160.203	175.070	-8191	255	
1093.728	1	1	0	0	0.25057	0.16219	0.032086	0.083322	0.20313	0.18742	0.25463	0.27999	0.064673	0.13747	0.11985	0.043834	0.11992	0.22513	0.14263	0.14241	-2.1208	-2.4958	-2.3063	-2.5146	-2.4979	-2.2542	-2.7208	-2.2958	-2.4667	-2.7188	-2.2438	-2.5146	-2.4917	-2.4146	-2.6063	-2.4667	267.470	299.246	225.909	265.510	152.813	400.772	171.276	333.680	279.004	441.066	344.769	435.097	381.944	320.526	301.236	364.837	0.00057785	7.2361e-05	9.2423e-05	439.94	1.4665e-06	1.1509e-06	654.18	118.07	1.8695e-06	1.4139e-06	201.57	49.169	25.873	9.2629	1.2892e-06	22.098	5.4408e-05	5.2066e-05	1.4244e-05	372.85	5.634e-07	5.5861e-07	606.75	108.68	5.6514e-07	5.5917e-07	176.73	44.101	23.508	8.629	5.5096e-07	19.679	336.726	226.323	184.596	160.760	334.354	259.076	160.220	164.750	193.663	333.921	163.474	169.574	169.879	177.270	500.416	174.804	-8191	255	
1093.824	1	1	0	0	0.14798	0.20737	0.10262	0.1749	0.12594	0.22888	0.30326	0.12863	0.23414	0.10715	0.10573	0.3291	0.23816	0.089733	0.11563	0.25802	-2.0167	-2.5854	-2.3312	-2.5771	-2.5104	-2.3333	-2.7562	-2.2417	-2.4896	-2.6917	-2.4062	-2.6146	-2.5229	-2.3458	-2.5979	-2.4562	282.431	422.658	172.194	162.392	458.865	286.483	429.396	484.792	366.929	330.231	233.135	487.533	473.595	162.897	506.272	224.574	0.00065015	0.00010864	7.1684e-05	439.39	3.7574e-06	2.1401e-06	650.66	117.7	1.718e-06	2.5123e-06	199.38	48.701	25.479	9.1536	1.2581e-06	21.74	5.522e-05	5.1103e-05	1.4098e-05	372.77	5.665e-07	5.4694e-07	603.39	108.37	5.5598e-07	5.5337e-07	174.98	43.722	23.217	8.5346	5.5426e-07	19.434	352.988	236.554	322.374	161.033	494.577	268.660	160.287	165.031	304.181	269.331	163.816	169.452	169.965	176.946	326.807	175.889	-8191	255	
1093.945	1	1	0	0	0.48951	0.0096215	0.14285	0.050907	0.082956	0.026475	0.21284	0.08946	0.19011	0.21828	0.18224	0.24604	0.14378	0.17297	0.07201	0.16294	-1.9042	-2.6292	-2.4771	-2.4229	-2.5333	-2.3833	-2.8396	-2.2854	-2.2083	-2.625	-2.3896	-2.4604	-2.6729	-2.4604	-2.6646	-2.4917	435.233	409.420	355.216	441.404	342.655	462.526	371.355	445.239	330.304	251.673	232.399	346.874	296.830	156.584	467.433	164.392	0.00054864	0.00029055	7.6795e-05	440.42	2.5944e-07	1.8434e-06	650.69	117.8	3.684e-06	2.442e-06	197.61	48.809	25.444	9.1733	2.0905e-06	21.921	5.4054e-05	5.0782e-05	1.4123e-05	372.23	5.5987e-07	5.5274e-07	603.34	108.05	5.7231e-07	5.6554e-07	174.34	43.778	23.147	8.5441	5.59e-07	19.58	346.324	160.736	191.957	160.571	152.066	275.057	160.190	164.936	270.003	213.149	163.574	169.212	169.779	177.286	213.555	175.455	-8191	255	
1094.041	1	1	0	0	0.20668	0.22169	0.10626	0.13625	0.060135	0.066335	0.29914	0.17164	0.077418	0.2915	0.11195	0.21209	0.12787	0.039966	0.22115	0.054563	-1.7875	-2.4813	-2.3833	-2.4583	-2.6958	-2.4437	-2.5667	-2.5167	-2.3771	-2.6292	-2.5812	-2.4479	-2.4854	-2.3792	-2.6229	-2.4938	171.798	262.997	219.817	361.837	351.673	439.079	199.867	464.137	502.006	344.181	162.938	153.485	163.358	219.335	340.821	171.291	0.00053795	0.00013371	4.9229e-05	443.81	1.1063e-06	1.4865e-06	656.06	118.36	4.953e-06	2.3033e-06	198.73	48.8	25.932	9.187	9.9215e-07	22.1	5.4879e-05	5.1315e-05	1.4226e-05	374.68	5.6722e-07	5.6259e-07	607.7	108.84	5.6545e-07	5.6341e-07	175.62	43.853	23.482	8.5057	5.5379e-07	19.64	350.336	336.318	169.953	160.384	243.955	214.873	160.381	164.985	222.039	299.738	164.237	169.617	169.959	177.576	180.766	175.802	-8191	255	
1094.113	1	1	0	0	0.047542	0.12455	0.045367	0.13879	0.046625	0.13268	0.097555	0.14797	0.18944	0.13004	0.1183	0.22521	0.13865	0.19246	0.080199	0.35347	-1.8833	-2.5854	-2.3625	-2.4375	-2.6771	-2.2687	-2.7896	-2.4958	-2.3125	-2.7583	-2.5167	-2.1625	-2.6354	-2.1	-2.4479	-2.5979	227.910	147.180	175.575	284.427	191.289	366.469	396.207	359.776	214.404	248.488	191.370	199.198	419.549	503.054	319.975	303.002	0.00063134	0.00020851	6.3241e-05	442.58	1.2139e-07	4.5012e-08	652.97	117.94	1.442e-06	9.0499e-07	199.44	48.523	25.839	9.096	2.1482e-06	21.851	5.4833e-05	5.1105e-05	1.4347e-05	376.07	5.5827e-07	5.5805e-07	606.59	108.91	5.6176e-07	5.4299e-07	175.28	43.63	23.458	8.4965	5.5717e-07	19.381	346.289	177.834	385.296	160.789	322.703	381.958	160.309	165.113	298.183	221.492	163.476	168.901	169.805	176.952	268.318	175.450	-8191	255	
1094.209	1	1	0	0	0.11388	0.25399	0.23279	0.0899	0.071208	0.18819	0.24516	0.1934	0.22266	0.065518	0.13917	0.11548	0.22163	0.04154	0.21627	0.036252	-1.7542	-2.7167	-2.3646	-2.4708	-2.5542	-2.4917	-2.5167	-2.5792	-2.3625	-2.4896	-2.525	-2.3896	-2.6708	-2.5229	-2.3583	-2.8583	356.337	463.853	260.993	505.372	478.660	184.422	490.011	374.769	444.307	180.190	427.364	304.848	486.915	287.900	294.265	384.404	0.00060975	0.00017772	5.4233e-05	442.26	3.4194e-06	1.1376e-06	657.6	117.92	2.0426e-06	5.2394e-07	199.56	48.856	26.036	9.2104	2.6581e-06	21.783	5.4465e-05	5.0495e-05	1.4231e-05	375.28	5.4804e-07	5.4969e-07	608.58	109.15	5.673e-07	5.3671e-07	176.02	43.89	23.578	8.4879	5.5561e-07	19.49	349.441	270.279	266.113	160.995	227.346	201.617	160.154	164.812	247.720	273.698	163.566	169.151	169.956	176.885	267.061	175.092	-8191	255	
1094.305	1	1	0	0	0.13174	0.030323	0.093361	0.26112	0.10068	0.058427	0.050754	0.19374	0.12075	0.24026	0.22075	0.098574	0.25781	0.28434	0.20167	0.1033	-1.8875	-2.6708	-2.3292	-2.3604	-2.6396	-2.3688	-2.4979	-2.7854	-2.2021	-2.5833	-2.4229	-2.2083	-2.6854	-2.4042	-2.2938	-2.6104	167.118	449.641	262.483	304.734	207.977	441.957	469.462	247.230	198.990	461.550	276.652	302.615	339.494	379.510	389.536	390.078	0.00067362	0.00022341	6.5294e-05	445.51	1.7255e-06	5.8757e-07	660.99	120.07	4.7053e-06	1.9136e-06	202.32	49.381	26.021	9.1648	8.4575e-07	22.013	5.3903e-05	5.0146e-05	1.4118e-05	377.49	5.4847e-07	5.4497e-07	612.49	110.13	5.5225e-07	5.5517e-07	177.79	44.195	23.665	8.5532	5.596e-07	19.729	351.495	292.604	343.464	160.968	196.412	214.311	160.421	165.335	254.118	285.254	163.556	169.036	169.361	177.148	242.374	175.097	-8191	255	
1094.424	1	1	0	0	0.19446	0.070291	0.077788	0.29352	0.10115	0.070131	0.15218	0.09862	0.30746	0.15008	0.21457	0.11797	0.21047	0.064585	0.093403	0.020684	-1.9521	-2.3604	-2.5312	-2.3	-2.4896	-2.4083	-2.4646	-2.6354	-2.3958	-2.5271	-2.8083	-2.3333	-2.6125	-2.4396	-2.4792	-2.7125	389.006	503.705	156.631	442.857	222.543	332.286	464.470	243.452	456.022	257.517	415.556	446.492	344.344	502.362	237.038	363.123	0.00051367	0.00028305	2.6176e-06	450.69	2.2499e-06	2.2238e-06	662.2	120.36	1.2807e-06	3.235e-06	203.6	49.148	26.24	9.1325	3.6818e-06	21.817	5.4836e-05	5.0348e-05	1.4141e-05	378.95	5.4364e-07	5.5285e-07	614.97	110.79	5.5616e-07	5.4965e-07	178.22	44.153	23.714	8.4996	5.5072e-07	19.437	349.682	302.012	340.493	160.712	292.662	332.050	160.170	164.899	382.558	294.947	163.324	169.451	170.191	176.683	327.617	175.704	-8191	255	
1094.520	1	1	0	0	0.078639	0.18111	0.20378	0.1196	0.10578	0.067402	0.3517	0.27175	0.27944	0.14962	0.10998	0.28615	0.15867	0.19203	0.11006	0.15283	-2.0062	-2.4021	-2.6729	-2.1917	-2.5229	-2.5125	-2.3146	-2.5187	-2.4938	-2.3229	-2.5896	-2.3771	-2.6292	-2.4646	-2.25	-2.4708	252.196	469.871	447.086	149.790	192.611	433.957	486.728	419.519	202.304	419.696	386.973	423.648	407.054	308.645	185.631	380.188	0.00051362	0.00018232	4.2765e-05	453.51	3.2585e-06	6.5902e-07	664.22	119.73	2.179e-06	1.2403e-06	202.51	49.19	25.999	9.1361	7.8218e-08	21.787	5.3441e-05	5.0422e-05	1.3812e-05	380.58	5.5557e-07	5.3832e-07	614.28	110.67	5.4587e-07	5.5502e-07	177.52	44.203	23.656	8.5054	5.5072e-07	19.517	349.953	362.424	234.286	160.829	203.863	422.850	160.233	164.976	166.851	149.176	163.323	169.116	169.942	177.397	220.051	175.392	-8191	255	
1094.616	1	1	0	0	0.097155	0.036133	0.081231	0.10457	0.18683	0.16954	0.20082	0.077635	0.14421	0.14204	0.22004	0.11093	0.31203	0.076616	0.080883	0.22025	-2.0625	-2.2958	-2.6604	-2.4188	-2.6396	-2.6875	-2.2708	-2.4125	-2.4521	-2.3812	-2.7438	-2.3417	-2.6042	-2.6208	-2.3125	-2.7354	395.649	462.959	176.141	244.523	269.338	437.519	341.175	440.240	229.907	377.611	355.435	228.955	370.953	285.174	377.097	149.568	0.00059059	0.00019068	4.5046e-05	450.61	1.6288e-06	2.2849e-06	663.5	120.56	2.885e-06	2.0423e-06	203.06	49.783	26.395	9.3169	5.7402e-07	22.359	5.4077e-05	5.0453e-05	1.4279e-05	381.47	5.5e-07	5.5233e-07	615.64	111.04	5.5839e-07	5.5646e-07	178.23	44.674	23.846	8.6291	5.7525e-07	19.887	344.697	185.122	448.614	160.866	277.777	257.301	160.236	164.796	243.326	252.204	163.224	169.260	169.683	177.154	438.493	175.153	-8191	255	
1094.712	1	1	0	0	0.19081	0.12763	0.093019	0.10742	0.099854	0.12304	0.20209	0.07885	0.10461	0.16426	0.067988	0.089679	0.18664	0.07903	0.23604	0.24165	-2.0667	-2.3917	-2.5375	-2.3083	-2.375	-2.5687	-2.5021	-2.8042	-2.7188	-2.2896	-2.8125	-2.6	-2.2375	-2.625	-2.3979	-2.5646	420.298	205.476	186.878	305.310	278.846	491.339	448.695	186.761	176.326	161.785	204.811	355.590	435.409	164.962	154.066	338.587	0.0005597	0.00023836	2.9006e-05	452.94	2.3826e-06	2.2535e-06	666.46	121.86	3.0128e-06	1.835e-06	203.93	49.993	26.59	9.3826	1.4939e-06	22.521	5.462e-05	5.2665e-05	1.4171e-05	382.51	5.6226e-07	5.6198e-07	617.99	111.89	5.6813e-07	5.5484e-07	179.21	44.82	24.099	8.7532	5.6864e-07	20.017	352.021	269.594	184.913	160.991	257.292	335.319	160.044	164.806	161.231	272.008	163.237	169.292	169.491	177.272	241.273	175.377	-8191	255	
1094.809	1	1	0	0	0.059368	0.17474	0.1434	0.13948	0.022791	0.10999	0.063659	0.12467	0.033526	0.21914	0.10345	0.24691	0.27431	0.16398	0.10112	0.2687	-2.0917	-2.2646	-2.5917	-2.3146	-2.4042	-2.5187	-2.3396	-2.4313	-2.2521	-2.2125	-2.4333	-2.2479	-2.3583	-2.5375	-2.3167	-2.5333	179.081	188.293	382.577	280.386	272.819	371.491	207.856	496.719	411.640	463.248	162.625	358.787	427.194	365.820	352.335	209.836	0.00062437	0.00020705	3.1244e-05	450.74	3.2107e-06	7.9499e-07	663.69	121.25	6.6334e-07	9.973e-07	202.14	50.138	27.023	9.5794	5.4164e-06	22.592	5.4231e-05	5.1615e-05	1.4253e-05	381.11	5.6558e-07	5.6604e-07	615.39	111.58	5.7308e-07	5.6558e-07	178.81	45.102	24.38	8.9222	5.6432e-07	20.147	347.215	253.825	195.339	161.508	246.480	364.570	160.233	165.231	325.029	156.086	163.364	169.188	170.120	176.736	264.777	175.354	-8191	255	
1094.905	1	1	0	0	0.16702	0.26384	0.09808	0.17929	0.087714	0.11303	0.054982	0.18355	0.10389	0.11689	0.015606	0.025403	0.11484	0.19579	0.10617	0.16345	-2.0042	-2.3625	-2.4938	-2.25	-2.0854	-2.6729	-2.4146	-2.5854	-2.6396	-2.3563	-2.5479	-2.5229	-2.4021	-2.4667	-2.2438	-2.4396	437.667	229.650	311.231	472.648	165.920	180.571	249.972	247.896	147.408	303.929	157.729	409.041	184.692	422.899	150.759	326.058	0.00064309	0.00020746	8.8959e-05	450.42	6.8442e-07	2.5017e-06	664.04	120.73	2.1855e-07	1.1332e-06	202.05	50.121	26.786	9.5935	9.6445e-07	22.662	5.5652e-05	5.0966e-05	1.4264e-05	380.2	5.6551e-07	5.6407e-07	614.58	111.27	5.6714e-07	5.6055e-07	178.14	45.155	24.246	8.9212	5.5993e-07	20.243	339.503	191.489	231.375	160.329	343.697	364.901	160.132	165.161	199.147	182.515	163.620	169.763	169.548	177.289	341.912	175.170	-8191	255	
1095.025	1	1	0	0	0.10148	0.075282	0.073365	0.26443	0.043464	0.17899	0.065525	0.16887	0.1545	0.22959	0.07065	0.15665	0.27442	0.2515	0.047283	0.32428	-2.1771	-2.2167	-2.5104	-2.4688	-2.2917	-2.5563	-2.4437	-2.4208	-2.5583	-2.2875	-2.5208	-2.4583	-2.0542	-2.5042	-1.9813	-2.2917	368.219	272.140	406.968	168.241	174.169	242.530	467.077	497.622	267.620	478.634	389.756	471.216	387.664	486.775	366.344	474.488	0.00054109	0.00020062	3.2347e-05	450.67	1.9671e-06	2.6782e-06	661.75	120.93	1.455e-06	2.4269e-06	204.01	50.3	26.753	9.6128	2.3344e-06	23.105	5.5154e-05	5.1756e-05	1.4256e-05	380.41	5.7077e-07	5.5807e-07	614.09	111.44	5.6586e-07	5.7134e-07	178.76	45.233	24.255	8.9611	5.6997e-07	20.5	334.837	229.062	264.919	161.258	282.743	245.562	160.180	164.612	205.743	280.579	163.210	169.237	169.508	177.736	300.193	174.994	-8191	255	
1095.121	1	1	0	0	0.14735	0.1782	0.18201	0.18806	0.23615	0.1224	0.18786	0.11933	0.23119	0.054248	0.2317	0.2392	0.10731	0.23791	0.076457	0.1836	-2.0354	-2.2333	-2.5375	-2.45	-2.1625	-2.5146	-2.2396	-2.2917	-2.5667	-2.1479	-2.2938	-2.2646	-2.1813	-2.5729	-2.35	-2.4375	315.296	210.897	149.648	268.100	348.732	436.058	449.231	305.755	442.771	262.096	439.237	400.438	262.223	284.374	325.190	416.032	0.00065816	0.00021186	2.0073e-05	447.86	1.6144e-06	2.2443e-06	661.42	120.05	2.7812e-06	2.5299e-06	203	49.962	26.527	9.6543	8.9644e-07	22.792	5.5797e-05	5.2344e-05	1.4389e-05	378.89	5.8608e-07	5.6381e-07	611.26	110.89	5.7115e-07	5.6095e-07	178.28	45.056	24.232	8.9739	5.6636e-07	20.335	363.398	279.910	390.984	160.593	220.929	172.861	160.111	164.808	202.510	261.961	163.407	169.193	169.917	177.380	243.441	174.828	-8191	255	
1095.218	1	1	0	0	0.14614	0.20608	0.048455	0.17405	0.13214	0.08723	0.087436	0.20843	0.10658	0.025106	0.1789	0.084255	0.074583	0.17129	0.24274	0.27487	-2.1688	-2.225	-2.5417	-2.5229	-2.0062	-2.6833	-2.4792	-2.1063	-2.4062	-2.3083	-2.3021	-2.55	-2.2313	-2.5687	-2.5125	-2.2542	281.982	362.399	492.011	178.591	241.760	243.994	317.900	494.983	156.129	363.844	348.408	477.032	209.357	217.193	157.205	196.935	0.00048702	0.0001219	2.6976e-05	450.92	3.5875e-06	2.2687e-06	656.04	120.71	1.4332e-06	2.5402e-06	201.38	50.29	26.61	9.7561	3.0246e-06	22.955	5.6152e-05	5.2407e-05	1.4547e-05	379.36	5.7085e-07	5.6896e-07	610.42	110.93	5.7461e-07	5.7296e-07	177.85	45.15	24.265	9.1034	5.6197e-07	20.541	343.744	280.849	238.960	160.885	258.749	294.332	160.378	164.913	262.112	300.606	163.617	169.388	170.414	177.633	309.801	175.480	-8191	255	
1095.314	1	1	0	0	0.16704	0.20521	0.080911	0.28951	0.14401	0.11112	0.16261	0.21371	0.17645	0.15423	0.0043412	0.085343	0.12067	0.12909	0.074258	0.16915	-2.0271	-2.375	-2.0958	-2.5187	-2.3708	-2.5271	-2.5896	-2.2396	-2.5229	-2.4354	-2.4125	-2.4938	-2.3354	-2.4604	-2.4771	-2.2062	355.772	331.218	238.879	481.356	429.735	500.519	331.948	461.882	320.654	169.785	183.528	385.696	154.692	441.258	259.836	480.185	0.00065375	8.9437e-05	4.6279e-05	444.38	1.7879e-06	2.567e-06	658.66	119.72	2.6495e-06	2.7886e-06	202.13	50.623	26.551	9.8068	3.7803e-06	23.275	5.5912e-05	5.1988e-05	1.45e-05	377.81	5.8313e-07	5.6555e-07	611.36	110.85	5.7394e-07	5.7518e-07	178.23	45.372	24.208	9.0685	5.6742e-07	20.69	348.182	452.094	162.459	160.628	342.526	223.705	160.280	165.115	325.738	250.288	163.674	169.185	170.112	177.432	227.195	175.210	-8191	255	
1095.410	1	1	0	0	0.22522	0.19099	0.069111	0.045198	0.073801	0.059959	0.26481	0.11322	0.078648	0.14403	0.23523	0.29943	0.3154	0.10782	0.26277	0.31332	-2.1208	-2.2958	-2.4125	-2.6417	-2.2792	-2.475	-2.4313	-2.1021	-2.5563	-2.3646	-2.3688	-2.5396	-2.2729	-2.5687	-2.6333	-2.3187	459.637	192.510	499.847	263.238	155.653	389.765	365.759	190.177	279.769	320.709	308.743	434.066	459.865	425.674	407.263	279.330	0.00064599	0.00018101	4.7337e-05	448.62	1.8067e-06	9.4711e-07	663.62	120.49	1.5426e-06	1.0003e-06	200.86	50.397	26.565	9.7821	2.1655e-06	23.013	5.6186e-05	5.2216e-05	1.4461e-05	378.96	5.6794e-07	5.6489e-07	612.4	110.83	5.6037e-07	5.6373e-07	177.68	45.219	24.3	9.0782	5.6541e-07	20.44	346.964	231.876	191.518	160.664	358.483	494.731	159.895	165.023	356.946	169.005	163.240	169.320	170.122	177.316	290.275	175.310	-8191	255	
1095.504	1	1	0	0	0.11312	0.077662	0.1247	0.096176	0.28144	0.20482	0.34265	0.23653	0.08579	0.21219	0.17764	0.10555	0.1846	0.022024	0.05336	0.20912	-2.1125	-2.3979	-2.4688	-2.6354	-2.4021	-2.6833	-2.6937	-2.2542	-2.4875	-2.575	-2.2104	-2.3792	-2.1854	-2.3104	-2.5812	-2.2229	347.236	265.173	306.621	202.519	235.127	254.644	418.448	439.925	376.211	164.361	406.185	423.705	294.204	296.274	397.270	164.727	0.00060846	0.00013085	9.7227e-06	445.93	1.997e-06	1.1083e-06	655.17	119.74	1.5196e-06	3.2822e-06	202.61	50.135	26.689	9.6456	2.0902e-06	22.97	5.5124e-05	5.2004e-05	1.4536e-05	378.27	5.6231e-07	5.6442e-07	607.56	110.46	5.5893e-07	5.6761e-07	177.89	45.224	24.244	9.0205	5.746e-07	20.478	348.653	304.948	211.591	160.627	262.356	279.351	160.246	165.136	207.172	264.998	163.211	169.472	169.952	177.833	269.259	174.878	-8191	255	
1095.600	1	1	0	0	0.22581	0.29373	0.33212	0.16467	0.38091	0.19939	0.22573	0.071184	0.11081	0.074104	0.13144	0.13307	0.24465	0.090703	0.18651	0.30433	-2.0187	-2.3375	-2.0458	-2.3812	-2.3604	-2.2938	-2.5542	-2.1125	-2.2979	-2.5667	-2.1646	-2.4708	-2.2583	-2.1708	-2.5563	-2.2125	185.033	295.955	412.946	477.499	504.887	385.598	417.321	239.269	378.971	406.854	299.740	224.309	244.178	197.421	316.165	407.607	0.00072234	0.00011473	5.1046e-05	443.93	2.3207e-06	2.8147e-06	652.94	119.48	3.421e-06	1.5438e-06	201.97	50.046	26.688	9.7462	1.5804e-06	23.13	5.5697e-05	5.2591e-05	1.4653e-05	375.97	5.6509e-07	5.682e-07	606.29	110.21	5.7533e-07	5.7341e-07	177.93	45.236	24.276	9.0864	5.7465e-07	20.674	348.497	154.205	249.062	160.434	223.427	252.925	160.198	164.675	165.344	274.758	163.175	169.011	170.323	177.343	178.928	174.894	-8191	255	
1095.721	1	1	0	0	0.078754	0.27906	0.075575	0.075227	0.095798	0.18542	0.21091	0.094338	0.14177	0.22146	0.1502	0.036298	0.19428	0.1766	0.15275	0.36709	-1.9271	-2.3958	-2.1792	-2.5833	-2.2812	-2.5375	-2.6312	-2.4688	-2.4208	-2.5604	-2.2896	-2.5146	-2.1583	-2.225	-2.4979	-2.1646	341.198	391.185	338.252	473.912	483.560	229.343	456.720	282.091	287.185	205.179	488.463	190.199	488.588	260.386	228.698	381.513	0.00061736	0.00024243	7.7941e-06	443.04	2.1044e-06	8.8007e-07	656.65	119.69	8.7105e-07	3.6901e-07	202.14	50.668	26.539	9.7425	8.081e-07	23.262	5.5684e-05	5.1684e-05	1.4548e-05	375.3	5.7467e-07	5.6976e-07	608.19	110.05	5.7145e-07	5.5731e-07	177.65	45.326	24.198	9.1003	5.6942e-07	20.655	351.689	484.788	335.129	160.949	252.205	313.544	160.147	165.042	454.777	314.896	163.427	169.116	169.148	176.628	235.905	175.223	-8191	255	
1095.817	1	1	0	0	0.18915	0.060738	0.14265	0.14754	0.14103	0.19783	0.22488	0.13882	0.13396	0.18199	0.18121	0.17536	0.10723	0.12833	0.19934	0.10845	-1.9354	-2.5146	-2.2917	-2.575	-2.4688	-2.35	-2.3125	-2.3312	-2.2854	-2.4	-2.4167	-2.4479	-2.4979	-2.0958	-2.3167	-2.4208	346.998	417.204	161.394	218.143	215.147	253.414	465.476	151.364	338.841	504.180	214.365	378.544	479.244	216.015	451.757	372.545	0.00060087	0.00022448	2.5137e-05	441.22	2.5283e-06	2.5022e-06	647.67	118.63	4.0128e-06	1.6959e-06	199.13	50.069	26.802	9.8346	2.5226e-06	23.012	5.6085e-05	5.3076e-05	1.4432e-05	374.69	5.71e-07	5.7973e-07	602.24	109.44	5.8092e-07	5.7685e-07	175.87	45.018	24.197	9.1644	5.7622e-07	20.601	349.111	474.629	494.161	160.761	269.454	276.053	160.013	165.234	241.322	248.647	163.398	169.006	170.444	177.006	283.311	175.001	-8191	255	
1095.913	1	1	0	0	0.167	0.26479	0.098394	0.21562	0.22737	0.10706	0.17508	0.070315	0.11492	0.07396	0.050707	0.49341	0.33731	0.24516	0.07895	0.14962	-1.7708	-2.5646	-2.2083	-2.3542	-2.5938	-2.1792	-2.6208	-2.2979	-2.4313	-2.5292	-2.0208	-2.3042	-2.4354	-2.1917	-2.4458	-2.3667	199.023	152.732	264.194	160.350	405.039	374.302	408.968	219.649	203.707	340.077	198.433	466.821	473.054	469.370	493.419	299.715	0.00062042	0.00024666	8.4438e-05	439.35	2.5741e-06	4.5119e-06	652.41	117.36	4.2283e-06	1.3593e-06	199.74	50.027	26.622	9.8083	2.1224e-06	23.304	5.7583e-05	5.2953e-05	1.4725e-05	374.01	5.8316e-07	5.7449e-07	603.55	108.76	5.7371e-07	5.6598e-07	175.88	44.993	24.13	9.1495	5.6664e-07	20.688	348.675	306.727	193.192	160.733	243.568	210.724	159.982	165.130	240.767	385.862	163.395	169.843	170.131	177.179	203.318	174.893	-8191	255	
1095.985	1	1	0	0	0.28377	0.22596	0.16573	0.14279	0.1181	0.057694	0.058254	0.2398	0.18842	0.040058	0.062091	0.18247	0.059335	0.10053	0.045632	0.21216	-1.9312	-2.4875	-2.0979	-2.3354	-2.4458	-2.05	-2.4792	-2.6292	-2.1333	-2.5354	-2.2938	-2.2521	-2.6937	-2.1562	-2.5187	-2.4771	444.735	477.599	234.515	408.372	383.612	497.962	401.452	440.584	409.039	410.241	186.131	194.686	174.548	266.025	226.265	208.591	0.0005316	0.00017826	6.2075e-05	442.36	1.0422e-06	3.0979e-06	655.04	117.66	4.948e-06	1.9354e-06	199.25	49.955	26.75	9.818	1.5272e-06	23.388	5.5845e-05	5.3426e-05	1.4806e-05	374.69	5.7902e-07	5.7698e-07	606.05	109.07	5.8887e-07	5.7927e-07	176.37	45.163	24.174	9.1491	5.7761e-07	20.741	352.548	266.887	253.057	160.308	300.348	403.251	160.154	165.330	260.567	275.927	163.540	169.863	170.154	177.063	340.866	174.932	-8191	255	
1096.106	1	1	0	0	0.43425	0.063325	0.14601	0.28147	0.30725	0.26489	0.06236	0.2411	0.29085	0.11076	0.13368	0.1635	0.32771	0.090878	0.11911	0.14852	-1.6979	-2.5229	-2.3229	-2.1979	-2.6	-2.1833	-2.4854	-2.6063	-2.2708	-2.4917	-2.4333	-2.3417	-2.5167	-2.3646	-2.4188	-2.5042	237.158	180.597	178.250	271.534	147.903	381.609	285.306	487.008	153.741	487.140	455.886	303.748	196.855	385.807	350.099	334.553	0.00054398	0.00016826	7.127e-05	441.04	2.5325e-06	2.3307e-06	649.33	118.75	2.8227e-06	1.0815e-06	200.8	50.078	26.487	9.8381	2.286e-06	23.095	5.7118e-05	5.2868e-05	1.4496e-05	374.34	5.7401e-07	5.7956e-07	603.6	109.2	5.8717e-07	5.7022e-07	176.8	44.954	24.101	9.1207	5.7785e-07	20.634	335.915	251.005	223.301	160.668	291.790	254.030	160.280	165.036	277.321	259.374	163.364	169.004	169.994	177.091	328.062	175.245	-8191	255	
1096.202	1	1	0	0	0.21951	0.076149	0.19146	0.21276	0.085157	0.0068546	0.21654	0.21745	0.10241	0.31228	0.094201	0.13712	0.065431	0.33002	0.22988	0.055359	-1.8542	-2.5333	-2.5604	-2.3979	-2.5958	-2.4062	-2.3729	-2.6479	-2.0458	-2.6	-2.4396	-2.1896	-2.5583	-2.1667	-2.5187	-2.6063	178.252	439.887	258.002	362.494	473.612	480.815	389.112	421.127	354.903	151.675	435.100	262.889	506.817	161.383	468.140	313.965	0.00055836	0.00014931	6.518e-05	441.76	1.3404e-06	3.7414e-06	650.23	118	2.2385e-06	2.2293e-06	199.18	49.614	26.213	9.7312	1.9817e-06	23.072	5.647e-05	5.3218e-05	1.4642e-05	373.87	5.8011e-07	5.7666e-07	603.06	108.55	5.8471e-07	5.6895e-07	175.47	44.763	23.94	9.0296	5.7696e-07	20.547	345.551	237.498	257.255	160.791	252.163	263.935	160.265	164.942	211.909	311.755	163.482	169.750	170.130	177.535	244.438	175.074	-8191	255	
1096.298	1	1	0	0	0.18214	0.051724	0.047442	0.37131	0.2023	0.3126	0.04269	0.21489	0.039275	0.16257	0.24544	0.25188	0.30209	0.12997	0.21675	0.2585	-1.8417	-2.45	-2.2958	-2.2479	-2.5021	-2.1396	-2.5271	-2.5125	-2.3229	-2.4354	-2.4479	-2.275	-2.4771	-2.2708	-2.1958	-2.6417	451.181	187.763	289.114	157.904	318.786	180.155	489.063	395.090	172.947	404.284	440.794	163.083	424.949	383.727	357.094	418.083	0.00059416	5.0358e-05	2.2957e-05	446.68	5.0189e-07	9.8936e-07	650.54	117.17	2.6021e-06	1.3427e-06	201.16	50.261	26.684	9.7908	5.2407e-07	23.443	5.588e-05	5.3203e-05	1.4537e-05	375.76	5.7524e-07	5.6786e-07	605.51	108.58	5.9669e-07	5.7806e-07	175.92	45.128	24.107	9.1625	5.8809e-07	20.869	350.182	503.720	460.177	160.843	413.381	278.484	160.253	164.830	234.037	356.667	163.703	169.396	169.935	176.781	341.464	175.172	-8191	255	
1096.394	1	1	0	0	0.0811	0.23565	0.086739	0.23342	0.032587	0.13679	0.19528	0.18155	0.13509	0.17172	0.23004	0.28677	0.19955	0.16562	0.38806	0.35388	-1.7917	-2.4313	-2.4875	-2.1854	-2.4938	-2.4729	-2.4938	-2.6083	-2.3167	-2.4958	-2.4437	-2.1271	-2.4396	-2.3917	-2.3271	-2.5604	409.660	388.833	242.478	171.579	286.170	333.243	166.404	262.238	315.298	314.089	505.004	148.111	283.457	184.748	416.709	343.158	0.00054871	0.00015022	6.0995e-05	442.73	1.7961e-06	9.1002e-07	656.96	117.78	1.8613e-06	2.1952e-06	201.39	49.841	26.429	9.8679	1.8567e-06	23.076	5.7217e-05	5.2735e-05	1.4827e-05	375.51	5.8124e-07	5.7643e-07	607.3	109.09	5.8515e-07	5.8664e-07	176.73	44.985	24.106	9.1475	5.8468e-07	20.608	346.799	212.836	171.575	160.977	267.051	252.378	160.070	165.372	275.335	389.497	163.386	169.645	169.786	177.230	261.819	175.859	-8191	255	
1096.513	1	1	0	0	0.082363	0.15382	0.045436	0.047581	0.13952	0.20621	0.21866	0.20377	0.093729	0.055327	0.1389	0.06251	0.084648	0.30064	0.16879	0.17045	-1.7563	-2.3479	-2.3396	-2.1125	-2.4542	-2.3125	-2.5458	-2.4708	-2.2062	-2.5708	-2.75	-2.2167	-2.5792	-2.3625	-2.2125	-2.5187	352.406	456.710	291.877	398.788	317.718	498.427	437.799	216.736	200.580	244.017	444.614	208.604	455.096	250.722	412.391	184.594	0.00051133	0.00016334	0.00011114	438.04	1.3531e-06	2.7888e-06	654.76	117.69	2.5856e-06	2.002e-06	200.7	50.151	26.386	9.8434	1.1295e-06	23.344	5.5766e-05	5.2358e-05	1.4789e-05	374.84	5.8125e-07	5.7764e-07	605.6	108.93	5.8084e-07	5.6803e-07	176.42	45.012	24.07	9.1281	5.9304e-07	20.705	344.077	313.611	174.614	160.805	307.465	281.821	160.060	165.095	362.365	321.900	163.616	169.181	169.618	177.181	178.861	175.189	-8191	255	
1096.609	1	1	0	0	0.18779	0.067928	0.075472	0.053646	0.25102	0.046931	0.10387	0.064714	0.15193	0.20739	0.11721	0.14562	0.12026	0.21431	0.2975	0.11697	-1.8479	-2.2917	-2.4729	-2.1042	-2.5708	-2.45	-2.3479	-2.65	-2.4729	-2.5729	-2.6479	-2.2188	-2.4354	-2.3688	-2.1396	-2.6146	334.251	481.069	469.357	468.703	236.656	464.354	468.631	441.462	300.341	174.613	190.428	502.101	417.410	184.439	275.196	496.797	0.0005779	0.00020356	3.1894e-05	439.25	2.8242e-06	2.2488e-06	648.56	116.95	2.5123e-06	1.078e-06	200.47	50.168	26.412	9.6995	2.0857e-06	23.122	5.6646e-05	5.3727e-05	1.4979e-05	373.28	5.8289e-07	5.8962e-07	603.07	108.3	5.8647e-07	5.8226e-07	175.96	45.067	24.074	9.0927	5.8841e-07	20.713	340.217	444.390	166.817	160.471	299.334	275.930	159.938	165.291	225.164	200.251	163.373	169.252	169.625	177.192	247.534	175.329	-8191	255	
1096.705	1	1	0	0	0.056649	0.028896	0.27098	0.1076	0.31274	0.17637	0.29068	0.065862	0.060533	0.01781	0.24312	0.22208	0.11566	0.15666	0.062279	0.12744	-1.8521	-2.1833	-2.5812	-2.3771	-2.4833	-2.4188	-2.1708	-2.4875	-2.4313	-2.1875	-2.6875	-2.0375	-2.2875	-2.475	-2.1625	-2.4458	300.206	459.051	399.138	437.351	319.436	155.648	484.596	429.402	434.456	230.224	205.419	312.133	492.225	481.163	435.691	415.206	0.00060988	0.00013109	6.2657e-05	444.24	1.7621e-06	2.7166e-06	655.65	117.32	1.709e-06	1.9793e-06	201.02	49.731	26.197	9.828	1.5175e-06	23.135	5.6959e-05	5.3836e-05	1.4718e-05	375.04	5.7978e-07	5.7231e-07	604.87	108.3	5.8523e-07	5.8398e-07	176.15	44.982	23.941	9.1184	5.8136e-07	20.717	344.697	259.461	256.968	160.630	341.519	284.125	159.932	164.959	265.498	381.432	163.747	168.924	169.675	177.159	320.390	175.381	-8191	255	
1096.801	1	1	0	0	0.18204	0.19961	0.076393	0.047734	0.14953	0.24479	0.1506	0.11196	0.15731	0.14686	0.20401	0.060959	0.16413	0.18569	0.058581	0.26695	-2.1417	-2.2146	-2.6229	-2.1917	-2.3583	-2.5458	-2.4042	-2.4083	-2.5021	-2.2792	-2.6458	-2.1917	-2.3812	-2.5667	-2.1958	-2.5708	295.445	284.375	153.138	283.481	461.026	257.334	474.096	235.478	225.935	450.483	419.106	300.399	344.508	398.797	244.239	485.779	0.00066522	0.00021495	5.051e-05	441.29	2.6671e-06	2.4462e-06	648.14	117.21	2.0389e-06	2.2964e-06	199.77	49.881	26.371	9.8591	1.2553e-06	22.897	5.6447e-05	5.258e-05	1.4673e-05	375.11	5.6991e-07	5.7978e-07	603.47	108.14	5.8888e-07	5.8022e-07	175.04	44.705	23.917	9.1078	5.7259e-07	20.548	340.560	222.077	149.349	161.091	284.053	210.431	159.968	165.353	241.269	289.822	163.319	169.570	169.899	177.155	342.688	174.849	-8191	255	
1096.898	1	1	0	0	0.064982	0.029784	0.13271	0.31528	0.30126	0.025697	0.18601	0.031744	0.10023	0.10246	0.22838	0.45122	0.10566	0.09795	0.22434	0.12078	-2.0875	-1.9292	-2.4813	-2.2896	-2.4083	-2.5917	-2.3083	-2.3708	-2.4708	-2.3438	-2.8271	-2.3375	-2.3625	-2.7167	-2.0187	-2.5979	209.489	236.039	461.193	495.363	480.596	500.394	386.331	470.170	426.835	384.497	345.932	449.112	229.018	179.979	441.585	478.007	0.00064238	7.771e-05	3.3941e-05	438.58	1.8816e-06	5.1997e-06	652.97	116.5	4.8265e-06	2.0858e-06	197.54	49.668	26.647	9.7621	1.8037e-06	23.492	5.6683e-05	5.3737e-05	1.4779e-05	372.2	5.8078e-07	5.801e-07	603.64	108.09	5.8793e-07	5.8949e-07	174.84	44.775	24.09	9.139	5.8921e-07	20.859	345.515	163.691	393.413	161.372	401.876	327.923	160.101	165.004	290.594	205.809	163.589	169.635	169.534	177.398	371.337	174.921	-8191	255	
1096.994	1	1	0	0	0.12742	0.084497	0.24452	0.11059	0.13182	0.29439	0.229	0.39477	0.13007	0.18747	0.38945	0.12348	0.057125	0.30458	0.1936	0.1024	-2.0958	-2.2917	-2.3708	-2.4062	-2.1896	-2.6146	-2.2458	-2.2729	-2.4542	-2.3438	-2.6083	-2.2687	-2.3354	-2.5208	-2.3542	-2.4292	241.270	395.758	294.821	454.088	373.270	173.261	437.886	414.828	344.560	388.427	461.328	252.895	219.035	443.841	339.562	276.959	0.00055318	0.0001393	2.4661e-05	438.25	1.7821e-06	6.816e-07	649.51	116.81	1.4158e-06	3.0246e-06	197.88	49.712	26.365	9.78	2.5236e-06	23.495	5.7953e-05	5.4416e-05	1.4812e-05	373.63	5.9186e-07	5.7753e-07	603.71	107.93	5.9512e-07	5.7846e-07	175.2	44.824	23.962	9.0616	5.7746e-07	20.842	344.808	297.419	152.949	160.007	297.964	230.239	160.280	164.974	202.292	233.939	163.288	169.390	169.939	176.946	226.180	175.312	-8191	255	
1097.114	1	1	0	0	0.11481	0.3875	0.24902	0.31112	0.15145	0.14966	0.34566	0.23791	0.2523	0.14799	0.25129	0.14009	0.079794	0.20744	0.14625	0.097153	-2.1979	-2.3125	-2.4479	-2.4208	-2.1437	-2.6521	-2.4229	-2.3229	-2.5875	-2.2479	-2.5646	-2.6542	-2.2354	-2.6396	-2.5104	-2.2667	260.260	388.348	153.712	160.994	456.632	392.821	422.315	421.955	393.666	447.998	477.868	495.543	460.253	219.891	444.239	307.475	0.0005434	8.8745e-05	4.3359e-05	440.78	2.5687e-06	2.1106e-06	651.35	117.5	2.227e-06	1.0269e-06	198.03	49.706	26.247	9.8164	3.161e-06	23.162	5.6495e-05	5.289e-05	1.4567e-05	374.87	5.8568e-07	5.8301e-07	603.06	107.83	5.8662e-07	5.8055e-07	174.62	44.674	23.92	9.0721	5.8148e-07	20.622	350.517	228.489	161.101	160.721	340.518	310.910	160.033	164.820	248.147	190.844	163.525	169.092	169.680	176.952	272.773	175.019	-8191	255	
1097.211	1	1	0	0	0.047251	0.20972	0.15204	0.11168	0.065329	0.13464	0.22113	0.094162	0.32382	0.16699	0.11086	0.06506	0.039091	0.15271	0.14485	0.064713	-2.1688	-2.1854	-2.3146	-2.5792	-2.1979	-2.3958	-2.5021	-2.2958	-2.625	-2.2771	-2.3771	-2.4646	-2.1813	-2.5396	-2.3583	-2.4104	237.831	298.381	238.065	431.074	387.330	455.752	408.004	405.519	448.426	454.013	349.317	488.449	357.089	219.998	405.800	316.867	0.00064569	0.00016541	5.066e-05	439.12	2.1671e-06	9.8569e-07	647.88	116.33	2.1686e-06	2.9564e-06	197.76	49.538	26.113	9.711	3.2014e-06	23.12	5.6431e-05	5.3617e-05	1.4576e-05	373.29	5.8195e-07	5.7711e-07	602.84	107.42	5.7983e-07	5.7911e-07	174.39	44.592	23.773	9.0567	5.8474e-07	20.624	355.805	220.860	160.077	160.439	250.380	352.939	160.251	165.004	317.003	269.522	163.522	168.913	169.639	176.895	219.131	175.217	-8191	255	
1097.282	1	1	0	0	0.13625	0.080745	0.11309	0.19839	0.16826	0.29008	0.069608	0.13198	0.23965	0.16788	0.071012	0.11827	0.28645	0.055052	0.07285	0.15926	-2.1312	-2.3021	-2.0875	-2.6312	-2.1292	-2.5125	-2.4437	-2.2625	-2.5479	-2.3312	-2.1437	-2.6979	-2.3458	-2.6188	-2.75	-2.1667	404.913	178.438	182.485	469.537	477.687	358.300	270.059	408.441	437.958	155.661	185.927	430.542	199.192	238.093	443.276	375.301	0.00058453	0.00012959	6.0103e-05	442.88	1.9505e-06	3.4183e-06	649.05	116.45	2.1857e-06	1.5597e-06	199.38	49.765	26.501	9.7634	2.7039e-06	23.371	5.6588e-05	5.358e-05	1.4893e-05	375.02	5.7807e-07	5.7857e-07	603.67	107.64	5.8923e-07	5.8237e-07	175.62	44.801	23.928	9.0709	5.8396e-07	20.776	355.119	254.113	231.077	160.791	285.627	254.223	159.923	165.045	346.562	442.801	163.581	169.740	170.107	177.056	334.610	174.943	-8191	255	
1097.403	1	1	0	0	0.084219	0.1162	0.045428	0.10984	0.36103	0.26842	0.24957	0.40092	0.21903	0.21791	0.078347	0.063723	0.16071	0.21599	0.035206	0.049811	-2.0667	-2.4	-2.3604	-2.4938	-2.3646	-2.625	-2.6063	-2.0771	-2.6958	-2.4396	-2.4271	-2.6208	-2.3167	-2.3812	-2.6125	-2.3396	327.371	396.183	156.881	477.291	502.239	398.240	433.253	465.497	270.067	433.404	250.272	220.973	181.716	424.613	372.654	459.561	0.00052083	0.00018664	7.3442e-05	440.88	1.7503e-06	9.4612e-07	653.79	116.92	4.9487e-06	1.7972e-06	199.35	49.455	26.237	9.7027	2.3556e-06	23.071	5.6768e-05	5.32e-05	1.4749e-05	375.91	5.7649e-07	5.7152e-07	606.19	108.29	5.6631e-07	5.6668e-07	175.59	44.631	23.81	9.0396	5.7349e-07	20.565	348.809	179.789	190.014	160.948	245.743	233.213	160.037	164.892	248.150	244.177	163.382	169.091	169.765	177.147	251.571	175.357	-8191	255	
1097.497	1	1	0	0	0.19556	0.027975	0.15443	0.078842	0.15457	0.015662	0.15703	0.27536	0.33688	0.048349	0.080004	0.2185	0.1121	0.28237	0.18723	0.10182	-2.1208	-2.3917	-2.0438	-2.6271	-2.4313	-2.5104	-2.6312	-2.2	-2.4125	-2.3833	-2.1542	-2.4688	-2.325	-2.2521	-2.8125	-2.2438	414.677	303.037	153.337	497.186	375.254	182.344	445.162	501.692	471.380	164.397	171.932	431.181	172.565	440.900	233.628	282.506	0.00067887	0.00011345	6.5026e-05	440.88	2.1923e-06	1.2379e-06	653.14	116.39	3.1431e-06	3.2464e-06	197.25	49.761	26.05	9.6884	2.0239e-06	23.197	5.5826e-05	5.2325e-05	1.4777e-05	375.16	5.7944e-07	5.7268e-07	605.18	107.72	5.7785e-07	5.7569e-07	174.41	44.826	23.813	9.0778	5.8266e-07	20.665	346.599	193.078	311.720	160.591	226.667	436.637	160.192	165.112	170.771	237.303	163.635	169.411	169.543	177.599	206.699	174.945	-8191	255	
1097.593	1	1	0	0	0.09789	0.069832	0.16037	0.16377	0.34351	0.081339	0.20062	0.020567	0.27042	0.40633	0.18844	0.28257	0.17378	0.26081	0.19344	0.14676	-2	-2.4271	-2.2604	-2.5646	-2.3688	-2.3021	-2.8063	-2.2375	-2.4188	-2.5979	-2.4208	-2.8042	-2.3812	-2.1729	-2.7438	-2.3792	449.669	505.072	370.811	309.673	217.373	298.265	405.374	255.628	311.122	445.907	462.544	264.287	503.972	147.924	455.108	266.950	0.0006447	8.6502e-05	4.8215e-05	440.32	2.4445e-06	1.9279e-06	650.93	115.83	4.6405e-06	7.4078e-07	198.53	49.79	26.429	9.87	1.4958e-06	23.38	5.661e-05	5.2883e-05	1.4916e-05	373.88	5.7837e-07	5.8233e-07	603.93	107.54	5.7666e-07	5.7286e-07	175.11	44.81	23.891	9.1275	5.847e-07	20.771	340.341	260.982	244.910	160.862	399.743	323.031	160.039	165.507	293.856	428.766	163.242	169.318	169.808	177.156	297.138	175.056	-8191	255	
1097.690	1	1	0	0	0.19183	0.059583	0.18099	0.12588	0.19634	0.083704	0.33288	0.068393	0.14529	0.29758	0.2199	0.17853	0.055875	0.16806	0.12278	0.15224	-2.0312	-2.2917	-2.1875	-2.5812	-2.5271	-2.4146	-2.7375	-2.3125	-2.4479	-2.6229	-2.5167	-2.6167	-2.4313	-2.1208	-2.6083	-2.3625	484.060	269.981	263.444	301.372	174.824	179.218	471.724	235.173	173.779	336.012	216.228	195.769	162.988	383.596	495.118	202.798	0.00061353	0.00029218	5.2568e-05	438.42	7.891e-07	2.0897e-06	651.74	116.82	2.3453e-06	1.8736e-06	199.91	49.838	26.408	9.8317	1.0007e-06	23.197	5.632e-05	5.3194e-05	1.4662e-05	373.2	5.8265e-07	5.8062e-07	604.62	107.78	5.7628e-07	5.8581e-07	176.25	44.956	24.042	9.1548	5.7658e-07	20.738	347.305	257.529	268.035	160.987	393.187	235.493	160.113	164.911	200.546	277.377	163.635	169.408	169.865	177.321	300.551	174.993	-8191	255	
1097.810	1	1	0	0	0.02315	0.029467	0.29598	0.19062	0.13331	0.26831	0.060536	0.28614	0.21257	0.22243	0.10351	0.12111	0.26808	0.076833	0.22344	0.019994	-2.0396	-2.4792	-2.2687	-2.5438	-2.4271	-2.2854	-2.6604	-2.3125	-2.3083	-2.6375	-2.3438	-2.5646	-2.4667	-2.0792	-2.5521	-2.4125	394.517	368.204	328.491	232.066	281.992	161.130	429.158	427.181	221.524	218.500	225.664	275.905	231.616	255.266	384.973	487.514	0.00060572	0.00028618	2.729e-05	439.2	2.1467e-06	1.7473e-06	647.76	117.23	5.2341e-07	2.7586e-06	198.77	50.123	26.038	9.7622	1.3921e-06	23.058	5.6173e-05	5.2461e-05	1.4609e-05	373.26	5.7708e-07	5.8244e-07	602.89	107.86	5.8759e-07	5.7034e-07	174.87	44.822	23.84	9.0717	5.6771e-07	20.612	345.364	213.646	231.043	160.861	276.327	277.392	160.102	165.173	223.233	336.376	163.544	169.702	170.001	177.400	188.799	175.358	-8191	255	
1097.906	1	1	0	0	0.25828	0.30115	0.078198	0.24728	0.042601	0.015852	0.16439	0.11366	0.15763	0.024367	0.22919	0.080875	0.16966	0.032737	0.3478	0.19868	-1.7729	-2.5146	-2.2021	-2.3187	-2.55	-2.1771	-2.6854	-2.3396	-2.2479	-2.6292	-2.1167	-2.3917	-2.4146	-2.3708	-2.5917	-2.2667	309.027	355.119	473.250	292.291	160.880	364.401	440.203	448.240	263.750	413.870	501.143	254.230	256.733	175.156	431.542	487.129	0.0006476	3.4953e-05	1.7051e-05	440.49	8.501e-07	3.67e-06	649.83	116.13	2.3174e-06	1.1976e-06	197.61	49.687	26.283	9.7508	1.8245e-06	23.377	5.5934e-05	5.3061e-05	1.4515e-05	373.59	5.7913e-07	5.9083e-07	602.34	107.7	5.8498e-07	5.7708e-07	174.37	44.738	23.881	9.0915	5.6992e-07	20.724	346.519	452.739	161.131	161.072	289.948	247.598	160.148	164.872	257.925	314.725	163.021	169.496	170.033	176.949	172.714	174.689	-8191	255	
1097.978	1	1	0	0	0.25502	0.11994	0.08888	0.19536	0.04754	0.15304	0.083951	0.18129	0.11313	0.14906	0.16224	0.27861	0.27315	0.12666	0.029668	0.12114	-1.8563	-2.5896	-2.3854	-2.3708	-2.4417	-2.1896	-2.4729	-2.3917	-2.3104	-2.5604	-2.2792	-2.3854	-2.5438	-2.1854	-2.5875	-2.3979	267.516	244.032	322.447	393.764	245.956	180.242	315.110	167.864	257.238	402.636	159.835	167.913	488.257	414.898	216.744	239.094	0.00064333	0.00013696	4.2347e-05	440.26	7.4246e-07	8.6969e-07	649.76	116.23	3.6905e-06	8.62e-07	199.42	49.685	26.091	9.8043	1.5564e-06	23.384	5.6976e-05	5.1918e-05	1.4683e-05	374.42	5.742e-07	5.7754e-07	603.84	107.45	5.871e-07	5.759e-07	174.66	44.718	23.817	9.1081	5.7803e-07	20.852	357.499	188.136	186.420	161.313	384.925	270.816	160.019	165.132	262.626	268.096	163.697	169.143	169.695	177.184	236.455	175.377	-8191	255	
1098.074	1	1	0	0	0.10486	0.18967	0.20889	0.24961	0.029596	0.12416	0.011232	0.21685	0.23958	0.30985	0.055018	0.24781	0.039402	0.15064	0.19578	0.041895	-1.7792	-2.4458	-2.1833	-2.2604	-2.7521	-2.0896	-2.3375	-2.4042	-2.1625	-2.4813	-2.4479	-2.4667	-2.6271	-2.15	-2.6083	-2.5312	249.360	398.646	360.137	441.696	475.256	316.592	253.063	301.339	208.181	238.342	459.724	350.478	427.295	309.887	208.657	326.270	0.00066646	9.799e-05	2.0608e-05	434.45	8.7816e-07	7.0409e-07	648.02	116.07	3.8373e-06	1.2927e-06	197.14	49.759	25.97	9.7492	9.3055e-07	22.848	5.672e-05	5.2882e-05	1.4516e-05	372.35	5.8765e-07	5.7601e-07	601.36	106.8	5.8913e-07	5.6275e-07	173.43	44.469	23.693	9.0526	5.6536e-07	20.462	333.934	189.283	317.703	160.799	298.900	187.658	160.441	164.601	252.086	237.472	163.263	169.166	170.100	177.430	274.242	174.851	-8191	255	
1098.195	1	1	0	0	0.11323	0.30456	0.10107	0.090772	0.096987	0.29572	0.21636	0.12338	0.17595	0.28269	0.097539	0.16123	0.30366	0.28297	0.031259	0.12288	-1.6125	-2.3729	-2.3812	-2.25	-2.5625	-2.2354	-2.5375	-2.6333	-2.3458	-2.7438	-2.4667	-2.2458	-2.725	-2.3896	-2.6396	-2.5167	423.915	355.753	390.077	298.911	166.156	500.605	268.199	420.396	444.097	289.213	272.055	220.658	475.758	260.816	278.990	215.290	0.00064088	0.00012623	7.6155e-05	442.42	1.4107e-06	2.993e-06	646.85	115.53	1.3847e-06	2.2613e-06	197.52	49.087	25.989	9.7554	1.8479e-06	23.048	5.6495e-05	5.2269e-05	1.4485e-05	373.98	5.7541e-07	5.7019e-07	600.75	106.62	5.8531e-07	5.7031e-07	173.22	44.318	23.651	9.0639	5.6963e-07	20.636	343.568	183.150	213.559	161.348	261.152	247.992	160.512	165.162	179.886	242.762	163.935	169.195	169.930	177.060	304.321	175.245	-8191	255	
1098.291	1	1	0	0	0.27358	0.13016	0.06336	0.11362	0.12468	0.11296	0.13322	0.087201	0.092939	0.062049	0.19729	0.10375	0.12369	0.16756	0.19291	0.034817	-1.7792	-2.425	-2.4625	-2.2917	-2.5729	-2.2083	-2.4271	-2.5458	-2.1583	-2.5187	-2.5792	-2.2729	-2.5146	-2.4062	-2.4521	-2.5479	337.641	234.685	287.461	228.743	245.135	339.986	191.191	439.258	481.649	502.488	260.776	449.836	335.112	266.730	403.626	188.039	0.00052177	0.00016179	7.1152e-05	437.96	3.7446e-06	1.3135e-06	645.52	115.75	3.5319e-06	1.5628e-06	197.05	49.318	25.868	9.7903	3.8056e-07	23.299	5.6509e-05	5.2572e-05	1.4811e-05	371.47	5.8326e-07	5.7569e-07	600.93	106.8	5.7961e-07	5.8045e-07	173.77	44.59	23.692	9.156	5.8884e-07	20.85	348.561	239.424	148.009	160.982	289.717	210.103	160.260	164.829	190.619	195.314	163.599	169.710	169.814	176.629	426.317	174.816	-8191	255	
1098.387	1	1	0	0	0.092675	0.11169	0.18929	0.26463	0.14362	0.16443	0.23985	0.20448	0.10576	0.18209	0.18544	0.29142	0.04494	0.052738	0.090513	0.039618	-1.6938	-2.5771	-2.4625	-2.1917	-2.5687	-2.3021	-2.3979	-2.7583	-2.375	-2.4333	-2.75	-2.3458	-2.5896	-2.3896	-2.1208	-2.7542	468.141	326.616	457.132	248.858	284.351	465.229	325.478	207.764	244.870	436.734	405.908	254.499	160.756	476.367	494.420	172.930	0.00068296	0.00014133	8.5405e-05	436.56	3.1058e-07	8.9535e-07	651.34	114.75	4.2401e-07	1.8765e-06	198.04	49.288	25.933	9.7837	2.285e-06	23.003	5.6986e-05	5.3115e-05	1.481e-05	371.14	5.738e-07	5.7433e-07	603.19	106.52	5.7005e-07	5.8149e-07	173.43	44.415	23.609	9.0986	5.8179e-07	20.576	355.407	251.153	154.098	161.256	315.911	352.607	159.932	165.123	280.135	329.415	163.150	168.999	169.875	177.119	254.772	174.911	-8191	255	
1098.506	1	1	0	0	0.15828	0.21778	0.18973	0.15279	0.092802	0.12531	0.046141	0.12493	0.211	0.084895	0.19946	0.20451	0.19101	0.35287	0.14862	0.29357	-1.8188	-2.3417	-2.6437	-2.1271	-2.5062	-2.5479	-2.3042	-2.6229	-2.3896	-2.4667	-2.5375	-2.2875	-2.4896	-2.3604	-2.4188	-2.5583	452.463	349.799	288.876	467.086	374.034	390.621	489.464	162.959	148.793	332.488	402.167	201.457	304.692	417.414	238.940	423.765	0.00071534	0.00016515	7.8529e-05	438.71	3.7597e-06	1.5106e-06	645.26	115.39	2.3309e-06	1.4089e-06	197.08	49.465	25.745	9.7261	3.1086e-06	22.937	5.587e-05	5.2573e-05	1.4965e-05	371.56	5.7431e-07	5.7924e-07	600.34	106.57	5.724e-07	5.8022e-07	173.45	44.416	23.606	9.0702	5.8455e-07	20.578	346.369	236.347	229.698	160.791	324.822	375.192	160.200	164.943	330.909	269.560	163.035	169.627	169.900	177.081	275.428	175.313	-8191	255	
1098.578	1	1	0	0	0.12244	0.082175	0.06539	0.031103	0.20345	0.13336	0.15338	0.073948	0.18126	0.10282	0.054745	0.17798	0.28247	0.04668	0.11844	0.16503	-1.6896	-2.2458	-2.4979	-2.3521	-2.4958	-2.4188	-2.3875	-2.7313	-2.2917	-2.4125	-2.6479	-2.425	-2.3417	-2.5104	-2.3167	-2.5771	284.484	495.242	258.090	450.930	224.816	365.363	432.776	205.713	341.602	469.836	357.134	410.963	257.391	421.167	486.841	356.875	0.00052716	0.00019334	6.7892e-05	438.18	2.7805e-06	1.6096e-06	651.9	115.28	1.3883e-06	8.388e-07	194.7	49.84	26.014	9.8137	8.0476e-07	23.28	5.6084e-05	5.3945e-05	1.4615e-05	371.53	5.7388e-07	5.7717e-07	600.55	106.29	5.87e-07	5.7362e-07	172.87	44.722	23.711	9.0798	5.7892e-07	20.773	340.251	166.001	290.948	161.049	288.490	278.206	160.358	165.256	253.024	201.709	163.300	169.682	170.097	177.262	437.639	174.919	-8191	255	
1098.676	1	1	0	0	0.2196	0.1181	0.12267	0.29241	0.11173	0.12965	0.070802	0.055795	0.060493	0.12454	0.44268	0.1287	0.070103	0.20142	0.095574	0.32138	-1.9083	-2.1229	-2.6479	-2.3917	-2.5187	-2.5417	-2.3979	-2.6479	-2.4729	-2.2687	-2.4979	-2.3104	-2.4479	-2.6479	-2.3063	-2.7167	176.510	392.806	279.397	382.095	334.802	313.789	454.815	395.244	485.910	296.042	380.958	404.518	160.966	272.956	504.842	466.178	0.00060607	0.00013806	6.6424e-05	437.89	2.6759e-06	1.1473e-06	646.15	115.4	2.6272e-06	3.2746e-06	196.56	49.934	25.951	9.9019	2.4764e-06	23.296	5.7044e-05	5.4101e-05	1.5023e-05	370.88	5.869e-07	5.7014e-07	600.67	106.39	5.9323e-07	5.8634e-07	173.47	44.656	23.674	9.1168	5.9136e-07	20.742	355.827	172.495	255.834	160.435	214.239	299.210	160.251	164.952	294.119	295.041	163.497	169.436	169.532	176.993	221.083	175.294	-8191	255	
1098.794	1	1	0	0	0.099807	0.22236	0.22548	0.17599	0.25262	0.023588	0.23472	0.14126	0.21431	0.16689	0.21476	0.13995	0.070332	0.18824	0.083728	0.21988	-2	-2.1437	-2.5854	-2.1542	-2.5208	-2.5687	-2.1021	-2.6104	-2.3063	-2.3312	-2.7083	-2.2875	-2.3083	-2.6396	-2.2375	-2.5062	393.809	250.356	342.634	486.016	263.690	446.604	385.122	432.292	152.594	239.458	373.680	493.016	221.360	208.908	260.712	310.057	0.00071232	0.00027666	6.8031e-05	435.67	1.6212e-06	3.4841e-06	647.84	115.69	7.9836e-07	3.2211e-06	198.61	49.133	26.074	9.8005	1.5957e-06	23.538	5.6451e-05	5.3725e-05	1.4744e-05	369.85	5.8082e-07	5.7648e-07	600.57	106.48	5.922e-07	5.8845e-07	173.78	44.41	23.619	9.1132	5.8408e-07	20.778	348.854	282.907	235.070	160.447	329.778	264.397	159.894	164.915	176.459	200.157	163.403	169.344	169.858	177.310	358.494	175.283	-8191	255	
1098.891	1	1	0	0	0.24433	0.26696	0.1394	0.11578	0.21346	0.044438	0.1557	0.11626	0.097494	0.068847	0.10839	0.16995	0.16137	0.025317	0.10988	0.0075573	-2.0271	-2.0979	-2.6771	-2.2875	-2.2229	-2.5979	-2.3563	-2.5479	-2.5208	-2.2375	-2.725	-2.3875	-2.3875	-2.5979	-2.2	-2.6583	358.062	409.768	402.643	275.287	365.053	263.768	301.234	492.957	394.714	146.776	192.868	293.601	363.214	392.486	148.698	475.311	0.00068224	0.00011521	7.7938e-05	434.67	2.5721e-06	2.3203e-06	647.07	114.99	1.9896e-06	6.4997e-07	196.39	49.289	25.972	9.8347	2.6325e-06	23.22	5.7303e-05	5.3386e-05	1.4779e-05	369.64	5.9328e-07	5.7931e-07	599.51	106.21	5.868e-07	5.835e-07	173.66	44.458	23.742	9.1001	5.8043e-07	20.74	356.100	303.460	258.654	160.571	292.851	243.927	160.054	164.499	176.089	310.572	163.621	169.509	170.132	176.948	245.444	175.372	-8191	255	
1098.987	1	1	0	0	0.15311	0.16406	0.28342	0.15623	0.1196	0.034552	0.23708	0.061623	0.29348	0.073849	0.14422	0.051744	0.44651	0.13608	0.28329	0.12124	-2.1396	-2.1854	-2.475	-2.4208	-2.2125	-2.5583	-2.3854	-2.6792	-2.5604	-2.2479	-2.6188	-2.325	-2.1625	-2.7	-2.3312	-2.4938	348.199	478.380	462.206	254.110	490.479	201.029	406.736	237.737	473.766	495.900	483.777	243.722	166.833	493.329	439.767	374.442	0.00065997	0.00013209	5.6022e-05	432.35	1.2994e-06	1.0008e-06	648.86	115.29	2.2759e-06	1.0002e-06	196.76	49.58	25.741	9.7521	1.7106e-06	23.259	5.7456e-05	5.331e-05	1.4742e-05	369.21	5.8672e-07	5.7285e-07	601.03	106.64	5.8949e-07	5.6936e-07	174.24	44.613	23.671	9.0861	5.7864e-07	20.83	334.071	225.181	204.240	161.149	155.892	256.985	160.182	164.907	272.795	418.439	163.647	169.138	170.266	177.217	298.601	175.634	-8191	255	
1099.107	1	1	0	0	0.060995	0.21867	0.045268	0.046449	0.11266	0.25591	0.16922	0.14422	0.10637	0.18542	0.14426	0.046533	0.22219	0.078177	0.099456	0.12284	-2.1167	-2.1521	-2.4125	-2.35	-2.2708	-2.6021	-2.5729	-2.4271	-2.7083	-2.2583	-2.6312	-2.4021	-2.3792	-2.4875	-2.5125	-2.2687	361.517	420.856	163.833	288.995	215.906	197.506	472.953	489.762	418.103	478.431	151.657	359.572	368.251	283.449	255.834	405.413	0.000514	0.00028479	6.9505e-06	440.01	1.8696e-06	6.8989e-07	650.38	115.53	2.4214e-06	1.0731e-06	196.33	49.684	25.62	9.7059	3.1845e-06	22.914	5.5947e-05	5.2825e-05	1.4495e-05	372.07	5.7334e-07	5.5847e-07	602.51	106.65	5.7206e-07	5.6551e-07	173.49	44.477	23.6	9.0454	5.6986e-07	20.55	350.695	252.380	304.045	160.838	217.888	254.739	160.352	164.831	232.806	235.118	163.255	169.168	169.580	177.306	467.869	175.166	-8191	255	
1099.179	1	1	0	0	0.090171	0.093587	0.062513	0.053339	0.18274	0.12562	0.2622	0.26522	0.087428	0.077757	0.19641	0.12414	0.085892	0.084731	0.16203	0.22758	-2.1292	-2.2792	-2.3646	-2.4042	-2.3042	-2.6354	-2.5146	-2.25	-2.5687	-2.3854	-2.6312	-2.5771	-2.1021	-2.5271	-2.4479	-2.2958	413.596	167.366	232.038	257.271	239.497	458.571	386.726	495.187	495.355	500.524	479.381	247.672	297.294	194.365	422.848	433.415	0.00058129	0.00032348	0.00011899	436.95	1.7422e-06	2.7225e-06	646.79	115.23	7.8624e-07	2.1874e-06	195.93	48.818	25.963	9.6388	2.2841e-06	23.18	5.661e-05	5.2664e-05	1.4371e-05	371.45	5.8799e-07	5.6522e-07	599.68	106.51	5.6824e-07	5.7527e-07	173.41	44.126	23.614	8.9943	5.6446e-07	20.544	345.353	286.470	243.763	160.710	277.902	221.123	160.053	164.870	369.253	334.871	163.202	169.728	169.921	177.043	216.614	174.605	-8191	255	
1099.275	1	1	0	0	0.14727	0.24999	0.13398	0.2349	0.1924	0.14854	0.08806	0.054481	0.31918	0.2052	0.13795	0.31265	0.05745	0.20238	0.056173	0.026344	-2.2313	-2.3125	-2.4354	-2.5687	-2.3167	-2.5229	-2.5729	-2.1646	-2.4938	-2.4271	-2.4188	-2.6042	-2.0958	-2.5583	-2.4396	-2.4562	222.053	199.859	165.723	458.307	415.593	339.934	266.610	371.517	180.322	444.157	247.074	183.567	169.308	170.938	260.582	385.944	0.00058897	0.00024866	2.2551e-05	439.25	2.2469e-06	1.2807e-06	647.9	115.65	2.2987e-06	3.0808e-06	197.11	49.49	25.983	9.7461	1.2672e-06	23.061	5.5971e-05	5.2675e-05	1.4663e-05	371.92	5.6946e-07	5.5784e-07	601.72	106.58	5.7405e-07	5.6721e-07	173.93	44.463	23.597	9.0413	5.7554e-07	20.714	346.625	263.264	159.283	161.149	299.783	252.221	160.096	164.738	256.754	185.349	163.200	169.469	170.026	177.034	347.420	175.011	-8191	255	
1099.371	1	1	0	0	0.05387	0.1768	0.09777	0.14191	0.16255	0.19119	0.10492	0.1274	0.16918	0.15593	0.011385	0.168	0.10484	0.1009	0.18629	0.15545	-2.0958	-2.2313	-2.2167	-2.7146	-2.2271	-2.425	-2.5667	-2.1417	-2.6417	-2.2354	-2.15	-2.4104	-2.15	-2.4875	-2.3979	-2.1583	378.274	295.108	395.407	470.828	363.618	435.064	296.153	372.851	399.326	177.421	280.099	220.828	344.836	307.110	386.929	294.594	0.00071742	0.00030132	0.00012132	435.45	2.2415e-06	1.0904e-07	650.52	115.57	4.5979e-06	4.9766e-07	197.97	49.486	25.956	9.7224	1.6289e-06	23.007	5.5678e-05	5.2149e-05	1.4455e-05	370.03	5.7054e-07	5.7315e-07	603.42	106.78	5.7721e-07	5.7069e-07	174.18	44.476	23.59	9.0432	5.8283e-07	20.585	342.533	246.039	183.357	160.368	307.130	456.023	160.113	164.818	246.182	462.499	163.789	169.092	169.769	177.181	241.034	174.992	-8191	255	
1099.492	1	1	0	0	0.18845	0.13332	0.23334	0.12893	0.1755	0.15421	0.20168	0.096451	0.15993	0.12467	0.20147	0.12299	0.22928	0.19945	0.25982	0.46453	-2.0354	-2.3271	-2.2979	-2.6271	-2.2708	-2.4354	-2.5229	-2.1937	-2.5542	-2.4354	-2.2833	-2.4917	-2.4583	-2.3896	-2.4896	-2.2667	287.947	404.542	354.849	268.356	450.483	260.570	461.389	355.044	198.863	339.328	211.793	174.721	147.959	150.918	259.143	395.649	0.0005693	1.4698e-05	4.7886e-05	439.6	2.4721e-06	2.7311e-06	648.01	114.41	1.5043e-06	1.8538e-06	196.16	49.363	25.732	9.7504	8.1386e-07	23.111	5.6544e-05	5.2881e-05	1.4741e-05	371.75	5.6587e-07	5.7511e-07	600.05	106.09	5.702e-07	5.6995e-07	173.02	44.305	23.433	8.9906	5.8054e-07	20.537	348.466	429.988	257.964	161.336	334.188	237.421	160.217	165.124	312.605	265.354	163.781	169.208	169.941	177.266	463.912	174.987	-8191	255	
1099.586	1	1	0	0	0.20443	0.16069	0.22158	0.22593	0.16781	0.11458	0.26377	0.13354	0.1005	0.21298	0.14983	0.14846	0.045758	0.23839	0.12718	0.14989	-1.9667	-2.4896	-2.2521	-2.6917	-2.3271	-2.475	-2.625	-2.2771	-2.375	-2.4146	-2.2	-2.4917	-2.3792	-2.3708	-2.6042	-2.3312	408.640	474.690	418.657	503.699	488.767	245.057	464.570	453.344	270.298	257.440	407.555	454.484	292.110	431.055	206.901	193.819	0.00067863	0.00017268	1.9271e-05	434.45	2.3752e-06	1.9988e-06	648.7	114.89	2.8903e-06	2.014e-06	195.73	49.298	25.85	9.6563	3.2208e-06	23.331	5.5382e-05	5.2204e-05	1.4459e-05	369.63	5.7035e-07	5.7087e-07	601.14	106.18	5.7723e-07	5.7023e-07	173.08	44.265	23.437	8.9639	5.7313e-07	20.655	357.891	247.661	168.066	160.797	240.504	176.941	159.996	164.895	311.836	213.155	163.867	169.030	169.644	176.932	297.717	174.987	-8191	255	
1099.682	1	1	0	0	0.14134	0.072539	0.068672	0.19539	0.15231	0.19415	0.14484	0.012874	0.049789	0.10722	0.16694	0.20978	0.041729	0.034557	0.2059	0.14469	-2.0125	-2.2583	-2.1125	-2.5167	-2.325	-2.5125	-2.6875	-2.1208	-2.3396	-2.4313	-2.3792	-2.6625	-2.2146	-2.4042	-2.5229	-2.2562	323.388	381.186	161.148	162.035	199.758	328.191	161.116	150.419	467.482	341.657	167.369	228.925	174.076	478.171	253.545	194.577	0.00059457	9.7524e-05	6.6133e-05	434.36	1.554e-06	1.9235e-06	647.5	114.92	4.8718e-06	1.9762e-06	197.17	49.016	25.912	9.767	1.5776e-06	23.234	5.5867e-05	5.1947e-05	1.4475e-05	371.19	5.7786e-07	5.7358e-07	602.47	106.18	5.8309e-07	5.6957e-07	173.48	44.315	23.531	9.0314	5.7554e-07	20.69	337.976	221.423	198.291	160.718	296.397	393.478	160.267	164.885	280.800	288.700	163.726	169.175	169.608	177.041	304.455	175.068	-8191	255	
1099.779	1	1	0	0	0.065022	0.17088	0.19288	0.040886	0.073406	0.2176	0.15538	0.24667	0.23675	0.18698	0.12306	0.041546	0.18212	0.096744	0.17818	0.32682	-1.8396	-2.5312	-2.1333	-2.4625	-2.3729	-2.3021	-2.6312	-2.0729	-2.3667	-2.5458	-2.1354	-2.3375	-2.3958	-2.3146	-2.4479	-2.3229	336.165	451.496	475.489	205.233	227.803	423.932	175.940	372.857	270.067	150.234	431.537	244.530	427.861	159.801	265.922	486.034	0.00061397	5.9136e-05	7.3915e-05	438.9	1.1899e-06	4.2595e-07	649.43	114.89	1.7483e-06	2.1171e-06	195.79	48.443	25.609	9.6535	3.9813e-06	23.012	5.6913e-05	5.2814e-05	1.4691e-05	370.26	5.7721e-07	5.8256e-07	599.28	106.2	5.7924e-07	5.639e-07	172.41	44.01	23.472	8.9335	5.6078e-07	20.454	347.185	379.587	224.593	160.848	262.661	360.204	160.274	165.401	252.829	242.675	162.939	169.609	169.497	177.005	218.670	175.338	-8191	255	
1099.875	1	1	0	0	0.23246	0.059945	0.36185	0.17813	0.16476	0.13406	0.12516	0.15205	0.078627	0.12226	0.19065	0.27135	0.17785	0.19361	0.2013	0.26592	-1.7771	-2.725	-2.1542	-2.4292	-2.45	-2.1042	-2.6479	-2.4313	-2.3583	-2.5167	-2.2833	-2.5917	-2.4104	-2.2833	-2.5646	-2.3521	347.378	264.092	181.663	343.108	272.896	329.347	478.979	167.077	462.311	172.948	409.398	156.254	441.077	213.539	474.767	331.831	0.00060591	0.00031571	6.4792e-05	434.48	2.0141e-06	9.9826e-07	645.93	114.49	4.4224e-06	1.6269e-06	196.94	49.375	25.465	9.66	1.8408e-06	23.006	5.5853e-05	5.2696e-05	1.4468e-05	369.76	5.6198e-07	5.7113e-07	600.13	106.01	5.7534e-07	5.7078e-07	173.2	44.3	23.45	8.9936	5.7455e-07	20.64	361.688	485.322	259.111	160.540	317.889	352.154	160.419	165.294	282.869	316.340	163.401	169.574	169.500	176.940	193.018	174.959	-8191	255	
1099.971	1	1	0	0	0.19216	0.146	0.12837	0.052499	0.10258	0.35171	0.33967	0.13208	0.14788	0.19294	0.18883	0.32009	0.14975	0.20014	0.13732	0.35517	-1.8312	-2.7333	-2.225	-2.4771	-2.5083	-2.2292	-2.6937	-2.2229	-2.3625	-2.4938	-2.2938	-2.4417	-2.5042	-2.2042	-2.525	-2.4437	398.111	379.480	251.639	219.802	406.954	239.779	489.374	357.407	295.462	368.184	277.030	326.727	402.895	309.244	178.643	391.225	0.00062557	0.0001177	7.43e-05	436.02	1.0219e-06	3.2166e-06	650.48	114.92	2.6828e-06	1.1048e-06	198.3	49.203	25.763	9.7378	6.6241e-07	23.331	5.6015e-05	5.1802e-05	1.4578e-05	369.61	5.7775e-07	5.6953e-07	601.17	105.92	5.778e-07	5.7369e-07	173.64	44.37	23.485	9.038	5.6357e-07	20.756	341.282	178.849	350.858	160.780	185.703	238.477	160.460	164.618	211.322	288.007	163.565	169.303	169.787	177.648	296.802	175.019	-8191	255	
1100.067	1	1	0	0	0.064461	0.038243	0.19073	0.12744	0.12423	0.02086	0.27818	0.029443	0.12616	0.27936	0.18183	0.18273	0.30648	0.034897	0.10036	0.12469	-1.7188	-2.3875	-2.3333	-2.4313	-2.6542	-2.2167	-2.5646	-2.525	-2.2771	-2.575	-2.3604	-2.2167	-2.6167	-2.1917	-2.3646	-2.3521	453.364	270.226	176.428	302.795	236.804	448.223	434.987	479.741	252.193	367.411	335.313	273.542	442.918	278.751	499.482	351.878	0.00050971	0.00012042	3.0823e-05	434.31	4.337e-07	2.3741e-06	645.33	114.84	2.9146e-06	2.0021e-06	195.82	48.89	26.026	9.6223	1.4495e-06	22.834	5.6002e-05	5.1264e-05	1.447e-05	371.52	5.7205e-07	5.7125e-07	600.54	106.05	5.7871e-07	5.6724e-07	172.72	44.06	23.55	8.957	5.6649e-07	20.421	350.084	246.934	251.180	160.831	321.327	429.426	159.841	165.046	288.435	306.861	163.576	169.232	170.031	177.195	316.850	175.046	-8191	255	
1100.188	1	1	0	0	0.11155	0.023379	0.094778	0.073743	0.17149	0.13479	0.23564	0.40047	0.10654	0.090111	0.16183	0.15518	0.29909	0.17264	0.094279	0.18995	-1.7812	-2.5687	-2.1771	-2.475	-2.5104	-2.2667	-2.4521	-2.3667	-2.1937	-2.5854	-2.325	-2.1271	-2.6042	-2.1063	-2.4667	-2.6396	506.354	202.230	482.118	247.445	354.818	217.887	477.737	372.473	423.106	269.124	408.592	211.325	235.446	470.684	418.135	427.132	0.00061603	3.3529e-05	6.5718e-05	434.59	4.4885e-07	6.0059e-07	646.09	115.05	2.5103e-06	3.6917e-07	195.88	49.275	25.766	9.6813	3.4006e-07	23.036	5.6077e-05	5.2059e-05	1.4314e-05	371.08	5.6388e-07	5.604e-07	600.27	106.04	5.802e-07	5.7064e-07	172.6	44.284	23.507	8.9697	5.7155e-07	20.523	356.645	242.841	197.559	160.396	293.706	441.753	160.380	165.283	427.863	315.221	163.275	169.256	170.117	177.017	174.110	175.464	-8191	255	
1100.284	1	1	0	0	0.17631	0.050258	0.074577	0.034224	0.062279	0.14085	0.22917	0.19877	0.37522	0.3081	0.06471	0.21514	0.23087	0.20385	0.12157	0.176	-1.6187	-2.35	-2.3312	-2.2479	-2.6229	-2.3875	-2.3354	-2.2812	-2.1583	-2.5854	-2.4021	-2.0583	-2.5479	-2.2062	-2.2333	-2.3979	281.076	418.238	421.896	370.902	357.618	354.749	423.178	387.874	216.349	366.186	430.005	430.514	466.379	414.791	503.911	432.760	0.00057744	0.000312	0.00013676	438.74	1.7366e-06	2.1675e-06	649.99	114.75	2.8131e-06	2.1035e-06	195.26	49.469	25.842	9.8221	1.076e-06	23.278	5.5736e-05	5.1756e-05	1.4703e-05	371.3	5.62e-07	5.6446e-07	601.29	106.08	5.7839e-07	5.7817e-07	173.08	44.397	23.548	9.0429	5.7867e-07	20.713	350.035	188.312	198.054	161.044	350.953	296.742	160.079	164.896	296.145	189.874	163.698	169.491	169.911	176.836	202.783	175.528	-8191	255	
1100.380	1	1	0	0	0.092993	0.16117	0.18981	0.15112	0.19758	0.31521	0.091984	0.18724	0.15526	0.082668	0.21853	0.22084	0.063833	0.18821	0.17374	0.18331	-1.8875	-2.4583	-2.2917	-2.1063	-2.5479	-2.3688	-2.2958	-2.4479	-2.4271	-2.4333	-2.4313	-2.2625	-2.6021	-2.3208	-2.2292	-2.6688	276.601	237.613	506.143	397.942	404.339	285.639	479.921	177.230	408.473	204.383	151.416	466.064	204.828	149.449	446.316	321.667	0.00070698	0.00011678	3.7155e-05	437.86	2.2661e-06	2.3562e-06	647.63	114.27	2.3934e-06	1.0389e-06	196.51	49.032	26.021	9.7547	2.4712e-06	22.975	5.6371e-05	5.2189e-05	1.4529e-05	371.73	5.6382e-07	5.7138e-07	602.18	105.99	5.8141e-07	5.6583e-07	173.44	44.139	23.474	9.0034	5.6718e-07	20.442	343.919	216.460	493.447	161.007	332.182	246.411	160.176	164.804	248.711	459.489	163.843	169.456	169.495	177.471	372.665	174.955	-8191	255	
1100.476	1	1	0	0	0.051307	0.27799	0.25236	0.069573	0.12206	0.099383	0.21367	0.20333	0.051697	0.079244	0.24781	0.22873	0.078195	0.093678	0.15461	0.11607	-1.8937	-2.3271	-2.3792	-2.2125	-2.5542	-2.5625	-2.3417	-2.7125	-2.2667	-2.375	-2.5938	-2.2125	-2.4833	-2.3833	-2.1063	-2.5938	345.063	273.273	244.869	255.798	478.121	216.051	491.696	219.094	455.943	225.119	504.793	505.348	463.873	443.457	418.972	489.648	0.00068687	0.00014895	2.9001e-05	438.86	4.318e-06	1.0153e-06	647.5	115.68	2.6504e-06	1.8843e-06	195.87	49.1	25.639	9.6287	3.1934e-06	22.96	5.5486e-05	5.1012e-05	1.4294e-05	371.35	5.6256e-07	5.5734e-07	600.09	106.13	5.6953e-07	5.7318e-07	172.3	44.076	23.368	8.929	5.736e-07	20.458	355.086	264.235	222.966	160.325	343.363	306.149	160.356	165.381	297.360	290.683	163.621	169.344	169.712	177.353	259.846	175.018	-8191	255	
1100.571	1	1	0	0	0.11294	0.19635	0.22012	0.043921	0.15837	0.18559	0.16671	0.20549	0.20991	0.19307	0.06665	0.29627	0.10831	0.19798	0.19459	0.031046	-1.8833	-2.4458	-2.3958	-2.2271	-2.3854	-2.4646	-2.2521	-2.5958	-2.2979	-2.1625	-2.5062	-2.3604	-2.4667	-2.5542	-2.2729	-2.5792	357.700	347.829	488.235	381.261	431.215	287.930	251.173	468.490	398.775	397.174	452.995	193.703	434.204	235.446	277.031	364.420	0.00054092	0.0001118	8.5508e-05	435.95	2.864e-06	1.2349e-06	647.11	115.21	3.4274e-06	1.1092e-06	195.96	49.382	25.786	9.655	2.6587e-06	23.069	5.5018e-05	5.2446e-05	1.4075e-05	370.23	5.7372e-07	5.7011e-07	601.21	106.12	5.7745e-07	5.7618e-07	172.91	44.24	23.492	8.9645	5.7253e-07	20.561	346.398	499.740	185.782	160.799	262.573	350.761	160.189	164.923	191.278	376.309	163.386	169.258	169.929	177.319	257.083	175.159	-8191	255	
1100.667	1	1	0	0	0.34115	0.26659	0.17582	0.085494	0.15434	0.044913	0.31975	0.1856	0.2101	0.069074	0.19497	0.20268	0.081567	0.13383	0.044801	0.11227	-1.9125	-2.3667	-2.5563	-2.1292	-2.4104	-2.4958	-2.2104	-2.5458	-2.4146	-2.2812	-2.4979	-2.4062	-2.2958	-2.5104	-2.2104	-2.6188	480.506	343.445	243.368	193.965	424.401	289.178	487.417	171.644	285.641	274.399	496.768	321.138	385.936	233.072	389.066	474.140	0.00052798	0.00019081	4.8388e-05	443.99	6.4892e-07	2.2481e-06	650.59	115.47	3.4273e-06	1.3035e-06	197.31	49.077	26.065	9.6383	2.5871e-06	23.212	5.5933e-05	5.2617e-05	1.4445e-05	372.5	5.7205e-07	5.6506e-07	602.99	106.56	5.8416e-07	5.6741e-07	173.88	44.327	23.607	9.0087	5.6279e-07	20.652	348.897	264.213	262.658	160.528	276.963	249.690	160.060	164.956	198.401	321.462	163.398	168.745	169.384	177.326	323.498	175.155	-8191	255	
1100.763	1	1	0	0	0.10001	0.14014	0.13317	0.15959	0.14564	0.14457	0.021489	0.036768	0.37066	0.1999	0.2119	0.0045715	0.062982	0.11359	0.19161	0.38284	-1.9167	-2.175	-2.5563	-2.2188	-2.3688	-2.6833	-2.0104	-2.5104	-2.4188	-2.3125	-2.6271	-2.2104	-2.3125	-2.5271	-2.3708	-2.4437	226.718	178.737	330.913	221.666	246.524	221.074	180.017	220.171	441.317	457.334	240.139	406.946	267.798	285.368	153.235	451.742	0.00059832	0.00014322	3.3245e-05	437.17	2.402e-06	1.848e-06	647.17	114.69	2.8591e-06	2.2418e-06	196.46	49.653	25.783	9.5692	2.7139e-06	22.883	5.4706e-05	5.2189e-05	1.4122e-05	371.02	5.671e-07	5.711e-07	601.84	106.42	5.7279e-07	5.6697e-07	173.45	44.276	23.456	8.935	5.6256e-07	20.43	341.559	170.170	420.534	160.581	319.211	299.224	160.212	165.059	219.723	452.740	163.412	169.202	169.613	177.262	243.500	174.975	-8191	255	
1100.883	1	1	0	0	0.18874	0.13413	0.33546	0.22189	0.12246	0.10579	0.26489	0.16616	0.13604	0.079508	0.20129	0.085318	0.21222	0.076163	0.1836	0.2866	-1.9	-2.0875	-2.5104	-2.3729	-2.3354	-2.6896	-2.1937	-2.5875	-2.5083	-2.2708	-2.6958	-2.4167	-2.2854	-2.5979	-2.2104	-2.2625	283.064	409.674	210.828	220.584	315.850	491.043	165.346	458.774	387.594	352.565	411.356	200.937	274.968	269.075	175.636	467.213	0.00054751	0.00027683	8.5897e-05	438.19	1.4058e-06	2.8228e-06	646.46	115.43	4.2048e-06	4.6532e-07	196.25	49.687	26.06	9.6606	9.0892e-07	23.323	5.5132e-05	5.2437e-05	1.4096e-05	371.09	5.6525e-07	5.5887e-07	601.01	106.7	5.6764e-07	5.7348e-07	173.57	44.268	23.531	9.0002	5.636e-07	20.612	346.118	217.258	366.898	160.396	230.655	258.946	160.428	164.893	239.536	205.548	163.700	168.831	169.663	176.893	285.873	175.089	-8191	255	
1100.980	1	1	0	0	0.27709	0.20322	0.063285	0.19722	0.18727	0.12496	0.076576	0.26049	0.17413	0.048059	0.15654	0.20302	0.15965	0.0691	0.15077	0.24913	-1.9729	-2.2479	-2.6458	-2.4125	-2.3354	-2.675	-2.3063	-2.4604	-2.5604	-2.2229	-2.6437	-2.3708	-2.4208	-2.5687	-2.4	-2.35	371.921	222.848	381.764	503.834	503.803	453.593	400.584	491.590	360.351	386.313	450.327	502.561	448.136	169.691	230.807	411.086	0.0006018	0.00015166	3.0391e-05	439.26	6.7167e-07	2.9588e-06	650.27	115.7	3.7327e-06	2.1355e-06	198.21	49.378	26.115	9.6999	1.0344e-06	23.18	5.6597e-05	5.2709e-05	1.4572e-05	370.25	5.6706e-07	5.731e-07	603.93	106.61	5.7384e-07	5.6867e-07	174.47	44.268	23.636	8.9772	5.6776e-07	20.645	341.550	314.383	149.698	161.035	237.565	236.221	160.208	165.264	273.136	234.507	163.346	169.366	170.063	177.233	336.084	174.835	-8191	255	
1101.076	1	1	0	0	0.098532	0.10637	0.19058	0.18086	0.0037692	0.03858	0.12042	0.18213	0.14165	0.27346	0.25754	0.092085	0.10891	0.22578	0.34147	0.22516	-2.0396	-2.3417	-2.5708	-2.4833	-2.2875	-2.625	-2.2583	-2.4854	-2.6354	-2.2188	-2.6688	-2.5167	-2.1917	-2.475	-2.4354	-2.2938	431.052	455.196	447.790	353.607	187.555	376.462	386.110	178.554	422.751	156.575	176.524	323.542	216.953	193.279	497.440	406.269	0.00052928	0.00014766	4.992e-05	444.63	8.936e-07	1.9463e-06	646.15	115.53	1.7843e-06	1.6801e-06	197.51	49.125	25.727	9.5472	9.7258e-07	22.993	5.5752e-05	5.2189e-05	1.4484e-05	372.75	5.7743e-07	5.7016e-07	602.32	106.63	5.6841e-07	5.6315e-07	173.86	44.271	23.447	8.954	5.7831e-07	20.46	348.688	186.890	239.166	160.934	188.910	338.897	159.996	164.675	292.472	293.637	163.356	169.313	169.811	177.144	425.027	175.259	-8191	255	
1101.147	1	1	0	0	0.14625	0.092587	0.18461	0.36739	0.23709	0.15345	0.36126	0.009062	0.20555	0.28434	0.073051	0.22367	0.11099	0.15021	0.25372	0.10766	-2.1417	-2.275	-2.3854	-2.6104	-2.1063	-2.7125	-2.4521	-2.225	-2.3604	-2.1312	-2.4042	-2.3438	-2.0479	-2.6667	-2.4188	-2.25	326.403	156.012	176.993	278.032	258.659	298.184	299.849	445.390	355.335	234.928	451.081	166.711	314.774	421.660	319.428	496.085	0.00067267	0.00018095	4.5121e-05	437.99	1.4512e-06	1.3772e-06	648.56	115.91	2.2228e-06	2.0117e-06	197.01	49.373	25.662	9.6774	7.6065e-07	23.258	5.575e-05	5.1029e-05	1.4344e-05	372.23	5.796e-07	5.6941e-07	601.21	106.54	5.8352e-07	5.7669e-07	173.41	44.406	23.462	9.0167	5.7097e-07	20.634	352.721	399.987	183.121	160.638	312.940	241.613	160.190	164.894	242.671	290.853	163.166	169.597	170.138	177.576	225.858	174.832	-8191	255	
1101.268	1	1	0	0	0.18848	0.21005	0.20338	0.20991	0.32578	0.034288	0.22757	0.13213	0.22574	0.30369	0.13595	0.063534	0.049797	0.23759	0.1128	0.2267	-1.9729	-2.1833	-2.4646	-2.5292	-2.2188	-2.6021	-2.6188	-2.3521	-2.6562	-2.2313	-2.5708	-2.6646	-2.2875	-2.3875	-2.4875	-2.2875	214.140	366.703	232.075	233.112	267.523	202.588	189.365	479.172	327.933	498.325	320.664	193.696	476.837	358.127	453.066	457.502	0.00071977	0.00018148	3.9787e-05	432.68	1.0733e-06	1.3198e-06	645.38	114.61	3.4777e-06	2.5644e-06	197.89	49.183	25.947	9.814	1.5315e-06	23.348	5.4872e-05	5.1659e-05	1.4349e-05	369.87	5.6637e-07	5.7085e-07	600.95	106.3	5.7488e-07	5.6833e-07	174.17	44.338	23.571	9.0356	5.7412e-07	20.789	345.090	247.948	195.208	160.724	329.843	206.279	160.068	165.161	253.231	294.539	163.901	169.944	169.198	177.089	285.965	174.984	-8191	255	
1101.364	1	1	0	0	0.22031	0.060679	0.22649	0.040345	0.025151	0.12722	0.11282	0.16855	0.256	0.12367	0.071624	0.27408	0.07561	0.058744	0.15231	0.16083	-2.2479	-2.3042	-2.2708	-2.6396	-2.4042	-2.6708	-2.5604	-2.1458	-2.5833	-2.5875	-2.5396	-2.75	-2.1688	-2.4458	-2.5542	-2.2167	166.322	185.547	265.813	402.332	315.796	247.360	377.282	296.262	207.990	478.208	363.088	280.262	364.910	281.630	363.298	433.139	0.00059709	0.00017107	6.5131e-05	442.73	3.0448e-06	2.9705e-06	649.22	115.97	2.9022e-06	2.3526e-06	197.6	49.181	25.727	9.7967	1.2609e-06	23.182	5.5575e-05	5.197e-05	1.4644e-05	371.67	5.7375e-07	5.7118e-07	602.93	106.76	5.7068e-07	5.521e-07	174.02	44.333	23.462	9.0771	5.7025e-07	20.72	341.963	487.496	252.799	160.111	272.485	243.838	160.159	164.786	314.349	311.215	163.258	169.569	169.803	177.013	343.142	175.351	-8191	255	
1101.460	1	1	0	0	0.1771	0.28879	0.046798	0.070747	0.095226	0.15583	0.086605	0.074402	0.10952	0.19334	0.31782	0.11593	0.095373	0.21629	0.26283	0.12557	-2.1479	-2.3146	-2.3875	-2.6583	-2.2458	-2.6042	-2.5604	-2.1021	-2.6813	-2.4542	-2.4375	-2.6729	-2.375	-2.5521	-2.5271	-2.2333	456.753	290.202	307.729	191.250	258.093	192.832	188.070	396.462	440.413	337.431	318.255	210.630	347.329	394.758	465.188	454.446	0.00066103	8.8835e-05	2.1541e-05	438.47	2.1168e-06	2.2147e-06	647.84	115.21	1.0435e-06	2.2527e-06	196.42	49.411	25.911	9.7925	2.5975e-06	23.302	5.4766e-05	5.1379e-05	1.4485e-05	371.46	5.6944e-07	5.7434e-07	601.46	106.42	5.6715e-07	5.7299e-07	172.97	44.38	23.45	9.0741	5.6837e-07	20.761	349.387	270.926	372.863	160.889	470.759	269.298	160.442	165.031	338.660	264.463	163.694	169.522	169.700	176.842	273.971	175.302	-8191	255	
1101.557	1	1	0	0	0.12939	0.26142	0.12151	0.20633	0.23471	0.15755	0.144	0.18787	0.26456	0.20992	0.33117	0.087012	0.051387	0.35181	0.23192	0.31168	-2.0458	-2.4062	-2.375	-2.5229	-2.6167	-2.4771	-2.6583	-2.2167	-2.5708	-2.4104	-2.2417	-2.6	-2.4354	-2.3479	-2.675	-2.2896	431.029	271.442	432.893	353.404	237.183	170.783	426.695	444.007	308.015	185.201	329.307	473.777	448.435	424.877	175.888	398.391	0.00063112	0.00016298	5.0803e-05	436.6	1.4877e-06	3.0548e-06	646.79	114.76	1.211e-06	3.5718e-06	197.27	49.294	25.978	9.815	1.1876e-06	23.469	5.5466e-05	5.2531e-05	1.4471e-05	369.35	5.8215e-07	5.6441e-07	601.5	106.59	5.7208e-07	5.67e-07	173.34	44.332	23.508	9.0805	5.6613e-07	20.887	337.915	491.344	176.323	160.639	451.529	217.584	160.282	164.835	193.089	216.208	163.128	169.499	169.439	177.453	314.764	175.324	-8191	255	
1101.675	1	1	0	0	0.089975	0.34693	0.40623	0.11052	0.3011	0.16372	0.0606	0.17211	0.2327	0.081492	0.13793	0.19865	0.023209	0.15966	0.0536	0.12102	-2.0708	-2.5187	-2.2729	-2.65	-2.5354	-2.5292	-2.5771	-2.3187	-2.4583	-2.5833	-2.3979	-2.5375	-2.3104	-2.2333	-2.7062	-2.3521	237.347	321.286	212.288	213.148	324.161	148.593	488.463	165.766	452.352	278.513	342.891	371.247	393.573	330.139	421.921	506.478	0.00068374	7.4135e-05	5.7564e-05	433.04	2.8146e-06	9.471e-07	646.69	114.66	4.0721e-06	1.8398e-06	196.7	49.656	25.976	9.834	2.9389e-06	23.225	5.5802e-05	5.1842e-05	1.4751e-05	369.82	5.8076e-07	5.7533e-07	600.55	106.08	5.8863e-07	5.7356e-07	173.38	44.387	23.541	9.1289	5.6951e-07	20.766	352.238	269.607	178.069	159.985	207.095	446.719	160.056	165.014	212.213	227.630	163.427	169.466	169.646	177.232	225.828	175.316	-8191	255	
1101.749	1	1	0	0	0.19683	0.025102	0.16762	0.17326	0.06655	0.16385	0.17586	0.18558	0.12755	0.22158	0.18981	0.13826	0.22049	0.12106	0.038085	0.19065	-2.1375	-2.3812	-2.1521	-2.6521	-2.3958	-2.3417	-2.6063	-2.3375	-2.3812	-2.6437	-2.2958	-2.6167	-2.3896	-2.2708	-2.5854	-2.3771	269.142	213.118	473.677	297.692	173.469	259.022	455.764	163.623	436.377	236.185	393.505	287.588	376.606	327.848	242.632	494.797	0.00063639	0.00024749	1.3208e-05	437.13	1.7421e-06	2.1828e-06	646.56	115.05	5.4166e-06	5.5958e-07	196.59	49.232	25.521	9.7007	8.5067e-07	23.346	5.6194e-05	5.255e-05	1.4604e-05	370.11	5.6494e-07	5.6191e-07	599.39	106.02	5.8187e-07	5.7389e-07	172.95	44.198	23.418	9.0779	5.7677e-07	20.802	346.173	326.972	260.217	160.648	414.058	262.342	160.217	164.750	240.714	233.022	163.472	169.200	169.977	177.269	400.368	175.398	-8191	255	
1101.868	1	1	0	0	0.29768	0.15476	0.12864	0.094463	0.32809	0.26618	0.22011	0.35604	0.10065	0.10001	0.046423	0.048231	0.15853	0.073567	0.014379	0.099944	-1.7687	-2.4917	-2.325	-2.4521	-2.6042	-2.2729	-2.7646	-2.2979	-2.5812	-2.7313	-2.3625	-2.4813	-2.5979	-2.2896	-2.5917	-2.2646	450.160	499.261	242.834	312.524	218.073	502.756	416.952	494.213	299.700	397.793	492.836	495.363	395.216	501.720	353.933	452.599	0.00061804	0.00022373	7.967e-05	431.81	2.1547e-06	1.6053e-06	645.67	114.19	3.1189e-06	1.5316e-06	196.07	49.423	25.549	9.7691	9.8873e-07	23.444	5.5161e-05	5.1837e-05	1.4361e-05	369.02	5.7492e-07	5.7439e-07	599.99	105.9	5.7463e-07	5.6521e-07	172.79	44.425	23.44	9.1178	5.6892e-07	20.899	345.210	212.186	156.886	160.663	262.628	415.822	160.411	165.018	318.408	322.984	163.506	169.224	169.809	176.999	237.828	175.117	-8191	255	
1101.964	1	1	0	0	0.16177	0.043713	0.23194	0.13603	0.24932	0.19223	0.097559	0.2966	0.022096	0.19143	0.2125	0.071976	0.31502	0.27521	0.057286	0.027973	-1.85	-2.5333	-2.1312	-2.3833	-2.6	-2.2896	-2.6083	-2.2521	-2.3167	-2.6312	-2.4521	-2.3896	-2.5479	-2.2958	-2.5187	-2.3854	292.691	146.998	448.715	266.680	341.753	251.899	464.159	484.858	419.844	187.989	159.121	244.795	394.733	425.075	443.306	478.450	0.00073882	0.00026429	5.3651e-05	436.34	1.5582e-06	1.5707e-06	646.03	114.19	3.2591e-06	1.5138e-06	195.25	49.451	25.628	9.9831	1.7028e-06	23.879	5.5959e-05	5.2016e-05	1.4544e-05	368.55	5.7674e-07	5.795e-07	599.04	105.49	5.8744e-07	5.7446e-07	172.93	44.586	23.57	9.2449	5.749e-07	21.262	347.299	179.273	163.422	160.575	342.061	238.501	159.978	164.715	295.102	309.965	163.597	169.415	169.868	176.895	492.211	175.572	-8191	255	
1102.060	1	1	0	0	0.1719	0.16726	0.045537	0.070337	0.050914	0.33525	0.18395	0.15714	0.075107	0.08892	0.087594	0.064598	0.078181	0.34263	0.37094	0.16313	-1.7812	-2.3604	-2.2917	-2.2542	-2.6771	-2.375	-2.6188	-2.4875	-2.3937	-2.5187	-2.4062	-2.3438	-2.6042	-2.3896	-2.4458	-2.5187	430.116	459.818	214.046	180.663	352.753	330.165	189.804	473.064	497.910	492.357	289.768	384.870	360.792	200.705	210.923	436.319	0.00059403	0.00011626	1.0716e-05	434.84	6.9671e-07	2.3648e-06	642.48	113.54	1.9689e-06	2.5213e-06	194.53	49.854	25.607	9.9659	2.1065e-06	23.631	5.6433e-05	5.3563e-05	1.4827e-05	369.18	5.8203e-07	5.8782e-07	597.38	105.25	5.8403e-07	5.8118e-07	172	44.6	23.438	9.2652	5.8053e-07	21.114	337.420	202.591	156.843	160.978	219.833	268.799	160.017	165.160	257.041	269.389	163.401	169.383	170.202	177.404	337.674	174.845	-8191	255	
1102.156	1	1	0	0	0.042293	0.14656	0.070462	0.44763	0.15172	0.12639	0.092214	0.090987	0.1449	0.20299	0.23047	0.048131	0.09221	0.081907	0.22793	0.22564	-1.7188	-2.6208	-2.3542	-2.2896	-2.5042	-2.5208	-2.5833	-2.6896	-2.2792	-2.6375	-2.5104	-2.2188	-2.6417	-2.3667	-2.4875	-2.6854	369.415	355.548	393.229	411.759	497.425	235.697	444.843	229.950	423.067	306.054	450.947	182.854	457.414	222.498	416.582	183.018	0.00066677	0.00017869	2.046e-05	430.96	1.7098e-06	2.2324e-06	640.47	113.4	2.7713e-06	9.0354e-07	193.3	49.48	25.609	10.117	1.9136e-06	23.914	5.6783e-05	5.3177e-05	1.4619e-05	365.78	5.8166e-07	5.8894e-07	593.73	104.64	5.9588e-07	5.8033e-07	171.42	44.536	23.481	9.3995	5.8268e-07	21.377	358.521	228.357	169.363	160.522	319.219	469.037	160.099	165.313	159.723	179.373	163.742	169.888	170.695	177.551	244.179	174.828	-8191	255	
1102.277	1	1	0	0	0.084787	0.15765	0.42226	0.06764	0.11008	0.10438	0.34428	0.15461	0.067447	0.15173	0.15188	0.13912	0.08017	0.15114	0.11257	0.15598	-1.5646	-2.575	-2.4125	-2.3937	-2.5563	-2.425	-2.4479	-2.6396	-2.2687	-2.475	-2.65	-2.0687	-2.5646	-2.375	-2.4167	-2.6229	366.774	189.256	416.496	464.796	238.260	378.173	477.986	454.482	462.910	457.414	192.450	355.463	218.251	484.341	314.963	337.392	0.00060685	0.0001388	4.9316e-05	425.82	7.7714e-07	2.2617e-06	639.88	113.29	1.2359e-06	1.597e-06	194.56	49.927	25.869	10.042	3.5017e-06	24.319	5.7081e-05	5.3078e-05	1.4903e-05	364.42	5.8409e-07	5.8734e-07	594.07	104.58	5.7682e-07	5.8228e-07	171.72	44.728	23.508	9.3864	5.8631e-07	21.618	349.007	197.163	252.987	160.793	317.226	348.597	160.123	165.054	194.402	251.859	163.818	169.628	170.179	176.935	248.915	175.236	-8191	255	
1102.348	1	1	0	0	0.11233	0.11186	0.14642	0.16236	0.099932	0.22297	0.17208	0.094356	0.18405	0.062082	0.12812	0.32793	0.26588	0.10903	0.099336	0.2926	-1.7313	-2.5292	-2.5062	-2.1542	-2.7146	-2.2687	-2.4458	-2.6604	-2.25	-2.5333	-2.5458	-2.1604	-2.6354	-2.4396	-2.3583	-2.5521	241.320	220.380	294.336	321.611	389.359	186.764	449.401	216.329	345.116	291.919	371.115	340.414	153.225	407.917	506.399	423.825	0.0004687	0.00018457	8.8618e-05	433.01	1.5029e-06	1.1997e-06	640.09	113.64	2.6093e-06	4.8243e-07	195.46	49.906	26.039	10.13	2.476e-06	24.047	5.7937e-05	5.3447e-05	1.4669e-05	366.06	5.9037e-07	5.7769e-07	594.7	104.87	5.9108e-07	5.7767e-07	172.16	44.837	23.639	9.4273	5.8781e-07	21.421	350.486	447.653	306.976	160.543	342.075	285.848	160.564	165.038	326.037	337.003	163.553	169.603	169.928	176.991	276.903	175.243	-8191	255	
1102.469	1	1	0	0	0.028047	0.15269	0.11266	0.40626	0.15634	0.077993	0.073598	0.21423	0.10699	0.14604	0.048521	0.17431	0.08631	0.18958	0.36591	0.24812	-1.7896	-2.2646	-2.4292	-2.1937	-2.5958	-2.425	-2.3167	-2.6813	-2.4583	-2.525	-2.6729	-2.3021	-2.6021	-2.4521	-2.2667	-2.6375	316.459	404.393	154.746	490.840	343.543	148.860	191.142	395.226	371.134	422.387	207.581	484.850	265.999	172.345	342.016	422.929	0.00066218	0.0001001	5.7044e-05	431.26	1.3373e-06	5.57e-07	637.21	112.82	5.4095e-07	2.2587e-06	192.97	49.696	25.946	10.136	4.0572e-07	23.987	5.7058e-05	5.3157e-05	1.4764e-05	365.45	5.8436e-07	5.7807e-07	593.05	104.57	5.8217e-07	5.7943e-07	171.1	44.641	23.619	9.4127	5.795e-07	21.482	355.615	272.298	197.973	160.428	292.157	268.470	160.204	165.461	390.868	188.635	163.318	169.262	169.661	177.268	452.909	175.357	-8191	255	
1102.563	1	1	0	0	0.28272	0.18979	0.1064	0.27389	0.086354	0.22379	0.12387	0.1129	0.074401	0.072451	0.17708	0.15674	0.14022	0.089306	0.18531	0.12241	-1.7938	-2.3729	-2.5708	-2.3438	-2.4229	-2.3979	-2.4542	-2.4917	-2.4813	-2.4583	-2.5708	-2.4792	-2.5896	-2.5292	-2.15	-2.6583	243.830	242.817	337.983	388.067	212.383	305.439	503.744	469.442	507.056	296.279	155.331	260.716	178.998	150.734	180.754	345.534	0.00070623	0.00021327	3.5579e-05	427.67	2.5907e-06	1.2361e-06	637.32	113.07	8.4302e-07	1.0179e-06	193.82	49.374	25.779	10.116	1.5706e-06	24.066	5.7653e-05	5.3181e-05	1.4892e-05	364.09	5.7104e-07	5.8351e-07	592.38	104.67	5.9022e-07	5.7164e-07	171.92	44.49	23.472	9.4055	5.7585e-07	21.475	354.138	259.088	162.906	160.592	261.334	378.954	160.095	165.096	270.512	321.947	163.532	169.792	170.360	177.401	189.611	175.143	-8191	255	
1102.660	1	1	0	0	0.18779	0.20793	0.31474	0.23426	0.22718	0.25036	0.24732	0.1683	0.17119	0.1423	0.23213	0.17084	0.24373	0.14976	0.11242	0.18807	-1.8813	-2.2292	-2.65	-2.1875	-2.3292	-2.6833	-2.1458	-2.5042	-2.3854	-2.3563	-2.5417	-2.2667	-2.5333	-2.5667	-2.3792	-2.6292	176.501	272.125	387.645	462.878	317.976	505.826	400.572	164.204	245.824	272.890	443.792	404.966	436.094	202.411	344.779	412.650	0.00063848	0.00016809	8.8994e-05	430.12	1.5437e-08	2.9458e-06	641.53	112.77	1.6954e-06	6.3761e-07	195.4	49.666	25.842	10.052	3.714e-06	24.087	5.6283e-05	5.3511e-05	1.4669e-05	365.19	5.7914e-07	5.7825e-07	594.84	104.67	5.8695e-07	5.8133e-07	171.96	44.732	23.561	9.3825	5.8507e-07	21.454	348.971	486.035	195.622	160.936	338.117	378.986	160.230	164.707	396.685	296.494	163.531	169.704	169.852	176.680	270.302	174.893	-8191	255	
1102.756	1	1	0	0	0.23401	0.035294	0.16622	0.070994	0.19331	0.11732	0.20375	0.24658	0.18076	0.021702	0.35459	0.18903	0.18617	0.063378	0.095847	0.33139	-1.9521	-2.3792	-2.5771	-2.325	-2.5458	-2.5167	-2.3125	-2.4917	-2.3979	-2.3063	-2.7292	-2.4146	-2.3896	-2.4979	-2.4104	-2.6688	403.470	207.680	418.056	291.899	295.175	401.367	430.556	383.113	192.666	370.048	186.827	230.559	473.958	150.806	387.222	504.666	0.00061085	6.6429e-05	1.6292e-05	424.85	2.1338e-07	8.7809e-07	638.81	113.17	3.8476e-06	7.1152e-07	193.07	49.493	25.664	10.052	2.9276e-06	23.881	5.67e-05	5.389e-05	1.4599e-05	364.09	5.8073e-07	5.78e-07	593.27	104.53	5.7505e-07	5.8052e-07	171.07	44.398	23.411	9.3768	5.7851e-07	21.294	353.440	245.755	480.402	160.813	455.151	505.320	160.229	164.824	238.947	242.657	163.567	169.407	169.400	177.079	266.133	175.018	-8191	255	
1102.852	1	1	0	0	0.32332	0.12779	0.11475	0.10866	0.098224	0.10765	0.13616	0.11271	0.29145	0.23714	0.19926	0.050561	0.10544	0.26362	0.24782	0.11523	-2.1146	-2.525	-2.4375	-2.3312	-2.4188	-2.6937	-2.2792	-2.4188	-2.5083	-2.3417	-2.5646	-2.1792	-2.3542	-2.5229	-2.2479	-2.5542	149.164	408.043	453.863	169.766	212.433	175.438	433.109	195.439	255.262	316.143	161.034	373.484	443.287	267.185	327.261	171.095	0.00063547	0.00028566	2.4015e-05	431.83	7.117e-07	2.6989e-06	637.92	113.16	1.7875e-06	1.8245e-06	192.46	49.256	25.608	9.9842	1.1814e-06	23.893	5.6414e-05	5.3219e-05	1.4353e-05	364.68	5.7612e-07	5.7137e-07	593.22	104.36	5.8128e-07	5.7594e-07	170.65	44.413	23.435	9.31	5.7746e-07	21.302	345.458	381.924	489.994	160.851	228.095	219.500	160.128	164.803	290.364	181.961	163.451	169.671	169.781	178.015	148.111	175.321	-8191	255	
1102.973	1	1	0	0	0.34568	0.16909	0.27147	0.1254	0.20089	0.082225	0.10678	0.21501	0.086934	0.12863	0.20295	0.18334	0.12852	0.048628	0.18469	0.1505	-2.0333	-2.0958	-2.5521	-2.2708	-2.3104	-2.5917	-2.3812	-2.4854	-2.5812	-2.3292	-2.3521	-2.4583	-2.325	-2.5729	-2.275	-2.4917	231.792	246.102	314.249	469.287	322.347	286.648	455.759	412.188	195.192	359.967	334.669	498.353	379.196	163.124	312.741	305.439	0.00066711	0.00016983	6.0117e-05	434	1.3133e-06	3.2966e-06	641.36	112.96	2.2484e-06	3.3541e-06	194.57	49.508	25.736	9.9812	1.2158e-06	23.839	5.6191e-05	5.3116e-05	1.4746e-05	365.99	5.7423e-07	5.708e-07	594.41	104.5	5.7817e-07	5.7796e-07	171.97	44.542	23.518	9.274	5.7781e-07	21.316	332.860	183.063	382.789	160.618	289.717	204.073	160.070	165.322	306.163	392.801	163.667	169.161	170.132	177.456	235.454	175.200	-8191	255	
1103.044	1	1	0	0	0.21065	0.20596	0.12728	0.10575	0.30018	0.27347	0.18815	0.17085	0.19975	0.05714	0.17739	0.11954	0.34534	0.28466	0.090369	0.11854	-1.9646	-2.225	-2.5583	-2.3875	-2.2042	-2.6708	-2.1729	-2.3812	-2.5604	-2.1708	-2.6146	-2.5042	-2.075	-2.5729	-2.2625	-2.3083	248.750	407.847	356.298	366.968	177.000	340.685	505.322	319.847	397.606	180.718	147.516	398.406	506.662	258.415	452.380	259.492	0.00053124	0.0002118	3.5305e-05	432.01	4.6047e-06	1.2838e-06	642.1	113.72	1.0983e-06	1.4109e-06	195.13	49.378	25.871	9.903	9.1689e-07	23.67	5.604e-05	5.2983e-05	1.4575e-05	365.17	5.7174e-07	5.6922e-07	595.73	105.12	5.74e-07	5.7436e-07	171.62	44.226	23.478	9.2553	5.6952e-07	21.116	345.120	194.522	422.970	160.774	234.790	155.580	160.254	164.999	469.393	349.240	163.216	169.319	169.450	176.752	231.618	175.089	-8191	255	
1103.140	1	1	0	0	0.02877	0.056077	0.070583	0.16156	0.20811	0.35144	0.16959	0.11197	0.11457	0.13206	0.11625	0.010992	0.1105	0.18957	0.13916	0.16835	-2.1729	-2.1875	-2.3688	-2.4604	-2.2938	-2.3771	-2.5708	-2.4208	-2.4708	-2.2854	-2.5521	-2.4458	-2.2354	-2.5312	-2.3167	-2.3917	285.181	365.037	216.452	500.146	311.367	295.567	409.316	309.802	387.012	365.808	440.587	268.044	179.979	237.401	470.074	488.756	0.00065354	0.00012212	3.9669e-05	427.83	2.5284e-06	2.264e-06	638.44	113.06	6.3777e-07	1.7788e-06	194.43	49.009	25.715	9.9522	5.0908e-07	23.637	5.5944e-05	5.2692e-05	1.4568e-05	364.31	5.8452e-07	5.7107e-07	592.18	104.74	5.7454e-07	5.7142e-07	171.52	44.268	23.316	9.1971	5.725e-07	21.061	345.386	477.478	199.980	161.082	249.464	296.555	160.165	164.861	260.702	286.282	163.658	169.515	170.026	177.244	431.557	175.245	-8191	255	
1103.237	1	1	0	0	0.14857	0.26882	0.16808	0.21918	0.24182	0.057276	0.12277	0.024454	0.13271	0.075446	0.28347	0.1043	0.11048	0.18894	0.034641	0.24077	-2.1833	-2.1813	-2.3875	-2.4208	-2.1875	-2.7042	-2.6708	-2.3521	-2.5667	-2.3583	-2.4542	-2.4062	-2.2687	-2.6583	-2.3229	-2.3792	209.459	228.703	258.368	241.251	202.751	202.274	440.390	472.482	301.785	169.136	219.209	344.756	308.404	294.348	389.951	367.395	0.00062664	0.00040375	4.7558e-05	428.69	2.4265e-06	4.7242e-06	636.69	113.67	6.8689e-07	1.367e-06	194.84	49.733	25.57	9.9639	1.4308e-06	23.709	5.5358e-05	5.2287e-05	1.4552e-05	364.95	5.6252e-07	5.6387e-07	593.73	105.02	5.6825e-07	5.6884e-07	171.72	44.366	23.389	9.2319	5.7226e-07	21.185	349.440	230.002	419.512	160.758	207.610	253.358	160.317	164.726	505.823	399.132	163.227	169.669	169.904	177.647	486.313	175.136	-8191	255	
1103.357	1	1	0	0	0.16259	0.14592	0.099751	0.08384	0.20595	0.12213	0.21648	0.046027	0.30749	0.20216	0.27425	0.11008	0.20079	0.080589	0.094581	0.11319	-2.1667	-2.2833	-2.3625	-2.5979	-2.3875	-2.4688	-2.4417	-2.1729	-2.5229	-2.2313	-2.3583	-2.5375	-2.1875	-2.4854	-2.5146	-2.1958	159.703	195.372	332.624	263.106	337.406	456.112	493.352	188.099	295.329	366.082	284.339	385.859	194.189	149.956	199.940	485.556	0.00066074	0.00027777	1.1907e-05	433.75	1.8549e-06	3.2057e-06	642.87	113.65	7.913e-07	1.4664e-06	197.2	49.216	25.631	9.839	2.5376e-06	23.66	5.5835e-05	5.1815e-05	1.4378e-05	367.62	5.733e-07	5.6732e-07	595.62	104.93	5.7216e-07	5.75e-07	172.64	44.324	23.383	9.2229	5.7236e-07	20.975	349.133	216.335	484.159	160.726	420.047	299.279	160.011	165.013	147.617	318.566	163.141	169.066	169.548	177.017	267.311	175.310	-8191	255	
#DATA ENDS
