BOXY.EXE: ISS Imagent and Oximeter Data Acquisition Program Version 0.80
Ascii Record File

#ACQ INFORMATION
2  Detector Channels 
16  External MUX Channels 
1  Auxiliary Channels 
5000  Waveform (CCF) Frequency (Hz)
1  Waveforms Skipped 
30  Waveforms Averaged 
1  Cycles Averaged 
16  Acquisitions per Waveform 
10.0806  Updata Rate (Hz) 

#FILE INFORMATION
TRUE -- External MUX Channel results are PARSED.
FALSE -- AC DC and Phase are NOT grouped.
TRUE -- Companion Program Settings File CREATED.
FALSE -- AC data not excluded
FALSE -- DC data not excluded
FALSE -- Phase data not excluded
FALSE -- Auxillary Chn. data not excluded
Tab delimiters

#CALIBRATION STATE
TRUE -- Waveform Calibration Values APPLIED.


#AUX CALIBRATION VALUES
Val Type	aux-1	

Term	1.0000e+00	
Factor	0.0000e+00	


#WF CALIBRATION VALUES
A = Detector Channel
Val Type	A-AC1	A-AC2	A-AC3	A-AC4	A-AC5	A-AC6	A-AC7	A-AC8	A-AC9	A-AC10	A-AC11	A-AC12	A-AC13	A-AC14	A-AC15	A-AC16	A-DC1	A-DC2	A-DC3	A-DC4	A-DC5	A-DC6	A-DC7	A-DC8	A-DC9	A-DC10	A-DC11	A-DC12	A-DC13	A-DC14	A-DC15	A-DC16	A-Ph1	A-Ph2	A-Ph3	A-Ph4	A-Ph5	A-Ph6	A-Ph7	A-Ph8	A-Ph9	A-Ph10	A-Ph11	A-Ph12	A-Ph13	A-Ph14	A-Ph15	A-Ph16	

Term	0.00000e+00	0.00000e+00	0.00000e+00	0.00000e+00	0.00000e+00	0.00000e+00	0.00000e+00	0.00000e+00	0.00000e+00	0.00000e+00	0.00000e+00	0.00000e+00	0.00000e+00	0.00000e+00	0.00000e+00	0.00000e+00	0.00000e+00	0.00000e+00	0.00000e+00	0.00000e+00	0.00000e+00	0.00000e+00	0.00000e+00	0.00000e+00	0.00000e+00	0.00000e+00	0.00000e+00	0.00000e+00	0.00000e+00	0.00000e+00	0.00000e+00	0.00000e+00	0.00000e+00	0.00000e+00	0.00000e+00	0.00000e+00	0.00000e+00	0.00000e+00	0.00000e+00	0.00000e+00	0.00000e+00	0.00000e+00	0.00000e+00	0.00000e+00	0.00000e+00	0.00000e+00	0.00000e+00	0.00000e+00	
Factor	1.00000e+00	1.00000e+00	1.00000e+00	1.00000e+00	1.00000e+00	1.00000e+00	1.00000e+00	1.00000e+00	1.00000e+00	1.00000e+00	1.00000e+00	1.00000e+00	1.00000e+00	1.00000e+00	1.00000e+00	1.00000e+00	1.00000e+00	1.00000e+00	1.00000e+00	1.00000e+00	1.00000e+00	1.00000e+00	1.00000e+00	1.00000e+00	1.00000e+00	1.00000e+00	1.00000e+00	1.00000e+00	1.00000e+00	1.00000e+00	1.00000e+00	1.00000e+00	X	X	X	X	X	X	X	X	X	X	X	X	X	X	X	X	

B = Detector Channel
Val Type	B-AC1	B-AC2	B-AC3	B-AC4	B-AC5	B-AC6	B-AC7	B-AC8	B-AC9	B-AC10	B-AC11	B-AC12	B-AC13	B-AC14	B-AC15	B-AC16	B-DC1	B-DC2	B-DC3	B-DC4	B-DC5	B-DC6	B-DC7	B-DC8	B-DC9	B-DC10	B-DC11	B-DC12	B-DC13	B-DC14	B-DC15	B-DC16	B-Ph1	B-Ph2	B-Ph3	B-Ph4	B-Ph5	B-Ph6	B-Ph7	B-Ph8	B-Ph9	B-Ph10	B-Ph11	B-Ph12	B-Ph13	B-Ph14	B-Ph15	B-Ph16	

Term	0.00000e+00	0.00000e+00	0.00000e+00	0.00000e+00	0.00000e+00	0.00000e+00	0.00000e+00	0.00000e+00	0.00000e+00	0.00000e+00	0.00000e+00	0.00000e+00	0.00000e+00	0.00000e+00	0.00000e+00	0.00000e+00	0.00000e+00	0.00000e+00	0.00000e+00	0.00000e+00	0.00000e+00	0.00000e+00	0.00000e+00	0.00000e+00	0.00000e+00	0.00000e+00	0.00000e+00	0.00000e+00	0.00000e+00	0.00000e+00	0.00000e+00	0.00000e+00	2.70886e+01	-1.47570e+02	-1.59823e+02	-1.87769e+02	-7.16749e+01	-1.02766e+02	-1.57019e+02	-1.62015e+02	-1.01898e+02	-8.89711e+01	-1.73571e+02	-1.72116e+02	-1.82981e+02	-1.77625e+02	-1.07765e+02	-1.50887e+02	
Factor	4.90076e-05	9.02078e-05	2.72429e-05	5.41330e-01	1.00772e-06	1.22008e-06	1.72070e-01	5.71424e-02	1.21130e-06	1.00603e-06	1.10401e-01	3.27385e-02	3.12637e-02	9.63839e-03	1.14382e-06	1.41262e-02	4.51512e-07	4.55847e-07	1.26572e-07	2.20301e-01	4.97833e-09	4.98109e-09	7.62968e-02	2.65919e-02	4.98129e-09	4.97910e-09	4.73171e-02	1.42145e-02	1.38173e-02	4.35854e-03	4.97014e-09	6.06963e-03	X	X	X	X	X	X	X	X	X	X	X	X	X	X	X	X	



#DISTANCE SETTINGS
A = Detector Channel
A-1	A-2	A-3	A-4	A-5	A-6	A-7	A-8	A-9	A-10	A-11	A-12	A-13	A-14	A-15	A-16	

2.5000e+00	3.0000e+00	2.5000e+00	3.0000e+00	2.0000e+00	3.0000e+00	1.5000e+00	3.0000e+00	3.0000e+00	3.0000e+00	3.0000e+00	3.0000e+00	3.0000e+00	3.0000e+00	1.5000e+00	3.0000e+00	

B = Detector Channel
B-1	B-2	B-3	B-4	B-5	B-6	B-7	B-8	B-9	B-10	B-11	B-12	B-13	B-14	B-15	B-16	

1.0000e+01	1.0000e+01	1.0000e+01	1.4400e+00	1.0000e+01	1.0000e+01	1.5100e+00	1.9400e+00	1.0000e+01	1.0000e+01	1.9900e+00	2.4900e+00	2.4100e+00	2.9000e+00	1.0000e+01	2.9800e+00	




#DATA BEGINS
time	group	step	mark	flag	A-AC1	A-AC2	A-AC3	A-AC4	A-AC5	A-AC6	A-AC7	A-AC8	A-AC9	A-AC10	A-AC11	A-AC12	A-AC13	A-AC14	A-AC15	A-AC16	A-DC1	A-DC2	A-DC3	A-DC4	A-DC5	A-DC6	A-DC7	A-DC8	A-DC9	A-DC10	A-DC11	A-DC12	A-DC13	A-DC14	A-DC15	A-DC16	A-Ph1	A-Ph2	A-Ph3	A-Ph4	A-Ph5	A-Ph6	A-Ph7	A-Ph8	A-Ph9	A-Ph10	A-Ph11	A-Ph12	A-Ph13	A-Ph14	A-Ph15	A-Ph16	B-AC1	B-AC2	B-AC3	B-AC4	B-AC5	B-AC6	B-AC7	B-AC8	B-AC9	B-AC10	B-AC11	B-AC12	B-AC13	B-AC14	B-AC15	B-AC16	B-DC1	B-DC2	B-DC3	B-DC4	B-DC5	B-DC6	B-DC7	B-DC8	B-DC9	B-DC10	B-DC11	B-DC12	B-DC13	B-DC14	B-DC15	B-DC16	B-Ph1	B-Ph2	B-Ph3	B-Ph4	B-Ph5	B-Ph6	B-Ph7	B-Ph8	B-Ph9	B-Ph10	B-Ph11	B-Ph12	B-Ph13	B-Ph14	B-Ph15	B-Ph16	aux-1	digaux	

338.001	1	1	0	256	0.16691	0.11022	0.086235	0.12345	0.20336	0.07742	0.37248	0.29941	0.072028	0.04795	0.25706	0.13794	0.073123	0.25876	0.23673	0.16488	-2.0708	-2.6854	-2.6833	-2.4437	-2.8771	-2.6146	-2.6771	-2.8083	-2.6229	-2.6208	-2.6708	-2.6917	-2.6729	-2.8833	-2.625	-2.8771	202.020	134.267	195.694	93.749	-0.817	91.594	186.624	287.525	0.855	251.343	264.068	-58.402	-7.252	209.577	272.562	97.530	0.00015655	0.00023569	8.1888e-05	1190.3	2.7437e-06	1.8705e-06	1251.1	249.12	1.3552e-06	1.6846e-06	314.53	87.465	67.993	19.657	1.1051e-06	27.587	7.0839e-05	6.7633e-05	1.8511e-05	971.74	6.9405e-07	6.844e-07	1158.6	229.44	6.8278e-07	6.8501e-07	276.5	78.815	60.784	18.055	7.2497e-07	24.964	268.845	33.049	26.892	-57.673	36.951	77.392	-57.338	-50.079	53.015	42.895	-50.589	-43.991	-43.715	-36.934	20.930	-37.048	-8191	255	
338.097	1	1	0	0	0.24542	0.072097	0.26602	0.066419	0.19278	0.1695	0.29443	0.27662	0.10224	0.083304	0.16059	0.094038	0.17774	0.25335	0.062041	0.20129	-2.0104	-2.7875	-2.5583	-2.6625	-2.7479	-2.6375	-2.6271	-2.8187	-2.5667	-2.6208	-2.7458	-2.5083	-2.7271	-2.7854	-2.5729	-2.9292	-58.989	290.326	147.636	-39.517	70.750	-61.191	214.262	200.006	291.183	-20.735	-1.570	109.548	241.909	259.865	223.415	32.273	0.00024092	0.0002223	0.00011392	1184	1.158e-06	5.4718e-06	1251.1	249.11	1.164e-06	1.0529e-07	314.43	87.641	68.867	19.807	1.6991e-06	27.799	6.9715e-05	6.7407e-05	1.9134e-05	968.29	7.5009e-07	7.5119e-07	1159.6	230.22	7.7565e-07	7.6629e-07	277.38	79.42	61.389	18.18	7.74e-07	25.147	-23.851	-47.200	45.359	-57.504	176.229	133.122	-57.313	-50.442	221.491	221.950	-50.888	-43.986	-43.545	-36.904	-36.648	-37.151	-8191	255	
338.216	1	1	0	0	0.061285	0.15379	0.35521	0.04809	0.094726	0.15778	0.053991	0.13381	0.066199	0.20999	0.10813	0.21591	0.26421	0.079755	0.19601	0.15857	-1.9729	-2.7417	-2.6125	-2.5938	-2.7333	-2.7917	-2.6854	-3.0167	-2.6542	-2.6583	-2.875	-2.5083	-2.6896	-2.8833	-2.5979	-2.9021	-50.323	250.113	-15.293	100.221	83.463	17.674	1.509	287.895	11.038	-60.438	-29.442	234.168	-36.626	265.287	63.421	-17.770	0.00026187	0.00033019	1.5957e-05	1195.8	2.7049e-06	2.9e-06	1259.4	251.25	1.6311e-06	1.9112e-06	314.96	87.798	68.856	19.824	4.5532e-06	27.639	7.3951e-05	7.247e-05	1.9969e-05	979.64	7.8455e-07	7.7326e-07	1170	231.75	7.7718e-07	7.6294e-07	278.15	79.456	61.476	18.2	7.3031e-07	25.02	-22.603	4.966	246.100	-57.787	-9.663	86.085	-57.276	-50.330	215.803	275.783	-51.112	-44.026	-43.583	-36.577	81.507	-37.382	-8191	255	
338.288	1	1	0	0	0.25098	0.13459	0.14069	0.093497	0.26139	0.083099	0.36134	0.18463	0.24525	0.19421	0.035378	0.15911	0.18312	0.009606	0.20404	0.17613	-2.3708	-2.5062	-2.8396	-2.6292	-2.7708	-2.7729	-2.7479	-2.7375	-2.6646	-2.6437	-3.0396	-2.7583	-2.7458	-2.8833	-2.6771	-3.0292	291.066	39.558	261.592	-49.486	24.151	155.423	234.794	212.711	109.908	213.615	-59.350	142.050	238.429	143.471	248.828	231.992	0.00019408	0.00030955	3.5808e-05	1181.4	2.3102e-06	2.2757e-06	1248.9	248.16	1.6574e-06	1.6797e-06	312.71	86.855	67.795	19.517	2.2494e-06	27.871	6.8389e-05	6.4952e-05	1.8121e-05	965.91	7.101e-07	7.0841e-07	1153.8	229.27	7.1377e-07	7.0815e-07	275.05	78.679	60.884	18.012	7.1156e-07	24.9	-35.211	0.296	-50.308	-57.363	83.362	67.845	-57.075	-50.085	289.049	94.219	-50.563	-43.833	-43.141	-37.148	76.330	-37.184	-8191	255	
338.384	1	1	0	0	0.037598	0.12203	0.039337	0.10424	0.13936	0.031884	0.074731	0.032067	0.05769	0.18853	0.26934	0.10294	0.14585	0.22603	0.11969	0.35099	-2.0208	-2.7438	-2.8292	-2.7667	-2.6271	-2.9792	-2.65	-2.8083	-2.8542	-2.5625	-3.0667	-2.5854	-2.6854	-3.0021	-2.5896	-2.8104	223.677	49.541	79.181	-29.099	83.361	217.004	161.263	89.087	224.547	42.902	6.575	168.425	-50.370	153.478	24.452	229.212	0.00020916	8.9289e-05	3.3122e-05	1168.2	2.9705e-06	3.7452e-06	1241.9	246.82	2.497e-06	1.0811e-06	312.04	86.676	68.033	19.635	3.7337e-06	27.426	6.6505e-05	6.3561e-05	1.7814e-05	956.83	6.8778e-07	6.802e-07	1146.5	227.47	6.7715e-07	6.6054e-07	274.12	78.4	60.447	17.883	6.3027e-07	24.678	-25.716	187.719	158.303	-57.322	137.549	94.551	-57.149	-50.183	115.604	285.191	-50.412	-44.000	-43.354	-36.646	42.340	-37.115	-8191	255	
338.505	1	1	0	0	0.1637	0.19318	0.0054732	0.15465	0.36083	0.16016	0.29359	0.11977	0.20618	0.24734	0.089602	0.171	0.21492	0.071784	0.07721	0.096874	-2.4188	-2.5208	-2.7042	-2.6604	-2.6729	-2.6604	-2.7292	-2.8	-2.7354	-2.6542	-2.9146	-2.5938	-2.5438	-2.8187	-2.7062	-2.7167	186.645	84.615	43.340	151.318	264.778	224.397	191.241	194.755	16.128	-8.433	290.985	-42.447	175.848	62.011	265.570	5.993	0.00027511	0.00024083	5.7747e-05	1162.9	9.3056e-07	3.1403e-06	1234.1	246.6	3.6778e-06	2.2275e-06	311.96	86.094	67.86	19.655	1.8799e-06	27.387	5.9684e-05	5.6127e-05	1.5495e-05	949.02	6.0095e-07	5.703e-07	1141.8	226.69	5.6444e-07	5.4929e-07	272.78	77.946	60.113	17.85	5.3421e-07	24.548	-52.840	-33.247	-33.643	-57.082	143.457	34.806	-57.144	-50.321	80.840	-22.086	-50.627	-44.233	-43.473	-36.683	281.314	-37.149	-8191	255	
338.601	1	1	0	0	0.16962	0.25765	0.16936	0.20925	0.31868	0.13479	0.41446	0.23899	0.15208	0.16217	0.17318	0.07976	0.21523	0.18907	0.11291	0.10303	-2.5604	-2.5021	-2.6708	-2.8417	-2.5062	-2.9	-2.9938	-2.6229	-2.8583	-2.6312	-2.8187	-2.8604	-2.4042	-3.0625	-2.4667	-2.6083	3.695	69.216	245.421	32.815	-23.989	251.229	234.647	278.407	-18.017	97.781	240.098	252.709	214.698	283.102	95.125	-52.210	0.00022427	0.00024499	3.7254e-05	1170.9	1.7387e-06	1.0775e-06	1238.7	247.78	6.2366e-07	1.7897e-06	311.56	87.091	68.054	19.637	2.5023e-06	27.71	5.1187e-05	4.919e-05	1.4008e-05	949.65	5.5585e-07	5.5256e-07	1143.9	226.97	5.634e-07	5.707e-07	272.95	78.07	60.442	17.888	5.6395e-07	24.709	288.358	0.274	-36.903	-57.458	36.063	29.479	-57.257	-49.788	101.690	87.174	-50.796	-43.973	-43.168	-36.767	21.110	-36.946	-8191	255	
338.697	1	1	0	0	0.13261	0.20517	0.17985	0.11142	0.34678	0.092813	0.22911	0.39177	0.26176	0.060983	0.1237	0.077466	0.10199	0.22047	0.22209	0.10237	-2.3	-2.5625	-2.7438	-2.7833	-2.5229	-2.8563	-2.7292	-2.6354	-2.8812	-2.7	-2.6167	-2.7417	-2.6708	-2.8583	-2.6	-2.7188	-51.384	186.027	233.138	38.543	75.224	281.914	229.337	235.957	69.031	251.774	213.570	230.019	19.945	195.528	-20.621	-12.242	0.00011028	0.00017032	6.2802e-05	1170	4.2039e-07	4.0823e-06	1242.2	246.99	1.6457e-06	1.8418e-06	310.12	86.874	67.887	19.699	1.2845e-06	27.628	5.4134e-05	5.2111e-05	1.4462e-05	952.02	5.5954e-07	5.567e-07	1147.6	226.77	5.481e-07	5.3341e-07	272.24	78.068	60.187	17.86	5.3319e-07	24.673	-41.988	50.420	-9.594	-57.495	132.815	53.873	-57.333	-50.355	266.639	59.659	-50.737	-44.020	-43.422	-36.765	33.604	-37.597	-8191	255	
338.793	1	1	0	0	0.21492	0.22968	0.18097	0.33244	0.14117	0.21984	0.41339	0.085777	0.083463	0.22743	0.33991	0.21677	0.24153	0.11724	0.24285	0.29397	-2.4167	-2.5479	-2.8375	-2.6271	-2.4708	-2.9542	-2.8875	-2.8271	-2.8083	-2.6625	-2.7167	-3.0333	-2.7521	-2.775	-2.6854	-2.6271	124.179	198.772	-7.304	210.728	-6.391	-2.233	189.930	204.459	193.225	91.668	-53.866	266.261	34.567	-3.882	48.834	184.860	0.00022839	9.9999e-05	2.7679e-05	1167.4	1.1011e-06	3.1667e-06	1229.5	246.31	1.3745e-06	2.4793e-06	312.43	86.619	67.635	19.577	2.8919e-06	27.601	5.1036e-05	4.9275e-05	1.3724e-05	946.42	5.5108e-07	5.4234e-07	1138.2	226.14	5.622e-07	5.6066e-07	272.39	77.887	59.999	17.877	5.7802e-07	24.729	-52.863	37.253	4.932	-57.222	123.846	-22.154	-57.162	-50.077	98.821	60.116	-50.552	-43.640	-43.223	-36.740	90.472	-37.222	-8191	255	
338.914	1	1	0	0	0.046994	0.070372	0.12872	0.25208	0.31454	0.21896	0.050845	0.032937	0.34688	0.073207	0.13121	0.075507	0.31057	0.11915	0.09024	0.12562	-2.3708	-2.7896	-2.5958	-2.8104	-2.6417	-2.8125	-2.8563	-2.725	-2.85	-2.5958	-2.6188	-2.9229	-2.5958	-2.9167	-2.8604	-2.5312	200.576	145.155	-66.987	167.167	34.626	-43.879	238.005	16.135	27.616	241.339	268.703	254.276	229.775	291.087	270.496	89.216	0.00024585	8.1088e-05	9.6266e-05	1169.6	1.3727e-06	2.0735e-06	1236.6	246.54	1.0804e-06	3.1953e-06	311.34	86.735	67.945	19.633	4.6742e-06	27.576	5.5457e-05	5.3623e-05	1.4719e-05	951.56	5.8139e-07	5.7642e-07	1143.7	226.64	5.8501e-07	5.7543e-07	273.04	78.021	60.368	17.904	5.8911e-07	24.687	-58.590	80.739	-13.590	-57.392	-18.335	56.757	-57.281	-50.001	36.184	110.392	-50.403	-43.775	-43.101	-36.790	4.101	-37.379	-8191	255	
338.986	1	1	0	0	0.195	0.13303	0.113	0.25586	0.084101	0.07695	0.14826	0.13499	0.25774	0.10092	0.15976	0.10058	0.12482	0.12224	0.050466	0.16919	-2.5729	-2.5229	-2.5875	-2.9792	-2.6042	-2.9417	-3.1896	-2.6604	-2.7667	-2.7	-2.8729	-2.975	-2.7	-2.7667	-2.9854	-2.7125	112.190	116.819	138.481	125.121	18.567	133.670	263.710	282.339	251.449	3.976	-35.586	268.082	129.135	102.909	89.429	123.723	0.00012797	0.00019258	9.6717e-05	1166.7	1.4077e-06	2.1182e-06	1237.8	246.9	1.4569e-06	2.5231e-06	311.25	86.55	68.167	19.674	4.4018e-07	27.833	5.5168e-05	5.414e-05	1.4924e-05	950.79	5.8957e-07	5.8153e-07	1143.7	226.87	5.7997e-07	5.8316e-07	273.07	78.038	60.289	17.94	5.7399e-07	24.846	-13.303	-15.138	14.050	-57.197	117.023	66.444	-57.121	-50.048	71.867	93.312	-50.652	-44.062	-43.363	-36.604	87.618	-37.376	-8191	255	
339.082	1	1	0	0	0.22556	0.23421	0.40299	0.14745	0.11742	0.14756	0.28376	0.12627	0.068293	0.17018	0.10545	0.11318	0.20288	0.14804	0.18703	0.13716	-2.2438	-2.8833	-2.5208	-2.8979	-2.7667	-2.6271	-2.9667	-2.7271	-2.8271	-2.8083	-2.6917	-2.8396	-2.6979	-2.7521	-2.8229	-2.4625	14.139	232.269	257.822	101.522	114.397	26.090	288.817	211.676	17.136	272.448	275.085	151.599	84.278	56.384	270.281	226.695	0.00012599	0.00024388	1.3715e-05	1170.1	8.5503e-07	4.0402e-06	1234.1	246.96	2.0596e-06	2.5894e-06	311.12	86.565	67.791	19.768	2.363e-06	27.677	5.5294e-05	5.3045e-05	1.4956e-05	950.97	6.0663e-07	6.0354e-07	1143.1	226.71	6.1974e-07	6.0069e-07	273.5	78.204	60.431	17.994	6.2778e-07	24.856	-31.067	47.340	117.374	-57.197	222.283	102.161	-57.274	-50.364	66.353	84.807	-50.604	-43.748	-43.532	-36.521	40.982	-37.458	-8191	255	
339.178	1	1	0	0	0.15825	0.1038	0.28651	0.14916	0.095541	0.38971	0.30219	0.18695	0.18555	0.21095	0.22769	0.2129	0.40473	0.32402	0.10636	0.25064	-2.4583	-2.8521	-2.4583	-3.0104	-2.6562	-2.7646	-3.0417	-2.7667	-2.6521	-2.725	-2.7229	-2.8688	-2.6667	-2.675	-3.0354	-2.6125	46.143	178.725	47.239	162.194	247.136	177.285	179.123	273.052	78.105	151.121	-59.539	247.407	233.053	238.890	107.754	-58.643	0.00022359	0.00022744	7.7176e-05	1166.6	3.5367e-06	1.7546e-06	1235.4	246.93	2.5666e-06	3.166e-06	310.95	86.828	67.876	19.553	4.2997e-06	27.748	6.0115e-05	5.8969e-05	1.6384e-05	953.49	6.5199e-07	6.647e-07	1143.4	227.35	6.789e-07	6.7286e-07	273.52	78.359	60.354	17.926	6.7835e-07	24.816	-58.716	68.155	-55.642	-57.304	148.239	81.969	-57.394	-50.166	39.807	153.527	-50.364	-43.806	-43.248	-36.719	28.565	-37.431	-8191	255	
339.297	1	1	0	0	0.12766	0.10122	0.068786	0.15522	0.30402	0.049781	0.26919	0.10317	0.071432	0.13402	0.19244	0.14064	0.20509	0.084463	0.06051	0.18574	-2.4625	-2.6229	-2.6771	-2.8	-2.8104	-2.4479	-3.0083	-2.8792	-2.6604	-2.9292	-2.6562	-2.9729	-2.6958	-2.5354	-3.0042	-2.7	-60.800	45.029	-4.026	195.598	210.911	65.166	176.548	179.465	171.072	102.780	164.971	289.370	11.052	270.422	-67.111	37.806	0.00016006	0.0002567	3.362e-05	1161.7	9.5165e-07	2.6939e-06	1228.1	245.52	3.4044e-06	7.8131e-07	311.25	86.813	67.549	19.533	1.2471e-06	27.546	6.4659e-05	6.1541e-05	1.6961e-05	950.81	6.627e-07	6.6282e-07	1138.9	226.53	6.6288e-07	6.4606e-07	273.22	78.173	60.224	17.912	6.3716e-07	24.747	-67.018	43.876	3.575	-57.462	67.494	51.763	-57.223	-50.322	51.107	132.721	-50.568	-43.732	-43.077	-36.792	-2.746	-37.075	-8191	255	
339.393	1	1	0	0	0.20997	0.13815	0.18466	0.11087	0.15706	0.11519	0.38343	0.10831	0.12295	0.062451	0.13697	0.076512	0.17122	0.28484	0.078945	0.060811	-2.3479	-2.7583	-2.6646	-2.7938	-2.9729	-2.4646	-3.2625	-2.7375	-2.8958	-2.9062	-2.5875	-2.7812	-2.8167	-2.55	-2.9146	-2.7812	165.336	170.782	250.528	277.419	79.194	-49.042	258.384	115.591	59.813	150.475	88.839	144.498	253.698	177.040	118.854	8.123	0.00013952	0.00022613	5.5416e-05	1171.4	2.4763e-06	3.7641e-07	1223.2	247.64	1.758e-06	4.0476e-06	309.48	86.817	67.267	19.67	1.6666e-06	27.744	6.0458e-05	5.7804e-05	1.5842e-05	952.79	6.3549e-07	6.3674e-07	1139	226.92	6.478e-07	6.3435e-07	273.17	78.308	60.233	17.951	6.5542e-07	24.794	-43.352	8.177	-48.178	-57.171	146.476	-66.700	-57.097	-50.260	225.942	115.881	-50.138	-43.802	-43.272	-36.592	288.557	-37.310	-8191	255	
339.489	1	1	0	0	0.41339	0.038955	0.078473	0.067168	0.14957	0.10691	0.27965	0.28376	0.077933	0.22317	0.042915	0.26417	0.27895	0.19423	0.094138	0.18756	-2.1729	-2.925	-2.5167	-2.9938	-2.9188	-2.7438	-3.1104	-2.7875	-2.4125	-2.9688	-2.8167	-2.8354	-2.7646	-2.5604	-2.8792	-2.9	43.560	199.347	48.486	186.718	253.138	196.610	245.073	237.971	-56.625	119.680	258.996	179.939	222.247	152.543	197.098	269.165	0.0002515	0.00015289	8.091e-05	1171.7	1.5496e-06	6.8078e-06	1229.8	246.15	3.3764e-06	4.6283e-06	310.27	85.682	67.217	19.6	1.3193e-06	27.468	6.3092e-05	6.0809e-05	1.7045e-05	954.99	6.7009e-07	6.6901e-07	1141.7	226.66	6.7232e-07	6.5461e-07	272.43	77.842	60.037	17.878	6.4338e-07	24.654	-17.632	6.041	67.302	-57.470	101.963	31.916	-57.078	-50.215	97.221	92.339	-50.576	-43.653	-43.198	-36.460	46.109	-37.381	-8191	255	
339.585	1	1	0	0	0.072377	0.26538	0.27002	0.16708	0.16492	0.21175	0.24807	0.26525	0.11056	0.08577	0.092858	0.07481	0.18273	0.11451	0.20694	0.18667	-2.2854	-2.9125	-2.4542	-2.8438	-2.7604	-2.6208	-3.0792	-2.9833	-2.5167	-3.0646	-2.7188	-2.7854	-3.1521	-2.5583	-2.8083	-2.7396	-1.460	-58.792	31.472	215.810	31.030	203.739	138.210	152.496	-35.871	247.015	-60.358	41.087	109.452	184.846	113.886	-29.209	0.00010435	0.00017963	5.3785e-05	1162.4	1.8399e-06	2.8424e-06	1229.2	246.08	1.9367e-06	1.0435e-06	308.8	86.517	67.418	19.399	3.1861e-06	27.465	6.1955e-05	5.9057e-05	1.6393e-05	947.43	6.4335e-07	6.4226e-07	1138.1	225.86	6.4288e-07	6.3267e-07	271.04	77.807	60.052	17.755	6.5519e-07	24.595	-34.813	48.065	14.771	-57.303	-24.546	35.557	-57.148	-50.379	279.218	94.391	-50.445	-44.196	-43.487	-36.873	33.714	-36.970	-8191	255	
339.681	1	1	0	0	0.18084	0.22712	0.11601	0.2681	0.11642	0.20827	0.14273	0.10662	0.12266	0.25137	0.14905	0.24142	0.25485	0.19099	0.25448	0.11624	-2.1917	-2.9688	-2.7375	-2.5854	-3.0417	-2.5667	-3.0687	-2.9458	-2.4917	-2.8729	-2.7604	-2.5375	-3.0833	-2.6042	-2.5896	-2.9188	261.350	116.840	-20.889	278.051	239.455	8.323	246.137	-32.949	-43.301	161.321	142.206	16.728	169.408	266.578	181.509	-35.964	0.00023205	0.00015327	8.9523e-05	1158.2	2.9367e-06	2.8376e-06	1228.6	245.52	8.0156e-07	2.6009e-06	309.21	86.247	67.644	19.385	3.4771e-06	27.396	6.3258e-05	6.1058e-05	1.7355e-05	948.53	6.8992e-07	6.9416e-07	1137	225.98	7.2727e-07	7.2653e-07	271.77	78.163	60.303	17.873	7.5417e-07	24.743	-56.123	32.537	-9.336	-57.064	177.340	151.631	-57.202	-50.112	187.370	77.092	-50.410	-43.803	-43.401	-36.586	289.651	-37.441	-8191	255	
339.777	1	1	0	0	0.20465	0.18403	0.18244	0.046726	0.11784	0.13458	0.0036999	0.13285	0.10022	0.05463	0.12514	0.064497	0.17651	0.090767	0.26372	0.21648	-2.0542	-2.6312	-2.5167	-2.5604	-2.9083	-2.6104	-2.8937	-3.0646	-2.675	-2.9188	-2.7667	-2.5375	-3.0354	-2.7625	-2.7062	-2.8521	230.642	86.993	165.304	199.170	180.350	119.775	291.297	180.688	247.148	-41.264	8.454	146.545	190.749	250.027	251.942	289.226	0.00016244	0.0002005	4.1999e-05	1159.2	2.2634e-06	3.3464e-06	1230.6	246.22	1.8654e-06	2.0355e-06	309.68	86.583	67.759	19.407	2.5864e-06	27.483	7.1776e-05	7.0576e-05	1.9607e-05	957.28	7.6982e-07	7.8205e-07	1144.4	227.52	7.8318e-07	7.6862e-07	273.71	78.36	60.555	17.906	7.6102e-07	24.843	-19.908	41.651	-34.892	-57.428	69.057	3.742	-57.148	-50.140	208.860	171.815	-50.400	-43.938	-43.321	-36.008	29.459	-37.385	-8191	255	
339.898	1	1	0	0	0.098132	0.34287	0.2899	0.29672	0.10457	0.1495	0.10383	0.081232	0.31744	0.20543	0.051927	0.29783	0.21647	0.31081	0.15451	0.1203	-2.2062	-2.8167	-2.6813	-2.75	-3	-2.6792	-2.8396	-2.9479	-2.5062	-2.8875	-2.7458	-2.5479	-2.9667	-2.6875	-2.7396	-3.0354	-0.245	207.301	13.896	116.253	282.826	64.643	-18.301	241.691	58.076	42.043	61.865	148.830	168.207	-60.384	230.921	-39.212	0.00025784	0.0005013	3.1782e-05	1169	1.5039e-06	6.1421e-07	1236.9	245.6	3.1098e-06	1.0226e-06	308.41	86.281	67.54	19.444	2.4553e-06	27.576	7.0753e-05	6.8934e-05	1.9153e-05	961.3	7.5197e-07	7.5162e-07	1145.8	227.12	7.5987e-07	7.4816e-07	272.79	78.287	60.515	17.886	7.4448e-07	24.813	-63.430	-13.330	269.777	-57.500	207.102	48.212	-56.982	-50.159	26.401	55.355	-50.262	-43.756	-43.504	-36.976	89.495	-37.127	-8191	255	
339.994	1	1	0	0	0.16138	0.22463	0.11157	0.16489	0.090177	0.27899	0.45121	0.15728	0.11364	0.17604	0.21687	0.20049	0.024707	0.057025	0.23653	0.24664	-2.1125	-2.7833	-2.8792	-2.7542	-2.9062	-2.7396	-2.8521	-3.1104	-2.6146	-2.9188	-2.8792	-2.6896	-2.7896	-2.8187	-2.4417	-2.925	-33.934	76.403	98.011	199.148	5.458	169.132	179.149	135.561	279.788	56.215	-65.183	202.859	153.012	27.857	256.624	178.137	0.00032158	0.00020872	6.7348e-05	1170.3	2.9463e-06	2.6728e-06	1231.2	244.39	3.6825e-06	7.591e-07	308.33	85.846	67.261	19.545	4.7756e-07	27.338	6.9297e-05	6.7811e-05	1.8565e-05	957.4	7.2393e-07	7.1651e-07	1143.7	225.54	7.1666e-07	7.0183e-07	271.98	77.716	60.079	17.807	6.9573e-07	24.58	-21.308	52.360	-29.521	-57.178	84.925	-50.671	-57.278	-49.927	81.037	4.287	-50.850	-43.902	-43.648	-37.006	175.525	-36.888	-8191	255	
340.090	1	1	0	0	0.32699	0.24855	0.093721	0.15831	0.26223	0.30951	0.16697	0.080078	0.096504	0.10397	0.016129	0.16554	0.27336	0.29507	0.19476	0.43019	-2.2042	-2.7229	-2.7458	-2.4813	-3.0708	-2.8167	-2.8208	-2.9333	-2.8583	-2.7542	-2.8375	-2.6937	-2.7938	-2.5792	-2.5271	-3.0187	223.647	-0.180	150.193	-2.086	133.690	241.895	-49.165	259.345	150.822	-35.629	215.171	-7.346	200.982	219.187	211.467	279.165	0.00021793	0.00013761	4.161e-05	1150	1.4888e-06	1.3257e-06	1225.3	243.34	1.2328e-06	1.0513e-06	305.08	85.747	66.856	19.441	2.8669e-06	27.304	6.521e-05	6.3598e-05	1.7734e-05	945.66	6.9528e-07	7.1116e-07	1134.1	223.78	7.2178e-07	7.1451e-07	269.64	77.356	59.832	17.746	7.497e-07	24.604	-64.620	3.910	-58.215	-57.366	90.547	19.329	-57.105	-50.142	112.372	74.722	-50.622	-43.287	-43.007	-36.505	-5.640	-36.840	-8191	255	
340.187	1	1	0	0	0.058004	0.31179	0.075325	0.18394	0.21456	0.21492	0.35532	0.25576	0.20374	0.08509	0.11519	0.31228	0.21084	0.15705	0.32905	0.18974	-2.0062	-2.5125	-2.9313	-2.4292	-2.8688	-2.7479	-2.6729	-3.0042	-2.7062	-2.8354	-2.9917	-2.6667	-2.8021	-2.8479	-2.3187	-2.9396	-42.699	46.985	-64.057	84.561	75.391	285.315	131.145	230.916	221.303	282.364	242.550	210.030	10.961	261.087	242.550	207.705	0.0001451	0.00023428	3.9069e-05	1162.5	2.0005e-06	4.4439e-06	1225.6	243.88	1.8762e-06	1.8749e-06	306.11	85.412	67.073	19.434	1.2379e-06	27.272	6.9856e-05	6.9481e-05	1.937e-05	952.21	7.5904e-07	7.6548e-07	1138	224.64	7.6644e-07	7.6514e-07	271.23	77.718	60.102	17.847	7.6894e-07	24.622	279.205	48.280	36.001	-57.167	178.543	108.032	-57.210	-50.338	-14.773	68.439	-50.216	-43.961	-43.227	-36.842	252.007	-36.626	-8191	255	
340.281	1	1	0	0	0.12427	0.16234	0.29354	0.32419	0.36308	0.21565	0.1025	0.088908	0.12058	0.23957	0.37773	0.13232	0.15273	0.058694	0.051296	0.12938	-2.1458	-2.6146	-2.7687	-2.4771	-2.7	-2.7333	-2.7188	-2.95	-2.7854	-2.675	-3.0083	-2.7687	-2.6604	-2.8312	-2.7271	-2.7958	102.055	-21.974	157.990	233.516	226.044	246.724	244.128	131.183	218.927	3.383	148.091	6.228	155.189	17.120	243.502	104.359	0.00032083	0.00036135	7.1469e-05	1167.1	3.7972e-06	1.3378e-06	1231.8	243.31	1.5915e-06	2.7021e-06	308.13	85.879	67.716	19.489	1.5147e-06	27.381	7.2839e-05	7.2332e-05	1.9828e-05	958.08	7.9144e-07	7.9726e-07	1143.2	225.83	8.118e-07	8.042e-07	272.95	78.105	60.562	17.96	8.2923e-07	24.759	276.957	-62.604	50.763	-57.342	81.154	20.052	-57.086	-49.856	247.981	113.690	-50.403	-43.745	-43.109	-36.597	91.683	-37.349	-8191	255	
340.377	1	1	0	0	0.095608	0.14621	0.1983	0.080504	0.26318	0.26243	0.12985	0.007448	0.1054	0.23334	0.14491	0.35078	0.16694	0.083176	0.091169	0.16261	-2.3833	-2.4313	-2.9917	-2.7167	-2.5563	-2.8896	-2.7708	-2.8937	-2.6958	-2.6625	-2.7417	-2.7604	-2.7333	-3.0542	-2.5708	-2.8312	127.762	13.808	-24.425	192.538	-51.363	116.687	144.934	80.972	231.929	281.887	258.943	287.626	-10.958	123.706	49.450	-29.398	0.00022957	0.00022092	9.0079e-05	1167.7	2.1145e-06	3.9254e-06	1238.7	244.99	5.8312e-06	4.1204e-06	310.76	86.9	68.141	19.567	2.4829e-06	27.749	7.7784e-05	7.6301e-05	2.1347e-05	963.67	8.6039e-07	8.6968e-07	1152.2	227.33	9.1467e-07	9.1825e-07	276.04	79.175	61.461	18.219	9.6241e-07	25.32	-31.489	2.770	33.158	-57.250	131.355	13.011	-57.227	-49.967	86.893	20.775	-50.664	-44.207	-43.257	-37.096	-8.184	-37.156	-8191	255	
340.473	1	1	0	0	0.18712	0.08948	0.19732	0.14362	0.090176	0.14174	0.22158	0.22079	0.14078	0.077575	0.26096	0.17594	0.10039	0.23366	0.20214	0.20746	-2.2	-2.4542	-2.7875	-2.8063	-2.4	-3.0771	-2.7854	-2.9271	-2.6688	-2.6542	-2.825	-2.7562	-2.6958	-2.9979	-2.3917	-2.825	-43.206	77.872	288.830	-20.211	33.319	-37.500	226.127	225.330	113.859	-50.792	288.177	200.303	193.311	266.860	202.412	-13.126	0.00018939	0.00019263	8.3744e-05	1204.2	9.0579e-07	2.0797e-06	1280.3	252.82	3.2247e-06	1.5105e-05	317.13	88.533	69.142	19.872	3.4374e-06	28.027	9.061e-05	8.9552e-05	2.4653e-05	993.34	9.891e-07	9.9542e-07	1188	234.44	1.0255e-06	1.0598e-06	282.07	80.884	62.786	18.584	1.1237e-06	25.791	-51.521	-13.956	-25.506	-57.508	237.102	99.130	-57.169	-50.276	14.994	82.883	-50.588	-44.177	-43.728	-36.852	-29.995	-37.211	-8191	255	
340.569	1	1	0	0	0.27868	0.2397	0.17676	0.26018	0.069698	0.078221	0.027448	0.29482	0.1348	0.085469	0.21375	0.06718	0.26895	0.051457	0.16832	0.32563	-2.2375	-2.6688	-2.7938	-2.7875	-2.725	-2.7521	-2.6437	-2.7896	-3.0042	-2.5792	-2.9375	-2.9333	-2.6042	-3.0438	-2.6188	-2.6104	113.137	122.515	-12.157	284.439	41.657	-17.179	231.283	289.095	-48.795	152.066	274.004	127.495	199.334	71.914	181.091	199.401	0.00027016	0.00010092	3.5898e-05	1200.9	3.5203e-06	7.686e-07	1273.3	256.6	1.4733e-06	4.0106e-06	322.92	89.635	70.754	20.355	5.6286e-06	28.331	0.00011186	0.00011321	3.2354e-05	1010.8	1.3404e-06	1.3778e-06	1191.5	239.83	1.459e-06	1.4735e-06	291.13	83.253	65.069	19.305	1.4163e-06	26.513	-60.614	137.503	229.511	-57.523	178.223	-50.730	-57.188	-50.603	48.422	-39.770	-50.410	-43.754	-43.503	-36.773	94.288	-37.428	-8191	255	
340.690	1	1	0	0	0.18282	0.25385	0.10612	0.14671	0.15921	0.11512	0.19786	0.14892	0.081254	0.040447	0.035126	0.31057	0.087531	0.13503	0.084237	0.086689	-2.3896	-2.5042	-2.8063	-2.8771	-2.3375	-3.0187	-2.8375	-2.5875	-2.8667	-2.4521	-2.7188	-2.8167	-2.5292	-2.6604	-2.7354	-2.5396	11.891	37.332	271.693	173.532	291.013	61.058	219.270	236.897	262.588	-28.870	270.000	181.912	288.678	251.088	65.467	207.548	0.00015911	0.00019312	2.9172e-05	1222.3	9.6393e-07	3.9864e-06	1301.8	259.15	4.5103e-06	3.0989e-06	322.53	89.847	70.066	20.138	2.0859e-06	28.309	0.00012934	0.00012482	3.416e-05	1029.4	1.2731e-06	1.2019e-06	1211.2	241.47	1.0768e-06	1.0065e-06	287.05	81.746	63.243	18.614	8.4124e-07	25.585	283.519	32.885	26.647	-57.551	204.691	-2.652	-57.218	-50.222	215.498	40.091	-50.608	-43.990	-43.690	-36.924	77.238	-37.101	-8191	255	
340.786	1	1	0	0	0.21636	0.020258	0.18655	0.094441	0.1471	0.17031	0.20817	0.21648	0.25171	0.20485	0.053569	0.066436	0.13569	0.17069	0.054761	0.26957	-2.3375	-2.6625	-2.5917	-2.8917	-2.5146	-2.7729	-2.8375	-2.7062	-2.7354	-2.5354	-2.6875	-2.9021	-2.5854	-2.9125	-2.6854	-2.6833	-64.115	116.113	22.387	63.160	35.447	280.441	199.504	175.407	212.899	41.689	248.282	230.844	280.204	274.461	131.032	181.999	0.00011292	0.00029103	2.4772e-05	1212.5	3.1156e-06	6.8982e-06	1272.4	254.43	1.6762e-06	8.1949e-07	315.95	88.215	68.809	19.909	3.355e-06	28.002	7.8256e-05	7.4796e-05	2.1061e-05	995.17	8.4412e-07	8.4609e-07	1183.7	234.94	9.0291e-07	9.2622e-07	281.82	80.506	62.255	18.492	1.0736e-06	25.66	-44.757	-61.200	-31.786	-57.553	88.117	10.963	-57.152	-50.281	43.016	252.421	-50.557	-43.880	-43.574	-36.888	75.288	-37.460	-8191	255	
340.858	1	1	0	0	0.28974	0.12106	0.092628	0.12951	0.064399	0.15362	0.087115	0.036441	0.033676	0.086921	0.15655	0.19192	0.15957	0.27991	0.23851	0.1587	-2.3646	-2.7375	-2.325	-2.8104	-2.5104	-2.6729	-3.0146	-2.6208	-2.7979	-2.6583	-2.5458	-2.9583	-2.5146	-2.7438	-2.7812	-2.4729	189.492	-20.586	260.749	59.019	157.233	46.859	241.534	-47.160	15.101	188.659	192.255	9.148	247.679	-17.300	-42.948	-51.924	0.00030456	0.00017155	1.1594e-05	1192.7	1.6984e-06	3.7324e-06	1267.4	256.09	1.2974e-06	7.3498e-06	319.45	88.811	69.74	20.083	3.8658e-06	28.417	0.0001066	0.00010857	3.0951e-05	1002.8	1.2449e-06	1.269e-06	1185.3	238.5	1.2791e-06	1.2675e-06	287.12	81.977	63.714	18.846	1.1747e-06	26.033	-55.790	-16.994	57.953	-57.732	75.260	142.516	-57.268	-50.463	287.875	192.681	-50.302	-44.035	-43.669	-36.690	174.544	-37.148	-8191	255	
340.978	1	1	0	0	0.1086	0.2905	0.046643	0.12648	0.11043	0.17878	0.17617	0.22597	0.072737	0.23709	0.10354	0.16534	0.17963	0.11324	0.030504	0.11513	-2.4042	-2.5896	-2.6937	-2.7604	-2.6083	-2.8458	-2.75	-2.5396	-2.9646	-2.6375	-2.75	-3.0333	-2.7417	-2.7625	-2.7875	-2.65	280.735	185.323	3.517	30.702	66.536	202.033	190.206	257.551	143.657	86.969	287.957	257.073	288.837	-55.315	147.999	28.955	0.00011319	0.00011015	5.9705e-05	1200.4	3.2433e-06	4.6893e-06	1267.7	254.85	9.1402e-07	2.3124e-06	319.06	89.102	69.788	20.128	1.9824e-06	28.324	0.0001073	0.00010535	2.8551e-05	1003.3	1.1073e-06	1.1006e-06	1183.6	237.13	1.0923e-06	1.091e-06	285.31	81.486	63.206	18.719	1.0547e-06	25.776	-59.022	-57.424	114.818	-57.442	62.522	60.133	-57.471	-50.424	233.232	-10.709	-50.478	-43.884	-43.521	-36.930	-42.329	-37.199	-8191	255	
341.075	1	1	0	0	0.26777	0.065747	0.10168	0.101	0.30674	0.21027	0.16877	0.071802	0.083683	0.23861	0.14505	0.29379	0.25253	0.27505	0.1519	0.18634	-2.3063	-2.9333	-2.3729	-3.0708	-2.4521	-2.675	-2.9354	-2.625	-2.7146	-2.7542	-2.5958	-2.9271	-2.5958	-2.6	-2.9708	-2.7167	-17.474	-60.688	-39.956	159.114	262.715	20.753	209.827	215.780	-13.642	119.532	-66.624	253.369	277.802	-9.449	-47.249	-41.623	0.00016648	0.00020504	6.4902e-05	1195.9	2.3544e-06	4.322e-06	1262.8	254.72	4.4613e-07	3.9423e-06	319.76	88.153	68.839	19.88	4.9188e-06	28.116	9.8058e-05	9.5263e-05	2.6817e-05	993.69	1.0481e-06	1.0604e-06	1174.1	236.13	1.0825e-06	1.0913e-06	283.94	81.055	62.814	18.621	1.1136e-06	25.709	-21.642	26.397	-23.176	-57.321	31.940	24.889	-57.199	-50.378	243.897	20.284	-50.396	-43.732	-43.238	-36.903	50.055	-37.102	-8191	255	
341.171	1	1	0	0	0.073027	0.11987	0.2495	0.22645	0.31379	0.20037	0.15225	0.154	0.15829	0.16681	0.15606	0.18321	0.1805	0.26152	0.05403	0.22429	-2.4875	-2.8292	-2.4604	-2.7687	-2.7021	-2.5708	-3.1479	-2.5687	-2.8875	-2.6854	-2.7292	-3.1771	-2.5708	-2.6646	-2.8042	-2.7542	84.304	237.276	-24.061	251.496	144.232	35.263	101.723	204.589	211.081	-29.249	208.225	-46.979	33.533	-52.467	-10.108	174.409	0.00010695	0.0003076	8.9982e-05	1196.5	1.5903e-06	2.8659e-06	1270.5	255.45	2.8228e-06	1.8495e-06	319.29	88.45	69.505	20.046	1.0081e-06	27.858	0.00010248	0.00010059	2.8186e-05	997.8	1.077e-06	1.0521e-06	1182.5	237.14	1.0014e-06	9.8656e-07	284.79	80.754	62.585	18.488	8.5447e-07	25.27	-26.046	-42.237	17.668	-57.264	127.091	252.478	-57.042	-50.581	246.467	281.282	-50.599	-43.713	-43.613	-36.901	36.853	-37.606	-8191	255	
341.267	1	1	0	0	0.20555	0.19913	0.061808	0.031927	0.099589	0.097618	0.23069	0.16056	0.16661	0.19343	0.21085	0.39388	0.11003	0.14863	0.19451	0.23253	-2.2667	-2.8396	-2.6521	-2.9229	-2.8063	-2.5521	-3.0521	-2.6521	-2.7979	-2.6896	-2.5271	-2.9042	-2.8812	-2.3604	-2.8	-2.4583	83.812	-33.885	285.769	166.112	-57.603	75.464	284.430	256.750	179.740	250.898	134.582	281.683	66.995	285.371	84.901	182.650	0.0001023	4.2448e-05	5.24e-05	1193.1	1.8601e-06	3.6637e-06	1263.5	250.68	2.4192e-06	2.3635e-06	316.13	87.913	69.526	20.022	3.3077e-06	28.153	7.5495e-05	7.2362e-05	1.9497e-05	977.42	7.492e-07	7.4753e-07	1169.9	232.42	7.6365e-07	7.704e-07	279.76	79.954	62.055	18.44	8.2118e-07	25.472	-0.579	125.573	1.372	-57.397	135.119	80.603	-57.220	-50.437	-42.928	-65.501	-50.601	-43.899	-43.455	-37.100	67.362	-37.823	-8191	255	
341.386	1	1	0	0	0.11327	0.31244	0.147	0.12216	0.17622	0.11959	0.27609	0.15633	0.18486	0.1072	0.20631	0.081563	0.22194	0.19942	0.143	0.23164	-2.3063	-2.5687	-2.6479	-2.8583	-2.7375	-2.5792	-3.1042	-2.7042	-2.6146	-2.8	-2.55	-2.9479	-2.7833	-2.5896	-2.7833	-2.7354	133.175	101.778	25.326	13.611	204.980	-11.873	253.708	231.959	273.230	-6.513	97.585	24.623	220.017	-41.410	122.576	27.205	0.00015032	0.00017211	0.00011096	1210.4	1.1664e-07	2.155e-06	1284.1	255.54	4.9766e-06	3.5631e-06	319.7	88.423	69.639	20.077	4.302e-06	28.27	7.9246e-05	7.6958e-05	2.1384e-05	1000.1	8.4948e-07	8.5361e-07	1192.1	235.95	8.5175e-07	8.5518e-07	282.16	80.67	62.441	18.531	8.6853e-07	25.552	-61.675	46.748	-28.850	-57.491	-60.585	29.038	-57.470	-50.331	72.525	77.028	-50.588	-43.989	-43.447	-36.796	145.289	-37.495	-8191	255	
341.459	1	1	0	0	0.095506	0.32772	0.083613	0.29216	0.020571	0.18523	0.38329	0.067052	0.090072	0.14534	0.20997	0.34734	0.15203	0.18794	0.061778	0.14644	-2.1792	-2.8271	-2.6479	-2.8021	-2.8104	-2.5979	-2.8854	-2.8146	-2.4354	-2.8312	-2.6667	-2.7458	-2.7542	-2.4917	-2.7458	-2.6688	237.418	-63.968	14.637	-53.894	-20.083	79.545	213.673	236.919	-67.668	79.884	250.648	247.371	288.991	-46.806	275.205	-46.204	0.00029578	0.00020896	0.00013199	1201.2	1.7812e-06	4.0602e-06	1275.5	254.92	4.8906e-06	1.9532e-06	321.8	90.021	70.445	20.321	2.2225e-06	28.695	8.5011e-05	8.4675e-05	2.4236e-05	995.7	1.0009e-06	1.0326e-06	1189.5	237.09	1.1134e-06	1.1223e-06	287.35	82.23	64.134	19.044	1.1781e-06	26.199	-40.538	-28.363	-18.288	-57.419	41.136	29.976	-57.059	-50.227	271.706	-20.104	-50.631	-44.033	-43.603	-36.788	41.748	-37.434	-8191	255	
341.578	1	1	0	0	0.22091	0.096837	0.15581	0.11107	0.096191	0.12556	0.23904	0.17423	0.18563	0.19119	0.22894	0.23956	0.10405	0.21042	0.11146	0.21879	-2.0292	-2.9021	-2.5146	-2.7417	-2.8417	-2.7229	-3.0896	-2.8375	-2.4792	-2.7208	-2.5708	-2.5667	-2.7771	-2.4771	-2.8542	-2.7208	232.393	279.035	120.467	0.541	85.439	47.430	229.817	182.471	-7.286	182.976	256.559	259.713	209.468	244.033	31.659	285.288	0.0004002	0.0002729	8.2222e-05	1229.3	2.9168e-06	1.2034e-06	1289.4	257.56	3.5349e-06	2.9229e-06	320.77	88.846	69.612	19.922	8.2016e-07	28.122	0.00010952	0.0001069	2.9622e-05	1020	1.129e-06	1.1176e-06	1201.1	238.88	1.0607e-06	1.0321e-06	285.61	81.042	62.896	18.673	9.4107e-07	25.638	-57.536	62.271	-33.935	-57.331	37.506	44.252	-57.275	-50.442	-60.902	109.046	-50.320	-44.304	-43.649	-36.861	-17.020	-37.391	-8191	255	
341.674	1	1	0	0	0.1671	0.16467	0.0056766	0.18794	0.24798	0.13911	0.079714	0.020994	0.18274	0.1239	0.30212	0.13078	0.074735	0.1462	0.10297	0.21857	-2.1083	-2.8125	-2.7562	-2.525	-2.7771	-2.55	-2.95	-2.6813	-2.6521	-2.6958	-2.7646	-2.6896	-2.9042	-2.6458	-2.8729	-2.85	268.901	124.221	145.047	-47.145	280.216	83.135	26.972	253.950	98.707	-2.809	-42.230	220.889	286.114	-31.721	186.534	-61.049	0.00027541	0.00014221	8.6573e-05	1200.4	3.7111e-06	3.1574e-06	1270.8	252.28	2.8463e-06	2.9542e-06	317.11	88.603	68.504	20.028	1.6265e-06	28.03	8.6839e-05	8.2942e-05	2.3343e-05	994.54	9.1329e-07	8.9553e-07	1177.3	233.79	9.0189e-07	8.8963e-07	280.52	80.391	62.098	18.563	9.073e-07	25.551	276.874	-39.766	-37.187	-57.215	113.258	33.305	-57.313	-50.378	-30.082	130.626	-50.400	-43.757	-44.009	-37.211	7.470	-37.423	-8191	255	
341.770	1	1	0	0	0.04956	0.16562	0.17149	0.14058	0.10279	0.17901	0.11707	0.20006	0.12608	0.052076	0.21903	0.26175	0.22763	0.2091	0.051888	0.089355	-1.9813	-2.9646	-2.75	-2.6396	-2.9167	-2.6708	-2.8583	-2.7896	-2.5271	-2.6729	-2.7979	-2.5458	-3.1042	-2.6333	-2.6792	-2.8604	-63.088	48.622	212.434	230.063	280.150	189.515	212.891	286.841	170.707	26.746	230.191	-48.153	277.994	218.839	163.113	91.106	0.00032235	9.0806e-05	0.00010208	1190.3	5.5527e-07	2.1943e-06	1255.1	252.73	2.5775e-06	3.9301e-06	316.44	87.854	69.193	20.064	8.6498e-07	28.161	8.5466e-05	8.4053e-05	2.3493e-05	981.81	9.2096e-07	9.1791e-07	1168.2	233.51	9.2527e-07	9.043e-07	280.39	80.254	62.021	18.54	8.3446e-07	25.537	-60.542	14.726	-42.890	-57.666	281.074	60.457	-57.161	-50.168	33.053	100.861	-50.404	-43.814	-43.451	-36.824	-54.995	-37.533	-8191	255	
341.867	1	1	0	0	0.11636	0.25265	0.14847	0.26321	0.080164	0.34013	0.31666	0.37098	0.23265	0.28451	0.081395	0.11863	0.20309	0.072894	0.16538	0.13994	-2.225	-2.6	-2.7333	-2.3771	-2.9313	-2.6542	-2.9729	-2.9729	-2.5792	-2.7708	-2.6688	-2.5146	-2.9437	-2.6958	-2.675	-2.9083	145.643	132.477	192.174	171.333	265.083	168.570	-65.133	-48.264	274.965	133.976	250.083	223.105	-57.541	118.490	194.063	142.979	8.6165e-05	0.00010129	8.723e-05	1170.2	3.4579e-06	1.2395e-06	1240.6	248.84	1.3775e-06	2.7032e-06	312.55	88.057	68.605	20.192	3.0798e-06	28.278	7.5266e-05	7.1372e-05	1.9486e-05	962.46	7.3566e-07	7.1183e-07	1148.6	229.21	6.9902e-07	6.9225e-07	275.33	79.501	61.204	18.461	7.2587e-07	25.454	-37.205	-16.687	-56.040	-57.360	97.744	85.331	-57.019	-49.848	152.078	128.553	-50.514	-43.552	-43.333	-36.635	84.450	-37.232	-8191	255	
341.987	1	1	0	0	0.27466	0.37373	0.2121	0.24713	0.26356	0.16515	0.13471	0.10764	0.204	0.26272	0.050848	0.098641	0.077538	0.15543	0.086596	0.15156	-2.1229	-2.7167	-2.7396	-2.5708	-2.8417	-2.4771	-2.7521	-3.0083	-2.3854	-2.7917	-2.8542	-2.675	-2.975	-2.6083	-2.7313	-2.875	181.328	234.979	-64.500	27.559	36.796	258.048	149.078	174.687	283.516	82.365	238.496	34.433	-41.178	217.747	39.747	-54.562	0.00027289	0.00012351	9.9166e-05	1151.5	5.6799e-06	2.589e-06	1224.3	247.52	1.9623e-06	8.1996e-07	311.41	87.594	68.422	20.023	3.0697e-06	28.256	7.0474e-05	6.837e-05	1.9597e-05	946.9	7.8615e-07	8.0468e-07	1138.9	228.77	8.1977e-07	8.0819e-07	275.95	79.356	61.37	18.426	8.1141e-07	25.441	-63.854	270.651	-35.319	-57.530	84.067	43.744	-57.068	-50.201	161.731	22.109	-50.751	-43.580	-43.427	-36.594	-36.012	-37.395	-8191	255	
342.082	1	1	0	0	0.22227	0.090567	0.25182	0.19641	0.39934	0.093443	0.226	0.33628	0.091438	0.12333	0.10363	0.090864	0.1232	0.2869	0.20617	0.15242	-2.3292	-2.625	-2.7083	-2.5583	-2.6729	-2.7646	-2.6771	-2.8146	-2.6104	-2.6375	-2.9354	-2.475	-2.8042	-2.7354	-2.6333	-2.9771	134.669	221.468	133.825	-29.999	-52.289	18.704	259.704	-27.060	279.043	197.220	211.471	135.044	-12.640	122.232	244.314	-30.194	0.00024538	0.00023174	6.7683e-05	1152.3	5.3177e-07	6.8388e-06	1228.9	249.92	2.0942e-06	5.3068e-07	313.09	87.739	68.635	20.007	6.7622e-06	27.98	7.5663e-05	7.4387e-05	2.078e-05	956.71	8.1642e-07	8.1742e-07	1144.4	230.45	8.4863e-07	8.5172e-07	278.15	79.791	61.596	18.448	9.0902e-07	25.392	-60.311	20.516	132.072	-57.392	-17.526	80.312	-57.102	-50.078	34.260	64.105	-50.338	-43.671	-43.568	-36.824	60.702	-37.078	-8191	255	
342.155	1	1	0	0	0.075428	0.052006	0.11369	0.13545	0.27746	0.18028	0.14797	0.27059	0.076424	0.030446	0.3251	0.18685	0.15601	0.36587	0.20227	0.18984	-2.1021	-2.7417	-2.7979	-2.6521	-2.8208	-2.9771	-2.6583	-2.9333	-2.6708	-2.55	-3.1208	-2.5104	-2.9562	-2.6729	-2.5042	-3.1375	128.984	202.629	7.301	-26.567	75.357	262.951	154.405	-38.003	271.365	-62.884	274.639	120.988	201.805	271.301	-30.092	185.513	0.000219	4.8282e-05	0.00010029	1166.2	2.5999e-06	8.0057e-07	1237.5	247.91	3.4325e-06	4.6287e-06	312.41	87.511	67.665	19.801	1.1767e-06	28.043	8.7791e-05	8.7307e-05	2.4824e-05	965.86	1.014e-06	1.0384e-06	1151	230.97	1.1208e-06	1.1193e-06	280.79	80.257	62.329	18.606	1.2651e-06	25.793	-35.833	21.701	4.237	-57.165	50.585	-49.766	-57.131	-50.033	23.434	9.103	-50.684	-43.757	-43.166	-36.599	135.724	-37.764	-8191	255	
342.251	1	1	0	0	0.11796	0.39258	0.36911	0.13786	0.228	0.1253	0.22476	0.12041	0.078397	0.21433	0.15021	0.03789	0.082514	0.1188	0.1009	0.028145	-2.1583	-2.7125	-2.8854	-2.5792	-2.7375	-2.6771	-2.525	-3.0167	-2.725	-2.625	-2.675	-2.5354	-2.5167	-3.0583	-2.6083	-2.8333	256.964	2.325	279.572	51.402	97.609	-54.902	271.847	60.598	3.434	26.683	208.282	11.407	238.778	90.631	152.034	-42.095	0.00018127	0.00045657	6.8771e-05	1193.6	2.7067e-06	4.5957e-06	1270.9	253.15	3.988e-06	4.4205e-06	318.87	88.352	69.769	19.941	1.8116e-07	28.127	0.00011939	0.00012048	3.4025e-05	1005.7	1.3622e-06	1.3741e-06	1184.9	237.78	1.407e-06	1.4204e-06	287.71	81.923	63.912	18.832	1.3886e-06	25.986	-26.608	-2.728	4.361	-57.322	121.811	30.224	-57.105	-50.344	163.002	239.999	-50.784	-44.027	-43.604	-36.897	200.788	-37.079	-8191	255	
342.370	1	1	0	0	0.22602	0.093688	0.15771	0.082245	0.050217	0.2767	0.17854	0.07372	0.20718	0.18591	0.049587	0.16934	0.21022	0.048851	0.16129	0.23689	-2.1625	-2.5458	-2.9479	-2.5979	-2.5479	-2.9646	-2.6083	-2.8979	-2.7917	-2.6979	-2.95	-2.7333	-2.75	-3.0729	-2.5687	-2.8167	272.318	257.697	47.858	112.365	-37.796	191.708	287.731	204.901	179.664	195.104	276.920	-63.106	197.555	122.276	59.430	182.623	0.00018504	0.00040044	6.9319e-05	1207.6	2.7721e-06	8.3582e-07	1264	252.66	1.2864e-06	9.1931e-07	316.56	88.021	68.35	19.715	3.4509e-06	27.86	0.00012742	0.00012439	3.4131e-05	1008.9	1.3279e-06	1.3071e-06	1180.5	235.97	1.3001e-06	1.286e-06	284.25	81.098	62.81	18.588	1.2412e-06	25.612	286.504	-7.334	-16.910	-57.135	59.622	38.157	-57.165	-50.404	38.061	152.991	-50.471	-43.939	-43.612	-36.505	45.308	-37.421	-8191	255	
342.466	1	1	0	0	0.10702	0.32075	0.22864	0.073837	0.25612	0.18239	0.11459	0.13477	0.2623	0.11772	0.24851	0.41599	0.17277	0.20897	0.18772	0.19366	-2.3292	-2.6917	-2.6167	-2.7125	-2.7	-2.8812	-2.7375	-2.8271	-2.7958	-2.5396	-2.7583	-2.6229	-2.5875	-3.0667	-2.6521	-2.7521	180.810	-20.791	-0.386	87.878	115.960	167.478	255.230	-64.531	74.922	-44.151	211.568	256.710	282.031	260.439	73.063	218.879	0.00021187	9.6224e-05	4.8134e-05	1194.4	2.3199e-06	1.8202e-06	1257	252.3	4.6933e-06	2.7644e-06	316.49	88.206	69.056	19.753	1.5939e-06	27.77	0.00011271	0.00011111	3.0264e-05	994.44	1.2029e-06	1.1934e-06	1174	234.62	1.2333e-06	1.2106e-06	283.82	81.124	63.031	18.64	1.2545e-06	25.809	-54.143	-16.372	228.561	-57.163	129.676	276.182	-57.135	-50.431	-19.815	36.061	-50.632	-43.823	-43.462	-36.753	159.825	-37.532	-8191	255	
342.562	1	1	0	0	0.18852	0.19891	0.16647	0.14714	0.094672	0.21978	0.12955	0.13064	0.097933	0.071087	0.21561	0.081159	0.24741	0.18405	0.037947	0.075902	-2.2833	-2.475	-2.6917	-2.5583	-2.6	-2.7979	-2.7771	-2.6854	-2.8979	-2.5542	-2.8646	-2.6521	-2.6146	-2.8208	-2.65	-2.5812	115.495	-0.268	206.132	88.906	117.622	80.008	239.926	273.561	27.076	-45.166	169.228	275.917	203.968	103.915	18.212	-38.358	7.6351e-05	0.00043468	5.7302e-05	1208.2	3.694e-06	9.06e-07	1283.9	255.63	3.7509e-06	1.9228e-06	321.67	89.088	69.876	20.169	3.2209e-06	28.197	0.00011978	0.00012075	3.3463e-05	1018.1	1.3574e-06	1.3679e-06	1196.4	239.17	1.4323e-06	1.4429e-06	289.67	82.756	64.647	19.146	1.4851e-06	26.398	259.375	40.106	32.452	-57.326	118.211	220.131	-57.248	-50.120	159.697	17.350	-50.565	-43.701	-43.929	-36.953	118.063	-37.099	-8191	255	
342.658	1	1	0	0	0.2634	0.11458	0.097763	0.20688	0.073177	0.27345	0.20594	0.29334	0.13535	0.052033	0.26814	0.097689	0.29974	0.34144	0.12641	0.22155	-2.4208	-2.3063	-2.8333	-2.8792	-2.6188	-2.8312	-2.8	-2.5792	-2.9813	-2.7625	-2.8896	-2.8708	-2.6	-2.8812	-2.6688	-2.7313	104.402	84.240	242.976	140.763	71.879	42.115	216.055	229.796	238.408	182.406	281.647	163.793	168.088	264.177	107.828	-58.242	0.00023397	0.00043508	2.6269e-05	1232.1	1.3955e-06	2.6089e-06	1296.5	259.75	2.4361e-06	1.4926e-06	322.59	89.611	70.815	20.388	3.3463e-06	28.341	0.00013927	0.00013728	3.8181e-05	1040.9	1.4814e-06	1.4724e-06	1214.1	243.05	1.4567e-06	1.4398e-06	292.07	83.197	65.025	19.21	1.4123e-06	26.433	-22.260	18.309	51.598	-57.260	151.242	2.173	-57.164	-50.345	25.710	186.845	-50.831	-43.739	-43.806	-36.778	22.349	-37.369	-8191	255	
342.755	1	1	0	0	0.14031	0.37382	0.21237	0.14889	0.29718	0.16788	0.30243	0.074629	0.086482	0.13969	0.13304	0.013797	0.13924	0.23075	0.1371	0.10635	-2.3333	-2.4375	-2.5979	-3.0271	-2.5896	-2.6396	-2.7333	-2.6292	-2.9771	-2.6042	-2.7542	-3.0208	-2.7396	-2.6708	-2.7771	-2.7562	160.666	203.402	160.670	-46.287	78.972	-66.055	259.118	150.521	211.237	185.133	60.100	124.047	218.911	279.728	178.878	15.473	0.00018944	0.00039309	6.2853e-05	1232.3	1.2708e-06	7.1241e-06	1302.7	259.88	1.1768e-06	3.1917e-06	323.81	89.661	70.693	20.194	4.6806e-06	28.598	0.00013076	0.00013177	3.6257e-05	1040.5	1.4311e-06	1.4255e-06	1217	243.52	1.4484e-06	1.4352e-06	292.69	83.398	65.297	19.246	1.4849e-06	26.523	-44.382	-67.694	287.441	-57.459	286.626	104.396	-57.190	-50.220	86.176	93.816	-50.964	-43.634	-43.546	-37.155	-35.012	-37.662	-8191	255	
342.851	1	1	0	0	0.18473	0.20961	0.068088	0.33905	0.16024	0.055034	0.13331	0.056816	0.10207	0.21634	0.19817	0.3404	0.20267	0.1735	0.17605	0.17464	-2.3521	-2.6688	-2.6667	-2.825	-2.6937	-2.8042	-3.1188	-2.5333	-2.9104	-2.575	-2.6729	-2.7958	-2.7771	-2.8229	-2.6437	-2.6667	164.295	180.576	192.142	218.208	-66.788	44.112	198.712	143.409	256.129	144.406	260.379	-41.454	100.167	93.772	9.426	129.603	0.00036354	0.00041984	5.1407e-05	1227	4.3398e-06	1.4843e-06	1295.4	258.88	3.0011e-06	1.3221e-06	323.87	89.624	70.222	20.173	3.9694e-06	28.495	0.00013773	0.00013592	3.7523e-05	1038.8	1.4902e-06	1.4664e-06	1213.8	242.74	1.4776e-06	1.4566e-06	292.15	83.256	64.882	19.151	1.4444e-06	26.436	-41.343	45.359	34.412	-57.588	50.524	35.076	-57.313	-50.573	176.703	-38.349	-50.827	-44.184	-43.759	-37.135	239.987	-37.496	-8191	255	
342.947	1	1	0	0	0.13085	0.2544	0.22105	0.012301	0.066848	0.12372	0.21268	0.57251	0.098504	0.19948	0.16575	0.18844	0.14442	0.16718	0.06685	0.21729	-2.4396	-2.7354	-2.6729	-2.8833	-2.6458	-3.0083	-2.85	-2.4083	-2.8208	-2.8583	-2.5146	-3.1688	-2.5917	-2.7938	-2.75	-2.5896	209.971	279.939	137.565	-42.518	48.497	201.526	-45.633	205.443	226.195	143.029	-41.905	203.937	211.719	179.265	47.112	86.602	0.00025401	0.0004056	7.4345e-05	1224	1.5156e-06	1.5863e-06	1289	259.12	6.7368e-06	4.4919e-06	320.32	89.418	70.503	20.18	1.6743e-06	28.33	0.00013342	0.00013249	3.6647e-05	1032.6	1.4652e-06	1.4746e-06	1206.6	242.6	1.4959e-06	1.487e-06	291.78	83.088	64.959	19.158	1.517e-06	26.423	-33.503	96.094	36.205	-57.325	3.566	221.664	-57.217	-50.309	41.217	264.922	-50.529	-44.374	-43.774	-36.727	10.626	-37.440	-8191	255	
343.068	1	1	0	0	0.16725	0.23546	0.15976	0.088596	0.22955	0.12248	0.2266	0.348	0.2051	0.20645	0.082302	0.057396	0.038795	0.2314	0.087147	0.17616	-2.3542	-2.8146	-2.5708	-2.9375	-2.575	-2.9167	-3.1125	-2.6125	-2.8104	-2.8458	-2.6625	-2.8958	-2.65	-2.5583	-2.7062	-2.6604	58.836	168.196	-67.008	113.679	-7.225	10.220	247.639	273.566	40.243	-27.848	204.994	-67.588	88.382	158.473	-29.105	140.211	9.6995e-05	9.02e-05	3.1788e-05	1228.9	2.9683e-06	5.6936e-06	1296.2	260.01	3.8244e-06	5.8185e-06	323.38	89.222	70.13	20.077	3.9796e-06	28.227	0.00014152	0.00014057	3.9068e-05	1039	1.5355e-06	1.5309e-06	1210.9	243.01	1.5204e-06	1.4981e-06	292.49	82.932	64.78	19.028	1.4918e-06	26.319	-66.430	212.438	-24.800	-57.261	200.321	56.488	-57.449	-50.454	43.417	36.775	-50.858	-43.834	-43.845	-37.021	35.889	-37.445	-8191	255	
343.162	1	1	0	0	0.20917	0.28307	0.010382	0.16601	0.087237	0.22634	0.11402	0.091067	0.15714	0.14027	0.14873	0.22153	0.18416	0.17926	0.37854	0.076025	-2.3604	-2.8208	-2.4479	-2.9771	-2.5375	-2.8063	-3.0854	-2.6667	-2.725	-2.6813	-2.45	-2.7188	-2.7667	-2.6896	-2.7729	-2.7354	92.470	11.448	137.801	-34.182	-51.428	-34.796	126.072	241.912	132.694	87.263	-30.883	233.707	201.771	291.163	179.655	156.725	0.00019314	2.3109e-05	6.8206e-05	1224.7	3.7431e-06	4.7034e-06	1290.5	258.66	6.1232e-06	8.3766e-07	321.62	88.981	69.832	20.049	3.1047e-06	28.167	0.00013683	0.00013451	3.77e-05	1033.1	1.4801e-06	1.4513e-06	1206.7	241.86	1.4319e-06	1.4233e-06	290.07	82.53	64.38	18.964	1.435e-06	26.28	285.909	262.900	61.335	-57.274	74.955	80.662	-57.205	-50.275	161.442	39.046	-50.651	-44.460	-43.525	-36.806	-52.065	-37.834	-8191	255	
343.260	1	1	0	0	0.10427	0.10151	0.15937	0.076096	0.14045	0.19822	0.18087	0.12749	0.092268	0.057202	0.085341	0.065316	0.33173	0.24683	0.20037	0.060757	-2.1854	-2.8667	-2.5354	-2.9125	-2.7396	-2.4958	-3.1979	-2.6125	-2.8042	-2.8729	-2.5312	-2.9813	-2.6354	-2.9083	-2.6979	-2.7021	13.516	-22.342	83.836	96.835	246.117	200.957	189.620	265.651	27.492	233.599	-35.738	204.479	285.668	-17.936	-65.473	-8.960	0.00015494	0.0002774	9.2533e-05	1223.3	1.8446e-06	2.4634e-06	1288.6	256.98	3.2829e-06	3.3411e-06	321.87	88.757	70.127	19.986	3.5939e-06	28.167	0.00013341	0.0001325	3.7065e-05	1030.9	1.4447e-06	1.4498e-06	1206.6	241.23	1.4422e-06	1.4368e-06	290.97	82.656	64.502	18.936	1.4496e-06	26.213	291.324	-26.291	-9.721	-57.224	132.651	80.932	-57.158	-50.207	35.207	130.221	-50.757	-43.816	-43.665	-36.920	21.953	-37.503	-8191	255	
343.354	1	1	0	0	0.10715	0.11538	0.26298	0.10288	0.085782	0.30112	0.03943	0.27655	0.13246	0.12882	0.1301	0.025609	0.034815	0.038667	0.10538	0.064717	-2.3042	-2.9417	-2.4417	-2.8958	-2.6354	-2.6813	-3.0958	-2.8104	-2.5896	-2.7146	-2.7875	-2.6771	-2.9875	-2.4771	-2.875	-2.5854	20.016	210.967	147.037	-18.965	-22.451	-22.356	-35.277	270.841	178.361	205.568	70.050	158.597	164.510	243.090	130.377	169.486	0.000221	0.00027898	8.7203e-05	1219.1	4.7714e-06	1.5308e-06	1292.3	258.9	7.5319e-07	2.4444e-06	323.57	89.227	70.197	20.049	2.9306e-06	28.216	0.00013239	0.00013228	3.6711e-05	1032.1	1.459e-06	1.4491e-06	1209.1	242.15	1.4716e-06	1.4663e-06	291.9	82.973	64.565	19.026	1.4266e-06	26.222	-48.209	-47.416	-8.977	-57.489	49.893	148.625	-57.371	-50.313	270.370	194.312	-50.622	-44.061	-43.880	-37.291	54.489	-37.673	-8191	255	
343.450	1	1	0	0	0.063807	0.0993	0.18561	0.07024	0.077927	0.28282	0.31779	0.059688	0.023996	0.043984	0.15144	0.17666	0.43482	0.21872	0.24319	0.1282	-2.1271	-2.8125	-2.3917	-3.0667	-2.7708	-2.5812	-3.1208	-2.7021	-2.5292	-2.9208	-2.6292	-2.7625	-2.85	-2.5187	-2.7708	-2.9083	248.198	242.679	286.935	-20.634	47.772	30.597	243.365	59.160	267.629	-14.346	78.221	267.040	238.467	258.635	210.612	269.223	8.5043e-05	0.00037437	3.9089e-05	1224.8	2.649e-06	2.244e-06	1289.9	258.81	4.8244e-07	1.0677e-06	324.05	89.088	70.289	20.002	2.2222e-06	28.118	0.00013217	0.00012991	3.6101e-05	1032.4	1.4223e-06	1.3996e-06	1205.7	241.66	1.4104e-06	1.4063e-06	290.93	82.585	64.423	18.891	1.3846e-06	26.137	-61.991	10.300	-10.282	-57.558	212.124	-47.686	-57.170	-50.346	65.433	-13.490	-50.486	-44.137	-43.526	-36.782	37.335	-37.133	-8191	255	
343.547	1	1	0	0	0.10259	0.19259	0.11451	0.14204	0.13318	0.086784	0.13977	0.11375	0.11452	0.25507	0.34216	0.17492	0.22193	0.026586	0.22579	0.11703	-1.9917	-2.8917	-2.5771	-2.6188	-2.8917	-2.5979	-2.9667	-2.9646	-2.4646	-3.0729	-2.4979	-2.7313	-2.7875	-2.575	-2.8	-2.8542	289.535	195.667	262.193	81.210	225.139	261.976	231.437	243.752	-6.582	64.425	50.849	271.300	-11.747	-4.776	33.217	265.795	0.00017289	0.00046556	3.7127e-05	1224.4	1.336e-06	3.9539e-06	1288.6	257.83	4.1512e-06	1.8967e-06	321.41	89.006	69.815	19.99	2.1911e-06	27.959	0.00012939	0.00012754	3.5562e-05	1030.7	1.4022e-06	1.382e-06	1206.5	241.25	1.3852e-06	1.3602e-06	290.04	82.389	64.081	18.884	1.346e-06	26.009	-36.127	45.941	283.124	-57.443	-29.870	114.127	-57.406	-50.381	27.308	48.693	-50.196	-44.160	-43.561	-37.049	-8.519	-37.432	-8191	255	
343.667	1	1	0	0	0.10574	0.22768	0.17052	0.27095	0.0798	0.15732	0.2025	0.22731	0.052864	0.1783	0.15325	0.2755	0.22901	0.16288	0.19852	0.16259	-1.9896	-2.7875	-2.6312	-2.7708	-2.7896	-2.5312	-3.0479	-2.7167	-2.5375	-2.8	-2.5667	-2.7729	-2.8771	-2.5917	-2.75	-2.7562	249.101	192.644	207.385	-6.640	170.262	100.836	285.082	223.979	288.470	167.399	140.770	116.408	281.279	19.688	290.715	199.126	0.00022109	0.00020992	4.5424e-05	1211.2	1.0921e-06	5.7773e-06	1284	257.14	8.8945e-07	2.5124e-06	320.38	88.811	69.769	19.997	1.3899e-06	27.825	0.0001244	0.00012279	3.3778e-05	1022	1.3147e-06	1.3082e-06	1200.3	240.08	1.3138e-06	1.292e-06	288.47	82.094	64.036	18.776	1.2948e-06	25.882	-13.178	34.768	58.573	-57.354	51.982	44.046	-56.993	-50.210	-22.150	103.400	-50.723	-43.972	-43.421	-36.947	243.133	-36.928	-8191	255	
343.762	1	1	0	0	0.15722	0.21039	0.011727	0.10657	0.055566	0.13226	0.1949	0.28243	0.20419	0.20084	0.069859	0.090684	0.23278	0.16996	0.23648	0.32829	-2.2396	-2.9083	-2.6167	-2.7562	-2.9958	-2.825	-2.8458	-2.8125	-2.6771	-2.8187	-2.9625	-2.4708	-2.9167	-2.7271	-2.7646	-3.1146	170.520	231.004	266.277	26.455	6.334	251.918	116.785	223.883	8.572	199.211	281.069	0.019	258.247	19.778	28.174	71.696	0.00020867	8.4632e-05	0.00011259	1214.4	5.0541e-06	2.3477e-06	1289.3	256.25	1.7846e-06	5.1378e-06	322.22	89.262	69.611	19.941	6.0248e-06	27.992	0.00012069	0.00011718	3.2786e-05	1024.9	1.2872e-06	1.281e-06	1202.4	239.84	1.2927e-06	1.2755e-06	288.89	81.997	63.933	18.707	1.2565e-06	25.85	-44.212	222.440	-7.755	-57.478	80.307	48.583	-57.105	-50.176	156.246	99.340	-50.698	-44.049	-43.381	-37.061	49.041	-37.544	-8191	255	
343.858	1	1	0	0	0.18639	0.018577	0.15953	0.256	0.22373	0.18749	0.2002	0.33954	0.085019	0.075434	0.19972	0.13644	0.28393	0.15211	0.09969	0.067688	-2.2083	-2.8771	-2.8083	-2.3438	-2.8625	-2.6479	-3	-2.7854	-2.5083	-2.675	-2.9833	-2.7812	-3.0021	-2.6271	-2.6958	-3.0042	51.140	36.397	-12.550	-50.087	113.785	159.132	240.887	220.574	115.335	105.677	287.523	170.369	239.696	-3.699	105.812	275.071	0.00029292	0.00018286	6.4705e-05	1207.3	4.723e-06	2.5427e-06	1282.3	256.7	2.0591e-06	1.3432e-06	320.32	87.957	69.62	19.802	4.8172e-06	27.847	0.0001159	0.00011447	3.1959e-05	1016	1.2421e-06	1.2399e-06	1194.9	238.83	1.2561e-06	1.2301e-06	287.38	81.378	63.456	18.579	1.2047e-06	25.616	-38.096	262.642	-49.431	-57.281	80.712	-0.923	-57.205	-50.544	-10.587	106.267	-50.604	-43.636	-43.149	-36.423	27.679	-37.104	-8191	255	
343.954	1	1	0	0	0.020015	0.085263	0.15619	0.1475	0.037581	0.18584	0.26866	0.10456	0.11182	0.11267	0.050461	0.25914	0.053797	0.070425	0.22525	0.19888	-2.0417	-2.7354	-2.6708	-2.5187	-2.9354	-2.5708	-2.825	-2.8667	-2.5479	-2.8167	-2.8917	-2.6417	-2.8333	-2.6854	-2.6708	-3.0354	32.232	179.999	230.771	288.995	45.842	183.401	203.307	-48.482	73.726	97.286	203.538	276.856	126.022	207.631	205.515	-23.415	0.00030587	0.00014715	7.5691e-05	1198.3	1.5099e-06	3.8975e-06	1266.5	253.73	4.3833e-06	1.2525e-06	317.88	87.671	69.047	19.753	3.5243e-07	27.678	0.00011035	0.0001085	2.9679e-05	1004.2	1.1663e-06	1.1744e-06	1181.6	236.2	1.1557e-06	1.1474e-06	283.86	80.776	62.742	18.418	1.1364e-06	25.409	282.443	-28.346	54.707	-57.325	143.251	71.875	-57.031	-50.288	134.813	25.388	-50.730	-43.565	-43.814	-36.947	-49.643	-37.043	-8191	255	
344.050	1	1	0	0	0.24942	0.12769	0.06072	0.27721	0.064528	0.26736	0.13711	0.12803	0.13026	0.33167	0.24059	0.070704	0.13919	0.18106	0.14674	0.13484	-2.1021	-2.7958	-2.6167	-2.4292	-2.8917	-2.6396	-2.8042	-2.9375	-2.5229	-2.8625	-3.1521	-2.6229	-2.975	-2.7896	-2.7708	-2.7667	69.011	149.776	170.865	150.306	-30.625	142.238	259.557	255.561	0.734	164.869	-32.632	119.955	68.848	100.549	150.558	217.747	0.00032128	0.00031321	7.3445e-05	1201.2	1.9444e-06	4.6898e-06	1266.2	252.92	1.9502e-06	5.385e-06	314	87.914	68.776	19.581	1.6017e-06	27.85	0.00010344	0.00010121	2.8349e-05	996.9	1.1092e-06	1.1085e-06	1176.4	234.96	1.119e-06	1.1063e-06	282.66	80.489	62.572	18.368	1.1181e-06	25.339	-55.521	155.793	-5.149	-57.591	-34.717	23.009	-57.111	-50.254	83.408	39.859	-50.332	-43.956	-43.253	-36.951	-5.020	-37.023	-8191	255	
344.146	1	1	0	0	0.18908	0.18398	0.11506	0.20792	0.19153	0.32618	0.22304	0.28879	0.13205	0.29944	0.048264	0.12857	0.12267	0.059637	0.23306	0.037028	-2.2979	-2.5833	-2.7958	-2.6604	-3.0667	-2.8458	-2.8125	-3.1083	-2.675	-2.8563	-3.0563	-2.5479	-2.6562	-2.8875	-2.3812	-3.0521	204.891	-40.857	34.820	-28.163	132.507	-0.217	225.516	1.474	106.086	-62.896	170.028	-16.468	116.019	4.974	104.927	259.792	0.00014344	0.00026901	6.8506e-05	1196	1.4234e-06	3.1004e-06	1259.4	253.08	2.5309e-06	2.3601e-06	315.8	87.475	68.878	19.751	5.1275e-06	27.78	0.00010251	0.00010039	2.7944e-05	993.84	1.0841e-06	1.0835e-06	1174.8	235.15	1.0872e-06	1.0813e-06	282.43	80.34	62.396	18.382	1.0868e-06	25.381	-53.929	109.145	25.267	-57.114	144.991	-16.193	-57.207	-50.201	258.155	64.354	-50.693	-43.771	-43.324	-37.067	85.442	-37.476	-8191	255	
344.242	1	1	0	0	0.15315	0.080944	0.097168	0.14459	0.15491	0.17845	0.25873	0.072636	0.12038	0.18753	0.10248	0.053582	0.22344	0.1422	0.14371	0.16172	-2.2417	-2.7292	-2.925	-2.7938	-2.625	-2.8917	-2.6271	-3.0417	-2.7083	-2.5521	-2.7604	-2.5979	-2.7417	-2.7438	-2.5333	-2.8479	114.983	18.575	245.085	-38.879	264.638	202.636	245.003	-29.767	119.823	200.395	-60.738	-47.993	207.401	19.033	211.918	-61.193	0.00017999	0.00013568	2.2016e-05	1195.3	4.5648e-06	2.6018e-06	1261	252.87	2.6149e-06	5.2363e-06	317.44	87.587	68.998	19.686	1.363e-06	27.607	0.00010121	9.8943e-05	2.7594e-05	993.41	1.0671e-06	1.0753e-06	1173.6	234.7	1.0711e-06	1.0572e-06	282.74	80.273	62.467	18.319	1.0525e-06	25.262	-23.978	194.892	-64.071	-57.371	126.966	92.068	-57.199	-49.971	-9.785	73.679	-50.626	-44.106	-43.641	-36.555	64.721	-37.352	-8191	255	
344.338	1	1	0	0	0.14989	0.099158	0.033045	0.1799	0.12641	0.16635	0.13774	0.14496	0.23942	0.11753	0.30951	0.020597	0.25916	0.16082	0.26007	0.091258	-2.1875	-2.4813	-2.9292	-2.7333	-2.6271	-3.0938	-2.5875	-2.9354	-2.7729	-2.6521	-2.8937	-2.6458	-2.5354	-2.7333	-2.6375	-2.6937	263.604	148.557	-22.297	-35.099	-29.132	230.047	278.386	75.178	281.642	120.073	227.743	280.183	91.376	285.623	255.622	223.010	0.00011494	0.0002217	0.00011502	1194.4	1.9718e-06	1.4197e-06	1256.5	253.46	1.9592e-06	4.35e-06	316.09	87.96	68.615	19.747	2.3998e-06	27.562	9.6721e-05	9.5336e-05	2.6242e-05	989.53	1.0355e-06	1.0325e-06	1173.1	234.29	1.0391e-06	1.0267e-06	281.56	80.296	62.129	18.352	1.0123e-06	25.267	-17.552	-0.121	-30.576	-57.201	90.498	8.829	-57.116	-50.124	-21.643	88.552	-50.734	-44.008	-43.508	-36.616	18.859	-37.222	-8191	255	
344.459	1	1	0	0	0.14036	0.072437	0.1395	0.25488	0.10335	0.16792	0.14265	0.29184	0.24648	0.20184	0.026593	0.040431	0.11445	0.23712	0.18018	0.34357	-2.3167	-2.6333	-2.8771	-2.3854	-2.6042	-3	-2.65	-2.5896	-2.9104	-2.575	-2.8708	-2.5917	-2.5875	-2.8833	-2.6333	-2.9958	101.612	17.538	-44.446	219.458	228.371	41.905	86.109	-15.606	138.609	287.530	267.618	243.867	0.365	-52.460	145.634	69.829	0.00020403	0.00045929	5.4616e-05	1187.1	1.8958e-06	3.0166e-06	1260	251.22	1.2849e-06	2.5818e-06	317.07	87.778	68.939	19.683	4.4905e-06	27.659	9.6316e-05	9.44e-05	2.6218e-05	987.73	1.0232e-06	1.0272e-06	1172.8	233.69	1.0412e-06	1.0297e-06	281.83	80.413	62.269	18.319	1.0198e-06	25.278	-12.904	2.532	23.923	-57.185	44.606	85.570	-57.257	-50.107	53.063	90.076	-50.436	-43.572	-43.475	-37.025	-12.914	-36.993	-8191	255	
344.553	1	1	0	0	0.19098	0.11452	0.14346	0.20231	0.10292	0.17841	0.067733	0.33674	0.14807	0.10609	0.15152	0.16031	0.14499	0.32887	0.23978	0.19928	-2.2729	-2.5042	-2.5667	-2.9125	-2.7125	-2.9229	-2.7667	-2.6688	-2.8937	-2.4771	-2.925	-2.9688	-2.625	-2.9333	-2.7104	-2.9021	42.142	125.426	-32.000	-66.476	170.720	-10.638	201.937	-28.464	168.157	166.557	222.468	18.572	-13.493	-41.325	219.620	250.680	0.000214	0.00025443	7.6631e-05	1196.3	7.5446e-07	1.718e-06	1258.4	251.88	3.2895e-06	1.9848e-06	315.67	87.435	68.761	19.717	3.2238e-06	27.645	9.5547e-05	9.3828e-05	2.539e-05	988.54	1.0037e-06	9.9094e-07	1170.9	233.8	9.9574e-07	9.8934e-07	280.89	80.124	62.152	18.346	9.8069e-07	25.196	-49.441	9.942	-46.424	-57.393	61.339	191.406	-57.080	-50.371	187.557	62.156	-50.882	-43.629	-43.219	-37.094	14.781	-37.525	-8191	255	
344.651	1	1	0	0	0.1442	0.15025	0.23108	0.18315	0.20818	0.14051	0.17795	0.25924	0.0039911	0.060579	0.061079	0.17222	0.13933	0.082985	0.3265	0.075638	-2.3187	-2.4813	-2.8729	-2.7604	-2.6646	-2.95	-2.8604	-2.7167	-2.9125	-2.4458	-2.9229	-2.7708	-2.5125	-2.9938	-2.7167	-2.6208	254.020	204.181	248.231	-39.545	146.253	76.827	-33.291	36.204	-22.023	230.519	281.304	-48.581	-52.873	253.899	20.879	186.709	8.7784e-05	0.0002608	7.4996e-05	1188.5	4.7822e-06	3.7821e-06	1256.8	250.94	3.1476e-06	1.8948e-06	314.14	87.886	68.601	19.695	2.5076e-06	27.794	9.2453e-05	9.0366e-05	2.4991e-05	983.98	9.8457e-07	9.7638e-07	1165.3	233.2	9.8518e-07	9.7714e-07	279.96	80.122	62.032	18.282	9.6735e-07	25.264	-26.461	24.784	0.839	-57.450	87.711	26.122	-57.248	-50.145	66.680	60.470	-50.534	-43.862	-43.138	-36.749	-5.637	-37.657	-8191	255	
344.748	1	1	0	0	0.27444	0.11312	0.04154	0.063044	0.049067	0.096662	0.19447	0.14811	0.059797	0.2929	0.1554	0.042071	0.22206	0.08128	0.37385	0.26016	-2.6667	-2.4979	-2.8396	-2.8063	-2.6688	-2.825	-3.0583	-2.7313	-2.9875	-2.6604	-2.9104	-3.0542	-2.6562	-2.8604	-2.65	-2.675	240.256	267.050	-44.477	203.682	246.588	65.433	140.624	-12.198	285.695	69.773	60.294	208.481	-32.717	117.794	151.653	155.935	0.00019994	0.00016823	4.9551e-05	1179	8.5951e-07	1.9119e-06	1250.4	250.29	2.5859e-06	3.8705e-06	313.69	86.962	68.694	19.746	1.6883e-06	27.434	8.9971e-05	8.8186e-05	2.4066e-05	977.11	9.5855e-07	9.4186e-07	1159.6	232.04	9.5662e-07	9.3328e-07	279.09	79.627	61.752	18.25	9.276e-07	25.074	271.619	12.084	56.088	-57.459	60.010	248.488	-57.122	-50.247	89.422	170.615	-50.600	-43.851	-43.722	-36.718	151.088	-37.522	-8191	255	
344.842	1	1	0	0	0.11117	0.051718	0.29538	0.068843	0.073004	0.20124	0.34785	0.21985	0.10044	0.15019	0.19218	0.35654	0.31854	0.087332	0.18405	0.15574	-2.3792	-2.6479	-2.7833	-2.9083	-2.5458	-2.7	-3.0104	-2.6458	-2.95	-2.5062	-2.5687	-2.9417	-2.5083	-2.8375	-2.75	-2.5812	79.318	214.159	257.795	258.952	-37.418	111.775	271.579	249.618	-49.045	-4.172	280.462	162.202	265.944	265.784	-25.021	129.063	0.00021427	0.00032884	6.6778e-05	1171.7	3.8316e-06	1.12e-06	1236.5	249.27	2.4086e-06	8.6281e-07	314.78	87.103	67.739	19.785	2.3613e-06	27.954	8.4869e-05	8.2743e-05	2.2613e-05	970.39	8.8113e-07	8.65e-07	1151.5	230.62	8.5498e-07	8.4019e-07	277.75	79.102	61.104	18.184	8.2428e-07	25.095	0.409	26.755	-59.854	-57.410	87.641	244.752	-57.081	-49.958	136.008	141.558	-50.215	-43.784	-43.734	-36.848	-6.391	-37.207	-8191	255	
344.938	1	1	0	0	0.075751	0.13291	0.06826	0.24906	0.26389	0.0075559	0.16142	0.088467	0.0539	0.12227	0.18685	0.13379	0.14951	0.29509	0.20031	0.033001	-2.3646	-2.6208	-2.6229	-2.9333	-2.5312	-2.8937	-2.9188	-2.8187	-2.9042	-2.7583	-2.6375	-2.9	-2.5438	-2.7479	-2.8063	-2.6479	-44.214	173.497	49.872	-37.625	72.318	95.997	-56.983	84.220	278.506	216.968	-2.472	233.187	-50.512	239.061	188.332	289.100	8.5814e-05	0.00024288	2.0124e-05	1164.6	3.6997e-06	1.7865e-06	1228	248.02	1.35e-06	3.0632e-06	310.38	87.369	67.792	19.801	1.084e-06	27.785	7.4817e-05	7.3661e-05	2.0558e-05	957.01	7.8034e-07	7.7397e-07	1140.3	228.68	7.6924e-07	7.5302e-07	274.81	78.897	60.806	18.135	7.4583e-07	25.105	290.898	14.981	100.701	-57.211	82.933	-14.409	-57.104	-50.120	254.243	-5.638	-50.395	-43.644	-43.272	-36.889	111.674	-37.407	-8191	255	
345.059	1	1	0	0	0.10451	0.17123	0.055242	0.24237	0.066932	0.053505	0.24976	0.082965	0.17239	0.093371	0.18729	0.10298	0.083711	0.09848	0.10755	0.14413	-2.3979	-2.6813	-2.6937	-2.7771	-2.6021	-2.6813	-2.9958	-2.4729	-2.8958	-2.65	-2.6417	-2.775	-2.5229	-2.6688	-2.7833	-2.5229	72.146	143.522	-1.869	212.169	279.618	169.999	219.026	244.830	-65.598	237.957	-48.352	200.084	-12.214	-55.637	148.738	160.172	0.00026708	0.00036835	4.5254e-05	1157.6	1.837e-06	1.8325e-06	1220.9	247.02	3.0973e-06	5.9372e-06	311.39	87.008	67.906	19.76	5.6971e-06	27.756	6.8764e-05	6.8161e-05	1.8819e-05	948.34	7.4449e-07	7.3943e-07	1134.6	228.2	7.5307e-07	7.6052e-07	274.39	78.946	60.846	18.19	7.742e-07	25.153	-38.664	20.664	-23.061	-57.168	111.773	-3.078	-57.180	-50.013	136.912	25.962	-50.399	-43.821	-43.064	-36.503	26.166	-37.093	-8191	255	
345.155	1	1	0	0	0.055525	0.24338	0.23944	0.23311	0.13256	0.16669	0.28032	0.24364	0.090186	0.22026	0.26662	0.16345	0.21222	0.13805	0.12565	0.23086	-2.1937	-2.7958	-2.5104	-2.7562	-2.75	-2.6437	-2.9938	-2.6521	-2.7125	-2.6375	-2.55	-2.9958	-2.5604	-2.5625	-2.6146	-2.7354	-44.145	190.947	207.394	113.189	96.245	42.836	-4.723	229.920	264.038	102.251	126.635	-15.404	86.331	47.776	262.133	-56.693	0.00022005	0.00042116	4.0813e-05	1152.4	9.4355e-07	2.5818e-06	1227.2	247.57	1.4416e-06	3.606e-06	311.71	86.907	67.691	19.614	2.9228e-06	27.76	7.3909e-05	7.2035e-05	1.997e-05	949.07	7.9235e-07	7.7938e-07	1136.9	228.73	7.7863e-07	7.674e-07	275.19	78.848	60.895	18.117	7.5999e-07	25.065	-45.100	-10.304	63.666	-57.169	109.160	65.113	-57.079	-49.971	288.908	66.085	-50.188	-44.004	-43.206	-36.754	25.758	-37.482	-8191	255	
345.251	1	1	0	0	0.057115	0.051581	0.084096	0.17534	0.43002	0.089227	0.056236	0.16593	0.2256	0.051859	0.21977	0.23702	0.23691	0.24657	0.17153	0.16109	-2.2833	-2.4854	-2.5729	-2.6958	-2.8729	-2.4938	-3.0208	-2.6	-2.6167	-2.8333	-2.4437	-2.75	-2.7958	-2.5604	-2.825	-2.6167	67.191	169.379	70.303	-42.691	216.818	32.268	40.070	-55.212	233.917	93.992	-56.760	-37.126	287.838	118.656	208.869	238.077	0.00023126	0.00021528	2.9023e-05	1144.9	1.6184e-06	3.1328e-06	1224.3	247.22	1.6102e-06	3.1441e-06	309.83	87.174	67.256	19.688	1.5791e-06	28.077	6.9917e-05	6.88e-05	1.9386e-05	942.29	7.5034e-07	7.4663e-07	1133.4	228.12	7.4024e-07	7.3648e-07	273.69	78.873	60.517	18.106	7.3703e-07	25.103	272.802	81.212	267.649	-57.414	92.179	43.162	-56.970	-50.166	23.112	-38.858	-50.688	-43.653	-43.410	-36.752	53.677	-37.330	-8191	255	
345.347	1	1	0	0	0.037994	0.20921	0.10379	0.18694	0.10682	0.071569	0.27785	0.12131	0.12582	0.076798	0.18807	0.23755	0.11937	0.18674	0.11936	0.16472	-2.3417	-2.9833	-2.3917	-2.9042	-2.8042	-2.7021	-3.125	-2.6417	-2.65	-2.7292	-2.6375	-2.6271	-2.6437	-2.5333	-2.725	-2.8021	145.131	171.854	177.592	102.029	269.912	130.022	203.689	194.884	221.191	205.471	-2.814	261.077	13.087	23.666	-2.490	124.206	0.00014382	0.00013299	2.0333e-05	1157.6	4.8285e-06	8.385e-07	1221	246.87	3.1894e-06	4.5637e-06	311.28	86.698	67.753	19.627	3.4323e-06	27.703	6.9919e-05	6.8355e-05	1.9025e-05	946.32	7.4321e-07	7.5628e-07	1132.1	227.72	7.5846e-07	7.45e-07	274.6	78.813	60.661	18.077	7.6165e-07	25.003	-48.378	43.801	-34.862	-56.982	142.625	248.538	-56.785	-50.271	58.458	83.139	-50.341	-43.676	-43.029	-36.520	-35.574	-37.169	-8191	255	
345.443	1	1	0	0	0.18881	0.1582	0.07269	0.28923	0.22014	0.11382	0.24574	0.097401	0.040419	0.14833	0.19078	0.062757	0.20731	0.1918	0.081336	0.038289	-2.0333	-2.9229	-2.3354	-3.0083	-2.7208	-2.4604	-2.8812	-2.7792	-2.7792	-2.7604	-2.5563	-2.6396	-2.5917	-2.4354	-2.925	-2.7833	-54.842	-29.875	239.461	281.899	-17.770	-6.613	223.971	43.809	228.404	216.268	194.043	74.661	267.615	284.235	-31.816	-41.249	0.0002065	0.00013513	7.0257e-05	1149.2	8.2441e-07	9.0251e-07	1216.6	246.49	6.79e-07	2.2941e-06	310.44	86.521	67.518	19.733	1.3262e-06	27.736	7.2578e-05	7.0466e-05	1.9334e-05	946.51	7.8254e-07	7.8039e-07	1133.1	228.01	8.173e-07	8.0852e-07	275.67	78.859	60.876	18.142	8.3466e-07	25.036	-41.259	74.111	-47.819	-56.817	114.000	-51.840	-57.000	-50.224	-54.310	111.382	-50.278	-43.955	-43.515	-36.620	184.904	-37.081	-8191	255	
345.539	1	1	0	0	0.22084	0.32121	0.12529	0.11503	0.27332	0.09861	0.28618	0.11773	0.21961	0.21806	0.06702	0.17417	0.14738	0.10832	0.093183	0.33227	-2.1771	-2.7771	-2.5979	-2.5938	-2.8208	-2.3667	-2.9646	-2.6937	-2.5229	-2.9521	-2.4458	-2.8896	-2.7083	-2.6146	-2.6396	-2.9292	45.666	230.790	-47.439	265.363	128.197	-35.838	237.006	257.718	199.259	109.812	166.545	180.535	109.971	283.679	80.374	62.733	0.00013065	7.7407e-05	9.2343e-05	1155.2	4.7803e-06	9.8143e-07	1225.3	247.32	3.6254e-06	2.987e-06	310.76	86.752	67.244	19.57	5.5751e-06	27.614	7.9437e-05	7.7135e-05	2.1679e-05	954.25	8.6259e-07	8.5065e-07	1139	228.85	8.669e-07	8.4714e-07	275.7	78.806	60.796	18.063	8.4605e-07	25.061	-56.109	9.786	70.432	-57.277	72.223	16.467	-56.909	-50.094	278.325	114.296	-50.336	-43.540	-43.413	-36.335	118.830	-37.185	-8191	255	
345.636	1	1	0	0	0.1237	0.317	0.20986	0.15431	0.39284	0.11013	0.35723	0.17439	0.17423	0.26892	0.17093	0.21576	0.18744	0.18056	0.34468	0.15182	-2.0104	-2.9188	-2.4833	-2.5646	-2.9125	-2.4958	-2.9688	-2.8	-2.4604	-2.8667	-2.8625	-2.6937	-3.0708	-2.6312	-2.8	-2.7792	96.406	99.998	40.649	234.471	245.683	258.443	246.988	219.156	-64.455	219.674	29.807	206.380	146.329	23.056	76.059	-13.676	0.00013477	0.00029565	7.0615e-05	1161.7	2.7187e-06	2.4488e-06	1225.8	247.74	2.123e-06	4.4937e-07	309.87	86.576	67.29	19.453	2.6617e-06	27.547	7.9644e-05	7.7624e-05	2.1578e-05	955.49	8.5868e-07	8.54e-07	1140.1	229.26	8.8901e-07	8.6349e-07	275.92	78.886	60.744	18.032	8.8645e-07	25.033	-12.291	-25.724	-8.767	-57.308	80.811	-30.696	-57.133	-49.918	233.725	-46.151	-50.244	-43.462	-43.259	-36.595	96.389	-37.328	-8191	255	
345.754	1	1	0	0	0.14165	0.53104	0.21865	0.11413	0.061887	0.15111	0.19356	0.36975	0.33677	0.059601	0.026094	0.1543	0.08793	0.13459	0.2991	0.15402	-2.1813	-2.7625	-2.6896	-2.6125	-2.9167	-2.6583	-2.7812	-2.8875	-2.6479	-3.0333	-2.6833	-2.5125	-2.8812	-2.6354	-2.6375	-2.8271	16.394	133.333	178.852	-63.993	275.018	23.924	242.827	144.865	31.593	244.838	264.916	258.708	3.193	196.051	244.902	249.561	0.00028346	0.00014525	8.1638e-05	1154.9	4.1517e-06	1.4542e-06	1232	248.07	4.1516e-06	1.3419e-06	309.38	86.264	67.686	19.368	2.7372e-06	27.464	8.4038e-05	8.3152e-05	2.31e-05	958.25	9.1588e-07	9.1191e-07	1142.7	229.08	9.4052e-07	9.1817e-07	275.79	78.698	60.98	18.019	9.2413e-07	24.941	-45.832	44.034	-39.473	-57.099	82.280	-37.061	-56.925	-50.150	43.334	-43.324	-50.406	-43.638	-43.383	-36.940	-8.563	-37.171	-8191	255	
345.851	1	1	0	0	0.15444	0.12576	0.14312	0.0083006	0.22141	0.0799	0.19973	0.17619	0.18873	0.071659	0.26218	0.055474	0.21993	0.25803	0.28017	0.15508	-2.0979	-2.9208	-2.5229	-2.6333	-2.825	-2.6937	-2.7521	-3.0021	-2.5125	-2.7021	-2.8208	-2.4875	-2.8771	-2.6958	-2.7583	-2.8708	52.483	128.054	12.235	19.207	178.827	213.474	220.675	-53.756	254.052	248.025	128.853	106.458	-25.916	31.475	2.496	89.459	0.00026892	0.00038663	8.8257e-05	1160.4	3.0817e-06	2.5313e-06	1229.4	247.43	2.6806e-06	1.9173e-06	308.77	86.598	67.221	19.418	3.7416e-06	27.225	8.6826e-05	8.3346e-05	2.339e-05	958.53	9.2101e-07	9.0759e-07	1142.8	228.71	9.2134e-07	9.1577e-07	275.49	78.806	60.705	17.987	9.2069e-07	24.918	-49.350	-11.532	23.244	-57.021	106.347	55.625	-57.068	-50.163	44.986	118.589	-50.483	-43.766	-43.004	-36.742	106.739	-37.011	-8191	255	
345.922	1	1	0	0	0.095369	0.39065	0.16873	0.12137	0.1681	0.16182	0.36592	0.10131	0.17107	0.13507	0.042437	0.22558	0.16741	0.20354	0.097338	0.17271	-2.0208	-2.8063	-2.575	-2.6167	-2.7687	-2.6625	-2.825	-2.7792	-2.4917	-2.4354	-2.9979	-2.6083	-2.6333	-2.7854	-2.6667	-2.975	86.916	114.287	75.487	159.418	220.783	223.879	213.356	276.804	222.201	81.838	-40.475	-24.041	-6.387	112.813	-32.888	-59.686	0.00010534	0.00011414	6.4001e-05	1150.3	1.7736e-06	3.9004e-06	1232.4	246.24	3.7498e-06	2.621e-06	307.03	85.946	67.02	19.348	3.928e-06	27.212	8.6971e-05	8.448e-05	2.3731e-05	960.34	9.343e-07	9.2954e-07	1143	228.16	9.5431e-07	9.4255e-07	274.9	78.406	60.814	18.005	9.5383e-07	24.849	-27.475	85.713	286.815	-57.439	81.074	82.049	-57.132	-49.938	-9.018	53.522	-50.365	-43.818	-43.268	-36.758	69.392	-37.124	-8191	255	
346.018	1	1	0	0	0.12546	0.017916	0.062925	0.078023	0.067249	0.14864	0.42354	0.31203	0.089223	0.12684	0.31141	0.21203	0.081547	0.19586	0.097533	0.18226	-2.1104	-2.6708	-3.0438	-2.5479	-2.8396	-2.8187	-2.6771	-2.8208	-2.6792	-2.4979	-3.0812	-2.5563	-2.7188	-2.6896	-2.6312	-2.8875	5.586	-45.413	102.131	25.924	53.194	3.355	224.168	232.319	232.371	231.510	281.239	188.116	-54.511	262.880	278.319	-56.704	0.00023017	0.0001869	5.9831e-05	1162.5	2.9796e-06	3.0336e-06	1233.5	245.65	1.4855e-06	4.1507e-06	309.32	86.053	67.215	19.437	3.1342e-06	27.182	8.937e-05	8.791e-05	2.4517e-05	963.77	9.6546e-07	9.6282e-07	1145	228.15	9.6956e-07	9.7532e-07	275.71	78.764	61.049	18.017	9.9576e-07	24.909	-36.068	-12.594	113.481	-57.259	10.245	96.893	-56.942	-50.069	-46.963	169.042	-50.413	-44.081	-43.203	-36.471	39.804	-36.987	-8191	255	
346.139	1	1	0	0	0.20108	0.1775	0.10126	0.10426	0.065021	0.055076	0.22135	0.14365	0.037403	0.21075	0.10809	0.18533	0.15505	0.24912	0.24139	0.10934	-2.1667	-2.6604	-3.0417	-2.625	-2.7021	-2.6792	-2.625	-2.7771	-2.5354	-2.5104	-2.8958	-2.4333	-2.8708	-2.6896	-2.5083	-3.075	211.287	-12.246	-27.569	-63.946	225.083	247.391	-30.202	104.321	69.081	-13.019	119.732	36.296	160.496	249.322	230.998	204.982	0.00017971	0.00013787	2.0654e-05	1159.5	4.5155e-06	3.4033e-06	1232	245.3	1.6537e-06	2.1539e-06	309.17	86.562	67.431	19.485	2.2988e-06	27.342	9.1602e-05	9.096e-05	2.5172e-05	964.9	9.9217e-07	9.8607e-07	1145.5	227.97	9.9385e-07	9.8207e-07	275.74	78.77	60.887	18.032	9.7185e-07	24.977	-59.183	42.200	-38.675	-57.176	79.976	35.510	-57.054	-50.221	75.877	49.369	-50.532	-43.721	-43.308	-36.375	105.344	-36.826	-8191	255	
346.235	1	1	0	0	0.20883	0.26354	0.12722	0.16172	0.13414	0.05407	0.45062	0.31221	0.13186	0.11104	0.17411	0.071305	0.23013	0.21503	0.080371	0.22241	-2.1208	-2.3167	-2.8021	-2.475	-2.5979	-2.9313	-2.6312	-2.8125	-2.6333	-2.5938	-2.7875	-2.7833	-2.7167	-2.8229	-2.4479	-2.775	-66.424	-51.627	100.736	233.026	283.579	46.752	204.927	-65.007	234.759	120.015	99.600	224.924	239.758	-16.361	-37.785	-52.432	0.00033155	0.00016793	7.8677e-05	1158.5	3.4365e-06	3.6797e-06	1228.5	244.89	6.1678e-07	2.1448e-06	309.66	85.51	67.408	19.34	2.4931e-06	27.013	9.075e-05	8.9839e-05	2.4459e-05	961.27	9.5643e-07	9.6073e-07	1141.8	227.95	9.5782e-07	9.656e-07	275.47	78.389	60.783	17.958	9.7148e-07	24.839	-44.710	32.315	14.000	-57.446	104.370	27.373	-57.011	-50.181	218.124	113.637	-50.514	-43.618	-43.405	-36.508	-17.900	-36.550	-8191	255	
346.331	1	1	0	0	0.2883	0.23472	0.050399	0.22316	0.17617	0.03009	0.18292	0.13299	0.034746	0.032204	0.087059	0.14801	0.26331	0.067518	0.1494	0.058084	-2.1708	-2.5167	-2.7708	-2.5271	-2.6208	-2.8354	-2.6813	-2.9667	-2.6875	-2.65	-2.8708	-2.7104	-2.7438	-2.7958	-2.6042	-2.975	129.998	8.036	113.455	-3.145	34.841	36.332	235.625	184.971	282.331	278.583	-9.018	283.710	4.043	5.148	180.645	87.818	0.00034491	0.000271	4.8837e-05	1164.4	4.0208e-06	1.8617e-06	1228.4	246.41	5.2383e-06	1.8318e-06	310.2	85.525	67.096	19.391	3.4494e-06	27.286	8.998e-05	8.9325e-05	2.4258e-05	963.05	9.7391e-07	9.6928e-07	1141.3	228.09	9.8562e-07	9.8037e-07	275.21	78.642	60.824	18.012	9.8043e-07	24.876	-48.518	-22.718	77.569	-57.266	128.304	273.353	-57.104	-50.300	92.059	180.946	-50.310	-43.824	-43.350	-36.885	80.818	-37.103	-8191	255	
346.452	1	1	0	0	0.097221	0.14255	0.098813	0.11368	0.057974	0.27639	0.27681	0.11608	0.29945	0.052371	0.10206	0.13711	0.11464	0.12438	0.16551	0.16227	-2.3167	-2.4875	-2.9313	-2.7	-2.7521	-2.8875	-2.6271	-2.8208	-2.7062	-2.6479	-2.6458	-2.7833	-2.6375	-2.9542	-2.5021	-2.6688	148.469	46.462	-30.362	173.859	36.046	107.311	222.797	278.031	203.091	270.562	-50.978	270.309	51.573	57.196	236.343	52.730	0.00020293	0.00033998	0.00013872	1158.4	1.3119e-06	3.8413e-06	1229.5	246.29	2.8832e-06	2.5116e-06	311.76	86.105	67.133	19.382	1.0974e-06	27.301	9.1689e-05	8.8728e-05	2.4321e-05	962.73	9.6153e-07	9.5357e-07	1145.2	228.18	9.3965e-07	9.3992e-07	275.56	78.731	60.813	17.951	9.3142e-07	24.809	291.829	-27.826	-47.006	-57.340	114.527	33.701	-57.006	-50.118	77.760	135.997	-50.644	-43.805	-43.601	-36.400	66.542	-37.405	-8191	255	
346.524	1	1	0	0	0.10954	0.12194	0.18189	0.28671	0.056886	0.10696	0.1393	0.13402	0.21053	0.13829	0.267	0.10192	0.29248	0.29908	0.17556	0.10745	-2.4271	-2.3604	-2.7833	-2.7104	-2.6125	-2.6771	-2.7229	-2.7792	-2.8542	-2.4729	-3.0479	-2.7583	-2.6312	-2.9542	-2.7104	-2.6417	31.263	-50.497	230.702	290.522	11.305	-10.181	244.851	185.612	61.040	128.925	283.540	255.468	100.613	-14.545	87.970	182.360	0.00023944	9.8401e-05	8.5656e-05	1166	2.8105e-06	4.1382e-06	1233.3	246.62	2.0333e-06	1.3552e-06	309.95	86.501	67.273	19.275	8.5103e-07	27.206	8.7339e-05	8.5748e-05	2.3846e-05	961.68	9.4442e-07	9.3653e-07	1145.3	228.55	9.5972e-07	9.3421e-07	275.62	78.709	60.924	17.993	9.4829e-07	24.877	-57.785	27.467	-22.239	-57.524	6.152	58.625	-57.088	-49.820	4.419	157.362	-50.212	-43.644	-43.202	-36.758	258.824	-36.994	-8191	255	
346.620	1	1	0	0	0.15434	0.074459	0.11318	0.22699	0.14983	0.090605	0.358	0.12332	0.2859	0.21534	0.10327	0.087554	0.22782	0.1469	0.21313	0.049556	-2.4354	-2.5146	-2.8396	-2.6396	-2.5708	-3.0354	-2.8271	-2.7062	-2.8208	-2.6146	-2.5667	-2.9062	-2.4354	-3.0083	-2.6375	-2.7208	72.195	102.145	123.862	187.001	-24.913	3.653	202.605	209.097	228.981	99.608	-35.297	214.575	0.650	-12.462	261.932	24.690	0.00031583	0.00036836	6.8303e-05	1167.2	1.62e-06	5.6566e-06	1234.3	245.14	2.2822e-06	5.8869e-06	312.19	86.46	66.863	19.306	2.6615e-06	27.341	8.9642e-05	8.7719e-05	2.4147e-05	962.16	9.6649e-07	9.5064e-07	1144.1	228.3	9.5584e-07	9.606e-07	275.77	78.743	60.885	18.007	9.4938e-07	24.95	-44.999	12.285	-51.953	-57.261	145.626	91.586	-57.075	-49.900	286.067	82.637	-50.381	-43.730	-43.411	-36.708	106.474	-36.980	-8191	255	
346.739	1	1	0	0	0.13612	0.10893	0.19206	0.090368	0.18149	0.17851	0.13258	0.30306	0.17347	0.20804	0.046388	0.099	0.34088	0.054299	0.067163	0.10183	-2.3875	-2.5	-2.4688	-2.9333	-2.3479	-2.9125	-2.6417	-2.6813	-2.5875	-2.6229	-2.7792	-3.0729	-2.5521	-2.7604	-2.6063	-2.6896	-0.501	16.775	145.013	-13.136	44.953	208.788	248.413	275.648	-2.732	60.625	191.047	186.701	166.995	97.528	-60.141	79.933	0.00012283	0.00012567	0.00012739	1165.4	2.9056e-06	3.0056e-06	1229.6	246.28	1.1229e-06	5.8322e-06	308.78	86.286	67.574	19.416	3.7552e-06	27.324	8.8792e-05	8.7499e-05	2.4202e-05	961.68	9.5733e-07	9.6225e-07	1142.7	228.1	9.607e-07	9.5431e-07	275.44	78.657	61.034	17.977	9.5814e-07	24.914	-19.927	104.265	37.332	-57.283	3.409	41.131	-57.060	-50.019	8.356	58.250	-50.393	-43.742	-43.376	-36.340	-3.580	-36.842	-8191	255	
346.835	1	1	0	0	0.14681	0.28871	0.23594	0.013226	0.10364	0.31923	0.12442	0.078766	0.11868	0.10976	0.066852	0.066596	0.059127	0.096019	0.12231	0.18166	-2.3917	-2.8042	-2.6208	-2.875	-2.5396	-2.8688	-2.8521	-2.7062	-2.8979	-2.6479	-2.7021	-2.7292	-2.5667	-2.7479	-2.8563	-2.7104	55.099	210.093	95.670	291.456	10.467	-9.600	-8.936	176.415	166.378	-49.730	283.986	189.930	203.891	-53.559	-15.214	163.943	0.00010637	0.00016845	6.5263e-05	1152.3	9.0249e-07	4.0301e-06	1230	246.38	1.9948e-06	2.4042e-06	311	86.107	67.285	19.555	3.2691e-06	27.097	8.8717e-05	8.7765e-05	2.4396e-05	963.24	9.6811e-07	9.5784e-07	1142.8	228.34	9.7247e-07	9.5565e-07	275.31	78.775	60.883	17.997	9.6932e-07	24.897	9.797	186.837	70.029	-57.355	52.815	13.130	-56.992	-50.018	85.716	59.852	-50.605	-43.757	-43.134	-36.557	214.960	-37.432	-8191	255	
346.931	1	1	0	0	0.099244	0.34441	0.30483	0.095383	0.090789	0.2695	0.12087	0.2111	0.2386	0.092699	0.061773	0.13591	0.076547	0.1585	0.20161	0.1367	-2.5854	-2.575	-2.7521	-2.8271	-2.6813	-2.8083	-2.8854	-2.4583	-2.7812	-2.5521	-2.7625	-2.7646	-2.6292	-2.7604	-2.8979	-2.775	-42.157	-11.088	224.885	124.967	20.897	241.198	277.977	191.680	84.605	254.762	207.344	221.268	113.743	119.331	6.323	78.507	0.00028068	0.00017253	8.304e-05	1161.2	2.2247e-06	2.7241e-06	1227.3	245.82	1.5004e-06	1.0376e-06	308.33	86.227	67.373	19.356	2.5283e-06	27.08	9.0759e-05	8.8216e-05	2.4652e-05	962.93	9.6897e-07	9.7373e-07	1143.1	228.08	9.685e-07	9.6392e-07	275.26	78.614	60.947	17.989	9.7703e-07	24.867	-52.055	271.348	0.503	-57.538	5.002	80.277	-57.057	-49.930	28.829	-30.441	-50.890	-43.698	-43.130	-36.587	232.899	-37.479	-8191	255	
347.052	1	1	0	0	0.28457	0.16425	0.25203	0.2172	0.20281	0.12872	0.24825	0.26195	0.29099	0.14034	0.20549	0.080914	0.21583	0.19433	0.011781	0.18326	-2.3417	-2.8979	-2.6229	-2.8875	-2.775	-2.6896	-3.0875	-2.6708	-2.725	-2.6771	-2.7292	-2.8667	-2.675	-2.8146	-2.7812	-2.5771	138.727	223.327	261.816	-11.767	66.791	-57.045	256.707	178.942	92.888	-57.609	120.545	61.863	241.690	161.485	-0.996	-17.132	0.00022003	7.019e-05	8.6143e-06	1162	1.4892e-06	6.463e-06	1226.4	246.2	2.9445e-06	1.9315e-06	308.75	86.219	67.054	19.415	1.3936e-06	27.166	8.9749e-05	8.7215e-05	2.4438e-05	961.94	9.595e-07	9.5888e-07	1140.4	228.07	9.639e-07	9.5539e-07	275.1	78.384	60.602	17.963	9.4532e-07	24.827	-64.972	153.038	267.625	-57.254	173.439	0.256	-57.205	-50.129	143.797	68.527	-50.062	-43.886	-43.229	-36.248	281.646	-37.208	-8191	255	
347.148	1	1	0	0	0.33856	0.23115	0.2265	0.11964	0.32886	0.097853	0.18835	0.33974	0.29403	0.086747	0.21517	0.19948	0.18971	0.16869	0.047994	0.018108	-2.2562	-2.8042	-2.3063	-2.8542	-2.7104	-2.6937	-3.2083	-2.65	-2.9562	-2.9229	-2.55	-2.85	-2.7771	-2.8167	-2.7417	-2.7917	-34.951	42.109	119.010	230.073	262.957	-9.881	256.278	272.669	265.130	160.937	184.573	3.862	-65.654	103.678	181.545	165.463	0.00012715	0.00013866	4.6068e-05	1153.2	2.2016e-06	1.7123e-06	1228	244.85	3.304e-06	2.1389e-06	307.97	85.684	66.996	19.254	2.9575e-06	27.419	8.8081e-05	8.6102e-05	2.3929e-05	958.57	9.3489e-07	9.529e-07	1139.9	226.95	9.5473e-07	9.6401e-07	274.48	78.392	60.579	17.903	9.5774e-07	24.832	-11.024	7.232	16.158	-57.221	47.477	-42.766	-56.867	-49.885	19.054	170.897	-50.311	-43.813	-43.219	-36.803	54.914	-37.007	-8191	255	
347.219	1	1	0	0	0.14029	0.38528	0.23209	0.31766	0.13296	0.080581	0.12264	0.12567	0.057293	0.23375	0.32957	0.19178	0.058079	0.096642	0.24925	0.080071	-2.2062	-2.8688	-2.6646	-2.9625	-2.7042	-2.925	-3.0833	-2.5312	-2.7792	-2.85	-2.7854	-2.7333	-2.8646	-2.5542	-2.7062	-2.6437	226.540	68.601	79.344	262.486	86.759	57.602	265.226	283.573	82.689	57.442	87.985	253.632	178.870	-33.433	-63.694	-32.821	0.00016668	0.00027741	5.2216e-05	1157	1.7805e-06	3.8426e-07	1227.5	244.8	3.9764e-06	6.8219e-07	307.08	86.158	67.184	19.309	2.6054e-06	27.119	8.8855e-05	8.7533e-05	2.4268e-05	957.61	9.6098e-07	9.5987e-07	1138.6	227.55	9.4527e-07	9.3607e-07	274.02	78.368	60.531	17.904	9.3586e-07	24.781	-17.396	48.563	71.200	-57.086	-51.952	238.716	-57.062	-50.092	44.015	191.880	-50.227	-43.801	-43.087	-36.706	37.881	-37.467	-8191	255	
347.316	1	1	0	0	0.23432	0.32691	0.11009	0.10493	0.13892	0.061408	0.14388	0.11131	0.13284	0.1994	0.073349	0.14652	0.13244	0.32181	0.03672	0.10303	-2.2021	-2.8125	-2.4646	-2.7708	-2.8583	-2.4313	-2.9333	-2.5792	-2.5208	-2.9625	-2.6667	-2.9771	-2.6708	-2.5604	-2.7479	-2.7042	118.736	29.540	29.121	57.554	195.565	127.434	229.263	-45.142	108.787	204.931	150.975	31.016	163.041	244.400	291.042	228.354	0.00022356	0.0002122	7.068e-05	1157.9	1.8742e-06	3.2856e-06	1219.5	244.06	3.3665e-07	2.3049e-06	309.09	85.963	66.879	19.395	4.0407e-06	27.253	8.8372e-05	8.6122e-05	2.4008e-05	957.39	9.3523e-07	9.3235e-07	1136.7	226.55	9.3817e-07	9.2936e-07	274.14	78.259	60.407	17.949	9.3101e-07	24.803	-42.540	65.071	274.706	-57.130	232.923	122.056	-56.999	-49.990	255.554	179.176	-50.292	-43.708	-43.240	-36.142	43.384	-36.852	-8191	255	
347.436	1	1	0	0	0.23221	0.26449	0.14839	0.041693	0.1873	0.12179	0.1753	0.11021	0.12857	0.25757	0.20563	0.092341	0.11959	0.12119	0.23389	0.30621	-2.0396	-3.0229	-2.3875	-2.7792	-2.7979	-2.6229	-3.0833	-2.7646	-2.8083	-2.9104	-2.5771	-2.7625	-2.7271	-2.5167	-2.6729	-2.7292	15.494	75.554	-64.318	181.640	256.189	71.294	159.445	109.878	77.643	250.604	245.272	27.191	41.006	253.405	167.853	211.704	0.00017407	0.00012885	1.2292e-05	1148.1	2.3789e-06	5.5434e-06	1219.2	243.17	2.2488e-06	1.0623e-06	308.02	85.667	67.009	19.361	2.4446e-06	27.14	8.6677e-05	8.3731e-05	2.3055e-05	951.48	9.0872e-07	9.1381e-07	1133.8	225.97	9.1867e-07	9.012e-07	273.72	78.048	60.375	17.878	9.2975e-07	24.706	-27.556	222.646	25.231	-57.177	81.164	55.200	-56.959	-50.049	44.655	256.237	-50.462	-43.755	-42.961	-36.699	88.968	-36.930	-8191	255	
347.532	1	1	0	0	0.15725	0.20051	0.18416	0.17859	0.15213	0.078109	0.09965	0.0061624	0.13075	0.16686	0.12189	0.27704	0.059452	0.24723	0.16508	0.11628	-2.2625	-2.8854	-2.5271	-2.8083	-3.0312	-2.6292	-3.0687	-2.5167	-2.5771	-2.7583	-2.6937	-2.8063	-2.9	-2.6208	-2.8708	-2.5979	48.202	24.691	-45.578	218.983	202.313	-39.251	274.977	68.312	5.513	59.214	289.875	233.527	25.025	208.362	131.983	88.837	0.000262	0.00023054	3.8159e-05	1157.5	1.8497e-06	8.0141e-06	1219.7	243.17	2.0856e-06	2.3301e-06	307.08	85.239	66.916	19.293	3.5524e-07	27.206	8.8216e-05	8.5745e-05	2.3289e-05	953.35	9.2307e-07	9.2959e-07	1134.1	225.92	9.4249e-07	9.2843e-07	273.12	77.969	60.306	17.884	9.4549e-07	24.715	-49.053	8.773	284.593	-57.444	117.968	83.311	-56.976	-49.839	216.244	65.372	-50.248	-43.103	-43.279	-36.608	239.815	-37.173	-8191	255	
347.627	1	1	0	0	0.13274	0.065494	0.26423	0.11473	0.072078	0.20575	0.25974	0.3161	0.13902	0.24691	0.3093	0.24267	0.083557	0.061678	0.19216	0.20973	-2.3042	-2.8875	-2.7	-2.8604	-2.9458	-2.6354	-2.9417	-2.875	-2.6312	-2.9688	-2.6458	-2.725	-2.7208	-2.6125	-2.7625	-2.875	67.758	31.348	10.030	-10.546	121.026	143.964	154.024	-26.599	269.160	191.542	137.297	287.677	91.577	-59.564	125.398	13.473	0.00021478	0.0002773	5.8535e-05	1148.9	8.0197e-07	3.0354e-06	1223.8	243.75	3.8524e-06	1.3589e-06	307	85.573	66.4	19.129	3.4229e-06	27.364	8.8106e-05	8.5675e-05	2.3744e-05	952.06	9.4251e-07	9.4933e-07	1135.1	225.87	9.756e-07	9.6059e-07	273.1	78.055	60.301	17.882	9.5863e-07	24.75	-59.919	-31.232	258.257	-56.827	66.496	48.935	-56.986	-49.863	67.443	-2.464	-50.307	-43.764	-43.319	-36.290	134.072	-36.913	-8191	255	
347.723	1	1	0	0	0.21622	0.15637	0.28899	0.21258	0.14052	0.17398	0.12636	0.20701	0.064797	0.20208	0.15554	0.1111	0.063906	0.10059	0.19736	0.22857	-2.1833	-2.8937	-2.5854	-2.8187	-2.7333	-2.5396	-2.8917	-2.9479	-2.5042	-3.0271	-2.7667	-2.6312	-2.9229	-2.6083	-2.7438	-2.7729	153.911	30.322	60.596	207.397	231.533	197.038	266.200	239.896	94.638	274.809	-45.487	169.761	119.367	21.401	150.973	221.159	0.00017502	0.00013178	7.184e-05	1156	3.1118e-06	2.5119e-07	1221.8	244.4	2.4668e-06	3.2569e-06	308.57	85.226	67.315	19.224	3.1153e-06	27.114	9.1308e-05	8.8166e-05	2.4366e-05	956.61	9.7914e-07	9.7451e-07	1134.7	226.59	9.9225e-07	9.9613e-07	273.98	78.34	60.765	17.958	1.003e-06	24.869	-27.751	65.618	30.376	-57.650	48.728	32.240	-57.109	-49.846	60.015	56.928	-50.596	-43.640	-43.268	-36.782	229.736	-37.066	-8191	255	
347.821	1	1	0	0	0.3301	0.047404	0.28768	0.25776	0.16699	0.18118	0.18821	0.24354	0.41113	0.072047	0.15911	0.10575	0.27829	0.15674	0.10457	0.079185	-2.0729	-2.6917	-2.6	-2.5625	-3.0521	-2.6521	-2.9292	-2.8979	-2.4417	-2.7875	-2.725	-2.6104	-2.8208	-2.7313	-2.5417	-2.8417	49.528	-57.853	144.586	192.267	-10.861	249.074	245.465	103.826	-62.947	-33.023	-60.555	214.446	1.433	249.578	135.576	120.510	0.00029833	0.00031822	9.354e-05	1161.4	2.4612e-06	1.1167e-06	1226.8	246.09	1.8159e-06	4.5014e-07	307.48	86.024	67.223	19.258	3.1059e-06	27.346	9.3893e-05	9.2601e-05	2.5711e-05	963.02	1.0186e-06	1.0168e-06	1140.8	227.74	1.0256e-06	1.0078e-06	274.95	78.852	60.924	18.018	1.0251e-06	24.902	291.783	8.763	-40.387	-57.421	-40.023	37.699	-57.015	-50.188	230.733	-23.514	-50.278	-43.737	-43.466	-36.642	40.911	-37.138	-8191	255	
#DATA ENDS
