BOXY.EXE: ISS Imagent and Oximeter Data Acquisition Program Version 0.80
Ascii Record File

#ACQ INFORMATION
2  Detector Channels 
16  External MUX Channels 
1  Auxiliary Channels 
5000  Waveform (CCF) Frequency (Hz)
1  Waveforms Skipped 
30  Waveforms Averaged 
1  Cycles Averaged 
16  Acquisitions per Waveform 
10.0806  Updata Rate (Hz) 

#FILE INFORMATION
TRUE -- External MUX Channel results are PARSED.
FALSE -- AC DC and Phase are NOT grouped.
TRUE -- Companion Program Settings File CREATED.
FALSE -- AC data not excluded
FALSE -- DC data not excluded
FALSE -- Phase data not excluded
FALSE -- Auxillary Chn. data not excluded
Tab delimiters

#CALIBRATION STATE
TRUE -- Waveform Calibration Values APPLIED.


#AUX CALIBRATION VALUES
Val Type	aux-1	

Term	1.0000e+00	
Factor	0.0000e+00	


#WF CALIBRATION VALUES
A = Detector Channel
Val Type	A-AC1	A-AC2	A-AC3	A-AC4	A-AC5	A-AC6	A-AC7	A-AC8	A-AC9	A-AC10	A-AC11	A-AC12	A-AC13	A-AC14	A-AC15	A-AC16	A-DC1	A-DC2	A-DC3	A-DC4	A-DC5	A-DC6	A-DC7	A-DC8	A-DC9	A-DC10	A-DC11	A-DC12	A-DC13	A-DC14	A-DC15	A-DC16	A-Ph1	A-Ph2	A-Ph3	A-Ph4	A-Ph5	A-Ph6	A-Ph7	A-Ph8	A-Ph9	A-Ph10	A-Ph11	A-Ph12	A-Ph13	A-Ph14	A-Ph15	A-Ph16	

Term	0.00000e+00	0.00000e+00	0.00000e+00	0.00000e+00	0.00000e+00	0.00000e+00	0.00000e+00	0.00000e+00	0.00000e+00	0.00000e+00	0.00000e+00	0.00000e+00	0.00000e+00	0.00000e+00	0.00000e+00	0.00000e+00	0.00000e+00	0.00000e+00	0.00000e+00	0.00000e+00	0.00000e+00	0.00000e+00	0.00000e+00	0.00000e+00	0.00000e+00	0.00000e+00	0.00000e+00	0.00000e+00	0.00000e+00	0.00000e+00	0.00000e+00	0.00000e+00	0.00000e+00	0.00000e+00	0.00000e+00	0.00000e+00	0.00000e+00	0.00000e+00	0.00000e+00	0.00000e+00	0.00000e+00	0.00000e+00	0.00000e+00	0.00000e+00	0.00000e+00	0.00000e+00	0.00000e+00	0.00000e+00	
Factor	1.00000e+00	1.00000e+00	1.00000e+00	1.00000e+00	1.00000e+00	1.00000e+00	1.00000e+00	1.00000e+00	1.00000e+00	1.00000e+00	1.00000e+00	1.00000e+00	1.00000e+00	1.00000e+00	1.00000e+00	1.00000e+00	1.00000e+00	1.00000e+00	1.00000e+00	1.00000e+00	1.00000e+00	1.00000e+00	1.00000e+00	1.00000e+00	1.00000e+00	1.00000e+00	1.00000e+00	1.00000e+00	1.00000e+00	1.00000e+00	1.00000e+00	1.00000e+00	X	X	X	X	X	X	X	X	X	X	X	X	X	X	X	X	

B = Detector Channel
Val Type	B-AC1	B-AC2	B-AC3	B-AC4	B-AC5	B-AC6	B-AC7	B-AC8	B-AC9	B-AC10	B-AC11	B-AC12	B-AC13	B-AC14	B-AC15	B-AC16	B-DC1	B-DC2	B-DC3	B-DC4	B-DC5	B-DC6	B-DC7	B-DC8	B-DC9	B-DC10	B-DC11	B-DC12	B-DC13	B-DC14	B-DC15	B-DC16	B-Ph1	B-Ph2	B-Ph3	B-Ph4	B-Ph5	B-Ph6	B-Ph7	B-Ph8	B-Ph9	B-Ph10	B-Ph11	B-Ph12	B-Ph13	B-Ph14	B-Ph15	B-Ph16	

Term	0.00000e+00	0.00000e+00	0.00000e+00	0.00000e+00	0.00000e+00	0.00000e+00	0.00000e+00	0.00000e+00	0.00000e+00	0.00000e+00	0.00000e+00	0.00000e+00	0.00000e+00	0.00000e+00	0.00000e+00	0.00000e+00	0.00000e+00	0.00000e+00	0.00000e+00	0.00000e+00	0.00000e+00	0.00000e+00	0.00000e+00	0.00000e+00	0.00000e+00	0.00000e+00	0.00000e+00	0.00000e+00	0.00000e+00	0.00000e+00	0.00000e+00	0.00000e+00	2.70886e+01	-1.47570e+02	-1.59823e+02	-1.87769e+02	-7.16749e+01	-1.02766e+02	-1.57019e+02	-1.62015e+02	-1.01898e+02	-8.89711e+01	-1.73571e+02	-1.72116e+02	-1.82981e+02	-1.77625e+02	-1.07765e+02	-1.50887e+02	
Factor	4.90076e-05	9.02078e-05	2.72429e-05	5.41330e-01	1.00772e-06	1.22008e-06	1.72070e-01	5.71424e-02	1.21130e-06	1.00603e-06	1.10401e-01	3.27385e-02	3.12637e-02	9.63839e-03	1.14382e-06	1.41262e-02	4.51512e-07	4.55847e-07	1.26572e-07	2.20301e-01	4.97833e-09	4.98109e-09	7.62968e-02	2.65919e-02	4.98129e-09	4.97910e-09	4.73171e-02	1.42145e-02	1.38173e-02	4.35854e-03	4.97014e-09	6.06963e-03	X	X	X	X	X	X	X	X	X	X	X	X	X	X	X	X	



#DISTANCE SETTINGS
A = Detector Channel
A-1	A-2	A-3	A-4	A-5	A-6	A-7	A-8	A-9	A-10	A-11	A-12	A-13	A-14	A-15	A-16	

2.5000e+00	3.0000e+00	2.5000e+00	3.0000e+00	2.0000e+00	3.0000e+00	1.5000e+00	3.0000e+00	3.0000e+00	3.0000e+00	3.0000e+00	3.0000e+00	3.0000e+00	3.0000e+00	1.5000e+00	3.0000e+00	

B = Detector Channel
B-1	B-2	B-3	B-4	B-5	B-6	B-7	B-8	B-9	B-10	B-11	B-12	B-13	B-14	B-15	B-16	

1.0000e+01	1.0000e+01	1.0000e+01	1.4400e+00	1.0000e+01	1.0000e+01	1.5100e+00	1.9400e+00	1.0000e+01	1.0000e+01	1.9900e+00	2.4900e+00	2.4100e+00	2.9000e+00	1.0000e+01	2.9800e+00	




#DATA BEGINS
time	group	step	mark	flag	A-AC1	A-AC2	A-AC3	A-AC4	A-AC5	A-AC6	A-AC7	A-AC8	A-AC9	A-AC10	A-AC11	A-AC12	A-AC13	A-AC14	A-AC15	A-AC16	A-DC1	A-DC2	A-DC3	A-DC4	A-DC5	A-DC6	A-DC7	A-DC8	A-DC9	A-DC10	A-DC11	A-DC12	A-DC13	A-DC14	A-DC15	A-DC16	A-Ph1	A-Ph2	A-Ph3	A-Ph4	A-Ph5	A-Ph6	A-Ph7	A-Ph8	A-Ph9	A-Ph10	A-Ph11	A-Ph12	A-Ph13	A-Ph14	A-Ph15	A-Ph16	B-AC1	B-AC2	B-AC3	B-AC4	B-AC5	B-AC6	B-AC7	B-AC8	B-AC9	B-AC10	B-AC11	B-AC12	B-AC13	B-AC14	B-AC15	B-AC16	B-DC1	B-DC2	B-DC3	B-DC4	B-DC5	B-DC6	B-DC7	B-DC8	B-DC9	B-DC10	B-DC11	B-DC12	B-DC13	B-DC14	B-DC15	B-DC16	B-Ph1	B-Ph2	B-Ph3	B-Ph4	B-Ph5	B-Ph6	B-Ph7	B-Ph8	B-Ph9	B-Ph10	B-Ph11	B-Ph12	B-Ph13	B-Ph14	B-Ph15	B-Ph16	aux-1	digaux	

256.732	1	1	0	768	0.14005	0.10781	0.25885	0.10269	0.048155	0.10942	0.20023	0.30576	0.10868	0.25606	0.051823	0.074971	0.12933	0.29612	0.18304	0.16559	-2.2729	-3.0646	-2.9917	-3.1375	-2.9604	-2.7833	-3.2146	-2.9583	-2.6729	-3.0438	-2.8042	-2.9229	-2.9437	-2.8063	-3.0229	-2.8604	138.488	45.836	2.834	134.537	-38.940	59.766	202.959	206.637	179.079	22.000	222.511	257.484	250.813	186.804	41.070	242.000	0.00063194	0.0004948	7.4477e-05	1366.6	3.771e-06	4.3279e-06	1379	369.72	1.0116e-05	3.4921e-06	423.28	141.84	122.86	42.155	8.8012e-06	52.155	0.00057984	0.00057826	0.00015975	1405.3	6.3303e-06	6.2859e-06	1400.3	377.5	6.2944e-06	6.256e-06	431.96	145.12	126.35	43.423	6.2281e-06	53.76	-37.799	14.629	-73.590	-60.464	-11.240	122.948	-60.529	-55.656	184.783	68.095	-56.307	-51.838	-51.169	-46.762	75.092	-47.799	-8191	255	
256.828	1	1	0	0	0.11154	0.13622	0.15306	0.42324	0.13818	0.19315	0.34424	0.14878	0.092211	0.054118	0.074266	0.16348	0.11555	0.096896	0.18141	0.20269	-2.3438	-2.9271	-2.6146	-2.775	-2.9771	-2.5563	-3.0104	-2.9667	-2.8354	-2.975	-2.8792	-2.9729	-3.1104	-2.9708	-3.1021	-3.2417	78.130	203.260	34.907	123.869	78.020	-42.359	199.562	240.961	218.740	178.500	96.927	198.251	75.257	56.592	-60.806	272.756	0.00038319	0.000638	0.00017287	1373.9	4.7458e-06	4.9576e-06	1367.6	366.5	7.5789e-06	2.9785e-07	421.01	140.19	121.61	41.787	3.2875e-06	52.074	0.00057357	0.00057058	0.00015913	1400.9	6.2929e-06	6.2353e-06	1388.9	374.6	6.1502e-06	6.0588e-06	427.92	143.56	124.56	42.806	5.8554e-06	52.994	-66.026	18.097	62.463	-60.510	156.907	121.691	-60.465	-55.682	130.976	146.259	-56.493	-51.776	-51.301	-46.921	59.307	-47.717	-8191	255	
256.924	1	1	0	0	0.15591	0.095987	0.030615	0.15827	0.074473	0.13637	0.1073	0.25435	0.26656	0.075468	0.30761	0.27227	0.18548	0.20154	0.099436	0.43266	-2.4833	-2.9813	-3.0521	-2.9521	-3.0563	-2.9333	-3.2146	-3.2938	-2.8854	-3.2104	-3.0604	-3.0167	-3.15	-2.8479	-3.0312	-3.1437	198.508	8.588	243.964	140.868	70.961	138.335	224.578	170.407	225.255	228.376	219.180	284.675	165.966	195.110	81.916	271.685	0.00025079	0.00072472	0.00016133	1365.1	9.2438e-06	4.9683e-06	1348.7	365.16	7.0891e-06	1.2881e-05	418.18	139.83	120.96	41.732	8.3531e-06	51.729	0.00053057	0.0005258	0.00014612	1362.2	5.6866e-06	5.6698e-06	1362.8	369.93	5.6572e-06	5.6079e-06	422.27	141.61	122.55	42.355	5.535e-06	52.353	-24.740	116.900	-27.974	-60.105	71.079	58.778	-60.524	-55.590	20.360	-6.260	-56.064	-51.699	-51.068	-47.006	3.295	-47.854	-8191	255	
257.020	1	1	0	0	0.32832	0.39965	0.11936	0.16515	0.14704	0.32781	0.28594	0.052882	0.065807	0.3834	0.25706	0.15493	0.24324	0.44994	0.11185	0.26567	-2.5292	-2.9708	-2.7583	-2.7938	-2.9188	-2.9292	-3.3667	-3.3354	-2.9229	-3.2229	-3.1583	-2.8396	-3.25	-2.9271	-2.9437	-3.1396	160.914	273.524	4.284	45.200	76.969	171.445	276.089	-45.597	-9.822	24.729	17.380	-42.742	12.679	283.094	272.830	238.310	0.00044013	0.00018317	0.00022656	1342.7	4.0593e-06	5.2895e-06	1347.7	364.88	1.372e-06	5.4432e-06	417.35	139.39	121.36	41.567	9.3275e-06	51.85	0.000511	0.00051067	0.00014179	1348.6	5.6202e-06	5.6144e-06	1360.6	369.57	5.6501e-06	5.6102e-06	421.68	141.48	122.77	42.379	5.6123e-06	52.443	-30.441	205.155	-56.257	-60.195	90.890	-70.030	-60.437	-55.860	44.419	117.445	-56.332	-51.919	-51.083	-46.908	194.561	-47.765	-8191	255	
257.114	1	1	0	0	0.27744	0.2085	0.090935	0.158	0.18949	0.37838	0.15027	0.33906	0.17914	0.071597	0.26394	0.52213	0.29442	0.18278	0.062872	0.26627	-2.5875	-3.0833	-2.8438	-2.7104	-3.1083	-2.8563	-3.1146	-3.1396	-2.875	-2.9833	-3.0625	-2.6896	-3.2062	-2.8021	-3.0021	-3.2458	139.209	104.878	201.891	95.500	77.324	211.599	177.463	266.250	-60.777	-40.951	178.436	-65.920	-33.558	264.645	106.118	180.004	0.00020155	0.00066137	0.00016563	1347.1	1.8778e-06	6.579e-06	1349.6	364.7	8.4068e-06	5.9179e-06	418.37	138.92	121.14	41.631	2.4921e-06	51.445	0.00051025	0.00051033	0.00014194	1347.4	5.5448e-06	5.5409e-06	1359.6	369.08	5.461e-06	5.4451e-06	419.74	140.84	122.1	42.255	5.3703e-06	52.153	-62.549	-70.168	267.796	-60.538	-20.953	15.724	-60.351	-55.665	153.783	103.238	-56.369	-51.894	-51.109	-46.750	55.811	-47.400	-8191	255	
257.212	1	1	0	0	0.12202	0.22307	0.22678	0.10351	0.19819	0.20663	0.20308	0.16473	0.22378	0.10357	0.14447	0.14362	0.31812	0.13787	0.27885	0.38807	-2.325	-2.8875	-3.1188	-2.9792	-3.1354	-2.8563	-3.0187	-3.0687	-2.7625	-3.1583	-3.1958	-2.9958	-3.1542	-3.1375	-2.9313	-3.3	-4.585	176.644	169.066	-16.249	236.277	218.451	249.623	-25.792	285.461	213.012	212.543	89.355	243.457	-35.621	-17.859	205.696	0.00032252	0.00025307	7.4272e-05	1342.9	2.8255e-06	3.5463e-06	1349	363.87	6.0583e-06	3.9922e-06	415.29	139.13	120.92	41.431	7.9841e-06	51.414	0.00048629	0.00048643	0.00013498	1333.6	5.1937e-06	5.1655e-06	1352.8	365.92	5.0216e-06	5.0111e-06	414.25	139.39	120.61	41.645	4.9162e-06	51.342	-47.860	-32.277	31.246	-60.602	-43.427	219.570	-60.442	-55.641	122.052	75.701	-56.199	-51.570	-51.026	-46.940	18.096	-47.544	-8191	255	
257.331	1	1	0	0	0.13168	0.1944	0.093991	0.10835	0.1828	0.20439	0.3768	0.26083	0.070458	0.22878	0.26332	0.11606	0.057569	0.044494	0.1034	0.1338	-2.4562	-2.7938	-3.0938	-2.7021	-3.0312	-2.95	-3.0312	-3.4125	-2.9917	-2.9854	-3.3271	-3.1188	-3.15	-3.1937	-3.0062	-3.225	136.687	147.871	244.287	-31.586	-1.070	263.989	-67.252	225.835	60.804	185.597	128.342	-55.820	191.959	-38.069	121.950	240.592	0.0003758	0.00042041	0.00018947	1344.5	4.0474e-06	9.2556e-06	1345.9	363.21	5.4852e-06	9.6031e-06	416.25	139.05	120.66	41.514	9.5994e-06	51.315	0.00044809	0.00044795	0.00012491	1312.2	4.867e-06	4.8503e-06	1343.3	363.98	4.8683e-06	4.8867e-06	413.03	138.77	120.24	41.603	4.8531e-06	51.208	-57.876	1.685	31.942	-60.519	159.532	62.818	-60.488	-55.787	67.077	52.516	-56.227	-51.746	-51.133	-46.872	46.360	-47.707	-8191	255	
257.427	1	1	0	0	0.10587	0.24114	0.19412	0.34154	0.077657	0.35527	0.18098	0.10738	0.051901	0.12365	0.1722	0.18749	0.29568	0.065622	0.32483	0.15244	-2.6083	-2.9167	-3.1312	-2.8021	-3.025	-2.9646	-2.8917	-3.2521	-3.0563	-2.9	-3.4104	-2.9021	-3.0604	-2.9604	-2.8083	-3.2354	40.984	249.976	265.019	232.215	248.175	57.534	258.286	194.328	142.134	-66.670	147.161	-30.519	-56.736	114.599	72.000	261.325	0.00025157	0.00036715	0.0001367	1348	2.1533e-06	1.7656e-06	1340.7	363.45	4.0574e-06	2.4975e-06	415.37	138.99	121.12	41.339	4.4073e-06	51.204	0.00044373	0.00044411	0.00012306	1307.3	4.8022e-06	4.8325e-06	1342.2	363.64	4.7933e-06	4.8196e-06	411.58	138.52	120.12	41.503	4.7806e-06	51.118	-22.568	2.201	-58.522	-60.609	99.595	-54.491	-60.418	-55.611	72.720	23.386	-56.360	-51.767	-51.262	-46.884	38.569	-47.286	-8191	255	
257.524	1	1	0	0	0.23994	0.12908	0.14426	0.22678	0.22907	0.099528	0.2182	0.20827	0.076616	0.18631	0.05122	0.15638	0.063236	0.15463	0.147	0.18392	-2.5729	-2.9333	-3.2479	-2.8312	-2.9104	-3.0104	-2.925	-2.9875	-2.8958	-2.8042	-3.2021	-3.0208	-3.0687	-3.2771	-2.8792	-3.0979	-55.609	179.876	233.854	245.837	171.527	76.626	186.695	-72.703	244.653	256.056	171.525	123.192	239.104	213.381	62.822	180.319	0.00042714	0.00027697	7.0957e-05	1343.6	4.802e-06	2.0137e-06	1344.9	363.18	3.4593e-06	2.7231e-06	415.97	138.97	120.9	41.487	9.5671e-06	51.366	0.00043568	0.00043738	0.00012074	1305.5	4.7502e-06	4.7719e-06	1342	362.84	4.7628e-06	4.7803e-06	411.1	138.54	119.98	41.471	4.7274e-06	51.093	-49.143	-10.178	-2.211	-60.522	-19.219	40.350	-60.475	-55.790	-16.285	168.913	-56.145	-51.797	-50.929	-46.814	172.686	-47.669	-8191	255	
257.620	1	1	0	0	0.10112	0.077956	0.13157	0.16627	0.072397	0.15948	0.24587	0.078408	0.13008	0.20456	0.068406	0.13753	0.15424	0.30126	0.1505	0.093057	-2.6458	-2.8333	-3.1271	-3.0875	-2.8875	-3.0625	-2.8979	-3.1229	-2.9313	-2.7562	-3.2625	-3.1396	-3.1479	-3.1542	-2.9708	-3.1604	33.521	157.894	-39.283	26.871	-4.693	83.577	238.592	101.742	13.638	91.984	250.135	9.031	1.684	224.434	80.508	217.631	0.0001923	0.00026199	0.00011643	1347.5	7.0429e-06	4.4121e-06	1344.5	362.65	5.3835e-06	1.0516e-05	415.28	138.89	120.73	41.57	1.0652e-06	51.107	0.0004312	0.0004305	0.00011932	1304.6	4.7364e-06	4.7522e-06	1341.6	362.6	4.7417e-06	4.7432e-06	410.51	138.33	119.88	41.534	4.7091e-06	51.02	-64.965	75.961	-11.312	-60.384	77.202	280.892	-60.436	-55.796	262.409	88.147	-56.124	-51.740	-51.271	-46.754	41.908	-47.596	-8191	255	
257.716	1	1	0	0	0.22038	0.13383	0.12899	0.29601	0.16393	0.26743	0.19394	0.40588	0.34704	0.17547	0.047321	0.17242	0.094798	0.21743	0.099226	0.086853	-2.6833	-2.7417	-3.1021	-2.9979	-3.0354	-3.2521	-3.1167	-3.2667	-3.2979	-2.7687	-3.1083	-2.7583	-2.6437	-3.0312	-2.8479	-3.1417	-13.885	-26.782	212.488	222.898	60.048	-56.828	171.792	-64.326	-40.997	91.731	226.766	-65.291	78.245	-11.747	282.325	208.590	0.00066643	0.00033579	9.547e-05	1342.1	7.3577e-06	5.1071e-06	1344.3	362.59	2.8793e-06	5.3345e-06	414.45	138.56	120.92	41.553	7.8242e-06	51.314	0.0004312	0.00043095	0.00011872	1302.5	4.7068e-06	4.6912e-06	1339.4	361.64	4.6918e-06	4.6785e-06	409.37	137.95	119.78	41.464	4.6616e-06	50.908	-48.757	-37.413	63.917	-60.376	45.975	147.574	-60.424	-55.662	166.683	284.059	-56.473	-51.687	-51.202	-46.923	48.961	-47.477	-8191	255	
257.812	1	1	0	0	0.046545	0.14784	0.12508	0.13126	0.096445	0.18612	0.14941	0.19789	0.071089	0.18061	0.12242	0.11868	0.082763	0.13057	0.14455	0.15097	-2.7396	-2.9646	-3.1646	-2.9688	-2.9021	-3.0771	-3.0625	-3.0792	-3.3042	-2.775	-3.175	-3.0896	-2.8292	-3.1437	-3.0146	-2.9771	82.929	257.604	249.561	38.502	272.645	0.106	226.609	235.661	-46.968	-26.092	209.770	-49.158	245.010	-51.578	-48.213	-27.766	0.00038007	0.00069758	9.5151e-05	1342.2	3.8101e-06	9.2295e-06	1342.1	362.39	3.4216e-06	3.181e-06	414.65	138.75	120.19	41.368	7.0492e-06	51.141	0.00042711	0.00042644	0.00011869	1304.5	4.6784e-06	4.6658e-06	1339.7	361.54	4.6587e-06	4.6465e-06	408.9	137.81	119.19	41.329	4.605e-06	50.845	-25.835	-51.689	226.014	-60.674	40.827	0.660	-60.360	-55.636	29.920	25.746	-56.277	-51.826	-51.309	-46.684	96.101	-47.839	-8191	255	
257.908	1	1	0	0	0.15735	0.0054652	0.086316	0.2428	0.11893	0.042935	0.17586	0.14488	0.24209	0.050114	0.22705	0.19332	0.1145	0.20572	0.076155	0.18602	-2.7354	-2.7812	-3.0292	-3.0104	-2.8063	-3.1417	-3.2167	-3.0708	-3.1521	-2.8812	-3.1979	-3.2104	-2.8	-3.075	-3.0042	-3.1271	246.570	192.050	284.778	-50.187	57.334	209.258	160.406	-25.067	185.717	152.851	-73.088	262.372	117.317	239.986	254.722	229.922	0.00035127	0.00042746	0.00016544	1343.1	3.21e-06	1.7874e-06	1339.3	361.21	4.5069e-06	2.5209e-06	414.84	138.76	120.04	41.356	8.737e-06	51.271	0.0004266	0.00042305	0.00011882	1299.9	4.6892e-06	4.6794e-06	1336.6	361.54	4.7397e-06	4.6944e-06	410.13	138.22	119.33	41.42	4.7206e-06	51.041	-57.869	16.373	-51.135	-60.654	72.293	166.279	-60.306	-55.694	215.065	41.232	-56.207	-51.811	-51.207	-46.676	-35.652	-47.423	-8191	255	
258.027	1	1	0	0	0.019155	0.15755	0.075803	0.22959	0.12797	0.087699	0.10116	0.14407	0.38537	0.22151	0.10722	0.13856	0.042886	0.28818	0.11701	0.2836	-2.8208	-2.7625	-3.075	-3.1688	-2.5312	-3.0563	-3.3354	-2.9917	-3.0521	-2.7333	-3.0104	-2.8958	-2.6875	-2.9417	-2.925	-2.7958	282.809	163.310	-7.331	264.322	170.123	206.627	123.764	267.795	-69.940	57.264	233.579	238.567	-59.519	-67.941	114.553	149.923	0.00015082	0.0006475	0.00011071	1332	1.9481e-06	8.8539e-06	1339.9	362.37	2.4332e-06	3.7224e-06	415.09	138.22	119.82	41.43	1.1638e-06	51.387	0.00043357	0.00042983	0.00011988	1302.1	4.7277e-06	4.6884e-06	1337.8	361.67	4.695e-06	4.709e-06	409.29	137.88	119.24	41.371	4.6793e-06	50.901	-18.148	3.672	3.074	-60.544	15.670	40.272	-60.520	-55.592	174.748	42.868	-56.224	-51.714	-51.514	-46.839	115.204	-47.509	-8191	255	
258.123	1	1	0	0	0.074721	0.32618	0.10286	0.098415	0.085569	0.2639	0.2938	0.17915	0.16032	0.30599	0.16077	0.2053	0.20739	0.1099	0.14976	0.01398	-2.725	-2.8812	-2.9562	-3.2146	-2.7604	-3.1583	-3.2479	-2.8958	-3.1146	-2.8688	-2.8917	-3.1	-2.9396	-2.9396	-2.8667	-2.8667	-16.663	199.069	95.800	53.582	245.295	7.401	184.624	178.260	154.663	89.364	161.178	-73.341	276.710	-61.517	-68.505	53.242	0.00039844	0.00082892	3.5309e-05	1329.7	3.6411e-06	1.3395e-05	1335.3	360.45	6.715e-06	3.7326e-06	414.12	138.2	119.45	41.151	5.7361e-06	51.208	0.00042686	0.00042458	0.00011852	1293.1	4.6569e-06	4.6541e-06	1330.6	360.79	4.662e-06	4.6417e-06	408.71	137.48	118.96	41.181	4.6663e-06	50.843	-25.722	-6.934	-13.480	-60.520	-30.978	-48.121	-60.505	-55.575	245.912	13.147	-56.272	-51.799	-51.212	-46.718	4.603	-47.507	-8191	255	
258.219	1	1	0	0	0.027463	0.058869	0.19513	0.21372	0.26616	0.20301	0.28925	0.28574	0.14561	0.23275	0.18009	0.18471	0.15873	0.34738	0.10633	0.15485	-2.7354	-2.9896	-2.825	-2.9646	-2.7667	-2.8812	-3.2062	-2.7375	-3.0396	-2.7896	-2.7792	-3.0646	-2.9208	-3.05	-2.9292	-2.7979	204.439	-10.751	-68.734	233.476	71.661	162.829	248.480	-48.484	-42.758	16.523	224.442	277.255	143.368	225.926	56.514	16.262	0.00049879	0.00064697	4.8676e-05	1332.2	9.9715e-07	1.7531e-06	1331.4	360.71	4.4857e-06	3.59e-06	412.37	137.77	119.62	41.354	4.0372e-06	51.178	0.00042557	0.00042615	0.00011821	1293	4.6476e-06	4.6475e-06	1328.9	359.97	4.6439e-06	4.6618e-06	408.2	137.37	118.62	41.216	4.66e-06	50.778	-48.301	85.152	-48.154	-60.347	-66.127	125.078	-60.334	-55.630	13.952	46.446	-56.105	-51.414	-51.156	-46.829	69.021	-47.148	-8191	255	
258.293	1	1	0	0	0.26989	0.07691	0.078479	0.039728	0.066068	0.23447	0.1433	0.25776	0.14938	0.14798	0.13064	0.25176	0.072588	0.13125	0.050138	0.27099	-2.6042	-2.7708	-3.0104	-3.2396	-2.8771	-3.0396	-3.4688	-2.9917	-3.0417	-3.1021	-2.9437	-3.2438	-2.7125	-2.7125	-2.875	-2.9188	56.132	37.359	13.491	-44.175	136.679	168.128	264.901	-47.700	273.702	223.437	213.900	268.432	113.893	138.896	130.450	209.589	0.00029989	0.00066741	4.5592e-05	1323	6.4365e-06	8.2503e-06	1331.3	361.11	4.6254e-06	1.1507e-06	411.95	137.84	120.07	41.535	1.727e-06	51.241	0.00042716	0.00042614	0.00011889	1291.2	4.6633e-06	4.7034e-06	1329.9	360.19	4.6974e-06	4.6992e-06	408.45	137.57	119.05	41.413	4.7391e-06	50.908	-20.499	-41.162	159.756	-60.320	9.329	103.437	-60.316	-55.643	110.109	125.862	-56.224	-51.567	-51.100	-46.619	145.103	-47.410	-8191	255	
258.412	1	1	0	0	0.12631	0.28927	0.36956	0.31682	0.14029	0.18687	0.078477	0.073767	0.01083	0.23223	0.12853	0.20351	0.099936	0.040276	0.055588	0.14015	-2.4229	-2.8937	-2.7458	-3.0125	-2.7542	-2.8021	-3.4417	-2.9667	-3.0396	-2.9771	-3.0438	-3.2417	-3.0104	-3.1125	-3.3542	-2.8104	53.383	156.411	246.763	275.378	127.693	280.279	198.757	278.728	-61.976	-19.833	183.537	-33.505	238.160	138.693	-18.830	203.296	0.00061439	0.00022521	0.00020996	1339.3	5.2888e-06	3.0438e-06	1335.1	361.27	3.0025e-06	9.5628e-07	413.16	138.56	120.2	41.34	9.6071e-06	51.263	0.00043606	0.00043721	0.00012249	1303.9	4.8113e-06	4.8248e-06	1335	361.66	4.8247e-06	4.8966e-06	410.75	138.37	119.75	41.568	4.9153e-06	51.222	-41.253	47.284	-25.526	-60.241	54.983	-45.952	-60.479	-55.592	123.507	-3.654	-56.273	-51.534	-51.020	-46.607	44.092	-47.696	-8191	255	
258.508	1	1	0	0	0.19813	0.17644	0.21957	0.056807	0.20393	0.19855	0.10749	0.17352	0.20224	0.22245	0.19064	0.24124	0.13182	0.15149	0.10592	0.1565	-2.6083	-3.2271	-2.7458	-3.1562	-2.9688	-2.8187	-3.3708	-2.9271	-2.8625	-2.9688	-2.8792	-3.0708	-3.0375	-2.7375	-3.2313	-2.9042	28.772	283.197	123.055	-71.475	187.429	193.789	169.867	163.950	42.847	228.663	231.752	-71.271	-60.362	151.802	202.207	253.445	0.00036658	0.00033075	0.00014725	1338.9	9.4164e-07	1.0662e-05	1339.4	362.82	9.3032e-06	1.0976e-05	415.07	138.63	121	41.417	7.1676e-06	51.338	0.00045428	0.00045651	0.00012716	1314.8	5.0017e-06	5.0441e-06	1343.2	363.81	5.0748e-06	5.0733e-06	413.83	139.11	120.65	41.868	5.0991e-06	51.482	-15.606	10.653	-31.046	-60.769	158.543	70.778	-60.371	-55.628	26.539	48.431	-56.365	-51.692	-51.166	-46.731	12.841	-47.393	-8191	255	
258.604	1	1	0	0	0.14101	0.24906	0.041028	0.093473	0.088597	0.2773	0.044547	0.16425	0.082427	0.17339	0.094505	0.20398	0.27773	0.25421	0.077553	0.24453	-2.4417	-3.0458	-2.6458	-2.9854	-3.0021	-2.8937	-3.3833	-3.0104	-2.8937	-3.1875	-2.9375	-3.1354	-3.0667	-2.9917	-3.0417	-2.9396	41.983	62.168	223.004	2.021	120.180	256.206	275.506	219.387	166.730	42.614	37.313	214.484	259.592	243.039	275.567	245.735	0.00047768	0.00034936	0.00014493	1335.5	9.4189e-06	9.5814e-06	1345.6	364.99	6.1367e-06	8.9265e-06	417.33	139.35	121.48	41.767	6.283e-06	51.662	0.00047211	0.00047592	0.00013182	1327.6	5.2857e-06	5.2826e-06	1351.3	367	5.3616e-06	5.3817e-06	418.36	140.64	122.4	42.417	5.4983e-06	52.333	-7.843	90.239	246.227	-60.500	122.172	-3.439	-60.426	-55.709	197.100	126.916	-56.169	-51.619	-51.195	-46.658	98.027	-47.784	-8191	255	
258.725	1	1	0	0	0.29918	0.22729	0.054412	0.25913	0.13693	0.13073	0.16436	0.29971	0.12298	0.065792	0.21746	0.42952	0.11661	0.10419	0.14736	0.24663	-2.3396	-2.9917	-2.7188	-2.9021	-2.8792	-2.8229	-3.2333	-3.0146	-2.6875	-2.9417	-2.7812	-2.85	-3.1583	-2.6771	-2.9813	-3.0104	147.101	-39.052	217.451	259.327	-38.544	188.472	176.191	-45.133	71.441	64.683	158.539	276.992	80.963	138.755	-66.630	165.103	0.00016215	5.2944e-05	0.00011681	1360	7.0381e-06	1.1126e-05	1357.5	366.2	6.4499e-06	2.7755e-06	419.4	140.14	122.86	42.121	3.7319e-06	52.172	0.0005144	0.00051536	0.0001439	1359.9	5.7443e-06	5.7491e-06	1372.4	371.2	5.8201e-06	5.8144e-06	425.18	143.1	124.51	43.115	5.8006e-06	53.058	-4.547	231.443	-63.652	-60.730	20.051	64.449	-60.415	-55.626	4.320	261.896	-56.242	-51.747	-51.119	-46.891	113.551	-47.583	-8191	255	
258.821	1	1	0	0	0.17138	0.22319	0.12883	0.068179	0.049039	0.14783	0.57289	0.35331	0.21875	0.13821	0.25047	0.17574	0.37858	0.19009	0.023002	0.094617	-2.4021	-2.9708	-2.7083	-3.0625	-3.0896	-2.7417	-3.2958	-2.9583	-2.8979	-3.1937	-3.0271	-3.025	-3.0396	-3.0292	-3.1396	-3.0354	-3.999	175.576	51.586	39.521	213.549	92.842	214.354	191.357	278.041	216.455	256.113	264.819	183.170	90.171	102.268	-5.119	0.00041302	0.00014389	5.1463e-05	1360.5	4.5555e-06	7.3119e-06	1367.2	368.48	8.2685e-06	4.9053e-06	422.08	141.26	122.66	42.066	5.4981e-06	51.947	0.00053872	0.00053993	0.00014925	1376.1	5.9137e-06	5.8881e-06	1381.7	374.04	5.8702e-06	5.8262e-06	427.32	143.71	124.86	43.107	5.7969e-06	53.069	-27.973	197.805	-55.407	-60.586	282.243	28.191	-60.581	-55.904	-14.476	194.095	-56.418	-51.597	-51.113	-46.716	234.978	-47.914	-8191	255	
258.892	1	1	0	0	0.12852	0.2449	0.21208	0.34176	0.021233	0.1986	0.14196	0.28021	0.13287	0.13865	0.32745	0.038722	0.17202	0.048375	0.061974	0.2978	-2.1813	-2.9896	-2.8771	-2.7854	-3.1125	-2.9229	-3.0792	-3.1146	-2.8646	-3.0396	-2.9938	-3.0833	-3.2104	-3.0208	-3.1688	-3.2104	68.153	94.663	119.830	-73.160	195.787	13.249	258.216	-41.196	80.452	95.883	161.323	242.006	277.061	205.621	-30.602	248.010	0.00041737	0.00050239	0.00019554	1369.6	1.1272e-06	4.5942e-06	1366.6	368.89	2.1608e-06	6.1636e-06	422.06	141.75	122.86	42.494	7.2353e-06	52.25	0.00053561	0.00053191	0.00014777	1374.4	5.8487e-06	5.8388e-06	1381.7	374.36	5.886e-06	5.8723e-06	429.06	144.28	125.33	43.392	5.9448e-06	53.323	-12.881	-9.346	59.561	-60.443	96.514	-32.290	-60.308	-55.713	-37.754	66.022	-56.571	-51.571	-51.092	-46.906	101.961	-47.553	-8191	255	
259.013	1	1	0	0	0.10042	0.092227	0.1083	0.17779	0.26258	0.14453	0.13222	0.039297	0.1436	0.1356	0.26944	0.17898	0.12871	0.045472	0.13688	0.05417	-2.3458	-3.0125	-2.7313	-2.6917	-2.9979	-2.9875	-3.275	-3.2896	-2.7562	-3.1	-3.1188	-2.9938	-3.0896	-2.9229	-3.0271	-3.125	-41.174	77.835	256.973	69.221	90.363	-51.333	225.279	192.934	-61.150	54.384	-28.104	219.431	-55.115	-10.006	-2.587	246.751	0.00040407	0.0007383	5.2775e-06	1374.2	2.0679e-06	2.303e-06	1367.8	369.46	3.1918e-06	5.9709e-06	423.21	141.88	123.3	42.594	6.8736e-06	52.259	0.00054802	0.00054644	0.00015205	1385.6	5.9918e-06	5.9483e-06	1387.2	376.27	5.9605e-06	5.9607e-06	430.14	144.57	125.79	43.574	5.9781e-06	53.54	274.700	90.431	115.605	-60.447	42.151	57.428	-60.371	-55.733	-61.491	94.696	-56.224	-52.032	-51.398	-46.916	108.481	-47.746	-8191	255	
259.107	1	1	0	0	0.19002	0.17698	0.072211	0.032169	0.16789	0.15784	0.33647	0.24816	0.091556	0.035937	0.21701	0.25368	0.17172	0.16272	0.16837	0.28583	-2.2958	-2.9021	-2.8854	-2.6813	-2.9667	-2.9979	-3.0792	-3.325	-2.7896	-2.9479	-2.9833	-2.8146	-3.0062	-2.9958	-2.9958	-3.3563	275.897	-19.623	98.220	-27.330	20.105	-4.069	262.423	178.254	250.797	34.958	-32.980	266.984	278.749	280.225	12.606	-73.605	0.00051886	0.00078212	0.00011352	1375.4	5.938e-06	8.182e-06	1372	371.2	8.7197e-06	5.8328e-06	420.94	142.41	123.86	42.43	5.1552e-06	52.346	0.00054919	0.0005486	0.00015305	1390	6.0108e-06	5.9798e-06	1387.7	376.7	5.9583e-06	5.9404e-06	429.71	144.58	125.57	43.425	5.8667e-06	53.333	-45.009	44.691	33.268	-60.748	275.549	149.303	-60.246	-55.860	-34.404	72.851	-56.276	-51.922	-51.396	-46.772	197.220	-47.758	-8191	255	
259.204	1	1	0	0	0.10486	0.11576	0.044021	0.096349	0.082131	0.20187	0.12956	0.24885	0.10317	0.15665	0.1523	0.2084	0.050165	0.12226	0.11636	0.22702	-2.4396	-3.0479	-2.7104	-2.6479	-3.1271	-2.9229	-2.9396	-3.1229	-2.625	-3.0521	-3.1458	-2.9562	-3.0375	-2.9375	-2.7229	-3.0375	36.448	193.056	110.413	-49.075	85.638	163.615	202.845	222.940	207.072	167.634	103.365	213.514	151.624	160.727	55.724	170.846	0.00055073	0.00029774	0.00026984	1373.4	2.316e-06	9.0366e-06	1370.5	370.94	6.4994e-06	4.5582e-06	422.49	142.03	123.42	42.583	1.3757e-06	52.376	0.00053817	0.00053821	0.00014927	1376.3	5.8426e-06	5.8293e-06	1383.6	375.36	5.8215e-06	5.8339e-06	429.08	144.31	125.2	43.41	5.8559e-06	53.376	-54.165	-18.920	263.143	-60.306	8.049	87.253	-60.535	-55.857	80.886	47.668	-56.167	-51.706	-51.184	-46.908	153.346	-47.757	-8191	255	
259.324	1	1	0	0	0.19904	0.20283	0.17797	0.18395	0.18545	0.17373	0.38729	0.11517	0.029073	0.24355	0.091913	0.11918	0.27576	0.10209	0.16776	0.29472	-2.3479	-2.8812	-3.1292	-2.9938	-3.3083	-3.0833	-2.8063	-3.0833	-2.7625	-3.0083	-3.3063	-2.9188	-3.2271	-2.9938	-2.9104	-3.1021	13.225	111.882	33.873	260.470	-66.379	13.710	256.071	129.251	-69.721	196.798	138.651	281.624	-43.215	221.975	236.171	245.807	0.00017921	0.00069322	0.00018531	1371.2	2.219e-06	3.5257e-06	1369	368.86	1.1833e-05	5.8235e-06	423.75	141.48	123.75	42.571	4.5531e-06	52.424	0.00053344	0.00053899	0.00014939	1377.8	5.8296e-06	5.8416e-06	1384.1	375.41	5.8271e-06	5.8741e-06	429.72	144.14	125.4	43.421	5.7796e-06	53.247	-4.595	-30.457	46.773	-60.385	32.007	127.901	-60.362	-55.645	63.078	-31.153	-56.326	-51.780	-51.071	-46.961	-62.280	-47.758	-8191	255	
259.420	1	1	0	0	0.095735	0.10765	0.08159	0.17044	0.31497	0.1761	0.2797	0.081044	0.10378	0.33448	0.26989	0.30453	0.046185	0.2776	0.10202	0.14468	-2.2917	-2.7562	-2.8021	-2.7354	-2.9833	-3.0312	-2.9354	-3.2354	-3.0542	-2.9917	-3.1979	-3.2625	-3.1167	-3.0917	-2.9333	-3.1688	160.944	279.293	284.267	-18.217	51.010	-37.133	182.820	145.979	90.346	136.334	-52.785	183.700	-59.219	-59.851	185.306	286.063	0.00056782	0.00011564	0.00015005	1379.5	7.569e-06	4.69e-06	1367.6	369.64	3.5193e-06	5.3122e-06	422.58	141.9	123.43	42.437	5.9058e-06	52.608	0.0005269	0.00052758	0.00014629	1373.7	5.6947e-06	5.6932e-06	1380	374.31	5.6343e-06	5.6704e-06	427.18	143.46	124.79	43.186	5.6431e-06	53.038	-56.536	154.500	-18.835	-60.509	153.289	89.362	-60.231	-55.806	-23.794	104.724	-56.203	-51.826	-51.166	-46.861	12.833	-47.807	-8191	255	
259.516	1	1	0	0	0.10455	0.37035	0.22558	0.30235	0.10977	0.09557	0.37459	0.24592	0.17767	0.19868	0.24374	0.07563	0.25901	0.27576	0.11032	0.25421	-2.3688	-2.7833	-3.1146	-2.8583	-2.9896	-3.1188	-3.0729	-3.2417	-3.0354	-3.2271	-3.4542	-3.1875	-3.0146	-3.1417	-3.0083	-3.1896	105.008	64.949	4.085	223.609	28.826	-52.901	226.292	-55.818	186.229	250.354	-20.303	7.776	187.358	209.768	-23.566	211.457	0.00037494	0.00047799	6.5377e-05	1368.3	9.2228e-07	1.0545e-05	1368.5	369.96	8.0075e-06	4.0285e-06	424.23	141.15	123.33	42.48	7.6927e-06	52.12	0.00051518	0.00051698	0.00014324	1368.6	5.6056e-06	5.6398e-06	1379.1	374.19	5.5994e-06	5.6176e-06	427.29	143.28	124.74	43.206	5.6374e-06	52.958	-70.168	-73.372	-33.859	-60.528	-12.551	90.289	-60.383	-55.770	72.242	-52.249	-56.286	-51.674	-51.374	-47.066	52.258	-47.398	-8191	255	
259.588	1	1	0	0	0.22556	0.11996	0.14011	0.17568	0.099033	0.089226	0.17195	0.0771	0.067287	0.023252	0.21259	0.29781	0.19118	0.26857	0.11411	0.18827	-2.6229	-2.8167	-3.15	-2.8521	-2.7812	-3.1583	-3.0563	-3.0708	-2.8833	-2.7833	-3.1729	-2.7833	-2.8083	-3.1042	-2.7313	-3.0083	132.364	214.465	120.473	274.120	35.272	185.035	205.372	-56.858	49.011	68.526	240.343	226.589	37.011	247.968	-5.595	250.181	0.00045002	0.00022646	0.00023885	1372.9	4.154e-06	4.3509e-06	1371.4	369.72	9.3519e-06	2.0483e-06	424.73	141.53	123.17	42.306	1.094e-05	52.334	0.00051821	0.0005192	0.00014465	1372.9	5.7072e-06	5.7102e-06	1382.5	374.88	5.7015e-06	5.718e-06	428.01	143.79	124.93	43.242	5.6423e-06	53.142	269.378	-54.752	-8.118	-60.598	268.848	55.031	-60.556	-55.534	132.477	-53.521	-56.439	-51.649	-51.110	-47.214	121.392	-47.797	-8191	255	
259.709	1	1	0	0	0.15073	0.21349	0.1669	0.19915	0.17414	0.16767	0.26036	0.22086	0.25763	0.10685	0.21319	0.12271	0.067796	0.32304	0.047788	0.10441	-2.5958	-2.6688	-2.9562	-3.0563	-2.8042	-3.175	-2.9688	-3.0875	-2.9396	-2.9271	-3.1979	-3.1396	-3.0625	-3.2104	-2.9354	-2.9854	-40.543	113.016	237.920	69.019	92.601	122.696	205.041	-37.574	49.604	52.925	38.635	255.843	194.378	252.064	-67.147	154.901	0.00037187	0.00029667	0.00012122	1368.5	4.8306e-06	1.5451e-06	1362.5	370.23	2.9956e-06	6.3419e-06	423.05	141.65	123.27	42.515	3.8539e-06	52.212	0.00051669	0.00051855	0.00014329	1368	5.6365e-06	5.6047e-06	1379.7	373.97	5.6285e-06	5.6099e-06	426.39	143.5	124.66	43.108	5.5353e-06	52.949	-17.448	114.260	-64.791	-60.613	209.811	265.129	-60.461	-55.560	192.296	-37.128	-56.252	-51.781	-51.267	-46.783	82.642	-47.740	-8191	255	
259.805	1	1	0	0	0.21061	0.046767	0.21761	0.098109	0.18109	0.13006	0.065396	0.20583	0.11317	0.16631	0.11718	0.34442	0.32731	0.21946	0.27954	0.052918	-2.5167	-2.7146	-3.3521	-2.9792	-2.8271	-3.2104	-3.2375	-3.2979	-3.0354	-2.7542	-3.0208	-3.0271	-2.9021	-3.2208	-2.8083	-3.1104	156.203	-39.923	165.252	86.353	18.227	-30.129	-34.312	-73.202	101.459	120.879	-47.512	241.385	81.185	191.350	125.507	6.704	0.0004739	3.5871e-05	0.00010521	1376.6	1.7376e-06	4.8134e-06	1367.3	369.93	2.7143e-06	3.7614e-06	425.39	141.32	123.9	42.456	7.596e-06	52.634	0.00051	0.00051087	0.00014079	1364.4	5.5792e-06	5.5803e-06	1376.3	373.43	5.5265e-06	5.5138e-06	426.2	143.24	124.65	43.037	5.4285e-06	53.037	-39.833	242.024	258.047	-60.538	-37.719	-14.598	-60.401	-55.673	-25.592	236.023	-56.344	-51.812	-51.217	-46.897	-51.993	-47.746	-8191	255	
259.901	1	1	0	0	0.10594	0.27416	0.16758	0.20876	0.13962	0.099006	0.22399	0.31956	0.12785	0.067401	0.051202	0.29535	0.11288	0.18993	0.22987	0.20742	-2.7562	-2.7062	-2.8937	-3.0417	-2.875	-3.2542	-3.1437	-3.1104	-3.0958	-2.8708	-3.0542	-2.9417	-2.8375	-3.3271	-3.0667	-3.1312	201.671	69.488	135.260	227.508	27.583	57.672	193.027	241.298	8.532	36.131	-41.085	114.696	140.889	-62.823	178.871	-71.502	0.00070319	0.00064207	6.5305e-05	1363.8	2.7492e-06	4.1859e-06	1371.1	368.87	3.0952e-06	6.3789e-06	424.79	141.74	123.75	42.446	7.1455e-06	52.358	0.00049846	0.00049823	0.00013799	1360.3	5.4531e-06	5.4529e-06	1377.5	373.01	5.4297e-06	5.4342e-06	425.58	143.2	124.38	43.063	5.4887e-06	52.882	-55.393	-26.535	51.048	-60.588	27.539	-15.522	-60.487	-55.567	39.259	87.293	-56.382	-51.602	-51.132	-46.934	70.371	-47.645	-8191	255	
259.997	1	1	0	0	0.20397	0.21012	0.086247	0.10811	0.25994	0.23926	0.21396	0.15884	0.086132	0.024055	0.29948	0.20205	0.072714	0.24172	0.07438	0.036377	-2.7125	-2.5312	-2.9396	-3.0625	-2.8563	-3.0375	-3.0812	-3.0625	-3.1979	-2.9042	-3.0417	-3.2313	-2.7958	-3.0646	-2.8708	-2.8688	93.914	224.733	106.395	-5.434	23.083	-4.315	249.649	213.369	200.609	9.026	-62.804	-58.417	261.362	-14.690	38.484	193.548	0.00044892	0.00035098	0.00021018	1367.2	6.4444e-06	5.4058e-06	1370	369.81	4.2821e-06	3.4496e-06	424.44	141.76	123.7	42.632	2.6974e-06	52.513	0.00050782	0.00050954	0.00014132	1366	5.6312e-06	5.609e-06	1380.5	374.52	5.6231e-06	5.6195e-06	428.11	144.06	124.98	43.35	5.675e-06	53.303	-19.138	-51.059	-34.873	-60.370	166.712	40.498	-60.401	-55.734	18.864	170.804	-56.252	-51.674	-51.176	-46.682	86.668	-47.679	-8191	255	
260.116	1	1	0	0	0.058889	0.073299	0.042519	0.23124	0.18878	0.23683	0.11101	0.031487	0.11386	0.066936	0.1438	0.086883	0.18806	0.20879	0.19597	0.21259	-2.6688	-2.7812	-3.0396	-3.1271	-2.8625	-3.175	-3.0917	-2.7625	-3.1542	-2.7208	-3.0563	-3.2875	-2.9271	-3.0708	-2.8646	-2.8854	192.974	185.047	279.091	271.274	211.385	118.728	188.545	177.969	86.982	175.860	-64.388	238.959	186.163	178.829	251.046	241.102	0.00030283	0.00038162	0.00015235	1373.3	6.068e-06	1.7684e-06	1373	372.11	4.4045e-06	7.5386e-06	426.07	141.79	123.61	42.692	3.6348e-06	52.405	0.00052241	0.00052033	0.00014518	1373.3	5.7052e-06	5.7111e-06	1382.7	375.98	5.7098e-06	5.7193e-06	429.37	144.45	125.19	43.467	5.7249e-06	53.35	-70.189	-17.232	-58.987	-60.249	1.188	-73.588	-60.517	-55.658	81.728	52.515	-56.239	-51.615	-51.530	-46.601	22.686	-47.675	-8191	255	
260.188	1	1	0	0	0.24789	0.077012	0.16131	0.21116	0.19982	0.15451	0.28006	0.33694	0.11672	0.28291	0.039301	0.45161	0.057233	0.08573	0.071834	0.18265	-2.7917	-2.95	-2.8292	-3	-2.8146	-3.0563	-3.3729	-3.0229	-3.1479	-2.9708	-2.9917	-3.0563	-2.8667	-3.025	-3.0354	-3.0104	144.926	123.880	54.337	-66.833	13.967	157.870	242.683	234.724	70.013	24.870	1.493	-65.804	21.815	172.714	-46.141	194.994	0.00051923	0.00049565	0.00019509	1377.9	8.8252e-06	5.8563e-06	1370.9	371.32	4.2491e-06	3.0343e-06	425.43	142.64	124.32	42.825	6.8268e-06	52.654	0.00052051	0.00052085	0.00014499	1374.6	5.6912e-06	5.695e-06	1383.9	375.63	5.6946e-06	5.6862e-06	429.67	144.61	125.55	43.52	5.7169e-06	53.4	-38.675	99.659	9.298	-60.338	70.402	21.887	-60.361	-55.664	124.125	78.953	-56.167	-51.776	-51.127	-46.935	-60.388	-47.543	-8191	255	
260.286	1	1	0	0	0.13453	0.069884	0.12124	0.15254	0.1087	0.1267	0.099364	0.24373	0.065947	0.2153	0.15858	0.073263	0.25466	0.23652	0.13491	0.31178	-2.5375	-2.8479	-2.7896	-3.1958	-2.9125	-3.0229	-3.2354	-2.8667	-3.1542	-2.7771	-2.7333	-3.0625	-2.6729	-2.9021	-3.0375	-2.7354	-8.501	46.111	-71.363	-36.078	46.766	-13.255	-52.521	254.461	111.244	83.219	230.033	84.379	40.997	224.141	236.890	215.598	0.00017416	0.00042003	0.00017029	1376.6	1.2159e-06	9.5454e-06	1372.1	371.85	2.6071e-06	1.9692e-06	425.61	142.65	123.95	42.808	5.1865e-06	52.723	0.00052071	0.00052212	0.00014549	1375.8	5.6564e-06	5.672e-06	1385	376.27	5.6313e-06	5.6694e-06	429.18	144.23	125.36	43.533	5.6944e-06	53.377	278.505	-67.300	-10.846	-60.666	-35.718	54.406	-60.459	-55.594	171.778	105.113	-56.626	-51.862	-51.315	-46.882	74.309	-47.921	-8191	255	
260.405	1	1	0	0	0.089187	0.17283	0.11791	0.17481	0.090265	0.17438	0.25683	0.31657	0.088533	0.18267	0.27884	0.24098	0.10291	0.17679	0.15507	0.15169	-2.675	-2.95	-2.8771	-3.1771	-2.8146	-3.0458	-3.1271	-2.8854	-2.9229	-2.9292	-2.7125	-3.1625	-3.0104	-2.7583	-3.1562	-2.8937	-9.405	190.926	-35.962	132.751	186.890	229.628	238.664	265.753	62.600	-8.664	161.103	186.977	-23.997	112.266	242.078	139.164	0.00042464	0.00024105	3.7004e-05	1371.7	4.189e-06	7.984e-06	1382.9	372.76	7.4893e-06	3.7536e-06	426.41	142.47	123.9	42.673	4.7914e-06	52.603	0.00052053	0.00052265	0.00014551	1378	5.7141e-06	5.7263e-06	1388.9	376.64	5.7144e-06	5.7132e-06	429.78	144.44	125.46	43.452	5.7069e-06	53.42	-4.079	34.416	30.718	-60.377	90.711	-45.714	-60.390	-55.726	88.536	37.561	-56.424	-52.018	-51.255	-46.731	-61.748	-47.538	-8191	255	
260.501	1	1	0	0	0.1077	0.14462	0.25072	0.050161	0.097957	0.23446	0.12	0.045599	0.14832	0.096557	0.074789	0.3712	0.33118	0.35467	0.25598	0.22406	-2.7021	-3.0729	-2.7521	-3.1729	-2.9896	-2.8604	-3.2646	-2.9583	-3.0563	-2.8292	-2.8458	-3.2521	-3.15	-2.9458	-3.2771	-2.8646	46.446	-21.294	74.432	-60.482	24.305	-67.008	-72.305	13.393	-19.716	-27.437	93.104	183.886	174.109	-57.083	77.005	254.549	0.00067819	0.00021307	8.9793e-05	1374.3	1.1331e-06	8.6951e-06	1380	372.54	5.1733e-06	8.6667e-06	426.23	142.14	124.22	42.754	6.6062e-06	52.751	0.00052145	0.00052209	0.00014544	1375.2	5.6916e-06	5.7162e-06	1387.9	376.64	5.7099e-06	5.7263e-06	429.56	144.41	125.7	43.478	5.7021e-06	53.316	-44.366	124.330	-70.818	-60.355	-72.421	85.403	-60.411	-55.874	63.449	55.587	-56.333	-51.817	-51.140	-46.623	95.620	-47.929	-8191	255	
260.597	1	1	0	0	0.23458	0.2234	0.21585	0.079565	0.25281	0.17751	0.14445	0.16575	0.020413	0.049554	0.043688	0.3171	0.062823	0.21153	0.14284	0.24847	-2.7375	-3.05	-2.6667	-3.1125	-3.0271	-2.8542	-3.4729	-2.9417	-2.9313	-3.2021	-2.8688	-3.1604	-2.9854	-2.9646	-3.2167	-3.05	53.534	-53.978	143.323	153.783	163.712	89.269	190.336	95.138	112.035	-8.495	64.341	219.235	62.103	246.248	-37.884	164.581	0.00027254	0.00052705	8.3822e-05	1378.5	7.0626e-06	8.9148e-06	1379.4	372.46	6.346e-06	1.1645e-06	426.55	143.09	124.1	42.742	8.765e-07	52.798	0.00052295	0.00052395	0.00014567	1376.5	5.7147e-06	5.7236e-06	1387.8	376.62	5.7163e-06	5.7196e-06	429.66	144.54	125.73	43.511	5.6583e-06	53.429	-70.052	-56.609	100.569	-60.371	194.669	66.935	-60.321	-55.724	63.138	128.226	-56.317	-51.845	-51.326	-46.862	62.880	-47.447	-8191	255	
260.693	1	1	0	0	0.18222	0.13268	0.30263	0.44334	0.096903	0.19664	0.28383	0.13392	0.28143	0.028023	0.27819	0.095725	0.21292	0.096801	0.16441	0.30551	-2.3729	-3.2417	-2.8792	-3.15	-3.1354	-2.7687	-3.3417	-3.1229	-2.85	-3.35	-2.9417	-2.9604	-3.075	-2.875	-3.0229	-2.9104	26.054	242.668	11.753	259.174	12.897	138.963	227.706	231.071	-61.363	-40.207	-72.795	11.107	244.975	228.413	48.476	165.536	0.00063587	0.00035875	0.00030729	1361.6	3.7033e-06	3.7019e-06	1375.2	372.22	5.1057e-06	3.2312e-06	422.5	141.94	124.33	42.55	1.1649e-06	52.607	0.00052248	0.00052315	0.00014422	1368.7	5.6645e-06	5.679e-06	1384.5	376.16	5.6557e-06	5.6417e-06	428.31	144.05	125.37	43.397	5.6223e-06	53.326	-43.921	30.717	-52.656	-60.573	102.565	38.818	-60.168	-55.822	50.788	239.890	-56.359	-51.911	-51.598	-46.847	268.195	-47.397	-8191	255	
260.789	1	1	0	0	0.20043	0.15171	0.21442	0.18081	0.18389	0.081789	0.16344	0.1041	0.15863	0.10542	0.13545	0.18117	0.05476	0.23893	0.25916	0.26405	-2.2083	-3.1083	-2.8833	-3.0687	-2.9521	-2.7292	-3.4667	-3.0896	-2.7125	-3.0708	-2.8896	-3.1792	-3.1875	-2.9792	-3.0396	-3.0667	233.628	-44.810	162.144	236.356	64.478	-16.175	269.266	184.436	267.652	-22.741	195.251	203.287	111.849	274.788	248.227	-33.978	0.00022924	0.00058753	9.0565e-05	1385.2	4.2706e-06	6.5806e-06	1376.2	371.59	5.7818e-06	3.9254e-06	425.99	142.11	124.28	42.637	4.694e-06	52.45	0.00051645	0.00051622	0.00014268	1372.2	5.6264e-06	5.6113e-06	1386.1	375.67	5.6358e-06	5.601e-06	428.67	144.15	125.4	43.375	5.5872e-06	53.267	276.071	-59.245	-59.126	-60.470	85.864	68.726	-60.461	-55.661	-34.706	191.307	-56.278	-51.785	-51.145	-46.725	9.936	-47.626	-8191	255	
260.885	1	1	0	0	0.15144	0.22203	0.24465	0.1144	0.20984	0.22176	0.077133	0.082228	0.081834	0.15138	0.076038	0.11501	0.11304	0.10421	0.12358	0.1194	-2.25	-3.0521	-2.9604	-3.2062	-3.05	-2.725	-3.3187	-3.0417	-2.6167	-3.2313	-3.0958	-3.0396	-3.0875	-2.7917	-3.2125	-3.1583	173.040	-21.312	52.896	103.508	105.761	48.105	222.716	213.379	-50.946	244.337	-19.428	230.138	118.738	-10.550	-45.099	196.556	0.00029727	0.0001911	0.0001486	1376.3	2.6023e-06	6.6002e-07	1379.9	372.77	2.4604e-06	5.368e-06	427.35	142	123.92	42.811	4.11e-06	52.778	0.00051755	0.00051494	0.00014263	1373.1	5.6632e-06	5.6336e-06	1388.2	376.48	5.6321e-06	5.6366e-06	429.07	144.36	125.51	43.456	5.5933e-06	53.38	-72.653	186.610	-11.625	-60.506	75.442	72.912	-60.410	-55.555	70.779	105.689	-56.225	-51.519	-51.288	-47.105	100.704	-47.683	-8191	255	
261.006	1	1	0	0	0.088992	0.034799	0.059155	0.17295	0.29293	0.087307	0.18782	0.1693	0.19157	0.061243	0.43679	0.18562	0.1294	0.36666	0.03864	0.17035	-2.325	-2.9833	-2.8771	-2.7958	-3.3125	-3.1271	-3.1792	-3.0271	-2.7896	-3.2542	-3.1312	-2.9646	-3.1854	-2.8521	-2.8125	-3.0646	25.849	78.178	273.480	-12.700	-53.703	150.273	243.828	248.748	-18.947	34.014	279.091	250.077	-20.791	277.229	189.209	171.784	0.00063387	0.00072081	0.00027271	1378.3	6.61e-06	5.8383e-06	1376.6	372.37	6.743e-06	1.6891e-06	426.91	142.48	124.36	42.637	7.0848e-06	52.756	0.00051725	0.00051223	0.00014266	1374.1	5.6565e-06	5.6228e-06	1386.7	376.37	5.6241e-06	5.6e-06	429.09	144.37	125.57	43.38	5.6036e-06	53.336	-43.322	-62.273	93.864	-60.381	5.143	86.523	-60.433	-55.588	272.184	86.459	-56.252	-51.695	-51.314	-46.608	102.157	-47.601	-8191	255	
261.102	1	1	0	0	0.10306	0.23676	0.20199	0.27141	0.15952	0.10968	0.21655	0.086032	0.082483	0.28934	0.14855	0.26352	0.15603	0.30015	0.16537	0.13701	-2.1937	-3.0771	-3.1063	-2.7938	-3.1937	-2.9813	-3.0333	-3.1063	-2.7812	-3.2354	-3.2438	-2.9562	-3.0229	-2.8417	-2.825	-3.1583	181.405	-66.188	239.087	90.145	187.801	-30.525	245.200	155.245	176.160	197.768	200.474	-31.064	122.394	256.923	9.386	81.165	0.00082997	0.0004705	0.00014482	1382.9	1.191e-06	6.8287e-07	1379.6	371.78	1.1259e-05	4.9376e-06	426.51	142.51	124.24	42.746	3.5924e-06	52.539	0.00051465	0.00051177	0.00014297	1375.6	5.6005e-06	5.589e-06	1386.2	376.08	5.564e-06	5.5641e-06	428.58	144.08	125.13	43.379	5.584e-06	53.232	-37.510	20.131	-36.837	-60.415	74.144	228.826	-60.537	-55.755	107.002	54.810	-56.214	-51.840	-51.308	-46.727	52.498	-47.815	-8191	255	
261.196	1	1	0	0	0.22501	0.21007	0.12983	0.088651	0.23021	0.12436	0.049933	0.020241	0.17003	0.10616	0.22585	0.3932	0.13381	0.10048	0.11319	0.29226	-2.5438	-3.0646	-2.9229	-2.8875	-2.9958	-2.8042	-3.1188	-3.2146	-3.0021	-3.0104	-2.9979	-2.7125	-3.1813	-2.9833	-3.0479	-3.0958	190.093	14.407	119.559	185.986	-72.400	18.912	174.624	32.084	5.136	173.984	18.611	245.866	229.933	156.571	213.328	263.125	0.00064338	0.00082054	0.00015371	1379.3	2.1581e-06	2.6768e-06	1367.2	372.58	5.4808e-06	4.4942e-06	425.51	141.91	123.99	42.759	5.1342e-06	52.47	0.00051239	0.00051128	0.00014227	1372.9	5.567e-06	5.5542e-06	1383.6	375.79	5.5591e-06	5.5427e-06	428.29	143.95	125.13	43.313	5.5356e-06	53.117	-49.207	-0.563	-52.425	-60.528	55.948	209.006	-60.475	-55.789	91.337	78.165	-56.277	-51.730	-51.202	-46.663	92.172	-47.733	-8191	255	
261.293	1	1	0	0	0.35763	0.1983	0.046859	0.13841	0.11699	0.24031	0.39831	0.15207	0.12098	0.20122	0.17926	0.039441	0.097748	0.17294	0.18106	0.17476	-2.3583	-2.95	-3.0479	-2.9604	-3.2625	-2.9646	-3.2229	-3.3292	-2.7917	-2.7542	-2.9854	-2.8521	-3.1479	-3.1104	-2.7146	-3.1771	51.510	0.519	-25.807	133.674	60.492	-12.965	203.792	236.642	-54.947	-26.668	131.038	105.553	195.211	140.633	252.890	35.518	0.00035475	0.00051821	8.4811e-05	1378.3	4.8882e-06	1.0598e-05	1370.1	372.03	4.4039e-06	2.6686e-06	427.47	142.19	123.81	42.485	3.6873e-06	52.616	0.00050663	0.00050471	0.00014014	1367.6	5.4775e-06	5.4779e-06	1382.5	374.83	5.4388e-06	5.4539e-06	427.75	143.58	124.5	43.123	5.4957e-06	53.062	-55.806	-72.606	3.040	-60.557	165.392	50.460	-60.436	-55.657	53.696	44.663	-56.451	-51.808	-51.231	-46.856	133.622	-47.728	-8191	255	
261.413	1	1	0	0	0.065812	0.13042	0.068362	0.17453	0.078411	0.21331	0.25088	0.17937	0.092678	0.03804	0.10599	0.14077	0.078578	0.023044	0.080649	0.25045	-2.325	-2.8167	-3.1167	-2.9188	-3.0563	-2.925	-2.9604	-3.0771	-2.9437	-3.0062	-3.1208	-2.6542	-3.0375	-3.0729	-2.8667	-3.3729	186.843	160.900	4.197	10.155	45.240	62.643	265.115	137.056	-44.336	38.800	224.690	-43.937	226.979	-10.192	100.841	263.651	0.00050456	0.00032689	5.6813e-05	1382.7	3.225e-06	6.8848e-06	1377.4	370.62	4.9693e-06	6.0066e-06	425.43	142.36	123.8	42.474	5.6189e-06	52.44	0.00049855	0.00050151	0.00013909	1362	5.4388e-06	5.446e-06	1381.5	373.95	5.4215e-06	5.4334e-06	426.16	143.37	124.58	43.124	5.4179e-06	53.016	-36.954	26.729	117.550	-60.433	112.704	-65.079	-60.530	-55.628	196.545	50.996	-56.321	-51.968	-51.153	-46.633	-5.262	-47.580	-8191	255	
261.485	1	1	0	0	0.10963	0.26398	0.30397	0.33239	0.13986	0.14231	0.18464	0.26012	0.11958	0.098155	0.013612	0.12613	0.18512	0.23627	0.21165	0.17758	-2.5792	-2.6458	-3.0292	-2.6917	-3.0375	-3.1167	-2.8667	-3.1063	-2.7292	-3.0396	-3.2313	-2.6937	-2.9562	-3.3042	-2.8854	-3.1292	141.704	77.026	64.295	269.661	65.335	225.436	278.026	254.854	119.101	17.461	-56.083	5.640	-28.660	223.307	49.592	-72.894	0.00050202	0.00046347	0.00018928	1368.1	9.0831e-06	1.1042e-05	1374.4	371.29	3.0407e-06	3.8002e-06	426.84	142.53	124.14	42.56	2.1961e-06	52.429	0.00049395	0.00049909	0.000139	1363	5.4635e-06	5.4837e-06	1383.4	374.74	5.4761e-06	5.4817e-06	427.75	143.36	124.84	43.192	5.4621e-06	53.065	-37.429	28.848	-5.928	-60.563	145.803	14.554	-60.452	-55.669	47.338	90.238	-56.194	-51.768	-51.112	-46.998	-34.992	-47.727	-8191	255	
261.581	1	1	0	0	0.18965	0.047621	0.12664	0.065904	0.068975	0.11013	0.16603	0.20643	0.1671	0.20016	0.036959	0.19626	0.18826	0.17157	0.099236	0.36628	-2.3937	-2.8542	-2.9458	-2.6708	-2.8104	-3.0979	-3.1583	-3.4437	-3.0833	-2.7417	-3.1542	-2.9771	-3.0833	-3.1625	-3.0292	-3.1875	126.308	212.401	141.037	169.064	28.104	-57.354	175.084	279.235	120.609	-40.520	72.000	-63.633	-51.938	-73.006	-50.088	261.207	0.00028979	0.0003222	0.00011497	1372.4	7.9893e-06	1.1603e-05	1374.2	371.02	1.0204e-06	3.0899e-06	425.41	142.01	123.88	42.552	1.18e-05	52.615	0.00049914	0.0005012	0.0001394	1362.1	5.4634e-06	5.4818e-06	1382	374	5.4443e-06	5.4505e-06	426.75	143.31	124.55	43.101	5.3836e-06	52.869	-35.349	56.175	79.572	-60.526	59.288	96.256	-60.260	-55.692	157.018	20.344	-56.253	-51.815	-51.134	-46.572	44.033	-47.732	-8191	255	
261.677	1	1	0	0	0.095181	0.21632	0.11301	0.28599	0.16926	0.29236	0.26324	0.11177	0.11985	0.29703	0.054412	0.13474	0.070617	0.23139	0.23108	0.05733	-2.4188	-2.7062	-3.0854	-2.7292	-3.0687	-3.3333	-2.9271	-3.0875	-2.9521	-2.8958	-3.3229	-3.1542	-3.1188	-3.325	-2.9792	-3.2229	271.632	77.189	222.632	119.646	7.223	49.772	214.664	182.944	254.681	69.900	92.735	230.189	-72.103	257.587	117.685	27.562	0.00031489	0.00078517	0.00016296	1373.8	1.2763e-06	9.7961e-06	1369.5	370.42	3.08e-06	7.9701e-06	426.28	142.15	124.01	42.772	1.3265e-06	52.807	0.00049257	0.00049317	0.00013651	1357.4	5.3614e-06	5.3508e-06	1377.7	373.93	5.3715e-06	5.3603e-06	426.12	143.21	124.46	43.156	5.3715e-06	52.896	-19.511	-2.312	89.094	-60.755	-24.338	197.671	-60.505	-55.799	3.259	49.551	-55.830	-51.876	-51.167	-46.998	36.817	-47.463	-8191	255	
261.773	1	1	0	0	0.32159	0.18859	0.28354	0.22176	0.16787	0.14881	0.34777	0.087061	0.085982	0.12237	0.066289	0.11159	0.10945	0.14132	0.065474	0.14054	-2.4979	-2.6729	-3.1604	-2.9437	-3.0125	-3.2292	-3.1854	-3.3438	-3.1896	-3.0167	-3.075	-2.7562	-2.625	-3.0604	-3.025	-3.1146	113.895	229.456	76.258	169.692	51.764	224.780	212.793	251.867	56.279	132.092	141.197	278.652	36.538	-20.094	83.389	13.659	0.00051615	0.00060096	6.2526e-05	1365.1	2.9749e-06	1.2027e-05	1372.7	370.98	5.7771e-06	6.292e-06	424.91	141.95	123.8	42.553	1.4315e-06	52.443	0.00049499	0.00049364	0.00013657	1358	5.3761e-06	5.382e-06	1377.1	373.3	5.372e-06	5.3676e-06	425.01	143.15	124.35	43.001	5.3281e-06	52.782	-2.021	138.374	251.028	-60.538	105.826	88.068	-60.354	-55.638	146.477	265.271	-56.348	-51.824	-51.295	-47.077	210.047	-47.779	-8191	255	
261.894	1	1	0	0	0.33753	0.060864	0.16723	0.21628	0.11485	0.32848	0.065556	0.1916	0.11353	0.27521	0.14172	0.24625	0.061374	0.07419	0.12397	0.049098	-2.5271	-2.6417	-2.7917	-3.0083	-2.8208	-3.2396	-3.2271	-2.8042	-3.0354	-2.7562	-3.0375	-2.9646	-2.9437	-3.25	-2.9938	-2.8375	228.445	105.555	220.236	178.847	35.506	150.614	279.947	-38.840	83.642	-62.650	149.651	12.067	-25.300	169.911	242.629	208.088	0.00024143	0.00033365	0.00021906	1365.8	1.0007e-06	1.1477e-05	1369.2	370.51	4.232e-06	3.5084e-06	425.71	142.01	124.2	42.471	3.9317e-06	52.5	0.00048932	0.0004891	0.00013547	1356	5.378e-06	5.3682e-06	1376.5	373.65	5.4327e-06	5.3779e-06	426.7	143.2	124.69	43.088	5.4108e-06	52.938	-45.896	251.272	-3.297	-60.383	148.005	-7.776	-60.463	-55.622	203.173	-6.637	-56.232	-51.486	-51.296	-46.769	34.906	-47.505	-8191	255	
261.990	1	1	0	0	0.29642	0.16422	0.092289	0.11223	0.13712	0.26236	0.23894	0.25695	0.083789	0.20455	0.36631	0.30055	0.42518	0.21496	0.17893	0.46191	-2.6479	-2.7708	-3.0938	-3.0333	-2.6125	-2.9958	-3.1375	-2.9875	-3.1125	-2.8542	-3.1125	-3.0729	-2.8521	-3.2083	-2.9792	-2.825	187.604	221.070	70.825	221.866	142.463	135.716	-34.693	199.246	-24.749	272.145	244.371	245.607	252.521	250.895	232.768	-48.573	0.00036744	0.00061827	5e-05	1378.4	5.1836e-06	2.9429e-06	1371	370.14	5.6386e-06	3.9229e-06	425.96	141.92	123.88	42.766	5.6959e-06	52.459	0.00050005	0.0004991	0.00013724	1359.1	5.4208e-06	5.4119e-06	1378	373.49	5.4277e-06	5.4052e-06	426.11	143.33	124.72	43.19	5.405e-06	52.935	19.918	-11.181	6.693	-60.400	256.849	34.387	-60.374	-55.610	9.195	55.388	-56.157	-51.827	-51.308	-46.847	-24.846	-47.814	-8191	255	
262.086	1	1	0	0	0.050883	0.22018	0.19324	0.12186	0.098963	0.08194	0.14236	0.2148	0.20803	0.18279	0.087498	0.30675	0.16977	0.2049	0.18843	0.16846	-2.8208	-2.8729	-2.9042	-3.0896	-2.8458	-3.0417	-3.0583	-2.825	-3.1875	-2.8667	-3.1979	-3.225	-2.8646	-3.2771	-3.0938	-2.7646	268.992	213.463	169.616	259.747	221.209	-71.946	277.736	213.171	-67.778	-64.924	204.126	253.826	34.468	-50.545	243.028	102.645	0.00025743	0.0010428	0.00011451	1365.5	5.6393e-06	5.4064e-06	1372.9	370.44	6.7345e-06	6.0899e-06	426.81	142.49	124.39	42.482	5.234e-06	52.37	0.0004981	0.00049772	0.00013775	1361.5	5.4029e-06	5.4192e-06	1380.6	374.2	5.3952e-06	5.37e-06	426.54	143.43	124.57	42.968	5.3992e-06	52.945	-45.855	30.729	0.288	-60.096	86.101	168.779	-60.375	-55.841	45.388	197.205	-56.365	-51.544	-51.109	-46.827	-18.706	-47.794	-8191	255	
262.181	1	1	0	0	0.24513	0.18563	0.1825	0.20345	0.074286	0.1277	0.23411	0.15936	0.20324	0.31889	0.30401	0.25908	0.029483	0.099696	0.12474	0.2769	-2.6396	-2.8271	-2.8208	-3.0729	-2.8104	-3.1792	-3.1646	-2.9813	-3.0771	-2.7	-3.0646	-3.0187	-2.7458	-3.0854	-3.0812	-2.9708	174.504	-66.186	273.075	-21.510	-26.288	50.303	256.706	16.691	169.964	185.239	184.098	-52.983	192.749	284.299	14.990	194.996	0.00032719	0.00037431	5.3188e-05	1371.5	1.0223e-05	3.0626e-06	1372.7	370.92	4.0047e-06	5.8926e-06	425.76	142.46	123.88	42.702	6.8983e-06	52.414	0.00049505	0.00049708	0.0001381	1360	5.4343e-06	5.4303e-06	1379.2	374.1	5.4323e-06	5.4003e-06	426.19	143.38	124.44	43.047	5.3785e-06	52.912	-31.586	-13.842	-29.968	-60.356	63.076	242.775	-60.436	-55.768	22.520	69.342	-56.341	-51.944	-51.359	-46.859	0.761	-47.629	-8191	255	
262.277	1	1	0	0	0.2248	0.10279	0.24905	0.090719	0.066079	0.11407	0.2041	0.2067	0.092142	0.090996	0.14787	0.38109	0.28787	0.077213	0.02783	0.24781	-2.5062	-2.8979	-2.7396	-3.1792	-2.8479	-3.0708	-3.3021	-2.95	-3.0396	-2.9625	-2.9688	-3.1667	-2.8083	-2.9708	-2.8104	-3.0312	244.584	267.856	265.706	158.011	-43.659	-17.805	132.045	254.645	178.744	71.071	-59.666	242.427	250.542	-48.601	-24.171	231.840	0.00029324	0.0006931	0.00017747	1368	4.3275e-06	7.7324e-06	1371.9	371.54	1.1054e-05	2.4176e-06	426.66	142	123.85	42.797	5.4344e-06	52.661	0.00049264	0.00049274	0.0001378	1360.3	5.3775e-06	5.4109e-06	1379.7	374.46	5.3976e-06	5.4232e-06	427.08	143.5	124.44	43.184	5.4545e-06	52.997	-33.171	-11.325	-46.952	-60.251	154.049	134.120	-60.477	-55.806	79.150	167.870	-56.267	-51.773	-51.224	-46.918	164.207	-47.740	-8191	255	
262.373	1	1	0	0	0.26693	0.072838	0.25129	0.22634	0.24157	0.15834	0.18015	0.093604	0.13956	0.23745	0.20849	0.14759	0.077945	0.27292	0.14827	0.049496	-2.9125	-3.0062	-2.8396	-3.0375	-2.7917	-3.0687	-3.1021	-2.9688	-3.0062	-3.0604	-2.8917	-2.9625	-2.9229	-3.075	-3.1354	-2.7812	59.152	40.941	225.254	228.027	-48.405	91.187	197.267	177.390	110.559	47.703	258.068	122.755	-9.173	280.373	0.061	234.476	0.00062889	0.00050987	0.00014057	1372.1	1.193e-06	1.0841e-06	1374.5	371.11	5.294e-06	2.3486e-06	425.75	142.28	123.68	42.677	3.6255e-06	52.602	0.00049628	0.00049818	0.00013886	1362	5.414e-06	5.443e-06	1383	374.51	5.4126e-06	5.4312e-06	426.96	143.4	124.78	43.211	5.4497e-06	52.926	-50.162	-52.084	-46.823	-60.501	229.721	160.339	-60.396	-55.604	52.387	133.622	-56.468	-51.873	-51.313	-46.633	23.438	-47.613	-8191	255	
262.494	1	1	0	0	0.32435	0.23634	0.31839	0.17884	0.24181	0.13549	0.084037	0.1906	0.22791	0.085795	0.12088	0.46171	0.08931	0.24963	0.2849	0.097158	-2.4979	-3.1375	-2.575	-3.1104	-3.025	-2.8792	-3.2708	-3.0604	-2.8833	-3.1458	-2.8333	-3.0583	-2.9979	-2.9125	-3.0646	-3.0521	243.676	13.297	206.836	190.690	207.206	-1.613	-65.955	248.143	206.428	-71.191	-70.758	264.084	-59.998	241.560	36.539	281.658	0.00040141	0.00028684	0.00010727	1375.5	4.6197e-06	2.8973e-06	1372.4	370.39	1.4733e-06	6.1803e-06	425.94	141.8	124.04	42.72	5.0435e-06	52.392	0.0004969	0.0005012	0.00013848	1362.6	5.4215e-06	5.4669e-06	1380.2	374.08	5.4331e-06	5.4573e-06	427.26	143.39	124.81	43.198	5.4563e-06	52.936	-38.749	-57.750	47.267	-60.378	-57.431	98.931	-60.352	-55.424	226.228	133.522	-56.250	-51.709	-51.057	-46.784	29.994	-47.493	-8191	255	
262.590	1	1	0	0	0.078285	0.028214	0.084811	0.17903	0.080661	0.34125	0.16098	0.15466	0.17909	0.18263	0.27208	0.14243	0.19083	0.18384	0.066221	0.1828	-2.6646	-2.9229	-2.8937	-3.0667	-2.6792	-2.6833	-3.4646	-3.0771	-2.9688	-2.8958	-2.9146	-3.1104	-3.0083	-2.8875	-3.2604	-2.9833	177.401	60.272	132.633	-64.115	4.342	25.518	195.360	212.503	-22.570	194.117	216.454	179.314	154.073	222.766	-35.700	276.226	0.00044601	0.00049721	0.00011741	1362.6	1.7951e-06	7.2452e-06	1373.1	371.04	1.6374e-06	3.8383e-06	426.31	142.13	123.24	42.57	3.5002e-06	52.314	0.00050178	0.00050199	0.00013866	1357.6	5.4822e-06	5.4863e-06	1378.7	374.1	5.4406e-06	5.4385e-06	426.57	143.32	124.51	43.084	5.4092e-06	52.823	-33.680	-7.794	-22.052	-60.244	75.009	177.336	-60.615	-55.823	210.109	12.731	-56.410	-51.799	-51.278	-46.689	198.663	-47.730	-8191	255	
262.686	1	1	0	0	0.079632	0.066912	0.0044542	0.10459	0.16826	0.24473	0.063537	0.24844	0.092716	0.052061	0.20745	0.28674	0.21071	0.1204	0.18798	0.31985	-2.3937	-2.9146	-2.6375	-2.8417	-2.9354	-2.7479	-3.2833	-3.125	-3.0021	-3.0667	-2.8104	-3.125	-3.1312	-2.9875	-3.05	-2.9	110.296	160.774	-21.992	71.896	42.332	28.896	244.711	171.545	-71.806	270.780	222.010	261.422	-62.842	256.286	31.128	222.327	0.00051836	0.00027378	6.0059e-05	1366.4	5.0069e-06	5.3507e-06	1376.5	371.13	7.2331e-06	3.9858e-06	424.84	142.3	123.78	42.595	3.2148e-06	52.581	0.00049702	0.00049908	0.00013796	1360.3	5.4547e-06	5.4576e-06	1380.6	374.22	5.4826e-06	5.4466e-06	426.68	143.36	124.73	43.111	5.4199e-06	52.947	-52.839	22.542	13.453	-60.368	78.437	-24.867	-60.334	-55.571	16.915	84.723	-56.318	-51.677	-51.430	-46.905	-11.852	-47.677	-8191	255	
262.782	1	1	0	0	0.13208	0.069627	0.17497	0.23772	0.1421	0.16807	0.26777	0.58707	0.25928	0.039369	0.17163	0.25719	0.20243	0.21214	0.071017	0.14677	-2.4229	-3.0271	-2.8083	-3.0771	-2.9688	-2.6708	-3.1042	-3.0646	-2.9292	-3.0896	-2.8812	-2.8917	-3.15	-2.9021	-3.2604	-3.0646	12.808	218.143	-71.595	236.390	116.766	178.776	168.849	210.000	139.608	172.096	-63.985	221.634	-46.233	257.654	-43.848	247.560	0.00040162	0.00069307	0.00021148	1367.8	4.3962e-06	3.2616e-06	1371	369.9	7.2693e-06	5.6715e-06	427.35	142.07	123.48	42.501	9.8483e-06	52.498	0.00049983	0.00049909	0.00013857	1361	5.4608e-06	5.4704e-06	1378.8	373.75	5.4888e-06	5.489e-06	427.17	143.7	124.6	43.181	5.4539e-06	53.019	-18.981	52.173	2.235	-60.413	71.324	14.216	-60.468	-55.768	-60.617	118.023	-56.112	-51.647	-50.930	-46.893	-2.129	-47.404	-8191	255	
262.878	1	1	0	0	0.054071	0.096271	0.13025	0.14086	0.27832	0.14274	0.069277	0.071756	0.14102	0.13199	0.077905	0.18779	0.1416	0.10494	0.13794	0.09262	-2.2062	-2.9562	-2.8479	-2.9583	-2.9896	-2.5583	-3.1833	-3.0563	-2.8229	-3.1354	-2.8417	-2.8583	-3.1479	-2.9042	-2.9979	-3.0646	204.412	-38.715	-50.957	74.713	25.153	-12.042	281.963	251.108	221.229	-34.906	60.686	-60.720	-10.110	233.921	102.679	-17.130	0.00030235	0.00013726	0.00019307	1372.8	6.6266e-06	7.1056e-06	1371.8	370.94	1.6394e-06	5.0609e-06	425.69	141.58	123.66	42.712	5.9039e-06	52.497	0.00050611	0.00050678	0.00013975	1365	5.5584e-06	5.5497e-06	1379.9	374.6	5.5814e-06	5.5638e-06	427.89	143.65	125.01	43.298	5.5365e-06	53.157	-28.424	-27.196	23.513	-60.370	10.486	87.504	-60.446	-55.579	54.340	35.457	-56.170	-51.612	-51.199	-46.750	40.174	-47.796	-8191	255	
262.974	1	1	0	0	0.072872	0.169	0.1335	0.12612	0.0095344	0.23247	0.2044	0.19753	0.15451	0.26534	0.24663	0.2416	0.13553	0.14631	0.32357	0.1863	-2.1854	-2.9042	-2.8458	-2.8375	-3.1021	-2.8042	-3.0938	-3.1542	-2.8458	-3.0021	-3.0062	-2.9083	-3.1813	-2.8479	-3.0354	-2.85	200.731	99.696	89.602	234.739	280.995	17.805	220.687	189.609	45.066	193.470	257.189	241.027	228.613	219.113	45.963	-31.167	0.00034367	0.00026928	0.00015264	1369.6	1.0983e-05	4.7347e-06	1373.6	370.54	9.3726e-06	2.4931e-06	424.72	142.19	124.05	42.546	2.124e-06	52.601	0.00051365	0.00051163	0.0001424	1368.8	5.6013e-06	5.5936e-06	1380.7	374.6	5.582e-06	5.546e-06	427.91	143.95	124.97	43.154	5.5404e-06	53.139	-12.639	200.516	-18.773	-60.274	117.039	44.390	-60.527	-55.807	99.473	119.454	-56.184	-51.556	-51.231	-46.673	249.709	-47.591	-8191	255	
263.071	1	1	0	0	0.046522	0.098989	0.024538	0.15336	0.063452	0.19319	0.32118	0.41098	0.087883	0.081999	0.061071	0.1676	0.13397	0.23831	0.22245	0.17184	-2.3187	-3.0104	-2.8333	-2.8729	-2.8917	-2.8667	-3.1042	-3.0938	-2.6104	-3.0708	-3.025	-2.9625	-2.9271	-2.6417	-2.8333	-3.275	27.550	-33.078	-22.206	73.254	156.668	62.970	205.524	228.892	-40.626	8.736	-60.402	248.699	162.082	231.534	162.727	270.319	0.0003902	2.3878e-05	0.00015907	1380	2.0587e-06	2.9376e-06	1368	371.13	4.1364e-06	2.5534e-06	425.53	142.17	123.86	42.403	8.6242e-06	52.487	0.0005113	0.00050588	0.0001419	1370.4	5.5985e-06	5.5614e-06	1378.8	374.6	5.5553e-06	5.5316e-06	426.85	143.63	124.95	43.124	5.5449e-06	53.128	-59.932	-44.052	1.151	-60.310	53.329	136.119	-60.240	-55.696	101.951	96.998	-56.345	-51.666	-51.245	-46.755	98.094	-47.836	-8191	255	
263.189	1	1	0	0	0.036881	0.092291	0.07572	0.1283	0.16938	0.076124	0.31894	0.2539	0.18102	0.080591	0.14676	0.1535	0.14991	0.098021	0.07429	0.2399	-2.2396	-2.9729	-2.7708	-2.6979	-3.2146	-2.9521	-2.9833	-3.225	-2.875	-3.1854	-3.15	-2.8979	-2.9417	-2.7604	-2.8729	-3.3042	-7.478	151.123	19.355	268.193	-53.949	252.072	-59.322	201.543	-17.863	65.789	264.438	271.618	171.700	-62.287	67.049	72.156	0.00024128	0.00052856	3.6874e-05	1372.2	6.4933e-06	7.4151e-06	1376.1	371.3	3.6044e-06	5.563e-06	423.02	141.88	123.73	42.497	8.7365e-06	52.519	0.00051078	0.00050772	0.00014219	1368.2	5.5709e-06	5.5434e-06	1383.1	375.04	5.5792e-06	5.5692e-06	427.35	143.85	124.97	43.216	5.6092e-06	53.197	-71.464	-37.436	73.989	-60.405	70.376	39.460	-60.298	-55.593	231.212	51.866	-56.121	-51.668	-51.252	-46.878	13.603	-47.496	-8191	255	
263.286	1	1	0	0	0.10911	0.16901	0.27251	0.09708	0.14058	0.12569	0.36477	0.36755	0.017168	0.16151	0.31997	0.25543	0.1071	0.11031	0.019681	0.16661	-2.2792	-2.8438	-2.7979	-2.7917	-3.0812	-2.9333	-2.9313	-3.2271	-2.9896	-2.9646	-2.9708	-2.8792	-3.1729	-2.825	-2.7812	-3.3187	249.692	101.435	281.113	187.102	111.883	139.442	232.418	197.969	122.747	106.864	172.430	178.016	210.804	-49.968	199.925	179.714	0.00077811	0.00034576	0.00031471	1369.8	6.5451e-06	8.689e-06	1366.1	371.47	3.1059e-06	6.4423e-06	422.77	142.81	123.51	42.517	3.3341e-06	52.711	0.00051124	0.0005132	0.00014318	1369.9	5.5963e-06	5.6037e-06	1382.2	375.38	5.6119e-06	5.6178e-06	428.03	144.13	125.19	43.347	5.6999e-06	53.343	-43.060	120.143	15.349	-60.623	144.839	274.576	-60.453	-55.826	266.545	74.962	-56.287	-51.750	-51.329	-46.700	52.371	-47.614	-8191	255	
263.357	1	1	0	0	0.12076	0.16124	0.35942	0.19804	0.24376	0.1649	0.1941	0.36662	0.18906	0.26489	0.17409	0.19058	0.19595	0.14978	0.28931	0.20982	-2.3375	-2.7354	-3.1896	-2.9854	-2.9104	-2.8937	-3.1417	-3.2062	-2.45	-2.95	-3.1771	-2.7604	-3.0604	-3.1167	-2.7604	-3.0458	-23.174	239.823	13.045	81.224	-32.323	-27.163	203.971	265.187	88.573	80.055	128.692	-26.149	149.118	277.890	132.483	124.063	0.00056772	0.000528	0.00011637	1380	2.2074e-06	8.2599e-06	1370.7	371.15	1.4687e-06	3.1286e-06	425.98	142.54	124.31	42.527	3.6985e-06	52.719	0.0005185	0.00052096	0.0001457	1376.2	5.6805e-06	5.7075e-06	1384.6	375.36	5.6179e-06	5.689e-06	428.92	144.06	125.27	43.28	5.6991e-06	53.279	-27.934	19.580	-21.081	-60.064	-44.269	-4.367	-60.346	-55.750	-42.811	107.015	-56.382	-51.731	-51.138	-46.686	24.356	-47.766	-8191	255	
263.453	1	1	0	0	0.15283	0.088718	0.038948	0.17925	0.10133	0.20407	0.37264	0.070925	0.036826	0.17292	0.18034	0.25575	0.14427	0.14979	0.10868	0.050751	-2.5229	-2.6583	-2.9042	-2.8667	-2.9604	-3.1042	-3.0729	-3.0708	-2.7875	-2.9167	-3.3396	-2.7854	-2.9708	-3.2229	-2.7417	-3.0979	91.191	158.632	-73.677	216.317	192.966	-8.463	258.378	31.906	-43.974	278.268	214.832	63.226	240.883	180.871	180.406	82.057	0.00030968	0.00012351	9.4413e-05	1372.3	8.5484e-06	1.338e-05	1375.6	372.3	4.2254e-06	1.1174e-06	424.74	142.57	123.87	42.405	1.951e-06	52.425	0.00051898	0.00052212	0.00014556	1374.2	5.7157e-06	5.7704e-06	1387.4	376.42	5.7477e-06	5.7938e-06	430.52	144.38	125.76	43.433	5.749e-06	53.335	-24.267	241.168	-8.096	-60.604	195.435	8.393	-60.456	-55.755	98.875	280.514	-56.448	-51.514	-51.304	-47.032	0.319	-47.610	-8191	255	
263.574	1	1	0	0	0.066565	0.10212	0.20257	0.24884	0.21213	0.094913	0.19567	0.24713	0.063363	0.12358	0.18863	0.2274	0.29054	0.13184	0.078894	0.019896	-2.3021	-2.825	-3.1542	-2.6958	-2.9208	-3.0604	-2.8208	-3.0896	-3.1167	-2.8583	-3.125	-3.05	-3.0146	-3.1333	-2.7438	-3.175	97.744	-67.550	-39.753	278.329	-49.488	57.280	179.694	-28.340	157.735	-40.031	-63.291	223.889	235.710	250.030	155.860	66.333	0.00044763	0.00077627	8.4827e-05	1367.3	4.468e-06	6.3911e-06	1376.4	371.6	6.3481e-06	4.5667e-06	426.32	142.44	123.87	42.749	6.8679e-07	52.696	0.0005259	0.00052797	0.00014673	1377	5.738e-06	5.7237e-06	1388.2	376.54	5.6967e-06	5.7288e-06	430.25	144.32	125.34	43.42	5.6285e-06	53.29	-41.638	-21.372	43.115	-60.547	-3.819	194.037	-60.337	-55.639	-34.432	62.307	-56.268	-51.776	-51.271	-46.765	59.727	-47.556	-8191	255	
263.670	1	1	0	0	0.21968	0.16419	0.097753	0.34981	0.14188	0.18437	0.27263	0.10921	0.21596	0.28616	0.13013	0.1358	0.18592	0.29542	0.37749	0.15271	-2.35	-2.6875	-3.0417	-2.8646	-2.7479	-3.0646	-2.7729	-3.0833	-2.9208	-2.8104	-3.1917	-3.0521	-3.0167	-3.1125	-2.6771	-3.0979	163.705	202.682	275.245	224.503	77.111	149.031	187.512	283.809	212.844	176.795	251.902	-21.309	-33.213	-51.737	160.413	217.339	0.00038058	0.00054813	0.00014352	1380.4	3.6625e-06	6.4781e-06	1378.2	373.45	5.7041e-06	4.7863e-06	427.74	142.33	124.53	42.56	3.6915e-06	52.417	0.00051284	0.00051546	0.00014294	1370.9	5.6246e-06	5.6399e-06	1387.5	376.33	5.6045e-06	5.6067e-06	428.84	143.88	125.45	43.323	5.5468e-06	53.198	-39.363	34.177	-10.421	-60.354	53.156	37.719	-60.411	-55.753	88.573	104.843	-56.586	-51.489	-51.136	-47.003	66.943	-47.657	-8191	255	
263.766	1	1	0	0	0.20781	0.16112	0.11354	0.063349	0.20291	0.14388	0.3076	0.04301	0.15836	0.039404	0.24372	0.15307	0.30427	0.061697	0.31557	0.079279	-2.5104	-2.7771	-2.9979	-2.7896	-2.5917	-2.9771	-2.825	-3.1042	-3.1229	-2.9625	-3.2062	-3.0125	-2.7604	-3.0271	-2.7958	-3.0708	153.241	-43.212	-37.799	190.663	242.830	141.545	275.953	-68.639	-9.721	115.816	278.993	283.471	265.658	137.671	210.915	217.944	0.00067631	0.00025025	0.00012968	1371.1	4.3409e-06	5.8629e-06	1376.5	371.49	3.3523e-06	5.539e-06	426.88	142.61	124.51	42.746	4.871e-06	52.417	0.00051551	0.00051607	0.0001424	1373.4	5.6505e-06	5.6385e-06	1386.2	375.58	5.6791e-06	5.6836e-06	429.04	144.29	125.76	43.433	5.6804e-06	53.363	278.226	-27.744	113.679	-60.490	-31.071	244.234	-60.317	-55.779	270.674	227.638	-56.328	-51.722	-50.934	-46.735	69.859	-47.760	-8191	255	
263.885	1	1	0	0	0.094719	0.10604	0.14398	0.083643	0.064748	0.15772	0.21775	0.27989	0.091119	0.1843	0.026603	0.11903	0.56913	0.1474	0.087568	0.11263	-2.5729	-2.7125	-2.9708	-2.9917	-2.6875	-2.9688	-3.1021	-2.9604	-2.8646	-2.6417	-3.0333	-2.8792	-2.9646	-3.2188	-2.825	-2.9375	174.325	206.308	124.789	-49.544	105.964	-65.231	275.108	216.071	284.039	219.994	-31.887	-24.137	252.393	212.741	280.421	244.389	0.00060493	0.00034933	0.0001556	1378.1	3.6076e-06	3.2364e-06	1375.1	372.79	3.162e-06	4.4224e-06	427.02	142.51	124.1	42.747	1.0008e-05	52.754	0.00052197	0.00052423	0.00014521	1376.8	5.7394e-06	5.7161e-06	1385.6	376.68	5.7395e-06	5.7316e-06	429.37	144.41	125.62	43.416	5.6899e-06	53.325	-4.064	50.232	-21.292	-60.660	284.407	92.009	-60.389	-55.373	252.071	61.028	-56.217	-51.760	-51.041	-46.861	-37.348	-47.749	-8191	255	
263.959	1	1	0	0	0.10449	0.11761	0.070833	0.1114	0.15437	0.26078	0.15996	0.13573	0.087599	0.25217	0.18205	0.1821	0.087284	0.06579	0.10982	0.14871	-2.4979	-2.5854	-2.8396	-3.0729	-2.9167	-3.1917	-3.1458	-2.7958	-3.0771	-3.0771	-3.2062	-3.1417	-2.6042	-3.0521	-2.9313	-2.8875	101.352	144.456	-42.976	124.720	99.902	217.255	250.935	212.605	205.867	-3.712	-51.758	247.454	249.032	233.381	178.602	255.189	0.00032673	0.00090666	0.00010627	1375.5	3.9042e-06	6.8523e-06	1372.9	372.26	2.5403e-06	3.9141e-06	427.24	141.88	123.96	42.683	6.1629e-06	52.624	0.00052376	0.00051869	0.00014384	1373.5	5.684e-06	5.648e-06	1384.9	376.13	5.6526e-06	5.6248e-06	429.44	144.1	125.43	43.306	5.6208e-06	53.229	-52.541	0.891	-53.657	-60.581	56.161	76.355	-60.438	-55.661	28.118	86.015	-56.295	-51.784	-51.377	-46.883	105.116	-47.582	-8191	255	
264.055	1	1	0	0	0.21746	0.083495	0.093481	0.17856	0.18602	0.037594	0.31745	0.19531	0.18217	0.097781	0.24275	0.19751	0.063939	0.19399	0.041903	0.13214	-2.7625	-2.8271	-3.1271	-2.9854	-2.7521	-2.8937	-3.0208	-2.6729	-3.2479	-2.7958	-3.15	-3.1479	-2.6875	-3.0229	-2.8812	-2.8083	106.681	116.220	80.240	156.875	68.656	204.921	268.374	283.921	-0.806	233.005	211.074	217.765	261.962	-67.928	13.133	-50.702	0.00049771	0.00025537	9.4218e-05	1368.9	2.0638e-06	3.1888e-06	1377.2	371.13	3.77e-06	6.1354e-06	426.33	142.57	123.8	42.738	1.5173e-06	52.455	0.00051745	0.0005114	0.0001431	1372	5.6388e-06	5.6057e-06	1385.5	376.13	5.5846e-06	5.5974e-06	429	144.29	125.2	43.242	5.5952e-06	53.216	-25.677	-18.243	117.729	-60.378	104.628	89.134	-60.461	-55.737	188.372	71.867	-56.196	-51.829	-51.196	-46.950	183.684	-47.454	-8191	255	
264.175	1	1	0	0	0.1992	0.15439	0.17631	0.10086	0.079133	0.14268	0.20477	0.28191	0.037908	0.21984	0.23755	0.23098	0.17568	0.25111	0.052133	0.23021	-2.5312	-2.8375	-2.9813	-3.0917	-2.7125	-3.0125	-3.0729	-2.9417	-3.2125	-2.9188	-2.875	-3.2479	-2.9188	-3.1458	-2.7583	-2.8625	58.894	256.747	134.061	209.166	26.170	144.543	249.120	260.728	255.933	76.375	247.728	-54.641	226.290	5.543	29.789	259.766	0.00047113	0.00046976	3.432e-05	1387.5	3.2334e-06	9.9295e-06	1376.4	372.29	1.2266e-05	4.0466e-06	425.17	142.61	124.06	42.623	1.9637e-06	52.534	0.00051251	0.00051201	0.0001429	1376.2	5.6144e-06	5.6118e-06	1386.8	376.09	5.6227e-06	5.5884e-06	428.87	144.16	125.13	43.297	5.6257e-06	53.234	-44.816	57.733	9.887	-60.263	78.240	22.125	-60.295	-55.791	-3.717	117.285	-56.203	-51.905	-50.988	-46.805	1.963	-47.552	-8191	255	
264.270	1	1	0	0	0.12611	0.1409	0.1761	0.2059	0.12684	0.19137	0.082146	0.30171	0.10799	0.19915	0.138	0.15926	0.032557	0.35838	0.23445	0.11993	-2.6312	-2.9396	-2.7604	-2.8812	-2.6958	-3.0458	-3.2917	-2.5729	-2.925	-2.8458	-3.0479	-3.2	-2.5875	-3.1021	-2.9875	-2.4688	180.966	256.155	113.314	211.180	-72.488	60.105	-50.648	280.458	155.386	136.624	2.996	231.677	271.985	232.030	-45.520	143.449	0.00020366	0.00046661	5.4316e-05	1374.5	2.0318e-06	2.77e-06	1376.2	372.57	8.1887e-06	3.8234e-07	426.16	142.69	124.08	42.592	4.8504e-06	52.349	0.00051335	0.00051445	0.00014382	1371.9	5.6243e-06	5.6207e-06	1386.8	376.11	5.6059e-06	5.6187e-06	428.55	144.16	125.18	43.338	5.627e-06	53.199	-48.923	68.784	176.941	-60.700	151.454	-31.072	-60.489	-55.670	238.105	68.778	-56.220	-51.727	-51.266	-46.905	76.542	-47.397	-8191	255	
264.366	1	1	0	0	0.34817	0.18446	0.10179	0.15175	0.11341	0.23053	0.16967	0.24292	0.148	0.062051	0.34073	0.24667	0.18566	0.14363	0.18744	0.18801	-2.5312	-2.7729	-2.8229	-3.0208	-2.6479	-2.9437	-3.1979	-2.6813	-2.9875	-2.9771	-2.8208	-3.1937	-2.7771	-2.8875	-2.9562	-2.7	261.117	109.047	-46.399	276.205	21.146	134.523	253.252	-51.922	245.925	156.565	143.483	250.582	-71.409	280.822	-0.388	210.265	0.00056099	0.00040431	0.00018627	1378.7	1.1221e-06	1.3274e-05	1379.9	371.17	5.0661e-06	5.8024e-06	425.48	142.09	123.46	42.59	5.0171e-06	52.455	0.00051652	0.00051614	0.00014424	1376.3	5.6244e-06	5.6212e-06	1388	375.89	5.6031e-06	5.5996e-06	428.85	143.85	124.99	43.321	5.6198e-06	53.195	-9.164	74.701	-15.258	-60.318	103.491	-20.383	-60.477	-55.545	35.441	-32.001	-56.237	-51.937	-51.212	-46.579	64.400	-47.421	-8191	255	
264.487	1	1	0	0	0.11835	0.10695	0.075355	0.09519	0.11933	0.18266	0.18945	0.039664	0.13376	0.25708	0.26514	0.12558	0.36517	0.091031	0.10364	0.30343	-2.5479	-2.9833	-2.8563	-3.1583	-2.7271	-2.7979	-3.0521	-3.0938	-3.1063	-3.1333	-2.8458	-3.15	-3.0438	-2.9583	-3.1708	-2.8604	-47.145	-10.626	16.677	-24.023	248.712	190.635	204.987	128.235	231.344	46.580	-29.594	70.241	253.756	226.570	256.334	116.426	0.00044404	0.00026402	0.00011417	1372.8	8.3989e-07	6.3226e-06	1372.2	371.19	3.7947e-06	8.2726e-06	427.26	142.5	124	42.601	5.9027e-06	52.422	0.00051136	0.00051314	0.00014269	1368	5.5947e-06	5.591e-06	1384.2	375.02	5.5508e-06	5.5643e-06	429.39	143.97	125.13	43.255	5.5452e-06	53.106	-70.051	-53.954	11.490	-59.999	116.986	-66.824	-60.358	-55.550	271.557	29.856	-56.164	-51.727	-51.338	-46.784	231.117	-47.585	-8191	255	
264.583	1	1	0	0	0.166	0.22228	0.24582	0.09191	0.060295	0.17716	0.14046	0.38639	0.095262	0.22979	0.10205	0.35495	0.27234	0.097895	0.2498	0.14541	-2.5687	-3.0333	-2.6708	-2.9667	-2.7021	-2.8229	-3.3271	-2.8604	-3.0854	-3.0396	-2.8917	-3.2667	-2.8438	-2.8688	-3.0125	-2.6104	63.067	90.982	-16.827	-37.403	257.079	214.607	-38.247	185.288	282.541	-47.040	4.419	280.066	-0.449	241.432	-56.542	-52.253	0.00039106	0.00049145	0.00021343	1373.6	2.6774e-06	2.9701e-06	1376.2	371.22	3.9804e-06	5.0465e-06	424.87	142.06	123.44	42.257	5.8911e-06	52.456	0.00050628	0.00051079	0.00014119	1363.4	5.4872e-06	5.5397e-06	1381.2	374.63	5.5039e-06	5.4913e-06	427.74	143.62	124.77	43.154	5.4886e-06	53.064	-47.529	-2.057	-17.456	-60.317	212.465	194.546	-60.231	-55.502	65.935	95.579	-56.154	-51.689	-51.007	-46.792	69.766	-47.672	-8191	255	
264.654	1	1	0	0	0.19351	0.22752	0.20589	0.1756	0.11948	0.11166	0.19403	0.25652	0.06483	0.16799	0.23581	0.22936	0.22321	0.21524	0.030741	0.021351	-2.575	-3.0667	-2.8604	-3.075	-2.8667	-2.8146	-3.1021	-2.9646	-2.9562	-3.1229	-2.9042	-3.1042	-3.0792	-2.9792	-3.1104	-2.9688	142.485	-37.783	96.396	226.221	229.014	-64.395	150.473	251.800	255.857	78.695	-60.319	-70.340	189.694	184.210	218.968	157.607	0.00033582	0.00040845	0.00010405	1373	6.7581e-06	2.3522e-06	1378.1	371.05	1.211e-06	2.8743e-06	427.29	141.62	124.26	42.594	8.1424e-06	52.403	0.00050832	0.00050807	0.00014123	1367.4	5.5506e-06	5.5994e-06	1383.7	375.34	5.5849e-06	5.5913e-06	428.08	143.79	125.15	43.258	5.5406e-06	53.052	-42.378	-20.970	-37.801	-60.252	152.660	-71.207	-60.410	-55.689	219.263	55.706	-56.431	-51.614	-51.268	-47.038	73.531	-47.633	-8191	255	
264.775	1	1	0	0	0.15258	0.2275	0.03348	0.24908	0.14976	0.22331	0.093393	0.085067	0.2706	0.20695	0.2593	0.16481	0.41944	0.054879	0.070071	0.095445	-2.4083	-2.9896	-2.8417	-3.0854	-2.7333	-2.6208	-3.1667	-3.2292	-2.7687	-3.1521	-3.1188	-3.2313	-3.0812	-2.7646	-3.0625	-2.9437	78.766	40.923	211.755	165.333	109.415	-17.521	272.618	266.618	1.781	100.438	245.357	246.610	284.735	257.468	57.204	35.496	0.00015732	0.0003749	0.00013964	1375.4	7.2013e-06	4.5764e-06	1374	370.18	5.7735e-06	7.3116e-06	426.41	142.58	123.69	42.659	3.2023e-06	52.24	0.00051115	0.00050759	0.00014052	1369.4	5.538e-06	5.5593e-06	1383.5	375.08	5.5906e-06	5.5863e-06	428.1	144.16	125.08	43.325	5.5494e-06	53.011	48.272	12.486	-7.996	-60.340	219.154	80.821	-60.427	-55.593	-5.497	145.538	-56.352	-51.686	-51.255	-46.650	93.658	-47.659	-8191	255	
264.871	1	1	0	0	0.098199	0.27338	0.33303	0.254	0.29643	0.097957	0.36621	0.04687	0.18106	0.13492	0.23392	0.26114	0.16716	0.24004	0.039882	0.14665	-2.4042	-2.9771	-2.6625	-3.0875	-3.0583	-2.5604	-3.2146	-3.15	-2.5625	-3.0875	-3.0375	-2.9688	-3.0208	-2.8042	-3.1083	-3.1562	-69.919	-63.208	186.814	216.746	56.611	124.988	262.455	-50.713	-13.345	-68.732	51.519	272.845	264.370	275.009	43.231	146.242	0.00023101	0.00040783	3.61e-06	1374.2	2.1003e-06	5.7647e-06	1372.7	372.98	4.1935e-06	6.0626e-06	425.61	142.24	123.78	42.613	2.2767e-06	52.444	0.00051455	0.00051379	0.00014205	1371.8	5.6342e-06	5.6206e-06	1383.6	375.88	5.6095e-06	5.6062e-06	428.59	143.93	124.99	43.287	5.5652e-06	53.161	272.050	-60.223	93.667	-60.355	60.286	110.151	-60.420	-55.749	-1.356	134.875	-56.213	-51.904	-51.180	-46.500	31.874	-47.734	-8191	255	
264.967	1	1	0	0	0.16317	0.26999	0.099199	0.34713	0.15836	0.32691	0.27018	0.36531	0.058441	0.093754	0.127	0.31133	0.12907	0.17711	0.28791	0.11374	-2.3583	-3.0917	-2.7896	-2.8812	-2.8354	-2.7021	-3.2812	-3.0833	-2.8812	-3.1167	-2.7604	-2.8146	-3.3333	-2.7271	-2.9979	-3.0146	110.678	256.353	145.700	234.412	182.710	135.831	208.434	185.976	140.345	-18.504	265.663	254.324	14.804	-47.858	176.152	256.916	0.00037673	0.00079649	2.7555e-05	1374	4.8584e-06	9.1292e-06	1374.8	370.06	4.0533e-06	4.9582e-06	425.94	142.16	123.77	42.496	6.3998e-06	52.503	0.00051507	0.00051179	0.00014195	1369.1	5.5634e-06	5.5606e-06	1382.8	374.58	5.5383e-06	5.5041e-06	427.53	143.74	124.74	43.172	5.5488e-06	53.119	-35.428	-46.414	-1.476	-60.638	78.348	7.044	-60.327	-55.631	-4.774	220.791	-56.108	-51.803	-51.134	-46.361	31.439	-47.571	-8191	255	
265.062	1	1	0	0	0.060313	0.062488	0.1564	0.014726	0.13643	0.21845	0.22727	0.24279	0.14579	0.11305	0.26539	0.19009	0.19425	0.054345	0.14988	0.013844	-2.375	-2.9875	-2.8417	-2.725	-2.9208	-2.9313	-3.1583	-3.0687	-2.6167	-2.925	-2.9708	-2.9542	-3.3312	-2.875	-2.7708	-3.0417	-33.894	177.817	212.105	277.314	99.059	120.851	125.755	212.497	-0.314	41.132	236.024	189.485	0.953	225.037	283.189	272.296	0.00024831	0.000746	3.8652e-05	1375.2	9.2637e-06	7.713e-06	1371.6	370.82	6.8914e-07	1.9716e-06	425.5	141.39	124.47	42.631	7.2928e-06	52.635	0.00051213	0.00050903	0.00014169	1370.1	5.6092e-06	5.603e-06	1382.3	375.68	5.6618e-06	5.658e-06	429.06	144.18	125.51	43.369	5.7259e-06	53.412	-12.971	9.686	143.391	-60.143	117.997	53.464	-60.499	-55.716	82.122	73.218	-56.197	-51.699	-51.031	-46.825	54.861	-47.688	-8191	255	
265.158	1	1	0	0	0.046594	0.21673	0.3493	0.1474	0.18962	0.034988	0.33526	0.069456	0.091896	0.12744	0.17969	0.06985	0.25109	0.16533	0.11465	0.10912	-2.1417	-3.025	-2.8021	-2.8958	-2.9688	-2.6229	-2.9333	-3.2583	-2.875	-2.9708	-2.9375	-3.1104	-3.2104	-2.8167	-2.7292	-3.0812	113.185	174.705	16.766	278.867	-17.576	116.983	257.983	-56.405	235.080	55.242	225.127	241.360	187.315	22.146	-23.016	146.917	0.00066891	0.00056367	9.5686e-05	1379.3	3.3398e-06	4.2611e-06	1376.2	372.01	1.2187e-06	5.9081e-06	426.26	142.49	123.38	42.772	9.8928e-06	52.602	0.00052645	0.00052631	0.00014631	1380.2	5.7591e-06	5.7779e-06	1390.1	377.31	5.7901e-06	5.785e-06	431.53	144.9	125.87	43.549	5.8352e-06	53.56	-20.755	-33.861	45.181	-60.341	7.085	60.208	-60.409	-55.818	91.066	-4.473	-56.113	-51.678	-51.276	-46.695	63.740	-47.752	-8191	255	
265.254	1	1	0	0	0.2701	0.03578	0.23277	0.13376	0.071339	0.16461	0.25219	0.10908	0.12556	0.15642	0.066047	0.022471	0.087095	0.16559	0.12679	0.22812	-2.2792	-3.0208	-2.9333	-2.775	-3.0667	-2.9146	-3.05	-3.0938	-2.8208	-2.9313	-2.9604	-2.675	-3.1813	-3.0583	-2.7687	-2.9313	116.019	211.856	-6.123	278.283	-71.134	286.164	244.988	-30.105	247.814	128.449	151.252	-51.555	77.826	195.986	99.893	235.535	0.00019029	0.00050516	0.00018186	1377	2.0618e-06	3.0247e-06	1382.5	372.59	5.4695e-06	4.7513e-06	427.54	142.46	123.89	42.697	5.0788e-06	52.779	0.00053381	0.00053468	0.00014855	1385	5.8379e-06	5.7981e-06	1393.1	377.74	5.8293e-06	5.8373e-06	432.74	145.09	125.99	43.524	5.8632e-06	53.608	-24.181	-1.478	-20.387	-60.606	0.408	67.248	-60.311	-55.617	80.732	33.847	-56.321	-51.878	-51.174	-46.940	96.519	-47.834	-8191	255	
265.350	1	1	0	0	0.11959	0.1752	0.12202	0.13832	0.062573	0.16918	0.11864	0.3085	0.10038	0.048017	0.16217	0.18942	0.11144	0.19559	0.17275	0.27566	-2.4292	-2.9958	-3.0208	-2.8875	-3.2542	-2.9062	-3.1458	-3.0938	-2.5604	-2.9542	-3.0833	-2.725	-2.95	-2.9396	-2.9083	-3.3083	281.513	203.041	142.673	-24.319	77.439	235.421	252.522	252.520	44.469	249.340	143.186	250.401	153.748	-14.226	42.017	116.281	0.00053373	0.00024677	0.00010125	1384.8	7.4965e-06	7.0144e-06	1376.6	372.81	1.7696e-06	2.7403e-06	427.31	142.65	123.67	42.644	9.891e-07	52.561	0.00053471	0.00053543	0.00014885	1386.7	5.8214e-06	5.8232e-06	1389.6	377.72	5.8034e-06	5.8456e-06	431.98	144.93	126.05	43.588	5.8912e-06	53.636	-32.346	-22.107	84.817	-60.629	0.088	17.247	-60.381	-55.599	13.643	57.554	-56.355	-51.874	-51.202	-46.886	-63.532	-47.563	-8191	255	
265.446	1	1	0	0	0.059511	0.23063	0.20635	0.19767	0.3059	0.070847	0.20717	0.21194	0.31797	0.11768	0.21387	0.28446	0.041008	0.056855	0.13953	0.22164	-2.2562	-2.8396	-3.0625	-2.6688	-2.8521	-3.0687	-2.9333	-2.9958	-3.0042	-3.0208	-3.1354	-2.85	-3.3458	-3.1167	-2.6667	-3.3	260.422	67.346	156.005	220.630	165.911	274.087	190.591	248.689	243.555	-7.317	-31.530	174.613	236.532	237.846	54.049	270.962	0.00054253	0.00052948	0.00033448	1371.7	5.6464e-06	1.7269e-06	1378.4	372.96	4.434e-06	5.4307e-06	425.69	143.22	123.64	42.679	6.1611e-06	52.602	0.00053287	0.00053557	0.00014949	1384.2	5.83e-06	5.8735e-06	1392.1	377.95	5.835e-06	5.8621e-06	432.07	145.05	125.93	43.569	5.8804e-06	53.573	-22.848	-55.420	3.859	-60.688	183.504	110.998	-60.489	-55.775	121.718	33.166	-56.109	-51.777	-51.204	-46.808	50.976	-47.498	-8191	255	
265.567	1	1	0	0	0.19392	0.21857	0.21847	0.20402	0.054576	0.062796	0.097599	0.41557	0.022427	0.22191	0.1191	0.1207	0.22429	0.21539	0.12278	0.19839	-2.4042	-2.7521	-3.0375	-2.8583	-2.9917	-2.7646	-3.0167	-3.1125	-3.0104	-2.8563	-3.0646	-2.9313	-3.2208	-2.9729	-2.5875	-3.1	248.567	-30.801	260.823	113.583	-7.312	94.454	65.108	225.903	-72.672	-20.143	-11.738	-10.000	-15.395	-69.452	-19.772	282.102	0.00045736	0.00021697	0.00013982	1379.4	3.7303e-06	3.577e-06	1376.5	372.04	1.4344e-06	5.288e-06	428.31	141.87	124.07	42.6	4.991e-06	52.745	0.00053812	0.00054149	0.000151	1388	5.9003e-06	5.9067e-06	1391.3	377.79	5.8852e-06	5.8903e-06	432.44	144.98	126.14	43.59	5.889e-06	53.57	-50.243	143.423	-66.524	-60.135	193.610	173.170	-60.400	-55.694	193.308	73.296	-56.193	-51.689	-51.336	-46.705	71.588	-47.595	-8191	255	
265.663	1	1	0	0	0.16965	0.1294	0.083127	0.32986	0.073372	0.10761	0.16466	0.23073	0.14501	0.09266	0.045801	0.078491	0.24202	0.065333	0.082003	0.15319	-2.5583	-2.7021	-3.025	-2.9	-3.1292	-3.0396	-2.8396	-3.3375	-3.0812	-2.7	-3.2458	-2.9562	-2.9938	-2.9458	-2.7604	-3.1625	118.610	-20.909	65.781	-16.920	27.865	0.499	193.862	227.715	15.848	30.211	205.036	-61.929	274.419	269.808	177.691	-44.557	0.00047174	0.00082454	0.00011563	1374.6	3.7208e-06	1.0531e-05	1377.8	372.65	8.2913e-06	6.0726e-06	425.82	142.29	124.38	42.572	7.5047e-06	52.393	0.0005411	0.00054585	0.00015029	1385.3	5.9482e-06	5.9577e-06	1391.9	378.07	5.926e-06	5.9508e-06	432.14	145.02	126.24	43.577	5.8777e-06	53.493	-47.625	135.200	89.570	-60.393	66.152	45.816	-60.352	-55.590	36.161	61.278	-56.332	-51.734	-51.014	-46.795	33.148	-47.537	-8191	255	
265.759	1	1	0	0	0.096993	0.191	0.14696	0.17839	0.14998	0.030835	0.14447	0.13898	0.065694	0.068316	0.1967	0.25181	0.10901	0.16459	0.32078	0.31284	-2.575	-2.8729	-2.8854	-2.7562	-3.1354	-3.2146	-2.925	-3.2479	-2.9	-2.8104	-3.1042	-2.8625	-3.0062	-3.0417	-2.7271	-3.2146	183.999	14.483	177.546	225.266	261.752	169.679	198.799	189.058	15.673	-3.924	21.488	-64.091	19.620	273.402	168.734	240.163	0.00053535	0.00041885	0.00011889	1375	4.5011e-06	4.2026e-06	1375.1	371.29	1.2703e-06	1.5672e-06	426.42	141.91	123.82	42.565	4.5976e-06	52.665	0.00053905	0.00053748	0.00014965	1383.5	5.885e-06	5.8798e-06	1389.1	376.98	5.8867e-06	5.8821e-06	431.49	144.72	126.04	43.553	5.8694e-06	53.542	-5.450	134.209	235.475	-60.470	74.205	72.151	-60.418	-55.698	-46.167	69.309	-56.177	-51.683	-50.972	-46.804	42.815	-47.326	-8191	255	
265.855	1	1	0	0	0.12859	0.11369	0.077249	0.12768	0.14905	0.22648	0.25411	0.14476	0.0736	0.18806	0.16779	0.22808	0.13464	0.080868	0.056854	0.02365	-2.525	-2.8083	-3.1042	-2.8333	-3.0271	-3.0354	-3.0771	-3.1667	-3.1271	-2.7021	-3.0687	-3.0146	-2.8646	-3.1771	-2.775	-3.2229	191.743	8.317	-0.581	172.911	143.150	8.628	226.337	190.023	181.792	33.278	144.353	206.172	89.519	104.370	-27.796	140.279	0.00067554	0.0002726	0.00012547	1376.6	2.7234e-06	8.0946e-06	1380.8	371.65	8.577e-06	3.3687e-06	428.08	142.43	124.38	42.787	6.8612e-06	52.655	0.00054194	0.00054037	0.00014955	1385.6	5.9551e-06	5.9177e-06	1393	378.1	5.9586e-06	5.9494e-06	432.99	145.25	126.57	43.741	5.9261e-06	53.65	-27.972	108.950	-29.468	-60.486	85.981	23.940	-60.327	-55.758	77.897	45.694	-56.138	-51.719	-51.320	-46.860	130.583	-47.562	-8191	255	
265.952	1	1	0	0	0.15157	0.045866	0.20254	0.13691	0.089443	0.11175	0.42163	0.24284	0.20128	0.18892	0.40761	0.19015	0.13543	0.046469	0.26889	0.31348	-2.7771	-2.6104	-3.1583	-2.8812	-2.7375	-3.2625	-2.7833	-2.9417	-3.175	-2.8583	-3.0771	-3.0833	-2.6104	-3.1146	-2.8396	-2.9896	56.500	168.677	-37.939	270.974	179.311	267.222	244.113	-63.689	30.176	57.763	208.798	145.883	265.446	68.645	155.982	250.405	0.00042367	0.00060643	0.00014222	1379	4.0088e-06	1.2155e-05	1383	374.14	4.4526e-06	6.5784e-06	427.02	143.55	124.26	42.734	3.6164e-06	52.734	0.00054508	0.00054581	0.00015076	1392.3	6.0162e-06	5.9585e-06	1396.9	379.02	5.9717e-06	5.9911e-06	433.54	145.78	126.77	43.728	5.9985e-06	53.851	8.797	-33.534	-38.033	-60.370	146.684	74.425	-60.450	-55.848	2.403	-2.745	-56.197	-51.951	-50.658	-46.621	-65.171	-47.811	-8191	255	
266.048	1	1	0	0	0.08323	0.086997	0.27645	0.17596	0.13547	0.19664	0.30115	0.23421	0.044427	0.3661	0.11943	0.25738	0.12891	0.13086	0.17542	0.26387	-2.4083	-2.7542	-2.8792	-3.075	-2.7958	-3.0792	-3.1792	-3.1	-3.0938	-2.8438	-2.9667	-3.1042	-2.7625	-3.1104	-2.9333	-2.7667	264.275	48.090	7.066	-35.239	109.768	221.581	192.905	216.025	75.555	21.025	68.298	-43.532	-11.233	-21.475	210.248	217.683	0.00024084	0.00028986	5.9421e-05	1385.4	4.5621e-06	5.3926e-06	1381.9	372.9	7.0611e-06	6.0379e-06	428.55	142.54	124.41	42.599	3.2611e-06	52.791	0.00055108	0.00055092	0.00015293	1395.4	6.0267e-06	6.0361e-06	1396.3	379.42	6.029e-06	5.9987e-06	434.29	145.75	126.82	43.706	6.0197e-06	53.811	-40.765	55.591	275.516	-60.454	10.774	77.385	-60.299	-55.676	165.596	-8.621	-56.507	-51.948	-51.182	-46.909	172.118	-47.610	-8191	255	
266.167	1	1	0	0	0.068285	0.20051	0.097329	0.20986	0.24204	0.087054	0.12202	0.24056	0.092528	0.082548	0.43906	0.027104	0.42139	0.2704	0.11142	0.12613	-2.6917	-2.7708	-2.9271	-3.1521	-2.8563	-2.8375	-3.1604	-2.7604	-3.0021	-2.9271	-2.8521	-3.0708	-2.9542	-3.1396	-2.8083	-2.7896	264.005	109.976	16.236	-11.745	170.066	83.107	243.597	89.064	151.923	182.498	235.100	232.167	268.026	243.966	126.690	240.430	0.000296	0.00048479	0.00017995	1384.8	5.8656e-07	5.2894e-06	1375.7	373.55	4.7625e-06	1.3201e-06	427.66	143.01	124.93	42.723	2.4965e-06	52.492	0.000552	0.00055199	0.00015359	1396.7	6.0325e-06	6.0372e-06	1397.7	379.9	6.0411e-06	6.0171e-06	434.95	145.68	127.07	43.75	6.0284e-06	53.82	-21.081	165.778	243.115	-60.509	211.260	-44.549	-60.388	-55.649	-16.981	182.462	-56.237	-51.703	-51.291	-46.613	-10.875	-47.783	-8191	255	
266.263	1	1	0	0	0.27067	0.14024	0.041932	0.19394	0.1211	0.19891	0.14302	0.21856	0.085846	0.1274	0.25834	0.20663	0.065171	0.032754	0.31334	0.065839	-2.7521	-2.95	-2.7938	-3.0792	-2.8417	-2.9271	-3.0396	-2.7875	-3.1604	-2.9396	-2.9833	-3.2438	-2.7646	-2.8688	-2.9979	-2.8625	56.768	256.535	65.983	157.886	-15.736	286.036	-57.445	269.741	2.993	-25.630	236.542	255.220	210.511	33.138	14.249	43.564	0.00039612	0.00066423	5.1782e-05	1384	6.7963e-06	1.2461e-05	1379.9	373.41	7.4689e-06	9.0802e-06	424.58	142.61	124.43	42.683	1.3844e-05	52.504	0.00055037	0.00055013	0.00015337	1397.4	6.0409e-06	6.0464e-06	1397.9	379.91	6.0106e-06	6.0241e-06	433.4	145.53	126.69	43.735	6.0093e-06	53.843	-73.108	19.500	-55.188	-60.669	58.090	-6.496	-60.307	-55.513	107.214	-48.427	-56.169	-51.848	-51.245	-46.894	79.476	-47.523	-8191	255	
266.359	1	1	0	0	0.17407	0.10497	0.065104	0.26135	0.16962	0.075759	0.20703	0.25577	0.054151	0.30312	0.12752	0.060808	0.25318	0.12949	0.10765	0.09377	-2.7229	-2.8625	-2.9479	-3.0771	-2.9208	-2.8417	-3.1021	-2.975	-3.0208	-2.9229	-3.0979	-3.2687	-2.775	-2.9083	-2.9375	-2.9208	197.814	72.456	50.208	257.505	181.849	49.412	195.770	179.791	92.090	128.043	180.953	-72.473	-64.517	59.955	25.475	60.434	0.00060712	0.00034658	0.00021121	1383.1	4.3826e-06	1.1418e-06	1377.5	373.81	9.2563e-06	7.829e-06	427.66	142	125.24	42.668	7.4761e-06	52.616	0.00055257	0.00055269	0.00015357	1394.3	5.9934e-06	5.9655e-06	1396.4	379.57	5.967e-06	5.9655e-06	433.73	145.28	126.77	43.745	5.991e-06	53.807	-49.449	89.450	33.095	-60.270	173.641	-37.764	-60.548	-55.627	29.873	-67.677	-56.268	-51.416	-51.190	-46.580	277.669	-47.524	-8191	255	
266.455	1	1	0	0	0.20301	0.087958	0.1614	0.24	0.18809	0.09258	0.16861	0.19361	0.14773	0.26496	0.06805	0.093438	0.24208	0.25738	0.26685	0.090791	-2.5792	-2.7604	-2.7417	-3.0979	-2.8271	-2.9667	-3.3354	-2.8438	-2.9229	-2.9813	-2.7583	-3.1042	-2.7646	-2.9437	-3.1146	-2.8104	136.793	95.655	99.459	277.973	210.575	196.171	236.377	186.204	-65.232	38.974	-3.221	-53.782	142.946	244.089	52.436	53.498	0.00039391	0.0002045	1.8141e-05	1376.9	4.8523e-06	2.747e-06	1378	374.54	6.1955e-06	2.9759e-06	427.88	143.26	124.95	42.576	4.005e-06	52.663	0.00054603	0.00055179	0.00015339	1394	5.9909e-06	6.0207e-06	1397.3	379.9	6.0132e-06	6.0299e-06	434.42	145.67	126.85	43.75	6.0208e-06	53.805	-39.517	219.920	-69.645	-60.148	282.018	-42.822	-60.593	-55.769	286.011	187.411	-56.208	-51.686	-51.293	-46.890	163.271	-47.703	-8191	255	
266.551	1	1	0	0	0.17368	0.096884	0.23406	0.17605	0.12504	0.16347	0.25679	0.10231	0.13662	0.12128	0.29095	0.10165	0.18499	0.25426	0.19891	0.32314	-2.5563	-2.6583	-2.4917	-3.1396	-2.8792	-2.8833	-3.0042	-2.7646	-3.2021	-2.9875	-2.7083	-3.1937	-2.9458	-2.85	-2.9875	-2.7083	-27.947	221.707	52.806	248.946	-39.888	239.495	236.834	170.408	44.816	200.879	-71.066	170.528	-67.625	177.112	22.132	102.439	0.00046043	0.00033229	5.9415e-05	1379.7	4.7459e-06	3.9801e-06	1378.6	374.21	5.3558e-06	8.0146e-07	426.4	143.21	124.24	42.719	8.7973e-06	52.356	0.00055202	0.00055351	0.00015446	1396.7	6.0383e-06	6.0889e-06	1397.5	379.67	6.0603e-06	6.0891e-06	434.57	146.02	126.7	43.878	6.0726e-06	53.762	-21.404	44.176	59.592	-60.516	75.613	46.804	-60.565	-55.666	154.356	186.525	-56.236	-51.651	-51.009	-46.798	19.012	-47.750	-8191	255	
#DATA ENDS
