BOXY.EXE: ISS Imagent and Oximeter Data Acquisition Program Version 0.80
Ascii Record File

#ACQ INFORMATION
2  Detector Channels 
16  External MUX Channels 
1  Auxiliary Channels 
5000  Waveform (CCF) Frequency (Hz)
1  Waveforms Skipped 
30  Waveforms Averaged 
1  Cycles Averaged 
16  Acquisitions per Waveform 
10.0806  Updata Rate (Hz) 

#FILE INFORMATION
TRUE -- External MUX Channel results are PARSED.
FALSE -- AC DC and Phase are NOT grouped.
TRUE -- Companion Program Settings File CREATED.
FALSE -- AC data not excluded
FALSE -- DC data not excluded
FALSE -- Phase data not excluded
FALSE -- Auxillary Chn. data not excluded
Tab delimiters

#CALIBRATION STATE
TRUE -- Waveform Calibration Values APPLIED.


#AUX CALIBRATION VALUES
Val Type	aux-1	

Term	1.0000e+00	
Factor	0.0000e+00	


#WF CALIBRATION VALUES
A = Detector Channel
Val Type	A-AC1	A-AC2	A-AC3	A-AC4	A-AC5	A-AC6	A-AC7	A-AC8	A-AC9	A-AC10	A-AC11	A-AC12	A-AC13	A-AC14	A-AC15	A-AC16	A-DC1	A-DC2	A-DC3	A-DC4	A-DC5	A-DC6	A-DC7	A-DC8	A-DC9	A-DC10	A-DC11	A-DC12	A-DC13	A-DC14	A-DC15	A-DC16	A-Ph1	A-Ph2	A-Ph3	A-Ph4	A-Ph5	A-Ph6	A-Ph7	A-Ph8	A-Ph9	A-Ph10	A-Ph11	A-Ph12	A-Ph13	A-Ph14	A-Ph15	A-Ph16	

Term	0.00000e+00	0.00000e+00	0.00000e+00	0.00000e+00	0.00000e+00	0.00000e+00	0.00000e+00	0.00000e+00	0.00000e+00	0.00000e+00	0.00000e+00	0.00000e+00	0.00000e+00	0.00000e+00	0.00000e+00	0.00000e+00	0.00000e+00	0.00000e+00	0.00000e+00	0.00000e+00	0.00000e+00	0.00000e+00	0.00000e+00	0.00000e+00	0.00000e+00	0.00000e+00	0.00000e+00	0.00000e+00	0.00000e+00	0.00000e+00	0.00000e+00	0.00000e+00	0.00000e+00	0.00000e+00	0.00000e+00	0.00000e+00	0.00000e+00	0.00000e+00	0.00000e+00	0.00000e+00	0.00000e+00	0.00000e+00	0.00000e+00	0.00000e+00	0.00000e+00	0.00000e+00	0.00000e+00	0.00000e+00	
Factor	1.00000e+00	1.00000e+00	1.00000e+00	1.00000e+00	1.00000e+00	1.00000e+00	1.00000e+00	1.00000e+00	1.00000e+00	1.00000e+00	1.00000e+00	1.00000e+00	1.00000e+00	1.00000e+00	1.00000e+00	1.00000e+00	1.00000e+00	1.00000e+00	1.00000e+00	1.00000e+00	1.00000e+00	1.00000e+00	1.00000e+00	1.00000e+00	1.00000e+00	1.00000e+00	1.00000e+00	1.00000e+00	1.00000e+00	1.00000e+00	1.00000e+00	1.00000e+00	X	X	X	X	X	X	X	X	X	X	X	X	X	X	X	X	

B = Detector Channel
Val Type	B-AC1	B-AC2	B-AC3	B-AC4	B-AC5	B-AC6	B-AC7	B-AC8	B-AC9	B-AC10	B-AC11	B-AC12	B-AC13	B-AC14	B-AC15	B-AC16	B-DC1	B-DC2	B-DC3	B-DC4	B-DC5	B-DC6	B-DC7	B-DC8	B-DC9	B-DC10	B-DC11	B-DC12	B-DC13	B-DC14	B-DC15	B-DC16	B-Ph1	B-Ph2	B-Ph3	B-Ph4	B-Ph5	B-Ph6	B-Ph7	B-Ph8	B-Ph9	B-Ph10	B-Ph11	B-Ph12	B-Ph13	B-Ph14	B-Ph15	B-Ph16	

Term	0.00000e+00	0.00000e+00	0.00000e+00	0.00000e+00	0.00000e+00	0.00000e+00	0.00000e+00	0.00000e+00	0.00000e+00	0.00000e+00	0.00000e+00	0.00000e+00	0.00000e+00	0.00000e+00	0.00000e+00	0.00000e+00	0.00000e+00	0.00000e+00	0.00000e+00	0.00000e+00	0.00000e+00	0.00000e+00	0.00000e+00	0.00000e+00	0.00000e+00	0.00000e+00	0.00000e+00	0.00000e+00	0.00000e+00	0.00000e+00	0.00000e+00	0.00000e+00	2.70886e+01	-1.47570e+02	-1.59823e+02	-1.87769e+02	-7.16749e+01	-1.02766e+02	-1.57019e+02	-1.62015e+02	-1.01898e+02	-8.89711e+01	-1.73571e+02	-1.72116e+02	-1.82981e+02	-1.77625e+02	-1.07765e+02	-1.50887e+02	
Factor	4.90076e-05	9.02078e-05	2.72429e-05	5.41330e-01	1.00772e-06	1.22008e-06	1.72070e-01	5.71424e-02	1.21130e-06	1.00603e-06	1.10401e-01	3.27385e-02	3.12637e-02	9.63839e-03	1.14382e-06	1.41262e-02	4.51512e-07	4.55847e-07	1.26572e-07	2.20301e-01	4.97833e-09	4.98109e-09	7.62968e-02	2.65919e-02	4.98129e-09	4.97910e-09	4.73171e-02	1.42145e-02	1.38173e-02	4.35854e-03	4.97014e-09	6.06963e-03	X	X	X	X	X	X	X	X	X	X	X	X	X	X	X	X	



#DISTANCE SETTINGS
A = Detector Channel
A-1	A-2	A-3	A-4	A-5	A-6	A-7	A-8	A-9	A-10	A-11	A-12	A-13	A-14	A-15	A-16	

2.5000e+00	3.0000e+00	2.5000e+00	3.0000e+00	2.0000e+00	3.0000e+00	1.5000e+00	3.0000e+00	3.0000e+00	3.0000e+00	3.0000e+00	3.0000e+00	3.0000e+00	3.0000e+00	1.5000e+00	3.0000e+00	

B = Detector Channel
B-1	B-2	B-3	B-4	B-5	B-6	B-7	B-8	B-9	B-10	B-11	B-12	B-13	B-14	B-15	B-16	

1.0000e+01	1.0000e+01	1.0000e+01	1.4400e+00	1.0000e+01	1.0000e+01	1.5100e+00	1.9400e+00	1.0000e+01	1.0000e+01	1.9900e+00	2.4900e+00	2.4100e+00	2.9000e+00	1.0000e+01	2.9800e+00	




#DATA BEGINS
time	group	step	mark	flag	A-AC1	A-AC2	A-AC3	A-AC4	A-AC5	A-AC6	A-AC7	A-AC8	A-AC9	A-AC10	A-AC11	A-AC12	A-AC13	A-AC14	A-AC15	A-AC16	A-DC1	A-DC2	A-DC3	A-DC4	A-DC5	A-DC6	A-DC7	A-DC8	A-DC9	A-DC10	A-DC11	A-DC12	A-DC13	A-DC14	A-DC15	A-DC16	A-Ph1	A-Ph2	A-Ph3	A-Ph4	A-Ph5	A-Ph6	A-Ph7	A-Ph8	A-Ph9	A-Ph10	A-Ph11	A-Ph12	A-Ph13	A-Ph14	A-Ph15	A-Ph16	B-AC1	B-AC2	B-AC3	B-AC4	B-AC5	B-AC6	B-AC7	B-AC8	B-AC9	B-AC10	B-AC11	B-AC12	B-AC13	B-AC14	B-AC15	B-AC16	B-DC1	B-DC2	B-DC3	B-DC4	B-DC5	B-DC6	B-DC7	B-DC8	B-DC9	B-DC10	B-DC11	B-DC12	B-DC13	B-DC14	B-DC15	B-DC16	B-Ph1	B-Ph2	B-Ph3	B-Ph4	B-Ph5	B-Ph6	B-Ph7	B-Ph8	B-Ph9	B-Ph10	B-Ph11	B-Ph12	B-Ph13	B-Ph14	B-Ph15	B-Ph16	aux-1	digaux	

309.621	1	1	0	256	0.16441	0.047045	0.12913	0.17914	0.019865	0.11885	0.15719	0.31207	0.28375	0.18305	0.14679	0.3361	0.07521	0.31419	0.21348	0.086711	-2.3333	-3.0208	-2.7208	-2.6458	-3.0646	-2.8292	-3.2167	-2.8708	-2.7104	-3.0208	-2.8208	-2.8937	-3.1208	-2.6688	-2.7687	-3.1229	242.745	165.916	-24.360	-22.837	141.453	276.827	141.106	263.185	199.267	121.272	278.608	-45.423	-36.466	-60.824	236.977	5.106	0.00036793	0.00079477	3.2843e-05	1288.8	2.6645e-06	1.4176e-05	1294	355.45	4.9962e-06	7.8179e-06	409.68	136.63	118.47	40.385	3.6723e-06	50.228	0.00060434	0.00059824	0.00016709	1342.6	6.5594e-06	6.5867e-06	1325.9	366.57	6.6833e-06	6.6518e-06	425.08	142.17	123.32	42.306	6.7828e-06	52.745	-42.788	-28.557	81.133	-59.683	127.029	70.391	-59.809	-55.097	203.855	93.361	-55.779	-51.196	-50.622	-46.087	139.972	-47.033	-8191	255	
309.719	1	1	0	0	0.075352	0.1881	0.1312	0.12591	0.16656	0.17788	0.19879	0.35485	0.19688	0.13609	0.34563	0.12002	0.029278	0.08886	0.2142	0.055298	-2.1604	-3.0667	-2.6396	-2.5833	-3.1354	-2.7083	-2.9333	-3.0958	-2.6437	-2.9688	-3.1083	-2.7271	-2.9813	-3.0104	-2.9125	-2.95	78.324	180.423	212.957	47.978	-56.927	45.951	240.136	231.768	248.948	-63.769	-52.268	-57.432	262.832	208.531	159.310	269.007	0.00058299	0.00073603	3.8749e-05	1288.5	7.8904e-06	2.7013e-06	1298.3	357.07	5.6722e-06	4.3039e-06	409.82	137.39	118.63	40.605	5.6287e-06	50.442	0.00062797	0.00062908	0.0001759	1362.3	7.0023e-06	7.006e-06	1336.5	370.09	7.0841e-06	7.0698e-06	429.6	143.75	124.77	42.698	7.0392e-06	53.125	-38.138	2.960	137.636	-59.898	86.187	74.914	-59.653	-55.014	-5.926	283.772	-55.656	-51.190	-50.659	-46.071	52.387	-47.088	-8191	255	
309.814	1	1	0	0	0.11179	0.16618	0.038365	0.13917	0.10857	0.34461	0.17085	0.23133	0.15116	0.19833	0.047719	0.04006	0.040805	0.083644	0.12668	0.083505	-2.3354	-3.0438	-2.7062	-2.7812	-3.1958	-2.8729	-2.8729	-3.2	-2.7479	-2.8708	-3.0812	-2.7625	-2.9292	-2.9375	-2.6667	-3.3021	243.621	-17.353	177.116	249.367	176.574	176.910	7.231	250.309	42.665	6.098	85.800	35.160	103.108	251.710	29.281	130.909	0.00022384	0.0005788	6.7924e-05	1302	1.5436e-06	3.8733e-06	1317.3	359.18	4.0044e-06	5.5204e-06	412.62	138.62	119.43	40.706	2.0474e-06	50.671	0.00063722	0.00063652	0.00017573	1371.3	6.8526e-06	6.8085e-06	1348.1	370.33	6.6862e-06	6.7554e-06	428.27	143.59	124.46	42.685	6.8105e-06	53.047	276.290	34.206	75.958	-59.827	-59.238	141.264	-59.706	-54.835	262.814	51.101	-55.888	-51.260	-50.652	-46.272	227.864	-47.030	-8191	255	
309.910	1	1	0	0	0.060234	0.094834	0.10238	0.22458	0.068099	0.21933	0.28849	0.15246	0.066649	0.27914	0.081153	0.38281	0.032456	0.29352	0.16087	0.11619	-2.3125	-3.0208	-2.8771	-2.7313	-2.9688	-2.925	-3.0854	-3.1896	-2.7771	-3.0396	-3.0396	-2.8042	-3	-2.9604	-2.6458	-3.1063	166.725	150.231	221.928	-34.363	138.222	49.652	240.551	239.497	81.108	134.425	249.139	275.483	-17.912	255.944	119.066	20.772	0.00028445	0.00025995	7.9054e-05	1313.7	3.1279e-06	4.2937e-06	1323	361.19	5.5452e-06	1.1958e-06	414.39	138.54	120.41	40.97	9.2655e-07	50.914	0.00062496	0.00062915	0.00017537	1377.6	6.9531e-06	7.0013e-06	1354.8	373.12	7.029e-06	7.0778e-06	434.58	145.49	126.43	43.24	7.1867e-06	53.815	-4.819	252.421	9.494	-59.883	51.325	-20.866	-59.794	-55.053	239.864	216.820	-55.548	-51.134	-50.663	-46.144	107.299	-46.898	-8191	255	
310.006	1	1	0	0	0.24129	0.15808	0.085472	0.16584	0.17183	0.17276	0.18835	0.13303	0.24035	0.19768	0.092763	0.19402	0.24118	0.22475	0.12514	0.14634	-2.2729	-2.7625	-3.0042	-2.8375	-2.8375	-2.8375	-2.8021	-2.9708	-2.6458	-2.7229	-3.0167	-2.9292	-3.0229	-3.0187	-2.5708	-3.1104	158.580	-58.417	-26.359	126.290	14.082	7.597	135.463	73.997	180.024	155.665	232.788	183.854	268.025	-2.802	237.842	247.513	0.00033429	0.00014035	0.0001788	1332.9	2.6124e-06	9.063e-06	1334.9	363.42	7.0945e-07	1.9806e-06	418.31	139.01	121.24	41.21	6.5177e-06	51.194	0.00065619	0.00065813	0.00018325	1402.3	7.1826e-06	7.2055e-06	1371.4	376.53	7.1853e-06	7.2044e-06	436.99	146.04	127.02	43.432	7.2362e-06	54.05	2.048	228.559	14.518	-59.589	187.111	13.130	-59.830	-55.203	52.316	104.148	-55.778	-51.351	-50.739	-46.270	107.609	-47.288	-8191	255	
310.102	1	1	0	0	0.29947	0.12249	0.20901	0.050865	0.15047	0.067315	0.31831	0.11051	0.055134	0.16629	0.17055	0.1777	0.34439	0.1342	0.058939	0.32998	-2.3125	-2.4938	-3.0438	-2.6688	-3.1375	-2.8458	-2.8958	-3.0187	-2.8083	-2.8854	-3.1312	-2.7042	-2.8729	-3.0563	-2.4542	-3.0917	162.636	267.111	39.527	32.239	6.573	70.015	214.859	201.177	-25.628	41.128	193.934	134.250	219.023	48.294	224.218	-71.536	0.00057391	0.00033195	0.00018622	1329.9	6.8337e-06	7.177e-06	1330.4	364.31	8.0183e-06	2.545e-06	418.77	139.62	121.4	41.082	5.0687e-06	51.139	0.00066273	0.00066851	0.00018584	1406.2	7.295e-06	7.3249e-06	1371.8	377.96	7.249e-06	7.2539e-06	437.04	146.15	126.83	43.346	7.1717e-06	53.778	-41.649	-42.100	77.987	-59.856	57.526	254.834	-59.618	-54.981	183.680	251.420	-55.742	-51.476	-50.647	-46.102	108.435	-47.066	-8191	255	
310.223	1	1	0	0	0.31104	0.13126	0.077712	0.10588	0.104	0.25667	0.28663	0.28504	0.028068	0.14808	0.32658	0.39383	0.17233	0.22417	0.11814	0.22639	-2.3146	-2.6833	-2.8667	-2.7021	-2.6688	-3.0062	-2.875	-2.9854	-2.8083	-2.6479	-3.0583	-2.8083	-3.0062	-2.9	-2.7833	-3.0208	-40.098	18.159	150.776	269.726	12.873	237.008	209.543	199.585	22.929	34.047	247.260	272.030	85.351	208.618	82.581	186.288	0.00030711	0.00043112	0.00016205	1330.3	3.1888e-06	7.2817e-06	1330.6	365.08	3.5484e-06	2.2814e-06	417.28	138.79	120.73	41.134	9.516e-06	51.401	0.00065597	0.0006634	0.00018508	1404.1	7.3424e-06	7.3973e-06	1369.1	378.3	7.4761e-06	7.5385e-06	440.11	146.8	128.04	43.881	7.7562e-06	54.692	-69.312	5.843	-13.627	-59.832	-68.334	46.957	-59.742	-55.126	-64.199	262.900	-55.821	-51.156	-50.738	-46.141	-58.188	-46.917	-8191	255	
310.319	1	1	0	0	0.29877	0.086142	0.18628	0.13588	0.30602	0.14684	0.27896	0.1873	0.1916	0.080649	0.10532	0.059081	0.24668	0.18064	0.20004	0.15516	-2.2687	-2.5938	-3.0312	-2.7729	-2.8042	-3.0771	-2.8458	-3.1208	-3.0021	-2.6562	-3.0271	-2.9354	-2.6167	-3.1542	-2.7167	-3.0271	252.624	272.575	206.357	124.266	22.934	97.117	251.171	218.082	186.918	93.650	207.789	207.534	-20.355	266.241	147.650	273.834	0.00060764	0.00073362	0.00019012	1331.3	2.0098e-06	7.8575e-06	1337.8	365.65	8.9343e-06	5.1661e-06	418.91	140.22	121.66	41.353	6.6587e-06	51.413	0.00071611	0.00072387	0.00020051	1437.3	7.9921e-06	8.0246e-06	1387	383.31	8.1068e-06	8.0872e-06	447.81	149.37	130.47	44.509	8.1094e-06	55.41	42.350	-41.585	51.574	-59.891	224.627	63.116	-59.809	-55.051	81.678	32.066	-55.681	-51.149	-50.616	-46.481	12.601	-46.952	-8191	255	
310.415	1	1	0	0	0.2519	0.045607	0.038281	0.19019	0.044674	0.0099122	0.24067	0.19094	0.12123	0.1494	0.14408	0.20595	0.2229	0.30661	0.12969	0.2433	-2.5708	-2.7062	-3.2479	-3.0771	-2.7708	-3.2396	-2.9896	-2.9375	-2.8333	-2.5729	-3.3104	-3.0438	-2.6583	-3.3021	-2.7188	-2.7771	270.016	116.706	254.592	238.730	122.830	87.601	261.216	176.969	216.735	154.535	206.569	146.395	-62.665	285.300	150.774	260.324	0.0006366	0.00038155	6.7643e-05	1343.4	4.6068e-06	5.8142e-06	1342	366.76	7.8462e-06	5.3825e-06	422.92	140.51	121.92	41.569	3.9719e-06	51.677	0.00075057	0.00075765	0.00020972	1457.9	8.3232e-06	8.3578e-06	1397.1	386.3	8.3977e-06	8.4058e-06	452.71	150.4	131.38	44.856	8.3292e-06	55.814	263.167	155.613	-71.726	-59.953	-0.052	-66.862	-59.765	-54.932	101.216	155.003	-55.673	-51.102	-50.783	-46.162	234.619	-47.217	-8191	255	
310.511	1	1	0	0	0.12454	0.10239	0.074469	0.029875	0.45027	0.12192	0.29994	0.26256	0.35026	0.10862	0.16523	0.23329	0.11251	0.041382	0.22262	0.27847	-2.6104	-2.5917	-2.9625	-2.875	-2.7812	-3.0667	-3.0292	-2.8458	-2.9125	-2.8979	-2.9396	-2.9729	-2.8917	-3.025	-2.8417	-2.7833	39.400	260.956	280.855	11.580	-53.528	277.864	218.964	163.300	188.339	-41.239	161.489	158.254	170.202	271.233	-27.289	142.889	0.00036031	0.00055944	8.2504e-05	1336.6	3.7519e-06	1.1173e-05	1344.4	368.6	1.9039e-06	7.2776e-06	422.2	140.22	122.11	41.534	6.9007e-06	51.539	0.00076462	0.00076632	0.00021252	1464.7	8.3834e-06	8.3591e-06	1399.5	387.39	8.4052e-06	8.3709e-06	452.66	150.41	131.45	44.813	8.3492e-06	55.792	-28.025	18.057	126.120	-60.028	210.636	52.552	-59.852	-55.001	18.353	-17.841	-55.736	-51.097	-50.632	-46.311	-53.755	-46.973	-8191	255	
310.605	1	1	0	0	0.15851	0.12046	0.12425	0.15744	0.1385	0.22713	0.20976	0.36875	0.085323	0.22678	0.067979	0.15141	0.056557	0.15415	0.22398	0.12423	-2.7521	-2.7083	-3.0812	-2.9208	-2.6604	-2.9708	-3.0333	-2.9813	-3.0458	-2.4333	-3.0062	-2.9354	-2.8729	-3.1833	-2.9083	-2.8438	176.244	1.333	53.224	111.060	266.409	6.419	225.041	270.189	191.497	269.975	187.800	233.342	246.393	277.986	-61.038	238.176	0.00057389	0.00021255	0.00014417	1336.2	8.2973e-06	1.0618e-05	1345.8	366.9	1.3303e-05	4.1247e-06	422.07	140.39	122	41.537	8.5383e-06	51.256	0.00077258	0.00077289	0.00021463	1468.4	8.5158e-06	8.4719e-06	1399.5	387.19	8.431e-06	8.3632e-06	452.39	150.23	131	44.722	8.2847e-06	55.608	-55.697	51.024	-50.893	-59.881	66.393	43.472	-59.908	-55.226	23.200	-37.864	-55.670	-51.337	-50.579	-46.416	-43.952	-46.628	-8191	255	
310.703	1	1	0	0	0.21173	0.1457	0.20151	0.42216	0.19729	0.095008	0.24993	0.095876	0.16768	0.1537	0.058341	0.076515	0.084119	0.38794	0.28195	0.18584	-2.6333	-2.5542	-2.7604	-2.9542	-2.8688	-3.0417	-2.6958	-2.9229	-3.05	-2.7354	-2.9208	-2.8896	-2.725	-2.9729	-2.7896	-2.675	181.423	82.877	28.210	232.529	238.636	271.452	230.504	223.779	138.852	15.152	80.685	114.542	57.437	252.248	197.503	133.806	0.00051655	0.0010001	0.00011249	1331.9	9.4095e-06	5.0807e-06	1341.2	366.27	5.4744e-06	4.9861e-06	422.39	140.08	121.64	41.541	1.4311e-05	51.645	0.00075796	0.00076162	0.00021102	1458	8.3082e-06	8.2791e-06	1395.2	385.69	8.299e-06	8.281e-06	451.39	150.05	131.02	44.774	8.4215e-06	55.846	7.943	-20.900	266.906	-59.682	64.341	-35.882	-59.824	-55.083	-18.984	-3.756	-55.770	-51.450	-50.568	-46.362	71.377	-47.135	-8191	255	
310.822	1	1	0	0	0.13147	0.14009	0.2126	0.22433	0.25627	0.11553	0.33492	0.13452	0.28803	0.30123	0.16003	0.11296	0.1688	0.12115	0.021689	0.16606	-2.5312	-2.7125	-2.7938	-2.9875	-2.6958	-2.8542	-3.0875	-2.7958	-3.1	-2.8292	-3.0333	-3.1667	-2.6562	-3.2062	-2.9667	-2.9333	-55.141	103.086	-66.844	-29.075	95.947	129.412	253.263	237.713	259.682	239.100	-6.839	41.291	206.246	250.052	-30.774	207.742	0.00021785	0.000716	0.00014729	1341.1	3.5965e-06	3.024e-06	1340.6	367.29	4.2519e-06	4.3289e-06	421.32	140.94	122.46	41.543	5.3231e-06	51.506	0.00077209	0.00077403	0.00021554	1469.5	8.4694e-06	8.4921e-06	1400.3	387.04	8.481e-06	8.4713e-06	453.71	151.16	131.54	44.871	8.5574e-06	55.99	29.404	30.917	0.767	-59.914	95.439	-62.992	-59.772	-55.310	-64.753	31.381	-55.710	-51.311	-50.533	-46.046	179.359	-47.208	-8191	255	
310.918	1	1	0	0	0.2844	0.18893	0.158	0.14609	0.067256	0.14849	0.38212	0.34522	0.21183	0.11099	0.1464	0.20645	0.25895	0.10457	0.20614	0.13671	-2.675	-2.7062	-2.8896	-2.9521	-2.625	-2.9417	-3.0708	-2.9583	-3.0687	-2.625	-3.0771	-3.0875	-2.6396	-2.9917	-2.8688	-2.7167	-24.421	221.779	252.065	142.037	16.501	238.652	-67.233	213.855	78.321	52.736	140.528	-39.557	277.682	106.959	7.894	190.819	0.00047394	0.00022278	2.1606e-05	1337.3	2.2976e-06	3.6331e-06	1342.1	367.22	7.7157e-06	5.5066e-06	421.95	141.44	121.9	41.592	8.7351e-06	51.655	0.00077854	0.0007838	0.00021951	1474.7	8.5735e-06	8.6028e-06	1403.8	388.65	8.6048e-06	8.6098e-06	454.55	151.54	131.71	44.926	8.5637e-06	55.994	284.701	31.553	186.301	-59.764	-69.899	127.000	-59.784	-54.991	130.415	165.865	-55.793	-51.187	-50.752	-46.226	162.507	-46.958	-8191	255	
311.015	1	1	0	0	0.14473	0.061935	0.11855	0.23409	0.30812	0.14816	0.22687	0.13211	0.23664	0.16067	0.19929	0.18688	0.066	0.50874	0.21005	0.27117	-2.4938	-2.9479	-2.5062	-2.9583	-2.7625	-2.9604	-3.15	-2.6604	-3.1396	-2.8937	-2.8271	-2.9938	-2.7833	-3.0604	-2.8667	-3.0229	-65.444	-43.416	250.923	179.406	72.231	64.564	211.870	-51.178	123.261	55.027	171.980	271.498	210.508	267.577	7.372	207.618	0.00021196	0.0002408	0.00025174	1337.5	2.5823e-06	5.3854e-06	1341.3	367.38	4.2528e-06	8.73e-06	420.73	139.88	121.48	41.62	8.4256e-06	51.491	0.00077533	0.00077984	0.00021684	1466.4	8.4165e-06	8.4546e-06	1398.3	386.87	8.4342e-06	8.4581e-06	452.85	150.8	130.96	44.859	8.5082e-06	55.802	15.417	-31.026	-16.699	-59.879	84.964	130.814	-59.646	-55.047	268.050	45.587	-55.752	-51.234	-50.621	-46.279	21.960	-46.958	-8191	255	
311.111	1	1	0	0	0.20407	0.042741	0.13484	0.30463	0.1517	0.05099	0.14265	0.22878	0.061281	0.084147	0.12918	0.23233	0.079295	0.080108	0.33562	0.18455	-2.5375	-2.9062	-2.6417	-2.9729	-2.9938	-2.6021	-3.2396	-2.9667	-2.9396	-2.9604	-2.5187	-3.0729	-2.8937	-2.8375	-2.8979	-2.75	204.390	79.660	80.149	238.135	277.145	69.126	180.978	257.309	25.612	241.295	186.920	190.914	216.785	52.839	234.644	165.638	0.00035072	0.00057841	6.6131e-05	1334.8	4.5377e-06	1.4801e-05	1344.1	367.46	1.7578e-06	1.6664e-06	421.8	140.68	121.95	41.563	1.1193e-05	51.534	0.0007779	0.00078372	0.00021814	1469.9	8.5697e-06	8.5837e-06	1401.6	387.94	8.5773e-06	8.6082e-06	454.58	151.34	131.76	45.003	8.6245e-06	56.048	-12.210	-34.558	79.041	-59.661	143.270	106.145	-59.706	-55.086	37.316	216.638	-55.581	-51.145	-50.527	-46.307	118.651	-47.106	-8191	255	
311.207	1	1	0	0	0.21011	0.15093	0.11429	0.26881	0.077746	0.20158	0.16534	0.2157	0.14714	0.061019	0.073939	0.15502	0.069294	0.091037	0.15049	0.15387	-2.35	-2.7875	-2.5854	-2.9354	-2.9125	-2.6813	-3.3208	-2.9729	-2.8479	-3.225	-2.5521	-2.9188	-2.9708	-2.6979	-3.2125	-2.6896	21.791	13.429	-47.448	-72.750	200.735	268.405	196.244	-61.712	181.889	70.489	163.174	237.501	-72.560	-49.021	165.403	233.317	0.00053676	0.00058449	0.00020681	1338.8	4.7652e-06	7.2898e-06	1344.5	366.32	3.9946e-06	5.7704e-06	423.2	140.49	121.46	41.652	6.5965e-06	51.443	0.000786	0.00079663	0.00022012	1476.9	8.6229e-06	8.7262e-06	1403.9	387.69	8.6273e-06	8.6947e-06	454.96	151.07	131.68	44.999	8.5899e-06	55.958	-26.591	-5.083	24.123	-60.147	69.647	94.601	-59.749	-55.074	226.421	39.428	-55.582	-51.275	-50.604	-46.194	65.439	-47.186	-8191	255	
311.303	1	1	0	0	0.19104	0.30753	0.13059	0.094577	0.1562	0.095182	0.25056	0.20827	0.16127	0.10667	0.17695	0.15897	0.08075	0.24879	0.20337	0.36188	-2.3625	-2.7625	-2.8458	-2.8521	-2.8729	-2.6771	-2.9938	-3.0854	-2.7562	-2.9229	-2.7917	-2.9188	-2.9229	-2.7313	-3.0333	-3.0438	167.522	214.607	39.262	260.304	216.930	-58.808	265.477	273.942	109.562	268.849	204.901	92.509	188.057	254.927	91.686	187.317	0.00026466	0.00049579	0.00017816	1342.8	5.8094e-06	2.1655e-06	1345.5	367.22	5.8887e-06	1.0479e-05	421.79	140.77	121.73	41.486	7.4492e-06	51.299	0.00078613	0.00078812	0.00021803	1470.9	8.5534e-06	8.5507e-06	1401	386.78	8.4603e-06	8.4389e-06	451.95	150.53	130.97	44.695	8.3205e-06	55.6	-35.836	-10.689	-27.970	-59.894	-20.198	40.389	-59.732	-54.928	94.033	156.356	-55.678	-51.034	-50.881	-46.198	62.162	-47.252	-8191	255	
311.424	1	1	0	0	0.2444	0.20526	0.075167	0.091629	0.16112	0.35902	0.07174	0.23203	0.071397	0.34233	0.121	0.068513	0.16751	0.26396	0.070079	0.28408	-2.2354	-2.9979	-2.5104	-2.9437	-2.9625	-2.6437	-3.3875	-2.9062	-2.7125	-3	-2.5104	-2.9104	-3.0687	-2.5396	-2.8646	-2.75	-66.230	-7.971	-39.029	165.827	-19.471	-13.683	249.062	194.537	193.052	-47.432	-24.266	51.277	23.230	218.102	119.033	274.490	0.00036851	0.00087577	0.00023834	1330.5	5.2522e-06	4.193e-06	1341.5	366.8	2.6573e-06	7.8442e-06	419.89	140.1	121.7	41.337	8.35e-06	51.275	0.00076221	0.00076232	0.00021128	1459	8.3587e-06	8.3622e-06	1396.4	385.98	8.3651e-06	8.3512e-06	450.75	150.15	130.72	44.596	8.2447e-06	55.504	-4.969	283.146	-2.088	-59.566	199.842	-49.897	-59.725	-55.042	-45.521	4.466	-55.983	-51.259	-50.603	-46.197	57.752	-46.950	-8191	255	
311.518	1	1	0	0	0.21182	0.1676	0.15353	0.16407	0.15966	0.18446	0.3357	0.086281	0.10838	0.32012	0.17098	0.12893	0.11603	0.10412	0.21083	0.20396	-2.175	-2.9958	-2.7167	-2.7687	-2.95	-2.4583	-3.0229	-3.0271	-2.675	-3.0896	-2.8896	-2.9667	-3.0083	-2.8563	-3.1292	-2.6771	-30.662	151.022	-3.061	192.779	61.567	272.261	-58.669	151.028	201.465	-47.904	-72.864	5.956	284.285	178.972	223.917	219.787	0.00032695	0.0003232	0.00018871	1331.2	3.8659e-06	8.1987e-06	1335.9	364.33	1.3546e-05	4.699e-06	416.86	139.71	120.92	41.112	4.637e-06	50.853	0.00075825	0.00075619	0.00020893	1454.1	8.1773e-06	8.1344e-06	1387.3	382.69	8.0033e-06	7.9195e-06	443.72	148.31	128.61	43.947	7.8067e-06	54.548	27.791	214.910	231.735	-59.457	32.323	31.377	-59.883	-55.014	168.325	187.271	-55.624	-51.218	-50.719	-45.951	159.348	-47.031	-8191	255	
311.591	1	1	0	0	0.051823	0.20249	0.13632	0.17101	0.31308	0.052314	0.24052	0.079718	0.15884	0.26244	0.10882	0.17409	0.17261	0.1416	0.08573	0.14582	-2.2042	-3.0292	-2.8292	-2.8854	-2.9604	-2.675	-3.1271	-2.9354	-2.8354	-3.0833	-2.9437	-2.8625	-2.8979	-2.8521	-2.9021	-2.9167	194.316	130.949	165.435	263.103	98.814	144.497	180.137	213.858	28.972	101.771	204.462	228.248	264.742	240.272	268.485	222.264	0.00040903	0.00080708	9.0551e-06	1310.4	4.3317e-06	1.0328e-05	1323.9	362.3	5.9987e-06	1.175e-05	416.17	138.86	119.58	40.935	3.3066e-06	50.905	0.0007162	0.00071485	0.00019844	1422.4	7.8588e-06	7.8131e-06	1370.1	379.1	7.8041e-06	7.7652e-06	441.1	147.16	127.58	43.722	7.7919e-06	54.485	6.255	77.546	235.603	-59.952	116.005	45.852	-59.780	-55.086	273.110	67.325	-55.684	-51.238	-50.718	-45.978	33.925	-46.929	-8191	255	
311.688	1	1	0	0	0.13785	0.14859	0.068741	0.20413	0.10973	0.16251	0.17276	0.17126	0.27289	0.16516	0.071824	0.33592	0.25903	0.091608	0.11316	0.14655	-2.2229	-2.9479	-2.7521	-2.9417	-3.1	-3.0375	-3.1437	-3.0208	-2.725	-2.9875	-2.9458	-2.8458	-3.05	-2.6958	-2.9688	-3.0333	-13.193	57.381	266.314	258.609	150.858	150.510	131.429	68.113	241.951	158.348	64.512	242.519	266.941	37.044	78.997	206.888	0.00041269	0.00051662	5.6425e-05	1307.1	4.8531e-06	6.4293e-06	1319	360.8	3.5211e-06	6.3782e-06	415.89	138.22	119.28	40.811	3.2239e-06	50.829	0.00071394	0.00071554	0.00019939	1418.2	7.8262e-06	7.7868e-06	1367.7	377.45	7.7441e-06	7.6846e-06	439.96	146.59	127.12	43.504	7.6453e-06	54.259	-11.804	56.905	-44.019	-59.808	-44.681	129.459	-59.889	-54.936	-69.033	154.623	-55.707	-51.100	-50.549	-45.972	144.637	-47.210	-8191	255	
311.784	1	1	0	0	0.042225	0.032164	0.094763	0.30842	0.084243	0.12344	0.22763	0.2007	0.2388	0.074538	0.2988	0.33692	0.15408	0.13122	0.17895	0.21194	-2.3979	-2.9729	-2.7542	-2.7125	-2.9271	-2.8979	-2.8812	-3.2396	-2.7229	-2.8688	-3.0333	-2.6937	-3.125	-2.8208	-2.8333	-3.1937	-38.424	168.886	192.316	220.964	248.055	241.223	215.269	262.787	199.472	-36.362	221.021	240.881	164.739	239.712	284.648	-36.992	0.00053839	0.00023287	0.00011297	1305.6	1.7762e-06	4.7638e-06	1310.3	358.69	3.7831e-06	1.7062e-06	413.12	138.17	119.25	40.753	9.2076e-06	50.524	0.00069571	0.00069681	0.00019438	1406.5	7.62e-06	7.6059e-06	1358.2	375.32	7.5573e-06	7.5477e-06	436.87	145.84	126.4	43.27	7.5929e-06	53.845	-43.983	203.850	243.802	-59.764	235.028	145.750	-59.743	-54.906	121.925	179.561	-55.522	-51.115	-50.614	-45.918	69.448	-46.994	-8191	255	
311.903	1	1	0	0	0.21515	0.12104	0.1384	0.050695	0.16783	0.22775	0.17841	0.23972	0.26637	0.041918	0.096142	0.28905	0.11052	0.22687	0.27305	0.12309	-2.375	-2.8583	-2.7333	-2.675	-2.8375	-2.9625	-2.9479	-3.2479	-2.6042	-2.7687	-3.15	-2.7583	-2.9875	-2.8958	-2.6625	-3.1646	42.005	112.110	284.627	-71.698	140.915	72.693	188.379	210.915	71.940	235.436	244.723	266.143	262.632	232.180	114.609	220.623	0.00014092	0.00028279	0.00014019	1299.2	1.0087e-05	7.4615e-06	1308.4	357.28	2.7459e-06	5.7682e-06	410.89	137.79	118.74	40.499	4.9769e-06	50.401	0.00068712	0.00069062	0.00019211	1394.1	7.5149e-06	7.4773e-06	1349.7	372.7	7.4461e-06	7.4458e-06	433.48	144.83	125.32	42.913	7.3888e-06	53.414	36.324	207.374	245.656	-59.890	146.710	49.446	-59.673	-55.251	126.562	180.955	-55.767	-51.084	-50.424	-46.158	-41.676	-46.921	-8191	255	
311.999	1	1	0	0	0.10341	0.30858	0.14353	0.1855	0.036552	0.089423	0.042662	0.065349	0.21628	0.093013	0.30176	0.2235	0.29323	0.13789	0.014225	0.23761	-2.2458	-3.0208	-2.7979	-2.5604	-2.8979	-2.8542	-2.7958	-3.2708	-2.8521	-2.7479	-2.9458	-2.6458	-3.1542	-2.8979	-2.5646	-3.2271	118.519	285.025	263.077	-30.068	-21.390	52.099	22.775	52.407	128.639	27.513	242.827	172.143	282.781	87.577	36.500	160.824	0.00040538	0.0005708	0.00012431	1291	1.2943e-05	1.9301e-06	1290.6	353.69	6.4086e-06	8.6809e-06	406.43	136.21	117.1	39.793	1.7238e-06	49.811	0.00067263	0.00067264	0.00018667	1375.3	7.2895e-06	7.3001e-06	1333.7	367.94	7.1695e-06	7.199e-06	427.12	143.01	123.41	42.339	7.1823e-06	52.874	-30.364	7.607	-34.503	-59.942	124.084	207.777	-59.707	-54.910	165.255	37.672	-55.760	-51.062	-50.461	-45.897	93.315	-46.850	-8191	255	
312.095	1	1	0	0	0.082786	0.068364	0.062264	0.20853	0.13987	0.12125	0.23913	0.1211	0.36212	0.06122	0.25519	0.24796	0.24078	0.12178	0.28615	0.21427	-2.2917	-2.8438	-3.0042	-2.7125	-2.9542	-2.7979	-2.9333	-2.9562	-2.7604	-2.7208	-3.0563	-2.7104	-2.8854	-3.0729	-2.7208	-3.2083	223.694	13.197	209.687	41.829	-62.654	25.842	-25.507	125.943	271.914	208.548	276.387	-72.395	-70.666	75.815	-57.813	199.275	0.00025744	0.0005111	0.00015041	1265.7	2.2377e-07	9.8042e-06	1284.8	351.08	4.5621e-06	1.1467e-06	402.28	134.49	116.02	39.808	4.5066e-06	49.848	0.00065746	0.0006647	0.00018557	1363.5	7.2874e-06	7.3026e-06	1324	366.27	7.2708e-06	7.3112e-06	425.56	142.29	123.23	42.301	7.3252e-06	52.9	-9.066	-65.856	267.128	-59.836	39.403	229.883	-59.352	-54.933	238.383	153.227	-55.493	-50.930	-50.495	-45.973	-5.320	-47.093	-8191	255	
312.216	1	1	0	0	0.058288	0.1784	0.17275	0.23746	0.14926	0.14322	0.22825	0.29323	0.35293	0.15839	0.077185	0.03291	0.2888	0.1166	0.46117	0.059932	-2.3208	-2.6458	-3.2438	-2.4229	-2.8354	-2.8937	-3.025	-3.1188	-2.85	-2.6646	-3.3271	-2.7583	-2.7521	-3.0417	-2.5	-3.1417	175.802	-41.719	74.060	-1.191	62.529	-30.610	273.409	-15.882	130.880	241.542	29.751	95.177	244.285	171.320	-55.178	202.857	0.00052258	0.00033614	6.1029e-05	1264.4	3.7191e-06	3.071e-06	1270.8	351.24	3.1529e-06	5.3541e-06	404.7	135	116.23	39.585	2.596e-06	49.65	0.0006729	0.0006763	0.00018835	1363	7.401e-06	7.4631e-06	1319.7	365.68	7.4292e-06	7.4741e-06	427.31	142.5	123.23	42.312	7.357e-06	52.803	-60.889	249.744	-46.180	-59.680	166.736	23.129	-59.733	-54.919	127.161	3.355	-55.394	-51.098	-50.325	-46.081	265.325	-47.068	-8191	255	
312.287	1	1	0	0	0.11407	0.088689	0.1142	0.21782	0.13183	0.18219	0.20464	0.20893	0.10072	0.19097	0.3508	0.12984	0.12829	0.18179	0.23444	0.081168	-2.375	-2.6813	-2.9021	-2.8187	-2.7417	-2.9542	-2.8208	-3.0833	-3.1458	-2.7313	-3.0062	-2.8875	-2.6354	-3.2292	-2.6188	-2.6292	169.360	-5.749	146.818	276.846	13.064	109.652	259.165	-28.296	47.997	193.873	255.774	-14.959	-15.745	257.391	236.092	-10.966	0.00050943	0.00023767	6.0896e-05	1255.9	3.472e-06	9.0208e-06	1271.3	349.65	7.313e-06	4.4615e-06	401.73	134.01	116.22	39.489	7.4603e-06	49.424	0.00066768	0.00067054	0.00018472	1350.6	7.2275e-06	7.2214e-06	1310.2	363.49	7.1658e-06	7.1951e-06	422.38	141.23	122.36	41.915	7.1155e-06	52.315	12.080	55.772	33.138	-59.441	-50.262	161.602	-59.635	-54.870	26.928	92.576	-55.539	-50.799	-50.257	-46.099	58.582	-46.856	-8191	255	
312.383	1	1	0	0	0.11203	0.158	0.20381	0.069393	0.22543	0.2387	0.25554	0.30608	0.20374	0.071968	0.033757	0.15107	0.074361	0.24148	0.089309	0.2281	-2.4646	-2.4271	-3.0854	-2.7521	-2.5438	-3.1063	-2.7458	-2.9688	-3.0542	-2.7729	-3.1229	-2.8812	-2.8875	-3.2458	-2.6833	-2.9521	124.400	-63.384	125.028	215.692	96.316	-33.851	202.164	203.900	284.939	101.351	145.347	38.813	-47.027	240.677	41.985	209.630	0.00064556	0.00078503	0.00017999	1263.8	6.1502e-06	9.6455e-06	1268	349.86	4.5913e-06	1.8708e-06	403.44	134.64	116.24	39.68	6.587e-06	49.619	0.00065139	0.00065477	0.00018093	1344	7.1664e-06	7.2268e-06	1311.1	364.28	7.2545e-06	7.2752e-06	424.93	142.17	123	42.222	7.2867e-06	52.825	-57.041	31.959	-34.642	-59.842	63.418	118.133	-59.752	-55.010	79.642	12.835	-55.604	-50.934	-50.499	-45.947	77.600	-46.682	-8191	255	
312.504	1	1	0	0	0.055067	0.21038	0.18981	0.088548	0.095267	0.29304	0.28691	0.15381	0.14396	0.24481	0.10705	0.074944	0.025673	0.31418	0.061745	0.12456	-2.6917	-2.5729	-2.9521	-2.875	-2.7042	-2.8896	-3.0354	-2.8208	-2.9562	-2.7854	-2.9813	-2.8604	-2.8	-3.1354	-2.7208	-2.8854	209.836	-25.755	175.375	-36.105	193.789	286.743	124.952	-32.520	2.404	167.763	186.065	-71.482	215.868	-46.966	286.688	100.718	0.0003026	0.0010399	0.00016228	1261.1	5.384e-06	2.026e-06	1271.7	349.64	3.1973e-06	2.8969e-06	402.4	134.83	116.01	39.678	4.8035e-06	49.586	0.00066973	0.00067026	0.00018564	1352.6	7.3201e-06	7.2907e-06	1313.6	364.59	7.2482e-06	7.2244e-06	424.11	141.79	122.77	42.079	7.0972e-06	52.506	-2.911	42.477	276.594	-59.701	262.260	-24.762	-59.632	-54.842	120.823	62.924	-55.564	-50.969	-50.486	-45.902	30.887	-46.912	-8191	255	
312.598	1	1	0	0	0.04958	0.097606	0.18093	0.27172	0.15347	0.16891	0.034919	0.093667	0.30631	0.079856	0.12211	0.13135	0.069149	0.13281	0.11123	0.16926	-2.6625	-2.5333	-2.9167	-3.0104	-2.7625	-3.0167	-2.9146	-2.8229	-2.7583	-2.5958	-3.1208	-2.8833	-2.7271	-3.0625	-2.8187	-2.9375	123.167	251.737	-33.054	-42.590	35.063	93.149	168.555	93.141	25.511	7.756	206.915	-68.512	272.937	262.865	-9.106	152.909	0.00046232	0.00047869	0.00030599	1249.1	4.0913e-06	5.4388e-06	1269.8	349.69	5.0714e-06	1.9363e-06	402.34	134.94	115.53	39.74	1.3042e-06	49.572	0.00065015	0.00064808	0.00017909	1339.8	7.0349e-06	7.015e-06	1306.2	362.54	7.0066e-06	6.9733e-06	421.06	141.23	121.86	41.841	6.9874e-06	52.296	-20.327	88.761	-6.240	-59.497	68.084	84.237	-59.615	-54.840	229.124	-43.643	-55.735	-51.073	-50.338	-45.785	117.395	-46.750	-8191	255	
312.695	1	1	0	0	0.28436	0.15398	0.11688	0.12038	0.19174	0.14536	0.19998	0.31036	0.084975	0.06403	0.3415	0.24997	0.18112	0.18037	0.16086	0.17768	-2.6417	-2.6875	-2.5604	-3.0667	-2.7833	-2.9062	-2.8583	-2.8479	-3.0167	-2.8063	-3.0167	-3.0563	-2.7708	-2.9396	-2.7583	-2.7104	89.433	-0.351	32.913	223.454	179.380	24.777	252.837	274.636	70.846	167.767	-19.788	-44.882	-53.284	283.673	15.470	161.266	0.00017154	0.00051285	0.00023527	1264.3	4.0178e-06	8.2022e-06	1271.7	351.33	9.7773e-06	4.7257e-06	402.07	135.54	116.46	39.831	3.0753e-06	49.678	0.00064249	0.00064384	0.00017864	1342.9	7.0706e-06	7.0805e-06	1310.7	364.5	7.1264e-06	7.1544e-06	424.71	142.24	123.12	42.292	7.2913e-06	52.972	250.652	-29.559	77.788	-59.744	30.436	17.549	-59.531	-54.873	28.717	-38.562	-55.688	-50.844	-50.465	-45.839	229.230	-46.801	-8191	255	
312.815	1	1	0	0	0.21829	0.21539	0.15036	0.065949	0.24534	0.21125	0.27098	0.046307	0.088477	0.16564	0.23172	0.088911	0.19838	0.36821	0.17785	0.16167	-2.4792	-2.7521	-2.9333	-2.975	-2.825	-2.8729	-2.8896	-2.6875	-2.8854	-2.7917	-2.9188	-3.1771	-2.7062	-3.0292	-2.7917	-2.7958	-45.306	261.073	106.017	97.075	201.489	240.944	243.329	120.395	155.762	73.090	136.023	173.978	-51.508	236.233	-54.058	227.643	0.00055896	0.00049109	0.00016587	1281	3.2778e-06	5.9017e-06	1291.3	355.7	3.146e-06	3.3063e-06	409.84	137.4	118.24	40.301	1.0538e-05	50.565	0.00067297	0.0006777	0.00018953	1377.6	7.5038e-06	7.5138e-06	1339.8	371.68	7.6141e-06	7.5919e-06	434.71	145.46	126.13	43.142	7.7494e-06	54.077	279.325	269.142	27.227	-59.330	61.720	-19.162	-59.763	-55.190	-52.668	165.259	-55.712	-51.134	-50.747	-46.188	146.511	-47.127	-8191	255	
312.887	1	1	0	0	0.10925	0.14229	0.1738	0.082538	0.066794	0.1897	0.069886	0.22762	0.13813	0.1482	0.2156	0.13537	0.26675	0.21765	0.20449	0.15507	-2.6479	-2.9	-2.5375	-3.2854	-2.6292	-3.0583	-3.1729	-2.9458	-2.8604	-2.7687	-2.8875	-3.0687	-2.8167	-2.9083	-3.0708	-2.6396	76.720	43.343	242.327	151.469	24.279	255.214	-44.228	209.483	158.779	221.268	-58.213	-45.407	261.733	286.223	-20.463	272.587	8.2237e-05	0.00036694	0.00012534	1299.4	2.5556e-06	9.9754e-06	1311.1	360.14	4.8433e-06	4.15e-06	412.89	138.45	119.37	40.607	6.5409e-06	50.419	0.00070511	0.00070674	0.00019743	1408.3	7.734e-06	7.7383e-06	1358.7	376.63	7.7844e-06	7.7953e-06	438.61	146.53	127.12	43.484	7.8465e-06	54.328	60.374	198.243	137.321	-59.962	186.546	-68.026	-59.824	-55.160	33.621	-27.954	-55.646	-51.197	-50.531	-46.209	48.636	-47.075	-8191	255	
312.983	1	1	0	0	0.1047	0.11572	0.19682	0.29291	0.26282	0.12789	0.095175	0.18993	0.042366	0.10377	0.38567	0.074808	0.32683	0.26581	0.090015	0.12103	-2.6562	-2.7021	-2.9292	-2.8833	-2.7	-2.8396	-3.1375	-2.5604	-3.0812	-2.7375	-2.7271	-3.2771	-2.6396	-2.9979	-2.9313	-2.7042	-52.707	269.368	275.461	171.260	53.486	282.372	192.721	131.186	4.116	199.806	245.049	237.951	222.567	-56.130	5.460	276.190	0.00048265	0.0001998	0.00015152	1314.7	2.4184e-06	7.4424e-06	1318.3	361.12	9.138e-07	7.0036e-06	414.76	137.96	119.98	40.916	6.4352e-06	50.518	0.00071549	0.00072205	0.00020165	1422	7.8694e-06	7.9114e-06	1368.6	378.36	7.8764e-06	7.8911e-06	441.03	146.86	127.62	43.7	7.8729e-06	54.3	-46.019	122.697	52.813	-59.728	146.123	252.355	-59.925	-55.045	4.609	-10.630	-55.636	-51.169	-50.496	-46.172	80.704	-46.903	-8191	255	
313.079	1	1	0	0	0.27563	0.17239	0.27784	0.14472	0.12673	0.13346	0.11792	0.16835	0.19955	0.12492	0.20172	0.042822	0.20259	0.17525	0.015656	0.10972	-2.4833	-2.6625	-2.5979	-2.8625	-2.6208	-2.8312	-3.1646	-2.6896	-2.9562	-2.8792	-2.8042	-2.8271	-2.675	-2.9875	-2.8187	-2.8021	18.817	6.867	100.432	36.417	173.797	239.526	263.509	258.823	54.406	76.720	275.050	-10.286	31.050	195.404	-69.115	118.678	0.00034188	0.00040562	5.1048e-05	1323.5	6.0588e-06	7.7499e-07	1320.4	360.32	3.3865e-06	3.8492e-06	417.45	139.07	119.7	40.645	1.0097e-05	50.704	0.00071414	0.00072289	0.00020137	1422.9	7.8435e-06	7.8911e-06	1369.9	378.54	7.8558e-06	7.9073e-06	441.73	147.18	127.8	43.683	7.8977e-06	54.348	-41.420	208.137	-19.931	-60.038	196.597	78.868	-59.804	-55.053	-29.571	50.342	-55.799	-51.023	-50.804	-46.361	88.655	-47.310	-8191	255	
313.200	1	1	0	0	0.2288	0.1894	0.20084	0.14166	0.26584	0.17325	0.26974	0.32874	0.078319	0.32408	0.1437	0.2289	0.28848	0.21119	0.30987	0.15649	-2.3354	-2.9979	-2.7229	-2.8812	-2.6917	-2.6896	-3.3187	-2.7167	-2.9062	-3.1354	-2.6896	-2.9458	-2.8333	-2.8125	-3.125	-2.8167	209.793	151.575	93.798	-6.284	106.214	196.077	181.061	268.406	71.857	45.567	228.790	26.709	209.115	-4.610	276.286	236.533	0.00037061	0.00069136	0.0001992	1329.6	6.2684e-06	9.6553e-06	1323.4	361.86	1.8383e-06	3.5619e-06	415.23	137.92	120.25	40.834	6.0794e-06	50.864	0.00071865	0.00072578	0.00020159	1425.3	7.8661e-06	7.9623e-06	1373.6	379.03	7.9054e-06	7.9315e-06	441.59	147.04	127.91	43.755	7.887e-06	54.457	-51.826	96.495	251.414	-59.978	93.618	61.735	-59.812	-54.921	54.274	141.458	-55.690	-51.193	-50.594	-46.171	60.612	-46.745	-8191	255	
313.296	1	1	0	0	0.28385	0.054913	0.1363	0.14508	0.068816	0.42121	0.20516	0.17339	0.26865	0.099778	0.44776	0.19721	0.029591	0.30551	0.27936	0.21956	-2.3604	-2.8187	-2.7708	-2.95	-2.9292	-2.5854	-3.1208	-3.0083	-2.7458	-3.4083	-2.6125	-3.0292	-3.1083	-2.6521	-3.0062	-2.9437	264.448	30.738	228.484	-58.758	227.975	190.374	219.046	253.447	-35.302	-27.537	224.701	43.288	-17.099	-60.257	-7.054	179.729	0.00035273	0.00077184	0.00011154	1323	1.3012e-06	3.7162e-06	1327.1	361.37	8.9166e-06	7.1445e-06	416.48	138.2	119.52	40.842	4.3537e-06	50.778	0.00071912	0.00072486	0.0002009	1426	7.9144e-06	7.9322e-06	1376.5	378.8	7.8663e-06	7.8876e-06	441.9	147.09	127.79	43.729	7.861e-06	54.454	-57.684	211.197	196.461	-59.773	220.366	-6.051	-59.627	-55.094	240.851	72.562	-55.562	-51.135	-50.552	-46.118	55.188	-47.008	-8191	255	
313.392	1	1	0	0	0.10759	0.14107	0.17164	0.086962	0.17544	0.03391	0.083705	0.15818	0.24909	0.16332	0.17592	0.077725	0.24598	0.085206	0.19436	0.11674	-2.2229	-2.9667	-2.7292	-2.8625	-2.8354	-2.6042	-3.1375	-2.5625	-2.6667	-3.1042	-2.6583	-2.9729	-2.7854	-2.5271	-2.9042	-2.6521	235.122	145.430	50.654	-22.877	236.794	41.208	182.307	-53.920	-22.943	279.720	-43.627	76.388	-60.464	196.597	-56.008	174.556	0.00054123	0.00060895	9.1561e-05	1318.7	4.0634e-06	9.8342e-07	1329.2	362.35	6.2492e-06	2.1533e-06	415.49	138.43	119.81	40.882	1.8026e-06	50.862	0.00072129	0.00072386	0.00020032	1428.9	7.9329e-06	7.9349e-06	1377.5	379.39	7.9319e-06	7.9197e-06	442.14	147.51	128.32	43.874	7.9005e-06	54.575	-38.196	135.134	-4.208	-59.893	212.681	133.783	-59.820	-55.203	46.253	33.329	-55.644	-51.087	-50.547	-46.234	81.054	-47.178	-8191	255	
313.488	1	1	0	0	0.10626	0.00064646	0.08443	0.15664	0.21575	0.087233	0.24422	0.27474	0.10398	0.10884	0.29177	0.15889	0.091067	0.1732	0.2339	0.14029	-2.4333	-3.0521	-2.4917	-2.8604	-2.7646	-2.6063	-3.0875	-3.0312	-2.9229	-2.9729	-2.9125	-2.7625	-2.9542	-2.6646	-2.9479	-3.0021	58.685	180.000	191.501	216.358	222.480	201.014	194.016	272.086	102.698	234.762	-44.910	269.892	198.502	220.421	119.870	228.635	0.00028488	0.00031647	0.00011807	1319.9	2.5985e-06	8.4232e-06	1333	361.79	3.0267e-06	5.6593e-06	417.54	138.82	120.23	40.965	8.4903e-06	50.885	0.00072945	0.00073124	0.0002028	1435.6	8.0066e-06	7.9588e-06	1380.9	380.11	7.9455e-06	7.9397e-06	442.68	148.04	128.53	43.893	7.8573e-06	54.58	-60.094	6.398	-18.434	-59.756	85.203	35.710	-59.768	-55.123	29.065	91.503	-56.029	-51.239	-50.590	-46.146	-62.599	-47.125	-8191	255	
313.584	1	1	0	0	0.20782	0.29004	0.0851	0.17933	0.046244	0.11187	0.35018	0.36578	0.25346	0.331	0.17394	0.11366	0.22965	0.22281	0.16781	0.071039	-2.3104	-2.9562	-2.6021	-2.9917	-2.9271	-2.65	-3.175	-3.0417	-2.6875	-3.1063	-2.7812	-2.9813	-3.1521	-2.6083	-3.0042	-3.0021	198.085	-52.618	139.951	167.861	237.087	67.596	285.878	216.693	278.400	-0.694	250.925	-37.519	199.083	276.025	161.119	22.777	0.00036043	0.00075851	0.00034673	1323.5	7.1982e-06	9.8264e-06	1331.5	362.31	1.6712e-06	6.8655e-06	417.53	139.26	119.98	41.058	3.04e-06	50.793	0.00072639	0.0007246	0.00020122	1433.5	7.9285e-06	7.8417e-06	1379.6	379.78	7.8223e-06	7.7614e-06	442.07	147.52	127.99	43.741	7.6591e-06	54.267	-3.738	3.536	-10.184	-59.687	94.971	-32.755	-59.733	-55.242	-25.120	127.080	-55.933	-51.266	-50.441	-46.114	113.050	-46.980	-8191	255	
313.679	1	1	0	0	0.055001	0.090755	0.23184	0.026107	0.21884	0.18703	0.22862	0.020547	0.23783	0.18244	0.12813	0.21491	0.16628	0.2084	0.181	0.21029	-2.2396	-2.7396	-2.6625	-2.9417	-2.9562	-2.4854	-3.1917	-2.9604	-2.5563	-2.8208	-2.7917	-2.8812	-3.0479	-2.6771	-2.9583	-2.9208	3.025	123.419	-44.511	189.079	-15.458	264.215	217.176	160.498	179.009	-66.626	226.772	212.290	35.674	250.569	-16.387	238.368	0.00025727	0.00059984	9.2059e-05	1327.8	6.8472e-06	1.4812e-05	1332.6	364.09	4.8719e-06	3.5233e-06	416.29	139.05	120.39	40.875	8.4508e-06	50.801	0.00070002	0.0006951	0.00019278	1421.5	7.6124e-06	7.5749e-06	1375.9	378.57	7.6006e-06	7.5605e-06	439.43	147	127.81	43.677	7.6434e-06	54.172	-51.903	94.299	-9.762	-59.890	48.767	7.832	-59.680	-55.193	41.747	110.997	-55.834	-51.354	-50.624	-46.294	33.022	-47.201	-8191	255	
313.777	1	1	0	0	0.41158	0.1215	0.27866	0.072757	0.13909	0.089301	0.16565	0.21561	0.29235	0.14167	0.1048	0.18409	0.31074	0.08674	0.090368	0.2501	-2.3542	-2.85	-2.55	-2.7625	-3.0417	-2.7458	-3.1896	-3.0729	-2.6604	-2.6479	-3.0938	-2.5438	-3.0833	-2.7833	-2.6375	-2.9813	-53.577	106.426	80.316	282.160	-11.516	229.526	209.764	222.296	117.581	81.854	148.866	195.300	207.189	109.881	143.819	203.765	0.00031771	0.00044215	0.00013919	1325.7	7.1974e-06	1.6572e-06	1334.2	361.64	1.0751e-05	8.9057e-06	416	138.84	120.27	40.982	4.3692e-06	50.65	0.00069946	0.00070026	0.00019595	1427.1	7.7131e-06	7.7404e-06	1378.5	378.95	7.7993e-06	7.816e-06	441.75	147.44	128.33	43.871	7.8514e-06	54.395	263.342	92.590	95.791	-59.910	180.785	185.059	-59.879	-55.329	66.818	82.166	-55.733	-51.063	-50.749	-46.168	37.141	-46.962	-8191	255	
313.896	1	1	0	0	0.16278	0.28533	0.21996	0.12161	0.10996	0.26133	0.25563	0.37864	0.12789	0.2107	0.13033	0.27638	0.083875	0.27491	0.10678	0.28499	-2.0229	-2.9625	-2.9188	-2.5854	-3.0479	-2.7771	-2.8104	-2.975	-2.6208	-2.9188	-3.0083	-2.5917	-3.0062	-2.7313	-2.5979	-3.1667	172.456	3.634	-36.050	213.767	7.382	-25.705	230.767	210.267	44.429	47.147	-44.425	252.627	232.800	15.042	80.665	180.172	0.00050342	0.00046226	0.00011925	1328.9	4.617e-06	4.4394e-06	1334.6	362.5	9.3032e-06	9.7864e-06	415.35	138.85	120.54	40.799	5.2999e-06	50.729	0.00071673	0.0007202	0.00020035	1432.6	7.8924e-06	7.9154e-06	1381.7	380.43	7.9268e-06	7.9291e-06	443.16	147.9	128.74	43.985	8.0008e-06	54.656	-41.117	35.395	27.557	-59.762	11.012	78.896	-59.843	-55.185	7.705	33.247	-55.506	-50.831	-50.566	-46.092	-16.847	-47.018	-8191	255	
313.992	1	1	0	0	0.1415	0.16111	0.20139	0.03956	0.11585	0.11873	0.31549	0.055207	0.2297	0.062168	0.13573	0.12635	0.10807	0.05449	0.3761	0.21433	-2.1083	-2.7583	-2.8292	-2.6979	-2.8417	-2.7354	-2.8625	-2.9938	-2.7896	-2.7604	-2.7438	-2.7375	-2.9354	-2.9396	-2.7687	-3.0667	-38.283	93.307	274.702	95.888	61.275	-17.343	276.634	-65.408	66.803	-28.109	281.341	187.501	21.671	271.689	209.876	224.306	0.00050017	0.0011516	0.00013693	1330.2	8.7382e-06	1.1397e-06	1334.1	361.94	1.0938e-05	7.0211e-06	418.18	138.34	120.55	40.866	1.8204e-06	51	0.00073479	0.00073959	0.00020695	1444.5	8.1593e-06	8.2317e-06	1385.4	381.5	8.2652e-06	8.3584e-06	447.62	149.16	129.84	44.375	8.5008e-06	55.438	-0.863	-17.285	-30.951	-60.078	100.073	187.929	-59.836	-55.104	264.883	0.868	-55.516	-51.066	-50.413	-46.144	41.118	-47.130	-8191	255	
314.088	1	1	0	0	0.159	0.23637	0.090835	0.198	0.080509	0.2269	0.26478	0.36246	0.084457	0.099149	0.28553	0.15805	0.22438	0.089298	0.12456	0.16349	-2.1875	-2.7646	-2.8729	-2.8187	-2.9604	-2.8771	-2.8229	-2.9583	-2.6208	-2.6896	-3.0396	-2.6021	-2.9	-2.9167	-2.45	-3.0417	78.543	102.008	4.875	270.584	94.126	275.819	205.637	247.835	-37.249	209.530	200.093	-45.844	265.242	204.274	244.518	255.069	0.00034384	0.00063372	0.00031521	1327.6	4.8885e-06	1.2099e-05	1334.6	364.9	1.4676e-06	6.024e-07	419.17	140.03	121.27	41.165	6.155e-06	50.968	0.00078177	0.00079033	0.00022174	1473.6	8.7712e-06	8.9069e-06	1400.2	386.83	8.9667e-06	9.0579e-06	456.74	151.89	132.62	45.249	9.3021e-06	56.544	-32.431	129.021	-28.285	-59.593	143.587	60.716	-59.729	-55.064	-56.119	-37.346	-55.662	-51.102	-50.657	-46.078	56.812	-47.079	-8191	255	
314.184	1	1	0	0	0.23502	0.35174	0.15921	0.0859	0.09283	0.095281	0.31168	0.12873	0.18269	0.14974	0.18549	0.21362	0.17857	0.48485	0.080694	0.18209	-2.3104	-2.5479	-2.8021	-2.5979	-2.6792	-2.8854	-2.9708	-3.2208	-2.7896	-2.8354	-3.1708	-2.775	-3.3208	-2.9979	-2.6542	-3.0396	261.474	3.892	141.303	223.441	-7.575	245.146	227.658	86.950	222.573	184.585	214.005	55.275	214.929	244.955	125.761	230.523	0.00045248	0.00090485	0.00019254	1331.8	7.2901e-06	9.0419e-06	1344.5	368.85	9.4897e-06	4.3317e-06	422.16	140.12	121.44	41.493	3.413e-06	51.014	0.00085418	0.00086424	0.0002407	1510.4	9.5032e-06	9.5988e-06	1419.5	393.58	9.651e-06	9.7333e-06	465.14	154.18	134.5	45.854	9.7541e-06	57.327	-25.314	63.689	281.584	-59.704	253.056	208.791	-59.782	-55.083	29.795	94.995	-55.719	-51.320	-50.605	-46.223	-21.591	-47.060	-8191	255	
314.280	1	1	0	0	0.18665	0.07751	0.017028	0.33786	0.042858	0.092026	0.06621	0.21651	0.12045	0.21268	0.1027	0.1539	0.28725	0.069006	0.092931	0.2172	-2.3187	-2.55	-2.9583	-2.9771	-2.7271	-3.0646	-2.9875	-2.9167	-2.9313	-2.8646	-3.2042	-2.8667	-2.95	-3.1854	-2.8146	-3.0208	93.893	194.111	234.654	48.149	-72.007	168.666	269.156	-25.947	-10.710	236.819	138.347	258.627	267.638	253.116	-66.930	203.636	0.00044721	0.00039734	0.00015224	1338.2	5.0505e-06	6.8239e-06	1349.6	367.45	3.4403e-06	4.9847e-06	421.25	140.21	121.91	41.249	8.3405e-06	51.325	0.00089277	0.00090191	0.00025025	1532.4	9.786e-06	9.8746e-06	1428.4	394.67	9.7829e-06	9.8115e-06	466.11	154.62	134.98	45.915	9.8052e-06	57.398	-39.660	160.109	281.848	-59.984	-12.555	6.472	-59.782	-55.043	254.325	-18.532	-55.854	-51.227	-50.802	-46.188	209.762	-47.038	-8191	255	
314.376	1	1	0	0	0.083086	0.13769	0.18806	0.089084	0.073517	0.25288	0.22077	0.17434	0.18818	0.1128	0.063152	0.24321	0.21365	0.12363	0.073975	0.13394	-2.625	-2.5417	-2.8292	-2.9292	-2.7833	-3.1125	-2.7083	-3.0792	-2.6625	-2.6167	-3.0292	-2.7333	-2.8146	-3.1937	-2.6292	-2.9688	195.458	93.635	119.161	218.642	235.172	83.868	284.991	280.615	184.354	217.917	-71.266	161.634	191.085	259.777	283.205	-59.677	0.00065975	0.0003075	0.00019667	1341.7	3.2084e-06	7.7285e-06	1348.2	367.07	1.7985e-06	7.8226e-06	421.07	140.29	121.96	41.118	2.2226e-06	51.56	0.00089656	0.00090125	0.00025113	1531.5	9.8514e-06	9.8658e-06	1427.3	395.11	9.8503e-06	9.8809e-06	465.2	154.45	134.97	45.769	9.7112e-06	57.422	-9.159	-29.589	-38.374	-60.090	183.315	-11.615	-59.700	-55.014	91.257	267.577	-55.578	-51.237	-50.493	-46.238	-59.543	-47.343	-8191	255	
314.497	1	1	0	0	0.19422	0.13038	0.27117	0.15493	0.03188	0.10656	0.30797	0.24865	0.20365	0.33785	0.033084	0.062196	0.079811	0.25359	0.068359	0.041507	-2.3979	-2.4479	-3.0938	-2.8125	-2.6063	-3.1792	-2.6958	-3.0438	-2.9729	-2.5271	-3.1208	-2.7833	-2.8146	-2.9167	-2.5146	-3.0042	199.475	11.817	-37.933	279.053	271.307	217.234	260.149	258.132	140.931	118.963	111.082	-22.586	-14.013	205.603	20.475	202.475	0.00019646	0.00062485	0.00015675	1337	7.6581e-06	2.2173e-06	1339.5	367.76	1.9595e-06	4.2956e-06	421.31	139.84	121.43	41.223	4.7023e-06	51.457	0.00088746	0.00089266	0.00024751	1526.6	9.7969e-06	9.7633e-06	1422.4	394.07	9.6943e-06	9.664e-06	463.72	153.73	134.41	45.647	9.6132e-06	57.244	261.824	23.504	71.012	-60.209	94.249	17.063	-59.659	-55.221	3.685	19.614	-55.939	-51.217	-50.514	-46.101	256.028	-46.935	-8191	255	
314.591	1	1	0	0	0.15327	0.12012	0.18414	0.19441	0.26491	0.21627	0.17748	0.12191	0.096985	0.26108	0.099627	0.17049	0.067615	0.22979	0.18548	0.21933	-2.6521	-2.5021	-2.9021	-2.9104	-2.6354	-2.8854	-2.9354	-3.1208	-2.9938	-2.6188	-3.1375	-2.9229	-2.4	-3.3604	-2.6479	-2.9583	72.482	59.333	-55.980	181.946	17.631	50.466	197.690	-32.134	147.986	200.462	-36.166	253.182	169.857	276.719	209.326	201.549	0.00056723	0.00086439	6.0269e-05	1329.7	7.2788e-06	6.7518e-06	1344.2	367.29	8.8369e-06	2.1626e-06	421.37	139.87	121.93	41.33	1.3292e-05	51.268	0.00087929	0.00088336	0.00024512	1523.4	9.6971e-06	9.6356e-06	1421.5	393.84	9.6947e-06	9.6624e-06	464.02	153.88	134.67	45.651	9.6583e-06	57.309	-30.920	4.031	41.632	-59.700	-3.409	-7.614	-59.788	-55.088	-20.874	171.535	-55.758	-51.102	-50.374	-46.064	17.094	-46.953	-8191	255	
314.687	1	1	0	0	0.23826	0.097082	0.34393	0.19705	0.29724	0.054432	0.3073	0.33558	0.093994	0.055685	0.23865	0.098093	0.19743	0.27664	0.10645	0.16899	-2.575	-2.6208	-2.825	-2.8563	-2.7521	-2.9729	-3.1771	-2.8854	-2.8542	-2.4813	-3.0563	-3.0396	-2.6292	-3.1583	-2.6167	-2.8521	-11.771	82.860	184.965	113.483	-67.227	91.149	233.148	-71.151	102.201	-71.940	212.722	143.292	2.050	277.646	249.199	215.669	0.0006001	0.00050983	0.00012291	1349	1.4826e-06	6.5106e-06	1347.1	367.37	9.5354e-06	4.5061e-06	419.43	139.71	121.64	41.227	2.0908e-06	51.341	0.00088659	0.00088727	0.00024641	1527.6	9.6568e-06	9.5987e-06	1421.8	393.85	9.622e-06	9.5453e-06	462.16	153.32	134.12	45.44	9.3984e-06	56.92	-18.285	81.911	137.140	-59.806	179.638	107.201	-59.803	-55.266	220.436	-22.079	-55.818	-51.297	-50.522	-46.220	145.185	-46.997	-8191	255	
314.761	1	1	0	0	0.14587	0.17127	0.15485	0.14236	0.19227	0.28375	0.27509	0.27543	0.092471	0.14	0.060069	0.16944	0.17167	0.16365	0.25094	0.044489	-2.5333	-2.6813	-2.8375	-3.0625	-2.6979	-2.9583	-2.9604	-2.7938	-2.9979	-2.5396	-2.8646	-3.125	-2.9938	-2.9792	-2.9271	-2.7438	-43.191	139.100	-41.976	20.088	181.680	272.901	234.044	-48.111	220.562	192.160	40.412	-65.391	206.926	60.375	94.161	263.370	0.00036485	0.00077648	0.00011077	1336.2	1.8325e-06	2.8931e-06	1341.7	365.42	3.2517e-06	6.3557e-06	419.91	139.37	120.75	41.086	8.4233e-06	51.233	0.00085522	0.00085178	0.00023711	1505.1	9.2826e-06	9.2028e-06	1412	390.59	9.1687e-06	9.1785e-06	458.54	151.89	132.71	45.055	9.1313e-06	56.39	-42.768	277.815	117.140	-59.576	63.459	163.170	-59.767	-54.852	-10.051	112.695	-55.544	-50.984	-50.711	-45.705	-56.275	-47.033	-8191	255	
314.880	1	1	0	0	0.013996	0.22875	0.32442	0.060067	0.26589	0.21629	0.32955	0.25716	0.077586	0.18731	0.24791	0.086073	0.30579	0.1429	0.2121	0.2374	-2.4458	-2.6312	-2.8271	-3.1188	-2.6458	-2.8271	-3.0187	-2.9167	-2.9875	-2.8854	-2.7333	-3.0083	-2.7229	-3.0417	-2.7125	-2.7667	272.579	277.027	-47.737	148.935	276.642	7.858	201.807	147.831	26.192	-14.174	260.821	221.592	200.488	-59.962	43.396	216.783	0.00024079	0.00010716	0.00012951	1341.7	6.5542e-06	1.0492e-05	1343.3	366.12	3.1431e-06	6.9514e-06	420.5	139.62	120.92	41.053	2.4916e-06	51.285	0.00083083	0.00083384	0.00023332	1498.2	9.1219e-06	9.1428e-06	1410.7	389.56	9.1271e-06	9.0533e-06	457.09	151.64	132.17	44.902	8.9916e-06	56.177	-36.647	247.517	3.115	-59.618	108.853	109.449	-59.831	-55.060	158.455	131.204	-55.722	-51.368	-50.709	-46.127	266.610	-47.080	-8191	255	
314.976	1	1	0	0	0.28014	0.11291	0.16418	0.046166	0.13033	0.27154	0.27348	0.19005	0.18576	0.10337	0.44223	0.10415	0.093918	0.27167	0.028671	0.12587	-2.5979	-2.4833	-2.6333	-3	-2.6312	-2.9188	-3.1958	-2.8312	-2.7521	-2.9333	-2.8771	-3.0604	-2.8	-2.925	-2.9833	-2.6479	39.748	197.537	41.070	64.579	-29.743	-69.213	220.455	271.122	223.513	197.624	167.674	-68.013	265.920	61.828	199.315	0.743	0.00066195	8.8566e-05	0.00016511	1332.8	4.5749e-06	1.496e-05	1340.9	365.54	3.8658e-06	5.332e-06	418.49	139.28	121.23	40.722	7.3314e-06	50.97	0.00081684	0.00081539	0.0002268	1485.3	8.8307e-06	8.8361e-06	1402.6	386.88	8.7316e-06	8.7146e-06	453.25	150.51	131.08	44.475	8.6982e-06	55.571	-14.243	271.268	-22.834	-59.832	91.908	88.956	-59.923	-55.012	13.287	68.149	-55.740	-51.132	-50.471	-46.085	85.487	-46.921	-8191	255	
315.072	1	1	0	0	0.068645	0.26492	0.23391	0.28615	0.10544	0.30603	0.046265	0.070567	0.19957	0.032934	0.21763	0.085142	0.206	0.054005	0.17819	0.16124	-2.2896	-2.8958	-2.7167	-3.0438	-2.5396	-2.8396	-3.1604	-2.7646	-2.9604	-3.0563	-2.7917	-2.9104	-2.7604	-2.9292	-3.0938	-2.5958	181.141	147.911	286.191	107.761	20.755	-44.712	203.775	252.345	48.041	24.307	-24.500	184.184	197.228	36.310	281.282	204.229	0.00043498	0.00063017	0.00022644	1321.2	2.6159e-06	1.3862e-05	1335.8	363.17	2.3419e-06	6.8132e-06	417.03	138.66	120.16	40.753	3.6648e-06	50.878	0.00078575	0.00079371	0.00022037	1463.9	8.589e-06	8.5774e-06	1393.2	384.24	8.475e-06	8.5027e-06	449	148.96	129.9	44.181	8.4431e-06	55.153	-52.871	-12.573	-35.057	-59.880	215.679	19.233	-59.680	-55.061	216.445	286.548	-55.516	-51.285	-50.706	-46.078	147.999	-47.078	-8191	255	
315.168	1	1	0	0	0.25827	0.26218	0.23182	0.043856	0.10824	0.12265	0.16466	0.16473	0.2078	0.16433	0.15625	0.35407	0.2425	0.14886	0.13094	0.29656	-2.5583	-2.8312	-2.5458	-2.8146	-2.8292	-2.8292	-3.025	-2.8333	-3.0938	-2.7167	-2.6708	-2.9875	-2.8271	-2.7458	-3.0354	-2.8104	126.410	13.163	89.699	-28.001	246.469	255.113	218.692	-43.500	-25.277	133.761	232.475	286.737	-46.592	247.591	270.389	225.444	0.00041928	0.00091399	0.00010716	1321.6	8.515e-06	7.4641e-06	1325.6	361.73	7.6143e-07	7.3831e-06	414.81	138.11	120.03	40.489	2.5711e-06	50.562	0.00076418	0.00076794	0.00021246	1449.5	8.3233e-06	8.3547e-06	1382.1	381.26	8.2478e-06	8.3084e-06	445.09	148	128.88	43.834	8.2155e-06	54.697	-25.579	145.227	70.439	-59.945	-0.297	56.300	-59.610	-54.973	77.020	108.303	-55.678	-51.030	-50.446	-46.032	203.999	-46.996	-8191	255	
315.289	1	1	0	0	0.11454	0.12204	0.1257	0.14929	0.1402	0.34603	0.14562	0.073835	0.11771	0.12389	0.16128	0.13429	0.10374	0.10002	0.092425	0.058204	-2.4979	-2.9979	-2.7521	-3.0687	-2.6083	-2.775	-3.2771	-2.875	-2.8979	-2.8312	-2.8083	-3.05	-2.8563	-2.8125	-3.0354	-2.8979	-44.218	101.633	210.212	46.862	55.366	93.478	43.910	282.929	163.120	67.866	61.542	251.183	168.233	245.560	206.874	174.091	0.00058582	0.0004858	0.00011839	1320.6	8.4917e-06	8.4355e-06	1324.2	360.34	2.4188e-06	2.6648e-06	414.33	137.12	119.52	40.477	4.3299e-06	50.807	0.00074748	0.00075187	0.00020875	1437.5	8.1572e-06	8.1907e-06	1375.8	379.89	8.157e-06	8.1798e-06	443.33	147.18	128.52	43.736	8.1671e-06	54.643	-0.265	-53.249	174.277	-59.604	117.607	215.989	-59.887	-54.936	221.044	33.192	-55.609	-51.333	-50.439	-46.088	89.601	-46.893	-8191	255	
315.385	1	1	0	0	0.10782	0.50706	0.24426	0.085593	0.0949	0.091823	0.15988	0.19231	0.19294	0.41023	0.066378	0.13664	0.1724	0.29754	0.25472	0.21598	-2.5146	-2.8979	-2.6167	-2.9021	-2.8979	-2.8937	-2.975	-2.6708	-2.8083	-2.9813	-2.7188	-2.9708	-3.0042	-2.6125	-3.0396	-2.6979	260.543	158.246	132.684	131.434	167.060	169.171	165.872	269.147	257.889	-12.278	242.864	262.952	168.029	233.976	237.935	283.624	0.00060351	0.00033688	0.00017416	1311.9	2.6915e-06	7.6168e-06	1323.3	360.98	2.4612e-06	4.5191e-06	414.69	138.53	119.42	40.507	5.2079e-06	50.406	0.00074618	0.00074777	0.00020733	1436.3	8.1612e-06	8.1711e-06	1374.8	379.63	8.1662e-06	8.1459e-06	443.46	147.52	128.23	43.64	8.0248e-06	54.431	-25.500	186.750	273.004	-59.802	-23.747	43.333	-59.768	-55.171	150.555	41.001	-55.561	-51.084	-50.730	-46.296	111.108	-47.165	-8191	255	
315.457	1	1	0	0	0.32919	0.10401	0.11342	0.10675	0.27577	0.17521	0.35582	0.25421	0.061491	0.35784	0.19514	0.1856	0.0643	0.30568	0.069528	0.2837	-2.3333	-3.0646	-2.625	-2.9542	-2.8479	-2.7354	-3.0792	-2.8479	-2.9125	-3.0479	-2.7979	-2.9938	-3.0583	-2.6729	-2.9771	-2.9708	185.868	55.791	52.769	45.069	89.514	114.664	225.394	222.238	80.240	85.378	-47.360	217.336	-1.198	-26.035	261.411	272.930	0.00020799	0.0002492	0.00020139	1313.6	5.7982e-06	8.5095e-06	1318.2	359.68	1.3504e-06	1.8159e-06	412.68	136.93	119.36	40.576	4.9463e-06	50.535	0.00073828	0.0007385	0.00020374	1425.2	7.9839e-06	7.9633e-06	1365.1	377.05	7.9244e-06	7.8765e-06	439.28	146.11	127.5	43.358	7.8715e-06	54.258	-37.432	189.180	5.813	-59.833	174.741	12.373	-59.703	-55.174	74.774	43.632	-55.532	-50.969	-50.781	-46.050	92.051	-46.772	-8191	255	
315.577	1	1	0	0	0.23618	0.13618	0.18248	0.17813	0.074605	0.15051	0.19434	0.053819	0.18167	0.17063	0.13691	0.37222	0.13204	0.052343	0.17648	0.12979	-2.1021	-3.1125	-2.6375	-2.7521	-3.1188	-2.6583	-3.0979	-3.1417	-2.6583	-2.8958	-2.9979	-3.05	-2.9562	-2.7854	-2.9875	-2.8937	153.960	31.083	-21.206	43.498	136.416	62.160	159.858	222.109	116.957	-16.519	-15.496	247.567	263.891	-67.847	32.645	42.961	0.00035951	0.0007246	6.9006e-05	1302.3	3.8155e-06	1.2018e-05	1318.7	361.23	5.3406e-06	5.5976e-06	413.27	137.64	119.03	40.235	5.1115e-06	50.471	0.00072618	0.00072661	0.00020225	1419.4	7.9712e-06	7.9592e-06	1365.7	377.91	8.004e-06	7.9995e-06	441.27	146.82	127.84	43.465	8.0155e-06	54.43	-57.248	-24.399	35.777	-59.785	6.960	42.055	-59.822	-55.039	278.267	16.370	-55.603	-51.172	-50.831	-45.979	184.281	-46.879	-8191	255	
315.672	1	1	0	0	0.124	0.12776	0.034791	0.061383	0.058152	0.055105	0.14718	0.33907	0.066655	0.11382	0.19645	0.14226	0.19345	0.11777	0.32295	0.3215	-2.2458	-2.7562	-2.7542	-2.8292	-3.0104	-2.8729	-3.0583	-2.8958	-2.7125	-2.9437	-2.7917	-2.7021	-3.1042	-2.95	-2.9542	-3.0083	10.322	38.776	218.758	223.601	202.111	193.447	196.895	-57.841	222.320	220.815	190.076	-59.733	221.266	233.850	175.752	169.346	0.00011382	0.00023522	0.00014689	1316.2	3.4257e-06	9.7088e-06	1317.5	360.17	1.0661e-05	8.4835e-06	414.88	137.38	118.78	40.407	5.9714e-06	50.247	0.00073696	0.00073492	0.0002042	1428	8.0858e-06	8.0723e-06	1369	378.18	8.0918e-06	8.0328e-06	442.24	146.98	127.85	43.5	8.0511e-06	54.446	63.339	72.781	157.739	-59.714	64.613	85.774	-59.703	-55.135	105.124	7.462	-55.633	-51.384	-50.699	-46.129	51.060	-46.912	-8191	255	
315.768	1	1	0	0	0.18607	0.095885	0.073054	0.054581	0.30444	0.23857	0.29476	0.15506	0.13727	0.19497	0.16963	0.079987	0.18709	0.21893	0.086388	0.090834	-2.0021	-3.0875	-2.8771	-2.6104	-2.9771	-2.8792	-2.9417	-3.1625	-2.6479	-3.0271	-2.7854	-2.8396	-3.1396	-2.7917	-2.9083	-3.2896	40.953	94.063	233.975	-24.666	261.400	16.661	221.072	266.108	283.775	198.236	137.193	-58.152	242.954	236.444	49.197	31.348	0.00038208	0.00020292	0.00013486	1314.9	2.0952e-06	2.7793e-06	1313.7	360.34	5.1906e-06	2.6297e-06	414.86	137.71	119.01	40.598	3.366e-06	50.301	0.00073936	0.0007399	0.00020579	1430.2	8.0786e-06	8.0386e-06	1367.4	378.14	8.0316e-06	8.0034e-06	441.05	146.73	127.79	43.443	7.988e-06	54.248	-48.274	191.042	110.924	-59.498	192.962	87.319	-59.777	-54.980	54.513	191.340	-55.730	-51.103	-50.600	-46.198	258.112	-46.985	-8191	255	
315.864	1	1	0	0	0.23658	0.070738	0.20345	0.10072	0.05145	0.1945	0.31448	0.18176	0.090137	0.17049	0.2403	0.04399	0.11907	0.017014	0.17054	0.041766	-2.025	-2.9125	-2.8104	-2.45	-3.0521	-2.5375	-2.9708	-3.1229	-2.5208	-2.8917	-3.0104	-2.7479	-3.0854	-2.7479	-2.8	-3.1333	177.649	101.582	106.371	237.214	49.209	172.147	247.093	274.550	176.397	-40.661	265.477	133.376	-11.112	216.763	143.258	280.257	0.00069138	0.00042391	0.00031407	1311.8	9.8678e-06	1.3244e-05	1316.9	359.07	5.1336e-06	2.4435e-06	411.83	137.75	119.47	40.241	3.1913e-06	50.284	0.00072622	0.00072699	0.00020317	1424.6	7.9697e-06	7.9556e-06	1367.1	377.17	7.969e-06	7.9547e-06	440.04	146.83	127.7	43.303	7.9568e-06	54.223	-17.029	79.399	-21.686	-59.770	126.488	-13.039	-59.788	-55.005	3.683	-34.330	-55.600	-50.957	-50.418	-46.027	-3.671	-47.071	-8191	255	
315.985	1	1	0	0	0.23628	0.26607	0.20855	0.19602	0.22699	0.25775	0.289	0.05373	0.20558	0.20187	0.17317	0.019618	0.25109	0.21599	0.017478	0.12973	-2.0521	-2.8063	-2.8583	-2.6917	-2.9729	-2.8521	-3.0104	-2.9479	-2.7833	-2.7604	-3.0042	-2.5771	-3.0812	-2.7542	-2.6042	-3.0125	-3.073	256.782	26.622	252.794	88.902	115.435	269.241	47.805	63.950	171.091	-64.955	12.432	270.789	-65.493	208.311	84.591	0.00020915	0.00074909	0.00016556	1301.8	3.9929e-06	1.018e-05	1313.7	360.29	9.6135e-06	4.1118e-06	413.09	137.08	118.67	40.314	1.0105e-05	50.295	0.0007273	0.00072986	0.00020311	1420.9	7.9535e-06	7.9667e-06	1365	377.2	7.9441e-06	7.9213e-06	440.1	146.46	127.34	43.331	7.9503e-06	54.113	-19.509	96.157	168.311	-59.556	51.482	168.428	-59.789	-54.920	235.791	81.329	-55.616	-51.070	-50.606	-45.970	255.655	-46.812	-8191	255	
316.056	1	1	0	0	0.037579	0.17248	0.19535	0.15692	0.19098	0.39845	0.16149	0.077661	0.15035	0.29227	0.23144	0.57965	0.10837	0.24066	0.14521	0.10813	-2.3667	-2.5854	-2.9125	-2.6	-2.7479	-2.775	-2.975	-3.075	-2.6125	-2.7792	-3.1042	-2.5458	-3.0042	-2.9583	-2.6042	-2.9542	170.017	192.255	197.661	154.266	-5.819	198.516	221.404	100.330	230.440	210.316	277.583	228.688	96.634	236.251	154.691	197.393	0.00029524	0.0005504	0.00041546	1305.3	2.2468e-06	3.7249e-06	1312.7	358.38	2.3077e-06	2.1291e-06	412.71	136.59	118.86	40.267	7.3081e-06	50.119	0.00072461	0.00072646	0.00020226	1419.1	7.9079e-06	7.9156e-06	1360.7	376.17	7.8282e-06	7.8245e-06	438.01	145.76	126.86	43.195	7.7966e-06	53.993	-65.179	-9.632	-43.318	-59.748	42.201	-49.256	-59.741	-55.028	42.507	20.206	-55.419	-51.247	-50.434	-45.971	27.508	-46.801	-8191	255	
316.177	1	1	0	0	0.16803	0.19618	0.26801	0.054998	0.035773	0.17066	0.314	0.12221	0.17933	0.25712	0.17987	0.31167	0.31974	0.19083	0.098603	0.38377	-2.2833	-2.7604	-2.7625	-2.5812	-2.9917	-2.8125	-2.9229	-3.1542	-2.8187	-2.7646	-2.9583	-2.8312	-2.8896	-2.7708	-2.7729	-3.0083	92.092	62.138	153.215	23.160	-34.836	-45.087	204.798	-63.085	116.186	104.174	-41.669	236.685	233.743	257.640	237.461	278.629	0.00024656	0.00048302	0.00018566	1307.9	8.5311e-06	2.4972e-06	1310.2	358.94	5.2041e-06	4.9525e-06	412.83	137.16	118.46	40.272	8.0943e-06	50.109	0.00070958	0.00071739	0.00019917	1411.2	7.7692e-06	7.7888e-06	1356.8	375.54	7.7644e-06	7.778e-06	437.5	145.51	126.39	43.122	7.7144e-06	53.73	-38.405	17.672	248.773	-59.604	90.767	175.102	-59.614	-54.945	143.094	100.920	-55.730	-51.214	-50.599	-45.980	6.622	-46.912	-8191	255	
316.273	1	1	0	0	0.061776	0.32612	0.31423	0.24655	0.049674	0.20399	0.13202	0.23207	0.02512	0.12452	0.014557	0.22425	0.21296	0.079599	0.030362	0.12878	-2.2396	-2.7854	-3.0021	-2.7958	-2.6458	-3.0042	-2.9417	-2.9854	-2.8063	-2.5042	-3.2542	-2.7958	-2.7604	-3.05	-2.4437	-2.9625	164.763	30.198	20.752	257.206	250.091	77.850	263.522	180.119	166.909	-37.752	192.929	110.095	216.316	221.235	-38.091	-21.052	0.00014996	0.00046773	3.204e-05	1301.1	4.1938e-06	3.4611e-06	1300.6	358.4	7.4139e-06	8.4016e-06	414.31	136.46	118.55	40.327	4.21e-06	50.331	0.00070005	0.00070674	0.00019587	1402.1	7.6645e-06	7.6679e-06	1351.2	374.15	7.6716e-06	7.7104e-06	436.61	145.2	126.35	43.059	7.6933e-06	53.701	275.783	-3.333	7.359	-59.824	110.284	20.317	-59.771	-55.040	-22.243	-36.983	-55.532	-51.044	-50.230	-45.789	3.203	-46.846	-8191	255	
316.369	1	1	0	0	0.092165	0.33039	0.13153	0.16923	0.21031	0.12784	0.33302	0.20993	0.10092	0.2137	0.14804	0.10993	0.1542	0.15459	0.093169	0.25325	-2.3375	-2.6458	-3.0062	-2.5812	-2.7062	-3.0979	-2.7438	-3	-2.8104	-2.5333	-3.0021	-2.6958	-2.9146	-2.8833	-2.7083	-3.0062	97.135	-67.494	164.483	-11.024	-11.255	-50.487	204.287	213.184	-33.771	-3.442	109.177	208.502	251.344	174.989	-56.215	145.649	0.00072052	0.00062325	0.00014366	1302.3	1.5396e-05	3.5289e-06	1309.8	356.6	1.424e-05	6.8868e-06	413.54	137.58	118.86	40.225	7.9339e-07	50.23	0.00070504	0.00071202	0.00019685	1404.6	7.7327e-06	7.7335e-06	1355.6	374.58	7.7409e-06	7.7445e-06	436.58	145.68	126.77	43.126	7.7589e-06	53.832	-14.922	115.288	-19.532	-59.697	85.382	161.717	-59.592	-54.860	-4.535	25.901	-55.930	-51.281	-50.707	-45.982	221.553	-47.066	-8191	255	
316.465	1	1	0	0	0.09995	0.15276	0.098208	0.2162	0.09544	0.29169	0.21207	0.49352	0.089936	0.20063	0.20914	0.043359	0.251	0.13477	0.061166	0.16103	-2.4667	-2.5896	-2.8438	-2.6146	-2.7562	-2.9688	-2.8854	-2.8896	-2.8917	-2.7417	-3.0458	-2.8229	-2.6854	-3.1979	-2.9	-2.8833	263.216	144.730	166.668	167.885	80.923	38.480	210.913	218.539	202.918	-13.236	285.374	53.213	62.258	201.446	69.247	151.742	0.00043936	0.00058428	9.6579e-05	1297.9	3.5244e-06	3.8789e-06	1308.3	358.94	6.5442e-06	3.921e-06	413.64	136.65	118.65	40.301	6.9767e-06	50.275	0.0007169	0.00071774	0.00019893	1408.1	7.8727e-06	7.881e-06	1355.6	376.19	7.9229e-06	7.9143e-06	439.26	146.02	127.25	43.306	7.903e-06	54.095	-34.068	54.402	232.658	-59.449	-27.406	15.463	-59.744	-54.907	15.925	196.719	-55.605	-50.982	-50.370	-45.911	76.624	-46.677	-8191	255	
316.562	1	1	0	0	0.096424	0.32172	0.21637	0.15863	0.21172	0.17076	0.24423	0.33563	0.041773	0.11209	0.20852	0.44949	0.30642	0.19401	0.1666	0.10082	-2.6896	-2.5083	-3.0083	-2.7313	-2.8771	-2.9521	-2.8396	-3.1354	-3.0104	-2.7917	-2.9229	-2.8187	-2.8042	-3.1646	-2.9146	-2.9458	101.127	102.644	122.183	141.250	64.394	-12.497	247.475	122.437	119.225	236.584	-28.767	257.590	-57.683	133.571	244.983	-12.470	0.00036129	0.0004077	0.0002767	1291.7	4.3927e-06	2.1862e-06	1314.8	359.12	6.3438e-06	3.1219e-06	412.41	136.94	119.07	40.233	8.215e-07	50.258	0.00073204	0.0007359	0.00020298	1419.1	8.0742e-06	8.0495e-06	1361.4	377.03	8.0891e-06	8.0979e-06	440.77	146.67	128.02	43.51	8.0924e-06	54.375	-7.270	121.617	90.036	-59.599	77.213	149.219	-59.607	-55.021	197.810	72.255	-55.689	-51.037	-50.348	-46.056	-20.265	-47.123	-8191	255	
316.680	1	1	0	0	0.35164	0.21535	0.15671	0.1443	0.16412	0.26625	0.1394	0.28289	0.20196	0.23777	0.22907	0.029558	0.29451	0.13737	0.25948	0.13954	-2.4396	-2.65	-2.8896	-2.8083	-2.4854	-2.9604	-2.9396	-2.9313	-3.1604	-2.5667	-2.8646	-2.8521	-2.6188	-3.2083	-2.5854	-2.7958	70.771	28.706	-42.676	28.470	138.990	155.544	274.048	-8.777	240.488	62.821	122.473	50.368	191.945	206.382	157.047	131.271	0.00072014	0.00011522	0.00016104	1300.7	2.5034e-06	4.0968e-06	1311.6	359.38	9.3697e-06	4.9239e-06	413.64	136.86	118.91	40.398	8.6015e-06	50.315	0.00074418	0.00074607	0.00020684	1428.4	8.1927e-06	8.1769e-06	1366.5	378.24	8.2251e-06	8.1824e-06	441.9	147.29	128.09	43.633	8.1941e-06	54.588	-22.973	97.983	15.127	-59.633	161.606	248.277	-59.585	-54.823	-13.436	156.433	-55.515	-50.828	-50.351	-46.039	173.646	-46.733	-8191	255	
316.752	1	1	0	0	0.22745	0.018898	0.01962	0.15902	0.1506	0.064231	0.15032	0.20978	0.12561	0.37708	0.10293	0.029022	0.091917	0.1105	0.27949	0.18163	-2.3896	-2.6125	-2.7479	-3.0563	-2.4	-2.9771	-2.9583	-2.8	-3.0979	-2.675	-2.9854	-2.8771	-2.5187	-2.95	-2.8333	-2.8	237.026	50.293	251.653	236.313	230.122	155.077	73.419	211.974	258.784	79.540	202.558	213.812	215.788	232.751	22.245	208.515	0.00052391	0.00024469	0.0001918	1303.1	1.0026e-05	5.491e-06	1311.8	360.57	6.1906e-06	4.4108e-06	413.07	137.11	118.49	40.355	4.7734e-06	50.503	0.00075109	0.00075255	0.00020908	1431	8.2047e-06	8.1654e-06	1367.5	378.66	8.1298e-06	8.1015e-06	441.29	146.9	127.86	43.581	8.1074e-06	54.479	-11.611	2.889	-9.927	-59.541	243.692	93.122	-59.745	-55.085	198.083	96.594	-55.427	-51.318	-50.595	-45.826	195.225	-47.039	-8191	255	
316.848	1	1	0	0	0.16927	0.18293	0.17974	0.31187	0.096176	0.10397	0.20338	0.12598	0.221	0.062277	0.13363	0.46727	0.31194	0.18636	0.23881	0.16266	-2.4167	-2.7375	-2.5479	-2.8792	-2.6562	-2.8604	-3.2062	-2.775	-3.2833	-2.8417	-2.6333	-3.1354	-2.775	-2.7792	-2.8125	-2.7854	282.929	162.501	79.802	14.203	50.991	-44.844	231.088	76.957	63.997	258.096	-20.923	240.276	237.115	202.811	-53.003	88.024	0.00038285	0.00069034	3.6046e-05	1300.5	7.0396e-06	4.854e-06	1314.7	358.31	7.7803e-06	9.9475e-06	411.62	137.22	118.69	40.365	3.3701e-06	50.764	0.00074037	0.00074156	0.00020658	1425.3	8.1065e-06	8.082e-06	1366	378.07	8.0675e-06	8.0528e-06	441.39	146.65	127.6	43.469	8.0607e-06	54.322	272.074	11.686	-59.900	-59.938	84.337	63.310	-59.670	-55.025	191.015	79.191	-55.748	-51.139	-50.621	-46.368	132.960	-46.992	-8191	255	
316.969	1	1	0	0	0.14931	0.10781	0.15283	0.10777	0.063373	0.13863	0.28287	0.34721	0.042865	0.21296	0.18198	0.031662	0.070668	0.2676	0.28769	0.073873	-2.4354	-2.7458	-2.7583	-3.1271	-2.6833	-2.95	-3.2542	-2.6333	-2.9417	-2.9396	-2.9062	-2.9833	-2.6979	-2.8792	-2.9354	-2.8375	103.948	188.462	-60.402	25.856	226.978	132.522	220.735	187.345	257.752	72.448	184.068	120.872	122.746	159.710	207.323	238.908	0.00068762	0.00047024	2.5449e-05	1311.6	1.3444e-05	6.1277e-06	1313.5	358.93	3.5656e-06	8.3905e-06	411.33	137.1	119.03	40.481	3.6454e-06	50.299	0.00073294	0.00073549	0.00020468	1424.7	7.9777e-06	7.9889e-06	1366.1	377.37	7.9755e-06	7.9499e-06	440.19	146.5	127.31	43.343	7.9383e-06	54.127	-69.494	7.763	-59.552	-59.503	-1.204	269.571	-59.569	-54.835	160.703	158.748	-55.727	-50.744	-50.516	-46.180	18.432	-47.056	-8191	255	
317.065	1	1	0	0	0.050403	0.34875	0.1893	0.23983	0.12548	0.057272	0.12169	0.21835	0.16423	0.17779	0.022518	0.06235	0.070542	0.22899	0.11191	0.2123	-2.3979	-2.6583	-2.55	-3.0563	-2.8229	-2.6854	-3.2271	-2.8625	-2.6708	-2.8896	-2.7604	-3.0021	-2.9458	-2.7875	-3.2188	-2.6375	170.186	231.962	49.976	-69.119	282.615	197.699	-52.297	173.781	185.441	203.998	-11.619	147.678	243.684	141.612	51.587	235.455	0.00045317	0.00085612	0.00012532	1308	2.8915e-06	1.302e-06	1312.3	359.24	4.6911e-06	6.0171e-06	413.64	137.57	119.37	40.366	4.2008e-06	50.275	0.00072468	0.00073136	0.00020339	1420.5	7.9594e-06	7.9942e-06	1365.8	377.46	7.9597e-06	8.0221e-06	441.58	146.74	127.87	43.492	8.0738e-06	54.292	-31.487	21.636	-42.549	-59.809	211.589	-25.808	-59.630	-54.872	37.514	35.141	-55.685	-51.079	-50.484	-45.941	-29.111	-46.864	-8191	255	
317.161	1	1	0	0	0.14236	0.19329	0.19949	0.22252	0.068042	0.16288	0.3842	0.1663	0.13596	0.2147	0.24718	0.2711	0.26544	0.22637	0.14996	0.13027	-2.4208	-2.7313	-2.5583	-2.9229	-2.775	-2.8417	-3.2313	-2.7	-2.8917	-2.775	-2.6625	-2.95	-2.8063	-2.8542	-2.8854	-2.7833	-5.200	167.646	239.297	252.207	-45.807	41.820	236.757	221.459	118.412	176.593	-24.620	-69.118	-65.198	9.232	-2.584	170.671	0.00023501	0.00056423	0.0001951	1305.3	7.8648e-06	2.9769e-06	1318.1	359.69	5.7144e-06	1.0821e-05	413.96	137.75	119.73	40.298	5.3381e-06	50.202	0.00073431	0.00074134	0.00020583	1424.1	8.0413e-06	8.1103e-06	1367.8	377.63	8.0153e-06	8.0871e-06	441.96	146.86	128.06	43.537	8.0698e-06	54.314	-30.651	267.780	272.707	-59.737	-29.829	6.941	-59.646	-55.087	-9.340	-15.010	-55.546	-50.951	-50.442	-45.912	58.236	-47.147	-8191	255	
317.257	1	1	0	0	0.2761	0.14369	0.10868	0.085462	0.20736	0.17055	0.15071	0.21389	0.13489	0.14072	0.24496	0.065943	0.21668	0.038046	0.046613	0.2551	-2.3271	-2.9792	-2.625	-2.7958	-2.7542	-2.7729	-3.1437	-2.8375	-2.6562	-3.0042	-2.6042	-3.0625	-2.7333	-2.775	-2.925	-2.6979	284.084	118.290	242.145	55.042	167.769	-0.769	224.502	196.003	129.391	150.104	14.145	233.498	278.525	221.983	38.404	235.790	0.00031568	0.00018402	0.00031195	1303.5	5.4741e-07	8.8406e-06	1316.6	360.21	7.4768e-06	1.0054e-05	415.36	137.32	118.85	40.505	6.9922e-06	50.378	0.00073641	0.00074031	0.00020609	1425	8.0687e-06	8.0958e-06	1370.2	377.79	8.0552e-06	8.0917e-06	442.22	146.75	127.91	43.579	8.032e-06	54.294	-3.990	78.873	-54.827	-59.755	159.555	119.795	-59.706	-54.982	239.229	153.773	-55.679	-50.982	-50.447	-46.271	218.463	-46.876	-8191	255	
317.353	1	1	0	0	0.22297	0.14757	0.20828	0.18778	0.12489	0.0466	0.15147	0.24698	0.30191	0.057516	0.21717	0.25079	0.22314	0.32716	0.084926	0.12607	-2.5083	-2.8021	-2.5187	-2.8625	-2.75	-2.7167	-2.9854	-2.9333	-2.75	-3.1396	-2.7625	-3.0271	-2.925	-2.7208	-3.0125	-2.8167	153.611	79.124	-26.037	171.991	-39.234	221.693	274.963	232.091	266.505	269.034	256.990	270.820	-28.399	222.542	196.527	117.868	0.00034084	0.00040177	0.00016146	1310.7	3.9633e-06	3.5329e-06	1320.8	359.75	5.2262e-06	2.4383e-06	414.06	137.72	119.1	40.345	4.3659e-06	50.284	0.00073593	0.00074018	0.00020466	1424.5	8.0497e-06	8.0134e-06	1368.6	377.91	7.9936e-06	7.9999e-06	440.71	146.78	127.7	43.463	7.9481e-06	54.203	-23.920	-59.723	263.658	-59.520	226.831	-15.382	-59.622	-55.052	112.633	70.742	-55.652	-51.276	-50.293	-46.148	159.173	-46.939	-8191	255	
317.450	1	1	0	0	0.13979	0.15583	0.064051	0.10048	0.23616	0.18115	0.15032	0.28003	0.096351	0.079521	0.27921	0.11743	0.24909	0.075716	0.19802	0.21701	-2.3063	-3.0417	-2.6354	-2.9875	-2.8	-2.6021	-3.0021	-3.0062	-2.5	-3.1021	-2.6292	-3.0375	-2.8625	-2.7625	-2.975	-2.9062	107.347	7.917	104.180	188.541	-24.085	212.839	222.410	250.075	279.036	186.825	142.872	259.508	267.264	222.246	-72.244	158.145	0.000346	0.00059997	9.4788e-05	1312.7	3.013e-06	2.5144e-06	1318.9	360.55	8.9849e-06	8.5806e-06	413.36	137.94	119.13	40.42	1.4035e-05	50.243	0.00073246	0.00073298	0.0002031	1425.2	8.0516e-06	8.0266e-06	1368.2	377.77	7.991e-06	7.9726e-06	441.23	146.59	127.73	43.505	7.9275e-06	54.184	-49.341	-43.849	94.919	-59.887	30.509	205.788	-59.701	-54.896	85.531	81.145	-55.546	-51.394	-50.456	-46.021	56.798	-46.818	-8191	255	
317.570	1	1	0	0	0.2864	0.14782	0.22708	0.12563	0.099834	0.14038	0.19305	0.30424	0.14658	0.25243	0.24073	0.13738	0.10971	0.12151	0.035928	0.25277	-2.3479	-2.8104	-2.7208	-2.7625	-3.0604	-2.5375	-3.2167	-2.9	-2.4958	-2.8187	-2.6292	-2.825	-3.0021	-2.5104	-2.8417	-2.8583	101.880	8.854	184.925	201.438	43.041	194.571	221.294	254.405	66.706	-51.130	223.357	215.055	-16.747	186.834	133.041	190.776	0.00027104	0.00062246	0.00018053	1310.3	8.4571e-06	1.1638e-05	1317.2	360.54	2.9001e-06	4.1802e-06	414.03	137.74	119.51	40.525	5.7759e-07	50.274	0.00072872	0.00072806	0.00020264	1423.8	8.01e-06	8.0248e-06	1369.2	378.15	8.0504e-06	8.0284e-06	441.58	146.81	128	43.59	7.9478e-06	54.3	-65.727	139.699	-22.211	-59.998	56.550	46.669	-59.689	-54.953	233.210	65.353	-55.594	-51.192	-50.273	-45.678	234.332	-46.855	-8191	255	
317.666	1	1	0	0	0.20982	0.1493	0.17729	0.05923	0.16199	0.187	0.16713	0.033016	0.23582	0.10556	0.13685	0.20637	0.10332	0.20875	0.068062	0.10381	-2.1208	-2.7646	-2.6208	-2.8896	-2.9646	-2.6167	-2.9667	-2.9833	-2.5875	-3.1083	-2.6583	-2.8375	-3.0167	-2.8375	-2.8021	-2.8104	121.507	274.113	82.394	-27.863	133.775	260.809	189.459	158.313	41.837	113.187	-9.662	268.881	274.509	216.489	-57.683	264.462	0.00011737	0.00061562	0.00020232	1314.7	1.9913e-06	4.3422e-06	1324.8	360.61	4.8379e-06	4.9741e-06	416.3	138.09	119.39	40.583	3.138e-06	50.502	0.00073234	0.00073063	0.00020304	1430	8.022e-06	7.9961e-06	1372.4	378.47	8.0127e-06	7.9633e-06	441.42	146.91	127.95	43.497	7.9072e-06	54.199	20.717	75.997	48.801	-59.638	156.442	146.052	-59.761	-55.029	164.225	162.840	-55.736	-51.014	-50.715	-46.010	-58.207	-46.881	-8191	255	
317.761	1	1	0	0	0.090868	0.11083	0.1405	0.20944	0.073773	0.16502	0.1923	0.16759	0.14029	0.11332	0.2906	0.2666	0.16296	0.16768	0.1591	0.019633	-2.05	-2.8479	-2.7146	-2.5479	-2.9229	-2.6	-3.0521	-3.0812	-2.6729	-3.1208	-2.9229	-2.5521	-3	-2.6917	-2.9708	-2.8625	37.921	235.988	-35.254	160.649	2.755	212.115	130.594	281.819	63.379	26.661	5.784	106.505	243.270	275.161	68.925	234.150	0.00066097	0.00092046	9.8725e-05	1312.1	6.3652e-06	8.1519e-06	1322.7	359.91	1.087e-05	3.8313e-06	414.66	138.34	119.13	40.592	5.0941e-06	50.184	0.00072345	0.00071972	0.00020089	1423	7.8488e-06	7.8338e-06	1371.1	377.77	7.8902e-06	7.848e-06	441.05	147.05	127.7	43.498	7.9166e-06	54.192	-20.796	-39.121	-9.491	-59.588	72.464	88.269	-59.773	-54.953	-72.011	274.631	-55.521	-51.250	-50.619	-46.260	82.963	-47.106	-8191	255	
317.857	1	1	0	0	0.24803	0.123	0.012825	0.21206	0.074352	0.2593	0.24629	0.2594	0.22032	0.13019	0.31716	0.31173	0.15611	0.21671	0.10354	0.2219	-2.1312	-2.8333	-2.8187	-2.5604	-2.9813	-2.6771	-3.0667	-3.1771	-2.5833	-2.9625	-2.8604	-2.8187	-2.9313	-2.8729	-2.6958	-2.9583	266.238	99.370	202.348	-19.507	-17.271	108.410	215.555	272.334	214.752	-22.133	-2.098	225.558	223.912	-65.524	63.800	185.619	0.00057708	0.00043936	4.1793e-05	1316.5	6.4142e-07	4.1357e-06	1327.2	361.71	9.1896e-06	3.6734e-06	414.5	137.66	119.49	40.779	4.2403e-06	50.331	0.00072493	0.00072453	0.00020189	1429.6	7.954e-06	7.9549e-06	1373.5	378.87	7.9496e-06	7.9233e-06	441.51	146.9	127.83	43.529	7.9142e-06	54.196	-50.206	-46.986	274.041	-59.695	229.760	258.340	-59.666	-54.846	-4.803	18.649	-55.582	-51.237	-50.617	-46.096	11.069	-46.745	-8191	255	
317.953	1	1	0	0	0.050197	0.17751	0.37201	0.16597	0.18242	0.097225	0.32199	0.12888	0.21218	0.12045	0.17768	0.31531	0.14945	0.23047	0.12343	0.1786	-2.1917	-2.7812	-2.7896	-2.5708	-3.0479	-2.6729	-2.9125	-3.2229	-2.4479	-2.8583	-3.0875	-2.6604	-2.9521	-2.9104	-2.5292	-3.0625	159.646	252.103	126.132	248.626	184.948	10.493	232.278	186.486	188.726	68.015	271.182	258.122	259.683	267.516	193.739	-72.412	0.00044675	0.00043441	0.00012177	1309.4	6.2798e-06	4.4391e-06	1321.4	360.67	5.707e-06	3.492e-06	413.28	137.9	119.67	40.662	7.4404e-06	50.368	0.00071943	0.00072415	0.00020177	1426.9	7.9049e-06	7.8647e-06	1370.6	378.11	7.8593e-06	7.8709e-06	440.79	146.64	127.74	43.485	7.8644e-06	54.136	-62.295	161.207	41.373	-59.389	16.681	62.971	-59.507	-55.086	116.374	112.654	-55.630	-51.112	-50.707	-46.017	34.110	-47.077	-8191	255	
318.049	1	1	0	0	0.030667	0.075697	0.24465	0.22488	0.18803	0.11791	0.59528	0.25644	0.13785	0.22334	0.10345	0.23292	0.47764	0.19685	0.25844	0.065729	-2.3646	-2.5583	-2.775	-2.6979	-2.8792	-2.9729	-2.8187	-3.1354	-2.6542	-2.7083	-3.1229	-2.7646	-3.0083	-3.0375	-2.6813	-3.1354	85.635	195.480	36.350	269.190	67.332	191.049	273.416	250.300	144.402	87.351	101.192	141.346	-49.192	200.324	201.955	178.099	0.00033318	0.00025378	0.00011082	1321.2	1.8051e-06	7.9637e-06	1323.9	361.12	3.815e-06	3.9125e-06	414.98	137.93	119.53	40.638	5.7837e-06	50.379	0.00071735	0.00072365	0.00020094	1423.8	7.9157e-06	7.892e-06	1372	378.18	7.8997e-06	7.9025e-06	441.67	146.99	127.85	43.497	7.8784e-06	54.192	-31.072	18.424	-36.011	-59.648	132.011	18.621	-59.624	-54.772	10.193	146.458	-55.817	-51.069	-50.632	-46.113	67.942	-46.851	-8191	255	
318.145	1	1	0	0	0.084094	0.088175	0.31022	0.3386	0.20539	0.16605	0.042216	0.32474	0.15515	0.035695	0.1199	0.095493	0.13495	0.17412	0.10403	0.16267	-2.2313	-2.9688	-2.825	-2.675	-3.0917	-2.8958	-2.95	-3.0021	-2.8563	-2.8021	-3.1104	-2.7792	-2.8958	-3.1437	-2.55	-3.1021	-44.481	151.624	65.885	-47.887	12.833	18.504	110.214	-47.556	-63.813	2.190	226.640	221.688	240.618	200.066	153.299	-50.402	0.00067815	0.00013261	0.00021448	1317.5	5.4221e-06	6.7001e-06	1322.8	362.32	5.0004e-06	5.2555e-06	413.76	138.15	119.79	40.578	4.8273e-06	50.264	0.00071769	0.00072475	0.00020134	1425.7	7.8779e-06	7.8587e-06	1372.3	377.62	7.8204e-06	7.8577e-06	440.91	146.66	127.49	43.51	7.8437e-06	54.079	-52.620	99.300	15.170	-60.017	71.350	-68.362	-59.663	-55.048	284.169	161.734	-55.780	-51.186	-50.697	-45.996	28.536	-46.921	-8191	255	
318.242	1	1	0	0	0.17651	0.17061	0.16018	0.038648	0.12881	0.27209	0.44704	0.35099	0.10223	0.2611	0.09816	0.034137	0.13314	0.12165	0.24124	0.31032	-2.2292	-2.5479	-2.9437	-2.8104	-2.6583	-3.0958	-2.8021	-3.0979	-2.7583	-2.6646	-3.125	-2.7833	-2.9208	-2.875	-2.6104	-2.9333	141.944	-36.590	166.887	51.409	116.524	-44.940	227.918	241.981	-16.167	100.753	255.883	172.008	139.380	144.974	226.855	-14.647	0.00037772	0.00028858	0.0001332	1313	6.0058e-06	1.1964e-05	1325.8	360.76	3.9046e-06	7.2158e-06	415.68	137.64	120.28	40.673	6.4847e-06	50.461	0.00071191	0.00071717	0.00019926	1421.5	7.8131e-06	7.8348e-06	1371.1	377.76	7.7837e-06	7.8496e-06	440.75	146.45	127.62	43.503	7.8057e-06	54.087	-63.961	8.179	-64.434	-59.723	-4.044	-62.628	-59.741	-54.922	176.645	156.358	-55.711	-51.048	-50.372	-46.180	32.518	-46.819	-8191	255	
318.362	1	1	0	0	0.047744	0.11547	0.12916	0.18822	0.10802	0.14698	0.35382	0.16252	0.18003	0.078197	0.21543	0.19319	0.10738	0.20659	0.15445	0.17383	-2.3167	-2.8229	-2.8646	-2.8729	-2.9604	-2.8937	-3.0563	-2.9979	-2.8146	-2.7313	-2.9917	-2.6875	-3.0146	-2.9146	-2.7188	-3.025	102.414	30.779	-7.954	49.828	-55.785	284.038	204.471	253.005	184.549	148.090	179.702	196.156	266.390	227.990	51.089	240.465	0.00051898	0.00037145	3.3573e-05	1310.2	3.678e-06	1.0432e-05	1319.8	361.25	4.2935e-06	7.978e-06	415.38	138.27	119.12	40.63	5.0154e-06	50.362	0.00071784	0.00071723	0.00019863	1418.4	7.8363e-06	7.8262e-06	1368.9	377.64	7.8329e-06	7.8412e-06	440.67	146.5	127.64	43.514	7.7699e-06	54.034	-46.011	-25.503	84.908	-59.515	76.900	81.222	-59.684	-55.099	74.147	21.365	-55.598	-51.038	-50.437	-46.290	245.286	-46.979	-8191	255	
318.458	1	1	0	0	0.082461	0.15617	0.24938	0.16643	0.14339	0.11693	0.14419	0.11122	0.047268	0.097707	0.14375	0.25837	0.075119	0.22275	0.16285	0.23134	-2.4	-2.7292	-2.85	-2.7854	-2.9083	-2.9729	-2.8438	-3.0167	-2.775	-2.8063	-3.0271	-2.9042	-2.875	-3.0104	-2.6583	-2.9417	19.899	-38.742	35.065	127.064	49.879	53.393	200.945	191.539	234.546	166.730	244.461	225.947	258.211	221.765	262.933	159.251	0.00042886	0.00015003	0.00010674	1314.7	6.0364e-07	1.8057e-06	1317.6	361.97	8.6926e-06	2.9195e-06	415.59	138.18	119.4	40.491	1.9518e-06	50.487	0.00071301	0.00071633	0.00019833	1416.6	7.813e-06	7.8007e-06	1367.8	377.62	7.7923e-06	7.8073e-06	440.43	146.32	127.66	43.361	7.7565e-06	53.98	-7.303	-16.035	-3.684	-59.682	200.069	177.738	-59.668	-54.931	237.426	206.757	-55.701	-51.161	-50.572	-46.076	133.955	-47.186	-8191	255	
318.554	1	1	0	0	0.15667	0.11784	0.059246	0.24345	0.10936	0.39414	0.19282	0.25555	0.24174	0.06589	0.14704	0.080075	0.084761	0.17815	0.052077	0.21556	-2.325	-2.5812	-2.8854	-2.6688	-2.6312	-3.1562	-2.7708	-2.9625	-2.8063	-2.7521	-2.95	-2.8229	-3.0208	-3.0687	-2.6896	-2.9	-34.396	224.552	-42.296	271.043	154.857	20.968	217.687	241.138	119.433	118.485	248.341	186.721	18.905	-52.552	208.044	218.011	0.0004673	0.0008856	0.00027507	1315.5	4.6869e-07	1.7686e-06	1324	360.47	8.7595e-06	7.6945e-06	413.95	137.97	119.36	40.403	4.1636e-06	50.595	0.00071099	0.00071384	0.00019676	1417.9	7.8045e-06	7.7765e-06	1368.4	377.3	7.8022e-06	7.8247e-06	440.11	146.46	127.67	43.37	7.725e-06	54.002	284.977	67.715	-35.650	-59.839	96.767	97.288	-59.674	-55.115	-46.386	85.633	-55.693	-51.250	-51.024	-46.089	54.825	-47.040	-8191	255	
318.651	1	1	0	0	0.15124	0.18414	0.051482	0.08904	0.10588	0.18958	0.10522	0.15528	0.14678	0.16107	0.11249	0.29542	0.22475	0.1496	0.17444	0.16878	-2.45	-2.7417	-2.95	-2.8146	-2.5896	-2.8604	-3.2021	-2.7479	-2.8438	-2.7229	-3.0146	-2.8625	-2.9042	-2.9729	-2.6958	-2.6437	242.679	199.803	19.054	165.365	8.158	209.274	230.798	220.411	216.293	-10.214	224.580	256.650	283.245	-65.522	74.181	215.055	0.00051534	0.00048722	0.00013151	1308.2	4.7737e-07	4.1854e-06	1320.1	360.96	9.7704e-06	7.682e-06	413.88	137.45	119.92	40.368	3.6997e-06	50.233	0.00071238	0.00071286	0.00019798	1415	7.8091e-06	7.7898e-06	1368.1	377.47	7.8342e-06	7.8055e-06	440.19	146.47	127.58	43.398	7.8327e-06	54.06	32.914	-55.610	98.603	-60.251	200.850	78.884	-59.633	-54.823	32.639	89.805	-55.695	-51.163	-50.463	-46.237	139.584	-46.932	-8191	255	
318.747	1	1	0	0	0.27692	0.24375	0.050859	0.11156	0.19661	0.068341	0.31568	0.17744	0.22152	0.17642	0.22219	0.081636	0.062261	0.43013	0.082469	0.11924	-2.6083	-2.6	-2.9583	-3.0625	-2.5854	-2.8312	-2.9042	-3.0396	-2.9125	-2.775	-2.7896	-2.9437	-2.6375	-2.9604	-2.6813	-2.8083	-42.426	-6.977	-71.864	120.997	81.893	194.143	235.050	221.740	81.977	13.371	-47.235	2.876	282.064	-55.354	106.054	125.874	0.00044971	0.0002707	9.3948e-05	1315	2.1305e-06	4.04e-06	1323.3	360.81	1.0428e-05	6.64e-06	415.54	137.77	120.46	40.72	3.5402e-06	50.342	0.0007206	0.00071984	0.00020003	1425.7	7.9365e-06	7.8846e-06	1371.7	378.2	7.9322e-06	7.9011e-06	441.12	146.95	128.01	43.531	7.8242e-06	54.024	-8.432	9.529	249.403	-59.898	129.206	90.155	-59.755	-55.080	164.416	23.416	-55.596	-51.380	-50.638	-46.111	68.132	-46.797	-8191	255	
318.841	1	1	0	0	0.19516	0.35625	0.23336	0.22886	0.17699	0.041215	0.2161	0.21751	0.39658	0.28113	0.14092	0.078772	0.1512	0.09852	0.021551	0.36375	-2.5521	-2.5979	-2.6312	-2.9646	-2.7125	-2.9771	-2.85	-2.9667	-2.9875	-2.8771	-2.8104	-2.9979	-2.6375	-3.1875	-2.8792	-2.6979	-67.309	-3.334	-51.636	-3.289	12.860	7.848	211.187	56.797	216.989	-55.577	174.902	156.449	262.570	-46.940	40.869	213.610	0.00037652	0.00059435	0.00010631	1321	7.415e-06	4.2919e-06	1323.5	360.32	9.2791e-06	4.176e-06	415.5	138.3	119.72	40.58	5.49e-06	50.363	0.00071727	0.00071808	0.00019925	1423.6	7.8493e-06	7.8064e-06	1372.7	377.98	7.8267e-06	7.8321e-06	441.07	146.69	127.97	43.533	7.906e-06	54.236	-27.306	-66.873	3.275	-59.754	145.299	276.658	-59.748	-54.994	102.265	166.276	-55.705	-51.000	-50.421	-45.946	154.388	-46.814	-8191	255	
318.937	1	1	0	0	0.1501	0.26816	0.24396	0.33954	0.079721	0.20042	0.17853	0.18986	0.22354	0.20785	0.25282	0.068996	0.16036	0.091587	0.20122	0.21217	-2.5458	-2.7188	-2.7583	-2.8812	-2.7042	-2.8937	-3.175	-2.6333	-2.9313	-2.6979	-2.95	-3.1958	-2.9667	-2.8042	-2.8812	-2.5542	-38.394	-7.534	275.070	164.795	84.506	261.663	209.215	-59.594	132.420	136.361	223.521	25.601	-5.787	270.512	-51.076	275.920	0.00041733	0.00080282	0.00024905	1321.6	1.1499e-05	6.2127e-06	1324.4	361.79	1.5297e-06	3.5744e-06	415.79	137.88	120	40.667	1.0946e-05	50.429	0.0007248	0.00073041	0.00020393	1433.7	7.9965e-06	8.0223e-06	1379.1	380.02	8.0308e-06	8.025e-06	443.52	147.36	128.37	43.68	7.9963e-06	54.409	21.493	54.253	-2.870	-59.627	35.090	69.728	-59.583	-55.114	20.667	150.437	-55.940	-51.018	-50.636	-46.214	227.582	-47.014	-8191	255	
319.058	1	1	0	0	0.12119	0.094356	0.12263	0.11117	0.1233	0.28772	0.049469	0.25322	0.11469	0.086528	0.43933	0.060178	0.18148	0.1771	0.2648	0.052794	-2.2938	-2.7125	-2.5958	-3.0292	-2.7458	-2.8812	-3.0833	-2.75	-2.6562	-2.8667	-2.9	-3.0125	-3.0062	-2.7521	-2.9417	-2.7667	133.368	220.379	24.469	-15.140	173.334	2.248	103.121	218.454	-46.460	8.427	-56.833	15.068	168.145	270.952	43.417	83.592	0.00039775	0.0012702	0.00013233	1318.3	7.7135e-06	6.813e-06	1324.3	361.47	3.9347e-06	8.8514e-06	414.74	137.88	120.16	40.607	8.8892e-06	50.654	0.00072976	0.00073439	0.00020458	1434.1	8.0004e-06	8.0071e-06	1377	379.22	7.9539e-06	7.9487e-06	442.37	147	127.99	43.594	7.9804e-06	54.329	-12.224	219.326	13.263	-59.589	124.876	5.444	-59.701	-55.044	73.598	107.086	-55.569	-50.878	-50.380	-46.016	-44.434	-46.982	-8191	255	
319.154	1	1	0	0	0.24066	0.1088	0.023387	0.033864	0.080207	0.34039	0.10692	0.23001	0.10496	0.1528	0.079798	0.050438	0.32982	0.031562	0.16878	0.14873	-2.5729	-2.7375	-2.6979	-2.9833	-2.7917	-2.7771	-3.4396	-2.675	-3.0354	-2.9542	-2.5646	-3.1625	-2.7542	-2.8417	-2.9188	-2.7375	273.174	1.861	127.749	41.022	93.786	118.672	284.168	-62.798	182.548	89.513	261.249	59.089	-42.028	27.162	236.333	183.454	0.0006861	6.1331e-05	0.00019789	1320.2	1.0784e-05	7.6036e-06	1323	362.99	9.0711e-06	2.4654e-06	416.01	138.13	120.49	40.705	1.1851e-05	50.843	0.00072896	0.00073349	0.00020421	1432.1	8.017e-06	8.0774e-06	1377	380.52	8.0884e-06	8.141e-06	444.75	147.68	128.82	43.785	8.1385e-06	54.647	-54.570	82.568	-11.644	-59.674	-45.609	94.642	-59.705	-54.949	-42.365	101.022	-55.594	-51.143	-50.385	-45.855	-5.206	-46.980	-8191	255	
319.250	1	1	0	0	0.072963	0.13811	0.16036	0.014154	0.27035	0.010105	0.1125	0.30089	0.30885	0.27748	0.072896	0.055199	0.10572	0.063626	0.082523	0.2316	-2.45	-2.8271	-2.4583	-3.05	-2.5271	-2.7812	-3.2313	-2.7917	-2.8667	-2.7562	-2.7062	-2.7917	-2.75	-2.625	-2.8604	-2.6854	107.081	-20.437	-48.229	53.464	146.277	255.945	275.546	232.415	90.639	214.465	240.475	-58.237	160.673	253.348	122.013	181.915	0.00042686	9.9559e-05	0.00017038	1321.7	1.0579e-06	7.4277e-06	1325.9	361.23	2.07e-06	4.9511e-06	414.55	138.39	119.68	40.681	7.8091e-06	50.613	0.00074285	0.00074323	0.00020775	1437.8	8.1262e-06	8.1769e-06	1378.6	379.85	8.0847e-06	8.1298e-06	443.46	147.46	128.56	43.843	8.0655e-06	54.474	-33.735	-15.142	-29.981	-59.627	114.463	120.368	-59.573	-54.835	151.256	123.264	-55.552	-51.170	-50.300	-46.033	147.248	-46.942	-8191	255	
319.346	1	1	0	0	0.17088	0.15007	0.16933	0.067668	0.24449	0.10859	0.19852	0.073727	0.18339	0.063973	0.25367	0.17342	0.11597	0.035373	0.19653	0.20777	-2.3812	-2.8021	-2.4917	-3.1188	-2.7208	-2.6	-3.1917	-2.8417	-2.975	-2.8167	-2.8063	-2.9583	-2.8063	-2.8271	-2.9771	-2.9271	-8.887	64.174	165.878	193.811	75.490	-64.654	136.197	132.064	-52.554	273.923	174.559	194.930	224.835	237.085	247.252	265.713	0.00043177	0.00037138	0.00022254	1315.7	7.9321e-06	2.0336e-06	1324.7	362.46	9.8307e-07	1.429e-06	416.06	137.51	119.89	40.679	1.8805e-06	50.465	0.0007368	0.00074358	0.00020771	1436.1	8.1688e-06	8.177e-06	1379.3	380.82	8.2007e-06	8.2248e-06	445.29	147.83	128.88	43.832	8.1335e-06	54.591	-39.220	42.820	268.531	-59.670	124.596	-43.962	-59.842	-54.836	-59.549	172.271	-55.586	-51.078	-50.483	-46.005	160.856	-46.867	-8191	255	
319.443	1	1	0	0	0.15608	0.25855	0.062395	0.079036	0.079425	0.065593	0.12217	0.13205	0.044379	0.14364	0.21373	0.29394	0.28034	0.074578	0.055339	0.20165	-2.3625	-2.9313	-2.65	-2.8875	-3.0354	-2.6458	-3.0771	-3.0687	-2.5125	-3.0854	-2.6104	-2.7771	-3.1	-2.7625	-2.9604	-2.8229	178.620	245.395	239.597	197.931	120.218	269.996	210.181	182.469	-35.557	167.222	256.956	259.674	218.013	231.326	210.262	-39.536	0.00030119	0.00069317	1.0932e-05	1321.8	8.0284e-06	1.3425e-05	1327.7	362.42	1.1768e-05	2.5985e-06	415.8	138.03	120.01	40.627	3.1399e-06	50.609	0.00074439	0.00074799	0.00020724	1438.6	8.1527e-06	8.177e-06	1380.3	380.47	8.1759e-06	8.1957e-06	444.11	147.83	128.87	43.831	8.0959e-06	54.571	-16.481	50.170	159.531	-59.524	49.328	-3.468	-59.680	-55.072	144.458	70.360	-55.677	-50.937	-50.563	-46.116	77.700	-47.106	-8191	255	
#DATA ENDS
