BOXY.EXE: ISS Imagent and Oximeter Data Acquisition Program Version 0.80
Ascii Record File

#ACQ INFORMATION
2  Detector Channels 
16  External MUX Channels 
1  Auxiliary Channels 
5000  Waveform (CCF) Frequency (Hz)
1  Waveforms Skipped 
30  Waveforms Averaged 
1  Cycles Averaged 
16  Acquisitions per Waveform 
10.0806  Updata Rate (Hz) 

#FILE INFORMATION
TRUE -- External MUX Channel results are PARSED.
FALSE -- AC DC and Phase are NOT grouped.
TRUE -- Companion Program Settings File CREATED.
FALSE -- AC data not excluded
FALSE -- DC data not excluded
FALSE -- Phase data not excluded
FALSE -- Auxillary Chn. data not excluded
Tab delimiters

#CALIBRATION STATE
TRUE -- Waveform Calibration Values APPLIED.


#AUX CALIBRATION VALUES
Val Type	aux-1	

Term	1.0000e+00	
Factor	0.0000e+00	


#WF CALIBRATION VALUES
A = Detector Channel
Val Type	A-AC1	A-AC2	A-AC3	A-AC4	A-AC5	A-AC6	A-AC7	A-AC8	A-AC9	A-AC10	A-AC11	A-AC12	A-AC13	A-AC14	A-AC15	A-AC16	A-DC1	A-DC2	A-DC3	A-DC4	A-DC5	A-DC6	A-DC7	A-DC8	A-DC9	A-DC10	A-DC11	A-DC12	A-DC13	A-DC14	A-DC15	A-DC16	A-Ph1	A-Ph2	A-Ph3	A-Ph4	A-Ph5	A-Ph6	A-Ph7	A-Ph8	A-Ph9	A-Ph10	A-Ph11	A-Ph12	A-Ph13	A-Ph14	A-Ph15	A-Ph16	

Term	0.00000e+00	0.00000e+00	0.00000e+00	0.00000e+00	0.00000e+00	0.00000e+00	0.00000e+00	0.00000e+00	0.00000e+00	0.00000e+00	0.00000e+00	0.00000e+00	0.00000e+00	0.00000e+00	0.00000e+00	0.00000e+00	0.00000e+00	0.00000e+00	0.00000e+00	0.00000e+00	0.00000e+00	0.00000e+00	0.00000e+00	0.00000e+00	0.00000e+00	0.00000e+00	0.00000e+00	0.00000e+00	0.00000e+00	0.00000e+00	0.00000e+00	0.00000e+00	0.00000e+00	0.00000e+00	0.00000e+00	0.00000e+00	0.00000e+00	0.00000e+00	0.00000e+00	0.00000e+00	0.00000e+00	0.00000e+00	0.00000e+00	0.00000e+00	0.00000e+00	0.00000e+00	0.00000e+00	0.00000e+00	
Factor	1.00000e+00	1.00000e+00	1.00000e+00	1.00000e+00	1.00000e+00	1.00000e+00	1.00000e+00	1.00000e+00	1.00000e+00	1.00000e+00	1.00000e+00	1.00000e+00	1.00000e+00	1.00000e+00	1.00000e+00	1.00000e+00	1.00000e+00	1.00000e+00	1.00000e+00	1.00000e+00	1.00000e+00	1.00000e+00	1.00000e+00	1.00000e+00	1.00000e+00	1.00000e+00	1.00000e+00	1.00000e+00	1.00000e+00	1.00000e+00	1.00000e+00	1.00000e+00	X	X	X	X	X	X	X	X	X	X	X	X	X	X	X	X	

B = Detector Channel
Val Type	B-AC1	B-AC2	B-AC3	B-AC4	B-AC5	B-AC6	B-AC7	B-AC8	B-AC9	B-AC10	B-AC11	B-AC12	B-AC13	B-AC14	B-AC15	B-AC16	B-DC1	B-DC2	B-DC3	B-DC4	B-DC5	B-DC6	B-DC7	B-DC8	B-DC9	B-DC10	B-DC11	B-DC12	B-DC13	B-DC14	B-DC15	B-DC16	B-Ph1	B-Ph2	B-Ph3	B-Ph4	B-Ph5	B-Ph6	B-Ph7	B-Ph8	B-Ph9	B-Ph10	B-Ph11	B-Ph12	B-Ph13	B-Ph14	B-Ph15	B-Ph16	

Term	0.00000e+00	0.00000e+00	0.00000e+00	0.00000e+00	0.00000e+00	0.00000e+00	0.00000e+00	0.00000e+00	0.00000e+00	0.00000e+00	0.00000e+00	0.00000e+00	0.00000e+00	0.00000e+00	0.00000e+00	0.00000e+00	0.00000e+00	0.00000e+00	0.00000e+00	0.00000e+00	0.00000e+00	0.00000e+00	0.00000e+00	0.00000e+00	0.00000e+00	0.00000e+00	0.00000e+00	0.00000e+00	0.00000e+00	0.00000e+00	0.00000e+00	0.00000e+00	2.70886e+01	-1.47570e+02	-1.59823e+02	-1.87769e+02	-7.16749e+01	-1.02766e+02	-1.57019e+02	-1.62015e+02	-1.01898e+02	-8.89711e+01	-1.73571e+02	-1.72116e+02	-1.82981e+02	-1.77625e+02	-1.07765e+02	-1.50887e+02	
Factor	4.90076e-05	9.02078e-05	2.72429e-05	5.41330e-01	1.00772e-06	1.22008e-06	1.72070e-01	5.71424e-02	1.21130e-06	1.00603e-06	1.10401e-01	3.27385e-02	3.12637e-02	9.63839e-03	1.14382e-06	1.41262e-02	4.51512e-07	4.55847e-07	1.26572e-07	2.20301e-01	4.97833e-09	4.98109e-09	7.62968e-02	2.65919e-02	4.98129e-09	4.97910e-09	4.73171e-02	1.42145e-02	1.38173e-02	4.35854e-03	4.97014e-09	6.06963e-03	X	X	X	X	X	X	X	X	X	X	X	X	X	X	X	X	



#DISTANCE SETTINGS
A = Detector Channel
A-1	A-2	A-3	A-4	A-5	A-6	A-7	A-8	A-9	A-10	A-11	A-12	A-13	A-14	A-15	A-16	

2.5000e+00	3.0000e+00	2.5000e+00	3.0000e+00	2.0000e+00	3.0000e+00	1.5000e+00	3.0000e+00	3.0000e+00	3.0000e+00	3.0000e+00	3.0000e+00	3.0000e+00	3.0000e+00	1.5000e+00	3.0000e+00	

B = Detector Channel
B-1	B-2	B-3	B-4	B-5	B-6	B-7	B-8	B-9	B-10	B-11	B-12	B-13	B-14	B-15	B-16	

1.0000e+01	1.0000e+01	1.0000e+01	1.4400e+00	1.0000e+01	1.0000e+01	1.5100e+00	1.9400e+00	1.0000e+01	1.0000e+01	1.9900e+00	2.4900e+00	2.4100e+00	2.9000e+00	1.0000e+01	2.9800e+00	




#DATA BEGINS
time	group	step	mark	flag	A-AC1	A-AC2	A-AC3	A-AC4	A-AC5	A-AC6	A-AC7	A-AC8	A-AC9	A-AC10	A-AC11	A-AC12	A-AC13	A-AC14	A-AC15	A-AC16	A-DC1	A-DC2	A-DC3	A-DC4	A-DC5	A-DC6	A-DC7	A-DC8	A-DC9	A-DC10	A-DC11	A-DC12	A-DC13	A-DC14	A-DC15	A-DC16	A-Ph1	A-Ph2	A-Ph3	A-Ph4	A-Ph5	A-Ph6	A-Ph7	A-Ph8	A-Ph9	A-Ph10	A-Ph11	A-Ph12	A-Ph13	A-Ph14	A-Ph15	A-Ph16	B-AC1	B-AC2	B-AC3	B-AC4	B-AC5	B-AC6	B-AC7	B-AC8	B-AC9	B-AC10	B-AC11	B-AC12	B-AC13	B-AC14	B-AC15	B-AC16	B-DC1	B-DC2	B-DC3	B-DC4	B-DC5	B-DC6	B-DC7	B-DC8	B-DC9	B-DC10	B-DC11	B-DC12	B-DC13	B-DC14	B-DC15	B-DC16	B-Ph1	B-Ph2	B-Ph3	B-Ph4	B-Ph5	B-Ph6	B-Ph7	B-Ph8	B-Ph9	B-Ph10	B-Ph11	B-Ph12	B-Ph13	B-Ph14	B-Ph15	B-Ph16	aux-1	digaux	

361.217	1	1	0	256	0.15017	0.078184	0.20606	0.25185	0.071575	0.07895	0.19967	0.14929	0.18639	0.1788	0.15814	0.16998	0.23066	0.076233	0.34569	0.22102	-2.3479	-2.7479	-2.6646	-2.8125	-2.7521	-2.6229	-2.9188	-2.5979	-2.7729	-2.7521	-2.6229	-2.8688	-2.8042	-2.55	-2.8917	-2.6937	92.171	54.607	224.613	118.271	130.050	-66.952	219.184	176.970	107.731	171.589	49.720	-67.876	-58.069	267.203	262.696	220.473	0.00034613	0.00030989	0.00011445	1325.3	2.6724e-06	1.0325e-06	1332.6	363.03	2.7722e-06	1.9603e-06	419.48	140.16	121.38	41.57	2.1557e-06	51.402	8.1153e-05	7.7208e-05	2.1553e-05	1114.8	8.4133e-07	8.4818e-07	1269.1	342.56	8.4118e-07	8.2945e-07	377.75	128.21	109.58	38.082	8.4585e-07	46.378	-29.610	26.954	6.951	-59.457	106.654	-61.441	-59.363	-54.560	-21.918	-27.293	-55.419	-50.982	-49.996	-45.445	27.307	-46.412	-8191	255	
361.312	1	1	0	0	0.24561	0.10791	0.15592	0.13071	0.023437	0.04175	0.2013	0.1464	0.18362	0.13222	0.016079	0.23977	0.10469	0.050594	0.22986	0.21856	-2.15	-2.7583	-2.3812	-2.8646	-2.6063	-2.6188	-3.175	-2.5583	-2.6729	-2.7875	-2.5958	-2.8688	-2.6917	-2.4417	-2.8479	-2.7104	26.311	-33.625	158.828	22.264	209.083	184.648	172.699	180.856	-54.461	187.029	233.919	287.113	175.062	127.911	60.773	151.257	0.00035945	4.4505e-05	1.5032e-05	1327.2	2.1202e-06	4.4878e-06	1339	364.5	2.3594e-06	3.2392e-06	419.83	140.35	121.74	41.691	2.4444e-06	51.491	8.1534e-05	7.7097e-05	2.1478e-05	1117.8	8.534e-07	8.5038e-07	1274.7	343.53	8.881e-07	8.811e-07	378.57	128.51	110.09	38.304	9.1939e-07	46.685	-33.609	-14.654	92.370	-59.171	111.717	35.946	-59.357	-54.516	83.543	50.708	-55.334	-50.686	-50.082	-45.680	106.617	-46.302	-8191	255	
361.408	1	1	0	0	0.14813	0.23013	0.19298	0.19973	0.18963	0.17667	0.08514	0.15927	0.13997	0.15318	0.10143	0.23013	0.14066	0.23976	0.20951	0.18787	-2.1292	-2.975	-2.4833	-2.7188	-2.6542	-2.4771	-2.825	-2.6896	-2.3833	-2.8	-2.6167	-2.5417	-2.7812	-2.6771	-2.7417	-2.7938	167.784	276.594	82.862	249.910	11.605	116.549	206.328	-59.629	48.871	68.772	18.936	163.095	-45.652	239.153	168.731	132.337	0.00034538	0.00043886	0.00010079	1339.1	2.5888e-06	6.3198e-06	1345.4	366.96	2.1601e-06	3.2652e-06	423.08	140.12	122.09	41.648	2.9092e-06	51.863	9.0989e-05	8.7072e-05	2.3817e-05	1129.3	9.6531e-07	9.6512e-07	1282.5	345.04	9.776e-07	9.5823e-07	380.06	128.87	110.19	38.333	9.4618e-07	46.707	-35.597	35.776	-12.210	-59.308	15.630	11.927	-59.279	-54.643	198.264	67.151	-55.177	-50.589	-50.236	-45.622	5.154	-46.553	-8191	255	
361.504	1	1	0	0	0.18913	0.13808	0.10496	0.18545	0.13262	0.22999	0.061582	0.33626	0.17829	0.19179	0.10403	0.19289	0.066328	0.25363	0.27499	0.16561	-2.1521	-2.7479	-2.4188	-2.7354	-2.7646	-2.525	-3.0583	-2.9437	-2.5792	-2.8479	-2.6896	-2.875	-2.9333	-2.5208	-2.6833	-2.925	268.522	251.778	160.006	141.110	188.081	276.613	52.951	219.815	193.407	229.353	-47.520	212.337	-66.190	286.054	206.020	241.514	0.00047932	0.00041264	4.6222e-05	1331.2	2.1529e-06	4.6391e-06	1331.4	364.54	2.9195e-06	2.6209e-06	419.13	140.5	121.49	41.611	3.9187e-06	51.348	9.0825e-05	8.5804e-05	2.3792e-05	1122.3	9.1707e-07	9.0228e-07	1272.8	343.27	9.0532e-07	8.9632e-07	377.61	128.34	109.58	38.166	9.0329e-07	46.403	-49.188	-0.687	11.711	-59.512	105.992	63.506	-59.279	-54.652	91.470	48.354	-55.281	-50.658	-50.004	-45.637	51.890	-46.439	-8191	255	
361.625	1	1	0	0	0.20285	0.24122	0.11879	0.13911	0.20644	0.019613	0.20717	0.13835	0.43863	0.22433	0.12927	0.22556	0.16881	0.29105	0.13045	0.40663	-1.95	-2.7875	-2.5271	-2.6312	-2.9062	-2.5333	-2.8167	-2.9292	-2.6521	-2.9938	-2.7687	-2.6271	-2.8271	-2.6396	-2.7792	-2.9604	102.809	190.615	158.180	9.190	47.366	272.486	211.402	175.726	156.175	12.671	90.153	159.400	227.819	237.686	247.243	224.191	0.00037451	0.00036499	8.7005e-05	1325.9	2.1512e-06	4.9944e-06	1344.4	365.41	3.6312e-06	5.0328e-06	421.32	140.37	122.1	41.814	1.2913e-06	51.743	8.8839e-05	8.3649e-05	2.3594e-05	1121.8	9.4695e-07	9.6048e-07	1279.7	344.66	9.9194e-07	9.9436e-07	380.69	129.08	110.59	38.499	1.0294e-06	46.9	-36.408	3.422	-15.666	-59.533	63.900	27.532	-59.320	-54.544	63.716	44.831	-55.268	-50.699	-49.972	-45.615	19.058	-46.465	-8191	255	
361.721	1	1	0	0	0.17456	0.095761	0.20217	0.068525	0.19698	0.28407	0.15184	0.13912	0.11839	0.11025	0.14496	0.091981	0.093432	0.27108	0.12465	0.19344	-1.9979	-2.8375	-2.5958	-2.6229	-2.9604	-2.4729	-2.9833	-2.7333	-2.5	-2.8312	-2.7646	-2.4938	-3.0438	-2.4958	-2.6437	-2.7687	143.734	255.738	164.284	-49.354	42.022	208.833	255.670	-54.414	246.355	282.741	84.177	76.365	140.471	236.106	164.257	178.086	0.00025841	9.3099e-05	9.5205e-05	1336.6	4.7788e-06	5.8291e-06	1349.4	368.31	2.4528e-06	3.9788e-06	422.88	140.69	122.07	41.789	3.093e-06	51.776	0.00010065	9.5746e-05	2.6797e-05	1133.6	1.0576e-06	1.049e-06	1287.5	346.99	1.0375e-06	9.975e-07	381.88	129.4	110.68	38.391	9.5606e-07	46.816	-21.838	279.009	-25.484	-59.347	40.935	26.881	-59.397	-54.656	76.260	95.167	-55.220	-50.816	-50.030	-45.822	54.173	-46.546	-8191	255	
361.817	1	1	0	0	0.13585	0.28312	0.11671	0.066301	0.18256	0.31923	0.34133	0.062763	0.076274	0.15353	0.44082	0.1132	0.20367	0.14729	0.064701	0.41751	-2.1437	-2.8354	-2.6104	-2.5875	-2.8896	-2.6979	-2.8771	-3.0021	-2.5375	-2.7542	-2.6667	-2.6104	-2.9625	-2.775	-2.5917	-2.8708	-64.851	213.924	212.625	32.606	47.670	51.314	218.078	176.897	270.416	106.133	-68.277	-71.268	-43.807	149.498	246.722	-70.870	0.00025236	0.00062597	8.2016e-05	1330.3	1.7399e-06	2.6809e-06	1341.7	365.56	3.0791e-06	1.2686e-06	420.82	140.46	122.24	41.861	4.0243e-06	51.713	8.989e-05	8.3455e-05	2.3204e-05	1125.6	9.0189e-07	8.7012e-07	1277.5	344.5	8.7508e-07	8.5709e-07	379.19	128.69	110.02	38.287	8.571e-07	46.623	-32.661	31.194	18.218	-59.466	51.587	77.372	-59.406	-54.329	74.259	16.704	-55.439	-50.515	-49.964	-45.586	39.290	-46.522	-8191	255	
361.913	1	1	0	0	0.17901	0.17438	0.11069	0.097582	0.19271	0.070455	0.20784	0.20081	0.12613	0.094941	0.13184	0.077838	0.11014	0.15548	0.085815	0.12747	-2.1937	-2.9167	-2.9208	-2.575	-2.9437	-2.6771	-2.8146	-3.1562	-2.5333	-2.9271	-2.9708	-2.5812	-2.7146	-2.7479	-2.6292	-2.9479	137.960	161.178	62.051	162.316	87.415	272.884	190.995	263.306	104.406	90.418	283.053	280.378	15.140	156.021	241.182	255.362	0.00038582	6.6475e-05	0.00014213	1333.7	1.4036e-06	4.5417e-06	1341.1	365.77	2.4729e-06	3.4346e-06	422.12	140.3	122.87	41.821	1.6095e-06	51.928	8.323e-05	7.8993e-05	2.1926e-05	1121.3	8.6043e-07	8.6104e-07	1277.1	344.61	8.8416e-07	8.6729e-07	379.69	128.74	110.47	38.455	8.884e-07	46.814	-36.326	89.618	-6.034	-59.158	96.588	52.770	-59.381	-54.595	20.725	34.269	-55.435	-50.656	-49.960	-45.572	89.374	-46.700	-8191	255	
362.009	1	1	0	0	0.090211	0.19816	0.12638	0.13663	0.21348	0.22265	0.19954	0.1701	0.096246	0.22943	0.41699	0.25584	0.12145	0.25849	0.26503	0.21032	-2.0938	-2.7	-2.7854	-2.4708	-2.9833	-2.8563	-2.725	-2.9208	-2.5667	-2.5125	-3.0438	-2.6521	-2.8521	-2.7667	-2.6042	-2.9333	136.665	109.669	183.780	211.975	227.612	12.899	221.978	191.535	11.080	10.120	218.081	226.082	-54.219	286.763	124.160	239.626	0.00035263	0.00021977	0.00012556	1333.3	3.7447e-06	2.0022e-06	1345.7	368.37	7.6836e-07	5.9862e-06	424.46	141.95	123.07	42.042	5.104e-06	52.332	8.4446e-05	8.0624e-05	2.2583e-05	1126.6	8.8483e-07	8.9292e-07	1283.3	346.68	9.2352e-07	9.0235e-07	381.76	129.69	111.06	38.663	9.2433e-07	47.166	-37.889	-27.565	-16.293	-59.115	47.375	58.040	-59.287	-54.469	84.004	83.272	-55.102	-50.711	-50.013	-45.877	34.060	-46.409	-8191	255	
362.105	1	1	0	0	0.23915	0.23729	0.3557	0.11471	0.18282	0.024865	0.15541	0.072833	0.26184	0.10573	0.11617	0.39194	0.068617	0.1514	0.097921	0.21925	-2.1937	-2.5042	-2.8167	-2.5646	-2.75	-2.6583	-2.6646	-2.8812	-2.65	-2.75	-2.8937	-2.4562	-2.8396	-2.8229	-2.4813	-2.8937	124.998	266.446	189.902	203.159	178.445	212.900	238.494	175.464	114.373	105.861	231.480	236.744	166.279	-68.680	217.015	279.503	0.00032326	0.00026477	0.00010932	1340	9.4198e-07	4.014e-06	1351.5	368.86	1.0942e-06	1.0096e-06	424.47	141.87	123.33	42.242	3.244e-06	52.193	8.9374e-05	8.5033e-05	2.3652e-05	1132.3	9.2407e-07	9.2472e-07	1286.5	347.59	9.3161e-07	9.2517e-07	382.75	129.94	111.33	38.75	9.4288e-07	47.167	-54.604	-6.098	-1.198	-59.276	98.786	67.567	-59.543	-54.488	71.016	53.623	-55.186	-50.748	-50.031	-45.712	24.150	-46.557	-8191	255	
362.224	1	1	0	0	0.064407	0.27795	0.26322	0.0843	0.058325	0.056469	0.11198	0.16785	0.13293	0.087301	0.35772	0.27501	0.18937	0.17535	0.3012	0.16451	-2.0292	-2.4417	-2.725	-2.7687	-2.7354	-2.8333	-2.5875	-2.8625	-2.6458	-2.7917	-2.8625	-2.6875	-2.6188	-3.05	-2.5458	-2.8792	48.393	62.063	97.994	-14.372	-14.510	202.455	136.494	275.826	-57.131	97.349	-71.772	191.549	-27.579	232.028	267.739	225.608	0.00039235	0.00021995	6.2162e-05	1343.2	3.894e-06	1.6278e-06	1354.6	369.93	4.3583e-06	1.5805e-06	424.73	142.64	123.3	42.383	3.6852e-06	52.517	9.0097e-05	8.7414e-05	2.4035e-05	1137	9.6004e-07	9.4889e-07	1292.5	349.08	9.5812e-07	9.5007e-07	383.52	130.66	111.61	38.915	9.521e-07	47.289	-46.685	-62.045	-44.619	-59.356	63.888	96.988	-59.089	-54.634	66.533	-18.086	-55.286	-50.893	-50.067	-45.822	42.230	-46.653	-8191	255	
362.320	1	1	0	0	0.24582	0.10378	0.20566	0.19552	0.079747	0.19787	0.2357	0.080309	0.055673	0.023192	0.060921	0.17792	0.25762	0.22995	0.24117	0.31983	-2.2917	-2.6521	-2.7146	-2.6125	-2.6771	-2.8042	-2.5438	-2.8333	-2.6104	-2.5833	-3.0229	-2.7604	-2.7958	-2.7542	-2.4333	-2.8604	131.143	220.312	207.994	-59.888	-23.676	218.732	240.425	278.245	-40.513	254.118	271.622	232.447	-62.397	-56.490	156.769	236.870	0.00038012	0.00029973	5.2468e-05	1343.8	6.6421e-07	2.5654e-06	1352.8	368.97	3.7331e-06	1.2873e-06	426.5	141.7	123.32	42.272	2.5282e-06	52.262	9.0302e-05	8.677e-05	2.3521e-05	1134.5	9.1184e-07	9.0769e-07	1290.6	348.21	9.1987e-07	8.9102e-07	383.17	130.01	111.38	38.789	8.8861e-07	47.213	-31.349	-3.788	50.765	-59.087	48.350	61.335	-59.289	-54.519	42.378	5.959	-55.184	-50.838	-50.365	-45.669	124.906	-46.713	-8191	255	
362.416	1	1	0	0	0.11337	0.079013	0.29299	0.15562	0.14057	0.18779	0.093593	0.21386	0.047778	0.16784	0.063947	0.055031	0.06889	0.12096	0.0055975	0.31221	-2.4271	-2.7083	-2.7542	-2.5771	-2.5083	-2.7313	-2.5896	-2.7562	-2.7333	-2.3063	-2.7667	-2.7292	-2.7042	-2.8521	-2.5583	-2.8396	246.784	208.414	-16.176	165.241	149.803	268.897	238.300	209.379	198.955	45.301	30.421	139.123	91.756	268.393	161.727	186.031	0.00043331	0.00024138	6.548e-05	1335.6	3.0538e-06	6.5029e-06	1355.4	371.21	3.9661e-06	2.5535e-06	425.06	142.03	123.06	42.339	2.2216e-06	52.222	8.5398e-05	8.1469e-05	2.2523e-05	1128.7	8.9856e-07	8.9221e-07	1288.4	348.66	9.1158e-07	8.9243e-07	383.27	130.22	111.38	38.809	9.1713e-07	47.227	-48.151	-29.017	-32.261	-59.665	81.191	33.837	-59.278	-54.772	54.606	60.756	-55.137	-50.726	-50.107	-45.563	-14.042	-46.642	-8191	255	
362.513	1	1	0	0	0.22812	0.20784	0.21289	0.25176	0.22619	0.16265	0.24775	0.32095	0.1792	0.25881	0.12958	0.17203	0.19871	0.0027157	0.045648	0.18812	-2.4542	-2.3771	-2.6958	-2.7708	-2.5354	-2.7375	-2.5854	-2.6917	-2.7771	-2.4437	-2.6271	-2.8479	-2.5312	-2.9062	-2.5208	-2.6417	-34.475	212.317	247.314	249.759	176.497	-65.623	250.426	253.949	109.590	-60.585	181.040	34.799	-14.208	50.358	242.608	171.579	0.00034519	0.00035295	8.1981e-05	1339.2	5.67e-07	2.3891e-06	1352.2	368.79	1.4241e-06	1.0181e-06	426.52	141.33	123.45	42.328	3.6318e-06	52.245	8.7138e-05	8.1764e-05	2.2874e-05	1134.5	9.0384e-07	8.9726e-07	1290.7	348.48	9.1823e-07	9.145e-07	383.41	130.03	111.87	38.893	9.4934e-07	47.225	-29.915	-12.101	17.904	-59.238	199.293	30.684	-59.483	-54.528	-65.466	8.155	-55.247	-50.801	-50.352	-45.596	49.391	-46.674	-8191	255	
362.609	1	1	0	0	0.034458	0.078693	0.28188	0.16515	0.32296	0.061158	0.34906	0.20578	0.18627	0.12368	0.28105	0.16997	0.063266	0.073229	0.15069	0.13752	-2.4938	-2.4958	-2.6208	-2.9062	-2.4938	-2.8771	-2.7792	-2.7375	-2.9146	-2.4833	-2.9	-2.9042	-2.6813	-2.9479	-2.8708	-2.6312	249.034	-23.814	95.825	280.688	254.547	182.359	183.715	221.318	177.681	83.522	184.094	-20.028	175.528	192.880	183.819	265.421	0.00029099	0.00027433	5.9334e-06	1339.1	4.2995e-06	3.6278e-06	1353.4	370.09	3.6778e-06	3.9262e-06	425.49	141.53	123.46	42.027	3.1754e-06	52.035	9.2717e-05	8.838e-05	2.4544e-05	1135.4	9.8441e-07	9.7562e-07	1290.2	349.38	9.9476e-07	9.7358e-07	384.05	130.15	111.63	38.749	9.6895e-07	47.186	-46.356	-40.669	103.082	-59.179	114.920	71.426	-59.292	-54.632	60.582	56.758	-54.960	-50.441	-50.018	-45.555	88.275	-46.522	-8191	255	
362.705	1	1	0	0	0.05559	0.059241	0.22492	0.068715	0.19352	0.12577	0.33534	0.25945	0.16558	0.18271	0.10189	0.22209	0.185	0.12685	0.19375	0.0047997	-2.3917	-2.4792	-2.6479	-2.8292	-2.5833	-2.9021	-3.0479	-2.6708	-2.6667	-2.5604	-2.8521	-2.9229	-2.5729	-3.0292	-2.7562	-2.8583	194.169	206.393	6.272	73.191	73.712	112.927	251.100	204.642	-3.311	51.226	-25.651	-69.215	-59.131	260.712	102.143	6.882	0.00051675	0.00036455	0.00013131	1344.8	2.1398e-06	3.6282e-06	1350.4	369.43	9.0679e-07	2.4251e-06	425.34	141.91	122.87	42.205	4.0205e-06	52.207	9.1611e-05	8.7931e-05	2.4481e-05	1134.8	9.7629e-07	9.6988e-07	1288.3	347.94	9.9338e-07	9.8606e-07	383.3	130.18	111.4	38.759	1.0195e-06	47.162	-38.224	24.058	-8.309	-59.104	99.013	63.451	-59.427	-54.667	1.593	130.750	-55.127	-50.863	-50.192	-45.526	12.426	-46.649	-8191	255	
362.801	1	1	0	0	0.0041914	0.1927	0.23121	0.079521	0.16486	0.17269	0.2382	0.14898	0.17964	0.20802	0.16778	0.26084	0.31541	0.3361	0.22057	0.067767	-2.5875	-2.4583	-2.7104	-2.8	-2.4062	-2.9313	-2.9375	-2.575	-2.8292	-2.7021	-2.7083	-2.9958	-2.6875	-2.8187	-2.6896	-2.5	-17.256	-10.137	244.094	211.096	96.380	16.875	182.296	47.948	185.766	-34.925	-50.615	257.119	240.794	-66.542	152.934	-8.424	0.00025484	0.00030271	7.5694e-05	1342.3	2.4594e-06	4.3087e-06	1352	368.43	2.978e-06	2.3704e-06	426	141.5	122.45	41.969	4.0798e-06	51.921	9.7727e-05	9.3838e-05	2.6099e-05	1135.3	1.0204e-06	1.0176e-06	1289	348.08	1.026e-06	1.0065e-06	383.5	129.8	111.12	38.689	1.0154e-06	47.069	-25.917	11.020	-31.313	-59.342	158.084	67.333	-59.305	-54.503	100.274	80.758	-54.837	-50.922	-50.103	-45.733	49.457	-46.543	-8191	255	
362.922	1	1	0	0	0.22716	0.15879	0.23801	0.20666	0.13935	0.015601	0.32546	0.18825	0.13357	0.19029	0.134	0.081132	0.15874	0.13472	0.26457	0.35638	-2.4646	-2.7021	-2.5229	-3.0042	-2.6917	-2.6521	-2.8583	-2.6417	-2.8917	-2.6854	-2.5854	-2.9083	-2.6312	-2.8208	-2.7562	-2.5208	250.062	202.805	157.605	213.021	275.296	281.595	253.725	271.525	-67.802	143.107	-52.123	171.455	-59.233	-65.671	-19.806	260.772	0.00044214	0.00034351	2.1072e-05	1338	2.6564e-06	4.5637e-06	1347.9	368.1	1.4861e-06	3.3088e-06	426.54	141.39	122.58	41.903	2.6749e-06	52.021	9.67e-05	9.1139e-05	2.5489e-05	1134.4	9.8511e-07	9.9775e-07	1287	347.26	1.0207e-06	1.0042e-06	383.18	129.7	111.32	38.713	1.0169e-06	47.066	-27.495	8.429	-60.920	-59.206	79.304	6.301	-59.311	-54.393	13.241	25.895	-55.348	-50.809	-50.242	-45.568	40.699	-46.691	-8191	255	
363.018	1	1	0	0	0.13913	0.23317	0.33269	0.17912	0.21074	0.13511	0.40307	0.029899	0.12284	0.12807	0.1378	0.07807	0.48645	0.14113	0.11574	0.34771	-2.3729	-2.6979	-2.5	-2.8438	-2.4313	-2.6771	-2.8083	-2.5875	-2.6771	-2.6917	-2.6479	-2.8438	-2.6437	-2.6729	-2.7562	-2.525	175.892	134.173	233.720	35.308	98.331	183.628	198.165	209.789	65.597	8.821	64.989	164.748	278.416	178.789	128.712	194.283	0.00031459	0.0002559	5.0502e-05	1344.2	1.2747e-06	1.8889e-06	1350.2	368.2	2.2388e-06	3.1039e-06	425.37	141.86	122.86	42.056	1.8108e-06	51.964	9.629e-05	9.1906e-05	2.5445e-05	1134.2	1.0022e-06	9.9162e-07	1286.9	347.86	1.0046e-06	1.0027e-06	383.26	129.84	111.22	38.71	1.0026e-06	47.03	-46.238	-3.257	-13.563	-59.322	2.609	24.859	-59.175	-54.622	109.326	-8.228	-55.256	-50.684	-50.280	-45.646	6.484	-46.472	-8191	255	
363.090	1	1	0	0	0.27059	0.29872	0.12597	0.10166	0.1593	0.12288	0.1619	0.26743	0.27974	0.29235	0.044405	0.13056	0.20805	0.096143	0.021441	0.20827	-2.4104	-2.5021	-2.3625	-2.7667	-2.4896	-2.5312	-3.1604	-2.4375	-2.625	-2.6917	-2.4938	-2.925	-2.7604	-2.5312	-2.6729	-2.5167	269.668	237.931	107.932	-54.940	44.030	-41.370	239.181	180.000	286.029	154.252	216.458	-59.518	189.805	153.446	215.129	237.063	0.00044975	0.00020314	5.6098e-05	1340.4	3.3291e-06	1.9906e-06	1351.8	368.32	4.6453e-06	8.8605e-07	425.17	141.36	122.72	42.079	4.4957e-06	52.11	9.5978e-05	9.1959e-05	2.5313e-05	1130.7	9.972e-07	9.8343e-07	1285.5	347.15	9.8748e-07	9.7113e-07	382.82	129.75	111.02	38.638	9.8964e-07	47.013	-49.826	81.580	-53.334	-58.969	100.898	18.355	-59.342	-54.599	-12.791	167.862	-55.197	-50.795	-50.146	-45.842	41.209	-46.812	-8191	255	
363.186	1	1	0	0	0.1403	0.057544	0.094562	0.18172	0.17126	0.24101	0.1806	0.26563	0.15194	0.25859	0.16899	0.16914	0.22765	0.17871	0.16776	0.28307	-2.1562	-2.575	-2.4313	-2.7125	-2.6979	-2.6417	-2.9854	-2.5875	-2.6937	-2.7229	-2.5646	-2.8229	-2.7542	-2.4688	-2.7083	-2.6437	69.916	-41.899	61.561	-27.923	280.940	234.829	231.742	200.330	154.383	-48.175	276.731	251.729	269.073	125.880	270.554	261.449	0.00038444	0.00023456	0.0001241	1330.8	2.8266e-06	5.132e-06	1346.9	367.15	1.0214e-06	3.1874e-06	423.83	141.51	122.18	42.041	2.7524e-06	51.934	9.3378e-05	8.8209e-05	2.4742e-05	1133.6	9.609e-07	9.6379e-07	1284.4	346.72	9.6769e-07	9.6333e-07	382.02	129.58	110.9	38.638	9.5856e-07	46.945	-26.076	18.337	14.584	-59.316	62.548	28.803	-59.246	-54.621	118.195	36.553	-55.197	-50.671	-50.082	-45.838	61.162	-46.458	-8191	255	
363.305	1	1	0	0	0.27576	0.08463	0.16392	0.13069	0.088798	0.24564	0.33122	0.11391	0.14323	0.15304	0.2826	0.25173	0.06072	0.31889	0.19784	0.10428	-2.0833	-2.7687	-2.4208	-2.6667	-2.7438	-2.6208	-2.9167	-2.6688	-2.7687	-2.5708	-2.7438	-2.9208	-2.7208	-2.5979	-2.8104	-2.8646	248.377	5.258	66.742	139.269	66.457	-27.019	252.805	237.107	103.462	-17.294	266.298	-10.558	6.062	266.758	99.118	168.673	0.00041582	0.00048384	0.00012632	1329.7	3.3985e-06	4.5639e-06	1336.1	367.51	2.4119e-06	4.149e-06	424.45	140.93	122.61	41.993	7.2909e-07	52.04	9.1858e-05	8.523e-05	2.3698e-05	1126.3	9.3045e-07	9.2965e-07	1278.4	346.09	9.4308e-07	9.2667e-07	381.44	129.45	110.7	38.576	9.4073e-07	46.92	-47.933	-14.766	-22.767	-59.285	63.355	45.628	-59.475	-54.417	109.438	50.612	-55.235	-50.583	-50.073	-45.518	186.890	-46.625	-8191	255	
363.401	1	1	0	0	0.17022	0.1039	0.1775	0.094804	0.098412	0.15998	0.097839	0.080739	0.22816	0.12529	0.20422	0.15624	0.1397	0.34919	0.20067	0.046568	-2.1875	-2.7	-2.5771	-2.6958	-2.8563	-2.375	-2.9083	-2.7854	-2.6792	-2.8542	-2.575	-2.8375	-2.7167	-2.4542	-2.9313	-2.7458	162.786	205.610	142.951	131.317	-39.596	242.041	212.311	-27.039	214.113	266.141	-29.673	-56.180	268.272	-42.361	-69.344	31.300	0.0003535	0.00024567	0.00011829	1335.3	2.045e-06	1.1058e-06	1345.8	367.99	4.5554e-06	3.8234e-06	423.45	141.79	122.13	41.909	4.0782e-06	51.908	9.0552e-05	8.6731e-05	2.4205e-05	1130.7	9.5244e-07	9.5096e-07	1282	346.72	9.6359e-07	9.5297e-07	381.21	129.48	110.76	38.554	9.4265e-07	46.878	-32.002	33.464	-21.490	-59.430	99.330	-20.996	-59.122	-54.540	41.651	77.261	-55.259	-50.866	-50.138	-45.613	30.502	-46.557	-8191	255	
363.497	1	1	0	0	0.079301	0.21376	0.12771	0.16264	0.30063	0.13946	0.078788	0.31709	0.12612	0.069018	0.198	0.083363	0.26745	0.23163	0.079925	0.18074	-1.9438	-2.7354	-2.5646	-2.7021	-2.8979	-2.5125	-3.0083	-2.9979	-2.3104	-2.6979	-2.6229	-2.8187	-2.8896	-2.4562	-2.7479	-2.8458	149.764	59.126	56.696	107.060	125.409	-12.974	259.526	-31.099	252.942	5.282	188.479	267.797	205.000	6.889	87.184	191.771	0.0003168	0.00023114	0.00013	1324.9	3.0369e-06	2.7364e-06	1340	366.98	4.4428e-06	3.9821e-06	424.3	141.39	122.89	41.897	4.142e-06	51.974	9.2239e-05	8.7411e-05	2.4204e-05	1128.1	9.4357e-07	9.3383e-07	1282	346.32	9.5158e-07	9.322e-07	381.83	129.33	110.96	38.495	9.5118e-07	46.8	-57.557	-25.125	-27.990	-59.421	22.813	89.857	-59.280	-54.680	48.619	49.656	-55.249	-50.732	-49.953	-45.681	27.534	-46.491	-8191	255	
363.617	1	1	0	0	0.078214	0.23022	0.17311	0.15753	0.15024	0.1831	0.22168	0.14766	0.0043651	0.17532	0.20947	0.25021	0.24114	0.31057	0.098989	0.22312	-2.0312	-2.8229	-2.5396	-2.6833	-2.8688	-2.5083	-2.7229	-2.8354	-2.5187	-2.7667	-2.875	-2.8375	-3.0417	-2.5354	-2.6937	-2.8312	58.091	266.742	232.595	8.255	-52.144	110.103	224.785	262.467	82.103	140.770	207.051	227.403	-61.008	242.526	130.653	228.911	0.0003284	0.00056207	1.0492e-05	1331.4	4.323e-06	5.7445e-06	1342.5	367.89	3.0014e-06	3.0909e-06	423.63	141.19	122.11	41.706	1.2055e-06	51.582	9.1564e-05	8.6973e-05	2.4075e-05	1127.1	9.5629e-07	9.4504e-07	1281.9	346.38	9.7469e-07	9.4791e-07	381.69	129.27	110.7	38.426	9.7462e-07	46.746	-28.192	-12.978	-4.830	-59.402	102.724	83.653	-59.420	-54.548	82.856	85.418	-55.205	-50.771	-50.165	-45.670	71.334	-46.626	-8191	255	
363.689	1	1	0	0	0.30246	0.055342	0.25987	0.066573	0.20335	0.1503	0.28853	0.052512	0.14179	0.31866	0.29089	0.16452	0.19565	0.20371	0.1684	0.1746	-2.1125	-2.75	-2.8167	-2.6813	-2.8271	-2.5312	-2.7146	-2.9313	-2.3875	-2.8021	-2.8063	-2.5479	-2.9167	-2.8521	-2.6583	-3.0438	14.599	252.653	-25.343	285.420	109.367	99.693	234.246	198.479	-58.420	-55.284	250.868	266.656	220.322	250.452	-29.872	1.221	0.00032571	0.00042458	0.00010701	1335.1	1.5503e-06	4.5219e-06	1343.3	368.2	1.5794e-06	2.2347e-06	422.86	140.88	121.8	41.936	1.8048e-06	51.638	9.3665e-05	8.9506e-05	2.473e-05	1132.3	9.8409e-07	9.7368e-07	1283.5	346.61	9.8488e-07	9.7626e-07	381.36	129.37	110.64	38.515	9.7268e-07	46.773	-43.534	-4.028	-13.395	-59.439	98.855	34.142	-59.240	-54.864	177.780	104.671	-55.244	-50.574	-50.081	-45.725	98.219	-46.347	-8191	255	
363.785	1	1	0	0	0.095269	0.14556	0.25533	0.052052	0.081804	0.085402	0.1736	0.14232	0.20043	0.080684	0.28872	0.11922	0.15093	0.15092	0.17103	0.31941	-1.8792	-2.85	-2.6958	-2.4604	-2.6312	-2.5938	-2.7771	-2.8875	-2.6021	-2.9396	-2.6833	-2.4833	-2.9229	-2.6063	-2.5021	-2.8063	-18.464	85.086	229.634	-33.716	185.016	72.662	253.322	213.509	-3.319	275.404	-17.280	4.103	213.675	-64.649	285.045	198.725	0.00042963	0.00044481	0.0001695	1335.6	3.4686e-06	4.2302e-06	1344.5	367.09	3.9627e-06	3.336e-06	422.44	140.51	121.99	41.891	1.9492e-06	51.894	9.3472e-05	8.8522e-05	2.4625e-05	1130.2	9.8006e-07	9.6834e-07	1281.8	346.04	9.827e-07	9.6691e-07	381.27	129.41	110.7	38.481	9.7277e-07	46.866	-53.050	-23.487	-6.110	-59.375	103.911	81.768	-59.481	-54.569	61.923	46.058	-55.229	-50.793	-50.043	-45.597	31.931	-46.516	-8191	255	
363.906	1	1	0	0	0.18081	0.068839	0.17916	0.061663	0.17249	0.17347	0.36965	0.10526	0.19062	0.1529	0.24912	0.1681	0.066858	0.13908	0.083145	0.082371	-1.9667	-2.5958	-2.6646	-2.475	-2.9104	-2.7313	-2.8125	-2.925	-2.4583	-2.4562	-2.8354	-2.3812	-2.8063	-2.75	-2.7125	-2.8917	203.987	82.935	73.401	127.064	-47.597	212.008	206.339	196.969	-65.697	247.731	195.467	215.312	249.128	-66.728	-56.449	-3.682	0.00027639	0.00042846	6.0675e-05	1336	3.8261e-06	3.7347e-06	1346.3	368.05	1.7186e-06	3.652e-06	423.35	141.12	122.36	41.755	7.3138e-07	51.822	9.3691e-05	8.9061e-05	2.4738e-05	1130.9	9.7083e-07	9.7019e-07	1283.1	346.37	9.7124e-07	9.4706e-07	381.33	129.07	110.55	38.392	9.7746e-07	46.775	-38.048	0.083	15.577	-59.047	56.484	112.919	-59.271	-54.635	36.631	56.339	-55.377	-50.812	-50.244	-45.610	185.765	-46.442	-8191	255	
364.002	1	1	0	0	0.12363	0.20325	0.13076	0.18767	0.037933	0.16591	0.092943	0.19168	0.33489	0.03603	0.14831	0.076807	0.35577	0.06899	0.15257	0.0087104	-2.1146	-2.5458	-2.7333	-2.4688	-2.7	-2.9458	-2.7438	-2.9708	-2.6833	-2.6208	-2.9	-2.7375	-2.9562	-2.8125	-2.5687	-2.8833	94.065	11.908	235.135	42.475	22.689	277.952	219.439	224.097	52.065	95.002	27.053	189.995	188.036	260.333	287.273	138.518	0.00037333	0.00035496	7.2676e-05	1333.2	3.5306e-06	2.358e-06	1344.3	366.76	2.7208e-06	2.9999e-06	421.9	140.36	122.39	41.699	3.0375e-06	51.619	9.2395e-05	8.7411e-05	2.4518e-05	1128.5	9.5554e-07	9.5801e-07	1280.9	346.17	9.6557e-07	9.5645e-07	380.7	129.01	110.51	38.416	9.5214e-07	46.735	-18.096	28.275	-1.074	-59.317	91.487	40.250	-59.280	-54.547	-61.436	50.296	-55.303	-50.643	-50.130	-45.705	76.565	-46.485	-8191	255	
364.098	1	1	0	0	0.22416	0.17956	0.10693	0.099284	0.1649	0.11455	0.11375	0.063888	0.16063	0.16771	0.23421	0.099355	0.10099	0.066322	0.11622	0.34907	-2.1729	-2.6	-3.0521	-2.5938	-2.6042	-2.7208	-2.5104	-3.1104	-2.7438	-2.725	-2.9437	-2.6771	-2.8	-3.0354	-2.6188	-2.9271	268.488	253.781	-38.633	189.172	-51.999	-10.050	264.121	234.416	268.879	121.108	247.142	-48.183	286.332	263.826	132.593	109.332	0.00040238	0.00028398	8.514e-05	1311.7	2.0878e-06	3.9364e-06	1342.4	367.51	1.7173e-06	2.8474e-06	420.82	140.99	121.88	41.823	2.5681e-06	51.638	9.0226e-05	8.647e-05	2.3837e-05	1121.3	9.5354e-07	9.3335e-07	1278.2	345.98	9.4906e-07	9.39e-07	380.28	128.89	110.4	38.369	9.4746e-07	46.696	-42.878	-10.967	32.978	-59.408	123.095	27.014	-59.339	-54.578	22.871	85.536	-55.162	-50.848	-49.990	-45.466	60.010	-46.616	-8191	255	
364.217	1	1	0	0	0.14504	0.18521	0.10727	0.30318	0.11847	0.17261	0.076913	0.059358	0.20763	0.091679	0.13853	0.21374	0.14933	0.086801	0.228	0.079206	-2.2917	-2.6354	-3	-2.6583	-2.6667	-2.7542	-2.725	-2.9125	-2.5729	-2.5729	-3.1542	-2.5938	-2.6375	-2.8063	-2.5771	-2.8771	207.221	263.630	-30.247	124.571	161.920	56.039	154.184	165.906	171.911	272.136	105.130	267.462	12.619	224.796	-69.069	27.278	0.00035763	0.00020669	0.00014581	1335.5	2.9928e-06	5.0602e-06	1339.3	366.95	4.3118e-06	2.8573e-06	423.58	140.28	121.97	41.646	4.2742e-06	51.502	9.0727e-05	8.6443e-05	2.3719e-05	1126.6	9.4027e-07	9.4641e-07	1278.7	345.91	9.474e-07	9.3973e-07	380.36	128.92	110.32	38.376	9.4356e-07	46.549	-42.423	41.338	6.377	-59.223	72.779	39.324	-59.483	-54.585	80.337	50.532	-55.343	-50.615	-50.148	-45.701	35.636	-46.400	-8191	255	
364.313	1	1	0	0	0.16695	0.22995	0.24093	0.17154	0.21736	0.14634	0.18316	0.3398	0.14412	0.17364	0.31645	0.21579	0.12188	0.093501	0.22765	0.1774	-2.1708	-2.4042	-2.9729	-2.5417	-2.4604	-2.9313	-2.7604	-2.8021	-2.7792	-2.5958	-2.9896	-2.6958	-2.6646	-2.85	-2.55	-2.8125	68.547	188.602	-15.449	178.547	117.247	244.495	256.700	231.955	135.289	-39.655	-49.255	242.087	224.892	264.548	54.689	-19.580	0.00055437	0.0001765	0.00011088	1324.3	2.28e-06	3.4281e-06	1343.4	366.46	4.5767e-06	5.7565e-06	421.98	141.02	121.94	41.591	5.0934e-06	51.604	9.0566e-05	8.6097e-05	2.3762e-05	1125.6	9.3358e-07	9.401e-07	1278	345.13	9.4742e-07	9.3129e-07	380.26	129.05	110.26	38.288	9.4294e-07	46.574	-39.994	49.563	38.568	-59.517	44.247	13.689	-59.420	-54.600	36.668	41.237	-55.339	-50.645	-50.316	-45.550	49.039	-46.706	-8191	255	
364.385	1	1	0	0	0.27877	0.12106	0.068792	0.1148	0.20044	0.063501	0.37209	0.26076	0.19441	0.23895	0.2257	0.11298	0.012691	0.25615	0.15473	0.18246	-2.2229	-2.4292	-2.9521	-2.6437	-2.5854	-2.9562	-2.7562	-2.9333	-2.6688	-2.5646	-2.9583	-2.7896	-2.6417	-2.95	-2.5333	-2.7229	52.464	112.684	117.237	69.391	101.915	174.604	168.639	250.128	-21.553	-3.599	218.290	207.738	73.916	192.320	239.791	247.514	0.00038721	0.0003964	8.5921e-05	1329.6	3.2924e-06	4.0134e-06	1341.7	366.71	9.2537e-07	4.4389e-06	421.8	140.13	121.82	41.714	6.197e-06	51.539	9.0464e-05	8.6238e-05	2.3862e-05	1125.3	9.4574e-07	9.3766e-07	1278.5	345.32	9.699e-07	9.4862e-07	379.96	129	110.45	38.352	9.6219e-07	46.697	-46.769	-11.408	-2.070	-59.157	9.137	33.694	-59.356	-54.405	226.687	36.615	-55.303	-50.839	-50.329	-45.468	42.173	-46.495	-8191	255	
364.481	1	1	0	0	0.070568	0.21156	0.31519	0.21778	0.27846	0.1885	0.10394	0.051762	0.12899	0.056718	0.2538	0.041907	0.10533	0.22233	0.14331	0.30454	-2.3	-2.5438	-2.8563	-2.6542	-2.5833	-2.925	-2.7667	-2.8292	-2.9146	-2.6479	-2.8604	-2.8354	-2.6167	-2.9792	-2.5354	-2.6437	-69.754	-10.868	199.850	272.795	106.927	252.237	192.322	40.135	100.731	14.548	149.209	76.158	-33.208	-61.111	234.635	209.198	0.00038501	0.00040296	0.00010016	1328.7	2.86e-06	3.2439e-06	1342.6	365.91	4.2563e-06	2.1449e-06	421.73	140.42	121.89	41.755	3.347e-06	51.571	9.2473e-05	8.9119e-05	2.4316e-05	1125.8	9.6395e-07	9.6473e-07	1279.5	345.28	9.7854e-07	9.618e-07	379.94	129.04	110.24	38.318	9.7015e-07	46.637	-31.120	-23.929	15.983	-59.435	50.191	39.482	-59.287	-54.634	80.004	28.531	-55.433	-50.735	-50.106	-45.565	50.171	-46.681	-8191	255	
364.602	1	1	0	0	0.25941	0.099208	0.063546	0.22837	0.22569	0.21174	0.28297	0.2318	0.18755	0.22734	0.29376	0.028783	0.12075	0.32607	0.14493	0.10389	-2.5729	-2.5979	-2.7333	-2.7958	-2.4417	-2.7625	-2.8417	-2.7917	-2.8792	-2.4917	-2.8021	-2.9083	-2.5583	-2.9188	-2.5833	-2.5646	0.562	92.988	49.174	276.493	261.607	41.116	234.148	-47.885	-36.722	171.269	177.087	94.133	-24.273	224.148	106.088	22.929	0.00039801	0.00028156	7.7419e-05	1330.3	3.2338e-06	4.6331e-06	1339.5	366.77	5.7434e-06	1.8572e-06	422.63	140.99	121.76	41.795	2.586e-06	51.569	9.26e-05	8.9181e-05	2.4174e-05	1126.6	9.6526e-07	9.6281e-07	1278.5	345.27	9.9064e-07	9.668e-07	380.71	129.05	110.33	38.346	9.756e-07	46.617	-35.519	6.450	-21.921	-59.551	17.519	85.991	-59.192	-54.410	43.886	22.901	-55.239	-50.474	-50.034	-45.713	72.264	-46.510	-8191	255	
364.698	1	1	0	0	0.28753	0.14271	0.048024	0.41668	0.056884	0.053049	0.076136	0.098305	0.094576	0.037936	0.020669	0.07528	0.2854	0.45099	0.10311	0.16402	-2.6021	-2.6833	-2.7083	-2.6083	-2.375	-2.9708	-2.9292	-2.6479	-2.8458	-2.5354	-2.7229	-2.9042	-2.6271	-2.8479	-2.6729	-2.7208	-69.181	261.619	-57.903	-66.819	172.288	12.422	153.353	135.387	19.236	91.193	260.785	272.871	-16.801	283.672	-3.841	275.572	0.00033393	3.5777e-05	7.2895e-05	1329.7	3.7131e-06	3.7119e-06	1343.1	366.52	2.2201e-06	1.5571e-06	421.87	139.96	122.08	41.504	1.2012e-06	51.437	9.3415e-05	8.8313e-05	2.4723e-05	1126.5	9.8341e-07	9.7057e-07	1280	345.23	9.894e-07	9.7911e-07	380.87	128.92	110.32	38.336	9.9869e-07	46.609	-52.260	221.260	-17.106	-59.152	45.472	40.440	-59.389	-54.385	245.454	102.988	-55.170	-50.541	-50.065	-45.498	14.216	-46.484	-8191	255	
364.794	1	1	0	0	0.039357	0.26043	0.41278	0.053495	0.17744	0.15484	0.12581	0.18082	0.23104	0.14133	0.27723	0.12336	0.1935	0.09549	0.2398	0.15316	-2.4104	-2.7583	-2.5375	-2.8458	-2.5	-2.8229	-2.8375	-2.6125	-2.7042	-2.5229	-2.6542	-2.7833	-2.5375	-2.6167	-2.8354	-2.6792	250.751	48.868	7.950	221.961	172.847	260.434	155.935	217.423	247.530	34.260	4.118	264.410	262.987	40.162	100.085	180.338	0.00052606	0.00019037	8.4598e-05	1334.7	2.4961e-06	2.0545e-06	1343.1	367.2	3.3344e-06	1.9077e-06	422.42	140.5	121.97	41.797	2.8464e-06	51.5	9.5992e-05	9.1601e-05	2.5641e-05	1131.8	1.0137e-06	1.0169e-06	1282.5	346.61	1.0316e-06	1.0175e-06	381.15	129.03	110.61	38.453	1.0148e-06	46.725	-57.091	-16.270	22.104	-59.372	139.065	52.332	-59.300	-54.359	86.482	48.303	-55.148	-50.788	-50.028	-45.446	-5.647	-46.536	-8191	255	
364.890	1	1	0	0	0.21942	0.22948	0.12319	0.18857	0.2127	0.24727	0.24597	0.25569	0.067547	0.12766	0.18577	0.17168	0.27139	0.14911	0.2004	0.19876	-2.3354	-2.5208	-2.4583	-2.7438	-2.6	-2.7542	-3.0396	-2.6354	-2.7938	-2.5563	-2.5687	-3.1562	-2.6063	-2.8292	-2.8083	-2.5896	168.811	-43.251	227.409	142.080	83.372	117.299	255.561	282.030	14.684	162.770	223.766	247.977	245.852	-54.491	115.596	81.073	0.00026404	0.00018001	4.9528e-05	1336	1.8881e-06	1.5376e-06	1343.3	366.79	3.3128e-06	5.1039e-07	422.85	140.58	122.1	41.678	6.9907e-06	51.767	9.7804e-05	9.4584e-05	2.6232e-05	1133.3	1.0362e-06	1.0269e-06	1285.6	346.49	1.0369e-06	1.025e-06	382.02	129.15	110.67	38.395	1.0335e-06	46.802	-30.378	-8.116	44.114	-59.283	75.096	-55.022	-59.313	-54.702	13.560	37.595	-55.323	-50.971	-49.989	-45.791	15.852	-46.537	-8191	255	
364.986	1	1	0	0	0.18546	0.17782	0.24521	0.023659	0.12689	0.17069	0.16431	0.25489	0.13272	0.063869	0.11209	0.21403	0.061167	0.15866	0.1015	0.10101	-2.1729	-2.6104	-2.5729	-2.8917	-2.425	-2.5146	-3.1042	-2.625	-2.7646	-2.5583	-2.6104	-2.9625	-2.6083	-2.6792	-2.7854	-2.5229	48.378	-6.196	273.721	45.092	-67.686	126.134	223.389	240.080	-35.990	170.819	-71.751	183.448	197.718	266.641	5.184	84.374	0.00020472	0.00029102	6.4429e-05	1336.6	8.9376e-07	2.6173e-06	1345.4	367.2	3.8799e-06	3.0518e-06	423.47	141.12	122.12	41.687	3.47e-06	51.56	9.8072e-05	9.3107e-05	2.6044e-05	1132.3	1.0153e-06	1.0118e-06	1284.9	346.35	1.0192e-06	1.0085e-06	382.02	129.39	110.56	38.387	9.9971e-07	46.733	-42.029	-2.169	-11.373	-59.088	149.733	-36.102	-59.342	-54.601	-13.209	62.772	-55.191	-50.763	-49.992	-45.607	35.355	-46.640	-8191	255	
365.082	1	1	0	0	0.29613	0.065261	0.11691	0.109	0.11947	0.10193	0.33217	0.30672	0.081472	0.18787	0.15444	0.17189	0.13007	0.19042	0.17115	0.23664	-2.2542	-2.6688	-2.3438	-2.6896	-2.6083	-2.8167	-2.8187	-2.6292	-2.7417	-2.9292	-2.6792	-2.7938	-2.7042	-2.6625	-3.0187	-2.4146	-0.986	-69.317	-8.366	-61.111	139.035	192.629	180.737	252.093	42.988	90.779	255.447	-34.822	-36.392	39.616	116.058	-27.930	0.00036092	0.00036392	9.8237e-05	1338.5	2.924e-06	4.1337e-06	1343.7	366.86	3.1247e-06	8.1702e-07	422.22	141.15	122.07	41.707	3.0995e-06	51.715	9.5473e-05	9.1504e-05	2.5674e-05	1133.1	9.9581e-07	9.9087e-07	1283.8	346.09	9.9902e-07	9.8714e-07	380.87	129.34	110.63	38.41	9.9975e-07	46.767	-37.299	-10.693	233.013	-59.375	126.107	61.058	-59.158	-54.557	77.490	36.874	-55.113	-50.654	-49.893	-45.374	112.081	-46.482	-8191	255	
365.179	1	1	0	0	0.16245	0.10879	0.18493	0.15215	0.17409	0.36309	0.20278	0.20737	0.08777	0.15998	0.099532	0.30384	0.016895	0.10933	0.12881	0.041001	-2.0792	-2.7583	-2.4229	-2.7042	-2.7125	-2.5646	-3.2083	-2.7062	-2.5417	-2.8396	-2.7167	-2.9042	-2.7708	-2.7542	-2.7979	-2.7562	183.155	-36.572	86.448	164.937	25.771	25.335	-72.022	216.127	64.194	48.020	204.067	251.997	236.737	-9.063	203.011	-40.983	0.00033	0.00019112	1.9918e-05	1336.1	4.2063e-06	3.574e-06	1340.5	366.2	3.2093e-06	4.3438e-06	422.7	140.9	122.13	41.646	1.4252e-06	51.73	9.4935e-05	9.1629e-05	2.57e-05	1131.7	1.0063e-06	1.006e-06	1282.7	346.36	1.0081e-06	1.0098e-06	381.01	129.44	110.67	38.393	1.023e-06	46.767	-21.659	-53.561	-30.315	-59.156	8.898	15.196	-59.430	-54.673	70.868	108.206	-55.271	-50.687	-49.995	-45.818	245.645	-46.498	-8191	255	
365.297	1	1	0	0	0.17033	0.20683	0.079238	0.17022	0.086075	0.14457	0.16333	0.28219	0.083134	0.082692	0.020628	0.029095	0.10867	0.068657	0.12494	0.070264	-2.2729	-2.6771	-2.5729	-2.9854	-2.7458	-2.4604	-2.9313	-2.7646	-2.5417	-2.925	-2.5833	-2.8375	-2.8167	-2.6167	-2.7583	-2.7062	-9.883	22.901	156.316	-65.651	-42.279	49.401	245.244	194.943	193.290	-33.525	199.619	5.544	205.653	269.782	70.991	215.799	0.00044278	0.00037828	8.1178e-05	1337.4	1.4878e-06	3.7321e-06	1347.3	366.81	7.1452e-07	1.6012e-06	424.09	140.64	121.99	41.692	4.6321e-06	51.625	9.7833e-05	9.3365e-05	2.5708e-05	1132.4	1.014e-06	1.0148e-06	1284.4	346.31	1.0181e-06	1.0053e-06	381.75	129.25	110.69	38.409	1.0092e-06	46.715	-44.529	-41.523	-52.739	-59.379	32.982	29.724	-59.164	-54.365	4.620	134.985	-55.207	-50.470	-50.094	-45.612	21.521	-46.426	-8191	255	
365.394	1	1	0	0	0.29711	0.059125	0.27705	0.15162	0.054792	0.28153	0.174	0.071249	0.19406	0.14701	0.25124	0.18587	0.26189	0.1784	0.079515	0.17174	-2.0792	-2.7875	-2.6688	-2.7438	-2.9208	-2.6104	-3.0375	-2.7583	-2.7938	-2.8	-2.6958	-2.9896	-2.8812	-2.4083	-2.8187	-2.8396	245.673	113.348	-32.251	156.950	-53.710	53.395	167.365	268.302	135.745	71.419	238.201	267.869	253.358	-46.925	204.211	232.042	0.00037218	0.00027704	0.00012815	1335.9	2.9678e-06	4.2088e-06	1347.6	366.51	2.6478e-06	2.0493e-06	421.88	141.06	122.1	41.729	4.3408e-06	51.792	9.615e-05	9.1475e-05	2.5329e-05	1132.5	9.9287e-07	9.9051e-07	1286.4	346.47	1.011e-06	1.0127e-06	381.04	129.33	110.71	38.393	1.0028e-06	46.746	-43.126	-11.107	-40.756	-59.307	76.143	41.576	-59.295	-54.688	76.728	30.166	-55.098	-50.872	-49.896	-45.740	9.422	-46.535	-8191	255	
365.490	1	1	0	0	0.25257	0.21476	0.07867	0.30315	0.30557	0.080152	0.10768	0.1073	0.19179	0.12601	0.088642	0.18593	0.1417	0.16961	0.085861	0.15734	-2.1958	-2.95	-2.5792	-2.7313	-2.775	-2.5771	-3.05	-2.9042	-2.4208	-3.0167	-2.825	-2.9375	-2.9583	-2.6625	-2.8625	-2.85	158.126	271.363	119.560	285.275	153.235	243.789	34.439	196.880	263.912	-28.475	233.043	215.444	276.100	85.071	141.825	233.434	0.00039631	0.00039496	0.00012634	1344.5	1.4963e-06	6.396e-06	1346.8	367.25	3.7387e-06	3.6436e-06	422.97	140.66	122.26	41.771	2.7559e-06	51.594	9.5986e-05	9.22e-05	2.5934e-05	1134.1	1.025e-06	1.0167e-06	1285.4	346.53	1.0372e-06	1.0207e-06	381.96	129.37	110.92	38.452	1.0356e-06	46.785	-27.397	-3.390	-23.742	-59.381	69.364	37.369	-59.275	-54.501	32.111	130.309	-55.383	-50.657	-50.091	-45.698	88.328	-46.371	-8191	255	
365.586	1	1	0	0	0.12526	0.14751	0.08983	0.067108	0.14281	0.17051	0.086232	0.20271	0.079721	0.26592	0.28447	0.036199	0.10746	0.31065	0.3136	0.2293	-2.0771	-2.8625	-2.525	-2.7479	-2.6833	-2.4917	-2.9167	-2.6979	-2.6813	-2.9042	-2.6396	-2.7042	-2.9083	-2.6042	-2.5687	-2.8812	276.536	-10.645	236.098	116.874	6.946	107.991	130.353	278.108	253.495	268.392	283.462	-46.336	206.675	261.331	1.092	-69.934	0.00030315	0.00038815	4.7308e-05	1339.5	2.8368e-06	2.1216e-06	1346.9	366.7	1.2994e-06	3.1966e-06	423.81	140.71	122.69	41.707	4.4633e-06	51.62	9.7593e-05	9.4103e-05	2.6075e-05	1136.1	1.0323e-06	1.0197e-06	1285.7	346.66	1.0342e-06	9.9914e-07	382.32	129.27	110.86	38.373	1.0197e-06	46.764	-59.593	10.835	-19.299	-59.421	89.893	52.794	-59.149	-54.727	-65.739	47.882	-55.185	-50.709	-50.073	-45.716	83.944	-46.565	-8191	255	
365.682	1	1	0	0	0.038026	0.14814	0.15414	0.37416	0.18585	0.062441	0.23915	0.12651	0.057903	0.165	0.10616	0.23021	0.12592	0.33513	0.29241	0.18182	-1.9813	-2.7667	-2.7125	-2.5646	-2.7958	-2.6458	-2.8208	-2.975	-2.5083	-2.7229	-2.6792	-2.7646	-2.8542	-2.7146	-2.4708	-2.8458	-62.402	231.940	45.261	223.958	68.617	3.425	213.154	270.719	-60.532	176.667	249.203	220.913	88.910	242.532	-16.860	-40.744	0.00027085	0.00013332	0.00014221	1333.5	3.3777e-06	2.4471e-06	1348.9	367.47	3.1684e-06	3.8126e-06	422.94	141.16	122.64	41.735	2.3623e-06	51.847	9.6822e-05	9.1707e-05	2.565e-05	1132.8	1.0087e-06	1.0062e-06	1286.3	346.71	1.0284e-06	1.0068e-06	381.41	129.47	110.77	38.465	1.0168e-06	46.855	-30.145	6.677	-35.291	-59.377	52.621	44.735	-59.393	-54.673	-34.387	85.132	-55.080	-50.460	-50.215	-45.520	-26.710	-46.427	-8191	255	
365.778	1	1	0	0	0.15929	0.064408	0.087065	0.41974	0.06604	0.20431	0.30122	0.26775	0.067166	0.17392	0.21206	0.17902	0.036837	0.40965	0.098372	0.22365	-2.1292	-2.8354	-2.7417	-2.675	-2.8208	-2.4458	-2.7812	-3.0563	-2.6417	-2.7979	-2.8438	-2.6021	-2.9583	-2.3458	-2.8458	-2.8979	75.994	192.415	206.140	225.184	-1.509	85.830	200.680	-69.482	255.557	220.713	49.134	217.704	67.941	276.471	254.767	147.940	0.0003479	0.00033694	9.63e-05	1342.9	2.9257e-06	4.1957e-06	1348.3	367.76	3.7242e-06	1.7357e-06	422.14	140.86	122.44	41.724	6.969e-07	51.819	9.6475e-05	9.215e-05	2.5744e-05	1134.3	1.0087e-06	1.0028e-06	1285.7	346.69	1.026e-06	1.0016e-06	381.69	129.27	110.76	38.402	1.0309e-06	46.817	-44.015	-36.046	-19.852	-59.450	46.964	-11.471	-59.259	-54.737	60.494	54.961	-55.082	-50.480	-50.317	-45.601	50.396	-46.485	-8191	255	
365.899	1	1	0	0	0.1236	0.027854	0.089469	0.032894	0.24903	0.24221	0.23794	0.2004	0.027231	0.09047	0.20213	0.23635	0.18539	0.12057	0.19839	0.25466	-2.075	-2.7583	-2.7313	-2.5167	-2.775	-2.7062	-2.8396	-3.0104	-2.7562	-2.6708	-2.7917	-2.35	-2.8125	-2.9021	-2.6646	-2.8354	230.698	237.929	-53.307	-61.722	37.098	-28.858	197.798	165.853	4.897	57.494	-66.801	-50.077	261.589	243.453	277.759	206.436	0.00044317	0.00034725	6.4036e-05	1338.2	2.2663e-06	2.0079e-06	1352.2	369.51	3.4574e-06	2.8796e-06	422.93	140.65	122.02	41.848	1.1152e-06	51.587	9.7702e-05	9.3064e-05	2.5939e-05	1136.7	1.0075e-06	1.0079e-06	1286.7	347.14	1.0298e-06	1.012e-06	381.72	129.31	110.71	38.445	1.0226e-06	46.725	-24.364	42.690	49.784	-59.522	43.686	83.581	-59.298	-54.717	68.438	22.435	-55.209	-50.865	-50.052	-45.711	62.541	-46.299	-8191	255	
365.995	1	1	0	0	0.21855	0.19037	0.053265	0.34851	0.034611	0.078613	0.21599	0.25879	0.1836	0.19244	0.14211	0.061968	0.11811	0.2697	0.125	0.010357	-2.0312	-2.4813	-2.7208	-2.4375	-2.6792	-2.5896	-2.6437	-2.9354	-2.6125	-2.6646	-3.1083	-2.7271	-2.7521	-2.7729	-2.6271	-2.7875	-42.061	184.659	265.699	138.242	187.886	249.988	263.128	286.757	232.101	66.106	276.450	104.751	-21.623	-19.762	128.538	238.888	0.00029833	0.00025115	3.7493e-05	1336.3	5.8225e-06	3.0422e-06	1350.8	366.49	3.9039e-06	1.4645e-06	423.19	140.74	122.43	41.605	3.4658e-06	51.722	9.6556e-05	9.3186e-05	2.5664e-05	1135.4	1.0117e-06	1.0057e-06	1288	346.54	1.0128e-06	1.0033e-06	381.95	129.26	110.62	38.374	1.0093e-06	46.717	-56.568	-36.513	-42.646	-59.292	83.715	-1.673	-59.341	-54.599	-34.868	93.031	-55.277	-50.691	-50.225	-45.672	-25.554	-46.812	-8191	255	
366.089	1	1	0	0	0.2014	0.15119	0.092284	0.12818	0.067117	0.10555	0.26876	0.10403	0.18938	0.18649	0.20619	0.237	0.18013	0.22331	0.10398	0.106	-2.1063	-2.7271	-2.9062	-2.5438	-2.7687	-2.8417	-2.7729	-3.1333	-2.8146	-2.7667	-2.9417	-2.575	-2.6833	-2.9229	-2.6063	-2.8958	120.725	62.791	141.338	240.037	-39.509	-16.459	195.127	140.506	267.924	77.804	212.269	210.392	-37.270	187.975	55.818	-19.952	0.00039974	0.00011022	0.00016668	1333.2	1.8161e-06	5.0874e-06	1345.6	367.24	1.0649e-06	2.8847e-06	423.48	140.46	121.94	41.722	1.7159e-06	51.713	9.6545e-05	9.2826e-05	2.5692e-05	1131.8	1.0067e-06	1.0204e-06	1285.3	346.4	1.0253e-06	1.0123e-06	382.1	129.2	110.66	38.394	1.0186e-06	46.793	-30.233	-22.942	13.017	-59.295	126.980	44.875	-59.152	-54.615	-10.736	101.145	-55.208	-50.732	-50.006	-45.886	-13.495	-46.254	-8191	255	
366.186	1	1	0	0	0.017153	0.094957	0.081226	0.14691	0.066248	0.29388	0.26487	0.33196	0.30824	0.22994	0.1285	0.18267	0.12778	0.22101	0.021748	0.058412	-2.1833	-2.5396	-2.8229	-2.8146	-2.5583	-2.775	-2.6521	-2.9729	-2.6063	-2.6063	-2.9313	-2.7958	-2.7625	-2.9021	-2.4688	-2.9062	-8.965	233.042	18.509	102.334	24.636	191.555	217.890	227.376	240.150	75.232	-52.968	218.211	283.697	282.760	30.275	223.793	0.00039238	0.0005583	0.00013684	1340.7	4.4082e-06	8.4042e-07	1349.7	368.83	3.3113e-06	2.6334e-06	423.49	140.59	122.21	41.612	2.1742e-06	51.474	9.8438e-05	9.4595e-05	2.6107e-05	1133.3	1.0347e-06	1.0322e-06	1286.2	346.93	1.0464e-06	1.0351e-06	382.15	129.27	110.78	38.388	1.0413e-06	46.743	-50.475	-25.864	-7.284	-59.161	43.467	72.324	-59.314	-54.513	54.690	58.373	-55.237	-50.743	-50.306	-45.606	81.588	-46.347	-8191	255	
366.282	1	1	0	0	0.085074	0.18508	0.20462	0.26993	0.13943	0.17006	0.34654	0.36699	0.16476	0.27804	0.20819	0.17785	0.1391	0.10594	0.17867	0.14065	-2.2938	-2.6458	-2.8688	-2.7229	-2.6229	-2.6917	-2.7792	-2.8896	-2.6146	-2.6604	-3.0167	-2.9083	-2.7146	-3.0438	-2.5646	-2.7958	81.384	123.838	10.348	-41.319	36.978	280.822	153.987	245.712	59.058	261.029	231.975	273.982	-26.090	-0.548	-68.285	100.045	0.00043271	0.0002791	5.771e-05	1332	2.7537e-06	8.8305e-07	1348.9	367.37	3.7373e-06	2.2699e-06	423.58	140.17	122.28	41.669	4.358e-06	51.504	9.8533e-05	9.6114e-05	2.609e-05	1134.6	1.0423e-06	1.0393e-06	1286.5	347.02	1.0574e-06	1.0454e-06	381.85	129.2	110.84	38.418	1.0466e-06	46.804	-44.830	18.244	-49.791	-59.375	3.833	266.430	-59.277	-54.434	-20.171	22.758	-55.143	-50.728	-50.064	-45.565	50.949	-46.362	-8191	255	
366.378	1	1	0	0	0.17227	0.20436	0.14629	0.19141	0.37256	0.10631	0.31138	0.29033	0.17354	0.23759	0.064043	0.091666	0.24085	0.38318	0.085016	0.35239	-2.2604	-2.5729	-2.8667	-2.8042	-2.7667	-2.8771	-2.6083	-2.9771	-2.8146	-2.6854	-2.8208	-2.8646	-2.575	-3.0146	-2.6458	-2.8688	162.419	59.469	18.298	274.974	210.135	87.292	164.826	221.236	49.492	-44.448	-69.956	78.891	264.747	225.798	282.808	181.331	0.00036927	0.00019999	4.2575e-05	1342.4	3.1544e-06	4.5278e-06	1348.2	366.18	1.0035e-06	2.2563e-06	422.59	140.56	122.3	41.636	2.4281e-06	51.731	0.0001	9.6201e-05	2.6521e-05	1136.7	1.0587e-06	1.0454e-06	1287.2	346.43	1.0636e-06	1.0505e-06	381.39	129.28	110.89	38.424	1.052e-06	46.813	-49.705	-18.597	-0.387	-59.276	55.436	85.182	-59.228	-54.717	-30.351	92.313	-54.986	-50.704	-50.188	-45.742	56.470	-46.737	-8191	255	
366.474	1	1	0	0	0.23256	0.19523	0.071389	0.14213	0.22103	0.16923	0.11892	0.1416	0.053822	0.15803	0.17899	0.10931	0.029186	0.12695	0.13522	0.21631	-2.2979	-2.4229	-2.8063	-2.9375	-2.6312	-2.8688	-2.8312	-2.8396	-2.825	-2.6375	-3.0667	-2.8604	-2.4521	-2.7979	-2.6437	-2.8104	214.728	-23.927	255.763	244.342	280.751	268.757	220.097	234.050	-5.205	262.903	179.294	233.729	272.037	278.073	180.398	203.674	0.00030111	0.00013715	0.00014513	1331.3	2.9147e-06	1.769e-06	1350.1	367.16	2.4819e-06	3.3954e-06	422.51	140.81	122.35	41.788	2.4925e-06	51.438	0.00010094	9.6771e-05	2.6706e-05	1135.6	1.0555e-06	1.0569e-06	1288.5	347.05	1.0694e-06	1.0466e-06	382.25	129.33	110.93	38.455	1.0609e-06	46.816	-48.494	-60.528	-28.139	-59.342	78.857	9.211	-59.273	-54.526	-8.842	52.005	-55.231	-50.849	-50.010	-45.692	55.974	-46.561	-8191	255	
366.570	1	1	0	0	0.062827	0.32173	0.095716	0.16327	0.14525	0.33741	0.23488	0.31251	0.37493	0.13548	0.093825	0.090592	0.15403	0.18849	0.15754	0.21794	-2.5042	-2.4146	-2.7583	-2.6667	-2.6104	-3.0083	-2.7875	-2.7521	-3.0417	-2.4917	-2.9396	-2.8625	-2.6271	-2.8896	-2.5396	-2.5625	261.675	-64.517	184.512	-34.766	-55.571	8.637	197.625	258.146	111.715	281.567	-43.421	11.717	-36.098	262.624	284.555	-47.612	0.0004731	0.00037499	6.5729e-05	1333.8	3.0503e-06	6.0817e-06	1348.9	367.64	3.7624e-06	3.4814e-06	423.09	141.29	122.37	41.768	3.5976e-06	51.718	0.00010136	9.6875e-05	2.6945e-05	1135.3	1.0768e-06	1.0648e-06	1288.4	346.9	1.0736e-06	1.0573e-06	382	129.74	110.94	38.493	1.0717e-06	46.802	-19.955	-26.198	-26.324	-59.523	50.261	78.649	-59.292	-54.633	45.028	25.109	-55.152	-50.803	-50.155	-45.823	57.802	-46.516	-8191	255	
366.691	1	1	0	0	0.02866	0.25613	0.17308	0.21666	0.13931	0.10265	0.1354	0.14608	0.24804	0.2012	0.31166	0.34699	0.096699	0.31595	0.16551	0.056177	-2.5083	-2.5917	-2.6708	-2.9188	-2.6646	-2.8167	-2.7583	-2.5917	-2.7729	-2.6562	-2.8	-2.8729	-2.7083	-2.8937	-2.8167	-2.7417	-16.316	39.759	138.523	15.222	78.985	51.212	265.281	163.555	27.472	207.699	203.618	207.758	209.222	228.510	213.916	1.800	0.00038644	0.0003093	5.4627e-05	1339.2	4.7451e-06	5.1739e-06	1350.3	368.12	3.3824e-06	1.0528e-06	423.44	140.46	122.43	41.542	6.5174e-06	51.748	0.00010276	9.8477e-05	2.7576e-05	1138.4	1.0738e-06	1.0665e-06	1288.1	347.02	1.0817e-06	1.0649e-06	382.06	129.25	110.91	38.441	1.066e-06	46.819	-37.645	-14.330	21.043	-59.286	137.454	28.017	-59.297	-54.569	-22.626	18.864	-55.256	-50.746	-50.185	-45.601	63.634	-46.606	-8191	255	
366.787	1	1	0	0	0.067473	0.1182	0.13758	0.35866	0.23579	0.094997	0.13901	0.23232	0.23291	0.14741	0.061077	0.020952	0.31892	0.1082	0.13869	0.10552	-2.2917	-2.6792	-2.625	-2.7021	-2.5062	-2.8375	-2.8063	-2.6937	-2.7208	-2.525	-2.5062	-2.7854	-2.7167	-2.8646	-2.5708	-2.5187	13.400	68.307	50.712	58.237	11.385	215.863	-17.931	257.893	205.018	38.381	48.598	99.503	287.226	260.540	15.915	261.368	0.00034203	0.00035109	6.6646e-05	1336	3.6948e-07	1.8376e-06	1349.5	367.19	2.2283e-06	3.8033e-06	423.53	140.58	122.16	41.656	3.0195e-06	51.623	0.00010035	9.5767e-05	2.6873e-05	1137.5	1.0594e-06	1.0496e-06	1288.1	346.95	1.0691e-06	1.07e-06	382.74	129.43	110.86	38.402	1.0938e-06	46.814	-34.530	22.674	8.566	-59.274	189.732	95.597	-59.447	-54.602	51.272	85.029	-55.239	-50.746	-50.042	-45.317	8.800	-46.650	-8191	255	
366.859	1	1	0	0	0.13352	0.14805	0.16175	0.15314	0.08312	0.12335	0.21999	0.055304	0.14586	0.12625	0.13274	0.27515	0.22763	0.11457	0.29647	0.21777	-2.5729	-2.4708	-2.3583	-2.8125	-2.5333	-2.8479	-2.9646	-2.6646	-2.9042	-2.7375	-2.7562	-2.9333	-2.6625	-2.7667	-2.7333	-2.6958	189.201	251.624	206.558	252.381	89.542	224.676	270.051	279.868	269.606	151.278	-52.177	282.737	-55.375	-13.479	140.344	-44.358	0.00032933	0.0002977	2.6246e-05	1336.4	3.1513e-06	4.1756e-06	1347.2	367.53	1.6991e-06	2.74e-06	423.64	141.33	122.11	41.514	3.1184e-06	51.829	0.00010373	9.933e-05	2.7512e-05	1140.5	1.0888e-06	1.0796e-06	1288.8	346.84	1.091e-06	1.0688e-06	382.87	129.74	110.86	38.395	1.087e-06	46.869	-41.635	24.359	-23.780	-59.227	94.355	53.666	-59.361	-54.605	42.058	-22.977	-55.256	-50.734	-50.145	-45.632	82.225	-46.722	-8191	255	
366.979	1	1	0	0	0.12094	0.056637	0.15059	0.29935	0.025921	0.22741	0.41305	0.35289	0.039099	0.14603	0.11231	0.21567	0.034928	0.19067	0.30026	0.50446	-2.175	-2.6958	-2.3729	-2.6521	-2.4604	-2.6646	-3.0875	-2.5125	-2.7188	-2.7021	-2.5979	-2.8854	-2.625	-2.6208	-2.8646	-2.6583	224.082	265.774	57.347	215.790	-62.566	4.915	237.063	239.364	261.993	216.900	278.745	240.682	-31.877	256.282	121.824	193.490	0.00030256	0.00050312	8.0458e-05	1335.4	4.3967e-06	5.9027e-06	1347.3	367.29	2.7778e-06	2.269e-06	424.3	140.04	121.81	41.666	3.0207e-06	51.724	0.00010172	9.8225e-05	2.75e-05	1138.7	1.0696e-06	1.0812e-06	1287.6	347.13	1.0943e-06	1.0884e-06	382.43	129.4	110.88	38.474	1.0851e-06	46.807	-38.786	4.458	-1.598	-59.357	58.291	25.293	-59.245	-54.548	36.555	98.815	-55.113	-50.557	-50.123	-45.580	16.385	-46.725	-8191	255	
367.075	1	1	0	0	0.22171	0.08641	0.080329	0.069898	0.11958	0.1388	0.4142	0.18634	0.072815	0.12921	0.35542	0.49018	0.38193	0.20996	0.12044	0.27025	-2.1417	-2.6333	-2.6042	-2.8417	-2.4521	-2.5271	-3.0292	-2.6583	-2.6937	-2.5917	-2.5729	-2.9875	-2.6937	-2.6208	-2.7875	-2.475	-21.375	11.820	64.296	19.088	62.062	98.886	243.195	175.171	76.275	245.529	232.845	235.531	-55.203	130.631	261.025	186.773	0.00029085	0.00028611	8.0498e-05	1336.2	1.9926e-06	5.5082e-06	1346	366.15	3.6411e-06	3.3353e-06	423.91	140.48	121.64	41.635	4.9714e-06	51.441	0.00010277	9.9188e-05	2.7561e-05	1138.7	1.0816e-06	1.0901e-06	1287.6	346.62	1.0905e-06	1.0732e-06	383	129.41	110.83	38.396	1.0841e-06	46.737	-44.252	26.453	0.684	-59.487	71.220	31.366	-59.271	-54.547	35.266	80.852	-55.165	-50.621	-50.164	-45.705	100.866	-46.895	-8191	255	
367.170	1	1	0	0	0.24696	0.2789	0.095086	0.029594	0.15926	0.25143	0.17621	0.1824	0.15124	0.045602	0.11969	0.22902	0.13014	0.26139	0.047482	0.10994	-2.0792	-2.7042	-2.4062	-2.9708	-2.55	-2.5375	-2.8833	-2.6312	-2.5521	-2.5083	-2.5104	-2.9813	-2.7417	-2.6833	-2.6854	-2.625	243.124	74.096	231.642	68.342	279.793	142.345	-25.382	182.476	195.877	118.434	70.047	258.072	98.576	234.583	44.581	209.819	0.00036846	0.00025178	4.6264e-05	1339.9	4.5264e-06	3.1523e-06	1347.8	367.91	2.7067e-06	4.0712e-06	421.39	140	122.11	41.678	8.7243e-07	51.479	0.00010283	9.8563e-05	2.7317e-05	1139	1.0832e-06	1.0833e-06	1287.3	346.88	1.0987e-06	1.062e-06	382.22	129.17	110.67	38.449	1.0768e-06	46.685	-33.628	47.304	19.910	-59.131	126.265	7.179	-59.427	-54.547	73.831	72.188	-55.172	-50.634	-50.012	-45.475	-1.244	-46.476	-8191	255	
367.268	1	1	0	0	0.16534	0.10517	0.10945	0.07804	0.034669	0.24469	0.27353	0.34718	0.18726	0.19644	0.2669	0.35995	0.14853	0.16675	0.12589	0.26926	-2.1271	-2.8333	-2.4437	-2.5417	-2.6604	-2.4896	-2.8063	-2.5771	-2.5438	-2.7542	-2.6542	-2.7875	-2.85	-2.4625	-2.7167	-2.8438	-60.949	247.850	-43.248	78.449	5.395	231.244	177.586	250.106	-40.996	-9.981	170.417	268.144	247.802	-67.165	25.559	178.471	0.00040696	0.00020275	8.4475e-05	1340.9	3.4861e-06	2.5702e-06	1347.6	368.24	2.8701e-06	1.7332e-06	423.63	140.6	122.24	41.649	1.5739e-06	51.71	0.00010332	9.8546e-05	2.7715e-05	1138.9	1.0861e-06	1.0783e-06	1288.3	347.36	1.092e-06	1.0911e-06	382.83	129.39	110.96	38.466	1.0769e-06	46.868	-30.501	-33.445	-28.368	-59.512	45.845	60.763	-59.457	-54.517	32.389	175.778	-55.289	-50.678	-50.099	-45.485	153.363	-46.637	-8191	255	
367.387	1	1	0	0	0.27305	0.069312	0.22685	0.23092	0.18971	0.16528	0.015037	0.44176	0.14372	0.085016	0.19369	0.23575	0.17765	0.22661	0.11699	0.21036	-2.1021	-2.7687	-2.3042	-2.6229	-2.8375	-2.4396	-2.9292	-2.5458	-2.5958	-2.8125	-2.4875	-2.7646	-2.6708	-2.575	-2.8292	-2.6063	-13.881	278.859	100.213	250.029	265.270	287.130	21.293	261.349	-27.286	73.681	236.547	-43.138	228.965	-71.729	52.047	-59.582	0.00040667	0.00021006	6.6147e-05	1338	4.1925e-06	5.9347e-06	1344.4	367.99	1.0944e-06	1.2084e-06	423	140.52	122.41	41.514	2.0599e-06	51.801	0.00010284	9.7658e-05	2.7353e-05	1135.7	1.069e-06	1.0727e-06	1286.8	346.73	1.0839e-06	1.066e-06	382.32	129.33	110.82	38.375	1.0734e-06	46.769	-33.651	-15.270	-15.446	-59.457	96.330	-22.106	-59.125	-54.610	216.923	71.921	-55.310	-50.787	-49.976	-45.505	80.334	-46.385	-8191	255	
367.483	1	1	0	0	0.3669	0.079701	0.12599	0.12088	0.1318	0.21889	0.079014	0.13904	0.16051	0.039089	0.23678	0.38508	0.31605	0.21903	0.076954	0.21711	-1.9854	-2.7917	-2.4917	-2.6375	-2.8604	-2.4833	-2.7375	-2.7875	-2.5583	-2.8396	-2.8729	-2.5333	-2.8333	-2.525	-2.7646	-2.9562	39.386	252.628	152.631	184.021	232.043	274.839	149.721	234.276	35.308	-35.798	275.473	256.458	-58.981	-65.669	14.280	-50.033	0.00050095	0.00017301	6.5844e-05	1335.9	2.8026e-06	1.5915e-06	1349	367.48	2.6928e-06	5.3735e-06	423.58	140.46	122.3	41.656	6.8866e-06	51.641	0.00010186	9.788e-05	2.7106e-05	1136.7	1.0786e-06	1.0707e-06	1288.5	347.08	1.0972e-06	1.0703e-06	382.61	129.51	110.88	38.434	1.0758e-06	46.79	-24.426	123.443	-70.880	-59.674	91.388	5.551	-59.325	-54.580	101.165	13.679	-55.388	-50.667	-50.035	-45.689	58.251	-46.584	-8191	255	
367.554	1	1	0	0	0.073675	0.17454	0.099023	0.099269	0.1888	0.19152	0.075744	0.074647	0.21087	0.16976	0.13358	0.18576	0.11724	0.21053	0.07664	0.1534	-2.0771	-2.8312	-2.5896	-2.4083	-2.9771	-2.8292	-2.8688	-2.7438	-2.5146	-2.5812	-2.5958	-2.6104	-2.8312	-2.6042	-2.6792	-2.825	106.865	-62.568	262.628	175.488	200.968	222.393	215.545	257.240	64.885	138.804	10.509	229.283	-18.930	213.501	131.722	162.476	0.00041452	0.00033366	8.3473e-05	1342.9	5.1668e-06	3.2543e-06	1352	367.16	2.5509e-06	3.11e-06	422.13	140.99	121.84	41.6	2.995e-06	51.58	0.00010368	9.916e-05	2.7672e-05	1139.7	1.0836e-06	1.0911e-06	1288.1	346.87	1.098e-06	1.079e-06	382.19	129.47	110.86	38.43	1.0905e-06	46.745	-50.192	-3.144	-26.136	-59.615	30.043	93.303	-59.271	-54.559	45.975	-20.250	-55.222	-50.575	-49.957	-45.591	16.224	-46.483	-8191	255	
367.675	1	1	0	0	0.28927	0.11347	0.23448	0.022791	0.15361	0.18843	0.15885	0.18695	0.3143	0.090776	0.23865	0.16464	0.2194	0.040154	0.32479	0.22117	-2.1083	-2.7896	-2.6292	-2.5875	-2.8854	-2.5417	-2.9625	-3.0146	-2.3688	-2.7729	-2.8104	-2.6042	-2.8646	-2.6979	-2.45	-2.8563	113.497	27.349	124.649	228.623	200.887	67.364	253.833	158.145	64.149	266.464	188.794	275.498	-13.448	162.499	-60.783	239.669	0.00037239	0.00027281	7.1443e-05	1345.9	2.709e-06	4.0516e-06	1352.6	368.48	1.9411e-06	2.9684e-06	422.82	140.85	121.64	41.716	4.5299e-06	51.836	0.00010482	0.00010002	2.7746e-05	1141.1	1.0985e-06	1.0965e-06	1289.1	347.44	1.1051e-06	1.0791e-06	382.53	129.48	110.78	38.469	1.091e-06	46.836	-46.011	9.368	-14.099	-59.279	96.840	16.287	-59.223	-54.673	-43.834	-0.376	-55.133	-50.540	-50.080	-45.719	18.883	-46.523	-8191	255	
367.771	1	1	0	0	0.12622	0.21341	0.1143	0.095291	0.097934	0.081513	0.14334	0.060575	0.18676	0.15431	0.069856	0.13004	0.12137	0.13097	0.34086	0.33366	-1.8312	-2.8521	-2.6292	-2.4458	-2.5729	-2.6458	-2.7979	-2.9062	-2.5333	-2.7354	-2.725	-2.5771	-2.8604	-2.6646	-2.5104	-2.9979	-1.862	23.358	204.134	280.236	220.706	-39.692	188.469	133.987	231.983	262.770	222.898	213.256	272.454	151.712	167.134	253.602	0.00038266	6.9694e-05	5.2599e-05	1336.3	1.8436e-06	2.6564e-06	1349	367.6	3.004e-06	2.3891e-06	422.01	141.29	121.82	41.871	1.5052e-06	51.407	0.00010327	9.9731e-05	2.7377e-05	1140	1.0727e-06	1.0775e-06	1289.2	347.2	1.0893e-06	1.0805e-06	382.73	129.61	110.97	38.506	1.0972e-06	46.759	-29.784	206.051	272.105	-59.184	19.171	43.970	-59.152	-54.622	73.361	-7.812	-55.265	-50.747	-49.914	-45.925	2.428	-46.478	-8191	255	
367.867	1	1	0	0	0.173	0.2189	0.073559	0.22308	0.21572	0.087801	0.27704	0.20181	0.10213	0.21053	0.25463	0.031736	0.37336	0.18638	0.11295	0.14704	-2.0187	-2.6333	-2.7333	-2.3625	-2.6583	-2.5792	-2.7625	-2.9813	-2.5479	-2.7125	-2.7667	-2.5396	-2.8979	-2.7458	-2.7229	-2.8896	83.356	-67.963	187.762	-15.396	-28.944	148.875	282.518	205.401	-60.304	160.877	219.556	-38.301	249.650	279.528	-56.717	-4.934	0.00043805	7.8214e-05	8.1885e-05	1342.4	2.4231e-06	1.5836e-06	1345.5	367.27	5.5818e-06	3.1048e-06	423.71	140.58	122.03	41.757	4.5532e-06	52.045	0.00010394	9.9659e-05	2.7974e-05	1140.9	1.0822e-06	1.0796e-06	1288.7	347.27	1.086e-06	1.0668e-06	382.95	129.52	111.06	38.517	1.0872e-06	46.876	-30.049	7.393	18.685	-59.240	71.948	-35.008	-59.261	-54.411	-30.129	101.594	-55.240	-50.828	-49.886	-45.595	15.198	-46.364	-8191	255	
367.963	1	1	0	0	0.111	0.18435	0.3234	0.16184	0.35371	0.32541	0.040298	0.10133	0.22273	0.074058	0.20552	0.047838	0.25053	0.20618	0.10132	0.1597	-2.0625	-2.5417	-2.7521	-2.4542	-2.6646	-2.5563	-2.7396	-2.8563	-2.5917	-2.75	-2.8438	-2.6937	-2.7396	-2.85	-2.5125	-2.8542	68.457	53.527	150.257	-17.522	276.604	155.011	211.128	-70.864	124.664	-43.753	-62.290	184.053	60.983	233.965	56.869	277.631	0.00046542	0.00034342	9.7172e-05	1337.3	4.4649e-06	9.8964e-07	1349.8	368.44	2.5216e-06	1.8508e-06	421.84	141.4	122.63	41.776	4.8861e-06	51.544	0.00010172	9.9093e-05	2.7488e-05	1137.5	1.0674e-06	1.0723e-06	1289.9	347.39	1.0794e-06	1.069e-06	382.08	129.63	111.18	38.468	1.0715e-06	46.798	-30.994	62.167	-3.594	-59.687	75.547	209.561	-59.219	-54.690	60.275	181.124	-55.121	-50.790	-50.035	-45.770	87.642	-46.592	-8191	255	
368.082	1	1	0	0	0.092357	0.29964	0.11179	0.14015	0.043824	0.020555	0.048737	0.039447	0.11148	0.29449	0.027533	0.1591	0.11228	0.16074	0.21499	0.091788	-2.0875	-2.6917	-2.8187	-2.5271	-2.8229	-2.6021	-2.7188	-2.9292	-2.4688	-2.4229	-2.8063	-2.4271	-2.8	-2.8354	-2.6188	-2.9729	271.247	-55.576	-31.493	262.951	-21.160	247.299	-25.343	32.690	198.759	7.443	283.271	81.542	-61.903	228.025	174.777	37.686	0.00052321	0.00038507	9.9315e-05	1341.4	1.2402e-06	2.2986e-06	1352.2	367.82	6.615e-07	2.3974e-06	422.79	140.98	122.06	41.674	9.3017e-07	51.684	0.00010207	9.8367e-05	2.7427e-05	1140.2	1.0716e-06	1.087e-06	1290.1	347.41	1.0749e-06	1.0723e-06	382.68	129.6	110.94	38.528	1.0798e-06	46.82	-19.880	28.941	-52.022	-59.169	86.761	-0.941	-59.357	-54.628	26.978	46.094	-55.231	-50.739	-50.202	-45.661	-36.534	-46.465	-8191	255	
368.156	1	1	0	0	0.13136	0.18311	0.17064	0.17613	0.1566	0.2175	0.14388	0.13615	0.19094	0.21852	0.16394	0.32144	0.20593	0.072312	0.39271	0.23007	-2.0146	-2.4208	-2.7854	-2.5042	-2.5312	-2.7021	-2.7604	-3.0208	-2.6479	-2.5479	-2.8333	-2.6167	-2.7583	-2.9062	-2.7354	-2.95	-56.073	-15.754	128.635	-60.045	172.470	-67.824	203.993	249.788	53.737	148.667	232.398	101.544	186.778	281.753	-12.766	256.501	0.00030389	9.1272e-05	9.6189e-05	1344.9	2.6595e-06	3.5417e-06	1350.9	369.26	2.245e-06	1.9448e-06	424.04	141.3	122.49	41.798	3.4296e-06	51.522	0.00010246	9.7586e-05	2.7267e-05	1140.8	1.0687e-06	1.0765e-06	1290.9	348.26	1.0723e-06	1.0515e-06	382.78	129.78	111.1	38.493	1.0589e-06	46.792	-40.362	233.523	-17.776	-59.495	55.597	29.668	-59.295	-54.750	50.325	38.252	-55.298	-50.572	-50.049	-45.548	13.563	-46.549	-8191	255	
368.252	1	1	0	0	0.08514	0.14535	0.30253	0.064902	0.18526	0.074556	0.025688	0.20733	0.12147	0.057733	0.17664	0.24828	0.13177	0.20644	0.2858	0.13164	-2.1625	-2.5042	-2.9813	-2.5125	-2.6208	-2.7438	-2.7	-2.8479	-2.7771	-2.375	-2.7771	-2.6521	-2.6458	-2.9813	-2.4917	-2.9188	119.709	191.437	135.013	52.961	42.989	211.326	8.231	270.361	-39.935	-10.265	248.858	-47.329	267.064	260.684	139.756	70.596	0.00047883	0.00012062	6.7794e-05	1341	3.2691e-06	5.6355e-06	1354.2	369.09	2.4244e-06	3.0084e-06	424.21	141.18	122.75	41.991	4.343e-06	51.965	0.00010065	9.7269e-05	2.6919e-05	1139.9	1.0725e-06	1.0663e-06	1292.7	348.14	1.0767e-06	1.0676e-06	383.13	129.87	111.17	38.589	1.0641e-06	46.933	-34.394	59.332	-61.246	-59.094	-6.995	76.377	-59.373	-54.409	24.013	83.322	-55.153	-50.600	-50.055	-45.729	107.253	-46.521	-8191	255	
368.348	1	1	0	0	0.19588	0.26828	0.066283	0.097032	0.092021	0.10486	0.12867	0.20814	0.11135	0.219	0.24385	0.17893	0.22492	0.1642	0.12104	0.14846	-2.2792	-2.5604	-2.8104	-2.6542	-2.5229	-2.5979	-2.6979	-2.8646	-2.9	-2.5	-2.7833	-2.7562	-2.6917	-2.7396	-2.5729	-2.7375	-70.376	125.287	40.429	275.125	261.169	261.203	211.886	-10.875	69.901	169.763	-43.560	-11.971	180.479	208.589	269.952	-60.671	0.00042761	0.00048034	0.00016009	1335	4.6437e-06	3.7662e-06	1349.5	369.39	3.9431e-06	4.4096e-06	424.62	140.71	122.66	41.849	3.3552e-06	51.733	0.00010199	9.8032e-05	2.7111e-05	1140	1.0671e-06	1.0709e-06	1291.2	348.23	1.0853e-06	1.0698e-06	383.73	129.67	111.32	38.567	1.0581e-06	46.865	-39.503	-6.638	-9.362	-59.221	-8.343	51.180	-59.382	-54.582	32.103	25.605	-55.228	-50.751	-50.109	-45.645	42.154	-46.354	-8191	255	
368.467	1	1	0	0	0.065447	0.31763	0.14476	0.10305	0.02029	0.1107	0.3181	0.27894	0.17532	0.12931	0.12672	0.14124	0.14107	0.32667	0.1461	0.045903	-2.3167	-2.6708	-2.6354	-2.8604	-2.5771	-2.8917	-2.6146	-2.5917	-2.7	-2.4646	-2.825	-2.725	-2.7208	-2.8729	-2.6521	-2.4229	264.694	222.101	-12.560	217.637	88.986	61.662	250.726	216.984	-7.783	115.915	-18.674	-59.330	211.449	280.737	26.270	200.588	0.00044741	0.00020049	0.00010372	1338.9	3.8374e-06	1.4125e-06	1352.8	369.51	4.1424e-06	3.3393e-06	423.05	141.32	122.83	41.99	2.6829e-06	51.726	0.00010122	9.7092e-05	2.6975e-05	1142.2	1.0616e-06	1.0507e-06	1292.7	348.21	1.0634e-06	1.0555e-06	383.05	129.79	111.47	38.582	1.0401e-06	46.868	-40.355	-33.444	-20.119	-59.225	45.476	-13.710	-59.317	-54.589	71.221	36.856	-55.037	-50.898	-49.982	-45.693	-16.705	-46.560	-8191	255	
368.563	1	1	0	0	0.19487	0.10133	0.2008	0.14234	0.17983	0.15716	0.33061	0.16543	0.11912	0.14212	0.086581	0.19785	0.33781	0.10203	0.044276	0.26939	-2.3833	-2.4562	-2.7146	-2.6167	-2.3812	-2.7333	-2.8021	-2.6375	-2.8396	-2.5125	-2.8125	-2.8563	-2.6396	-2.8917	-2.6583	-2.6271	231.928	-4.068	112.145	168.022	-71.477	-60.282	250.370	5.315	184.148	77.505	68.287	200.584	240.258	90.493	-35.181	169.278	0.00040469	0.00020766	0.00011984	1346.1	8.587e-07	4.5811e-06	1353.9	369.62	6.0177e-06	3.927e-06	424.28	141.46	122.88	41.941	1.3823e-06	51.691	9.9261e-05	9.5779e-05	2.6303e-05	1140.1	1.0374e-06	1.041e-06	1291.2	348.16	1.0495e-06	1.0489e-06	383.31	129.76	111.35	38.595	1.0456e-06	46.861	-47.755	246.577	51.677	-59.217	105.797	40.235	-59.228	-54.467	66.307	47.498	-55.195	-50.822	-50.223	-45.704	-13.182	-46.207	-8191	255	
368.659	1	1	0	0	0.28794	0.10707	0.12487	0.071437	0.21683	0.33228	0.2013	0.21458	0.025802	0.078729	0.12255	0.20041	0.077007	0.15601	0.089189	0.088755	-2.2667	-2.3563	-2.525	-2.7646	-2.425	-2.7667	-2.7438	-2.6562	-2.7938	-2.5	-2.7687	-2.8771	-2.6354	-2.8229	-2.7521	-2.5479	-62.213	88.547	-51.542	182.211	103.276	78.723	283.382	172.852	37.002	-47.473	130.490	254.026	261.222	-72.085	126.652	46.263	0.00033462	0.00034943	7.5975e-05	1339.2	2.2251e-06	4.6875e-06	1356	369.2	1.121e-06	1.6808e-06	423.41	141.12	122.73	41.98	8.6813e-07	51.688	9.9925e-05	9.558e-05	2.6667e-05	1138.9	1.0511e-06	1.0443e-06	1293.8	347.82	1.0667e-06	1.0488e-06	383.49	130.05	111.3	38.595	1.058e-06	46.954	-36.669	25.428	-18.673	-59.406	118.545	43.069	-59.370	-54.596	176.961	75.827	-55.258	-50.572	-49.893	-45.701	122.233	-46.408	-8191	255	
368.755	1	1	0	0	0.16958	0.077936	0.16739	0.26514	0.2511	0.054609	0.26762	0.13044	0.22844	0.17449	0.31407	0.1775	0.12129	0.35482	0.1396	0.20523	-2.2958	-2.5396	-2.5208	-2.6646	-2.325	-2.7687	-2.8167	-2.5146	-2.8937	-2.5729	-2.775	-3.0979	-2.4604	-2.9458	-2.6896	-2.5958	197.278	211.483	242.830	176.901	233.920	184.001	206.120	187.600	-14.489	139.541	-37.815	195.740	175.571	251.505	256.247	162.070	0.00043387	0.00021548	9.3139e-05	1348	2.9523e-06	4.3656e-06	1354.3	369.01	3.7685e-06	2.8693e-06	423.49	141.4	122.73	41.816	2.3648e-06	51.702	0.00010165	9.8013e-05	2.712e-05	1142.3	1.0601e-06	1.0722e-06	1291.5	348.01	1.0626e-06	1.0651e-06	383.45	130.02	111.27	38.541	1.057e-06	46.904	-33.020	30.847	15.658	-59.531	117.574	24.596	-59.326	-54.618	-2.088	36.318	-55.301	-50.679	-49.973	-45.733	-8.241	-46.368	-8191	255	
368.852	1	1	0	0	0.17213	0.13894	0.23576	0.17832	0.083375	0.084786	0.14224	0.071914	0.16461	0.15046	0.33139	0.30801	0.19676	0.20722	0.10385	0.16743	-2.3937	-2.4479	-2.4042	-3.0938	-2.5667	-2.7083	-3.0917	-2.6396	-2.7146	-2.7458	-2.6208	-2.7979	-2.7271	-2.7167	-2.6292	-2.6667	61.407	3.896	-24.796	213.875	205.447	120.007	129.468	181.641	120.849	-8.417	279.510	200.492	156.563	240.622	141.568	7.075	0.00027755	0.00036406	0.00011735	1355.8	6.5346e-07	4.592e-06	1351.1	369.11	1.6541e-06	3.4385e-06	423.79	141.44	122.93	41.732	1.8788e-06	51.901	9.9796e-05	9.5157e-05	2.6754e-05	1141.8	1.0359e-06	1.0422e-06	1290.5	347.93	1.0378e-06	1.0207e-06	382.82	129.74	111.14	38.514	1.0344e-06	46.794	-47.792	-24.684	-49.219	-59.459	168.455	-0.393	-59.163	-54.470	82.515	79.799	-55.617	-50.582	-50.125	-45.624	-25.455	-46.490	-8191	255	
368.948	1	1	0	0	0.19282	0.19728	0.074563	0.31084	0.14496	0.1453	0.19962	0.31024	0.21009	0.089088	0.25887	0.1979	0.08887	0.28857	0.17643	0.093463	-2.2687	-2.7313	-2.5854	-2.8417	-2.5896	-2.675	-3.2125	-2.4521	-2.7917	-2.8604	-2.6562	-2.85	-2.6833	-2.9604	-2.9708	-2.4521	270.347	-45.720	214.618	-16.134	187.852	-71.001	145.719	-47.603	158.627	177.228	241.587	273.541	209.503	281.945	93.625	111.525	0.00042512	0.00019992	8.3696e-05	1343.6	4.0342e-06	1.2853e-06	1352.2	369.14	2.5577e-06	4.3523e-06	425.15	141.01	122.84	41.757	3.0853e-06	51.578	9.7687e-05	9.3365e-05	2.5992e-05	1139.2	1.0268e-06	1.027e-06	1290.2	348.18	1.0371e-06	1.04e-06	383.36	129.75	111.2	38.548	1.0405e-06	46.872	-53.594	-32.953	6.637	-59.380	84.196	75.166	-59.460	-54.612	79.869	32.706	-55.042	-50.673	-50.260	-45.508	87.877	-46.467	-8191	255	
369.068	1	1	0	0	0.12727	0.06747	0.056365	0.091283	0.25766	0.39896	0.21762	0.319	0.14363	0.19034	0.31697	0.12805	0.22123	0.28147	0.36057	0.2357	-2.3125	-2.8563	-2.2729	-2.9979	-2.5875	-2.5146	-3.0229	-2.6396	-2.7396	-2.8896	-2.5542	-2.9479	-2.6937	-2.4583	-2.7438	-2.6	12.353	-20.928	85.838	265.057	232.425	-31.137	212.055	250.024	53.469	263.214	-63.553	144.270	275.171	221.127	-7.311	237.640	0.00038026	0.00016931	0.00010352	1340.5	1.7919e-06	5.5373e-06	1354.9	368.31	2.9662e-06	4.4615e-06	424.2	141.15	122.94	41.677	3.1653e-06	51.636	9.8461e-05	9.6295e-05	2.6651e-05	1137.6	1.0362e-06	1.0372e-06	1292	347.92	1.0469e-06	1.0301e-06	382.88	129.71	111.31	38.502	1.0283e-06	46.787	-37.809	34.495	-26.096	-59.718	59.574	4.303	-59.355	-54.669	180.454	41.087	-55.187	-50.752	-50.212	-45.668	50.120	-46.326	-8191	255	
369.163	1	1	0	0	0.20204	0.087852	0.20456	0.21191	0.10538	0.070114	0.29367	0.22863	0.13091	0.11373	0.20389	0.26014	0.40425	0.22529	0.2424	0.088397	-2.2229	-2.5229	-2.125	-2.5312	-2.5833	-2.4625	-2.9104	-2.6646	-2.6813	-2.8208	-2.5604	-3.1396	-2.9167	-2.6458	-2.8521	-2.6375	-43.215	125.974	280.765	-58.176	214.632	223.008	260.689	238.844	-22.755	-9.998	280.033	227.067	264.567	247.052	165.036	-58.266	0.00035872	0.00023389	9.761e-05	1338.7	9.521e-07	3.5671e-06	1351	366.73	1.9017e-06	2.2459e-06	424.35	140.37	122.13	41.625	3.4918e-06	51.574	9.8133e-05	9.2638e-05	2.6063e-05	1137.8	1.0195e-06	1.0048e-06	1288	346.73	1.0139e-06	9.9411e-07	381.96	129.26	110.88	38.445	1.0051e-06	46.7	-26.672	1.761	-1.115	-59.192	42.770	43.011	-59.262	-54.556	279.478	94.714	-55.270	-50.476	-50.085	-45.576	59.023	-46.440	-8191	255	
369.261	1	1	0	0	0.16863	0.12428	0.12828	0.16426	0.087843	0.18053	0.057439	0.24484	0.13554	0.19332	0.21938	0.38054	0.35452	0.026121	0.11008	0.087311	-2.0438	-2.8312	-2.5167	-2.8917	-2.6229	-2.4813	-3.1188	-2.6667	-2.5646	-2.8708	-2.6167	-2.9021	-2.7438	-2.7854	-2.7792	-2.5667	274.375	133.818	103.644	-26.401	40.376	-30.937	-23.835	284.211	90.516	2.972	-70.266	235.791	-65.248	88.602	31.614	24.733	0.00037656	0.00013339	8.2864e-05	1340	3.076e-06	4.2812e-06	1350.7	368.04	1.98e-06	2.7267e-06	423.09	141.45	122.65	41.559	2.9542e-06	51.703	9.6857e-05	9.1697e-05	2.5738e-05	1135.9	1.0162e-06	1.0255e-06	1288.9	347.21	1.0427e-06	1.0318e-06	382.78	129.78	111.13	38.411	1.0425e-06	46.764	-43.636	21.175	-48.938	-59.290	120.572	93.729	-59.358	-54.488	29.607	51.621	-55.140	-50.469	-50.056	-45.556	-20.281	-46.608	-8191	255	
369.379	1	1	0	0	0.10631	0.071524	0.13352	0.067637	0.10341	0.34376	0.31335	0.1799	0.091233	0.20206	0.17305	0.1456	0.107	0.13638	0.056682	0.033151	-1.9792	-2.7021	-2.5542	-2.7542	-3.0583	-2.525	-2.8875	-2.7438	-2.3604	-3.1937	-2.7208	-2.6521	-2.9042	-2.575	-2.7917	-2.7771	-17.518	-37.445	175.484	235.557	284.592	96.736	157.942	209.824	144.776	-10.162	279.685	-26.907	-47.529	104.590	-37.929	-49.925	0.0003633	0.00050074	3.8428e-05	1336	3.9193e-06	1.9086e-06	1353.1	367.2	1.0804e-06	2.8155e-06	424.68	140.95	122.71	41.75	7.2051e-07	51.64	0.00010057	9.5419e-05	2.6656e-05	1137.1	1.0502e-06	1.0473e-06	1291.3	347.23	1.0511e-06	1.0327e-06	382.85	129.49	111.33	38.461	1.0321e-06	46.762	-30.385	-23.861	255.459	-59.356	82.628	100.443	-59.388	-54.626	26.539	133.573	-55.345	-50.636	-50.045	-45.627	74.239	-46.793	-8191	255	
369.451	1	1	0	0	0.44387	0.091902	0.082476	0.20323	0.21283	0.18561	0.11404	0.13008	0.26534	0.45915	0.24449	0.15067	0.28757	0.21363	0.31359	0.03898	-2.1333	-2.6458	-2.625	-2.6437	-2.6583	-2.5729	-2.8396	-2.8667	-2.6937	-2.8312	-2.6771	-2.6063	-2.8812	-2.5396	-2.8563	-2.8021	189.725	226.418	84.784	111.994	146.179	94.477	7.987	235.367	89.993	235.815	-21.714	262.114	265.404	254.601	124.256	-12.063	0.00048308	0.00010005	4.0058e-05	1341.9	7.0187e-07	4.4742e-06	1349.6	367.36	9.9291e-07	7.2963e-07	423.88	140.92	122.57	41.736	2.9151e-06	51.601	9.9642e-05	9.316e-05	2.5954e-05	1139.1	1.0365e-06	1.0299e-06	1288.7	347.27	1.0429e-06	1.027e-06	382.42	129.45	111.03	38.46	1.0241e-06	46.755	-25.882	55.237	23.068	-59.425	66.437	58.621	-59.473	-54.691	-56.934	97.562	-55.493	-50.597	-50.076	-45.658	29.891	-46.510	-8191	255	
369.547	1	1	0	0	0.12145	0.20091	0.1454	0.2649	0.063982	0.14006	0.33229	0.23927	0.1724	0.079963	0.22873	0.085848	0.18598	0.19374	0.10842	0.1932	-2.1188	-2.9313	-2.6667	-2.6458	-2.8458	-2.4958	-2.7979	-2.9479	-2.6854	-2.8708	-2.6708	-2.5854	-2.8667	-2.6104	-2.7458	-2.7938	108.233	76.275	109.249	-53.725	175.817	202.788	208.003	244.005	252.959	6.193	268.065	37.610	13.526	205.701	202.918	279.063	0.00036958	0.00017821	0.0001253	1340.7	4.4619e-08	6.0071e-06	1351.1	367.85	2.1409e-06	2.0759e-06	422.41	140.58	122.1	41.589	1.3458e-06	51.647	9.8365e-05	9.4058e-05	2.6215e-05	1138.2	1.0255e-06	1.026e-06	1288.3	347.05	1.0518e-06	1.0398e-06	382.01	129.47	110.92	38.439	1.0513e-06	46.736	-33.360	-4.886	-17.443	-59.335	24.051	21.636	-59.393	-54.532	98.565	69.023	-55.319	-50.609	-50.208	-45.737	150.400	-46.538	-8191	255	
369.643	1	1	0	0	0.18611	0.16339	0.21131	0.2542	0.32017	0.16017	0.05413	0.10028	0.092219	0.15172	0.35257	0.25247	0.20419	0.18763	0.33691	0.18011	-2.0667	-2.6875	-2.5917	-2.5521	-2.7438	-2.5542	-2.7792	-3.0271	-2.6667	-2.8042	-2.6688	-2.5875	-2.9917	-2.6333	-2.6896	-3.0542	262.978	279.435	176.428	87.894	285.285	36.644	-36.380	-7.517	286.848	261.376	162.737	-44.320	81.702	5.696	186.881	136.675	0.00044479	0.00029822	8.0763e-05	1339	1.3881e-06	4.0449e-06	1348.6	367.25	4.7519e-07	3.9768e-06	422.21	140.92	122.26	41.688	1.6317e-06	51.538	9.9398e-05	9.5408e-05	2.6478e-05	1137.8	1.0469e-06	1.0488e-06	1287.8	346.75	1.0529e-06	1.0438e-06	382.29	129.57	110.91	38.369	1.0514e-06	46.686	-32.946	-5.711	42.132	-59.338	134.947	-4.264	-59.252	-54.578	241.158	88.531	-55.110	-50.869	-49.882	-45.712	83.628	-46.488	-8191	255	
369.764	1	1	0	0	0.29898	0.16195	0.16904	0.12446	0.23703	0.15297	0.067894	0.13159	0.27703	0.23776	0.14032	0.14952	0.38946	0.23169	0.099683	0.39786	-1.8583	-2.6729	-2.6604	-2.6292	-2.7292	-2.6917	-2.7167	-2.9271	-2.3917	-2.7417	-2.7667	-2.6396	-3.0542	-2.5229	-2.5542	-2.8792	279.391	198.629	104.818	149.785	231.290	0.258	214.246	140.890	270.056	-17.667	91.700	11.311	-63.673	262.873	83.707	190.327	0.00032589	0.00024665	6.2128e-05	1333.7	2.2647e-06	3.7265e-06	1349.8	368.01	3.1832e-06	2.9873e-06	424.98	141.52	122.23	41.726	4.3317e-06	51.396	9.9599e-05	9.5232e-05	2.6642e-05	1133.6	1.0422e-06	1.0277e-06	1287.7	347.1	1.0485e-06	1.0373e-06	382.55	129.55	110.74	38.417	1.0444e-06	46.672	-29.692	35.355	-13.336	-59.251	64.548	52.199	-59.271	-54.660	96.853	34.076	-55.296	-50.720	-50.139	-45.552	61.417	-46.285	-8191	255	
369.860	1	1	0	0	0.23374	0.1308	0.18791	0.16306	0.20554	0.073507	0.22358	0.2221	0.25857	0.15247	0.090424	0.32598	0.30105	0.099741	0.098818	0.087063	-1.9521	-2.5646	-2.7604	-2.5854	-2.6792	-2.7542	-2.8021	-2.9083	-2.4333	-2.6646	-2.7208	-2.6292	-2.8229	-2.6896	-2.6833	-2.9729	74.982	276.997	-10.162	12.367	-45.132	260.268	218.949	232.639	28.587	61.208	218.991	253.048	86.336	249.030	259.679	126.735	0.00032385	0.00031787	6.4899e-05	1345.1	2.6018e-06	6.5155e-06	1340.5	366.88	4.3756e-06	3.1629e-06	423.71	141.26	122.31	41.555	1.8007e-06	51.559	9.8784e-05	9.4276e-05	2.6847e-05	1137.2	1.037e-06	1.0467e-06	1287.3	346.88	1.0636e-06	1.0378e-06	382.36	129.53	110.87	38.342	1.0582e-06	46.715	-36.342	7.265	-35.723	-59.226	37.405	63.357	-59.276	-54.481	24.158	50.842	-55.103	-50.725	-50.156	-45.702	30.126	-46.495	-8191	255	
369.956	1	1	0	0	0.086291	0.28866	0.063851	0.053616	0.029116	0.054702	0.25657	0.33083	0.24746	0.17046	0.18615	0.24413	0.11827	0.2543	0.21699	0.14869	-2.1583	-2.5687	-2.8729	-2.5687	-2.8479	-2.6958	-2.6917	-2.9271	-2.6458	-2.6375	-2.9667	-2.5708	-2.8583	-2.7167	-2.6063	-3.0625	253.876	-31.547	112.506	253.925	-20.397	-6.422	214.662	280.468	85.407	59.433	239.398	142.373	181.198	231.804	1.575	230.714	0.00037515	0.00046748	4.37e-05	1338.3	4.4062e-06	5.1766e-06	1341.8	367.04	1.8644e-06	3.3163e-06	422.44	140.21	122.05	41.61	1.0385e-06	51.516	0.0001002	9.6321e-05	2.6688e-05	1135.3	1.0357e-06	1.034e-06	1284.9	346.63	1.0544e-06	1.0313e-06	381.13	129.1	110.64	38.334	1.0505e-06	46.745	-34.368	-18.706	6.131	-59.385	63.167	18.693	-59.429	-54.438	4.445	56.344	-55.264	-50.837	-50.101	-45.760	124.196	-46.377	-8191	255	
370.028	1	1	0	0	0.26423	0.091148	0.17925	0.12939	0.21925	0.29505	0.40578	0.18148	0.19103	0.35999	0.077204	0.35664	0.49343	0.29492	0.183	0.18319	-2.1042	-2.4938	-2.7604	-2.5625	-2.7896	-2.7146	-2.6604	-2.9875	-2.6458	-2.5438	-3.0958	-2.5333	-2.675	-2.8292	-2.5167	-3.0292	268.334	27.074	239.807	276.851	61.195	-60.206	194.731	49.333	267.962	30.938	258.546	238.961	-69.572	-35.519	140.483	219.629	0.00046887	0.00020728	8.6473e-05	1338.7	3.4765e-06	1.9851e-06	1348.6	366.31	5.2019e-06	3.107e-06	424.21	140.14	122.1	41.688	4.3579e-06	51.736	9.9316e-05	9.5994e-05	2.6505e-05	1135.5	1.0515e-06	1.0405e-06	1286.7	346.78	1.0468e-06	1.0449e-06	382.24	129.28	110.69	38.344	1.0453e-06	46.725	-30.393	-1.503	-20.132	-59.385	84.527	79.632	-59.277	-54.661	35.181	60.551	-55.377	-50.710	-50.128	-45.760	1.834	-46.615	-8191	255	
370.149	1	1	0	0	0.14342	0.12803	0.15149	0.12693	0.041364	0.092599	0.18024	0.13788	0.04027	0.25427	0.24028	0.18929	0.26072	0.16124	0.18897	0.20658	-2.1646	-2.4292	-2.7979	-2.6417	-2.5854	-2.7667	-2.8104	-2.8854	-2.5187	-2.6208	-2.7979	-2.7604	-2.5812	-2.8458	-2.4896	-2.7917	111.906	-18.330	286.635	74.200	192.693	82.082	217.059	233.031	196.883	182.856	-69.794	-67.068	-35.183	106.725	44.847	204.041	0.00037251	0.00028659	5.1309e-05	1341.2	4.8287e-06	2.7549e-06	1344.4	367.69	3.1548e-06	1.7612e-06	423.25	140.88	122.46	41.612	3.3614e-06	51.487	9.9321e-05	9.6102e-05	2.6325e-05	1135.9	1.0503e-06	1.0423e-06	1285.3	346.73	1.0481e-06	1.0414e-06	381.52	129.24	110.91	38.338	1.042e-06	46.67	-57.095	15.354	-62.180	-59.341	70.611	85.823	-59.350	-54.565	48.384	29.760	-55.132	-50.631	-50.283	-45.603	24.817	-46.476	-8191	255	
370.243	1	1	0	0	0.15597	0.1186	0.096842	0.082867	0.14879	0.29598	0.21309	0.045018	0.013374	0.077818	0.11405	0.17202	0.088448	0.050722	0.20258	0.44586	-2.1229	-2.4729	-2.6937	-2.6208	-2.4938	-2.7521	-2.6562	-2.9875	-2.5354	-2.5271	-3.0438	-2.6583	-2.5667	-3.0521	-2.4354	-2.9667	155.333	189.412	-11.384	-42.648	121.910	24.206	248.521	-63.086	5.371	165.950	212.998	-4.236	-23.287	200.616	193.209	207.566	0.0004499	0.00027356	0.00011016	1336.3	4.9898e-06	4.9834e-06	1348.6	367.32	2.4565e-06	2.2026e-06	423.74	140.85	122.41	41.581	1.5754e-06	51.468	9.9728e-05	9.5618e-05	2.6507e-05	1134.5	1.0475e-06	1.0435e-06	1287.2	346.96	1.0564e-06	1.0549e-06	382	129.4	110.86	38.364	1.0509e-06	46.668	-35.813	-4.358	0.104	-59.328	71.271	47.156	-59.372	-54.501	3.254	59.918	-55.136	-50.624	-50.391	-45.636	27.726	-46.459	-8191	255	
370.341	1	1	0	0	0.24161	0.12727	0.10456	0.12082	0.12901	0.18108	0.12959	0.22958	0.10662	0.47873	0.31176	0.21468	0.0536	0.15581	0.25399	0.27586	-2.3937	-2.4146	-2.8167	-2.5563	-2.6021	-2.8104	-2.7729	-2.8125	-2.7625	-2.6021	-2.9917	-2.7917	-2.5833	-2.9479	-2.6583	-2.85	178.100	102.765	204.614	116.400	235.065	149.566	254.218	-47.279	269.090	198.942	213.210	-53.168	47.955	243.810	42.508	238.616	0.00027354	0.00026691	8.0566e-05	1344.8	3.7735e-06	5.2374e-06	1348.9	367.28	4.718e-06	2.1622e-06	421.55	140.5	121.86	41.545	4.6686e-06	51.506	0.00010053	9.6524e-05	2.6595e-05	1137.6	1.0613e-06	1.0541e-06	1287.6	347.01	1.0498e-06	1.0413e-06	381.84	129.19	110.71	38.349	1.0419e-06	46.739	-12.122	-8.247	53.598	-59.462	43.528	68.103	-59.278	-54.458	33.490	76.732	-55.251	-50.850	-49.922	-45.667	26.427	-46.693	-8191	255	
370.460	1	1	0	0	0.082626	0.21255	0.069098	0.054263	0.13979	0.12033	0.11392	0.17705	0.11302	0.18134	0.031754	0.10319	0.2416	0.22851	0.13959	0.12339	-2.375	-2.4833	-2.7021	-2.8979	-2.4792	-2.7958	-2.8417	-2.7687	-2.8042	-2.6583	-2.8438	-2.7833	-2.5708	-2.9625	-2.6604	-2.7917	174.733	0.257	13.923	80.332	206.070	-3.452	282.489	280.114	36.491	74.187	153.264	45.664	20.411	127.407	-62.061	21.743	0.00045591	0.00022754	6.3748e-05	1334.8	4.0079e-06	2.3837e-06	1350.8	366.94	1.7386e-06	4.8499e-06	424.52	141.28	122.57	41.569	6.6732e-07	51.808	0.00010056	9.5762e-05	2.6647e-05	1135.8	1.0612e-06	1.0425e-06	1287.2	346.98	1.0731e-06	1.0516e-06	382.45	129.45	110.95	38.386	1.0495e-06	46.737	-39.323	-5.174	6.064	-59.382	124.180	101.743	-59.332	-54.591	-29.809	22.603	-55.078	-50.414	-49.986	-45.401	215.226	-46.663	-8191	255	
370.556	1	1	0	0	0.12323	0.22563	0.11799	0.26964	0.28304	0.019663	0.2163	0.37755	0.030565	0.24931	0.19049	0.13526	0.16322	0.18239	0.11777	0.092406	-2.425	-2.4562	-2.6271	-2.7146	-2.4021	-2.775	-2.8354	-2.7125	-2.8542	-2.5333	-2.9146	-2.9667	-2.5958	-2.8375	-2.6417	-2.4458	223.493	210.561	121.050	158.931	-36.037	119.558	144.350	256.006	157.196	62.943	181.164	246.777	-27.143	-36.329	26.766	143.157	0.00045691	0.00023763	8.714e-05	1340.9	2.9194e-07	3.807e-06	1353.1	368.05	1.5055e-06	2.6213e-06	424.05	141.05	121.99	41.894	3.9144e-06	51.761	0.00010027	9.6288e-05	2.6343e-05	1138.1	1.0568e-06	1.047e-06	1289.3	347.3	1.0571e-06	1.0373e-06	382.54	129.56	110.9	38.453	1.057e-06	46.791	-29.378	19.009	-11.862	-59.634	72.534	108.648	-59.434	-54.514	43.795	-21.605	-55.233	-50.965	-49.923	-45.705	85.183	-46.526	-8191	255	
370.652	1	1	0	0	0.21111	0.26393	0.37213	0.17618	0.016711	0.21278	0.38367	0.28647	0.069152	0.191	0.1776	0.079728	0.21502	0.24099	0.086363	0.11291	-2.4375	-2.4313	-2.6625	-2.9062	-2.2979	-2.8792	-2.9	-2.6167	-2.8625	-2.6813	-2.6458	-2.9396	-2.5292	-2.8771	-2.7292	-2.4458	224.390	217.150	215.602	-1.472	69.258	-28.259	193.607	254.676	171.151	154.962	155.828	177.679	240.569	242.817	55.050	111.265	0.0004748	0.00033776	3.4303e-05	1340.9	1.6226e-06	3.297e-06	1351.6	367.38	2.5414e-06	1.8345e-06	424.72	140.92	122.74	41.871	4.0419e-06	51.465	0.00010089	9.6196e-05	2.6993e-05	1139.5	1.0585e-06	1.0465e-06	1291	347.16	1.0703e-06	1.0613e-06	383.06	129.67	111.18	38.513	1.08e-06	46.736	-21.407	-7.722	-36.051	-59.291	94.801	67.214	-59.147	-54.477	-24.582	34.426	-55.218	-50.588	-50.082	-45.656	64.201	-46.400	-8191	255	
370.748	1	1	0	0	0.17535	0.061863	0.059495	0.18017	0.069341	0.08586	0.086008	0.012722	0.23791	0.03279	0.18953	0.091446	0.2345	0.18875	0.15299	0.20658	-2.5	-2.6292	-2.7396	-2.9562	-2.6042	-2.8958	-2.7792	-2.7562	-2.8563	-2.6396	-2.7125	-2.9167	-2.6375	-3.0167	-2.7833	-2.6979	-45.271	204.619	-45.558	-1.896	170.869	254.506	53.870	99.069	185.581	228.680	69.430	55.909	264.463	-71.569	214.672	241.190	0.00035151	0.00035336	9.8454e-05	1334.8	1.6133e-06	4.2645e-06	1350.2	367.21	2.767e-06	5.7183e-07	424.53	141.33	122.82	41.743	5.2156e-06	51.588	0.00010332	9.8912e-05	2.7354e-05	1137.8	1.0798e-06	1.0736e-06	1292	347.62	1.0985e-06	1.0835e-06	383.66	129.62	111.15	38.48	1.1006e-06	46.833	-46.676	-18.984	-7.790	-59.513	222.090	91.376	-59.247	-54.567	23.002	31.458	-55.117	-50.628	-50.176	-45.777	60.428	-46.706	-8191	255	
370.844	1	1	0	0	0.26145	0.17288	0.14241	0.1542	0.082362	0.076961	0.20272	0.19456	0.042256	0.10122	0.20357	0.24736	0.33178	0.14775	0.094858	0.087289	-2.2875	-2.8312	-2.5083	-3.0146	-2.5396	-2.6063	-2.9771	-2.6437	-2.8688	-2.6	-2.6833	-2.9083	-2.7667	-2.7167	-2.9625	-2.7208	82.416	212.008	-1.570	245.130	-12.308	140.350	251.928	284.380	265.026	96.251	51.083	195.483	224.053	-68.283	65.453	220.447	0.00036645	0.00034214	7.4627e-05	1342	1.7607e-06	3.9259e-06	1346.3	368.4	1.9776e-06	5.2679e-06	425.09	140.99	122.62	41.592	2.2381e-06	51.595	0.00010529	9.9939e-05	2.8176e-05	1141.1	1.0972e-06	1.0913e-06	1291.2	347.52	1.0929e-06	1.101e-06	383.79	129.7	111.23	38.438	1.0847e-06	46.752	-31.813	12.695	-33.291	-59.333	84.045	4.661	-59.305	-54.675	80.231	109.635	-55.187	-50.800	-50.314	-45.500	75.507	-46.626	-8191	255	
370.941	1	1	0	0	0.17204	0.070014	0.093225	0.172	0.035656	0.17744	0.32196	0.29057	0.1518	0.17289	0.34846	0.27179	0.092778	0.25323	0.27661	0.25723	-2.4479	-2.675	-2.6146	-3.0354	-2.6688	-2.7896	-3.1188	-2.6854	-2.7125	-2.7875	-2.4729	-2.9146	-2.6063	-2.6208	-2.8438	-2.5292	-50.207	42.077	-37.498	-48.079	207.839	162.579	246.678	221.085	144.877	110.271	207.282	141.713	-5.531	-57.245	216.601	-68.292	0.00033274	0.00024407	7.6816e-05	1341.4	2.3949e-06	4.6641e-06	1353.6	368.12	3.2839e-06	3.2502e-06	423.06	140.78	122.47	41.787	1.7332e-06	51.636	0.00010211	9.8974e-05	2.7534e-05	1139.6	1.0722e-06	1.0748e-06	1292.7	347.52	1.0806e-06	1.0688e-06	382.87	129.62	111.25	38.534	1.0847e-06	46.8	-45.700	-33.979	0.839	-59.439	49.961	31.131	-59.144	-54.473	-65.763	77.553	-54.984	-50.812	-50.126	-45.653	113.792	-46.474	-8191	255	
371.061	1	1	0	0	0.30992	0.10018	0.17117	0.088423	0.07732	0.21456	0.19321	0.32506	0.19102	0.090948	0.25339	0.26597	0.19869	0.17914	0.047011	0.093797	-2.45	-2.7021	-2.3521	-2.8896	-2.7458	-2.5667	-3.0583	-2.4521	-2.6604	-2.7438	-2.6167	-2.9333	-2.4792	-2.6771	-2.8812	-2.3812	-5.270	51.578	114.087	-45.759	89.533	279.255	176.112	217.906	56.164	108.657	-25.818	241.483	154.101	-36.725	200.718	46.716	0.0004382	1.2977e-05	5.2963e-05	1343.6	4.6842e-07	4.9551e-06	1349.8	367.58	3.6354e-06	1.427e-06	423.68	140.54	122.49	41.782	2.6317e-06	51.566	0.0001029	0.00010004	2.7576e-05	1142.1	1.0821e-06	1.0783e-06	1293.1	347.52	1.0791e-06	1.0679e-06	383	129.73	111.07	38.505	1.0693e-06	46.786	-31.187	-17.243	17.594	-59.234	99.466	62.469	-59.186	-54.599	254.141	148.682	-55.220	-50.487	-50.038	-45.486	-8.581	-46.381	-8191	255	
#DATA ENDS
