BOXY.EXE: ISS Imagent and Oximeter Data Acquisition Program Version 0.80
Ascii Record File

#ACQ INFORMATION
2  Detector Channels 
16  External MUX Channels 
1  Auxiliary Channels 
5000  Waveform (CCF) Frequency (Hz)
1  Waveforms Skipped 
30  Waveforms Averaged 
1  Cycles Averaged 
16  Acquisitions per Waveform 
10.0806  Updata Rate (Hz) 

#FILE INFORMATION
TRUE -- External MUX Channel results are PARSED.
FALSE -- AC DC and Phase are NOT grouped.
TRUE -- Companion Program Settings File CREATED.
FALSE -- AC data not excluded
FALSE -- DC data not excluded
FALSE -- Phase data not excluded
FALSE -- Auxillary Chn. data not excluded
Tab delimiters

#CALIBRATION STATE
TRUE -- Waveform Calibration Values APPLIED.


#AUX CALIBRATION VALUES
Val Type	aux-1	

Term	1.0000e+00	
Factor	0.0000e+00	


#WF CALIBRATION VALUES
A = Detector Channel
Val Type	A-AC1	A-AC2	A-AC3	A-AC4	A-AC5	A-AC6	A-AC7	A-AC8	A-AC9	A-AC10	A-AC11	A-AC12	A-AC13	A-AC14	A-AC15	A-AC16	A-DC1	A-DC2	A-DC3	A-DC4	A-DC5	A-DC6	A-DC7	A-DC8	A-DC9	A-DC10	A-DC11	A-DC12	A-DC13	A-DC14	A-DC15	A-DC16	A-Ph1	A-Ph2	A-Ph3	A-Ph4	A-Ph5	A-Ph6	A-Ph7	A-Ph8	A-Ph9	A-Ph10	A-Ph11	A-Ph12	A-Ph13	A-Ph14	A-Ph15	A-Ph16	

Term	0.00000e+00	0.00000e+00	0.00000e+00	0.00000e+00	0.00000e+00	0.00000e+00	0.00000e+00	0.00000e+00	0.00000e+00	0.00000e+00	0.00000e+00	0.00000e+00	0.00000e+00	0.00000e+00	0.00000e+00	0.00000e+00	0.00000e+00	0.00000e+00	0.00000e+00	0.00000e+00	0.00000e+00	0.00000e+00	0.00000e+00	0.00000e+00	0.00000e+00	0.00000e+00	0.00000e+00	0.00000e+00	0.00000e+00	0.00000e+00	0.00000e+00	0.00000e+00	0.00000e+00	0.00000e+00	0.00000e+00	0.00000e+00	0.00000e+00	0.00000e+00	0.00000e+00	0.00000e+00	0.00000e+00	0.00000e+00	0.00000e+00	0.00000e+00	0.00000e+00	0.00000e+00	0.00000e+00	0.00000e+00	
Factor	1.00000e+00	1.00000e+00	1.00000e+00	1.00000e+00	1.00000e+00	1.00000e+00	1.00000e+00	1.00000e+00	1.00000e+00	1.00000e+00	1.00000e+00	1.00000e+00	1.00000e+00	1.00000e+00	1.00000e+00	1.00000e+00	1.00000e+00	1.00000e+00	1.00000e+00	1.00000e+00	1.00000e+00	1.00000e+00	1.00000e+00	1.00000e+00	1.00000e+00	1.00000e+00	1.00000e+00	1.00000e+00	1.00000e+00	1.00000e+00	1.00000e+00	1.00000e+00	X	X	X	X	X	X	X	X	X	X	X	X	X	X	X	X	

B = Detector Channel
Val Type	B-AC1	B-AC2	B-AC3	B-AC4	B-AC5	B-AC6	B-AC7	B-AC8	B-AC9	B-AC10	B-AC11	B-AC12	B-AC13	B-AC14	B-AC15	B-AC16	B-DC1	B-DC2	B-DC3	B-DC4	B-DC5	B-DC6	B-DC7	B-DC8	B-DC9	B-DC10	B-DC11	B-DC12	B-DC13	B-DC14	B-DC15	B-DC16	B-Ph1	B-Ph2	B-Ph3	B-Ph4	B-Ph5	B-Ph6	B-Ph7	B-Ph8	B-Ph9	B-Ph10	B-Ph11	B-Ph12	B-Ph13	B-Ph14	B-Ph15	B-Ph16	

Term	0.00000e+00	0.00000e+00	0.00000e+00	0.00000e+00	0.00000e+00	0.00000e+00	0.00000e+00	0.00000e+00	0.00000e+00	0.00000e+00	0.00000e+00	0.00000e+00	0.00000e+00	0.00000e+00	0.00000e+00	0.00000e+00	0.00000e+00	0.00000e+00	0.00000e+00	0.00000e+00	0.00000e+00	0.00000e+00	0.00000e+00	0.00000e+00	0.00000e+00	0.00000e+00	0.00000e+00	0.00000e+00	0.00000e+00	0.00000e+00	0.00000e+00	0.00000e+00	2.70886e+01	-1.47570e+02	-1.59823e+02	-1.87769e+02	-7.16749e+01	-1.02766e+02	-1.57019e+02	-1.62015e+02	-1.01898e+02	-8.89711e+01	-1.73571e+02	-1.72116e+02	-1.82981e+02	-1.77625e+02	-1.07765e+02	-1.50887e+02	
Factor	4.90076e-05	9.02078e-05	2.72429e-05	5.41330e-01	1.00772e-06	1.22008e-06	1.72070e-01	5.71424e-02	1.21130e-06	1.00603e-06	1.10401e-01	3.27385e-02	3.12637e-02	9.63839e-03	1.14382e-06	1.41262e-02	4.51512e-07	4.55847e-07	1.26572e-07	2.20301e-01	4.97833e-09	4.98109e-09	7.62968e-02	2.65919e-02	4.98129e-09	4.97910e-09	4.73171e-02	1.42145e-02	1.38173e-02	4.35854e-03	4.97014e-09	6.06963e-03	X	X	X	X	X	X	X	X	X	X	X	X	X	X	X	X	



#DISTANCE SETTINGS
A = Detector Channel
A-1	A-2	A-3	A-4	A-5	A-6	A-7	A-8	A-9	A-10	A-11	A-12	A-13	A-14	A-15	A-16	

2.5000e+00	3.0000e+00	2.5000e+00	3.0000e+00	2.0000e+00	3.0000e+00	1.5000e+00	3.0000e+00	3.0000e+00	3.0000e+00	3.0000e+00	3.0000e+00	3.0000e+00	3.0000e+00	1.5000e+00	3.0000e+00	

B = Detector Channel
B-1	B-2	B-3	B-4	B-5	B-6	B-7	B-8	B-9	B-10	B-11	B-12	B-13	B-14	B-15	B-16	

1.0000e+01	1.0000e+01	1.0000e+01	1.4400e+00	1.0000e+01	1.0000e+01	1.5100e+00	1.9400e+00	1.0000e+01	1.0000e+01	1.9900e+00	2.4900e+00	2.4100e+00	2.9000e+00	1.0000e+01	2.9800e+00	




#DATA BEGINS
time	group	step	mark	flag	A-AC1	A-AC2	A-AC3	A-AC4	A-AC5	A-AC6	A-AC7	A-AC8	A-AC9	A-AC10	A-AC11	A-AC12	A-AC13	A-AC14	A-AC15	A-AC16	A-DC1	A-DC2	A-DC3	A-DC4	A-DC5	A-DC6	A-DC7	A-DC8	A-DC9	A-DC10	A-DC11	A-DC12	A-DC13	A-DC14	A-DC15	A-DC16	A-Ph1	A-Ph2	A-Ph3	A-Ph4	A-Ph5	A-Ph6	A-Ph7	A-Ph8	A-Ph9	A-Ph10	A-Ph11	A-Ph12	A-Ph13	A-Ph14	A-Ph15	A-Ph16	B-AC1	B-AC2	B-AC3	B-AC4	B-AC5	B-AC6	B-AC7	B-AC8	B-AC9	B-AC10	B-AC11	B-AC12	B-AC13	B-AC14	B-AC15	B-AC16	B-DC1	B-DC2	B-DC3	B-DC4	B-DC5	B-DC6	B-DC7	B-DC8	B-DC9	B-DC10	B-DC11	B-DC12	B-DC13	B-DC14	B-DC15	B-DC16	B-Ph1	B-Ph2	B-Ph3	B-Ph4	B-Ph5	B-Ph6	B-Ph7	B-Ph8	B-Ph9	B-Ph10	B-Ph11	B-Ph12	B-Ph13	B-Ph14	B-Ph15	B-Ph16	aux-1	digaux	

281.940	1	1	0	256	0.22689	0.11147	0.24931	0.21347	0.10854	0.083118	0.30314	0.18053	0.11681	0.078326	0.0035291	0.15836	0.081028	0.21009	0.31798	0.21779	-2.4771	-2.5875	-2.9	-2.8229	-3.0083	-3.025	-3.0708	-2.9	-2.8375	-2.8125	-3.1833	-2.8708	-2.9083	-3.1583	-2.6667	-2.9958	54.728	226.344	43.599	176.100	174.817	-0.040	233.798	201.517	-16.325	137.409	174.050	190.605	109.936	288.997	-53.512	284.686	0.00023857	0.00025934	4.4062e-05	1310.7	1.6097e-06	2.4973e-06	1381.8	278.36	4.9954e-06	1.0301e-06	344.32	96.04	76.037	22.435	2.0239e-06	30.767	9.4615e-05	9.1517e-05	2.5096e-05	1079.8	1.0038e-06	1.0132e-06	1281	257.34	1.0353e-06	1.0331e-06	305.23	87.365	68.695	20.713	1.0822e-06	28.059	-23.852	23.720	275.159	-58.209	46.478	88.693	-58.001	-51.366	-0.547	191.362	-51.400	-44.892	-44.824	-38.267	108.639	-38.714	-8191	255	
282.037	1	1	0	0	0.22377	0.24099	0.15966	0.10965	0.1724	0.029445	0.35965	0.23081	0.19357	0.16942	0.1026	0.24228	0.18553	0.050495	0.055297	0.24918	-2.2042	-2.6813	-2.9062	-2.7604	-3.0146	-3.0812	-2.7812	-3.0687	-2.8979	-2.7833	-2.9979	-2.8146	-2.7708	-2.8812	-2.4854	-2.9854	160.331	145.876	75.169	179.143	0.110	-23.626	186.926	234.390	127.318	88.505	-22.585	278.504	286.542	139.522	105.547	216.171	0.00016691	6.6484e-05	2.2289e-05	1301.6	3.8493e-06	2.6966e-06	1388.6	279.01	6.3415e-07	2.7581e-06	344.74	95.804	76.254	22.364	4.8273e-06	30.834	0.00010199	9.84e-05	2.7291e-05	1083.5	1.064e-06	1.059e-06	1287.1	258.31	1.0553e-06	1.0482e-06	306.6	87.473	68.927	20.727	1.056e-06	28.027	-29.514	-40.985	176.773	-58.259	104.823	205.560	-58.229	-51.187	127.340	67.066	-51.568	-45.062	-44.919	-38.375	164.202	-38.102	-8191	255	
282.133	1	1	0	0	0.14856	0.36903	0.26344	0.18616	0.45169	0.2605	0.059634	0.27046	0.168	0.22313	0.12117	0.19146	0.24215	0.14708	0.19125	0.14395	-2.4896	-2.3812	-2.975	-2.6729	-2.7146	-3.2188	-2.7771	-3.0062	-2.8333	-2.6	-3.0042	-2.9208	-2.7958	-3.0917	-2.6604	-2.8229	204.192	84.542	-38.189	-44.509	104.285	130.607	248.781	280.669	46.108	270.566	183.250	123.042	86.272	37.311	203.551	264.416	0.00015696	0.00034201	5.3427e-05	1304	5.7328e-06	8.3796e-07	1378.9	278.25	4.5345e-06	3.968e-06	344.07	96.326	76.267	22.348	4.2345e-06	30.708	0.0001007	9.7961e-05	2.7288e-05	1083.9	1.0821e-06	1.0907e-06	1283.2	257.89	1.1314e-06	1.1475e-06	306.9	87.803	69.203	20.835	1.2302e-06	28.198	-2.922	-7.321	32.589	-58.467	63.912	-65.370	-58.035	-51.382	189.449	-54.703	-51.735	-45.094	-44.262	-38.586	56.117	-38.562	-8191	255	
282.229	1	1	0	0	0.30819	0.2593	0.14651	0.047646	0.16529	0.073401	0.37819	0.11707	0.096553	0.17063	0.21543	0.30009	0.11193	0.20227	0.16018	0.07285	-2.3958	-2.575	-3.1229	-2.6583	-2.6146	-2.9771	-2.7708	-2.9583	-2.7583	-2.7167	-3.0333	-2.7667	-2.7104	-2.9354	-2.6396	-3.0229	205.882	42.078	201.388	63.533	281.269	-53.203	226.310	123.237	112.600	-1.250	176.354	-8.391	201.981	261.442	97.950	190.064	0.00021727	0.00016519	3.2686e-05	1320.7	2.2109e-06	4.6584e-06	1405.3	280.83	2.3571e-06	4.4591e-06	341.59	94.854	75.076	21.949	2.0117e-06	30.407	0.00011866	0.00011654	3.2428e-05	1103.5	1.2873e-06	1.2752e-06	1303.3	262.5	1.2132e-06	1.0855e-06	302.48	86.317	67.64	20.284	1.0073e-06	27.582	-22.802	-52.754	-61.563	-58.273	179.664	61.444	-58.169	-51.505	193.855	76.213	-51.202	-44.502	-44.522	-38.266	69.810	-38.455	-8191	255	
282.350	1	1	0	0	0.066015	0.1258	0.14713	0.24513	0.10232	0.033473	0.20837	0.29598	0.12814	0.1875	0.19886	0.16714	0.22888	0.1181	0.15112	0.051587	-2.6375	-2.6042	-2.9229	-2.725	-2.6	-2.9437	-3.0083	-2.8333	-2.8854	-2.8521	-2.8854	-2.9146	-2.6854	-2.8812	-2.7062	-2.9437	84.109	208.491	39.547	75.789	288.799	100.518	271.857	-66.584	31.398	67.406	274.249	34.641	37.136	-22.746	-30.874	-56.809	0.0003635	0.00028053	7.5446e-05	1303.9	1.6649e-06	2.2971e-06	1386.7	279.82	4.4172e-06	1.3971e-06	344.43	96.465	76.616	22.268	6.048e-06	30.454	0.00010107	0.00010232	2.924e-05	1086.6	1.1566e-06	1.1623e-06	1290.7	258.81	1.1578e-06	1.1707e-06	307.67	88.071	69.537	20.753	1.1995e-06	28.037	-36.650	-43.902	9.182	-58.340	31.860	60.117	-58.095	-51.400	42.866	-65.202	-51.401	-45.376	-44.486	-38.382	58.101	-38.512	-8191	255	
282.421	1	1	0	0	0.030245	0.13046	0.18734	0.2416	0.21592	0.15182	0.16976	0.089183	0.056615	0.34221	0.13307	0.22233	0.13823	0.11521	0.02366	0.057868	-2.5042	-2.8563	-2.6208	-3.0812	-2.6458	-2.7458	-2.9813	-2.8688	-2.9375	-2.5521	-3.0292	-2.7375	-2.7188	-3.0854	-3.0333	-2.5792	3.680	186.958	276.833	191.116	208.826	42.801	173.578	274.485	172.005	10.299	-35.558	261.550	-24.425	-44.438	189.010	274.873	0.00023286	0.00041823	0.00014791	1305.7	2.0759e-06	2.4309e-06	1381.6	277.84	2.6387e-06	1.7927e-06	342.6	94.822	75.702	22.06	6.3385e-07	30.317	0.00011403	0.00011168	3.0454e-05	1089.9	1.2032e-06	1.2018e-06	1287.2	258.31	1.2273e-06	1.2065e-06	306.18	87.21	68.69	20.509	1.1517e-06	27.779	-40.168	2.228	-3.398	-57.883	18.424	110.975	-58.030	-51.263	147.043	281.314	-51.509	-45.156	-44.619	-38.357	60.808	-38.600	-8191	255	
282.517	1	1	0	0	0.14008	0.23046	0.08001	0.14062	0.22862	0.28809	0.019117	0.22305	0.17293	0.26974	0.049554	0.18362	0.18596	0.047107	0.11661	0.27706	-2.5771	-2.55	-2.7104	-2.8896	-2.6229	-3.1063	-3.0479	-2.5167	-3.1979	-2.925	-2.9062	-3.1146	-2.9313	-2.9146	-2.8937	-2.7812	130.185	-22.185	131.672	80.430	35.163	-50.124	253.407	134.221	183.474	155.326	-35.401	253.850	267.001	180.492	-34.888	233.522	0.00027218	0.00026322	4.8673e-05	1304.1	3.3532e-06	3.1254e-06	1369.2	274.36	2.725e-06	3.5076e-06	336.41	93.797	74.191	21.531	9.4873e-07	30.108	0.0001072	0.00010448	2.8367e-05	1081.3	1.105e-06	1.0807e-06	1273.1	254.69	1.0171e-06	9.8105e-07	299.32	85.158	66.813	19.847	9.4306e-07	27.097	-38.050	18.777	43.747	-58.142	116.106	152.412	-58.016	-51.337	-28.203	67.762	-51.506	-44.785	-44.701	-37.655	-57.551	-38.440	-8191	255	
282.614	1	1	0	0	0.33738	0.24931	0.20137	0.31144	0.12577	0.1977	0.18254	0.12673	0.20796	0.23338	0.46269	0.23073	0.061201	0.09523	0.040074	0.17039	-2.3542	-2.7375	-2.8125	-3.0229	-2.5875	-2.9292	-3.0125	-2.6188	-3.0521	-2.7771	-2.7021	-3.0938	-2.7229	-2.6208	-2.7042	-2.7604	153.982	-3.691	-46.698	286.769	118.191	131.072	275.347	141.493	241.302	-8.332	164.692	46.795	-0.858	-56.376	246.902	237.485	0.00031625	0.00016483	6.9496e-05	1284.6	2.0347e-06	4.0636e-06	1352.7	270.5	5.195e-06	3.1888e-06	335.37	93.276	73.567	21.489	3.822e-06	29.55	9.2012e-05	9.2428e-05	2.6716e-05	1063.4	1.1654e-06	1.23e-06	1261	252.27	1.4655e-06	1.5005e-06	302.8	86.367	68.156	20.475	1.7519e-06	27.99	-56.555	77.350	16.848	-58.053	286.545	-36.561	-58.016	-51.124	-20.164	73.560	-51.272	-44.505	-44.547	-37.992	66.379	-38.487	-8191	255	
282.732	1	1	0	0	0.11617	0.15461	0.094446	0.10627	0.23119	0.25223	0.1954	0.098945	0.17273	0.1747	0.1269	0.24242	0.11705	0.18912	0.19247	0.14472	-2.6521	-2.7438	-2.5187	-3.3167	-2.7167	-2.6521	-3.3	-2.5833	-2.7854	-2.8167	-2.7667	-3.1417	-2.775	-2.7958	-3.0604	-2.8604	96.488	9.823	-40.651	189.106	61.438	-9.708	243.215	221.768	143.852	62.404	-1.286	-53.224	267.013	220.368	83.100	251.806	0.00022862	0.00040625	0.00015055	1280.8	9.4963e-07	5.7952e-06	1349.5	272	3.3451e-06	4.1956e-06	336.69	93.748	74.848	21.838	4.7793e-06	30.186	0.00017355	0.00017659	5.0136e-05	1102.8	2.0222e-06	2.0305e-06	1272.5	256.78	2.0419e-06	2.0089e-06	309.14	88.376	70.168	21.01	1.9816e-06	28.608	280.726	17.061	275.908	-58.226	196.218	64.696	-58.029	-51.235	-7.858	-26.144	-51.663	-44.809	-44.613	-38.507	217.613	-38.709	-8191	255	
282.829	1	1	0	0	0.21726	0.20764	0.19473	0.33968	0.2986	0.085829	0.36614	0.050329	0.16857	0.28553	0.14779	0.019455	0.17427	0.077056	0.027149	0.21682	-2.4792	-2.95	-2.5625	-2.8792	-2.8063	-2.9313	-3.0771	-2.9208	-2.8438	-2.7479	-2.6896	-3.1479	-2.8187	-2.7687	-2.9271	-2.8104	165.676	73.784	257.612	216.594	-13.813	-26.720	199.354	271.292	24.521	98.297	193.230	4.517	-46.840	270.807	11.628	163.903	0.00041348	0.00018941	0.00012644	1309.7	3.9951e-06	1.7468e-06	1393.4	278.42	1.1898e-06	3.2217e-06	344.89	95.581	76.195	22.063	2.8849e-06	30.376	0.00017063	0.00015729	4.0154e-05	1101.2	1.2983e-06	1.2051e-06	1296.5	259.01	1.1032e-06	1.0708e-06	306.66	87.093	68.596	20.438	1.0221e-06	27.632	-31.913	17.401	236.832	-58.531	84.454	-61.278	-58.224	-51.199	20.194	104.774	-51.720	-44.838	-44.592	-38.359	31.616	-38.823	-8191	255	
282.925	1	1	0	0	0.13043	0.11997	0.055378	0.095203	0.038421	0.20784	0.12189	0.21435	0.17383	0.06054	0.12532	0.23827	0.27821	0.20992	0.26815	0.13277	-2.5104	-2.7146	-2.6271	-3.1042	-2.7833	-2.7854	-3.2438	-2.8292	-2.7146	-3.0979	-2.5917	-3.2146	-2.8875	-2.7188	-3.025	-2.8479	27.511	127.662	-16.259	133.583	286.146	11.596	188.903	260.355	128.448	-42.814	223.454	213.237	248.332	290.479	52.532	-56.601	0.00033011	0.00019799	5.6034e-05	1310.4	2.2196e-06	2.4311e-06	1370.1	275.56	5.1829e-06	3.9334e-06	341.06	94.066	74.79	21.813	3.5853e-06	30.027	9.4011e-05	9.2059e-05	2.5239e-05	1081.1	9.7344e-07	9.6899e-07	1276.6	254.07	9.3243e-07	9.0282e-07	300.51	85.504	67.018	19.984	8.2995e-07	27.003	-53.925	69.392	-23.469	-58.784	99.397	48.445	-58.071	-51.189	43.038	60.113	-51.595	-45.046	-44.607	-38.267	19.584	-38.545	-8191	255	
283.021	1	1	0	0	0.076621	0.089358	0.16012	0.31595	0.17792	0.093924	0.25045	0.090797	0.1685	0.12945	0.14606	0.33124	0.082189	0.075078	0.14893	0.2676	-2.45	-3.0458	-2.7292	-2.7708	-2.7875	-2.7271	-3.1146	-3.0604	-2.9667	-3.0062	-2.9708	-3.2042	-2.9708	-2.8208	-3.0208	-2.6646	28.846	-34.858	-29.874	-10.899	0.092	46.147	208.252	-38.687	126.056	117.611	36.955	-65.535	68.053	271.458	73.944	174.164	0.00034821	0.00021056	7.5588e-05	1289.5	1.7279e-06	2.7753e-06	1355.3	270.14	3.0947e-06	2.8368e-06	334.66	92.679	73.922	21.417	2.9473e-06	29.753	7.512e-05	7.1124e-05	1.9613e-05	1054.3	7.4646e-07	7.4727e-07	1253.7	249.18	7.2661e-07	7.1072e-07	294.45	83.845	65.689	19.626	7.0127e-07	26.588	290.730	-4.610	280.841	-58.425	190.275	76.644	-58.082	-51.104	145.635	-13.049	-51.384	-44.802	-44.142	-37.724	69.200	-38.046	-8191	255	
283.117	1	1	0	0	0.065784	0.080969	0.24061	0.11882	0.27378	0.059416	0.35072	0.20398	0.034444	0.19433	0.082065	0.19756	0.081349	0.17897	0.086312	0.052899	-2.4688	-3.1188	-2.6958	-2.8833	-3.2229	-2.7396	-3.1083	-2.9333	-2.8187	-3.0479	-2.9292	-2.9583	-3.1562	-2.8083	-3	-2.7771	-49.313	119.771	77.220	-52.076	188.613	158.027	201.995	245.576	62.990	219.610	-62.156	286.987	182.048	178.846	88.876	213.172	0.000155	0.00038135	7.132e-05	1268.2	8.9936e-07	1.2613e-06	1342.2	269.8	2.139e-06	7.3567e-07	335.24	93.679	74.127	21.482	2.0482e-06	29.649	6.8399e-05	6.5113e-05	1.869e-05	1038.1	7.4463e-07	7.2756e-07	1245	248.28	7.513e-07	7.3728e-07	295.36	84.189	65.994	19.779	7.6805e-07	26.849	-34.970	38.848	-9.333	-58.050	-8.184	163.888	-57.932	-51.078	0.588	49.170	-51.488	-45.045	-44.738	-38.183	7.207	-38.566	-8191	255	
283.213	1	1	0	0	0.065336	0.090897	0.21475	0.054398	0.13903	0.15083	0.26212	0.13015	0.1358	0.24423	0.028136	0.21608	0.22077	0.19909	0.27425	0.12165	-2.5354	-2.9167	-2.6083	-2.8854	-3.0917	-2.7646	-3.0354	-3.2271	-3.0312	-3.0625	-2.9229	-2.9188	-2.725	-2.8312	-3.075	-2.9062	-39.693	212.079	162.882	104.802	150.480	100.733	235.339	-65.645	-68.329	-51.479	94.416	49.408	-38.841	-42.023	261.564	146.304	0.00018466	0.00037184	6.2093e-05	1272.6	2.781e-06	4.5299e-06	1352.1	272.04	8.7022e-07	4.0198e-06	338.17	93.956	75.313	21.889	4.6418e-06	30.23	7.369e-05	7.2075e-05	1.9796e-05	1044.1	7.9834e-07	8.021e-07	1253.7	250.96	8.3204e-07	8.3515e-07	298.81	85.432	67.217	20.078	8.3544e-07	27.259	-59.955	49.706	-54.589	-58.498	-5.926	10.364	-58.010	-51.105	163.824	93.250	-51.330	-45.351	-44.495	-38.221	51.555	-38.596	-8191	255	
283.334	1	1	0	0	0.12287	0.15378	0.27861	0.084042	0.1961	0.17092	0.11347	0.23923	0.067417	0.09346	0.3179	0.11142	0.30287	0.15867	0.091038	0.01699	-2.2167	-3.1833	-2.7479	-3	-3.0563	-2.8229	-3.2812	-3.0854	-2.6437	-2.8063	-2.9562	-2.9958	-3.1375	-2.9604	-2.9979	-2.9125	10.233	280.789	24.867	84.400	111.783	129.441	197.077	209.037	217.238	119.908	241.858	-50.943	217.783	66.338	24.830	24.472	0.00017235	0.00019298	0.00011362	1288.3	1.7752e-06	2.0221e-06	1366	272.69	1.7358e-06	1.835e-06	340.74	94.254	74.787	21.978	1.72e-06	30.256	7.9388e-05	7.5066e-05	2.0796e-05	1057.7	8.1523e-07	8.0845e-07	1263.1	251.67	8.2066e-07	8.1332e-07	299.66	85.49	67.069	20.138	8.2165e-07	27.3	-47.089	50.295	51.848	-58.680	68.852	45.695	-58.075	-51.204	-37.347	175.274	-51.480	-44.822	-44.561	-37.956	74.094	-38.518	-8191	255	
283.430	1	1	0	0	0.1481	0.15425	0.17104	0.19029	0.18137	0.060619	0.13031	0.17919	0.19452	0.40442	0.12421	0.13765	0.055332	0.093817	0.12421	0.049668	-2.3667	-2.8771	-2.7958	-2.9583	-3.0187	-2.8917	-3.1042	-2.9792	-2.6688	-3.0333	-2.8063	-2.8396	-2.9229	-2.7667	-2.8417	-3.0438	167.755	96.590	203.055	-59.064	113.421	25.571	200.387	277.181	167.852	20.797	265.036	20.041	-26.777	-4.514	76.689	172.619	0.00010897	0.00043667	2.3628e-05	1279.3	1.4842e-06	4.2989e-06	1357.2	271.08	3.2418e-06	9.9783e-07	335.57	93.854	73.679	21.542	1.73e-06	29.697	7.8321e-05	7.5785e-05	2.0428e-05	1054.8	8.0707e-07	7.9412e-07	1256.2	249.95	7.6392e-07	7.4667e-07	295.74	84.345	65.783	19.732	7.1985e-07	26.719	-65.030	-30.765	281.139	-58.235	45.033	61.874	-57.826	-51.218	84.476	92.734	-51.514	-44.841	-44.521	-38.240	51.860	-38.369	-8191	255	
283.524	1	1	0	0	0.21016	0.095306	0.16532	0.02101	0.030996	0.19154	0.39199	0.35576	0.19232	0.15634	0.20393	0.061618	0.12213	0.1095	0.25743	0.074452	-2.1979	-2.9167	-2.9479	-2.8333	-3.0208	-2.8229	-2.8042	-2.8521	-2.8063	-3.025	-3.1437	-2.8667	-3.0542	-3.0396	-2.9708	-3.1604	37.938	286.807	127.478	101.172	49.008	173.295	268.736	168.166	-59.154	273.652	-66.656	153.639	115.627	81.153	88.468	213.184	0.00017717	0.00019037	5.4004e-05	1273.9	7.1505e-07	1.7296e-06	1347.5	268.11	1.3183e-06	2.4525e-06	335.41	93.504	73.485	21.673	2.6396e-06	29.647	6.8999e-05	6.5022e-05	1.8307e-05	1037.7	7.2048e-07	7.1658e-07	1246.4	247.99	7.4695e-07	7.3643e-07	294.76	84.311	65.889	19.736	7.7024e-07	26.769	-64.803	-9.873	29.890	-58.203	138.338	66.752	-57.936	-51.242	68.939	115.634	-51.802	-44.858	-44.710	-37.802	51.097	-38.752	-8191	255	
283.620	1	1	0	0	0.086086	0.45474	0.029579	0.14721	0.14396	0.30573	0.27349	0.25444	0.21979	0.21222	0.20396	0.36282	0.10498	0.10771	0.17291	0.11387	-2.1	-2.9875	-3.0021	-2.7875	-2.9042	-2.9292	-2.9688	-3.0208	-2.7938	-3.0458	-2.8667	-2.8354	-3.0521	-2.8542	-2.7687	-3.2375	284.983	181.903	41.398	-52.013	181.897	167.231	252.851	203.781	241.687	198.990	66.126	-25.024	122.890	-54.648	164.267	49.035	0.00024691	0.00044674	9.0028e-05	1271	2.7071e-06	2.7344e-06	1349.2	268.98	3.2741e-06	1.8795e-06	334.03	93.047	72.982	21.484	2.2447e-06	29.501	7.3808e-05	7.1866e-05	2.0078e-05	1040.3	7.8424e-07	7.7259e-07	1245.5	248.07	7.7759e-07	7.5753e-07	292.86	83.776	65.383	19.551	7.396e-07	26.546	-30.099	46.860	-12.089	-58.152	85.100	31.886	-58.037	-51.198	92.259	13.350	-51.387	-44.844	-44.499	-37.918	116.877	-38.030	-8191	255	
283.717	1	1	0	0	0.10457	0.13656	0.14659	0.18774	0.26223	0.28127	0.2983	0.030586	0.0992	0.06257	0.047186	0.18963	0.2021	0.10168	0.41074	0.051641	-2.2458	-2.9021	-2.7562	-2.75	-2.9229	-2.9833	-3.0271	-2.9917	-2.7354	-2.9875	-3.05	-2.7583	-3.0417	-2.7583	-2.7479	-3.1562	201.349	111.450	-39.481	-21.726	272.658	74.465	214.509	-6.337	209.173	-51.907	28.786	158.065	-63.505	84.859	132.180	288.399	0.00014415	7.401e-05	1.255e-05	1268.9	1.5354e-06	9.5306e-07	1331.8	266.5	1.8686e-06	1.6171e-06	330.16	91.75	72.694	21.274	1.9958e-06	29.34	6.9459e-05	6.7709e-05	1.8366e-05	1034	7.3115e-07	7.0819e-07	1234.4	244.9	7.149e-07	7.0522e-07	290.2	83.098	64.751	19.408	6.9707e-07	26.247	-50.772	-46.415	147.027	-57.718	49.923	-15.532	-58.108	-51.013	284.309	-50.276	-51.395	-44.633	-44.471	-37.811	49.525	-38.054	-8191	255	
283.813	1	1	0	0	0.10987	0.24828	0.097476	0.15041	0.093403	0.16455	0.033485	0.10278	0.10301	0.10948	0.15685	0.16856	0.11249	0.11363	0.24568	0.17457	-2.3167	-2.7021	-2.9604	-2.7333	-3.0542	-2.9792	-2.7896	-3.2375	-2.7458	-2.6667	-3.0604	-2.9271	-3.075	-2.9021	-2.7333	-3.0625	-40.573	245.281	131.009	286.390	282.346	285.302	197.804	-41.532	213.393	47.301	261.849	123.327	23.668	230.855	3.295	256.149	0.00023169	0.00049015	6.0337e-05	1254.9	1.6116e-06	5.1638e-06	1327.8	264.46	3.6622e-06	3.679e-06	328.49	91.238	72.783	21.171	1.96e-06	29.27	6.5985e-05	6.3365e-05	1.759e-05	1024.3	7.0394e-07	7.0113e-07	1228.8	242.98	7.2018e-07	7.1357e-07	289	82.757	64.65	19.327	6.9921e-07	26.299	-36.094	49.380	2.781	-58.133	130.318	59.662	-57.930	-51.129	71.677	110.491	-51.200	-44.428	-44.310	-37.724	105.661	-38.032	-8191	255	
283.909	1	1	0	0	0.11792	0.13022	0.14015	0.14657	0.13636	0.11275	0.079619	0.23307	0.10773	0.11789	0.091916	0.13839	0.22066	0.33489	0.14046	0.11042	-2.3729	-2.6937	-3.0792	-2.8583	-2.7958	-2.8917	-2.8312	-3.0292	-2.9604	-2.8958	-2.9542	-2.8792	-2.9042	-2.8833	-2.7104	-2.8833	41.007	210.991	28.973	34.618	0.859	211.207	236.451	227.931	163.873	104.750	-65.836	214.448	-2.646	285.756	39.371	168.247	0.00025459	0.00027567	6.4706e-06	1258.5	1.0295e-06	1.0634e-06	1310.4	259.23	3.1753e-06	6.224e-06	322.53	89.162	70.46	20.538	2.5497e-06	28.668	6.6059e-05	6.4367e-05	1.7696e-05	1020.6	6.9027e-07	6.733e-07	1212.2	238.9	6.6463e-07	6.5161e-07	283.47	80.863	62.907	18.822	6.4378e-07	25.789	-41.298	48.630	161.882	-58.279	33.627	284.441	-58.012	-51.065	-68.195	77.166	-51.404	-44.571	-44.398	-37.862	49.960	-38.081	-8191	255	
284.005	1	1	0	0	0.045753	0.26095	0.13164	0.20771	0.19607	0.37815	0.37775	0.080398	0.1379	0.24027	0.11431	0.15843	0.22755	0.19816	0.37589	0.046845	-2.3417	-2.8125	-3.0521	-2.7792	-2.8292	-3.0833	-2.8792	-3.2292	-2.6937	-2.7687	-3.1396	-2.8771	-2.9458	-3.0917	-2.4646	-3	288.441	-61.916	267.377	247.666	31.667	272.200	267.938	-2.716	154.690	149.652	95.222	187.998	289.513	-48.042	-49.333	106.154	0.00016178	0.00014647	4.0119e-05	1226.7	2.5385e-06	1.8683e-06	1298.7	257.34	1.3934e-06	2.8813e-06	322.33	90.03	70.529	20.676	1.8958e-07	28.679	6.166e-05	5.9728e-05	1.6554e-05	998.05	6.5627e-07	6.6643e-07	1201.3	236.29	6.7496e-07	6.8269e-07	282.79	81.056	62.945	18.854	6.9029e-07	25.748	-50.336	62.413	-27.317	-58.207	36.230	34.912	-57.877	-50.786	177.239	56.514	-51.011	-44.957	-44.465	-37.464	24.820	-37.911	-8191	255	
284.126	1	1	0	0	0.081345	0.10078	0.18502	0.19866	0.20962	0.42332	0.16328	0.054595	0.069099	0.22179	0.27372	0.15529	0.07308	0.025132	0.10046	0.076718	-2.4833	-2.6125	-3.1188	-2.8354	-2.8667	-2.9271	-2.9062	-3.2167	-2.9229	-2.7167	-3.0958	-2.8708	-2.65	-3.1063	-2.7667	-2.9167	164.138	176.224	213.258	172.857	254.092	8.723	151.678	62.495	176.317	149.420	256.911	259.993	219.149	23.397	217.688	222.694	0.00019428	0.00020883	4.1479e-05	1241.6	1.3891e-06	3.314e-06	1303.4	256.19	4.266e-06	2.4701e-06	319.75	89.791	70.513	20.458	5.3652e-07	28.586	6.6796e-05	6.4722e-05	1.7976e-05	1005.6	7.1853e-07	7.1034e-07	1203.8	236.61	7.1232e-07	7.0182e-07	281.85	80.949	62.89	18.711	6.8715e-07	25.603	-62.485	-34.885	18.645	-58.168	70.625	44.316	-57.998	-51.092	89.909	37.912	-51.113	-44.790	-44.106	-37.635	105.763	-38.129	-8191	255	
284.222	1	1	0	0	0.1248	0.21946	0.010293	0.070284	0.11352	0.17093	0.21432	0.12567	0.098672	0.23192	0.23791	0.12385	0.11755	0.29299	0.24293	0.18917	-2.4333	-2.5229	-2.8958	-2.9896	-2.8333	-2.8833	-2.7854	-2.95	-3.0062	-2.6042	-3.0604	-2.9104	-2.8187	-2.9708	-2.7146	-3.0333	167.881	-46.161	58.146	226.141	68.421	-63.304	87.572	187.062	107.367	131.630	-37.433	135.884	-34.718	-18.750	166.926	258.411	0.00023395	0.00026863	4.1831e-05	1215	2.6795e-06	1.8216e-06	1287.4	252.19	1.472e-06	2.0108e-06	317.37	88.841	69.651	20.282	2.4866e-06	28.377	6.4137e-05	6.0345e-05	1.6635e-05	991.16	6.554e-07	6.6003e-07	1190.4	232.81	6.525e-07	6.4731e-07	278.7	80.04	62.195	18.521	6.5073e-07	25.432	-46.569	37.130	285.588	-58.321	89.190	21.101	-57.802	-50.756	15.689	78.733	-51.186	-44.360	-44.227	-37.338	28.023	-38.131	-8191	255	
284.294	1	1	0	0	0.054371	0.097214	0.076135	0.21998	0.1828	0.061755	0.11113	0.14635	0.13092	0.088432	0.16899	0.21121	0.26052	0.16145	0.074299	0.15496	-2.7313	-2.6333	-2.6896	-3.0146	-2.8375	-3.1312	-2.975	-2.9958	-3.0396	-2.7292	-3.0438	-2.9	-2.8667	-2.9875	-2.9083	-2.8438	30.381	37.115	33.912	253.825	-49.921	-61.238	153.247	14.670	-42.448	195.298	288.469	-48.693	211.678	189.133	193.197	-26.033	0.00011313	0.00026498	7.8334e-05	1209.4	1.7464e-06	4.9619e-06	1282.6	251.34	2.5489e-06	1.5285e-06	315.74	87.706	69.772	20.137	2.0888e-06	28.312	6.1795e-05	5.9427e-05	1.6343e-05	987.83	6.4296e-07	6.3566e-07	1186.1	231.69	6.4821e-07	6.4132e-07	277.9	79.326	61.945	18.431	6.4607e-07	25.379	240.755	-26.914	-4.878	-57.815	227.536	82.871	-58.073	-50.920	108.520	236.755	-51.325	-44.387	-44.062	-37.265	115.680	-38.285	-8191	255	
284.414	1	1	0	0	0.1798	0.026024	0.12454	0.16996	0.25152	0.19204	0.31762	0.30433	0.15658	0.26702	0.43327	0.027108	0.3723	0.15464	0.020714	0.12277	-2.6104	-2.85	-2.6521	-3.0312	-2.6937	-2.85	-3.0292	-2.9771	-2.9729	-2.8063	-2.7479	-2.9938	-2.5479	-3.05	-2.7708	-2.7667	213.317	94.827	145.180	216.729	2.277	146.915	-63.966	-62.254	172.799	-45.496	246.577	8.157	-42.226	261.851	-39.337	215.988	7.1188e-05	0.00011501	6.7771e-05	1211.1	1.6316e-06	8.6167e-07	1286.3	252.92	1.912e-06	1.2481e-06	316.59	88.296	70.073	20.365	1.0486e-06	28.386	6.2108e-05	5.8497e-05	1.6515e-05	986.34	6.5267e-07	6.466e-07	1188.2	232.21	6.6504e-07	6.5967e-07	278.2	79.765	62.089	18.484	6.5318e-07	25.41	-13.028	-0.379	10.065	-58.012	72.328	127.103	-57.964	-50.742	42.583	124.757	-51.316	-44.802	-44.119	-37.339	22.557	-37.948	-8191	255	
284.510	1	1	0	0	0.15956	0.099221	0.12199	0.11211	0.12457	0.28159	0.1986	0.15418	0.023364	0.16267	0.15495	0.21645	0.32133	0.1129	0.18107	0.29247	-2.6479	-2.7479	-2.7646	-3.1167	-2.8104	-3.0458	-3.2687	-2.5396	-2.9354	-2.7188	-2.7375	-2.9625	-2.6896	-2.9125	-2.8896	-2.7333	129.381	82.788	212.053	278.298	119.633	-47.164	284.189	9.011	152.887	131.818	134.010	280.311	46.445	186.367	150.299	1.508	0.0002305	0.00010666	8.1657e-05	1211.2	3.5169e-06	2.1868e-06	1282.4	252.98	4.1782e-06	1.2751e-06	315.46	87.979	69.828	20.301	5.4854e-06	28.318	6.1175e-05	5.8799e-05	1.6441e-05	988.1	6.4329e-07	6.3501e-07	1188.3	232.09	6.5626e-07	6.3959e-07	277.72	79.468	62.018	18.47	6.3241e-07	25.336	-32.447	17.697	-27.916	-58.007	99.178	86.372	-58.043	-50.938	-0.727	93.757	-51.085	-44.356	-44.282	-37.569	85.797	-38.157	-8191	255	
284.605	1	1	0	0	0.19748	0.036701	0.20745	0.12302	0.25591	0.14633	0.1537	0.27621	0.099454	0.20176	0.17595	0.22948	0.053646	0.18295	0.12213	0.18785	-2.7562	-2.7542	-2.7229	-3.1604	-2.5708	-3.0208	-3.1708	-2.7479	-2.95	-2.9417	-2.9125	-3.0979	-2.7229	-2.8	-2.7667	-2.6688	211.925	82.249	240.698	223.366	104.322	82.162	194.019	215.955	-21.839	224.829	215.867	-46.936	192.682	169.321	184.473	187.806	0.00017489	0.00038189	9.3008e-05	1212.1	2.8014e-06	1.8799e-06	1282.7	251.9	1.8896e-06	3.1645e-06	314.45	87.398	69.442	20.184	1.3932e-06	28.078	6.0158e-05	5.704e-05	1.6028e-05	982.23	6.3978e-07	6.1758e-07	1182	231.33	6.3729e-07	6.3189e-07	276.48	79.123	61.73	18.402	6.4666e-07	25.241	-46.024	34.177	41.956	-58.059	119.309	83.779	-57.952	-51.040	38.758	41.343	-51.299	-44.293	-44.206	-37.614	-28.224	-38.446	-8191	255	
284.703	1	1	0	0	0.14378	0.10911	0.13331	0.12158	0.36998	0.26956	0.13777	0.1891	0.36195	0.048056	0.19583	0.17369	0.093012	0.1069	0.14545	0.20635	-2.5062	-2.6521	-2.8229	-3.1375	-2.8	-2.9062	-3.1146	-2.6063	-2.6896	-2.7188	-2.8792	-2.9958	-2.6646	-2.8271	-2.8917	-2.7229	225.500	90.205	259.074	-44.534	82.364	269.361	274.708	123.786	31.737	43.051	174.881	21.170	-50.043	98.118	132.050	-1.121	0.00021926	0.00021375	2.5167e-05	1199.6	1.6934e-06	2.9233e-06	1267.7	250.42	1.6431e-06	2.7084e-06	314.51	87.813	69.109	20.29	2.2013e-06	28.268	6.177e-05	5.9507e-05	1.6668e-05	976.24	6.5556e-07	6.576e-07	1173.5	230.35	6.7435e-07	6.6677e-07	276.39	79.335	61.633	18.459	6.9782e-07	25.345	-43.880	4.770	63.492	-58.077	13.765	78.509	-57.969	-50.872	-35.807	33.927	-51.120	-44.575	-43.937	-37.526	17.099	-38.482	-8191	255	
284.821	1	1	0	0	0.13533	0.16626	0.18206	0.13684	0.16933	0.16204	0.23981	0.17447	0.18642	0.1025	0.10746	0.32429	0.16208	0.35907	0.19908	0.18316	-2.5187	-2.9188	-2.7958	-2.8833	-2.6333	-3.0021	-3.0375	-2.8937	-3.1146	-2.8646	-2.6667	-2.9604	-2.8417	-2.7229	-3.1312	-2.7812	96.378	194.067	-5.041	78.938	8.281	-66.687	154.845	76.386	283.426	63.568	-11.521	275.309	168.754	-48.973	74.018	202.515	0.000161	0.0001422	4.9582e-05	1199.7	1.7553e-06	6.6501e-07	1275.1	251.15	4.4368e-06	3.3557e-06	313.03	88.273	69.682	20.231	2.6263e-06	28.174	6.6006e-05	6.3718e-05	1.7939e-05	981.99	7.0536e-07	7.0011e-07	1179.6	231.56	7.1189e-07	7.0497e-07	277.14	79.539	62.068	18.522	6.9935e-07	25.394	-20.901	-52.509	-25.272	-58.173	26.352	108.353	-57.801	-50.871	-56.087	66.130	-51.163	-44.225	-43.986	-37.367	265.331	-38.275	-8191	255	
284.918	1	1	0	0	0.17408	0.30607	0.25948	0.084622	0.17177	0.1168	0.21413	0.19004	0.15825	0.25498	0.097783	0.069573	0.10029	0.16669	0.012722	0.05887	-2.4083	-2.8833	-2.7604	-2.9	-2.6292	-2.7875	-3.1771	-2.8563	-3.1792	-2.9521	-2.7062	-3.1917	-2.9479	-2.7083	-3.0542	-2.5938	186.238	65.882	185.644	21.331	-61.371	285.926	237.839	274.450	279.857	200.149	211.527	126.918	284.218	199.607	180.153	184.096	0.00021292	8.4705e-05	6.7983e-05	1201	2.2135e-06	3.4645e-06	1283.7	252.25	2.9324e-06	1.7118e-06	316.61	87.835	69.849	20.395	3.3124e-06	28.47	6.6857e-05	6.561e-05	1.8175e-05	985.65	7.1335e-07	7.2689e-07	1188.5	232.14	7.3893e-07	7.307e-07	278.76	80.001	62.465	18.688	7.5934e-07	25.618	-62.928	5.054	-9.233	-57.876	140.074	58.171	-57.897	-50.785	190.251	6.196	-51.205	-44.552	-44.261	-37.793	15.341	-38.178	-8191	255	
285.014	1	1	0	0	0.18021	0.21455	0.15781	0.31123	0.3002	0.21139	0.27666	0.32061	0.11074	0.11875	0.34238	0.16536	0.25116	0.16914	0.098255	0.31198	-2.4062	-2.8583	-2.6167	-3	-2.9021	-2.5375	-3.0833	-3.0979	-2.7854	-3.0042	-2.8604	-3.025	-3.0187	-2.7375	-2.9521	-2.9313	161.130	-7.834	99.024	-58.910	287.113	283.730	208.851	231.080	-59.671	98.779	272.946	160.067	15.310	265.661	110.936	178.102	0.0002726	0.00032451	5.1727e-05	1214.2	1.5668e-06	8.9212e-07	1282	251.6	7.7634e-07	1.1333e-06	316.79	87.908	70.158	20.295	2.4052e-06	28.579	7.1657e-05	7.0241e-05	1.9496e-05	996.66	7.6489e-07	7.6916e-07	1193.1	233.23	7.7347e-07	7.5941e-07	279.99	80.142	62.645	18.69	7.6024e-07	25.613	-57.229	10.610	-57.506	-57.876	104.134	195.261	-57.891	-50.972	45.389	266.404	-51.005	-44.240	-44.199	-37.683	54.267	-38.104	-8191	255	
285.110	1	1	0	0	0.17737	0.2015	0.17185	0.26254	0.15571	0.22557	0.16756	0.12297	0.18184	0.074324	0.14191	0.11967	0.30007	0.13391	0.18814	0.34321	-2.2896	-2.9313	-2.6854	-3.0438	-2.9771	-2.6729	-3.3271	-2.9021	-2.775	-3.0208	-2.7417	-2.9542	-2.8896	-2.8083	-2.9437	-2.8854	200.592	14.500	50.179	156.222	52.389	274.606	199.400	134.551	-0.429	235.752	20.233	-64.790	19.255	1.534	26.709	257.069	0.00020142	0.00014211	0.00010369	1223.6	1.399e-06	5.4553e-06	1289.3	252.63	6.5177e-07	3.0841e-06	316.38	88.835	69.869	20.225	2.4022e-06	28.395	7.1653e-05	6.9284e-05	1.9058e-05	997.43	7.5915e-07	7.4638e-07	1194.8	233.5	7.5683e-07	7.4296e-07	279.69	80.28	62.647	18.606	7.4535e-07	25.579	-50.036	231.308	69.357	-58.076	126.656	4.920	-57.866	-51.018	13.207	80.918	-51.040	-44.418	-44.102	-37.632	82.657	-37.555	-8191	255	
285.206	1	1	0	0	0.24897	0.036239	0.097276	0.055105	0.016288	0.23393	0.15835	0.14026	0.10201	0.092013	0.098436	0.20995	0.24222	0.069063	0.15509	0.19731	-2.5167	-2.925	-2.825	-2.8792	-2.9938	-2.6708	-3.2125	-2.8688	-2.7625	-3.1083	-2.6604	-2.9396	-3.1104	-2.7125	-3.0708	-2.8479	130.115	30.276	-51.793	247.249	248.549	1.941	-36.048	171.100	-63.589	289.614	221.734	254.206	146.218	265.329	278.685	169.918	0.00034095	0.00013124	6.31e-05	1212.2	3.5221e-06	1.5544e-06	1283.1	253.08	1.4382e-06	2.2738e-06	317.47	88.754	69.626	20.375	3.8712e-06	28.527	7.1471e-05	6.9048e-05	1.943e-05	993.89	7.6832e-07	7.5756e-07	1191.4	233.25	7.7735e-07	7.6559e-07	280.05	80.388	62.532	18.707	7.9569e-07	25.683	-68.209	-50.472	21.237	-57.950	33.320	128.028	-57.722	-50.983	-47.101	50.519	-51.112	-44.514	-44.067	-37.616	10.871	-37.762	-8191	255	
285.302	1	1	0	0	0.11482	0.19849	0.061496	0.10425	0.32463	0.21303	0.24348	0.19162	0.11909	0.26163	0.19093	0.22892	0.10889	0.1751	0.097836	0.12398	-2.3875	-2.9875	-2.7271	-2.9708	-3.0479	-2.7125	-3.2604	-2.8729	-3.0292	-3.1188	-2.8542	-3.0021	-3.0792	-2.8042	-3.1583	-2.9688	-39.782	188.019	31.130	43.022	85.839	189.909	-61.805	29.722	-30.332	227.617	233.862	220.543	67.559	288.641	259.923	57.872	0.00020688	0.00024648	7.3139e-05	1212.5	3.6466e-06	3.1954e-06	1293.8	255.12	1.4519e-06	5.4753e-07	319.2	89.232	70.605	20.572	2.2101e-06	28.734	7.5407e-05	7.3627e-05	2.0743e-05	1001.4	8.5412e-07	8.4721e-07	1200.7	235.35	9.0266e-07	8.9951e-07	283.39	81.458	63.633	19.021	9.2988e-07	26.035	-51.744	16.834	1.544	-58.260	125.797	-1.399	-57.689	-51.063	-43.325	103.930	-50.976	-44.385	-44.104	-38.062	85.522	-38.437	-8191	255	
285.423	1	1	0	0	0.14981	0.071797	0.11473	0.15221	0.37263	0.064076	0.4258	0.19926	0.05516	0.18593	0.119	0.11973	0.057314	0.11917	0.13065	0.30633	-2.4	-3.0271	-2.6875	-2.8229	-3.0271	-2.9125	-3.2188	-2.8438	-2.7771	-3.0542	-2.8208	-2.675	-3.0729	-2.9229	-2.9958	-3.1083	188.503	-35.069	181.874	232.154	72.716	133.478	239.588	103.639	187.378	246.623	282.026	-26.650	289.198	225.238	122.940	244.886	0.00021161	0.00036687	3.7681e-05	1236.1	3.4947e-06	2.6667e-06	1306	256.94	4.4566e-06	2.1935e-06	320.84	89.797	71.119	20.376	3.9826e-06	28.817	8.6881e-05	8.6243e-05	2.3964e-05	1018	9.5939e-07	9.5197e-07	1211.2	238.19	9.6493e-07	9.5371e-07	285.12	81.676	63.952	19	9.0716e-07	26.154	-55.675	20.400	0.055	-57.663	187.027	64.242	-57.776	-51.020	-59.239	36.116	-51.464	-44.948	-44.430	-37.576	17.651	-37.783	-8191	255	
285.517	1	1	0	0	0.28357	0.057232	0.092585	0.27922	0.20039	0.1037	0.19723	0.17297	0.099554	0.063952	0.22249	0.27759	0.27521	0.12855	0.183	0.21398	-2.6542	-3.0062	-2.5229	-2.8583	-3.2354	-2.8229	-3.0625	-2.9292	-2.7167	-3.0396	-2.9104	-2.9542	-3.3479	-2.9813	-2.6813	-3.0625	101.245	78.209	183.011	226.024	5.485	62.356	194.629	220.433	69.810	242.049	259.728	-55.998	276.260	38.956	254.803	85.328	0.00015461	0.00028866	4.6838e-05	1224.5	1.0482e-06	5.34e-06	1304.1	256.96	3.1727e-06	4.2895e-06	320.72	89.667	70.69	20.701	2.4661e-06	28.752	8.5357e-05	8.359e-05	2.3032e-05	1013.9	9.0465e-07	8.9918e-07	1211.7	237.58	9.3217e-07	9.0257e-07	284.73	81.712	63.908	19.058	9.0797e-07	26.115	-37.398	-15.320	189.289	-58.443	108.190	66.931	-57.648	-50.939	99.738	1.210	-51.601	-44.568	-44.091	-37.494	99.703	-38.248	-8191	255	
285.591	1	1	0	0	0.22316	0.10076	0.086256	0.19657	0.16109	0.18146	0.2981	0.12314	0.49976	0.20282	0.038772	0.087149	0.18805	0.12499	0.2038	0.16065	-2.2458	-3.1583	-2.7875	-2.8917	-3.1021	-2.9083	-3.0083	-3.2542	-2.8958	-2.9708	-2.9688	-2.7854	-3.1271	-2.8021	-2.8438	-3.0563	100.417	180.404	270.409	148.064	117.600	-47.232	229.318	212.325	82.081	248.109	94.323	18.753	14.420	50.820	57.575	192.733	0.00028376	0.00038573	2.8667e-05	1228.5	2.9926e-06	3.4102e-06	1301.6	257.1	3.1432e-06	3.7816e-06	320.98	89.775	70.888	20.627	1.0622e-06	28.823	8.6437e-05	8.3492e-05	2.3075e-05	1014.4	9.0737e-07	8.9452e-07	1210.1	237.52	9.0671e-07	8.808e-07	284.39	81.69	63.814	19.018	8.8445e-07	26.076	270.529	41.215	52.128	-57.975	52.740	29.114	-57.854	-50.791	85.977	69.673	-51.133	-44.818	-44.291	-37.739	161.472	-38.416	-8191	255	
285.687	1	1	0	0	0.10338	0.12175	0.092971	0.099092	0.053577	0.2791	0.11967	0.15897	0.14144	0.14695	0.055109	0.27885	0.21905	0.1669	0.21768	0.10645	-2.2062	-3.0771	-2.7938	-2.5646	-2.9604	-2.7771	-2.8896	-3.1521	-2.6688	-3.0583	-3.0875	-2.9313	-2.8229	-2.7833	-2.8688	-3.05	286.241	-37.245	200.146	-49.858	-31.762	147.017	197.445	200.117	-59.203	59.764	-50.238	229.219	270.460	242.642	47.170	49.045	0.00025824	0.00039657	2.7386e-05	1223.8	2.6103e-06	3.7698e-06	1307.2	256.71	3.4969e-06	2.9591e-06	320.66	89.827	70.804	20.654	2.2853e-06	28.496	8.3173e-05	8.0047e-05	2.2551e-05	1010.9	8.7764e-07	8.6121e-07	1209.9	237.21	8.7987e-07	8.7034e-07	283.84	81.685	63.603	18.976	8.8016e-07	25.921	-51.919	17.529	34.062	-58.224	52.857	-3.522	-57.885	-50.858	48.064	17.890	-51.183	-44.722	-44.337	-37.552	25.768	-38.704	-8191	255	
285.806	1	1	0	0	0.12849	0.14191	0.12372	0.083442	0.045049	0.12447	0.26065	0.20299	0.2342	0.16155	0.33458	0.24597	0.17248	0.264	0.18124	0.22066	-2.3729	-2.9208	-3.0583	-2.7521	-3.0604	-2.7792	-2.8729	-3.1146	-2.8646	-2.9562	-2.9917	-2.55	-3.15	-2.7958	-2.5187	-3.0771	129.080	251.465	71.287	15.391	-23.227	-3.628	118.726	248.523	244.849	84.792	145.612	278.355	-48.508	-39.113	91.272	-0.722	9.4521e-05	0.00018342	2.7337e-05	1228.3	3.4496e-06	4.9999e-06	1295.5	255.87	1.1467e-06	1.8948e-06	319.36	89.161	70.255	20.557	2.2628e-06	28.59	8.172e-05	8.0389e-05	2.2167e-05	1008	8.6612e-07	8.7584e-07	1202.7	236.51	8.6738e-07	8.6737e-07	283.19	81.074	63.411	18.874	8.623e-07	25.927	-54.284	20.620	-66.831	-57.948	15.592	65.777	-57.654	-50.887	239.060	44.589	-51.263	-44.712	-44.080	-37.542	94.252	-38.194	-8191	255	
285.902	1	1	0	0	0.02768	0.15594	0.097182	0.11279	0.26462	0.10328	0.28617	0.097108	0.24099	0.15621	0.26746	0.091958	0.15527	0.23907	0.18924	0.2489	-2.3729	-2.7417	-2.9042	-2.8417	-3.0208	-2.7521	-2.6646	-3.0812	-2.9979	-2.6979	-2.9792	-2.9229	-2.9604	-2.7062	-2.675	-3.1	197.197	199.750	-49.013	103.423	202.807	52.155	217.630	144.470	-5.345	115.438	251.494	-12.391	191.721	221.336	257.916	252.224	0.00029488	0.00048165	9.2579e-05	1222.9	2.8606e-06	4.3019e-06	1291.5	255.21	3.4506e-06	3.3017e-06	317.32	88.497	70.862	20.341	1.17e-06	28.478	7.8314e-05	7.7183e-05	2.1297e-05	1003.7	8.3099e-07	8.2013e-07	1195.9	235.44	8.329e-07	8.2743e-07	281.77	80.595	63.285	18.731	8.341e-07	25.797	-58.061	-26.327	0.279	-57.741	42.069	29.567	-57.728	-50.950	88.533	82.614	-51.074	-44.465	-44.163	-37.538	80.509	-37.874	-8191	255	
285.998	1	1	0	0	0.24738	0.34232	0.081248	0.25596	0.17637	0.066124	0.26966	0.17329	0.195	0.17067	0.19931	0.26254	0.10501	0.14741	0.2628	0.087566	-2.4292	-2.65	-3.075	-2.6125	-2.9396	-2.9854	-2.6083	-3.1521	-2.6188	-2.6104	-3.2917	-2.9313	-2.8542	-2.9104	-2.6458	-3.0042	140.987	236.977	65.513	-13.173	40.432	-66.154	230.014	264.659	180.052	216.855	270.244	286.869	11.462	-54.630	195.196	201.833	0.00028279	0.00037076	7.9232e-05	1215.5	3.2022e-06	4.7773e-06	1285.2	256.11	1.6562e-06	1.2129e-06	316.9	88.653	69.837	20.352	2.5351e-06	28.432	7.692e-05	7.5911e-05	2.0475e-05	997.9	8.0462e-07	8.0179e-07	1194.1	234.65	7.9139e-07	7.9997e-07	280.85	80.407	62.753	18.677	7.8816e-07	25.625	285.404	-19.883	262.622	-57.971	-21.518	28.828	-57.767	-50.872	31.985	31.786	-50.932	-44.265	-43.952	-37.788	58.558	-37.837	-8191	255	
286.094	1	1	0	0	0.2694	0.11681	0.19168	0.019015	0.11123	0.19347	0.2525	0.18115	0.086916	0.25748	0.20779	0.022287	0.18362	0.19078	0.051336	0.24815	-2.0917	-2.75	-3	-2.6854	-2.8417	-3.1604	-3.0083	-3.0042	-2.8688	-2.85	-3.2562	-2.6292	-2.7875	-3.0646	-2.7521	-2.8896	-17.020	25.263	49.914	229.886	237.999	-31.604	263.499	215.759	217.910	43.652	2.377	249.700	254.527	232.410	106.962	210.564	0.00012683	4.3092e-05	8.8491e-05	1210.6	1.1797e-06	3.7107e-06	1281.2	254.02	4.5496e-06	3.8449e-06	316.07	88.648	69.532	20.199	4.4197e-06	28.266	7.3332e-05	7.2195e-05	1.9633e-05	992.64	7.7283e-07	7.7757e-07	1187.7	233.55	7.7366e-07	7.6381e-07	278.95	80.231	62.343	18.541	7.4508e-07	25.432	-39.967	4.972	-61.306	-57.476	80.644	69.774	-57.678	-50.801	27.607	112.828	-51.566	-44.580	-43.845	-37.367	21.590	-37.926	-8191	255	
286.190	1	1	0	0	0.27546	0.10754	0.26855	0.080149	0.093073	0.23237	0.074102	0.18525	0.10185	0.054303	0.078609	0.35561	0.11766	0.14948	0.20461	0.15046	-2.375	-2.6354	-2.9021	-2.7062	-2.6917	-3.1208	-3.0917	-2.8146	-2.6854	-2.7708	-3.0292	-2.8458	-2.7542	-2.9708	-2.6646	-2.9583	260.770	43.288	244.919	205.295	277.623	171.547	193.787	-8.148	-30.100	161.288	-4.253	200.333	238.000	-33.313	106.655	-55.106	0.00016259	0.00018792	8.0875e-05	1200.1	4.9649e-07	4.086e-06	1265	251.65	1.1306e-06	2.6618e-06	314.44	87.332	68.98	20.013	2.904e-06	28.1	6.9592e-05	6.7158e-05	1.8418e-05	980.64	7.1231e-07	7.0374e-07	1175.3	231.17	6.9741e-07	6.8326e-07	275.92	79.081	61.616	18.324	6.7135e-07	25.159	-37.117	39.388	9.348	-58.221	4.822	28.009	-57.829	-50.814	9.770	42.036	-51.149	-44.503	-44.087	-37.279	30.204	-38.095	-8191	255	
286.286	1	1	0	0	0.24544	0.12377	0.19194	0.036994	0.14355	0.072899	0.18055	0.11425	0.021453	0.14598	0.12036	0.23525	0.17701	0.14937	0.22145	0.43528	-2.3833	-2.5896	-3.0417	-2.9313	-2.7646	-2.9333	-2.7438	-2.9917	-2.8958	-2.7687	-3.0396	-2.7646	-2.6271	-2.9083	-2.9396	-2.9562	162.098	264.040	104.629	202.019	-40.588	140.911	215.286	8.873	-34.218	107.019	268.481	171.079	183.533	107.121	-47.582	158.031	0.00011992	0.00031874	5.426e-05	1189.3	1.5538e-06	2.0604e-06	1260.9	250.02	2.3882e-06	2.2023e-06	312.36	87.57	69.016	19.982	3.9327e-06	28.119	6.4452e-05	6.1246e-05	1.6998e-05	971.1	6.8548e-07	6.8782e-07	1168.9	229.92	7.0712e-07	6.9805e-07	275.58	79.108	61.557	18.339	7.0072e-07	25.265	-44.258	38.046	276.387	-58.031	82.602	-39.235	-57.701	-50.541	48.263	-24.626	-50.940	-44.670	-43.781	-37.976	15.880	-38.036	-8191	255	
286.383	1	1	0	0	0.10515	0.17953	0.2393	0.25541	0.027954	0.31331	0.12949	0.27308	0.22119	0.20118	0.073304	0.23487	0.14442	0.25493	0.079029	0.16322	-2.6979	-2.55	-2.7292	-2.6979	-2.8417	-3.0812	-2.8646	-2.8292	-3.1729	-2.6667	-2.8563	-3.0521	-2.6208	-3.1375	-2.7354	-2.9417	-45.776	13.753	75.317	260.169	-41.645	146.475	222.180	261.448	19.436	138.183	160.583	180.645	-10.897	-54.801	256.604	204.967	0.00028024	0.00024032	3.7691e-05	1190.6	1.2966e-06	3.0754e-06	1266.7	250.34	4.2778e-06	2.1634e-06	314.77	87.149	69.008	20.1	3.6404e-06	28.037	6.6584e-05	6.4797e-05	1.7812e-05	972.35	7.1383e-07	6.9689e-07	1171.1	229.85	6.93e-07	6.933e-07	276.28	79.096	61.556	18.364	6.8774e-07	25.25	288.530	15.071	21.074	-57.913	32.470	149.618	-57.802	-50.642	96.104	27.962	-51.106	-44.569	-44.264	-37.380	-20.953	-38.054	-8191	255	
286.503	1	1	0	0	0.19176	0.1744	0.063402	0.17256	0.10372	0.18504	0.45756	0.16537	0.097067	0.12468	0.15153	0.36263	0.1894	0.16207	0.44726	0.12584	-2.4062	-2.5583	-2.9458	-3.0625	-2.7333	-3.025	-2.9562	-2.8792	-3.1188	-2.8187	-2.975	-3.1104	-2.6937	-2.8937	-2.7833	-3.0083	218.864	80.565	266.334	110.645	75.076	35.908	212.641	278.651	-34.586	166.145	234.718	213.673	-31.627	248.869	276.748	9.476	0.00014924	0.00015598	1.5333e-05	1189.2	1.0212e-06	2.849e-06	1259.3	249.79	2.5042e-06	1.5264e-06	311.73	87.137	69.207	20.077	1.9884e-06	28.042	6.4846e-05	6.3323e-05	1.7449e-05	972.41	6.822e-07	6.7008e-07	1167.3	229.69	6.9456e-07	6.7722e-07	275.15	78.913	61.574	18.365	6.976e-07	25.156	-64.152	35.572	57.665	-57.830	144.229	96.780	-57.872	-50.715	-12.064	55.105	-51.162	-44.181	-44.155	-37.530	-18.972	-38.068	-8191	255	
286.598	1	1	0	0	0.29831	0.26343	0.27279	0.21102	0.15687	0.093821	0.43588	0.27843	0.27458	0.086121	0.24602	0.094764	0.20282	0.18034	0.18907	0.061624	-2.3542	-2.5917	-2.8	-3.0667	-2.7062	-2.8375	-2.975	-2.8833	-3.0292	-2.9104	-2.9813	-3.1146	-2.5729	-3.1229	-3.0354	-2.7667	142.964	158.837	215.013	174.597	22.083	6.512	183.338	281.516	2.200	159.557	140.993	104.599	188.690	205.120	166.870	243.855	0.00015052	0.00015946	2.1758e-05	1187.9	5.8516e-07	7.227e-07	1257.2	248.76	1.6624e-06	1.2664e-06	313.12	87.52	68.587	20.014	1.1512e-06	28.064	6.5752e-05	6.2783e-05	1.7661e-05	971.46	6.926e-07	6.8749e-07	1164.9	229.56	6.8605e-07	6.7471e-07	274.9	78.844	61.29	18.274	6.6469e-07	25.125	-55.633	-50.560	-33.596	-58.197	175.563	174.056	-57.931	-50.764	39.153	1.088	-50.961	-44.365	-44.447	-37.525	-8.627	-37.455	-8191	255	
286.696	1	1	0	0	0.22845	0.27884	0.089636	0.077057	0.12168	0.13932	0.18937	0.20194	0.15271	0.33117	0.15205	0.25504	0.027215	0.24401	0.088246	0.094564	-2.7833	-2.5667	-2.6542	-2.7021	-2.6813	-3.0187	-3.1542	-2.8625	-3.0083	-2.9229	-2.8937	-2.9458	-2.9729	-3.0812	-2.9437	-2.7458	56.413	57.591	99.363	16.551	127.080	243.975	228.278	203.748	-4.089	183.100	223.634	260.867	199.044	184.984	17.611	260.247	0.00013741	7.5924e-05	9.4125e-05	1182.7	1.0804e-06	3.2056e-06	1259.1	249.12	2.4496e-06	2.1161e-06	311.48	87.198	69.018	20.041	5.6792e-06	28.098	6.2867e-05	6.0458e-05	1.6988e-05	965.95	6.7934e-07	6.7515e-07	1164.8	229.47	6.9047e-07	6.8832e-07	274.53	78.955	61.596	18.33	7.1152e-07	25.227	275.947	10.568	34.872	-57.750	219.534	101.770	-57.756	-50.949	269.473	38.133	-51.265	-44.536	-44.121	-37.397	28.146	-37.820	-8191	255	
286.814	1	1	0	0	0.10049	0.15942	0.2258	0.21876	0.030953	0.08174	0.22434	0.25791	0.087494	0.044423	0.049446	0.19265	0.27745	0.16831	0.20996	0.24675	-2.7792	-2.9292	-2.7438	-2.9125	-2.8083	-2.9042	-3.1083	-2.7104	-3.0146	-2.8271	-2.8417	-3.0687	-2.8021	-2.8563	-2.7729	-2.8333	268.575	-42.310	227.376	23.566	-36.534	-20.433	224.347	41.439	-0.199	7.412	184.975	-25.950	277.809	230.974	15.214	184.751	0.00013554	0.00018461	4.3667e-05	1187.5	1.7006e-06	4.0141e-06	1265.6	250.39	6.7891e-07	1.6841e-06	313.35	88.076	69.341	20.211	2.5535e-06	28.181	6.7093e-05	6.629e-05	1.8308e-05	973.47	7.4227e-07	7.3386e-07	1172.1	230.95	7.6247e-07	7.7006e-07	277	79.72	61.859	18.528	7.7697e-07	25.426	-45.332	223.660	216.130	-57.869	89.004	117.355	-57.877	-50.834	-15.667	99.949	-50.922	-44.392	-44.325	-37.461	174.331	-38.078	-8191	255	
286.886	1	1	0	0	0.10309	0.06805	0.15883	0.16829	0.10064	0.22764	0.27704	0.080288	0.25124	0.19874	0.1558	0.13398	0.14958	0.13138	0.11663	0.11539	-2.6271	-2.8271	-2.5979	-3.0104	-2.7917	-3.0542	-3.1917	-2.6396	-2.7396	-3.0125	-2.7104	-3.1167	-2.7729	-2.9021	-3.0292	-2.8812	4.822	-60.616	88.987	-33.638	9.773	-10.035	263.245	200.645	251.249	19.853	279.892	-60.288	42.956	157.258	172.581	183.818	0.00027332	0.0002904	6.8352e-05	1187.7	1.139e-06	3.112e-06	1262.3	250.55	2.9944e-06	2.1676e-06	315.88	88.035	69.329	20.248	2.5291e-06	28.251	7.3409e-05	7.1056e-05	1.9723e-05	976.69	7.7427e-07	7.7806e-07	1172	231.55	7.6617e-07	7.7837e-07	278.28	79.805	62.19	18.557	7.6246e-07	25.455	-48.695	0.003	-6.937	-58.172	153.802	39.465	-57.706	-50.599	93.968	120.318	-51.078	-44.504	-44.176	-37.660	1.413	-38.183	-8191	255	
286.982	1	1	0	0	0.44119	0.16633	0.078463	0.033863	0.15794	0.18193	0.1666	0.17144	0.13749	0.20626	0.12082	0.18163	0.13765	0.2715	0.088711	0.20238	-2.4	-2.95	-2.6688	-2.9	-2.6604	-2.8542	-3.2042	-2.9688	-2.8646	-2.8854	-2.5146	-2.7896	-2.5917	-2.7042	-3.1063	-2.7604	-21.126	-65.080	26.671	200.663	79.406	13.485	266.475	85.862	251.983	-58.413	166.611	208.941	165.652	2.749	-40.833	49.124	0.00017593	0.0002362	3.7366e-05	1201.3	3.9338e-06	1.7184e-06	1269.1	251.16	1.7164e-06	4.0801e-07	314.84	88.186	69.173	20.195	2.4459e-07	28.134	7.2389e-05	6.9931e-05	1.9426e-05	979.24	7.7124e-07	7.7269e-07	1174.6	231.91	7.6725e-07	7.6577e-07	278.37	79.773	61.949	18.564	7.5627e-07	25.451	283.850	29.949	-55.909	-58.009	61.436	106.177	-57.935	-50.559	-8.418	-38.022	-51.165	-44.878	-43.970	-37.722	88.551	-37.729	-8191	255	
287.103	1	1	0	0	0.21856	0.2233	0.074112	0.22477	0.14786	0.27394	0.11181	0.19078	0.38301	0.078789	0.13688	0.21471	0.21961	0.25168	0.14663	0.1335	-2.3375	-3.0333	-2.7854	-3.1188	-2.7208	-2.5521	-3.2958	-2.9458	-2.8229	-3.0958	-2.7458	-2.9938	-2.8688	-2.8125	-3.1312	-2.9125	-15.443	187.932	85.588	-27.810	-45.721	118.674	128.290	233.816	149.194	233.544	71.810	-13.315	263.985	264.935	233.247	13.403	0.00015437	0.00020045	0.00010106	1203.3	4.0574e-06	1.2192e-06	1270.3	252.78	2.5454e-06	2.9322e-06	317.62	88.589	69.977	20.391	1.9975e-06	28.48	7.2286e-05	7.0789e-05	1.9977e-05	985.19	8.0199e-07	8.1063e-07	1179	232.75	8.2922e-07	8.2276e-07	280.38	80.424	62.907	18.783	8.4628e-07	25.712	-65.802	-18.305	-17.290	-58.058	134.775	68.131	-57.777	-50.772	7.499	-6.694	-51.280	-44.624	-43.868	-37.240	140.343	-37.770	-8191	255	
287.199	1	1	0	0	0.15799	0.11734	0.19243	0.091283	0.2824	0.11929	0.10041	0.15279	0.19388	0.38803	0.43117	0.15791	0.21867	0.29408	0.0308	0.062933	-2.3063	-2.8521	-2.5812	-3.0417	-2.8542	-2.6396	-3.1583	-2.8937	-3.0062	-2.8688	-2.8146	-3.2083	-2.8854	-2.6188	-2.9167	-2.9271	279.232	-60.088	166.658	247.133	286.975	289.747	119.774	155.890	245.113	266.203	-49.635	275.949	-46.593	254.653	118.650	92.598	0.00020958	0.00020248	4.9952e-05	1206.2	1.2615e-06	3.2871e-06	1273.8	253.87	2.8569e-06	1.207e-06	317.2	88.69	70.587	20.556	2.9376e-06	28.55	8.0857e-05	7.7867e-05	2.1948e-05	994.1	8.7576e-07	8.8326e-07	1186.5	235.14	8.8747e-07	8.7987e-07	282.14	80.739	63.188	18.907	8.8112e-07	25.905	-33.201	207.053	32.574	-58.428	71.967	103.575	-58.043	-51.021	-18.768	96.140	-51.117	-44.322	-44.073	-37.472	129.343	-38.088	-8191	255	
287.295	1	1	0	0	0.282	0.034199	0.085485	0.15431	0.20152	0.14514	0.2963	0.10265	0.43349	0.097443	0.13362	0.28978	0.2193	0.1616	0.041344	0.15933	-2.2333	-2.8604	-2.8167	-3.0417	-2.9271	-2.6562	-3.2562	-2.8292	-2.6167	-2.9646	-2.9875	-2.7417	-3.0375	-2.6979	-2.9688	-2.8833	192.142	242.380	196.342	226.876	284.177	275.125	225.277	188.320	52.424	183.323	-53.042	259.869	150.745	276.245	-13.922	250.885	0.00030992	0.00028795	6.7973e-05	1204.3	1.7296e-06	1.5509e-06	1282.6	254.97	3.2363e-06	3.1973e-06	319.33	88.852	70.303	20.569	9.6852e-07	28.611	8.3646e-05	8.0178e-05	2.2136e-05	997.18	8.8676e-07	8.6728e-07	1189.2	235.67	9.0309e-07	9.0325e-07	282.61	81.106	63.413	18.974	9.2477e-07	26.001	-59.906	-7.311	-35.642	-58.401	44.606	15.039	-57.909	-50.834	67.777	15.482	-51.054	-44.633	-44.383	-37.683	154.998	-37.984	-8191	255	
287.391	1	1	0	0	0.035998	0.16098	0.17368	0.091221	0.15271	0.45305	0.084957	0.081111	0.10024	0.092755	0.054446	0.093864	0.1006	0.25789	0.099458	0.14711	-2.3083	-3.0125	-2.575	-2.6479	-3.0417	-3.0438	-3.0687	-2.9417	-2.6875	-3.0854	-2.9813	-2.8042	-2.9521	-2.7812	-3.0896	-3.1083	277.134	-15.758	105.173	237.919	197.922	13.430	195.199	141.516	180.811	221.439	240.753	220.546	238.072	236.933	86.752	-63.804	0.00030824	0.0002779	0.00011648	1219.8	2.002e-06	2.8722e-06	1281.1	255.25	3.6466e-06	3.5034e-06	322.18	88.555	70.452	20.519	2.9576e-06	28.602	8.8431e-05	8.5976e-05	2.3559e-05	1004.1	9.5293e-07	9.4313e-07	1192.4	236.96	9.4962e-07	9.3464e-07	284.36	81.19	63.424	18.97	9.409e-07	26.029	-38.174	-30.887	-48.795	-57.885	75.443	-12.687	-57.941	-50.910	287.603	58.037	-51.388	-44.743	-43.754	-37.627	-36.739	-37.884	-8191	255	
287.487	1	1	0	0	0.31048	0.1112	0.051522	0.22758	0.1551	0.11115	0.1612	0.22459	0.084904	0.05495	0.23363	0.27004	0.10268	0.16067	0.059643	0.13613	-2.0708	-2.9708	-2.8625	-3.0062	-2.9396	-2.5896	-3.2083	-3.05	-2.6875	-3.0271	-3.0229	-2.8	-3.0271	-2.7583	-3.2208	-3.1521	136.646	-25.568	-54.240	64.869	174.753	247.005	190.421	18.964	34.663	289.803	203.097	62.833	27.401	-45.627	143.946	-40.552	0.00014841	0.00046189	5.8363e-05	1206.6	5.7251e-07	1.4191e-06	1284.9	255.66	2.0804e-06	2.009e-06	320.58	89.282	70.998	20.679	1.7151e-06	28.667	8.9509e-05	8.641e-05	2.3779e-05	1003.2	9.4482e-07	9.4196e-07	1193.9	237.09	9.5173e-07	9.4377e-07	283.63	81.442	63.795	19.051	9.6023e-07	26.103	-31.777	-20.969	281.360	-57.990	54.670	134.241	-57.896	-50.846	45.847	110.322	-51.410	-44.487	-44.512	-37.425	39.406	-38.075	-8191	255	
287.584	1	1	0	0	0.10855	0.20564	0.060453	0.24169	0.067454	0.15776	0.21344	0.10556	0.11025	0.13767	0.30624	0.016664	0.20394	0.22421	0.13626	0.35726	-2.2125	-2.8271	-2.8896	-2.8354	-3.05	-2.5854	-3.0604	-3.125	-2.8833	-3.1333	-3.1271	-2.9792	-3.0271	-2.7875	-2.9333	-3.1708	163.653	121.929	61.609	38.212	220.179	207.820	221.338	147.920	215.054	7.829	212.262	25.567	57.164	246.643	-26.166	-34.225	0.00023763	0.00012732	5.0551e-05	1216.9	8.2074e-07	1.9361e-06	1286.5	256.14	2.1401e-06	4.4723e-06	320.16	89.798	70.89	20.598	9.0234e-06	28.926	9.0538e-05	8.8006e-05	2.4388e-05	1003.9	9.6688e-07	9.6694e-07	1196.3	237.39	9.783e-07	9.8225e-07	285.1	81.694	64.037	19.132	1.0362e-06	26.298	-22.974	287.771	-58.192	-58.261	179.346	-47.203	-57.770	-50.928	-0.068	48.591	-50.956	-44.305	-44.330	-37.635	29.591	-38.322	-8191	255	
287.680	1	1	0	0	0.11146	0.055535	0.079953	0.11983	0.078745	0.087374	0.05055	0.20475	0.26181	0.16318	0.18008	0.094591	0.13253	0.26618	0.23095	0.17197	-2.3292	-2.875	-2.7958	-2.825	-3.0292	-2.8229	-2.9729	-2.9854	-2.8396	-3.0354	-3.0187	-2.5771	-3.0104	-2.9896	-2.8333	-2.9979	-20.724	262.353	143.066	139.578	7.289	58.584	237.407	-67.063	52.711	51.293	-8.985	-56.148	-21.103	-63.760	20.252	284.536	0.00033086	0.0003877	7.4919e-05	1218.3	2.4942e-06	2.7616e-06	1288.2	257.77	3.299e-06	9.1693e-07	322.29	89.6	70.984	20.748	4.4544e-06	28.832	9.6827e-05	9.5818e-05	2.7129e-05	1013.4	1.0691e-06	1.056e-06	1200.6	239.54	1.0905e-06	1.0753e-06	287.23	82.283	64.468	19.292	1.1019e-06	26.414	-64.827	9.324	-59.817	-57.959	-6.202	37.035	-57.831	-50.950	236.646	-54.684	-51.271	-44.779	-44.143	-37.409	52.519	-38.220	-8191	255	
287.776	1	1	0	0	0.076841	0.10315	0.24641	0.14497	0.10547	0.12874	0.029371	0.23061	0.15373	0.17075	0.15114	0.2044	0.11241	0.083436	0.14806	0.1307	-2.3833	-3.1875	-2.8167	-2.8146	-2.8375	-2.8729	-2.9271	-3.1396	-2.8271	-2.7625	-3.0375	-2.8083	-3.0125	-2.6937	-2.65	-3.2125	79.274	66.639	151.944	260.019	194.242	217.883	163.893	213.100	277.996	163.751	-42.168	-12.035	170.251	147.424	161.288	188.183	4.9047e-05	0.00023469	0.00010014	1224.5	2.209e-06	8.6664e-07	1294.2	260.49	2.273e-06	5.0378e-06	324.98	90.468	71.609	20.757	2.4358e-06	28.88	0.0001042	0.00010231	2.8783e-05	1021.4	1.1553e-06	1.1427e-06	1206.9	241.9	1.171e-06	1.1474e-06	289.81	82.951	65.19	19.468	1.1894e-06	26.645	-38.547	1.409	-15.589	-58.053	83.375	199.770	-57.787	-50.978	86.526	15.835	-51.475	-44.451	-44.228	-37.853	103.088	-38.559	-8191	255	
287.895	1	1	0	0	0.077869	0.23767	0.034471	0.2437	0.17265	0.19961	0.28975	0.37963	0.07576	0.091913	0.1427	0.096261	0.15389	0.21146	0.10848	0.18832	-2.4604	-2.8667	-3.0333	-2.7083	-3.225	-2.9104	-2.7229	-3.2083	-2.7625	-2.85	-2.9792	-2.8812	-2.9292	-3.0729	-2.7833	-3.1437	4.081	61.493	51.446	240.609	137.141	9.712	175.182	287.158	-2.289	7.581	128.527	235.361	243.027	278.251	258.804	-45.061	0.00011793	0.0004252	5.3572e-05	1233.2	1.1935e-06	1.4355e-06	1298.6	261.19	2.8228e-06	1.2394e-06	324.43	90.512	71.606	20.774	2.5248e-06	29.051	0.00010921	0.00010833	2.9953e-05	1025	1.1783e-06	1.1726e-06	1209.2	242.51	1.1761e-06	1.1613e-06	289.72	83.026	64.924	19.388	1.1312e-06	26.509	-9.928	29.432	22.639	-58.066	83.243	85.451	-57.791	-50.946	276.103	111.856	-50.935	-44.223	-44.281	-37.521	-20.961	-37.980	-8191	255	
287.991	1	1	0	0	0.15989	0.17041	0.16632	0.1019	0.0598	0.2114	0.15869	0.08207	0.041057	0.10589	0.10514	0.069809	0.2285	0.10126	0.073655	0.17313	-2.2229	-2.9417	-3.2396	-3.0687	-2.825	-2.8312	-2.9229	-3.0417	-2.6979	-2.7687	-2.975	-2.9	-3.0458	-3.125	-2.675	-2.9875	48.080	-55.918	54.486	122.779	276.809	249.277	228.186	-17.329	6.831	-52.691	128.942	255.500	132.861	-16.835	191.288	162.012	0.00028041	0.0002564	1.6798e-05	1221.4	3.1187e-06	1.418e-06	1297.1	260.82	7.6922e-07	1.8181e-06	323.13	90.396	71.255	20.906	4.1828e-06	28.909	0.0001034	0.00010285	2.8506e-05	1020.3	1.1176e-06	1.1058e-06	1204.7	242.32	1.1445e-06	1.1436e-06	289.79	82.945	65.021	19.477	1.1611e-06	26.666	-57.091	268.373	235.438	-57.976	135.486	265.305	-57.780	-51.002	175.483	40.821	-50.905	-44.438	-44.092	-37.760	71.824	-38.171	-8191	255	
288.087	1	1	0	0	0.16724	0.24655	0.29404	0.071823	0.19951	0.045188	0.26157	0.11244	0.29247	0.16878	0.15143	0.13213	0.06562	0.11871	0.069049	0.1114	-2.4958	-2.7687	-2.9146	-2.7625	-2.9437	-2.8583	-2.8063	-3.175	-2.725	-2.5833	-3.225	-3.0271	-2.9813	-2.9521	-2.8708	-3.1542	71.720	60.690	228.225	148.165	226.470	97.009	-62.806	101.348	124.372	82.000	223.051	195.886	-39.570	108.015	101.581	133.589	0.00023578	0.00030314	6.0572e-05	1232.9	2.4125e-06	8.4144e-06	1311.9	263.02	3.2148e-06	3.7637e-06	329.34	91.566	72.809	21.09	2.2373e-06	29.227	0.00010968	0.0001071	2.9985e-05	1032.3	1.2158e-06	1.2161e-06	1222.9	245.97	1.2491e-06	1.2455e-06	294.7	84.281	66.306	19.799	1.2675e-06	26.993	-29.606	0.413	126.798	-58.081	87.373	31.808	-57.938	-51.010	127.965	-23.198	-51.236	-45.058	-44.411	-37.816	62.230	-38.232	-8191	255	
288.183	1	1	0	0	0.05756	0.12198	0.15878	0.21487	0.058267	0.1443	0.059593	0.060534	0.14021	0.25124	0.12256	0.14907	0.08938	0.09331	0.22531	0.097177	-2.5083	-2.6583	-3.1396	-2.6917	-2.6708	-2.8417	-2.7729	-3.2	-2.9313	-2.5667	-2.9542	-2.7687	-2.7208	-2.9604	-2.5563	-3.0125	179.261	17.681	3.627	195.972	187.518	130.582	12.231	101.944	12.956	73.660	-40.549	213.861	268.129	286.543	179.866	74.927	0.00029756	0.00019345	4.0739e-05	1235.6	2.5912e-07	3.8049e-06	1314	263.89	3.7446e-06	3.6199e-06	330.21	91.587	72.196	21.15	4.4545e-06	29.231	0.00011813	0.00011583	3.1874e-05	1038	1.2607e-06	1.2445e-06	1224.4	246.48	1.2517e-06	1.2444e-06	294.64	84.161	65.998	19.784	1.2192e-06	26.859	-52.096	280.964	144.370	-58.068	87.424	43.389	-57.936	-51.084	161.353	-35.393	-51.239	-44.559	-44.335	-37.518	67.374	-37.966	-8191	255	
288.279	1	1	0	0	0.09796	0.15254	0.21831	0.15832	0.040221	0.14592	0.23872	0.10712	0.038707	0.19256	0.040627	0.1821	0.13392	0.055657	0.028572	0.28244	-2.4833	-2.675	-2.9146	-2.8438	-2.8792	-3.0687	-2.9729	-2.7667	-2.7208	-2.7542	-2.9229	-2.8354	-2.7917	-3.0146	-2.6958	-2.9437	89.413	-19.016	11.324	0.141	228.940	-7.274	269.068	0.491	128.353	67.977	272.489	5.688	-21.576	207.353	108.582	289.112	0.00024261	0.00021357	3.7071e-05	1232.3	7.8023e-07	1.2442e-06	1299.4	264.31	2.8373e-06	3.6449e-06	327.73	91.662	72.175	20.995	3.7281e-06	29.102	0.00011312	0.00011074	3.0548e-05	1030.4	1.2038e-06	1.2093e-06	1215.2	245.79	1.1881e-06	1.1869e-06	292.74	83.752	65.606	19.608	1.1454e-06	26.695	290.619	260.749	-15.042	-58.187	90.760	273.068	-57.899	-51.051	-50.620	68.185	-51.192	-44.459	-44.384	-38.091	102.267	-38.225	-8191	255	
288.376	1	1	0	0	0.04779	0.18492	0.10089	0.03829	0.067767	0.14815	0.097545	0.083932	0.15411	0.10135	0.15089	0.10083	0.10378	0.016205	0.089671	0.17855	-2.6021	-2.5292	-2.8104	-2.8396	-2.8542	-3.0417	-3.0708	-2.8792	-3.175	-2.7167	-3.0271	-2.7979	-2.9375	-3.1229	-2.7104	-2.8417	-11.684	205.492	58.435	257.398	42.911	-3.535	222.806	58.779	-8.581	173.522	255.931	49.912	179.387	95.930	-42.266	-52.139	0.00030348	0.00010465	1.366e-05	1233.4	3.7063e-06	9.9837e-07	1297.8	262.55	8.9503e-07	1.9674e-06	325.17	91.345	71.692	20.791	4.9439e-06	29.119	0.00010466	0.00010215	2.7978e-05	1021.4	1.0883e-06	1.0517e-06	1205.5	243.59	1.0449e-06	1.022e-06	289.96	82.955	64.955	19.334	9.8647e-07	26.463	-32.650	279.890	-33.259	-58.046	140.079	40.056	-57.821	-50.997	20.762	50.238	-50.924	-44.928	-44.400	-38.003	90.464	-38.057	-8191	255	
288.496	1	1	0	0	0.20785	0.19961	0.18578	0.2522	0.45958	0.072962	0.24239	0.23327	0.10064	0.20301	0.05605	0.059517	0.022347	0.1298	0.28798	0.19659	-2.5167	-2.75	-2.8146	-2.8604	-2.8125	-3.1312	-2.7062	-2.7646	-3.2438	-2.85	-3.0938	-3.0521	-2.6688	-2.9813	-2.9417	-2.8458	32.449	231.725	-7.439	241.700	142.939	-22.125	224.034	268.026	60.357	255.661	39.991	-34.281	160.169	281.438	207.526	263.825	0.00026161	0.00030535	9.1339e-05	1214.6	9.2348e-07	1.9443e-06	1287.5	260.34	2.1692e-06	3.6111e-06	323.17	89.857	71.368	20.623	3.146e-06	28.693	9.1038e-05	8.8534e-05	2.4096e-05	1004.9	9.3024e-07	9.1548e-07	1194.8	240.29	9.0586e-07	8.9282e-07	286.6	81.851	63.903	19.051	8.4099e-07	26.038	285.651	25.749	47.297	-58.109	65.900	-68.268	-57.926	-50.775	144.469	33.405	-51.154	-44.597	-44.279	-37.645	64.229	-37.972	-8191	255	
288.591	1	1	0	0	0.068754	0.16444	0.23267	0.27291	0.26123	0.20944	0.29986	0.26796	0.072815	0.095108	0.20314	0.2044	0.24593	0.051846	0.17898	0.18502	-2.4562	-2.6167	-2.9583	-3.075	-2.6604	-3.175	-3.2729	-2.8083	-2.9146	-2.8729	-2.8063	-3.0271	-2.8292	-2.8229	-2.6937	-2.9396	272.282	-35.698	184.459	256.981	102.729	-48.865	155.351	278.272	280.747	79.727	35.181	180.021	-32.239	29.663	94.004	212.341	0.00029349	0.00013666	0.00012485	1197.9	8.6367e-07	4.361e-06	1266.8	255.59	1.731e-06	9.314e-07	320.13	88.896	69.943	20.414	3.2444e-06	28.584	7.8287e-05	7.5293e-05	2.0556e-05	984.26	7.9808e-07	7.8105e-07	1177.5	236.11	7.7809e-07	7.818e-07	281.95	80.722	62.845	18.765	7.7599e-07	25.815	-38.613	205.723	255.259	-57.997	-60.904	11.796	-57.771	-50.760	73.986	276.179	-51.503	-44.347	-44.467	-37.180	68.982	-38.154	-8191	255	
288.687	1	1	0	0	0.21049	0.24294	0.17336	0.13852	0.23385	0.17709	0.11063	0.1322	0.23554	0.28878	0.032663	0.11843	0.29222	0.14137	0.061901	0.07812	-2.5125	-2.7667	-2.8354	-2.9729	-2.7021	-3.2354	-2.9562	-2.9562	-3.1396	-2.9062	-2.8583	-3.2458	-2.775	-3.0875	-2.7083	-2.875	274.782	182.160	169.073	-21.293	164.788	79.613	-54.244	154.736	9.354	93.500	125.450	55.318	192.159	284.420	29.582	20.544	0.00017005	0.00022628	5.6358e-05	1205.5	5.6654e-06	3.2449e-06	1274.9	257.33	3.2823e-06	2.0071e-06	321.35	89.571	70.332	20.611	2.1012e-06	28.71	7.3185e-05	7.3472e-05	2.0212e-05	985.39	8.0656e-07	7.9526e-07	1180.8	236.99	8.056e-07	8.0764e-07	283.82	81.139	63.186	18.922	8.2817e-07	25.965	-33.617	-8.562	30.570	-57.633	58.464	-34.046	-57.715	-50.809	288.986	82.273	-51.210	-44.490	-43.851	-38.112	89.092	-38.205	-8191	255	
288.783	1	1	0	0	0.050504	0.27057	0.07483	0.13956	0.046195	0.14447	0.37318	0.16087	0.19723	0.21693	0.23148	0.10625	0.11578	0.13883	0.16886	0.026569	-2.575	-2.7792	-2.7542	-2.9813	-2.6688	-3.0563	-3.2229	-2.7	-3.0896	-2.9042	-2.6896	-2.9792	-2.8854	-2.7438	-2.9042	-2.7208	163.335	288.610	17.208	-54.529	-30.396	176.743	185.452	282.936	-58.963	126.082	-58.507	217.105	163.094	74.524	-14.985	-64.544	0.00014784	0.00014431	9.7753e-05	1202.8	1.7312e-06	3.1749e-06	1284.4	258.22	2.1177e-06	5.3461e-06	320.51	89.573	71.358	20.678	3.7867e-06	28.908	7.8462e-05	7.5963e-05	2.1502e-05	992.89	8.5428e-07	8.4558e-07	1188	238.53	8.6316e-07	8.8224e-07	284.98	81.423	63.948	19.081	9.2234e-07	26.207	-31.488	-27.573	284.634	-58.089	-50.686	54.673	-57.793	-50.944	66.633	-6.714	-51.270	-44.427	-44.203	-37.691	54.604	-37.798	-8191	255	
288.879	1	1	0	0	0.057052	0.1179	0.41331	0.14011	0.19371	0.34128	0.18086	0.099081	0.0618	0.14558	0.15067	0.05771	0.31345	0.25315	0.19422	0.11303	-2.5687	-2.7292	-2.8167	-2.9896	-2.5542	-2.9896	-3.3479	-2.6271	-3.1229	-2.9458	-2.7208	-3.1646	-2.8708	-2.9083	-3.1125	-2.8646	43.741	223.639	48.072	180.991	289.414	107.128	188.741	100.630	241.712	76.179	268.254	217.496	265.507	215.685	-25.836	230.153	0.00018617	0.00012528	5.8484e-05	1211.6	4.8428e-07	2.9919e-06	1289.6	260.01	4.2249e-06	2.0192e-06	326.33	90.686	72.468	21.067	1.738e-06	29.194	8.6811e-05	8.6612e-05	2.4578e-05	1004.3	9.9035e-07	9.9407e-07	1199	241.46	1.0425e-06	1.0614e-06	290.02	83.083	65.333	19.597	1.149e-06	26.772	-46.365	-62.688	-7.156	-58.254	120.522	243.241	-57.827	-51.099	114.630	44.510	-51.574	-44.564	-44.542	-37.754	69.915	-38.394	-8191	255	
288.975	1	1	0	0	0.037187	0.12603	0.077024	0.16709	0.099981	0.042304	0.073888	0.24006	0.13943	0.051915	0.13727	0.033374	0.11167	0.06992	0.3847	0.018177	-2.5375	-2.9938	-2.8063	-2.9542	-3.1125	-2.9375	-3.0312	-2.9417	-2.8854	-3.0187	-2.7042	-3.1375	-2.9813	-2.8125	-3.1083	-2.7812	121.184	-22.441	200.645	82.371	-9.809	242.479	55.487	277.277	12.012	18.618	149.576	290.541	-63.419	122.765	-58.119	201.457	0.00011282	0.0003147	8.0397e-05	1239.5	2.5907e-06	2.5623e-06	1311.8	265.76	2.3761e-07	1.9396e-06	327.62	91.806	72.853	21.116	1.9811e-06	29.324	0.00010821	0.00010897	3.0302e-05	1035.5	1.2116e-06	1.2232e-06	1223.9	247.23	1.211e-06	1.205e-06	294.15	84.222	66.265	19.847	1.1973e-06	26.983	-40.333	-10.002	-47.804	-58.247	-9.800	289.280	-57.888	-50.959	-54.205	259.087	-51.481	-44.692	-43.773	-37.623	70.328	-38.211	-8191	255	
289.071	1	1	0	0	0.053829	0.33872	0.081613	0.18461	0.026303	0.16884	0.33802	0.22195	0.056048	0.2291	0.25004	0.090481	0.25253	0.091667	0.20852	0.14412	-2.4292	-3.0146	-2.3708	-3.0438	-2.9729	-2.6625	-3.2521	-2.7333	-2.9437	-3.0979	-2.5167	-2.9354	-2.9021	-2.8521	-3.0125	-2.8937	-45.173	261.492	122.936	200.236	265.720	-2.546	202.320	-3.102	179.077	282.850	-62.743	195.923	186.982	233.218	-5.514	255.737	0.00036414	0.00010537	8.3351e-05	1252.7	1.118e-06	1.199e-06	1314.9	266.37	2.9194e-06	2.1282e-06	330.13	91.804	72.923	21.218	1.2274e-06	29.517	0.00011045	0.00010983	3.0432e-05	1039.2	1.1869e-06	1.1944e-06	1227.6	247.75	1.1612e-06	1.161e-06	295.21	84.279	66.135	19.756	1.1166e-06	26.926	-59.151	153.285	-25.513	-58.290	195.838	185.762	-57.933	-50.974	113.091	-2.050	-51.363	-44.713	-44.288	-38.118	-22.765	-38.107	-8191	255	
289.192	1	1	0	0	0.27418	0.21607	0.14256	0.27931	0.17291	0.16291	0.11065	0.45363	0.20802	0.13549	0.31148	0.073805	0.19475	0.10981	0.16732	0.12378	-2.7042	-2.9	-2.6208	-3.0771	-3.1521	-2.85	-3.1229	-2.9771	-3.0375	-2.9542	-2.9583	-3.0563	-2.8917	-2.6542	-3.1354	-2.6771	-41.405	190.472	240.595	245.819	80.445	206.847	163.935	259.344	249.725	42.355	159.459	181.033	186.621	138.163	221.691	-49.076	0.00026434	0.0001251	7.943e-05	1247.4	4.0976e-06	3.1253e-06	1316.4	265.7	5.5909e-06	8.6138e-07	330.15	91.399	72.898	21.152	9.7863e-07	29.201	0.00010354	0.00010265	2.8516e-05	1034.8	1.1108e-06	1.1148e-06	1225.2	247.13	1.1102e-06	1.1009e-06	294.33	83.913	66.069	19.715	1.1092e-06	26.79	-54.396	-21.979	127.398	-58.243	101.235	30.948	-58.043	-50.948	-19.624	210.018	-51.067	-44.747	-44.407	-37.617	-7.486	-38.230	-8191	255	
289.288	1	1	0	0	0.1491	0.12224	0.21964	0.029928	0.23963	0.10346	0.19977	0.0876	0.13	0.028223	0.012037	0.11906	0.13009	0.11955	0.087154	0.21895	-2.3833	-3.1792	-2.6271	-2.9437	-2.9146	-2.6167	-3.0062	-2.8563	-2.8208	-3.15	-2.7438	-2.975	-3.1396	-2.6562	-3.0125	-3.0042	-26.677	244.992	91.344	235.526	108.317	156.207	234.691	196.872	130.235	276.793	16.915	185.076	-61.610	66.164	92.371	100.451	0.00035353	0.00013985	0.00012289	1240.7	2.484e-06	2.4992e-06	1310	266.65	5.2105e-07	1.7096e-06	329.34	91.494	72.561	21.077	3.6142e-06	29.093	0.00010449	0.00010077	2.8076e-05	1029.2	1.1074e-06	1.0892e-06	1220.1	246.64	1.1003e-06	1.0738e-06	293.15	83.593	65.604	19.57	1.0536e-06	26.689	-4.801	281.539	21.962	-57.735	100.921	-41.977	-57.938	-50.971	178.258	103.080	-50.827	-44.523	-44.409	-37.772	82.378	-38.357	-8191	255	
289.360	1	1	0	0	0.044444	0.11742	0.069477	0.10605	0.10744	0.14389	0.13882	0.18454	0.094086	0.066122	0.23094	0.19718	0.20077	0.24676	0.085093	0.25835	-2.3042	-2.8229	-2.9917	-2.9708	-2.7687	-2.8292	-3.1771	-2.9646	-2.6542	-3.0125	-2.9542	-2.8667	-2.9938	-2.7854	-3.0625	-2.7833	169.714	30.743	-67.941	-6.165	31.554	10.154	127.229	268.781	64.984	148.951	98.683	247.724	163.390	252.111	96.007	-47.937	0.00026145	0.00023594	3.4894e-05	1237	1.9171e-06	7.4512e-06	1311.3	264.67	1.5275e-06	5.337e-06	327.19	91.303	72.15	20.845	4.2013e-06	29.037	9.7031e-05	9.6575e-05	2.6373e-05	1023.2	1.0354e-06	1.0235e-06	1215.9	245.19	1.0338e-06	1.0227e-06	291.45	83.161	65.058	19.388	1.0361e-06	26.521	-49.734	284.214	19.432	-57.827	36.951	61.197	-57.806	-50.998	183.560	89.466	-51.635	-44.425	-44.001	-37.895	-1.728	-37.750	-8191	255	
289.456	1	1	0	0	0.096894	0.20217	0.079244	0.083183	0.12992	0.10117	0.22667	0.21277	0.060274	0.20098	0.15826	0.26165	0.09846	0.11593	0.22766	0.27515	-2.1521	-2.9542	-2.7562	-2.7521	-3.1146	-2.7458	-3.1625	-3.0229	-2.8292	-3.125	-2.9708	-2.6854	-3.0417	-2.9083	-2.7938	-3.0625	147.017	-1.736	120.362	264.888	23.641	71.612	168.263	156.054	199.895	20.800	266.926	129.618	250.009	219.036	182.016	224.490	0.00024549	0.00038323	1.3789e-05	1228.6	3.1043e-06	4.7445e-06	1306	263.28	1.9529e-06	2.9579e-06	328.21	90.732	71.938	20.878	3.1458e-06	29.043	9.8155e-05	9.4469e-05	2.6744e-05	1022.2	1.0424e-06	1.05e-06	1212.2	244.91	1.0623e-06	1.0456e-06	292.07	83.043	65.189	19.437	1.0377e-06	26.521	258.764	-8.579	219.920	-57.919	117.908	46.935	-57.880	-50.900	65.851	65.913	-51.584	-44.648	-44.362	-37.824	58.375	-37.939	-8191	255	
289.575	1	1	0	0	0.38757	0.068523	0.057474	0.24781	0.06287	0.055973	0.21974	0.2018	0.18968	0.12336	0.15488	0.12113	0.27098	0.37365	0.040124	0.076064	-2.1979	-2.9021	-2.8792	-2.8458	-3.2167	-2.9292	-2.9625	-2.7271	-2.5458	-3.2062	-2.9125	-2.6521	-3.1583	-2.7583	-2.8771	-2.9792	-21.270	102.691	32.349	168.925	267.752	11.825	207.251	287.435	-1.047	41.412	223.300	50.445	-68.573	16.330	4.636	267.726	0.00020878	9.3789e-05	6.7846e-05	1227.8	3.2643e-06	1.0425e-06	1300.2	263.29	2.0356e-06	2.6755e-06	329.75	90.87	72.144	20.961	3.2758e-06	29.059	9.6517e-05	9.2801e-05	2.5794e-05	1018.3	1.0174e-06	1.0071e-06	1210.8	244.31	1.0378e-06	1.0094e-06	291.4	83.071	65.058	19.387	1.024e-06	26.468	-26.778	15.849	12.662	-58.044	133.070	55.030	-57.805	-50.958	0.476	223.871	-51.129	-44.640	-44.487	-37.704	9.620	-38.017	-8191	255	
289.673	1	1	0	0	0.079054	0.13613	0.065819	0.10505	0.10302	0.11102	0.33872	0.095123	0.12628	0.32514	0.1704	0.11996	0.069251	0.10411	0.30175	0.21511	-2.0479	-3	-2.8229	-2.5687	-3.0396	-2.8688	-2.8854	-2.9333	-2.5812	-3.0396	-2.8792	-2.875	-2.9458	-2.8021	-2.7438	-3.1437	-18.605	195.471	217.091	251.816	54.376	268.064	197.577	67.250	-8.967	263.398	-39.434	159.489	145.424	-62.147	24.679	247.224	0.00030263	0.00026266	8.8087e-05	1231.1	1.816e-06	2.5556e-06	1300.6	263.93	1.3174e-06	1.9196e-06	327.14	90.346	71.655	20.84	1.6952e-06	29.328	9.3887e-05	9.2705e-05	2.549e-05	1018.5	1.0009e-06	1.0146e-06	1209.3	244.29	1.0155e-06	1.0145e-06	290.79	82.883	65.016	19.331	1.006e-06	26.546	-15.635	15.434	-24.047	-57.979	103.595	126.355	-57.740	-50.911	111.794	63.207	-51.290	-44.377	-44.189	-37.944	222.433	-38.303	-8191	255	
289.767	1	1	0	0	0.25207	0.18134	0.24712	0.10601	0.068455	0.16393	0.098269	0.30658	0.18409	0.29699	0.3762	0.24873	0.15685	0.25509	0.16628	0.17626	-2.3771	-2.75	-2.9604	-2.7917	-3.0187	-2.725	-2.9917	-3.1437	-2.7729	-3.1125	-3.2292	-2.5438	-2.9625	-2.9	-2.6375	-3.0958	122.967	159.264	80.564	-19.766	201.354	70.939	225.877	255.811	38.654	-14.998	2.874	251.028	189.202	8.552	43.576	234.917	0.00022539	0.00044951	8.1373e-05	1229.2	1.7818e-06	3.8929e-06	1300.7	262.67	4.5425e-06	6.785e-07	327.49	90.449	72.019	20.739	1.548e-06	29.026	9.4068e-05	9.1993e-05	2.5696e-05	1018.5	1.0192e-06	1.001e-06	1208.6	243.81	1.0159e-06	9.9659e-07	290.76	82.798	64.96	19.293	1.0115e-06	26.469	284.052	27.152	-44.970	-57.704	143.119	74.120	-57.760	-51.090	21.944	107.893	-51.268	-44.284	-44.352	-37.587	55.410	-38.223	-8191	255	
289.863	1	1	0	0	0.14438	0.25383	0.18471	0.26604	0.20172	0.25613	0.23666	0.28725	0.28985	0.060432	0.29231	0.064594	0.2269	0.18942	0.15691	0.0032394	-2.5542	-2.6562	-2.9979	-2.6958	-2.8042	-2.7667	-2.9479	-3.1104	-2.6771	-2.6667	-3.2146	-2.7875	-2.7958	-2.8854	-2.6458	-3.1417	165.138	66.890	245.204	-63.704	18.121	52.759	210.299	-42.494	0.633	7.438	229.141	263.216	-21.621	256.537	71.162	18.458	0.00015171	0.00020289	5.9106e-05	1223.3	3.0399e-06	2.5945e-06	1300.6	263.32	1.4578e-06	4.2262e-06	326.64	90.72	71.523	20.809	2.2788e-06	28.929	9.3946e-05	9.2381e-05	2.572e-05	1016	9.9727e-07	1.0062e-06	1209.4	243.71	1.045e-06	1.0456e-06	290.82	82.992	64.899	19.305	1.022e-06	26.492	286.629	69.233	163.965	-57.883	77.287	19.073	-57.760	-50.782	240.784	24.814	-51.064	-44.700	-44.338	-37.700	113.324	-38.145	-8191	255	
289.984	1	1	0	0	0.098889	0.10697	0.20838	0.18863	0.13466	0.10953	0.13791	0.42014	0.1971	0.035857	0.17774	0.043215	0.032711	0.16385	0.080846	0.15892	-2.3604	-2.7687	-2.9	-2.8604	-2.9958	-2.9	-2.9542	-2.975	-2.7792	-2.8854	-2.8958	-2.5438	-3.1375	-2.7625	-2.5604	-3.0854	114.007	269.829	114.061	94.295	251.927	186.865	220.954	223.260	172.406	-68.762	183.941	60.620	165.505	268.417	130.838	154.517	0.0002866	0.00036672	6.2944e-05	1230.9	3.6316e-06	3.7226e-06	1303.2	263.13	5.1354e-06	1.8073e-06	328.16	90.553	72.367	20.819	1.801e-06	29.157	9.6815e-05	9.4627e-05	2.6479e-05	1018.7	1.0594e-06	1.0554e-06	1211.7	243.99	1.0895e-06	1.0811e-06	292.58	83.171	65.436	19.479	1.1369e-06	26.778	289.903	13.134	0.549	-57.839	234.781	40.015	-57.818	-51.020	24.735	168.912	-51.001	-44.797	-44.665	-37.918	12.664	-38.156	-8191	255	
290.056	1	1	0	0	0.49396	0.16584	0.14573	0.053244	0.017001	0.026997	0.26236	0.18169	0.037535	0.29913	0.17833	0.19482	0.14469	0.19242	0.18967	0.17044	-2.2167	-2.9562	-2.9604	-2.7396	-2.9833	-2.9083	-2.9146	-3.0917	-2.6958	-2.5938	-3.1125	-2.7458	-2.9854	-2.9021	-2.7042	-2.9292	98.851	224.849	47.959	-39.800	254.080	133.649	238.226	-44.402	46.206	60.940	64.902	234.234	175.911	234.874	174.887	209.323	0.00012755	0.00023924	3.9484e-06	1241.5	2.7963e-06	5.4115e-06	1318	266.53	1.0858e-06	1.7061e-06	330.4	91.717	73.05	21.161	1.2023e-06	29.738	0.00010938	0.00010756	3.0422e-05	1036.6	1.2328e-06	1.2361e-06	1228.5	248.05	1.2764e-06	1.2984e-06	296.97	84.723	66.762	19.853	1.3715e-06	27.357	-20.077	40.223	148.127	-57.754	2.135	43.003	-57.824	-50.870	-59.560	86.731	-51.694	-44.838	-44.505	-37.767	64.732	-38.349	-8191	255	
290.176	1	1	0	0	0.11291	0.23437	0.0067649	0.16519	0.14943	0.064476	0.20487	0.16637	0.15994	0.11389	0.16986	0.23139	0.0852	0.24244	0.22215	0.20014	-2.5	-2.5458	-2.8937	-2.6667	-2.9375	-2.7396	-2.7583	-3.1688	-3.0812	-2.7125	-3.2167	-2.7729	-2.8708	-2.9437	-2.7562	-3.0771	-44.845	149.774	88.736	213.807	-15.998	55.106	242.943	-42.067	224.266	239.405	265.261	227.891	133.713	273.261	-43.934	245.945	0.00027308	0.0004249	0.00010805	1257.5	1.2919e-06	6.0462e-06	1334.2	270.93	4.0127e-06	5.5748e-06	335.71	93.233	73.955	21.311	1.3228e-06	30.059	0.00012917	0.00013058	3.6586e-05	1059.3	1.4856e-06	1.485e-06	1246.9	253.34	1.555e-06	1.5653e-06	303.28	86.475	68.416	20.313	1.5948e-06	27.965	-43.456	-42.666	-42.124	-57.732	157.807	89.084	-57.857	-51.143	160.481	39.289	-51.276	-44.823	-44.706	-37.973	8.435	-38.284	-8191	255	
290.272	1	1	0	0	0.0096563	0.051031	0.23409	0.18192	0.24602	0.12753	0.12244	0.095508	0.27968	0.15226	0.1566	0.10811	0.16741	0.13274	0.041578	0.31009	-2.5229	-2.6479	-3.0229	-2.7729	-2.6688	-3.1	-2.7687	-2.875	-2.8438	-2.5375	-2.9229	-2.7646	-2.8563	-3.0146	-2.7792	-2.8958	115.538	52.091	275.935	-50.442	72.158	-31.223	201.792	-64.682	128.805	137.912	-34.685	-38.786	-48.344	201.093	8.254	-54.411	0.0001812	0.00034164	7.1872e-05	1275.7	3.581e-06	4.6232e-06	1348.1	273.55	2.855e-06	5.2159e-06	337.49	93.503	74.564	21.608	1.3911e-06	30.217	0.00014933	0.00014726	4.0879e-05	1082.2	1.6324e-06	1.6605e-06	1262.2	256.28	1.6493e-06	1.655e-06	306.14	87.305	69.089	20.505	1.679e-06	28.19	262.656	26.494	46.006	-58.037	42.134	-5.271	-57.864	-51.126	74.721	77.919	-51.485	-44.696	-43.930	-37.930	-11.929	-38.254	-8191	255	
290.368	1	1	0	0	0.15252	0.087703	0.13998	0.16487	0.046016	0.024681	0.26248	0.50227	0.17201	0.064583	0.20066	0.1908	0.11646	0.1002	0.32028	0.12426	-2.6042	-2.6354	-2.8438	-2.8354	-2.75	-3.1125	-2.8833	-2.7521	-2.9271	-2.8563	-2.9333	-2.7229	-2.5417	-2.9792	-2.6667	-3.0417	-7.615	180.568	121.362	-8.111	-28.152	161.939	251.638	215.305	92.239	230.304	-31.674	235.760	224.817	186.741	267.319	213.190	0.00021774	0.00038646	4.8925e-05	1273.9	5.321e-06	2.3322e-06	1351.9	273.07	2.7283e-06	1.4723e-06	336.35	93.746	74.438	21.515	3.6895e-06	30.093	0.00015758	0.00015428	4.311e-05	1087.4	1.6934e-06	1.6897e-06	1265.7	257.34	1.6978e-06	1.6806e-06	306.21	87.3	69.107	20.443	1.6785e-06	28.133	287.264	-10.598	20.754	-58.286	118.377	124.123	-57.852	-51.199	-11.784	142.380	-51.182	-45.023	-44.092	-37.710	-5.499	-38.352	-8191	255	
290.465	1	1	0	0	0.073935	0.071986	0.078783	0.12371	0.21731	0.13287	0.12245	0.26912	0.12533	0.29095	0.18215	0.18974	0.19945	0.17784	0.07925	0.083852	-2.4083	-2.4375	-2.9229	-2.8917	-2.6146	-3.1271	-3.0542	-2.8875	-2.8604	-2.8021	-2.9083	-3.0104	-2.8771	-3.2458	-2.6708	-2.8688	111.620	264.006	101.302	13.675	-48.892	-10.851	129.631	252.509	-21.745	143.505	27.979	-50.671	231.305	-44.214	168.921	58.134	0.00030508	0.00037641	7.8666e-05	1267.1	2.2093e-06	3.0337e-06	1340.6	272.77	5.7234e-06	3.2408e-06	337.81	93.021	73.798	21.225	6.0635e-06	29.554	0.0001544	0.00015302	4.2473e-05	1082.4	1.6686e-06	1.6597e-06	1259	256.19	1.6394e-06	1.5979e-06	305.52	86.711	68.093	20.197	1.5283e-06	27.725	-6.594	-4.505	-10.959	-58.045	-25.947	285.703	-57.900	-51.106	58.524	68.183	-51.276	-44.696	-44.682	-37.829	100.087	-38.285	-8191	255	
290.585	1	1	0	0	0.15695	0.19493	0.1701	0.093478	0.087647	0.096979	0.046337	0.14985	0.026425	0.15646	0.20742	0.27478	0.19113	0.13997	0.14288	0.099184	-2.55	-2.5542	-2.8667	-3.1063	-2.5958	-3.0646	-3.1146	-2.7687	-3.1188	-2.7125	-3.0229	-3.0125	-2.5521	-3.0646	-2.8438	-2.7208	270.140	249.570	9.399	183.938	182.247	265.031	206.369	243.526	288.325	25.542	69.637	205.280	14.365	253.423	280.621	-62.935	0.00019127	0.00028179	8.2371e-05	1261.5	2.7756e-06	3.8419e-06	1334.3	270.93	7.1806e-07	5.0163e-06	334.8	92.502	73.624	21.146	1.599e-06	29.611	0.00014044	0.00013728	3.7951e-05	1064	1.4745e-06	1.465e-06	1248	253.62	1.4648e-06	1.4416e-06	301.4	85.543	67.543	19.934	1.4179e-06	27.478	-15.779	-15.287	7.856	-58.345	250.657	-1.802	-57.885	-51.020	-31.478	142.365	-51.221	-44.707	-44.059	-37.811	8.879	-38.603	-8191	255	
290.657	1	1	0	0	0.14367	0.20364	0.13781	0.097742	0.086157	0.13409	0.41922	0.12402	0.30749	0.16861	0.060515	0.071425	0.097327	0.25461	0.087622	0.071308	-2.4833	-2.6	-2.7313	-3	-2.6104	-3.1229	-3.2188	-2.6771	-3.0312	-2.7833	-2.9229	-2.9125	-2.7333	-3.0875	-2.9208	-2.6312	278.652	130.902	61.575	200.226	39.062	227.230	211.726	285.540	-2.458	-46.753	68.823	156.901	246.256	228.582	-3.606	217.241	4.8262e-05	0.00039229	7.8884e-05	1258.4	2.9082e-06	4.0134e-06	1328.3	269.52	2.4155e-06	4.2979e-06	334.47	92.449	73.293	21.057	1.3007e-06	29.523	0.00012919	0.00012732	3.4764e-05	1055	1.3827e-06	1.3768e-06	1240.3	251.14	1.3915e-06	1.3765e-06	300.41	85.265	67.069	19.82	1.3785e-06	27.367	-36.306	7.162	258.390	-58.202	47.879	126.120	-58.029	-51.120	28.651	13.703	-51.343	-44.844	-44.120	-37.569	-60.123	-38.102	-8191	255	
290.751	1	1	0	0	0.086613	0.36042	0.16461	0.08188	0.13694	0.12481	0.37092	0.060216	0.20702	0.21656	0.18272	0.13104	0.17512	0.088354	0.10496	0.10615	-2.4083	-2.8771	-2.9313	-3.0687	-2.6063	-2.8125	-3.3458	-2.7875	-2.8625	-2.9292	-2.7833	-3.0479	-2.575	-2.9271	-2.7667	-2.6292	41.341	227.683	263.223	94.185	79.975	223.430	262.107	81.816	25.687	115.990	181.918	-59.647	96.083	277.157	7.483	79.807	0.0001886	0.00022768	2.9028e-05	1250.4	1.7375e-06	4.2371e-06	1318.2	266.41	3.1729e-06	3.1461e-06	332.98	91.627	72.522	20.996	4.6994e-06	29.368	0.00012701	0.00012388	3.409e-05	1052	1.3402e-06	1.3135e-06	1234.1	249.51	1.3054e-06	1.2942e-06	297.45	84.747	66.542	19.701	1.2772e-06	27.091	-47.335	-1.897	28.245	-57.936	257.328	122.903	-57.772	-51.068	68.054	-22.423	-51.460	-44.678	-44.020	-37.738	108.216	-38.494	-8191	255	
290.847	1	1	0	0	0.20053	0.13661	0.24625	0.13781	0.095827	0.16316	0.22197	0.33102	0.10005	0.23407	0.26609	0.041638	0.23955	0.11893	0.11622	0.24488	-2.65	-2.6188	-2.5708	-2.9375	-2.6792	-2.7729	-3.2313	-2.6625	-2.8438	-2.8208	-2.8063	-3.0146	-2.6875	-2.8667	-3.2271	-2.5979	-7.959	187.822	37.684	-31.142	184.373	89.580	207.319	198.045	98.579	285.140	282.711	252.411	222.759	-21.710	-32.598	210.821	0.00041264	1.8239e-05	0.00013711	1243.5	4.4539e-06	4.0183e-06	1321.9	266.65	1.3814e-06	4.2642e-06	330.48	91.618	72.814	20.986	2.5803e-06	29.308	0.00011591	0.00011395	3.1765e-05	1043.4	1.2203e-06	1.2073e-06	1229.2	248.18	1.2313e-06	1.2139e-06	295.87	84.234	66.191	19.563	1.2108e-06	26.941	-21.761	247.054	-21.166	-57.807	167.166	73.331	-57.957	-50.955	130.028	131.892	-51.654	-44.712	-44.320	-37.887	53.856	-38.065	-8191	255	
290.968	1	1	0	0	0.061765	0.14103	0.070982	0.22985	0.12461	0.26315	0.23583	0.20481	0.020824	0.077633	0.17236	0.12763	0.16439	0.07411	0.092429	0.01666	-2.525	-2.8083	-2.8021	-3.0604	-2.6792	-2.7604	-3.2792	-2.8312	-2.7938	-2.9042	-2.8542	-3.3167	-2.9083	-2.7979	-2.8563	-2.7396	230.096	64.066	120.519	143.940	-11.899	275.540	248.848	227.759	65.503	157.078	23.475	256.525	69.318	263.373	-53.425	-29.950	8.8905e-05	0.00023079	0.00014948	1246.3	4.4205e-06	4.6017e-06	1312.7	265.15	6.3305e-06	3.047e-06	329.77	91.598	72.565	20.891	1.5764e-06	29.27	0.00011054	0.00010942	3.0396e-05	1036	1.188e-06	1.1816e-06	1225	247.05	1.1885e-06	1.1948e-06	294.9	83.959	65.967	19.492	1.1884e-06	26.885	-16.428	-14.497	-12.714	-57.921	113.814	44.908	-57.843	-50.894	242.837	70.685	-51.157	-44.525	-44.395	-37.693	16.022	-38.034	-8191	255	
291.064	1	1	0	0	0.1336	0.21492	0.10705	0.42251	0.14238	0.18607	0.18365	0.25137	0.17813	0.042592	0.48507	0.10352	0.084343	0.16045	0.32679	0.057683	-2.5396	-2.7812	-2.6083	-2.7521	-2.8604	-2.8896	-3.2354	-2.5708	-2.6354	-2.85	-2.7792	-2.7458	-2.8042	-2.7604	-3.0521	-2.8896	212.111	64.582	91.985	-58.486	98.583	37.954	197.306	72.477	-49.266	184.413	200.063	203.565	137.181	119.558	151.509	-35.048	0.00023401	8.2625e-05	7.4063e-05	1241.4	3.1624e-06	3.0267e-06	1308.5	264.72	2.8335e-06	4.8844e-06	329.22	90.765	73.012	20.796	3.7436e-06	29.16	0.00010966	0.00010854	2.994e-05	1033.2	1.18e-06	1.179e-06	1221.5	245.9	1.1815e-06	1.1784e-06	294.28	83.748	65.861	19.47	1.1755e-06	26.849	289.065	259.437	18.816	-57.994	87.958	64.641	-57.781	-51.060	276.004	-22.872	-51.327	-44.328	-44.223	-38.149	-56.800	-38.383	-8191	255	
291.160	1	1	0	0	0.31818	0.19948	0.10894	0.1766	0.11334	0.35476	0.15477	0.011579	0.12206	0.20031	0.212	0.17234	0.15047	0.14481	0.07383	0.16428	-2.2917	-2.8604	-2.6813	-2.8937	-2.8667	-2.7062	-3.2229	-2.9167	-2.5958	-3.0521	-2.7146	-2.8896	-2.8	-2.6625	-2.925	-2.8896	278.223	-32.401	199.244	283.433	147.009	57.004	213.477	118.184	120.937	-41.820	276.181	-55.163	289.290	25.246	25.716	266.997	0.00026235	0.00023281	6.7281e-05	1233.9	2.7651e-06	1.4508e-06	1313.7	264.14	1.3724e-06	1.286e-06	329.1	90.852	72.083	20.673	7.04e-07	29.223	0.0001091	0.00010767	3.0023e-05	1031.6	1.1912e-06	1.1819e-06	1222.2	246.13	1.1862e-06	1.1751e-06	293.99	83.611	65.692	19.464	1.1819e-06	26.836	-57.503	31.004	275.830	-57.977	133.655	69.696	-57.778	-50.949	282.733	113.371	-51.196	-44.524	-44.524	-37.898	-38.213	-38.257	-8191	255	
291.257	1	1	0	0	0.11269	0.090848	0.13416	0.10497	0.11182	0.20821	0.31313	0.12749	0.20483	0.14081	0.26669	0.25995	0.16259	0.20888	0.11317	0.17796	-2.4437	-2.8292	-2.4437	-2.8729	-3.0896	-2.7729	-3.3396	-2.9229	-2.75	-3.1542	-2.5646	-2.8917	-3.0833	-2.6104	-3.1188	-2.8312	188.863	31.009	200.348	40.622	94.360	64.549	218.537	222.381	141.715	-13.053	207.077	48.163	27.021	-38.699	140.317	58.914	0.00026229	0.00029165	9.1004e-05	1233.9	2.9726e-06	7.6202e-06	1310.8	264.36	3.9582e-06	1.9898e-06	329.85	91.579	72.436	20.615	2.1484e-06	29.209	0.00011119	0.00010969	3.0341e-05	1034.4	1.1961e-06	1.1954e-06	1222	246.26	1.2097e-06	1.1823e-06	294.48	83.792	65.633	19.413	1.1754e-06	26.75	-41.566	214.486	-67.558	-57.907	120.199	-8.128	-57.933	-50.886	139.881	76.151	-51.312	-44.373	-44.274	-37.593	101.281	-38.570	-8191	255	
291.351	1	1	0	0	0.17073	0.073647	0.22972	0.21867	0.12261	0.10937	0.17067	0.15352	0.13314	0.13888	0.2004	0.045014	0.15372	0.16396	0.15356	0.04668	-2.2646	-2.8896	-2.6083	-2.7667	-2.6437	-2.6021	-3.0021	-3.0125	-2.825	-2.9688	-2.7188	-2.7708	-2.9146	-2.5833	-3.0208	-2.8479	267.903	34.079	-42.898	-63.301	92.135	2.759	245.343	219.123	43.127	133.730	132.564	277.957	162.886	241.397	184.386	226.465	0.00011516	0.00026805	0.0001032	1238	2.9378e-06	2.2958e-06	1313.4	264.52	7.0804e-07	1.6337e-06	328.81	91.453	72.066	20.655	9.4235e-07	29.284	0.00010835	0.00010481	2.9195e-05	1031.5	1.1499e-06	1.1365e-06	1221.6	245.79	1.1519e-06	1.1461e-06	293.13	83.601	65.354	19.36	1.1139e-06	26.811	-43.891	46.090	-20.912	-57.957	242.460	160.506	-57.845	-50.919	-10.236	112.700	-51.202	-44.374	-44.239	-37.781	8.064	-38.283	-8191	255	
291.447	1	1	0	0	0.25624	0.35128	0.082973	0.087863	0.087564	0.08469	0.21174	0.31245	0.16296	0.08738	0.19469	0.26592	0.21052	0.41374	0.20897	0.24392	-2.0938	-2.9437	-2.9313	-2.9	-2.9521	-2.7167	-2.9625	-2.8958	-2.5687	-3.0333	-2.8333	-2.7583	-2.9979	-2.5563	-2.8583	-3.1271	33.481	0.906	141.499	161.979	135.849	272.644	-67.654	274.530	9.483	252.610	255.647	-65.006	-30.014	-27.705	102.007	-30.666	9.4172e-05	0.00023233	0.00011161	1230.7	4.3112e-06	3.4786e-06	1309	264.09	4.9192e-06	5.3748e-06	327.35	90.817	72.464	20.718	3.5132e-06	29.095	0.00010529	0.00010434	2.871e-05	1028.3	1.131e-06	1.1121e-06	1219.4	245.18	1.1284e-06	1.1037e-06	292.44	83.28	65.459	19.276	1.0922e-06	26.617	33.039	-3.692	17.435	-57.782	20.370	88.802	-57.611	-51.017	92.901	58.800	-51.183	-44.732	-44.703	-37.915	85.257	-38.292	-8191	255	
291.568	1	1	0	0	0.21016	0.058529	0.22553	0.10772	0.11527	0.13479	0.3515	0.14955	0.019002	0.23669	0.053161	0.2046	0.17595	0.029595	0.16277	0.1017	-2.3229	-3.0896	-2.8167	-2.6958	-2.9437	-2.8917	-2.9792	-2.8583	-2.6292	-3.1479	-2.8458	-2.7896	-2.8646	-2.8438	-3.0146	-3.0563	-67.677	284.820	249.054	285.618	193.829	262.432	239.475	271.708	-7.828	43.387	-12.758	-55.610	-5.383	274.357	48.466	247.551	0.00017085	0.0002124	6.2567e-05	1227	1.5586e-06	6.6361e-06	1310.1	263.83	3.734e-06	1.6857e-06	326.82	90.584	72.406	20.699	2.0331e-06	28.92	0.0001027	9.9773e-05	2.7749e-05	1025.9	1.0742e-06	1.0872e-06	1218	244.39	1.076e-06	1.0491e-06	291.19	82.869	65.021	19.215	1.011e-06	26.372	-51.095	-29.506	-36.350	-58.208	279.600	73.387	-57.925	-51.140	-3.553	18.852	-51.290	-44.978	-44.036	-37.770	-13.705	-38.155	-8191	255	
291.664	1	1	0	0	0.18065	0.12993	0.14958	0.13821	0.14585	0.12415	0.16242	0.099897	0.14219	0.30414	0.14801	0.27697	0.084914	0.21492	0.081827	0.20794	-2.1646	-3.0292	-2.7375	-2.8458	-3.0062	-2.6958	-3.0938	-3.05	-2.7604	-2.9479	-2.9646	-2.8604	-3.1604	-2.6208	-2.7646	-2.9875	289.921	45.721	106.687	-45.738	55.826	109.003	-54.845	246.611	-58.921	37.648	22.579	-50.149	20.347	-10.952	183.687	248.347	0.00017985	0.00022423	5.9927e-05	1234.5	2.5455e-06	3.3567e-06	1298.6	262.91	1.53e-06	3.1033e-06	325.93	91.23	71.045	20.464	2.2143e-06	28.858	9.3633e-05	9.135e-05	2.5455e-05	1018.3	9.9712e-07	9.8725e-07	1209.1	242.64	9.8759e-07	9.8123e-07	288.92	82.614	64.469	19.04	9.5922e-07	26.223	-40.761	40.714	-25.686	-58.086	129.956	21.730	-57.823	-51.037	33.454	44.143	-51.325	-44.582	-44.201	-37.605	273.907	-38.104	-8191	255	
291.760	1	1	0	0	0.19243	0.19393	0.14643	0.14847	0.18035	0.22682	0.21535	0.2075	0.012073	0.37647	0.055657	0.16439	0.30482	0.24762	0.14395	0.085986	-2.3187	-2.7979	-2.8042	-2.8125	-3.0292	-2.6479	-2.925	-3.1063	-2.6604	-2.8854	-3.0563	-2.7333	-2.9917	-2.9229	-2.9604	-3.0792	30.875	85.732	286.230	-46.870	91.694	101.312	-18.511	-66.564	96.331	68.640	227.654	117.428	-16.199	275.902	215.182	239.379	0.00013898	0.00025376	3.2716e-05	1220.3	3.278e-06	3.9274e-06	1292.9	260.92	1.4463e-06	3.4884e-06	323.98	89.837	71.331	20.42	1.809e-06	28.987	8.8648e-05	8.7094e-05	2.403e-05	1009	9.3607e-07	9.3898e-07	1202.1	240.79	9.3504e-07	9.1459e-07	286.97	81.7	64.002	18.907	9.0492e-07	26.114	-49.675	6.443	29.339	-58.288	89.889	90.439	-57.965	-51.000	275.203	60.051	-51.034	-44.652	-44.339	-37.302	75.020	-38.246	-8191	255	
#DATA ENDS
