BOXY.EXE: ISS Imagent and Oximeter Data Acquisition Program Version 0.80
Ascii Record File

#ACQ INFORMATION
2  Detector Channels 
16  External MUX Channels 
1  Auxiliary Channels 
5000  Waveform (CCF) Frequency (Hz)
1  Waveforms Skipped 
30  Waveforms Averaged 
1  Cycles Averaged 
16  Acquisitions per Waveform 
10.0806  Updata Rate (Hz) 

#FILE INFORMATION
TRUE -- External MUX Channel results are PARSED.
FALSE -- AC DC and Phase are NOT grouped.
TRUE -- Companion Program Settings File CREATED.
FALSE -- AC data not excluded
FALSE -- DC data not excluded
FALSE -- Phase data not excluded
FALSE -- Auxillary Chn. data not excluded
Tab delimiters

#CALIBRATION STATE
TRUE -- Waveform Calibration Values APPLIED.


#AUX CALIBRATION VALUES
Val Type	aux-1	

Term	1.0000e+00	
Factor	0.0000e+00	


#WF CALIBRATION VALUES
A = Detector Channel
Val Type	A-AC1	A-AC2	A-AC3	A-AC4	A-AC5	A-AC6	A-AC7	A-AC8	A-AC9	A-AC10	A-AC11	A-AC12	A-AC13	A-AC14	A-AC15	A-AC16	A-DC1	A-DC2	A-DC3	A-DC4	A-DC5	A-DC6	A-DC7	A-DC8	A-DC9	A-DC10	A-DC11	A-DC12	A-DC13	A-DC14	A-DC15	A-DC16	A-Ph1	A-Ph2	A-Ph3	A-Ph4	A-Ph5	A-Ph6	A-Ph7	A-Ph8	A-Ph9	A-Ph10	A-Ph11	A-Ph12	A-Ph13	A-Ph14	A-Ph15	A-Ph16	

Term	0.00000e+00	0.00000e+00	0.00000e+00	0.00000e+00	0.00000e+00	0.00000e+00	0.00000e+00	0.00000e+00	0.00000e+00	0.00000e+00	0.00000e+00	0.00000e+00	0.00000e+00	0.00000e+00	0.00000e+00	0.00000e+00	0.00000e+00	0.00000e+00	0.00000e+00	0.00000e+00	0.00000e+00	0.00000e+00	0.00000e+00	0.00000e+00	0.00000e+00	0.00000e+00	0.00000e+00	0.00000e+00	0.00000e+00	0.00000e+00	0.00000e+00	0.00000e+00	0.00000e+00	0.00000e+00	0.00000e+00	0.00000e+00	0.00000e+00	0.00000e+00	0.00000e+00	0.00000e+00	0.00000e+00	0.00000e+00	0.00000e+00	0.00000e+00	0.00000e+00	0.00000e+00	0.00000e+00	0.00000e+00	
Factor	1.00000e+00	1.00000e+00	1.00000e+00	1.00000e+00	1.00000e+00	1.00000e+00	1.00000e+00	1.00000e+00	1.00000e+00	1.00000e+00	1.00000e+00	1.00000e+00	1.00000e+00	1.00000e+00	1.00000e+00	1.00000e+00	1.00000e+00	1.00000e+00	1.00000e+00	1.00000e+00	1.00000e+00	1.00000e+00	1.00000e+00	1.00000e+00	1.00000e+00	1.00000e+00	1.00000e+00	1.00000e+00	1.00000e+00	1.00000e+00	1.00000e+00	1.00000e+00	X	X	X	X	X	X	X	X	X	X	X	X	X	X	X	X	

B = Detector Channel
Val Type	B-AC1	B-AC2	B-AC3	B-AC4	B-AC5	B-AC6	B-AC7	B-AC8	B-AC9	B-AC10	B-AC11	B-AC12	B-AC13	B-AC14	B-AC15	B-AC16	B-DC1	B-DC2	B-DC3	B-DC4	B-DC5	B-DC6	B-DC7	B-DC8	B-DC9	B-DC10	B-DC11	B-DC12	B-DC13	B-DC14	B-DC15	B-DC16	B-Ph1	B-Ph2	B-Ph3	B-Ph4	B-Ph5	B-Ph6	B-Ph7	B-Ph8	B-Ph9	B-Ph10	B-Ph11	B-Ph12	B-Ph13	B-Ph14	B-Ph15	B-Ph16	

Term	0.00000e+00	0.00000e+00	0.00000e+00	0.00000e+00	0.00000e+00	0.00000e+00	0.00000e+00	0.00000e+00	0.00000e+00	0.00000e+00	0.00000e+00	0.00000e+00	0.00000e+00	0.00000e+00	0.00000e+00	0.00000e+00	0.00000e+00	0.00000e+00	0.00000e+00	0.00000e+00	0.00000e+00	0.00000e+00	0.00000e+00	0.00000e+00	0.00000e+00	0.00000e+00	0.00000e+00	0.00000e+00	0.00000e+00	0.00000e+00	0.00000e+00	0.00000e+00	2.70886e+01	-1.47570e+02	-1.59823e+02	-1.87769e+02	-7.16749e+01	-1.02766e+02	-1.57019e+02	-1.62015e+02	-1.01898e+02	-8.89711e+01	-1.73571e+02	-1.72116e+02	-1.82981e+02	-1.77625e+02	-1.07765e+02	-1.50887e+02	
Factor	4.90076e-05	9.02078e-05	2.72429e-05	5.41330e-01	1.00772e-06	1.22008e-06	1.72070e-01	5.71424e-02	1.21130e-06	1.00603e-06	1.10401e-01	3.27385e-02	3.12637e-02	9.63839e-03	1.14382e-06	1.41262e-02	4.51512e-07	4.55847e-07	1.26572e-07	2.20301e-01	4.97833e-09	4.98109e-09	7.62968e-02	2.65919e-02	4.98129e-09	4.97910e-09	4.73171e-02	1.42145e-02	1.38173e-02	4.35854e-03	4.97014e-09	6.06963e-03	X	X	X	X	X	X	X	X	X	X	X	X	X	X	X	X	



#DISTANCE SETTINGS
A = Detector Channel
A-1	A-2	A-3	A-4	A-5	A-6	A-7	A-8	A-9	A-10	A-11	A-12	A-13	A-14	A-15	A-16	

2.5000e+00	3.0000e+00	2.5000e+00	3.0000e+00	2.0000e+00	3.0000e+00	1.5000e+00	3.0000e+00	3.0000e+00	3.0000e+00	3.0000e+00	3.0000e+00	3.0000e+00	3.0000e+00	1.5000e+00	3.0000e+00	

B = Detector Channel
B-1	B-2	B-3	B-4	B-5	B-6	B-7	B-8	B-9	B-10	B-11	B-12	B-13	B-14	B-15	B-16	

1.0000e+01	1.0000e+01	1.0000e+01	1.4400e+00	1.0000e+01	1.0000e+01	1.5100e+00	1.9400e+00	1.0000e+01	1.0000e+01	1.9900e+00	2.4900e+00	2.4100e+00	2.9000e+00	1.0000e+01	2.9800e+00	




#DATA BEGINS
time	group	step	mark	flag	A-AC1	A-AC2	A-AC3	A-AC4	A-AC5	A-AC6	A-AC7	A-AC8	A-AC9	A-AC10	A-AC11	A-AC12	A-AC13	A-AC14	A-AC15	A-AC16	A-DC1	A-DC2	A-DC3	A-DC4	A-DC5	A-DC6	A-DC7	A-DC8	A-DC9	A-DC10	A-DC11	A-DC12	A-DC13	A-DC14	A-DC15	A-DC16	A-Ph1	A-Ph2	A-Ph3	A-Ph4	A-Ph5	A-Ph6	A-Ph7	A-Ph8	A-Ph9	A-Ph10	A-Ph11	A-Ph12	A-Ph13	A-Ph14	A-Ph15	A-Ph16	B-AC1	B-AC2	B-AC3	B-AC4	B-AC5	B-AC6	B-AC7	B-AC8	B-AC9	B-AC10	B-AC11	B-AC12	B-AC13	B-AC14	B-AC15	B-AC16	B-DC1	B-DC2	B-DC3	B-DC4	B-DC5	B-DC6	B-DC7	B-DC8	B-DC9	B-DC10	B-DC11	B-DC12	B-DC13	B-DC14	B-DC15	B-DC16	B-Ph1	B-Ph2	B-Ph3	B-Ph4	B-Ph5	B-Ph6	B-Ph7	B-Ph8	B-Ph9	B-Ph10	B-Ph11	B-Ph12	B-Ph13	B-Ph14	B-Ph15	B-Ph16	aux-1	digaux	

923.044	1	1	0	256	0.16606	0.17553	0.03957	0.19624	0.14235	0.15864	0.24632	0.16031	0.1774	0.025563	0.18966	0.14465	0.14433	0.054276	0.20708	0.14355	-2.0187	-2.5729	-2.2938	-2.5542	-2.4458	-2.1312	-2.7438	-2.4583	-2.4521	-2.7333	-2.3667	-2.4646	-2.5042	-2.4833	-2.5458	-2.3771	104.964	311.945	267.150	421.202	168.958	416.665	187.073	380.237	296.452	141.203	251.720	146.223	304.224	438.561	353.649	371.069	0.0011349	0.00012348	5.6588e-05	403.1	2.6531e-06	2.1937e-06	596.1	147.79	2.2923e-06	2.0643e-06	277.7	108.37	57.927	23.574	1.699e-06	49.391	1.5299e-05	6.9697e-06	1.8564e-06	323.06	7.537e-08	7.8297e-08	546.19	133.46	8.0261e-08	7.3639e-08	238.89	94.389	49.611	20.802	7.3434e-08	42.362	323.451	174.881	119.361	92.655	202.169	189.353	93.038	97.828	195.034	225.008	96.208	100.326	101.968	106.257	222.588	103.942	-8191	255	
923.116	1	1	0	0	0.19783	0.066093	0.089674	0.070016	0.14819	0.079041	0.35909	0.081726	0.053824	0.077094	0.25804	0.21477	0.041442	0.089921	0.11088	0.28566	-1.825	-2.7812	-2.4188	-2.4208	-2.5979	-2.2021	-2.6125	-2.6083	-2.4146	-2.7062	-2.4021	-2.5854	-2.6813	-2.2042	-2.7375	-2.6333	82.841	125.361	313.617	211.896	109.672	213.669	421.058	391.091	426.010	291.954	97.809	81.616	437.314	103.900	396.607	339.191	0.0011002	0.00013116	5.7718e-05	407.4	1.8918e-06	2.1046e-06	598.79	147.82	2.2123e-06	1.7732e-06	279.45	109.01	58.158	23.645	3.34e-06	49.397	1.4678e-05	6.5424e-06	1.8097e-06	324.51	7.2497e-08	7.3658e-08	548.49	133.88	7.9348e-08	7.1481e-08	240.7	94.901	49.655	20.825	7.7213e-08	42.52	325.560	175.614	117.901	92.858	240.288	195.042	92.722	98.143	171.123	186.494	96.110	100.530	101.631	107.002	177.417	104.015	-8191	255	
923.212	1	1	0	0	0.15579	0.10418	0.10658	0.133	0.34967	0.11521	0.29367	0.1362	0.13686	0.52507	0.059168	0.14803	0.17884	0.29831	0.1743	0.059831	-1.8417	-2.6833	-2.35	-2.4625	-2.6646	-2.4167	-2.7458	-2.5792	-2.3	-2.8187	-2.4479	-2.6896	-2.7458	-2.5604	-2.6312	-2.6396	373.993	269.282	369.558	159.003	320.921	414.006	333.065	395.111	246.564	357.645	325.733	146.821	145.787	94.401	137.253	258.166	0.0011618	0.0002386	5.1316e-05	408.28	1.8483e-06	1.6607e-06	597.14	147.36	3.5123e-06	1.9027e-06	278.96	107.78	57.315	23.446	2.5376e-06	48.892	1.5094e-05	7.1862e-06	1.8495e-06	326.25	7.4219e-08	7.3772e-08	548.27	133.84	8.4464e-08	7.4635e-08	239.6	94.24	49.414	20.692	8.0257e-08	41.97	325.068	134.959	152.808	93.575	214.230	178.730	92.726	97.766	196.625	181.116	96.333	100.402	101.726	106.510	180.052	103.842	-8191	255	
923.308	1	1	0	0	0.24232	0.14924	0.16346	0.075885	0.11088	0.14587	0.28969	0.16781	0.24248	0.021822	0.16603	0.14691	0.085934	0.066695	0.097661	0.11134	-2.0167	-2.6625	-2.3563	-2.4062	-2.6813	-2.5104	-2.3771	-2.5625	-2.4688	-2.6917	-2.6875	-2.5396	-2.5771	-2.3646	-2.7146	-2.6	419.030	199.170	236.084	286.366	405.470	131.325	333.533	119.069	227.170	280.881	409.377	126.494	277.972	182.929	361.900	408.312	0.0011695	0.00013881	5.492e-05	401.81	9.3882e-07	1.7091e-06	590	147.09	3.6014e-06	2.3738e-06	278.09	107.48	58.337	23.355	1.6267e-06	48.7	1.5168e-05	6.8852e-06	1.984e-06	322.74	7.3565e-08	7.2382e-08	545.16	133.14	8.4993e-08	7.3774e-08	238.43	93.859	49.528	20.6	7.9864e-08	41.873	323.750	164.487	139.525	92.282	245.818	190.745	92.968	97.982	177.993	198.454	96.086	100.483	101.438	106.424	172.445	104.093	-8191	255	
923.429	1	1	0	0	0.22584	0.34125	0.079589	0.064301	0.17933	0.067154	0.20614	0.11438	0.1995	0.09953	0.012353	0.22325	0.12115	0.13857	0.18702	0.25809	-2.0708	-2.7	-2.3771	-2.2917	-2.7687	-2.3917	-2.6583	-2.7042	-2.3729	-2.525	-2.5208	-2.4208	-2.7562	-2.35	-2.5604	-2.6771	348.437	297.607	130.308	322.952	379.085	404.127	355.381	225.440	272.274	135.953	236.851	207.645	140.524	261.165	376.795	344.319	0.0010651	0.00024688	5.7626e-05	407.23	1.4149e-06	3.1062e-06	593.8	148.19	3.0453e-06	1.8065e-06	278.86	108.43	57.823	23.222	1.9989e-06	48.604	1.4709e-05	6.8852e-06	1.9231e-06	326.31	7.453e-08	7.4789e-08	546.52	134.3	7.8808e-08	7.5651e-08	239.4	94.331	49.542	20.512	8.0371e-08	41.829	324.615	149.174	140.610	92.480	233.503	213.869	92.647	97.726	189.463	240.924	96.118	100.543	101.760	106.704	194.038	103.708	-8191	255	
923.525	1	1	0	0	0.21469	0.33387	0.077225	0.20049	0.2593	0.14261	0.18107	0.064517	0.12476	0.30206	0.1725	0.17721	0.12927	0.32761	0.13606	0.29747	-1.8458	-2.55	-2.4229	-2.3312	-2.7667	-2.4375	-2.5125	-2.7229	-2.3729	-2.5104	-2.5958	-2.2958	-2.625	-2.4896	-2.4521	-2.7271	265.545	355.082	283.859	149.774	269.737	255.204	86.443	87.781	368.284	180.484	413.881	96.014	409.157	427.058	201.474	116.604	0.0011306	0.00015855	4.5543e-05	406.53	2.7228e-06	2.4078e-06	596.5	148.45	3.4443e-06	1.6833e-06	279.28	108.71	57.586	23.353	1.6439e-06	48.58	1.4662e-05	6.5708e-06	1.8917e-06	326.17	7.3908e-08	7.2433e-08	547.94	134.14	8.0884e-08	7.3743e-08	239.65	94.304	49.427	20.632	7.4511e-08	41.878	325.699	138.187	120.301	92.793	235.125	179.613	92.643	97.962	199.306	184.950	96.422	100.513	101.812	106.319	183.078	103.915	-8191	255	
923.621	1	1	0	0	0.054008	0.2628	0.22034	0.14488	0.054697	0.096821	0.26331	0.29995	0.30136	0.091565	0.048897	0.26704	0.030141	0.13502	0.34255	0.5217	-2.0125	-2.4479	-2.5979	-2.2958	-2.8125	-2.4875	-2.3312	-2.7229	-2.4583	-2.6437	-2.8854	-2.425	-2.8417	-2.7104	-2.5229	-2.7229	209.275	242.205	303.243	149.834	90.184	224.034	377.906	387.433	175.641	214.757	280.893	436.655	147.462	390.125	171.590	396.168	0.0011048	0.00019065	5.0822e-05	403.81	1.9008e-06	1.4416e-06	594.27	146.96	1.8987e-06	1.7286e-06	275.25	107.75	57.577	23.439	3.1933e-06	48.516	1.4762e-05	6.5528e-06	1.8901e-06	325.09	7.1678e-08	7.3461e-08	545	133.26	7.2716e-08	7.4469e-08	238.68	93.992	49.396	20.559	7.7048e-08	41.695	322.460	148.315	109.920	92.477	202.620	195.148	92.581	98.032	210.609	211.580	95.951	100.586	101.662	106.347	194.305	104.027	-8191	255	
923.717	1	1	0	0	0.24279	0.16583	0.11822	0.082864	0.31089	0.1139	0.19895	0.051019	0.29658	0.19538	0.25374	0.033977	0.21006	0.19515	0.14358	0.33823	-2.0979	-2.5729	-2.6354	-2.4042	-2.6583	-2.4062	-2.5	-2.6396	-2.5458	-2.4771	-2.775	-2.3646	-2.6396	-2.3958	-2.3458	-2.7229	367.886	339.588	158.317	244.142	411.836	363.988	346.591	425.050	230.475	183.867	396.315	308.584	165.339	349.791	289.426	404.503	0.001105	0.00020373	2.9318e-05	404.63	2.2823e-06	2.3035e-06	592.52	147.51	2.7786e-06	2.3175e-06	277.99	107.74	57.771	23.267	2.562e-06	48.377	1.432e-05	6.8576e-06	1.9115e-06	324.49	7.6096e-08	7.1728e-08	545.43	133.66	7.6701e-08	7.1378e-08	238.91	93.792	49.382	20.468	7.7482e-08	41.785	322.337	170.108	131.377	92.560	219.753	170.980	92.700	97.672	190.347	194.253	96.231	100.177	101.656	106.488	207.635	103.790	-8191	255	
923.813	1	1	0	0	0.50106	0.12962	0.10983	0.29178	0.25429	0.17025	0.2094	0.16385	0.237	0.10626	0.09104	0.27056	0.054458	0.29326	0.32802	0.15833	-2.0146	-2.2729	-2.5062	-2.3729	-2.5604	-2.5604	-2.4479	-2.6	-2.4813	-2.4562	-2.6083	-2.3333	-2.5833	-2.5646	-2.5271	-2.8667	308.234	83.185	223.852	353.167	233.020	211.165	350.103	367.346	220.940	313.014	401.841	253.354	235.958	363.043	424.694	385.036	0.0011159	0.00015872	5.7779e-05	410.23	1.7944e-06	8.043e-07	595.68	148.37	2.0485e-06	1.7396e-06	279.67	108.4	57.655	23.296	2.165e-06	48.574	1.4592e-05	6.964e-06	1.8205e-06	327.59	7.594e-08	7.0348e-08	546.75	133.98	7.6546e-08	7.227e-08	239.62	94.323	49.402	20.543	7.6965e-08	41.848	327.828	137.455	138.963	92.926	262.780	200.295	92.676	98.155	211.104	212.715	96.082	100.771	101.345	106.531	178.585	103.601	-8191	255	
923.908	1	1	0	0	0.2827	0.21724	0.15689	0.20428	0.22195	0.14472	0.33749	0.19823	0.0066231	0.036786	0.057432	0.082183	0.15127	0.13812	0.14254	0.18388	-1.9979	-2.4333	-2.5187	-2.4688	-2.3542	-2.7062	-2.6542	-2.6604	-2.6188	-2.5729	-2.7771	-2.4854	-2.6146	-2.6375	-2.4979	-2.6979	375.643	161.587	255.070	279.025	403.421	259.413	411.183	424.756	188.668	163.729	217.510	92.387	353.307	434.573	205.422	293.697	0.0011083	0.00017727	5.9794e-05	406.85	1.7762e-06	2.3758e-06	593.41	147.79	1.8383e-06	1.335e-06	279.49	108.01	57.899	23.169	1.5111e-06	48.015	1.4462e-05	6.7294e-06	1.8126e-06	326.69	7.0018e-08	7.07e-08	545.68	133.97	7.8995e-08	7.0454e-08	239.08	93.878	49.39	20.443	7.7193e-08	41.427	325.420	165.926	136.360	93.066	219.337	206.975	92.727	98.164	224.251	212.875	95.944	100.596	101.522	106.410	195.826	103.804	-8191	255	
924.006	1	1	0	0	0.075774	0.23366	0.10788	0.087426	0.090141	0.094274	0.17755	0.21951	0.14169	0.097695	0.2238	0.21616	0.056923	0.060402	0.010905	0.31472	-2.2562	-2.2562	-2.5646	-2.3354	-2.6354	-2.7292	-2.425	-2.6604	-2.6792	-2.3563	-2.7687	-2.5479	-2.6312	-2.8604	-2.3937	-2.6729	377.210	93.642	341.898	411.031	434.292	157.296	408.210	159.592	290.923	367.227	104.359	411.922	426.994	291.724	409.785	431.185	0.0011579	0.00017337	6.1384e-05	406.69	1.4837e-06	2.921e-06	596.27	148.35	3.8629e-06	1.5035e-06	278.11	107.56	57.492	23.006	1.5168e-06	47.937	1.4484e-05	6.8149e-06	1.7965e-06	326.55	7.2673e-08	7.1852e-08	546.78	133.99	7.6317e-08	7.2321e-08	238.87	93.737	49.441	20.32	7.6002e-08	41.312	323.124	163.847	120.397	92.824	209.941	187.804	92.612	97.766	202.299	209.468	95.788	100.379	101.609	106.576	214.449	104.077	-8191	255	
924.124	1	1	0	0	0.15764	0.13518	0.11652	0.19997	0.27857	0.068993	0.12719	0.088066	0.1988	0.21473	0.23172	0.099992	0.20489	0.12368	0.15671	0.16658	-2.1521	-2.1896	-2.7104	-2.4437	-2.2812	-2.7167	-2.3771	-2.5708	-2.5021	-2.1396	-2.6125	-2.4646	-2.2667	-2.4875	-2.3812	-2.6229	296.164	345.498	316.557	410.015	120.282	429.335	351.330	423.946	191.825	379.011	405.074	152.438	172.190	303.229	380.935	217.422	0.0010918	0.00018437	5.5948e-05	408.1	1.4717e-06	2.4983e-06	597.89	147.64	2.831e-06	2.4402e-06	277.3	107.47	57.965	23.139	2.4134e-06	48.365	1.4267e-05	6.889e-06	1.7963e-06	327.18	7.6635e-08	7.2817e-08	547.54	133.93	7.5601e-08	7.3577e-08	238.88	93.702	49.528	20.349	7.7161e-08	41.544	324.921	147.045	172.202	93.006	232.838	181.711	92.491	98.184	190.695	200.096	96.192	100.349	101.452	106.240	197.583	103.740	-8191	255	
924.221	1	1	0	0	0.17192	0.070962	0.093044	0.19405	0.015146	0.2368	0.21245	0.14575	0.23675	0.12974	0.26806	0.060947	0.043509	0.23376	0.19953	0.1862	-2.1813	-2.2583	-2.5979	-2.5667	-2.2958	-2.7396	-2.5146	-2.3625	-2.7208	-2.2729	-2.8312	-2.6021	-2.4062	-2.6646	-2.3208	-2.4833	85.711	395.387	381.445	162.677	399.691	306.431	319.946	130.696	220.958	354.637	379.636	340.762	407.585	325.249	311.897	210.054	0.0011267	0.00012038	5.9919e-05	403.27	1.6309e-06	2.1056e-06	597.36	148.08	3.1398e-06	8.383e-07	277.28	106.89	57.795	23.028	1.9879e-06	47.499	1.4558e-05	6.6848e-06	1.9065e-06	325.71	7.3908e-08	7.3699e-08	547.43	133.98	7.8217e-08	7.2259e-08	237.98	93.381	49.343	20.228	7.4469e-08	40.944	326.719	146.462	157.184	92.629	225.655	200.757	92.665	97.729	207.277	214.849	96.094	100.480	101.416	106.384	170.639	103.730	-8191	255	
924.317	1	1	0	0	0.17595	0.10811	0.21346	0.2343	0.14536	0.22007	0.20747	0.15026	0.18388	0.14066	0.11336	0.10296	0.34782	0.058903	0.034629	0.34668	-2.2896	-2.1646	-2.4688	-2.5917	-2.2646	-2.6813	-2.4521	-2.325	-2.9729	-2.4875	-2.6458	-2.4083	-2.3583	-2.8187	-2.6979	-2.6083	214.266	96.587	378.606	182.922	424.995	359.398	86.404	437.940	251.033	317.223	408.177	386.947	330.102	255.299	160.467	431.948	0.001118	4.6098e-05	4.7338e-05	412.5	2.1624e-06	3.0076e-06	593.48	148.6	3.2011e-06	1.4842e-06	275.2	107.09	57.33	22.777	1.9384e-06	47.37	1.4254e-05	6.85e-06	1.9603e-06	328.32	7.4011e-08	7.5111e-08	546.32	134.23	7.9939e-08	7.4054e-08	237.03	93.11	49.207	20.076	7.7545e-08	40.786	326.796	165.473	129.936	92.717	244.604	232.255	92.602	97.503	208.866	200.280	95.714	100.167	101.629	106.166	195.012	103.820	-8191	255	
924.413	1	1	0	0	0.27057	0.091513	0.19152	0.027854	0.054307	0.15456	0.080242	0.30458	0.062309	0.22712	0.17822	0.23371	0.2825	0.25974	0.14431	0.066304	-2.1125	-2.3458	-2.6208	-2.5271	-2.3646	-2.5812	-2.5271	-2.4083	-2.7542	-2.2646	-2.5792	-2.5583	-2.3479	-2.5896	-2.5104	-2.4167	158.046	336.764	204.821	159.515	276.995	369.222	385.104	89.336	149.553	241.638	318.237	439.602	437.037	316.820	88.496	404.224	0.0010648	0.00019124	5.2114e-05	409.05	1.6419e-06	2.7014e-06	596.46	147.95	2.9749e-06	1.9068e-06	276.55	107.26	57.743	22.667	2.2874e-06	47.119	1.449e-05	6.6278e-06	1.9231e-06	326.1	7.5961e-08	7.3191e-08	545.73	134.24	7.886e-08	7.4614e-08	237.96	93.039	49.382	20.013	8.0382e-08	40.75	323.696	133.525	131.184	92.629	230.973	190.014	92.454	97.605	192.158	207.278	96.448	100.204	101.811	106.119	189.944	103.711	-8191	255	
924.509	1	1	0	0	0.061037	0.1644	0.02791	0.22908	0.30999	0.2282	0.16389	0.24532	0.12704	0.072036	0.073703	0.1007	0.30593	0.16312	0.11737	0.15417	-2.0312	-2.4104	-2.3458	-2.3833	-2.2313	-2.7896	-2.4125	-2.2375	-2.5271	-2.5208	-2.3521	-2.5833	-2.2917	-2.5083	-2.6792	-2.1437	317.720	283.084	212.731	390.938	183.466	128.790	349.829	127.536	328.856	215.670	238.101	249.956	353.380	211.665	180.734	267.321	0.0011203	0.00010301	3.1063e-05	409.43	1.1181e-06	2.6285e-06	600.01	148.62	3.013e-06	1.7201e-06	277.91	106.49	57.64	22.629	2.2278e-06	46.954	1.4524e-05	6.7978e-06	1.9563e-06	327.61	7.8782e-08	7.2215e-08	547.46	134.46	7.8725e-08	7.4894e-08	237.89	92.98	49.382	20.033	7.8031e-08	40.524	323.028	161.124	143.248	92.424	219.164	195.324	92.662	97.656	187.729	176.093	96.270	100.228	101.503	105.692	181.085	103.908	-8191	255	
924.605	1	1	0	0	0.12233	0.21047	0.11231	0.31078	0.11613	0.29993	0.24709	0.23637	0.1721	0.1516	0.28916	0.21137	0.074275	0.12306	0.10677	0.15845	-2.2188	-2.4604	-2.4021	-2.6583	-2.2667	-2.6771	-2.5729	-2.2208	-2.3833	-2.4229	-2.3063	-2.8542	-2.325	-2.4896	-2.7438	-2.4292	254.264	357.908	177.526	115.394	371.976	223.066	318.456	112.326	382.769	337.857	310.680	110.782	207.783	233.747	94.883	405.786	0.0010689	0.00018567	6.1491e-05	412.98	2.6016e-06	1.9977e-06	593.76	148.46	2.4145e-06	2.2432e-06	277.35	106.9	57.696	22.443	2.8796e-06	46.772	1.3981e-05	7.0552e-06	1.9355e-06	328.76	7.8834e-08	7.4353e-08	544.7	134.66	8.1486e-08	7.6855e-08	237.3	92.748	49.288	19.854	8.2981e-08	40.282	326.158	138.868	132.334	92.453	219.778	192.605	92.781	97.542	208.827	203.860	95.930	100.161	101.562	106.468	170.087	103.681	-8191	255	
924.726	1	1	0	0	0.25813	0.13299	0.081707	0.14862	0.21521	0.11265	0.20478	0.12441	0.18217	0.27746	0.276	0.0803	0.069314	0.10992	0.24315	0.26411	-2.1583	-2.5229	-2.2625	-2.5833	-2.3854	-2.6833	-2.6729	-2.4	-2.4396	-2.4938	-2.2792	-2.8292	-2.4896	-2.5146	-2.8	-2.3104	204.391	325.174	294.783	110.652	288.579	224.140	126.483	337.880	217.202	246.304	384.121	335.731	180.906	233.287	423.379	349.956	0.0010987	0.00016921	6.8828e-05	409.13	1.9754e-06	2.2902e-06	596.02	149.39	2.9537e-06	1.6894e-06	275.52	106.5	57.699	22.562	2.7208e-06	47.345	1.4785e-05	7.2689e-06	1.9366e-06	328.42	7.9954e-08	7.7954e-08	546.54	134.63	8.4495e-08	8.0817e-08	237.35	92.809	49.285	19.962	8.2887e-08	40.597	325.383	149.735	131.443	92.502	238.393	214.715	92.474	97.966	190.068	203.046	96.022	100.326	101.335	106.409	192.312	103.978	-8191	255	
924.820	1	1	0	0	0.32614	0.15059	0.10501	0.19907	0.1337	0.20238	0.06157	0.097439	0.29331	0.19925	0.13545	0.18669	0.17686	0.1897	0.047005	0.10031	-2.1771	-2.4354	-2.2833	-2.5792	-2.3708	-2.4646	-2.7271	-2.4	-2.5854	-2.6521	-2.2146	-2.6646	-2.2854	-2.4562	-2.5875	-2.2188	372.108	283.511	171.829	278.770	295.584	176.342	161.738	236.124	306.415	337.936	354.869	267.464	235.500	410.674	181.174	292.093	0.0010855	0.00020269	3.6071e-05	408.64	1.6685e-06	1.241e-06	592.67	148.33	3.8986e-06	1.9337e-06	275.62	106.51	57.723	22.508	1.9806e-06	47.271	1.4877e-05	7.4673e-06	1.9669e-06	327.36	7.8772e-08	7.6657e-08	545.39	134.27	8.5398e-08	7.9666e-08	237.8	92.754	49.198	19.968	7.975e-08	40.573	325.146	147.050	130.867	92.453	224.464	217.818	92.499	97.886	196.138	185.689	95.854	100.139	101.301	106.236	213.345	103.963	-8191	255	
924.916	1	1	0	0	0.17352	0.064701	0.091125	0.26747	0.13951	0.26229	0.06916	0.16749	0.20807	0.031502	0.037246	0.19183	0.23517	0.18169	0.11477	0.077913	-2.0271	-2.6042	-2.2042	-2.6792	-2.4437	-2.4708	-2.8	-2.4771	-2.5625	-2.4708	-2.3438	-2.5646	-2.5625	-2.2854	-2.5521	-2.3833	213.159	246.605	292.678	104.622	376.848	417.502	82.435	425.113	400.179	267.463	295.539	191.289	141.744	390.677	285.703	342.590	0.0010878	0.00014402	7.6332e-05	411.22	9.2104e-07	1.2548e-06	595.17	147.94	2.5159e-06	2.2857e-06	274.35	105.71	57.163	22.702	2.6566e-06	47.265	1.4764e-05	7.2954e-06	1.9471e-06	328.39	8.0317e-08	8.2209e-08	544.19	133.95	8.5803e-08	7.5371e-08	236.07	92.418	49.05	19.986	8.1189e-08	40.504	324.300	150.928	142.635	93.310	210.863	201.578	92.693	97.532	175.214	195.107	95.942	100.063	101.514	106.429	179.780	103.661	-8191	255	
925.012	1	1	0	0	0.22731	0.11856	0.042399	0.16889	0.19613	0.12619	0.13506	0.21125	0.21063	0.083444	0.09244	0.2869	0.14434	0.11339	0.019393	0.16704	-1.9854	-2.6688	-2.4313	-2.7542	-2.6396	-2.5271	-2.5958	-2.5146	-2.5875	-2.8104	-2.4396	-2.4708	-2.6167	-2.2958	-2.6083	-2.4583	317.060	337.586	421.195	267.015	341.652	309.812	387.291	168.760	191.025	91.370	231.491	89.962	428.776	409.888	238.583	417.629	0.0010599	0.00016129	4.4218e-05	407.63	1.6985e-06	1.7781e-06	592.38	147.16	2.9271e-06	1.2774e-06	274.84	106.35	57.103	22.72	2.0542e-06	47.236	1.4624e-05	7.455e-06	1.9951e-06	326.88	7.9135e-08	7.7259e-08	543.28	133.84	8.6851e-08	7.7529e-08	236.44	92.508	48.947	20.023	8.2235e-08	40.607	324.912	158.366	133.447	92.924	221.703	210.195	92.562	97.858	183.809	218.628	96.312	100.466	101.492	106.199	191.578	103.874	-8191	255	
925.109	1	1	0	0	0.075392	0.16783	0.1456	0.14188	0.13176	0.2125	0.31876	0.071498	0.22761	0.21323	0.20918	0.19392	0.21709	0.16856	0.15273	0.055089	-1.7396	-2.8979	-2.3667	-2.5062	-2.5604	-2.3271	-2.6271	-2.5021	-2.2188	-2.7125	-2.4188	-2.5958	-2.3125	-2.3563	-2.4917	-2.4042	438.198	158.736	394.958	289.571	438.935	169.254	301.551	428.633	148.441	345.455	296.216	425.585	344.004	151.708	125.868	335.734	0.0010577	0.00014799	3.559e-05	410.33	1.8845e-06	2.9239e-06	595.86	148.12	2.898e-06	1.4906e-06	275.86	106.31	57.942	22.76	2.6652e-06	47.075	1.5043e-05	7.4531e-06	2.0299e-06	326.88	8.1499e-08	8.0683e-08	546.13	134.22	8.5688e-08	7.6761e-08	237.67	92.82	49.283	20.033	8.15e-08	40.598	321.894	156.386	102.825	92.803	221.976	182.319	92.875	97.823	199.889	218.026	95.962	100.611	101.461	106.335	191.003	103.834	-8191	255	
925.205	1	1	0	0	0.17083	0.14362	0.060501	0.21582	0.23424	0.085973	0.10649	0.078988	0.12109	0.14265	0.14071	0.060396	0.20804	0.24488	0.15573	0.083661	-1.8375	-2.6917	-2.3438	-2.3792	-2.6729	-2.1771	-2.6021	-2.4313	-2.4667	-2.6833	-2.6125	-2.65	-2.6063	-2.3042	-2.7021	-2.6833	310.645	348.573	350.511	289.022	148.753	251.046	203.241	255.968	429.924	165.467	390.561	230.724	342.086	182.521	85.456	371.851	0.0010837	0.00018778	7.2983e-05	414.46	1.0066e-06	2.1632e-06	597.6	149.14	2.1644e-06	1.957e-06	275.78	106.17	57.591	22.591	2.3378e-06	46.841	1.494e-05	7.4246e-06	2.1058e-06	328.4	8.0722e-08	7.6989e-08	546.34	134.51	8.5699e-08	8.0371e-08	237.01	92.684	49.221	19.925	8.2173e-08	40.37	327.785	115.468	127.366	92.264	216.665	188.853	92.695	97.432	189.310	207.066	96.104	100.088	101.721	106.670	186.614	103.967	-8191	255	
925.301	1	1	0	0	0.14839	0.14304	0.098095	0.23308	0.041554	0.20469	0.16596	0.14213	0.13133	0.17013	0.11691	0.25702	0.19973	0.047569	0.14196	0.1382	-1.8937	-2.4417	-2.5792	-2.5333	-2.8146	-2.2229	-2.6521	-2.5	-2.3542	-2.7521	-2.4396	-2.4229	-2.6417	-2.2562	-2.5542	-2.7104	109.367	291.545	146.249	196.011	316.746	369.711	87.960	198.813	398.848	436.466	332.554	360.187	202.527	242.778	282.942	154.168	0.0011114	9.8471e-05	5.0848e-05	405.09	1.9767e-06	1.2281e-06	594.73	148.39	2.8055e-06	2.1557e-06	277.26	106.43	57.477	22.958	3.5455e-06	47.383	1.5065e-05	7.304e-06	2.0826e-06	325.23	7.8336e-08	7.7715e-08	545.24	134.3	8.5688e-08	7.6035e-08	236.77	92.529	49.152	20.233	8.297e-08	40.791	328.367	136.093	128.531	92.938	253.379	216.675	92.698	97.678	187.705	219.018	95.981	100.351	101.574	106.541	212.044	103.802	-8191	255	
925.397	1	1	0	0	0.21115	0.086251	0.13368	0.12756	0.19118	0.17303	0.085834	0.22722	0.31173	0.11108	0.13264	0.38528	0.28596	0.30128	0.12604	0.21332	-1.8917	-2.6458	-2.5104	-2.325	-2.55	-2.3542	-2.6083	-2.5958	-2.2562	-2.6792	-2.5708	-2.4458	-2.5167	-2.5042	-2.525	-2.7875	391.952	404.918	320.872	398.724	205.472	95.516	88.975	99.737	366.353	236.651	217.004	401.594	87.680	131.025	403.413	342.397	0.0010755	0.00020796	4.7013e-05	412.05	2.0847e-06	1.8433e-06	592.96	147.92	3.3764e-06	2.1754e-06	276.35	106.25	57.738	22.878	2.2195e-06	47.506	1.4924e-05	7.342e-06	2.0695e-06	328.28	8.1479e-08	7.537e-08	544.95	134.35	8.6903e-08	7.8525e-08	237.53	92.764	49.266	20.167	8.6159e-08	40.923	327.606	153.816	146.813	93.096	241.686	190.188	92.899	97.868	187.527	202.393	96.048	100.485	101.245	106.573	213.134	103.984	-8191	255	
925.518	1	1	0	0	0.088183	0.049045	0.12011	0.2228	0.14724	0.3421	0.075774	0.081864	0.32235	0.070012	0.12921	0.18275	0.1774	0.14681	0.02996	0.055643	-1.9646	-2.3021	-2.4688	-2.4062	-2.6729	-2.3354	-2.6813	-2.7438	-2.4208	-2.7	-2.6583	-2.5083	-2.75	-2.5083	-2.5042	-2.7042	281.514	85.953	154.573	270.877	206.868	208.181	438.747	126.418	176.121	401.598	407.193	135.689	428.941	177.373	95.241	388.099	0.0010038	0.00018254	7.2469e-05	408.45	1.4755e-06	2.5641e-06	592.81	147.72	8.1941e-07	2.1939e-06	278.11	106.41	57.752	22.752	2.3433e-06	47.124	1.5057e-05	7.3486e-06	2.0634e-06	327.41	7.6086e-08	7.8732e-08	545.27	134.1	8.2378e-08	7.9437e-08	238.61	93.075	49.303	20.111	8.9028e-08	40.609	328.762	168.739	132.926	92.537	207.271	152.551	92.807	97.880	161.608	194.612	96.043	100.307	101.885	106.352	185.313	103.614	-8191	255	
925.614	1	1	0	0	0.35469	0.057958	0.067736	0.09658	0.18094	0.25472	0.22168	0.3412	0.055176	0.13995	0.17354	0.16253	0.34181	0.20923	0.16538	0.16357	-1.9521	-2.5187	-2.5479	-2.3458	-2.6208	-2.4188	-2.575	-2.5208	-2.2542	-2.5563	-2.6437	-2.2938	-2.5042	-2.4375	-2.3	-2.7396	219.962	83.155	317.480	89.221	297.563	220.680	426.146	382.760	203.933	242.331	432.160	177.950	150.209	436.229	278.644	316.565	0.0010481	0.00023647	2.7788e-05	403.95	2.1558e-06	2.5156e-06	594.67	149.07	2.6135e-06	2.2849e-06	276.3	105.91	57.943	22.632	1.7777e-06	47.038	1.4833e-05	7.6107e-06	2.0209e-06	326.56	8.2682e-08	7.9698e-08	544.37	134.26	9.068e-08	8.1471e-08	237.06	92.537	49.166	20.035	8.8769e-08	40.519	326.129	128.967	148.461	92.192	244.565	186.207	92.602	97.812	203.129	191.622	96.053	100.469	101.973	106.377	172.365	103.587	-8191	255	
925.686	1	1	0	0	0.10846	0.15366	0.1744	0.137	0.03433	0.068502	0.096641	0.17238	0.079986	0.21672	0.22636	0.11366	0.20049	0.19148	0.27009	0.32327	-2.0375	-2.4604	-2.5625	-2.2708	-2.6479	-2.5417	-2.4188	-2.6917	-2.3792	-2.6375	-2.7146	-2.4167	-2.8	-2.6229	-2.4542	-2.8021	190.298	307.877	412.867	375.165	243.806	89.698	312.035	348.906	264.362	100.367	103.218	339.079	409.329	376.783	222.867	104.773	0.0010688	0.00015121	6.8645e-05	407.04	2.5297e-06	2.0132e-06	591.46	148.01	2.6171e-06	1.8986e-06	274.81	105.94	57.837	22.87	1.8938e-06	47.3	1.5212e-05	7.7551e-06	2.1277e-06	327.57	8.1095e-08	8.333e-08	543.23	133.97	8.875e-08	8.3711e-08	236.77	92.379	49.197	20.136	8.8821e-08	40.737	323.628	153.191	128.933	92.112	227.133	182.684	92.618	97.781	199.667	208.079	96.125	100.275	101.266	106.256	151.458	103.671	-8191	255	
925.806	1	1	0	0	0.20222	0.39098	0.16238	0.070384	0.021182	0.17205	0.14925	0.11373	0.048863	0.10926	0.077762	0.028529	0.32832	0.039315	0.064728	0.33461	-1.9813	-2.3979	-2.4229	-2.3979	-2.5667	-2.7	-2.5083	-2.7104	-2.3583	-2.4625	-2.7042	-2.4104	-2.6854	-2.35	-2.2646	-2.8583	197.448	261.498	230.039	84.413	222.668	161.692	271.990	340.740	383.727	227.870	353.089	209.323	131.303	181.693	252.812	219.605	0.0011694	0.00016189	3.7692e-05	409.8	1.6038e-06	2.501e-06	592.97	148	2.9419e-06	1.1715e-06	275.57	106.83	57.629	22.731	2.5191e-06	47.158	1.5588e-05	7.9992e-06	2.0964e-06	328.07	7.7828e-08	8.0455e-08	544.56	134.03	8.9393e-08	7.8338e-08	237.17	92.845	49.126	20.091	8.4503e-08	40.767	325.067	162.309	134.055	92.730	225.045	212.864	92.699	97.799	196.250	184.581	96.276	100.467	101.764	106.637	203.542	103.721	-8191	255	
925.901	1	1	0	0	0.078397	0.079092	0.1581	0.18254	0.055028	0.11454	0.097435	0.065291	0.15903	0.14296	0.25779	0.2663	0.035352	0.18598	0.2635	0.11619	-1.9729	-2.525	-2.6479	-2.2958	-2.5292	-2.5771	-2.4042	-2.5271	-2.3563	-2.3167	-2.7812	-2.3771	-2.4938	-2.5396	-2.4562	-2.6896	240.915	258.037	221.189	405.305	204.682	178.341	236.769	99.050	179.580	422.067	373.110	167.253	366.553	257.275	81.681	255.527	0.0011884	0.00018891	7.1046e-05	406.66	1.6178e-06	2.4122e-06	594.83	148.15	3.0854e-06	1.1818e-06	275.79	105.72	57.357	22.659	2.4737e-06	47.242	1.5273e-05	7.7665e-06	2.0592e-06	327.47	8.2692e-08	7.8369e-08	544.64	134.21	9.0172e-08	8.4634e-08	236.96	92.554	49.233	20.008	8.5932e-08	40.585	323.607	154.171	160.720	92.498	180.206	187.741	92.720	97.913	183.029	185.380	95.997	100.149	101.725	106.371	180.266	103.768	-8191	255	
925.998	1	1	0	0	0.22696	0.083646	0.24106	0.19005	0.11355	0.091122	0.17508	0.091131	0.20527	0.19681	0.17959	0.0032993	0.11353	0.19706	0.16272	0.12657	-2.15	-2.3333	-2.6021	-2.3458	-2.3625	-2.675	-2.2021	-2.5208	-2.3146	-2.2958	-2.6896	-2.3063	-2.3	-2.4604	-2.2979	-2.5896	243.613	432.547	311.031	222.417	361.879	219.975	325.161	302.657	336.755	314.628	250.609	135.598	315.666	403.792	316.440	208.349	0.0011046	0.00018463	5.3195e-05	407.32	1.5471e-06	2.1565e-06	592.7	147.81	2.8214e-06	1.4505e-06	274.85	106.11	57.434	22.766	2.497e-06	47.104	1.4938e-05	7.7095e-06	2.0518e-06	327.43	8.2547e-08	7.8764e-08	543.75	134.13	8.8366e-08	8.1699e-08	236.89	92.519	49.194	20.039	8.5497e-08	40.549	327.226	151.810	132.368	92.570	213.924	200.964	92.658	97.773	201.541	205.580	96.019	100.425	101.746	106.212	214.633	103.513	-8191	255	
926.117	1	1	0	0	0.14988	0.14272	0.23729	0.14225	0.15637	0.29095	0.085455	0.33319	0.06345	0.11576	0.059483	0.20528	0.25907	0.13594	0.15927	0.0824	-2.1	-2.2854	-2.6042	-2.3146	-2.3542	-2.7208	-2.5292	-2.5	-2.4771	-2.375	-2.7167	-2.4208	-2.2917	-2.5563	-2.3812	-2.6417	124.898	163.958	224.781	289.395	266.612	327.249	200.789	324.036	437.860	416.238	198.005	362.736	135.300	315.934	414.883	111.683	0.0010927	0.00015427	5.7356e-05	406.61	3.1412e-06	2.2716e-06	596.61	148.81	1.0507e-06	1.5294e-06	276.18	106.53	57.818	22.895	3.0849e-06	47.51	1.5062e-05	7.8558e-06	2.0747e-06	326.98	8.6696e-08	8.0621e-08	544.49	134.26	8.3883e-08	8.2383e-08	237.6	92.806	49.343	20.085	8.4285e-08	40.846	324.069	157.126	154.255	93.510	225.545	163.799	92.354	97.743	190.834	197.192	96.212	100.267	101.498	106.748	185.787	103.902	-8191	255	
926.213	1	1	0	0	0.070897	0.28011	0.17623	0.13282	0.22868	0.28637	0.005845	0.072106	0.099483	0.14637	0.22971	0.16991	0.099217	0.20201	0.09722	0.2996	-2.25	-2.2938	-2.5	-2.525	-2.4229	-2.8292	-2.4062	-2.5792	-2.5854	-2.2271	-2.5646	-2.6188	-2.4062	-2.6125	-2.2479	-2.6292	205.824	396.428	383.175	331.292	191.632	187.903	319.548	420.901	224.185	261.760	83.303	88.070	145.518	350.935	263.336	92.609	0.0011244	0.00022942	6.165e-05	410.15	2.065e-06	1.9376e-06	592.9	148.35	2.5071e-06	1.3881e-06	275.56	106.39	57.299	22.853	1.997e-06	47.174	1.5063e-05	7.5576e-06	1.9787e-06	327.07	8.0794e-08	7.7062e-08	545.96	134.04	8.5128e-08	7.9012e-08	237.21	92.717	49.132	20.138	8.3509e-08	40.689	324.652	158.891	143.341	92.561	238.962	185.310	92.666	97.805	212.939	241.226	96.321	100.426	101.259	106.422	189.432	103.968	-8191	255	
926.285	1	1	0	0	0.045308	0.068662	0.020073	0.26766	0.032349	0.32189	0.15592	0.09453	0.11936	0.20695	0.23105	0.073404	0.31165	0.11301	0.17179	0.13714	-2.0875	-2.2	-2.4854	-2.4667	-2.2521	-2.7	-2.4625	-2.4458	-2.6667	-2.2854	-2.4562	-2.6208	-2.1708	-2.6479	-2.4229	-2.3646	421.287	99.059	426.255	369.016	273.858	166.173	320.377	270.602	425.799	193.729	364.076	380.938	92.609	353.079	91.983	379.909	0.0010811	0.00016309	5.297e-05	409.99	1.4985e-06	8.3715e-07	589.64	149.08	2.3741e-06	1.9804e-06	275.65	106.87	57.552	22.816	1.8456e-06	47.229	1.4916e-05	7.1425e-06	2.0887e-06	326.75	8.1966e-08	7.7415e-08	543.02	134.3	8.6072e-08	7.8732e-08	237.11	92.662	49.221	20.121	8.4296e-08	40.735	324.290	136.237	134.187	92.416	205.156	146.483	92.331	97.853	203.742	201.908	96.287	100.368	101.587	106.114	188.628	103.805	-8191	255	
926.406	1	1	0	0	0.24163	0.11932	0.2374	0.090054	0.30509	0.174	0.33101	0.11226	0.055211	0.21674	0.046015	0.25076	0.069306	0.27752	0.047389	0.18012	-2.1167	-2.2625	-2.6646	-2.4833	-2.2896	-2.7771	-2.4771	-2.3042	-2.5833	-2.3125	-2.4562	-2.6875	-2.3521	-2.5083	-2.4354	-2.4417	86.580	286.433	231.020	376.130	139.638	89.163	405.356	257.977	306.510	364.920	348.393	80.962	311.006	242.957	371.472	210.791	0.0010815	0.00018009	4.9996e-05	408.09	2.6377e-06	2.4551e-06	594.86	147.9	2.5471e-06	2.2246e-06	276.64	106.7	57.763	22.753	2.681e-06	47.388	1.4928e-05	7.945e-06	2.042e-06	328.28	8.1002e-08	7.9874e-08	545.01	133.9	8.1382e-08	7.9354e-08	237.54	92.591	49.251	20.116	8.3229e-08	40.891	323.124	155.356	121.194	92.196	204.897	160.008	92.887	97.723	199.380	190.458	95.937	100.145	101.410	106.632	220.938	103.553	-8191	255	
926.502	1	1	0	0	0.23424	0.033452	0.14568	0.19178	0.15667	0.18137	0.21643	0.02477	0.12711	0.27338	0.071235	0.12381	0.17349	0.31209	0.34079	0.22434	-2.35	-2.3563	-2.4313	-2.4437	-2.4188	-2.4938	-2.6625	-2.2854	-2.5938	-2.3417	-2.4208	-2.6271	-2.3708	-2.4562	-2.4021	-2.3521	335.181	421.258	426.871	354.668	192.864	183.456	350.575	152.869	365.814	199.772	301.933	309.891	316.461	383.638	321.137	283.754	0.0010677	0.00024699	6.4125e-05	413.55	1.724e-06	2.3256e-06	596.2	148.88	2.7801e-06	2.2197e-06	276.55	106.42	57.54	22.72	2.4829e-06	47.275	1.4793e-05	7.7389e-06	2.0702e-06	328.29	8.1261e-08	8.0123e-08	546.53	134.75	8.7806e-08	8.0381e-08	237.67	92.937	49.311	20.049	8.5155e-08	40.633	324.180	159.376	137.398	92.949	235.269	198.585	92.691	97.806	216.344	202.668	95.963	100.366	101.706	106.326	183.986	103.928	-8191	255	
926.598	1	1	0	0	0.12231	0.089637	0.28982	0.076992	0.2223	0.093072	0.27493	0.24605	0.20262	0.15883	0.10087	0.15681	0.13604	0.15037	0.036597	0.13275	-2.2521	-2.3729	-2.3917	-2.6229	-2.4854	-2.4688	-2.6083	-2.2146	-2.6188	-2.5062	-2.5333	-2.9042	-2.5563	-2.7208	-2.5604	-2.3708	256.851	286.985	189.613	244.454	96.602	142.839	131.660	340.459	273.592	435.413	307.150	85.761	308.938	185.023	99.807	107.269	0.0010259	0.0001809	6.3647e-05	410.12	1.9181e-06	1.2001e-06	593.92	148.05	2.7244e-06	1.7438e-06	273.84	105.16	57.244	22.615	1.8677e-06	46.796	1.4642e-05	7.7627e-06	2.051e-06	327.8	8.3066e-08	8.0061e-08	544.36	134.15	8.8957e-08	8.1367e-08	235.95	92.064	49.039	19.926	8.1914e-08	40.381	324.792	152.381	122.553	92.080	222.811	239.791	92.445	97.685	186.032	217.251	96.141	100.292	101.857	106.619	185.434	103.737	-8191	255	
926.694	1	1	0	0	0.24598	0.27743	0.20803	0.078049	0.20839	0.057108	0.19225	0.25492	0.12245	0.14959	0.17626	0.26144	0.26246	0.35331	0.18209	0.053366	-2.1896	-2.4542	-2.2167	-2.5625	-2.3312	-2.5625	-2.6333	-2.4646	-2.5708	-2.5104	-2.275	-2.5312	-2.4708	-2.4021	-2.5375	-2.3563	402.174	173.168	193.588	159.321	372.048	216.402	431.349	364.432	284.159	432.381	253.208	125.457	308.219	100.769	217.679	415.608	0.0010525	0.00011483	3.6249e-05	410.54	2.1376e-06	9.8582e-07	592.31	147.78	2.2487e-06	2.2119e-06	274.52	105.39	57.406	22.451	2.8773e-06	46.648	1.4652e-05	7.1644e-06	1.9869e-06	327.97	8.1116e-08	7.427e-08	543.91	133.58	8.875e-08	7.5433e-08	235.71	92.111	48.963	19.881	8.6201e-08	40.234	321.728	150.676	132.669	92.081	247.667	214.385	92.641	97.830	187.235	216.612	96.052	100.223	101.733	106.484	206.070	103.669	-8191	255	
926.813	1	1	0	0	0.23768	0.33735	0.22732	0.095836	0.17112	0.30002	0.058397	0.12188	0.14321	0.07647	0.15575	0.28217	0.15794	0.21426	0.053293	0.048099	-2.2125	-2.5208	-2.2687	-2.7396	-2.3271	-2.4208	-2.6833	-2.4542	-2.6333	-2.5333	-2.3208	-2.6125	-2.3771	-2.4708	-2.4917	-2.4313	90.959	434.382	265.390	359.074	342.978	204.213	311.036	126.859	372.525	267.532	89.002	407.439	100.045	337.224	258.747	420.698	0.0011123	0.00014801	5.4241e-05	406.56	1.2925e-06	1.1303e-06	590.94	147.76	2.4035e-06	1.491e-06	276.28	105.71	57.136	22.743	1.9571e-06	46.946	1.4792e-05	7.2736e-06	2.0204e-06	326.93	7.7641e-08	7.7446e-08	544.25	134.01	7.8912e-08	7.7705e-08	236.32	92.351	49.006	19.962	8.2349e-08	40.397	324.084	157.851	142.773	93.199	274.104	184.212	92.502	97.636	191.933	216.346	96.254	100.131	101.800	106.481	218.650	103.390	-8191	255	
926.909	1	1	0	0	0.16248	0.15854	0.25158	0.16944	0.1652	0.11817	0.28085	0.30897	0.15871	0.035641	0.32276	0.25972	0.12547	0.30298	0.10397	0.19014	-2.1521	-2.5625	-2.3146	-2.5563	-2.4708	-2.425	-2.7313	-2.2771	-2.5625	-2.6708	-2.3688	-2.65	-2.4167	-2.3417	-2.8438	-2.4042	418.976	219.230	286.850	413.981	258.235	279.665	395.981	402.303	283.044	203.747	217.635	401.080	198.982	119.876	267.713	421.303	0.0010488	0.00016934	6.7882e-05	409.19	2.2409e-06	1.3182e-06	590.98	147.99	2.3584e-06	1.6335e-06	274.01	105.79	57.183	22.42	2.5765e-06	46.38	1.4809e-05	7.2859e-06	1.9579e-06	327.21	8.3107e-08	7.5391e-08	543.25	133.88	8.5813e-08	7.7913e-08	235.22	92.086	49.045	19.771	8.005e-08	39.875	324.386	150.183	158.540	92.791	238.575	220.288	92.423	97.922	200.995	218.179	95.961	100.575	101.583	106.212	198.530	103.883	-8191	255	
926.981	1	1	0	0	0.14548	0.22553	0.065648	0.2383	0.28563	0.34727	0.095279	0.066896	0.22607	0.024142	0.29374	0.3833	0.30666	0.25717	0.11815	0.26649	-2.2	-2.4396	-2.1958	-2.7062	-2.4708	-2.4958	-2.6937	-2.3312	-2.4375	-2.6188	-2.3958	-2.6333	-2.6583	-2.2438	-2.7562	-2.5938	162.491	195.097	143.681	260.055	311.151	224.553	185.162	189.310	103.441	320.175	344.003	412.940	381.264	220.465	414.102	421.817	0.00098855	8.5329e-05	6.0695e-05	407.62	1.7121e-06	2.3814e-06	590.16	148.53	1.6564e-06	1.0185e-06	273.6	105.22	56.81	22.406	2.8596e-06	46.251	1.5014e-05	7.3334e-06	2.1541e-06	327.65	7.6614e-08	7.9085e-08	543.04	134.58	8.4433e-08	7.8815e-08	235.99	91.672	48.947	19.75	8.5321e-08	39.767	325.454	125.929	133.082	93.127	231.937	201.055	92.277	97.748	168.735	174.803	95.709	100.427	101.050	106.081	194.413	103.584	-8191	255	
927.079	1	1	0	0	0.30936	0.27562	0.17107	0.1179	0.075865	0.30382	0.072051	0.1915	0.096492	0.11978	0.1187	0.11414	0.047392	0.14473	0.22379	0.054538	-2.0208	-2.6979	-2.1667	-2.6	-2.5729	-2.2021	-2.7333	-2.3688	-2.5146	-2.6229	-2.4646	-2.4938	-2.5812	-2.3396	-2.6271	-2.6063	309.225	110.304	285.169	157.295	311.143	340.880	289.829	305.740	100.123	350.807	358.235	102.320	85.622	326.010	340.614	319.293	0.0010981	0.00017502	6.5048e-05	407.99	1.5703e-06	1.6524e-06	592.05	148.28	2.6484e-06	1.4403e-06	275.16	105.83	57.769	22.465	1.5291e-06	46.701	1.5323e-05	7.3619e-06	2.0014e-06	329.14	7.9487e-08	8.1451e-08	544.35	134.32	8.5886e-08	7.6865e-08	236.87	92.105	49.185	19.77	8.2121e-08	40.109	321.121	158.633	136.346	91.994	214.725	194.640	92.668	97.660	201.970	184.192	95.840	100.426	101.610	106.408	190.953	103.687	-8191	255	
927.198	1	1	0	0	0.075724	0.10624	0.27697	0.33539	0.10321	0.27563	0.16594	0.15207	0.14961	0.11024	0.062883	0.32065	0.24386	0.23363	0.06177	0.17816	-1.8813	-2.6604	-2.4	-2.4875	-2.55	-2.3979	-2.7146	-2.5083	-2.4042	-2.7417	-2.3354	-2.7646	-2.6896	-2.2271	-2.6646	-2.7396	214.797	181.498	418.085	160.005	404.621	271.685	378.689	219.681	200.350	303.138	371.062	353.174	320.445	413.553	226.488	369.776	0.0011395	0.00016351	5.5069e-05	410.47	8.7638e-07	1.8768e-06	595.14	148.61	1.8887e-06	2.6131e-06	275.46	105.32	57.457	22.361	2.6619e-06	46.259	1.5481e-05	7.3714e-06	1.9569e-06	328.79	7.7351e-08	7.9718e-08	544.35	134.54	8.6923e-08	8.0869e-08	236.51	92.1	49.038	19.744	8.354e-08	39.861	325.206	158.693	104.873	92.896	264.564	178.101	92.545	97.847	158.151	217.678	96.126	100.425	101.532	106.141	180.013	103.802	-8191	255	
927.294	1	1	0	0	0.22528	0.081292	0.15249	0.12439	0.13941	0.25531	0.35208	0.18484	0.21108	0.15412	0.32269	0.20142	0.079127	0.24074	0.079265	0.11831	-1.9292	-2.6917	-2.3729	-2.5104	-2.8292	-2.6854	-2.8458	-2.4625	-2.3729	-2.6833	-2.5312	-2.5854	-2.8333	-2.3792	-2.3812	-2.6	300.997	222.276	379.864	206.459	374.866	282.285	280.086	387.524	128.248	336.335	90.821	393.909	271.514	324.439	168.805	307.797	0.0011567	0.00018469	5.9645e-05	410.61	1.8863e-06	1.765e-06	593.8	148.73	2.5954e-06	1.827e-06	274.13	104.92	56.955	22.105	3.0006e-06	45.991	1.5487e-05	7.1986e-06	2.0906e-06	329.36	7.6075e-08	7.8795e-08	542.09	134.99	8.6498e-08	7.6657e-08	235.16	91.473	48.888	19.56	8.0672e-08	39.587	323.059	152.696	109.825	92.837	240.320	210.031	92.467	97.606	206.394	199.120	95.554	99.947	101.384	106.493	173.895	103.643	-8191	255	
927.390	1	1	0	0	0.21318	0.37476	0.29497	0.15321	0.14409	0.21561	0.28362	0.4873	0.18492	0.17579	0.13696	0.15384	0.23108	0.091905	0.1498	0.23148	-1.7812	-2.5812	-2.2521	-2.3646	-2.6208	-2.3854	-2.55	-2.3896	-2.3667	-2.7417	-2.6188	-2.4208	-2.7229	-2.2792	-2.525	-2.6229	97.501	403.510	193.894	336.446	105.079	259.648	370.381	406.677	277.835	196.836	364.997	406.636	220.095	413.805	314.785	435.437	0.0010634	0.0002107	3.8006e-05	408.89	2.0731e-06	2.5778e-06	592.61	148.9	3.0229e-06	1.9743e-06	274.46	105.33	57.409	22.093	2.3439e-06	46.316	1.4752e-05	7.0884e-06	2.0531e-06	328.08	7.8751e-08	7.8016e-08	542.76	134.7	8.4474e-08	7.5952e-08	235.97	91.707	49.058	19.615	8.412e-08	39.798	325.168	148.536	137.901	92.355	204.255	189.953	92.714	97.566	190.294	206.757	95.940	100.327	101.494	106.259	178.848	103.776	-8191	255	
927.486	1	1	0	0	0.089871	0.25812	0.093614	0.14637	0.33754	0.23816	0.084713	0.062092	0.016105	0.20232	0.069002	0.32695	0.18509	0.22025	0.065029	0.16888	-1.7958	-2.4167	-2.375	-2.3958	-2.6	-2.2667	-2.5729	-2.6521	-2.425	-2.7646	-2.6125	-2.1562	-2.7729	-2.2792	-2.6063	-2.8021	123.176	379.892	271.956	134.219	368.972	241.491	380.961	141.307	303.290	420.814	315.580	343.217	290.910	260.420	129.759	391.269	0.0011182	0.00016943	4.7995e-05	411.15	1.419e-06	1.0685e-06	593.82	148.33	3.4467e-06	1.6776e-06	273.79	104.89	57.209	22.28	3.0043e-06	46.204	1.5158e-05	7.2423e-06	2.0692e-06	329.33	7.7849e-08	7.9791e-08	544.25	134.51	8.435e-08	7.6077e-08	236.13	91.893	49.097	19.657	8.413e-08	39.807	325.841	148.520	115.996	93.136	206.353	220.078	92.288	97.822	206.219	209.282	96.035	100.274	101.130	106.426	178.872	103.737	-8191	255	
927.582	1	1	0	0	0.22352	0.13553	0.43304	0.40889	0.28327	0.24266	0.19654	0.23663	0.23459	0.071233	0.054208	0.16788	0.075047	0.18824	0.050282	0.063444	-1.9167	-2.4625	-2.3146	-2.2687	-2.6979	-2.1979	-2.4979	-2.5896	-2.3375	-2.6958	-2.5938	-2.4667	-2.5812	-2.3125	-2.3833	-2.7458	364.522	301.501	293.693	292.924	393.520	367.513	279.621	180.338	158.589	248.364	315.887	427.737	434.582	330.006	299.656	191.932	0.0010971	0.0001241	4.5628e-05	406.95	2.488e-06	2.4161e-06	591.02	148.71	2.6094e-06	2.5703e-06	274.35	104.96	57.35	22.323	1.4292e-06	46.156	1.4947e-05	7.38e-06	2.0281e-06	328.95	8.0255e-08	7.9251e-08	543.28	134.61	8.6145e-08	7.4095e-08	235.82	91.414	49.015	19.658	8.384e-08	39.735	323.098	136.522	133.995	93.351	232.467	192.447	92.559	97.578	196.880	212.269	95.749	100.151	101.569	106.457	177.883	103.747	-8191	255	
927.678	1	1	0	0	0.22785	0.18304	0.3395	0.14631	0.32019	0.24116	0.12054	0.11335	0.16957	0.05212	0.30259	0.13335	0.067614	0.30652	0.21081	0.071158	-1.875	-2.6292	-2.4833	-2.2354	-2.5625	-2.4375	-2.5062	-2.6063	-2.2792	-2.5292	-2.6083	-2.3042	-2.6083	-2.4083	-2.325	-2.7708	380.367	350.315	128.163	197.259	176.644	190.705	356.017	231.900	250.616	245.083	135.350	135.640	311.965	113.598	132.824	115.104	0.0011237	0.00015212	7.5469e-05	409.3	1.4521e-06	3.2637e-06	594.04	148.77	2.824e-06	1.6678e-06	274.9	105.33	57.013	22.398	2.8008e-06	46.436	1.503e-05	7.3372e-06	1.9853e-06	328.35	7.5432e-08	8.0538e-08	544.05	134.69	8.3146e-08	7.2809e-08	236.56	91.902	49.019	19.721	8.2898e-08	39.91	324.386	154.173	143.985	93.134	196.834	192.823	92.576	97.805	185.846	183.481	95.979	100.157	101.322	106.392	200.900	103.844	-8191	255	
927.799	1	1	0	0	0.038384	0.20023	0.14706	0.22219	0.12633	0.18928	0.11046	0.148	0.11284	0.06627	0.19864	0.16717	0.17687	0.055719	0.12169	0.30403	-1.875	-2.1521	-2.5354	-2.0896	-2.6417	-2.4833	-2.3375	-2.6208	-2.4833	-2.4021	-2.7167	-2.3563	-2.7042	-2.6042	-2.3917	-2.6333	312.942	195.094	80.988	329.723	307.837	238.023	327.223	186.832	436.046	359.426	305.710	383.652	291.859	146.837	341.367	395.821	0.0010525	0.00018924	3.8495e-05	409.67	1.4216e-06	1.4434e-06	595.03	148.48	2.9521e-06	9.1183e-07	276.67	106.26	57.735	22.371	2.2216e-06	46.607	1.4773e-05	7.1881e-06	1.9099e-06	329.51	7.509e-08	7.6211e-08	546.08	134.92	8.3416e-08	7.7767e-08	237.54	92.597	49.217	19.746	8.3757e-08	40.151	325.859	142.146	119.758	92.825	208.580	209.435	92.295	98.169	177.121	231.994	95.962	100.014	101.612	106.445	206.019	103.736	-8191	255	
927.893	1	1	0	0	0.074939	0.028616	0.070414	0.029254	0.15919	0.18095	0.08663	0.13622	0.11757	0.18767	0.23446	0.12964	0.16777	0.18152	0.19678	0.24361	-2.1562	-2.3979	-2.8104	-2.3521	-2.4729	-2.55	-2.4521	-2.6875	-2.2729	-2.4854	-2.7333	-2.3292	-2.7042	-2.4042	-2.45	-2.6458	274.366	243.446	365.733	380.470	208.109	389.784	315.269	366.561	125.330	260.349	408.241	285.256	176.096	165.032	107.803	360.463	0.0010776	0.00020256	5.119e-05	414.17	1.7261e-06	2.0916e-06	596.16	148.47	1.754e-06	1.6112e-06	273.76	105.99	57.695	22.413	2.0848e-06	46.877	1.4857e-05	7.2613e-06	1.926e-06	329.95	8.0379e-08	7.6865e-08	545.63	134.74	8.2669e-08	7.6906e-08	236.25	92.154	49.245	19.83	8.1075e-08	40.178	323.745	127.800	108.151	92.401	225.714	178.883	92.813	97.453	206.854	215.026	96.326	100.173	101.498	106.210	193.370	103.635	-8191	255	
927.990	1	1	0	0	0.048183	0.14013	0.30824	0.22828	0.16712	0.09835	0.15323	0.094722	0.051438	0.026497	0.26831	0.033392	0.10488	0.15014	0.2583	0.47619	-2.0875	-2.2021	-2.7521	-2.4313	-2.4479	-2.7042	-2.2562	-2.6958	-2.4521	-2.3792	-2.7	-2.2062	-2.4417	-2.5292	-2.4708	-2.8	86.271	342.149	101.656	402.353	342.010	230.424	406.149	151.461	121.746	100.169	404.675	123.065	144.196	84.171	387.777	373.057	0.0010634	0.00016908	7.1074e-05	410.14	2.1243e-06	2.2918e-06	593.15	148.36	3.2675e-06	1.3094e-06	275.19	105.95	57.188	22.688	2.2185e-06	46.861	1.4396e-05	7.3116e-06	1.8983e-06	329.01	7.6977e-08	7.6055e-08	545.14	134.75	7.996e-08	7.561e-08	236.88	92.263	49.288	19.955	8.0351e-08	40.328	323.621	165.678	163.012	92.416	244.678	196.765	92.871	97.618	203.784	192.673	95.824	100.451	101.296	106.654	194.327	103.690	-8191	255	
928.086	1	1	0	0	0.10972	0.19932	0.36323	0.11731	0.336	0.40593	0.19758	0.013728	0.011068	0.21753	0.36645	0.041925	0.12448	0.14878	0.18173	0.20106	-2.0917	-2.3604	-2.7167	-2.2479	-2.4729	-2.7417	-2.2438	-2.4583	-2.6375	-2.3187	-2.7396	-2.4479	-2.2708	-2.6292	-2.3875	-2.4646	205.912	112.889	404.566	372.677	274.438	427.924	350.848	237.796	161.182	387.052	402.999	335.801	104.294	380.145	366.627	396.143	0.0010536	0.00014431	4.3806e-05	412.4	1.3964e-06	1.7457e-06	595.63	148.85	2.8849e-06	1.9442e-06	277.87	106.04	57.707	22.799	3.0237e-06	47.434	1.4465e-05	7.2271e-06	1.9442e-06	330.33	7.9062e-08	7.5619e-08	547.77	135	8.4952e-08	7.6512e-08	238.16	92.638	49.36	20.037	8.3705e-08	40.677	325.475	146.663	135.454	92.667	216.068	217.381	92.364	97.870	189.823	211.326	96.031	100.169	101.549	106.078	165.208	103.832	-8191	255	
928.206	1	1	0	0	0.22484	0.24773	0.069693	0.33227	0.24969	0.06011	0.053881	0.0046968	0.25632	0.095777	0.12552	0.063214	0.2307	0.20052	0.20034	0.10103	-2.0187	-2.1104	-2.6229	-2.3937	-2.3417	-2.6604	-2.275	-2.4729	-2.6688	-2.5646	-2.5271	-2.4896	-2.2729	-2.6792	-2.3604	-2.6396	167.195	412.520	274.585	114.891	210.894	171.550	419.341	88.404	390.998	216.474	82.665	240.105	362.492	146.711	247.483	209.565	0.0010753	0.0002172	5.7886e-05	409.76	1.7889e-06	2.1868e-06	600	149.49	2.6548e-06	2.8119e-06	277.86	106.76	57.952	22.875	1.5418e-06	47.028	1.4706e-05	7.6896e-06	2.0223e-06	330.99	8.1271e-08	7.3118e-08	548.74	135.28	8.3717e-08	7.9261e-08	238.43	93.027	49.693	20.106	8.3592e-08	40.499	324.576	151.554	135.555	92.785	231.741	184.285	92.585	97.779	184.689	220.534	95.774	100.300	101.373	106.403	178.316	103.609	-8191	255	
928.278	1	1	0	0	0.055964	0.11983	0.40633	0.19453	0.069244	0.068815	0.13622	0.13874	0.18127	0.24384	0.24088	0.16988	0.23805	0.032113	0.2295	0.14432	-1.9896	-2.325	-2.4583	-2.5708	-2.3729	-2.8146	-2.3458	-2.4292	-2.4458	-2.2833	-2.7104	-2.5771	-2.4479	-2.6792	-2.4146	-2.4792	398.812	172.973	377.531	123.603	423.446	315.950	111.574	261.609	89.540	226.902	361.094	382.129	317.270	356.099	308.501	406.600	0.0010358	0.00018383	4.0911e-05	416.15	1.9974e-06	2.1336e-06	596.94	148.98	3.6859e-06	1.8562e-06	276.02	106.8	58.05	22.57	2.7765e-06	46.962	1.4795e-05	7.1198e-06	2.0249e-06	332.17	8.0338e-08	7.7954e-08	547.38	135.38	8.4983e-08	8.0091e-08	237.63	93	49.611	20.009	8.5901e-08	40.424	323.050	149.588	154.823	92.510	229.145	189.086	92.496	97.746	212.609	197.530	95.982	100.436	101.899	106.207	200.933	103.557	-8191	255	
928.374	1	1	0	0	0.042344	0.18203	0.3109	0.0046784	0.063816	0.054016	0.20568	0.25195	0.44908	0.21153	0.30801	0.18709	0.3102	0.027932	0.1357	0.13919	-2.1042	-2.0563	-2.4854	-2.4479	-2.2292	-2.5979	-2.4542	-2.3438	-2.6437	-2.4708	-2.7083	-2.5458	-2.1042	-2.7854	-2.4458	-2.4646	398.799	164.620	341.050	390.456	271.367	322.777	170.528	294.591	313.542	111.777	349.009	350.164	179.940	345.722	367.925	282.385	0.0010713	0.00019406	6.3388e-05	413.72	1.854e-06	2.1517e-06	595.24	149.98	3.4311e-06	1.7158e-06	277.62	106.15	58.463	22.93	1.9032e-06	47.458	1.5466e-05	7.3458e-06	1.9635e-06	331.9	8.1873e-08	7.7155e-08	547.47	135.36	8.6394e-08	7.7819e-08	237.98	92.795	49.605	20.193	7.886e-08	40.883	324.583	139.995	127.599	92.891	219.996	191.196	92.555	97.565	182.675	199.351	95.848	100.523	101.411	106.405	211.887	103.594	-8191	255	
928.470	1	1	0	0	0.21475	0.24988	0.094436	0.073093	0.076533	0.24629	0.039988	0.12258	0.1448	0.28103	0.12849	0.056012	0.14378	0.12809	0.086484	0.035169	-2.4271	-2.3563	-2.2792	-2.4938	-2.2021	-2.5208	-2.4688	-2.4229	-2.6979	-2.3125	-2.4917	-2.5938	-2.3937	-2.4583	-2.4688	-2.3125	152.884	317.276	406.484	206.026	177.900	315.700	279.554	295.271	116.929	81.910	368.037	416.203	392.025	95.502	418.252	121.455	0.0011274	0.00019025	4.1577e-05	410.56	1.8612e-06	1.8167e-06	600.65	149.49	2.7304e-06	2.4234e-06	277.58	107.06	57.867	22.715	1.2754e-06	47.138	1.4635e-05	7.2442e-06	1.9413e-06	330.21	8.1053e-08	7.6034e-08	549.27	135.3	8.5076e-08	7.5682e-08	238.64	93.011	49.504	20.078	8.2277e-08	40.669	326.378	146.409	163.453	92.753	210.187	201.546	92.735	97.969	220.913	200.940	95.974	100.223	101.644	106.546	191.710	103.732	-8191	255	
928.591	1	1	0	0	0.1851	0.10666	0.34578	0.31886	0.035863	0.10148	0.080478	0.43781	0.3136	0.25127	0.081133	0.1681	0.17387	0.072099	0.20379	0.16296	-2.0354	-2.2354	-2.3125	-2.5375	-2.1292	-2.4646	-2.5854	-2.2562	-2.6417	-2.3937	-2.4896	-2.6917	-2.0875	-2.5333	-2.3833	-2.3563	216.984	123.725	241.902	292.507	127.989	210.975	395.519	362.913	429.731	433.190	302.556	371.539	320.800	213.828	87.360	81.267	0.0010412	0.00022205	3.1724e-05	407.95	1.9516e-06	1.859e-06	597.03	150.37	2.0196e-06	1.8646e-06	276.34	105.44	57.934	22.788	1.9366e-06	46.986	1.4575e-05	7.2964e-06	1.9466e-06	330.51	8.0825e-08	7.7415e-08	548.99	135.42	8.0188e-08	7.4593e-08	237.45	92.629	49.397	20.07	8.1272e-08	40.537	325.112	150.355	132.355	92.774	212.774	174.229	92.462	97.690	172.735	199.637	95.651	100.401	101.383	106.315	203.712	103.683	-8191	255	
928.687	1	1	0	0	0.16038	0.24055	0.20649	0.12011	0.14847	0.14825	0.052898	0.034032	0.062914	0.27988	0.22216	0.15725	0.063619	0.059263	0.17559	0.23278	-2.0708	-2.3875	-2.325	-2.5958	-2.3458	-2.6063	-2.6583	-2.2271	-2.6396	-2.2375	-2.2833	-2.8875	-2.1771	-2.3958	-2.5271	-2.3438	174.495	337.296	248.741	339.594	418.495	258.526	341.259	400.044	113.143	372.159	313.379	170.216	211.256	258.281	288.913	328.574	0.0010508	0.00020633	5.5986e-05	411.85	1.9985e-06	2.561e-06	595.95	149.8	2.5028e-06	1.1619e-06	277.25	106.37	58.121	23.024	2.0967e-06	47.573	1.4768e-05	7.417e-06	2.128e-06	330.64	7.7154e-08	7.7581e-08	547.46	135.07	8.2357e-08	7.9718e-08	238.03	92.826	49.482	20.259	8.2359e-08	40.88	324.522	148.185	100.194	92.466	256.140	184.691	92.368	97.895	204.973	243.945	96.085	100.029	101.543	106.631	176.428	103.572	-8191	255	
928.782	1	1	0	0	0.2788	0.067353	0.26864	0.026769	0.17653	0.25963	0.17413	0.15334	0.1788	0.15974	0.14713	0.27641	0.17965	0.44316	0.1453	0.066725	-2.175	-2.4688	-2.3417	-2.4688	-2.3854	-2.3354	-2.7438	-2.3208	-2.6208	-2.4708	-2.2583	-2.7208	-2.3063	-2.5125	-2.5438	-2.2896	412.814	243.967	93.813	184.333	210.017	390.878	394.833	396.504	361.454	139.664	280.523	148.948	307.827	382.861	360.623	373.130	0.0010968	0.00019425	4.7237e-05	416.07	1.6228e-06	1.9434e-06	600.33	149.75	2.2405e-06	2.3843e-06	277.06	106.8	57.972	22.982	2.5139e-06	47.739	1.4577e-05	7.1255e-06	2.1354e-06	331.51	7.6552e-08	7.647e-08	550.03	135.12	8.3053e-08	7.7695e-08	238.49	92.899	49.574	20.307	8.2111e-08	41.152	323.032	159.032	128.413	93.157	245.737	200.368	92.626	97.797	174.291	207.543	95.769	100.507	101.518	106.574	202.341	103.711	-8191	255	
928.879	1	1	0	0	0.02285	0.18572	0.18523	0.18327	0.26713	0.12678	0.23073	0.066945	0.081691	0.092173	0.26866	0.055586	0.19709	0.18515	0.031632	0.10013	-2.0938	-2.4625	-2.2854	-2.6667	-2.4917	-2.4437	-2.5583	-2.3833	-2.5333	-2.4375	-2.4562	-2.6771	-2.3875	-2.3312	-2.55	-2.5208	133.576	253.705	338.880	315.718	318.396	156.430	281.070	390.544	174.898	207.678	437.189	429.002	408.107	116.987	249.649	425.901	0.0011209	0.00013474	5.8861e-05	417.48	2.2469e-06	2.1842e-06	600.21	148.74	2.1543e-06	1.5881e-06	277.23	106.63	58.217	23.072	2.5355e-06	47.55	1.4793e-05	7.0742e-06	2.061e-06	331.15	8.2371e-08	7.7715e-08	550.8	134.57	7.8051e-08	7.5382e-08	238.4	93.05	49.616	20.364	7.976e-08	40.981	325.532	133.289	127.653	92.767	224.075	193.308	92.600	97.618	210.421	215.232	95.978	100.341	101.692	106.461	181.483	103.725	-8191	255	
928.974	1	1	0	0	0.23184	0.26256	0.21671	0.17823	0.16316	0.19005	0.22601	0.29851	0.11456	0.15453	0.13385	0.17862	0.093272	0.24104	0.034632	0.10788	-2.1813	-2.6625	-2.1063	-2.4167	-2.4458	-2.2646	-2.6896	-2.3979	-2.6	-2.4708	-2.3187	-2.6333	-2.4604	-2.1979	-2.675	-2.5854	188.791	404.819	347.782	105.942	89.589	242.114	263.724	407.092	119.020	193.902	333.326	245.709	325.316	429.881	258.134	397.764	0.0010775	0.00014444	7.4694e-05	416.16	7.0806e-07	1.8622e-06	595.16	148.2	3.3071e-06	1.8236e-06	276.32	106.96	57.757	23.191	1.5335e-06	47.699	1.4836e-05	7.4151e-06	1.9798e-06	332.63	7.957e-08	7.7798e-08	547.43	134.34	8.105e-08	7.7601e-08	237.47	93.035	49.471	20.457	8.0578e-08	41.191	325.767	157.106	174.588	93.058	233.409	206.729	92.703	98.064	207.236	187.530	96.026	100.382	101.491	106.766	202.329	103.909	-8191	255	
929.070	1	1	0	0	0.29356	0.095134	0.11479	0.40248	0.31573	0.19448	0.062792	0.18589	0.18287	0.18749	0.1599	0.18266	0.047668	0.23045	0.14465	0.18667	-1.85	-2.5583	-2.2417	-2.4208	-2.4729	-2.2292	-2.4917	-2.4688	-2.2917	-2.6833	-2.3167	-2.5854	-2.6208	-2.4938	-2.6813	-2.3896	294.580	366.193	213.185	373.425	343.727	256.877	124.502	127.636	143.480	192.345	364.652	423.752	375.299	402.621	203.709	169.294	0.0011096	0.00016606	5.8838e-05	407.35	1.157e-06	1.6427e-06	597.77	148.75	2.6902e-06	1.5676e-06	275.61	106.51	57.643	23.129	2.6178e-06	47.682	1.4828e-05	7.0751e-06	1.9416e-06	329.02	8.1406e-08	7.729e-08	548.99	134.44	8.1527e-08	7.6232e-08	237.24	92.879	49.418	20.404	8.1925e-08	41.103	326.048	164.442	164.408	92.878	237.964	171.825	92.676	97.868	184.583	209.515	95.786	100.318	101.714	106.567	163.055	103.600	-8191	255	
929.166	1	1	0	0	0.13056	0.2227	0.11217	0.049113	0.09283	0.15256	0.16639	0.081781	0.18243	0.096888	0.11372	0.24597	0.15966	0.4854	0.2451	0.022712	-1.9292	-2.5604	-2.3229	-2.5708	-2.6104	-2.3396	-2.6188	-2.5292	-2.3521	-2.7875	-2.4646	-2.4688	-2.7062	-2.1771	-2.7375	-2.3208	112.864	148.669	318.364	213.912	110.007	423.879	337.693	349.391	430.940	439.859	263.305	414.930	418.140	399.024	328.301	353.804	0.0010903	0.0002225	5.2461e-05	414.2	1.1845e-06	2.5212e-06	598.03	147.9	3.7804e-06	1.5377e-06	275.83	106.56	58.122	23.159	1.4688e-06	47.616	1.4475e-05	6.7313e-06	2.0552e-06	330.99	7.8844e-08	7.5401e-08	549.42	134.4	8.1029e-08	7.3473e-08	238.24	93.175	49.508	20.414	8.4668e-08	41.152	325.216	180.006	106.382	92.597	248.570	169.783	92.631	97.916	192.933	198.369	96.052	100.702	101.831	106.401	188.939	103.888	-8191	255	
929.287	1	1	0	0	0.053093	0.25743	0.25044	0.16694	0.075656	0.14798	0.28033	0.30688	0.17315	0.1373	0.15438	0.1589	0.12501	0.12831	0.089287	0.27656	-1.9292	-2.5958	-2.35	-2.375	-2.6271	-2.2896	-2.6937	-2.4375	-2.2021	-2.6396	-2.3667	-2.3792	-2.5854	-2.2729	-2.8146	-2.5396	130.188	348.314	409.671	259.037	117.242	238.666	389.067	161.711	350.770	425.512	407.145	405.226	196.576	112.756	147.488	346.374	0.0011218	0.00011543	5.1645e-05	414.53	1.7757e-06	1.9444e-06	596.57	148.33	2.9599e-06	1.6966e-06	275.94	105.62	57.69	23.091	2.7138e-06	47.778	1.4749e-05	7.02e-06	2.0386e-06	330.22	7.9788e-08	7.6439e-08	546.3	134.03	8.5273e-08	7.5205e-08	237.08	92.43	49.296	20.414	7.7555e-08	41.195	326.047	151.742	132.934	92.972	227.084	194.992	92.306	97.829	191.471	185.000	96.201	100.428	101.496	106.285	186.884	103.656	-8191	255	
929.383	1	1	0	0	0.046515	0.051003	0.17456	0.058136	0.17609	0.16025	0.11734	0.20853	0.1301	0.34444	0.34779	0.19158	0.097876	0.25374	0.33237	0.25339	-1.8979	-2.5958	-2.2812	-2.2792	-2.8042	-2.275	-2.6771	-2.5167	-2.3063	-2.6437	-2.3146	-2.35	-2.5271	-2.2958	-2.4292	-2.6708	215.618	376.530	385.609	306.471	383.897	196.195	296.716	290.212	144.035	343.727	424.519	330.409	354.586	83.320	176.416	402.098	0.0011306	0.00019182	3.7391e-05	412.54	1.8431e-06	1.8975e-06	593.83	148.44	3.0964e-06	1.4728e-06	275.17	107.33	57.572	23.006	2.157e-06	48.122	1.4927e-05	6.8349e-06	2.0012e-06	329.99	7.62e-08	7.5671e-08	547.04	134.23	8.2637e-08	7.5724e-08	236.99	92.921	49.393	20.411	8.4182e-08	41.275	325.173	153.442	127.057	93.000	231.211	202.392	92.751	97.729	193.513	229.264	96.197	100.183	101.662	106.758	203.743	103.896	-8191	255	
929.479	1	1	0	0	0.12438	0.021557	0.29141	0.026377	0.16576	0.055678	0.095382	0.12987	0.098712	0.18378	0.097763	0.31856	0.076421	0.24727	0.1003	0.1512	-1.7708	-2.6875	-2.4375	-2.2625	-2.5896	-2.2896	-2.5375	-2.5958	-2.3812	-2.4813	-2.5521	-2.3729	-2.6312	-2.2875	-2.6125	-2.6479	229.616	371.185	134.280	239.425	304.039	405.825	356.727	424.977	191.804	283.453	108.007	435.993	359.124	91.067	270.300	174.413	0.0010518	0.00018548	5.4506e-05	411.34	1.7047e-06	2.1155e-06	599.57	147.76	3.1467e-06	2.0903e-06	277.86	106.86	57.737	23.152	2.4559e-06	47.915	1.4784e-05	6.6611e-06	1.9503e-06	329.68	7.8326e-08	7.6844e-08	549.51	134.24	8.1641e-08	7.4158e-08	237.73	93.266	49.484	20.403	7.8394e-08	41.282	325.218	155.255	134.040	92.437	229.990	182.726	92.547	97.433	190.275	210.907	95.834	100.220	101.175	106.543	178.012	103.829	-8191	255	
929.575	1	1	0	0	0.2595	0.13838	0.19843	0.11971	0.18609	0.12489	0.17153	0.31437	0.15689	0.083666	0.10157	0.066161	0.19653	0.10877	0.14033	0.10561	-1.7354	-2.5104	-2.3812	-2.2208	-2.8104	-2.3729	-2.4625	-2.5958	-2.1875	-2.525	-2.4292	-2.2938	-2.5625	-2.4875	-2.425	-2.8167	159.383	321.938	402.319	125.847	279.595	204.552	241.736	394.486	278.873	218.577	316.797	357.189	381.520	348.791	319.283	243.543	0.0011263	0.00019788	6.642e-05	414.91	1.991e-06	1.156e-06	598.01	148.76	2.5798e-06	1.6817e-06	277.09	107.14	57.851	23.158	2.7568e-06	47.893	1.4963e-05	7.3999e-06	2.0091e-06	330.98	7.6407e-08	7.1925e-08	548.82	134.59	8.1091e-08	7.5693e-08	237.74	93.149	49.62	20.473	8.2691e-08	41.276	326.167	138.839	99.493	92.757	224.899	208.599	92.556	97.718	202.338	253.955	96.101	100.514	101.467	106.244	189.287	103.707	-8191	255	
929.671	1	1	0	0	0.20469	0.087005	0.22648	0.040186	0.19846	0.035576	0.28909	0.031715	0.23658	0.21676	0.23969	0.17368	0.043609	0.22936	0.248	0.088334	-1.9667	-2.5958	-2.5375	-2.2854	-2.6	-2.3125	-2.1917	-2.5229	-2.3792	-2.6396	-2.6146	-2.4688	-2.6833	-2.4354	-2.4229	-2.7271	273.457	223.040	149.796	390.553	234.864	79.975	414.536	138.988	323.611	282.997	404.114	301.992	307.770	328.205	377.772	166.247	0.001029	0.00019473	5.2336e-05	410.43	1.5989e-06	1.2828e-06	600.29	148.08	1.6548e-06	1.8474e-06	275.44	106.94	57.839	23.407	3.5187e-06	48.017	1.4467e-05	7.1425e-06	2.0149e-06	329.58	7.8118e-08	7.5142e-08	548.1	134.2	8.0624e-08	7.6709e-08	237.57	93.095	49.512	20.538	8.2639e-08	41.425	322.985	141.073	116.199	92.635	195.511	238.111	92.515	97.750	188.856	203.503	96.139	100.188	101.764	106.772	195.223	103.922	-8191	255	
929.768	1	1	0	0	0.17697	0.13288	0.28639	0.15814	0.036747	0.064649	0.24359	0.15637	0.079719	0.11181	0.21742	0.058557	0.14349	0.091007	0.25161	0.10016	-1.925	-2.4125	-2.5708	-2.3146	-2.5146	-2.5708	-2.5062	-2.7188	-2.3625	-2.5812	-2.7896	-2.3896	-2.4417	-2.6708	-2.2021	-2.7333	433.970	253.101	181.374	195.794	317.478	402.104	348.058	349.241	346.506	363.384	187.498	246.694	378.598	342.800	173.078	399.502	0.001137	0.00018602	3.5382e-05	412.57	1.9549e-06	1.8946e-06	598.64	148.25	2.9347e-06	1.8847e-06	278.48	107.22	57.99	23.308	2.089e-06	48.513	1.4843e-05	7.1425e-06	1.9429e-06	329.3	7.4779e-08	7.3834e-08	550.28	134.39	8.051e-08	7.8431e-08	238.74	93.312	49.708	20.611	8.0817e-08	41.761	326.241	135.752	170.777	92.601	225.039	204.078	92.693	97.862	203.452	201.853	95.805	100.321	101.551	106.542	193.865	103.859	-8191	255	
929.886	1	1	0	0	0.14668	0.27813	0.33772	0.098087	0.15066	0.12749	0.19094	0.098411	0.20421	0.13628	0.27116	0.262	0.19558	0.24309	0.24786	0.13724	-1.8479	-2.3417	-2.6521	-2.2396	-2.5208	-2.4458	-2.35	-2.7292	-2.3438	-2.3104	-2.7562	-2.3167	-2.7021	-2.4479	-2.3563	-2.7708	165.911	148.929	331.956	146.513	95.622	140.962	184.345	302.619	235.545	242.802	422.270	343.751	409.037	406.775	230.163	377.224	0.0011824	0.00017855	4.4988e-05	416.05	1.7925e-06	2.1386e-06	601.13	148.87	2.2807e-06	8.9622e-07	279.35	107.54	58.054	23.237	2.4635e-06	48.149	1.4795e-05	7.2233e-06	1.9996e-06	331.03	7.6044e-08	7.6117e-08	551.66	134.99	8.1776e-08	7.5589e-08	239.09	93.793	49.779	20.588	8.2484e-08	41.496	325.143	141.179	112.949	92.642	230.565	184.234	92.976	97.986	190.435	162.766	95.883	100.304	101.713	106.684	199.665	103.588	-8191	255	
929.983	1	1	0	0	0.36689	0.10085	0.12344	0.27441	0.32893	0.16454	0.15262	0.21287	0.19015	0.16777	0.26798	0.084183	0.18716	0.19814	0.19363	0.20245	-2.0375	-2.3604	-2.6312	-2.2917	-2.6333	-2.7354	-2.3937	-2.7833	-2.4354	-2.2604	-2.6042	-2.5792	-2.4021	-2.4854	-2.2125	-2.475	334.090	292.361	142.536	376.031	252.341	425.854	198.640	332.663	81.954	356.503	350.113	438.490	254.518	137.686	206.379	422.985	0.0010465	8.2811e-05	5.4621e-05	412.52	1.5992e-06	1.9761e-06	601.43	148.74	2.4337e-06	1.3896e-06	277.64	107.18	58.245	23.583	2.0431e-06	48.745	1.4684e-05	7.0932e-06	1.8978e-06	330.12	7.8606e-08	7.7881e-08	550.1	135.07	8.5138e-08	7.8224e-08	239.2	93.437	49.963	20.762	8.4161e-08	41.944	326.856	176.816	131.458	92.536	206.480	194.747	92.656	97.812	203.987	210.681	96.291	100.375	101.816	106.419	192.677	103.913	-8191	255	
930.079	1	1	0	0	0.11618	0.088706	0.2182	0.013716	0.3258	0.26839	0.24597	0.30533	0.057424	0.08347	0.10452	0.1873	0.16692	0.25852	0.11206	0.15763	-1.9771	-2.2562	-2.6083	-2.3	-2.2938	-2.6396	-2.3937	-2.7188	-2.45	-2.3333	-2.7458	-2.4833	-2.3542	-2.7792	-2.3396	-2.7042	356.215	154.119	208.766	89.789	188.099	398.292	401.925	388.910	126.863	161.293	402.388	407.337	424.261	187.435	422.747	384.224	0.0011314	0.00016068	5.9064e-05	412.1	2.2982e-06	2.8057e-06	599.8	149.36	3.8907e-06	1.456e-06	278.34	107.86	58.238	23.705	2.5522e-06	49.122	1.4877e-05	7.1255e-06	1.9579e-06	328.97	7.5961e-08	7.6999e-08	550.38	134.72	8.0645e-08	8.0827e-08	239.46	94.186	49.949	20.87	8.1811e-08	42.24	324.541	155.794	125.668	93.065	223.749	200.471	92.749	98.298	182.828	233.810	96.282	100.192	101.810	106.547	163.524	103.812	-8191	255	
930.150	1	1	0	0	0.28567	0.35401	0.16353	0.17449	0.14931	0.066641	0.24873	0.18856	0.24355	0.15224	0.18885	0.22285	0.2018	0.10233	0.1866	0.10842	-2.0583	-2.2833	-2.6229	-2.4167	-2.4521	-2.7188	-2.4479	-2.75	-2.5625	-2.2812	-2.6625	-2.4458	-2.0438	-2.7167	-2.2354	-2.5458	381.530	254.568	275.031	125.846	229.744	166.694	384.876	387.755	192.576	254.814	80.313	97.936	135.282	314.793	150.569	295.258	0.0011407	0.00019887	4.2941e-05	410.59	2.3501e-06	1.5341e-06	604.53	149.95	2.4191e-06	1.7602e-06	279.49	108.54	58.697	23.569	2.3705e-06	48.992	1.4906e-05	7.1131e-06	1.8965e-06	329.77	8.1655e-08	7.4903e-08	554.81	135.56	8.3468e-08	7.8348e-08	241	94.558	50.125	20.841	7.9243e-08	42.177	325.171	146.966	129.394	92.178	222.159	146.136	92.490	97.833	198.381	199.794	96.173	100.459	101.531	106.738	206.464	104.004	-8191	255	
930.271	1	1	0	0	0.075817	0.21424	0.1855	0.18024	0.1757	0.091444	0.15051	0.31813	0.19889	0.16038	0.11681	0.28951	0.077365	0.15128	0.26019	0.29484	-2.1312	-2.2125	-2.65	-2.3937	-2.4479	-2.6229	-2.4229	-2.3771	-2.525	-2.4042	-2.6104	-2.5187	-2.2146	-2.5854	-2.5312	-2.4792	296.919	118.283	351.442	233.068	161.217	417.893	84.836	377.420	159.546	386.253	423.311	364.792	363.096	198.878	420.958	412.189	0.0011193	0.00023041	2.8351e-05	414.96	2.3363e-06	7.963e-07	604.46	148.42	2.4809e-06	2.6325e-06	280.47	108.06	58.534	23.451	2.8048e-06	48.696	1.4519e-05	7.4844e-06	1.9012e-06	331.83	7.8461e-08	7.5163e-08	552.17	134.72	8.4505e-08	7.4676e-08	240.26	93.891	49.889	20.737	7.9905e-08	41.886	324.703	176.902	141.223	92.630	225.837	225.362	92.713	98.012	200.637	230.538	95.923	100.435	101.392	106.544	194.491	103.946	-8191	255	
930.367	1	1	0	0	0.21149	0.029501	0.096457	0.26409	0.17118	0.32762	0.20628	0.20668	0.094796	0.39999	0.13197	0.15422	0.075547	0.16327	0.17123	0.022011	-2.0792	-2.2208	-2.4833	-2.3563	-2.3688	-2.6	-2.4417	-2.4458	-2.5458	-2.3271	-2.8125	-2.4333	-1.9792	-2.5938	-2.3792	-2.5271	292.759	417.925	350.572	429.411	96.996	88.671	313.959	219.197	129.518	235.289	174.694	336.988	388.130	82.882	293.128	205.882	0.0011689	0.00015117	4.8689e-05	413.02	1.5037e-06	2.0317e-06	599.99	148.53	3.0964e-06	2.5962e-06	278.95	108.52	58.507	23.577	2.8558e-06	48.794	1.4898e-05	7.1577e-06	1.8917e-06	331.12	7.7517e-08	7.4312e-08	552.4	134.62	7.8964e-08	7.5143e-08	239.92	94.31	49.914	20.773	8.4296e-08	41.984	325.119	133.991	128.316	92.798	214.499	196.078	92.625	97.777	193.403	211.370	96.218	100.255	101.758	106.658	185.321	103.699	-8191	255	
930.463	1	1	0	0	0.13988	0.22345	0.23992	0.12519	0.11694	0.12522	0.1181	0.1865	0.05014	0.16823	0.1965	0.090106	0.25558	0.063134	0.17548	0.19725	-2.2208	-2.2313	-2.4437	-2.5563	-2.3125	-2.6771	-2.625	-2.2104	-2.7646	-2.3521	-2.5042	-2.5021	-2.0729	-2.6292	-2.5229	-2.3417	185.750	429.336	243.082	354.400	272.354	398.187	432.297	319.386	342.409	268.893	111.977	416.884	102.554	195.602	384.873	347.518	0.0012043	9.9328e-05	7.1033e-05	410.97	2.9758e-06	2.2761e-06	602.5	148.61	2.9302e-06	2.2717e-06	278.3	108.01	58.344	23.555	2.455e-06	49.179	1.4858e-05	7.0837e-06	1.8403e-06	329.85	7.8938e-08	7.6532e-08	554.05	134.85	7.9784e-08	7.3784e-08	240.26	94.156	49.924	20.864	7.741e-08	42.401	325.659	164.244	145.310	93.047	263.579	213.346	92.432	98.090	185.519	196.251	96.082	100.243	101.892	106.933	179.235	103.994	-8191	255	
930.559	1	1	0	0	0.36795	0.13112	0.23672	0.26179	0.10901	0.20523	0.14221	0.19821	0.21323	0.12417	0.079818	0.25541	0.090445	0.30995	0.25192	0.29347	-2.1271	-2.4083	-2.4375	-2.5208	-2.2833	-2.5104	-2.6042	-2.4562	-2.5812	-2.4042	-2.5208	-2.6792	-2.3083	-2.6896	-2.3312	-2.4458	299.504	110.356	336.703	422.460	321.485	150.077	420.089	82.440	400.606	277.376	358.619	221.028	351.854	289.085	403.607	347.316	0.0011233	9.8334e-05	4.3833e-05	417.54	2.0882e-06	2.7728e-06	603.78	150.04	2.4729e-06	1.4896e-06	278.51	108.08	57.827	23.725	2.1813e-06	48.979	1.4897e-05	7.1312e-06	1.9363e-06	332.22	7.3306e-08	7.4156e-08	554.22	135.11	8.0271e-08	7.5101e-08	239.54	94.065	49.751	20.902	8.0392e-08	42.197	321.925	121.994	170.435	92.875	229.298	209.947	92.800	98.378	199.327	230.909	95.959	100.267	102.048	106.801	199.269	104.195	-8191	255	
930.678	1	1	0	0	0.14978	0.19739	0.034296	0.024692	0.049386	0.076856	0.31392	0.24161	0.041796	0.031999	0.36518	0.056762	0.18406	0.17025	0.12489	0.011048	-2.1813	-2.3063	-2.3354	-2.5833	-2.2479	-2.5646	-2.7104	-2.2812	-2.6021	-2.5	-2.4208	-2.65	-2.35	-2.6521	-2.6354	-2.4979	153.602	203.713	135.617	354.845	109.055	253.796	382.143	161.510	156.671	245.010	205.368	178.525	346.841	403.329	163.324	344.747	0.0011743	0.00018529	5.7671e-05	414.59	1.7921e-06	2.2557e-06	601.89	148.86	2.8608e-06	1.6613e-06	278.43	108.16	58.257	23.494	2.5468e-06	49.02	1.4975e-05	6.7741e-06	1.9526e-06	330.72	7.8606e-08	7.4665e-08	553.46	134.87	7.7438e-08	7.6813e-08	239.39	94.08	49.899	20.871	7.9916e-08	42.184	324.663	164.741	144.376	93.208	234.412	206.202	92.829	98.132	191.568	195.788	95.999	100.173	101.600	106.882	212.444	104.084	-8191	255	
930.752	1	1	0	0	0.038155	0.15701	0.32092	0.17486	0.19249	0.10184	0.23888	0.30356	0.11325	0.14929	0.045824	0.044722	0.27219	0.20425	0.19111	0.2275	-2.2625	-2.3063	-2.3333	-2.5729	-2.2812	-2.3854	-2.7396	-2.2625	-2.6521	-2.7771	-2.4667	-2.7458	-2.3833	-2.5042	-2.6542	-2.4167	306.852	118.763	414.515	91.653	132.366	277.375	395.782	255.003	248.499	120.260	197.282	341.104	357.261	411.536	126.672	296.249	0.0011456	0.00020351	5.1423e-05	415.12	1.3431e-06	3.0522e-06	601.27	149.87	3.228e-06	1.995e-06	280.89	107.52	58.159	23.716	1.7971e-06	49.387	1.493e-05	7.1511e-06	2.0009e-06	332.56	8.0815e-08	7.9853e-08	553.69	135.19	8.0967e-08	7.3784e-08	240.85	94.18	49.935	20.955	7.9771e-08	42.504	324.701	174.077	142.945	92.275	220.319	179.612	92.634	97.928	213.017	231.065	96.166	100.505	102.009	106.412	194.039	103.974	-8191	255	
930.848	1	1	0	0	0.076566	0.043473	0.17437	0.14587	0.2158	0.05535	0.29477	0.14818	0.23238	0.27575	0.16524	0.21835	0.14416	0.24089	0.1398	0.24653	-2.1104	-2.5062	-2.3375	-2.5979	-2.4917	-2.4396	-2.6021	-2.3438	-2.6417	-2.7188	-2.3333	-2.7313	-2.4771	-2.3771	-2.7208	-2.4458	83.148	79.980	362.031	293.459	341.361	364.067	361.622	332.181	424.560	124.261	259.314	392.937	144.693	419.462	279.877	370.002	0.0011454	0.00013681	5.3584e-05	415.01	1.634e-06	2.8285e-06	607.14	149.07	3.2562e-06	1.6364e-06	281.93	108.82	58.554	23.816	2.3706e-06	49.355	1.5029e-05	7.0884e-06	1.9751e-06	332.25	7.704e-08	7.6771e-08	556.04	135.36	8.3021e-08	7.6813e-08	241.79	94.614	50.13	21.059	8.2049e-08	42.537	326.058	155.922	155.626	93.080	233.142	198.681	92.254	97.907	213.098	200.845	96.080	100.641	102.006	106.749	196.668	104.016	-8191	255	
930.967	1	1	0	0	0.15466	0.12103	0.46437	0.17113	0.25323	0.035184	0.068869	0.20632	0.1408	0.034968	0.25305	0.20315	0.096934	0.19124	0.052277	0.22587	-2.0417	-2.4021	-2.1708	-2.8125	-2.3396	-2.4021	-2.6437	-2.3958	-2.4938	-2.4896	-2.1542	-2.7104	-2.5208	-2.2958	-2.6875	-2.4021	437.919	395.036	303.049	295.169	367.006	290.133	345.596	160.467	103.748	416.124	381.137	253.357	307.851	374.535	154.840	124.428	0.0011277	0.0001174	4.0027e-05	416.87	1.7366e-06	1.8875e-06	604.04	150.14	2.595e-06	2.7683e-06	279.88	107.8	58.499	23.751	1.8886e-06	49.346	1.5043e-05	6.8643e-06	2.0383e-06	332.55	7.9581e-08	7.8483e-08	554.1	135.27	8.2897e-08	7.6481e-08	239.39	93.97	50.037	20.954	8.2846e-08	42.509	325.797	169.300	142.955	93.025	202.029	235.925	92.439	97.678	192.360	214.727	96.040	100.291	101.977	106.578	214.415	103.863	-8191	255	
931.063	1	1	0	0	0.024734	0.22314	0.1828	0.10151	0.41604	0.20052	0.35799	0.096335	0.084773	0.12181	0.098548	0.17732	0.19146	0.19283	0.15052	0.25215	-1.9438	-2.6917	-2.1562	-2.6063	-2.2208	-2.3708	-2.7625	-2.2938	-2.5042	-2.5979	-2.3438	-2.55	-2.5146	-2.2938	-2.6688	-2.2812	309.757	284.580	224.607	377.375	372.526	319.408	83.370	283.613	419.144	400.013	399.518	365.033	84.781	295.780	148.857	224.239	0.0011087	0.00019184	6.1036e-05	408.79	1.7556e-06	1.5062e-06	604.75	149.16	1.9549e-06	6.7725e-07	280.47	107.32	58.161	23.976	3.2217e-06	50.004	1.5194e-05	7.1558e-06	2.0415e-06	330.16	7.6853e-08	8.0206e-08	554.36	134.89	8.0946e-08	7.9365e-08	240.33	93.904	49.771	21.173	8.0164e-08	42.979	327.154	143.345	152.771	92.826	210.313	168.026	92.650	98.618	199.176	257.672	96.146	100.633	101.896	106.955	201.658	104.110	-8191	255	
931.159	1	1	0	0	0.19821	0.18399	0.12136	0.27564	0.22661	0.10776	0.112	0.19736	0.18097	0.22484	0.17583	0.19671	0.24171	0.11323	0.17577	0.086568	-1.8438	-2.6375	-2.1688	-2.5458	-2.6542	-2.3146	-2.6354	-2.4333	-2.2875	-2.6646	-2.275	-2.5125	-2.4083	-2.1646	-2.6417	-2.5771	271.485	353.892	190.839	412.831	435.385	387.924	422.558	375.090	268.740	360.417	351.067	90.042	314.161	128.637	242.015	163.053	0.0011193	0.00021054	7.0937e-05	415.38	1.7482e-06	1.7835e-06	605.95	148.75	3.1014e-06	2.2787e-06	279.51	107.97	57.884	24.089	2.7241e-06	50.32	1.5334e-05	7.2128e-06	1.9381e-06	330.75	7.8274e-08	8.0901e-08	555.91	134.54	8.463e-08	7.6512e-08	240.04	94.271	49.906	21.336	8.2142e-08	43.374	322.491	177.851	142.634	92.742	209.093	205.397	92.913	98.129	202.796	211.836	96.524	100.059	101.750	106.815	186.798	103.897	-8191	255	
931.280	1	1	0	0	0.26793	0.14603	0.17826	0.1803	0.071808	0.078017	0.12445	0.17191	0.1219	0.023727	0.1308	0.16769	0.30837	0.13756	0.057304	0.14246	-1.8542	-2.6125	-2.2521	-2.1417	-2.525	-2.5042	-2.5042	-2.4229	-2.3083	-2.775	-2.3729	-2.5187	-2.5396	-2.2333	-2.6917	-2.4667	200.184	87.999	410.791	194.720	401.754	97.847	82.274	300.108	135.867	146.593	320.561	325.873	97.480	310.013	139.321	422.008	0.0011436	0.00015559	4.8066e-05	410	2.4246e-06	2.5128e-06	600.79	148.03	3.5604e-06	2.6935e-06	278.27	107.6	57.878	24.358	2.3401e-06	50.238	1.5328e-05	7.0818e-06	1.9487e-06	330.15	8.068e-08	8.1794e-08	554.51	133.86	8.4225e-08	7.8701e-08	238.86	93.82	49.679	21.449	8.5569e-08	43.201	323.946	156.474	141.921	93.225	228.564	203.232	92.537	98.337	181.826	205.107	96.072	100.544	101.623	106.619	184.157	103.958	-8191	255	
931.376	1	1	0	0	0.1844	0.098763	0.19244	0.037319	0.13535	0.18975	0.073899	0.099165	0.15553	0.12814	0.22917	0.24605	0.032142	0.072305	0.081698	0.20794	-1.7271	-2.5708	-2.3812	-2.4958	-2.5938	-2.4271	-2.8521	-2.375	-2.0896	-2.4354	-2.4854	-2.1417	-2.7396	-2.25	-2.4854	-2.5146	276.576	90.890	134.487	248.403	414.108	232.545	237.795	167.356	320.496	204.986	431.805	331.142	378.708	336.001	420.661	92.074	0.0011692	0.00012775	6.1205e-05	409.96	2.6974e-06	2.2205e-06	604.15	147.68	1.8159e-06	1.4449e-06	279.29	107.35	57.915	24.192	1.6127e-06	50.281	1.5532e-05	7.3334e-06	2.0056e-06	329.86	7.788e-08	8.1441e-08	553.1	133.73	8.4246e-08	7.4438e-08	239.1	93.615	49.545	21.344	8.3167e-08	43.221	324.592	151.974	132.308	93.062	220.477	204.488	92.732	98.192	206.868	181.768	96.186	100.691	101.513	107.188	195.774	104.245	-8191	255	
931.448	1	1	0	0	0.15256	0.21684	0.20185	0.087945	0.2906	0.38532	0.19027	0.17772	0.12441	0.25076	0.042357	0.11605	0.17752	0.21352	0.2015	0.285	-1.8708	-2.7062	-2.3542	-2.2729	-2.5729	-2.2854	-2.4437	-2.6125	-2.2104	-2.375	-2.3771	-2.3104	-2.6063	-2.4104	-2.5312	-2.6188	254.741	378.809	169.118	211.249	407.164	126.926	293.571	92.920	253.715	272.901	419.780	110.944	141.425	411.638	361.031	343.756	0.0011989	0.0001315	1.4216e-05	413.33	2.319e-06	1.7486e-06	603	147.43	2.625e-06	1.5037e-06	277.69	107.48	57.888	24.341	1.803e-06	50.265	1.5686e-05	7.4085e-06	2.0523e-06	330.05	8.1448e-08	7.8037e-08	553.37	133.58	8.5678e-08	8.2757e-08	238.75	93.854	49.668	21.427	8.5507e-08	43.226	325.291	151.855	99.384	92.802	228.552	182.420	92.809	97.963	196.017	211.663	96.142	100.470	101.582	106.882	209.626	103.805	-8191	255	
931.568	1	1	0	0	0.5987	0.073017	0.11119	0.053835	0.1878	0.15295	0.18604	0.4467	0.17245	0.24794	0.27401	0.21432	0.19548	0.29675	0.1193	0.0087912	-1.7875	-2.6104	-2.5021	-2.2396	-2.5354	-2.2521	-2.5521	-2.6729	-2.3063	-2.8021	-2.2896	-2.3812	-2.4771	-2.3958	-2.4271	-2.6813	87.244	281.906	382.304	270.371	225.486	394.400	438.453	314.888	423.852	367.075	83.068	329.441	240.721	415.136	386.097	285.663	0.0011575	0.00019026	4.9075e-05	412.27	2.0918e-06	2.4544e-06	604.95	147.58	2.0971e-06	1.4052e-06	277.74	106.66	57.772	23.955	1.9771e-06	49.654	1.5083e-05	7.3847e-06	1.9851e-06	330.94	7.9736e-08	7.895e-08	555.3	133.87	8.8106e-08	7.8431e-08	238.67	93.068	49.391	21.158	8.3954e-08	42.712	326.842	164.040	121.794	92.849	241.785	220.471	92.811	98.046	194.783	225.351	95.920	100.572	101.887	106.823	181.443	103.943	-8191	255	
931.664	1	1	0	0	0.12228	0.17734	0.13136	0.095664	0.11429	0.16326	0.33154	0.138	0.27399	0.25697	0.092971	0.1931	0.33767	0.055262	0.19911	0.067946	-1.85	-2.4667	-2.5021	-2.1625	-2.5271	-2.4208	-2.4667	-2.6562	-2.3771	-2.4979	-2.5896	-2.2875	-2.7625	-2.3229	-2.3083	-2.7	430.468	348.031	438.004	285.255	376.793	168.898	336.912	289.033	366.247	101.395	353.428	332.337	369.110	433.855	258.311	167.597	0.0011969	0.00017431	2.78e-05	412.89	2.7942e-06	2.8046e-06	602.72	147.24	2.2883e-06	1.9607e-06	275.83	106.45	57.46	23.869	3.0843e-06	49.713	1.5729e-05	6.9963e-06	1.9587e-06	330.75	7.8357e-08	8.005e-08	551.99	133.13	8.3748e-08	7.4904e-08	236.56	92.504	49.229	21.077	8.6781e-08	42.695	324.683	133.330	132.229	92.757	208.863	197.970	92.350	97.916	223.058	207.403	95.791	100.321	101.643	106.946	185.546	103.940	-8191	255	
931.760	1	1	0	0	0.17499	0.16078	0.11972	0.22487	0.091243	0.1563	0.10486	0.19088	0.057066	0.17019	0.11351	0.20591	0.25173	0.26605	0.028135	0.19091	-1.6271	-2.5542	-2.3854	-2.3917	-2.7792	-2.6333	-2.4854	-2.5021	-2.2208	-2.6063	-2.5479	-2.3896	-2.7021	-2.5667	-2.2042	-2.7625	386.951	151.314	187.118	408.895	366.557	344.018	372.540	369.844	419.209	146.201	371.906	234.359	139.945	364.298	271.517	399.051	0.0011546	0.00019402	3.701e-05	413.21	1.2446e-06	1.0837e-06	600.55	146.22	2.0024e-06	1.3702e-06	276.17	105.18	57.618	23.875	2.4645e-06	50.077	1.5215e-05	7.2812e-06	2.0555e-06	329.14	7.8958e-08	7.5111e-08	552.49	132.86	8.3987e-08	7.8742e-08	236.92	92.476	49.266	21.148	8.0092e-08	42.928	323.838	141.411	118.832	92.808	234.753	212.970	92.844	97.751	179.626	206.243	96.371	100.224	101.649	106.605	204.510	103.746	-8191	255	
931.857	1	1	0	0	0.13205	0.22983	0.19303	0.08395	0.14522	0.29545	0.36543	0.070763	0.12661	0.17548	0.16001	0.33593	0.29237	0.17283	0.29892	0.1274	-2.0187	-2.2896	-2.5729	-2.2812	-2.4437	-2.4521	-2.35	-2.6229	-2.4604	-2.3312	-2.4771	-2.3292	-2.4167	-2.4854	-2.1917	-2.6958	158.815	369.199	220.473	353.549	242.515	279.517	330.169	434.758	438.764	138.376	136.488	397.992	293.751	398.841	356.218	361.044	0.0011744	0.00014537	5.6418e-05	413.25	1.5504e-06	2.4549e-06	601.11	146.79	2.4261e-06	2.2452e-06	276.59	106.84	57.222	24.062	2.2578e-06	49.867	1.5597e-05	7.4151e-06	2.0244e-06	330.02	7.5546e-08	7.6429e-08	553.45	133.27	8.8397e-08	8.117e-08	237.71	92.935	49.084	21.201	8.2235e-08	42.856	323.929	126.370	143.720	92.969	260.790	183.091	92.539	98.333	170.145	231.086	96.118	100.368	102.118	106.851	180.026	104.208	-8191	255	
931.975	1	1	0	0	0.09169	0.28788	0.14981	0.21273	0.11123	0.047672	0.19919	0.13301	0.05667	0.348	0.048951	0.096578	0.21125	0.34331	0.18734	0.19459	-1.9229	-2.4458	-2.5646	-2.3625	-2.4021	-2.5229	-2.2729	-2.6292	-2.325	-2.4667	-2.6937	-2.4083	-2.5	-2.5667	-2.2125	-2.7854	83.126	398.106	144.901	159.415	349.809	400.817	403.951	158.939	225.368	384.944	105.124	389.429	268.554	332.671	401.592	436.512	0.0010984	0.00017086	4.991e-05	414.76	2.223e-06	1.6706e-06	601.61	147.58	2.8656e-06	1.3237e-06	274.35	105.86	57.604	23.793	2.5312e-06	49.355	1.5228e-05	7.6098e-06	1.8854e-06	331.08	8.4414e-08	7.9729e-08	552	133.44	8.1932e-08	8.1502e-08	236.65	92.247	49.109	21.059	8.383e-08	42.475	325.001	136.465	144.180	92.755	253.039	188.964	92.634	98.053	190.838	204.611	95.712	100.405	101.656	106.573	196.818	104.014	-8191	255	
932.047	1	1	0	0	0.062352	0.20412	0.12537	0.13808	0.0755	0.1141	0.1168	0.13911	0.16639	0.14424	0.16577	0.33009	0.20333	0.1323	0.29399	0.22512	-2.2958	-2.3854	-2.5312	-2.275	-2.3333	-2.6146	-2.3354	-2.7	-2.2542	-2.3979	-2.7438	-2.3729	-2.5854	-2.725	-2.4938	-2.6125	435.959	303.776	437.934	291.039	356.698	137.392	392.273	334.186	199.489	298.543	107.664	157.904	306.264	125.418	345.901	208.844	0.0011423	0.00016463	6.2003e-05	408.7	1.5426e-06	2.6978e-06	598.7	146.65	2.7227e-06	1.5635e-06	273.76	105.84	57.635	24.01	2.6751e-06	49.831	1.5569e-05	7.5728e-06	2.0241e-06	330.36	8.264e-08	7.7664e-08	551.51	133.14	8.0946e-08	7.7155e-08	236.76	92.47	49.312	21.227	8.3623e-08	42.855	325.363	144.018	120.851	92.750	239.296	207.825	92.793	97.821	189.958	224.562	96.084	100.480	101.669	106.473	206.804	103.776	-8191	255	
932.143	1	1	0	0	0.1482	0.15437	0.045288	0.18974	0.18341	0.053848	0.14278	0.089391	0.22671	0.2126	0.30137	0.28965	0.16919	0.18451	0.22744	0.065029	-1.8792	-2.1521	-2.6542	-2.3917	-2.2625	-2.6833	-2.3042	-2.5792	-2.5083	-2.1937	-2.5042	-2.5292	-2.375	-2.6	-2.2333	-2.4688	156.981	418.530	290.155	381.666	136.193	151.722	342.223	411.553	162.769	391.047	126.011	418.261	378.074	437.236	334.220	383.476	0.0011349	0.00020191	3.9579e-05	410.39	1.9692e-06	2.2787e-06	602.13	146.82	2.0706e-06	7.7712e-07	276.05	106	57.471	23.761	3.2743e-06	49.597	1.531e-05	7.5804e-06	2.1356e-06	329.56	8.3418e-08	7.6605e-08	552.94	133.26	8.4827e-08	8.2529e-08	237.56	92.441	49.113	21.074	8.4658e-08	42.737	324.383	136.531	117.510	92.777	246.100	186.287	92.515	98.070	197.412	216.028	96.105	100.832	101.904	106.750	211.467	103.909	-8191	255	
932.239	1	1	0	0	0.15991	0.12445	0.14493	0.11235	0.10303	0.11243	0.19679	0.20368	0.057682	0.15327	0.17375	0.043356	0.12837	0.11002	0.0894	0.059374	-2.0729	-2.1771	-2.5958	-2.2812	-2.525	-2.5125	-2.4625	-2.4667	-2.6167	-2.3625	-2.6375	-2.5458	-2.4188	-2.7417	-2.25	-2.5667	106.469	256.965	275.171	176.048	346.720	367.415	344.421	405.439	334.194	227.775	264.824	422.314	124.323	105.468	220.106	401.851	0.0010984	0.00021258	3.8897e-05	417.43	1.7065e-06	2.471e-06	600.51	146.54	2.6879e-06	1.4651e-06	275.64	105.89	57.268	24.04	2.2832e-06	49.553	1.5422e-05	7.4768e-06	2.1591e-06	332.96	8.3926e-08	7.7238e-08	551.94	133.11	8.0749e-08	7.7902e-08	236.9	92.438	49.127	21.205	8.0423e-08	42.629	321.432	164.878	143.836	92.965	228.738	178.941	92.515	98.112	210.735	197.340	96.402	100.239	101.632	106.751	192.591	103.755	-8191	255	
932.360	1	1	0	0	0.051895	0.064218	0.17764	0.2656	0.088876	0.11169	0.16152	0.3695	0.21378	0.087472	0.1096	0.16483	0.31554	0.36147	0.27074	0.09601	-2.1958	-2.1083	-2.6646	-2.3208	-2.1771	-2.6271	-2.5896	-2.4562	-2.5229	-2.1667	-2.5187	-2.6813	-2.2562	-2.7521	-2.2333	-2.3563	149.789	278.179	295.890	350.012	146.763	174.583	249.892	101.462	323.017	213.331	282.135	113.663	408.875	360.125	93.651	277.543	0.0011881	0.00015297	3.8763e-05	412.36	1.1429e-06	2.5285e-06	600.42	146.77	2.3529e-06	1.2901e-06	275.02	105.53	57.313	24.066	2.9376e-06	49.598	1.5529e-05	7.7351e-06	1.9437e-06	330.9	8.5897e-08	7.7415e-08	551.91	133.35	8.463e-08	8.1097e-08	236.9	92.319	49.093	21.189	8.617e-08	42.83	322.814	151.102	134.102	93.045	217.639	178.648	92.506	97.958	210.497	182.417	96.098	100.513	102.065	107.077	179.632	103.822	-8191	255	
932.456	1	1	0	0	0.048348	0.21124	0.17971	0.10701	0.18429	0.36029	0.10304	0.20037	0.056368	0.12702	0.30336	0.24238	0.33304	0.1197	0.045097	0.13469	-2.2146	-1.9417	-2.5208	-2.25	-2.2854	-2.5875	-2.3292	-2.4125	-2.6208	-2.3854	-2.6771	-2.5563	-2.2604	-2.6667	-2.3083	-2.4917	261.816	419.285	183.413	193.268	116.978	96.840	430.079	410.608	209.989	151.625	312.405	430.956	388.862	424.792	114.148	262.730	0.0011038	0.00014292	5.8077e-05	410.17	2.3687e-06	2.2099e-06	600.7	147.14	1.6974e-06	1.4396e-06	276.7	106.35	57.72	24.121	2.5826e-06	50.131	1.4973e-05	7.2812e-06	2.0705e-06	330.33	8.0753e-08	7.7923e-08	553.12	133.41	8.5772e-08	8.1771e-08	238.18	92.72	49.39	21.306	8.3871e-08	43.18	326.891	144.357	132.933	92.826	231.913	209.085	92.515	98.102	213.201	189.458	96.382	100.364	101.925	106.672	214.476	104.176	-8191	255	
932.552	1	1	0	0	0.20718	0.20817	0.26632	0.20833	0.17003	0.25413	0.11906	0.28321	0.082986	0.051661	0.043746	0.16117	0.18602	0.14554	0.22484	0.17762	-2.1688	-2.1937	-2.3896	-2.5292	-2.2979	-2.6271	-2.4833	-2.3458	-2.5125	-2.4146	-2.5021	-2.6917	-2.1063	-2.4479	-2.3667	-2.3479	293.406	361.662	218.237	407.698	274.374	147.494	245.871	144.584	87.984	283.517	241.827	137.022	181.152	170.933	117.600	265.881	0.001122	0.00015032	6.5378e-05	415.12	2.8435e-06	2.5394e-06	605.19	147.86	1.6731e-06	1.848e-06	277.72	105.64	57.218	24.072	2.8512e-06	49.874	1.5617e-05	7.6554e-06	2.1188e-06	331.31	8.2267e-08	7.8649e-08	554.94	133.88	8.4038e-08	8.0215e-08	238.65	92.5	49.211	21.276	8.6532e-08	42.932	324.015	162.286	161.181	92.931	236.826	199.551	92.777	97.850	207.481	191.113	96.136	100.580	102.121	106.861	197.383	104.189	-8191	255	
932.649	1	1	0	0	0.25483	0.069871	0.3201	0.12287	0.1255	0.070494	0.06709	0.26599	0.22404	0.30274	0.2103	0.13234	0.14339	0.20436	0.018446	0.33893	-2.2104	-2.2917	-2.3438	-2.4667	-2.1771	-2.4375	-2.5667	-2.1917	-2.6312	-2.4104	-2.4917	-2.6792	-2.225	-2.5146	-2.4875	-2.1458	396.853	154.787	102.002	178.614	165.439	364.542	428.170	353.282	92.552	269.915	149.327	396.253	114.177	81.890	111.120	389.855	0.001173	0.00024809	4.1165e-05	413.54	2.508e-06	2.8731e-06	599.93	146.3	2.838e-06	1.5989e-06	274.7	106.42	58.019	24.072	2.9888e-06	49.7	1.5685e-05	7.4104e-06	2.1293e-06	331.15	8.2786e-08	7.702e-08	552.31	133.2	8.5512e-08	8.2031e-08	237.05	92.554	49.346	21.296	8.4109e-08	42.893	324.166	159.493	164.752	93.137	236.434	171.730	92.909	97.960	188.668	209.939	96.260	100.136	101.569	106.637	205.322	104.034	-8191	255	
932.745	1	1	0	0	0.077621	0.15482	0.26174	0.31627	0.1361	0.13968	0.12617	0.17604	0.152	0.067572	0.074189	0.06849	0.15306	0.23191	0.29592	0.24762	-2.1854	-2.3083	-2.1896	-2.5687	-2.4833	-2.3458	-2.6813	-2.3271	-2.6354	-2.6437	-2.5125	-2.6417	-2.4646	-2.7	-2.7167	-2.4104	153.466	120.666	267.807	429.601	356.303	217.859	103.010	103.031	264.570	336.855	303.057	173.067	304.989	409.038	212.837	400.437	0.0011857	0.00017993	5.5022e-05	414.71	1.6403e-06	1.7333e-06	602.34	147.47	3.5051e-06	1.9053e-06	277.51	105.98	57.386	24.132	2.6416e-06	49.814	1.5828e-05	7.4455e-06	2.1214e-06	332.14	8.2205e-08	8.0092e-08	554.92	133.57	8.5699e-08	7.9458e-08	237.96	92.686	49.23	21.217	8.5901e-08	42.896	323.520	169.148	133.661	92.657	230.936	220.559	92.744	98.300	209.411	223.235	96.277	100.677	101.510	106.704	195.707	103.769	-8191	255	
932.841	1	1	0	0	0.12677	0.043255	0.15179	0.082205	0.19214	0.064673	0.049423	0.30921	0.083568	0.22886	0.077009	0.090023	0.25165	0.21596	0.099513	0.099766	-2.2458	-2.4437	-2.4021	-2.8333	-2.4167	-2.4125	-2.7229	-2.3542	-2.5938	-2.5875	-2.5083	-2.7792	-2.4729	-2.2583	-2.6333	-2.3563	316.901	350.599	396.023	84.041	331.587	256.769	362.963	168.612	269.595	430.980	400.797	303.285	325.759	326.073	106.647	378.137	0.0011617	0.0001937	5.9823e-05	416.11	2.1708e-06	3.4551e-06	604.5	148.39	2.4128e-06	9.4069e-07	276.62	106.83	57.403	23.938	2.4405e-06	49.924	1.5597e-05	7.5443e-06	2.1064e-06	332.25	8.1406e-08	7.9874e-08	556.58	134.22	9.1407e-08	7.9199e-08	238.94	92.873	49.212	21.131	8.6253e-08	42.851	324.529	118.961	146.494	92.788	233.657	205.583	92.771	97.873	199.680	239.301	96.123	100.420	101.658	106.726	184.577	104.219	-8191	255	
#DATA ENDS
