BOXY.EXE: ISS Imagent and Oximeter Data Acquisition Program Version 0.80
Ascii Record File

#ACQ INFORMATION
2  Detector Channels 
16  External MUX Channels 
1  Auxiliary Channels 
5000  Waveform (CCF) Frequency (Hz)
1  Waveforms Skipped 
30  Waveforms Averaged 
1  Cycles Averaged 
16  Acquisitions per Waveform 
10.0806  Updata Rate (Hz) 

#FILE INFORMATION
TRUE -- External MUX Channel results are PARSED.
FALSE -- AC DC and Phase are NOT grouped.
TRUE -- Companion Program Settings File CREATED.
FALSE -- AC data not excluded
FALSE -- DC data not excluded
FALSE -- Phase data not excluded
FALSE -- Auxillary Chn. data not excluded
Tab delimiters

#CALIBRATION STATE
TRUE -- Waveform Calibration Values APPLIED.


#AUX CALIBRATION VALUES
Val Type	aux-1	

Term	1.0000e+00	
Factor	0.0000e+00	


#WF CALIBRATION VALUES
A = Detector Channel
Val Type	A-AC1	A-AC2	A-AC3	A-AC4	A-AC5	A-AC6	A-AC7	A-AC8	A-AC9	A-AC10	A-AC11	A-AC12	A-AC13	A-AC14	A-AC15	A-AC16	A-DC1	A-DC2	A-DC3	A-DC4	A-DC5	A-DC6	A-DC7	A-DC8	A-DC9	A-DC10	A-DC11	A-DC12	A-DC13	A-DC14	A-DC15	A-DC16	A-Ph1	A-Ph2	A-Ph3	A-Ph4	A-Ph5	A-Ph6	A-Ph7	A-Ph8	A-Ph9	A-Ph10	A-Ph11	A-Ph12	A-Ph13	A-Ph14	A-Ph15	A-Ph16	

Term	0.00000e+00	0.00000e+00	0.00000e+00	0.00000e+00	0.00000e+00	0.00000e+00	0.00000e+00	0.00000e+00	0.00000e+00	0.00000e+00	0.00000e+00	0.00000e+00	0.00000e+00	0.00000e+00	0.00000e+00	0.00000e+00	0.00000e+00	0.00000e+00	0.00000e+00	0.00000e+00	0.00000e+00	0.00000e+00	0.00000e+00	0.00000e+00	0.00000e+00	0.00000e+00	0.00000e+00	0.00000e+00	0.00000e+00	0.00000e+00	0.00000e+00	0.00000e+00	0.00000e+00	0.00000e+00	0.00000e+00	0.00000e+00	0.00000e+00	0.00000e+00	0.00000e+00	0.00000e+00	0.00000e+00	0.00000e+00	0.00000e+00	0.00000e+00	0.00000e+00	0.00000e+00	0.00000e+00	0.00000e+00	
Factor	1.00000e+00	1.00000e+00	1.00000e+00	1.00000e+00	1.00000e+00	1.00000e+00	1.00000e+00	1.00000e+00	1.00000e+00	1.00000e+00	1.00000e+00	1.00000e+00	1.00000e+00	1.00000e+00	1.00000e+00	1.00000e+00	1.00000e+00	1.00000e+00	1.00000e+00	1.00000e+00	1.00000e+00	1.00000e+00	1.00000e+00	1.00000e+00	1.00000e+00	1.00000e+00	1.00000e+00	1.00000e+00	1.00000e+00	1.00000e+00	1.00000e+00	1.00000e+00	X	X	X	X	X	X	X	X	X	X	X	X	X	X	X	X	

B = Detector Channel
Val Type	B-AC1	B-AC2	B-AC3	B-AC4	B-AC5	B-AC6	B-AC7	B-AC8	B-AC9	B-AC10	B-AC11	B-AC12	B-AC13	B-AC14	B-AC15	B-AC16	B-DC1	B-DC2	B-DC3	B-DC4	B-DC5	B-DC6	B-DC7	B-DC8	B-DC9	B-DC10	B-DC11	B-DC12	B-DC13	B-DC14	B-DC15	B-DC16	B-Ph1	B-Ph2	B-Ph3	B-Ph4	B-Ph5	B-Ph6	B-Ph7	B-Ph8	B-Ph9	B-Ph10	B-Ph11	B-Ph12	B-Ph13	B-Ph14	B-Ph15	B-Ph16	

Term	0.00000e+00	0.00000e+00	0.00000e+00	0.00000e+00	0.00000e+00	0.00000e+00	0.00000e+00	0.00000e+00	0.00000e+00	0.00000e+00	0.00000e+00	0.00000e+00	0.00000e+00	0.00000e+00	0.00000e+00	0.00000e+00	0.00000e+00	0.00000e+00	0.00000e+00	0.00000e+00	0.00000e+00	0.00000e+00	0.00000e+00	0.00000e+00	0.00000e+00	0.00000e+00	0.00000e+00	0.00000e+00	0.00000e+00	0.00000e+00	0.00000e+00	0.00000e+00	-7.86066e+01	-1.31001e+02	-1.24786e+02	-1.83817e+02	-4.99121e+01	-6.53093e+01	-1.58668e+02	-1.62015e+02	-4.89199e+01	-6.62152e+01	-1.74374e+02	-1.69631e+02	-1.81559e+02	-1.77656e+02	-5.84456e+01	-1.50419e+02	
Factor	1.94216e-05	1.68321e-04	4.74969e-05	1.55115e-01	1.43856e-06	2.00494e-06	1.80626e-01	6.10451e-02	1.32424e-06	1.89511e-06	1.00420e-01	3.08861e-02	3.91032e-02	1.03895e-02	1.63570e-06	1.47649e-02	1.30170e-05	2.26506e-05	6.31162e-06	7.96424e-02	2.23240e-07	2.52336e-07	8.66108e-02	3.14689e-02	2.25496e-07	2.50935e-07	5.02129e-02	1.55535e-02	2.03098e-02	5.40091e-03	2.36603e-07	7.42413e-03	X	X	X	X	X	X	X	X	X	X	X	X	X	X	X	X	



#DISTANCE SETTINGS
A = Detector Channel
A-1	A-2	A-3	A-4	A-5	A-6	A-7	A-8	A-9	A-10	A-11	A-12	A-13	A-14	A-15	A-16	

2.5000e+00	3.0000e+00	2.5000e+00	3.0000e+00	2.0000e+00	3.0000e+00	1.5000e+00	3.0000e+00	3.0000e+00	3.0000e+00	3.0000e+00	3.0000e+00	3.0000e+00	3.0000e+00	1.5000e+00	3.0000e+00	

B = Detector Channel
B-1	B-2	B-3	B-4	B-5	B-6	B-7	B-8	B-9	B-10	B-11	B-12	B-13	B-14	B-15	B-16	

1.0000e+01	1.0000e+01	1.0000e+01	1.4400e+00	1.0000e+01	1.0000e+01	1.5100e+00	1.9400e+00	1.0000e+01	1.0000e+01	1.9900e+00	2.4900e+00	2.4100e+00	2.9000e+00	1.0000e+01	2.9800e+00	




#DATA BEGINS
time	group	step	mark	flag	A-AC1	A-AC2	A-AC3	A-AC4	A-AC5	A-AC6	A-AC7	A-AC8	A-AC9	A-AC10	A-AC11	A-AC12	A-AC13	A-AC14	A-AC15	A-AC16	A-DC1	A-DC2	A-DC3	A-DC4	A-DC5	A-DC6	A-DC7	A-DC8	A-DC9	A-DC10	A-DC11	A-DC12	A-DC13	A-DC14	A-DC15	A-DC16	A-Ph1	A-Ph2	A-Ph3	A-Ph4	A-Ph5	A-Ph6	A-Ph7	A-Ph8	A-Ph9	A-Ph10	A-Ph11	A-Ph12	A-Ph13	A-Ph14	A-Ph15	A-Ph16	B-AC1	B-AC2	B-AC3	B-AC4	B-AC5	B-AC6	B-AC7	B-AC8	B-AC9	B-AC10	B-AC11	B-AC12	B-AC13	B-AC14	B-AC15	B-AC16	B-DC1	B-DC2	B-DC3	B-DC4	B-DC5	B-DC6	B-DC7	B-DC8	B-DC9	B-DC10	B-DC11	B-DC12	B-DC13	B-DC14	B-DC15	B-DC16	B-Ph1	B-Ph2	B-Ph3	B-Ph4	B-Ph5	B-Ph6	B-Ph7	B-Ph8	B-Ph9	B-Ph10	B-Ph11	B-Ph12	B-Ph13	B-Ph14	B-Ph15	B-Ph16	aux-1	digaux	

19927.787	1	1	0	768	0.23651	0.2148	0.097383	0.30044	0.22541	0.2603	0.078324	0.33625	0.12458	0.085413	0.057656	0.15546	0.088399	0.21481	0.16998	0.21988	-1.9854	-2.6958	-2.5729	-2.6437	-2.9938	-2.3146	-2.9479	-3.0229	-2.3354	-3.1979	-2.6542	-2.775	-3.15	-2.5896	-2.7458	-2.9896	-148.292	-141.252	-13.503	-5.476	41.014	187.529	147.626	136.820	-120.897	21.332	-124.468	190.609	-138.795	157.529	-139.173	109.573	0.00066389	0.00062104	0.00034416	1317.2	7.8589e-06	2.0587e-05	893.24	483.64	1.2386e-05	1.6243e-05	367.08	148.24	182.51	89.001	5.6659e-06	82.368	0.0055285	0.0090047	0.002493	1239.9	8.7452e-05	9.7756e-05	853.84	458.65	8.9484e-05	0.00010081	359.26	144.4	177.84	85.289	9.8418e-05	79.47	-103.890	-111.726	-121.103	-147.280	-24.631	70.902	-148.254	-141.489	-55.458	48.465	-144.102	-139.924	-137.109	-133.201	-82.995	-136.490	-8191	255	
19927.885	1	1	0	0	0.11998	0.1279	0.17036	0.18213	0.030647	0.16332	0.062254	0.051876	0.23057	0.068906	0.35763	0.3003	0.080803	0.062052	0.09622	0.50206	-2	-3.0667	-2.4917	-2.9313	-3.2021	-2.5479	-2.8167	-3.1875	-2.2104	-2.9854	-2.825	-2.7021	-3.0958	-2.6583	-2.6875	-3.2396	118.892	142.244	195.992	137.023	-21.630	94.043	67.987	-152.594	160.211	1.497	115.758	166.652	108.809	-28.681	8.686	172.432	0.00063376	0.00036706	0.000298	1317.8	5.6762e-06	2.0187e-06	895.46	486.53	5.1416e-06	1.2188e-05	370.11	149.19	182.21	88.7	6.8432e-06	82.315	0.0056682	0.0094507	0.0026335	1244.8	9.1226e-05	0.00010193	857.61	460.08	8.9543e-05	0.00010041	359.77	144.13	177.2	84.897	9.3507e-05	79.073	-107.627	-95.825	-17.555	-146.746	123.934	-88.411	-148.471	-141.110	-11.282	-35.636	-144.122	-139.931	-137.275	-132.959	-116.788	-136.517	-8191	255	
19927.980	1	1	0	0	0.066456	0.17515	0.22126	0.082941	0.25963	0.22704	0.15663	0.20101	0.22921	0.07928	0.086794	0.20885	0.1678	0.33811	0.15901	0.026423	-2.0104	-2.7562	-2.7271	-2.5896	-3.1813	-2.4896	-2.9146	-3.0458	-2.3812	-3.0292	-2.9417	-2.4792	-3.1271	-2.7438	-2.8604	-3.2521	104.680	28.339	-11.819	114.283	191.602	164.797	-10.424	-155.255	191.442	199.596	-38.358	-143.846	-151.548	183.983	-19.696	143.530	0.00063905	0.0016628	0.00015707	1316.5	7.7178e-06	3.8707e-06	894.54	484.47	5.5973e-06	8.3697e-06	370.93	149.01	181	89.222	9.0002e-06	82.362	0.005398	0.0088488	0.0024339	1234.7	8.4102e-05	9.5711e-05	851.59	458.21	8.4426e-05	9.4882e-05	358.88	143.85	176.39	85.138	9.2373e-05	79.119	-109.906	-50.088	112.210	-146.785	23.694	15.786	-147.834	-141.475	-127.828	30.858	-143.861	-139.629	-137.130	-133.007	7.395	-136.201	-8191	255	
19928.074	1	1	0	0	0.12658	0.17749	0.16548	0.17242	0.076808	0.21148	0.15982	0.28572	0.044391	0.13213	0.053548	0.1853	0.083303	0.094645	0.23726	0.065938	-2.0167	-2.7458	-2.8937	-2.5	-2.9729	-2.6188	-2.8208	-3.1083	-2.3708	-2.7042	-3.1708	-2.5	-3.2667	-2.8042	-2.5646	-3.1396	65.097	181.609	116.115	-151.818	-120.300	88.386	152.148	147.749	134.464	35.865	170.621	-112.234	-114.642	125.365	7.035	118.631	0.00062299	0.0002797	0.00044726	1309.9	7.7256e-06	7.0915e-06	889.34	481.68	1.2843e-05	1.3232e-05	371.92	148.56	181.4	88.89	1.2495e-05	81.829	0.0052766	0.0088456	0.0024318	1233.9	8.412e-05	9.4411e-05	848.52	456.88	8.1487e-05	8.9783e-05	358.45	143.03	175.7	84.702	8.3743e-05	78.635	-109.372	-137.900	-19.544	-146.733	20.704	-6.981	-147.784	-141.180	-36.042	-22.360	-143.742	-140.007	-137.036	-132.958	4.893	-136.608	-8191	255	
19928.172	1	1	0	0	0.081769	0.049203	0.14908	0.23359	0.12342	0.18021	0.23853	0.09836	0.19415	0.11672	0.065675	0.16761	0.10555	0.043481	0.10121	0.13213	-1.9896	-2.8104	-3.0042	-2.5229	-3.0208	-2.8125	-2.6188	-3.2771	-2.5563	-2.5542	-3.0854	-2.4146	-3.0458	-3.0396	-2.3896	-3.225	117.529	139.889	127.641	123.414	64.061	145.103	13.276	-133.079	-31.993	-38.264	-92.597	170.548	140.482	-97.460	175.256	18.395	0.00053772	0.00021335	1.9612e-05	1299.4	3.9284e-06	1.3732e-05	887.14	481.59	1.028e-05	1.412e-05	365.68	148.76	181.13	87.949	5.6006e-06	81.366	0.0047605	0.0076833	0.0021081	1220.3	7.2298e-05	7.8715e-05	840.48	453.63	6.5798e-05	7.1808e-05	352.09	141.95	173.29	83.376	6.5485e-05	77.499	-110.086	-153.850	-105.424	-146.584	62.360	3.029	-148.015	-141.616	2.484	32.635	-143.945	-139.776	-137.144	-132.903	-45.733	-136.553	-8191	255	
19928.270	1	1	0	0	0.16524	0.14019	0.039216	0.36707	0.17832	0.10742	0.15775	0.17427	0.13612	0.15564	0.19324	0.09089	0.079286	0.24216	0.13997	0.2453	-2.0667	-2.7208	-2.9792	-2.5208	-2.8917	-3.0187	-2.5438	-3.2292	-2.3875	-2.5917	-3.1188	-2.5167	-3.0125	-3.1562	-2.4625	-3.2542	-135.833	-106.454	124.875	170.456	139.342	130.689	90.395	160.861	-50.674	-129.008	128.849	-156.994	105.804	184.432	125.627	158.479	0.00065906	0.00073708	0.00026349	1294.3	6.9248e-06	5.8758e-06	886.68	480.41	8.9312e-06	5.3329e-06	369.8	149.22	179.48	87.889	6.68e-06	81.776	0.0038087	0.0062175	0.0016833	1212.1	6.0332e-05	6.6266e-05	834.55	450.11	5.6701e-05	6.307e-05	351.36	141.58	171.86	82.828	5.7312e-05	77.518	-108.493	-62.311	-73.583	-146.883	-95.870	-16.740	-147.947	-141.261	17.637	-33.201	-143.710	-139.203	-136.169	-132.235	-19.266	-135.869	-8191	255	
19928.389	1	1	0	0	0.36896	0.19161	0.09666	0.34956	0.23531	0.20026	0.052366	0.23654	0.054139	0.066563	0.172	0.14651	0.13588	0.21869	0.21618	0.10207	-2.2792	-2.5729	-2.9625	-2.6396	-2.5542	-3.0333	-2.4167	-3.1	-2.7021	-2.5104	-3.1979	-2.7542	-2.8812	-3.1167	-2.3563	-3.2125	85.571	66.152	-31.773	179.039	166.005	115.508	60.472	187.372	12.888	-131.431	128.024	154.761	-112.526	160.658	-30.357	-145.673	0.00056648	0.0010187	0.00036304	1298.4	5.7125e-06	4.29e-06	888.97	478.56	8.5231e-06	6.5851e-06	371.5	148.19	178.75	87.545	9.4223e-06	81.296	0.0034832	0.0054725	0.0015369	1207.3	5.5549e-05	6.1881e-05	833	448.67	5.5717e-05	6.0617e-05	352.05	140.84	171.08	82.773	6.093e-05	77.272	-114.751	-105.107	-22.378	-145.997	-3.414	-46.767	-147.188	-140.654	-22.010	13.843	-143.582	-139.182	-136.690	-132.219	4.761	-136.030	-8191	255	
19928.484	1	1	0	0	0.2557	0.049934	0.19326	0.23725	0.13616	0.22685	0.15727	0.30054	0.07611	0.15007	0.29174	0.19666	0.11933	0.23926	0.30326	0.18966	-2.5	-2.3479	-3.1604	-2.6729	-2.8896	-3	-2.3958	-3.1375	-2.775	-2.5479	-3.2833	-2.7313	-2.7854	-3.2333	-2.3167	-3.0812	111.259	61.363	195.179	144.660	-14.374	30.037	-92.635	181.559	-146.283	-97.464	89.242	126.843	185.682	162.378	141.978	175.916	0.00060211	0.00064273	0.00026078	1296.5	7.3606e-06	4.0967e-06	886.81	477.14	9.6235e-06	5.4024e-06	367.93	147.02	179.38	87.303	6.9512e-06	81.211	0.0036613	0.0059081	0.0016462	1208.2	5.9511e-05	6.6776e-05	835.39	449.4	6.1367e-05	6.6763e-05	351.92	140.78	172.07	82.947	6.6363e-05	77.509	-107.075	50.145	-123.920	-146.122	-26.291	-32.984	-147.242	-140.673	-38.390	-7.854	-143.281	-138.994	-136.795	-132.284	19.625	-135.835	-8191	255	
19928.580	1	1	0	0	0.31723	0.081598	0.14279	0.29261	0.37701	0.1151	0.24551	0.15339	0.084338	0.13569	0.26919	0.1497	0.083925	0.378	0.11661	0.1881	-2.6833	-2.5438	-3.2188	-2.7458	-2.6	-3.1833	-2.5854	-2.9875	-2.9562	-2.4396	-3.2333	-2.8583	-2.7062	-3.2292	-2.3833	-2.9875	77.623	182.235	-9.252	-123.447	-78.448	-68.670	135.834	-144.310	112.114	132.327	-119.246	118.189	-27.587	159.076	128.063	-70.083	0.0006236	0.00064273	0.00032716	1296.6	7.0226e-06	1.8861e-05	880.51	476.81	8.8658e-06	1.196e-05	370.71	147.12	179.8	88.247	6.6804e-06	81.735	0.0039932	0.0064002	0.0017998	1212.9	6.4267e-05	7.1931e-05	836.65	450.08	6.6847e-05	7.43e-05	353.82	141.27	172.81	83.66	7.0922e-05	77.918	-103.232	-99.003	-88.222	-146.164	35.686	-39.702	-147.297	-140.675	29.823	-65.211	-143.452	-139.106	-136.561	-132.260	-29.922	-135.918	-8191	255	
19928.676	1	1	0	0	0.15568	0.059132	0.26747	0.29736	0.051171	0.074552	0.11254	0.28918	0.053282	0.1276	0.19625	0.10251	0.11104	0.17943	0.23088	0.28144	-2.5271	-2.4667	-2.9458	-2.7979	-2.5875	-3.2812	-2.5271	-2.7625	-2.9042	-2.5042	-3.05	-2.9396	-2.5521	-3.2458	-2.5396	-2.9437	-96.006	-151.963	-24.145	-155.762	117.445	83.910	156.786	123.265	-39.802	185.170	-140.502	-127.047	-80.359	173.170	-149.625	-72.633	0.00055437	0.0008978	0.00015924	1305.2	5.9026e-06	9.9572e-06	890.48	480.13	8.7057e-06	4.563e-06	368.01	148.58	180.64	88.752	1.7526e-05	82.29	0.0041309	0.006703	0.0018897	1216.2	6.7198e-05	7.4386e-05	839.74	452.41	6.763e-05	7.4004e-05	355.28	142.22	173.58	83.916	7.3289e-05	78.493	-107.558	-152.481	-53.414	-145.893	-93.827	-60.767	-147.371	-140.628	-46.392	18.258	-143.649	-138.819	-136.322	-132.158	-1.520	-136.028	-8191	255	
19928.771	1	1	0	0	0.20053	0.28576	0.19924	0.37615	0.35474	0.051081	0.086027	0.30301	0.30378	0.097431	0.12809	0.036997	0.11948	0.21331	0.19178	0.27748	-2.6312	-2.3438	-3.0271	-2.9188	-2.6167	-3.1542	-2.8646	-2.7313	-3.1813	-2.6042	-3.0062	-2.8812	-2.5417	-3.2313	-2.7062	-2.8438	75.048	-37.681	-37.148	111.853	-14.423	-140.822	-43.309	175.991	14.968	146.451	-137.954	171.044	12.516	-132.498	-85.056	175.829	0.00065177	0.0012376	0.0002845	1306.9	7.9396e-06	7.9699e-06	900.89	480.91	5.7738e-06	1.4625e-06	370.55	149.01	180.64	88.69	5.0791e-06	82.98	0.0042658	0.0070823	0.0019484	1219.5	6.9727e-05	7.7507e-05	848.22	453.52	6.9622e-05	7.7506e-05	356.68	142.89	174.22	84.172	7.4952e-05	78.693	-103.389	-98.581	-32.556	-145.958	4.134	1.790	-147.314	-140.598	-39.126	46.310	-143.687	-138.778	-136.212	-132.376	68.691	-136.158	-8191	255	
19928.869	1	1	0	0	0.11331	0.37865	0.22626	0.41251	0.13922	0.18553	0.34354	0.24468	0.16099	0.14602	0.39548	0.33846	0.33397	0.15291	0.055731	0.26766	-2.625	-2.3937	-2.7708	-3.0979	-2.4813	-3.1208	-2.9062	-2.8792	-3.1021	-2.4896	-2.9458	-3.2125	-2.4792	-3.1937	-2.8667	-2.7083	44.381	-9.419	6.537	140.257	19.871	137.944	20.609	108.461	64.788	-11.925	172.252	159.627	-145.151	117.541	100.544	119.854	0.0006223	0.0016183	0.00016685	1298.1	1.9552e-06	1.023e-05	895.03	480.41	9.7042e-06	6.4038e-06	370.69	148.49	180.34	88.423	6.4986e-06	82.027	0.0042886	0.0070584	0.0019865	1219.7	7.0495e-05	7.9343e-05	846.82	453.93	7.1241e-05	7.9239e-05	356.37	142.84	173.79	84	7.3687e-05	78.302	-107.935	-100.388	-55.061	-145.842	113.908	-25.887	-147.032	-140.994	-53.755	-67.312	-143.747	-139.224	-136.375	-132.540	-25.230	-136.055	-8191	255	
19928.965	1	1	0	0	0.26462	0.20883	0.084244	0.12811	0.014093	0.25545	0.14323	0.44838	0.087624	0.021998	0.056616	0.2929	0.27909	0.23748	0.19207	0.15723	-2.7458	-2.5521	-2.6146	-3.0854	-2.4125	-3.0646	-2.8312	-2.6292	-3	-2.6646	-2.7708	-3.0958	-2.4604	-3.1271	-2.85	-2.5583	72.085	10.247	96.882	151.033	-61.190	111.264	78.536	150.182	188.507	-157.492	188.558	11.175	115.717	171.272	-97.524	123.432	0.00055169	0.00081734	0.0001698	1300.4	5.4687e-06	7.1192e-06	889.15	481.71	8.4503e-06	1.668e-05	373.48	149.55	181.87	88.06	5.3803e-06	82.181	0.0042465	0.0068678	0.0019113	1217	6.5819e-05	7.4125e-05	841.45	453.48	6.5023e-05	7.2161e-05	355.36	142.55	173.64	83.492	6.799e-05	78.056	-114.501	-113.001	-54.755	-146.147	14.690	9.882	-147.089	-140.816	-4.897	-11.005	-143.666	-138.845	-136.427	-132.451	-65.943	-136.001	-8191	255	
19929.084	1	1	0	0	0.15519	0.11144	0.19547	0.30672	0.29925	0.2269	0.082174	0.18011	0.15264	0.094638	0.30906	0.038277	0.13573	0.17665	0.092585	0.17167	-2.4437	-2.4562	-2.6875	-3.2438	-2.3292	-2.725	-3.0604	-2.5417	-3.1896	-2.7583	-2.6667	-3.2979	-2.7	-3.0062	-2.9208	-2.5958	129.675	85.527	153.161	194.296	26.242	117.216	34.424	74.914	59.544	7.286	155.620	-90.787	119.640	-73.332	100.221	-122.405	0.00060797	0.00031574	0.00015355	1304.7	8.7092e-06	1.068e-05	888.32	480.97	1.982e-06	9.8138e-06	372.53	150.01	181.07	88.16	9.9387e-06	82.393	0.0039495	0.0063618	0.0017667	1214.7	6.1853e-05	7.021e-05	840.74	452.59	6.2653e-05	7.0206e-05	355.25	143.37	173.5	83.49	6.5037e-05	78.119	-113.665	14.906	-15.121	-146.187	7.153	-7.033	-147.151	-140.879	-130.918	-3.809	-143.871	-138.903	-136.113	-132.577	-54.266	-136.282	-8191	255	
19929.180	1	1	0	0	0.17807	0.2062	0.20518	0.32573	0.28714	0.18577	0.10005	0.25256	0.11422	0.14091	0.13952	0.3663	0.13131	0.35735	0.15635	0.21689	-2.7	-2.6	-2.3875	-3.1937	-2.4417	-2.925	-3.0812	-2.4792	-3.0146	-2.75	-2.5479	-3.3271	-2.5333	-2.9417	-2.85	-2.4417	-147.097	70.605	-54.255	140.465	-21.281	-51.935	36.074	140.371	193.971	-51.474	171.721	113.121	-116.296	-149.573	7.683	89.630	0.00059405	0.0011501	0.00013705	1300.3	4.4078e-06	1.2793e-05	898.57	482.2	3.3078e-06	6.1026e-06	374.12	150.67	180.96	87.954	6.0639e-06	81.885	0.0038859	0.0061302	0.0017067	1213.8	5.9812e-05	6.6748e-05	844.53	454	6.01e-05	6.7279e-05	356.78	143.51	173.44	83.176	6.5338e-05	77.887	-109.492	-101.137	-83.833	-145.874	-26.574	-11.815	-147.179	-140.870	-124.787	96.531	-143.757	-138.861	-136.294	-132.575	-42.978	-136.030	-8191	255	
19929.275	1	1	0	0	0.15113	0.11943	0.17668	0.23632	0.2188	0.15328	0.16034	0.20214	0.19152	0.088016	0.098922	0.047568	0.17884	0.30609	0.061201	0.30258	-2.5104	-2.6729	-2.2521	-3.3875	-2.3438	-2.6542	-3.0792	-2.4042	-2.8354	-2.8667	-2.4354	-3.0167	-2.5729	-2.7417	-2.9146	-2.5333	-19.308	89.237	40.064	132.075	-128.538	128.104	107.561	100.198	34.721	-104.994	175.582	-131.188	164.340	173.777	-122.298	108.932	0.00061687	0.00082277	0.00039637	1296.3	9.4537e-06	1.5063e-05	895.39	483.28	1.1373e-05	6.8917e-06	374.76	149.11	180.5	87.521	1.0126e-05	81.422	0.0038688	0.0062479	0.0017111	1210.4	6.2092e-05	6.9388e-05	842.34	454.15	6.3501e-05	6.923e-05	357.17	143.3	173.32	83.081	6.7658e-05	77.613	-101.238	-103.337	-103.949	-146.136	-12.336	2.063	-147.112	-140.726	-28.978	20.426	-143.511	-138.976	-136.107	-132.254	-4.455	-135.871	-8191	255	
19929.350	1	1	0	0	0.095105	0.0999	0.23926	0.3533	0.22688	0.13997	0.13991	0.16265	0.32499	0.079784	0.17058	0.071381	0.15048	0.090671	0.10346	0.1986	-2.3833	-2.7938	-2.2729	-3.2	-2.7083	-2.6792	-3.2208	-2.5833	-2.9333	-3.0729	-2.4146	-3.1583	-2.8042	-2.6667	-3.1708	-2.55	-52.700	-113.804	119.922	137.994	-50.307	-86.296	-127.294	68.312	-3.920	-44.139	172.930	-91.165	-148.405	-147.521	-24.247	113.199	0.00048985	0.0009217	0.00014227	1304.9	2.4151e-06	1.3654e-05	890.45	483.31	8.4068e-06	7.966e-06	370.73	149.51	181.14	86.917	5.8882e-06	80.931	0.0040219	0.0065054	0.0017863	1215	6.5825e-05	7.3279e-05	842.17	454.81	6.7466e-05	7.4814e-05	357.18	143.01	173.83	82.653	7.3106e-05	77.385	-108.271	-84.680	-102.223	-146.037	164.589	-3.574	-147.124	-140.551	-14.414	-26.309	-143.703	-139.025	-136.214	-132.552	6.085	-135.862	-8191	255	
19929.469	1	1	0	0	0.21261	0.144	0.19322	0.10709	0.10484	0.22688	0.096128	0.095717	0.2304	0.21698	0.077769	0.482	0.19251	0.085885	0.16262	0.073111	-2.1583	-3.1042	-2.4958	-3.1542	-2.6833	-2.6333	-3.1437	-2.5292	-2.6188	-2.8833	-2.4313	-3.1562	-2.8937	-2.4188	-3.0979	-2.4979	4.793	-61.950	-76.134	143.808	18.441	-71.104	-1.946	-112.780	0.935	132.912	147.857	160.501	-153.826	-126.334	-129.807	163.709	0.00061529	0.0015821	0.00018872	1292.1	5.6844e-06	6.9902e-06	895.38	481.18	7.0019e-06	3.0244e-06	372.77	148.93	179.63	86.352	8.8394e-06	80.698	0.0043717	0.0070722	0.0019554	1213.5	7.2505e-05	8.2755e-05	848.27	455.43	7.9204e-05	8.8806e-05	360.52	143.64	174.54	82.404	9.113e-05	77.378	-107.540	-83.860	-52.479	-146.292	9.329	34.225	-147.080	-140.783	-23.267	-6.384	-143.696	-139.015	-136.230	-132.199	-13.514	-135.704	-8191	255	
19929.564	1	1	0	0	0.30868	0.18055	0.065626	0.16933	0.13849	0.1966	0.073725	0.17837	0.24161	0.1726	0.1592	0.083229	0.27343	0.1651	0.1294	0.17395	-2.2708	-3.0667	-2.3083	-3.0104	-2.9146	-2.4938	-3.1583	-2.7792	-2.7896	-3.0167	-2.6521	-2.9292	-3.0521	-2.65	-3.0167	-2.8312	35.446	-25.456	121.178	135.166	-93.499	190.897	174.188	123.254	-128.995	166.509	-23.809	97.464	142.358	-158.286	1.909	-145.937	0.00054132	0.00088435	0.00018878	1302.7	8.0901e-06	1.5919e-05	893.47	481.23	1.0165e-05	1.1123e-05	375.39	148.78	179.49	85.702	8.2846e-06	79.81	0.0053426	0.0088	0.0024637	1222.1	8.8199e-05	0.00010078	854.66	457.76	9.1206e-05	0.00010087	364.02	143.96	175.07	82.135	0.00010029	77.194	-107.807	-97.444	-8.649	-146.392	9.469	-74.621	-147.242	-140.622	16.827	2.459	-143.420	-138.801	-136.047	-132.192	87.840	-135.527	-8191	255	
19929.660	1	1	0	0	0.05226	0.23961	0.15506	0.12339	0.049995	0.10264	0.082689	0.095713	0.14243	0.11578	0.28751	0.20873	0.24123	0.10132	0.12799	0.014969	-2.0771	-3.025	-2.3292	-2.9833	-2.9333	-2.425	-2.9354	-2.9208	-2.5521	-3.2354	-2.4271	-2.8292	-3.0583	-2.4917	-3.0542	-2.9688	169.041	135.100	-133.451	158.961	-35.058	42.112	169.420	-53.519	-146.894	-23.813	89.943	189.304	167.167	90.827	-132.597	154.441	0.00066671	0.00083354	0.0001154	1295.3	1.6529e-05	2.0467e-05	894.56	483.44	2.9844e-06	1.0533e-05	373.31	148.26	179.85	85.859	3.8781e-06	79.425	0.0059404	0.010026	0.0028482	1225.7	0.0001045	0.00011874	860.48	460.72	0.00011007	0.00012333	368.25	145.42	176.71	82.527	0.00012091	77.275	-112.715	-36.898	-133.767	-146.023	6.032	-31.009	-147.017	-140.591	-57.042	-48.761	-143.060	-139.191	-136.377	-132.392	77.906	-135.958	-8191	255	
19929.758	1	1	0	0	0.16247	0.23719	0.2823	0.24015	0.054413	0.25945	0.15348	0.11625	0.23013	0.17729	0.070291	0.29376	0.028468	0.2768	0.074525	0.021199	-2.1271	-2.8438	-2.4	-2.9458	-3.2146	-2.5312	-3.0458	-2.9417	-2.4792	-2.85	-2.6875	-2.7396	-3.0396	-2.4396	-2.8542	-3.0042	65.547	-40.661	-20.111	-113.768	34.972	-88.646	-142.665	-118.045	-66.273	-146.962	-107.448	-40.474	-91.696	187.040	176.001	-2.339	0.00065362	0.0010643	0.00041394	1296.6	5.6556e-06	1.4912e-05	882.59	481.34	9.4381e-06	1.1074e-05	371.46	147.86	179.14	85.087	5.0033e-06	78.803	0.0069075	0.011607	0.0032527	1229.4	0.00011391	0.00012804	858.89	461.09	0.00011885	0.00013184	368.02	145.45	176.73	82.266	0.00012482	77.121	-96.053	-73.007	-86.794	-146.385	-20.452	0.934	-147.708	-141.033	69.198	-0.596	-144.184	-139.560	-136.774	-132.695	153.107	-136.233	-8191	255	
19929.877	1	1	0	0	0.096915	0.06324	0.16206	0.32797	0.041912	0.036967	0.47153	0.31343	0.27029	0.16849	0.29391	0.15841	0.17832	0.1524	0.078017	0.31519	-1.9125	-3.0792	-2.5958	-2.6562	-3.0542	-2.3458	-2.8604	-2.85	-2.2292	-3.1771	-2.6896	-2.7604	-3.1312	-2.7604	-2.7938	-3.2313	23.310	-98.671	117.758	199.829	-127.517	115.775	151.317	145.867	-83.530	76.059	-109.865	-57.586	5.026	183.894	-138.431	153.711	0.00063002	0.00089188	0.00021459	1288.5	3.391e-06	2.0715e-05	891.51	480.72	3.8423e-06	5.9192e-06	370.81	149.41	178.52	85.429	6.1193e-06	79.377	0.0070898	0.011913	0.0033562	1226.5	0.00012022	0.00013445	861.9	461.68	0.0001185	0.00013065	368.74	145.62	176.38	82.305	0.00012343	77.308	-107.762	-46.401	-60.329	-146.545	200.212	78.602	-147.822	-141.263	-143.173	-9.007	-144.161	-139.514	-136.506	-132.773	-88.875	-136.175	-8191	255	
19929.949	1	1	0	0	0.28512	0.14177	0.097149	0.30151	0.099186	0.38864	0.24601	0.34367	0.13924	0.285	0.28845	0.21684	0.23606	0.4213	0.099354	0.034611	-2.0125	-2.9437	-2.5604	-2.6875	-3.1354	-2.3333	-2.7958	-2.9688	-2.2313	-3.0438	-2.9229	-2.625	-3.2479	-2.4542	-2.7583	-3.2042	-8.364	-81.671	107.167	167.312	21.877	-53.941	71.102	119.574	-8.962	21.443	190.663	106.136	-120.721	177.226	96.032	125.831	0.00057135	0.00060336	0.00024339	1288.2	2.6949e-06	1.8974e-05	888.4	479.63	6.3032e-06	8.8101e-06	375.09	148.07	178.31	84.817	5.1559e-06	78.141	0.0069376	0.011686	0.0032736	1222.4	0.00011613	0.00013026	859.59	460.33	0.00011962	0.00013282	369.35	145.43	176.34	81.854	0.00012905	76.769	-112.975	-104.789	-50.300	-146.435	4.295	-53.214	-147.776	-141.363	-12.512	-32.461	-143.793	-139.402	-137.024	-132.641	-42.611	-136.021	-8191	255	
19930.070	1	1	0	0	0.13128	0.087185	0.13287	0.12393	0.16822	0.081544	0.18088	0.34467	0.40016	0.15053	0.091238	0.45478	0.11772	0.31217	0.054907	0.17275	-1.9125	-2.8354	-2.7146	-2.6875	-2.9042	-2.6479	-2.6646	-2.9708	-2.375	-3.0021	-2.9771	-2.6146	-3.1646	-2.725	-2.625	-3.0729	-37.610	142.965	-42.543	-47.660	191.509	71.532	178.354	-156.623	32.129	-138.868	93.738	163.388	133.600	117.262	-66.053	48.793	0.00054498	0.00037958	0.00018859	1272.2	6.8836e-06	6.0517e-06	880.23	471.68	4.0451e-06	7.7012e-06	364.33	144.14	173.82	81.347	1.1541e-05	75.539	0.0071918	0.012189	0.0034173	1209	0.00012395	0.0001487	858.13	456.74	0.00015416	0.00018112	375.22	146.43	178.23	80.546	0.00022002	77.335	-114.401	115.293	-47.616	-146.447	-156.231	-99.390	-147.884	-141.250	-90.242	75.796	-143.798	-139.641	-136.950	-133.089	-61.784	-136.199	-8191	255	
19930.164	1	1	0	0	0.069012	0.14852	0.17843	0.1292	0.17032	0.063846	0.46283	0.38342	0.16435	0.20202	0.11848	0.30536	0.50582	0.09507	0.14424	0.087625	-1.8958	-2.9188	-2.8646	-2.4062	-3.0354	-2.75	-2.5604	-3.175	-2.3896	-2.8167	-2.8854	-2.5042	-3.0542	-2.8854	-2.5604	-3.0771	114.184	-87.111	28.075	-75.553	111.467	-146.881	-156.357	103.927	40.464	104.094	-144.808	180.325	-156.841	-108.159	18.948	128.853	0.00048801	0.0012562	0.00063962	1263.4	1.2492e-05	7.4973e-06	877.46	471.19	1.1523e-05	4.8332e-06	366.87	142.3	172.51	80.88	5.7256e-06	75.44	0.01315	0.022857	0.0064104	1242.9	0.00023434	0.00027019	897.87	469.17	0.0002408	0.00026842	391.59	149.37	182.1	81.147	0.00025664	77.831	-110.456	157.528	-140.497	-146.589	-110.951	104.810	-147.738	-140.890	-23.466	-75.584	-144.087	-139.498	-136.868	-132.536	5.844	-136.154	-8191	255	
19930.260	1	1	0	0	0.099706	0.16418	0.1604	0.18699	0.21689	0.13882	0.13278	0.13949	0.11925	0.15841	0.022294	0.080059	0.12506	0.17101	0.16649	0.40808	-1.9771	-2.6688	-2.9729	-2.4813	-3.1542	-2.7875	-2.5312	-3.2313	-2.5333	-2.7	-3.2438	-2.6271	-2.8917	-3.0354	-2.5354	-3.4625	-26.770	-28.414	-6.582	-143.987	173.195	64.567	19.733	-136.291	131.296	-49.712	-116.777	90.275	-91.333	-156.818	36.512	197.042	0.00053546	0.00107	2.7989e-05	1259.9	5.2427e-06	1.3031e-05	876.81	468.32	1.3398e-05	2.0656e-05	367.17	142.97	171.75	80.208	4.714e-06	74.847	0.014441	0.024757	0.0068976	1242.8	0.00024284	0.00027795	900.05	467.61	0.00024738	0.00027674	393.04	149.43	181.58	80.51	0.00026172	77.66	-112.485	51.666	143.023	-146.515	-95.217	-13.167	-147.651	-141.225	-43.726	6.688	-143.504	-139.795	-136.957	-133.030	-91.277	-136.261	-8191	255	
19930.355	1	1	0	0	0.15318	0.088434	0.13038	0.093912	0.18735	0.10291	0.27622	0.13349	0.04069	0.36806	0.21218	0.029777	0.15785	0.067158	0.22144	0.05176	-2.1958	-2.3875	-3.1104	-2.6646	-2.9437	-2.9604	-2.3812	-3.2667	-2.4417	-2.6833	-3.3271	-2.5312	-2.9021	-3.1437	-2.4562	-3.2146	-44.516	61.520	-117.443	-142.429	15.255	-102.411	98.126	72.912	-2.058	-34.866	130.250	-86.083	-147.134	194.751	29.983	-152.060	0.00038372	0.0013154	1.6249e-05	1261.2	1.0978e-05	2.0088e-05	891.91	467.76	1.9527e-05	1.9919e-05	371.84	143.59	173.4	81.397	1.1362e-05	76.39	0.014776	0.025271	0.0070093	1246.9	0.00024733	0.00028215	910.52	468.34	0.00025228	0.00028537	398.22	151.75	184.99	82.222	0.00027838	79.84	-92.704	79.089	-88.931	-146.588	-41.885	-60.146	-147.894	-141.306	-17.806	-32.779	-143.777	-139.350	-136.617	-132.854	79.942	-136.221	-8191	255	
19930.477	1	1	0	0	0.30794	0.29426	0.20298	0.1868	0.148	0.12527	0.10375	0.43428	0.20828	0.083296	0.303	0.11195	0.10172	0.2316	0.30971	0.31623	-2.2979	-2.5312	-2.9729	-2.5542	-2.8271	-3.025	-2.6396	-3.1979	-2.7042	-2.5604	-3.0667	-2.4271	-2.7354	-3.2062	-2.2375	-3.1729	-2.816	185.815	18.335	189.392	46.688	94.069	91.708	157.112	164.406	166.475	120.103	-105.774	75.815	149.063	77.935	121.653	0.00059093	0.0015139	0.00016726	1302.7	1.4239e-05	1.0948e-05	902.82	483.21	9.2876e-06	1.7398e-05	381.7	147.43	177.79	83.951	1.1442e-05	78.111	0.015683	0.026859	0.0074366	1288.5	0.00025794	0.00028518	928.31	481.64	0.00024004	0.00026722	402.61	153.34	187.31	83.908	0.00025726	80.406	-91.243	-20.020	-109.481	-146.476	-26.744	-67.252	-147.644	-141.191	-74.962	80.754	-144.140	-139.143	-136.776	-132.824	185.337	-136.606	-8191	255	
19930.572	1	1	0	0	0.079947	0.053721	0.27942	0.15754	0.018304	0.16595	0.24009	0.1483	0.12615	0.067303	0.13463	0.13685	0.06469	0.29704	0.052368	0.15803	-2.375	-2.5354	-3.1937	-2.6083	-2.6479	-2.9479	-2.4271	-3.1437	-2.7896	-2.6542	-3.0958	-2.6188	-2.6104	-3.1937	-2.2708	-2.8542	181.106	-107.806	113.885	-111.181	-90.799	-43.257	154.828	187.699	-133.683	-134.443	160.262	-143.565	-99.835	172.455	37.068	177.840	0.00066472	0.0021309	0.00033748	1338.3	1.1448e-05	1.6003e-05	921.46	495.35	1.9631e-05	1.8935e-05	382.2	148.38	179.19	83.282	6.834e-06	76.258	0.014612	0.024779	0.0068866	1311	0.00024493	0.00027484	937.31	490.4	0.00023859	0.00026224	403.55	153.45	186.9	82.921	0.00022771	78.07	-110.845	5.626	-23.887	-146.441	-126.036	-57.979	-147.938	-141.499	-38.128	-60.189	-143.500	-139.436	-136.981	-132.894	113.130	-136.221	-8191	255	
19930.670	1	1	0	0	0.069624	0.097656	0.25268	0.040099	0.20817	0.10103	0.14909	0.3014	0.24173	0.17753	0.32825	0.10568	0.050579	0.2798	0.10917	0.22137	-2.3458	-2.2812	-3	-2.7146	-2.5271	-3.2062	-2.5438	-2.8396	-2.8083	-2.375	-3.1021	-2.8208	-2.6188	-3.2625	-2.4062	-2.7146	-28.132	35.771	-90.570	-157.898	-85.876	-82.389	-120.498	-141.276	46.275	-51.799	-153.366	-51.406	-155.647	-144.800	-147.420	135.595	0.00066003	0.00079882	0.00035301	1339.2	6.1001e-06	1.3225e-05	918.03	490.43	5.1504e-06	6.8869e-06	378.94	145.8	177.11	81.196	7.8973e-06	75.27	0.012455	0.020976	0.0058272	1306.1	0.00020356	0.00022779	921.44	481.54	0.00020406	0.00022572	394.21	149.66	182.18	80.624	0.00020646	76.383	-100.111	-63.875	-50.793	-146.333	-122.721	169.411	-147.720	-141.345	-19.744	79.860	-144.140	-139.349	-137.118	-132.849	-95.073	-136.228	-8191	255	
19930.766	1	1	0	0	0.14156	0.056289	0.31287	0.059139	0.26441	0.032488	0.1915	0.14237	0.17418	0.12727	0.19435	0.18269	0.14023	0.26437	0.22419	0.18458	-2.4375	-2.35	-2.9833	-2.8563	-2.4188	-3.2188	-2.5625	-2.7812	-2.9729	-2.3854	-3.0979	-2.8167	-2.6146	-3.2104	-2.3792	-2.6792	-73.585	-116.401	-121.173	88.673	82.634	132.992	151.184	-113.007	96.616	-85.124	73.022	-1.364	196.381	-152.323	-26.829	139.819	0.00047806	0.00089005	0.00048216	1327.8	6.5243e-06	1.5581e-05	914.84	485.47	8.8865e-06	1.6972e-05	377.96	145.3	173.72	79.512	1.4236e-05	73.817	0.01141	0.019325	0.0053271	1291	0.00018604	0.00020988	911.14	476.35	0.00019128	0.00021812	393.18	148.7	180.43	79.311	0.00022349	75.747	-100.003	-94.918	-86.764	-146.604	35.112	138.002	-147.678	-141.384	12.753	35.666	-143.831	-139.419	-136.969	-132.766	-1.006	-136.110	-8191	255	
19930.861	1	1	0	0	0.14661	0.10238	0.20961	0.094419	0.27519	0.11917	0.23745	0.20599	0.3081	0.16678	0.28264	0.060155	0.24625	0.29119	0.26252	0.20692	-2.7833	-2.2083	-2.8417	-2.875	-2.3438	-3.1	-2.7458	-2.7687	-3.0417	-2.3604	-2.9396	-2.8521	-2.4583	-3.1125	-2.6063	-2.7521	-12.898	144.425	109.563	51.924	-84.579	56.113	101.682	113.374	159.100	65.583	116.696	104.819	120.407	87.647	44.888	78.720	0.00046275	0.00085093	0.00039957	1315.9	1.1849e-05	9.0882e-06	907.43	480.65	1.7232e-05	1.6521e-05	372.85	141.51	169.06	76.407	1.5419e-05	70.933	0.012714	0.021887	0.0061506	1287.8	0.00021747	0.00025181	920.2	475.34	0.00023599	0.00026573	396.17	147.91	178.79	77.532	0.00025917	74.199	-95.397	27.191	-77.399	-146.581	-70.966	15.920	-147.565	-141.341	6.457	-40.415	-143.762	-139.265	-136.887	-132.414	-7.834	-136.306	-8191	255	
19930.957	1	1	0	0	0.0918	0.15234	0.060389	0.19039	0.14811	0.29672	0.34749	0.48001	0.06872	0.080864	0.1647	0.10895	0.30279	0.1706	0.33771	0.11334	-2.6375	-2.3563	-2.8146	-2.9792	-2.5062	-3.1771	-2.7521	-2.6688	-2.9313	-2.4333	-2.8354	-2.9125	-2.2604	-3.2604	-2.5312	-2.6208	-61.825	190.599	-69.673	174.222	126.934	98.016	171.905	186.544	132.321	140.138	-130.117	-101.979	116.250	-153.888	28.328	129.309	0.00050876	0.0019877	0.00074867	1292.5	1.5061e-05	9.4081e-06	884.21	463.8	1.2998e-05	1.86e-05	357.43	133.94	161.14	72.255	5.5613e-06	66.886	0.014567	0.024921	0.0069758	1271.5	0.00023467	0.00025713	898.93	457.69	0.00020659	0.00022412	373.93	138.13	166.78	72.051	0.00020381	68.394	-129.390	-20.755	-130.801	-146.450	-114.875	195.498	-147.452	-141.213	-54.623	-11.164	-143.683	-138.952	-136.573	-132.776	12.671	-136.117	-8191	255	
19931.055	1	1	0	0	0.16356	0.044335	0.12939	0.24856	0.066917	0.19006	0.36714	0.27287	0.41133	0.21525	0.26293	0.25884	0.198	0.44144	0.18335	0.056167	-2.6688	-2.375	-2.5792	-3.0354	-2.2188	-2.7271	-2.8688	-2.5542	-3.0354	-2.4604	-2.6854	-3.0417	-2.4021	-3.1688	-2.7896	-2.3917	28.927	-96.770	-155.738	194.875	-101.687	-16.172	159.129	162.596	72.952	11.579	131.999	169.001	151.378	183.085	4.027	-69.399	0.00056147	0.00025488	7.0444e-05	1269	9.4766e-06	1.1855e-05	884.11	451.13	1.3169e-05	1.2036e-05	355.51	131.61	157.27	70.763	5.9015e-06	66.089	0.011453	0.019716	0.0054831	1229.3	0.00018886	0.00021403	881.26	443.54	0.00018733	0.00021167	368.64	134.68	163.7	70.19	0.00020407	67.565	-99.260	50.484	-104.771	-146.299	-42.793	23.821	-147.494	-141.148	-106.160	-19.573	-144.051	-138.972	-136.526	-132.561	65.860	-136.240	-8191	255	
19931.174	1	1	0	0	0.17184	0.040561	0.1487	0.18723	0.030375	0.063626	0.056073	0.26807	0.13629	0.04535	0.11156	0.14602	0.14019	0.13334	0.14245	0.33103	-2.5333	-2.3667	-2.4958	-3.075	-2.2812	-2.7417	-2.8479	-2.35	-2.9375	-2.3125	-2.4938	-3.0958	-2.5125	-3.0896	-2.9625	-2.2583	50.650	95.692	22.755	-143.773	-101.518	162.337	-144.288	164.656	10.579	-113.831	22.360	143.042	117.548	167.633	-10.590	89.231	0.00045979	0.00086128	0.0007371	1276.6	9.764e-06	2.9499e-05	890.12	458.98	5.2002e-06	2.6273e-05	360.68	133.2	159.17	71.616	7.4575e-06	66.257	0.011566	0.019889	0.0054798	1238.6	0.00018794	0.00021205	886.82	447.69	0.00017982	0.00019785	369.85	134.84	162.24	70.407	0.00016413	66.464	-91.948	-133.383	-8.145	-146.496	-33.622	52.070	-147.233	-141.110	198.568	-25.201	-144.264	-139.067	-136.436	-132.464	28.562	-135.711	-8191	255	
19931.246	1	1	0	0	0.14039	0.23822	0.14374	0.27271	0.15273	0.090807	0.15884	0.28892	0.11337	0.14074	0.26906	0.063701	0.19113	0.1709	0.36929	0.11205	-2.6979	-2.7562	-2.2979	-3.0812	-2.2875	-2.8417	-2.9542	-2.5354	-3.1271	-2.7604	-2.5646	-3.1167	-2.3875	-2.6729	-2.9313	-2.5271	48.030	-54.792	101.864	108.457	-112.005	-61.275	125.673	-134.556	5.488	-42.177	168.734	158.260	-81.673	-6.160	91.138	24.715	0.00050525	0.0011469	0.00012204	1280.6	1.324e-05	1.4827e-06	881.06	453.51	1.8774e-06	5.0433e-06	354.86	128.43	155.31	68.936	1.1759e-05	63.797	0.0083559	0.01349	0.0036029	1213.7	0.0001215	0.00013597	853.95	435.32	0.00011815	0.00013344	352.77	127.7	155.16	67.399	0.00013952	63.749	-115.315	-72.418	17.347	-146.323	39.745	-91.448	-147.718	-141.115	-134.912	25.296	-143.789	-139.346	-136.522	-132.282	-156.548	-135.647	-8191	255	
19931.342	1	1	0	0	0.2086	0.30033	0.070983	0.13867	0.34848	0.075408	0.39758	0.11889	0.19269	0.037446	0.25376	0.021032	0.19272	0.3135	0.13735	0.1287	-2.4917	-2.8063	-2.3438	-3.2812	-2.4375	-2.7083	-3.0875	-2.5479	-2.8604	-2.8854	-2.5938	-3.2542	-2.5563	-2.6437	-3.0292	-2.4333	149.657	3.295	96.064	139.385	152.314	-49.864	131.867	45.887	-1.923	147.746	109.994	58.941	188.052	172.939	-137.329	101.087	0.00041896	0.0015569	0.00042687	1287	8.8863e-06	1.2332e-05	886.1	454.34	1.5816e-05	5.298e-06	358.29	127.03	155.26	68.255	1.0183e-05	63.305	0.0083139	0.01445	0.004148	1233.6	0.00015197	0.00017356	872.42	442.36	0.00015871	0.00017929	363.72	129	158.19	67.388	0.00016431	63.793	-84.821	-50.566	-125.069	-146.431	22.265	-7.060	-147.600	-140.945	30.131	-24.957	-143.469	-139.202	-136.419	-132.391	-17.920	-135.675	-8191	255	
19931.438	1	1	0	0	0.033766	0.19383	0.0087612	0.33137	0.29334	0.09989	0.1753	0.15825	0.24429	0.1484	0.10775	0.1092	0.36535	0.33764	0.084018	0.40571	-2.4792	-2.8208	-2.3146	-3.2083	-2.7167	-2.4271	-3.0187	-2.3604	-2.7646	-3.0021	-2.4917	-3.2417	-2.825	-2.6125	-3.1896	-2.425	152.630	23.151	10.660	161.522	198.615	-3.650	94.746	155.708	71.838	-41.749	85.611	149.065	196.293	185.599	-15.904	-146.587	0.00052457	0.0013778	0.00044049	1290.2	6.8213e-06	4.4806e-06	894.34	455.67	4.393e-06	6.7417e-06	357.65	125.72	154.32	67.666	6.6189e-06	62.399	0.0091289	0.015517	0.0042489	1239.9	0.00014968	0.00016723	872.32	441.38	0.00014584	0.00015795	359.41	126.68	155.21	66.055	0.0001404	62.098	-118.512	1.866	-75.631	-146.427	135.555	3.292	-147.381	-141.058	-120.470	-105.258	-143.480	-138.981	-136.678	-132.248	-38.153	-135.919	-8191	255	
19931.557	1	1	0	0	0.053502	0.11277	0.11463	0.091075	0.044119	0.21585	0.16783	0.35949	0.22852	0.15716	0.16517	0.24779	0.048299	0.11166	0.36853	0.16979	-2.2812	-2.9958	-2.3563	-3.0854	-2.7292	-2.4188	-3.1208	-2.725	-2.7646	-2.8729	-2.4646	-3	-2.8271	-2.3292	-3.0708	-2.4813	170.126	61.781	160.938	-98.865	-19.580	-80.241	-146.708	172.740	-113.546	166.134	155.224	169.186	-57.352	22.001	20.552	124.643	0.00048568	0.00079991	0.0002011	1286.3	7.9824e-06	2.8612e-06	884.44	451.43	1.1492e-05	6.7729e-06	353.96	124.53	151.34	65.977	5.3278e-06	61.147	0.0078345	0.013075	0.0035978	1225.4	0.00012584	0.00013951	858.82	433.65	0.00012164	0.00013294	351.53	123.52	150.95	64.291	0.00012594	60.672	-96.154	-3.981	177.375	-146.588	68.198	8.039	-147.253	-140.962	-47.243	12.306	-143.475	-138.989	-135.989	-132.049	-103.855	-135.434	-8191	255	
19931.652	1	1	0	0	0.1094	0.20258	0.14805	0.18628	0.25171	0.19036	0.11758	0.24174	0.113	0.1816	0.072301	0.22669	0.11054	0.083928	0.26061	0.22067	-2.4125	-2.6708	-2.1667	-2.8917	-2.8021	-2.4146	-2.9521	-2.6021	-2.3896	-2.9833	-2.4667	-2.9521	-2.9146	-2.3563	-3.0229	-2.775	72.301	68.565	-64.369	93.387	133.004	-110.889	-134.680	-143.053	-79.683	79.730	7.997	196.292	89.179	-153.828	86.239	88.093	0.00039211	0.0020662	5.4882e-05	1287.7	2.9188e-06	3.4996e-06	885.04	449.57	1.6783e-05	1.8782e-05	353.5	124.66	151.42	65.824	7.3903e-06	61.267	0.0072551	0.012302	0.0033819	1222.6	0.00011994	0.00013506	858.66	432.39	0.00012159	0.00013166	351.56	123.73	151.1	64.045	0.00012223	60.484	-119.781	-49.990	-40.311	-146.646	200.688	132.717	-147.371	-141.069	-20.511	182.137	-143.443	-138.559	-136.409	-132.170	74.899	-135.386	-8191	255	
19931.750	1	1	0	0	0.098186	0.044722	0.13112	0.09724	0.19229	0.15804	0.11322	0.086363	0.18945	0.26178	0.25915	0.13406	0.17316	0.0045908	0.1185	0.062399	-2	-3.075	-2.35	-2.8708	-2.9792	-2.25	-3.1312	-2.6792	-2.6229	-3.0375	-2.4583	-2.8146	-2.9313	-2.575	-2.8729	-2.7062	-124.766	177.688	20.744	145.754	-26.626	15.832	-144.068	135.011	-91.678	37.914	-133.687	57.220	126.347	192.572	-52.682	53.912	0.00045603	0.0012005	0.0003459	1281.7	1.1337e-05	1.1719e-05	892.15	450.17	4.482e-06	3.8968e-06	353.82	126.1	151.64	66.072	2.1292e-06	61.249	0.0068738	0.011463	0.0032188	1216.7	0.00011662	0.00013167	861.42	433.42	0.00011917	0.00013399	352.68	124.52	152.22	64.467	0.00012816	60.574	-111.684	6.914	-14.113	-146.586	-57.628	5.789	-147.520	-141.110	-37.147	-105.200	-143.544	-138.913	-136.067	-132.179	-20.592	-135.289	-8191	255	
19931.846	1	1	0	0	0.041151	0.10709	0.22262	0.26361	0.081767	0.089073	0.31014	0.075875	0.10347	0.1117	0.15316	0.11618	0.098558	0.27949	0.16997	0.19319	-1.9854	-2.975	-2.4104	-2.8208	-2.8708	-2.3125	-2.95	-2.8667	-2.5083	-3.1813	-2.45	-2.5021	-3.0958	-2.5458	-2.7229	-2.9104	36.501	-4.718	29.749	-126.446	12.300	63.246	177.118	89.868	25.869	-15.130	86.075	-152.290	-147.011	179.599	-54.309	112.811	0.00041806	0.0010396	6.9524e-05	1274.1	2.4421e-06	4.384e-06	886.65	449.42	4.5475e-06	1.2442e-05	352.69	124.59	150.85	65.36	1.1424e-05	61.057	0.0069629	0.011479	0.0030992	1207.5	0.00010607	0.00011688	850.86	428.74	0.00010499	0.00011563	346.98	122.46	148.93	63.377	0.00011042	60.056	-111.952	-135.580	71.686	-146.862	78.404	118.400	-147.617	-141.051	-33.185	-3.703	-143.452	-139.038	-136.125	-132.033	125.471	-135.285	-8191	255	
19931.941	1	1	0	0	0.16758	0.12065	0.16492	0.47986	0.04277	0.012193	0.051711	0.2593	0.22647	0.24064	0.1794	0.10984	0.11323	0.23636	0.2866	0.27449	-1.8833	-2.9896	-2.5354	-2.5438	-3.1083	-2.3167	-2.8604	-3.0417	-2.4146	-2.9917	-2.6667	-2.6958	-3.0854	-2.6042	-2.7062	-2.8396	-17.205	177.942	119.185	171.668	146.830	-44.241	-153.361	143.838	181.123	69.476	133.060	100.603	-119.763	-120.826	72.015	161.959	0.00062695	0.0010118	0.00026732	1265.8	1.6388e-06	1.6779e-05	884.81	448.79	3.5873e-06	9.7737e-06	353.79	123.94	150.5	65.269	1.3721e-05	61.299	0.0063316	0.010756	0.0030654	1201.7	0.00011064	0.00012727	858.01	429.36	0.00011885	0.00013308	351.49	123.48	150.64	63.712	0.00013738	60.962	-96.002	-28.047	-57.110	-146.329	-117.594	29.557	-147.455	-140.776	-55.954	-79.710	-143.675	-138.822	-136.008	-132.310	-65.509	-135.291	-8191	255	
19932.037	1	1	0	0	0.071443	0.20773	0.15364	0.17035	0.12641	0.18568	0.25	0.26501	0.11274	0.093698	0.29717	0.24	0.14648	0.17511	0.18541	0.28575	-1.95	-2.9729	-2.5979	-2.4813	-3.1	-2.4771	-2.7062	-3.2479	-2.5875	-3.1208	-2.9021	-2.4146	-3.0187	-2.4021	-2.6937	-3.0208	-138.046	27.937	136.173	-69.263	144.991	-12.547	-157.415	146.037	-21.803	132.240	195.283	67.612	113.795	188.688	-122.534	109.510	0.00039346	0.00080849	0.00014998	1267.1	6.828e-06	1.2849e-05	889.63	443.6	1.4615e-05	1.2772e-05	356.47	124.26	148.47	64.818	4.4735e-06	60.79	0.0076176	0.012975	0.0036632	1205.9	0.00012689	0.00014484	866.81	428.64	0.00012973	0.00014606	354.9	124.66	150.39	63.757	0.00014117	61.021	-96.041	27.313	139.577	-146.271	76.268	-3.231	-147.712	-141.049	-19.639	-104.874	-143.442	-139.150	-136.245	-131.932	105.121	-135.153	-8191	255	
19932.156	1	1	0	0	0.044172	0.16086	0.38021	0.37561	0.085234	0.27703	0.2198	0.077147	0.14104	0.10977	0.052586	0.2563	0.2287	0.082201	0.21146	0.15602	-1.9312	-2.6708	-2.5438	-2.4562	-2.9667	-2.4437	-2.7625	-3.2333	-2.4958	-2.9188	-3.0167	-2.5021	-3.1125	-2.6583	-2.5125	-3.025	129.176	20.387	76.918	115.210	-58.221	39.088	87.260	184.317	-143.918	-77.183	79.835	169.200	-82.741	53.105	100.690	3.443	0.00054477	0.00084402	0.00029488	1269.2	1.5455e-05	1.5606e-05	893.92	447.82	8.4826e-06	9.0263e-06	357.17	125.84	151.84	66.855	9.7715e-07	62.404	0.0078323	0.013304	0.0036729	1209.2	0.00012277	0.00013566	866.06	430	0.00011265	0.00012418	352.48	124.31	151.31	64.577	0.00011511	61.436	-103.631	-90.301	-47.870	-146.481	13.197	57.324	-147.630	-140.753	-28.740	-43.630	-143.460	-139.199	-136.160	-132.216	-85.130	-135.304	-8191	255	
19932.254	1	1	0	0	0.15874	0.27073	0.18772	0.23396	0.091431	0.075515	0.14303	0.079887	0.13574	0.43222	0.26201	0.13707	0.074328	0.076635	0.17747	0.04739	-2.0563	-2.6667	-2.8563	-2.5229	-2.925	-2.7958	-2.5417	-3.1104	-2.4062	-2.8	-2.8917	-2.3979	-2.9396	-2.7375	-2.4313	-3.2333	128.049	-115.960	-10.860	134.149	-35.282	-15.139	-99.236	175.735	-94.824	-63.018	176.390	159.222	-12.447	179.161	150.860	38.031	0.00035691	0.00049814	0.00020537	1289.2	9.1031e-06	7.2327e-06	900.25	457.74	1.1751e-05	5.6638e-06	364.14	128.83	157.46	68.459	9.5169e-06	63.972	0.0063147	0.010663	0.0029995	1219.8	0.00010321	0.00011781	864.97	437.14	0.00010169	0.00011053	353.77	126.39	153.94	66.004	9.1989e-05	62.156	-106.462	-104.363	-140.579	-146.316	-9.611	103.539	-147.449	-140.736	-40.934	-12.977	-143.599	-139.001	-136.657	-132.049	-39.567	-135.519	-8191	255	
19932.350	1	1	0	0	0.19515	0.17024	0.11708	0.10194	0.19857	0.13733	0.14656	0.025765	0.26882	0.29267	0.2918	0.22692	0.4692	0.1655	0.066517	0.048493	-2.1937	-2.6562	-3.0187	-2.5479	-2.9896	-2.8083	-2.3479	-3.1896	-2.3792	-2.6188	-3.0042	-2.5312	-2.9958	-2.6688	-2.3271	-3.0812	78.964	-42.675	168.400	-125.535	-77.388	140.556	-94.859	-131.397	-124.536	-147.027	-133.275	-133.172	117.451	-150.762	70.122	-130.176	0.00050549	0.0011153	0.00019691	1298	5.4842e-06	5.2542e-06	903.01	460.43	7.9244e-06	1.6409e-06	364.33	133.05	159.63	70.411	2.9854e-06	65.854	0.005058	0.008394	0.0023042	1218.2	8.0902e-05	8.9763e-05	859.59	436.91	7.8129e-05	8.6831e-05	351.58	127.96	154.88	67.089	7.5201e-05	63.332	-98.093	-61.947	-149.601	-146.410	-69.306	-72.793	-147.628	-140.886	0.281	199.797	-143.816	-139.054	-136.941	-132.184	4.629	-135.532	-8191	255	
19932.471	1	1	0	0	0.14421	0.26844	0.25219	0.26962	0.12959	0.19926	0.099537	0.54373	0.18875	0.18932	0.095951	0.24054	0.039335	0.12361	0.12723	0.2248	-2.1063	-2.5542	-2.8792	-2.5104	-3.025	-2.725	-2.5167	-3.1021	-2.5687	-2.5167	-3.3021	-2.3396	-2.9354	-2.9562	-2.4042	-3.275	174.455	182.833	29.475	177.447	137.450	191.718	165.610	-155.887	31.684	52.689	-54.470	189.523	5.243	-77.955	150.115	22.112	0.00049711	0.0002581	4.5159e-05	1311.8	5.9805e-06	7.1147e-06	908.42	467.73	3.5154e-06	9.2114e-06	367.25	134.19	162.56	71.311	6.092e-06	67.235	0.004298	0.006881	0.0018714	1223	6.2143e-05	6.8119e-05	855.03	439.33	5.7978e-05	6.3276e-05	350.19	128.3	155.14	67.514	5.5859e-05	63.83	-110.686	-9.232	-79.359	-146.647	-2.850	-23.801	-147.519	-140.965	-33.003	-8.606	-143.240	-139.082	-136.150	-132.345	-18.207	-135.636	-8191	255	
19932.543	1	1	0	0	0.11147	0.1631	0.093131	0.049709	0.34607	0.22284	0.16062	0.13618	0.033381	0.1291	0.29477	0.095501	0.13673	0.20842	0.062674	0.17669	-2.3167	-2.4792	-3.0396	-2.6083	-2.8063	-2.9771	-2.2812	-3.1125	-2.6771	-2.4396	-2.9625	-2.4688	-2.7854	-2.9896	-2.3333	-2.9771	-113.808	-124.289	12.355	121.459	-112.448	102.659	93.995	73.940	-95.069	187.616	79.537	170.784	-66.935	181.115	-75.080	77.706	0.0005391	0.0003875	6.3763e-05	1305.7	7.8357e-06	8.995e-06	899.96	465.28	4.412e-06	1.0881e-05	365.28	136.11	163.76	72.38	1.283e-05	67.59	0.0032518	0.0052458	0.0014459	1217.6	5.0207e-05	5.5181e-05	848.44	438.33	4.8588e-05	5.2153e-05	347.15	128.7	155.67	68.305	4.749e-05	64.033	-108.960	-101.011	73.829	-146.463	-9.721	5.271	-147.572	-141.040	-108.802	4.619	-143.881	-139.293	-136.513	-132.118	-29.975	-135.647	-8191	255	
19932.639	1	1	0	0	0.020791	0.31732	0.12202	0.18179	0.14571	0.11149	0.23639	0.12429	0.045126	0.090656	0.17667	0.22888	0.23998	0.32181	0.17044	0.21873	-2.2604	-2.3125	-2.9375	-2.5979	-2.6688	-2.95	-2.4479	-3.0896	-2.8063	-2.4729	-2.9688	-2.6104	-2.7583	-3.1333	-2.3542	-2.9896	144.113	105.190	-106.251	166.712	-48.148	36.419	-155.776	143.537	-35.256	-15.955	156.681	147.927	191.250	-108.963	-12.841	189.743	0.00051344	0.0011325	0.00021199	1314	3.2826e-06	7.2303e-06	911.19	466.42	7.815e-06	6.5367e-06	366.21	136.54	163.96	72.742	1.0338e-05	67.822	0.0028531	0.0043664	0.0012104	1220.2	4.2054e-05	4.5858e-05	846.49	437.09	4.1077e-05	4.4689e-05	344.61	128.65	155.41	68.426	4.3058e-05	64.057	-110.191	-80.196	-104.311	-146.326	-42.120	4.415	-147.480	-140.933	-47.366	-28.273	-143.603	-138.723	-136.623	-132.309	-3.784	-135.635	-8191	255	
19932.734	1	1	0	0	0.22245	0.19226	0.15978	0.20156	0.11583	0.18278	0.15744	0.22945	0.10308	0.11438	0.14478	0.070884	0.24057	0.2005	0.16013	0.10087	-2.4042	-2.3417	-2.8833	-2.7042	-2.4562	-3.0542	-2.4729	-2.9354	-2.9167	-2.1167	-3.1833	-2.5042	-2.4104	-3.1875	-2.4	-2.9604	-22.635	-70.799	-124.966	164.778	77.386	-39.557	78.213	183.878	123.880	23.076	172.206	79.191	151.358	148.836	-21.885	124.934	0.00053936	0.00060856	0.0001004	1315.3	5.882e-06	1.1516e-05	904.82	467.97	6.2991e-06	1.009e-05	363.26	134.92	163.58	72.49	6.7239e-06	68.053	0.002598	0.004073	0.0011319	1217.8	4.1572e-05	4.4759e-05	842.36	437.92	4.0183e-05	4.2697e-05	342.2	127.88	154.66	68.28	3.9442e-05	64.152	-108.241	-148.849	-75.590	-146.380	-30.275	-0.832	-147.372	-140.898	8.836	-0.033	-143.691	-139.261	-136.231	-132.372	-59.097	-135.950	-8191	255	
19932.854	1	1	0	0	0.069108	0.11307	0.15339	0.2285	0.16696	0.13303	0.18808	0.043541	0.03	0.29525	0.10255	0.13103	0.15878	0.3082	0.13491	0.23148	-2.5208	-2.2896	-2.9146	-2.8208	-2.4188	-3.0021	-2.4458	-2.7792	-2.9521	-2.2313	-3.0708	-2.6125	-2.6125	-3.2125	-2.4042	-2.7438	47.373	193.693	185.456	109.892	75.204	39.477	0.563	-105.491	-70.158	126.548	-121.101	49.788	-151.848	130.629	186.495	91.436	0.00051946	0.00046724	0.00021623	1310.1	5.3768e-06	3.8211e-06	899.05	468.76	5.1333e-06	4.8747e-06	363.56	135.82	163.88	72.74	1.9997e-06	68.351	0.0023695	0.0036321	0.0010301	1212.8	3.6751e-05	4.0906e-05	838.92	436.74	3.7139e-05	4.0182e-05	341.22	128.06	155.05	68.437	3.8787e-05	64.307	-109.959	-69.026	-39.274	-147.135	21.628	-93.793	-148.072	-141.771	2.879	-76.745	-144.125	-139.517	-136.967	-132.834	7.639	-136.657	-8191	255	
19932.951	1	1	0	0	0.27311	0.24662	0.2235	0.32184	0.02613	0.36964	0.19918	0.21899	0.24514	0.25673	0.19016	0.22094	0.17565	0.095415	0.061971	0.11958	-2.4396	-2.3167	-2.8979	-2.7396	-2.3187	-2.9417	-2.6646	-2.7104	-3.0354	-2.3458	-2.8458	-2.7438	-2.3688	-3.0875	-2.5021	-2.5833	-27.107	-142.464	-125.318	148.798	147.361	95.236	141.993	50.303	197.800	111.259	149.013	169.373	153.989	-59.529	30.595	-41.070	0.00047781	0.00067815	0.00011547	1303.3	3.8933e-06	8.584e-06	899.1	467.03	5.5958e-06	5.6585e-06	363.7	134.2	163.63	72.693	2.4918e-06	67.948	0.0023753	0.0036585	0.0010278	1209.1	3.7936e-05	4.3847e-05	836.93	437.36	4.0444e-05	4.4376e-05	341.55	127.68	155.18	68.637	4.2307e-05	64.524	-104.712	-61.519	-125.823	-147.025	-38.911	-39.619	-147.841	-141.744	15.500	5.685	-144.093	-139.807	-137.001	-133.007	-32.590	-136.467	-8191	255	
19933.047	1	1	0	0	0.25899	0.078102	0.2498	0.19689	0.035314	0.22789	0.14804	0.33464	0.080426	0.11911	0.25634	0.2597	0.28219	0.12596	0.20321	0.22647	-2.6146	-2.0771	-2.6542	-2.9979	-2.3375	-2.9396	-2.6458	-2.7229	-3.1021	-2.4938	-2.7938	-2.925	-2.4271	-2.9896	-2.5687	-2.6042	158.632	-60.782	63.966	145.800	72.943	-51.064	64.830	124.528	91.607	116.845	11.716	21.136	140.778	-48.779	120.501	-146.215	0.00048712	0.00068295	0.00014961	1304.7	3.1715e-06	9.776e-06	894.57	467.41	4.2393e-06	9.4634e-06	361.28	135.91	164.61	73.257	7.1259e-06	68.162	0.0025329	0.0040375	0.001119	1213	4.0413e-05	4.5135e-05	835	437.54	4.272e-05	4.8332e-05	342.03	128.89	156.48	69.243	4.946e-05	64.794	-104.757	-90.172	-62.470	-146.510	74.192	9.425	-147.237	-141.225	-1.405	-76.771	-143.466	-139.063	-136.636	-132.565	18.602	-135.879	-8191	255	
19933.117	1	1	0	0	0.0098382	0.10714	0.061573	0.27818	0.096449	0.26809	0.18917	0.26925	0.19436	0.069328	0.29869	0.22892	0.26954	0.17719	0.1348	0.082134	-2.6896	-2.4625	-2.6312	-3.05	-2.2604	-2.9792	-2.9042	-2.5854	-3.1125	-2.45	-2.6146	-2.9479	-2.4313	-3.05	-2.6208	-2.5396	-26.402	-112.441	13.297	-155.614	-30.047	-47.690	46.425	93.691	109.110	182.877	129.128	146.580	-63.928	181.554	9.953	48.877	0.00040221	0.00071806	0.00015513	1309.3	6.4458e-06	7.9614e-06	892.75	465.24	7.8271e-06	3.5524e-06	359.76	134.26	162.25	72.124	2.351e-06	68.335	0.0028175	0.0044733	0.0011947	1215.5	4.101e-05	4.4697e-05	831.19	434.79	3.5704e-05	3.6979e-05	336.29	126.5	153.14	67.892	3.4021e-05	64.156	-111.043	-51.411	-97.351	-146.379	-34.665	189.729	-147.389	-140.932	-29.130	-14.530	-143.648	-138.974	-136.614	-132.258	30.107	-135.757	-8191	255	
19933.236	1	1	0	0	0.11159	0.1206	0.054456	0.26489	0.095765	0.16167	0.10503	0.19395	0.17782	0.21976	0.034316	0.16296	0.28477	0.16303	0.25261	0.31755	-2.6937	-2.6417	-2.6375	-3.0812	-2.25	-2.9229	-2.8729	-2.5042	-3.0438	-2.4417	-2.5187	-3.1	-2.3917	-2.775	-2.8208	-2.3333	15.783	-96.946	73.710	66.787	149.840	-140.273	47.657	-109.546	112.548	-50.498	70.437	19.190	169.735	40.720	79.145	118.838	0.00046534	0.00064318	0.00012456	1313.1	7.7583e-06	8.0034e-06	896.95	470.45	5.3318e-06	5.514e-06	362.78	136.78	165.6	73.829	1.286e-05	69.315	0.0022247	0.0037924	0.0011134	1217.1	4.6358e-05	5.5845e-05	842.62	442.04	5.8904e-05	6.7445e-05	346.96	130.6	159.16	70.202	6.1593e-05	65.822	-109.445	-15.905	-111.278	-146.315	5.790	-3.729	-147.317	-141.154	13.168	-14.889	-143.918	-138.848	-136.407	-132.317	-48.579	-135.905	-8191	255	
19933.332	1	1	0	0	0.054877	0.075106	0.10464	0.21023	0.053924	0.28447	0.20043	0.15625	0.12264	0.082492	0.23526	0.11897	0.090249	0.036784	0.2718	0.15167	-2.7562	-2.4896	-2.3417	-3.0771	-2.3187	-2.5792	-2.9479	-2.5271	-2.8563	-2.7208	-2.5521	-3.1646	-2.5208	-2.8375	-2.8792	-2.3646	-102.962	1.113	34.697	153.353	-35.223	86.453	55.483	-143.446	-37.664	182.186	132.902	89.431	134.840	-147.048	119.232	-132.221	0.00048075	0.00096921	0.00029072	1311.4	6.2546e-06	5.5131e-06	895.94	468.49	8.4995e-06	1.0648e-06	361.7	135.1	163.79	72.711	5.4499e-06	66.925	0.0032077	0.0049396	0.0013529	1221.8	4.5305e-05	5.066e-05	839.08	438.44	4.6617e-05	5.1704e-05	342.65	128.44	156.02	68.695	4.9623e-05	63.909	-104.887	-92.756	-3.679	-146.365	-60.478	1.970	-147.396	-140.849	27.150	-83.197	-143.860	-138.905	-136.208	-132.408	7.363	-135.568	-8191	255	
19933.430	1	1	0	0	0.15889	0.12797	0.22336	0.17104	0.09554	0.24122	0.17171	0.12884	0.061953	0.10666	0.020663	0.254	0.16765	0.11386	0.14126	0.12586	-2.5438	-2.7417	-2.3042	-3.0875	-2.4958	-2.5271	-3.1146	-2.5375	-3.05	-2.7	-2.6188	-3.1562	-2.65	-2.7667	-3.0125	-2.4479	-130.146	12.740	134.720	200.861	139.786	-34.557	-148.346	87.979	-81.255	-54.970	42.921	-118.387	-130.940	-157.821	-84.129	150.503	0.00046089	0.00046341	2.1757e-05	1312.3	2.6433e-06	2.3854e-06	894.94	466.25	6.0421e-06	4.9531e-06	360.93	133.63	161.32	71.885	5.9592e-06	66.954	0.0029178	0.0047168	0.0013046	1221.9	4.7485e-05	5.2678e-05	836.63	435.98	4.7089e-05	5.1759e-05	340.39	126.79	154.35	67.958	5.5461e-05	63.716	-103.274	-33.836	-66.001	-146.203	-3.070	17.731	-147.441	-140.846	40.675	-25.511	-143.730	-138.726	-136.051	-132.017	16.079	-135.641	-8191	255	
19933.551	1	1	0	0	0.12833	0.20088	0.082018	0.28173	0.26256	0.11697	0.056312	0.33882	0.13028	0.050622	0.042181	0.087437	0.23763	0.29019	0.18492	0.19717	-2.2646	-2.5729	-2.2896	-3.1583	-2.4562	-2.5146	-3.1	-2.4521	-2.9	-3.0167	-2.3479	-3.0812	-2.7646	-2.4958	-3.0083	-2.4625	178.383	180.737	-31.688	154.364	148.079	160.611	-65.179	165.225	117.699	117.244	-37.899	195.328	173.202	120.133	-147.011	170.761	0.00053049	0.00084255	0.00016033	1315.2	1.8532e-06	3.3741e-06	896.99	465.23	8.7173e-06	7.8036e-06	361.22	133.05	162	72.093	1.5759e-05	67.103	0.0035096	0.0057913	0.0016542	1229.9	6.2366e-05	7.1162e-05	845.89	439.67	6.7777e-05	7.4723e-05	346.12	128.16	156.72	68.483	7.5464e-05	64.385	-108.358	-108.075	-77.767	-146.198	-111.039	59.482	-147.490	-140.723	-23.612	-32.013	-143.596	-139.453	-136.795	-132.643	-39.575	-135.764	-8191	255	
19933.646	1	1	0	0	0.077736	0.24219	0.18368	0.30649	0.27535	0.11112	0.22925	0.43449	0.057366	0.10183	0.1951	0.12142	0.10093	0.32675	0.16133	0.23945	-2.45	-2.9271	-2.1875	-3.1375	-2.5333	-2.4479	-3.2313	-2.4813	-2.6625	-2.8958	-2.2	-2.9875	-2.6479	-2.4542	-3.075	-2.5687	37.863	-102.047	11.788	-132.503	-21.029	-67.284	83.338	146.636	-59.809	-95.149	172.568	45.808	152.569	187.594	186.455	169.850	0.00051292	0.00077182	0.0002916	1321.3	7.7878e-06	1.4161e-05	897.82	467.33	1.1866e-05	7.1067e-06	361.2	134.4	161.35	71.655	8.0412e-06	66.669	0.0045442	0.0075654	0.0021386	1236.5	7.803e-05	8.9754e-05	853.2	443.54	8.381e-05	9.2422e-05	350.71	129.76	157.82	68.595	8.9427e-05	64.65	-111.297	-10.788	-124.354	-146.193	2.256	-55.023	-147.597	-140.667	-51.795	-34.051	-143.857	-138.896	-136.169	-132.375	-84.674	-135.600	-8191	255	
19933.742	1	1	0	0	0.1379	0.099753	0.15772	0.35909	0.072269	0.12214	0.21882	0.15375	0.20181	0.12183	0.020028	0.091628	0.11384	0.1105	0.12268	0.21775	-2.2958	-3.0958	-2.2646	-2.9917	-2.9333	-2.1937	-2.9729	-2.5458	-2.4188	-3.0458	-2.3896	-2.9917	-2.8438	-2.5542	-3.0062	-2.6208	179.213	194.940	-88.030	183.412	149.454	-52.679	158.153	-156.372	-60.023	144.179	68.925	169.692	-153.729	168.911	-79.539	160.789	0.00047493	0.0012642	0.00024136	1317.4	3.0333e-06	1.2918e-05	897.14	467.84	4.3822e-06	6.7249e-06	365.02	133.34	161.7	71.534	7.6386e-06	67.209	0.0052427	0.0086816	0.00243	1237.2	8.5945e-05	9.6044e-05	856	443.56	8.7252e-05	9.5995e-05	352.64	129.35	157.91	68.674	8.9969e-05	64.847	-107.370	-94.633	-72.252	-146.476	-77.073	4.756	-147.012	-140.711	-155.158	34.392	-143.373	-138.857	-136.061	-132.097	-23.606	-135.464	-8191	255	
19933.840	1	1	0	0	0.087554	0.04151	0.19373	0.26815	0.080441	0.22819	0.56577	0.32086	0.13785	0.15609	0.24783	0.13875	0.32303	0.15795	0.039942	0.055925	-1.95	-3.2771	-2.3688	-3.0042	-2.9792	-2.4292	-3.1479	-2.7646	-2.5854	-3.1042	-2.5167	-2.7438	-3.0125	-2.6417	-2.9625	-2.8292	-103.873	182.962	-140.627	138.890	125.105	-57.974	193.728	149.726	134.418	-95.207	-65.283	-128.323	185.119	145.950	160.834	186.930	0.00049098	0.00089645	0.00039793	1319.4	9.4198e-06	1.6873e-05	895.98	467.99	1.1003e-05	3.9506e-06	361.62	133.94	162.85	71.996	6.2678e-06	67.474	0.0052188	0.0087226	0.0024339	1240.8	8.6697e-05	9.8366e-05	855.75	443.29	9.0764e-05	9.9445e-05	351.62	130.2	158.77	69.176	9.4943e-05	65.322	-92.634	-48.257	-99.405	-146.167	-51.461	122.919	-147.435	-140.671	-43.099	5.711	-143.381	-138.976	-135.832	-132.003	8.256	-135.248	-8191	255	
19933.936	1	1	0	0	0.29527	0.15519	0.1419	0.39431	0.22379	0.029164	0.32541	0.16632	0.055507	0.12403	0.21995	0.025436	0.18317	0.23405	0.15963	0.17369	-1.9021	-3.0979	-2.4104	-2.8896	-3.0563	-2.3958	-3.1229	-2.8479	-2.5125	-3.0542	-2.6479	-2.5417	-3.0958	-2.5042	-2.8833	-2.9625	-91.289	81.865	179.957	171.475	27.561	-129.084	144.694	88.886	185.902	175.697	7.330	-48.716	120.838	156.271	186.046	173.286	0.00050495	0.00036593	0.00016373	1323.1	1.0083e-05	2.7623e-06	897.5	468.1	1.4603e-06	2.5867e-06	360.32	134.1	162.52	72.237	1.2057e-05	67.264	0.0055447	0.0091157	0.002561	1241.2	8.8245e-05	9.7717e-05	855.07	444.11	8.4299e-05	9.1387e-05	348.66	129.34	157.86	68.984	8.5159e-05	64.913	-100.421	-9.411	-71.353	-146.079	-26.789	12.556	-147.424	-140.621	-6.526	48.505	-143.607	-139.736	-136.356	-132.232	26.332	-135.688	-8191	255	
19934.031	1	1	0	0	0.12847	0.2617	0.27176	0.13009	0.43602	0.055144	0.26319	0.35133	0.12043	0.17306	0.24326	0.13974	0.26464	0.1773	0.067599	0.28446	-1.9625	-3.0646	-2.4896	-2.6917	-3.0021	-2.3896	-2.9104	-3.0583	-2.2271	-3.0812	-2.7271	-2.5833	-3.0812	-2.5521	-2.8354	-3.0875	69.070	73.103	-97.923	175.875	-98.785	-63.152	97.196	106.339	149.164	85.162	-154.375	158.405	-110.737	200.743	191.031	162.510	0.00059473	0.00057192	0.00017511	1322	2.9315e-06	3.6038e-06	891.21	468.1	4.5753e-06	4.9611e-06	359.11	133.55	162.08	71.648	4.3812e-06	67.219	0.0049421	0.0082149	0.0022677	1236.8	7.947e-05	8.9645e-05	850.3	442	8.033e-05	8.8697e-05	348.13	129.11	157.15	68.63	8.2449e-05	64.856	-110.593	-27.981	-75.075	-146.295	3.053	-34.356	-147.249	-140.697	43.825	-5.704	-143.634	-138.897	-136.325	-131.877	-16.330	-135.301	-8191	255	
19934.150	1	1	0	0	0.10811	0.107	0.27341	0.1341	0.12094	0.10497	0.15584	0.15423	0.059957	0.23199	0.085628	0.17373	0.21416	0.2115	0.10339	0.24018	-1.9479	-3.0104	-2.6521	-2.7167	-3.2062	-2.4354	-2.9667	-3.1083	-2.3458	-2.8646	-2.7979	-2.5604	-3.2208	-2.6312	-2.6417	-3.1667	-114.210	6.930	-43.410	-156.434	-109.963	-84.698	72.479	154.268	-14.698	-151.550	-39.385	-27.289	139.570	151.798	-49.041	110.957	0.00054586	0.00088453	0.00012601	1319.3	6.8784e-06	2.1819e-05	895.42	467.08	2.6664e-06	4.2857e-06	359.4	132.84	161.39	71.747	5.8606e-06	66.858	0.0047253	0.0078524	0.0022008	1235.9	7.6777e-05	8.6704e-05	850.99	441.48	7.7241e-05	8.4415e-05	348.12	129.05	156.26	68.245	7.7783e-05	64.397	-114.318	-72.973	-5.886	-146.314	38.738	20.382	-147.113	-140.598	-128.546	-31.781	-143.564	-139.107	-136.234	-131.900	-33.262	-135.059	-8191	255	
19934.246	1	1	0	0	0.24309	0.29139	0.12793	0.21481	0.21911	0.19537	0.23355	0.064026	0.17851	0.11652	0.17804	0.2502	0.20473	0.022375	0.30252	0.10458	-1.9667	-2.9375	-2.675	-2.4417	-3.0312	-2.6271	-2.8792	-3.2771	-2.4708	-2.7708	-2.7812	-2.5771	-3.025	-2.7188	-2.5333	-3.0917	28.863	176.879	121.748	142.289	172.259	87.215	112.875	-124.083	198.537	174.508	-135.793	134.345	184.398	89.891	-62.874	145.330	0.00056215	0.001268	0.00026045	1304.4	1.0392e-05	1.5142e-05	888.85	466.05	4.2307e-06	2.915e-06	359.21	133.95	162.63	71.785	1.08e-05	67.341	0.004368	0.0072745	0.0020416	1225.7	7.2058e-05	8.0763e-05	845.63	439.59	7.5535e-05	8.3935e-05	346.63	129.09	156.79	68.514	8.0674e-05	64.755	-99.210	-95.411	-53.412	-146.047	-42.846	4.917	-147.195	-140.636	-121.418	-84.475	-143.375	-138.834	-136.201	-132.097	-62.018	-135.660	-8191	255	
19934.342	1	1	0	0	0.15097	0.2584	0.057542	0.064452	0.16663	0.13198	0.24832	0.09598	0.061816	0.098346	0.039784	0.42842	0.1824	0.15134	0.12878	0.17128	-1.7125	-2.9604	-2.7292	-2.5604	-3.0417	-2.5625	-2.6583	-3.1167	-2.4833	-2.9042	-2.9437	-2.3396	-3.2583	-2.7104	-2.5083	-3.0375	80.102	5.419	15.733	-95.980	-25.321	167.986	170.580	-104.083	162.234	132.396	-70.459	180.491	42.943	176.244	-42.428	157.448	0.0004684	0.00073051	0.00036686	1318.1	1.7048e-06	1.0229e-05	889.7	467.96	9.478e-06	8.5234e-06	362.35	134.54	161.89	72.322	7.7927e-06	67.902	0.0046264	0.0076517	0.0021379	1233	7.6107e-05	8.6639e-05	847.82	442.81	7.8598e-05	8.6886e-05	348.96	129.69	157.75	69.071	8.4389e-05	65.489	-110.906	-115.943	-39.085	-146.378	-153.046	-2.539	-147.529	-141.044	70.351	79.076	-143.083	-139.060	-136.503	-132.192	-125.253	-135.765	-8191	255	
19934.414	1	1	0	0	0.16726	0.18787	0.009353	0.12655	0.27843	0.28437	0.13078	0.23847	0.032831	0.23924	0.07809	0.13959	0.13252	0.18324	0.30497	0.28258	-2.2104	-2.8438	-2.9729	-2.5375	-2.9792	-2.5687	-2.4688	-3.1813	-2.4062	-2.5646	-3.0521	-2.5021	-3.0833	-2.9938	-2.3958	-3.2812	-66.975	-89.508	135.001	10.768	117.170	32.064	127.063	115.275	150.727	-107.588	194.957	-135.623	-46.076	137.033	145.045	195.129	0.0004243	0.00050534	0.00013522	1322.9	1.9668e-06	3.4653e-06	900.8	471.96	2.1999e-06	5.6257e-06	363.24	135.06	164.17	72.695	6.8233e-06	68.577	0.0050127	0.0085338	0.0024075	1242.4	8.6668e-05	9.7026e-05	856.86	445.93	8.5347e-05	9.4314e-05	351.61	130.79	159.06	69.631	8.4462e-05	65.992	-104.790	-114.785	-23.219	-146.114	-113.613	-154.091	-147.288	-140.582	-26.365	-13.607	-143.136	-138.660	-136.093	-132.052	-12.017	-135.353	-8191	255	
19934.533	1	1	0	0	0.32539	0.17026	0.12204	0.15864	0.094722	0.12609	0.17357	0.4081	0.25121	0.24974	0.31521	0.065493	0.26824	0.10996	0.057979	0.18772	-2.2729	-2.5687	-3.0438	-2.4625	-2.9958	-2.9542	-2.3021	-3.2208	-2.6625	-2.6271	-3.2083	-2.6229	-2.7729	-3.0396	-2.525	-3.2333	149.780	-82.583	-128.185	130.113	48.183	-143.213	134.931	152.469	139.769	-28.063	180.947	97.183	-135.645	-79.792	-71.419	-158.433	0.00058711	0.000859	0.00037241	1318.4	1.4704e-06	9.8367e-06	898.77	470.32	1.4474e-05	1.7692e-06	363.94	135.68	163.78	73.288	2.4613e-06	68.764	0.0049437	0.0080913	0.0022448	1236.4	8.1857e-05	9.2617e-05	855.88	445.42	8.4021e-05	9.2465e-05	352.98	131.37	159.66	69.971	8.9233e-05	66.52	-105.810	-128.563	-52.801	-145.936	9.452	-49.775	-147.194	-140.487	-88.755	26.686	-143.370	-138.684	-136.117	-131.484	-45.323	-135.385	-8191	255	
19934.631	1	1	0	0	0.12512	0.11263	0.38375	0.32822	0.18511	0.18791	0.12211	0.31245	0.048636	0.051252	0.18261	0.20339	0.30702	0.27235	0.1011	0.18457	-2.0875	-2.475	-3.0187	-2.4646	-2.85	-3.0604	-2.5125	-3.1042	-2.7583	-2.475	-3.0687	-2.4771	-2.8354	-3.15	-2.2958	-3.0896	183.986	-150.887	-148.874	169.806	-55.911	146.009	180.901	176.625	49.060	110.323	60.812	89.190	-70.860	-158.281	198.763	90.339	0.00054836	0.001503	0.00036234	1321.9	1.4184e-05	1.0644e-05	905.8	471.08	8.1811e-06	9.4152e-06	364.95	135.47	163.29	73.07	9.1571e-06	68.491	0.0053165	0.0088064	0.0024412	1244	8.9742e-05	0.00010179	862.3	447.06	9.2763e-05	0.00010311	353.51	131.93	160.16	70.244	9.5861e-05	66.573	-101.354	-16.903	-50.626	-145.853	7.163	-138.045	-147.003	-140.399	-74.356	-41.262	-143.337	-138.788	-136.219	-132.345	71.500	-136.143	-8191	255	
19934.727	1	1	0	0	0.10191	0.078187	0.13116	0.3191	0.32422	0.091906	0.16963	0.11213	0.054078	0.26191	0.14493	0.42328	0.16964	0.11235	0.21227	0.1837	-2.3125	-2.3104	-3.1917	-2.6063	-2.5979	-2.9625	-2.4958	-2.9188	-2.9208	-2.2938	-3.1292	-2.6312	-2.6375	-3.1042	-2.4	-3.0062	92.056	155.208	-140.342	190.030	-23.616	-8.747	145.340	146.898	192.479	-28.026	86.880	121.899	-150.567	61.185	177.640	157.900	0.00044457	0.00066168	0.0001982	1322.3	5.1754e-06	7.2049e-06	893.63	468.29	9.2839e-06	4.5915e-06	365.36	134.96	163.97	73.229	1.0621e-05	69.04	0.0055399	0.0090058	0.0025043	1243.4	8.9906e-05	0.00010066	856.66	445.92	9.1891e-05	0.00010245	354.19	131.66	160.42	70.476	9.9369e-05	66.871	-111.100	-69.621	-41.863	-146.434	-66.927	119.827	-147.499	-140.955	0.280	-69.757	-143.745	-139.010	-136.663	-132.394	3.160	-135.826	-8191	255	
19934.822	1	1	0	0	0.2058	0.30055	0.23288	0.21888	0.19534	0.25637	0.087178	0.20257	0.16763	0.30347	0.03741	0.21028	0.25191	0.2476	0.15454	0.19195	-2.4458	-2.2042	-3	-2.7167	-2.4604	-2.9729	-2.2958	-2.8604	-2.8792	-2.3146	-3.0146	-2.5687	-2.5167	-3.2917	-2.4271	-2.7792	116.245	158.359	107.774	161.202	-57.715	105.206	-44.977	91.522	13.821	182.299	73.671	182.720	190.601	-131.007	93.900	-137.949	0.00048116	0.00085168	0.00033701	1325.9	5.1959e-06	1.0363e-05	897.07	470.35	5.3247e-06	6.8853e-06	363.12	135	164.37	73.709	1.0747e-05	68.958	0.0058095	0.0095226	0.0027218	1249.9	9.5017e-05	0.0001051	861.42	448.01	9.5142e-05	0.00010412	354.14	132.18	161.09	70.691	9.9489e-05	67.096	-103.427	-99.642	-127.376	-146.377	20.745	95.215	-147.695	-141.049	-1.915	-5.982	-143.508	-138.823	-136.658	-132.131	17.849	-135.558	-8191	255	
19934.920	1	1	0	0	0.25366	0.23538	0.21105	0.26992	0.16287	0.22945	0.21644	0.21727	0.15555	0.34532	0.11248	0.23289	0.08467	0.23794	0.15883	0.24639	-2.6333	-2.3271	-2.9458	-2.7375	-2.3146	-3.125	-2.6042	-2.8583	-2.9917	-2.2542	-3.0375	-2.95	-2.4771	-3.075	-2.4792	-2.7167	-29.701	170.686	-17.538	184.190	12.095	-96.823	79.269	78.137	-158.341	98.300	-29.881	201.173	20.126	186.820	-128.583	112.941	0.00051774	0.00067475	0.00029947	1330	6.1521e-06	3.9576e-06	904.24	471.82	6.2371e-06	1.7538e-05	365.39	136.1	165.12	73.968	3.612e-06	68.673	0.0058088	0.0097534	0.002694	1254.1	9.6364e-05	0.0001087	868.13	449.62	9.9805e-05	0.00011093	357.8	133.46	162.36	71.167	0.00010699	67.517	-104.485	-106.354	45.625	-145.794	-71.323	41.438	-146.609	-140.506	120.282	-0.595	-143.250	-138.612	-136.303	-131.667	-52.086	-135.390	-8191	255	
19935.016	1	1	0	0	0.25287	0.15232	0.18508	0.20608	0.19125	0.094498	0.32211	0.23474	0.17588	0.16909	0.14791	0.16828	0.22074	0.30686	0.094497	0.27868	-2.4958	-2.2771	-2.7854	-2.8917	-2.5375	-2.8812	-2.4042	-2.6896	-3.1354	-2.3667	-2.9125	-2.9417	-2.3167	-3.3	-2.5042	-2.7396	-144.210	132.543	193.545	-141.651	-76.414	-107.038	88.789	73.320	106.887	-140.630	120.925	-157.460	182.394	192.007	-95.467	155.712	0.00047844	0.0018866	0.00026505	1330.6	2.9317e-06	1.0651e-05	902.84	471.98	1.0852e-05	1.6624e-05	364.92	135.97	164.63	73.736	1.5099e-05	69.451	0.0061474	0.010217	0.0028712	1257.8	0.00010044	0.00011122	867.07	449.36	0.00010117	0.00011189	355.82	133.06	161.93	71.146	0.00011018	67.521	-103.643	-121.863	-41.326	-145.868	21.646	9.427	-147.079	-140.628	7.872	74.052	-143.047	-138.688	-135.996	-132.233	-19.444	-135.525	-8191	255	
19935.111	1	1	0	0	0.05952	0.1549	0.16579	0.18787	0.13498	0.21394	0.22968	0.2127	0.18762	0.17256	0.37971	0.37197	0.11206	0.24292	0.12894	0.2356	-2.6792	-2.4021	-2.7854	-3.0958	-2.3625	-2.9562	-2.6292	-2.7417	-2.9271	-2.425	-2.8688	-2.9708	-2.3167	-3.1271	-2.6729	-2.4042	-5.507	197.872	160.937	-149.474	-61.616	63.657	171.866	-105.562	-49.197	-136.059	174.624	100.863	-93.199	-113.439	-93.488	166.640	0.00041102	0.0011123	0.00039781	1335.6	1.079e-05	7.7374e-06	902.78	469.39	9.2645e-06	1.1402e-05	362.92	136.72	165.94	74.352	5.6795e-06	69.408	0.0062785	0.010539	0.0029856	1260.6	0.00010422	0.00011581	866.57	449.76	0.00010379	0.00011637	357.05	133.67	162.96	71.416	0.00010753	67.566	-111.405	52.035	-73.348	-145.468	-3.873	-56.722	-146.778	-140.967	-34.048	69.471	-143.314	-138.349	-136.135	-132.038	-7.417	-135.551	-8191	255	
19935.230	1	1	0	0	0.13052	0.097277	0.16337	0.10086	0.10457	0.049994	0.13409	0.35395	0.23511	0.11176	0.1387	0.10318	0.20966	0.17668	0.10874	0.4297	-2.5771	-2.2687	-2.6333	-2.9479	-2.1458	-2.9292	-2.8187	-2.5812	-3.0583	-2.3812	-2.6917	-3.05	-2.3187	-3.0062	-2.9646	-2.2438	-96.296	-140.067	-105.966	-146.319	-157.986	101.510	104.658	176.262	171.463	114.346	-144.338	114.241	170.851	175.897	9.788	159.563	0.00048275	0.00050918	0.00020265	1331.7	8.3937e-06	3.9312e-06	899.86	473.96	4.9947e-06	1.7579e-05	362.48	137.32	164.77	74.132	1.0028e-05	69.115	0.0060876	0.010211	0.0028425	1255.2	0.00010048	0.000113	865.39	451.08	0.00010305	0.00011649	357.58	134.32	162.38	71.507	0.00010942	67.706	-101.191	139.000	138.543	-145.781	-112.369	81.726	-147.274	-140.542	-112.975	15.731	-143.301	-138.393	-135.783	-131.709	-113.109	-136.085	-8191	255	
19935.326	1	1	0	0	0.21926	0.21859	0.15457	0.13354	0.013532	0.065894	0.24385	0.14238	0.33383	0.075631	0.1173	0.1525	0.24762	0.16869	0.26751	0.056533	-2.6792	-2.3396	-2.4313	-3.0729	-2.2438	-2.6646	-2.8771	-2.4979	-2.9521	-2.6375	-2.5604	-3.1	-2.3896	-2.9229	-2.7646	-2.5312	-88.668	-95.453	-138.458	148.451	34.329	83.702	-35.754	166.853	98.645	-25.762	156.016	-22.824	92.286	107.555	-62.584	196.613	0.00057708	0.0009339	6.9113e-05	1327.2	5.4849e-06	8.5372e-06	903.02	471.73	7.0244e-06	1.9315e-05	363.65	136.46	165.2	73.924	7.7222e-06	69.346	0.0060556	0.010152	0.0028159	1253.4	9.6336e-05	0.00010871	862.1	449.01	9.6325e-05	0.00010614	355.8	133.05	161.58	71.002	9.8622e-05	67.354	-108.642	-10.850	8.506	-147.223	180.049	31.170	-148.073	-142.015	0.138	-10.522	-143.963	-139.235	-136.527	-132.736	-72.987	-135.946	-8191	255	
19935.424	1	1	0	0	0.09645	0.2186	0.15958	0.10663	0.24002	0.11173	0.37752	0.39709	0.21495	0.12097	0.20339	0.24649	0.12184	0.17801	0.11529	0.12258	-2.6146	-2.4979	-2.5979	-3.0021	-2.4771	-2.6667	-2.8917	-2.3104	-2.9208	-2.6125	-2.4938	-3.0625	-2.4125	-2.7188	-2.9583	-2.3771	-124.035	-89.200	168.342	-153.312	-126.391	-17.773	186.902	170.706	0.924	94.549	-130.038	193.163	120.344	-9.139	37.087	100.276	0.00052436	0.00093542	0.00037147	1322.6	6.6912e-06	1.1836e-05	901.1	471.1	5.5605e-06	1.4711e-05	359.7	136.76	164.49	73.357	2.9769e-06	68.884	0.0055488	0.0092468	0.0025562	1247.1	8.9005e-05	0.00010046	859.3	445.9	8.8557e-05	9.5905e-05	350.62	131.82	160.27	70.341	8.8837e-05	66.437	-107.680	-117.661	-126.885	-146.086	-58.437	67.390	-146.817	-140.533	-15.803	-47.811	-142.969	-138.504	-135.848	-131.931	64.518	-135.375	-8191	255	
19935.520	1	1	0	0	0.17853	0.12012	0.2154	0.049258	0.22468	0.10297	0.12372	0.52218	0.13884	0.074346	0.097338	0.3227	0.084165	0.24449	0.067315	0.074965	-2.675	-2.5438	-2.4417	-3.1708	-2.5333	-2.525	-2.9938	-2.3396	-2.9729	-2.6417	-2.2625	-3.1521	-2.6125	-2.8104	-3.0938	-2.3771	123.070	45.367	83.649	-156.799	39.438	187.501	55.189	145.860	127.943	-44.261	-57.167	-153.025	-33.623	-128.253	133.912	-133.009	0.00040565	0.00051358	0.00017381	1325.1	5.4315e-06	4.9179e-06	894.58	470.03	7.0159e-06	1.0314e-05	358.69	134.91	163.9	73.52	2.8746e-06	68.21	0.0050628	0.0085017	0.0023243	1242.2	8.1794e-05	9.0321e-05	850.72	444.28	7.9326e-05	8.5878e-05	346.68	130.37	158.81	69.954	7.9068e-05	65.823	-98.887	-102.061	-107.708	-146.250	-4.617	94.264	-147.118	-140.949	-47.219	19.295	-143.370	-138.461	-136.276	-132.374	-38.023	-135.276	-8191	255	
19935.639	1	1	0	0	0.33959	0.091821	0.13361	0.15543	0.093588	0.25137	0.19144	0.18302	0.28312	0.16852	0.030567	0.11705	0.14653	0.20301	0.28954	0.27692	-2.4188	-2.8208	-2.2812	-3.2396	-2.4437	-2.4833	-3.0708	-2.5521	-2.5979	-2.9021	-2.4479	-3.0521	-2.5146	-2.5854	-3.0563	-2.3479	155.345	91.297	-94.223	182.514	45.790	-12.059	140.354	159.887	-150.376	-132.187	24.202	29.091	-115.465	183.032	-22.129	124.563	0.00052282	0.00024431	0.00014024	1323	1.2614e-05	1.7396e-05	895.6	468.6	1.6743e-06	1.1314e-05	361.85	136.06	166.23	73.961	5.9776e-06	68.723	0.0046027	0.0076888	0.0021425	1240	7.7535e-05	8.7672e-05	850.49	444.16	8.1091e-05	8.9838e-05	349.29	131.03	160.42	70.637	8.4303e-05	66.497	-97.511	-90.555	-79.467	-146.118	44.840	-26.430	-147.053	-140.622	-122.170	-21.566	-143.250	-138.468	-136.466	-132.345	-40.116	-135.639	-8191	255	
19935.711	1	1	0	0	0.02901	0.22105	0.08717	0.11025	0.084443	0.17376	0.11485	0.27879	0.026503	0.095955	0.21548	0.33647	0.18733	0.25895	0.096814	0.10462	-2.2771	-2.7062	-2.1188	-2.9917	-2.5833	-2.3125	-3.1125	-2.4979	-2.7146	-2.7292	-2.2646	-2.8458	-2.8667	-2.4667	-3.0458	-2.4938	51.928	15.702	193.341	186.238	158.664	-8.000	94.783	123.880	184.991	68.347	50.248	169.836	-128.497	156.480	52.173	50.349	0.00045457	0.00027843	0.00017073	1323.6	9.2579e-06	1.1705e-05	898.99	471.32	3.8807e-06	1.0945e-05	364.71	136.11	165.5	74.388	9.1957e-06	69.578	0.0049606	0.0081841	0.0022799	1242.9	8.2337e-05	9.366e-05	854.62	447.49	8.5449e-05	9.489e-05	351.72	131.95	161.03	71.119	8.8962e-05	67.038	-110.715	47.310	-89.572	-146.078	26.626	-57.176	-147.064	-140.682	60.718	-4.274	-143.304	-138.426	-135.718	-132.155	55.287	-135.434	-8191	255	
19935.832	1	1	0	0	0.17476	0.094884	0.066515	0.27613	0.13282	0.16483	0.0069938	0.29709	0.23536	0.19869	0.28303	0.19409	0.15524	0.36221	0.13954	0.17102	-2.2271	-2.9688	-2.1937	-3.0667	-2.9271	-2.4813	-3.3542	-2.5812	-2.7062	-3.1312	-2.375	-2.8646	-2.8354	-2.5104	-3.0187	-2.6271	-126.979	199.083	141.944	-125.382	31.250	10.167	-70.447	161.457	32.322	58.328	-148.352	65.394	-138.855	184.053	-133.133	-105.045	0.00053522	0.00033937	0.00042244	1329.9	2.5377e-06	7.1339e-06	900.31	469.98	4.6336e-06	8.8601e-06	363.13	136.34	165.3	74.763	1.8346e-05	69.363	0.0052212	0.0085988	0.0023851	1247.9	8.6919e-05	9.7581e-05	857.67	447.25	9.0237e-05	0.00010075	352.42	132.28	161.73	71.626	9.7501e-05	67.416	-110.912	38.535	-94.611	-146.071	-53.405	47.464	-146.878	-140.706	200.555	56.499	-143.057	-139.025	-136.314	-132.052	-31.927	-135.636	-8191	255	
19935.928	1	1	0	0	0.13518	0.087732	0.19078	0.19554	0.058839	0.15238	0.27404	0.28418	0.30915	0.17977	0.27143	0.28605	0.097816	0.28109	0.21293	0.12196	-2.0625	-3.0438	-2.3458	-2.7792	-2.9938	-2.3667	-3.1021	-2.6896	-2.4396	-3.025	-2.3417	-2.6792	-2.9042	-2.2771	-2.9396	-2.8125	200.430	172.807	136.997	116.727	-148.797	134.407	130.374	127.379	187.902	194.789	-148.448	197.673	135.947	92.082	-115.875	146.001	0.00060911	0.00090818	0.00034174	1329.5	4.5515e-06	8.9909e-06	892.73	471.06	7.0342e-06	1.4723e-05	360.64	134.98	163.96	74.411	1.9684e-06	68.875	0.0055858	0.0091643	0.0025108	1247.6	8.5819e-05	9.6554e-05	851.1	445.72	8.6332e-05	9.5299e-05	348.93	130.81	160.43	70.983	9.2563e-05	66.873	-100.479	25.651	-72.837	-146.358	-79.616	-118.264	-147.080	-140.533	-58.787	43.139	-143.008	-138.608	-135.999	-132.015	23.646	-135.580	-8191	255	
19936.023	1	1	0	0	0.13887	0.17213	0.20645	0.32283	0.21915	0.22892	0.1924	0.37442	0.086034	0.30897	0.095951	0.29864	0.035397	0.10471	0.35975	0.27375	-1.9542	-3.05	-2.2604	-2.7354	-2.8833	-2.3646	-3.1104	-2.8479	-2.425	-3.1521	-2.4521	-2.6813	-2.9667	-2.4229	-2.9125	-2.9667	-50.529	8.162	111.118	186.155	-81.831	-139.054	183.109	162.284	32.143	183.264	143.429	138.521	36.618	-144.580	-88.664	96.749	0.00053647	0.0011554	0.00033397	1329.6	1.1316e-05	1.3151e-05	887.08	469.81	6.0323e-06	1.5712e-05	357.6	135.14	163.56	73.601	8.512e-06	68.631	0.00525	0.0086228	0.0023979	1245.4	8.2932e-05	9.2033e-05	845.92	444.85	8.0498e-05	8.8129e-05	346.06	130.26	158.59	70.304	8.2136e-05	66.036	-107.997	-52.788	-104.192	-146.086	-19.156	-29.478	-147.246	-140.537	20.169	-129.975	-143.291	-138.677	-135.830	-132.271	26.667	-135.219	-8191	255	
19936.117	1	1	0	0	0.41321	0.040552	0.19699	0.28016	0.20117	0.1524	0.25894	0.12117	0.18166	0.12116	0.074806	0.11186	0.24977	0.27219	0.062339	0.2823	-1.9042	-3.15	-2.5542	-2.9042	-2.8646	-2.5167	-2.7625	-3.0687	-2.375	-3.1208	-2.8292	-2.5479	-3.0396	-2.7062	-2.7354	-2.8708	-81.824	130.282	30.934	154.991	-51.169	44.223	121.447	179.001	58.843	169.662	-59.730	-155.305	-133.208	119.065	177.092	55.020	0.00057066	0.00050064	0.00035953	1320.6	6.8128e-06	9.9845e-06	893.01	468.53	1.0652e-05	8.6286e-06	354.92	134.99	164.75	73.597	6.9815e-06	68.777	0.0047868	0.0078978	0.0022158	1239.7	7.9016e-05	9.1052e-05	845.95	444.9	8.2843e-05	9.2493e-05	346.83	130.75	160.06	70.58	8.7399e-05	66.55	-115.920	-69.712	-48.586	-146.176	-13.340	42.312	-147.403	-140.741	11.836	-16.750	-143.205	-138.880	-136.016	-132.077	-13.492	-135.177	-8191	255	
19936.215	1	1	0	0	0.27231	0.23629	0.10606	0.45833	0.13064	0.2373	0.1024	0.23308	0.19894	0.19296	0.013625	0.004309	0.19166	0.30319	0.14721	0.1378	-1.8958	-2.9646	-2.4771	-2.5687	-2.9979	-2.3979	-2.7292	-3.0312	-2.0896	-3.0021	-2.8146	-2.5146	-3.2188	-2.6917	-2.6979	-2.975	195.156	49.470	134.009	170.678	126.642	13.023	52.673	64.105	-135.996	78.776	-150.807	95.278	-116.114	167.152	52.138	-138.556	0.00050138	0.0010183	0.00012432	1320.8	1.1542e-05	1.9298e-05	889.5	469.11	8.268e-06	1.7491e-05	360.44	136.47	163.57	74.054	4.1256e-06	68.747	0.0050119	0.008253	0.0023245	1241.4	8.2663e-05	9.2482e-05	848.79	444.55	8.4934e-05	9.4514e-05	347.98	131.41	160.28	70.838	9.472e-05	66.733	-103.013	-52.693	-71.993	-146.089	-43.184	-42.145	-146.869	-140.490	-23.575	-64.920	-143.341	-138.775	-136.203	-132.131	-4.127	-135.313	-8191	255	
19936.311	1	1	0	0	0.16135	0.14352	0.2522	0.25616	0.21081	0.26948	0.038964	0.067454	0.16135	0.26506	0.1439	0.21695	0.31884	0.35945	0.15855	0.11453	-1.8667	-3.0125	-2.6333	-2.4646	-2.9208	-2.5792	-2.6708	-3.2313	-2.3812	-2.9583	-2.8708	-2.5687	-3.1542	-2.5625	-2.5479	-3.0938	143.671	-114.977	136.186	131.099	138.737	140.955	-63.766	157.615	-97.030	-9.641	15.227	-157.032	151.497	-113.983	-155.366	40.737	0.00052192	0.00086292	0.00019677	1324.8	9.9398e-06	1.2777e-05	887.59	471.06	6.1207e-06	1.1615e-05	359.39	134.68	164.46	73.689	9.801e-06	68.867	0.0053015	0.0088912	0.0024885	1246.9	8.5739e-05	9.6296e-05	846.08	445.85	8.5262e-05	9.4052e-05	346.44	130.56	159.81	70.522	8.6836e-05	66.156	-101.097	-46.201	-121.079	-146.089	-21.078	-81.451	-146.895	-140.456	92.068	-7.836	-143.230	-138.748	-135.821	-132.280	14.720	-135.382	-8191	255	
19936.406	1	1	0	0	0.108	0.11197	0.1873	0.33057	0.14626	0.053959	0.34845	0.12843	0.053524	0.12954	0.23273	0.16667	0.11721	0.19564	0.16027	0.054127	-1.875	-2.8	-2.8667	-2.6188	-2.9854	-2.6854	-2.6688	-3.0646	-2.3646	-2.7313	-3.1042	-2.3354	-3.075	-2.6437	-2.275	-3.1312	7.501	-128.684	154.978	201.303	-17.186	194.320	129.752	127.745	-138.226	125.028	-158.125	172.248	-138.129	177.972	35.147	-141.435	0.00045764	0.00060737	0.0002105	1323.2	1.3192e-05	1.2995e-05	888.3	469.22	7.5644e-06	1.553e-05	353.42	133.91	163.14	73.446	6.059e-06	69.058	0.0050254	0.0084188	0.0023447	1242.6	8.2737e-05	9.4056e-05	843.94	443.75	8.4311e-05	9.3118e-05	344.05	129.52	158.91	70.18	8.4813e-05	66.183	-109.907	19.638	-39.167	-146.220	33.052	19.003	-146.842	-140.305	-41.435	-25.075	-142.952	-138.711	-136.094	-131.939	-148.079	-135.299	-8191	255	
19936.504	1	1	0	0	0.016671	0.1622	0.24521	0.36672	0.34114	0.12562	0.11894	0.17331	0.22806	0.1922	0.1985	0.14973	0.28812	0.30614	0.19428	0.068044	-1.8292	-2.6021	-2.9875	-2.4375	-2.9354	-2.7979	-2.5292	-3.2208	-2.3875	-2.4521	-3.0167	-2.5458	-2.9542	-2.7938	-2.4083	-3.1479	140.366	-78.041	60.140	133.108	-6.796	-98.340	143.937	-147.057	-0.611	-15.104	-46.162	79.310	-150.131	153.456	36.395	84.535	0.00049758	0.00071979	0.0002486	1321.3	2.1924e-06	8.4618e-06	880.18	467.48	9.7872e-06	1.8133e-05	356.53	133.78	163.55	73.366	7.4896e-06	68.855	0.0048392	0.0079011	0.0022044	1236.6	7.7808e-05	8.8715e-05	840.74	442.38	7.9938e-05	8.9291e-05	344.54	129.56	158.98	70.374	8.5446e-05	66.389	-108.866	-48.785	-129.467	-146.224	75.499	53.312	-146.991	-140.550	-34.040	-35.329	-143.280	-138.243	-135.868	-131.926	55.052	-135.167	-8191	255	
19936.600	1	1	0	0	0.24648	0.077003	0.11707	0.224	0.016836	0.19416	0.18582	0.1381	0.23142	0.32396	0.31123	0.2295	0.084714	0.34327	0.24255	0.15133	-2.2083	-2.5042	-2.9771	-2.4688	-2.9458	-2.8292	-2.2687	-3.1521	-2.5771	-2.6271	-3.2896	-2.4542	-2.8854	-3.1021	-2.4542	-3.0729	-97.623	139.430	109.020	150.214	-103.702	111.742	96.080	130.764	-15.032	88.655	-142.767	-158.380	-61.741	181.587	-104.905	-23.226	0.00050244	0.0008906	0.00035501	1327.3	2.0311e-06	1.0282e-05	891.64	467.6	7.6759e-06	4.796e-06	358.95	133.91	164.69	74.093	8.1604e-06	69.113	0.0050249	0.00822	0.0023131	1242.2	8.2293e-05	9.4456e-05	847.6	443.47	8.5784e-05	9.6815e-05	348.52	130.44	161.17	71.174	9.848e-05	67.088	-99.079	-66.460	-122.169	-145.911	1.048	14.176	-146.813	-140.519	-25.081	-1.137	-143.126	-138.496	-135.976	-131.801	-57.726	-135.279	-8191	255	
19936.721	1	1	0	0	0.32121	0.12909	0.12323	0.29517	0.19459	0.20045	0.21626	0.077482	0.39371	0.11527	0.15681	0.18777	0.19532	0.11438	0.11975	0.13208	-2.1792	-2.4667	-3.0958	-2.3729	-2.6021	-2.7875	-2.35	-2.9688	-2.5938	-2.4875	-3.1292	-2.5771	-2.8063	-2.9917	-2.2917	-3.1208	-145.756	-142.909	124.485	148.860	148.474	-47.850	185.546	45.927	141.418	142.936	64.422	-125.239	-23.529	-84.227	-12.752	-118.949	0.00047092	0.0011354	0.00039026	1331.2	4.1375e-06	7.1976e-06	898.76	469.31	1.0485e-05	1.3476e-05	359.79	135.05	165.16	74.914	7.8307e-06	69.125	0.0057968	0.0097586	0.0027383	1256.1	9.7266e-05	0.00011022	855.67	447.76	9.9641e-05	0.00010998	351.59	131.72	162.03	71.827	0.00010555	67.218	-88.508	-75.988	-117.580	-145.816	69.388	27.034	-146.949	-140.623	-46.871	-21.658	-143.020	-138.269	-135.821	-131.858	14.143	-135.439	-8191	255	
19936.816	1	1	0	0	0.063805	0.13411	0.10391	0.21348	0.062394	0.18221	0.36149	0.22335	0.34761	0.14408	0.20133	0.17029	0.21599	0.12889	0.16656	0.20655	-2.25	-2.3688	-3.1437	-2.4562	-2.6292	-3.2167	-2.3167	-2.95	-2.8354	-2.3854	-3.0812	-2.5812	-2.5583	-3.2667	-2.2313	-2.9833	43.082	141.084	-154.244	189.571	1.132	-158.353	194.034	137.881	18.725	-65.687	113.352	-62.397	119.686	175.246	149.192	-71.776	0.00046207	0.00025261	0.00021566	1332.5	3.7453e-06	1.6223e-05	884.9	470.72	9.3367e-06	1.9259e-05	358.34	134.4	164.04	74.48	5.4367e-06	69.009	0.0062073	0.010265	0.0028218	1256.9	0.00010093	0.00011293	853.01	447.85	0.00010245	0.00011069	350.22	131.44	161.15	71.564	0.00010465	67.34	-100.398	-104.109	-129.098	-146.012	41.983	3.295	-146.700	-140.613	28.369	-29.385	-142.901	-138.610	-135.993	-131.871	-48.967	-135.379	-8191	255	
19936.912	1	1	0	0	0.20482	0.17904	0.20148	0.068048	0.050335	0.036427	0.17682	0.2274	0.16517	0.165	0.27974	0.057094	0.1419	0.21662	0.14402	0.12668	-2.3417	-2.275	-3.0458	-2.6562	-2.575	-2.925	-2.4458	-3.0333	-2.9375	-2.4271	-3.0521	-2.8	-2.5667	-3.1125	-2.1125	-2.7083	-30.540	4.358	177.540	125.472	-37.532	3.132	120.171	130.963	-3.847	36.714	-151.526	100.510	164.407	201.438	-84.400	-57.242	0.00053101	0.0007739	0.00030039	1333.7	1.2715e-05	1.3001e-05	892.65	470.62	7.9239e-06	7.7256e-06	360.28	134.93	165.11	74.086	1.1847e-06	68.992	0.0061063	0.010197	0.0028806	1257.3	0.00010263	0.00011455	857.1	448.64	0.00010302	0.00011397	352.39	132.06	162.3	71.412	0.00010785	67.256	-102.205	-97.844	-62.686	-146.045	0.581	-48.252	-147.009	-140.544	45.233	-8.317	-142.911	-138.459	-135.658	-131.760	-27.432	-135.198	-8191	255	
19937.008	1	1	0	0	0.031578	0.26637	0.0079788	0.31933	0.037736	0.044725	0.18644	0.12743	0.23853	0.10228	0.19204	0.41704	0.025566	0.032153	0.070969	0.14981	-2.3479	-2.325	-2.8104	-2.8167	-2.4271	-2.9688	-2.5271	-2.9417	-3.0208	-2.1688	-2.975	-2.7396	-2.6	-3.2125	-2.4333	-2.7625	135.935	-83.544	-147.331	159.502	-48.459	59.980	180.193	-123.360	140.355	-25.119	14.831	148.737	-114.590	-129.523	-63.597	165.255	0.00048876	0.0007046	0.00030772	1332	5.4691e-06	6.4554e-06	894.38	475.85	9.8493e-06	1.0029e-05	362.81	135.1	165.66	74.119	1.0873e-05	68.823	0.0061806	0.010417	0.002923	1259.8	0.00010638	0.0001196	862.56	451.35	0.00011009	0.00012335	355.52	132.81	163.24	71.575	0.00011801	67.491	-112.483	66.663	-74.912	-145.851	-3.196	183.697	-146.747	-140.436	-139.336	-13.613	-143.085	-138.585	-135.810	-131.693	64.139	-135.274	-8191	255	
19937.104	1	1	0	0	0.13917	0.28483	0.08905	0.31479	0.12678	0.048418	0.10805	0.051312	0.18998	0.29732	0.18026	0.22387	0.21919	0.061367	0.13081	0.46297	-2.5667	-2.2188	-2.7375	-2.8854	-2.3125	-3.0146	-2.625	-2.8042	-3.05	-2.4375	-2.9042	-3.0542	-2.5375	-3.1729	-2.5708	-2.6813	-155.612	-69.639	-121.877	184.488	-46.962	-116.799	106.905	185.829	107.826	137.101	-152.827	144.480	147.944	-95.501	0.027	166.504	0.00052034	0.00083285	0.00029871	1334	6.6999e-06	1.7533e-05	892.07	468.94	9.614e-06	1.3746e-05	358.2	134.24	164.59	73.849	5.0306e-06	68.31	0.0066671	0.011208	0.003101	1263	0.00010854	0.00012147	863.03	449.05	0.00010914	0.00012222	352.81	131.92	162.32	71.15	0.0001157	66.908	-108.899	-91.832	-92.354	-146.273	21.527	74.960	-147.405	-141.001	-23.347	-76.981	-143.404	-138.845	-136.126	-131.583	108.209	-135.854	-8191	255	
19937.199	1	1	0	0	0.084269	0.18801	0.20186	0.18359	0.20437	0.2202	0.081027	0.33059	0.12422	0.05931	0.088186	0.31573	0.32611	0.20057	0.047553	0.20222	-2.4813	-2.3417	-2.8583	-2.9604	-2.175	-3.1271	-2.6854	-2.5438	-3.0854	-2.5583	-2.8667	-3.1208	-2.3917	-3.0979	-2.7188	-2.4792	-142.255	18.043	-1.898	-150.707	-135.928	-63.942	20.256	131.975	-65.219	-57.550	-103.592	168.789	-105.634	110.993	-45.287	177.981	0.00051482	0.00047999	0.00025212	1332.1	6.6095e-06	1.241e-05	893.66	470.81	1.1599e-05	9.75e-06	356.74	133.93	163.51	73.348	9.6158e-06	67.966	0.0065307	0.010689	0.0029968	1259.7	0.00010202	0.00011392	856.91	446.94	9.9374e-05	0.00011123	349.78	130.25	160.41	70.418	0.00010186	66.108	-97.823	14.161	-53.795	-146.011	-21.397	123.232	-146.957	-140.638	56.672	-18.904	-143.591	-138.339	-136.013	-131.991	-99.217	-135.224	-8191	255	
19937.318	1	1	0	0	0.25226	0.014024	0.21657	0.18249	0.11736	0.20588	0.081213	0.08195	0.22773	0.24026	0.34404	0.24905	0.17632	0.11965	0.17096	0.073364	-2.6333	-2.4542	-2.6083	-3.3021	-2.4104	-3.0271	-2.8521	-2.5542	-3.1458	-2.6063	-2.7333	-3.0292	-2.4792	-3.0333	-2.6625	-2.4333	79.689	49.240	149.806	179.525	-55.315	49.288	-144.859	-99.502	-47.676	-37.485	-46.643	140.325	177.103	175.375	150.709	31.640	0.00054352	0.0012311	0.00017969	1336.4	5.5101e-06	1.3089e-05	885.6	468.77	1.4474e-05	3.2616e-06	353.95	134.1	163.25	73.236	8.1032e-06	67.591	0.0058764	0.0097548	0.0027209	1256	9.5732e-05	0.00010839	853.18	446.15	9.7681e-05	0.00010662	347.86	130.62	159.66	70.285	9.7802e-05	65.957	-89.078	-73.896	-30.637	-145.734	38.709	2.254	-146.970	-140.803	-9.646	155.924	-143.364	-138.843	-136.023	-132.034	54.754	-135.712	-8191	255	
19937.414	1	1	0	0	0.21241	0.042897	0.068097	0.28836	0.22598	0.1411	0.44247	0.31026	0.33839	0.21034	0.28127	0.18582	0.25236	0.1869	0.17562	0.088623	-2.7042	-2.3563	-2.5083	-3.2021	-2.3521	-2.7021	-2.8396	-2.6333	-3.175	-2.5021	-2.6125	-3.0854	-2.5438	-2.8937	-2.8958	-2.3854	-144.659	156.141	5.683	161.885	-76.054	42.619	178.533	-97.469	169.297	-71.542	187.805	175.275	-152.185	156.838	-26.221	95.548	0.00051385	0.00021187	8.6998e-05	1330	2.3642e-06	2.9625e-06	894.8	468.04	6.2005e-06	1.3014e-05	356.22	133.84	163	73.401	7.2647e-06	68.294	0.0056203	0.0095087	0.0026603	1252.6	9.3346e-05	0.000105	853.33	445.33	9.4118e-05	0.00010487	348.62	130.23	160.05	70.417	0.00010083	66.154	-97.302	-140.689	-155.363	-145.833	74.390	-140.001	-147.373	-140.440	-92.202	-16.566	-143.380	-138.514	-136.025	-132.201	-57.025	-135.272	-8191	255	
19937.512	1	1	0	0	0.09241	0.17723	0.11986	0.23259	0.10909	0.11468	0.068486	0.26575	0.1025	0.055787	0.22431	0.1506	0.32591	0.093162	0.20605	0.32214	-2.7542	-2.7646	-2.5521	-3.2604	-2.3958	-2.8104	-2.8854	-2.4688	-2.8729	-2.7375	-2.3937	-3.2021	-2.4188	-2.8187	-2.9583	-2.3812	163.939	183.924	-70.865	135.938	33.573	13.189	45.102	155.506	12.422	133.610	129.140	177.285	128.312	74.709	196.789	162.808	0.00058385	0.00065549	0.00019229	1327.1	1.3356e-05	7.4233e-06	894.02	471.24	5.0372e-06	9.6906e-06	356.57	133.25	164.37	73.61	9.3276e-06	68.176	0.0058258	0.0097753	0.0027112	1252.9	9.5651e-05	0.0001073	854.4	446.69	9.8545e-05	0.00010907	348.24	130.41	161.11	70.68	0.00010471	66.187	-103.665	-99.266	53.908	-145.989	-18.193	-82.191	-147.068	-140.699	-65.230	52.437	-143.425	-138.542	-136.030	-131.969	-39.381	-135.498	-8191	255	
19937.607	1	1	0	0	0.16051	0.10875	0.067989	0.10111	0.092392	0.11009	0.24447	0.088243	0.093028	0.36224	0.34085	0.38135	0.095112	0.28343	0.085427	0.29821	-2.5083	-2.6937	-2.5229	-3.15	-2.5771	-2.6896	-3.0583	-2.5875	-2.8958	-2.9729	-2.5104	-3.2542	-2.6125	-2.6813	-2.9979	-2.3729	122.584	161.413	-78.106	177.328	-111.797	-23.238	190.413	194.293	187.358	-37.893	104.243	173.987	-132.701	181.832	77.634	66.758	0.00045347	0.00084638	0.00034079	1332.8	8.033e-06	7.9687e-06	888.83	465.35	9.0025e-06	1.2133e-05	357.47	133.84	163.89	73.327	1.7323e-06	68.016	0.0059548	0.0099155	0.0027319	1255.2	9.8111e-05	0.00010878	851.81	444.6	9.6416e-05	0.00010626	348.18	130.35	160.36	70.46	0.00010053	66.14	-106.721	-91.545	-22.495	-145.910	181.784	70.889	-146.670	-140.675	-12.114	30.956	-143.482	-138.596	-136.576	-132.477	136.985	-135.463	-8191	255	
#DATA ENDS
