BOXY.EXE: ISS Imagent and Oximeter Data Acquisition Program Version 0.80
Ascii Record File

#ACQ INFORMATION
2  Detector Channels 
16  External MUX Channels 
1  Auxiliary Channels 
5000  Waveform (CCF) Frequency (Hz)
1  Waveforms Skipped 
30  Waveforms Averaged 
1  Cycles Averaged 
16  Acquisitions per Waveform 
10.0806  Updata Rate (Hz) 

#FILE INFORMATION
TRUE -- External MUX Channel results are PARSED.
FALSE -- AC DC and Phase are NOT grouped.
TRUE -- Companion Program Settings File CREATED.
FALSE -- AC data not excluded
FALSE -- DC data not excluded
FALSE -- Phase data not excluded
FALSE -- Auxillary Chn. data not excluded
Tab delimiters

#CALIBRATION STATE
TRUE -- Waveform Calibration Values APPLIED.


#AUX CALIBRATION VALUES
Val Type	aux-1	

Term	1.0000e+00	
Factor	0.0000e+00	


#WF CALIBRATION VALUES
A = Detector Channel
Val Type	A-AC1	A-AC2	A-AC3	A-AC4	A-AC5	A-AC6	A-AC7	A-AC8	A-AC9	A-AC10	A-AC11	A-AC12	A-AC13	A-AC14	A-AC15	A-AC16	A-DC1	A-DC2	A-DC3	A-DC4	A-DC5	A-DC6	A-DC7	A-DC8	A-DC9	A-DC10	A-DC11	A-DC12	A-DC13	A-DC14	A-DC15	A-DC16	A-Ph1	A-Ph2	A-Ph3	A-Ph4	A-Ph5	A-Ph6	A-Ph7	A-Ph8	A-Ph9	A-Ph10	A-Ph11	A-Ph12	A-Ph13	A-Ph14	A-Ph15	A-Ph16	

Term	0.00000e+00	0.00000e+00	0.00000e+00	0.00000e+00	0.00000e+00	0.00000e+00	0.00000e+00	0.00000e+00	0.00000e+00	0.00000e+00	0.00000e+00	0.00000e+00	0.00000e+00	0.00000e+00	0.00000e+00	0.00000e+00	0.00000e+00	0.00000e+00	0.00000e+00	0.00000e+00	0.00000e+00	0.00000e+00	0.00000e+00	0.00000e+00	0.00000e+00	0.00000e+00	0.00000e+00	0.00000e+00	0.00000e+00	0.00000e+00	0.00000e+00	0.00000e+00	0.00000e+00	0.00000e+00	0.00000e+00	0.00000e+00	0.00000e+00	0.00000e+00	0.00000e+00	0.00000e+00	0.00000e+00	0.00000e+00	0.00000e+00	0.00000e+00	0.00000e+00	0.00000e+00	0.00000e+00	0.00000e+00	
Factor	1.00000e+00	1.00000e+00	1.00000e+00	1.00000e+00	1.00000e+00	1.00000e+00	1.00000e+00	1.00000e+00	1.00000e+00	1.00000e+00	1.00000e+00	1.00000e+00	1.00000e+00	1.00000e+00	1.00000e+00	1.00000e+00	1.00000e+00	1.00000e+00	1.00000e+00	1.00000e+00	1.00000e+00	1.00000e+00	1.00000e+00	1.00000e+00	1.00000e+00	1.00000e+00	1.00000e+00	1.00000e+00	1.00000e+00	1.00000e+00	1.00000e+00	1.00000e+00	X	X	X	X	X	X	X	X	X	X	X	X	X	X	X	X	

B = Detector Channel
Val Type	B-AC1	B-AC2	B-AC3	B-AC4	B-AC5	B-AC6	B-AC7	B-AC8	B-AC9	B-AC10	B-AC11	B-AC12	B-AC13	B-AC14	B-AC15	B-AC16	B-DC1	B-DC2	B-DC3	B-DC4	B-DC5	B-DC6	B-DC7	B-DC8	B-DC9	B-DC10	B-DC11	B-DC12	B-DC13	B-DC14	B-DC15	B-DC16	B-Ph1	B-Ph2	B-Ph3	B-Ph4	B-Ph5	B-Ph6	B-Ph7	B-Ph8	B-Ph9	B-Ph10	B-Ph11	B-Ph12	B-Ph13	B-Ph14	B-Ph15	B-Ph16	

Term	0.00000e+00	0.00000e+00	0.00000e+00	0.00000e+00	0.00000e+00	0.00000e+00	0.00000e+00	0.00000e+00	0.00000e+00	0.00000e+00	0.00000e+00	0.00000e+00	0.00000e+00	0.00000e+00	0.00000e+00	0.00000e+00	0.00000e+00	0.00000e+00	0.00000e+00	0.00000e+00	0.00000e+00	0.00000e+00	0.00000e+00	0.00000e+00	0.00000e+00	0.00000e+00	0.00000e+00	0.00000e+00	0.00000e+00	0.00000e+00	0.00000e+00	0.00000e+00	-7.86066e+01	-1.31001e+02	-1.24786e+02	-1.83817e+02	-4.99121e+01	-6.53093e+01	-1.58668e+02	-1.62015e+02	-4.89199e+01	-6.62152e+01	-1.74374e+02	-1.69631e+02	-1.81559e+02	-1.77656e+02	-5.84456e+01	-1.50419e+02	
Factor	1.94216e-05	1.68321e-04	4.74969e-05	1.55115e-01	1.43856e-06	2.00494e-06	1.80626e-01	6.10451e-02	1.32424e-06	1.89511e-06	1.00420e-01	3.08861e-02	3.91032e-02	1.03895e-02	1.63570e-06	1.47649e-02	1.30170e-05	2.26506e-05	6.31162e-06	7.96424e-02	2.23240e-07	2.52336e-07	8.66108e-02	3.14689e-02	2.25496e-07	2.50935e-07	5.02129e-02	1.55535e-02	2.03098e-02	5.40091e-03	2.36603e-07	7.42413e-03	X	X	X	X	X	X	X	X	X	X	X	X	X	X	X	X	



#DISTANCE SETTINGS
A = Detector Channel
A-1	A-2	A-3	A-4	A-5	A-6	A-7	A-8	A-9	A-10	A-11	A-12	A-13	A-14	A-15	A-16	

2.5000e+00	3.0000e+00	2.5000e+00	3.0000e+00	2.0000e+00	3.0000e+00	1.5000e+00	3.0000e+00	3.0000e+00	3.0000e+00	3.0000e+00	3.0000e+00	3.0000e+00	3.0000e+00	1.5000e+00	3.0000e+00	

B = Detector Channel
B-1	B-2	B-3	B-4	B-5	B-6	B-7	B-8	B-9	B-10	B-11	B-12	B-13	B-14	B-15	B-16	

1.0000e+01	1.0000e+01	1.0000e+01	1.4400e+00	1.0000e+01	1.0000e+01	1.5100e+00	1.9400e+00	1.0000e+01	1.0000e+01	1.9900e+00	2.4900e+00	2.4100e+00	2.9000e+00	1.0000e+01	2.9800e+00	




#DATA BEGINS
time	group	step	mark	flag	A-AC1	A-AC2	A-AC3	A-AC4	A-AC5	A-AC6	A-AC7	A-AC8	A-AC9	A-AC10	A-AC11	A-AC12	A-AC13	A-AC14	A-AC15	A-AC16	A-DC1	A-DC2	A-DC3	A-DC4	A-DC5	A-DC6	A-DC7	A-DC8	A-DC9	A-DC10	A-DC11	A-DC12	A-DC13	A-DC14	A-DC15	A-DC16	A-Ph1	A-Ph2	A-Ph3	A-Ph4	A-Ph5	A-Ph6	A-Ph7	A-Ph8	A-Ph9	A-Ph10	A-Ph11	A-Ph12	A-Ph13	A-Ph14	A-Ph15	A-Ph16	B-AC1	B-AC2	B-AC3	B-AC4	B-AC5	B-AC6	B-AC7	B-AC8	B-AC9	B-AC10	B-AC11	B-AC12	B-AC13	B-AC14	B-AC15	B-AC16	B-DC1	B-DC2	B-DC3	B-DC4	B-DC5	B-DC6	B-DC7	B-DC8	B-DC9	B-DC10	B-DC11	B-DC12	B-DC13	B-DC14	B-DC15	B-DC16	B-Ph1	B-Ph2	B-Ph3	B-Ph4	B-Ph5	B-Ph6	B-Ph7	B-Ph8	B-Ph9	B-Ph10	B-Ph11	B-Ph12	B-Ph13	B-Ph14	B-Ph15	B-Ph16	aux-1	digaux	

19630.139	1	1	0	256	0.19734	0.19843	0.23471	0.21114	0.12683	0.24479	0.26472	0.15683	0.054192	0.030351	0.33306	0.21122	0.054843	0.29538	0.31099	0.31215	-2.1625	-2.3354	-2.0354	-2.9396	-2.1063	-2.225	-2.8063	-1.9667	-2.7271	-2.2979	-2.2417	-2.7354	-2.0125	-2.2938	-2.5458	-2.1542	245.571	292.129	330.779	147.944	381.285	377.206	219.413	312.640	274.524	339.987	371.895	505.490	379.741	499.168	469.508	461.615	0.00047887	0.00025114	0.00015449	1322.3	5.026e-06	5.9984e-06	1316.6	356.21	5.1665e-06	7.5902e-06	408.34	135.23	117.55	40.692	6.1489e-06	50.232	0.00092817	0.0012082	0.00033628	1341.8	1.27e-05	1.3917e-05	1341.9	363.2	1.2801e-05	1.3759e-05	418.31	139.09	121.02	41.994	1.3132e-05	52.111	243.946	217.888	241.691	160.421	312.236	332.962	160.123	164.995	306.249	308.832	164.697	169.269	169.689	174.210	314.550	173.206	-8191	255	
19630.234	1	1	0	0	0.10078	0.23881	0.14761	0.19179	0.16823	0.19865	0.17552	0.15097	0.086635	0.2839	0.11339	0.089767	0.19881	0.1188	0.22989	0.31734	-2.1792	-2.4958	-2.1771	-2.8521	-2.2042	-2.4604	-2.8646	-2.1396	-2.4979	-2.6208	-2.225	-2.8125	-2.4354	-2.3458	-2.6729	-2.1771	299.422	305.547	374.069	440.537	247.716	410.284	458.428	168.266	354.918	273.347	147.578	174.973	488.018	439.066	435.380	390.415	0.00052662	0.00033312	0.00011137	1313.4	3.0545e-06	5.2506e-06	1321.7	355.91	6.1761e-06	3.8654e-06	409.56	135.56	117.76	40.826	5.4151e-06	50.916	0.00097047	0.0012614	0.00035168	1341	1.3085e-05	1.3835e-05	1343.1	363.22	1.2882e-05	1.3959e-05	418.82	139.17	121.03	42.015	1.3407e-05	52.281	241.538	238.221	256.142	160.451	310.943	303.083	160.318	165.277	315.614	294.251	164.352	169.289	169.792	173.925	308.147	173.449	-8191	255	
19630.330	1	1	0	0	0.18656	0.14784	0.045585	0.34516	0.084094	0.2082	0.12536	0.27516	0.1669	0.14799	0.017594	0.30004	0.12455	0.12426	0.073014	0.12802	-2.0958	-2.6271	-2.1021	-2.9271	-2.3958	-2.1958	-2.9354	-2.1188	-2.3937	-2.6646	-2.225	-2.7938	-2.4938	-2.1354	-2.75	-2.2896	296.177	501.935	502.662	461.743	433.949	192.995	431.204	498.362	256.668	252.066	215.565	188.555	159.891	302.665	474.467	414.502	0.00052483	0.0002338	0.00013536	1317.6	6.3693e-06	6.0118e-06	1320.9	354.65	5.2688e-06	3.4304e-06	408.18	135.41	117.35	40.666	4.8149e-06	50.657	0.000952	0.0012385	0.00034344	1342	1.2996e-05	1.4082e-05	1343.2	362.77	1.2723e-05	1.3325e-05	417.89	139.02	120.74	41.964	1.233e-05	52.087	242.171	248.553	266.878	160.476	305.799	298.971	160.400	165.267	304.393	315.868	164.711	169.145	169.859	174.074	321.298	173.508	-8191	255	
19630.428	1	1	0	0	0.17526	0.37966	0.13346	0.15452	0.22096	0.28066	0.27499	0.27758	0.066993	0.055857	0.10433	0.12748	0.17259	0.024538	0.26987	0.3124	-1.8729	-2.7333	-1.9771	-2.8271	-2.5229	-2.0104	-2.9542	-2.2708	-2.3667	-2.7417	-2.1146	-2.675	-2.5708	-2.1417	-2.6417	-2.4125	329.482	371.355	294.344	487.348	457.737	175.651	461.160	155.993	444.089	505.021	435.776	444.301	172.869	192.138	345.800	502.762	0.00050628	0.00055954	5.522e-05	1316.7	3.3599e-06	4.3793e-06	1318.3	356.04	3.9506e-06	4.6038e-06	408.46	134.98	117.22	40.601	6.6181e-06	50.461	0.00091906	0.0011658	0.00032001	1340.3	1.2128e-05	1.3016e-05	1338	362.44	1.2627e-05	1.3002e-05	418.01	138.77	120.89	41.87	1.3921e-05	52.099	245.197	231.100	279.822	160.276	319.604	284.795	160.515	165.201	271.181	315.215	164.825	169.165	170.015	174.090	298.671	173.358	-8191	255	
19630.523	1	1	0	0	0.018738	0.29872	0.23487	0.25691	0.14275	0.24832	0.072738	0.2365	0.19738	0.15866	0.17312	0.19548	0.14875	0.10879	0.36011	0.081934	-1.8625	-2.6979	-2.2771	-2.8312	-2.7708	-1.9375	-3.2479	-2.4167	-2.2	-2.8	-2.2562	-2.6417	-2.6667	-1.9917	-2.5729	-2.5958	284.981	230.393	503.517	444.997	473.268	256.545	170.762	481.029	192.616	245.814	470.645	483.016	219.342	277.391	479.131	305.492	0.00048394	0.00042775	0.00010793	1318.8	5.7395e-06	4.3274e-06	1327.6	355.4	6.8138e-06	4.2046e-06	409.08	135.55	117.79	40.724	5.4901e-06	50.585	0.00099887	0.0013473	0.00038561	1344.1	1.4539e-05	1.5791e-05	1349.1	363.81	1.4749e-05	1.5685e-05	419.63	139.3	121.05	42.088	1.4618e-05	52.235	244.528	263.355	263.147	160.460	298.680	301.164	160.433	165.347	309.778	292.841	164.960	169.201	169.656	174.263	328.470	173.256	-8191	255	
19630.619	1	1	0	0	0.24024	0.19173	0.30194	0.34974	0.22372	0.19996	0.20575	0.20604	0.052351	0.072593	0.31831	0.071859	0.21387	0.2904	0.25593	0.24689	-1.7313	-2.6167	-2.1021	-2.5979	-2.6667	-2.1188	-3.0187	-2.4229	-2.2562	-2.7729	-2.125	-2.6583	-2.6833	-2.0938	-2.5875	-2.5083	234.799	287.778	284.905	468.668	223.324	196.667	400.088	176.739	148.087	360.606	223.992	386.457	485.235	489.621	239.927	320.640	0.00051514	0.00036055	0.00014194	1324.2	4.7655e-06	5.6922e-06	1324.5	355.51	4.594e-06	3.1623e-06	408.39	135.44	117.55	40.631	3.0487e-06	50.558	0.0010217	0.0013265	0.00036605	1346.8	1.3143e-05	1.4062e-05	1343.8	362.96	1.2601e-05	1.3228e-05	418.03	138.86	120.92	41.936	1.2991e-05	52.058	243.086	196.558	233.958	160.286	283.394	301.454	160.517	165.031	311.506	283.918	164.662	168.998	169.951	174.099	297.872	173.545	-8191	255	
19630.715	1	1	0	0	0.043121	0.11717	0.12608	0.6262	0.18701	0.19633	0.18895	0.14584	0.15507	0.021118	0.3475	0.075265	0.21637	0.063946	0.25378	0.2486	-1.7667	-2.7458	-2.0875	-2.5312	-2.8396	-2.2542	-2.8271	-2.5354	-2.0187	-2.9146	-2.3812	-2.4313	-2.7667	-2.1625	-2.4396	-2.4542	480.362	253.330	356.689	424.872	247.321	450.231	297.399	408.321	152.106	503.439	483.253	507.357	483.898	355.923	164.387	437.209	0.00048751	0.00041615	0.00015893	1322.2	2.7391e-06	3.9145e-06	1324.5	356.07	2.6032e-06	6.4655e-06	410.44	135.43	118.75	40.65	3.9998e-06	50.339	0.0009385	0.0012556	0.00035085	1345.2	1.3164e-05	1.4523e-05	1345.5	363.47	1.3701e-05	1.4563e-05	419.43	139.29	121.42	42.077	1.4198e-05	52.142	240.467	239.816	229.375	160.401	328.517	283.830	160.218	165.422	298.920	285.551	164.705	169.042	169.524	174.260	314.720	173.524	-8191	255	
19630.834	1	1	0	0	0.069229	0.17488	0.063098	0.15415	0.26638	0.19415	0.20238	0.10893	0.33917	0.17185	0.063804	0.17976	0.21854	0.14695	0.30711	0.09601	-1.5833	-2.675	-2.2083	-2.4896	-2.7396	-1.9875	-2.6229	-2.6396	-1.9917	-2.7646	-2.4521	-2.2979	-2.7667	-2.1792	-2.2542	-2.5687	479.216	384.353	349.905	167.858	504.522	487.328	461.667	445.693	231.306	486.633	223.296	392.603	442.812	438.394	224.193	309.119	0.00050418	0.00038567	8.1354e-05	1326.4	6.2073e-06	5.7038e-06	1322.7	356.45	5.6366e-06	4.5104e-06	409.74	135.23	117.68	40.606	5.5224e-06	50.791	0.00099542	0.001317	0.00035888	1347.7	1.3313e-05	1.4454e-05	1344.6	363.95	1.3062e-05	1.3613e-05	419.41	139.09	121.08	41.945	1.3589e-05	52.232	242.252	213.962	266.207	160.376	302.651	282.733	160.478	165.376	306.861	321.880	164.585	168.979	169.675	174.001	323.707	173.595	-8191	255	
19630.930	1	1	0	0	0.13092	0.13311	0.063773	0.19669	0.097939	0.19687	0.16468	0.27671	0.14409	0.23559	0.23882	0.1049	0.10583	0.10658	0.021984	0.078479	-1.6063	-2.5729	-2.1896	-2.3417	-2.7562	-2.2104	-2.4583	-2.6854	-2.0167	-2.8063	-2.5563	-2.0875	-2.8896	-2.1104	-2.35	-2.7708	315.798	383.483	210.027	202.959	485.299	176.975	151.876	453.048	407.413	258.273	353.579	383.780	502.059	183.326	391.549	450.200	0.00050034	0.00063644	0.00016707	1325.6	4.7395e-06	4.4835e-06	1322.8	355.34	6.3196e-06	4.0204e-06	409.93	135.65	117.44	40.557	6.0929e-06	50.508	0.00098593	0.0013056	0.00036811	1347.2	1.3483e-05	1.4723e-05	1346.3	363.74	1.3416e-05	1.4276e-05	419.49	139.13	120.98	41.972	1.3745e-05	52.115	239.859	221.312	240.928	160.574	303.184	326.129	160.414	165.507	292.955	294.811	164.692	168.877	169.701	174.138	307.095	173.602	-8191	255	
19631.027	1	1	0	0	0.13308	0.2819	0.055923	0.17899	0.083143	0.097505	0.21816	0.20309	0.2258	0.049699	0.15125	0.24916	0.22661	0.28311	0.16707	0.13747	-1.7729	-2.4396	-2.2396	-2.3104	-2.7875	-2.5125	-2.6271	-2.7979	-2.25	-2.5438	-2.6	-2.25	-2.7396	-2.3563	-2.2292	-2.7833	208.720	170.975	222.912	501.203	303.612	299.063	479.430	449.492	325.999	502.651	393.472	167.201	466.001	474.649	319.527	200.856	0.00050649	0.00051476	0.00013823	1324.8	1.9283e-06	7.6598e-06	1322.2	355.34	5.5144e-06	7.7868e-06	409.58	136.3	117.67	40.567	6.7735e-06	50.632	0.00097066	0.0012694	0.0003563	1345.2	1.3753e-05	1.4465e-05	1345.5	363.43	1.4135e-05	1.4914e-05	419.53	139.22	121.13	42.004	1.49e-05	52.227	242.370	257.750	252.198	160.539	279.573	307.041	160.395	165.447	303.012	296.402	164.687	169.195	170.113	174.452	307.826	173.531	-8191	255	
19631.123	1	1	0	0	0.24288	0.19364	0.13711	0.27916	0.10444	0.41436	0.25694	0.1713	0.22444	0.29288	0.12071	0.37994	0.23429	0.13026	0.24772	0.15866	-1.6208	-2.5854	-2.5708	-2.1813	-2.7	-2.4271	-2.3875	-2.7708	-2.1063	-2.55	-2.7958	-2	-2.7083	-2.3729	-1.9792	-2.9792	281.383	394.429	185.787	427.907	213.600	452.069	440.923	267.963	168.732	424.260	504.968	490.068	374.984	157.283	406.523	198.651	0.0005097	0.00030955	0.00016773	1323.7	5.7067e-06	5.9946e-06	1329.1	355.8	3.1864e-06	3.8411e-06	410.77	135.17	117.59	40.78	2.3985e-06	50.565	0.0010339	0.0014023	0.0003869	1346.6	1.3858e-05	1.4956e-05	1346.3	364.47	1.3531e-05	1.4229e-05	419.13	138.92	120.96	41.99	1.3895e-05	52.129	238.145	227.544	234.575	160.543	297.135	300.211	160.417	165.365	263.095	304.824	165.035	169.201	169.793	174.189	288.223	173.362	-8191	255	
19631.219	1	1	0	0	0.072433	0.058648	0.0639	0.21	0.16657	0.10818	0.27144	0.11901	0.05267	0.19063	0.057414	0.13274	0.20264	0.065152	0.057643	0.13169	-1.6542	-2.4021	-2.7104	-2.3563	-2.6021	-2.4125	-2.3271	-2.8583	-2.2271	-2.1854	-2.7583	-1.9167	-2.4667	-2.7625	-2.0687	-2.8417	182.685	216.634	306.182	452.384	236.300	482.077	460.633	190.689	398.872	404.477	489.952	373.166	319.065	204.838	342.994	443.884	0.00050317	0.00054349	0.00018541	1324.6	5.1053e-06	5.6185e-06	1325	355.85	6.0898e-06	6.0237e-06	410.96	135.56	117.85	40.572	2.2163e-06	50.462	0.00096901	0.0013242	0.00036956	1345.8	1.339e-05	1.4644e-05	1345.4	363.98	1.3777e-05	1.4739e-05	419.13	139.16	121.19	41.972	1.4589e-05	52.244	240.067	224.782	247.943	160.733	304.250	280.426	160.408	165.587	310.526	296.304	165.034	169.164	169.673	174.259	306.598	173.462	-8191	255	
19631.314	1	1	0	0	0.15396	0.21544	0.11638	0.13822	0.22307	0.18209	0.16042	0.18517	0.15208	0.12687	0.09053	0.14206	0.20299	0.14531	0.41854	0.3041	-1.7833	-2.2021	-2.6375	-2.4604	-2.6083	-2.5187	-2.1875	-2.7396	-2.3	-2.1146	-2.775	-2.0854	-2.5938	-2.6083	-1.9854	-2.5708	155.137	304.582	286.697	153.877	215.380	459.131	400.478	433.231	242.075	252.127	441.548	183.058	428.326	446.667	427.833	480.377	0.00053856	0.0008046	0.00018633	1323.1	3.84e-06	6.1063e-06	1324.9	357.52	4.652e-06	6.706e-06	411.07	135.23	117.26	40.715	4.2765e-06	50.646	0.0010102	0.0013627	0.00037569	1346.2	1.3898e-05	1.4798e-05	1346.3	364.8	1.332e-05	1.4397e-05	419.67	139.26	121.16	42.053	1.3444e-05	52.259	242.390	256.572	264.219	160.510	328.522	257.422	160.306	165.416	313.388	293.577	164.460	169.339	169.512	174.488	313.470	173.661	-8191	255	
19631.410	1	1	0	0	0.13477	0.094394	0.045006	0.35025	0.055636	0.12756	0.38672	0.45077	0.13305	0.29313	0.021062	0.088716	0.30023	0.18509	0.23353	0.11429	-1.7604	-2.0729	-2.65	-2.1937	-2.3438	-2.6479	-2.2396	-2.8021	-2.2583	-2.1771	-2.9125	-2.2833	-2.3646	-2.8354	-2.0812	-2.7167	427.067	196.797	475.085	159.196	185.635	413.477	468.560	467.963	386.074	448.960	452.758	459.824	401.720	193.564	320.195	402.857	0.00055245	0.00035311	0.00014628	1322.6	3.0088e-06	6.4044e-06	1325.4	356.15	5.9632e-06	6.3123e-06	410.06	134.94	117.96	40.488	2.9702e-06	50.55	0.00097695	0.0012381	0.00034319	1345.8	1.2789e-05	1.3585e-05	1347.2	363.81	1.2616e-05	1.3822e-05	419.29	139.05	121.25	41.962	1.368e-05	52.171	243.282	214.085	259.954	160.685	294.288	320.523	160.338	165.360	302.718	293.403	164.882	169.132	169.956	174.208	302.935	173.633	-8191	255	
19631.531	1	1	0	0	0.10867	0.16622	0.19444	0.13121	0.11982	0.093232	0.2054	0.13866	0.1182	0.34175	0.10432	0.3211	0.071331	0.14418	0.18137	0.14493	-2.0083	-2.2708	-2.8625	-2.2521	-2.1604	-2.7396	-2.275	-2.7646	-2.3458	-2.15	-2.8333	-2.3104	-2.3396	-2.8042	-1.9896	-2.7062	167.600	406.985	426.691	485.203	218.099	280.185	206.228	490.426	282.889	436.807	432.067	498.500	196.202	160.651	504.901	471.657	0.00052845	0.00067849	0.00011679	1322.2	5.9923e-06	5.4329e-06	1323.4	355.15	5.1386e-06	4.5014e-06	408.51	134.8	117.41	40.423	2.8443e-06	50.365	0.00096396	0.0012873	0.00035028	1345.6	1.3184e-05	1.3493e-05	1345.8	363.38	1.2446e-05	1.3136e-05	418.15	138.8	120.69	41.795	1.2254e-05	51.956	237.893	217.481	230.332	160.631	300.936	295.623	160.446	165.301	312.733	309.391	164.738	169.462	169.491	174.366	319.707	173.591	-8191	255	
19631.629	1	1	0	0	0.30793	0.15669	0.061193	0.43029	0.27784	0.16628	0.21824	0.20805	0.13834	0.10846	0.22445	0.18907	0.10868	0.098514	0.11785	0.229	-2.1583	-2.2479	-2.8458	-2.4021	-2.0354	-2.7062	-2.375	-2.6312	-2.5229	-2.1375	-2.7583	-2.3729	-2.2208	-2.8438	-2.0792	-2.55	411.005	193.544	467.987	463.404	208.972	205.093	429.629	481.734	206.328	468.304	442.976	393.502	406.669	490.174	202.657	147.346	0.00048134	0.00035523	6.663e-05	1316.5	3.9538e-06	4.3384e-06	1318.7	353.01	5.1687e-06	4.3751e-06	408.46	135.07	117.18	40.537	6.4352e-06	50.067	0.00087271	0.001129	0.00030507	1337.9	1.1461e-05	1.1868e-05	1340.3	361.27	1.127e-05	1.1962e-05	417.33	138.53	120.35	41.804	1.1837e-05	51.868	239.758	218.301	248.413	160.498	292.320	300.232	160.282	165.170	295.074	308.977	164.754	169.335	169.981	174.369	292.927	173.516	-8191	255	
19631.725	1	1	0	0	0.11957	0.36341	0.17789	0.37952	0.17242	0.08969	0.1073	0.16692	0.13333	0.11541	0.074168	0.094825	0.20274	0.094783	0.13929	0.095812	-2.1646	-1.9646	-2.6	-2.5604	-2.2208	-2.8292	-2.2083	-2.4229	-2.625	-1.9813	-2.5833	-2.6167	-2.0354	-2.7521	-2.1354	-2.4042	213.249	299.983	474.659	463.867	218.692	423.302	370.473	448.151	150.582	462.724	345.452	299.987	380.744	205.407	302.569	433.513	0.00052328	0.00044765	0.00012143	1313.2	5.3404e-06	5.8113e-06	1313.6	353.43	6.0421e-06	3.2045e-06	408.94	134.62	117.37	40.58	5.7177e-06	50.343	0.00087463	0.0011013	0.00030281	1337.4	1.138e-05	1.2382e-05	1335.7	361.17	1.1589e-05	1.2218e-05	417.66	138.37	120.32	41.841	1.2208e-05	51.909	240.007	236.711	245.042	160.531	295.353	285.515	160.431	165.318	309.721	293.321	164.797	169.023	169.825	174.182	313.109	173.586	-8191	255	
19631.820	1	1	0	0	0.018097	0.1319	0.034499	0.3334	0.24697	0.15469	0.26269	0.20153	0.15903	0.14509	0.19471	0.13113	0.24789	0.047823	0.16019	0.27395	-2.2667	-2.0146	-2.6104	-2.4229	-2.0729	-2.7062	-2.425	-2.5917	-2.7667	-1.9896	-2.5312	-2.6625	-2.125	-2.7458	-2.3312	-2.2438	230.431	212.988	435.221	440.360	455.950	454.714	434.861	483.544	462.271	309.429	383.892	404.614	491.328	212.943	481.944	499.049	0.00049729	0.0007533	0.00012365	1319.1	4.1945e-06	6.6606e-06	1316	352.65	4.993e-06	4.7162e-06	408.77	134.52	117.5	40.425	4.4012e-06	50.215	0.00088969	0.0011506	0.0003157	1338.6	1.1728e-05	1.2551e-05	1338.4	361.02	1.1653e-05	1.2656e-05	416.85	138.3	120.61	41.788	1.2039e-05	51.908	238.784	228.084	216.699	160.610	310.327	299.941	160.489	165.428	306.814	309.152	164.737	169.149	169.851	174.174	298.631	173.420	-8191	255	
19631.916	1	1	0	0	0.084362	0.17657	0.19595	0.23784	0.17177	0.050134	0.046104	0.21874	0.30886	0.10537	0.17191	0.3433	0.1831	0.12607	0.16984	0.16565	-2.275	-2.0417	-2.5625	-2.6188	-2.0687	-2.8458	-2.5021	-2.3729	-2.7729	-2.1063	-2.6104	-2.8125	-1.9688	-2.6937	-2.3917	-2.1167	383.579	416.591	164.701	498.176	503.764	263.379	472.177	214.612	242.469	153.116	288.626	148.728	419.227	378.179	328.057	157.715	0.00050599	0.00045509	0.00014135	1316.9	3.7964e-06	3.4579e-06	1320.2	354.16	5.8849e-06	6.1222e-06	407.34	134.77	116.82	40.517	5.5235e-06	49.994	0.00089053	0.0011867	0.00032659	1339.9	1.2187e-05	1.2741e-05	1340.4	361.25	1.1896e-05	1.2974e-05	416.94	138.25	120.4	41.802	1.2492e-05	51.783	239.640	222.981	249.679	160.648	307.169	304.494	160.557	165.298	311.415	323.379	164.634	169.180	169.938	174.264	317.881	173.245	-8191	255	
19632.012	1	1	0	0	0.16766	0.012485	0.111	0.20839	0.046018	0.32007	0.23289	0.071855	0.052117	0.31076	0.085299	0.033371	0.16523	0.29311	0.020993	0.014627	-2.2667	-2.1271	-2.3063	-2.8167	-1.9312	-2.6312	-2.6875	-2.2313	-2.6958	-2.2292	-2.3729	-2.8604	-2.0833	-2.7479	-2.5375	-2.3896	417.110	172.558	300.355	173.979	434.605	198.228	496.172	333.656	378.019	317.937	441.258	375.520	496.528	483.091	335.383	251.679	0.00051661	0.00072295	8.7175e-05	1316.1	5.4454e-06	4.7218e-06	1322.2	354.84	5.3256e-06	5.8458e-06	406.35	135.26	117.42	40.528	5.4911e-06	50.312	0.00091835	0.0011981	0.00033068	1340.9	1.2411e-05	1.2988e-05	1340.3	361.63	1.2304e-05	1.2884e-05	416.55	138.51	120.65	41.833	1.244e-05	51.889	240.100	254.585	242.546	160.566	291.610	298.100	160.423	165.400	286.911	286.172	164.992	169.174	169.952	174.350	280.581	173.529	-8191	255	
19632.131	1	1	0	0	0.096111	0.083104	0.26051	0.17897	0.020542	0.21762	0.29858	0.19742	0.050239	0.1269	0.42933	0.043433	0.123	0.1995	0.14478	0.26606	-2.3896	-2.3312	-2.2875	-2.9125	-2.1167	-2.6146	-2.6896	-2.2083	-2.7458	-2.4021	-2.2354	-3.0333	-1.8979	-2.4313	-2.7354	-2.1771	330.303	468.568	462.710	465.584	353.754	235.135	460.620	254.240	278.878	226.915	487.215	210.288	290.838	466.793	324.015	449.871	0.00050382	0.00050348	4.2519e-05	1320.4	3.3664e-06	3.8034e-06	1317.8	353.43	5.3638e-06	5.0825e-06	407.61	135.02	117.63	40.402	5.7959e-06	50.298	0.00090767	0.0012078	0.00032694	1340.9	1.2244e-05	1.3033e-05	1339.6	361.62	1.2384e-05	1.3103e-05	417.18	138.39	120.68	41.813	1.2968e-05	51.933	236.939	219.983	243.779	160.753	274.852	295.284	160.545	165.512	305.240	286.930	164.861	169.495	169.782	174.471	300.960	173.311	-8191	255	
19632.229	1	1	0	0	0.25683	0.18124	0.20874	0.27313	0.0937	0.067811	0.25897	0.29068	0.20075	0.049482	0.057087	0.42144	0.10678	0.05954	0.080817	0.1905	-2.2979	-2.2396	-2.2333	-3.0417	-2.1146	-2.6333	-2.7958	-2.2229	-2.8187	-2.45	-2.2812	-2.9396	-2.1979	-2.4583	-2.6333	-1.9854	203.940	340.803	370.792	462.484	383.610	362.952	434.713	474.566	222.953	397.566	457.597	186.387	188.220	319.978	292.030	413.361	0.00049454	0.00049995	0.00017537	1323.3	4.2898e-06	3.4423e-06	1318.6	354.09	5.4818e-06	4.6878e-06	408.59	135.34	117.71	40.376	4.6578e-06	50.356	0.00094387	0.0012491	0.00034755	1342.5	1.2689e-05	1.3702e-05	1341.7	361.73	1.2579e-05	1.3297e-05	417.47	138.53	120.74	41.828	1.256e-05	51.998	241.874	238.190	245.525	160.765	292.637	288.657	160.429	165.462	292.101	296.603	164.798	169.416	169.768	174.377	274.770	173.608	-8191	255	
19632.299	1	1	0	0	0.38434	0.051751	0.17716	0.30487	0.14078	0.09739	0.18143	0.091524	0.082889	0.161	0.094466	0.092114	0.18178	0.14582	0.065858	0.14379	-2.1625	-2.3187	-2.0729	-3.0854	-2.1958	-2.4583	-2.9083	-2.0312	-2.5333	-2.6042	-2.0563	-2.975	-2.1542	-2.5042	-2.8563	-2.1646	386.627	159.036	507.410	471.642	339.910	480.391	457.765	482.777	490.515	188.346	444.204	500.207	158.045	473.409	263.449	444.665	0.00051197	0.00041772	0.00012758	1320.5	6.4893e-06	3.2828e-06	1315.2	353.78	3.9554e-06	3.3298e-06	408.59	134.4	116.59	40.504	4.4572e-06	50.188	0.00093405	0.0011979	0.00033527	1340.7	1.2404e-05	1.3092e-05	1340.5	361.66	1.2575e-05	1.299e-05	416.94	138.33	120.49	41.792	1.2894e-05	51.925	240.102	250.038	245.337	160.690	321.463	300.955	160.663	165.472	296.976	277.466	164.985	169.296	170.126	174.299	292.237	173.697	-8191	255	
19632.395	1	1	0	0	0.10313	0.31232	0.047763	0.44907	0.18491	0.18701	0.08804	0.14977	0.092706	0.091704	0.14876	0.17033	0.11077	0.19603	0.20329	0.14932	-2.1688	-2.3417	-1.9125	-2.9938	-2.25	-2.275	-3.0458	-2.2896	-2.3458	-2.7062	-2.1542	-3	-2.5229	-2.1813	-2.7521	-2.2083	410.306	373.880	263.962	473.292	426.128	460.846	422.428	256.440	341.556	370.500	164.605	479.809	251.184	247.423	466.329	254.637	0.00048295	0.00055556	0.0001367	1319.6	4.8529e-06	7.1917e-06	1316.9	353.76	4.3303e-06	5.5436e-06	407.84	134.97	117.72	40.445	3.1132e-06	50.347	0.00093698	0.0012144	0.00033717	1343.1	1.2579e-05	1.2983e-05	1340.4	361.81	1.2427e-05	1.3122e-05	417.17	138.54	120.66	41.818	1.2763e-05	51.946	241.398	233.272	230.666	160.696	289.845	293.585	160.695	165.632	295.052	300.604	164.952	169.535	170.118	174.504	256.198	173.688	-8191	255	
19632.492	1	1	0	0	0.13136	0.095816	0.056428	0.2609	0.078062	0.079928	0.073365	0.10514	0.19593	0.47049	0.24297	0.29392	0.18642	0.17087	0.08324	0.28015	-1.8937	-2.725	-2.1521	-2.7792	-2.5312	-2.2208	-2.7875	-2.3625	-2.2854	-2.4792	-2.1625	-2.8896	-2.4771	-1.9875	-2.9521	-2.2292	180.835	470.781	454.868	155.715	299.227	405.978	165.908	433.130	473.375	503.315	300.815	447.831	296.612	379.568	265.413	454.224	0.00049292	0.00049595	0.00014031	1317.3	4.557e-06	4.2745e-06	1322.5	354.38	4.8385e-06	2.8662e-06	407.54	134.97	117.66	40.606	4.9687e-06	50.092	0.00093096	0.0012092	0.00033214	1341.2	1.2539e-05	1.3183e-05	1343.4	361.54	1.2305e-05	1.3002e-05	416.98	138.24	120.61	41.848	1.2542e-05	52.007	242.108	236.726	285.878	160.638	302.629	298.293	160.690	165.542	297.341	338.684	165.176	169.526	170.234	174.308	306.141	173.752	-8191	255	
19632.611	1	1	0	0	0.064814	0.048591	0.1034	0.23015	0.1743	0.14147	0.12561	0.3154	0.25164	0.14825	0.19216	0.15772	0.34083	0.22088	0.10787	0.10738	-1.8021	-2.7	-1.9042	-2.7896	-2.7021	-2.1146	-3.0375	-2.2646	-2.2313	-2.8479	-2.0167	-2.7979	-2.5146	-2.3083	-2.8063	-2.1354	395.318	337.337	348.273	453.783	361.260	197.808	376.138	464.912	363.735	355.871	228.241	376.910	462.963	439.021	282.346	340.181	0.00053125	0.00036797	0.00017022	1324.5	4.6915e-06	5.8443e-06	1321.6	354.49	3.8127e-06	3.9945e-06	407.45	134.73	117.32	40.464	3.4354e-06	50.323	0.00092429	0.0011771	0.0003441	1341.5	1.1989e-05	1.3361e-05	1341.3	361.51	1.2408e-05	1.3284e-05	417.01	138.31	120.44	41.834	1.3121e-05	51.992	240.950	196.918	242.481	160.807	302.714	304.946	160.742	165.627	281.082	317.241	165.068	169.577	170.423	174.486	290.744	173.663	-8191	255	
19632.707	1	1	0	0	0.25046	0.29788	0.21176	0.10679	0.13313	0.12853	0.11622	0.31779	0.16858	0.12694	0.29093	0.27318	0.38658	0.1229	0.19571	0.13871	-1.5708	-2.8063	-2.0167	-2.6375	-2.6813	-1.9937	-2.9396	-2.3583	-2.0875	-2.5771	-2.0875	-2.4917	-2.5687	-2.2167	-2.6396	-2.5958	272.154	302.490	374.135	370.375	504.651	317.013	403.084	393.211	157.778	284.029	429.016	504.131	384.885	464.020	289.815	186.273	0.00052738	0.00071603	0.00019931	1321.6	3.4999e-06	6.5547e-06	1324.1	354.61	5.9241e-06	5.8026e-06	408.13	135.53	117.49	40.473	3.7728e-06	50.227	0.00094525	0.0012294	0.00033862	1343.5	1.2953e-05	1.3936e-05	1342.6	361.92	1.256e-05	1.318e-05	417.34	138.86	120.73	41.828	1.3271e-05	51.96	243.040	236.315	240.546	160.787	292.594	297.346	160.604	165.549	281.111	317.649	165.080	169.324	170.046	174.379	310.906	173.717	-8191	255	
19632.805	1	1	0	0	0.081416	0.20762	0.20467	0.21482	0.020604	0.2585	0.12912	0.33227	0.072528	0.048586	0.46092	0.2849	0.1222	0.13129	0.29721	0.094278	-1.6771	-2.6312	-2.2333	-2.4875	-2.5333	-2.0687	-2.7396	-2.5792	-2.1521	-2.5875	-2.2354	-2.2375	-2.7708	-2.1562	-2.5167	-2.5312	273.985	180.149	498.217	495.089	157.822	400.148	504.340	466.014	488.449	288.144	161.955	486.690	396.771	157.156	334.964	348.327	0.00050071	0.0004446	0.0001336	1317.1	6.3586e-06	7.2492e-06	1320.7	353.34	4.74e-06	5.8237e-06	406.55	135.02	117.69	40.402	5.814e-06	50.126	0.00093712	0.001207	0.00034736	1341.7	1.282e-05	1.3895e-05	1341.8	361.74	1.2837e-05	1.3776e-05	417.11	138.43	120.61	41.782	1.3238e-05	51.947	243.212	211.480	243.056	160.650	294.130	295.613	159.933	165.036	296.467	297.031	164.209	168.809	169.110	173.746	296.255	172.931	-8191	255	
19632.926	1	1	0	0	0.037728	0.30194	0.18181	0.12167	0.30048	0.23564	0.031661	0.069477	0.2642	0.15748	0.34861	0.41449	0.048098	0.1362	0.091737	0.37087	-1.6042	-2.6375	-2.2167	-2.3563	-2.625	-1.9562	-2.7021	-2.6271	-2.0271	-2.7562	-2.2938	-2.2479	-2.7021	-2.1521	-2.2687	-2.8333	300.491	349.907	216.187	173.692	234.719	232.066	485.880	203.435	178.363	422.396	489.545	435.074	327.972	183.709	260.024	195.096	0.00050715	0.00041745	5.3382e-05	1320.5	4.8795e-06	9.486e-06	1318.6	353.23	4.8348e-06	3.9576e-06	406.55	134.42	117.51	40.432	4.2413e-06	50.248	0.00096453	0.001246	0.00035454	1341.3	1.2461e-05	1.3516e-05	1341.8	361.84	1.2516e-05	1.3326e-05	416.9	138.43	120.65	41.792	1.2813e-05	51.956	239.162	254.675	244.385	160.056	317.419	281.348	159.872	164.807	284.714	301.586	164.106	168.765	169.289	173.536	296.262	172.938	-8191	255	
19632.996	1	1	0	0	0.27658	0.17457	0.27664	0.2266	0.31639	0.014149	0.26349	0.20055	0.11081	0.1266	0.085046	0.12285	0.22542	0.31872	0.12873	0.090656	-1.6208	-2.7313	-2.2146	-2.1917	-2.6917	-2.1	-2.3021	-2.7292	-2.1146	-2.8125	-2.5125	-2.0875	-2.8	-2.2188	-2.1396	-2.7229	311.960	374.272	330.826	468.040	297.278	468.116	457.978	461.685	390.031	198.789	349.449	481.564	501.919	480.809	419.413	310.336	0.00051334	0.00059824	0.0001225	1317.7	4.2005e-06	4.6162e-06	1316.9	353.27	3.3451e-06	2.2079e-06	408.2	134.72	117.37	40.546	5.158e-06	50.548	0.00092944	0.0011818	0.0003363	1341	1.2362e-05	1.3437e-05	1340.1	361.4	1.2437e-05	1.3196e-05	416.96	138.38	120.37	41.791	1.2784e-05	51.965	241.568	262.112	248.087	159.854	318.105	298.452	160.011	164.904	317.418	317.308	164.504	168.624	169.164	174.031	314.866	173.009	-8191	255	
19633.094	1	1	0	0	0.11003	0.26587	0.27489	0.41121	0.14963	0.13383	0.20543	0.075454	0.062973	0.13138	0.061084	0.065499	0.15923	0.16204	0.2865	0.11971	-1.7833	-2.5917	-2.3875	-2.2167	-2.7875	-2.2875	-2.5479	-2.8792	-1.9354	-2.6229	-2.5375	-2.1729	-2.7604	-2.3625	-2.1958	-2.9813	169.165	354.871	253.695	161.041	389.307	473.519	482.839	336.998	475.941	490.747	494.008	281.810	356.598	271.065	344.538	171.609	0.00049293	0.00061348	0.00011641	1314.8	4.1716e-06	5.6435e-06	1314	354.43	5.5968e-06	4.533e-06	406.98	134.75	117.57	40.514	7.3011e-06	50.186	0.00090829	0.0011908	0.00033172	1338.2	1.2381e-05	1.3348e-05	1338.9	361.8	1.2462e-05	1.3236e-05	416.95	138.41	120.64	41.749	1.3046e-05	51.939	241.930	237.053	244.183	160.194	287.532	281.681	159.996	165.243	301.466	310.561	164.622	169.080	169.811	174.423	286.317	173.774	-8191	255	
19633.213	1	1	0	0	0.24622	0.07544	0.16296	0.070666	0.10294	0.22706	0.072989	0.11601	0.37204	0.18926	0.1028	0.12275	0.25581	0.11555	0.32343	0.10527	-1.7271	-2.5083	-2.475	-2.4979	-2.5833	-2.3688	-2.3021	-2.8563	-2.0604	-2.5271	-2.7542	-2.0417	-2.7375	-2.3521	-2.1021	-3.0271	478.074	169.016	448.465	156.278	182.481	311.336	470.034	184.278	383.919	253.264	507.074	330.625	440.255	462.855	351.846	458.028	0.0005103	0.00040272	0.00016404	1318.2	4.908e-06	3.1364e-06	1316.5	353.91	4.4333e-06	4.0539e-06	409.18	134.82	117.8	40.296	4.3735e-06	50.422	0.00091439	0.0012003	0.00034066	1338.1	1.2343e-05	1.2999e-05	1337	361.32	1.2699e-05	1.3444e-05	417.87	138.36	120.7	41.69	1.311e-05	51.945	238.696	216.518	220.269	160.852	300.141	342.951	160.603	165.900	314.011	289.953	165.275	169.573	169.883	174.725	288.190	174.018	-8191	255	
19633.309	1	1	0	0	0.036856	0.2629	0.12263	0.27055	0.065049	0.037037	0.01796	0.081698	0.1484	0.26791	0.11997	0.13314	0.19744	0.26135	0.029165	0.18043	-1.7083	-2.2438	-2.5917	-2.2167	-2.6937	-2.4542	-2.4667	-2.8146	-2.0292	-2.4271	-2.7625	-2.1104	-2.6771	-2.4604	-2.3521	-2.7271	342.820	161.167	487.309	477.123	282.930	313.171	346.852	156.761	417.290	186.772	304.151	494.798	466.715	487.802	215.992	359.512	0.00049209	0.00068879	0.0001535	1314.4	6.503e-06	4.4357e-06	1312.5	355.63	5.7535e-06	4.9745e-06	409.1	135.03	117.31	40.57	4.3337e-06	50.281	0.00091968	0.0011936	0.00034006	1338.6	1.244e-05	1.3004e-05	1338.4	362.2	1.2189e-05	1.3361e-05	417.46	138.46	120.58	41.806	1.278e-05	51.906	243.024	237.461	243.047	160.605	293.251	325.593	160.686	165.601	291.452	350.877	165.303	169.472	170.035	174.476	308.499	173.707	-8191	255	
19633.404	1	1	0	0	0.28854	0.20265	0.18554	0.37801	0.2924	0.22231	0.25232	0.050438	0.21474	0.10473	0.23345	0.17971	0.24769	0.25823	0.13832	0.070975	-1.6458	-2.3417	-2.7792	-2.1417	-2.5729	-2.5354	-2.3375	-2.8854	-2.4021	-2.1708	-2.775	-1.9729	-2.5104	-2.6063	-2.0229	-2.9813	149.583	149.190	334.804	157.658	367.064	308.661	492.054	287.163	168.106	455.797	476.037	164.439	435.151	167.429	179.933	221.382	0.00047898	0.00057906	0.00015247	1309.4	2.9894e-06	5.8065e-06	1311.4	355.61	5.9424e-06	5.3873e-06	407.05	134.01	116.94	40.371	4.2009e-06	50.394	0.00091236	0.001183	0.00033057	1336.4	1.2062e-05	1.2895e-05	1337.7	361.81	1.2173e-05	1.276e-05	416.95	138.12	120.42	41.729	1.2144e-05	51.969	240.133	224.210	238.633	160.814	321.934	305.777	160.531	165.414	292.781	318.404	165.116	169.408	169.785	174.591	299.568	173.418	-8191	255	
19633.525	1	1	0	0	0.27341	0.2956	0.07672	0.1326	0.15952	0.36739	0.16214	0.17199	0.064361	0.2009	0.25039	0.12772	0.021384	0.18676	0.015777	0.051794	-1.9438	-2.2042	-2.6771	-2.2583	-2.5479	-2.5312	-2.1896	-2.9542	-2.15	-2.1604	-2.9854	-2.2604	-2.4021	-2.7333	-2.0333	-2.5979	470.840	389.233	158.812	496.757	319.461	271.922	474.330	505.263	300.394	175.878	147.744	161.316	436.590	468.657	411.961	414.681	0.00051345	0.00035774	0.00014799	1315.4	6.5541e-06	1.4469e-06	1312.7	355.3	6.1916e-06	6.0961e-06	407.45	134.79	116.73	40.387	5.0861e-06	50.188	0.00092198	0.001177	0.00032212	1337.4	1.2212e-05	1.2961e-05	1337.4	361.74	1.2094e-05	1.2873e-05	417.11	138.31	120.26	41.729	1.2823e-05	51.876	243.367	216.045	222.804	160.402	300.125	308.855	160.551	165.484	298.230	313.261	164.978	169.150	169.709	174.370	312.807	173.405	-8191	255	
19633.596	1	1	0	0	0.051817	0.26557	0.071481	0.33887	0.14478	0.063027	0.47118	0.12972	0.17039	0.17755	0.12391	0.12319	0.11219	0.19352	0.17755	0.086248	-2.1063	-2.2333	-2.6958	-2.3771	-2.3	-2.875	-2.1312	-2.9062	-2.6417	-2.2167	-2.9479	-2.3042	-2.3792	-2.8146	-2.1708	-2.8271	422.822	332.378	375.164	440.461	171.510	294.406	453.922	448.636	485.305	352.173	227.762	169.268	505.860	448.404	479.394	408.591	0.00050038	0.00055961	0.00013018	1320.4	5.6051e-06	4.5247e-06	1321.6	353.19	4.817e-06	5.9461e-06	406.61	134.48	117.15	40.547	3.0851e-06	50.46	0.00091981	0.001232	0.00033527	1339.9	1.2376e-05	1.3026e-05	1341.3	361.11	1.2466e-05	1.2987e-05	416.78	138.1	120.34	41.808	1.2789e-05	52.003	245.294	232.752	251.184	160.465	299.033	251.269	160.441	165.432	314.531	329.177	165.037	169.609	169.629	174.319	289.402	173.539	-8191	255	
19633.693	1	1	0	0	0.2381	0.11094	0.098087	0.22105	0.06488	0.16603	0.141	0.20804	0.11107	0.27719	0.31981	0.10141	0.19726	0.21757	0.030531	0.24132	-2.2667	-2.1896	-2.8146	-2.6437	-2.1167	-2.7562	-2.2271	-2.7812	-2.6375	-2.1396	-2.8375	-2.3896	-2.225	-3.0062	-2.0521	-2.4604	429.390	424.782	328.108	474.018	160.590	507.383	458.634	456.922	330.456	259.598	444.196	405.128	501.663	462.651	283.484	164.851	0.00050801	0.00043804	4.9249e-05	1314.7	3.3527e-06	5.1927e-06	1316.3	353.98	3.1144e-06	7.013e-06	409.12	134.15	117.34	40.428	6.7463e-06	50.115	0.00089964	0.001184	0.00032997	1337.2	1.2217e-05	1.299e-05	1337.9	361.72	1.2254e-05	1.3272e-05	417.99	138.17	120.41	41.755	1.2877e-05	51.897	240.828	207.577	226.321	160.680	302.584	290.401	160.302	165.465	306.859	274.770	165.073	169.496	170.058	174.237	299.433	173.688	-8191	255	
19633.789	1	1	0	0	0.19507	0.12195	0.26849	0.15988	0.090443	0.063999	0.19331	0.096926	0.13625	0.046962	0.14838	0.055213	0.053844	0.43651	0.1438	0.084042	-2.0729	-1.8896	-2.6125	-2.5875	-2.2333	-2.8563	-2.4688	-2.5208	-2.6437	-2.1375	-2.7542	-2.4833	-2.1312	-2.7708	-2.1708	-2.4979	435.652	421.749	416.924	157.419	468.715	400.656	168.464	215.416	176.465	410.917	423.657	400.391	166.671	467.086	237.286	370.375	0.00053101	0.0006201	0.00019003	1316.6	5.0495e-06	4.7284e-06	1321.1	353.81	6.5511e-06	6.1002e-06	409.69	134.83	117.43	40.411	4.692e-06	50.31	0.00093142	0.0012329	0.00034291	1339.5	1.2661e-05	1.3304e-05	1340.3	361.49	1.2574e-05	1.392e-05	417.93	138.3	120.41	41.813	1.3254e-05	51.867	240.269	224.376	239.749	160.778	272.170	298.552	160.553	165.272	305.598	278.538	164.892	169.288	169.697	174.389	305.285	173.830	-8191	255	
19633.908	1	1	0	0	0.043966	0.24226	0.25486	0.51585	0.2542	0.22655	0.29745	0.14799	0.17127	0.13162	0.29919	0.14527	0.232	0.33863	0.17134	0.19268	-2.3458	-2.1354	-2.7958	-2.6417	-2.2125	-2.8812	-2.3604	-2.5187	-2.6937	-2.1604	-2.775	-2.6854	-2.1688	-2.9479	-2.2292	-2.4583	434.040	349.038	404.306	480.250	357.743	422.854	478.666	498.261	192.981	341.728	480.119	439.348	481.059	487.629	325.295	464.679	0.00053854	0.00057504	9.8715e-05	1317.2	5.9163e-06	3.7175e-06	1317.7	354.68	5.8553e-06	6.3166e-06	407.35	134.9	117.09	40.752	3.9056e-06	50.342	0.00094094	0.0012101	0.00033609	1338.8	1.277e-05	1.3454e-05	1337.7	361.51	1.2512e-05	1.3411e-05	417.43	138.3	120.38	41.83	1.2932e-05	51.895	240.814	218.800	240.021	160.698	313.368	262.945	160.616	165.431	309.132	300.024	165.093	169.503	169.871	174.609	303.095	173.645	-8191	255	
19634.004	1	1	0	0	0.10342	0.15483	0.055061	0.34317	0.13706	0.20726	0.30955	0.22027	0.17053	0.076279	0.050575	0.39732	0.36222	0.026707	0.11257	0.2338	-2.2667	-2.1437	-2.4146	-2.9396	-1.9104	-2.7917	-2.4896	-2.3167	-2.7646	-2.2188	-2.6562	-2.7125	-2.1083	-2.9833	-2.4646	-2.1667	348.764	293.052	415.055	486.592	155.855	451.353	443.596	454.506	330.054	273.252	496.379	506.995	467.090	191.172	412.744	469.975	0.0005338	0.00057971	0.00012878	1318.7	4.5072e-06	6.8163e-06	1319.1	354.37	5.7111e-06	5.3892e-06	407.79	134.69	117.56	40.362	3.2335e-06	50.194	0.00093346	0.001198	0.00034075	1338.7	1.2428e-05	1.3336e-05	1339.1	361.83	1.2488e-05	1.3062e-05	417.57	138.26	120.48	41.809	1.2945e-05	51.905	245.235	229.586	229.035	160.793	313.589	324.521	160.477	165.370	311.112	291.178	164.693	169.242	169.530	174.093	297.121	173.389	-8191	255	
19634.100	1	1	0	0	0.17304	0.015613	0.12674	0.23592	0.29553	0.10058	0.1335	0.0332	0.083711	0.11452	0.16118	0.38969	0.083767	0.011887	0.081833	0.31502	-2.3021	-2.2208	-2.3812	-2.7729	-2.1979	-2.8542	-2.625	-2.3125	-2.6208	-2.2167	-2.4729	-2.9521	-2.1604	-2.7562	-2.4417	-2.3229	331.291	148.372	381.941	441.794	387.560	252.559	401.055	426.229	147.488	306.862	449.839	462.137	441.788	227.036	437.031	411.560	0.00049922	0.00054149	0.00011266	1314.4	4.8754e-06	8.6637e-06	1316.7	353.82	5.2251e-06	2.7244e-06	406.69	134.86	117.67	40.59	8.4209e-06	50.45	0.0009136	0.0012145	0.00034372	1337.5	1.2679e-05	1.3443e-05	1338.9	361.68	1.2928e-05	1.3682e-05	416.84	138.38	120.67	41.864	1.3125e-05	51.936	240.848	220.633	238.084	160.607	308.618	313.761	160.494	165.265	313.315	333.631	164.721	169.337	169.806	174.411	295.418	173.256	-8191	255	
19634.195	1	1	0	0	0.29778	0.063787	0.25006	0.068466	0.033374	0.15379	0.22036	0.28877	0.15992	0.16496	0.15358	0.34333	0.2106	0.11193	0.2536	0.14009	-2.3979	-2.0104	-2.3458	-2.8625	-2.0167	-2.3833	-2.725	-2.2417	-2.8604	-2.3063	-2.3083	-2.8229	-2.0312	-2.6271	-2.5917	-2.0417	408.333	208.653	489.610	476.572	179.465	197.366	432.434	211.027	422.140	210.732	442.675	471.978	288.435	162.314	170.905	487.909	0.00053138	0.0006694	0.00017884	1315.2	4.2884e-06	3.9412e-06	1316.9	353.27	5.0207e-06	5.5944e-06	406.94	135.38	117.97	40.572	5.411e-06	50.229	0.00094601	0.0012389	0.0003481	1338	1.2751e-05	1.3564e-05	1338.5	361.47	1.2792e-05	1.3971e-05	416.45	138.34	120.69	41.824	1.326e-05	51.871	243.563	225.628	263.107	160.435	292.490	248.959	160.402	165.415	288.785	335.492	164.277	169.059	169.669	174.094	311.559	173.084	-8191	255	
19634.293	1	1	0	0	0.12116	0.44979	0.36395	0.27282	0.24911	0.11382	0.25561	0.26454	0.13719	0.11061	0.28656	0.24189	0.18936	0.17568	0.18625	0.2118	-2.4125	-2.1	-2.2812	-2.9625	-2.0396	-2.5979	-2.6437	-2.05	-2.7208	-2.4479	-2.3021	-2.8896	-2.2229	-2.4938	-2.4667	-2.0417	184.459	477.430	158.659	495.140	286.923	189.870	151.133	456.426	429.559	307.310	468.355	439.709	169.317	450.105	203.222	496.875	0.00051045	0.00042064	0.00023703	1320.5	4.4917e-06	4.0749e-06	1321.4	354.47	5.1658e-06	6.2078e-06	407.31	134.77	117.11	40.413	5.1489e-06	50.204	0.0009424	0.0012667	0.00034906	1340.1	1.2849e-05	1.3448e-05	1339.3	362.05	1.2585e-05	1.36e-05	416.72	138.49	120.33	41.749	1.2702e-05	51.884	239.432	252.691	247.841	160.518	311.883	313.436	160.359	165.197	271.079	296.273	164.548	169.213	169.872	173.944	317.582	173.261	-8191	255	
19634.389	1	1	0	0	0.10843	0.064475	0.15285	0.12353	0.12355	0.15451	0.11678	0.090678	0.15138	0.3092	0.2981	0.13011	0.2926	0.10177	0.21761	0.14822	-2.2687	-2.2146	-2.1771	-3.1021	-2.2229	-2.3104	-2.8646	-2.1417	-2.5458	-2.4396	-2.0187	-2.8917	-2.3208	-2.4333	-2.7	-2.1521	450.079	322.535	161.060	447.513	430.141	478.893	314.150	190.688	452.215	165.888	496.446	171.848	164.381	153.786	162.114	460.482	0.00049247	0.00048898	0.00015859	1317	4.0215e-06	6.4565e-06	1317.1	354.21	4.0874e-06	7.6543e-06	408.41	134.43	117.17	40.494	5.2149e-06	50.333	0.00093324	0.0012123	0.00033893	1338	1.2604e-05	1.3563e-05	1338.2	361.72	1.2744e-05	1.3519e-05	416.99	138.25	120.41	41.781	1.3141e-05	51.925	243.733	245.665	251.301	160.532	313.162	299.450	160.585	165.483	297.952	294.074	164.627	169.336	169.758	174.188	313.192	173.370	-8191	255	
19634.484	1	1	0	0	0.1881	0.15031	0.24532	0.23015	0.27199	0.40901	0.19899	0.11965	0.22341	0.18931	0.25937	0.34695	0.26557	0.28674	0.15832	0.64685	-1.9979	-2.6229	-1.8583	-2.8563	-2.0729	-2.2125	-2.7792	-2.1063	-2.4354	-2.6146	-2.0583	-2.7604	-2.4813	-2.2167	-2.7583	-2.2167	211.479	491.201	309.816	458.257	363.264	150.335	449.548	501.517	183.087	405.304	460.703	436.540	498.208	351.263	423.580	425.465	0.00050617	0.00037458	9.4359e-05	1316.4	5.0508e-06	7.9032e-06	1319	353.02	4.5026e-06	2.6916e-06	408.96	134.6	117.07	40.424	5.6965e-06	50.37	0.00094249	0.0012426	0.00034443	1338.5	1.2636e-05	1.3405e-05	1340.6	361.29	1.2715e-05	1.3447e-05	417.28	138.38	120.21	41.77	1.2804e-05	51.865	242.231	218.150	238.350	160.580	291.913	275.920	160.296	165.364	291.958	263.643	164.634	169.428	169.958	174.113	317.983	173.223	-8191	255	
19634.605	1	1	0	0	0.27248	0.058655	0.24216	0.23665	0.25651	0.030372	0.14882	0.13131	0.09645	0.054683	0.057275	0.17028	0.11097	0.21427	0.11604	0.052101	-1.7521	-2.5833	-2.0229	-2.8937	-2.3604	-2.2583	-3.0667	-2.35	-2.5625	-2.6771	-2.1479	-2.65	-2.4229	-2.1437	-2.7167	-2.2708	329.783	459.497	469.679	206.868	185.551	173.854	476.853	306.895	197.394	328.878	192.684	184.151	448.647	204.707	422.649	466.380	0.0005115	0.00055349	0.00012995	1317.6	4.8825e-06	6.2317e-06	1319.5	353.73	5.1228e-06	4.9111e-06	406.88	134.93	116.86	40.365	5.8991e-06	50.257	0.00093251	0.0012177	0.00034145	1338.3	1.2505e-05	1.3466e-05	1339.5	361.8	1.2554e-05	1.3111e-05	416.99	138.35	120.44	41.684	1.2774e-05	51.916	241.070	225.889	266.360	160.496	293.369	308.426	160.347	165.345	285.912	292.503	164.717	169.218	170.025	174.256	293.987	173.547	-8191	255	
19634.701	1	1	0	0	0.11848	0.17723	0.17288	0.48015	0.19829	0.23519	0.35376	0.53627	0.17145	0.19877	0.12532	0.18279	0.17491	0.37189	0.081497	0.3093	-1.9354	-2.6917	-2.2313	-2.8021	-2.3521	-2.0146	-3.0083	-2.3083	-2.1042	-2.8083	-2.125	-2.5104	-2.5417	-2.1729	-2.7729	-2.1958	275.356	179.771	459.718	457.087	177.326	248.832	447.152	428.476	165.469	501.562	394.029	473.764	179.922	503.658	463.005	424.254	0.00049624	0.00068576	0.00013556	1311.7	4.2466e-06	6.7223e-06	1317.7	353.11	4.3579e-06	4.1962e-06	408.76	134.5	117.28	40.432	6.8611e-06	49.838	0.00091531	0.001199	0.00033555	1336.3	1.2499e-05	1.3382e-05	1337.8	361.19	1.2516e-05	1.3412e-05	417.28	138.2	120.27	41.76	1.2734e-05	51.788	243.034	237.851	245.542	160.475	306.644	310.952	160.584	165.294	324.887	264.131	164.887	169.212	170.070	174.192	292.504	173.539	-8191	255	
19634.797	1	1	0	0	0.11359	0.06139	0.27171	0.17831	0.14777	0.10232	0.22562	0.24153	0.124	0.34802	0.13822	0.2729	0.095586	0.082087	0.12799	0.15941	-1.8979	-2.7938	-2.0167	-2.6896	-2.6083	-2.1083	-2.8667	-2.4979	-2.3042	-2.7979	-2.2771	-2.575	-2.6125	-2.0354	-2.9604	-2.55	256.038	384.502	333.897	488.684	203.738	313.151	479.808	495.681	328.545	344.359	277.031	451.674	499.924	491.907	199.170	172.971	0.0005266	0.00030665	0.00017385	1315.7	4.3563e-06	8.0516e-06	1318.8	353.97	5.4781e-06	6.9536e-06	405.97	135.4	117.08	40.405	6.0997e-06	50.026	0.00093335	0.0012218	0.00033269	1336.8	1.2468e-05	1.3281e-05	1337.6	361.3	1.2592e-05	1.3227e-05	416.24	138.3	120.39	41.771	1.2685e-05	51.787	244.012	245.148	238.078	160.556	303.424	314.413	160.346	165.399	316.394	285.771	164.801	169.199	169.720	174.388	286.601	173.355	-8191	255	
19634.895	1	1	0	0	0.052386	0.10158	0.085596	0.11123	0.03023	0.015529	0.38301	0.032335	0.14016	0.24656	0.19082	0.26359	0.039465	0.21303	0.16291	0.086659	-1.6271	-2.7812	-2.0292	-2.3812	-2.6104	-1.9021	-2.8625	-2.5438	-2.1521	-2.8208	-2.1458	-2.4333	-2.7958	-2.1625	-2.7229	-2.6437	484.351	274.983	305.598	481.364	377.006	278.742	501.103	431.931	372.066	313.296	374.936	503.085	451.164	481.042	197.528	451.544	0.00049355	0.00066707	0.00017616	1314.2	5.4527e-06	4.073e-06	1319.8	352.4	4.6742e-06	3.8191e-06	408.32	133.92	116.73	40.559	3.8659e-06	50.109	0.00091401	0.001178	0.00033433	1336	1.1957e-05	1.3264e-05	1338.8	360.51	1.2408e-05	1.296e-05	416.57	138.08	120.3	41.745	1.2664e-05	51.847	239.986	260.434	267.325	160.526	310.761	313.848	160.305	165.415	286.066	263.004	164.678	169.318	169.775	174.331	284.105	173.512	-8191	255	
19634.988	1	1	0	0	0.11612	0.11586	0.18059	0.18559	0.20145	0.22443	0.10729	0.14479	0.070566	0.018887	0.19055	0.15608	0.20824	0.08381	0.13762	0.23113	-1.8438	-2.7	-2.0167	-2.3937	-2.75	-1.975	-2.65	-2.5229	-1.9854	-2.7396	-2.4417	-2.4208	-2.7854	-2.2583	-2.6083	-2.7146	319.646	462.883	183.128	480.984	178.959	181.948	186.094	410.613	280.184	168.852	410.954	184.382	507.012	408.790	151.853	178.129	0.00050757	0.00053935	0.00013736	1318.1	4.5142e-06	5.0053e-06	1315.8	353.05	5.1801e-06	2.9288e-06	408.7	133.97	117.25	40.408	4.54e-06	50.06	0.00092847	0.0011956	0.00033214	1337.1	1.2302e-05	1.356e-05	1338.1	360.96	1.249e-05	1.346e-05	416.84	138.12	120.23	41.75	1.2627e-05	51.85	241.623	236.617	203.775	160.651	300.588	317.804	160.676	165.499	307.959	262.454	164.894	169.198	169.973	174.397	308.212	173.443	-8191	255	
19635.084	1	1	0	0	0.10738	0.10877	0.1507	0.39361	0.080538	0.30307	0.20729	0.026653	0.20503	0.13046	0.19306	0.23652	0.11875	0.32704	0.24751	0.35283	-1.5854	-2.5479	-2.1083	-2.3646	-2.7667	-2.0312	-2.7833	-2.7896	-1.8417	-2.6188	-2.4917	-2.2083	-2.7812	-2.0708	-2.4104	-2.8958	454.220	376.274	339.088	470.449	392.492	196.473	411.383	301.888	376.908	304.937	361.792	222.497	446.635	505.679	177.750	472.492	0.00051236	0.00020251	0.00012414	1313	4.6571e-06	4.9391e-06	1314.5	352.05	6.4006e-06	5.4764e-06	406.63	134.33	117.03	40.388	3.6763e-06	50.148	0.00091808	0.0011748	0.00033745	1337.1	1.2351e-05	1.3239e-05	1336.8	361.05	1.2393e-05	1.3354e-05	416.14	138.08	120.4	41.656	1.274e-05	51.779	240.853	233.474	259.728	160.517	295.482	304.869	160.527	165.425	307.315	306.148	165.088	169.060	169.894	174.318	287.472	173.759	-8191	255	
19635.205	1	1	0	0	0.23476	0.2655	0.07016	0.18779	0.15592	0.057277	0.13897	0.3512	0.13818	0.08907	0.12828	0.099711	0.23044	0.13323	0.20392	0.21712	-1.6729	-2.5187	-2.1354	-2.3	-2.7479	-2.2	-2.5208	-2.675	-1.9917	-2.6333	-2.6021	-2.1271	-2.825	-2.2854	-2.3167	-2.7333	422.713	188.691	412.424	153.012	440.798	441.524	458.549	407.886	319.983	404.550	336.464	246.260	375.972	408.141	300.085	380.441	0.00047169	0.00050188	0.00015897	1316.9	6.4022e-06	4.9847e-06	1313.2	353.81	4.2798e-06	2.1158e-06	403.38	134.51	117.32	40.286	4.8878e-06	50.193	0.00091623	0.0011824	0.00033461	1337.1	1.2319e-05	1.2931e-05	1337	360.74	1.2365e-05	1.3041e-05	415.33	138.04	120.33	41.679	1.2663e-05	51.834	242.539	234.833	225.087	160.350	331.755	305.388	160.345	165.383	294.709	311.435	165.013	168.680	168.774	172.913	285.659	172.442	-8191	255	
19635.301	1	1	0	0	0.19772	0.085392	0.12677	0.40755	0.25177	0.1724	0.24149	0.29567	0.18009	0.17099	0.33797	0.030619	0.25437	0.16655	0.15036	0.20267	-1.6042	-2.5604	-2.5271	-2.3833	-2.7646	-2.4708	-2.4021	-2.6708	-2.0625	-2.7021	-2.6271	-1.9521	-2.9292	-2.3	-2.1813	-2.9021	348.440	475.562	364.203	444.557	189.435	258.837	439.638	466.110	420.896	183.567	155.799	496.940	459.639	174.448	495.037	383.424	0.00046871	0.00053132	0.00012517	1312.3	3.7022e-06	5.6579e-06	1312.1	351.84	3.8082e-06	3.6729e-06	405.98	134.42	117.52	40.41	4.6518e-06	50.226	0.00090636	0.0012038	0.0003246	1335.7	1.2196e-05	1.3095e-05	1337.1	361.1	1.2328e-05	1.2814e-05	416.13	138.19	120.29	41.672	1.2491e-05	51.87	242.173	218.870	254.974	159.219	293.793	322.714	159.085	164.265	292.261	320.886	163.619	168.134	168.724	173.376	279.834	172.902	-8191	255	
19635.396	1	1	0	0	0.11664	0.025588	0.19082	0.17112	0.071966	0.069852	0.095278	0.14067	0.31033	0.19404	0.13737	0.16473	0.1304	0.28231	0.056321	0.21822	-1.8375	-2.3854	-2.6708	-2.1813	-2.6875	-2.5167	-2.4	-2.7333	-2.0667	-2.2875	-2.5583	-2.0667	-2.65	-2.3771	-2.2396	-2.9333	240.206	193.030	424.610	401.382	236.808	427.705	266.311	170.695	265.055	155.730	370.069	169.791	348.646	453.816	259.389	314.860	0.00050441	0.00040685	0.00011807	1310.9	4.3254e-06	5.6887e-06	1313.6	352.6	3.2082e-06	6.7091e-06	405.54	134.77	116.83	40.31	4.636e-06	50.152	0.00091209	0.0011794	0.0003228	1336	1.2274e-05	1.2776e-05	1335.8	360.56	1.2375e-05	1.3121e-05	415.86	138.22	120.4	41.656	1.2502e-05	51.796	238.168	243.431	244.478	159.941	294.378	303.036	159.863	164.862	309.671	296.548	164.132	168.386	169.077	173.663	272.073	172.990	-8191	255	
19635.469	1	1	0	0	0.2651	0.20365	0.16104	0.32745	0.43273	0.16496	0.17999	0.14248	0.06748	0.30545	0.18865	0.11773	0.18856	0.31001	0.13299	0.20269	-1.6875	-2.1521	-2.6	-2.0521	-2.5479	-2.4562	-2.1625	-2.9062	-2.0833	-2.2896	-2.8125	-2.1	-2.4021	-2.5667	-2.175	-2.9521	370.411	360.438	435.768	452.060	186.294	312.660	390.568	496.055	435.070	357.976	436.802	457.396	159.501	504.430	352.043	373.339	0.00050409	0.00041799	8.3037e-05	1313.7	5.337e-06	4.3089e-06	1312.4	352.67	4.2135e-06	5.3705e-06	407.35	134.16	117.02	40.374	5.3668e-06	49.855	0.00089397	0.0011588	0.00032189	1336.4	1.2049e-05	1.2956e-05	1335.3	360.39	1.2305e-05	1.2856e-05	415.57	137.82	120.27	41.722	1.2436e-05	51.712	243.386	236.093	253.337	159.847	289.181	305.865	159.636	164.549	314.172	291.501	164.196	168.550	169.048	173.631	271.297	172.681	-8191	255	
19635.590	1	1	0	0	0.14442	0.033468	0.18669	0.1152	0.25631	0.20062	0.28043	0.22923	0.035983	0.16166	0.21542	0.13471	0.1714	0.028668	0.15751	0.12867	-1.7958	-2.3292	-2.6354	-2.2667	-2.4375	-2.575	-2.2958	-2.9083	-2.1667	-2.2708	-2.8667	-2.1271	-2.5104	-2.7542	-1.9458	-2.8521	490.203	424.998	238.662	472.741	282.201	467.095	166.124	198.777	485.814	431.551	177.278	358.429	382.340	441.969	330.485	171.952	0.00051007	0.00048707	0.00012901	1307.1	4.2635e-06	6.0405e-06	1313	352.14	5.3096e-06	4.4375e-06	404.4	134.7	116.67	40.28	4.692e-06	50.345	0.00090731	0.0011683	0.0003235	1333.5	1.2248e-05	1.3024e-05	1335.4	361.01	1.2135e-05	1.3137e-05	415.14	138.13	120.23	41.705	1.2463e-05	51.842	239.533	221.158	242.771	159.699	308.584	296.721	159.610	164.675	304.564	299.372	163.965	168.665	169.124	173.715	318.647	173.044	-8191	255	
19635.686	1	1	0	0	0.24616	0.28849	0.14686	0.40483	0.22603	0.19416	0.24354	0.067253	0.17823	0.19848	0.11949	0.013162	0.14332	0.11971	0.1785	0.22002	-1.8687	-2.1042	-2.8458	-2.4104	-2.4958	-2.6208	-2.075	-2.7354	-2.3104	-2.0167	-2.8917	-2.2042	-2.3896	-2.9271	-2.0042	-2.7542	373.363	455.710	307.995	454.630	377.253	381.110	462.979	359.810	466.974	252.420	160.534	323.980	456.567	169.997	322.371	471.547	0.00051062	0.00060405	0.00012228	1310.3	2.9956e-06	5.3597e-06	1313.1	352.25	5.2645e-06	6.3275e-06	404.6	134.5	117.33	40.256	6.8753e-06	50.186	0.00090544	0.0011647	0.00031933	1334.2	1.2037e-05	1.2939e-05	1335.2	360.49	1.2088e-05	1.3093e-05	415.25	137.92	120.18	41.629	1.255e-05	51.806	241.952	211.648	219.280	159.575	312.765	300.544	159.678	164.566	308.182	304.464	164.176	168.947	169.235	173.882	297.268	173.323	-8191	255	
19635.781	1	1	0	0	0.13953	0.19222	0.16446	0.16425	0.11929	0.038991	0.27056	0.06812	0.27647	0.2231	0.103	0.22827	0.18741	0.10783	0.10224	0.20357	-1.9729	-2.1542	-2.7188	-2.5312	-2.1333	-2.7979	-2.3021	-2.7208	-2.4729	-1.9583	-3.0104	-2.5875	-2.1917	-2.9271	-2.1979	-2.675	391.953	435.209	494.858	488.830	234.223	182.523	458.191	354.554	436.596	466.046	447.435	471.112	464.700	486.337	488.727	234.301	0.00050942	0.00055369	8.7948e-05	1316.9	4.545e-06	4.1724e-06	1309	352.69	4.175e-06	5.0407e-06	408.32	134.57	116.71	40.256	4.6225e-06	50.268	0.00090108	0.0011736	0.0003201	1334.1	1.1817e-05	1.2427e-05	1332.2	359.84	1.1688e-05	1.2526e-05	416.05	137.88	119.81	41.604	1.2125e-05	51.799	241.998	240.143	259.428	161.016	288.718	318.928	160.764	165.564	286.626	323.090	165.025	169.872	170.215	174.480	294.092	173.681	-8191	255	
19635.879	1	1	0	0	0.090487	0.18582	0.077291	0.12665	0.13073	0.059752	0.40715	0.041827	0.067326	0.12056	0.047992	0.23049	0.060155	0.24582	0.21456	0.1797	-2.2646	-2.225	-2.7313	-2.6958	-2.25	-2.7854	-2.3604	-2.6979	-2.7542	-2.1729	-2.8375	-2.5208	-2.1625	-2.9125	-2.0333	-2.4458	152.494	157.723	457.331	461.021	148.755	163.640	459.487	397.766	424.819	309.767	317.354	149.242	482.582	202.054	371.439	504.628	0.00050911	0.00058972	0.0001099	1315	5.5811e-06	5.6696e-06	1312.7	352.16	5.9526e-06	3.9615e-06	406.54	134.71	116.49	40.343	2.7788e-06	50.147	0.00087596	0.0011435	0.00031747	1331.8	1.1868e-05	1.253e-05	1332.4	360.06	1.1649e-05	1.257e-05	415.89	137.74	119.98	41.662	1.2267e-05	51.784	244.021	220.894	221.396	161.000	296.063	305.482	160.792	165.572	316.116	286.596	164.989	169.545	169.779	174.684	336.823	173.734	-8191	255	
19635.996	1	1	0	0	0.027167	0.2027	0.26502	0.049858	0.072259	0.21724	0.086456	0.2073	0.21186	0.14675	0.20777	0.18877	0.17497	0.22554	0.23804	0.11581	-2.1625	-1.8125	-2.6375	-2.5083	-2.1958	-2.75	-2.4625	-2.575	-2.8229	-1.9333	-2.7292	-2.7375	-2.1292	-2.9333	-2.1229	-2.3917	401.961	463.773	422.966	198.851	353.761	315.705	414.047	474.443	273.544	356.756	202.073	460.094	237.205	265.039	365.944	470.097	0.00052773	0.00037821	0.00018666	1313.9	5.5147e-06	6.2459e-06	1313.9	351.01	4.897e-06	1.3658e-06	407.85	134.49	116.54	40.354	5.538e-06	50.01	0.00088491	0.0011552	0.00031697	1332.7	1.1832e-05	1.247e-05	1332.6	359.78	1.1623e-05	1.2495e-05	415.56	137.8	119.87	41.627	1.216e-05	51.684	245.728	238.111	221.649	160.871	292.197	286.436	160.882	166.016	299.960	274.013	165.212	169.682	170.214	174.920	304.051	174.013	-8191	255	
19636.094	1	1	0	0	0.14613	0.20098	0.16957	0.12928	0.16221	0.10373	0.24198	0.27233	0.38521	0.14869	0.15337	0.26723	0.298	0.073749	0.069947	0.13954	-2.4896	-2.15	-2.6042	-2.8104	-2.1562	-2.9125	-2.5583	-2.5396	-2.6083	-2.0396	-2.7521	-2.7083	-2.2125	-2.7917	-2.3375	-2.2229	360.790	453.856	164.683	449.089	434.939	415.331	462.989	505.303	237.509	332.606	429.687	148.702	235.895	163.801	162.580	470.569	0.0005022	0.00049434	5.6544e-05	1312.2	5.3738e-06	4.6217e-06	1310.9	352.24	6.1192e-06	4.0821e-06	406.14	134.19	116.94	40.369	6.6772e-06	50.353	0.00086889	0.0011271	0.00031603	1332.2	1.1773e-05	1.2382e-05	1331.7	359.82	1.1518e-05	1.2197e-05	414.91	137.56	119.85	41.666	1.22e-05	51.776	240.936	216.776	247.266	161.154	302.550	248.869	160.777	165.907	302.723	291.287	165.221	169.876	170.233	174.953	303.442	173.839	-8191	255	
19636.166	1	1	0	0	0.16384	0.069983	0.17074	0.24799	0.18105	0.075163	0.38051	0.21708	0.22299	0.072408	0.054427	0.29224	0.13263	0.17246	0.033074	0.29928	-2.3625	-1.9167	-2.4729	-2.7792	-2.1917	-2.7062	-2.5208	-2.3021	-2.7625	-1.9542	-2.6167	-2.6708	-2.1104	-2.7521	-2.3104	-2.3146	419.225	179.927	291.966	193.710	233.398	281.679	457.741	483.169	335.441	265.345	391.858	444.965	320.203	478.179	337.281	457.734	0.00048923	0.00042463	0.00012279	1315	4.8009e-06	4.9107e-06	1314.2	351.67	4.3878e-06	2.8883e-06	405.83	134.54	116.67	40.208	5.7582e-06	49.806	0.00087621	0.0011376	0.0003185	1333	1.1973e-05	1.2389e-05	1330.5	359.01	1.1684e-05	1.2505e-05	415.25	137.72	119.78	41.56	1.206e-05	51.631	243.116	276.475	257.776	160.969	297.365	302.286	160.951	165.924	292.128	285.650	164.885	169.805	169.905	174.670	305.239	173.789	-8191	255	
19636.285	1	1	0	0	0.22874	0.30879	0.23949	0.30516	0.065338	0.27881	0.24692	0.17467	0.16884	0.34137	0.065204	0.20658	0.21417	0.20535	0.056868	0.22599	-2.1479	-2.0896	-2.3312	-2.8542	-2.1875	-2.55	-2.5771	-2.2	-2.7625	-2.3167	-2.3604	-2.8812	-1.95	-2.5708	-2.5625	-2.2146	443.578	164.491	340.493	459.449	353.855	216.005	471.007	454.398	468.064	255.862	166.076	206.023	437.543	150.787	385.410	371.232	0.00052645	0.00035348	0.00015221	1308.4	6.8705e-06	5.3309e-06	1313.1	352.26	7.4115e-06	5.216e-06	406.01	134.34	116.61	40.326	3.6659e-06	50.106	0.00087556	0.0011372	0.0003103	1329.3	1.1631e-05	1.2353e-05	1330.3	359.54	1.1744e-05	1.2549e-05	414.41	137.61	119.8	41.614	1.1912e-05	51.661	243.287	219.711	246.115	161.098	291.563	291.716	160.941	165.720	303.544	308.487	165.114	169.809	170.328	175.001	264.148	173.555	-8191	255	
19636.381	1	1	0	0	0.21129	0.17941	0.044043	0.04922	0.088164	0.21453	0.22261	0.18383	0.095609	0.18618	0.25043	0.12374	0.19832	0.04435	0.21437	0.095302	-2.325	-2.0958	-2.1604	-2.9208	-2.0833	-2.6708	-2.8458	-2.2083	-2.6125	-2.2896	-2.225	-2.6312	-2.2771	-2.5792	-2.6625	-2.1167	430.191	177.732	444.501	195.999	490.062	500.261	484.957	494.761	319.271	420.042	462.740	463.826	273.760	384.477	203.393	441.569	0.00048544	0.00036903	0.00013044	1310.8	4.3148e-06	7.5606e-06	1307.5	351.9	5.4905e-06	5.6203e-06	405.27	134.47	116.51	40.472	3.9994e-06	49.946	0.00088364	0.0011287	0.0003099	1331	1.1506e-05	1.2412e-05	1329	359.02	1.1327e-05	1.1933e-05	414.42	137.61	119.9	41.611	1.1657e-05	51.675	241.735	221.279	237.939	160.785	285.547	296.516	160.643	165.701	299.441	297.224	164.982	169.498	169.922	174.374	290.116	173.654	-8191	255	
19636.477	1	1	0	0	0.078887	0.10746	0.068814	0.033468	0.081376	0.12003	0.14996	0.02761	0.12355	0.15726	0.12391	0.25045	0.087462	0.13685	0.058704	0.1696	-2.4021	-2.1146	-1.9896	-2.9458	-1.9083	-2.3125	-2.7583	-2.1312	-2.7438	-2.4437	-2.2333	-2.8333	-2.125	-2.325	-2.6813	-2.2083	461.859	425.405	333.236	348.619	387.590	442.650	279.159	377.550	213.137	444.119	381.465	398.254	436.651	495.340	151.010	401.048	0.000505	0.00049514	0.00010311	1307.2	5.7918e-06	6.1873e-06	1304.8	350.49	4.3705e-06	5.2269e-06	403.23	134.43	117.2	40.258	5.9661e-06	49.992	0.00086498	0.0011163	0.00030844	1329.5	1.1612e-05	1.2417e-05	1325.8	359.11	1.1559e-05	1.2307e-05	413.65	137.49	119.95	41.57	1.1472e-05	51.597	240.431	253.212	246.526	160.896	292.762	314.357	160.659	165.573	301.793	307.811	165.213	169.599	170.192	174.660	301.899	173.801	-8191	255	
19636.574	1	1	0	0	0.35177	0.10596	0.13356	0.25664	0.013568	0.14089	0.12536	0.15199	0.25251	0.17436	0.21975	0.092441	0.084027	0.37957	0.19903	0.092924	-2.3479	-2.4	-1.9396	-3.0417	-2.3854	-2.4625	-2.9979	-2.2313	-2.6229	-2.4979	-1.9896	-2.8979	-2.325	-2.3	-2.7354	-2.1896	415.106	245.135	371.536	150.186	309.963	405.587	429.050	505.979	236.003	429.948	165.748	260.420	351.027	459.004	151.622	395.188	0.00050997	0.00054444	0.00015981	1305.4	2.6205e-06	5.7571e-06	1305.3	351.71	5.9402e-06	4.3647e-06	403.55	133.44	116.53	40.196	4.6815e-06	50.11	0.00087634	0.0011014	0.00030298	1327.2	1.1287e-05	1.2185e-05	1326.8	358.66	1.1396e-05	1.1868e-05	413.76	137.25	119.56	41.554	1.1561e-05	51.625	243.244	246.589	237.899	160.868	281.066	318.254	160.762	165.785	303.043	297.510	165.217	169.675	170.150	174.646	299.936	173.799	-8191	255	
19636.693	1	1	0	0	0.13362	0.02154	0.19419	0.29212	0.47759	0.16384	0.21125	0.16438	0.015016	0.067351	0.052899	0.15005	0.11275	0.047082	0.089491	0.5119	-2.0354	-2.5458	-2.0375	-2.8042	-2.3854	-2.1	-2.9521	-2.0333	-2.3604	-2.7896	-2.1167	-2.6708	-2.4854	-2.2562	-2.6854	-2.2417	321.455	213.838	430.263	147.857	339.415	414.642	448.675	487.310	470.108	315.840	310.593	365.406	425.608	382.686	323.575	459.603	0.0004944	0.00028813	0.000145	1308.1	5.3125e-06	5.7708e-06	1305.8	351.15	6.6084e-06	7.4904e-06	405.37	134.36	116.45	40.234	3.934e-06	49.816	0.00086607	0.0010724	0.00030732	1327.6	1.137e-05	1.2269e-05	1327.8	358.67	1.1632e-05	1.2322e-05	414.57	137.47	119.61	41.589	1.1968e-05	51.597	241.871	256.454	238.527	160.793	309.746	285.854	160.695	165.736	296.639	309.422	164.938	169.316	170.030	174.516	328.165	173.633	-8191	255	
19636.766	1	1	0	0	0.12727	0.15448	0.3743	0.58157	0.065869	0.1551	0.32305	0.35343	0.13454	0.43205	0.20117	0.15189	0.12088	0.057867	0.26479	0.11245	-2.0438	-2.5563	-2.0542	-2.8458	-2.3	-2.1729	-2.9104	-2.3396	-2.4229	-2.825	-2.2042	-2.7667	-2.5625	-2.0771	-2.8937	-2.2875	442.411	317.475	391.752	479.568	187.802	166.005	409.370	439.632	150.421	469.658	500.339	464.756	488.634	355.606	497.183	204.317	0.00050651	0.00072579	0.00014349	1308.3	4.8332e-06	4.2094e-06	1305.6	350.38	4.0926e-06	7.3321e-06	403.33	133.95	116.99	40.364	6.0045e-06	50.077	0.00088128	0.0011187	0.0003106	1329.3	1.1606e-05	1.2461e-05	1327.2	358.53	1.143e-05	1.1891e-05	413.02	137.42	119.65	41.61	1.1897e-05	51.615	244.178	234.547	259.729	160.701	319.576	278.541	160.817	165.629	283.838	305.765	164.779	169.521	170.000	174.671	318.832	173.573	-8191	255	
19636.887	1	1	0	0	0.17374	0.20834	0.2029	0.29346	0.12461	0.046291	0.30925	0.049778	0.35421	0.16497	0.17205	0.15387	0.14478	0.10556	0.12428	0.13362	-1.9688	-2.6354	-2.0687	-2.8375	-2.5687	-2.1958	-2.975	-2.4	-2.3312	-2.7167	-2.2375	-2.6854	-2.6042	-2.0729	-2.7646	-2.3604	219.117	227.971	266.691	463.122	178.736	236.641	444.585	320.251	350.452	210.164	441.614	445.988	438.297	467.311	259.463	180.640	0.00051946	0.00041133	0.0001819	1307.9	4.8908e-06	6.1874e-06	1305	351.89	4.3125e-06	5.8541e-06	405.99	134.19	117.13	40.248	7.0042e-06	50.109	0.00088456	0.0011144	0.00031316	1328.4	1.1589e-05	1.2419e-05	1326	358.85	1.1599e-05	1.1965e-05	414.55	137.33	119.88	41.55	1.1752e-05	51.597	242.511	264.305	232.151	160.740	290.983	340.397	160.673	165.528	305.470	304.288	165.048	169.457	170.053	174.597	300.629	173.686	-8191	255	
19636.982	1	1	0	0	0.36531	0.083519	0.13615	0.19911	0.083264	0.11947	0.34748	0.27828	0.20726	0.12519	0.20873	0.090423	0.13608	0.14665	0.039138	0.20552	-1.7146	-2.8771	-2.1937	-2.6625	-2.6917	-2.0625	-2.9917	-2.5083	-2.0396	-2.8229	-2.2583	-2.525	-2.7	-2.1479	-2.6396	-2.3583	449.623	245.288	354.825	213.731	168.574	342.614	425.023	441.068	171.351	387.534	429.811	439.847	199.319	428.896	181.116	478.571	0.00049294	0.00048749	0.00018215	1309.2	4.3568e-06	4.9224e-06	1307.1	351.28	5.1136e-06	5.0074e-06	404.54	133.96	116.1	40.271	4.7723e-06	50.013	0.00087206	0.0011006	0.00030835	1329	1.1313e-05	1.2328e-05	1327	358.34	1.1433e-05	1.1885e-05	413.96	137.27	119.73	41.534	1.2001e-05	51.578	241.539	247.286	249.219	160.781	283.331	294.656	160.783	165.683	302.140	279.458	165.240	169.434	170.183	174.449	289.538	173.516	-8191	255	
19637.076	1	1	0	0	0.26937	0.18727	0.26995	0.23499	0.13137	0.21509	0.18567	0.067848	0.24457	0.088329	0.091062	0.17445	0.20707	0.27041	0.17326	0.24407	-1.875	-2.775	-2.1042	-2.5042	-2.7062	-2.1375	-2.8396	-2.6667	-2	-2.8167	-2.2562	-2.4833	-2.7375	-2.1958	-2.5542	-2.7667	396.155	476.425	205.170	212.723	366.438	279.567	206.321	490.748	380.225	366.907	158.570	492.019	235.533	401.522	424.166	491.578	0.00049492	0.00041192	0.00013263	1309.6	4.5126e-06	4.4429e-06	1305.9	351.42	6.1931e-06	4.384e-06	404.55	134.32	116.44	40.199	8.8495e-06	50.145	0.00086436	0.0011141	0.00031411	1328.5	1.1942e-05	1.2712e-05	1327.7	358.62	1.1864e-05	1.2895e-05	414.18	137.64	119.7	41.526	1.2626e-05	51.702	238.945	238.748	237.555	160.823	313.413	293.774	160.537	165.795	323.379	288.369	165.038	169.288	169.918	174.579	309.661	174.068	-8191	255	
19637.174	1	1	0	0	0.13254	0.077263	0.18819	0.46529	0.11945	0.21991	0.40742	0.10847	0.13203	0.048884	0.11223	0.10966	0.16203	0.222	0.11468	0.019282	-1.6938	-2.6771	-2.2646	-2.4604	-3.0208	-2.0687	-2.6729	-2.8	-1.95	-2.8146	-2.4479	-2.2646	-2.7625	-2.1604	-2.5375	-2.7229	221.197	153.038	480.915	160.081	434.779	427.509	454.269	406.721	170.277	374.126	168.454	294.195	497.406	411.577	255.191	218.519	0.00049437	0.00067021	0.00010905	1314.2	5.1179e-06	6.1087e-06	1308.5	352.47	3.012e-06	7.1233e-06	404.62	133.52	116.36	40.256	5.216e-06	50.248	0.00091987	0.0011832	0.00032747	1331.7	1.2068e-05	1.2609e-05	1330.6	359.12	1.1682e-05	1.2729e-05	414.35	137.37	119.61	41.533	1.239e-05	51.702	241.955	239.771	249.139	160.708	300.255	302.567	160.730	165.894	323.143	285.587	165.124	169.515	170.279	174.376	305.220	173.899	-8191	255	
19637.295	1	1	0	0	0.32851	0.05593	0.20704	0.1906	0.20064	0.10126	0.24622	0.22411	0.1769	0.17806	0.059807	0.11213	0.12538	0.18777	0.051377	0.18788	-1.55	-2.775	-2.4333	-2.4938	-2.9104	-2.0708	-2.65	-2.8354	-1.9771	-2.5708	-2.6333	-2.3292	-2.7021	-2.2583	-2.4958	-2.8875	486.701	180.066	156.456	383.992	464.783	297.985	150.117	148.366	223.154	362.890	255.569	318.116	507.312	503.524	228.612	189.136	0.00046029	0.0005957	0.00014679	1307.7	3.2518e-06	4.4861e-06	1313.2	350.89	4.3627e-06	6.743e-06	406.38	134.08	116.82	40.307	6.324e-06	50.242	0.00089302	0.0011664	0.00032149	1329.7	1.1625e-05	1.2362e-05	1331.2	358.84	1.1844e-05	1.2172e-05	414.47	137.3	119.6	41.598	1.1906e-05	51.715	239.923	245.687	223.429	160.854	265.610	301.622	160.603	165.807	291.065	321.145	165.190	169.286	169.989	174.579	292.425	173.866	-8191	255	
19637.391	1	1	0	0	0.10895	0.26862	0.158	0.093834	0.0724	0.11316	0.12524	0.10787	0.29178	0.29007	0.15591	0.26185	0.11813	0.07579	0.19725	0.25161	-1.7146	-2.775	-2.5458	-2.45	-2.7812	-2.2521	-2.4833	-2.8937	-2.1583	-2.6063	-2.6979	-2.1813	-2.8104	-2.4625	-2.3229	-2.975	477.234	460.473	502.029	376.484	181.558	148.986	412.113	196.855	389.355	392.099	449.422	431.779	328.983	174.655	275.021	507.157	0.00047217	0.00049947	0.0001334	1312	5.7068e-06	5.5367e-06	1305.7	351.45	2.9405e-06	2.725e-06	404.42	134.08	116.23	40.313	4.6103e-06	49.817	0.0008601	0.0010849	0.00030798	1329.6	1.1647e-05	1.236e-05	1328.1	358.91	1.1427e-05	1.2283e-05	413.99	137.22	119.54	41.524	1.1966e-05	51.585	240.599	244.248	240.299	160.875	288.317	302.577	160.902	165.829	313.183	332.223	165.166	169.336	170.325	174.760	277.735	173.958	-8191	255	
19637.463	1	1	0	0	0.081525	0.15383	0.14703	0.12275	0.33155	0.096114	0.10539	0.3226	0.19742	0.18236	0.27276	0.11776	0.37586	0.046375	0.32143	0.24235	-1.6333	-2.3979	-2.4354	-2.3187	-2.5687	-2.2708	-2.5125	-2.8292	-2.0979	-2.4333	-2.825	-2.1021	-2.8375	-2.4437	-2.1875	-3.0146	262.487	438.141	491.919	492.212	381.131	168.647	226.986	449.774	375.982	357.697	423.545	497.826	170.291	400.941	455.277	493.473	0.00048094	0.00059077	0.00013255	1303.1	5.6387e-06	7.0888e-06	1307.9	351.44	5.7821e-06	5.7338e-06	405.23	133.37	116.3	40.253	5.204e-06	49.982	0.00088508	0.0011167	0.00030415	1327.9	1.145e-05	1.2155e-05	1327.6	359.01	1.1574e-05	1.2102e-05	413.95	137.17	119.56	41.512	1.1954e-05	51.604	239.235	217.755	256.086	160.821	300.553	300.449	160.900	166.091	310.972	291.645	165.394	169.661	170.307	174.819	308.081	173.719	-8191	255	
19637.559	1	1	0	0	0.093823	0.19371	0.20512	0.30629	0.14539	0.067458	0.12153	0.21514	0.10047	0.10905	0.32626	0.34143	0.043741	0.071986	0.26308	0.19531	-1.7229	-2.3187	-2.6813	-2.1042	-2.6708	-2.4437	-2.3167	-2.9667	-2.1646	-2.4854	-2.7104	-2.2292	-2.5396	-2.6333	-2.1083	-2.9229	190.795	398.306	478.703	150.839	199.137	497.124	158.559	472.275	265.033	480.479	484.835	498.031	495.482	484.717	452.939	387.053	0.0004897	0.00029588	0.00016912	1304.3	5.221e-06	5.7853e-06	1313	351.96	3.2459e-06	4.358e-06	407.83	134.29	116.27	40.13	5.0848e-06	49.775	0.0008771	0.0011188	0.00032375	1328	1.1532e-05	1.2728e-05	1330	359.08	1.1806e-05	1.2754e-05	414.92	137.67	119.76	41.591	1.2396e-05	51.57	242.125	203.379	249.482	161.004	319.731	293.389	160.994	165.766	313.607	288.297	165.246	169.627	170.473	175.025	293.772	173.920	-8191	255	
19637.654	1	1	0	0	0.10083	0.1411	0.27632	0.22455	0.40548	0.074418	0.28844	0.36357	0.22267	0.039212	0.10733	0.12089	0.22226	0.060963	0.091655	0.27608	-1.8396	-2.3	-2.8583	-2.2396	-2.6396	-2.5958	-2.2938	-2.7458	-2.2833	-2.3333	-2.8688	-2.2125	-2.6646	-2.6708	-2.1354	-2.8271	333.063	285.312	271.377	439.184	296.653	344.961	437.925	480.574	254.797	361.982	465.057	238.516	382.489	420.318	163.017	447.191	0.00054891	0.00034023	0.00013139	1300.5	3.14e-06	5.7904e-06	1310.2	350.92	4.4478e-06	5.9786e-06	404.59	134.06	116.83	40.244	5.4989e-06	50.407	0.000896	0.0011535	0.00031548	1325.9	1.1829e-05	1.2271e-05	1328.1	358.89	1.1587e-05	1.2219e-05	413.8	137.53	119.67	41.537	1.203e-05	51.711	243.729	237.195	246.442	160.938	309.281	310.600	160.902	165.850	305.525	268.696	165.275	169.749	170.474	174.870	300.419	173.957	-8191	255	
19637.775	1	1	0	0	0.22687	0.15793	0.043508	0.23168	0.22795	0.14704	0.18343	0.16021	0.18436	0.21048	0.10262	0.25108	0.21525	0.23246	0.31434	0.063063	-2.1625	-2.1833	-2.8438	-2.5646	-2.4354	-2.5938	-2.2646	-2.8146	-2.55	-2.35	-2.7167	-2.2271	-2.4854	-2.7542	-2.1646	-2.6917	156.339	250.152	402.568	500.354	407.626	270.439	458.491	473.015	352.317	397.038	483.362	165.283	365.293	499.563	470.317	376.883	0.00050179	0.00059336	0.00013775	1305.5	2.945e-06	4.1366e-06	1300.2	351.47	4.2301e-06	3.3658e-06	408.23	133.99	116.49	40.332	5.9075e-06	50.073	0.00087935	0.0011423	0.00031404	1328.2	1.1558e-05	1.2501e-05	1325.1	358.81	1.1671e-05	1.2388e-05	415.46	137.39	119.66	41.51	1.1876e-05	51.553	241.639	223.749	234.951	160.952	316.231	332.592	160.879	165.997	309.048	243.233	165.483	169.628	170.335	174.849	300.276	174.017	-8191	255	
19637.871	1	1	0	0	0.20686	0.23265	0.062168	0.17554	0.3413	0.30015	0.34495	0.28923	0.13352	0.19523	0.13895	0.18639	0.072284	0.26114	0.07355	0.13073	-2.1042	-2.2521	-2.8583	-2.5438	-2.3812	-2.6271	-2.2917	-2.8458	-2.5729	-2.0687	-2.8271	-2.3229	-2.3271	-2.7583	-2.3125	-2.5917	289.578	321.587	356.127	488.857	282.110	305.691	497.039	444.692	431.919	329.174	389.563	469.535	436.158	469.034	263.194	163.148	0.00048758	0.00064521	9.5446e-05	1306.3	5.8163e-06	6.1742e-06	1306.2	351.59	5.0472e-06	6.7088e-06	405.9	133.72	116.79	40.389	5.336e-06	49.911	0.00087038	0.0011445	0.00030546	1326.8	1.1547e-05	1.2305e-05	1327.5	359.07	1.1691e-05	1.2064e-05	414.31	137.41	119.58	41.58	1.1814e-05	51.633	244.465	238.743	218.759	161.015	266.476	305.779	160.832	165.827	311.440	308.755	165.382	169.708	170.221	174.666	308.983	173.971	-8191	255	
19637.967	1	1	0	0	0.11057	0.16978	0.11762	0.2809	0.14097	0.030632	0.4629	0.070653	0.21459	0.10321	0.105	0.16091	0.28149	0.16079	0.1747	0.23177	-2.1271	-2.0938	-2.6896	-2.5458	-2.1021	-2.725	-2.1792	-2.5917	-2.55	-2.0312	-2.9354	-2.7062	-2.2896	-2.6646	-1.9729	-2.725	177.681	413.745	358.404	443.174	302.060	216.071	495.049	318.900	357.579	203.940	393.746	399.093	436.142	424.630	174.488	325.490	0.00047581	0.00052589	0.00011938	1302.1	5.0562e-06	7.4807e-06	1306.3	349.96	4.8357e-06	4.218e-06	403.77	133.98	116.81	40.285	5.9044e-06	50.068	0.00085291	0.0011219	0.00030567	1325.2	1.1496e-05	1.2207e-05	1326	358.39	1.1738e-05	1.2263e-05	413.79	137.35	119.72	41.441	1.1613e-05	51.597	243.405	236.475	215.099	161.107	296.560	288.295	160.872	165.853	308.608	322.670	165.359	169.482	170.286	174.616	311.188	173.698	-8191	255	
19638.062	1	1	0	0	0.24256	0.091737	0.15266	0.3928	0.112	0.051117	0.17302	0.1334	0.18723	0.14883	0.060299	0.19142	0.066668	0.34049	0.098044	0.11088	-2.25	-2.0083	-2.6208	-2.4813	-2.0729	-2.9354	-2.3229	-2.6292	-2.6188	-2.1542	-2.7625	-2.5479	-2.2729	-2.9417	-2.2687	-2.4667	337.614	405.280	282.295	485.886	342.716	234.248	163.687	458.755	456.599	480.823	488.049	443.433	450.238	394.491	158.261	448.272	0.00050329	0.00073797	0.0001801	1306.9	3.2576e-06	4.8562e-06	1303.2	352.03	6.2082e-06	5.1903e-06	404.18	133.38	116.19	40.235	4.2628e-06	50.373	0.0008499	0.0011139	0.00030693	1326	1.1436e-05	1.2152e-05	1323.3	358.49	1.1275e-05	1.2187e-05	413.41	137.31	119.47	41.482	1.1823e-05	51.685	239.912	242.121	235.195	161.136	306.821	305.316	161.153	165.903	292.052	285.852	165.160	169.819	170.055	174.905	311.352	173.970	-8191	255	
19638.156	1	1	0	0	0.10903	0.035665	0.26209	0.21279	0.27438	0.062001	0.2516	0.081347	0.27023	0.10138	0.2745	0.34158	0.33355	0.17308	0.13053	0.19082	-2.3958	-2.0271	-2.5729	-2.6083	-2.0667	-2.8271	-2.475	-2.2396	-2.8208	-2.2208	-2.8021	-2.6583	-2.2083	-2.8583	-2.2521	-2.3792	421.570	304.967	417.064	148.646	436.915	367.329	473.360	163.827	462.417	333.038	446.407	493.041	493.038	312.002	478.215	237.857	0.00050978	0.00057396	9.0178e-05	1304.2	3.1408e-06	5.9745e-06	1304	351.16	4.0316e-06	5.2487e-06	404.64	133.58	116.82	40.174	3.4696e-06	50.181	0.00086585	0.0010661	0.00030158	1324.4	1.1059e-05	1.16e-05	1324.8	358.59	1.1101e-05	1.185e-05	413.66	137.31	119.57	41.468	1.1948e-05	51.581	243.902	234.478	239.642	161.131	292.271	293.667	160.809	165.886	303.199	309.902	165.341	169.520	170.145	174.849	319.604	173.944	-8191	255	
19638.256	1	1	0	0	0.33402	0.11582	0.043778	0.19246	0.33677	0.088919	0.26184	0.093837	0.074461	0.25673	0.18608	0.25737	0.37442	0.069814	0.31004	0.13318	-2.5125	-2.1854	-2.6479	-2.9083	-2.1583	-2.7479	-2.4729	-2.3708	-2.7687	-2.075	-2.5938	-2.6813	-2.1396	-2.8063	-2.3229	-2.2396	394.520	296.305	205.160	458.382	193.014	331.532	462.885	159.451	288.002	503.834	279.723	202.439	428.066	490.231	421.245	253.327	0.00051207	0.00079076	0.0001555	1303.5	3.4734e-06	5.9522e-06	1306.9	350.98	3.9175e-06	5.7066e-06	405.31	133.79	116.3	40.27	3.7628e-06	49.963	0.00084944	0.0010939	0.00030622	1325.2	1.1339e-05	1.1928e-05	1325.8	358.18	1.1171e-05	1.1894e-05	413.62	137.44	119.5	41.502	1.1357e-05	51.555	239.694	225.549	242.068	161.098	312.739	292.781	160.996	165.739	311.751	282.917	165.097	169.577	170.387	174.416	337.666	173.631	-8191	255	
19638.373	1	1	0	0	0.27082	0.13589	0.52401	0.25543	0.069171	0.141	0.3505	0.28408	0.1889	0.27398	0.20846	0.091619	0.093212	0.046027	0.15323	0.1948	-2.2062	-2.3063	-2.5062	-2.9083	-1.95	-2.9708	-2.5812	-2.2521	-2.8083	-2.4146	-2.4104	-2.95	-1.9958	-2.5271	-2.5604	-2.1958	226.325	484.338	453.633	477.617	338.767	371.558	472.207	484.114	412.034	197.159	413.704	412.386	464.414	468.210	422.898	474.392	0.00052435	0.00053429	0.00018259	1303.7	5.8857e-06	4.1499e-06	1301.8	351.89	6.6916e-06	5.2639e-06	404.78	133.74	116.25	40.231	5.5097e-06	50.056	0.0008576	0.0010854	0.00030246	1324.8	1.111e-05	1.1866e-05	1323.4	358.64	1.0961e-05	1.1852e-05	413.43	137.33	119.44	41.486	1.1244e-05	51.555	245.114	242.639	244.769	160.987	292.839	310.057	160.900	165.463	297.181	298.037	164.908	169.707	170.332	174.907	296.561	173.812	-8191	255	
19638.471	1	1	0	0	0.10761	0.14233	0.13874	0.039208	0.066737	0.074177	0.03943	0.21787	0.051598	0.21719	0.13273	0.35682	0.24664	0.23044	0.14553	0.26519	-2.4146	-2.2146	-2.2938	-3.0021	-2.1479	-2.5062	-2.7792	-2.1854	-2.775	-2.2542	-2.2771	-2.8708	-2.0354	-2.5583	-2.6417	-2.1958	365.588	281.257	366.066	436.722	176.542	340.177	388.800	388.655	249.191	169.454	471.561	451.741	472.856	425.310	312.896	487.038	0.00050341	0.00048299	0.00013186	1304.4	5.2976e-06	3.1946e-06	1304.6	350.65	4.9138e-06	5.25e-06	404.38	133.67	116.23	40.129	3.4627e-06	49.973	0.00084239	0.0010912	0.00031516	1323.9	1.1257e-05	1.2015e-05	1323.7	357.92	1.1405e-05	1.2129e-05	413.12	137.37	119.32	41.394	1.1415e-05	51.561	243.112	261.914	245.925	161.014	305.498	299.373	160.975	165.781	292.782	303.167	165.085	169.581	170.114	174.633	291.065	173.589	-8191	255	
19638.566	1	1	0	0	0.11885	0.18001	0.28799	0.23279	0.20707	0.26168	0.32734	0.16811	0.049903	0.17481	0.19005	0.22711	0.24413	0.39652	0.060126	0.062255	-2.2896	-2.2625	-2.2521	-3.0187	-2.0187	-2.6021	-2.8708	-2.0542	-2.5229	-2.425	-2.45	-2.7438	-2.0792	-2.375	-2.7583	-2.1208	465.553	245.716	356.366	497.456	317.779	291.728	456.236	389.205	403.386	345.378	445.483	187.069	219.368	395.426	356.990	332.501	0.00050357	0.00038726	9.2583e-05	1301.4	5.0544e-06	3.7193e-06	1307.1	351.27	5.4754e-06	4.9612e-06	403.6	133.83	116.25	40.124	5.3776e-06	49.951	0.00084754	0.0010914	0.0003046	1323.3	1.1371e-05	1.1922e-05	1326.3	357.93	1.1018e-05	1.1786e-05	412.41	137.27	119.36	41.446	1.1402e-05	51.479	240.302	252.468	253.045	160.823	326.896	339.632	160.820	165.636	303.264	306.670	164.971	169.585	170.225	174.636	299.954	173.548	-8191	255	
19638.662	1	1	0	0	0.09944	0.063353	0.061727	0.17289	0.2006	0.14535	0.16651	0.30299	0.1878	0.18277	0.11938	0.095881	0.2888	0.22474	0.22044	0.08832	-2.3104	-2.4	-2.15	-2.7917	-2.2062	-2.4458	-3.0042	-2.1312	-2.4229	-2.5604	-2.2021	-2.8833	-2.3417	-2.4562	-2.7479	-2.025	180.995	482.883	415.613	502.638	392.598	192.776	152.425	435.486	189.744	147.926	466.106	434.267	480.924	454.556	150.375	392.762	0.00048188	0.00037523	0.00018371	1306.8	4.4577e-06	6.2972e-06	1303.6	350.95	6.4637e-06	5.9549e-06	403.07	133.9	116.26	40.046	5.3785e-06	49.975	0.00084559	0.0010572	0.00031083	1325.1	1.1219e-05	1.1698e-05	1324.8	357.74	1.1196e-05	1.1709e-05	412.95	137.26	119.45	41.392	1.1325e-05	51.477	242.696	251.527	244.276	160.995	290.726	297.267	160.689	165.635	322.714	315.498	165.019	169.735	170.124	174.714	319.405	174.095	-8191	255	
19638.760	1	1	0	0	0.2578	0.060969	0.22684	0.17877	0.19861	0.14712	0.20516	0.20026	0.17197	0.10474	0.38281	0.2359	0.30665	0.086046	0.27335	0.17951	-2.0896	-2.5812	-2.1354	-2.9104	-2.3563	-2.0062	-2.9188	-2.2042	-2.4229	-2.5938	-2.075	-2.7271	-2.3396	-2.0542	-2.7062	-2.2792	371.791	248.102	167.905	485.247	238.776	415.731	491.526	189.294	488.001	402.116	462.560	473.459	467.460	344.001	181.167	492.646	0.00052984	0.00063023	0.00013238	1301.7	4.8123e-06	6.3284e-06	1302.1	350.48	4.8243e-06	6.4893e-06	404.22	133.99	116.29	40.11	4.7052e-06	49.704	0.00086118	0.0010725	0.00029975	1323.1	1.1222e-05	1.2045e-05	1324.1	358.04	1.1427e-05	1.2056e-05	413.06	137.3	119.42	41.439	1.1376e-05	51.557	243.462	225.333	241.117	160.770	319.049	313.618	159.363	164.221	295.578	286.742	163.573	168.167	168.978	173.330	321.197	172.871	-8191	255	
19638.855	1	1	0	0	0.072302	0.2601	0.11271	0.23788	0.24887	0.15206	0.23866	0.06523	0.29136	0.19186	0.20829	0.33672	0.20279	0.15705	0.090738	0.18843	-2.05	-2.5792	-1.9292	-2.8833	-2.4479	-2.0646	-2.95	-2.1833	-2.3937	-2.6167	-2.0687	-2.5646	-2.3812	-2.1333	-2.7708	-2.3208	394.589	482.169	292.542	181.030	297.071	323.097	496.488	231.427	229.292	149.689	228.436	446.656	475.650	405.393	245.048	267.636	0.00048735	0.00044691	0.00013985	1301.5	6.0686e-06	8.4373e-06	1304.7	351	5.4262e-06	4.4627e-06	402.29	133.37	116.38	40.013	5.7057e-06	49.949	0.00085218	0.0010693	0.00030041	1323.6	1.1257e-05	1.2202e-05	1324.2	358.4	1.1156e-05	1.1949e-05	412.7	137.04	119.42	41.442	1.1487e-05	51.549	241.469	244.078	225.909	159.721	288.523	308.798	159.500	164.621	305.389	287.010	163.881	168.564	169.085	173.349	297.899	172.821	-8191	255	
19638.951	1	1	0	0	0.27369	0.13139	0.045248	0.27129	0.2137	0.30055	0.12345	0.38573	0.16451	0.26392	0.18871	0.089728	0.42705	0.047942	0.20866	0.13795	-1.925	-2.5854	-1.9646	-2.6396	-2.4021	-2.0125	-2.8854	-2.3021	-2.3187	-2.65	-2.0958	-2.7375	-2.7333	-2.1083	-2.4979	-2.2833	493.202	313.009	435.847	491.202	268.481	383.606	326.546	477.352	404.685	229.581	503.365	323.831	164.622	251.593	370.219	254.352	0.00050199	0.0005938	0.00015994	1301	4.0392e-06	5.1843e-06	1305.6	350.06	5.0012e-06	4.7402e-06	402.24	133.8	116.22	40.094	7.22e-06	49.923	0.00086628	0.0010694	0.00031027	1324.3	1.1238e-05	1.1943e-05	1325.1	357.93	1.1192e-05	1.1863e-05	412.64	137.27	119.4	41.469	1.1536e-05	51.497	246.226	241.736	257.365	159.594	300.895	285.196	159.595	164.691	300.530	344.220	164.029	168.692	169.176	173.600	292.216	172.872	-8191	255	
19639.070	1	1	0	0	0.22614	0.32272	0.072371	0.48787	0.14741	0.21728	0.12937	0.13033	0.41414	0.22838	0.21869	0.22984	0.25569	0.066479	0.1359	0.090011	-1.7333	-2.6667	-2.1271	-2.55	-2.5292	-2.0292	-2.9229	-2.4625	-2.2438	-2.8604	-2.0021	-2.5583	-2.5271	-2.1042	-2.6063	-2.4562	238.875	226.652	176.388	471.362	176.494	415.466	388.239	499.016	432.973	151.866	459.935	437.268	457.508	452.958	380.567	410.750	0.00047916	0.00045083	0.0001206	1302.7	4.1698e-06	6.3865e-06	1304.2	349.6	4.5031e-06	6.1201e-06	403.95	133.42	116.44	40.22	4.8257e-06	49.738	0.00084735	0.0010857	0.00030351	1323.4	1.1168e-05	1.2244e-05	1324.8	357.83	1.1262e-05	1.1875e-05	413.14	137.11	119.45	41.479	1.1528e-05	51.406	240.416	225.449	221.523	159.871	292.818	297.379	159.861	164.744	313.878	300.539	164.280	168.456	169.206	173.792	276.653	173.044	-8191	255	
19639.166	1	1	0	0	0.042935	0.15114	0.1836	0.34428	0.22045	0.1631	0.082369	0.13884	0.51392	0.21515	0.22758	0.19672	0.1396	0.083611	0.17465	0.078234	-1.9062	-2.825	-2.1979	-2.5604	-2.9646	-2.0542	-2.8229	-2.5104	-2.0896	-2.8146	-2.4896	-2.5563	-2.8271	-2.1562	-2.7896	-2.6437	463.776	162.847	211.746	477.152	446.069	290.552	478.498	164.733	436.367	174.954	285.849	177.499	355.175	479.941	423.186	296.104	0.0005158	0.00057598	9.2945e-05	1300.6	5.7834e-06	5.4909e-06	1301.9	350.82	3.3736e-06	3.7014e-06	404.34	134.28	116.22	40.188	5.8897e-06	49.713	0.00086788	0.0010624	0.00030426	1324.5	1.1195e-05	1.2025e-05	1324.8	358.37	1.142e-05	1.1763e-05	412.71	137.49	119.3	41.399	1.1415e-05	51.5	238.722	241.707	237.715	160.127	284.626	318.043	160.532	165.576	308.777	321.751	165.188	169.663	170.383	174.679	305.220	173.822	-8191	255	
19639.262	1	1	0	0	0.066355	0.13334	0.038314	0.10914	0.24185	0.17159	0.2443	0.11865	0.082889	0.15722	0.20137	0.21973	0.28649	0.19468	0.030378	0.37852	-1.7229	-2.7125	-2.1896	-2.6208	-2.6896	-2.1333	-2.8792	-2.6479	-2.0083	-2.8125	-2.5625	-2.2708	-2.7979	-2.2083	-2.5917	-2.7438	276.211	421.527	229.365	469.944	494.895	415.922	468.615	172.958	449.190	409.423	461.272	445.110	431.654	437.606	168.146	431.234	0.00049435	0.00058523	0.00016366	1301.1	6.0024e-06	3.1386e-06	1300.1	350.83	4.2669e-06	3.7778e-06	404.28	133.76	116.14	40.161	5.3625e-06	50.041	0.00084714	0.001071	0.0003011	1322.4	1.1148e-05	1.1643e-05	1323.7	357.67	1.129e-05	1.1984e-05	413.07	137.29	119.1	41.413	1.1431e-05	51.499	243.888	239.717	244.298	161.011	300.100	281.761	160.585	166.005	327.042	285.295	165.255	169.705	170.382	174.727	316.635	174.277	-8191	255	
19639.336	1	1	0	0	0.10528	0.11188	0.1126	0.10078	0.090133	0.27875	0.32919	0.17125	0.32236	0.13214	0.16919	0.20787	0.11594	0.32937	0.20177	0.060224	-1.575	-2.7521	-2.3417	-2.4417	-2.8375	-2.3146	-2.6708	-2.7062	-1.9688	-2.6208	-2.6833	-2.3042	-2.7792	-2.4458	-2.3438	-2.95	357.019	226.545	379.708	466.499	448.912	286.479	481.986	148.152	416.010	259.013	484.411	476.319	474.976	427.575	315.150	396.790	0.00050478	0.00063129	9.9244e-05	1303.9	4.793e-06	5.3536e-06	1298.9	349.74	5.0441e-06	3.1411e-06	403.99	133.13	116.16	40.194	3.6214e-06	49.892	0.00085801	0.0010853	0.00029608	1322.2	1.0893e-05	1.1957e-05	1321.3	357.92	1.1094e-05	1.1614e-05	412.75	136.96	119.22	41.423	1.1289e-05	51.453	243.693	226.945	241.574	161.053	320.804	292.046	160.976	165.932	299.931	298.190	165.153	169.639	170.302	174.786	310.662	173.774	-8191	255	
19639.455	1	1	0	0	0.32072	0.082975	0.24841	0.065813	0.16392	0.11521	0.1316	0.13133	0.25357	0.051728	0.28937	0.24745	0.020859	0.21187	0.14882	0.10712	-1.6771	-2.5583	-2.5333	-2.4437	-2.6708	-2.2271	-2.6771	-2.9646	-2.1083	-2.6479	-2.5625	-2.1021	-2.8667	-2.4771	-2.4083	-2.8625	241.065	489.514	404.781	349.647	348.422	234.067	449.281	271.512	218.841	420.819	484.755	463.799	455.583	152.913	265.551	481.533	0.00049826	0.00038436	0.00015649	1296.5	6.4214e-06	2.9643e-06	1302.5	350.59	3.8187e-06	4.5186e-06	404.38	133.48	116.16	40.039	6.6486e-06	49.709	0.00084423	0.0010526	0.0002955	1318.8	1.0923e-05	1.1287e-05	1321.4	357.73	1.0902e-05	1.1141e-05	412.03	136.93	119.14	41.353	1.1192e-05	51.381	246.783	206.144	240.878	160.886	299.458	323.197	160.898	165.655	308.559	271.108	165.364	169.623	170.222	174.686	308.903	174.216	-8191	255	
19639.551	1	1	0	0	0.077954	0.14399	0.34165	0.13633	0.242	0.109	0.090451	0.1391	0.2274	0.2247	0.16039	0.15976	0.10277	0.14746	0.047859	0.065416	-1.6688	-2.5854	-2.7542	-2.1271	-2.7229	-2.4833	-2.5167	-3.0312	-2.1396	-2.6542	-2.8646	-2.05	-3.0042	-2.5625	-2.2667	-2.9333	350.263	422.594	468.082	242.176	476.798	226.162	294.456	496.401	181.870	423.825	172.233	507.957	162.186	277.252	156.795	170.480	0.00052462	0.00047456	0.00013059	1296.5	5.3224e-06	6.1167e-06	1302.5	350.74	4.057e-06	4.4741e-06	402.44	133.98	116.44	40.241	4.7248e-06	50.169	0.00085283	0.0010494	0.00029162	1319.6	1.1081e-05	1.1344e-05	1321.1	357.42	1.0858e-05	1.1697e-05	412.21	137.02	119.43	41.38	1.1564e-05	51.501	242.653	252.944	255.089	160.859	293.687	323.433	160.871	165.988	316.386	327.314	165.105	169.695	170.032	174.871	306.505	173.742	-8191	255	
19639.646	1	1	0	0	0.11414	0.18884	0.065843	0.2332	0.10978	0.20871	0.13278	0.17404	0.2845	0.21021	0.18239	0.18536	0.080194	0.15704	0.29614	0.21173	-1.6667	-2.425	-2.5229	-2.2083	-2.7042	-2.4729	-2.3438	-2.8688	-2.2021	-2.4083	-2.9313	-2.1208	-2.7958	-2.675	-2.3542	-2.7104	291.831	447.568	154.616	505.904	479.548	304.242	405.827	436.131	457.969	169.846	159.237	498.077	456.676	189.679	397.047	180.247	0.00049922	0.00057372	0.00013827	1297.4	4.8181e-06	5.5198e-06	1300.2	350.21	6.8904e-06	6.9276e-06	403.92	133.18	115.73	40.082	6.1413e-06	49.869	0.00084456	0.0010656	0.00029527	1316.8	1.0922e-05	1.1551e-05	1320.1	357.17	1.1299e-05	1.158e-05	412.41	136.95	119.27	41.305	1.1304e-05	51.448	244.768	233.243	250.015	160.979	294.923	299.376	160.882	165.859	311.635	297.125	165.192	169.489	170.121	174.782	304.745	173.738	-8191	255	
19639.768	1	1	0	0	0.048689	0.1401	0.050141	0.28766	0.19846	0.10021	0.29565	0.17803	0.21668	0.16707	0.44771	0.15394	0.22144	0.15551	0.28364	0.13885	-2.0271	-2.4042	-2.6271	-2.2917	-2.4604	-2.5042	-2.3771	-2.9688	-2.0896	-2.5208	-2.8458	-2.1854	-2.65	-2.4021	-2.0375	-2.75	255.319	310.126	488.159	436.981	239.862	163.896	420.797	441.454	462.420	499.304	489.200	197.632	414.787	241.131	505.951	424.874	0.00050162	0.00061516	0.0001325	1294.1	4.3289e-06	6.5088e-06	1300.1	350.02	4.3251e-06	6.9492e-06	405	133.58	116.39	40.125	3.5754e-06	50.029	0.00083827	0.001068	0.00029825	1319.2	1.0915e-05	1.1613e-05	1320	357.39	1.0997e-05	1.1749e-05	413.18	136.9	119.17	41.328	1.1448e-05	51.443	241.824	211.336	249.915	160.823	300.310	312.629	160.716	165.526	312.184	290.772	165.240	169.366	169.947	174.486	283.014	173.702	-8191	255	
19639.863	1	1	0	0	0.12103	0.31171	0.39456	0.33963	0.14595	0.20193	0.09122	0.3456	0.25466	0.026338	0.21454	0.26517	0.11879	0.035304	0.20881	0.17198	-1.8417	-2.15	-2.7583	-2.1958	-2.3104	-2.5792	-2.3812	-2.8021	-2.6208	-2.3417	-3.0333	-2.05	-2.4896	-2.6792	-1.9604	-2.725	303.511	205.736	207.586	493.796	436.927	172.375	433.366	391.883	185.286	500.864	235.030	496.368	370.594	415.048	278.130	175.583	0.00050091	0.00038154	0.0001186	1296.3	5.0034e-06	3.9991e-06	1299.2	350.99	4.5639e-06	6.6875e-06	402.4	133.37	116.12	40.091	3.9842e-06	49.894	0.00083043	0.001041	0.00029199	1317.8	1.089e-05	1.1296e-05	1319.6	357.48	1.0812e-05	1.1619e-05	411.96	136.75	119.14	41.385	1.1101e-05	51.428	241.421	252.995	232.812	160.913	288.325	267.062	160.736	165.812	317.315	303.714	165.206	169.537	170.077	174.832	302.062	173.538	-8191	255	
19639.936	1	1	0	0	0.13297	0.12824	0.11948	0.33932	0.35554	0.046209	0.16557	0.23784	0.12584	0.36522	0.10807	0.16801	0.21771	0.1473	0.31875	0.10658	-2.1021	-2.1583	-2.7958	-2.3792	-2.4958	-2.7792	-2.2146	-2.6562	-2.5312	-2.2083	-2.7875	-2.2042	-2.2083	-2.8271	-1.8667	-2.8625	382.786	290.686	208.286	503.022	233.789	394.275	436.322	155.538	453.834	440.799	473.157	419.295	165.475	310.694	422.834	273.437	0.00050178	0.00059363	0.00012867	1297.8	3.7959e-06	3.1565e-06	1299.4	350.87	5.1726e-06	6.7216e-06	403.37	133.44	115.96	40.109	6.6559e-06	49.681	0.00082183	0.0010393	0.00029225	1320.3	1.0649e-05	1.1452e-05	1320.1	357.6	1.0739e-05	1.1619e-05	411.97	136.8	118.99	41.345	1.1345e-05	51.354	244.801	229.950	269.092	160.650	293.091	294.550	160.421	165.496	299.260	325.370	165.013	169.452	169.850	174.587	318.299	173.837	-8191	255	
#DATA ENDS
