BOXY.EXE: ISS Imagent and Oximeter Data Acquisition Program Version 0.80
Ascii Record File

#ACQ INFORMATION
2  Detector Channels 
16  External MUX Channels 
1  Auxiliary Channels 
5000  Waveform (CCF) Frequency (Hz)
1  Waveforms Skipped 
30  Waveforms Averaged 
1  Cycles Averaged 
16  Acquisitions per Waveform 
10.0806  Updata Rate (Hz) 

#FILE INFORMATION
TRUE -- External MUX Channel results are PARSED.
FALSE -- AC DC and Phase are NOT grouped.
TRUE -- Companion Program Settings File CREATED.
FALSE -- AC data not excluded
FALSE -- DC data not excluded
FALSE -- Phase data not excluded
FALSE -- Auxillary Chn. data not excluded
Tab delimiters

#CALIBRATION STATE
TRUE -- Waveform Calibration Values APPLIED.


#AUX CALIBRATION VALUES
Val Type	aux-1	

Term	1.0000e+00	
Factor	0.0000e+00	


#WF CALIBRATION VALUES
A = Detector Channel
Val Type	A-AC1	A-AC2	A-AC3	A-AC4	A-AC5	A-AC6	A-AC7	A-AC8	A-AC9	A-AC10	A-AC11	A-AC12	A-AC13	A-AC14	A-AC15	A-AC16	A-DC1	A-DC2	A-DC3	A-DC4	A-DC5	A-DC6	A-DC7	A-DC8	A-DC9	A-DC10	A-DC11	A-DC12	A-DC13	A-DC14	A-DC15	A-DC16	A-Ph1	A-Ph2	A-Ph3	A-Ph4	A-Ph5	A-Ph6	A-Ph7	A-Ph8	A-Ph9	A-Ph10	A-Ph11	A-Ph12	A-Ph13	A-Ph14	A-Ph15	A-Ph16	

Term	0.00000e+00	0.00000e+00	0.00000e+00	0.00000e+00	0.00000e+00	0.00000e+00	0.00000e+00	0.00000e+00	0.00000e+00	0.00000e+00	0.00000e+00	0.00000e+00	0.00000e+00	0.00000e+00	0.00000e+00	0.00000e+00	0.00000e+00	0.00000e+00	0.00000e+00	0.00000e+00	0.00000e+00	0.00000e+00	0.00000e+00	0.00000e+00	0.00000e+00	0.00000e+00	0.00000e+00	0.00000e+00	0.00000e+00	0.00000e+00	0.00000e+00	0.00000e+00	0.00000e+00	0.00000e+00	0.00000e+00	0.00000e+00	0.00000e+00	0.00000e+00	0.00000e+00	0.00000e+00	0.00000e+00	0.00000e+00	0.00000e+00	0.00000e+00	0.00000e+00	0.00000e+00	0.00000e+00	0.00000e+00	
Factor	1.00000e+00	1.00000e+00	1.00000e+00	1.00000e+00	1.00000e+00	1.00000e+00	1.00000e+00	1.00000e+00	1.00000e+00	1.00000e+00	1.00000e+00	1.00000e+00	1.00000e+00	1.00000e+00	1.00000e+00	1.00000e+00	1.00000e+00	1.00000e+00	1.00000e+00	1.00000e+00	1.00000e+00	1.00000e+00	1.00000e+00	1.00000e+00	1.00000e+00	1.00000e+00	1.00000e+00	1.00000e+00	1.00000e+00	1.00000e+00	1.00000e+00	1.00000e+00	X	X	X	X	X	X	X	X	X	X	X	X	X	X	X	X	

B = Detector Channel
Val Type	B-AC1	B-AC2	B-AC3	B-AC4	B-AC5	B-AC6	B-AC7	B-AC8	B-AC9	B-AC10	B-AC11	B-AC12	B-AC13	B-AC14	B-AC15	B-AC16	B-DC1	B-DC2	B-DC3	B-DC4	B-DC5	B-DC6	B-DC7	B-DC8	B-DC9	B-DC10	B-DC11	B-DC12	B-DC13	B-DC14	B-DC15	B-DC16	B-Ph1	B-Ph2	B-Ph3	B-Ph4	B-Ph5	B-Ph6	B-Ph7	B-Ph8	B-Ph9	B-Ph10	B-Ph11	B-Ph12	B-Ph13	B-Ph14	B-Ph15	B-Ph16	

Term	0.00000e+00	0.00000e+00	0.00000e+00	0.00000e+00	0.00000e+00	0.00000e+00	0.00000e+00	0.00000e+00	0.00000e+00	0.00000e+00	0.00000e+00	0.00000e+00	0.00000e+00	0.00000e+00	0.00000e+00	0.00000e+00	0.00000e+00	0.00000e+00	0.00000e+00	0.00000e+00	0.00000e+00	0.00000e+00	0.00000e+00	0.00000e+00	0.00000e+00	0.00000e+00	0.00000e+00	0.00000e+00	0.00000e+00	0.00000e+00	0.00000e+00	0.00000e+00	-7.86066e+01	-1.31001e+02	-1.24786e+02	-1.83817e+02	-4.99121e+01	-6.53093e+01	-1.58668e+02	-1.62015e+02	-4.89199e+01	-6.62152e+01	-1.74374e+02	-1.69631e+02	-1.81559e+02	-1.77656e+02	-5.84456e+01	-1.50419e+02	
Factor	1.94216e-05	1.68321e-04	4.74969e-05	1.55115e-01	1.43856e-06	2.00494e-06	1.80626e-01	6.10451e-02	1.32424e-06	1.89511e-06	1.00420e-01	3.08861e-02	3.91032e-02	1.03895e-02	1.63570e-06	1.47649e-02	1.30170e-05	2.26506e-05	6.31162e-06	7.96424e-02	2.23240e-07	2.52336e-07	8.66108e-02	3.14689e-02	2.25496e-07	2.50935e-07	5.02129e-02	1.55535e-02	2.03098e-02	5.40091e-03	2.36603e-07	7.42413e-03	X	X	X	X	X	X	X	X	X	X	X	X	X	X	X	X	



#DISTANCE SETTINGS
A = Detector Channel
A-1	A-2	A-3	A-4	A-5	A-6	A-7	A-8	A-9	A-10	A-11	A-12	A-13	A-14	A-15	A-16	

2.5000e+00	3.0000e+00	2.5000e+00	3.0000e+00	2.0000e+00	3.0000e+00	1.5000e+00	3.0000e+00	3.0000e+00	3.0000e+00	3.0000e+00	3.0000e+00	3.0000e+00	3.0000e+00	1.5000e+00	3.0000e+00	

B = Detector Channel
B-1	B-2	B-3	B-4	B-5	B-6	B-7	B-8	B-9	B-10	B-11	B-12	B-13	B-14	B-15	B-16	

1.0000e+01	1.0000e+01	1.0000e+01	1.4400e+00	1.0000e+01	1.0000e+01	1.5100e+00	1.9400e+00	1.0000e+01	1.0000e+01	1.9900e+00	2.4900e+00	2.4100e+00	2.9000e+00	1.0000e+01	2.9800e+00	




#DATA BEGINS
time	group	step	mark	flag	A-AC1	A-AC2	A-AC3	A-AC4	A-AC5	A-AC6	A-AC7	A-AC8	A-AC9	A-AC10	A-AC11	A-AC12	A-AC13	A-AC14	A-AC15	A-AC16	A-DC1	A-DC2	A-DC3	A-DC4	A-DC5	A-DC6	A-DC7	A-DC8	A-DC9	A-DC10	A-DC11	A-DC12	A-DC13	A-DC14	A-DC15	A-DC16	A-Ph1	A-Ph2	A-Ph3	A-Ph4	A-Ph5	A-Ph6	A-Ph7	A-Ph8	A-Ph9	A-Ph10	A-Ph11	A-Ph12	A-Ph13	A-Ph14	A-Ph15	A-Ph16	B-AC1	B-AC2	B-AC3	B-AC4	B-AC5	B-AC6	B-AC7	B-AC8	B-AC9	B-AC10	B-AC11	B-AC12	B-AC13	B-AC14	B-AC15	B-AC16	B-DC1	B-DC2	B-DC3	B-DC4	B-DC5	B-DC6	B-DC7	B-DC8	B-DC9	B-DC10	B-DC11	B-DC12	B-DC13	B-DC14	B-DC15	B-DC16	B-Ph1	B-Ph2	B-Ph3	B-Ph4	B-Ph5	B-Ph6	B-Ph7	B-Ph8	B-Ph9	B-Ph10	B-Ph11	B-Ph12	B-Ph13	B-Ph14	B-Ph15	B-Ph16	aux-1	digaux	

19646.393	1	1	0	256	0.04056	0.080096	0.13692	0.3084	0.029927	0.28899	0.38442	0.072269	0.1037	0.31486	0.1427	0.093126	0.0988	0.11896	0.030594	0.12402	-2.1813	-2.2438	-2.675	-2.4313	-2.2854	-2.8021	-2.4458	-2.6979	-2.6604	-2.2333	-2.8458	-2.2708	-2.3146	-2.8271	-2.1688	-2.4729	479.470	294.529	228.279	468.196	392.774	312.806	475.923	226.231	154.822	405.216	454.497	198.110	171.836	450.778	265.740	493.747	0.00025088	0.00040171	5.6259e-05	1074.8	1.4315e-06	2.1499e-06	1168.5	225.79	3.2869e-06	3.2913e-06	285.52	79.464	62.611	18.594	3.1135e-06	26.132	0.00079792	0.001176	0.00032877	1065.2	1.2446e-05	1.302e-05	1156.6	225.4	1.2095e-05	1.3562e-05	286.84	80.417	63.879	19.111	1.2812e-05	26.82	249.255	232.622	198.694	162.655	350.789	233.104	162.724	170.514	297.310	295.280	170.174	177.007	177.240	184.564	279.212	184.042	-8191	255	
19646.488	1	1	0	0	0.11321	0.12588	0.061091	0.13849	0.24369	0.13903	0.086943	0.25255	0.18878	0.12113	0.067322	0.13374	0.21015	0.26691	0.23828	0.12015	-2.0875	-2.175	-2.6479	-2.4854	-2.2646	-2.9104	-2.3229	-2.5667	-2.6208	-2.0354	-2.6354	-2.4188	-2.2458	-3.0854	-2.1875	-2.4625	472.756	511.231	362.074	236.033	197.380	359.385	439.127	162.531	208.105	475.670	156.171	502.307	420.823	178.519	314.872	475.468	0.00024837	6.537e-05	6.0171e-05	1074.7	1.7265e-06	9.257e-07	1169.6	224.93	3.2636e-06	2.2203e-06	287.68	79.67	62.827	18.662	4.0363e-06	25.893	0.00083181	0.0012396	0.0003491	1063.6	1.2674e-05	1.4018e-05	1155.8	225.06	1.2639e-05	1.3676e-05	287.56	80.699	63.857	19.127	1.2915e-05	26.738	240.430	172.870	245.328	163.087	326.178	347.763	163.127	170.482	337.129	330.721	170.166	177.231	177.059	184.761	346.236	183.824	-8191	255	
19646.609	1	1	0	0	0.23545	0.33632	0.16058	0.28105	0.10021	0.11947	0.13116	0.16423	0.079772	0.36967	0.061571	0.037717	0.026469	0.1543	0.047079	0.1237	-2.3146	-2.0854	-2.5646	-2.5875	-2.0479	-2.7792	-2.3625	-2.3583	-2.7208	-2.2146	-2.6479	-2.6396	-1.9521	-2.7271	-2.2646	-2.3438	508.329	460.682	469.807	410.264	385.467	416.679	239.272	472.497	385.899	287.974	232.804	315.447	326.175	461.228	456.770	475.371	0.00026501	0.00044857	8.3972e-05	1073.5	3.362e-06	4.6593e-06	1160.4	224.71	1.917e-06	4.9623e-06	285.37	79.423	62.724	18.669	2.9492e-06	26.025	0.00082449	0.0012314	0.00033775	1061.8	1.2539e-05	1.3109e-05	1154.9	224.96	1.2247e-05	1.3032e-05	287.05	80.574	63.749	19.113	1.2349e-05	26.712	249.195	251.994	268.864	163.058	318.484	308.530	163.001	170.460	327.163	300.014	170.054	176.881	177.269	184.902	295.890	183.230	-8191	255	
19646.705	1	1	0	0	0.2256	0.12474	0.13032	0.27189	0.068318	0.23774	0.13354	0.14914	0.18593	0.16175	0.14759	0.1048	0.31908	0.16561	0.082808	0.15806	-2.3812	-1.8896	-2.4167	-2.7562	-2.1104	-2.7271	-2.3625	-2.25	-2.5729	-2.1458	-2.4813	-2.7438	-1.9083	-2.5625	-2.3896	-2.2771	493.974	152.666	339.136	183.241	226.976	387.205	454.681	229.791	208.508	301.585	474.891	236.141	279.846	212.491	407.187	358.122	0.00028866	0.00040949	0.00013586	1072.4	3.5897e-06	3.2877e-06	1163	224.35	2.3987e-06	2.8317e-06	287.51	79.833	62.669	18.64	3.4532e-06	25.603	0.00080052	0.0011732	0.0003198	1060.9	1.1924e-05	1.3044e-05	1150.8	224.56	1.2125e-05	1.2762e-05	287.16	80.494	63.778	19.095	1.2371e-05	26.536	245.116	247.304	242.860	162.768	298.013	263.750	163.078	170.304	326.779	283.386	170.035	177.015	177.910	184.338	347.216	183.845	-8191	255	
19646.803	1	1	0	0	0.086121	0.20608	0.24534	0.35932	0.058521	0.16483	0.15098	0.14655	0.063346	0.025782	0.084843	0.12329	0.48387	0.22173	0.084012	0.11462	-2.3125	-2.2458	-2.2687	-2.6542	-1.8917	-2.675	-2.3708	-2.2604	-2.7646	-2.3	-2.4146	-2.7979	-1.9083	-2.6833	-2.5125	-2.2438	452.093	352.803	455.971	504.743	458.239	283.118	434.787	364.582	486.301	401.132	409.956	300.847	471.266	161.669	505.136	382.046	0.00027329	0.00027982	0.00011853	1074.6	4.0935e-06	3.1402e-06	1163.5	224.98	2.1294e-06	1.8116e-06	286.5	79.677	62.91	18.474	4.7568e-07	25.832	0.00080817	0.0011697	0.00034769	1062.9	1.2475e-05	1.3069e-05	1152.8	224.7	1.2098e-05	1.3021e-05	286.77	80.314	63.659	19.059	1.2566e-05	26.498	244.629	273.542	224.825	163.004	297.933	271.985	162.844	170.518	289.136	360.659	170.455	177.141	177.658	184.860	334.724	183.954	-8191	255	
19646.898	1	1	0	0	0.2947	0.24123	0.19991	0.21373	0.20138	0.056841	0.26249	0.22276	0.237	0.32841	0.088691	0.13039	0.22157	0.075394	0.21395	0.26514	-2.4354	-2.3104	-2.3063	-3.0208	-1.9917	-2.6646	-2.7458	-2.0708	-2.8375	-2.3292	-2.25	-2.6875	-2.1125	-2.4604	-2.7271	-2.0687	356.262	402.193	180.743	464.899	422.138	236.600	436.407	418.324	326.124	417.894	188.268	307.236	494.521	196.865	390.477	267.277	0.00023575	0.00035829	6.026e-05	1074.3	3.3222e-06	4.896e-06	1164.8	223.97	2.1259e-06	8.9144e-07	286.37	79.649	62.576	18.63	2.1855e-06	26.012	0.00078284	0.0011557	0.00033114	1060.5	1.1936e-05	1.2953e-05	1152.3	224.46	1.202e-05	1.2663e-05	286.61	80.162	63.499	19.077	1.2042e-05	26.555	241.613	227.247	228.137	162.994	297.394	289.003	163.086	170.470	317.614	293.054	170.029	176.855	177.520	184.621	280.919	183.859	-8191	255	
19646.992	1	1	0	0	0.1339	0.077757	0.13181	0.020085	0.28075	0.21438	0.19733	0.20352	0.23284	0.11039	0.16548	0.22411	0.038482	0.14357	0.28673	0.19348	-2.1375	-2	-2.15	-2.9667	-2.0687	-2.5083	-2.8458	-2.1583	-2.7208	-2.3042	-2.1604	-2.9729	-2.1583	-2.4437	-2.5708	-2.0542	328.076	366.316	379.874	267.766	232.135	498.196	446.316	427.123	355.709	474.505	471.161	439.197	281.287	425.193	214.720	505.431	0.00023443	0.00054313	2.7242e-05	1067	4.4005e-06	2.8496e-06	1163.5	224.83	2.177e-06	4.0472e-06	283.14	79.345	62.3	18.501	4.1772e-06	25.922	0.00078099	0.0011612	0.00032291	1059.1	1.1882e-05	1.243e-05	1149.6	223.92	1.131e-05	1.2627e-05	285.21	80.077	63.384	18.992	1.1752e-05	26.571	244.309	240.332	383.101	163.240	329.648	313.858	163.019	170.983	302.405	315.130	170.158	176.633	176.957	183.755	295.734	183.545	-8191	255	
19647.090	1	1	0	0	0.16264	0.16359	0.27804	0.32202	0.23201	0.098264	0.046177	0.12278	0.20654	0.21934	0.25037	0.19725	0.41483	0.033679	0.14806	0.065512	-2.2979	-2.5187	-2.1083	-2.8563	-2.0646	-2.3354	-3.0021	-1.9458	-2.6562	-2.5812	-2.2771	-2.9188	-2.1125	-2.2687	-2.4979	-2.0042	171.217	217.226	276.246	493.191	225.665	347.580	453.761	321.782	319.050	419.911	487.972	474.652	160.758	452.622	453.216	257.210	0.00028691	0.00041921	0.00013614	1070.8	4.2642e-06	1.811e-06	1155.9	224.31	3.7334e-06	3.4932e-06	284.11	79.454	62.302	18.567	1.6024e-06	25.867	0.00076855	0.0011321	0.00032685	1057.9	1.1788e-05	1.2474e-05	1146.9	224.12	1.1646e-05	1.229e-05	285.49	80.08	63.415	18.923	1.1625e-05	26.49	252.796	230.584	254.606	162.872	285.124	324.656	163.088	170.477	317.182	288.790	170.716	177.310	177.647	184.505	317.568	184.239	-8191	255	
19647.211	1	1	0	0	0.16152	0.046813	0.088449	0.20499	0.091608	0.038199	0.064092	0.071097	0.070072	0.063429	0.065768	0.15558	0.058656	0.11942	0.077677	0.14028	-2.1646	-2.5917	-2.0792	-3.0438	-2.3521	-2.1021	-2.9271	-2.2979	-2.3812	-2.5583	-2.0667	-2.8396	-2.3021	-2.0458	-2.7167	-2.1729	298.085	425.564	333.730	156.774	342.201	309.836	505.732	447.485	347.531	314.479	401.064	408.737	361.141	389.714	211.042	262.911	0.00026162	0.00048728	0.00010213	1063.1	1.4875e-06	3.7245e-06	1152.3	223.42	3.098e-06	5.4037e-06	283.22	79.494	62.133	18.558	1.4628e-06	25.76	0.00074845	0.0011244	0.0003097	1053.3	1.1046e-05	1.2174e-05	1142.8	222.87	1.1093e-05	1.1726e-05	284.2	80.113	63.043	18.936	1.1629e-05	26.392	248.424	243.632	272.897	162.831	269.964	310.649	163.165	170.695	330.015	287.302	169.862	176.622	177.365	184.493	244.635	183.480	-8191	255	
19647.307	1	1	0	0	0.06608	0.11792	0.2351	0.42137	0.15961	0.11806	0.29428	0.12227	0.22299	0.16122	0.25462	0.15666	0.29523	0.054275	0.18499	0.12411	-2.1292	-2.7438	-2.075	-2.7167	-2.3958	-2.3021	-2.8438	-2.2	-2.4458	-2.7396	-2.125	-2.7292	-2.475	-2.1771	-2.8792	-2.3312	329.476	441.532	377.091	411.276	385.382	497.554	453.180	423.254	423.122	305.186	497.530	344.294	487.968	177.123	174.990	243.930	0.00028263	0.0002407	5.2518e-05	1063	2.9277e-06	2.2997e-06	1158.8	222.63	2.5428e-06	1.064e-06	285.02	79.102	62.374	18.442	1.3021e-06	25.664	0.00074387	0.0010551	0.00029742	1050.9	1.0962e-05	1.199e-05	1144	222.57	1.1172e-05	1.1811e-05	284.52	79.719	63.309	18.881	1.1293e-05	26.379	245.850	172.445	205.949	162.857	324.719	268.316	163.000	170.837	309.438	203.277	170.214	177.094	177.255	184.746	297.302	184.428	-8191	255	
19647.400	1	1	0	0	0.029043	0.18609	0.029773	0.10743	0.10003	0.22173	0.10139	0.17567	0.074749	0.16811	0.16252	0.15916	0.19967	0.17562	0.093033	0.093076	-2.0333	-2.5083	-2.1188	-2.8771	-2.5792	-2.0687	-2.9354	-2.3542	-2.2208	-2.8	-2.0146	-2.5271	-2.6063	-2.0958	-2.7812	-2.2812	422.773	197.475	273.324	359.476	446.612	361.176	172.111	153.683	251.063	487.091	457.897	405.572	371.971	161.513	170.793	465.750	0.00024185	0.00024976	0.00012252	1063.1	3.2777e-06	4.2217e-06	1150.1	224.28	2.6116e-06	3.3718e-06	283.16	78.907	62.022	18.533	2.4019e-06	25.777	0.00074677	0.0010858	0.00029404	1051.6	1.0847e-05	1.1716e-05	1140.8	223.1	1.1001e-05	1.158e-05	283.51	79.652	63.091	18.928	1.0852e-05	26.402	239.825	265.879	270.303	162.853	322.668	309.840	163.289	170.507	332.240	336.803	170.414	176.847	177.430	185.010	289.207	183.946	-8191	255	
19647.496	1	1	0	0	0.044841	0.085384	0.39612	0.2093	0.26052	0.12703	0.11426	0.13305	0.10812	0.16116	0.27193	0.16235	0.12486	0.42606	0.1973	0.20734	-1.775	-2.7146	-2.0708	-2.5333	-2.6583	-2.1479	-2.7208	-2.3479	-2.0563	-2.6729	-2.1312	-2.4125	-2.5854	-2.0917	-2.7771	-2.4833	276.866	418.990	348.263	203.045	387.053	242.104	457.248	505.659	177.283	397.057	398.325	461.512	253.532	468.560	307.279	173.076	0.00025497	0.00021307	8.3097e-05	1064.2	2.5198e-06	1.3984e-06	1156.9	222.53	1.5619e-06	3.8971e-06	283.65	79.046	62.48	18.465	1.9852e-06	25.796	0.00074308	0.0010456	0.0003003	1050.5	1.0883e-05	1.1766e-05	1140.4	222.15	1.0667e-05	1.1349e-05	284.41	79.747	63.115	18.897	1.104e-05	26.386	248.501	288.271	217.809	163.000	287.693	235.767	163.059	170.637	313.123	287.675	170.378	176.984	177.000	184.431	313.489	184.083	-8191	255	
19647.592	1	1	0	0	0.36695	0.10348	0.081045	0.17764	0.25612	0.24325	0.40297	0.05216	0.27096	0.075837	0.11073	0.11371	0.083164	0.27191	0.20823	0.1157	-1.7104	-2.7375	-1.9583	-2.4208	-2.6875	-1.9125	-2.75	-2.7188	-2.1021	-2.7604	-2.1229	-2.4437	-2.6958	-2.0229	-2.7333	-2.5396	276.421	473.171	199.355	490.757	170.199	161.030	455.478	407.618	210.849	294.075	186.324	261.262	470.397	439.994	346.925	293.565	0.00028396	0.00046079	4.486e-05	1061.5	1.8397e-06	3.5685e-06	1154	222.31	3.6417e-06	4.3992e-06	282.15	78.499	62.208	18.392	3.8481e-06	25.726	0.0007177	0.0010488	0.00029116	1049	1.0789e-05	1.1605e-05	1140	222.55	1.0605e-05	1.1494e-05	283.38	79.566	63.128	18.857	1.103e-05	26.388	249.398	166.638	258.979	162.969	298.550	348.577	163.022	170.514	326.554	334.064	170.752	177.034	177.665	184.099	304.202	183.895	-8191	255	
19647.689	1	1	0	0	0.15046	0.082493	0.1979	0.34897	0.19287	0.13864	0.25898	0.07474	0.12958	0.25032	0.16735	0.16265	0.20605	0.19739	0.2068	0.33845	-1.5042	-2.6458	-2.1417	-2.2438	-2.7542	-1.9458	-2.8	-2.7104	-2.1583	-2.8042	-2.3958	-2.4104	-2.7729	-1.9104	-2.5208	-2.7188	355.952	250.072	272.967	467.293	330.691	157.760	406.340	156.517	298.966	405.661	489.866	225.379	412.456	509.181	437.185	447.519	0.00024709	0.00014962	6.6074e-05	1058.4	3.9894e-06	2.1499e-06	1144.8	221.92	4.5472e-06	2.5029e-06	281.7	78.539	62.488	18.38	2.7484e-06	25.743	0.00072263	0.0010557	0.00029166	1047.6	1.0897e-05	1.1407e-05	1138.4	221.66	1.082e-05	1.155e-05	282.86	79.486	63.061	18.812	1.1145e-05	26.341	241.304	275.030	211.520	162.868	293.882	368.852	163.109	170.683	295.307	268.865	170.220	177.092	177.676	184.433	293.367	184.076	-8191	255	
19647.785	1	1	0	0	0.096341	0.13841	0.13162	0.26906	0.16165	0.33532	0.27612	0.38532	0.12321	0.18513	0.26896	0.18543	0.071382	0.13779	0.35587	0.15168	-1.5521	-2.6958	-2.2583	-2.3646	-2.675	-2.3354	-2.475	-2.7458	-1.9229	-2.7313	-2.2792	-2.2	-2.8333	-2.2	-2.3979	-2.5958	508.527	290.557	501.701	464.897	165.526	497.566	481.974	471.958	186.042	157.983	430.809	497.484	350.375	323.320	291.081	495.010	0.00028707	0.00053983	0.00013049	1063.4	3.0651e-06	2.6484e-06	1152.1	222.1	3.2544e-06	2.5907e-06	284.38	78.407	62.279	18.338	2.7414e-06	25.687	0.00073712	0.0010475	0.00029461	1050.3	1.0742e-05	1.1715e-05	1138.1	221.65	1.1018e-05	1.1578e-05	284	79.451	63.137	18.793	1.1238e-05	26.334	244.880	262.655	292.995	162.639	310.852	314.231	163.121	170.882	312.174	310.328	170.238	176.734	177.418	184.255	327.448	184.095	-8191	255	
19647.881	1	1	0	0	0.18337	0.1449	0.071576	0.07772	0.090109	0.0028929	0.3508	0.24727	0.22507	0.24336	0.21021	0.095183	0.10764	0.22635	0.032086	0.16466	-1.7062	-2.6896	-2.3667	-2.3479	-2.8104	-2.0854	-2.6354	-2.6146	-1.8542	-2.4271	-2.4542	-2.1979	-2.6729	-2.3729	-2.1688	-2.6958	285.934	509.284	456.553	470.973	508.141	446.133	487.947	416.264	404.718	501.473	497.400	416.634	341.680	491.643	350.479	197.253	0.00024577	0.00037556	7.87e-05	1056.2	1.1817e-06	4.44e-06	1151.2	221.62	1.7837e-06	4.2012e-06	282.72	78.878	62.179	18.351	3.4689e-06	25.735	0.00073218	0.0010561	0.00029771	1046.3	1.0819e-05	1.1833e-05	1137.9	221.84	1.0661e-05	1.1527e-05	283.76	79.48	62.932	18.834	1.099e-05	26.374	248.336	188.825	214.858	163.140	224.440	326.007	163.288	170.641	325.229	302.701	170.226	177.174	176.814	184.803	312.628	184.368	-8191	255	
19648.002	1	1	0	0	0.05187	0.090718	0.085693	0.070241	0.34239	0.12628	0.35271	0.093887	0.040435	0.22596	0.28259	0.22992	0.15622	0.091139	0.13667	0.32215	-1.6979	-2.6479	-2.4562	-2.1854	-2.8187	-2.4146	-2.2646	-2.8021	-2.1771	-2.5104	-2.7083	-2.0292	-2.6854	-2.3583	-2.2375	-2.5438	409.616	269.424	252.465	435.437	361.885	422.746	446.175	414.599	188.936	404.813	166.024	430.273	311.732	206.543	193.377	429.684	0.000248	0.00038064	3.699e-05	1056.2	4.0125e-06	4.2199e-06	1150.9	221.19	3.5117e-06	3.0021e-06	283.87	78.58	62.707	18.538	3.5264e-06	25.673	0.00072483	0.0010596	0.00029557	1047.2	1.0795e-05	1.1554e-05	1138.6	222.03	1.1162e-05	1.1617e-05	284.13	79.501	63.26	18.883	1.1476e-05	26.332	247.752	220.431	175.742	162.954	326.170	277.392	163.093	171.020	285.424	267.105	170.464	177.121	177.501	184.483	264.182	184.206	-8191	255	
19648.098	1	1	0	0	0.17585	0.22075	0.083378	0.26555	0.15918	0.18247	0.16959	0.075086	0.11793	0.23679	0.1983	0.11831	0.052426	0.32024	0.20558	0.073452	-1.6313	-2.3042	-2.6021	-2.2146	-2.5375	-2.4562	-2.2604	-2.6625	-1.9646	-2.3229	-2.7271	-2.0083	-2.6292	-2.375	-2.1458	-2.8167	496.205	156.182	360.276	169.598	313.245	337.899	430.664	245.283	446.394	275.661	463.832	290.137	214.462	179.670	403.741	337.574	0.00026454	0.00065556	0.00010689	1057.7	3.6765e-06	4.5823e-06	1153.6	221.28	3.6733e-06	4.342e-06	283.6	78.279	61.714	18.446	3.9854e-06	25.699	0.00071659	0.0010785	0.00028989	1045.2	1.0583e-05	1.1927e-05	1138.6	221.48	1.0784e-05	1.1503e-05	283.48	79.315	62.943	18.855	1.1026e-05	26.332	247.928	271.872	221.857	162.988	353.521	314.753	163.168	171.087	340.351	330.779	170.181	177.109	177.533	184.562	286.412	184.352	-8191	255	
19648.170	1	1	0	0	0.084565	0.062351	0.14255	0.35124	0.2802	0.19001	0.18298	0.19029	0.1724	0.02892	0.11024	0.017782	0.079341	0.23105	0.099334	0.10589	-1.6667	-2.3458	-2.75	-2.2979	-2.6979	-2.5896	-2.2687	-2.7938	-2.2354	-2.3708	-2.9625	-2.1354	-2.6167	-2.4104	-2.0146	-2.8854	478.455	431.639	394.522	500.249	243.951	333.890	442.483	165.221	209.688	287.936	261.979	186.702	425.700	439.688	241.135	301.833	0.00026106	0.00031623	7.4778e-05	1059.7	2.1997e-06	5.5556e-06	1146.4	222.93	2.391e-06	2.7392e-06	281.58	78.415	61.975	18.477	2.4771e-06	25.622	0.00071903	0.0010403	0.0002901	1046.5	1.0501e-05	1.1711e-05	1134.2	222.03	1.0838e-05	1.1547e-05	283.23	79.381	62.787	18.812	1.0886e-05	26.245	246.030	235.045	307.548	163.126	275.719	319.073	163.224	170.710	341.015	302.524	170.522	177.087	177.852	184.600	308.235	184.288	-8191	255	
19648.289	1	1	0	0	0.19463	0.1243	0.097126	0.13173	0.089941	0.073195	0.1161	0.053107	0.15592	0.091902	0.11602	0.12992	0.18942	0.050704	0.29009	0.24598	-1.9167	-2.0812	-2.7062	-2.2958	-2.5687	-2.4292	-2.1021	-2.8208	-2.0792	-2.1354	-2.8854	-2.1437	-2.1854	-2.7917	-2.0583	-2.7396	165.457	162.278	455.053	331.022	351.502	245.623	377.014	255.727	335.855	254.598	240.998	296.734	192.176	315.726	508.139	156.809	0.00024835	0.00037514	2.3108e-05	1056.4	1.4554e-06	4.3223e-06	1146.4	222	2.3945e-06	2.7145e-06	281.82	78.425	62.247	18.241	3.8307e-06	25.644	0.00069815	0.0010357	0.00028703	1045.9	1.077e-05	1.1431e-05	1134.4	221.42	1.0506e-05	1.1399e-05	282.92	79.356	63.013	18.823	1.0785e-05	26.254	247.718	206.164	237.742	163.095	332.771	295.540	163.267	170.956	254.416	301.938	170.326	177.511	177.638	184.693	314.601	184.328	-8191	255	
19648.387	1	1	0	0	0.18179	0.15361	0.14686	0.10014	0.13738	0.12572	0.32567	0.11034	0.27611	0.34865	0.1709	0.028466	0.11121	0.21685	0.19201	0.12411	-1.9896	-2.0875	-2.6937	-2.1604	-2.4313	-2.5521	-2.2604	-2.7292	-2.2833	-2.0479	-2.7917	-2.2687	-2.3271	-2.6271	-2.0521	-2.6083	194.926	221.323	241.985	253.230	386.088	401.203	377.911	229.263	442.519	153.218	374.936	259.458	301.101	187.910	312.052	403.893	0.00026472	0.00024546	0.00012465	1055.6	3.2179e-06	2.374e-06	1146.6	222.48	1.5095e-06	3.559e-06	282.29	78.165	61.61	18.086	2.0839e-06	25.28	0.00070498	0.0010236	0.00027404	1044.2	1.0261e-05	1.0905e-05	1130.9	221.72	1.0092e-05	1.0719e-05	282.38	78.932	62.513	18.664	9.7352e-06	26.119	245.301	328.842	253.260	162.852	322.775	316.404	163.169	170.970	277.997	321.201	170.131	176.882	177.717	184.447	273.946	184.124	-8191	255	
19648.480	1	1	0	0	0.098325	0.19768	0.27264	0.10345	0.19616	0.2919	0.2782	0.28769	0.15465	0.10333	0.17672	0.13601	0.14934	0.22115	0.23944	0.22279	-1.9562	-2.1792	-2.7062	-2.2896	-2.3354	-2.8396	-2.1708	-2.6188	-2.5333	-2.2646	-2.7979	-2.3	-2.2271	-2.6854	-2.2	-2.5146	270.791	453.599	304.426	454.897	247.873	363.157	471.816	195.426	187.463	497.350	483.844	353.541	497.591	448.070	236.604	463.617	0.00026091	0.00046975	7.9212e-05	1049.6	3.0234e-06	3.5655e-06	1137.4	221.46	2.9768e-06	2.0714e-06	282.19	78.437	62.035	18.223	3.9173e-06	25.43	0.00066525	0.00095675	0.00026075	1038.4	1.0143e-05	1.0531e-05	1127.4	220.75	9.4948e-06	1.0475e-05	282.13	79.201	62.704	18.8	1.0114e-05	26.168	246.387	240.143	282.860	163.337	309.371	314.575	163.368	171.135	296.000	294.723	170.600	177.183	177.908	184.875	307.272	184.339	-8191	255	
19648.578	1	1	0	0	0.065421	0.22982	0.23904	0.30039	0.42541	0.12334	0.16353	0.12473	0.046429	0.29835	0.089846	0.076318	0.1465	0.074923	0.039087	0.11015	-2.1896	-2.1167	-2.5542	-2.3167	-2.0417	-2.7875	-2.1771	-2.4062	-2.6021	-2.225	-2.8688	-2.5333	-2.1688	-2.7167	-2.1437	-2.4917	450.300	229.029	308.695	490.077	184.217	443.368	501.288	465.162	390.332	450.368	212.181	356.632	492.906	232.709	237.000	474.787	0.00024746	0.00024816	8.6455e-05	1052.7	4.2982e-06	2.9465e-06	1137.3	220.73	3.5811e-06	6.1636e-06	280.1	78.122	61.866	18.292	2.6848e-06	25.762	0.00067873	0.00098672	0.00026648	1037.7	1.0115e-05	1.0642e-05	1125.8	220.13	9.9101e-06	1.0651e-05	281.68	79.021	62.605	18.691	9.9083e-06	26.223	249.324	238.530	254.125	163.054	303.192	316.275	163.386	170.814	305.457	315.263	170.334	177.336	177.783	184.514	323.084	184.330	-8191	255	
19648.697	1	1	0	0	0.13112	0.10495	0.046614	0.28909	0.075297	0.033814	0.108	0.31846	0.17769	0.053612	0.21265	0.15493	0.081333	0.26453	0.099433	0.14354	-2.3187	-1.9917	-2.6979	-2.5167	-2.1729	-2.7875	-2.4625	-2.3958	-2.55	-1.9438	-2.5792	-2.7083	-1.9562	-2.7729	-2.0729	-2.1437	233.634	152.649	253.202	175.380	293.100	156.039	469.373	494.891	173.099	506.105	364.423	504.055	478.914	205.857	364.439	418.910	0.00024879	0.00050441	0.0001069	1048.1	4.1387e-06	4.4689e-06	1136.5	219.28	5.1448e-06	3.0214e-06	281.84	77.782	61.412	18.325	2.8546e-06	25.657	0.00066216	0.0009459	0.00026135	1035.2	9.8602e-06	1.0001e-05	1125.4	219.9	9.453e-06	1.0691e-05	281.58	78.9	62.355	18.729	9.9196e-06	26.128	254.124	250.669	223.366	163.090	306.781	271.563	163.068	170.466	321.862	283.452	170.281	177.094	177.188	184.960	298.205	183.903	-8191	255	
19648.793	1	1	0	0	0.25236	0.14071	0.14873	0.25662	0.15813	0.15999	0.19311	0.21292	0.10329	0.015179	0.33562	0.046235	0.17515	0.39762	0.18318	0.11518	-2.3917	-2.1021	-2.4	-2.5812	-2.0875	-3.0625	-2.3646	-2.1937	-2.8688	-2.0021	-2.5792	-2.7083	-2.2417	-2.8229	-2.3187	-2	302.308	248.156	168.565	440.808	364.838	288.307	448.832	468.538	301.835	399.901	448.046	318.886	482.551	211.314	278.773	426.763	0.00024474	0.00021527	2.6976e-05	1050.1	3.1061e-06	3.7387e-06	1136	220.03	2.9493e-06	3.4967e-06	280.43	78.292	61.503	18.359	4.0524e-06	25.575	0.00064757	0.00097181	0.00025704	1036.5	1.0055e-05	1.0189e-05	1125.8	219.85	9.8072e-06	1.0629e-05	281.62	79.105	62.508	18.744	1.0133e-05	26.183	247.030	231.014	241.543	163.235	329.187	315.980	163.373	170.831	322.418	293.523	170.254	177.337	178.093	184.829	292.202	183.723	-8191	255	
19648.891	1	1	0	0	0.33209	0.20418	0.16493	0.18606	0.22336	0.24124	0.16683	0.19889	0.046898	0.23269	0.23128	0.18473	0.11594	0.27913	0.18147	0.11786	-2.5146	-1.9333	-2.4917	-2.7125	-2.0438	-2.5312	-2.6583	-2.2583	-2.7271	-2.1125	-2.2604	-2.7062	-2.1042	-2.5187	-2.4292	-2.0771	351.099	380.417	232.111	436.779	322.027	400.710	372.747	168.343	437.338	173.042	430.049	248.833	509.470	164.614	305.130	261.542	0.00025363	0.00051846	0.00011044	1042.6	2.0544e-06	4.0395e-06	1138.5	220.47	2.5289e-06	4.4101e-06	280.6	77.845	61.693	18.265	2.4448e-06	25.4	0.00066338	0.00096208	0.00027506	1035.2	1.0246e-05	1.1152e-05	1126.6	220.12	9.7616e-06	1.0773e-05	281.38	78.735	62.457	18.715	1.015e-05	26.108	246.082	279.908	266.063	162.936	303.218	312.083	162.697	170.420	293.033	316.559	170.073	176.939	176.658	184.450	273.755	183.639	-8191	255	
19648.986	1	1	0	0	0.064693	0.12218	0.17884	0.12957	0.12581	0.090613	0.33939	0.24998	0.24518	0.29118	0.17675	0.15607	0.072125	0.099746	0.064348	0.13034	-2.2917	-2.2313	-2.2667	-2.7125	-2.0187	-2.6437	-2.5875	-2.0125	-2.7625	-2.2167	-2.3083	-2.7271	-2.0896	-2.4437	-2.5021	-2.3146	176.832	428.839	342.373	501.723	358.449	349.120	434.428	423.240	417.416	220.040	373.053	502.501	163.465	294.327	338.981	206.381	0.00028074	0.00017664	9.7999e-05	1048.2	2.2416e-06	2.9047e-06	1143.8	220.57	1.9577e-06	3.2348e-06	281.95	78.346	61.59	18.216	1.073e-06	25.43	0.00066484	0.00099262	0.00027091	1035.4	1.018e-05	1.0832e-05	1128.7	220.09	9.9242e-06	1.0562e-05	281.72	79.013	62.518	18.7	1.026e-05	26.127	250.838	404.659	244.380	162.808	345.337	278.499	162.863	170.294	340.063	261.677	170.363	177.483	177.370	184.785	326.319	184.261	-8191	255	
19649.082	1	1	0	0	0.12554	0.13872	0.15613	0.10513	0.1826	0.11244	0.43747	0.14399	0.30688	0.18138	0.10979	0.21479	0.24713	0.095514	0.085197	0.16621	-2.2313	-2.1417	-2.1458	-2.7771	-1.9271	-2.4396	-2.8646	-2.0792	-2.7354	-2.5604	-2.2042	-2.7833	-2.0125	-2.4979	-2.6708	-2.0854	421.499	166.593	287.488	185.238	347.786	282.659	466.887	470.587	364.337	363.724	180.091	253.222	449.844	368.462	219.757	246.461	0.00026891	0.00026359	0.00011766	1051.3	2.317e-06	4.2553e-06	1139.1	219.96	3.5419e-06	2.8682e-06	280.37	78.699	61.725	18.368	2.9031e-06	25.574	0.00067222	0.00097591	0.00027763	1037.5	9.7961e-06	1.0651e-05	1126.8	219.72	9.8781e-06	1.0668e-05	281.2	79.092	62.677	18.816	1.0462e-05	26.199	245.455	293.947	242.316	163.350	306.580	317.393	163.445	170.806	307.396	305.182	170.330	177.429	177.443	184.487	285.369	184.283	-8191	255	
19649.178	1	1	0	0	0.16867	0.067983	0.24982	0.094076	0.24665	0.045055	0.39726	0.17773	0.088367	0.090941	0.059014	0.26628	0.13799	0.21538	0.15265	0.24463	-2.2771	-2.2583	-2.1771	-2.9104	-2.1729	-2.4708	-2.7896	-2.0438	-2.4625	-2.275	-2.1208	-2.9646	-2.3688	-2.2396	-2.6667	-2.0479	495.129	217.815	494.222	229.562	290.926	323.020	471.457	215.274	482.825	485.755	316.224	497.801	465.553	274.555	499.338	172.203	0.00026438	0.00043143	0.00013281	1045.5	3.3861e-06	3.4906e-06	1141.9	221.05	3.1979e-06	2.8981e-06	281.5	78.161	61.867	18.561	4.5884e-06	25.61	0.00068071	0.00098379	0.00027073	1037.4	9.7463e-06	1.0983e-05	1129	220.43	9.9068e-06	1.0648e-05	281.25	78.911	62.658	18.748	9.9073e-06	26.194	248.148	253.354	228.583	163.277	301.900	296.026	163.411	170.768	302.780	344.135	170.375	177.259	177.790	184.454	313.908	184.195	-8191	255	
19649.299	1	1	0	0	0.13848	0.20228	0.037714	0.14756	0.050682	0.23918	0.12217	0.23595	0.17618	0.06642	0.13502	0.14782	0.34307	0.093097	0.14947	0.15712	-2.1688	-2.3167	-2.0479	-2.8187	-2.0354	-2.1646	-2.9208	-2.0042	-2.2854	-2.5687	-2.025	-2.6917	-2.3042	-2.0354	-2.8833	-2.0646	209.388	419.069	179.106	157.454	375.393	323.542	382.689	177.666	402.875	357.413	508.494	453.250	389.416	273.462	448.970	321.549	0.00029105	0.00021974	5.6812e-05	1046.4	3.5859e-06	4.0003e-06	1144.3	221	1.1864e-06	4.6652e-07	281.41	78.306	61.82	18.453	2.3083e-06	25.746	0.00067412	0.0009509	0.000266	1037.7	1.0026e-05	1.0578e-05	1129.2	220.52	9.5667e-06	9.9835e-06	281.81	79.021	62.779	18.797	9.995e-06	26.223	245.716	232.299	296.139	163.367	301.105	290.153	163.593	170.943	279.197	200.292	170.753	177.658	177.821	184.914	366.169	184.065	-8191	255	
19649.393	1	1	0	0	0.14044	0.20556	0.17533	0.18024	0.12772	0.088146	0.1674	0.17363	0.21367	0.21392	0.31912	0.12116	0.15091	0.08224	0.089855	0.32287	-1.9833	-2.6188	-1.8937	-2.6958	-2.3792	-2.2625	-2.9208	-2.0083	-2.5417	-2.7646	-2.0167	-2.6	-2.2729	-2.1792	-2.6437	-2.2979	463.601	224.371	422.565	210.743	422.481	286.503	431.553	483.531	408.497	208.835	437.563	265.188	395.118	485.741	159.039	210.255	0.00025573	0.00026934	0.00012966	1047.7	3.2061e-06	2.0714e-06	1137.8	221.18	3.8023e-06	2.3067e-06	281.56	78.174	61.439	18.314	1.9431e-06	25.716	0.00066102	0.00094982	0.00026285	1036.5	9.7179e-06	1.0492e-05	1126.8	220.43	9.5239e-06	1.0061e-05	281.27	79.157	62.501	18.737	9.7244e-06	26.18	246.691	264.277	244.203	163.284	328.663	289.394	163.390	170.856	303.731	310.887	170.634	177.502	177.926	184.666	224.493	184.658	-8191	255	
19649.467	1	1	0	0	0.11846	0.028215	0.080434	0.31268	0.18962	0.13278	0.19902	0.12995	0.10451	0.16337	0.12437	0.14367	0.15506	0.17902	0.11825	0.13703	-2.0229	-2.8167	-2.0292	-2.7292	-2.4333	-2.1271	-2.9979	-2.275	-2.4	-2.8229	-2.075	-2.5042	-2.5167	-2.05	-2.7854	-2.2729	274.638	396.458	360.412	465.137	352.731	280.700	231.427	462.208	368.103	432.130	330.994	273.488	496.665	478.599	207.046	219.665	0.00023043	0.00029176	7.0436e-05	1047.2	2.7986e-06	1.5503e-06	1135.8	221.64	4.4149e-06	3.4957e-06	283.84	78.408	61.672	18.458	2.243e-06	25.74	0.00067339	0.00093594	0.00025114	1036.4	9.6333e-06	1.0395e-05	1125.7	220.28	9.4854e-06	1.0231e-05	281.95	79.055	62.469	18.796	9.3389e-06	26.285	243.853	254.813	227.575	163.274	365.536	338.600	163.392	171.019	304.416	319.440	170.300	177.122	177.878	185.094	263.193	184.292	-8191	255	
19649.562	1	1	0	0	0.15935	0.38081	0.081	0.27932	0.2381	0.1064	0.27304	0.17625	0.069327	0.17419	0.18462	0.028648	0.061061	0.069269	0.013145	0.29966	-1.8854	-2.6396	-1.9729	-2.9188	-2.525	-1.8333	-2.9333	-2.4083	-2.3125	-2.6229	-2.0917	-2.5583	-2.3792	-1.8542	-2.6937	-2.2729	342.564	247.055	377.869	421.535	478.690	392.007	451.419	506.607	351.318	315.136	257.483	429.880	213.041	363.639	502.035	191.212	0.000279	0.00032605	7.2802e-05	1049.8	3.9006e-06	2.8677e-06	1140.5	221.96	3.4608e-06	5.27e-06	279.47	78.054	61.952	18.403	4.0353e-06	25.615	0.00064556	0.00091617	0.00025725	1037.6	9.3854e-06	1.0159e-05	1126	220.69	9.4474e-06	1.0135e-05	280.45	79.032	62.628	18.815	9.5361e-06	26.21	248.325	205.215	199.190	163.208	310.169	286.828	163.389	171.174	296.301	333.254	170.672	177.648	177.692	184.965	297.089	184.487	-8191	255	
19649.682	1	1	0	0	0.10349	0.098574	0.20488	0.16374	0.1619	0.022988	0.26968	0.19332	0.28978	0.061378	0.012178	0.075172	0.46379	0.22003	0.14209	0.15554	-1.8396	-2.7896	-2.125	-2.4813	-2.6042	-1.9771	-2.8396	-2.5583	-2.0938	-2.8292	-2.0521	-2.4562	-2.6083	-2.0167	-2.6771	-2.3854	341.698	214.527	226.621	492.348	499.368	509.586	385.614	481.112	164.965	274.422	348.569	423.292	489.166	237.447	244.738	383.865	0.00025817	0.00031572	4.0325e-05	1045.3	4.4553e-06	5.0867e-06	1139.9	221.31	2.6366e-06	1.7158e-06	281.07	78.532	61.984	18.418	6.8599e-07	25.452	0.00063431	0.00088201	0.00024469	1032.2	9.2021e-06	9.7807e-06	1123.6	220.2	9.0894e-06	9.3327e-06	280.85	79.281	62.471	18.715	9.056e-06	26.114	240.186	245.479	300.071	163.347	295.482	336.101	163.497	170.925	321.185	301.781	170.614	177.571	177.724	185.222	196.764	184.305	-8191	255	
19649.777	1	1	0	0	0.24514	0.15251	0.14294	0.25442	0.27909	0.0869	0.21201	0.19606	0.42335	0.1391	0.29034	0.235	0.12889	0.022683	0.046839	0.26514	-1.6792	-2.7146	-2.1729	-2.3021	-2.5125	-2.0542	-2.7313	-2.5438	-1.9438	-2.7188	-2.1354	-2.3167	-2.6708	-2.1333	-2.3979	-2.6896	348.223	296.028	249.000	168.986	340.597	167.554	468.171	413.230	338.956	512.133	197.324	406.672	364.004	364.525	375.009	366.155	0.00026754	0.0002517	7.3806e-05	1043.3	2.709e-06	1.8536e-06	1133.1	220.05	4.0817e-06	4.557e-06	280.3	78.327	61.997	18.207	2.4728e-06	25.743	0.00062769	0.00082736	0.00023905	1031.3	8.925e-06	9.6003e-06	1119.4	219.44	8.7986e-06	9.5392e-06	280.44	78.998	62.351	18.709	8.8406e-06	26.219	244.850	218.165	230.425	163.541	299.850	269.228	163.327	171.053	300.059	285.519	170.901	177.262	178.211	184.981	335.730	184.048	-8191	255	
19649.873	1	1	0	0	0.28756	0.2302	0.23548	0.050309	0.24076	0.2467	0.16774	0.038623	0.10783	0.37162	0.094573	0.13158	0.13978	0.50676	0.15523	0.046369	-1.5167	-2.7479	-2.2708	-2.25	-2.7479	-1.9458	-2.5854	-2.6229	-2.1875	-2.75	-2.1854	-2.1208	-2.6937	-2.0875	-2.3312	-2.6708	327.355	324.004	196.483	438.592	351.954	256.113	276.226	431.450	416.354	328.535	417.785	285.835	204.677	483.169	439.776	450.881	0.00026592	0.00027086	3.6573e-05	1042.1	2.2661e-06	6.2902e-07	1130.7	220.04	3.8776e-06	3.0986e-06	281.18	77.794	61.206	18.407	1.7173e-06	25.407	0.00062276	0.00084822	0.00024635	1029.2	8.9491e-06	9.5614e-06	1120.5	219.95	8.8315e-06	9.3829e-06	280.4	78.674	62.347	18.719	9.2093e-06	26.049	253.736	258.772	275.729	163.573	303.876	376.310	163.474	171.254	284.985	296.193	171.145	177.635	178.152	184.986	317.855	184.684	-8191	255	
19649.971	1	1	0	0	0.04221	0.077827	0.20261	0.31767	0.1119	0.33515	0.04499	0.16708	0.29374	0.12467	0.056859	0.18276	0.090779	0.23461	0.21144	0.14047	-1.6646	-2.6063	-2.3792	-2.1792	-2.9708	-2.1771	-2.3812	-2.6	-1.9208	-2.6917	-2.4271	-2.05	-2.95	-2.2479	-2.2271	-2.7771	257.138	375.383	221.786	433.137	476.455	378.688	483.321	465.683	224.767	354.817	198.102	386.605	198.010	504.822	217.556	301.086	0.00022026	0.00015723	0.00010073	1044	3.0209e-06	3.0391e-06	1136.1	220.6	4.0666e-06	2.2427e-06	281.58	78.391	62.042	18.226	5.6756e-06	25.466	0.00059377	0.00083279	0.00023633	1030.3	8.498e-06	9.3038e-06	1119.9	219.65	8.7074e-06	9.616e-06	280.48	79.014	62.409	18.689	9.1511e-06	26.128	242.212	286.780	231.166	163.565	322.752	335.384	163.438	171.199	291.273	213.015	171.108	177.503	177.972	185.067	335.954	184.514	-8191	255	
19650.092	1	1	0	0	0.16842	0.15017	0.19742	0.2033	0.077411	0.13037	0.083678	0.18069	0.27209	0.40395	0.12725	0.20448	0.19057	0.1429	0.038217	0.27901	-1.6354	-2.4583	-2.4062	-2.2188	-2.7396	-2.4208	-2.4958	-2.7958	-1.9521	-2.5708	-2.7812	-2.125	-2.7417	-2.3688	-2.2521	-2.7562	405.714	386.688	480.650	469.514	274.218	174.931	368.806	487.885	485.222	447.051	329.600	376.241	215.271	190.329	471.047	163.685	0.0002589	0.00041322	8.2793e-05	1037.6	3.0968e-06	3.9757e-06	1132.9	219.48	3.916e-06	2.4489e-06	280.54	77.859	61.106	18.342	1.9249e-06	25.602	0.00060383	0.00084822	0.00023669	1028.5	8.7143e-06	9.1814e-06	1119.4	219.64	8.4984e-06	9.2349e-06	280.7	78.82	62.112	18.674	9.0368e-06	26.134	247.951	212.170	276.895	163.550	311.231	266.036	163.640	171.682	296.264	361.487	170.622	177.710	177.873	185.123	365.845	184.412	-8191	255	
19650.162	1	1	0	0	0.064186	0.07871	0.15327	0.12304	0.099753	0.13145	0.093184	0.18673	0.31868	0.16381	0.1148	0.1578	0.17849	0.32274	0.1679	0.21555	-1.7313	-2.4542	-2.5729	-2.1646	-2.5875	-2.3292	-2.2792	-2.7979	-2.0938	-2.5354	-2.6146	-2.0062	-2.7458	-2.2896	-2.0125	-2.8104	243.357	318.659	159.329	495.495	154.154	357.935	179.431	436.755	160.035	161.640	419.891	430.368	315.782	163.514	254.673	282.321	0.00025187	0.0001753	0.00011841	1040	3.4239e-06	2.2451e-06	1129.3	220.38	3.0356e-06	6.4721e-06	279.95	77.969	61.604	18.118	4.4081e-06	25.395	0.00061996	0.00085685	0.00022893	1027.9	8.6496e-06	8.9742e-06	1117.8	219.3	8.6736e-06	9.2877e-06	279.87	78.562	62.048	18.581	8.6636e-06	25.973	248.838	294.929	269.425	163.658	291.277	290.877	163.510	171.242	313.552	314.972	170.928	177.742	178.076	184.801	333.011	183.916	-8191	255	
19650.258	1	1	0	0	0.1442	0.33518	0.088273	0.31567	0.13401	0.076884	0.1611	0.21196	0.16097	0.24866	0.26041	0.10293	0.25592	0.19771	0.082685	0.19097	-1.6938	-2.2146	-2.5896	-2.1646	-2.5833	-2.5521	-2.3333	-2.8563	-2.0292	-2.3375	-2.8667	-2.1625	-2.6417	-2.5563	-2.2292	-2.8604	163.842	443.414	197.518	467.685	169.309	312.621	497.680	477.464	413.657	210.262	395.032	222.671	265.515	505.930	315.827	356.637	0.00027629	0.00037087	9.033e-05	1033.2	4.0207e-06	2.1825e-06	1128.3	219.96	2.3166e-06	4.091e-06	279.16	78.237	61.259	18.274	1.5453e-06	25.513	0.0006032	0.0008351	0.00023085	1022.7	8.7361e-06	9.327e-06	1113	218.78	8.6534e-06	9.0075e-06	279.64	78.558	62.043	18.598	8.7326e-06	25.987	248.090	271.905	273.567	162.843	301.820	315.513	162.646	170.307	288.210	341.675	170.012	176.729	176.493	184.230	230.651	183.391	-8191	255	
19650.379	1	1	0	0	0.078774	0.052376	0.029805	0.045293	0.068078	0.09274	0.12897	0.17539	0.082136	0.1086	0.12512	0.28643	0.073917	0.18581	0.052831	0.32167	-1.7375	-2.2562	-2.7083	-2.15	-2.4521	-2.6792	-2.2854	-2.8292	-2.3417	-2.2979	-2.8417	-2.0563	-2.3812	-2.5312	-2.05	-2.825	167.793	412.954	379.545	476.955	222.283	303.642	367.240	494.208	245.011	458.434	382.168	186.877	227.289	508.935	433.396	378.689	0.00025823	0.00030421	7.1857e-05	1035.5	2.9644e-06	3.0739e-06	1122.3	218.51	3.7078e-06	2.1701e-06	278.25	77.84	61.036	18.25	1.5272e-06	25.327	0.00060014	0.00085501	0.00023783	1023.4	8.7003e-06	9.4111e-06	1111.1	218.58	9.1049e-06	9.3975e-06	279.27	78.567	61.931	18.642	8.9244e-06	26.019	247.350	243.620	279.262	162.622	300.297	284.492	162.981	170.389	288.189	311.672	169.855	176.759	177.593	184.958	327.816	184.732	-8191	255	
19650.473	1	1	0	0	0.14594	0.20269	0.112	0.40695	0.088112	0.17832	0.26934	0.12218	0.095974	0.29747	0.2051	0.25331	0.05298	0.097292	0.16964	0.18496	-2.0812	-2.1771	-2.525	-2.0687	-2.6375	-2.5792	-2.1271	-2.85	-2.3937	-2.2042	-2.8167	-2.0771	-2.4417	-2.6979	-2.0521	-2.7417	204.910	281.362	232.072	481.803	449.125	174.987	391.484	461.193	190.307	335.983	426.730	474.734	241.272	496.390	280.497	213.847	0.00021647	0.00042763	0.00013001	1032.2	3.3411e-06	3.958e-06	1129	220.1	2.2352e-06	1.9195e-06	278.36	78.52	61.656	18.224	2.1779e-06	25.722	0.00061451	0.00087323	0.00023557	1022.8	8.877e-06	9.5762e-06	1113.9	219.03	8.5778e-06	9.408e-06	279.42	78.88	62.082	18.622	8.9618e-06	26.079	250.575	255.887	264.690	163.250	282.734	342.249	163.241	170.888	310.542	416.835	170.840	177.142	177.814	184.489	296.184	184.357	-8191	255	
19650.570	1	1	0	0	0.12447	0.19272	0.067923	0.14497	0.31776	0.16231	0.28838	0.051284	0.25453	0.2483	0.19754	0.15016	0.18979	0.26142	0.276	0.1259	-2.0375	-1.9542	-2.7833	-2.3667	-2.3771	-2.7562	-2.1063	-2.5875	-2.3187	-2.0187	-3.0625	-2.4375	-2.1417	-2.6437	-1.9458	-2.5479	209.171	386.146	439.746	187.563	430.113	330.721	506.592	223.231	412.511	282.097	461.974	446.023	231.724	444.810	359.830	171.470	0.0002403	0.00022133	5.4663e-05	1038.3	1.5475e-06	2.5608e-06	1121.5	219.64	2.6474e-06	3.5859e-06	279.17	77.864	61.217	18.317	4.3805e-06	25.574	0.0006054	0.0008426	0.00022747	1024.3	8.7203e-06	8.9868e-06	1113.3	218.93	8.6055e-06	9.2851e-06	279.41	78.602	61.93	18.675	8.8283e-06	26.058	246.238	279.359	280.236	163.421	298.734	269.506	163.469	170.839	325.662	339.379	170.377	177.617	177.871	184.804	307.320	184.444	-8191	255	
19650.689	1	1	0	0	0.047378	0.19658	0.12479	0.37249	0.13673	0.064512	0.28675	0.095157	0.091349	0.18535	0.124	0.21789	0.098449	0.37583	0.1575	0.22733	-2.1667	-1.9729	-2.7292	-2.5542	-2.1729	-2.875	-2.1667	-2.5354	-2.6479	-2.0708	-2.9708	-2.4417	-2.3583	-2.8292	-1.9708	-2.5042	321.842	347.122	436.665	425.374	232.556	339.186	497.435	493.129	314.086	454.765	412.534	280.406	479.532	497.067	227.331	277.291	0.00025318	0.00051294	0.0001217	1036.4	3.741e-06	4.4029e-06	1119.8	220.83	3.1589e-06	2.4606e-06	279.68	77.744	61.29	18.341	2.9689e-06	25.213	0.00059195	0.00083477	0.00022798	1024.2	8.6143e-06	8.8743e-06	1113.1	219.52	8.543e-06	9.1199e-06	279.52	78.479	62.127	18.662	8.9298e-06	25.967	245.049	212.331	240.169	163.476	296.422	315.754	163.524	171.010	298.273	264.074	170.468	177.323	177.980	185.195	332.056	184.406	-8191	255	
19650.762	1	1	0	0	0.32052	0.1861	0.24573	0.12131	0.21749	0.12065	0.12569	0.23955	0.23539	0.33676	0.11312	0.095182	0.25282	0.29281	0.1414	0.11486	-2.4333	-2.0833	-2.8021	-2.6188	-2.0875	-2.6875	-2.3833	-2.45	-2.5875	-2.025	-2.725	-2.4375	-2.2583	-2.6937	-2.2875	-2.3667	291.337	320.593	501.625	502.196	370.513	251.840	384.853	373.465	507.881	451.361	499.556	158.439	263.859	204.223	383.008	490.154	0.0002778	0.00035197	5.2109e-05	1033.5	2.4719e-06	1.7512e-06	1124.2	220.15	1.8096e-06	1.4957e-06	279.48	77.778	61.192	18.274	2.2536e-06	25.552	0.0005705	0.00081684	0.00022363	1023.6	8.6361e-06	9.0315e-06	1112.7	219.33	8.2945e-06	9.0718e-06	279.76	78.655	62.005	18.639	8.775e-06	26.062	241.454	256.759	320.039	163.215	302.518	323.497	163.407	170.677	300.310	255.410	170.418	177.372	177.947	184.706	307.366	184.338	-8191	255	
19650.857	1	1	0	0	0.071443	0.14745	0.15797	0.26639	0.062809	0.3985	0.31975	0.24323	0.022558	0.18425	0.10432	0.21389	0.041012	0.32315	0.15485	0.18922	-2.1937	-1.9458	-2.3792	-2.6792	-2.0042	-2.8917	-2.3771	-2.1688	-2.8604	-2.1021	-2.6292	-2.5104	-2.1021	-2.8146	-2.1604	-2.0417	409.882	284.577	224.706	425.905	388.380	287.112	444.565	474.487	168.177	492.482	212.893	482.850	286.584	334.672	344.209	382.535	0.00026894	8.9154e-05	9.4983e-05	1031	1.9388e-06	1.7357e-06	1125.1	218.64	4.9035e-06	1.4058e-06	278.58	78.06	61.305	18.168	3.5775e-06	25.399	0.00059189	0.00083095	0.00023162	1021.5	8.6273e-06	8.9327e-06	1112.4	218.52	8.4011e-06	8.9861e-06	279.07	78.551	61.896	18.604	8.3822e-06	26.043	245.983	291.439	247.118	163.719	317.780	167.765	163.437	171.023	312.702	371.702	170.725	177.461	177.808	184.877	342.003	184.356	-8191	255	
19650.979	1	1	0	0	0.16025	0.16722	0.26802	0.21668	0.33609	0.12974	0.45942	0.23543	0.115	0.25097	0.13783	0.13626	0.17016	0.059136	0.21396	0.1789	-2.275	-2.0479	-2.3604	-2.7938	-2.0187	-2.6521	-2.4875	-2.3917	-2.9542	-2.0563	-2.5042	-2.7562	-1.95	-2.75	-2.4646	-2.2792	275.702	473.715	332.228	459.753	264.657	383.060	429.666	480.416	499.331	382.384	482.147	414.277	396.121	478.812	358.250	376.335	0.00028003	0.00022379	0.0001373	1030.1	3.8957e-06	2.9388e-06	1121.8	218.54	2.6699e-06	1.7226e-06	278.27	77.575	61.553	18.277	3.4139e-06	25.564	0.00057356	0.00082458	0.00023331	1019.4	8.7668e-06	8.949e-06	1110.6	218.53	8.4805e-06	9.1853e-06	278.78	78.486	62.009	18.659	8.604e-06	26.043	239.128	236.902	259.934	163.302	302.722	293.315	163.588	171.058	313.240	266.019	170.907	177.517	177.912	184.943	343.648	183.880	-8191	255	
19651.074	1	1	0	0	0.073233	0.087739	0.2806	0.27309	0.27323	0.33572	0.20304	0.16732	0.038987	0.14667	0.067324	0.23766	0.16334	0.10386	0.22223	0.076174	-2.2958	-2.225	-2.0646	-2.7958	-2.0521	-2.6854	-2.7542	-1.9833	-2.7438	-2.0458	-2.3563	-2.5521	-2.0792	-2.5458	-2.4104	-2.1708	283.791	511.448	321.772	495.985	375.004	280.976	441.102	450.023	235.400	242.969	154.259	200.179	158.476	193.450	217.640	155.828	0.00029154	0.00021805	7.3413e-05	1036.3	6.7672e-07	4.0038e-06	1122.2	219.65	3.3706e-06	1.3493e-06	278.85	77.698	61.392	18.21	3.4301e-06	25.442	0.0005795	0.00081084	0.00022356	1022.2	8.5347e-06	8.8528e-06	1110.9	218.71	8.4707e-06	8.7242e-06	279.29	78.53	62.063	18.589	8.7036e-06	26.062	247.925	218.102	239.013	163.372	271.616	324.044	163.431	170.742	295.097	282.480	170.729	177.643	178.059	184.637	312.982	184.250	-8191	255	
19651.172	1	1	0	0	0.091904	0.26249	0.17877	0.22517	0.26467	0.13084	0.27652	0.079841	0.077834	0.070411	0.21732	0.036357	0.080368	0.35976	0.088879	0.1544	-2.35	-2.2812	-2.2938	-2.9604	-2.2604	-2.5896	-2.7	-2.1375	-2.8063	-2.2	-2.075	-2.8271	-2.0167	-2.4042	-2.7708	-2.1875	320.060	466.405	480.844	452.892	373.434	206.832	491.997	384.915	464.692	274.390	235.203	168.768	284.526	491.455	216.650	346.766	0.00026121	0.00011633	0.00011579	1029.3	3.0253e-06	2.659e-07	1118.3	219.87	2.1398e-06	1.845e-06	278.54	77.711	61.015	18.222	5.0008e-06	25.288	0.00058696	0.00080112	0.00022709	1020.6	8.5003e-06	8.9374e-06	1108.9	218.61	8.3504e-06	9.0948e-06	278.75	78.371	61.894	18.582	8.812e-06	25.899	243.978	270.251	248.828	163.580	264.536	385.006	163.363	171.012	327.662	360.852	170.337	177.208	178.029	185.118	293.512	184.097	-8191	255	
19651.268	1	1	0	0	0.14131	0.17644	0.25698	0.35041	0.31483	0.12711	0.19297	0.21338	0.1102	0.18793	0.11228	0.14165	0.21311	0.17507	0.049303	0.080016	-2.3542	-2.3042	-2.325	-2.8563	-2.25	-2.4688	-2.9083	-2.1667	-2.675	-2.5021	-2.2646	-2.8688	-2.2729	-2.3688	-2.7938	-2.1354	405.330	162.790	213.766	432.197	233.973	471.899	499.280	403.624	447.683	455.147	182.378	398.274	336.603	494.705	167.374	281.323	0.00023943	0.00024421	5.0688e-05	1031.7	2.9277e-06	4.2691e-06	1123.1	219.7	3.5373e-06	2.7515e-06	279.45	77.331	61.311	18.147	4.0836e-06	25.413	0.00058747	0.00084038	0.00023332	1019.1	8.4478e-06	9.2613e-06	1107.9	218.55	8.4575e-06	9.1236e-06	279.05	78.178	61.801	18.571	8.6828e-06	25.922	247.171	247.722	286.228	163.358	268.950	312.898	163.291	171.040	316.816	350.599	170.868	177.672	178.135	184.897	325.417	184.028	-8191	255	
19651.340	1	1	0	0	0.16889	0.16367	0.24936	0.077324	0.095785	0.091198	0.16924	0.093985	0.053443	0.23658	0.076934	0.20949	0.10248	0.086451	0.20897	0.17801	-2.2958	-2.5	-2.1083	-2.8688	-2.2	-2.5438	-2.8896	-2.1167	-2.6542	-2.5438	-2.3187	-2.725	-2.1875	-2.4292	-2.8417	-2.2167	434.959	245.325	153.406	228.612	235.377	230.903	461.999	448.348	475.654	350.737	426.837	289.081	183.236	223.525	286.134	243.999	0.00025329	0.00028954	0.0001368	1031.1	3.8739e-06	5.0939e-06	1121	219.48	3.4058e-06	3.028e-06	279.71	77.585	61.223	18.073	2.9771e-06	25.399	0.0005785	0.00081976	0.00022511	1018.3	8.2497e-06	8.8491e-06	1107	218.2	8.0869e-06	8.8083e-06	278.83	78.245	61.835	18.532	8.4492e-06	25.93	242.733	204.523	240.404	163.677	308.555	301.415	163.728	171.148	309.458	299.833	170.638	177.492	177.491	185.176	314.074	184.600	-8191	255	
19651.459	1	1	0	0	0.30722	0.16228	0.46728	0.11292	0.098728	0.093351	0.12313	0.086857	0.13762	0.19591	0.042188	0.066773	0.34173	0.053043	0.21781	0.093947	-2.0771	-2.5104	-1.9146	-2.8479	-2.3292	-2.4667	-2.9667	-2.2583	-2.5458	-2.5521	-2.2438	-2.8896	-2.4313	-2.2292	-2.7208	-2.0625	322.846	297.202	366.301	468.455	375.724	470.150	222.521	313.399	380.883	312.293	270.243	341.250	218.751	276.534	290.504	395.420	0.00027124	0.00032859	0.00013401	1031.4	3.5429e-06	3.8318e-06	1120	218.65	3.0999e-06	5.2486e-06	278.7	77.74	60.872	18.067	2.4214e-06	25.26	0.00057804	0.00078583	0.00022285	1017.5	8.3938e-06	8.5689e-06	1106.6	217.92	8.07e-06	8.5882e-06	277.65	78.139	61.408	18.466	8.1579e-06	25.86	240.788	239.316	251.820	163.400	307.516	296.275	163.715	171.190	287.129	323.916	170.706	177.558	177.995	185.097	264.241	184.680	-8191	255	
19651.557	1	1	0	0	0.2287	0.18192	0.11114	0.038027	0.03919	0.15728	0.062127	0.25646	0.154	0.18335	0.083761	0.16727	0.18599	0.066398	0.12148	0.286	-2.0833	-2.6312	-2.0875	-2.8729	-2.4313	-2.2729	-2.9208	-2.2562	-2.3646	-2.8479	-2.175	-2.7104	-2.3375	-2.3312	-2.8438	-2.2812	232.082	227.528	254.481	210.987	414.667	416.258	197.774	177.850	303.848	202.025	385.723	347.667	423.090	477.992	412.954	219.931	0.00025852	0.00039992	0.00012618	1021.7	2.8175e-06	5.4194e-06	1113.4	218.41	2.7753e-06	2.7435e-06	276.32	76.675	61.277	18.011	4.4158e-06	25.331	0.00057508	0.00077824	0.00022761	1011.9	7.9436e-06	8.6746e-06	1101.4	217.43	8.1719e-06	8.6881e-06	277.34	77.894	61.541	18.418	8.1584e-06	25.795	244.548	264.745	248.375	163.444	326.807	301.946	163.449	171.139	313.324	328.332	170.838	177.720	178.025	185.380	316.712	184.267	-8191	255	
19651.652	1	1	0	0	0.04434	0.1403	0.083459	0.12522	0.066062	0.30965	0.14823	0.36444	0.097183	0.25641	0.22869	0.1263	0.090712	0.39296	0.060039	0.21301	-2.0125	-2.6854	-1.9604	-2.8563	-2.5792	-2.3542	-3.0583	-2.5396	-2.3458	-2.9333	-2.2812	-2.8146	-2.6312	-2.2396	-2.85	-2.2979	317.879	494.374	427.892	160.489	327.522	294.487	213.026	469.792	237.064	212.649	160.591	401.806	316.312	265.284	444.061	177.023	0.00027356	0.00034436	0.00010667	1022.7	2.6828e-06	9.8985e-07	1113.5	217.65	3.2109e-06	2.6888e-06	276.99	77.152	61.227	17.987	4.7501e-06	25.407	0.00056564	0.00077635	0.00021442	1010.2	8.1897e-06	8.407e-06	1100.4	217.04	8.0855e-06	8.5192e-06	277.32	77.864	61.579	18.412	7.9518e-06	25.86	242.792	211.494	262.276	163.411	321.541	378.623	163.496	171.380	291.090	337.484	170.234	177.560	177.813	184.907	309.890	184.382	-8191	255	
19651.771	1	1	0	0	0.13566	0.14641	0.24045	0.15156	0.36462	0.07998	0.14179	0.28455	0.058061	0.10039	0.31317	0.17259	0.082805	0.18657	0.072654	0.26884	-1.7271	-2.725	-1.9208	-2.4208	-2.7354	-2.0375	-2.7729	-2.4458	-2.2125	-2.8396	-2.0687	-2.3063	-2.6479	-2.0083	-2.7167	-2.3604	255.536	247.244	333.085	217.890	480.361	287.544	475.747	465.660	160.908	260.838	198.549	476.672	217.686	215.842	179.216	474.807	0.00026596	0.00040632	5.2123e-05	1021.1	3.2778e-06	7.7636e-07	1111.1	216.43	1.8869e-06	3.3468e-06	278.51	76.6	60.778	17.909	3.6846e-06	25.222	0.00055509	0.0007588	0.00021611	1010.4	8.0297e-06	8.3203e-06	1098.7	216.71	8.0112e-06	8.2186e-06	276.76	77.541	61.387	18.323	7.7532e-06	25.776	247.857	232.493	252.108	162.707	311.960	376.970	162.989	170.673	321.320	256.507	170.227	176.430	177.468	184.121	326.282	184.389	-8191	255	
19651.867	1	1	0	0	0.089134	0.13209	0.14521	0.1453	0.11739	0.082938	0.19711	0.23954	0.1987	0.20491	0.20604	0.30367	0.020197	0.28333	0.10066	0.088724	-1.4688	-2.5938	-2.0875	-2.2542	-2.6521	-1.9729	-2.6667	-2.5062	-2.0021	-2.7854	-2.1667	-2.4375	-2.625	-1.8146	-2.6312	-2.525	218.782	171.022	167.526	198.138	246.159	341.301	459.095	393.777	320.881	304.478	359.446	404.923	283.422	271.196	426.727	212.839	0.00021822	0.00026522	2.2343e-05	1021.2	2.5639e-06	4.0635e-06	1110.2	216.42	3.225e-06	3.28e-06	276.95	76.727	60.989	18.053	4.5629e-06	25.048	0.00054208	0.00075568	0.00021699	1008.6	8.0115e-06	8.3975e-06	1097.8	215.83	7.7045e-06	8.0665e-06	276.42	77.501	61.266	18.422	7.9863e-06	25.699	240.912	245.084	219.640	162.764	293.077	295.264	162.423	170.563	290.891	326.958	169.817	176.302	177.268	184.302	322.742	183.831	-8191	255	
19651.963	1	1	0	0	0.057534	0.15748	0.14541	0.35033	0.1777	0.10982	0.29135	0.27915	0.23477	0.19799	0.33662	0.10854	0.24442	0.11983	0.23697	0.22713	-1.6354	-2.7396	-2.2396	-2.4854	-2.6417	-1.9312	-2.7062	-2.6333	-2.0479	-2.6229	-2.4062	-2.0167	-2.6583	-2.2167	-2.3708	-2.6583	425.665	168.035	302.394	492.513	182.077	383.796	464.478	465.388	391.018	280.283	465.200	158.380	173.909	509.839	454.908	388.081	0.00027221	0.00028046	0.0001442	1014.2	4.2255e-06	2.0491e-06	1107.6	216.61	2.8446e-06	3.9907e-06	275.06	76.676	60.931	18.013	1.5348e-06	25.123	0.00056011	0.00074006	0.00021561	1005.4	7.6134e-06	8.4596e-06	1097.1	216.23	7.8416e-06	8.2056e-06	275.83	77.506	61.285	18.418	7.9154e-06	25.694	243.622	258.347	217.392	162.473	318.440	321.223	162.512	169.145	298.329	354.573	169.236	176.050	176.128	183.466	313.081	182.695	-8191	255	
19652.059	1	1	0	0	0.11804	0.17812	0.1553	0.1652	0.13712	0.1499	0.20783	0.22888	0.085665	0.1881	0.32651	0.13231	0.30109	0.13871	0.091543	0.13987	-1.8188	-2.7188	-2.1104	-2.0687	-2.6833	-2.1854	-2.4979	-2.7313	-1.8854	-2.7625	-2.35	-2.0521	-2.4792	-2.0771	-2.1771	-2.5833	326.335	334.572	430.314	398.013	229.754	410.178	466.187	210.729	332.673	187.134	407.348	468.482	491.951	407.135	171.222	346.253	0.00022134	0.00021972	8.6423e-05	1014.4	4.9658e-06	3.9564e-06	1104.2	217.48	2.2033e-06	3.5995e-06	277.07	76.605	61.174	18.038	3.7292e-06	25.176	0.00053603	0.00073723	0.0002043	1006.7	7.752e-06	8.2866e-06	1094.6	216.65	7.6622e-06	8.1324e-06	276.42	77.521	61.413	18.413	8.0209e-06	25.736	246.220	209.889	253.215	162.030	279.654	325.706	162.309	169.605	297.195	275.381	169.899	176.197	177.073	183.736	308.976	183.900	-8191	255	
19652.154	1	1	0	0	0.20843	0.12906	0.14205	0.19799	0.098927	0.048796	0.050976	0.14122	0.052967	0.11208	0.2534	0.18655	0.25986	0.17879	0.13938	0.085987	-1.5417	-2.4292	-2.25	-2.1146	-2.675	-1.9583	-2.3438	-2.6667	-1.8771	-2.5187	-2.5062	-2.15	-2.6333	-2.2833	-2.3229	-2.8625	160.776	271.296	208.312	368.801	289.938	433.117	156.315	252.319	472.514	275.660	438.564	313.348	210.369	486.846	333.876	171.466	0.00026552	0.00023721	2.8996e-05	1018	3.4468e-06	4.9051e-06	1110.7	217.28	3.7169e-06	4.8881e-07	278.5	77.466	61.182	18.04	2.1856e-06	24.987	0.00055176	0.00076554	0.00020429	1006.4	7.7162e-06	8.4222e-06	1096.2	216.52	7.9539e-06	8.2882e-06	276.94	77.714	61.255	18.468	7.9681e-06	25.748	248.720	244.049	236.241	162.519	287.845	303.385	162.952	170.373	330.153	385.972	170.345	176.740	177.080	184.519	309.988	184.095	-8191	255	
19652.252	1	1	0	0	0.18282	0.11046	0.11787	0.18761	0.040333	0.083538	0.1685	0.074366	0.29123	0.33852	0.17016	0.13997	0.13398	0.16305	0.19191	0.42245	-1.6354	-2.4688	-2.6292	-2.3604	-2.6292	-2.2125	-2.4	-2.8688	-2.0604	-2.3396	-2.6229	-2.1063	-2.7021	-2.2313	-2.0438	-2.6937	218.911	230.148	372.861	153.884	341.650	315.254	459.063	415.978	459.823	208.493	179.033	417.979	284.860	169.374	201.714	399.745	0.00024655	0.00023459	9.353e-05	1016.1	2.7614e-06	3.639e-06	1103	216.54	2.0641e-06	1.9831e-06	277.8	76.587	61.431	18.013	8.6609e-07	25.127	0.00056193	0.0007588	0.00020859	1005.4	7.7748e-06	8.3366e-06	1093.7	216.5	7.7923e-06	8.3483e-06	276.75	77.558	61.412	18.39	8.0544e-06	25.735	248.428	221.298	235.205	162.786	259.437	284.139	162.615	170.723	340.153	216.395	170.295	176.560	177.274	184.302	330.267	183.590	-8191	255	
19652.371	1	1	0	0	0.080613	0.36033	0.10693	0.2591	0.32422	0.1963	0.247	0.17217	0.10343	0.15158	0.17611	0.23231	0.23369	0.24264	0.042172	0.11996	-1.4854	-2.2687	-2.4625	-1.9688	-2.5792	-2.4021	-2.1146	-2.9167	-2.0792	-2.35	-2.7	-1.9667	-2.6063	-2.4708	-2.1583	-2.8917	207.744	436.144	376.936	446.019	294.945	289.983	428.634	499.366	478.406	454.224	416.529	162.519	206.214	333.592	272.137	194.136	0.00023534	0.00032402	5.2395e-05	1015.8	3.0205e-06	6.5874e-06	1113.9	216.46	2.2451e-06	1.0475e-06	276.4	76.343	60.955	18.157	2.782e-06	24.955	0.00054457	0.00076144	0.00020597	1006.3	7.8729e-06	8.0795e-06	1097.9	215.89	7.6448e-06	8.0147e-06	276.4	77.562	61.276	18.447	8.0273e-06	25.734	247.560	265.167	306.980	162.691	281.866	274.143	162.773	170.346	326.017	310.871	170.223	176.954	177.181	184.092	293.581	183.779	-8191	255	
19652.467	1	1	0	0	0.22302	0.23625	0.036565	0.29362	0.15518	0.13363	0.14186	0.067299	0.17027	0.2138	0.13699	0.33444	0.24664	0.34743	0.30719	0.27298	-1.6229	-2.1875	-2.5	-2.2146	-2.6063	-2.575	-2.2208	-2.8563	-2.2938	-2.3208	-2.6542	-2.0938	-2.5833	-2.5938	-2.0458	-2.7479	460.514	236.047	363.388	175.255	325.171	473.917	230.233	226.713	383.834	498.396	494.425	479.946	201.563	214.071	287.911	396.871	0.00026101	0.00030456	0.0001248	1018.1	3.178e-06	3.0956e-06	1105.3	216.12	4.2154e-06	4.2118e-06	275.68	76.647	60.69	18.043	3.5781e-06	25.145	0.00055854	0.00074733	0.00020421	1006.4	7.8092e-06	8.4759e-06	1094	216.2	7.9821e-06	8.4173e-06	276.72	77.612	61.297	18.403	7.6359e-06	25.787	249.130	225.765	217.897	162.749	291.711	283.436	162.195	170.073	301.419	295.625	169.559	175.967	177.307	183.798	294.250	183.342	-8191	255	
19652.562	1	1	0	0	0.16776	0.14067	0.16169	0.13053	0.12786	0.40647	0.34183	0.2768	0.076216	0.21973	0.072504	0.15585	0.16289	0.11503	0.29859	0.2364	-2.0542	-2.2333	-2.6875	-2.0729	-2.3563	-2.5771	-2.1208	-2.7417	-2.3625	-2.1479	-2.7104	-2.0104	-2.4208	-2.5792	-2.0583	-2.625	452.196	362.349	311.914	163.929	425.626	405.956	493.201	477.243	375.192	185.803	220.524	176.090	284.312	213.409	453.576	259.269	0.0002245	0.00041182	8.5122e-05	1016	3.5392e-06	1.8243e-06	1104.7	218.22	4.0136e-06	2.3453e-06	275.79	76.246	60.531	18.164	2.9308e-06	25.05	0.00053166	0.00074497	0.00020473	1005.3	7.6743e-06	8.1494e-06	1093.9	216.16	7.735e-06	8.0806e-06	276.31	77.505	61.191	18.45	7.6595e-06	25.673	246.634	261.115	232.532	162.490	322.131	218.729	162.326	170.001	306.171	301.305	169.416	176.666	176.500	183.902	306.008	182.921	-8191	255	
19652.637	1	1	0	0	0.17728	0.13674	0.095436	0.29803	0.098587	0.057634	0.15747	0.16574	0.14589	0.1025	0.17219	0.19297	0.22538	0.17631	0.13994	0.24398	-1.9958	-2.0333	-2.7646	-2.3354	-2.4792	-2.8125	-2.1604	-2.5021	-2.4521	-1.9312	-2.7	-2.2667	-2.4896	-2.7333	-1.9375	-2.6312	193.860	264.327	271.896	476.719	174.560	251.022	450.122	463.789	473.743	484.141	430.884	155.670	381.313	459.415	347.277	180.260	0.0002166	0.00032294	6.8865e-05	1014.2	3.5806e-06	1.953e-06	1104.9	215.99	2.1976e-06	2.8478e-06	275.82	76.836	60.374	18.127	4.4689e-06	25.052	0.00053858	0.00072435	0.00020326	1003.9	7.4925e-06	7.9433e-06	1093.5	216.15	7.517e-06	7.9123e-06	275.8	77.52	61.139	18.403	7.7221e-06	25.712	241.945	227.596	302.200	162.393	307.613	331.295	162.392	169.964	285.897	314.590	169.611	176.169	176.887	184.112	306.193	182.997	-8191	255	
19652.756	1	1	0	0	0.0938	0.19466	0.20106	0.18704	0.23285	0.19789	0.32567	0.37948	0.2518	0.30644	0.20782	0.086701	0.065946	0.10004	0.17581	0.090851	-2.1208	-1.9167	-2.7083	-2.2521	-2.0792	-2.8312	-2.1896	-2.5333	-2.3563	-2.0104	-2.7958	-2.2771	-2.2958	-2.7042	-2.0104	-2.4917	402.953	306.138	307.596	377.094	260.445	231.981	418.235	329.647	276.115	435.369	361.316	477.414	162.697	279.980	506.056	447.111	0.00024165	0.00026352	5.2837e-05	1013.2	3.0681e-06	7.2018e-07	1101.1	216.7	2.9737e-06	1.9915e-06	274.77	76.486	60.474	17.967	2.188e-06	25.188	0.00053438	0.00076828	0.00020227	1001.7	7.785e-06	8.4249e-06	1090.1	216.04	7.5748e-06	8.2442e-06	275.51	77.411	61.13	18.33	7.764e-06	25.68	245.923	285.275	226.028	162.559	334.791	267.553	162.517	170.424	315.789	270.360	170.121	176.794	177.008	184.248	280.044	183.538	-8191	255	
19652.852	1	1	0	0	0.13794	0.20523	0.03126	0.38525	0.45414	0.04851	0.21212	0.020683	0.1004	0.17951	0.087071	0.11397	0.25073	0.19708	0.22117	0.42005	-2.2042	-1.8188	-2.4896	-2.5979	-2.0167	-2.6667	-2.0729	-2.5792	-2.6792	-2.0042	-2.7771	-2.3604	-2.2125	-2.7125	-2.175	-2.2687	402.206	210.162	286.861	462.099	244.807	155.524	412.038	430.995	317.900	336.707	190.140	250.977	500.788	472.615	276.976	289.841	0.00026863	0.00048114	0.00011879	1011	3.0501e-06	6.1339e-06	1103.1	217.28	2.6663e-06	3.7019e-06	276.68	76.4	60.036	18.025	2.7222e-06	25.307	0.00056212	0.00075625	0.00020521	1000.9	7.7055e-06	8.0338e-06	1089.8	216.17	7.7007e-06	8.399e-06	276.37	77.165	60.905	18.317	7.7601e-06	25.629	249.865	270.590	282.213	162.434	347.116	300.319	162.665	170.079	267.901	287.467	169.798	177.072	176.626	184.072	290.602	182.988	-8191	255	
19652.947	1	1	0	0	0.38885	0.15463	0.13848	0.58496	0.17067	0.13289	0.13321	0.23643	0.22648	0.22957	0.12646	0.12595	0.15207	0.16131	0.25765	0.11	-2.1458	-1.9104	-2.5062	-2.7333	-2.0208	-2.8354	-2.3333	-2.4313	-2.6437	-1.7104	-2.6063	-2.5521	-1.9625	-2.7062	-2.3187	-2.4562	350.884	267.303	500.124	492.070	446.629	464.544	454.696	475.837	363.498	171.454	428.729	398.310	280.270	417.282	321.268	407.546	0.00025414	0.00035836	0.00010361	1012.9	3.2277e-06	3.281e-06	1097.4	216.87	4.115e-06	2.0583e-06	274.97	76.851	60.271	18.073	2.0058e-06	24.966	0.00054555	0.00073926	0.00020334	1002.3	7.7483e-06	8.3118e-06	1086.6	216.26	7.4151e-06	8.1203e-06	275.73	77.442	60.856	18.301	7.6462e-06	25.645	244.175	201.058	259.234	162.665	299.499	329.529	162.470	170.389	306.994	315.290	169.725	176.707	176.946	183.818	301.641	183.816	-8191	255	
19653.043	1	1	0	0	0.19898	0.18334	0.14979	0.17314	0.18213	0.22675	0.082168	0.10843	0.15125	0.29745	0.084611	0.04241	0.20488	0.26918	0.14972	0.33217	-2.3312	-2.2083	-2.4479	-2.6479	-1.7687	-2.7646	-2.3521	-2.3229	-2.6417	-1.9813	-2.4479	-2.4229	-1.8271	-2.8375	-2.2667	-2.1688	496.401	292.520	289.831	173.829	328.600	185.050	426.232	381.683	446.152	492.585	246.869	165.915	440.896	250.249	176.312	391.771	0.00025066	0.0004087	7.0676e-05	1008.6	2.8687e-06	2.1958e-06	1101	215.28	3.8042e-06	2.9853e-06	273.64	76.763	60.308	17.875	1.856e-06	24.92	0.00051886	0.00072477	0.0001985	998.74	7.5706e-06	7.5627e-06	1087.2	215.08	7.1341e-06	8.1475e-06	274.55	77.124	60.798	18.248	7.7729e-06	25.578	242.373	228.966	230.628	162.482	283.500	300.244	162.710	170.311	320.840	281.774	170.350	176.568	177.240	183.856	317.716	183.472	-8191	255	
19653.164	1	1	0	0	0.077804	0.34325	0.15463	0.14589	0.17487	0.32516	0.29544	0.11695	0.08429	0.14822	0.30458	0.10264	0.22076	0.10034	0.14212	0.17317	-2.4292	-2.2229	-2.5375	-2.7708	-1.8083	-2.6063	-2.4604	-2.1729	-2.7333	-2.15	-2.5104	-2.7396	-2.0187	-2.6104	-2.3854	-2.2708	343.141	168.378	467.048	480.043	376.406	360.868	434.447	332.098	467.641	276.778	490.416	263.783	337.682	335.292	427.633	164.739	0.00022727	0.00030141	0.00011602	1008	3.6548e-06	6.3168e-07	1100.1	215.49	3.742e-06	2.811e-06	274.33	76.692	60.402	17.835	2.0975e-06	25.084	0.0005193	0.0007311	0.00020435	998.48	7.619e-06	7.8587e-06	1087.1	215.13	7.5767e-06	8.0032e-06	275.27	77.122	61.057	18.269	7.8395e-06	25.563	248.940	262.492	251.740	162.698	305.659	373.969	162.663	170.345	310.455	294.783	169.892	176.709	177.290	184.532	308.291	183.241	-8191	255	
19653.260	1	1	0	0	0.077241	0.20637	0.1358	0.085472	0.25618	0.098208	0.30553	0.070886	0.026502	0.3439	0.098869	0.17206	0.28728	0.30063	0.084486	0.14472	-2.1646	-2.1604	-2.2208	-2.6437	-2.0563	-2.6688	-2.5521	-1.8604	-2.7562	-2.4021	-2.1729	-2.7375	-2.0583	-2.3896	-2.6146	-2.2062	478.590	493.920	180.671	439.632	510.541	484.510	436.096	173.042	411.837	322.168	410.080	391.962	266.001	381.769	303.546	404.707	0.00025322	0.00025482	6.5517e-05	1007.4	3.6643e-06	2.3001e-06	1096.3	216	2.6826e-06	1.2306e-06	275	76.537	60.665	17.895	3.1812e-06	24.958	0.00052437	0.00072581	0.00020331	998.13	7.4088e-06	7.7604e-06	1084.9	215.32	7.2802e-06	7.894e-06	274.61	77.139	60.863	18.218	7.5038e-06	25.513	243.349	209.765	258.302	162.560	325.426	306.790	162.836	170.217	289.879	348.284	170.222	176.793	177.231	184.309	262.358	183.895	-8191	255	
19653.332	1	1	0	0	0.099893	0.21666	0.054895	0.073582	0.06465	0.13578	0.21236	0.18335	0.15104	0.29879	0.15069	0.21448	0.27483	0.34798	0.31038	0.060881	-2.1833	-2.1521	-2.0083	-2.9375	-2.0146	-2.3271	-2.6979	-2.0312	-2.6917	-2.2812	-2.1292	-2.8042	-2.1979	-2.3875	-2.6854	-2.0875	212.884	464.940	430.166	424.629	329.840	367.241	454.854	459.090	191.015	356.285	213.320	438.137	221.357	406.261	198.963	489.268	0.00023054	7.3292e-05	9.6936e-05	1007.7	2.8222e-06	2.3972e-06	1096.2	214.85	3.3486e-06	2.667e-06	274.17	76.818	59.708	17.987	2.2494e-06	24.933	0.00051227	0.00072137	0.00019847	995.87	7.5288e-06	7.7699e-06	1084.9	214.7	7.5659e-06	8.0158e-06	274.47	77.268	60.593	18.269	7.6452e-06	25.523	249.464	175.699	268.603	162.723	273.495	308.722	162.542	170.043	302.620	303.324	169.877	176.306	177.269	183.544	289.603	183.952	-8191	255	
19653.451	1	1	0	0	0.076626	0.10004	0.10494	0.22919	0.13839	0.15468	0.066658	0.12179	0.15644	0.21372	0.19984	0.059589	0.14758	0.11708	0.13097	0.21042	-2.25	-2.3583	-2.1396	-2.9042	-2.1854	-2.35	-2.9917	-2.0458	-2.5542	-2.2687	-2.1521	-2.6333	-1.9708	-2.2354	-2.8479	-2.0792	458.194	404.209	186.589	454.574	475.296	220.784	422.279	498.523	505.720	432.337	454.701	511.961	440.127	223.351	215.406	337.587	0.00025541	0.0005157	7.3753e-05	1008.3	4.5467e-06	3.1853e-06	1095.7	214.76	3.1994e-06	2.5544e-06	276.42	76.026	59.59	17.843	1.1201e-06	24.852	0.00052277	0.00075205	0.00021662	996.06	8.0018e-06	8.2488e-06	1084.6	214.78	7.7077e-06	8.0728e-06	275.18	76.853	60.586	18.228	8.0435e-06	25.484	242.663	222.539	251.937	162.463	311.752	324.515	162.524	170.302	244.992	293.841	169.923	176.552	177.452	184.056	453.336	183.729	-8191	255	
19653.549	1	1	0	0	0.027469	0.06985	0.1614	0.14537	0.090816	0.12007	0.17394	0.10666	0.18482	0.29757	0.23438	0.24536	0.10072	0.075412	0.22102	0.15919	-2.1875	-2.6188	-1.9146	-2.6979	-2.0417	-2.1979	-2.7583	-2.075	-2.4417	-2.6562	-2.0646	-2.7	-2.3458	-2.2188	-2.7938	-2.0792	357.913	440.007	279.678	205.633	473.290	409.126	430.021	187.184	461.724	494.888	465.802	421.304	217.240	304.911	378.439	487.200	0.00024878	0.00036122	5.7693e-05	1009.3	2.0766e-06	2.1518e-06	1096.1	216.02	6.6671e-07	4.394e-06	273.82	76.035	60.16	17.829	3.2827e-06	25.07	0.00053991	0.00074138	0.00020684	996.82	7.8804e-06	8.2803e-06	1083.4	214.75	7.7106e-06	8.2171e-06	274.49	77.012	60.69	18.173	7.9267e-06	25.522	254.844	200.083	182.252	162.802	315.760	305.675	162.967	170.341	265.454	314.955	170.028	177.234	177.014	184.282	309.585	183.750	-8191	255	
19653.643	1	1	0	0	0.25871	0.016393	0.042027	0.22753	0.13625	0.082445	0.066865	0.076487	0.22861	0.1598	0.33623	0.16477	0.043699	0.23064	0.07316	0.32835	-2.1125	-2.6604	-1.9958	-2.9625	-2.4146	-2.0979	-2.8563	-2.3229	-2.4813	-2.6375	-1.9979	-2.5583	-2.2812	-2.1208	-2.6771	-2.1729	477.923	165.493	407.349	440.752	291.784	354.314	170.674	505.665	501.799	206.475	442.640	345.380	317.497	441.066	419.396	451.728	0.00024945	0.00028845	9.559e-05	1008.4	2.3278e-06	3.7793e-06	1097.8	214.25	4.1975e-06	2.5418e-06	275.29	76.048	59.974	17.802	1.0295e-06	25.08	0.00054313	0.0007201	0.00020847	996.48	7.7199e-06	8.0427e-06	1085.3	214.75	7.82e-06	8.2291e-06	274.78	76.962	60.689	18.196	7.6595e-06	25.54	245.178	211.608	208.452	162.886	335.462	302.943	162.924	170.514	307.217	361.090	170.140	176.934	177.435	184.446	260.441	183.549	-8191	255	
19653.740	1	1	0	0	0.2144	0.14718	0.14313	0.16377	0.20479	0.058443	0.12826	0.25393	0.083533	0.18114	0.3282	0.24902	0.30813	0.16029	0.1818	0.25475	-2.0104	-2.6875	-1.7812	-2.7938	-2.3063	-1.9833	-2.8937	-2.3896	-2.2062	-2.6583	-1.9625	-2.5292	-2.3021	-2.0396	-2.6813	-2.2583	273.614	212.254	446.614	492.948	358.491	470.686	501.734	421.656	434.000	241.036	468.424	172.081	417.352	216.579	297.876	179.765	0.00019875	0.00023402	0.00010732	1002.2	3.5682e-06	4.4859e-06	1093.9	216.47	1.2322e-06	3.8204e-06	275.68	76.422	59.821	17.948	5.4795e-07	25.01	0.00054143	0.00072732	0.00020313	992.83	7.899e-06	8.4059e-06	1082.3	215.22	7.7214e-06	8.3964e-06	274.69	76.96	60.547	18.257	8.0342e-06	25.482	245.043	219.577	254.038	162.939	290.895	323.664	162.798	170.545	376.481	319.053	170.059	176.830	177.262	184.450	253.334	183.733	-8191	255	
19653.859	1	1	0	0	0.28811	0.080477	0.067026	0.15058	0.28619	0.23623	0.093319	0.24392	0.033076	0.077144	0.27519	0.15747	0.19192	0.16697	0.098084	0.092931	-1.7229	-2.6708	-1.9813	-2.6104	-2.6625	-1.8813	-2.9021	-2.5	-2.3396	-2.9833	-2.0792	-2.6271	-2.6771	-2.1271	-2.7458	-2.3479	259.114	487.333	431.232	418.659	310.032	387.664	168.014	445.890	249.108	354.936	403.924	397.600	374.784	399.732	484.215	503.228	0.00024248	0.00011533	7.6939e-05	1001.4	3.2877e-07	1.7582e-06	1101.2	214.99	2.2159e-06	3.4916e-06	274.11	75.745	59.704	17.889	4.4607e-06	24.929	0.00055957	0.00076007	0.00021503	994.23	7.938e-06	8.5642e-06	1085.3	214.97	8.0497e-06	8.5626e-06	274.05	76.68	60.436	18.247	8.0046e-06	25.462	247.888	239.171	307.150	162.781	301.692	238.909	162.823	170.258	309.099	265.114	170.180	176.611	177.075	184.433	302.462	183.905	-8191	255	
19653.932	1	1	0	0	0.016953	0.015663	0.3194	0.20822	0.33167	0.2367	0.18042	0.16711	0.14085	0.25965	0.2073	0.16915	0.15417	0.19384	0.14674	0.15271	-1.7958	-2.6937	-2.0646	-2.4167	-2.5521	-1.9104	-2.7479	-2.3104	-2.1208	-2.7833	-2.1458	-2.1979	-2.55	-2.0021	-2.3917	-2.7271	156.990	417.358	346.100	348.789	367.578	166.359	432.568	243.640	419.021	482.500	188.110	371.635	211.940	504.668	172.759	274.728	0.00024004	0.00024365	8.9156e-05	1005.5	3.5523e-06	2.3094e-06	1097.3	215.31	1.9214e-06	1.3885e-06	274.77	76.039	59.823	17.827	2.7658e-06	24.984	0.00056448	0.00075077	0.00021449	995.47	7.9618e-06	8.5805e-06	1084.7	214.52	8.0131e-06	8.3127e-06	275.21	76.847	60.671	18.229	8.1623e-06	25.514	247.422	227.200	262.373	162.751	300.944	357.928	162.788	170.566	268.111	292.046	170.041	176.544	177.456	184.423	323.850	184.219	-8191	255	
19654.053	1	1	0	0	0.15822	0.26937	0.14765	0.17737	0.026099	0.11165	0.15209	0.15846	0.24745	0.34764	0.1153	0.10295	0.11312	0.060835	0.30784	0.20258	-1.6667	-2.6333	-2.2458	-2.3896	-2.8271	-1.9167	-2.5563	-2.4292	-2.0896	-2.7917	-2.2625	-2.1729	-2.7292	-2.0104	-2.3083	-2.4792	201.470	383.322	156.844	159.147	370.033	384.115	300.527	242.744	360.744	322.501	495.021	263.201	319.868	289.815	480.301	442.891	0.00025119	0.00030076	7.0924e-05	1007.2	2.3119e-06	4.4791e-06	1097.4	215.25	3.8894e-06	4.0709e-07	273.94	76.064	60.324	17.833	1.9645e-06	25.047	0.0005401	0.00074219	0.00021525	996.48	7.966e-06	8.2908e-06	1084.5	215.24	8.0258e-06	8.2767e-06	274.57	76.982	60.738	18.209	8.0958e-06	25.467	247.259	249.039	247.202	162.750	279.815	323.509	162.837	170.674	302.309	317.926	170.175	176.805	177.078	184.434	284.602	183.857	-8191	255	
19654.148	1	1	0	0	0.20055	0.0616	0.093628	0.16553	0.11768	0.21035	0.15068	0.14256	0.20769	0.16103	0.12307	0.13685	0.067649	0.053193	0.2954	0.37107	-1.6542	-2.6646	-2.2042	-2.3688	-2.7583	-2.1896	-2.4708	-2.5583	-2.0729	-2.9229	-2.3167	-2.2542	-2.525	-2.1396	-2.3187	-2.6312	426.930	467.576	347.787	447.093	377.047	287.767	391.169	450.140	342.290	401.073	371.304	438.968	498.949	421.460	244.828	483.394	0.00025241	0.00049029	5.1044e-05	1007.7	2.7603e-06	1.8968e-06	1096.5	215.55	3.8458e-06	2.8096e-06	274.83	76.131	60.088	17.861	1.4591e-06	24.845	0.00055046	0.00075077	0.00021457	995.93	8.0152e-06	8.5347e-06	1084.7	214.79	7.922e-06	8.5621e-06	274.58	76.964	60.742	18.211	8.1421e-06	25.466	242.946	274.221	218.363	162.705	274.610	308.337	162.879	170.635	297.914	358.393	169.776	176.599	176.966	184.134	232.865	183.220	-8191	255	
19654.244	1	1	0	0	0.15258	0.15125	0.13127	0.33878	0.29737	0.24641	0.4096	0.10862	0.29978	0.17309	0.16921	0.14264	0.19992	0.045289	0.22124	0.015125	-1.5729	-2.4521	-2.5229	-2.1688	-2.8375	-2.1562	-2.5729	-2.8667	-1.9667	-2.6708	-2.6396	-2.0917	-2.8021	-2.1104	-2.2042	-2.775	314.154	175.101	223.041	163.199	236.358	282.908	405.821	404.634	180.357	511.375	468.758	249.150	347.544	239.767	285.848	393.495	0.00024498	0.00028625	8.9069e-05	1000.7	1.8087e-06	4.1872e-06	1100.6	215.39	3.9079e-06	2.4994e-06	272.79	76	60.029	17.873	1.9069e-06	25.045	0.0005481	0.00076139	0.00020625	994.23	7.6539e-06	8.2135e-06	1085.4	215.24	7.743e-06	8.2103e-06	274.02	76.885	60.637	18.24	7.9242e-06	25.575	241.043	208.552	243.446	162.570	319.919	281.022	162.476	169.968	267.296	339.640	169.722	176.949	177.571	184.304	317.872	183.511	-8191	255	
19654.340	1	1	0	0	0.45056	0.12566	0.076719	0.14764	0.043108	0.092102	0.20667	0.14313	0.13896	0.1724	0.061856	0.16924	0.30141	0.20122	0.43213	0.16612	-1.5729	-2.375	-2.5271	-2.2042	-2.8208	-2.2958	-2.4	-2.8354	-2.0687	-2.5646	-2.6042	-2.2354	-2.7917	-2.2188	-2.0375	-2.7417	412.897	503.583	358.631	460.688	386.180	478.853	315.499	315.419	388.538	396.248	235.127	434.930	500.493	366.909	287.447	464.558	0.00021	0.00035862	0.00010431	1005.9	3.3941e-06	4.0118e-06	1091.3	214.08	3.3974e-06	3.2551e-06	274.82	76.302	59.794	17.825	2.2214e-06	25.057	0.00054354	0.00072166	0.00021578	996.36	7.6162e-06	8.2456e-06	1083.5	214.87	7.5259e-06	8.1784e-06	275.25	77.059	60.534	18.24	7.8952e-06	25.607	246.196	265.004	258.769	162.581	319.547	321.325	162.655	170.169	316.723	343.066	170.024	176.300	177.121	184.120	316.320	183.410	-8191	255	
19654.461	1	1	0	0	0.061539	0.25848	0.28461	0.55798	0.10236	0.1683	0.16244	0.15441	0.20819	0.12179	0.14537	0.036003	0.15665	0.14713	0.031204	0.21254	-1.7271	-2.4083	-2.5687	-1.9979	-2.675	-2.4417	-2.1125	-2.7812	-2.1229	-2.4875	-2.6979	-2.0187	-2.6667	-2.3979	-2.1417	-2.7687	257.249	313.557	467.033	441.542	191.957	192.422	412.211	161.302	498.259	442.587	277.628	451.494	494.907	170.478	278.082	452.185	0.00027178	0.00022241	6.7534e-05	1010	1.2411e-06	2.0552e-06	1097.2	214.54	1.404e-06	4.1683e-06	276.17	76.337	59.984	17.794	3.0643e-06	24.983	0.00055764	0.00076304	0.0002077	997.28	7.8948e-06	8.1026e-06	1084.2	214.76	7.828e-06	8.4094e-06	275.34	76.947	60.632	18.218	8.0711e-06	25.559	244.091	228.315	289.842	162.638	330.291	338.970	162.721	170.354	308.154	327.290	169.969	176.763	177.131	184.015	308.215	183.477	-8191	255	
19654.533	1	1	0	0	0.054297	0.12899	0.19366	0.19844	0.25066	0.066269	0.22627	0.13403	0.20185	0.21629	0.1396	0.10772	0.10686	0.13229	0.06923	0.091782	-1.7604	-2.3229	-2.5833	-2.2188	-2.6	-2.5687	-2.2062	-2.5167	-2.0896	-2.4396	-2.8354	-2.1146	-2.3521	-2.5104	-2.1271	-2.6208	350.966	203.264	200.377	445.593	299.618	362.251	398.318	485.191	493.520	447.765	242.344	453.878	507.728	160.822	455.999	435.151	0.00024742	0.0002066	1.9442e-05	1010.9	1.811e-06	2.6402e-06	1097.5	215.9	3.159e-06	4.7085e-06	273.13	75.62	60.137	17.828	4.3532e-06	24.94	0.00054343	0.0007621	0.00021325	997.29	8.0078e-06	8.3324e-06	1084.8	215.01	8e-06	8.7524e-06	274.27	76.714	60.648	18.216	8.1436e-06	25.516	247.156	169.818	498.501	162.701	282.967	308.354	162.523	170.326	300.898	295.892	170.257	176.683	176.900	184.498	304.457	183.706	-8191	255	
19654.627	1	1	0	0	0.098673	0.053612	0.17442	0.11976	0.23851	0.17236	0.22285	0.12572	0.12418	0.13795	0.098082	0.12159	0.07264	0.30959	0.17459	0.15876	-1.825	-2.1979	-2.7188	-2.2021	-2.4896	-2.4437	-2.2125	-2.8854	-2.4083	-2.0146	-2.7125	-2.0375	-2.4042	-2.4958	-2.0292	-2.7938	452.111	255.610	220.340	472.383	413.444	490.161	470.546	439.792	300.109	311.326	486.748	480.647	350.216	387.920	458.548	318.506	0.00024458	0.00027248	0.00012985	1005.2	1.0528e-06	2.0078e-06	1095.3	214.92	4.7353e-06	3.2626e-06	275.86	76.259	60.653	17.808	1.7167e-06	24.865	0.0005632	0.00078201	0.00021558	995.21	8.1529e-06	8.5715e-06	1083.7	214.76	7.9032e-06	8.733e-06	275.09	76.97	60.834	18.2	8.3398e-06	25.458	250.035	231.161	224.871	162.795	351.706	294.732	162.781	170.569	318.456	241.269	169.935	176.729	176.961	184.434	323.101	183.837	-8191	255	
19654.723	1	1	0	0	0.15805	0.13634	0.28615	0.065292	0.087835	0.21939	0.1664	0.12967	0.13038	0.11992	0.096843	0.12605	0.097272	0.20562	0.066771	0.10606	-1.7417	-2.2313	-2.6042	-2.0792	-2.4125	-2.5729	-2.3042	-2.7792	-2.3563	-2.0938	-2.7812	-2.2146	-2.2062	-2.6792	-2	-2.725	470.980	249.579	317.927	171.734	300.653	365.142	447.010	435.975	276.448	451.477	184.565	286.779	451.868	161.019	457.405	336.632	0.00023969	0.00037504	9.4217e-05	1006.2	4.5082e-06	3.4952e-06	1095.6	216.03	4.2366e-06	3.719e-06	273.41	75.665	59.865	17.862	2.5728e-06	25.093	0.00055276	0.0007965	0.00021766	993.9	8.2938e-06	8.6725e-06	1082.2	215.21	8.0291e-06	8.6196e-06	274.29	76.775	60.602	18.169	8.2594e-06	25.572	240.872	232.647	255.597	162.885	310.209	284.130	162.748	170.315	309.589	312.621	169.724	176.718	177.171	184.372	280.001	183.870	-8191	255	
19654.844	1	1	0	0	0.19598	0.1122	0.22644	0.1415	0.21004	0.068429	0.15541	0.090679	0.10308	0.28712	0.11402	0.35219	0.31238	0.0052189	0.11299	0.16823	-2.1125	-1.9792	-2.6229	-2.2792	-2.0062	-2.6125	-2.1771	-2.4375	-2.5021	-1.9083	-2.8396	-2.3146	-2.1396	-2.6562	-2.0896	-2.5208	166.250	500.122	433.955	382.994	390.706	228.167	373.396	326.691	313.002	195.083	485.831	469.925	509.444	210.840	248.970	408.096	0.00024747	0.00020439	9.7025e-05	1006	2.2149e-06	3.1261e-06	1091	215.42	4.0608e-06	2.2403e-06	275.29	76.08	59.848	17.91	1.8342e-06	25.212	0.00055154	0.00078659	0.00020625	995.51	7.9343e-06	8.3776e-06	1082.8	214.35	7.7787e-06	8.2589e-06	274.68	76.902	60.703	18.217	8.014e-06	25.607	245.415	237.990	257.141	162.736	320.814	245.710	162.728	170.202	315.673	341.766	169.712	177.020	177.211	184.476	326.905	183.891	-8191	255	
19654.939	1	1	0	0	0.13682	0.17869	0.068641	0.27153	0.16889	0.26587	0.034086	0.36405	0.11315	0.10513	0.03827	0.098583	0.16877	0.051106	0.09733	0.13043	-2.0521	-1.9979	-2.7292	-2.3688	-2.0896	-2.7604	-2.1625	-2.4479	-2.5	-2.0375	-2.7417	-2.2625	-1.9083	-2.6354	-1.9646	-2.6021	303.076	424.326	382.055	507.768	390.688	394.304	418.614	392.400	380.043	195.282	397.034	193.922	485.262	395.465	335.311	273.897	0.00026048	0.0003478	9.3119e-05	1006.2	2.931e-06	1.7665e-06	1093.8	215.24	1.8155e-06	3.802e-06	273.92	76.151	60.138	17.766	2.7838e-06	24.894	0.00056231	0.00075356	0.00021024	994.71	7.9087e-06	7.7977e-06	1083.4	214.59	7.6063e-06	8.2824e-06	274.65	76.787	60.701	18.21	8.2111e-06	25.553	240.195	225.772	303.890	162.618	288.142	299.376	162.904	170.229	288.619	293.487	169.993	177.213	177.163	184.040	370.981	183.699	-8191	255	
19655.035	1	1	0	0	0.14295	0.15367	0.32145	0.1274	0.079405	0.15484	0.23267	0.07316	0.11876	0.25318	0.27006	0.20861	0.012609	0.17353	0.19077	0.14278	-2.125	-1.8708	-2.5167	-2.425	-2.0479	-2.7083	-2.2938	-2.2562	-2.6771	-2.0396	-2.4667	-2.4437	-1.9375	-2.8729	-2.0979	-2.25	365.269	292.777	361.569	173.036	493.839	252.927	420.780	407.280	243.393	376.902	164.386	478.623	370.578	167.164	275.281	394.841	0.00024862	0.00010773	0.00011657	1008.7	2.3574e-06	2.1477e-06	1092.1	215.27	2.1882e-06	4.1887e-06	273.58	76.202	60.131	17.871	4.7621e-06	24.887	0.00054365	0.00075969	0.00021494	995.18	8.0139e-06	8.4391e-06	1081.2	214.62	8.1757e-06	8.399e-06	274.39	76.759	60.66	18.243	8.0766e-06	25.439	239.648	211.187	228.381	162.562	279.263	294.841	162.731	170.282	323.586	316.170	170.230	176.710	177.144	184.604	287.278	183.872	-8191	255	
19655.133	1	1	0	0	0.097364	0.19551	0.15011	0.37105	0.11542	0.062696	0.25459	0.23243	0.15843	0.036304	0.247	0.29523	0.22327	0.042649	0.15073	0.15854	-2.3229	-1.9854	-2.3688	-2.5208	-1.9438	-2.5625	-2.3854	-2.1188	-2.725	-1.8917	-2.5042	-2.6354	-2.0792	-2.6292	-2.3563	-2.2188	403.617	508.528	238.533	506.595	198.621	411.208	415.667	187.958	278.447	354.810	245.842	449.431	479.729	414.419	224.091	417.619	0.00026122	0.00048139	7.998e-05	1004.5	2.6809e-06	1.4267e-06	1096.5	215.46	3.5455e-06	5.1856e-06	274.96	76.363	59.929	17.895	3.8014e-06	24.918	0.00055322	0.00074667	0.00021002	993.94	8.2297e-06	8.3045e-06	1081	214.98	8.1089e-06	8.3697e-06	274.91	77.039	60.663	18.192	7.977e-06	25.448	246.398	247.354	223.102	162.513	282.085	268.507	162.756	170.560	295.425	289.204	169.942	176.687	177.071	183.991	302.220	183.923	-8191	255	
19655.229	1	1	0	0	0.14531	0.25591	0.047309	0.11037	0.2181	0.10749	0.32155	0.28389	0.13794	0.23203	0.24818	0.073301	0.23646	0.26581	0.029187	0.028033	-2.2479	-1.9146	-2.2938	-2.5687	-2.0083	-2.6354	-2.5042	-2.1	-2.7938	-1.9688	-2.4979	-2.7729	-2.0083	-2.6146	-2.3063	-2.0604	183.340	169.225	255.362	389.475	175.573	509.447	461.073	444.904	178.510	292.849	321.607	440.602	172.012	479.296	388.081	426.195	0.00022238	0.00034686	0.00014662	1007	2.6201e-06	1.9283e-06	1094.6	214.61	2.5886e-06	5.8282e-06	272.13	76.67	60.118	17.787	3.6115e-06	24.808	0.00055412	0.00078296	0.00021341	996.11	8.0357e-06	8.2072e-06	1083.2	214.47	7.9384e-06	8.5401e-06	273.26	76.938	60.738	18.169	8.0736e-06	25.376	243.555	211.618	247.905	162.647	290.529	284.782	162.799	170.114	303.860	303.765	169.841	176.943	177.111	184.264	299.017	183.436	-8191	255	
19655.324	1	1	0	0	0.18849	0.11796	0.31708	0.035604	0.15772	0.23622	0.032087	0.14484	0.13281	0.19292	0.16583	0.17742	0.19323	0.055044	0.12081	0.13649	-2.3417	-2.0958	-2.4208	-2.7771	-2.0229	-2.5146	-2.7021	-2.1604	-2.6792	-2.1583	-2.3542	-2.8333	-2.1104	-2.5687	-2.4979	-2.0375	437.810	387.080	268.023	490.181	312.306	459.342	255.380	202.650	453.814	387.682	408.401	505.528	349.670	382.182	509.220	458.566	0.00024639	0.00015975	9.2647e-05	1004.8	2.3123e-06	2.8743e-06	1095.4	213.98	2.6739e-06	3.7389e-06	273.46	76.338	60.133	17.825	4.0613e-06	24.96	0.00054742	0.00074209	0.00021726	995.65	7.9222e-06	8.6583e-06	1082.5	214.16	7.7651e-06	8.3284e-06	273.43	76.859	60.501	18.153	7.9494e-06	25.499	244.062	366.482	296.320	162.876	316.939	285.521	162.797	170.292	346.118	316.761	169.786	177.006	177.481	183.927	283.737	183.708	-8191	255	
19655.422	1	1	0	0	0.12794	0.17074	0.28311	0.15886	0.16184	0.058377	0.11052	0.14216	0.078929	0.24066	0.22108	0.22357	0.1675	0.12605	0.34609	0.15919	-2.2083	-2.3667	-2.275	-2.8312	-2.0292	-2.7667	-2.7229	-2.0417	-2.7354	-2.2	-2.1458	-2.8146	-1.9667	-2.5708	-2.7875	-2.2062	280.103	344.998	177.234	475.192	408.894	344.732	327.700	420.153	405.558	324.802	472.037	457.910	414.035	424.868	451.671	268.687	0.00027376	0.00015558	7.8391e-05	1002.1	1.5846e-06	1.3852e-06	1094.5	213.75	3.4373e-06	4.0914e-06	273.27	76.236	59.379	17.729	1.7273e-06	24.656	0.00055124	0.00077828	0.00022037	991.75	8.1455e-06	8.4701e-06	1082.7	213.94	7.8637e-06	8.7022e-06	273.33	76.835	60.376	18.136	8.1746e-06	25.316	246.412	226.120	261.299	162.701	315.114	418.028	162.681	170.172	283.819	309.645	170.209	177.040	177.157	184.429	320.241	183.620	-8191	255	
19655.541	1	1	0	0	0.4304	0.17794	0.022532	0.072958	0.06515	0.08798	0.17002	0.16572	0.41084	0.21882	0.10449	0.39751	0.1955	0.1751	0.20674	0.065229	-2.3458	-2.3042	-2.2562	-2.9229	-2.0896	-2.4854	-2.9229	-2.1604	-2.7	-2.5146	-2.0687	-2.6667	-2.175	-2.3854	-2.6854	-2.1083	301.571	341.950	444.561	427.304	489.862	186.861	457.751	468.787	326.241	487.351	449.947	359.196	478.000	510.836	186.981	355.194	0.00023941	0.00019796	4.8341e-05	1005.3	2.7767e-06	3.516e-06	1096.8	213.99	2.9823e-06	2.1824e-06	274.47	75.929	60.253	17.887	1.3749e-06	24.741	0.00056567	0.0008057	0.00021509	993.17	8.3296e-06	8.909e-06	1082.3	213.79	8.0568e-06	8.9202e-06	273.37	76.643	60.72	18.176	8.358e-06	25.37	240.490	286.589	259.888	162.933	292.452	311.524	162.642	170.528	282.016	265.899	169.755	176.974	176.491	184.037	343.813	183.705	-8191	255	
19655.637	1	1	0	0	0.17974	0.1789	0.028208	0.12074	0.20866	0.2095	0.132	0.28075	0.082272	0.21924	0.0914	0.16744	0.11518	0.18855	0.20962	0.27448	-2.2	-2.2812	-2.1125	-2.75	-2.1458	-2.2333	-2.8646	-2.0375	-2.4917	-2.5917	-2.0417	-2.7521	-2.4271	-2.0521	-2.8167	-2.0812	221.954	340.502	205.945	185.939	465.740	431.794	413.477	393.685	297.605	432.031	286.812	346.436	422.091	250.615	390.859	209.070	0.00023941	0.00031415	0.00013902	1007	3.6294e-06	2.9007e-06	1096.8	214.16	2.5674e-06	4.737e-06	272.84	75.71	59.902	17.816	4.3303e-06	24.816	0.00055805	0.00081627	0.00021701	994.03	8.1427e-06	8.5658e-06	1081.7	214.04	8.0037e-06	8.4142e-06	273.48	76.697	60.47	18.212	8.0884e-06	25.403	243.457	273.176	256.310	162.845	321.737	230.854	163.004	170.582	281.913	307.607	169.823	176.784	176.946	184.239	313.886	183.885	-8191	255	
19655.732	1	1	0	0	0.30864	0.23901	0.17606	0.21783	0.095433	0.1393	0.1073	0.010128	0.11929	0.23866	0.26971	0.20208	0.15815	0.14869	0.33944	0.13779	-1.9958	-2.4417	-1.9	-2.7667	-2.4188	-2.3208	-2.725	-2.0396	-2.3937	-2.4417	-2.1396	-2.8104	-2.3667	-2.2167	-2.7354	-2.0458	180.701	222.121	239.583	492.041	510.300	446.299	466.200	434.991	199.164	423.248	449.998	177.837	478.709	331.622	433.756	212.038	0.00022716	0.00023916	0.00014063	1006.4	4.2362e-06	3.8667e-06	1093.3	214.57	2.9196e-06	2.842e-06	273.75	75.703	59.859	17.693	1.7116e-06	24.788	0.00054541	0.00078451	0.00022126	995.74	8.2576e-06	8.6299e-06	1081.4	214.1	8.1428e-06	8.5109e-06	273.32	76.541	60.51	18.122	8.1949e-06	25.384	243.790	228.894	233.538	162.681	264.554	317.904	162.759	170.439	317.664	281.852	170.090	177.090	177.000	184.436	186.587	183.605	-8191	255	
19655.828	1	1	0	0	0.17709	0.16559	0.33937	0.072667	0.032658	0.23919	0.32532	0.030037	0.25138	0.15228	0.30853	0.12807	0.086123	0.12933	0.081533	0.26947	-1.8438	-2.5625	-1.8937	-2.8604	-2.3854	-2.0646	-2.8792	-2.2604	-2.2021	-2.5854	-2.25	-2.6479	-2.3417	-2.0312	-2.9083	-2.1292	258.843	444.389	456.292	354.216	500.275	409.027	463.744	189.688	446.395	304.484	462.635	174.310	436.354	337.807	337.259	372.858	0.00025406	0.00017419	3.4132e-05	1004.4	1.0373e-06	1.8055e-06	1091.3	214.78	1.4382e-06	2.94e-06	273.77	75.917	60.215	17.791	2.7533e-06	24.873	0.00056971	0.00077272	0.00021504	994.51	8.3394e-06	8.9663e-06	1081.5	213.99	8.287e-06	8.6881e-06	273.28	76.607	60.624	18.183	8.0144e-06	25.396	245.452	215.319	218.065	162.830	352.371	279.728	163.104	170.782	313.021	281.324	169.619	177.043	177.849	184.074	300.443	183.780	-8191	255	
19655.924	1	1	0	0	0.015748	0.11734	0.10516	0.28224	0.16017	0.27839	0.04032	0.24122	0.24486	0.16196	0.32936	0.076345	0.20882	0.13105	0.096709	0.21979	-1.8521	-2.7646	-2.05	-2.6792	-2.4458	-1.8542	-3.0354	-2.3125	-2.1562	-2.8271	-1.9646	-2.7062	-2.5854	-2.1875	-2.75	-2.2271	400.590	215.253	482.054	509.370	240.180	405.403	221.606	481.943	392.359	414.566	417.236	510.482	338.339	279.701	432.492	181.128	0.00023994	0.00027654	6.0902e-05	1007.3	3.7866e-06	3.6571e-06	1092	214.62	2.2652e-06	2.4486e-06	274.67	76.104	59.863	17.721	2.7855e-06	24.855	0.0005837	0.0007671	0.00021699	995.82	8.0394e-06	8.4412e-06	1082.2	213.5	7.843e-06	8.5877e-06	273.76	76.739	60.478	18.162	8.4078e-06	25.418	242.447	190.630	243.787	162.572	285.872	290.155	162.897	170.525	340.324	311.876	169.898	176.595	177.286	184.459	356.311	183.924	-8191	255	
19656.020	1	1	0	0	0.15466	0.055155	0.1651	0.1813	0.12234	0.20796	0.20783	0.28643	0.1263	0.19617	0.20046	0.26338	0.13286	0.12358	0.02804	0.22665	-1.9417	-2.5729	-2.0979	-2.6188	-2.7021	-2.0208	-2.7542	-2.3875	-2.0917	-2.7062	-1.9937	-2.5521	-2.5667	-2.0896	-2.6417	-2.4458	324.074	481.429	183.868	469.178	221.315	487.360	474.607	477.791	265.002	298.075	250.434	205.913	476.570	331.183	404.001	453.280	0.00026564	0.00031779	5.8243e-05	1006.3	1.5341e-06	5.1152e-06	1095	214.55	1.4445e-06	3.2902e-06	274.63	76.039	60.505	17.822	2.9474e-06	24.809	0.00055518	0.00077762	0.00021569	994.98	8.0729e-06	8.5926e-06	1082.7	214.05	8.0375e-06	8.6018e-06	273.85	76.849	60.629	18.194	8.1534e-06	25.409	245.154	269.417	512.125	162.700	264.696	337.048	162.773	170.542	317.430	311.801	170.268	176.697	177.210	184.520	330.527	183.738	-8191	255	
19656.141	1	1	0	0	0.051092	0.30274	0.2088	0.15322	0.14206	0.20294	0.15547	0.075223	0.33686	0.084914	0.23648	0.21191	0.091906	0.14147	0.30401	0.15417	-1.8208	-2.9	-1.9833	-2.2896	-2.625	-2.1875	-2.7021	-2.5271	-2.1437	-2.6458	-2.1312	-2.2875	-2.6021	-1.8729	-2.6333	-2.5438	379.901	428.314	377.699	442.747	271.828	441.788	458.028	443.949	444.954	328.101	472.668	503.730	194.333	182.853	334.464	333.221	0.00024816	0.00037515	8.9569e-06	1005.5	3.5617e-06	4.2553e-06	1093.7	214.55	3.0624e-06	3.7295e-06	272.4	76.139	59.599	17.726	2.2486e-06	24.985	0.00056776	0.00078909	0.00021914	994.89	8.0976e-06	8.9206e-06	1080.4	213.77	8.1385e-06	8.6003e-06	273.9	76.641	60.47	18.088	8.4487e-06	25.445	242.015	267.836	293.829	162.668	313.038	335.294	163.059	170.808	294.556	265.331	169.984	176.895	177.396	184.509	356.969	183.821	-8191	255	
19656.236	1	1	0	0	0.2175	0.089499	0.16796	0.27898	0.082574	0.32032	0.18837	0.22969	0.15708	0.065872	0.032813	0.28875	0.077795	0.14593	0.13325	0.19608	-1.6125	-2.5646	-2.1104	-2.2167	-2.6562	-2.0479	-2.7083	-2.5083	-1.9625	-2.5208	-2.25	-2.3021	-2.7167	-2.1312	-2.4375	-2.525	482.820	377.315	262.710	424.216	256.284	281.064	504.464	420.439	287.329	272.419	314.781	427.345	225.251	230.828	300.288	282.526	0.00023677	0.0002942	7.2618e-06	1005.9	2.9148e-06	5.1697e-06	1094.2	215.48	2.7113e-06	3.3625e-06	272.93	76.177	59.888	17.797	2.8716e-06	24.842	0.00057573	0.00079938	0.00021579	993.21	8.1534e-06	8.938e-06	1081.3	214.06	8.1268e-06	8.8204e-06	273.51	76.431	60.397	18.12	8.3822e-06	25.382	243.853	290.038	249.322	162.900	321.315	291.509	162.730	170.520	316.226	271.547	170.237	177.274	177.740	184.547	325.270	183.735	-8191	255	
#DATA ENDS
