BOXY.EXE: ISS Imagent and Oximeter Data Acquisition Program Version 0.80
Ascii Record File

#ACQ INFORMATION
2  Detector Channels 
16  External MUX Channels 
1  Auxiliary Channels 
5000  Waveform (CCF) Frequency (Hz)
1  Waveforms Skipped 
30  Waveforms Averaged 
1  Cycles Averaged 
16  Acquisitions per Waveform 
10.0806  Updata Rate (Hz) 

#FILE INFORMATION
TRUE -- External MUX Channel results are PARSED.
FALSE -- AC DC and Phase are NOT grouped.
TRUE -- Companion Program Settings File CREATED.
FALSE -- AC data not excluded
FALSE -- DC data not excluded
FALSE -- Phase data not excluded
FALSE -- Auxillary Chn. data not excluded
Tab delimiters

#CALIBRATION STATE
TRUE -- Waveform Calibration Values APPLIED.


#AUX CALIBRATION VALUES
Val Type	aux-1	

Term	1.0000e+00	
Factor	0.0000e+00	


#WF CALIBRATION VALUES
A = Detector Channel
Val Type	A-AC1	A-AC2	A-AC3	A-AC4	A-AC5	A-AC6	A-AC7	A-AC8	A-AC9	A-AC10	A-AC11	A-AC12	A-AC13	A-AC14	A-AC15	A-AC16	A-DC1	A-DC2	A-DC3	A-DC4	A-DC5	A-DC6	A-DC7	A-DC8	A-DC9	A-DC10	A-DC11	A-DC12	A-DC13	A-DC14	A-DC15	A-DC16	A-Ph1	A-Ph2	A-Ph3	A-Ph4	A-Ph5	A-Ph6	A-Ph7	A-Ph8	A-Ph9	A-Ph10	A-Ph11	A-Ph12	A-Ph13	A-Ph14	A-Ph15	A-Ph16	

Term	0.00000e+00	0.00000e+00	0.00000e+00	0.00000e+00	0.00000e+00	0.00000e+00	0.00000e+00	0.00000e+00	0.00000e+00	0.00000e+00	0.00000e+00	0.00000e+00	0.00000e+00	0.00000e+00	0.00000e+00	0.00000e+00	0.00000e+00	0.00000e+00	0.00000e+00	0.00000e+00	0.00000e+00	0.00000e+00	0.00000e+00	0.00000e+00	0.00000e+00	0.00000e+00	0.00000e+00	0.00000e+00	0.00000e+00	0.00000e+00	0.00000e+00	0.00000e+00	0.00000e+00	0.00000e+00	0.00000e+00	0.00000e+00	0.00000e+00	0.00000e+00	0.00000e+00	0.00000e+00	0.00000e+00	0.00000e+00	0.00000e+00	0.00000e+00	0.00000e+00	0.00000e+00	0.00000e+00	0.00000e+00	
Factor	1.00000e+00	1.00000e+00	1.00000e+00	1.00000e+00	1.00000e+00	1.00000e+00	1.00000e+00	1.00000e+00	1.00000e+00	1.00000e+00	1.00000e+00	1.00000e+00	1.00000e+00	1.00000e+00	1.00000e+00	1.00000e+00	1.00000e+00	1.00000e+00	1.00000e+00	1.00000e+00	1.00000e+00	1.00000e+00	1.00000e+00	1.00000e+00	1.00000e+00	1.00000e+00	1.00000e+00	1.00000e+00	1.00000e+00	1.00000e+00	1.00000e+00	1.00000e+00	X	X	X	X	X	X	X	X	X	X	X	X	X	X	X	X	

B = Detector Channel
Val Type	B-AC1	B-AC2	B-AC3	B-AC4	B-AC5	B-AC6	B-AC7	B-AC8	B-AC9	B-AC10	B-AC11	B-AC12	B-AC13	B-AC14	B-AC15	B-AC16	B-DC1	B-DC2	B-DC3	B-DC4	B-DC5	B-DC6	B-DC7	B-DC8	B-DC9	B-DC10	B-DC11	B-DC12	B-DC13	B-DC14	B-DC15	B-DC16	B-Ph1	B-Ph2	B-Ph3	B-Ph4	B-Ph5	B-Ph6	B-Ph7	B-Ph8	B-Ph9	B-Ph10	B-Ph11	B-Ph12	B-Ph13	B-Ph14	B-Ph15	B-Ph16	

Term	0.00000e+00	0.00000e+00	0.00000e+00	0.00000e+00	0.00000e+00	0.00000e+00	0.00000e+00	0.00000e+00	0.00000e+00	0.00000e+00	0.00000e+00	0.00000e+00	0.00000e+00	0.00000e+00	0.00000e+00	0.00000e+00	0.00000e+00	0.00000e+00	0.00000e+00	0.00000e+00	0.00000e+00	0.00000e+00	0.00000e+00	0.00000e+00	0.00000e+00	0.00000e+00	0.00000e+00	0.00000e+00	0.00000e+00	0.00000e+00	0.00000e+00	0.00000e+00	-7.86066e+01	-1.31001e+02	-1.24786e+02	-1.83817e+02	-4.99121e+01	-6.53093e+01	-1.58668e+02	-1.62015e+02	-4.89199e+01	-6.62152e+01	-1.74374e+02	-1.69631e+02	-1.81559e+02	-1.77656e+02	-5.84456e+01	-1.50419e+02	
Factor	1.94216e-05	1.68321e-04	4.74969e-05	1.55115e-01	1.43856e-06	2.00494e-06	1.80626e-01	6.10451e-02	1.32424e-06	1.89511e-06	1.00420e-01	3.08861e-02	3.91032e-02	1.03895e-02	1.63570e-06	1.47649e-02	1.30170e-05	2.26506e-05	6.31162e-06	7.96424e-02	2.23240e-07	2.52336e-07	8.66108e-02	3.14689e-02	2.25496e-07	2.50935e-07	5.02129e-02	1.55535e-02	2.03098e-02	5.40091e-03	2.36603e-07	7.42413e-03	X	X	X	X	X	X	X	X	X	X	X	X	X	X	X	X	



#DISTANCE SETTINGS
A = Detector Channel
A-1	A-2	A-3	A-4	A-5	A-6	A-7	A-8	A-9	A-10	A-11	A-12	A-13	A-14	A-15	A-16	

2.5000e+00	3.0000e+00	2.5000e+00	3.0000e+00	2.0000e+00	3.0000e+00	1.5000e+00	3.0000e+00	3.0000e+00	3.0000e+00	3.0000e+00	3.0000e+00	3.0000e+00	3.0000e+00	1.5000e+00	3.0000e+00	

B = Detector Channel
B-1	B-2	B-3	B-4	B-5	B-6	B-7	B-8	B-9	B-10	B-11	B-12	B-13	B-14	B-15	B-16	

1.0000e+01	1.0000e+01	1.0000e+01	1.4400e+00	1.0000e+01	1.0000e+01	1.5100e+00	1.9400e+00	1.0000e+01	1.0000e+01	1.9900e+00	2.4900e+00	2.4100e+00	2.9000e+00	1.0000e+01	2.9800e+00	




#DATA BEGINS
time	group	step	mark	flag	A-AC1	A-AC2	A-AC3	A-AC4	A-AC5	A-AC6	A-AC7	A-AC8	A-AC9	A-AC10	A-AC11	A-AC12	A-AC13	A-AC14	A-AC15	A-AC16	A-DC1	A-DC2	A-DC3	A-DC4	A-DC5	A-DC6	A-DC7	A-DC8	A-DC9	A-DC10	A-DC11	A-DC12	A-DC13	A-DC14	A-DC15	A-DC16	A-Ph1	A-Ph2	A-Ph3	A-Ph4	A-Ph5	A-Ph6	A-Ph7	A-Ph8	A-Ph9	A-Ph10	A-Ph11	A-Ph12	A-Ph13	A-Ph14	A-Ph15	A-Ph16	B-AC1	B-AC2	B-AC3	B-AC4	B-AC5	B-AC6	B-AC7	B-AC8	B-AC9	B-AC10	B-AC11	B-AC12	B-AC13	B-AC14	B-AC15	B-AC16	B-DC1	B-DC2	B-DC3	B-DC4	B-DC5	B-DC6	B-DC7	B-DC8	B-DC9	B-DC10	B-DC11	B-DC12	B-DC13	B-DC14	B-DC15	B-DC16	B-Ph1	B-Ph2	B-Ph3	B-Ph4	B-Ph5	B-Ph6	B-Ph7	B-Ph8	B-Ph9	B-Ph10	B-Ph11	B-Ph12	B-Ph13	B-Ph14	B-Ph15	B-Ph16	aux-1	digaux	

20091.336	1	1	0	768	0.24367	0.12241	0.23039	0.21631	0.16388	0.12762	0.24794	0.25759	0.16747	0.084362	0.15415	0.12241	0.23089	0.074499	0.088905	0.072279	-1.8687	-2.9437	-2.7979	-2.4083	-2.9229	-2.5333	-2.5958	-3.1333	-2.3396	-2.875	-2.7417	-2.4708	-3.0229	-2.6667	-2.4625	-3.3104	163.314	167.947	-44.714	200.281	32.981	-66.729	251.426	257.430	94.145	-26.726	-23.980	-49.424	247.857	35.875	157.622	219.817	0.00016694	0.00035476	0.00010747	816.85	3.3883e-06	5.3683e-06	621.36	331.75	2.343e-06	6.4562e-06	298.04	120.98	136.33	61.936	3.5618e-06	61.991	0.00044239	0.00047288	0.00013623	796.87	5.1243e-06	5.2912e-06	606.88	325.13	5.0972e-06	5.3067e-06	291.98	119.36	135.04	61.289	5.5971e-06	61.123	234.985	-7.767	6.235	-71.635	82.013	68.016	-72.134	-66.620	46.342	77.419	-68.655	-64.777	-62.690	-59.207	61.846	-61.851	-8191	255	
20091.432	1	1	0	0	0.2745	0.32435	0.10932	0.077269	0.23712	0.12761	0.26592	0.3719	0.17682	0.13056	0.10126	0.23676	0.24432	0.10194	0.30508	0.23455	-1.9208	-2.7188	-2.7333	-2.575	-3.125	-2.4792	-2.6729	-3.2417	-2.4604	-2.8708	-2.8688	-2.2687	-2.9625	-2.6021	-2.5875	-3.2375	41.706	265.568	75.123	-9.498	51.470	153.227	262.586	207.473	170.198	-71.185	233.052	256.992	161.514	201.715	-66.414	232.106	0.0001807	0.00049971	0.00012935	816.8	2.7802e-06	6.2465e-06	621.41	331.51	2.531e-06	5.3756e-06	295.95	119.63	135	61.446	2.8772e-06	61.583	0.00044798	0.0005186	0.00013594	793.83	4.9313e-06	5.0904e-06	604.99	324.3	5.3809e-06	5.2011e-06	290.79	118.23	133.79	60.917	5.4882e-06	60.69	236.077	6.986	0.225	-71.403	81.562	56.690	-71.718	-66.576	93.942	66.285	-68.588	-64.836	-62.991	-59.348	97.399	-61.495	-8191	255	
20091.527	1	1	0	0	0.1663	0.062297	0.21341	0.1875	0.17645	0.084636	0.074939	0.24669	0.04309	0.11026	0.23367	0.18663	0.13823	0.14401	0.012028	0.096765	-2.0792	-2.6042	-2.8833	-2.275	-2.8542	-2.6125	-2.5271	-3.0354	-2.3104	-2.6021	-2.9104	-2.4354	-2.9583	-2.8417	-2.3063	-3.0312	-14.691	241.027	175.744	275.532	-70.133	54.407	30.748	242.763	3.522	-49.964	82.472	229.064	-0.580	9.012	-56.437	221.053	0.00017664	0.00045971	0.0001134	811.87	4.4566e-06	7.8329e-06	618.67	329.53	3.4545e-06	5.9693e-06	295.5	118.19	135.02	61.068	2.4517e-06	61.475	0.00043946	0.00047982	0.00013156	793.83	4.7322e-06	5.1508e-06	604.3	323.01	5.208e-06	5.0412e-06	290.02	117.54	133.06	60.442	5.3453e-06	60.388	229.846	-10.130	13.440	-71.242	77.623	61.088	-71.901	-66.347	68.516	67.703	-68.584	-64.262	-62.027	-58.409	78.916	-60.900	-8191	255	
20091.623	1	1	0	0	0.044072	0.21522	0.22091	0.073238	0.14644	0.064237	0.18469	0.1523	0.10479	0.19065	0.090954	0.2209	0.21299	0.13174	0.14356	0.085242	-2.0083	-2.5667	-2.9646	-2.4	-2.8708	-2.7792	-2.4208	-3.1771	-2.5125	-2.5375	-3	-2.5521	-3.0708	-3.0187	-2.4688	-3.0167	22.663	273.412	163.555	-33.096	264.972	270.758	138.864	265.549	-17.365	210.618	-31.720	-63.590	196.068	133.220	83.371	26.541	0.00016516	0.0004284	0.00011323	813.56	3.1509e-06	5.7094e-06	619.91	327.06	2.8733e-06	4.7378e-06	294.7	116.46	133.27	60.597	4.6659e-06	60.338	0.00042579	0.00046755	0.00012581	794.12	4.7485e-06	5.0399e-06	604.9	321.11	5.0549e-06	5.1734e-06	287.86	115.94	131.71	59.754	5.1308e-06	59.434	234.883	6.484	17.030	-70.887	99.466	62.842	-71.347	-65.994	81.551	52.998	-67.987	-64.340	-62.469	-58.734	97.489	-61.640	-8191	255	
20091.719	1	1	0	0	0.17452	0.067032	0.24601	0.18062	0.18691	0.14926	0.079734	0.029574	0.12071	0.21894	0.40944	0.33797	0.10975	0.092226	0.068233	0.21516	-2.3479	-2.4354	-2.9625	-2.5458	-2.8708	-2.975	-2.2125	-3.175	-2.8729	-2.4417	-3.2396	-2.375	-2.6792	-3.1479	-2.4458	-3.0333	146.279	82.107	82.221	219.093	120.495	-67.000	151.763	-36.540	229.715	-16.462	222.100	6.572	252.647	272.913	125.387	-14.269	0.00016687	0.00056318	0.00016362	807.59	3.114e-06	3.5853e-06	612.23	323.52	2.7348e-06	5.016e-06	291.65	115.26	131.33	59.652	4.1203e-06	59.444	0.00042861	0.00047411	0.00012724	788.11	4.7732e-06	5.0767e-06	597.79	317.7	4.9886e-06	4.8263e-06	283.93	114.23	129.95	58.973	5.3285e-06	58.736	230.915	7.985	23.513	-71.563	82.419	53.318	-72.069	-66.722	58.798	73.078	-68.510	-64.894	-62.599	-59.298	57.475	-61.484	-8191	255	
20091.814	1	1	0	0	0.16359	0.2799	0.1112	0.17955	0.093214	0.23918	0.27069	0.23928	0.034472	0.16023	0.027219	0.32593	0.26086	0.19165	0.098664	0.19212	-2.2396	-2.4292	-3.0687	-2.6604	-2.6937	-2.8646	-2.4854	-3.0417	-2.7438	-2.5	-3.2417	-2.5708	-2.6271	-3.0375	-2.3063	-3.1437	4.980	11.106	-36.459	199.974	199.421	65.491	25.793	215.844	5.795	3.733	15.585	172.742	137.287	-53.081	40.914	182.715	0.00017768	0.00028501	0.00013765	806.43	2.3048e-06	3.7326e-06	610.08	323.51	2.4727e-06	4.1876e-06	289.81	115.39	131.69	59.991	2.8068e-06	60.231	0.00040602	0.00048732	0.00012089	785.03	4.7955e-06	4.8217e-06	594.65	316.98	4.889e-06	4.9309e-06	283.88	114.54	130.16	59.146	5.0618e-06	59.121	237.722	-1.722	4.553	-71.464	88.088	63.492	-72.236	-66.583	50.185	68.028	-68.832	-64.369	-62.993	-59.144	65.439	-61.473	-8191	255	
20091.934	1	1	0	0	0.15321	0.22296	0.21634	0.28537	0.24156	0.16711	0.2201	0.099	0.24992	0.099106	0.19129	0.25975	0.20153	0.24392	0.255	0.1735	-2.4375	-2.3937	-2.9938	-2.525	-2.5979	-3.0125	-2.4396	-2.8042	-2.8854	-2.4062	-3.0521	-2.5646	-2.7833	-3.1354	-2.4167	-3.0646	114.635	23.459	73.336	235.535	255.227	100.334	-72.201	192.873	-12.505	228.511	183.111	248.660	267.431	176.314	211.722	219.340	0.00015498	0.00053898	0.00019468	807.2	3.3916e-06	3.922e-06	609.1	323.92	1.5194e-06	3.3717e-06	292.92	116.94	132.34	60.341	2.9491e-06	60.204	0.0004147	0.00046429	0.0001205	785.39	4.6694e-06	4.7781e-06	594.36	317.94	4.5931e-06	4.8122e-06	286.09	115.69	131.17	59.497	5.1087e-06	59.419	239.806	-13.474	17.289	-71.410	71.994	86.489	-71.879	-66.408	47.565	62.342	-68.476	-64.548	-62.780	-59.048	76.747	-61.371	-8191	255	
20092.029	1	1	0	0	0.044195	0.16274	0.058277	0.18024	0.18071	0.065507	0.11012	0.093858	0.16188	0.031407	0.26491	0.12996	0.16244	0.19423	0.14744	0.27257	-2.5604	-2.3167	-3.0187	-2.7625	-2.6375	-3.1229	-2.5896	-2.9062	-3.1021	-2.3771	-3.025	-2.7792	-2.4667	-3.2	-2.5812	-2.6521	96.804	-45.893	-13.624	252.187	-8.284	191.623	-34.375	-18.002	242.861	-18.989	215.355	162.489	5.874	234.185	167.428	-69.167	0.0001841	0.00037704	0.0001054	806.77	3.8045e-06	6.2963e-06	616.13	324.51	2.1241e-06	4.5285e-06	293.16	117.24	132.21	59.993	3.7819e-06	60.423	0.00039729	0.00043503	0.00012067	786.8	4.7085e-06	4.7586e-06	598.57	318.34	4.6927e-06	4.9246e-06	286.7	115.78	131.06	59.346	4.9465e-06	59.457	234.101	-4.555	4.190	-71.062	86.143	77.925	-71.840	-66.475	48.124	71.662	-68.431	-64.594	-62.776	-59.036	78.617	-61.606	-8191	255	
20092.127	1	1	0	0	0.090333	0.18791	0.31842	0.2087	0.1898	0.20217	0.09409	0.25695	0.18815	0.15634	0.099836	0.10984	0.27497	0.097467	0.29493	0.16294	-2.5083	-2.2604	-2.8771	-2.925	-2.2521	-3.1667	-2.5563	-2.6937	-3.0042	-2.2333	-2.8729	-2.8229	-2.4292	-3.1208	-2.6146	-2.7938	215.593	95.970	-11.920	28.501	-54.773	263.206	183.954	208.765	-68.984	266.105	236.980	-26.839	-9.997	128.317	78.529	120.303	0.00016207	0.00045249	0.00016284	804.59	2.5365e-06	6.4441e-06	611.41	324.39	9.1488e-07	7.9991e-06	293.22	117.45	133.05	60.218	3.5658e-06	60.312	0.00040374	0.00045391	0.0001202	784.75	4.5643e-06	4.8727e-06	596.63	318.25	4.7373e-06	4.8634e-06	286.13	115.94	131.28	59.572	5.1008e-06	59.45	234.409	-7.740	32.332	-71.291	78.827	77.209	-71.993	-66.490	84.806	66.164	-68.230	-64.177	-62.499	-59.332	75.260	-61.660	-8191	255	
20092.223	1	1	0	0	0.35023	0.26054	0.28778	0.1836	0.14062	0.16266	0.19809	0.074747	0.21735	0.075684	0.17931	0.10418	0.10061	0.051982	0.17477	0.072668	-2.6562	-2.1375	-2.8021	-3.1479	-2.4792	-3.0729	-2.75	-2.475	-3.1562	-2.6146	-2.8271	-2.9625	-2.3542	-3.1458	-2.8187	-2.5208	-15.292	213.894	7.750	178.076	-22.811	151.131	151.332	-71.518	66.416	120.739	178.103	219.159	7.446	-47.076	-39.900	209.970	0.00015779	0.0005967	0.00013646	802.56	2.7196e-06	4.3622e-06	612.65	325.69	2.4492e-06	5.3535e-06	294.05	118.14	133.58	60.447	2.9826e-06	60.789	0.00039889	0.00047175	0.00012287	783.61	4.6369e-06	4.7849e-06	598.12	319.53	4.4691e-06	4.7071e-06	288.12	116.65	132.28	59.764	4.8878e-06	59.775	234.382	24.778	14.631	-71.218	53.337	47.409	-71.614	-66.493	74.687	68.198	-68.465	-64.548	-62.567	-59.174	51.715	-61.534	-8191	255	
20092.318	1	1	0	0	0.30099	0.11979	0.022672	0.2557	0.11406	0.16357	0.18041	0.074214	0.17654	0.17412	0.27774	0.30876	0.13764	0.19502	0.080832	0.16876	-2.7208	-2.4958	-2.5646	-3.0292	-2.3312	-2.9917	-2.8396	-2.375	-3.025	-2.6167	-2.5292	-3.0625	-2.4729	-3.0208	-2.875	-2.1375	218.844	-39.847	31.802	269.168	234.900	-30.482	111.163	-64.398	-53.009	3.865	33.406	186.253	63.887	-67.510	89.452	263.207	0.00015833	0.00041083	0.00010715	811.89	4.4451e-06	6.1894e-06	616.47	326.72	2.2839e-06	4.917e-06	294.29	118.84	133.77	60.689	3.9609e-06	60.939	0.0003949	0.0004507	0.00012128	788.87	4.6401e-06	4.6304e-06	601.55	321.07	4.9586e-06	4.6601e-06	288.58	117.3	132.6	59.848	4.9864e-06	59.944	235.132	-27.710	-0.792	-70.993	75.103	61.850	-71.631	-66.580	93.631	68.765	-68.633	-64.320	-62.558	-59.223	66.793	-61.738	-8191	255	
20092.414	1	1	0	0	0.091577	0.2329	0.16257	0.35818	0.056616	0.13146	0.11511	0.26826	0.10784	0.33232	0.35764	0.36255	0.15669	0.25278	0.12641	0.17296	-2.5687	-2.5354	-2.6229	-3.0479	-2.1562	-2.8146	-2.8521	-2.4083	-2.8417	-2.6729	-2.4542	-2.975	-2.2958	-2.8583	-2.825	-2.4125	-12.902	154.432	215.426	-36.581	250.370	177.852	30.165	267.565	-3.624	65.312	203.323	188.256	70.556	261.184	258.323	257.989	0.00016219	0.00055969	0.00012888	814.72	2.9868e-06	4.7313e-06	620.73	328.66	3.1556e-06	5.0364e-06	295.26	119.74	134.85	60.561	1.5551e-06	60.919	0.00040212	0.00042734	0.00012275	794.49	4.668e-06	4.7996e-06	604.63	322.4	4.6692e-06	4.8007e-06	289.58	118.1	133.26	59.939	5.0633e-06	59.94	232.513	-14.405	19.596	-71.083	94.323	74.665	-71.875	-66.299	55.287	75.759	-68.481	-64.467	-62.847	-59.220	67.448	-61.637	-8191	255	
20092.512	1	1	0	0	0.15659	0.032014	0.061311	0.040691	0.155	0.17478	0.074718	0.11361	0.11697	0.028111	0.033543	0.17588	0.33628	0.12901	0.031024	0.043748	-2.6875	-2.575	-2.4583	-3.1688	-2.4417	-2.6542	-3.0375	-2.4729	-3.0833	-2.6604	-2.4479	-3.1792	-2.7021	-2.8229	-3.1146	-2.4667	85.200	69.888	212.534	244.325	18.157	103.447	258.853	-69.689	230.841	-38.721	236.228	240.923	240.926	31.047	-61.387	104.640	0.00016947	0.00047484	0.00011086	813.56	2.7507e-06	3.7756e-06	616.97	329.11	3.052e-06	3.6902e-06	296.66	119.49	134.96	60.669	2.533e-06	60.916	0.00040976	0.00043145	0.00012302	792.94	4.7359e-06	4.9447e-06	602.56	322.09	4.9031e-06	4.7746e-06	289.57	117.75	133.57	59.934	4.7232e-06	59.845	235.868	10.151	-17.864	-70.878	113.596	78.157	-71.673	-66.559	61.221	66.848	-68.403	-64.259	-62.760	-59.164	44.557	-61.520	-8191	255	
20092.631	1	1	0	0	0.097595	0.09507	0.072101	0.20252	0.1736	0.16528	0.092768	0.18892	0.12677	0.024797	0.30606	0.017167	0.095173	0.059508	0.17634	0.17123	-2.4354	-2.6375	-2.3563	-3.2104	-2.55	-2.5812	-3.1396	-2.4104	-3.0083	-2.8792	-2.4604	-3.125	-2.6771	-2.7479	-3.1375	-2.4396	-83.708	117.371	117.090	-62.824	159.725	133.361	197.298	227.973	31.400	224.809	19.916	23.622	245.088	-9.045	180.248	12.512	0.00016995	0.00041532	0.00012409	814.32	5.1085e-06	6.696e-06	621.77	328.19	2.2676e-06	5.8353e-06	297.49	120.02	135.18	61.108	4.0033e-06	60.896	0.0004176	0.0004372	0.00012795	792.12	4.935e-06	5.0278e-06	602.78	323.32	4.8848e-06	4.8561e-06	291.09	118.65	134.29	60.313	4.9583e-06	60.175	230.464	10.281	8.447	-71.067	86.891	46.701	-71.423	-66.160	92.397	68.684	-68.497	-64.381	-62.653	-59.186	84.032	-61.536	-8191	255	
20092.727	1	1	0	0	0.11428	0.1539	0.041745	0.14695	0.070889	0.19678	0.29097	0.26905	0.19493	0.14684	0.16383	0.28222	0.20123	0.23967	0.12457	0.19457	-2.2542	-2.9625	-2.3333	-3.075	-2.5125	-2.4646	-3.1958	-2.5604	-2.8563	-2.9729	-2.35	-3.075	-2.7562	-2.7	-3.0833	-2.5104	140.914	40.709	235.164	-80.234	250.761	34.649	-53.116	272.514	261.649	249.073	187.996	-53.272	141.033	228.704	-55.663	-63.941	0.00018432	0.00067776	0.00016502	819.34	4.4199e-06	6.1586e-06	620.05	331.73	2.5918e-06	5.929e-06	298.83	120.54	136.87	61.177	3.3728e-06	61.379	0.00042905	0.00046443	0.00013206	795.22	4.7732e-06	5.0898e-06	605	325.02	4.9327e-06	4.784e-06	292.01	119.54	135.39	60.616	5.1422e-06	60.504	238.097	14.678	9.633	-71.151	69.400	65.856	-71.631	-66.600	83.928	54.252	-68.516	-64.633	-62.726	-59.129	80.959	-61.573	-8191	255	
20092.822	1	1	0	0	0.25872	0.11011	0.21243	0.12129	0.038364	0.068616	0.14298	0.17041	0.20912	0.08347	0.031828	0.19965	0.27937	0.091221	0.038996	0.068707	-2.1833	-2.8688	-2.2479	-2.9646	-2.6042	-2.3625	-2.9771	-2.5646	-2.7	-2.9271	-2.4021	-3.0687	-2.7958	-2.3979	-3.1104	-2.4917	255.099	229.300	-13.179	257.631	218.512	207.444	-73.558	211.106	-36.426	42.941	68.918	-27.158	-83.724	185.467	208.162	262.006	0.00016881	0.00056208	0.00014718	817.89	3.032e-06	7.5646e-06	622.31	333.03	1.6402e-06	4.5188e-06	300.27	121.57	137.4	61.258	3.98e-06	61.792	0.00042666	0.00045816	0.00013303	798.41	4.7425e-06	5.084e-06	609.17	326.48	4.9764e-06	5.0825e-06	293.48	120.11	135.97	60.699	5.2832e-06	60.809	233.228	-6.114	-7.599	-71.093	71.784	54.930	-71.750	-66.392	83.177	60.778	-68.645	-64.570	-62.824	-59.142	66.508	-61.316	-8191	255	
20092.896	1	1	0	0	0.077453	0.24232	0.19294	0.21648	0.18045	0.1964	0.1335	0.14079	0.090673	0.11676	0.018481	0.22679	0.15797	0.1963	0.060132	0.27698	-2.1542	-3.0042	-2.1417	-2.8604	-2.8563	-2.1479	-2.775	-2.4521	-2.3646	-2.9938	-2.3875	-2.8708	-3.0146	-2.4146	-2.9583	-2.65	78.347	125.528	78.855	206.542	213.701	102.470	233.999	143.937	166.046	179.095	230.266	-27.547	207.428	-50.728	43.436	-79.605	0.00018167	0.00060984	0.00017735	817.44	3.015e-06	2.9529e-06	626.12	332.36	3.4066e-06	4.139e-06	298.2	121.58	136.89	61.539	4.2346e-06	61.803	0.00043257	0.00046207	0.00013154	798.06	4.8197e-06	5.1981e-06	608.52	325.73	5.0516e-06	4.9732e-06	292.56	120.23	136.11	60.815	5.156e-06	60.911	242.092	-9.607	1.978	-71.319	93.678	76.908	-71.460	-66.485	84.321	66.971	-68.172	-64.463	-62.475	-59.010	88.460	-61.492	-8191	255	
20093.016	1	1	0	0	0.19684	0.27346	0.10285	0.21533	0.18673	0.25783	0.16155	0.26143	0.2445	0.13559	0.28866	0.057422	0.042878	0.057399	0.18227	0.24713	-2.075	-2.9625	-2.4354	-2.825	-2.7729	-2.1813	-3.0417	-2.7625	-2.3958	-3.0521	-2.4521	-2.6917	-3.0062	-2.4583	-2.8521	-2.8292	143.652	28.756	116.040	192.289	122.183	184.784	99.837	158.194	140.327	-82.286	160.849	-63.234	205.544	29.306	235.625	193.651	0.00015535	0.00057524	0.00011229	821.2	4.035e-06	5.5954e-06	622.37	334.12	2.9158e-06	4.9454e-06	300.72	121.8	137.56	61.796	3.5616e-06	61.479	0.00043268	0.00046226	0.0001309	799.34	4.8555e-06	4.9337e-06	607.61	326.95	5.2428e-06	4.9126e-06	293.62	120.27	136.32	60.957	5.3172e-06	60.707	230.191	10.962	16.987	-71.014	86.002	55.915	-71.247	-66.251	61.304	71.312	-68.012	-64.363	-62.516	-58.853	83.118	-61.358	-8191	255	
20093.111	1	1	0	0	0.10967	0.21045	0.21958	0.076495	0.082521	0.034408	0.22558	0.16298	0.04774	0.17718	0.093396	0.041821	0.13849	0.27084	0.11372	0.097266	-2.0896	-2.9458	-2.4688	-2.8208	-3.0146	-2.4188	-2.8312	-2.9333	-2.4	-3.0958	-2.7146	-2.6604	-3.0271	-2.5687	-2.9083	-3.0146	212.555	42.959	135.673	-46.834	253.110	85.399	-27.859	-68.968	231.728	-80.930	197.468	221.237	160.932	212.136	-69.999	65.213	0.00016485	0.00061929	0.00021254	820.48	2.9274e-06	5.6068e-06	624.06	332.54	1.5694e-06	5.0748e-06	299.33	121.8	137.53	61.829	2.9529e-06	61.922	0.00042297	0.00046962	0.00013287	798.27	4.9987e-06	5.0325e-06	607.68	326.59	5.1352e-06	4.9617e-06	293	120.4	136.68	61.049	5.3246e-06	61.211	242.668	1.598	26.112	-70.951	101.074	67.385	-71.261	-66.307	67.028	41.645	-68.438	-64.620	-62.149	-59.113	97.817	-61.258	-8191	255	
20093.207	1	1	0	0	0.31748	0.095243	0.053317	0.38084	0.033662	0.039446	0.10496	0.057944	0.26801	0.15277	0.28798	0.073739	0.11603	0.43948	0.093929	0.22684	-1.7812	-2.9021	-2.4896	-2.7104	-2.9688	-2.2729	-2.7583	-3.0125	-2.4646	-3.2521	-2.7292	-2.5667	-3.1292	-2.4479	-2.7375	-2.9688	-78.005	98.582	-17.146	206.748	170.029	-40.751	65.860	269.930	264.305	56.741	-34.681	228.008	266.869	228.352	123.912	160.699	0.00016069	0.00052408	0.0001608	827.42	3.1874e-06	3.8552e-06	628.94	335.97	1.7423e-06	7.2772e-06	301.72	122.45	138.51	61.708	3.4893e-06	62.542	0.000438	0.00045221	0.00012772	802.63	4.7466e-06	5.2186e-06	612.14	329.13	5.0107e-06	4.9847e-06	296.73	121.35	137.05	61.138	5.1816e-06	61.448	232.788	-8.454	8.590	-71.227	76.078	77.418	-71.596	-66.486	43.904	66.305	-68.408	-64.317	-62.786	-59.287	66.545	-61.572	-8191	255	
20093.326	1	1	0	0	0.15006	0.15808	0.17278	0.35392	0.18718	0.078889	0.094739	0.029208	0.21575	0.076776	0.11085	0.12042	0.11948	0.30398	0.27552	0.080802	-1.9021	-2.8271	-2.6813	-2.5208	-2.9562	-2.3521	-2.6312	-3.0333	-2.2979	-3.0396	-2.6896	-2.475	-3.1646	-2.4688	-2.6208	-3.1292	250.868	81.752	120.867	215.990	-5.358	208.655	230.391	-75.218	-34.659	-25.349	224.414	236.421	256.072	119.461	123.785	161.097	0.0001785	0.00046703	0.00016452	827.37	1.8604e-06	5.526e-06	625.34	336.87	3.8206e-06	3.6988e-06	302.67	123.47	138.78	62.527	3.6512e-06	62.624	0.00042308	0.00044947	0.00012669	805.38	4.4946e-06	5.0914e-06	613.36	330.34	5.0492e-06	4.8561e-06	296.24	121.53	137.53	61.562	5.1836e-06	61.625	233.912	12.925	17.810	-71.121	46.344	67.671	-71.612	-66.458	64.663	47.858	-68.463	-64.798	-62.637	-59.176	63.001	-61.773	-8191	255	
20093.424	1	1	0	0	0.12419	0.20626	0.14686	0.14396	0.06058	0.20079	0.16335	0.33634	0.099177	0.25205	0.169	0.21275	0.34893	0.21452	0.13704	0.23332	-1.9438	-2.8521	-2.725	-2.4167	-3.0042	-2.675	-2.6083	-3.2021	-2.3708	-2.8458	-2.9313	-2.3	-3.0646	-2.9375	-2.6271	-3.0062	115.090	174.896	77.527	234.416	58.576	233.507	229.488	192.475	132.011	-68.161	176.565	-24.962	226.390	-75.433	132.599	247.043	0.0001617	0.00046621	0.00012188	827.28	2.3868e-06	4.879e-06	630.16	338.32	1.9574e-06	5.6088e-06	301.88	122.98	139.48	62.206	4.0587e-06	62.636	0.00043056	0.00045575	0.00013014	803.65	4.8992e-06	5.0583e-06	614.46	330.96	5.1361e-06	4.8096e-06	296.83	121.82	137.94	61.446	5.2181e-06	61.601	230.946	-10.348	16.607	-71.223	84.444	53.344	-71.408	-66.512	79.724	79.880	-68.604	-64.829	-62.759	-59.169	74.802	-61.567	-8191	255	
20093.494	1	1	0	0	0.15801	0.19772	0.18551	0.23681	0.095974	0.12138	0.19123	0.17028	0.26225	0.15436	0.0048249	0.15071	0.26578	0.26934	0.20058	0.09358	-1.9521	-2.7229	-2.7979	-2.3708	-2.9208	-2.7687	-2.5938	-3.2292	-2.3	-2.8958	-3.1271	-2.3375	-2.9729	-2.875	-2.3583	-3.0979	36.819	-45.114	209.921	-30.864	19.151	234.536	151.572	86.749	9.678	153.153	31.395	-44.114	8.080	154.654	-22.445	76.102	0.00018063	0.00055528	0.00013582	826.07	2.5121e-06	3.7404e-06	632.57	337.21	2.0913e-06	3.9982e-06	302.52	123.24	139.3	62.399	4.7265e-06	62.893	0.00043555	0.00045287	0.00012163	805.94	4.6955e-06	4.9847e-06	614.91	331.02	4.9365e-06	4.9246e-06	297.02	122.08	138.19	61.449	5.3946e-06	61.621	236.606	6.447	0.319	-71.366	95.768	42.425	-71.709	-66.357	65.562	79.216	-68.494	-64.355	-62.841	-59.162	85.221	-61.417	-8191	255	
20093.615	1	1	0	0	0.26988	0.16712	0.27564	0.16498	0.092549	0.036324	0.2365	0.15176	0.18369	0.23229	0.070562	0.24551	0.069507	0.14109	0.11646	0.03545	-2.3292	-2.5208	-2.9146	-2.4625	-2.7896	-2.7042	-2.4042	-3.15	-2.3187	-2.5396	-3.1542	-2.4062	-2.7042	-2.9604	-2.1937	-3.1917	250.441	168.869	6.709	-39.598	150.206	194.247	190.498	254.903	262.017	-82.648	199.999	197.628	-9.502	274.413	63.945	-10.898	0.00016337	0.00035535	0.00016139	833.39	3.5735e-06	4.9428e-06	632.25	338.82	1.5833e-06	4.0372e-06	307.63	124.53	140.19	62.613	2.1542e-06	63.376	0.00042308	0.00046396	0.00012493	810.98	4.7108e-06	4.8191e-06	619.61	332.39	4.6828e-06	4.7693e-06	300.99	123.41	138.92	61.919	5.1949e-06	62.431	236.508	-15.065	5.369	-71.138	66.071	48.928	-71.609	-66.188	77.066	60.555	-68.457	-64.726	-62.771	-59.194	56.540	-61.258	-8191	255	
20093.711	1	1	0	0	0.078723	0.28283	0.18362	0.34382	0.22867	0.078499	0.18153	0.18216	0.1588	0.11035	0.11945	0.0029978	0.15354	0.3989	0.23248	0.18855	-2.2646	-2.4958	-2.9917	-2.3667	-2.9271	-2.9313	-2.475	-3.2146	-2.6896	-2.4521	-3.2479	-2.4729	-2.6958	-3.0563	-2.3521	-2.9542	159.032	216.927	205.763	270.137	8.941	34.914	211.680	241.649	66.231	-36.654	-49.923	-29.106	-59.916	-59.103	-43.457	197.109	0.00018216	0.00072797	0.00014773	835.69	3.1581e-06	5.1147e-06	637.71	340.67	3.7929e-06	6.4302e-06	309.62	125.29	140.27	63.144	4.1647e-06	63.377	0.0004291	0.00046684	0.00012671	811.6	4.7573e-06	4.939e-06	620.66	333.83	4.8604e-06	4.9549e-06	301.03	123.75	139.28	62.259	5.2255e-06	62.439	238.309	-13.262	10.415	-71.200	112.644	75.963	-71.817	-66.390	47.058	65.785	-68.549	-64.684	-62.645	-59.012	86.213	-61.311	-8191	255	
20093.807	1	1	0	0	0.1679	0.10351	0.24826	0.15131	0.16224	0.22737	0.24487	0.080714	0.14438	0.17364	0.15551	0.11355	0.13829	0.10089	0.42903	0.23566	-2.275	-2.5	-3.1292	-2.65	-2.775	-2.9083	-2.4521	-3.1688	-2.7667	-2.4167	-3.3271	-2.5812	-2.6937	-3.0187	-2.2604	-3.0375	241.690	175.674	212.812	-30.572	148.605	104.778	119.475	207.961	190.472	70.927	0.083	203.719	269.853	-41.266	234.718	199.132	0.00019746	0.0004824	0.00012466	830.41	3.642e-06	5.563e-06	632.47	339.27	3.6278e-06	5.7801e-06	305.54	124.92	140.62	62.866	3.4971e-06	63.091	0.00042075	0.00046991	0.00012619	810.31	5.0634e-06	5.0068e-06	616.26	332.83	5.0784e-06	4.8268e-06	299.35	123.11	139.34	62.12	5.2373e-06	62.236	236.931	-15.513	31.772	-71.052	71.929	53.597	-71.508	-66.233	85.066	39.872	-68.213	-64.394	-62.922	-58.909	79.056	-61.424	-8191	255	
20093.928	1	1	0	0	0.29922	0.0025141	0.22665	0.044487	0.24667	0.17878	0.26331	0.27746	0.28111	0.052529	0.080173	0.1135	0.29634	0.056221	0.093762	0.1627	-2.5208	-2.4271	-3.0104	-2.6354	-2.6479	-3.0438	-2.4458	-2.9979	-2.8708	-2.4729	-3.1646	-2.6729	-2.6063	-3.0958	-2.2396	-2.7875	26.112	180.000	-32.984	129.238	231.065	267.409	146.985	232.198	-61.466	45.864	-31.083	160.013	-58.110	158.815	58.014	251.395	0.00018466	0.00052014	0.00011815	833.92	2.7805e-06	6.9633e-06	630.67	341.5	2.7857e-06	4.8576e-06	309.11	125.08	139.94	63.095	4.922e-06	63.429	0.0004237	0.000465	0.00012489	809.3	4.9536e-06	4.8948e-06	617.59	333.68	4.9581e-06	5.1724e-06	301.17	123.64	139.21	62.355	5.2265e-06	62.527	236.253	-12.873	-3.333	-70.986	85.166	70.375	-71.600	-66.298	90.482	60.622	-68.459	-64.544	-62.633	-58.848	76.487	-61.379	-8191	255	
20094.023	1	1	0	0	0.33099	0.1172	0.19642	0.15482	0.1425	0.027309	0.11126	0.042238	0.083144	0.11094	0.093833	0.028421	0.1966	0.35926	0.18048	0.20835	-2.3021	-2.2958	-2.9854	-2.6917	-2.5271	-3.2438	-2.3021	-2.6854	-2.9813	-2.2958	-2.9354	-2.9271	-2.4958	-3.1396	-2.3521	-2.6312	266.631	-60.918	51.494	76.412	103.455	67.563	171.516	-69.888	65.289	-31.163	92.828	-16.476	-48.537	259.812	75.062	205.418	0.0001667	0.00049137	0.0001507	836.11	3.5943e-06	4.9434e-06	640.95	341.59	2.0794e-06	4.8471e-06	308.61	125.92	141.14	63.068	4.0729e-06	63.688	0.00041635	0.00046627	0.00012415	813.73	4.7992e-06	4.8333e-06	622.71	335.09	4.9435e-06	4.9915e-06	302.17	124.24	139.7	62.174	5.1111e-06	62.721	226.481	3.879	-3.024	-70.913	76.973	81.557	-71.379	-66.340	49.608	50.809	-68.231	-64.444	-62.758	-58.967	74.036	-61.204	-8191	255	
20094.119	1	1	0	0	0.17361	0.14591	0.1535	0.17309	0.045883	0.17051	0.11332	0.087718	0.28312	0.10525	0.22534	0.069817	0.27182	0.19331	0.096404	0.21578	-2.5083	-2.2917	-2.9104	-2.7729	-2.4167	-3.0521	-2.5083	-2.7167	-2.85	-2.2646	-2.9542	-2.85	-2.4333	-3.1521	-2.4708	-2.5312	228.611	263.017	234.921	221.654	-14.146	84.392	236.402	-69.382	232.904	156.808	134.096	98.184	152.611	256.780	229.168	16.373	0.00016494	0.00066138	0.00015174	837.85	4.8026e-06	6.6528e-06	642.31	341.81	1.6804e-06	5.0996e-06	310.5	125.43	140.22	63.226	3.6602e-06	63.524	0.00042913	0.00044386	0.0001212	816.57	4.8936e-06	4.7492e-06	624.23	335.59	4.7664e-06	5.0605e-06	302.69	123.9	139.48	62.202	5.1387e-06	62.444	229.348	3.781	8.534	-70.947	67.347	52.596	-71.085	-66.377	76.350	66.670	-68.223	-64.145	-62.494	-59.035	97.459	-60.996	-8191	255	
20094.191	1	1	0	0	0.42143	0.33534	0.10774	0.074493	0.23465	0.18079	0.22553	0.056529	0.036615	0.14298	0.2376	0.33984	0.24724	0.34482	0.12827	0.18159	-2.7188	-2.1792	-2.6833	-2.8083	-2.1917	-2.9292	-2.6083	-2.6708	-3.1167	-2.3229	-2.7708	-3.1479	-2.3604	-2.9604	-2.5292	-2.4875	-50.110	94.103	-29.972	232.991	12.561	64.739	-17.563	220.555	-5.004	269.987	88.128	269.091	206.241	270.340	108.014	-82.922	0.00015715	0.00064283	0.00016033	836.85	3.4465e-06	8.5427e-06	635.43	341.91	3.0405e-06	5.7355e-06	306.65	124.74	140.76	62.717	2.9222e-06	63.262	0.00042875	0.00047618	0.00012564	814.77	4.9648e-06	4.8732e-06	622.37	335.03	4.6673e-06	4.8561e-06	300.9	123.61	139.42	62.072	5.1027e-06	62.277	239.681	0.589	18.406	-70.909	63.865	73.036	-71.306	-66.304	91.779	56.636	-68.454	-64.262	-62.950	-59.138	64.437	-61.538	-8191	255	
20094.312	1	1	0	0	0.056882	0.1267	0.1225	0.19659	0.26708	0.081816	0.19172	0.11616	0.037216	0.093636	0.19873	0.23146	0.14174	0.13427	0.16618	0.23643	-2.6729	-2.3937	-2.5896	-2.9208	-2.3063	-3.0083	-2.8604	-2.4583	-2.875	-2.3563	-2.6208	-2.9833	-2.2771	-2.9938	-2.6229	-2.4604	-12.152	88.667	152.834	196.351	245.410	210.750	-34.549	246.582	51.257	255.283	28.873	252.637	241.355	224.058	142.895	201.880	0.00017559	0.00055868	0.00012406	830.95	4.5385e-06	4.1285e-06	637.82	339.44	3.3738e-06	5.5293e-06	305.25	124.2	139.39	62.509	3.4607e-06	62.929	0.0004217	0.00045273	0.00013032	812.02	4.8592e-06	4.8464e-06	621.72	333.62	4.8557e-06	4.5576e-06	299.71	122.81	138.12	61.675	5.0643e-06	61.884	231.059	8.184	-8.738	-71.169	103.071	64.502	-71.887	-66.470	76.266	42.125	-68.566	-64.536	-62.777	-59.025	92.686	-61.579	-8191	255	
20094.408	1	1	0	0	0.039251	0.257	0.082769	0.20113	0.23493	0.021628	0.12704	0.17759	0.15591	0.17292	0.21155	0.13154	0.17312	0.26426	0.13303	0.29357	-2.7479	-2.4583	-2.6	-3.0187	-2.35	-2.9375	-2.7875	-2.5396	-2.9854	-2.4479	-2.5458	-3.0271	-2.5146	-2.9	-2.8958	-2.3229	-28.883	249.335	219.187	223.303	145.110	268.439	-22.918	229.362	196.376	-71.308	257.531	-58.440	151.355	265.611	245.608	204.329	0.00017665	0.00063892	0.0001214	834.1	2.7195e-06	5.5979e-06	638.64	339.94	2.9724e-06	4.4145e-06	306.89	122.73	139.17	61.48	3.8723e-06	62.177	0.00041405	0.00045622	0.00012813	813.23	4.8843e-06	4.7229e-06	620.91	332.67	4.8045e-06	4.7714e-06	299.36	121.7	137.34	60.902	5.0352e-06	61.056	238.422	-5.156	5.320	-71.077	96.314	48.437	-71.485	-66.158	84.705	61.397	-68.388	-64.396	-62.796	-59.017	57.546	-61.509	-8191	255	
20094.504	1	1	0	0	0.1606	0.33519	0.21358	0.23985	0.12494	0.090374	0.15849	0.057103	0.14767	0.080854	0.094219	0.46232	0.11694	0.11119	0.1853	0.16568	-2.5458	-2.5229	-2.2562	-3.0146	-2.475	-2.6396	-2.9062	-2.3563	-3.0333	-2.5667	-2.5938	-2.8583	-2.5167	-2.7708	-2.8375	-2.3708	197.277	227.101	271.384	199.323	-60.498	39.949	137.428	22.365	115.556	128.144	264.298	171.271	224.798	18.788	270.733	173.565	0.00016846	0.0005287	0.0001635	832.52	3.8175e-06	4.8701e-06	633.91	337.59	3.2419e-06	6.0765e-06	300.73	120.7	136.07	60.763	2.9315e-06	61.018	0.00042392	0.00044711	0.00012806	810.26	4.7959e-06	4.9752e-06	617.76	329.69	4.7589e-06	4.8519e-06	294.13	119.64	134.97	59.942	5.0047e-06	60.089	232.398	-1.050	30.514	-70.964	100.244	72.857	-71.670	-66.293	67.197	67.968	-68.360	-64.619	-62.409	-59.040	94.638	-61.325	-8191	255	
20094.600	1	1	0	0	0.27212	0.11544	0.18836	0.21637	0.19754	0.108	0.26432	0.1423	0.13964	0.095378	0.10438	0.18411	0.01944	0.4503	0.37017	0.15368	-2.5208	-2.5854	-2.4458	-3.0333	-2.3646	-2.6271	-2.9792	-2.3354	-2.7708	-2.5125	-2.4729	-3.0396	-2.6188	-2.6333	-2.7875	-2.575	126.529	-16.376	167.811	176.710	153.636	-65.410	194.757	-71.511	41.389	24.212	-17.018	176.548	-22.796	262.279	230.257	25.701	0.00017728	0.00040491	0.00016082	827.94	1.8819e-06	5.2269e-06	625.88	334.23	2.9818e-06	5.2124e-06	296.91	119.13	134.91	59.88	3.9137e-06	60.715	0.00040827	0.00043716	0.00012317	807.3	4.6067e-06	4.6519e-06	612.97	327.98	4.579e-06	4.6637e-06	292.27	118.32	134.07	59.335	4.978e-06	59.564	230.837	-15.184	15.899	-71.867	90.103	69.047	-72.263	-67.396	65.492	57.395	-69.261	-64.993	-63.375	-60.222	69.922	-62.146	-8191	255	
20094.719	1	1	0	0	0.22368	0.14321	0.33456	0.31862	0.16395	0.36764	0.18518	0.23938	0.32427	0.30507	0.20472	0.22742	0.29283	0.31718	0.21256	0.33438	-2.3333	-2.6833	-2.3167	-3.0521	-2.4313	-2.425	-3.1583	-2.3083	-2.8583	-2.7938	-2.4583	-3.1125	-2.4188	-2.4188	-2.9688	-2.5187	234.458	224.380	42.679	240.535	206.599	-3.426	59.302	214.025	154.302	42.738	260.078	-8.389	159.918	274.399	180.337	199.738	0.00015775	0.00048421	0.00014048	829.48	2.9974e-06	4.7622e-06	627.97	331.86	1.5881e-07	4.3222e-06	299.26	119.23	134.46	59.472	2.9489e-06	59.952	0.00040385	0.00043607	0.00011701	809.34	4.4016e-06	4.9342e-06	612.69	326.1	4.5513e-06	4.4933e-06	292.12	117.97	133.16	58.852	4.664e-06	59.055	233.108	-8.425	-9.465	-71.914	70.850	64.809	-72.743	-67.337	-11.752	60.664	-69.146	-65.485	-63.575	-60.144	73.366	-62.527	-8191	255	
20094.791	1	1	0	0	0.1558	0.030182	0.18777	0.26717	0.22195	0.22114	0.14789	0.13299	0.15944	0.092971	0.1925	0.21183	0.24768	0.14303	0.12051	0.25357	-2.325	-2.6229	-2.1708	-3.0083	-2.5792	-2.5938	-3.1396	-2.4188	-2.4146	-2.9104	-2.5229	-2.8667	-2.4542	-2.3375	-2.9562	-2.3292	168.829	68.269	104.994	273.238	114.171	-73.545	267.982	69.433	81.082	-22.934	206.593	141.462	-78.768	-70.072	201.753	220.280	0.00015727	0.00031247	0.0001272	826.76	2.796e-06	6.301e-06	625.28	331.09	2.0215e-06	7.7146e-06	298.69	119.08	134.05	59.472	3.3304e-06	60.676	0.00040537	0.00043376	0.00011378	806.47	4.3523e-06	4.6661e-06	611.07	325.63	4.6913e-06	4.4823e-06	292.48	118.04	132.94	58.94	4.6946e-06	59.497	244.746	6.291	-2.066	-71.999	81.580	78.476	-72.847	-67.397	43.038	70.263	-69.661	-65.704	-63.614	-60.034	61.721	-62.421	-8191	255	
20094.889	1	1	0	0	0.19904	0.32689	0.29823	0.43351	0.2425	0.11047	0.19429	0.19977	0.085151	0.23681	0.20136	0.17078	0.3776	0.22316	0.077748	0.17321	-2.2313	-2.7854	-2.2104	-2.9354	-2.7333	-2.2354	-3.0563	-2.5958	-2.6208	-3.0438	-2.3979	-2.9396	-2.7208	-2.2104	-3.0104	-2.6479	272.653	272.396	245.070	237.876	-70.574	133.592	266.112	153.659	36.913	-11.589	169.666	-45.399	237.943	256.513	110.218	206.331	0.00014862	0.00046177	0.00013872	823	4.9225e-06	4.1634e-06	626.89	331.29	2.6703e-06	6.2309e-06	300.02	119.38	134.74	59.988	2.4742e-06	60.406	0.00040749	0.00042003	0.00011899	804.05	4.4211e-06	4.6046e-06	612.38	325.35	4.7148e-06	4.348e-06	292.67	118.11	133.43	59.292	4.8262e-06	59.536	236.490	-6.510	2.230	-72.237	80.273	49.272	-72.615	-67.296	76.961	64.120	-69.514	-65.391	-63.633	-60.047	75.051	-62.452	-8191	255	
20095.008	1	1	0	0	0.35315	0.22329	0.15172	0.26056	0.25445	0.11472	0.39006	0.32832	0.23039	0.13913	0.23452	0.17675	0.22904	0.05398	0.221	0.13951	-2.1833	-2.9854	-2.2062	-3.0333	-2.8063	-2.375	-3.1437	-2.7354	-2.4979	-3.0292	-2.4021	-2.8021	-2.9667	-2.4083	-2.9354	-2.6917	231.411	34.703	47.850	219.367	272.586	216.797	257.939	240.677	-43.989	130.956	223.289	237.833	239.998	238.948	147.268	131.849	0.00017348	0.00042051	0.00013185	822.01	3.6222e-06	4.5774e-06	623.12	330.53	1.6054e-06	6.0232e-06	295.21	118.77	133.9	59.494	3.6371e-06	59.976	0.00041256	0.00043173	0.00012058	801.03	4.6625e-06	4.8743e-06	607.09	323.92	4.6029e-06	4.6297e-06	289.09	117.31	133.07	58.831	4.9366e-06	58.856	237.481	26.476	7.441	-71.841	100.710	105.820	-72.029	-67.022	41.648	62.602	-69.124	-65.309	-63.694	-60.030	66.896	-62.044	-8191	255	
20095.104	1	1	0	0	0.25283	0.14011	0.097723	0.061597	0.13143	0.031019	0.3489	0.13151	0.070631	0.10042	0.13558	0.086664	0.19598	0.059431	0.027407	0.1774	-1.9792	-2.9208	-2.2687	-2.6042	-2.9917	-2.0542	-2.9167	-2.7479	-2.4667	-3.0292	-2.6188	-2.625	-2.9917	-2.6125	-2.7729	-2.7188	268.735	189.777	242.594	116.861	35.744	254.424	5.412	228.153	3.319	154.829	223.174	-59.063	-53.531	-54.211	2.540	266.316	0.00016438	0.00049343	0.00015409	818.88	3.5615e-06	3.8346e-06	619.42	330.83	3.2062e-06	6.167e-06	291.5	116.76	132.75	58.203	2.9975e-06	58.201	0.00040852	0.00041899	0.00012734	796.98	4.5713e-06	4.899e-06	603.03	323.77	4.9661e-06	4.6219e-06	285.73	115.52	131.43	57.519	5.0194e-06	57.214	230.630	-0.793	19.236	-71.854	54.848	31.232	-72.579	-66.968	86.979	58.826	-69.101	-65.215	-63.279	-59.551	50.380	-61.748	-8191	255	
20095.199	1	1	0	0	0.052091	0.3612	0.087414	0.12871	0.083158	0.15333	0.07678	0.20293	0.10243	0.1151	0.21662	0.15495	0.21114	0.24869	0.034793	0.12591	-1.9292	-3.0167	-2.2812	-2.4688	-3.0812	-2.3312	-2.9104	-2.8625	-2.1458	-2.9667	-2.6646	-2.425	-2.9813	-2.4396	-2.6896	-2.9083	212.896	239.940	-39.301	-47.402	-43.675	160.993	132.189	131.819	116.692	-18.313	232.047	103.511	-10.565	-53.745	-70.341	207.906	0.0001794	0.00040904	0.00010512	814.74	2.283e-06	4.8526e-06	611.73	325.8	2.2878e-06	3.0759e-06	288.58	115.82	132.66	57.774	3.3291e-06	58.076	0.00040339	0.00042413	0.00011832	792.84	4.6592e-06	4.8527e-06	596.38	320.41	4.766e-06	4.7897e-06	283.61	114.66	131.3	57.244	4.9529e-06	57.233	233.754	-14.732	9.433	-71.501	86.766	52.010	-71.763	-66.987	68.936	89.558	-69.243	-65.407	-63.446	-59.726	85.447	-61.509	-8191	255	
20095.297	1	1	0	0	0.27073	0.12997	0.20883	0.062946	0.10615	0.19729	0.08796	0.25656	0.10379	0.22499	0.24315	0.21156	0.13692	0.058195	0.012053	0.1902	-1.6792	-2.9104	-2.5771	-2.4417	-3.1292	-2.4146	-2.6813	-2.9271	-2.1875	-2.9208	-2.5917	-2.4917	-3.1917	-2.3187	-2.7104	-2.95	265.086	71.458	112.490	195.131	137.148	167.290	-17.761	-78.022	6.903	192.299	181.985	122.462	-45.247	188.529	244.149	122.256	0.00015353	0.00059181	0.00011481	814.83	3.3756e-06	7.1951e-06	614.59	327.88	2.4798e-06	4.6219e-06	294.7	119.58	134.57	60.106	4.3191e-06	60.737	0.00042213	0.00044532	0.00012049	792.31	4.5825e-06	4.7634e-06	600.78	321.6	4.6029e-06	4.7568e-06	289.3	117.91	133.23	59.352	5.2432e-06	59.622	236.967	-10.024	1.209	-71.340	96.455	54.709	-72.006	-67.064	87.032	53.531	-68.878	-64.748	-62.954	-59.408	70.848	-61.709	-8191	255	
20095.393	1	1	0	0	0.23584	0.11322	0.036183	0.33852	0.075243	0.18271	0.12225	0.16998	0.22522	0.25453	0.12493	0.23271	0.30059	0.13874	0.27593	0.33713	-1.6979	-2.8958	-2.625	-2.2562	-2.9521	-2.3625	-2.7583	-2.9167	-2.1896	-2.6688	-2.7896	-2.4562	-2.9313	-2.4708	-2.3688	-3.0875	97.638	187.126	154.144	262.318	249.884	151.466	206.843	233.647	-61.798	-82.830	-51.388	185.718	249.807	104.871	115.032	-68.181	0.00016444	0.00053652	9.5816e-05	812.69	2.51e-06	5.7619e-06	615.75	330.14	1.8677e-06	4.853e-06	296	118.77	134.16	59.383	4.5379e-06	59.121	0.00040418	0.00044452	0.00012341	791.19	4.6634e-06	4.8874e-06	601.64	322.75	4.7303e-06	4.728e-06	288.38	117.17	132.83	58.631	5.0392e-06	58.204	235.065	-14.979	18.000	-71.626	108.196	56.651	-71.953	-66.979	95.007	33.095	-68.696	-64.820	-63.090	-59.381	72.215	-61.829	-8191	255	
20095.488	1	1	0	0	0.23684	0.040414	0.11966	0.36213	0.094818	0.23661	0.11536	0.37461	0.015398	0.17826	0.16991	0.25441	0.054403	0.30082	0.24238	0.079637	-1.8625	-2.7229	-2.7333	-2.4562	-3.0375	-2.5146	-2.3979	-2.9979	-2.3229	-2.7042	-2.7125	-2.425	-2.8812	-2.5	-2.3333	-3.0875	17.266	-39.189	-81.360	175.986	1.759	193.945	242.603	208.536	-20.578	24.441	161.110	-77.919	143.512	220.517	264.154	-41.988	0.00017002	0.00045006	0.0001717	813.91	2.9693e-06	6.5699e-06	611.12	323.67	2.7873e-06	4.6192e-06	283.91	112.37	128.99	56.091	3.8603e-06	55.755	0.0004016	0.00043385	0.00012177	791.65	4.4062e-06	4.746e-06	594.68	318.21	4.6706e-06	4.6433e-06	279.35	111.76	127.95	55.331	4.9603e-06	54.87	237.986	-1.030	-0.990	-71.596	60.473	86.274	-72.592	-67.443	71.303	57.825	-69.213	-65.833	-63.588	-60.027	80.328	-62.431	-8191	255	
20095.609	1	1	0	0	0.16154	0.14485	0.2138	0.089518	0.22129	0.085559	0.20538	0.13172	0.13042	0.22528	0.14051	0.46653	0.067142	0.070874	0.067596	0.22991	-1.9354	-2.6417	-2.7771	-2.2	-2.8708	-2.6437	-2.4708	-3.2271	-2.4604	-2.5271	-2.85	-2.3063	-3.0583	-2.875	-2.2896	-2.8375	221.451	45.955	134.272	253.619	221.003	-75.897	-33.437	247.253	107.683	-80.060	271.709	-80.220	55.520	271.245	194.960	-73.830	0.00012703	0.00051178	0.00010157	813.52	2.6151e-06	5.246e-06	609.74	323.23	1.8474e-06	5.1815e-06	286.12	113.17	128.96	55.951	4.8257e-06	56.073	0.00038132	0.00042772	0.00011456	791.79	4.4518e-06	4.4737e-06	593.38	317.13	4.5254e-06	4.5445e-06	279.71	112.04	127.92	55.321	4.7937e-06	55.453	231.878	9.837	-12.911	-71.792	80.204	72.052	-72.467	-66.843	51.753	76.944	-68.893	-64.934	-63.020	-59.506	56.449	-62.026	-8191	255	
20095.705	1	1	0	0	0.33909	0.099425	0.20334	0.17285	0.19874	0.25916	0.50203	0.11473	0.17695	0.064011	0.34367	0.097202	0.19639	0.14726	0.079479	0.045429	-1.9979	-2.4271	-2.9479	-2.3208	-2.6917	-2.6521	-2.3771	-3.2417	-2.5354	-2.6458	-3.0604	-2.5292	-2.775	-2.8479	-2.2542	-2.9833	47.775	35.911	154.611	217.345	160.660	223.661	176.711	183.740	94.707	-5.537	-10.226	-10.757	109.638	214.939	237.002	256.103	0.00015453	0.00051411	0.00013986	817.83	2.8451e-06	4.3116e-06	619.93	327.28	3.1677e-06	5.594e-06	294.49	117.09	132.57	58.532	2.3747e-06	59.307	0.00038389	0.00042394	0.000115	796.35	4.283e-06	4.4401e-06	604.06	321.69	4.6978e-06	4.3046e-06	288.23	115.83	131.08	57.607	4.6941e-06	58.084	242.604	7.247	-8.977	-71.577	80.555	57.634	-71.925	-66.612	79.345	52.695	-67.500	-63.651	-61.762	-59.219	71.620	-60.664	-8191	255	
20095.799	1	1	0	0	0.19976	0.25259	0.0813	0.021065	0.092071	0.055757	0.10633	0.081318	0.17716	0.15754	0.11271	0.14073	0.088538	0.16833	0.31846	0.10555	-2.0354	-2.3229	-2.9875	-2.4333	-2.725	-2.7667	-2.5396	-3.0104	-2.7729	-2.4896	-3.0667	-2.35	-2.6042	-2.9583	-2.3729	-3.0542	-12.046	-39.695	258.343	174.728	-4.489	74.822	224.581	90.604	131.254	-56.368	256.105	-0.683	189.346	-56.486	194.160	272.633	0.00013992	0.00029228	0.00014775	821.67	3.3213e-06	7.4337e-06	628.7	329.54	2.2624e-06	4.0919e-06	299.49	119.79	133.66	59.685	4.9693e-06	60.665	0.00039197	0.00039016	0.00011086	800.91	4.3239e-06	4.4259e-06	611.22	324	4.267e-06	4.3887e-06	292.35	118.16	132.5	59.04	4.6217e-06	59.7	233.738	35.811	-10.173	-70.468	65.479	77.822	-71.006	-65.797	79.630	60.291	-67.560	-63.516	-61.477	-58.253	80.002	-61.024	-8191	255	
20095.896	1	1	0	0	0.056209	0.23814	0.032434	0.414	0.15413	0.16955	0.27977	0.28606	0.090831	0.091325	0.1614	0.092243	0.33629	0.086757	0.15225	0.22412	-2.2083	-2.3708	-3.025	-2.4437	-2.5979	-2.9167	-2.475	-2.8812	-2.7562	-2.3438	-3.0646	-2.425	-2.4083	-3.1688	-2.3333	-2.9188	9.184	-64.385	186.173	267.796	-76.692	-38.953	110.281	266.222	-16.211	237.674	144.237	182.029	233.653	209.557	36.616	225.466	0.00018527	0.00053856	0.00012485	822.05	3.5057e-06	4.6598e-06	631.31	330.89	2.4301e-06	4.7609e-06	300.5	119.34	133.33	59.13	4.5829e-06	60.433	0.00038682	0.0004264	0.00011453	801.72	4.4002e-06	4.4138e-06	615.03	325.29	4.2797e-06	4.3595e-06	293.44	117.79	131.88	58.384	4.7961e-06	59.145	238.595	8.170	15.922	-70.528	63.205	48.313	-70.720	-65.931	87.910	66.281	-68.212	-63.928	-61.984	-58.446	74.498	-60.742	-8191	255	
20096.016	1	1	0	0	0.21832	0.079301	0.10708	0.131	0.15806	0.087146	0.28491	0.36567	0.19777	0.22346	0.23691	0.29171	0.22897	0.097794	0.027192	0.13289	-2.3625	-2.4729	-3.0542	-2.6208	-2.3937	-2.9667	-2.3625	-2.8438	-2.9437	-2.3521	-2.9521	-2.7188	-2.3792	-2.9688	-2.4458	-2.7771	110.409	38.975	171.711	270.060	46.159	2.797	189.431	173.973	-9.256	207.190	245.637	-80.850	257.664	128.463	173.901	-14.009	0.00017787	0.00059196	0.00018573	827.95	4.0009e-06	4.7798e-06	630.81	331.58	2.4631e-06	5.1596e-06	299.59	118.06	130.91	58.236	3.1135e-06	58.805	0.0003811	0.00039846	0.0001091	804.84	4.4271e-06	4.2182e-06	615.28	323.82	4.3934e-06	4.2021e-06	291.47	116.24	129.8	57.413	4.4343e-06	57.896	237.397	10.245	10.552	-70.518	73.676	65.328	-71.118	-65.977	43.677	73.405	-67.806	-63.903	-62.117	-58.404	77.127	-60.838	-8191	255	
20096.088	1	1	0	0	0.13841	0.224	0.37134	0.14058	0.40186	0.089302	0.21354	0.20189	0.10406	0.095274	0.31607	0.1189	0.26752	0.076072	0.25606	0.19806	-2.6146	-2.1521	-2.9104	-2.5938	-2.4208	-3.1708	-2.4896	-2.6792	-3.0375	-2.1875	-3.0021	-2.6	-2.5604	-3.1042	-2.325	-2.7833	134.699	39.109	59.992	27.191	88.634	-79.790	224.909	227.700	199.836	15.563	235.504	242.374	-62.091	213.630	-38.149	164.666	0.00017821	0.00053455	0.00013121	827.27	5.5033e-06	3.6363e-06	627.82	326.8	2.4877e-06	3.9816e-06	294.97	115.55	129.8	56.696	2.3527e-06	57.142	0.0003811	0.0004196	0.00011638	803.58	4.4597e-06	4.5163e-06	611.33	320.53	4.5038e-06	4.4447e-06	287.67	114.26	127.88	55.835	4.7656e-06	56.273	237.457	4.826	14.053	-70.521	80.377	84.818	-70.910	-65.812	66.436	45.847	-67.679	-63.611	-61.937	-58.243	66.477	-60.712	-8191	255	
20096.184	1	1	0	0	0.1059	0.023295	0.20363	0.22798	0.17577	0.1136	0.23906	0.23215	0.049838	0.24102	0.14446	0.21059	0.11388	0.3341	0.39735	0.30762	-2.5625	-2.0271	-2.7646	-3.0625	-2.3625	-3.1729	-2.5708	-2.6396	-3.0167	-2.3208	-2.8646	-2.6979	-2.5333	-3.0563	-2.5958	-2.7271	169.092	218.582	-33.301	264.445	251.648	275.603	103.140	221.381	-37.970	-3.678	-37.540	218.921	-83.392	273.089	29.939	257.485	0.00016811	0.00066269	9.6509e-05	815.76	3.24e-06	6.1048e-06	617.11	323.03	1.315e-06	2.9898e-06	288.76	115.04	127.95	56.273	3.3579e-06	56.875	0.00038915	0.00044688	0.00011473	795.32	4.576e-06	4.694e-06	602.84	316.44	4.8275e-06	4.6224e-06	282.92	113.18	126.84	55.427	5.017e-06	55.788	239.877	0.125	6.063	-70.264	78.041	100.275	-71.293	-65.783	101.159	85.740	-67.941	-63.547	-62.124	-58.299	83.237	-60.655	-8191	255	
20096.279	1	1	0	0	0.27243	0.23479	0.07169	0.059606	0.40199	0.14109	0.15615	0.26918	0.023405	0.15829	0.14815	0.24668	0.072092	0.067222	0.1472	0.16951	-2.7812	-2.4896	-2.7792	-2.8708	-2.3708	-3.1312	-2.7333	-2.5417	-2.9167	-2.4833	-2.6896	-2.9813	-2.2812	-2.9979	-2.6188	-2.525	-40.188	6.555	117.347	143.479	91.264	172.531	117.562	248.641	103.176	89.375	154.588	238.988	158.322	174.643	-16.421	203.527	0.00015157	0.00054109	0.00016797	813.51	2.5888e-06	4.6766e-06	612.57	321.75	1.4405e-06	5.2136e-06	286.29	113.05	127.13	55.234	4.5884e-06	55.777	0.00038392	0.00041772	0.00012039	791.41	4.5071e-06	4.602e-06	598.99	315.9	4.6053e-06	4.4813e-06	281.3	111.89	125.7	54.565	4.7247e-06	54.748	230.830	4.945	-8.416	-70.472	96.813	87.290	-70.918	-65.858	80.707	87.497	-67.639	-63.937	-62.406	-59.034	61.644	-61.233	-8191	255	
20096.377	1	1	0	0	0.1368	0.20257	0.21971	0.20606	0.20906	0.23529	0.14041	0.1653	0.092817	0.13846	0.39892	0.068557	0.13102	0.10253	0.046635	0.40416	-2.7188	-2.4604	-2.5458	-3.1583	-2.3958	-3	-2.6896	-2.4729	-3.0125	-2.5917	-2.575	-2.9875	-2.4479	-2.8292	-3.0062	-2.3542	16.830	33.049	114.321	231.704	148.737	-32.607	130.761	200.637	42.743	178.192	270.699	199.457	28.827	11.101	252.618	127.948	0.00015503	0.00050429	0.00012868	810.71	4.6153e-06	3.2891e-06	614.89	320.88	2.8516e-06	4.2848e-06	286.12	113.19	126.29	55.401	4.4556e-06	56.172	0.00037901	0.0004105	0.00011801	789.65	4.5141e-06	4.5846e-06	597.94	314.17	4.3915e-06	4.7929e-06	280.99	111.67	125.19	54.734	4.7809e-06	55.356	228.948	-2.649	-2.836	-71.056	105.268	50.261	-71.636	-66.572	90.581	55.079	-68.520	-64.444	-62.552	-59.046	70.011	-61.396	-8191	255	
20096.496	1	1	0	0	0.15172	0.11367	0.1798	0.2388	0.32075	0.19014	0.32632	0.077532	0.03268	0.16424	0.15132	0.14535	0.099826	0.098448	0.17757	0.22452	-2.5375	-2.6521	-2.4896	-3.0479	-2.2708	-2.8312	-3.0563	-2.5125	-3.0208	-2.5438	-2.6333	-3.15	-2.4354	-2.7854	-3.0729	-2.3729	264.001	-29.861	69.858	243.702	196.966	-6.191	-48.571	254.311	164.452	-27.480	250.885	-66.647	-35.213	238.659	67.173	272.242	0.00014958	0.00033292	0.0001202	806.46	2.8881e-06	4.7327e-06	617.82	319.52	1.6984e-06	5.4563e-06	286.28	112.21	126.86	54.011	3.9669e-06	54.469	0.00039648	0.00041441	0.00012164	786.8	4.7146e-06	4.7665e-06	598.21	313.19	4.9215e-06	4.8117e-06	279.74	111.16	125.15	53.686	5.0766e-06	53.7	229.685	6.220	-15.605	-71.120	75.834	84.455	-71.450	-66.618	77.764	83.872	-68.543	-64.455	-62.768	-59.241	94.325	-61.398	-8191	255	
20096.594	1	1	0	0	0.13201	0.092308	0.015289	0.10638	0.037594	0.13706	0.18151	0.22176	0.17502	0.29201	0.29888	0.048907	0.12091	0.44201	0.13027	0.10244	-2.5312	-2.6229	-2.3521	-3.1104	-2.3292	-2.6312	-3.1021	-2.3458	-2.7646	-2.7771	-2.4271	-3.0229	-2.2958	-2.7167	-2.9542	-2.5687	179.619	127.788	29.104	5.577	235.578	214.692	132.277	231.026	259.273	193.934	-34.444	21.771	-70.896	253.015	159.200	-53.361	0.00016339	0.00045235	0.00014632	806.18	2.4606e-06	5.1835e-06	601.44	316.56	2.5343e-06	6.0601e-06	280.52	110.64	124.99	52.625	2.4407e-06	52.341	0.00041698	0.00046113	0.00012838	785.79	4.769e-06	5.0919e-06	587.86	310.33	5.0455e-06	5.0474e-06	273.87	109.11	123.5	52.076	5.2398e-06	51.524	243.710	-13.022	1.706	-71.130	102.216	68.705	-71.635	-66.528	82.355	77.405	-68.506	-64.660	-62.500	-58.976	48.789	-61.830	-8191	255	
20096.689	1	1	0	0	0.19581	0.192	0.10708	0.096977	0.23344	0.14368	0.14175	0.067688	0.18346	0.15851	0.25112	0.17212	0.15121	0.20715	0.10101	0.19859	-2.6104	-2.7771	-2.4229	-3.0396	-2.5625	-2.6271	-3.0542	-2.6604	-2.7625	-2.9083	-2.1958	-3.0417	-2.5125	-2.5458	-3	-2.2396	177.494	206.219	46.660	249.679	-4.424	35.948	187.289	90.378	177.409	-17.372	118.919	220.233	-71.080	-61.436	4.571	257.743	0.00013214	0.00049571	0.00014408	796.44	1.8385e-06	2.7664e-06	594.46	317.16	7.6958e-07	3.8559e-06	279.07	110.03	125.04	53.082	2.1928e-06	52.482	0.00039884	0.00048869	0.00013542	776.99	5.0982e-06	5.2218e-06	580.67	309.42	5.2057e-06	5.358e-06	272.76	108.83	123.82	52.29	5.3842e-06	51.687	225.162	12.587	-9.171	-71.133	62.441	62.804	-71.732	-66.483	92.418	82.607	-68.440	-64.479	-62.745	-59.231	85.870	-61.317	-8191	255	
20096.785	1	1	0	0	0.081643	0.087236	0.11818	0.21456	0.3923	0.13692	0.072782	0.22748	0.14445	0.36244	0.23117	0.19772	0.067219	0.13664	0.038568	0.076964	-2.3542	-2.8708	-2.3312	-2.9104	-2.6813	-2.4667	-3.0833	-2.5021	-2.6958	-2.8646	-2.3292	-2.9458	-2.5604	-2.6646	-2.975	-2.7188	81.762	-53.918	70.526	189.483	199.745	160.279	176.500	267.223	201.150	-18.892	270.873	139.790	84.576	86.714	-36.375	203.518	0.00017229	0.00046081	0.00012412	794.27	2.6253e-06	3.7285e-06	597.75	315.47	2.8215e-06	5.6236e-06	279.66	110.26	125.3	52.8	2.5483e-06	52.786	0.00042926	0.00050148	0.00013448	775.34	5.3164e-06	5.6975e-06	581.55	308.95	5.3889e-06	5.2529e-06	273.43	109.14	123.62	52.23	5.1545e-06	51.83	231.559	4.863	-4.350	-71.129	66.677	30.056	-71.766	-66.462	43.072	65.148	-68.461	-64.496	-62.112	-59.697	100.617	-61.359	-8191	255	
20096.881	1	1	0	0	0.21078	0.22571	0.12301	0.011682	0.090591	0.13237	0.33069	0.33489	0.012272	0.11059	0.12704	0.39255	0.30243	0.39526	0.085844	0.13184	-2.2042	-2.825	-2.4146	-2.9938	-2.5979	-2.3229	-3.1792	-2.5729	-2.5229	-2.9396	-2.2167	-2.7667	-3.0021	-2.5854	-3	-2.6396	88.906	25.923	-73.919	188.967	108.276	156.679	126.111	208.090	102.894	-46.292	122.419	233.171	266.139	264.475	89.858	145.941	0.00013133	0.00047533	0.00010792	798.96	4.7857e-06	3.7904e-06	598.4	315.32	3.9025e-06	5.8383e-06	278.71	110.04	124.08	52.695	3.5244e-06	52.246	0.00042834	0.00048803	0.0001377	779.05	5.0875e-06	5.4026e-06	583.33	309.49	5.4039e-06	5.197e-06	272.95	108.71	123.06	52.092	5.6489e-06	51.551	238.967	-5.719	12.064	-70.988	95.521	71.174	-72.106	-66.348	57.993	77.822	-68.538	-64.321	-62.432	-59.007	132.101	-61.281	-8191	255	
20096.979	1	1	0	0	0.17747	0.17208	0.091893	0.15201	0.076931	0.044922	0.21163	0.32094	0.18105	0.078744	0.20233	0.1447	0.23235	0.037717	0.16917	0.29577	-2.1208	-2.9813	-2.2042	-2.9062	-2.85	-2.3417	-3.1604	-2.4833	-2.6583	-2.9583	-2.2687	-2.6792	-2.8604	-2.275	-2.9938	-2.675	64.673	63.075	233.929	-77.150	29.122	173.417	166.043	196.561	3.590	214.392	236.845	275.131	249.222	-52.691	112.557	-4.956	0.00015052	0.00035904	0.00014368	799.47	3.1052e-06	5.8532e-06	595.79	313.23	2.6517e-06	4.7542e-06	277.29	108.02	122.94	52.111	3.7642e-06	51.506	0.00042229	0.00050794	0.00013938	777.88	5.1089e-06	5.4263e-06	581.3	307.55	5.2879e-06	5.3716e-06	270.13	107.26	122.07	51.523	5.6203e-06	50.755	234.185	6.873	26.103	-71.601	67.945	43.356	-72.213	-66.342	106.400	64.951	-68.765	-64.543	-62.650	-58.898	63.595	-61.585	-8191	255	
20097.098	1	1	0	0	0.12288	0.13496	0.1177	0.24075	0.063223	0.14035	0.0034635	0.17773	0.17433	0.044773	0.1248	0.084229	0.27003	0.085376	0.18788	0.20153	-2.0646	-2.9667	-2.5458	-2.675	-2.9562	-2.225	-2.9562	-2.7229	-2.4521	-3.1229	-2.4854	-2.9104	-3.0604	-2.2687	-2.8333	-2.7042	184.857	-77.577	37.535	223.451	116.894	107.896	146.944	-80.011	127.904	113.150	226.642	-17.810	77.590	42.262	237.535	237.211	0.00015548	0.0004984	0.00017136	792.47	3.6701e-06	5.6344e-06	589.21	312.09	2.9082e-06	3.1801e-06	275.65	106.69	122.43	51.909	3.2438e-06	51.325	0.00042349	0.00050841	0.00014648	772.57	5.2806e-06	5.7585e-06	575.28	305.76	5.4006e-06	5.2963e-06	268.34	106.07	121.53	51.173	5.4084e-06	50.314	227.577	3.884	10.324	-71.236	96.997	79.213	-71.802	-66.565	88.662	80.468	-68.426	-64.402	-62.548	-58.879	61.695	-61.603	-8191	255	
20097.193	1	1	0	0	0.26827	0.1691	0.19353	0.085161	0.074777	0.19868	0.1545	0.16683	0.11596	0.089468	0.20891	0.047784	0.16954	0.27421	0.35443	0.24947	-1.9646	-3.0687	-2.3396	-2.8896	-3.0125	-2.0604	-3.0687	-2.8396	-2.2104	-3.0646	-2.5812	-2.4375	-3.0521	-2.325	-2.7667	-2.8708	267.372	46.167	12.624	255.358	-68.878	74.381	-55.813	270.758	146.565	39.998	-50.590	7.751	-36.473	-66.755	115.766	192.209	0.00015281	0.00051726	0.00012512	790.64	2.7867e-06	7.2694e-06	589.14	311.4	2.7583e-06	6.3987e-06	272.83	107.66	122.45	52.031	3.8862e-06	51.499	0.00042113	0.00048066	0.00013567	771.64	4.8936e-06	5.4899e-06	574.43	305.47	5.5115e-06	5.3412e-06	267.74	106.4	121.55	51.313	5.4719e-06	50.552	236.573	-7.144	-17.284	-71.316	107.694	78.187	-71.592	-66.306	44.126	83.164	-68.700	-64.681	-62.737	-58.832	63.769	-61.158	-8191	255	
20097.289	1	1	0	0	0.10914	0.23905	0.095593	0.12023	0.049297	0.18497	0.29542	0.29624	0.1304	0.28032	0.17911	0.3132	0.11016	0.30028	0.23507	0.14888	-1.85	-2.9458	-2.5812	-2.6479	-2.9333	-2.2771	-2.8979	-3.0271	-2.0938	-3.0854	-2.6583	-2.5938	-3.0271	-2.4688	-2.6417	-2.9375	4.282	117.741	140.121	165.573	-10.266	175.428	189.353	225.467	41.321	86.159	156.627	9.777	175.777	-82.849	38.498	74.373	0.00016325	0.00032551	0.00013845	792.82	3.8928e-06	3.7803e-06	595.77	311.95	2.283e-06	4.2776e-06	279.54	108.84	123.5	52.91	3.5041e-06	52.957	0.00041541	0.00048699	0.00013876	774.31	5.2266e-06	5.3106e-06	581.11	306.89	5.1502e-06	4.9894e-06	272.05	107.95	122.31	52.275	5.1703e-06	52.028	227.213	5.149	-11.711	-71.185	85.740	70.211	-72.167	-66.054	80.229	77.078	-68.550	-64.395	-62.653	-58.936	79.065	-61.216	-8191	255	
20097.385	1	1	0	0	0.12312	0.086694	0.0099877	0.11494	0.13902	0.17555	0.38074	0.20632	0.21784	0.074231	0.13965	0.13205	0.098444	0.13731	0.074375	0.14553	-1.8521	-2.8729	-2.5979	-2.3583	-3.0021	-2.5042	-2.8167	-3.1188	-2.35	-2.9167	-2.9042	-2.55	-2.9771	-2.7229	-2.5417	-3.1562	74.346	19.592	-38.067	212.447	117.009	-23.637	-70.154	187.725	-62.897	248.564	71.361	201.322	-56.544	275.515	-71.437	185.469	0.00015951	0.00046077	0.00010429	798.36	2.4686e-06	4.2444e-06	599.56	315.01	2.8555e-06	3.4816e-06	280.81	109.9	123.34	53.376	1.6186e-06	53.28	0.00040271	0.00045136	0.00013525	778.81	4.7159e-06	5.3327e-06	585.42	308.6	4.9764e-06	5.164e-06	274.45	108.8	122.9	52.728	5.1501e-06	52.491	236.736	-4.127	16.763	-71.234	92.561	76.170	-71.513	-66.481	102.315	37.176	-68.691	-64.660	-62.702	-58.928	98.817	-61.343	-8191	255	
20097.480	1	1	0	0	0.17624	0.052155	0.16414	0.26381	0.081565	0.05853	0.22565	0.26682	0.12787	0.23299	0.2148	0.12354	0.042521	0.17704	0.1256	0.16473	-1.8542	-2.8542	-2.8042	-2.3771	-3.0375	-2.4354	-2.6021	-3.225	-2.1417	-2.7521	-2.8063	-2.3104	-3.1146	-2.6625	-2.5417	-2.9542	80.931	-37.410	160.054	252.756	192.067	250.454	183.579	221.849	72.357	260.491	217.895	150.063	118.361	80.201	58.043	231.095	0.00014976	0.00037102	0.00014448	800.11	3.3973e-06	3.5053e-06	599.18	315.05	1.6885e-06	5.0518e-06	279.51	110.07	124.05	53.554	3.2576e-06	53.474	0.00041389	0.00046108	0.0001225	779	4.7871e-06	4.939e-06	585.04	308.76	4.6504e-06	4.8091e-06	273.89	108.67	122.8	52.901	5.2127e-06	52.613	236.537	17.277	-0.527	-71.270	85.892	66.152	-71.503	-66.407	29.829	47.568	-68.360	-64.330	-62.273	-58.809	80.217	-61.321	-8191	255	
20097.576	1	1	0	0	0.10237	0.35789	0.19871	0.27106	0.26714	0.13884	0.19393	0.14167	0.069619	0.18311	0.10717	0.14529	0.034319	0.076757	0.1666	0.074355	-2.0938	-2.6125	-2.8792	-2.2833	-2.8521	-2.6146	-2.3396	-3.1479	-2.4729	-2.725	-3.0604	-2.4313	-3.0604	-2.7979	-2.2833	-3.0896	-45.161	-59.535	130.460	257.072	-7.748	228.786	-55.802	255.315	202.109	153.826	248.293	181.934	-73.970	12.746	55.010	68.257	0.00016012	0.00055786	0.00014072	800.08	3.0794e-06	4.2547e-06	597.59	316.56	2.2754e-06	5.5534e-06	281.46	110.49	124.01	53.847	3.9069e-06	53.926	0.00039526	0.00044414	0.00012241	778.33	4.5997e-06	4.5084e-06	585.55	309.53	4.7279e-06	4.6742e-06	275.35	109.39	123.07	53.203	4.8809e-06	53.248	231.554	-0.202	8.965	-71.307	79.846	73.990	-71.631	-66.026	29.617	61.250	-68.156	-64.233	-62.659	-58.685	42.632	-61.207	-8191	255	
20097.697	1	1	0	0	0.10547	0.2578	0.067084	0.21393	0.24093	0.052426	0.038035	0.228	0.2762	0.067393	0.26333	0.13255	0.10501	0.054572	0.13515	0.27363	-1.8958	-2.4708	-2.9062	-2.3417	-2.9562	-2.7146	-2.6333	-3.1562	-2.3521	-2.5167	-2.9229	-2.3937	-2.8396	-2.8667	-2.15	-3.0938	237.871	163.580	124.782	-53.556	-36.330	247.694	-24.040	194.381	16.778	12.714	237.482	71.146	66.460	125.283	-51.158	255.352	0.0001366	0.00040429	0.0001489	800.72	2.4363e-06	4.6675e-06	605.99	315.9	2.8996e-06	4.6435e-06	283.56	111.59	124.54	54.074	4.3683e-06	54.672	0.00037869	0.00043343	0.00011801	780.51	4.4569e-06	4.6819e-06	590.8	310.39	4.6119e-06	4.717e-06	277.1	110.13	123.24	53.546	4.7089e-06	53.687	236.284	14.738	-4.108	-71.105	88.508	71.995	-71.715	-66.626	75.888	71.155	-69.021	-65.271	-63.063	-59.336	68.100	-61.106	-8191	255	
20097.793	1	1	0	0	0.20886	0.10166	0.16869	0.092247	0.22787	0.28032	0.22008	0.054947	0.31435	0.18368	0.14799	0.19151	0.25676	0.23444	0.10215	0.36501	-2.1937	-2.2292	-2.8583	-2.4271	-2.6208	-2.8083	-2.4917	-2.8563	-2.5292	-2.2979	-2.9979	-2.3146	-2.6625	-2.8438	-2.3667	-2.95	116.527	111.283	90.094	-60.287	135.648	82.269	80.181	112.609	144.917	-0.486	239.371	115.660	-78.759	223.814	57.291	220.798	0.00015489	0.0003974	0.00011463	804.01	3.2841e-06	5.7709e-06	611.58	315.44	2.4012e-06	4.3859e-06	284	110.97	124.33	54.128	2.8937e-06	54.154	0.00037079	0.00041559	0.00011031	782.55	4.4467e-06	4.6214e-06	593.56	310.66	4.4442e-06	4.372e-06	277.23	109.66	123.13	53.377	4.7513e-06	53.381	235.973	3.562	-0.581	-71.420	68.838	72.535	-71.688	-66.341	68.196	72.450	-68.306	-64.308	-62.418	-58.914	38.747	-61.189	-8191	255	
20097.889	1	1	0	0	0.24447	0.26932	0.16953	0.27025	0.12821	0.2743	0.19348	0.10214	0.14754	0.24721	0.21061	0.27853	0.29814	0.22703	0.16643	0.20842	-2.3792	-2.3771	-2.9562	-2.2979	-2.6333	-2.9562	-2.4437	-3.075	-2.6833	-2.35	-2.8375	-2.4437	-2.5833	-3.1833	-2.1979	-2.8021	131.925	104.445	174.568	193.814	-24.338	-39.843	238.856	212.177	44.827	172.088	172.045	180.917	-32.672	-20.440	24.722	194.208	0.00013596	0.00044738	0.00012986	800.23	3.635e-06	5.3443e-06	604.64	315.31	1.7369e-06	4.1079e-06	280.62	109.96	123.32	53.6	3.814e-06	53.904	0.00037467	0.00041484	0.00011341	779.97	4.415e-06	4.3365e-06	589.3	309.65	4.3554e-06	4.5879e-06	275.33	108.74	122.19	53.047	4.7158e-06	52.931	234.535	-4.788	13.124	-70.999	82.214	55.947	-71.584	-66.535	47.233	43.029	-68.556	-64.359	-62.968	-59.037	89.626	-61.262	-8191	255	
20097.961	1	1	0	0	0.20686	0.09192	0.12589	0.18863	0.1148	0.16091	0.26421	0.1565	0.13234	0.18564	0.19647	0.058571	0.058226	0.39239	0.14939	0.1777	-2.3833	-2.2708	-2.9229	-2.45	-2.4146	-2.9667	-2.2396	-2.9708	-2.8396	-2.4083	-2.8146	-2.475	-2.3271	-2.9917	-2.5396	-2.6417	187.187	-8.521	3.955	263.887	168.715	-1.945	270.550	249.525	93.543	172.062	-40.437	231.149	137.524	-51.420	120.212	197.848	0.00014379	0.00045657	9.9262e-05	798.74	2.0416e-06	5.3045e-06	601.9	313.99	2.8386e-06	3.3157e-06	278.62	109.99	123.74	53.262	2.845e-06	53.313	0.00038522	0.00042588	0.00011469	778.05	4.2151e-06	4.5778e-06	587.52	308.03	4.594e-06	4.3307e-06	273.23	108.17	122	52.72	4.6399e-06	52.55	229.014	-11.624	15.235	-71.156	93.859	73.499	-71.749	-66.298	85.936	55.945	-68.226	-64.856	-61.825	-58.331	80.731	-60.600	-8191	255	
20098.059	1	1	0	0	0.13049	0.063978	0.19451	0.20322	0.12725	0.09727	0.19742	0.22047	0.19918	0.14069	0.11755	0.19048	0.14492	0.29281	0.11256	0.11356	-2.6	-2.2792	-2.9479	-2.7042	-2.2708	-2.9229	-2.5542	-2.6083	-2.8521	-2.3479	-2.975	-2.6375	-2.5104	-3.0812	-2.4125	-2.8521	231.103	-43.399	-12.617	205.511	-6.916	-77.991	274.659	254.700	82.233	85.916	161.277	194.161	60.080	-82.304	19.708	-82.335	0.0001205	0.00046875	0.00013458	798.39	3.0723e-06	4.1771e-06	598.97	313.28	3.1347e-06	5.5693e-06	281.45	109.77	123.03	53.19	1.5402e-06	53.469	0.00037779	0.00041191	0.0001076	777.34	4.1988e-06	4.2776e-06	585.33	307.92	4.2689e-06	4.625e-06	273.78	108.62	121.88	52.613	4.6705e-06	52.529	239.363	4.849	10.261	-70.531	80.318	63.089	-70.902	-65.802	100.302	53.700	-67.733	-63.937	-62.359	-58.026	78.123	-60.608	-8191	255	
20098.178	1	1	0	0	0.16856	0.077433	0.19812	0.27902	0.058867	0.13569	0.41764	0.33471	0.020454	0.15144	0.0591	0.29017	0.089109	0.19072	0.26307	0.042651	-2.5229	-2.15	-2.9062	-2.6708	-2.3521	-3.1104	-2.6458	-2.6542	-2.9917	-2.2979	-2.9	-2.9562	-2.3333	-3.0979	-2.5833	-2.5792	-49.299	45.094	-14.834	261.210	158.502	55.386	245.938	227.078	6.087	76.080	-38.307	153.307	-54.004	252.760	220.360	41.899	0.00015427	0.00056738	0.00010105	796.75	1.832e-06	2.8989e-06	597.8	314.6	2.8425e-06	4.7215e-06	277.54	109.36	122.9	53.011	3.0506e-06	53.149	0.00037725	0.00041904	0.00011411	776.94	4.475e-06	4.276e-06	585.35	307.77	4.4164e-06	4.5205e-06	273.31	108.21	121.58	52.269	4.7607e-06	52.167	238.144	12.297	21.267	-70.431	88.287	70.290	-70.864	-65.745	85.851	69.394	-67.565	-63.725	-61.699	-58.343	78.393	-60.358	-8191	255	
20098.273	1	1	0	0	0.068902	0.19001	0.17435	0.22658	0.16103	0.042973	0.22693	0.28901	0.20728	0.23291	0.16651	0.20492	0.046291	0.069733	0.17993	0.07637	-2.5896	-2.4083	-2.6437	-2.9375	-2.375	-3.0333	-2.5854	-2.7729	-3.0625	-2.3667	-2.9042	-2.9667	-2.3854	-2.7771	-2.6771	-2.5875	68.751	18.285	67.582	237.776	-36.533	-26.628	218.990	195.165	83.920	-56.682	37.815	-61.985	-68.125	91.887	56.150	190.843	0.00014875	0.00036336	0.00015393	794.56	4.3933e-06	5.8986e-06	598.33	312.52	1.5672e-06	2.6599e-06	278.53	109.18	122.11	52.527	4.2031e-06	52.492	0.00037679	0.00043027	0.0001137	774.37	4.5276e-06	4.5205e-06	582.1	306.14	4.4146e-06	4.5869e-06	271.94	107.51	120.96	52.032	4.7335e-06	51.768	236.349	0.595	-8.664	-70.435	59.925	69.280	-73.119	-67.788	113.801	77.215	-69.474	-65.058	-63.803	-59.895	90.620	-62.092	-8191	255	
20098.369	1	1	0	0	0.12126	0.28522	0.29982	0.23564	0.19619	0.15369	0.12991	0.1726	0.092408	0.21298	0.19131	0.084024	0.080513	0.12225	0.095698	0.073024	-2.5583	-2.2333	-2.6688	-3.0062	-2.2875	-2.9167	-2.5563	-2.5042	-3.1188	-2.5	-2.6083	-3.0583	-2.4604	-2.9688	-2.9	-2.3604	48.801	202.049	239.905	204.158	99.260	-72.954	248.291	224.516	203.729	64.635	-47.878	164.825	-16.131	166.134	89.646	-32.200	0.00013953	0.00046866	8.1841e-05	792.13	2.5798e-06	5.0165e-06	593.89	311.56	2.9697e-06	5.2621e-06	276.95	108.89	121.82	52.847	1.7689e-06	52.968	0.00037768	0.00042371	0.00011947	772.14	4.4448e-06	4.4096e-06	580.61	305.7	4.5597e-06	4.5853e-06	271.55	107.54	121.11	52.221	4.5753e-06	52.06	235.902	-24.453	13.150	-71.838	109.558	65.489	-72.509	-67.174	84.397	84.528	-69.212	-64.923	-63.029	-58.629	70.070	-60.501	-8191	255	
20098.490	1	1	0	0	0.18402	0.21213	0.13667	0.19486	0.11886	0.22605	0.12115	0.089964	0.27452	0.032574	0.16385	0.091533	0.092286	0.33193	0.24873	0.049417	-2.4542	-2.3792	-2.4688	-3.1125	-2.0938	-2.7812	-2.9875	-2.5208	-2.9979	-2.6854	-2.5292	-3.2083	-2.4458	-2.9104	-2.9875	-2.6	-82.917	231.954	71.949	-61.173	73.741	170.893	258.610	-47.141	225.112	165.836	17.707	85.957	240.903	214.644	-39.811	127.392	0.00014122	0.00039904	8.779e-05	793.52	4.2833e-06	4.8505e-06	596.94	313.41	2.2265e-06	4.0993e-06	279.48	109.32	123.61	53.242	3.5894e-06	53.168	0.0003715	0.00042475	0.00012162	773.85	4.6434e-06	4.5641e-06	584.03	306.94	4.548e-06	4.3882e-06	272.96	108.2	122	52.502	4.7863e-06	52.493	236.136	-2.019	4.037	-70.625	78.885	56.857	-70.939	-65.771	72.450	60.203	-68.004	-63.722	-62.036	-58.432	75.815	-60.725	-8191	255	
20098.562	1	1	0	0	0.19203	0.17185	0.1373	0.29904	0.22642	0.1411	0.31225	0.19553	0.13976	0.29227	0.017365	0.17858	0.15605	0.40651	0.1754	0.24426	-2.6917	-2.6188	-2.4938	-3.1833	-2.2604	-2.8229	-2.8896	-2.3125	-2.8792	-2.8375	-2.4458	-3.0208	-2.4313	-2.7083	-2.7812	-2.4417	45.273	195.485	31.554	228.507	129.799	172.345	182.219	241.253	80.035	-52.341	71.780	198.991	218.577	226.386	16.326	186.039	0.00013191	0.00046113	0.0001718	799.27	2.8887e-06	4.5713e-06	604.49	314.16	2.3297e-06	5.3148e-06	281.7	110.79	124.54	53.693	3.5267e-06	53.835	0.00038804	0.00041762	0.0001178	776.93	4.5313e-06	4.8049e-06	588.89	308.06	4.3887e-06	4.7766e-06	274.86	109.43	123.07	53.175	4.8617e-06	53.111	240.333	8.768	3.693	-70.386	80.254	39.830	-70.819	-66.023	112.891	71.258	-67.919	-64.269	-62.628	-58.843	71.422	-61.397	-8191	255	
20098.658	1	1	0	0	0.068372	0.14407	0.18082	0.27609	0.12339	0.14421	0.055456	0.2734	0.035256	0.16013	0.15357	0.096535	0.036555	0.16431	0.061447	0.098507	-2.5146	-2.6562	-2.2313	-3.0208	-2.4062	-2.4583	-3.0167	-2.4042	-2.6792	-2.7979	-2.3354	-3.125	-2.5979	-2.6583	-3.0208	-2.4479	223.673	98.821	209.484	-33.212	246.820	268.614	-26.530	232.256	202.954	125.805	-26.412	62.518	-17.085	203.762	11.922	27.181	0.00014549	0.00045009	0.00012665	803.77	2.9461e-06	4.0729e-06	604.1	316.84	2.7259e-06	4.7435e-06	280.77	111.34	125.13	53.808	2.7391e-06	54.101	0.00038612	0.00043366	0.00012068	780.78	4.5043e-06	4.8543e-06	588.78	309.99	4.7086e-06	4.7076e-06	275.49	109.64	123.17	53.202	4.6281e-06	53.11	233.102	10.360	-5.148	-70.941	63.117	67.038	-71.435	-66.285	99.738	64.723	-67.986	-64.255	-62.631	-58.796	91.335	-61.467	-8191	255	
20098.777	1	1	0	0	0.082834	0.28524	0.28583	0.25463	0.16207	0.12177	0.19796	0.45398	0.14556	0.22089	0.10768	0.13344	0.037144	0.082514	0.082487	0.084961	-2.4333	-2.7125	-2.3688	-3.1021	-2.5021	-2.5625	-3.1042	-2.4188	-2.6104	-2.825	-2.3625	-3.0708	-2.5021	-2.4229	-2.8146	-2.3875	-6.207	-46.199	38.811	228.247	140.265	44.561	-80.549	190.834	-6.625	162.021	-20.564	261.028	211.247	257.835	155.777	31.693	0.00012784	0.00049404	0.00011749	797.32	2.0255e-06	5.5282e-06	603.12	316.84	2.6908e-06	3.5066e-06	282.31	111.02	125.29	53.9	2.3628e-06	54.007	0.00039713	0.00042928	0.00012406	779.42	4.4541e-06	4.9663e-06	588.43	310.65	4.8186e-06	4.4363e-06	276.06	109.95	123.89	53.331	4.8178e-06	53.048	235.107	10.383	16.220	-70.805	108.111	58.366	-71.306	-66.861	107.112	73.005	-69.134	-65.022	-62.969	-59.678	59.012	-61.674	-8191	255	
20098.873	1	1	0	0	0.13426	0.08357	0.00324	0.27053	0.083635	0.25535	0.039666	0.34264	0.17023	0.23072	0.36365	0.22036	0.19884	0.1378	0.19332	0.1963	-2.1937	-2.9042	-2.2854	-3.1979	-2.5542	-2.4854	-3.0938	-2.5354	-2.5354	-2.8396	-2.2354	-2.9396	-2.6063	-2.3417	-2.9958	-2.4292	257.668	152.784	105.009	150.339	94.129	275.141	272.843	229.718	193.989	100.333	-35.935	-59.016	236.876	273.828	131.108	178.380	0.00015537	0.0005445	0.00013527	802.03	2.473e-06	6.5917e-06	606.6	317.52	2.6131e-06	3.477e-06	283.44	111.08	125.44	54.298	2.4593e-06	54.114	0.00039189	0.00043871	0.00012826	782.38	4.6634e-06	4.7755e-06	589.6	311.62	4.8237e-06	4.8127e-06	276.81	110.28	124.05	53.359	4.6867e-06	53.263	245.282	-5.880	17.867	-71.392	88.745	66.585	-71.937	-66.601	88.216	62.084	-68.851	-64.364	-62.424	-59.061	86.000	-61.012	-8191	255	
20098.969	1	1	0	0	0.072073	0.37891	0.17537	0.27435	0.12371	0.27704	0.31542	0.07365	0.080153	0.27802	0.23025	0.043308	0.23933	0.19122	0.11256	0.08716	-2.1958	-2.9083	-2.275	-2.9062	-2.6854	-2.3125	-3.2188	-2.7354	-2.5146	-2.9729	-2.2292	-2.7208	-2.9021	-2.3021	-2.9667	-2.7562	258.210	57.943	1.159	-73.734	135.507	237.700	-82.444	-29.135	215.888	-82.142	258.341	5.443	195.239	260.689	256.000	24.433	0.00015281	0.00055024	0.0001328	804.25	3.1584e-06	5.8624e-06	606.97	318.26	1.9709e-06	3.3052e-06	282.74	112.15	125.79	53.858	2.8441e-06	53.878	0.00039379	0.00043187	0.00012325	784.77	4.7411e-06	4.6409e-06	592.38	311.83	4.8703e-06	4.602e-06	277.22	110.49	124.24	53.196	5.1412e-06	52.997	233.316	-1.879	3.046	-70.148	75.874	74.264	-70.851	-65.660	66.800	75.414	-68.086	-63.798	-61.879	-58.268	66.940	-60.726	-8191	255	
20099.090	1	1	0	0	0.18885	0.098299	0.24298	0.16482	0.05031	0.10093	0.17578	0.25984	0.30085	0.14897	0.028652	0.01824	0.14605	0.18828	0.22538	0.20564	-1.9813	-2.9521	-2.275	-2.5438	-2.9208	-2.1708	-2.9	-2.5625	-2.3958	-3.0687	-2.4271	-2.7958	-2.8833	-2.3438	-2.8146	-2.6375	100.905	12.139	112.629	267.146	233.261	-44.653	252.961	257.452	135.504	185.631	239.113	197.481	206.906	249.227	249.001	197.097	0.00014383	0.00034691	7.0552e-05	807.47	1.7646e-06	5.0557e-06	604.4	316.25	3.0079e-06	3.9734e-06	282.29	110.92	124.31	53.449	3.7939e-06	53.425	0.00040171	0.0004204	0.00012555	785.42	4.516e-06	4.9889e-06	588.8	310.53	5.0041e-06	4.636e-06	276.01	109.59	123.35	52.799	4.8725e-06	52.437	232.255	10.588	4.430	-70.521	76.480	69.603	-71.124	-65.660	85.916	57.267	-67.676	-63.615	-61.878	-58.654	72.839	-60.586	-8191	255	
20099.186	1	1	0	0	0.13683	0.087975	0.19305	0.2369	0.040782	0.11982	0.032688	0.11103	0.1334	0.20739	0.24913	0.19791	0.064817	0.007966	0.16308	0.17273	-1.8687	-3.0646	-2.2729	-2.7687	-2.8958	-2.2521	-3.0208	-2.9604	-2.3771	-3.0167	-2.6208	-2.7042	-2.9625	-2.3354	-2.9021	-2.8229	193.607	-8.104	-24.259	-3.380	170.977	241.702	62.359	274.826	100.207	159.784	108.187	244.174	35.371	165.767	40.427	198.474	0.00014015	0.00056878	0.00013112	799.49	1.2955e-06	6.0301e-06	600.42	316.34	2.844e-06	5.0379e-06	279.84	110.71	124	53.191	4.7323e-06	53.426	0.00038983	0.00041842	0.00012567	779.42	4.5327e-06	4.8669e-06	584.95	309	4.7697e-06	4.6475e-06	273.65	108.94	122.74	52.632	4.9785e-06	52.433	228.373	21.002	21.508	-70.402	99.961	54.444	-71.066	-65.819	59.093	56.608	-67.610	-63.552	-61.946	-58.265	83.127	-60.514	-8191	255	
20099.258	1	1	0	0	0.053824	0.14494	0.17589	0.10367	0.15499	0.13909	0.27332	0.29774	0.30727	0.027412	0.19168	0.11226	0.07852	0.075455	0.20532	0.23957	-1.8042	-2.8021	-2.5146	-2.7833	-2.9854	-2.3	-2.6708	-2.8354	-2.2104	-2.9792	-2.6875	-2.45	-3.0812	-2.5396	-2.8875	-2.8625	-30.174	97.222	-21.738	161.399	26.356	-38.131	-55.330	218.601	53.361	105.469	-1.874	-82.414	-9.502	246.598	-79.339	256.429	0.00014799	0.00060131	0.00015218	803.15	3.2608e-06	5.2959e-06	604.92	314.18	1.972e-06	4.1425e-06	281.93	109.98	124.56	53.15	4.8538e-06	53.362	0.00039417	0.00043013	0.00011928	780.4	4.3141e-06	4.8932e-06	586.81	309.01	4.7876e-06	4.5022e-06	275.04	108.87	122.53	52.378	4.877e-06	52.321	235.255	22.057	0.002	-70.736	107.378	67.733	-71.225	-65.761	67.543	77.557	-67.705	-63.946	-61.960	-58.181	90.469	-60.724	-8191	255	
20099.379	1	1	0	0	0.051147	0.18392	0.3909	0.18755	0.082532	0.10495	0.24572	0.2431	0.056831	0.12107	0.23264	0.23859	0.088298	0.060023	0.13523	0.2232	-1.8083	-2.8604	-2.6146	-2.2896	-3.0292	-2.3583	-2.7604	-2.8812	-2.1646	-2.8792	-2.7229	-2.4667	-2.8708	-2.3625	-2.6146	-3.0354	109.843	79.092	-61.957	-79.669	144.373	222.316	141.989	204.284	14.258	72.834	-52.168	-1.143	-47.748	200.853	47.700	234.152	0.00014804	0.00039765	0.00011607	804.02	3.5348e-06	6.2113e-06	600.81	314.73	3.4224e-06	3.0014e-06	280.33	109.45	122.62	52.679	4.3643e-06	52.677	0.00038896	0.00043187	0.00011871	781.82	4.4313e-06	4.7418e-06	588.67	308.7	4.9595e-06	4.7228e-06	274.45	108.15	121.55	51.997	5.014e-06	51.964	234.906	-9.746	-3.757	-70.344	78.338	88.771	-71.018	-65.687	73.552	83.319	-67.716	-63.748	-61.680	-58.201	90.033	-60.273	-8191	255	
20099.475	1	1	0	0	0.11894	0.32791	0.16881	0.41206	0.14772	0.061517	0.24394	0.22137	0.14048	0.097006	0.093508	0.17652	0.23779	0.16506	0.033479	0.11798	-1.9813	-2.7708	-2.5542	-2.5083	-2.95	-2.5667	-2.6146	-2.9813	-2.3208	-2.9208	-2.8	-2.3208	-2.8229	-2.5792	-2.6	-3.1333	25.998	-15.375	61.178	-21.585	131.983	153.382	206.264	178.981	83.532	235.968	53.923	84.608	-63.006	216.597	-47.550	198.324	0.00013912	0.00035016	0.00015993	803.41	3.4702e-06	5.4287e-06	601.58	315.86	1.8217e-06	3.9223e-06	279.1	109.06	123.37	52.568	2.7199e-06	52.885	0.00039132	0.00043456	0.00012255	781.66	4.4718e-06	4.8401e-06	586.81	308.62	4.6236e-06	4.8336e-06	272.92	108.02	121.95	51.935	4.7779e-06	51.774	245.026	-27.029	-12.618	-70.394	87.483	52.905	-70.988	-65.519	70.743	66.207	-67.697	-63.557	-61.485	-58.073	67.860	-60.459	-8191	255	
20099.570	1	1	0	0	0.15834	0.042781	0.21393	0.10643	0.060491	0.32542	0.22905	0.27481	0.16025	0.023786	0.16536	0.18989	0.035622	0.28764	0.25142	0.2124	-1.8542	-2.6271	-2.8583	-2.5333	-3.0104	-2.7354	-2.625	-3.025	-2.2812	-2.6833	-2.9938	-2.3104	-3.0187	-2.8812	-2.4417	-3.1479	220.266	216.318	76.836	249.379	35.531	86.638	264.499	192.501	113.289	100.971	-28.948	-1.788	226.762	263.872	60.270	126.529	0.00013913	0.00048595	9.7288e-05	800.38	2.1565e-06	3.9795e-06	600.29	313.46	1.538e-06	3.7474e-06	279.64	107.99	122.13	52.352	4.1194e-06	52.272	0.00039555	0.00043829	0.00011953	777.46	4.5155e-06	4.7055e-06	584.84	307.33	4.7237e-06	4.761e-06	272.17	107.28	121.01	51.677	5.0761e-06	51.582	230.181	17.211	12.425	-70.517	95.653	56.911	-70.924	-65.650	85.025	72.580	-67.438	-63.278	-61.751	-58.190	74.351	-60.014	-8191	255	
20099.666	1	1	0	0	0.10861	0.26333	0.082842	0.26886	0.18019	0.31626	0.16916	0.11924	0.11312	0.13855	0.26693	0.13338	0.15662	0.080929	0.11867	0.1058	-1.8083	-2.6458	-2.8271	-2.4562	-3.0396	-2.7562	-2.3417	-2.9396	-2.6229	-2.6458	-3.0208	-2.3917	-2.6688	-2.8083	-2.4479	-2.9813	150.887	-67.488	231.979	254.236	48.485	11.410	141.134	190.351	271.260	227.704	206.283	233.032	177.764	-70.279	-80.591	164.134	0.0001343	0.00055434	0.00014222	798.83	3.4347e-06	2.4865e-06	600.38	313.81	3.1172e-06	3.1688e-06	280.33	109.28	123.07	52.591	3.7674e-06	52.441	0.00040475	0.00044707	0.00012252	777.04	4.815e-06	4.7571e-06	584.19	307.2	4.6682e-06	4.7468e-06	273.77	107.7	121.41	52.019	5.0396e-06	51.852	236.326	4.588	0.976	-70.229	86.665	68.640	-70.834	-65.674	39.467	78.682	-67.468	-63.662	-61.857	-58.029	68.767	-59.876	-8191	255	
20099.762	1	1	0	0	0.12205	0.1332	0.26681	0.15026	0.090355	0.483	0.18842	0.077875	0.048368	0.29665	0.16177	0.056002	0.20946	0.22783	0.068802	0.052331	-2.1063	-2.3458	-2.8917	-2.3583	-2.8042	-2.625	-2.3	-3.0438	-2.4833	-2.5187	-3.0104	-2.4813	-2.8375	-3.1583	-2.4354	-2.9062	251.820	115.633	261.117	-71.300	78.464	211.424	-67.830	95.176	21.984	-1.070	252.928	225.849	211.570	-5.637	81.754	179.722	0.00012295	0.00046671	0.00014016	802.39	4.0151e-06	6.4153e-06	604.09	314.07	2.0257e-06	5.2537e-06	280.32	109.45	122.72	52.852	2.2117e-06	52.999	0.00039187	0.00043602	0.00011741	778.71	4.7773e-06	4.9074e-06	586.87	308.03	4.9036e-06	5.0469e-06	273.52	108.14	121.7	52.031	5.1718e-06	52.155	236.422	0.657	1.500	-69.875	64.535	72.179	-70.580	-65.500	81.148	62.718	-67.100	-63.299	-61.342	-57.727	46.695	-59.949	-8191	255	
20099.857	1	1	0	0	0.2084	0.164	0.11124	0.14735	0.26992	0.11083	0.13316	0.11411	0.35463	0.22119	0.057922	0.27215	0.055001	0.24931	0.55416	0.031502	-2.2583	-2.5396	-3.0292	-2.5938	-2.7562	-3.075	-2.5458	-2.7812	-2.7667	-2.5458	-2.9833	-2.4333	-2.6542	-2.8812	-2.2542	-3.0771	162.989	44.192	8.823	-40.087	183.783	169.084	31.586	106.981	96.357	214.898	270.313	271.126	-7.258	249.652	-41.866	258.056	0.00012636	0.00039761	8.9688e-05	798.98	3.7686e-06	5.1321e-06	601.92	315.39	2.3378e-06	4.5661e-06	279.83	109.89	123.37	52.913	4.0985e-06	53.187	0.00039555	0.00045783	0.00012262	779.73	4.8471e-06	4.9001e-06	587.78	308.41	4.781e-06	5.1191e-06	273.64	108.56	122.11	52.307	5.2763e-06	52.212	237.639	-5.427	10.383	-70.138	84.427	65.066	-70.703	-65.552	71.099	76.412	-67.137	-63.423	-61.658	-57.915	88.984	-60.345	-8191	255	
20099.953	1	1	0	0	0.22316	0.30407	0.13552	0.30015	0.076514	0.026254	0.18575	0.23026	0.15538	0.1426	0.044609	0.21219	0.21958	0.20301	0.15507	0.08363	-2.1167	-2.3979	-2.9396	-2.5208	-2.6083	-3.0708	-2.3333	-2.7625	-2.7188	-2.3312	-3.0396	-2.6646	-2.3688	-3.0583	-2.2875	-2.8646	242.273	135.868	215.665	-23.535	-46.227	79.722	129.923	199.481	143.865	272.677	64.540	-30.974	-61.815	256.184	177.583	192.487	0.00015045	0.00050739	0.00016546	798.79	3.2194e-06	5.9054e-06	600.67	313.98	2.8312e-06	3.8551e-06	281.04	110.36	123.82	53.246	1.2212e-06	52.921	0.0003942	0.00045537	0.00012803	778.4	4.8545e-06	4.7855e-06	586.02	308.5	4.8416e-06	4.9408e-06	275.3	109.14	122.69	52.605	4.9371e-06	52.445	239.274	7.968	6.393	-71.382	99.919	64.209	-72.272	-67.020	102.616	59.182	-68.936	-64.574	-63.360	-59.548	54.418	-61.962	-8191	255	
20100.049	1	1	0	0	0.1032	0.018544	0.13081	0.076399	0.12216	0.16957	0.20232	0.1371	0.17961	0.059335	0.06261	0.15147	0.15955	0.17123	0.26366	0.1041	-2.4229	-2.2375	-2.8083	-2.5187	-2.4146	-3.0104	-2.3937	-2.8229	-2.6917	-2.1979	-2.8917	-2.6292	-2.3521	-3.1688	-2.3438	-2.7188	256.472	98.620	46.633	180.033	-49.137	-28.766	-21.593	120.321	-70.951	203.875	179.337	115.260	-44.125	-53.685	135.838	141.234	0.00014957	0.00053383	0.00010631	802.14	4.4923e-06	4.3347e-06	598.6	313.57	2.6452e-06	2.7079e-06	278.16	109.98	124.17	53.269	1.8249e-06	53.399	0.00040469	0.00046726	0.00011954	781.1	4.7741e-06	4.6892e-06	585.76	309.04	4.8486e-06	4.8859e-06	274.96	108.92	122.85	52.678	5.2245e-06	52.515	242.451	1.625	-2.133	-71.720	98.467	86.918	-72.006	-66.994	74.457	45.809	-69.039	-65.153	-63.346	-59.532	40.128	-61.720	-8191	255	
20100.170	1	1	0	0	0.11852	0.088942	0.22227	0.12891	0.33045	0.18507	0.098775	0.16225	0.20684	0.06881	0.25897	0.24631	0.31251	0.23919	0.05242	0.23424	-2.5771	-2.3312	-2.9375	-2.7417	-2.3354	-3.0333	-2.5479	-2.6708	-2.8812	-2.3833	-2.875	-2.7458	-2.2938	-3.1208	-2.4646	-2.675	-57.870	-24.716	255.713	-71.796	145.308	164.902	264.510	-60.510	68.241	126.731	-80.311	-23.589	208.601	-46.286	208.024	196.642	0.00017136	0.00046259	0.00011631	804.71	1.783e-06	6.6245e-06	608.78	316.79	2.0357e-06	5.9324e-06	282.21	110.44	124.74	53.444	2.1587e-06	53.599	0.00039715	0.00043305	0.00012273	784.71	4.7341e-06	4.8475e-06	592.44	310.77	4.6246e-06	5.0255e-06	276.43	109.87	123.32	52.882	4.8055e-06	52.785	235.418	-13.790	12.355	-71.696	115.759	82.068	-72.211	-66.900	76.437	62.704	-69.194	-65.133	-63.584	-59.437	99.869	-62.246	-8191	255	
20100.266	1	1	0	0	0.19833	0.15069	0.082076	0.050279	0.12611	0.16024	0.13749	0.22407	0.27739	0.17894	0.106	0.087923	0.12684	0.27663	0.14052	0.023243	-2.4729	-2.1292	-2.8646	-3.0271	-2.1708	-2.9146	-2.4333	-2.3646	-3.1104	-2.3229	-2.8417	-2.8812	-2.4708	-2.9708	-2.4167	-2.5292	174.541	265.746	254.322	-74.684	156.176	-79.153	-72.239	-44.304	211.759	114.627	233.886	250.373	252.823	198.014	125.303	-9.893	0.00014885	0.00046522	0.00012901	807.44	1.0063e-06	4.9037e-06	608.97	317.67	2.7586e-06	6.9547e-06	280.98	110.39	124.14	53.325	1.5646e-06	53.035	0.00040445	0.00045783	0.00012377	786.73	4.688e-06	4.7029e-06	593.14	311.2	4.6856e-06	4.8462e-06	275.62	109.32	122.97	52.58	4.9071e-06	52.192	236.362	10.507	2.422	-71.747	143.810	71.866	-72.044	-67.031	70.739	52.093	-68.690	-64.425	-62.690	-59.146	27.946	-61.543	-8191	255	
20100.361	1	1	0	0	0.13161	0.17638	0.1171	0.12366	0.40169	0.17266	0.41179	0.21166	0.17411	0.058831	0.30831	0.14932	0.22501	0.21942	0.097	0.27468	-2.5104	-2.3354	-2.7021	-2.9479	-2.1979	-2.8896	-2.6083	-2.4229	-2.9292	-2.1937	-2.6271	-2.7417	-2.4604	-2.8208	-2.575	-2.3875	198.807	216.400	-10.884	-32.790	264.086	51.815	207.564	257.671	183.862	38.005	-52.159	239.219	256.754	52.302	119.401	235.383	0.00014553	0.00039178	0.00013595	803.42	2.0458e-06	5.7786e-06	603.82	315.12	1.777e-06	3.4688e-06	280.77	110.04	123.76	53.059	3.6612e-06	52.967	0.00039062	0.00045476	0.00012417	783.19	4.808e-06	4.7692e-06	589.09	309.98	4.6523e-06	4.7181e-06	274.78	108.78	122.46	52.5	4.8262e-06	52.087	233.953	20.846	16.875	-71.630	79.626	64.853	-72.304	-67.081	36.118	94.312	-69.302	-64.869	-63.289	-59.595	64.436	-61.808	-8191	255	
20100.457	1	1	0	0	0.17433	0.13524	0.010952	0.41353	0.31363	0.14641	0.36841	0.16129	0.18039	0.21787	0.19444	0.36227	0.20958	0.16155	0.29846	0.13122	-2.4979	-2.3229	-2.5396	-3.0312	-2.2667	-2.8167	-2.8021	-2.3021	-2.875	-2.5167	-2.4917	-2.7896	-2.3729	-2.6729	-2.7292	-2.4	115.622	-30.627	242.774	255.627	-72.066	203.814	253.302	-9.106	161.206	80.856	132.905	258.649	232.294	196.174	84.718	0.603	0.00014725	0.00051702	0.00012287	802.76	3.5807e-06	4.439e-06	601.39	315.19	2.155e-06	3.149e-06	279.66	109.15	123.01	52.574	3.6726e-06	52.716	0.00037885	0.00043617	0.00011908	781.73	4.595e-06	4.5983e-06	587.22	308.97	4.7476e-06	4.612e-06	273.67	108.24	121.97	52.086	4.7764e-06	51.862	235.328	5.448	3.694	-71.665	102.452	68.668	-72.213	-67.024	63.397	81.508	-69.390	-65.151	-63.199	-59.699	74.393	-61.899	-8191	255	
20100.555	1	1	0	0	0.067739	0.16355	0.30233	0.38534	0.046978	0.16126	0.054235	0.18546	0.18712	0.17642	0.22996	0.1429	0.19095	0.15007	0.10396	0.12578	-2.4542	-2.3667	-2.5333	-2.9646	-2.5604	-2.5792	-2.7687	-2.4583	-2.8458	-2.6312	-2.4604	-2.9521	-2.4354	-2.7438	-2.9146	-2.3458	40.708	103.947	155.598	180.308	159.973	100.327	-82.127	-15.583	198.797	-22.147	213.709	41.490	-2.935	141.408	250.364	79.360	0.00014042	0.00043686	0.00012969	801.29	3.9576e-06	5.7488e-06	602.56	314.33	3.5109e-06	4.5534e-06	279.45	109.23	123.54	52.142	4.1273e-06	52.421	0.0003872	0.00043003	0.00012518	782.3	4.6569e-06	4.5999e-06	588.16	308.72	4.587e-06	4.6527e-06	273.22	108.08	121.77	51.746	5.0387e-06	51.635	234.837	15.195	20.061	-71.617	94.338	68.365	-72.152	-67.074	72.765	58.914	-69.000	-65.136	-63.029	-59.817	65.429	-62.087	-8191	255	
20100.650	1	1	0	0	0.083672	0.067751	0.24509	0.1694	0.23398	0.13825	0.16886	0.40218	0.10266	0.26866	0.24775	0.053675	0.10496	0.021681	0.11417	0.23978	-2.4521	-2.4188	-2.2979	-3.1167	-2.3208	-2.8187	-2.7625	-2.2604	-2.8333	-2.6375	-2.2583	-2.9167	-2.3583	-2.675	-2.8187	-2.2292	169.250	195.415	256.469	155.554	140.619	-9.398	248.321	216.722	86.175	-4.294	176.789	234.321	169.775	161.297	-53.584	259.165	0.00014347	0.00047677	0.00013024	803.7	8.8719e-07	5.6208e-06	604.34	313.98	9.1065e-07	4.4273e-06	279.09	108.02	121.56	51.991	2.8095e-06	51.491	0.00038595	0.00042847	0.00011825	784.31	4.3369e-06	4.6982e-06	587.82	307.83	4.392e-06	4.635e-06	271.65	107.16	120.79	51.378	4.5482e-06	50.758	242.361	4.022	-5.125	-71.709	65.570	79.087	-71.784	-66.733	155.692	48.197	-69.342	-64.747	-62.996	-59.476	91.946	-61.961	-8191	255	
20100.771	1	1	0	0	0.21134	0.3838	0.17511	0.21986	0.18752	0.30653	0.080506	0.093757	0.28503	0.094925	0.15996	0.19889	0.030254	0.24688	0.044935	0.20249	-2.2562	-2.8812	-2.1979	-3.075	-2.5021	-2.5646	-2.8917	-2.4062	-2.7438	-2.7146	-2.3958	-3.0042	-2.5958	-2.5396	-2.9771	-2.2438	153.127	-44.282	180.718	141.513	-40.183	257.781	125.406	271.406	160.445	189.533	221.102	-41.389	61.269	265.273	60.161	79.697	0.00013846	0.00025558	0.00012851	800.78	3.1864e-06	3.2379e-06	598.44	312.78	2.0262e-06	6.473e-06	274.16	106.72	122.01	51.363	3.3298e-06	50.936	0.00036711	0.00042555	0.00011783	780.76	4.3048e-06	4.5263e-06	583.57	306.62	4.501e-06	4.5132e-06	269.14	106	120.67	50.795	4.5773e-06	50.18	233.947	-22.482	6.948	-71.684	82.115	92.041	-71.994	-67.119	68.456	71.198	-68.962	-64.938	-63.158	-59.566	78.804	-62.028	-8191	255	
20100.865	1	1	0	0	0.23606	0.068094	0.30766	0.21509	0.077653	0.068273	0.20294	0.058978	0.2521	0.048939	0.076935	0.25543	0.13129	0.15171	0.12331	0.040721	-2.2146	-2.8667	-2.2313	-3.0729	-2.5521	-2.4979	-3.0708	-2.275	-2.575	-2.8063	-2.3708	-2.8458	-2.4875	-2.3729	-3.0271	-2.2208	115.935	48.999	-53.082	161.287	173.349	250.414	-76.920	208.453	-47.763	64.733	133.024	201.658	54.715	208.574	109.727	-0.835	0.00015888	0.00045634	0.00015673	795.39	3.2674e-06	7.7672e-06	598.77	310.5	1.2874e-06	3.5537e-06	272.18	106.51	120.84	50.865	2.8266e-06	50.279	0.00036475	0.00041309	0.000117	777.17	4.4462e-06	4.7239e-06	580.55	305.45	4.4174e-06	4.3156e-06	267.29	105.46	119.61	50.337	4.631e-06	49.701	233.253	0.612	-4.501	-71.798	62.573	70.639	-72.156	-66.986	95.412	53.052	-68.847	-65.465	-63.038	-59.650	79.697	-61.953	-8191	255	
20100.963	1	1	0	0	0.18484	0.105	0.3184	0.32349	0.28279	0.091038	0.062893	0.090031	0.16015	0.15262	0.084955	0.037678	0.089371	0.28186	0.064132	0.26952	-2.1937	-2.8208	-2.275	-2.8833	-2.7229	-2.3833	-3.1188	-2.45	-2.2667	-3.0479	-2.1937	-2.8167	-2.6458	-2.3937	-2.8854	-2.5458	-38.317	15.246	258.295	233.896	267.662	70.666	29.011	86.802	-51.048	29.759	207.486	258.052	-59.262	210.689	3.526	-81.743	0.00014856	0.00045908	6.1836e-05	790.34	2.4891e-06	3.3605e-06	596.3	310.65	2.6467e-06	5.8424e-06	273.21	106.03	121.12	51.019	4.0594e-06	50.624	0.00037573	0.00039256	0.00011558	772.84	4.2537e-06	4.715e-06	577.47	304.87	4.7293e-06	4.418e-06	266.95	105.27	119.9	50.32	4.3929e-06	49.635	238.839	-1.663	9.340	-71.672	80.516	69.570	-72.247	-66.919	35.394	70.412	-69.054	-65.193	-63.053	-59.369	69.912	-61.861	-8191	255	
20101.059	1	1	0	0	0.018514	0.080016	0.14961	0.30943	0.062543	0.13645	0.15588	0.17928	0.11046	0.4153	0.2532	0.10719	0.12921	0.095746	0.26715	0.17437	-2.0667	-3.0229	-2.2708	-2.7792	-2.6792	-2.2417	-3.1312	-2.6833	-2.6146	-2.9896	-2.1771	-2.7604	-2.8021	-2.375	-2.9396	-2.6542	219.673	-12.925	148.980	246.396	-35.596	141.917	57.381	153.445	189.577	100.817	214.737	163.310	28.382	-34.900	241.476	235.718	0.00014363	0.00048984	0.00015751	791.35	3.5731e-06	5.4087e-06	590.5	310.42	2.0082e-06	5.0447e-06	271.92	106.37	120.97	50.971	4.2993e-06	50.205	0.00037709	0.00042852	0.00012141	771.91	4.4392e-06	4.7224e-06	575.84	304.41	4.703e-06	4.3825e-06	266.06	105.27	119.72	50.246	4.6818e-06	49.274	237.232	-15.216	2.194	-71.417	69.150	79.943	-72.015	-66.870	66.298	58.803	-68.810	-64.764	-63.141	-59.588	93.468	-61.652	-8191	255	
20101.154	1	1	0	0	0.074381	0.12196	0.073085	0.16283	0.32728	0.16138	0.12418	0.050134	0.079906	0.14582	0.18255	0.33702	0.051581	0.37121	0.13977	0.074231	-2.2458	-2.9354	-2.3833	-2.6854	-2.8708	-2.2458	-2.8792	-2.7438	-2.5833	-3.0687	-2.3896	-2.7271	-3.0333	-2.325	-2.8792	-2.5979	41.625	51.716	-35.349	-67.780	232.528	13.610	74.325	141.601	10.610	267.561	47.097	199.009	61.995	200.556	-63.130	21.297	0.00014248	0.00060513	9.9267e-05	787.9	1.2332e-06	3.3369e-06	582.92	309.21	2.8557e-06	3.9948e-06	269.7	105.16	120.51	50.354	3.6352e-06	49.909	0.0003814	0.00042833	0.00011812	769.1	4.2816e-06	4.7576e-06	569.89	302.88	4.8416e-06	4.7897e-06	263.57	104.27	119.32	49.958	5.0204e-06	49.054	230.132	-2.168	-11.873	-71.424	79.469	56.947	-72.165	-66.688	90.774	61.361	-68.612	-64.886	-62.950	-59.493	74.137	-61.959	-8191	255	
#DATA ENDS
