BOXY.EXE: ISS Imagent and Oximeter Data Acquisition Program Version 0.80
Ascii Record File

#ACQ INFORMATION
2  Detector Channels 
16  External MUX Channels 
1  Auxiliary Channels 
5000  Waveform (CCF) Frequency (Hz)
1  Waveforms Skipped 
30  Waveforms Averaged 
1  Cycles Averaged 
16  Acquisitions per Waveform 
10.0806  Updata Rate (Hz) 

#FILE INFORMATION
TRUE -- External MUX Channel results are PARSED.
FALSE -- AC DC and Phase are NOT grouped.
TRUE -- Companion Program Settings File CREATED.
FALSE -- AC data not excluded
FALSE -- DC data not excluded
FALSE -- Phase data not excluded
FALSE -- Auxillary Chn. data not excluded
Tab delimiters

#CALIBRATION STATE
TRUE -- Waveform Calibration Values APPLIED.


#AUX CALIBRATION VALUES
Val Type	aux-1	

Term	1.0000e+00	
Factor	0.0000e+00	


#WF CALIBRATION VALUES
A = Detector Channel
Val Type	A-AC1	A-AC2	A-AC3	A-AC4	A-AC5	A-AC6	A-AC7	A-AC8	A-AC9	A-AC10	A-AC11	A-AC12	A-AC13	A-AC14	A-AC15	A-AC16	A-DC1	A-DC2	A-DC3	A-DC4	A-DC5	A-DC6	A-DC7	A-DC8	A-DC9	A-DC10	A-DC11	A-DC12	A-DC13	A-DC14	A-DC15	A-DC16	A-Ph1	A-Ph2	A-Ph3	A-Ph4	A-Ph5	A-Ph6	A-Ph7	A-Ph8	A-Ph9	A-Ph10	A-Ph11	A-Ph12	A-Ph13	A-Ph14	A-Ph15	A-Ph16	

Term	0.00000e+00	0.00000e+00	0.00000e+00	0.00000e+00	0.00000e+00	0.00000e+00	0.00000e+00	0.00000e+00	0.00000e+00	0.00000e+00	0.00000e+00	0.00000e+00	0.00000e+00	0.00000e+00	0.00000e+00	0.00000e+00	0.00000e+00	0.00000e+00	0.00000e+00	0.00000e+00	0.00000e+00	0.00000e+00	0.00000e+00	0.00000e+00	0.00000e+00	0.00000e+00	0.00000e+00	0.00000e+00	0.00000e+00	0.00000e+00	0.00000e+00	0.00000e+00	0.00000e+00	0.00000e+00	0.00000e+00	0.00000e+00	0.00000e+00	0.00000e+00	0.00000e+00	0.00000e+00	0.00000e+00	0.00000e+00	0.00000e+00	0.00000e+00	0.00000e+00	0.00000e+00	0.00000e+00	0.00000e+00	
Factor	1.00000e+00	1.00000e+00	1.00000e+00	1.00000e+00	1.00000e+00	1.00000e+00	1.00000e+00	1.00000e+00	1.00000e+00	1.00000e+00	1.00000e+00	1.00000e+00	1.00000e+00	1.00000e+00	1.00000e+00	1.00000e+00	1.00000e+00	1.00000e+00	1.00000e+00	1.00000e+00	1.00000e+00	1.00000e+00	1.00000e+00	1.00000e+00	1.00000e+00	1.00000e+00	1.00000e+00	1.00000e+00	1.00000e+00	1.00000e+00	1.00000e+00	1.00000e+00	X	X	X	X	X	X	X	X	X	X	X	X	X	X	X	X	

B = Detector Channel
Val Type	B-AC1	B-AC2	B-AC3	B-AC4	B-AC5	B-AC6	B-AC7	B-AC8	B-AC9	B-AC10	B-AC11	B-AC12	B-AC13	B-AC14	B-AC15	B-AC16	B-DC1	B-DC2	B-DC3	B-DC4	B-DC5	B-DC6	B-DC7	B-DC8	B-DC9	B-DC10	B-DC11	B-DC12	B-DC13	B-DC14	B-DC15	B-DC16	B-Ph1	B-Ph2	B-Ph3	B-Ph4	B-Ph5	B-Ph6	B-Ph7	B-Ph8	B-Ph9	B-Ph10	B-Ph11	B-Ph12	B-Ph13	B-Ph14	B-Ph15	B-Ph16	

Term	0.00000e+00	0.00000e+00	0.00000e+00	0.00000e+00	0.00000e+00	0.00000e+00	0.00000e+00	0.00000e+00	0.00000e+00	0.00000e+00	0.00000e+00	0.00000e+00	0.00000e+00	0.00000e+00	0.00000e+00	0.00000e+00	0.00000e+00	0.00000e+00	0.00000e+00	0.00000e+00	0.00000e+00	0.00000e+00	0.00000e+00	0.00000e+00	0.00000e+00	0.00000e+00	0.00000e+00	0.00000e+00	0.00000e+00	0.00000e+00	0.00000e+00	0.00000e+00	-7.86066e+01	-1.31001e+02	-1.24786e+02	-1.83817e+02	-4.99121e+01	-6.53093e+01	-1.58668e+02	-1.62015e+02	-4.89199e+01	-6.62152e+01	-1.74374e+02	-1.69631e+02	-1.81559e+02	-1.77656e+02	-5.84456e+01	-1.50419e+02	
Factor	1.94216e-05	1.68321e-04	4.74969e-05	1.55115e-01	1.43856e-06	2.00494e-06	1.80626e-01	6.10451e-02	1.32424e-06	1.89511e-06	1.00420e-01	3.08861e-02	3.91032e-02	1.03895e-02	1.63570e-06	1.47649e-02	1.30170e-05	2.26506e-05	6.31162e-06	7.96424e-02	2.23240e-07	2.52336e-07	8.66108e-02	3.14689e-02	2.25496e-07	2.50935e-07	5.02129e-02	1.55535e-02	2.03098e-02	5.40091e-03	2.36603e-07	7.42413e-03	X	X	X	X	X	X	X	X	X	X	X	X	X	X	X	X	



#DISTANCE SETTINGS
A = Detector Channel
A-1	A-2	A-3	A-4	A-5	A-6	A-7	A-8	A-9	A-10	A-11	A-12	A-13	A-14	A-15	A-16	

2.5000e+00	3.0000e+00	2.5000e+00	3.0000e+00	2.0000e+00	3.0000e+00	1.5000e+00	3.0000e+00	3.0000e+00	3.0000e+00	3.0000e+00	3.0000e+00	3.0000e+00	3.0000e+00	1.5000e+00	3.0000e+00	

B = Detector Channel
B-1	B-2	B-3	B-4	B-5	B-6	B-7	B-8	B-9	B-10	B-11	B-12	B-13	B-14	B-15	B-16	

1.0000e+01	1.0000e+01	1.0000e+01	1.4400e+00	1.0000e+01	1.0000e+01	1.5100e+00	1.9400e+00	1.0000e+01	1.0000e+01	1.9900e+00	2.4900e+00	2.4100e+00	2.9000e+00	1.0000e+01	2.9800e+00	




#DATA BEGINS
time	group	step	mark	flag	A-AC1	A-AC2	A-AC3	A-AC4	A-AC5	A-AC6	A-AC7	A-AC8	A-AC9	A-AC10	A-AC11	A-AC12	A-AC13	A-AC14	A-AC15	A-AC16	A-DC1	A-DC2	A-DC3	A-DC4	A-DC5	A-DC6	A-DC7	A-DC8	A-DC9	A-DC10	A-DC11	A-DC12	A-DC13	A-DC14	A-DC15	A-DC16	A-Ph1	A-Ph2	A-Ph3	A-Ph4	A-Ph5	A-Ph6	A-Ph7	A-Ph8	A-Ph9	A-Ph10	A-Ph11	A-Ph12	A-Ph13	A-Ph14	A-Ph15	A-Ph16	B-AC1	B-AC2	B-AC3	B-AC4	B-AC5	B-AC6	B-AC7	B-AC8	B-AC9	B-AC10	B-AC11	B-AC12	B-AC13	B-AC14	B-AC15	B-AC16	B-DC1	B-DC2	B-DC3	B-DC4	B-DC5	B-DC6	B-DC7	B-DC8	B-DC9	B-DC10	B-DC11	B-DC12	B-DC13	B-DC14	B-DC15	B-DC16	B-Ph1	B-Ph2	B-Ph3	B-Ph4	B-Ph5	B-Ph6	B-Ph7	B-Ph8	B-Ph9	B-Ph10	B-Ph11	B-Ph12	B-Ph13	B-Ph14	B-Ph15	B-Ph16	aux-1	digaux	

19577.439	1	1	0	768	0.29575	0.24477	0.10064	0.17745	0.14438	0.049862	0.36703	0.1216	0.097149	0.1448	0.10367	0.12781	0.24471	0.2069	0.091669	0.13434	-1.9125	-2.9688	-2.1271	-2.6125	-2.675	-2.075	-2.9396	-2.3417	-1.9438	-2.6688	-2.2604	-2.2562	-2.675	-2.2417	-2.5646	-2.4146	490.545	459.110	467.321	468.886	401.840	449.726	427.588	297.370	312.548	321.581	501.139	233.314	424.567	485.130	433.399	442.008	0.00023796	0.00040317	5.9835e-05	1081.3	4.253e-06	4.1215e-06	1187.4	233.67	2.9192e-06	3.1128e-06	292.25	80.904	63.96	18.838	2.0556e-06	26.107	0.00040261	0.00044103	0.000134	1072.4	4.9206e-06	5.0746e-06	1172.1	231.71	5.0107e-06	4.9659e-06	292.36	81.521	64.084	19.144	5.0116e-06	26.678	240.649	229.366	279.773	162.227	317.050	301.673	162.684	169.895	305.161	318.954	169.720	176.562	176.893	183.665	320.632	183.586	-8191	255	
19577.535	1	1	0	0	0.28819	0.23425	0.10072	0.051471	0.11926	0.028298	0.23868	0.084602	0.38099	0.27609	0.24735	0.41008	0.18457	0.12997	0.27569	0.055732	-1.7792	-2.8104	-2.1437	-2.3729	-2.7	-1.9937	-2.7708	-2.6854	-2.125	-2.8375	-2.375	-2.4083	-2.7104	-2.0687	-2.7625	-2.6104	411.430	233.998	273.852	357.660	253.959	397.601	490.159	470.720	183.479	175.944	460.122	416.510	240.367	383.741	325.935	450.507	0.00027347	0.0003698	9.3477e-05	1087.2	3.6211e-06	3.1621e-06	1190.3	232.92	3.2459e-06	2.0549e-06	292.19	81.454	63.791	18.682	2.4862e-06	26.18	0.00039349	0.00046009	0.00013041	1071.9	4.9736e-06	5.1251e-06	1172.4	231.39	4.9384e-06	5.2069e-06	291.62	81.663	64.193	19.092	4.9844e-06	26.701	246.076	247.723	259.788	162.643	310.055	292.776	162.387	169.920	305.435	299.668	169.470	176.502	176.609	183.194	300.390	182.652	-8191	255	
19577.633	1	1	0	0	0.21735	0.11331	0.37926	0.1401	0.16229	0.44656	0.34922	0.19402	0.11808	0.1108	0.26245	0.14444	0.039489	0.11145	0.17205	0.055103	-1.6229	-2.8271	-2.2646	-2.5375	-2.825	-1.9771	-2.8229	-2.5167	-2.1458	-2.8708	-2.4354	-2.2771	-2.7208	-2.35	-2.5208	-2.7521	501.573	167.915	156.804	160.202	273.531	425.634	487.469	200.060	498.827	365.478	473.080	488.799	439.746	267.194	377.663	272.288	0.00023696	0.00035218	7.2735e-05	1081.3	4.659e-06	2.9291e-06	1188.5	232.53	4.9039e-06	2.295e-06	292.67	80.757	63.46	18.956	3.4299e-06	26.084	0.00039409	0.00044659	0.00013111	1071.1	5.1708e-06	5.1634e-06	1172.2	231.74	5.2569e-06	5.1138e-06	291.52	81.459	64.145	19.148	5.1575e-06	26.645	246.024	226.208	246.104	162.104	318.392	331.490	162.350	169.753	315.197	275.767	169.918	176.242	176.551	184.129	297.434	183.407	-8191	255	
19577.729	1	1	0	0	0.16708	0.1844	0.10609	0.30487	0.23105	0.22315	0.12745	0.42638	0.16315	0.16514	0.19159	0.11745	0.087599	0.24754	0.23018	0.35227	-1.5604	-2.725	-2.4604	-2.3812	-2.9562	-2.0979	-2.6063	-2.8208	-1.9188	-2.6312	-2.6021	-2.3187	-2.8167	-2.35	-2.525	-2.6937	302.079	304.625	415.119	166.948	290.226	426.885	379.345	499.531	452.321	474.062	362.330	457.220	484.775	459.692	267.292	179.993	0.00024786	0.00046808	5.3199e-05	1083.1	2.8054e-06	3.3259e-06	1187	232.35	3.5246e-06	2.9168e-06	293.32	80.711	64.383	18.833	1.8099e-06	26.214	0.00039428	0.00046259	0.00013567	1071.7	5.2568e-06	5.2991e-06	1172.6	231.62	5.0502e-06	5.3548e-06	291.7	81.473	64.302	19.141	4.9603e-06	26.721	246.208	248.811	274.153	162.359	297.884	296.779	162.597	169.981	299.376	318.043	169.355	176.547	176.510	183.529	320.811	183.195	-8191	255	
19577.824	1	1	0	0	0.33426	0.10321	0.19109	0.05381	0.11215	0.092317	0.19065	0.12755	0.025267	0.24744	0.12326	0.12128	0.15577	0.085181	0.102	0.10947	-1.7833	-2.4583	-2.6333	-2.3021	-2.7812	-2.0896	-2.4437	-2.7958	-2.275	-2.6521	-2.5479	-2.1833	-2.6396	-2.4688	-2.4208	-2.7646	236.723	422.510	187.470	347.507	322.534	367.246	419.098	198.643	211.360	507.006	301.870	248.963	449.126	434.983	411.706	481.774	0.00025054	0.00020744	0.00011336	1084.1	2.1478e-06	2.8896e-06	1184	233.19	3.4782e-06	4.0372e-06	293.27	80.605	63.923	18.748	3.8189e-06	26.061	0.00038617	0.00044976	0.00012586	1072.5	4.869e-06	5.0551e-06	1172.1	231.55	5.0328e-06	5.2058e-06	292.36	81.407	64.167	19.089	4.9918e-06	26.614	249.349	266.007	253.522	162.337	330.514	298.825	162.498	169.913	275.888	292.528	169.799	176.397	176.504	183.506	302.650	183.403	-8191	255	
19577.920	1	1	0	0	0.018993	0.12983	0.34916	0.1062	0.1657	0.43633	0.23597	0.09723	0.16578	0.32433	0.25496	0.17552	0.15675	0.09872	0.19138	0.085348	-1.8271	-2.5438	-2.525	-2.0521	-2.8688	-2.3521	-2.2729	-2.8229	-2.2833	-2.6542	-2.6292	-2.0167	-2.8	-2.5146	-2.2167	-2.9271	255.022	280.441	254.194	364.464	414.687	277.335	470.895	283.420	284.534	341.125	437.348	244.267	199.786	173.789	245.856	321.795	0.00026041	0.00030251	9.5737e-05	1085.3	2.8013e-06	5.1331e-06	1185.4	231.59	2.2787e-06	1.8374e-06	292.25	80.935	63.64	18.805	3.99e-06	26.19	0.00038867	0.00046014	0.00012656	1072.6	4.8406e-06	5.1913e-06	1172.9	231.06	5.0957e-06	4.9795e-06	292.06	81.339	64.174	19.122	4.9844e-06	26.662	245.465	230.196	238.595	162.488	309.636	278.653	162.449	170.000	307.691	356.492	169.768	175.917	176.759	183.271	290.541	183.539	-8191	255	
19578.041	1	1	0	0	0.1694	0.11823	0.12934	0.13861	0.12988	0.24342	0.18854	0.16079	0.34544	0.16182	0.15806	0.18632	0.17114	0.053496	0.11821	0.028114	-1.6333	-2.4375	-2.6354	-2.1667	-2.6937	-2.5271	-2.2333	-2.8729	-2.0167	-2.3812	-2.5042	-2.1542	-2.7271	-2.5417	-2.075	-2.8646	315.109	372.483	487.764	454.365	298.868	216.036	468.050	210.474	443.401	339.929	482.305	502.562	423.829	399.913	402.160	226.894	0.00025648	0.00022773	6.7699e-05	1084.9	3.9567e-06	9.5825e-07	1186.1	233.28	2.2274e-06	2.5256e-06	292.07	81.13	63.626	18.732	2.3318e-06	26.216	0.00038568	0.00046566	0.00012586	1072.6	4.9466e-06	5.052e-06	1172.5	231.61	4.928e-06	4.9079e-06	292.15	81.528	63.935	19.116	4.8538e-06	26.676	244.983	239.993	245.496	162.227	322.097	250.490	162.408	169.964	295.621	254.496	170.076	176.330	176.716	183.316	303.564	183.181	-8191	255	
19578.137	1	1	0	0	0.18791	0.11916	0.23724	0.2099	0.19307	0.14025	0.25081	0.056723	0.096425	0.24586	0.1695	0.12369	0.17093	0.27597	0.2723	0.33254	-1.6708	-2.4042	-2.6271	-2.3438	-2.5208	-2.6	-2.2896	-2.8208	-2.1917	-2.1562	-2.9313	-2.1	-2.5812	-2.425	-2.0604	-2.8625	471.634	493.900	416.016	425.107	236.241	408.185	417.226	495.091	356.688	347.630	374.354	445.265	456.317	296.679	330.131	165.743	0.00026628	0.00030897	7.7606e-05	1087.9	1.8001e-06	2.6767e-06	1185.3	232.38	3.9913e-06	4.2708e-06	293.78	80.715	63.859	18.827	1.3235e-06	26.247	0.00038736	0.00048005	0.00012592	1072.7	5.1373e-06	4.8796e-06	1170.8	231.63	4.8435e-06	5.0166e-06	292.65	81.484	64.285	19.099	4.9228e-06	26.689	249.913	251.503	260.370	162.257	297.683	309.460	162.233	169.886	328.701	302.894	169.760	176.401	176.916	183.731	289.570	182.812	-8191	255	
19578.232	1	1	0	0	0.14498	0.22422	0.07484	0.2261	0.019577	0.14062	0.066645	0.28425	0.058027	0.38022	0.045137	0.13457	0.21723	0.11608	0.084799	0.081191	-1.8667	-2.3875	-2.6917	-2.1292	-2.4688	-2.6833	-2.2625	-2.6854	-2.4625	-2.2229	-2.8063	-2.2167	-2.4333	-2.8542	-2.0104	-2.9292	413.187	396.902	324.151	480.239	177.446	429.874	160.021	473.288	167.489	158.525	154.517	405.755	279.460	168.308	486.122	473.437	0.00027851	0.0004742	0.00011872	1084.2	2.6821e-06	2.6505e-06	1188.2	232.08	2.8832e-06	1.7912e-06	293.1	80.585	63.877	18.731	1.8339e-06	26.023	0.000376	0.00046887	0.00012609	1072.7	4.7871e-06	4.9043e-06	1173	231.21	4.7627e-06	4.9429e-06	292.42	81.394	64.068	19.089	4.6857e-06	26.629	241.276	238.190	260.328	162.186	301.877	317.851	162.436	169.978	306.527	313.843	169.756	176.159	176.658	183.925	320.509	182.930	-8191	255	
19578.328	1	1	0	0	0.29991	0.038417	0.098909	0.24726	0.20679	0.21502	0.11557	0.096082	0.16758	0.069871	0.14275	0.16002	0.17805	0.023787	0.18445	0.19292	-2.0938	-2.1542	-2.7812	-2.2792	-2.3729	-2.6729	-2.1417	-2.5917	-2.5312	-2.1312	-2.7646	-2.3875	-2.2438	-2.9188	-2.125	-2.4354	493.362	507.317	251.577	164.408	436.014	372.927	443.152	192.849	323.547	178.495	503.375	434.813	178.171	487.282	335.039	235.722	0.00027297	0.00030763	4.9518e-05	1085.5	3.7126e-06	4.0226e-06	1187.8	232.26	2.4845e-06	2.7145e-06	291.58	80.688	64.207	18.671	2.1905e-06	26.147	0.00038026	0.00044829	0.00012246	1072.9	4.8745e-06	4.7855e-06	1173.1	231.02	4.6518e-06	4.9392e-06	292.04	81.369	64.214	19.104	4.7296e-06	26.599	244.224	236.221	230.862	162.177	307.572	310.217	162.429	169.855	307.072	343.392	169.699	176.573	176.798	183.705	325.093	182.812	-8191	255	
19578.424	1	1	0	0	0.1255	0.25586	0.090814	0.1859	0.1378	0.18445	0.15675	0.20094	0.17914	0.10508	0.21271	0.24129	0.15019	0.10107	0.15996	0.21727	-2.1458	-2.0458	-2.9583	-2.2083	-2.1792	-2.8	-2.2167	-2.5187	-2.5104	-2.0312	-2.6271	-2.3792	-2.1312	-2.7562	-2.1375	-2.4521	307.102	226.142	437.784	462.836	360.705	472.015	451.962	179.375	371.399	374.269	350.804	363.228	307.671	494.462	396.838	432.572	0.00024531	0.00046284	5.5077e-05	1091.1	2.721e-06	4.6457e-06	1186.5	232.7	3.9763e-06	3.2379e-06	291.35	80.689	63.52	18.636	3.2292e-06	26.069	0.00038023	0.00044976	0.00011911	1073.5	5.128e-06	4.8464e-06	1171.5	231.2	4.7223e-06	5.0401e-06	291.32	81.36	63.973	19.027	4.8484e-06	26.645	242.267	236.502	210.276	162.307	316.096	283.080	162.222	169.781	279.093	290.284	169.473	176.382	176.347	183.379	312.156	183.254	-8191	255	
19578.520	1	1	0	0	0.12883	0.27133	0.22206	0.35603	0.36324	0.040384	0.25599	0.08608	0.19701	0.062733	0.21734	0.21223	0.27008	0.30174	0.21799	0.13383	-2.3708	-2.0104	-2.4813	-2.3917	-2.1521	-2.8563	-2.1646	-2.4104	-2.6188	-1.9667	-2.7854	-2.5458	-2.1167	-2.7313	-2.1437	-2.375	445.380	394.877	234.217	152.695	497.970	325.085	414.630	454.056	445.814	468.389	191.794	237.091	160.287	461.425	198.547	176.786	0.00025456	0.00037222	5.4893e-05	1084.3	2.2875e-06	3.7303e-06	1183.9	232.35	3.5265e-06	2.9099e-06	291.43	80.883	63.84	18.704	2.783e-06	26.031	0.00036952	0.00045938	0.00012465	1072.6	4.7606e-06	4.7802e-06	1170.3	230.55	4.6142e-06	5.0736e-06	290.93	81.377	64.07	19.036	4.6488e-06	26.565	247.700	224.193	244.025	162.247	281.827	327.148	162.378	169.964	302.021	369.827	169.454	176.369	176.074	183.587	321.561	183.268	-8191	255	
19578.641	1	1	0	0	0.23479	0.11703	0.19097	0.32954	0.075165	0.032115	0.034768	0.15075	0.19817	0.066649	0.21204	0.19399	0.21182	0.11344	0.016272	0.22156	-2.2208	-2.0917	-2.6896	-2.4333	-1.9979	-2.8937	-2.2667	-2.1604	-2.8917	-2.0208	-2.5375	-2.6063	-2.2188	-2.8396	-2.3521	-2.3521	490.533	211.572	505.732	194.717	337.754	383.697	215.929	373.700	235.942	303.795	394.274	424.477	249.770	481.786	178.010	186.464	0.00025989	0.00022892	7.1315e-05	1086.6	2.0118e-06	3.5077e-06	1183.6	232.05	3.2281e-06	3.8385e-06	291.87	80.922	63.558	18.717	1.885e-06	26.053	0.00037096	0.00046198	0.00012878	1072.2	5.0787e-06	4.6141e-06	1171.3	230.92	4.5668e-06	4.899e-06	291.3	81.399	63.979	19.087	4.7789e-06	26.51	245.168	254.464	215.556	162.363	259.178	327.564	162.706	169.891	290.407	282.371	169.532	176.585	176.463	183.370	324.252	183.108	-8191	255	
19578.736	1	1	0	0	0.22715	0.10479	0.23857	0.35994	0.23494	0.12898	0.19907	0.065822	0.087393	0.15329	0.11844	0.17399	0.22038	0.093547	0.13355	0.14302	-2.4437	-2.1125	-2.2896	-2.6229	-2.0062	-2.7562	-2.5687	-2.3458	-2.7833	-2.0146	-2.6042	-2.7354	-2.1437	-2.6604	-2.4583	-2.2625	372.444	168.873	506.440	477.121	482.543	264.828	504.579	461.005	285.422	294.102	218.798	492.243	291.908	469.420	416.559	165.658	0.00023786	0.00029983	6.3632e-05	1083.5	2.8563e-06	4.0313e-06	1180.5	231.66	2.5894e-06	3.7545e-06	291.18	80.936	63.423	18.693	3.1643e-06	25.871	0.00037166	0.00046542	0.00012751	1072.8	5.1466e-06	5.0494e-06	1169	230.92	4.8726e-06	5.0746e-06	291.25	81.331	63.979	19.044	4.8701e-06	26.482	244.065	212.401	235.772	162.163	312.405	317.684	162.701	169.702	310.595	282.530	169.667	176.412	176.550	183.585	326.036	183.273	-8191	255	
19578.832	1	1	0	0	0.090113	0.27525	0.094115	0.20808	0.26623	0.25942	0.31667	0.15947	0.15028	0.25143	0.30152	0.087025	0.062204	0.29683	0.23634	0.074819	-2.4521	-2.1625	-2.2375	-2.9083	-2.0917	-2.6562	-2.5417	-2.2396	-2.8667	-2.3167	-2.4854	-2.7042	-2.0563	-2.6354	-2.5542	-2.2083	241.104	329.758	160.500	274.701	246.414	434.120	417.104	163.742	485.549	388.775	438.513	326.425	222.283	272.240	401.943	285.661	0.00025223	7.5085e-05	6.1523e-05	1084.2	2.399e-06	4.3069e-06	1181.7	231.5	2.1091e-06	3.5496e-06	290.62	80.544	63.314	18.666	4.1932e-06	25.999	0.00038021	0.00045367	0.00012788	1072.5	4.9564e-06	4.9547e-06	1170.1	230.48	4.6184e-06	5.0203e-06	291.42	81.261	63.793	19.047	4.8055e-06	26.538	243.069	263.967	211.752	162.478	296.937	311.370	162.477	169.745	321.519	300.355	169.496	176.360	176.702	183.751	324.346	183.189	-8191	255	
19578.930	1	1	0	0	0.13705	0.23599	0.22608	0.44377	0.044769	0.021281	0.022559	0.18886	0.34376	0.19853	0.22109	0.14527	0.13233	0.09006	0.16422	0.024453	-2.4667	-2.2917	-2.2562	-2.825	-2.1458	-2.4583	-2.8167	-2.2146	-2.85	-2.4313	-2.3396	-2.7771	-2.2646	-2.4313	-2.5729	-2.0854	227.384	274.719	485.539	392.599	456.363	481.782	432.836	481.641	182.386	432.944	165.000	320.515	242.308	231.702	368.223	441.669	0.00027252	0.00033723	4.9498e-05	1087.1	3.335e-06	4.391e-06	1183.9	232.71	3.5317e-06	4.5349e-06	291.92	80.616	63.517	18.633	1.9929e-06	26.106	0.00036838	0.00045702	0.00012569	1071.6	4.869e-06	4.8522e-06	1169.6	230.52	4.6551e-06	4.8373e-06	291.45	81.081	63.984	19.039	4.6621e-06	26.546	247.005	265.485	244.882	162.389	310.208	289.499	162.442	169.921	310.741	283.774	169.696	176.483	177.045	183.557	315.795	183.181	-8191	255	
19579.002	1	1	0	0	0.11666	0.11155	0.090136	0.1472	0.13617	0.055173	0.31903	0.076278	0.063478	0.054143	0.11019	0.26871	0.048752	0.14006	0.073379	0.072566	-2.4437	-2.2188	-2.1583	-2.775	-1.975	-2.6021	-2.7604	-2.1146	-2.7104	-2.4562	-2.45	-2.7271	-2.2	-2.4083	-2.7188	-2.1437	271.851	176.330	491.436	446.847	439.010	345.629	453.331	362.947	345.265	247.329	388.302	337.328	465.646	454.414	233.472	499.114	0.00024609	0.00042737	9.0462e-05	1087.5	2.261e-06	1.6133e-06	1185.5	231.11	2.5903e-06	2.7172e-06	290.62	80.783	62.951	18.724	3.2119e-06	26.17	0.00037836	0.00043362	0.00012083	1071.5	4.8904e-06	4.8522e-06	1169.6	229.97	4.563e-06	4.6569e-06	290.73	81.178	63.644	18.983	4.421e-06	26.598	245.745	222.516	250.509	162.626	289.988	319.158	162.574	170.010	314.606	268.991	169.735	176.589	176.612	183.606	322.251	183.510	-8191	255	
19579.121	1	1	0	0	0.22646	0.12154	0.14889	0.18177	0.25261	0.18222	0.24698	0.16708	0.27153	0.064013	0.083202	0.055219	0.17994	0.15002	0.19876	0.14982	-2.15	-2.4104	-2.05	-2.9021	-2.2	-2.3312	-3.0708	-2.0563	-2.65	-2.4437	-2.1333	-2.7542	-2.225	-2.1854	-2.7833	-2.2292	159.910	496.575	336.303	435.135	497.804	498.513	457.603	497.161	152.137	185.029	156.805	173.266	360.912	308.697	410.789	155.869	0.00026559	0.00039036	0.00010614	1081.5	3.12e-06	3.6858e-06	1179.5	230.46	2.8093e-06	5.1824e-06	291.57	80.355	63.575	18.712	3.5398e-06	25.787	0.00035737	0.00043145	0.00012151	1068.6	4.7787e-06	4.7508e-06	1167.6	229.73	4.462e-06	4.8185e-06	290.31	81.004	63.731	18.918	4.2603e-06	26.458	243.256	257.452	223.700	162.453	310.405	269.410	162.827	170.072	301.618	300.877	169.683	176.699	176.746	183.769	312.542	183.612	-8191	255	
19579.217	1	1	0	0	0.16663	0.043686	0.10014	0.17646	0.095494	0.13587	0.16479	0.22734	0.14066	0.17385	0.0069581	0.06408	0.32289	0.072545	0.23889	0.10271	-2.2188	-2.5	-2.1063	-2.8688	-2.3167	-2.2792	-3.0396	-2.2083	-2.6146	-2.6083	-2.0042	-2.7917	-2.2333	-2.3479	-2.8042	-2.2896	240.769	209.234	252.218	161.392	397.688	248.317	176.737	471.361	393.279	244.555	448.058	332.297	402.824	156.875	313.843	412.330	0.00026546	0.00010422	0.000119	1084.8	4.2002e-06	2.2782e-06	1180.7	231.07	3.0057e-06	2.6869e-06	291.12	80.309	63.398	18.58	2.9442e-06	25.846	0.00035976	0.0004214	0.00011759	1069.2	4.4774e-06	4.7171e-06	1166.8	229.67	4.5931e-06	4.463e-06	289.71	80.79	63.516	18.893	4.0134e-06	26.379	243.256	283.769	258.473	162.635	316.399	328.217	162.622	170.345	317.214	271.159	170.031	176.831	176.977	183.554	305.935	183.518	-8191	255	
19579.314	1	1	0	0	0.062163	0.11056	0.18125	0.097242	0.17431	0.19158	0.13088	0.23897	0.1396	0.062364	0.28274	0.17674	0.2922	0.052502	0.086651	0.18905	-1.975	-2.7104	-2.0312	-2.8479	-2.5375	-1.9896	-2.9833	-2.2625	-2.3917	-2.5833	-1.975	-2.7062	-2.4729	-2.2521	-2.8271	-2.1875	254.031	193.052	342.113	299.225	504.501	159.930	446.083	458.189	510.194	189.244	338.293	476.642	217.573	387.467	229.367	166.462	0.00026169	0.00045188	6.2921e-05	1078	2.2963e-06	4.1982e-06	1180.4	230.14	2.7106e-06	1.8822e-06	289.95	79.822	63.689	18.531	2.7069e-06	25.915	0.00035048	0.00039464	0.00011442	1065.4	4.4848e-06	4.5221e-06	1165.8	228.67	4.4794e-06	4.4013e-06	289.62	80.534	63.508	18.866	4.0701e-06	26.387	248.323	237.415	197.159	162.555	260.010	321.872	162.856	170.252	298.715	297.089	169.831	176.519	176.876	183.915	296.140	183.650	-8191	255	
19579.410	1	1	0	0	0.13368	0.11614	0.20597	0.28704	0.077989	0.24352	0.17614	0.1002	0.11497	0.030283	0.044634	0.20994	0.11836	0.13112	0.050815	0.061674	-1.7646	-2.8271	-2.1292	-2.675	-2.4813	-2.1083	-2.8854	-2.4104	-2.1958	-2.8292	-2.1625	-2.475	-2.6708	-2.0125	-2.7271	-2.4667	187.170	490.481	155.534	471.410	173.332	432.842	472.350	419.440	335.567	181.428	298.821	220.087	366.684	400.873	311.862	458.615	0.00025508	0.0003688	8.7471e-05	1081.4	3.3029e-06	3.7307e-06	1177.7	229.89	3.8016e-06	4.7154e-06	288.96	80.331	63.935	18.796	3.424e-06	25.913	0.00034964	0.0004112	0.00011876	1067.7	4.4536e-06	4.3686e-06	1165.2	228.82	4.4949e-06	4.4112e-06	289.59	80.807	63.668	18.988	4.176e-06	26.437	247.763	214.898	240.329	162.519	305.026	301.737	162.923	170.053	295.794	328.872	170.018	176.554	176.734	183.699	286.819	183.094	-8191	255	
19579.529	1	1	0	0	0.023512	0.090116	0.26087	0.17216	0.10092	0.1711	0.12455	0.27628	0.076596	0.087262	0.2256	0.12848	0.12603	0.069921	0.11592	0.095716	-1.975	-2.8146	-2.075	-2.55	-2.7104	-1.9396	-2.7	-2.6208	-2.1104	-2.7083	-2.0229	-2.5896	-2.5958	-2.1271	-2.7687	-2.5792	279.102	174.095	395.453	461.221	328.028	445.531	409.229	496.428	376.917	455.345	423.744	373.731	488.404	176.646	480.952	373.555	0.00027185	0.00020615	9.0867e-05	1081	3.4357e-06	3.0377e-06	1182.2	230.52	2.792e-06	3.5058e-06	290.03	79.92	62.649	18.633	3.7956e-06	25.943	0.00036575	0.00038011	0.00011082	1067.7	4.2211e-06	4.3838e-06	1166.4	229.27	4.4155e-06	4.1676e-06	289.59	80.724	63.238	18.924	4.352e-06	26.413	246.165	255.717	213.654	162.713	305.688	321.818	162.678	170.087	288.152	304.616	170.061	176.737	176.724	183.846	275.363	183.772	-8191	255	
19579.602	1	1	0	0	0.20851	0.26021	0.083421	0.30319	0.21173	0.25097	0.24743	0.11087	0.23823	0.10429	0.28621	0.17734	0.13359	0.048927	0.20221	0.42633	-1.7042	-2.9292	-2.2604	-2.6437	-2.85	-1.8333	-2.8208	-2.6271	-2.1771	-2.6708	-2.2667	-2.1875	-2.8792	-2.0604	-2.4729	-2.4771	196.544	213.732	223.003	477.698	488.362	449.869	469.892	334.494	474.590	173.714	272.315	206.579	355.044	372.028	360.971	191.512	0.00028602	0.00022723	0.00010442	1079.2	3.6178e-06	3.6378e-06	1178	229.68	2.3385e-06	3.7578e-06	290.02	80.414	63.236	18.51	2.1532e-06	25.866	0.00035696	0.00038464	0.00011294	1067	4.2206e-06	4.3449e-06	1164.1	228.68	4.3361e-06	4.2371e-06	289.08	80.582	63.483	18.855	4.0494e-06	26.315	242.920	236.242	255.793	162.544	286.162	321.600	162.642	170.230	290.136	308.562	170.106	176.666	176.740	183.494	336.409	183.451	-8191	255	
19579.721	1	1	0	0	0.22652	0.063588	0.15234	0.21693	0.21414	0.23751	0.38469	0.3799	0.2304	0.25153	0.12225	0.086555	0.088346	0.14152	0.12835	0.11535	-1.8604	-2.7146	-2.2083	-2.1979	-2.6917	-1.9167	-2.6375	-2.8292	-2.075	-2.7854	-2.3333	-2.2667	-2.7271	-1.9833	-2.5646	-2.6354	348.761	269.390	289.555	218.965	241.625	343.921	500.672	461.564	355.799	273.642	164.159	317.023	366.816	384.109	268.470	447.595	0.00023544	0.00034572	6.9795e-05	1084.5	2.5048e-06	5.0367e-06	1172.9	230.31	2.9966e-06	2.1124e-06	290.8	80.17	63.182	18.578	1.8552e-06	25.851	0.00032713	0.00038294	0.00010728	1066.6	4.0462e-06	4.2398e-06	1162.5	228.6	4.174e-06	4.0144e-06	289.06	80.521	63.438	18.81	3.9754e-06	26.288	240.268	229.096	247.573	162.352	299.389	318.614	162.597	170.108	315.407	297.227	169.664	176.154	177.163	184.077	337.087	183.741	-8191	255	
19579.816	1	1	0	0	0.41062	0.28807	0.13431	0.15053	0.23828	0.17963	0.17676	0.02268	0.37585	0.21149	0.26832	0.073151	0.018981	0.14303	0.256	0.10845	-1.7583	-2.6604	-2.2917	-2.425	-2.6396	-2.1875	-2.475	-2.5896	-1.875	-2.6354	-2.375	-2.0167	-2.7667	-2.0792	-2.3063	-2.7583	153.263	195.409	389.984	504.131	223.178	452.513	393.379	293.743	400.623	253.699	401.271	374.865	161.600	328.386	381.477	243.236	0.00027067	0.00029907	0.0001326	1081.9	3.0939e-06	2.3236e-06	1176.5	228.94	3.4019e-06	2.9666e-06	288.33	80.032	62.771	18.35	3.4509e-06	25.994	0.00034199	0.00035505	0.00010588	1065.8	4.1206e-06	3.9774e-06	1162.5	227.97	3.8926e-06	3.9386e-06	288.46	80.298	63.048	18.717	3.8606e-06	26.364	244.858	212.964	256.522	162.544	296.688	275.742	162.685	170.425	310.502	288.336	169.776	176.499	177.119	183.875	320.015	183.739	-8191	255	
19579.912	1	1	0	0	0.30224	0.069201	0.16741	0.1387	0.17042	0.075254	0.23119	0.11919	0.095013	0.19779	0.10254	0.053549	0.21311	0.094486	0.13132	0.025819	-1.6375	-2.5396	-2.4542	-2.275	-2.6979	-2.3479	-2.4813	-2.825	-1.9042	-2.5187	-2.5792	-1.9229	-2.6333	-2.2	-2.2979	-2.825	339.311	405.083	171.077	393.972	207.356	181.775	468.374	305.356	309.029	235.589	350.930	351.754	171.627	194.748	357.895	431.152	0.0002639	0.00026561	9.6807e-05	1077.3	2.613e-06	3.2431e-06	1175.3	228.55	1.2018e-06	3.5492e-06	288.05	79.485	63.209	18.399	2.6157e-06	25.673	0.00033123	0.00034287	9.8514e-05	1061.7	3.7635e-06	3.9391e-06	1158.5	227.1	3.9208e-06	3.8179e-06	287.37	80.137	63.332	18.746	3.7827e-06	26.28	243.697	241.385	253.866	162.209	304.407	306.213	162.710	169.972	287.947	292.916	169.195	176.043	176.686	183.771	287.132	183.042	-8191	255	
19580.010	1	1	0	0	0.038988	0.15885	0.24453	0.14087	0.07097	0.26318	0.099259	0.14979	0.34684	0.17982	0.26348	0.19597	0.28804	0.081335	0.08809	0.24996	-1.6688	-2.45	-2.6646	-2.1896	-2.7146	-2.2729	-2.3438	-2.8229	-2.0312	-2.4583	-2.55	-1.9625	-2.6437	-2.4021	-2.075	-2.7792	321.059	343.788	334.167	200.219	502.256	223.825	452.164	152.183	228.036	240.160	479.739	220.790	202.873	376.627	489.836	463.396	0.00026135	0.00040517	7.581e-05	1076	2.3331e-06	3.4426e-06	1174.1	226.63	2.8267e-06	3.2819e-06	286.06	79.259	62.547	18.39	2.2426e-06	25.752	0.00032795	0.00034717	8.8599e-05	1060.9	3.83e-06	3.5758e-06	1158.9	226.2	3.7587e-06	3.5293e-06	286.1	79.906	62.878	18.698	3.7231e-06	26.234	244.281	233.659	256.809	162.165	276.270	318.998	162.385	169.688	296.250	319.364	168.995	175.474	175.584	183.026	328.376	182.956	-8191	255	
19580.131	1	1	0	0	0.2123	0.24513	0.15544	0.35256	0.19622	0.17646	0.025164	0.16896	0.44754	0.12368	0.023522	0.093008	0.33484	0.1667	0.075834	0.15596	-1.7437	-2.2812	-2.7438	-2.1833	-2.7542	-2.5042	-2.3312	-2.65	-2.1167	-2.2458	-2.6021	-1.8104	-2.4958	-2.3875	-2.0958	-2.8187	184.716	205.525	309.785	467.504	489.596	335.221	414.959	499.058	354.389	175.444	159.336	197.583	183.379	374.546	177.827	167.281	0.00026181	0.00031821	4.4501e-05	1070.4	3.8451e-06	3.22e-06	1171.2	226.54	2.5386e-06	2.7935e-06	287.05	79.43	62.335	18.324	3.1303e-06	25.664	0.00030964	0.00034476	8.5036e-05	1058.3	3.7951e-06	3.58e-06	1156.4	225.86	3.7085e-06	3.8194e-06	285.88	79.947	62.614	18.711	3.5387e-06	26.125	246.340	216.903	258.214	162.055	310.482	318.162	162.302	169.860	298.056	329.616	169.552	176.304	176.817	183.583	297.399	183.465	-8191	255	
19580.227	1	1	0	0	0.063188	0.13257	0.15577	0.14075	0.13135	0.24012	0.2252	0.16284	0.19674	0.16121	0.14442	0.27358	0.088084	0.31895	0.33853	0.0094045	-1.7542	-2.2333	-2.5396	-2.2229	-2.5583	-2.7333	-2.1542	-2.6792	-2.15	-2.3604	-2.6958	-2.0333	-2.5458	-2.525	-1.8813	-2.5042	268.654	360.156	316.902	190.218	270.253	172.748	498.241	418.113	273.068	232.358	434.472	409.986	185.588	434.854	193.129	253.987	0.00023973	0.00042718	8.6804e-05	1070.8	3.9688e-06	3.2438e-06	1178.7	227.4	3.7459e-06	2.7616e-06	286.78	79.772	62.371	18.463	3.7029e-06	25.786	0.00030134	0.00033749	9.0795e-05	1057.1	3.65e-06	3.6789e-06	1156.2	225.98	3.5704e-06	3.7238e-06	285.66	79.917	62.862	18.744	3.5017e-06	26.2	245.541	228.017	249.978	162.013	315.433	341.391	162.326	170.180	306.581	312.842	169.462	175.873	176.453	183.825	305.221	182.827	-8191	255	
19580.299	1	1	0	0	0.24527	0.12375	0.14278	0.060595	0.10733	0.12181	0.20932	0.090626	0.13941	0.11891	0.18177	0.21257	0.085347	0.19639	0.38758	0.17103	-1.8813	-2.2458	-2.8063	-2.1021	-2.4208	-2.5542	-2.1	-2.7625	-2.3104	-2.1292	-2.6375	-2	-2.3208	-2.725	-2.2646	-2.5104	410.155	402.153	253.217	252.045	290.968	325.931	440.033	308.552	268.303	283.789	204.561	484.773	499.999	484.284	384.920	427.476	0.00023776	0.00035144	5.1616e-05	1071.4	2.7062e-06	2.5391e-06	1170.1	226.06	2.1516e-06	2.45e-06	287.57	79.699	62.083	18.39	3.3148e-06	25.662	0.00030243	0.00034651	9.0401e-05	1057.8	3.7416e-06	3.3992e-06	1155.8	225.37	3.5798e-06	3.5382e-06	286.68	79.993	62.684	18.741	3.8354e-06	26.142	247.877	267.509	240.859	162.296	296.621	312.402	162.051	169.685	319.396	324.353	169.666	176.222	176.435	183.288	293.443	183.235	-8191	255	
19580.418	1	1	0	0	0.20481	0.18125	0.12153	0.047917	0.10726	0.22042	0.2487	0.086572	0.12237	0.20249	0.35361	0.21751	0.14511	0.12004	0.086533	0.066755	-2.1042	-2.2292	-2.8104	-2.2271	-2.5938	-2.6208	-2.2396	-2.625	-2.5604	-2.1562	-2.8312	-2.2375	-2.2521	-2.6521	-1.8667	-2.6396	442.136	320.071	449.454	451.945	262.873	286.258	438.659	487.800	163.985	424.265	410.792	486.219	510.226	451.942	240.860	342.191	0.00028089	0.00028297	5.2354e-05	1069.3	3.373e-06	3.3202e-06	1165.8	227.08	2.4511e-06	1.5859e-06	284.48	79.289	62.954	18.472	1.7929e-06	25.698	0.00031059	0.00034679	8.9559e-05	1056.6	3.8825e-06	3.4034e-06	1154.2	226.05	3.4966e-06	3.8518e-06	285.24	79.858	62.798	18.701	3.5983e-06	26.222	244.149	230.901	255.455	162.189	305.305	336.208	162.282	169.968	319.596	292.727	169.531	176.150	176.591	183.315	310.894	183.525	-8191	255	
19580.514	1	1	0	0	0.088056	0.18909	0.11366	0.25301	0.24863	0.21154	0.23627	0.27828	0.21049	0.12174	0.13081	0.20083	0.14098	0.21333	0.17165	0.12205	-2.1125	-2.025	-2.5979	-2.4167	-2.1667	-2.6854	-2.0479	-2.5021	-2.6083	-2.0687	-2.7646	-2.4	-2.1813	-2.6813	-1.9458	-2.5	343.203	273.796	224.476	178.719	227.648	340.223	438.958	181.150	211.316	195.780	421.417	234.569	430.257	508.483	371.784	342.542	0.00026677	0.00027972	5.9562e-05	1071.8	2.1379e-06	2.5505e-06	1170.4	227.61	3.9422e-06	1.2662e-06	288.2	79.354	63.391	18.475	3.6251e-06	25.822	0.00031767	0.00034415	8.7955e-05	1056.7	3.7621e-06	3.5753e-06	1156.2	226.11	3.669e-06	3.6051e-06	286.82	79.918	63.028	18.713	3.6723e-06	26.177	243.413	233.258	260.847	162.104	316.007	271.854	162.313	169.956	308.876	299.387	169.497	176.563	176.566	183.767	287.252	183.399	-8191	255	
19580.609	1	1	0	0	0.062519	0.28726	0.16665	0.084943	0.066458	0.12881	0.15913	0.065503	0.13533	0.10097	0.18506	0.070814	0.29608	0.23771	0.024427	0.10079	-2.0812	-1.9583	-2.5438	-2.6	-2.1583	-2.6375	-2.0208	-2.3625	-2.4708	-1.95	-2.6542	-2.5583	-1.9937	-2.8271	-2.2979	-2.2125	401.594	408.996	246.270	269.535	282.778	408.674	348.719	381.613	168.498	185.462	375.991	475.528	452.454	486.522	499.511	195.400	0.00025635	0.00015999	0.0001008	1068.2	2.0661e-06	3.7058e-06	1164.9	226.55	2.4487e-06	4.3161e-06	286.08	79.274	62.586	18.328	1.7421e-06	25.865	0.00030788	0.00034268	9.3294e-05	1057.7	3.8207e-06	3.8218e-06	1153.6	225.76	3.6718e-06	3.5141e-06	286.4	79.895	62.825	18.714	3.8502e-06	26.201	244.868	207.239	217.951	162.263	279.843	316.813	162.362	169.695	337.109	313.914	169.787	176.391	176.664	184.004	330.532	183.371	-8191	255	
19580.705	1	1	0	0	0.064271	0.31241	0.2429	0.32905	0.096505	0.14976	0.20095	0.21138	0.51064	0.24374	0.066741	0.13765	0.024203	0.2805	0.10185	0.1881	-2.3625	-1.9542	-2.6	-2.5542	-2.1708	-2.725	-2.2708	-2.3896	-2.7625	-1.925	-2.4917	-2.4792	-1.9396	-2.6688	-2.1875	-2.1937	444.304	382.036	190.795	458.452	474.183	504.815	434.818	425.068	427.605	312.001	236.742	197.637	418.305	481.725	363.954	326.643	0.00025203	0.00034975	0.00010436	1072.5	2.2595e-06	6.5832e-07	1171.3	225.76	2.6194e-06	2.2866e-06	286.19	79.408	62.663	18.437	2.4872e-06	25.594	0.00031214	0.00035533	9.7344e-05	1058.1	3.7286e-06	3.5054e-06	1155.1	225.52	3.5126e-06	3.6887e-06	286.65	80.001	62.704	18.703	3.863e-06	26.137	244.420	241.257	263.320	162.117	312.142	281.763	162.383	169.898	328.820	299.904	169.586	176.222	176.900	183.712	317.943	182.676	-8191	255	
19580.826	1	1	0	0	0.26183	0.21377	0.22858	0.12875	0.048612	0.20848	0.30531	0.14179	0.16232	0.16456	0.10335	0.10185	0.099178	0.021972	0.15736	0.26617	-2.3104	-1.8792	-2.2313	-2.6667	-2.0354	-2.6292	-2.3979	-2.1979	-2.7125	-2.0833	-2.5146	-2.5563	-2.0292	-2.7188	-2.3104	-2.3604	251.765	444.647	273.118	431.731	155.417	402.086	445.631	500.081	219.727	255.164	427.764	397.941	499.922	459.541	435.202	501.350	0.00027258	0.00026927	0.00010758	1072.1	3.8448e-06	3.0528e-06	1175.3	225.7	3.0894e-06	3.4997e-06	286.32	80.088	62.776	18.44	3.5483e-06	25.646	0.0003017	0.00035401	9.4122e-05	1057.8	4.0727e-06	3.6021e-06	1155.8	225.25	3.6385e-06	3.8393e-06	286	80.062	62.819	18.715	3.6954e-06	26.167	244.315	262.668	253.823	162.192	310.726	312.774	162.395	169.819	288.363	296.895	169.489	176.350	176.745	183.902	316.695	183.495	-8191	255	
19580.896	1	1	0	0	0.26716	0.27357	0.12389	0.090635	0.0052554	0.20206	0.18352	0.17233	0.11698	0.088736	0.068837	0.15939	0.080542	0.2841	0.3548	0.045494	-2.5375	-2.0042	-2.3688	-2.6792	-1.8979	-2.7875	-2.7771	-2.0271	-2.8167	-2.2021	-2.225	-2.7229	-2.075	-2.4396	-2.6125	-2.0646	277.553	479.352	340.843	495.595	414.087	450.213	427.717	465.812	317.402	211.285	429.325	188.635	486.232	410.317	284.331	346.047	0.00024132	0.00030256	5.4477e-05	1071.1	3.0418e-06	3.5687e-06	1171.3	225.82	4.3689e-06	3.485e-06	285.96	79.884	62.143	18.388	3.1222e-06	25.771	0.00030275	0.00034372	9.5135e-05	1058.7	3.9453e-06	3.6284e-06	1157.8	225.31	3.6793e-06	3.6924e-06	286.56	80.123	62.785	18.721	3.6733e-06	26.215	245.249	247.291	252.168	162.311	307.860	303.934	162.566	169.578	312.678	270.485	169.487	176.501	176.685	183.396	331.264	183.236	-8191	255	
19580.994	1	1	0	0	0.067852	0.094216	0.18475	0.27545	0.21393	0.27654	0.26733	0.21124	0.19784	0.11575	0.1507	0.1243	0.080505	0.18671	0.33659	0.22287	-2.2104	-2.1104	-2.1583	-2.7875	-2.0563	-2.5083	-2.5708	-2.1375	-2.7208	-2.2417	-2.2375	-2.6271	-1.9875	-2.3604	-2.5625	-2.1854	413.225	347.270	464.643	481.888	403.505	184.705	470.294	419.739	298.310	506.693	196.625	209.048	279.878	179.870	159.418	376.008	0.00027877	0.00026818	6.5821e-05	1072.4	2.9479e-06	3.6097e-06	1169.7	227.25	2.8421e-06	1.6917e-06	287.6	79.665	62.487	18.495	2.5582e-06	25.755	0.00032985	0.00033613	9.6805e-05	1058.2	4.0109e-06	3.8523e-06	1156.4	226.09	3.6681e-06	4.0834e-06	287.14	80.18	62.789	18.806	3.7605e-06	26.301	247.446	232.062	225.735	162.153	311.031	307.936	162.468	169.618	316.659	293.205	169.523	176.292	176.541	183.221	302.868	183.236	-8191	255	
19581.090	1	1	0	0	0.057661	0.14415	0.13657	0.26821	0.11473	0.36857	0.18807	0.073685	0.071555	0.13941	0.025182	0.040208	0.044985	0.032558	0.27977	0.071493	-2.3187	-2.1646	-2.1354	-2.7333	-1.7896	-2.5042	-2.8583	-2.1521	-2.8833	-2.5333	-2.1375	-2.7479	-2.0375	-2.4688	-2.575	-2.0854	331.591	235.034	306.751	384.291	222.786	265.793	446.683	499.272	387.326	326.939	371.016	179.007	500.560	268.114	361.154	389.918	0.00024203	0.00032133	7.3849e-05	1073.9	2.695e-06	3.2669e-06	1176.2	228.41	2.5031e-06	2.8586e-06	287.16	79.766	62.712	18.467	3.3315e-06	25.853	0.00032225	0.00036765	0.00010092	1061.9	4.0867e-06	3.9075e-06	1159.4	226.75	3.6225e-06	3.8555e-06	286.89	80.284	63.037	18.754	3.6866e-06	26.24	248.236	244.056	244.530	161.573	308.944	315.138	162.354	169.780	302.811	322.837	169.598	176.102	176.423	183.564	306.883	183.283	-8191	255	
19581.211	1	1	0	0	0.077239	0.12046	0.018981	0.20069	0.17324	0.273	0.065831	0.028197	0.12756	0.096745	0.13117	0.065858	0.19344	0.17075	0.11013	0.32913	-2.2104	-2.4437	-2.0396	-2.8375	-2.2438	-2.1708	-2.9104	-1.9104	-2.5979	-2.5042	-2.0917	-2.7792	-2.0938	-2.1979	-2.6562	-1.9854	347.650	451.332	246.955	176.048	413.378	389.199	470.976	482.165	412.112	430.681	171.777	263.302	352.637	396.580	171.907	382.614	0.00024482	0.00037874	9.2913e-05	1069.4	4.5299e-06	4.6202e-06	1170.7	227.48	1.8456e-06	2.489e-06	287.44	79.924	62.394	18.513	2.5532e-06	25.698	0.00031569	0.00035033	9.737e-05	1059.5	3.8653e-06	3.7745e-06	1156.8	226.07	3.6864e-06	3.6934e-06	286.52	80.055	62.89	18.729	3.5579e-06	26.216	238.273	241.888	254.165	162.175	315.180	301.702	162.252	169.698	302.174	294.942	169.490	176.478	176.693	183.562	310.425	183.192	-8191	255	
19581.307	1	1	0	0	0.23136	0.18888	0.23771	0.121	0.11119	0.026293	0.41286	0.33624	0.049801	0.084841	0.14989	0.070532	0.11025	0.22246	0.11791	0.15965	-2.1375	-2.6271	-2.0417	-2.7375	-2.1146	-2.3646	-2.7062	-2.0771	-2.3063	-2.6458	-2.1479	-2.7958	-2.2521	-2.1167	-2.8896	-1.9896	453.040	285.485	220.691	180.614	322.259	464.240	487.948	477.998	229.396	213.298	166.966	415.190	196.065	437.677	276.505	424.524	0.0002276	0.00035148	5.2488e-05	1075.8	2.6496e-06	3.4138e-06	1171.7	226.87	2.7102e-06	1.8678e-06	287.71	79.884	62.822	18.374	2.2653e-06	25.803	0.00031406	0.00033197	9.6016e-05	1061.2	3.8997e-06	3.6562e-06	1157.7	226.19	3.7954e-06	3.5194e-06	286.48	80.187	63.071	18.749	3.5629e-06	26.195	244.409	239.700	259.432	162.423	327.407	304.772	162.427	169.811	309.193	313.729	169.541	176.320	176.977	183.721	299.819	183.491	-8191	255	
19581.402	1	1	0	0	0.36366	0.1421	0.22449	0.05522	0.078389	0.1343	0.2349	0.08367	0.092905	0.14272	0.034389	0.19864	0.073019	0.20156	0.024868	0.10747	-2.0146	-2.6854	-1.9167	-2.7667	-2.5083	-2.1375	-2.7708	-2.0542	-2.425	-2.7958	-2.3146	-2.7438	-2.3375	-2.0312	-2.8312	-2.2042	242.095	169.091	348.269	354.117	165.394	251.500	410.635	434.057	188.373	205.816	354.433	489.458	275.041	449.191	300.200	192.360	0.00027081	0.00031446	0.00010441	1071.2	1.9973e-06	2.2453e-06	1176.9	227.35	3.5483e-06	3.3881e-06	288	79.833	62.407	18.432	4.2833e-06	25.956	0.00031577	0.00033292	9.524e-05	1059.1	3.7495e-06	3.7877e-06	1159.7	225.9	3.5995e-06	3.5366e-06	286.56	80.132	62.898	18.701	3.4031e-06	26.257	249.021	243.663	239.420	162.124	306.839	299.438	162.503	170.195	316.382	309.036	169.782	176.300	176.794	183.478	296.446	183.351	-8191	255	
19581.496	1	1	0	0	0.33715	0.4274	0.20338	0.12315	0.11652	0.081013	0.42267	0.16791	0.15979	0.087672	0.29882	0.15078	0.27477	0.20408	0.055345	0.048229	-1.8458	-2.4333	-2.0625	-2.7583	-2.4188	-2.0729	-2.9125	-2.1417	-2.2938	-2.5271	-2.2188	-2.4813	-2.4583	-2.0396	-2.6688	-2.2479	312.439	298.458	384.194	478.559	303.359	477.007	450.259	348.900	201.086	453.114	486.588	439.251	431.308	511.371	355.496	479.165	0.00025111	0.00017931	6.3245e-05	1074.8	3.3992e-06	2.7616e-06	1172.9	226.18	1.7424e-06	2.1532e-06	287.9	79.904	62.187	18.402	1.9994e-06	25.91	0.00030804	0.00030404	9.4727e-05	1061.9	3.7583e-06	3.538e-06	1159.2	226.12	3.6366e-06	3.3312e-06	286.55	80.176	62.742	18.739	3.446e-06	26.269	247.448	256.762	226.459	162.151	319.801	319.329	162.670	170.159	303.690	321.703	169.641	176.705	176.779	183.906	271.788	183.266	-8191	255	
19581.594	1	1	0	0	0.32886	0.1561	0.17057	0.2967	0.16882	0.17136	0.094044	0.11599	0.26356	0.10904	0.16797	0.17837	0.12568	0.076305	0.20196	0.18983	-1.8854	-2.7833	-2.0667	-2.4354	-2.8208	-2.0687	-2.9313	-2.2812	-2.1583	-2.7333	-2.2729	-2.6146	-2.6458	-2.2896	-2.6063	-2.4729	188.222	213.202	461.451	395.611	323.887	378.674	224.187	300.635	170.815	275.618	414.851	408.106	234.997	361.943	190.458	488.915	0.00024924	0.00030628	9.5587e-05	1073.1	2.7206e-06	2.9664e-06	1170.8	227.35	4.803e-06	5.5853e-06	287.54	79.857	62.543	18.446	1.1856e-06	25.894	0.00030612	0.00032461	9.4293e-05	1059.6	3.6049e-06	3.7199e-06	1158.8	226.25	3.6704e-06	3.4854e-06	286.23	80.145	63.102	18.751	3.4756e-06	26.236	247.674	230.322	235.894	162.364	276.005	300.936	162.442	170.348	298.159	306.703	169.793	176.566	177.201	183.460	297.199	183.457	-8191	255	
19581.691	1	1	0	0	0.19259	0.12151	0.1793	0.36985	0.2019	0.08444	0.18851	0.35747	0.2585	0.19146	0.20201	0.14638	0.1656	0.24706	0.16667	0.34501	-1.6521	-2.6271	-2.3667	-2.4458	-2.7	-2.0187	-2.6813	-2.6083	-2.0354	-2.6625	-2.0479	-2.15	-2.825	-1.8583	-2.4333	-2.5187	294.485	439.368	332.455	457.095	246.255	433.504	389.905	504.370	163.440	343.528	157.624	295.792	436.570	183.140	473.607	197.343	0.00025078	0.00024476	0.0001048	1073.1	2.0088e-06	1.6921e-06	1171.5	226.62	4.0624e-06	3.9174e-06	287.53	80.016	62.815	18.388	3.1133e-06	26.048	0.00031843	0.00031937	9.5542e-05	1061.5	3.6337e-06	3.7214e-06	1158.7	226.25	3.7742e-06	3.4504e-06	286.39	80.112	62.844	18.716	3.7783e-06	26.291	246.247	233.517	259.580	162.275	334.791	301.405	162.566	169.952	300.632	317.812	169.518	176.260	176.852	183.910	299.460	183.323	-8191	255	
19581.811	1	1	0	0	0.16115	0.16939	0.1254	0.2016	0.23133	0.19194	0.26741	0.16514	0.10192	0.085811	0.30859	0.24939	0.20206	0.11223	0.093154	0.083427	-1.7042	-2.5812	-2.025	-2.3271	-2.5125	-2.0146	-2.5896	-2.5875	-1.9917	-2.6312	-2.3312	-2.0438	-2.7479	-1.8958	-2.4771	-2.5104	393.132	237.640	425.150	478.744	388.257	190.642	447.632	325.524	426.603	460.167	500.863	393.297	214.154	254.929	451.158	164.671	0.0002448	0.0002978	0.00010727	1075.5	1.7647e-06	3.159e-06	1175.4	228.54	3.1771e-06	2.5816e-06	288.39	79.316	62.926	18.48	3.0261e-06	25.693	0.00031344	0.00033131	9.5148e-05	1061.3	3.5928e-06	3.6394e-06	1159.2	226.48	3.6479e-06	3.4315e-06	287.3	80.025	62.996	18.718	3.5338e-06	26.17	247.370	213.794	234.341	161.541	291.514	314.853	162.391	170.139	291.775	332.410	169.647	176.264	177.003	183.744	349.504	183.489	-8191	255	
19581.906	1	1	0	0	0.29312	0.22813	0.22236	0.1058	0.1264	0.093574	0.22273	0.31232	0.20091	0.026817	0.22029	0.34916	0.052074	0.089716	0.17763	0.14403	-1.675	-2.7792	-2.2292	-2.2062	-2.7667	-2.1375	-2.4667	-2.7458	-1.9583	-2.7208	-2.4167	-2.2604	-3.0375	-2.2729	-2.3438	-2.8	336.396	272.240	423.518	181.600	242.477	164.107	345.075	508.180	180.921	430.777	185.935	377.549	477.512	317.747	329.481	491.005	0.00025425	0.00041431	7.8456e-05	1072.1	3.3876e-06	4.4361e-06	1172.1	226.57	2.57e-06	3.1353e-06	287.39	79.407	62.389	18.566	3.3298e-06	25.721	0.00031677	0.000313	9.5043e-05	1058.7	3.6016e-06	3.6562e-06	1158.4	225.82	3.6103e-06	3.3996e-06	286.82	80.161	62.809	18.781	3.4317e-06	26.208	243.400	252.476	235.442	162.178	301.379	286.473	162.611	170.093	310.273	324.257	169.851	176.072	176.345	183.750	306.323	183.236	-8191	255	
19582.002	1	1	0	0	0.090358	0.13903	0.17775	0.16961	0.14224	0.15191	0.33336	0.34599	0.19174	0.25561	0.40563	0.19821	0.080955	0.12177	0.21448	0.1826	-1.6125	-2.5292	-2.4271	-2.3208	-2.7708	-2.0687	-2.4458	-2.6521	-1.9417	-2.5625	-2.4479	-2.1	-2.7896	-2.2313	-2.0875	-2.9	505.190	224.355	299.852	455.216	278.547	434.799	493.886	465.932	331.427	448.895	465.843	423.526	229.314	287.184	488.940	209.015	0.00024675	0.00018421	9.4755e-05	1070.7	2.9868e-06	4.3736e-06	1173.1	227.58	2.5297e-06	2.484e-06	287.88	79.757	62.398	18.481	2.3687e-06	25.949	0.00031005	0.00033499	8.8613e-05	1059.7	3.7811e-06	3.8366e-06	1159.4	226.18	3.848e-06	3.7677e-06	286.81	80.208	62.913	18.772	3.6935e-06	26.24	244.101	223.267	264.676	162.155	316.722	325.675	162.553	170.065	323.233	311.695	169.684	176.466	176.220	183.220	302.628	183.202	-8191	255	
19582.123	1	1	0	0	0.044876	0.18652	0.22927	0.159	0.15207	0.093227	0.30791	0.032024	0.13898	0.069787	0.057701	0.17014	0.11091	0.083873	0.10578	0.12551	-1.6771	-2.5292	-2.6708	-2.1646	-2.6208	-2.2687	-2.4229	-2.9	-2.0958	-2.4062	-2.7917	-2.1437	-2.6833	-2.4729	-2.2062	-2.8021	480.180	295.541	379.923	285.790	182.730	396.562	471.205	481.133	224.191	232.901	416.522	186.531	479.701	341.411	203.936	390.428	0.00027869	0.00026083	0.00010944	1069.9	2.8085e-06	4.7151e-06	1168.1	228.44	3.2767e-06	3.2048e-06	288.46	79.898	62.714	18.432	2.0641e-06	25.784	0.00033543	0.00033598	9.4714e-05	1059.9	3.6681e-06	3.9422e-06	1157.2	226.21	3.8908e-06	3.8268e-06	286.72	80.162	62.914	18.706	3.6905e-06	26.241	242.746	241.730	201.350	162.107	283.624	325.277	162.296	170.180	298.279	323.360	169.627	176.249	176.796	183.857	323.614	182.979	-8191	255	
19582.195	1	1	0	0	0.042987	0.32605	0.27609	0.23466	0.23423	0.1152	0.24068	0.26715	0.034004	0.12494	0.28189	0.25031	0.21722	0.091845	0.21471	0.070699	-1.6167	-2.45	-2.6417	-2.0083	-2.6813	-2.4604	-2.1896	-2.9042	-2.1479	-2.2979	-2.6188	-2.2042	-2.5208	-2.5146	-2.0417	-2.8042	501.150	470.846	245.791	406.478	396.138	268.524	466.899	477.291	407.075	281.760	444.874	508.784	170.455	187.640	174.787	307.766	0.00024746	0.00038676	6.3688e-05	1075.6	2.9891e-06	2.8025e-06	1168	227.59	3.7669e-06	2.1817e-06	287.67	79.405	62.195	18.462	2.1507e-06	25.954	0.00032255	0.00035104	9.3228e-05	1062	3.8346e-06	3.7251e-06	1157	226.31	3.9011e-06	3.7902e-06	286.54	80.005	62.811	18.715	3.9197e-06	26.292	243.745	240.201	250.482	162.357	316.397	332.473	162.461	170.057	294.263	322.736	169.284	176.147	176.826	184.116	281.371	182.957	-8191	255	
19582.291	1	1	0	0	0.10366	0.22077	0.065297	0.14491	0.22713	0.11314	0.2998	0.22984	0.27837	0.23623	0.15984	0.14348	0.058673	0.21892	0.17155	0.19246	-1.9062	-2.3271	-2.5625	-2.3083	-2.5958	-2.6	-2.2062	-2.8187	-2.1521	-2.2	-2.8354	-1.9292	-2.3417	-2.5062	-1.9937	-2.6479	468.727	422.009	451.100	181.706	175.332	202.999	189.654	366.387	284.778	450.843	511.264	186.869	466.780	209.379	274.656	215.861	0.00027727	0.00020225	8.2797e-05	1075.8	3.3045e-06	3.2624e-06	1170.6	227.67	2.789e-06	1.8134e-06	289.6	79.296	62.426	18.538	1.7367e-06	25.986	0.00031859	0.0003467	9.1085e-05	1060	3.9416e-06	3.7546e-06	1158.4	225.98	3.8372e-06	3.9026e-06	287.79	79.984	62.738	18.763	3.7827e-06	26.299	244.568	228.797	272.487	162.107	300.024	309.801	162.259	170.072	317.242	313.196	169.517	176.581	176.831	183.468	293.449	183.362	-8191	255	
19582.387	1	1	0	0	0.050149	0.16279	0.12403	0.38041	0.16597	0.22949	0.16242	0.22294	0.18595	0.17622	0.13156	0.12947	0.19544	0.33111	0.24975	0.036438	-1.9188	-2.1813	-2.65	-2.1021	-2.4938	-2.5875	-2.1896	-2.7188	-2.2562	-2.2104	-2.9688	-2.1917	-2.3542	-2.5583	-2.1958	-2.6604	306.010	339.074	171.841	454.615	376.594	504.432	410.357	415.511	469.141	351.280	441.029	428.359	181.624	439.114	433.412	210.243	0.00026647	0.0003626	7.4838e-05	1075.5	2.6902e-06	2.0403e-06	1172.1	227.99	1.6456e-06	2.9683e-06	287.8	79.841	62.708	18.347	2.8203e-06	25.879	0.00032391	0.00036486	9.2715e-05	1061.1	3.9672e-06	3.8013e-06	1158.2	226.44	3.91e-06	3.8811e-06	286.74	80.043	62.961	18.711	3.8527e-06	26.23	245.781	275.582	254.725	162.279	315.044	326.528	162.324	169.959	343.076	351.199	169.568	176.309	177.057	183.328	302.703	183.278	-8191	255	
19582.506	1	1	0	0	0.14493	0.083015	0.031741	0.13381	0.030954	0.13245	0.10641	0.11274	0.22577	0.17779	0.21031	0.28368	0.21049	0.21476	0.055683	0.20935	-2.0708	-2.0479	-2.6542	-2.275	-2.4083	-2.8396	-2.0458	-2.6813	-2.5438	-2.1021	-2.7375	-2.2854	-2.2333	-2.7521	-2.0396	-2.5396	444.387	478.389	477.897	477.198	275.520	465.552	485.322	198.535	266.390	193.586	401.352	171.604	505.376	484.790	336.236	341.607	0.000253	0.00026797	8.4138e-05	1072.3	3.1578e-06	2.9755e-06	1172.4	226.98	3.8102e-06	2.4643e-06	287.59	79.708	62.249	18.356	3.9885e-06	25.969	0.00032323	0.00035519	9.7725e-05	1060.1	4.0648e-06	3.5989e-06	1156.8	225.95	3.8099e-06	3.7159e-06	287.25	80.004	62.802	18.744	3.7078e-06	26.272	244.098	212.566	230.487	162.344	300.560	283.843	162.290	170.243	288.450	291.663	169.568	176.289	177.044	183.984	318.935	183.206	-8191	255	
19582.602	1	1	0	0	0.13097	0.10135	0.22494	0.1755	0.072629	0.079358	0.42237	0.062052	0.19587	0.13768	0.29183	0.041897	0.18003	0.17409	0.093306	0.090274	-2.05	-2.1479	-2.7229	-2.3667	-2.25	-2.7583	-2.3417	-2.4979	-2.5771	-2.1146	-2.7354	-2.3438	-2.1375	-2.7042	-2.1042	-2.6542	220.087	352.468	208.971	492.395	396.908	162.734	434.560	262.116	347.482	155.817	207.401	367.371	474.086	447.757	403.649	358.537	0.00023975	0.00025648	3.0545e-05	1073.4	3.6154e-06	2.9379e-06	1173.9	226.89	1.7558e-06	3.8869e-06	289.25	79.815	62.762	18.646	7.7767e-07	25.797	0.00032372	0.00036685	9.7028e-05	1059	4.0834e-06	3.7493e-06	1156.7	226.11	3.6963e-06	3.9653e-06	287.78	80.1	63.005	18.798	3.7709e-06	26.18	247.638	244.820	231.352	162.380	318.129	289.941	162.471	169.831	308.020	304.944	169.673	176.368	176.396	183.415	332.094	183.502	-8191	255	
19582.697	1	1	0	0	0.11149	0.16611	0.079313	0.28085	0.10636	0.1755	0.072634	0.17633	0.25318	0.19197	0.16168	0.22852	0.31938	0.2677	0.14543	0.16312	-2.1	-2.0938	-2.6542	-2.4708	-2.0833	-2.8208	-2.4042	-2.3625	-2.6146	-1.9792	-2.6188	-2.5208	-2.0417	-2.8521	-2.0875	-2.3479	163.231	425.771	200.153	476.225	211.143	262.590	365.775	493.017	359.128	452.623	225.037	156.517	199.394	379.484	412.727	399.518	0.00025834	0.00018523	7.6456e-05	1067.2	4.0413e-06	4.1473e-06	1170.4	227.52	3.4496e-06	2.848e-06	286.95	79.495	62.339	18.414	2.3292e-06	26.11	0.00031821	0.00037251	9.5148e-05	1058.6	3.9537e-06	3.845e-06	1156.9	226.15	3.7508e-06	3.8979e-06	286.22	80.003	62.874	18.756	3.6481e-06	26.235	243.130	236.952	267.886	162.565	301.743	299.766	162.537	169.998	308.840	329.110	169.914	176.641	176.911	183.567	314.771	183.006	-8191	255	
19582.771	1	1	0	0	0.12215	0.015861	0.11842	0.16699	0.20714	0.36759	0.26808	0.13808	0.24088	0.25551	0.21661	0.090705	0.18364	0.16504	0.30347	0.11541	-2.2292	-2.0021	-2.5687	-2.4938	-1.9458	-2.575	-2.1021	-2.2854	-2.5667	-2.1771	-2.5542	-2.6	-1.9479	-2.7708	-2.4146	-2.1875	343.536	496.139	277.980	493.066	467.647	190.792	427.618	191.623	411.865	171.385	266.506	343.573	393.702	364.770	222.283	377.845	0.00026634	0.00026616	3.5644e-05	1071.7	2.6171e-06	2.7905e-06	1173.4	227.38	2.36e-06	2.8442e-06	285.51	79.734	62.701	18.329	3.9667e-06	25.755	0.00032065	0.00034981	9.4609e-05	1058.7	3.8909e-06	3.6342e-06	1157.8	226.28	3.6742e-06	3.935e-06	286.05	80.214	62.78	18.723	3.9661e-06	26.271	247.228	220.407	251.694	162.461	303.555	267.707	162.670	169.845	323.051	288.537	170.217	176.447	176.964	183.819	309.339	183.715	-8191	255	
19582.891	1	1	0	0	0.2845	0.16472	0.095101	0.17569	0.050335	0.12237	0.64514	0.16822	0.31594	0.19268	0.32704	0.095336	0.17921	0.07239	0.21032	0.1614	-2.2083	-1.9979	-2.3146	-2.7208	-2.0708	-2.6896	-2.3167	-2.2771	-2.8083	-2.0438	-2.4313	-2.6125	-1.9583	-2.7687	-2.2271	-2.175	445.371	373.485	203.056	490.469	495.723	163.899	412.901	434.905	404.869	424.925	162.573	207.369	270.883	299.951	264.328	451.421	0.00023473	0.0003251	8.0716e-05	1077.2	1.8949e-06	2.5333e-06	1167.9	228.26	3.1298e-06	2.6376e-06	288.34	79.798	62.362	18.508	3.147e-06	25.956	0.00030929	0.00034957	9.4885e-05	1061.5	3.9862e-06	3.8324e-06	1157.8	226.04	3.6563e-06	3.8681e-06	286.81	80.235	62.784	18.74	3.7664e-06	26.266	245.673	254.433	192.265	162.758	334.144	326.600	162.807	170.085	303.066	300.436	169.904	176.574	176.621	183.705	293.234	183.182	-8191	255	
19582.986	1	1	0	0	0.13755	0.19673	0.40944	0.11289	0.30211	0.14549	0.25401	0.33778	0.23333	0.16332	0.27268	0.29476	0.057622	0.051851	0.07756	0.071762	-2.3479	-2.3187	-2.3854	-2.75	-2.1646	-2.6854	-2.5563	-2.0646	-2.6646	-2.3875	-2.2021	-2.8063	-2.0438	-2.5458	-2.5958	-2	255.665	427.199	427.142	487.937	267.713	409.929	404.061	467.823	362.398	221.250	476.592	503.351	176.635	368.744	291.460	245.513	0.00026249	0.00033875	8.2257e-05	1075.7	1.8574e-06	2.542e-06	1173.6	226.54	2.6112e-06	4.2693e-06	288.66	79.559	62.538	18.496	1.8295e-06	25.987	0.00031374	0.00035854	9.5437e-05	1061.8	3.9727e-06	3.8944e-06	1157.9	225.96	3.6596e-06	3.9219e-06	287.1	80.084	62.793	18.757	3.7852e-06	26.174	247.643	229.245	236.052	162.526	304.762	311.236	162.630	170.137	317.218	341.936	169.978	176.662	176.892	183.714	346.949	183.812	-8191	255	
19583.082	1	1	0	0	0.056908	0.23006	0.18849	0.063668	0.11626	0.21036	0.11251	0.11092	0.18475	0.25027	0.15415	0.019966	0.06221	0.096571	0.073686	0.021717	-2.2458	-2.1833	-2.2917	-2.7917	-2.0812	-2.5563	-2.6896	-2.1583	-2.7438	-2.3333	-2.1979	-2.8167	-2.25	-2.5563	-2.7	-2.2062	321.073	442.010	189.734	159.497	304.617	491.832	446.411	214.561	161.088	181.234	511.928	360.282	197.335	360.681	228.441	482.153	0.0002547	0.00027402	6.9122e-05	1075.6	3.4898e-06	3.2118e-06	1172.5	226.87	2.7504e-06	1.298e-06	286.97	79.989	62.61	18.441	2.3274e-06	25.816	0.00031309	0.00036298	9.6581e-05	1060.4	4.1383e-06	3.9654e-06	1158.2	225.71	3.6615e-06	3.6961e-06	286.67	80.158	62.83	18.726	3.7216e-06	26.184	246.299	224.936	235.622	162.805	299.128	322.447	162.695	170.299	313.665	283.881	169.833	176.312	177.397	183.877	296.581	183.793	-8191	255	
19583.203	1	1	0	0	0.10058	0.20322	0.26483	0.28826	0.01476	0.1735	0.23366	0.16486	0.28321	0.086747	0.2905	0.11097	0.15431	0.10351	0.32119	0.15071	-2.2938	-2.3292	-2.0979	-2.6958	-2.1125	-2.5292	-2.8208	-1.975	-2.6375	-2.4333	-2.275	-2.9396	-2.1583	-2.3896	-2.8292	-2.0021	414.185	410.024	253.454	441.727	418.456	318.147	461.630	256.474	271.642	447.102	432.375	341.139	492.135	259.584	182.222	373.749	0.00026058	0.00028953	0.00011138	1072.5	3.5898e-06	2.4639e-06	1173	226.57	2.8258e-06	3.4216e-06	286.09	79.943	62.68	18.329	2.058e-06	25.741	0.00030907	0.00033532	9.3346e-05	1059.9	3.8248e-06	3.7945e-06	1157.7	225.9	3.6873e-06	3.5392e-06	285.88	80	62.781	18.724	3.6328e-06	26.114	245.075	265.603	242.494	162.336	317.567	299.286	162.685	170.142	325.277	298.264	169.847	176.847	177.159	183.740	309.270	183.310	-8191	255	
19583.299	1	1	0	0	0.21563	0.11191	0.12214	0.16875	0.16354	0.18037	0.4135	0.17717	0.046924	0.10105	0.22059	0.23599	0.13571	0.3014	0.18017	0.17684	-2.1562	-2.5438	-2.1167	-2.8521	-2.1333	-2.3125	-2.7583	-1.9646	-2.5021	-2.5521	-2.0771	-2.7208	-2.1271	-2.1771	-2.7542	-2.1437	405.628	343.746	485.199	480.882	240.410	440.464	493.782	229.279	182.075	320.643	277.912	367.832	499.090	474.749	307.195	387.332	0.00026848	0.00025392	7.6143e-05	1073	3.7173e-06	2.61e-06	1167.9	227.11	4.6457e-06	1.4651e-06	287.94	79.671	62.61	18.392	1.8326e-06	25.876	0.0003158	0.00034929	9.5739e-05	1058.6	3.8272e-06	3.7398e-06	1155.6	225.9	3.8132e-06	3.9031e-06	286.82	79.972	62.738	18.737	3.5821e-06	26.161	246.106	256.978	213.994	162.630	301.158	349.222	162.968	170.083	313.727	274.355	169.887	176.644	176.785	184.168	283.722	183.167	-8191	255	
19583.395	1	1	0	0	0.18798	0.002945	0.11934	0.1904	0.18557	0.21567	0.20159	0.019681	0.24238	0.14391	0.3398	0.057167	0.082396	0.22313	0.097654	0.091834	-2.2417	-2.4458	-2.0667	-2.6521	-2.1063	-2.0833	-2.8312	-2.0104	-2.4083	-2.5729	-1.9	-2.5792	-2.2313	-2.2438	-2.6854	-2.1958	484.548	169.063	365.498	501.033	365.645	261.961	423.980	307.086	188.980	475.102	492.120	193.120	214.592	461.144	318.038	492.102	0.00023069	0.00043857	6.7041e-05	1073	2.3724e-06	4.1739e-06	1174.3	227.87	2.8842e-06	1.9211e-06	287.69	79.574	63.045	18.559	5.0591e-06	25.744	0.00031436	0.00034745	9.6765e-05	1060.1	3.9434e-06	3.8087e-06	1158.8	226.31	3.9528e-06	3.6689e-06	286.42	79.983	63.234	18.819	3.9473e-06	26.242	242.787	247.212	270.811	162.577	301.864	291.949	162.772	170.178	319.277	296.097	169.794	176.769	177.158	184.047	301.327	183.584	-8191	255	
19583.492	1	1	0	0	0.18613	0.15369	0.13514	0.25153	0.13529	0.11604	0.26062	0.32869	0.14275	0.035238	0.17033	0.22806	0.19462	0.12149	0.066701	0.30324	-2.0625	-2.5646	-2.1479	-2.8187	-2.3833	-2.0646	-2.8833	-2.3021	-2.4042	-2.6271	-2.0292	-2.4417	-2.3271	-2.0708	-2.5917	-2.1417	354.640	160.217	295.661	469.063	340.662	363.161	416.649	456.553	237.313	329.506	487.731	371.513	497.398	453.035	487.989	316.801	0.00026557	0.00027362	3.5288e-05	1076.7	3.0854e-06	3.288e-06	1174.7	228.68	3.989e-06	3.6956e-06	285.85	79.363	62.602	18.472	2.3246e-06	25.875	0.00033671	0.00036222	0.00010147	1060.6	3.9723e-06	3.8108e-06	1158.5	226.45	3.9175e-06	3.6176e-06	285.51	79.946	62.775	18.734	3.6747e-06	26.221	240.590	231.316	257.346	162.403	293.874	294.392	162.671	169.948	325.026	297.093	169.609	176.677	176.804	183.834	317.573	183.387	-8191	255	
19583.586	1	1	0	0	0.12191	0.3291	0.23517	0.35241	0.13502	0.068074	0.23496	0.11785	0.02965	0.0069643	0.14472	0.044108	0.20092	0.13842	0.11505	0.1524	-1.9917	-2.7042	-2.0396	-2.5958	-2.3104	-2.0875	-2.8708	-2.3833	-2.0021	-2.7958	-2.1312	-2.5417	-2.425	-1.9979	-2.5771	-2.4375	277.051	342.062	310.716	433.480	311.887	199.426	434.348	467.767	223.810	464.766	445.939	199.065	493.375	489.947	271.706	189.851	0.00024148	0.00025684	6.5393e-05	1074.5	2.2632e-06	4.4099e-06	1167.6	226.33	3.0178e-06	2.8152e-06	286.58	78.951	62.044	18.278	2.331e-06	25.837	0.00031664	0.0003391	9.5845e-05	1060.1	3.8481e-06	3.8245e-06	1155.4	225.29	3.7165e-06	3.4477e-06	285.82	79.63	62.376	18.588	3.4736e-06	26.163	240.767	225.786	251.221	162.292	334.011	303.112	162.587	169.985	285.334	306.107	169.676	176.427	176.752	183.961	313.578	183.290	-8191	255	
19583.682	1	1	0	0	0.074703	0.099261	0.024768	0.2753	0.098955	0.14646	0.049763	0.096821	0.38602	0.14965	0.40435	0.1774	0.12337	0.14215	0.033647	0.23154	-1.8625	-2.7188	-1.8937	-2.5312	-2.6833	-2.1021	-2.9271	-2.3187	-2.2083	-2.6417	-2.2062	-2.2771	-2.5771	-2.0792	-2.55	-2.3458	428.257	312.272	197.422	475.170	239.894	350.211	455.682	263.972	260.873	432.182	410.942	453.316	258.254	479.444	360.131	197.755	0.00027128	0.00031184	9.9903e-05	1072.8	3.816e-06	3.6438e-06	1172.4	226.45	3.9689e-06	3.3784e-06	288.02	79.635	62.728	18.437	2.6444e-06	25.578	0.00030967	0.00030021	9.1321e-05	1057.8	3.6607e-06	3.4575e-06	1156.1	225.27	3.6756e-06	3.545e-06	286.39	79.887	62.804	18.701	3.2873e-06	26.108	241.339	210.216	245.271	162.503	318.454	359.418	162.361	170.299	310.550	284.529	169.784	176.460	176.739	183.358	304.654	183.433	-8191	255	
19583.803	1	1	0	0	0.18085	0.079646	0.24983	0.1739	0.20427	0.17798	0.17975	0.089273	0.040839	0.24325	0.19036	0.12954	0.11589	0.029177	0.16972	0.041181	-1.8813	-2.8812	-2.1437	-2.5604	-2.5292	-2.0021	-2.9417	-2.5646	-2.0604	-2.7313	-2.2208	-2.1729	-2.4813	-1.9813	-2.5875	-2.5563	259.444	437.304	391.434	171.025	370.143	448.302	173.429	374.200	248.404	317.973	433.759	428.403	418.469	433.486	204.801	322.012	0.00025572	0.0003175	0.00011664	1070.9	3.2017e-06	3.0607e-06	1172.2	226.26	3.5642e-06	3.0095e-06	288.88	79.752	62.847	18.411	2.7033e-06	25.76	0.00030772	0.00032065	9.1203e-05	1058.3	3.6253e-06	3.6005e-06	1155.8	225.54	3.6883e-06	3.2951e-06	286.74	79.73	62.752	18.663	3.4416e-06	26.093	248.675	236.996	232.694	162.249	306.151	288.971	162.468	170.368	298.388	312.967	169.732	176.328	176.917	183.752	325.959	183.190	-8191	255	
19583.898	1	1	0	0	0.13311	0.12385	0.10279	0.31329	0.11112	0.2095	0.013051	0.096357	0.15146	0.1864	0.028654	0.24663	0.036837	0.14988	0.21417	0.2907	-1.325	-2.6167	-2.3208	-2.3271	-2.775	-2.0417	-2.7604	-2.5833	-2.1375	-2.8625	-2.2313	-2.2062	-2.8854	-2.0792	-2.4104	-2.7229	443.897	279.611	387.027	441.777	383.071	169.853	283.523	404.933	384.861	363.841	388.321	192.656	317.748	468.303	187.120	465.583	0.00024443	0.00037175	0.00014266	1071.4	3.1605e-06	4.3021e-06	1165.3	225.63	3.3148e-06	4.0351e-06	286.01	79.506	62.702	18.351	2.4678e-06	25.783	0.00030335	0.00031272	8.8455e-05	1056.2	3.4067e-06	3.5154e-06	1154.9	224.64	3.3867e-06	3.3144e-06	285.32	79.736	62.636	18.64	3.3677e-06	26.157	243.107	267.479	259.755	162.168	314.514	301.064	162.513	170.213	295.113	277.111	169.792	176.341	176.962	183.417	275.795	183.692	-8191	255	
19583.994	1	1	0	0	0.10121	0.052909	0.14074	0.092594	0.19992	0.060016	0.044001	0.40332	0.15543	0.10765	0.25065	0.12482	0.089658	0.21291	0.070616	0.16427	-1.6812	-2.8187	-2.3167	-2.2083	-2.8333	-2.0646	-2.6021	-2.6542	-2.0542	-2.7292	-2.5771	-2.1583	-2.7729	-2.2917	-2.325	-2.8146	281.108	317.768	160.281	216.698	369.768	305.112	206.814	462.571	305.524	275.047	217.802	499.962	410.738	319.592	281.911	326.294	0.00025912	0.00033607	6.4178e-05	1070.7	1.5409e-06	3.3951e-06	1168.5	225.67	2.5751e-06	2.2615e-06	285.81	79.547	61.9	18.416	2.1233e-06	25.724	0.00029481	0.00031102	8.6193e-05	1056.4	3.4095e-06	3.61e-06	1153.1	224.74	3.4473e-06	3.4676e-06	284.47	79.758	62.402	18.731	3.52e-06	26.191	245.591	247.583	233.049	162.272	293.613	314.484	162.524	170.101	307.652	311.245	169.992	176.315	176.949	183.915	308.905	183.669	-8191	255	
19584.066	1	1	0	0	0.21898	0.090938	0.19168	0.17291	0.12228	0.12057	0.022772	0.052204	0.36195	0.11632	0.11148	0.26106	0.11139	0.25718	0.18377	0.13103	-1.4583	-2.6167	-2.5729	-2.1708	-2.825	-2.2625	-2.325	-2.6521	-1.9917	-2.6208	-2.5812	-1.9292	-2.7125	-2.0833	-2.0812	-2.8438	300.420	406.648	253.750	428.301	481.933	351.392	270.046	183.656	281.562	506.381	482.885	468.741	452.136	376.879	497.067	498.844	0.00023185	0.00028576	5.599e-05	1066.9	2.9828e-06	2.7184e-06	1166.6	225.78	2.9132e-06	1.9401e-06	285.3	78.98	62.941	18.32	2.5159e-06	25.484	0.00030395	0.00031248	9.115e-05	1056	3.4174e-06	3.4213e-06	1154.5	224.88	3.4374e-06	3.2773e-06	285.32	79.717	62.685	18.662	3.6146e-06	26.116	245.322	229.874	269.567	162.440	312.951	325.182	162.680	170.157	290.379	269.746	170.019	176.208	177.134	183.991	293.523	183.987	-8191	255	
19584.188	1	1	0	0	0.069896	0.021817	0.1479	0.30562	0.1728	0.08871	0.15349	0.29492	0.068221	0.0078552	0.31456	0.090292	0.18822	0.10454	0.097017	0.034683	-1.4937	-2.375	-2.7458	-2.1083	-2.5896	-2.1937	-2.1292	-2.7333	-2.1208	-2.4562	-2.6688	-1.9813	-2.6604	-2.2479	-2.0771	-2.9062	176.813	222.994	373.975	152.646	231.592	168.454	247.689	269.826	319.999	349.103	487.941	498.129	190.464	427.825	474.711	256.531	0.00024206	0.00027843	8.9518e-05	1070	4.2864e-06	4.3328e-06	1171.4	226.07	2.6817e-06	3.2075e-06	284.63	79.642	62.281	18.362	2.4324e-06	25.738	0.0003104	0.00034042	8.5312e-05	1057.4	3.6658e-06	3.7283e-06	1156.5	225.04	3.6817e-06	3.683e-06	284.8	79.805	62.584	18.653	3.3327e-06	26.144	246.935	243.680	245.738	162.302	294.444	299.736	162.640	170.474	309.060	309.571	169.950	176.313	177.178	183.982	313.096	183.490	-8191	255	
19584.283	1	1	0	0	0.27094	0.2012	0.17762	0.29007	0.17684	0.086648	0.16281	0.15273	0.13539	0.12764	0.19693	0.25108	0.027354	0.13702	0.14073	0.11126	-1.5271	-2.2896	-2.5792	-2.1271	-2.5563	-2.5	-2.3187	-2.55	-2.1229	-2.4458	-2.6667	-2.1542	-2.5521	-2.6375	-2.1625	-2.8688	476.329	240.554	181.818	453.188	233.294	398.142	381.543	270.757	481.970	307.995	415.698	406.129	332.693	462.750	224.665	275.087	0.00026148	0.00018361	0.00012063	1071.5	4.259e-06	3.5341e-06	1170.9	226.6	4.2303e-06	3.0569e-06	286.48	79.366	62.066	18.469	3.7323e-06	25.653	0.00030755	0.00032447	9.1426e-05	1056.2	3.683e-06	3.5106e-06	1154	225.02	3.6361e-06	3.535e-06	284.9	79.74	62.377	18.662	3.4771e-06	26.135	245.846	257.861	254.409	162.546	286.003	316.735	162.401	170.233	313.064	326.813	170.038	176.610	176.758	183.871	318.466	183.780	-8191	255	
19584.381	1	1	0	0	0.19727	0.36831	0.042967	0.27763	0.052281	0.47056	0.17395	0.15719	0.28545	0.10352	0.24915	0.033625	0.090497	0.18112	0.13833	0.38388	-1.5979	-2.2917	-2.8542	-2.3896	-2.6146	-2.4896	-2.2354	-2.8646	-2.2687	-2.4792	-2.7104	-2.3	-2.4	-2.6792	-2.1125	-2.6646	370.013	310.000	200.214	481.850	447.811	410.761	457.193	485.699	364.708	489.720	512.020	328.886	494.424	341.703	360.942	152.750	0.00024375	0.00029672	5.2311e-05	1071.8	2.9865e-06	5.5927e-06	1166.2	225.69	2.3898e-06	3.3053e-06	284.41	78.746	63.179	18.414	3.7363e-06	25.722	0.00030823	0.00032725	8.4997e-05	1057.2	3.6658e-06	3.2714e-06	1152.6	224.66	3.5412e-06	3.5335e-06	285.04	79.57	62.84	18.638	3.5589e-06	26.108	243.163	262.301	229.801	162.651	302.455	297.563	162.433	170.254	321.197	307.142	170.115	176.602	176.742	184.391	309.163	183.535	-8191	255	
19584.475	1	1	0	0	0.22368	0.26142	0.24085	0.11846	0.17557	0.16477	0.079544	0.18579	0.26968	0.27356	0.14192	0.15164	0.33256	0.19603	0.075385	0.29025	-1.8687	-2.1229	-2.7375	-2.0958	-2.4313	-2.5604	-2.2875	-2.7167	-2.6	-2.1958	-2.7687	-2.0771	-2.4833	-2.8375	-1.7938	-2.6292	434.487	312.488	408.452	234.843	234.274	208.213	239.169	440.561	302.300	381.720	314.064	481.946	351.016	303.054	280.492	158.612	0.00025945	0.00029314	9.8637e-05	1070.2	3.0266e-06	2.8027e-06	1166.7	226.12	3.1569e-06	7.6655e-07	285.74	78.983	62.325	18.449	2.4281e-06	25.646	0.00030666	0.00032475	8.8836e-05	1056.1	3.7518e-06	3.4144e-06	1152.7	224.33	3.6361e-06	3.5852e-06	285.47	79.665	62.688	18.685	3.5811e-06	26.074	245.597	256.589	260.393	162.472	336.479	320.181	162.454	170.008	313.618	268.936	169.846	176.773	177.161	184.056	307.259	183.478	-8191	255	
19584.596	1	1	0	0	0.086303	0.076366	0.12106	0.072236	0.16693	0.19611	0.24331	0.1501	0.16692	0.038684	0.22307	0.062254	0.32501	0.25646	0.16275	0.049452	-2	-2.075	-2.7396	-2.4396	-2.1521	-2.8937	-2.0979	-2.5896	-2.5563	-2.1229	-2.9	-2.2229	-2.1958	-2.6271	-1.9583	-2.4562	231.065	172.208	447.359	475.332	276.693	465.413	435.233	339.018	494.271	480.993	503.939	362.874	316.855	213.201	402.936	317.229	0.00027029	0.00036667	0.00010215	1070.3	8.2525e-07	4.4237e-06	1166.8	225.99	3.0509e-06	3.6394e-06	285.91	79.492	62.09	18.347	3.2058e-06	25.904	0.0003043	0.00031801	8.8363e-05	1055.8	3.656e-06	3.4775e-06	1153.3	224.7	3.5596e-06	3.7259e-06	285.26	79.769	62.504	18.601	3.5781e-06	26.184	246.599	220.560	253.536	162.692	299.549	309.184	162.735	170.244	288.319	287.084	170.080	176.570	176.794	184.166	286.100	183.968	-8191	255	
19584.666	1	1	0	0	0.13892	0.1946	0.038548	0.29183	0.21026	0.11272	0.11757	0.03118	0.029877	0.2985	0.052315	0.063768	0.096449	0.22159	0.27305	0.15395	-2.0292	-1.9896	-2.625	-2.3125	-2.2125	-2.7646	-2.3063	-2.3458	-2.5812	-2.1333	-2.8854	-2.3354	-2.0167	-2.8667	-2.0687	-2.3333	168.834	454.096	255.939	468.975	501.571	354.647	192.344	510.323	452.513	242.424	439.212	491.606	334.628	163.684	269.790	350.106	0.00023235	0.00039124	0.00011293	1070.8	2.6391e-06	2.0262e-06	1168.2	226.16	2.5494e-06	2.6042e-06	287.11	78.838	62.147	18.297	2.418e-06	25.642	0.00029611	0.00032683	8.7442e-05	1055.1	3.5607e-06	3.4076e-06	1153.3	224.96	3.5483e-06	3.5701e-06	285.09	79.505	62.555	18.599	3.585e-06	26.075	245.062	230.119	241.651	162.642	306.699	343.003	162.856	170.119	325.645	312.147	169.883	176.639	176.756	183.968	315.243	183.625	-8191	255	
19584.764	1	1	0	0	0.2629	0.24291	0.1414	0.29667	0.19358	0.2859	0.24043	0.014743	0.16298	0.2193	0.058278	0.17393	0.10924	0.088992	0.16078	0.33069	-2.1771	-1.9375	-2.6375	-2.6	-2.0458	-2.8958	-2.2583	-2.5104	-2.5646	-1.9604	-2.5854	-2.3208	-1.9937	-2.7417	-2.2042	-2.4542	508.885	370.291	156.562	457.695	485.750	192.238	506.519	379.830	264.087	334.043	247.250	436.983	493.619	433.031	203.651	211.461	0.00024343	0.00023801	8.7723e-05	1068.8	1.8276e-06	3.0348e-06	1166.6	225.92	2.5168e-06	3.5396e-06	285.37	79.037	62.046	18.352	3.5509e-06	25.833	0.00029101	0.00033754	8.6377e-05	1055.4	3.6016e-06	3.5848e-06	1151.9	224.56	3.7061e-06	3.5073e-06	284.66	79.491	62.454	18.679	3.6412e-06	26.177	248.391	262.579	237.384	162.540	299.387	305.453	162.659	170.239	323.767	302.674	170.345	176.663	177.179	184.039	313.142	183.117	-8191	255	
19584.883	1	1	0	0	0.19032	0.097964	0.2687	0.12559	0.24183	0.038448	0.29081	0.19669	0.21819	0.27544	0.3963	0.13019	0.18118	0.25789	0.077405	0.023339	-2.2917	-2.0792	-2.5771	-2.7458	-1.9813	-2.7458	-2.3771	-2.2958	-2.7146	-2.1292	-2.7167	-2.6417	-1.975	-2.7354	-2.2521	-2.1667	169.665	442.543	277.270	485.987	169.279	312.138	462.866	284.841	466.074	382.232	238.803	488.084	263.334	438.641	165.842	403.153	0.00025227	0.00031852	7.4778e-05	1065.4	3.0719e-06	2.8084e-06	1170.9	224.82	3.9789e-06	2.9462e-06	285.18	79.307	62.322	18.342	1.1105e-06	25.697	0.00029288	0.00032565	9.0467e-05	1056	3.7295e-06	3.5621e-06	1155	224.15	3.553e-06	3.5293e-06	285.02	79.473	62.619	18.641	3.5141e-06	26.062	245.309	265.451	249.355	162.569	284.331	306.893	162.816	170.469	319.529	312.830	170.042	176.791	176.965	184.272	290.222	183.241	-8191	255	
19584.979	1	1	0	0	0.053971	0.2808	0.22154	0.1786	0.14179	0.25151	0.32942	0.2271	0.077219	0.10583	0.36192	0.29082	0.18105	0.25328	0.15293	0.2431	-2.325	-2.1146	-2.55	-2.7354	-1.9583	-2.7458	-2.5083	-2.2979	-2.7917	-2.175	-2.4917	-2.6458	-2.0542	-2.775	-2.4729	-2.1021	436.155	190.756	478.975	181.346	153.635	378.955	410.794	501.194	345.959	413.649	449.219	459.777	296.606	485.931	172.980	508.765	0.00023471	0.00037373	0.00011692	1072.2	2.3508e-06	4.4081e-06	1166.1	226.33	2.7102e-06	2.939e-06	285.77	78.873	61.922	18.38	2.1019e-06	25.864	0.00030666	0.00032565	9.14e-05	1057.4	3.6765e-06	3.457e-06	1153.9	224.46	3.2965e-06	3.4676e-06	285.07	79.451	62.441	18.614	3.275e-06	26.128	242.635	252.705	241.996	162.805	286.186	295.990	162.789	170.333	297.975	334.705	169.895	176.596	176.458	183.701	323.578	183.530	-8191	255	
19585.076	1	1	0	0	0.41074	0.032269	0.18617	0.08183	0.20755	0.11751	0.13068	0.081518	0.29229	0.10583	0.2506	0.11164	0.12115	0.064074	0.073298	0.10782	-2.3146	-2.0625	-2.4917	-2.8312	-1.8521	-2.7438	-2.4625	-2.1729	-2.725	-2.2896	-2.3792	-2.8688	-2.05	-2.6958	-2.5333	-2.1	258.392	245.616	351.049	457.320	342.040	438.664	413.190	172.208	375.370	199.807	329.604	390.552	505.073	345.546	212.852	506.918	0.00026444	0.00036164	5.4865e-05	1069.3	2.4635e-06	2.6945e-06	1167.4	226.57	3.3108e-06	5.0319e-06	284.05	79.327	62.402	18.397	2.6824e-06	25.674	0.00030091	0.00033622	8.7035e-05	1056.5	3.7528e-06	3.5096e-06	1152.3	225.01	3.5826e-06	3.4545e-06	283.83	79.553	62.471	18.706	3.3642e-06	26.058	247.290	261.969	254.431	162.754	312.746	297.372	162.755	170.414	316.389	333.621	170.201	176.949	177.076	184.204	278.426	183.436	-8191	255	
19585.172	1	1	0	0	0.06324	0.12248	0.2484	0.34222	0.24353	0.32582	0.43267	0.23897	0.24549	0.28561	0.22275	0.14085	0.31831	0.36502	0.18052	0.23945	-2.3937	-2.05	-2.3896	-2.8292	-1.9917	-2.5292	-2.7833	-2.175	-2.8146	-2.2375	-2.3312	-2.8333	-2.0292	-2.5083	-2.5833	-2.0146	155.782	437.838	377.906	455.164	410.826	391.062	472.610	488.861	291.047	506.263	432.344	160.256	431.844	444.512	301.029	343.955	0.0002624	0.00027753	0.00010115	1072.3	2.9747e-06	2.1804e-06	1166.2	225.51	2.3848e-06	3.092e-06	286.04	79.338	62.105	18.325	2.4793e-06	25.827	0.00030048	0.00031418	9.1282e-05	1058.5	3.6593e-06	3.5096e-06	1153.4	224.32	3.2612e-06	3.4723e-06	285.17	79.65	62.495	18.599	3.1695e-06	26.166	248.721	229.699	241.769	162.778	311.494	271.884	162.875	170.151	293.898	301.253	169.897	176.854	177.332	184.091	302.628	183.358	-8191	255	
19585.293	1	1	0	0	0.28473	0.15541	0.056973	0.060592	0.03444	0.19764	0.12611	0.28517	0.1286	0.21019	0.14792	0.19684	0.11697	0.29943	0.18846	0.14785	-2.3458	-2.3604	-2.3083	-3.0187	-2.1188	-2.6021	-2.8896	-2.1521	-2.5167	-2.3292	-2.3146	-2.6833	-2.1208	-2.3625	-2.8625	-1.9729	322.943	170.905	493.167	412.331	452.273	304.029	465.125	510.188	369.259	203.785	511.522	447.617	308.223	407.758	374.561	162.724	0.00027227	0.00018426	7.6901e-05	1073.6	2.0393e-06	4.2695e-06	1172	226.38	2.8546e-06	3.0722e-06	286.29	79.415	62.391	18.414	1.9947e-06	25.809	0.00030433	0.00031744	9.0716e-05	1058.3	3.4839e-06	3.4197e-06	1153.3	224.56	3.6305e-06	3.4854e-06	284.81	79.677	62.485	18.615	3.3972e-06	26.158	245.474	246.602	238.748	162.748	298.259	309.997	162.881	170.243	318.484	302.538	169.983	176.678	176.669	184.099	300.138	183.400	-8191	255	
19585.363	1	1	0	0	0.041448	0.17278	0.12032	0.17306	0.30715	0.181	0.26897	0.19375	0.16344	0.3968	0.19839	0.16128	0.25623	0.10821	0.33062	0.24054	-2.1271	-2.3875	-2.1083	-2.9625	-2.3042	-2.3979	-2.8708	-2.0729	-2.5104	-2.5625	-2.1312	-2.8292	-2.4771	-2.4125	-2.6521	-2.2104	276.200	220.061	454.981	478.549	323.254	426.480	502.398	384.543	218.634	154.745	185.747	232.261	251.228	386.762	360.834	449.566	0.00024806	0.00033996	6.1472e-05	1074.3	2.3681e-06	2.403e-06	1168.1	226.05	3.0022e-06	4.5248e-06	285.41	79.237	62.217	18.177	3.2737e-06	25.723	0.0002982	0.00031857	9.1637e-05	1059.3	3.7137e-06	3.6231e-06	1154.4	224.65	3.6234e-06	3.4948e-06	285.13	79.731	62.53	18.563	3.6038e-06	26.081	248.567	235.854	244.104	162.572	323.433	358.871	162.769	170.374	334.004	309.022	169.965	176.907	177.031	184.251	353.922	183.278	-8191	255	
19585.482	1	1	0	0	0.24441	0.19652	0.25883	0.14859	0.23588	0.067921	0.28941	0.19417	0.3094	0.15608	0.069526	0.039395	0.12831	0.094943	0.15243	0.086843	-2.0458	-2.5042	-2.0583	-2.8479	-2.3292	-2.1	-2.8271	-2.1896	-2.5729	-2.675	-2.1396	-2.8708	-2.4729	-2.0958	-2.7625	-2.2417	391.328	491.056	399.852	247.126	381.057	237.390	450.762	164.821	313.860	297.536	370.332	304.466	500.171	302.315	414.742	478.498	0.00025894	7.7498e-05	0.0001164	1070.4	1.1732e-06	2.9867e-06	1168.8	226.05	3.2266e-06	2.7214e-06	286.07	78.94	62.213	18.347	1.949e-06	25.679	0.00030785	0.0003248	9.0243e-05	1058	3.663e-06	3.519e-06	1154.6	224.83	3.7221e-06	3.3709e-06	285.06	79.579	62.519	18.6	3.4303e-06	26.03	241.645	226.551	254.218	162.476	315.786	316.832	162.612	170.407	304.670	301.179	169.795	176.812	176.790	184.234	317.146	183.228	-8191	255	
19585.578	1	1	0	0	0.046932	0.11987	0.12127	0.35956	0.14873	0.09763	0.28799	0.32367	0.034219	0.073453	0.12733	0.11255	0.2063	0.057728	0.1178	0.14932	-2.1562	-2.6458	-1.9062	-2.8812	-2.2833	-2.2146	-2.925	-2.3958	-2.4875	-2.6708	-2.2979	-2.725	-2.4896	-2.1229	-2.9562	-2.2917	423.132	198.829	331.073	488.741	229.125	494.060	461.096	463.007	207.730	160.960	449.707	428.102	501.886	476.289	430.666	476.017	0.00026349	0.00045241	8.4385e-05	1071.2	3.2801e-06	4.5088e-06	1169.8	225.08	3.5274e-06	2.0617e-06	286.46	79.362	62.107	18.386	2.9801e-06	25.49	0.00030519	0.00031414	8.9717e-05	1056.6	3.6681e-06	3.5306e-06	1154.2	223.99	3.6159e-06	3.4169e-06	284.95	79.794	62.528	18.629	3.4667e-06	26.043	248.455	219.168	224.692	162.857	284.968	309.013	162.784	170.812	318.998	341.068	169.839	176.970	177.253	183.862	326.154	183.709	-8191	255	
19585.676	1	1	0	0	0.35593	0.16906	0.09564	0.13159	0.13236	0.11354	0.22824	0.24548	0.040149	0.016484	0.2416	0.11681	0.24875	0.27592	0.12116	0.20981	-2.0667	-2.675	-1.9375	-2.9458	-2.4979	-2.2958	-2.8583	-2.0312	-2.525	-2.7667	-2.0417	-2.5167	-2.6958	-1.9479	-2.6229	-2.4271	254.978	485.867	352.111	209.946	339.272	175.292	162.382	445.070	415.389	356.443	333.520	369.787	432.914	302.139	289.061	279.322	0.00023785	0.00033338	4.7914e-05	1069.8	2.4728e-06	3.1582e-06	1167.2	226.38	2.514e-06	2.307e-06	285.92	79.452	62.132	18.239	2.7338e-06	25.543	0.00030115	0.00030224	9.0453e-05	1056.4	3.6309e-06	3.5338e-06	1153.5	224.34	3.6108e-06	3.3406e-06	284.56	79.611	62.394	18.576	3.4007e-06	26.089	246.784	217.764	244.359	162.796	319.652	325.333	162.897	170.465	293.768	305.552	169.924	176.912	176.829	183.817	293.485	183.783	-8191	255	
19585.771	1	1	0	0	0.15586	0.097003	0.16985	0.30212	0.14944	0.26356	0.051041	0.097664	0.12059	0.056538	0.13368	0.18471	0.32355	0.067212	0.15606	0.15656	-1.8083	-2.7667	-1.9083	-2.6937	-2.6271	-2.0458	-2.7958	-2.4437	-2.0854	-2.8937	-2.2833	-2.6896	-2.625	-2.1146	-2.7562	-2.4771	328.733	366.640	288.042	176.199	405.168	361.878	454.785	422.642	427.610	369.133	256.932	170.533	203.220	303.332	506.759	196.658	0.00026099	0.00021017	6.5444e-05	1070.7	3.0622e-06	3.4324e-06	1167.6	226.76	2.6466e-06	4.2902e-06	286.75	79.279	62.237	18.416	3.6424e-06	25.735	0.00031233	0.0003198	8.9941e-05	1058.2	3.4467e-06	3.7304e-06	1152.6	225.05	3.6544e-06	3.3745e-06	285.25	79.806	62.586	18.642	3.5471e-06	26.074	246.448	213.103	255.340	162.639	306.339	299.040	162.779	170.222	320.025	313.871	170.206	176.797	177.006	183.797	327.767	183.195	-8191	255	
19585.893	1	1	0	0	0.083447	0.11982	0.23575	0.15966	0.10938	0.091052	0.11526	0.10103	0.15334	0.34488	0.13485	0.064246	0.10192	0.083009	0.29272	0.073501	-1.7167	-2.8104	-2.2042	-2.5917	-2.6188	-2.1208	-3.0021	-2.6333	-2.1042	-2.8167	-2.2771	-2.2125	-2.8979	-2.0042	-2.65	-2.4833	356.558	195.168	404.685	479.440	357.878	198.557	436.077	396.037	493.971	165.540	270.865	482.939	339.491	500.277	215.624	424.875	0.00026482	0.00026998	7.9616e-05	1069.7	3.4657e-06	2.6931e-06	1168.9	226.1	3.5268e-06	4.1799e-06	284.92	78.951	61.682	18.512	2.6245e-06	25.771	0.00031246	0.00032504	9.0651e-05	1055.7	3.4816e-06	3.6289e-06	1154.5	224.33	3.5906e-06	3.5167e-06	284.87	79.45	62.323	18.647	3.5614e-06	26.143	243.961	248.784	271.191	162.806	315.315	342.123	162.842	170.336	305.669	306.565	168.649	175.688	175.426	183.192	278.849	183.299	-8191	255	
19585.965	1	1	0	0	0.066131	0.10568	0.28341	0.2024	0.23987	0.22123	0.11314	0.14419	0.31243	0.12038	0.13793	0.16943	0.12368	0.093533	0.26552	0.17424	-1.5208	-2.6437	-2.2229	-2.2812	-2.8292	-2.1833	-2.825	-2.6583	-2.0396	-2.8167	-2.2271	-2.2896	-2.6542	-2.0396	-2.4979	-2.4292	465.146	441.914	272.404	422.813	346.575	181.591	306.494	459.344	481.230	386.713	479.528	511.480	269.322	406.146	276.438	445.431	0.00025923	0.0001666	8.2399e-05	1067.6	2.4609e-06	3.9584e-06	1172	225.7	3.1491e-06	4.5229e-06	285.2	78.876	62.283	18.305	2.4259e-06	25.783	0.00030614	0.00032796	8.6509e-05	1053.9	3.5384e-06	3.4954e-06	1155	224.1	3.4069e-06	3.6433e-06	285.13	79.403	62.424	18.603	3.4756e-06	26.042	246.967	240.070	211.921	162.351	286.885	296.737	162.682	170.042	299.966	293.999	169.846	176.638	177.000	184.212	317.768	183.717	-8191	255	
19586.061	1	1	0	0	0.14951	0.2041	0.20844	0.13268	0.23983	0.16892	0.11283	0.12528	0.32565	0.13361	0.15844	0.12787	0.096391	0.067358	0.10663	0.16008	-1.7167	-2.6208	-2.25	-2.4646	-2.825	-2.1333	-2.725	-2.8812	-2.1396	-2.6896	-2.5354	-2.3896	-2.7417	-2.0896	-2.3812	-2.6792	414.903	313.180	407.771	512.156	294.884	390.735	414.453	347.383	391.068	397.258	252.234	344.338	301.275	372.930	222.392	236.673	0.00027331	0.00039811	7.2997e-05	1068.4	3.5637e-06	1.5213e-06	1165.6	225.47	2.7176e-06	3.7783e-06	285.92	79.034	62.264	18.408	1.4596e-06	25.587	0.00031488	0.0003172	8.902e-05	1054.5	3.6956e-06	3.5112e-06	1151.2	223.58	3.522e-06	3.5413e-06	284.72	79.376	62.324	18.626	3.2967e-06	26.043	245.773	227.342	237.672	162.735	301.322	330.546	162.738	170.191	296.418	316.091	170.153	176.410	177.331	184.024	248.110	183.669	-8191	255	
19586.156	1	1	0	0	0.21639	0.11325	0.17033	0.16824	0.066088	0.15939	0.35181	0.15657	0.11591	0.15949	0.05809	0.19455	0.37465	0.12145	0.19888	0.17375	-1.5833	-2.6833	-2.3354	-2.2438	-2.8875	-2.3458	-2.5938	-2.7062	-2.1167	-2.7104	-2.6583	-2.1708	-2.7771	-2.2042	-2.3896	-2.7854	486.290	414.627	328.647	492.754	359.544	424.671	451.649	445.428	348.187	311.877	203.572	482.373	471.172	259.325	484.773	475.608	0.00025506	0.00027816	9.6991e-05	1071.3	2.4538e-06	3.8163e-06	1165.7	225.18	2.8865e-06	1.6447e-06	283.44	79.028	61.867	18.365	2.1119e-06	25.478	0.00030991	0.00032891	8.6837e-05	1054.2	3.51e-06	3.5022e-06	1151.6	223.93	3.7094e-06	3.489e-06	284.27	79.505	62.353	18.625	3.4076e-06	25.956	247.712	260.385	264.756	162.219	289.669	299.828	162.531	170.190	315.969	300.485	169.931	176.698	177.229	183.173	309.284	183.266	-8191	255	
19586.252	1	1	0	0	0.25668	0.16276	0.1827	0.27118	0.086874	0.15527	0.13473	0.24306	0.1029	0.09129	0.22648	0.050544	0.11479	0.024736	0.21232	0.14124	-1.6208	-2.7	-2.5083	-2.2625	-2.6833	-2.3479	-2.1792	-2.8667	-1.8937	-2.5854	-2.6458	-2.1	-2.525	-2.4833	-2.0812	-2.6521	484.293	201.873	164.257	453.316	251.574	359.879	187.710	421.676	309.523	451.535	333.325	509.471	383.350	486.924	157.563	416.854	0.00026488	0.00029885	0.00010674	1071	2.6712e-06	3.2448e-06	1167.6	224.95	2.6011e-06	3.4696e-06	285.29	78.79	62.761	18.244	2.5661e-06	25.602	0.00029722	0.00032315	8.5496e-05	1055.6	3.6681e-06	3.5653e-06	1152.8	224.19	3.6498e-06	3.5418e-06	284.75	79.44	62.608	18.611	3.5239e-06	26.129	244.642	237.938	240.059	162.292	308.787	283.835	162.558	170.412	290.055	334.299	170.221	176.963	176.951	184.065	308.322	183.723	-8191	255	
19586.373	1	1	0	0	0.15547	0.29135	0.16775	0.15039	0.045185	0.084046	0.053139	0.11818	0.065768	0.13618	0.12736	0.071056	0.041087	0.14938	0.14748	0.16567	-1.6417	-2.3354	-2.65	-2.1896	-2.5667	-2.5042	-2.2979	-2.9	-2.1708	-2.4042	-2.6312	-2.0687	-2.5083	-2.2938	-2.1271	-2.6667	406.353	430.998	325.815	467.410	282.249	294.944	370.352	393.608	193.842	358.453	236.253	255.858	223.192	381.341	354.344	247.554	0.00022608	0.00030123	8.733e-05	1069.6	2.9353e-06	1.6904e-06	1167.8	226.64	3.2991e-06	1.328e-06	284.13	79.339	62.315	18.265	4.0669e-06	25.788	0.00030433	0.00032027	8.8428e-05	1054.4	3.6983e-06	3.5264e-06	1153.4	224.5	3.6009e-06	3.7703e-06	284.6	79.503	62.385	18.55	3.7694e-06	26.079	239.977	238.880	264.809	162.767	323.789	271.667	162.574	170.210	291.959	344.297	170.050	176.767	177.216	183.926	299.514	183.472	-8191	255	
19586.467	1	1	0	0	0.11129	0.44716	0.19344	0.059358	0.13922	0.45537	0.27531	0.22633	0.28547	0.22952	0.074811	0.28593	0.18697	0.28613	0.094651	0.053393	-1.8937	-2.3604	-2.775	-2.0042	-2.6979	-2.5271	-2.2021	-2.7	-2.1625	-2.1	-2.8167	-1.8208	-2.5438	-2.2687	-1.9479	-2.7313	458.354	350.355	396.267	154.569	465.062	375.202	443.717	359.265	480.514	510.371	506.678	466.771	167.638	189.742	192.495	364.406	0.0002447	0.00026747	7.3718e-05	1064.6	3.5924e-06	2.3915e-06	1165.1	226.59	3.6975e-06	3.997e-06	285.28	78.779	61.914	18.315	2.4868e-06	25.859	0.00030037	0.00034528	9.2071e-05	1053.5	3.7462e-06	3.5154e-06	1149.7	224.17	3.754e-06	3.7745e-06	284.42	79.511	62.221	18.639	3.5382e-06	26.096	246.988	235.087	239.067	162.405	301.646	333.100	162.505	170.398	308.655	289.076	169.912	176.447	176.652	184.086	313.348	183.756	-8191	255	
19586.564	1	1	0	0	0.2041	0.14263	0.25766	0.16254	0.090246	0.18573	0.26527	0.24301	0.075679	0.013073	0.34204	0.10084	0.28609	0.1296	0.18008	0.25767	-1.875	-2.3542	-2.675	-2.2125	-2.4271	-2.7167	-2.1729	-2.725	-2.3896	-2.1479	-2.8021	-1.9479	-2.5125	-2.6833	-2.1875	-2.5604	305.041	266.099	472.191	409.682	165.887	501.660	176.217	438.572	451.284	205.321	504.088	417.902	405.454	460.502	475.223	309.442	0.00027467	0.00028168	6.6279e-05	1065.8	3.038e-06	3.9303e-06	1167.2	225.73	2.6116e-06	2.3805e-06	285.91	79.184	62.551	18.471	2.7984e-06	25.748	0.00031743	0.00034736	9.0151e-05	1054.3	3.7728e-06	3.5127e-06	1154.2	224.37	3.6286e-06	3.5784e-06	285.1	79.424	62.481	18.636	3.6471e-06	26.125	245.190	264.969	200.913	162.635	327.622	270.497	162.586	170.063	311.770	364.181	170.013	176.548	176.846	184.062	336.011	183.460	-8191	255	
19586.658	1	1	0	0	0.17402	0.13197	0.17188	0.29859	0.30987	0.25466	0.1281	0.23037	0.059231	0.089607	0.16665	0.13443	0.1303	0.075046	0.18012	0.055218	-2.05	-2.125	-2.7062	-2.1813	-2.4167	-2.8438	-1.9937	-2.7229	-2.5021	-1.9958	-2.7479	-2.1813	-2.0625	-2.6354	-2.0208	-2.7229	498.277	361.868	368.714	450.250	428.849	472.433	470.421	335.816	244.305	431.424	331.605	397.893	294.266	409.460	496.136	187.411	0.00025158	0.00026605	6.1823e-05	1067.2	2.6222e-06	3.9842e-06	1160.7	225.45	2.195e-06	2.0882e-06	287.31	79.063	62.169	18.35	1.6405e-06	25.635	0.00031048	0.00034684	9.215e-05	1054.8	3.7411e-06	3.5585e-06	1152.3	224.2	3.7385e-06	3.5319e-06	285.07	79.263	62.372	18.652	3.6181e-06	26.07	243.313	246.771	259.475	162.567	296.529	315.616	162.526	169.995	321.649	293.647	170.057	176.564	176.936	184.105	285.609	183.953	-8191	255	
19586.756	1	1	0	0	0.22245	0.14015	0.29183	0.27921	0.24462	0.17748	0.056304	0.14788	0.28278	0.08657	0.17678	0.42799	0.19521	0.19387	0.12973	0.13098	-2.175	-1.8854	-2.7667	-2.4	-2.2896	-2.7167	-2.3125	-2.525	-2.5042	-1.8979	-2.7208	-2.2042	-2.0833	-2.6958	-2.0146	-2.5458	321.091	269.915	402.823	406.162	268.750	247.163	166.803	430.930	252.384	175.400	290.848	254.603	213.044	167.221	241.152	427.896	0.00024987	0.00039302	9.0024e-05	1067.5	1.7874e-06	4.8891e-06	1164.2	224.67	3.4656e-06	2.8357e-06	285.53	78.757	62.437	18.345	2.9721e-06	25.627	0.00028976	0.00031881	8.6627e-05	1054.8	3.577e-06	3.508e-06	1151.1	223.64	3.4834e-06	3.5695e-06	284.58	79.239	62.527	18.601	3.4717e-06	25.991	249.731	236.726	265.770	162.522	299.537	325.490	162.718	170.038	316.842	276.772	169.867	176.528	176.921	184.347	290.985	183.256	-8191	255	
19586.852	1	1	0	0	0.15233	0.27273	0.11696	0.11346	0.12972	0.042206	0.10168	0.39853	0.046721	0.12206	0.2163	0.25751	0.10824	0.116	0.16653	0.43268	-2.1458	-2.175	-2.5417	-2.4354	-2.1625	-2.7938	-1.9729	-2.3896	-2.5354	-2.05	-2.6667	-2.3208	-2.1792	-2.7938	-2.1417	-2.2833	392.381	451.183	229.856	419.972	479.304	364.006	448.116	465.707	453.084	442.983	277.148	495.580	495.222	242.300	247.640	212.053	0.00025252	0.00033596	7.3169e-05	1068.7	2.0268e-06	6.1339e-06	1168.6	224.51	2.9858e-06	4.038e-06	285.62	79.16	62.253	18.339	2.5964e-06	25.602	0.00029996	0.0003248	8.6035e-05	1054	3.6374e-06	3.4738e-06	1151	223.55	3.475e-06	3.581e-06	283.8	79.177	62.242	18.604	3.5495e-06	26.056	244.020	263.753	230.138	162.468	309.785	318.186	162.775	170.146	316.856	306.334	170.101	176.581	176.839	184.004	304.715	183.646	-8191	255	
19586.973	1	1	0	0	0.17821	0.13873	0.24713	0.21266	0.20517	0.1394	0.13779	0.38036	0.12591	0.11344	0.036479	0.23293	0.037319	0.30058	0.22335	0.26154	-2.2438	-1.8521	-2.6583	-2.5396	-1.8958	-2.7542	-2.2479	-2.3458	-2.7646	-1.7938	-2.6646	-2.3833	-1.9604	-2.7188	-2.1813	-2.3521	307.316	440.975	463.282	502.935	177.094	398.727	454.245	393.376	368.862	429.433	372.127	437.030	398.867	502.590	478.186	277.570	0.00025859	0.0002727	0.00010517	1067.7	2.6741e-06	1.9128e-07	1163	225.1	3.8042e-06	2.0962e-06	284.98	79.277	62.042	18.343	2.9581e-06	25.627	0.00030227	0.00033164	9.0427e-05	1053.1	3.8309e-06	3.2462e-06	1148.1	223.51	3.3754e-06	3.5648e-06	283.98	79.382	62.235	18.58	3.4879e-06	26.018	244.977	269.905	283.244	162.621	266.170	277.583	162.566	170.122	316.888	346.777	169.831	176.819	177.009	184.008	284.507	183.411	-8191	255	
19587.068	1	1	0	0	0.19108	0.29445	0.20728	0.11191	0.087325	0.13707	0.17656	0.13327	0.1919	0.062004	0.10388	0.22765	0.1445	0.06554	0.14205	0.15945	-2.3333	-2.1083	-2.3812	-2.6979	-2.1125	-2.7979	-2.5521	-2.35	-2.8958	-2.1312	-2.5333	-2.55	-2.0625	-2.6479	-2.3646	-2.2667	163.390	439.945	315.349	357.583	175.225	402.233	168.194	180.625	259.614	376.806	398.286	244.538	195.823	310.057	505.363	406.896	0.00024558	0.00041925	8.8362e-05	1070.8	3.2825e-06	2.0337e-06	1169.2	225.17	3.1953e-06	3.2737e-06	284.16	79.102	62.554	18.315	2.8602e-06	25.644	0.00030056	0.00033358	8.5785e-05	1055.1	3.8123e-06	3.3834e-06	1151.2	223.66	3.3402e-06	3.581e-06	283.52	79.375	62.372	18.611	3.549e-06	26.094	245.580	225.947	244.420	162.689	290.627	284.537	162.605	170.443	313.589	293.557	169.754	176.438	176.599	183.935	290.300	183.609	-8191	255	
19587.164	1	1	0	0	0.11158	0.29237	0.042595	0.17325	0.0518	0.047919	0.13299	0.29953	0.16295	0.19916	0.14262	0.29841	0.092186	0.076565	0.052071	0.18691	-2.3083	-2.1958	-2.4562	-2.8896	-1.9833	-2.6937	-2.5771	-2.0938	-2.7562	-2.1104	-2.3542	-2.5458	-2.0896	-2.4437	-2.3104	-1.9958	277.065	329.428	162.669	200.212	285.714	183.228	213.705	338.214	313.349	156.508	342.152	496.882	351.106	498.943	187.458	348.076	0.00026508	0.00050762	5.7444e-05	1068	3.4901e-06	3.1853e-06	1162.8	224.98	3.5841e-06	4.7643e-06	284.04	78.456	62.396	18.344	3.1117e-06	25.539	0.00029535	0.00032664	9.1453e-05	1053.9	3.7588e-06	3.426e-06	1150	223.63	3.4891e-06	3.6835e-06	284.19	79.193	62.37	18.579	3.4391e-06	26.065	246.531	229.539	272.922	162.654	308.934	289.881	162.784	170.050	303.157	304.685	169.556	176.997	176.725	184.155	319.355	183.239	-8191	255	
19587.262	1	1	0	0	0.048582	0.042392	0.18225	0.31051	0.049815	0.15958	0.11357	0.22963	0.068654	0.20854	0.36821	0.13394	0.14972	0.15496	0.058588	0.23609	-2.4708	-2.15	-2.3896	-2.8688	-1.9667	-2.4813	-2.6583	-2.1437	-2.7104	-2.2583	-2.3625	-2.6937	-2.0167	-2.4646	-2.525	-2.0583	269.741	510.187	456.575	438.951	173.595	192.211	478.741	202.149	175.226	426.238	461.820	226.088	413.021	377.382	167.359	491.506	0.00024586	0.00031019	0.00011687	1069	3.0069e-06	1.9564e-06	1162.3	225.07	3.8792e-06	2.5473e-06	285.4	78.668	62.049	18.464	3.6384e-06	25.722	0.00029955	0.00031079	9.1058e-05	1055.5	3.6742e-06	3.5274e-06	1150.7	223.59	3.4557e-06	3.6877e-06	284.11	79.402	62.321	18.642	3.4268e-06	26.086	241.167	224.745	224.388	162.860	295.666	261.022	162.632	170.052	296.776	309.902	169.726	177.093	176.611	184.557	293.657	183.531	-8191	255	
#DATA ENDS
