BOXY.EXE: ISS Imagent and Oximeter Data Acquisition Program Version 0.80
Ascii Record File

#ACQ INFORMATION
2  Detector Channels 
16  External MUX Channels 
1  Auxiliary Channels 
5000  Waveform (CCF) Frequency (Hz)
1  Waveforms Skipped 
30  Waveforms Averaged 
1  Cycles Averaged 
16  Acquisitions per Waveform 
10.0806  Updata Rate (Hz) 

#FILE INFORMATION
TRUE -- External MUX Channel results are PARSED.
FALSE -- AC DC and Phase are NOT grouped.
TRUE -- Companion Program Settings File CREATED.
FALSE -- AC data not excluded
FALSE -- DC data not excluded
FALSE -- Phase data not excluded
FALSE -- Auxillary Chn. data not excluded
Tab delimiters

#CALIBRATION STATE
TRUE -- Waveform Calibration Values APPLIED.


#AUX CALIBRATION VALUES
Val Type	aux-1	

Term	1.0000e+00	
Factor	0.0000e+00	


#WF CALIBRATION VALUES
A = Detector Channel
Val Type	A-AC1	A-AC2	A-AC3	A-AC4	A-AC5	A-AC6	A-AC7	A-AC8	A-AC9	A-AC10	A-AC11	A-AC12	A-AC13	A-AC14	A-AC15	A-AC16	A-DC1	A-DC2	A-DC3	A-DC4	A-DC5	A-DC6	A-DC7	A-DC8	A-DC9	A-DC10	A-DC11	A-DC12	A-DC13	A-DC14	A-DC15	A-DC16	A-Ph1	A-Ph2	A-Ph3	A-Ph4	A-Ph5	A-Ph6	A-Ph7	A-Ph8	A-Ph9	A-Ph10	A-Ph11	A-Ph12	A-Ph13	A-Ph14	A-Ph15	A-Ph16	

Term	0.00000e+00	0.00000e+00	0.00000e+00	0.00000e+00	0.00000e+00	0.00000e+00	0.00000e+00	0.00000e+00	0.00000e+00	0.00000e+00	0.00000e+00	0.00000e+00	0.00000e+00	0.00000e+00	0.00000e+00	0.00000e+00	0.00000e+00	0.00000e+00	0.00000e+00	0.00000e+00	0.00000e+00	0.00000e+00	0.00000e+00	0.00000e+00	0.00000e+00	0.00000e+00	0.00000e+00	0.00000e+00	0.00000e+00	0.00000e+00	0.00000e+00	0.00000e+00	0.00000e+00	0.00000e+00	0.00000e+00	0.00000e+00	0.00000e+00	0.00000e+00	0.00000e+00	0.00000e+00	0.00000e+00	0.00000e+00	0.00000e+00	0.00000e+00	0.00000e+00	0.00000e+00	0.00000e+00	0.00000e+00	
Factor	1.00000e+00	1.00000e+00	1.00000e+00	1.00000e+00	1.00000e+00	1.00000e+00	1.00000e+00	1.00000e+00	1.00000e+00	1.00000e+00	1.00000e+00	1.00000e+00	1.00000e+00	1.00000e+00	1.00000e+00	1.00000e+00	1.00000e+00	1.00000e+00	1.00000e+00	1.00000e+00	1.00000e+00	1.00000e+00	1.00000e+00	1.00000e+00	1.00000e+00	1.00000e+00	1.00000e+00	1.00000e+00	1.00000e+00	1.00000e+00	1.00000e+00	1.00000e+00	X	X	X	X	X	X	X	X	X	X	X	X	X	X	X	X	

B = Detector Channel
Val Type	B-AC1	B-AC2	B-AC3	B-AC4	B-AC5	B-AC6	B-AC7	B-AC8	B-AC9	B-AC10	B-AC11	B-AC12	B-AC13	B-AC14	B-AC15	B-AC16	B-DC1	B-DC2	B-DC3	B-DC4	B-DC5	B-DC6	B-DC7	B-DC8	B-DC9	B-DC10	B-DC11	B-DC12	B-DC13	B-DC14	B-DC15	B-DC16	B-Ph1	B-Ph2	B-Ph3	B-Ph4	B-Ph5	B-Ph6	B-Ph7	B-Ph8	B-Ph9	B-Ph10	B-Ph11	B-Ph12	B-Ph13	B-Ph14	B-Ph15	B-Ph16	

Term	0.00000e+00	0.00000e+00	0.00000e+00	0.00000e+00	0.00000e+00	0.00000e+00	0.00000e+00	0.00000e+00	0.00000e+00	0.00000e+00	0.00000e+00	0.00000e+00	0.00000e+00	0.00000e+00	0.00000e+00	0.00000e+00	0.00000e+00	0.00000e+00	0.00000e+00	0.00000e+00	0.00000e+00	0.00000e+00	0.00000e+00	0.00000e+00	0.00000e+00	0.00000e+00	0.00000e+00	0.00000e+00	0.00000e+00	0.00000e+00	0.00000e+00	0.00000e+00	-7.86066e+01	-1.31001e+02	-1.24786e+02	-1.83817e+02	-4.99121e+01	-6.53093e+01	-1.58668e+02	-1.62015e+02	-4.89199e+01	-6.62152e+01	-1.74374e+02	-1.69631e+02	-1.81559e+02	-1.77656e+02	-5.84456e+01	-1.50419e+02	
Factor	1.94216e-05	1.68321e-04	4.74969e-05	1.55115e-01	1.43856e-06	2.00494e-06	1.80626e-01	6.10451e-02	1.32424e-06	1.89511e-06	1.00420e-01	3.08861e-02	3.91032e-02	1.03895e-02	1.63570e-06	1.47649e-02	1.30170e-05	2.26506e-05	6.31162e-06	7.96424e-02	2.23240e-07	2.52336e-07	8.66108e-02	3.14689e-02	2.25496e-07	2.50935e-07	5.02129e-02	1.55535e-02	2.03098e-02	5.40091e-03	2.36603e-07	7.42413e-03	X	X	X	X	X	X	X	X	X	X	X	X	X	X	X	X	



#DISTANCE SETTINGS
A = Detector Channel
A-1	A-2	A-3	A-4	A-5	A-6	A-7	A-8	A-9	A-10	A-11	A-12	A-13	A-14	A-15	A-16	

2.5000e+00	3.0000e+00	2.5000e+00	3.0000e+00	2.0000e+00	3.0000e+00	1.5000e+00	3.0000e+00	3.0000e+00	3.0000e+00	3.0000e+00	3.0000e+00	3.0000e+00	3.0000e+00	1.5000e+00	3.0000e+00	

B = Detector Channel
B-1	B-2	B-3	B-4	B-5	B-6	B-7	B-8	B-9	B-10	B-11	B-12	B-13	B-14	B-15	B-16	

1.0000e+01	1.0000e+01	1.0000e+01	1.4400e+00	1.0000e+01	1.0000e+01	1.5100e+00	1.9400e+00	1.0000e+01	1.0000e+01	1.9900e+00	2.4900e+00	2.4100e+00	2.9000e+00	1.0000e+01	2.9800e+00	




#DATA BEGINS
time	group	step	mark	flag	A-AC1	A-AC2	A-AC3	A-AC4	A-AC5	A-AC6	A-AC7	A-AC8	A-AC9	A-AC10	A-AC11	A-AC12	A-AC13	A-AC14	A-AC15	A-AC16	A-DC1	A-DC2	A-DC3	A-DC4	A-DC5	A-DC6	A-DC7	A-DC8	A-DC9	A-DC10	A-DC11	A-DC12	A-DC13	A-DC14	A-DC15	A-DC16	A-Ph1	A-Ph2	A-Ph3	A-Ph4	A-Ph5	A-Ph6	A-Ph7	A-Ph8	A-Ph9	A-Ph10	A-Ph11	A-Ph12	A-Ph13	A-Ph14	A-Ph15	A-Ph16	B-AC1	B-AC2	B-AC3	B-AC4	B-AC5	B-AC6	B-AC7	B-AC8	B-AC9	B-AC10	B-AC11	B-AC12	B-AC13	B-AC14	B-AC15	B-AC16	B-DC1	B-DC2	B-DC3	B-DC4	B-DC5	B-DC6	B-DC7	B-DC8	B-DC9	B-DC10	B-DC11	B-DC12	B-DC13	B-DC14	B-DC15	B-DC16	B-Ph1	B-Ph2	B-Ph3	B-Ph4	B-Ph5	B-Ph6	B-Ph7	B-Ph8	B-Ph9	B-Ph10	B-Ph11	B-Ph12	B-Ph13	B-Ph14	B-Ph15	B-Ph16	aux-1	digaux	

19553.219	1	1	0	768	0.14215	0.058973	0.1479	0.32357	0.27204	0.2897	0.2533	0.20126	0.32544	0.23538	0.03375	0.15612	0.11325	0.26222	0.046095	0.25767	-2.2104	-2.7313	-2.175	-3.2	-2.4417	-2.2917	-3.0458	-2.3438	-2.5583	-2.8708	-2.4521	-2.6937	-2.6646	-2.3396	-2.8229	-2.5167	139.277	-28.301	118.579	183.195	34.450	-152.856	92.734	121.936	-48.230	-148.979	94.775	115.787	36.533	163.796	-125.457	-84.651	0.00038932	0.00061385	0.00013077	1372	4.1804e-06	5.1785e-06	1365.4	369.86	3.4848e-06	4.9987e-06	423.3	141.58	122.51	42.412	5.0515e-06	52.178	0.00048198	0.0004683	0.0001322	1388.5	5.282e-06	5.4615e-06	1385.3	376.35	5.4439e-06	5.1865e-06	429.42	144.57	125.31	43.428	5.5479e-06	53.564	-106.072	-78.055	-59.285	-146.843	-9.085	-0.397	-146.869	-142.184	-7.381	-27.159	-142.700	-138.401	-137.647	-133.620	-0.567	-133.976	-8191	255	
19553.314	1	1	0	0	0.24133	0.1996	0.14767	0.36654	0.16545	0.18377	0.29499	0.16485	0.51158	0.36316	0.41247	0.049752	0.077412	0.073258	0.17637	0.26261	-2.1063	-2.7438	-2.2104	-2.75	-2.7542	-2.1333	-3.05	-2.5146	-2.4396	-2.8063	-2.2542	-2.6896	-2.6521	-2.4	-2.8333	-2.4958	19.607	102.003	-124.957	153.609	55.019	-59.577	107.541	105.384	146.671	-23.954	136.690	149.559	128.564	-63.230	197.021	148.455	0.00041241	0.00048364	9.8758e-05	1374.6	3.4768e-06	5.5125e-06	1376.8	369.36	5.7587e-06	4.3922e-06	422.94	140.65	122.19	42.197	4.2411e-06	52.133	0.00051664	0.00053569	0.00015344	1390	5.987e-06	6.0881e-06	1393.1	376	6.1918e-06	5.943e-06	429.72	144.26	125.27	43.229	5.9925e-06	53.416	-105.982	-74.199	-68.445	-146.899	2.430	0.242	-146.823	-142.081	-20.780	-3.132	-142.854	-138.378	-137.787	-133.452	17.996	-134.159	-8191	255	
19553.410	1	1	0	0	0.096145	0.20112	0.093685	0.25643	0.08033	0.09719	0.26177	0.10347	0.30352	0.29673	0.2162	0.23234	0.33997	0.1559	0.20179	0.17485	-1.9083	-3.0708	-2.2687	-2.7979	-2.6146	-2.2521	-3.1312	-2.5167	-2.4458	-2.8771	-2.4104	-2.6542	-2.9125	-2.2062	-2.8083	-2.575	-68.926	1.236	97.177	172.384	23.631	49.631	138.968	114.455	22.493	105.780	-103.574	-135.587	156.201	97.188	0.686	43.048	0.00043349	0.0005788	0.00017316	1378.7	3.3438e-06	4.3722e-06	1373.6	369.9	2.5425e-06	3.4708e-06	424.18	140.98	122.86	42.327	5.2705e-06	52.441	0.00053451	0.0005557	0.00016004	1390.3	6.1642e-06	6.4372e-06	1388.9	376.45	6.2026e-06	6.1495e-06	430.16	144.38	125.59	43.448	6.1492e-06	53.724	-104.914	-78.361	-73.714	-147.023	1.591	-30.827	-146.910	-142.104	-16.227	-18.457	-142.837	-138.546	-137.840	-133.448	-2.484	-134.014	-8191	255	
19553.508	1	1	0	0	0.15435	0.26165	0.18858	0.2167	0.33626	0.1257	0.17592	0.13448	0.15521	0.25556	0.095983	0.10513	0.13632	0.12284	0.21593	0.29467	-1.8979	-2.8125	-2.0563	-2.6458	-2.7021	-2.2583	-2.8812	-2.6937	-2.1354	-2.8583	-2.2333	-2.6312	-2.7271	-2.1479	-2.6104	-2.5875	-75.801	-19.799	-82.523	140.543	139.666	-78.181	153.401	108.395	88.725	100.810	146.813	-90.379	-126.518	106.469	-90.654	85.080	0.00043124	0.00042136	0.00016218	1380.8	4.3689e-06	4.469e-06	1377.3	371.34	3.7179e-06	4.7205e-06	421.54	141.2	122.83	42.103	4.2039e-06	52.319	0.00053031	0.00055725	0.00015383	1393.4	5.8498e-06	6.146e-06	1394.2	377.14	5.9357e-06	5.7213e-06	429.17	144.35	125.46	43.317	6.0482e-06	53.585	-108.327	-45.699	-58.188	-146.974	-11.863	-16.889	-147.062	-142.228	-31.145	-26.628	-142.880	-138.644	-137.929	-133.710	-3.018	-133.995	-8191	255	
19553.604	1	1	0	0	0.16136	0.10346	0.06019	0.23993	0.044714	0.027865	0.22967	0.16103	0.27683	0.063026	0.20241	0.14803	0.18364	0.0083068	0.16584	0.26911	-1.7354	-2.8792	-2.3521	-2.5521	-2.8125	-2.2146	-2.8354	-2.7208	-2.2646	-2.9229	-2.5917	-2.675	-2.9458	-2.0833	-2.5729	-2.8187	69.156	121.064	-40.447	148.352	-42.986	-152.844	134.500	164.424	62.615	142.220	87.071	59.488	132.430	147.955	-40.140	68.617	0.00038694	0.00050259	0.00012456	1377.9	3.8201e-06	5.4666e-06	1372.5	370.07	3.3884e-06	6.3808e-06	426.24	141.18	122.71	42.156	4.5584e-06	52.278	0.00051954	0.0005238	0.00015329	1392	5.7912e-06	5.8211e-06	1390.2	377.11	5.9179e-06	5.6382e-06	430.7	144.23	125.56	43.281	5.4926e-06	53.567	-106.484	-57.254	-93.379	-147.036	-7.513	2.602	-146.892	-142.247	-17.778	-7.177	-142.622	-138.372	-137.968	-133.600	-14.476	-133.835	-8191	255	
19553.699	1	1	0	0	0.16189	0.1871	0.21636	0.29084	0.15069	0.17247	0.11463	0.171	0.17722	0.10488	0.049402	0.21836	0.21264	0.29513	0.21641	0.17289	-1.7687	-2.9167	-2.2979	-2.4771	-2.8375	-2.3646	-2.6729	-2.9562	-2.1625	-2.8708	-2.7104	-2.4354	-2.8104	-2.2812	-2.5667	-2.6771	-92.331	-12.517	-89.063	171.766	100.657	-46.981	111.151	198.590	-65.375	-59.396	108.829	198.707	178.801	77.947	10.122	139.625	0.00038537	0.00065336	0.00015344	1378	3.6253e-06	5.4953e-06	1372.8	371.78	4.5235e-06	4.3796e-06	425.08	140.99	123.04	42.267	4.5594e-06	52.121	0.00049489	0.0005061	0.00014504	1390.7	5.501e-06	5.4121e-06	1392	377.59	5.6623e-06	5.6053e-06	430.36	144.61	125.8	43.339	5.6553e-06	53.555	-108.308	-65.138	-64.613	-147.029	-18.403	-9.289	-147.173	-142.195	-16.485	-4.738	-142.847	-138.673	-137.910	-133.485	-12.042	-133.918	-8191	255	
19553.818	1	1	0	0	0.17295	0.07454	0.23697	0.17602	0.058332	0.044315	0.13189	0.11469	0.23611	0.17288	0.17904	0.20282	0.11783	0.040675	0.040071	0.03194	-1.7229	-2.7417	-2.3396	-2.3792	-2.7917	-2.2458	-2.5354	-2.8729	-2.1604	-2.4979	-2.5958	-2.2771	-2.9521	-2.5729	-2.325	-2.7625	125.198	191.677	55.488	165.007	30.149	-65.739	65.150	-38.688	89.277	-49.873	-129.082	181.062	-100.085	61.505	81.204	160.777	0.00040636	0.00030611	7.8386e-05	1380.3	3.2707e-06	6.244e-06	1371.7	370.25	3.2844e-06	4.6251e-06	424.97	141.5	123.2	42.299	3.0784e-06	52.456	0.0005148	0.00051431	0.00013974	1391.3	5.508e-06	5.6602e-06	1389	376.54	5.6595e-06	5.7595e-06	431.18	144.43	125.82	43.324	5.7076e-06	53.617	-102.484	-70.952	-74.022	-147.153	2.953	1.520	-147.137	-142.219	-28.643	14.987	-142.788	-138.590	-137.704	-133.487	-18.992	-134.202	-8191	255	
19553.914	1	1	0	0	0.12324	0.19499	0.25397	0.27876	0.18268	0.24939	0.10754	0.0044108	0.32902	0.078287	0.047755	0.3551	0.069379	0.19275	0.20372	0.23695	-1.6	-2.6104	-2.6979	-2.375	-2.7562	-2.2958	-2.5	-3.0104	-2.1417	-2.6417	-2.8167	-2.0812	-2.9188	-2.2729	-2.2938	-2.9667	16.612	30.136	-45.709	149.176	-50.232	24.740	-23.459	39.519	-132.886	24.341	184.650	138.427	-125.813	84.381	120.482	186.714	0.00039658	0.000445	0.00018842	1382.9	3.5291e-06	6.0576e-06	1374.3	369.76	4.4e-06	4.9126e-06	423.34	141.86	122.5	42.199	4.0412e-06	52.293	0.00050392	0.00049647	0.00014151	1392.9	5.4201e-06	5.6113e-06	1390.3	377.09	5.7248e-06	5.5044e-06	430.39	144.74	125.68	43.32	5.7736e-06	53.653	-105.991	-73.955	-81.750	-146.989	-17.818	8.540	-147.167	-142.147	-19.836	-18.327	-142.752	-138.322	-138.169	-133.111	-20.699	-134.048	-8191	255	
19554.010	1	1	0	0	0.081585	0.1564	0.073125	0.26578	0.16952	0.04533	0.13203	0.051043	0.26328	0.12071	0.56496	0.13534	0.12977	0.19603	0.098742	0.077501	-1.8271	-2.3688	-2.7812	-2.2792	-2.7604	-2.5792	-2.4167	-3.05	-2.4167	-2.5729	-2.9854	-2.4479	-2.8333	-2.5583	-2.3979	-2.8875	-26.870	-29.651	-122.198	164.532	-76.813	127.372	64.822	78.178	-133.818	99.134	160.552	30.207	57.971	64.496	-20.253	-150.277	0.00041045	0.00056047	9.8809e-05	1376.5	4.6254e-06	5.0628e-06	1374.1	371.73	3.8509e-06	5.0436e-06	424.45	141.53	123.32	42.598	5.5345e-06	52.572	0.00049947	0.00052573	0.00013937	1391.7	5.594e-06	5.6171e-06	1390.9	377.37	5.5857e-06	5.4238e-06	430.96	144.8	125.84	43.457	5.6445e-06	53.771	-108.220	-66.395	-60.962	-147.058	-12.661	-10.898	-146.908	-142.409	-6.006	-0.955	-142.673	-138.460	-137.722	-133.289	-19.345	-133.969	-8191	255	
19554.105	1	1	0	0	0.14021	0.23439	0.044167	0.20075	0.076601	0.088837	0.096106	0.22005	0.23191	0.23798	0.17495	0.3215	0.080782	0.076498	0.073455	0.050373	-1.8729	-2.6125	-2.6458	-2.2771	-2.5271	-2.5458	-2.5042	-2.7438	-2.4979	-2.3875	-2.8479	-2.4167	-2.85	-2.7792	-2.2125	-2.8521	-108.158	-38.400	-77.541	155.758	35.267	-135.097	146.293	171.676	140.119	25.895	-127.181	167.802	-13.051	-94.801	-120.333	-37.046	0.00041996	0.00030359	0.00014483	1380.3	5.0748e-06	6.5268e-06	1379	371.7	3.3994e-06	5.1165e-06	423.96	142.07	122.62	42.34	3.9839e-06	52.672	0.00049389	0.00050039	0.00012676	1393.9	5.5154e-06	5.2696e-06	1393.4	378.24	5.372e-06	5.3663e-06	430.82	145.24	126.06	43.528	5.4365e-06	53.807	-107.981	-63.945	-73.315	-146.920	-0.681	8.953	-147.066	-142.458	-25.020	-10.830	-142.985	-138.671	-137.990	-133.318	-11.492	-133.880	-8191	255	
19554.203	1	1	0	0	0.2155	0.21931	0.061003	0.20671	0.31822	0.024018	0.20828	0.19048	0.028009	0.3042	0.050432	0.34539	0.1752	0.4363	0.1792	0.23399	-2.0667	-2.175	-2.8792	-2.2854	-2.5687	-2.6833	-2.4146	-2.9437	-2.6229	-2.1917	-2.9896	-2.3042	-2.6125	-2.7917	-2.2958	-2.7979	169.707	24.127	97.265	178.117	-145.259	-103.748	184.418	184.150	-74.240	22.067	127.337	156.989	-108.427	-122.233	-69.209	173.537	0.00041139	0.00035845	0.00014361	1381.9	3.1058e-06	4.2061e-06	1376	372.44	3.5598e-06	5.5148e-06	426.74	141.77	123.6	42.55	4.3717e-06	52.69	0.00050118	0.0005069	0.0001374	1394.3	5.4833e-06	5.2638e-06	1392.8	378.61	5.5994e-06	5.4374e-06	432.26	145.11	126.36	43.557	5.396e-06	53.864	-108.053	-74.976	-69.878	-147.072	-29.467	-3.236	-147.077	-142.267	-6.319	-29.227	-142.858	-138.391	-138.183	-133.461	-22.768	-133.941	-8191	255	
19554.299	1	1	0	0	0.099426	0.13965	0.19474	0.32448	0.23673	0.092283	0.23085	0.16513	0.062744	0.087302	0.16837	0.25846	0.09732	0.27094	0.35236	0.16674	-2.1333	-2.2333	-2.7354	-2.3771	-2.4583	-2.8271	-2.3208	-2.9104	-2.6688	-2.3312	-3.0083	-2.3563	-2.5542	-2.9896	-2.1583	-2.5542	178.272	67.817	-133.356	-146.922	1.237	111.269	132.499	112.505	141.524	7.910	83.066	-143.818	90.081	-132.986	58.991	136.027	0.00039146	0.00041797	8.4335e-05	1381.1	3.5405e-06	5.0236e-06	1380.1	371.28	4.7915e-06	6.0989e-06	426.38	141.94	123.17	42.641	4.5811e-06	52.844	0.00048206	0.00050912	0.00013855	1394.7	5.6061e-06	5.2928e-06	1393.2	378.23	5.3306e-06	5.347e-06	432.35	145.35	126.29	43.65	5.3615e-06	53.977	-107.116	-72.115	-64.445	-147.025	-3.656	-16.802	-147.079	-142.341	-26.117	-1.306	-142.777	-138.446	-138.133	-133.475	-13.420	-133.776	-8191	255	
19554.395	1	1	0	0	0.21263	0.028587	0.17904	0.14237	0.25879	0.14338	0.1693	0.25112	0.068087	0.11331	0.0356	0.12918	0.1162	0.22883	0.26747	0.084791	-2.2062	-2.1063	-2.8229	-2.4854	-2.1937	-2.8729	-2.25	-2.6312	-2.6271	-2.0979	-3.0208	-2.4729	-2.2979	-2.8083	-2.3083	-2.7917	-108.519	71.579	-87.661	-97.334	-81.032	178.596	182.575	173.830	-33.344	-29.021	-111.387	82.800	19.838	92.582	101.981	44.805	0.00041631	0.00039692	0.00012083	1379.5	3.1483e-06	7.1882e-06	1372.3	371.49	3.4229e-06	4.3113e-06	425.45	141.8	123.48	42.695	3.6863e-06	52.876	0.00048204	0.00049482	0.00013433	1393.4	5.0945e-06	4.9595e-06	1390.1	377.99	5.0173e-06	4.9905e-06	432.09	145.56	126.37	43.598	5.1757e-06	53.976	-106.409	-63.142	-62.069	-147.163	-21.359	15.317	-147.061	-142.295	-31.587	-23.636	-143.088	-138.655	-138.025	-133.590	-7.318	-134.303	-8191	255	
19554.516	1	1	0	0	0.22142	0.1823	0.041634	0.14431	0.14864	0.10864	0.16477	0.26331	0.10976	0.13988	0.016086	0.13094	0.20444	0.12681	0.22714	0.26064	-2.2167	-1.9771	-2.7771	-2.7229	-2.2125	-2.7917	-2.3083	-2.5625	-2.8833	-2.2042	-2.85	-2.6646	-2.3208	-2.9083	-2.0479	-2.5542	59.102	148.905	-118.195	122.461	85.587	-112.374	113.962	99.152	185.376	-9.207	-49.771	71.096	113.621	-68.799	-3.666	-118.609	0.0004093	0.00053642	0.00013508	1378.6	4.1486e-06	5.5912e-06	1376.5	371.47	4.3726e-06	2.8583e-06	425.26	141.49	123.12	42.324	3.8245e-06	52.647	0.00047284	0.00047632	0.00013022	1391.1	5.4671e-06	5.0904e-06	1389.7	377.26	5.2494e-06	5.3062e-06	430.52	144.76	125.67	43.422	5.7066e-06	53.812	-107.673	-75.453	-61.270	-146.949	1.344	-9.284	-146.984	-142.546	-9.941	-7.638	-142.662	-138.301	-138.030	-133.313	-19.012	-134.213	-8191	255	
19554.611	1	1	0	0	0.22258	0.09843	0.040923	0.12852	0.093114	0.078372	0.23506	0.18857	0.11053	0.019268	0.12672	0.19389	0.21251	0.21252	0.051681	0.094408	-2.4313	-2.25	-2.6625	-2.6833	-2.2146	-2.8729	-2.4083	-2.6896	-2.7438	-2.3896	-2.7938	-2.8833	-2.1813	-2.8937	-2.0812	-2.3917	192.001	152.533	-97.241	88.085	-117.241	100.845	177.383	181.906	-147.656	18.800	-130.169	-149.724	165.012	-120.547	-93.462	-86.278	0.0003971	0.00060277	0.00013172	1373.4	3.4682e-06	5.7594e-06	1372.9	369.22	3.2626e-06	4.6892e-06	424.62	140.86	122.72	42.268	3.865e-06	52.434	0.00048865	0.00051374	0.00013826	1389.2	5.5959e-06	5.288e-06	1387.3	376.32	5.3062e-06	5.4803e-06	430.22	144.22	125.56	43.35	5.4498e-06	53.654	-107.306	-62.958	-71.049	-146.859	-12.947	-10.840	-147.112	-142.404	-23.001	6.672	-142.847	-138.393	-138.230	-133.308	-8.193	-133.894	-8191	255	
19554.705	1	1	0	0	0.060253	0.11028	0.23222	0.17129	0.14145	0.25228	0.16675	0.34119	0.10966	0.31153	0.023355	0.11278	0.13299	0.12113	0.078915	0.20036	-2.3812	-2.1646	-2.5687	-2.7792	-2.0458	-2.9667	-2.4813	-2.3979	-2.9167	-2.2146	-2.6437	-2.8333	-2.1417	-2.8354	-2.4583	-2.3604	-11.158	34.406	6.703	197.002	-35.486	-52.439	97.736	-138.986	-102.078	-91.354	54.824	164.354	-134.726	61.368	167.953	138.283	0.0004059	0.00052458	0.00016961	1378.1	2.8627e-06	4.1858e-06	1368.8	370.55	4.1194e-06	2.3922e-06	424.18	141.51	122.62	42.321	3.2436e-06	52.37	0.000488	0.00051143	0.00014245	1390.7	5.4122e-06	5.5167e-06	1388.4	376.77	5.4852e-06	5.4296e-06	430.71	144.49	125.74	43.355	5.4167e-06	53.733	-105.792	-71.055	-64.969	-146.952	-15.508	-19.944	-146.922	-142.451	-29.045	-20.200	-142.913	-138.435	-138.043	-135.022	-15.300	-135.254	-8191	255	
19554.779	1	1	0	0	0.17837	0.17294	0.18015	0.21566	0.20357	0.25237	0.13592	0.053687	0.017814	0.03321	0.18268	0.2121	0.18168	0.054751	0.038516	0.25208	-2.3063	-2.1833	-2.4646	-2.9521	-2.1083	-2.6562	-2.7333	-2.3563	-2.8229	-2.0521	-2.3542	-2.8187	-2.1583	-2.5938	-2.5271	-2.3583	63.086	-47.274	-142.125	170.238	-37.620	85.289	135.407	168.698	-102.774	186.783	106.698	162.971	-96.415	-21.347	8.446	162.694	0.00041326	0.00041625	9.2541e-05	1379.6	4.7669e-06	4.3944e-06	1375.4	370.05	4.2981e-06	4.9798e-06	423.64	141.3	122.4	42.144	4.4002e-06	52.582	0.0004902	0.00052884	0.00014405	1390.6	5.5829e-06	5.5141e-06	1389.4	376.52	5.6252e-06	5.6053e-06	430.18	144.55	125.45	43.299	5.6006e-06	53.686	-107.848	-72.693	-68.906	-146.868	-11.651	5.892	-147.027	-142.285	-12.307	-1.540	-142.821	-138.282	-137.940	-133.321	-5.753	-134.278	-8191	255	
19554.898	1	1	0	0	0.1921	0.24536	0.13506	0.28967	0.18963	0.13434	0.20728	0.19535	0.27601	0.052473	0.10218	0.2287	0.15936	0.13666	0.2038	0.22416	-2.5604	-2.3646	-2.3792	-2.8292	-2.0312	-2.6813	-2.6521	-2.3042	-2.7125	-2.2875	-2.3458	-3.025	-2.2313	-2.6458	-2.5396	-2.3917	148.684	-82.656	-63.257	143.749	196.286	106.896	160.794	140.994	-46.094	-22.238	-132.557	-114.347	165.075	197.823	-57.902	121.337	0.00039243	0.00059287	0.00015478	1375.8	3.3961e-06	4.9535e-06	1371.1	370.52	3.9976e-06	3.5451e-06	422.6	140.73	122.74	42.175	3.7824e-06	52.465	0.00049272	0.00054512	0.00014026	1390.4	5.7935e-06	5.5156e-06	1386.9	376.48	5.465e-06	5.5718e-06	429.65	144.04	125.44	43.207	5.3837e-06	53.685	-104.819	-72.654	-74.932	-147.446	4.679	-8.827	-147.615	-143.412	-13.553	7.743	-143.998	-139.239	-138.945	-134.461	-3.930	-134.112	-8191	255	
19554.994	1	1	0	0	0.085018	0.2118	0.12116	0.26344	0.22714	0.1103	0.11576	0.36273	0.25707	0.2332	0.057105	0.1902	0.030239	0.14057	0.24373	0.28781	-2.5604	-2.4292	-2.4021	-3.0604	-2.0062	-2.7333	-3.1958	-2.3063	-2.8	-2.3937	-2.5125	-3.1479	-2.2604	-2.6875	-2.7833	-2.2521	146.926	81.057	-9.355	155.048	-90.520	87.966	147.727	129.896	90.769	-155.024	142.404	116.131	15.424	146.371	28.397	171.828	0.0004094	0.00041698	0.00013407	1375.7	2.7802e-06	5.7079e-06	1376.1	371.12	4.5643e-06	3.5545e-06	425.74	140.82	123.08	42.577	4.3048e-06	52.36	0.00049291	0.00051238	0.00013837	1391.3	5.4536e-06	5.6465e-06	1388.6	377.18	5.7765e-06	5.6303e-06	431.02	144.64	125.56	43.372	5.6154e-06	53.632	-107.161	-56.432	-64.187	-147.058	-16.708	-7.951	-147.204	-142.266	-13.424	-9.766	-143.025	-138.302	-138.240	-133.532	-23.525	-134.065	-8191	255	
19555.092	1	1	0	0	0.062977	0.3385	0.26859	0.13736	0.23474	0.22273	0.11317	0.2999	0.23516	0.15639	0.13507	0.39163	0.10303	0.028677	0.37072	0.38054	-2.3937	-2.4146	-2.2062	-3.1625	-2.2375	-2.5729	-2.8292	-2.2583	-2.6125	-2.725	-2.2333	-2.9	-2.3667	-2.2979	-2.7521	-2.3333	-154.908	-0.937	182.361	136.247	-94.863	159.249	-111.182	130.245	107.418	-54.065	-101.041	183.339	-138.740	15.924	-2.925	177.708	0.00039518	0.00043383	9.8628e-05	1376.7	3.9381e-06	5.6845e-06	1371.3	369.78	3.4579e-06	5.9992e-06	422.2	140.72	122.74	42.296	3.1925e-06	52.414	0.00048616	0.00051044	0.0001373	1390	5.4698e-06	5.4662e-06	1387	376.49	5.5679e-06	5.4667e-06	429.69	144.45	125.65	43.36	5.4941e-06	53.606	-106.959	-78.440	-96.470	-146.987	-20.899	-17.441	-147.062	-142.558	-22.150	4.399	-143.197	-138.597	-138.180	-133.723	-5.900	-134.214	-8191	255	
19555.188	1	1	0	0	0.13412	0.19104	0.069359	0.17569	0.13624	0.10534	0.13503	0.2081	0.070648	0.13192	0.16032	0.27815	0.2063	0.098674	0.1439	0.099819	-2.3688	-2.6542	-2.2938	-2.9562	-2.4292	-2.4542	-3.0687	-2.1958	-2.5938	-2.6542	-2.2375	-2.8979	-2.4313	-2.3917	-2.8625	-2.3312	-103.974	-101.931	-68.027	149.039	74.282	-67.878	167.473	120.947	-65.605	135.341	88.651	120.921	-103.796	-32.465	-49.794	169.856	0.00038676	0.00042153	0.00013485	1376.6	2.5942e-06	4.2908e-06	1367.8	371.48	4.5356e-06	5.9922e-06	424.5	140.95	122.55	42.245	4.7961e-06	52.402	0.00049264	0.00050634	0.0001427	1390.5	5.5712e-06	5.7406e-06	1384.6	376.6	5.7375e-06	5.6962e-06	430.05	144.34	125.43	43.321	5.5193e-06	53.561	-109.727	-85.424	-71.254	-147.160	-10.486	-6.740	-147.091	-142.585	-32.696	-14.760	-143.060	-138.695	-138.235	-133.565	-2.266	-134.574	-8191	255	
19555.307	1	1	0	0	0.33118	0.42074	0.18183	0.092632	0.29277	0.23083	0.2131	0.25751	0.10168	0.27245	0.16408	0.076733	0.07061	0.27765	0.13562	0.12334	-2.0854	-2.7021	-2.1708	-2.9688	-2.5	-2.275	-3.0938	-2.5583	-2.5375	-2.8083	-2.2896	-2.8854	-2.4875	-2.3042	-2.8729	-2.3729	-66.618	30.788	145.001	7.975	4.149	-38.687	121.322	155.602	41.432	15.203	197.393	27.779	75.408	-156.415	-67.455	150.831	0.00042746	0.0005095	0.00021302	1372.2	3.6297e-06	7.5344e-06	1367.9	370.82	4.358e-06	5.7163e-06	424.28	141.53	122.69	42.346	4.9277e-06	52.484	0.00050186	0.00051242	0.00014034	1388.9	5.5708e-06	5.7654e-06	1387.1	376.92	5.5181e-06	5.3381e-06	430.82	144.7	125.54	43.343	5.3458e-06	53.732	-105.980	-76.391	-72.624	-147.600	0.980	-6.522	-147.565	-142.771	-5.627	-10.605	-142.897	-138.678	-137.937	-133.673	-2.903	-134.189	-8191	255	
19555.379	1	1	0	0	0.075296	0.15444	0.067348	0.16044	0.19358	0.062694	0.091262	0.12638	0.14204	0.21887	0.036939	0.25713	0.022196	0.14976	0.1121	0.23042	-1.8667	-2.8438	-2.0917	-2.9	-2.6708	-2.1229	-3.0896	-2.5854	-2.3417	-2.8104	-2.2	-2.7729	-2.6	-2.1396	-2.8896	-2.3708	-101.060	181.927	113.667	97.868	43.949	-17.176	180.627	-124.423	-13.514	174.474	14.243	44.719	-77.550	-153.553	82.960	69.761	0.0003798	0.00041627	0.00010202	1378.8	2.9197e-06	5.3237e-06	1371.1	371.79	3.4907e-06	4.4461e-06	423.97	141.85	122.81	42.478	5.0119e-06	52.398	0.00049025	0.00049227	0.00014338	1390.6	5.4745e-06	5.3979e-06	1387.6	376.91	5.4946e-06	5.5122e-06	430.53	144.86	125.82	43.324	5.5262e-06	53.661	-109.128	-55.215	-74.794	-147.203	1.019	11.293	-147.219	-142.333	-25.490	7.968	-142.968	-138.432	-138.095	-133.756	-13.506	-134.249	-8191	255	
19555.500	1	1	0	0	0.17342	0.046814	0.12617	0.29028	0.098348	0.06116	0.45123	0.084747	0.089264	0.12914	0.19348	0.091041	0.18278	0.043874	0.07373	0.12255	-1.9438	-2.9083	-2.1542	-2.7396	-2.6354	-2.1083	-3.1083	-2.3667	-2.2	-2.7979	-2.2812	-2.6833	-2.6479	-2.2208	-2.8083	-2.6042	146.415	-141.424	80.098	172.574	148.232	109.439	170.852	67.218	24.982	-138.802	94.007	-80.413	81.832	20.176	57.166	-99.228	0.00040512	0.00056816	0.00013832	1374.7	5.3721e-06	5.7195e-06	1374.2	370.78	4.4967e-06	5.469e-06	424.33	140.49	122.45	42.279	4.1994e-06	52.301	0.00049107	0.00050119	0.000144	1389.2	5.4722e-06	5.7895e-06	1389.3	376.75	5.682e-06	5.2749e-06	429.87	144.33	125.4	43.35	5.675e-06	53.589	-107.524	-67.571	-54.496	-147.252	-26.312	-7.414	-147.291	-142.559	-4.605	9.016	-143.306	-138.837	-138.079	-133.514	-9.929	-134.319	-8191	255	
19555.596	1	1	0	0	0.098069	0.092723	0.14948	0.16301	0.085996	0.16232	0.32297	0.20225	0.19306	0.054883	0.2721	0.19901	0.2271	0.25257	0.07335	0.17694	-1.8979	-2.9396	-2.1708	-2.75	-2.7479	-2.1562	-2.9271	-2.6458	-2.1583	-2.85	-2.2812	-2.4938	-2.7188	-2.1458	-2.4813	-2.6813	150.799	-112.111	-160.160	-101.778	-26.183	32.899	141.605	155.563	98.201	-78.481	105.968	145.051	141.069	161.795	-49.044	60.233	0.00039414	0.00040227	0.00012476	1374.5	3.2209e-06	5.643e-06	1370.5	369.65	5.3729e-06	5.164e-06	424.2	140.21	122.07	42.286	2.2064e-06	52.205	0.00051667	0.00051459	0.00014675	1388.7	5.6075e-06	5.7433e-06	1386.8	375.87	5.9437e-06	5.7516e-06	429.76	143.82	125.31	43.299	5.7509e-06	53.468	-107.812	-70.194	-68.027	-147.083	-23.975	-4.265	-147.116	-142.404	-15.087	-2.254	-143.097	-138.669	-138.025	-133.497	-23.265	-134.064	-8191	255	
19555.689	1	1	0	0	0.072661	0.14458	0.26632	0.14729	0.22105	0.029618	0.16557	0.37448	0.10236	0.071581	0.23687	0.15822	0.12833	0.26354	0.14243	0.26702	-1.8438	-2.6979	-2.1729	-2.5312	-2.6917	-2.1979	-2.8333	-2.7562	-2.3042	-2.9562	-2.5958	-2.5417	-2.9146	-2.1875	-2.525	-2.5396	-85.331	-37.239	125.179	183.704	-58.039	12.318	106.844	-157.818	84.827	-35.348	113.625	153.801	-160.479	173.109	-90.795	134.414	0.00039345	0.00045728	0.0001633	1376	5.3087e-06	6.398e-06	1373	370.6	5.2897e-06	3.3569e-06	423.16	140.21	122.48	42.003	4.4822e-06	52.205	0.00051631	0.00052611	0.00015108	1388.2	5.7819e-06	5.9472e-06	1387.2	376.32	5.8972e-06	5.7908e-06	429.71	143.92	125.4	43.139	5.9925e-06	53.485	-107.814	-81.129	-77.761	-147.122	-12.864	-31.783	-147.319	-142.567	-12.139	-4.606	-142.610	-138.774	-137.981	-133.594	-8.770	-134.318	-8191	255	
19555.787	1	1	0	0	0.25147	0.31882	0.061316	0.27246	0.043769	0.087869	0.23709	0.26065	0.19818	0.11682	0.22548	0.090143	0.23086	0.14387	0.074058	0.21226	-1.7958	-2.7854	-2.3604	-2.5125	-2.7313	-2.3208	-2.8375	-2.7604	-2.1729	-2.8042	-2.5687	-2.3854	-2.825	-2.2687	-2.5	-2.8875	-134.904	184.501	115.028	134.110	42.382	14.301	118.967	144.530	-129.461	-88.026	130.157	168.894	134.587	145.006	74.112	19.112	0.00041692	0.00040815	0.00012926	1376.8	5.1517e-06	5.1129e-06	1368	370.03	5.8165e-06	3.9021e-06	423.39	140.5	122.14	42.232	4.438e-06	51.963	0.00051819	0.00054701	0.00015453	1389.1	5.7582e-06	6.1192e-06	1383.8	375.97	5.9869e-06	5.7109e-06	429.09	143.97	125.1	43.243	6.0457e-06	53.423	-106.097	-79.567	-66.443	-147.076	-15.941	-9.730	-147.171	-142.257	-9.059	7.065	-142.672	-138.432	-137.856	-133.266	-12.216	-134.057	-8191	255	
19555.906	1	1	0	0	0.20765	0.10475	0.12101	0.28656	0.1658	0.14097	0.10964	0.17205	0.18189	0.16202	0.085089	0.043876	0.26322	0.025543	0.30026	0.16008	-1.7958	-2.8958	-2.4604	-2.4104	-2.9375	-2.2875	-2.5708	-2.85	-2.0812	-2.6979	-2.7042	-2.1875	-2.7687	-2.2125	-2.3729	-2.8583	-152.619	-78.876	-60.249	136.047	-48.651	-10.339	140.304	-140.892	-143.876	-67.566	-151.728	-0.587	160.889	193.601	-49.771	178.313	0.00038329	0.00058818	0.00012426	1370.8	3.924e-06	4.4794e-06	1363.2	369.17	4.8564e-06	5.4308e-06	422.42	140.03	122.24	42.183	3.4907e-06	51.988	0.00051664	0.00053319	0.00014781	1385.5	5.6694e-06	5.7543e-06	1382.4	375.67	5.7069e-06	5.7783e-06	428.54	143.43	125.07	43.075	5.8367e-06	53.306	-103.017	-67.451	-63.427	-146.984	-3.581	6.389	-147.275	-142.060	-22.975	19.731	-142.656	-138.698	-137.928	-133.639	-17.111	-133.909	-8191	255	
19556.004	1	1	0	0	0.22433	0.080026	0.067358	0.27942	0.014582	0.21064	0.26544	0.23367	0.067797	0.060747	0.010116	0.23932	0.035383	0.24808	0.062541	0.1214	-1.7875	-2.55	-2.5979	-2.3604	-2.8875	-2.5979	-2.5312	-2.9979	-2.2646	-2.4562	-2.6729	-2.225	-2.85	-2.4125	-2.0833	-2.8875	82.608	120.710	19.787	184.560	114.025	118.296	109.151	-123.599	-16.064	-9.865	172.563	111.566	-82.141	148.101	-126.115	-104.916	0.00037371	0.00053242	0.00012297	1365.5	2.7441e-06	4.403e-06	1367.1	369.68	5.117e-06	4.9748e-06	422.09	140.66	122.08	42.023	3.9697e-06	51.869	0.0004988	0.00052818	0.00014468	1382.6	5.6024e-06	5.6371e-06	1382.7	375.6	5.9e-06	5.6586e-06	428.77	143.84	125.09	43.112	5.7697e-06	53.379	-106.061	-71.632	-57.101	-146.926	-23.740	-19.484	-147.221	-142.264	-25.286	-0.145	-142.772	-138.577	-137.860	-133.486	-24.191	-134.222	-8191	255	
19556.074	1	1	0	0	0.20616	0.23117	0.13705	0.3644	0.026286	0.12234	0.14524	0.20666	0.16019	0.081215	0.12627	0.17249	0.21588	0.17532	0.056669	0.17497	-1.7354	-2.475	-2.625	-2.2479	-2.8375	-2.3208	-2.2833	-2.7687	-2.3083	-2.45	-2.775	-2.2062	-2.7229	-2.5021	-2.175	-2.9167	7.209	-41.448	67.622	186.767	143.888	132.133	188.392	151.128	-22.834	-153.274	131.149	110.602	162.280	72.765	-115.110	165.159	0.00039271	0.00052397	0.00014784	1370.3	2.226e-06	6.1709e-06	1364.8	370.06	5.675e-06	4.2452e-06	424.1	140.19	121.91	42.093	4.2905e-06	52.187	0.0005053	0.00052021	0.00014323	1383.9	5.5429e-06	5.5183e-06	1381.3	375.65	5.6844e-06	5.4019e-06	429.25	143.68	124.92	43.072	5.6001e-06	53.506	-108.485	-73.047	-69.453	-147.262	-24.084	-13.132	-147.034	-142.519	-14.798	-8.241	-142.872	-138.684	-138.292	-133.634	-16.797	-134.254	-8191	255	
19556.195	1	1	0	0	0.24498	0.16506	0.24515	0.20828	0.0078114	0.2024	0.26983	0.07418	0.090916	0.23989	0.17973	0.11878	0.071299	0.13516	0.13648	0.057144	-1.8604	-2.3417	-2.8354	-2.3958	-2.7125	-2.7417	-2.4667	-2.9813	-2.2792	-2.4813	-2.9271	-2.2125	-2.7687	-2.725	-2.25	-3.0458	-134.315	-116.979	-76.021	168.486	56.253	56.738	133.166	190.531	1.684	-12.172	-41.689	-90.400	97.378	61.651	-118.294	125.427	0.00038109	0.00047056	0.00015304	1365.1	2.9375e-06	5.3007e-06	1367.8	368.86	4.0944e-06	6.1091e-06	424.1	140.41	122.35	42.123	5.6136e-06	52.2	0.00048947	0.00051247	0.00013987	1382.7	5.5629e-06	5.5409e-06	1382.4	375.33	5.5453e-06	5.6032e-06	429.26	143.45	125.11	43.111	5.5562e-06	53.453	-107.644	-82.289	-52.305	-147.302	-11.602	-19.743	-147.230	-142.479	-44.001	-3.417	-142.976	-138.919	-138.087	-133.487	-5.652	-134.404	-8191	255	
19556.293	1	1	0	0	0.16956	0.18965	0.091183	0.097844	0.042022	0.095878	0.23941	0.17996	0.15803	0.3355	0.23067	0.31218	0.097074	0.053687	0.19696	0.21535	-1.9854	-2.2396	-2.7917	-2.4813	-2.575	-2.8604	-2.2458	-3.0458	-2.425	-2.2083	-2.9042	-2.2313	-2.5938	-2.8583	-2.025	-2.8688	100.234	-8.753	-115.496	24.211	-39.608	98.928	165.645	175.603	121.633	-81.874	-156.067	144.721	8.758	-33.392	-13.458	-34.201	0.00037659	0.00050602	0.00017492	1366.4	4.1705e-06	5.2622e-06	1364.4	369.35	3.7038e-06	3.58e-06	423.11	140.65	122.45	42.056	4.4179e-06	52.265	0.00049692	0.0005203	0.00013632	1381.6	5.627e-06	5.6124e-06	1380.1	375.27	5.3569e-06	5.4819e-06	428.9	143.73	125.28	43.125	5.4976e-06	53.399	-110.220	-77.290	-77.698	-147.076	-3.733	-1.549	-147.150	-142.533	-37.430	-7.002	-143.064	-138.742	-138.274	-133.347	-12.875	-134.117	-8191	255	
19556.389	1	1	0	0	0.2332	0.10236	0.2213	0.060171	0.13805	0.11792	0.14095	0.23832	0.17136	0.35684	0.25528	0.24372	0.069116	0.14445	0.20543	0.085908	-1.8292	-2.2438	-2.725	-2.4417	-2.3979	-2.65	-2.3208	-2.85	-2.4333	-2.1542	-2.9896	-2.475	-2.3583	-2.7479	-2.1542	-2.6729	89.658	168.028	-81.043	35.240	-83.545	-158.119	106.859	93.180	145.083	119.398	31.511	56.384	143.470	-3.710	131.284	92.321	0.00038378	0.00050065	0.00014548	1368.1	6.1671e-06	4.4099e-06	1359.1	369.41	3.7787e-06	5.3525e-06	421.48	140.68	122.43	42.108	3.8729e-06	52.242	0.0004905	0.00050544	0.0001365	1382.5	5.5936e-06	5.2786e-06	1378.6	374.84	5.4908e-06	5.3789e-06	428.67	143.8	125.17	43.085	5.5148e-06	53.481	-106.999	-68.600	-79.620	-147.120	-3.864	-0.768	-147.379	-142.444	-31.939	0.421	-142.930	-138.693	-138.230	-133.346	-18.437	-134.105	-8191	255	
19556.484	1	1	0	0	0.089748	0.073508	0.050716	0.18005	0.25551	0.034774	0.031664	0.54111	0.069939	0.24642	0.14314	0.13768	0.16493	0.15271	0.12281	0.13667	-2.3688	-2.1042	-2.8979	-2.5917	-2.5104	-2.7729	-2.3146	-2.7229	-2.5896	-2.2104	-2.8271	-2.2438	-2.4646	-2.9979	-2.0583	-2.5896	-26.443	-2.177	161.997	118.314	112.215	-34.569	-141.211	155.960	-14.190	-4.875	-63.743	154.162	9.014	129.029	55.527	-136.351	0.00039784	0.00047101	0.00012859	1367.4	3.0199e-06	4.9391e-06	1363.3	368.53	3.4446e-06	5.7349e-06	423.56	140.81	121.96	42.097	3.5559e-06	52.208	0.00050167	0.0005128	0.00013173	1381.7	5.3764e-06	5.4689e-06	1381.7	375.05	5.5839e-06	5.4923e-06	429.16	143.74	124.77	43.157	5.5572e-06	53.415	-108.045	-88.621	-59.437	-147.071	-28.085	-5.085	-147.292	-142.395	-20.361	-10.989	-142.738	-138.606	-138.179	-133.486	-2.108	-134.327	-8191	255	
19556.604	1	1	0	0	0.15947	0.13065	0.038539	0.46719	0.11913	0.10806	0.26264	0.18758	0.14592	0.12032	0.34155	0.093055	0.37102	0.27152	0.11765	0.12574	-2.4021	-2.1167	-2.6542	-2.4646	-2.2708	-2.85	-2.2125	-2.5729	-2.6021	-2.1625	-3.0042	-2.4354	-2.2896	-2.9104	-2.1625	-2.6167	6.759	40.653	-159.264	140.328	127.051	-66.227	185.503	75.182	-57.798	-142.568	146.498	121.151	183.483	178.492	193.647	132.192	0.00038828	0.0005	0.00014557	1365.5	4.3354e-06	5.8491e-06	1366.4	368.22	4.1241e-06	5.5518e-06	421.87	140.57	122.82	42.115	4.1552e-06	52.12	0.00049543	0.00051681	0.00013603	1381.2	5.641e-06	5.4342e-06	1379.4	374.86	5.5129e-06	5.5958e-06	428.11	143.8	125.12	43.167	5.7007e-06	53.468	-105.789	-70.896	-59.194	-147.134	-15.796	-15.774	-147.284	-142.559	-12.663	-0.163	-143.012	-138.819	-137.983	-133.334	-14.527	-134.371	-8191	255	
19556.676	1	1	0	0	0.19314	0.042459	0.10052	0.23137	0.19338	0.35374	0.074099	0.027896	0.26125	0.15086	0.077602	0.19207	0.2081	0.4243	0.16841	0.13251	-2.2687	-2.0312	-2.7646	-2.7917	-2.1854	-2.7875	-2.3542	-2.5479	-2.8542	-2.1979	-2.8042	-2.6875	-2.1562	-3.025	-2.2729	-2.2771	69.081	140.960	-145.901	149.023	161.571	149.352	-154.577	-141.626	61.182	-2.530	-72.410	163.897	141.834	165.245	15.481	196.687	0.00037431	0.00053898	0.00014976	1369.3	3.8724e-06	5.0521e-06	1363.4	368.83	4.9095e-06	7.7766e-06	423.5	140.45	122.02	42.009	5.0712e-06	51.834	0.00049714	0.00050888	0.0001408	1383.3	5.6466e-06	5.481e-06	1380.3	375.37	5.5467e-06	5.7224e-06	428.81	143.85	124.91	43.132	5.679e-06	53.344	-110.763	-87.369	-72.581	-147.228	-14.898	-9.578	-147.053	-142.423	-22.928	-15.901	-142.818	-138.644	-138.188	-133.521	-7.702	-134.213	-8191	255	
19556.771	1	1	0	0	0.11222	0.12987	0.15546	0.246	0.19837	0.1409	0.086758	0.30448	0.088828	0.12795	0.18771	0.034067	0.1769	0.13781	0.1675	0.30923	-2.3479	-2.0208	-2.5667	-2.9125	-2.1	-2.8438	-2.5396	-2.6146	-2.7854	-2.2146	-2.6458	-2.9833	-2.1771	-2.8354	-2.1854	-2.3063	112.720	37.905	-60.330	-107.939	192.471	155.117	113.665	140.020	151.606	-59.414	150.288	-132.428	102.274	87.176	-159.132	-142.815	0.00041426	0.00055965	0.00013347	1366.6	3.7364e-06	5.9564e-06	1365.7	369.63	4.8203e-06	4.8856e-06	422.59	140.31	121.87	42.053	3.6185e-06	52.121	0.00050525	0.00052531	0.00014877	1381.5	5.7447e-06	5.4457e-06	1380.2	374.9	5.6351e-06	5.703e-06	428.49	143.56	124.79	43.129	5.8052e-06	53.313	-106.078	-69.327	-47.245	-147.108	-12.825	-4.703	-147.226	-142.432	-17.119	-24.767	-143.187	-138.561	-138.294	-133.510	-5.084	-134.049	-8191	255	
19556.869	1	1	0	0	0.22343	0.02903	0.28041	0.32751	0.074237	0.16324	0.24841	0.39834	0.040269	0.24199	0.09918	0.19007	0.16818	0.070712	0.14477	0.13799	-2.3354	-1.9792	-2.5021	-2.7687	-2.15	-2.9292	-2.5146	-2.2958	-3.1125	-2.2083	-2.5479	-2.8667	-2.0979	-2.9104	-2.3979	-2.1479	-28.906	2.299	132.804	173.940	89.180	124.444	161.636	177.376	-23.670	-30.244	-125.980	114.804	-52.769	144.226	-149.195	171.137	0.00041037	0.00039632	0.0001255	1372.2	3.0009e-06	6.3388e-06	1366.7	368.1	4.1251e-06	3.7905e-06	420.72	140.02	121.84	42.069	4.0537e-06	52.237	0.00048995	0.00052422	0.00015027	1382.7	5.7894e-06	5.6213e-06	1381.4	374.98	5.6553e-06	5.8766e-06	428.58	143.72	124.87	43.175	5.6346e-06	53.436	-108.946	-83.231	-78.070	-147.088	-13.926	-15.816	-147.207	-142.442	-19.945	-32.712	-142.948	-138.556	-138.162	-133.782	-3.687	-134.329	-8191	255	
19556.986	1	1	0	0	0.12557	0.32259	0.20482	0.1674	0.13554	0.17561	0.31776	0.19331	0.16424	0.065811	0.16874	0.1097	0.13692	0.098698	0.062185	0.083118	-2.5146	-2.2083	-2.3792	-2.9729	-2.175	-2.9333	-2.7208	-2.3229	-2.8604	-2.3146	-2.4958	-2.8146	-2.0604	-2.6146	-2.5021	-2.4417	39.153	-58.947	12.357	176.916	103.956	5.061	142.754	-152.751	39.053	77.149	160.086	160.053	-137.329	197.774	-83.724	162.141	0.00037345	0.00039858	0.0001333	1367.3	3.1527e-06	4.1779e-06	1362.3	368.05	5.6716e-06	6.6278e-06	421.96	140.67	121.74	42.114	3.3066e-06	52.138	0.00049703	0.00052115	0.00014724	1382.1	5.8624e-06	5.9078e-06	1380.5	374.53	5.8366e-06	5.7197e-06	428.34	143.53	124.93	43.128	5.6883e-06	53.327	-107.576	-62.381	-55.378	-147.237	-31.049	-17.199	-147.344	-142.615	-16.525	-4.463	-143.246	-138.617	-138.198	-133.372	-34.322	-133.950	-8191	255	
19557.084	1	1	0	0	0.1551	0.22669	0.23245	0.30313	0.16635	0.18214	0.14587	0.44695	0.14202	0.095305	0.12458	0.17818	0.15905	0.17175	0.12656	0.15363	-2.4354	-2.3521	-2.2271	-3.0271	-2.2958	-2.5563	-2.8667	-2.275	-2.8208	-2.4313	-2.3917	-2.9688	-2.1896	-2.5938	-2.5604	-2.2021	-152.459	-157.800	160.187	-124.128	128.754	28.319	143.856	133.926	-135.255	194.819	123.641	138.007	64.039	148.108	-4.760	193.327	0.00042351	0.00057492	8.7858e-05	1371.4	4.4208e-06	6.0634e-06	1362.3	368.84	3.9479e-06	6.3232e-06	420.73	140.46	121.56	42.172	4.1079e-06	52.142	0.00051615	0.00053687	0.00014815	1382.4	5.7666e-06	5.615e-06	1378.4	374.77	5.8634e-06	5.7976e-06	428.13	143.61	124.64	43.105	5.6819e-06	53.321	-108.212	-69.926	-69.761	-147.053	-20.916	-6.120	-147.245	-142.401	-8.642	3.980	-143.086	-138.433	-138.104	-133.810	-21.206	-134.056	-8191	255	
19557.180	1	1	0	0	0.10008	0.13775	0.34664	0.31067	0.18587	0.30853	0.27558	0.072138	0.12036	0.082015	0.22745	0.16047	0.1856	0.11002	0.072818	0.20563	-2.4313	-2.5354	-2.1417	-2.9646	-2.1833	-2.7021	-3.0604	-2.2958	-2.9062	-2.4604	-2.1771	-2.8792	-2.2542	-2.3854	-2.8021	-2.2021	112.423	0.759	158.078	169.566	66.077	-74.137	106.906	51.942	-93.996	50.841	62.742	-155.082	-87.778	124.659	156.983	-117.640	0.00039786	0.00029202	0.00018234	1367.7	2.4761e-06	5.8981e-06	1362.8	369.58	5.7692e-06	4.8776e-06	420.77	140.07	121.9	42.175	5.1904e-06	51.942	0.00050671	0.00053522	0.00015174	1383.4	5.8428e-06	6.0109e-06	1380.1	375.24	6.2425e-06	5.8368e-06	428.3	143.53	124.96	43.12	5.9471e-06	53.249	-104.814	-60.594	-63.408	-147.103	-14.841	-2.227	-147.143	-142.442	-7.724	5.757	-142.845	-138.595	-138.153	-133.817	1.362	-134.328	-8191	255	
19557.275	1	1	0	0	0.13551	0.16121	0.13828	0.16479	0.28628	0.053742	0.070421	0.094656	0.1482	0.19049	0.20932	0.34173	0.1476	0.30219	0.34364	0.12762	-2.1958	-2.7146	-2.0938	-2.9333	-2.2208	-2.3917	-2.9833	-2.1312	-2.6333	-2.6562	-2.325	-2.9208	-2.3604	-2.4896	-2.9542	-2.4354	190.918	-130.052	62.323	-78.282	-20.078	-73.150	172.988	15.333	9.394	-66.294	-135.435	151.991	-69.915	184.984	-110.748	50.735	0.00035612	0.00048185	9.0812e-05	1369.3	3.8365e-06	5.354e-06	1369.1	368.87	4.3228e-06	5.5461e-06	421.66	140.66	122.11	41.902	4.7137e-06	52.181	0.00051181	0.00054564	0.00015769	1383.9	6.0391e-06	6.1633e-06	1381.6	375.1	5.9592e-06	6.0292e-06	428.58	143.72	125.15	43.016	5.9033e-06	53.374	-109.112	-99.130	-56.779	-147.120	-20.038	-4.157	-147.083	-142.567	6.378	11.095	-143.076	-138.729	-138.277	-133.457	-5.242	-134.100	-8191	255	
19557.371	1	1	0	0	0.051153	0.27855	0.10136	0.3457	0.31149	0.075638	0.1024	0.11093	0.073838	0.19005	0.21739	0.3209	0.094327	0.33025	0.16275	0.30195	-2.1104	-2.6958	-2.0875	-3.0333	-2.3979	-2.4542	-3.2417	-2.3833	-2.6896	-2.775	-2.1292	-2.8167	-2.4729	-2.2583	-2.8604	-2.2854	157.427	-126.877	113.449	183.403	81.392	166.983	118.760	139.279	95.548	82.570	-102.307	101.711	182.641	112.681	114.080	157.141	0.0004089	0.00045154	0.00012818	1369.4	2.9732e-06	5.2009e-06	1365.4	369.58	4.8317e-06	6.7677e-06	422.13	140.96	121.94	42.102	5.0642e-06	51.87	0.0005273	0.00054069	0.00015235	1384.3	5.8624e-06	6.0419e-06	1381.1	375.7	6.1016e-06	5.9937e-06	428.82	143.56	124.79	42.996	5.9136e-06	53.232	-104.873	-73.842	-57.693	-147.088	-25.523	-15.829	-147.006	-142.544	-6.966	-6.245	-142.752	-138.520	-137.899	-133.311	6.110	-134.141	-8191	255	
19557.469	1	1	0	0	0.11601	0.18009	0.20052	0.46446	0.17703	0.14708	0.17327	0.15616	0.14163	0.025806	0.20362	0.30234	0.096662	0.25191	0.17198	0.083753	-2.0646	-2.6667	-2.2083	-2.9771	-2.5417	-2.2021	-2.9771	-2.4354	-2.4437	-2.8208	-2.2854	-2.7438	-2.5292	-2.225	-2.7146	-2.4813	-50.158	-10.226	-4.566	169.216	-78.200	55.281	161.426	-144.536	86.234	165.653	144.392	189.672	-81.791	159.439	-79.058	-20.661	0.00039872	0.00042326	0.00013371	1372.3	3.2537e-06	5.4647e-06	1365.3	369.71	4.2166e-06	4.897e-06	421.09	140.12	121.6	41.933	3.5753e-06	52.167	0.00052014	0.00054503	0.00015993	1385.1	6.1786e-06	6.1139e-06	1381.6	374.74	6.1744e-06	6.0067e-06	428.72	143.37	124.48	43.016	5.8707e-06	53.371	-105.310	-84.136	-94.189	-146.984	-16.097	-3.376	-146.789	-142.214	-23.703	-19.277	-142.775	-138.460	-137.732	-133.174	-2.200	-134.071	-8191	255	
19557.590	1	1	0	0	0.29335	0.1565	0.094992	0.22147	0.19581	0.041716	0.33947	0.1429	0.13232	0.12266	0.47302	0.056651	0.14753	0.2319	0.069541	0.10561	-1.7354	-2.6542	-2.0354	-2.6958	-2.6354	-2.0812	-2.9	-2.4021	-2.2521	-2.9021	-2.3917	-2.5896	-2.7771	-2.0646	-2.725	-2.6437	56.652	23.242	-68.067	158.568	74.014	-104.560	151.871	103.064	-118.902	11.709	-160.108	183.472	-148.021	-158.597	194.170	99.560	0.0004103	0.00041309	0.00014439	1370.5	4.8016e-06	5.4397e-06	1369.3	370.66	3.1948e-06	5.6755e-06	420.38	139.54	121.77	41.99	3.779e-06	51.971	0.00053641	0.00054008	0.00015807	1384.5	6.0466e-06	6.0708e-06	1380.8	375.74	6.2486e-06	5.932e-06	428.37	143.3	124.95	43.013	5.9313e-06	53.232	-109.435	-62.979	-68.544	-146.960	-19.390	-9.305	-146.878	-142.315	-11.283	-8.268	-142.760	-138.544	-137.614	-133.534	1.611	-133.830	-8191	255	
19557.684	1	1	0	0	0.3574	0.26783	0.16993	0.10842	0.23954	0.32786	0.15818	0.31447	0.054605	0.17637	0.055083	0.093846	0.043835	0.072028	0.20358	0.30276	-1.9125	-2.7604	-2.1875	-2.5604	-2.8229	-2.1042	-2.9437	-2.8875	-2.1917	-2.8125	-2.3604	-2.6437	-2.8229	-2.1854	-2.7938	-2.6667	-13.722	-44.147	132.689	123.280	40.043	-83.665	163.517	136.359	66.530	145.779	75.337	38.262	-138.515	-9.981	13.099	129.174	0.00040555	0.00059351	0.00014244	1370.8	4.833e-06	4.6025e-06	1362.3	369.13	2.8189e-06	5.3836e-06	423.17	139.91	122.04	42.003	2.4755e-06	52.067	0.00051989	0.00054706	0.00015091	1382.3	5.9182e-06	5.9998e-06	1380.4	374.9	5.8108e-06	5.8452e-06	428.91	143.17	124.76	43.014	5.9599e-06	53.263	-107.882	-64.837	-76.364	-147.049	2.103	-19.320	-146.898	-142.158	-5.247	-9.153	-142.813	-138.471	-137.780	-133.448	-13.449	-134.814	-8191	255	
19557.779	1	1	0	0	0.1958	0.22453	0.17003	0.14714	0.17368	0.15871	0.28584	0.39218	0.12135	0.16679	0.075168	0.35824	0.39014	0.20494	0.089162	0.073692	-1.7458	-2.8958	-2.0958	-2.6292	-2.75	-2.1083	-2.6437	-2.6979	-1.9854	-2.8417	-2.5354	-2.4708	-2.9188	-2.1083	-2.5896	-2.7375	-84.480	-21.565	-63.559	115.266	-28.302	24.810	167.938	121.832	155.257	-160.742	179.699	121.695	171.017	32.472	-116.749	-0.037	0.0003858	0.00044136	0.00013361	1373.8	3.9721e-06	6.6136e-06	1362.6	367.35	4.5605e-06	5.8121e-06	422.56	139.99	121.5	41.878	3.1584e-06	51.683	0.00051835	0.00052903	0.00015111	1383.4	5.7145e-06	5.8274e-06	1379.8	374.3	5.8178e-06	5.5958e-06	428.19	143.31	124.71	42.98	5.814e-06	53.179	-107.084	-64.799	-66.591	-147.968	-1.510	-0.926	-148.137	-143.148	-14.904	-3.067	-143.788	-139.522	-138.680	-134.201	-7.036	-134.899	-8191	255	
19557.900	1	1	0	0	0.19745	0.052838	0.14508	0.37141	0.1466	0.195	0.38266	0.22677	0.49397	0.15081	0.10899	0.20523	0.26643	0.17071	0.12477	0.22005	-1.5438	-2.6958	-2.5	-2.6042	-2.6021	-2.1292	-2.5875	-2.7125	-1.9813	-2.7917	-2.4375	-2.2229	-2.9146	-2.3479	-2.5458	-2.7042	-148.956	39.510	31.075	160.126	-37.279	20.443	134.095	140.950	-39.709	-23.290	40.761	158.145	-45.418	-118.399	-48.955	147.845	0.0004074	0.00047556	0.00011747	1364.3	4.134e-06	7.0371e-06	1365.9	369.45	4.2057e-06	5.8027e-06	423.4	139.78	121.93	41.82	4.4524e-06	52.03	0.00050666	0.00052502	0.00015349	1380.9	5.6824e-06	5.9862e-06	1381	374.81	5.8742e-06	5.8661e-06	428.25	143.1	124.58	42.917	5.8027e-06	53.224	-106.519	-91.053	-76.005	-147.887	-3.846	-12.916	-147.260	-142.300	-5.283	9.256	-142.873	-138.620	-138.316	-133.288	-5.123	-134.190	-8191	255	
19557.973	1	1	0	0	0.21938	0.14608	0.25995	0.086424	0.17875	0.28754	0.28397	0.20297	0.16102	0.20888	0.098454	0.087279	0.064269	0.20317	0.09197	0.26757	-1.5521	-2.7458	-2.3021	-2.1854	-2.8375	-2.3604	-2.5833	-2.6583	-2.05	-2.6813	-2.4771	-2.25	-2.975	-2.3292	-2.3104	-2.8812	-19.343	20.676	109.962	-124.455	-48.611	195.417	113.270	117.039	102.180	36.420	107.647	53.316	147.141	186.691	49.237	102.330	0.00038908	0.00051636	0.00011616	1365	3.8647e-06	3.9311e-06	1365.5	368.34	5.3629e-06	7.0828e-06	420.3	139.78	121.06	41.646	4.1293e-06	51.976	0.00051328	0.0005305	0.0001486	1380.1	5.6387e-06	5.8921e-06	1379.1	374.09	6.0151e-06	5.7966e-06	427.51	143.08	124.32	42.836	5.9422e-06	53.195	-107.295	-80.110	-48.127	-147.252	-13.442	7.136	-147.299	-142.368	-12.262	-17.172	-142.815	-138.482	-137.985	-133.536	0.100	-134.128	-8191	255	
19558.068	1	1	0	0	0.38683	0.15103	0.13635	0.54607	0.021542	0.14443	0.15167	0.17572	0.24157	0.16979	0.11703	0.073995	0.17409	0.28615	0.077084	0.10473	-1.7646	-2.6042	-2.7146	-2.4083	-2.8333	-2.1979	-2.5458	-2.9396	-2.0687	-2.6042	-2.8479	-2.3083	-2.9333	-2.3979	-2.25	-2.9229	46.483	102.847	83.407	181.262	-129.328	-93.812	-127.946	159.186	-10.689	17.867	134.057	144.231	110.255	146.721	-28.684	36.547	0.00036805	0.00049151	0.00019826	1364.5	3.3559e-06	7.5588e-06	1362.4	368.61	3.2548e-06	5.7792e-06	420.5	139.61	121.57	42.073	3.482e-06	51.999	0.00050606	0.0005439	0.00015124	1380.9	5.7768e-06	5.9283e-06	1376.8	374.36	6.0776e-06	5.9837e-06	427.53	143.02	124.57	42.921	5.7455e-06	53.191	-105.884	-71.866	-81.808	-147.317	-26.074	-2.705	-147.274	-142.371	-31.038	-9.157	-142.942	-138.726	-138.211	-133.563	-35.734	-134.020	-8191	255	
19558.164	1	1	0	0	0.14849	0.12407	0.17968	0.3673	0.021562	0.24394	0.29961	0.31546	0.459	0.27744	0.16221	0.1913	0.18645	0.25956	0.094058	0.21912	-1.5854	-2.6104	-2.8083	-2.15	-2.7708	-2.4521	-2.3854	-2.95	-2.2146	-2.5521	-2.8729	-2.2687	-2.8854	-2.5438	-2.1542	-2.8542	-139.553	-39.496	-34.214	169.948	23.845	-51.113	-150.927	131.308	119.498	42.860	-148.270	-122.057	-140.902	49.029	59.778	-77.917	0.00041554	0.0005273	0.00017542	1365.7	3.0156e-06	3.8088e-06	1365.6	369.77	4.0535e-06	4.7573e-06	421.8	140.45	121.2	41.949	5.2495e-06	51.883	0.00053264	0.0005522	0.00014501	1379.3	5.8475e-06	6.0256e-06	1378.2	374.76	5.8822e-06	5.9916e-06	427.72	143.19	124.49	42.87	5.9407e-06	53.104	-112.489	-82.740	-61.285	-147.375	10.236	-24.066	-147.342	-142.356	-9.406	-19.899	-142.945	-138.903	-138.111	-133.479	-40.522	-134.250	-8191	255	
19558.285	1	1	0	0	0.29816	0.037995	0.12365	0.21265	0.095604	0.36965	0.085081	0.3187	0.15381	0.22945	0.2691	0.25868	0.076837	0.32001	0.086266	0.25111	-1.9167	-2.4125	-2.7604	-2.3208	-2.7396	-2.4917	-2.3187	-2.7188	-2.0521	-2.3583	-2.9625	-2.2875	-2.6833	-2.6521	-2.0083	-2.7625	-93.512	24.584	138.136	110.214	176.735	-72.797	-146.639	132.721	20.807	177.429	-124.228	189.625	136.386	166.717	192.711	84.086	0.00038885	0.00043287	0.00011963	1366.3	4.4604e-06	5.0827e-06	1361.5	368.44	3.8939e-06	3.5208e-06	422.34	139.39	121.51	41.853	4.2858e-06	51.88	0.00051734	0.00055008	0.00015199	1379.7	6.0228e-06	5.9688e-06	1378.5	374.47	6.0837e-06	6.0637e-06	427.45	142.66	124.33	42.903	5.8806e-06	53.108	-107.388	-78.362	-84.101	-147.208	-18.309	-1.082	-147.398	-142.400	-31.648	-16.945	-142.816	-138.802	-138.148	-133.588	-37.753	-134.020	-8191	255	
19558.381	1	1	0	0	0.10555	0.098359	0.41093	0.11197	0.23923	0.074664	0.19928	0.31292	0.38692	0.24169	0.51452	0.2042	0.16316	0.095553	0.20224	0.23663	-2.1292	-2.2333	-2.825	-2.2687	-2.5479	-2.7062	-2.0938	-2.7125	-2.2271	-2.2333	-2.9354	-2.0729	-2.5792	-2.8646	-2.0542	-2.7833	37.475	30.320	59.449	128.173	187.660	190.970	-130.605	122.489	182.446	-110.366	113.557	121.064	-152.514	-159.662	-57.972	59.691	0.00036918	0.00043097	0.00010723	1366.2	3.0094e-06	5.6467e-06	1361.9	366.04	4.6827e-06	4.9267e-06	421.42	139.65	121.23	42.072	3.4994e-06	51.826	0.00051214	0.00053569	0.00014701	1378.9	5.7559e-06	5.9846e-06	1376.7	373.32	5.9221e-06	5.8656e-06	427.51	143	124.32	42.984	5.7899e-06	53.092	-104.591	-86.120	-67.711	-147.084	-31.050	-3.941	-147.237	-142.547	-18.108	-7.509	-142.869	-138.517	-138.216	-133.355	-22.027	-134.067	-8191	255	
19558.477	1	1	0	0	0.16677	0.38998	0.11541	0.29118	0.059405	0.22066	0.39666	0.13306	0.09765	0.11572	0.21893	0.14533	0.22331	0.31795	0.18309	0.10592	-2.0375	-2.1979	-2.7146	-2.3375	-2.6229	-2.7396	-2.1813	-2.7979	-2.5062	-2.0854	-2.9792	-2.3604	-2.5208	-2.8208	-2.1229	-2.7104	69.438	51.260	-122.554	198.472	19.577	-40.450	164.676	78.689	109.766	129.302	-104.397	150.829	-23.738	19.857	17.916	-152.112	0.00039927	0.00055221	0.00014438	1361.4	4.7416e-06	5.4201e-06	1359.3	368.49	2.8872e-06	4.3934e-06	422.52	139.39	121.45	41.92	4.6915e-06	51.85	0.00051057	0.00053956	0.00014423	1377.9	5.9586e-06	5.7286e-06	1376.3	374.27	5.8643e-06	6.035e-06	427.89	142.58	124.44	42.877	5.9279e-06	53.154	-104.686	-75.658	-71.646	-147.085	-8.825	-9.480	-147.122	-142.391	-37.046	-8.042	-142.678	-138.668	-138.244	-133.352	0.645	-134.360	-8191	255	
19558.549	1	1	0	0	0.083624	0.13965	0.12303	0.3385	0.27201	0.14976	0.047896	0.21195	0.32005	0.37262	0.096248	0.17124	0.10349	0.14097	0.014098	0.27652	-1.9708	-1.9854	-2.8583	-2.3521	-2.375	-2.9	-2.2562	-2.6417	-2.6417	-2.3396	-2.8875	-2.4771	-2.4125	-2.8063	-2.1229	-2.7687	5.503	-51.212	110.085	167.822	113.499	92.246	44.673	137.169	-90.023	64.182	80.082	137.418	142.895	130.198	164.104	-66.835	0.00039299	0.00047104	0.0001634	1361.2	3.3256e-06	5.3811e-06	1359.1	368.78	3.6908e-06	3.9175e-06	421.62	139.17	121.4	41.972	4.2665e-06	51.977	0.00050991	0.00054357	0.0001512	1377.2	5.9326e-06	5.7501e-06	1374.2	374.04	5.9127e-06	5.7893e-06	426.72	142.6	124.15	42.871	5.9412e-06	53.167	-105.894	-70.873	-67.052	-147.167	-34.433	-19.723	-147.129	-142.503	-9.972	4.542	-142.663	-138.581	-138.325	-133.320	-14.177	-134.503	-8191	255	
19558.668	1	1	0	0	0.03017	0.28118	0.30205	0.25832	0.09104	0.13862	0.15188	0.22161	0.22042	0.014371	0.14453	0.22493	0.074364	0.2436	0.23213	0.16727	-2.0958	-2.0292	-2.8542	-2.6208	-2.3187	-2.8812	-2.5438	-2.7417	-2.7479	-2.2042	-2.7958	-2.3708	-2.1937	-3.0458	-2.1562	-2.4896	-36.611	179.245	-5.668	183.111	-115.556	-114.656	96.796	155.558	164.203	-11.680	-139.903	155.218	62.682	-71.652	151.013	-157.526	0.00040189	0.00053593	0.00011552	1358.9	4.4218e-06	4.8765e-06	1358.1	367.81	4.2453e-06	5.8188e-06	421.75	138.81	121.31	41.822	4.4228e-06	51.61	0.00050804	0.00055244	0.00015296	1376.7	5.9349e-06	5.9541e-06	1374.9	373.76	5.9695e-06	6.1772e-06	427.26	142.53	124.17	42.827	5.991e-06	53.096	-107.084	-74.634	-58.082	-147.142	-2.036	-7.929	-147.090	-142.597	-9.143	4.646	-143.129	-138.436	-138.065	-133.548	-13.962	-134.356	-8191	255	
19558.764	1	1	0	0	0.17194	0.11197	0.094081	0.28655	0.11397	0.18564	0.14734	0.20883	0.13966	0.16923	0.20632	0.2682	0.20966	0.095787	0.21983	0.16063	-2.4167	-2.2521	-2.7146	-2.7104	-2.2396	-2.8875	-2.4708	-2.6146	-2.7354	-2.1917	-2.7438	-2.7167	-2.2	-2.8729	-2.2458	-2.4854	99.157	73.800	-123.292	153.545	-120.969	7.397	195.931	184.960	182.475	-37.543	157.150	110.916	81.557	81.051	-139.044	-18.406	0.00040962	0.00050135	0.00017548	1363.1	4.1462e-06	3.7974e-06	1358.9	367.86	3.7327e-06	6.6594e-06	421.48	139.78	121.43	41.792	4.8072e-06	51.822	0.0005193	0.00055551	0.00015131	1378.6	5.8675e-06	5.5777e-06	1375.6	374.18	5.6581e-06	6.1787e-06	427.54	142.81	124.37	42.862	5.9067e-06	53.028	-105.744	-63.932	-64.812	-147.252	-14.387	-16.392	-147.274	-142.490	-8.797	-14.224	-142.999	-138.749	-138.176	-133.486	-17.821	-134.328	-8191	255	
19558.861	1	1	0	0	0.16143	0.19658	0.09252	0.40687	0.10215	0.10251	0.27901	0.28016	0.24889	0.022289	0.31374	0.121	0.12399	0.12529	0.20248	0.14196	-2.3333	-2.2333	-2.6021	-2.8875	-1.95	-2.8625	-2.4625	-2.5542	-2.6354	-2.1688	-2.7812	-2.8167	-2.1312	-2.8896	-2.4979	-2.5583	4.764	126.585	11.203	170.092	101.967	91.102	177.249	170.522	31.214	120.743	-138.780	-92.631	-69.700	-140.036	112.065	-101.714	0.00038719	0.00062483	0.00011616	1363.6	3.9454e-06	3.7346e-06	1358.6	368.11	3.1285e-06	6.3783e-06	421.81	139.6	121.57	41.883	3.7575e-06	52.002	0.00050674	0.00052181	0.00014948	1378.1	5.907e-06	5.7165e-06	1375.6	373.91	5.8587e-06	5.7877e-06	427.29	143.07	124.34	42.901	5.8697e-06	53.147	-109.293	-66.257	-59.679	-147.290	-18.718	-10.390	-147.373	-142.422	-25.059	-17.748	-143.092	-138.710	-138.372	-133.473	-23.437	-134.136	-8191	255	
19558.980	1	1	0	0	0.18614	0.14849	0.050067	0.16303	0.069648	0.038292	0.098279	0.16832	0.13758	0.036449	0.46136	0.054584	0.22839	0.11119	0.037179	0.12174	-2.7167	-2.1354	-2.55	-2.8438	-2.0563	-2.7562	-2.5125	-2.4104	-2.8667	-2.2771	-2.4625	-2.6396	-2.2833	-2.8104	-2.3771	-2.2708	97.854	-58.647	62.002	186.784	-111.351	-29.817	-157.877	-60.554	-100.402	-35.117	114.852	42.715	167.133	-157.946	-134.375	152.789	0.00041508	0.00041762	0.00015308	1363.6	5.2238e-06	7.3504e-06	1359.9	367.95	3.8708e-06	5.5375e-06	419.44	140.01	121.84	41.909	4.7087e-06	51.798	0.00050441	0.00053743	0.00014627	1377.3	5.7996e-06	5.7075e-06	1376	374.03	5.6928e-06	5.9858e-06	426.6	143.05	124.48	42.93	5.8278e-06	53.084	-104.404	-80.399	-65.638	-147.144	-17.140	-11.908	-147.636	-143.266	-15.156	-8.700	-143.685	-139.402	-139.016	-134.374	-8.060	-135.119	-8191	255	
19559.076	1	1	0	0	0.12903	0.1459	0.24438	0.30183	0.29042	0.16413	0.38516	0.24121	0.14414	0.21767	0.1386	0.28333	0.10769	0.15098	0.1512	0.18205	-2.5312	-2.2542	-2.4271	-2.7812	-2.1208	-2.5687	-2.6417	-2.1625	-2.6354	-2.3354	-2.325	-2.7562	-2.0812	-2.4896	-2.5333	-2.2729	-78.292	-6.156	31.323	174.661	61.754	173.500	159.748	188.845	50.003	82.615	-122.552	66.562	-145.533	154.964	80.056	-36.024	0.00041417	0.00055729	0.00011717	1364.5	3.7112e-06	6.5828e-06	1361.1	366.58	4.734e-06	4.9866e-06	422.5	139.74	121.01	41.889	4.2389e-06	51.96	0.00051116	0.00053894	0.00015281	1379.4	5.9861e-06	5.7475e-06	1377.7	373.6	5.6844e-06	6.1181e-06	428.01	142.86	124.3	42.936	5.6775e-06	53.161	-108.203	-67.957	-89.234	-147.895	-15.494	-6.701	-148.060	-143.366	-26.137	-29.155	-143.837	-139.417	-138.688	-134.457	-16.460	-134.816	-8191	255	
19559.174	1	1	0	0	0.33275	0.36165	0.22502	0.44914	0.054158	0.30022	0.15934	0.43964	0.12645	0.022144	0.095923	0.050013	0.4497	0.26521	0.086861	0.17808	-2.4833	-2.55	-2.225	-2.8812	-1.9771	-2.4062	-2.9542	-2.1271	-2.8583	-2.3083	-2.3521	-2.9458	-2.1708	-2.575	-2.65	-2.325	-102.551	-11.633	66.716	112.924	-92.714	-153.973	29.585	131.085	-28.224	54.239	144.330	-57.919	-160.205	132.406	7.420	-119.514	0.00040764	0.00048786	0.00011128	1361.7	4.6406e-06	6.2143e-06	1354.9	366.99	5.2646e-06	5.0938e-06	420.07	139.49	121.36	41.711	4.102e-06	51.712	0.00050959	0.00054135	0.0001435	1376	5.9266e-06	5.7296e-06	1373.3	373.44	5.5834e-06	5.5775e-06	426.97	142.89	124.04	42.748	5.9067e-06	53.073	-106.357	-83.175	-52.003	-148.027	-12.642	-13.504	-148.000	-143.278	-23.901	-9.225	-143.681	-139.359	-138.963	-134.347	-4.696	-135.079	-8191	255	
19559.270	1	1	0	0	0.24549	0.063037	0.098492	0.060193	0.29624	0.1838	0.096171	0.37161	0.16819	0.056312	0.047665	0.096504	0.33705	0.15577	0.1279	0.18793	-2.1917	-2.4188	-1.9688	-3.05	-2.1125	-2.3333	-3.0438	-2.1771	-2.7271	-2.4521	-2.2604	-3.0667	-2.2104	-2.4146	-2.6542	-2.2083	-29.237	-147.867	197.756	128.573	-38.486	46.079	-101.207	-152.327	49.143	-150.611	-127.662	-98.734	184.752	139.352	-120.712	-109.579	0.00040372	0.0005237	0.00015473	1362.7	5.1012e-06	7.0844e-06	1354	367.85	5.0838e-06	5.1857e-06	421.55	139.19	121.2	41.987	5.3629e-06	51.8	0.00048944	0.00052295	0.00014738	1377.9	5.9089e-06	5.7096e-06	1374.8	373.5	5.8958e-06	5.4343e-06	427	142.94	124.01	42.895	5.643e-06	53.086	-106.163	-88.613	-58.772	-148.041	-3.385	-12.001	-148.308	-143.474	-22.282	3.928	-143.903	-139.457	-139.068	-134.582	-22.503	-134.995	-8191	255	
19559.365	1	1	0	0	0.044299	0.13296	0.138	0.26417	0.15425	0.15496	0.26518	0.2061	0.11131	0.29617	0.22173	0.24602	0.1593	0.3102	0.29064	0.24886	-2.2708	-2.5292	-2.1854	-3.0333	-2.3812	-2.375	-2.9146	-2.2062	-2.6104	-2.6417	-2.1604	-2.9229	-2.3563	-2.5	-2.5687	-2.1833	-57.810	94.083	-31.294	165.842	-137.814	-120.969	126.650	97.284	-26.057	-106.581	163.754	131.888	-146.402	167.337	-101.685	140.022	0.00039331	0.00050293	0.00012262	1368.1	3.8807e-06	6.2916e-06	1361.1	366.61	3.1193e-06	4.5695e-06	421.33	139.56	121.52	41.822	4.4527e-06	51.87	0.00049798	0.000528	0.00014824	1379.3	5.8619e-06	5.86e-06	1374.9	373.51	5.9653e-06	6.0209e-06	427.52	143.05	124.25	42.862	5.6829e-06	53.073	-107.714	-63.565	-66.794	-147.935	8.303	-11.209	-148.145	-143.416	-19.877	-9.138	-143.857	-139.753	-138.963	-134.538	-13.303	-134.960	-8191	255	
19559.461	1	1	0	0	0.089099	0.026722	0.15931	0.25564	0.1087	0.082821	0.37004	0.13313	0.070367	0.22816	0.19446	0.14768	0.098097	0.35543	0.13873	0.1354	-2.1458	-2.5062	-1.9146	-2.8312	-2.5125	-2.1875	-3.0417	-2.3208	-2.3792	-2.6854	-2.1042	-2.9729	-2.4479	-2.0187	-2.7292	-2.3271	49.469	8.780	146.180	160.525	137.733	134.858	153.367	-117.981	-10.789	-122.412	117.462	31.114	-56.479	-124.465	-113.352	117.225	0.00039073	0.0003241	9.5239e-05	1359.6	3.7855e-06	4.2425e-06	1358	366.59	4.9396e-06	5.1073e-06	420.81	139.54	121.4	41.81	3.9398e-06	51.683	0.00049473	0.00051964	0.0001459	1376.4	5.7656e-06	5.6003e-06	1374.7	373.57	5.8319e-06	5.6021e-06	426.79	142.83	124.31	42.894	5.6484e-06	53.059	-105.140	-78.431	-75.721	-147.895	-11.449	-21.993	-147.980	-143.141	-21.107	8.951	-143.677	-139.344	-138.571	-134.252	-14.956	-134.809	-8191	255	
19559.582	1	1	0	0	0.10204	0.074022	0.094998	0.32047	0.3859	0.20459	0.20114	0.16007	0.14205	0.12769	0.28029	0.038169	0.085627	0.29246	0.23916	0.18931	-2.0438	-2.6167	-1.9729	-2.8167	-2.4958	-2.1104	-2.9354	-2.3604	-2.3271	-2.7979	-2.4292	-2.6333	-2.5438	-2.2875	-2.7917	-2.2	-101.995	-156.057	53.002	179.815	119.690	-55.372	127.591	126.070	-76.247	-90.324	-144.294	-44.188	197.472	118.370	-59.461	-135.722	0.00043296	0.00044427	0.00012765	1359.8	4.0673e-06	5.6825e-06	1357.5	366.5	3.2019e-06	4.9703e-06	420.6	140.35	120.91	41.894	5.3035e-06	51.794	0.00051385	0.00052493	0.0001438	1375.6	5.6875e-06	5.901e-06	1374.2	373.3	5.8023e-06	5.6554e-06	426.92	143.12	124.1	42.881	5.8574e-06	53.105	-107.694	-85.149	-71.820	-147.926	-18.958	-39.709	-147.964	-143.101	-8.918	-20.227	-143.684	-139.628	-138.694	-134.322	-0.612	-134.882	-8191	255	
19559.676	1	1	0	0	0.16411	0.21605	0.11996	0.1263	0.08042	0.17214	0.18585	0.30736	0.21535	0.10278	0.43192	0.10808	0.16661	0.10463	0.12384	0.19446	-1.8937	-2.8125	-2.1208	-2.7583	-2.4667	-2.2729	-3.0333	-2.4313	-2.3104	-2.7792	-2.3896	-2.5812	-2.6375	-2.0125	-2.8042	-2.525	-13.966	93.339	92.790	-143.876	88.175	-20.510	159.286	121.819	-76.066	101.747	138.715	-55.612	165.418	-141.202	-111.865	-151.033	0.000409	0.00028012	0.00014258	1360.8	3.4244e-06	3.3692e-06	1354.9	367.07	4.5344e-06	5.2549e-06	420.35	139.63	121.34	41.575	5.7414e-06	51.828	0.00051059	0.00052129	0.0001483	1376.9	5.6856e-06	5.7496e-06	1372.8	373.38	5.8653e-06	5.6042e-06	426.93	142.91	124.26	42.858	5.7524e-06	53.079	-106.693	-70.623	-75.448	-147.967	-12.335	-19.950	-147.797	-143.161	-12.063	-22.985	-143.559	-139.566	-138.936	-134.545	-18.738	-134.728	-8191	255	
19559.771	1	1	0	0	0.22317	0.023032	0.094	0.073953	0.086593	0.22765	0.072793	0.17203	0.13136	0.19186	0.096079	0.24211	0.16144	0.085515	0.065793	0.16424	-1.8146	-2.7917	-2.1167	-2.7125	-2.7125	-2.2521	-2.8458	-2.5271	-2.1875	-2.7208	-2.2417	-2.4292	-2.7438	-2.2625	-2.7979	-2.5312	-111.144	-146.843	74.702	143.560	10.597	36.383	102.847	76.517	-73.122	-87.100	177.354	-50.066	-147.501	195.609	-111.819	-109.651	0.000382	0.00041171	0.00014674	1362.3	3.2201e-06	5.0171e-06	1355.3	367.91	3.146e-06	5.1381e-06	420.06	138.99	121.04	41.52	4.3296e-06	51.949	0.0004995	0.00052134	0.00014622	1376.7	5.5796e-06	5.9646e-06	1373.8	373.62	5.7816e-06	5.6445e-06	426.69	143.01	124.21	42.794	5.7845e-06	53.152	-107.580	-66.804	-65.781	-148.013	-20.040	-11.588	-147.850	-143.077	-21.289	-12.202	-143.680	-139.531	-138.746	-134.008	-13.377	-134.727	-8191	255	
19559.844	1	1	0	0	0.22421	0.17683	0.18689	0.36258	0.065256	0.19451	0.26164	0.098523	0.070315	0.25155	0.22661	0.29426	0.098195	0.21797	0.25657	0.16047	-1.8042	-2.5458	-2.1771	-2.5187	-2.8021	-2.1312	-2.6312	-2.6396	-2.225	-2.5792	-2.2271	-2.3958	-2.8854	-2.1521	-2.6021	-2.6896	-54.987	-111.385	-45.082	191.157	-106.877	168.419	169.835	73.980	113.503	132.523	184.447	155.085	-36.620	138.736	51.133	74.060	0.00039411	0.00050057	0.00013451	1359	3.0846e-06	4.9001e-06	1357.7	367.18	4.4254e-06	2.4067e-06	421.57	139.76	121.07	41.691	4.5416e-06	52.129	0.00051322	0.00052257	0.00015166	1376.6	5.8373e-06	5.7664e-06	1374.3	373.63	5.9207e-06	5.496e-06	427.22	142.82	124.18	42.783	5.8776e-06	53.23	-108.191	-63.113	-75.545	-147.862	-15.593	-12.096	-147.952	-143.023	-25.460	27.738	-143.609	-139.515	-139.000	-134.199	-17.265	-135.112	-8191	255	
19559.965	1	1	0	0	0.2025	0.14351	0.047848	0.19184	0.18673	0.046052	0.15515	0.20721	0.16685	0.056892	0.27535	0.16953	0.01714	0.38175	0.12743	0.2774	-1.6313	-2.7354	-2.3563	-2.3979	-2.8479	-2.0917	-2.6437	-2.8771	-2.2292	-2.9146	-2.5438	-2.4729	-2.95	-2.1417	-2.3812	-2.5896	84.828	51.632	177.997	126.982	83.360	-106.991	194.322	136.502	145.719	129.235	142.685	-135.965	185.565	-153.447	60.248	109.967	0.00039648	0.00054102	0.00014193	1363.8	3.3607e-06	4.3562e-06	1356.4	365.31	4.5648e-06	5.5408e-06	420.69	139.21	121.11	41.868	4.3843e-06	51.7	0.00051084	0.00051974	0.00014664	1378.1	5.5354e-06	5.7943e-06	1374.1	373.02	5.9399e-06	5.6748e-06	427.43	142.87	124.22	42.924	5.8554e-06	53.087	-108.227	-98.411	-75.454	-147.995	-9.021	-33.830	-148.204	-143.134	-29.095	-6.865	-143.891	-139.555	-138.865	-134.301	-24.676	-135.100	-8191	255	
19560.061	1	1	0	0	0.079175	0.085951	0.22274	0.14188	0.22111	0.11924	0.43685	0.33959	0.21451	0.17165	0.18781	0.34371	0.064726	0.31705	0.34084	0.19395	-1.6729	-2.6937	-2.2104	-2.4313	-2.7667	-2.1813	-2.6917	-2.7979	-2.0021	-2.725	-2.6917	-2.2938	-2.85	-2.3167	-2.4521	-2.8438	193.540	22.674	-63.966	172.533	188.749	-63.889	157.925	137.939	63.677	-102.166	173.185	-129.330	4.945	131.740	-91.631	106.712	0.00039645	0.00048157	9.4169e-05	1362.9	2.6386e-06	3.8311e-06	1357.8	367.57	4.2524e-06	4.8139e-06	419.02	139.2	121.33	41.623	4.1594e-06	51.813	0.00051103	0.00053578	0.00014648	1376.9	5.6568e-06	5.799e-06	1374.8	373.42	5.8526e-06	5.8991e-06	426.21	142.62	124.33	42.825	5.8402e-06	53.116	-107.250	-55.417	-76.566	-147.839	-0.211	-6.261	-147.913	-143.196	1.561	-24.136	-143.937	-139.398	-138.990	-134.239	-16.170	-135.145	-8191	255	
19560.156	1	1	0	0	0.051671	0.3406	0.068483	0.071073	0.15281	0.28836	0.14951	0.3502	0.21816	0.036827	0.13707	0.1483	0.2679	0.028017	0.15367	0.18462	-1.5396	-2.5604	-2.5812	-2.2729	-2.8063	-2.4417	-2.3479	-2.9208	-1.9646	-2.7333	-2.625	-2.3438	-2.8083	-2.3104	-2.2042	-2.9146	-51.591	-106.395	-35.721	-118.633	-46.432	-77.512	-155.025	165.126	114.742	135.713	183.186	75.236	153.303	74.164	-89.378	127.359	0.00039238	0.00035978	9.4749e-05	1357.2	4.3797e-06	5.3051e-06	1359.8	368	3.4717e-06	3.8527e-06	422.35	139.19	120.99	41.934	3.7505e-06	52.046	0.00050902	0.00052851	0.00015105	1376.3	5.6052e-06	5.758e-06	1377	374.1	5.6722e-06	5.6727e-06	427.06	142.94	123.99	42.953	5.8653e-06	53.256	-108.254	-68.569	-85.425	-148.154	-16.625	-11.403	-147.935	-143.220	-23.682	-21.046	-143.527	-139.289	-138.678	-134.051	-14.533	-134.694	-8191	255	
19560.254	1	1	0	0	0.25702	0.19188	0.10144	0.28859	0.26575	0.048299	0.075762	0.35049	0.067493	0.16395	0.084465	0.053084	0.065692	0.048214	0.18629	0.087223	-1.7437	-2.4375	-2.4792	-2.2854	-2.6625	-2.4021	-2.3604	-2.9313	-2.0292	-2.5563	-2.7646	-2.2146	-2.6542	-2.4729	-2.1083	-3.0646	-157.098	72.457	103.788	122.421	176.219	-17.826	149.203	195.523	-64.750	70.480	137.749	186.137	104.623	169.692	125.541	-141.160	0.00039151	0.00056667	0.0001588	1363.8	4.4945e-06	3.5102e-06	1357.3	366.93	3.2698e-06	5.0585e-06	420	139.8	121.42	41.901	4.7147e-06	51.744	0.00050083	0.00052384	0.00014463	1378.5	5.4159e-06	5.7675e-06	1373.1	373.36	5.7314e-06	5.7772e-06	427.22	142.94	124.2	42.864	5.6213e-06	53.109	-107.268	-77.076	-46.305	-148.070	-21.696	6.473	-147.916	-143.019	-25.751	-0.235	-143.412	-139.281	-138.798	-134.266	-7.801	-134.902	-8191	255	
19560.350	1	1	0	0	0.167	0.14523	0.19382	0.24283	0.058177	0.35883	0.28301	0.14944	0.15504	0.23463	0.28996	0.29548	0.18207	0.32598	0.18709	0.14083	-1.6812	-2.3958	-2.6708	-2.4062	-2.6896	-2.6125	-2.3063	-2.8875	-2.2458	-2.3812	-2.9437	-2.2875	-2.7396	-2.5812	-2.1625	-2.8625	-137.192	68.335	-106.507	167.390	3.043	-101.631	143.163	157.825	-35.910	32.645	-146.307	164.435	177.946	-153.243	91.474	47.806	0.00041814	0.00057718	0.00014064	1358.8	3.8903e-06	6.7961e-06	1354.3	368.38	4.8002e-06	2.8533e-06	418.61	139.85	121.43	41.804	4.4952e-06	51.9	0.00050319	0.00052748	0.00013673	1375.4	5.6084e-06	5.6697e-06	1372.5	373.78	5.6792e-06	5.6094e-06	426.56	143.05	124.5	42.844	5.923e-06	53.163	-104.819	-78.666	-75.670	-147.804	-24.047	-14.232	-147.919	-143.306	-9.763	-14.244	-143.865	-139.235	-138.936	-134.309	-21.307	-134.849	-8191	255	
19560.445	1	1	0	0	0.2574	0.15102	0.16786	0.0983	0.090828	0.22453	0.28641	0.052884	0.22626	0.07516	0.22698	0.19258	0.11711	0.16334	0.014317	0.20086	-2.0042	-2.0729	-2.5667	-2.1896	-2.5312	-2.4896	-2.125	-2.8688	-2.2854	-2.1729	-2.9062	-2.2125	-2.5146	-2.7229	-2.2167	-2.7375	-35.428	40.256	119.442	-129.510	-14.541	76.549	167.397	-97.045	120.952	-47.893	155.062	109.092	178.667	152.279	-138.934	-107.192	0.00042337	0.00053101	0.00014551	1359.4	2.5262e-06	6.4179e-06	1356.8	368.03	4.5887e-06	4.8878e-06	421.34	139.63	121.95	41.906	2.3746e-06	51.995	0.00051103	0.00050794	0.00014007	1376.1	5.707e-06	5.6408e-06	1375.5	373.83	5.822e-06	5.761e-06	427.85	142.94	124.5	42.903	5.7273e-06	53.336	-106.194	-80.655	-59.771	-147.723	-15.160	-14.613	-148.021	-142.833	-25.053	-24.948	-143.529	-139.093	-138.509	-133.946	-10.625	-134.711	-8191	255	
19560.543	1	1	0	0	0.13242	0.14037	0.20621	0.20182	0.27632	0.22753	0.37375	0.34649	0.24163	0.15633	0.080569	0.044707	0.2368	0.20368	0.14316	0.27461	-1.8417	-2.0687	-2.6063	-2.4729	-2.6146	-2.7333	-2.3646	-2.9729	-2.5771	-2.15	-2.9771	-2.2042	-2.3354	-2.7896	-2.0938	-2.7896	-14.821	45.561	85.011	169.721	131.105	31.184	176.405	99.322	-119.388	169.022	161.943	63.914	175.251	-95.281	-28.757	-132.334	0.00040892	0.0006393	0.00011838	1363.5	3.2597e-06	5.2081e-06	1357	367.59	4.2017e-06	4.3399e-06	420.98	139.32	121.05	41.893	3.6802e-06	51.684	0.00050061	0.00052894	0.00014101	1377.8	5.7996e-06	5.5251e-06	1373	373.28	5.6008e-06	5.8468e-06	427.85	142.79	124.17	42.942	5.9136e-06	53.2	-106.318	-80.483	-74.709	-147.553	-29.920	-21.765	-147.711	-142.801	-15.609	-30.317	-143.666	-139.151	-138.581	-133.969	-4.224	-134.669	-8191	255	
19560.662	1	1	0	0	0.20969	0.15905	0.1618	0.093739	0.25339	0.33077	0.31712	0.15895	0.27156	0.08541	0.048771	0.32857	0.14125	0.10656	0.14957	0.34294	-2.2333	-2.1271	-2.725	-2.4958	-2.1688	-2.6396	-2.3042	-2.6583	-2.7667	-2.1208	-3.125	-2.4042	-2.5208	-2.7083	-2.0604	-2.7812	38.433	131.656	14.448	110.924	-59.833	60.877	187.460	148.684	-139.967	-144.986	-87.511	156.018	47.235	151.057	25.962	-67.918	0.00038978	0.00058185	0.00010925	1359.9	3.5975e-06	4.2843e-06	1356.8	367.82	5.2799e-06	1.8451e-06	419.72	139.5	121.52	41.779	3.8656e-06	51.717	0.0004947	0.00053219	0.00014506	1375	5.8884e-06	5.5787e-06	1374.4	374.01	5.7901e-06	5.6131e-06	426.81	143.02	124.15	42.829	5.8017e-06	53.088	-108.481	-93.357	-65.237	-147.580	-27.896	-4.348	-147.739	-143.011	-7.474	27.453	-143.470	-139.116	-138.709	-133.851	-8.599	-134.760	-8191	255	
19560.758	1	1	0	0	0.29193	0.38518	0.16115	0.39252	0.10607	0.055865	0.051401	0.24679	0.11054	0.26666	0.183	0.24995	0.19927	0.18037	0.21847	0.2508	-2.3854	-2.0083	-2.5458	-2.5354	-2.3271	-2.7854	-2.4021	-2.525	-2.5542	-2.3104	-2.9083	-2.4938	-2.1562	-2.9125	-2.0396	-2.6354	172.324	6.533	-31.002	-74.382	120.452	-54.803	197.327	129.944	-14.779	164.653	91.208	-123.664	-2.264	196.779	114.387	163.661	0.00039425	0.0005544	0.00013256	1362.1	3.9728e-06	5.7206e-06	1358.9	368.67	5.1209e-06	2.2593e-06	420.82	139.68	121.49	41.971	3.8886e-06	51.758	0.00050476	0.00053635	0.00014869	1377.4	5.8694e-06	5.7911e-06	1375.9	374.22	5.7929e-06	5.6973e-06	427.35	142.95	124.51	42.95	5.9205e-06	53.154	-103.805	-73.298	-73.298	-147.951	11.552	-6.435	-147.828	-143.150	-25.259	-1.335	-143.579	-139.472	-138.533	-134.257	-18.522	-134.737	-8191	255	
19560.854	1	1	0	0	0.282	0.19936	0.12928	0.060992	0.22507	0.12097	0.19729	0.38409	0.018	0.10516	0.090006	0.077608	0.12003	0.27515	0.2126	0.28871	-2.3396	-2.0583	-2.6104	-2.6917	-2.0042	-2.8792	-2.2292	-2.5271	-2.725	-2.1833	-2.7562	-2.5438	-2	-2.9813	-2.3958	-2.1875	100.486	66.053	94.940	192.846	103.703	-53.574	144.058	134.561	129.401	168.820	-138.598	125.911	-93.704	-120.549	171.206	103.744	0.00039237	0.00037222	0.0001407	1361.2	4.4084e-06	3.4828e-06	1358.8	367.91	4.3841e-06	4.2023e-06	421.34	139.51	120.92	41.83	4.2067e-06	51.972	0.00050172	0.00051464	0.00014622	1377.2	5.8521e-06	5.5677e-06	1374.8	374	5.7116e-06	5.8264e-06	427.91	142.79	124.13	42.901	5.9299e-06	53.23	-106.373	-72.328	-84.474	-147.800	-16.359	-9.478	-147.805	-143.111	-20.249	-8.687	-143.589	-139.074	-139.009	-133.921	-20.372	-134.783	-8191	255	
19560.949	1	1	0	0	0.27433	0.074712	0.33068	0.09313	0.058978	0.058111	0.24418	0.13024	0.10801	0.16066	0.042437	0.10286	0.093721	0.11511	0.027879	0.13001	-2.3833	-2.0167	-2.7292	-2.7417	-2.15	-2.9896	-2.6063	-2.3479	-2.7292	-2.1229	-2.675	-2.6125	-2.0875	-2.7604	-2.2625	-2.3229	14.788	-81.002	16.621	-37.377	-44.304	149.680	166.922	178.945	-69.163	-146.470	137.825	61.892	130.136	44.684	79.594	34.137	0.00039529	0.00051229	0.00014581	1360.1	4.5216e-06	6.9031e-06	1358.3	367.24	4.2668e-06	3.3524e-06	420.2	139.86	121.17	41.755	3.9047e-06	51.741	0.00050023	0.00053366	0.00014997	1377	5.9014e-06	5.8726e-06	1374.3	373.72	5.7877e-06	5.8713e-06	426.35	143.12	124.26	42.829	5.987e-06	53.102	-104.426	-77.677	-62.970	-147.647	-6.774	-15.262	-147.824	-142.890	-13.025	3.473	-143.435	-139.287	-138.809	-133.919	-24.603	-134.834	-8191	255	
19561.068	1	1	0	0	0.082677	0.050382	0.10447	0.35014	0.089793	0.21668	0.23448	0.19802	0.16219	0.02267	0.20582	0.22349	0.027605	0.12596	0.084837	0.15571	-2.4562	-2.075	-2.5104	-3.0417	-2.0271	-2.575	-2.7	-2.4104	-2.7771	-2.2	-2.65	-2.7542	-2.1083	-2.7667	-2.5958	-2.1146	24.316	-38.860	57.290	164.307	148.485	108.832	67.835	97.256	149.523	-101.787	188.211	89.109	185.136	-124.090	-38.470	64.705	0.00040456	0.00033616	0.00012325	1362.8	3.725e-06	4.5391e-06	1356.3	366.98	4.6545e-06	4.9914e-06	422.5	139.52	121.14	41.867	4.8157e-06	51.499	0.00051005	0.00053861	0.00014589	1377.7	5.8284e-06	5.8369e-06	1375	373.16	5.6585e-06	5.8097e-06	427.6	142.83	124.12	42.877	5.7988e-06	52.999	-106.403	-63.772	-60.672	-147.466	-13.655	0.088	-147.692	-143.102	-22.023	11.287	-143.102	-138.761	-138.148	-133.448	1.082	-134.302	-8191	255	
19561.141	1	1	0	0	0.23147	0.18069	0.082857	0.036033	0.18573	0.060302	0.13304	0.23176	0.082447	0.10717	0.057189	0.12925	0.043805	0.10297	0.19357	0.091065	-2.4313	-2.2667	-2.2354	-2.9521	-1.9854	-2.6562	-2.6937	-2.1625	-2.8604	-2.275	-2.3937	-2.8563	-2.1	-2.7479	-2.5896	-2.2375	179.573	-63.542	-150.728	-127.505	133.629	-20.255	185.485	162.406	189.306	-30.116	163.770	186.389	-116.870	73.007	-86.769	101.430	0.00039685	0.00040272	0.0001598	1362.2	2.6077e-06	6.1524e-06	1354.8	367.08	4.4429e-06	4.7456e-06	420.03	139.95	121.14	41.807	4.1062e-06	51.826	0.00049581	0.00054517	0.00015311	1377	5.8228e-06	5.8574e-06	1373.6	373.35	5.7309e-06	5.6539e-06	426.96	142.99	124.02	42.876	5.8254e-06	53.171	-108.332	-58.944	-55.067	-147.144	-27.012	-27.816	-146.928	-142.344	-20.807	4.714	-143.051	-138.687	-138.251	-133.611	-0.809	-134.217	-8191	255	
19561.262	1	1	0	0	0.17554	0.16383	0.12014	0.070206	0.19629	0.12571	0.27181	0.39797	0.097677	0.040195	0.22624	0.21662	0.25587	0.10828	0.1018	0.088152	-2.3604	-2.3167	-2.2333	-2.9396	-2.0687	-2.5875	-2.7375	-2.1937	-2.7188	-2.4375	-2.4021	-2.8688	-2.0292	-2.4729	-2.5583	-2.0104	-69.953	74.181	91.678	88.589	177.898	-115.622	159.429	150.919	-36.125	131.815	-138.496	-159.353	125.270	67.512	3.239	-21.700	0.0004255	0.00044795	0.00015562	1363.2	3.8505e-06	4.121e-06	1358.4	368.46	3.5199e-06	4.8696e-06	419.25	139.96	121.34	41.821	4.6768e-06	51.941	0.00050539	0.0005204	0.00014356	1376.2	5.7131e-06	5.4247e-06	1374.3	373.45	5.7976e-06	5.612e-06	425.72	143.15	124.29	42.859	5.7046e-06	53.121	-105.914	-75.495	-77.776	-147.087	-17.569	-8.746	-147.229	-142.425	-8.927	-3.625	-142.910	-138.542	-137.968	-133.647	-21.230	-134.460	-8191	255	
19561.357	1	1	0	0	0.10742	0.11537	0.26607	0.45564	0.16095	0.16988	0.24854	0.16449	0.063077	0.28931	0.021698	0.35497	0.24442	0.35321	0.069714	0.2215	-2.5104	-2.3521	-2.1458	-2.8958	-2.2729	-2.3292	-2.9917	-2.2542	-2.7104	-2.3542	-2.1208	-2.7542	-2.1458	-2.4583	-2.7562	-2.1312	-24.383	4.597	28.373	159.455	150.688	-62.753	106.391	105.224	101.952	-101.611	163.402	139.086	-98.534	189.640	-100.582	-126.931	0.00037864	0.00050838	0.00013546	1362.3	3.4569e-06	5.418e-06	1357.9	367.29	4.5744e-06	6.9562e-06	420	139.29	120.86	41.685	5.3876e-06	52.086	0.00050061	0.0005245	0.00014515	1375.8	5.6824e-06	5.7895e-06	1374.4	373.27	5.7159e-06	5.8264e-06	426.25	142.71	124.02	42.888	5.4907e-06	53.188	-107.593	-75.891	-64.281	-147.018	-17.236	1.914	-147.076	-142.533	-32.241	-10.619	-143.051	-138.556	-137.923	-133.521	0.270	-134.303	-8191	255	
19561.453	1	1	0	0	0.07282	0.10966	0.19403	0.15236	0.16401	0.0092592	0.29605	0.1751	0.23915	0.27343	0.11449	0.10105	0.056598	0.20294	0.13071	0.18998	-2.1312	-2.5646	-2.0438	-3.0167	-2.0812	-2.2229	-3.0375	-2.2313	-2.5521	-2.7	-2.3063	-2.9875	-2.2271	-2.1417	-2.8375	-2.1354	171.099	45.921	-40.402	-152.781	139.892	-122.430	-135.410	195.196	-61.535	-21.723	-1.401	60.502	-142.345	-112.525	-110.184	130.534	0.00038254	0.00044547	0.00012654	1361	5.0267e-06	4.7071e-06	1355.7	367.51	4.3492e-06	5.4892e-06	419.44	139.68	121.24	42.096	4.3237e-06	51.997	0.00050148	0.00052233	0.00014394	1375.6	5.881e-06	5.8337e-06	1373.4	373.02	5.8014e-06	5.6633e-06	426.64	142.95	124.22	42.966	5.6691e-06	53.145	-105.675	-68.404	-72.545	-147.084	-17.557	-12.530	-146.974	-142.347	-23.612	-8.539	-142.883	-138.636	-138.096	-133.413	-15.957	-134.204	-8191	255	
19561.551	1	1	0	0	0.15594	0.20589	0.15163	0.064334	0.13654	0.12107	0.29592	0.35555	0.11847	0.32222	0.13084	0.22938	0.045533	0.036961	0.052187	0.10094	-2.0021	-2.4583	-2.1021	-2.9688	-2.4667	-2.2917	-3.0083	-2.2271	-2.3729	-2.5938	-2.3917	-2.8	-2.4062	-2.2854	-2.7625	-2.35	-57.153	72.403	-144.879	-131.235	-17.263	183.579	-157.868	-140.400	-156.249	191.229	-148.396	191.601	-55.303	38.971	50.588	160.028	0.00039597	0.00045882	0.00016919	1366.1	3.9283e-06	5.524e-06	1363.4	365.97	3.3764e-06	5.4152e-06	420.61	139.37	121.68	41.636	4.69e-06	51.812	0.00050709	0.00052125	0.00014596	1377.3	5.9442e-06	5.7964e-06	1376.2	373.02	5.7342e-06	5.6842e-06	426.24	142.83	124.35	42.747	5.6839e-06	53.111	-104.608	-68.750	-63.846	-147.096	-1.642	-5.686	-147.145	-142.356	-14.182	6.605	-142.988	-138.582	-138.181	-133.662	-31.035	-134.161	-8191	255	
19561.670	1	1	0	0	0.11035	0.20671	0.22058	0.18257	0.15622	0.10182	0.10605	0.21428	0.15722	0.13359	0.12613	0.25292	0.036408	0.41551	0.18187	0.61979	-1.8396	-2.5125	-2.0229	-2.7792	-2.4437	-2.1146	-3.0875	-2.3187	-2.2938	-2.9125	-2.2812	-2.7021	-2.5187	-2.3604	-2.8958	-2.5062	-137.851	169.369	27.859	81.390	-124.676	165.859	-77.571	178.750	69.617	89.285	-23.608	-70.941	-29.580	127.743	-0.730	80.859	0.00039552	0.00060024	0.00014642	1359.4	2.2825e-06	4.171e-06	1353.9	366.76	4.1622e-06	4.679e-06	420.16	139.59	120.76	41.632	4.2983e-06	51.835	0.00050842	0.00052049	0.00014517	1374.5	5.641e-06	5.7207e-06	1371.7	373.02	5.924e-06	5.6988e-06	426.15	142.77	124.14	42.835	5.7726e-06	53.048	-105.934	-69.723	-59.218	-147.134	-6.150	-1.605	-147.298	-142.392	-20.447	5.340	-142.797	-138.544	-138.190	-133.687	-12.967	-134.172	-8191	255	
19561.740	1	1	0	0	0.045762	0.13461	0.06749	0.33247	0.14051	0.044283	0.19576	0.19659	0.12698	0.18121	0.1071	0.25472	0.15028	0.29176	0.27496	0.10853	-1.9937	-2.6542	-2.1083	-2.6958	-2.8063	-2.2229	-3.0792	-2.4125	-2.2146	-2.6521	-2.1917	-2.6625	-2.7792	-2.1375	-2.7646	-2.4104	-51.830	1.489	185.352	165.656	124.531	178.195	92.235	134.917	-150.199	-134.013	31.692	-150.928	109.300	192.164	-100.712	176.740	0.00038593	0.0005415	7.365e-05	1360.7	4.7844e-06	5.8528e-06	1356.1	366.81	3.4419e-06	3.0369e-06	419.98	139.23	121.26	41.876	4.0139e-06	51.8	0.00049611	0.0005111	0.00014511	1375.1	5.8103e-06	5.6176e-06	1372.4	372.71	5.8295e-06	5.6455e-06	426.83	142.89	124.28	42.881	5.6829e-06	53.073	-109.047	-58.286	-57.995	-147.157	1.750	-7.406	-147.122	-142.324	-20.943	-4.996	-143.156	-138.622	-137.957	-133.697	-16.831	-133.977	-8191	255	
19561.840	1	1	0	0	0.36685	0.083821	0.34927	0.17181	0.33112	0.28725	0.077967	0.22353	0.039065	0.074159	0.28584	0.12155	0.28028	0.27826	0.22777	0.29948	-1.9375	-2.6854	-2.0833	-2.8583	-2.9042	-2.0479	-2.8792	-2.5875	-2.1875	-2.8917	-2.2833	-2.4375	-2.8021	-2.2958	-2.5938	-2.6	-6.803	124.682	-94.963	-153.145	-86.664	169.801	156.847	-20.691	172.732	19.864	167.212	-120.057	129.280	162.267	-7.248	127.130	0.00040446	0.00047579	0.00014894	1361.4	4.1694e-06	5.2659e-06	1352.8	366.58	4.9064e-06	5.3958e-06	419.02	139.33	121.62	41.963	3.4825e-06	52.129	0.00050715	0.00051252	0.00014319	1373.8	5.6512e-06	5.799e-06	1371.4	372.9	5.6966e-06	5.2628e-06	425.69	142.82	124.4	42.924	5.5843e-06	53.221	-107.965	-75.771	-69.011	-147.092	-9.323	-11.351	-147.257	-142.149	-20.751	-0.036	-142.913	-138.554	-137.970	-133.491	-7.406	-134.080	-8191	255	
19561.934	1	1	0	0	0.054282	0.12754	0.1146	0.18325	0.082275	0.22532	0.49897	0.22355	0.0038766	0.070248	0.22358	0.091133	0.18372	0.2374	0.035693	0.14596	-1.6708	-2.8937	-2.3	-2.5229	-2.5583	-2.1667	-2.9021	-2.6646	-2.2146	-2.8042	-2.3563	-2.3417	-2.9208	-2.0979	-2.6292	-2.6083	-10.306	66.091	115.204	164.640	88.865	-11.855	167.826	169.467	-52.968	33.186	-154.011	178.527	-101.403	-140.725	131.174	135.456	0.00043028	0.00056232	0.00014367	1358.7	4.1494e-06	6.4209e-06	1353	366.88	4.0211e-06	5.1206e-06	421.05	139.99	121.27	41.932	5.7606e-06	51.855	0.00049961	0.00050468	0.00014071	1373.9	5.5178e-06	5.6444e-06	1371	372.92	5.7497e-06	5.5582e-06	425.87	142.95	124.03	42.916	5.5843e-06	53.107	-106.028	-77.640	-68.983	-147.043	-12.471	7.896	-147.149	-142.350	-30.117	-12.908	-143.105	-138.581	-138.017	-133.116	-25.041	-134.001	-8191	255	
19562.031	1	1	0	0	0.38259	0.12045	0.30187	0.43318	0.086113	0.20489	0.52342	0.30232	0.19931	0.06173	0.15392	0.30628	0.20695	0.068753	0.10905	0.079099	-1.5458	-2.6104	-2.2792	-2.4562	-2.8542	-2.175	-2.6542	-2.8375	-2.1021	-2.7646	-2.4521	-2.3083	-2.7375	-2.2979	-2.4021	-2.6104	-44.362	-85.780	20.350	184.860	168.576	193.567	161.781	182.953	173.762	177.384	-119.503	65.110	196.794	-21.837	-91.737	-37.410	0.00039392	0.00041823	0.00015813	1362.7	3.2778e-06	5.4383e-06	1359	368.12	3.8988e-06	5.2925e-06	419.65	139.76	121.62	41.835	5.0166e-06	52.01	0.00050509	0.00052172	0.00014476	1375.6	5.6447e-06	5.6907e-06	1375.1	373.7	5.8075e-06	5.7302e-06	426.7	143.05	124.43	42.907	5.7741e-06	53.207	-107.472	-49.678	-50.962	-147.093	-12.304	-11.733	-147.053	-142.074	-25.349	-16.230	-142.949	-138.524	-137.886	-133.351	-5.288	-133.921	-8191	255	
19562.150	1	1	0	0	0.12073	0.094255	0.22659	0.16727	0.17849	0.2872	0.12375	0.062068	0.045263	0.10807	0.31777	0.13107	0.025518	0.045347	0.11221	0.087895	-1.5167	-2.6271	-2.375	-2.3875	-2.8667	-2.175	-2.6125	-2.8146	-2.0667	-2.8438	-2.3854	-2.0521	-2.7792	-2.4021	-2.2354	-2.8104	194.292	130.556	166.773	-62.465	-95.911	75.941	37.716	-137.845	-104.711	26.033	194.463	-159.217	75.820	128.971	-55.578	-70.244	0.00039708	0.00052639	0.00012794	1363.1	2.5265e-06	5.813e-06	1360.4	368.08	4.9017e-06	4.8985e-06	420.57	139.58	121.56	41.768	4.4935e-06	51.781	0.00050018	0.00049963	0.00014288	1375	5.394e-06	5.4636e-06	1376.7	373.24	5.5632e-06	5.4829e-06	426.71	143.01	124.46	42.856	5.7771e-06	53.09	-106.799	-79.841	-72.363	-147.051	-5.465	-13.977	-146.999	-142.306	-17.340	-31.545	-142.765	-138.613	-138.077	-133.413	-6.003	-134.094	-8191	255	
19562.246	1	1	0	0	0.086368	0.1674	0.15247	0.30133	0.16219	0.043578	0.35467	0.019932	0.11317	0.093595	0.16314	0.27151	0.044699	0.21389	0.24461	0.29837	-1.7896	-2.525	-2.6708	-2.2521	-2.9292	-2.1792	-2.5604	-2.7729	-2.0292	-2.5979	-2.7896	-2.1354	-2.8063	-2.4708	-2.2417	-2.7625	-158.051	190.042	-48.422	129.579	60.995	146.868	125.628	-24.857	195.090	-79.596	-143.724	-97.005	-26.444	159.296	-39.422	-133.298	0.00038581	0.00045996	0.00012581	1362.3	3.3369e-06	4.5219e-06	1358.5	366.2	4.436e-06	7.1163e-06	420.61	138.99	122.13	41.663	4.5579e-06	51.727	0.00048751	0.00052285	0.0001423	1375.6	5.5866e-06	5.6281e-06	1373.5	373.07	5.8502e-06	5.5493e-06	426.73	142.69	124.43	42.89	5.75e-06	53.159	-107.651	-67.884	-77.661	-146.837	-17.250	-6.651	-147.025	-142.217	-1.975	-19.928	-142.680	-138.498	-137.798	-133.350	-9.099	-133.754	-8191	255	
19562.342	1	1	0	0	0.14406	0.20293	0.26822	0.17821	0.16185	0.1239	0.19739	0.23482	0.12271	0.024504	0.27145	0.21616	0.11235	0.37151	0.29499	0.18313	-1.7458	-2.3208	-2.6458	-2.2917	-2.8271	-2.4062	-2.4229	-3.0271	-2.1021	-2.4979	-2.7812	-2.1875	-2.6937	-2.5729	-2.0792	-3.0292	-50.859	52.574	-158.021	-135.500	-14.608	30.406	111.319	72.784	66.489	120.506	-154.921	128.770	33.124	139.602	24.656	1.883	0.00038322	0.00044013	0.00015887	1363.4	2.363e-06	5.3831e-06	1361.6	367.36	4.1138e-06	5.8671e-06	420.03	140	121.44	41.995	4.3827e-06	51.782	0.00049226	0.00052134	0.000143	1375.6	5.6229e-06	5.5645e-06	1374.7	373.12	5.7436e-06	5.5979e-06	426.39	143.24	124.43	42.963	5.784e-06	53.173	-105.553	-70.642	-56.509	-146.888	5.249	-1.177	-146.952	-142.174	-7.846	-5.305	-142.614	-138.589	-137.941	-133.210	-11.160	-133.961	-8191	255	
19562.438	1	1	0	0	0.063241	0.19239	0.31729	0.45074	0.11789	0.12845	0.26063	0.24227	0.036822	0.14642	0.11101	0.24887	0.19007	0.15818	0.26999	0.22878	-1.9062	-2.3792	-2.7958	-2.3667	-2.7875	-2.5604	-2.3854	-2.9542	-2.1562	-2.4354	-2.8917	-2.1208	-2.625	-2.5687	-2.0667	-2.9167	52.953	142.465	-17.993	189.338	83.444	-56.531	148.134	171.391	-115.925	-15.252	149.575	-152.669	-83.402	40.385	157.357	186.599	0.00038433	0.00044586	0.00012172	1366.5	3.159e-06	7.1467e-06	1355.3	368.05	3.348e-06	4.1305e-06	422.69	139.93	121.29	41.98	5.314e-06	51.797	0.00050989	0.00052554	0.00014533	1378.2	5.7494e-06	5.7112e-06	1373.2	373.94	5.7229e-06	5.6283e-06	427.78	142.99	124.48	42.94	5.8811e-06	53.186	-106.294	-69.644	-87.845	-147.035	12.153	-12.387	-147.061	-142.032	-23.593	-8.495	-142.753	-138.437	-137.824	-133.151	-9.810	-133.939	-8191	255	
19562.533	1	1	0	0	0.083237	0.20063	0.24531	0.093358	0.15981	0.15229	0.025999	0.26814	0.13087	0.088269	0.23215	0.29485	0.069624	0.26439	0.28866	0.074832	-1.8229	-2.1958	-2.7562	-2.4042	-2.5917	-2.5583	-2.3833	-2.9875	-2.525	-2.3417	-2.9688	-2.1542	-2.5958	-2.8521	-2.1813	-2.95	85.494	174.973	84.534	184.052	162.248	96.753	-83.820	173.198	74.280	-9.483	-151.238	-154.634	175.702	172.653	-115.810	113.144	0.00038508	0.00053676	0.0001536	1365.8	3.7156e-06	6.1286e-06	1363.4	367.41	5.6388e-06	5.5597e-06	421.6	139.38	121.77	41.892	2.7339e-06	52.102	0.00051176	0.00052587	0.00014559	1376.9	5.9042e-06	5.9089e-06	1376.1	374.11	5.5796e-06	5.7678e-06	426.44	142.93	124.45	42.929	5.923e-06	53.255	-106.116	-79.513	-49.679	-146.846	-15.379	8.838	-146.899	-142.153	-9.994	-17.164	-142.308	-138.200	-137.687	-133.109	-18.770	-133.965	-8191	255	
19562.631	1	1	0	0	0.11536	0.32967	0.11092	0.12806	0.08021	0.3256	0.1358	0.32544	0.13392	0.12444	0.13462	0.25527	0.24952	0.066933	0.12897	0.14456	-1.9438	-2.0646	-2.8021	-2.3625	-2.4854	-2.7375	-2.3417	-2.8896	-2.6375	-2.3021	-2.9167	-2.3083	-2.4479	-2.8583	-2.0292	-2.6542	199.156	26.852	117.334	140.233	-92.199	-113.160	26.857	181.664	18.204	97.390	40.946	82.146	-112.086	19.531	43.332	173.636	0.00037324	0.00060369	0.0001236	1365.1	4.2133e-06	4.0854e-06	1358	367.07	4.4929e-06	4.9063e-06	422.38	139.22	121.41	41.896	4.2215e-06	52.007	0.00049516	0.00052587	0.00014744	1375.7	5.9396e-06	5.6697e-06	1374.1	373.61	5.5824e-06	5.7877e-06	427.71	142.86	124.25	42.896	5.7411e-06	53.233	-106.652	-67.573	-81.860	-146.748	-7.063	0.015	-146.896	-142.097	-8.872	-12.930	-142.397	-138.409	-137.732	-133.053	-17.365	-133.938	-8191	255	
19562.752	1	1	0	0	0.040898	0.1225	0.15925	0.16677	0.12047	0.11082	0.062466	0.1047	0.20589	0.098611	0.24473	0.23108	0.072107	0.18378	0.12927	0.11888	-2.0792	-2.1333	-2.6167	-2.4104	-2.4896	-2.5792	-2.4104	-2.7729	-2.5333	-2.175	-2.8417	-2.5	-2.3167	-3.0375	-2.25	-2.9667	-3.044	-85.807	194.996	-144.375	119.555	-77.005	-7.236	-108.727	-70.536	-126.113	127.582	160.135	111.660	179.445	-23.612	13.489	0.00039111	0.00043567	0.00014174	1363.3	3.9942e-06	6.2662e-06	1356.8	367.69	4.4123e-06	4.303e-06	419.34	139.89	121.2	42.085	3.6323e-06	52.219	0.00050463	0.00052969	0.00014343	1376.4	5.7298e-06	5.655e-06	1372.6	373.47	5.7821e-06	5.7882e-06	426.67	143.09	124.06	42.955	5.713e-06	53.167	-108.820	-72.875	-61.272	-146.786	-2.216	-20.443	-146.864	-141.953	-13.951	-10.567	-142.516	-138.360	-137.740	-133.139	-16.014	-133.751	-8191	255	
19562.846	1	1	0	0	0.13923	0.13376	0.25823	0.14945	0.22437	0.10999	0.054055	0.18112	0.026071	0.1853	0.35174	0.044627	0.195	0.17735	0.18168	0.020303	-2.2958	-1.9396	-2.8875	-2.5687	-2.2604	-2.7479	-2.5438	-2.725	-2.6688	-2.0458	-2.9542	-2.4833	-2.1833	-2.8354	-2.0917	-2.4437	-119.282	-43.325	140.378	-35.391	25.137	98.192	168.174	-155.974	-1.956	-39.440	138.702	93.657	-151.529	149.587	46.852	18.510	0.00041821	0.00051843	0.00011172	1364.9	4.5551e-06	3.1459e-06	1355.4	367.37	3.7687e-06	5.7063e-06	420.89	139.74	120.9	41.72	4.7625e-06	51.696	0.0005081	0.00052833	0.00014805	1375.5	5.7866e-06	5.6124e-06	1372.4	373.47	5.6271e-06	5.6941e-06	426.26	142.9	124.03	42.849	5.9205e-06	53.148	-106.580	-94.025	-63.111	-146.715	-21.765	23.857	-146.962	-142.022	-30.178	-26.800	-142.362	-137.808	-137.768	-132.915	-10.635	-133.805	-8191	255	
19562.941	1	1	0	0	0.043951	0.16586	0.097581	0.20395	0.076597	0.064022	0.20715	0.026717	0.15948	0.33238	0.34547	0.22546	0.15847	0.19756	0.017998	0.051386	-2.2708	-2.1021	-2.5812	-2.625	-2.2167	-2.9333	-2.2896	-2.5687	-2.6312	-2.2625	-2.7687	-2.5563	-2.1792	-2.7604	-2.4792	-2.4854	91.080	14.177	-148.405	159.947	14.677	-29.394	77.813	30.332	113.591	29.364	166.733	165.067	147.773	175.384	128.324	-39.401	0.0003883	0.00040128	0.00016961	1363.3	4.1136e-06	5.2286e-06	1352.4	366.36	4.7809e-06	5.6363e-06	419.14	139.58	121.27	41.83	3.6936e-06	51.945	0.00051002	0.00053805	0.00015049	1375.6	6.0247e-06	5.6103e-06	1371.5	373.12	5.7887e-06	5.6795e-06	425.96	142.78	124.11	42.767	5.7623e-06	53.202	-107.205	-82.387	-75.580	-146.616	-9.114	-0.700	-146.757	-141.876	-19.232	-2.463	-142.581	-138.145	-137.525	-132.810	22.760	-133.852	-8191	255	
19563.037	1	1	0	0	0.27764	0.061035	0.14548	0.24036	0.16741	0.13006	0.13487	0.10295	0.087213	0.29583	0.11624	0.19738	0.27517	0.2666	0.068855	0.15393	-2.35	-2.2979	-2.6104	-2.8271	-2.1021	-2.9396	-2.6229	-2.4521	-2.6958	-2.0062	-2.5646	-2.775	-2.225	-2.9667	-2.3833	-2.2208	-70.616	46.841	-141.663	159.347	-86.095	-83.807	107.412	76.809	181.431	-37.376	101.409	-99.343	-150.014	147.004	28.878	148.794	0.00038102	0.00045473	0.00014279	1365	3.1094e-06	5.5145e-06	1357.8	366.33	4.9332e-06	4.2215e-06	422.33	139.7	121.5	41.819	3.9047e-06	51.859	0.00050427	0.00052917	0.00014986	1376.7	5.708e-06	5.6329e-06	1373	372.88	5.7206e-06	5.8149e-06	427.13	142.88	124.25	42.906	5.8895e-06	53.098	-106.444	-71.592	-60.081	-146.589	-26.280	-11.882	-146.569	-141.925	-14.489	-33.212	-142.370	-138.158	-137.524	-133.124	2.120	-133.725	-8191	255	
#DATA ENDS
