BOXY.EXE: ISS Imagent and Oximeter Data Acquisition Program Version 0.80
Ascii Record File

#ACQ INFORMATION
2  Detector Channels 
16  External MUX Channels 
1  Auxiliary Channels 
5000  Waveform (CCF) Frequency (Hz)
1  Waveforms Skipped 
30  Waveforms Averaged 
1  Cycles Averaged 
16  Acquisitions per Waveform 
10.0806  Updata Rate (Hz) 

#FILE INFORMATION
TRUE -- External MUX Channel results are PARSED.
FALSE -- AC DC and Phase are NOT grouped.
TRUE -- Companion Program Settings File CREATED.
FALSE -- AC data not excluded
FALSE -- DC data not excluded
FALSE -- Phase data not excluded
FALSE -- Auxillary Chn. data not excluded
Tab delimiters

#CALIBRATION STATE
TRUE -- Waveform Calibration Values APPLIED.


#AUX CALIBRATION VALUES
Val Type	aux-1	

Term	1.0000e+00	
Factor	0.0000e+00	


#WF CALIBRATION VALUES
A = Detector Channel
Val Type	A-AC1	A-AC2	A-AC3	A-AC4	A-AC5	A-AC6	A-AC7	A-AC8	A-AC9	A-AC10	A-AC11	A-AC12	A-AC13	A-AC14	A-AC15	A-AC16	A-DC1	A-DC2	A-DC3	A-DC4	A-DC5	A-DC6	A-DC7	A-DC8	A-DC9	A-DC10	A-DC11	A-DC12	A-DC13	A-DC14	A-DC15	A-DC16	A-Ph1	A-Ph2	A-Ph3	A-Ph4	A-Ph5	A-Ph6	A-Ph7	A-Ph8	A-Ph9	A-Ph10	A-Ph11	A-Ph12	A-Ph13	A-Ph14	A-Ph15	A-Ph16	

Term	0.00000e+00	0.00000e+00	0.00000e+00	0.00000e+00	0.00000e+00	0.00000e+00	0.00000e+00	0.00000e+00	0.00000e+00	0.00000e+00	0.00000e+00	0.00000e+00	0.00000e+00	0.00000e+00	0.00000e+00	0.00000e+00	0.00000e+00	0.00000e+00	0.00000e+00	0.00000e+00	0.00000e+00	0.00000e+00	0.00000e+00	0.00000e+00	0.00000e+00	0.00000e+00	0.00000e+00	0.00000e+00	0.00000e+00	0.00000e+00	0.00000e+00	0.00000e+00	0.00000e+00	0.00000e+00	0.00000e+00	0.00000e+00	0.00000e+00	0.00000e+00	0.00000e+00	0.00000e+00	0.00000e+00	0.00000e+00	0.00000e+00	0.00000e+00	0.00000e+00	0.00000e+00	0.00000e+00	0.00000e+00	
Factor	1.00000e+00	1.00000e+00	1.00000e+00	1.00000e+00	1.00000e+00	1.00000e+00	1.00000e+00	1.00000e+00	1.00000e+00	1.00000e+00	1.00000e+00	1.00000e+00	1.00000e+00	1.00000e+00	1.00000e+00	1.00000e+00	1.00000e+00	1.00000e+00	1.00000e+00	1.00000e+00	1.00000e+00	1.00000e+00	1.00000e+00	1.00000e+00	1.00000e+00	1.00000e+00	1.00000e+00	1.00000e+00	1.00000e+00	1.00000e+00	1.00000e+00	1.00000e+00	X	X	X	X	X	X	X	X	X	X	X	X	X	X	X	X	

B = Detector Channel
Val Type	B-AC1	B-AC2	B-AC3	B-AC4	B-AC5	B-AC6	B-AC7	B-AC8	B-AC9	B-AC10	B-AC11	B-AC12	B-AC13	B-AC14	B-AC15	B-AC16	B-DC1	B-DC2	B-DC3	B-DC4	B-DC5	B-DC6	B-DC7	B-DC8	B-DC9	B-DC10	B-DC11	B-DC12	B-DC13	B-DC14	B-DC15	B-DC16	B-Ph1	B-Ph2	B-Ph3	B-Ph4	B-Ph5	B-Ph6	B-Ph7	B-Ph8	B-Ph9	B-Ph10	B-Ph11	B-Ph12	B-Ph13	B-Ph14	B-Ph15	B-Ph16	

Term	0.00000e+00	0.00000e+00	0.00000e+00	0.00000e+00	0.00000e+00	0.00000e+00	0.00000e+00	0.00000e+00	0.00000e+00	0.00000e+00	0.00000e+00	0.00000e+00	0.00000e+00	0.00000e+00	0.00000e+00	0.00000e+00	0.00000e+00	0.00000e+00	0.00000e+00	0.00000e+00	0.00000e+00	0.00000e+00	0.00000e+00	0.00000e+00	0.00000e+00	0.00000e+00	0.00000e+00	0.00000e+00	0.00000e+00	0.00000e+00	0.00000e+00	0.00000e+00	-7.86066e+01	-1.31001e+02	-1.24786e+02	-1.83817e+02	-4.99121e+01	-6.53093e+01	-1.58668e+02	-1.62015e+02	-4.89199e+01	-6.62152e+01	-1.74374e+02	-1.69631e+02	-1.81559e+02	-1.77656e+02	-5.84456e+01	-1.50419e+02	
Factor	1.94216e-05	1.68321e-04	4.74969e-05	1.55115e-01	1.43856e-06	2.00494e-06	1.80626e-01	6.10451e-02	1.32424e-06	1.89511e-06	1.00420e-01	3.08861e-02	3.91032e-02	1.03895e-02	1.63570e-06	1.47649e-02	1.30170e-05	2.26506e-05	6.31162e-06	7.96424e-02	2.23240e-07	2.52336e-07	8.66108e-02	3.14689e-02	2.25496e-07	2.50935e-07	5.02129e-02	1.55535e-02	2.03098e-02	5.40091e-03	2.36603e-07	7.42413e-03	X	X	X	X	X	X	X	X	X	X	X	X	X	X	X	X	



#DISTANCE SETTINGS
A = Detector Channel
A-1	A-2	A-3	A-4	A-5	A-6	A-7	A-8	A-9	A-10	A-11	A-12	A-13	A-14	A-15	A-16	

2.5000e+00	3.0000e+00	2.5000e+00	3.0000e+00	2.0000e+00	3.0000e+00	1.5000e+00	3.0000e+00	3.0000e+00	3.0000e+00	3.0000e+00	3.0000e+00	3.0000e+00	3.0000e+00	1.5000e+00	3.0000e+00	

B = Detector Channel
B-1	B-2	B-3	B-4	B-5	B-6	B-7	B-8	B-9	B-10	B-11	B-12	B-13	B-14	B-15	B-16	

1.0000e+01	1.0000e+01	1.0000e+01	1.4400e+00	1.0000e+01	1.0000e+01	1.5100e+00	1.9400e+00	1.0000e+01	1.0000e+01	1.9900e+00	2.4900e+00	2.4100e+00	2.9000e+00	1.0000e+01	2.9800e+00	




#DATA BEGINS
time	group	step	mark	flag	A-AC1	A-AC2	A-AC3	A-AC4	A-AC5	A-AC6	A-AC7	A-AC8	A-AC9	A-AC10	A-AC11	A-AC12	A-AC13	A-AC14	A-AC15	A-AC16	A-DC1	A-DC2	A-DC3	A-DC4	A-DC5	A-DC6	A-DC7	A-DC8	A-DC9	A-DC10	A-DC11	A-DC12	A-DC13	A-DC14	A-DC15	A-DC16	A-Ph1	A-Ph2	A-Ph3	A-Ph4	A-Ph5	A-Ph6	A-Ph7	A-Ph8	A-Ph9	A-Ph10	A-Ph11	A-Ph12	A-Ph13	A-Ph14	A-Ph15	A-Ph16	B-AC1	B-AC2	B-AC3	B-AC4	B-AC5	B-AC6	B-AC7	B-AC8	B-AC9	B-AC10	B-AC11	B-AC12	B-AC13	B-AC14	B-AC15	B-AC16	B-DC1	B-DC2	B-DC3	B-DC4	B-DC5	B-DC6	B-DC7	B-DC8	B-DC9	B-DC10	B-DC11	B-DC12	B-DC13	B-DC14	B-DC15	B-DC16	B-Ph1	B-Ph2	B-Ph3	B-Ph4	B-Ph5	B-Ph6	B-Ph7	B-Ph8	B-Ph9	B-Ph10	B-Ph11	B-Ph12	B-Ph13	B-Ph14	B-Ph15	B-Ph16	aux-1	digaux	

20153.773	1	1	0	768	0.089055	0.23593	0.10327	0.23825	0.16835	0.077341	0.051024	0.15869	0.096961	0.10184	0.20343	0.061232	0.28512	0.2215	0.13129	0.070822	-2.5167	-2.2104	-2.8625	-3.1	-2.3563	-3.0771	-2.6146	-2.6979	-3.05	-2.4542	-3.0604	-3.1458	-2.4229	-3.2083	-2.7104	-2.5271	-71.404	193.883	104.997	-84.588	-55.000	124.428	189.304	23.660	160.569	98.802	213.415	215.844	-105.038	-80.050	215.519	14.403	0.00032112	0.00046316	0.00015609	767.28	5.1505e-06	6.339e-06	622.9	307.65	3.1282e-06	5.0966e-06	308.09	145.8	141.77	74.461	4.2731e-06	81.761	0.00037136	0.00024802	6.7074e-05	745.51	2.8491e-06	2.4555e-06	609.08	302.14	2.6937e-06	2.5982e-06	300.7	143.83	140.3	73.679	2.9654e-06	80.694	250.612	-24.962	-21.575	-91.935	54.925	50.047	-93.158	-87.405	37.090	32.603	-89.602	-85.609	-83.681	-80.471	52.731	-83.026	-8191	255	
20153.869	1	1	0	0	0.07963	0.26262	0.068799	0.30776	0.18194	0.12296	0.086955	0.1384	0.3213	0.22521	0.099038	0.12445	0.12032	0.17219	0.18872	0.21939	-2.5958	-2.4271	-2.5333	-2.9771	-2.325	-2.9625	-2.7604	-2.5396	-3.0896	-2.4313	-2.5771	-3.225	-2.3771	-2.9583	-2.6688	-2.4417	133.263	-90.211	95.219	225.679	3.039	-78.754	160.093	245.571	64.602	212.816	45.839	127.686	-39.667	238.457	108.547	216.274	0.00030894	0.00060069	0.00016847	766.56	3.7946e-06	5.932e-06	629.52	309.01	4.1364e-06	6.3505e-06	308.7	146.09	142.09	75.135	4.1554e-06	82.354	0.00035959	0.00025128	6.9047e-05	747.16	2.7635e-06	2.5512e-06	613.57	303.02	2.8492e-06	2.7221e-06	302.27	144.8	140.84	74.181	3.0453e-06	81.222	248.667	-17.851	-14.820	-92.369	51.779	32.710	-93.049	-87.495	45.295	48.749	-88.986	-85.759	-83.995	-80.584	32.816	-82.855	-8191	255	
20153.965	1	1	0	0	0.17512	0.13992	0.11056	0.15594	0.28613	0.19025	0.15901	0.12097	0.076988	0.031316	0.15532	0.16253	0.069266	0.17291	0.17262	0.18431	-2.6437	-2.4479	-2.4625	-3.1292	-2.3021	-2.8542	-2.9583	-2.425	-2.9917	-2.8771	-2.6125	-3.1063	-2.3583	-2.8458	-2.8063	-2.5375	59.036	253.420	252.747	-101.109	18.972	18.638	73.035	145.896	-104.670	-36.900	-35.055	83.958	-59.839	191.633	68.207	53.907	0.00034088	0.00061026	0.00017469	767.65	4.6379e-06	6.5979e-06	630.67	310.23	2.9938e-06	5.458e-06	310.92	147.1	142.11	75.295	3.728e-06	82.558	0.00037275	0.00023934	6.7442e-05	749.59	2.6738e-06	2.5034e-06	616.07	304.95	2.6834e-06	2.617e-06	304.14	145.58	141.29	74.48	2.9773e-06	81.571	248.696	-18.640	-20.821	-92.345	57.172	41.173	-93.130	-87.504	57.074	47.763	-89.556	-85.773	-83.926	-80.445	19.807	-83.275	-8191	255	
20154.061	1	1	0	0	0.14374	0.2511	0.14153	0.15149	0.21076	0.19294	0.25973	0.12922	0.21287	0.31497	0.093034	0.13082	0.022722	0.26	0.30909	0.15941	-2.475	-2.5833	-2.3479	-3.1562	-2.4542	-2.75	-3.1729	-2.5667	-3.0187	-2.7021	-2.3896	-3.0958	-2.5312	-2.7271	-2.9333	-2.4208	-43.211	-100.516	84.862	34.597	-2.881	-7.370	107.893	-74.861	-42.056	-9.755	85.438	138.995	244.620	237.941	240.608	196.684	0.00032512	0.00042766	0.00015223	769.85	4.8328e-06	4.4123e-06	630.62	310.95	3.2244e-06	6.1211e-06	309.69	147.94	143.49	75.694	3.1432e-06	82.717	0.00036952	0.00023127	6.8705e-05	751.07	2.6119e-06	2.3972e-06	614.84	305.29	2.7976e-06	2.548e-06	303.72	145.82	142.03	74.785	2.9521e-06	81.607	250.451	-13.517	-7.929	-92.214	56.366	45.578	-92.872	-87.441	40.317	53.316	-89.076	-85.921	-84.030	-80.467	37.449	-82.916	-8191	255	
20154.156	1	1	0	0	0.17439	0.18661	0.078545	0.067696	0.24817	0.30575	0.20434	0.12433	0.24241	0.24466	0.14394	0.44558	0.081727	0.063782	0.088312	0.30271	-2.4875	-2.7542	-2.0354	-3.1396	-2.5354	-2.5375	-2.8854	-2.3146	-2.9396	-2.5125	-2.4188	-2.975	-2.5292	-2.6896	-2.9854	-2.2917	-88.208	-94.573	118.652	-103.890	209.910	211.156	112.811	214.259	-94.645	52.104	248.281	226.265	178.901	68.035	80.895	-44.382	0.0003198	0.00057208	0.00016399	773.86	4.108e-06	6.334e-06	634.5	310.51	2.7853e-06	6.1363e-06	310.51	147.32	143.84	75.873	5.6638e-06	83.056	0.00037717	0.0002418	7.0585e-05	752.67	2.6463e-06	2.6805e-06	617.73	304.97	2.7548e-06	2.5616e-06	304.37	145.96	142.26	74.876	2.9068e-06	81.908	244.016	-17.445	-8.707	-92.110	47.948	37.451	-92.838	-87.653	51.743	39.419	-89.177	-85.761	-83.539	-80.703	43.511	-82.685	-8191	255	
20154.254	1	1	0	0	0.12681	0.34095	0.084111	0.16221	0.16169	0.091997	0.23071	0.23958	0.33771	0.20555	0.030415	0.11017	0.32244	0.10986	0.062028	0.10422	-2.2417	-2.6583	-2.1813	-3.1896	-2.5542	-2.6354	-2.9062	-2.4396	-2.7354	-2.9375	-2.2292	-3.0042	-2.5917	-2.6208	-3.0417	-2.5396	-59.738	223.617	-14.278	-25.607	-59.372	26.565	168.139	170.660	147.668	195.115	251.850	-67.495	-35.747	208.903	154.253	183.874	0.00031883	0.00054255	0.0001446	776.82	4.3723e-06	7.3089e-06	637.04	312.28	3.1952e-06	6.1909e-06	310.77	147.73	143.6	75.388	3.7744e-06	83.397	0.00037446	0.00024283	7.2413e-05	755.44	2.6356e-06	2.6737e-06	619.96	306.65	2.7426e-06	2.4189e-06	305.27	146.12	142.67	74.632	3.0896e-06	81.924	248.062	-24.349	-9.762	-92.249	59.449	37.324	-92.930	-87.253	46.018	37.633	-89.370	-85.867	-83.600	-80.413	50.727	-82.866	-8191	255	
20154.373	1	1	0	0	0.066677	0.055216	0.1795	0.27825	0.045661	0.14443	0.12766	0.11865	0.23703	0.20149	0.084105	0.066109	0.10665	0.0087458	0.099164	0.062015	-2.1667	-2.7771	-2.1437	-2.9875	-2.5646	-2.3146	-3.1583	-2.6188	-2.6396	-2.95	-2.3167	-3.0438	-2.6229	-2.4354	-3.05	-2.5854	138.023	241.370	-0.704	216.122	-41.665	126.298	129.204	192.754	117.221	78.427	11.343	31.655	-63.485	221.811	-87.012	108.642	0.00031614	0.000406	0.0001353	778.83	3.2322e-06	7.6546e-06	635.57	312.84	3.241e-06	5.6634e-06	311.94	147.55	144.15	74.87	4.2401e-06	82.507	0.00037714	0.00024751	7.0427e-05	759.03	2.5528e-06	2.7767e-06	622.32	307.14	2.884e-06	2.6123e-06	305.29	145.94	142.44	74.214	2.9181e-06	81.441	249.253	-17.977	-13.095	-92.276	66.461	50.774	-92.979	-87.466	33.876	36.004	-89.532	-85.777	-83.906	-80.732	41.431	-82.830	-8191	255	
20154.469	1	1	0	0	0.19746	0.042081	0.28682	0.20081	0.052222	0.16191	0.14517	0.24069	0.13206	0.13596	0.053395	0.25362	0.16645	0.25173	0.057114	0.1173	-2.0458	-2.9667	-2.2521	-2.8229	-2.5687	-2.4083	-3.025	-2.5146	-2.5729	-3.0812	-2.325	-2.7646	-2.75	-2.3937	-3.0187	-2.6688	220.596	-86.756	-39.029	234.397	66.981	166.682	114.583	196.587	-69.645	41.355	247.517	230.325	223.300	206.179	178.126	161.598	0.00033427	0.00061187	0.00014438	779.65	3.919e-06	6.335e-06	636.27	312.79	3.6666e-06	5.307e-06	309.92	147.1	143.16	74.525	4.7835e-06	82.124	0.00037142	0.00023962	6.7837e-05	759.4	2.6473e-06	2.5738e-06	620.75	307.29	2.8286e-06	2.445e-06	304.55	145.4	142.17	73.704	3.0142e-06	80.89	247.439	-20.452	-7.102	-92.385	64.640	54.575	-92.992	-87.309	41.509	29.385	-89.114	-86.186	-83.858	-80.677	37.431	-82.829	-8191	255	
20154.564	1	1	0	0	0.080287	0.23349	0.22438	0.1948	0.10093	0.19271	0.14193	0.20222	0.069448	0.24583	0.31304	0.065743	0.28154	0.30099	0.16056	0.19783	-2.1708	-2.9021	-2.3521	-2.7896	-2.7062	-2.4042	-3.0938	-2.6833	-2.2542	-3.0333	-2.3792	-2.85	-2.9021	-2.4375	-2.8625	-2.875	76.422	134.048	232.142	-64.140	153.521	-17.237	83.670	-91.615	12.999	94.280	-14.134	57.820	172.458	218.552	59.721	113.410	0.00033199	0.00054189	0.00016555	782.98	3.8544e-06	4.9712e-06	637.96	314.75	2.9483e-06	5.6008e-06	311.27	146.85	144.14	74.043	3.338e-06	81.354	0.00037107	0.0002366	6.8481e-05	763.61	2.5594e-06	2.6033e-06	622.54	308.65	2.7572e-06	2.4278e-06	304.03	144.8	142.41	73.229	2.8752e-06	80.092	248.482	-20.354	-21.611	-92.324	46.709	36.275	-92.711	-87.184	51.498	35.074	-89.097	-85.549	-83.430	-80.326	57.100	-82.706	-8191	255	
20154.660	1	1	0	0	0.074819	0.094302	0.17345	0.24154	0.15418	0.18069	0.097401	0.12233	0.10875	0.11804	0.24277	0.10435	0.12705	0.18425	0.15276	0.19479	-1.9979	-2.7625	-2.4604	-2.75	-2.8917	-2.3708	-2.9104	-2.8187	-2.2208	-2.8917	-2.3875	-2.5125	-2.9896	-2.3521	-2.8104	-2.775	-52.464	231.153	28.478	241.931	-89.035	-84.513	-74.543	213.497	104.128	-92.816	43.248	131.208	154.546	165.325	27.731	165.823	0.00031856	0.00066893	0.00015407	793.09	4.9955e-06	5.7707e-06	638.79	314.82	3.1479e-06	5.1551e-06	311.32	146.7	142.79	73.873	3.1619e-06	81.355	0.00036947	0.00024364	7.0927e-05	770.32	2.6035e-06	2.6942e-06	624.88	309.51	2.8398e-06	2.5109e-06	304.42	144.61	141.94	73.11	2.9768e-06	80.141	246.635	-13.930	-9.222	-92.144	60.834	53.032	-92.783	-87.193	46.949	43.310	-89.175	-85.751	-83.965	-80.551	40.536	-82.898	-8191	255	
20154.758	1	1	0	0	0.22957	0.3064	0.0253	0.056667	0.22258	0.059317	0.21948	0.13648	0.12043	0.040884	0.15313	0.040481	0.13033	0.37165	0.09784	0.14058	-1.8083	-2.8312	-2.5792	-2.5	-3.1542	-2.35	-2.7521	-2.9833	-2.3396	-2.9375	-2.5792	-2.575	-3.1229	-2.4562	-2.8417	-2.8688	-80.877	69.746	23.134	252.099	205.732	22.910	121.211	254.461	102.370	-5.556	50.850	236.437	238.339	-58.037	-83.789	213.025	0.00030523	0.00056514	0.00014833	791.33	2.8752e-06	7.3157e-06	642.13	316.41	2.2826e-06	5.4836e-06	309.64	147.05	143.01	73.913	4.3518e-06	81.46	0.00037351	0.00024359	7.0874e-05	770.55	2.5087e-06	2.6753e-06	626.76	309.67	2.8192e-06	2.4733e-06	304.19	145.37	141.88	73.139	3.0083e-06	80.205	246.903	-21.597	-15.102	-92.488	54.188	46.536	-92.888	-87.279	41.984	51.384	-89.226	-85.958	-83.681	-80.275	42.820	-82.797	-8191	255	
20154.854	1	1	0	0	0.13604	0.12222	0.26238	0.16582	0.17705	0.25644	0.092568	0.038012	0.1787	0.069833	0.11364	0.28554	0.18119	0.23615	0.18965	0.16215	-1.9229	-2.7708	-2.6021	-2.3729	-3.0229	-2.3083	-2.775	-2.9375	-2.2146	-2.9167	-2.6021	-2.4167	-2.9521	-2.3917	-2.7729	-2.9688	222.472	121.091	53.882	139.368	7.275	-103.114	93.128	54.310	113.976	133.588	-49.105	235.423	-53.611	59.771	12.656	178.432	0.00032658	0.00050811	0.00016662	786.27	4.4469e-06	7.6494e-06	638.83	314.79	3.944e-06	6.6396e-06	308.93	146.07	143.42	73.472	3.322e-06	80.363	0.0003677	0.00022216	6.7245e-05	767.38	2.5924e-06	2.679e-06	624.11	308.79	2.9263e-06	2.5036e-06	302.39	143.91	141.74	72.62	2.8999e-06	79.265	251.542	-17.855	-17.721	-92.377	54.287	47.597	-92.755	-87.505	54.731	45.346	-89.422	-85.893	-83.976	-80.542	25.209	-82.806	-8191	255	
20154.975	1	1	0	0	0.11079	0.26683	0.11381	0.016274	0.070089	0.091453	0.037292	0.13522	0.094255	0.20793	0.17466	0.12931	0.30802	0.11239	0.015416	0.25682	-1.8792	-2.7188	-2.7125	-2.3604	-2.8833	-2.4083	-2.6562	-3.0896	-2.4375	-2.8271	-2.9354	-2.1771	-3.0708	-2.5625	-2.4625	-3.0438	1.254	-63.357	134.846	-81.179	-19.288	65.016	-49.498	196.603	-11.522	214.831	211.015	117.872	151.306	172.579	206.393	190.318	0.00034703	0.0006138	0.00014699	788.22	4.0164e-06	6.8323e-06	634.31	314.09	3.5284e-06	5.3978e-06	308.29	145.21	142.46	74.001	4.134e-06	80.396	0.00036987	0.00023594	6.43e-05	765.82	2.5947e-06	2.4398e-06	620.57	307.34	2.6721e-06	2.5224e-06	301.32	143.72	141.18	72.908	2.9368e-06	79.496	250.385	-25.003	-19.482	-92.336	63.501	50.998	-92.886	-87.557	37.324	28.192	-88.963	-85.620	-83.864	-80.427	23.844	-82.963	-8191	255	
20155.070	1	1	0	0	0.064193	0.15875	0.1607	0.15249	0.077876	0.085598	0.17006	0.065422	0.18803	0.021045	0.31368	0.1777	0.15085	0.3218	0.04269	0.28657	-1.8	-2.7604	-2.7333	-2.3063	-3.0187	-2.5583	-2.4354	-2.9958	-2.3563	-2.6958	-2.9354	-2.4583	-2.875	-2.6813	-2.3646	-3.1979	32.761	250.254	204.587	245.813	-56.081	172.581	169.609	6.176	146.763	96.533	192.385	242.485	-9.081	246.094	165.324	190.656	0.00032459	0.00052212	0.00014009	778.1	5.4016e-06	6.3577e-06	635.52	312.21	2.235e-06	6.3896e-06	308.54	144.76	142.07	73.33	3.2726e-06	80.388	0.00037042	0.00023184	6.5181e-05	762.16	2.7296e-06	2.6012e-06	619.83	306.41	2.7027e-06	2.4999e-06	301.1	143.34	141.04	72.461	3.0941e-06	79.129	250.391	-14.042	-4.520	-92.363	52.978	41.924	-92.681	-87.397	46.867	44.263	-89.177	-85.729	-83.988	-80.182	43.911	-82.523	-8191	255	
20155.166	1	1	0	0	0.083275	0.055738	0.11736	0.17528	0.048264	0.25958	0.1471	0.048799	0.11183	0.23306	0.29881	0.26046	0.15841	0.35516	0.29552	0.25384	-1.9396	-2.6104	-2.8812	-2.5354	-2.8854	-2.7771	-2.4313	-3.0812	-2.3563	-2.4417	-3	-2.3396	-2.7646	-2.7125	-2.2438	-3.0104	-45.601	142.172	247.732	139.820	198.694	77.021	-26.883	-84.485	31.735	30.658	171.414	-88.154	31.814	180.615	-11.339	166.363	0.0003294	0.00046457	0.00014805	781.9	3.7103e-06	5.8141e-06	633.11	312.93	2.414e-06	5.7996e-06	305.76	144.51	142.48	73.051	3.3932e-06	79.69	0.00037367	0.00023297	6.4549e-05	762.66	2.5366e-06	2.413e-06	619.2	306.61	2.6482e-06	2.571e-06	301.73	142.72	140.67	72.035	2.9566e-06	78.448	246.468	-24.645	-10.235	-92.310	55.055	44.060	-93.170	-87.393	50.625	40.835	-89.373	-85.504	-83.702	-80.388	43.029	-82.918	-8191	255	
20155.262	1	1	0	0	0.16991	0.26815	0.19852	0.12983	0.14464	0.11027	0.12078	0.19179	0.19639	0.095226	0.12171	0.088563	0.082229	0.2465	0.15766	0.29335	-2.1208	-2.4688	-2.8833	-2.4333	-2.7042	-2.7938	-2.35	-2.9625	-2.6875	-2.5917	-3.0875	-2.4479	-2.8417	-3	-2.2979	-3.0583	44.806	201.057	-0.322	144.833	159.569	34.133	221.797	203.275	-72.911	-38.217	-3.021	246.425	64.481	56.965	99.737	198.509	0.00031626	0.00046427	0.00015932	781.86	3.8603e-06	6.3891e-06	634.67	311.37	2.8991e-06	4.9547e-06	304.72	143.94	141.21	72.493	3.9038e-06	79.325	0.00035287	0.00022872	6.2156e-05	761.81	2.6133e-06	2.3246e-06	618.15	305.75	2.776e-06	2.4419e-06	299.91	142.17	139.9	71.735	3.1394e-06	78.148	243.924	-18.615	-7.257	-92.425	67.848	50.372	-92.610	-87.307	23.601	44.205	-89.193	-85.572	-83.930	-80.382	51.023	-82.805	-8191	255	
20155.357	1	1	0	0	0.22149	0.023721	0.23727	0.17704	0.16537	0.18193	0.216	0.20051	0.091998	0.18986	0.17574	0.30056	0.11236	0.26072	0.21581	0.21991	-2.2854	-2.2687	-3.0667	-2.5687	-2.6937	-2.8479	-2.4104	-2.9208	-2.4688	-2.5	-2.9896	-2.4667	-2.65	-3.0958	-2.3208	-2.9875	26.381	-73.491	-18.241	-74.176	49.480	92.339	145.875	205.411	-41.232	55.714	230.788	162.583	-99.289	251.913	-98.707	205.833	0.0003045	0.00054761	0.00015679	777.39	3.326e-06	6.0132e-06	630.1	311.02	3.8289e-06	5.5567e-06	304.52	143.1	141.4	72.418	2.9921e-06	79.114	0.00036583	0.00023642	6.7416e-05	758.82	2.4622e-06	2.475e-06	613.69	305.02	2.6815e-06	2.479e-06	297.82	141.7	139.92	71.614	2.9679e-06	77.895	247.626	-12.215	-8.122	-92.260	62.017	36.347	-92.717	-87.542	32.263	53.712	-89.205	-85.524	-83.707	-80.358	49.752	-82.722	-8191	255	
20155.453	1	1	0	0	0.075427	0.0038	0.11821	0.074244	0.063371	0.12863	0.090216	0.095968	0.2848	0.30766	0.12882	0.28083	0.21508	0.064127	0.22724	0.069823	-2.3125	-2.2979	-2.9458	-2.2771	-2.5333	-2.9833	-2.1917	-2.8042	-2.7542	-2.2938	-3.1646	-2.6354	-2.525	-2.9292	-2.3229	-2.9167	195.830	217.658	89.247	226.796	16.262	-94.059	244.283	205.367	202.782	110.280	-6.104	181.729	212.989	65.354	77.262	217.121	0.00031914	0.00053183	0.00014677	778.12	4.1155e-06	7.0356e-06	625	311.34	2.2974e-06	7.6713e-06	304.38	143.93	141.18	72.481	3.7304e-06	79.761	0.00035279	0.00023755	6.8297e-05	757.57	2.6803e-06	2.4251e-06	613.25	304.98	2.6247e-06	2.7524e-06	297.95	142.16	139.7	71.627	2.9945e-06	78.382	248.869	-32.833	4.199	-92.197	65.037	46.669	-92.742	-87.404	61.482	40.976	-89.058	-85.713	-83.657	-80.256	51.616	-82.815	-8191	255	
20155.549	1	1	0	0	0.22501	0.45311	0.11154	0.38151	0.051827	0.057316	0.097433	0.21071	0.27706	0.17261	0.28048	0.10671	0.13551	0.3032	0.051461	0.18428	-2.3312	-2.2687	-2.8229	-2.7	-2.5292	-3.1271	-2.45	-2.8708	-2.9021	-2.5042	-3.0896	-2.5083	-2.5708	-3.0812	-2.3812	-2.7896	-63.504	71.083	-39.848	5.946	-95.493	90.741	249.152	238.613	73.401	253.020	146.295	-82.448	225.057	194.993	-25.618	108.826	0.00030021	0.00059689	0.00017515	776.98	4.2258e-06	5.9727e-06	635.27	311.22	2.7453e-06	5.3258e-06	306.14	144.2	140.77	72.613	4.7038e-06	79.51	0.0003533	0.00024949	6.4549e-05	758.87	2.5961e-06	2.454e-06	617.73	305.53	2.6214e-06	2.5705e-06	299.44	142.46	139.69	71.883	2.9477e-06	78.362	246.962	-17.743	-21.556	-92.059	56.311	49.641	-92.558	-86.983	51.130	60.115	-89.322	-85.620	-83.869	-80.292	24.112	-83.062	-8191	255	
20155.645	1	1	0	0	0.11922	0.37057	0.031409	0.10118	0.12445	0.17479	0.21675	0.060776	0.28285	0.10984	0.1533	0.12935	0.13609	0.32226	0.25788	0.33415	-2.3792	-2.0229	-2.825	-2.6396	-2.4896	-3.0896	-2.4458	-2.5271	-2.9042	-2.2021	-3.0521	-2.8792	-2.3271	-3.0542	-2.6208	-2.7396	170.243	-80.732	14.342	146.966	232.409	64.200	83.372	-50.412	251.914	241.516	222.652	84.704	-66.217	225.050	-59.520	-80.458	0.00032951	0.0005986	0.00019469	782.29	4.747e-06	6.7406e-06	630.69	310.66	3.6692e-06	7.2867e-06	306.32	143.7	141.26	73.16	3.6291e-06	79.635	0.00035778	0.00023061	6.6811e-05	760.08	2.7649e-06	2.5207e-06	616.51	304.81	2.7501e-06	2.6411e-06	298.99	142.56	140.13	72.093	2.9428e-06	78.461	247.577	-19.022	-3.079	-92.329	58.917	35.445	-92.850	-87.333	47.416	43.697	-89.241	-85.740	-83.793	-80.132	47.102	-82.803	-8191	255	
20155.740	1	1	0	0	0.11969	0.13408	0.23517	0.20812	0.14911	0.045689	0.13389	0.17717	0.10159	0.048921	0.034817	0.22403	0.15007	0.25484	0.1534	0.050525	-2.4583	-2.1771	-2.9062	-2.6521	-2.3271	-3.05	-2.5938	-2.4562	-2.9708	-2.4854	-2.8667	-2.7333	-2.3229	-3.1063	-2.4062	-2.4833	198.744	150.963	133.272	-78.465	106.008	137.789	139.257	132.730	234.134	-64.988	-17.681	207.479	216.059	208.688	-33.334	12.035	0.00029392	0.00047609	0.00017396	775.62	3.9351e-06	7.0107e-06	633.71	311.08	3.1472e-06	6.5645e-06	304.01	144.11	141.23	72.599	4.1253e-06	79.079	0.00036025	0.00025133	6.639e-05	756.32	2.6496e-06	2.5002e-06	615.18	304.78	2.651e-06	2.5287e-06	298.33	142.36	139.75	71.672	2.8831e-06	77.973	247.497	-30.230	-12.475	-92.060	64.664	57.084	-92.607	-87.101	42.402	45.528	-89.633	-85.582	-84.020	-80.408	43.064	-82.872	-8191	255	
20155.861	1	1	0	0	0.06408	0.07881	0.14619	0.24054	0.12931	0.11426	0.18882	0.28325	0.29391	0.077631	0.29644	0.15165	0.076868	0.2702	0.07921	0.12572	-2.6229	-2.0917	-2.6875	-2.9813	-2.3167	-2.8937	-2.5604	-2.4083	-2.9833	-2.35	-2.7542	-2.8917	-2.3708	-3.0917	-2.5812	-2.4938	-28.591	-12.612	111.937	-90.023	30.644	23.568	102.529	202.925	135.310	178.308	243.635	172.414	-14.091	248.486	48.191	205.904	0.0003053	0.00062352	0.00012803	774.5	3.8277e-06	5.3626e-06	631.48	309.78	1.9939e-06	5.2723e-06	304.86	143.68	140.25	72.236	2.3545e-06	78.828	0.00035621	0.00023292	6.618e-05	753.68	2.617e-06	2.4871e-06	612.84	302.98	2.6632e-06	2.5543e-06	297.85	142.1	139.01	71.519	3.0566e-06	77.814	246.327	-32.327	-26.848	-92.105	44.295	35.028	-92.633	-87.212	28.343	53.850	-89.393	-85.637	-83.654	-80.414	36.644	-82.689	-8191	255	
20155.934	1	1	0	0	0.1506	0.12246	0.20174	0.18773	0.079517	0.17343	0.14142	0.10204	0.099271	0.16854	0.10086	0.14182	0.34436	0.14342	0.13413	0.21631	-2.5396	-2.4208	-2.5062	-3.1271	-2.1583	-2.9083	-2.8625	-2.4396	-3.0438	-2.3917	-2.6292	-2.8979	-2.3833	-3.0146	-2.8375	-2.4583	240.783	217.756	84.770	168.084	139.223	244.938	78.655	-49.285	15.576	29.645	-71.883	-90.517	163.916	242.871	38.114	67.352	0.00028877	0.00051384	0.00017748	771.57	4.2687e-06	5.7904e-06	632.96	308.59	2.6172e-06	6.9811e-06	304.37	143.4	140.62	72.177	4.3748e-06	78.69	0.00035968	0.00023505	6.7863e-05	752.91	2.6338e-06	2.526e-06	614.23	302.24	2.4917e-06	2.5245e-06	298.32	141.78	139.23	71.191	2.9447e-06	77.532	246.970	-21.737	-14.438	-92.154	56.066	36.507	-92.673	-87.123	26.391	54.372	-89.211	-85.631	-83.774	-80.589	47.795	-82.571	-8191	255	
20156.055	1	1	0	0	0.095073	0.15701	0.10951	0.12279	0.21565	0.054227	0.15088	0.20188	0.2682	0.14516	0.17155	0.12991	0.17231	0.21006	0.33439	0.2951	-2.6333	-2.3021	-2.4229	-3.2292	-2.4188	-2.6063	-2.8042	-2.4271	-3	-2.7313	-2.4792	-3.1979	-2.4021	-2.9708	-2.9604	-2.4104	-43.613	-0.041	65.043	99.477	230.093	236.360	179.214	144.620	52.846	50.814	-26.991	224.067	-75.568	238.874	232.832	225.622	0.00030282	0.00059655	0.00015644	776.13	2.9371e-06	5.5558e-06	629.73	308.26	2.6477e-06	5.8019e-06	303.8	143.52	140.37	72.165	3.5691e-06	78.704	0.00035108	0.00023259	6.9125e-05	755.17	2.597e-06	2.5586e-06	613.92	302.66	2.7576e-06	2.4816e-06	297.09	141.42	138.69	71.202	2.7367e-06	77.487	248.391	-25.473	-7.438	-91.893	61.796	44.640	-92.683	-87.465	32.400	12.651	-88.906	-85.387	-83.606	-80.241	39.527	-82.609	-8191	255	
20156.150	1	1	0	0	0.069167	0.13439	0.14968	0.16537	0.042875	0.30382	0.14458	0.15004	0.055773	0.16884	0.11587	0.27712	0.18363	0.35884	0.12316	0.096323	-2.4458	-2.4917	-2.425	-3.1792	-2.3896	-2.7938	-3.1354	-2.2771	-2.9688	-2.6521	-2.5375	-3.0604	-2.45	-2.7542	-3.075	-2.3937	81.944	59.199	-60.054	245.825	157.536	123.188	-75.199	128.296	171.128	-1.108	132.297	-94.660	253.719	250.770	28.521	24.578	0.00030128	0.00049062	0.00013062	773.98	4.0494e-06	7.1723e-06	626.78	307.73	3.7367e-06	5.7909e-06	303.46	143.55	140.2	71.765	3.4978e-06	78.39	0.00036011	0.00024203	6.7495e-05	752.39	2.7077e-06	2.4718e-06	611.65	302.37	2.8159e-06	2.4226e-06	297	141.54	138.52	70.996	2.8501e-06	77.076	249.966	-17.039	-11.509	-92.071	60.583	45.097	-92.637	-87.463	26.503	54.621	-89.294	-85.436	-83.723	-80.323	26.292	-82.643	-8191	255	
20156.246	1	1	0	0	0.21145	0.035734	0.15398	0.22835	0.20984	0.23389	0.046565	0.28261	0.19715	0.24145	0.074912	0.29867	0.13549	0.17874	0.12862	0.13788	-2.6167	-2.6854	-2.4667	-3.0667	-2.5146	-2.4562	-3.2313	-2.3646	-2.7458	-2.8479	-2.3458	-2.9875	-2.6104	-2.4833	-2.8479	-2.4479	205.646	120.338	62.945	232.697	-35.652	-8.270	137.130	117.463	-51.201	250.518	19.046	217.916	-7.831	-104.780	104.290	14.230	0.00030523	0.0005094	0.00018622	771.25	4.2948e-06	5.5514e-06	627.07	307.34	4.112e-06	5.391e-06	302.82	141.64	139.07	70.684	2.9948e-06	77.178	0.00035002	0.00023009	6.9191e-05	751.1	2.5105e-06	2.5086e-06	610.4	301.57	2.7825e-06	2.5517e-06	295.95	139.91	137.67	69.871	2.8259e-06	75.93	248.348	-22.942	-19.028	-91.885	46.430	61.170	-92.821	-87.289	64.614	56.505	-89.449	-85.705	-83.798	-80.342	47.739	-82.695	-8191	255	
20156.344	1	1	0	0	0.29042	0.13153	0.10984	0.12768	0.12924	0.1462	0.042423	0.22684	0.11643	0.078213	0.41318	0.085738	0.30735	0.28507	0.17618	0.17451	-2.3625	-2.7979	-2.2208	-3.0625	-2.5229	-2.5521	-2.9167	-2.3875	-2.7625	-3.025	-2.1688	-2.9688	-2.6521	-2.6521	-3.2479	-2.4896	228.538	135.084	-0.466	244.344	82.530	115.727	184.277	-86.202	175.000	128.452	167.765	22.319	-48.504	193.632	75.669	210.946	0.0003224	0.00059986	0.0001261	776.34	3.9645e-06	6.7174e-06	625.18	306.81	3.7974e-06	5.9233e-06	302.68	140.88	139.11	70.112	3.9816e-06	76.743	0.00035897	0.00023019	7.0046e-05	754.32	2.6305e-06	2.7552e-06	610.87	301.82	2.798e-06	2.5391e-06	296.02	139.44	137.54	69.479	2.8397e-06	75.655	248.894	-25.328	-6.977	-92.214	59.751	49.769	-92.727	-87.353	36.847	52.965	-89.105	-85.522	-83.546	-80.514	51.621	-82.392	-8191	255	
20156.463	1	1	0	0	0.16095	0.020878	0.17713	0.22702	0.24452	0.14946	0.15895	0.090048	0.070084	0.067917	0.23098	0.17929	0.11151	0.19216	0.021542	0.069119	-2.1979	-2.7438	-1.9625	-2.9188	-2.6667	-2.2375	-2.9792	-2.4333	-2.3958	-2.8104	-2.3187	-2.7604	-2.7792	-2.3104	-2.8583	-2.6229	245.857	40.766	81.756	-39.834	41.999	106.291	-75.771	240.303	-43.985	223.658	-68.665	239.264	220.430	-103.163	170.290	71.044	0.00032032	0.00054793	0.00012671	776.65	3.5064e-06	5.04e-06	624.68	308.19	2.8176e-06	6.0778e-06	301.61	140.54	137.9	70.001	4.5574e-06	76.099	0.00036263	0.00022523	6.4878e-05	756.61	2.4487e-06	2.5449e-06	612.54	301.97	2.7031e-06	2.432e-06	295.52	139.1	137.15	69.209	2.858e-06	75.179	246.237	-15.762	-19.070	-92.007	52.364	39.288	-92.653	-87.204	35.934	50.953	-88.826	-85.407	-83.465	-80.047	44.453	-82.675	-8191	255	
20156.559	1	1	0	0	0.0093737	0.09175	0.14521	0.042863	0.36882	0.1748	0.21295	0.074969	0.081667	0.13833	0.080032	0.14491	0.35018	0.3398	0.12146	0.24936	-2.1958	-2.9521	-2.2979	-2.8583	-2.6729	-2.3438	-3.1021	-2.6875	-2.6937	-2.8917	-2.3354	-2.725	-2.9146	-2.5583	-3.0417	-2.8125	156.759	143.855	220.627	-82.311	174.113	-59.492	185.931	168.033	-69.669	253.838	240.668	185.669	222.690	-101.777	235.545	176.828	0.00028673	0.00052297	0.00012778	773.49	3.862e-06	5.776e-06	624.29	306.74	2.1328e-06	5.6221e-06	302.14	139.72	138.31	69.954	4.1791e-06	76.012	0.00034281	0.00023066	7.0348e-05	755.03	2.5575e-06	2.5502e-06	610.43	301.42	2.7605e-06	2.593e-06	294.75	138.37	136.97	69.151	2.753e-06	74.921	249.246	-30.669	-7.330	-91.891	49.270	43.031	-92.701	-87.033	29.414	52.100	-89.028	-85.640	-83.633	-80.275	39.211	-82.521	-8191	255	
20156.654	1	1	0	0	0.074971	0.26214	0.28816	0.23527	0.2652	0.13305	0.35717	0.12136	0.096267	0.19891	0.2296	0.4205	0.30503	0.16609	0.10145	0.22773	-2.0875	-3.0292	-2.2333	-2.8021	-2.7917	-2.2646	-3.0354	-2.6688	-2.3125	-2.9	-2.3979	-2.5563	-2.8625	-2.2646	-2.9813	-2.7583	-31.399	111.774	153.377	-95.304	151.709	-37.818	-29.423	197.627	103.891	-87.114	44.474	147.720	-3.783	-37.698	217.674	223.419	0.00028784	0.00055994	0.000159	772.66	3.8118e-06	4.7385e-06	624.13	307.64	3.0729e-06	4.6821e-06	300.82	140.74	138.56	70.23	3.8443e-06	76.754	0.00035786	0.00023472	6.7705e-05	754.07	2.6817e-06	2.485e-06	610.29	302.04	2.7102e-06	2.4524e-06	294.49	138.92	137.19	69.31	2.9043e-06	75.452	247.393	-21.131	-8.912	-92.097	63.545	32.819	-92.844	-86.928	45.215	21.392	-89.154	-85.133	-83.334	-80.297	35.500	-82.532	-8191	255	
20156.750	1	1	0	0	0.19878	0.10743	0.19602	0.13884	0.42243	0.07967	0.12484	0.18137	0.10832	0.2751	0.088942	0.076245	0.26613	0.2214	0.087688	0.090682	-1.9479	-2.8146	-2.4833	-2.5583	-2.9729	-2.1292	-2.7896	-2.5854	-2.2521	-3.1688	-2.4313	-2.6937	-2.8792	-2.5438	-2.7875	-2.7854	-60.757	75.931	27.465	60.734	134.334	248.152	105.812	211.695	195.575	-60.147	113.529	-38.283	128.565	196.910	28.389	179.368	0.00029062	0.00052761	0.00017114	773.95	4.199e-06	6.17e-06	627.83	308.77	3.5196e-06	5.5127e-06	304.18	141.46	139.19	70.14	3.4135e-06	77.422	0.00035542	0.00023731	6.6759e-05	754.88	2.6119e-06	2.5896e-06	612.58	302.66	2.7666e-06	2.4503e-06	297.33	139.65	137.77	69.651	2.961e-06	76.127	248.763	-20.257	-15.776	-91.924	70.160	48.960	-92.295	-86.981	45.002	43.380	-89.372	-85.497	-83.562	-80.327	33.493	-82.496	-8191	255	
20156.846	1	1	0	0	0.11038	0.26741	0.19508	0.31623	0.11243	0.25733	0.053391	0.28697	0.12014	0.10293	0.04379	0.1832	0.22549	0.5251	0.071797	0.18026	-1.9396	-2.9667	-2.6	-2.4292	-3.125	-2.3937	-2.9958	-3.0583	-2.225	-2.8396	-2.3688	-2.4062	-3.1521	-2.3625	-2.7396	-2.8125	1.468	-60.071	138.225	211.011	63.024	-77.421	-90.211	191.869	22.101	-51.436	12.276	153.708	-83.410	163.689	90.280	161.046	0.00030858	0.00057158	0.00017771	779.38	4.3519e-06	4.9943e-06	635.84	312.66	3.2214e-06	3.7516e-06	306.23	142.26	140.91	71.06	3.378e-06	77.436	0.00035791	0.00022986	6.6469e-05	759.93	2.5803e-06	2.4782e-06	618.59	305.7	2.7445e-06	2.295e-06	299.45	140.52	138.87	70.148	3.1054e-06	76.387	249.063	-10.517	-10.960	-92.184	57.280	42.674	-92.508	-87.099	36.445	41.180	-88.796	-85.558	-83.357	-79.956	51.271	-82.448	-8191	255	
20156.941	1	1	0	0	0.07247	0.19954	0.050129	0.17581	0.18373	0.18835	0.081435	0.091941	0.085032	0.21343	0.18258	0.29757	0.24148	0.13797	0.071722	0.11648	-1.8625	-3	-2.5375	-2.5771	-2.8937	-2.3646	-2.7562	-2.9062	-2.2667	-2.5417	-2.7062	-2.2833	-2.8792	-2.4917	-2.5083	-2.9021	-101.685	-66.825	-52.447	254.699	239.307	251.430	252.896	-73.362	227.760	-39.936	238.847	239.057	189.866	229.275	205.838	174.433	0.00030349	0.00051796	0.00014128	776.76	3.8997e-06	6.4624e-06	631.87	312.74	3.8812e-06	5.2419e-06	307.53	141.78	141.11	70.506	2.9503e-06	77.286	0.00036155	0.00024194	6.497e-05	759.82	2.4552e-06	2.6826e-06	617.46	307.04	2.9502e-06	2.41e-06	299.93	140.53	139.31	70.041	3.0108e-06	76.129	246.034	-28.799	-8.500	-92.022	47.475	42.209	-92.881	-86.934	44.838	43.284	-88.777	-85.281	-83.405	-79.917	42.538	-82.651	-8191	255	
20157.037	1	1	0	0	0.021531	0.11868	0.20848	0.058248	0.12808	0.15729	0.27695	0.12315	0.077124	0.14372	0.16911	0.098355	0.10012	0.06364	0.2018	0.091209	-1.7167	-2.6958	-2.5083	-2.3917	-3.0146	-2.4021	-2.5792	-2.8208	-2.4729	-2.7958	-2.7979	-2.2188	-2.7938	-2.6229	-2.4188	-3.125	136.181	192.648	211.878	17.450	55.200	41.927	-69.775	148.338	147.918	212.224	194.773	182.363	146.886	-54.137	124.096	226.863	0.00028141	0.00061714	0.00013665	782.79	4.4363e-06	7.6504e-06	633	312.56	3.4427e-06	5.0966e-06	308.96	141.8	140.6	70.544	3.3948e-06	77.196	0.00034997	0.00022518	6.2064e-05	762.5	2.5589e-06	2.6411e-06	617.98	306.71	2.83e-06	2.5846e-06	300.79	140.41	139.09	69.658	2.8279e-06	75.748	246.400	-23.034	-1.179	-92.050	49.681	45.908	-92.616	-86.866	56.744	41.656	-88.799	-85.488	-83.527	-80.011	40.151	-82.522	-8191	255	
20157.158	1	1	0	0	0.046627	0.17702	0.10427	0.13839	0.097165	0.28198	0.11208	0.078838	0.060044	0.12431	0.26708	0.051553	0.056555	0.050257	0.18404	0.17322	-1.9646	-2.5687	-2.8312	-2.3854	-2.9042	-2.5625	-2.4437	-2.9604	-2.3875	-2.5312	-3.0042	-2.1708	-3.0875	-2.9188	-2.3479	-2.9458	201.039	-99.287	75.012	165.610	-3.429	-87.679	-25.135	151.257	184.119	-96.591	54.742	159.320	247.358	-49.406	80.992	-47.003	0.00028624	0.00042639	0.00015545	780.04	4.0338e-06	4.9319e-06	632.57	314.17	3.6234e-06	5.8004e-06	307.19	142.6	141.75	70.465	4.1572e-06	77.238	0.00035461	0.0002333	6.5799e-05	761.86	2.4919e-06	2.4913e-06	619.69	307.81	2.7985e-06	2.4278e-06	300.39	140.89	139.81	69.646	2.9659e-06	75.875	247.609	-18.890	-9.375	-92.006	65.656	51.445	-92.783	-87.052	57.010	38.014	-88.906	-85.432	-83.518	-79.967	46.979	-82.323	-8191	255	
20157.230	1	1	0	0	0.080402	0.04089	0.078942	0.067456	0.060443	0.071328	0.19328	0.093471	0.090189	0.1215	0.13956	0.23633	0.31689	0.26303	0.1843	0.1114	-1.9813	-2.45	-2.9188	-2.3458	-3	-2.7417	-2.4208	-3.075	-2.3854	-2.7208	-3.1562	-2.4542	-2.8292	-2.7208	-2.4167	-3.0187	44.194	241.784	231.238	66.194	-13.551	168.786	51.614	-14.488	218.048	240.225	-88.257	222.079	226.079	165.195	164.170	141.228	0.00031305	0.00049758	0.0001417	786.34	4.2911e-06	5.9322e-06	640.44	314.46	2.7618e-06	6.3641e-06	308.56	142.31	141.09	69.978	3.3971e-06	76.342	0.00036461	0.00023962	6.1722e-05	766.71	2.6519e-06	2.5113e-06	622.98	308.69	2.6843e-06	2.6019e-06	302.06	140.56	139.42	69.302	2.9526e-06	75.366	247.315	-23.965	-5.879	-92.074	67.695	37.671	-92.403	-86.973	47.106	41.657	-88.978	-85.302	-83.475	-80.072	38.682	-82.634	-8191	255	
20157.326	1	1	0	0	0.062315	0.16408	0.108	0.20616	0.17786	0.092142	0.04356	0.27161	0.27588	0.39736	0.15066	0.045899	0.23006	0.14605	0.13845	0.032635	-1.8417	-2.4667	-2.9313	-2.5771	-2.7729	-2.7167	-2.45	-3.0979	-2.4938	-2.3292	-3.0312	-2.3271	-2.7562	-2.8104	-2.2875	-3.1312	-44.355	11.619	-53.195	160.738	-89.759	202.431	133.492	170.596	158.550	59.780	115.104	129.548	240.053	222.942	-31.601	-62.773	0.00031419	0.00062041	0.00016858	794.89	3.6041e-06	8.5356e-06	640.52	316.03	2.8429e-06	5.1105e-06	305.88	140.71	140.5	69.491	3.9604e-06	75.554	0.0003523	0.00025053	6.43e-05	774.54	2.478e-06	2.6243e-06	624	310.24	2.542e-06	2.4362e-06	300.06	139.19	139.22	68.707	2.9669e-06	74.342	246.373	-26.166	-12.664	-92.438	61.876	47.373	-92.581	-87.515	33.015	42.496	-89.317	-85.601	-84.023	-80.381	40.718	-82.503	-8191	255	
20157.424	1	1	0	0	0.27681	0.3346	0.21693	0.13366	0.046085	0.045694	0.26371	0.51876	0.18842	0.23273	0.24325	0.42278	0.14493	0.28358	0.32321	0.030544	-2.0021	-2.2313	-2.9417	-2.5312	-2.5521	-2.9292	-2.2458	-2.9354	-2.4146	-2.1125	-3.0083	-2.4833	-2.4313	-2.9437	-2.1104	-2.9229	246.158	80.931	162.777	145.952	219.792	69.483	124.632	224.585	3.553	-41.901	146.281	226.477	2.510	251.648	212.444	192.112	0.00030351	0.00060325	0.00015571	799.18	2.6769e-06	6.2738e-06	643.09	315.05	2.5529e-06	5.4127e-06	307.04	140.05	140.47	68.652	2.3142e-06	74.615	0.00034498	0.00023325	6.0828e-05	778.97	2.6245e-06	2.3304e-06	625.94	310.81	2.6721e-06	2.5721e-06	300.27	138.28	138.44	67.856	2.8668e-06	73.449	251.055	-22.382	-11.741	-91.949	82.733	40.452	-93.002	-87.254	38.404	43.394	-89.177	-85.685	-83.615	-80.280	44.403	-82.822	-8191	255	
20157.543	1	1	0	0	0.079335	0.12204	0.31592	0.059376	0.17438	0.1564	0.30662	0.19485	0.13791	0.27239	0.12033	0.16003	0.048252	0.2227	0.21403	0.083607	-2.275	-2.2042	-2.8521	-2.4646	-2.55	-3.0125	-2.3396	-2.8042	-2.6458	-2.5771	-3.1292	-2.4042	-2.4708	-3.0875	-2.2104	-2.8458	-102.971	-27.933	15.499	219.308	241.382	214.125	226.232	242.554	-93.724	183.232	200.899	-57.239	-67.636	185.610	169.675	99.156	0.00029675	0.000503	0.00014465	806.12	3.1015e-06	5.2377e-06	644.36	318.6	3.8341e-06	5.2774e-06	306.34	139.82	140.16	68.254	3.5551e-06	73.851	0.00034194	0.00024378	6.0592e-05	784.34	2.6468e-06	2.312e-06	628.11	312.63	2.5758e-06	2.5784e-06	300.36	138.21	138.42	67.493	2.9181e-06	73.013	248.657	-13.069	-17.373	-92.067	67.606	56.787	-92.738	-87.315	51.118	52.776	-89.347	-85.613	-83.789	-80.392	33.892	-82.869	-8191	255	
20157.639	1	1	0	0	0.23979	0.17539	0.17031	0.01965	0.17958	0.32293	0.16383	0.098445	0.29172	0.14352	0.29151	0.13399	0.10495	0.28415	0.18913	0.32529	-2.55	-2.2875	-2.9979	-2.5167	-2.3333	-2.8479	-2.5104	-2.5792	-2.8917	-2.3396	-3.0563	-2.4604	-2.2375	-3.0833	-2.1375	-2.5896	-76.280	46.530	74.430	56.537	47.482	81.831	169.196	181.171	113.770	-26.466	196.379	232.979	-34.297	-89.864	-98.328	-69.176	0.00028592	0.00045774	0.00013245	811.67	3.9566e-06	5.6771e-06	647.99	319.07	2.9179e-06	6.8102e-06	309.16	139.08	140.37	67.483	4.5143e-06	73.188	0.00034023	0.0002451	6.0131e-05	790.39	2.6231e-06	2.3204e-06	632.13	313.7	2.4955e-06	2.5109e-06	301.24	137.45	138.66	66.663	2.8471e-06	71.916	249.386	-16.523	-19.837	-92.379	56.305	42.220	-92.776	-87.354	30.037	43.117	-89.505	-85.531	-83.808	-80.574	31.090	-82.989	-8191	255	
20157.734	1	1	0	0	0.046969	0.075877	0.13678	0.2675	0.12825	0.093614	0.18918	0.081049	0.062802	0.12757	0.37802	0.1329	0.12938	0.072425	0.082959	0.39443	-2.4479	-2.2229	-2.9042	-2.6229	-2.3375	-2.8521	-2.2229	-2.7521	-2.7542	-2.2729	-2.925	-2.7875	-2.2896	-3.1417	-2.3875	-2.6583	122.345	151.055	35.876	196.191	210.062	136.377	160.467	103.131	228.558	-63.867	156.101	115.239	218.268	-59.552	144.808	124.191	0.0002732	0.00062649	0.0001431	818.49	3.2525e-06	6.0101e-06	652.61	320.43	2.4303e-06	4.4743e-06	304.22	136.89	139.42	66.087	3.8925e-06	71.457	0.00034148	0.00023269	6.3011e-05	797.66	2.5617e-06	2.1995e-06	635.34	314.68	2.5368e-06	2.4759e-06	299.05	135.47	138.25	65.296	2.9176e-06	70.276	248.316	-11.368	-10.367	-92.094	51.099	44.710	-92.868	-87.530	72.073	46.203	-89.432	-85.808	-83.771	-80.391	40.575	-82.886	-8191	255	
20157.830	1	1	0	0	0.10556	0.043655	0.27866	0.24464	0.039448	0.16066	0.067668	0.14002	0.12821	0.16427	0.10708	0.30652	0.1104	0.17511	0.079169	0.14454	-2.5292	-2.2667	-2.6875	-2.9271	-2.3625	-3.0271	-2.4271	-2.6729	-2.6729	-2.4	-2.6583	-2.8958	-2.2917	-2.8333	-2.5292	-2.5229	222.137	157.099	-74.557	243.925	31.297	-7.928	-83.086	179.056	31.560	211.597	24.037	240.260	107.276	197.498	88.044	168.574	0.00028379	0.00039219	0.00015415	825.02	4.173e-06	6.2011e-06	650.05	320.14	3.2673e-06	4.5203e-06	303.78	135.49	139.56	65.143	3.7227e-06	69.967	0.00032505	0.00022806	6.1052e-05	804.77	2.4747e-06	2.3299e-06	634.77	315.09	2.5993e-06	2.3509e-06	297.22	134.39	138.38	64.381	2.7195e-06	69.079	249.077	-8.120	-18.561	-92.349	73.986	48.304	-92.752	-87.420	42.222	33.194	-89.302	-85.843	-83.904	-80.522	52.764	-83.114	-8191	255	
20157.926	1	1	0	0	0.18721	0.064194	0.072828	0.080781	0.13335	0.28483	0.09352	0.29253	0.31219	0.22907	0.1094	0.25353	0.054841	0.23909	0.34533	0.089312	-2.5854	-2.3708	-2.6396	-3.0542	-2.1604	-2.8146	-2.6979	-2.6521	-2.8667	-2.4333	-2.7521	-2.8979	-2.2417	-2.8958	-2.6521	-2.3479	146.884	238.491	198.540	6.746	24.204	-35.960	55.401	101.245	186.441	234.564	78.237	139.037	-7.926	246.428	84.754	226.354	0.00028379	0.00053608	0.00014654	831.54	3.0034e-06	6.6456e-06	650.15	322.47	3.602e-06	3.348e-06	304.05	135.8	140.29	64.884	4.4131e-06	69.415	0.00031778	0.00022221	6.2051e-05	810.5	2.3412e-06	2.3278e-06	636.09	316.19	2.5815e-06	2.3933e-06	296.92	133.99	138.5	63.921	2.7742e-06	68.468	249.176	-11.506	-2.364	-92.169	45.058	41.459	-92.726	-87.299	43.080	55.957	-89.751	-85.794	-83.919	-80.307	59.547	-82.855	-8191	255	
20158.023	1	1	0	0	0.14799	0.2127	0.11742	0.16582	0.20867	0.052732	0.32676	0.23195	0.02385	0.2956	0.17058	0.1553	0.24034	0.20901	0.09447	0.18544	-2.4813	-2.3458	-2.5042	-2.9188	-2.3417	-2.75	-2.7604	-2.3542	-2.9479	-2.3312	-2.5958	-2.9333	-2.3354	-2.7917	-2.7875	-2.3438	104.695	30.627	95.124	-24.659	123.123	84.857	168.825	-96.277	213.605	166.131	215.993	132.243	252.711	203.621	211.626	218.640	0.00026982	0.00043615	0.00015784	834.84	4.3527e-06	4.8729e-06	654.04	321.7	3.0525e-06	5.9712e-06	302.78	135.02	140.14	64.123	4.1191e-06	68.944	0.00031957	0.00021811	6.3761e-05	812.53	2.5254e-06	2.2468e-06	635.95	316.16	2.4086e-06	2.283e-06	296.09	133.22	138.38	63.23	2.6938e-06	67.757	-105.123	-16.588	-14.772	-92.230	60.497	55.778	-92.788	-87.544	51.404	39.424	-89.372	-85.741	-83.948	-80.519	42.586	-82.888	-8191	255	
20158.143	1	1	0	0	0.17248	0.11934	0.061989	0.093928	0.10441	0.21096	0.10331	0.13047	0.17752	0.03823	0.18585	0.20777	0.20511	0.13791	0.090653	0.1225	-2.5958	-2.2104	-2.6042	-2.9104	-2.2396	-2.6896	-2.9	-2.2021	-2.9	-2.5125	-2.4938	-3.0271	-2.3771	-2.8604	-2.7938	-2.3042	-56.120	107.692	222.840	146.767	234.238	-62.357	-50.106	-15.289	-45.755	230.774	190.861	128.129	202.373	198.995	12.933	233.764	0.00028491	0.00055093	0.00011911	833.41	2.2773e-06	6.1656e-06	650.92	322.41	3.3808e-06	5.2341e-06	301.65	134.57	140.85	64.04	4.3478e-06	68.72	0.00031607	0.00022693	6.0894e-05	813.48	2.4724e-06	2.2127e-06	633.5	316.7	2.5801e-06	2.202e-06	295.21	132.93	138.77	63.269	2.7456e-06	67.626	250.427	-29.636	-14.112	-92.222	80.272	50.704	-92.771	-87.468	47.383	43.096	-89.446	-85.563	-83.632	-80.330	55.367	-82.611	-8191	255	
20158.238	1	1	0	0	0.14695	0.030473	0.24743	0.11392	0.10445	0.055949	0.16357	0.21812	0.12326	0.10794	0.16704	0.26499	0.43484	0.27881	0.13689	0.10996	-2.4958	-2.4208	-2.2542	-3.0771	-2.3729	-2.5604	-2.7875	-2.4688	-2.7917	-2.5375	-2.3333	-3.1479	-2.4458	-2.7729	-2.8104	-2.4542	120.652	125.591	2.319	164.402	244.503	83.296	244.917	188.790	143.979	108.293	-63.262	-67.100	193.659	218.089	30.902	186.650	0.00028455	0.00053285	0.00015694	833.64	3.7083e-06	6.6109e-06	647.72	322.85	1.9196e-06	5.6342e-06	301.88	134.5	140.26	63.481	4.2881e-06	68.272	0.00031821	0.00021579	5.8685e-05	809.53	2.5496e-06	2.4739e-06	630.89	316.14	2.5444e-06	2.3028e-06	294.66	132.84	138.44	62.98	2.5563e-06	67.213	248.537	-15.015	-15.221	-92.251	56.564	42.734	-92.857	-87.705	41.257	36.826	-89.845	-85.747	-83.722	-80.717	45.918	-82.778	-8191	255	
20158.336	1	1	0	0	0.14821	0.40875	0.072267	0.17585	0.13512	0.24552	0.15247	0.3912	0.15909	0.32846	0.43098	0.2162	0.27931	0.21228	0.23461	0.024028	-2.4458	-2.6854	-2.2125	-3.1229	-2.4208	-2.4583	-2.9854	-2.3979	-2.8937	-2.6604	-2.2604	-3.1167	-2.825	-2.4229	-2.8063	-2.3979	-61.464	-32.209	85.726	-94.701	14.521	-24.501	155.500	197.074	-59.660	-72.516	228.656	219.073	245.786	223.452	-100.571	-67.036	0.00027179	0.00053383	0.00013539	830.17	3.9488e-06	5.1483e-06	647.6	321.2	2.2884e-06	6.2346e-06	299.63	133.23	139.35	63.197	3.6588e-06	67.689	0.00031404	0.00021693	6.2367e-05	808.99	2.4789e-06	2.3483e-06	630.76	315.87	2.4899e-06	2.2511e-06	292.9	131.87	137.64	62.497	2.614e-06	66.769	252.650	-17.869	-20.317	-92.111	58.254	56.504	-92.731	-87.210	47.514	43.963	-89.351	-85.922	-83.941	-80.681	30.702	-83.055	-8191	255	
20158.453	1	1	0	0	0.16246	0.15718	0.29568	0.14844	0.20847	0.12014	0.16414	0.044127	0.15032	0.22722	0.21192	0.11767	0.086102	0.1604	0.18715	0.092978	-2.4542	-2.6708	-2.1917	-2.9667	-2.5458	-2.4208	-2.9208	-2.3604	-2.6208	-2.8083	-2.3187	-2.875	-2.5354	-2.5229	-2.9	-2.5458	34.453	127.770	80.587	186.119	237.361	26.915	9.509	242.204	-78.191	176.331	172.426	-94.935	-21.930	239.269	-29.015	194.596	0.00026496	0.00052526	0.00014027	830.74	2.6338e-06	5.1696e-06	646.94	322.6	3.2039e-06	4.3732e-06	300.17	133.79	138.9	62.928	3.3504e-06	67.693	0.00032176	0.0002157	6.0289e-05	810.03	2.4189e-06	2.2563e-06	631.96	315.98	2.6914e-06	2.1732e-06	293.89	132.19	137.89	62.23	2.6293e-06	66.623	246.637	-16.646	-19.877	-92.230	59.017	40.986	-92.759	-87.337	50.493	43.657	-89.464	-85.933	-83.847	-80.461	24.185	-82.952	-8191	255	
20158.525	1	1	0	0	0.4738	0.10587	0.19136	0.11588	0.10504	0.10205	0.13682	0.3125	0.089702	0.20348	0.17395	0.18795	0.23778	0.05977	0.11007	0.38136	-2.3208	-2.7771	-2.3104	-2.85	-2.5792	-2.3187	-3.1979	-2.4104	-2.6375	-3.0354	-2.3229	-2.8625	-2.7021	-2.4833	-3.1354	-2.4813	178.450	-74.595	50.109	-38.147	-46.244	-7.669	139.464	139.442	97.788	101.258	173.863	-74.473	129.239	-55.587	178.372	248.948	0.00026431	0.00061103	0.00020031	836.51	3.5544e-06	4.6659e-06	654.69	324.07	3.0063e-06	3.7256e-06	302.17	134.32	140.05	63.339	2.6964e-06	68.049	0.00031699	0.00022769	6.7482e-05	812.29	2.5691e-06	2.362e-06	634.31	317.32	2.542e-06	2.2584e-06	294.78	132.5	138.57	62.499	2.8047e-06	66.881	249.316	-12.411	-14.048	-92.004	62.072	38.968	-93.072	-87.358	50.561	54.726	-89.485	-85.662	-83.816	-80.478	41.040	-82.889	-8191	255	
20158.621	1	1	0	0	0.28906	0.16479	0.19378	0.23275	0.20726	0.08143	0.15193	0.1828	0.1551	0.13923	0.18123	0.050668	0.10835	0.086252	0.26318	0.1312	-1.9646	-2.7667	-2.0854	-2.7	-2.6188	-2.1813	-2.9125	-2.5271	-2.4042	-2.8812	-2.35	-2.7687	-2.9208	-2.2188	-2.9271	-2.6312	110.766	-6.484	222.569	-85.579	93.283	-26.138	241.338	-6.597	243.174	56.110	201.094	132.798	244.320	-38.941	156.212	-89.944	0.00026484	0.00052496	0.0001248	831.59	4.0084e-06	5.353e-06	648.1	324.44	1.8559e-06	5.0117e-06	301.18	134.46	140.73	63.393	4.1674e-06	68.365	0.00032068	0.0002132	6.4471e-05	810.03	2.4529e-06	2.4429e-06	631.78	317.15	2.5148e-06	2.3002e-06	294.14	132.81	139.35	62.581	2.7761e-06	67.075	250.456	-12.562	-28.141	-92.254	56.670	45.946	-92.832	-87.151	53.092	38.292	-89.382	-85.954	-83.657	-80.396	50.561	-82.807	-8191	255	
20158.719	1	1	0	0	0.085212	0.15766	0.042979	0.11181	0.17462	0.17963	0.11984	0.11954	0.074027	0.14162	0.24557	0.093287	0.43437	0.33233	0.20302	0.25033	-1.9542	-2.8833	-2.1625	-2.7208	-2.9375	-2.0938	-3.1792	-2.7604	-2.3625	-2.9604	-2.55	-2.7271	-2.8	-2.3167	-2.9104	-2.6937	-49.005	8.992	-91.317	254.965	69.380	244.165	7.486	-92.577	-14.701	13.568	246.975	-86.531	237.694	253.798	23.385	214.928	0.00026521	0.00064514	0.00016581	835.87	2.927e-06	5.5077e-06	652.34	324.82	2.6916e-06	5.2168e-06	301.56	134.37	141.41	62.781	4.2573e-06	68.051	0.00032312	0.00021301	6.1959e-05	812.95	2.3649e-06	2.444e-06	632.99	318.69	2.6773e-06	2.1774e-06	294.87	132.82	139.56	62.145	2.7328e-06	66.701	249.832	-30.129	-10.210	-91.974	52.010	43.916	-92.553	-86.924	25.288	50.900	-89.433	-85.570	-83.826	-80.684	49.914	-82.827	-8191	255	
20158.840	1	1	0	0	0.15678	0.058254	0.12757	0.045964	0.051372	0.066409	0.077123	0.18993	0.27915	0.50536	0.19432	0.245	0.34238	0.09233	0.090696	0.16705	-1.8521	-3.0062	-2.0792	-2.6125	-2.875	-2.3583	-2.8417	-2.8125	-2.3167	-3.0125	-2.5333	-2.4771	-2.9146	-2.3292	-2.7687	-2.7354	65.054	80.256	-15.248	-11.300	165.780	144.685	16.603	-102.739	89.127	189.060	205.408	243.059	226.329	242.445	139.185	109.220	0.00028833	0.00052777	0.00014729	838.91	3.0884e-06	4.8249e-06	651.31	326.59	2.4294e-06	5.2031e-06	305.69	134.71	141.18	62.739	2.87e-06	67.872	0.00032277	0.0002216	6.2196e-05	815.72	2.3505e-06	2.3515e-06	637.37	320.66	2.6411e-06	2.3692e-06	297.54	133.16	139.65	62.012	2.6854e-06	66.744	248.984	-19.571	-6.847	-91.986	57.574	49.309	-93.168	-87.268	47.431	35.671	-89.229	-85.971	-83.853	-80.149	42.261	-82.898	-8191	255	
20158.936	1	1	0	0	0.17991	0.14703	0.20021	0.077618	0.2482	0.17437	0.097144	0.13204	0.14831	0.1176	0.15608	0.23602	0.071834	0.17916	0.15786	0.14983	-1.8708	-3.0312	-2.4208	-2.5458	-2.9062	-2.4667	-2.6937	-2.8521	-2.1667	-2.9479	-2.4854	-2.4854	-3.1125	-2.5833	-2.6708	-2.7667	87.541	103.779	-62.685	155.423	236.336	-103.331	179.113	213.627	101.950	45.091	80.825	185.959	94.765	-96.114	44.481	244.518	0.0002771	0.00052739	0.00014671	839.29	3.4365e-06	6.5876e-06	653.84	326.66	3.0892e-06	5.3502e-06	303.15	134.48	141.2	62.612	3.3288e-06	67.157	0.00032713	0.00022127	6.3458e-05	818.83	2.5147e-06	2.5407e-06	638.69	321.04	2.7036e-06	2.3107e-06	297.23	132.93	139.66	61.808	2.8215e-06	66.317	250.269	-15.972	-24.816	-92.381	45.095	47.842	-92.814	-87.397	46.942	43.069	-89.108	-85.968	-83.756	-80.300	29.995	-82.827	-8191	255	
20159.031	1	1	0	0	0.2019	0.23492	0.19126	0.28998	0.078546	0.15561	0.08183	0.28336	0.095862	0.18038	0.20354	0.13798	0.12309	0.39717	0.089011	0.24087	-1.7354	-2.8542	-2.3833	-2.3458	-2.9458	-2.2396	-2.5396	-2.9	-2.3812	-2.7875	-2.6771	-2.425	-3.0417	-2.2583	-2.4958	-3.0708	-88.612	73.061	50.139	166.853	190.913	104.985	-58.433	-67.448	215.108	-84.183	182.650	196.224	-60.200	-77.003	-40.318	155.995	0.00025818	0.00054717	0.00014699	840.65	3.2964e-06	6.0758e-06	654.97	327.63	3.6812e-06	5.2594e-06	301.89	132.48	140.4	62.065	3.6597e-06	67.152	0.00032052	0.00023071	6.2222e-05	817.44	2.4542e-06	2.4976e-06	637.64	320.44	2.6942e-06	2.3023e-06	296	131.63	139.04	61.358	2.857e-06	66.006	248.022	-27.856	-4.797	-92.186	65.966	44.734	-92.706	-87.137	42.975	48.596	-89.712	-86.387	-84.272	-80.998	62.896	-83.119	-8191	255	
20159.104	1	1	0	0	0.037511	0.032966	0.17357	0.26205	0.26672	0.1124	0.13548	0.1687	0.063119	0.10101	0.24308	0.10809	0.17962	0.09936	0.076146	0.11388	-1.6958	-2.7313	-2.8333	-2.4729	-2.8438	-2.5104	-2.6208	-2.9146	-2.2188	-2.7062	-2.8396	-2.3604	-2.8979	-2.4417	-2.3792	-2.9854	-60.575	-22.357	211.734	152.036	94.510	115.623	241.194	234.825	118.692	30.155	37.975	-101.367	66.257	-24.504	68.882	135.095	0.00024951	0.00052542	0.00011761	840.3	3.4181e-06	5.3825e-06	649.3	327.52	3.8358e-06	4.0922e-06	302.27	133.54	140.48	61.709	1.8459e-06	66.977	0.00032176	0.00021452	5.9303e-05	816.16	2.497e-06	2.4393e-06	636.02	320.75	2.86e-06	2.1852e-06	295.44	131.67	138.7	61.093	2.6716e-06	65.976	252.297	-11.101	-13.342	-92.191	58.339	32.865	-92.813	-87.263	32.824	48.468	-89.442	-85.622	-83.631	-80.360	30.323	-82.816	-8191	255	
20159.225	1	1	0	0	0.11017	0.2223	0.19735	0.2298	0.11197	0.20764	0.13549	0.19801	0.15745	0.036264	0.11065	0.34644	0.10155	0.2808	0.16321	0.43684	-1.7625	-2.5083	-2.7562	-2.3937	-2.85	-2.4938	-2.3083	-3.0958	-2.2438	-2.5875	-2.9	-2.3667	-2.95	-2.6583	-2.2583	-2.9542	52.108	99.153	-13.994	237.644	119.782	188.249	-45.990	236.787	131.738	180.441	155.228	189.664	200.063	-92.627	50.023	183.926	0.00024388	0.00042508	0.00016845	839.28	3.5684e-06	5.3444e-06	655.22	325.56	2.3593e-06	3.5147e-06	305.13	132.94	140.02	61.808	4.1789e-06	67.45	0.00032768	0.00022287	6.1683e-05	818.4	2.5142e-06	2.3383e-06	639.2	320.39	2.6129e-06	2.2229e-06	296.94	131.73	138.51	61.042	2.8314e-06	66.091	247.005	-17.210	-24.494	-92.202	55.468	58.082	-92.773	-87.085	21.615	38.973	-89.461	-85.567	-84.012	-80.130	45.410	-82.526	-8191	255	
20159.320	1	1	0	0	0.37553	0.33352	0.055128	0.22415	0.12103	0.27168	0.046006	0.20814	0.11523	0.16481	0.17957	0.17289	0.04196	0.38185	0.036284	0.085263	-2.0333	-2.45	-2.7042	-2.1562	-2.7021	-2.5833	-2.5375	-3.0729	-2.25	-2.4792	-2.9813	-2.4396	-2.7646	-2.8917	-2.3375	-3.0083	161.457	47.812	42.151	229.088	47.889	48.636	-104.712	182.165	65.940	-46.094	192.710	168.346	65.985	-89.495	33.538	148.709	0.00027664	0.00055771	0.0001053	841.83	3.1399e-06	6.3891e-06	658.04	328.76	3.2588e-06	6.194e-06	304.95	133.71	140.51	61.652	3.8847e-06	67.377	0.00032703	0.00023618	6.1854e-05	819.65	2.4031e-06	2.3867e-06	640.49	321.12	2.7252e-06	2.4006e-06	297.46	131.99	138.61	61.074	2.8521e-06	66.088	249.988	-16.948	2.686	-92.126	68.216	37.895	-92.568	-87.070	56.641	51.444	-89.223	-85.771	-83.927	-80.289	38.714	-82.813	-8191	255	
20159.416	1	1	0	0	0.067414	0.06029	0.29193	0.27112	0.10976	0.21304	0.12486	0.39561	0.1064	0.24252	0.13754	0.25992	0.081083	0.50114	0.10901	0.18406	-2.0396	-2.4437	-2.7271	-2.4021	-2.6792	-2.7146	-2.3125	-2.9604	-2.4042	-2.3917	-3.0938	-2.375	-2.7146	-2.7854	-2.4562	-2.9375	31.835	188.990	-36.195	161.613	56.990	223.318	129.828	187.189	41.133	57.088	139.604	172.657	-71.566	233.181	-9.914	220.684	0.00026347	0.00043304	0.00012603	837.76	3.3522e-06	5.665e-06	656.43	327.95	3.0175e-06	4.7099e-06	303.98	133.51	140.62	61.867	3.8951e-06	67.452	0.00032426	0.00021971	5.9763e-05	818.09	2.6207e-06	2.4203e-06	639.4	321.12	2.6618e-06	2.3191e-06	297.26	132.03	138.96	61.179	2.8259e-06	66.042	248.526	-20.374	-17.566	-92.195	47.010	50.319	-92.786	-87.360	56.832	35.922	-89.079	-85.707	-83.726	-80.091	47.108	-82.570	-8191	255	
20159.537	1	1	0	0	0.085257	0.3879	0.057337	0.07924	0.043505	0.29016	0.1743	0.16267	0.061708	0.052915	0.18018	0.26843	0.37544	0.19511	0.046409	0.14294	-2.0438	-2.4208	-2.9083	-2.3042	-2.5583	-2.8812	-2.2542	-3.0479	-2.6104	-2.2646	-3.0104	-2.3521	-2.5625	-2.8708	-2.1813	-3.0417	251.917	106.996	111.186	139.707	-63.603	-88.747	235.543	-64.351	-31.738	199.779	250.113	252.989	237.105	86.665	-10.347	220.744	0.00026683	0.00046919	0.00017936	841.24	2.1313e-06	5.5952e-06	656.17	328.08	3.0345e-06	4.3782e-06	303.9	133.11	140.62	61.032	3.1982e-06	66.391	0.00031328	0.0002258	6.2709e-05	819.02	2.5677e-06	2.3325e-06	638.68	321.64	2.5505e-06	2.3954e-06	297.16	131.56	138.84	60.375	2.753e-06	65.269	249.729	-7.588	-19.110	-92.054	80.551	43.215	-92.486	-87.126	46.647	53.422	-89.198	-85.789	-83.955	-80.252	43.485	-82.647	-8191	255	
20159.631	1	1	0	0	0.15904	0.29092	0.021077	0.10857	0.25971	0.19875	0.28385	0.021173	0.16699	0.25189	0.096495	0.042782	0.042578	0.18547	0.1003	0.019568	-2.275	-2.2417	-3.0292	-2.4271	-2.3063	-3.0792	-2.2667	-2.775	-2.6667	-2.3833	-2.9958	-2.6479	-2.475	-2.9896	-2.3458	-2.8229	192.191	215.114	98.982	113.217	178.776	179.054	110.468	115.763	131.381	128.545	94.960	-73.397	145.130	91.995	137.304	246.673	0.00024809	0.00052869	0.00017476	845.04	2.9667e-06	5.8497e-06	660.72	329.81	2.4728e-06	4.091e-06	305.47	133.16	140.11	60.664	4.1102e-06	66.154	0.00031493	0.00023075	6.4194e-05	822.42	2.691e-06	2.2363e-06	641.07	324.08	2.6557e-06	2.4623e-06	298.18	131.56	139.1	59.874	2.6914e-06	65.004	245.695	-36.571	5.693	-91.869	71.718	36.846	-92.546	-87.017	50.121	39.465	-89.382	-85.482	-83.674	-80.032	42.189	-82.604	-8191	255	
20159.727	1	1	0	0	0.04426	0.25083	0.29252	0.34816	0.17134	0.2296	0.063692	0.074535	0.080131	0.17167	0.17688	0.28813	0.10043	0.11863	0.17793	0.38661	-2.4062	-2.1958	-2.8208	-2.7583	-2.3729	-2.975	-2.2083	-2.7917	-2.7792	-2.3	-3.0229	-2.4833	-2.3854	-2.9667	-2.3292	-2.5583	72.535	254.197	199.153	170.562	183.203	201.252	172.290	-8.229	164.295	114.972	145.469	204.573	-57.972	193.019	37.354	179.323	0.00025573	0.00070839	0.00010808	853.57	4.1135e-06	4.9645e-06	666.45	333.71	2.8012e-06	5.6241e-06	307.43	132.67	141.97	60.772	2.9389e-06	66.224	0.00031414	0.00023189	6.4234e-05	832.33	2.5538e-06	2.2663e-06	648.82	326.65	2.6867e-06	2.5951e-06	300.06	131.9	139.79	59.958	2.7727e-06	65.026	249.292	-17.697	-16.460	-91.990	59.446	33.777	-92.513	-87.223	41.934	43.449	-89.012	-85.550	-83.874	-80.145	39.795	-82.790	-8191	255	
20159.822	1	1	0	0	0.1141	0.12879	0.23597	0.072527	0.11687	0.1763	0.16366	0.13415	0.069723	0.20787	0.12484	0.094002	0.087356	0.294	0.19942	0.36528	-2.4313	-2.1354	-2.8187	-2.6063	-2.1833	-3.0646	-2.6771	-2.5875	-2.825	-2.2021	-2.8375	-2.7042	-2.1354	-3.0417	-2.4896	-2.5458	-93.645	148.677	-105.046	174.659	56.152	-90.959	129.905	-3.919	59.740	253.148	180.261	132.277	-50.071	-97.259	63.154	175.041	0.00024869	0.00059122	0.00014469	861.94	2.7952e-06	5.2597e-06	663.37	335.8	2.5045e-06	4.7193e-06	309.3	134.31	141.6	60.708	2.7955e-06	66.166	0.00031065	0.00024472	6.0789e-05	836.19	2.7003e-06	2.1943e-06	647.81	329.12	2.7276e-06	2.4137e-06	301.05	131.92	140.03	59.785	2.8516e-06	64.92	247.848	-36.000	-10.173	-91.776	66.512	42.398	-92.862	-87.079	28.908	49.925	-89.263	-85.530	-83.927	-79.915	35.326	-82.515	-8191	255	
20159.920	1	1	0	0	0.2298	0.092309	0.058525	0.047959	0.13294	0.21501	0.18898	0.1546	0.22752	0.183	0.27301	0.24356	0.43764	0.089549	0.19306	0.15062	-2.4521	-2.1833	-2.825	-2.8208	-2.2646	-2.8146	-2.5792	-2.7229	-2.8146	-2.3063	-2.7562	-2.8021	-2.1604	-3.1271	-2.4208	-2.425	33.817	-41.188	60.836	213.803	-103.848	246.232	224.850	198.622	243.958	86.348	245.880	236.909	-68.512	173.587	-27.389	156.466	0.00026734	0.00044456	0.00014716	860.69	3.3321e-06	4.9989e-06	663.41	335.49	3.1471e-06	4.9107e-06	307.04	131.71	139.79	59.27	2.9816e-06	65.014	0.00031246	0.00023849	6.0368e-05	835.05	2.5891e-06	2.2558e-06	646.53	329.3	2.4805e-06	2.4393e-06	299.94	130.39	138.85	58.571	2.8314e-06	63.969	250.075	-37.899	-21.510	-92.015	63.048	45.829	-92.516	-87.091	40.314	37.826	-89.441	-85.225	-83.619	-80.012	45.573	-82.587	-8191	255	
20160.016	1	1	0	0	0.23168	0.098483	0.15371	0.18208	0.25498	0.15037	0.2031	0.094775	0.067177	0.14746	0.070194	0.12316	0.28245	0.23966	0.24615	0.10493	-2.5333	-2.1417	-2.6208	-2.95	-2.3354	-2.9542	-2.6688	-2.3937	-2.9125	-2.5021	-2.7438	-3.0458	-2.425	-2.9313	-2.7083	-2.4583	136.558	-59.314	110.718	201.017	6.648	198.993	180.465	-52.910	-55.208	125.112	206.149	238.901	1.438	237.396	254.160	212.102	0.00025337	0.00053336	0.00011972	865.38	3.4208e-06	6.0561e-06	666.97	338.17	2.5938e-06	6.9211e-06	307.82	131.82	139.49	58.945	3.1939e-06	64.763	0.0003072	0.00023222	5.9803e-05	840.66	2.6045e-06	2.1885e-06	648.33	331.22	2.5152e-06	2.3206e-06	300.87	129.86	138.2	58.127	2.5785e-06	63.505	247.807	-18.283	-16.861	-91.774	48.136	47.975	-92.511	-87.145	51.959	30.277	-89.146	-85.180	-83.372	-80.151	27.398	-82.688	-8191	255	
20160.137	1	1	0	0	0.35484	0.099949	0.10573	0.02047	0.12866	0.11288	0.17216	0.32486	0.18862	0.47953	0.24365	0.19373	0.40919	0.19796	0.1487	0.039471	-2.5917	-2.4437	-2.4896	-3.0542	-2.3625	-2.8021	-2.6979	-2.3688	-2.9292	-2.4375	-2.6833	-2.9729	-2.3292	-2.7812	-2.6104	-2.2188	38.966	-1.600	143.536	164.170	63.761	-57.239	-78.995	201.321	-67.134	-15.908	-36.990	-97.801	226.346	183.304	208.049	167.863	0.00023904	0.00040477	0.00015633	862.73	2.7716e-06	5.0451e-06	667.58	338.6	2.0024e-06	4.9838e-06	308.72	130.22	139.26	58.301	2.5141e-06	63.957	0.00030042	0.00021693	6.2801e-05	841.85	2.438e-06	2.1801e-06	649.78	331.47	2.5631e-06	2.3358e-06	301.28	128.8	137.46	57.621	2.647e-06	63.117	248.215	-22.265	-8.925	-91.776	72.735	50.189	-92.571	-87.078	49.079	56.514	-88.797	-85.366	-83.384	-80.146	45.753	-82.373	-8191	255	
20160.232	1	1	0	0	0.18189	0.12591	0.17078	0.2576	0.19662	0.23756	0.23889	0.21938	0.19681	0.25548	0.068256	0.082633	0.11988	0.18454	0.17477	0.28528	-2.4521	-2.3083	-1.9813	-2.9958	-2.2167	-2.6104	-2.8271	-2.2521	-2.9	-2.4375	-2.5604	-3.1104	-2.2521	-2.6875	-2.675	-2.3667	-10.768	105.240	132.723	181.738	232.406	-56.711	-25.461	123.476	-16.539	138.425	7.084	224.303	222.261	214.167	-9.374	-82.818	0.00024301	0.00050103	0.00017361	860.49	3.4326e-06	5.0676e-06	662.35	337.14	3.0137e-06	6.3905e-06	305.9	129.65	138.06	58.132	2.9642e-06	63.854	0.0003002	0.00021532	6.5825e-05	839.99	2.6049e-06	2.2784e-06	647.7	330.73	2.4138e-06	2.3598e-06	298.63	127.95	136.54	57.488	2.5834e-06	62.858	249.905	-31.775	-14.898	-91.736	58.019	39.936	-92.497	-87.306	20.191	48.392	-89.053	-85.337	-83.748	-79.725	62.565	-82.717	-8191	255	
20160.328	1	1	0	0	0.18922	0.11159	0.19277	0.17968	0.1489	0.12531	0.19855	0.23133	0.13752	0.11803	0.094277	0.11518	0.11065	0.13492	0.15805	0.33583	-2.55	-2.6104	-2.3708	-3.2125	-2.2875	-2.5938	-2.8604	-2.25	-2.8812	-2.625	-2.3021	-3.1521	-2.3271	-2.6312	-2.7896	-2.3479	-50.458	-61.653	32.280	46.934	-37.342	10.222	164.509	249.404	210.686	43.509	236.375	147.083	92.110	132.088	184.459	170.486	0.00025318	0.00045537	0.00014074	861.32	2.9202e-06	4.3563e-06	661.74	336.01	3.1998e-06	4.171e-06	304.41	129.06	137.23	58.015	3.4233e-06	63.387	0.00030086	0.00021325	6.3484e-05	837.84	2.5459e-06	2.2768e-06	645.87	329.79	2.3748e-06	2.2757e-06	298.32	127.53	136.19	57.155	2.5538e-06	62.297	245.544	-25.445	-17.956	-91.564	63.374	27.861	-92.480	-87.050	26.509	47.713	-89.231	-85.321	-83.172	-80.145	58.154	-82.556	-8191	255	
20160.400	1	1	0	0	0.30095	0.18829	0.12768	0.33343	0.33705	0.075742	0.21068	0.020844	0.13621	0.35776	0.28905	0.0448	0.030382	0.22482	0.12512	0.22269	-2.3396	-2.5896	-2.2917	-3.2188	-2.3771	-2.4979	-2.9188	-2.3375	-2.6354	-2.8812	-2.2771	-2.8604	-2.5563	-2.6437	-2.6958	-2.4271	18.445	3.762	156.422	174.463	-69.341	23.301	230.254	220.438	11.934	47.026	-22.795	14.143	-28.215	-92.648	46.496	208.539	0.00026226	0.00045051	0.00012491	867.01	3.1994e-06	5.3393e-06	660.84	338.4	2.7759e-06	4.8527e-06	305.41	129.38	138.27	57.423	2.899e-06	62.949	0.0003049	0.00022193	6.2091e-05	841.45	2.5333e-06	2.3257e-06	646.55	331.23	2.5608e-06	2.202e-06	298.63	127.55	136.89	56.695	2.4976e-06	61.988	250.158	-13.717	-26.508	-91.448	69.813	51.294	-92.473	-87.050	44.196	46.508	-89.006	-85.333	-83.220	-79.863	53.957	-82.500	-8191	255	
20160.520	1	1	0	0	0.13071	0.15538	0.24484	0.27614	0.24672	0.28872	0.21236	0.39162	0.081402	0.27054	0.48769	0.27043	0.12806	0.18506	0.051003	0.32427	-2.175	-2.6646	-2.1521	-2.9458	-2.3812	-2.3646	-2.9688	-2.3729	-2.5146	-2.825	-2.3479	-2.975	-2.4646	-2.4104	-2.9417	-2.3729	-74.374	142.712	-16.343	113.853	206.351	-52.194	129.218	179.830	-29.214	102.875	224.217	-25.853	51.378	223.948	196.727	150.822	0.00024695	0.00043135	0.00014791	872.97	3.2718e-06	6.4951e-06	670.19	340.1	3.6245e-06	5.2125e-06	307.48	129.47	137.81	56.757	2.9138e-06	62.836	0.00030259	0.00021858	6.2643e-05	848.93	2.4933e-06	2.4345e-06	651.94	333.38	2.6017e-06	2.0456e-06	300.5	127.67	136.58	56.197	2.5691e-06	61.658	253.408	-11.051	-17.785	-91.638	48.904	44.666	-92.303	-87.243	29.796	42.340	-88.641	-85.304	-83.295	-79.854	61.431	-82.386	-8191	255	
20160.615	1	1	0	0	0.25015	0.06974	0.1589	0.17556	0.11301	0.049983	0.15006	0.070366	0.093234	0.12901	0.090901	0.11662	0.064449	0.1186	0.093919	0.10966	-1.9937	-2.9167	-2.2812	-2.8167	-2.4354	-2.2208	-2.8958	-2.3458	-2.6896	-2.8	-2.4313	-2.7958	-2.7396	-2.3	-2.8896	-2.3333	148.226	73.659	28.033	178.086	-15.181	197.113	107.662	206.427	-55.129	106.336	-6.165	-50.614	-26.900	-51.783	217.386	4.236	0.00024968	0.00057777	0.00011787	874.46	1.8398e-06	6.1592e-06	669.59	341.03	3.3169e-06	5.4439e-06	305.46	128.23	137.31	56.121	3.7268e-06	61.313	0.00030118	0.00021763	6.1091e-05	852.39	2.3915e-06	2.3346e-06	651.2	334.17	2.6407e-06	2.2589e-06	299.07	126.43	136.08	55.421	2.6633e-06	60.338	252.175	-17.015	-19.878	-91.608	73.136	55.895	-92.691	-87.023	47.086	41.281	-89.015	-85.408	-83.358	-80.106	33.541	-82.376	-8191	255	
20160.711	1	1	0	0	0.34009	0.014749	0.073551	0.36007	0.07364	0.034388	0.17814	0.17716	0.10665	0.057257	0.24054	0.31931	0.30243	0.13935	0.21585	0.22465	-2.0292	-2.8	-2.0167	-2.8063	-2.625	-2.0833	-2.9396	-2.6104	-2.3083	-3.0979	-2.1562	-2.6312	-2.8792	-2.4125	-2.7188	-2.5792	70.462	-100.150	76.075	228.926	189.787	-6.489	96.973	164.756	9.856	52.565	59.815	202.294	-98.882	97.813	13.322	0.652	0.00023611	0.0005155	0.00013544	873.65	3.3005e-06	7.0076e-06	664.07	342.24	2.697e-06	6.3102e-06	304.04	127.05	137.01	55.612	2.8049e-06	60.6	0.00029663	0.00021447	6.0763e-05	852.87	2.4031e-06	2.5244e-06	647.99	334.9	2.6895e-06	2.1444e-06	297.83	125.66	135.32	54.861	2.4661e-06	59.666	250.526	-27.792	-14.395	-91.715	62.311	46.034	-92.460	-86.977	52.378	42.213	-88.927	-85.232	-83.490	-79.892	44.430	-82.608	-8191	255	
20160.807	1	1	0	0	0.085201	0.23469	0.3727	0.21428	0.082288	0.15482	0.063704	0.13514	0.22053	0.35479	0.20296	0.25708	0.177	0.35734	0.029092	0.031946	-1.9583	-2.7729	-2.2833	-2.7854	-2.8146	-2.1437	-3.0021	-2.7	-2.2521	-2.9854	-2.4521	-2.6604	-2.9604	-2.3312	-2.7625	-2.7167	156.296	236.948	225.790	246.045	-44.089	11.884	-36.216	150.024	208.090	210.275	240.260	-84.590	186.237	-85.188	132.571	225.379	0.00022245	0.00042666	0.00015372	872.51	2.605e-06	5.0546e-06	661.55	340.92	2.9957e-06	4.9696e-06	304.54	126.22	135.7	54.761	2.1858e-06	59.581	0.0002998	0.00020027	6.33e-05	852	2.4384e-06	2.4072e-06	646.35	333.89	2.6421e-06	2.329e-06	297.18	124.36	134.36	54.019	2.4863e-06	58.509	250.138	-22.857	0.294	-91.922	48.645	31.047	-92.538	-87.017	40.523	46.867	-89.124	-85.592	-83.089	-79.897	51.319	-82.350	-8191	255	
20160.928	1	1	0	0	0.23077	0.090427	0.1851	0.076208	0.10883	0.15541	0.20883	0.26357	0.14718	0.1496	0.16913	0.077121	0.22729	0.0034417	0.36014	0.050169	-1.8729	-2.9313	-2.4083	-2.4979	-2.9813	-2.2062	-2.9896	-2.6875	-2.3187	-2.7896	-2.4542	-2.5687	-3.025	-2.3042	-2.7479	-2.7667	15.195	17.497	109.653	251.466	-87.945	143.279	-70.609	195.939	-9.894	-56.205	-91.957	91.335	-49.606	-40.687	174.407	-91.293	0.00023753	0.00053828	0.00012285	878.44	3.5958e-06	4.8291e-06	661.94	343.25	2.4231e-06	5.4769e-06	304.37	124.82	135.62	54.124	3.1326e-06	58.649	0.00030145	0.00019522	5.6108e-05	856.44	2.2138e-06	2.3746e-06	645.21	335.03	2.5129e-06	2.0676e-06	296.06	123.39	134.15	53.306	2.5598e-06	57.573	248.039	-37.446	-16.438	-91.591	54.212	65.760	-92.365	-86.969	29.174	38.723	-88.881	-85.475	-83.461	-80.034	55.896	-82.297	-8191	255	
20161.000	1	1	0	0	0.02298	0.2413	0.12037	0.32783	0.10367	0.11043	0.087714	0.24979	0.066641	0.046328	0.22146	0.089538	0.19099	0.11865	0.19479	0.11298	-1.8771	-3.0354	-2.5479	-2.6083	-2.7896	-2.2313	-2.5458	-2.7313	-2.3	-2.8458	-2.4458	-2.5375	-3.0208	-2.1917	-2.5979	-2.675	-57.775	-1.669	153.251	-97.728	37.255	109.967	71.745	243.417	183.910	-75.231	182.320	-69.460	-6.745	-77.594	-21.156	65.250	0.00022897	0.00052364	0.00011957	885.51	2.8263e-06	6.2876e-06	658.29	345.32	3.042e-06	6.1298e-06	300.66	121.79	134.51	53.006	3.6326e-06	54.767	0.00029055	0.00020843	5.9526e-05	861.34	2.5449e-06	2.2694e-06	641.24	337.34	2.6623e-06	2.3379e-06	294.15	119.84	132.82	52.377	2.6746e-06	54.177	247.852	-23.491	-12.990	-91.734	70.662	63.381	-92.077	-86.975	55.671	45.418	-88.837	-85.292	-83.446	-80.003	37.408	-84.642	-8191	255	
20161.096	1	1	0	0	0.17582	0.10107	0.11233	0.27309	0.063532	0.20055	0.37359	0.051358	0.32571	0.050791	0.3293	0.10697	0.18577	0.19153	0.14288	0.23626	-1.8312	-2.7417	-2.3875	-2.3354	-2.9437	-2.325	-2.7125	-2.9375	-2.1625	-2.7958	-2.5563	-2.3063	-2.9167	-2.2771	-2.5167	-2.9292	-3.288	143.936	-20.957	188.980	168.371	113.722	-15.698	91.910	245.487	-40.440	195.281	-87.837	-72.794	-101.868	17.912	184.560	0.00021237	0.00044518	0.00012064	880.85	2.8946e-06	4.6758e-06	645.68	340.68	2.6747e-06	5.5524e-06	297.93	118.13	132.67	51.323	3.5083e-06	52.454	0.0002873	0.0002057	5.8751e-05	861.71	2.3482e-06	2.2069e-06	627.51	334.06	2.6829e-06	2.2338e-06	290.93	116.5	131.18	50.861	2.5307e-06	51.823	246.124	-30.895	-15.354	-93.104	52.926	36.381	-93.518	-88.185	41.049	40.286	-90.312	-86.777	-84.428	-81.101	43.921	-83.825	-8191	255	
20161.217	1	1	0	0	0.12311	0.20866	0.22139	0.14147	0.13148	0.1688	0.2017	0.065011	0.11963	0.32131	0.15735	0.21959	0.14262	0.29266	0.1213	0.12618	-1.7625	-2.6312	-2.5396	-2.3104	-2.7604	-2.4333	-2.3917	-3.05	-2.1375	-2.7812	-2.8542	-2.3438	-3.2083	-2.5229	-2.5604	-2.9896	-11.135	38.105	-24.658	131.728	3.223	6.003	-61.491	170.165	20.185	215.277	18.003	184.301	244.101	-63.696	-105.707	134.836	0.00018263	0.00036795	0.00014882	886.08	4.0004e-06	4.2929e-06	642.7	338.01	2.67e-06	4.0694e-06	294.77	115.81	131.04	50.752	2.79e-06	51.577	0.00027653	0.00020532	6.1262e-05	866.87	2.4547e-06	2.3252e-06	625.22	332.11	2.5678e-06	2.1591e-06	288.43	114.19	129.69	49.995	2.5563e-06	50.592	251.033	-8.810	-10.291	-93.108	57.959	45.413	-93.579	-87.952	47.125	46.284	-90.315	-86.696	-84.467	-80.861	46.474	-83.129	-8191	255	
20161.312	1	1	0	0	0.084757	0.17537	0.10052	0.28327	0.066634	0.095302	0.14734	0.20607	0.070731	0.17942	0.17543	0.21195	0.4789	0.36468	0.050072	0.18128	-1.8146	-2.5417	-2.7417	-2.2854	-2.8875	-2.4729	-2.3229	-3.1417	-2.2583	-2.4354	-2.7917	-2.2229	-2.7	-2.5542	-2.3125	-3.0854	239.725	187.130	39.543	161.276	159.180	214.601	185.646	220.370	252.776	20.237	214.436	224.329	-58.571	195.425	200.939	233.393	0.00018924	0.00045809	0.00014283	895.79	2.9301e-06	4.3221e-06	646.92	341.41	2.1302e-06	4.4444e-06	297.93	115.12	131.07	50.542	3.2716e-06	51.397	0.00027406	0.00021051	6.3274e-05	873.73	2.3301e-06	2.2305e-06	629.58	334.03	2.604e-06	2.2798e-06	289.7	113.75	129.83	50.008	2.5267e-06	50.529	249.684	-6.506	-19.675	-92.967	33.148	51.986	-93.846	-88.046	42.224	64.677	-90.173	-86.388	-84.261	-81.015	17.305	-83.282	-8191	255	
20161.408	1	1	0	0	0.18812	0.033217	0.085388	0.33507	0.10877	0.088056	0.097733	0.068918	0.058041	0.12391	0.16116	0.17184	0.051619	0.26349	0.13364	0.22818	-1.8979	-2.4938	-2.7854	-2.2479	-2.7083	-2.6708	-2.1958	-2.8917	-2.2417	-2.5708	-2.8125	-2.3104	-2.7438	-2.7104	-2.3063	-2.8771	-102.876	45.316	24.895	240.246	-39.745	57.382	201.552	109.109	-27.440	-85.864	-34.318	-26.579	184.671	187.253	-2.797	131.272	0.00018997	0.00045681	0.00012098	902.3	3.0805e-06	4.7084e-06	646.23	341.09	1.767e-06	4.0343e-06	292.83	114.16	130.74	50.231	3.6998e-06	50.366	0.00026731	0.00020433	5.5674e-05	878.71	2.4212e-06	2.3115e-06	632.52	334.61	2.6068e-06	2.2903e-06	288.56	112.98	129.26	49.64	2.7234e-06	49.445	249.805	-14.214	-32.614	-92.901	55.900	32.103	-93.720	-88.117	48.858	51.433	-90.023	-86.456	-84.503	-80.423	59.208	-83.176	-8191	255	
20161.506	1	1	0	0	0.27098	0.068672	0.042775	0.051424	0.070162	0.35692	0.17323	0.22241	0.04131	0.32454	0.24224	0.12279	0.21564	0.39997	0.2304	0.12515	-1.8854	-2.2771	-2.7812	-2.3354	-2.5938	-2.5708	-2.2062	-3.1437	-2.4146	-2.5	-3.1625	-2.2458	-2.5354	-2.9375	-2.2271	-2.8312	-56.142	106.046	242.535	-77.035	121.658	62.712	156.493	169.514	8.183	-73.070	30.931	167.420	162.933	-100.325	248.060	-94.629	0.00019047	0.00055011	0.00011033	897.83	3.9597e-06	5.8031e-06	646.75	340.21	2.1521e-06	4.1415e-06	293.95	112.76	129.73	49.643	2.1976e-06	49.503	0.00026869	0.00023056	6.1275e-05	875.48	2.4794e-06	2.3273e-06	630.99	334.2	2.5152e-06	2.352e-06	287.33	111.72	128.33	49.132	2.6721e-06	48.649	253.311	-8.003	-27.450	-92.735	63.147	45.547	-93.394	-87.813	14.755	37.941	-90.033	-86.499	-84.028	-80.601	54.655	-83.180	-8191	255	
20161.623	1	1	0	0	0.044761	0.12753	0.11447	0.24657	0.21181	0.16403	0.2465	0.11607	0.41007	0.035859	0.12891	0.22285	0.21572	0.21493	0.12785	0.27146	-2.0938	-2.3083	-2.8812	-2.3833	-2.675	-2.75	-2.3521	-2.85	-2.7833	-2.4188	-2.9917	-2.2583	-2.6417	-2.9021	-2.2062	-2.7542	189.154	-17.508	-29.411	-89.251	-34.703	14.278	206.243	-76.933	11.662	-21.903	-95.787	-86.100	-58.831	234.633	28.718	163.093	0.00018359	0.00035172	9.9586e-05	898.9	3.1935e-06	6.1096e-06	645.14	339.37	3.3075e-06	4.615e-06	294.26	112.35	129.81	49.243	3.555e-06	48.749	0.00026262	0.00021353	5.7515e-05	875.54	2.4468e-06	2.3394e-06	628.85	333.43	2.682e-06	2.4445e-06	286.85	110.97	128	48.638	2.749e-06	47.938	249.295	-16.335	-8.732	-92.724	73.427	48.405	-93.280	-87.796	46.120	35.734	-89.941	-86.350	-84.128	-80.428	64.406	-83.144	-8191	255	
20161.695	1	1	0	0	0.23563	0.15302	0.13399	0.15817	0.29086	0.12526	0.21332	0.070552	0.22359	0.12256	0.18094	0.088198	0.063997	0.1541	0.17939	0.09199	-2.3375	-2.3187	-2.9437	-2.4375	-2.6437	-2.7458	-2.3917	-3.0083	-2.5917	-1.9917	-2.8708	-2.6354	-2.6021	-2.9479	-2.2104	-2.8396	158.783	-16.884	-65.407	-102.798	218.697	148.289	-61.624	110.025	82.166	101.270	-29.293	-87.304	185.591	204.948	159.156	48.623	0.00018435	0.00046441	0.0001356	905.18	2.8579e-06	3.2008e-06	654.92	345.12	1.9213e-06	4.9277e-06	294.85	110.95	128.81	48.221	4.3929e-06	47.07	0.00025844	0.0002291	5.7357e-05	883.31	2.6473e-06	2.3115e-06	636.95	336.73	2.5857e-06	2.5721e-06	287.43	109.33	127.42	47.6	2.7456e-06	46.401	249.913	-20.158	-27.081	-92.516	53.635	39.906	-93.353	-87.791	11.659	44.473	-90.099	-86.041	-84.040	-80.498	48.241	-83.083	-8191	255	
20161.816	1	1	0	0	0.21772	0.13919	0.23435	0.21408	0.054854	0.23599	0.20142	0.21894	0.09049	0.28289	0.059083	0.2074	0.14168	0.1904	0.27602	0.082869	-2.2562	-2.1604	-2.925	-2.4688	-2.3792	-2.9792	-2.3833	-2.6312	-2.6708	-2.2042	-2.9958	-2.4792	-2.6229	-2.7812	-2.2333	-2.6417	154.944	188.191	18.982	-24.446	128.837	2.712	142.179	-50.555	-15.002	178.285	25.147	105.805	185.238	-105.018	-14.693	-48.835	0.00016891	0.00046725	0.00012514	905.55	2.8587e-06	5.2303e-06	658.78	345.9	2.5968e-06	5.613e-06	293.38	108.98	127.74	47.499	3.3091e-06	45.824	0.0002544	0.00023052	6.4076e-05	884.81	2.73e-06	2.4019e-06	638.95	339.67	2.7778e-06	2.6076e-06	286.02	107.69	126.43	46.933	2.7402e-06	45.326	250.483	-18.529	-14.948	-92.445	47.038	43.252	-93.452	-87.664	37.712	24.798	-89.571	-86.074	-83.863	-80.337	72.153	-83.293	-8191	255	
20161.912	1	1	0	0	0.33173	0.14977	0.38466	0.067741	0.23679	0.19447	0.17472	0.046731	0.20873	0.08356	0.20083	0.18513	0.12809	0.054388	0.024532	0.091084	-2.4625	-2.0917	-2.7979	-2.5667	-2.3542	-2.8729	-2.4562	-2.8542	-2.9229	-2.1813	-2.8479	-2.6979	-2.1937	-2.7208	-2.2354	-2.6021	243.002	22.696	-61.818	-49.920	2.590	68.220	-98.862	-81.429	55.407	1.822	201.514	226.305	-57.236	46.995	112.151	-74.144	0.00016999	0.00048607	0.00012482	904.44	2.9542e-06	4.86e-06	650.01	347.43	3.0703e-06	3.9725e-06	291.84	108.14	126.95	47.184	3.9646e-06	46.023	0.00025747	0.00024651	6.3261e-05	881.78	2.7821e-06	2.4319e-06	634.53	340.2	2.713e-06	2.5104e-06	285.24	107.01	125.81	46.612	2.819e-06	45.028	-105.124	-30.302	-22.658	-92.119	32.085	24.690	-93.077	-87.556	21.542	41.750	-89.645	-85.700	-83.861	-80.216	50.015	-83.125	-8191	255	
20162.008	1	1	0	0	0.21013	0.11897	0.17217	0.17204	0.10337	0.22307	0.18651	0.053097	0.22719	0.2665	0.088815	0.17177	0.052455	0.27762	0.22063	0.11289	-2.4083	-2.1875	-2.8396	-2.7188	-2.3375	-2.8458	-2.55	-2.5229	-2.8563	-2.0458	-2.7917	-2.6875	-2.3083	-3.0271	-2.4333	-2.4542	120.266	127.562	-3.918	206.905	109.122	47.483	-103.416	253.223	-55.756	114.800	114.086	225.656	220.569	77.468	-70.316	209.579	0.00016275	0.00057967	9.7493e-05	899.93	2.3471e-06	4.6258e-06	650.14	346.57	1.2106e-06	4.0673e-06	288.95	107.35	126.05	46.006	3.3993e-06	44.275	0.00025676	0.0002358	6.2367e-05	877.22	2.7393e-06	2.3136e-06	632.49	339.41	2.5711e-06	2.4869e-06	282.86	105.91	124.86	45.415	2.6554e-06	43.263	247.536	-2.930	-26.519	-92.053	74.470	70.007	-92.968	-87.381	29.761	28.968	-89.597	-85.797	-83.375	-79.938	53.163	-82.462	-8191	255	
20162.105	1	1	0	0	0.15792	0.26217	0.10723	0.32687	0.21245	0.069432	0.27679	0.066949	0.030709	0.26246	0.17086	0.31219	0.13926	0.039719	0.11082	0.10502	-2.5729	-2.2687	-2.5667	-2.7125	-2.3458	-3	-2.6292	-2.4437	-2.9271	-2.4458	-2.7896	-2.9521	-2.4313	-3.0146	-2.6896	-2.2562	60.037	185.658	93.991	176.532	212.276	169.606	57.372	27.756	199.577	120.914	232.609	204.070	193.808	107.599	90.872	238.656	0.00017843	0.00034994	8.2838e-05	901.97	1.4569e-06	5.0321e-06	644.32	352.65	2.2563e-06	3.5773e-06	288.68	105.6	126.05	45.342	3.0602e-06	43.055	0.00025717	0.00023382	6.2354e-05	877.44	2.7059e-06	2.5496e-06	627.56	345.35	2.6162e-06	2.432e-06	282.66	104.46	124.03	44.641	2.6603e-06	42.271	249.468	-36.899	-23.578	-91.679	57.646	55.753	-92.419	-87.166	25.123	32.818	-89.128	-84.866	-82.714	-79.365	36.229	-81.774	-8191	255	
20162.201	1	1	0	0	0.18561	0.11049	0.2809	0.11024	0.11528	0.14422	0.035502	0.24219	0.092306	0.2694	0.16003	0.1373	0.2463	0.17585	0.19091	0.033102	-2.8354	-2.5833	-2.5083	-2.8812	-2.4333	-2.7875	-2.8542	-2.3708	-2.9667	-2.4125	-2.5646	-2.9417	-2.1021	-2.7125	-2.4646	-2.2729	-95.390	-99.229	-74.553	50.211	33.292	48.225	-102.204	173.211	-86.558	-89.841	203.835	43.120	198.316	90.000	27.701	-59.318	0.00014496	0.00049016	0.00011405	904.2	3.6313e-06	4.4723e-06	648.14	353.57	2.1594e-06	5.0595e-06	289.87	104.34	124.42	44.584	3.1278e-06	42.122	0.00025787	0.00024538	6.7416e-05	882.59	2.6682e-06	2.5822e-06	630.75	346.84	2.6937e-06	2.468e-06	281.91	103.51	123.25	44.05	2.8476e-06	41.447	248.619	-19.808	-16.747	-91.089	71.278	28.996	-92.080	-86.775	41.693	46.270	-88.978	-84.951	-82.844	-79.870	69.191	-82.744	-8191	255	
20162.297	1	1	0	0	0.16102	0.139	0.10837	0.23676	0.27744	0.1059	0.14094	0.046064	0.15599	0.18288	0.19867	0.30572	0.052786	0.10808	0.16362	0.15269	-2.6625	-2.3917	-2.2917	-3.1792	-2.15	-2.7646	-2.7146	-2.3604	-3.0771	-2.6542	-2.5458	-2.9146	-2.3958	-2.8604	-2.7167	-2.1333	250.496	-33.597	6.338	172.560	60.630	233.078	180.985	178.741	182.562	-78.740	230.965	-93.134	47.737	147.393	129.350	153.165	0.00013959	0.00035442	0.0001106	911.85	2.1435e-06	4.6284e-06	646.01	353.54	1.8734e-06	5.1953e-06	287.89	103.24	124.28	43.942	3.0401e-06	41.018	0.00025337	0.00022674	6.9651e-05	886.82	2.7091e-06	2.6511e-06	628.79	346.78	2.7482e-06	2.6871e-06	279.74	102.12	122.52	43.425	2.7747e-06	40.398	254.341	-32.603	4.136	-91.679	60.552	46.372	-92.685	-87.408	13.509	43.523	-89.427	-85.685	-83.268	-80.115	41.447	-82.336	-8191	255	
20162.393	1	1	0	0	0.15294	0.058412	0.23207	0.15791	0.27582	0.075052	0.30648	0.13795	0.072567	0.090853	0.11439	0.14191	0.15391	0.099474	0.12338	0.046317	-2.5292	-2.5208	-2.2938	-3.0167	-2.3125	-2.5667	-3.0833	-2.3792	-2.7521	-2.5312	-2.1979	-2.9625	-2.4208	-2.5458	-2.85	-2.2583	229.337	103.278	89.169	149.206	19.999	-96.965	214.970	160.992	170.525	57.954	-3.666	16.087	-56.747	209.795	-0.733	-5.561	0.00014938	0.00044808	0.00011513	909.33	2.3995e-06	5.2681e-06	642.18	353.02	2.1724e-06	5.2754e-06	282.73	101.86	122.43	43.28	2.6708e-06	40.416	0.0002544	0.00022585	6.8481e-05	886.43	2.7528e-06	2.598e-06	625.75	345.56	2.7868e-06	2.5642e-06	276.76	100.67	121.43	42.786	2.6007e-06	39.749	250.700	-16.927	-15.548	-92.049	50.556	39.523	-93.104	-87.558	14.772	27.427	-89.705	-85.823	-83.734	-80.238	65.771	-82.916	-8191	255	
20162.488	1	1	0	0	0.080612	0.21598	0.24523	0.24861	0.061449	0.15047	0.26653	0.044025	0.36317	0.013844	0.089143	0.19983	0.12042	0.089827	0.15316	0.33628	-2.4667	-2.6104	-2.1167	-3.0625	-2.3354	-2.5646	-2.9688	-2.2854	-2.7979	-2.6917	-2.4125	-3.0271	-2.5125	-2.5979	-2.8521	-2.1875	213.243	-57.953	63.796	-102.042	253.146	51.444	118.745	23.207	128.015	-62.579	128.668	-30.923	209.236	41.150	21.723	202.900	0.00013998	0.00052831	0.00011854	917.78	3.039e-06	4.0329e-06	644.25	352.05	3.05e-06	4.8443e-06	282.38	100.99	121.62	42.963	2.6631e-06	39.672	0.00024288	0.00024415	7.0953e-05	893.71	2.8263e-06	2.6217e-06	628.5	344.44	2.9192e-06	2.6474e-06	275.91	99.886	120.57	42.346	2.7214e-06	39.089	250.391	-7.561	-19.301	-92.326	63.646	42.477	-93.105	-87.613	39.962	53.333	-90.161	-85.843	-83.804	-80.297	40.761	-82.593	-8191	255	
20162.586	1	1	0	0	0.2279	0.15847	0.17901	0.045867	0.2562	0.41993	0.2105	0.11239	0.0090488	0.13247	0.12182	0.071079	0.060211	0.15743	0.15589	0.048866	-2.4292	-2.6354	-2.2458	-3.1396	-2.5646	-2.3104	-3.1229	-2.3521	-2.6396	-2.9417	-2.425	-3.0979	-2.5875	-2.4521	-2.8937	-2.3729	212.187	114.003	31.119	-29.008	27.296	-89.531	209.534	164.443	-17.094	52.525	196.056	-43.677	155.630	172.498	231.338	60.537	0.00014171	0.00036893	0.00012815	917.28	1.9657e-06	4.955e-06	649.75	351.74	2.048e-06	3.8136e-06	280.14	100.4	121.87	42.414	3.2921e-06	39.121	0.00025418	0.00022325	6.9599e-05	896.64	2.6533e-06	2.7089e-06	631.47	344.51	2.8821e-06	2.5454e-06	273.86	98.987	120.1	41.795	2.8624e-06	38.433	-101.489	-21.057	-26.519	-92.259	48.650	53.951	-92.783	-87.434	42.545	53.011	-89.629	-85.742	-83.524	-79.991	54.520	-82.426	-8191	255	
20162.703	1	1	0	0	0.27454	0.29358	0.02375	0.38956	0.18382	0.16541	0.073602	0.34373	0.19279	0.14268	0.1987	0.3255	0.22591	0.26121	0.062369	0.063501	-2.1979	-2.9896	-2.1021	-3.0625	-2.6646	-2.375	-2.9458	-2.5208	-2.6021	-2.9021	-2.1646	-2.8937	-2.8	-2.4271	-2.9437	-2.4917	-64.111	58.712	74.496	190.323	-95.579	156.544	184.400	132.046	17.770	22.381	-5.572	-95.835	219.257	243.603	35.689	-64.294	0.00013787	0.00030001	0.00013919	923.72	3.461e-06	4.5287e-06	647.76	350.19	1.6811e-06	3.1379e-06	279	99.066	120.25	42.116	3.4417e-06	39.006	0.00025486	0.0002535	6.9178e-05	900.6	2.6049e-06	2.6106e-06	630.55	342.74	2.9789e-06	2.5297e-06	272.39	98.035	119.23	41.58	2.6105e-06	38.336	248.381	-7.055	-18.802	-91.984	56.276	70.403	-92.521	-87.463	47.577	44.011	-89.566	-85.649	-83.640	-79.937	49.476	-82.432	-8191	255	
20162.801	1	1	0	0	0.023378	0.1825	0.068304	0.17529	0.17262	0.19698	0.11694	0.32036	0.19271	0.096961	0.14441	0.28776	0.12748	0.39463	0.31343	0.23411	-2.1083	-2.7396	-2.2604	-2.9021	-2.6604	-2.3063	-3.0021	-2.3396	-2.4583	-3.0354	-2.3063	-2.8896	-2.9562	-2.2687	-2.9771	-2.6292	194.737	67.096	185.584	176.930	36.402	87.767	-104.675	245.500	175.192	181.270	158.876	-93.995	-97.242	227.350	-25.641	238.683	0.00011462	0.00027353	0.00010747	919.42	2.3046e-06	3.6901e-06	647.7	348.54	2.331e-06	4.44e-06	278.22	99.201	121.06	42.034	3.0637e-06	39.007	0.00025896	0.00023377	7.0743e-05	896.76	2.7905e-06	2.4829e-06	630.09	341.7	2.8934e-06	2.5533e-06	272.03	98.17	119.57	41.595	2.7742e-06	38.29	248.280	3.262	-21.826	-91.930	42.812	33.060	-92.994	-87.414	27.082	62.242	-89.590	-85.843	-83.175	-79.816	49.667	-82.560	-8191	255	
20162.896	1	1	0	0	0.11787	0.13547	0.05587	0.44976	0.26545	0.22352	0.032269	0.025815	0.1122	0.15209	0.039641	0.004295	0.09797	0.070942	0.044429	0.27383	-1.9354	-2.875	-2.4375	-2.8104	-2.9021	-2.3792	-2.8792	-2.6333	-2.3646	-2.7938	-2.3812	-2.9417	-2.8396	-2.2875	-2.9	-2.6437	215.397	86.985	166.456	182.166	70.336	110.628	168.301	140.094	63.679	10.402	197.543	104.459	0.987	233.245	149.964	102.518	0.00012518	0.00035598	0.00011304	922.3	1.8337e-06	2.8919e-06	648.17	348.37	6.6279e-07	5.5431e-06	278.82	99.732	120.89	42.322	2.7129e-06	39.599	0.0002522	0.00024821	6.9454e-05	897.81	2.8882e-06	2.8367e-06	631.69	341.46	3.0052e-06	2.6463e-06	273.58	98.569	119.42	41.813	2.7954e-06	38.806	249.481	-33.646	-17.125	-92.161	56.176	37.029	-92.974	-87.336	9.839	49.097	-89.498	-85.464	-83.586	-80.035	50.947	-82.221	-8191	255	
20162.992	1	1	0	0	0.032971	0.33197	0.12189	0.26426	0.072054	0.14577	0.014633	0.20414	0.094458	0.036284	0.1385	0.082947	0.06452	0.064537	0.019669	0.2667	-1.8958	-3.0396	-2.2562	-2.7104	-2.6375	-2.1375	-2.7313	-2.7438	-2.4125	-2.9292	-2.3417	-2.6042	-3.0146	-2.35	-2.9271	-2.7521	107.894	237.817	5.902	202.068	79.950	-56.548	252.778	203.405	24.442	207.324	-14.869	181.614	65.770	167.319	89.611	123.270	0.00015035	0.00044925	0.00011164	932.69	1.9646e-06	4.0559e-06	656.45	350.85	2.1411e-06	4.7999e-06	282.39	100.7	120.93	42.671	3.3779e-06	40.035	0.00025974	0.00024845	6.9835e-05	905.04	2.8226e-06	2.833e-06	641.37	343.62	3.0066e-06	2.5637e-06	276.13	99.391	119.59	42.189	2.888e-06	39.391	253.890	-14.007	14.104	-91.746	63.639	50.917	-92.642	-87.190	43.376	66.231	-89.301	-85.446	-83.331	-79.778	37.344	-82.165	-8191	255	
20163.090	1	1	0	0	0.097805	0.12479	0.054896	0.46189	0.24337	0.063158	0.075426	0.19684	0.17713	0.098507	0.035021	0.17913	0.35459	0.13342	0.1578	0.13362	-1.8125	-3.0292	-2.2708	-2.6771	-3.1375	-2.1208	-2.9021	-2.8708	-2.3125	-2.9313	-2.4292	-2.4	-3.1167	-2.4125	-2.7083	-2.8396	-68.680	80.364	-34.120	239.146	11.256	-28.262	-98.596	-81.739	164.736	-61.139	219.367	155.396	-78.397	243.931	183.392	250.882	0.00016126	0.00051426	9.2427e-05	932.09	3.8002e-06	5.3863e-06	658.65	349.71	2.1416e-06	4.2161e-06	281.91	100.06	121.17	42.709	2.6355e-06	39.947	0.00026441	0.00024156	7.0453e-05	907.91	2.8045e-06	2.7589e-06	641.34	343.3	2.962e-06	2.6066e-06	275.58	98.953	119.68	42.2	2.8057e-06	39.199	-103.827	-20.740	-25.024	-91.806	54.339	67.605	-92.758	-87.299	22.880	52.951	-89.485	-85.747	-83.370	-79.516	31.576	-82.354	-8191	255	
20163.186	1	1	0	0	0.15742	0.079196	0.14628	0.082996	0.076764	0.12077	0.12401	0.12459	0.10984	0.26858	0.2471	0.18903	0.21071	0.21558	0.19682	0.047187	-1.7229	-2.7458	-2.3979	-2.2646	-2.9333	-2.4896	-2.5667	-2.8604	-2.3625	-2.8187	-2.65	-2.2792	-2.9625	-2.5792	-2.5458	-2.95	-15.871	-87.470	40.888	-83.946	30.152	192.489	200.214	245.992	149.631	197.248	232.114	-65.332	145.839	226.133	-13.581	20.061	0.00012898	0.00030065	0.00014104	925.51	3.0776e-06	5.1053e-06	657.52	348.29	2.2647e-06	3.4031e-06	281.23	99.74	120.32	42.524	2.5668e-06	39.674	0.00026924	0.00024283	7.261e-05	905.32	2.8482e-06	2.9145e-06	639.65	341.72	2.8178e-06	2.4644e-06	274.23	98.448	118.94	41.965	2.8245e-06	38.959	250.883	-28.174	-19.469	-91.657	49.520	49.795	-91.985	-86.392	24.800	55.727	-88.521	-85.094	-82.617	-79.122	48.003	-81.449	-8191	255	
20163.307	1	1	0	0	0.057991	0.29483	0.10339	0.09241	0.15553	0.15153	0.25046	0.24177	0.2588	0.49621	0.033179	0.13794	0.24116	0.030227	0.13527	0.10501	-2.0896	-3.0271	-2.75	-2.5062	-2.9958	-2.4021	-2.6688	-3.2042	-2.4188	-2.7562	-2.8646	-2.2125	-2.925	-2.3375	-2.4292	-2.85	24.135	21.095	193.389	-51.194	238.340	239.456	232.342	230.001	-3.682	-71.998	-60.786	72.728	-94.909	31.169	38.186	203.237	0.00013043	0.00046105	8.9031e-05	929.32	3.8077e-06	3.8891e-06	660.56	350.29	3.0714e-06	3.0879e-06	282.37	100.81	121.74	42.856	2.3111e-06	40.183	0.00026113	0.00024713	6.522e-05	904.9	2.7245e-06	2.5822e-06	642.18	341.85	3.0038e-06	2.5695e-06	276.02	99.131	119.42	42.358	2.7569e-06	39.57	253.106	-26.503	-13.268	-91.263	69.301	36.089	-91.941	-86.596	50.397	31.842	-88.801	-84.644	-82.572	-78.926	32.354	-81.390	-8191	255	
20163.402	1	1	0	0	0.18385	0.20376	0.15126	0.094251	0.19412	0.29366	0.21924	0.10035	0.31379	0.12016	0.30066	0.11241	0.29405	0.15905	0.2555	0.11405	-1.8833	-2.7729	-2.8021	-2.425	-2.9271	-2.5625	-2.6604	-2.9375	-2.0417	-2.6396	-2.8438	-2.3896	-3.0604	-2.6667	-2.5375	-2.8625	-22.951	109.156	19.767	37.893	-49.764	79.955	-102.474	238.417	-83.190	27.995	211.224	229.061	81.435	-69.534	-40.462	10.597	0.00014584	0.00038711	0.0001314	933.74	2.4317e-06	5.8768e-06	661.29	351.44	3.572e-06	4.746e-06	283.16	101.28	120.6	43.205	2.8382e-06	40.317	0.00025275	0.00025147	7.0795e-05	909.73	2.8184e-06	2.5912e-06	645.72	343.78	2.9545e-06	2.4801e-06	276.67	99.696	119.29	42.537	2.9452e-06	39.734	247.924	-24.192	-22.957	-91.454	54.759	38.831	-92.009	-86.731	25.001	33.597	-88.724	-84.803	-82.486	-78.959	50.701	-81.729	-8191	255	
20163.498	1	1	0	0	0.30602	0.13724	0.15649	0.12762	0.089937	0.26442	0.018723	0.1584	0.28438	0.050061	0.13246	0.11303	0.16624	0.14882	0.23542	0.10421	-1.975	-2.6625	-2.8563	-2.3333	-2.8208	-2.6729	-2.5104	-2.9458	-2.3458	-2.6229	-2.9396	-2.4396	-2.7438	-2.7521	-2.2729	-3.1583	138.568	230.059	-36.024	202.855	-74.041	-41.464	-37.161	150.140	96.638	85.489	60.529	117.884	-102.597	246.845	141.000	160.535	0.0001591	0.00032808	0.00013577	932.23	9.5641e-07	4.9762e-06	661.51	349.39	1.4281e-06	4.7255e-06	284.46	100.5	120.12	42.87	3.3343e-06	39.992	0.00026086	0.0002325	6.5194e-05	908.62	2.8003e-06	2.6064e-06	643.8	342.87	2.8239e-06	2.6285e-06	276.12	98.865	119.02	42.347	2.8052e-06	39.415	247.938	-16.389	-6.857	-91.084	52.659	52.714	-92.106	-86.515	50.338	42.712	-88.509	-84.980	-82.990	-79.158	52.782	-81.680	-8191	255	
20163.592	1	1	0	0	0.10901	0.20738	0.13828	0.15857	0.1518	0.15673	0.18901	0.094978	0.078949	0.050236	0.24926	0.17962	0.050521	0.30754	0.11215	0.060064	-2.0312	-2.5646	-2.9083	-2.5479	-2.7646	-2.7708	-2.5292	-3.0417	-2.6604	-2.5438	-3.0687	-2.4646	-2.8563	-2.875	-2.3229	-3.0729	135.392	13.508	162.137	218.620	-31.056	-71.103	163.145	240.295	202.529	200.625	-84.820	9.249	180.080	-65.115	203.065	-45.351	0.00014997	0.00045166	0.000106	931.79	1.987e-06	5.7327e-06	659.1	348.6	1.7813e-06	4.0147e-06	280.8	99.676	120.36	43.01	4.2553e-06	39.596	0.00026096	0.00025822	6.476e-05	906.97	2.7779e-06	2.6259e-06	640.71	341.94	2.8882e-06	2.6165e-06	274.09	98.295	118.57	42.229	2.7273e-06	39.036	253.788	-31.819	-8.370	-91.321	47.528	40.815	-92.217	-86.545	54.082	29.789	-89.125	-85.589	-83.268	-79.454	64.949	-82.280	-8191	255	
#DATA ENDS
