BOXY.EXE: ISS Imagent and Oximeter Data Acquisition Program Version 0.80
Ascii Record File

#ACQ INFORMATION
2  Detector Channels 
16  External MUX Channels 
1  Auxiliary Channels 
5000  Waveform (CCF) Frequency (Hz)
1  Waveforms Skipped 
30  Waveforms Averaged 
1  Cycles Averaged 
16  Acquisitions per Waveform 
10.0806  Updata Rate (Hz) 

#FILE INFORMATION
TRUE -- External MUX Channel results are PARSED.
FALSE -- AC DC and Phase are NOT grouped.
TRUE -- Companion Program Settings File CREATED.
FALSE -- AC data not excluded
FALSE -- DC data not excluded
FALSE -- Phase data not excluded
FALSE -- Auxillary Chn. data not excluded
Tab delimiters

#CALIBRATION STATE
TRUE -- Waveform Calibration Values APPLIED.


#AUX CALIBRATION VALUES
Val Type	aux-1	

Term	1.0000e+00	
Factor	0.0000e+00	


#WF CALIBRATION VALUES
A = Detector Channel
Val Type	A-AC1	A-AC2	A-AC3	A-AC4	A-AC5	A-AC6	A-AC7	A-AC8	A-AC9	A-AC10	A-AC11	A-AC12	A-AC13	A-AC14	A-AC15	A-AC16	A-DC1	A-DC2	A-DC3	A-DC4	A-DC5	A-DC6	A-DC7	A-DC8	A-DC9	A-DC10	A-DC11	A-DC12	A-DC13	A-DC14	A-DC15	A-DC16	A-Ph1	A-Ph2	A-Ph3	A-Ph4	A-Ph5	A-Ph6	A-Ph7	A-Ph8	A-Ph9	A-Ph10	A-Ph11	A-Ph12	A-Ph13	A-Ph14	A-Ph15	A-Ph16	

Term	0.00000e+00	0.00000e+00	0.00000e+00	0.00000e+00	0.00000e+00	0.00000e+00	0.00000e+00	0.00000e+00	0.00000e+00	0.00000e+00	0.00000e+00	0.00000e+00	0.00000e+00	0.00000e+00	0.00000e+00	0.00000e+00	0.00000e+00	0.00000e+00	0.00000e+00	0.00000e+00	0.00000e+00	0.00000e+00	0.00000e+00	0.00000e+00	0.00000e+00	0.00000e+00	0.00000e+00	0.00000e+00	0.00000e+00	0.00000e+00	0.00000e+00	0.00000e+00	0.00000e+00	0.00000e+00	0.00000e+00	0.00000e+00	0.00000e+00	0.00000e+00	0.00000e+00	0.00000e+00	0.00000e+00	0.00000e+00	0.00000e+00	0.00000e+00	0.00000e+00	0.00000e+00	0.00000e+00	0.00000e+00	
Factor	1.00000e+00	1.00000e+00	1.00000e+00	1.00000e+00	1.00000e+00	1.00000e+00	1.00000e+00	1.00000e+00	1.00000e+00	1.00000e+00	1.00000e+00	1.00000e+00	1.00000e+00	1.00000e+00	1.00000e+00	1.00000e+00	1.00000e+00	1.00000e+00	1.00000e+00	1.00000e+00	1.00000e+00	1.00000e+00	1.00000e+00	1.00000e+00	1.00000e+00	1.00000e+00	1.00000e+00	1.00000e+00	1.00000e+00	1.00000e+00	1.00000e+00	1.00000e+00	X	X	X	X	X	X	X	X	X	X	X	X	X	X	X	X	

B = Detector Channel
Val Type	B-AC1	B-AC2	B-AC3	B-AC4	B-AC5	B-AC6	B-AC7	B-AC8	B-AC9	B-AC10	B-AC11	B-AC12	B-AC13	B-AC14	B-AC15	B-AC16	B-DC1	B-DC2	B-DC3	B-DC4	B-DC5	B-DC6	B-DC7	B-DC8	B-DC9	B-DC10	B-DC11	B-DC12	B-DC13	B-DC14	B-DC15	B-DC16	B-Ph1	B-Ph2	B-Ph3	B-Ph4	B-Ph5	B-Ph6	B-Ph7	B-Ph8	B-Ph9	B-Ph10	B-Ph11	B-Ph12	B-Ph13	B-Ph14	B-Ph15	B-Ph16	

Term	0.00000e+00	0.00000e+00	0.00000e+00	0.00000e+00	0.00000e+00	0.00000e+00	0.00000e+00	0.00000e+00	0.00000e+00	0.00000e+00	0.00000e+00	0.00000e+00	0.00000e+00	0.00000e+00	0.00000e+00	0.00000e+00	0.00000e+00	0.00000e+00	0.00000e+00	0.00000e+00	0.00000e+00	0.00000e+00	0.00000e+00	0.00000e+00	0.00000e+00	0.00000e+00	0.00000e+00	0.00000e+00	0.00000e+00	0.00000e+00	0.00000e+00	0.00000e+00	-7.86066e+01	-1.31001e+02	-1.24786e+02	-1.83817e+02	-4.99121e+01	-6.53093e+01	-1.58668e+02	-1.62015e+02	-4.89199e+01	-6.62152e+01	-1.74374e+02	-1.69631e+02	-1.81559e+02	-1.77656e+02	-5.84456e+01	-1.50419e+02	
Factor	1.94216e-05	1.68321e-04	4.74969e-05	1.55115e-01	1.43856e-06	2.00494e-06	1.80626e-01	6.10451e-02	1.32424e-06	1.89511e-06	1.00420e-01	3.08861e-02	3.91032e-02	1.03895e-02	1.63570e-06	1.47649e-02	1.30170e-05	2.26506e-05	6.31162e-06	7.96424e-02	2.23240e-07	2.52336e-07	8.66108e-02	3.14689e-02	2.25496e-07	2.50935e-07	5.02129e-02	1.55535e-02	2.03098e-02	5.40091e-03	2.36603e-07	7.42413e-03	X	X	X	X	X	X	X	X	X	X	X	X	X	X	X	X	



#DISTANCE SETTINGS
A = Detector Channel
A-1	A-2	A-3	A-4	A-5	A-6	A-7	A-8	A-9	A-10	A-11	A-12	A-13	A-14	A-15	A-16	

2.5000e+00	3.0000e+00	2.5000e+00	3.0000e+00	2.0000e+00	3.0000e+00	1.5000e+00	3.0000e+00	3.0000e+00	3.0000e+00	3.0000e+00	3.0000e+00	3.0000e+00	3.0000e+00	1.5000e+00	3.0000e+00	

B = Detector Channel
B-1	B-2	B-3	B-4	B-5	B-6	B-7	B-8	B-9	B-10	B-11	B-12	B-13	B-14	B-15	B-16	

1.0000e+01	1.0000e+01	1.0000e+01	1.4400e+00	1.0000e+01	1.0000e+01	1.5100e+00	1.9400e+00	1.0000e+01	1.0000e+01	1.9900e+00	2.4900e+00	2.4100e+00	2.9000e+00	1.0000e+01	2.9800e+00	




#DATA BEGINS
time	group	step	mark	flag	A-AC1	A-AC2	A-AC3	A-AC4	A-AC5	A-AC6	A-AC7	A-AC8	A-AC9	A-AC10	A-AC11	A-AC12	A-AC13	A-AC14	A-AC15	A-AC16	A-DC1	A-DC2	A-DC3	A-DC4	A-DC5	A-DC6	A-DC7	A-DC8	A-DC9	A-DC10	A-DC11	A-DC12	A-DC13	A-DC14	A-DC15	A-DC16	A-Ph1	A-Ph2	A-Ph3	A-Ph4	A-Ph5	A-Ph6	A-Ph7	A-Ph8	A-Ph9	A-Ph10	A-Ph11	A-Ph12	A-Ph13	A-Ph14	A-Ph15	A-Ph16	B-AC1	B-AC2	B-AC3	B-AC4	B-AC5	B-AC6	B-AC7	B-AC8	B-AC9	B-AC10	B-AC11	B-AC12	B-AC13	B-AC14	B-AC15	B-AC16	B-DC1	B-DC2	B-DC3	B-DC4	B-DC5	B-DC6	B-DC7	B-DC8	B-DC9	B-DC10	B-DC11	B-DC12	B-DC13	B-DC14	B-DC15	B-DC16	B-Ph1	B-Ph2	B-Ph3	B-Ph4	B-Ph5	B-Ph6	B-Ph7	B-Ph8	B-Ph9	B-Ph10	B-Ph11	B-Ph12	B-Ph13	B-Ph14	B-Ph15	B-Ph16	aux-1	digaux	

20169.332	1	1	0	256	0.077413	0.19959	0.048661	0.16572	0.35287	0.23635	0.15608	0.20732	0.25583	0.214	0.1791	0.41065	0.10686	0.16822	0.040779	0.16595	-2.0521	-2.9208	-2.3792	-2.8021	-2.9146	-2.325	-2.9938	-2.7833	-2.4688	-3.0563	-2.6188	-2.5042	-2.9333	-2.2833	-2.5667	-2.6875	19.759	-60.001	34.168	206.499	62.119	-81.153	-73.160	203.589	224.052	92.287	224.630	220.072	6.155	-76.213	149.499	93.818	0.00012131	0.00025691	9.4417e-05	914.9	1.8614e-06	4.6837e-06	634.82	327.94	2.0592e-06	2.6738e-06	252.26	89.301	113.91	39.32	2.5875e-06	34.109	0.00025098	0.00028393	7.7567e-05	890.34	3.0523e-06	3.0522e-06	616.2	320.99	3.1922e-06	2.9636e-06	247.81	87.995	112.4	38.829	3.0862e-06	33.464	-101.458	-27.292	-1.110	-91.010	69.770	46.633	-92.049	-86.444	52.970	45.953	-88.583	-84.509	-82.620	-78.909	64.998	-80.793	-8191	255	
20169.428	1	1	0	0	0.077087	0.11191	0.28689	0.089569	0.12713	0.32454	0.26206	0.22143	0.20763	0.13136	0.19906	0.071644	0.2325	0.16253	0.14108	0.21749	-1.7792	-2.9354	-2.475	-2.5917	-2.8917	-2.2583	-2.6521	-2.8979	-2.2104	-2.8042	-2.7354	-2.4062	-3.1	-2.4521	-2.8312	-2.8854	110.417	138.341	189.667	-62.688	-46.888	50.661	187.105	220.938	99.254	-43.385	-38.150	183.735	180.106	223.294	-62.792	-82.967	9.6034e-05	0.00048097	7.6506e-05	914.26	2.7759e-06	4.4169e-06	633.63	327.87	1.5658e-06	4.6668e-06	254.44	88.906	113.13	39.115	2.972e-06	33.956	0.00025744	0.0002636	8.0197e-05	890.24	3.0263e-06	2.8808e-06	617.66	320.63	3.1973e-06	2.891e-06	248.34	87.787	111.92	38.651	3.0542e-06	33.245	244.121	-28.398	-20.062	-91.105	67.764	48.002	-92.103	-86.196	17.025	49.370	-88.613	-84.588	-82.114	-78.648	51.051	-80.777	-8191	255	
20169.549	1	1	0	0	0.066938	0.059939	0.26633	0.31555	0.22771	0.10154	0.072681	0.20432	0.087208	0.24317	0.047875	0.14654	0.075782	0.40297	0.16221	0.1961	-1.8542	-2.8479	-2.4333	-2.4833	-2.8604	-2.3812	-2.6125	-2.8333	-2.35	-2.9292	-2.6312	-2.45	-3.0771	-2.5104	-2.5542	-2.8875	139.324	72.243	134.873	205.965	-59.265	-25.122	-99.629	110.475	255.523	100.581	16.154	77.382	-99.307	-84.301	-58.788	2.256	9.9101e-05	0.00037911	0.00013183	921.62	2.3244e-06	3.7114e-06	637.11	326.66	2.6824e-06	4.0138e-06	253.77	88.339	113.64	38.634	2.3203e-06	32.967	0.0002521	0.00026336	7.19e-05	893.88	2.9719e-06	2.9939e-06	621.12	320.27	3.1316e-06	2.9851e-06	247.59	86.983	112	38.16	3.0413e-06	32.436	250.184	-15.245	-6.235	-91.044	77.848	45.109	-92.136	-86.242	42.912	54.328	-88.337	-84.529	-82.464	-78.429	39.597	-81.220	-8191	255	
20169.643	1	1	0	0	0.20313	0.11187	0.14753	0.18771	0.094185	0.12149	0.11072	0.13524	0.096149	0.20268	0.20023	0.16929	0.1662	0.072848	0.049528	0.18203	-1.8333	-2.8167	-2.6271	-2.4271	-2.9521	-2.6063	-2.5771	-2.9938	-2.3417	-2.6792	-2.8417	-2.3604	-2.9625	-2.4979	-2.4042	-3.025	101.635	-84.036	134.818	79.546	-22.900	77.246	101.591	-53.033	11.891	-67.338	243.626	218.923	-71.390	118.718	64.342	-67.346	9.0934e-05	0.00045509	9.7024e-05	916.34	1.4786e-06	3.2275e-06	635.45	323.27	1.6715e-06	3.4502e-06	249.43	86.318	111.78	38.296	2.2651e-06	32.412	0.00024374	0.00026685	7.1098e-05	892.04	2.8542e-06	2.7216e-06	619.37	317.07	3.0639e-06	2.7854e-06	243.38	84.99	110.76	37.669	3.0615e-06	31.684	251.775	-44.711	-47.230	-91.107	68.801	41.229	-92.142	-86.227	23.119	44.679	-88.513	-84.614	-82.614	-78.555	50.228	-81.353	-8191	255	
20169.740	1	1	0	0	0.35345	0.19257	0.10481	0.072326	0.042436	0.040801	0.067661	0.16181	0.14132	0.1113	0.024043	0.27535	0.13364	0.16963	0.13663	0.18482	-1.9438	-2.575	-2.7188	-2.5125	-3.0104	-2.5167	-2.5187	-3.0917	-2.4896	-2.6542	-2.7917	-2.175	-2.9667	-2.4708	-2.3854	-3.0563	85.301	244.826	-36.311	-70.076	-62.450	0.660	172.419	-91.041	196.125	-57.446	250.695	218.607	215.814	-86.566	77.019	144.633	0.00011845	0.00031415	0.00011885	913.26	1.6929e-06	4.4386e-06	630.45	321.01	2.2805e-06	4.2124e-06	245.75	84.11	111.05	37.533	3.6745e-06	31.153	0.00025253	0.0002527	7.4832e-05	886.69	2.8272e-06	2.8241e-06	614.43	314.67	2.8887e-06	2.8784e-06	239.36	82.891	109.54	36.846	3.134e-06	30.482	255.022	-11.668	4.046	-91.126	41.260	30.992	-91.800	-85.956	39.543	29.074	-88.169	-84.617	-83.329	-79.338	32.589	-81.857	-8191	255	
20169.859	1	1	0	0	0.10256	0.13021	0.15666	0.050414	0.1444	0.20631	0.29287	0.28264	0.18871	0.11778	0.077798	0.11165	0.22735	0.11588	0.17704	0.44902	-1.95	-2.675	-2.8396	-2.3667	-2.9833	-2.6437	-2.3792	-3.0917	-2.2583	-2.6458	-2.9771	-2.2833	-2.925	-2.8792	-2.3542	-2.9583	-12.579	57.333	130.602	240.975	123.639	231.504	168.011	182.087	24.803	183.223	33.010	191.473	233.872	-88.732	194.258	187.012	9.3879e-05	0.00032663	0.00010068	895.31	3.7355e-06	2.9157e-06	619.7	317.6	6.9222e-07	4.2213e-06	241.45	82.682	109.87	37.014	3.245e-06	30.297	0.00024656	0.00026921	6.6141e-05	873.41	2.7845e-06	2.6816e-06	606.23	310.64	3.0663e-06	2.8769e-06	235.67	81.192	108.07	36.456	2.9605e-06	29.926	244.919	-34.924	7.009	-91.367	48.755	59.967	-92.596	-86.658	3.121	44.566	-88.621	-84.425	-82.587	-78.910	40.371	-81.070	-8191	255	
20169.932	1	1	0	0	0.098088	0.11006	0.06493	0.024554	0.25389	0.15686	0.29687	0.1618	0.26789	0.18087	0.21436	0.024394	0.064426	0.34259	0.33191	0.082697	-1.9729	-2.4437	-2.8521	-2.2604	-2.8042	-2.8375	-2.3708	-2.9813	-2.4938	-2.3521	-2.9833	-2.4375	-2.675	-2.9792	-2.2396	-2.925	49.667	244.560	136.594	89.481	61.140	154.867	67.575	-17.684	45.145	254.214	96.669	159.781	196.725	244.167	49.860	72.805	0.00010542	0.00028231	9.8567e-05	894.12	2.7333e-06	3.5543e-06	618.28	315.87	2.099e-06	4.3841e-06	239.95	80.515	109.04	36.569	3.2044e-06	29.896	0.00023539	0.00028507	7.0664e-05	868.82	2.8714e-06	2.6716e-06	601.79	310.18	3.0047e-06	2.9359e-06	233.47	79.861	107.24	35.932	3.1113e-06	29.414	-103.911	-36.166	-6.062	-90.839	60.425	37.211	-91.898	-86.344	27.501	72.976	-88.009	-84.382	-82.418	-78.610	40.462	-81.037	-8191	255	
20170.027	1	1	0	0	0.11262	0.12327	0.16725	0.11284	0.086679	0.26003	0.16044	0.38806	0.061537	0.23239	0.30314	0.28462	0.11428	0.14217	0.11044	0.042876	-2.2812	-2.3792	-3.0292	-2.4104	-2.6063	-2.8208	-2.3604	-2.8563	-2.5312	-2.3708	-3.0708	-2.4354	-2.525	-2.9417	-2.3187	-2.7	-93.349	57.530	198.895	117.634	186.859	49.227	172.672	244.038	-87.787	249.377	-2.000	238.985	229.430	235.198	8.417	32.316	0.00010036	0.00028775	7.5906e-05	887.7	2.3198e-06	3.1116e-06	612.75	317.1	1.1099e-06	5.6108e-06	237.11	79.422	107.79	35.906	2.2863e-06	29.305	0.00023821	0.00027237	7.1242e-05	865.88	2.9114e-06	2.7904e-06	596.99	309.56	2.8854e-06	3.0321e-06	230.23	78.734	106.29	35.414	2.8575e-06	28.796	246.238	-20.997	1.915	-90.799	70.368	42.074	-92.310	-86.138	2.761	39.307	-88.209	-84.340	-82.650	-78.779	45.586	-81.368	-8191	255	
20170.148	1	1	0	0	0.18216	0.29104	0.096327	0.23179	0.087203	0.1799	0.1499	0.3144	0.15601	0.32238	0.12582	0.25851	0.090499	0.22764	0.1086	0.41707	-2.0875	-2.2167	-2.8042	-2.4375	-2.6458	-2.9604	-2.5021	-2.8021	-2.825	-2.2479	-3.2104	-2.5396	-2.7938	-2.75	-2.1729	-2.8792	22.094	91.099	161.947	236.915	34.202	154.156	161.638	211.455	111.364	148.561	150.347	70.606	160.812	-73.661	9.340	-55.103	0.00010397	0.00035277	0.00010311	881.49	1.9911e-06	2.9515e-06	603.4	315.68	2.1686e-06	2.456e-06	233.21	78.898	107.83	35.514	2.7359e-06	28.584	0.0002297	0.00028153	6.9586e-05	859.63	3.0616e-06	2.6974e-06	590.39	308.88	2.9582e-06	2.7524e-06	227.27	77.599	106.03	34.917	2.9901e-06	28.084	-103.692	-11.806	-12.623	-90.726	72.189	55.823	-91.855	-86.443	83.130	39.129	-88.090	-84.454	-82.305	-78.631	62.274	-81.392	-8191	255	
20170.244	1	1	0	0	0.14763	0.38212	0.070215	0.027447	0.23678	0.1199	0.064433	0.056018	0.095237	0.25026	0.13012	0.23838	0.1804	0.25571	0.026811	0.061854	-2.3229	-2.2771	-2.9104	-2.3771	-2.3396	-3.0417	-2.2438	-2.7271	-2.5521	-2.1354	-2.8229	-2.6146	-2.5417	-3.0333	-2.3	-2.6042	226.026	240.437	59.067	110.694	5.620	8.458	239.334	159.303	54.089	170.673	-97.317	163.137	190.857	252.876	78.629	44.579	0.00010147	0.00041424	0.00013215	879.54	1.3389e-06	3.7362e-06	601.74	313.33	6.4006e-07	2.6255e-06	229.94	77.5	106.52	35.105	1.9647e-06	28.31	0.00023368	0.00026709	7.1584e-05	854.32	3.1812e-06	2.8346e-06	587	306.38	3.0376e-06	2.9077e-06	225.08	76.451	105.47	34.518	3.1542e-06	27.725	253.024	-18.608	-5.962	-90.781	38.017	30.007	-91.801	-86.171	44.139	28.188	-88.047	-84.598	-82.604	-78.351	50.542	-81.147	-8191	255	
20170.340	1	1	0	0	0.17179	0.039681	0.20367	0.0020608	0.1075	0.10268	0.18045	0.17829	0.1441	0.18381	0.20023	0.067651	0.19224	0.15488	0.17321	0.11582	-2.4979	-2.2375	-2.8229	-2.8021	-2.4313	-3.0187	-2.3229	-2.5896	-2.8396	-2.1333	-2.8563	-2.5958	-2.0958	-3.0875	-2.5292	-2.5875	235.612	240.487	17.166	180.000	-2.850	-5.368	-9.301	193.070	173.012	175.496	237.839	190.904	107.954	45.550	110.406	85.208	9.7644e-05	0.00041487	6.4681e-05	878.07	1.8614e-06	5.1613e-06	607.23	313.48	1.3479e-06	2.4392e-06	230.48	77.904	107.55	35.201	2.6369e-06	28.391	0.00023604	0.0002728	7.1966e-05	854.7	3.2109e-06	2.8877e-06	589.93	306.83	3.0935e-06	3.0248e-06	225.56	76.736	105.92	34.583	3.1897e-06	27.789	-102.584	-20.459	-36.367	-90.661	41.253	60.748	-91.825	-86.100	60.167	45.232	-88.222	-84.399	-82.176	-78.246	75.399	-81.610	-8191	255	
20170.461	1	1	0	0	0.19679	0.077898	0.27174	0.097368	0.17176	0.077418	0.16864	0.079357	0.41708	0.24257	0.19471	0.19319	0.083064	0.25075	0.090405	0.069274	-2.3354	-2.0771	-2.7104	-2.8063	-2.3729	-2.9271	-2.6188	-2.4625	-2.8646	-2.2958	-2.5979	-2.775	-2.2354	-2.9833	-2.3167	-2.4458	27.567	192.179	21.778	210.455	-35.937	223.774	176.719	105.387	76.452	114.739	108.760	237.638	163.889	-71.822	152.525	236.491	9.9234e-05	0.0002723	9.0302e-05	882.04	2.8397e-06	4.6393e-06	606.59	312.58	1.4253e-06	2.168e-06	231.07	77.759	107.25	35.108	2.5268e-06	28.03	0.00024195	0.00028474	7.5503e-05	857.59	3.0765e-06	2.8829e-06	590.34	306.61	3.079e-06	2.9997e-06	225.6	76.636	106.12	34.591	3.2967e-06	27.713	-97.292	-14.277	-5.480	-90.920	44.776	56.193	-91.896	-86.372	63.069	46.115	-88.310	-84.146	-82.414	-78.297	46.849	-81.464	-8191	255	
20170.533	1	1	0	0	0.081397	0.18892	0.21262	0.081483	0.16725	0.016438	0.10817	0.070118	0.051582	0.127	0.11176	0.007657	0.19498	0.23185	0.1008	0.062997	-2.4542	-2.0812	-2.4875	-2.7708	-2.225	-2.8917	-2.575	-2.45	-2.9771	-2.5771	-2.4854	-2.9042	-2.2687	-2.8729	-2.6375	-2.275	-77.865	109.679	221.462	-90.315	244.472	-52.591	181.098	20.728	231.153	-39.837	106.544	36.373	118.297	249.238	5.449	29.355	9.3919e-05	0.00016745	8.8458e-05	881.99	1.2611e-06	4.9577e-06	608.36	313.82	1.8763e-06	3.8523e-06	231.02	77.537	107.58	35.069	2.5798e-06	28.01	0.00024163	0.00025911	7.6423e-05	857.44	3.0751e-06	2.9534e-06	590.25	306.73	3.0978e-06	2.9736e-06	225.51	76.505	106.48	34.602	3.1705e-06	27.573	-96.210	-6.893	-16.301	-90.466	52.484	18.548	-91.705	-86.095	53.997	32.576	-88.930	-85.066	-83.064	-79.054	39.809	-82.029	-8191	255	
20170.629	1	1	0	0	0.2414	0.22211	0.069675	0.1641	0.15868	0.33022	0.13798	0.33042	0.23181	0.11346	0.14111	0.19432	0.34295	0.15676	0.03658	0.20738	-2.5167	-2.3	-2.5979	-3.0292	-2.1271	-2.8375	-2.6813	-2.3583	-2.7333	-2.3875	-2.5896	-2.8021	-2.2604	-2.8125	-2.7062	-2.2292	182.675	-25.918	-11.245	63.438	-51.065	113.851	195.801	251.217	-55.599	-61.640	173.820	76.567	-83.804	-18.917	-93.412	186.473	8.9651e-05	0.0003098	8.8233e-05	880.76	1.2457e-06	3.4235e-06	610.16	312.92	1.7816e-06	3.0409e-06	233.07	78.343	108.12	35.518	2.7456e-06	28.55	0.00023973	0.0002987	7.8159e-05	858.22	3.1537e-06	3.1116e-06	593.36	307.29	3.0503e-06	3.1403e-06	227.52	77.25	107.08	34.922	3.1123e-06	28.008	255.201	6.034	-27.999	-91.623	35.170	54.233	-92.326	-86.702	22.393	44.837	-88.910	-84.576	-83.033	-79.158	70.721	-81.704	-8191	255	
20170.723	1	1	0	0	0.002777	0.25515	0.17732	0.1703	0.27885	0.1474	0.18969	0.29725	0.16311	0.054344	0.14762	0.30887	0.13279	0.16444	0.11744	0.099274	-2.6083	-2.3854	-2.4542	-2.9688	-2.3708	-2.5646	-2.8292	-2.4313	-2.8979	-2.6479	-2.475	-3.0104	-2.3833	-2.6104	-2.9458	-2.3375	215.280	119.737	192.534	201.544	-91.708	-47.369	82.874	206.950	72.472	-58.706	139.402	208.282	145.534	236.945	184.908	209.449	9.4711e-05	0.00038146	0.00014882	890.33	2.2962e-06	4.4501e-06	614.69	316.03	1.8938e-06	4.4726e-06	234.92	79.3	109.09	35.739	3.9246e-06	28.889	0.00024475	0.00029493	8.4076e-05	864.58	3.3184e-06	3.2888e-06	597.65	310.3	3.2932e-06	3.1325e-06	229.61	78.097	108.2	35.068	3.308e-06	28.276	-102.278	-37.620	-9.255	-90.657	67.197	43.127	-91.339	-86.322	64.107	34.175	-88.275	-84.349	-82.131	-78.484	66.059	-80.892	-8191	255	
20170.844	1	1	0	0	0.12181	0.12998	0.38588	0.13872	0.3075	0.24169	0.21147	0.23742	0.093631	0.11408	0.23038	0.1631	0.16528	0.20967	0.25489	0.16091	-2.5938	-2.4479	-2.3792	-2.9604	-2.2333	-2.5938	-2.9979	-2.2083	-2.7812	-2.7167	-2.5563	-2.9708	-2.5375	-2.5417	-2.9375	-2.35	198.054	14.363	54.656	239.843	115.340	78.486	216.119	167.412	193.266	163.519	255.073	238.224	211.758	205.242	77.865	119.288	9.0456e-05	0.00034294	6.594e-05	894.32	2.7031e-06	2.7934e-06	622.29	318.09	1.4223e-06	3.5361e-06	236.6	79.401	109.63	35.831	2.6221e-06	29.34	0.00025318	0.00028554	7.8922e-05	871.41	3.2956e-06	3.1652e-06	604.63	311.45	3.1739e-06	3.0651e-06	230.91	78.437	108.5	35.425	3.2986e-06	28.61	-91.447	-3.083	-37.421	-90.612	41.181	92.330	-91.804	-86.134	19.971	71.434	-88.562	-84.264	-82.112	-78.354	71.224	-81.455	-8191	255	
20170.938	1	1	0	0	0.32398	0.10651	0.11785	0.2581	0.060695	0.071294	0.13444	0.29344	0.091906	0.050309	0.28425	0.14164	0.16298	0.11788	0.076864	0.045568	-2.2208	-2.4729	-2.2771	-2.9875	-2.4771	-2.5396	-2.925	-2.2104	-2.8333	-2.5	-2.2958	-3.1104	-2.5042	-2.5042	-3.0021	-2.1958	-53.240	102.684	140.395	216.684	-68.285	-0.777	240.214	235.481	-66.286	230.652	-102.933	84.757	185.019	45.783	-11.000	-66.430	8.5737e-05	0.00032731	8.7202e-05	894.26	2.4535e-06	5.4707e-06	625.31	319.2	1.5772e-06	4.735e-06	237.36	79.782	110.37	36.189	2.6224e-06	29.154	0.00024789	0.00029101	8.1893e-05	872.47	3.2872e-06	3.1652e-06	606.96	312.81	3.3336e-06	3.086e-06	231.43	78.666	108.82	35.587	3.1044e-06	28.605	251.392	-32.771	-15.604	-90.866	77.352	31.706	-92.047	-86.135	8.943	44.239	-88.592	-84.111	-82.179	-78.622	57.667	-81.142	-8191	255	
20171.033	1	1	0	0	0.31377	0.03384	0.054472	0.18575	0.20052	0.098664	0.13224	0.13104	0.16674	0.028505	0.15091	0.327	0.04977	0.086142	0.089715	0.11924	-2.3146	-2.7833	-2.2687	-2.9792	-2.5	-2.3792	-3.0875	-2.4833	-2.6417	-2.7708	-2.1667	-2.8667	-2.6146	-2.3021	-2.9229	-2.3521	-39.012	155.803	232.605	168.276	188.806	-66.160	218.138	27.562	-87.164	237.724	-26.002	161.558	240.756	164.914	223.235	-41.082	9.7488e-05	0.00038973	8.837e-05	898.4	2.2121e-06	4.0193e-06	622.43	319.31	2.4698e-06	4.2127e-06	237	80.068	110.11	36.055	2.8467e-06	28.921	0.00025486	0.00027964	8.1906e-05	874.18	3.2956e-06	3.1847e-06	606.59	313.06	3.3439e-06	2.9746e-06	231.61	78.681	108.74	35.48	3.2144e-06	28.41	255.564	-30.215	2.394	-90.732	54.499	63.416	-91.883	-86.057	24.115	27.663	-88.445	-84.695	-82.269	-78.246	57.069	-81.128	-8191	255	
20171.133	1	1	0	0	0.12681	0.24191	0.092511	0.30007	0.095916	0.03104	0.010081	0.18773	0.14696	0.10905	0.1718	0.18165	0.21735	0.25748	0.20837	0.23806	-2.3792	-2.8146	-2.0021	-3.0021	-2.5042	-2.3417	-3.0938	-2.5625	-2.575	-2.9167	-2.4729	-2.8354	-2.8604	-2.4375	-2.8417	-2.4875	58.348	80.402	-28.146	237.670	122.339	29.678	186.674	225.418	132.370	-99.773	97.507	151.001	134.454	246.113	223.139	158.451	0.0001007	0.00024252	0.00010914	897.69	2.5717e-06	4.6948e-06	626.55	318.88	1.46e-06	3.6209e-06	238.76	79.847	110.94	35.818	2.9778e-06	28.83	0.00024968	0.00027997	8.4365e-05	876.73	3.0975e-06	3.3187e-06	610.65	313.48	3.1767e-06	2.9427e-06	232.74	78.989	109.43	35.407	3.2395e-06	28.395	255.335	-10.486	-11.327	-90.881	47.554	34.622	-91.712	-85.990	45.489	51.059	-88.407	-84.573	-82.312	-78.558	46.991	-80.728	-8191	255	
20171.227	1	1	0	0	0.079261	0.11419	0.12302	0.18937	0.090965	0.20434	0.20846	0.21396	0.081674	0.21447	0.25052	0.1756	0.16942	0.18077	0.24552	0.10922	-2.1771	-3.125	-2.3417	-2.8083	-2.7771	-2.3396	-3.1646	-2.6167	-2.45	-3.0563	-2.2562	-2.8208	-2.8979	-2.4354	-2.8542	-2.4125	74.312	144.239	-16.644	198.462	185.070	230.339	99.374	235.102	170.417	101.841	121.642	70.652	236.616	255.832	19.541	188.250	9.1786e-05	0.00052225	9.3554e-05	903.63	1.5783e-06	4.2479e-06	627.72	322.21	1.9005e-06	5.2068e-06	237.31	80.17	111.05	35.923	2.9954e-06	28.863	0.00025017	0.0002913	7.8067e-05	880.6	3.1012e-06	2.9902e-06	612.37	315.07	3.3435e-06	3.11e-06	232.67	78.852	109.42	35.403	3.0216e-06	28.355	-101.444	-8.918	-15.224	-91.074	77.960	37.993	-91.581	-86.029	15.572	52.862	-88.597	-84.640	-82.009	-78.820	65.281	-81.231	-8191	255	
20171.322	1	1	0	0	0.22422	0.30207	0.23127	0.16785	0.10236	0.11953	0.142	0.16953	0.26902	0.15624	0.2023	0.041702	0.22724	0.068221	0.13603	0.25153	-1.9813	-2.95	-2.4188	-2.9146	-2.725	-2.3479	-3.0812	-2.6063	-2.2958	-3.0625	-2.3896	-2.5125	-2.8937	-2.4062	-2.9854	-2.6896	-70.222	209.817	207.081	179.353	119.484	167.139	162.655	191.597	117.939	-17.647	200.751	58.900	182.402	-98.574	45.995	-23.263	8.9258e-05	0.00035338	9.2029e-05	906.58	1.6814e-06	3.7471e-06	630.79	320.57	1.6065e-06	2.5909e-06	239.49	79.98	111.13	36.291	1.4065e-06	28.961	0.00025275	0.00028049	8.0105e-05	881.7	3.0403e-06	3.16e-06	611.99	313.8	3.2645e-06	3.0008e-06	232.95	78.908	109.31	35.735	3.0522e-06	28.554	254.018	-22.673	-17.376	-90.999	103.081	51.639	-91.713	-85.957	30.418	36.014	-88.305	-84.788	-82.326	-78.537	29.369	-80.766	-8191	255	
20171.420	1	1	0	0	0.21488	0.15523	0.18296	0.063044	0.036053	0.142	0.1783	0.20913	0.18911	0.13693	0.10415	0.38588	0.2504	0.27179	0.10888	0.086433	-1.9583	-3.1208	-2.2083	-2.7208	-3.0104	-2.3271	-2.8125	-2.7438	-2.2979	-3.1125	-2.3625	-2.5	-3.0208	-2.4	-2.6437	-2.725	50.063	126.720	183.622	152.748	-78.664	28.071	127.390	187.824	-77.117	72.866	-17.073	-72.840	-52.649	168.093	-90.117	-72.525	0.00010572	0.00035639	8.1099e-05	903.72	1.4916e-06	1.986e-06	628.19	320.27	2.1273e-06	3.2199e-06	237.62	79.836	111.51	36.097	2.3784e-06	29.272	0.00024518	0.0002619	7.8711e-05	882.03	3.1593e-06	3.0843e-06	611.82	313.74	3.3096e-06	2.9114e-06	232.88	78.883	109.4	35.66	3.1675e-06	28.61	252.279	-39.457	1.460	-90.816	38.308	60.874	-91.553	-86.139	-0.977	58.532	-88.069	-84.320	-81.996	-78.348	26.879	-80.956	-8191	255	
20171.539	1	1	0	0	0.17244	0.039426	0.12732	0.31243	0.087599	0.25188	0.059349	0.18028	0.25843	0.193	0.22287	0.088453	0.18054	0.12932	0.19891	0.06677	-1.9104	-2.9021	-2.5563	-2.5354	-3.0375	-2.3771	-2.9667	-2.8875	-2.4542	-3.0667	-2.5375	-2.4313	-3.0354	-2.3333	-2.675	-2.9188	64.850	24.857	-15.424	-86.163	0.428	216.651	60.681	224.738	185.619	241.899	34.697	192.755	113.114	88.185	-76.892	184.691	9.1484e-05	0.00031709	5.5086e-05	909.04	2.0504e-06	2.5708e-06	632.34	321.19	1.957e-06	4.2821e-06	240.05	80.844	111.7	36.711	3.0603e-06	29.794	0.00025863	0.00028214	7.3544e-05	885.35	2.9812e-06	3.098e-06	616.06	315.14	3.2133e-06	2.9265e-06	234.93	79.698	109.99	36.014	3.0867e-06	29.102	-102.782	-27.845	11.633	-90.686	65.770	40.785	-91.767	-85.922	3.749	18.895	-88.113	-84.052	-82.071	-78.133	45.632	-80.767	-8191	255	
20171.637	1	1	0	0	0.01553	0.25412	0.21238	0.18918	0.29649	0.10057	0.19368	0.16076	0.15657	0.21973	0.16164	0.017166	0.18226	0.21622	0.15862	0.15614	-1.8813	-2.8104	-2.6562	-2.5958	-3.0271	-2.3417	-2.5979	-2.8063	-2.3458	-2.7687	-2.6333	-2.3646	-3.0479	-2.3917	-2.6479	-3.125	251.267	230.626	35.979	221.601	58.774	47.239	225.340	-73.161	184.174	1.291	-103.844	-101.223	202.154	217.210	43.396	-93.306	9.4021e-05	0.00034441	8.7179e-05	909.25	2.8753e-06	3.7972e-06	637.45	325	2.1047e-06	2.5526e-06	242.87	81.551	112.48	36.661	2.5785e-06	29.56	0.00025182	0.00028351	7.4188e-05	889.33	3.0802e-06	3.2346e-06	619.52	317.47	3.4003e-06	2.9678e-06	237.05	80.46	110.97	36.092	3.4056e-06	29.036	251.976	-14.469	5.983	-90.775	67.859	51.937	-91.959	-85.883	32.106	59.417	-88.031	-84.340	-81.852	-78.346	28.859	-80.880	-8191	255	
20171.732	1	1	0	0	0.054504	0.09537	0.03029	0.31548	0.32789	0.20402	0.12027	0.25677	0.19508	0.087015	0.13759	0.1957	0.15215	0.080597	0.24051	0.16012	-1.7667	-2.6896	-2.7354	-2.5521	-2.9979	-2.5521	-2.7417	-2.8479	-2.4229	-3	-2.7854	-2.4458	-2.875	-2.5896	-2.5646	-3.0104	241.111	-50.554	45.876	213.972	64.822	111.034	-90.436	211.694	135.143	-66.145	137.945	-92.051	-58.255	236.780	68.931	18.753	9.0296e-05	0.00033753	9.2135e-05	916.99	2.8085e-06	3.621e-06	637.06	325.11	8.2504e-07	3.3244e-06	242.12	80.717	112.13	36.632	3.0067e-06	29.597	0.00025424	0.00029229	8.451e-05	890.86	3.1216e-06	3.2225e-06	618.29	317.53	3.4036e-06	3.3014e-06	236.31	80.004	110.77	35.988	3.3524e-06	28.917	248.380	8.376	9.521	-90.807	67.350	37.278	-91.987	-85.795	96.680	52.067	-87.989	-84.106	-82.070	-78.240	48.885	-80.576	-8191	255	
20171.828	1	1	0	0	0.31377	0.01912	0.26638	0.39261	0.2576	0.070854	0.27549	0.19617	0.24702	0.098279	0.21376	0.016334	0.2436	0.12874	0.13236	0.094028	-1.7833	-2.5604	-2.7146	-2.3583	-3.1167	-2.55	-2.5958	-3.0833	-2.2896	-2.7438	-3.0875	-2.2979	-3.0479	-2.6167	-2.4521	-3.1958	85.818	178.357	119.866	238.364	244.341	103.625	238.579	175.412	-47.365	232.538	246.555	179.434	-87.361	159.579	107.117	176.784	9.9834e-05	0.00029849	7.9253e-05	910.26	3.8259e-06	3.2998e-06	632.39	323.47	1.1614e-06	4.2842e-06	241.02	81.645	112.79	36.461	3.2773e-06	29.437	0.00026191	0.00030989	8.4904e-05	888	3.27e-06	3.2672e-06	615.64	317.28	3.4506e-06	3.1905e-06	235.71	80.033	110.92	35.865	3.3302e-06	28.798	251.111	-32.001	-11.473	-90.805	58.004	20.407	-91.423	-86.023	32.004	31.734	-87.856	-84.327	-82.064	-78.236	59.768	-80.950	-8191	255	
20171.924	1	1	0	0	0.21386	0.1798	0.24185	0.078006	0.12298	0.31653	0.27117	0.42137	0.056121	0.084095	0.24499	0.12844	0.17585	0.20946	0.32699	0.26285	-1.95	-2.6771	-2.8458	-2.4875	-2.8979	-2.7458	-2.5083	-3.1271	-2.4938	-2.4958	-2.9813	-2.1688	-2.8833	-2.7833	-2.4458	-3.1771	62.052	-102.356	-102.872	151.249	58.818	198.009	166.644	228.816	-24.454	225.594	31.647	-72.817	186.824	-18.708	207.044	-63.237	7.9697e-05	0.00035046	0.00010833	910.91	3.1132e-06	2.9752e-06	636.3	323.16	2.5597e-06	3.4371e-06	240.47	80.803	112.44	36.192	2.9067e-06	29.136	0.00025936	0.0003165	8.2301e-05	888.13	3.4667e-06	3.2241e-06	617.34	316.66	3.5276e-06	3.236e-06	234.79	79.768	110.59	35.698	3.4855e-06	28.543	-103.145	-26.354	0.509	-90.844	67.500	14.451	-91.627	-86.059	31.240	14.845	-88.165	-84.439	-81.920	-78.232	43.405	-80.647	-8191	255	
20172.020	1	1	0	0	0.23022	0.11821	0.01782	0.086767	0.15469	0.27981	0.35714	0.19861	0.21121	0.12209	0.20953	0.25083	0.048869	0.16751	0.18529	0.18026	-1.9979	-2.4167	-3.025	-2.4229	-2.8187	-2.7167	-2.3917	-3.0875	-2.3375	-2.5687	-2.9479	-2.3104	-2.7604	-2.7833	-2.2708	-3.0542	221.223	-12.703	-30.875	166.444	186.112	189.807	172.291	116.749	-86.084	143.780	-17.083	38.086	-35.223	203.662	59.987	102.646	7.3152e-05	0.00031816	0.0001041	915.14	1.4488e-06	3.9104e-06	634.27	323.64	2.0071e-06	2.0609e-06	240	79.686	112.08	36.076	2.2097e-06	28.614	0.00025481	0.00031154	7.9974e-05	888.55	3.2933e-06	3.211e-06	616.03	316.46	3.3411e-06	3.1445e-06	233.82	78.956	110.18	35.414	3.4248e-06	28.076	243.314	-20.329	-27.694	-90.663	82.571	73.571	-91.740	-85.911	59.593	70.869	-88.249	-84.355	-82.114	-78.054	69.310	-81.091	-8191	255	
20172.139	1	1	0	0	0.15127	0.14034	0.24602	0.24961	0.2552	0.16409	0.19306	0.25602	0.02045	0.17598	0.11792	0.39306	0.092465	0.077549	0.11671	0.030142	-1.9458	-2.2687	-3.0312	-2.5479	-2.6917	-2.925	-2.2396	-2.9958	-2.5	-2.3979	-2.9354	-2.4062	-2.6188	-2.9917	-2.1562	-2.9417	216.682	76.464	-67.493	191.754	-71.261	35.006	202.812	208.394	-32.123	-103.025	126.965	129.674	16.084	188.622	246.417	145.617	7.871e-05	0.00039618	8.8194e-05	913.21	1.5483e-06	2.8144e-06	631.61	322.05	1.1524e-06	2.6074e-06	238.98	79.63	111.5	36.033	2.2808e-06	28.473	0.00025568	0.00030876	7.9132e-05	889.04	3.4105e-06	3.1689e-06	615.51	315.23	3.249e-06	3.2026e-06	233.44	78.495	110.12	35.418	3.4653e-06	27.9	243.880	-4.776	16.990	-90.670	102.115	26.894	-91.526	-85.907	28.895	45.434	-88.001	-84.324	-82.142	-77.973	77.962	-80.211	-8191	255	
20172.234	1	1	0	0	0.1224	0.30669	0.091592	0.051935	0.042507	0.2645	0.33061	0.077645	0.15478	0.019852	0.31539	0.14492	0.2669	0.06799	0.021326	0.15091	-2.3354	-2.3563	-2.9562	-2.55	-2.5729	-2.8438	-2.2938	-3.0083	-2.6937	-2.425	-3.0167	-2.4625	-2.5667	-3.1188	-2.2104	-2.8604	-11.307	-7.645	-51.018	-39.875	99.394	-87.296	182.764	119.631	128.108	-26.804	208.435	204.210	221.957	85.267	155.474	-58.272	0.0001017	0.00041945	8.2602e-05	907.79	2.3826e-06	4.0833e-06	629.42	319.85	1.781e-06	3.959e-06	238.97	79.359	110.28	35.805	2.8312e-06	28.365	0.00024532	0.00031815	7.9171e-05	884.94	3.4811e-06	3.2914e-06	613.46	314.09	3.4975e-06	3.2109e-06	232.12	78.319	109.48	35.241	3.4485e-06	27.779	243.491	-43.112	-24.304	-90.546	32.577	27.994	-91.643	-85.702	45.647	51.553	-88.191	-84.264	-81.856	-78.174	50.837	-80.905	-8191	255	
20172.330	1	1	0	0	0.22933	0.2148	0.18534	0.12479	0.10725	0.17229	0.26982	0.30098	0.029722	0.10327	0.12717	0.085339	0.13674	0.11504	0.31622	0.056493	-2.4188	-2.1042	-2.9313	-2.6958	-2.4792	-2.9188	-2.4188	-2.9375	-2.875	-2.1896	-3.0938	-2.7104	-2.5479	-3.0958	-2.5917	-2.7062	146.129	149.836	40.661	184.799	157.701	102.839	90.168	-2.475	71.983	-0.638	149.325	-19.764	-83.766	192.007	147.750	154.398	9.5505e-05	0.00032789	0.00011151	910.97	3.0236e-06	1.7724e-06	629.01	320.98	2.1625e-06	4.6096e-06	237.71	78.468	111.36	35.414	2.5506e-06	27.683	0.00024673	0.00029625	8.4563e-05	885.07	3.3421e-06	3.0838e-06	611.99	313.85	3.4369e-06	3.3955e-06	231.69	77.603	109.53	34.913	3.3543e-06	27.135	252.845	-6.173	-6.525	-90.670	52.213	66.159	-91.570	-85.833	27.732	28.623	-87.899	-84.139	-82.244	-78.124	43.273	-80.670	-8191	255	
20172.428	1	1	0	0	0.16483	0.11776	0.23261	0.21889	0.16219	0.17807	0.2771	0.10587	0.19031	0.21039	0.048259	0.10334	0.2566	0.30114	0.059603	0.063324	-2.5917	-2.0854	-2.9229	-2.6458	-2.3854	-2.9375	-2.4583	-2.6667	-3.0354	-2.2771	-2.9417	-2.7146	-2.4167	-3.025	-2.4167	-2.5542	246.996	138.240	202.331	184.034	67.158	-2.948	197.138	147.275	-52.855	26.950	158.969	253.481	8.661	149.479	255.375	124.659	8.2374e-05	0.00040528	0.00010202	912.97	2.217e-06	2.6924e-06	623.25	317.86	1.1078e-06	2.1257e-06	233.96	76.577	108.87	35.055	2.1072e-06	26.686	0.0002585	0.00032159	7.8895e-05	886.91	3.5021e-06	3.1058e-06	608.83	311.51	3.5243e-06	3.4472e-06	229.09	75.603	107.53	34.548	3.4835e-06	26.271	252.883	-24.675	-0.182	-90.733	42.639	42.536	-91.621	-85.887	105.105	46.280	-87.864	-84.031	-82.245	-78.369	-6.275	-80.860	-8191	255	
20172.523	1	1	0	0	0.10768	0.27233	0.23298	0.014077	0.19466	0.047289	0.16187	0.26605	0.057327	0.12164	0.32698	0.15947	0.15328	0.22644	0.15561	0.062888	-2.5062	-2.3042	-2.8854	-2.8417	-2.3937	-3.0812	-2.3438	-2.7979	-2.7938	-2.2604	-2.9375	-2.8958	-2.3854	-3.0958	-2.5479	-2.4271	-29.677	135.779	-93.771	90.534	137.332	138.094	157.496	-95.265	195.935	128.837	-82.191	197.935	127.127	220.357	-76.416	-2.444	8.2922e-05	0.00037425	9.4285e-05	911.81	1.1395e-06	2.3262e-06	621.05	317.15	1.7569e-06	4.951e-06	233.77	75.847	108.88	35.106	1.9986e-06	26.589	0.00024789	0.00030961	8.1473e-05	886.1	3.4258e-06	3.0512e-06	605.1	310.59	3.4383e-06	3.3672e-06	227.6	74.807	107.07	34.481	3.3888e-06	26.033	255.931	-33.228	0.767	-90.626	62.040	42.356	-91.790	-86.064	0.538	49.902	-88.285	-83.892	-81.966	-78.089	54.240	-81.150	-8191	255	
20172.619	1	1	0	0	0.057793	0.22273	0.21536	0.21143	0.072132	0.046481	0.24732	0.24813	0.24197	0.13688	0.084941	0.10055	0.017479	0.031164	0.12887	0.16994	-2.5938	-2.3729	-2.7417	-2.7562	-2.2396	-2.9854	-2.6458	-2.4521	-2.7896	-2.5021	-2.6604	-2.8417	-2.2521	-3.175	-2.4854	-2.5458	155.290	158.784	-36.124	156.377	90.272	-24.605	-89.757	229.727	10.179	154.166	90.807	155.104	134.473	76.278	112.053	80.891	0.0001018	0.00028779	9.969e-05	903.84	2.3205e-06	2.9723e-06	616.97	314.55	1.4837e-06	2.933e-06	232.71	76.335	107.2	35.261	2.7055e-06	27.082	0.00025394	0.00029988	8.4799e-05	878.86	3.3779e-06	3.1957e-06	599.85	308.28	3.4839e-06	3.3484e-06	227.05	75.175	106.18	34.718	3.3908e-06	26.644	255.195	-22.322	-33.740	-90.514	98.631	11.275	-91.627	-85.941	33.215	33.215	-88.225	-83.969	-82.011	-78.075	50.556	-80.777	-8191	255	
20172.717	1	1	0	0	0.25707	0.16902	0.11767	0.034756	0.10029	0.16391	0.074374	0.20264	0.19687	0.29386	0.11882	0.055033	0.10992	0.18559	0.085057	0.16159	-2.65	-2.2521	-2.725	-2.8167	-2.275	-2.9354	-2.6354	-2.4083	-2.9917	-2.4521	-2.7646	-2.9688	-2.2792	-3.0646	-2.6833	-2.375	63.843	140.237	235.164	-86.452	-87.426	-89.995	241.634	182.339	133.374	84.376	37.394	124.029	146.073	186.448	8.298	182.047	9.5526e-05	0.00034027	0.00011696	901.79	1.6987e-06	3.8243e-06	620.34	313.4	2.7573e-06	3.6226e-06	235.42	77.038	108.24	36.203	1.9878e-06	28.254	0.00024591	0.00030451	8.4681e-05	877.77	3.33e-06	3.0633e-06	606.38	307.76	3.3054e-06	3.1665e-06	229.72	76.222	106.56	35.586	3.2577e-06	27.784	252.432	-8.732	-22.555	-90.392	21.650	38.413	-91.860	-85.760	16.168	28.887	-88.106	-84.156	-82.098	-78.171	34.445	-80.916	-8191	255	
20172.812	1	1	0	0	0.30977	0.1209	0.064841	0.1246	0.058262	0.091407	0.12277	0.12205	0.12897	0.15204	0.30363	0.20944	0.12012	0.11119	0.2288	0.18667	-2.6625	-2.6542	-2.3563	-3.0333	-2.3354	-2.8833	-2.7875	-2.2771	-2.9271	-2.4833	-2.5958	-3.0833	-2.3708	-2.7979	-2.6792	-2.4396	243.421	108.880	38.116	58.139	222.848	62.815	232.367	-45.246	134.270	91.093	227.232	53.650	-68.879	142.173	240.260	2.226	8.3627e-05	0.00055041	8.6617e-05	910.27	2.2296e-06	4.2174e-06	631.02	314.81	1.9601e-06	1.6456e-06	236.47	78.186	107.93	36.107	1.8444e-06	28.139	0.00025386	0.00029479	8.0197e-05	888.97	3.2467e-06	3.0196e-06	615.68	308.81	3.1771e-06	2.8769e-06	230.97	76.601	106.36	35.605	2.9812e-06	27.638	254.507	-1.874	-33.238	-90.439	81.920	46.062	-91.833	-85.806	55.870	64.622	-88.139	-84.249	-82.155	-79.099	25.140	-81.998	-8191	255	
20172.932	1	1	0	0	0.20758	0.09249	0.14596	0.33629	0.22017	0.17751	0.066736	0.12801	0.038304	0.21448	0.18497	0.11276	0.033628	0.25167	0.32487	0.20984	-2.45	-2.4708	-2.4417	-3.0083	-2.2271	-2.5708	-3.0125	-2.2104	-2.9	-2.4771	-2.3625	-2.9479	-2.1312	-2.6375	-2.8312	-2.2812	-50.244	173.181	87.478	107.768	-24.016	166.996	144.441	243.114	86.527	-92.684	219.558	74.032	-82.827	-90.922	214.390	251.821	9.8004e-05	0.00031931	8.8777e-05	911.98	2.368e-06	4.6796e-06	630.74	313.62	1.5072e-06	2.7665e-06	237.1	76.862	107.84	36.482	2.5691e-06	28.616	0.00023292	0.00029172	7.6844e-05	888.71	2.9528e-06	2.9576e-06	614.69	308.07	2.9751e-06	2.8727e-06	230.41	76.296	106.4	35.921	3.1449e-06	28.031	254.281	-6.613	-28.698	-91.353	53.442	42.700	-92.400	-86.658	65.735	46.512	-88.971	-84.814	-82.534	-79.074	80.634	-81.405	-8191	255	
20173.027	1	1	0	0	0.12589	0.11526	0.11154	0.26386	0.10079	0.14423	0.13491	0.22989	0.10487	0.049177	0.17716	0.14422	0.19702	0.29212	0.24871	0.050714	-2.3208	-2.6896	-2.4208	-3.3333	-2.3083	-2.6792	-3.0333	-2.2792	-2.8812	-2.6875	-2.3083	-2.875	-2.4083	-2.7083	-3.0146	-2.3833	-28.874	6.909	157.302	-81.106	82.503	92.377	227.447	-18.241	-18.255	152.840	185.731	142.355	-30.961	203.461	-41.809	215.743	9.7559e-05	0.00038527	8.8654e-05	915.63	2.7865e-06	3.2227e-06	632.23	314.24	1.5947e-06	2.9725e-06	237.23	78.036	108.4	36.499	1.6958e-06	29.059	0.00023761	0.00026803	7.7764e-05	889.66	2.9756e-06	2.8283e-06	616.19	308.48	2.9963e-06	2.7608e-06	231.67	76.916	106.38	35.994	2.8126e-06	28.404	-102.935	-8.385	-17.830	-90.564	61.244	52.494	-91.831	-85.709	31.511	35.174	-88.240	-83.889	-82.156	-78.185	50.417	-80.765	-8191	255	
20173.102	1	1	0	0	0.25399	0.11389	0.2556	0.1635	0.36075	0.10116	0.25483	0.2634	0.16849	0.18606	0.01596	0.17598	0.04987	0.18383	0.46003	0.19857	-2.2646	-2.7729	-2.2458	-3.1208	-2.5083	-2.4729	-3.2208	-2.3187	-2.6604	-2.65	-2.0687	-3.0125	-2.6562	-2.575	-2.8958	-2.4354	94.928	228.740	189.735	231.165	82.849	-36.221	-52.536	47.728	91.519	136.728	160.453	169.457	-36.205	213.085	-20.673	106.110	9.8208e-05	0.00031883	0.00011394	914.26	2.2508e-06	3.1082e-06	637.57	316.14	9.7936e-07	3.5094e-06	239.62	78.137	107.57	36.509	2.0516e-06	28.98	0.00023536	0.00025817	7.7949e-05	888.72	2.97e-06	2.7473e-06	621.01	308.59	2.9559e-06	2.8293e-06	233.53	77.185	106.04	35.96	2.75e-06	28.42	249.441	-12.177	-3.661	-90.649	45.058	42.578	-91.513	-85.890	20.007	35.157	-88.031	-84.031	-82.118	-78.192	56.485	-81.021	-8191	255	
20173.221	1	1	0	0	0.090595	0.10164	0.11884	0.079459	0.19248	0.16283	0.1804	0.43958	0.25124	0.17506	0.17771	0.31914	0.1013	0.1912	0.20207	0.18238	-2.5479	-2.9104	-2.1208	-3.2	-2.65	-2.4479	-3.2521	-2.5104	-2.7458	-2.9062	-2.45	-2.7583	-2.7542	-2.5833	-2.9792	-2.5083	-101.385	7.418	22.896	191.195	105.701	46.572	176.353	127.729	67.653	-65.933	-18.106	183.717	185.874	77.986	3.470	167.298	8.5124e-05	0.0004107	8.5731e-05	916.2	2.3565e-06	4.0336e-06	638.02	315.84	1.498e-06	3.2047e-06	239.63	77.91	108.08	36.405	2.9049e-06	28.647	0.00023764	0.00025491	7.4293e-05	890.79	2.8691e-06	2.9634e-06	621.97	308.94	3.0489e-06	2.8042e-06	233.33	77.222	106.31	35.83	2.889e-06	28.054	250.337	-20.451	0.954	-90.525	65.013	45.820	-91.452	-85.726	50.515	56.762	-88.387	-84.039	-81.660	-78.117	65.822	-80.800	-8191	255	
20173.316	1	1	0	0	0.23386	0.22467	0.25898	0.089628	0.054541	0.20958	0.11381	0.24814	0.2609	0.16646	0.22327	0.18428	0.14338	0.22547	0.064487	0.15394	-2.1	-2.9729	-2.3167	-2.8917	-2.8458	-2.3937	-3.1521	-2.3792	-2.7646	-2.9875	-2.3729	-2.7833	-2.6583	-2.4208	-2.8937	-2.6646	11.031	188.759	39.117	81.253	73.238	-41.229	84.099	163.288	145.359	173.281	240.385	187.799	241.545	-59.665	60.999	-49.635	7.7742e-05	0.00038466	8.9775e-05	912.74	3.4489e-06	2.6292e-06	635.26	314.65	2.6192e-06	3.5074e-06	234.01	77.147	106.74	36.088	2.1031e-06	28.317	0.00023824	0.00025529	7.5016e-05	888.4	2.9324e-06	2.9019e-06	617.29	307.29	2.9864e-06	2.7707e-06	230.5	76.262	105.75	35.428	2.9704e-06	27.81	-101.551	-27.618	-34.748	-90.682	63.534	57.788	-91.487	-85.996	53.792	53.239	-90.559	-87.146	-85.214	-81.395	23.731	-83.716	-8191	255	
20173.412	1	1	0	0	0.048968	0.12123	0.028126	0.17389	0.33899	0.28023	0.028683	0.22	0.22933	0.31998	0.20317	0.25384	0.23669	0.11993	0.28017	0.19661	-2.1875	-2.8937	-2.1188	-2.6813	-2.4854	-2.2938	-2.9146	-2.5458	-2.3667	-3.0146	-2.4021	-2.6292	-2.7875	-2.3771	-2.9146	-2.4604	-79.627	87.606	18.396	-91.263	154.877	101.777	236.161	48.531	241.796	132.924	-66.504	-73.065	32.028	144.849	113.376	76.380	9.9106e-05	0.0003054	0.00010795	908.18	1.7159e-06	3.6642e-06	636.81	313.86	1.118e-06	2.9738e-06	237.09	77.756	107.14	35.781	3.6801e-06	28.149	0.00023184	0.00025392	7.8435e-05	885.6	2.9519e-06	3.0117e-06	620.02	307.67	3.1908e-06	2.8094e-06	231.79	76.696	106.2	35.439	2.9743e-06	27.689	244.243	-19.484	-13.613	-92.940	51.670	38.688	-94.119	-88.347	55.579	46.618	-90.579	-86.362	-84.117	-80.662	52.308	-82.429	-8191	255	
20173.531	1	1	0	0	0.037676	0.28887	0.20121	0.34637	0.12635	0.17695	0.10001	0.19443	0.039723	0.20993	0.1546	0.2501	0.1291	0.06064	0.18464	0.069532	-2.0021	-2.9375	-2.2542	-2.6396	-2.8833	-2.3	-2.9875	-2.8167	-2.2479	-2.9771	-2.6146	-2.4479	-2.8917	-2.3229	-2.9125	-2.7188	228.956	35.758	123.762	220.438	71.967	-20.692	222.726	167.655	101.123	110.409	143.916	-70.876	58.752	164.444	253.763	-88.222	0.00010283	0.0003918	0.00012395	912.95	1.9998e-06	3.9183e-06	637.13	315.7	1.0445e-06	3.6185e-06	237.2	77.255	107.75	35.771	3.2768e-06	27.667	0.0002371	0.00025208	7.7146e-05	887.26	2.937e-06	2.884e-06	618.96	309.09	3.258e-06	2.9046e-06	231.99	76.488	106.39	35.099	3.062e-06	27.231	252.113	-30.572	-22.178	-92.405	71.659	34.175	-93.534	-87.245	44.235	33.022	-89.735	-85.544	-83.559	-79.879	23.383	-81.769	-8191	255	
20173.629	1	1	0	0	0.05979	0.21372	0.25616	0.03987	0.054535	0.11322	0.058575	0.13009	0.26847	0.30161	0.30469	0.12571	0.21909	0.33683	0.23894	0.12591	-2.0583	-2.8875	-2.3021	-2.7479	-2.8417	-2.1729	-2.9125	-2.9708	-2.2458	-3.0687	-2.4521	-2.2667	-2.8604	-2.2229	-2.7083	-2.85	167.632	-45.853	-3.177	242.768	242.781	-3.807	-50.724	150.401	-85.383	229.216	190.976	55.923	-47.075	-37.116	175.670	-5.354	0.00010438	0.00030584	9.7738e-05	904.57	2.8215e-06	3.4544e-06	628.97	314.31	1.4057e-06	3.5072e-06	235.23	76.748	107.65	35.494	1.3003e-06	27.399	0.00024727	0.00025647	7.6594e-05	882.09	3.0068e-06	2.9602e-06	613.1	308.2	3.272e-06	2.8659e-06	229.96	75.97	106.22	34.861	3.1754e-06	26.925	-97.841	-32.860	-20.664	-92.199	37.617	54.263	-93.242	-87.192	-24.726	50.939	-89.590	-85.492	-83.570	-79.703	45.318	-82.264	-8191	255	
20173.699	1	1	0	0	0.32084	0.065668	0.2121	0.1367	0.20624	0.19367	0.35866	0.17079	0.24882	0.32069	0.24503	0.20637	0.10783	0.21838	0.085265	0.13284	-1.8188	-2.85	-2.4417	-2.3396	-2.9458	-2.1562	-2.7896	-2.9021	-2.1542	-2.8333	-2.5396	-2.3458	-3	-2.3417	-2.6729	-2.8729	205.028	-11.059	-92.890	196.103	61.094	170.529	122.632	98.147	239.943	-49.477	142.895	-16.348	99.040	131.516	252.194	152.519	9.6772e-05	0.00026264	8.7635e-05	903.26	1.6274e-06	3.3522e-06	624.23	313.68	1.7781e-06	2.8733e-06	234.24	76.117	106.95	35.209	2.5616e-06	27.391	0.00024	0.00027285	7.4609e-05	879	3.1016e-06	2.9639e-06	609.46	307.15	3.1865e-06	2.8946e-06	228.75	75.362	105.75	34.752	3.2188e-06	26.782	249.147	-11.332	2.942	-92.016	95.347	63.023	-93.325	-87.019	46.704	45.044	-89.447	-85.506	-82.914	-79.549	33.006	-82.243	-8191	255	
20173.820	1	1	0	0	0.10734	0.11008	0.069005	0.17017	0.10177	0.37907	0.22044	0.18768	0.36062	0.2101	0.14838	0.17584	0.2014	0.13486	0.20369	0.15684	-1.6688	-2.7979	-2.5417	-2.5479	-2.9354	-2.2583	-2.475	-3.0167	-2.2271	-2.7729	-2.7438	-2.3542	-2.9646	-2.5042	-2.6396	-3.0458	189.631	36.696	-49.430	82.910	220.670	-17.890	-98.974	168.843	-45.969	-35.566	220.748	208.641	198.587	209.619	210.583	188.063	9.6367e-05	0.00031551	9.2805e-05	902.12	3.0915e-06	3.9484e-06	624.07	313.39	2.0106e-06	4.4539e-06	235.94	76.717	107.37	35.319	2.6775e-06	27.441	0.00024228	0.00026261	7.8238e-05	878.36	3.0789e-06	3.0496e-06	609.9	307.16	3.1621e-06	2.8821e-06	229.09	75.393	105.84	34.81	3.2696e-06	26.942	248.011	-32.828	-3.094	-91.678	56.336	48.010	-92.862	-86.718	1.692	43.593	-88.150	-84.040	-81.956	-78.244	33.309	-80.426	-8191	255	
20173.914	1	1	0	0	0.15681	0.22985	0.1799	0.14917	0.13152	0.14174	0.16175	0.16911	0.17706	0.16359	0.13016	0.19084	0.25198	0.11834	0.12594	0.2041	-1.9292	-2.7333	-2.6688	-2.3396	-2.8604	-2.3771	-2.4083	-3.1	-2.4021	-2.7917	-2.9604	-2.1875	-2.7271	-2.6437	-2.4771	-2.8937	246.161	122.189	132.306	180.443	131.383	126.423	145.100	-75.118	133.660	117.339	255.434	100.466	-102.455	-21.074	-58.755	47.199	8.1189e-05	0.00022485	0.00014036	908.66	1.5212e-06	4.9285e-06	630.66	315.86	2.1491e-06	3.351e-06	235.1	76.755	107.44	35.452	2.007e-06	27.663	0.00024212	0.00027568	7.6923e-05	885.24	2.8798e-06	2.9423e-06	614.44	308.76	3.1889e-06	3.0191e-06	229.87	75.775	106.27	34.957	3.0758e-06	26.943	244.068	-13.292	-15.857	-90.668	74.314	41.446	-91.819	-85.866	31.832	40.733	-87.850	-84.482	-81.644	-78.639	54.967	-80.814	-8191	255	
20174.012	1	1	0	0	0.073112	0.15266	0.32047	0.053849	0.22356	0.079947	0.11273	0.15445	0.18058	0.12641	0.14808	0.17161	0.055028	0.12847	0.27029	0.15476	-1.8625	-2.6104	-2.8417	-2.3333	-2.9604	-2.5667	-2.4729	-3.0604	-2.3604	-2.5938	-2.8438	-2.2375	-3.0667	-2.7313	-2.4188	-3.1	215.002	31.940	210.915	152.321	5.677	66.815	-89.946	173.776	84.921	27.455	255.779	80.002	-92.496	155.791	4.332	166.544	7.7642e-05	0.00048695	9.5355e-05	913.37	2.2579e-06	3.478e-06	637.1	317.3	1.7752e-06	3.5482e-06	237.85	76.853	108.13	35.805	3.8533e-06	27.423	0.00024827	0.00028238	7.8737e-05	889.22	3.0403e-06	2.9728e-06	618.68	310.94	3.2298e-06	3.0154e-06	231.63	76.136	106.74	35.095	3.2326e-06	26.98	246.839	-30.667	0.798	-90.745	72.570	46.556	-91.942	-85.694	48.528	42.562	-88.646	-84.161	-81.822	-78.443	30.288	-80.634	-8191	255	
20174.107	1	1	0	0	0.1453	0.16449	0.12298	0.17485	0.217	0.11008	0.1213	0.039966	0.29844	0.088019	0.079621	0.044297	0.13731	0.1814	0.0548	0.10853	-2.1292	-2.5125	-3.0042	-2.3104	-2.8354	-2.7812	-2.4188	-3.1708	-2.2313	-2.5729	-3.1312	-2.1792	-2.7979	-2.6354	-2.2854	-3.0062	241.767	-31.607	-49.520	207.932	171.535	79.765	-101.803	185.418	205.998	255.650	140.443	56.637	189.694	-101.778	188.969	-80.630	9.7798e-05	0.00044243	8.8695e-05	911.59	8.2744e-07	2.5891e-06	633.05	316.39	2.7692e-06	3.891e-06	236.54	77.362	107.81	35.72	2.5446e-06	27.52	0.00022452	0.00027544	7.3202e-05	888.17	3.2151e-06	3.0301e-06	615.3	309.85	3.366e-06	3.1602e-06	230.94	76.03	106.28	35.101	3.1715e-06	26.983	251.823	-31.672	-12.573	-90.820	76.549	37.510	-91.836	-85.906	35.435	54.927	-88.240	-84.251	-82.030	-78.182	49.639	-80.516	-8191	255	
20174.229	1	1	0	0	0.26693	0.2245	0.17983	0.19837	0.16033	0.15521	0.35152	0.21713	0.10933	0.039217	0.07432	0.1209	0.14969	0.16547	0.2525	0.14759	-2.0646	-2.425	-2.9417	-2.4104	-2.7854	-2.8333	-2.1917	-3.0458	-2.4958	-2.5208	-2.9521	-2.3125	-2.5292	-2.6771	-2.2438	-3.0062	206.616	48.248	-1.986	-96.726	194.100	100.554	192.510	-92.210	-47.075	30.360	108.677	110.251	233.480	-71.840	122.123	-78.742	9.4802e-05	0.00026951	0.00010192	914.15	2.3436e-06	3.1646e-06	629.42	315.93	1.1984e-06	2.6886e-06	236.04	76.144	107.43	35.527	3.0805e-06	27.013	0.0002355	0.0002888	7.783e-05	888.27	3.1272e-06	2.9991e-06	614.06	309.54	3.1062e-06	3.0818e-06	229.79	75.356	106.01	34.904	3.238e-06	26.631	251.319	-47.284	-14.472	-90.703	65.682	55.717	-91.935	-85.821	30.644	39.120	-88.070	-84.379	-82.193	-78.308	33.174	-80.866	-8191	255	
20174.324	1	1	0	0	0.14674	0.035338	0.024812	0.069592	0.11435	0.09346	0.10839	0.25864	0.18059	0.13882	0.071625	0.082571	0.22616	0.24319	0.20442	0.14073	-2.2021	-2.1833	-2.8917	-2.4583	-2.6729	-2.8896	-2.4708	-2.8979	-2.6646	-2.4479	-3.0604	-2.5187	-2.625	-3.05	-2.2146	-2.9813	63.535	85.931	245.569	-61.783	-4.083	44.759	183.448	-8.354	198.832	-84.987	136.735	225.419	-66.428	138.471	-45.163	180.805	9.514e-05	0.00032637	0.00010976	906.51	2.6859e-06	2.7574e-06	629.24	316.9	5.6118e-07	4.7908e-06	235.83	76.661	107.32	35.364	2.6483e-06	27.392	0.00023981	0.0002845	7.5832e-05	885.13	3.1607e-06	3.0023e-06	613.16	309.46	3.0287e-06	3.1383e-06	230.02	75.534	106.04	34.872	2.9886e-06	26.838	-103.032	-13.978	3.512	-90.548	47.053	43.010	-91.573	-85.966	30.510	33.411	-88.713	-84.295	-82.130	-78.541	63.091	-80.875	-8191	255	
20174.396	1	1	0	0	0.12384	0.07742	0.089716	0.15811	0.065963	0.066082	0.10097	0.19925	0.080115	0.18788	0.13042	0.26459	0.37311	0.1725	0.13701	0.10252	-2.1813	-2.2146	-2.8979	-2.5833	-2.4479	-3.0521	-2.3917	-2.8958	-2.8063	-2.3292	-3.0917	-2.4437	-2.3937	-2.9583	-2.1292	-2.7	218.075	245.273	87.403	-61.491	201.404	205.293	-73.888	79.095	23.678	116.543	1.651	-61.601	-80.284	125.437	-60.556	-90.227	0.00011145	0.00025933	9.3783e-05	911.2	1.1912e-06	2.5276e-06	631.87	315.73	2.3925e-06	2.9944e-06	236.58	76.767	107.3	35.419	3.4486e-06	26.804	0.00024179	0.00028087	7.4924e-05	886.85	3.1635e-06	3.0049e-06	615.15	310.04	3.1349e-06	3.0807e-06	230.55	75.563	106.23	34.787	3.0892e-06	26.37	250.122	-3.384	-3.106	-90.842	44.333	46.509	-91.807	-85.974	27.969	30.724	-88.363	-84.434	-81.998	-78.468	35.191	-80.845	-8191	255	
20174.492	1	1	0	0	0.1312	0.34414	0.13935	0.091376	0.085061	0.10569	0.12492	0.055717	0.073356	0.26775	0.084742	0.12602	0.041248	0.099985	0.21018	0.18196	-2.3125	-2.35	-2.7917	-2.6146	-2.5042	-3.1042	-2.5292	-2.8521	-2.8917	-2.3458	-3.0292	-2.5396	-2.4729	-2.8187	-2.3458	-2.5187	119.004	144.129	150.008	-35.473	-74.931	-73.007	26.874	-39.211	-57.232	28.908	-13.539	4.238	-9.642	-51.686	230.295	243.631	0.00010189	0.0005042	0.00011088	910.89	1.8137e-06	4.3361e-06	631.5	317.54	2.0366e-06	4.2103e-06	235.57	76.172	107.51	35.152	2.4244e-06	26.563	0.00023818	0.00026921	7.4056e-05	885.92	3.1719e-06	2.9923e-06	612.91	309.99	3.0667e-06	3.0389e-06	229.02	75.009	106.24	34.567	3.2153e-06	26.057	-97.364	-32.340	-6.502	-90.619	11.245	60.949	-91.467	-85.807	44.164	22.603	-88.030	-84.444	-82.281	-78.209	34.212	-80.689	-8191	255	
20174.613	1	1	0	0	0.3389	0.25643	0.2403	0.15108	0.1975	0.38247	0.16383	0.11305	0.10852	0.13366	0.15988	0.10011	0.061457	0.17198	0.16625	0.14418	-2.3833	-2.1333	-2.8792	-2.6229	-2.4833	-2.9854	-2.5875	-2.6521	-2.9021	-2.2646	-2.9062	-2.6437	-2.4292	-2.9625	-2.5521	-2.5333	4.456	149.538	226.622	235.005	93.403	57.720	214.295	227.679	74.635	158.754	40.851	-92.947	250.458	227.741	50.815	-97.278	9.2588e-05	0.00028054	0.00013918	906.96	2.3516e-06	3.0808e-06	622.9	316.82	1.417e-06	2.4364e-06	232.81	75.271	106.8	34.649	3.8455e-06	26.11	0.00023059	0.00029927	7.7475e-05	881.53	3.1988e-06	2.9692e-06	605.6	309.24	3.179e-06	3.1105e-06	227.18	74.252	105.4	34.203	3.1453e-06	25.665	-101.129	-14.666	-16.288	-90.633	24.100	27.212	-91.976	-85.931	17.556	36.843	-88.173	-84.127	-82.206	-78.395	47.596	-81.176	-8191	255	
20174.709	1	1	0	0	0.02396	0.14813	0.333	0.19567	0.079861	0.21254	0.16598	0.25694	0.25668	0.2128	0.078753	0.16677	0.085731	0.20278	0.31815	0.079251	-2.5875	-2.225	-2.8333	-2.8708	-2.3479	-2.9667	-2.5187	-2.7625	-3.0042	-2.3292	-2.6521	-2.6208	-2.425	-2.925	-2.4229	-2.4292	3.556	53.349	188.181	220.734	167.361	-33.289	223.311	119.244	224.613	174.377	59.241	-88.296	11.208	217.362	170.822	115.954	6.3527e-05	0.00027715	0.00010694	903.25	2.3603e-06	4.3975e-06	623	315.27	1.6129e-06	2.0609e-06	233.79	75.322	107.32	34.485	2.2271e-06	25.732	0.00022349	0.00028861	7.7094e-05	880.29	3.1681e-06	3.0054e-06	604.88	309.27	3.2504e-06	3.2303e-06	227.53	74.057	105.69	33.972	3.1212e-06	25.292	254.179	-39.767	-4.454	-90.433	83.896	62.566	-91.536	-85.865	92.814	32.655	-88.225	-84.089	-81.910	-78.230	23.045	-80.975	-8191	255	
20174.805	1	1	0	0	0.24568	0.17976	0.37322	0.12243	0.28761	0.23372	0.047726	0.1397	0.10043	0.18714	0.15096	0.1226	0.07541	0.1032	0.16096	0.16083	-2.45	-2.4188	-2.5354	-3.0687	-2.2542	-2.9521	-2.5625	-2.3542	-2.9583	-2.3958	-2.7875	-2.9562	-2.2354	-2.9875	-2.7083	-2.3625	-43.126	-44.320	-13.060	183.927	104.816	193.239	247.372	180.521	24.105	-48.315	-97.566	170.449	165.394	-80.172	110.647	188.467	8.5934e-05	0.00017557	0.00011047	902.96	1.7978e-06	2.3062e-06	625.63	316.81	2.0787e-06	3.6615e-06	232.18	74.975	107.19	34.359	3.6676e-06	25.11	0.00024987	0.00030206	7.9921e-05	879.91	3.1156e-06	3.1111e-06	605.24	310.46	3.1941e-06	3.1518e-06	226.95	73.796	105.69	33.747	3.1996e-06	24.79	249.192	-22.444	-17.775	-90.315	23.500	19.454	-92.152	-85.940	12.685	34.150	-88.275	-84.247	-82.123	-78.429	49.029	-80.807	-8191	255	
20174.900	1	1	0	0	0.14193	0.23486	0.079974	0.1214	0.11606	0.087668	0.30855	0.22094	0.20419	0.0080431	0.4475	0.18	0.12372	0.11727	0.12501	0.37417	-2.6333	-2.3937	-2.5187	-3.1417	-2.2729	-3.0583	-2.9313	-2.4417	-2.9875	-2.2208	-2.5729	-2.8917	-2.4333	-2.8667	-2.9	-2.225	124.435	159.986	62.656	236.298	-101.945	24.543	152.135	219.787	-60.862	-75.942	-20.825	184.882	226.650	216.507	154.478	209.914	7.8611e-05	0.00029902	0.00012854	907.57	2.2608e-06	4.1711e-06	616.18	317.92	1.6861e-06	3.5976e-06	230.59	73.693	106.45	34.01	2.3184e-06	24.972	0.00023582	0.00029502	8.3682e-05	881.23	3.4672e-06	3.3003e-06	600.63	311.09	3.2326e-06	3.1963e-06	225.36	72.859	105.07	33.492	3.6107e-06	24.382	-102.372	-11.936	-19.703	-90.529	33.399	60.350	-91.614	-86.002	18.631	44.728	-88.546	-84.523	-82.228	-78.396	56.838	-80.766	-8191	255	
20174.996	1	1	0	0	0.051727	0.20366	0.17787	0.34861	0.3427	0.031238	0.3369	0.20375	0.11276	0.1459	0.2354	0.20179	0.13679	0.038242	0.045343	0.39589	-2.6375	-2.4188	-2.4292	-3.0062	-2.3021	-2.6729	-2.9667	-2.5938	-3.1937	-2.5812	-2.4208	-3.05	-2.3458	-2.6708	-2.8792	-2.3125	-100.742	-9.022	-82.919	-91.353	-40.793	121.851	193.711	8.629	190.524	123.751	74.974	100.522	253.789	182.699	-75.832	-56.630	8.1676e-05	0.00023877	0.00010091	896.21	1.2054e-06	2.3494e-06	599.83	319.98	8.0382e-07	2.7159e-06	228.94	72.258	105.19	33.759	2.6671e-06	24.127	0.00024616	0.00032825	9.19e-05	872.79	3.4798e-06	3.4144e-06	585.76	313.04	3.6779e-06	3.6234e-06	223.37	71.283	103.64	33.287	3.6437e-06	23.654	253.493	-5.895	-11.888	-90.726	48.798	73.068	-91.367	-86.022	-38.279	48.215	-88.467	-84.138	-82.329	-78.477	85.903	-80.623	-8191	255	
20175.094	1	1	0	0	0.035901	0.23624	0.03972	0.20041	0.1941	0.12722	0.24392	0.1877	0.085741	0.12102	0.27018	0.21923	0.075173	0.17223	0.22189	0.16309	-2.6167	-2.5958	-2.3146	-3.1729	-2.2229	-2.6521	-2.9417	-2.2625	-2.9958	-2.6437	-2.3688	-2.9792	-2.3292	-2.4521	-2.9729	-2.375	131.535	67.857	210.832	-50.806	167.167	8.482	174.489	54.745	-45.348	107.266	-49.098	5.987	212.918	-63.571	-24.025	164.139	8.2657e-05	0.00037606	6.3998e-05	893.39	9.0653e-07	3.9437e-06	591.55	317.69	2.1737e-06	4.9621e-06	226.61	70.955	103.75	33.692	1.6603e-06	23.704	0.00027189	0.00033896	9.4582e-05	869.64	3.8355e-06	3.753e-06	576.56	311.88	3.8198e-06	3.7478e-06	221.29	69.924	101.75	33.118	3.9966e-06	23.279	248.411	-14.415	-16.543	-90.445	80.978	40.664	-91.192	-86.182	15.950	50.214	-88.652	-84.247	-82.104	-78.410	70.967	-80.914	-8191	255	
20175.213	1	1	0	0	0.34137	0.06347	0.18167	0.19921	0.028125	0.13996	0.13046	0.19541	0.083033	0.20826	0.30827	0.070082	0.23218	0.17321	0.24213	0.13349	-2.3875	-2.5292	-2.3021	-2.8771	-2.3688	-2.4833	-2.9896	-2.3083	-2.8042	-2.7396	-2.125	-2.9875	-2.4667	-2.4625	-2.9813	-2.4104	146.370	188.087	244.306	167.990	155.429	231.121	246.174	147.765	108.952	17.756	-82.290	-81.703	202.659	9.678	154.424	-81.370	7.4496e-05	0.0003065	6.9284e-05	895.17	3.6287e-06	1.3362e-06	591.02	319.62	3.4335e-06	3.1459e-06	226.42	70.014	102.47	33.285	2.4587e-06	23.709	0.00028049	0.00037421	0.00010003	871.02	4.2457e-06	4.3885e-06	575.7	311.29	4.2351e-06	4.1937e-06	220.95	69.216	100.69	32.883	4.215e-06	23.134	-103.130	-4.832	-24.478	-90.636	76.502	91.012	-91.609	-85.858	69.843	63.067	-88.497	-84.886	-82.110	-78.632	63.277	-80.945	-8191	255	
20175.309	1	1	0	0	0.041446	0.29339	0.24633	0.076779	0.061974	0.3849	0.061142	0.32951	0.036881	0.17756	0.10791	0.05647	0.15974	0.22507	0.090249	0.28084	-2.5229	-2.8958	-2.1521	-3.0062	-2.6021	-2.5771	-2.9479	-2.3625	-2.8375	-2.8042	-2.475	-2.9917	-2.675	-2.4062	-2.9896	-2.3812	90.916	253.332	14.921	-85.614	97.116	-50.816	141.670	-70.920	65.531	208.129	-99.849	236.884	22.333	28.374	249.365	-89.129	7.6878e-05	0.00029234	9.6571e-05	892.88	2.7629e-06	3.3897e-06	586.61	315.43	1.5864e-06	3.0141e-06	222.2	68.9	101.36	32.649	1.4557e-06	22.859	0.0002931	0.00039535	0.00010843	870.91	4.3457e-06	4.2971e-06	573.66	309	4.2788e-06	4.1687e-06	217.96	67.971	99.407	32.345	4.2909e-06	22.519	-95.078	-18.107	6.007	-90.702	70.659	55.216	-91.599	-85.973	16.719	55.489	-88.498	-84.285	-82.266	-79.082	26.664	-81.250	-8191	255	
20175.404	1	1	0	0	0.22234	0.041842	0.23405	0.21464	0.14634	0.26135	0.21936	0.24557	0.30635	0.10988	0.12571	0.039878	0.080795	0.092457	0.24866	0.087889	-2.3229	-2.9896	-2.3458	-3.1271	-2.7125	-2.275	-3.0875	-2.4417	-2.7146	-3.0354	-2.425	-2.8125	-2.7354	-2.4938	-2.8771	-2.4604	-46.835	192.631	21.325	162.492	223.082	-87.580	201.638	195.274	33.694	-87.283	201.446	89.795	152.346	225.927	93.994	-66.235	6.2477e-05	0.00038429	2.3451e-05	890.05	2.9583e-06	4.2494e-06	582.3	311.4	1.4476e-06	1.7999e-06	217.86	67.001	100.15	32.506	3.7249e-06	22.779	0.00028914	0.000387	0.00010765	866.81	4.1625e-06	4.2739e-06	567.02	305.98	4.3417e-06	4.1707e-06	213.65	66.265	98.491	31.846	4.1366e-06	22.352	-100.133	10.920	-8.463	-90.832	8.784	64.378	-91.838	-86.046	83.775	-14.254	-88.450	-84.893	-82.118	-79.084	63.937	-81.633	-8191	255	
20175.502	1	1	0	0	0.14348	0.14598	0.18069	0.25031	0.098577	0.20703	0.096042	0.15352	0.13296	0.025452	0.13694	0.36351	0.042462	0.15328	0.056021	0.20423	-2.1396	-2.9417	-2.1354	-2.9646	-2.6542	-2.2875	-3.2354	-2.5396	-2.5625	-3.1979	-2.1354	-2.6771	-2.8229	-2.375	-2.9979	-2.4417	-85.585	-1.582	-77.031	242.005	-28.733	-70.904	186.636	168.821	-25.736	-68.551	181.151	71.549	181.928	-30.867	203.033	145.913	8.8928e-05	0.00034776	8.0077e-05	886.55	1.6392e-06	2.9528e-06	580.43	310.29	1.9964e-06	3.8096e-06	216.72	66.054	99.541	32.135	1.1027e-06	22.639	0.00028689	0.00037751	0.00010617	862.73	4.1774e-06	4.2871e-06	563.93	304.13	4.4047e-06	4.0861e-06	212.67	65.213	98.017	31.724	4.1139e-06	22.198	250.104	-5.872	-17.377	-90.834	72.820	33.166	-91.714	-86.248	30.490	46.956	-88.793	-85.126	-82.581	-79.303	43.552	-81.711	-8191	255	
20175.621	1	1	0	0	0.2148	0.189	0.072667	0.21638	0.10978	0.16052	0.13219	0.22874	0.28998	0.29464	0.032905	0.06797	0.17862	0.12007	0.19335	0.30856	-1.95	-3.0312	-2.3146	-2.8583	-2.7479	-2.2938	-3.1292	-2.7583	-2.1667	-3.2125	-2.325	-2.5625	-2.8354	-2.2208	-2.8479	-2.7729	218.138	64.155	192.306	145.816	181.667	74.770	191.911	231.043	148.806	160.745	197.100	38.299	104.824	180.902	170.731	192.696	8.5536e-05	0.00011121	0.00010226	877.22	1.4854e-06	1.2137e-06	575.34	310.59	2.1123e-06	3.8925e-06	216.48	65.012	98.388	32.213	2.8409e-06	22.541	0.00029879	0.00038317	0.00010844	855.7	4.2048e-06	4.3092e-06	562.19	303.83	4.2595e-06	4.1352e-06	210.73	64.345	96.987	31.584	4.2214e-06	22.04	255.510	-31.989	-17.223	-90.984	61.906	76.016	-91.818	-86.337	6.881	61.983	-88.499	-84.674	-82.248	-79.592	65.933	-81.728	-8191	255	
20175.693	1	1	0	0	0.098742	0.1934	0.12857	0.47896	0.11905	0.28246	0.21146	0.10257	0.16202	0.10791	0.12087	0.23127	0.12895	0.060911	0.11862	0.046029	-1.8646	-2.9104	-2.2062	-2.5917	-2.8937	-2.0542	-2.925	-2.7542	-2.2708	-3.0229	-2.4458	-2.5375	-3.0563	-2.3438	-2.8417	-2.6688	120.445	99.445	61.978	-87.479	40.138	-53.825	-62.770	231.050	180.841	250.722	-25.322	233.835	-84.824	154.672	168.864	-101.341	7.5744e-05	0.00040732	7.171e-05	872.58	8.8036e-07	4.6424e-06	576.71	307.25	6.4756e-07	2.8915e-06	212.58	64.218	97.728	31.795	2.0781e-06	22.15	0.0003062	0.00037727	0.00011012	850.41	3.9579e-06	4.2792e-06	561.17	301	4.0993e-06	4.1368e-06	207.55	63.339	96.246	31.225	4.2091e-06	21.713	-100.536	-16.772	-27.415	-90.971	-1.661	35.690	-91.956	-86.195	19.639	31.248	-88.850	-85.052	-82.651	-79.310	33.701	-82.014	-8191	255	
20175.789	1	1	0	0	0.13709	0.19209	0.037872	0.11682	0.23516	0.086979	0.3167	0.26553	0.087639	0.21354	0.2161	0.1025	0.16987	0.10228	0.1348	0.1719	-1.7917	-2.9083	-2.2854	-2.6604	-2.9604	-2.175	-2.7313	-2.825	-2.1979	-2.9938	-2.6354	-2.2479	-3.0958	-2.3771	-2.6063	-2.9646	215.341	195.059	163.302	241.932	91.300	245.492	167.277	170.775	134.286	240.369	191.926	221.137	105.178	217.739	-19.838	115.605	6.2428e-05	0.00034745	7.4826e-05	861.77	2.2288e-06	3.147e-06	569.43	304.71	2.1438e-06	2.7493e-06	210.88	63.239	96.839	31.439	1.4151e-06	21.679	0.00028296	0.00037779	0.00010134	840.98	3.9607e-06	4.0516e-06	555.67	298.45	4.3262e-06	3.9804e-06	205.48	62.377	95.249	30.948	4.113e-06	21.395	-103.995	-18.741	22.277	-91.156	48.597	48.815	-92.224	-86.270	-4.797	58.214	-89.022	-84.954	-82.832	-79.583	16.896	-82.119	-8191	255	
20175.887	1	1	0	0	0.082188	0.2202	0.10524	0.21956	0.083849	0.33839	0.21364	0.094635	0.10838	0.16502	0.45805	0.17608	0.18952	0.074272	0.067999	0.192	-1.7687	-2.7354	-2.6042	-2.3104	-3	-2.2542	-2.8354	-2.8812	-2.3208	-2.9229	-2.7542	-2.5354	-2.9417	-2.5104	-2.4729	-2.9208	32.581	65.082	-60.195	145.157	-48.418	135.051	199.652	237.541	55.090	60.732	187.545	251.699	-101.325	-82.547	159.475	133.995	7.0064e-05	0.00021954	5.6182e-05	857.23	1.5345e-06	2.7337e-06	564.63	300.69	2.7585e-06	3.6296e-06	208.31	62.048	95.225	31.294	1.8544e-06	21.68	0.00028144	0.0003492	0.00010544	833.71	3.9225e-06	4.1052e-06	548.39	295.21	4.0571e-06	3.9235e-06	203.46	61.48	94.1	30.836	4.072e-06	21.384	247.081	-36.887	23.641	-91.191	95.330	17.338	-92.183	-86.341	24.769	56.368	-88.680	-84.888	-82.528	-79.247	87.421	-82.086	-8191	255	
20176.004	1	1	0	0	0.20528	0.22163	0.033486	0.12779	0.1483	0.13762	0.27921	0.33679	0.20854	0.11486	0.091042	0.19209	0.25018	0.20054	0.13474	0.25268	-1.8	-2.6854	-2.8146	-2.3792	-2.9813	-2.4771	-2.5708	-3.0417	-2.0896	-2.6771	-2.725	-2.1833	-3.0521	-2.4062	-2.5729	-3.0167	217.359	26.616	193.600	231.093	-15.870	-95.441	-5.978	239.448	81.405	131.749	229.359	76.658	-0.285	136.819	19.103	59.977	6.4863e-05	0.00025218	0.00010766	853.58	1.8183e-06	4.643e-06	568.05	300.33	1.6602e-06	2.1872e-06	208.36	62.809	95.747	31.268	2.999e-06	22.13	0.00028138	0.00037605	0.00010498	831.95	3.7537e-06	3.9801e-06	551.33	295.43	4.1336e-06	3.9893e-06	203.81	62.061	94.413	30.846	4.1608e-06	21.564	229.497	-48.040	-10.819	-90.860	66.414	15.773	-92.447	-86.329	-13.446	54.085	-89.004	-85.217	-82.695	-79.390	70.898	-81.984	-8191	255	
20176.102	1	1	0	0	0.251	0.073746	0.19004	0.039995	0.10442	0.063392	0.15973	0.16969	0.35256	0.16549	0.10206	0.024807	0.10409	0.10038	0.13027	0.25619	-1.9229	-2.5938	-2.625	-2.3458	-2.8958	-2.4583	-2.5479	-2.975	-2.3521	-2.7104	-2.9688	-2.2792	-2.8792	-2.6667	-2.325	-2.9854	-19.865	-46.576	1.662	-41.712	151.694	72.079	-8.501	-12.121	51.407	0.122	-65.534	-78.325	7.865	-83.834	-52.802	55.665	6.5577e-05	0.00015473	7.5272e-05	855.98	1.6926e-06	5.3627e-06	568.3	300.69	2.2449e-06	3.3038e-06	207.95	62.405	95.38	31.438	2.0881e-06	21.942	0.00028353	0.00035901	0.00010417	833.04	3.8648e-06	4.1362e-06	551.55	294.93	4.0852e-06	4.0181e-06	203.6	61.859	94.455	30.803	4.2007e-06	21.489	241.896	-1.127	4.248	-91.050	69.701	59.671	-92.188	-86.382	24.530	36.525	-88.733	-85.511	-82.950	-79.307	26.782	-82.330	-8191	255	
20176.197	1	1	0	0	0.10907	0.32537	0.21006	0.19046	0.15547	0.19425	0.11359	0.10503	0.098705	0.11409	0.28601	0.16449	0.13612	0.16958	0.17092	0.23631	-1.8875	-2.5479	-2.7125	-2.3146	-2.8896	-2.675	-2.6125	-3.125	-2.3042	-2.6208	-2.9917	-2.225	-2.9021	-2.8271	-2.2833	-3.0604	55.212	-49.464	-15.641	212.623	153.582	19.900	6.646	79.869	107.716	181.643	216.474	-45.013	-61.721	48.936	92.318	112.215	6.4315e-05	0.00034699	0.00010006	853.58	2.0153e-06	3.4909e-06	563.33	301.67	2.5585e-06	3.7713e-06	209.68	62.039	95.476	31.145	3.5667e-06	21.808	0.00028274	0.00039587	0.0001006	829.86	4.0532e-06	4.2024e-06	547.63	294.41	4.2187e-06	4.2361e-06	203.36	61.472	94.056	30.648	4.1213e-06	21.317	-99.180	-32.111	-0.117	-91.128	43.536	33.549	-92.368	-86.596	4.796	34.376	-89.002	-85.167	-82.844	-79.529	55.412	-81.925	-8191	255	
20176.293	1	1	0	0	0.11157	0.26323	0.27904	0.18455	0.20055	0.11828	0.040655	0.18576	0.10721	0.084407	0.079437	0.20661	0.071565	0.034165	0.030524	0.021093	-1.9646	-2.4188	-2.9208	-2.3104	-2.7917	-2.6312	-2.3208	-3.175	-2.6146	-2.4437	-2.875	-2.3792	-2.6688	-2.7625	-2.1271	-2.9771	23.475	83.036	19.915	103.739	161.912	45.651	248.275	225.417	46.170	192.828	119.637	220.208	55.374	-8.711	154.185	240.046	9.5722e-05	0.00035383	3.2399e-05	849.29	2.5826e-06	2.0616e-06	558.39	299.94	2.1373e-06	2.2656e-06	207.61	62.612	95.349	31.383	2.7379e-06	21.759	0.00027911	0.00036482	0.00010385	827.53	4.1416e-06	4.102e-06	545.86	293.37	4.0632e-06	4.1828e-06	202.72	61.702	93.935	30.835	4.1529e-06	21.462	254.712	-15.529	25.560	-91.139	37.921	33.086	-92.444	-86.576	2.390	69.357	-88.602	-84.821	-82.408	-79.614	39.490	-82.001	-8191	255	
20176.389	1	1	0	0	0.11771	0.086463	0.18245	0.046013	0.099653	0.12647	0.16272	0.10334	0.14279	0.069428	0.1558	0.083872	0.10493	0.23421	0.068796	0.072919	-2.1958	-2.2646	-2.7479	-2.4	-2.6979	-2.8083	-2.2188	-2.8792	-2.4542	-2.4854	-3.0375	-2.4521	-2.7333	-2.9917	-2.3979	-2.7979	49.994	-48.033	218.822	167.445	174.257	77.994	-58.095	250.719	230.787	-44.434	-21.129	-56.432	189.044	90.077	143.999	-82.186	6.4876e-05	0.00036672	9.9805e-05	854.4	1.4097e-06	5.2508e-06	565.86	302.55	1.2933e-06	3.1173e-06	209.48	62.986	95.821	31.547	3.6449e-06	22.147	0.00027404	0.00038346	0.00010263	831.52	4.0406e-06	4.0836e-06	550.77	295.78	4.2567e-06	4.2842e-06	204.87	62.445	94.851	30.996	4.3604e-06	21.769	-101.443	10.952	2.172	-90.884	69.534	29.246	-92.334	-86.472	42.690	21.562	-89.195	-85.200	-83.024	-79.447	68.340	-81.904	-8191	255	
20176.484	1	1	0	0	0.027081	0.38639	0.19712	0.25668	0.18555	0.18439	0.18398	0.17461	0.2701	0.26945	0.10409	0.15813	0.15761	0.12935	0.2155	0.30971	-2.4062	-2.4313	-3.0708	-2.3375	-2.5938	-3.0208	-2.3917	-2.8167	-2.7167	-2.3958	-2.9208	-2.3125	-2.5125	-2.8375	-2.2208	-2.8187	-73.996	164.104	87.534	170.675	-39.127	-68.993	42.077	51.595	102.729	132.325	-86.187	250.350	-84.531	129.603	146.031	107.829	8.123e-05	0.00028815	0.00010077	857.05	7.0613e-07	3.3182e-06	569.18	303.02	1.7937e-06	3.2223e-06	210.47	63.593	96.051	31.62	2.0565e-06	22.321	0.00028152	0.00039162	0.00010717	834.59	4.0932e-06	4.1173e-06	554.46	296.04	4.3248e-06	4.3239e-06	206.32	62.796	94.924	31.088	4.322e-06	21.884	-103.440	-18.090	-48.522	-90.881	108.104	39.449	-92.283	-86.246	17.722	69.245	-89.178	-84.984	-82.533	-79.208	36.458	-81.945	-8191	255	
20176.580	1	1	0	0	0.070255	0.25316	0.25406	0.156	0.19777	0.080926	0.19511	0.10922	0.13214	0.053512	0.25347	0.038977	0.047981	0.24372	0.10574	0.34295	-2.2687	-2.0833	-3.0292	-2.8146	-2.4458	-2.9313	-2.0979	-2.8479	-2.8688	-2.2687	-2.9792	-2.5708	-2.5375	-3.1146	-2.4167	-2.9375	178.068	-83.172	169.526	210.185	-57.492	164.200	11.207	-50.571	225.958	149.430	245.028	-59.573	-39.167	-88.360	-13.274	159.680	6.0395e-05	0.00037034	5.2372e-05	862.96	2.1742e-06	4.1069e-06	568.94	304.24	1.4136e-06	2.4583e-06	212.49	63.733	96.814	31.769	2.7275e-06	22.292	0.00027683	0.00040228	0.00010388	835.95	4.0574e-06	4.1388e-06	555.6	297.73	4.1477e-06	4.2607e-06	207.43	63.177	95.372	31.143	4.246e-06	21.894	254.783	-34.777	-8.514	-90.839	66.240	46.182	-91.953	-86.402	-2.443	46.496	-88.437	-84.731	-82.298	-79.563	23.584	-81.697	-8191	255	
20176.701	1	1	0	0	0.22536	0.12286	0.3448	0.19281	0.16962	0.14329	0.34949	0.14702	0.10717	0.13181	0.050991	0.1892	0.14595	0.15482	0.16622	0.26463	-2.2208	-2.1479	-2.7438	-2.6458	-2.2896	-2.9125	-2.4813	-2.6125	-2.8104	-2.4708	-3.0625	-2.6167	-2.4521	-2.9042	-2.2687	-2.5375	210.551	32.390	236.049	225.969	37.164	15.614	189.705	240.052	236.303	30.408	-102.037	134.169	-16.398	218.787	230.629	18.561	8.2178e-05	0.00020735	0.00010396	856.95	2.697e-06	4.0156e-06	573.76	302.51	1.9717e-06	2.7879e-06	212.34	63.447	96.902	31.522	2.1714e-06	22.324	0.0002877	0.00040252	0.00010927	836.3	4.2155e-06	4.071e-06	555.41	296.83	4.4503e-06	4.2925e-06	206.64	62.958	95.385	31.033	4.2855e-06	21.877	-85.360	18.269	-20.787	-90.743	36.275	31.049	-91.889	-86.316	-1.238	36.122	-88.749	-84.830	-82.315	-79.238	42.108	-81.969	-8191	255	
20176.799	1	1	0	0	0.18042	0.11299	0.14394	0.10575	0.07377	0.35542	0.065547	0.16842	0.10113	0.060189	0.016709	0.19876	0.20692	0.094359	0.10007	0.11521	-2.4667	-2.2313	-2.9062	-2.7229	-2.3208	-2.9458	-2.6542	-2.6937	-2.9646	-2.2917	-2.6	-2.7833	-2.3646	-3.0062	-2.5792	-2.3854	229.775	195.401	241.215	152.597	21.003	-76.993	188.064	253.388	107.221	187.334	16.341	-79.312	9.324	169.157	250.218	31.908	7.3046e-05	0.00027033	0.00010575	863.41	2.5666e-06	3.6027e-06	571.41	304.96	9.8574e-07	3.7907e-06	215.01	65.21	97.308	31.824	2.7496e-06	22.748	0.00027908	0.00039332	0.00010784	840.42	4.4053e-06	4.122e-06	558.32	299.06	4.1618e-06	4.3971e-06	209.16	63.886	95.933	31.277	4.3141e-06	22.221	-102.928	-29.250	-8.634	-90.752	80.227	61.619	-92.278	-86.256	87.645	26.819	-88.782	-84.823	-82.419	-78.990	59.000	-81.771	-8191	255	
20176.895	1	1	0	0	0.044068	0.1556	0.10577	0.14619	0.2405	0.21241	0.31774	0.14396	0.21015	0.23463	0.18203	0.095131	0.43277	0.27023	0.31305	0.16536	-2.5312	-2.2062	-2.85	-2.8208	-2.4875	-3.0708	-2.5563	-2.6437	-3.0062	-2.4688	-2.6813	-2.7208	-2.2792	-3.0021	-2.6271	-2.3896	-74.814	209.069	25.971	-73.580	235.542	238.032	98.430	223.937	123.691	88.699	39.441	-38.275	-99.893	237.564	-14.553	121.650	5.7768e-05	0.00040688	9.2014e-05	870.56	1.9469e-06	3.8829e-06	577.62	306.41	1.8803e-06	1.4549e-06	215.67	64.84	97.522	32.022	3.1478e-06	22.519	0.00029524	0.00038945	0.00010289	844.93	4.2657e-06	4.1083e-06	562.98	300.1	4.182e-06	4.2079e-06	209.5	64.019	96.369	31.427	4.2377e-06	22.174	-100.630	-28.187	-6.443	-90.755	68.802	49.633	-91.742	-86.241	47.365	67.935	-88.728	-84.837	-82.765	-79.302	37.177	-81.555	-8191	255	
20176.990	1	1	0	0	0.11479	0.19685	0.097913	0.19981	0.28237	0.16177	0.18807	0.17283	0.32038	0.275	0.077638	0.19997	0.11789	0.18415	0.0083584	0.20891	-2.5187	-2.1813	-2.5646	-3.0042	-2.2396	-2.9104	-2.7417	-2.4688	-2.8604	-2.4646	-2.4292	-2.7708	-2.1813	-2.9646	-2.625	-2.1479	208.958	132.589	208.630	230.593	137.353	178.963	24.625	173.845	115.985	131.605	-78.179	-31.445	-87.795	222.657	81.249	-100.963	7.0053e-05	0.00013261	4.4499e-05	871.77	2.2526e-06	2.3403e-06	575.42	306.87	2.0865e-06	3.2186e-06	213.78	64.298	97.245	31.679	1.3777e-06	22.442	0.00029559	0.00038855	0.00010678	846.03	4.3183e-06	4.3228e-06	560.79	299.62	4.1313e-06	4.3961e-06	208.56	63.631	96.023	31.308	4.2963e-06	22.072	249.481	25.316	-23.855	-90.902	20.960	61.596	-91.851	-86.653	24.457	54.003	-89.058	-84.901	-82.767	-79.549	61.899	-81.906	-8191	255	
20177.086	1	1	0	0	0.21161	0.20157	0.092248	0.087776	0.19143	0.1935	0.14826	0.083522	0.19787	0.14578	0.049284	0.10722	0.15008	0.1473	0.22197	0.27923	-2.4813	-2.4333	-2.6042	-3.1896	-2.3167	-2.8125	-2.9375	-2.5167	-3.0604	-2.4958	-2.45	-2.8875	-2.2146	-2.7021	-2.6771	-2.4021	174.673	-32.575	92.275	224.511	-11.380	208.834	80.035	202.896	132.116	111.511	26.537	231.404	-57.002	151.987	194.084	48.572	7.5344e-05	0.00031453	5.2283e-05	869.31	1.9415e-06	3.6018e-06	577.28	305.52	8.0626e-07	4.5829e-06	213.42	64.215	96.697	31.727	3.3557e-06	22.655	0.00028182	0.00038841	0.00011285	845.19	4.2025e-06	4.3533e-06	561.63	299.27	4.1181e-06	4.2978e-06	208.51	63.516	95.749	31.282	4.2968e-06	22.086	-86.633	-27.917	-48.138	-91.070	88.939	47.632	-91.941	-86.463	31.016	38.415	-88.633	-84.848	-82.954	-79.571	28.852	-82.210	-8191	255	
20177.182	1	1	0	0	0.083592	0.055196	0.16174	0.16823	0.35373	0.19333	0.13373	0.10137	0.17967	0.1658	0.21029	0.022892	0.062457	0.26897	0.20599	0.34411	-2.3792	-2.2896	-2.2792	-3.0521	-2.1979	-2.75	-2.825	-2.2687	-3.0604	-2.4167	-2.2313	-3.0417	-2.2833	-2.5354	-2.8604	-2.275	47.474	184.081	28.654	131.719	153.801	-81.490	-58.763	146.199	245.652	30.974	-32.114	-75.585	64.942	37.622	104.733	193.986	8.761e-05	0.00033628	6.4139e-05	865.87	1.5225e-06	2.7857e-06	574.64	307.03	2.6803e-06	3.8323e-06	214.58	64.816	97.6	31.81	2.1999e-06	22.538	0.00029012	0.00040483	0.00010843	843.97	4.0951e-06	4.3176e-06	562.13	299.92	4.3309e-06	4.2256e-06	209.72	63.835	96.168	31.379	4.2076e-06	22.187	-93.172	4.021	-29.830	-91.152	75.345	66.966	-92.470	-86.537	21.070	21.591	-89.001	-84.616	-83.275	-79.426	33.683	-82.142	-8191	255	
20177.303	1	1	0	0	0.11103	0.23229	0.091589	0.32996	0.14933	0.15336	0.12974	0.091808	0.031713	0.14283	0.089318	0.15003	0.17925	0.15521	0.1891	0.25282	-2.4104	-2.4646	-2.4667	-3.05	-2.3021	-2.4938	-2.9021	-2.4667	-2.9146	-2.7458	-2.1521	-3.1167	-2.4083	-2.4625	-2.8917	-2.3812	26.577	82.039	104.825	158.607	-102.491	73.614	201.080	119.223	19.818	-74.500	159.101	-69.711	101.457	-77.427	219.650	-91.124	7.1851e-05	0.00037237	7.2338e-05	872.46	8.7911e-07	4.0498e-06	581.36	306.35	7.0513e-07	2.3578e-06	214.21	65.083	97.998	31.912	1.6967e-06	22.518	0.00028453	0.00038563	0.00010867	846.8	4.2983e-06	4.4385e-06	564.58	300.17	4.2342e-06	4.2215e-06	209.05	64.158	96.281	31.4	4.2175e-06	22.106	-100.087	-14.981	-18.127	-90.962	8.596	35.030	-92.193	-86.607	-76.799	40.363	-89.470	-85.364	-82.814	-79.215	23.548	-82.176	-8191	255	
20177.398	1	1	0	0	0.071529	0.14021	0.12623	0.21012	0.066316	0.074741	0.087002	0.079426	0.087871	0.070484	0.22934	0.095442	0.1655	0.0091802	0.20468	0.042606	-2.3396	-2.6813	-2.1688	-2.9021	-2.3667	-2.5312	-3.0021	-2.3187	-2.7292	-2.9083	-2.2458	-2.8	-2.4021	-2.425	-2.7854	-2.3271	51.746	31.757	138.240	127.958	-46.605	-65.446	225.209	224.736	217.734	12.420	250.095	247.417	240.826	-91.416	206.212	-31.286	6.6217e-05	0.00049288	8.7559e-05	866.36	6.8462e-07	6.1922e-06	576.55	306.34	1.621e-06	3.3172e-06	212.53	64.218	97.429	31.73	2.233e-06	22.375	0.00029804	0.00037888	0.00011343	845.73	4.3541e-06	4.3171e-06	562.01	299.78	4.3723e-06	4.2434e-06	208.46	63.556	95.943	31.281	4.1618e-06	21.89	249.336	-19.116	8.129	-91.016	32.303	19.496	-92.118	-86.625	32.649	55.918	-89.345	-85.480	-82.521	-79.527	33.493	-82.014	-8191	255	
20177.494	1	1	0	0	0.11772	0.19917	0.24678	0.28185	0.080154	0.096931	0.28659	0.20504	0.18009	0.15017	0.1472	0.12275	0.11403	0.22045	0.20343	0.14678	-2.3583	-2.9021	-2.0854	-3.0333	-2.5208	-2.4271	-3	-2.45	-2.7	-2.9	-2.3271	-2.7333	-2.5958	-2.3833	-2.8458	-2.4854	-97.471	-2.340	-94.690	202.911	211.884	179.441	238.632	134.160	175.761	16.554	218.278	156.177	216.927	-88.808	199.392	67.129	6.4272e-05	0.00036773	3.9515e-05	863.97	1.1528e-06	2.2366e-06	574.81	304.45	2.0848e-06	3.8846e-06	213.03	64.244	97.086	31.643	3.3161e-06	22.414	0.0002953	0.00040304	0.00011729	842.86	4.4006e-06	4.3896e-06	559.46	299.21	4.4517e-06	4.2915e-06	208.02	63.552	95.829	31.214	4.2377e-06	21.913	240.130	-43.576	-0.532	-90.937	80.932	71.400	-92.102	-86.783	40.714	40.870	-89.034	-85.224	-82.846	-79.514	58.998	-82.256	-8191	255	
20177.566	1	1	0	0	0.14892	0.088343	0.10556	0.091596	0.23947	0.24857	0.1655	0.1223	0.34229	0.21583	0.094786	0.15553	0.23242	0.11494	0.093893	0.12786	-2.2375	-2.8354	-2.2396	-2.9229	-2.6021	-2.3375	-3.1083	-2.4021	-2.5375	-2.9292	-2.3021	-2.9104	-2.7667	-2.2875	-2.9708	-2.3875	196.065	67.395	-3.995	241.157	180.915	247.178	229.833	198.358	12.100	107.668	197.809	191.782	191.928	143.283	-53.683	67.749	6.9464e-05	0.00028241	0.00010377	865.91	8.2314e-07	1.7882e-06	576.11	306.03	1.7976e-06	4.3977e-06	213.97	64.596	98.227	31.806	3.6083e-06	22.476	0.00030132	0.00040748	0.00010776	844.08	4.2843e-06	4.3985e-06	561.42	300.21	4.4117e-06	4.3673e-06	209.27	63.873	96.591	31.361	4.5576e-06	22.019	249.701	-9.862	-12.603	-91.097	42.644	37.050	-92.143	-86.679	25.214	43.403	-88.994	-85.126	-82.457	-79.158	66.902	-81.754	-8191	255	
20177.686	1	1	0	0	0.097827	0.14265	0.39479	0.018213	0.37541	0.161	0.11729	0.077898	0.061233	0.083304	0.025744	0.11863	0.18617	0.23847	0.06334	0.13057	-2.1188	-2.8063	-2.1937	-2.8625	-2.8146	-2.3063	-3.1167	-2.6771	-2.3646	-2.9313	-2.2958	-2.6854	-2.8729	-2.425	-2.8896	-2.7042	136.286	143.846	127.558	-72.201	-16.909	-21.447	-1.431	-62.423	136.994	139.382	-78.397	-51.048	-36.524	218.790	227.071	151.282	7.6539e-05	0.00031836	5.6659e-05	871.97	1.7495e-06	4.3694e-06	579.62	307.85	9.0814e-07	2.8993e-06	214.76	64.355	97.624	31.845	3.5959e-06	22.079	0.00030989	0.00042437	0.00011503	847.77	4.5764e-06	4.5583e-06	564.15	301.7	4.7265e-06	4.5085e-06	209.62	63.695	96.473	31.35	4.5088e-06	21.831	-104.498	-11.324	7.036	-90.892	36.016	64.873	-92.089	-86.657	36.377	81.866	-89.282	-85.291	-83.138	-79.908	42.963	-82.073	-8191	255	
20177.781	1	1	0	0	0.1714	0.13107	0.2284	0.16536	0.24634	0.20921	0.024143	0.1974	0.083619	0.12715	0.24	0.2064	0.14581	0.17604	0.17797	0.16649	-2	-2.825	-2.3396	-2.6813	-2.825	-2.3979	-3.0104	-2.7792	-2.2708	-3.1437	-2.2667	-2.7396	-2.9146	-2.4417	-2.9646	-2.7271	32.362	-91.982	97.876	112.724	240.401	-36.038	-72.421	56.800	151.823	-56.692	155.043	-47.261	132.177	89.911	84.353	57.482	5.5574e-05	0.000339	7.8847e-05	866.78	5.453e-07	2.731e-06	575.69	307.91	2.1416e-06	2.6311e-06	213.35	63.497	96.924	31.772	2.0687e-06	21.852	0.00031046	0.00041842	0.00011399	843.9	4.5267e-06	4.8217e-06	561.63	300.85	4.8562e-06	4.566e-06	208.32	62.816	95.91	31.096	4.6803e-06	21.505	255.387	-24.850	-11.481	-91.219	30.537	67.740	-92.133	-86.317	24.427	56.361	-88.970	-85.488	-82.486	-79.526	79.233	-82.309	-8191	255	
20177.879	1	1	0	0	0.28199	0.25196	0.087963	0.12726	0.16513	0.089133	0.21564	0.081345	0.24903	0.22617	0.026112	0.074692	0.18394	0.17695	0.16192	0.13599	-1.9167	-2.9229	-2.525	-2.7104	-2.9271	-2.3042	-2.7687	-2.8021	-2.5333	-3.075	-2.5396	-2.5875	-2.9417	-2.2354	-2.8667	-2.8812	-43.550	74.972	-97.425	245.406	157.624	107.071	182.474	-99.447	200.401	-36.821	79.932	-91.855	254.327	8.995	102.496	112.371	8.2094e-05	0.00031774	9.4867e-05	866.49	1.6067e-06	1.2014e-06	573.26	306.79	2.1419e-06	2.6983e-06	211.4	63.345	96.947	31.444	4.5988e-06	21.605	0.00031482	0.00042626	0.00012192	842.84	4.6053e-06	4.9111e-06	557.95	300.33	4.804e-06	4.6088e-06	207.34	62.362	95.564	30.959	4.6734e-06	21.354	-95.594	-24.334	-61.098	-90.868	22.794	86.803	-92.191	-86.619	38.759	61.092	-88.960	-85.179	-82.578	-79.611	63.845	-81.876	-8191	255	
20177.975	1	1	0	0	0.16893	0.20817	0.13167	0.011767	0.18181	0.21841	0.19457	0.12249	0.27007	0.30895	0.28561	0.24663	0.060707	0.11931	0.26818	0.13031	-1.8646	-2.8833	-2.4417	-2.5812	-3.0938	-2.2958	-2.6333	-2.8646	-2.175	-3.0125	-2.5083	-2.4271	-3.0354	-2.3979	-2.6917	-3.0292	88.981	44.078	-12.571	81.178	9.829	9.377	219.392	-25.372	-66.165	245.064	67.174	93.339	-58.582	-67.294	-39.163	-4.451	4.7245e-05	0.00033937	8.721e-05	862.36	2.1889e-06	3.2242e-06	574.1	306.65	1.1682e-06	2.7813e-06	213.06	63.07	96.643	31.894	3.1161e-06	21.66	0.0003283	0.00042357	0.00012735	840.89	4.6299e-06	4.7439e-06	558.99	300.59	4.8998e-06	4.8153e-06	207.8	62.276	95.603	31.211	4.9213e-06	21.407	246.963	-23.021	-5.232	-90.887	62.287	52.257	-92.263	-86.317	-23.982	19.913	-89.032	-85.538	-82.789	-79.435	73.332	-82.420	-8191	255	
20178.094	1	1	0	0	0.019707	0.12966	0.12989	0.097875	0.17366	0.04073	0.12304	0.1173	0.055307	0.060636	0.053286	0.13383	0.20663	0.20958	0.046578	0.041165	-1.9708	-2.7938	-2.5646	-2.4979	-2.9625	-2.3	-2.7396	-2.9583	-2.3958	-2.9771	-2.7979	-2.3146	-2.7917	-2.7021	-2.6375	-2.8146	42.029	48.545	-39.069	100.727	21.147	-96.129	156.764	38.546	165.873	67.356	-5.716	-46.091	246.008	-80.697	-73.678	60.607	7.9198e-05	0.00017172	0.00010734	865.75	1.6366e-06	4.4006e-06	580.29	307.88	1.9394e-06	2.6345e-06	213.21	62.971	96.661	32.032	3.4281e-06	21.917	0.00033619	0.00043093	0.00013103	842.84	4.7648e-06	5.1887e-06	564.23	301.69	5.0431e-06	4.9094e-06	207.83	62.055	95.504	31.455	5.1382e-06	21.54	-101.098	-69.495	8.594	-91.263	59.115	25.922	-92.230	-86.493	33.211	26.728	-89.122	-85.115	-82.647	-79.601	63.852	-82.385	-8191	255	
20178.164	1	1	0	0	0.067904	0.13819	0.029771	0.051912	0.10412	0.089959	0.17496	0.086567	0.43093	0.36676	0.20437	0.16341	0.24152	0.12939	0.16418	0.15994	-1.7938	-2.7333	-2.7146	-2.4917	-2.7792	-2.5917	-2.3396	-3.0312	-2.2417	-2.7333	-2.8187	-2.3375	-2.8458	-2.6542	-2.4271	-2.9208	23.833	49.999	71.675	3.502	-17.086	173.667	94.510	-40.041	-9.864	-0.837	120.236	22.918	-87.580	-36.022	14.408	223.399	8.1643e-05	0.00032473	0.00010172	859.55	2.3553e-06	2.6646e-06	578.08	306.89	1.8958e-06	3.0435e-06	210.06	62.334	96.667	31.716	2.6195e-06	21.68	0.00033454	0.00048538	0.00013179	835.2	5.0183e-06	5.4626e-06	560.6	299.33	5.3579e-06	5.2942e-06	205.6	61.708	95.245	31.397	5.434e-06	21.317	-92.763	-21.358	1.686	-91.156	37.463	29.602	-92.348	-86.633	33.700	36.032	-89.126	-85.400	-82.697	-79.500	44.080	-82.214	-8191	255	
20178.264	1	1	0	0	0.26311	0.0998	0.067	0.32091	0.07151	0.1623	0.10542	0.011279	0.15056	0.052329	0.072372	0.4	0.14371	0.13528	0.18436	0.015663	-2.075	-2.7188	-2.7604	-2.2771	-3.0604	-2.6125	-2.35	-3.0687	-2.425	-2.5896	-2.9167	-2.3688	-2.9083	-2.7979	-2.3167	-3.0687	77.738	200.749	-34.644	226.842	3.110	100.625	185.204	146.402	156.912	-45.525	110.214	-4.410	165.144	225.997	17.414	-55.543	8.8254e-05	0.00044474	6.5917e-05	853.67	1.7238e-06	3.132e-06	576.46	304.63	1.4725e-06	3.9761e-06	210.03	62.205	96.431	31.886	3.889e-06	21.559	0.00035875	0.00050431	0.00013958	828.72	5.2182e-06	5.5288e-06	558.39	298.14	5.4171e-06	5.5932e-06	205.2	61.446	95.244	31.358	5.639e-06	21.195	239.588	-20.328	-7.994	-91.104	67.129	20.787	-92.174	-86.729	16.781	69.974	-88.885	-85.281	-82.983	-80.249	68.850	-82.668	-8191	255	
20178.383	1	1	0	0	0.14916	0.11715	0.23897	0.034693	0.23659	0.054542	0.17269	0.21456	0.19216	0.20415	0.16961	0.10035	0.30999	0.095881	0.15964	0.074301	-1.9417	-2.5938	-2.9042	-2.3604	-2.8708	-2.7583	-2.3833	-2.9854	-2.3271	-2.4792	-2.9396	-2.3042	-2.9042	-2.9042	-2.2583	-3.0979	37.031	-40.943	-76.615	-82.357	-27.610	142.991	249.299	30.986	-39.208	-27.273	-83.671	171.300	173.602	-78.254	-53.762	56.913	5.6216e-05	0.00040529	3.3993e-05	846.45	1.0554e-06	3.892e-06	574.7	303.8	2.0091e-06	3.9639e-06	208.91	62.392	97.096	32.129	2.0742e-06	21.557	0.00035043	0.00052715	0.00014376	824.3	5.3275e-06	6.0145e-06	558.53	297.43	5.7394e-06	5.7156e-06	204.27	61.908	95.849	31.458	5.8727e-06	21.317	247.210	-22.423	-13.518	-91.005	38.959	42.702	-92.222	-86.578	18.254	34.644	-88.993	-85.639	-82.852	-79.899	45.150	-82.779	-8191	255	
20178.479	1	1	0	0	0.14502	0.16761	0.13103	0.12131	0.14998	0.067216	0.062389	0.17149	0.27166	0.088886	0.055904	0.18788	0.077945	0.19254	0.26161	0.07382	-2.0208	-2.4125	-2.9292	-2.4167	-2.7271	-2.7917	-2.35	-3.1188	-2.5667	-2.2792	-2.9292	-2.0375	-2.675	-2.8312	-2.4875	-2.9667	150.021	-93.832	194.281	157.836	-71.649	123.288	57.993	208.709	199.922	248.930	151.990	-31.008	185.684	-92.823	23.383	27.514	9.2436e-05	0.00018241	9.7214e-05	841.54	1.989e-06	2.5734e-06	574.55	303.72	1.3531e-06	3.0377e-06	207.34	63.342	97.604	32.219	2.1906e-06	21.914	0.00037166	0.00052582	0.00014176	821.54	5.5429e-06	6.0329e-06	560.53	297.46	5.8319e-06	5.8034e-06	203.72	62.439	96.29	31.565	5.885e-06	21.485	251.067	-39.677	-33.657	-91.103	62.391	73.455	-92.554	-86.810	4.199	52.704	-89.504	-85.700	-83.526	-80.324	51.445	-82.739	-8191	255	
20178.574	1	1	0	0	0.14883	0.19873	0.19486	0.30227	0.087933	0.25335	0.072576	0.18536	0.15383	0.18335	0.41479	0.19497	0.10118	0.1381	0.14191	0.1292	-2.1458	-2.4333	-2.9437	-2.5333	-2.4896	-2.9229	-2.3146	-2.95	-2.4813	-2.2583	-3.0458	-2.4625	-2.4833	-2.9958	-2.2271	-2.9229	-16.863	59.152	162.751	205.742	250.648	252.035	117.109	187.786	49.061	-8.764	212.386	137.606	104.314	187.683	-31.475	-19.191	9.4614e-05	0.00043276	4.582e-05	837.77	2.5323e-06	3.8648e-06	569.71	301.42	6.3946e-07	3.0847e-06	204.58	63.066	97.699	31.831	3.9336e-06	21.569	0.000367	0.00054399	0.00014405	815.82	5.7112e-06	5.8605e-06	557.1	294.18	5.5712e-06	5.7464e-06	201.09	62.641	96.618	31.463	5.8066e-06	21.213	-104.207	-17.276	-28.561	-91.451	21.094	29.909	-92.913	-87.355	2.041	44.422	-89.740	-86.431	-84.166	-80.656	60.168	-83.305	-8191	255	
20178.695	1	1	0	0	0.15555	0.32657	0.15112	0.13427	0.24478	0.1996	0.041546	0.20001	0.098956	0.14267	0.1105	0.18377	0.21416	0.11535	0.24333	0.059068	-2.1917	-2.2729	-3.0354	-2.3708	-2.625	-2.9833	-2.3646	-3.1063	-2.6458	-2.1417	-3.075	-2.5333	-2.3667	-2.8875	-2.1458	-2.6729	-88.435	207.779	180.766	-103.389	125.179	76.852	193.206	-84.243	121.497	213.267	-90.119	-72.349	65.901	228.678	-56.975	-61.711	7.5046e-05	0.00030177	7.2388e-05	831.43	2.6774e-06	1.9655e-06	566.41	297.14	8.0455e-07	1.813e-06	202.98	63.933	98.848	32.051	1.7545e-06	21.431	0.00036564	0.00055079	0.0001423	809.64	5.8666e-06	6.0808e-06	552.44	292.31	5.8554e-06	5.9832e-06	199.03	62.994	97.391	31.445	6.1591e-06	21.101	251.025	-26.318	32.025	-91.616	34.390	94.662	-93.134	-87.519	94.988	48.015	-90.104	-86.352	-84.252	-80.804	49.687	-83.817	-8191	255	
20178.791	1	1	0	0	0.034422	0.16979	0.37197	0.049145	0.035636	0.24752	0.12717	0.17548	0.14803	0.012803	0.31996	0.13957	0.049693	0.19939	0.084458	0.25513	-2.3375	-2.1875	-2.8708	-2.5646	-2.4042	-3.0563	-2.3958	-2.6604	-2.7542	-2.2417	-3.0292	-2.5167	-2.3229	-2.975	-2.2917	-2.7687	96.546	74.611	187.199	-51.316	117.448	64.183	140.400	151.981	215.389	-15.038	-10.340	-39.799	-83.102	165.395	200.739	230.088	8.5426e-05	0.00044239	4.6466e-05	828.83	3.0358e-06	3.6312e-06	563.24	299.82	2.4574e-06	3.7094e-06	204.53	64.419	99.686	31.904	3.3304e-06	21.453	0.00039824	0.00057849	0.00014997	808.13	6.0428e-06	6.2248e-06	552.54	293.02	6.328e-06	6.3398e-06	199.71	63.702	97.786	31.474	6.3523e-06	21.106	243.268	-21.286	-28.599	-91.608	58.381	87.487	-92.764	-87.433	53.347	30.381	-90.364	-86.771	-84.115	-80.668	86.433	-83.869	-8191	255	
20178.863	1	1	0	0	0.13595	0.26867	0.19586	0.31458	0.37818	0.10975	0.30603	0.11614	0.15262	0.24146	0.29377	0.21138	0.097339	0.15835	0.22887	0.10618	-2.4875	-2.3667	-2.7083	-2.7229	-2.3417	-3.1729	-2.4417	-2.7542	-2.8896	-2.3625	-2.9292	-2.6333	-2.3271	-2.9396	-2.3854	-2.4208	239.795	-24.585	192.972	-27.239	-8.019	162.202	116.684	191.366	-3.332	66.105	216.345	198.267	-68.216	73.317	50.292	176.713	6.5021e-05	0.00035352	0.00012721	824.92	2.387e-06	2.3015e-06	565.37	298.58	1.7475e-06	4.5548e-06	203.83	64.86	98.525	31.983	1.7872e-06	21.47	0.00040765	0.00058085	0.00016071	806.05	5.9545e-06	6.2238e-06	553.74	292.54	6.2636e-06	6.3371e-06	199.76	64.108	97.605	31.55	6.3168e-06	21.235	-80.110	-30.588	-8.692	-91.470	61.405	41.023	-93.361	-87.636	82.491	52.181	-90.283	-86.945	-84.349	-80.960	12.569	-83.819	-8191	255	
20178.982	1	1	0	0	0.37957	0.21736	0.15068	0.17442	0.15188	0.23316	0.2418	0.3668	0.26928	0.11839	0.28309	0.16918	0.28621	0.17575	0.23696	0.093221	-2.5563	-2.2583	-2.8187	-2.9271	-2.2021	-3.0146	-2.4083	-2.65	-2.8729	-2.3854	-2.8187	-2.8521	-2.2542	-3.0062	-2.5792	-2.4437	-28.662	230.557	95.975	-50.158	61.987	178.092	209.504	247.741	13.803	246.943	204.051	249.660	221.150	217.094	-26.979	208.627	6.6635e-05	0.00046282	8.2666e-05	824.02	2.2328e-06	3.2717e-06	565.31	299.14	1.165e-06	3.0554e-06	203.94	64.852	98.815	31.941	2.8096e-06	21.13	0.00038932	0.00058939	0.00016041	804.07	6.0889e-06	6.443e-06	552.15	292.21	6.165e-06	6.2634e-06	198.98	64.064	97.641	31.357	6.686e-06	20.898	-90.976	-0.601	-18.843	-91.535	24.635	70.478	-93.179	-87.321	64.383	6.816	-90.321	-86.701	-84.111	-80.771	30.030	-83.702	-8191	255	
20179.078	1	1	0	0	0.24389	0.055238	0.1898	0.31534	0.12764	0.085753	0.10791	0.33684	0.11715	0.10792	0.18072	0.06272	0.13335	0.13436	0.053687	0.11482	-2.5687	-2.3458	-2.6813	-2.9667	-2.2375	-2.8563	-2.6229	-2.4604	-3.1	-2.325	-2.6583	-2.9333	-2.2625	-2.9396	-2.6292	-2.4458	-32.637	28.506	44.383	222.013	-97.129	-9.221	101.612	190.500	128.770	55.325	130.017	-7.160	185.059	-62.265	-65.776	170.923	6.483e-05	0.00037007	0.00015773	823.93	1.0947e-06	1.6212e-06	565.08	297.07	2.4064e-06	5.1773e-06	201.72	64.497	98.531	31.681	1.6082e-06	21.091	0.0004163	0.00059793	0.00017211	802.65	6.1726e-06	6.3205e-06	550.6	291.08	6.2002e-06	6.7956e-06	198.11	63.593	97.099	31.176	6.6047e-06	20.775	-98.351	31.594	-2.098	-91.527	76.882	16.481	-92.829	-87.525	-11.014	40.858	-90.271	-86.669	-84.152	-81.123	23.754	-83.539	-8191	255	
20179.174	1	1	0	0	0.071576	0.21335	0.24291	0.18462	0.22458	0.031489	0.19953	0.23551	0.12264	0.19312	0.33825	0.21494	0.25101	0.049578	0.094113	0.12828	-2.8021	-2.2625	-2.5125	-2.9042	-2.2708	-2.9125	-2.6125	-2.6167	-2.8604	-2.425	-2.4104	-2.9729	-2.1333	-2.8958	-2.7792	-2.1708	240.523	-21.183	11.870	-91.234	38.150	-94.728	189.510	239.399	-62.010	-67.087	-97.323	185.114	151.108	-79.009	-78.194	248.096	7.9081e-05	0.00051902	0.00015418	824.59	2.6947e-06	3.1424e-06	560.32	296.28	1.3801e-06	3.8292e-06	201.69	64.593	97.725	31.789	3.5311e-06	21.155	0.00041405	0.00061685	0.00017228	804.39	6.4168e-06	6.5271e-06	549.19	290.61	6.3205e-06	6.6299e-06	198.18	63.61	96.909	31.176	6.5721e-06	20.817	-96.877	-16.885	-39.476	-91.705	19.130	18.360	-92.772	-87.522	-14.235	69.531	-90.232	-86.363	-84.127	-81.158	52.480	-83.990	-8191	255	
#DATA ENDS
