BOXY.EXE: ISS Imagent and Oximeter Data Acquisition Program Version 0.80
Ascii Record File

#ACQ INFORMATION
2  Detector Channels 
16  External MUX Channels 
1  Auxiliary Channels 
5000  Waveform (CCF) Frequency (Hz)
1  Waveforms Skipped 
30  Waveforms Averaged 
1  Cycles Averaged 
16  Acquisitions per Waveform 
10.0806  Updata Rate (Hz) 

#FILE INFORMATION
TRUE -- External MUX Channel results are PARSED.
FALSE -- AC DC and Phase are NOT grouped.
TRUE -- Companion Program Settings File CREATED.
FALSE -- AC data not excluded
FALSE -- DC data not excluded
FALSE -- Phase data not excluded
FALSE -- Auxillary Chn. data not excluded
Tab delimiters

#CALIBRATION STATE
TRUE -- Waveform Calibration Values APPLIED.


#AUX CALIBRATION VALUES
Val Type	aux-1	

Term	1.0000e+00	
Factor	0.0000e+00	


#WF CALIBRATION VALUES
A = Detector Channel
Val Type	A-AC1	A-AC2	A-AC3	A-AC4	A-AC5	A-AC6	A-AC7	A-AC8	A-AC9	A-AC10	A-AC11	A-AC12	A-AC13	A-AC14	A-AC15	A-AC16	A-DC1	A-DC2	A-DC3	A-DC4	A-DC5	A-DC6	A-DC7	A-DC8	A-DC9	A-DC10	A-DC11	A-DC12	A-DC13	A-DC14	A-DC15	A-DC16	A-Ph1	A-Ph2	A-Ph3	A-Ph4	A-Ph5	A-Ph6	A-Ph7	A-Ph8	A-Ph9	A-Ph10	A-Ph11	A-Ph12	A-Ph13	A-Ph14	A-Ph15	A-Ph16	

Term	0.00000e+00	0.00000e+00	0.00000e+00	0.00000e+00	0.00000e+00	0.00000e+00	0.00000e+00	0.00000e+00	0.00000e+00	0.00000e+00	0.00000e+00	0.00000e+00	0.00000e+00	0.00000e+00	0.00000e+00	0.00000e+00	0.00000e+00	0.00000e+00	0.00000e+00	0.00000e+00	0.00000e+00	0.00000e+00	0.00000e+00	0.00000e+00	0.00000e+00	0.00000e+00	0.00000e+00	0.00000e+00	0.00000e+00	0.00000e+00	0.00000e+00	0.00000e+00	0.00000e+00	0.00000e+00	0.00000e+00	0.00000e+00	0.00000e+00	0.00000e+00	0.00000e+00	0.00000e+00	0.00000e+00	0.00000e+00	0.00000e+00	0.00000e+00	0.00000e+00	0.00000e+00	0.00000e+00	0.00000e+00	
Factor	1.00000e+00	1.00000e+00	1.00000e+00	1.00000e+00	1.00000e+00	1.00000e+00	1.00000e+00	1.00000e+00	1.00000e+00	1.00000e+00	1.00000e+00	1.00000e+00	1.00000e+00	1.00000e+00	1.00000e+00	1.00000e+00	1.00000e+00	1.00000e+00	1.00000e+00	1.00000e+00	1.00000e+00	1.00000e+00	1.00000e+00	1.00000e+00	1.00000e+00	1.00000e+00	1.00000e+00	1.00000e+00	1.00000e+00	1.00000e+00	1.00000e+00	1.00000e+00	X	X	X	X	X	X	X	X	X	X	X	X	X	X	X	X	

B = Detector Channel
Val Type	B-AC1	B-AC2	B-AC3	B-AC4	B-AC5	B-AC6	B-AC7	B-AC8	B-AC9	B-AC10	B-AC11	B-AC12	B-AC13	B-AC14	B-AC15	B-AC16	B-DC1	B-DC2	B-DC3	B-DC4	B-DC5	B-DC6	B-DC7	B-DC8	B-DC9	B-DC10	B-DC11	B-DC12	B-DC13	B-DC14	B-DC15	B-DC16	B-Ph1	B-Ph2	B-Ph3	B-Ph4	B-Ph5	B-Ph6	B-Ph7	B-Ph8	B-Ph9	B-Ph10	B-Ph11	B-Ph12	B-Ph13	B-Ph14	B-Ph15	B-Ph16	

Term	0.00000e+00	0.00000e+00	0.00000e+00	0.00000e+00	0.00000e+00	0.00000e+00	0.00000e+00	0.00000e+00	0.00000e+00	0.00000e+00	0.00000e+00	0.00000e+00	0.00000e+00	0.00000e+00	0.00000e+00	0.00000e+00	0.00000e+00	0.00000e+00	0.00000e+00	0.00000e+00	0.00000e+00	0.00000e+00	0.00000e+00	0.00000e+00	0.00000e+00	0.00000e+00	0.00000e+00	0.00000e+00	0.00000e+00	0.00000e+00	0.00000e+00	0.00000e+00	2.16202e+01	-1.27640e+02	-1.20072e+02	-1.81829e+02	-6.16250e+01	-7.02085e+01	-1.55860e+02	-1.62015e+02	-1.48752e+01	-5.71797e+01	-1.72273e+02	-1.70198e+02	-1.80175e+02	-1.76607e+02	-7.27239e+01	-1.49939e+02	
Factor	4.79762e-05	1.77696e-04	5.16229e-05	1.64818e-01	2.61545e-06	2.05122e-06	1.93509e-01	5.38336e-02	2.73419e-06	1.91366e-06	1.19766e-01	3.42918e-02	3.29175e-02	9.95306e-03	2.68039e-06	1.45024e-02	5.05911e-06	5.72559e-06	1.60112e-06	8.38037e-02	6.11931e-08	6.30998e-08	9.23443e-02	2.74153e-02	6.11160e-08	6.32174e-08	5.83758e-02	1.68713e-02	1.67443e-02	5.10467e-03	6.19901e-08	7.18827e-03	X	X	X	X	X	X	X	X	X	X	X	X	X	X	X	X	



#DISTANCE SETTINGS
A = Detector Channel
A-1	A-2	A-3	A-4	A-5	A-6	A-7	A-8	A-9	A-10	A-11	A-12	A-13	A-14	A-15	A-16	

2.5000e+00	3.0000e+00	2.5000e+00	3.0000e+00	2.0000e+00	3.0000e+00	1.5000e+00	3.0000e+00	3.0000e+00	3.0000e+00	3.0000e+00	3.0000e+00	3.0000e+00	3.0000e+00	1.5000e+00	3.0000e+00	

B = Detector Channel
B-1	B-2	B-3	B-4	B-5	B-6	B-7	B-8	B-9	B-10	B-11	B-12	B-13	B-14	B-15	B-16	

1.0000e+01	1.0000e+01	1.0000e+01	1.4400e+00	1.0000e+01	1.0000e+01	1.5100e+00	1.9400e+00	1.0000e+01	1.0000e+01	1.9900e+00	2.4900e+00	2.4100e+00	2.9000e+00	1.0000e+01	2.9800e+00	




#DATA BEGINS
time	group	step	mark	flag	A-AC1	A-AC2	A-AC3	A-AC4	A-AC5	A-AC6	A-AC7	A-AC8	A-AC9	A-AC10	A-AC11	A-AC12	A-AC13	A-AC14	A-AC15	A-AC16	A-DC1	A-DC2	A-DC3	A-DC4	A-DC5	A-DC6	A-DC7	A-DC8	A-DC9	A-DC10	A-DC11	A-DC12	A-DC13	A-DC14	A-DC15	A-DC16	A-Ph1	A-Ph2	A-Ph3	A-Ph4	A-Ph5	A-Ph6	A-Ph7	A-Ph8	A-Ph9	A-Ph10	A-Ph11	A-Ph12	A-Ph13	A-Ph14	A-Ph15	A-Ph16	B-AC1	B-AC2	B-AC3	B-AC4	B-AC5	B-AC6	B-AC7	B-AC8	B-AC9	B-AC10	B-AC11	B-AC12	B-AC13	B-AC14	B-AC15	B-AC16	B-DC1	B-DC2	B-DC3	B-DC4	B-DC5	B-DC6	B-DC7	B-DC8	B-DC9	B-DC10	B-DC11	B-DC12	B-DC13	B-DC14	B-DC15	B-DC16	B-Ph1	B-Ph2	B-Ph3	B-Ph4	B-Ph5	B-Ph6	B-Ph7	B-Ph8	B-Ph9	B-Ph10	B-Ph11	B-Ph12	B-Ph13	B-Ph14	B-Ph15	B-Ph16	aux-1	digaux	

1164.101	1	1	0	256	0.39172	0.31038	0.12147	0.19067	0.21291	0.3842	0.22454	0.34537	0.06538	0.068153	0.19714	0.17985	0.24991	0.11176	0.19855	0.23655	-1.7708	-2.1813	-2.5708	-2.2792	-2.2917	-2.4146	-2.375	-2.7146	-2.4125	-2.5583	-2.7646	-2.2917	-2.5604	-2.5479	-2.15	-2.65	114.820	29.376	25.025	48.207	-67.535	92.982	177.521	156.862	198.790	-134.445	138.782	165.367	72.089	179.231	78.998	102.476	0.0023997	0.00058477	0.00016665	587.71	8.4017e-06	5.5935e-06	798.14	229.27	9.5102e-06	5.9866e-06	342.26	191.98	104.04	58.489	1.0267e-05	116.89	0.00025498	7.0377e-05	1.8386e-05	583.82	7.6772e-07	6.8174e-07	797.19	230.14	8.4289e-07	7.3912e-07	341.21	192.34	103.84	59.294	8.8568e-07	117.93	-12.770	-68.458	-59.240	-147.470	-15.622	-3.508	-147.923	-141.855	27.251	4.028	-143.277	-138.800	-139.014	-134.022	-35.571	-136.151	-8191	255	
1164.198	1	1	0	0	0.12837	0.13144	0.19376	0.12391	0.054674	0.16277	0.2932	0.16578	0.4331	0.061084	0.10714	0.25737	0.37266	0.18928	0.17569	0.27618	-2.1104	-2.175	-2.8187	-2.3021	-2.2854	-2.6	-2.1917	-2.7938	-2.4292	-2.4271	-2.8937	-2.0979	-2.3604	-2.5271	-2.1021	-2.8875	-156.209	-74.109	144.037	107.898	196.027	189.085	110.991	-131.762	-148.313	197.292	-133.203	-142.826	91.975	-38.908	115.489	85.542	0.002315	0.00066295	0.00012489	590.65	8.2959e-06	6.6552e-06	798.81	229.3	9.7333e-06	5.2172e-06	337.41	188.06	102.24	57.504	8.2444e-06	114.31	0.00024887	7.0628e-05	1.883e-05	588.71	8.3044e-07	6.9541e-07	797.61	229.8	8.6823e-07	7.6994e-07	337.1	187.82	101.45	58.217	9.1991e-07	115.27	-11.233	-65.882	-65.012	-147.183	-9.707	-2.680	-147.712	-142.026	18.186	-1.348	-143.649	-138.776	-139.331	-134.011	-28.026	-136.115	-8191	255	
1164.318	1	1	0	0	0.27764	0.16207	0.2027	0.32603	0.27233	0.20229	0.0077274	0.09553	0.21991	0.11312	0.14324	0.093188	0.12677	0.21657	0.23431	0.22499	-1.8	-2.2729	-2.4958	-2.1896	-2.4417	-2.7333	-2.0958	-2.8937	-2.4	-2.0521	-2.7	-2.5438	-2.3312	-2.6312	-2.0979	-2.6312	41.014	20.767	-76.430	142.960	-5.215	5.548	165.679	191.837	54.796	-1.688	110.535	-97.473	-12.570	162.493	-76.795	51.664	0.0023046	0.00068725	0.00017595	596.1	8.0988e-06	7.7975e-06	796.28	230.83	8.1989e-06	5.3313e-06	338.61	187.26	101.75	57.228	7.5718e-06	113.73	0.00024705	7.3323e-05	1.9747e-05	591.82	8.4459e-07	7.4773e-07	797.49	231.56	8.6823e-07	7.8192e-07	337.82	187.23	101.38	58.069	9.4961e-07	114.86	-11.178	-68.633	-61.818	-147.543	-11.236	-30.601	-148.116	-142.039	11.447	4.255	-143.454	-138.624	-139.106	-133.795	-31.859	-136.177	-8191	255	
1164.390	1	1	0	0	0.17083	0.19646	0.20087	0.40764	0.14453	0.13165	0.154	0.12298	0.2347	0.17775	0.12782	0.40679	0.12644	0.34981	0.0506	0.091498	-1.9958	-1.9562	-2.4458	-2.2979	-2.3521	-2.6271	-2.1833	-2.5396	-2.4104	-2.0854	-2.7438	-2.4208	-2.2792	-2.7667	-2.0667	-2.7354	26.171	187.585	-82.417	132.156	-28.359	25.016	80.881	91.911	-143.348	54.909	172.007	157.968	102.056	-157.150	-25.807	124.922	0.0023094	0.00052839	0.00014227	601.68	6.2173e-06	6.5178e-06	810.8	233.67	8.1365e-06	7.3006e-06	343.4	190.15	103.91	59.446	9.5715e-06	119.76	0.00025151	7.6961e-05	1.98e-05	599.56	8.3694e-07	7.9295e-07	810.71	233.87	8.667e-07	8.1024e-07	343.57	190.55	103.7	60.345	9.8745e-07	120.89	-11.903	-70.962	-72.567	-147.372	-7.392	-10.660	-147.987	-141.982	16.277	-10.891	-143.445	-138.988	-139.250	-134.022	-32.458	-136.267	-8191	255	
1164.510	1	1	0	0	0.19236	0.37412	0.18938	0.21465	0.14703	0.23354	0.12461	0.24872	0.19268	0.34464	0.1238	0.13911	0.20752	0.11834	0.13728	0.13867	-1.9729	-1.9354	-2.6167	-2.3833	-2.1125	-2.5042	-2.0083	-2.4062	-2.4	-2.2188	-2.6229	-2.4188	-2.2125	-2.6792	-2.2167	-2.7271	46.403	-115.885	-117.963	-155.603	-128.851	140.834	186.928	110.245	-104.632	172.987	47.997	127.511	117.668	161.870	-51.058	90.151	0.0024154	0.00069376	0.00019224	613.22	8.536e-06	6.0442e-06	830.71	244.22	9.2945e-06	7.6275e-06	357.88	200.74	109.93	62.944	8.2985e-06	124.86	0.00026807	7.9287e-05	2.1218e-05	610.37	8.8373e-07	7.9571e-07	830.37	244.88	8.8007e-07	8.4185e-07	358.43	201.23	109.59	63.754	9.6408e-07	126.25	-10.979	-62.528	-53.597	-147.390	-28.429	-28.322	-148.130	-142.001	9.167	3.768	-143.398	-138.860	-139.216	-134.051	-21.020	-136.265	-8191	255	
1164.607	1	1	0	0	0.086056	0.041112	0.10238	0.1778	0.15165	0.23992	0.47071	0.088385	0.19702	0.10384	0.0068131	0.173	0.14242	0.16805	0.21814	0.49026	-1.9625	-2.0458	-2.6875	-2.3458	-2.1979	-2.8104	-2.3604	-2.4646	-2.5083	-1.9625	-2.6792	-2.6562	-2.2417	-2.5542	-2.2604	-2.5438	163.277	160.336	188.830	156.312	145.950	-115.077	99.658	-120.502	-28.825	140.429	136.388	161.164	-53.965	107.108	-135.309	133.894	0.0026504	0.00069345	0.00019757	613.25	9.9417e-06	7.4999e-06	833.41	247.15	8.9047e-06	7.8463e-06	363.22	204.08	112.86	62.781	8.4386e-06	122.93	0.00028192	8.1721e-05	2.2032e-05	613.01	8.9138e-07	8.1359e-07	832.31	247.39	9.6869e-07	8.8017e-07	362.41	203.94	112.23	63.774	1.0949e-06	124.16	-11.779	-79.401	-63.776	-147.277	-25.218	-24.742	-147.907	-141.729	12.003	18.122	-143.266	-138.965	-139.263	-134.178	-37.078	-136.392	-8191	255	
1164.701	1	1	0	0	0.23102	0.30631	0.13131	0.23877	0.015736	0.31119	0.15474	0.098661	0.08824	0.17755	0.23154	0.24413	0.12776	0.22255	0.17189	0.077736	-2.0833	-2.2771	-2.4729	-2.6146	-2.2771	-2.6771	-2.4833	-2.3729	-2.6729	-2.05	-2.5104	-2.675	-2.3396	-2.7438	-2.3479	-2.4792	-107.309	178.177	-150.899	183.741	-149.762	28.170	117.875	154.909	179.383	160.371	170.949	189.853	72.759	-108.419	25.249	10.275	0.0024819	0.00070953	0.00017853	599.41	9.0429e-06	6.8001e-06	817.76	243.73	1.0536e-05	6.3411e-06	355.93	197.4	109.75	59.761	7.7138e-06	116.64	0.00028579	9.0285e-05	2.5548e-05	597.92	1.0481e-06	9.6372e-07	816.02	243.74	1.0818e-06	1.014e-06	356.1	197.95	109.65	60.685	1.1419e-06	117.92	-11.007	-68.167	-52.950	-147.071	-15.151	-13.259	-147.650	-141.400	30.222	2.092	-142.934	-138.627	-139.424	-133.812	-27.675	-135.965	-8191	255	
1164.799	1	1	0	0	0.16733	0.040728	0.022518	0.23746	0.12329	0.14078	0.35149	0.19374	0.12494	0.17365	0.028699	0.082854	0.094155	0.089753	0.083112	0.24077	-2.2396	-2.2812	-2.3333	-2.7021	-2.2104	-2.4333	-2.5021	-2.3688	-2.4167	-2.1958	-2.2625	-2.6979	-2.1792	-2.7354	-2.45	-2.4417	-94.482	-121.156	132.955	-22.081	173.083	-19.342	-158.212	-117.499	64.870	61.375	164.702	170.633	109.117	74.299	138.471	97.819	0.0023686	0.00061659	0.00020592	588.33	8.4313e-06	7.2923e-06	807.47	239.22	9.7683e-06	5.424e-06	354.42	192.42	106.17	56.082	9.3803e-06	108.1	0.00027336	9.6607e-05	2.7016e-05	587.66	1.1317e-06	1.0038e-06	807.12	239.99	1.1419e-06	1.0626e-06	354.16	192.9	105.68	56.873	1.1073e-06	108.78	-12.150	-57.365	-62.082	-147.097	-5.648	-27.325	-147.838	-141.508	16.829	-12.077	-143.608	-138.537	-139.094	-133.874	-29.739	-135.904	-8191	255	
1164.918	1	1	0	0	0.23301	0.14075	0.053164	0.1516	0.012606	0.28812	0.31503	0.040542	0.13475	0.25825	0.19115	0.10191	0.012411	0.23864	0.018902	0.12311	-2.0521	-2.2875	-2.4021	-2.6167	-1.8979	-2.4271	-2.4021	-2.4333	-2.7229	-2.1479	-2.5229	-2.8271	-1.9833	-2.4708	-2.3458	-2.2521	40.212	15.713	99.482	22.539	60.048	-104.570	94.382	-2.813	-9.902	117.253	165.552	154.713	45.436	-156.970	-108.910	108.722	0.0022321	0.00056684	0.00020295	581.69	7.2144e-06	5.0255e-06	805.14	227.42	7.2213e-06	6.0668e-06	338.64	176.21	96.284	49.121	6.7263e-06	97.838	0.00025606	9.2814e-05	2.5805e-05	581.34	1.0274e-06	9.1823e-07	803.26	228.23	1.0413e-06	9.4339e-07	337.5	175.93	96.042	49.892	1.0022e-06	98.886	-11.015	-66.624	-70.460	-147.137	-21.445	-9.282	-147.876	-141.464	26.194	-23.242	-143.239	-138.600	-138.896	-133.363	-42.006	-135.489	-8191	255	
1164.989	1	1	0	0	0.18168	0.10093	0.2375	0.2277	0.28928	0.24389	0.27234	0.25674	0.25784	0.1044	0.11409	0.22141	0.14043	0.18724	0.04641	0.13404	-2.5229	-2.2604	-2.1	-2.8104	-2.1188	-2.6437	-2.375	-2.1937	-2.6125	-2.3563	-2.5396	-2.7125	-2.1104	-2.5167	-2.6813	-2.3688	-113.365	130.391	-67.648	-78.438	92.261	-64.111	137.541	-114.742	35.746	-21.177	186.482	88.207	177.897	174.100	-104.753	73.916	0.0020031	0.00038735	0.00013281	582.5	6.3267e-06	6.0284e-06	819.78	232.12	1.0164e-05	5.6637e-06	350.08	182.23	100.56	51.473	7.1822e-06	102.5	0.00023804	8.9951e-05	2.6275e-05	580.49	1.0692e-06	9.929e-07	819.07	232.33	1.1531e-06	1.0477e-06	350.06	182.04	100.33	52.226	1.1548e-06	103.53	-12.765	-74.565	-63.024	-146.895	-14.219	-24.917	-147.994	-141.537	21.552	3.227	-142.716	-138.575	-139.124	-133.520	-26.323	-135.848	-8191	255	
1165.086	1	1	0	0	0.15223	0.11434	0.12651	0.31419	0.19007	0.062198	0.12913	0.16114	0.037894	0.19691	0.15326	0.2806	0.38423	0.34653	0.22631	0.14879	-2.0812	-2.3167	-2.1667	-2.7313	-2.05	-2.3146	-2.6333	-1.9292	-2.575	-2.4062	-2.3542	-2.5979	-2.2	-2.5396	-2.4292	-2.15	-20.850	5.701	42.967	109.400	102.689	-39.806	59.676	-62.506	-74.830	-157.241	132.354	-126.719	144.248	186.291	53.459	175.758	0.002118	0.00070977	0.00017116	584.8	4.2406e-06	7.0606e-06	813.13	230.55	9.8926e-06	5.4411e-06	344.64	178.07	99.706	50.36	8.4251e-06	99.993	0.00025682	0.00010193	2.9921e-05	584.83	1.1597e-06	1.1175e-06	811.38	231.55	1.2538e-06	1.1519e-06	344.04	178.23	99.452	51.162	1.2469e-06	100.96	-11.599	-73.680	-68.116	-147.086	-26.641	-5.874	-147.974	-141.542	25.044	5.818	-143.019	-138.566	-138.951	-133.772	-41.663	-135.593	-8191	255	
1165.206	1	1	0	0	0.081105	0.23255	0.18313	0.28921	0.08953	0.059269	0.24843	0.11443	0.18855	0.15606	0.12233	0.28215	0.28056	0.16254	0.28279	0.3365	-2.3083	-2.1958	-1.9875	-2.7812	-2.4042	-2.2021	-2.6146	-2.2958	-2.45	-2.4333	-2.2104	-2.7396	-2.3583	-2.3875	-2.6417	-2.4771	-15.344	46.591	46.076	-102.892	39.207	-10.294	77.772	80.280	127.415	-122.071	-156.194	170.241	129.961	-151.771	165.787	-151.052	0.0021013	0.00068008	0.00018786	586.02	8.3263e-06	5.8643e-06	804.96	232.46	7.7107e-06	4.9304e-06	344.6	181.66	102.08	51.567	7.9455e-06	102.32	0.00026289	0.00011362	3.2629e-05	585.61	1.2978e-06	1.2897e-06	804.44	233.09	1.2759e-06	1.1922e-06	344.1	181.88	101.92	52.309	1.1712e-06	103.48	-11.907	-81.691	-71.289	-146.925	-11.318	-7.973	-147.889	-141.415	17.833	-19.035	-143.160	-138.681	-138.674	-133.700	-26.798	-135.648	-8191	255	
1165.302	1	1	0	0	0.1201	0.23101	0.1617	0.20923	0.18573	0.1321	0.2705	0.076973	0.13761	0.25361	0.15127	0.29905	0.13912	0.14567	0.097641	0.17178	-2.0542	-2.2875	-2.0875	-2.6063	-2.2938	-2.3896	-2.7708	-2.1729	-2.5333	-2.5125	-1.9646	-2.6604	-2.4062	-2.2562	-2.7875	-2.3146	-11.329	-61.145	158.229	91.446	118.456	168.878	135.635	-111.045	-110.332	-137.206	-147.469	99.756	188.135	153.657	131.729	165.144	0.0019907	0.00057533	0.00018593	580.42	7.3929e-06	5.775e-06	806.64	229.45	8.3853e-06	4.478e-06	345.96	188.44	103.2	53.289	6.9723e-06	108.52	0.00024733	9.3255e-05	2.5568e-05	580.06	9.7259e-07	9.369e-07	805.15	230.1	9.5061e-07	8.3803e-07	345.79	188.97	103.19	54.093	9.2921e-07	109.26	-9.495	-65.620	-54.524	-147.183	-12.186	1.952	-147.925	-141.434	15.567	-9.792	-143.214	-138.739	-139.017	-133.551	-19.251	-135.801	-8191	255	
1165.399	1	1	0	0	0.19211	0.039856	0.13894	0.16301	0.18868	0.28661	0.22939	0.050017	0.081272	0.17428	0.11536	0.31783	0.030231	0.14822	0.10762	0.38736	-1.7667	-2.4833	-2.1937	-2.625	-2.2812	-2.2708	-2.7771	-2.6167	-2.3979	-2.6604	-2.0854	-2.6979	-2.5708	-2.2854	-2.5896	-2.4167	-157.748	35.241	159.518	-131.154	-123.468	-22.327	177.259	-32.000	117.468	-136.828	181.008	-154.993	-104.792	186.078	-20.819	101.909	0.0022104	0.00055034	0.00016904	566.52	7.4523e-06	5.8776e-06	804.09	227.91	8.5756e-06	5.7604e-06	349.36	194.15	104.38	54.562	7.1382e-06	109.99	0.00024674	7.5995e-05	2.0351e-05	565.7	8.5326e-07	7.7139e-07	803.23	228.81	9.0286e-07	8.0049e-07	350.68	194.99	104.44	55.27	8.8116e-07	110.84	-11.817	-73.614	-56.065	-147.187	-15.064	-29.309	-147.890	-141.555	19.301	4.391	-143.041	-138.693	-139.107	-133.966	-43.964	-135.901	-8191	255	
1165.495	1	1	0	0	0.17437	0.15537	0.1611	0.16307	0.1854	0.24638	0.074465	0.11748	0.04927	0.16062	0.091985	0.13755	0.16628	0.038054	0.17201	0.1173	-2.0083	-2.6979	-2.1375	-2.3833	-2.5875	-2.125	-2.6146	-2.3229	-2.5625	-2.6979	-2.2562	-2.6625	-2.5396	-2.0938	-2.475	-2.6583	-42.172	40.325	-131.105	91.390	-156.435	21.881	87.935	-63.554	-112.169	112.403	190.459	-138.689	-66.999	160.221	-17.168	196.006	0.0022046	0.00066079	0.00015602	567.95	8.6947e-06	6.5444e-06	810.49	226.5	1.1118e-05	5.8344e-06	346.9	192.6	104.52	55.087	1.0772e-05	111.8	0.00024124	6.8802e-05	2.0598e-05	566.37	7.7078e-07	7.7376e-07	808.24	227.15	8.746e-07	7.4965e-07	348.61	193.14	104.38	55.832	8.7342e-07	112.75	-11.655	-83.419	-57.782	-147.349	-14.553	-11.390	-147.998	-141.550	15.343	-0.718	-143.177	-138.555	-139.519	-133.756	-30.843	-135.927	-8191	255	
1165.591	1	1	0	0	0.054202	0.076194	0.084109	0.062053	0.19384	0.040362	0.19677	0.075858	0.17579	0.24874	0.086976	0.019986	0.14966	0.32355	0.058003	0.24152	-1.7271	-2.5125	-2.4646	-2.5625	-2.5479	-2.0125	-2.9062	-2.5292	-2.0792	-2.6771	-2.4313	-2.4271	-2.6833	-2.2417	-2.5	-2.4729	96.129	-57.094	26.547	-94.177	-92.999	-22.799	-72.376	93.902	125.206	127.236	-154.312	-24.341	147.699	198.233	6.742	126.350	0.0023035	0.00062221	0.00020245	575.27	8.8567e-06	6.3264e-06	806.93	225.38	8.695e-06	5.0355e-06	344.94	184.39	98.717	52.152	9.4581e-06	107.56	0.00025105	7.3765e-05	2.0754e-05	571.25	8.0864e-07	8.153e-07	809.73	226.04	8.4225e-07	7.0487e-07	343.5	185.48	98.429	52.973	8.4694e-07	108.5	-11.599	-74.929	-60.017	-147.372	-13.873	-18.086	-147.758	-141.771	30.556	-1.340	-143.323	-138.801	-139.378	-133.622	-22.840	-135.847	-8191	255	
1165.687	1	1	0	0	0.20336	0.21287	0.2169	0.30704	0.19034	0.20469	0.16605	0.11549	0.23535	0.18044	0.25185	0.15269	0.077407	0.11586	0.028475	0.29998	-1.9479	-2.6021	-2.2396	-2.7	-2.425	-2.1125	-2.5792	-2.7354	-2.1979	-2.8187	-2.4479	-2.4708	-2.8854	-2.2729	-2.3375	-2.6771	-128.746	-119.697	-66.199	138.088	-67.999	133.002	-101.335	164.618	199.705	-135.958	-146.846	194.393	186.617	-114.907	-13.331	104.719	0.0021909	0.0005803	0.00016528	570.31	8.8071e-06	6.0425e-06	810.51	225.68	9.841e-06	6.8218e-06	353.35	197.19	105.86	56.894	7.4937e-06	116.42	0.00024251	6.7049e-05	1.8663e-05	567.4	7.5727e-07	6.824e-07	810.16	226.85	9.1712e-07	7.2028e-07	352.54	197.39	105.49	57.9	8.9498e-07	117.52	-12.058	-59.914	-55.186	-147.096	-9.667	-15.486	-147.834	-141.768	8.604	0.647	-143.150	-138.954	-139.416	-133.999	-28.952	-136.110	-8191	255	
1165.781	1	1	0	0	0.11144	0.075674	0.11359	0.04971	0.27392	0.039598	0.34981	0.10273	0.14663	0.071636	0.11292	0.4899	0.1416	0.17103	0.21223	0.31604	-1.7521	-2.6667	-2.3271	-2.4333	-2.5896	-2.4042	-2.5104	-2.7167	-2.2875	-2.8187	-2.6521	-2.2333	-2.7521	-2.2062	-2.4875	-2.8958	-84.651	-32.602	-159.016	171.007	181.193	-140.844	-58.710	144.646	-77.515	-117.386	-101.777	71.035	-132.903	192.454	167.660	137.017	0.0023456	0.00062045	0.00018853	563.77	8.5821e-06	6.5628e-06	804.11	231.88	1.0035e-05	4.7997e-06	363.65	211.3	114.03	61.85	9.5709e-06	124.19	0.00026002	6.9745e-05	2.0027e-05	562.92	8.2573e-07	7.8047e-07	804.59	232.4	9.3431e-07	7.4412e-07	362.64	211.3	113.78	62.792	8.7884e-07	125.7	-12.128	-71.231	-58.928	-147.273	-13.644	-11.119	-147.944	-141.764	22.158	16.972	-143.054	-138.820	-139.540	-134.293	-28.981	-136.260	-8191	255	
1165.879	1	1	0	0	0.068617	0.11931	0.16007	0.27426	0.1164	0.092662	0.16892	0.1128	0.077021	0.21407	0.072531	0.2124	0.15555	0.13762	0.10728	0.45297	-1.8896	-2.5396	-2.4729	-2.2	-2.7479	-2.15	-2.5667	-2.6521	-2.0958	-2.4625	-2.6583	-2.3208	-2.7729	-2.3375	-2.4313	-2.8333	-123.938	-43.856	118.794	124.155	-129.172	47.846	124.038	86.449	-114.307	-28.862	-83.297	105.195	-153.615	135.454	73.159	178.064	0.0025462	0.00061649	0.00015654	561.89	6.2941e-06	5.886e-06	804.21	230.95	9.9357e-06	5.6254e-06	350.84	196.2	103.28	55.646	1.012e-05	112.17	0.00027255	7.4516e-05	1.9494e-05	561.19	7.4107e-07	7.2157e-07	801.53	231.17	8.0673e-07	6.896e-07	350.21	196.35	103.1	56.512	7.8185e-07	113.44	-11.460	-65.183	-69.521	-147.066	0.236	-18.637	-148.031	-141.710	17.959	2.504	-143.201	-138.779	-139.232	-134.064	-25.904	-136.068	-8191	255	
1165.998	1	1	0	0	0.088898	0.033624	0.1052	0.34388	0.12902	0.23951	0.043165	0.30539	0.070014	0.16268	0.15536	0.29401	0.18813	0.013309	0.079131	0.45021	-1.6896	-2.4896	-2.3229	-2.3875	-2.6396	-2.2667	-2.4979	-2.6125	-2.1583	-2.5167	-2.4167	-2.3958	-2.6625	-2.4458	-2.3438	-2.9938	48.380	147.229	-85.444	173.098	-40.615	59.886	-149.106	141.088	39.023	58.558	138.518	173.869	171.213	126.574	-50.435	108.662	0.0023372	0.00053664	0.00014812	561.06	8.2403e-06	6.1444e-06	798.67	218.15	9.1468e-06	6.1474e-06	333.82	179.67	94.689	50.141	6.3977e-06	102.42	0.00024062	5.7077e-05	1.6028e-05	559.35	6.3488e-07	6.1575e-07	795.67	218.38	7.1786e-07	6.1097e-07	333.13	180.12	94.225	50.909	7.218e-07	103.21	-12.889	-75.376	-73.171	-147.307	-21.342	-7.998	-147.769	-141.911	16.128	-7.442	-143.312	-138.697	-139.566	-133.746	-34.877	-135.759	-8191	255	
1166.093	1	1	0	0	0.24016	0.15862	0.047258	0.171	0.20752	0.42968	0.22226	0.24177	0.093034	0.16109	0.2213	0.25743	0.14211	0.31761	0.48266	0.24237	-1.5417	-2.3708	-2.6271	-2.1333	-2.5583	-2.4167	-2.4062	-2.6875	-2.0625	-2.5375	-2.7583	-2.2917	-2.6625	-2.5833	-2.0812	-2.9062	-4.184	-34.424	-86.793	43.746	160.715	160.000	62.813	154.892	46.152	-8.475	97.535	53.918	65.475	-141.276	-113.880	127.045	0.0020397	0.0005364	0.00017732	563.16	6.5185e-06	6.7527e-06	786.98	209.64	9.1593e-06	5.3265e-06	322.33	168.9	88.865	46.506	5.7367e-06	95.984	0.00021852	5.4727e-05	1.5291e-05	558.9	6.4138e-07	6.0786e-07	786.09	210.25	7.2091e-07	6.1795e-07	322.06	168.96	88.763	47.105	7.4143e-07	97.028	-12.173	-76.617	-74.596	-147.221	-22.255	-11.177	-148.063	-141.918	24.023	-0.090	-143.318	-138.472	-139.187	-133.385	-22.554	-135.744	-8191	255	
1166.190	1	1	0	0	0.41692	0.18332	0.14072	0.24414	0.046255	0.20339	0.27337	0.20135	0.23048	0.10276	0.20252	0.084493	0.11636	0.36832	0.061969	0.29623	-1.8854	-2.3417	-2.5021	-2.3708	-2.3	-2.5208	-2.2479	-2.6063	-2.1083	-2.4479	-2.6542	-2.1688	-2.6833	-2.3104	-2.2021	-2.7042	59.480	107.693	171.157	42.723	-13.651	-112.496	-41.431	-137.300	-61.397	193.535	44.297	-35.057	199.910	190.662	199.563	156.293	0.0018945	0.00051052	0.00010288	556.6	7.8881e-06	3.5645e-06	777.54	206.37	7.5942e-06	4.3495e-06	315.87	160.33	83.699	43.538	5.596e-06	91.998	0.00020704	6.421e-05	1.5771e-05	553.39	6.8294e-07	5.8893e-07	778.83	205.5	6.8565e-07	5.6487e-07	313.42	160.42	83.487	44.12	7.2451e-07	92.567	-11.972	-63.164	-70.194	-147.528	-7.435	-34.644	-148.234	-141.797	17.169	-6.089	-143.604	-138.840	-138.971	-133.050	-32.698	-135.762	-8191	255	
1166.285	1	1	0	0	0.30856	0.1235	0.11968	0.059553	0.27897	0.069094	0.23786	0.14794	0.1752	0.034445	0.031095	0.12226	0.36284	0.19516	0.20571	0.14569	-1.6833	-2.3563	-2.6688	-2.0833	-2.4375	-2.5208	-2.1646	-2.7104	-2.2729	-2.3104	-2.7021	-2.0646	-2.3979	-2.6688	-2.1708	-2.8167	10.430	-146.173	-18.395	192.509	134.425	31.322	88.244	196.287	-72.512	-141.930	24.154	-86.661	184.437	-95.999	62.494	196.055	0.0018651	0.0005239	0.00013365	547.94	6.9328e-06	4.5839e-06	777.21	198.53	7.5589e-06	4.8203e-06	308.73	156.75	81.115	42.177	7.7485e-06	90.565	0.00020166	5.6361e-05	1.5187e-05	545.9	6.6344e-07	6.03e-07	772.49	199.38	6.5458e-07	5.6975e-07	307.53	156.7	80.777	42.916	6.9687e-07	91.465	-12.149	-81.654	-66.074	-147.345	-3.470	-9.961	-148.168	-142.095	25.513	1.669	-143.462	-138.545	-138.670	-133.157	-27.291	-135.511	-8191	255	
1166.381	1	1	0	0	0.17884	0.2103	0.17754	0.20899	0.23386	0.1544	0.21873	0.054448	0.2156	0.12044	0.097528	0.11095	0.21535	0.27146	0.29949	0.090502	-2.0083	-2.3479	-2.5708	-2.4354	-2.3875	-2.8375	-2.0687	-2.6562	-2.3312	-2.3229	-2.7708	-2.2583	-2.6125	-2.5667	-2.1917	-2.9688	-15.833	128.217	31.129	91.430	132.842	-111.864	161.888	58.684	174.156	153.368	-125.557	-132.366	51.784	115.047	-105.468	147.620	0.0018446	0.00055053	0.00014474	542.11	7.8531e-06	5.1963e-06	773.26	198.31	8.5011e-06	4.264e-06	309.68	159.04	82.564	43.45	7.6874e-06	93.588	0.00019664	5.7673e-05	1.3596e-05	540.67	6.3016e-07	5.3871e-07	771.75	198.93	6.3331e-07	5.6026e-07	308.72	159.5	82.069	44.116	6.5361e-07	94.422	-10.807	-68.491	-64.960	-147.635	-17.400	-20.958	-148.080	-142.094	21.414	-22.051	-143.588	-138.584	-139.273	-133.611	-35.689	-135.458	-8191	255	
1166.502	1	1	0	0	0.088701	0.23283	0.20223	0.15783	0.22069	0.35474	0.21037	0.41312	0.15568	0.20043	0.088109	0.28587	0.14132	0.23452	0.16906	0.38357	-2.0854	-2.1354	-2.6479	-2.325	-2.4771	-2.6	-2.1375	-2.4458	-2.5125	-2.1708	-2.8958	-2.4458	-2.1437	-2.6813	-2.1667	-2.5354	-88.673	47.243	44.021	48.780	58.260	38.301	117.815	-99.049	-76.696	49.177	164.617	149.294	-35.919	151.741	-132.040	145.786	0.0019153	0.00049847	0.00012324	548.75	6.0584e-06	4.5471e-06	784.21	201.18	1.1128e-05	3.6007e-06	312.8	159.32	81.099	43.405	7.5965e-06	94.718	0.00020083	5.19e-05	1.5247e-05	546.32	5.8771e-07	5.0164e-07	780.58	200.45	6.4987e-07	5.467e-07	311.94	159.92	80.806	44.033	6.4108e-07	95.767	-11.752	-57.488	-65.797	-147.615	-3.630	-20.191	-148.354	-142.367	21.181	-4.423	-143.671	-138.465	-139.030	-133.318	-22.264	-135.544	-8191	255	
1166.598	1	1	0	0	0.28989	0.41778	0.25209	0.22335	0.20365	0.24167	0.41566	0.19802	0.042773	0.04478	0.18515	0.21803	0.12519	0.13272	0.058971	0.071906	-2.0292	-2.3083	-2.5062	-2.1354	-2.075	-2.7812	-2.2438	-2.4667	-2.7604	-2.225	-2.5271	-2.475	-2.3479	-2.7687	-2.1625	-2.5708	192.114	-100.020	-25.663	104.140	16.754	86.005	152.365	-73.469	105.229	4.972	135.014	183.238	163.314	-105.516	-130.197	-3.886	0.0018823	0.00057044	0.00015002	554.56	6.0316e-06	5.2771e-06	790.8	203.07	8.7082e-06	4.1742e-06	315.29	161.8	81.697	43.592	7.9464e-06	95.702	0.00020181	5.5729e-05	1.3866e-05	550.78	6.1665e-07	4.9704e-07	786.97	202.47	6.1829e-07	5.4354e-07	315.15	161.95	81.362	44.255	6.4444e-07	96.653	-11.368	-54.220	-68.517	-147.711	-13.857	0.493	-148.007	-142.600	25.418	8.215	-143.571	-138.580	-139.307	-133.356	-25.281	-135.746	-8191	255	
1166.694	1	1	0	0	0.18521	0.19086	0.33989	0.22652	0.17417	0.24267	0.23533	0.41216	0.24636	0.10193	0.069309	0.20044	0.16917	0.1614	0.1121	0.32784	-2.2812	-1.8979	-2.6833	-2.4542	-2.1	-2.7375	-2.4688	-2.4208	-2.4958	-2.1021	-2.6271	-2.5479	-2.0708	-2.9083	-2.2729	-2.3021	176.178	-46.543	42.574	161.151	171.112	-93.124	101.560	191.563	-54.952	-89.198	-154.373	192.747	165.691	-150.642	-90.595	159.189	0.0019504	0.00051162	0.00014881	553.15	6.3227e-06	6.2157e-06	793.17	200.34	9.985e-06	4.7293e-06	311.06	159.02	79.38	42.788	6.7734e-06	94.355	0.00020221	5.3248e-05	1.3016e-05	550.32	5.7509e-07	5.09e-07	786.6	200.32	6.2275e-07	5.3761e-07	311.31	159.34	79.528	43.428	6.2804e-07	95.318	-12.618	-82.475	-56.129	-147.905	-24.242	-23.990	-148.228	-142.686	27.095	-2.474	-143.682	-138.810	-139.382	-133.180	-30.909	-135.590	-8191	255	
1166.790	1	1	0	0	0.081204	0.063377	0.39745	0.26518	0.23093	0.23174	0.16819	0.13031	0.15366	0.27157	0.11525	0.19538	0.13811	0.2752	0.25602	0.072991	-2.0708	-2.075	-2.3167	-2.4521	-2.1125	-2.5667	-2.2021	-2.4104	-2.6937	-2.0729	-2.6771	-2.575	-2.2229	-2.6583	-2.1542	-2.4208	30.959	-154.607	94.937	-119.619	-109.348	-44.261	190.991	178.951	56.663	95.589	-19.874	-136.862	-12.638	168.644	-55.338	170.552	0.0019451	0.00049077	0.00012994	548.64	5.5968e-06	5.9075e-06	778.67	196.91	6.6085e-06	4.2283e-06	307.43	156.84	78.435	42.337	7.8518e-06	93.14	0.00019815	4.9836e-05	1.3089e-05	545.86	5.9421e-07	5.0598e-07	776.17	196.91	6.1549e-07	5.0771e-07	306.8	156.96	78.362	42.829	6.1319e-07	94.139	-12.423	-83.456	-57.583	-147.823	-15.152	-23.103	-148.041	-142.526	24.185	-7.098	-143.852	-138.771	-139.221	-133.272	-29.975	-135.492	-8191	255	
1166.886	1	1	0	0	0.14155	0.18548	0.07782	0.18594	0.1847	0.21283	0.097451	0.24794	0.20534	0.19813	0.33531	0.236	0.13633	0.24143	0.30021	0.079308	-2.2479	-2.0187	-2.3208	-2.7042	-2.1458	-2.6021	-2.5083	-2.2708	-2.7104	-2.075	-2.4229	-2.6854	-2.0396	-2.5417	-2.2354	-2.3458	-14.469	75.457	59.763	-145.620	111.634	-54.856	189.827	-77.623	-41.701	87.105	-159.557	-98.544	-38.170	172.244	-97.035	180.677	0.0018379	0.00041019	0.00015378	543.42	6.2364e-06	4.163e-06	774.45	196.55	6.655e-06	5.0161e-06	308.69	158.52	79.83	43.039	8.6651e-06	95.538	0.00019663	4.9359e-05	1.2712e-05	541.52	5.858e-07	4.8942e-07	773.72	196.65	5.8213e-07	5.4973e-07	307.86	159.15	79.593	43.804	6.3295e-07	96.435	-10.569	-74.050	-68.751	-147.443	-22.217	-17.430	-148.046	-142.636	33.563	-4.117	-143.669	-138.576	-139.620	-133.312	-33.981	-135.661	-8191	255	
1166.982	1	1	0	0	0.15556	0.20482	0.15857	0.14982	0.1288	0.29295	0.041215	0.16042	0.054683	0.28776	0.080021	0.18718	0.067773	0.31435	0.047155	0.058221	-2.0812	-2.3479	-2.4583	-2.3917	-2.1063	-2.6333	-2.2042	-2.1083	-2.7125	-2.2125	-2.1625	-2.8021	-2.0938	-2.4979	-2.4354	-2.4688	130.185	-130.712	-100.037	165.379	141.735	47.280	70.784	48.296	137.922	130.432	3.350	-107.947	171.493	123.111	42.343	63.797	0.0019279	0.0005038	0.00014958	543.91	7.2176e-06	5.6882e-06	770.72	197.6	8.1063e-06	4.3312e-06	310.41	160.07	80.023	44.019	5.8081e-06	97.644	0.00020208	5.1995e-05	1.4497e-05	543.11	5.9115e-07	5.0756e-07	772.71	197.66	5.8939e-07	5.1311e-07	309.9	160.47	79.841	44.729	6.1913e-07	98.287	-10.888	-64.330	-41.267	-147.568	-11.965	-9.452	-148.279	-142.343	11.846	-12.130	-143.811	-138.854	-139.147	-133.217	-41.016	-135.780	-8191	255	
1167.079	1	1	0	0	0.11784	0.11721	0.051035	0.26478	0.22566	0.1151	0.12716	0.073459	0.31372	0.15625	0.16081	0.11515	0.14771	0.15987	0.096411	0.25391	-2.4271	-2.1083	-2.3063	-2.6667	-2.1396	-2.5917	-2.5125	-2.2979	-2.5646	-2.4125	-2.4	-2.7292	-2.0875	-2.4062	-2.6854	-2.1771	148.925	-56.943	-17.227	129.562	-46.351	67.065	114.177	130.483	12.827	143.484	-150.106	-96.265	-56.952	-122.512	-46.821	138.969	0.0019867	0.00045887	0.00013132	544.4	6.9111e-06	5.7249e-06	778.12	198.09	8.583e-06	5.6808e-06	311.07	159.94	80.14	43.963	6.638e-06	96.938	0.00020386	5.0361e-05	1.4664e-05	543.26	6.1321e-07	5.1071e-07	774.12	198.16	6.1498e-07	5.0297e-07	309.62	160.2	79.877	44.54	6.0402e-07	97.793	-12.140	-75.296	-77.888	-147.565	-9.780	-12.490	-148.131	-142.681	24.576	-9.884	-143.629	-138.942	-139.200	-133.261	-33.391	-135.608	-8191	255	
1167.175	1	1	0	0	0.095502	0.12394	0.26409	0.17077	0.12136	0.098693	0.093387	0.24543	0.13813	0.35254	0.19081	0.088127	0.23409	0.36228	0.086138	0.079673	-2.35	-2.5083	-2.2146	-2.4896	-2.2333	-2.525	-2.6271	-2.1562	-2.6333	-2.475	-2.1312	-2.8271	-2.2771	-2.4521	-2.6188	-2.4313	91.403	-151.054	26.443	192.012	140.621	138.403	12.490	-124.967	192.078	-24.338	40.488	-14.604	59.083	159.529	-47.306	128.240	0.0020025	0.00050872	0.00013986	541	6.9981e-06	5.3871e-06	771.29	196	7.1776e-06	5.4455e-06	305.61	157.37	78.431	42.817	6.8486e-06	94.464	0.00020234	5.0194e-05	1.441e-05	540.28	5.7114e-07	5.5449e-07	767.64	195.38	5.7029e-07	4.9942e-07	304.89	156.98	78.195	43.463	6.0466e-07	95.591	-11.155	-75.948	-69.084	-147.782	-24.648	-27.374	-148.061	-142.814	3.799	-2.418	-143.460	-138.771	-139.251	-133.280	-28.744	-135.559	-8191	255	
1167.294	1	1	0	0	0.15529	0.16618	0.25753	0.30878	0.22214	0.21485	0.049428	0.088359	0.23409	0.042734	0.09533	0.24987	0.16978	0.12512	0.12764	0.2332	-2.0458	-2.2708	-2.1854	-2.6958	-1.9896	-2.3104	-2.8167	-2.1562	-2.4729	-2.3667	-2.0958	-2.7333	-2.3354	-2.2833	-2.55	-2.5458	-75.444	5.886	-140.117	163.825	189.787	-159.004	-88.715	131.196	186.354	78.649	5.986	175.758	95.830	183.928	122.588	153.709	0.0019227	0.00052833	0.00016648	538.12	5.8122e-06	4.8598e-06	764.94	193.39	6.9013e-06	3.107e-06	303.89	157.79	78.413	43.039	6.0448e-06	95.755	0.00019795	4.8214e-05	1.3676e-05	535.76	5.6451e-07	5.0375e-07	760.93	193.23	5.7946e-07	4.5253e-07	302.58	157.85	78.254	43.634	5.9239e-07	96.617	-11.584	-73.471	-60.420	-147.757	-25.809	-14.676	-148.178	-142.470	24.946	-14.866	-143.764	-138.854	-139.189	-133.380	-33.477	-135.826	-8191	255	
1167.390	1	1	0	0	0.18889	0.11427	0.16871	0.084924	0.34546	0.36513	0.1047	0.019056	0.15334	0.080272	0.10294	0.2787	0.12749	0.065818	0.10935	0.034484	-2.1875	-2.4562	-2.1437	-2.8021	-2.3625	-2.1479	-2.6042	-2.175	-2.3812	-2.4792	-2.1979	-2.6312	-2.1771	-2.3458	-2.7313	-2.3229	-137.743	104.438	166.989	171.760	-93.433	136.384	62.705	89.202	-121.165	-97.930	132.746	-154.969	155.141	93.559	110.345	-55.351	0.0019591	0.00058634	0.00015141	546.88	7.0678e-06	4.6337e-06	775.38	198.49	8.7503e-06	5.0738e-06	309.15	161.94	80.97	44.449	6.3204e-06	97.861	0.00019977	4.5757e-05	1.3276e-05	543.77	5.5469e-07	5.1137e-07	773.11	198.56	6.1498e-07	4.8941e-07	309.57	162.31	80.511	44.909	5.8309e-07	98.849	-11.974	-71.932	-69.896	-147.743	-15.603	-28.514	-147.933	-142.547	26.887	-10.610	-143.770	-138.844	-139.379	-133.502	-26.994	-135.804	-8191	255	
1167.486	1	1	0	0	0.27812	0.11015	0.47382	0.24739	0.048363	0.12673	0.44238	0.11412	0.12	0.24795	0.34439	0.30565	0.089916	0.23947	0.1531	0.18903	-1.9729	-2.3583	-2.2021	-2.6833	-2.3667	-2.2167	-2.8292	-2.4479	-2.4167	-2.4771	-2.1125	-2.75	-2.3667	-2.2167	-2.7792	-2.3396	157.233	143.341	183.577	138.777	-94.271	-49.344	102.610	53.679	-115.863	68.594	184.806	145.037	147.363	96.831	-132.274	86.941	0.0019857	0.00045365	0.00014406	574.43	6.7639e-06	5.2909e-06	805.56	203.11	9.7359e-06	4.8202e-06	314.02	163.54	80.553	44.563	6.41e-06	98.475	0.00020441	4.9538e-05	1.3429e-05	572.02	5.5405e-07	5.1479e-07	803.47	203.09	6.1714e-07	4.4963e-07	314.06	163.3	80.775	45.165	5.7444e-07	99.45	-11.487	-73.165	-71.511	-147.691	-10.915	-25.739	-148.243	-142.362	9.850	4.365	-143.660	-138.545	-139.208	-133.316	-20.579	-135.637	-8191	255	
1167.582	1	1	0	0	0.26116	0.090472	0.3002	0.13493	0.056282	0.22258	0.12733	0.10594	0.16915	0.087828	0.28223	0.09733	0.04622	0.26617	0.22708	0.14789	-2.2313	-2.5896	-2.2146	-2.4729	-2.2646	-2.4479	-2.5479	-2.4146	-2.2479	-2.7021	-2.175	-2.5646	-2.2875	-2.0917	-2.5958	-2.3375	-10.256	28.723	160.548	129.082	150.536	104.043	-154.441	-107.803	-38.984	-53.325	-135.633	-97.864	166.138	127.907	180.287	120.236	0.0020304	0.00061732	0.00015206	583.52	7.4061e-06	6.9596e-06	820.14	203.31	7.4738e-06	4.0062e-06	313.58	161.91	80.32	43.949	7.709e-06	96.37	0.00020806	4.6998e-05	1.3586e-05	580.78	5.5711e-07	5.0914e-07	818.85	203.72	5.8073e-07	4.603e-07	313.38	161.68	80.061	44.453	5.7715e-07	97.457	-11.926	-74.179	-52.435	-147.833	-11.954	-15.696	-148.249	-142.621	12.568	10.258	-143.559	-138.664	-139.334	-133.490	-35.157	-135.507	-8191	255	
1167.678	1	1	0	0	0.11171	0.16585	0.17652	0.076957	0.29525	0.063358	0.25172	0.058521	0.24022	0.22227	0.18042	0.27592	0.067461	0.27355	0.071306	0.14982	-1.8896	-2.4833	-2.0542	-2.7062	-2.475	-2.2188	-2.9042	-2.2562	-2.2479	-2.7458	-2.2854	-2.4042	-2.675	-2.2125	-2.6771	-2.5375	119.380	-71.961	-93.807	196.926	-99.490	88.833	73.278	26.211	-104.967	-65.189	-141.842	197.324	132.655	169.637	4.010	76.500	0.0019213	0.00049535	0.0001527	593.42	6.2291e-06	5.3807e-06	836.19	205.39	8.9413e-06	5.9931e-06	314.54	161.62	81.2	43.884	7.7957e-06	96.149	0.00019937	4.355e-05	1.3476e-05	589.88	5.6553e-07	5.1518e-07	834.85	205.55	6.1434e-07	4.7229e-07	313.9	161.53	80.782	44.32	5.6424e-07	97.072	-12.160	-69.753	-75.737	-147.926	-11.968	-17.320	-148.364	-142.535	23.367	-5.178	-144.089	-138.607	-139.447	-133.328	-31.159	-135.742	-8191	255	
1167.774	1	1	0	0	0.091967	0.067467	0.21379	0.065697	0.059921	0.017149	0.28011	0.1009	0.18154	0.19941	0.13231	0.26208	0.12176	0.34126	0.34312	0.27204	-1.8083	-2.4708	-2.2687	-2.4792	-2.5812	-2.0854	-2.4938	-2.6208	-2.25	-2.6	-2.2875	-2.4479	-2.6208	-1.9625	-2.4333	-2.6125	161.487	24.260	95.824	100.690	61.565	120.013	134.175	81.057	76.118	-3.762	-10.156	-150.993	-51.109	157.564	175.750	134.753	0.0019207	0.00052479	0.0001738	591.59	6.3779e-06	4.7492e-06	840.89	205.08	8.6941e-06	5.4521e-06	312.46	160.27	79.451	43.421	8.3724e-06	95.818	0.00019544	4.4111e-05	1.3603e-05	590.68	5.4194e-07	4.9415e-07	838.63	205.15	5.9283e-07	4.8585e-07	312.03	160.42	79.301	43.9	5.8516e-07	96.585	-11.370	-69.393	-57.275	-147.896	-3.677	-27.495	-148.650	-142.668	16.164	4.129	-143.929	-138.691	-139.312	-133.296	-29.549	-135.587	-8191	255	
1167.870	1	1	0	0	0.10548	0.16589	0.14407	0.13637	0.083277	0.20838	0.077292	0.059327	0.18393	0.15968	0.23364	0.24454	0.22986	0.16548	0.20261	0.067879	-1.7938	-2.6833	-2.2687	-2.3354	-2.9125	-2.0896	-2.5021	-2.4792	-2.0396	-2.6083	-2.3896	-2.4771	-2.5333	-2.1417	-2.3667	-2.6708	43.523	47.905	54.930	163.806	79.994	160.164	127.103	-147.079	148.421	114.943	-146.006	153.396	65.335	181.186	-158.500	-124.157	0.001971	0.00049798	0.00016791	593.24	5.9596e-06	5.2657e-06	840.65	203.98	8.011e-06	5.5996e-06	312.98	159.55	79.249	42.999	7.1123e-06	95.807	0.00020038	4.584e-05	1.395e-05	590.2	5.2932e-07	5.1321e-07	838.85	204.57	5.9703e-07	4.8269e-07	312.39	159.84	78.831	43.678	5.9898e-07	96.679	-11.317	-78.426	-71.015	-147.850	-21.414	-5.764	-148.332	-142.558	14.165	3.197	-143.909	-138.713	-139.243	-133.387	-34.122	-135.618	-8191	255	
1167.991	1	1	0	0	0.12876	0.097744	0.14284	0.29059	0.15292	0.21724	0.065574	0.099196	0.31062	0.18409	0.07649	0.1611	0.16898	0.10042	0.070792	0.2493	-1.7687	-2.2292	-2.3521	-2.3583	-2.6771	-2.1667	-2.5062	-2.5312	-2.1417	-2.5125	-2.3	-2.2521	-2.6896	-2.2396	-2.2333	-2.6437	16.905	2.611	80.478	120.156	150.059	86.197	147.290	186.281	-59.774	93.347	13.715	124.296	-158.286	-114.419	-144.831	142.502	0.0019567	0.00049398	0.0001653	597.29	5.6171e-06	4.5305e-06	844.93	204.44	6.8955e-06	5.0896e-06	311.58	159.44	79.667	43.25	6.9467e-06	95.991	0.00020166	4.5029e-05	1.3413e-05	594.59	5.1632e-07	4.8508e-07	842.68	204.96	5.9015e-07	4.7993e-07	311.78	159.5	79.312	43.867	5.8232e-07	96.943	-12.235	-68.097	-61.497	-147.830	-33.725	-20.881	-148.195	-142.807	18.535	-1.935	-144.029	-138.731	-139.528	-133.387	-33.666	-135.552	-8191	255	
1168.085	1	1	0	0	0.16249	0.064135	0.096325	0.23851	0.06142	0.38335	0.16705	0.17161	0.099773	0.16455	0.083971	0.14067	0.082039	0.12641	0.26965	0.43509	-1.9896	-2.3792	-2.2083	-2.1688	-2.8417	-2.1604	-2.3958	-2.5687	-1.8917	-2.2792	-2.0812	-1.9667	-2.4813	-2.1021	-2.0646	-2.7167	-17.634	78.331	62.255	-121.136	-53.081	-31.635	94.925	150.854	-93.235	-39.347	97.605	112.924	24.364	-92.811	161.283	141.169	0.0018562	0.00053164	0.00016176	590.94	6.9027e-06	5.4701e-06	838.08	204.31	8.8725e-06	4.7277e-06	311.56	159.37	78.464	43.143	5.7025e-06	95.979	0.00020021	4.8035e-05	1.3433e-05	588.25	5.4564e-07	4.7706e-07	833.47	204.4	6.4503e-07	4.765e-07	311.4	159.07	78.562	43.865	5.973e-07	96.847	-10.278	-63.894	-61.032	-147.866	-7.892	-24.371	-148.090	-142.587	15.169	3.438	-144.050	-138.900	-139.211	-133.281	-26.697	-135.469	-8191	255	
1168.183	1	1	0	0	0.21391	0.17956	0.17886	0.21276	0.12292	0.18171	0.15706	0.19134	0.075953	0.26426	0.15269	0.3006	0.20407	0.25869	0.13899	0.36104	-1.5292	-1.9625	-2.0563	-1.9667	-2.4667	-2.2958	-2.0396	-2.4021	-1.9375	-2.1396	-2.4979	-1.8896	-2.3	-2.1542	-2.1667	-2.4146	157.198	158.023	-128.683	-152.765	110.337	-72.288	76.993	41.009	174.606	40.450	-123.280	56.378	21.211	-156.622	149.588	128.425	0.0019899	0.00053594	0.00014792	590.91	5.8661e-06	5.9616e-06	833.08	204.93	9.3632e-06	5.5396e-06	311.44	157.09	78.111	42.817	7.7628e-06	95.707	0.00020308	4.726e-05	1.2889e-05	587.97	5.4653e-07	5.0874e-07	831.62	204.35	6.2529e-07	5.0205e-07	311.07	158.1	78.027	43.477	6.2481e-07	96.613	-12.427	-69.306	-70.428	-147.838	-18.921	-7.646	-148.471	-142.747	19.919	1.248	-143.745	-138.564	-139.189	-133.186	-27.844	-135.755	-8191	255	
1168.278	1	1	0	0	0.43032	0.25272	0.066217	0.38887	0.27294	0.20099	0.046984	0.22725	0.20208	0.09953	0.11818	0.20139	0.18999	0.14977	0.29063	0.53435	-1.6854	-2.3	-2.2625	-1.8583	-2.3812	-2.0958	-1.9813	-2.225	-2.0271	-2.1896	-2.5062	-1.8417	-2.3875	-2.2958	-1.9688	-2.5708	28.079	-124.649	48.601	-133.308	-105.806	-61.887	186.992	146.758	-111.478	189.341	59.801	98.827	-115.812	154.429	70.313	114.667	0.0019616	0.00040474	0.00016592	589.64	6.8914e-06	5.4246e-06	837.25	203.95	8.3906e-06	3.3994e-06	313.51	157.56	78.245	42.631	7.3086e-06	95.722	0.00020154	4.5387e-05	1.3433e-05	588.63	5.6795e-07	5.044e-07	834.77	203.97	6.3026e-07	5.0969e-07	311.73	157.86	77.916	43.171	6.6924e-07	96.673	-11.318	-76.634	-47.878	-147.794	-17.534	-7.170	-148.439	-142.762	22.374	-10.076	-143.853	-138.695	-139.162	-133.363	-27.800	-135.271	-8191	255	
1168.374	1	1	0	0	0.039075	0.17004	0.18147	0.16871	0.14689	0.17439	0.40867	0.32823	0.024461	0.081913	0.14793	0.091406	0.21326	0.054354	0.11599	0.2033	-1.6354	-1.8896	-2.2687	-1.9792	-2.425	-2.2562	-1.9562	-2.5771	-2.2375	-1.8875	-2.5417	-1.9188	-2.2708	-2.1437	-2.0729	-2.575	45.795	-105.451	-114.751	158.177	180.035	86.226	81.834	95.595	-28.422	21.190	-5.078	112.204	97.428	196.474	117.878	136.421	0.0019113	0.00047723	0.00016631	592.25	7.3969e-06	5.1617e-06	844.59	205.21	7.286e-06	4.7877e-06	313.58	157.39	78.585	42.681	7.0051e-06	95.944	0.00020205	5.0051e-05	1.3316e-05	590.37	5.3748e-07	5.0177e-07	838.73	204.78	6.0976e-07	5.0692e-07	313.71	158.02	77.795	43.373	6.2442e-07	97.114	-10.226	-69.398	-64.368	-148.175	-18.419	-8.779	-148.250	-142.625	4.266	-17.873	-143.859	-138.764	-139.481	-133.371	-35.607	-135.502	-8191	255	
1168.470	1	1	0	0	0.20787	0.2775	0.22456	0.14954	0.35507	0.15862	0.29849	0.076523	0.10915	0.12328	0.053412	0.23591	0.1107	0.20654	0.052416	0.10803	-1.5812	-1.9271	-2.3187	-1.9417	-2.0625	-2.2792	-2.0438	-2.5792	-2.0896	-2.1875	-2.4875	-2.0896	-2.2708	-2.5521	-1.7708	-2.6333	-144.985	184.234	185.419	73.024	-118.648	34.828	121.104	71.609	97.596	-150.397	191.064	21.034	142.236	147.509	-95.444	71.436	0.0019423	0.0004427	0.0001601	594.15	8.4373e-06	5.0981e-06	837.18	205.93	7.4577e-06	4.4462e-06	316.1	157.77	78.428	42.85	8.9936e-06	96.374	0.00019798	4.6842e-05	1.2532e-05	590.18	5.6489e-07	4.9231e-07	837.23	205.93	5.955e-07	5.0995e-07	315.19	158.18	77.923	43.436	6.2649e-07	97.12	-11.323	-71.171	-56.658	-147.713	-16.635	-21.269	-148.451	-142.960	20.538	-2.020	-143.481	-138.758	-139.423	-133.268	-26.295	-135.558	-8191	255	
1168.566	1	1	0	0	0.13531	0.18882	0.087912	0.053306	0.1227	0.47677	0.072358	0.321	0.30285	0.17677	0.12977	0.21275	0.080489	0.16669	0.080987	0.34895	-1.8604	-1.9021	-2.4042	-2.125	-2.1813	-2.25	-1.9021	-2.3104	-2.4062	-2.1	-2.4083	-2.1729	-2.0938	-2.4271	-1.8	-2.3104	187.467	182.011	-82.794	101.264	-80.096	-148.465	187.217	146.402	177.078	41.838	18.611	178.770	57.257	152.114	-88.668	110.349	0.0019754	0.00044797	0.00017126	604.64	5.3949e-06	4.3468e-06	851.25	207	8.2196e-06	5.1722e-06	317.11	158.45	78.65	42.842	9.3619e-06	96.14	0.00019904	4.9908e-05	1.2766e-05	600.41	5.8707e-07	4.6865e-07	848.72	207.7	6.2275e-07	5.1285e-07	316.83	158.9	78.286	43.443	6.2236e-07	96.879	-11.373	-80.316	-62.892	-148.034	-16.374	-8.345	-148.295	-142.764	21.586	-11.082	-144.035	-138.873	-139.618	-133.284	-34.901	-135.470	-8191	255	
1168.687	1	1	0	0	0.34126	0.2358	0.23187	0.17181	0.11156	0.32187	0.21308	0.14496	0.155	0.23157	0.16374	0.3397	0.10391	0.17814	0.33387	0.11441	-1.7375	-1.8083	-2.3146	-2.1896	-1.9958	-2.4208	-1.9833	-2.2854	-2.4792	-1.9958	-2.4729	-2.1875	-2.2417	-2.5125	-1.9	-2.2479	148.964	6.300	18.396	98.755	-73.415	28.635	113.133	195.096	-126.410	-105.897	13.093	-140.912	-124.747	-91.687	-15.295	103.839	0.0019469	0.00057865	0.00016598	600.17	6.6001e-06	4.963e-06	849.81	206.63	8.8096e-06	3.3337e-06	317.65	158.32	78.101	42.4	7.2625e-06	96.1	0.00019919	4.9562e-05	1.2492e-05	596.8	5.5291e-07	4.4656e-07	845.4	205.97	5.7806e-07	4.9494e-07	315.92	158.28	77.673	43.22	6.1357e-07	97.037	-11.319	-69.066	-57.190	-148.068	-17.447	-25.211	-148.202	-142.837	19.547	1.023	-143.893	-138.714	-139.807	-133.113	-29.590	-135.420	-8191	255	
1168.759	1	1	0	0	0.18218	0.26313	0.219	0.20503	0.22648	0.11516	0.21417	0.081765	0.16822	0.34468	0.19311	0.15788	0.062067	0.10914	0.091663	0.22751	-1.7833	-1.9438	-2.2542	-2.175	-1.9458	-2.3812	-2.0729	-2.1083	-2.325	-1.8771	-2.4417	-2.2667	-2.0646	-2.4208	-1.8417	-2.4458	-110.950	-77.381	21.954	-126.785	-51.773	129.436	-6.950	67.520	34.838	-25.150	-112.232	160.417	-155.558	97.752	150.364	145.967	0.0019674	0.00041549	0.00012169	596.19	7.7012e-06	5.2051e-06	846.07	205.08	9.0655e-06	3.7931e-06	315.75	156.85	76.801	41.555	5.4499e-06	94.006	0.00020115	4.9836e-05	1.2886e-05	593.61	5.909e-07	4.7969e-07	842.08	204.94	5.82e-07	5.1219e-07	314	157.29	76.612	42.175	5.7651e-07	94.663	-11.387	-64.311	-67.415	-147.934	-4.558	-21.883	-148.365	-142.567	23.526	-6.207	-143.709	-138.553	-139.580	-133.421	-35.765	-135.603	-8191	255	
1168.855	1	1	0	0	0.21975	0.071036	0.39782	0.029615	0.19918	0.25008	0.097372	0.11341	0.183	0.21094	0.078549	0.18868	0.26537	0.2602	0.20601	0.23265	-1.7667	-1.675	-2.3104	-2.2958	-2.1646	-2.3604	-2.2604	-2.2667	-2.0208	-2.0021	-2.2604	-2.1875	-2.0979	-2.6688	-1.875	-2.1021	158.484	-147.625	93.020	16.391	169.164	-86.902	-84.786	24.228	102.086	125.097	165.622	164.480	194.463	-126.453	-105.742	143.797	0.0019773	0.00042592	0.00017627	586.08	6.664e-06	5.8798e-06	827.53	199.5	8.4695e-06	5.5164e-06	309.11	154.89	75.55	40.861	7.3917e-06	92.846	0.00019908	4.8286e-05	1.3102e-05	583.17	5.8988e-07	4.906e-07	827.29	199.32	6.0632e-07	4.8849e-07	308.16	154.64	75.287	41.519	5.8878e-07	93.495	-11.510	-85.565	-65.242	-148.030	-23.244	-24.381	-148.302	-142.683	22.653	-16.189	-143.994	-138.685	-139.440	-133.497	-44.745	-135.665	-8191	255	
1168.951	1	1	0	0	0.15306	0.070288	0.1131	0.1786	0.28519	0.13451	0.32865	0.13929	0.16236	0.16271	0.048734	0.23768	0.15797	0.15291	0.26977	0.35127	-2.0854	-1.7375	-2.1188	-2.3208	-1.8021	-2.3604	-2.3146	-2.0167	-2.2333	-2.0083	-2.4417	-2.5021	-1.7875	-2.4646	-2.1063	-2.0375	-19.214	97.638	100.081	-144.695	-118.022	-145.280	34.689	-129.122	195.280	102.918	-78.097	196.311	-108.393	112.200	184.964	127.785	0.0019103	0.00051867	0.00012419	579.52	6.6428e-06	5.1015e-06	822.02	197.6	7.4882e-06	5.7065e-06	308.33	154.85	75.643	40.918	5.8992e-06	91.327	0.00019707	5.1256e-05	1.2429e-05	576.2	5.7802e-07	5.0769e-07	819.87	197.96	6.0327e-07	5.1061e-07	306.69	155.3	75.467	41.358	5.8826e-07	92.4	-11.787	-61.735	-70.074	-147.988	-28.222	-9.481	-148.363	-142.832	8.535	-1.856	-143.879	-138.881	-139.446	-133.489	-28.338	-135.487	-8191	255	
1169.071	1	1	0	0	0.21599	0.10578	0.10627	0.21815	0.23812	0.16007	0.15179	0.036872	0.2054	0.19991	0.19892	0.37862	0.10265	0.21098	0.056287	0.12629	-1.9875	-1.9	-2.4	-2.2604	-1.8917	-2.5375	-2.3979	-2.0229	-2.2854	-2.0958	-2.5125	-2.4354	-1.8979	-2.4646	-1.9875	-2.0917	88.384	51.622	183.843	-93.353	11.570	-118.500	134.518	49.204	7.629	34.178	-68.893	178.790	-103.242	160.454	-96.801	142.620	0.0018662	0.00050882	0.00013761	576.65	5.5717e-06	4.764e-06	823.75	195.36	8.4375e-06	4.4041e-06	303.82	153.03	74.39	39.77	7.4191e-06	89.955	0.00019149	4.9968e-05	1.3316e-05	574.39	5.8567e-07	4.8442e-07	818	195.25	5.8175e-07	5.0653e-07	304.46	153.39	74.18	40.365	5.6062e-07	90.91	-11.287	-68.119	-71.594	-148.004	-11.653	-13.910	-148.482	-142.675	21.827	-2.654	-143.654	-138.810	-139.450	-133.365	-37.308	-135.433	-8191	255	
1169.166	1	1	0	0	0.2614	0.01539	0.23921	0.21581	0.20505	0.25967	0.16632	0.17129	0.35284	0.077493	0.2788	0.26204	0.20088	0.27062	0.045308	0.30262	-1.8104	-2.1146	-2.2	-2.4104	-1.7271	-2.3063	-2.4229	-2.0104	-2.4708	-2.2562	-2.3937	-2.475	-2.1521	-2.2854	-2.1	-1.9688	166.287	-149.524	192.960	-131.582	99.531	11.488	156.010	-65.703	120.349	-122.440	102.915	176.947	165.268	-157.411	13.144	153.203	0.001832	0.00041075	0.00014917	566.46	8.3045e-06	4.1121e-06	816.44	190.37	8.8773e-06	3.3907e-06	297.62	147.93	71.378	37.287	6.4722e-06	85.036	0.00018971	5.0516e-05	1.3723e-05	565.83	6.039e-07	5.0808e-07	811.53	190.27	5.913e-07	4.8216e-07	296.43	148.06	71.032	37.778	6.1215e-07	85.834	-10.966	-83.729	-65.420	-148.178	-6.451	-7.383	-148.590	-142.575	17.456	-11.906	-143.641	-138.729	-139.107	-133.300	-16.033	-135.321	-8191	255	
1169.264	1	1	0	0	0.031737	0.24295	0.089646	0.15359	0.10235	0.16825	0.10441	0.14619	0.15497	0.22146	0.1429	0.15834	0.16067	0.10801	0.27919	0.045009	-2.0625	-2.1646	-2.0375	-2.5458	-1.9667	-2.2417	-2.3187	-1.8667	-2.5583	-2.2979	-2.3	-2.6271	-2.075	-2.375	-2.2729	-1.975	-17.181	-38.392	45.813	-144.241	-83.921	-155.617	104.271	-0.586	-73.459	-1.770	-103.145	114.372	121.764	-44.697	18.381	-129.913	0.0017015	0.00045249	0.00013337	557.37	6.5048e-06	5.0653e-06	803.82	184.74	4.9507e-06	5.3885e-06	291.61	144.81	69.75	36.195	6.1032e-06	82.561	0.00018005	4.8274e-05	1.3563e-05	555.74	5.5941e-07	4.9744e-07	800.13	184.74	5.5934e-07	5.1522e-07	291.36	144.99	69.446	36.635	5.6966e-07	83.228	-11.617	-66.972	-61.383	-147.894	-16.649	2.318	-148.127	-142.845	8.014	-9.665	-143.634	-138.492	-139.165	-133.180	-23.732	-135.557	-8191	255	
1169.383	1	1	0	0	0.030028	0.21173	0.19261	0.071271	0.2039	0.025094	0.30615	0.16571	0.14589	0.10594	0.17183	0.05957	0.15958	0.068971	0.06334	0.3091	-1.8729	-2.0542	-1.8229	-2.3896	-1.925	-2.1937	-2.5187	-2.0083	-2.5417	-2.1125	-2.0292	-2.5583	-2.15	-2.1708	-2.4708	-2.2896	143.058	186.486	84.145	-157.870	79.679	48.153	18.810	195.763	-45.035	199.090	77.524	17.552	102.858	-99.953	190.938	81.999	0.001666	0.00037239	0.00013593	552.62	4.539e-06	6.1457e-06	798.97	182.37	8.2831e-06	5.1362e-06	290.34	145.83	69.751	36.688	9.144e-06	83.911	0.00017726	4.6282e-05	1.2866e-05	551.93	5.5711e-07	5.1492e-07	796.85	182.83	5.736e-07	4.9389e-07	290.36	145.62	69.819	37.259	5.6656e-07	84.53	-10.666	-76.872	-59.506	-148.217	-5.102	-11.005	-148.330	-142.695	33.210	-8.911	-144.117	-138.510	-139.267	-133.144	-28.742	-135.394	-8191	255	
1169.454	1	1	0	0	0.13125	0.090283	0.31275	0.2608	0.19902	0.19685	0.26496	0.16904	0.1741	0.10253	0.1874	0.36746	0.2415	0.16689	0.078373	0.085301	-1.9667	-2.1208	-1.9292	-2.5312	-2.1042	-2.3563	-2.4396	-2.0917	-2.3875	-2.3958	-1.8917	-2.7	-2.1042	-2.0687	-2.6458	-2.1229	-27.389	-26.173	160.373	-118.640	166.325	-23.651	102.671	84.747	-82.847	-131.718	-74.760	192.153	-69.736	111.344	50.502	-76.531	0.001695	0.0004822	0.00014348	550.87	6.0884e-06	4.6498e-06	793.97	181.17	6.5824e-06	3.5634e-06	283.94	138.97	66.129	33.638	6.734e-06	77.628	0.00017854	4.9801e-05	1.3623e-05	548.85	5.3085e-07	4.8758e-07	793.64	181.21	5.5399e-07	4.3462e-07	283.54	139.49	65.834	34.113	4.7242e-07	78.126	-8.992	-80.452	-51.258	-148.074	-19.600	-8.931	-148.396	-142.743	33.510	10.770	-143.471	-138.613	-139.308	-133.095	-40.328	-135.319	-8191	255	
1169.550	1	1	0	0	0.04921	0.2058	0.19778	0.079099	0.3503	0.25927	0.15621	0.10292	0.31471	0.12564	0.13744	0.093324	0.19592	0.31214	0.23315	0.27176	-1.6771	-2.3	-1.9312	-2.4708	-1.9958	-2.1417	-2.6042	-1.9062	-2.2667	-2.4479	-1.8271	-2.4792	-2.3229	-2.0396	-2.5417	-2.1979	-35.897	57.554	95.548	104.576	-29.103	-75.489	140.563	54.957	-97.542	152.495	-137.424	187.570	176.745	145.374	183.474	170.579	0.0015916	0.00034976	0.00010133	545.98	5.873e-06	4.6449e-06	791.41	176.29	6.6729e-06	5.1275e-06	278.72	133.96	64.001	32.703	5.8119e-06	76.406	0.00016585	3.7705e-05	1.1418e-05	543.99	4.8929e-07	4.2711e-07	788.4	176.61	4.9109e-07	3.851e-07	278.34	134.08	63.839	33.189	4.7836e-07	77.088	-11.998	-69.599	-64.816	-148.339	-9.325	-13.725	-148.665	-142.870	13.113	-9.425	-143.720	-138.650	-139.103	-132.600	-21.453	-135.243	-8191	255	
1169.671	1	1	0	0	0.26314	0.17348	0.15805	0.16898	0.12477	0.33753	0.19224	0.046077	0.046247	0.010155	0.057948	0.24291	0.047621	0.25498	0.19645	0.15702	-1.7604	-2.1437	-1.9354	-2.3063	-2.0333	-1.9646	-2.6479	-2.2792	-2.2042	-2.4938	-2.1625	-2.3979	-2.2333	-1.9146	-2.4875	-2.1729	-86.358	-35.463	135.854	96.324	73.003	-90.098	97.367	178.355	-72.787	68.397	-35.291	75.593	136.054	-116.465	149.074	-156.203	0.001574	0.00041463	9.9173e-05	555.75	6.2333e-06	4.6666e-06	798.71	180.75	7.4284e-06	4.8639e-06	289.36	141.98	68.799	35.568	7.3747e-06	81.057	0.00015851	3.7658e-05	1.0414e-05	550.55	4.8712e-07	4.1738e-07	795.25	180.81	5.2254e-07	4.0406e-07	287.49	141.65	68.547	36.046	4.8533e-07	81.909	-11.386	-70.160	-78.009	-148.275	-28.050	-16.495	-148.643	-142.668	19.404	5.568	-143.757	-138.524	-139.057	-133.230	-37.359	-135.446	-8191	255	
1169.767	1	1	0	0	0.25158	0.11502	0.031814	0.18093	0.13198	0.092814	0.20709	0.22846	0.20216	0.15654	0.12827	0.24202	0.074871	0.25196	0.16384	0.22391	-1.5208	-2.4792	-1.8917	-2.2938	-2.3187	-1.7812	-2.4521	-2.1854	-2.15	-2.2917	-2.0354	-2.4562	-2.3104	-1.9396	-2.5208	-2.1292	-25.882	188.859	-87.777	-146.391	-105.653	181.255	147.490	163.734	65.028	180.200	0.612	131.916	133.328	137.811	108.816	150.606	0.0016118	0.00043379	0.00012827	561.91	5.8286e-06	5.6511e-06	809.05	188.27	6.963e-06	4.4396e-06	299.46	148.95	73.714	38.482	7.6448e-06	86.733	0.00016697	3.9208e-05	1.1878e-05	558.67	4.9554e-07	4.4972e-07	804.86	188.72	5.3871e-07	3.8668e-07	297.56	149.07	73.35	39.036	5.1801e-07	87.472	-10.898	-72.428	-61.800	-148.201	-15.456	-22.635	-148.513	-142.628	26.669	1.164	-143.822	-138.603	-139.283	-133.401	-34.417	-135.497	-8191	255	
1169.863	1	1	0	0	0.19443	0.20443	0.11479	0.31	0.09666	0.15106	0.26884	0.24708	0.14011	0.17087	0.1964	0.031164	0.1269	0.1962	0.30264	0.1226	-1.7042	-2.3479	-2.0417	-2.3104	-2.2938	-2.025	-2.5333	-2.1604	-2.0354	-2.525	-1.9583	-2.4104	-2.4562	-1.8854	-2.3979	-2.3458	-101.727	-102.859	-83.276	163.112	-97.643	-113.707	110.337	5.907	-119.166	-80.377	143.994	-128.058	112.668	-29.205	90.774	42.869	0.0018069	0.0004272	0.00011273	576.32	6.1721e-06	4.9265e-06	824.63	199.13	6.4992e-06	5.226e-06	308.78	156.37	79.237	40.915	6.8818e-06	89.104	0.00018741	4.1701e-05	1.2609e-05	573.08	5.0867e-07	4.8114e-07	823.37	198.77	5.9805e-07	4.9613e-07	307.94	156.96	78.832	41.646	5.9885e-07	89.908	-11.278	-64.280	-61.987	-147.668	-16.770	-11.225	-148.018	-142.780	22.684	-6.585	-143.606	-138.540	-139.210	-133.441	-24.670	-135.605	-8191	255	
1169.984	1	1	0	0	0.11073	0.1982	0.18836	0.20551	0.040609	0.14371	0.22537	0.094298	0.14507	0.20812	0.19917	0.23009	0.059161	0.30433	0.27492	0.18267	-1.4604	-2.4854	-1.8125	-2.1708	-2.2687	-2.0438	-2.6042	-2.1813	-2.1021	-2.5312	-2.2521	-2.2167	-2.4729	-2.025	-2.1583	-2.5021	-65.006	-68.652	110.996	116.030	103.266	103.258	142.372	141.742	-63.361	177.695	-51.983	-125.396	68.748	-118.349	84.430	-127.342	0.0017946	0.00051482	9.4597e-05	601.72	7.939e-06	4.5411e-06	853.22	201.11	9.8472e-06	4.4547e-06	306.48	151.41	75.794	38.964	6.487e-06	86.417	0.00019035	5.0433e-05	1.3136e-05	596.59	6.0798e-07	5.2268e-07	847.46	200.59	6.2453e-07	4.8612e-07	304.52	151.71	75.586	39.432	5.4358e-07	87	-12.274	-74.051	-60.367	-147.846	-18.107	-12.923	-148.367	-142.614	24.091	-3.771	-143.846	-138.509	-139.084	-133.370	-39.078	-135.532	-8191	255	
1170.056	1	1	0	0	0.24052	0.22088	0.10257	0.14394	0.25367	0.23083	0.24205	0.19454	0.056953	0.14071	0.16675	0.22855	0.21931	0.15307	0.11795	0.16425	-1.7583	-2.3271	-2.0854	-2.2	-2.3167	-1.95	-2.1417	-2.2083	-1.9813	-2.4479	-2.1396	-1.9792	-2.2958	-2.1625	-2.1896	-2.325	75.127	-95.258	11.704	161.700	2.873	-128.132	81.971	185.764	17.618	9.330	82.933	193.275	142.420	148.633	182.298	141.994	0.0017515	0.00045782	0.00016203	584.94	7.2145e-06	4.6251e-06	830.16	195.49	9.0325e-06	4.5138e-06	301.79	152.22	75.097	39.098	6.4586e-06	87.246	0.00018332	4.3324e-05	1.3406e-05	581.16	5.5316e-07	4.7838e-07	823.72	195.85	5.857e-07	4.5503e-07	302.51	151.99	75.052	39.535	5.7819e-07	87.901	-11.753	-80.658	-62.277	-148.023	-9.347	-21.705	-148.173	-142.775	16.838	-3.085	-143.396	-138.451	-139.410	-133.123	-48.251	-135.487	-8191	255	
1170.152	1	1	0	0	0.22591	0.25952	0.14731	0.095248	0.20903	0.13507	0.21446	0.085087	0.16329	0.10734	0.21157	0.12734	0.19889	0.32257	0.20025	0.11574	-1.5271	-2.1396	-2.3583	-2.0396	-2.2396	-2.2042	-2.2667	-2.6708	-1.9792	-2.2146	-2.1583	-2.0604	-2.5604	-2.1396	-2.4333	-2.5292	89.362	147.381	-31.232	-114.408	-91.655	30.737	93.384	173.531	23.753	36.233	83.917	46.617	-90.686	63.573	-32.817	77.688	0.0017769	0.00048719	0.00013756	575.58	7.842e-06	4.4344e-06	815.87	196.36	7.689e-06	4.4367e-06	305.61	155.39	77.243	40.385	8.1506e-06	89.193	0.00018737	4.6687e-05	1.2869e-05	572.44	5.2486e-07	4.8679e-07	814.69	196	5.8786e-07	4.7861e-07	304.37	155.5	77.017	40.956	6.168e-07	90.047	-11.638	-68.230	-67.244	-147.896	-11.481	-4.950	-148.344	-142.637	28.371	-12.933	-143.710	-138.842	-139.109	-133.339	-33.576	-135.710	-8191	255	
1170.246	1	1	0	0	0.13142	0.35274	0.24578	0.11449	0.18501	0.28264	0.1252	0.14361	0.15967	0.047145	0.1615	0.19275	0.18272	0.10092	0.2642	0.15131	-1.3896	-2.2479	-2.0729	-2.1354	-2.6229	-2.0125	-2.2042	-2.5312	-1.8917	-2.3167	-2.4562	-1.8604	-2.4083	-2.1583	-2.025	-2.4146	170.882	84.203	14.094	-155.591	-150.804	147.818	-125.683	-19.542	-152.860	44.931	-160.093	135.094	95.864	189.335	55.241	149.889	0.0018611	0.00049835	0.00017036	574.06	5.9688e-06	4.6564e-06	819.48	197.67	8.7345e-06	4.8254e-06	309.09	157.82	79.187	41.456	6.3831e-06	91.514	0.00019075	4.726e-05	1.2542e-05	571.41	5.3786e-07	5.1045e-07	816.37	198.28	5.9792e-07	4.5978e-07	307.48	158.04	78.996	42.127	5.7767e-07	92.497	-11.935	-61.242	-70.676	-148.106	-23.243	-28.190	-148.564	-142.684	24.546	5.738	-143.453	-138.742	-139.283	-133.540	-22.213	-135.639	-8191	255	
1170.367	1	1	0	0	0.21021	0.081	0.10432	0.006078	0.26011	0.25328	0.12476	0.17592	0.17184	0.15436	0.085068	0.35842	0.23186	0.12395	0.3736	0.27034	-1.3396	-2.1875	-2.2979	-1.9854	-2.2458	-1.9937	-2.1875	-2.3771	-1.8146	-2.2646	-2.4417	-2.1146	-2.3521	-2.3	-2.0187	-2.6	-102.426	117.785	87.621	-24.241	-132.827	168.656	26.799	-104.573	-84.425	-151.870	-86.674	178.142	-126.811	127.814	-103.957	146.415	0.0018787	0.00044407	0.00016677	587.03	6.1356e-06	5.4171e-06	837.08	205.39	8.7713e-06	4.279e-06	311.63	161.29	82.292	43.203	8.3837e-06	93.862	0.00019869	5.1363e-05	1.4617e-05	585.18	5.682e-07	5.2833e-07	832.83	204.89	6.8195e-07	5.4196e-07	311.47	161.49	82.052	43.695	6.5413e-07	94.558	-12.207	-70.367	-67.970	-147.905	-7.191	-22.343	-148.286	-142.627	11.841	-2.510	-143.629	-138.664	-139.322	-133.533	-48.236	-135.877	-8191	255	
1170.463	1	1	0	0	0.078615	0.11753	0.14256	0.061942	0.10874	0.13303	0.18933	0.18994	0.15027	0.15221	0.27417	0.26127	0.0052326	0.082702	0.14425	0.3616	-1.5646	-2.3229	-2.3563	-1.8042	-2.3604	-2.2896	-2.2	-2.4458	-2.0208	-2.1854	-2.4854	-2.0458	-2.3125	-2.2208	-1.8917	-2.5479	183.956	57.305	162.463	-126.017	14.600	148.786	47.299	92.335	-119.507	153.583	147.888	-134.130	-111.618	104.544	-63.726	176.624	0.0019316	0.00043656	0.00014149	609	7.7864e-06	4.7963e-06	854.62	211.04	8.1339e-06	5.3656e-06	317.57	165.02	85.444	45.282	7.6545e-06	97.319	0.00020545	5.06e-05	1.4267e-05	605.57	6.4138e-07	5.7723e-07	856.23	210.95	6.966e-07	5.6408e-07	317.12	165.34	85.335	45.965	7.4104e-07	98.09	-12.082	-86.105	-67.179	-147.824	-13.898	-8.913	-148.419	-142.609	22.487	-12.673	-143.894	-138.559	-139.335	-133.523	-18.991	-135.809	-8191	255	
1170.559	1	1	0	0	0.2195	0.15224	0.1365	0.090457	0.21608	0.22149	0.30319	0.21713	0.11052	0.091836	0.21516	0.070543	0.23545	0.23654	0.19624	0.20315	-1.7625	-2.2167	-2.6958	-2.0979	-2.1271	-2.2313	-2.2354	-2.3083	-1.9333	-1.875	-2.4521	-2.1271	-2.1771	-2.2167	-1.7563	-2.6396	41.820	159.508	-94.639	-81.393	-86.088	134.796	138.133	66.988	-151.192	158.817	21.368	-23.551	107.923	167.397	-102.881	64.492	0.0019981	0.00057482	0.00018465	634.36	6.4478e-06	5.065e-06	877.91	215.04	1.0232e-05	4.0725e-06	316.25	165.87	86.755	46.34	9.0282e-06	98.179	0.00020963	5.4548e-05	1.5387e-05	630.29	6.6752e-07	5.867e-07	875.74	215.3	7.3619e-07	6.0504e-07	315.81	166.34	86.476	46.976	7.3575e-07	98.957	-11.462	-70.926	-69.985	-147.807	-15.971	-28.764	-148.347	-142.235	16.746	-7.064	-143.642	-138.960	-139.311	-133.752	-32.858	-135.850	-8191	255	
1170.655	1	1	0	0	0.080958	0.23757	0.1547	0.038978	0.1938	0.18933	0.058498	0.10149	0.091665	0.047423	0.17409	0.22957	0.075711	0.20475	0.053137	0.20343	-1.8708	-1.9292	-2.4188	-2.2875	-2.4146	-2.3937	-1.8937	-2.5687	-2.2771	-1.9562	-2.4708	-2.0771	-2.0979	-2.4562	-1.9271	-2.4521	-59.295	103.695	-90.705	-142.450	162.782	115.789	2.893	101.151	74.387	-36.694	192.639	101.010	171.705	157.380	-38.576	140.612	0.0019982	0.00064891	0.00019265	641.4	8.3354e-06	4.734e-06	889.59	215.44	7.1403e-06	4.8465e-06	315.77	166.88	87.525	46.699	9.139e-06	98.958	0.0002138	6.0966e-05	1.6508e-05	639.39	7.0678e-07	5.9025e-07	882.91	215.37	7.3174e-07	6.0781e-07	315.74	166.91	87.237	47.405	7.6532e-07	99.932	-10.679	-68.914	-72.613	-147.869	-27.260	-9.143	-148.444	-142.715	13.688	-15.869	-143.708	-139.066	-139.406	-133.903	-17.101	-136.043	-8191	255	
1170.751	1	1	0	0	0.025525	0.065761	0.22381	0.15124	0.14583	0.1207	0.23423	0.18123	0.13502	0.17118	0.24303	0.28182	0.087557	0.22659	0.30291	0.16787	-1.65	-1.9688	-2.3438	-2.0187	-2.2146	-2.5354	-1.8104	-2.3833	-2.25	-1.9604	-2.5104	-2.0563	-2.1354	-2.6104	-1.8958	-2.2812	-93.035	-109.048	99.064	109.271	70.421	-35.440	116.692	135.776	113.131	-53.587	108.016	115.573	156.908	176.693	100.936	183.496	0.0020727	0.00062589	0.00014015	647.27	8.6741e-06	5.838e-06	886.35	218.3	9.1402e-06	5.0594e-06	317.35	167.32	89.118	47.189	7.2138e-06	99.61	0.00021853	6.3375e-05	1.6401e-05	644.6	7.2106e-07	6.2245e-07	885.1	218.23	7.2384e-07	6.6971e-07	317.12	167.8	88.203	47.796	7.71e-07	100.26	-11.353	-77.352	-56.182	-147.850	-28.616	-4.554	-148.243	-142.422	28.649	6.155	-143.635	-139.005	-139.357	-133.687	-20.905	-135.782	-8191	255	
1170.848	1	1	0	0	0.10116	0.21092	0.070596	0.17605	0.14057	0.13174	0.16427	0.25884	0.11397	0.033207	0.26726	0.071777	0.46451	0.12813	0.09964	0.16761	-2.0542	-2.1229	-2.3667	-2.1458	-2.2104	-2.4604	-2.1958	-2.4313	-2.2167	-2.1333	-2.4417	-2.3	-2.1625	-2.9437	-1.8375	-2.3896	179.546	91.236	136.036	148.203	-128.242	184.905	50.186	77.183	198.239	178.552	85.092	166.269	150.169	94.319	6.882	196.291	0.0019613	0.00049231	0.0001525	649.44	7.7134e-06	5.8726e-06	888.76	218.08	9.3857e-06	6.7008e-06	317.63	168.08	87.875	46.849	1.0576e-05	98.57	0.00021082	6.4186e-05	1.7882e-05	647.56	7.3432e-07	6.5716e-07	884.83	218.74	7.7414e-07	6.9289e-07	317.13	168.08	87.587	47.53	8.1569e-07	99.465	-10.970	-75.095	-67.995	-147.533	-24.423	-12.989	-148.158	-142.467	23.406	4.847	-143.657	-138.691	-139.074	-133.619	-31.020	-135.987	-8191	255	
1170.944	1	1	0	0	0.25814	0.05456	0.12273	0.059583	0.13658	0.21592	0.28302	0.25196	0.21774	0.19347	0.15883	0.27832	0.29776	0.20713	0.22884	0.28869	-2.0312	-2.1125	-2.4208	-2.3083	-2.2354	-2.3958	-2.2125	-2.4333	-2.3771	-1.7896	-2.5292	-2.425	-2.0187	-2.4417	-2.1625	-2.225	21.467	26.352	84.941	-102.028	55.504	-157.418	98.891	169.205	-3.791	99.696	86.814	-159.790	-118.109	171.468	-140.744	79.093	0.0020288	0.00055825	0.00013796	646.62	6.6499e-06	4.4063e-06	877.71	210.64	7.9806e-06	6.1424e-06	304.02	152.6	78.827	39.94	6.6614e-06	85.954	0.00021941	6.3733e-05	1.6858e-05	642.33	7.1022e-07	5.9458e-07	875.06	210.31	6.5509e-07	6.2585e-07	301.69	152.82	78.578	40.549	6.4547e-07	86.697	-10.867	-82.446	-70.128	-147.911	-7.274	-24.498	-148.358	-142.786	32.630	5.545	-143.779	-138.680	-139.488	-133.452	-31.123	-135.822	-8191	255	
1171.064	1	1	0	0	0.16947	0.15035	0.43514	0.13867	0.40453	0.053435	0.14559	0.095744	0.23389	0.111	0.22823	0.24581	0.098934	0.16682	0.21773	0.36331	-1.8083	-1.9667	-2.3708	-2.4938	-1.8	-2.5958	-2.0646	-2.1667	-2.3604	-2.1437	-2.4583	-2.3208	-2.1562	-2.3854	-2.1813	-2.1125	142.089	-76.371	74.511	-150.908	72.288	-113.686	-103.507	104.950	80.972	111.840	160.155	180.901	-155.084	176.633	-31.403	127.935	0.0017436	0.00051154	0.00015179	632.4	6.9152e-06	4.7467e-06	867.46	199.21	8.2551e-06	3.7969e-06	290.04	144.17	74.96	38.105	5.1094e-06	82.894	0.00018554	5.3582e-05	1.391e-05	629.62	6.1792e-07	4.9573e-07	865.48	198.65	6.1956e-07	5.4802e-07	288.72	144.4	74.574	38.443	6.4366e-07	83.506	-11.240	-62.018	-70.397	-148.081	-15.565	-16.986	-148.494	-142.996	20.556	-3.609	-143.578	-138.896	-139.420	-133.239	-14.628	-135.682	-8191	255	
1171.159	1	1	0	0	0.037382	0.18439	0.084154	0.099381	0.1647	0.19815	0.13403	0.15756	0.088804	0.27122	0.25662	0.29673	0.22016	0.12941	0.040863	0.20784	-1.925	-2.0479	-2.4021	-2.5833	-1.9104	-2.5271	-2.2604	-2.125	-2.525	-2.0854	-2.3	-2.4792	-2.0896	-2.5333	-2.0771	-2.1875	60.650	-86.976	109.676	175.588	-142.251	-71.080	-63.926	106.660	-91.479	123.099	-69.834	164.793	166.960	-156.089	73.390	158.481	0.0016122	0.00054677	0.00016644	636.84	5.4928e-06	3.8383e-06	874.4	203.99	7.4678e-06	4.3112e-06	299.15	157.47	84.28	44.471	6.9675e-06	94.386	0.00018267	5.8091e-05	1.5334e-05	634.05	6.4801e-07	5.909e-07	870.91	203.93	7.0373e-07	6.8077e-07	298.91	157.91	83.825	45.034	8.5366e-07	95.387	-11.273	-76.470	-74.114	-147.842	-16.584	-19.066	-148.232	-142.524	27.314	-0.085	-143.617	-138.573	-139.070	-133.548	-25.318	-135.950	-8191	255	
1171.255	1	1	0	0	0.11893	0.21859	0.37644	0.10283	0.050425	0.20294	0.16785	0.20621	0.18736	0.16211	0.21667	0.223	0.25618	0.36894	0.029508	0.046322	-2.175	-2.0354	-2.2354	-2.3625	-1.8188	-2.4292	-2.4667	-2.1188	-2.4021	-2.0583	-2.4562	-2.4625	-1.7979	-2.3896	-2.2375	-2.3542	151.085	106.757	47.988	65.416	184.931	104.950	167.641	178.402	-21.663	45.900	-85.481	-114.669	-146.242	-151.257	-62.463	137.477	0.0019531	0.0005873	0.00013451	645.22	7.4887e-06	3.3581e-06	887.53	217.74	9.9145e-06	6.336e-06	319.14	174.76	95.468	52.014	7.5448e-06	107.48	0.00021813	7.7653e-05	2.0371e-05	645.95	9.2759e-07	8.7038e-07	882.05	217.89	9.8651e-07	9.3325e-07	319.17	175.27	95.07	52.71	1.109e-06	108.15	-10.902	-71.370	-57.183	-147.760	-14.362	-31.756	-148.053	-142.333	18.018	0.789	-143.110	-138.730	-139.206	-133.961	-37.273	-136.030	-8191	255	
1171.351	1	1	0	0	0.16963	0.11838	0.073175	0.022238	0.052889	0.30446	0.29956	0.012012	0.10335	0.11381	0.03098	0.1505	0.11045	0.16071	0.18437	0.30513	-1.9833	-2.0771	-2.175	-2.6208	-1.8729	-2.1229	-2.3292	-2.1	-2.3063	-1.9333	-2.0667	-2.6479	-2.0021	-2.4542	-2.2896	-2.15	91.707	-59.321	135.496	176.418	-42.597	-130.238	136.796	-156.869	-124.847	152.557	165.999	116.709	57.728	181.803	181.092	144.577	0.002168	0.0006545	0.00014661	651.11	9.5585e-06	6.2692e-06	887.93	229.79	8.729e-06	5.0736e-06	334.75	184.3	100.73	55.096	1.0784e-05	110.28	0.00025774	9.6369e-05	2.5678e-05	651.63	1.1341e-06	1.0087e-06	885.25	229.99	1.1364e-06	1.056e-06	333.39	184.1	100.71	56.01	1.1209e-06	111.6	-12.063	-60.684	-73.891	-147.625	-11.175	-22.705	-147.900	-141.782	8.828	-23.821	-143.236	-138.799	-139.268	-133.937	-47.258	-136.289	-8191	255	
1171.447	1	1	0	0	0.14949	0.24888	0.11816	0.15377	0.142	0.13049	0.14253	0.12416	0.13486	0.11493	0.16865	0.26015	0.088022	0.10389	0.39455	0.16419	-2.1437	-2.2375	-2.2979	-2.4708	-1.8917	-2.1437	-2.6312	-2.0563	-2.2854	-2.1854	-2.1083	-2.6417	-2.0854	-2.1354	-2.5167	-1.9479	108.067	-69.379	33.209	-108.897	1.992	17.018	114.134	84.684	-149.684	3.983	-129.534	128.671	133.971	198.014	-113.773	168.927	0.0022059	0.00075195	0.00020811	654.04	8.3337e-06	6.5683e-06	883.5	233.28	1.2226e-05	6.3849e-06	336.7	186.48	101.6	56.069	8.8091e-06	112.53	0.00025907	9.0786e-05	2.5351e-05	651.7	1.0296e-06	9.1652e-07	881.67	233.92	1.0404e-06	9.5709e-07	336.74	186.62	101.33	56.769	1.0999e-06	113.39	-12.045	-74.903	-79.269	-147.543	-27.673	-10.227	-148.063	-141.793	34.624	1.636	-143.271	-138.911	-139.319	-134.067	-28.156	-136.549	-8191	255	
1171.543	1	1	0	0	0.09999	0.081407	0.054236	0.23154	0.18568	0.21125	0.24491	0.25157	0.19151	0.098177	0.019319	0.32854	0.15149	0.18383	0.037457	0.61477	-1.8271	-2.3729	-2.1083	-2.5729	-2.1042	-2.3312	-2.4521	-1.9167	-2.1896	-2.2458	-2.225	-2.725	-2.2938	-2.2958	-2.225	-2.2375	12.517	108.551	20.986	179.605	-53.339	-85.524	174.798	134.231	-92.208	102.701	-44.951	174.136	139.491	-128.412	89.008	137.738	0.0022863	0.0006081	0.00016167	653.48	7.9981e-06	4.2194e-06	884.79	239.91	1.2633e-05	6.3035e-06	345.75	195.92	108.84	59.865	7.8999e-06	117.66	0.00026472	9.4389e-05	2.7089e-05	653.18	1.1378e-06	1.091e-06	883.24	240.01	1.2288e-06	1.1508e-06	346.37	196.46	108.32	60.799	1.2776e-06	119	-12.272	-76.716	-76.893	-147.297	-13.738	-1.605	-147.843	-142.003	1.361	3.989	-143.192	-139.073	-139.369	-134.219	-24.454	-136.306	-8191	255	
1171.664	1	1	0	0	0.17251	0.072132	0.080286	0.16822	0.1914	0.19083	0.29946	0.24942	0.037296	0.24891	0.13413	0.12359	0.41091	0.086574	0.075108	0.1928	-2.1167	-2.4958	-2.1917	-2.6813	-2.3167	-2.1437	-2.7104	-2.2104	-2.4667	-2.5833	-2.125	-2.7521	-2.1792	-2.1479	-2.4938	-2.1854	-53.964	10.422	91.231	112.729	49.977	111.982	183.329	46.924	82.835	-126.869	46.339	171.638	162.049	193.367	-128.426	132.593	0.0023511	0.00048067	0.00015867	653.08	9.6409e-06	5.931e-06	881.75	237.09	1.2402e-05	6.0714e-06	343.18	193.75	105.68	58.732	9.1294e-06	117.85	0.00027885	9.4341e-05	2.7329e-05	650.41	1.0096e-06	9.8225e-07	880.67	238.15	1.0242e-06	8.7925e-07	343.39	194.03	105.4	59.389	1.0794e-06	119.26	-11.530	-73.702	-69.904	-147.529	0.030	-19.374	-147.904	-141.834	25.199	0.597	-143.302	-138.898	-139.221	-134.226	-34.054	-136.362	-8191	255	
1171.760	1	1	0	0	0.10437	0.22865	0.17214	0.2936	0.037472	0.18596	0.16072	0.16823	0.16196	0.14977	0.1485	0.097548	0.39517	0.16509	0.23494	0.133	-1.8208	-2.4021	-1.8729	-2.4354	-2.2375	-1.9958	-2.6604	-2.0896	-2.0917	-2.5271	-2.1833	-2.525	-2.3312	-2.0271	-2.4562	-2.2042	-37.088	75.297	-84.371	155.545	-71.573	-105.280	148.211	124.579	-12.477	30.854	170.433	150.398	135.059	-101.090	191.473	144.096	0.0024314	0.00062294	0.00014441	654.35	7.2418e-06	5.8838e-06	888.22	240.56	1.0545e-05	5.6539e-06	350.36	200.5	111.36	62.645	9.8098e-06	123	0.00027476	9.0619e-05	2.5124e-05	653.34	9.7756e-07	9.8528e-07	884.65	241.68	1.1652e-06	1.0449e-06	349.48	201.11	111.3	63.377	1.2877e-06	124.22	-12.277	-73.461	-79.841	-147.506	-16.712	-28.829	-148.029	-142.004	13.618	-9.148	-143.415	-139.278	-139.594	-134.483	-29.599	-136.494	-8191	255	
1171.856	1	1	0	0	0.046929	0.11972	0.14985	0.040159	0.23588	0.12412	0.23015	0.23186	0.26798	0.14466	0.18186	0.12764	0.063843	0.14977	0.20477	0.21723	-1.6479	-2.5792	-1.9354	-2.5208	-2.2354	-1.9396	-2.5958	-2.05	-2.0771	-2.3167	-1.9125	-2.5062	-2.4771	-2.2188	-2.6417	-2.3688	-122.500	49.428	-81.770	-66.021	9.718	125.636	138.203	-89.581	-133.946	162.792	22.520	-125.511	-109.544	60.744	12.258	120.463	0.0024871	0.00061453	0.0001793	657.06	8.8995e-06	6.6934e-06	884.98	243.66	1.0241e-05	6.6988e-06	349.88	200.48	112.02	63.17	9.1646e-06	123.62	0.00029835	0.00010722	2.9961e-05	657.41	1.2392e-06	1.1717e-06	885.29	244.39	1.3213e-06	1.1704e-06	350.19	201.66	111.8	64.1	1.2842e-06	125.2	-12.911	-62.427	-58.399	-147.049	-11.556	-10.447	-148.158	-141.798	16.579	4.782	-143.464	-138.888	-139.513	-134.502	-30.928	-136.587	-8191	255	
1171.928	1	1	0	0	0.095299	0.091015	0.19919	0.2716	0.19588	0.19829	0.25471	0.21028	0.09511	0.14684	0.24963	0.2582	0.08638	0.18433	0.20185	0.080763	-1.7042	-2.5333	-2.0729	-2.4583	-2.3063	-1.9667	-2.2708	-2.3	-2.2208	-2.5979	-2.1417	-2.35	-2.3833	-1.9708	-2.3333	-2.3958	76.404	114.822	81.013	178.670	74.715	108.585	-107.416	-66.941	-154.565	108.440	-142.943	-87.289	-159.511	140.709	-121.115	169.900	0.0025604	0.00073714	0.0002397	662.26	7.1887e-06	7.5341e-06	882.39	247.02	9.8716e-06	8.6136e-06	352.08	204.35	114.51	63.938	7.471e-06	124.63	0.00030265	0.00011151	3.2149e-05	660.18	1.2874e-06	1.2098e-06	883.58	247.16	1.3365e-06	1.21e-06	352.35	204.52	113.74	64.778	1.4014e-06	125.7	-11.972	-77.917	-61.694	-147.317	-21.144	-21.554	-147.662	-141.977	29.249	-2.430	-143.308	-139.068	-139.410	-134.432	-34.499	-136.477	-8191	255	
1172.049	1	1	0	0	0.20062	0.10191	0.14725	0.14564	0.27458	0.17515	0.33596	0.25688	0.14183	0.065595	0.14265	0.25427	0.066042	0.29173	0.28977	0.16314	-1.5771	-2.4542	-1.9646	-2.4292	-2.4688	-1.8104	-2.1604	-2.2229	-1.8229	-2.5729	-2.1646	-2.3292	-2.4437	-2.2833	-2.3187	-2.4313	-34.093	89.339	15.526	140.804	134.674	-60.328	82.493	-135.158	199.142	7.906	158.773	-134.645	199.679	160.872	90.100	165.938	0.0025226	0.00078096	0.00022432	660.86	8.4607e-06	7.1298e-06	885.59	246.26	1.0518e-05	6.1641e-06	350.17	203.56	113.64	63.667	1.0064e-05	124.43	0.00030796	0.00011872	3.3637e-05	660.98	1.3329e-06	1.3399e-06	882.43	247.23	1.5144e-06	1.3206e-06	350.9	203.96	113.74	64.644	1.5547e-06	125.44	-12.332	-71.756	-65.439	-147.137	-18.232	-18.138	-147.940	-141.758	41.315	10.441	-143.279	-139.001	-139.392	-134.342	-38.111	-136.514	-8191	255	
1172.143	1	1	0	0	0.067423	0.25383	0.31606	0.35027	0.10182	0.19008	0.21127	0.21526	0.18445	0.16528	0.29022	0.26326	0.072619	0.18983	0.14381	0.17901	-1.5938	-2.6292	-2.25	-2.2562	-2.5187	-2.0375	-2.45	-2.4708	-2.1375	-2.4521	-2.2604	-2.275	-2.575	-2.0938	-2.3729	-2.4854	-60.333	147.121	87.225	187.318	67.547	-6.712	1.352	191.009	194.972	-81.328	52.947	65.724	-76.082	110.632	-23.799	56.823	0.002522	0.0006434	0.000158	661.07	8.1417e-06	6.955e-06	882.2	246.66	1.3439e-05	7.5576e-06	348.52	197.93	110.39	60.891	7.9009e-06	118.14	0.0003187	0.00013077	3.5571e-05	660.67	1.474e-06	1.3658e-06	880.73	246.78	1.4358e-06	1.348e-06	348.97	198.61	110.47	61.984	1.3754e-06	119.55	-11.803	-70.770	-57.457	-147.514	-18.551	-32.394	-147.678	-141.895	17.537	1.133	-143.446	-138.884	-139.448	-134.478	-35.818	-136.315	-8191	255	
1172.239	1	1	0	0	0.13015	0.23053	0.090769	0.064068	0.18912	0.091794	0.17235	0.16609	0.1598	0.26766	0.2195	0.28237	0.09512	0.23496	0.19802	0.38553	-1.6187	-2.4229	-2.1958	-2.2188	-2.5563	-2.3375	-2.5354	-2.5917	-1.8771	-2.1833	-2.2458	-2.1937	-2.6312	-1.9229	-2.1688	-2.4604	-48.212	-13.957	50.875	-85.015	-49.128	146.923	142.015	-108.123	183.571	-28.549	-131.627	140.317	189.462	-79.246	-108.576	114.235	0.0023932	0.00065662	0.00016699	651.45	8.778e-06	6.5013e-06	867.03	237.73	1.0218e-05	5.8705e-06	337.35	182.61	101.59	54.405	8.1023e-06	106.88	0.00029254	0.00010999	3.1529e-05	648.82	1.1925e-06	1.2015e-06	865.29	238.32	1.2867e-06	1.1618e-06	337.76	182.5	101.23	55.286	1.4099e-06	108.13	-11.125	-66.225	-60.041	-147.397	-15.799	-19.051	-147.666	-141.970	17.794	6.949	-143.356	-138.906	-139.051	-134.218	-48.362	-136.204	-8191	255	
1172.335	1	1	0	0	0.1716	0.11193	0.091344	0.23458	0.044397	0.1784	0.099352	0.17006	0.1076	0.073228	0.17788	0.37816	0.19513	0.42767	0.34506	0.36342	-1.7875	-2.5521	-2.3125	-1.7979	-2.4458	-2.2604	-2.4167	-2.7146	-1.7521	-2.2583	-2.3333	-2.1042	-2.6542	-2.1792	-2.0438	-2.4813	-111.189	52.880	47.462	-133.219	153.704	90.367	17.561	112.055	36.935	77.820	6.014	148.567	-111.142	142.707	134.002	170.821	0.0021191	0.00047022	0.0001624	638.59	1.053e-05	5.6338e-06	848.19	240.31	6.9278e-06	7.0274e-06	342.3	179.52	100.8	52.741	7.345e-06	104.6	0.00027997	0.0001213	3.3627e-05	636.56	1.3533e-06	1.3163e-06	847.96	241.07	1.43e-06	1.3409e-06	343.26	179.69	101.04	53.631	1.4307e-06	105.61	-11.283	-66.598	-57.982	-147.352	-13.270	-10.936	-147.913	-141.569	17.078	-8.749	-143.225	-138.852	-139.105	-133.940	-27.019	-136.328	-8191	255	
1172.431	1	1	0	0	0.26678	0.2025	0.17527	0.15308	0.20061	0.22554	0.08564	0.22833	0.14413	0.12883	0.056345	0.18316	0.18092	0.3808	0.14696	0.12016	-1.3896	-2.4417	-2.2646	-2.225	-2.4542	-2.0354	-2.15	-2.55	-2.0854	-2.2958	-2.1771	-2.1271	-2.4917	-2.3125	-2.1729	-2.9417	-152.729	-61.937	94.365	-9.906	11.364	185.255	152.829	74.520	-76.247	165.210	-141.326	-156.301	-127.484	171.401	143.212	129.507	0.0021411	0.00058896	0.00018987	631.3	5.3676e-06	7.4658e-06	839.99	247.6	1.1878e-05	6.1442e-06	355.83	187.88	110.65	55.539	1.1468e-05	108.94	0.00028512	0.0001289	3.6852e-05	630.4	1.4614e-06	1.5862e-06	841.06	248.74	1.7577e-06	1.6803e-06	357.38	188.34	110.44	56.551	1.8894e-06	110.02	-10.255	-78.530	-68.659	-147.278	-39.818	-15.941	-147.540	-141.844	19.667	-6.445	-143.074	-138.904	-139.138	-134.278	-31.920	-136.301	-8191	255	
1172.552	1	1	0	0	0.19741	0.20188	0.13783	0.23517	0.22125	0.14217	0.17079	0.3699	0.065441	0.22376	0.05184	0.24287	0.30571	0.10496	0.054541	0.12636	-1.7708	-2.2667	-2.5833	-2.0958	-2.5583	-2.0333	-2.0208	-2.6521	-2.2167	-2.3396	-2.5354	-2.1333	-2.4188	-2.1188	-2.1333	-2.7708	77.807	-74.627	86.494	144.599	55.134	-10.007	187.067	-136.758	145.112	3.417	9.667	-126.765	-35.250	-88.189	-96.240	144.572	0.0021336	0.00064649	0.00015794	619.84	7.8738e-06	5.0786e-06	835.34	252.96	1.0304e-05	6.6567e-06	364.43	192	115.12	56.474	7.7071e-06	108.91	0.00032367	0.00016467	4.3851e-05	620.54	1.7296e-06	1.7997e-06	834.48	254.18	1.925e-06	1.86e-06	364.97	192.69	115.2	57.357	2.2654e-06	110.22	-12.032	-68.438	-54.707	-147.204	-21.777	-39.731	-147.374	-141.753	20.667	2.853	-143.300	-138.997	-139.405	-134.364	-7.341	-136.273	-8191	255	
1172.624	1	1	0	0	0.27007	0.14486	0.059163	0.35866	0.22432	0.078764	0.18493	0.24898	0.27058	0.25859	0.090246	0.045278	0.25789	0.2957	0.30144	0.31261	-1.8208	-2.1437	-2.3354	-2.1562	-2.3417	-2.4271	-1.9042	-2.5875	-2.1104	-2.35	-2.5708	-2.1208	-2.2979	-2.5958	-2.15	-2.6375	-24.032	21.819	187.404	197.938	125.026	138.334	114.664	143.935	-113.263	121.562	159.087	196.853	183.748	182.058	-135.033	162.583	0.0022974	0.00057825	0.00020487	616.52	9.8479e-06	5.6961e-06	823.43	257.98	7.7865e-06	6.3307e-06	364.54	189.29	114	54.265	1.0875e-05	104.02	0.00035597	0.00020773	5.5345e-05	618.36	2.3021e-06	2.2471e-06	825.41	259.32	2.3388e-06	2.1981e-06	364.81	189.99	114.08	55.032	2.234e-06	105.04	-12.507	-91.674	-65.471	-146.781	-4.037	-5.883	-147.660	-141.412	21.210	-11.287	-143.221	-139.173	-139.379	-134.083	-15.478	-136.236	-8191	255	
1172.744	1	1	0	0	0.1886	0.13405	0.16954	0.098251	0.21222	0.19536	0.37963	0.090811	0.12764	0.046122	0.19379	0.1658	0.27076	0.20541	0.22421	0.15884	-1.7854	-1.8979	-2.4042	-2.3146	-2.2396	-2.0646	-1.9875	-2.8146	-2.3125	-1.9604	-2.4188	-2.275	-2.4354	-2.6125	-1.8583	-2.6042	159.194	14.985	151.839	94.869	41.272	-122.691	133.917	84.104	138.569	97.804	-94.150	24.373	111.334	-144.788	-150.678	178.679	0.0020566	0.00063463	0.00018301	611.95	8.189e-06	4.607e-06	811.46	248	1.1365e-05	6.7415e-06	354.74	185.46	110.41	52.158	7.1177e-06	101.32	0.00033411	0.0001922	5.2176e-05	612.71	2.0025e-06	1.9646e-06	813.26	249.99	1.9362e-06	1.8375e-06	355.64	185.95	110.28	52.876	1.9036e-06	102	-12.909	-75.998	-55.635	-147.073	-19.295	-2.941	-147.485	-141.674	6.890	-1.093	-143.365	-139.190	-139.526	-134.210	-29.839	-136.176	-8191	255	
1172.841	1	1	0	0	0.13408	0.11339	0.18531	0.13844	0.082825	0.010009	0.14384	0.22757	0.19867	0.29181	0.097466	0.45232	0.067644	0.069844	0.10821	0.063299	-1.7542	-2.2521	-2.4625	-2.025	-2.4062	-2.3896	-2	-2.5021	-2.1958	-2.0604	-2.5229	-2.0312	-2.2292	-2.6937	-1.9813	-2.4396	127.472	133.115	-151.895	-12.701	-93.360	70.969	124.651	195.443	42.714	6.561	182.834	195.119	82.885	64.265	49.880	55.499	0.0019912	0.00052693	0.00020759	606.75	8.8587e-06	5.2354e-06	804.43	246.16	9.8943e-06	6.728e-06	356.16	186.52	110.37	51.705	6.5418e-06	101.46	0.0003077	0.00016014	4.4281e-05	606.79	1.7409e-06	1.7101e-06	807.04	246.57	1.7632e-06	1.6484e-06	356.56	186.97	110.4	52.493	1.6569e-06	102.7	-10.985	-79.200	-75.218	-146.893	2.610	-24.309	-147.368	-141.371	53.960	-1.993	-143.041	-138.898	-139.618	-133.846	-25.796	-136.264	-8191	255	
1172.937	1	1	0	0	0.16769	0.037972	0.25947	0.16183	0.085708	0.16687	0.0768	0.19179	0.17744	0.036645	0.069861	0.34604	0.10223	0.26696	0.059635	0.35567	-1.8312	-2.0417	-2.5563	-2.1854	-2.0479	-2.3583	-2.075	-2.3979	-2.2167	-2.1562	-2.5479	-2.3208	-2.1875	-2.3	-1.8917	-2.6583	-95.667	173.249	-3.538	163.578	64.875	32.069	107.477	2.085	-124.479	142.222	-101.584	129.865	-123.262	-154.532	-27.547	125.244	0.0020338	0.00038222	0.00017991	599.19	1.0365e-05	7.3396e-06	808.99	243.9	9.1915e-06	6.7141e-06	359.17	188.71	110.79	51.323	6.7004e-06	101.45	0.00028895	0.00013811	3.85e-05	601.07	1.5335e-06	1.4639e-06	809.12	244.79	1.5068e-06	1.4124e-06	358.09	188.87	110.51	52.139	1.562e-06	102.32	-10.644	-69.373	-73.127	-146.970	-6.055	-28.812	-147.485	-141.584	15.480	3.881	-143.053	-138.914	-139.426	-134.028	-0.229	-136.074	-8191	255	
1173.033	1	1	0	0	0.06925	0.084877	0.19338	0.20303	0.24492	0.047371	0.40216	0.28213	0.16593	0.13593	0.10492	0.077559	0.33331	0.072653	0.19385	0.15768	-2.0583	-1.9521	-2.4646	-2.4667	-2.1833	-2.3583	-2.175	-2.5083	-2.5	-2.075	-2.6188	-2.3125	-2.1125	-2.7208	-2.1458	-2.3771	37.522	-102.277	139.887	-156.427	-66.314	-67.958	110.402	134.058	188.243	94.543	-77.322	145.757	188.854	-150.816	187.373	158.820	0.0020513	0.00059334	0.00016462	599.77	7.808e-06	4.892e-06	808.47	244.46	1.2116e-05	5.0056e-06	358.07	189.24	112.05	52.204	1.0618e-05	102.03	0.00028208	0.00013013	3.5938e-05	598.7	1.4391e-06	1.4075e-06	807.03	244.78	1.4912e-06	1.4996e-06	358.55	189.82	111.88	52.914	1.6511e-06	103.1	-11.845	-74.427	-61.713	-147.055	-12.784	-7.388	-147.446	-141.589	12.167	-8.116	-143.422	-139.028	-139.823	-134.118	-48.726	-136.062	-8191	255	
1173.152	1	1	0	0	0.093911	0.2176	0.081918	0.23069	0.18947	0.1255	0.35702	0.51388	0.1242	0.23262	0.098671	0.25185	0.048698	0.096352	0.17341	0.33288	-1.8542	-1.95	-2.575	-2.3	-2.0438	-2.3063	-2.2458	-2.3979	-2.5833	-2.0667	-2.4667	-2.275	-1.8833	-2.9042	-2.1271	-2.1625	-135.545	109.072	190.997	-38.605	162.510	-62.022	137.055	154.645	169.027	173.516	159.395	49.637	-77.135	30.086	78.205	102.623	0.0021112	0.00065236	0.00016901	597.74	6.2061e-06	5.9745e-06	802.76	245.83	9.2043e-06	3.5931e-06	360.08	190.99	112.9	52.262	8.6047e-06	102.36	0.00028522	0.00013697	3.8393e-05	596.87	1.5296e-06	1.5023e-06	802.64	246.83	1.5652e-06	1.5009e-06	360.07	191.48	112.44	53.045	1.5912e-06	103.37	-10.317	-69.024	-73.896	-147.062	3.455	-16.391	-147.302	-141.464	13.748	-5.119	-143.225	-139.126	-139.533	-134.142	-30.455	-136.100	-8191	255	
1173.223	1	1	0	0	0.13296	0.070548	0.081665	0.0527	0.11511	0.10769	0.12005	0.18283	0.21579	0.15012	0.06716	0.2332	0.054861	0.1619	0.19634	0.2129	-2.0083	-2.0396	-2.4437	-2.4208	-1.7896	-2.4854	-2.3521	-2.2146	-2.6917	-2.1479	-2.2583	-2.575	-2.1292	-2.6958	-2.2938	-2.1354	107.060	190.372	-86.332	177.327	80.978	87.971	170.570	176.089	-87.468	-146.340	-70.135	157.513	130.935	103.648	-78.761	-152.540	0.0021166	0.0006825	0.0001935	597.51	6.9044e-06	4.5505e-06	802.37	246.53	8.0747e-06	7.2315e-06	360.91	191.56	112.86	52.631	1.0333e-05	102.6	0.00028854	0.0001378	3.8387e-05	598.12	1.5008e-06	1.4178e-06	803.62	246.33	1.5413e-06	1.484e-06	361.23	192.1	112.66	53.248	1.5579e-06	103.9	-11.984	-78.232	-62.812	-147.075	-22.369	-11.435	-147.621	-141.530	8.610	-3.651	-143.520	-139.064	-139.396	-134.174	-21.601	-135.812	-8191	255	
1173.344	1	1	0	0	0.2078	0.29148	0.022786	0.16287	0.091323	0.075828	0.24949	0.097043	0.20501	0.093967	0.19642	0.15669	0.19512	0.13046	0.1906	0.029278	-1.9438	-2.0312	-2.3229	-2.4625	-1.8271	-2.4167	-2.5	-2.0667	-2.3896	-2.0333	-2.2271	-2.4875	-1.9562	-2.6042	-2.3792	-2.3958	-36.774	-117.891	186.385	185.959	27.942	171.035	68.005	167.646	-133.244	-61.777	-3.767	106.892	28.344	103.627	46.147	148.709	0.0020844	0.00051024	0.00017262	597.45	1.0341e-05	5.3989e-06	805.11	244.37	1.0198e-05	5.2646e-06	359.26	186.61	109.57	50.346	6.3492e-06	99.147	0.00028263	0.00013057	3.6155e-05	596.61	1.4429e-06	1.3375e-06	804.93	244.61	1.4227e-06	1.3158e-06	358.36	187.86	109.49	51.116	1.4281e-06	100.28	-11.156	-81.411	-59.574	-147.057	-16.763	-18.604	-147.480	-141.491	31.026	10.065	-143.208	-139.078	-139.344	-134.247	-19.140	-136.104	-8191	255	
1173.440	1	1	0	0	0.16394	0.12401	0.24076	0.062345	0.19553	0.13554	0.18908	0.094883	0.12965	0.12304	0.15672	0.083953	0.10094	0.093204	0.16116	0.3298	-2.1396	-2.0938	-2.1958	-2.3729	-1.7833	-2.2021	-2.3417	-2.0708	-2.5521	-2.1375	-2.4313	-2.8187	-1.9521	-2.4125	-2.1312	-2.2229	165.856	95.031	-47.405	53.762	-112.037	-122.554	170.692	176.071	-85.565	-43.029	48.229	-126.723	-118.792	-52.410	19.613	171.738	0.0020595	0.00074817	0.0001766	592.78	7.5278e-06	4.8333e-06	795.08	238.11	1.1682e-05	5.3213e-06	350.48	178.19	103.55	46.928	8.1991e-06	93.297	0.00027038	0.0001258	3.4451e-05	592.93	1.3132e-06	1.2322e-06	795.23	238.7	1.2656e-06	1.189e-06	349.58	178.68	103.1	47.636	1.1963e-06	94.184	-11.189	-67.337	-71.084	-147.159	-3.192	-13.170	-147.518	-141.646	29.686	-2.963	-143.212	-139.170	-139.587	-133.919	-27.618	-136.037	-8191	255	
1173.536	1	1	0	0	0.074452	0.3295	0.13262	0.097476	0.13617	0.071169	0.18554	0.21053	0.24058	0.088246	0.22759	0.21002	0.085036	0.18219	0.25178	0.3427	-2.1021	-2.2542	-2.1458	-2.9146	-1.9688	-2.1792	-2.4333	-2.0417	-2.5229	-2.3563	-2.225	-2.5896	-1.9729	-2.6354	-2.4875	-2.1458	-26.517	-56.629	27.567	-73.343	-101.838	153.984	83.805	111.402	78.101	191.988	105.095	-121.082	62.253	-120.066	76.692	186.636	0.0018859	0.00056047	0.00015335	591.3	5.5856e-06	4.0831e-06	792.74	233.69	9.8057e-06	4.5781e-06	346.21	175.73	102.92	45.958	9.2403e-06	92.751	0.00024481	0.00010128	2.8857e-05	589.05	1.1874e-06	1.0782e-06	790.69	234.47	1.1737e-06	1.107e-06	346.94	176.3	102.58	46.735	1.1856e-06	93.604	-12.428	-82.176	-59.516	-147.404	-1.222	-7.273	-147.897	-141.827	16.556	-9.313	-143.524	-139.214	-139.582	-133.943	-41.754	-136.003	-8191	255	
1173.632	1	1	0	0	0.078454	0.21288	0.22146	0.044709	0.12694	0.17538	0.2207	0.094556	0.13446	0.24298	0.3933	0.080539	0.45424	0.25887	0.32743	0.3238	-1.9625	-2.0729	-2.2687	-2.7313	-2.0938	-2.3646	-2.575	-2.0604	-2.5625	-2.3396	-2.2729	-2.7083	-2.0875	-2.125	-2.5062	-2.3208	-34.871	79.560	-43.272	-71.987	73.839	21.912	155.991	158.761	168.143	33.187	-145.766	14.780	152.055	140.453	-99.215	172.389	0.0019198	0.0006376	0.00017433	589.7	9.766e-06	6.4845e-06	795.25	234.06	8.5084e-06	5.456e-06	347.99	176.22	102.76	45.958	8.8132e-06	92.767	0.00024687	0.00010472	3.0341e-05	588.44	1.2207e-06	1.1234e-06	794.36	235.1	1.2186e-06	1.1218e-06	349	176.4	102.52	46.78	1.2935e-06	93.683	-10.449	-61.770	-70.217	-147.430	-10.209	-13.077	-147.531	-141.714	31.269	-1.714	-143.171	-139.056	-139.410	-134.055	-23.348	-136.100	-8191	255	
1173.753	1	1	0	0	0.081836	0.33784	0.26167	0.12401	0.15308	0.012228	0.079787	0.10761	0.20846	0.209	0.2089	0.30841	0.37403	0.25363	0.1231	0.27922	-1.9396	-2.3187	-2.1417	-2.625	-2.0812	-1.9417	-2.6542	-2.1958	-2.4396	-2.2188	-2.0167	-2.6104	-2.3896	-2.2708	-2.4979	-2.2458	-62.174	80.483	-7.423	-154.377	-65.869	26.193	14.437	117.479	-75.401	88.832	90.011	180.872	172.268	153.885	-54.005	119.385	0.0019462	0.00050588	0.00018417	592.05	8.2303e-06	5.354e-06	799.34	243.62	7.1382e-06	5.011e-06	361.77	183.21	110.36	48.491	1.0182e-05	95.649	0.00025858	0.00011457	3.375e-05	592.08	1.3846e-06	1.4109e-06	797.53	243.74	1.5832e-06	1.5117e-06	362.41	184.39	110.08	49.277	1.7977e-06	96.655	-11.164	-69.207	-65.970	-147.371	-14.708	-25.643	-147.400	-141.598	31.320	-2.376	-143.375	-139.108	-139.688	-134.276	-37.299	-136.219	-8191	255	
1173.849	1	1	0	0	0.37365	0.14451	0.075056	0.2031	0.081173	0.11903	0.093058	0.25299	0.18325	0.23384	0.075864	0.21191	0.18269	0.13676	0.17053	0.021802	-2.1396	-2.5146	-2.0146	-2.4417	-2.4021	-2.2396	-2.4646	-2.2354	-2.3292	-2.4667	-1.9521	-2.5458	-2.3646	-2.3125	-2.5292	-2.1875	-56.139	-2.845	24.543	135.569	-155.761	-71.899	-118.680	1.789	-49.066	137.474	177.604	-84.748	122.981	66.474	-111.909	147.363	0.0020082	0.00051617	0.00015506	591.16	8.5708e-06	5.167e-06	796.39	254.43	9.0746e-06	6.7376e-06	370.56	189.18	113.68	49.445	7.4863e-06	95.947	0.00030012	0.00016356	4.7406e-05	590.84	1.8584e-06	1.8894e-06	795.74	255.2	1.937e-06	1.8532e-06	371.49	189.53	113.72	50.053	1.9346e-06	97.121	-11.627	-77.704	-69.401	-146.858	-5.202	-13.800	-147.526	-141.764	15.304	3.910	-143.225	-139.251	-139.795	-134.246	-23.120	-136.178	-8191	255	
1173.921	1	1	0	0	0.094017	0.11517	0.15634	0.24282	0.19106	0.11326	0.25779	0.28446	0.15749	0.17204	0.18328	0.075979	0.10814	0.17014	0.4144	0.2161	-2.0896	-2.4917	-1.9125	-2.575	-2.125	-2.05	-2.6458	-2.1646	-2.175	-2.4708	-2.1021	-2.6375	-2.2771	-2.0042	-2.5792	-2.2625	-35.995	132.040	-33.829	-26.015	93.291	-21.995	167.074	131.938	112.892	-102.922	-109.004	-138.415	171.950	146.865	192.659	140.856	0.0020262	0.00079527	0.00014038	591.24	6.961e-06	5.9057e-06	794.34	246.69	1.1641e-05	5.001e-06	357.33	186.83	111.64	49.675	8.7695e-06	97.373	0.0003073	0.00016394	4.4428e-05	591.8	1.7054e-06	1.6902e-06	791.76	247.51	1.7347e-06	1.5953e-06	356.6	187.54	111.41	50.533	1.5731e-06	98.38	-9.968	-67.197	-61.728	-146.914	-13.826	-13.785	-147.491	-141.668	25.168	10.132	-143.095	-139.149	-139.841	-134.016	-27.950	-135.901	-8191	255	
#DATA ENDS
