BOXY.EXE: ISS Imagent and Oximeter Data Acquisition Program Version 0.80
Ascii Record File

#ACQ INFORMATION
2  Detector Channels 
16  External MUX Channels 
1  Auxiliary Channels 
5000  Waveform (CCF) Frequency (Hz)
1  Waveforms Skipped 
30  Waveforms Averaged 
1  Cycles Averaged 
16  Acquisitions per Waveform 
10.0806  Updata Rate (Hz) 

#FILE INFORMATION
TRUE -- External MUX Channel results are PARSED.
FALSE -- AC DC and Phase are NOT grouped.
TRUE -- Companion Program Settings File CREATED.
FALSE -- AC data not excluded
FALSE -- DC data not excluded
FALSE -- Phase data not excluded
FALSE -- Auxillary Chn. data not excluded
Tab delimiters

#CALIBRATION STATE
TRUE -- Waveform Calibration Values APPLIED.


#AUX CALIBRATION VALUES
Val Type	aux-1	

Term	1.0000e+00	
Factor	0.0000e+00	


#WF CALIBRATION VALUES
A = Detector Channel
Val Type	A-AC1	A-AC2	A-AC3	A-AC4	A-AC5	A-AC6	A-AC7	A-AC8	A-AC9	A-AC10	A-AC11	A-AC12	A-AC13	A-AC14	A-AC15	A-AC16	A-DC1	A-DC2	A-DC3	A-DC4	A-DC5	A-DC6	A-DC7	A-DC8	A-DC9	A-DC10	A-DC11	A-DC12	A-DC13	A-DC14	A-DC15	A-DC16	A-Ph1	A-Ph2	A-Ph3	A-Ph4	A-Ph5	A-Ph6	A-Ph7	A-Ph8	A-Ph9	A-Ph10	A-Ph11	A-Ph12	A-Ph13	A-Ph14	A-Ph15	A-Ph16	

Term	0.00000e+00	0.00000e+00	0.00000e+00	0.00000e+00	0.00000e+00	0.00000e+00	0.00000e+00	0.00000e+00	0.00000e+00	0.00000e+00	0.00000e+00	0.00000e+00	0.00000e+00	0.00000e+00	0.00000e+00	0.00000e+00	0.00000e+00	0.00000e+00	0.00000e+00	0.00000e+00	0.00000e+00	0.00000e+00	0.00000e+00	0.00000e+00	0.00000e+00	0.00000e+00	0.00000e+00	0.00000e+00	0.00000e+00	0.00000e+00	0.00000e+00	0.00000e+00	0.00000e+00	0.00000e+00	0.00000e+00	0.00000e+00	0.00000e+00	0.00000e+00	0.00000e+00	0.00000e+00	0.00000e+00	0.00000e+00	0.00000e+00	0.00000e+00	0.00000e+00	0.00000e+00	0.00000e+00	0.00000e+00	
Factor	1.00000e+00	1.00000e+00	1.00000e+00	1.00000e+00	1.00000e+00	1.00000e+00	1.00000e+00	1.00000e+00	1.00000e+00	1.00000e+00	1.00000e+00	1.00000e+00	1.00000e+00	1.00000e+00	1.00000e+00	1.00000e+00	1.00000e+00	1.00000e+00	1.00000e+00	1.00000e+00	1.00000e+00	1.00000e+00	1.00000e+00	1.00000e+00	1.00000e+00	1.00000e+00	1.00000e+00	1.00000e+00	1.00000e+00	1.00000e+00	1.00000e+00	1.00000e+00	X	X	X	X	X	X	X	X	X	X	X	X	X	X	X	X	

B = Detector Channel
Val Type	B-AC1	B-AC2	B-AC3	B-AC4	B-AC5	B-AC6	B-AC7	B-AC8	B-AC9	B-AC10	B-AC11	B-AC12	B-AC13	B-AC14	B-AC15	B-AC16	B-DC1	B-DC2	B-DC3	B-DC4	B-DC5	B-DC6	B-DC7	B-DC8	B-DC9	B-DC10	B-DC11	B-DC12	B-DC13	B-DC14	B-DC15	B-DC16	B-Ph1	B-Ph2	B-Ph3	B-Ph4	B-Ph5	B-Ph6	B-Ph7	B-Ph8	B-Ph9	B-Ph10	B-Ph11	B-Ph12	B-Ph13	B-Ph14	B-Ph15	B-Ph16	

Term	0.00000e+00	0.00000e+00	0.00000e+00	0.00000e+00	0.00000e+00	0.00000e+00	0.00000e+00	0.00000e+00	0.00000e+00	0.00000e+00	0.00000e+00	0.00000e+00	0.00000e+00	0.00000e+00	0.00000e+00	0.00000e+00	0.00000e+00	0.00000e+00	0.00000e+00	0.00000e+00	0.00000e+00	0.00000e+00	0.00000e+00	0.00000e+00	0.00000e+00	0.00000e+00	0.00000e+00	0.00000e+00	0.00000e+00	0.00000e+00	0.00000e+00	0.00000e+00	-1.65560e+02	-1.26939e+02	-1.30200e+02	-1.83531e+02	-7.95580e+01	-6.23298e+01	-1.55913e+02	-1.62015e+02	-8.00935e+01	-6.99222e+01	-1.69783e+02	-1.70754e+02	-1.79463e+02	-1.76415e+02	-7.83609e+01	-1.49214e+02	
Factor	2.59736e-05	1.59396e-04	3.76247e-05	1.70707e-01	1.04767e-06	1.40068e-06	1.50441e-01	4.85057e-02	9.61463e-07	1.40745e-06	8.22453e-02	2.84523e-02	2.38378e-02	8.71675e-03	1.43886e-06	1.23208e-02	3.02569e-06	3.31224e-06	9.20197e-07	9.14355e-02	3.58392e-08	3.62363e-08	7.61070e-02	2.61631e-02	3.57514e-08	3.62322e-08	4.28669e-02	1.48528e-02	1.29378e-02	4.71403e-03	3.60000e-08	6.45373e-03	X	X	X	X	X	X	X	X	X	X	X	X	X	X	X	X	



#DISTANCE SETTINGS
A = Detector Channel
A-1	A-2	A-3	A-4	A-5	A-6	A-7	A-8	A-9	A-10	A-11	A-12	A-13	A-14	A-15	A-16	

2.5000e+00	3.0000e+00	2.5000e+00	3.0000e+00	2.0000e+00	3.0000e+00	1.5000e+00	3.0000e+00	3.0000e+00	3.0000e+00	3.0000e+00	3.0000e+00	3.0000e+00	3.0000e+00	1.5000e+00	3.0000e+00	

B = Detector Channel
B-1	B-2	B-3	B-4	B-5	B-6	B-7	B-8	B-9	B-10	B-11	B-12	B-13	B-14	B-15	B-16	

1.0000e+01	1.0000e+01	1.0000e+01	1.4400e+00	1.0000e+01	1.0000e+01	1.5100e+00	1.9400e+00	1.0000e+01	1.0000e+01	1.9900e+00	2.4900e+00	2.4100e+00	2.9000e+00	1.0000e+01	2.9800e+00	




#DATA BEGINS
time	group	step	mark	flag	A-AC1	A-AC2	A-AC3	A-AC4	A-AC5	A-AC6	A-AC7	A-AC8	A-AC9	A-AC10	A-AC11	A-AC12	A-AC13	A-AC14	A-AC15	A-AC16	A-DC1	A-DC2	A-DC3	A-DC4	A-DC5	A-DC6	A-DC7	A-DC8	A-DC9	A-DC10	A-DC11	A-DC12	A-DC13	A-DC14	A-DC15	A-DC16	A-Ph1	A-Ph2	A-Ph3	A-Ph4	A-Ph5	A-Ph6	A-Ph7	A-Ph8	A-Ph9	A-Ph10	A-Ph11	A-Ph12	A-Ph13	A-Ph14	A-Ph15	A-Ph16	B-AC1	B-AC2	B-AC3	B-AC4	B-AC5	B-AC6	B-AC7	B-AC8	B-AC9	B-AC10	B-AC11	B-AC12	B-AC13	B-AC14	B-AC15	B-AC16	B-DC1	B-DC2	B-DC3	B-DC4	B-DC5	B-DC6	B-DC7	B-DC8	B-DC9	B-DC10	B-DC11	B-DC12	B-DC13	B-DC14	B-DC15	B-DC16	B-Ph1	B-Ph2	B-Ph3	B-Ph4	B-Ph5	B-Ph6	B-Ph7	B-Ph8	B-Ph9	B-Ph10	B-Ph11	B-Ph12	B-Ph13	B-Ph14	B-Ph15	B-Ph16	aux-1	digaux	

32823.273	1	1	0	512	0.2	0.057639	0.03011	0.16997	0.074785	0.066619	0.18127	0.14614	0.40057	0.1723	0.18286	0.078797	0.16971	0.16319	0.16794	0.089892	-2.3792	-2.7625	-3.3542	-2.5271	-3.2625	-3.3104	-2.6188	-3.2542	-2.7271	-2.9104	-3.3708	-2.6375	-3.0167	-3.2521	-2.4979	-3.3417	273.483	481.970	495.838	441.538	366.591	307.450	194.091	406.848	378.232	253.061	495.890	271.426	188.972	188.527	158.987	353.659	0.00055363	0.00033213	0.00017626	255.18	6.0921e-06	9.1528e-06	384.7	86.347	2.1514e-06	3.6105e-06	158.35	62.387	30.114	14.636	6.1327e-06	33.056	0.00095344	0.00099013	0.00027537	263	1.0825e-05	1.0843e-05	377.75	88.169	1.0838e-05	1.0901e-05	159.41	62.373	31.765	15.042	1.0744e-05	32.617	140.840	206.243	195.224	152.763	363.303	341.642	152.256	156.920	290.526	455.315	155.500	159.567	162.104	165.360	274.475	163.204	-8191	255	
32823.371	1	1	0	0	0.080911	0.14529	0.18349	0.15453	0.16547	0.020906	0.2897	0.1032	0.28955	0.22656	0.03544	0.097617	0.22081	0.42255	0.34002	0.10934	-2.5812	-2.7854	-3.3604	-2.6833	-3.0521	-3.4375	-2.5292	-3.3667	-2.9938	-2.7	-3.6021	-2.8708	-3.0542	-3.1437	-2.7938	-3.3937	285.332	230.333	425.626	457.361	248.037	291.525	403.228	272.069	226.828	209.887	140.073	256.292	492.887	439.491	142.699	208.376	0.00049463	0.00063216	0.00029601	252.78	9.9436e-07	2.7631e-06	382.41	86.589	1.7218e-06	4.2844e-06	158.96	62.68	30.059	14.772	3.3262e-06	33.16	0.00096001	0.00099187	0.00027321	263.44	1.0801e-05	1.0978e-05	377.72	88.236	1.0874e-05	1.0906e-05	159.4	62.725	31.835	15.119	1.0829e-05	32.813	142.319	319.109	387.593	152.882	182.227	153.132	151.538	157.565	310.639	460.633	155.918	159.766	161.911	165.649	188.038	162.819	-8191	255	
32823.465	1	1	0	0	0.22155	0.078382	0.073311	0.25635	0.1004	0.37592	0.061657	0.14086	0.090877	0.24005	0.11007	0.1374	0.27729	0.1278	0.12143	0.11457	-2.7333	-2.7292	-3.2833	-2.6417	-2.7771	-3.5042	-2.6958	-3.4667	-3.1417	-2.5708	-3.5854	-2.7687	-2.9167	-3.3875	-2.6375	-3.1937	335.196	469.626	280.659	431.604	302.618	452.102	385.704	451.152	358.148	290.473	352.530	347.109	210.680	478.490	389.465	421.841	0.0005085	0.00032709	2.0221e-05	254.34	3.4322e-06	6.6933e-06	384.07	86.165	3.5973e-06	8.8274e-06	160.04	62.796	30.401	14.78	3.3906e-06	33.303	0.0009536	0.00099967	0.00027385	263.8	1.0795e-05	1.0774e-05	380	88.598	1.0646e-05	1.0867e-05	161.08	63.218	31.903	15.196	1.0816e-05	33.097	152.455	415.505	490.116	152.235	197.683	475.053	151.886	157.643	249.225	236.696	155.725	159.709	161.751	166.138	168.300	162.821	-8191	255	
32823.562	1	1	0	0	0.062074	0.40491	0.15711	0.22022	0.32479	0.21392	0.063438	0.19243	0.20089	0.16856	0.057478	0.21974	0.18478	0.22807	0.14909	0.12741	-2.7458	-2.7521	-3.2167	-2.8688	-2.9062	-3.5438	-2.6	-3.2375	-3.0667	-2.6312	-3.4062	-2.8271	-2.9167	-3.3688	-2.4833	-3.175	462.857	363.685	262.305	302.298	402.035	449.389	384.838	264.053	167.415	344.906	419.402	430.462	397.845	392.761	227.155	226.338	0.00035552	0.00073108	0.0001943	257.91	6.4351e-06	6.2493e-06	387.93	87.924	3.9329e-06	7.1039e-06	159.78	63.71	30.522	14.818	4.4625e-06	33.457	0.0009608	0.001006	0.00027664	266.18	1.0931e-05	1.0894e-05	381.7	89.187	1.0894e-05	1.0812e-05	161.22	63.057	32.022	15.21	1.0862e-05	33.086	156.357	195.155	444.668	152.080	232.056	408.156	151.550	157.374	478.371	381.657	155.721	159.430	161.694	165.573	198.627	162.940	-8191	255	
32823.656	1	1	0	0	0.17847	0.14416	0.31936	0.13133	0.3578	0.18537	0.2493	0.14179	0.086773	0.097198	0.19718	0.24491	0.34009	0.22211	0.096256	0.22169	-2.8021	-2.5667	-3.2771	-3.0812	-2.6813	-3.3354	-2.6063	-2.9104	-3.2958	-2.5521	-3.1458	-3.0958	-2.5229	-3.3583	-2.6854	-3.0604	421.520	458.144	158.230	268.523	142.140	191.577	197.943	408.852	498.320	433.335	173.240	442.255	463.172	450.774	176.305	167.536	0.00057323	0.00081875	0.00012126	259.31	5.0831e-06	3.6015e-06	385.58	87.801	5.1497e-06	1.0051e-05	160.82	64.011	30.558	14.807	5.5183e-06	33.392	0.00095149	0.00099944	0.00027698	265.41	1.0785e-05	1.0933e-05	380.93	89.334	1.0719e-05	1.078e-05	161.54	63.313	31.972	15.211	1.081e-05	33.126	155.275	197.113	164.263	152.508	220.654	323.397	151.202	158.132	370.699	250.289	156.038	158.936	161.210	165.887	427.165	163.439	-8191	255	
32823.754	1	1	0	0	0.11287	0.063096	0.071933	0.21257	0.1167	0.050374	0.11616	0.030889	0.24267	0.13647	0.16059	0.099439	0.12945	0.12194	0.27094	0.063633	-3.0187	-2.7479	-2.9792	-3.0167	-2.5521	-3.3521	-2.8479	-2.7958	-3.3521	-2.5167	-3.1708	-3.0083	-2.6792	-3.2646	-2.9417	-2.7646	453.459	451.527	433.086	493.734	318.984	446.630	291.508	406.740	355.113	355.865	255.255	485.423	277.601	389.633	400.566	457.307	0.00052491	0.00088757	0.00022975	256.39	4.9843e-06	4.9968e-06	388.92	87.056	1.5155e-06	1.1349e-05	159.63	63.936	30.431	14.943	7.038e-06	33.457	0.00095533	0.00099476	0.00027876	265.47	1.0791e-05	1.0875e-05	382.47	88.981	1.0783e-05	1.0924e-05	161.57	63.237	32.021	15.309	1.096e-05	33.201	140.396	313.833	246.055	152.841	339.385	377.522	151.265	157.632	353.273	261.096	156.124	159.180	161.496	165.819	264.042	163.253	-8191	255	
32823.875	1	1	0	0	0.18658	0.091466	0.24992	0.050514	0.10457	0.079871	0.39306	0.12415	0.16276	0.4718	0.15005	0.15717	0.13608	0.24109	0.23336	0.17033	-3.1083	-2.6958	-3.1729	-3.1479	-2.4562	-3.2958	-2.7625	-2.7562	-3.2583	-2.4938	-2.9875	-3.2958	-2.6083	-3.2792	-2.9021	-2.5896	407.380	479.545	264.730	157.214	482.888	285.999	432.087	493.771	376.165	208.602	434.779	412.003	350.822	378.543	271.886	397.585	0.00043785	0.00047824	6.3428e-05	256.97	5.6006e-06	5.0357e-06	387.05	89.046	4.2131e-06	2.4296e-06	160.36	63.674	30.793	14.94	2.5664e-06	33.485	0.00093731	0.00099758	0.00027648	264.6	1.0914e-05	1.0942e-05	382.04	89.186	1.0709e-05	1.0913e-05	161.03	63.205	32.015	15.263	1.0883e-05	33.027	156.578	209.893	155.119	152.228	277.413	367.928	151.664	157.244	317.355	295.172	155.944	159.560	161.636	165.498	411.847	163.341	-8191	255	
32823.969	1	1	0	0	0.28911	0.30297	0.085449	0.32996	0.12983	0.10995	0.30044	0.25983	0.17867	0.10422	0.20199	0.23628	0.088885	0.28626	0.13365	0.067427	-2.7313	-2.6708	-2.9833	-3.2021	-2.4479	-3.3354	-3.1417	-2.6521	-3.2375	-2.7417	-2.7854	-3.1833	-2.4542	-3.075	-2.9396	-2.4958	190.069	163.554	232.977	415.465	238.225	429.596	372.721	241.069	429.401	156.157	463.119	199.973	301.669	202.524	462.485	346.552	0.00042545	0.0015813	0.00010426	254.01	1.8357e-06	2.5708e-06	384.44	86.743	2.4676e-06	2.0902e-06	158.87	62.847	30.148	15.025	2.2757e-06	33.048	0.00095222	0.0010044	0.00027335	262.73	1.0811e-05	1.0804e-05	379.28	88.371	1.0794e-05	1.1073e-05	160.18	62.708	31.83	15.208	1.0943e-05	32.893	144.129	225.767	288.757	152.907	374.847	442.021	151.658	157.939	258.843	241.390	155.324	159.050	161.386	165.537	250.640	162.912	-8191	255	
32824.066	1	1	0	0	0.070607	0.20727	0.10087	0.031701	0.15544	0.084083	0.18251	0.2755	0.20849	0.12152	0.093338	0.30535	0.15195	0.17109	0.14074	0.1639	-2.6625	-2.5604	-2.6646	-3.2625	-2.4208	-3.05	-2.9938	-2.3563	-3.1167	-2.7396	-2.6312	-3.2708	-2.5646	-2.7583	-3.0854	-2.4	277.882	162.164	140.479	310.293	143.614	324.854	168.284	461.813	342.159	194.314	417.196	387.515	143.683	452.866	277.293	300.870	0.00074982	0.00088418	0.00015951	253.16	7.2064e-06	7.1768e-06	383.1	86.274	3.4455e-06	4.7094e-06	158.33	62.464	30.123	14.733	7.2454e-06	33.25	0.00096258	0.00099922	0.00027604	262.4	1.0751e-05	1.1073e-05	377.88	88.2	1.0812e-05	1.1048e-05	159.31	62.671	31.785	15.023	1.0789e-05	32.758	159.042	171.999	223.893	152.141	429.442	225.668	152.125	157.723	217.885	192.443	155.630	159.348	160.722	165.309	288.621	162.904	-8191	255	
32824.188	1	1	0	0	0.049067	0.20903	0.084255	0.031695	0.28623	0.047823	0.027997	0.35448	0.29175	0.095021	0.15917	0.09199	0.032083	0.141	0.11082	0.12006	-2.7146	-2.7313	-2.4125	-3.1188	-2.4521	-2.7271	-3.0583	-2.4562	-3.0687	-2.6937	-2.3187	-3.2979	-2.5979	-2.9042	-3.1396	-2.4896	414.607	366.622	423.804	185.918	364.305	445.660	435.958	453.859	418.987	437.262	457.638	316.094	308.228	283.793	496.028	359.508	0.00069181	0.00069294	0.00017423	256.11	6.7123e-06	5.3744e-06	383.83	86.323	3.1043e-06	3.9953e-06	160.3	63.299	30.144	14.683	6.7e-06	33.461	0.00095998	0.00098476	0.0002798	263.41	1.0978e-05	1.1069e-05	379.13	88.309	1.0823e-05	1.0947e-05	160.2	62.81	31.661	15.057	1.0856e-05	32.857	149.532	287.090	224.877	152.997	158.020	342.173	151.168	157.266	359.273	412.371	155.709	159.396	161.322	165.462	295.489	163.272	-8191	255	
32824.258	1	1	0	0	0.26304	0.1213	0.11416	0.045961	0.37549	0.11038	0.27443	0.23029	0.21806	0.096162	0.16268	0.30123	0.041822	0.063444	0.25786	0.21597	-2.6792	-2.75	-2.6333	-3.3833	-2.7313	-2.7521	-3.3583	-2.4979	-3.2771	-3.0667	-2.6146	-3.1542	-2.9875	-2.7271	-3.2021	-2.3646	285.620	159.905	332.665	315.697	147.340	192.324	470.360	454.778	357.900	325.649	321.709	280.727	394.339	475.828	465.992	384.588	0.00061247	0.00062342	8.9944e-05	254.61	2.457e-06	6.7449e-06	386.8	86.023	3.4765e-06	7.4007e-06	160.32	62.739	29.798	14.737	4.2106e-06	32.804	0.00095948	0.0010195	0.0002792	263.45	1.1015e-05	1.106e-05	381.23	87.962	1.103e-05	1.1153e-05	160.25	62.754	31.621	15.038	1.0854e-05	32.577	148.519	378.719	212.905	152.648	254.053	360.074	151.921	157.538	413.091	312.084	155.439	159.074	160.477	165.709	498.770	162.920	-8191	255	
32824.355	1	1	0	0	0.17588	0.31137	0.1907	0.1751	0.13382	0.07819	0.24204	0.027835	0.27078	0.11732	0.21537	0.29077	0.19096	0.054726	0.1112	0.11118	-2.7188	-3.0938	-2.3979	-3.2833	-2.8417	-2.7375	-3.3875	-2.6479	-2.9833	-2.9583	-2.5958	-3.2792	-2.9729	-2.725	-3.3438	-2.6979	442.814	485.274	360.587	278.351	462.365	177.471	387.504	483.256	229.102	233.919	286.456	382.490	284.791	327.974	318.520	440.382	0.00048646	0.00076528	0.00023907	258.04	3.9793e-06	7.2461e-06	381.03	85.682	6.0681e-06	6.8803e-06	155.64	62.237	29.639	14.555	1.2125e-05	32.692	0.00097863	0.0010107	0.00028276	264.7	1.1246e-05	1.1093e-05	378.6	87.567	1.1225e-05	1.1306e-05	158.24	62.275	31.462	14.986	1.1218e-05	32.409	142.264	343.282	220.750	151.975	215.560	279.876	151.333	157.649	314.427	285.892	155.640	159.911	160.768	166.452	308.214	162.976	-8191	255	
32824.449	1	1	0	0	0.14646	0.089703	0.065009	0.22016	0.032508	0.27252	0.24576	0.0083762	0.095116	0.24814	0.33023	0.24918	0.026936	0.30352	0.16784	0.2468	-2.5938	-3.1646	-2.4979	-3.0938	-2.8771	-2.5667	-3.4229	-2.4813	-2.7375	-3.1729	-2.6063	-3.1979	-2.9437	-2.4979	-3.3271	-2.8167	379.005	176.935	210.102	333.077	341.446	355.751	381.850	402.022	203.138	372.728	354.960	195.414	298.104	479.054	179.215	172.800	0.00069016	0.00064969	0.00032098	253.56	5.6572e-06	8.2997e-06	381.97	84.957	1.4642e-06	8.4996e-06	156.58	62.394	29.593	14.585	4.8304e-06	32.681	0.00099539	0.0010208	0.0002888	262.37	1.1303e-05	1.1309e-05	378.02	87.196	1.1249e-05	1.1194e-05	158.78	62.455	31.491	15.015	1.1305e-05	32.476	162.415	493.947	167.639	152.598	367.781	247.778	151.533	157.255	461.433	379.607	155.628	159.844	160.729	166.130	294.959	162.848	-8191	255	
32824.570	1	1	0	0	0.094685	0.019947	0.17362	0.15901	0.33023	0.24401	0.23342	0.14224	0.23795	0.088791	0.10931	0.14712	0.34384	0.16987	0.14605	0.18519	-2.4896	-3.2479	-2.375	-3.175	-2.9396	-2.6458	-3.4313	-2.7479	-2.6271	-3.3	-2.4708	-3.1542	-3.0292	-2.3375	-3.3896	-2.8688	437.576	456.064	390.007	488.366	154.373	278.328	438.521	418.635	349.885	287.108	332.887	481.271	429.612	212.947	265.736	170.394	0.00051812	0.0010545	0.00019168	252.88	1.986e-06	7.3721e-07	383.3	84.921	4.4783e-07	4.4231e-06	155.58	62.047	29.429	14.473	6.8053e-06	32.505	0.00099166	0.0010352	0.0002907	262.29	1.1224e-05	1.1306e-05	377.59	87.298	1.1328e-05	1.1411e-05	158.62	62.209	31.352	14.925	1.1327e-05	32.357	146.948	471.345	151.249	152.391	342.062	181.813	151.350	157.312	144.085	342.472	155.757	159.662	161.812	165.435	286.135	162.897	-8191	255	
32824.664	1	1	0	0	0.25257	0.17	0.12434	0.10768	0.2356	0.034296	0.026705	0.09194	0.28335	0.1073	0.10329	0.26681	0.24032	0.27534	0.13596	0.12398	-2.275	-3.2146	-2.4958	-2.9521	-3.1312	-2.4833	-3.1875	-2.7938	-2.6542	-3.2604	-2.7062	-2.875	-3.25	-2.45	-3.1646	-2.9104	260.563	141.120	357.633	267.141	306.484	403.839	462.491	489.955	247.125	408.486	452.690	140.597	181.344	141.962	326.791	414.592	0.00053133	0.0011957	0.00022468	251.51	7.2341e-06	2.6177e-06	379.29	85.057	3.23e-06	1.5671e-06	156.96	61.538	29.485	14.319	3.3671e-06	32.025	0.0009963	0.0010429	0.00029644	262.25	1.1248e-05	1.1392e-05	376.47	86.984	1.1297e-05	1.1454e-05	158.33	61.687	31.314	14.842	1.1589e-05	32.161	149.732	212.896	189.105	152.521	497.905	145.253	151.180	157.513	210.177	468.671	155.649	159.872	161.102	165.559	331.876	162.725	-8191	255	
32824.762	1	1	0	0	0.14862	0.1306	0.17982	0.25765	0.12327	0.20164	0.17481	0.216	0.28698	0.12194	0.31713	0.20404	0.14391	0.38528	0.15748	0.16287	-1.9396	-3.3354	-2.5333	-2.9083	-3.2667	-2.3333	-3.1792	-2.825	-2.55	-3.1292	-2.7979	-2.9313	-3.3438	-2.3604	-3.0417	-3.0667	493.309	334.416	214.943	374.386	335.330	455.679	368.710	473.866	204.455	248.314	203.327	150.721	437.348	479.378	160.862	458.272	0.00055243	0.00057657	0.00020883	249.37	3.0929e-06	2.6073e-06	374.19	84.884	8.8404e-07	3.709e-06	154.23	60.86	29.055	14.284	5.5701e-06	31.518	0.0010114	0.0010657	0.00029343	260.26	1.1468e-05	1.1564e-05	374.32	86.688	1.1562e-05	1.1685e-05	156.86	61.342	31.094	14.765	1.1622e-05	31.736	151.573	230.521	228.787	151.812	207.406	417.634	151.869	157.210	341.451	269.059	155.605	159.595	161.143	165.723	155.018	162.678	-8191	255	
32824.836	1	1	0	0	0.25166	0.20225	0.23257	0.36967	0.1941	0.040084	0.16626	0.023867	0.1596	0.1677	0.10319	0.041234	0.11176	0.059469	0.06944	0.043724	-2.0333	-3.2333	-2.7333	-2.7854	-3.1646	-2.3937	-3.1146	-3.0625	-2.4292	-3.1688	-2.7354	-2.6396	-3.2146	-2.5229	-2.95	-2.9646	192.573	148.857	314.913	443.083	478.221	425.526	146.421	457.319	151.143	449.742	492.006	360.963	375.992	394.772	451.024	318.299	0.0005113	0.00076983	9.361e-05	248.98	3.0338e-06	4.9409e-06	375.05	84.43	1.0003e-06	1.0365e-05	155.22	60.936	28.942	14.202	7.7381e-06	31.807	0.0010075	0.0010698	0.00029772	260.41	1.1524e-05	1.1832e-05	373.08	86.397	1.155e-05	1.177e-05	157.14	61.197	31.091	14.731	1.1599e-05	31.759	496.996	273.385	334.343	152.153	280.287	356.474	151.339	157.398	230.831	204.196	154.984	159.743	162.136	165.708	411.388	162.896	-8191	255	
32824.953	1	1	0	0	0.18653	0.081574	0.0099302	0.042842	0.036424	0.09623	0.039737	0.11409	0.28407	0.027203	0.10544	0.14801	0.18092	0.34365	0.11862	0.24177	-2.0146	-3.35	-2.8875	-2.6875	-3.1354	-2.7021	-2.9917	-3.2521	-2.5458	-3.1458	-2.8021	-2.7208	-3.3937	-2.5396	-2.8625	-3.1917	214.540	300.754	197.433	347.539	190.371	487.088	278.566	398.407	328.083	490.130	431.016	321.352	300.609	474.982	314.496	382.155	0.00042678	0.00025453	0.0002812	245.71	7.2809e-06	4.6209e-06	376.38	82.334	4.8192e-06	9.4695e-06	155.42	60.658	28.985	14.05	6.3202e-06	31.815	0.0010192	0.0010853	0.00029504	259.29	1.1575e-05	1.1886e-05	373.89	85.606	1.1723e-05	1.1854e-05	156.79	61.162	30.97	14.669	1.183e-05	31.764	147.547	240.389	338.164	152.342	305.436	425.446	151.998	157.577	174.278	287.255	156.187	159.696	161.396	165.467	231.366	162.603	-8191	255	
32825.051	1	1	0	0	0.030325	0.09013	0.43018	0.074183	0.12189	0.15945	0.14448	0.055222	0.18365	0.074406	0.11728	0.065386	0.099288	0.027408	0.16003	0.18474	-2.2354	-2.9542	-3.0062	-2.7521	-3.15	-2.7	-2.7521	-3.3312	-2.5021	-3.1458	-3.0375	-2.425	-3.2521	-2.6646	-2.8125	-3.1792	205.380	335.677	462.112	453.562	427.659	235.890	428.342	370.468	200.366	250.985	430.804	472.553	229.389	477.548	420.001	383.300	0.00047481	0.00036126	6.2435e-05	247.94	5.7582e-06	9.0008e-06	373.26	82.661	1.2458e-06	8.3445e-06	151.96	60.351	28.754	14.097	6.1343e-06	31.365	0.0010397	0.0010888	0.00029775	258.86	1.1901e-05	1.1913e-05	371.93	85.834	1.1592e-05	1.2072e-05	155.67	60.656	30.715	14.612	1.1868e-05	31.473	153.976	381.615	196.894	152.902	203.677	491.246	151.710	157.517	325.281	320.031	155.417	160.012	161.423	165.607	281.565	162.922	-8191	255	
32825.145	1	1	0	0	0.18747	0.024364	0.10281	0.11734	0.14908	0.2527	0.014322	0.06457	0.20488	0.10238	0.20736	0.097898	0.14912	0.11498	0.11639	0.10822	-2.2479	-3.1125	-3	-2.5625	-3.2479	-2.7562	-2.6458	-3.1958	-2.6479	-3.0604	-3.2083	-2.5354	-3.2396	-2.6979	-2.8729	-3.2521	301.926	313.898	316.191	364.592	151.548	196.600	355.340	387.480	182.145	371.324	413.427	430.657	494.912	143.655	293.052	426.103	0.0004328	0.00032086	4.593e-05	245.44	2.2526e-06	4.8084e-06	370.14	82.764	8.4908e-06	6.0723e-06	152.09	59.674	28.822	13.914	4.3692e-06	31.322	0.0010349	0.001087	0.00030582	257.6	1.1968e-05	1.1878e-05	370.28	85.62	1.2014e-05	1.2173e-05	155	60.26	30.849	14.526	1.1995e-05	31.419	496.763	285.329	214.366	152.102	249.307	239.823	151.631	157.285	251.271	253.574	156.075	159.007	161.286	165.355	153.424	163.714	-8191	255	
32825.266	1	1	0	0	0.24904	0.21344	0.13624	0.13179	0.26876	0.05197	0.22834	0.20647	0.18528	0.12813	0.23564	0.12444	0.022226	0.2546	0.097492	0.26389	-2.1604	-3.0187	-3.1875	-2.5292	-3.1146	-2.9229	-2.6771	-3.2417	-2.7146	-2.9146	-3.1833	-2.4042	-3.2125	-2.9167	-2.6292	-3.2854	319.315	344.122	369.497	240.671	293.791	475.281	450.415	442.323	397.204	407.012	419.484	307.832	380.437	473.100	407.659	467.316	0.00054295	0.00081166	0.0001109	247.51	2.6872e-06	7.8158e-06	373.78	82.704	5.7317e-06	6.4482e-06	151.59	60.401	28.488	13.932	2.7364e-06	31.452	0.0010341	0.0011067	0.00030651	258.14	1.1872e-05	1.2242e-05	369.72	85.093	1.2056e-05	1.2037e-05	155.11	60.611	30.758	14.432	1.1998e-05	31.388	157.788	323.639	196.506	152.573	181.696	324.312	151.281	157.705	286.047	447.767	155.680	159.755	161.630	166.446	310.478	162.959	-8191	255	
32825.363	1	1	0	0	0.23382	0.18014	0.28536	0.24627	0.17076	0.28856	0.079986	0.095853	0.17109	0.10628	0.1223	0.19482	0.16136	0.13672	0.12875	0.22959	-2.1125	-2.7854	-3.175	-2.5708	-3.2875	-2.8875	-2.6854	-3.3	-2.7417	-2.6854	-3.1958	-2.4062	-2.9125	-3.0729	-2.6396	-3.2167	245.788	469.819	472.536	317.119	260.919	372.890	145.275	313.359	194.085	316.989	275.287	196.676	184.235	250.815	394.045	455.866	0.00052149	0.00056792	8.6216e-05	246.15	2.3974e-06	4.3975e-06	371.28	82.183	3.5307e-06	6.4402e-07	152.33	60.243	28.815	13.806	1.2937e-05	30.81	0.00107	0.0011175	0.00030832	257.44	1.1917e-05	1.2128e-05	369.66	85.196	1.2019e-05	1.2426e-05	155.29	60.499	30.682	14.415	1.2231e-05	31.154	151.389	372.849	235.966	151.907	171.002	307.096	152.102	157.316	273.528	236.397	156.371	159.500	161.550	165.820	280.557	163.300	-8191	255	
32825.457	1	1	0	0	0.36441	0.14405	0.19696	0.14156	0.11438	0.1453	0.18199	0.11052	0.27136	0.17314	0.092914	0.20743	0.098429	0.14178	0.26349	0.37269	-2.2458	-2.7479	-3.1229	-2.6542	-3.0583	-3.3125	-2.5229	-3.1667	-2.8104	-2.5583	-3.3125	-2.4771	-3.0375	-3.275	-2.5354	-3.3542	184.222	286.117	441.863	164.016	376.401	222.753	255.069	352.565	262.576	245.057	481.039	437.545	208.608	368.118	324.759	434.406	0.00045331	0.00071018	0.00019891	242.84	5.5986e-06	6.0766e-06	366.42	82.47	6.7823e-06	1.3144e-06	148.69	58.989	27.95	13.655	3.933e-06	30.854	0.0010782	0.0011206	0.00030754	256.19	1.2271e-05	1.2242e-05	366.54	84.851	1.2171e-05	1.2276e-05	152.87	59.792	30.45	14.341	1.2183e-05	30.855	150.696	245.015	199.742	152.636	286.242	279.018	151.722	157.172	307.624	316.782	156.095	159.777	161.725	166.227	332.528	162.830	-8191	255	
32825.555	1	1	0	0	0.18055	0.1975	0.30177	0.14511	0.16233	0.14885	0.15966	0.10515	0.19026	0.18688	0.083325	0.13831	0.18842	0.22349	0.2516	0.19516	-2.65	-2.6708	-3.2917	-2.6437	-2.9021	-3.3146	-2.4229	-3.0208	-2.7854	-2.7958	-3.0833	-2.4729	-2.9271	-3.3167	-2.5458	-3.2146	351.809	254.799	207.486	139.779	143.004	358.665	420.638	277.521	405.755	471.841	237.859	206.022	258.608	312.813	358.451	367.192	0.00047622	0.00035234	0.00021054	245.75	1.7623e-06	4.3819e-06	367.99	79.798	2.9293e-06	7.1629e-06	149.11	59.195	28.316	13.523	1.1839e-05	30.653	0.001076	0.0011195	0.00031134	254.93	1.2328e-05	1.2385e-05	366.17	83.903	1.2129e-05	1.2244e-05	152.9	59.544	30.401	14.231	1.2253e-05	30.689	165.629	249.365	186.583	152.143	375.841	309.198	151.819	157.574	239.661	263.022	155.761	159.428	161.129	165.608	324.748	162.676	-8191	255	
32825.648	1	1	0	0	0.20829	0.10159	0.08909	0.23626	0.24125	0.08879	0.11932	0.11885	0.14241	0.045856	0.105	0.11239	0.16319	0.072446	0.15591	0.13177	-2.5417	-2.5604	-3.1729	-2.7042	-2.6979	-3.3167	-2.4979	-3.1021	-3.0938	-2.5604	-3.2771	-2.7958	-2.6333	-3.3	-2.6125	-2.9417	283.355	431.142	442.311	285.005	446.840	152.138	206.291	410.956	201.091	288.996	330.908	271.198	485.115	189.818	405.061	408.216	0.00044649	0.001243	0.00011081	242.93	3.719e-06	4.9258e-06	367.19	81.086	4.7908e-06	6.1317e-06	150.17	58.709	28.071	13.669	4.8949e-06	30.372	0.0010671	0.0011377	0.00030962	254.64	1.2184e-05	1.2243e-05	365.24	83.907	1.2277e-05	1.2347e-05	152.6	59.411	30.278	14.227	1.223e-05	30.684	152.748	189.344	237.531	152.219	249.716	189.019	151.325	157.519	297.339	246.747	155.193	159.608	161.405	165.751	161.630	162.973	-8191	255	
32825.746	1	1	0	0	0.12832	0.091463	0.052801	0.16564	0.11908	0.18343	0.069939	0.19281	0.072207	0.12897	0.021237	0.16551	0.12023	0.20807	0.055374	0.095704	-2.525	-2.3979	-3.1646	-2.8708	-2.6979	-3.3333	-2.7083	-2.925	-3.2479	-2.525	-3.2521	-2.9604	-2.4125	-3.3354	-2.7812	-3.1708	233.369	312.245	291.293	212.787	432.606	493.208	311.861	188.943	282.468	265.674	473.643	366.602	332.019	467.876	314.044	161.454	0.00055609	0.00095433	0.00021304	241.85	1.4444e-06	9.7906e-07	361.03	80.7	4.3172e-06	7.9636e-06	149.21	58.422	28.026	13.656	6.352e-06	30.45	0.0010735	0.0011375	0.00031102	254.35	1.2348e-05	1.2291e-05	362.31	83.947	1.2173e-05	1.2284e-05	152.66	59.547	30.263	14.284	1.2262e-05	30.735	139.860	223.688	446.481	153.004	231.262	484.254	151.269	157.651	316.277	331.067	156.043	159.241	162.122	165.568	447.203	162.655	-8191	255	
32825.867	1	1	0	0	0.21304	0.15491	0.21489	0.42412	0.21523	0.013864	0.020931	0.25426	0.27379	0.032555	0.34406	0.24772	0.11851	0.28453	0.17237	0.25194	-2.7979	-2.3812	-3.2167	-2.9313	-2.6729	-3.3438	-2.8167	-2.9104	-3.3063	-2.5604	-3.1542	-2.7917	-2.4688	-3.3604	-2.7188	-2.8604	189.031	180.787	360.112	365.704	496.739	394.268	223.709	430.578	389.959	391.099	185.789	443.874	326.093	389.967	379.589	390.922	0.00026119	0.001096	0.0001383	243.74	5.1249e-06	1.2334e-05	363.62	81.255	8.8932e-07	4.519e-06	149.52	58.889	28.204	13.669	1.9179e-06	30.615	0.0010688	0.0011147	0.00031279	254.86	1.2306e-05	1.2154e-05	363.63	84.15	1.2148e-05	1.2247e-05	152.83	59.612	30.264	14.256	1.2243e-05	30.839	165.302	179.557	242.497	153.074	308.542	246.203	151.450	158.391	320.891	245.935	155.667	159.951	160.976	165.938	441.245	162.887	-8191	255	
32825.965	1	1	0	0	0.2395	0.067071	0.052282	0.21987	0.086494	0.26819	0.13727	0.23222	0.30228	0.18071	0.16042	0.16261	0.085876	0.11902	0.29602	0.042993	-2.7687	-2.7167	-3.1667	-2.9792	-2.5542	-3.2125	-2.8417	-2.6312	-3.1396	-2.5104	-2.9646	-3.2125	-2.4021	-3.2583	-2.7313	-2.7167	390.514	343.993	186.241	256.029	324.358	297.790	418.071	147.489	459.399	442.629	399.705	386.457	214.327	191.164	457.406	200.665	0.00054129	0.00050322	0.00018512	240.76	6.978e-06	9.315e-06	364.69	81.248	5.3061e-06	3.0543e-06	149.58	59.19	27.83	13.628	8.4249e-06	30.906	0.0010521	0.0011209	0.00031777	253.56	1.2058e-05	1.2264e-05	364.76	84.27	1.2034e-05	1.2322e-05	152.6	59.727	30.306	14.328	1.2329e-05	30.879	162.748	143.950	280.573	152.580	284.906	345.302	151.710	157.911	297.323	151.061	155.898	159.563	161.653	165.488	281.790	163.145	-8191	255	
32826.059	1	1	0	0	0.21889	0.20081	0.1503	0.17006	0.092749	0.17323	0.30825	0.34431	0.16947	0.096525	0.16074	0.082779	0.049387	0.076478	0.11646	0.12759	-2.9188	-2.4708	-3.0104	-3.1042	-2.4979	-3.2354	-2.875	-2.7021	-3.4208	-2.55	-2.9979	-3.1562	-2.5542	-3.1729	-2.8438	-2.5729	311.738	175.923	395.518	415.556	221.208	252.841	239.848	400.177	165.814	349.439	173.648	445.723	495.987	155.755	220.551	147.426	0.00054239	0.0003327	0.00015936	241.85	3.2194e-06	2.5242e-06	361.96	81.325	1.9338e-06	4.135e-06	151.7	59.664	28.484	13.764	3.3257e-06	31.105	0.0010505	0.0011393	0.00031162	254.19	1.2085e-05	1.2429e-05	364.2	84.424	1.2093e-05	1.2315e-05	153.9	60.019	30.382	14.428	1.2355e-05	31.038	157.275	473.788	264.550	152.672	349.911	206.000	151.627	157.308	492.711	207.309	155.385	159.599	161.567	166.613	416.600	163.050	-8191	255	
32826.133	1	1	0	0	0.057786	0.13714	0.25923	0.1458	0.17121	0.15004	0.052173	0.3433	0.25155	0.111	0.16758	0.24774	0.13702	0.13603	0.09694	0.074729	-2.9021	-2.7708	-2.6896	-3.1208	-2.4313	-3.1104	-3.1479	-2.7	-3.1854	-2.5604	-2.7458	-3.1979	-2.5521	-3.0771	-2.85	-2.4688	366.798	190.047	326.207	209.407	458.395	358.931	469.523	286.894	213.629	175.387	339.680	467.059	475.744	270.713	240.647	244.258	0.00055548	0.0014232	0.00016682	244.76	4.0218e-06	3.2144e-06	364.78	81.902	8.0409e-06	7.0134e-06	149.4	58.986	28.309	13.863	2.4242e-06	31.179	0.0010618	0.0011256	0.00031354	256.25	1.2084e-05	1.235e-05	367.28	84.847	1.2141e-05	1.2371e-05	153.63	60.109	30.591	14.463	1.2437e-05	31.145	154.540	198.485	289.499	152.691	337.045	211.686	151.847	158.403	419.008	302.233	155.434	159.371	161.422	165.922	455.327	162.990	-8191	255	
32826.250	1	1	0	0	0.18445	0.32103	0.14654	0.18147	0.14839	0.17897	0.31411	0.10446	0.23782	0.082807	0.15488	0.26525	0.14269	0.042402	0.10642	0.23802	-2.9437	-2.6583	-2.7771	-3.3	-2.575	-3.0062	-3.1813	-2.7271	-3.475	-2.7667	-2.6813	-3.3292	-2.5979	-2.9875	-3.2729	-2.6167	355.965	252.755	286.662	440.174	470.707	373.068	322.042	412.920	416.873	235.321	337.647	408.982	211.063	353.366	300.601	272.702	0.00039748	0.00081501	0.00022393	241.63	2.7737e-06	2.5865e-06	365.5	81.053	2.601e-06	3.5435e-06	148.14	59.388	28.209	13.813	6.9128e-07	30.725	0.0010673	0.0011403	0.00031565	255.71	1.2291e-05	1.2316e-05	365.23	84.37	1.2446e-05	1.2472e-05	152.9	60.091	30.546	14.467	1.261e-05	30.987	161.465	278.087	161.609	152.846	206.922	167.269	151.837	157.331	429.033	415.649	156.551	159.700	161.967	165.362	376.117	163.581	-8191	255	
32826.348	1	1	0	0	0.097879	0.16778	0.14968	0.10165	0.073327	0.14352	0.22021	0.19663	0.053268	0.039123	0.1432	0.15626	0.31743	0.16464	0.037893	0.1534	-2.8292	-2.8417	-2.6979	-3.1896	-2.7354	-2.9458	-3.2542	-2.4813	-3.2375	-2.9354	-2.5312	-3.1688	-2.5771	-2.9146	-3.4333	-2.5875	485.863	156.079	484.291	154.037	401.118	206.590	233.046	440.637	191.249	490.021	210.579	429.155	208.490	357.648	429.436	221.782	0.000487	0.00079213	9.495e-05	239.64	6.8839e-06	5.6015e-06	366.49	81.216	2.6921e-06	8.1573e-06	150.35	59.481	28.636	13.804	7.3352e-06	30.658	0.001077	0.0011501	0.00031789	255.62	1.2511e-05	1.2519e-05	366.25	84.653	1.2635e-05	1.2731e-05	153.95	60.074	30.723	14.486	1.2511e-05	31.063	149.160	249.618	160.721	152.232	286.056	252.046	151.826	157.493	203.393	278.653	155.855	159.525	161.113	166.315	467.173	162.877	-8191	255	
32826.445	1	1	0	0	0.19959	0.049288	0.34344	0.10288	0.081712	0.053833	0.41238	0.27151	0.19707	0.10147	0.25926	0.14014	0.41229	0.061708	0.18018	0.024123	-2.8625	-3.0812	-2.4458	-3.4521	-2.7938	-2.7917	-3.3646	-2.6396	-3.2167	-3.0958	-2.5354	-3.2958	-2.7687	-2.7875	-3.4729	-2.6417	226.854	302.903	460.946	301.217	380.221	439.248	143.821	213.325	333.867	443.525	342.344	239.521	229.523	298.425	335.074	205.150	0.00060843	0.0010175	0.00020136	244.5	1.3483e-06	1.434e-05	370.49	82.388	7.5052e-06	1.0514e-05	151.9	59.559	28.429	13.847	7.5637e-06	31.201	0.0010826	0.0011648	0.00031948	256.22	1.2578e-05	1.2735e-05	367.45	84.997	1.2524e-05	1.2606e-05	155.05	60.456	30.739	14.521	1.2493e-05	31.193	158.125	261.575	159.952	152.715	282.978	173.920	150.904	157.460	449.272	351.976	155.430	159.616	161.403	165.117	261.514	162.907	-8191	255	
32826.539	1	1	0	0	0.22971	0.13728	0.15183	0.071913	0.1587	0.29443	0.031912	0.33042	0.13521	0.092346	0.29315	0.11285	0.079621	0.013019	0.075479	0.059426	-2.5625	-3.0083	-2.3125	-3.2729	-2.7396	-2.6354	-3.2646	-2.5521	-2.8688	-3.1188	-2.6125	-3.2521	-2.8792	-2.7875	-3.2562	-2.6729	301.717	270.166	176.296	422.364	427.817	191.623	163.923	146.348	202.847	352.520	414.878	172.679	140.805	164.075	274.912	488.435	0.00049807	0.00076697	0.00025812	242.14	2.4433e-06	6.091e-06	371.69	82.779	4.9619e-06	9.0961e-06	150.66	59.793	28.54	13.7	1.6371e-06	31.019	0.0010908	0.0011428	0.00032184	256.22	1.2698e-05	1.2665e-05	369.33	85.373	1.2567e-05	1.2584e-05	154.42	60.419	30.799	14.585	1.2556e-05	31.201	152.877	396.098	212.495	152.592	179.152	441.948	151.557	157.302	279.712	333.804	155.938	159.470	161.632	165.642	377.031	162.680	-8191	255	
32826.660	1	1	0	0	0.14833	0.13519	0.17705	0.19836	0.20745	0.1137	0.058661	0.16276	0.027278	0.06403	0.17154	0.29483	0.1853	0.11397	0.11346	0.062038	-2.4854	-3.2354	-2.525	-3.1792	-2.9208	-2.6458	-3.2687	-2.7042	-2.7667	-3.2458	-2.5146	-3.3292	-3.0229	-2.7375	-3.4021	-2.7521	355.681	400.800	380.439	143.193	321.338	167.974	475.573	358.838	292.945	151.888	485.818	445.242	456.718	405.174	386.785	165.677	0.00053717	0.00036869	0.00017165	242.37	3.5331e-06	6.8394e-06	364.52	81.445	4.2768e-06	6.7564e-06	150.07	59.228	28.413	13.79	1.0113e-05	30.746	0.0010944	0.0011425	0.00031916	256.55	1.2541e-05	1.266e-05	365.57	84.546	1.2577e-05	1.2626e-05	153.5	60.25	30.663	14.499	1.261e-05	30.995	140.227	322.939	202.817	153.088	321.933	358.347	151.746	158.011	373.411	158.441	155.610	159.812	161.601	165.760	299.222	162.842	-8191	255	
32826.730	1	1	0	0	0.036805	0.0525	0.079981	0.19704	0.10608	0.20174	0.16468	0.1549	0.12706	0.10356	0.14826	0.11138	0.19542	0.26465	0.047771	0.11466	-2.3042	-3.2208	-2.5167	-3.2125	-2.9479	-2.5438	-3.3021	-2.6208	-2.7396	-3.3854	-2.5146	-3.0812	-3.0958	-2.5083	-3.2438	-2.9125	163.654	410.954	346.774	140.934	465.316	446.693	398.077	361.309	482.626	271.156	379.595	461.231	371.615	451.436	221.391	260.282	0.00041325	0.00064651	0.00018201	243.71	9.7628e-07	7.6215e-06	363.2	81.837	4.2169e-06	8.1933e-06	148.95	59.376	28.474	13.915	7.5227e-06	31.051	0.0011157	0.0011603	0.00032058	256.65	1.2575e-05	1.2439e-05	366.45	84.957	1.2576e-05	1.2517e-05	153.55	60.138	30.757	14.565	1.2699e-05	31.219	497.911	420.234	208.839	152.684	492.716	288.168	151.624	157.739	232.602	325.965	155.650	159.441	161.243	166.132	394.061	162.462	-8191	255	
32826.824	1	1	0	0	0.072335	0.10958	0.16254	0.20095	0.187	0.11926	0.19014	0.25887	0.048617	0.056803	0.11374	0.056111	0.17162	0.094127	0.30007	0.14088	-2.3229	-3.2542	-2.5312	-2.9583	-3.2313	-2.4021	-3.3917	-2.8958	-2.4625	-3.2812	-2.4646	-2.8688	-3.1854	-2.4479	-3.0917	-2.9375	445.553	239.437	216.379	474.659	296.790	481.041	462.670	442.911	413.832	248.472	379.828	460.889	286.596	149.055	435.421	393.675	0.00029665	0.00023257	8.5789e-05	242.22	4.7155e-06	3.8472e-06	368.15	82.289	3.9312e-06	6.0805e-06	149.15	59.773	28.467	13.902	4.5503e-06	31.108	0.001091	0.0011531	0.00032305	256.24	1.2522e-05	1.2664e-05	367.54	84.976	1.2411e-05	1.2828e-05	154.03	60.461	31.008	14.544	1.2508e-05	31.328	145.378	416.512	403.345	151.980	231.214	266.298	151.434	157.173	296.360	336.126	155.661	160.051	161.651	166.436	338.510	162.786	-8191	255	
32826.945	1	1	0	0	0.11845	0.2078	0.16155	0.087904	0.22907	0.07226	0.064818	0.069387	0.15522	0.14819	0.050015	0.17031	0.15968	0.20424	0.14947	0.37949	-2.0729	-3.2167	-2.6625	-2.8417	-3.1208	-2.5958	-3.0771	-2.9667	-2.4562	-3.4042	-2.8833	-2.7042	-3.1646	-2.5125	-3.1083	-3.2042	183.265	249.635	334.595	449.702	492.778	290.735	149.974	477.112	488.104	384.698	437.569	460.368	216.917	485.970	455.692	432.394	0.00049381	0.00039601	0.00019438	244.39	9.7024e-06	7.3412e-06	368.08	82.463	8.1042e-06	4.6049e-06	150.88	59.918	28.277	13.768	5.503e-06	30.89	0.0010912	0.0011462	0.00032593	257.31	1.2567e-05	1.2714e-05	367.58	84.78	1.2591e-05	1.27e-05	154.53	60.351	30.703	14.491	1.2679e-05	31.229	146.643	350.191	198.389	152.093	299.370	317.550	151.835	157.680	195.729	143.607	155.307	159.098	160.903	165.530	390.523	162.780	-8191	255	
32827.043	1	1	0	0	0.19437	0.14103	0.15839	0.11527	0.19482	0.099975	0.11665	0.091905	0.051435	0.026528	0.068483	0.18798	0.03335	0.10427	0.13437	0.061925	-2.3292	-3.4458	-2.7062	-2.6958	-3.35	-2.5292	-3.0729	-2.9708	-2.5521	-3.3646	-2.8104	-2.5083	-3.2313	-2.4271	-2.9042	-3.0771	488.231	375.062	203.668	266.371	452.858	170.175	409.749	445.769	269.463	469.085	366.029	331.737	382.112	408.345	486.344	193.859	0.00060964	0.00063978	2.0819e-05	240.57	6.6965e-06	5.1619e-06	366.62	81.648	3.1255e-06	5.2113e-06	149.74	59.304	28.46	14.009	5.2272e-06	31.102	0.0010883	0.0011623	0.0003281	254.75	1.2583e-05	1.2689e-05	365.92	84.899	1.2549e-05	1.2731e-05	154.06	60.017	30.717	14.555	1.2794e-05	31.114	156.491	476.023	214.334	152.731	328.355	275.047	151.335	157.564	403.981	381.309	155.334	160.446	161.322	165.337	207.659	163.011	-8191	255	
32827.141	1	1	0	0	0.2569	0.049553	0.049052	0.1719	0.11788	0.33283	0.19992	0.10456	0.14358	0.2547	0.078842	0.070108	0.13489	0.14167	0.15607	0.20168	-2.1083	-3.1146	-2.85	-2.5958	-3.2687	-2.4729	-2.8375	-3.2354	-2.4208	-3.1979	-2.8563	-2.6958	-3.3937	-2.7021	-2.9146	-3.1542	370.904	433.738	188.929	450.352	269.800	291.124	142.528	228.532	338.016	488.946	444.476	252.132	440.521	471.866	346.832	388.282	0.00035939	0.00062483	0.0001369	242.6	2.4633e-06	4.4315e-06	364.83	81.584	3.8124e-06	6.4694e-06	151.75	59.527	28.478	13.786	5.4059e-06	31.049	0.0010999	0.0011738	0.00033083	255.14	1.2684e-05	1.3002e-05	365.63	84.772	1.2567e-05	1.2972e-05	154.54	60.075	30.855	14.547	1.2729e-05	31.19	155.838	428.520	491.041	152.703	303.321	429.153	151.458	158.014	262.230	491.686	156.088	159.650	161.573	165.535	291.638	162.977	-8191	255	
32827.234	1	1	0	0	0.17438	0.21119	0.12143	0.12988	0.085288	0.25649	0.31757	0.12264	0.18561	0.22718	0.090901	0.12792	0.2726	0.29765	0.19991	0.10323	-2.1063	-3.1896	-2.9688	-2.475	-3.3438	-2.6708	-2.7479	-3.1771	-2.6312	-3.0667	-3.1354	-2.5229	-3.2771	-2.7562	-2.7938	-3.3812	320.938	497.559	461.009	274.187	155.917	331.550	468.251	149.188	260.568	175.754	265.597	438.849	348.973	190.485	429.485	452.051	0.00038519	0.00070833	0.00016665	239.51	4.625e-06	4.3936e-07	367.17	81.592	6.9799e-06	2.0263e-06	151.58	59.789	28.149	13.979	9.5253e-06	31.255	0.0011039	0.0011646	0.00032313	255.35	1.252e-05	1.3103e-05	367.86	84.97	1.2743e-05	1.2862e-05	154.44	60.415	30.764	14.638	1.2961e-05	31.435	139.888	196.852	168.818	152.886	363.133	432.387	151.212	157.577	308.514	301.842	155.652	159.137	161.227	165.735	265.074	163.076	-8191	255	
32827.355	1	1	0	0	0.32912	0.19152	0.025658	0.045546	0.01516	0.14965	0.16864	0.092451	0.16603	0.15142	0.40253	0.2042	0.32471	0.29111	0.10806	0.087924	-2.1396	-2.9	-3.0271	-2.6271	-3.2125	-3.0146	-2.7208	-3.3396	-2.5292	-3.1417	-3.25	-2.6	-3.1083	-2.9542	-2.7313	-3.3896	162.039	153.025	235.305	192.880	334.622	370.337	389.343	235.490	193.418	431.763	195.104	466.459	146.533	139.648	497.052	155.695	0.00033702	0.00074739	0.00010206	241.79	8.3195e-06	7.6869e-06	364.28	81.499	5.1417e-06	5.6262e-06	149.41	59.742	28.009	13.762	8.4286e-06	31.136	0.0011129	0.0011766	0.00032699	256.08	1.2776e-05	1.2948e-05	365.78	84.818	1.274e-05	1.2925e-05	153.97	60.273	30.827	14.506	1.2864e-05	31.191	154.257	203.014	425.123	151.872	347.276	266.222	151.668	157.353	222.535	151.231	155.863	159.997	161.482	165.601	261.731	162.721	-8191	255	
32827.430	1	1	0	0	0.13813	0.146	0.05999	0.093182	0.11695	0.30527	0.14517	0.21002	0.071576	0.19607	0.13741	0.13462	0.23511	0.11156	0.20068	0.15199	-2.2708	-2.9354	-3.3021	-2.625	-3.2083	-3.0438	-2.5479	-3.1771	-2.6375	-2.9542	-3.2896	-2.4062	-3.1958	-3.0417	-2.5271	-3.3125	181.691	448.632	160.125	251.661	161.085	457.642	413.170	387.572	151.260	470.630	407.133	490.721	246.308	248.729	389.781	155.642	0.000357	0.00041084	0.00014901	240.93	6.9066e-06	2.6653e-06	360.27	81.89	3.9242e-06	1.4895e-06	150.17	59.001	28.579	13.997	5.7257e-06	31.144	0.0011031	0.0011788	0.00032733	255.45	1.2726e-05	1.2978e-05	365.39	84.837	1.2815e-05	1.2966e-05	153.67	60.132	30.874	14.634	1.2794e-05	31.257	475.477	282.414	448.351	152.368	259.230	389.629	151.887	157.464	192.882	484.614	155.156	159.347	161.169	165.813	236.220	162.953	-8191	255	
32827.547	1	1	0	0	0.15211	0.10316	0.18182	0.15104	0.18152	0.13609	0.30587	0.18451	0.1223	0.21578	0.06359	0.4585	0.15153	0.10552	0.21243	0.22415	-2.2667	-2.775	-3.2542	-2.4542	-3.0917	-2.875	-2.5333	-3.1479	-2.6188	-2.8125	-3.2854	-2.5563	-3.1854	-2.9104	-2.5854	-3.4271	293.501	395.128	234.370	484.421	166.886	429.479	402.624	374.743	419.826	213.234	443.532	453.775	461.886	419.719	353.349	388.536	0.00037832	0.00087056	0.00010494	240.62	9.2493e-06	7.7973e-06	367.37	81.668	2.1015e-06	7.2012e-07	150.19	59.451	28.64	13.759	4.7159e-06	30.921	0.0011107	0.0011824	0.00032338	255.07	1.2732e-05	1.2889e-05	367.09	84.735	1.2526e-05	1.2914e-05	154.06	60.248	31.067	14.536	1.2486e-05	31.232	156.294	203.964	159.491	152.094	358.794	271.294	151.961	157.301	364.026	335.764	155.118	159.368	161.387	165.650	209.138	163.006	-8191	255	
32827.645	1	1	0	0	0.124	0.281	0.043868	0.17594	0.13834	0.072252	0.26169	0.17566	0.12655	0.10054	0.1694	0.24834	0.15395	0.158	0.12269	0.046544	-2.3771	-2.7812	-3.2646	-2.45	-2.9708	-3.1958	-2.5458	-3.2917	-2.8396	-2.6896	-3.3792	-2.6583	-2.9854	-3.3333	-2.6083	-3.2438	285.505	206.368	183.310	438.721	178.516	481.045	179.110	235.266	237.681	304.233	495.420	497.906	344.409	309.300	374.932	420.042	0.00041065	0.00070086	0.00024077	239.7	3.0672e-06	9.5817e-06	364.56	82.08	2.2801e-06	3.5781e-06	150.2	59.208	28.522	13.788	1.1572e-05	30.965	0.0011231	0.0011637	0.00031825	254.83	1.2618e-05	1.261e-05	366.44	84.805	1.2692e-05	1.2646e-05	154.24	60.175	30.974	14.556	1.2625e-05	31.323	171.732	245.977	451.886	153.156	282.126	272.719	151.564	157.963	392.568	269.599	155.537	159.175	161.153	165.975	305.447	162.766	-8191	255	
32827.738	1	1	0	0	0.20502	0.16594	0.16553	0.066427	0.18721	0.038764	0.20949	0.10992	0.072045	0.16616	0.095888	0.35874	0.15868	0.17683	0.11418	0.174	-2.5	-2.5042	-3.2521	-2.6354	-2.8667	-3.3542	-2.6583	-3.2625	-3.0458	-2.6333	-3.3396	-2.85	-2.8542	-3.2771	-2.6271	-3.0354	315.820	436.469	284.974	148.649	282.573	405.957	150.775	205.915	413.658	440.155	337.492	195.974	489.953	437.704	226.195	380.691	0.00039659	0.00038457	5.6572e-05	241.95	5.655e-06	2.7992e-06	367.57	81.905	4.4104e-06	7.0573e-06	149.57	59.353	28.565	13.8	1.3228e-06	31.122	0.0011055	0.0011482	0.00031949	255.09	1.2536e-05	1.2582e-05	365.53	84.854	1.2528e-05	1.2734e-05	154.1	60.338	30.806	14.57	1.2571e-05	31.272	175.210	457.218	188.367	153.095	470.155	210.023	151.879	158.075	167.936	331.245	155.775	159.311	161.385	166.060	343.351	162.345	-8191	255	
32827.836	1	1	0	0	0.19006	0.14856	0.0035098	0.10884	0.12803	0.20804	0.11662	0.11674	0.22475	0.075399	0.095015	0.26547	0.13998	0.14136	0.20893	0.091981	-2.6479	-2.4792	-3.2583	-2.7542	-2.6854	-3.175	-2.5396	-3.0604	-3.0646	-2.5521	-3.2313	-2.8396	-2.7979	-3.2375	-2.6375	-3.0958	281.005	352.826	398.053	143.607	461.289	258.624	297.796	392.010	401.696	175.179	418.224	147.411	226.018	254.635	173.899	144.502	0.00043627	0.00010055	0.00031182	239.26	3.0694e-06	3.5636e-06	364.22	81.411	1.1687e-06	6.7462e-06	150.26	59.327	28.482	14.043	3.1351e-06	31.063	0.0011001	0.0011573	0.00032108	254.52	1.239e-05	1.2515e-05	363.46	84.646	1.228e-05	1.2611e-05	154.2	60.194	30.845	14.574	1.2405e-05	31.298	499.463	499.342	226.294	152.797	243.967	235.707	151.634	157.630	221.127	227.876	156.228	159.724	160.989	165.324	292.003	162.848	-8191	255	
32827.957	1	1	0	0	0.089838	0.12784	0.29729	0.38621	0.19465	0.22573	0.19197	0.051772	0.040339	0.24394	0.15034	0.13244	0.23529	0.18729	0.11711	0.06567	-2.5708	-2.3875	-3.3063	-2.8833	-2.7562	-3.2396	-2.8229	-3.0375	-3.2062	-2.5667	-3.2646	-2.7687	-2.5104	-3.2562	-2.7687	-3.025	354.116	337.680	331.121	149.756	197.475	282.012	340.690	313.962	257.407	275.726	273.050	327.840	472.006	246.127	349.623	429.407	0.00050429	0.00056799	3.8981e-05	240.35	2.3365e-06	4.2983e-06	368.43	80.462	5.0916e-06	7.3585e-06	150.49	59.207	28.705	13.987	3.0915e-06	31.554	0.0010826	0.0011337	0.00031554	253.68	1.2374e-05	1.2404e-05	365.65	84.633	1.2326e-05	1.2378e-05	153.98	60.416	30.804	14.586	1.2268e-05	31.411	146.833	181.618	344.593	152.169	151.489	191.516	151.623	157.565	157.733	264.732	155.525	159.381	161.603	165.916	469.085	162.692	-8191	255	
32828.027	1	1	0	0	0.20324	0.20813	0.3111	0.2701	0.30115	0.21667	0.22507	0.073145	0.36322	0.315	0.15333	0.13131	0.05497	0.078359	0.020004	0.20267	-2.7708	-2.6417	-3.1146	-3.0146	-2.7771	-3.3354	-2.6958	-2.7667	-3.3167	-2.7208	-3.2396	-2.9688	-2.3979	-3.2979	-2.9562	-2.7167	396.057	474.129	350.874	343.508	348.311	286.944	365.125	406.354	422.909	352.980	462.617	475.806	271.583	419.084	461.360	438.633	0.00040971	0.00018768	0.00023886	239.13	8.9287e-07	5.4116e-06	372.32	81.941	2.01e-06	9.2636e-06	151.61	60.267	28.954	13.998	2.7788e-06	31.428	0.0010794	0.0011527	0.00031793	254.68	1.2211e-05	1.2406e-05	367.87	84.756	1.2035e-05	1.2215e-05	154.24	60.746	30.896	14.574	1.2362e-05	31.497	158.097	455.464	281.531	152.525	291.348	363.143	151.680	157.741	287.644	262.983	155.619	159.370	160.947	166.076	463.605	163.171	-8191	255	
32828.125	1	1	0	0	0.12198	0.10166	0.22042	0.24907	0.07791	0.2633	0.35755	0.17817	0.34682	0.18203	0.047882	0.099544	0.020057	0.12381	0.16542	0.092587	-2.9083	-2.4271	-3.0104	-3.1188	-2.5563	-3.3083	-2.8812	-2.6813	-3.2917	-2.5271	-2.9688	-3.1396	-2.4771	-3.2333	-2.8542	-2.6292	418.783	441.399	235.990	285.755	235.180	449.198	409.388	324.767	473.903	302.623	386.521	426.704	384.657	319.930	197.512	241.450	0.00051346	0.00059047	0.00024696	241.02	1.522e-06	5.0583e-06	366.3	82.101	3.7967e-06	3.2935e-06	151.94	59.29	28.474	13.884	3.9677e-06	31.483	0.0010536	0.0011221	0.00031382	254.57	1.206e-05	1.2365e-05	366.82	84.812	1.2002e-05	1.2223e-05	153.82	60.313	30.708	14.544	1.2214e-05	31.387	152.709	206.758	185.427	152.191	340.269	336.790	151.558	157.155	244.532	328.388	155.618	159.235	161.676	165.961	305.655	162.982	-8191	255	
32828.219	1	1	0	0	0.083588	0.24752	0.073323	0.20745	0.25306	0.29192	0.22776	0.1386	0.25479	0.082274	0.10069	0.20783	0.092204	0.21238	0.11072	0.31344	-2.9437	-2.6312	-3	-3.0792	-2.4146	-3.3833	-2.9833	-2.6625	-3.275	-2.6479	-2.8167	-3.2271	-2.6146	-3.2104	-3.0292	-2.6646	244.791	410.737	250.587	338.080	310.153	387.872	396.991	459.867	334.731	436.746	148.714	369.392	499.505	248.986	486.531	448.206	0.00054757	0.00082004	0.00026357	240.37	4.8083e-06	7.9497e-06	369.87	81.698	2.6167e-06	3.6054e-06	151.64	60.176	28.419	13.93	6.963e-06	31.436	0.0010428	0.0011185	0.00030689	252.27	1.1942e-05	1.2065e-05	366.27	84.394	1.2027e-05	1.2107e-05	154.46	60.457	30.697	14.596	1.2156e-05	31.374	151.199	177.708	152.293	152.685	189.928	238.893	150.912	158.154	335.893	308.115	155.722	159.928	161.364	165.740	237.959	162.532	-8191	255	
32828.316	1	1	0	0	0.37418	0.10059	0.31831	0.27425	0.11746	0.20796	0.20584	0.31584	0.15641	0.25503	0.24232	0.088319	0.12588	0.17865	0.18241	0.11415	-2.9979	-2.625	-2.7542	-3.2687	-2.3896	-3.2	-2.9875	-2.5208	-3.2708	-2.7792	-2.8271	-3.2854	-2.5563	-3.0646	-3.0479	-2.5729	325.878	146.958	305.888	320.721	453.375	141.095	454.086	306.753	158.063	489.556	459.503	441.002	201.964	188.810	438.019	383.463	0.00059538	0.00040477	0.00018526	241.9	3.7689e-06	6.1343e-06	370.25	81.487	1.016e-05	8.0384e-06	150.52	60.189	28.416	13.997	2.4467e-06	31.285	0.0010472	0.0010951	0.00030917	253.3	1.2001e-05	1.2391e-05	367.07	84.775	1.2072e-05	1.2425e-05	154.03	60.514	30.643	14.618	1.2301e-05	31.344	147.145	217.949	170.071	152.365	255.891	296.541	151.746	157.530	202.967	222.497	155.552	159.191	161.305	166.357	337.655	162.461	-8191	255	
32828.434	1	1	0	0	0.15964	0.061949	0.03326	0.052263	0.22409	0.24355	0.10198	0.23927	0.12922	0.080921	0.3223	0.10713	0.19387	0.073496	0.066232	0.11667	-3.0271	-2.9083	-2.7646	-3.3354	-2.4333	-3.1458	-3.05	-2.3708	-3.2083	-2.8833	-2.6646	-3.3375	-2.6604	-2.8729	-3.3292	-2.5062	449.770	383.969	297.690	325.902	345.447	335.692	476.836	459.253	285.825	402.123	317.252	219.077	154.393	267.676	307.466	464.209	0.00045873	0.0010452	9.4319e-05	239.45	3.0951e-06	1.169e-05	366.29	80.995	1.7808e-06	5.2181e-06	150.17	60.102	28.768	13.779	1.0549e-05	31.405	0.0010607	0.0011281	0.00030626	254.01	1.2203e-05	1.2382e-05	367	84.402	1.2214e-05	1.2413e-05	154.37	60.353	30.753	14.46	1.2148e-05	31.398	171.105	164.504	213.339	152.449	276.222	397.710	151.809	157.448	180.091	377.506	155.509	159.416	161.621	166.297	242.810	163.239	-8191	255	
32828.531	1	1	0	0	0.14896	0.50917	0.10924	0.14837	0.13194	0.085155	0.24429	0.13506	0.12775	0.11406	0.30558	0.25497	0.33837	0.078605	0.27321	0.099888	-2.8563	-2.8542	-2.5563	-3.3187	-2.6729	-3.0375	-3.3667	-2.3333	-3.1083	-2.9417	-2.5479	-3.3042	-2.7375	-2.8708	-3.2125	-2.6479	233.772	270.830	327.396	375.874	360.639	235.859	448.077	167.178	407.395	413.691	352.425	369.831	309.692	248.910	490.532	286.090	0.00052339	0.00079572	7.9111e-05	237.85	4.0382e-06	8.3204e-06	363.76	81.416	3.0366e-06	1.6102e-06	149.52	59.485	28.072	13.802	2.1687e-06	30.963	0.0010664	0.001134	0.00031628	252.57	1.2357e-05	1.2463e-05	363.9	84.378	1.2358e-05	1.2438e-05	153.07	60.13	30.704	14.493	1.2281e-05	31.133	150.616	298.235	347.741	152.479	229.293	419.652	151.498	157.967	270.092	239.662	155.646	159.184	161.452	165.712	256.974	163.051	-8191	255	
32828.629	1	1	0	0	0.11948	0.15248	0.13379	0.1391	0.15777	0.20921	0.13637	0.22718	0.16489	0.040952	0.11736	0.085298	0.2246	0.22895	0.14701	0.20535	-2.7792	-3.05	-2.5792	-3.3563	-2.8729	-2.9437	-3.3896	-2.5479	-3.25	-3.1813	-2.5708	-3.2896	-2.7479	-2.7854	-3.4958	-2.5292	247.883	471.750	216.786	354.084	269.738	352.271	417.777	419.040	152.915	425.585	434.442	436.535	247.513	215.769	280.343	346.470	0.00059501	0.00058463	0.00025375	242.48	3.3941e-06	4.7251e-06	365.97	80.469	2.0014e-06	4.1433e-06	148.25	59.254	28.317	13.716	7.5469e-06	30.893	0.0010971	0.0011443	0.0003186	252.86	1.2651e-05	1.2614e-05	364.38	84.145	1.2455e-05	1.258e-05	152.77	59.928	30.755	14.48	1.2663e-05	31.108	157.423	396.777	169.079	152.859	147.434	295.805	151.595	157.413	498.947	227.391	155.815	159.364	161.574	166.264	216.252	163.122	-8191	255	
32828.723	1	1	0	0	0.096269	0.15438	0.18192	0.29534	0.29757	0.20331	0.034367	0.33096	0.27423	0.2098	0.10437	0.21944	0.14161	0.1668	0.16858	0.20039	-2.7042	-3.05	-2.5125	-3.1854	-2.9271	-2.6958	-3.3458	-2.6146	-2.8854	-3.1771	-2.525	-3.2917	-2.875	-2.7562	-3.4521	-2.7292	175.976	312.450	371.081	285.818	374.203	200.558	310.646	455.460	345.445	319.769	393.993	147.013	378.513	436.238	260.947	144.185	0.00058591	0.00049934	0.00025504	242.07	4.3115e-06	9.0906e-06	364.1	80.692	4.183e-06	6.5826e-06	149.08	58.641	28.091	13.795	2.629e-06	30.853	0.0010974	0.0011427	0.00031877	253.57	1.2512e-05	1.2538e-05	363.34	84.222	1.2543e-05	1.2695e-05	152.62	59.749	30.529	14.488	1.2488e-05	31.077	143.536	326.939	293.882	152.616	244.113	492.402	151.727	157.717	331.720	247.524	155.801	160.007	160.335	166.302	320.406	162.853	-8191	255	
32828.820	1	1	0	0	0.21319	0.2486	0.16219	0.237	0.089052	0.11697	0.22751	0.18398	0.1541	0.13148	0.090864	0.1057	0.21112	0.15309	0.19651	0.066493	-2.3438	-3.2771	-2.3646	-3.2833	-2.8896	-2.6896	-3.4104	-2.6042	-2.7583	-3.2604	-2.8021	-3.1875	-3.0646	-2.5458	-3.3396	-2.8292	368.258	491.701	142.216	151.109	491.445	475.615	433.480	243.175	376.691	250.631	335.715	204.065	344.285	374.816	155.124	260.009	0.00054361	0.00072821	8.7014e-05	240.2	5.3656e-06	7.0154e-06	363.16	80.815	3.2428e-06	4.4928e-06	149.99	58.671	28.287	13.788	2.7063e-06	30.85	0.0010947	0.0011579	0.00032443	252.83	1.265e-05	1.2758e-05	363.48	84.37	1.2853e-05	1.2975e-05	153.58	60.126	30.796	14.531	1.2988e-05	31.17	159.512	353.557	393.384	152.562	358.573	405.099	151.542	158.311	177.514	423.947	155.522	158.911	160.695	166.088	311.069	163.138	-8191	255	
32828.914	1	1	0	0	0.21172	0.25252	0.051489	0.18941	0.31825	0.23836	0.33931	0.16945	0.25908	0.18293	0.16866	0.24569	0.081751	0.15133	0.24521	0.31092	-2.4583	-3.4208	-2.5979	-3.1646	-3.075	-2.7458	-3.2958	-2.7417	-2.6042	-3.3375	-2.5333	-3.1333	-3.1583	-2.6917	-3.3104	-2.9604	470.704	153.652	381.630	410.279	165.992	486.877	423.767	424.812	350.621	419.710	240.736	430.363	452.824	411.017	223.721	407.523	0.00057165	0.00069758	0.0001005	239.13	2.237e-06	3.5907e-06	359.76	80.695	2.6692e-06	1.1845e-05	149.64	58.837	28.499	13.824	6.2844e-06	30.854	0.0011203	0.00118	0.00032839	253.5	1.3001e-05	1.3121e-05	362.34	84.419	1.3056e-05	1.2953e-05	153.66	59.997	30.856	14.601	1.3154e-05	31.146	143.764	257.553	495.692	153.006	171.614	365.569	151.346	157.495	410.423	351.265	156.510	159.338	161.354	165.825	163.504	162.730	-8191	255	
32829.035	1	1	0	0	0.27266	0.10318	0.082159	0.09534	0.28511	0.20931	0.034116	0.067244	0.033878	0.25308	0.18336	0.32324	0.12088	0.20393	0.15498	0.15644	-2.4167	-3.3854	-2.6437	-2.9417	-3.2	-2.4479	-3.2271	-2.9646	-2.6458	-3.3771	-2.4917	-2.9562	-3.1708	-2.4938	-3.2438	-3.1042	356.102	148.239	292.522	385.105	348.615	337.562	348.154	452.547	471.928	211.829	283.542	464.821	301.291	232.368	296.747	141.717	0.00038859	0.00089064	0.0002119	237.52	8.3235e-06	2.5591e-06	357.24	81.074	1.8107e-06	4.3368e-06	148.3	58.717	27.988	14.037	5.5408e-06	30.793	0.0011302	0.0012144	0.00033476	253.46	1.3103e-05	1.3275e-05	360.96	84.828	1.3205e-05	1.3159e-05	153.76	60.102	30.766	14.68	1.3307e-05	31.235	146.854	233.829	225.849	151.931	184.342	403.230	151.596	157.619	362.766	339.324	155.794	159.698	161.465	166.284	212.029	163.312	-8191	255	
32829.133	1	1	0	0	0.099303	0.15231	0.35732	0.29185	0.06888	0.15387	0.145	0.17312	0.075492	0.087246	0.039541	0.23021	0.10823	0.091428	0.10941	0.1452	-2.2562	-3.1854	-2.5104	-2.7875	-3.2812	-2.5729	-3.0083	-3.0229	-2.7104	-3.2625	-2.85	-2.7792	-3.3583	-2.5104	-3.0333	-3.0125	404.188	211.258	440.458	468.030	173.481	481.183	165.905	426.036	274.878	449.484	150.580	140.275	237.788	481.301	472.560	368.323	0.00051289	0.00023625	0.00017147	239.83	6.4486e-06	3.083e-06	360.13	81.931	1.0989e-06	4.5404e-06	149.66	59.21	28.146	13.825	1.3687e-05	31.021	0.0011575	0.0012072	0.00034596	255.58	1.3192e-05	1.3553e-05	364.97	85.18	1.343e-05	1.3373e-05	153.77	60.408	30.937	14.737	1.3597e-05	31.296	159.683	283.661	228.715	152.457	275.459	159.184	151.320	157.495	169.244	172.283	155.355	160.028	161.744	165.830	292.872	162.674	-8191	255	
32829.227	1	1	0	0	0.33987	0.265	0.02674	0.32397	0.087262	0.16598	0.11395	0.39477	0.20113	0.24981	0.13655	0.014854	0.2517	0.16413	0.26027	0.2829	-2.0479	-3.3042	-2.7313	-2.6937	-3.3208	-2.6104	-3.1083	-3.0479	-2.5	-3.3458	-2.9021	-2.825	-3.2687	-2.6104	-3.0687	-3.2229	459.601	396.541	151.508	463.100	178.282	443.092	385.292	437.107	472.194	466.346	453.128	324.843	398.039	350.036	450.649	424.139	0.00059492	0.00063455	8.4852e-05	239.16	1.6648e-06	2.7817e-06	362.9	82.201	2.6518e-06	3.864e-06	151.36	59.679	28.449	13.979	9.1788e-06	31.056	0.0011737	0.0012558	0.00034735	255.98	1.3415e-05	1.3893e-05	365.64	85.552	1.3623e-05	1.3855e-05	155.28	60.944	31.215	14.793	1.3948e-05	31.445	152.034	334.406	319.798	152.703	270.139	184.524	151.719	157.802	179.036	260.419	155.939	159.809	161.428	165.894	296.484	162.300	-8191	255	
32829.324	1	1	0	0	0.16662	0.084275	0.2454	0.13535	0.13285	0.17749	0.13819	0.21673	0.27551	0.18706	0.16341	0.24537	0.23055	0.21961	0.094431	0.1818	-2.0438	-3.1125	-2.7542	-2.6542	-3.4354	-2.5604	-2.85	-3.225	-2.5375	-3.0896	-3.0833	-2.7333	-3.4479	-2.8438	-2.8083	-3.1521	264.479	278.147	275.236	335.037	325.943	217.117	355.782	261.834	425.083	311.523	479.681	490.888	445.128	477.184	145.401	198.843	0.00048704	0.00050039	0.0001536	241.59	2.6139e-06	6.4999e-06	363.65	81.052	2.3669e-06	4.8736e-06	148.12	59.212	28.3	14.012	9.7099e-06	30.934	0.0012033	0.0012855	0.00035762	255.6	1.3822e-05	1.4104e-05	365.25	85.431	1.3876e-05	1.4069e-05	154.55	60.6	31.116	14.818	1.3986e-05	31.267	148.537	263.983	343.316	152.616	416.876	324.061	151.850	157.639	473.515	415.269	156.145	159.651	161.560	165.797	333.752	162.749	-8191	255	
32829.422	1	1	0	0	0.28205	0.12516	0.1408	0.10877	0.14457	0.13369	0.18209	0.25137	0.24427	0.17011	0.18981	0.021065	0.034632	0.091658	0.0012142	0.12532	-2.0396	-3.2396	-3.0875	-2.6937	-3.4021	-2.9583	-2.7687	-3.1188	-2.4792	-3.0958	-3.0292	-2.6562	-3.2729	-2.8583	-2.7458	-3.3875	476.699	370.540	430.082	235.821	488.715	460.414	295.483	145.929	212.128	232.143	479.182	342.456	439.966	481.493	180.000	405.978	0.00049021	0.00090557	0.00011806	241.7	1.8499e-06	8.7413e-06	362.76	81.247	2.0983e-06	9.2549e-06	149.83	59.403	28.316	14.037	8.3384e-06	31.149	0.0012261	0.0012938	0.00035447	257.32	1.3871e-05	1.4323e-05	365.38	85.107	1.384e-05	1.4072e-05	155.02	60.666	31.229	14.912	1.3975e-05	31.389	157.370	284.798	244.093	152.328	210.596	285.831	151.496	157.344	343.020	410.041	155.311	159.705	161.711	165.214	311.416	163.094	-8191	255	
32829.516	1	1	0	0	0.033966	0.23408	0.10602	0.28548	0.12344	0.18933	0.10408	0.2098	0.12008	0.34501	0.1718	0.14193	0.25855	0.039875	0.05424	0.082092	-2.2271	-2.8958	-3.0729	-2.4896	-3.2646	-2.8583	-2.6667	-3.3	-2.5167	-3.1042	-3.1854	-2.5062	-3.325	-2.975	-2.6104	-3.2604	185.798	319.903	149.832	384.053	224.084	330.030	303.283	431.252	214.329	220.778	491.417	490.096	388.553	289.730	336.880	450.231	0.00037686	0.00019997	0.00037135	239.29	8.5463e-06	5.7141e-06	361.28	80.799	8.7702e-06	5.5868e-06	147.77	58.82	28.126	13.804	5.4512e-06	31.047	0.0012125	0.0013048	0.00035476	256.13	1.3616e-05	1.4068e-05	364.08	85.535	1.4131e-05	1.3969e-05	154.67	60.64	31.123	14.843	1.4022e-05	31.416	145.778	168.780	168.176	152.100	391.565	217.421	151.339	157.972	246.199	300.342	155.484	159.368	160.720	165.193	487.117	162.670	-8191	255	
32829.609	1	1	0	0	0.32565	0.093384	0.034485	0.18987	0.25039	0.15369	0.21678	0.11964	0.067275	0.057034	0.13626	0.22067	0.1032	0.25463	0.1424	0.17381	-2.3812	-2.8187	-3.2125	-2.6562	-3.1583	-2.9792	-2.5458	-3.3542	-2.6833	-2.6833	-3.4083	-2.5	-3.0708	-2.8354	-2.7167	-3.4458	449.708	336.247	421.311	325.009	417.540	392.439	316.962	210.933	405.122	253.314	405.393	421.243	225.390	159.885	178.974	370.471	0.00031657	0.00021509	0.00022362	237.66	7.7538e-06	5.3516e-06	360.16	80.173	2.0939e-06	5.753e-06	148.56	59.488	28.45	13.741	1.2283e-05	31.39	0.0012227	0.0012793	0.00035499	255.99	1.398e-05	1.4118e-05	364.67	85.139	1.4047e-05	1.4165e-05	154.37	60.58	31.269	14.76	1.4128e-05	31.519	177.999	209.823	186.102	153.122	277.352	280.650	151.621	157.035	194.562	293.604	156.129	159.450	161.334	165.889	192.529	163.042	-8191	255	
32829.730	1	1	0	0	0.14774	0.16771	0.12377	0.24386	0.088148	0.18314	0.084244	0.099884	0.16858	0.085533	0.1313	0.0040769	0.10219	0.26549	0.24707	0.16795	-2.2438	-2.9562	-3.2438	-2.3917	-3.1167	-3.0646	-2.6458	-3.3125	-2.5271	-2.7875	-3.1813	-2.5521	-3.0708	-3.1562	-2.5875	-3.275	175.806	201.732	248.635	323.709	303.232	434.299	437.136	436.485	181.598	425.038	430.075	145.522	496.600	199.212	393.697	140.390	0.00041187	0.00030413	0.0002138	240.58	8.7061e-06	4.8005e-06	357.47	80.019	4.1986e-06	4.6086e-06	147.83	58.811	28.126	13.918	7.9799e-06	31.113	0.0012351	0.0013199	0.00035458	256.94	1.4204e-05	1.4189e-05	362.95	85.07	1.4213e-05	1.423e-05	153.54	60.351	31.288	14.787	1.3973e-05	31.461	165.534	190.873	292.875	152.186	465.100	268.077	151.731	157.674	209.009	334.063	155.146	159.795	161.420	165.708	228.085	163.170	-8191	255	
32829.828	1	1	0	0	0.19365	0.10801	0.23256	0.30944	0.1116	0.1411	0.025007	0.15362	0.14644	0.14262	0.13006	0.14516	0.13239	0.23427	0.10253	0.1953	-2.4729	-2.6854	-3.4167	-2.5729	-3.0083	-3.1854	-2.5354	-3.3083	-2.8292	-2.7062	-3.3146	-2.5771	-2.925	-3.1	-2.5812	-3.2917	394.828	205.607	487.762	257.409	496.178	287.282	299.660	421.756	156.882	340.377	359.100	180.901	252.099	491.058	317.049	453.015	0.00062627	0.00066107	0.00014188	237.99	4.8486e-06	6.35e-06	357.52	81.311	3.7401e-06	7.4325e-06	148.15	58.879	28.131	13.913	8.484e-06	30.942	0.001213	0.0013034	0.00036513	256.32	1.4215e-05	1.4178e-05	363.76	85.455	1.4239e-05	1.4237e-05	154.57	60.598	31.128	14.838	1.4347e-05	31.466	160.053	376.745	178.992	152.693	186.956	301.186	151.430	157.839	440.289	237.617	156.214	159.580	161.568	165.522	171.527	162.845	-8191	255	
32829.898	1	1	0	0	0.17034	0.17383	0.18516	0.42622	0.15205	0.18458	0.22498	0.1502	0.01537	0.204	0.10154	0.24178	0.12217	0.22347	0.15187	0.1449	-2.475	-2.6229	-3.3563	-2.6646	-2.8958	-3.125	-2.4938	-3.1271	-3.0854	-2.55	-3.2125	-2.7708	-2.9708	-3.2875	-2.5875	-3.1188	324.126	307.195	438.008	459.855	386.813	145.378	449.217	286.665	358.626	393.559	229.915	145.000	144.975	453.568	288.978	148.139	0.00040311	0.0011728	6.585e-05	238.03	5.9784e-06	2.9249e-06	358.35	81.788	2.6604e-06	8.1182e-06	148.03	59.546	28.166	14.099	8.3055e-06	31.213	0.0012427	0.0012935	0.00036311	256.06	1.4332e-05	1.4305e-05	364.87	85.887	1.423e-05	1.4278e-05	155.46	61.028	31.356	14.937	1.4177e-05	31.585	148.316	274.042	182.295	152.611	339.928	483.585	151.328	157.950	331.412	205.267	156.083	159.626	161.424	165.265	194.654	162.874	-8191	255	
32829.996	1	1	0	0	0.26089	0.071116	0.15759	0.18781	0.12053	0.16432	0.057421	0.13193	0.077459	0.10684	0.068081	0.10965	0.28528	0.27747	0.047161	0.094193	-2.6312	-2.5667	-3.1729	-2.8875	-2.7646	-3.2333	-2.3917	-3.1688	-3.0729	-2.5521	-3.3646	-2.7917	-2.5958	-3.2687	-2.5062	-3.075	381.617	466.476	215.850	459.287	396.900	472.086	478.944	165.257	401.976	461.559	473.029	259.507	395.293	238.551	277.386	354.312	0.00037182	0.0004225	0.00014885	236.28	5.5184e-06	1.0839e-05	360.45	81.38	6.0338e-06	6.3973e-06	148.92	58.976	28.38	13.926	8.7019e-06	31.25	0.001241	0.0013172	0.00036666	257.69	1.4256e-05	1.4528e-05	365.89	86.088	1.4402e-05	1.4647e-05	155.42	60.837	31.387	14.913	1.4501e-05	31.615	144.208	178.539	180.123	152.594	434.997	146.143	151.919	157.461	489.328	181.966	155.565	159.481	161.484	166.277	352.158	162.759	-8191	255	
32830.117	1	1	0	0	0.091701	0.074774	0.30693	0.16046	0.055814	0.059353	0.10649	0.17038	0.24341	0.22516	0.15565	0.13998	0.0057032	0.21042	0.18972	0.16063	-2.7938	-2.4396	-3.1417	-2.9062	-2.7458	-3.3354	-2.6437	-2.7854	-3.2625	-2.6937	-3.2	-2.9542	-2.6083	-3.0146	-2.6042	-2.8021	470.256	457.758	182.950	260.865	236.662	425.598	196.213	277.765	235.442	247.181	298.172	477.421	446.666	429.189	332.102	349.696	0.00045566	0.00086105	0.00020362	236.24	5.8495e-06	5.8725e-06	358.56	80.379	8.0092e-07	6.9076e-06	149.1	59.395	28.296	14.159	9.6161e-06	30.967	0.0012522	0.0013404	0.00037159	256.06	1.436e-05	1.4359e-05	364.99	85.415	1.4207e-05	1.4482e-05	155.33	60.892	31.403	14.979	1.445e-05	31.477	152.818	427.952	141.104	152.608	309.597	384.569	151.182	157.703	498.012	272.512	156.048	159.115	161.482	165.361	270.340	162.921	-8191	255	
32830.215	1	1	0	0	0.14002	0.053182	0.093519	0.16543	0.21039	0.03339	0.13414	0.38779	0.13201	0.13957	0.096446	0.23219	0.15897	0.041634	0.17395	0.11069	-2.9188	-2.3812	-3.0333	-3.075	-2.5354	-3.3229	-2.7229	-2.7354	-3.2604	-2.4979	-3.1	-3.1271	-2.4271	-3.3979	-2.6583	-2.7646	188.327	190.659	169.631	139.344	222.861	295.782	415.307	468.931	303.621	401.281	239.143	460.748	456.839	251.579	205.007	472.794	0.00058123	0.00047687	7.7109e-05	237.03	1.6841e-06	7.6132e-06	357.51	81.082	3.7948e-06	8.2598e-06	149.33	59.374	28.506	13.983	9.3339e-06	31.219	0.0012384	0.0013378	0.00036841	256.28	1.4337e-05	1.4596e-05	364.19	85.763	1.4407e-05	1.4717e-05	155.32	60.951	31.504	14.956	1.4398e-05	31.664	139.716	223.739	318.959	152.164	337.988	215.586	151.440	157.233	171.955	280.528	156.123	159.255	161.759	165.644	239.735	162.729	-8191	255	
32830.309	1	1	0	0	0.1405	0.17501	0.34574	0.069003	0.17535	0.28396	0.10662	0.07109	0.3039	0.1112	0.21697	0.11267	0.055596	0.09134	0.0904	0.055639	-2.9021	-2.5229	-3.0146	-3.0958	-2.4917	-3.2167	-2.8375	-2.6979	-3.2792	-2.5062	-3.0917	-3.1667	-2.6021	-3.2604	-2.6417	-2.6625	354.207	223.172	391.461	289.579	249.313	395.351	364.995	169.584	262.687	166.010	457.650	449.915	405.213	206.513	335.879	362.848	0.00065441	0.00093158	0.00011426	238.18	4.9192e-06	1.2671e-06	359.6	81.409	7.399e-06	7.0604e-06	148.94	59.135	28.279	13.991	9.8148e-06	31.314	0.0012539	0.0013382	0.00037445	256.01	1.4506e-05	1.4557e-05	363.76	86.032	1.4495e-05	1.4791e-05	155.23	60.884	31.545	14.942	1.4669e-05	31.802	144.793	302.357	419.036	152.456	486.230	388.312	151.448	157.002	415.370	327.967	155.455	159.161	161.382	166.291	205.790	163.210	-8191	255	
32830.430	1	1	0	0	0.031348	0.075407	0.11839	0.18678	0.18716	0.26679	0.17572	0.17776	0.085885	0.024558	0.19838	0.22605	0.13447	0.21556	0.047001	0.077663	-3.0021	-2.5521	-2.7333	-3.0625	-2.4167	-3.1562	-2.9521	-2.5042	-3.2125	-2.7458	-2.8438	-3.175	-2.4229	-3.1042	-2.9333	-2.525	293.761	226.968	255.941	481.764	296.940	294.484	472.342	161.541	164.921	289.670	389.801	336.925	414.246	474.264	428.750	403.052	0.00051103	0.00055768	0.00011866	234.38	1.1878e-06	7.194e-07	358.29	81.017	7.518e-06	3.0278e-06	148.35	59.224	28.62	14.119	5.8416e-06	31.202	0.0012669	0.001346	0.00037236	256.77	1.4646e-05	1.4819e-05	364.43	85.831	1.4781e-05	1.4882e-05	155.89	60.887	31.63	14.981	1.4721e-05	31.691	158.029	297.668	336.406	152.191	427.487	454.245	151.267	157.488	231.441	341.223	155.619	159.222	161.081	165.879	325.487	162.957	-8191	255	
32830.523	1	1	0	0	0.14204	0.20532	0.17745	0.13702	0.3145	0.12761	0.047518	0.19772	0.1351	0.016191	0.056689	0.19941	0.22963	0.15863	0.013258	0.12896	-2.9	-2.7521	-2.875	-3.3187	-2.5125	-3.1792	-3.2313	-2.6583	-3.3521	-2.8417	-2.9625	-3.1833	-2.5563	-3.0146	-3.0771	-2.5125	356.765	442.605	465.762	377.505	183.810	274.081	143.377	351.941	249.350	242.435	245.161	145.152	231.800	144.330	204.607	471.697	0.00050962	0.00072115	0.00020047	236.68	7.415e-07	1.1046e-06	357.79	80.847	1.5224e-06	4.2052e-06	149.84	58.644	28.307	14.01	1.1741e-05	31.107	0.0012659	0.0013635	0.00038408	256.04	1.4653e-05	1.4743e-05	362.84	85.655	1.4756e-05	1.4912e-05	155.62	60.678	31.583	15.045	1.4819e-05	31.729	160.064	287.287	264.989	152.635	140.972	333.157	151.061	157.435	497.402	179.052	155.565	159.900	161.284	165.918	239.375	162.849	-8191	255	
32830.598	1	1	0	0	0.16675	0.14192	0.387	0.19471	0.059138	0.030297	0.24463	0.30237	0.21079	0.16836	0.1901	0.12516	0.030802	0.24699	0.08322	0.21605	-2.8479	-2.9313	-2.7	-3.4521	-2.7	-3.0854	-3.2	-2.6063	-3.2812	-2.8771	-2.6104	-3.2812	-2.5708	-2.8667	-3.2458	-2.5146	387.477	217.272	435.795	278.826	203.563	185.749	214.905	406.747	352.928	418.563	368.979	487.256	492.947	218.998	442.760	475.414	0.00056436	0.00090914	0.00016223	235.03	1.7426e-06	3.2538e-06	356.63	80.537	1.2575e-06	2.5263e-06	148.46	59.353	28.684	14.04	1.0032e-05	31.236	0.0012864	0.0013878	0.00037991	257.56	1.4828e-05	1.5063e-05	364.04	85.341	1.4753e-05	1.5084e-05	155.76	60.968	31.718	15.063	1.5128e-05	31.77	145.078	196.172	305.539	152.931	438.705	204.918	151.394	157.741	286.887	206.203	155.440	160.209	161.482	165.873	370.174	163.077	-8191	255	
32830.715	1	1	0	0	0.10314	0.09788	0.19455	0.27147	0.14756	0.046025	0.10223	0.28158	0.11807	0.16267	0.26041	0.2877	0.06336	0.078632	0.2481	0.21434	-2.8	-2.975	-2.7333	-3.1625	-2.6083	-2.9021	-3.2354	-2.6958	-3.1292	-2.8688	-2.6792	-3.4146	-2.7625	-2.8833	-3.2771	-2.5	238.481	321.925	492.484	218.643	448.562	295.120	409.187	431.423	440.033	208.159	166.082	377.892	344.812	387.536	384.824	351.909	0.00054292	0.001057	0.00014104	236.78	5.1155e-06	2.8443e-06	355.32	81.807	6.2609e-06	3.0486e-06	149.86	59.027	28.46	14.145	1.1136e-05	31.083	0.0012914	0.0013835	0.00038143	255.92	1.4977e-05	1.5245e-05	363.85	86.191	1.4962e-05	1.5389e-05	156.26	61.279	31.791	15.077	1.509e-05	31.723	144.661	220.283	198.900	152.764	176.420	322.727	151.543	157.601	197.196	246.700	155.313	159.700	161.263	166.101	272.801	163.055	-8191	255	
32830.812	1	1	0	0	0.23814	0.13605	0.076641	0.12319	0.1394	0.25243	0.18358	0.14071	0.078547	0.11769	0.21337	0.37713	0.1803	0.1602	0.11053	0.12679	-2.7521	-3.1979	-2.4271	-3.3187	-2.6667	-2.5854	-3.2333	-2.7812	-3.1417	-3.0542	-2.4833	-3.2542	-2.8646	-2.6875	-3.325	-2.5042	251.397	153.199	258.357	213.944	174.238	473.955	340.630	426.955	326.146	310.896	437.296	248.029	363.517	495.550	245.534	476.730	0.00056144	0.00045191	0.00020216	238.23	5.5139e-06	1.0334e-05	358.13	81.028	1.8227e-06	4.2939e-06	148.94	59.06	28.709	14.12	5.0957e-06	31.112	0.001322	0.0014093	0.0003889	258.55	1.5394e-05	1.5251e-05	363.7	85.918	1.4979e-05	1.5417e-05	155.55	61.076	31.699	15.069	1.5178e-05	31.76	495.402	429.759	242.494	152.402	154.027	335.902	151.638	157.826	337.668	221.355	155.781	159.676	161.324	165.299	193.292	163.227	-8191	255	
32830.906	1	1	0	0	0.15875	0.072486	0.18412	0.076523	0.21766	0.089167	0.022084	0.11729	0.29237	0.14531	0.16948	0.12814	0.1443	0.25871	0.058043	0.1033	-2.6312	-3.0687	-2.55	-3.3021	-2.7979	-2.625	-3.5229	-2.7062	-2.9646	-3.1771	-2.6417	-3.2687	-3.0208	-2.525	-3.2812	-2.6917	203.805	275.771	481.303	181.186	419.403	231.887	403.717	243.786	475.264	474.784	420.035	368.931	439.735	218.933	176.828	206.497	0.00052975	0.0006331	8.8161e-05	235.47	2.4914e-06	6.7697e-06	357.53	81.58	6.5338e-06	1.8478e-06	148.6	59.238	28.291	13.931	1.0767e-05	31.264	0.001315	0.0013976	0.0003844	257.29	1.5317e-05	1.523e-05	363.7	86.371	1.5036e-05	1.5358e-05	155.85	61.064	31.772	15.025	1.5255e-05	31.932	146.901	217.548	495.600	152.370	149.278	330.410	151.361	157.744	179.812	197.747	155.856	159.529	161.719	165.418	333.558	162.801	-8191	255	
32831.027	1	1	0	0	0.3413	0.171	0.097338	0.19364	0.1367	0.070193	0.15629	0.21968	0.16263	0.11115	0.1996	0.21584	0.058519	0.10624	0.36753	0.13384	-2.5729	-3.2604	-2.5104	-3.1958	-3.0563	-2.5708	-3.2542	-2.6917	-2.8812	-3.2062	-2.4979	-3.1458	-3.0542	-2.5667	-3.2583	-2.7833	163.403	242.660	309.200	162.063	309.130	232.542	391.561	373.374	493.052	462.205	187.944	269.412	314.413	142.330	366.462	498.710	0.0003666	0.0002934	0.00010555	236.87	6.0994e-06	4.0662e-06	354.6	80.863	7.4927e-06	5.6456e-06	148.21	59.151	28.45	13.977	6.067e-06	31.204	0.0013127	0.0013915	0.0003918	258.07	1.5141e-05	1.5409e-05	364.44	85.993	1.5107e-05	1.5315e-05	156.01	61.196	31.895	15.061	1.5269e-05	31.863	168.007	482.527	306.565	152.514	444.248	299.996	151.550	157.486	334.197	476.173	155.415	159.959	161.489	166.059	264.850	162.928	-8191	255	
32831.125	1	1	0	0	0.074201	0.020105	0.16907	0.17885	0.052499	0.086775	0.051305	0.21371	0.059868	0.19698	0.31419	0.092147	0.12432	0.25608	0.19522	0.11959	-2.2208	-3.0542	-2.5687	-3.0042	-3.1625	-2.5187	-3.3063	-2.8792	-2.7646	-3.2687	-2.3875	-2.9542	-2.9729	-2.3625	-3.1937	-2.8292	303.114	484.872	432.719	369.271	272.048	496.224	303.257	492.408	326.513	198.219	455.436	489.249	467.957	449.984	161.239	456.249	0.00060176	0.0012958	9.6387e-05	235.1	7.3616e-06	4.3711e-06	356.99	80.706	8.4702e-06	5.4987e-06	149.21	60.089	28.71	14.148	2.1177e-06	31.218	0.0013321	0.0014283	0.00039167	257.2	1.5331e-05	1.5392e-05	365.88	86.408	1.5456e-05	1.5333e-05	156.5	61.777	31.912	15.138	1.5369e-05	31.873	150.947	316.438	272.529	152.765	269.723	324.551	151.677	157.441	350.399	345.996	155.732	159.390	160.585	165.791	324.723	162.586	-8191	255	
32831.195	1	1	0	0	0.11662	0.092236	0.15587	0.064756	0.36437	0.18963	0.07737	0.15836	0.02751	0.25975	0.15366	0.31022	0.18183	0.20852	0.11963	0.19449	-2.1854	-3.3854	-2.4917	-2.9625	-3.2083	-2.6271	-3.2562	-2.9958	-2.5854	-3.0875	-2.6458	-2.9104	-3.2354	-2.4708	-3.1792	-2.8125	484.944	197.085	268.767	402.653	368.632	398.674	205.035	478.749	239.013	298.911	467.717	489.755	232.671	490.673	234.931	366.410	0.00065432	0.00072322	0.00016763	235.39	5.6388e-06	2.8038e-06	358.54	80.773	5.8531e-06	9.1814e-06	149.56	58.863	28.338	14.171	4.7235e-06	31.103	0.0013475	0.0014262	0.000397	257.52	1.5455e-05	1.5399e-05	365.24	86.07	1.5443e-05	1.5404e-05	156.49	61.2	31.858	15.198	1.5527e-05	31.842	160.048	172.263	332.896	152.318	304.217	478.964	151.502	157.063	152.038	293.784	155.025	159.508	161.094	165.293	344.241	162.704	-8191	255	
32831.293	1	1	0	0	0.12753	0.0809	0.20251	0.07134	0.079411	0.12048	0.11758	0.096327	0.23378	0.077599	0.21678	0.23604	0.26447	0.13313	0.15705	0.18858	-2.0479	-3.2188	-2.7104	-2.8146	-3.2562	-2.5625	-3.2687	-3.0875	-2.6104	-3.2583	-2.85	-2.8146	-3.35	-2.4313	-2.9896	-3.1188	189.295	383.973	166.190	167.374	347.428	294.480	481.198	249.645	469.604	193.203	229.151	396.714	398.124	345.746	385.065	486.949	0.0005014	0.00054251	4.7531e-05	236.51	1.7337e-06	5.9183e-06	354.12	80.556	5.079e-06	9.157e-06	148.04	59.024	28.494	13.992	2.0664e-06	30.955	0.0013552	0.0014376	0.00040029	257.91	1.5503e-05	1.5875e-05	363.9	86.167	1.5544e-05	1.5697e-05	155.83	61.366	31.856	15.138	1.5518e-05	31.786	147.330	257.831	176.349	152.373	438.862	272.322	151.371	157.841	183.744	235.315	155.642	159.540	161.904	165.856	498.958	162.864	-8191	255	
32831.410	1	1	0	0	0.15482	0.050722	0.15806	0.087803	0.18652	0.1109	0.24375	0.0099139	0.18077	0.14851	0.089919	0.13046	0.10491	0.13422	0.14738	0.031728	-2.0146	-3.1917	-2.8417	-2.7062	-3.2354	-2.5792	-3.1479	-3.0292	-2.5271	-3.3208	-2.9458	-2.7062	-3.3458	-2.6562	-3.1271	-3.3	477.590	375.343	383.517	319.612	301.984	436.722	389.503	400.399	242.010	147.251	447.541	462.632	485.370	234.532	404.012	428.036	0.0003726	0.0011627	0.00019994	237.12	1.1501e-05	7.897e-06	356.73	81.218	3.8239e-06	4.5573e-06	148.55	59.422	28.472	13.936	7.1121e-06	30.724	0.0013566	0.0014246	0.00040231	258.31	1.5405e-05	1.5708e-05	364.92	86.404	1.5501e-05	1.5888e-05	156.01	61.363	31.879	15.085	1.5749e-05	31.75	190.814	229.841	157.677	152.766	279.062	383.258	151.880	157.174	296.760	295.815	155.729	159.570	161.200	165.969	280.311	162.583	-8191	255	
32831.508	1	1	0	0	0.029381	0.34706	0.026013	0.092849	0.087682	0.1888	0.20272	0.29267	0.12325	0.18837	0.13918	0.070914	0.36588	0.26966	0.099062	0.1722	-2.3875	-3.2062	-2.9396	-2.8229	-3.3187	-2.7646	-2.9146	-3.3792	-2.6021	-3.1833	-2.9292	-2.6208	-3.3646	-2.7	-2.7479	-3.2042	408.114	332.112	198.987	376.616	316.655	359.816	375.249	452.650	158.788	265.194	281.043	401.569	250.372	451.446	299.830	157.496	0.00046064	0.00051509	0.00014397	237.14	1.887e-06	8.22e-06	355.05	81.261	2.0543e-06	6.7899e-06	149.41	59.564	28.25	13.985	5.1412e-06	31.368	0.0013652	0.0014598	0.00039932	258.2	1.5851e-05	1.5781e-05	363.46	86.519	1.5479e-05	1.5962e-05	156.67	61.711	31.86	15.183	1.5815e-05	32.019	156.868	499.158	341.404	151.898	385.679	246.161	151.629	157.530	345.811	172.394	155.666	159.585	161.907	165.689	391.249	162.977	-8191	255	
32831.605	1	1	0	0	0.1274	0.045147	0.2078	0.14261	0.042613	0.093664	0.11828	0.14412	0.16095	0.22079	0.07067	0.15022	0.081826	0.043259	0.18316	0.19328	-2.3604	-3.0104	-2.825	-2.4542	-3.1312	-2.6458	-2.6042	-3.3854	-2.6125	-3.1042	-3.0542	-2.4375	-3.2875	-2.8125	-2.7062	-3.4229	181.921	253.722	198.616	230.791	335.909	277.373	327.091	285.017	385.612	331.448	352.652	270.477	464.667	411.150	393.882	475.825	0.00045815	0.00082771	0.00019514	234.34	2.7029e-06	3.4589e-06	351.4	79.648	2.0992e-06	1.1202e-05	147.75	59.035	28.176	13.914	1.1696e-05	30.867	0.0013742	0.0014579	0.00040492	257.27	1.5631e-05	1.5889e-05	361.28	85.789	1.5718e-05	1.5761e-05	156.45	61.262	31.692	15.112	1.5602e-05	31.709	155.309	410.604	228.544	153.214	262.612	473.849	151.443	157.328	152.454	412.384	155.598	159.651	161.200	165.823	341.139	162.803	-8191	255	
32831.699	1	1	0	0	0.13179	0.090519	0.20393	0.093515	0.032291	0.12746	0.11825	0.14532	0.16261	0.11641	0.12999	0.28921	0.08661	0.010425	0.17664	0.21323	-2.0938	-3.0583	-3.0771	-2.5708	-3.2667	-3.0146	-2.7313	-3.3042	-2.5812	-2.7938	-3.2229	-2.5812	-3.3396	-2.8688	-2.5917	-3.3667	304.018	339.895	155.350	433.888	318.353	320.639	477.464	284.290	257.442	360.448	334.643	453.659	494.521	481.969	305.008	408.049	0.0005674	0.00015408	0.00020319	234.32	3.115e-06	8.8232e-06	353.63	81.154	4.7143e-06	5.9324e-06	149.16	58.712	28.239	14.07	7.8408e-06	30.912	0.001355	0.0014515	0.00040869	257.2	1.5571e-05	1.5703e-05	359.65	85.725	1.5497e-05	1.5701e-05	154.96	60.824	31.728	15.034	1.5646e-05	31.638	149.347	286.303	490.347	151.757	167.912	290.329	151.845	157.709	263.167	393.354	155.240	159.868	161.435	165.168	298.288	163.036	-8191	255	
32831.820	1	1	0	0	0.17448	0.20427	0.2943	0.26044	0.14437	0.20792	0.10224	0.1242	0.11483	0.10712	0.087785	0.091614	0.16755	0.37094	0.11967	0.31407	-2.3979	-2.8438	-3.1208	-2.3937	-3.2167	-2.9542	-2.6125	-3.4104	-2.4917	-2.8375	-3.2604	-2.5625	-3.1771	-3.0333	-2.4375	-3.4938	370.677	256.895	397.022	461.841	463.163	331.048	376.557	403.992	142.399	267.595	314.097	324.088	418.875	183.214	170.295	378.149	0.00041456	0.00081877	6.2585e-05	232.77	2.7638e-06	5.8452e-06	350.8	80.242	6.9368e-06	8.4285e-06	148.98	59.106	28.32	13.952	5.0531e-06	31.051	0.0013605	0.0014561	0.00040163	255.55	1.5381e-05	1.5697e-05	360.37	85.483	1.5439e-05	1.5825e-05	154.62	60.716	31.648	14.98	1.5569e-05	31.587	165.920	199.849	294.640	152.100	225.238	294.357	151.452	158.006	487.753	289.824	155.484	159.190	161.862	165.127	461.851	163.147	-8191	255	
32831.895	1	1	0	0	0.19847	0.028668	0.18064	0.14579	0.17075	0.10617	0.13137	0.1247	0.16568	0.13836	0.2238	0.034947	0.14199	0.21085	0.33665	0.13264	-2.2958	-2.7208	-3.4313	-2.6042	-3.2833	-3.1854	-2.5208	-3.2271	-2.7583	-2.7771	-3.3167	-2.6042	-2.9021	-3.1521	-2.5042	-3.3	202.657	279.022	257.223	424.494	313.132	351.791	397.826	302.209	426.006	457.522	493.652	157.227	326.702	465.399	190.065	235.880	0.00068079	0.0013707	0.00017055	231.62	5.1802e-06	5.2589e-06	351.59	80.327	4.5251e-06	4.8543e-06	146.95	59.487	28.506	13.987	3.8281e-06	30.767	0.0013351	0.0014193	0.00039262	253.67	1.5271e-05	1.5336e-05	360.16	85.533	1.5196e-05	1.528e-05	154.56	60.874	31.619	14.986	1.5218e-05	31.572	151.069	200.196	170.895	153.289	470.689	159.647	151.955	157.854	279.758	307.935	155.335	159.589	162.016	165.820	313.768	163.123	-8191	255	
32831.988	1	1	0	0	0.12669	0.18157	0.12414	0.16817	0.17591	0.33995	0.17149	0.12455	0.12259	0.035443	0.27197	0.11037	0.11241	0.15871	0.201	0.12522	-2.5354	-2.5542	-3.4458	-2.5667	-2.7771	-3.2562	-2.4292	-3.2188	-2.8896	-2.6958	-3.3479	-2.6208	-3.0208	-3.1833	-2.5896	-3.2771	460.018	391.625	379.519	225.404	414.280	390.880	456.528	286.134	305.103	408.651	340.538	482.705	199.182	369.264	170.875	426.983	0.0003709	0.00014304	0.00037019	231.65	1.6755e-06	1.091e-05	352.24	80.241	5.7186e-06	3.7188e-06	145.82	58.853	27.773	13.941	6.1716e-06	30.836	0.0013262	0.0013876	0.00039006	254.18	1.5277e-05	1.5335e-05	358.88	85.476	1.5319e-05	1.5394e-05	153.71	60.531	31.383	14.908	1.5111e-05	31.561	499.167	359.654	213.068	152.692	296.649	167.604	151.417	158.409	171.620	246.503	155.513	159.541	161.567	165.995	316.355	162.903	-8191	255	
32832.109	1	1	0	0	0.082739	0.13522	0.067184	0.19234	0.18959	0.086664	0.12775	0.30625	0.18385	0.24605	0.28066	0.08712	0.19103	0.26271	0.010084	0.078948	-2.5583	-2.5687	-3.3729	-2.7729	-2.8479	-3.3063	-2.6458	-3.3187	-3.0771	-2.8208	-3.3229	-2.4979	-2.75	-3.2833	-2.5187	-3.1396	494.384	175.315	270.844	182.845	346.436	226.710	233.708	150.246	440.915	263.585	211.483	149.757	147.062	323.805	494.497	259.813	0.00031409	0.00061823	0.0003593	230.97	2.664e-06	3.7544e-06	348.94	79.623	5.1469e-06	3.953e-06	147.46	58.886	28.188	13.84	6.475e-06	30.889	0.0013237	0.0014075	0.00038369	251.83	1.5002e-05	1.4959e-05	357.65	84.592	1.5003e-05	1.5074e-05	153.7	60.624	31.306	14.912	1.5183e-05	31.619	179.435	466.496	488.596	151.735	432.766	241.732	151.461	157.535	258.562	205.095	155.756	159.300	161.573	166.195	184.782	162.911	-8191	255	
32832.207	1	1	0	0	0.044677	0.1674	0.12818	0.2704	0.12612	0.1957	0.070635	0.12617	0.12789	0.30347	0.1575	0.14981	0.23241	0.25101	0.043002	0.082746	-2.6917	-2.4667	-3.1125	-2.6437	-2.6542	-3.3604	-2.4437	-2.7438	-3.0521	-2.5375	-3.1688	-2.8958	-2.6479	-3.3271	-2.6875	-2.9771	481.911	403.456	369.591	405.099	474.120	222.924	351.744	192.669	292.532	416.587	500.307	145.146	153.068	174.071	279.497	421.324	0.00051984	0.00066408	0.00019058	235.05	4.7183e-06	9.7114e-06	348.13	79.322	2.9211e-06	8.7136e-06	146.57	58.852	28.127	14.095	2.7827e-06	30.831	0.0013008	0.0013842	0.00039036	253.13	1.4925e-05	1.5048e-05	357.62	84.755	1.5079e-05	1.5305e-05	154.01	60.653	31.302	15.067	1.5289e-05	31.628	151.992	268.880	170.293	152.063	307.856	303.473	151.207	158.375	445.511	254.694	155.748	159.612	161.164	166.138	363.938	162.674	-8191	255	
32832.301	1	1	0	0	0.06988	0.2498	0.16788	0.20795	0.062764	0.078947	0.15756	0.10228	0.13733	0.23677	0.14534	0.067323	0.28572	0.15642	0.16396	0.07801	-2.8833	-2.5354	-3.1792	-2.7667	-2.6521	-3.3375	-2.6396	-3.0354	-3.1437	-2.3354	-3.1708	-2.9417	-2.6292	-3.1833	-2.7042	-2.8521	482.383	390.198	373.076	165.469	158.041	480.866	383.688	367.382	171.722	187.920	407.893	375.172	240.563	399.408	410.990	157.010	0.00046298	0.00024934	0.00030148	232.79	7.0855e-06	4.2263e-06	351.95	79.733	6.3311e-06	2.6475e-06	147.58	58.969	28.295	14.045	1.1083e-05	31.025	0.0013187	0.0013986	0.0003899	253.09	1.5103e-05	1.5148e-05	359.25	84.935	1.5166e-05	1.5278e-05	154.82	60.783	31.598	14.977	1.5197e-05	31.671	489.764	210.663	171.525	152.388	254.724	261.511	151.351	157.946	239.324	419.085	155.294	159.811	161.125	165.422	338.801	163.001	-8191	255	
32832.398	1	1	0	0	0.38632	0.15002	0.12519	0.097583	0.08675	0.1744	0.071546	0.19021	0.33852	0.15001	0.25712	0.17828	0.24525	0.15708	0.10059	0.083519	-2.8688	-2.5563	-3.0208	-2.9979	-2.6521	-3.525	-2.6521	-2.7792	-3.3563	-2.6021	-3.1042	-3.05	-2.6104	-3.3896	-2.85	-2.7188	440.599	284.279	224.274	147.072	198.981	465.459	142.388	329.107	360.604	383.527	455.163	284.105	499.409	148.330	258.526	393.451	0.00041853	0.0020182	0.00019766	229.34	5.7266e-06	2.1068e-06	351.45	79.52	2.5415e-06	2.5208e-06	147.26	58.575	28.357	14.058	1.1549e-05	30.849	0.0013166	0.0013948	0.00038818	252.32	1.5109e-05	1.522e-05	358.5	84.976	1.5295e-05	1.5238e-05	153.99	60.648	31.552	15.026	1.5266e-05	31.616	149.507	222.598	427.823	152.490	299.645	274.266	151.681	157.584	258.242	418.125	154.958	159.169	161.687	165.336	186.220	162.956	-8191	255	
32832.492	1	1	0	0	0.1567	0.040455	0.20512	0.18415	0.15214	0.2511	0.26819	0.10408	0.12098	0.092484	0.20735	0.072916	0.20114	0.20301	0.21693	0.29353	-3.1229	-2.8063	-3.1813	-3.2562	-2.7938	-3.25	-2.8521	-2.5958	-3.3854	-2.5896	-3.225	-3.1229	-2.5979	-3.3646	-2.9292	-2.7167	347.065	297.751	479.025	498.359	286.223	208.821	480.746	195.752	394.738	447.504	367.266	440.321	417.512	414.478	229.139	449.225	0.00057381	0.00055367	0.00012519	233.06	7.0583e-06	3.0143e-06	350.45	79.105	2.8673e-07	7.1334e-06	147.59	59.01	27.537	13.964	5.9861e-07	31.48	0.0013071	0.0013993	0.00038719	251.93	1.4928e-05	1.5203e-05	358.99	84.83	1.4892e-05	1.5112e-05	153.91	60.802	31.337	14.995	1.5013e-05	31.83	148.704	389.073	325.643	152.590	225.406	364.894	151.906	157.612	463.405	213.626	155.467	160.144	160.694	166.075	238.648	162.693	-8191	255	
32832.590	1	1	0	0	0.041207	0.2554	0.19775	0.090853	0.033386	0.28116	0.15975	0.14886	0.091118	0.15672	0.43937	0.39711	0.21662	0.21022	0.2053	0.040806	-2.9854	-2.6	-2.9938	-3.225	-2.4813	-3.2771	-2.9604	-2.5854	-3.2687	-2.6333	-3.0396	-3.2667	-2.6	-3.1437	-3.0292	-2.7938	165.254	447.296	459.640	384.147	341.510	496.582	205.837	245.095	440.534	232.820	386.815	393.932	162.910	459.654	477.654	491.100	0.00043827	0.0010567	0.00018764	234.09	2.8042e-06	3.4087e-06	354.4	79.894	6.7234e-06	7.644e-06	147.54	59.408	28.078	13.972	2.9718e-06	31.008	0.0012844	0.0013813	0.00038507	252.24	1.4938e-05	1.4983e-05	359.12	84.767	1.4712e-05	1.4888e-05	154.48	60.942	31.392	14.957	1.4743e-05	31.699	482.809	232.078	316.945	152.568	275.645	401.495	151.470	157.393	431.317	391.104	155.911	159.407	160.938	166.158	412.782	162.991	-8191	255	
32832.711	1	1	0	0	0.22953	0.20318	0.24435	0.19405	0.27293	0.18857	0.15829	0.19078	0.070592	0.070575	0.16678	0.14448	0.34504	0.1501	0.28178	0.103	-2.9188	-2.6542	-2.7021	-3.275	-2.5417	-3.1458	-3.05	-2.4125	-3.2583	-2.725	-2.4688	-3.3917	-2.6646	-2.9208	-3.0229	-2.5896	249.877	397.441	200.046	287.279	425.423	458.696	175.630	362.811	152.341	308.635	262.308	174.034	228.632	216.390	402.254	470.670	0.00047783	0.00052306	4.8085e-05	234.87	3.093e-06	3.4573e-06	354.73	80.277	3.7927e-06	8.9853e-06	148.17	59.362	28.332	13.99	6.9889e-06	31.129	0.0012708	0.0013624	0.0003787	252.79	1.4808e-05	1.4987e-05	359.84	85.02	1.481e-05	1.5129e-05	154.75	61.37	31.677	15.021	1.5048e-05	31.825	498.131	481.215	221.478	152.257	397.680	213.412	151.002	157.424	291.043	260.017	155.445	159.986	161.295	165.864	323.755	162.951	-8191	255	
32832.805	1	1	0	0	0.094576	0.13864	0.12195	0.17952	0.2353	0.25232	0.27836	0.053796	0.077751	0.23026	0.15718	0.025446	0.046951	0.139	0.09173	0.099641	-2.7354	-2.9417	-2.5312	-3.3979	-2.6792	-3.1688	-3.3104	-2.4813	-3.2646	-3.0479	-2.5708	-3.2083	-2.6896	-2.8688	-3.0479	-2.5833	425.281	365.745	498.126	355.966	239.496	217.461	398.601	190.964	180.915	297.995	395.668	334.170	319.049	475.761	231.248	467.206	0.00039166	0.00025687	0.00014099	233.58	4.9159e-06	1.4292e-05	349.66	80.103	1.2661e-06	9.2037e-06	149.51	59.592	28.569	13.979	5.4903e-06	31.232	0.0012983	0.0013887	0.00038263	252.61	1.5153e-05	1.5266e-05	357.75	84.957	1.5019e-05	1.5259e-05	154.8	61.109	31.47	14.997	1.5044e-05	31.814	143.189	455.281	285.667	151.925	270.732	402.922	151.534	157.876	292.553	476.620	155.967	159.301	161.385	165.935	204.109	162.635	-8191	255	
32832.902	1	1	0	0	0.28443	0.26975	0.081795	0.29534	0.22999	0.31538	0.041858	0.21577	0.20027	0.18971	0.13911	0.12973	0.089398	0.2574	0.079953	0.15873	-2.7354	-3.0083	-2.6792	-3.3438	-2.7542	-2.9854	-3.4125	-2.6042	-3.0396	-3.1167	-2.5271	-3.35	-2.9729	-2.7562	-3.5417	-2.6562	193.071	464.583	282.322	300.224	160.370	221.907	226.525	199.864	215.558	253.666	264.324	424.263	471.233	193.956	157.822	287.730	0.00042916	0.0006558	0.00016466	234.1	6.0982e-06	1.4936e-06	353.1	79.447	6.4131e-06	5.8094e-06	146.68	59.563	28.368	13.966	3.441e-06	31.485	0.0013171	0.0013925	0.00038334	253.3	1.505e-05	1.5402e-05	358.31	85.126	1.4948e-05	1.5279e-05	154.55	61.252	31.743	15.091	1.532e-05	31.91	156.753	189.080	169.911	152.257	241.765	161.056	151.734	156.987	221.140	357.869	155.559	159.304	161.280	165.305	382.459	163.612	-8191	255	
32832.996	1	1	0	0	0.1486	0.11666	0.093348	0.26718	0.04486	0.12356	0.17001	0.049844	0.079613	0.1078	0.31002	0.16047	0.20452	0.2201	0.064637	0.18866	-2.8042	-2.9854	-2.4729	-3.4375	-2.9188	-2.6396	-3.1833	-2.6292	-3.0354	-3.1771	-2.6542	-3.1479	-2.8979	-2.7438	-3.3063	-2.7333	267.792	216.026	259.970	326.425	303.036	383.878	396.800	463.729	480.329	470.441	354.395	349.505	154.071	266.317	455.480	347.094	0.00053679	0.0012893	0.00024118	234.38	5.4265e-06	2.0558e-06	352.97	80.725	7.7566e-06	8.1044e-06	147.25	59.335	28.161	14.078	8.5678e-06	31.154	0.0013247	0.0014167	0.00039457	254.14	1.5184e-05	1.5412e-05	360.5	85.546	1.5448e-05	1.5713e-05	155.81	61.425	31.736	15.123	1.5396e-05	31.896	149.089	158.953	260.371	152.182	430.037	273.820	151.468	157.949	231.523	240.366	155.661	159.625	161.333	166.127	158.295	162.833	-8191	255	
32833.070	1	1	0	0	0.10919	0.014427	0.093407	0.15038	0.14625	0.098493	0.041749	0.11801	0.057239	0.16495	0.069709	0.089523	0.080633	0.085596	0.16426	0.061403	-2.4604	-3.2292	-2.4354	-3.1688	-2.8833	-2.5958	-3.2333	-2.4771	-2.7917	-3.3521	-2.6854	-3.1208	-2.8771	-2.8667	-3.4062	-2.7083	184.391	353.712	454.928	352.400	429.662	274.082	460.251	437.305	257.289	208.047	399.865	387.058	140.571	235.782	263.728	456.922	0.00035925	0.00058668	0.0001541	232.95	2.8105e-06	7.4838e-06	357.18	80.329	3.8997e-06	5.6486e-06	148.01	59.771	28.454	14.09	9.1405e-06	31.11	0.0013384	0.0014241	0.00039086	253.64	1.5463e-05	1.5783e-05	362.34	85.287	1.5392e-05	1.5506e-05	155.76	61.458	31.723	15.12	1.5508e-05	31.852	162.859	323.076	242.693	152.804	382.706	348.903	151.384	158.167	297.868	361.701	155.634	159.290	161.640	165.395	351.641	162.700	-8191	255	
#DATA ENDS
