BOXY.EXE: ISS Imagent and Oximeter Data Acquisition Program Version 0.80
Ascii Record File

#ACQ INFORMATION
2  Detector Channels 
16  External MUX Channels 
1  Auxiliary Channels 
5000  Waveform (CCF) Frequency (Hz)
1  Waveforms Skipped 
30  Waveforms Averaged 
1  Cycles Averaged 
16  Acquisitions per Waveform 
10.0806  Updata Rate (Hz) 

#FILE INFORMATION
TRUE -- External MUX Channel results are PARSED.
FALSE -- AC DC and Phase are NOT grouped.
TRUE -- Companion Program Settings File CREATED.
FALSE -- AC data not excluded
FALSE -- DC data not excluded
FALSE -- Phase data not excluded
FALSE -- Auxillary Chn. data not excluded
Tab delimiters

#CALIBRATION STATE
TRUE -- Waveform Calibration Values APPLIED.


#AUX CALIBRATION VALUES
Val Type	aux-1	

Term	1.0000e+00	
Factor	0.0000e+00	


#WF CALIBRATION VALUES
A = Detector Channel
Val Type	A-AC1	A-AC2	A-AC3	A-AC4	A-AC5	A-AC6	A-AC7	A-AC8	A-AC9	A-AC10	A-AC11	A-AC12	A-AC13	A-AC14	A-AC15	A-AC16	A-DC1	A-DC2	A-DC3	A-DC4	A-DC5	A-DC6	A-DC7	A-DC8	A-DC9	A-DC10	A-DC11	A-DC12	A-DC13	A-DC14	A-DC15	A-DC16	A-Ph1	A-Ph2	A-Ph3	A-Ph4	A-Ph5	A-Ph6	A-Ph7	A-Ph8	A-Ph9	A-Ph10	A-Ph11	A-Ph12	A-Ph13	A-Ph14	A-Ph15	A-Ph16	

Term	0.00000e+00	0.00000e+00	0.00000e+00	0.00000e+00	0.00000e+00	0.00000e+00	0.00000e+00	0.00000e+00	0.00000e+00	0.00000e+00	0.00000e+00	0.00000e+00	0.00000e+00	0.00000e+00	0.00000e+00	0.00000e+00	0.00000e+00	0.00000e+00	0.00000e+00	0.00000e+00	0.00000e+00	0.00000e+00	0.00000e+00	0.00000e+00	0.00000e+00	0.00000e+00	0.00000e+00	0.00000e+00	0.00000e+00	0.00000e+00	0.00000e+00	0.00000e+00	0.00000e+00	0.00000e+00	0.00000e+00	0.00000e+00	0.00000e+00	0.00000e+00	0.00000e+00	0.00000e+00	0.00000e+00	0.00000e+00	0.00000e+00	0.00000e+00	0.00000e+00	0.00000e+00	0.00000e+00	0.00000e+00	
Factor	1.00000e+00	1.00000e+00	1.00000e+00	1.00000e+00	1.00000e+00	1.00000e+00	1.00000e+00	1.00000e+00	1.00000e+00	1.00000e+00	1.00000e+00	1.00000e+00	1.00000e+00	1.00000e+00	1.00000e+00	1.00000e+00	1.00000e+00	1.00000e+00	1.00000e+00	1.00000e+00	1.00000e+00	1.00000e+00	1.00000e+00	1.00000e+00	1.00000e+00	1.00000e+00	1.00000e+00	1.00000e+00	1.00000e+00	1.00000e+00	1.00000e+00	1.00000e+00	X	X	X	X	X	X	X	X	X	X	X	X	X	X	X	X	

B = Detector Channel
Val Type	B-AC1	B-AC2	B-AC3	B-AC4	B-AC5	B-AC6	B-AC7	B-AC8	B-AC9	B-AC10	B-AC11	B-AC12	B-AC13	B-AC14	B-AC15	B-AC16	B-DC1	B-DC2	B-DC3	B-DC4	B-DC5	B-DC6	B-DC7	B-DC8	B-DC9	B-DC10	B-DC11	B-DC12	B-DC13	B-DC14	B-DC15	B-DC16	B-Ph1	B-Ph2	B-Ph3	B-Ph4	B-Ph5	B-Ph6	B-Ph7	B-Ph8	B-Ph9	B-Ph10	B-Ph11	B-Ph12	B-Ph13	B-Ph14	B-Ph15	B-Ph16	

Term	0.00000e+00	0.00000e+00	0.00000e+00	0.00000e+00	0.00000e+00	0.00000e+00	0.00000e+00	0.00000e+00	0.00000e+00	0.00000e+00	0.00000e+00	0.00000e+00	0.00000e+00	0.00000e+00	0.00000e+00	0.00000e+00	0.00000e+00	0.00000e+00	0.00000e+00	0.00000e+00	0.00000e+00	0.00000e+00	0.00000e+00	0.00000e+00	0.00000e+00	0.00000e+00	0.00000e+00	0.00000e+00	0.00000e+00	0.00000e+00	0.00000e+00	0.00000e+00	-1.65560e+02	-1.26939e+02	-1.30200e+02	-1.83531e+02	-7.95580e+01	-6.23298e+01	-1.55913e+02	-1.62015e+02	-8.00935e+01	-6.99222e+01	-1.69783e+02	-1.70754e+02	-1.79463e+02	-1.76415e+02	-7.83609e+01	-1.49214e+02	
Factor	2.59736e-05	1.59396e-04	3.76247e-05	1.70707e-01	1.04767e-06	1.40068e-06	1.50441e-01	4.85057e-02	9.61463e-07	1.40745e-06	8.22453e-02	2.84523e-02	2.38378e-02	8.71675e-03	1.43886e-06	1.23208e-02	3.02569e-06	3.31224e-06	9.20197e-07	9.14355e-02	3.58392e-08	3.62363e-08	7.61070e-02	2.61631e-02	3.57514e-08	3.62322e-08	4.28669e-02	1.48528e-02	1.29378e-02	4.71403e-03	3.60000e-08	6.45373e-03	X	X	X	X	X	X	X	X	X	X	X	X	X	X	X	X	



#DISTANCE SETTINGS
A = Detector Channel
A-1	A-2	A-3	A-4	A-5	A-6	A-7	A-8	A-9	A-10	A-11	A-12	A-13	A-14	A-15	A-16	

2.5000e+00	3.0000e+00	2.5000e+00	3.0000e+00	2.0000e+00	3.0000e+00	1.5000e+00	3.0000e+00	3.0000e+00	3.0000e+00	3.0000e+00	3.0000e+00	3.0000e+00	3.0000e+00	1.5000e+00	3.0000e+00	

B = Detector Channel
B-1	B-2	B-3	B-4	B-5	B-6	B-7	B-8	B-9	B-10	B-11	B-12	B-13	B-14	B-15	B-16	

1.0000e+01	1.0000e+01	1.0000e+01	1.4400e+00	1.0000e+01	1.0000e+01	1.5100e+00	1.9400e+00	1.0000e+01	1.0000e+01	1.9900e+00	2.4900e+00	2.4100e+00	2.9000e+00	1.0000e+01	2.9800e+00	




#DATA BEGINS
time	group	step	mark	flag	A-AC1	A-AC2	A-AC3	A-AC4	A-AC5	A-AC6	A-AC7	A-AC8	A-AC9	A-AC10	A-AC11	A-AC12	A-AC13	A-AC14	A-AC15	A-AC16	A-DC1	A-DC2	A-DC3	A-DC4	A-DC5	A-DC6	A-DC7	A-DC8	A-DC9	A-DC10	A-DC11	A-DC12	A-DC13	A-DC14	A-DC15	A-DC16	A-Ph1	A-Ph2	A-Ph3	A-Ph4	A-Ph5	A-Ph6	A-Ph7	A-Ph8	A-Ph9	A-Ph10	A-Ph11	A-Ph12	A-Ph13	A-Ph14	A-Ph15	A-Ph16	B-AC1	B-AC2	B-AC3	B-AC4	B-AC5	B-AC6	B-AC7	B-AC8	B-AC9	B-AC10	B-AC11	B-AC12	B-AC13	B-AC14	B-AC15	B-AC16	B-DC1	B-DC2	B-DC3	B-DC4	B-DC5	B-DC6	B-DC7	B-DC8	B-DC9	B-DC10	B-DC11	B-DC12	B-DC13	B-DC14	B-DC15	B-DC16	B-Ph1	B-Ph2	B-Ph3	B-Ph4	B-Ph5	B-Ph6	B-Ph7	B-Ph8	B-Ph9	B-Ph10	B-Ph11	B-Ph12	B-Ph13	B-Ph14	B-Ph15	B-Ph16	aux-1	digaux	

32140.227	1	1	0	256	0.16012	0.17422	0.27274	0.19264	0.37934	0.18843	0.16587	0.08396	0.34299	0.059487	0.31365	0.22599	0.12343	0.094746	0.10641	0.10724	-2.275	-3.1063	-2.5187	-3.1125	-3.1354	-2.5354	-3.3458	-2.8646	-2.7667	-3.3021	-2.7083	-3.0125	-3.2542	-2.7562	-3.1292	-2.925	218.882	198.856	222.152	376.098	402.464	227.755	410.658	435.008	454.508	245.236	406.944	208.624	407.341	401.366	135.922	302.397	0.00035508	0.00036201	8.514e-05	1060.1	2.2993e-06	6.5682e-07	1157.9	222.57	5.3064e-06	4.5754e-06	282.79	79.471	61.403	18.194	3.1397e-06	25.53	0.00026663	0.0002596	7.1231e-05	1042.2	2.7518e-06	2.7603e-06	1142	220.42	2.7158e-06	2.5853e-06	280.95	79.684	61.828	18.424	2.5952e-06	25.965	143.131	218.240	206.329	133.024	200.089	160.177	133.110	140.743	237.983	337.006	140.026	146.926	147.119	155.224	197.947	154.080	-8191	255	
32140.322	1	1	0	0	0.18434	0.082894	0.032312	0.264	0.12301	0.26598	0.24001	0.28251	0.13476	0.1615	0.12717	0.13173	0.054361	0.27676	0.15283	0.17254	-2.1083	-3.1437	-2.5687	-2.9188	-3.1146	-2.5354	-3.1854	-2.8583	-2.4771	-3.1896	-2.6208	-3.0646	-3.2833	-2.2521	-3.2625	-2.9083	433.113	222.900	372.670	423.648	275.728	238.899	363.868	289.365	366.410	220.179	428.560	206.265	479.614	427.595	125.868	452.951	0.00044203	0.00012054	0.00011768	1052	2.7284e-06	2.3883e-06	1152.5	222.26	2.9824e-06	1.8498e-06	281.54	80.161	61.826	18.118	7.1888e-06	25.413	0.0002542	0.00024081	6.8096e-05	1041.5	2.7084e-06	2.6373e-06	1142.4	220.72	2.6533e-06	2.5769e-06	280.52	79.775	62.123	18.496	2.6105e-06	25.934	152.082	143.773	209.375	133.072	271.451	313.103	132.880	140.460	232.099	158.759	139.898	146.909	147.409	154.557	304.027	153.578	-8191	255	
32140.443	1	1	0	0	0.088656	0.10841	0.11148	0.20412	0.18408	0.17662	0.23684	0.083196	0.091587	0.10625	0.44064	0.065476	0.35079	0.15707	0.27585	0.14904	-2.0229	-3.3354	-2.6979	-2.8396	-3.1354	-2.4667	-3.0604	-2.9813	-2.4583	-3.1292	-2.7104	-2.7958	-3.1688	-2.4542	-3.0563	-3.0312	379.020	216.130	211.785	471.636	257.669	443.815	446.652	316.428	317.610	250.027	258.453	452.846	394.395	408.865	412.170	383.043	0.00037912	0.00025494	0.00011551	1061.8	3.6647e-06	4.2004e-06	1158.3	221.78	2.3229e-06	1.976e-06	281.67	79.748	62.209	18.079	3.2797e-06	25.256	0.00025026	0.00023363	6.9036e-05	1044.4	2.723e-06	2.7027e-06	1145.1	221.36	2.6059e-06	2.539e-06	280.38	79.681	62.085	18.464	2.4989e-06	25.91	145.456	225.874	172.903	133.277	194.741	266.603	133.016	140.728	230.711	262.908	140.287	146.479	146.774	155.077	271.956	153.470	-8191	255	
32140.539	1	1	0	0	0.17466	0.033595	0.21724	0.1048	0.24892	0.19855	0.12752	0.22406	0.23877	0.1484	0.022975	0.1789	0.22458	0.10805	0.24887	0.12545	-2.1042	-3.1208	-2.8021	-2.7375	-3.1771	-2.7667	-3.2771	-3.1542	-2.6229	-3.2292	-2.8083	-2.6396	-3.1417	-2.5729	-2.9125	-3.1833	226.529	268.171	166.570	480.698	327.584	362.755	429.393	418.306	208.083	411.889	295.722	449.713	431.997	372.506	480.101	285.693	0.00039394	0.00021243	0.00010333	1065	2.0667e-06	1.1064e-06	1161.5	222.33	1.7996e-06	3.8555e-06	281.86	79.505	61.733	18.251	5.2997e-06	25.775	0.0002457	0.00023596	6.5756e-05	1043.3	2.5443e-06	2.5294e-06	1146.5	220.77	2.5862e-06	2.5201e-06	280.34	79.528	62.086	18.462	2.4893e-06	26.109	142.761	152.649	213.871	133.009	284.104	123.910	132.730	140.347	259.005	293.145	140.176	146.865	147.090	154.528	279.742	153.437	-8191	255	
32140.635	1	1	0	0	0.34956	0.013801	0.10293	0.26973	0.044586	0.11194	0.23554	0.01086	0.14231	0.13129	0.080249	0.13039	0.10917	0.20353	0.11985	0.22848	-2.05	-3.1646	-2.7979	-2.6792	-3.2042	-2.6063	-3.0646	-3.1604	-2.5333	-3.1583	-2.9708	-2.5979	-3.2375	-2.75	-2.8208	-3.1896	425.453	166.969	345.695	403.130	288.764	245.690	406.094	325.049	179.282	180.178	287.146	284.935	199.776	315.028	212.106	438.267	0.00037475	0.00038698	7.0762e-05	1056.6	5.0894e-06	2.74e-06	1162.5	223.49	2.3461e-06	1.6234e-06	282.32	79.593	62.085	18.245	7.4862e-06	25.386	0.00023837	0.00023709	6.5188e-05	1042.4	2.575e-06	2.4785e-06	1149.3	221.34	2.4769e-06	2.4126e-06	281.04	79.833	62.076	18.462	2.4681e-06	25.935	152.452	206.117	201.339	133.040	246.190	304.905	132.950	140.396	190.217	245.230	139.846	146.784	147.295	154.993	270.955	153.807	-8191	255	
32140.732	1	1	0	0	0.14592	0.17116	0.15891	0.2813	0.209	0.049492	0.24005	0.13069	0.24263	0.090343	0.19061	0.12427	0.14124	0.18974	0.16017	0.08339	-2.05	-3.0604	-2.9729	-2.5458	-3.3854	-2.75	-2.825	-3.4604	-2.4938	-3.1229	-3.225	-2.5771	-3.2208	-2.9083	-2.7417	-3.1188	353.573	395.680	369.723	477.739	244.835	382.192	410.385	390.468	166.781	165.768	403.958	384.197	463.890	457.722	234.295	384.332	0.00038136	0.00021085	0.00010301	1053.5	2.4829e-06	8.0161e-06	1162.7	223.79	2.7306e-06	4.0096e-06	280.28	79.65	62.109	18.286	3.8864e-06	25.492	0.00023689	0.00021764	5.9774e-05	1043.3	2.3879e-06	2.3636e-06	1147.5	220.96	2.3793e-06	2.3337e-06	279.67	79.591	62.11	18.472	2.316e-06	25.982	155.165	229.030	304.185	133.047	248.037	283.531	133.061	140.633	232.290	263.613	139.930	146.821	147.069	154.781	216.894	153.561	-8191	255	
32140.826	1	1	0	0	0.16201	0.16535	0.25363	0.21488	0.016376	0.20088	0.074437	0.23558	0.34742	0.17918	0.14535	0.2012	0.24951	0.060956	0.18143	0.18705	-2.0438	-3.1562	-3.0771	-2.5271	-3.0917	-2.9875	-2.7687	-3.2854	-2.5729	-2.825	-3.25	-2.4292	-3.1167	-2.9625	-2.55	-3.2354	264.822	324.234	407.387	380.432	301.023	305.376	475.985	369.949	418.024	293.929	141.865	463.183	171.498	221.366	435.454	458.138	0.00041919	0.00017785	8.2997e-05	1054.7	2.0205e-06	4.9695e-07	1160.8	222.93	4.5346e-06	1.9026e-06	281.11	79.691	61.87	18.187	3.0551e-06	25.419	0.00023157	0.00021846	6.1577e-05	1041.4	2.4219e-06	2.4435e-06	1147.2	220.95	2.4446e-06	2.4162e-06	280.62	79.551	61.959	18.451	2.5226e-06	25.95	149.332	247.563	187.779	132.998	186.669	441.866	133.168	140.669	295.426	281.982	139.777	146.645	146.866	154.512	235.752	153.914	-8191	255	
32140.922	1	1	0	0	0.19887	0.070956	0.18389	0.12883	0.1522	0.008707	0.21044	0.085845	0.084917	0.18696	0.055395	0.2263	0.18827	0.2279	0.27592	0.0937	-2.1437	-2.8771	-3.2438	-2.425	-3.1271	-3.0062	-2.575	-3.1979	-2.5104	-2.5958	-3.3333	-2.3833	-3.0958	-2.9771	-2.4188	-3.4896	205.547	434.869	349.693	421.425	270.844	346.995	455.772	396.659	322.851	396.424	142.106	371.426	124.856	412.136	318.811	409.018	0.00039296	0.00042403	0.00012814	1059.9	3.172e-06	3.5754e-06	1161	223.17	1.8348e-06	3.1786e-06	280.62	79.344	62.055	18.159	1.6703e-06	25.348	0.00024019	0.00022184	6.3231e-05	1043.8	2.5179e-06	2.4478e-06	1145.4	221.31	2.5072e-06	2.3952e-06	280.68	79.428	62.134	18.464	2.4832e-06	25.876	153.446	203.265	164.115	133.135	240.032	340.045	133.148	140.727	282.681	254.411	140.007	146.858	147.094	154.730	285.860	153.986	-8191	255	
32141.018	1	1	0	0	0.037129	0.13946	0.10145	0.23205	0.27474	0.05209	0.45929	0.1181	0.29287	0.24887	0.22166	0.18693	0.11766	0.094056	0.20962	0.22133	-2.3271	-2.5812	-3.3375	-2.6354	-3.2583	-3.2125	-2.7562	-3.2958	-2.8458	-2.675	-3.4042	-2.4813	-2.8542	-3.0792	-2.4625	-3.275	278.781	399.283	146.145	437.045	155.116	299.804	420.272	138.358	152.230	140.348	455.295	410.430	185.359	162.116	340.611	418.358	0.00039084	0.00027945	0.00010964	1057.6	3.8427e-06	1.6492e-06	1163.3	222.69	3.63e-06	4.3187e-06	285.37	79.219	62.162	18.139	2.8968e-06	25.521	0.00023412	0.00021431	6.0269e-05	1045.1	2.4421e-06	2.4085e-06	1149.4	220.91	2.4282e-06	2.4153e-06	281.78	79.615	61.946	18.479	2.3961e-06	26.058	149.295	241.475	197.295	132.991	249.933	304.105	132.929	140.712	258.702	249.451	140.090	146.849	147.756	154.924	232.819	154.139	-8191	255	
32141.113	1	1	0	0	0.042724	0.10727	0.16269	0.26956	0.213	0.16859	0.23675	0.1735	0.075723	0.046253	0.067839	0.098707	0.094019	0.23037	0.13091	0.072588	-2.3875	-2.4833	-3.1271	-2.5812	-2.9542	-3.175	-2.5667	-3.2396	-2.8458	-2.75	-3.2938	-2.6521	-2.875	-3.1771	-2.6312	-3.1583	462.829	351.891	420.703	429.523	168.892	319.670	410.478	477.259	352.614	263.948	404.585	404.310	427.801	435.784	201.001	279.035	0.00038725	0.00054466	8.6246e-05	1057.6	2.2224e-06	1.2488e-06	1165.1	221.14	4.3656e-06	2.7653e-06	282.04	79.684	61.778	18.221	5.0747e-06	25.543	0.00023382	0.00021773	5.9276e-05	1045.1	2.4179e-06	2.428e-06	1148.1	220.36	2.4133e-06	2.4048e-06	280.63	79.644	62.029	18.511	2.5012e-06	26.027	149.117	210.621	219.749	133.319	230.244	265.979	133.157	140.580	244.925	190.112	140.488	146.667	147.624	154.598	231.994	153.875	-8191	255	
32141.234	1	1	0	0	0.12813	0.10617	0.17294	0.12608	0.092976	0.017967	0.19262	0.15753	0.10555	0.058643	0.14394	0.014485	0.10713	0.26286	0.1817	0.26386	-2.5646	-2.5896	-3.1854	-2.8104	-2.7354	-3.0938	-2.7	-3.3417	-2.9875	-2.4479	-3.4167	-2.7729	-2.6729	-3.3812	-2.6708	-3.2313	171.278	370.304	391.994	445.413	412.728	388.264	423.949	417.657	475.607	150.811	280.599	209.543	187.806	424.861	278.005	423.151	0.00041159	0.00047518	0.00015745	1053.7	2.4249e-06	1.2651e-06	1160.7	222.73	3.8371e-06	1.8527e-06	281.56	79.868	62.101	18.167	1.5634e-06	25.608	0.00023837	0.00023008	6.0426e-05	1044.2	2.542e-06	2.4555e-06	1145.9	221.11	2.4425e-06	2.486e-06	280.51	79.871	61.939	18.501	2.549e-06	25.989	143.554	145.829	267.153	133.137	302.836	304.649	133.146	140.530	256.756	261.622	140.275	146.781	147.693	154.377	227.720	153.956	-8191	255	
32141.330	1	1	0	0	0.35326	0.13008	0.20971	0.40032	0.23269	0.062445	0.301	0.15139	0.17733	0.32048	0.17113	0.13955	0.068349	0.010712	0.1014	0.14534	-2.7417	-2.6146	-3.2646	-2.8792	-2.6458	-3.3417	-2.5687	-3.1437	-3.125	-2.5333	-3.3604	-2.9688	-2.6375	-3.2833	-2.5917	-3.0312	177.821	306.931	398.784	405.166	152.531	132.096	394.595	309.154	171.960	124.977	431.002	450.821	273.467	283.686	276.992	369.716	0.00036471	0.00061894	2.8062e-05	1058.3	3.7866e-06	5.0645e-06	1160.5	222.54	2.4959e-06	4.1544e-06	283.23	79.259	62.13	18.269	2.5438e-06	25.519	0.00024275	0.00023217	6.3758e-05	1045.5	2.5174e-06	2.4937e-06	1149.2	220.95	2.508e-06	2.4965e-06	280.59	79.414	61.998	18.536	2.5266e-06	25.999	146.774	218.225	181.537	132.849	267.136	288.633	133.226	140.926	253.867	250.167	140.218	147.182	147.026	154.684	231.543	154.001	-8191	255	
32141.402	1	1	0	0	0.21279	0.06878	0.11404	0.33944	0.1601	0.056994	0.42742	0.18281	0.16103	0.23106	0.097964	0.24968	0.038099	0.24441	0.30232	0.24886	-2.6063	-2.5667	-3.2583	-3.075	-2.5417	-3.3646	-2.8792	-3.0542	-3.2479	-2.3812	-3.2438	-2.9479	-2.5521	-3.4167	-2.5979	-2.8354	222.668	466.958	183.617	147.623	391.384	294.430	402.888	166.141	410.770	130.475	145.385	123.304	248.504	431.795	399.791	363.712	0.00043049	0.00033996	9.6257e-05	1062.5	2.3014e-06	2.4027e-06	1159.8	222.54	2.7254e-06	4.9459e-06	282.77	79.314	62.418	18.062	2.6977e-06	25.564	0.00024168	0.00022672	6.2303e-05	1047.3	2.5835e-06	2.4832e-06	1146.1	221.3	2.5538e-06	2.503e-06	281.18	79.6	62.25	18.492	2.5871e-06	26.036	146.799	188.900	188.967	132.977	233.572	229.319	132.815	140.855	257.242	275.557	140.706	147.076	147.002	154.684	282.571	153.861	-8191	255	
32141.523	1	1	0	0	0.08645	0.13935	0.17556	0.28329	0.29321	0.20387	0.27521	0.3012	0.13957	0.15789	0.10553	0.16686	0.25718	0.34738	0.16711	0.25035	-2.6562	-2.2625	-3.0938	-3.1208	-2.5583	-3.2229	-2.7917	-2.9646	-3.1521	-2.5042	-3.0729	-3.1125	-2.5062	-3.4375	-2.8604	-2.6625	206.557	166.467	282.706	482.244	166.669	317.051	393.299	425.900	208.710	468.939	176.858	427.387	210.652	437.544	148.178	429.032	0.00042819	0.00037924	8.0502e-05	1058.9	2.5685e-06	2.663e-06	1159.1	222.5	6.5214e-07	2.7713e-06	283.33	79.253	62.169	18.235	9.1948e-07	25.691	0.00025022	0.00023947	6.6051e-05	1044.2	2.7072e-06	2.5847e-06	1146.1	221.35	2.6669e-06	2.6209e-06	281.21	79.529	62.109	18.508	2.593e-06	26.056	153.965	280.151	245.749	133.149	219.401	273.542	133.028	140.869	293.518	267.249	140.261	147.102	147.096	154.931	232.251	154.160	-8191	255	
32141.619	1	1	0	0	0.080867	0.08313	0.15238	0.37675	0.12912	0.24054	0.25995	0.10207	0.17229	0.19257	0.27504	0.083502	0.057895	0.11687	0.063594	0.081922	-2.9396	-2.5104	-2.8792	-3.0687	-2.6583	-3.2458	-2.9458	-2.6854	-3.1625	-2.4813	-2.8125	-3.2313	-2.3937	-3.2958	-2.7562	-2.6229	154.582	286.703	260.977	398.896	288.578	283.998	481.026	449.799	462.613	472.161	397.119	412.019	126.934	147.352	481.279	181.933	0.00041847	0.00023755	0.00013167	1056.4	1.6257e-06	3.7692e-06	1156.2	222.44	3.6358e-06	4.1785e-06	283.34	79.632	62.188	18.176	2.9196e-06	25.567	0.0002469	0.00024867	6.7496e-05	1042.7	2.6106e-06	2.5969e-06	1144.6	221.29	2.6867e-06	2.6588e-06	280.95	79.598	62.211	18.509	2.7792e-06	26.087	147.577	275.036	215.255	132.865	233.225	275.233	132.854	140.652	265.336	248.050	140.445	146.831	147.258	154.503	275.005	154.039	-8191	255	
32141.717	1	1	0	0	0.052221	0.19322	0.093815	0.29027	0.15277	0.10789	0.076428	0.2668	0.13967	0.26211	0.25516	0.31705	0.084083	0.13257	0.10596	0.1771	-2.8667	-2.6063	-2.8021	-3.2083	-2.4875	-3.2875	-3.2083	-2.6	-3.3896	-2.7021	-2.8375	-3.4104	-2.675	-3.1146	-2.9396	-2.7229	303.557	150.698	208.266	443.393	342.482	207.257	458.360	361.886	370.598	292.518	156.309	460.196	384.986	186.748	165.995	380.237	0.00043272	0.00036656	8.1858e-05	1059.5	3.6295e-06	2.7733e-06	1158.6	223.68	4.7909e-06	4.3961e-06	280.04	79.249	62.067	18.351	5.1109e-06	25.686	0.00025475	0.0002479	7.212e-05	1043.9	2.8845e-06	2.7358e-06	1146.6	221.31	2.7514e-06	2.6809e-06	280.63	79.337	62.166	18.576	2.6734e-06	26.057	145.963	170.908	170.399	133.179	277.783	196.965	133.024	140.767	287.840	257.481	140.215	147.077	147.220	154.376	234.637	153.893	-8191	255	
32141.836	1	1	0	0	0.17185	0.055577	0.15886	0.24446	0.20937	0.18096	0.073294	0.19116	0.27935	0.24875	0.092614	0.22086	0.19236	0.24532	0.092997	0.16642	-2.9562	-2.7313	-2.7438	-3.4042	-2.5604	-3.0146	-3.3438	-2.6125	-3.2542	-2.8479	-2.9188	-3.3625	-2.4167	-3.0479	-3.2188	-2.7	215.896	223.212	177.753	453.052	173.052	380.403	467.906	288.528	206.994	353.708	123.260	182.676	443.507	454.001	235.642	408.171	0.00040393	0.00016726	0.00014443	1062.6	1.9956e-06	9.2136e-07	1162.1	222.26	3.6567e-06	2.2363e-06	281.17	79.275	62.318	18.361	7.2431e-06	25.34	0.00025667	0.0002494	6.8167e-05	1045.7	2.6863e-06	2.587e-06	1145.3	221.15	2.5321e-06	2.5841e-06	280.3	79.489	62.161	18.518	2.6458e-06	25.998	141.453	428.103	164.308	133.299	242.240	186.512	133.072	140.364	279.724	209.980	140.502	146.869	147.133	155.342	263.792	154.525	-8191	255	
32141.932	1	1	0	0	0.1513	0.21645	0.11228	0.16411	0.20309	0.2119	0.22359	0.21821	0.24431	0.16074	0.1336	0.20125	0.052752	0.27041	0.16423	0.090045	-2.7479	-2.7833	-2.45	-3.425	-2.5583	-3.0146	-3.1854	-2.5604	-3.1521	-2.8604	-2.9021	-3.2521	-2.6479	-2.8396	-3.1813	-2.6042	184.397	206.235	325.694	238.258	132.158	190.402	273.435	373.181	399.765	462.565	462.266	439.798	379.901	219.026	322.675	401.271	0.00040441	0.00048811	8.4702e-05	1061.1	1.9591e-06	3.6595e-06	1159.6	221.84	1.7446e-06	8.9273e-07	279.77	79.487	62.049	18.328	2.9115e-06	25.337	0.00024976	0.00023466	6.5376e-05	1045.4	2.5841e-06	2.6524e-06	1146.4	220.7	2.6758e-06	2.6677e-06	280.86	79.63	61.954	18.501	2.6336e-06	25.972	147.105	231.253	250.069	133.187	167.319	311.798	133.085	140.722	300.720	229.231	140.298	147.011	147.435	154.554	243.297	153.997	-8191	255	
32142.004	1	1	0	0	0.21021	0.052167	0.25486	0.11952	0.32065	0.25719	0.096996	0.21219	0.10083	0.036368	0.089828	0.092279	0.15894	0.22255	0.090965	0.49136	-2.5792	-3	-2.5521	-3.5271	-2.6792	-2.925	-3.4646	-2.6417	-3.0312	-3.0833	-2.5792	-3.3917	-2.8021	-2.7938	-3.2188	-2.5062	159.033	350.999	432.398	349.342	322.833	471.228	391.964	476.841	328.457	457.562	299.271	280.005	284.398	151.866	377.096	471.017	0.00034456	0.00016751	5.297e-05	1065.6	3.5496e-06	4.7241e-06	1161.1	223.03	2.3525e-06	2.7001e-06	281.93	79.721	61.645	18.123	1.3878e-06	25.411	0.00025575	0.00024589	6.8072e-05	1046.5	2.7311e-06	2.6025e-06	1146.3	221.08	2.682e-06	2.7739e-06	281.05	79.657	61.886	18.53	2.6696e-06	26.006	150.909	216.738	245.213	133.155	215.831	255.149	133.025	140.846	237.200	478.031	140.542	147.106	147.226	154.548	151.484	153.631	-8191	255	
32142.123	1	1	0	0	0.097161	0.13301	0.30728	0.089985	0.17472	0.05339	0.35612	0.29055	0.16515	0.19051	0.12725	0.24576	0.20946	0.11692	0.063896	0.078473	-2.8146	-3.0542	-2.7083	-3.3729	-2.8729	-2.7542	-3.3917	-2.7167	-3.0792	-3.1667	-2.5979	-3.1729	-2.9896	-2.6542	-3.1042	-2.5979	243.884	238.433	481.971	341.486	321.940	291.932	420.686	163.604	236.340	151.858	467.179	431.347	467.572	283.591	158.865	207.997	0.00042317	0.00032973	0.00012668	1058.1	3.6264e-06	2.4883e-06	1161.8	222.89	1.9736e-06	1.3311e-06	282.18	79.777	61.852	18.245	1.9714e-06	25.507	0.00026229	0.00024762	6.9458e-05	1045.4	2.7455e-06	2.6862e-06	1148.2	221.37	2.6958e-06	2.7371e-06	281.31	79.772	62.139	18.589	2.6452e-06	26.049	145.416	189.753	146.413	133.464	270.375	307.498	133.038	140.761	234.698	210.434	139.811	146.553	147.146	154.362	245.212	153.795	-8191	255	
32142.219	1	1	0	0	0.15714	0.17271	0.17672	0.24602	0.088837	0.12638	0.3905	0.24343	0.11958	0.07121	0.067259	0.17509	0.22051	0.205	0.021442	0.048263	-2.4062	-3.0938	-2.4646	-3.2542	-2.875	-2.7313	-3.2854	-2.5167	-2.8875	-2.9521	-2.5292	-3.1917	-2.9479	-2.6125	-3.325	-2.6854	312.116	418.419	167.910	140.740	393.752	461.772	396.393	441.230	354.533	321.469	181.812	438.711	154.623	172.509	297.552	279.523	0.00041039	0.00057758	6.1895e-05	1062.8	1.7763e-06	2.7858e-06	1161.9	223.48	2.6265e-06	3.2668e-06	281.75	80.092	62.243	18.348	2.8015e-06	25.512	0.00024808	0.00024808	6.8813e-05	1046.7	2.7164e-06	2.6511e-06	1146.3	221.29	2.7017e-06	2.612e-06	280.69	79.672	62.21	18.555	2.704e-06	25.947	150.686	184.014	125.648	133.286	277.669	305.592	133.198	140.497	248.997	285.439	139.900	146.771	147.306	154.478	224.725	153.432	-8191	255	
32142.314	1	1	0	0	0.091437	0.23953	0.090769	0.06686	0.12747	0.088631	0.16629	0.12494	0.39291	0.35649	0.030839	0.13313	0.097614	0.14447	0.23554	0.19248	-2.3563	-3.1021	-2.3958	-3.2667	-2.9354	-2.5458	-3.6146	-2.7604	-2.8917	-3.0729	-2.5854	-3.1042	-3.0042	-2.4792	-3.2229	-2.7896	458.201	432.284	246.112	205.777	452.985	392.736	400.793	335.056	299.859	468.927	426.706	310.264	456.167	387.449	131.969	407.192	0.0003962	0.0002243	2.3832e-05	1059.6	1.3491e-06	4.9202e-06	1162.1	221.74	2.6889e-06	2.5315e-07	280.81	79.737	61.65	18.257	4.6722e-06	25.252	0.00025094	0.00024141	6.7884e-05	1044.9	2.6145e-06	2.6506e-06	1146.2	220.3	2.6463e-06	2.6095e-06	280.22	79.558	61.942	18.5	2.6099e-06	25.904	143.559	232.752	433.916	133.192	227.242	308.949	133.036	140.544	295.403	274.348	140.206	146.766	147.228	154.526	233.443	154.060	-8191	255	
32142.412	1	1	0	0	0.13718	0.23017	0.11452	0.1538	0.070619	0.27946	0.03928	0.16084	0.031647	0.068555	0.091267	0.10207	0.15701	0.32735	0.16883	0.22722	-2.2229	-3.3292	-2.5542	-2.9062	-3.0458	-2.6208	-3.4042	-2.7333	-2.7	-3.3854	-2.6813	-2.825	-3.1125	-2.6146	-3.3375	-2.8125	208.592	231.172	399.998	442.195	360.679	332.084	290.493	144.638	301.151	170.347	452.460	406.232	237.963	457.467	419.397	441.312	0.00036121	0.00071268	1.8002e-05	1059.5	2.678e-06	5.3563e-06	1159.4	222.54	2.3967e-06	3.8703e-06	282.49	78.916	61.754	18.164	1.0508e-06	25.407	0.00024704	0.00023904	6.4793e-05	1043.5	2.6498e-06	2.6314e-06	1144.4	220.9	2.6145e-06	2.518e-06	280.37	79.263	61.832	18.385	2.4608e-06	25.883	157.373	189.762	290.600	132.881	288.691	289.895	133.241	140.387	239.449	250.844	140.137	146.660	147.468	154.857	285.811	154.263	-8191	255	
32142.508	1	1	0	0	0.26953	0.045363	0.19955	0.15241	0.22977	0.066447	0.26221	0.27652	0.048246	0.088858	0.15334	0.30825	0.20815	0.29358	0.13827	0.36679	-2.1813	-3.1292	-2.5854	-3.0917	-3.1042	-2.4562	-3.175	-2.9146	-2.5208	-3.3521	-2.7938	-2.9021	-3.2354	-2.525	-3.0375	-3.1542	303.880	364.905	420.123	132.859	124.872	440.000	438.970	429.957	263.657	331.407	157.210	348.065	387.763	128.913	466.292	414.080	0.0003679	0.0003856	0.00013786	1054.3	3.1544e-06	3.1522e-06	1161.3	220.98	1.7734e-06	9.2067e-07	280.53	79.341	61.709	18.152	2.0907e-06	25.376	0.00023738	0.00022681	6.2947e-05	1042.5	2.4594e-06	2.4492e-06	1143.2	220.57	2.4168e-06	2.4146e-06	279.7	79.482	61.866	18.375	2.44e-06	25.876	132.026	172.112	192.899	133.417	251.135	218.112	133.274	140.456	280.656	290.418	140.247	147.187	147.360	154.597	234.880	153.222	-8191	255	
32142.627	1	1	0	0	0.15831	0.20294	0.31837	0.28605	0.019979	0.21253	0.16234	0.27258	0.092685	0.010618	0.22234	0.15522	0.31771	0.11016	0.081997	0.2	-2.15	-3.1937	-2.7479	-2.6979	-3.3312	-2.5	-3.1229	-2.9833	-2.4708	-3.3958	-2.8833	-2.9104	-3.3604	-2.4958	-3.0229	-3.1437	284.377	431.290	442.045	136.871	333.595	464.038	365.971	137.907	312.542	308.723	398.820	397.377	128.308	251.707	169.720	392.815	0.00039765	0.000379	0.00015386	1053.7	8.1583e-07	2.0651e-06	1162.7	220.96	2.2741e-06	4.5215e-07	279.2	79.849	61.61	18.142	3.2003e-06	25.313	0.00024489	0.00022289	6.2387e-05	1041.7	2.5131e-06	2.4712e-06	1145.1	220.15	2.519e-06	2.5088e-06	279.95	79.584	61.909	18.439	2.5519e-06	25.804	155.040	252.980	230.008	133.184	277.996	440.408	133.435	140.837	229.151	395.682	139.998	147.001	147.210	154.798	306.961	153.770	-8191	255	
32142.699	1	1	0	0	0.11273	0.19	0.098203	0.064238	0.20781	0.076716	0.19903	0.081607	0.070697	0.10865	0.143	0.17193	0.074708	0.24851	0.22469	0.13462	-1.9875	-3.2354	-2.9271	-2.6562	-3.0979	-2.55	-3.0646	-3.2583	-2.4042	-3.2604	-2.8708	-2.6458	-3.2562	-2.6937	-2.7687	-3.2083	352.652	320.823	144.737	151.448	475.511	186.711	375.664	199.686	178.176	472.049	176.124	196.641	321.140	414.696	160.829	466.305	0.0004124	0.0004468	8.6905e-05	1059.1	3.8658e-06	1.1671e-06	1157.5	222.08	2.5371e-06	1.5144e-06	282.11	79.493	61.902	18.06	6.1315e-06	25.128	0.00024695	0.00023351	6.7061e-05	1043.6	2.6545e-06	2.6591e-06	1144.1	220.86	2.675e-06	2.6303e-06	280.19	79.47	61.99	18.372	2.722e-06	25.77	158.626	232.363	230.833	133.051	226.838	191.219	133.387	140.357	264.807	393.119	140.119	146.806	147.446	154.398	243.610	153.855	-8191	255	
32142.797	1	1	0	0	0.12432	0.24333	0.16057	0.12835	0.13976	0.095696	0.2481	0.38439	0.12866	0.23374	0.060472	0.33158	0.029501	0.24858	0.12742	0.11797	-1.9604	-3.0146	-2.9208	-2.7833	-3.2208	-2.6646	-3.0417	-3.2417	-2.5229	-3.0646	-3.1583	-2.6021	-3.2396	-2.6604	-2.6729	-3.2042	311.843	180.275	441.918	430.704	318.224	212.915	365.447	443.240	189.305	161.212	408.258	469.991	370.041	332.360	320.541	268.029	0.00041526	0.00046318	8.1286e-05	1054.7	3.7989e-06	6.0202e-07	1159.1	221.53	2.0664e-06	4.8413e-06	281.83	79.508	61.916	18.124	3.8906e-06	25.302	0.000258	0.00025203	6.7393e-05	1041.7	2.7437e-06	2.6742e-06	1144.1	220.76	2.6659e-06	2.63e-06	280.03	79.682	61.986	18.388	2.6521e-06	25.736	152.898	268.851	267.732	132.888	242.314	271.846	133.038	140.635	280.054	245.528	140.329	147.217	147.479	154.859	249.608	153.830	-8191	255	
32142.918	1	1	0	0	0.10573	0.038685	0.19135	0.09943	0.22217	0.098288	0.055963	0.12177	0.12502	0.13254	0.22538	0.1322	0.31867	0.046282	0.197	0.31542	-2.2188	-2.9313	-3.0396	-2.6708	-3.2229	-2.6562	-3.0438	-3.2417	-2.6042	-3.1396	-3.225	-2.4562	-3.2812	-2.6688	-2.5438	-3.3646	444.151	270.427	137.205	126.022	445.123	404.000	298.921	467.607	235.050	306.155	437.524	393.110	467.544	214.038	125.864	467.249	0.00042125	0.00015764	0.00010912	1060.3	2.3933e-06	1.3994e-06	1158	221.8	2.748e-06	3.8246e-06	281.43	79.14	62.116	17.98	2.485e-06	25.179	0.00025529	0.00024411	6.663e-05	1044.9	2.6723e-06	2.6837e-06	1146.4	220.78	2.733e-06	2.6505e-06	280.23	79.554	62.062	18.332	2.6877e-06	25.708	154.398	244.064	268.862	133.071	315.322	209.382	133.001	140.714	238.103	289.340	140.028	146.914	147.419	154.477	179.771	154.204	-8191	255	
32143.012	1	1	0	0	0.12589	0.2565	0.14277	0.26482	0.14981	0.12328	0.26455	0.18816	0.23856	0.10169	0.10875	0.14275	0.12537	0.46157	0.27054	0.10026	-2.2854	-3.0167	-3.0438	-2.5708	-3.1958	-2.6396	-2.6312	-3.2125	-2.6042	-2.7792	-3.2729	-2.5563	-3.3208	-2.9208	-2.4833	-3.325	231.031	213.914	451.475	200.990	474.210	467.088	394.295	437.987	132.861	392.314	399.766	324.682	220.992	458.972	373.506	361.548	0.00040617	0.00013079	0.00012443	1061.2	5.4004e-06	3.031e-06	1153.2	222.41	3.1747e-06	4.005e-06	280.49	79.139	62.068	17.924	9.1878e-07	25.146	0.0002562	0.00024169	6.6678e-05	1047	2.7215e-06	2.6517e-06	1143.7	220.76	2.6613e-06	2.5983e-06	280.3	79.385	62.059	18.311	2.6177e-06	25.687	151.147	462.232	243.797	133.282	251.003	269.458	133.145	140.942	269.802	290.235	139.876	146.992	147.375	154.710	223.314	153.743	-8191	255	
32143.107	1	1	0	0	0.043365	0.077949	0.3055	0.0083825	0.27256	0.12462	0.11873	0.14081	0.12289	0.13819	0.093174	0.026526	0.089545	0.044753	0.18808	0.11811	-2.1646	-2.5771	-3.1292	-2.6583	-3.1542	-3.0167	-2.6625	-3.2333	-2.6542	-2.9062	-3.2667	-2.4667	-3.1479	-2.8292	-2.4938	-3.1271	180.306	135.675	173.821	210.888	378.594	214.936	452.471	404.562	318.210	403.631	416.669	340.118	354.535	371.528	480.773	426.265	0.00038147	0.00050068	4.3433e-05	1059.4	2.5688e-06	3.3254e-06	1159.2	222.36	4.795e-06	2.0701e-06	280.59	79.304	61.885	18.08	7.5223e-06	25.296	0.00025015	0.00024102	6.7433e-05	1043.9	2.6796e-06	2.5381e-06	1147.1	220.7	2.6785e-06	2.624e-06	279.5	79.366	61.937	18.346	2.537e-06	25.772	146.579	181.138	134.730	133.131	260.642	205.968	133.270	140.675	260.801	196.885	140.560	146.819	147.619	154.292	263.860	153.800	-8191	255	
32143.203	1	1	0	0	0.28709	0.12698	0.2426	0.25162	0.10809	0.29699	0.26811	0.20394	0.22006	0.021567	0.12688	0.11357	0.25821	0.14191	0.29746	0.31431	-2.3333	-2.8979	-2.9771	-2.5229	-3.1083	-3.2229	-2.6292	-3.3604	-2.8312	-2.6646	-3.2812	-2.6979	-2.9062	-3.2042	-2.4813	-3.2146	137.862	456.880	170.950	434.374	257.406	441.604	434.603	433.622	232.191	213.832	310.048	146.024	410.486	224.978	203.727	221.447	0.00047614	0.00020596	8.9784e-05	1053.5	6.0674e-06	3.5787e-06	1157.1	221.62	3.7143e-06	5.6821e-06	282.27	78.624	62.007	17.902	3.2429e-06	25.147	0.00025728	0.00023685	6.6835e-05	1041.1	2.6624e-06	2.6838e-06	1145.4	220.73	2.747e-06	2.6265e-06	280.29	79.352	62.053	18.301	2.6793e-06	25.725	149.902	224.573	231.205	133.033	227.398	274.104	133.509	140.733	263.032	288.606	139.927	146.996	147.345	155.337	238.819	153.910	-8191	255	
32143.301	1	1	0	0	0.060946	0.2792	0.12439	0.26021	0.1075	0.1439	0.10621	0.12717	0.10945	0.32448	0.15784	0.085302	0.12553	0.23484	0.16521	0.12295	-2.4708	-2.6146	-3.1188	-2.5875	-2.7375	-3.2042	-2.5375	-3.0958	-2.8771	-2.3438	-3.3396	-2.5917	-2.9521	-3.0417	-2.5083	-3.1625	438.454	393.792	464.069	138.076	129.362	436.830	329.790	158.752	405.497	251.563	399.467	448.468	142.842	456.161	289.717	173.599	0.00041846	0.00027023	0.00016077	1060.9	4.2506e-06	3.2376e-06	1155.7	221.98	2.2192e-06	1.4433e-06	278.96	78.934	62.059	17.936	5.4822e-07	25.148	0.00025834	0.00024716	6.7822e-05	1045	2.7441e-06	2.7309e-06	1144.9	220.81	2.6594e-06	2.6828e-06	279.41	79.462	61.946	18.309	2.6669e-06	25.653	150.202	210.362	211.004	132.933	250.457	267.594	133.079	140.584	255.756	238.503	140.599	146.556	147.419	154.800	278.474	154.150	-8191	255	
32143.396	1	1	0	0	0.10757	0.16849	0.16885	0.055378	0.31462	0.020991	0.31733	0.13851	0.0063215	0.082051	0.13854	0.055231	0.026715	0.16742	0.2317	0.26359	-2.6583	-2.5917	-3.0396	-2.7125	-2.7354	-3.1063	-2.7104	-3.0854	-2.8937	-2.5083	-3.5708	-2.9021	-2.6917	-3.3375	-2.5875	-3.025	313.594	371.829	393.439	210.154	294.773	175.929	343.559	449.620	238.394	195.684	305.790	157.177	480.266	174.912	356.355	365.543	0.00041575	0.00049063	0.00010018	1058.2	2.063e-06	1.3345e-06	1161.3	222.81	4.0324e-06	3.86e-06	282.32	79.087	62.147	17.982	3.5929e-06	25.043	0.00025316	0.00024149	6.5706e-05	1043.1	2.6479e-06	2.5195e-06	1146.8	221.1	2.6334e-06	2.6036e-06	280.79	79.368	62.098	18.287	2.7221e-06	25.732	155.748	199.717	191.882	133.222	190.552	171.689	133.125	140.891	296.899	177.594	140.084	146.610	147.709	154.867	328.486	153.978	-8191	255	
32143.516	1	1	0	0	0.10129	0.19351	0.13108	0.17879	0.11089	0.18414	0.32034	0.23545	0.15243	0.25558	0.10936	0.19578	0.16319	0.27465	0.20187	0.15027	-2.6063	-2.5646	-3.1917	-2.7708	-2.5771	-3.2604	-2.7771	-3.0687	-3.0458	-2.4	-3.0896	-2.8479	-2.5292	-3.2562	-2.5896	-3.0687	150.784	341.107	221.850	454.108	349.018	275.216	395.152	391.387	207.058	302.228	262.055	132.520	466.968	189.900	346.729	184.463	0.00044211	0.00056749	0.00016385	1054.6	3.0358e-06	2.7086e-06	1158.5	221.99	4.9753e-06	1.2321e-06	280.32	79.482	62.104	18.02	5.2873e-06	25.274	0.00025426	0.00023917	6.5894e-05	1041.3	2.6888e-06	2.6367e-06	1145.6	220.61	2.6734e-06	2.6716e-06	280.65	79.449	62.146	18.306	2.6851e-06	25.787	150.041	229.609	191.740	133.042	235.212	253.705	133.082	140.531	288.521	240.823	140.715	146.843	147.762	154.951	275.461	153.889	-8191	255	
32143.613	1	1	0	0	0.1265	0.071817	0.077489	0.18904	0.13217	0.19583	0.13319	0.06989	0.043166	0.027847	0.096543	0.13342	0.10903	0.12191	0.1992	0.11987	-2.6896	-2.4458	-3.1063	-2.9667	-2.5604	-3.1604	-2.8979	-2.9167	-3.3792	-2.4667	-3.0938	-3.1521	-2.8417	-3.2062	-2.5563	-2.9708	180.559	249.264	311.536	166.104	159.660	368.542	420.778	339.316	345.141	463.273	205.892	376.276	322.556	473.992	384.893	384.734	0.00036503	0.00017419	8.4322e-05	1058	5.3174e-06	3.116e-06	1161	222.9	1.9145e-06	2.155e-06	282.65	79.402	61.986	18.142	3.7904e-06	25.096	0.00025577	0.00024552	6.7149e-05	1044.4	2.7459e-06	2.7104e-06	1146	221.17	2.6911e-06	2.6684e-06	280.84	79.581	62.037	18.419	2.7421e-06	25.703	163.466	226.707	295.278	133.213	281.183	278.019	132.960	140.700	241.374	271.288	140.368	146.936	147.221	155.146	283.423	153.616	-8191	255	
32143.709	1	1	0	0	0.084819	0.12499	0.056672	0.34431	0.12066	0.34093	0.1533	0.20545	0.19334	0.022389	0.26551	0.14332	0.040384	0.088871	0.32806	0.31812	-2.7812	-2.4396	-2.8937	-3.1813	-2.5104	-3.2375	-2.9771	-2.5812	-3.2687	-2.3063	-2.9958	-3.1937	-2.7146	-3.1688	-2.8083	-2.5646	381.115	376.879	197.857	448.464	283.249	141.804	136.452	452.062	311.062	392.970	253.519	229.938	177.080	453.108	148.516	440.076	0.00039688	0.00014183	5.3151e-05	1056	1.5892e-06	2.6813e-06	1162.7	222.18	2.6134e-06	3.182e-06	281.98	79.195	62.314	18.069	6.6562e-07	25.146	0.00025535	0.00025304	6.7188e-05	1044.2	2.7586e-06	2.7343e-06	1148.8	220.81	2.7088e-06	2.6621e-06	280.41	79.509	62.283	18.382	2.7128e-06	25.652	148.001	141.658	139.172	133.145	222.033	299.655	133.219	140.808	283.221	271.595	140.255	146.673	147.465	154.931	138.328	154.342	-8191	255	
32143.803	1	1	0	0	0.12935	0.13775	0.18062	0.17278	0.31073	0.10616	0.16506	0.26068	0.10057	0.20021	0.2202	0.37853	0.21334	0.19802	0.16836	0.17704	-2.8042	-2.4125	-2.9479	-3.2896	-2.4479	-3.0625	-3.1583	-2.5833	-3.2354	-2.5042	-2.8771	-3.2104	-2.4542	-3.1958	-2.9833	-2.5042	445.399	129.523	213.519	417.898	468.108	227.010	424.717	390.255	245.885	132.661	309.705	131.572	266.081	441.973	207.434	131.798	0.00044587	0.00047766	7.9501e-05	1057.3	2.0068e-06	1.6172e-06	1160.8	221.67	9.769e-07	3.1778e-06	281.37	79.928	61.781	17.994	4.0134e-06	25.287	0.00025355	0.00025134	7.0209e-05	1045.2	2.8243e-06	2.7591e-06	1147.2	221.04	2.7097e-06	2.6748e-06	281.12	79.473	62.166	18.383	2.7323e-06	25.694	141.789	208.744	169.207	133.176	234.951	274.182	133.071	140.394	221.808	227.399	140.473	146.825	147.555	154.579	295.253	153.648	-8191	255	
32143.924	1	1	0	0	0.19848	0.24307	0.050531	0.28154	0.22277	0.15566	0.32139	0.28962	0.081826	0.15216	0.11692	0.18381	0.33286	0.17519	0.13118	0.054415	-2.9667	-2.5625	-2.7562	-3.3583	-2.5208	-3.0563	-3.1417	-2.6	-3.1854	-2.5229	-2.9313	-3.3042	-2.5938	-2.9729	-2.9083	-2.5708	349.484	481.332	189.823	132.821	310.461	325.901	428.059	424.564	233.143	205.442	205.220	434.195	441.861	293.925	385.960	329.258	0.00042681	0.00033139	4.6482e-05	1063.3	3.0087e-06	2.8174e-06	1163.8	221.99	3.5064e-06	1.0513e-06	282.13	80.269	61.88	18.092	2.6044e-06	25.136	0.00025677	0.00025422	6.9638e-05	1045.6	2.7354e-06	2.6879e-06	1147.3	221.16	2.6482e-06	2.6752e-06	280.76	79.756	62.1	18.374	2.6927e-06	25.686	148.537	224.412	125.734	132.863	222.076	313.132	133.024	140.555	225.558	323.552	140.630	147.226	147.586	154.950	278.680	153.867	-8191	255	
32143.994	1	1	0	0	0.28863	0.11169	0.16481	0.12198	0.021691	0.23825	0.14344	0.26908	0.32228	0.094823	0.16048	0.05827	0.16972	0.069629	0.31012	0.21204	-2.8563	-2.7	-2.5771	-3.3354	-2.3021	-2.8625	-2.9958	-2.5854	-3.2208	-2.7708	-2.6937	-3.3542	-2.4396	-2.9729	-3.0979	-2.5333	262.423	189.691	154.663	454.535	132.746	307.999	464.202	463.357	471.086	479.867	201.212	320.413	415.005	160.002	209.970	432.997	0.00037675	0.00033302	1.8338e-05	1059	4.1686e-06	5.4733e-06	1156.9	221.55	1.3061e-06	1.2305e-06	281.91	79.595	61.633	17.977	6.5444e-06	25.299	0.00025496	0.00024135	6.6553e-05	1045	2.7724e-06	2.656e-06	1145.5	220.99	2.6648e-06	2.6848e-06	280.17	79.381	61.97	18.387	2.6075e-06	25.727	151.867	232.760	290.834	133.159	270.918	333.060	133.066	140.544	212.941	270.380	140.333	146.882	147.475	155.117	286.254	153.771	-8191	255	
32144.092	1	1	0	0	0.14211	0.21721	0.19117	0.18212	0.24905	0.2686	0.28523	0.14205	0.095529	0.095279	0.15687	0.15993	0.17236	0.21847	0.17521	0.070758	-2.7604	-2.7	-2.6271	-3.4375	-2.6896	-2.8625	-3.55	-2.5458	-3.0271	-2.9875	-2.6813	-3.4062	-2.75	-2.7792	-3.1729	-2.4708	480.694	222.315	429.358	129.833	314.157	201.208	456.850	436.037	150.435	376.548	370.863	411.263	282.867	394.859	399.934	467.319	0.00042149	0.00064837	0.00011205	1055.4	3.2471e-06	4.4921e-06	1154.2	223.01	3.487e-06	4.2228e-06	281.41	79.507	61.691	18.124	2.2792e-06	25.179	0.00025524	0.00024375	6.5267e-05	1043.6	2.68e-06	2.6503e-06	1142.9	220.84	2.6002e-06	2.6674e-06	280.72	79.533	61.933	18.427	2.5909e-06	25.67	150.250	179.569	255.798	133.204	261.949	307.635	133.214	140.629	299.357	320.984	140.407	146.734	147.044	154.781	253.067	154.071	-8191	255	
32144.188	1	1	0	0	0.14116	0.055643	0.10533	0.3968	0.23279	0.15839	0.33051	0.30327	0.33127	0.13814	0.3296	0.26126	0.15056	0.075336	0.17718	0.23599	-2.7146	-3.0104	-2.4313	-3.45	-2.5792	-2.6271	-3.475	-2.4479	-3.1271	-3.0167	-2.6396	-3.2958	-2.8438	-2.6646	-3.0792	-2.7417	138.191	151.244	358.582	408.521	439.848	210.699	424.130	132.745	309.207	320.548	301.138	464.423	161.832	357.094	425.886	395.823	0.00043352	0.00062523	4.7155e-05	1059.2	2.3317e-06	9.3552e-07	1157.6	222.07	2.9429e-06	7.6964e-07	283.22	79.725	61.55	18.065	2.5227e-06	25.168	0.00025406	0.00024304	6.5391e-05	1045.1	2.7365e-06	2.6053e-06	1146	221.07	2.6633e-06	2.6194e-06	281.24	79.576	61.988	18.415	2.6289e-06	25.711	154.994	244.457	203.430	133.210	269.431	333.528	133.145	140.590	242.511	359.579	140.434	146.971	147.428	154.487	313.876	153.845	-8191	255	
32144.309	1	1	0	0	0.18286	0.19695	0.078215	0.24578	0.40698	0.2572	0.12052	0.13407	0.015233	0.20704	0.12756	0.088213	0.089124	0.095535	0.1659	0.24202	-2.6542	-3.1437	-2.3146	-3.2625	-2.6333	-2.525	-3.4604	-2.5208	-2.8354	-3.1896	-2.5792	-3.1021	-2.9333	-2.5146	-3.2542	-2.5854	396.595	284.473	216.198	427.331	146.585	443.175	129.847	428.900	349.466	416.900	216.014	348.075	260.331	462.408	212.239	426.543	0.00045396	0.00072567	0.00010899	1062.3	2.4468e-06	4.8763e-06	1164.1	222.5	2.5781e-06	7.087e-07	281.08	79.016	61.94	18.177	4.9249e-06	24.991	0.00025769	0.00024279	6.7544e-05	1044.7	2.7665e-06	2.632e-06	1148.3	221.3	2.7047e-06	2.7347e-06	281.25	79.743	62.151	18.435	2.7089e-06	25.667	152.006	205.272	234.787	133.334	219.427	295.094	133.102	140.488	243.588	337.710	140.257	146.878	147.582	154.752	286.904	154.036	-8191	255	
32144.404	1	1	0	0	0.10808	0.11743	0.12165	0.17549	0.14932	0.25054	0.16899	0.28649	0.21969	0.27217	0.064917	0.077183	0.14719	0.35903	0.16249	0.27902	-2.4813	-3.0333	-2.3583	-3.2625	-2.6125	-2.4979	-3.2354	-2.5958	-2.6875	-3.0687	-2.5833	-3.0542	-3.1188	-2.5104	-3.2812	-2.7083	200.074	123.134	354.352	411.839	357.642	372.380	413.503	425.501	227.374	139.068	284.320	278.730	302.375	408.463	297.687	151.477	0.00042923	0.00024039	0.00014037	1060.8	3.6804e-06	1.0994e-06	1157.2	222.29	9.3032e-07	3.607e-06	282.92	79.387	61.914	18.106	3.8941e-06	25.393	0.00026032	0.00025499	7.1674e-05	1046.2	2.8119e-06	2.7763e-06	1146.4	221.3	2.8991e-06	2.7772e-06	280.85	79.708	62.075	18.432	2.846e-06	25.852	151.655	307.911	212.381	133.003	259.467	201.325	132.952	140.646	247.122	257.511	140.005	146.754	147.629	155.207	241.388	154.500	-8191	255	
32144.502	1	1	0	0	0.30282	0.12689	0.18269	0.092505	0.11263	0.25092	0.07712	0.22402	0.098155	0.032361	0.16001	0.23968	0.12582	0.16573	0.28303	0.14651	-2.1	-3.3417	-2.4062	-3.1042	-3.0146	-2.325	-3.4083	-2.7042	-2.6188	-3.2729	-2.4583	-3.0938	-2.9979	-2.5542	-3.1896	-2.8792	265.771	401.745	310.918	465.665	481.976	360.857	360.266	397.991	210.675	444.561	176.865	440.437	154.112	125.335	334.915	408.262	0.00043743	0.0004594	0.00010655	1063.7	3.8158e-06	1.6761e-06	1161.4	222.18	2.0656e-06	1.0898e-06	283	79.272	61.819	18.289	3.5151e-06	25.341	0.00026964	0.00026187	7.3827e-05	1047.4	2.8838e-06	2.8658e-06	1150.1	221.32	2.9341e-06	2.8608e-06	280.61	79.823	62.047	18.492	2.9078e-06	25.757	144.188	239.256	238.528	133.083	215.253	268.076	133.328	140.872	210.814	458.373	140.617	146.771	147.434	154.741	235.129	154.495	-8191	255	
32144.598	1	1	0	0	0.16732	0.19574	0.20709	0.28199	0.44489	0.55973	0.17534	0.10546	0.12134	0.066898	0.20412	0.22988	0.19856	0.12317	0.11325	0.16765	-2.1271	-3.0938	-2.5583	-3.0687	-2.9604	-2.5771	-3.2875	-2.8292	-2.4479	-3.1646	-2.7771	-2.9354	-3.1292	-2.3396	-3.0417	-2.85	346.751	255.707	438.636	429.388	282.349	353.341	436.743	444.906	284.962	124.421	395.509	151.016	354.500	192.604	245.414	421.577	0.00047165	0.00041569	0.00012613	1064.9	4.6044e-06	3.6256e-06	1166.4	223.23	5.0658e-07	1.0086e-06	282.46	79.57	62.152	18.274	4.06e-06	25.32	0.0002825	0.00027381	7.5769e-05	1049.9	2.9727e-06	2.9379e-06	1151.4	221.23	2.97e-06	2.9079e-06	281.48	79.734	62.28	18.519	3.0172e-06	25.889	157.803	218.180	258.531	133.393	267.279	264.010	133.291	140.532	314.523	129.566	140.110	146.800	147.202	154.528	245.822	153.697	-8191	255	
32144.693	1	1	0	0	0.32766	0.10333	0.10064	0.28248	0.12235	0.043918	0.10284	0.20833	0.166	0.16884	0.14002	0.17989	0.12917	0.17092	0.047496	0.15597	-2.0771	-3.3104	-2.675	-2.8729	-3.1271	-2.6375	-3.2354	-3.1792	-2.5	-3.1958	-2.7875	-2.8958	-3.2875	-2.4708	-3.1729	-3.0312	234.612	287.805	316.910	399.439	440.267	222.815	457.963	433.933	287.939	236.741	430.276	367.513	134.925	222.204	273.092	409.470	0.00040889	0.00031034	0.00011832	1058.3	4.394e-06	4.5717e-06	1164	222.8	1.338e-06	7.342e-07	283.41	80.345	62.316	18.216	1.8362e-06	24.908	0.00029243	0.00027294	7.7575e-05	1045.9	3.0834e-06	3.0283e-06	1150.9	221.38	2.963e-06	2.9483e-06	281.49	79.842	62.393	18.514	2.9547e-06	25.782	156.327	193.097	217.735	133.124	272.648	341.197	133.147	140.729	207.459	465.425	140.309	147.054	147.119	154.252	306.440	153.645	-8191	255	
32144.789	1	1	0	0	0.21878	0.19428	0.076071	0.054284	0.24734	0.0076461	0.14938	0.1833	0.18789	0.15874	0.19508	0.33863	0.19658	0.11048	0.072724	0.27156	-2.1312	-3	-2.825	-2.7521	-3.1479	-2.4458	-3.2667	-3.2354	-2.3292	-3.1396	-2.8833	-2.6854	-3.2854	-2.6125	-2.9792	-3.1771	387.170	154.731	206.253	459.181	266.057	354.770	132.151	426.907	355.641	386.693	413.985	438.804	381.364	214.172	197.164	178.160	0.00038435	0.00067082	3.4542e-05	1065.2	2.9957e-06	5.003e-06	1159.3	222.78	1.7923e-06	4.4666e-06	284.06	79.702	62.054	18.2	7.7912e-06	25.461	0.00028406	0.00027393	7.4636e-05	1048.1	3.026e-06	3.0386e-06	1151.4	221.44	3.0547e-06	3.0181e-06	282.09	79.929	62.264	18.545	3.0534e-06	25.924	140.917	235.594	355.557	133.021	226.113	240.855	133.253	141.038	252.910	196.688	140.402	146.896	147.365	154.371	252.837	153.745	-8191	255	
32144.885	1	1	0	0	0.014085	0.2378	0.20647	0.35729	0.080834	0.036589	0.22514	0.34806	0.032638	0.18786	0.029599	0.29675	0.23753	0.20426	0.18305	0.067944	-1.9771	-3.1937	-2.7125	-2.6646	-3.2083	-2.6562	-3.0271	-3.3771	-2.575	-3.275	-3.0771	-2.5292	-3.2833	-2.6646	-2.6167	-3.2229	216.088	456.357	408.939	406.366	224.281	251.813	423.079	411.637	295.554	377.150	351.544	386.685	183.446	380.355	239.449	437.384	0.00033708	0.00061506	0.00014661	1061.8	4.1046e-06	1.3625e-06	1158.1	222.74	2.315e-06	6.4729e-06	282.34	79.757	62.282	18.129	4.2891e-06	25.344	0.0002859	0.00028102	7.7622e-05	1048.3	3.0617e-06	3.0813e-06	1149.1	221.79	3.1469e-06	3.0625e-06	282.14	80.152	62.424	18.518	3.1708e-06	25.857	149.154	212.490	199.944	133.003	267.061	302.247	133.335	140.586	245.158	234.314	140.139	146.966	147.251	154.735	223.959	153.692	-8191	255	
32145.004	1	1	0	0	0.098686	0.075344	0.13724	0.13578	0.19508	0.48951	0.3496	0.11793	0.20592	0.0065442	0.16587	0.085344	0.20472	0.19056	0.28175	0.094372	-2.0938	-3.1021	-3.1896	-2.5958	-3.2854	-2.7917	-2.7646	-3.2375	-2.4083	-2.925	-2.9646	-2.4542	-3.3208	-2.6208	-2.5938	-3.2917	223.420	348.468	268.515	132.511	431.516	135.083	358.277	465.519	267.922	454.913	123.884	335.704	138.241	146.940	260.745	387.637	0.00039014	0.00026687	0.00012413	1061	1.8511e-06	4.3588e-06	1167.6	224.39	3.607e-06	3.2597e-06	281.52	79.778	62.022	18.228	4.1194e-06	25.345	0.00028903	0.00028259	7.865e-05	1047.9	3.0869e-06	3.0888e-06	1153.5	222.29	3.1076e-06	3.0686e-06	281.56	80.044	62.275	18.541	3.1034e-06	25.879	145.325	246.320	221.245	133.156	207.363	256.383	133.159	140.574	229.241	279.086	140.030	146.652	147.528	154.393	272.359	153.962	-8191	255	
32145.100	1	1	0	0	0.11927	0.060715	0.04829	0.31855	0.13891	0.14015	0.34953	0.077246	0.046094	0.085266	0.081304	0.21987	0.36669	0.14064	0.033379	0.15384	-2.175	-3.0833	-3.0521	-2.6271	-3.1708	-2.8187	-2.9021	-3.3667	-2.7188	-2.9792	-3.1417	-2.6375	-3.2792	-2.9104	-2.5583	-3.5187	327.568	433.240	229.001	133.475	141.527	182.646	446.822	360.595	464.310	266.567	475.877	206.546	284.933	173.615	306.611	471.808	0.00038169	0.00078349	3.1595e-05	1056.5	2.8452e-06	2.506e-06	1162.6	223.27	7.1484e-07	3.9666e-06	282.51	79.489	62.153	18.188	5.0246e-06	25.122	0.0002918	0.00028209	8.0966e-05	1047.1	3.081e-06	3.0955e-06	1152.4	222.54	3.2114e-06	3.0376e-06	282.21	79.862	62.544	18.514	3.0905e-06	25.843	142.466	232.595	139.147	133.226	229.075	285.237	133.259	140.645	164.236	246.672	140.517	147.070	147.021	154.745	264.093	154.233	-8191	255	
32145.195	1	1	0	0	0.33581	0.16509	0.10665	0.24241	0.27171	0.056285	0.15293	0.088958	0.19531	0.17368	0.23655	0.15592	0.10055	0.23223	0.072869	0.21719	-2.1708	-2.7854	-3.2625	-2.6458	-3.1354	-3.0021	-2.6417	-3.4729	-2.6063	-2.8833	-3.4104	-2.4646	-3.2271	-3.0646	-2.4521	-3.3083	467.267	211.361	346.283	468.412	123.822	147.841	128.690	479.708	450.269	433.656	247.906	476.582	411.348	128.770	389.734	472.633	0.00046023	0.00057108	4.2801e-05	1062.5	4.5564e-06	7.0305e-06	1164.3	223.52	2.4907e-06	6.6457e-06	284.72	79.919	62.471	18.236	5.6933e-06	25.44	0.00029511	0.00028503	8.1457e-05	1049	3.1928e-06	3.1652e-06	1154.3	222.04	3.0211e-06	3.0233e-06	282.97	80.115	62.51	18.536	3.0808e-06	25.981	153.401	207.600	157.492	133.312	233.993	300.548	133.300	140.680	234.202	265.009	140.209	146.922	147.355	154.559	260.627	153.794	-8191	255	
32145.293	1	1	0	0	0.24718	0.062655	0.038001	0.19126	0.10168	0.097229	0.36109	0.07514	0.11449	0.23899	0.17514	0.044355	0.12126	0.089889	0.06032	0.078271	-2.2729	-2.7167	-3.1458	-2.6771	-3.1167	-3.1792	-2.6979	-3.2687	-2.6042	-2.6063	-3.3833	-2.6688	-2.9875	-3.2146	-2.5354	-3.2583	379.070	351.177	346.299	480.963	446.035	309.490	446.640	267.656	161.458	158.981	475.783	177.754	217.463	247.586	272.516	443.876	0.0003818	0.00061466	0.00013336	1064.5	3.284e-06	7.2253e-06	1168.6	224.51	4.9272e-06	3.0831e-06	282.46	79.779	62.566	18.165	6.9026e-07	25.586	0.00028697	0.00027804	7.6599e-05	1048.6	3.0749e-06	3.0897e-06	1153.5	222.8	3.1596e-06	3.1375e-06	282.28	80.065	62.59	18.553	3.1702e-06	25.991	148.363	186.843	221.150	133.372	225.178	279.606	133.083	140.678	294.278	288.338	140.255	146.487	147.452	154.600	424.051	154.102	-8191	255	
32145.389	1	1	0	0	0.12893	0.063571	0.31009	0.04745	0.13416	0.21307	0.14936	0.10623	0.20663	0.17046	0.15988	0.13661	0.13442	0.10439	0.089986	0.15196	-2.4979	-2.5708	-3.2625	-2.7708	-2.9104	-3.1375	-2.7271	-3.25	-2.9104	-2.625	-3.3688	-2.7396	-2.9208	-3.0708	-2.5396	-3.2458	188.193	193.315	191.032	356.204	474.954	437.322	428.582	409.024	142.731	375.012	290.760	145.211	191.635	214.025	173.901	383.512	0.00040949	0.00048659	0.00011435	1061.5	4.242e-06	9.139e-06	1169	224.07	1.5158e-06	2.1781e-06	284.12	79.538	62.538	18.176	2.3914e-06	25.601	0.00030122	0.00028795	7.8086e-05	1047.7	3.0909e-06	3.1529e-06	1152.5	222.55	3.0867e-06	3.0736e-06	282.98	79.839	62.765	18.548	3.1657e-06	26.007	158.254	246.517	218.410	133.182	222.050	277.859	133.250	140.676	233.489	312.663	140.423	147.154	147.747	154.489	240.006	153.915	-8191	255	
32145.484	1	1	0	0	0.017669	0.23191	0.067022	0.24802	0.15368	0.043703	0.19301	0.16935	0.10627	0.13651	0.10342	0.18437	0.3269	0.25744	0.15077	0.15793	-2.7062	-2.5167	-3.4042	-2.8958	-2.8417	-3.4292	-2.7417	-3.2292	-3.0271	-2.6104	-3.3312	-2.8375	-2.8833	-3.3917	-2.5687	-3.0417	211.563	425.526	204.038	440.866	309.791	185.669	384.551	216.437	129.719	218.564	411.413	360.371	411.272	127.630	272.424	132.092	0.00043135	0.00026003	7.0151e-05	1058.4	6.455e-07	5.5098e-06	1165.4	223.56	5.0979e-06	3.5295e-06	283.94	80.016	62.418	18.252	4.6242e-06	25.402	0.00030035	0.00029498	7.9714e-05	1050.1	3.2137e-06	3.2111e-06	1154.3	222.37	3.1668e-06	3.2244e-06	282.59	80.289	62.53	18.616	3.2981e-06	25.986	151.874	227.195	206.721	133.203	223.150	323.626	133.275	140.770	258.862	259.973	140.342	147.081	147.570	154.532	232.905	153.883	-8191	255	
32145.605	1	1	0	0	0.2763	0.088684	0.058875	0.30938	0.13823	0.14754	0.2284	0.089213	0.126	0.093677	0.20681	0.42311	0.19206	0.23141	0.24121	0.20336	-2.5854	-2.4854	-3.325	-2.9062	-2.5917	-3.3646	-2.7125	-3.1083	-3.1292	-2.4729	-3.4688	-2.8271	-2.6604	-3.3646	-2.5854	-2.8812	279.698	137.424	264.626	456.430	341.457	205.412	373.635	231.580	408.178	312.743	419.246	336.827	462.002	428.203	275.840	270.660	0.00036628	0.00027384	7.3951e-05	1065.5	2.0585e-06	2.9568e-06	1167.2	223.42	2.7142e-06	1.5359e-06	283.62	79.557	62.397	18.204	1.5517e-06	25.495	0.00031282	0.00029707	8.1742e-05	1051.2	3.3504e-06	3.2716e-06	1154.2	222.74	3.2955e-06	3.334e-06	283.7	80.228	62.846	18.593	3.5544e-06	25.993	158.110	200.957	233.540	133.028	199.195	301.355	133.137	140.848	215.601	454.907	140.674	147.017	147.609	154.406	321.559	153.469	-8191	255	
32145.699	1	1	0	0	0.18564	0.11715	0.32814	0.20704	0.16316	0.23377	0.19907	0.13466	0.15762	0.34372	0.093469	0.10884	0.036979	0.18966	0.048892	0.1338	-2.7729	-2.4	-3.2396	-2.8979	-2.6104	-3.2896	-2.7562	-2.9	-3.3312	-2.3354	-3.1937	-2.8542	-2.6375	-3.2354	-2.5771	-2.875	130.155	316.245	390.994	227.118	157.736	397.947	395.196	266.452	333.105	366.811	404.802	142.648	242.156	209.630	146.214	343.745	0.00047327	0.00018687	9.7039e-05	1065.8	3.1304e-06	1.53e-06	1169.1	224.44	2.0233e-06	5.7889e-06	282.74	80.143	62.331	18.433	3.9607e-06	25.401	0.00033032	0.00032774	9.2359e-05	1051.7	3.7086e-06	3.757e-06	1157.6	223.62	4.1805e-06	4.3315e-06	284.34	80.853	63.361	18.94	5.0872e-06	26.426	146.315	152.454	202.304	133.301	125.085	308.959	133.201	140.991	234.829	273.231	140.229	147.231	147.234	155.163	224.623	154.071	-8191	255	
32145.797	1	1	0	0	0.21363	0.039584	0.14249	0.27726	0.20425	0.12169	0.13431	0.061239	0.083328	0.30987	0.26308	0.31618	0.26156	0.25044	0.22174	0.27221	-2.7792	-2.3667	-3.0312	-3.0875	-2.4458	-3.2292	-3.0542	-2.7438	-3.3417	-2.6104	-3.125	-3.15	-2.6917	-3.2667	-2.6771	-2.7313	232.667	152.302	452.557	401.039	125.895	330.592	388.033	124.877	217.665	169.779	359.086	459.745	471.253	272.546	333.515	125.167	0.00036736	0.0012303	7.7778e-05	1067.7	3.1789e-06	1.4892e-06	1171.1	225.5	2.6663e-06	4.1794e-06	285.84	80.723	62.824	18.303	6.1174e-06	25.574	0.00046746	0.00049391	0.00013824	1063.7	5.6239e-06	5.7102e-06	1166.6	226.28	5.7069e-06	5.7628e-06	288.5	81.828	64.09	19.052	5.7488e-06	26.536	144.848	215.269	241.932	133.265	261.316	237.029	133.161	140.855	167.650	362.696	140.439	146.688	147.463	154.413	318.666	153.706	-8191	255	
32145.869	1	1	0	0	0.12505	0.11408	0.14231	0.11863	0.14838	0.25225	0.32651	0.10338	0.32029	0.11704	0.11189	0.034151	0.26392	0.076978	0.074849	0.15073	-2.9021	-2.6708	-2.9437	-3.4146	-2.4458	-3.2812	-2.8729	-2.6771	-3.2375	-2.7104	-3.0208	-3.2313	-2.5604	-3.1167	-2.6437	-2.6375	335.528	185.740	150.342	463.954	234.652	208.750	430.502	442.259	293.471	401.503	210.005	163.609	137.344	347.152	284.327	440.075	0.00043294	0.00015013	0.00013701	1076.9	3.1186e-06	3.7314e-06	1174	226.08	5.2602e-07	1.5485e-06	286.14	80.573	62.99	18.199	3.0008e-06	25.276	0.00050384	0.00051734	0.00014151	1069.1	5.4118e-06	5.3813e-06	1169.1	226.49	5.193e-06	5.1979e-06	287.28	81.637	63.825	18.846	4.9505e-06	26.187	149.379	183.183	353.008	132.868	281.425	288.494	133.166	140.866	272.350	329.831	140.652	146.870	147.393	154.406	211.280	153.953	-8191	255	
32145.988	1	1	0	0	0.23759	0.21186	0.2176	0.16883	0.12282	0.11242	0.27725	0.1635	0.10237	0.068989	0.26813	0.10054	0.063955	0.014649	0.15423	0.39033	-2.9479	-2.6104	-2.9	-3.3396	-2.3917	-3.2	-3.0146	-2.6312	-3.2625	-2.6	-2.9354	-3.2729	-2.4	-3.1729	-3.0417	-2.6729	220.141	278.609	432.125	433.858	128.418	273.841	345.873	457.481	432.401	470.345	143.720	206.863	471.217	422.682	252.084	362.376	0.00042022	0.0005966	5.2032e-05	1077.5	1.2189e-06	2.9438e-06	1173.7	225.3	1.9005e-06	7.1358e-06	285.67	80.162	62.903	18.465	4.9771e-06	25.304	0.00042243	0.00043945	0.00011927	1066.1	4.7285e-06	4.6293e-06	1167.1	225.89	4.7269e-06	4.6887e-06	287.13	81.397	63.721	18.874	4.7234e-06	26.218	155.362	207.001	315.479	132.847	336.905	335.267	133.225	140.695	245.062	279.437	140.521	147.158	147.142	154.560	290.815	153.939	-8191	255	
32146.086	1	1	0	0	0.11207	0.17477	0.097377	0.14172	0.11204	0.15248	0.17173	0.25855	0.14338	0.15844	0.039451	0.19138	0.20356	0.12898	0.12356	0.061596	-2.9292	-2.7042	-2.6	-3.3729	-2.3833	-3.0917	-3.1896	-2.5458	-3.3417	-2.5604	-2.8042	-3.325	-2.6042	-3.0354	-3.0729	-2.6146	261.745	444.772	276.043	183.016	474.772	324.701	481.856	330.306	432.814	123.692	297.265	297.379	138.020	136.368	152.295	340.863	0.00040173	0.00058371	0.00018147	1077.9	4.6724e-06	4.0885e-06	1173.8	225.1	2.9159e-06	2.9988e-06	285.02	80.447	62.892	18.243	4.0081e-06	25.412	0.00041492	0.00042228	0.00011839	1067.2	4.6318e-06	4.5609e-06	1167.1	225.09	4.4484e-06	4.4692e-06	285.35	80.995	63.325	18.734	4.2089e-06	26.09	136.864	277.102	161.014	133.162	250.473	323.995	133.082	140.771	260.665	335.907	140.528	146.582	147.384	154.642	224.748	153.906	-8191	255	
32146.182	1	1	0	0	0.073307	0.12574	0.15904	0.16476	0.17876	0.12651	0.23149	0.071552	0.17903	0.17805	0.13496	0.31149	0.11572	0.20458	0.093927	0.40848	-2.8333	-2.8125	-2.6688	-3.5042	-2.4688	-2.9792	-3.1688	-2.45	-3.1083	-2.8958	-2.5833	-3.3292	-2.7458	-3.0312	-3.1896	-2.625	242.811	382.072	195.321	152.718	244.018	307.634	407.931	319.217	402.816	480.090	225.221	387.030	171.925	207.771	286.424	420.607	0.00031382	0.00056562	0.00013972	1078.5	3.2793e-06	6.636e-06	1167.6	224.6	4.7986e-06	1.4046e-06	284.58	80.44	62.567	18.05	8.5335e-06	25.249	0.00037486	0.00037755	0.000104	1065.1	4.1213e-06	3.9846e-06	1162.1	223.84	4.0722e-06	4.0418e-06	284.25	80.961	63.1	18.588	3.9742e-06	25.925	155.306	137.863	167.949	132.973	237.732	204.489	133.388	140.581	250.388	481.946	140.476	147.242	147.460	155.075	241.619	154.364	-8191	255	
32146.277	1	1	0	0	0.15641	0.051981	0.0564	0.2227	0.16132	0.22365	0.18057	0.20867	0.16963	0.026084	0.10665	0.14997	0.12916	0.25953	0.072361	0.18439	-2.8	-2.9562	-2.5854	-3.4271	-2.8021	-2.8875	-3.3667	-2.6625	-3.1271	-3.1042	-2.5687	-3.2729	-2.7625	-2.7	-3.2646	-2.6396	335.038	257.911	395.608	393.720	208.364	251.553	427.623	464.437	233.288	324.253	424.949	374.546	462.376	439.543	196.775	475.642	0.00041198	0.00036301	9.8925e-05	1073.5	4.447e-06	2.5177e-06	1175.6	224.68	4.1576e-06	2.8478e-06	285.46	80.266	62.52	17.995	2.9669e-06	25.219	0.00036889	0.0003735	0.0001038	1063.6	4.1687e-06	4.1793e-06	1164.9	224.29	4.2747e-06	4.2346e-06	285.58	80.763	63.268	18.633	4.0683e-06	26.008	147.944	186.144	191.255	133.197	267.189	218.379	133.256	140.761	234.938	227.853	140.385	146.785	147.220	154.834	248.400	153.937	-8191	255	
32146.396	1	1	0	0	0.40349	0.15804	0.1559	0.4098	0.018163	0.045449	0.19607	0.22622	0.25349	0.098927	0.13684	0.16722	0.19501	0.034126	0.15957	0.25546	-2.7188	-3.1312	-2.4729	-3.4083	-2.7458	-2.5521	-3.4083	-2.5896	-2.975	-2.975	-2.3458	-3.4313	-2.8812	-2.6854	-3.2125	-2.75	256.716	128.078	391.130	432.681	228.477	167.496	418.603	436.262	310.095	340.643	178.965	446.745	373.326	444.651	298.176	331.948	0.00051256	0.00041614	3.3235e-05	1071.6	2.4762e-06	2.4881e-06	1176.3	225.04	3.2104e-06	3.7914e-06	283.6	80.538	62.355	18.344	3.3709e-06	24.989	0.00037519	0.000374	0.00010495	1061.3	4.0901e-06	4.0359e-06	1163.2	224.17	3.9299e-06	3.9676e-06	284.44	81.01	63.113	18.675	3.9072e-06	25.898	143.278	251.505	201.772	133.356	227.567	422.025	133.258	140.459	258.796	209.222	140.341	147.029	147.496	154.914	228.244	154.387	-8191	255	
32146.469	1	1	0	0	0.14956	0.074467	0.2335	0.067508	0.17691	0.057924	0.14929	0.28627	0.17839	0.21842	0.065943	0.11726	0.28483	0.16798	0.079474	0.12043	-2.5042	-3.2125	-2.5833	-3.2562	-3.0062	-2.5312	-3.4354	-2.8708	-2.9458	-3.1042	-2.5958	-3.2188	-3.0396	-2.5563	-3.3292	-2.6312	331.977	149.544	271.700	276.976	392.883	311.097	469.868	417.534	152.716	350.015	209.927	449.126	153.938	371.816	264.728	359.841	0.00047066	0.00036658	5.4536e-05	1070.5	3.1699e-06	2.3592e-06	1176.8	224.07	3.8439e-06	8.4163e-06	283.34	80.609	62.334	18.136	1.9168e-06	25.336	0.00036253	0.00036368	0.00010107	1062.6	3.9682e-06	3.9843e-06	1163.6	224	3.879e-06	4.0049e-06	284.44	81.065	62.904	18.617	3.9698e-06	25.987	148.432	263.943	233.163	133.349	181.427	226.126	133.241	140.604	202.327	239.675	140.225	147.011	147.347	154.885	306.245	154.209	-8191	255	
32146.564	1	1	0	0	0.22808	0.14717	0.039922	0.314	0.13544	0.035346	0.20095	0.2625	0.1324	0.047635	0.07555	0.13302	0.21999	0.13525	0.145	0.23423	-2.5104	-3.2646	-2.4208	-3.0792	-3.0521	-2.6917	-3.5396	-2.8354	-2.7687	-3.3146	-2.5979	-3.0667	-3.0354	-2.7125	-3.2188	-2.7479	201.827	204.554	135.991	429.619	291.227	270.619	419.825	283.835	215.990	441.062	382.573	374.462	171.029	284.883	288.379	402.195	0.0004052	0.00016097	0.00012116	1072.9	3.7396e-06	6.3185e-06	1170.8	222.69	1.5847e-06	3.3282e-08	283.73	80.349	62.309	18.129	2.9666e-06	25.202	0.00036375	0.00035994	0.00010221	1062.7	3.9278e-06	3.944e-06	1162.8	223.69	3.8781e-06	3.8254e-06	284.3	80.851	63.066	18.6	3.9153e-06	25.902	142.358	261.070	222.114	133.279	221.680	299.529	133.309	140.598	297.902	133.971	140.287	147.049	147.334	154.768	204.135	154.470	-8191	255	
32146.686	1	1	0	0	0.15958	0.18471	0.2687	0.086455	0.20051	0.21942	0.28813	0.23636	0.23484	0.094826	0.037992	0.1058	0.10285	0.08405	0.23647	0.14076	-2.2042	-3.2479	-2.4771	-3.2354	-3.1708	-2.4958	-3.3729	-2.9146	-2.8896	-3.3187	-2.5542	-3.0083	-3.1917	-2.5354	-3.2229	-2.95	220.031	482.928	466.851	459.930	248.584	271.434	125.234	158.054	368.862	181.769	442.924	250.301	161.847	194.588	465.094	374.226	0.00046595	0.00039888	0.00017678	1070.6	3.2273e-06	4.8637e-06	1171.2	224.34	2.4376e-06	5.2046e-06	283.74	80.378	62.544	18.031	5.0433e-06	25.211	0.00036408	0.00034906	9.9333e-05	1061.1	3.984e-06	3.9564e-06	1160.9	223.64	3.9989e-06	3.9412e-06	284.47	80.898	63.135	18.603	4.0197e-06	25.888	161.421	224.807	225.252	133.297	241.835	279.641	133.462	140.924	276.739	312.082	140.022	147.094	147.306	154.833	337.699	154.308	-8191	255	
32146.781	1	1	0	0	0.19604	0.2635	0.21923	0.24786	0.24985	0.058065	0.43158	0.11098	0.18487	0.18099	0.23084	0.18064	0.073536	0.15409	0.15081	0.060863	-2.125	-3.1667	-2.4458	-2.6583	-3.2479	-2.4062	-3.3583	-2.6875	-2.5167	-3.3417	-2.5687	-2.6833	-3.3896	-2.5792	-3.2042	-3.1479	447.529	159.583	425.198	413.037	315.346	155.116	453.635	209.528	323.777	389.136	143.787	327.465	347.300	169.211	409.400	446.739	0.00042514	0.00065802	0.00013764	1071.2	4.9914e-06	5.6923e-06	1171	224.6	3.9294e-06	2.37e-06	284.14	80.408	62.638	18.014	3.5754e-06	25.364	0.00036654	0.000363	0.00010058	1060.6	3.8951e-06	4.0544e-06	1161.7	223.85	3.9518e-06	3.9689e-06	285.08	80.733	63.201	18.608	3.9607e-06	25.977	144.071	230.920	285.275	133.427	274.365	296.399	133.239	140.695	244.819	313.574	140.488	147.254	147.113	154.486	262.291	154.128	-8191	255	
32146.879	1	1	0	0	0.042007	0.24873	0.20943	0.25182	0.18276	0.084952	0.093232	0.27288	0.31417	0.010618	0.19409	0.16418	0.28367	0.05071	0.41752	0.024467	-2.0583	-3.175	-2.7521	-2.8063	-3.0042	-2.4917	-3.2479	-2.9125	-2.55	-3.2438	-2.9917	-2.6917	-3.2083	-2.4979	-3.1104	-3.1292	206.053	257.969	279.512	456.872	474.877	320.266	129.463	462.798	248.564	340.931	414.673	474.152	321.906	255.245	185.387	481.083	0.000431	0.00077615	0.00012841	1074.2	5.787e-06	2.6466e-06	1171.2	224.47	1.9503e-06	3.8936e-06	283.27	80.222	62.793	18.061	3.7021e-06	25.093	0.00035739	0.00035291	9.6904e-05	1061	3.8247e-06	3.8645e-06	1159.9	223.57	3.8299e-06	3.7344e-06	284.09	80.846	63.066	18.528	3.7389e-06	25.837	141.493	193.734	225.242	133.301	230.136	345.687	133.474	140.535	187.305	241.735	140.544	147.412	147.400	154.399	215.603	154.003	-8191	255	
32146.996	1	1	0	0	0.2593	0.15	0.27061	0.040996	0.20582	0.079776	0.12931	0.096361	0.050628	0.21294	0.20111	0.35263	0.24671	0.12794	0.16046	0.075528	-2.1813	-3.1708	-2.6979	-2.5687	-3.2062	-2.5896	-3.075	-3.2146	-2.4813	-3.1542	-2.9083	-2.5958	-3.3354	-2.5792	-2.8167	-3.0771	272.068	370.924	480.714	221.993	352.187	154.858	398.371	442.147	127.126	332.230	380.079	158.870	389.399	472.443	269.668	277.530	0.0004346	0.00059639	3.5663e-05	1071.6	5.5656e-07	1.2703e-06	1170	223.65	1.2445e-06	7.8856e-06	282.87	80.439	61.929	18.039	5.527e-06	25.105	0.00034391	0.00034452	9.6787e-05	1059.4	3.7316e-06	3.8204e-06	1161.2	223.41	3.7663e-06	3.7084e-06	283.51	80.82	62.862	18.544	3.8012e-06	25.865	144.179	200.725	425.496	133.172	177.426	248.692	133.226	140.954	320.764	277.429	140.354	146.808	147.196	154.630	275.820	153.960	-8191	255	
32147.094	1	1	0	0	0.20835	0.11193	0.22832	0.29949	0.29008	0.18048	0.13531	0.23854	0.27493	0.16414	0.095075	0.10619	0.10932	0.15095	0.077646	0.015829	-1.8438	-3.2042	-2.7938	-2.7646	-3.1771	-2.8063	-2.825	-3.2229	-2.3167	-2.9125	-3.1813	-2.5062	-3.2875	-2.8792	-2.7729	-3.2146	127.119	307.774	175.304	165.990	237.474	415.482	437.409	147.387	219.988	286.281	316.867	185.023	300.013	200.806	285.489	160.001	0.00039871	0.00037893	7.7172e-05	1072	3.2319e-06	3.3663e-06	1167.1	224.01	2.5492e-06	5.5923e-06	282.71	79.454	62.392	17.886	4.317e-06	25.302	0.0003524	0.00036209	9.6858e-05	1059.1	3.8367e-06	3.8578e-06	1158.5	223.64	3.7872e-06	3.7034e-06	283.37	80.457	62.91	18.42	3.4506e-06	25.824	149.980	212.232	464.302	133.206	300.300	268.867	133.333	140.852	235.692	328.096	140.428	147.017	147.115	154.554	233.138	153.280	-8191	255	
32147.164	1	1	0	0	0.29846	0.19451	0.33963	0.21663	0.13998	0.10722	0.24542	0.29501	0.085903	0.20901	0.18445	0.2661	0.16758	0.23557	0.12981	0.17388	-1.8917	-2.9208	-3.1688	-2.6646	-3.2729	-2.7646	-2.8292	-3.525	-2.6312	-3.0479	-3.1063	-2.5521	-3.1542	-2.7396	-2.8229	-3.3292	427.277	438.571	358.795	435.173	193.889	366.510	396.045	344.816	462.246	260.420	429.434	298.406	348.542	123.525	460.818	165.214	0.00037312	0.00035783	3.2532e-05	1071.2	4.4942e-06	4.2968e-06	1168.5	223.74	1.1015e-06	3.6936e-06	281.94	79.422	62.405	17.929	1.6471e-06	24.965	0.0003142	0.00030855	8.115e-05	1053.7	3.1624e-06	3.1742e-06	1155.2	222.35	3.0797e-06	3.0403e-06	282.16	79.853	62.453	18.357	3.1043e-06	25.57	137.067	251.822	317.714	133.036	266.639	298.254	133.277	140.556	204.173	277.504	140.179	146.824	147.269	154.754	217.544	153.737	-8191	255	
32147.285	1	1	0	0	0.22931	0.052308	0.095142	0.10319	0.076739	0.14249	0.099857	0.19023	0.098595	0.050869	0.034165	0.27476	0.16269	0.074976	0.091969	0.16754	-2.2604	-2.9667	-3.2417	-2.6542	-3.2333	-2.9083	-2.8771	-3.2812	-2.7062	-2.9437	-3.1937	-2.5479	-3.0333	-2.825	-2.3292	-3.2042	223.180	330.537	381.472	174.910	136.561	405.024	437.962	376.201	337.759	471.197	463.661	455.098	343.779	294.307	404.245	284.816	0.00048591	0.0005826	0.00012372	1058.6	2.6184e-06	1.6726e-06	1164.2	223.97	3.1565e-06	5.6274e-06	283.83	79.475	62.31	17.977	4.9758e-06	24.975	0.00029835	0.0002874	7.9747e-05	1049.6	3.1938e-06	3.2852e-06	1152.1	222.2	3.3457e-06	3.3149e-06	282.44	79.985	62.559	18.355	3.2542e-06	25.65	146.556	267.288	179.393	133.295	345.603	220.202	133.133	140.872	253.506	306.957	140.204	146.510	146.951	155.017	224.461	153.972	-8191	255	
32147.383	1	1	0	0	0.081601	0.060642	0.098505	0.13318	0.10858	0.060025	0.12338	0.2878	0.16471	0.17157	0.20181	0.31021	0.059069	0.2296	0.17765	0.2005	-2.2792	-2.8271	-3.2917	-2.5292	-3.1104	-2.9854	-2.6771	-3.2313	-2.7687	-2.8479	-3.2646	-2.5458	-3.0604	-3.1021	-2.5458	-3.2438	347.042	408.320	171.536	443.277	365.216	153.843	456.762	429.298	167.562	420.355	275.791	482.019	467.906	390.734	357.810	160.091	0.00047451	0.00036637	0.00019172	1066.6	2.5764e-06	6.5842e-06	1162.3	223.2	3.0885e-06	3.0053e-06	283.31	79.646	61.771	17.988	1.2513e-06	25.203	0.00030713	0.00029601	8.359e-05	1051.2	3.2903e-06	3.2416e-06	1151.7	222.34	3.3502e-06	3.2921e-06	282.47	79.907	62.307	18.382	3.2443e-06	25.663	153.634	295.058	221.989	133.189	180.678	304.681	133.086	140.583	230.395	299.850	139.967	147.020	147.251	154.110	293.704	153.445	-8191	255	
32147.479	1	1	0	0	0.07763	0.042561	0.42732	0.35975	0.23579	0.076451	0.43505	0.33578	0.15662	0.2035	0.13091	0.11769	0.31054	0.20139	0.14483	0.12415	-2.3292	-2.6688	-3.2188	-2.6521	-2.8187	-3.0083	-2.6375	-3.3833	-2.6625	-2.6833	-3.2854	-2.4813	-2.9354	-3.0833	-2.5146	-3.2083	265.687	279.009	406.923	438.637	344.966	384.488	415.005	452.845	198.123	371.548	432.326	299.529	382.867	272.650	335.368	171.766	0.00045493	0.00044715	7.2217e-05	1060.9	3.4835e-06	4.971e-06	1164.9	222.98	3.2688e-06	3.0403e-06	282.24	79.216	62.115	18.117	4.2218e-06	25.11	0.00030453	0.00030036	8.3738e-05	1049.5	3.2342e-06	3.2428e-06	1152.7	222.17	3.3425e-06	3.3581e-06	281.92	79.822	62.4	18.39	3.2604e-06	25.614	149.208	227.568	192.852	133.147	235.961	353.962	133.021	140.887	261.891	139.208	139.905	146.881	147.730	154.572	241.130	153.689	-8191	255	
32147.574	1	1	0	0	0.084289	0.13414	0.1943	0.041372	0.077989	0.095565	0.32275	0.095397	0.10772	0.18251	0.076302	0.38457	0.031626	0.092771	0.10655	0.069612	-2.3187	-2.4854	-3.3063	-2.7833	-2.9042	-3.2396	-2.6146	-3.1562	-2.9396	-2.4771	-3.325	-2.525	-2.9729	-3.3729	-2.5167	-3	463.759	177.227	282.661	140.206	139.562	234.486	388.999	481.455	361.768	415.906	388.074	208.392	143.247	388.288	188.451	304.336	0.00040709	0.0001863	0.00011317	1063.8	4.1376e-06	5.0692e-06	1162.6	223.12	5.0929e-06	1.3507e-06	282.84	79.829	62.05	18.091	4.2604e-06	25.25	0.00031035	0.00030447	8.4018e-05	1050.7	3.4485e-06	3.3225e-06	1151.3	222.8	3.4429e-06	3.4027e-06	282.42	80.205	62.563	18.423	3.4108e-06	25.711	158.047	186.050	200.438	133.241	278.367	313.677	132.918	140.966	263.933	187.556	140.383	146.497	147.062	154.116	262.730	154.002	-8191	255	
32147.695	1	1	0	0	0.23679	0.085912	0.11157	0.17445	0.12964	0.018338	0.074447	0.27227	0.061936	0.085277	0.12861	0.21793	0.12269	0.18799	0.16301	0.058323	-2.575	-2.45	-3.0896	-2.7667	-2.6958	-3.1604	-2.6813	-3.1521	-3.2333	-2.5833	-3.3917	-2.5604	-2.5083	-3.2812	-2.45	-2.9979	423.541	474.115	431.915	432.910	413.148	344.501	395.596	452.744	173.707	158.383	345.277	193.072	133.585	312.184	472.543	465.753	0.00038597	0.00035141	0.00010267	1061.5	2.6686e-06	4.7137e-06	1159	224.32	2.9957e-06	2.4151e-06	282.03	79.723	62.19	17.872	4.0869e-06	25.075	0.00032364	0.00032061	8.724e-05	1052.4	3.548e-06	3.4243e-06	1153.4	223.21	3.5256e-06	3.5779e-06	282.13	80.288	62.621	18.393	3.6324e-06	25.744	153.888	146.443	249.900	133.173	240.550	263.946	133.020	140.610	205.585	321.484	139.986	146.851	147.657	154.601	209.248	154.152	-8191	255	
32147.766	1	1	0	0	0.040611	0.12597	0.18744	0.27276	0.03462	0.15231	0.16662	0.097423	0.20278	0.23927	0.21135	0.18578	0.3013	0.338	0.061105	0.091463	-2.675	-2.2333	-3.0729	-2.825	-2.5979	-3.1896	-2.8104	-2.9833	-3.1708	-2.4667	-3.2833	-3.0271	-2.6396	-3.2854	-2.5979	-2.9729	289.558	386.737	423.198	473.912	154.069	268.478	416.257	423.370	396.510	287.776	426.548	132.461	456.196	154.236	319.936	347.105	0.00044603	0.00043239	8.6036e-05	1067.7	4.441e-06	5.5109e-06	1159.3	223.37	2.1714e-06	1.53e-06	283.31	79.486	62.14	17.833	2.8914e-06	24.954	0.000328	0.00033098	9.1048e-05	1052	3.6024e-06	3.4818e-06	1150.2	222.73	3.5947e-06	3.4594e-06	282.76	80.145	62.604	18.391	3.4791e-06	25.72	153.268	220.153	237.802	132.881	258.250	261.736	133.233	141.002	247.360	317.919	140.450	146.891	147.440	154.302	321.787	154.127	-8191	255	
32147.861	1	1	0	0	0.31068	0.088636	0.1705	0.076113	0.26082	0.20608	0.13517	0.18062	0.21866	0.15241	0.18229	0.1096	0.28143	0.10817	0.16037	0.077373	-2.7833	-2.4729	-3.2104	-2.9708	-2.4542	-3.2625	-2.9354	-2.8458	-3.1167	-2.3937	-3.3563	-3.075	-2.6437	-3.0875	-2.6271	-2.6521	329.786	352.110	338.360	305.917	126.744	370.471	136.955	384.876	285.215	188.976	421.118	222.549	481.344	323.325	392.380	129.441	0.00040573	0.00036003	0.00016131	1063.8	3.0203e-06	4.7607e-06	1161.3	224.35	2.8266e-06	4.9356e-06	283.47	79.938	62.36	17.955	6.6486e-06	24.907	0.00032705	0.00032232	8.7306e-05	1049.4	3.4215e-06	3.4204e-06	1150.8	222.7	3.381e-06	3.3741e-06	282.51	79.943	62.59	18.399	3.3022e-06	25.576	148.406	173.560	233.248	133.205	289.830	288.592	133.067	140.658	297.357	278.307	140.225	146.981	147.288	154.474	249.325	153.977	-8191	255	
32147.959	1	1	0	0	0.19384	0.15134	0.23065	0.215	0.145	0.070452	0.12226	0.26264	0.15277	0.25999	0.11033	0.015544	0.26258	0.18069	0.13513	0.14622	-2.8292	-2.6417	-3.0771	-3.0458	-2.4146	-3.2979	-2.8625	-2.8333	-3.1979	-2.5542	-3.1125	-3.1375	-2.4542	-3.2917	-2.8438	-2.7938	370.124	466.970	301.237	475.595	176.620	308.201	368.908	360.123	312.872	378.788	480.807	183.317	253.660	445.839	125.128	322.087	0.00045233	0.00019559	1.5381e-05	1062.9	2.3452e-06	1.5015e-06	1161.7	223.7	2.1723e-06	1.3655e-06	283.85	80.055	62.11	18.078	1.1758e-06	25.055	0.00030344	0.00030424	8.1965e-05	1049	3.2902e-06	3.168e-06	1148.9	222.52	3.0534e-06	3.024e-06	282.73	80.011	62.435	18.366	3.1103e-06	25.693	149.003	291.738	127.019	133.111	278.852	225.034	133.242	140.811	277.498	327.340	140.267	146.648	147.431	154.833	280.132	153.568	-8191	255	
32148.076	1	1	0	0	0.19181	0.17152	0.1956	0.061135	0.12576	0.21328	0.13403	0.19545	0.11832	0.060585	0.29484	0.10401	0.15135	0.13748	0.26697	0.31594	-2.8042	-2.6292	-2.9062	-3.4833	-2.5375	-3.3479	-2.9458	-2.7417	-3.2521	-2.7375	-3.0563	-3.2687	-2.5958	-3.2667	-2.7125	-2.5125	325.263	329.470	438.923	423.104	276.638	273.450	442.822	131.189	239.402	268.727	289.066	479.298	446.495	362.422	379.028	124.385	0.00040579	0.0005557	9.8785e-05	1060.7	2.1589e-06	3.8386e-06	1162.4	222.87	2.414e-06	3.7037e-06	281.8	79.792	62.479	17.945	5.5587e-06	25.291	0.0002891	0.00028378	7.778e-05	1049.5	3.1076e-06	3.0372e-06	1151.9	222.12	3.1463e-06	3.1316e-06	281.91	80.104	62.592	18.394	3.1917e-06	25.636	156.448	170.893	158.947	133.270	210.943	254.993	133.214	140.788	216.027	253.006	140.381	146.862	147.420	155.244	236.707	154.053	-8191	255	
32148.174	1	1	0	0	0.12686	0.27379	0.24057	0.2246	0.025782	0.16804	0.23784	0.29162	0.19172	0.22204	0.19299	0.071879	0.1055	0.18848	0.17651	0.17167	-2.7896	-2.4062	-2.7104	-3.2812	-2.2583	-3.125	-3.1292	-2.6562	-3.3125	-2.7083	-2.7333	-3.2104	-2.5417	-3.1792	-3.1063	-2.6042	266.750	401.879	430.210	178.795	221.621	410.033	374.203	422.932	313.043	284.310	475.908	380.020	294.644	433.178	317.764	395.665	0.00029583	0.00089144	0.00012852	1062.5	1.0191e-06	3.0312e-06	1163.7	224.52	2.3751e-06	2.1679e-06	284.88	79.927	62.304	18.008	4.0844e-06	25.154	0.00028975	0.0002879	7.9329e-05	1048.2	3.1467e-06	3.0887e-06	1150.6	222.43	3.1227e-06	3.1135e-06	282.81	79.978	62.438	18.307	3.0681e-06	25.618	151.712	201.012	280.508	133.172	184.222	282.917	132.976	140.723	230.766	236.047	140.355	146.856	147.119	154.738	325.599	154.076	-8191	255	
32148.270	1	1	0	0	0.091522	0.33832	0.074516	0.28332	0.18239	0.067862	0.15504	0.25598	0.17895	0.17384	0.26873	0.16666	0.19947	0.089716	0.064178	0.29051	-2.9417	-2.7687	-2.7021	-3.2625	-2.4854	-3.0125	-3.3521	-2.4604	-3.2229	-2.8312	-2.8521	-3.3812	-2.6042	-2.8479	-3.1417	-2.6312	186.318	342.074	401.613	409.653	481.977	423.729	395.687	200.381	262.651	320.576	408.973	459.259	478.159	257.638	359.175	204.359	0.00043861	0.00091787	0.00012516	1062.7	1.8185e-06	1.8622e-06	1166.2	223.15	2.4684e-06	4.506e-06	282.49	79.136	62.164	17.975	4.0774e-06	25	0.00028805	0.00027808	7.7005e-05	1048.2	3.0603e-06	2.9343e-06	1149.6	222.07	2.9476e-06	2.957e-06	282.15	79.806	62.362	18.334	2.9617e-06	25.588	155.813	232.672	232.529	132.767	237.656	326.184	133.342	140.588	227.876	296.339	140.324	146.742	147.431	154.686	287.349	154.108	-8191	255	
32148.365	1	1	0	0	0.14276	0.28802	0.20173	0.23826	0.14564	0.090019	0.22947	0.096287	0.09742	0.13462	0.14108	0.17798	0.14855	0.1784	0.13717	0.30347	-2.7188	-2.8375	-2.6125	-3.3521	-2.6833	-3.0187	-3.2542	-2.5979	-3.225	-2.8271	-2.4917	-3.4313	-2.6	-2.9688	-3.2854	-2.6646	309.149	205.343	143.132	464.143	389.152	480.643	450.048	322.479	401.405	154.859	415.891	396.025	182.323	136.108	209.368	442.528	0.00044992	0.000265	9.7942e-05	1056.7	6.3112e-06	3.8235e-06	1159.7	222.91	1.8092e-06	1.6904e-06	284.03	79.262	62.366	17.936	2.6453e-06	24.934	0.00028034	0.00026871	7.3108e-05	1046.4	2.9875e-06	2.9514e-06	1149.4	221.5	2.9537e-06	2.9223e-06	281.65	79.793	62.255	18.359	2.9925e-06	25.544	148.165	187.971	288.698	133.231	221.530	327.965	133.302	140.854	244.357	249.126	140.595	146.652	147.383	154.740	368.414	153.956	-8191	255	
32148.463	1	1	0	0	0.15985	0.095811	0.20205	0.37721	0.15312	0.1496	0.18452	0.05223	0.16506	0.22785	0.048693	0.16453	0.10378	0.1262	0.19188	0.17497	-2.5687	-2.8083	-2.3792	-3.3458	-2.7542	-2.8875	-3.3333	-2.6625	-3.1604	-3.0604	-2.5875	-3.3625	-2.7021	-2.8146	-3.2938	-2.6104	206.959	175.410	195.597	414.576	310.784	378.904	441.383	215.918	195.514	214.730	279.020	141.327	397.190	363.941	451.312	317.887	0.00043446	0.00013798	0.00011517	1065.2	3.0565e-06	7.014e-06	1158.5	222.51	3.2777e-06	3.8824e-06	283.43	79.836	62.225	17.968	6.2653e-06	24.924	0.00028294	0.00028298	7.6129e-05	1048	3.0877e-06	3.0398e-06	1149.9	221.69	3.0842e-06	3.0829e-06	281.93	80.054	62.405	18.36	3.0913e-06	25.562	152.156	273.528	197.210	133.237	264.504	244.286	133.189	140.937	240.348	273.392	140.578	146.962	147.515	154.843	275.579	153.816	-8191	255	
32148.559	1	1	0	0	0.098385	0.16852	0.078572	0.19044	0.20397	0.098048	0.3949	0.14309	0.077665	0.047145	0.030117	0.12291	0.024431	0.069032	0.19497	0.18886	-2.8333	-3.1083	-2.5542	-3.3479	-2.6437	-2.6833	-3.6604	-2.6417	-2.8979	-3.0396	-2.6292	-3.2208	-2.8354	-2.5083	-3.4271	-2.7	133.132	200.563	138.403	148.332	377.945	216.667	449.796	394.390	366.067	215.623	402.575	467.129	212.407	264.474	295.313	360.766	0.00043073	8.0179e-05	6.6954e-05	1062.4	4.3874e-06	1.991e-06	1159.8	223.25	3.427e-06	1.1333e-06	281.27	79.856	62.465	17.96	4.2013e-06	24.914	0.00029108	0.00028048	7.8e-05	1048.2	3.0074e-06	3.0142e-06	1151	221.43	3.071e-06	3.0171e-06	281.85	80.123	62.299	18.326	3.053e-06	25.522	149.270	431.205	150.820	133.464	247.985	335.703	133.376	140.930	264.269	418.811	140.356	147.388	147.476	154.880	252.704	153.792	-8191	255	
32148.680	1	1	0	0	0.17394	0.23871	0.13011	0.1469	0.26339	0.22654	0.20376	0.30847	0.040702	0.20819	0.36822	0.30787	0.18563	0.14741	0.12454	0.25584	-2.5187	-3.0729	-2.3729	-3.2521	-2.8937	-2.4958	-3.4333	-2.8292	-2.8646	-3.1146	-2.5687	-3.0687	-2.9521	-2.5542	-3.1688	-2.8542	186.224	405.433	213.364	365.609	192.451	320.035	417.227	413.806	217.801	346.687	454.382	445.303	378.468	441.038	474.584	408.905	0.00036848	0.00043829	0.00013392	1062.9	2.9735e-06	3.7154e-06	1166.3	223.5	4.2192e-06	3.1383e-06	282.12	78.975	62.336	17.877	3.771e-06	24.8	0.00028754	0.00027648	7.7475e-05	1049.1	3.0757e-06	3.0392e-06	1152.1	222	3.0813e-06	3.0174e-06	281.49	79.756	62.434	18.337	3.0872e-06	25.473	147.454	293.742	244.059	133.307	263.317	297.568	133.393	140.625	316.433	319.922	140.490	147.067	147.637	155.009	186.805	153.852	-8191	255	
32148.775	1	1	0	0	0.16607	0.085359	0.07251	0.18015	0.18343	0.099496	0.097564	0.17253	0.083179	0.16618	0.079737	0.15858	0.21237	0.2196	0.14798	0.096856	-2.2771	-3.3	-2.6208	-3.0312	-3.0333	-2.5208	-3.2875	-2.7271	-2.6083	-3.3646	-2.6646	-3.1354	-3.2604	-2.6333	-3.1125	-2.8979	328.621	155.060	443.346	163.320	307.190	291.811	263.140	136.267	278.730	141.327	431.822	419.438	387.442	159.407	259.425	301.627	0.00036944	0.00032133	0.00014022	1065.9	1.0871e-06	1.8081e-06	1167.3	223.83	7.4707e-07	3.8948e-06	280.47	79.607	61.466	17.946	4.162e-06	25.1	0.00030096	0.00029616	8.4942e-05	1051.9	3.249e-06	3.2952e-06	1151.8	222.29	3.3132e-06	3.2215e-06	281.76	80.106	62.104	18.37	3.1814e-06	25.686	146.149	164.139	204.745	133.359	280.120	283.721	133.217	140.614	221.975	359.582	140.671	146.992	147.459	154.884	267.776	153.995	-8191	255	
32148.869	1	1	0	0	0.13684	0.1868	0.095079	0.26953	0.076764	0.33957	0.16095	0.13665	0.080503	0.063222	0.20086	0.16677	0.15808	0.079787	0.29546	0.14972	-2.2125	-3.325	-2.6854	-3.0354	-3.2	-2.575	-3.5667	-2.875	-2.675	-3.3417	-2.7729	-2.9417	-3.175	-2.4667	-3.2146	-3.0583	459.557	143.909	201.807	124.063	364.571	303.122	143.694	432.095	476.700	315.604	373.613	156.691	255.218	175.004	203.008	202.323	0.00035925	0.00021479	9.93e-05	1059.9	4.4108e-06	4.3206e-06	1162.5	223.8	1.6324e-06	4.2284e-06	282.57	79.82	62.174	17.929	2.5377e-06	24.973	0.00029934	0.00029106	8.0692e-05	1049	3.199e-06	3.2211e-06	1150.1	222.3	3.0994e-06	2.9666e-06	281.77	80.014	62.264	18.308	2.8478e-06	25.529	156.596	242.368	236.071	133.643	251.129	270.622	133.428	140.888	199.295	230.561	140.245	147.284	147.260	154.621	217.874	154.197	-8191	255	
32148.967	1	1	0	0	0.041474	0.10483	0.10321	0.22833	0.08752	0.18644	0.24758	0.062847	0.26983	0.13396	0.041904	0.1288	0.21239	0.17916	0.035246	0.29267	-2.1333	-3.2604	-2.6354	-2.6688	-2.9979	-2.4729	-3.3229	-3.0375	-2.4583	-3.3667	-2.7333	-2.8479	-3.3833	-2.4125	-3.0229	-3.0896	186.897	295.861	290.076	406.552	426.699	265.477	376.653	208.213	228.499	235.479	442.333	397.798	425.977	145.385	276.116	369.794	0.00045993	0.00027539	4.7336e-05	1060.8	1.6441e-06	5.4071e-06	1165.1	221.12	2.8235e-06	3.8857e-06	283.23	79.372	61.663	17.927	3.425e-06	24.937	0.00026704	0.00025316	6.9517e-05	1048	2.6211e-06	2.6762e-06	1148.6	220.56	2.5314e-06	2.4178e-06	280.63	79.602	61.774	18.155	2.416e-06	25.373	151.328	212.125	147.278	133.340	265.919	291.976	133.418	140.403	273.330	280.192	140.270	147.338	147.707	154.869	218.293	154.145	-8191	255	
32149.062	1	1	0	0	0.12498	0.13892	0.11448	0.34581	0.10561	0.13961	0.16918	0.25119	0.16516	0.19116	0.18833	0.2714	0.26092	0.16565	0.18105	0.22258	-2.0042	-3.1729	-2.8792	-2.9521	-3.0333	-2.425	-3.125	-3.0125	-2.3729	-3.2271	-2.8542	-2.7687	-3.3458	-2.5354	-2.9604	-3.0875	224.814	372.772	158.825	430.247	212.883	373.278	180.873	400.454	388.853	393.779	284.025	464.245	469.912	474.440	252.134	479.361	0.00029945	0.00065442	5.9009e-05	1060.5	2.7764e-06	1.8254e-06	1158.1	221.88	1.9453e-06	2.7166e-06	281.29	79.328	61.72	17.785	5.6127e-06	24.777	0.00022685	0.00020813	5.8356e-05	1044.1	2.2346e-06	2.248e-06	1142.9	220.35	2.2781e-06	2.1667e-06	279.46	79.287	61.554	18.085	2.2777e-06	25.27	155.348	259.878	170.736	133.425	237.053	247.481	133.637	140.947	280.775	303.999	140.521	147.017	147.662	154.757	244.832	154.002	-8191	255	
32149.158	1	1	0	0	0.075957	0.15459	0.097498	0.33457	0.17542	0.23627	0.37357	0.052288	0.18497	0.24592	0.021851	0.197	0.21666	0.14683	0.021683	0.10074	-1.9708	-3.3063	-2.9292	-2.6375	-3.0708	-2.6979	-2.9917	-3.3563	-2.3042	-3.1646	-2.9688	-2.5812	-3.2708	-2.6354	-2.7812	-3.2417	389.190	417.706	182.456	475.348	423.058	340.595	442.129	278.742	314.848	175.698	151.086	130.678	312.256	384.405	194.259	184.331	0.00041306	0.00068323	0.00010133	1048.5	1.3645e-06	3.2379e-06	1156.5	222	3.8585e-06	4.6512e-06	281.91	79.575	62.084	17.829	3.076e-06	24.973	0.00023131	0.0002112	5.9953e-05	1034.9	2.4055e-06	2.3779e-06	1142.1	220.24	2.4933e-06	2.3983e-06	279.85	79.431	61.898	18.19	2.5859e-06	25.394	148.471	199.335	244.114	133.147	250.734	243.775	133.327	141.080	225.824	283.590	140.499	147.188	147.325	154.335	230.528	154.010	-8191	255	
32149.254	1	1	0	0	0.37873	0.23275	0.049654	0.10821	0.068281	0.18981	0.26903	0.24337	0.032563	0.088503	0.17536	0.055441	0.029944	0.20297	0.14864	0.22147	-1.9979	-3.1854	-2.9062	-2.7208	-3.2229	-2.7083	-2.9417	-3.3021	-2.6458	-3.0646	-3.1292	-2.3667	-3.2333	-2.7771	-2.8458	-3.4292	188.753	408.051	268.559	361.998	127.563	359.936	416.996	467.873	220.329	301.083	132.938	186.445	382.228	172.317	314.940	429.188	0.00037977	0.00023958	0.00013355	1058.3	2.6576e-06	1.7473e-06	1161	222.68	1.1263e-06	3.1526e-06	281.59	79.961	62.047	17.996	1.6445e-06	25.102	0.00025643	0.00024117	6.6933e-05	1042.5	2.6378e-06	2.7163e-06	1146.4	221.08	2.7093e-06	2.6608e-06	280.06	79.565	62.057	18.263	2.6585e-06	25.46	149.520	297.161	199.315	133.314	270.142	391.803	133.429	140.838	296.234	344.214	140.253	146.804	147.387	154.559	194.639	153.668	-8191	255	
32149.375	1	1	0	0	0.19676	0.25194	0.18781	0.24391	0.28362	0.1196	0.37986	0.24026	0.063914	0.10807	0.13866	0.32293	0.15047	0.1068	0.16453	0.12813	-1.9917	-3.1583	-3.0583	-2.6667	-3.2479	-2.8375	-3.0146	-3.3021	-2.5333	-3.0167	-3.1312	-2.6208	-3.2562	-2.7479	-2.5771	-3.3063	272.821	168.740	190.642	468.602	347.451	449.636	469.588	390.422	381.286	379.561	382.212	396.723	450.897	375.913	377.368	168.181	0.00045298	0.00048371	0.00012882	1055.1	1.9272e-06	1.2496e-06	1158.1	222.31	4.3488e-06	5.189e-06	280.67	79.094	62.054	17.834	2.0874e-06	24.941	0.00025408	0.00023916	6.6534e-05	1041.9	2.6632e-06	2.5804e-06	1142.9	221.19	2.6206e-06	2.6089e-06	280.33	79.384	62.011	18.222	2.5668e-06	25.411	143.853	193.360	195.050	133.215	196.277	126.398	133.533	140.830	251.363	279.173	140.438	147.264	147.675	154.823	188.123	154.180	-8191	255	
32149.471	1	1	0	0	0.059579	0.14872	0.071227	0.18386	0.33774	0.11543	0.089673	0.18908	0.30504	0.0091722	0.24876	0.12765	0.17303	0.0088638	0.082196	0.13914	-2.0646	-2.8604	-3.2646	-2.45	-3.1542	-3.05	-2.6375	-3.1479	-2.5542	-2.8896	-3.3354	-2.5062	-3.3187	-2.9896	-2.6063	-3.2125	197.759	188.853	225.754	192.474	338.914	440.270	444.584	436.243	303.401	472.696	467.361	446.885	286.508	311.852	368.942	336.455	0.00043714	0.00054477	4.1817e-05	1058.8	2.4669e-06	3.8317e-06	1159.2	221.79	3.8086e-06	2.4885e-06	282.31	79.855	61.582	17.928	2.8402e-06	24.919	0.00024997	0.00023549	6.5079e-05	1042.8	2.651e-06	2.599e-06	1144.6	220.46	2.5561e-06	2.5321e-06	280.32	79.449	61.97	18.177	2.4342e-06	25.384	142.829	203.899	314.253	133.420	308.449	314.096	133.310	140.934	225.789	226.413	140.283	146.821	147.844	154.636	271.063	154.152	-8191	255	
32149.566	1	1	0	0	0.18092	0.1316	0.20724	0.087348	0.27494	0.12338	0.064802	0.025173	0.11505	0.18938	0.10264	0.11877	0.22924	0.11427	0.30426	0.099107	-2.375	-2.7188	-3.3042	-2.5729	-3.1188	-2.9958	-2.5979	-3.4062	-2.6396	-2.7125	-3.1437	-2.4604	-2.9708	-3.2104	-2.475	-3.3438	324.889	292.348	208.594	394.131	346.688	170.682	450.396	383.863	447.802	277.229	380.451	284.447	191.113	351.325	203.772	136.067	0.00039378	0.00055302	0.00010778	1056.5	4.8252e-06	2.927e-06	1157.9	221.38	1.9539e-06	3.3369e-06	281.48	78.921	61.674	17.802	1.051e-06	24.877	0.0002339	0.00021854	6.1387e-05	1039.2	2.4028e-06	2.3535e-06	1143.9	220.4	2.3947e-06	2.3001e-06	279.7	79.112	61.518	18.046	2.1852e-06	25.271	154.395	235.129	206.161	133.323	246.601	274.150	133.520	140.896	231.744	252.302	139.886	147.466	147.392	155.180	191.398	154.627	-8191	255	
32149.639	1	1	0	0	0.23025	0.19369	0.23044	0.26384	0.16916	0.21181	0.25707	0.14886	0.083945	0.15641	0.40941	0.21594	0.15427	0.15142	0.062724	0.13547	-2.4854	-2.6729	-3.3146	-2.6646	-2.9833	-3.0771	-2.6917	-3.4458	-2.8521	-2.8104	-3.1542	-2.7771	-2.95	-3.2271	-2.4813	-3.125	246.066	277.532	223.132	460.402	435.786	268.435	184.340	444.196	199.545	411.076	436.932	418.969	413.013	160.949	311.925	151.873	0.00037226	0.00066026	4.2357e-05	1047.7	2.284e-06	2.9803e-06	1151.4	221.97	2.2787e-06	1.3547e-06	279.77	78.929	61.741	17.875	4.0973e-06	24.707	0.00021499	0.00020212	5.4936e-05	1036.5	2.2259e-06	2.2299e-06	1140	220.27	2.2409e-06	2.1464e-06	278.73	79.036	61.683	18.066	2.2393e-06	25.266	163.049	192.093	207.283	133.480	280.290	330.590	133.246	141.095	257.064	318.662	140.777	147.054	147.581	154.868	297.757	154.383	-8191	255	
32149.760	1	1	0	0	0.14846	0.19175	0.18259	0.041708	0.28016	0.27523	0.13048	0.45475	0.24918	0.21566	0.14375	0.31189	0.10358	0.24922	0.23647	0.04649	-2.4729	-2.4104	-3.2229	-2.7208	-2.775	-3.1792	-2.6875	-3.1896	-3.0104	-2.5438	-3.3542	-2.8563	-2.7292	-3.3167	-2.5792	-3.2	276.572	315.295	420.310	433.616	147.721	439.790	132.490	443.299	422.929	350.082	406.187	131.522	123.834	180.344	456.293	392.467	0.00034046	0.00046181	0.00012634	1052.5	3.9071e-06	4.254e-06	1151.3	221.41	1.7529e-06	2.0683e-06	280.04	79.148	61.209	17.813	3.31e-06	25.003	0.0002186	0.0001998	5.581e-05	1037.1	2.2984e-06	2.1827e-06	1136.8	219.36	2.1666e-06	2.1388e-06	278.53	79.085	61.46	18.064	2.1582e-06	25.259	151.510	194.829	251.544	133.260	264.473	275.635	133.363	141.297	320.818	276.687	140.413	147.173	148.074	155.274	266.047	154.322	-8191	255	
32149.855	1	1	0	0	0.12262	0.27468	0.041866	0.06433	0.11024	0.23246	0.01669	0.27702	0.070914	0.12244	0.074118	0.39945	0.091677	0.088896	0.1921	0.19581	-2.5667	-2.6	-3.1208	-2.9479	-2.8312	-3.3167	-2.6958	-3.0938	-2.9729	-2.4708	-3.3312	-3.0479	-2.5104	-3.2208	-2.6771	-3.0854	281.995	281.811	307.724	270.451	464.013	336.336	297.065	377.628	467.259	396.010	304.870	409.633	456.551	203.945	422.525	471.784	0.00035357	0.00035079	2.3746e-05	1049.7	2.7406e-06	2.5501e-06	1150.2	221.52	2.3916e-06	2.7117e-06	280.63	78.833	61.957	17.736	3.605e-06	24.807	0.00020841	0.00018925	5.4e-05	1034.2	2.1849e-06	2.0977e-06	1138.5	219.2	2.1081e-06	2.08e-06	278.9	78.819	61.608	18.005	2.1432e-06	25.172	153.527	186.442	201.170	133.232	215.011	251.453	133.354	140.846	255.154	228.544	140.294	147.220	147.350	154.861	226.639	154.258	-8191	255	
32149.949	1	1	0	0	0.11167	0.12067	0.17862	0.21434	0.10665	0.035403	0.1667	0.27789	0.074603	0.22953	0.067088	0.21029	0.19315	0.055889	0.083072	0.26331	-2.6937	-2.3688	-3.1813	-3.0917	-2.7083	-3.3063	-2.6479	-3.0146	-3.2208	-2.6063	-3.1937	-2.9458	-2.5167	-3.3021	-2.7708	-2.8417	434.749	346.802	400.036	129.149	129.349	446.416	297.014	133.789	428.400	151.536	255.121	213.944	176.170	134.658	417.442	390.723	0.00035577	0.0003183	7.1433e-05	1050.6	2.9545e-06	3.7118e-06	1152.8	222.66	4.8623e-06	2.4142e-06	280.63	78.917	61.319	17.965	3.2464e-06	24.908	0.00020536	0.00018967	5.2177e-05	1033.3	2.1149e-06	1.975e-06	1137.3	219.64	2.0163e-06	2.0418e-06	277.84	78.857	61.178	18.074	1.9653e-06	25.16	158.868	188.795	199.748	133.330	258.154	301.321	133.107	140.993	275.857	303.059	140.076	146.866	147.199	154.430	278.791	154.123	-8191	255	
32150.049	1	1	0	0	0.27776	0.24114	0.17935	0.28861	0.056047	0.21226	0.26196	0.30549	0.24165	0.19546	0.12236	0.22361	0.15438	0.13048	0.17666	0.068179	-2.7917	-2.4458	-3.1437	-3.1854	-2.5625	-3.3771	-2.8438	-2.9396	-3.1625	-2.6562	-3.1604	-3.0563	-2.2271	-3.1917	-2.6437	-2.7708	282.971	417.398	426.835	441.241	392.598	166.800	397.030	431.098	481.847	246.966	223.673	411.837	393.466	319.839	474.387	433.778	0.000327	0.00061969	0.00010655	1052.2	3.375e-06	1.4691e-06	1145.9	221.02	2.7209e-06	2.809e-06	279.77	78.832	61.415	17.69	3.2596e-06	24.683	0.00018931	0.00017651	4.8184e-05	1031.5	2.0289e-06	1.9366e-06	1132.4	218.88	1.9694e-06	1.9748e-06	278	78.421	61.274	17.98	2.0444e-06	25.114	145.251	194.675	177.931	133.352	214.638	325.120	132.929	140.774	284.912	225.805	140.247	146.698	147.632	154.660	245.260	153.958	-8191	255	
#DATA ENDS
