BOXY.EXE: ISS Imagent and Oximeter Data Acquisition Program Version 0.80
Ascii Record File

#ACQ INFORMATION
2  Detector Channels 
16  External MUX Channels 
1  Auxiliary Channels 
5000  Waveform (CCF) Frequency (Hz)
1  Waveforms Skipped 
30  Waveforms Averaged 
1  Cycles Averaged 
16  Acquisitions per Waveform 
10.0806  Updata Rate (Hz) 

#FILE INFORMATION
TRUE -- External MUX Channel results are PARSED.
FALSE -- AC DC and Phase are NOT grouped.
TRUE -- Companion Program Settings File CREATED.
FALSE -- AC data not excluded
FALSE -- DC data not excluded
FALSE -- Phase data not excluded
FALSE -- Auxillary Chn. data not excluded
Tab delimiters

#CALIBRATION STATE
TRUE -- Waveform Calibration Values APPLIED.


#AUX CALIBRATION VALUES
Val Type	aux-1	

Term	1.0000e+00	
Factor	0.0000e+00	


#WF CALIBRATION VALUES
A = Detector Channel
Val Type	A-AC1	A-AC2	A-AC3	A-AC4	A-AC5	A-AC6	A-AC7	A-AC8	A-AC9	A-AC10	A-AC11	A-AC12	A-AC13	A-AC14	A-AC15	A-AC16	A-DC1	A-DC2	A-DC3	A-DC4	A-DC5	A-DC6	A-DC7	A-DC8	A-DC9	A-DC10	A-DC11	A-DC12	A-DC13	A-DC14	A-DC15	A-DC16	A-Ph1	A-Ph2	A-Ph3	A-Ph4	A-Ph5	A-Ph6	A-Ph7	A-Ph8	A-Ph9	A-Ph10	A-Ph11	A-Ph12	A-Ph13	A-Ph14	A-Ph15	A-Ph16	

Term	0.00000e+00	0.00000e+00	0.00000e+00	0.00000e+00	0.00000e+00	0.00000e+00	0.00000e+00	0.00000e+00	0.00000e+00	0.00000e+00	0.00000e+00	0.00000e+00	0.00000e+00	0.00000e+00	0.00000e+00	0.00000e+00	0.00000e+00	0.00000e+00	0.00000e+00	0.00000e+00	0.00000e+00	0.00000e+00	0.00000e+00	0.00000e+00	0.00000e+00	0.00000e+00	0.00000e+00	0.00000e+00	0.00000e+00	0.00000e+00	0.00000e+00	0.00000e+00	0.00000e+00	0.00000e+00	0.00000e+00	0.00000e+00	0.00000e+00	0.00000e+00	0.00000e+00	0.00000e+00	0.00000e+00	0.00000e+00	0.00000e+00	0.00000e+00	0.00000e+00	0.00000e+00	0.00000e+00	0.00000e+00	
Factor	1.00000e+00	1.00000e+00	1.00000e+00	1.00000e+00	1.00000e+00	1.00000e+00	1.00000e+00	1.00000e+00	1.00000e+00	1.00000e+00	1.00000e+00	1.00000e+00	1.00000e+00	1.00000e+00	1.00000e+00	1.00000e+00	1.00000e+00	1.00000e+00	1.00000e+00	1.00000e+00	1.00000e+00	1.00000e+00	1.00000e+00	1.00000e+00	1.00000e+00	1.00000e+00	1.00000e+00	1.00000e+00	1.00000e+00	1.00000e+00	1.00000e+00	1.00000e+00	X	X	X	X	X	X	X	X	X	X	X	X	X	X	X	X	

B = Detector Channel
Val Type	B-AC1	B-AC2	B-AC3	B-AC4	B-AC5	B-AC6	B-AC7	B-AC8	B-AC9	B-AC10	B-AC11	B-AC12	B-AC13	B-AC14	B-AC15	B-AC16	B-DC1	B-DC2	B-DC3	B-DC4	B-DC5	B-DC6	B-DC7	B-DC8	B-DC9	B-DC10	B-DC11	B-DC12	B-DC13	B-DC14	B-DC15	B-DC16	B-Ph1	B-Ph2	B-Ph3	B-Ph4	B-Ph5	B-Ph6	B-Ph7	B-Ph8	B-Ph9	B-Ph10	B-Ph11	B-Ph12	B-Ph13	B-Ph14	B-Ph15	B-Ph16	

Term	0.00000e+00	0.00000e+00	0.00000e+00	0.00000e+00	0.00000e+00	0.00000e+00	0.00000e+00	0.00000e+00	0.00000e+00	0.00000e+00	0.00000e+00	0.00000e+00	0.00000e+00	0.00000e+00	0.00000e+00	0.00000e+00	0.00000e+00	0.00000e+00	0.00000e+00	0.00000e+00	0.00000e+00	0.00000e+00	0.00000e+00	0.00000e+00	0.00000e+00	0.00000e+00	0.00000e+00	0.00000e+00	0.00000e+00	0.00000e+00	0.00000e+00	0.00000e+00	-1.65560e+02	-1.26939e+02	-1.30200e+02	-1.83531e+02	-7.95580e+01	-6.23298e+01	-1.55913e+02	-1.62015e+02	-8.00935e+01	-6.99222e+01	-1.69783e+02	-1.70754e+02	-1.79463e+02	-1.76415e+02	-7.83609e+01	-1.49214e+02	
Factor	2.59736e-05	1.59396e-04	3.76247e-05	1.70707e-01	1.04767e-06	1.40068e-06	1.50441e-01	4.85057e-02	9.61463e-07	1.40745e-06	8.22453e-02	2.84523e-02	2.38378e-02	8.71675e-03	1.43886e-06	1.23208e-02	3.02569e-06	3.31224e-06	9.20197e-07	9.14355e-02	3.58392e-08	3.62363e-08	7.61070e-02	2.61631e-02	3.57514e-08	3.62322e-08	4.28669e-02	1.48528e-02	1.29378e-02	4.71403e-03	3.60000e-08	6.45373e-03	X	X	X	X	X	X	X	X	X	X	X	X	X	X	X	X	



#DISTANCE SETTINGS
A = Detector Channel
A-1	A-2	A-3	A-4	A-5	A-6	A-7	A-8	A-9	A-10	A-11	A-12	A-13	A-14	A-15	A-16	

2.5000e+00	3.0000e+00	2.5000e+00	3.0000e+00	2.0000e+00	3.0000e+00	1.5000e+00	3.0000e+00	3.0000e+00	3.0000e+00	3.0000e+00	3.0000e+00	3.0000e+00	3.0000e+00	1.5000e+00	3.0000e+00	

B = Detector Channel
B-1	B-2	B-3	B-4	B-5	B-6	B-7	B-8	B-9	B-10	B-11	B-12	B-13	B-14	B-15	B-16	

1.0000e+01	1.0000e+01	1.0000e+01	1.4400e+00	1.0000e+01	1.0000e+01	1.5100e+00	1.9400e+00	1.0000e+01	1.0000e+01	1.9900e+00	2.4900e+00	2.4100e+00	2.9000e+00	1.0000e+01	2.9800e+00	




#DATA BEGINS
time	group	step	mark	flag	A-AC1	A-AC2	A-AC3	A-AC4	A-AC5	A-AC6	A-AC7	A-AC8	A-AC9	A-AC10	A-AC11	A-AC12	A-AC13	A-AC14	A-AC15	A-AC16	A-DC1	A-DC2	A-DC3	A-DC4	A-DC5	A-DC6	A-DC7	A-DC8	A-DC9	A-DC10	A-DC11	A-DC12	A-DC13	A-DC14	A-DC15	A-DC16	A-Ph1	A-Ph2	A-Ph3	A-Ph4	A-Ph5	A-Ph6	A-Ph7	A-Ph8	A-Ph9	A-Ph10	A-Ph11	A-Ph12	A-Ph13	A-Ph14	A-Ph15	A-Ph16	B-AC1	B-AC2	B-AC3	B-AC4	B-AC5	B-AC6	B-AC7	B-AC8	B-AC9	B-AC10	B-AC11	B-AC12	B-AC13	B-AC14	B-AC15	B-AC16	B-DC1	B-DC2	B-DC3	B-DC4	B-DC5	B-DC6	B-DC7	B-DC8	B-DC9	B-DC10	B-DC11	B-DC12	B-DC13	B-DC14	B-DC15	B-DC16	B-Ph1	B-Ph2	B-Ph3	B-Ph4	B-Ph5	B-Ph6	B-Ph7	B-Ph8	B-Ph9	B-Ph10	B-Ph11	B-Ph12	B-Ph13	B-Ph14	B-Ph15	B-Ph16	aux-1	digaux	

32055.611	1	1	0	768	0.20989	0.084625	0.032883	0.098996	0.10175	0.12348	0.23913	0.15182	0.29007	0.11441	0.16252	0.022783	0.12541	0.1379	0.045158	0.030572	-2.1667	-3.5042	-2.7771	-2.8667	-3.3521	-2.6875	-3.2438	-3.1229	-2.55	-3.325	-2.7417	-2.825	-3.4771	-2.6479	-3.2771	-3.2562	62.784	37.546	109.210	229.062	59.504	106.611	269.218	36.840	64.208	61.205	74.211	245.659	236.528	60.234	130.022	259.454	0.00016555	0.00034378	6.3769e-05	1110.1	1.2142e-06	5.57e-06	1205	228.49	2.7286e-06	2.4334e-06	288.73	80.321	63.676	18.611	2.779e-06	25.548	0.00021264	0.00020753	5.9123e-05	1088.9	2.3385e-06	2.3547e-06	1185.5	225.77	2.32e-06	2.2803e-06	285.3	80.525	63.506	18.736	2.3557e-06	25.92	98.519	42.752	26.181	-8.218	198.753	158.646	-8.197	-0.730	77.845	259.949	-1.162	5.598	5.851	13.309	140.019	12.529	-8191	255	
32055.709	1	1	0	0	0.28622	0.21213	0.20536	0.062233	0.065293	0.14803	0.21935	0.057184	0.15564	0.2589	0.3238	0.13905	0.09557	0.16394	0.12147	0.27558	-2.1083	-3.1458	-2.8104	-2.8458	-3.4792	-2.5854	-3.1896	-3.25	-2.6479	-3.1646	-2.9562	-2.5979	-3.3729	-2.7479	-3.1813	-3.2646	315.511	275.838	161.728	315.226	141.096	259.935	255.196	88.397	63.798	334.004	-0.320	327.816	182.927	160.445	-10.589	268.429	0.00013553	0.0002274	8.2981e-05	1112.5	1.3885e-06	2.0695e-06	1206.7	229.22	7.5738e-07	3.8214e-06	288.82	79.822	63.652	18.648	1.6425e-06	25.567	0.00021481	0.00020772	5.8741e-05	1088.8	2.3703e-06	2.3101e-06	1185.5	225.38	2.3408e-06	2.3367e-06	285.23	80.527	63.6	18.753	2.2994e-06	25.858	95.423	79.607	57.093	-8.296	128.444	125.761	-7.933	-0.902	113.846	165.010	-1.055	5.491	6.092	13.032	109.548	12.185	-8191	255	
32055.805	1	1	0	0	0.081861	0.13746	0.075644	0.21	0.10396	0.057259	0.24194	0.074398	0.094746	0.14261	0.22452	0.016469	0.11353	0.077716	0.15581	0.07749	-2.1875	-3.2729	-2.925	-2.8042	-3.325	-2.6771	-2.9333	-3.3333	-2.5354	-3.2	-3.2812	-2.6333	-3.4021	-2.7521	-2.9062	-3.3167	153.082	140.280	295.275	325.908	80.478	62.727	235.139	333.657	108.940	231.019	158.189	20.433	39.771	12.044	134.822	-4.223	0.00013294	0.00049034	0.00011025	1109.7	2.4583e-06	4.376e-06	1202.5	227.75	3.0592e-06	2.1073e-07	288.42	79.8	64.16	18.488	1.6513e-06	25.543	0.0002115	0.00021153	5.8256e-05	1088.6	2.3849e-06	2.2873e-06	1183.6	225.34	2.3045e-06	2.2307e-06	285.19	80.364	63.61	18.698	2.3163e-06	25.815	83.601	118.997	94.011	-8.164	123.087	150.834	-7.949	-0.632	115.544	310.209	-0.754	5.361	5.745	13.132	288.345	12.357	-8191	255	
32055.900	1	1	0	0	0.091734	0.22502	0.41463	0.10282	0.28823	0.015775	0.12422	0.13166	0.11418	0.022954	0.30058	0.30776	0.15157	0.2437	0.21986	0.053519	-2.2167	-3.225	-3.1167	-2.6708	-3.3729	-2.875	-2.9625	-3.3167	-2.5792	-3.0917	-3.2125	-2.6958	-3.4208	-2.9	-2.775	-3.3146	110.541	28.767	299.698	303.425	74.248	251.366	179.494	272.298	300.870	-11.649	313.241	43.688	7.956	234.027	6.602	273.176	0.00022465	0.00037209	0.00016389	1108.2	3.985e-07	1.3537e-06	1212.1	227.03	2.0825e-06	3.5443e-06	287.15	80.091	63.585	18.556	3.6487e-06	25.644	0.00021083	0.00021135	5.8032e-05	1086.4	2.3117e-06	2.3093e-06	1185.6	225.1	2.3107e-06	2.2715e-06	284.5	80.286	63.65	18.741	2.3035e-06	25.946	107.601	98.243	76.458	-8.230	82.166	84.232	-7.997	-0.519	122.781	170.809	-0.956	6.066	5.546	13.329	68.602	12.699	-8191	255	
32055.996	1	1	0	0	0.11205	0.22448	0.14148	0.334	0.16998	0.19749	0.11136	0.1418	0.16857	0.2235	0.15551	0.2419	0.1433	0.19023	0.15897	0.21265	-2.15	-2.9313	-3.0771	-2.6375	-3.4313	-2.7208	-2.75	-3.3833	-2.6979	-2.9729	-3.4437	-2.6208	-3.4396	-2.8875	-2.6937	-3.5729	239.811	250.355	66.735	-8.200	117.551	68.882	248.288	324.038	311.987	80.474	38.451	164.574	329.609	20.277	1.440	295.700	0.00021602	0.00072522	2.381e-05	1101.8	2.4674e-06	2.2875e-06	1213	228.46	2.0538e-06	3.1156e-06	289.31	80.856	63.652	18.617	4.9517e-06	25.625	0.00021696	0.00021817	5.8617e-05	1083.9	2.3304e-06	2.3295e-06	1185.4	225.49	2.3306e-06	2.299e-06	285.41	80.303	63.593	18.701	2.2638e-06	25.758	96.227	69.986	326.913	-8.082	113.639	340.375	-8.100	-0.819	171.039	173.877	-0.887	5.641	6.134	13.243	109.456	12.549	-8191	255	
32056.094	1	1	0	0	0.14755	0.13832	0.086454	0.20798	0.085716	0.14566	0.47781	0.1513	0.064505	0.080927	0.10449	0.30704	0.13209	0.31969	0.21331	0.27193	-2.2708	-2.8104	-3.2333	-2.5771	-3.1562	-3.0187	-2.8063	-3.3917	-2.7979	-2.8542	-3.5083	-2.5646	-3.1521	-3.1104	-2.3917	-3.4833	188.967	274.491	135.475	13.297	46.212	161.887	285.963	-5.922	271.801	321.162	309.764	138.631	191.854	280.727	261.807	272.439	0.00014537	0.000234	8.0028e-05	1111.6	2.5266e-06	6.2792e-06	1201.9	228.32	1.5755e-06	5.2181e-06	288.21	79.748	63.193	18.476	3.0391e-06	25.589	0.00020833	0.00020572	5.7202e-05	1086.5	2.2855e-06	2.2418e-06	1182.9	225.76	2.3125e-06	2.2946e-06	284.69	80.229	63.329	18.691	2.2711e-06	25.826	97.632	88.966	94.387	-8.208	146.018	145.740	-7.872	-0.746	101.086	98.798	-1.197	5.653	5.951	13.027	130.201	12.484	-8191	255	
32056.215	1	1	0	0	0.21272	0.15319	0.15294	0.089522	0.060104	0.059734	0.11615	0.16987	0.11689	0.22228	0.28705	0.089898	0.18215	0.18686	0.11818	0.23947	-2.2333	-2.7438	-3.1125	-2.6729	-3.0417	-3.1354	-2.5667	-3.3458	-2.7396	-2.7271	-3.5021	-2.5958	-3.0792	-3.1083	-2.5604	-3.5312	-7.466	97.967	237.239	282.564	262.961	322.419	225.018	12.358	202.183	296.665	47.832	18.373	268.419	243.019	4.870	312.318	0.0001794	0.00025839	0.00013779	1114.2	2.1456e-06	4.0391e-06	1201.2	228.21	1.685e-06	1.4022e-06	288.77	80.761	63.339	18.423	4.2474e-06	25.762	0.00021054	0.00020619	5.8392e-05	1089.3	2.2563e-06	2.2699e-06	1182.4	225.47	2.3251e-06	2.2918e-06	284.67	80.319	63.491	18.666	2.2229e-06	25.889	102.770	107.335	83.288	-8.204	151.873	176.570	-7.888	-0.856	123.206	49.120	-0.796	5.819	5.987	12.686	38.465	12.529	-8191	255	
32056.309	1	1	0	0	0.17918	0.11474	0.19874	0.10485	0.081036	0.17232	0.31239	0.14017	0.052424	0.23585	0.077829	0.18416	0.1722	0.098211	0.23974	0.076602	-2.225	-2.7979	-3.3354	-2.7333	-2.7938	-3.1021	-2.7083	-3.3021	-2.8583	-2.6646	-3.4521	-2.7146	-2.9813	-3.2	-2.4229	-3.4333	49.290	215.474	20.352	51.816	103.124	-6.546	276.770	325.007	285.465	25.303	287.839	296.311	88.061	217.104	327.469	1.650	0.00018049	0.00015674	8.2348e-05	1111	3.3449e-06	1.2579e-06	1204.5	228.78	3.3603e-06	5.7167e-06	288.65	79.938	63.544	18.507	4.7186e-06	25.807	0.00021144	0.00021281	5.7102e-05	1088.1	2.3046e-06	2.2423e-06	1183.1	225.52	2.2444e-06	2.2616e-06	284.74	80.312	63.63	18.673	2.186e-06	25.86	102.182	119.473	92.326	-8.104	133.261	144.743	-8.078	-0.580	122.676	142.633	-0.994	5.663	6.188	12.951	185.657	12.698	-8191	255	
32056.404	1	1	0	0	0.08286	0.075799	0.04395	0.26277	0.13555	0.097778	0.32015	0.14646	0.048934	0.12303	0.11545	0.33682	0.11755	0.27876	0.17823	0.109	-2.6896	-2.6146	-3.3354	-2.8896	-2.8646	-3.4167	-2.5438	-3.2396	-3.0625	-2.5021	-3.4	-2.8042	-2.7188	-3.2292	-2.4792	-3.3458	252.260	327.829	25.771	-7.932	256.849	161.506	244.047	234.629	272.518	75.889	164.278	253.717	332.347	-1.889	188.723	317.678	0.00018213	0.0004513	3.8504e-05	1110.7	2.941e-06	1.8128e-06	1205.3	226.8	5.1641e-07	1.6864e-06	290.07	80.626	63.521	18.534	2.2774e-06	25.731	0.00020654	0.00020744	5.5797e-05	1087.5	2.2896e-06	2.2599e-06	1183.2	225.22	2.3031e-06	2.2683e-06	284.81	80.399	63.549	18.679	2.2573e-06	25.854	115.895	144.667	26.418	-8.224	167.449	69.651	-7.807	-0.534	334.932	144.556	-0.890	5.431	6.023	12.727	155.276	13.115	-8191	255	
32056.500	1	1	0	0	0.26787	0.22556	0.061922	0.14216	0.17608	0.12278	0.2266	0.13821	0.022593	0.20571	0.05758	0.22141	0.2156	0.25349	0.091548	0.21896	-2.7167	-2.5646	-3.3	-2.8208	-2.8271	-3.2479	-2.6083	-3.2938	-3.2021	-2.575	-3.3563	-2.8479	-2.7542	-3.4479	-2.5938	-3.1312	-4.902	165.479	288.099	258.764	118.780	58.438	283.006	192.679	195.217	163.914	189.922	277.230	21.986	-13.502	51.267	0.514	0.00017148	0.00018602	0.00010247	1109.4	2.4129e-06	2.6557e-06	1207.6	227.57	2.4053e-06	3.5995e-06	288.38	80.173	63.431	18.588	6.1867e-06	25.756	0.00021047	0.00021149	5.6431e-05	1084.3	2.2935e-06	2.2306e-06	1181.3	225.32	2.299e-06	2.2775e-06	285.26	80.217	63.559	18.735	2.2754e-06	25.896	127.761	67.402	69.404	-8.266	119.658	133.396	-8.096	-0.616	158.913	120.582	-1.059	5.717	6.215	13.079	134.734	12.860	-8191	255	
32056.598	1	1	0	0	0.35621	0.11835	0.13043	0.19702	0.086793	0.10045	0.23961	0.31501	0.048317	0.020464	0.31436	0.13193	0.14774	0.057059	0.039807	0.37676	-2.7104	-2.5042	-3.3375	-3.0812	-2.7625	-3.3438	-2.7396	-3.1625	-3.2708	-2.4521	-3.225	-2.9	-2.4604	-3.4146	-2.7625	-2.7417	169.423	291.950	242.565	338.529	116.748	137.898	296.002	229.878	285.943	181.217	-6.229	121.751	315.064	270.114	121.490	329.542	0.00017847	0.00034163	5.6664e-05	1106.5	2.6851e-06	1.76e-06	1201.8	226.85	2.4055e-06	2.7519e-06	286.45	79.874	63.413	18.569	4.1227e-06	25.633	0.00021356	0.00020393	5.7648e-05	1085.4	2.2586e-06	2.1977e-06	1182.5	225.03	2.2174e-06	2.2544e-06	284.35	80.146	63.475	18.656	2.2739e-06	25.889	70.222	35.938	108.048	-8.238	99.979	196.918	-8.031	-0.710	119.609	82.066	-1.024	5.837	6.082	13.416	110.466	12.594	-8191	255	
32056.693	1	1	0	0	0.17991	0.22289	0.16832	0.15404	0.21379	0.12054	0.27732	0.10687	0.21748	0.28101	0.26013	0.30199	0.11175	0.20285	0.22646	0.37495	-3.0062	-2.5438	-3.0583	-2.9875	-2.6042	-3.2687	-2.8771	-2.9562	-3.275	-2.5375	-3.2188	-3.0083	-2.6708	-3.275	-2.9125	-2.8187	323.749	116.741	329.815	-1.978	123.408	40.535	236.011	72.698	302.342	320.282	280.195	254.614	130.859	125.002	334.057	268.691	0.00019734	0.00061458	0.00010163	1106.7	3.218e-06	4.4052e-06	1206.3	227.55	2.4701e-06	3.1635e-06	288.33	80.182	63.648	18.594	3.2348e-06	25.46	0.00020919	0.00020392	5.8047e-05	1086.1	2.3733e-06	2.2085e-06	1184.2	225.24	2.296e-06	2.2573e-06	284.68	80.174	63.563	18.696	2.2619e-06	25.751	93.621	63.810	77.355	-8.316	80.604	165.467	-8.116	-0.684	136.088	102.326	-0.987	5.808	5.673	13.135	154.551	12.103	-8191	255	
32056.812	1	1	0	0	0.12448	0.1402	0.15571	0.27645	0.021851	0.095357	0.058716	0.17455	0.1209	0.20012	0.17247	0.34898	0.14083	0.11697	0.24376	0.16172	-2.8479	-2.5729	-3.1646	-3.2979	-2.5625	-3.35	-3.0229	-2.7229	-3.3375	-2.6125	-3.0542	-3.1292	-2.6917	-3.2313	-2.9146	-2.7354	79.576	113.566	17.555	178.517	149.846	216.485	298.108	329.698	59.280	56.977	-6.643	-12.735	223.166	301.684	86.700	183.742	0.00022509	0.0003993	9.3855e-05	1109.5	3.4073e-06	5.784e-06	1202.4	227	3.8617e-06	2.6517e-06	287.63	80.331	63.733	18.594	5.0478e-06	25.544	0.00021068	0.00021456	5.7035e-05	1086.8	2.2862e-06	2.2208e-06	1181.6	225.32	2.3029e-06	2.3153e-06	284.53	80.288	63.425	18.706	2.2892e-06	25.796	95.890	68.536	67.911	-8.214	158.500	129.899	-8.354	-0.710	118.064	160.414	-1.017	5.706	6.389	13.342	126.779	12.678	-8191	255	
32056.910	1	1	0	0	0.23845	0.24721	0.11214	0.21668	0.12338	0.052878	0.17099	0.095288	0.062932	0.38245	0.074208	0.19498	0.18815	0.24709	0.14077	0.10127	-3.0021	-2.4896	-2.8958	-3.4083	-2.4375	-3.3438	-3.0604	-2.8354	-3.2958	-2.7687	-2.9833	-3.3063	-2.4979	-3.3479	-3.1667	-2.6583	3.791	154.342	80.836	311.348	130.619	94.560	274.683	329.029	-3.929	325.060	201.873	93.571	93.435	329.684	110.689	295.336	0.00016103	0.00039914	0.00018145	1107.4	5.2176e-06	1.679e-06	1201.2	227.7	2.3844e-06	4.2684e-06	287.16	80.702	63.044	18.594	9.2138e-07	25.536	0.00020381	0.00021472	5.8066e-05	1087.7	2.2927e-06	2.2904e-06	1184.4	225.58	2.2076e-06	2.2924e-06	284.77	80.348	63.248	18.728	2.2318e-06	25.759	97.002	73.250	54.316	-8.173	137.348	47.109	-8.058	-0.527	92.068	111.027	-0.863	5.303	6.088	13.485	263.368	12.383	-8191	255	
32057.006	1	1	0	0	0.21299	0.043134	0.1047	0.3351	0.10227	0.17386	0.2829	0.45552	0.20392	0.11099	0.19374	0.025378	0.31076	0.14181	0.051533	0.21374	-2.8812	-2.6	-2.7229	-3.6	-2.4458	-3.2125	-3.1813	-2.6333	-3.175	-2.8604	-2.8979	-3.3604	-2.5604	-3.0896	-3.0396	-2.6312	0.047	258.177	279.226	270.109	34.037	237.911	302.023	257.775	239.534	151.975	249.908	152.560	217.777	294.857	173.132	217.374	0.0001879	0.00029669	2.8965e-05	1112.7	4.3673e-06	2.3952e-06	1201.9	228.26	2.8468e-06	4.3065e-06	287.55	80.706	63.448	18.575	4.5484e-06	25.555	0.00020886	0.00020932	5.6406e-05	1087.7	2.3312e-06	2.2183e-06	1181.1	225.15	2.3703e-06	2.2833e-06	284.77	80.398	63.52	18.756	2.3257e-06	25.82	82.147	88.894	64.993	-8.024	119.092	181.171	-8.207	-0.850	87.530	114.802	-0.604	5.386	5.768	13.028	204.297	12.530	-8191	255	
32057.102	1	1	0	0	0.048075	0.057159	0.1218	0.18685	0.098683	0.14095	0.13007	0.35876	0.18565	0.25797	0.14045	0.3129	0.2095	0.24978	0.18905	0.12854	-2.7667	-2.7625	-2.7188	-3.4958	-2.4833	-2.9292	-3.3292	-2.55	-3.1167	-2.9229	-2.4917	-3.5042	-2.6229	-3.0479	-3.1229	-2.4167	111.889	113.273	218.340	272.434	0.192	-5.671	207.045	251.930	65.474	146.194	202.362	295.782	167.264	303.799	18.524	108.312	0.00013901	0.00039473	6.5283e-05	1114.3	1.0077e-06	1.0561e-06	1202.9	228.68	3.5015e-06	4.0487e-06	291.59	79.681	63.582	18.452	2.5617e-06	25.479	0.000207	0.00021093	5.7537e-05	1089.6	2.3264e-06	2.2462e-06	1181.6	225.37	2.2897e-06	2.2786e-06	285.75	80.125	63.413	18.665	2.2127e-06	25.821	92.057	171.611	80.203	-8.148	286.796	15.063	-8.094	-0.596	136.989	125.216	-0.996	5.545	6.080	13.187	164.518	12.553	-8191	255	
32057.174	1	1	0	0	0.16581	0.38149	0.18293	0.11524	0.14748	0.12807	0.082864	0.0054435	0.22474	0.094332	0.31116	0.1924	0.083812	0.1261	0.024279	0.095854	-2.8458	-2.8563	-2.4688	-3.4333	-2.6562	-3.0333	-3.3312	-2.6042	-3.0646	-2.9958	-2.7438	-3.375	-2.6042	-2.9062	-3.2771	-2.55	198.037	93.885	214.316	106.544	321.117	155.347	190.684	218.141	7.132	207.368	320.742	125.758	315.858	-1.525	309.113	322.726	0.00014789	0.00014322	6.9953e-05	1112.6	4.7223e-06	6.6661e-06	1203.9	226.37	8.0593e-07	4.9299e-06	288.1	80.383	63.329	18.553	2.1018e-06	25.605	0.00020575	0.00020909	5.7029e-05	1088.8	2.2738e-06	2.2826e-06	1184.8	224.77	2.2557e-06	2.2472e-06	284.67	80.31	63.389	18.738	2.2649e-06	25.833	73.720	55.130	52.430	-8.285	142.988	166.464	-8.052	-0.720	103.711	79.546	-1.150	5.572	6.017	12.781	127.556	12.494	-8191	255	
32057.293	1	1	0	0	0.14369	0.14424	0.40284	0.3064	0.14034	0.21885	0.31615	0.16531	0.2932	0.14216	0.20733	0.23405	0.090634	0.25708	0.31221	0.21042	-2.6208	-3.0917	-2.4521	-3.3833	-2.7479	-2.8312	-3.3667	-2.6917	-3.0354	-3.0312	-2.5625	-3.2125	-2.7104	-2.7313	-3.3812	-2.5062	313.453	212.724	311.582	46.366	191.016	201.101	285.732	4.876	291.503	65.677	126.515	126.808	341.511	-0.860	89.351	160.388	0.00013008	0.00049915	0.00013336	1114.2	1.0969e-06	3.8596e-06	1210.8	229.54	3.0075e-06	8.2948e-07	288.68	80.336	63.833	18.627	5.7844e-06	25.475	0.00021075	0.00020316	5.7627e-05	1091.1	2.2805e-06	2.2399e-06	1185.1	225.5	2.2858e-06	2.3041e-06	284.57	80.478	63.697	18.666	2.2529e-06	25.718	76.673	39.707	93.058	-8.090	266.860	80.345	-8.221	-0.439	158.980	80.768	-1.041	5.456	6.018	13.058	93.419	12.658	-8191	255	
32057.389	1	1	0	0	0.19473	0.35108	0.16245	0.16665	0.30131	0.15076	0.21998	0.25677	0.26355	0.074089	0.23757	0.13135	0.30748	0.3208	0.1763	0.19579	-2.5979	-3.0854	-2.3458	-3.2812	-2.95	-2.5396	-3.3167	-2.7479	-2.9625	-3.2687	-2.5438	-3.2917	-2.9896	-2.6771	-3.2042	-2.5896	22.621	57.343	30.984	-1.784	17.340	145.645	310.301	225.728	81.960	281.405	265.602	11.640	-0.652	294.029	285.992	11.650	0.00013773	0.0001892	6.6285e-05	1114.4	1.3275e-06	2.9248e-06	1200.7	229.02	1.2507e-06	9.4623e-07	287.79	79.963	63.52	18.439	3.9316e-06	25.658	0.00020951	0.00020893	5.7248e-05	1089.5	2.3491e-06	2.2209e-06	1181.8	225.7	2.2903e-06	2.1984e-06	284.49	80.385	63.505	18.595	2.228e-06	25.829	91.196	223.379	97.817	-8.306	119.900	148.650	-7.901	-0.930	220.329	157.924	-1.161	5.807	5.881	13.177	177.976	12.224	-8191	255	
32057.484	1	1	0	0	0.15486	0.22893	0.1638	0.03019	0.14374	0.063653	0.028094	0.18037	0.37939	0.13809	0.31652	0.20002	0.16485	0.19788	0.15572	0.096233	-2.5292	-3.3958	-2.55	-3.1604	-3.0021	-2.5125	-3.5187	-2.7542	-2.7896	-3.2229	-2.5833	-3.2125	-3.0438	-2.7229	-3.2188	-2.875	18.997	103.420	177.770	328.234	164.756	156.157	243.222	278.147	1.033	36.680	221.676	292.727	339.069	97.088	-14.035	213.557	0.0001657	0.00035791	4.9627e-05	1113.1	3.0575e-06	2.1455e-06	1209.2	227.48	3.4889e-06	4.7062e-06	289.19	80.086	63.471	18.526	2.4885e-06	25.716	0.00020974	0.00020256	5.6379e-05	1089.6	2.2938e-06	2.1909e-06	1185.6	225.33	2.209e-06	2.2171e-06	285.48	80.262	63.484	18.639	2.2282e-06	25.839	93.682	93.380	41.357	-8.312	114.891	152.737	-7.984	-0.799	117.739	141.314	-0.840	5.835	5.890	13.007	96.208	12.927	-8191	255	
32057.582	1	1	0	0	0.1736	0.13717	0.033678	0.10236	0.32526	0.34142	0.19076	0.31013	0.051746	0.24788	0.078492	0.082127	0.068515	0.15623	0.11058	0.19269	-2.2729	-3.2042	-2.5021	-3.3229	-3.1583	-2.575	-3.3583	-3.0479	-2.6958	-3.2417	-2.675	-3.0875	-3.3604	-2.5687	-3.1958	-2.9917	317.700	-9.625	37.401	251.013	239.533	185.942	321.476	268.071	98.074	339.685	150.308	191.369	276.531	295.848	-10.060	329.092	0.00014549	0.00050226	0.00012431	1115.1	3.6892e-06	6.1737e-06	1202	227.44	1.8347e-06	4.0243e-06	288	79.861	63.74	18.427	2.9204e-06	25.721	0.0002101	0.0002046	5.5954e-05	1091.4	2.2458e-06	2.2004e-06	1184.2	225.17	2.2132e-06	2.2295e-06	285.04	80.211	63.695	18.631	2.2844e-06	25.9	100.342	69.741	40.914	-8.188	155.057	122.029	-7.672	-0.450	197.944	140.516	-0.811	5.904	6.311	12.764	116.767	12.178	-8191	255	
32057.701	1	1	0	0	0.1319	0.11302	0.141	0.35971	0.12733	0.16838	0.28309	0.22902	0.23024	0.025989	0.13137	0.19385	0.15925	0.14034	0.012913	0.035575	-2.2958	-3.3229	-2.6396	-2.9938	-3.1188	-2.525	-3.4521	-3.025	-2.6667	-3.3729	-2.825	-3.0292	-3.4313	-2.525	-3.2708	-3.1521	28.925	136.273	304.561	301.313	278.083	41.430	300.867	285.507	28.392	94.964	52.861	338.205	326.249	221.280	-2.134	298.928	0.00016248	0.0001015	0.00013276	1115.6	1.2326e-06	2.0797e-06	1209.5	227.25	1.4547e-06	4.2198e-06	287.53	79.697	63.391	18.403	3.317e-06	25.597	0.00021247	0.00020214	5.7863e-05	1089.9	2.301e-06	2.2021e-06	1186.3	225.26	2.336e-06	2.2826e-06	284.19	80.332	63.407	18.669	2.2787e-06	25.892	103.352	75.283	63.831	-8.230	127.153	103.996	-8.056	-0.843	194.526	69.153	-0.833	5.948	5.986	12.968	107.448	12.421	-8191	255	
32057.773	1	1	0	0	0.042069	0.13478	0.10584	0.27867	0.36722	0.16547	0.32753	0.29049	0.17006	0.15198	0.23848	0.23209	0.095636	0.21157	0.22234	0.09896	-1.9688	-3.4	-2.6458	-3.0563	-3.3312	-2.6021	-3.1646	-3.1104	-2.6479	-3.3792	-2.8458	-2.8563	-3.4	-2.75	-3.2562	-3.2917	133.928	108.433	242.227	253.023	238.588	181.042	302.533	231.605	16.244	133.226	220.910	94.169	44.584	3.068	318.965	257.060	0.00020841	0.00049056	5.3056e-05	1113	7.5962e-07	9.4768e-07	1210.5	227.65	1.629e-06	1.3593e-06	289.45	80.25	63.595	18.449	3.6613e-06	25.521	0.00020713	0.00020753	5.8862e-05	1090.7	2.3337e-06	2.3104e-06	1184.3	225.36	2.3956e-06	2.2724e-06	284.68	80.236	63.455	18.62	2.3066e-06	25.856	99.123	74.154	35.952	-8.197	189.429	138.562	-7.928	-0.933	142.291	55.557	-1.184	5.655	6.135	12.864	165.556	12.332	-8191	255	
32057.895	1	1	0	0	0.15135	0.15639	0.22639	0.17039	0.27456	0.28923	0.17508	0.18825	0.050953	0.032737	0.18571	0.24721	0.050884	0.050425	0.12391	0.13959	-2.1042	-3.2354	-2.725	-2.8208	-3.2396	-2.5542	-3.1729	-3.2333	-2.5604	-3.3438	-3.1729	-2.775	-3.5042	-2.6562	-3.0354	-3.3271	30.739	28.437	148.475	310.776	233.883	299.295	223.715	245.651	222.145	127.094	33.732	270.732	25.002	33.417	272.500	267.099	0.00018253	0.00021768	9.0553e-05	1116.9	2.1916e-06	4.1428e-06	1206	226.8	1.9386e-06	2.1886e-06	287.86	80.481	63.238	18.406	3.2796e-06	25.512	0.000217	0.00021299	6.1245e-05	1091.8	2.3852e-06	2.291e-06	1183.5	224.96	2.4015e-06	2.3362e-06	284.59	80.445	63.355	18.654	2.3658e-06	25.74	105.045	30.898	51.192	-8.186	146.828	61.448	-7.985	-0.945	136.111	172.759	-0.855	5.364	5.700	12.980	221.595	12.027	-8191	255	
32057.990	1	1	0	0	0.12307	0.14207	0.1354	0.08628	0.30995	0.076486	0.30112	0.066793	0.23519	0.14052	0.069363	0.28273	0.10629	0.14446	0.049885	0.059719	-2.1771	-3.2958	-2.9083	-2.7208	-3.2396	-2.5333	-3.1646	-3.3354	-2.5604	-3.2562	-3.025	-2.5333	-3.3833	-2.6833	-2.8854	-3.3875	330.827	227.598	-1.240	305.489	44.006	320.783	252.694	181.428	5.928	176.874	177.117	304.025	135.366	110.683	309.746	274.686	0.0002029	0.00013812	7.2797e-05	1114	3.7756e-06	3.5233e-06	1207.4	227.41	3.409e-06	2.4379e-06	287.77	80.248	63.245	18.571	4.53e-06	25.572	0.00022018	0.00021659	6.1101e-05	1088.9	2.3773e-06	2.4339e-06	1185.5	225.32	2.3926e-06	2.4116e-06	285.11	80.464	63.438	18.685	2.4264e-06	25.837	112.429	-0.799	59.249	-7.945	96.189	124.430	-7.871	-0.753	104.107	298.794	-1.057	6.201	5.799	13.101	139.786	12.483	-8191	255	
32058.086	1	1	0	0	0.15311	0.35816	0.039448	0.057987	0.15945	0.12214	0.011635	0.32204	0.085075	0.33494	0.14979	0.31328	0.1593	0.074411	0.14751	0.3746	-2.2333	-3.1833	-3.1396	-2.8521	-3.475	-2.8104	-2.9979	-3.4333	-2.6229	-3.1042	-3.2021	-2.6396	-3.2021	-2.9104	-2.7938	-3.2938	207.992	178.693	66.009	250.911	54.766	289.978	185.897	287.683	-10.590	197.623	311.041	293.630	181.961	23.105	279.672	204.180	0.00017295	0.00048905	8.305e-05	1114.4	2.3018e-06	3.5576e-06	1209.4	228	2.2798e-06	1.9755e-06	285.75	80.437	63.744	18.577	1.3496e-06	25.571	0.00021666	0.00021114	5.784e-05	1088.9	2.3272e-06	2.3482e-06	1185.6	225.37	2.4204e-06	2.3103e-06	283.48	80.369	63.632	18.713	2.3731e-06	25.831	111.250	88.182	39.959	-8.029	145.410	141.984	-7.942	-0.760	152.436	82.390	-0.616	5.752	6.240	12.661	119.527	12.403	-8191	255	
32058.182	1	1	0	0	0.28734	0.27191	0.13485	0.22197	0.1605	0.17117	0.18881	0.15817	0.19704	0.24423	0.074628	0.04244	0.10807	0.043503	0.13107	0.20222	-2.2562	-3.0292	-2.9958	-2.7438	-3.3458	-2.8896	-2.7333	-3.4083	-2.6937	-2.9792	-3.3229	-2.6646	-3.3458	-3.0708	-2.7771	-3.4208	212.203	328.284	270.366	276.660	67.254	190.601	313.463	33.998	-14.195	208.315	46.657	172.165	333.340	296.322	338.746	316.865	0.00014373	0.00062077	5.2333e-05	1112.3	2.2036e-06	1.4573e-06	1205.2	228.11	2.0244e-06	4.668e-06	289.44	79.957	63.557	18.65	3.606e-06	25.699	0.00021851	0.00022057	5.8691e-05	1089.9	2.4235e-06	2.3698e-06	1186.6	225.55	2.4486e-06	2.3363e-06	285.43	80.075	63.45	18.741	2.336e-06	25.868	75.173	102.850	54.164	-8.169	171.125	118.820	-8.031	-0.684	185.851	140.512	-1.287	5.985	6.190	12.900	164.136	12.388	-8191	255	
32058.303	1	1	0	0	0.24995	0.071225	0.29261	0.050794	0.15948	0.19643	0.44628	0.25902	0.051887	0.14946	0.068808	0.1443	0.1827	0.15808	0.25817	0.042727	-2.1292	-2.825	-3.2375	-2.6896	-3.1417	-2.9417	-2.9667	-3.3229	-2.8229	-2.8208	-3.3688	-2.6667	-2.8958	-3.1875	-2.7792	-3.3708	113.486	283.743	263.639	320.370	52.374	220.021	296.182	248.529	156.593	2.816	339.255	15.247	256.285	94.052	234.662	159.636	0.00019589	0.00031001	1.3625e-05	1110.7	1.1251e-06	3.495e-06	1203.8	227.2	2.0889e-06	2.48e-06	290.63	79.123	63.313	18.65	3.0917e-06	25.702	0.00021608	0.00021166	5.8247e-05	1089.3	2.3863e-06	2.2496e-06	1185.2	225.29	2.4064e-06	2.3736e-06	285.41	80.073	63.62	18.689	2.3968e-06	25.902	92.993	102.948	47.927	-8.371	215.517	119.908	-7.955	-0.579	157.881	119.507	-1.311	5.574	6.271	12.724	138.250	12.720	-8191	255	
32058.396	1	1	0	0	0.33135	0.1274	0.13788	0.21689	0.030855	0.083891	0.2322	0.1518	0.078249	0.094447	0.16712	0.19703	0.43627	0.10584	0.15214	0.072108	-2.4229	-2.6583	-3.3667	-2.6937	-3.0312	-3.0625	-2.7333	-3.3	-2.9521	-2.7396	-3.4604	-2.6604	-3.0938	-3.1521	-2.525	-3.2	269.775	187.764	301.453	-17.695	25.374	176.486	273.236	222.714	184.142	332.742	261.236	159.890	313.012	32.324	164.255	14.467	0.00019582	0.00027517	0.00011302	1116	2.3017e-06	1.4362e-06	1209	227.42	3.005e-06	2.7389e-06	288.72	80.085	63.446	18.56	5.2912e-06	25.617	0.00021483	0.00021163	5.8829e-05	1091.3	2.3949e-06	2.3078e-06	1185.3	225.27	2.372e-06	2.3176e-06	284.79	80.15	63.508	18.702	2.2873e-06	25.888	94.171	51.700	58.061	-8.547	178.734	120.171	-8.004	-0.262	94.170	201.404	-1.131	5.845	6.411	12.933	162.789	12.534	-8191	255	
32058.492	1	1	0	0	0.047443	0.09934	0.21384	0.13798	0.12209	0.10303	0.37326	0.11579	0.24047	0.068218	0.19522	0.22379	0.14444	0.0076489	0.076889	0.10792	-2.5438	-2.4146	-3.2938	-2.7271	-2.9146	-3.075	-2.6792	-3.4708	-2.9625	-2.4938	-3.325	-2.7958	-2.9521	-3.3063	-2.5875	-3.3458	136.568	339.156	7.710	202.138	-4.838	171.201	279.198	320.752	32.319	7.279	32.683	-17.557	291.869	199.498	78.404	28.997	0.00021157	0.00020497	0.00010197	1110	2.0882e-06	3.6207e-06	1209.9	227.12	3.2711e-06	2.2461e-06	288.12	80.148	63.793	18.499	1.4063e-06	25.451	0.00021667	0.00021389	5.8218e-05	1087.7	2.3736e-06	2.2721e-06	1186.1	225.51	2.3091e-06	2.3577e-06	284.73	80.363	63.619	18.633	2.3318e-06	25.797	99.897	-17.007	102.604	-8.062	86.715	167.344	-8.238	-0.731	112.895	142.039	-1.179	6.186	5.711	12.846	89.409	12.846	-8191	255	
32058.590	1	1	0	0	0.22658	0.1811	0.18083	0.16114	0.093901	0.091061	0.23401	0.10926	0.16341	0.12428	0.10576	0.1293	0.17115	0.15944	0.013537	0.25555	-2.6333	-2.6771	-3.2146	-2.9417	-2.8875	-3.2583	-2.8542	-3.3812	-3.0896	-2.7771	-3.3	-2.7479	-2.8229	-3.3542	-2.5417	-3.1813	-9.282	32.242	123.075	161.280	272.176	244.941	222.948	256.403	50.628	336.447	248.663	139.046	205.925	32.675	18.533	261.309	0.00017127	0.00028262	1.4981e-05	1110.4	1.4764e-06	1.6487e-06	1207.8	226.42	4.093e-07	4.8052e-06	289.62	80.41	63.442	18.543	7.8212e-07	25.83	0.00021069	0.00021026	5.7932e-05	1088.6	2.3127e-06	2.1909e-06	1184	225.05	2.2759e-06	2.236e-06	284.13	80.222	63.559	18.69	2.1945e-06	25.953	86.126	96.898	223.384	-8.065	89.166	316.875	-7.979	-0.670	30.472	113.804	-0.990	6.204	6.361	13.245	191.501	12.397	-8191	255	
32058.686	1	1	0	0	0.26748	0.15302	0.09863	0.093021	0.024329	0.16774	0.44795	0.11554	0.29002	0.143	0.11753	0.21321	0.088338	0.052365	0.15587	0.14025	-2.7313	-2.5271	-3.2083	-2.8104	-2.5104	-3.4313	-2.8083	-3.0792	-2.9583	-2.575	-3.2625	-2.725	-2.6125	-3.4083	-2.5625	-2.9625	50.308	314.295	322.293	223.267	97.532	12.858	330.167	46.181	302.591	130.015	290.409	208.234	285.930	199.739	79.686	225.868	0.00019878	0.0006049	0.00010297	1112.6	1.3411e-06	2.7903e-06	1210.2	226.21	5.5355e-07	4.1259e-06	288.93	80.694	63.697	18.576	5.6752e-07	25.782	0.00020377	0.00020299	5.7346e-05	1087.2	2.2384e-06	2.1889e-06	1184.1	225.07	2.2448e-06	2.124e-06	284.77	80.401	63.438	18.674	2.2024e-06	25.847	78.337	109.689	52.313	-8.303	124.436	137.188	-8.119	-0.782	113.923	124.289	-1.148	5.549	6.212	13.485	316.676	12.601	-8191	255	
32058.781	1	1	0	0	0.18569	0.2446	0.10928	0.28035	0.16143	0.22787	0.43779	0.26926	0.12147	0.059707	0.11427	0.29835	0.062308	0.10842	0.13452	0.082608	-3.0062	-2.525	-3.25	-2.8833	-2.6542	-3.1333	-3.025	-2.9083	-3.2938	-2.6125	-3.1458	-2.9417	-2.525	-3.4167	-2.6229	-2.8063	296.132	-13.296	-6.204	259.025	247.309	272.133	301.714	237.332	137.669	164.486	92.818	4.721	87.798	96.663	28.885	323.484	0.00013528	0.00037434	4.5522e-05	1110.4	2.2079e-06	2.2239e-06	1201.3	226.91	6.3287e-07	9.5326e-07	289.21	79.684	63.389	18.513	1.9246e-06	25.426	0.00020691	0.0001986	5.6514e-05	1088.2	2.2547e-06	2.1228e-06	1182.8	225.05	2.232e-06	2.2323e-06	285.22	80.103	63.423	18.671	2.2766e-06	25.737	97.359	-2.333	11.629	-8.473	101.870	216.648	-8.073	-0.871	209.311	177.068	-0.897	5.393	5.999	13.237	143.201	12.165	-8191	255	
32058.879	1	1	0	0	0.088801	0.11174	0.27037	0.099484	0.2618	0.21359	0.061259	0.22741	0.044845	0.17825	0.098419	0.12366	0.22047	0.19148	0.09776	0.096918	-3.0062	-2.6229	-3.0792	-3.3104	-2.6667	-3.2583	-3.1167	-2.9062	-3.4417	-2.4958	-3.3583	-3.0438	-2.4604	-3.4	-2.8042	-2.8	146.485	150.433	318.421	1.323	216.104	321.729	260.135	295.115	67.152	269.682	1.478	8.364	275.577	238.220	277.186	-3.826	0.00023184	0.00050204	0.00010694	1110.1	3.1426e-06	2.2148e-06	1205.7	227.29	3.6813e-07	5.5528e-06	288.93	80.135	63.743	18.575	4.032e-06	25.666	0.00020591	0.00020772	5.6389e-05	1088.1	2.2698e-06	2.1083e-06	1183	225.37	2.2924e-06	2.2101e-06	284.92	80.241	63.478	18.717	2.2448e-06	25.844	77.219	31.623	88.051	-8.232	175.464	105.455	-8.097	-0.556	176.444	87.155	-1.010	5.403	6.171	13.252	154.709	12.673	-8191	255	
32058.998	1	1	0	0	0.28782	0.19393	0.35148	0.27964	0.17613	0.14763	0.25625	0.1732	0.20376	0.21411	0.093193	0.27284	0.15237	0.077982	0.13399	0.088025	-2.8563	-2.5667	-2.9292	-3.1396	-2.5333	-3.3979	-2.9958	-2.8854	-3.4667	-2.6771	-2.9333	-3.2313	-2.4104	-3.1937	-2.9146	-2.6688	156.404	240.797	8.901	325.313	126.626	73.825	260.674	64.310	99.078	111.035	196.094	279.557	16.838	155.538	251.322	-13.409	0.00015542	0.00033069	9.9516e-05	1109.6	2.6696e-06	2.5527e-06	1208.4	228.06	1.694e-06	5.3232e-06	289.16	80.288	63.386	18.628	3.2668e-06	25.703	0.00020665	0.00020847	5.5651e-05	1087.9	2.3522e-06	2.1735e-06	1185.5	225.18	2.2498e-06	2.2991e-06	284.9	80.472	63.346	18.694	2.3093e-06	25.782	103.302	99.615	60.178	-8.127	176.838	182.081	-8.394	-0.647	183.727	118.387	-1.027	5.657	6.069	13.320	88.460	12.861	-8191	255	
32059.070	1	1	0	0	0.14795	0.29908	0.16384	0.15057	0.1679	0.055517	0.29228	0.219	0.11941	0.16201	0.21217	0.19963	0.11243	0.14737	0.18041	0.21141	-3.0687	-2.5917	-2.8771	-3.3958	-2.6292	-3.3542	-3.275	-2.5396	-3.2583	-2.7646	-3.0792	-3.125	-2.5917	-3.1229	-3.1375	-2.6771	314.311	226.720	-2.971	336.565	166.778	334.253	240.620	1.910	138.839	41.050	212.022	308.058	19.051	124.336	224.410	289.821	0.00021191	0.00056559	5.1989e-05	1109.9	2.9433e-06	3.6802e-06	1198	226.9	6.4184e-07	4.4753e-06	287.96	80.454	63.305	18.39	3.1101e-06	25.624	0.00020528	0.0002106	5.8358e-05	1088.3	2.3454e-06	2.2451e-06	1182.5	225.05	2.2559e-06	2.2644e-06	284.64	80.401	63.32	18.646	2.2143e-06	25.851	92.068	56.206	16.625	-8.284	174.499	204.459	-8.060	-0.734	104.429	159.897	-0.798	5.260	6.074	12.925	117.485	12.641	-8191	255	
32059.166	1	1	0	0	0.21386	0.34792	0.12563	0.058736	0.23029	0.12964	0.078207	0.11438	0.099319	0.10524	0.16419	0.16821	0.081204	0.11659	0.23978	0.044919	-2.7375	-2.6917	-2.5646	-3.2854	-2.7083	-3.1333	-3.2458	-2.7313	-3.3312	-2.8708	-2.8646	-3.4667	-2.5729	-2.8167	-3.1208	-2.5917	41.712	314.717	-18.086	254.055	175.891	173.859	259.928	99.597	226.080	316.726	260.906	42.174	117.081	326.770	101.300	121.107	0.00021158	0.00011543	7.1807e-05	1114.5	3.7663e-06	4.7881e-06	1205.4	228.28	7.9341e-07	1.3863e-06	286.69	78.982	63.293	18.802	4.599e-06	25.665	0.00020519	0.00020196	5.734e-05	1089.8	2.3539e-06	2.2697e-06	1185.1	225.43	2.2449e-06	2.2007e-06	284.25	79.911	63.343	18.667	2.2499e-06	25.84	100.119	245.042	48.686	-8.205	151.744	159.157	-7.912	-0.809	105.572	146.390	-1.054	5.798	5.942	13.048	61.905	12.725	-8191	255	
32059.264	1	1	0	0	0.10594	0.17543	0.11695	0.29903	0.29274	0.37852	0.12758	0.18299	0.07252	0.23048	0.1849	0.27021	0.19301	0.16893	0.1201	0.067915	-2.85	-2.7146	-2.7	-3.4271	-2.7771	-2.9667	-3.4479	-2.5042	-3.3104	-2.9479	-2.7562	-3.3583	-2.7083	-2.9229	-3.1042	-2.7292	324.721	225.900	106.108	302.344	2.309	49.276	332.282	227.396	279.143	325.779	31.360	20.439	252.712	201.268	21.132	47.287	0.00014217	0.00023955	6.4181e-05	1110.3	3.7633e-06	2.9977e-06	1202	226	2.3941e-06	2.3435e-06	287.83	79.594	63.369	18.501	4.5709e-06	25.703	0.00019801	0.00020659	5.6048e-05	1088.6	2.3153e-06	2.1561e-06	1183.3	224.73	2.2276e-06	2.1791e-06	284	79.986	63.416	18.643	2.1263e-06	25.771	98.119	62.343	82.146	-8.304	144.876	152.360	-8.259	-0.623	133.247	93.699	-0.907	5.533	5.934	13.277	164.314	12.607	-8191	255	
32059.383	1	1	0	0	0.1336	0.025038	0.085945	0.39524	0.078892	0.12509	0.086335	0.36458	0.07991	0.10263	0.15552	0.39331	0.11918	0.24351	0.22896	0.19568	-2.7667	-2.9062	-2.6896	-3.4062	-2.8208	-2.85	-3.4771	-2.7	-3.1354	-3.1083	-2.7542	-3.4979	-2.775	-2.8625	-3.3958	-2.6958	273.819	157.122	145.588	-9.671	181.712	209.675	279.997	297.778	184.048	104.983	0.686	267.134	22.316	198.484	60.108	91.533	0.00017792	0.00039174	0.00011373	1115.6	2.0323e-06	2.544e-06	1206.8	227.67	5.1238e-07	1.1975e-06	289.26	80.121	63.743	18.472	3.1396e-06	25.656	0.00019688	0.00019187	5.4955e-05	1089.8	2.2358e-06	2.1827e-06	1185	224.27	2.1875e-06	2.1306e-06	284.14	80.164	63.532	18.644	2.1307e-06	25.777	102.932	51.704	59.050	-8.324	233.489	164.785	-7.849	-1.014	228.721	130.874	-1.002	5.643	5.899	12.966	127.628	12.589	-8191	255	
32059.479	1	1	0	0	0.16069	0.11985	0.11702	0.17422	0.27252	0.10399	0.1609	0.20494	0.24971	0.27355	0.31024	0.21245	0.12085	0.079745	0.27555	0.16825	-2.8292	-3.075	-2.5854	-3.5042	-2.7479	-2.8375	-3.4854	-2.6833	-3.1042	-3.1042	-2.5417	-3.3146	-2.9417	-2.8979	-3.3833	-2.5792	41.732	161.490	222.975	-14.641	32.820	36.086	264.754	253.797	331.424	148.146	169.932	296.063	280.570	-0.050	-2.704	256.068	0.0001348	0.00037319	6.6647e-05	1113.2	4.165e-07	3.2409e-06	1205.1	226.1	2.7244e-06	3.0506e-06	288.87	79.956	63.847	18.553	3.9501e-06	25.633	0.00020341	0.00019675	5.4909e-05	1087.4	2.1922e-06	2.135e-06	1183.6	224.41	2.1444e-06	2.0983e-06	284.65	80.204	63.622	18.655	2.074e-06	25.812	97.895	12.633	96.666	-8.225	198.122	182.839	-8.205	-0.697	125.205	92.427	-1.406	5.769	5.695	13.106	119.947	12.068	-8191	255	
32059.574	1	1	0	0	0.18128	0.29973	0.13986	0.21942	0.091662	0.048286	0.12087	0.13238	0.12559	0.02157	0.14939	0.18956	0.24673	0.29847	0.11798	0.25594	-2.5563	-3.1167	-2.2854	-3.3063	-2.925	-2.5167	-3.3604	-2.7229	-3.025	-3.3042	-2.6479	-3.2229	-2.9	-2.7188	-3.2667	-2.5604	171.118	322.666	240.753	325.522	240.009	91.149	255.900	136.129	-10.843	69.694	338.110	304.542	-14.966	1.488	115.204	43.844	0.00013815	0.00031226	4.6608e-05	1115.7	2.061e-06	2.7465e-06	1199.8	227.29	3.1382e-06	4.8206e-06	287.02	80.387	63.371	18.435	4.1796e-06	25.563	0.00019637	0.00019738	5.4541e-05	1089.9	2.1908e-06	2.1407e-06	1181	224.72	2.1677e-06	2.149e-06	283.53	79.995	63.384	18.648	2.1293e-06	25.805	103.420	81.161	47.710	-8.241	336.542	155.611	-8.056	-1.034	117.106	149.054	-1.084	6.016	5.766	13.245	89.878	12.466	-8191	255	
32059.670	1	1	0	0	0.15074	0.16079	0.15619	0.24467	0.035952	0.085529	0.09124	0.23542	0.050241	0.10852	0.07378	0.15752	0.29576	0.16094	0.18295	0.084112	-2.5271	-3.3271	-2.6229	-3.2812	-3.0208	-2.4938	-3.4521	-2.9688	-2.75	-3.1729	-2.8312	-3.225	-3.3125	-2.6688	-3.3292	-2.8771	218.262	235.178	186.563	269.906	-13.552	265.243	275.480	236.691	24.148	163.410	13.030	250.089	339.700	249.526	261.283	310.230	0.00013435	0.00019507	4.2226e-05	1111.3	8.7721e-07	4.6796e-06	1205.6	226.62	2.4918e-06	2.2944e-06	287.63	80.149	63.364	18.458	2.0214e-06	25.557	0.00020086	0.00019295	5.5547e-05	1087.1	2.1974e-06	2.1641e-06	1182.3	224.51	2.1669e-06	2.1353e-06	283.79	80.186	63.379	18.676	2.1899e-06	25.756	103.635	59.016	47.880	-8.180	53.681	137.936	-8.146	-0.767	126.095	125.110	-1.109	5.990	6.132	13.301	137.492	12.152	-8191	255	
32059.766	1	1	0	0	0.08807	0.11089	0.126	0.21277	0.17598	0.17566	0.12339	0.14784	0.20019	0.2364	0.060795	0.027675	0.10228	0.25427	0.095964	0.12468	-2.3979	-3.2708	-2.475	-3.0958	-3.2292	-2.4958	-3.2229	-2.9958	-2.7167	-3.3854	-2.6667	-3.0229	-3.2542	-2.4292	-3.4	-3.0354	249.940	310.638	40.034	265.660	80.017	61.178	295.458	252.267	79.280	197.411	41.003	118.255	106.504	299.689	302.432	133.697	0.00016796	0.00028034	5.9094e-05	1115.6	1.6912e-06	7.0008e-07	1204	227.49	3.1666e-06	2.2792e-06	288	80.429	63.487	18.33	3.0994e-06	25.569	0.00019644	0.00019074	5.4426e-05	1088.1	2.1144e-06	2.0936e-06	1182.1	224.8	2.105e-06	2.0427e-06	284.47	80.42	63.666	18.633	2.1064e-06	25.746	79.268	70.194	46.557	-8.145	181.948	164.163	-8.145	-0.384	231.765	112.082	-1.141	5.662	5.694	13.110	145.049	12.699	-8191	255	
32059.861	1	1	0	0	0.19262	0.10716	0.15744	0.24986	0.07641	0.026896	0.35715	0.23281	0.18843	0.22609	0.18754	0.26525	0.1493	0.096519	0.21318	0.18229	-2.2188	-3.3917	-2.6937	-3.0104	-3.1417	-2.65	-3.4979	-3.1292	-2.5729	-3.2271	-2.7583	-3.0021	-3.3312	-2.65	-3.0729	-2.8729	324.252	-5.819	18.735	315.439	-18.774	32.637	321.915	260.768	-14.760	-15.233	306.992	317.329	259.706	235.629	274.889	280.335	0.00019551	0.00024867	7.532e-05	1112.3	2.948e-06	1.0782e-06	1210.9	227.4	2.9348e-06	2.365e-06	286.1	80.13	63.364	18.532	3.046e-06	25.428	0.00019436	0.00018513	5.2814e-05	1088.9	2.0717e-06	2.0756e-06	1184.4	224.98	2.1052e-06	2.041e-06	283.02	80.334	63.408	18.604	2.0898e-06	25.741	103.112	336.457	127.321	-7.959	161.144	168.367	-7.949	-0.792	175.638	116.987	-1.395	5.792	5.978	13.058	130.441	13.015	-8191	255	
32059.982	1	1	0	0	0.16448	0.20063	0.18687	0.16177	0.15306	0.11912	0.23927	0.17734	0.24128	0.13409	0.16103	0.07057	0.11778	0.066715	0.075074	0.18577	-2.2729	-3.2313	-2.6458	-2.8875	-3.2167	-2.6813	-3.3812	-3.0896	-2.2708	-3.1562	-2.8875	-2.8292	-3.2313	-2.6958	-3.0667	-3.0875	115.676	307.118	9.637	264.224	89.291	251.767	228.491	293.262	157.009	326.537	305.063	151.400	60.329	230.680	-15.004	337.336	0.00019787	0.00061536	9.7427e-05	1105.9	2.5931e-06	2.5816e-06	1204	225.97	4.7567e-06	3.6932e-06	287.28	80.213	63.214	18.474	1.0259e-06	25.459	0.00019335	0.00018408	5.337e-05	1087.6	2.0328e-06	2.0486e-06	1184.8	224.36	2.0878e-06	2.0444e-06	284.08	80.233	63.232	18.645	2.1008e-06	25.771	99.101	64.001	138.560	-7.842	165.167	106.876	-8.024	-0.790	139.695	121.042	-1.129	5.914	6.263	12.726	100.632	12.519	-8191	255	
32060.078	1	1	0	0	0.26092	0.12433	0.14488	0.24735	0.07015	0.2652	0.21336	0.070192	0.044016	0.13745	0.081366	0.16495	0.16486	0.071765	0.14018	0.2698	-2.0812	-3.1188	-2.8833	-2.8417	-3.2458	-2.6854	-3.0792	-3.2375	-2.4333	-3.2125	-2.9813	-2.6583	-3.25	-2.8583	-3.0292	-3.2375	36.510	163.525	157.396	325.659	311.928	282.378	266.804	62.889	258.825	-14.187	301.431	199.105	163.867	322.987	29.678	285.024	0.00016492	0.00049731	0.00010054	1109	7.1571e-07	1.6042e-06	1204.4	227.5	2.8549e-06	4.3319e-06	286.73	80.09	63.615	18.527	4.0142e-06	25.508	0.00019678	0.00018608	5.383e-05	1089.2	2.0887e-06	2.0187e-06	1183.7	224.58	2.168e-06	2.104e-06	283.83	80.083	63.429	18.629	2.1213e-06	25.783	94.496	48.391	100.468	-7.947	194.912	332.995	-7.866	-0.809	116.347	159.186	-1.110	5.954	6.255	13.059	133.912	12.613	-8191	255	
32060.176	1	1	0	0	0.1313	0.25666	0.21595	0.15396	0.26631	0.26607	0.16823	0.070373	0.24236	0.18105	0.11691	0.049099	0.21268	0.082605	0.16105	0.20129	-2.0667	-3.3542	-3.1	-2.6854	-3.375	-2.6146	-2.7521	-3.5229	-2.4896	-3.1583	-3.1229	-2.7396	-3.1937	-2.8521	-2.9562	-3.2479	69.574	210.347	87.993	313.967	267.247	34.023	305.413	302.057	172.369	225.015	234.480	56.835	336.066	257.792	204.455	118.373	0.00018044	0.00020677	4.7081e-05	1106.5	1.8988e-06	5.774e-07	1206.5	226.3	2.8611e-06	9.536e-07	289.03	80.201	63.916	18.628	2.2641e-06	25.574	0.00019298	0.00019436	5.5012e-05	1087.5	2.1241e-06	2.1422e-06	1183.7	224.84	2.1892e-06	2.0398e-06	284.28	80.162	63.727	18.703	2.1452e-06	25.744	87.360	81.450	96.604	-7.922	136.499	97.584	-7.699	-0.651	155.317	59.905	-0.894	5.733	5.583	12.992	161.995	12.670	-8191	255	
32060.295	1	1	0	0	0.2849	0.24197	0.096897	0.10135	0.17107	0.094277	0.28568	0.21014	0.14799	0.31506	0.19121	0.064007	0.24558	0.077926	0.31574	0.23672	-2.1708	-3.0167	-3.1437	-2.6542	-3.4104	-2.8812	-3.0938	-3.3375	-2.7458	-3.1271	-3.2354	-2.6521	-3.2313	-2.9417	-2.8271	-3.5375	56.476	117.838	26.371	247.826	-0.560	-3.115	263.163	321.557	246.716	223.547	13.084	170.986	271.905	156.376	340.791	158.432	0.00018594	0.00017632	0.00014606	1115.9	3.6521e-06	6.7016e-06	1209.1	226.53	3.0267e-06	2.7546e-06	286.43	79.444	64.027	18.48	2.8952e-06	25.595	0.00020244	0.00019298	5.3697e-05	1090.4	2.1701e-06	2.1158e-06	1183.2	224.7	2.1091e-06	2.1509e-06	283.56	79.786	63.573	18.646	2.1618e-06	25.785	101.953	51.729	27.227	-8.093	137.985	142.596	-8.097	-0.589	145.703	93.536	-1.203	5.769	5.783	13.012	128.891	12.194	-8191	255	
32060.365	1	1	0	0	0.051793	0.20287	0.21141	0.25326	0.30407	0.33784	0.053886	0.24234	0.19281	0.077918	0.19866	0.18224	0.30945	0.034435	0.010664	0.40554	-2.2104	-2.8958	-3.1354	-2.6896	-3.3083	-2.8604	-2.8917	-3.4979	-2.6	-2.9917	-3.1771	-2.5604	-3.3563	-3.1292	-2.6937	-3.4979	220.931	280.061	243.387	338.409	-1.643	70.522	222.603	263.322	112.912	210.625	212.010	186.976	40.463	177.205	54.798	282.606	0.00013222	0.00024216	8.7375e-05	1114	9.408e-07	6.6229e-06	1204.5	227.82	2.2677e-06	4.2725e-06	286.76	80.057	63.426	18.457	4.2561e-06	25.743	0.00019385	0.00019244	5.3891e-05	1088.4	2.1821e-06	2.1456e-06	1184.4	224.85	2.2236e-06	2.0897e-06	284.14	80.328	63.381	18.63	2.1678e-06	25.809	118.132	86.161	111.004	-8.244	182.936	135.145	-8.316	-0.705	179.688	134.583	-1.297	5.311	5.567	13.227	97.107	12.704	-8191	255	
32060.463	1	1	0	0	0.10381	0.054908	0.22288	0.090649	0.12228	0.13804	0.25728	0.23922	0.13642	0.20907	0.20901	0.052029	0.12235	0.12624	0.13235	0.23589	-2.3979	-2.9542	-3.2021	-2.7625	-3.0896	-3.0604	-2.7958	-3.4938	-2.7812	-2.8958	-3.3229	-2.6188	-3.1958	-3.2875	-2.6708	-3.4062	151.165	310.797	249.495	103.429	128.032	88.540	7.499	223.096	329.819	43.045	324.157	49.223	289.979	255.393	27.739	326.158	0.00014273	0.00014956	6.6655e-05	1114.1	3.7769e-06	4.8642e-06	1206.4	226.17	7.5701e-07	2.7242e-06	287.9	80.168	62.844	18.591	3.8289e-06	25.642	0.00020009	0.00019292	5.4384e-05	1088.9	2.1835e-06	2.1448e-06	1185.1	224.78	2.1904e-06	2.1301e-06	284.12	80.143	63.175	18.629	2.2448e-06	25.793	85.556	165.741	43.258	-8.300	125.068	120.041	-8.214	-0.968	301.528	134.286	-1.157	5.410	5.825	12.758	123.088	12.440	-8191	255	
32060.559	1	1	0	0	0.072029	0.2396	0.16535	0.3348	0.1609	0.12748	0.27299	0.16678	0.15517	0.19975	0.16209	0.065008	0.1653	0.15596	0.25884	0.17141	-2.5	-2.6646	-3.3771	-2.8312	-3.1333	-3.1458	-2.6063	-3.3417	-2.8146	-2.9625	-3.3312	-2.6188	-3.0021	-3.2104	-2.3792	-3.275	274.306	223.925	169.033	294.891	46.488	159.322	290.266	196.389	240.597	318.557	224.317	35.023	38.041	-4.370	278.714	313.874	0.00017554	0.00052235	0.00011083	1117.5	2.2011e-06	3.2679e-06	1201.1	227.74	6.8411e-07	4.4738e-06	288.23	80.216	63.73	18.467	1.1416e-06	25.671	0.00021088	0.00020828	5.7399e-05	1089.6	2.2885e-06	2.2866e-06	1183	225.23	2.2922e-06	2.2868e-06	284.59	80.303	63.467	18.662	2.2626e-06	25.825	81.274	78.860	50.915	-8.202	90.368	141.662	-8.003	-0.723	151.640	136.070	-1.355	5.787	5.801	13.055	277.303	12.565	-8191	255	
32060.680	1	1	0	0	0.13527	0.23934	0.11836	0.13492	0.11918	0.21989	0.35848	0.13515	0.12177	0.11788	0.26646	0.10492	0.12544	0.1855	0.32406	0.010681	-2.3833	-2.6583	-3.3396	-2.7271	-2.9479	-3.3667	-2.8354	-3.1083	-2.9437	-2.8271	-3.5458	-2.6729	-2.9125	-3.2042	-2.8042	-3.2229	78.954	295.352	300.427	246.525	10.445	334.667	276.295	259.924	322.092	115.107	250.901	1.827	83.844	270.432	80.423	4.047	0.00013981	0.00020423	0.00014029	1110.2	2.9246e-06	1.5055e-06	1209.2	227.44	1.0925e-06	2.725e-06	286.89	80.187	63.425	18.598	2.382e-06	25.884	0.00020578	0.00020539	5.6548e-05	1088.4	2.2173e-06	2.2088e-06	1184.1	225.21	2.2398e-06	2.1423e-06	283.88	80.199	63.504	18.698	2.2147e-06	25.848	73.223	38.094	70.960	-8.104	118.730	221.067	-8.097	-0.902	87.928	137.804	-1.414	5.922	6.142	13.109	137.338	12.617	-8191	255	
32060.775	1	1	0	0	0.1485	0.064205	0.08911	0.38026	0.080612	0.16743	0.24765	0.22587	0.14556	0.13788	0.13074	0.10282	0.16194	0.31869	0.14347	0.15896	-2.7771	-2.6188	-3.2771	-2.6792	-2.7729	-3.3	-2.8438	-3.2667	-3.0667	-2.6083	-3.5812	-2.9083	-2.8792	-3.4375	-2.6562	-3.0438	113.427	308.505	54.979	341.174	228.337	134.922	255.896	119.769	5.820	192.056	327.066	71.408	138.552	318.042	293.476	10.801	0.00017492	0.00063697	2.9247e-05	1114.4	2.6602e-06	3.126e-06	1208.3	227.5	8.3088e-07	1.2372e-06	288.32	79.89	63.507	18.453	1.7443e-06	25.423	0.00020699	0.00020174	5.5952e-05	1089.2	2.2594e-06	2.2059e-06	1184.2	224.97	2.2415e-06	2.221e-06	284.69	80.183	63.498	18.687	2.1149e-06	25.822	74.479	112.693	136.320	-8.438	140.261	177.018	-8.318	-0.720	126.645	122.354	-1.309	5.224	5.867	12.946	18.183	12.478	-8191	255	
32060.871	1	1	0	0	0.34295	0.12768	0.13485	0.11482	0.10539	0.31419	0.28981	0.10529	0.19592	0.12709	0.13385	0.26823	0.066405	0.077332	0.2381	0.27731	-2.7979	-2.7313	-3.3292	-2.8479	-2.6896	-3.3208	-2.8083	-3.0583	-3.1896	-2.5771	-3.3333	-2.9167	-2.7687	-3.2958	-2.7104	-3.1271	174.861	232.099	253.552	150.980	286.548	309.227	291.822	6.405	306.380	290.375	-8.648	299.666	86.383	90.988	282.319	167.086	0.00020415	0.00045331	6.9274e-05	1111.6	2.4344e-06	3.8313e-06	1213.6	228.53	1.1958e-06	2.7489e-06	287.41	80.181	63.383	18.383	2.818e-06	25.632	0.00020542	0.00020232	5.4989e-05	1089.1	2.2259e-06	2.0824e-06	1187.5	225.44	2.1523e-06	2.119e-06	284.34	80.252	63.211	18.631	2.163e-06	25.891	106.906	110.148	187.783	-8.567	131.815	170.081	-8.227	-0.546	212.506	108.176	-1.262	5.685	5.823	12.972	140.559	12.431	-8191	255	
32060.943	1	1	0	0	0.14033	0.20434	0.14641	0.19388	0.12268	0.2591	0.18558	0.16079	0.26945	0.08953	0.13711	0.095632	0.23333	0.17367	0.1027	0.10686	-2.6937	-2.5187	-3.0958	-3.0312	-2.7375	-3.4167	-2.9042	-3.0833	-3.25	-2.6188	-3.1042	-2.9979	-2.5708	-3.3479	-2.8521	-2.8958	275.872	168.861	22.992	15.587	-0.104	13.550	258.247	12.543	-17.285	149.566	201.734	123.745	170.011	286.392	230.936	200.998	0.00014821	0.00032369	0.0001149	1117.3	2.7299e-06	3.4485e-06	1203.5	227.07	1.8909e-06	4.7313e-06	288.05	79.796	63.481	18.402	2.4892e-06	25.458	0.0001975	0.00019569	5.4259e-05	1089.7	2.1654e-06	2.1062e-06	1184.5	224.73	2.0988e-06	2.0975e-06	283.97	80.144	63.395	18.598	2.1071e-06	25.752	80.323	53.158	89.723	-8.237	143.211	117.574	-8.121	-0.820	145.210	139.269	-1.535	5.388	5.634	13.083	100.518	12.375	-8191	255	
32061.062	1	1	0	0	0.10169	0.040761	0.1831	0.12183	0.11739	0.30613	0.12414	0.17519	0.20607	0.11017	0.24405	0.079409	0.17436	0.080265	0.065184	0.25427	-2.9292	-2.5521	-3.2104	-3.1312	-2.5646	-3.2896	-2.9125	-2.8542	-3.1896	-2.8292	-3.2208	-3.2896	-2.6562	-3.4417	-2.9708	-2.8354	94.397	129.173	250.839	331.428	310.294	80.328	302.283	266.262	170.661	36.198	-5.653	42.145	127.575	23.381	-5.270	-13.811	0.00019371	0.00082016	0.00019269	1115.2	4.2452e-06	5.2417e-06	1209.3	227.62	1.9222e-06	3.9772e-06	288.45	80.434	62.861	18.527	1.1805e-06	25.812	0.00019415	0.00019015	5.4092e-05	1089	2.0936e-06	2.0406e-06	1185.2	225.38	2.0972e-06	2.1079e-06	283.62	80.148	63.224	18.681	2.1848e-06	25.87	90.075	68.296	32.981	-8.295	154.076	164.199	-8.212	-0.583	71.398	147.746	-1.022	5.513	5.831	12.860	313.039	12.214	-8191	255	
32061.158	1	1	0	0	0.17671	0.10243	0.04317	0.13329	0.071979	0.091099	0.24107	0.18544	0.13644	0.073855	0.15511	0.17033	0.16123	0.30923	0.083172	0.20408	-3.0479	-2.6667	-3.0417	-3.3854	-2.5958	-3.2438	-3.1354	-2.7792	-3.2042	-2.7229	-3.1021	-3.2438	-2.7667	-3.2542	-3.0042	-2.775	18.964	93.253	34.063	221.828	318.281	104.728	26.621	24.455	68.431	230.918	68.901	33.060	5.750	236.315	305.463	257.900	0.00013994	0.00048869	0.0001425	1111.9	3.2205e-06	2.9788e-06	1204.1	227.58	2.3366e-06	4.0023e-06	290	80.37	63.222	18.649	3.2572e-06	25.521	0.0001887	0.00019747	5.2752e-05	1087.5	2.1592e-06	2.0747e-06	1184.4	224.98	2.191e-06	2.1025e-06	284.82	80.129	63.325	18.717	2.1475e-06	25.803	115.734	72.300	57.357	-8.099	154.908	153.231	-8.189	-0.562	165.045	126.796	-1.254	5.635	6.037	12.819	94.585	12.223	-8191	255	
32061.256	1	1	0	0	0.074596	0.18713	0.13068	0.3727	0.069375	0.20782	0.3852	0.16625	0.086848	0.29503	0.15281	0.06973	0.18822	0.2028	0.27579	0.081345	-2.9062	-2.6354	-2.85	-3.475	-2.5292	-3.1937	-3.3104	-2.9021	-3.4562	-2.8438	-2.8208	-3.4313	-2.7167	-3.2417	-3.0687	-2.7875	81.711	77.161	175.084	321.122	295.643	103.144	330.508	244.454	202.589	76.846	9.030	54.145	312.126	186.740	151.777	231.772	0.0001583	0.00031361	9.4123e-05	1114.2	1.2993e-06	3.9037e-06	1210	226.74	3.0305e-06	2.5316e-06	288.69	80.142	63.561	18.586	7.6638e-06	25.614	0.00019391	0.0001911	5.3107e-05	1089.7	2.1797e-06	2.1026e-06	1184.5	224.7	2.0599e-06	2.1424e-06	284.72	80.013	63.317	18.75	2.1358e-06	25.883	102.267	147.138	64.229	-8.593	222.410	166.155	-8.015	-0.758	156.842	182.177	-0.676	5.609	5.812	13.000	114.125	12.187	-8191	255	
32061.377	1	1	0	0	0.17975	0.2503	0.21166	0.1179	0.13945	0.11994	0.19007	0.20194	0.20878	0.15852	0.065037	0.26205	0.10103	0.2502	0.16862	0.18751	-2.9333	-2.8792	-2.7875	-3.5646	-2.575	-3.1104	-3.325	-2.85	-3.325	-2.8396	-2.8375	-3.5583	-2.9042	-3.1854	-3.2	-2.5187	295.467	264.292	180.541	115.726	183.903	230.797	261.809	-18.389	236.014	147.676	226.021	59.060	103.310	301.086	49.290	256.596	0.00016175	0.00058697	0.00012454	1108.7	2.2141e-06	3.006e-06	1202.7	227.53	1.5526e-06	3.2196e-06	287.66	80.358	63.161	18.659	3.3867e-06	25.505	0.00019504	0.0001879	5.312e-05	1087.6	2.1211e-06	2.0501e-06	1182.2	224.45	2.1647e-06	2.0726e-06	283.82	80.164	63.24	18.705	2.0276e-06	25.8	104.943	92.319	68.966	-8.415	157.717	131.044	-7.994	-0.774	132.636	136.206	-1.173	5.997	5.959	12.847	161.552	12.588	-8191	255	
32061.471	1	1	0	0	0.17436	0.40132	0.24512	0.14366	0.22184	0.13663	0.10258	0.10044	0.06858	0.18602	0.33591	0.10699	0.096911	0.12968	0.077375	0.098202	-2.8438	-2.8688	-2.4792	-3.425	-2.6167	-2.8417	-3.3187	-2.65	-3.1792	-3.1	-2.6542	-3.1979	-2.6479	-2.8979	-3.2792	-2.4042	87.371	288.860	326.604	255.595	257.209	132.987	233.694	197.292	34.244	97.086	334.091	54.811	38.996	3.392	265.934	144.991	0.00013119	0.00051326	3.4674e-05	1120.7	2.981e-06	2.6716e-06	1205.5	227.03	1.5092e-06	3.8308e-06	287.91	79.708	63.864	18.471	2.955e-06	25.426	0.00019257	0.00019522	5.355e-05	1091	2.1395e-06	2.0548e-06	1182.4	224.67	2.0451e-06	2.1135e-06	283.83	79.955	63.409	18.666	2.0859e-06	25.666	115.544	57.004	12.634	-8.062	80.083	35.116	-8.062	-0.467	113.283	110.993	-0.950	5.745	5.808	13.266	124.234	13.013	-8191	255	
32061.566	1	1	0	0	0.097233	0.059739	0.21937	0.56812	0.1805	0.040593	0.22949	0.14799	0.042281	0.2211	0.16285	0.060282	0.14638	0.22164	0.15618	0.056021	-2.8792	-3.1708	-2.5958	-3.4021	-2.8146	-2.7875	-3.4646	-2.6333	-3.1729	-3.0604	-2.7625	-3.3125	-2.8	-2.7812	-3.4333	-2.5396	174.544	125.458	201.335	290.983	166.820	203.973	158.944	255.834	97.779	118.899	15.323	230.716	104.047	332.971	6.215	88.197	0.00022437	0.00028601	0.00012455	1110.2	1.9864e-06	2.2261e-06	1202.6	226.3	1.6308e-06	5.0635e-06	287.45	80.064	63.763	18.382	1.2462e-06	25.635	0.00019402	0.00018476	5.2298e-05	1087.5	2.1486e-06	2.0615e-06	1183.3	224.37	2.1312e-06	2.0747e-06	284.3	80.125	63.488	18.614	2.0654e-06	25.764	100.847	54.998	54.464	-8.150	91.397	169.605	-8.073	-0.703	146.633	128.684	-0.844	5.653	6.027	12.851	308.076	12.322	-8191	255	
32061.662	1	1	0	0	0.064975	0.19977	0.027572	0.23281	0.2342	0.12125	0.23213	0.15072	0.1785	0.042183	0.2071	0.18881	0.24745	0.25037	0.17371	0.15245	-2.7104	-3.1458	-2.5875	-3.4562	-2.8979	-2.7333	-3.5542	-2.6521	-2.9938	-3.1625	-2.5438	-3.3104	-2.9208	-2.6937	-3.2313	-2.8063	276.792	228.590	256.255	290.141	254.694	164.666	-10.954	-10.511	38.627	-12.015	318.568	329.378	314.212	329.360	309.320	210.332	0.00015789	0.00019932	0.000127	1110.7	2.4889e-06	2.9001e-06	1204	228.3	3.2009e-06	4.2045e-06	285.86	79.913	63.666	18.474	3.5359e-06	25.546	0.00019572	0.00019116	5.2869e-05	1088.2	2.1215e-06	2.0495e-06	1183.9	224.45	2.0954e-06	2.0287e-06	283.21	80.134	63.424	18.619	1.9788e-06	25.72	102.332	20.449	124.626	-8.255	125.420	156.116	-8.098	-0.667	132.644	134.594	-1.139	5.960	5.695	13.108	154.475	12.134	-8191	255	
32061.760	1	1	0	0	0.069717	0.11296	0.088874	0.17621	0.12508	0.20551	0.092663	0.23738	0.2703	0.17108	0.15969	0.09418	0.12858	0.1087	0.11353	0.20403	-2.4646	-3.3271	-2.7	-3.2771	-2.9729	-2.7604	-3.425	-2.8167	-2.8979	-3.0687	-2.6875	-3.1688	-3.025	-2.5521	-3.3667	-2.7562	290.898	312.097	-2.264	256.122	109.144	34.479	226.337	299.820	261.841	195.940	261.339	329.973	-4.076	329.459	81.780	311.362	0.00020323	0.00078508	9.7396e-05	1110.7	1.8056e-06	3.0976e-06	1202.7	228	2.7013e-06	2.7196e-06	287.01	80.308	63.533	18.532	2.0018e-06	25.362	0.00019464	0.00018604	5.0283e-05	1088	2.1032e-06	2.0821e-06	1182.9	224.6	2.0549e-06	1.9655e-06	283.64	80.17	63.361	18.647	2.0492e-06	25.721	102.673	83.656	76.877	-7.996	184.209	167.838	-7.995	-0.780	115.418	118.084	-1.317	5.490	6.039	13.366	156.508	12.896	-8191	255	
32061.855	1	1	0	0	0.176	0.18089	0.17279	0.2748	0.19809	0.07036	0.40147	0.20884	0.27137	0.10512	0.1199	0.047453	0.087742	0.27943	0.21911	0.16486	-2.5062	-3.4562	-2.5208	-3.275	-3.1583	-2.5708	-3.6021	-3.0708	-2.6396	-3.3354	-2.6521	-3.1063	-3.3271	-2.5	-3.2208	-2.7812	337.485	295.528	172.103	289.213	47.994	34.358	275.990	228.765	169.518	286.837	32.429	141.823	84.371	194.456	239.893	16.919	0.00020964	0.00016195	0.00015457	1115.2	1.3304e-06	2.0296e-06	1205.2	227.08	2.3836e-06	3.6904e-06	287.54	80.003	63.068	18.355	1.9375e-06	25.637	0.00018934	0.0001821	5.0592e-05	1088.7	2.0831e-06	2.023e-06	1183.1	224.52	1.9717e-06	1.9213e-06	283.33	80.043	63.125	18.571	1.97e-06	25.717	88.564	39.242	85.130	-8.246	159.656	178.035	-7.859	-0.833	139.740	171.095	-0.897	5.785	6.320	12.822	141.332	12.356	-8191	255	
32061.977	1	1	0	0	0.065889	0.13224	0.31077	0.19362	0.10785	0.035859	0.23177	0.3229	0.26154	0.087271	0.042811	0.27318	0.051588	0.18514	0.18228	0.13108	-2.3708	-3.2687	-2.6562	-3.125	-3.1312	-2.5271	-3.5375	-2.9667	-2.6937	-3.375	-2.7083	-2.9292	-3.4958	-2.5875	-3.1312	-3.0312	116.636	311.050	-6.595	321.830	76.329	56.212	285.817	217.711	204.377	148.278	256.483	242.532	291.692	320.891	302.626	273.427	0.00014646	0.00028204	6.9072e-05	1106.4	2.8805e-06	2.1895e-06	1205.6	226.15	1.8143e-06	4.5447e-06	286.55	80.034	63.526	18.516	3.0416e-06	25.4	0.00018914	0.0001779	4.9622e-05	1085.3	1.9361e-06	1.8722e-06	1181.6	223.82	1.9187e-06	1.8853e-06	283.36	80.005	63.272	18.589	1.871e-06	25.617	85.910	109.450	60.821	-7.964	109.590	43.086	-8.041	-0.978	107.929	112.846	-0.927	5.636	5.747	12.927	68.397	12.200	-8191	255	
32062.072	1	1	0	0	0.15015	0.2497	0.25826	0.23492	0.041176	0.29461	0.097356	0.020341	0.29828	0.12993	0.13271	0.14229	0.24358	0.096147	0.35408	0.17834	-2.1208	-3.3625	-2.6542	-3.1292	-3.3	-2.5938	-3.4396	-2.8167	-2.6896	-3.2958	-2.9833	-2.8187	-3.2917	-2.6875	-3.1833	-3.2896	255.240	0.926	88.132	267.405	270.022	124.913	-16.625	237.675	43.370	98.850	249.217	276.253	228.875	144.401	-5.890	282.207	0.00015623	0.00044491	3.9516e-05	1115.7	2.6254e-06	3.9665e-06	1207.5	225.96	2.1486e-06	1.7675e-06	287.47	80.693	63.566	18.46	4.2085e-06	25.393	0.00018083	0.00017007	4.8989e-05	1087.4	1.9179e-06	1.9149e-06	1180.6	223.85	1.9621e-06	1.8818e-06	283.5	79.962	63.084	18.591	1.8819e-06	25.674	83.907	86.789	118.708	-8.313	130.914	139.481	-7.932	-0.940	116.489	203.830	-1.192	5.809	5.762	13.376	171.111	12.586	-8191	255	
32062.168	1	1	0	0	0.11685	0.16375	0.20169	0.10688	0.034719	0.083696	0.28481	0.15935	0.20231	0.29189	0.15727	0.10187	0.15758	0.0086273	0.13152	0.068632	-2.2646	-3.3396	-2.6042	-2.9646	-3.4375	-2.7896	-3.3854	-3.35	-2.5604	-3.2333	-3.1229	-2.6625	-3.4437	-2.7042	-3.1646	-3.2292	296.051	148.630	200.771	6.100	322.712	72.055	295.391	339.173	209.382	277.156	159.507	199.237	256.278	156.231	65.811	272.255	0.00017143	0.00017213	7.4913e-05	1109	2.3207e-06	1.0097e-06	1204.9	225.91	2.4446e-06	4.3513e-06	287.05	79.604	63.231	18.393	2.8163e-06	25.349	0.0001835	0.00017395	4.9236e-05	1085.3	1.9856e-06	1.9331e-06	1180.3	224.26	1.9925e-06	1.8788e-06	283.23	79.79	63.162	18.613	1.8961e-06	25.606	112.745	47.971	100.364	-8.310	182.441	244.179	-8.059	-0.648	169.057	119.556	-0.800	6.380	5.807	13.570	140.568	12.596	-8191	255	
32062.240	1	1	0	0	0.1728	0.10907	0.12867	0.0062704	0.17555	0.1517	0.21825	0.057645	0.0732	0.22069	0.19149	0.069667	0.11281	0.16009	0.12725	0.14185	-2.1542	-3.3312	-2.7583	-2.8312	-3.2833	-2.625	-3.2667	-3.4562	-2.4208	-3.2896	-2.8542	-2.6771	-3.4583	-2.7771	-2.9125	-3.45	-4.660	278.477	260.079	139.568	241.698	100.010	339.330	277.769	156.452	3.534	93.279	54.989	222.997	190.489	247.048	136.791	0.00018669	0.00031804	8.5311e-05	1111	1.3623e-06	3.7099e-06	1200.4	226.32	2.1571e-06	5.6618e-06	286.3	79.831	63.715	18.489	3.5076e-06	25.486	0.00017516	0.00017262	4.7904e-05	1087.5	1.9355e-06	1.9013e-06	1180.2	223.69	1.931e-06	1.8937e-06	283.18	79.828	63.146	18.572	1.9132e-06	25.645	91.675	92.315	70.272	-7.961	82.467	109.186	-7.819	-0.758	141.050	142.347	-1.449	6.216	6.026	13.432	102.810	12.465	-8191	255	
32062.359	1	1	0	0	0.049691	0.20907	0.14113	0.026659	0.39635	0.16972	0.15464	0.30586	0.31382	0.082692	0.26414	0.30295	0.11787	0.21271	0.22314	0.22426	-2.2021	-3.2708	-3.0833	-2.7479	-3.2875	-2.7438	-2.8396	-3.3521	-2.5396	-3.2854	-3.1271	-2.4646	-3.4167	-2.9	-2.8187	-3.2104	168.340	139.345	26.264	18.273	279.681	37.615	182.564	231.028	28.085	11.902	42.683	216.324	223.003	310.503	201.737	97.177	0.00020619	0.00043742	4.2993e-05	1110.8	1.1721e-06	9.2824e-07	1204.8	227.99	8.2216e-07	1.8758e-06	286.88	80.675	63.489	18.409	1.4784e-06	25.359	0.00018396	0.00017472	5.022e-05	1085.8	1.9038e-06	1.8869e-06	1182.6	224.61	1.9342e-06	1.9206e-06	282.77	80.096	63.085	18.597	1.9247e-06	25.619	106.107	62.273	80.575	-8.219	72.405	94.102	-7.765	-0.760	179.435	129.249	-1.166	6.048	5.877	13.010	96.699	12.673	-8191	255	
32062.455	1	1	0	0	0.11934	0.15789	0.032596	0.19224	0.13803	0.22055	0.20873	0.13718	0.082873	0.056947	0.23619	0.10409	0.10699	0.21915	0.1346	0.18434	-2.1896	-3.1125	-3.1271	-2.5187	-3.4771	-2.9	-2.8854	-3.3937	-2.7438	-3.1083	-3.3438	-2.675	-3.3917	-2.8479	-2.6917	-3.3125	43.676	96.627	21.823	291.469	266.721	202.598	297.327	52.697	260.880	37.130	164.229	29.811	296.041	291.937	264.563	294.187	0.00014938	0.00060811	8.8959e-05	1102	3.808e-06	1.6631e-06	1205.6	226.18	3.137e-06	1.1111e-06	286.83	79.901	63.79	18.439	4.8341e-06	25.655	0.0001822	0.00017464	4.9677e-05	1083.5	1.9636e-06	1.9308e-06	1181	223.73	1.9549e-06	1.8678e-06	283.05	79.923	63.327	18.493	1.9025e-06	25.698	107.603	118.002	9.350	-8.162	146.329	175.340	-7.926	-0.781	134.167	109.089	-0.983	5.698	6.137	12.663	139.120	12.946	-8191	255	
32062.551	1	1	0	0	0.10118	0.10564	0.093777	0.11368	0.13702	0.1115	0.096979	0.097682	0.034987	0.15189	0.24634	0.021812	0.197	0.12753	0.17609	0.043318	-2.3271	-2.9542	-3.4104	-2.6354	-3.5125	-2.9917	-2.9562	-3.4833	-2.65	-3.0667	-3.3354	-2.7021	-3.3521	-3.0187	-2.7313	-3.4396	8.493	195.161	118.957	261.127	-18.460	87.235	1.434	291.243	205.998	45.293	102.901	252.326	173.816	176.178	108.156	212.131	0.0001715	0.00054246	6.6219e-05	1109.4	1.1027e-06	4.7974e-06	1207	226.51	1.7363e-06	4.1487e-06	287.4	79.922	62.703	18.552	4.9476e-06	25.486	0.00018566	0.00017145	4.7678e-05	1084.2	1.9588e-06	1.8446e-06	1182.5	223.66	1.9543e-06	1.8543e-06	282.87	79.736	62.875	18.549	1.8972e-06	25.66	106.827	60.272	75.202	-8.150	128.218	123.935	-8.105	-0.728	109.766	116.023	-1.190	5.825	5.813	13.559	153.354	12.756	-8191	255	
32062.646	1	1	0	0	0.07427	0.24425	0.35448	0.23006	0.2428	0.14295	0.2098	0.032351	0.1306	0.17065	0.080037	0.18121	0.014996	0.088043	0.0093858	0.091086	-2.4979	-2.8375	-3.3937	-2.7375	-3.2042	-3.075	-2.7333	-3.3937	-2.8521	-2.7958	-3.4854	-2.7313	-3.0896	-3.0833	-2.55	-3.3896	123.018	270.199	227.074	194.876	273.590	112.235	240.371	290.611	214.806	294.291	109.275	179.544	33.015	322.363	92.061	250.215	0.00018242	0.00031288	0.00010264	1104.4	1.2313e-06	5.7571e-06	1204.9	226.09	2.2504e-06	2.9772e-06	286.06	79.588	63.072	18.536	1.8033e-06	25.553	0.00018184	0.00017454	4.6259e-05	1085.1	2.0236e-06	1.9054e-06	1182.5	224.36	1.9972e-06	1.8397e-06	282.27	79.713	62.928	18.617	1.9439e-06	25.666	86.355	88.200	66.486	-7.995	179.189	107.511	-8.065	-0.752	186.927	170.685	-0.808	5.738	6.127	13.245	109.115	12.602	-8191	255	
32062.768	1	1	0	0	0.15937	0.16446	0.019116	0.14981	0.2388	0.20035	0.12976	0.10884	0.25065	0.28892	0.038064	0.072883	0.33223	0.11031	0.086639	0.20664	-2.4896	-2.75	-3.2542	-2.6188	-3.1333	-3.2562	-2.7313	-3.2042	-2.9833	-2.6625	-3.4875	-2.7646	-3.0687	-3.2896	-2.725	-3.2458	275.766	224.323	319.518	-5.120	70.426	193.080	279.058	12.683	-2.784	107.617	127.415	214.360	328.765	316.476	88.904	284.241	0.00018257	0.00039446	6.1833e-05	1106.5	3.7542e-06	1.9917e-06	1200.4	227.23	1.7451e-06	3.0913e-06	287.48	79.677	63.419	18.509	3.6369e-06	25.455	0.00018116	0.00017942	4.7693e-05	1084.4	1.9741e-06	1.8825e-06	1180.2	224.12	1.9558e-06	1.9257e-06	283.16	79.702	63.11	18.633	2.0107e-06	25.71	96.416	68.280	104.083	-8.145	99.478	129.092	-8.002	-0.681	148.837	170.356	-0.815	5.902	6.269	13.027	112.836	12.408	-8191	255	
32062.840	1	1	0	0	0.19169	0.12496	0.1691	0.19979	0.13724	0.034364	0.31676	0.085534	0.13999	0.070974	0.10502	0.09678	0.22608	0.10832	0.11208	0.27692	-2.5542	-2.6146	-3.4333	-2.8104	-2.9562	-3.2229	-2.7854	-3.3104	-2.9625	-2.5125	-3.4396	-2.6896	-3.0104	-3.4167	-2.625	-3.2042	162.204	200.111	54.072	309.387	315.281	136.095	296.633	313.258	275.966	67.341	-9.920	235.577	1.232	96.838	178.548	260.977	0.00017458	0.00014961	0.00013118	1105.7	2.8724e-06	3.362e-06	1196.8	227.18	3.6543e-06	3.8083e-06	286.73	79.957	63.489	18.419	3.499e-06	25.323	0.00018568	0.0001735	4.9165e-05	1085	2.0558e-06	1.8976e-06	1179.3	224.26	2.0062e-06	1.9482e-06	283.17	79.928	63.16	18.544	1.9568e-06	25.607	100.632	30.987	61.183	-7.951	101.635	111.895	-7.974	-0.511	114.979	161.984	-1.105	6.073	5.930	13.259	71.271	13.054	-8191	255	
32062.936	1	1	0	0	0.22773	0.19028	0.042373	0.03362	0.15752	0.09316	0.02376	0.090373	0.2772	0.11624	0.16534	0.074037	0.23027	0.12291	0.17272	0.19755	-2.8125	-2.6083	-3.3438	-2.9583	-2.8479	-3.3542	-2.8021	-3.3833	-2.9958	-2.8063	-3.3917	-2.9333	-2.8146	-3.3021	-2.6042	-3.1375	94.527	11.489	300.480	-12.866	174.350	225.650	243.578	252.163	-13.894	264.834	334.402	214.226	333.774	71.957	2.125	293.883	0.00016412	0.00028841	7.429e-05	1110.8	1.255e-06	4.5792e-06	1204.3	226.21	1.1604e-06	3.3274e-06	288.98	79.751	63.249	18.472	2.2872e-06	25.565	0.00018127	0.00017793	4.8069e-05	1085.4	1.953e-06	1.8998e-06	1180.2	223.53	1.9469e-06	1.9403e-06	283.68	79.752	63.119	18.579	1.9544e-06	25.764	100.384	152.244	114.321	-7.933	208.343	158.955	-7.640	-0.631	81.421	132.457	-1.047	5.621	6.646	13.437	157.148	12.969	-8191	255	
32063.057	1	1	0	0	0.21807	0.1566	0.23114	0.1761	0.18692	0.156	0.25451	0.22358	0.11532	0.094921	0.19456	0.071176	0.14352	0.073208	0.11504	0.36908	-2.8271	-2.5771	-3.325	-2.9562	-2.6104	-3.2958	-2.8792	-3.225	-3.2354	-2.6771	-3.3542	-2.9917	-2.7958	-3.4521	-2.6521	-2.95	214.077	189.518	215.059	331.811	300.732	273.550	306.310	296.630	1.815	182.871	289.949	248.900	318.254	218.194	204.594	280.295	0.00015888	0.00070034	0.00013389	1108.6	1.4997e-06	3.841e-06	1198.5	226.2	1.1255e-06	1.7391e-06	289.66	80.317	63.592	18.553	5.935e-07	25.617	0.00017879	0.00017999	4.8203e-05	1083.5	1.988e-06	1.8564e-06	1179.4	223.9	1.9255e-06	1.9132e-06	283.66	79.96	63.104	18.582	1.9446e-06	25.711	105.592	107.002	71.188	-8.107	151.700	145.844	-7.771	-0.545	165.899	147.626	-1.010	5.608	5.947	13.455	122.156	12.430	-8191	255	
32063.152	1	1	0	0	0.042295	0.16306	0.33237	0.28263	0.049876	0.083025	0.21843	0.16674	0.12052	0.25118	0.10736	0.12074	0.1603	0.16917	0.18416	0.1264	-2.8104	-2.6542	-3.2979	-3.0542	-2.5979	-3.4125	-3.0458	-2.9229	-3.4813	-2.5875	-3.3646	-3.2812	-2.7	-3.4292	-2.8208	-3.0521	-5.507	146.106	63.593	279.844	166.370	298.921	287.905	312.917	324.454	188.121	6.660	135.554	127.160	198.920	154.192	-16.827	0.00018225	0.00024076	6.5419e-05	1108.3	2.2446e-06	4.425e-06	1199.1	225.19	2.3753e-06	4.7847e-06	286.91	79.92	63.305	18.361	2.948e-06	25.717	0.00017175	0.00017367	4.833e-05	1083.1	1.891e-06	1.8677e-06	1178.7	223.39	1.8082e-06	1.8847e-06	282.82	79.717	63.061	18.537	1.8993e-06	25.661	106.100	65.000	-7.738	-8.342	149.512	113.456	-8.146	-0.791	154.594	153.541	-1.116	5.756	5.970	12.790	116.910	12.699	-8191	255	
32063.248	1	1	0	0	0.21923	0.090267	0.049674	0.065907	0.36286	0.050549	0.36835	0.44892	0.21342	0.23182	0.17972	0.13729	0.33004	0.081852	0.21801	0.097073	-3.0146	-2.6021	-3.0292	-3.3417	-2.6583	-3.4333	-3.1688	-2.9813	-3.4979	-2.9813	-3.2229	-3.1958	-2.4437	-3.2313	-2.9437	-2.675	164.303	225.601	331.796	272.813	60.746	294.102	304.024	305.116	87.601	166.663	174.132	327.943	318.172	5.735	-5.582	266.928	0.00013855	0.00057685	6.7694e-05	1112.3	1.27e-06	2.0278e-06	1200.9	226.11	1.6194e-06	2.6498e-06	286.28	79.928	63.46	18.519	2.8484e-06	25.367	0.00017553	0.00017517	4.8726e-05	1084.9	1.9641e-06	1.8715e-06	1178.2	224	1.8787e-06	1.8718e-06	283.15	79.818	63.213	18.586	1.9017e-06	25.672	102.026	68.181	15.348	-8.093	38.559	173.113	-8.193	-0.715	144.259	126.860	-1.229	5.610	6.157	12.896	88.169	12.842	-8191	255	
32063.346	1	1	0	0	0.14783	0.060445	0.16136	0.020531	0.068954	0.10152	0.087864	0.35409	0.45267	0.48923	0.16027	0.12189	0.073426	0.16512	0.12863	0.029288	-3.1896	-2.6125	-3.0417	-3.2354	-2.5542	-3.3229	-3.1229	-2.8438	-3.3583	-2.7021	-2.8563	-3.3125	-2.7313	-3.3667	-3.0229	-2.7313	250.014	244.885	107.870	202.430	270.870	243.163	306.881	330.287	208.153	-10.051	332.634	36.611	-7.827	323.210	91.939	84.605	0.0001961	0.00061327	0.00010269	1107.6	3.8353e-06	3.1414e-06	1202.8	226.99	7.2584e-07	2.3161e-06	289.11	79.898	63.717	18.598	2.4011e-06	25.418	0.00017432	0.00017976	4.7745e-05	1084.5	1.9314e-06	1.8226e-06	1179.5	224.19	1.8469e-06	1.8557e-06	283.82	79.701	63.167	18.632	1.8756e-06	25.614	91.140	93.610	54.260	-8.130	130.079	133.495	-8.121	-0.702	136.658	118.848	-0.992	5.784	6.086	12.824	111.910	12.493	-8191	255	
32063.465	1	1	0	0	0.31931	0.12743	0.30961	0.086681	0.16544	0.28892	0.21607	0.22073	0.15783	0.18867	0.29822	0.057448	0.064998	0.099929	0.15896	0.19745	-3.0354	-2.5646	-2.825	-3.4917	-2.4979	-3.175	-3.3292	-2.8208	-3.3	-2.7792	-2.8354	-3.4375	-2.6813	-3.1271	-3.2854	-2.7021	283.768	6.424	125.101	277.222	192.468	280.613	-8.719	90.858	27.972	65.687	303.593	118.531	307.201	118.169	285.133	261.652	0.00017911	0.00029284	0.00011483	1106.2	2.9173e-06	2.2847e-06	1199	224.99	1.8245e-06	1.5683e-06	285.45	79.95	62.85	18.376	2.6236e-06	25.745	0.0001784	0.00017545	4.7369e-05	1083.5	1.944e-06	1.8133e-06	1178.4	223.55	1.8962e-06	1.9237e-06	281.92	79.932	63.028	18.523	1.847e-06	25.732	105.937	61.777	62.194	-8.162	164.414	252.900	-7.941	-0.572	96.950	119.778	-0.699	5.714	6.135	13.144	98.771	12.663	-8191	255	
32063.535	1	1	0	0	0.17814	0.12659	0.33619	0.04344	0.22064	0.1189	0.33729	0.15673	0.26872	0.085422	0.12036	0.065144	0.049453	0.16302	0.13289	0.079271	-2.9208	-2.7313	-2.6229	-3.4604	-2.5542	-3.1	-3.3333	-2.6625	-3.2396	-2.9708	-2.7458	-3.3146	-2.6458	-2.95	-3.1958	-2.5083	287.232	130.552	153.806	11.926	210.690	94.188	292.454	306.894	1.807	8.261	329.503	216.295	139.259	248.988	96.328	262.285	0.00011831	0.00027414	5.4901e-05	1107.8	4.0327e-06	7.1635e-07	1203.9	226.95	1.8245e-06	1.7311e-06	286.17	80.111	63.346	18.479	3.1918e-06	25.51	0.00017707	0.00017458	4.772e-05	1085.5	1.862e-06	1.8458e-06	1181	224.36	1.808e-06	1.8278e-06	282.4	79.613	63.021	18.518	1.7454e-06	25.617	103.024	-4.288	94.885	-8.007	126.646	197.194	-8.140	-0.542	173.964	148.196	-0.810	5.747	6.247	13.227	127.975	12.269	-8191	255	
32063.633	1	1	0	0	0.2365	0.14351	0.11983	0.089301	0.17459	0.080874	0.27651	0.44222	0.030575	0.082771	0.31385	0.22008	0.43016	0.1325	0.29539	0.14187	-2.7375	-3.0187	-2.6458	-3.4688	-2.6646	-2.975	-3.4979	-2.7375	-3.1417	-2.9479	-2.7438	-3.3708	-2.7875	-2.8146	-3.4521	-2.6562	23.908	196.618	-2.773	261.300	2.936	178.973	286.348	279.469	89.753	173.095	294.629	-17.637	267.335	-8.556	326.178	36.406	0.00017205	0.00029036	0.00012549	1101.6	3.5245e-06	2.2446e-06	1197.3	225.31	1.8645e-06	4.9217e-06	287.24	79.995	63.188	18.343	2.8303e-06	25.272	0.0001605	0.000157	4.4131e-05	1078.8	1.7728e-06	1.6716e-06	1175.3	222.91	1.7262e-06	1.665e-06	282.36	79.654	62.742	18.474	1.699e-06	25.503	101.266	45.319	85.516	-8.540	77.458	92.781	-8.143	-0.620	135.519	105.481	-1.214	5.608	6.123	13.152	121.642	12.622	-8191	255	
32063.752	1	1	0	0	0.095631	0.15459	0.1159	0.30205	0.056217	0.11976	0.16629	0.11751	0.16016	0.047372	0.022207	0.20714	0.098005	0.11883	0.098339	0.28502	-2.8042	-3.0208	-2.5354	-3.4354	-2.8937	-2.7812	-3.5333	-2.75	-3.0687	-3.1354	-2.7542	-3.2521	-2.8208	-2.9125	-3.0938	-2.6146	166.423	304.511	24.801	177.486	64.042	187.691	330.296	71.374	253.233	203.394	334.187	294.730	-16.411	172.586	247.624	216.098	0.00018462	0.00063843	7.3853e-05	1103.9	2.8954e-06	1.6008e-06	1203.6	226.06	2.5777e-06	3.1179e-06	286.95	80.245	63.123	18.472	1.2279e-06	25.505	0.00016075	0.0001498	4.3625e-05	1078.8	1.7445e-06	1.6795e-06	1177.2	223.46	1.7194e-06	1.6865e-06	282.23	79.741	62.739	18.575	1.6913e-06	25.579	85.234	58.441	149.703	-8.069	148.893	320.132	-7.977	-0.519	176.385	129.832	-1.171	5.727	5.552	12.709	185.497	12.346	-8191	255	
32063.848	1	1	0	0	0.068568	0.06608	0.28843	0.24731	0.10758	0.14086	0.17948	0.2199	0.20008	0.12365	0.094295	0.16546	0.077559	0.10837	0.21482	0.11627	-2.5083	-3.1917	-2.5667	-3.4625	-2.8271	-2.8833	-3.4396	-2.7104	-2.9833	-3.2125	-2.7125	-3.3417	-2.9313	-2.7812	-3.2583	-2.8625	68.084	67.306	206.873	268.878	6.428	231.140	215.383	315.537	63.708	208.471	199.686	220.039	97.273	261.719	301.687	-10.528	0.00020283	0.00030947	2.4677e-05	1108.3	2.4421e-06	2.9184e-06	1198.9	226.77	1.6483e-06	4.2821e-06	285.16	79.464	63.113	18.391	5.2654e-06	25.591	0.00016927	0.00016394	4.5636e-05	1082.6	1.959e-06	1.8274e-06	1178.3	223.87	1.9598e-06	1.894e-06	282.19	79.81	63.025	18.597	2.0004e-06	25.677	100.670	122.903	82.251	-8.238	135.416	124.547	-8.011	-0.833	278.684	124.906	-1.168	5.550	5.339	13.165	119.636	11.888	-8191	255	
32063.943	1	1	0	0	0.094744	0.11909	0.20302	0.22275	0.29296	0.1876	0.20329	0.16497	0.23224	0.15802	0.11702	0.13868	0.097974	0.30021	0.14161	0.080988	-2.3958	-3.275	-2.5792	-3.3646	-2.9813	-2.6792	-3.5875	-2.9083	-2.9	-3.2667	-2.5396	-3.1625	-3.0458	-2.5396	-3.4125	-2.7667	172.502	-18.764	240.554	327.651	87.665	247.401	256.466	93.171	239.961	217.792	321.770	290.762	61.564	328.805	242.673	183.660	0.00018457	0.00028582	0.00011263	1111.6	3.5369e-06	4.5742e-06	1203.6	225.66	3.3611e-06	2.5842e-06	288.07	80.13	63.18	18.551	3.4397e-06	25.136	0.00018487	0.00018197	5.0266e-05	1086.1	2.0271e-06	1.9382e-06	1180.9	223.49	2.0109e-06	1.8859e-06	283.46	80.033	63.053	18.636	2.0592e-06	25.568	93.718	53.097	59.530	-8.565	164.863	156.422	-8.512	-1.434	98.540	202.985	-0.959	4.815	5.598	12.532	147.081	11.834	-8191	255	
32064.039	1	1	0	0	0.25687	0.15992	0.23058	0.18711	0.16515	0.079241	0.12	0.24164	0.22916	0.18983	0.36097	0.21538	0.21909	0.11959	0.078634	0.138	-2.4479	-3.3292	-2.6312	-3.4479	-3.0542	-2.5625	-3.4792	-2.95	-2.7583	-3.2938	-2.5979	-3.0687	-3.1125	-2.5625	-3.3708	-3.0812	220.782	169.592	273.978	293.349	59.208	208.295	72.248	287.727	182.943	-8.894	263.084	258.136	280.066	-14.432	78.929	70.582	0.00017081	0.00024718	4.8779e-05	1114.4	3.0157e-07	3.317e-06	1203.2	224.81	9.2804e-07	2.3495e-06	286.79	80.422	63.557	18.51	3.8702e-06	25.792	0.00018831	0.00018912	5.1943e-05	1087.4	2.1032e-06	2.039e-06	1183.6	223.66	2.1059e-06	2.0561e-06	283.06	80.123	63.213	18.671	2.1063e-06	25.872	95.375	32.149	64.592	-8.632	131.003	167.691	-8.544	-1.015	111.906	189.116	-1.730	5.167	5.770	12.840	131.178	11.816	-8191	255	
32064.137	1	1	0	0	0.23365	0.060915	0.17844	0.15972	0.18311	0.11012	0.076275	0.14956	0.017632	0.17223	0.38492	0.12301	0.18813	0.20637	0.086374	0.34252	-2.525	-3.2479	-2.5938	-3.0708	-3.1479	-2.5083	-3.5396	-2.9292	-2.5729	-3.2333	-2.7333	-2.9917	-3.3354	-2.7083	-3.2458	-3.0979	250.712	240.546	210.828	286.625	6.901	304.062	175.209	167.502	43.314	269.607	269.135	330.545	177.860	269.901	158.068	205.497	0.00019192	0.00030639	0.00011869	1110.4	2.8159e-06	4.3788e-06	1199.6	226.9	1.3304e-06	3.3609e-06	288.34	79.753	63.382	18.529	4.2085e-06	25.429	0.0001941	0.00018802	5.4437e-05	1087.5	2.1728e-06	2.099e-06	1183	224.65	2.091e-06	2.1431e-06	284.05	79.975	63.272	18.688	2.1076e-06	25.653	110.591	24.578	84.521	-8.692	94.845	93.631	-8.590	-1.205	137.481	136.577	-1.478	4.917	5.379	12.312	148.528	12.148	-8191	255	
32064.232	1	1	0	0	0.2001	0.08511	0.1616	0.058236	0.13887	0.061934	0.29809	0.1537	0.13369	0.17202	0.11057	0.35919	0.28468	0.065218	0.17929	0.11199	-2.4125	-3.275	-2.8396	-2.9896	-3.2938	-2.7083	-3.2313	-3.0646	-2.4979	-3.2958	-2.6625	-2.9417	-3.3458	-2.5729	-3.075	-3.0875	224.976	245.823	317.557	332.042	26.584	151.097	296.340	287.688	244.139	-12.111	255.397	291.754	217.196	307.733	309.986	304.797	0.00019297	0.00033323	6.518e-05	1112	7.9782e-07	2.4454e-06	1204.7	227.3	7.9885e-07	2.6067e-06	285.44	80.5	64.161	18.537	2.2309e-06	25.359	0.00018984	0.0001874	5.0973e-05	1087.9	2.123e-06	2.0383e-06	1183.5	224.34	2.0795e-06	2.0287e-06	283.45	80.157	63.566	18.655	2.0533e-06	25.685	108.489	138.096	92.360	-8.721	203.386	187.705	-8.403	-1.110	158.682	135.127	-2.057	5.194	5.651	12.609	173.009	12.328	-8191	255	
32064.328	1	1	0	0	0.17862	0.14337	0.38997	0.21998	0.10267	0.17857	0.097303	0.24276	0.2042	0.18027	0.16709	0.16842	0.095156	0.21858	0.31897	0.3145	-2.2167	-3.2646	-2.6562	-2.8354	-3.2167	-2.6521	-3.2562	-3.2396	-2.5583	-3.3125	-2.9167	-2.8812	-3.4021	-2.5771	-2.9125	-3.4938	239.880	255.540	256.155	276.600	213.676	241.142	87.913	230.045	111.540	-7.163	249.701	266.954	209.345	326.463	187.837	253.144	0.00021531	0.00042536	0.00010957	1112.1	3.4006e-06	1.9e-06	1206.4	227.81	1.7885e-06	4.3581e-06	286.9	80.444	63.54	18.569	1.8185e-06	25.465	0.00019187	0.00018304	5.2863e-05	1089	2.059e-06	2.0455e-06	1184.1	224.68	2.0068e-06	1.9428e-06	282.97	79.982	63.395	18.643	2.0284e-06	25.678	88.372	15.221	67.368	-8.714	146.100	131.131	-8.502	-1.103	158.960	124.921	-1.682	5.121	5.327	11.889	106.530	11.923	-8191	255	
32064.426	1	1	0	0	0.26475	0.070213	0.060758	0.09284	0.059281	0.20561	0.33182	0.19918	0.24419	0.093201	0.16327	0.037799	0.10797	0.12152	0.078795	0.19225	-2.2208	-3.35	-3.0125	-2.9688	-3.4167	-2.7	-3.1729	-3.4229	-2.375	-3.3042	-2.9583	-2.5062	-3.4375	-2.775	-2.8708	-3.3167	191.122	117.760	276.096	-3.110	291.778	109.744	276.579	258.389	208.120	268.651	198.118	244.804	237.598	146.284	304.756	73.438	0.00015045	0.0005026	0.00010311	1115.5	1.3102e-06	5.0966e-06	1204	225.95	1.1715e-06	5.7861e-06	285.3	79.439	63.6	18.472	1.3434e-06	25.6	0.0001846	0.00018318	5.2892e-05	1088.9	2.0739e-06	2.0911e-06	1183.3	224.15	2.1284e-06	2.0325e-06	282.79	79.968	63.392	18.654	2.0555e-06	25.819	98.275	79.498	56.039	-8.666	165.182	129.755	-8.652	-1.086	105.790	136.694	-2.080	5.161	5.767	12.718	95.586	11.431	-8191	255	
32064.545	1	1	0	0	0.21671	0.10235	0.28627	0.22941	0.12175	0.11222	0.13826	0.071526	0.0094342	0.033	0.15847	0.2195	0.35849	0.25693	0.064316	0.041344	-1.9646	-3.1188	-3.0521	-2.6125	-3.3792	-2.9104	-2.8417	-3.2667	-2.5708	-3.025	-3.4	-2.4833	-3.5104	-2.8625	-2.7938	-3.5292	-7.866	80.290	161.333	327.864	157.879	193.757	266.763	49.039	178.962	231.581	125.753	250.582	182.703	310.169	326.227	-10.446	0.00015132	0.00039691	3.799e-05	1111.8	1.4895e-06	1.994e-06	1206.2	227.28	2.0077e-06	3.6796e-06	285.77	79.806	63.27	18.617	3.9885e-06	25.513	0.0001911	0.00018762	5.1959e-05	1088.7	2.0067e-06	2.0903e-06	1184.5	224.5	2.0813e-06	2.0245e-06	283.08	80.034	63.27	18.707	2.1049e-06	25.676	127.340	66.431	91.179	-8.667	111.764	165.189	-8.388	-1.062	132.067	130.735	-1.439	5.571	5.241	12.678	122.664	12.154	-8191	255	
32064.641	1	1	0	0	0.21987	0.24326	0.094988	0.091749	0.071329	0.026914	0.14647	0.057891	0.14623	0.18149	0.20844	0.070642	0.20545	0.047803	0.07155	0.21079	-2.2938	-2.8542	-3.075	-2.5208	-3.2542	-2.9333	-2.9437	-3.3729	-2.6688	-2.9271	-3.3646	-2.6813	-3.4833	-3.0958	-2.7333	-3.4333	107.107	285.576	148.090	75.983	216.833	271.710	290.607	257.560	163.121	223.503	308.544	1.847	-9.035	123.687	84.432	298.561	0.0001393	0.00051991	0.00013014	1113.9	2.8408e-06	4.074e-06	1213.5	226.48	3.6051e-06	3.6883e-06	288	80.229	63.751	18.412	2.0616e-06	25.705	0.00019568	0.00018573	5.4618e-05	1088.9	2.1459e-06	2.0447e-06	1186.1	224.38	2.1579e-06	2.0584e-06	283.68	80.147	63.347	18.666	2.1403e-06	25.742	92.651	75.051	87.963	-8.781	116.373	131.612	-8.424	-1.044	114.816	123.977	-1.681	5.070	5.479	12.447	161.561	11.940	-8191	255	
32064.736	1	1	0	0	0.21998	0.30608	0.23532	0.21515	0.16314	0.15443	0.32406	0.22045	0.10601	0.040409	0.10333	0.2289	0.29172	0.214	0.26468	0.14832	-2.3688	-3.0625	-3.3104	-2.7125	-3.25	-2.9417	-2.8083	-3.5792	-2.7542	-2.8896	-3.2479	-2.4917	-3.3812	-3.0542	-2.775	-3.4375	227.179	-19.270	-17.694	288.194	0.760	302.067	264.484	323.190	202.284	327.965	187.616	289.227	71.613	85.773	204.762	224.768	0.00019188	0.00019402	0.00013144	1107.8	1.4703e-06	4.7106e-06	1205.6	226.64	1.4604e-06	4.8648e-06	287.98	80.012	63.379	18.431	6.78e-07	25.71	0.00019458	0.00019369	5.174e-05	1086.5	2.1409e-06	2.0366e-06	1184.6	224.44	2.1196e-06	2.0943e-06	283.68	80.042	63.28	18.639	2.1086e-06	25.785	94.611	105.939	122.907	-8.455	136.484	79.784	-8.321	-1.424	108.278	154.252	-1.585	5.499	5.654	12.215	93.534	11.925	-8191	255	
32064.832	1	1	0	0	0.29297	0.081301	0.39144	0.28193	0.19461	0.14933	0.34463	0.31866	0.05194	0.21129	0.14394	0.21427	0.17766	0.072323	0.06942	0.099474	-2.3	-2.8312	-3.3917	-2.9583	-3.2313	-3.1188	-2.825	-3.5104	-2.9417	-2.9562	-3.5521	-2.6104	-3.2542	-3.2167	-2.5354	-3.3021	117.047	209.719	142.413	254.242	249.044	5.928	310.141	308.957	180.917	334.658	326.245	46.316	-4.300	67.930	-14.211	192.099	0.00023098	0.0002211	5.1763e-05	1111	1.3973e-06	3.8968e-06	1202.8	227.17	3.0632e-06	2.8013e-06	287.58	80.138	63.533	18.589	1.3053e-06	25.638	0.00020035	0.00019371	5.3607e-05	1090	2.2043e-06	2.1558e-06	1183.3	224.74	2.2015e-06	2.1394e-06	283.32	80.176	63.519	18.684	2.2143e-06	25.798	100.711	106.685	279.192	-8.544	153.339	175.729	-8.432	-1.079	154.622	202.394	-1.222	5.268	5.502	12.402	40.313	11.720	-8191	255	
32064.930	1	1	0	0	0.031308	0.21065	0.085311	0.24709	0.27879	0.094983	0.42626	0.19842	0.22011	0.11841	0.20523	0.14037	0.16343	0.14815	0.33437	0.17313	-2.3083	-2.75	-3.3458	-2.6896	-3.1271	-3.2625	-2.6771	-3.2979	-2.9062	-2.7417	-3.4938	-2.7062	-3.1	-3.375	-2.675	-3.4333	45.719	289.221	204.660	272.785	258.819	313.384	275.767	269.573	96.175	59.308	306.738	170.479	121.508	123.778	176.904	281.531	0.00018167	0.00024366	0.00013451	1111.3	1.167e-06	2.8279e-06	1201.7	227.55	1.9278e-06	4.4897e-06	286.06	79.596	63.706	18.556	1.2359e-06	25.601	0.00020021	0.00019546	5.3462e-05	1090	2.2326e-06	2.1466e-06	1183.5	224.96	2.1723e-06	2.1572e-06	283.48	79.89	63.543	18.753	2.1959e-06	25.841	104.150	136.533	50.257	-8.583	192.723	110.367	-8.537	-1.075	57.648	130.601	-1.581	5.149	5.794	12.778	165.951	11.942	-8191	255	
32065.025	1	1	0	0	0.065128	0.32409	0.15361	0.24577	0.17533	0.029068	0.24567	0.15188	0.070159	0.19148	0.35999	0.10452	0.12555	0.1144	0.24753	0.096182	-2.6854	-2.5563	-3.3563	-2.8229	-2.8625	-3.35	-2.9	-3.2708	-3.1958	-2.7292	-3.3771	-2.9979	-3.0104	-3.3438	-2.6667	-3.2042	16.840	60.743	333.830	304.094	36.266	-4.213	227.288	186.725	282.590	91.551	256.514	244.168	277.496	70.834	120.687	268.417	0.00022501	0.00033095	8.7891e-05	1113.5	1.7335e-06	1.7392e-06	1206.3	227.14	2.6446e-06	1.454e-06	290.29	80.716	63.701	18.564	3.1693e-06	25.499	0.00020549	0.00020111	5.4016e-05	1090.5	2.2343e-06	2.135e-06	1185.9	224.98	2.185e-06	2.2104e-06	285.19	80.366	63.635	18.689	2.1614e-06	25.721	102.572	112.283	63.407	-8.529	120.095	230.952	-8.484	-1.164	106.960	75.074	-1.557	5.197	5.408	13.249	179.412	12.710	-8191	255	
32065.145	1	1	0	0	0.22791	0.33062	0.32029	0.13976	0.076496	0.098919	0.3224	0.18586	0.1116	0.21302	0.34663	0.28385	0.163	0.040299	0.12859	0.040514	-2.7292	-2.4792	-3.2354	-2.8771	-2.7833	-3.3417	-2.6188	-3.1667	-3.0896	-2.6104	-3.3729	-3.0708	-2.7833	-3.2396	-2.6292	-3.0833	50.595	-16.634	146.584	322.870	233.657	174.554	-10.345	286.856	5.440	320.657	266.775	329.608	314.404	210.490	207.371	119.859	0.00013516	0.00041989	6.7544e-05	1115.5	1.0607e-06	2.0185e-06	1205	228.03	3.4615e-07	7.8686e-06	286.91	80.757	63.117	18.725	2.0765e-06	25.642	0.00020069	0.00020541	5.5338e-05	1091.6	2.2136e-06	2.1453e-06	1185.7	225.19	2.2229e-06	2.2187e-06	284.83	80.441	63.375	18.788	2.2673e-06	25.907	97.094	36.819	108.122	-8.682	177.769	82.180	-8.350	-0.786	162.696	116.558	-1.086	5.529	6.104	12.892	153.416	11.788	-8191	255	
32065.240	1	1	0	0	0.30278	0.23202	0.25191	0.18902	0.096478	0.2641	0.048757	0.17192	0.24413	0.099625	0.096334	0.12983	0.096475	0.093253	0.098525	0.12316	-2.8021	-2.4167	-3.2313	-3.0417	-2.4437	-3.3937	-2.9604	-3.1167	-3.3187	-2.7458	-3.3646	-3.0375	-2.7146	-3.3521	-2.7479	-2.8208	308.709	59.384	150.314	296.253	258.122	335.705	23.608	-18.471	31.052	278.449	317.791	321.831	100.610	142.662	67.218	209.695	0.00011833	0.00040456	9.6266e-05	1119.1	3.0666e-06	1.6286e-06	1205.9	227.8	1.6384e-06	3.6827e-06	286.9	79.815	63.648	18.634	2.1254e-06	25.673	0.00020725	0.00020265	5.5898e-05	1090.9	2.3021e-06	2.2384e-06	1184.9	225.47	2.29e-06	2.213e-06	284.41	80.159	63.528	18.768	2.246e-06	25.89	93.855	90.995	85.767	-8.552	172.147	308.771	-8.408	-0.783	126.800	91.002	-1.088	5.094	5.996	12.672	197.814	11.957	-8191	255	
32065.338	1	1	0	0	0.038552	0.13366	0.16165	0.26274	0.12891	0.18403	0.18236	0.05626	0.19072	0.088968	0.32432	0.039795	0.023898	0.13174	0.062285	0.17573	-2.9604	-2.4979	-3.1937	-3.2417	-2.7208	-3.4042	-3.0396	-2.8021	-3.2771	-2.7167	-3.2146	-3.2	-2.6437	-3.3292	-2.8521	-2.6813	43.475	120.131	139.751	236.211	43.425	78.383	339.033	107.379	123.323	212.180	286.129	123.255	152.149	100.920	152.426	33.527	0.00017598	0.000426	4.9896e-05	1119.8	2.8902e-06	5.2564e-06	1210.1	227.38	1.5424e-06	3.1303e-06	288.56	80.36	63.483	18.554	2.7645e-06	25.523	0.00020977	0.00020372	5.5877e-05	1092	2.2632e-06	2.2556e-06	1185.2	225.37	2.1639e-06	2.1946e-06	284.23	80.402	63.318	18.733	2.1913e-06	25.84	102.494	6.058	31.806	-8.572	150.443	107.362	-8.192	-0.797	148.546	177.566	-0.880	5.568	5.867	13.050	177.398	12.512	-8191	255	
32065.432	1	1	0	0	0.068502	0.11376	0.15079	0.40164	0.1476	0.095617	0.23739	0.049202	0.095097	0.21996	0.22094	0.23	0.24367	0.12928	0.1257	0.14745	-2.9313	-2.5729	-3.3021	-3.2667	-2.6271	-3.2438	-3.0208	-2.6562	-3.3292	-2.6542	-3	-3.2042	-2.7083	-3.2396	-2.8688	-2.8104	44.400	308.076	289.356	262.509	202.142	304.580	339.287	206.995	46.261	83.003	265.663	-1.917	37.174	-11.857	188.151	232.862	0.00017204	0.00042298	8.4326e-05	1116.3	2.239e-06	1.5096e-06	1206.1	227.83	1.6096e-06	2.1446e-06	288.26	80.396	63.894	18.696	4.8304e-06	25.628	0.00020823	0.00020437	5.4575e-05	1092.1	2.2732e-06	2.218e-06	1187.2	225.48	2.1627e-06	2.1774e-06	284.1	80.465	63.629	18.76	2.1228e-06	25.824	94.607	112.069	12.863	-8.124	163.721	15.319	-8.246	-0.720	184.755	185.524	-0.907	5.506	5.987	13.213	68.904	12.016	-8191	255	
#DATA ENDS
