BOXY.EXE: ISS Imagent and Oximeter Data Acquisition Program Version 0.80
Ascii Record File

#ACQ INFORMATION
2  Detector Channels 
16  External MUX Channels 
1  Auxiliary Channels 
5000  Waveform (CCF) Frequency (Hz)
1  Waveforms Skipped 
30  Waveforms Averaged 
1  Cycles Averaged 
16  Acquisitions per Waveform 
10.0806  Updata Rate (Hz) 

#FILE INFORMATION
TRUE -- External MUX Channel results are PARSED.
FALSE -- AC DC and Phase are NOT grouped.
TRUE -- Companion Program Settings File CREATED.
FALSE -- AC data not excluded
FALSE -- DC data not excluded
FALSE -- Phase data not excluded
FALSE -- Auxillary Chn. data not excluded
Tab delimiters

#CALIBRATION STATE
TRUE -- Waveform Calibration Values APPLIED.


#AUX CALIBRATION VALUES
Val Type	aux-1	

Term	1.0000e+00	
Factor	0.0000e+00	


#WF CALIBRATION VALUES
A = Detector Channel
Val Type	A-AC1	A-AC2	A-AC3	A-AC4	A-AC5	A-AC6	A-AC7	A-AC8	A-AC9	A-AC10	A-AC11	A-AC12	A-AC13	A-AC14	A-AC15	A-AC16	A-DC1	A-DC2	A-DC3	A-DC4	A-DC5	A-DC6	A-DC7	A-DC8	A-DC9	A-DC10	A-DC11	A-DC12	A-DC13	A-DC14	A-DC15	A-DC16	A-Ph1	A-Ph2	A-Ph3	A-Ph4	A-Ph5	A-Ph6	A-Ph7	A-Ph8	A-Ph9	A-Ph10	A-Ph11	A-Ph12	A-Ph13	A-Ph14	A-Ph15	A-Ph16	

Term	0.00000e+00	0.00000e+00	0.00000e+00	0.00000e+00	0.00000e+00	0.00000e+00	0.00000e+00	0.00000e+00	0.00000e+00	0.00000e+00	0.00000e+00	0.00000e+00	0.00000e+00	0.00000e+00	0.00000e+00	0.00000e+00	0.00000e+00	0.00000e+00	0.00000e+00	0.00000e+00	0.00000e+00	0.00000e+00	0.00000e+00	0.00000e+00	0.00000e+00	0.00000e+00	0.00000e+00	0.00000e+00	0.00000e+00	0.00000e+00	0.00000e+00	0.00000e+00	0.00000e+00	0.00000e+00	0.00000e+00	0.00000e+00	0.00000e+00	0.00000e+00	0.00000e+00	0.00000e+00	0.00000e+00	0.00000e+00	0.00000e+00	0.00000e+00	0.00000e+00	0.00000e+00	0.00000e+00	0.00000e+00	
Factor	1.00000e+00	1.00000e+00	1.00000e+00	1.00000e+00	1.00000e+00	1.00000e+00	1.00000e+00	1.00000e+00	1.00000e+00	1.00000e+00	1.00000e+00	1.00000e+00	1.00000e+00	1.00000e+00	1.00000e+00	1.00000e+00	1.00000e+00	1.00000e+00	1.00000e+00	1.00000e+00	1.00000e+00	1.00000e+00	1.00000e+00	1.00000e+00	1.00000e+00	1.00000e+00	1.00000e+00	1.00000e+00	1.00000e+00	1.00000e+00	1.00000e+00	1.00000e+00	X	X	X	X	X	X	X	X	X	X	X	X	X	X	X	X	

B = Detector Channel
Val Type	B-AC1	B-AC2	B-AC3	B-AC4	B-AC5	B-AC6	B-AC7	B-AC8	B-AC9	B-AC10	B-AC11	B-AC12	B-AC13	B-AC14	B-AC15	B-AC16	B-DC1	B-DC2	B-DC3	B-DC4	B-DC5	B-DC6	B-DC7	B-DC8	B-DC9	B-DC10	B-DC11	B-DC12	B-DC13	B-DC14	B-DC15	B-DC16	B-Ph1	B-Ph2	B-Ph3	B-Ph4	B-Ph5	B-Ph6	B-Ph7	B-Ph8	B-Ph9	B-Ph10	B-Ph11	B-Ph12	B-Ph13	B-Ph14	B-Ph15	B-Ph16	

Term	0.00000e+00	0.00000e+00	0.00000e+00	0.00000e+00	0.00000e+00	0.00000e+00	0.00000e+00	0.00000e+00	0.00000e+00	0.00000e+00	0.00000e+00	0.00000e+00	0.00000e+00	0.00000e+00	0.00000e+00	0.00000e+00	0.00000e+00	0.00000e+00	0.00000e+00	0.00000e+00	0.00000e+00	0.00000e+00	0.00000e+00	0.00000e+00	0.00000e+00	0.00000e+00	0.00000e+00	0.00000e+00	0.00000e+00	0.00000e+00	0.00000e+00	0.00000e+00	-1.65560e+02	-1.26939e+02	-1.30200e+02	-1.83531e+02	-7.95580e+01	-6.23298e+01	-1.55913e+02	-1.62015e+02	-8.00935e+01	-6.99222e+01	-1.69783e+02	-1.70754e+02	-1.79463e+02	-1.76415e+02	-7.83609e+01	-1.49214e+02	
Factor	2.59736e-05	1.59396e-04	3.76247e-05	1.70707e-01	1.04767e-06	1.40068e-06	1.50441e-01	4.85057e-02	9.61463e-07	1.40745e-06	8.22453e-02	2.84523e-02	2.38378e-02	8.71675e-03	1.43886e-06	1.23208e-02	3.02569e-06	3.31224e-06	9.20197e-07	9.14355e-02	3.58392e-08	3.62363e-08	7.61070e-02	2.61631e-02	3.57514e-08	3.62322e-08	4.28669e-02	1.48528e-02	1.29378e-02	4.71403e-03	3.60000e-08	6.45373e-03	X	X	X	X	X	X	X	X	X	X	X	X	X	X	X	X	



#DISTANCE SETTINGS
A = Detector Channel
A-1	A-2	A-3	A-4	A-5	A-6	A-7	A-8	A-9	A-10	A-11	A-12	A-13	A-14	A-15	A-16	

2.5000e+00	3.0000e+00	2.5000e+00	3.0000e+00	2.0000e+00	3.0000e+00	1.5000e+00	3.0000e+00	3.0000e+00	3.0000e+00	3.0000e+00	3.0000e+00	3.0000e+00	3.0000e+00	1.5000e+00	3.0000e+00	

B = Detector Channel
B-1	B-2	B-3	B-4	B-5	B-6	B-7	B-8	B-9	B-10	B-11	B-12	B-13	B-14	B-15	B-16	

1.0000e+01	1.0000e+01	1.0000e+01	1.4400e+00	1.0000e+01	1.0000e+01	1.5100e+00	1.9400e+00	1.0000e+01	1.0000e+01	1.9900e+00	2.4900e+00	2.4100e+00	2.9000e+00	1.0000e+01	2.9800e+00	




#DATA BEGINS
time	group	step	mark	flag	A-AC1	A-AC2	A-AC3	A-AC4	A-AC5	A-AC6	A-AC7	A-AC8	A-AC9	A-AC10	A-AC11	A-AC12	A-AC13	A-AC14	A-AC15	A-AC16	A-DC1	A-DC2	A-DC3	A-DC4	A-DC5	A-DC6	A-DC7	A-DC8	A-DC9	A-DC10	A-DC11	A-DC12	A-DC13	A-DC14	A-DC15	A-DC16	A-Ph1	A-Ph2	A-Ph3	A-Ph4	A-Ph5	A-Ph6	A-Ph7	A-Ph8	A-Ph9	A-Ph10	A-Ph11	A-Ph12	A-Ph13	A-Ph14	A-Ph15	A-Ph16	B-AC1	B-AC2	B-AC3	B-AC4	B-AC5	B-AC6	B-AC7	B-AC8	B-AC9	B-AC10	B-AC11	B-AC12	B-AC13	B-AC14	B-AC15	B-AC16	B-DC1	B-DC2	B-DC3	B-DC4	B-DC5	B-DC6	B-DC7	B-DC8	B-DC9	B-DC10	B-DC11	B-DC12	B-DC13	B-DC14	B-DC15	B-DC16	B-Ph1	B-Ph2	B-Ph3	B-Ph4	B-Ph5	B-Ph6	B-Ph7	B-Ph8	B-Ph9	B-Ph10	B-Ph11	B-Ph12	B-Ph13	B-Ph14	B-Ph15	B-Ph16	aux-1	digaux	

32423.783	1	1	0	512	0.2148	0.099293	0.17022	0.14411	0.16387	0.15742	0.19801	0.11772	0.16236	0.033255	0.12593	0.24347	0.35136	0.13127	0.0087466	0.1937	-2.1979	-3.3563	-2.6146	-2.9521	-3.2125	-2.5104	-3.4271	-3.1208	-2.6354	-3.2417	-2.6562	-2.8042	-3.4188	-2.5958	-3.1792	-3.2042	204.292	-9.522	47.971	291.773	99.731	236.088	-5.831	157.217	267.880	175.994	294.491	250.486	-49.674	-4.697	18.141	208.712	0.00028996	0.00090081	0.00023805	807.51	2.8471e-06	1.0013e-05	1109.7	288.13	2.9656e-06	3.5506e-06	420.1	175.54	126.56	52.712	4.1539e-06	81.762	0.001398	0.0014874	0.00041196	745.47	1.6132e-05	1.6137e-05	1015	265.21	1.5976e-05	1.6047e-05	387.4	161.69	117.18	48.783	1.6275e-05	75.122	108.582	123.880	214.499	-43.522	74.226	153.037	-43.635	-39.153	171.128	-34.677	-40.402	-37.098	-35.304	-31.411	139.200	-33.940	-8191	255	
32423.904	1	1	0	0	0.32667	0.17767	0.15741	0.013008	0.1306	0.18583	0.29401	0.11986	0.051502	0.10167	0.15529	0.43802	0.27725	0.21294	0.26485	0.23066	-2.025	-3.2042	-2.9229	-2.7792	-3.3312	-2.5292	-3.2542	-3.2146	-2.3438	-3.4146	-3.0542	-2.7917	-3.3521	-2.7042	-2.95	-3.3271	19.906	246.037	14.741	38.916	120.395	24.190	290.289	300.127	266.614	138.299	296.439	274.128	296.983	16.986	17.194	233.303	0.00027562	0.0015405	0.00018562	801.46	1.2925e-05	3.7202e-06	1113.2	287.59	8.0455e-06	1.2385e-05	422.4	174.56	126.09	53.354	5.3429e-06	82.089	0.0014129	0.0015033	0.00042089	744.1	1.6321e-05	1.6322e-05	1016.2	265.08	1.6444e-05	1.6353e-05	389.32	161.58	116.87	49.09	1.6319e-05	75.462	62.831	65.004	-7.988	-43.004	83.238	105.200	-43.376	-39.085	186.218	85.806	-41.004	-37.256	-35.240	-31.217	98.802	-33.919	-8191	255	
32423.977	1	1	0	0	0.038388	0.2027	0.14773	0.11982	0.14133	0.11182	0.19682	0.18869	0.060434	0.2545	0.35354	0.079027	0.24696	0.27887	0.25482	0.20485	-2.1312	-3.3021	-2.8563	-2.9146	-3.3646	-2.6792	-3.1042	-3.425	-2.675	-3.2687	-3.0563	-2.9708	-3.4375	-2.9396	-2.8563	-3.2708	31.345	157.544	72.178	95.627	257.792	213.716	237.238	291.268	-5.772	218.819	244.670	211.497	290.217	91.713	260.305	227.080	0.00026876	0.00098872	0.00012072	801.44	9.7419e-06	1.2475e-05	1114.1	289.31	6.9322e-06	4.2255e-06	425.08	177.26	126.04	53.625	1.1183e-05	82.24	0.0014192	0.0014844	0.00041678	745.73	1.6178e-05	1.634e-05	1019	266.6	1.6167e-05	1.6411e-05	391.18	162.88	117.04	49.215	1.6328e-05	75.379	132.111	74.577	153.821	-43.475	64.934	71.096	-43.662	-38.932	152.700	175.949	-40.820	-37.075	-35.515	-31.429	103.453	-33.681	-8191	255	
32424.098	1	1	0	0	0.053998	0.027887	0.16566	0.10018	0.05856	0.31196	0.14671	0.11321	0.10135	0.18209	0.13683	0.11145	0.37686	0.1101	0.28535	0.33686	-2.1604	-3.2083	-3.0833	-2.5625	-3.4188	-2.6063	-2.9521	-3.4125	-2.55	-3.1479	-3.1479	-2.7188	-3.4	-2.9375	-2.6958	-3.3708	74.812	-3.806	-17.317	241.398	-31.315	109.877	270.990	194.874	137.814	44.425	-26.200	-32.565	-36.377	19.457	211.271	246.077	0.00039247	0.0012037	0.00023826	806.54	6.4517e-06	1.2846e-05	1117.8	290.63	6.0719e-06	8.6665e-06	421.25	177.79	126.5	53.595	4.7705e-06	82.333	0.0014062	0.0014988	0.00041866	749.85	1.6357e-05	1.6448e-05	1017.6	267.68	1.6228e-05	1.6357e-05	389.84	163.04	117.21	49.238	1.6537e-05	75.326	113.876	20.953	258.478	-43.226	96.816	40.043	-43.723	-38.879	47.765	-41.907	-40.684	-37.040	-35.142	-31.043	-0.275	-33.945	-8191	255	
32424.191	1	1	0	0	0.15543	0.19284	0.074427	0.029175	0.30524	0.22203	0.22346	0.019222	0.17492	0.065565	0.10469	0.094621	0.45202	0.14334	0.22876	0.19984	-2.275	-3.0062	-3.1562	-2.5938	-3.4104	-2.8583	-2.6833	-3.3521	-2.4021	-2.9792	-3.1667	-2.6292	-3.2542	-3.0521	-2.6521	-3.3979	-14.363	281.406	165.297	18.394	4.680	150.423	-44.665	-17.854	172.154	259.337	-48.099	97.650	268.374	227.847	-19.207	-18.205	0.00013497	0.00036562	0.00014528	805.9	4.4681e-06	8.7651e-06	1119.6	288.97	1.2428e-05	6.5675e-06	422.96	177.57	127.14	53.454	1.61e-05	81.795	0.0013984	0.0014757	0.0004151	748.04	1.6184e-05	1.6542e-05	1022.1	267.38	1.6055e-05	1.646e-05	390.54	163.4	117.74	49.325	1.6335e-05	75.384	90.478	33.534	-13.366	-43.003	241.170	170.378	-43.931	-39.001	11.372	39.977	-40.769	-37.295	-35.227	-31.153	-30.216	-33.978	-8191	255	
32424.287	1	1	0	0	0.051771	0.22924	0.27212	0.37861	0.2875	0.17555	0.1821	0.19012	0.13028	0.24741	0.13359	0.22585	0.12777	0.15536	0.22477	0.1362	-2.1813	-2.8937	-3.0687	-2.4771	-3.2146	-2.9062	-2.5521	-3.6708	-2.7854	-2.9208	-3.3396	-2.6875	-3.2646	-3.1646	-2.6042	-3.3042	52.905	274.787	27.653	258.624	224.550	212.612	298.587	212.258	41.453	161.503	228.970	275.748	214.183	297.787	267.475	-49.306	0.00043359	0.00091795	0.00025011	810.94	1.2872e-05	3.7583e-06	1120.2	292.45	1.275e-05	7.6719e-06	426.51	177.67	127.28	53.743	2.1029e-05	82.584	0.001409	0.0015009	0.000419	749.51	1.5946e-05	1.6508e-05	1021.7	269.47	1.6164e-05	1.6366e-05	392.24	163.95	118.38	49.508	1.6191e-05	75.949	81.045	200.430	28.178	-43.463	67.490	53.562	-43.722	-38.958	40.542	130.368	-40.639	-37.213	-34.869	-31.539	143.891	-33.785	-8191	255	
32424.385	1	1	0	0	0.1723	0.13638	0.053323	0.22711	0.24298	0.049738	0.23081	0.40353	0.11664	0.018593	0.1349	0.079617	0.22358	0.25249	0.21412	0.074995	-2.3937	-2.8875	-3.1229	-2.5292	-2.9958	-3.0896	-2.5833	-3.2771	-2.7854	-2.7083	-3.4604	-2.5187	-3.1021	-3.2604	-2.3583	-3.3187	248.588	14.694	102.073	226.267	-52.197	239.355	202.910	-26.786	-0.739	-4.038	211.473	-30.709	-35.197	240.615	65.671	288.844	0.00052202	0.00043254	0.00020546	816.4	9.6336e-06	6.477e-06	1125.6	293.81	1.354e-06	8.1019e-06	428.85	177.97	127.33	53.826	3.1331e-06	82.538	0.0014088	0.0015159	0.00041447	754	1.6175e-05	1.6416e-05	1027.1	270.43	1.6299e-05	1.6222e-05	394.67	163.56	118.48	49.57	1.6098e-05	75.835	118.919	11.635	31.354	-43.638	-1.443	171.269	-43.763	-38.849	212.062	209.016	-40.837	-37.467	-35.462	-31.852	177.083	-33.817	-8191	255	
32424.504	1	1	0	0	0.24369	0.17631	0.077762	0.12387	0.21187	0.11327	0.2922	0.38975	0.050379	0.0801	0.32724	0.27828	0.29096	0.18901	0.28531	0.27965	-2.3083	-2.7313	-3.25	-2.7083	-2.925	-3.1937	-2.9333	-3.3208	-2.8271	-2.7167	-3.4771	-2.8292	-2.9062	-3.3688	-2.4375	-3.2667	294.458	141.384	41.696	298.749	147.945	188.183	229.899	192.267	-25.075	16.516	-56.919	183.201	270.786	264.577	156.857	223.695	0.00017714	0.0012856	0.0001826	806.28	4.6678e-06	8.1825e-06	1119.5	292.67	7.4641e-06	1.8069e-06	422.76	178.88	127.72	53.676	8.6491e-06	82.635	0.0014329	0.0015246	0.00041525	751.22	1.6272e-05	1.6459e-05	1020.9	268.92	1.6421e-05	1.6329e-05	392.09	164.31	118.22	49.575	1.5923e-05	75.717	73.692	-22.763	73.466	-43.444	117.036	62.748	-43.969	-38.953	-21.459	179.280	-40.784	-37.434	-35.103	-31.608	18.613	-33.838	-8191	255	
32424.576	1	1	0	0	0.044202	0.24762	0.10515	0.19998	0.048013	0.10006	0.25802	0.18897	0.2823	0.28332	0.045991	0.34394	0.20865	0.30487	0.096814	0.21162	-2.4542	-2.6562	-3.1625	-2.5292	-3.0083	-3.2083	-2.7833	-3.4271	-2.8812	-2.5146	-3.6	-2.6958	-2.9708	-3.3104	-2.5292	-3.4062	-42.754	6.766	-52.774	-42.986	150.009	-27.521	300.640	209.896	285.322	272.145	224.858	277.467	-15.763	-44.783	18.083	230.663	0.00021393	0.0013646	0.00030078	809.94	1.0655e-05	1.0401e-05	1115.9	292.37	6.5373e-07	8.7005e-06	429.22	179.47	127.74	54.302	6.0582e-06	82.474	0.0014274	0.0014717	0.00041024	751.05	1.5986e-05	1.6144e-05	1023.6	269.78	1.6337e-05	1.6593e-05	394.19	164.37	118.76	49.8	1.6208e-05	75.852	81.874	37.910	-33.354	-43.719	109.528	85.029	-43.891	-38.748	43.575	35.831	-40.715	-37.302	-35.333	-31.592	159.037	-33.807	-8191	255	
32424.672	1	1	0	0	0.035749	0.19495	0.036547	0.16229	0.031768	0.11209	0.2479	0.11278	0.16774	0.19562	0.15049	0.21708	0.23572	0.32502	0.13072	0.11004	-2.5542	-2.5708	-3.3667	-2.8479	-2.7271	-3.2375	-2.7229	-3.2438	-3.0521	-2.5667	-3.3979	-2.7854	-2.7396	-3.4125	-2.7167	-3.2125	169.881	-3.858	250.865	284.377	84.695	55.970	248.725	139.345	110.860	3.130	262.111	243.107	172.642	223.959	106.162	228.052	0.00048637	0.00038922	0.00061792	815.07	2.6903e-06	4.579e-06	1121.8	295.75	1.5888e-06	2.1519e-06	429.94	179.92	127.97	54.052	1.6336e-05	83.657	0.0014084	0.0014954	0.00040963	755.93	1.6185e-05	1.6133e-05	1026.2	271.77	1.5908e-05	1.5842e-05	396.34	165.01	118.91	49.809	1.6194e-05	76.39	97.400	78.608	-26.209	-43.653	101.277	58.553	-43.996	-38.879	-6.303	164.429	-40.288	-37.502	-35.242	-31.020	189.327	-33.669	-8191	255	
32424.793	1	1	0	0	0.15867	0.20457	0.22488	0.086382	0.17671	0.24504	0.14444	0.090486	0.082737	0.10721	0.0094711	0.069762	0.43077	0.054346	0.19708	0.19052	-2.7687	-2.5354	-3.1854	-2.7479	-2.8063	-3.4208	-2.6063	-2.9792	-3.175	-2.5521	-3.3396	-3.1354	-2.7542	-3.475	-2.6229	-2.9833	198.521	124.468	213.583	290.414	106.733	22.208	204.116	250.692	133.337	183.084	77.372	249.148	263.826	275.440	223.512	24.523	0.00032121	0.0013361	0.00036622	818.14	9.8923e-06	1.4015e-05	1135.7	294.59	7.594e-06	1.4096e-05	429.39	178.63	127.88	54.288	9.6711e-06	82.545	0.0014024	0.0014582	0.00040643	757.96	1.6357e-05	1.5971e-05	1031.9	271.17	1.6122e-05	1.6056e-05	393.67	164.73	118.98	49.916	1.614e-05	75.638	116.222	57.297	47.053	-43.439	4.432	125.163	-43.980	-39.289	-12.881	102.523	-40.435	-37.127	-35.198	-31.244	52.684	-33.848	-8191	255	
32424.889	1	1	0	0	0.25564	0.20483	0.20509	0.15361	0.32352	0.14823	0.03001	0.31849	0.17826	0.31594	0.33628	0.22864	0.14669	0.085291	0.18887	0.29053	-2.8083	-2.3375	-3.1667	-3.0333	-2.6396	-3.1542	-2.8271	-2.9708	-3.3625	-2.5333	-3.4	-3.0896	-2.7417	-3.3667	-2.65	-3.0521	27.445	25.185	282.465	209.161	135.965	69.365	-21.004	276.155	259.313	280.900	13.006	276.503	283.783	9.324	-20.686	262.903	0.00035776	0.00081131	0.00018219	818.7	5.5399e-06	5.4632e-06	1125.9	297.62	7.1612e-06	6.7494e-06	428.91	179.03	128.41	54.548	1.2505e-05	82.279	0.0013921	0.0014735	0.00041144	759.2	1.6074e-05	1.6093e-05	1028.3	272.7	1.6022e-05	1.6029e-05	395.03	164.23	118.62	49.886	1.6205e-05	75.618	105.358	298.611	34.298	-43.302	-11.088	187.805	-44.172	-38.843	109.579	89.533	-40.537	-37.460	-35.745	-31.315	99.494	-33.993	-8191	255	
32424.982	1	1	0	0	0.20681	0.23466	0.12908	0.20845	0.17442	0.17392	0.31679	0.19563	0.1522	0.014979	0.15781	0.24652	0.039787	0.1595	0.17826	0.21467	-2.9375	-2.5417	-3.1375	-3.0438	-2.6771	-3.4458	-2.7125	-2.75	-3.4458	-2.4792	-3.2583	-3.2458	-2.5312	-3.3771	-2.725	-2.8417	50.363	179.157	144.031	114.221	222.411	270.959	263.389	292.534	136.253	88.911	162.287	254.700	253.197	218.494	109.379	186.682	0.00024271	0.00074993	0.00013006	828.97	9.4433e-06	2.4354e-05	1122.8	298.7	1.0152e-06	8.6318e-06	428.53	179.85	129.62	54.435	5.3554e-06	82.951	0.0013675	0.0014505	0.00040643	761.85	1.5612e-05	1.5855e-05	1030.4	273.87	1.5473e-05	1.6009e-05	393.87	165.13	119.74	50.117	1.626e-05	75.789	143.719	11.089	35.288	-43.659	58.289	81.598	-44.233	-38.913	194.201	102.374	-40.478	-37.446	-35.330	-31.290	54.680	-33.745	-8191	255	
32425.078	1	1	0	0	0.22574	0.24882	0.047404	0.036582	0.14547	0.11031	0.29874	0.10811	0.032466	0.083376	0.1595	0.14205	0.054895	0.39614	0.18742	0.23347	-2.8438	-2.5208	-2.8583	-3.2458	-2.5104	-3.2917	-3.0354	-2.8229	-3.1792	-2.5833	-2.9125	-3.1188	-2.4625	-3.1167	-2.9979	-2.8104	184.764	188.490	238.323	-23.567	2.752	96.700	155.084	295.266	111.507	148.536	-49.858	24.010	123.020	250.304	297.894	255.676	0.00021087	0.0012945	0.00022258	824.13	1.8974e-06	9.1102e-06	1137	299.03	7.8226e-06	3.1731e-06	432.24	179.97	129.37	54.57	1.7465e-05	83.207	0.0013443	0.0014712	0.00041011	760.93	1.5938e-05	1.627e-05	1035.9	274.84	1.5689e-05	1.6243e-05	395.61	165.69	119.74	50.225	1.6194e-05	76.178	93.217	19.027	25.864	-43.296	212.078	158.308	-44.326	-38.916	46.983	24.316	-40.936	-37.342	-35.197	-31.101	107.272	-33.982	-8191	255	
32425.178	1	1	0	0	0.17062	0.35116	0.11963	0.10184	0.20514	0.11395	0.24924	0.34416	0.13273	0.10495	0.2853	0.25793	0.046313	0.22165	0.31926	0.16215	-2.9896	-2.6292	-2.6625	-3.3333	-2.5229	-3.0333	-3.1854	-2.6375	-3.4062	-2.7833	-2.9125	-3.3208	-2.5625	-3.1562	-3.0354	-2.8146	-46.456	183.983	216.915	212.057	236.474	128.649	281.350	226.953	261.559	82.676	264.891	264.062	277.080	260.751	241.627	-36.362	0.00035434	0.0013901	0.00031222	821.34	6.8931e-06	1.1151e-06	1130.9	297.8	6.1463e-06	6.3202e-06	428.52	180.37	128.6	54.013	1.2069e-05	82.93	0.0013777	0.0014905	0.00040678	761.99	1.5978e-05	1.6135e-05	1032.1	273.77	1.5576e-05	1.6142e-05	394.63	165.25	119.29	49.979	1.6046e-05	75.634	119.832	29.181	19.094	-43.445	119.095	177.540	-44.012	-39.315	244.585	40.512	-40.408	-37.460	-35.382	-31.292	82.309	-34.027	-8191	255	
32425.271	1	1	0	0	0.14582	0.20374	0.14351	0.47406	0.12382	0.39323	0.13756	0.2529	0.12971	0.11343	0.37398	0.31887	0.065563	0.08788	0.27809	0.21277	-2.9875	-2.6604	-2.5667	-3.2938	-2.6604	-3.0771	-3.3312	-2.5312	-3.1917	-2.8	-2.6542	-3.4083	-2.6167	-3.0583	-3.0292	-2.5812	-27.508	254.198	147.086	203.974	275.884	115.088	242.876	199.749	284.651	170.703	254.909	232.329	-48.342	287.691	95.162	247.666	0.00027763	0.0017453	0.00012463	820.87	9.0024e-06	1.0492e-05	1133.3	297.03	5.4378e-06	1.1001e-05	425.92	179.34	128.28	54.676	6.4442e-06	82.522	0.0013773	0.0014985	0.00040232	761.28	1.5887e-05	1.6048e-05	1030.7	273.53	1.562e-05	1.6107e-05	391.86	164.38	119.01	50.1	1.5834e-05	75.405	86.838	18.028	232.943	-43.092	1.058	116.468	-43.977	-39.171	154.015	8.449	-41.011	-37.252	-35.502	-31.469	212.030	-34.134	-8191	255	
32425.367	1	1	0	0	0.26906	0.10314	0.23479	0.29025	0.094158	0.24039	0.23918	0.19267	0.12475	0.052069	0.283	0.15992	0.059305	0.095095	0.071805	0.1669	-2.8146	-2.8833	-2.5292	-3.2854	-2.5792	-2.9771	-3.3542	-2.7167	-3.2208	-2.9542	-2.6833	-3.4188	-2.8438	-2.7521	-3.2	-2.7167	-37.411	285.951	-30.475	277.535	-24.805	276.796	253.774	234.465	107.438	157.417	186.277	207.974	231.469	235.270	178.955	211.019	0.00020946	0.0012789	0.00030189	813.57	3.7447e-06	8.038e-06	1126.3	297.12	5.481e-06	6.0729e-06	427.26	177.56	128.2	54.067	2.1342e-05	82.558	0.001383	0.0014682	0.00040343	758.24	1.6212e-05	1.621e-05	1024.9	274.27	1.5793e-05	1.6214e-05	392.68	163.74	118.84	49.978	1.5621e-05	75.555	82.517	23.210	-43.860	-43.424	122.643	121.502	-43.750	-39.214	184.997	149.925	-40.341	-37.299	-35.763	-31.578	130.297	-33.480	-8191	255	
32425.465	1	1	0	0	0.15788	0.15273	0.1425	0.24356	0.15804	0.17658	0.16614	0.052822	0.12172	0.21021	0.29913	0.028351	0.10904	0.25288	0.052087	0.20512	-2.6708	-2.9292	-2.5563	-3.4354	-2.6333	-2.8438	-3.3937	-2.7021	-2.9833	-2.8583	-2.5771	-3.3271	-2.8667	-2.6792	-3.2938	-2.6229	249.772	124.683	111.744	265.072	208.827	4.164	-22.889	5.393	-46.733	165.199	246.633	291.646	134.645	282.748	196.334	-47.050	0.00023587	0.0012795	0.00015585	815.37	8.7423e-06	8.561e-06	1129	295.57	3.9019e-06	2.5135e-06	428.11	179.26	128.76	54.817	1.2785e-05	83.257	0.0013566	0.0014749	0.00040033	757.18	1.5685e-05	1.5975e-05	1028.6	272.02	1.5742e-05	1.5892e-05	392.07	164.05	119.22	50.094	1.5839e-05	75.836	66.617	-15.755	43.316	-42.850	99.816	80.973	-43.880	-39.032	166.796	78.703	-40.277	-37.653	-35.356	-31.159	-52.610	-33.738	-8191	255	
32425.582	1	1	0	0	0.27479	0.15817	0.04263	0.18069	0.16376	0.1543	0.1156	0.090572	0.088734	0.14765	0.20129	0.17632	0.39244	0.17636	0.12738	0.26203	-2.8542	-2.9958	-2.5521	-3.4437	-2.7083	-2.7875	-3.5146	-2.6375	-2.9292	-3.1375	-2.7333	-3.1979	-2.8646	-2.7375	-3.1896	-2.7021	193.880	-6.084	16.901	5.074	122.730	61.454	226.925	-16.226	125.756	-37.146	280.529	1.684	221.836	261.844	268.863	225.135	0.00055518	0.00069849	0.00027839	817.55	3.7063e-06	1.0061e-05	1123.6	297.43	2.0007e-06	2.1557e-05	425.13	177.65	127.79	54.067	1.1629e-06	82.251	0.0013742	0.0014528	0.00040071	757.21	1.5763e-05	1.5602e-05	1026.6	272.96	1.5831e-05	1.5883e-05	390.15	163.22	118.84	49.797	1.5562e-05	75.442	150.476	48.188	190.282	-43.505	140.040	203.706	-44.005	-39.091	139.131	42.575	-40.526	-37.393	-35.450	-31.430	-56.883	-33.959	-8191	255	
32425.680	1	1	0	0	0.088561	0.10776	0.1715	0.22303	0.27568	0.095361	0.13374	0.33625	0.14859	0.085813	0.041247	0.30477	0.12519	0.35902	0.26493	0.2236	-2.5542	-3.1646	-2.4813	-3.1875	-2.8937	-2.6375	-3.3125	-2.75	-2.6813	-3.4292	-2.7	-3.2875	-2.9104	-2.6688	-3.2771	-2.8542	14.102	178.143	66.793	-21.716	29.260	64.989	204.351	254.209	78.074	108.894	-42.191	287.750	257.663	266.781	233.874	171.027	0.0002286	0.001607	7.0573e-05	815.88	5.5106e-06	6.4327e-06	1125	293.31	6.7236e-06	4.8742e-06	424.13	178.24	128.22	54.099	4.6495e-06	82.077	0.0013564	0.0014482	0.00040039	755.05	1.5665e-05	1.5794e-05	1023.2	271.03	1.571e-05	1.5601e-05	389.21	163.63	118.62	49.757	1.5506e-05	75.444	121.301	54.394	96.883	-43.411	31.018	182.199	-43.659	-39.144	32.089	184.215	-40.962	-37.582	-35.419	-31.314	171.466	-33.754	-8191	255	
32425.775	1	1	0	0	0.078867	0.40041	0.033624	0.27407	0.16891	0.13591	0.28361	0.62506	0.079765	0.094208	0.4155	0.28402	0.22424	0.18748	0.2965	0.20977	-2.3229	-3.2833	-2.5208	-2.95	-2.9125	-2.7292	-3.3812	-2.7917	-2.6042	-3.3812	-2.7521	-3.0729	-3.1521	-2.6042	-3.1562	-2.8458	-52.362	112.554	97.065	261.112	115.244	238.529	268.737	294.238	184.378	-33.398	247.277	220.062	-41.719	301.915	52.240	274.719	0.00036832	0.00067281	0.00056414	814.47	2.6358e-06	1.5456e-05	1125.2	294.48	1.179e-05	8.1186e-06	427.15	178.18	128.96	54.77	2.9296e-06	82.849	0.0013823	0.0014372	0.00040506	754.84	1.5764e-05	1.5646e-05	1022.7	271.05	1.552e-05	1.5697e-05	391.38	163.93	119.01	50.131	1.5472e-05	75.656	128.666	131.080	47.381	-43.264	122.270	90.666	-43.689	-39.296	93.603	-29.988	-40.476	-37.381	-35.236	-30.912	-5.885	-33.881	-8191	255	
32425.871	1	1	0	0	0.078926	0.13006	0.06776	0.059395	0.20069	0.25318	0.39567	0.25827	0.14037	0.057701	0.14036	0.28982	0.043636	0.19961	0.1217	0.21989	-2.225	-3.0646	-2.4458	-2.8917	-3.0917	-2.5062	-3.3667	-2.9292	-2.6146	-3.225	-2.7146	-2.9229	-3.1896	-2.6188	-3.2958	-3.1458	-12.140	277.222	-32.166	277.747	282.047	257.214	227.530	226.393	99.251	249.779	299.732	-48.901	253.349	263.894	137.828	228.820	0.00037521	0.0012794	0.00026288	821.69	6.7237e-06	9.5136e-06	1130.2	296.03	6.078e-06	5.3228e-06	426.43	179.45	127.98	54.577	7.8738e-06	83.295	0.0013606	0.0014256	0.00040455	757.03	1.545e-05	1.5645e-05	1030.7	272.13	1.5597e-05	1.5743e-05	392.07	164.33	118.79	50.142	1.5743e-05	76.008	138.671	-11.600	71.408	-43.501	142.402	54.189	-43.926	-39.036	38.914	97.098	-40.684	-37.268	-35.487	-31.073	56.186	-34.076	-8191	255	
32425.967	1	1	0	0	0.10301	0.18402	0.091981	0.27473	0.1923	0.097932	0.079699	0.27066	0.054209	0.1681	0.10552	0.29165	0.10053	0.25003	0.056953	0.030477	-2.1771	-3.3208	-2.5979	-2.8646	-3.4521	-2.6042	-3.2979	-2.8667	-2.4562	-3.1021	-2.8854	-2.8208	-3.35	-2.5979	-3.1021	-3.1958	131.353	96.532	107.236	248.968	107.352	207.113	195.572	218.898	-30.336	297.988	145.987	294.008	276.725	259.892	85.252	86.842	0.00018779	0.001416	0.00026134	819.37	2.4487e-06	1.2773e-05	1130.9	298.4	4.3545e-06	1.9063e-05	427.3	178.63	128.56	54.421	7.8595e-06	82.7	0.0013459	0.001458	0.00040988	755.14	1.5388e-05	1.5663e-05	1028.9	273.38	1.559e-05	1.5992e-05	391.67	164.22	118.87	50.018	1.5958e-05	75.883	138.013	39.522	28.729	-43.171	-29.259	107.413	-44.066	-38.966	105.005	129.837	-40.691	-37.125	-35.558	-31.205	142.949	-33.865	-8191	255	
32426.064	1	1	0	0	0.064085	0.049451	0.36328	0.26409	0.22039	0.085372	0.094062	0.41542	0.20111	0.1305	0.067419	0.24432	0.053537	0.18617	0.2462	0.12006	-2.1437	-3.1521	-2.6375	-2.8438	-3.4354	-2.7375	-3.2104	-3.2917	-2.3542	-3.3333	-2.9042	-2.8563	-3.3187	-2.5208	-2.9688	-3.0583	-53.685	284.663	237.924	251.257	260.384	254.758	117.887	273.800	27.844	165.384	-26.745	204.600	285.554	283.094	-7.118	-12.877	0.00026566	0.0012739	0.00030081	819.91	7.6897e-06	4.8384e-06	1136.9	298.21	2.5433e-06	1.2541e-05	431.28	179.94	128.9	54.365	1.7761e-05	82.607	0.0013507	0.0014371	0.00041059	756.18	1.5362e-05	1.5958e-05	1031.2	273.19	1.5212e-05	1.5796e-05	394.76	165.35	119.55	50.289	1.5736e-05	75.793	107.237	-40.450	-3.816	-43.311	57.084	172.982	-44.046	-39.281	-47.566	77.060	-40.835	-37.378	-35.590	-31.221	86.439	-34.330	-8191	255	
32426.184	1	1	0	0	0.24935	0.15142	0.097886	0.29106	0.10731	0.20279	0.12184	0.127	0.097127	0.26769	0.07444	0.22318	0.093632	0.11415	0.052571	0.071237	-2.0833	-3.1688	-2.6979	-2.6479	-3.3396	-2.5958	-3.0208	-3.3792	-2.6083	-3.2958	-2.9979	-2.75	-3.5375	-2.8229	-2.9917	-3.2938	166.848	121.933	208.884	267.961	81.816	9.351	261.969	274.100	-13.957	232.703	105.976	242.105	-49.917	-29.959	9.160	230.826	0.0002769	0.00072176	0.00015866	818.21	1.0461e-05	8.8992e-06	1143.3	297.35	3.4634e-06	1.7127e-05	429.75	181.1	128.04	54.596	1.027e-05	83.215	0.0013309	0.0014255	0.00040083	758.98	1.5525e-05	1.5891e-05	1032.7	273.38	1.5565e-05	1.6126e-05	394.11	165.9	119.04	50.378	1.5762e-05	76.191	75.700	46.534	-29.561	-43.082	108.578	124.100	-44.030	-39.339	23.023	78.351	-40.488	-37.201	-35.366	-31.452	61.431	-34.078	-8191	255	
32426.279	1	1	0	0	0.051345	0.18834	0.25038	0.37195	0.099282	0.15858	0.28203	0.1642	0.16835	0.097665	0.18499	0.22618	0.080582	0.061577	0.03235	0.18182	-2.0521	-3.1562	-2.8354	-2.6688	-3.2583	-2.7375	-2.7479	-3.2354	-2.3104	-3.1583	-3.0687	-2.55	-3.4104	-2.8	-2.6333	-3.4313	168.689	220.525	259.637	267.677	192.223	77.213	216.039	11.336	283.872	156.981	264.426	247.303	281.464	14.271	48.152	254.301	0.00024625	0.0018077	0.00033952	817.17	8.5067e-06	1.7232e-05	1131.2	298.7	9.6148e-06	1.7951e-05	430	180.84	128.85	55.101	1.2367e-05	83.795	0.0013684	0.0014634	0.00040686	756.29	1.5647e-05	1.6053e-05	1030	273.38	1.5672e-05	1.5835e-05	394.82	166.03	119.3	50.501	1.5332e-05	76.542	79.373	92.429	41.395	-43.255	145.848	83.035	-43.989	-39.049	139.849	101.536	-41.166	-37.376	-34.870	-31.296	174.402	-34.070	-8191	255	
32426.377	1	1	0	0	0.21912	0.32911	0.10761	0.42102	0.10662	0.16696	0.17562	0.30776	0.15613	0.16339	0.19122	0.10504	0.17726	0.23315	0.13931	0.24422	-2.2083	-3.0458	-3.0646	-2.5417	-3.4146	-2.6271	-2.7458	-3.3958	-2.3875	-3.0021	-3.1063	-2.4896	-3.1937	-2.9042	-2.5	-3.4813	50.936	-45.840	194.795	253.531	52.286	210.904	201.046	204.367	139.202	127.668	261.174	-36.576	265.518	286.836	-0.721	279.202	0.00035232	0.0014868	0.00017214	819.73	1.0038e-05	1.3134e-06	1133.2	298.25	7.0924e-07	1.0719e-05	428.55	180.9	127.87	54.941	1.0154e-05	83.663	0.0013643	0.0014485	0.00039564	757.02	1.5292e-05	1.5898e-05	1031	273.55	1.5568e-05	1.5487e-05	393.2	165.73	118.86	50.318	1.5396e-05	76.492	119.142	-23.386	52.898	-43.007	68.878	163.863	-44.027	-39.176	-9.864	25.097	-40.552	-37.059	-35.522	-31.326	9.714	-34.076	-8191	255	
32426.447	1	1	0	0	0.073678	0.35294	0.20497	0.17079	0.22517	0.12452	0.13047	0.31337	0.27144	0.13123	0.26383	0.17896	0.20185	0.23841	0.21234	0.13014	-2.1521	-2.8667	-3.1125	-2.5375	-3.175	-2.7646	-2.8146	-3.4083	-2.5687	-2.8063	-3.1792	-2.5812	-3.2542	-3.0854	-2.65	-3.4562	192.882	298.689	15.802	227.102	104.825	98.203	224.235	241.352	2.618	0.082	-25.128	301.813	258.496	274.502	-38.299	39.218	0.00013545	0.00092956	0.00018471	806.23	3.2156e-06	1.0251e-05	1132	296.41	8.1026e-06	1.3516e-05	427.68	180.68	128.93	54.639	1.245e-05	83.377	0.0013699	0.0014232	0.00039658	750.93	1.5568e-05	1.5648e-05	1027.3	271.6	1.5569e-05	1.5587e-05	394.08	165.38	119.18	50.232	1.5258e-05	76.45	84.030	56.745	299.703	-43.137	83.500	155.818	-43.856	-39.167	104.234	114.159	-40.628	-37.372	-35.144	-31.416	68.971	-33.541	-8191	255	
32426.566	1	1	0	0	0.087833	0.11593	0.17914	0.19383	0.34755	0.10513	0.23413	0.18665	0.10911	0.14354	0.22445	0.22248	0.30388	0.30097	0.11575	0.18972	-2.1729	-2.6604	-3.3458	-2.5375	-3.0604	-3.0292	-2.6229	-3.2938	-2.7687	-2.5896	-3.2167	-2.5333	-3.0146	-3.1229	-2.4771	-3.3729	59.892	202.846	-18.447	244.861	174.052	-33.732	184.299	204.064	-27.012	249.482	279.448	224.341	295.035	204.040	35.329	202.031	0.00030228	0.00079883	0.00022602	811.7	6.1556e-06	7.9744e-06	1129.4	297.34	4.5462e-06	1.8753e-06	430.27	180.74	129.11	54.808	5.9825e-06	84.393	0.0013499	0.0014211	0.0003965	755.02	1.5272e-05	1.5546e-05	1031.4	273.15	1.5363e-05	1.5577e-05	394.97	165.79	119.83	50.362	1.5581e-05	76.991	122.483	36.004	41.527	-43.513	3.316	55.984	-43.806	-39.508	102.643	154.512	-41.173	-37.490	-35.443	-31.422	110.561	-33.757	-8191	255	
32426.662	1	1	0	0	0.19873	0.20415	0.21886	0.084995	0.15542	0.20674	0.27282	0.21086	0.18122	0.092559	0.13209	0.31348	0.27355	0.18103	0.19265	0.22716	-2.2438	-2.8417	-3.2896	-2.5563	-3.0542	-3.1771	-2.7167	-3.3021	-2.6958	-2.6104	-3.4167	-2.6708	-2.9979	-3.3729	-2.4958	-3.4813	24.682	-5.391	21.717	-56.863	181.528	241.888	171.851	282.601	105.546	131.877	231.749	239.733	274.895	158.229	64.517	274.965	0.00029371	0.00081226	0.00020182	810.73	6.9776e-06	3.505e-06	1132.4	297.92	7.2976e-06	5.1574e-06	431.39	182.17	130.24	55.093	6.6698e-06	84.588	0.0013782	0.0014198	0.00039767	753.81	1.5627e-05	1.5688e-05	1032.3	274.05	1.5875e-05	1.5735e-05	395.32	166.19	119.89	50.649	1.5865e-05	76.99	129.983	60.683	67.645	-43.582	280.654	-22.776	-43.960	-39.377	-13.679	151.646	-40.546	-37.276	-35.308	-31.278	68.665	-33.797	-8191	255	
32426.760	1	1	0	0	0.16359	0.1391	0.1737	0.068458	0.073007	0.15982	0.44909	0.19581	0.15156	0.28832	0.049251	0.056468	0.24082	0.19211	0.26688	0.2676	-2.4958	-2.3792	-3.3729	-2.7479	-2.7354	-3.2812	-2.8167	-3.2	-2.9604	-2.55	-3.6125	-2.7229	-2.9833	-3.3063	-2.4562	-3.1	206.974	149.938	17.875	129.770	102.649	192.691	275.192	0.186	35.702	220.293	284.047	290.880	277.620	-7.640	-32.150	235.540	0.00034435	0.00070862	0.00048756	816.04	2.8895e-06	9.6225e-06	1131.5	299.04	3.4361e-06	8.55e-06	430.57	180.05	129.34	54.753	5.2943e-06	84.146	0.001374	0.0014318	0.00040279	754.34	1.5689e-05	1.584e-05	1034.1	274.48	1.5507e-05	1.558e-05	394.5	165.43	119.66	50.36	1.5801e-05	76.741	130.936	1.698	35.593	-43.442	-17.223	33.795	-44.035	-38.931	93.358	60.855	-40.621	-37.097	-35.293	-31.287	45.416	-33.864	-8191	255	
32426.855	1	1	0	0	0.10083	0.17004	0.11258	0.092803	0.23435	0.10677	0.35614	0.30117	0.21506	0.071804	0.097516	0.14643	0.13628	0.17163	0.12428	0.2004	-2.8417	-2.3917	-3.1146	-2.6271	-2.7521	-3.2146	-2.7042	-3.0479	-2.9521	-2.6083	-3.4125	-2.8354	-2.7417	-3.3479	-2.4875	-3.2208	226.204	56.267	120.260	157.888	299.362	62.152	225.380	246.551	27.399	-12.836	85.934	245.821	193.509	196.028	227.385	292.483	0.00012398	0.0012503	0.00020123	822.9	3.365e-06	1.0393e-05	1129	297.27	4.5243e-06	4.556e-06	431.19	180.78	129.45	54.759	1.0576e-05	83.414	0.0013584	0.0014197	0.00040533	756.99	1.5381e-05	1.5711e-05	1029.6	273.8	1.5599e-05	1.5948e-05	395.18	165.42	119.75	50.442	1.5884e-05	76.475	101.255	288.063	49.822	-43.295	198.659	63.674	-44.017	-39.081	117.501	7.138	-40.881	-37.652	-35.278	-31.328	29.485	-34.258	-8191	255	
32426.977	1	1	0	0	0.14316	0.36162	0.05155	0.084873	0.11541	0.12464	0.31974	0.33791	0.097644	0.29918	0.14709	0.042083	0.089165	0.054072	0.087799	0.2613	-2.9062	-2.3708	-3.1396	-2.8333	-2.5958	-3.1958	-2.7458	-2.9583	-3.3292	-2.6167	-3.1937	-2.7646	-2.6542	-3.4021	-2.5521	-3.0604	146.954	196.898	230.064	37.798	-0.643	58.350	217.324	203.423	89.355	30.467	-39.910	-47.239	-39.181	169.853	256.817	274.202	0.00021114	0.0013618	0.00031098	811.52	6.7303e-06	2.6577e-06	1134	299.06	5.5431e-06	7.3558e-06	428.91	181.36	129.47	55.264	1.3952e-05	84.065	0.0013629	0.0014403	0.00040015	755.89	1.5431e-05	1.556e-05	1032.5	274.91	1.5607e-05	1.5728e-05	395.63	165.9	119.99	50.659	1.6086e-05	76.804	102.285	-5.301	100.648	-43.247	62.538	260.426	-43.892	-39.015	60.568	104.859	-40.471	-37.276	-35.088	-31.453	36.847	-33.786	-8191	255	
32427.072	1	1	0	0	0.28042	0.096918	0.13162	0.15453	0.30743	0.21151	0.22085	0.1357	0.25778	0.085702	0.25074	0.13499	0.15063	0.17318	0.10944	0.18057	-2.8438	-2.5438	-3.2458	-2.9292	-2.6854	-3.2667	-2.725	-2.9146	-3.0938	-2.4437	-3.2271	-3.0646	-2.5896	-3.3833	-2.7229	-2.8375	26.454	64.646	107.118	-52.226	94.082	167.044	243.092	210.272	152.736	77.699	228.072	-19.053	0.284	213.391	185.123	240.490	0.00032566	0.00090907	0.00016364	824.92	4.5678e-06	1.7031e-05	1132.4	299	6.6039e-06	1.085e-05	431.37	181.68	129.65	55.081	5.8381e-06	84.112	0.0013699	0.0014467	0.00040227	759.61	1.5555e-05	1.5686e-05	1033.4	275	1.5628e-05	1.6106e-05	395.89	165.93	119.83	50.697	1.5805e-05	77.085	137.345	99.336	26.559	-43.351	104.631	91.298	-44.047	-38.977	93.944	218.670	-40.109	-37.389	-35.615	-31.264	216.257	-33.827	-8191	255	
32427.145	1	1	0	0	0.30764	0.075833	0.17841	0.15117	0.26497	0.042173	0.12997	0.12003	0.16961	0.024927	0.18193	0.31381	0.17016	0.12359	0.11479	0.2268	-2.8104	-2.4417	-2.9583	-3.1583	-2.4167	-3.2833	-2.9104	-2.7625	-3.3667	-2.775	-3.1125	-3.3104	-2.5583	-3.3417	-2.7958	-2.7	57.953	280.680	20.628	242.063	286.597	80.254	278.472	225.400	30.294	248.911	212.889	263.812	250.489	293.942	-11.937	207.393	0.0002966	0.0011613	0.00014443	810.15	3.6163e-06	9.3455e-06	1124	298.72	5.9103e-06	1.4055e-05	432.91	179.76	128.88	54.963	7.5719e-06	84.345	0.001365	0.0014642	0.00039276	752.9	1.569e-05	1.5654e-05	1027.5	273.75	1.5368e-05	1.5727e-05	395.17	165.4	119.41	50.542	1.5763e-05	76.871	120.547	104.314	-24.307	-43.419	73.712	-17.010	-43.912	-39.184	68.728	89.063	-40.234	-37.317	-35.769	-31.208	96.650	-33.715	-8191	255	
32427.266	1	1	0	0	0.18598	0.21594	0.22359	0.13224	0.26131	0.099301	0.029826	0.29986	0.16281	0.12287	0.11147	0.022735	0.11971	0.33855	0.17653	0.17728	-2.8042	-2.5604	-2.75	-3.1813	-2.5292	-3.1417	-3.0812	-2.7125	-3.3083	-2.7167	-3.0146	-3.2979	-2.6188	-3.1021	-2.8688	-2.8021	28.767	52.170	295.288	288.195	236.201	263.471	210.654	196.788	106.412	78.447	239.220	52.129	299.294	-25.997	190.793	217.417	0.00037578	0.00085101	0.00033327	812.26	2.2187e-06	7.7056e-06	1126.9	299.59	1.1124e-05	9.2545e-06	426.44	179.19	128.85	55.127	1.461e-05	84.198	0.0013681	0.0014501	0.00039447	753.74	1.5755e-05	1.5712e-05	1027.6	273.68	1.5264e-05	1.5672e-05	393.22	165.22	119.41	50.62	1.5565e-05	76.866	77.426	153.584	50.816	-43.239	149.943	95.268	-44.002	-38.997	85.953	-31.670	-40.296	-37.085	-35.206	-30.838	48.519	-34.037	-8191	255	
32427.361	1	1	0	0	0.28949	0.076553	0.14227	0.090209	0.1407	0.016658	0.23703	0.27018	0.263	0.11097	0.08684	0.14152	0.12902	0.27276	0.30349	0.20444	-2.9979	-2.6625	-2.6771	-3.3417	-2.5542	-3.1437	-3.1229	-2.5958	-3.175	-2.55	-2.8979	-3.3479	-2.7396	-3.1958	-2.9417	-2.6875	300.616	173.732	-30.009	260.515	80.342	221.148	190.526	-41.845	252.380	-25.300	188.222	287.093	227.252	-39.679	291.956	-45.666	0.00044301	0.0013752	0.00016287	815.68	3.7875e-06	6.4759e-06	1134.2	297.3	3.1334e-06	2.8779e-06	429.55	181.09	128.56	55.28	6.2147e-06	84.488	0.0013546	0.001445	0.00038746	753.73	1.562e-05	1.5659e-05	1030.4	274.16	1.5543e-05	1.5824e-05	396.58	165.96	119.75	50.81	1.5391e-05	77.267	89.875	114.530	32.344	-43.185	164.302	27.427	-44.094	-39.008	47.522	80.378	-40.356	-37.436	-35.188	-31.421	174.578	-33.696	-8191	255	
32427.457	1	1	0	0	0.18425	0.078227	0.13368	0.028486	0.13304	0.14305	0.089439	0.15557	0.11793	0.072509	0.051333	0.22439	0.13502	0.18193	0.059634	0.2708	-2.9646	-2.6604	-2.7292	-3.4188	-2.4917	-2.95	-3.1896	-2.5042	-3.1208	-2.8271	-2.8583	-3.4417	-2.6354	-2.9958	-3.1958	-2.5083	13.111	48.133	-3.386	9.288	217.349	65.828	192.535	175.888	34.951	134.416	197.523	286.276	272.234	192.892	86.172	251.330	0.00040651	0.00095934	0.00033167	819.23	4.6622e-06	1.3184e-05	1136.1	299.34	4.2709e-06	3.7049e-06	431.5	180.99	129.81	55.317	5.2771e-06	84.593	0.0013395	0.0014273	0.00039071	758.03	1.5451e-05	1.5584e-05	1035.2	274.33	1.536e-05	1.5389e-05	395.97	166.42	120.11	50.905	1.5506e-05	77.15	108.128	55.679	64.420	-43.560	138.597	134.612	-44.028	-39.039	82.530	18.732	-40.660	-37.175	-35.546	-31.278	162.672	-33.961	-8191	255	
32427.576	1	1	0	0	0.1594	0.22386	0.22351	0.26407	0.2481	0.2759	0.22204	0.24214	0.075447	0.25062	0.27099	0.33658	0.13117	0.080983	0.062695	0.16481	-2.8208	-2.8563	-2.5417	-3.3604	-2.4958	-2.8583	-3.2458	-2.5229	-3.1583	-2.925	-2.6667	-3.4229	-2.8354	-2.7875	-3.175	-2.7313	201.933	5.976	181.022	300.112	207.017	27.162	29.496	243.697	88.539	9.056	221.850	271.520	103.750	143.403	282.396	-52.129	0.00019898	0.00027753	0.00029452	819.6	1.3395e-05	4.1933e-06	1131.8	300.79	7.6255e-06	5.7442e-06	430.35	181.71	130.33	55.028	5.6975e-06	84.578	0.0013475	0.0014271	0.0003887	759.99	1.5651e-05	1.5472e-05	1032.8	275.4	1.527e-05	1.5444e-05	395.97	166.86	120.17	50.687	1.5179e-05	77.212	130.280	72.053	39.570	-43.682	96.618	260.752	-43.809	-39.042	109.795	117.065	-40.735	-37.445	-35.328	-31.568	284.706	-34.131	-8191	255	
32427.672	1	1	0	0	0.10267	0.19576	0.083184	0.066202	0.1486	0.030118	0.44266	0.11175	0.064868	0.1278	0.2083	0.19252	0.24704	0.049473	0.37688	0.2115	-2.7667	-2.975	-2.3604	-3.3958	-2.5167	-2.6771	-3.4583	-2.5062	-2.9521	-3.0479	-2.6208	-3.2188	-2.825	-2.6979	-3.1271	-2.5167	121.476	215.367	67.554	273.956	162.380	126.721	248.065	260.116	233.998	132.584	220.114	32.776	-11.440	146.440	132.379	280.486	0.00014044	0.0012069	5.7319e-05	818.19	1.6716e-06	1.0056e-05	1141.3	299.1	1.0708e-05	1.6849e-05	432.79	181.26	130.37	54.971	1.3686e-05	84.479	0.0013535	0.0014078	0.0003911	756.44	1.5403e-05	1.5479e-05	1035.9	274.29	1.5265e-05	1.5682e-05	397.27	166.65	120.03	50.622	1.5605e-05	77.168	81.119	134.237	86.397	-43.061	173.055	147.524	-43.645	-39.337	137.564	44.972	-40.689	-37.315	-35.629	-31.446	55.887	-33.795	-8191	255	
32427.744	1	1	0	0	0.19677	0.11634	0.28176	0.3461	0.10206	0.13662	0.19699	0.13114	0.43095	0.25768	0.21861	0.12731	0.2361	0.24813	0.050092	0.18638	-2.5625	-2.9583	-2.2188	-3.3792	-2.8792	-2.7208	-3.4208	-2.6354	-2.9354	-2.9917	-2.5083	-3.3438	-2.8667	-2.6583	-3.25	-2.75	-33.771	225.373	81.899	230.135	212.930	-45.379	281.052	214.691	-0.763	248.038	248.730	247.620	262.413	-26.009	297.807	238.861	0.0001396	0.00067036	0.00044709	811.95	5.7824e-06	1.1938e-05	1132.9	300.8	3.4159e-06	3.8842e-06	431.84	181.89	129.16	55.793	5.5295e-06	84.663	0.0013488	0.0014523	0.00039371	755.04	1.5408e-05	1.5784e-05	1033.9	275.49	1.5144e-05	1.552e-05	396.2	166.79	119.88	50.851	1.5671e-05	77.396	156.200	47.865	77.154	-43.306	49.469	132.293	-43.626	-39.132	271.519	62.365	-40.669	-36.971	-35.487	-31.119	82.481	-33.806	-8191	255	
32427.863	1	1	0	0	0.25185	0.12918	0.053218	0.092721	0.041518	0.17458	0.11869	0.10116	0.062155	0.21833	0.22069	0.25377	0.17648	0.30423	0.10047	0.17556	-2.3729	-3.0542	-2.3937	-3.2708	-2.9375	-2.5771	-3.3	-2.6625	-2.7188	-3.2208	-2.6208	-3.1958	-3.0583	-2.45	-3.0083	-2.8146	278.708	293.214	81.970	-40.599	-0.136	93.130	178.711	237.439	124.211	112.643	-54.069	227.279	261.584	258.876	269.406	206.033	0.00044675	0.00045346	0.00014472	824.78	1.4105e-05	1.3771e-05	1138.1	299.16	3.5584e-06	6.5421e-06	430.97	182.67	129.81	55.012	1.3476e-05	84.829	0.001356	0.0014326	0.00040067	759.98	1.5572e-05	1.5555e-05	1035	275.01	1.5343e-05	1.5515e-05	397.05	167.05	120.42	50.673	1.5608e-05	77.262	115.482	93.666	81.030	-43.268	108.002	101.338	-43.928	-39.353	105.923	30.696	-40.799	-37.055	-35.702	-31.126	83.248	-34.071	-8191	255	
32427.961	1	1	0	0	0.13417	0.10007	0.1358	0.14001	0.15124	0.3347	0.30079	0.10242	0.17028	0.14794	0.3545	0.30973	0.021241	0.18085	0.28913	0.098703	-2.3187	-3.0292	-2.4708	-3.0146	-3.2	-2.4083	-3.2938	-2.8625	-2.6771	-3.2083	-2.6854	-3.0667	-3.1	-2.75	-3.2479	-3.1063	-16.278	30.342	-37.526	182.882	214.096	-23.761	242.555	227.700	118.273	248.644	231.268	-49.678	200.400	-41.230	265.079	268.437	0.00036629	0.00098994	5.2992e-05	816.19	5.7625e-06	6.6323e-06	1133.3	299.02	9.735e-06	7.653e-06	431.12	180.12	129.31	55.207	1.7644e-05	84.833	0.001328	0.0014134	0.00039864	754.39	1.5428e-05	1.5685e-05	1032.3	274.07	1.5375e-05	1.5517e-05	394.67	165.6	119.56	50.721	1.5741e-05	77.299	126.623	20.649	136.154	-43.395	94.770	148.823	-44.149	-39.442	90.127	-22.089	-40.931	-37.111	-35.384	-31.313	71.704	-33.647	-8191	255	
32428.057	1	1	0	0	0.18994	0.15317	0.30661	0.21698	0.3573	0.13954	0.25152	0.22204	0.47558	0.18271	0.093025	0.21291	0.12078	0.045424	0.12107	0.45373	-2.1562	-3.0354	-2.4979	-3.0729	-3.2125	-2.3667	-3.4417	-2.8458	-2.5167	-3.275	-2.6188	-3.0021	-3.2021	-2.6333	-3.2188	-3.0563	76.160	115.723	115.974	274.560	102.335	63.388	264.235	157.871	249.536	218.906	-12.797	256.121	-36.983	51.937	-33.345	255.376	0.0003437	0.0010804	0.00025593	816.11	1.0881e-05	5.0525e-06	1130.8	299.23	9.6354e-06	2.2355e-06	428.43	180.89	129.92	55.389	1.2179e-05	84.841	0.0013368	0.0014164	0.00039916	755.38	1.5545e-05	1.5323e-05	1031.9	274.47	1.5343e-05	1.5445e-05	395.24	166.14	120.17	50.85	1.5122e-05	77.284	142.721	95.964	48.451	-43.167	52.131	289.174	-43.777	-39.299	84.760	209.901	-40.426	-37.616	-35.483	-31.352	236.378	-33.988	-8191	255	
32428.152	1	1	0	0	0.35252	0.051873	0.15334	0.41827	0.35902	0.13381	0.12819	0.15818	0.21293	0.035483	0.23812	0.19419	0.10404	0.17128	0.27906	0.018483	-2.0438	-3.3896	-2.5792	-2.8875	-3.0833	-2.7062	-3.3729	-3.0208	-2.3625	-3.3417	-2.6771	-2.9792	-3.3604	-2.5667	-2.9229	-3.0854	36.201	74.492	13.887	268.736	182.215	-12.140	226.040	182.111	115.006	74.957	300.305	269.340	-43.264	197.749	74.346	289.750	0.00021261	0.00075287	0.0003622	818.78	7.8838e-06	5.9441e-06	1131.3	298.1	3.3095e-06	5.5457e-06	432.99	181.99	129.5	55.377	8.8339e-06	84.874	0.0013347	0.0014082	0.00039038	755.65	1.517e-05	1.5395e-05	1032.1	274.1	1.5158e-05	1.5353e-05	396.18	166.74	120.04	50.754	1.548e-05	77.359	133.105	20.057	-8.891	-43.147	113.011	79.845	-43.846	-39.389	5.379	227.941	-40.873	-37.409	-35.563	-31.302	58.261	-34.349	-8191	255	
32428.273	1	1	0	0	0.12974	0.13304	0.24382	0.031433	0.10922	0.094526	0.12752	0.30397	0.22288	0.10156	0.2442	0.11081	0.026604	0.15883	0.19226	0.13638	-2.0521	-3.2104	-2.6458	-2.8104	-3.2188	-2.5375	-3.2167	-3.1979	-2.4708	-3.2313	-2.8208	-2.8063	-3.3438	-2.5521	-2.9188	-3.2292	190.130	117.734	99.539	-44.011	230.140	284.445	282.901	228.002	267.011	241.260	161.192	86.224	194.888	-14.558	-16.536	231.110	0.00039151	0.0012763	0.00011577	815.79	5.1146e-06	6.3822e-06	1135.9	299.55	3.9266e-06	1.3782e-05	426.69	181.72	129.47	55.097	1.704e-05	83.821	0.0013357	0.0014132	0.00038544	755.48	1.5368e-05	1.5669e-05	1033.9	273.74	1.5113e-05	1.548e-05	392.68	165.96	119.44	50.496	1.5221e-05	76.862	107.395	32.553	262.832	-43.186	161.519	15.764	-44.109	-38.853	131.069	105.992	-40.722	-37.187	-35.475	-30.798	148.838	-34.247	-8191	255	
32428.367	1	1	0	0	0.1402	0.11077	0.12273	0.36124	0.089995	0.076615	0.24294	0.16217	0.22361	0.070562	0.12136	0.19382	0.13838	0.11711	0.36949	0.31468	-2.2708	-3.2521	-2.9042	-2.8	-3.3083	-2.5583	-3.0812	-3.1813	-2.3646	-3.1479	-3.0646	-2.5333	-3.3312	-2.65	-2.8083	-3.2812	53.544	113.377	82.573	272.938	48.656	209.090	221.562	-14.672	291.689	219.552	186.799	39.634	138.171	-46.406	183.447	235.500	0.00030579	0.0016689	0.00032794	810.46	5.3551e-06	5.3372e-06	1129.3	295.44	2.9474e-06	1.0082e-05	427.54	181.37	129.41	55.119	1.2803e-05	84.455	0.0013272	0.0014155	0.00038646	751.15	1.5296e-05	1.5448e-05	1027.9	272.32	1.5173e-05	1.5366e-05	392.84	165.89	119.78	50.562	1.5222e-05	76.781	116.175	40.926	297.983	-43.268	-39.867	136.267	-43.716	-39.102	103.776	80.848	-40.424	-37.202	-35.624	-31.142	-36.856	-34.331	-8191	255	
32428.441	1	1	0	0	0.3056	0.056844	0.16181	0.13664	0.30267	0.2159	0.19225	0.061568	0.058127	0.091339	0.16466	0.35197	0.14114	0.16866	0.049481	0.086828	-1.9146	-3.0896	-3.0667	-2.5792	-3.3375	-2.6	-2.9229	-3.2417	-2.5187	-3.0542	-3.0958	-2.5687	-3.3604	-2.7333	-2.7271	-3.3688	201.246	68.817	81.563	299.376	116.218	165.777	251.757	149.588	56.561	153.051	239.092	266.511	289.391	223.283	32.028	273.565	0.00028541	0.00052199	0.00039893	814.15	9.1014e-06	1.2045e-05	1136.6	297.36	2.3819e-06	9.3107e-06	426.96	181.18	129.27	54.725	1.0313e-05	84.497	0.0013113	0.0013959	0.00039001	750.76	1.5067e-05	1.5304e-05	1029.6	273.47	1.5207e-05	1.5429e-05	392.69	165.94	119.64	50.544	1.5367e-05	77.037	107.161	115.774	33.089	-43.214	88.402	276.192	-43.795	-39.067	78.874	97.982	-40.845	-37.131	-35.566	-31.621	112.838	-34.028	-8191	255	
32428.537	1	1	0	0	0.2574	0.063117	0.3401	0.15367	0.050815	0.074339	0.29657	0.35652	0.045717	0.30554	0.23494	0.17808	0.18884	0.15176	0.090241	0.1187	-2.1	-2.8333	-3.0542	-2.6458	-3.3312	-2.8833	-2.8187	-3.3146	-2.7208	-2.9792	-3.3521	-2.65	-3.2604	-2.9521	-2.4083	-3.3479	104.678	38.553	25.112	-32.810	279.251	-11.451	265.429	-44.925	211.895	-41.289	-45.914	293.025	284.175	301.066	171.115	246.342	0.00018878	0.00054389	0.00030746	813.37	3.0708e-06	4.5673e-06	1133.2	297.6	2.5676e-06	1.594e-05	430.19	179.84	129.54	55.16	1.0823e-05	83.807	0.0013314	0.0014096	0.00039431	750.74	1.5071e-05	1.547e-05	1028.1	272.88	1.5063e-05	1.5228e-05	394.1	165.45	119.59	50.469	1.5416e-05	76.685	65.636	126.152	48.655	-43.098	89.134	128.212	-43.879	-39.134	11.145	94.625	-40.770	-37.272	-35.526	-31.559	46.594	-33.824	-8191	255	
32428.656	1	1	0	0	0.091312	0.19449	0.16045	0.025705	0.077657	0.14785	0.19621	0.11772	0.1384	0.22928	0.35929	0.099501	0.13361	0.24715	0.08856	0.37222	-2.2062	-2.75	-3.0646	-2.4958	-3.1375	-3.0333	-2.6625	-3.4667	-2.6125	-2.8667	-3.3063	-2.4958	-3.2396	-2.9188	-2.7083	-3.3833	84.403	-3.984	-22.116	-19.156	7.011	25.069	297.236	194.596	288.418	171.581	184.787	-33.819	300.011	41.862	298.436	250.529	0.00029293	0.0014346	0.00040797	811.27	1.197e-07	1.176e-05	1127	296.58	7.9183e-06	5.3074e-06	426.57	180.07	128.94	54.724	1.5671e-05	84.147	0.001346	0.0014125	0.00039184	750.03	1.528e-05	1.5727e-05	1025.2	272.2	1.5253e-05	1.5688e-05	391.44	165.45	119.19	50.435	1.5576e-05	76.746	90.301	22.823	12.047	-42.929	215.901	98.170	-43.754	-39.353	95.492	108.369	-40.375	-37.304	-35.483	-31.305	73.700	-34.100	-8191	255	
32428.752	1	1	0	0	0.14099	0.20815	0.038072	0.078017	0.21408	0.12159	0.15327	0.13866	0.2054	0.11062	0.26554	0.20668	0.26947	0.20276	0.30137	0.034171	-2.2229	-2.6917	-3.1208	-2.5146	-3.2	-2.9667	-2.5312	-3.275	-2.5187	-2.6021	-3.2729	-2.6854	-3.1604	-3.275	-2.3187	-3.3375	43.562	189.695	-36.418	223.222	56.628	67.341	269.353	-47.063	75.405	256.969	237.860	0.360	234.613	261.623	61.089	-5.901	0.00033498	0.0011208	0.00045681	803.91	1.7297e-06	1.0028e-05	1129	294.14	1.589e-06	6.3675e-06	426.56	178.71	128.57	54.951	1.4893e-05	83.283	0.0013714	0.0014312	0.00039851	744.74	1.5216e-05	1.5562e-05	1020.3	271.15	1.5369e-05	1.5547e-05	391.7	164.19	118.66	50.299	1.5466e-05	76.36	162.083	-40.131	-53.058	-43.417	75.185	-32.709	-43.841	-39.147	175.325	100.904	-40.741	-37.200	-35.402	-31.614	24.663	-34.029	-8191	255	
32428.848	1	1	0	0	0.053622	0.17297	0.10985	0.12618	0.079421	0.10342	0.38142	0.16413	0.10534	0.16765	0.24249	0.18263	0.40964	0.0725	0.19632	0.27551	-2.3958	-2.5917	-3.2208	-2.5792	-3.075	-3.0833	-2.5104	-3.1604	-2.6188	-2.6792	-3.2625	-2.6958	-2.8104	-3.3521	-2.5375	-3.475	109.012	-9.922	85.740	189.784	-2.178	147.779	235.794	284.557	33.190	242.511	44.518	198.880	-33.225	238.125	119.865	251.764	0.00030863	0.00098017	0.00035613	803.16	3.341e-06	4.3382e-06	1123.3	297.03	5.4879e-06	3.2001e-06	424.17	179.11	128.21	54.411	1.0609e-05	83.761	0.001344	0.0014033	0.00039259	745.2	1.5506e-05	1.5588e-05	1021.5	271.99	1.5384e-05	1.5553e-05	391.08	164.66	118.91	50.184	1.5314e-05	76.541	94.261	113.704	-41.004	-42.904	-16.998	252.429	-43.810	-39.261	7.232	72.975	-40.696	-37.448	-35.203	-31.477	100.318	-33.932	-8191	255	
32428.945	1	1	0	0	0.16386	0.13245	0.1556	0.18279	0.1204	0.15532	0.41407	0.27669	0.12994	0.074498	0.23274	0.35463	0.053599	0.15958	0.13838	0.022748	-2.5896	-2.4938	-3.1604	-2.6042	-2.9333	-3.3042	-2.5833	-3.2771	-3.0312	-2.5708	-3.2854	-2.675	-2.8271	-3.4583	-2.4271	-3.1625	1.511	268.756	15.674	147.744	-53.649	136.161	240.623	265.315	134.012	192.532	288.124	264.772	92.499	240.871	280.024	170.151	0.00027242	0.0015788	0.00025384	813.2	6.3116e-06	1.0725e-05	1124.7	294.73	1.154e-06	6.9104e-06	423.38	179.72	128.63	55.126	1.1401e-05	84.374	0.0013427	0.0014048	0.00038766	748.06	1.5398e-05	1.5323e-05	1021.7	271.57	1.5426e-05	1.5521e-05	391.28	165.25	118.93	50.383	1.5584e-05	76.911	75.848	65.505	60.620	-43.162	57.026	102.255	-43.786	-38.952	27.248	76.670	-40.414	-37.449	-35.482	-31.406	27.083	-33.827	-8191	255	
32429.041	1	1	0	0	0.14914	0.21235	0.088802	0.27522	0.21172	0.30727	0.13743	0.25706	0.21681	0.22126	0.12566	0.20534	0.10601	0.087784	0.19971	0.027442	-2.5812	-2.6646	-3.225	-2.6875	-2.8542	-3.3646	-2.7542	-2.9625	-3.1833	-2.4917	-3.2271	-2.8083	-2.7292	-3.4167	-2.6146	-3.1188	189.606	81.272	-3.932	248.377	12.224	238.486	155.843	-53.275	110.829	-15.335	288.904	229.663	199.658	-35.189	-45.836	255.369	0.00019226	0.00096899	0.00025712	809.56	3.4542e-06	8.8769e-06	1126.2	295.82	3.6913e-06	8.9686e-06	427.05	179.09	128.82	55.009	1.0107e-05	83.767	0.0013504	0.0014078	0.00038887	746.08	1.5374e-05	1.5591e-05	1025.5	271.4	1.5495e-05	1.5365e-05	392.04	165.26	119.14	50.414	1.5481e-05	76.84	113.607	231.291	-48.363	-43.163	50.664	138.801	-43.782	-39.405	-14.825	67.937	-40.285	-37.008	-35.044	-31.078	174.404	-34.017	-8191	255	
32429.137	1	1	0	0	0.17861	0.10734	0.25906	0.25411	0.094343	0.078696	0.13297	0.13952	0.11154	0.099952	0.32696	0.22839	0.099465	0.12068	0.21901	0.37771	-2.7604	-2.5083	-3.1396	-2.8	-2.6813	-3.0938	-2.5375	-2.975	-3.1542	-2.5667	-3.3104	-3.0438	-2.7333	-3.4271	-2.4771	-2.9313	278.311	-45.932	119.603	2.564	198.030	80.616	93.894	222.105	287.414	160.279	249.826	218.829	194.609	245.319	244.764	280.844	8.5348e-05	0.0004892	0.0004394	803.87	3.8615e-06	7.2202e-06	1117.6	295.04	3.5707e-06	1.0297e-05	428.97	178.83	128.81	54.727	5.0826e-06	83.742	0.0013384	0.0014083	0.00039309	745.3	1.5432e-05	1.5236e-05	1020.5	271.5	1.532e-05	1.5606e-05	392.37	165.05	118.83	50.271	1.5605e-05	76.885	119.880	16.430	4.984	-43.086	118.078	139.033	-44.028	-39.116	96.212	98.444	-40.552	-37.480	-35.200	-31.537	-18.089	-33.935	-8191	255	
32429.258	1	1	0	0	0.25159	0.11696	0.058769	0.13034	0.076932	0.057898	0.16446	0.11341	0.28124	0.24883	0.159	0.23072	0.15492	0.10459	0.11484	0.21396	-2.7562	-2.5083	-2.8229	-3.0958	-2.5729	-3.3833	-2.6583	-2.9729	-3.125	-2.4583	-3.1875	-2.9625	-2.4708	-3.3	-2.6396	-2.8396	-40.645	237.932	102.239	16.230	52.827	82.365	252.665	207.206	178.846	132.599	58.193	-47.539	260.972	223.436	9.792	2.900	0.00022887	0.00027326	0.00011519	803.17	1.0405e-05	1.4402e-05	1119.9	294.69	1.3942e-05	2.0374e-05	427.62	179.95	128.75	55.303	6.6338e-06	83.703	0.0013755	0.0014215	0.0003937	744.5	1.5584e-05	1.5641e-05	1020.2	270.96	1.548e-05	1.5685e-05	391.97	164.96	119.02	50.547	1.5503e-05	76.852	91.205	77.181	78.132	-43.143	159.168	104.221	-43.498	-38.892	103.503	40.354	-40.659	-36.958	-35.277	-31.383	-41.706	-34.060	-8191	255	
32429.354	1	1	0	0	0.16167	0.020347	0.2234	0.18122	0.20713	0.088858	0.26979	0.12653	0.075703	0.24096	0.45171	0.10138	0.41039	0.15165	0.13096	0.21287	-2.8688	-2.5438	-2.8854	-2.8771	-2.4583	-3.0875	-3	-2.6458	-3.3625	-2.6146	-2.9583	-3.2146	-2.6813	-3.3833	-2.8438	-2.7042	60.648	59.684	70.962	-24.106	134.173	-29.588	239.485	-48.862	30.589	216.379	271.834	-49.076	282.910	277.157	23.276	254.720	0.00030076	0.0023022	0.0002672	806.04	6.6506e-06	3.1134e-06	1126.3	294.79	4.4305e-06	9.8729e-06	431.25	181.26	130.3	54.636	7.2248e-06	84.642	0.0013515	0.0014121	0.00039202	746	1.5322e-05	1.5432e-05	1024.1	272.17	1.5294e-05	1.5562e-05	395.39	166.69	119.91	50.513	1.5654e-05	77.53	157.368	56.191	19.138	-43.013	39.444	231.770	-43.881	-38.970	78.425	64.041	-40.616	-37.659	-35.288	-31.256	74.738	-33.846	-8191	255	
32429.447	1	1	0	0	0.21656	0.29417	0.24792	0.27319	0.21391	0.14429	0.12817	0.1742	0.26818	0.19893	0.35096	0.16496	0.047512	0.16148	0.25766	0.17135	-2.7271	-2.4583	-2.9313	-3.2542	-2.4792	-3.1583	-2.9437	-2.4646	-3.0042	-2.5521	-2.9979	-3.3063	-2.4667	-3.3104	-2.8688	-2.6937	-50.915	-20.352	22.561	219.063	194.657	-54.046	276.207	255.016	-23.420	249.121	-48.542	239.511	-51.290	272.769	208.270	267.106	0.00033774	0.0024016	0.00035181	811.95	3.6387e-06	6.0201e-06	1131.6	296.08	7.6264e-06	1.783e-06	426.6	182.34	130.08	55.047	6.7599e-06	84.258	0.001326	0.0014333	0.00040144	748.2	1.5277e-05	1.5811e-05	1028.3	273.23	1.5344e-05	1.5505e-05	393.35	166.69	119.96	50.594	1.5432e-05	77.148	117.210	47.560	59.424	-43.515	93.022	198.964	-44.070	-38.663	148.739	22.243	-40.452	-37.875	-35.259	-31.134	60.758	-33.712	-8191	255	
32429.547	1	1	0	0	0.15341	0.15456	0.17941	0.11923	0.1494	0.041947	0.19822	0.12353	0.040633	0.16553	0.13189	0.028995	0.20898	0.14038	0.081284	0.42423	-2.9917	-2.5583	-2.6792	-3.1833	-2.3688	-3.1	-3.1458	-2.575	-3.15	-2.5917	-2.8542	-3.3792	-2.6792	-3.0354	-3.1437	-2.5104	-24.970	-10.550	194.196	107.255	2.577	236.625	273.369	168.112	218.457	104.522	250.148	139.635	38.447	283.984	285.848	235.993	0.00036998	0.00045627	0.00044085	807.6	5.741e-06	1.5885e-06	1121	294.35	5.7099e-06	1.0395e-05	427.75	179.62	128.91	54.905	1.3103e-05	84.235	0.0013147	0.0014526	0.0003953	745.63	1.5427e-05	1.5572e-05	1023.2	272.11	1.5355e-05	1.5791e-05	393.1	166.23	119.67	50.616	1.5726e-05	76.95	110.419	58.739	55.225	-43.320	91.021	117.566	-43.755	-38.933	82.900	61.973	-40.738	-37.388	-35.449	-31.054	160.902	-33.756	-8191	255	
32429.641	1	1	0	0	0.098803	0.12876	0.31201	0.12455	0.36675	0.20263	0.28189	0.066324	0.064251	0.10998	0.3395	0.25141	0.079302	0.25861	0.3012	0.050628	-2.9062	-2.9313	-2.6479	-3.4396	-2.3917	-3.0312	-3.1292	-2.6104	-3.1437	-2.8812	-2.5771	-3.3854	-2.6458	-3.0333	-3.0292	-2.4604	152.586	195.626	211.788	256.519	45.345	74.209	264.280	70.513	118.098	-54.219	259.179	259.365	-55.745	291.896	224.798	113.073	0.00034498	0.00077221	0.00028702	806.22	2.338e-06	1.3189e-06	1128.1	295.51	5.0194e-06	9.7596e-06	430.82	181.89	128.83	55.339	8.264e-06	83.911	0.0013641	0.0014427	0.00039417	746.15	1.5756e-05	1.5644e-05	1026.1	272.02	1.5545e-05	1.6025e-05	394.54	166.83	119.42	50.718	1.5819e-05	76.933	113.552	61.512	18.310	-43.303	152.239	-5.240	-44.061	-39.244	92.838	169.576	-40.521	-37.576	-35.418	-31.159	61.083	-33.823	-8191	255	
32429.736	1	1	0	0	0.14726	0.21456	0.11823	0.18575	0.41713	0.073947	0.18115	0.12083	0.24542	0.19693	0.43167	0.32458	0.28385	0.1962	0.12432	0.26843	-2.6021	-2.6583	-2.6312	-3.4146	-2.4958	-2.8187	-3.3	-2.4729	-3.0833	-3.0333	-2.6167	-3.4667	-2.7812	-2.8125	-3.2708	-2.55	-26.628	146.775	56.509	131.093	42.076	-37.053	242.860	278.562	113.919	200.072	233.898	228.119	288.072	230.663	287.242	276.739	0.00033136	0.0008317	0.0001818	804.19	8.4728e-06	7.9164e-06	1134.7	298.34	3.54e-06	6.3146e-06	429.76	182.71	130.66	55.454	1.612e-05	84.652	0.0013616	0.0014576	0.0004006	746.24	1.5625e-05	1.5909e-05	1029	274.06	1.5299e-05	1.5895e-05	395.64	167.44	120.47	50.879	1.5703e-05	77.371	96.003	-27.135	7.330	-43.354	61.140	88.181	-44.104	-38.903	282.731	190.774	-40.394	-37.203	-35.160	-31.126	17.916	-33.731	-8191	255	
32429.832	1	1	0	0	0.145	0.22995	0.22948	0.23776	0.053704	0.21876	0.18462	0.1592	0.23694	0.094755	0.024296	0.15025	0.15809	0.30687	0.11154	0.40695	-2.7208	-2.9375	-2.4958	-3.2229	-2.7354	-2.6	-3.4271	-2.4188	-3.0521	-3.1458	-2.7854	-3.3396	-2.7188	-2.7896	-3.1188	-2.5292	267.485	49.080	89.857	231.429	7.298	139.329	224.471	22.006	79.084	112.257	56.250	175.511	116.178	264.707	178.832	240.611	0.00030694	0.00066395	0.00027445	816.78	2.6869e-06	8.0826e-06	1128.2	298.22	9.296e-06	9.4888e-06	424.26	183.4	129.78	55.52	3.587e-06	83.864	0.0013759	0.0014465	0.00039476	751.97	1.5726e-05	1.5713e-05	1025.1	274.49	1.5645e-05	1.574e-05	393.3	167.15	120.39	50.908	1.553e-05	76.849	93.212	87.038	51.423	-43.562	84.800	96.093	-44.140	-39.067	25.469	80.275	-40.246	-37.396	-35.537	-31.382	140.555	-33.861	-8191	255	
32429.953	1	1	0	0	0.064612	0.20268	0.20133	0.15378	0.29102	0.1227	0.37403	0.067007	0.19673	0.11394	0.27992	0.21802	0.28057	0.1506	0.094302	0.1832	-2.6271	-3.0396	-2.4583	-3.2771	-2.8625	-2.6375	-3.5625	-2.5917	-2.6604	-3.0958	-2.5375	-3.1646	-2.8979	-2.4896	-3.2333	-2.6396	-27.637	-18.899	237.220	231.434	133.436	-1.758	239.808	168.776	302.483	5.324	-28.112	293.340	232.040	276.212	103.643	-37.382	0.00031708	0.0018816	0.00027198	808.79	7.7117e-06	4.3064e-06	1131.5	298.59	2.6407e-06	1.4318e-05	429.88	183.04	129.68	55.454	3.7879e-06	84.212	0.0013341	0.0014297	0.00039659	753.06	1.5812e-05	1.594e-05	1029	274.93	1.566e-05	1.5808e-05	395.12	167.5	120.22	50.812	1.5603e-05	76.916	99.806	13.679	37.083	-43.671	198.763	51.046	-44.000	-39.098	22.291	98.992	-40.582	-37.366	-35.501	-31.394	208.659	-34.235	-8191	255	
32430.049	1	1	0	0	0.36055	0.077364	0.10122	0.15796	0.17295	0.080633	0.12962	0.11305	0.1463	0.20513	0.24088	0.30592	0.069443	0.22337	0.17889	0.10275	-2.3854	-3.25	-2.4562	-3.1792	-2.8958	-2.6813	-3.3812	-2.6104	-2.6958	-3.0646	-2.4542	-3.2125	-2.9833	-2.4583	-3.0458	-2.8292	-29.463	217.328	198.525	211.124	243.397	60.122	258.378	297.721	85.040	39.395	286.111	236.988	-30.594	265.135	269.784	287.289	0.00032591	0.0012337	2.8296e-05	816.38	9.7198e-06	1.6967e-06	1129.9	299.3	1.346e-05	9.6599e-06	430.58	182.63	130.96	55.211	3.2937e-06	84.427	0.0013531	0.0014261	0.0003941	753.31	1.5869e-05	1.5598e-05	1028	275.62	1.5532e-05	1.5431e-05	394.35	167.14	120.45	50.739	1.5148e-05	77.186	113.062	-16.891	58.527	-43.313	72.387	141.260	-43.930	-39.263	89.483	179.262	-40.419	-37.015	-35.378	-31.360	150.940	-34.384	-8191	255	
32430.146	1	1	0	0	0.075097	0.26941	0.074243	0.19553	0.073983	0.27031	0.24965	0.11623	0.23149	0.1126	0.17751	0.31382	0.10864	0.22298	0.27255	0.019582	-2.15	-3.0354	-2.2562	-3.0563	-3.1312	-2.3937	-3.35	-2.7333	-2.7021	-3.2229	-2.5375	-3.0875	-3.0729	-2.45	-3.2083	-2.9167	88.405	39.361	5.138	286.159	-28.160	217.222	236.574	194.370	211.052	158.650	296.652	266.642	15.367	258.436	92.095	257.590	0.00038103	0.00077861	0.00017336	815.21	3.7304e-06	6.2602e-06	1129.8	297.71	1.1467e-05	6.2554e-06	432.89	182.01	130.84	55.943	1.0935e-05	84.68	0.0013427	0.001395	0.00038911	752.06	1.5218e-05	1.5361e-05	1030.5	275.17	1.5175e-05	1.5228e-05	396.96	167.61	120.81	51.096	1.5425e-05	77.507	115.836	26.386	116.352	-43.348	279.424	59.759	-43.814	-39.157	88.187	61.778	-40.671	-37.041	-35.849	-31.369	64.929	-34.159	-8191	255	
32430.242	1	1	0	0	0.1645	0.16997	0.04416	0.044234	0.30902	0.057191	0.23657	0.048837	0.05002	0.082015	0.23069	0.16351	0.14829	0.2773	0.095409	0.4656	-2.3063	-3.2771	-2.5417	-2.95	-3.1167	-2.3458	-3.2729	-2.8229	-2.6125	-3.175	-2.6896	-2.8542	-3.2938	-2.575	-3.0042	-2.9625	42.854	46.363	222.122	89.109	228.051	208.849	210.595	277.281	69.443	3.225	-16.667	284.966	181.676	226.383	46.114	267.995	0.000305	0.00054117	0.00021662	814.25	6.3205e-06	5.967e-06	1126.5	298.04	3.682e-06	1.3942e-05	429.08	182.72	130.33	55.481	7.4831e-06	84.61	0.0013501	0.0014101	0.00039687	753.45	1.5608e-05	1.5459e-05	1026.1	274.45	1.5549e-05	1.5622e-05	395.72	167.48	120.24	50.86	1.5921e-05	77.358	155.791	91.470	279.255	-43.073	134.387	104.771	-43.708	-38.970	29.078	35.666	-40.779	-37.535	-35.504	-31.418	218.675	-34.127	-8191	255	
32430.338	1	1	0	0	0.10845	0.12595	0.23667	0.30658	0.19743	0.075928	0.35882	0.096045	0.23455	0.13418	0.13877	0.15875	0.029664	0.15552	0.19381	0.2092	-2.0271	-3.2042	-2.5771	-2.7125	-3.2083	-2.4125	-3.2458	-3.1667	-2.3333	-3.2542	-2.9667	-2.8083	-3.4083	-2.6354	-2.9437	-3.1333	3.183	208.959	290.858	299.204	91.351	76.115	253.612	7.149	217.841	237.232	271.892	277.582	90.147	190.697	280.783	50.139	0.00038057	0.00044748	0.00025685	807.03	1.6655e-05	9.1093e-06	1132.7	297.86	1.0155e-05	1.4979e-05	426.99	182.37	129.35	55.617	4.3687e-06	84.641	0.0013591	0.0014613	0.00040012	748.71	1.5516e-05	1.561e-05	1027.7	274.48	1.5365e-05	1.5645e-05	394.69	167.44	120.42	50.863	1.5736e-05	77.356	104.070	40.509	1.454	-43.096	37.860	-5.816	-43.767	-39.404	130.715	118.620	-40.531	-37.083	-35.498	-31.334	226.617	-33.885	-8191	255	
32430.434	1	1	0	0	0.29862	0.10402	0.20823	0.19177	0.1079	0.074326	0.3227	0.357	0.17864	0.21402	0.27237	0.40077	0.16436	0.086579	0.047986	0.040809	-2.0563	-3.2021	-2.6979	-2.7521	-3.1208	-2.7125	-2.9604	-3.0979	-2.4792	-3.2021	-3.075	-2.7021	-3.3125	-2.7833	-2.6021	-3.2917	140.705	66.071	168.074	151.878	73.767	282.793	256.509	264.463	235.169	-47.121	227.205	258.702	240.813	294.816	136.156	234.342	0.00020793	0.0014287	0.0004202	811.31	1.3095e-05	7.8814e-06	1130.9	302.08	6.0739e-06	8.1687e-06	434	184.32	131.8	55.175	7.5422e-06	85.412	0.0013327	0.0014293	0.00039968	750.36	1.5351e-05	1.5626e-05	1031.3	276.41	1.5057e-05	1.5574e-05	397.69	168.38	121.48	50.862	1.5828e-05	77.759	138.853	-11.438	31.272	-43.519	133.884	88.756	-43.708	-39.084	77.336	79.463	-40.926	-37.023	-35.224	-31.616	84.098	-34.050	-8191	255	
32430.529	1	1	0	0	0.2478	0.053649	0.0298	0.23082	0.33843	0.19414	0.099899	0.12297	0.062656	0.24959	0.15556	0.20556	0.095023	0.35171	0.14199	0.16299	-2.0417	-3.15	-2.85	-2.5708	-3.2313	-2.5375	-3.0396	-3.2771	-2.3333	-3.1104	-3.0396	-2.7479	-3.3583	-2.6562	-2.5542	-3.45	129.431	122.833	64.889	222.941	111.849	23.551	228.301	-11.387	22.525	164.646	-8.314	170.392	33.160	279.615	226.899	227.235	0.00033289	0.00068474	0.00036827	813.58	1.4059e-05	7.0621e-06	1135.6	300.89	7.4261e-06	4.3384e-06	435.2	185.4	131.6	55.654	1.3005e-05	85.254	0.0013331	0.0014081	0.00040005	750.73	1.523e-05	1.5698e-05	1035	276.03	1.5415e-05	1.5629e-05	399.68	169.28	121.36	51.059	1.5672e-05	77.655	124.824	15.335	69.476	-43.097	86.099	113.634	-43.895	-39.058	55.376	30.066	-40.519	-37.388	-35.322	-31.097	104.812	-34.091	-8191	255	
32430.627	1	1	0	0	0.091655	0.1024	0.23242	0.10918	0.091705	0.024719	0.12679	0.11915	0.10013	0.20061	0.1668	0.14906	0.20531	0.20473	0.26117	0.19726	-2.0583	-2.9583	-2.9229	-2.6646	-3.0875	-2.7354	-2.9354	-3.3083	-2.4062	-3.1292	-2.9354	-2.5917	-3.0896	-2.7583	-2.5687	-3.4104	160.070	175.595	140.708	202.370	145.631	120.096	-34.420	199.176	283.484	-11.860	-54.015	211.966	-3.293	259.862	271.117	272.315	0.00014733	0.0014829	0.00033384	805.37	1.0346e-05	1.2013e-06	1134.7	299.28	6.5258e-06	1.1534e-05	429.06	184.01	130.76	55.532	1.4938e-05	84.879	0.0013505	0.0014294	0.00040256	749.12	1.55e-05	1.5679e-05	1031	274.99	1.5307e-05	1.5729e-05	395.86	168.57	120.83	50.801	1.5526e-05	77.481	98.444	-25.344	15.091	-42.929	174.980	138.096	-43.488	-39.147	85.831	110.748	-40.797	-37.196	-35.439	-31.319	189.429	-33.726	-8191	255	
32430.744	1	1	0	0	0.15712	0.4157	0.19612	0.24233	0.011893	0.18938	0.22763	0.077884	0.22606	0.034873	0.1207	0.2446	0.18906	0.20035	0.34135	0.25593	-2.0125	-3.0104	-2.95	-2.4875	-3.1208	-2.875	-2.6125	-3.35	-2.3708	-2.9229	-3.125	-2.6646	-3.2625	-2.7042	-2.5208	-3.2958	108.293	251.652	290.036	182.710	22.056	-8.035	263.005	23.242	168.369	-0.373	298.137	258.805	-37.480	282.319	303.260	178.660	0.00028853	0.0005547	0.00012211	809.7	7.2861e-06	7.5194e-06	1123.7	297.8	6.2444e-06	1.0362e-05	428.55	183.01	130.09	54.968	1.312e-05	84.643	0.001356	0.0014339	0.00040586	749.76	1.5402e-05	1.5752e-05	1026.3	274.22	1.5624e-05	1.5535e-05	395	167.67	120.54	50.67	1.5707e-05	77.293	210.681	298.806	-5.385	-42.969	71.988	100.211	-43.921	-38.617	251.712	34.235	-40.355	-37.404	-35.674	-31.528	-15.261	-33.756	-8191	255	
32430.842	1	1	0	0	0.27774	0.15241	0.28356	0.28005	0.23393	0.12942	0.35748	0.074182	0.050932	0.25364	0.18271	0.18279	0.038905	0.17235	0.18451	0.19583	-2.3125	-2.7646	-3.0958	-2.4313	-3.0833	-2.9042	-2.6229	-3.2521	-2.55	-2.7812	-3.2583	-2.55	-3.025	-2.9729	-2.5187	-3.3833	71.621	189.256	180.850	250.791	138.775	101.319	216.914	215.972	62.507	224.512	194.768	217.652	79.478	216.007	220.527	236.903	0.00021807	0.00043063	0.0001879	806.16	7.0157e-06	1.3213e-05	1135.6	299.07	8.7983e-06	6.5817e-06	432.45	183.84	130.65	55.381	8.2636e-06	85.023	0.0013757	0.0014517	0.00039905	747.46	1.5655e-05	1.5738e-05	1028.5	274.66	1.5754e-05	1.5623e-05	397.21	168.74	120.92	50.934	1.5483e-05	77.411	131.307	264.597	236.591	-43.479	77.831	75.372	-43.881	-38.884	109.991	42.816	-40.664	-37.298	-35.360	-31.043	-5.110	-33.852	-8191	255	
32430.938	1	1	0	0	0.11799	0.2736	0.16735	0.22291	0.055745	0.22125	0.2787	0.26643	0.13277	0.0416	0.099109	0.10744	0.10014	0.27539	0.018469	0.21414	-2.1771	-2.6792	-3.0896	-2.5292	-2.9958	-2.9792	-2.4896	-3.2938	-2.4688	-2.7833	-3.3937	-2.6354	-2.9896	-3.1708	-2.5125	-3.3042	259.022	49.193	-30.700	221.864	254.437	216.057	293.824	263.844	172.884	-27.795	198.662	175.041	178.599	-38.342	-50.178	-31.197	0.00043625	0.00033542	0.00043554	816.51	7.3101e-06	8.9689e-06	1136.9	300.58	9.3262e-06	1.3538e-05	432.69	184.79	132.15	55.327	1.6768e-05	84.924	0.0013768	0.0014181	0.00038931	753.25	1.5548e-05	1.577e-05	1033	276.74	1.5695e-05	1.5802e-05	398.32	169.58	121.84	50.915	1.5584e-05	77.654	128.525	132.312	-1.015	-43.418	78.461	274.265	-43.288	-39.235	160.968	132.886	-40.502	-37.208	-35.309	-31.247	104.959	-33.863	-8191	255	
32431.033	1	1	0	0	0.13531	0.15401	0.42879	0.31459	0.15544	0.27016	0.33647	0.2192	0.15432	0.31921	0.13263	0.079613	0.067729	0.14109	0.10321	0.17296	-2.3187	-2.6729	-3.2313	-2.3646	-2.8917	-3.0917	-2.4042	-3.3417	-2.8563	-2.6854	-3.35	-2.5896	-3.0521	-3.2958	-2.525	-3.1125	259.491	135.816	32.181	239.680	-30.067	243.308	239.228	218.186	157.477	-2.987	-55.431	-39.359	286.187	131.600	31.494	94.674	0.00032742	0.0013133	0.0001905	809.66	4.2812e-06	9.3658e-06	1127.6	301.04	4.4779e-06	6.3476e-06	432.42	185.61	131.99	55.292	1.2183e-05	84.259	0.0013697	0.0014144	0.00039448	750.73	1.5519e-05	1.5717e-05	1028.8	276.78	1.5583e-05	1.5488e-05	397.7	169.2	122.02	50.793	1.5315e-05	77.146	147.748	101.090	-6.561	-43.046	67.421	70.388	-43.853	-38.892	10.997	278.370	-40.556	-37.585	-35.218	-31.333	109.708	-33.769	-8191	255	
32431.131	1	1	0	0	0.097826	0.090334	0.057325	0.14268	0.24738	0.31131	0.19693	0.25229	0.026735	0.21184	0.22831	0.32447	0.031162	0.19913	0.23536	0.28975	-2.4042	-2.3792	-3.2167	-2.4979	-2.6396	-3.1625	-2.4854	-2.9917	-2.9354	-2.3604	-3.3812	-2.7729	-2.9167	-3.3042	-2.4938	-3.1542	-21.447	208.057	126.862	91.015	80.189	262.151	-49.839	-0.730	250.552	50.989	179.022	256.076	133.627	286.632	109.620	265.275	0.00026174	0.00086271	7.3133e-05	807.55	1.0879e-05	1.2614e-05	1126.1	302.49	3.0357e-06	1.7633e-05	433.06	183.73	132.22	55.405	6.592e-06	84.489	0.0013584	0.0014198	0.0003933	749.61	1.5496e-05	1.5185e-05	1027.8	277.26	1.5538e-05	1.5387e-05	398.8	169.42	121.77	50.847	1.5565e-05	77.264	113.974	57.436	269.593	-43.642	144.699	165.095	-43.690	-38.854	161.395	119.035	-40.597	-37.202	-35.416	-31.583	112.045	-33.799	-8191	255	
32431.227	1	1	0	0	0.051103	0.27213	0.11911	0.39426	0.16722	0.14203	0.19004	0.080058	0.14576	0.05426	0.36617	0.1262	0.33436	0.13392	0.041672	0.13151	-2.5438	-2.4854	-3.0187	-2.7	-2.7396	-3.1875	-2.5917	-3.1229	-3.1042	-2.5104	-3.2625	-2.9562	-2.6396	-3.2687	-2.5292	-3.1542	-3.343	291.202	23.544	236.851	32.796	250.975	205.170	264.398	205.671	268.624	297.322	-24.706	280.599	286.193	222.398	262.348	0.00022667	0.00041119	3.9857e-05	810.17	4.8884e-06	3.9564e-06	1134	302.88	1.5279e-05	7.4285e-06	435.35	184.65	132.68	55.343	1.6376e-05	85.055	0.0013401	0.0014071	0.00039394	750.17	1.5444e-05	1.5397e-05	1031.6	277.24	1.531e-05	1.5381e-05	399.68	169.56	122.31	50.875	1.5515e-05	77.414	156.186	-56.740	102.412	-43.441	167.757	87.357	-43.994	-39.074	57.127	167.380	-40.556	-37.657	-35.341	-31.551	35.006	-33.764	-8191	255	
32431.348	1	1	0	0	0.31552	0.13903	0.17994	0.30975	0.054505	0.1254	0.13908	0.26561	0.16004	0.071825	0.20856	0.27862	0.14641	0.23928	0.24239	0.36253	-2.6458	-2.4437	-3.0896	-2.6771	-2.3625	-3.1937	-2.6396	-2.9604	-3.125	-2.375	-3.1854	-2.9604	-2.5396	-3.2292	-2.6417	-2.9333	-25.153	44.292	-25.875	222.873	254.350	244.538	229.299	239.685	152.411	-42.948	-31.845	266.508	13.586	273.406	276.669	234.395	0.00036832	0.00019615	9.1343e-05	813.84	7.3126e-06	1.1268e-05	1133.3	301.04	1.4456e-06	1.5746e-05	433.41	185.7	131.62	55.548	1.1528e-05	84.828	0.0013128	0.0014216	0.00039844	752.59	1.5101e-05	1.5313e-05	1029.6	277.08	1.5334e-05	1.5371e-05	399.43	169.12	121.9	50.807	1.566e-05	77.065	118.008	206.124	232.487	-43.094	174.686	125.009	-43.798	-39.290	97.681	85.141	-40.423	-37.630	-35.467	-31.630	66.393	-33.806	-8191	255	
32431.441	1	1	0	0	0.22422	0.34297	0.21046	0.13656	0.28921	0.18067	0.16117	0.16438	0.052246	0.068435	0.30862	0.19818	0.012444	0.22394	0.082192	0.15366	-2.7354	-2.3208	-3.2208	-2.9479	-2.3583	-3.3896	-2.9729	-2.7271	-3.1479	-2.5667	-3.1813	-3.1958	-2.5146	-3.3625	-2.7542	-2.8312	254.399	286.201	134.876	-12.718	203.280	210.858	247.986	200.764	71.169	269.251	156.047	234.595	127.877	291.626	21.492	198.007	0.000198	0.00048182	0.00013904	807.06	4.0685e-06	1.2528e-05	1124.9	301.55	4.1666e-06	1.8577e-06	432.86	184.87	130.56	55.128	7.4497e-06	83.96	0.0013281	0.0014072	0.00039578	747.73	1.5248e-05	1.5495e-05	1023.1	275.84	1.5085e-05	1.5575e-05	396.96	168.75	120.82	50.56	1.5336e-05	76.612	142.874	219.493	164.190	-43.181	45.763	92.069	-44.032	-39.195	259.657	117.461	-40.403	-37.200	-35.570	-31.385	125.861	-33.832	-8191	255	
32431.537	1	1	0	0	0.11724	0.24764	0.27271	0.12955	0.20906	0.033856	0.21112	0.12967	0.019528	0.17464	0.056827	0.33297	0.15572	0.18578	0.054916	0.27778	-2.6958	-2.5521	-2.9917	-3.2083	-2.5146	-3.1604	-3.0771	-2.7583	-3.1562	-2.3896	-2.9104	-3.2687	-2.6875	-3.2458	-2.7458	-2.7896	-15.428	112.198	198.093	-54.769	215.659	89.809	276.775	290.190	297.739	-21.224	301.963	278.689	122.098	-56.130	89.120	284.317	0.00034845	0.00053322	0.00053573	803.1	1.0333e-05	6.2214e-06	1125.1	298.71	4.8874e-06	1.2899e-05	431.41	182.84	131.73	54.912	3.7707e-06	84.074	0.0013254	0.0014128	0.00038917	744.24	1.508e-05	1.5511e-05	1019.5	274.92	1.4961e-05	1.5312e-05	396.03	167.76	121.14	50.517	1.5101e-05	76.773	94.188	62.710	59.126	-43.494	111.896	148.291	-43.708	-38.994	179.616	14.366	-40.308	-37.621	-35.534	-31.250	26.366	-33.824	-8191	255	
32431.633	1	1	0	0	0.13446	0.15729	0.15267	0.087122	0.025807	0.061177	0.21007	0.31506	0.14097	0.03799	0.26884	0.039368	0.040665	0.124	0.22939	0.49856	-2.8583	-2.4625	-2.9396	-3.0687	-2.4688	-3.0292	-2.9833	-2.6083	-3.1771	-2.5208	-2.8479	-3.3312	-2.4625	-3.1167	-2.8729	-2.5854	128.150	49.601	97.100	109.612	287.386	160.766	-7.561	236.899	-46.994	283.948	0.775	109.230	94.982	212.421	170.608	247.429	0.00028037	0.0015952	2.9959e-05	808.67	1.1689e-05	5.2762e-06	1126.2	299.88	1.2444e-05	3.7801e-06	433.66	183.93	131.45	54.6	6.9024e-06	84.269	0.0013259	0.0014072	0.00038843	743.82	1.5104e-05	1.5287e-05	1024.5	275.64	1.4944e-05	1.5548e-05	396.99	168.53	121.29	50.402	1.5598e-05	76.671	63.716	57.136	146.433	-43.413	144.702	-12.118	-44.088	-39.259	42.310	282.216	-40.681	-37.447	-35.203	-31.278	92.046	-33.798	-8191	255	
32431.729	1	1	0	0	0.15762	0.12336	0.29532	0.045199	0.14777	0.16692	0.41947	0.28739	0.16094	0.04249	0.25973	0.075457	0.18588	0.33588	0.19597	0.18761	-2.7333	-2.5875	-2.7104	-3.0812	-2.4437	-3.1562	-3.0667	-2.6083	-3.3312	-2.7521	-2.8187	-3.3292	-2.3917	-2.9292	-3.0875	-2.6583	45.497	12.420	242.886	256.893	-52.263	250.565	200.470	227.147	264.254	27.414	298.280	244.206	293.402	248.508	9.909	11.194	0.00033798	0.0007041	0.00019032	803.19	4.9829e-06	2.1497e-05	1125.9	299.09	8.394e-06	6.1252e-06	436.05	182.02	129.6	55.305	1.0555e-05	83.899	0.0013185	0.0014076	0.0003879	743.69	1.5284e-05	1.5354e-05	1023.4	274.31	1.5294e-05	1.5656e-05	396.76	167.91	120.38	50.626	1.5294e-05	76.774	139.030	62.465	-56.399	-43.526	45.312	117.376	-43.787	-39.172	215.352	90.540	-40.471	-37.296	-35.179	-31.145	50.559	-33.698	-8191	255	
32431.826	1	1	0	0	0.17454	0.035247	0.26691	0.25694	0.222	0.12286	0.36085	0.20424	0.28494	0.059131	0.091957	0.27525	0.21762	0.077876	0.097223	0.18062	-2.8438	-2.9708	-2.5563	-3.25	-2.4188	-2.9271	-3.2646	-2.65	-3.15	-2.8583	-2.5417	-3.3375	-2.6292	-2.9729	-3.1833	-2.5687	-52.240	199.028	115.060	-47.688	270.452	268.212	240.173	241.248	-8.821	255.253	234.354	235.786	269.619	239.499	236.998	274.255	0.00023283	0.001102	8.8285e-05	804.57	4.5579e-06	3.4819e-06	1112.9	297.96	3.115e-06	4.5008e-06	430.82	183.04	130.89	55.01	2.1135e-05	83.505	0.0013582	0.001432	0.00038615	743.51	1.5354e-05	1.5374e-05	1016.8	274.57	1.5484e-05	1.5531e-05	395.14	167.93	120.71	50.474	1.5296e-05	76.421	75.959	9.350	88.837	-42.717	197.137	273.696	-43.863	-39.162	58.285	51.016	-40.685	-37.244	-35.390	-31.339	69.930	-34.028	-8191	255	
32431.922	1	1	0	0	0.11595	0.03716	0.089514	0.11313	0.10757	0.21562	0.37565	0.20172	0.071383	0.15328	0.089597	0.24074	0.31849	0.21448	0.11258	0.15811	-2.7938	-2.8917	-2.7646	-3.4333	-2.6708	-2.7979	-3.3	-2.4708	-3.1312	-2.9646	-2.5938	-3.4021	-2.7104	-2.8063	-3.1646	-2.4646	142.488	135.117	86.745	-24.750	141.063	-17.943	236.839	234.345	279.124	287.546	241.515	289.046	-27.933	181.945	202.755	135.947	0.00028443	0.0011121	0.00036331	810.29	3.236e-06	1.7335e-05	1117.2	298.23	1.0113e-05	1.2302e-05	431.77	183.4	131.78	55.187	1.0914e-05	83.914	0.0013408	0.0014075	0.0003887	745.59	1.5235e-05	1.5395e-05	1019.2	274.71	1.5351e-05	1.5441e-05	395.17	167.92	121.29	50.536	1.5315e-05	76.664	128.765	177.289	-11.054	-43.181	11.102	52.941	-43.868	-39.551	114.140	31.188	-40.375	-37.270	-35.437	-31.375	-0.303	-33.755	-8191	255	
32432.043	1	1	0	0	0.24704	0.24488	0.11756	0.14751	0.13142	0.23943	0.26808	0.27914	0.20411	0.17896	0.34693	0.28892	0.071267	0.18187	0.15779	0.26228	-2.5958	-2.8146	-2.5083	-3.3542	-2.5625	-2.6063	-3.4708	-2.5187	-3.1521	-3.1833	-2.5479	-3.2896	-2.7479	-2.5917	-3.1437	-2.5958	252.569	197.288	75.584	102.199	238.862	31.509	241.144	236.001	87.660	121.433	182.132	286.300	143.627	236.602	163.049	293.493	6.6398e-05	0.0013888	0.00041386	806.69	5.4047e-06	8.7549e-06	1121.3	298.53	6.1983e-06	1.5125e-05	430.11	183.91	131.74	54.877	3.7418e-06	83.898	0.0013273	0.0013884	0.00038926	745.25	1.5222e-05	1.535e-05	1021.8	274.51	1.5292e-05	1.5573e-05	394.15	168.32	121.26	50.461	1.531e-05	76.965	144.031	13.172	10.096	-43.283	30.000	115.246	-43.966	-39.179	82.654	96.109	-40.341	-37.331	-35.364	-31.133	154.301	-33.997	-8191	255	
32432.139	1	1	0	0	0.19177	0.32576	0.07693	0.06967	0.15838	0.12947	0.095059	0.077702	0.17346	0.073559	0.16603	0.21015	0.38753	0.3502	0.069688	0.16383	-2.3771	-2.9771	-2.5833	-3.3354	-2.925	-2.5312	-3.3521	-2.6333	-2.85	-3.0958	-2.5396	-3.3792	-3.0729	-2.7687	-3.4917	-2.85	285.527	-1.093	299.383	187.234	9.386	64.502	276.900	84.866	244.527	274.567	162.778	255.432	301.225	289.086	140.863	259.136	0.00045316	0.0011413	9.4531e-05	805.21	4.6798e-06	8.1858e-06	1117.1	300.95	2.4093e-06	4.1791e-06	431.44	183.61	130.6	54.88	7.6152e-06	83.499	0.0013467	0.0014114	0.00038978	744.28	1.5196e-05	1.5323e-05	1020.5	275.9	1.5256e-05	1.5226e-05	395.54	168.25	121.14	50.523	1.5338e-05	76.464	109.175	49.930	29.887	-43.556	193.364	-37.847	-43.716	-39.337	94.155	52.067	-40.653	-37.527	-35.134	-31.139	118.369	-33.909	-8191	255	
32432.211	1	1	0	0	0.32323	0.23111	0.17073	0.18291	0.08125	0.1704	0.17061	0.28376	0.16697	0.07397	0.082529	0.21389	0.23138	0.28028	0.080531	0.12036	-2.4979	-3.1688	-2.4396	-3.1375	-2.8083	-2.6479	-3.3292	-2.7125	-2.675	-3.1813	-2.3479	-3.2375	-3.1729	-2.5875	-3.1521	-2.8688	73.957	193.244	98.267	244.914	253.461	90.483	232.640	215.841	296.768	277.025	255.254	-24.313	256.263	302.119	56.980	108.372	0.00049474	0.00209	0.00040642	801.27	1.4768e-05	6.4441e-06	1118.3	300.29	7.4623e-06	3.8005e-06	433.02	183.41	131.23	54.928	6.296e-06	83.791	0.0013171	0.0014081	0.0003955	742.61	1.5412e-05	1.5258e-05	1020.4	274.64	1.4999e-05	1.5234e-05	395.15	168.12	121.29	50.458	1.5331e-05	76.612	105.887	49.261	62.398	-43.178	104.854	262.181	-43.659	-39.041	71.953	128.417	-40.657	-37.197	-35.354	-31.195	-34.678	-33.919	-8191	255	
32432.307	1	1	0	0	0.094556	0.069545	0.024197	0.049112	0.089644	0.24374	0.16525	0.22676	0.24042	0.07802	0.10243	0.19906	0.15102	0.18582	0.13824	0.19002	-2.2438	-3.2292	-2.45	-2.9938	-3.025	-2.6937	-3.3771	-2.8021	-2.4479	-3.125	-2.7021	-2.9604	-3.0542	-2.7229	-3.225	-2.9813	57.188	-37.470	125.820	208.514	274.018	282.396	192.387	194.495	281.915	260.751	231.852	-37.517	291.288	216.061	38.635	235.064	0.0003621	0.0022032	0.00022282	802.76	8.8625e-06	3.8365e-06	1130.9	300.29	3.5814e-06	4.0423e-06	430.34	181.65	130.97	54.94	6.0682e-07	84.26	0.0013108	0.0013865	0.0003933	742.58	1.5203e-05	1.5311e-05	1024.1	275.16	1.4987e-05	1.539e-05	396.32	168.02	121.15	50.518	1.5293e-05	76.976	139.040	-34.531	53.319	-43.227	58.824	142.726	-44.042	-39.047	176.959	113.352	-40.437	-36.934	-35.747	-31.212	207.709	-33.764	-8191	255	
32432.428	1	1	0	0	0.10305	0.005183	0.13053	0.26422	0.18994	0.1628	0.098008	0.22884	0.12147	0.11817	0.089607	0.066525	0.11476	0.10782	0.20845	0.16581	-2.2375	-3.2938	-2.5062	-3.0167	-3.1375	-2.4708	-3.2958	-2.7979	-2.3125	-3.2625	-2.8063	-2.7771	-3.3187	-2.7521	-3.1667	-3.0542	214.877	-7.639	-55.552	233.968	216.328	138.102	277.563	282.482	57.473	275.975	35.196	-53.931	35.284	-33.575	83.151	232.652	0.00035867	0.0013754	0.00018751	803.74	8.081e-06	3.1562e-05	1125.9	300.4	2.6389e-06	9.0492e-06	434.54	185.51	132.04	55.302	2.5031e-06	84.3	0.0013193	0.00141	0.00039484	745.23	1.5205e-05	1.5442e-05	1024.5	275.79	1.525e-05	1.5315e-05	398.34	169.58	121.75	50.761	1.5089e-05	77.129	126.290	69.540	-44.056	-42.940	-7.024	98.400	-43.600	-39.104	25.366	68.645	-40.575	-37.058	-35.609	-31.158	-38.662	-34.195	-8191	255	
32432.521	1	1	0	0	0.13701	0.21352	0.045157	0.1279	0.17051	0.20027	0.31264	0.15069	0.10755	0.060923	0.28618	0.35693	0.36366	0.14867	0.18191	0.093928	-2.1125	-3.2021	-2.4833	-2.8063	-3.2479	-2.4708	-3.2	-3.15	-2.5458	-3.3688	-2.8958	-2.9479	-3.3187	-2.5458	-3.1083	-3.1917	254.094	123.851	234.466	-42.358	166.139	124.286	242.415	142.435	215.238	29.280	265.618	256.787	184.398	247.721	231.752	74.299	0.00019144	0.00086596	0.00024845	810.21	1.04e-05	3.0622e-06	1126.1	301.37	1.3466e-05	2.2623e-06	432.85	185.52	131.24	55.045	5.8276e-06	84.071	0.0013277	0.0014042	0.00039724	747.39	1.5121e-05	1.559e-05	1028.4	275.89	1.5309e-05	1.5116e-05	397.51	169.47	121.47	50.515	1.5394e-05	76.774	147.901	8.149	41.047	-43.558	78.594	15.604	-43.800	-39.440	92.617	38.573	-40.362	-37.193	-35.168	-31.346	80.149	-34.027	-8191	255	
32432.619	1	1	0	0	0.22475	0.066632	0.19377	0.12857	0.26261	0.19543	0.35699	0.26533	0.2494	0.24599	0.14376	0.18107	0.24342	0.17563	0.16636	0.20682	-2.0229	-3.2896	-2.8083	-2.7875	-3.2771	-2.8292	-3.1625	-3.4021	-2.4938	-3.4104	-3.1083	-2.7958	-3.3646	-2.6042	-2.9792	-3.4229	81.668	131.899	203.304	189.627	60.510	272.249	202.611	254.126	290.449	42.944	45.866	23.642	13.910	225.037	121.057	264.982	0.00050325	0.0009413	0.00050689	811	3.0388e-06	1.8986e-05	1127.1	299.75	4.937e-06	5.6363e-06	431.77	183.98	131.9	55.299	5.7504e-06	83.931	0.0013032	0.0013995	0.00038788	746.1	1.5021e-05	1.5337e-05	1022.7	275.23	1.5264e-05	1.545e-05	395.74	168.67	121.6	50.569	1.5248e-05	76.561	89.628	37.938	40.754	-43.241	278.454	140.060	-43.637	-38.992	280.224	-52.379	-40.333	-37.107	-35.373	-31.228	187.907	-34.155	-8191	255	
32432.738	1	1	0	0	0.26473	0.091652	0.11824	0.09003	0.060287	0.12202	0.17993	0.1065	0.25385	0.16439	0.12886	0.21157	0.20501	0.29814	0.062849	0.15852	-2.1229	-3.1417	-2.7104	-2.8042	-3.4167	-2.6729	-3.1333	-3.1625	-2.3625	-3.1896	-2.9458	-2.7521	-3.2812	-2.6562	-2.8229	-3.3667	56.898	282.722	75.357	297.299	262.290	16.319	183.549	236.413	82.070	196.379	123.385	257.273	81.627	279.231	87.345	246.795	0.00046953	0.00097155	0.00038093	806.39	9.1281e-06	1.3642e-05	1127.3	299.07	3.1711e-06	1.3428e-05	431.62	185.3	132.24	54.906	8.4992e-06	83.806	0.0013472	0.0014017	0.00038941	746.29	1.5151e-05	1.58e-05	1023.5	274.73	1.5457e-05	1.5629e-05	397.41	169.21	121.34	50.532	1.5217e-05	76.795	105.834	-32.527	66.222	-43.404	67.123	254.069	-43.554	-39.146	101.028	144.004	-40.661	-37.471	-35.678	-31.422	98.031	-34.235	-8191	255	
32432.811	1	1	0	0	0.12248	0.10561	0.10981	0.22018	0.068805	0.10651	0.28815	0.15922	0.043012	0.1107	0.25723	0.30574	0.1076	0.22122	0.10197	0.36516	-2.0208	-3	-2.9313	-2.7167	-3.2292	-2.6792	-2.7812	-3.4292	-2.4875	-3.0625	-3.1937	-2.6	-3.3083	-2.8917	-2.6521	-3.4875	245.866	259.782	14.600	261.976	252.967	91.285	257.209	299.919	276.833	299.918	273.377	-51.150	3.010	229.436	243.774	240.724	7.3556e-05	0.00080832	9.0232e-05	802.59	1.6721e-06	4.3979e-06	1135.1	300.56	5.362e-06	5.3864e-06	433.47	186.26	132.13	55.239	1.5616e-05	84.284	0.0013411	0.0014299	0.00039124	744.52	1.5176e-05	1.5459e-05	1028.2	276.27	1.533e-05	1.5444e-05	397.32	169.76	121.95	50.613	1.5345e-05	77.038	149.058	53.043	-12.591	-43.405	71.394	121.206	-43.643	-39.028	189.626	-6.407	-40.881	-37.585	-35.757	-31.367	96.509	-33.831	-8191	255	
32432.906	1	1	0	0	0.38812	0.2973	0.25563	0.12894	0.19015	0.1738	0.43887	0.13354	0.21489	0.11992	0.064173	0.18297	0.27627	0.070907	0.18932	0.45133	-2.2167	-2.9667	-2.9542	-2.5083	-3.2771	-2.7458	-2.7938	-3.3854	-2.6813	-3.0625	-3.2042	-2.6729	-3.3792	-3.0125	-2.625	-3.3417	107.090	218.642	158.872	-48.431	254.301	24.248	232.205	230.916	275.181	236.442	187.254	-55.842	-39.118	-26.237	205.196	294.361	0.00039275	0.0012775	9.4753e-05	802.87	1.4664e-05	9.3051e-06	1125.5	300.7	5.055e-06	4.5348e-06	430.94	184.61	131.66	55.179	1.4481e-05	84.358	0.0013527	0.0014218	0.00039179	743.63	1.5559e-05	1.5654e-05	1026	275.69	1.5373e-05	1.5518e-05	397.17	168.9	121.24	50.638	1.5261e-05	77.119	129.481	47.807	243.145	-43.391	54.957	29.827	-43.742	-39.260	79.629	206.169	-40.732	-37.040	-35.165	-31.265	153.432	-33.653	-8191	255	
32433.027	1	1	0	0	0.23096	0.19957	0.10707	0.10715	0.11998	0.16946	0.11682	0.20378	0.152	0.20406	0.14699	0.061272	0.12635	0.17567	0.20016	0.28201	-2.1188	-2.9688	-3.3	-2.4479	-3.1271	-2.8354	-2.6625	-3.3979	-2.5479	-2.8208	-3.2667	-2.6521	-3.2646	-3.0833	-2.4833	-3.4875	277.120	229.798	178.091	237.485	46.595	171.175	290.574	188.032	259.026	230.939	195.849	-44.997	187.598	287.516	33.366	236.580	0.00028226	0.0019812	0.00017993	801.67	1.3232e-05	1.1827e-05	1128.5	298.86	6.7975e-06	1.03e-05	430.87	185.11	131.62	55.447	1.6287e-05	83.936	0.0013323	0.0013979	0.0003877	744.54	1.5019e-05	1.5335e-05	1021.7	275.15	1.5254e-05	1.5238e-05	396.28	168.57	121.23	50.594	1.5424e-05	76.928	104.900	76.508	2.980	-43.337	79.456	117.553	-43.549	-39.223	72.407	48.881	-40.476	-37.569	-35.516	-31.676	61.365	-33.763	-8191	255	
32433.123	1	1	0	0	0.070598	0.13375	0.25621	0.15109	0.10841	0.23329	0.17866	0.39822	0.28143	0.13379	0.08957	0.068584	0.10741	0.20975	0.02067	0.079084	-2.2854	-2.7604	-3.1417	-2.5958	-2.8979	-3.0646	-2.7542	-3.1229	-2.7417	-2.6271	-3.3333	-2.4562	-3.0104	-3.1458	-2.4083	-3.3833	296.469	6.871	131.511	172.186	23.652	-32.805	228.848	270.955	218.999	165.880	177.156	-32.027	238.976	8.706	88.935	-54.131	0.00036595	0.00032675	9.1646e-05	802.16	2.0999e-06	9.4179e-06	1124.8	302.08	1.5201e-05	7.612e-06	434.79	183.9	132.35	55.215	1.3935e-05	84.971	0.0013338	0.0014403	0.0003924	742.99	1.5269e-05	1.5493e-05	1022.8	276.41	1.5386e-05	1.5258e-05	398.08	169.16	121.87	50.568	1.5579e-05	77.26	86.383	162.909	130.484	-43.527	99.194	74.479	-44.051	-38.957	71.554	215.479	-40.554	-37.317	-35.163	-31.635	90.803	-33.606	-8191	255	
32433.219	1	1	0	0	0.39383	0.083041	0.11031	0.24762	0.1817	0.05672	0.31084	0.12152	0.073178	0.2236	0.093473	0.091825	0.054129	0.18085	0.12276	0.16075	-2.3958	-2.5938	-3.3708	-2.4458	-2.9813	-2.9833	-2.6333	-3.2583	-2.8771	-2.5146	-3.2271	-2.6542	-3.1104	-3.3104	-2.4396	-3.4313	301.254	239.339	98.173	-48.871	7.333	70.528	278.841	247.701	90.473	82.626	-41.733	197.311	272.720	228.429	75.876	270.350	0.00023983	0.00057933	0.00027782	808.94	4.998e-06	1.3672e-05	1131.1	302.31	2.0042e-06	5.2384e-06	430.81	185.66	131.85	55.413	1.8142e-05	84.99	0.0013411	0.0014154	0.0003915	746.11	1.5246e-05	1.5548e-05	1027.1	276.61	1.5124e-05	1.5578e-05	398.37	169.77	121.99	50.84	1.5699e-05	77.383	89.091	119.139	46.440	-43.596	44.421	93.940	-44.053	-39.125	-31.441	275.628	-40.209	-37.498	-35.089	-31.425	112.506	-33.861	-8191	255	
32433.314	1	1	0	0	0.1232	0.10009	0.13986	0.30699	0.12258	0.22286	0.21916	0.18661	0.22735	0.060778	0.09962	0.22469	0.21154	0.23735	0.32706	0.20512	-2.3063	-2.4625	-3.1542	-2.7146	-2.9688	-3.2521	-2.9167	-3.2292	-2.9542	-2.5896	-3.3458	-2.7708	-2.8958	-3.3833	-2.3896	-3.2938	176.764	235.233	-51.324	234.146	279.712	79.575	192.474	244.443	-29.087	154.075	223.288	277.736	-30.653	245.006	-38.089	-37.396	0.00010648	0.0014838	0.00012823	807.28	2.4722e-06	1.1542e-05	1131.7	301.41	4.9987e-06	2.6555e-06	434.43	185.92	132.5	55.557	6.1369e-06	84.509	0.001324	0.0014139	0.00039423	745.98	1.5404e-05	1.5504e-05	1027	276.95	1.511e-05	1.5393e-05	398.93	169.89	122.23	50.681	1.5353e-05	77.206	185.438	38.704	39.955	-43.629	13.684	189.266	-43.786	-39.189	21.506	156.763	-40.241	-37.428	-35.221	-31.320	146.430	-33.572	-8191	255	
32433.434	1	1	0	0	0.21283	0.13513	0.0687	0.14861	0.19313	0.19973	0.067906	0.048428	0.38055	0.084991	0.1873	0.13275	0.031926	0.10233	0.36043	0.04242	-2.6833	-2.4896	-3.1437	-2.7396	-2.7271	-3.2646	-2.5812	-3.1917	-3.1417	-2.4167	-3.2146	-2.8708	-2.7812	-3.4833	-2.4458	-2.9625	203.305	183.118	277.316	215.836	219.145	215.260	294.946	296.882	261.974	49.230	235.380	41.960	265.793	-34.867	12.828	185.444	0.00014571	0.00087472	0.00044842	808.41	8.285e-06	4.6271e-06	1127.1	300.73	2.2122e-06	1.522e-05	437.73	184.73	131.23	55.219	1.9247e-05	84.84	0.001329	0.0013964	0.00038741	745.74	1.519e-05	1.5395e-05	1022.7	276.27	1.5143e-05	1.5222e-05	398.95	169.11	121.64	50.559	1.5517e-05	77.191	58.271	92.110	97.952	-43.201	78.901	166.262	-43.800	-39.058	297.349	70.650	-40.772	-37.454	-35.023	-31.448	89.423	-33.470	-8191	255	
32433.508	1	1	0	0	0.10709	0.058369	0.069796	0.078073	0.1411	0.15774	0.10916	0.361	0.13555	0.17067	0.19256	0.35015	0.17957	0.24087	0.17326	0.23464	-2.7083	-2.3146	-3.1521	-3.0583	-2.4896	-3.2313	-2.775	-2.975	-3.1208	-2.4562	-3.2687	-2.7958	-2.6333	-3.3229	-2.5792	-2.7771	285.664	218.383	196.459	-19.643	159.974	275.608	-48.903	-43.352	230.494	157.669	208.556	276.024	296.992	291.140	233.557	294.292	0.00016923	0.00055384	0.00013209	805.85	7.0704e-06	1.0367e-05	1123.3	302.2	3.3784e-06	8.4174e-06	436.14	183.58	131.88	55.194	6.4638e-06	85.218	0.0013277	0.0014354	0.00039082	745	1.5375e-05	1.5478e-05	1023.4	276.65	1.5363e-05	1.5605e-05	398.71	169.1	121.74	50.654	1.5158e-05	77.511	88.001	121.280	250.869	-43.045	280.944	81.044	-43.912	-38.844	244.017	45.703	-40.552	-37.456	-35.320	-31.556	105.740	-33.851	-8191	255	
32433.602	1	1	0	0	0.1001	0.20619	0.1165	0.27434	0.074366	0.14592	0.29436	0.2424	0.1833	0.23886	0.075673	0.33076	0.11936	0.15836	0.077954	0.25261	-2.775	-2.325	-3.1083	-3.0354	-2.3646	-3.3438	-2.6417	-2.9	-3.2104	-2.5583	-3.2021	-3.1562	-2.5375	-3.2938	-2.6437	-2.875	234.714	193.811	2.699	-26.545	10.972	106.145	270.257	296.766	221.735	240.874	134.387	224.645	207.159	296.953	226.397	185.383	0.00038997	0.0015607	0.00031294	801.54	5.6708e-06	5.8951e-06	1120.6	299.84	1.0837e-05	3.8447e-06	433.69	185.1	132.33	55.065	3.1434e-06	85.252	0.0013527	0.0014066	0.00038882	743.14	1.5032e-05	1.5085e-05	1023.2	276.21	1.5186e-05	1.5228e-05	398.49	169.81	121.83	50.745	1.5212e-05	77.589	92.579	-10.812	121.000	-43.430	191.753	54.970	-43.990	-38.648	116.057	89.526	-40.249	-36.891	-35.210	-31.114	265.916	-33.565	-8191	255	
#DATA ENDS
