BOXY.EXE: ISS Imagent and Oximeter Data Acquisition Program Version 0.80
Ascii Record File

#ACQ INFORMATION
2  Detector Channels 
16  External MUX Channels 
1  Auxiliary Channels 
5000  Waveform (CCF) Frequency (Hz)
1  Waveforms Skipped 
30  Waveforms Averaged 
1  Cycles Averaged 
16  Acquisitions per Waveform 
10.0806  Updata Rate (Hz) 

#FILE INFORMATION
TRUE -- External MUX Channel results are PARSED.
FALSE -- AC DC and Phase are NOT grouped.
TRUE -- Companion Program Settings File CREATED.
FALSE -- AC data not excluded
FALSE -- DC data not excluded
FALSE -- Phase data not excluded
FALSE -- Auxillary Chn. data not excluded
Tab delimiters

#CALIBRATION STATE
TRUE -- Waveform Calibration Values APPLIED.


#AUX CALIBRATION VALUES
Val Type	aux-1	

Term	1.0000e+00	
Factor	0.0000e+00	


#WF CALIBRATION VALUES
A = Detector Channel
Val Type	A-AC1	A-AC2	A-AC3	A-AC4	A-AC5	A-AC6	A-AC7	A-AC8	A-AC9	A-AC10	A-AC11	A-AC12	A-AC13	A-AC14	A-AC15	A-AC16	A-DC1	A-DC2	A-DC3	A-DC4	A-DC5	A-DC6	A-DC7	A-DC8	A-DC9	A-DC10	A-DC11	A-DC12	A-DC13	A-DC14	A-DC15	A-DC16	A-Ph1	A-Ph2	A-Ph3	A-Ph4	A-Ph5	A-Ph6	A-Ph7	A-Ph8	A-Ph9	A-Ph10	A-Ph11	A-Ph12	A-Ph13	A-Ph14	A-Ph15	A-Ph16	

Term	0.00000e+00	0.00000e+00	0.00000e+00	0.00000e+00	0.00000e+00	0.00000e+00	0.00000e+00	0.00000e+00	0.00000e+00	0.00000e+00	0.00000e+00	0.00000e+00	0.00000e+00	0.00000e+00	0.00000e+00	0.00000e+00	0.00000e+00	0.00000e+00	0.00000e+00	0.00000e+00	0.00000e+00	0.00000e+00	0.00000e+00	0.00000e+00	0.00000e+00	0.00000e+00	0.00000e+00	0.00000e+00	0.00000e+00	0.00000e+00	0.00000e+00	0.00000e+00	0.00000e+00	0.00000e+00	0.00000e+00	0.00000e+00	0.00000e+00	0.00000e+00	0.00000e+00	0.00000e+00	0.00000e+00	0.00000e+00	0.00000e+00	0.00000e+00	0.00000e+00	0.00000e+00	0.00000e+00	0.00000e+00	
Factor	1.00000e+00	1.00000e+00	1.00000e+00	1.00000e+00	1.00000e+00	1.00000e+00	1.00000e+00	1.00000e+00	1.00000e+00	1.00000e+00	1.00000e+00	1.00000e+00	1.00000e+00	1.00000e+00	1.00000e+00	1.00000e+00	1.00000e+00	1.00000e+00	1.00000e+00	1.00000e+00	1.00000e+00	1.00000e+00	1.00000e+00	1.00000e+00	1.00000e+00	1.00000e+00	1.00000e+00	1.00000e+00	1.00000e+00	1.00000e+00	1.00000e+00	1.00000e+00	X	X	X	X	X	X	X	X	X	X	X	X	X	X	X	X	

B = Detector Channel
Val Type	B-AC1	B-AC2	B-AC3	B-AC4	B-AC5	B-AC6	B-AC7	B-AC8	B-AC9	B-AC10	B-AC11	B-AC12	B-AC13	B-AC14	B-AC15	B-AC16	B-DC1	B-DC2	B-DC3	B-DC4	B-DC5	B-DC6	B-DC7	B-DC8	B-DC9	B-DC10	B-DC11	B-DC12	B-DC13	B-DC14	B-DC15	B-DC16	B-Ph1	B-Ph2	B-Ph3	B-Ph4	B-Ph5	B-Ph6	B-Ph7	B-Ph8	B-Ph9	B-Ph10	B-Ph11	B-Ph12	B-Ph13	B-Ph14	B-Ph15	B-Ph16	

Term	0.00000e+00	0.00000e+00	0.00000e+00	0.00000e+00	0.00000e+00	0.00000e+00	0.00000e+00	0.00000e+00	0.00000e+00	0.00000e+00	0.00000e+00	0.00000e+00	0.00000e+00	0.00000e+00	0.00000e+00	0.00000e+00	0.00000e+00	0.00000e+00	0.00000e+00	0.00000e+00	0.00000e+00	0.00000e+00	0.00000e+00	0.00000e+00	0.00000e+00	0.00000e+00	0.00000e+00	0.00000e+00	0.00000e+00	0.00000e+00	0.00000e+00	0.00000e+00	-1.65560e+02	-1.26939e+02	-1.30200e+02	-1.83531e+02	-7.95580e+01	-6.23298e+01	-1.55913e+02	-1.62015e+02	-8.00935e+01	-6.99222e+01	-1.69783e+02	-1.70754e+02	-1.79463e+02	-1.76415e+02	-7.83609e+01	-1.49214e+02	
Factor	2.59736e-05	1.59396e-04	3.76247e-05	1.70707e-01	1.04767e-06	1.40068e-06	1.50441e-01	4.85057e-02	9.61463e-07	1.40745e-06	8.22453e-02	2.84523e-02	2.38378e-02	8.71675e-03	1.43886e-06	1.23208e-02	3.02569e-06	3.31224e-06	9.20197e-07	9.14355e-02	3.58392e-08	3.62363e-08	7.61070e-02	2.61631e-02	3.57514e-08	3.62322e-08	4.28669e-02	1.48528e-02	1.29378e-02	4.71403e-03	3.60000e-08	6.45373e-03	X	X	X	X	X	X	X	X	X	X	X	X	X	X	X	X	



#DISTANCE SETTINGS
A = Detector Channel
A-1	A-2	A-3	A-4	A-5	A-6	A-7	A-8	A-9	A-10	A-11	A-12	A-13	A-14	A-15	A-16	

2.5000e+00	3.0000e+00	2.5000e+00	3.0000e+00	2.0000e+00	3.0000e+00	1.5000e+00	3.0000e+00	3.0000e+00	3.0000e+00	3.0000e+00	3.0000e+00	3.0000e+00	3.0000e+00	1.5000e+00	3.0000e+00	

B = Detector Channel
B-1	B-2	B-3	B-4	B-5	B-6	B-7	B-8	B-9	B-10	B-11	B-12	B-13	B-14	B-15	B-16	

1.0000e+01	1.0000e+01	1.0000e+01	1.4400e+00	1.0000e+01	1.0000e+01	1.5100e+00	1.9400e+00	1.0000e+01	1.0000e+01	1.9900e+00	2.4900e+00	2.4100e+00	2.9000e+00	1.0000e+01	2.9800e+00	




#DATA BEGINS
time	group	step	mark	flag	A-AC1	A-AC2	A-AC3	A-AC4	A-AC5	A-AC6	A-AC7	A-AC8	A-AC9	A-AC10	A-AC11	A-AC12	A-AC13	A-AC14	A-AC15	A-AC16	A-DC1	A-DC2	A-DC3	A-DC4	A-DC5	A-DC6	A-DC7	A-DC8	A-DC9	A-DC10	A-DC11	A-DC12	A-DC13	A-DC14	A-DC15	A-DC16	A-Ph1	A-Ph2	A-Ph3	A-Ph4	A-Ph5	A-Ph6	A-Ph7	A-Ph8	A-Ph9	A-Ph10	A-Ph11	A-Ph12	A-Ph13	A-Ph14	A-Ph15	A-Ph16	B-AC1	B-AC2	B-AC3	B-AC4	B-AC5	B-AC6	B-AC7	B-AC8	B-AC9	B-AC10	B-AC11	B-AC12	B-AC13	B-AC14	B-AC15	B-AC16	B-DC1	B-DC2	B-DC3	B-DC4	B-DC5	B-DC6	B-DC7	B-DC8	B-DC9	B-DC10	B-DC11	B-DC12	B-DC13	B-DC14	B-DC15	B-DC16	B-Ph1	B-Ph2	B-Ph3	B-Ph4	B-Ph5	B-Ph6	B-Ph7	B-Ph8	B-Ph9	B-Ph10	B-Ph11	B-Ph12	B-Ph13	B-Ph14	B-Ph15	B-Ph16	aux-1	digaux	

32278.711	1	1	0	512	0.18458	0.19423	0.13183	0.13185	0.097917	0.18288	0.097424	0.16145	0.1258	0.19374	0.40558	0.16095	0.17455	0.057884	0.10637	0.22039	-2.5729	-3.2438	-2.7042	-3.1771	-3.1813	-2.5542	-3.5187	-2.8688	-2.6917	-3.4875	-2.8208	-3.2021	-3.3271	-2.7562	-3.3083	-3.025	148.044	33.497	96.714	15.171	-131.429	110.732	167.253	114.971	43.118	47.437	112.418	-7.948	160.092	-89.783	-105.909	145.478	8.2031e-05	0.0021273	0.00075437	171.71	1.8468e-05	2.3405e-05	261.04	60.223	1.9317e-06	3.2054e-06	107.25	41.492	24.612	10.625	4.6737e-05	18.574	0.045097	0.049064	0.013645	1525.3	0.00052711	0.00053072	1384.2	446.66	0.00052147	0.00052796	740.53	260.81	213.98	80.167	0.00053147	115.04	179.077	-161.344	-18.618	-156.077	-146.390	-17.799	-157.237	-151.440	134.504	93.815	-152.698	-149.378	-148.295	-143.998	-143.115	-146.464	-8191	255	
32278.807	1	1	0	0	0.1466	0.08925	0.15011	0.12466	0.19199	0.085002	0.030285	0.28683	0.2462	0.0817	0.07378	0.15938	0.15383	0.13189	0.0051027	0.224	-2.3063	-3.3125	-2.8479	-2.9646	-3.3625	-2.5	-3.4771	-3.0312	-2.5896	-3.425	-2.9333	-3.1083	-3.3771	-2.7229	-3.25	-3.0563	113.060	81.277	-115.268	1.038	1.298	-17.851	-50.000	151.902	43.321	56.825	170.920	-156.971	-142.293	-133.261	-3.039	134.626	0.000309	0.0038759	0.0010245	167.27	3.6337e-05	3.8597e-05	258.42	60.517	1.8551e-05	4.601e-05	110.44	41.71	24.389	10.674	6.171e-05	18.618	0.044746	0.048955	0.013698	1533.9	0.00053102	0.0005359	1396.9	450.6	0.0005271	0.00053451	747.77	262.9	215.98	80.895	0.0005353	115.33	1.138	48.095	60.546	-157.609	-96.146	-75.931	-157.227	-151.355	-140.368	125.453	-154.716	-149.944	-147.495	-143.695	52.990	-145.099	-8191	255	
32278.902	1	1	0	0	0.16187	0.10318	0.20336	0.085946	0.22281	0.068005	0.12426	0.036023	0.10341	0.1814	0.12215	0.077282	0.084454	0.05094	0.053556	0.18393	-2.3083	-3.2667	-2.7229	-2.9354	-3.3875	-2.5625	-3.2771	-3.1188	-2.8292	-3.4396	-3.0729	-2.8812	-3.3708	-2.6813	-3.2042	-3.2604	-101.908	18.628	184.004	-99.728	-143.732	25.376	114.412	150.199	134.342	154.253	-6.449	75.205	17.855	93.897	75.801	168.193	0.00090242	0.0019841	0.0016742	169.38	2.7241e-05	3.5869e-05	253.52	61.672	2.2977e-05	4.1505e-05	109.15	42.139	24.106	10.654	1.1457e-05	18.679	0.044799	0.049236	0.013714	1532.1	0.00053197	0.00053778	1402	450.69	0.00052876	0.00053722	749.55	262.8	216.14	80.987	0.00053614	115	145.418	168.893	-168.127	-156.500	36.991	-160.743	-157.255	-150.236	-142.877	-155.846	-151.924	-150.206	-148.186	-143.514	54.129	-146.041	-8191	255	
32278.998	1	1	0	0	0.16565	0.14607	0.2098	0.14571	0.10759	0.10043	0.039405	0.19307	0.20184	0.193	0.23581	0.17821	0.036181	0.23667	0.14692	0.080006	-2.1729	-3.4417	-3.0271	-2.85	-3.4042	-2.9042	-3.0521	-3.2313	-2.6833	-3.3625	-2.9333	-2.8854	-3.35	-2.675	-3.0021	-3.4292	94.377	60.999	79.413	43.444	100.294	-3.060	112.985	1.180	-35.668	-115.892	-94.873	-89.186	189.238	5.241	-20.825	91.460	0.00075039	0.0015061	0.00052215	172.55	8.5493e-06	2.8902e-05	256.08	60.396	3.3661e-05	1.9619e-05	107.36	41.969	24.461	10.904	1.8959e-05	18.431	0.044818	0.049334	0.013737	1528.1	0.0005303	0.00053958	1402	450.13	0.00052787	0.00053738	749.06	262.14	215.62	80.958	0.00053238	114.27	179.873	-15.014	-134.544	-154.152	-107.761	150.119	-156.201	-151.334	101.147	-146.921	-152.697	-150.118	-147.778	-142.868	48.370	-147.361	-8191	255	
32279.119	1	1	0	0	0.23848	0.10023	0.069334	0.12664	0.10308	0.067851	0.23038	0.11589	0.13734	0.19411	0.048932	0.21436	0.027506	0.35976	0.18431	0.16602	-2.1833	-3.3438	-3.0812	-2.5687	-3.5771	-2.6542	-3.0312	-3.1875	-2.7313	-3.3708	-2.9938	-2.725	-3.5062	-3.0083	-3.0563	-3.4229	-105.563	187.970	77.856	123.606	128.440	-73.953	98.042	171.653	183.794	-29.353	107.936	76.005	124.017	157.711	43.922	-50.413	0.0012729	0.0033426	0.00051521	165.82	3.5179e-05	3.8915e-06	256.4	60.867	3.3344e-05	2.2791e-05	109.49	41.745	24.666	10.738	7.3621e-06	18.459	0.044437	0.048995	0.013617	1518.8	0.00052893	0.00053909	1396.8	448.59	0.00052876	0.00053896	746.98	261.57	215.39	80.782	0.00052874	113.47	-114.438	141.266	75.590	-157.131	90.423	-6.764	-157.090	-151.359	124.299	145.362	-152.685	-149.196	-148.369	-143.523	-46.098	-145.353	-8191	255	
32279.217	1	1	0	0	0.14292	0.15474	0.1434	0.29377	0.13616	0.33952	0.085415	0.094058	0.10168	0.13608	0.12522	0.30663	0.067403	0.15951	0.10871	0.094263	-2.2833	-3.2271	-3.0833	-2.5521	-3.3708	-2.8937	-3.0062	-3.4146	-2.6	-3.3292	-3.1458	-2.5792	-3.4396	-2.9	-2.8083	-3.5062	-134.748	-61.703	67.592	94.901	190.258	128.788	92.202	158.870	153.545	-138.981	22.265	-128.362	-34.263	116.848	77.515	17.780	0.00053217	0.0029678	0.00070295	168.52	6.8321e-06	5.3763e-05	250.51	61.335	1.0611e-05	3.1559e-05	109.16	42.038	24.103	10.808	2.3474e-05	18.864	0.044156	0.048603	0.013439	1503.2	0.00052287	0.00053042	1374.3	443.22	0.00052197	0.00053178	737.01	259.78	214.93	80.616	0.00052825	114.04	-18.519	123.820	-4.442	-155.338	-122.119	-38.958	-157.411	-151.271	-53.833	81.963	-153.732	-149.270	-148.472	-143.720	8.429	-146.039	-8191	255	
32279.312	1	1	0	0	0.29287	0.2148	0.1591	0.092065	0.12201	0.091921	0.063806	0.09605	0.08434	0.092889	0.089063	0.055771	0.18023	0.20099	0.14645	0.11478	-2.2583	-3.0979	-3.2271	-2.775	-3.3229	-2.9854	-2.6708	-3.4792	-2.75	-2.9375	-3.3	-2.7229	-3.4167	-2.9521	-2.6063	-3.5729	29.606	153.905	-58.947	153.089	-162.478	-159.270	131.019	139.956	-107.029	10.408	119.214	156.701	129.297	34.590	-144.234	61.551	0.00081458	0.0037529	0.00026919	166.02	3.0627e-05	2.0165e-05	252.2	60.585	1.9012e-05	3.2603e-05	107.23	41.145	23.754	10.974	2.7033e-05	18.639	0.044692	0.049031	0.013575	1518.9	0.00053089	0.00053832	1388.7	448.59	0.00053032	0.0005399	747.8	263.22	218.61	81.836	0.00053761	116.19	54.267	135.407	-68.411	-157.499	-135.865	29.135	-157.481	-150.866	-70.565	-124.673	-152.750	-147.790	-148.065	-142.020	76.981	-147.360	-8191	255	
32279.406	1	1	0	0	0.12991	0.35531	0.075183	0.11646	0.15305	0.16986	0.28194	0.071659	0.19828	0.12121	0.16558	0.18621	0.0055951	0.016948	0.13946	0.1066	-2.4646	-2.9958	-3.3812	-2.6771	-3.2792	-2.9333	-2.5708	-3.4437	-2.6729	-2.9667	-3.4	-2.4625	-3.1729	-3.1292	-2.6854	-3.4083	-134.083	126.558	85.023	-31.304	-31.909	-165.670	145.182	100.451	-135.229	157.470	65.134	112.307	64.643	181.142	-58.982	-147.268	0.0001306	0.0044196	0.001069	168.94	3.919e-05	3.3454e-05	258.05	61.215	1.5409e-06	5.3438e-05	110.16	41.126	24.336	10.861	1.43e-05	18.613	0.045666	0.049995	0.013842	1547.6	0.00054088	0.00054635	1403.6	453.87	0.00053712	0.00054409	750.03	264.39	218.42	81.449	0.00053488	115.81	147.743	-44.168	-98.445	-156.786	-99.365	135.620	-157.071	-151.830	149.985	-104.149	-152.262	-150.171	-147.454	-144.300	18.441	-146.386	-8191	255	
32279.504	1	1	0	0	0.037707	0.2336	0.068125	0.11684	0.17593	0.34867	0.029656	0.23318	0.18984	0.22669	0.16581	0.29745	0.06122	0.11011	0.038925	0.096739	-2.5271	-2.6771	-3.3542	-2.5958	-3.1562	-3.2583	-2.6458	-3.4167	-2.6521	-2.9208	-3.4146	-2.6958	-3.2	-3.2188	-2.6354	-3.3063	27.406	135.289	52.196	-125.476	-47.477	61.116	-3.361	78.857	-86.502	179.936	-151.486	59.752	50.188	101.392	74.052	-33.244	0.0015069	0.0045054	0.00051668	165.39	3.9828e-05	3.3295e-05	258.77	60.194	4.043e-05	4.6047e-05	108.93	41.538	23.846	10.827	3.7418e-05	18.638	0.045354	0.049517	0.013739	1541.2	0.00053991	0.00054348	1403.8	454.26	0.00053569	0.00053906	747.77	263.91	217.77	81.03	0.0005324	115.23	178.611	-1.634	159.739	-157.427	78.348	-62.950	-156.314	-149.267	25.679	154.230	-154.188	-149.615	-145.855	-144.262	126.748	-146.166	-8191	255	
32279.600	1	1	0	0	0.067037	0.3869	0.2063	0.021443	0.17783	0.12688	0.15769	0.25842	0.1784	0.13122	0.10676	0.18941	0.049203	0.1885	0.13903	0.057619	-2.4208	-2.6542	-3.1917	-2.5521	-3.0521	-3.3125	-2.4396	-3.4292	-2.9729	-2.4667	-3.4167	-2.7958	-2.8708	-3.2354	-2.6167	-3.2792	40.047	-94.329	-155.045	77.324	154.362	-52.384	82.092	-70.854	91.490	-166.981	134.363	54.875	-28.684	138.034	75.687	-140.162	0.00056991	0.0029913	0.00035716	165.79	1.3444e-05	3.7779e-05	256.13	60.674	1.962e-05	2.845e-05	108.12	42.185	24.141	10.884	1.6298e-05	18.778	0.045146	0.049236	0.013687	1538.6	0.00053692	0.00054138	1403.6	456.77	0.00053977	0.0005443	757.12	267.86	220.45	82.136	0.00054158	117.17	25.613	-105.193	-106.205	-156.598	-98.683	-161.161	-156.626	-151.120	-140.994	44.374	-152.240	-150.181	-148.982	-142.524	185.288	-145.683	-8191	255	
32279.695	1	1	0	0	0.14557	0.16975	0.16857	0.26291	0.3089	0.10185	0.20933	0.10396	0.083644	0.087518	0.089908	0.046156	0.066192	0.1121	0.27213	0.11558	-2.7979	-2.6083	-3.5792	-2.9354	-2.775	-3.4875	-2.7438	-3.1792	-3.0271	-2.5812	-3.4167	-2.8542	-2.9521	-3.4188	-2.7438	-3.25	-40.768	148.470	63.876	149.688	-30.319	102.581	32.948	147.271	94.982	62.565	-90.141	182.885	-17.238	-118.100	166.396	84.339	0.00050985	0.0045014	0.00074339	170.99	2.1658e-06	1.9879e-05	249.26	60.708	3.5515e-05	4.2855e-05	106.66	42.112	24.827	10.864	2.9766e-05	19.075	0.045624	0.04979	0.01383	1553.7	0.00054044	0.00054509	1407.9	458.09	0.00053756	0.00054223	753.85	266.24	218.15	81.23	0.00053539	115.63	116.527	-95.089	25.655	-156.270	-38.673	152.595	-156.989	-151.850	-82.962	-106.079	-152.823	-150.111	-148.465	-144.120	122.204	-147.212	-8191	255	
32279.816	1	1	0	0	0.096011	0.071329	0.2069	0.11132	0.11176	0.081934	0.074883	0.096444	0.10134	0.18511	0.031315	0.08658	0.24221	0.27143	0.065222	0.17313	-2.65	-2.4833	-3.4625	-2.7667	-2.9792	-3.3688	-2.6063	-3.1312	-3.1312	-2.5438	-3.4229	-2.9437	-2.7208	-3.3	-2.5104	-3.1813	-111.204	-46.073	-158.936	-59.742	-50.275	-121.837	168.317	134.527	-23.208	-78.678	-19.412	105.002	-143.404	-69.179	-23.184	-112.761	0.00094966	0.004018	0.0010099	165.97	1.2029e-05	4.7431e-05	254.35	61.621	3.6721e-05	5.5063e-05	111.7	42.063	24.643	11.055	3.6682e-05	18.957	0.044836	0.048862	0.0136	1527.1	0.00052906	0.00053455	1392.3	451.01	0.00052899	0.00053625	749.87	264.68	217.17	81.346	0.00053694	115.99	176.560	62.185	-42.190	-156.800	26.106	-69.723	-157.224	-150.497	-19.902	53.168	-153.384	-149.592	-146.097	-142.573	143.309	-145.916	-8191	255	
32279.912	1	1	0	0	0.052549	0.08031	0.12855	0.12519	0.15672	0.091307	0.15613	0.10932	0.19607	0.23231	0.090866	0.077554	0.28233	0.14192	0.12359	0.21968	-2.8104	-2.4708	-3.4396	-2.9021	-2.5583	-3.3646	-2.7938	-2.9896	-3.4146	-2.5687	-3.3458	-3.0917	-2.6188	-3.4271	-2.6437	-2.9729	129.892	40.416	-148.005	-35.044	81.457	89.107	69.262	-99.389	-26.569	23.487	118.562	-14.004	-143.916	-81.438	-26.313	112.059	0.00015599	0.0032809	0.00080142	168.91	3.0456e-05	1.5883e-05	259.98	60.398	6.6949e-06	2.2919e-05	109.98	41.604	24.371	11.028	3.297e-05	18.922	0.04511	0.049304	0.013798	1546.4	0.00053696	0.00054461	1411.9	457.4	0.00053798	0.00054638	762.13	268.27	220.78	82.879	0.00054875	117.67	-125.255	-16.617	-88.102	-155.024	-153.278	-106.443	-156.383	-151.349	-152.137	-74.752	-153.653	-149.278	-148.032	-143.793	180.888	-146.137	-8191	255	
32279.982	1	1	0	0	0.14436	0.16244	0.16053	0.26451	0.050287	0.18509	0.074849	0.03084	0.16664	0.11994	0.10098	0.097147	0.13092	0.045064	0.17769	0.14138	-2.8521	-2.5479	-3.1979	-3.0104	-2.5833	-3.4104	-2.8187	-2.8396	-3.1312	-2.5792	-3.1917	-3.1333	-2.5667	-3.4021	-2.8917	-2.9813	159.763	-148.780	42.938	145.186	6.901	-106.299	-100.141	-73.763	-143.793	187.103	157.141	-28.592	-108.613	-161.931	115.215	-150.823	0.00067705	0.0027242	0.0018437	165.1	1.0028e-05	2.8576e-05	257.12	59.214	3.2032e-05	6.087e-05	109.3	41.267	23.816	10.742	5.1734e-06	19.088	0.045902	0.050299	0.014023	1562.5	0.00054288	0.00054958	1424.6	459.96	0.00054087	0.0005502	765.43	268.89	221.33	83.044	0.00055082	117.98	-8.780	140.527	137.199	-157.674	39.728	-40.007	-157.571	-149.893	-136.373	-34.788	-153.393	-149.092	-148.125	-143.209	79.174	-145.820	-8191	255	
32280.080	1	1	0	0	0.3331	0.11038	0.11969	0.14116	0.059204	0.097624	0.19159	0.031749	0.22464	0.14559	0.14385	0.29127	0.19505	0.14818	0.16022	0.061071	-3.0104	-2.4854	-3.05	-3.3	-2.6417	-3.3563	-2.8021	-2.6	-3.3417	-2.5917	-3.1333	-3.2646	-2.5521	-3.2417	-3.0854	-2.7167	149.317	19.907	-7.591	-124.734	-166.882	28.613	-135.919	116.918	-22.442	5.756	-118.924	-128.060	-16.550	114.017	49.767	-93.288	0.00074278	0.0066588	0.0005603	163.82	4.2829e-05	4.3909e-05	258.56	61.032	2.3215e-05	3.2574e-05	107.28	42.282	24.654	10.932	2.8531e-05	18.822	0.046262	0.050868	0.014182	1576.5	0.00054986	0.00055758	1437.3	463.39	0.00054621	0.00055622	770.44	270.34	223.12	83.738	0.00055481	118.67	23.983	-24.562	122.857	-157.326	-115.486	-26.126	-156.066	-151.576	-82.914	-64.745	-153.902	-149.203	-150.123	-144.256	-127.715	-143.341	-8191	255	
32280.199	1	1	0	0	0.10948	0.13462	0.09056	0.09071	0.24609	0.044205	0.10801	0.21411	0.13883	0.30191	0.18543	0.093706	0.17901	0.18599	0.08112	0.12245	-2.9604	-2.6312	-2.9625	-3.2958	-2.775	-3.3667	-3.0021	-2.9104	-3.3604	-2.7438	-2.8312	-3.2729	-2.6625	-3.2562	-2.9792	-2.5042	93.660	66.427	171.569	77.105	30.512	145.652	153.185	131.568	-0.081	95.295	-19.874	169.815	137.509	-13.308	137.182	173.257	0.00047267	0.0052572	0.00076893	169.82	5.8602e-06	2.4734e-05	257.55	59.353	3.7766e-05	3.1229e-05	106.82	41.807	24.509	10.972	2.2694e-05	18.603	0.046593	0.051316	0.014295	1587.7	0.00055453	0.00056292	1445	465.04	0.0005489	0.00055873	769.06	270.03	222.92	83.707	0.00055241	117.92	-0.170	-130.954	11.619	-154.819	75.225	-165.873	-157.083	-152.109	-42.131	-122.081	-154.071	-148.089	-148.955	-143.473	-78.220	-145.971	-8191	255	
32280.295	1	1	0	0	0.19871	0.10431	0.083091	0.056911	0.13054	0.2699	0.2328	0.041594	0.20785	0.14029	0.011421	0.21699	0.17697	0.20747	0.085351	0.17183	-2.8937	-2.575	-2.9688	-3.2229	-2.45	-3.2188	-3.1396	-2.5375	-3.3167	-2.8312	-2.9521	-3.2583	-2.7479	-3.0917	-3.1667	-2.6771	-90.400	125.855	128.182	90.050	-52.369	90.292	116.406	-37.629	-25.794	-55.482	-69.245	89.487	53.978	188.274	122.656	145.775	0.00047187	0.0031693	0.00082534	168.05	1.389e-05	3.9727e-05	255.21	60.589	2.2296e-05	1.2944e-05	108	41.637	23.754	10.573	2.1473e-05	19.244	0.046298	0.050921	0.014093	1561.4	0.00054715	0.00055393	1422.6	458.57	0.00054145	0.00055066	759.24	266.58	219.7	82.516	0.00054284	116.62	128.460	137.600	-95.563	-157.474	-24.695	-141.942	-156.171	-151.084	105.757	-30.263	-153.203	-149.283	-148.117	-143.383	101.518	-145.491	-8191	255	
32280.393	1	1	0	0	0.090148	0.11374	0.11048	0.045619	0.22006	0.1513	0.068042	0.12559	0.21783	0.26691	0.078211	0.25595	0.1187	0.14895	0.21275	0.21492	-2.9396	-2.8854	-2.8229	-3.5458	-2.6937	-3.0646	-3.2792	-2.6479	-3.3208	-2.9896	-2.9396	-3.4437	-2.6521	-3.1708	-3.3208	-2.4854	-73.326	25.159	-85.297	-0.716	23.735	152.145	-14.653	134.700	122.503	53.381	71.007	-63.065	99.255	-128.814	148.046	-12.243	0.00095688	0.0015164	0.00041367	167.81	4.6798e-05	5.115e-05	251.04	60.887	1.8555e-05	3.2942e-05	109.42	41.298	24.575	10.871	2.3864e-05	18.722	0.04572	0.050238	0.013985	1556.1	0.00054575	0.0005538	1419.8	458.98	0.0005449	0.00055318	761.43	268.22	221.87	83.096	0.00054741	117.6	-156.399	-102.036	-14.203	-156.006	-144.148	-31.944	-156.130	-150.941	-31.384	143.256	-153.010	-151.115	-148.057	-143.695	-63.269	-146.564	-8191	255	
32280.512	1	1	0	0	0.062837	0.063465	0.14105	0.18978	0.12285	0.13977	0.18704	0.21269	0.037825	0.22342	0.13695	0.11062	0.084218	0.13023	0.27084	0.2412	-2.9833	-3.1188	-2.75	-3.4375	-2.6396	-2.8917	-3.3438	-2.75	-3.3187	-2.9667	-2.7354	-3.6104	-2.8208	-3.0125	-3.375	-2.9021	-35.417	-27.563	-83.268	64.129	116.138	47.283	-30.605	-143.840	176.224	76.742	91.814	-141.580	-160.220	-117.752	35.867	-133.602	0.00072156	0.0040789	0.0024635	169.52	1.0864e-05	3.9229e-05	258.28	61.065	2.6701e-05	3.638e-05	110.4	41.502	23.116	10.671	1.6054e-05	18.817	0.046163	0.050582	0.013971	1556.3	0.000546	0.00055218	1415.8	458.43	0.00054189	0.00054946	756.96	266.4	220.71	82.264	0.00053967	116.21	150.531	-167.515	23.084	-155.900	186.048	-48.790	-155.087	-151.230	-12.656	171.701	-152.997	-149.682	-149.286	-142.564	-130.607	-147.437	-8191	255	
32280.582	1	1	0	0	0.16563	0.1234	0.14074	0.066152	0.1308	0.1681	0.092818	0.22569	0.16	0.31453	0.12971	0.10563	0.21399	0.13384	0.028768	0.083207	-2.8937	-3.075	-2.8354	-3.1208	-2.7833	-2.85	-3.3229	-2.6583	-3.2	-3.2833	-2.5958	-3.3354	-3.025	-2.6479	-3.4521	-2.775	-14.178	37.700	-167.127	-37.893	157.364	-69.070	121.107	-151.329	-26.554	184.934	-163.708	94.685	73.402	121.371	146.287	21.094	0.00023302	0.0021547	0.00019764	166.33	3.7268e-05	2.9669e-06	252.44	60.267	1.9914e-05	2.7282e-05	107.95	41.614	24.245	10.711	2.6732e-05	18.796	0.045471	0.049692	0.013721	1536.8	0.0005363	0.00054159	1393.9	451.01	0.00053264	0.00053815	744.95	263.22	217.05	81.077	0.00053283	115.06	-75.083	191.550	69.845	-157.033	-98.277	-156.783	-157.565	-150.018	-50.484	120.793	-153.122	-149.122	-147.939	-145.273	103.762	-145.836	-8191	255	
32280.680	1	1	0	0	0.34857	0.2296	0.12018	0.19108	0.15421	0.1487	0.3334	0.031913	0.14461	0.089544	0.18434	0.075729	0.10567	0.17753	0.1423	0.29306	-2.575	-3.1458	-2.5375	-3.3146	-3.1104	-2.8146	-3.5583	-2.6417	-2.9583	-3.0771	-2.5604	-3.35	-2.9354	-2.5812	-3.3875	-2.8021	-71.628	61.881	78.959	72.624	181.532	-0.134	-151.555	35.008	15.293	-83.535	36.242	-114.711	43.091	171.163	-147.211	26.509	0.0002811	0.006332	0.00056551	164.97	3.8709e-05	3.1947e-05	248.33	59.973	1.5938e-05	4.0165e-05	107.95	40.595	23.926	10.808	1.9981e-05	18.598	0.04503	0.049117	0.013631	1532.2	0.00053526	0.00054009	1394.9	453.15	0.00053596	0.00054188	751.87	265.77	220.06	81.936	0.00053939	116.57	163.450	-35.938	-101.693	-157.528	-72.396	-141.865	-156.850	-151.880	69.642	-125.634	-153.556	-149.943	-146.451	-142.154	98.504	-146.898	-8191	255	
32280.801	1	1	0	0	0.32963	0.13328	0.07508	0.12214	0.24043	0.0078897	0.22615	0.11466	0.10825	0.1451	0.25569	0.021305	0.20264	0.061359	0.029772	0.2129	-2.7896	-3.2104	-2.5854	-3.2583	-3.0104	-2.5875	-3.4521	-2.8937	-2.9167	-3.3667	-2.6937	-3.1458	-3.0563	-2.7417	-3.3312	-2.8521	120.056	-120.792	130.379	-43.910	35.985	91.091	140.884	19.392	-71.118	34.097	114.826	92.371	138.881	121.543	182.685	18.745	0.00065809	0.0045653	0.00048296	159.96	2.2419e-05	3.7001e-05	253.87	59.185	2.932e-05	1.5944e-05	106.8	41.529	23.967	10.638	1.8386e-05	18.456	0.045695	0.049789	0.013876	1557.7	0.00054368	0.00054856	1415.8	459.92	0.00054279	0.00054693	757.99	267.6	220.62	82.236	0.00054288	117.31	167.472	108.376	80.383	-155.870	-25.762	-7.895	-158.055	-150.984	41.977	-93.429	-153.566	-149.482	-148.133	-141.972	-56.786	-145.960	-8191	255	
32280.896	1	1	0	0	0.088377	0.22355	0.26703	0.22902	0.020242	0.062241	0.091694	0.086382	0.10016	0.19622	0.030563	0.2136	0.18218	0.090416	0.081097	0.11444	-2.4354	-3.3417	-2.5083	-3.1083	-3.3021	-2.675	-3.3729	-2.8042	-2.7292	-3.3354	-2.4667	-2.8812	-3.1354	-2.5687	-3.2938	-2.9396	165.929	-78.517	-126.406	-160.373	-50.240	1.136	-117.122	-32.059	54.278	28.909	78.195	117.284	-123.951	175.724	-5.185	124.661	0.00037529	0.0013992	0.0014541	170	2.8371e-05	4.124e-06	253.28	60.671	1.3392e-05	1.8174e-05	106.56	41.464	24.727	10.965	2.6336e-05	18.535	0.045806	0.049974	0.013916	1558.9	0.00054285	0.00054744	1412.6	458.49	0.00053872	0.00054459	755.28	267.2	219.69	81.886	0.00054189	116.49	-7.365	-115.276	-123.493	-156.283	-21.283	37.650	-157.322	-151.496	-58.556	-58.773	-153.396	-150.025	-147.267	-143.753	186.086	-146.315	-8191	255	
32280.992	1	1	0	0	0.14772	0.13117	0.20656	0.10866	0.13705	0.22895	0.314	0.15971	0.21452	0.20506	0.13888	0.23677	0.31905	0.12458	0.11299	0.058741	-2.2021	-3.325	-2.5917	-3.0542	-3.4562	-2.5604	-3.4333	-3.0417	-2.7313	-3.225	-2.7896	-2.9813	-3.25	-2.5875	-3.1917	-3.0125	165.975	-31.462	-47.819	86.732	-86.759	66.329	-122.067	26.989	182.901	-135.361	28.687	137.588	124.069	132.508	51.449	-9.284	0.00088288	0.0029863	0.00087153	168.1	8.3357e-06	9.2686e-06	254.88	59.03	8.5112e-06	4.9323e-05	105.7	41.086	24.897	11.013	2.1661e-05	18.492	0.04526	0.049352	0.013735	1539.6	0.00053203	0.00053552	1390.2	449.8	0.00052686	0.00053251	742.06	261.08	214.39	80.23	0.00053148	114.43	-156.425	-67.814	-42.907	-156.333	169.451	102.131	-157.108	-151.719	-144.199	45.627	-154.519	-150.547	-148.486	-142.895	-80.530	-146.273	-8191	255	
32281.113	1	1	0	0	0.16655	0.24665	0.048401	0.17315	0.22199	0.13223	0.27854	0.24227	0.14979	0.1253	0.14873	0.14081	0.19438	0.27613	0.046936	0.085454	-2.2104	-3.4188	-2.6937	-2.9208	-3.25	-2.5604	-3.1167	-3.0229	-2.5229	-3.3063	-2.7542	-3.0229	-3.2271	-2.5375	-3.1792	-3.0271	-1.504	160.331	-24.948	175.613	-75.381	-83.593	-23.160	-116.762	-102.206	172.417	-59.178	-130.299	2.668	172.273	53.077	159.509	0.00050841	0.0021959	0.00056321	169.19	7.7558e-06	3.0154e-05	249.88	59.191	2.4531e-05	2.2073e-05	107.92	40.853	24.354	11.016	7.6312e-06	18.191	0.044508	0.048736	0.01361	1524.2	0.00052854	0.00053598	1394.5	450.72	0.00053016	0.00053897	750.41	263.89	217.06	81.5	0.00053906	115.82	-153.163	100.247	-108.068	-155.894	113.763	-3.117	-157.376	-152.003	-35.608	44.622	-152.467	-149.605	-147.556	-144.916	-130.414	-145.361	-8191	255	
32281.184	1	1	0	0	0.18223	0.19663	0.17893	0.18849	0.27514	0.019727	0.15297	0.3138	0.16214	0.18474	0.13343	0.074725	0.21653	0.040444	0.10321	0.32511	-2.1437	-3.325	-2.5563	-2.6521	-3.2938	-2.4688	-3.0563	-3.1625	-2.4646	-3.1896	-2.8063	-2.8042	-3.3229	-2.5938	-3.2542	-3.2062	-28.794	-134.500	-136.859	181.956	-98.423	-66.077	155.954	153.964	-24.961	-147.106	93.845	-156.768	76.539	152.363	-144.838	164.994	0.00071649	0.0026689	0.00079565	168.16	1.2147e-05	3.9615e-05	253.43	61.005	3.4501e-05	2.5321e-05	107.94	41.225	24.839	10.824	4.9101e-05	18.784	0.045177	0.049629	0.013837	1546.4	0.00053693	0.00054555	1413.8	456.08	0.00053752	0.00054604	758.75	265.5	218.63	82.104	0.00054279	115.76	-89.555	-135.926	6.293	-155.642	-160.497	-42.248	-157.170	-150.955	-26.597	111.152	-154.852	-150.647	-147.434	-142.389	-157.287	-147.187	-8191	255	
32281.281	1	1	0	0	0.20492	0.16792	0.21974	0.12288	0.19195	0.18072	0.028568	0.021313	0.19889	0.11148	0.083962	0.14191	0.068077	0.30218	0.26426	0.3552	-2.1771	-3.4	-2.7396	-2.6979	-3.4125	-2.6792	-2.8625	-3.0354	-2.525	-3.4208	-2.9771	-2.7833	-3.4521	-2.6375	-2.9708	-3.3208	-149.584	142.769	141.241	-100.184	186.740	132.714	56.505	-80.973	-60.091	2.984	-65.708	144.524	-37.063	61.521	-28.027	-147.808	0.00072725	0.0022118	0.0013403	165.12	1.6928e-05	3.4145e-05	253.12	60.99	1.8294e-05	3.4601e-05	106.08	41.478	24.378	10.657	4.5185e-05	18.239	0.045103	0.049586	0.013777	1534	0.00053392	0.00054218	1405.8	451.69	0.00053107	0.00054133	749.92	263.19	217.44	81.772	0.00053838	115.36	133.624	-15.343	-47.112	-157.228	-161.746	143.018	-156.035	-150.436	161.066	45.926	-153.841	-150.059	-147.525	-145.196	137.434	-146.428	-8191	255	
32281.375	1	1	0	0	0.10746	0.26962	0.17745	0.0377	0.10285	0.29529	0.12777	0.14427	0.14333	0.093333	0.14497	0.041481	0.28473	0.26025	0.15003	0.064409	-2.1562	-3.3125	-2.9688	-2.4521	-3.1063	-2.7417	-3.0042	-3.3271	-2.5563	-3.1562	-3.2833	-2.6729	-3.3729	-2.9333	-2.9833	-3.325	-2.039	53.191	169.770	144.184	-1.779	166.150	110.288	99.914	54.599	-55.562	-77.688	-74.034	162.899	56.208	49.525	3.111	0.00087147	0.0044374	0.00075519	166.8	8.9166e-06	2.4448e-05	253.2	60.176	3.5453e-05	5.8126e-05	109.61	40.794	23.962	10.819	2.7488e-05	18.774	0.045162	0.04969	0.013826	1535.7	0.00053558	0.00054515	1405.5	454.13	0.00053565	0.00054649	757.06	265.49	219.98	82.729	0.0005457	116.66	138.795	59.132	138.009	-157.921	-58.693	-108.422	-157.917	-152.594	-107.964	142.039	-152.474	-149.586	-149.028	-144.075	-153.497	-145.378	-8191	255	
32281.496	1	1	0	0	0.3181	0.15578	0.18756	0.099537	0.08436	0.11841	0.067899	0.093612	0.16402	0.085292	0.137	0.28555	0.085137	0.22223	0.15065	0.067495	-2.2417	-3.2062	-3.1063	-2.5917	-3.3354	-2.7146	-2.7521	-3.4958	-2.6229	-3.1417	-3.2479	-2.4854	-3.1771	-2.9188	-2.8021	-3.3187	-103.345	-49.006	185.651	-70.708	-70.050	-68.235	-41.255	61.886	116.983	10.717	72.495	-86.320	-100.860	71.471	-153.506	72.663	0.000573	0.0050302	0.0012261	161.06	1.8307e-05	1.2633e-05	252.28	59.396	1.1677e-05	3.8273e-05	108.85	41.122	24.062	10.98	2.144e-05	18.583	0.045804	0.050367	0.013935	1551.8	0.00054402	0.00055309	1418.5	459.5	0.00054407	0.00055614	766.34	269.44	223.98	83.927	0.00055322	118.55	184.194	-164.304	-47.494	-156.772	123.000	51.685	-156.727	-151.002	75.546	175.814	-152.343	-150.538	-147.679	-144.019	-21.407	-147.108	-8191	255	
32281.592	1	1	0	0	0.22715	0.11599	0.17158	0.10232	0.065873	0.26217	0.04784	0.026223	0.17163	0.11214	0.21282	0.36081	0.15494	0.14408	0.16264	0.27951	-2.0417	-3.0438	-3.1854	-2.5958	-3.2438	-3	-2.7292	-3.3125	-2.7313	-3.05	-3.4604	-2.4479	-3.2021	-3.0812	-2.6958	-3.3896	80.216	74.818	-123.472	115.000	-26.416	-44.959	-65.108	68.913	135.699	3.659	-121.424	119.196	59.637	165.442	-21.687	-126.175	0.00075739	0.0046864	0.00058831	167.9	1.4132e-05	1.7e-05	254.28	59.755	1.9167e-05	3.7912e-05	110.8	41.749	25.248	11.044	6.3712e-05	18.909	0.046811	0.05142	0.014253	1589	0.00055985	0.00056946	1455.7	473.47	0.00056499	0.00057391	786.24	276.97	230.36	86.108	0.00056926	121.72	131.506	-72.253	46.083	-154.821	-112.645	152.504	-157.379	-152.496	-152.886	-26.295	-153.066	-149.777	-147.685	-142.599	-127.725	-146.348	-8191	255	
32281.688	1	1	0	0	0.11845	0.11206	0.26059	0.043191	0.17618	0.064522	0.17932	0.071186	0.31614	0.34842	0.09596	0.23234	0.18017	0.29546	0.11115	0.15737	-2.2604	-2.9146	-3.4875	-2.6917	-3.2604	-3.1437	-2.5312	-3.3	-2.7979	-3.0125	-3.3146	-2.6792	-3.2292	-3.025	-2.6458	-3.3438	-127.892	133.427	-143.820	176.487	-90.550	-57.042	-153.542	99.444	73.769	-71.892	36.165	-75.747	-116.968	55.349	39.434	35.394	0.00075309	0.003159	0.00091929	165.05	2.1881e-05	4.7344e-05	258.27	60.416	1.6029e-05	2.7527e-05	108.92	40.996	24.413	11.242	1.6327e-05	18.764	0.048317	0.052874	0.01463	1633	0.00057556	0.00058267	1483.6	483.76	0.00057705	0.00058349	797.94	280.43	233.1	86.515	0.00057021	121.52	168.025	48.980	40.372	-154.369	116.556	23.047	-156.962	-151.494	-129.257	-8.412	-155.269	-150.574	-148.873	-142.250	165.982	-146.872	-8191	255	
32281.783	1	1	0	0	0.11503	0.32676	0.14242	0.22405	0.17172	0.018483	0.4084	0.080105	0.26407	0.23587	0.0071825	0.28582	0.18346	0.082515	0.10897	0.17238	-2.5104	-2.7625	-3.3958	-2.6875	-3.1271	-3.1292	-2.6688	-3.3833	-3.0021	-2.6583	-3.375	-2.5687	-3.1229	-3.3479	-2.6437	-3.4813	121.863	28.542	-28.647	33.917	9.711	-156.366	-136.766	16.865	27.660	89.530	-1.206	161.745	95.095	-64.235	-50.934	94.174	0.00074367	0.0035088	0.00088441	164.71	9.8698e-06	3.9606e-05	257.15	61.943	2.2421e-05	1.5919e-05	106.73	42.281	24.427	10.8	1.0563e-05	18.596	0.048033	0.052199	0.014425	1606.6	0.0005622	0.00056374	1441.4	468.84	0.00055521	0.00055698	767.12	270.75	223.99	83.275	0.0005486	117.72	-165.469	5.495	-121.557	-155.252	180.573	162.527	-157.746	-152.089	-39.904	-34.232	-152.211	-149.511	-148.256	-142.759	74.393	-145.956	-8191	255	
32281.879	1	1	0	0	0.23155	0.21456	0.092132	0.072497	0.22181	0.10166	0.13454	0.1658	0.22531	0.092615	0.14616	0.1394	0.13374	0.081964	0.18626	0.19182	-2.6833	-2.6292	-3.525	-2.7542	-2.9958	-3.2479	-2.7583	-3.1292	-3.0542	-2.6604	-3.5146	-2.8896	-2.85	-3.3667	-2.5583	-3.2708	110.635	146.785	-76.879	-26.622	-162.837	-94.328	51.004	-108.594	-42.163	36.124	39.898	7.847	179.652	-66.887	173.411	83.976	0.00045352	0.0030465	0.00072934	167.25	9.353e-06	2.7164e-05	257.05	61.315	1.2787e-05	1.8895e-05	109.35	41.26	24.529	11.143	4.9703e-05	18.868	0.046224	0.050216	0.01391	1558.3	0.00054386	0.0005463	1411.2	460.19	0.0005451	0.00055138	765.99	271.7	224.76	83.787	0.0005552	119.38	169.583	122.742	-18.122	-156.847	-56.845	-73.965	-157.400	-152.109	143.704	-72.770	-152.853	-150.142	-145.781	-143.729	-106.542	-145.173	-8191	255	
32281.975	1	1	0	0	0.19598	0.24384	0.066364	0.12249	0.0079328	0.14624	0.11871	0.19462	0.26263	0.17068	0.1858	0.30882	0.10815	0.2014	0.23393	0.065385	-2.8229	-2.6875	-3.5979	-2.8229	-2.8812	-3.3229	-2.6396	-3.2917	-3.1937	-2.625	-3.4917	-2.8854	-2.8875	-3.3333	-2.5833	-3.1312	-82.918	-149.318	112.814	27.415	72.742	186.227	142.067	139.136	93.639	61.754	-55.400	128.973	174.085	-140.463	15.591	166.378	0.0014577	0.001215	0.00075139	165.05	3.5706e-05	1.7168e-05	249.7	60.702	6.5629e-06	1.9341e-05	108.73	42.049	24.991	11.166	2.6157e-05	19.032	0.046793	0.051019	0.014196	1594.9	0.0005568	0.00056226	1445.7	472.37	0.00055742	0.00056305	779.82	274.62	226.33	84.373	0.00055943	120.08	123.521	-143.690	22.035	-156.578	84.390	12.025	-157.162	-151.237	-90.879	53.183	-153.075	-149.997	-148.688	-142.152	-126.463	-145.995	-8191	255	
32282.070	1	1	0	0	0.20219	0.039551	0.12977	0.18101	0.10023	0.13149	0.05177	0.14757	0.17922	0.053286	0.20243	0.20185	0.29522	0.15571	0.14763	0.14651	-2.8708	-2.725	-3.2104	-2.8833	-2.8667	-3.3854	-2.7708	-3.2062	-3.1354	-2.6958	-3.3479	-3.0812	-2.6312	-3.4062	-2.7125	-3.1042	-100.828	72.830	134.784	28.397	46.542	-77.653	-82.961	15.065	-56.729	0.067	140.989	104.849	-128.145	79.878	82.109	98.362	0.00069249	0.0024978	0.00063445	166.43	5.9829e-06	1.3147e-05	253.07	61.582	2.4157e-05	1.9401e-05	107.16	41.071	24.142	11.105	6.5075e-06	18.618	0.046996	0.051283	0.014324	1603.4	0.00055833	0.00056169	1452.4	470.58	0.00055465	0.00056003	778.29	273.79	225.47	84.117	0.00055857	119.38	-23.018	133.859	-158.508	-156.131	44.566	-141.064	-157.143	-150.761	172.297	-121.090	-152.789	-149.994	-151.293	-144.690	-30.458	-145.115	-8191	255	
32282.191	1	1	0	0	0.21386	0.020092	0.16534	0.16427	0.030614	0.085816	0.07764	0.069873	0.19038	0.073123	0.17854	0.11244	0.16864	0.10577	0.079039	0.14431	-2.7521	-2.6979	-3.1854	-2.8833	-2.7167	-3.3875	-2.6437	-3.0062	-3.3937	-2.8167	-3.3958	-3.0854	-2.5521	-3.4958	-2.6417	-2.8229	-81.533	85.530	-12.140	-120.502	-43.575	157.685	69.832	114.650	115.647	166.845	111.289	121.452	-61.849	66.198	8.296	-166.789	0.00023338	0.0031135	0.00053593	167.61	1.5366e-05	3.5306e-05	243.2	61.512	3.3636e-05	3.2497e-05	106.51	41.917	23.751	10.787	2.6395e-05	18.142	0.046657	0.051143	0.014322	1592.2	0.00055408	0.00056053	1445.6	469.9	0.00055356	0.00056186	780.92	274.4	226.03	84.651	0.00056357	120.19	90.681	-64.364	44.870	-155.513	1.259	-5.680	-156.776	-150.278	190.075	-138.547	-154.842	-150.363	-148.316	-143.830	-100.451	-145.735	-8191	255	
32282.287	1	1	0	0	0.095421	0.27396	0.098358	0.31643	0.18874	0.25711	0.23738	0.053665	0.19928	0.23271	0.16701	0.19025	0.21211	0.094232	0.23927	0.12153	-3.1292	-2.5292	-3.1458	-2.9792	-2.7021	-3.5479	-2.8729	-2.9125	-3.2417	-2.6688	-3.1667	-3.175	-2.5229	-3.2854	-2.8292	-2.8625	-144.141	-67.147	-148.225	64.762	-96.504	99.456	188.130	122.182	-51.808	89.471	188.212	10.068	16.912	-108.217	122.221	-21.189	0.00061685	0.0028479	0.0015285	165.04	4.694e-05	8.8758e-06	261.99	61.53	2.2725e-05	2.7305e-05	106.75	41.773	24.859	10.847	2.3283e-05	18.517	0.046981	0.05163	0.014416	1594.3	0.00055572	0.0005642	1453	469.46	0.00055286	0.00056371	780.85	273.49	225.44	84.631	0.00056114	119.55	95.734	-109.830	-89.498	-154.057	-142.191	99.337	-155.828	-150.409	-32.455	89.671	-153.482	-149.880	-149.155	-142.399	-1.009	-146.073	-8191	255	
32282.385	1	1	0	0	0.09483	0.14706	0.091203	0.078011	0.14554	0.060379	0.18047	0.14748	0.20064	0.14154	0.059708	0.17675	0.13835	0.23969	0.055594	0.19129	-2.9229	-2.5812	-3.1271	-3.0708	-2.425	-3.2458	-2.7562	-2.8979	-3.3729	-2.6125	-3.0604	-3.4062	-2.7396	-3.1479	-3.0979	-2.5563	106.649	130.716	-108.372	128.833	45.672	-5.464	-42.686	62.019	-13.555	52.079	-156.681	129.886	98.015	159.517	134.941	121.613	0.0013599	0.0024164	0.00040046	167.47	1.0306e-05	3.5209e-05	254.28	59.697	2.8745e-05	3.49e-05	109.39	41.061	24.329	10.475	1.2036e-05	18.458	0.046885	0.051498	0.01434	1589.8	0.00055337	0.00056182	1444	466.04	0.00055039	0.00056087	776.1	271.28	224.53	84.415	0.00055786	118.66	114.810	116.991	-45.799	-156.806	-78.476	44.310	-157.028	-151.429	88.849	-64.899	-153.596	-148.974	-146.958	-144.001	48.195	-146.030	-8191	255	
32282.480	1	1	0	0	0.18675	0.31002	0.16474	0.052407	0.055745	0.18616	0.22953	0.36998	0.11437	0.22753	0.13904	0.10617	0.10175	0.13758	0.19133	0.0030418	-3.025	-2.6167	-2.8833	-3.325	-2.5563	-3.1437	-3.1729	-2.6792	-3.325	-2.8	-2.9	-3.3354	-2.5812	-3.2313	-3.0812	-2.5958	158.976	-163.402	-96.710	56.732	-102.659	65.644	147.817	-153.505	126.604	-96.199	-114.343	-57.895	-49.072	100.602	76.225	5.997	0.00034	0.0022992	0.00062746	169.58	2.2835e-05	2.6057e-05	251.38	60.521	5.7727e-05	4.6534e-05	111.04	41.761	24.729	11.192	4.3601e-05	18.652	0.04675	0.0515	0.014318	1587.4	0.00055546	0.00056783	1457.9	470.28	0.00055998	0.00057043	783.27	274.62	227.9	85.589	0.00056564	120.18	151.698	64.804	-46.557	-156.568	-151.636	186.332	-156.690	-152.369	-104.979	126.639	-152.161	-149.387	-148.504	-143.483	-30.537	-145.755	-8191	255	
32282.576	1	1	0	0	0.081059	0.26147	0.051707	0.1687	0.13778	0.21699	0.098616	0.12966	0.17593	0.30328	0.07856	0.25127	0.16529	0.1296	0.12902	0.16701	-3.0104	-2.9896	-2.8833	-3.2188	-2.6437	-3.2167	-3.0438	-2.5979	-3.4354	-3.0187	-2.8187	-3.45	-2.6063	-3.2313	-3.2229	-2.6646	-90.291	58.328	67.768	104.060	-91.351	-89.052	72.548	152.200	-147.986	44.466	95.490	134.917	139.551	66.071	-142.909	119.172	0.0011617	0.0029528	0.0011606	163.04	2.9458e-05	3.591e-05	254.48	59.008	1.9744e-05	3.5063e-05	106.55	41.675	24.068	11.018	2.5795e-05	18.43	0.047484	0.05233	0.014488	1602.1	0.00056361	0.00057128	1457.4	470.18	0.0005605	0.00056913	779.82	273.17	227.08	84.84	0.00055877	118.93	145.835	121.147	-24.993	-156.444	183.014	-89.721	-156.919	-151.728	77.184	-47.203	-151.886	-148.926	-149.088	-142.674	-102.311	-144.942	-8191	255	
32282.672	1	1	0	0	0.10217	0.10184	0.065353	0.14453	0.031396	0.138	0.019008	0.092132	0.14422	0.19621	0.098667	0.062093	0.18777	0.31416	0.071739	0.29082	-3.0021	-3.0604	-2.6813	-3.1813	-2.6625	-3.0208	-3.275	-2.6625	-3.3917	-2.9437	-2.7083	-3.2979	-2.7104	-3.0646	-3.3167	-2.6521	-154.701	47.654	40.767	136.510	116.230	3.692	65.363	161.442	20.653	-132.704	-145.517	101.299	104.622	-43.262	145.881	80.064	0.0008868	0.0017271	0.0015002	168.68	2.5721e-05	1.1256e-05	249.52	60.618	1.4111e-05	3.5223e-05	109.5	41.095	24.428	11.153	6.3644e-06	18.352	0.047045	0.0517	0.014278	1585.7	0.0005589	0.00056565	1441.3	466.35	0.00055608	0.00056406	772.92	271.9	226.15	84.604	0.00055807	119.21	175.995	-118.669	-119.148	-158.710	69.773	131.108	-156.350	-150.718	-92.361	155.412	-152.271	-150.328	-145.331	-143.687	108.268	-146.132	-8191	255	
32282.791	1	1	0	0	0.1448	0.051177	0.30754	0.072853	0.27579	0.29584	0.092842	0.21838	0.14079	0.2404	0.093584	0.068982	0.22289	0.10572	0.20835	0.14344	-2.8688	-3.0083	-2.6562	-3.4583	-2.6833	-2.85	-3.2479	-2.7188	-3.3583	-3.2625	-2.5021	-3.3479	-2.7521	-2.9313	-3.4688	-2.8896	-105.845	-43.413	103.344	19.650	31.211	184.100	-139.458	112.371	143.084	159.893	159.778	132.374	-93.696	173.572	29.162	-68.821	0.00027492	0.00087354	0.00048602	169.48	2.366e-05	3.2459e-05	250.39	59.959	1.9518e-05	1.5988e-05	105.16	40.688	24.15	10.922	1.6973e-05	18.599	0.047223	0.051713	0.014287	1590.4	0.00056024	0.00056626	1443.4	469.65	0.00056234	0.00056888	779.54	275.23	229.01	85.28	0.00056497	120.71	189.615	57.882	-87.150	-157.309	-57.748	79.117	-157.104	-150.993	57.331	46.706	-153.741	-149.141	-147.008	-143.261	-140.770	-145.526	-8191	255	
32282.887	1	1	0	0	0.16185	0.17169	0.12085	0.11513	0.2807	0.17393	0.21893	0.3196	0.18736	0.1494	0.096167	0.3034	0.11429	0.10414	0.15386	0.27724	-2.7875	-3.0979	-2.6104	-3.25	-2.8354	-2.6813	-3.2958	-2.5583	-3.1208	-3.3063	-2.6688	-3.4021	-3.0229	-2.7	-3.3375	-2.8417	-123.740	61.335	165.675	61.646	-83.787	-158.961	166.180	90.016	-153.984	-6.232	-36.388	-101.456	144.959	32.623	8.079	-158.094	0.00034346	0.003702	0.00062951	167.05	1.1117e-05	4.0586e-05	252.62	60.786	1.8705e-05	1.2442e-05	106.39	41.595	23.937	10.715	4.1481e-05	18.557	0.047748	0.052134	0.014413	1602.4	0.00056171	0.00056488	1440.4	467.36	0.00055704	0.00056127	771.56	272.65	225.76	83.929	0.00055592	119.11	13.653	-60.767	107.932	-156.078	138.934	66.325	-157.071	-152.745	-91.713	65.378	-152.028	-149.396	-147.000	-142.470	152.890	-145.751	-8191	255	
32282.982	1	1	0	0	0.2359	0.080319	0.17191	0.36861	0.12716	0.14394	0.23048	0.12467	0.046149	0.035376	0.19909	0.21083	0.23341	0.26549	0.2033	0.27652	-2.8104	-3.175	-2.5	-3.3167	-2.9896	-2.5687	-3.4146	-2.5687	-2.9938	-3.2854	-2.6208	-3.3125	-3.0521	-2.8479	-3.4146	-2.9083	78.766	103.224	80.101	127.791	-169.566	95.882	-125.868	128.518	-162.601	104.033	-134.188	-94.090	84.332	66.330	-147.175	-86.500	0.0013701	0.003294	0.00087544	166.07	2.8265e-05	2.8871e-05	249.3	59.003	1.7121e-05	3.3652e-06	106.56	41.43	24.272	10.736	2.8967e-05	18.412	0.046813	0.050926	0.014123	1576.2	0.0005525	0.00055498	1421.6	462.97	0.0005488	0.00055395	763.57	270.36	223.23	83.14	0.0005502	118.02	174.446	-67.494	73.875	-156.743	147.679	101.675	-156.627	-152.816	-98.549	86.596	-151.948	-149.985	-149.219	-144.420	-86.854	-146.406	-8191	255	
32283.078	1	1	0	0	0.15444	0.082989	0.19473	0.18085	0.16747	0.16517	0.067486	0.21193	0.038128	0.15997	0.20097	0.09988	0.12595	0.18486	0.10627	0.077643	-2.3896	-3.2208	-2.5083	-3.2354	-3.0854	-2.5917	-3.3292	-2.7729	-2.7562	-3.2979	-2.4729	-2.9938	-3.1354	-2.7479	-3.3979	-2.9292	-112.196	13.638	107.866	-77.296	70.493	10.357	108.124	183.611	-39.656	65.988	90.153	-5.949	84.176	157.081	-117.539	-154.442	0.00072246	0.00070928	0.00077969	161.45	1.5809e-05	4.0979e-05	250.04	59.362	2.7136e-05	3.5725e-05	105.72	40.78	24.589	10.786	2.3275e-05	18.633	0.046336	0.050509	0.014034	1570.9	0.00054846	0.00055323	1427.6	463.77	0.00054821	0.00055361	767.44	270.72	223.28	83.224	0.00055192	118.64	94.956	-64.338	-112.068	-155.541	-4.220	-122.022	-158.250	-150.428	74.708	95.879	-154.415	-149.182	-148.226	-144.978	-116.308	-146.874	-8191	255	
32283.176	1	1	0	0	0.047342	0.1287	0.088129	0.073891	0.14124	0.165	0.1738	0.12852	0.359	0.188	0.14751	0.15204	0.057607	0.11401	0.28177	0.20714	-2.4083	-3.4062	-2.65	-3.1021	-3.0875	-2.6729	-3.3979	-2.9979	-2.7229	-3.3792	-2.7875	-2.9667	-3.1521	-2.4437	-3.3833	-2.9479	75.217	-8.233	-138.302	72.334	189.619	-42.904	-39.313	-62.534	-48.534	78.067	115.078	-55.476	48.819	66.743	-14.414	95.600	0.00032566	0.0027829	0.00025397	163.77	1.898e-05	2.161e-05	252.18	60.796	3.2801e-05	2.7747e-05	105.6	40.952	24.461	10.721	1.8685e-05	18.41	0.046512	0.050813	0.014217	1588.3	0.00055422	0.00055957	1441.4	469.4	0.00055373	0.00056067	776.5	274.09	225.88	84.185	0.00056113	120.35	-51.146	-104.538	-60.510	-155.382	174.779	-133.634	-156.679	-152.105	13.794	155.245	-153.915	-150.388	-147.508	-143.508	90.417	-145.700	-8191	255	
32283.271	1	1	0	0	0.30015	0.065557	0.072108	0.12158	0.020122	0.19094	0.18031	0.093722	0.24231	0.29965	0.12379	0.093898	0.10674	0.12302	0.23212	0.21451	-2.3312	-3.3521	-2.6021	-3.125	-3.3792	-2.6542	-3.4083	-2.9458	-2.6542	-3.4958	-2.8333	-3.0312	-3.2917	-2.5396	-3.2	-3.0042	-43.887	-38.419	39.880	186.604	108.528	-65.939	92.434	120.034	-58.521	34.702	167.405	11.745	4.004	-133.821	-40.154	-11.307	0.00014192	0.0018746	0.00082779	162.19	2.1636e-05	2.3153e-05	256.39	59.652	1.0438e-05	4.5386e-05	108.52	40.992	23.781	10.734	4.6453e-05	18.288	0.047099	0.051586	0.01443	1606.6	0.00056099	0.00056759	1457.8	473.05	0.00055779	0.00056424	781.13	274.21	225.42	84.282	0.00056113	119.29	108.732	-35.420	-18.184	-156.904	85.832	121.456	-157.734	-150.965	62.761	108.081	-153.587	-149.528	-149.237	-144.505	171.748	-145.902	-8191	255	
32283.367	1	1	0	0	0.20054	0.021328	0.14374	0.079	0.27806	0.17225	0.1349	0.12815	0.14905	0.14094	0.31383	0.15417	0.14279	0.032992	0.042845	0.10568	-2.1521	-3.3771	-2.8896	-2.8521	-3.3292	-2.4292	-3.275	-3.1188	-2.5604	-3.3854	-2.9104	-2.8354	-3.2958	-2.5583	-3.1292	-3.3396	-124.299	-26.248	166.296	-133.018	129.823	16.756	44.595	118.563	-36.782	-8.912	129.335	-55.320	-36.175	46.008	-99.320	87.054	0.00049357	0.0012959	0.00042613	170.9	2.4094e-05	2.3502e-05	250.83	61.641	4.2786e-05	3.0303e-05	105.41	39.548	23.887	10.602	4.2511e-05	18.127	0.04673	0.051319	0.014329	1590	0.00055382	0.00056258	1449.5	467.92	0.00055365	0.00056511	779.86	273.49	225.84	84.729	0.00056385	119.53	181.527	-57.574	137.163	-157.066	169.803	-165.048	-157.647	-151.386	91.902	15.728	-153.943	-149.202	-147.646	-143.376	-136.326	-145.908	-8191	255	
32283.465	1	1	0	0	0.21596	0.10112	0.32902	0.10104	0.25202	0.24815	0.16495	0.16011	0.51075	0.12292	0.23848	0.12111	0.034798	0.026493	0.18193	0.19402	-1.9125	-3.2313	-2.7083	-2.8625	-3.15	-2.6792	-3.1417	-3.2438	-2.4792	-3.3937	-3.025	-3.0062	-3.5083	-2.7146	-3.0771	-3.3229	5.776	56.110	-77.125	165.339	31.278	-95.887	29.974	-125.496	112.286	58.618	59.263	-169.915	71.798	137.791	43.179	-25.230	0.00013486	0.0020739	0.0013237	166.19	2.7749e-05	2.2181e-05	252.57	60.241	2.2954e-05	1.1696e-05	105.89	40.202	23.929	10.521	2.5898e-05	18.323	0.046967	0.051795	0.014392	1597.8	0.00055828	0.00056783	1458.1	470.76	0.00055857	0.00056978	783.65	274.02	227.18	85.366	0.00056661	120.19	89.774	-5.180	83.343	-157.883	-58.355	-146.956	-157.412	-152.661	-131.064	-131.375	-152.041	-149.951	-148.847	-144.105	64.314	-146.280	-8191	255	
32283.586	1	1	0	0	0.13893	0.096617	0.18543	0.13879	0.18305	0.13248	0.10814	0.20629	0.32139	0.1134	0.23394	0.13077	0.11545	0.18346	0.11675	0.14373	-2.1792	-3.1562	-2.9021	-2.7062	-3.4292	-2.6813	-3.0187	-3.3521	-2.6188	-3.1167	-3.2271	-2.7771	-3.4521	-2.7354	-2.9167	-3.3354	57.499	68.402	-8.344	33.322	34.154	133.219	-25.907	150.993	2.400	-145.031	31.260	18.396	57.892	154.642	-103.140	145.315	0.00059025	0.0045771	0.00086958	170.18	1.0179e-05	2.5493e-05	250.3	60.386	1.2676e-05	2.8924e-05	106.34	40.606	23.75	10.908	1.8849e-05	18.682	0.047408	0.052284	0.014503	1607.9	0.00056448	0.00057463	1464.2	473.24	0.00056219	0.00057331	785.8	275.1	228.28	85.857	0.00056875	120.82	-113.208	15.106	6.973	-156.212	-154.421	-60.919	-157.256	-151.297	148.072	-6.808	-154.085	-150.204	-148.950	-145.888	100.208	-145.901	-8191	255	
32283.680	1	1	0	0	0.35057	0.26784	0.18001	0.27377	0.031438	0.19693	0.029457	0.18787	0.26736	0.24086	0.13184	0.14016	0.094187	0.084009	0.20813	0.18029	-2.0771	-3.1354	-3.0542	-2.8146	-3.3688	-2.7583	-2.8771	-3.3104	-2.6208	-3.1396	-3.2354	-2.5604	-3.3812	-2.8583	-2.6958	-3.3958	44.488	-22.065	-21.504	-135.596	68.724	-13.353	106.730	145.704	-160.330	7.823	25.558	-58.700	-0.878	112.040	8.516	-140.620	0.00057951	0.0043646	0.00088042	173.11	1.8935e-05	3.672e-05	249.03	58.95	3.8383e-05	2.6554e-05	105.59	40.633	23.927	10.862	4.8435e-05	18.536	0.047876	0.052838	0.014619	1617.6	0.00056862	0.00057729	1463.9	473.87	0.00056468	0.00057441	784.88	275.35	228.41	85.545	0.00056447	119.76	-119.722	25.853	168.732	-156.900	-63.447	-77.783	-157.238	-151.256	-74.542	80.745	-153.440	-150.145	-147.489	-142.991	-73.435	-146.618	-8191	255	
32283.752	1	1	0	0	0.075584	0.27302	0.13932	0.29302	0.10586	0.017677	0.25207	0.040586	0.16117	0.14105	0.14542	0.10487	0.23954	0.1688	0.0934	0.16832	-2.0604	-3.1542	-3.2562	-2.5958	-3.2333	-2.9729	-2.5333	-3.0563	-2.6625	-2.9625	-3.2708	-2.7771	-3.3792	-3.2479	-2.6792	-3.4042	-132.927	-28.652	124.291	-33.824	130.839	26.346	88.687	-16.628	125.331	103.568	178.018	110.874	99.767	85.760	122.945	169.772	0.00082586	0.0044182	0.00074345	170.33	1.8858e-05	4.3187e-05	249.27	60.145	1.537e-05	2.2555e-06	106.11	39.544	23.603	10.959	5.4717e-05	17.903	0.047468	0.052024	0.014347	1591.2	0.00056102	0.00056778	1445.1	468.2	0.00055896	0.00056727	775.69	272.22	227.17	84.911	0.00056065	119.57	-167.548	155.599	-2.203	-154.669	84.461	15.695	-157.484	-151.211	166.951	77.633	-152.011	-151.229	-147.479	-143.868	-65.349	-145.685	-8191	255	
32283.871	1	1	0	0	0.20791	0.24084	0.24499	0.18625	0.18693	0.13911	0.13133	0.10746	0.08221	0.22458	0.21112	0.22231	0.12548	0.082216	0.36402	0.11309	-2.3083	-2.9979	-3.35	-2.6646	-3.0396	-2.9437	-2.8229	-3.4208	-2.6937	-2.7125	-3.3271	-2.7562	-3.2854	-2.9646	-2.6188	-3.1917	172.032	-19.272	128.898	64.854	-23.275	-7.020	24.509	38.354	-77.443	176.731	-117.552	-146.402	74.426	187.295	-124.880	-15.411	0.00031514	0.0067836	0.00059559	162.89	2.3334e-05	5.7531e-05	250.54	60.762	4.6459e-05	2.3828e-05	107.08	40.426	24.291	11.13	2.8926e-05	18.068	0.047423	0.051807	0.014323	1594.3	0.00055944	0.00056539	1437.6	466.94	0.00055656	0.00056403	770.8	271.53	226.43	84.415	0.00055629	118.92	-121.760	-141.480	48.430	-156.541	-68.164	-24.684	-157.550	-150.266	73.354	14.544	-152.813	-149.262	-148.223	-144.572	154.415	-146.026	-8191	255	
32283.967	1	1	0	0	0.18225	0.16078	0.04337	0.078806	0.20629	0.30011	0.075047	0.36553	0.1332	0.081391	0.066807	0.16467	0.15333	0.2814	0.31669	0.1533	-2.4771	-2.6688	-3.3479	-2.4875	-3.375	-3.2812	-2.7687	-3.1667	-2.75	-2.7125	-3.2167	-2.7083	-3.1417	-3.1	-2.5583	-3.3688	-28.767	94.367	101.796	-3.086	70.347	61.022	30.811	71.451	111.417	62.502	89.643	169.471	-165.207	50.068	122.754	24.762	0.00062527	0.0058706	0.00049824	164.94	2.0598e-05	2.2217e-05	248.91	59.154	1.0723e-05	3.7827e-05	106.22	40.405	23.752	10.687	2.9992e-05	18.181	0.047093	0.051256	0.014185	1582.1	0.00055694	0.0005617	1432.1	466.15	0.0005555	0.00055897	769.32	271.26	225.17	83.877	0.00055448	118.66	111.891	8.899	-52.872	-157.417	-110.108	-8.509	-157.821	-150.766	153.672	-124.903	-152.878	-150.088	-148.330	-144.279	-36.317	-147.445	-8191	255	
32284.064	1	1	0	0	0.17228	0.22451	0.028223	0.086794	0.22774	0.26853	0.23144	0.10505	0.21057	0.23704	0.077045	0.25698	0.16092	0.19979	0.26898	0.30238	-2.4271	-2.6875	-3.2417	-2.7062	-3.1167	-3.0896	-2.7333	-3.2979	-2.8083	-2.5729	-3.4813	-2.7146	-2.9833	-3.2104	-2.5833	-3.1792	58.143	-114.957	-141.711	177.393	-168.326	-166.545	-153.305	-167.117	107.724	-86.888	-15.566	-149.512	-153.838	-145.497	156.282	-4.697	0.00063173	0.0034648	0.00078519	163.99	1.7921e-05	5.8061e-05	244.04	59.978	2.3849e-05	2.9259e-05	104.29	40.108	23.566	10.343	9.8335e-06	18.072	0.046722	0.050872	0.014066	1568.7	0.00054642	0.00054915	1405.9	456.2	0.00053904	0.00054235	748.98	264.5	218.37	81.386	0.0005376	115.99	178.667	21.896	15.777	-155.893	18.613	59.780	-157.367	-152.428	158.744	41.645	-152.148	-149.295	-147.150	-142.308	81.330	-146.854	-8191	255	
32284.184	1	1	0	0	0.13676	0.1378	0.34647	0.28757	0.17213	0.20854	0.19804	0.12476	0.03446	0.33168	0.22752	0.11796	0.05419	0.096716	0.054128	0.091948	-2.5708	-2.6083	-3.2438	-2.7021	-2.8417	-3.2333	-2.5104	-3.15	-3.0375	-2.5958	-3.5479	-2.7083	-2.8187	-3.3583	-2.6396	-3.0667	116.218	185.411	44.576	-9.021	3.449	-126.199	148.745	3.635	-153.645	-116.077	-79.272	-90.002	140.732	157.237	-169.897	-113.990	0.00069647	0.0020911	0.00070518	165.06	3.3396e-05	2.211e-05	247.69	58.514	2.1486e-05	6.0808e-06	105.27	39.835	23.665	10.954	3.4223e-05	17.847	0.045566	0.04968	0.013845	1547.8	0.00054065	0.00054579	1402.5	456.53	0.00053853	0.00054064	748.53	264.18	217.1	81.199	0.0005358	115.26	-151.472	105.770	-22.318	-156.535	-108.510	-43.571	-156.782	-152.281	-63.629	185.073	-152.997	-148.820	-146.107	-142.985	-67.738	-145.040	-8191	255	
32284.279	1	1	0	0	0.11328	0.16559	0.261	0.19462	0.22619	0.151	0.31393	0.26097	0.44817	0.0968	0.11294	0.10486	0.092525	0.07663	0.080666	0.14789	-2.5771	-2.3583	-3.3625	-2.7521	-2.6917	-3.3792	-2.7625	-3.1771	-3.2229	-2.625	-3.4437	-2.8438	-2.7938	-3.2979	-2.4917	-3.2333	154.102	33.137	94.767	166.609	131.865	4.959	73.854	137.604	-67.618	-17.714	134.402	186.614	42.947	90.168	-68.499	-112.854	0.00036288	0.00090747	0.0016484	161.37	3.0376e-05	1.4114e-05	249.39	59.835	9.3036e-06	3.5496e-05	106.51	39.811	24.45	10.736	1.8004e-05	17.956	0.045208	0.049276	0.01374	1539.5	0.00053522	0.00053947	1391	451.04	0.00053044	0.00053537	743.14	261.46	215.2	80.253	0.00053032	114.05	-128.562	-128.113	100.690	-156.611	124.382	32.089	-157.925	-151.726	-99.754	-51.297	-153.901	-148.888	-148.924	-143.501	46.801	-146.795	-8191	255	
32284.352	1	1	0	0	0.17433	0.27636	0.26211	0.22323	0.076177	0.14958	0.17345	0.18181	0.11138	0.099872	0.15709	0.17921	0.15693	0.20524	0.19251	0.20166	-2.8479	-2.6167	-3.2812	-2.9542	-2.6312	-3.4146	-2.7333	-2.8458	-3.3083	-2.5083	-3.4458	-2.9125	-2.7104	-3.3104	-2.8021	-2.9625	165.296	-119.373	27.431	-42.035	118.831	187.661	79.266	124.772	105.479	184.123	-27.562	97.998	-123.955	65.870	54.078	120.674	0.00054419	0.0027735	0.00090287	165.36	8.27e-06	2.5739e-05	248.85	58.766	2.3344e-05	4.9563e-05	105.25	40.854	23.296	10.823	3.2995e-05	18.188	0.044451	0.048689	0.013592	1520.1	0.00052846	0.0005345	1385.3	448.31	0.00052795	0.0005336	742.12	260.54	213.96	80.132	0.00052823	113.29	188.260	68.734	-160.992	-156.478	48.677	-19.464	-157.326	-150.682	-44.637	70.634	-153.241	-150.284	-148.711	-143.544	-143.093	-145.759	-8191	255	
32284.473	1	1	0	0	0.34602	0.27163	0.069063	0.061696	0.29041	0.27735	0.27387	0.050147	0.10738	0.063388	0.12833	0.08276	0.135	0.12226	0.1787	0.13942	-2.8917	-2.5792	-3.0833	-2.9813	-2.5271	-3.3625	-2.8042	-2.8354	-3.2604	-2.525	-3.2687	-3.2271	-2.7313	-3.4979	-2.7417	-2.9104	100.271	-84.523	-64.271	-59.241	-55.465	58.374	28.828	-108.428	-116.449	-41.961	165.461	-62.047	-112.275	-164.252	169.916	80.776	0.0003529	0.0014919	0.0015715	166.88	6.1685e-06	2.4506e-05	246.1	60.15	1.6677e-05	2.5892e-05	105.37	40.091	24.064	10.671	4.6231e-05	18.011	0.044003	0.048111	0.013376	1490.1	0.00051575	0.00052352	1360.9	439.55	0.00051458	0.00052214	727.61	255.42	209.73	78.598	0.00051584	110.88	-20.118	111.353	-36.082	-155.203	28.895	-132.073	-156.696	-151.320	-121.432	-1.615	-152.066	-149.361	-149.839	-142.933	-60.312	-145.890	-8191	255	
32284.568	1	1	0	0	0.13133	0.069419	0.099711	0.10832	0.14273	0.13386	0.20185	0.22479	0.17774	0.16223	0.15154	0.2992	0.068758	0.058753	0.26271	0.18483	-2.9667	-2.7125	-3.1625	-3.3396	-2.6667	-3.375	-2.9813	-2.8646	-3.5208	-2.55	-2.9958	-3.2687	-2.5333	-3.3604	-2.9188	-2.7458	173.363	157.835	133.062	72.982	-105.288	93.199	34.001	122.346	23.660	20.728	8.077	171.537	-155.065	-106.190	139.593	-163.919	0.00047489	0.0020853	0.000717	160.61	1.4339e-05	3.729e-05	246.86	59.584	6.039e-06	4.4526e-05	103.82	39.602	23.593	10.953	9.6984e-06	18.191	0.042994	0.047153	0.013156	1468.5	0.00050973	0.00051984	1351	434.88	0.00051124	0.00052049	725.76	254.67	209.93	78.968	0.00051782	111.28	-90.760	-51.679	-154.148	-158.587	-140.499	77.992	-157.013	-149.832	-89.184	151.716	-152.139	-149.811	-147.697	-144.514	172.310	-146.908	-8191	255	
32284.662	1	1	0	0	0.13654	0.18445	0.14717	0.051003	0.29614	0.096406	0.24573	0.31853	0.21598	0.31365	0.1712	0.11544	0.22007	0.28038	0.14564	0.07077	-3.0354	-2.6521	-2.9813	-3.3083	-2.6979	-3.2917	-2.9417	-2.8146	-3.4771	-2.6333	-3.0021	-3.3125	-2.7146	-3.2938	-3.2458	-2.7792	-153.831	65.895	-105.597	29.474	-70.803	12.693	39.612	54.360	97.071	190.460	181.881	167.021	-121.107	-55.680	-156.514	-137.506	0.00038879	0.0031688	0.00071528	166.14	1.7998e-05	3.8098e-05	247.21	59.362	2.2501e-06	2.0333e-05	105.96	40.978	23.973	10.955	4.8629e-05	18.564	0.043238	0.047562	0.01321	1473.6	0.00051073	0.00051932	1347.2	433.91	0.00050906	0.000518	719.66	252.45	208.49	78.419	0.00051285	110.24	73.275	159.478	42.315	-156.444	-21.014	34.836	-157.402	-150.725	-35.605	-50.749	-154.001	-149.889	-147.689	-143.604	137.682	-145.868	-8191	255	
32284.760	1	1	0	0	0.20419	0.22142	0.060394	0.061577	0.090847	0.072025	0.10808	0.17207	0.18191	0.25035	0.10834	0.26833	0.12041	0.16699	0.069002	0.22269	-3.1104	-2.5646	-3.0104	-3.2562	-2.6688	-3.2354	-3.0271	-2.6375	-3.3812	-2.8708	-2.7625	-3.4625	-2.4437	-3.3042	-3.0271	-2.4958	35.467	92.637	-87.678	22.210	111.778	21.673	76.596	135.301	-107.646	157.300	-48.798	55.800	17.829	-63.654	14.777	-126.913	0.00029352	0.0019605	0.0005387	160.71	1.7863e-05	2.6437e-05	244.76	58.067	1.947e-05	3.6443e-05	106.01	40.324	24.186	10.855	1.0286e-05	18.599	0.042794	0.047033	0.013023	1456	0.00050616	0.00051242	1331.4	429.26	0.00050555	0.00051517	716.61	251.65	207.76	78	0.0005086	109.72	-112.683	60.656	20.678	-155.276	-26.968	23.126	-156.286	-152.290	148.887	146.127	-151.593	-149.759	-148.630	-143.593	-6.213	-145.879	-8191	255	
32284.881	1	1	0	0	0.06431	0.064611	0.27017	0.38643	0.12498	0.092758	0.039264	0.20692	0.11889	0.14053	0.12645	0.19413	0.15169	0.22066	0.1171	0.13237	-2.9542	-2.9208	-2.65	-3.3854	-2.5917	-3.1792	-3.2271	-2.6271	-3.1542	-3.1021	-2.8937	-3.4896	-2.8479	-3.2479	-3.3417	-2.6667	-56.542	169.527	-12.982	89.638	70.968	74.646	-133.119	149.213	-130.486	-108.910	-127.601	180.933	85.346	107.665	-59.903	-8.096	0.00040283	0.0038865	0.0010395	158.93	1.5452e-05	4.0537e-05	246.12	61.582	8.9355e-06	9.8356e-06	102.27	40.13	24.309	11.029	1.4982e-05	17.965	0.042643	0.046839	0.012944	1448.3	0.0005034	0.00050999	1320.6	426.26	0.00050166	0.00050878	706.43	248.61	205.72	77.121	0.0005019	108.58	88.733	-137.309	-24.261	-156.982	75.321	-82.303	-156.426	-150.988	-159.257	9.865	-151.951	-150.223	-148.964	-143.049	189.365	-145.233	-8191	255	
32284.977	1	1	0	0	0.039768	0.30002	0.112	0.10274	0.15083	0.15502	0.28424	0.024608	0.15554	0.072144	0.17967	0.21978	0.35794	0.039649	0.23455	0.25873	-2.9396	-3.0062	-2.7479	-3.4354	-2.7562	-2.9458	-3.4	-2.55	-3.15	-2.8917	-2.7646	-3.2375	-2.7938	-3.0875	-3.45	-2.6813	6.711	54.041	81.199	147.478	22.247	-16.656	110.035	-62.200	43.581	168.747	33.117	-98.975	15.997	141.791	61.459	172.951	0.00041725	0.0023005	0.0013808	161.88	1.9408e-05	2.6683e-05	249.17	60.176	2.8569e-05	1.2136e-05	106.39	41.086	22.981	10.615	2.8643e-05	18.506	0.042258	0.046197	0.012783	1432.4	0.00049852	0.00050416	1308.5	422.01	0.00049858	0.00050535	702.24	248.04	204.9	76.748	0.00049925	108.5	109.196	-122.411	-114.055	-156.212	23.565	0.889	-157.540	-152.812	128.468	36.659	-153.473	-150.776	-148.317	-143.567	-87.826	-146.096	-8191	255	
32285.049	1	1	0	0	0.17263	0.046244	0.19099	0.10173	0.097255	0.23597	0.10593	0.35173	0.13467	0.19571	0.1406	0.069682	0.058755	0.10924	0.21653	0.50186	-2.7417	-3.0417	-2.5438	-3.3208	-2.8354	-2.8354	-3.1813	-2.8021	-3.1458	-3.1312	-2.6437	-3.5312	-2.9125	-2.8042	-3.2583	-2.6375	121.609	77.617	161.986	-106.366	-128.861	-17.965	178.108	122.579	135.198	-157.837	47.396	-125.299	-98.853	-69.964	-44.458	153.942	0.00075963	0.0042455	0.00096547	158.41	2.7978e-05	4.0732e-05	246.95	58.683	7.4414e-06	3.0159e-05	105.82	41.007	24.018	10.674	2.8606e-05	18.359	0.04209	0.045872	0.012686	1426.9	0.0004962	0.00049926	1300.9	419.92	0.00049412	0.00049986	695.33	245.36	202.28	75.514	0.00048945	106.85	143.863	-138.309	-5.459	-157.309	-12.117	52.669	-157.207	-150.553	-111.125	128.773	-152.848	-149.777	-148.229	-143.361	122.349	-147.188	-8191	255	
32285.145	1	1	0	0	0.1852	0.16248	0.072653	0.27831	0.19123	0.31086	0.21865	0.14206	0.19001	0.10175	0.049406	0.10662	0.3005	0.050934	0.15579	0.076361	-2.7042	-3.0771	-2.6188	-3.2521	-3.0167	-2.7896	-3.4479	-2.7083	-3.1042	-3.3708	-2.8292	-3.3042	-3.1125	-2.7417	-3.4062	-2.6104	-103.612	-5.584	37.155	138.675	-161.818	-59.126	115.290	40.066	-62.756	-110.182	43.671	179.971	72.653	-18.317	-157.344	13.416	0.00030075	0.002854	0.00025736	160.42	2.8336e-05	1.9504e-05	251.96	59.001	5.3217e-06	3.2765e-05	105.52	39.934	24.323	10.783	1.4985e-05	18.352	0.041291	0.044916	0.012444	1404.1	0.00048557	0.00048917	1280.4	412.79	0.00048258	0.00048561	680.42	240.76	197.87	73.963	0.0004793	105.23	47.219	-143.837	-58.102	-155.147	2.254	51.538	-156.877	-151.371	123.657	-50.846	-153.305	-148.088	-148.459	-143.197	-45.693	-145.987	-8191	255	
32285.266	1	1	0	0	0.19999	0.18458	0.08724	0.13597	0.20165	0.31657	0.065015	0.093016	0.1588	0.14687	0.18224	0.042314	0.27436	0.094401	0.043874	0.12535	-2.6813	-3.3917	-2.4875	-3.3354	-2.9771	-2.7646	-3.5229	-2.9229	-2.9667	-3.3542	-2.6	-3.0667	-3.2438	-2.7479	-3.3875	-2.8854	-82.048	-92.505	-82.818	68.091	-90.330	-31.711	-84.591	-101.368	-155.487	191.429	164.709	70.554	88.256	100.774	-42.639	-150.760	0.001064	0.0027649	0.00068305	160.39	2.2559e-05	3.7392e-05	248.17	57.44	9.1685e-06	4.4233e-06	103.44	40.147	23.787	10.312	3.5903e-05	18.063	0.040453	0.04392	0.012219	1383.4	0.00047656	0.00047967	1260.6	407.36	0.00047502	0.00047961	674	238.72	196.24	73.449	0.00047794	104.89	130.319	17.885	-61.353	-156.751	31.802	165.432	-158.380	-150.165	138.894	9.081	-153.337	-150.025	-147.900	-142.888	-70.016	-145.636	-8191	255	
32285.361	1	1	0	0	0.15289	0.25528	0.15588	0.15427	0.034477	0.045525	0.12789	0.079222	0.068724	0.038275	0.05981	0.13386	0.26198	0.028254	0.059066	0.1693	-2.4	-3.2625	-2.5708	-3.2333	-3.2062	-2.8063	-3.3312	-2.6854	-2.7271	-3.4479	-2.7812	-3.1229	-3.2083	-2.6208	-3.4583	-2.9562	47.202	179.394	143.603	-41.880	186.197	144.279	-96.399	-169.230	28.273	-149.129	138.325	-2.049	-43.474	137.802	-28.362	147.922	0.00028309	0.0085917	0.00056283	157.07	3.0735e-05	3.1646e-05	248.41	58.605	1.4938e-05	3.9944e-05	104.18	41.206	23.626	10.761	2.157e-05	18.205	0.040314	0.043942	0.012264	1387.4	0.00047814	0.00048166	1265	408.22	0.00047432	0.00047971	674.26	238.78	195.59	73.306	0.00047603	104.55	-132.354	179.658	-151.640	-156.757	-69.397	46.072	-156.115	-151.609	28.590	-164.616	-152.836	-149.812	-146.915	-142.957	118.755	-146.576	-8191	255	
32285.457	1	1	0	0	0.15644	0.23118	0.1554	0.10811	0.13285	0.15882	0.025754	0.15359	0.35449	0.091461	0.17021	0.30927	0.12541	0.1678	0.1841	0.16803	-2.2333	-3.575	-2.6542	-3.0875	-3.3542	-2.5375	-3.4271	-2.8042	-2.725	-3.4042	-2.6688	-3.0583	-3.1437	-2.7958	-3.1917	-2.8063	-99.317	45.844	-34.009	123.030	110.922	140.596	-93.563	119.886	112.531	132.399	24.360	-154.446	55.089	42.264	-76.990	-10.847	0.00055217	0.0032063	0.00062416	162.2	1.5261e-05	1.2605e-05	248.52	59.422	4.4993e-05	3.2421e-05	103.07	40.533	24.002	10.988	4.1941e-05	18.296	0.039998	0.043697	0.012174	1375.1	0.00047177	0.00047564	1255.5	403.64	0.00046719	0.00047146	665.95	235.25	191.99	72.241	0.00046835	102.94	56.010	177.905	159.244	-156.127	-78.139	-68.189	-156.700	-150.958	14.359	-30.691	-152.894	-150.551	-149.069	-143.216	-28.701	-145.291	-8191	255	
32285.553	1	1	0	0	0.15189	0.13234	0.16975	0.14444	0.11857	0.21902	0.14119	0.2582	0.040312	0.16811	0.24067	0.080726	0.14597	0.039332	0.03072	0.28478	-2.2438	-3.4562	-2.7687	-3.1917	-3.1562	-2.6188	-3.2583	-3	-2.7479	-3.2938	-2.7938	-2.7958	-3.2521	-2.6771	-3.2396	-3.0583	65.969	-29.467	61.499	-151.208	-32.798	81.449	30.456	91.918	110.133	-160.847	164.622	-138.269	-22.772	82.041	123.852	150.022	0.00018876	0.0075396	0.00056446	156.87	2.0028e-05	4.0745e-05	245.54	58.275	2.3192e-06	8.2954e-06	105.69	40.338	23.147	10.755	1.8397e-05	18.424	0.039289	0.042971	0.012011	1356.2	0.0004656	0.00047078	1249.3	401.01	0.00046241	0.00047099	666.58	234.57	191.91	72.226	0.00046812	102.74	185.638	2.414	174.485	-156.250	59.140	-43.265	-156.949	-150.985	-10.370	60.659	-152.766	-150.294	-147.779	-144.275	-75.703	-146.858	-8191	255	
32285.648	1	1	0	0	0.12117	0.23616	0.20244	0.076091	0.10704	0.14685	0.35378	0.02863	0.0556	0.36855	0.17599	0.013665	0.21036	0.36141	0.20313	0.1519	-2.2562	-3.3875	-2.6958	-2.9229	-3.2646	-2.6271	-3.2917	-3.3896	-2.5771	-3.3563	-3.0187	-2.6958	-3.2896	-2.5708	-3.0938	-3.3	60.054	180.521	15.846	138.609	20.040	173.488	-40.713	-33.895	29.207	-17.874	69.627	1.693	-78.252	44.296	167.918	-93.975	0.0003025	0.0067835	0.00089967	159.97	2.1922e-05	2.033e-05	246.07	57.542	1.6686e-05	3.5471e-05	102.82	40.079	23.797	10.746	1.6769e-05	17.926	0.03909	0.042992	0.011978	1350.8	0.00046365	0.00046951	1242.7	398.29	0.00046034	0.00046837	663.88	233.65	191.98	72.46	0.00047137	103.24	-126.879	-161.146	39.790	-158.104	-144.610	38.685	-156.559	-150.948	-19.220	15.406	-151.337	-149.233	-147.753	-143.338	147.981	-146.408	-8191	255	
32285.744	1	1	0	0	0.087141	0.21561	0.22386	0.17965	0.27115	0.081811	0.14311	0.092542	0.16635	0.10641	0.10866	0.084795	0.043773	0.044308	0.034898	0.065	-2.1229	-3.3875	-2.9896	-2.7083	-3.3375	-2.7062	-3.0646	-3.3312	-2.4583	-3.3667	-2.9792	-2.6625	-3.3333	-2.6917	-2.8396	-3.4417	-72.952	-99.760	-38.684	45.715	-101.321	-150.988	139.867	-143.897	-90.785	15.234	7.241	187.873	96.444	-129.320	69.322	171.907	0.00073918	0.0020118	0.00052298	157.18	2.6304e-05	3.8909e-05	245.26	58.792	8.4451e-06	3.9678e-05	103.85	41.599	23.364	10.765	3.3436e-05	18.368	0.039531	0.043423	0.01208	1357.7	0.00046795	0.00047419	1251.7	401.46	0.00046638	0.00047555	671.49	236.7	194.66	73.653	0.00047954	104.75	145.276	143.981	-34.319	-155.971	-141.092	-9.268	-156.846	-151.033	-157.647	0.538	-153.120	-150.524	-146.300	-144.596	-130.035	-145.755	-8191	255	
32285.863	1	1	0	0	0.18166	0.17489	0.21451	0.074522	0.051002	0.26865	0.083582	0.2135	0.092647	0.16655	0.15826	0.078185	0.17917	0.040824	0.16771	0.20517	-2.1354	-3.2	-2.9271	-2.6417	-3.625	-2.9292	-2.8063	-3.2104	-2.6813	-3.2188	-3.0833	-2.5167	-3.3604	-2.5438	-2.7458	-3.4646	101.712	68.320	133.421	158.900	27.950	125.958	18.204	-2.836	24.193	128.399	174.803	54.603	189.450	-38.201	70.005	164.632	0.00018507	0.0024391	0.00048428	161.54	3.8257e-05	2.2973e-05	245.74	58.574	2.9099e-05	1.5043e-05	106.34	41.022	23.845	10.716	3.6974e-05	18.12	0.040306	0.044456	0.01234	1385.6	0.00047805	0.0004862	1273.3	409.67	0.0004778	0.00048767	682.82	240.12	197.81	74.383	0.0004804	104.69	-164.171	45.788	72.331	-156.216	-75.240	121.641	-157.278	-150.262	-4.045	123.899	-153.821	-148.585	-149.138	-143.242	-64.846	-146.357	-8191	255	
32285.961	1	1	0	0	0.19777	0.17207	0.23797	0.054399	0.3028	0.22431	0.22804	0.2268	0.24912	0.17222	0.11809	0.21342	0.12324	0.11305	0.28968	0.21331	-2.0938	-3.2229	-3.2188	-2.4437	-3.4146	-2.8604	-2.8646	-3.3667	-2.5563	-3.1833	-3.1646	-2.7708	-3.2708	-2.7854	-2.7104	-3.5667	-81.275	-67.563	140.803	145.939	-77.480	-28.272	74.274	-142.231	79.987	-140.432	37.776	174.598	-132.419	153.542	-145.002	69.907	0.00052501	0.001811	0.00059323	160.5	9.9516e-06	3.5204e-05	246.8	59.212	3.4995e-05	4.8244e-05	105.07	39.914	23.096	10.738	1.4453e-05	18.46	0.040313	0.04424	0.012237	1375.1	0.00047606	0.0004807	1259.5	403.89	0.00047082	0.00047755	669.74	235.58	193.68	73.118	0.00047129	103.06	-160.930	-109.110	-10.613	-155.963	150.633	123.619	-156.954	-151.536	183.955	97.566	-154.023	-149.496	-148.447	-143.216	105.993	-145.365	-8191	255	
32286.057	1	1	0	0	0.13593	0.10648	0.17732	0.10931	0.10807	0.26373	0.034973	0.26643	0.015009	0.077767	0.090183	0.064334	0.034612	0.10304	0.070794	0.051184	-2.4437	-2.9333	-3.3167	-2.5625	-3.3771	-2.9396	-2.6771	-3.3438	-2.7854	-3.2896	-3.3896	-2.7021	-3.2646	-3.1771	-2.6521	-3.5896	-123.776	46.483	139.294	73.979	137.869	58.202	13.963	-147.335	42.705	-9.734	23.842	-3.996	80.466	74.680	1.963	20.034	0.00028076	0.0019792	0.0010591	158.82	8.7163e-06	2.661e-05	245.57	58.491	1.284e-05	1.9825e-05	104.3	40.293	23.416	10.683	2.2377e-05	18.342	0.039689	0.043562	0.012035	1357.2	0.00047017	0.0004759	1246.2	401.18	0.00046933	0.00047622	669.1	236.04	195.14	73.291	0.00047277	103.7	130.408	105.489	-24.310	-155.601	155.117	-11.188	-156.980	-150.421	-49.068	-25.933	-154.081	-149.032	-146.628	-142.882	13.373	-146.888	-8191	255	
32286.152	1	1	0	0	0.16776	0.047254	0.10968	0.44018	0.28777	0.15777	0.087409	0.040303	0.027821	0.16358	0.033856	0.059975	0.26296	0.25161	0.30916	0.14982	-2.2083	-2.9354	-3.3479	-2.4854	-3.1813	-2.9896	-2.6792	-3.4188	-2.6854	-2.8833	-3.2979	-2.5938	-3.1417	-3.1375	-2.3479	-3.2333	64.288	150.692	135.047	45.488	19.947	-121.288	60.266	136.250	-41.355	87.616	-117.409	133.064	185.644	163.875	72.478	152.600	0.00036438	0.0067538	0.00060613	161.43	2.4744e-05	1.912e-05	243.17	57.051	1.4603e-05	4.2939e-05	105.6	40.03	23.777	10.736	2.2466e-05	18.365	0.040009	0.043757	0.012093	1363.6	0.00047127	0.00047502	1244.2	401.21	0.00046709	0.00047444	663.37	234.38	193.34	72.543	0.0004679	102.85	-77.632	23.956	58.494	-156.390	21.099	-16.289	-156.057	-149.851	-162.898	90.852	-152.912	-150.298	-147.112	-142.871	-84.709	-147.129	-8191	255	
32286.273	1	1	0	0	0.16276	0.23783	0.10501	0.10446	0.16054	0.15515	0.25407	0.076133	0.35178	0.26997	0.25902	0.30616	0.3278	0.10846	0.08083	0.17206	-2.3875	-2.8104	-3.1688	-2.6083	-3.2646	-3.1021	-2.5208	-3.3688	-2.8312	-2.8729	-3.4167	-2.6521	-2.9437	-3.2396	-2.7542	-3.3458	129.509	165.980	-162.409	-130.897	-100.424	-116.479	35.081	151.398	59.536	-113.220	77.331	127.025	117.389	-168.940	108.064	112.070	0.00057871	0.0067797	0.000774	160.26	3.8338e-05	2.4242e-05	244.93	59.61	2.256e-05	3.0001e-05	101.42	40.332	23.721	10.913	9.1334e-07	18.494	0.039505	0.042916	0.011865	1341.9	0.00046307	0.00046536	1226.1	395.24	0.00045859	0.00046273	652.47	231.45	190.24	71.388	0.00045991	101.72	183.178	-36.499	-155.410	-157.453	-6.280	-60.412	-157.762	-151.533	-101.468	-80.158	-152.422	-149.829	-147.993	-142.963	-67.807	-146.170	-8191	255	
32286.346	1	1	0	0	0.020365	0.051393	0.30641	0.13135	0.23629	0.04829	0.14867	0.37475	0.33068	0.25923	0.19823	0.02657	0.19777	0.16974	0.12991	0.04173	-2.5167	-2.65	-3.2771	-2.8146	-2.9771	-3.3271	-2.6375	-3.2979	-3.0458	-2.5521	-3.4292	-2.8292	-2.9854	-3.2917	-2.5146	-3.3354	132.790	-11.497	-150.944	67.949	-107.712	-79.013	-30.373	147.817	15.778	-86.208	-157.860	-86.551	-103.148	26.143	8.319	59.678	0.0005759	0.0010898	0.00035228	159.3	8.5099e-06	8.9124e-06	245.04	56.067	7.1329e-06	1.5002e-05	105.53	40.199	23.887	10.798	1.2392e-05	18.276	0.038867	0.042315	0.011726	1332.6	0.00045938	0.00046183	1220.2	393.8	0.00045595	0.00045947	649.65	230.13	188.71	70.594	0.00045551	100.68	141.840	81.453	-72.691	-156.076	9.460	-24.851	-156.616	-151.830	-139.592	51.933	-152.851	-150.207	-146.790	-142.539	2.835	-146.451	-8191	255	
32286.441	1	1	0	0	0.12713	0.10112	0.091031	0.014709	0.076112	0.20916	0.28114	0.14353	0.27267	0.19996	0.071589	0.10573	0.24418	0.34657	0.14907	0.057831	-2.6833	-2.6813	-3.2438	-2.7313	-2.8708	-3.3792	-2.7125	-3.0979	-3.1917	-2.5729	-3.3771	-2.8187	-2.8167	-3.4458	-2.5833	-3.1875	4.024	23.127	48.463	162.518	157.487	105.012	-108.241	-125.670	144.988	37.141	169.493	-98.704	178.618	175.844	-68.511	-147.941	0.00080512	0.0010004	0.0011571	161.11	3.9539e-05	3.5678e-05	243.56	57.092	1.0886e-05	3.4242e-05	103.49	39.433	23.637	10.539	9.9701e-06	17.988	0.03833	0.041729	0.011628	1320.7	0.00045291	0.00045596	1209.5	390.33	0.00045132	0.00045504	645.44	229.26	187.87	70.379	0.00045497	100.68	-146.091	55.241	-132.324	-156.097	90.496	-11.516	-157.741	-153.283	175.134	-11.206	-152.830	-149.459	-148.259	-144.419	-153.389	-145.905	-8191	255	
32286.537	1	1	0	0	0.18203	0.35954	0.19608	0.095442	0.14479	0.020831	0.3017	0.30812	0.37081	0.092965	0.2158	0.27726	0.22603	0.18645	0.27258	0.009198	-2.9458	-2.6312	-3.2333	-2.75	-2.8187	-3.4125	-2.7354	-3.0563	-3.0625	-2.4708	-3.3479	-3.0208	-2.7833	-3.3833	-2.5896	-3.1771	-74.807	134.795	186.143	166.480	154.391	-81.492	-82.339	23.507	90.360	-35.718	107.625	-149.284	-0.364	8.479	26.929	-101.620	0.00087853	0.0034275	0.00017158	161.27	9.198e-06	4.7916e-05	242.51	57.648	7.8912e-06	2.4546e-05	104.78	40.268	23.064	10.479	1.6639e-05	18.09	0.038349	0.041866	0.011659	1325.4	0.00045379	0.00045826	1221.5	393.32	0.0004541	0.00045965	653.53	230.89	189.15	71.042	0.00046021	101.54	159.264	-88.329	58.617	-155.714	-52.978	-46.270	-157.438	-151.864	85.651	38.019	-153.838	-148.913	-147.925	-144.049	145.758	-146.989	-8191	255	
32286.656	1	1	0	0	0.20578	0.16966	0.21721	0.11318	0.31718	0.23118	0.13047	0.27221	0.047265	0.19346	0.25838	0.050033	0.088559	0.26045	0.26945	0.10492	-2.9125	-2.5	-3.1042	-3.0812	-2.5833	-3.5021	-2.7125	-2.9833	-3.3688	-2.6188	-3.2292	-2.9667	-2.5458	-3.2938	-2.7958	-2.9417	143.686	-86.101	-122.185	132.607	69.138	15.625	-36.578	-24.377	64.720	168.809	156.226	31.203	93.430	155.926	-140.318	118.568	0.00036213	0.0036314	0.00055455	158.68	1.8843e-05	5.5408e-05	248.9	58.319	2.6128e-05	7.1711e-06	102.94	40.728	23.309	10.673	5.9522e-05	18.377	0.038611	0.042218	0.011811	1337.5	0.00045811	0.00046151	1227.7	393.81	0.0004533	0.00045891	652.69	229.9	187.96	70.573	0.00045636	100.67	-143.923	113.433	-29.306	-156.079	96.145	0.599	-156.925	-150.715	-40.809	126.276	-153.094	-149.821	-147.714	-143.980	-52.735	-146.013	-8191	255	
32286.752	1	1	0	0	0.15462	0.094034	0.18725	0.091216	0.14847	0.099442	0.082372	0.026026	0.14839	0.27667	0.057356	0.55166	0.20053	0.097087	0.2622	0.16337	-2.8833	-2.6792	-3.2333	-3.0292	-2.4458	-3.4625	-2.8312	-2.7229	-3.3708	-2.6958	-3.2375	-3.1542	-2.5396	-3.2625	-2.9042	-2.7708	-18.533	173.488	186.361	-66.200	170.414	157.127	-106.331	-26.336	106.611	-50.324	11.674	12.550	124.610	47.530	-12.055	133.876	0.00012438	0.0021687	0.0011669	159.28	2.7411e-05	3.431e-05	244.08	58.608	2.5633e-05	1.6712e-05	103.79	40.379	23.606	10.459	3.2764e-05	18.497	0.03807	0.041738	0.011654	1314.9	0.00044849	0.00045544	1210.6	388.55	0.00044743	0.0004556	648.41	228.07	186.69	70.63	0.00045844	100.92	25.829	-137.177	68.894	-155.753	116.976	182.130	-157.311	-151.309	55.066	32.146	-152.535	-149.991	-146.230	-144.119	-54.483	-146.492	-8191	255	
32286.848	1	1	0	0	0.039286	0.12687	0.17237	0.22194	0.0094662	0.23508	0.10675	0.21717	0.038112	0.17115	0.16721	0.26611	0.1307	0.28426	0.15058	0.078794	-3	-2.6354	-3.0854	-3.1292	-2.6208	-3.2771	-2.9229	-2.7646	-3.3979	-2.7396	-2.9562	-3.4042	-2.6	-3.3167	-2.8083	-2.7667	48.169	-85.057	-114.193	138.300	182.880	-165.161	28.620	-1.542	-164.812	114.502	59.098	100.537	135.965	63.400	7.342	33.902	0.0009594	0.0017296	0.00088136	159.95	1.7729e-05	1.3611e-05	243.6	57.492	8.522e-06	4.4833e-05	102.88	40.499	23.714	10.889	2.0296e-05	18.017	0.038538	0.04244	0.011852	1336.1	0.00045998	0.0004685	1236.9	397.6	0.00046179	0.000471	665.01	234.03	192.48	72.718	0.00047018	102.74	-165.281	176.227	-166.678	-155.832	21.096	22.978	-157.301	-151.020	35.347	59.049	-152.035	-149.048	-146.313	-141.950	-59.825	-146.457	-8191	255	
32286.945	1	1	0	0	0.14655	0.16947	0.12603	0.14365	0.13355	0.21159	0.25182	0.20897	0.19285	0.10949	0.1511	0.20983	0.15748	0.12213	0.19877	0.1051	-2.9625	-2.5646	-2.8917	-3.2146	-2.6354	-3.2354	-2.9771	-2.6125	-3.2792	-2.7125	-2.8375	-3.3854	-2.6083	-3.0604	-3.025	-2.6688	71.779	-2.190	4.970	-35.484	88.710	78.795	109.376	63.371	139.698	2.639	107.667	138.747	-136.539	-95.014	27.365	105.795	0.00028077	0.0032282	0.00093018	157.76	1.8959e-05	2.3342e-05	245.09	59.748	2.079e-05	3.3996e-05	104.25	40.157	23.589	10.91	1.5304e-05	18.392	0.039302	0.043187	0.011996	1349.5	0.00046477	0.00047279	1243.6	399.43	0.00046315	0.00047206	663.46	233.32	191.93	72.375	0.00046675	102.07	-89.356	-39.950	-40.610	-155.801	135.502	-142.570	-157.475	-150.499	143.741	-33.876	-151.106	-149.608	-148.223	-143.428	-80.085	-146.019	-8191	255	
32287.041	1	1	0	0	0.11087	0.12741	0.24421	0.021618	0.080549	0.18248	0.18221	0.12994	0.021898	0.026812	0.14856	0.28434	0.041369	0.28125	0.031435	0.049013	-2.9021	-2.6937	-2.7375	-3.1917	-2.5229	-3.2375	-3.0521	-2.6125	-3.3396	-2.9667	-2.7229	-3.5479	-2.6188	-3.1208	-3.1917	-2.8396	13.642	190.905	-46.823	47.867	-87.345	143.158	165.226	143.315	128.410	54.901	72.278	15.618	118.283	-91.429	-29.928	-87.988	0.001413	0.0043996	0.00091485	158.03	2.732e-05	1.1739e-05	240.23	58.455	8.101e-06	5.4868e-05	102.01	39.834	23.568	10.958	6.1732e-05	18.111	0.039048	0.043029	0.01189	1336.9	0.00046145	0.0004675	1227	393.5	0.00045778	0.00046535	653.41	230.45	189.52	71.328	0.00045759	100.4	117.498	-85.036	-13.899	-156.653	-100.022	-40.959	-155.962	-150.598	-95.087	106.097	-153.329	-148.609	-147.324	-143.834	36.102	-146.736	-8191	255	
32287.137	1	1	0	0	0.12452	0.14651	0.12229	0.09217	0.10526	0.15056	0.36773	0.027588	0.28036	0.042326	0.3671	0.054726	0.065648	0.12263	0.067695	0.21957	-3.0354	-2.9229	-2.5667	-3.4146	-2.4396	-3.0542	-3.2729	-2.5979	-3.3479	-3.0083	-2.8125	-3.1229	-2.6646	-3.1562	-3.3542	-2.7687	-71.979	30.000	-37.471	-89.304	79.687	45.166	66.614	22.055	-136.635	107.764	-36.020	-9.363	-115.714	139.042	148.147	12.572	0.0010345	0.0047209	0.00033766	154.76	2.6246e-05	4.3693e-05	246.72	58.763	1.6829e-05	4.393e-05	103.61	39.274	23.22	10.731	3.7431e-05	18.119	0.038477	0.04225	0.011665	1318.9	0.00045507	0.00046152	1215	390.37	0.00045407	0.00046131	648.49	228.56	188.44	70.716	0.00045218	99.792	111.928	-95.999	0.539	-155.644	42.447	47.912	-157.471	-150.549	112.288	9.004	-153.312	-150.389	-146.401	-144.005	-102.906	-147.111	-8191	255	
32287.232	1	1	0	0	0.22986	0.15355	0.12914	0.06105	0.17452	0.17716	0.11945	0.21015	0.089095	0.069072	0.12931	0.11954	0.14916	0.16391	0.16819	0.066335	-2.825	-3.0479	-2.6479	-3.3187	-2.6917	-3.0938	-3.5083	-2.6437	-3.1917	-3.0771	-2.7583	-3.3042	-2.6583	-2.8042	-3.3021	-2.6333	8.632	-160.101	80.462	172.279	-34.314	37.706	140.779	65.041	36.468	149.796	-159.283	49.080	109.587	-101.271	-113.199	-88.669	0.00037219	0.0040033	0.00054788	164.17	2.3592e-05	4.948e-05	240.47	58.078	1.7797e-05	1.958e-05	104.94	39.039	23.447	10.874	1.732e-05	17.736	0.038153	0.041664	0.011516	1307.6	0.00045152	0.00045605	1203.1	388.49	0.00045107	0.00045711	644.16	227.62	187.31	70.171	0.00044846	99.114	143.935	-67.039	-74.762	-156.077	156.865	8.874	-157.458	-149.986	-13.953	6.588	-151.957	-149.230	-147.466	-144.653	-20.638	-144.846	-8191	255	
32287.354	1	1	0	0	0.13597	0.047351	0.12582	0.083444	0.15236	0.13301	0.14146	0.27608	0.22348	0.093622	0.13935	0.24378	0.11279	0.12726	0.22174	0.013228	-2.775	-3.1271	-2.5187	-3.2875	-2.775	-2.8708	-3.4062	-2.7104	-3.15	-3.2521	-2.5333	-3.2333	-2.7229	-2.8854	-3.3229	-2.6604	96.466	-75.738	150.068	6.490	19.462	-91.075	107.155	-29.779	-96.579	46.490	-153.771	66.868	53.783	-119.783	90.544	-74.010	0.0012557	0.00489	0.00079054	157.38	1.5294e-05	1.6253e-05	239.62	59.374	2.7466e-05	1.2406e-05	103.85	39.869	24.175	10.675	2.7769e-05	18.317	0.037914	0.041292	0.011407	1298.3	0.00044589	0.00044769	1188.8	382.74	0.00044409	0.00044749	633.79	224.53	184.44	69.074	0.00044337	98.826	102.782	-83.823	149.287	-155.218	-168.320	81.787	-156.976	-151.083	-41.301	-31.788	-153.571	-149.179	-146.758	-143.115	170.511	-146.322	-8191	255	
32287.449	1	1	0	0	0.29797	0.30808	0.14354	0.03371	0.19712	0.096035	0.11532	0.042658	0.12552	0.12611	0.020301	0.055583	0.27747	0.090112	0.13484	0.044708	-2.65	-3.15	-2.5458	-3.2167	-2.8708	-2.625	-3.4417	-2.6896	-2.8833	-3.3979	-2.5792	-3.1292	-3.1104	-2.7146	-3.3167	-2.8167	162.800	-131.766	-104.323	82.230	1.308	-87.193	-101.933	-20.189	-163.528	95.694	12.855	111.467	170.415	69.910	151.202	-68.533	0.00051705	0.0012507	0.0005696	158.1	2.1517e-05	1.6462e-05	246.88	56.857	1.1224e-05	7.3417e-06	104.54	40.243	23.886	10.931	2.237e-05	18.539	0.037669	0.040985	0.011362	1299.2	0.00044597	0.00044946	1193.8	386.09	0.00044592	0.0004514	638.21	226.69	185.58	69.452	0.00044657	99.027	66.524	77.244	75.200	-155.831	-111.975	185.563	-156.571	-150.966	-143.715	120.859	-153.983	-149.738	-147.908	-143.850	-119.507	-146.450	-8191	255	
32287.547	1	1	0	0	0.26341	0.28387	0.055495	0.26195	0.28487	0.16357	0.224	0.051964	0.25585	0.21712	0.1663	0.11989	0.11336	0.13828	0.1072	0.19186	-2.4813	-3.2938	-2.6312	-3.2646	-3.0375	-2.6854	-3.3333	-2.7604	-2.9229	-3.3063	-2.4667	-3.2375	-3.1583	-2.575	-3.2687	-2.7854	-105.177	109.206	16.875	153.712	-132.688	20.762	95.010	73.500	-118.402	-133.503	-151.543	-30.812	99.588	-37.564	53.559	-28.882	0.00064424	0.0018035	0.00028672	158.84	1.8279e-05	2.8997e-05	242.75	57.978	1.3233e-05	1.5568e-05	101.96	40.18	23.988	10.721	1.8656e-05	18.216	0.037549	0.040776	0.011325	1294.6	0.00044254	0.00044403	1188.1	383.03	0.00044153	0.00044457	632.1	224.32	183.15	68.599	0.00044234	98.384	118.356	97.014	151.370	-155.939	-147.400	-109.036	-157.086	-150.300	54.872	175.273	-152.823	-149.699	-147.739	-143.178	181.747	-145.738	-8191	255	
32287.643	1	1	0	0	0.24657	0.27118	0.11717	0.13514	0.072877	0.29699	0.16065	0.068735	0.30059	0.18649	0.045306	0.096986	0.073664	0.062565	0.067948	0.09071	-2.3479	-3.2167	-2.525	-3.1937	-3.2021	-2.5354	-3.2396	-2.7458	-2.7479	-3.3854	-2.5563	-2.9979	-3.3083	-2.4729	-3.1771	-2.7938	-30.909	-57.200	135.770	-115.266	49.234	-110.663	107.441	-60.577	-100.795	-60.760	-76.035	189.550	-160.595	102.260	120.759	91.314	0.00013755	0.00095884	0.00067033	158.51	1.2545e-05	5.9207e-06	242.31	56.671	3.7111e-05	3.0922e-05	103.77	39.916	23.703	10.816	3.4393e-05	18.03	0.03732	0.040596	0.011341	1294.4	0.00044177	0.00044392	1187.3	382.38	0.00043833	0.00044277	633.08	224.13	182.58	68.603	0.00044141	98.05	-105.144	-28.916	149.342	-156.256	-47.003	2.728	-157.210	-149.479	16.638	37.023	-153.966	-148.495	-147.279	-143.357	167.974	-146.878	-8191	255	
32287.738	1	1	0	0	0.15011	0.086896	0.26276	0.15643	0.11529	0.18068	0.13393	0.15708	0.16717	0.11602	0.10242	0.27604	0.055725	0.15022	0.18163	0.16729	-2.2812	-3.3458	-2.5687	-2.9354	-3.1958	-2.6271	-3.3688	-2.8312	-2.6396	-3.325	-2.7208	-2.8396	-3.2646	-2.5563	-3.2562	-3.0229	-49.766	-23.370	192.144	46.537	157.669	130.685	-117.278	154.570	-62.955	-117.812	-165.449	159.357	190.866	-77.215	-42.808	149.222	0.00042847	0.0028335	0.00028292	163.18	1.4622e-05	3.4193e-05	242.02	57.338	1.0338e-05	2.5258e-05	102.92	40.394	23.953	10.923	8.4052e-06	18.24	0.036855	0.040258	0.011266	1281.4	0.00043664	0.00044101	1184.2	380.56	0.00043551	0.00044181	630.29	222.6	181.05	68.363	0.00043784	97.128	-74.866	-16.952	101.226	-155.485	-152.425	109.222	-157.036	-148.726	90.021	178.909	-151.586	-149.231	-146.684	-143.340	74.040	-145.967	-8191	255	
32287.832	1	1	0	0	0.15052	0.12672	0.16206	0.14189	0.15363	0.27412	0.10362	0.11903	0.088034	0.12003	0.11324	0.086424	0.22673	0.074768	0.12336	0.094063	-2.1021	-3.2521	-2.6958	-2.6771	-3.3312	-2.5312	-3.2875	-3.1437	-2.5062	-3.4167	-2.8563	-2.8542	-3.3667	-2.5708	-3.1167	-3.0042	3.013	65.079	190.047	86.818	65.432	159.939	103.966	-153.621	87.349	-119.195	189.736	-71.311	-139.229	16.143	-161.341	131.547	0.00091708	0.0050221	0.00054839	154.22	1.6463e-05	1.1263e-05	246.48	57.692	2.357e-05	1.384e-05	103.23	40.651	23.668	10.745	3.13e-05	18.203	0.036458	0.039794	0.011112	1265	0.0004288	0.00043471	1170.8	373.19	0.00042613	0.0004341	620.01	218.76	178.44	67.501	0.00043186	95.858	97.510	132.611	-26.816	-156.306	22.944	-35.985	-157.088	-150.966	128.695	122.310	-152.029	-148.985	-147.804	-143.686	171.815	-145.478	-8191	255	
32287.953	1	1	0	0	0.0050976	0.23533	0.076554	0.091476	0.013988	0.1806	0.081441	0.068388	0.13346	0.18489	0.19688	0.12223	0.17096	0.11681	0.17591	0.063789	-2.1688	-3.2521	-2.7021	-2.7167	-3.3604	-2.6625	-3.0958	-3.1146	-2.6229	-3.1979	-2.7438	-2.6979	-3.2083	-2.7021	-2.8354	-3.3229	48.367	171.915	134.464	-144.547	-10.975	139.316	-91.646	-107.035	155.290	-78.625	82.269	73.658	147.038	23.281	-33.123	-7.117	0.00015791	0.0014736	0.00065402	161.14	8.4024e-06	4.7975e-05	236.74	59.211	7.8072e-06	1.262e-05	104.02	40.116	23.892	10.632	1.1313e-05	18.065	0.036031	0.039646	0.011043	1255.6	0.00042722	0.0004343	1165.4	373.96	0.00042951	0.00044022	626.71	221.24	181.47	68.79	0.00044179	97.597	24.575	-118.689	86.144	-156.871	-46.811	185.943	-156.865	-152.115	180.855	75.561	-154.698	-149.636	-147.979	-143.133	92.977	-145.486	-8191	255	
32288.049	1	1	0	0	0.068705	0.17828	0.15622	0.15812	0.019344	0.24194	0.0347	0.2588	0.25762	0.18684	0.22442	0.13254	0.19555	0.072395	0.18364	0.19045	-2.1	-3.2479	-2.9667	-2.7833	-3.4021	-2.7458	-3.0042	-3.2854	-2.5854	-3.0708	-3.0229	-2.6729	-3.325	-2.7771	-2.9792	-3.2021	-156.705	161.574	-146.889	176.180	-56.188	73.030	170.454	-168.420	1.912	120.366	38.839	-9.661	-116.191	-80.677	173.664	-98.898	0.00079423	0.0016853	0.001089	160.17	4.8086e-07	1.6871e-05	247.14	58.367	1.5077e-05	3.8884e-05	103.88	40.035	24.241	10.831	3.4125e-05	18.446	0.036923	0.04079	0.011347	1284.6	0.00044121	0.00044881	1193.4	382.58	0.00044271	0.00045231	640.85	225.75	185.8	70.141	0.00045041	99.317	107.916	151.588	-111.917	-156.559	99.256	-109.789	-155.756	-151.217	165.477	41.643	-154.048	-149.210	-148.523	-143.581	163.804	-146.147	-8191	255	
32288.146	1	1	0	0	0.21104	0.077963	0.15066	0.17323	0.15648	0.19328	0.26848	0.22045	0.12439	0.14051	0.13044	0.030446	0.13914	0.11822	0.08965	0.10112	-2.1125	-3.0625	-2.9208	-2.5333	-3.4083	-2.8833	-2.75	-3.2625	-2.5167	-3.2271	-3.1125	-2.5563	-3.3646	-2.8312	-2.5479	-3.3646	24.816	-90.245	-147.996	-156.681	-158.708	-146.882	-143.511	-160.164	-88.691	188.236	-70.719	53.040	190.523	-132.367	-84.467	125.206	0.00065694	0.0040716	0.00058305	161.94	2.8741e-05	3.8295e-05	246.14	58.941	1.9776e-05	4.5496e-06	104.53	40.756	23.618	10.855	6.5657e-05	18.683	0.037854	0.041567	0.011507	1300.8	0.00044796	0.00045416	1202.3	385.59	0.00044531	0.00045362	638.88	225.17	185.02	69.7	0.00044417	98.105	156.625	-94.571	-77.773	-156.922	-139.386	-86.606	-156.621	-151.132	8.255	72.630	-151.905	-150.086	-148.120	-143.196	-76.829	-145.044	-8191	255	
32288.217	1	1	0	0	0.13895	0.06797	0.20075	0.22486	0.16536	0.13368	0.26478	0.35527	0.087327	0.31313	0.071982	0.18088	0.075349	0.18276	0.013806	0.092598	-2.1312	-3.1021	-3.2854	-2.6312	-3.3854	-2.9271	-2.6083	-3.4521	-2.5896	-3.1417	-3.1458	-2.525	-3.1896	-2.7438	-2.6458	-3.2729	97.078	-166.595	-114.768	-54.367	184.989	161.103	14.872	99.882	-72.881	70.945	130.792	-155.062	70.859	107.306	62.867	-131.530	0.00036289	0.0015711	0.0009679	158.91	3.0937e-05	1.0877e-05	243.64	59.296	1.0582e-05	3.5946e-05	104.86	40.126	23.167	10.862	4.7911e-05	18.481	0.037325	0.041021	0.011381	1291.7	0.00044467	0.00045125	1194.1	383.73	0.00044396	0.00044999	636.16	224.71	184.99	69.671	0.00044423	98.447	139.372	173.959	-34.365	-156.431	-147.178	-143.251	-156.847	-150.239	-16.026	150.165	-152.883	-150.204	-148.373	-144.026	-19.736	-145.880	-8191	255	
32288.338	1	1	0	0	0.057987	0.1934	0.12941	0.03787	0.32907	0.096404	0.19037	0.1248	0.094444	0.13131	0.264	0.19605	0.21244	0.23811	0.27102	0.15412	-2.1979	-2.9083	-3.3271	-2.6396	-3.2167	-2.8333	-2.8	-3.3583	-2.6542	-2.8083	-2.9792	-2.7417	-3.2271	-3.0708	-2.5312	-3.5229	-13.488	32.782	176.482	85.525	168.332	26.293	-114.699	177.280	-28.102	0.834	159.717	-138.954	-46.886	-140.417	-32.795	-148.074	0.00053389	0.0010335	0.00055295	159.58	3.0958e-05	3.6464e-05	241.08	58.196	1.1512e-05	1.7449e-05	103.52	39.798	24.008	11.007	2.8859e-05	18.623	0.0375	0.040811	0.011282	1284.3	0.00043989	0.00044356	1174	376.57	0.00043464	0.000439	623.06	220.72	181.4	68.266	0.00043402	97.057	24.359	15.774	116.837	-155.201	102.087	16.877	-156.095	-149.461	-143.256	161.449	-153.667	-149.996	-147.946	-143.106	-123.484	-145.036	-8191	255	
32288.434	1	1	0	0	0.087632	0.10511	0.16618	0.16149	0.12433	0.16568	0.11244	0.25728	0.13936	0.071409	0.021015	0.22066	0.22968	0.065116	0.16202	0.16905	-2.6333	-2.7542	-3.3125	-2.6083	-2.9792	-3.0229	-2.7062	-3.2896	-2.7771	-2.7854	-3.3021	-2.6271	-3.0792	-3.3187	-2.6	-3.2958	177.201	-142.762	-48.777	181.820	-139.474	-94.798	190.915	-18.571	165.412	62.025	-135.805	26.655	185.759	-74.735	153.851	-31.565	0.0010382	0.003207	0.00034371	161.63	2.1566e-05	3.0869e-05	247.49	59.447	1.8582e-05	1.868e-05	105.32	39.803	23.912	10.832	1.3945e-05	18.633	0.036856	0.040191	0.01112	1270	0.00043473	0.00043751	1168.5	376.46	0.00043413	0.0004386	623.99	221.47	182.08	68.42	0.00043606	97.778	181.460	-10.556	-19.111	-156.158	-44.468	-82.688	-157.257	-149.598	151.823	60.858	-153.107	-149.258	-147.318	-142.810	-40.171	-145.297	-8191	255	
32288.529	1	1	0	0	0.22754	0.20175	0.1189	0.20291	0.20355	0.28267	0.31636	0.27117	0.084545	0.16694	0.12726	0.29474	0.17165	0.18638	0.059215	0.094582	-2.4729	-2.7979	-3.2875	-2.6792	-2.9562	-3.2417	-2.5687	-3.0833	-2.8688	-2.4688	-3.3979	-2.5792	-3.0396	-3.3646	-2.7042	-3.3083	142.232	186.793	147.330	125.719	26.333	-105.535	173.857	47.617	-141.580	-140.649	183.317	-82.191	158.724	4.391	-108.352	-151.137	0.00093782	0.0028459	0.0009719	156.24	2.832e-05	3.012e-05	244.73	58.816	1.5744e-05	3.7529e-05	102.89	40.376	24.111	10.813	2.8059e-05	18.618	0.037075	0.040288	0.011231	1286.1	0.00043953	0.00044361	1184	381.49	0.00044057	0.00044474	633.2	225.36	185.23	69.407	0.00044471	99.196	190.245	-23.475	-13.023	-156.517	-67.362	82.581	-156.351	-149.844	-6.415	-63.349	-152.315	-149.385	-148.261	-143.539	-161.521	-145.582	-8191	255	
#DATA ENDS
