BOXY.EXE: ISS Imagent and Oximeter Data Acquisition Program Version 0.80
Ascii Record File

#ACQ INFORMATION
2  Detector Channels 
16  External MUX Channels 
1  Auxiliary Channels 
5000  Waveform (CCF) Frequency (Hz)
1  Waveforms Skipped 
30  Waveforms Averaged 
1  Cycles Averaged 
16  Acquisitions per Waveform 
10.0806  Updata Rate (Hz) 

#FILE INFORMATION
TRUE -- External MUX Channel results are PARSED.
FALSE -- AC DC and Phase are NOT grouped.
TRUE -- Companion Program Settings File CREATED.
FALSE -- AC data not excluded
FALSE -- DC data not excluded
FALSE -- Phase data not excluded
FALSE -- Auxillary Chn. data not excluded
Tab delimiters

#CALIBRATION STATE
TRUE -- Waveform Calibration Values APPLIED.


#AUX CALIBRATION VALUES
Val Type	aux-1	

Term	1.0000e+00	
Factor	0.0000e+00	


#WF CALIBRATION VALUES
A = Detector Channel
Val Type	A-AC1	A-AC2	A-AC3	A-AC4	A-AC5	A-AC6	A-AC7	A-AC8	A-AC9	A-AC10	A-AC11	A-AC12	A-AC13	A-AC14	A-AC15	A-AC16	A-DC1	A-DC2	A-DC3	A-DC4	A-DC5	A-DC6	A-DC7	A-DC8	A-DC9	A-DC10	A-DC11	A-DC12	A-DC13	A-DC14	A-DC15	A-DC16	A-Ph1	A-Ph2	A-Ph3	A-Ph4	A-Ph5	A-Ph6	A-Ph7	A-Ph8	A-Ph9	A-Ph10	A-Ph11	A-Ph12	A-Ph13	A-Ph14	A-Ph15	A-Ph16	

Term	0.00000e+00	0.00000e+00	0.00000e+00	0.00000e+00	0.00000e+00	0.00000e+00	0.00000e+00	0.00000e+00	0.00000e+00	0.00000e+00	0.00000e+00	0.00000e+00	0.00000e+00	0.00000e+00	0.00000e+00	0.00000e+00	0.00000e+00	0.00000e+00	0.00000e+00	0.00000e+00	0.00000e+00	0.00000e+00	0.00000e+00	0.00000e+00	0.00000e+00	0.00000e+00	0.00000e+00	0.00000e+00	0.00000e+00	0.00000e+00	0.00000e+00	0.00000e+00	0.00000e+00	0.00000e+00	0.00000e+00	0.00000e+00	0.00000e+00	0.00000e+00	0.00000e+00	0.00000e+00	0.00000e+00	0.00000e+00	0.00000e+00	0.00000e+00	0.00000e+00	0.00000e+00	0.00000e+00	0.00000e+00	
Factor	1.00000e+00	1.00000e+00	1.00000e+00	1.00000e+00	1.00000e+00	1.00000e+00	1.00000e+00	1.00000e+00	1.00000e+00	1.00000e+00	1.00000e+00	1.00000e+00	1.00000e+00	1.00000e+00	1.00000e+00	1.00000e+00	1.00000e+00	1.00000e+00	1.00000e+00	1.00000e+00	1.00000e+00	1.00000e+00	1.00000e+00	1.00000e+00	1.00000e+00	1.00000e+00	1.00000e+00	1.00000e+00	1.00000e+00	1.00000e+00	1.00000e+00	1.00000e+00	X	X	X	X	X	X	X	X	X	X	X	X	X	X	X	X	

B = Detector Channel
Val Type	B-AC1	B-AC2	B-AC3	B-AC4	B-AC5	B-AC6	B-AC7	B-AC8	B-AC9	B-AC10	B-AC11	B-AC12	B-AC13	B-AC14	B-AC15	B-AC16	B-DC1	B-DC2	B-DC3	B-DC4	B-DC5	B-DC6	B-DC7	B-DC8	B-DC9	B-DC10	B-DC11	B-DC12	B-DC13	B-DC14	B-DC15	B-DC16	B-Ph1	B-Ph2	B-Ph3	B-Ph4	B-Ph5	B-Ph6	B-Ph7	B-Ph8	B-Ph9	B-Ph10	B-Ph11	B-Ph12	B-Ph13	B-Ph14	B-Ph15	B-Ph16	

Term	0.00000e+00	0.00000e+00	0.00000e+00	0.00000e+00	0.00000e+00	0.00000e+00	0.00000e+00	0.00000e+00	0.00000e+00	0.00000e+00	0.00000e+00	0.00000e+00	0.00000e+00	0.00000e+00	0.00000e+00	0.00000e+00	0.00000e+00	0.00000e+00	0.00000e+00	0.00000e+00	0.00000e+00	0.00000e+00	0.00000e+00	0.00000e+00	0.00000e+00	0.00000e+00	0.00000e+00	0.00000e+00	0.00000e+00	0.00000e+00	0.00000e+00	0.00000e+00	-1.65560e+02	-1.26939e+02	-1.30200e+02	-1.83531e+02	-7.95580e+01	-6.23298e+01	-1.55913e+02	-1.62015e+02	-8.00935e+01	-6.99222e+01	-1.69783e+02	-1.70754e+02	-1.79463e+02	-1.76415e+02	-7.83609e+01	-1.49214e+02	
Factor	2.59736e-05	1.59396e-04	3.76247e-05	1.70707e-01	1.04767e-06	1.40068e-06	1.50441e-01	4.85057e-02	9.61463e-07	1.40745e-06	8.22453e-02	2.84523e-02	2.38378e-02	8.71675e-03	1.43886e-06	1.23208e-02	3.02569e-06	3.31224e-06	9.20197e-07	9.14355e-02	3.58392e-08	3.62363e-08	7.61070e-02	2.61631e-02	3.57514e-08	3.62322e-08	4.28669e-02	1.48528e-02	1.29378e-02	4.71403e-03	3.60000e-08	6.45373e-03	X	X	X	X	X	X	X	X	X	X	X	X	X	X	X	X	



#DISTANCE SETTINGS
A = Detector Channel
A-1	A-2	A-3	A-4	A-5	A-6	A-7	A-8	A-9	A-10	A-11	A-12	A-13	A-14	A-15	A-16	

2.5000e+00	3.0000e+00	2.5000e+00	3.0000e+00	2.0000e+00	3.0000e+00	1.5000e+00	3.0000e+00	3.0000e+00	3.0000e+00	3.0000e+00	3.0000e+00	3.0000e+00	3.0000e+00	1.5000e+00	3.0000e+00	

B = Detector Channel
B-1	B-2	B-3	B-4	B-5	B-6	B-7	B-8	B-9	B-10	B-11	B-12	B-13	B-14	B-15	B-16	

1.0000e+01	1.0000e+01	1.0000e+01	1.4400e+00	1.0000e+01	1.0000e+01	1.5100e+00	1.9400e+00	1.0000e+01	1.0000e+01	1.9900e+00	2.4900e+00	2.4100e+00	2.9000e+00	1.0000e+01	2.9800e+00	




#DATA BEGINS
time	group	step	mark	flag	A-AC1	A-AC2	A-AC3	A-AC4	A-AC5	A-AC6	A-AC7	A-AC8	A-AC9	A-AC10	A-AC11	A-AC12	A-AC13	A-AC14	A-AC15	A-AC16	A-DC1	A-DC2	A-DC3	A-DC4	A-DC5	A-DC6	A-DC7	A-DC8	A-DC9	A-DC10	A-DC11	A-DC12	A-DC13	A-DC14	A-DC15	A-DC16	A-Ph1	A-Ph2	A-Ph3	A-Ph4	A-Ph5	A-Ph6	A-Ph7	A-Ph8	A-Ph9	A-Ph10	A-Ph11	A-Ph12	A-Ph13	A-Ph14	A-Ph15	A-Ph16	B-AC1	B-AC2	B-AC3	B-AC4	B-AC5	B-AC6	B-AC7	B-AC8	B-AC9	B-AC10	B-AC11	B-AC12	B-AC13	B-AC14	B-AC15	B-AC16	B-DC1	B-DC2	B-DC3	B-DC4	B-DC5	B-DC6	B-DC7	B-DC8	B-DC9	B-DC10	B-DC11	B-DC12	B-DC13	B-DC14	B-DC15	B-DC16	B-Ph1	B-Ph2	B-Ph3	B-Ph4	B-Ph5	B-Ph6	B-Ph7	B-Ph8	B-Ph9	B-Ph10	B-Ph11	B-Ph12	B-Ph13	B-Ph14	B-Ph15	B-Ph16	aux-1	digaux	

32092.826	1	1	0	256	0.1752	0.43893	0.11464	0.2918	0.0404	0.30414	0.27443	0.081724	0.15751	0.20806	0.16326	0.16512	0.20892	0.26008	0.063522	0.2168	-2.5896	-2.6104	-3.4625	-2.6979	-2.9333	-3.0667	-2.8542	-3.1937	-3.1208	-2.7	-3.2333	-2.8063	-2.8729	-3.3292	-2.5687	-3.2771	9.909	15.051	176.629	8.303	225.517	187.975	275.192	303.491	320.575	222.009	320.164	294.874	276.824	202.241	-14.767	171.103	0.00015155	0.00040533	0.00011033	1149.7	2.3306e-06	2.394e-06	1244.7	240.96	1.0492e-06	3.7079e-06	303.14	84.106	66.757	19.85	2.7866e-06	27.591	0.00036398	0.00038352	0.00010134	1131.4	4.2515e-06	4.1335e-06	1226.7	239.24	4.1417e-06	4.1034e-06	300.49	84.839	67.042	20.272	4.1591e-06	28.172	73.499	12.884	110.561	-8.397	142.106	93.188	-8.242	-0.926	114.209	113.394	-1.258	5.179	5.935	12.854	77.408	12.593	-8191	255	
32092.922	1	1	0	0	0.18566	0.10624	0.12777	0.091775	0.2419	0.079507	0.24888	0.26891	0.19053	0.12505	0.17219	0.093297	0.11951	0.18291	0.26539	0.36064	-2.6688	-2.6625	-3.4146	-2.9417	-2.7083	-3.3375	-2.7562	-3.2229	-3.1458	-2.4917	-3.5187	-2.95	-2.6583	-3.3625	-2.7792	-2.8333	17.927	51.582	63.844	107.581	238.050	20.675	310.916	297.876	248.783	207.049	103.668	165.975	170.071	298.224	315.082	245.533	0.00020312	0.00016258	0.00014645	1152	8.8488e-07	2.7979e-06	1242.1	240.26	2.9846e-06	6.5898e-06	303.11	84.487	66.634	19.83	7.7411e-06	27.923	0.00037091	0.00038711	0.00010738	1128.9	4.2669e-06	4.3447e-06	1226.2	239.23	4.355e-06	4.2143e-06	300.59	84.958	67.098	20.283	4.4295e-06	28.283	106.912	177.486	48.631	-8.514	225.266	269.108	-8.133	-1.044	103.862	135.491	-1.195	5.639	5.721	13.073	86.106	12.002	-8191	255	
32093.018	1	1	0	0	0.094096	0.13824	0.075105	0.2023	0.087349	0.03917	0.17305	0.24016	0.10097	0.18135	0.31492	0.19516	0.1343	0.16378	0.24069	0.020668	-2.6562	-2.5604	-3.1792	-2.9917	-2.5062	-3.3063	-2.8646	-2.9042	-3.2521	-2.3979	-3.2188	-2.9813	-2.5521	-3.3646	-2.7833	-2.8354	104.887	140.203	152.074	-1.043	296.334	51.527	318.912	278.703	3.293	74.356	272.626	175.802	317.362	322.661	-2.372	-13.369	0.0001624	0.00012799	5.3992e-05	1148.9	2.1131e-06	3.5097e-06	1240.9	240.41	3.1128e-06	5.8332e-07	301.64	84.548	66.606	19.86	3.5975e-06	27.695	0.00039804	0.00041117	0.00011497	1128.2	4.5584e-06	4.5509e-06	1225.5	239.17	4.5772e-06	4.5237e-06	301.15	85.053	67.01	20.358	4.4234e-06	28.26	107.794	33.354	72.804	-8.421	64.784	125.100	-7.921	-0.898	116.408	332.899	-1.071	5.700	6.133	12.901	75.061	12.502	-8191	255	
32093.115	1	1	0	0	0.20824	0.091678	0.13409	0.14463	0.15994	0.21078	0.062406	0.2261	0.15986	0.050131	0.26515	0.044193	0.1703	0.16947	0.24021	0.10814	-2.9667	-2.5104	-3.1063	-3.0167	-2.4354	-3.5417	-2.9083	-2.8604	-3.3229	-2.6333	-3.2896	-3.0354	-2.3958	-3.4375	-2.825	-2.7646	95.901	126.795	39.051	326.808	193.340	-10.219	40.408	319.232	27.189	214.339	303.616	249.279	1.499	333.028	104.950	252.511	0.00016755	0.00087495	6.6274e-05	1149.6	3.9112e-06	6.7489e-06	1246.3	240.84	3.0893e-06	3.0117e-06	302.53	85.033	66.33	19.981	1.9549e-06	27.638	0.00037986	0.00039225	0.00010692	1130	4.2133e-06	4.2059e-06	1227.6	239.59	4.1927e-06	4.1786e-06	301.47	85.28	67.348	20.45	4.1528e-06	28.293	97.891	113.917	107.481	-8.464	129.429	128.815	-7.982	-0.660	113.695	143.871	-0.729	5.326	5.820	12.721	118.216	12.274	-8191	255	
32093.232	1	1	0	0	0.040972	0.33797	0.074922	0.068526	0.050254	0.19701	0.17306	0.093205	0.22877	0.15282	0.14536	0.10463	0.27109	0.20388	0.12027	0.35452	-2.8563	-2.5667	-3.0083	-3.2	-2.4313	-3.2229	-3.0104	-2.9313	-3.3167	-2.6292	-3.0229	-3.3083	-2.8021	-3.2708	-2.8771	-2.7104	122.533	169.109	-12.059	336.583	87.501	323.982	235.577	262.207	8.134	45.942	277.092	112.170	159.007	5.762	-10.462	333.256	0.00018526	0.00032387	5.2764e-05	1161.8	1.9808e-06	5.6285e-06	1252.8	241.17	1.1985e-06	4.0421e-06	304.51	84.467	66.719	20.059	6.0675e-06	27.872	0.00037028	0.00039257	0.00010736	1136.4	4.1649e-06	4.2185e-06	1233	239.52	4.1363e-06	4.2232e-06	301.17	85.393	67.339	20.443	4.2542e-06	28.348	86.899	48.411	76.875	-8.249	85.299	102.529	-7.875	-0.519	200.295	184.090	-0.881	5.550	5.910	12.951	116.549	12.278	-8191	255	
32093.330	1	1	0	0	0.1576	0.048958	0.22143	0.15978	0.17615	0.15086	0.069972	0.091094	0.23035	0.11954	0.29178	0.063334	0.23624	0.21755	0.079486	0.18998	-2.8333	-2.6146	-2.8271	-3.2062	-2.4146	-3.2542	-3.0521	-2.4333	-3.3583	-2.6958	-2.9896	-3.2542	-2.4333	-3.2875	-2.8854	-2.5	-1.610	316.850	215.367	-15.041	12.265	57.353	255.026	20.178	259.656	207.083	250.706	230.676	196.949	-4.764	54.884	192.964	0.00017	0.0004879	8.1601e-05	1150.4	1.0251e-06	3.6809e-06	1254.1	240.93	2.9306e-06	7.5466e-06	303.36	84.147	66.503	20.14	1.5191e-06	27.671	0.00037505	0.00039962	0.00010861	1134.6	4.3153e-06	4.2663e-06	1234.9	239.2	4.215e-06	4.3695e-06	301.49	85.157	67.244	20.476	4.374e-06	28.309	67.093	114.445	120.433	-8.158	111.265	187.215	-8.212	-0.701	162.150	160.267	-1.202	5.473	5.963	12.658	-4.454	12.193	-8191	255	
32093.402	1	1	0	0	0.21937	0.045138	0.16101	0.15097	0.15529	0.11788	0.28445	0.15463	0.051729	0.14643	0.11328	0.10906	0.16917	0.22871	0.15865	0.2078	-3.0333	-2.6146	-2.7229	-3.6188	-2.5771	-3.0542	-3.1667	-2.5583	-3.2062	-2.7146	-2.7562	-3.4313	-2.5521	-3.1667	-3.0667	-2.6521	309.592	14.983	153.303	272.503	259.112	324.741	242.251	32.700	-6.056	199.787	125.966	136.354	199.690	19.179	154.113	289.033	0.0002288	0.00026898	2.9849e-05	1150.5	3.6506e-06	5.9375e-06	1246.1	239.99	1.504e-06	7.6358e-06	303.92	83.908	66.592	20.036	1.7178e-06	27.602	0.00039819	0.00041598	0.00011419	1133.2	4.5574e-06	4.4433e-06	1230.1	239.14	4.5579e-06	4.6453e-06	301.05	84.895	67.209	20.422	4.6637e-06	28.271	111.337	-16.178	263.999	-8.417	143.509	164.214	-8.239	-0.911	152.589	112.459	-1.090	5.517	5.896	13.307	180.392	12.244	-8191	255	
32093.498	1	1	0	0	0.061342	0.081179	0.084458	0.12641	0.1997	0.34679	0.26329	0.19174	0.13631	0.16297	0.19457	0.055185	0.32513	0.13181	0.12303	0.22538	-2.8146	-2.6813	-2.5729	-3.3792	-2.5417	-2.8917	-3.3896	-2.3833	-3.2854	-2.875	-2.8708	-3.5396	-2.7958	-3.2375	-3.1708	-2.6417	-8.140	49.740	265.323	155.797	183.925	236.422	261.743	281.725	184.648	254.899	13.620	182.078	323.991	331.713	7.143	305.384	0.00024618	0.00035408	0.00017312	1147.5	3.8466e-06	2.1323e-06	1242.9	240.28	1.9226e-06	5.9943e-06	301.75	84.021	66.854	19.867	3.8884e-06	27.782	0.00041235	0.00043974	0.00012209	1131.1	4.7122e-06	4.6555e-06	1226.7	238.86	4.565e-06	4.5797e-06	299.88	84.982	67.247	20.319	4.4673e-06	28.218	94.505	54.222	168.634	-8.454	142.488	144.830	-7.857	-0.645	243.243	137.160	-1.030	5.665	6.113	12.709	86.707	12.622	-8191	255	
32093.617	1	1	0	0	0.21595	0.078471	0.059436	0.17534	0.10171	0.12368	0.21976	0.14969	0.055867	0.23845	0.077779	0.098381	0.25982	0.16341	0.13044	0.15791	-2.6667	-2.5521	-2.5042	-3.3167	-2.7229	-2.7333	-3.3063	-2.5292	-3.1312	-2.9625	-2.4792	-3.3646	-2.7833	-2.9708	-3.2917	-2.5271	249.323	109.451	250.386	264.287	279.077	169.348	259.681	23.911	312.307	31.840	282.420	14.219	17.020	176.132	289.825	89.401	0.00010738	0.00028578	3.503e-05	1146.9	3.2347e-06	5.2572e-06	1245.4	239.4	2.0851e-06	3.0433e-06	301.52	84.227	65.938	19.881	5.061e-06	27.418	0.00039059	0.00041316	0.00011384	1129.3	4.451e-06	4.4303e-06	1226.6	238.64	4.316e-06	4.3369e-06	299.82	84.751	66.763	20.286	4.1767e-06	28.125	95.747	205.430	151.383	-8.447	148.698	185.567	-7.982	-0.735	125.380	143.739	-0.954	5.506	5.938	13.048	94.272	12.120	-8191	255	
32093.715	1	1	0	0	0.11443	0.15197	0.016232	0.15383	0.18924	0.20878	0.28144	0.13061	0.079562	0.075546	0.31849	0.17706	0.090606	0.2102	0.090668	0.20784	-2.6917	-3.0583	-2.475	-3.3187	-2.8167	-2.7583	-3.4417	-2.5375	-3.1146	-2.9208	-2.55	-3.3104	-2.8792	-2.4813	-3.3583	-2.5479	273.607	104.782	44.479	-17.095	73.792	328.198	284.129	-5.520	209.590	251.785	0.215	333.364	127.242	-3.935	6.038	271.975	0.00021403	0.00049782	0.00010358	1141.2	3.8187e-07	2.103e-06	1246	238.83	2.6617e-06	4.2909e-06	299.87	83.616	66.538	19.89	1.3732e-06	27.499	0.00038413	0.00038198	0.00010841	1126	4.3061e-06	4.2652e-06	1223.9	238.05	4.2453e-06	4.2957e-06	299.19	84.495	66.796	20.252	4.277e-06	28.102	123.609	68.139	57.297	-8.434	-10.788	103.945	-8.135	-0.863	142.993	127.485	-1.197	5.656	5.701	13.223	201.757	11.865	-8191	255	
32093.811	1	1	0	0	0.044899	0.19978	0.05912	0.24836	0.1838	0.2085	0.27591	0.20967	0.051934	0.14244	0.3188	0.28017	0.031217	0.15506	0.23225	0.2129	-2.3792	-3.0583	-2.5687	-3.3812	-2.7083	-2.7104	-3.6146	-2.6292	-2.8271	-3.2729	-2.6479	-3.3688	-2.9375	-2.5896	-3.5312	-2.7667	215.206	288.423	112.174	-14.821	249.194	301.706	286.273	322.107	108.297	268.724	276.286	334.824	39.370	319.961	289.316	269.094	0.00017917	0.00032785	0.00010795	1149.5	3.3526e-06	3.2365e-06	1238.2	238.16	1.1755e-06	1.6575e-06	301.3	83.507	66.339	20.012	1.7956e-06	27.586	0.00037731	0.00039846	0.00010874	1124.1	4.3165e-06	4.2273e-06	1220.6	237.21	4.3296e-06	4.2773e-06	298.92	84.743	66.765	20.317	4.317e-06	28.093	105.263	26.196	91.536	-8.264	89.241	235.722	-7.982	-0.791	279.063	167.484	-1.255	6.070	5.924	13.252	92.349	12.382	-8191	255	
32093.906	1	1	0	0	0.17082	0.25188	0.13042	0.019144	0.042331	0.098046	0.18761	0.15651	0.13116	0.10293	0.15029	0.23045	0.13963	0.10883	0.12552	0.22592	-2.4875	-3.2646	-2.6396	-3.3958	-3.0229	-2.5667	-3.5	-2.7792	-3.0104	-3.4229	-2.5625	-3.275	-3.0792	-2.6271	-3.3354	-2.8167	286.968	220.844	326.325	322.967	283.549	230.655	267.254	281.202	335.239	11.106	328.306	-0.040	38.578	238.463	228.868	194.752	0.00024602	0.00021699	0.00010808	1136.7	3.9846e-06	4.358e-06	1242.2	240.43	2.647e-06	3.9147e-06	300.7	84.437	66.338	19.836	3.8531e-06	27.483	0.00037622	0.00038897	0.00010779	1122	4.4005e-06	4.244e-06	1221.3	237.91	4.333e-06	4.2837e-06	298.01	84.496	66.843	20.23	4.2042e-06	28.105	100.995	330.859	79.731	-8.411	59.249	86.414	-8.096	-0.790	127.021	206.444	-1.311	5.646	5.744	12.794	117.305	12.622	-8191	255	
32094.004	1	1	0	0	0.30594	0.24749	0.056148	0.26552	0.058741	0.11836	0.19845	0.21489	0.085739	0.13416	0.040052	0.26444	0.096536	0.05895	0.18524	0.26834	-2.2229	-3.2687	-2.575	-3.2146	-3.2083	-2.5396	-3.3833	-2.8417	-2.7188	-3.3042	-2.6437	-3.0979	-3.1542	-2.4417	-3.4083	-2.7875	237.562	319.114	208.375	-10.260	180.741	132.905	260.407	18.453	107.290	284.931	48.664	1.580	164.705	-1.847	227.089	246.146	0.00018153	0.00050386	0.00014627	1140.4	2.4246e-06	2.4778e-06	1235.8	239.08	9.8533e-07	6.0843e-06	299.1	83.72	65.923	19.852	2.3579e-06	27.249	0.00037443	0.0003864	0.00010762	1122.1	4.2423e-06	4.1278e-06	1219.2	237.68	4.1965e-06	4.1483e-06	298.08	84.424	66.517	20.24	4.2091e-06	27.918	127.330	135.037	66.811	-8.362	164.215	143.410	-8.040	-0.880	78.703	185.846	-1.048	5.678	5.966	13.194	12.839	12.301	-8191	255	
32094.100	1	1	0	0	0.093332	0.23542	0.21237	0.14553	0.17647	0.16731	0.084885	0.19346	0.31082	0.087441	0.2166	0.066869	0.14842	0.18396	0.13298	0.2997	-2.1958	-3.3125	-2.5375	-3.0979	-3.2125	-2.4437	-3.4229	-3.0917	-2.6021	-3.2812	-2.8083	-2.7313	-3.1521	-2.6479	-3.1437	-2.9313	262.382	8.483	67.207	21.362	-12.658	33.557	184.312	-15.897	211.876	130.204	244.435	223.942	4.534	328.171	161.973	317.245	0.00018043	0.00046557	0.00017963	1136.3	2.4483e-06	3.6046e-06	1234	237.66	4.703e-06	4.3645e-06	299.9	84.085	65.515	19.749	6.2525e-06	27.426	0.00037863	0.00038103	0.00010672	1120.9	4.1808e-06	4.1852e-06	1219.1	237.29	4.1023e-06	4.1073e-06	297.79	84.388	66.483	20.149	4.1925e-06	28.012	101.934	67.282	109.812	-8.067	67.202	67.135	-8.206	-0.802	114.006	112.541	-0.701	6.061	5.939	13.244	173.525	12.395	-8191	255	
32094.219	1	1	0	0	0.24387	0.18025	0.2397	0.24953	0.24071	0.17063	0.24944	0.34758	0.057573	0.15886	0.088166	0.25176	0.18236	0.098629	0.17978	0.2125	-2.0979	-3.2542	-2.6417	-2.7854	-3.275	-2.5167	-3.2208	-3.2562	-2.5271	-3.3688	-2.8208	-2.6708	-3.4542	-2.7938	-3.1021	-3.1271	187.980	145.350	-5.288	308.884	-10.481	269.295	284.350	325.896	133.066	308.355	316.763	185.752	105.958	136.708	-18.134	280.181	0.00013383	0.00029974	0.00011418	1145.9	2.652e-06	5.7827e-06	1233.2	238.17	1.2276e-06	3.7971e-06	301.14	83.181	65.95	19.843	1.2511e-06	27.357	0.00038577	0.000386	0.00010861	1122.8	4.201e-06	4.2883e-06	1217.9	237.31	4.2423e-06	4.2286e-06	298.14	84.208	66.549	20.167	4.1291e-06	28.053	108.603	72.485	93.118	-8.282	295.052	128.600	-7.871	-0.690	82.683	171.751	-1.073	5.752	6.185	13.073	183.493	12.141	-8191	255	
32094.316	1	1	0	0	0.26963	0.11782	0.039478	0.24696	0.18995	0.061348	0.13373	0.34242	0.21358	0.25198	0.17821	0.38044	0.14508	0.083358	0.35071	0.26335	-2.1771	-3.2708	-2.625	-2.8688	-3.125	-2.5312	-3.2313	-3.1667	-2.4854	-3.1417	-3.0083	-2.6854	-3.2083	-2.5667	-2.8833	-3.2229	339.467	230.943	224.702	301.879	8.060	99.855	307.153	309.434	43.293	28.479	317.574	327.432	0.366	217.124	245.907	242.176	0.00022947	0.00017753	0.00011266	1138.9	4.9128e-06	4.825e-06	1240.9	237.38	3.2287e-06	1.8554e-06	299.64	82.536	65.612	19.73	5.006e-06	27.368	0.00036404	0.00038428	0.00010589	1120.4	4.1771e-06	4.1793e-06	1220.2	237.02	4.1709e-06	4.1535e-06	297.17	83.921	66.477	20.122	4.2459e-06	28.002	87.833	33.710	72.280	-8.351	173.598	144.984	-8.030	-0.844	115.251	206.178	-1.294	5.945	5.699	12.817	137.834	12.212	-8191	255	
32094.410	1	1	0	0	0.21513	0.03943	0.19076	0.17401	0.088296	0.21327	0.24545	0.114	0.041657	0.10971	0.1404	0.14301	0.24796	0.13822	0.1147	0.18625	-2.3	-3.1396	-2.7125	-2.7	-3.4188	-2.6646	-2.9813	-3.1937	-2.5479	-3.1021	-3.15	-2.6958	-3.3146	-2.6646	-2.8375	-3.15	123.853	149.496	34.724	307.843	142.734	175.178	286.658	300.862	-10.701	78.239	241.496	264.187	3.652	45.107	150.931	161.287	0.00019643	0.00025951	0.00022313	1137.5	2.0173e-06	3.2206e-06	1237.1	237.8	2.7448e-06	4.8663e-06	297.4	83.164	66.042	19.571	6.5415e-06	27.45	0.00037178	0.00037843	0.00010707	1120.4	4.1965e-06	4.1479e-06	1218.3	236.81	4.1571e-06	4.0999e-06	296.69	84.121	66.526	20.049	4.1085e-06	27.978	85.261	138.767	56.232	-8.194	17.916	168.525	-8.143	-0.900	144.444	123.669	-1.314	5.475	5.922	12.691	176.821	12.160	-8191	255	
32094.508	1	1	0	0	0.072088	0.091617	0.15806	0.25842	0.17506	0.16546	0.14157	0.15571	0.17547	0.24084	0.16799	0.1184	0.37315	0.11942	0.066957	0.22418	-2.2625	-3.0271	-3.0229	-2.7479	-3.4	-2.6167	-2.8667	-3.3083	-2.5167	-3.0708	-3.1917	-2.6208	-3.2958	-2.8396	-2.8167	-3.3125	194.028	275.723	190.272	11.088	173.117	37.381	225.500	-9.099	247.017	312.113	220.113	266.375	83.926	27.848	159.197	246.465	0.0001919	0.00052364	0.00011262	1140.7	6.9895e-06	5.1031e-06	1233.2	238.49	8.8201e-07	4.4532e-06	299.53	83.591	65.599	19.905	5.9868e-06	27.33	0.00036711	0.00038089	0.00010557	1119.2	4.0133e-06	4.1433e-06	1215.6	237.28	4.0678e-06	4.0407e-06	297.25	84.42	66.354	20.193	4.056e-06	28.05	97.454	114.864	88.124	-8.403	207.061	158.120	-8.187	-0.893	107.377	162.781	-1.546	5.198	6.184	12.763	161.451	11.905	-8191	255	
32094.602	1	1	0	0	0.03917	0.22666	0.1969	0.33166	0.091472	0.2759	0.090915	0.17386	0.23073	0.087738	0.2273	0.082837	0.23128	0.19882	0.11288	0.22154	-2.2083	-2.7812	-3.3	-2.6917	-3.2	-2.9521	-2.8688	-3.4583	-2.6063	-2.9417	-3.2167	-2.5187	-3.2583	-2.9271	-2.6292	-3.3583	208.310	52.492	266.327	331.316	121.159	75.462	334.819	-4.922	142.421	210.159	24.887	228.497	133.485	290.560	166.275	209.059	0.00016573	0.00037746	0.00012879	1137.8	1.4524e-06	6.6693e-06	1233.3	238.55	2.2019e-06	7.7622e-06	299.32	83.39	65.715	19.893	7.7032e-07	27.519	0.0003597	0.00037984	0.00010228	1118.8	4.0952e-06	4.0797e-06	1214.8	237.47	4.1447e-06	4.0193e-06	297.83	84.256	66.335	20.195	4.0973e-06	27.995	121.561	128.168	55.147	-8.455	289.756	110.892	-8.362	-1.307	204.086	124.019	-1.208	5.115	5.957	12.605	87.156	12.340	-8191	255	
32094.697	1	1	0	0	0.07114	0.12088	0.2231	0.34662	0.082771	0.092337	0.31551	0.074801	0.1441	0.19029	0.29094	0.2052	0.045964	0.078803	0.20024	0.11501	-2.0792	-2.7875	-3.1896	-2.6375	-3.1396	-3.1354	-2.7812	-3.6271	-2.8438	-2.8083	-3.3396	-2.5854	-3.0062	-3.0417	-2.7	-3.45	115.597	116.178	68.847	-12.355	-1.132	340.677	332.489	284.918	85.253	2.523	242.497	-14.888	30.089	0.619	145.979	261.953	8.506e-05	0.00074518	0.00014184	1132.9	1.5121e-06	4.7924e-06	1234.9	238.09	1.5225e-06	4.3416e-06	298.15	83.21	65.886	19.79	6.5865e-06	27.455	0.00036427	0.00037413	0.00010274	1118.1	4.1115e-06	4.0225e-06	1215.6	237.09	4.0944e-06	4.0428e-06	297.19	84.121	66.438	20.082	4.1102e-06	27.957	100.946	105.376	92.649	-8.508	142.804	120.855	-8.187	-0.701	67.177	146.769	-1.601	5.375	5.630	12.339	136.364	11.675	-8191	255	
32094.795	1	1	0	0	0.089085	0.32712	0.058337	0.37911	0.20983	0.11223	0.26762	0.15871	0.084301	0.19116	0.13157	0.14295	0.11342	0.17835	0.16682	0.13549	-2.2188	-2.7938	-3.3438	-2.6271	-3.0792	-3.05	-2.6188	-3.4417	-2.85	-2.7208	-3.4042	-2.5854	-3.0021	-3.0708	-2.3458	-3.2208	222.293	7.413	78.908	262.020	257.945	311.725	235.119	268.093	230.652	197.653	266.107	304.297	90.951	0.135	241.380	136.771	0.00016551	0.00048472	6.7434e-05	1138.7	2.2045e-06	4.7792e-06	1231.1	237.5	1.2845e-06	3.0734e-06	299.86	83.78	65.417	19.704	1.1454e-06	27.239	0.0003627	0.00036502	0.00010166	1118.7	3.9763e-06	4.0074e-06	1214.1	236.93	4.0241e-06	3.9471e-06	296.7	83.983	66.168	20.103	3.9407e-06	27.872	116.812	11.450	105.223	-8.755	184.806	98.174	-8.319	-1.052	243.149	171.239	-1.288	5.207	5.333	12.727	-2.806	11.920	-8191	255	
32094.914	1	1	0	0	0.082112	0.1676	0.25258	0.24028	0.090699	0.056565	0.22608	0.24152	0.038223	0.16271	0.33332	0.11954	0.16302	0.24112	0.36478	0.22248	-2.4667	-2.6292	-3.1937	-2.7062	-2.9333	-3.1146	-2.7667	-3.3396	-2.9542	-2.6646	-3.5104	-2.6229	-2.95	-3.225	-2.4625	-3.0771	198.596	333.800	270.836	238.764	66.911	160.187	311.286	309.990	135.688	-1.548	288.533	282.847	-7.049	-10.608	92.806	294.786	0.00025368	9.6581e-05	1.5224e-05	1135	5.9108e-06	2.5938e-06	1235.4	238.59	2.8382e-06	1.9836e-06	298.04	82.922	65.79	19.747	4.1975e-06	27.464	0.00035162	0.00036242	0.00010064	1116.1	3.9473e-06	4.0095e-06	1213.6	237.26	4.0811e-06	4.0442e-06	296.86	83.893	66.265	20.103	4.1966e-06	27.895	103.225	58.507	43.710	-8.599	128.590	179.174	-8.603	-0.881	104.621	100.562	-1.367	5.366	5.709	12.548	39.765	12.377	-8191	255	
32095.012	1	1	0	0	0.085493	0.23958	0.013043	0.22727	0.065071	0.10664	0.36261	0.1477	0.14195	0.26665	0.21584	0.25601	0.21519	0.10954	0.26152	0.14475	-2.5667	-2.6	-3.3187	-2.7521	-2.7938	-3.2	-2.7021	-3.1708	-3.025	-2.6292	-3.3167	-2.7979	-2.8646	-3.2812	-2.6708	-3.0917	228.719	285.008	18.011	282.474	222.996	123.060	332.299	259.416	171.810	-10.037	300.842	306.337	323.534	89.173	215.590	299.238	0.0001852	0.0004362	0.00010127	1136.9	3.8114e-06	3.18e-06	1231.6	238	3.4379e-06	2.1954e-06	298.37	82.363	65.764	19.635	7.1777e-06	27.165	0.00036551	0.00038361	0.00010806	1117.3	4.4187e-06	4.3302e-06	1215.3	236.97	4.3425e-06	4.4104e-06	296.76	83.947	66.431	20.11	4.4209e-06	27.687	93.185	75.968	64.546	-8.597	128.856	115.997	-8.326	-1.104	134.512	177.220	-0.940	5.560	5.559	12.593	142.415	11.716	-8191	255	
32095.107	1	1	0	0	0.2144	0.12046	0.20197	0.27011	0.21292	0.17574	0.42379	0.29521	0.24653	0.2874	0.23015	0.16744	0.1785	0.18034	0.077128	0.065378	-2.7646	-2.4708	-3.3667	-2.8729	-2.6604	-3.4042	-2.8	-2.9271	-3.0583	-2.5604	-3.3521	-2.8396	-2.6479	-3.1708	-2.4562	-2.9562	140.816	246.252	-5.051	21.637	299.754	5.434	310.083	266.678	53.026	239.196	134.895	178.861	272.336	196.379	137.470	303.528	0.00011957	0.00034251	5.7479e-05	1135.8	2.4118e-06	4.5118e-06	1232.5	238.19	2.1587e-06	1.4851e-06	297.97	83.174	66.41	19.404	5.0782e-06	27.085	0.00038562	0.00039534	0.00010915	1118.3	4.2935e-06	4.1783e-06	1213	236.84	4.2254e-06	4.1546e-06	296.33	83.736	66.289	19.811	4.007e-06	27.505	86.541	94.716	35.276	-8.481	163.229	104.587	-8.041	-1.042	149.078	248.498	-1.354	5.016	5.448	12.404	112.097	12.167	-8191	255	
32095.203	1	1	0	0	0.17951	0.035536	0.17053	0.030861	0.093996	0.10266	0.19677	0.18986	0.081551	0.30371	0.2609	0.092391	0.22709	0.17035	0.2265	0.32092	-2.6063	-2.3104	-3.1958	-3.0625	-2.575	-3.2521	-2.7104	-3.05	-3.1229	-2.5062	-3.1292	-3.1146	-2.7271	-3.2771	-2.7396	-2.8854	19.564	166.201	199.583	315.341	105.924	94.625	232.249	273.268	36.657	261.263	337.654	243.976	202.539	153.079	253.583	309.433	0.00022981	0.0003396	5.7401e-05	1131.5	2.5333e-06	6.4226e-06	1228.9	237.33	1.5523e-06	4.7523e-06	297.81	82.8	65.289	19.49	3.2725e-06	26.983	0.00035266	0.0003591	9.9515e-05	1114.1	3.8936e-06	3.8402e-06	1210.9	235.78	3.8926e-06	3.9416e-06	295.63	83.667	65.959	19.775	3.8816e-06	27.399	94.256	73.251	129.432	-8.362	83.885	121.001	-8.136	-0.870	80.079	129.028	-1.244	5.396	5.939	12.893	146.845	12.458	-8191	255	
32095.301	1	1	0	0	0.1619	0.050336	0.16117	0.34357	0.093157	0.078898	0.18385	0.12045	0.26658	0.18061	0.093543	0.1936	0.12335	0.14311	0.11128	0.20633	-2.7979	-2.5771	-3.1854	-3.125	-2.4104	-3.3063	-3.0292	-2.7396	-3.4521	-2.7167	-3.0417	-3.0896	-2.6708	-3.3083	-2.6271	-2.575	32.307	236.448	93.258	35.358	91.847	194.440	227.831	297.559	67.882	307.344	222.291	-14.650	26.884	286.383	276.919	289.666	0.00017263	0.00075344	8.9807e-05	1135.8	1.0396e-06	4.036e-06	1227.7	236.9	1.462e-06	4.5845e-06	295.37	82.49	65.976	19.164	3.1825e-06	26.93	0.00034526	0.00035543	9.8584e-05	1113.1	3.961e-06	3.9268e-06	1209.9	236.08	3.8276e-06	3.8995e-06	295.31	83.516	66.115	19.618	3.886e-06	27.414	93.482	89.204	110.380	-8.385	139.669	102.801	-8.272	-1.057	80.061	132.415	-1.153	5.552	5.897	12.884	182.494	12.755	-8191	255	
32095.396	1	1	0	0	0.10492	0.093603	0.033005	0.20943	0.16644	0.11624	0.17854	0.036957	0.22414	0.1815	0.34364	0.21051	0.059396	0.2905	0.13078	0.15243	-2.9542	-2.4125	-2.9917	-3.2479	-2.7271	-3.0687	-2.9667	-2.7083	-3.1188	-2.5208	-3.0083	-3.2125	-2.6375	-3.2521	-2.8812	-2.5083	62.780	-9.521	218.718	322.470	118.030	163.918	280.932	262.952	286.160	77.213	325.574	323.758	176.631	334.787	76.648	234.741	0.00018876	0.00050163	4.2972e-05	1135.3	1.5169e-06	5.2776e-06	1226.2	237.32	3.7312e-06	3.8231e-06	297.09	82.303	65.212	19.291	2.4542e-06	26.901	0.0003414	0.00034927	9.7596e-05	1112.4	3.8155e-06	3.6939e-06	1206.2	236.29	3.7762e-06	3.7872e-06	294.07	83.182	65.691	19.571	3.6575e-06	27.229	89.448	60.122	23.531	-8.449	19.943	135.483	-8.170	-0.956	119.790	218.384	-1.066	5.620	5.893	13.301	136.758	12.156	-8191	255	
32095.490	1	1	0	0	0.11193	0.077655	0.14353	0.20323	0.065068	0.19101	0.11752	0.026312	0.13604	0.074919	0.1977	0.1807	0.071743	0.064591	0.19647	0.21261	-2.8979	-2.6229	-2.8583	-3.3833	-2.4	-3.1063	-3.3333	-2.6604	-3.3958	-2.6625	-2.7875	-3.2292	-2.5625	-3.2917	-2.8375	-2.4479	96.579	182.828	247.055	303.228	311.920	232.314	280.201	135.271	269.152	121.363	48.449	0.980	165.081	311.359	136.430	309.937	0.00018666	0.00079539	5.2144e-06	1127.9	2.7753e-06	2.8747e-06	1222.2	237.91	1.2886e-06	4.5371e-06	296.33	82.46	65.301	19.234	8.8817e-06	26.647	0.00032665	0.00033721	9.4566e-05	1109.3	3.7468e-06	3.696e-06	1204.9	235.74	3.6936e-06	3.8432e-06	294.33	83.249	65.659	19.536	3.7484e-06	27.181	128.725	68.911	176.748	-8.382	133.403	220.130	-8.273	-1.025	216.118	160.359	-1.175	5.800	6.037	12.599	108.902	12.446	-8191	255	
32095.588	1	1	0	0	0.1454	0.17647	0.20557	0.2676	0.18814	0.15703	0.19768	0.27254	0.25936	0.28703	0.24935	0.43532	0.13541	0.064383	0.1733	0.22184	-2.8542	-2.8771	-2.7833	-3.3833	-2.5604	-3.2271	-3.3958	-2.55	-3.3083	-2.8563	-2.8083	-3.3833	-2.4708	-3.0542	-3.2854	-2.525	49.190	-0.043	219.880	14.379	112.809	243.140	260.950	24.553	-4.797	148.662	259.591	240.096	202.095	211.896	111.811	60.536	0.00022606	0.00028086	0.00010706	1130.9	2.6324e-06	3.3698e-06	1224.3	236.82	4.1777e-07	1.1575e-06	295.87	82.299	65.433	19.163	2.4617e-06	26.643	0.00033138	0.000346	9.2986e-05	1110.6	3.768e-06	3.656e-06	1207.1	235.5	3.5987e-06	3.7153e-06	294.45	83.038	65.607	19.597	3.6272e-06	27.147	90.044	121.613	40.785	-8.071	93.628	201.869	-8.358	-0.792	286.631	227.249	-0.598	5.377	5.873	13.359	210.183	12.305	-8191	255	
32095.707	1	1	0	0	0.0398	0.14375	0.33062	0.14189	0.10634	0.19987	0.25981	0.13233	0.035076	0.17397	0.20194	0.12563	0.25973	0.21847	0.10826	0.33213	-2.9917	-2.8583	-2.5438	-3.5375	-2.5958	-2.9375	-3.4917	-2.5417	-3.1167	-3.0104	-2.775	-3.2687	-2.625	-2.9333	-3.2708	-2.6604	151.265	305.986	250.183	333.252	119.948	319.785	298.412	296.582	321.477	311.497	278.228	235.706	241.720	35.001	273.917	21.662	0.00015422	0.00015933	0.00012858	1134	3.2145e-06	3.0451e-06	1222.4	235.61	1.167e-06	2.2555e-06	296.79	82.143	65.17	19.33	4.2349e-06	26.81	0.00032626	0.00033655	9.3063e-05	1110.2	3.7477e-06	3.647e-06	1204	234.69	3.6741e-06	3.6527e-06	294.65	82.985	65.587	19.559	3.607e-06	27.19	110.937	19.750	27.439	-8.370	119.861	132.234	-8.280	-0.797	124.926	179.899	-1.102	5.730	5.870	13.100	82.928	11.896	-8191	255	
32095.803	1	1	0	0	0.12493	0.13692	0.19895	0.1656	0.13412	0.20349	0.1116	0.17374	0.15421	0.18929	0.10673	0.19802	0.16403	0.169	0.10759	0.25159	-2.7396	-3.0375	-2.6208	-3.4229	-2.8417	-2.8729	-3.5187	-2.6021	-3.1646	-2.8979	-2.7	-3.3146	-2.825	-2.9833	-3.4104	-2.5604	226.521	296.987	181.858	135.432	109.895	38.606	256.899	296.655	189.488	53.857	268.418	305.724	279.598	312.747	-1.420	239.916	0.00016956	0.00052436	7.3003e-05	1132.2	3.4587e-06	3.5611e-06	1223.9	235.69	2.8884e-06	4.6292e-06	294.42	82.323	65.829	19.215	4.1499e-06	26.772	0.00032472	0.00032702	9.2909e-05	1110.3	3.7468e-06	3.7357e-06	1204.5	234.47	3.7588e-06	3.6207e-06	293.55	83.211	65.768	19.486	3.6691e-06	27.161	100.716	76.215	239.021	-8.394	200.840	127.584	-8.229	-0.741	147.959	138.544	-0.720	5.616	5.972	13.093	106.567	12.333	-8191	255	
32095.898	1	1	0	0	0.21282	0.10425	0.20608	0.23262	0.24375	0.15887	0.30639	0.15152	0.085748	0.12766	0.022389	0.48609	0.21513	0.23206	0.12198	0.025904	-2.5917	-3.0479	-2.4021	-3.3604	-2.6208	-2.55	-3.5125	-2.6042	-2.9333	-3.2083	-2.5792	-3.3896	-2.7438	-2.5875	-3.1875	-2.7125	230.895	335.071	84.807	264.307	119.800	74.145	-2.617	227.562	221.622	165.137	48.660	300.975	236.413	215.091	26.605	242.342	0.00014788	0.00019431	0.00021882	1130.4	1.7755e-06	5.0332e-06	1219.4	237.38	1.4738e-06	3.7128e-06	295.05	82.674	65.203	19.269	1.3278e-06	26.608	0.00032558	0.00032804	9.1144e-05	1109.1	3.663e-06	3.5547e-06	1203.7	235.2	3.667e-06	3.5929e-06	293.5	83.151	65.66	19.502	3.6009e-06	27.139	95.780	-6.442	59.890	-8.138	202.043	163.565	-7.988	-0.768	115.229	133.706	-0.822	6.070	5.657	13.215	112.064	12.241	-8191	255	
32095.996	1	1	0	0	0.19386	0.29488	0.11662	0.12814	0.25258	0.13731	0.11334	0.3843	0.08381	0.077012	0.13825	0.16942	0.15316	0.27614	0.22047	0.35812	-2.5208	-3.2	-2.4917	-3.5146	-2.9604	-2.6937	-3.5375	-2.8125	-2.8438	-3.2438	-2.7521	-3.1396	-3	-2.7562	-3.2812	-2.7979	69.415	200.173	39.602	293.412	336.808	53.789	-6.871	294.400	25.407	70.476	238.152	236.438	180.790	316.228	275.974	191.489	0.00019619	0.00038186	0.00015305	1124.3	4.0494e-06	3.9323e-06	1226.1	236.49	2.6816e-06	2.573e-06	295.6	82.993	65.459	19.175	3.0171e-06	26.515	0.00032497	0.00033571	9.3352e-05	1107.6	3.6286e-06	3.5972e-06	1207.3	234.75	3.6021e-06	3.5825e-06	293.46	83.121	65.604	19.431	3.4438e-06	27.097	87.739	53.790	108.626	-7.947	134.231	111.421	-7.708	-0.597	190.153	118.714	-1.208	5.877	5.989	13.650	147.715	12.830	-8191	255	
32096.092	1	1	0	0	0.060394	0.090529	0.20953	0.26907	0.23156	0.27758	0.1669	0.12111	0.13267	0.045522	0.039026	0.050607	0.17673	0.24262	0.15365	0.081515	-2.3937	-3.2375	-2.4792	-3.2229	-2.9396	-2.5438	-3.5375	-2.9	-2.8354	-3.2292	-2.6854	-3.2062	-3.1708	-2.6375	-3.3521	-2.9333	244.291	277.756	250.559	304.214	22.643	48.769	261.635	322.005	77.201	271.431	238.278	172.327	144.208	183.590	65.537	252.792	0.00016348	0.00032285	0.00010114	1128.5	1.7766e-06	3.6185e-06	1219.4	235.18	3.15e-06	1.7547e-06	293.4	82.735	65.522	19.143	2.4737e-06	26.648	0.00032013	0.00031589	9.1565e-05	1106.8	3.5759e-06	3.5531e-06	1203.1	234.09	3.5562e-06	3.5464e-06	292.33	83.061	65.622	19.434	3.5737e-06	27.172	107.657	107.316	82.622	-8.289	131.614	188.105	-7.522	-0.693	209.646	218.248	-0.811	5.966	6.218	13.492	107.022	12.534	-8191	255	
32096.188	1	1	0	0	0.039482	0.17961	0.15498	0.17423	0.064514	0.31306	0.5678	0.24288	0.22467	0.0060227	0.037876	0.09682	0.11272	0.044316	0.10903	0.076364	-2.3417	-3.3521	-2.45	-3.2333	-3.1188	-2.4646	-3.3542	-3.0354	-2.4396	-3.4083	-2.7313	-2.7917	-3.1312	-2.4708	-3.2167	-3.0729	113.194	17.261	127.727	280.457	284.663	266.825	248.455	64.052	17.878	311.590	47.579	41.800	274.769	292.936	229.695	273.960	0.00017063	0.00065881	5.1352e-05	1129.4	3.6405e-06	2.144e-06	1224.1	236.37	1.5015e-06	2.1354e-06	296.28	82.181	65.242	19.08	3.8978e-06	26.598	0.00032495	0.00033731	9.3053e-05	1110.1	3.6379e-06	3.6242e-06	1204.8	234.55	3.6584e-06	3.5263e-06	292.91	82.923	65.397	19.364	3.4769e-06	27.059	104.418	84.840	110.231	-7.749	107.136	151.096	-7.626	-0.506	82.658	118.637	-0.917	6.421	6.091	13.172	101.984	12.669	-8191	255	
32096.309	1	1	0	0	0.16125	0.10776	0.12261	0.12534	0.18946	0.091039	0.30071	0.10416	0.24771	0.13348	0.071941	0.078844	0.19472	0.13955	0.13401	0.022296	-2.2417	-3.2542	-2.6458	-3.1542	-3.1667	-2.4854	-3.2875	-3.0708	-2.4625	-3.2521	-2.7646	-2.9188	-3.3458	-2.5292	-3.1229	-3.125	336.687	315.165	240.407	306.631	272.711	294.392	288.173	250.751	36.517	72.337	135.301	56.914	317.646	-18.313	86.975	138.643	0.00020623	0.00077287	7.8255e-05	1133.3	2.4034e-06	4.4338e-06	1225.8	237.06	8.0002e-07	6.1138e-06	295.71	82.233	65.186	19.059	3.1958e-06	26.798	0.00031651	0.00031422	8.8021e-05	1108.1	3.4966e-06	3.4628e-06	1205.5	234.69	3.5326e-06	3.4604e-06	292.51	82.84	65.468	19.418	3.6089e-06	27.126	105.925	52.417	72.037	-7.614	233.876	137.551	-7.803	-0.776	188.516	122.631	-0.622	6.183	6.585	13.592	140.117	12.795	-8191	255	
32096.402	1	1	0	0	0.20352	0.14924	0.21592	0.13465	0.29242	0.14116	0.35105	0.19184	0.19434	0.30304	0.20379	0.11131	0.27828	0.19699	0.077308	0.042463	-2.0208	-3.1833	-2.7062	-2.9375	-3.2354	-2.5833	-3.2521	-3.2188	-2.7167	-3.3708	-2.825	-2.7042	-3.3958	-2.4979	-3.1979	-3.3167	236.054	125.415	303.094	16.032	308.931	44.534	293.701	23.701	51.649	49.408	137.245	115.661	315.794	14.258	53.764	270.848	0.00021095	0.00053981	0.00012664	1128.1	1.4776e-06	2.4851e-06	1223.9	235.6	1.2982e-06	2.966e-06	295.77	82.362	65.023	19.118	2.8867e-06	26.837	0.00032969	0.00032856	9.4069e-05	1109.8	3.7042e-06	3.7281e-06	1204.2	234.79	3.8134e-06	3.644e-06	292.94	83.003	65.54	19.427	3.6709e-06	27.065	87.108	127.341	28.580	-7.786	183.384	69.744	-7.590	-0.275	127.823	178.329	-0.988	5.898	6.074	13.275	199.247	12.865	-8191	255	
32096.498	1	1	0	0	0.16885	0.13568	0.10585	0.18403	0.16395	0.15841	0.16466	0.085774	0.070059	0.15179	0.2175	0.24655	0.03527	0.12801	0.12113	0.1096	-2.0708	-3.2625	-2.9917	-2.7979	-3.3063	-2.6875	-3.1229	-3.3625	-2.6458	-3.3833	-3.1437	-2.6125	-3.2458	-2.7146	-2.8521	-3.2521	86.169	136.347	41.151	270.379	136.549	285.159	307.145	41.456	322.556	161.560	2.825	17.914	4.741	239.632	182.567	113.630	0.00018112	0.0002706	3.4118e-05	1129.2	4.5314e-06	4.9422e-06	1223.4	236.57	1.8623e-06	1.7532e-06	295.47	82.338	64.873	19.117	1.7723e-06	26.624	0.00032632	0.00033141	9.2194e-05	1108.3	3.6227e-06	3.7308e-06	1204.3	235.14	3.7389e-06	3.6653e-06	293.06	83.307	65.561	19.378	3.589e-06	27.086	121.654	63.323	98.693	-7.793	132.168	142.396	-7.715	-0.695	291.605	221.463	-0.862	6.007	5.906	13.035	182.082	12.651	-8191	255	
32096.596	1	1	0	0	0.14421	0.25921	0.32689	0.21797	0.30999	0.10514	0.22372	0.26839	0.12078	0.20295	0.16272	0.03354	0.13956	0.22453	0.099715	0.26438	-2.05	-3.0417	-2.9313	-2.5333	-3.2271	-2.7979	-3.1021	-3.3771	-2.5458	-3.1583	-3.0833	-2.5062	-3.2958	-2.7271	-2.8333	-3.3708	126.636	0.287	211.449	292.538	199.146	242.585	317.750	313.930	317.111	217.667	82.437	-4.396	280.597	260.289	147.250	329.888	9.4879e-05	0.00070956	2.2229e-05	1124.2	2.717e-06	4.4548e-06	1228.8	236.32	4.4487e-06	3.5631e-06	293.86	82.061	65.651	19.105	4.2728e-06	26.434	0.00031881	0.00033245	9.244e-05	1106.1	3.5964e-06	3.6823e-06	1205.1	234.85	3.6971e-06	3.5949e-06	291.89	82.783	65.693	19.4	3.5294e-06	26.916	122.024	26.465	126.680	-8.004	191.104	140.040	-7.475	-0.525	83.386	79.958	-1.151	6.180	6.653	13.261	140.808	13.027	-8191	255	
32096.691	1	1	0	0	0.081112	0.164	0.12569	0.24289	0.19117	0.04215	0.32701	0.15061	0.068821	0.14105	0.086406	0.082592	0.11242	0.29742	0.33141	0.15742	-2.2354	-3.0938	-3.0333	-2.7167	-3.3625	-2.8208	-2.7896	-3.5604	-2.5021	-2.9708	-3.0875	-2.5292	-3.2604	-2.8708	-2.6208	-3.3104	203.923	144.230	43.610	253.662	58.902	22.163	233.329	16.880	176.635	309.104	68.597	252.216	41.635	294.428	36.868	14.734	0.00010214	0.00012014	5.1176e-05	1126.7	5.2188e-06	5.8563e-06	1223.5	235.33	5.5386e-06	1.5705e-06	293.94	82.406	65.118	19.032	2.3139e-06	26.652	0.00032078	0.00032112	9.1516e-05	1106.3	3.4968e-06	3.6408e-06	1203.6	234.46	3.4847e-06	3.4052e-06	292.18	82.741	65.344	19.366	3.5006e-06	27.014	108.432	64.289	151.763	-7.585	105.388	148.653	-7.629	-0.071	119.048	268.193	-0.489	6.207	6.744	13.237	147.115	12.640	-8191	255	
32096.787	1	1	0	0	0.19271	0.082448	0.16177	0.17695	0.051881	0.083088	0.15962	0.28325	0.13079	0.0818	0.10766	0.29069	0.095484	0.0777	0.074333	0.045505	-2.3646	-2.9875	-3.1417	-2.4188	-3.2771	-3.1854	-2.7625	-3.3771	-2.7833	-2.8917	-3.275	-2.7083	-3.2521	-2.9333	-2.5979	-3.3167	195.029	3.480	335.165	335.809	201.495	329.782	169.993	322.664	25.737	248.430	-12.158	299.394	29.003	115.150	167.250	162.958	0.00014044	0.00021652	0.00011764	1129.8	2.4298e-06	6.031e-06	1220.5	236.04	3.6955e-06	2.4403e-06	293.64	81.802	64.571	19.033	3.6087e-06	26.568	0.00030172	0.00030283	8.4695e-05	1107.2	3.3917e-06	3.3572e-06	1200.7	234.25	3.3214e-06	3.3131e-06	291.3	82.7	65.17	19.334	3.3005e-06	26.93	105.029	29.275	69.139	-7.824	152.606	86.301	-7.812	-0.406	176.091	83.583	-0.731	6.719	6.405	13.423	82.006	13.370	-8191	255	
32096.885	1	1	0	0	0.22772	0.13371	0.23827	0.061453	0.085725	0.12197	0.26408	0.10321	0.026956	0.24037	0.24004	0.15124	0.29713	0.20399	0.11189	0.18997	-2.5083	-2.7396	-3.4375	-2.5687	-3.0958	-3.075	-2.5375	-3.4021	-2.7188	-2.5604	-3.2646	-2.5708	-3.0542	-3.1979	-2.5187	-3.2708	8.205	151.091	156.724	326.674	265.831	202.098	1.844	196.574	97.631	17.332	268.045	300.995	315.241	258.222	297.974	334.245	0.00018881	0.00079063	1.5057e-05	1124.1	3.5438e-06	2.0833e-06	1218.8	235.93	5.4849e-06	1.2864e-06	292.91	82.447	64.843	19.12	1.7023e-06	26.444	0.00029628	0.00030032	8.1817e-05	1101.9	3.3211e-06	3.2327e-06	1200.3	233.72	3.3694e-06	3.2804e-06	291.46	82.602	65.016	19.305	3.2228e-06	26.784	99.533	102.113	42.831	-7.794	146.081	6.839	-7.459	-0.348	126.455	206.256	-0.840	5.700	6.216	13.392	81.931	12.895	-8191	255	
32097.004	1	1	0	0	0.18442	0.070776	0.040364	0.32165	0.13699	0.26559	0.10932	0.055871	0.049851	0.11515	0.16626	0.081867	0.036208	0.23632	0.10991	0.17574	-2.3458	-2.6333	-3.4208	-2.6979	-2.9667	-3.2667	-2.6292	-3.3333	-2.7354	-2.65	-3.1146	-2.6729	-3.0896	-3.1083	-2.5417	-3.2854	295.113	247.863	147.723	285.321	27.620	168.435	260.679	166.629	249.417	-15.770	69.395	234.344	44.865	304.428	151.983	287.639	0.0001784	0.00041934	5.1344e-05	1120	1.2302e-06	2.1112e-06	1218.7	237.09	2.2023e-06	3.139e-06	292.4	81.806	64.418	19.023	4.92e-06	26.517	0.00030191	0.00030513	8.2772e-05	1100.9	3.3896e-06	3.2912e-06	1199.4	234.62	3.3881e-06	3.3052e-06	291.2	82.404	64.93	19.259	3.1955e-06	26.842	71.777	58.711	102.854	-8.070	131.741	36.030	-7.702	-0.142	32.836	150.312	-0.530	6.115	6.764	12.996	160.416	12.734	-8191	255	
32097.100	1	1	0	0	0.11168	0.13969	0.17729	0.062999	0.07642	0.17692	0.12048	0.095573	0.10271	0.11654	0.3992	0.12578	0.19278	0.1691	0.33918	0.20818	-2.5812	-2.4208	-3.2542	-2.7354	-2.8604	-3.1646	-2.6417	-3.3479	-2.8854	-2.4833	-3.2375	-2.6646	-2.825	-3.2792	-2.6354	-3.0062	171.833	81.520	121.688	86.987	178.614	156.709	224.889	94.783	66.668	141.477	297.849	91.429	64.331	192.264	173.180	-13.116	0.00020102	0.00077995	0.00010055	1121.5	2.3119e-06	6.3651e-06	1222.4	237.04	3.4679e-06	3.1489e-06	295.71	82.626	64.971	19.065	2.6628e-06	26.303	0.00028914	0.00029853	8.1221e-05	1101.7	3.2812e-06	3.2416e-06	1200.5	233.95	3.2295e-06	3.1863e-06	291.7	82.8	65.076	19.293	3.2297e-06	26.804	86.607	91.115	52.506	-8.378	120.057	135.791	-7.889	-0.816	128.088	127.760	-0.931	5.842	6.108	12.930	95.015	12.463	-8191	255	
32097.172	1	1	0	0	0.10684	0.17219	0.27956	0.0087571	0.16884	0.18345	0.11578	0.12282	0.11688	0.084775	0.19172	0.12144	0.19354	0.11794	0.13237	0.3057	-2.5417	-2.525	-3.1375	-2.85	-2.7021	-3.3229	-2.7188	-3.1521	-2.9729	-2.4667	-3.3417	-3.1271	-2.6958	-3.2979	-2.5604	-3.0938	249.510	-9.214	144.545	305.934	91.557	169.148	237.420	184.927	277.146	318.795	323.896	87.390	24.492	332.852	162.573	191.888	0.00014812	0.00037823	8.931e-05	1125.1	2.7957e-06	4.5102e-07	1216.2	235.01	1.4294e-06	5.9607e-06	295.56	81.813	64.536	18.805	3.5062e-06	26.322	0.00029073	0.00029798	8.3151e-05	1101.3	3.2982e-06	3.1453e-06	1197.1	233.94	3.2999e-06	3.3689e-06	291.81	82.585	64.94	19.211	3.4114e-06	26.902	96.251	74.063	60.985	-8.406	100.653	188.067	-8.258	-1.208	101.880	112.652	-1.102	5.416	6.002	12.708	111.493	12.435	-8191	255	
32097.268	1	1	0	0	0.22621	0.026451	0.14375	0.2079	0.1785	0.13363	0.24943	0.14417	0.22178	0.24095	0.050425	0.012633	0.12232	0.18515	0.085974	0.17594	-2.7042	-2.5167	-3.1208	-2.8563	-2.45	-3.3625	-2.8729	-2.9354	-3.1604	-2.3563	-3.325	-3.0458	-2.7708	-3.2	-2.7625	-2.7812	46.949	150.333	299.415	215.415	226.111	10.259	279.419	-11.123	283.506	222.413	301.784	322.553	39.711	244.836	118.963	264.575	0.00018223	0.0005069	9.5709e-05	1127.1	3.4386e-06	1.0464e-06	1215.1	235.28	2.4649e-06	5.7852e-06	293.49	82.034	64.868	19.05	3.0703e-06	26.46	0.00029873	0.00029865	8.3949e-05	1104.4	3.344e-06	3.1555e-06	1196.6	233.72	3.2898e-06	3.3191e-06	290.97	82.497	64.937	19.329	3.2903e-06	26.887	92.535	93.158	50.839	-8.498	80.798	132.605	-8.507	-0.984	130.590	133.177	-0.958	5.477	5.473	12.497	133.521	12.352	-8191	255	
32097.389	1	1	0	0	0.22496	0.14991	0.38615	0.11627	0.1738	0.14719	0.043492	0.19274	0.14196	0.27135	0.080327	0.17033	0.11378	0.32944	0.12789	0.065423	-2.6979	-2.6	-3.0083	-3.075	-2.6521	-3.3438	-2.8979	-2.9375	-3.2729	-2.6229	-3.2562	-3.2938	-2.6458	-3.2479	-2.6896	-2.8208	313.987	126.496	179.303	294.171	261.881	130.933	321.324	-9.828	288.242	312.098	294.004	39.874	76.249	4.907	86.612	-16.492	0.0001822	0.00053915	9.8974e-05	1120.9	4.0568e-06	5.3948e-06	1224.3	235.22	3.2751e-06	3.7206e-06	295.18	82.232	65.071	19.046	4.8708e-06	26.333	0.00030057	0.00030256	8.4277e-05	1100	3.3522e-06	3.313e-06	1199.6	233.68	3.2971e-06	3.3294e-06	291.34	82.667	65.117	19.307	3.3716e-06	26.839	114.823	44.171	106.671	-8.694	149.018	119.502	-8.586	-1.172	144.042	145.278	-1.369	5.782	5.331	12.571	86.294	12.266	-8191	255	
32097.482	1	1	0	0	0.020578	0.074936	0.15545	0.18179	0.1619	0.075201	0.12757	0.029551	0.23135	0.09295	0.18722	0.10384	0.18753	0.14866	0.39202	0.064008	-2.9646	-2.5312	-3.05	-3.1937	-2.45	-3.2979	-2.8083	-2.7104	-3.1979	-2.7542	-3.1063	-3.1542	-2.5396	-3.2458	-2.7896	-2.6542	318.271	304.091	242.074	336.708	55.904	69.191	291.200	44.098	137.047	78.398	321.563	315.287	50.492	78.309	79.541	34.676	0.00022933	0.00021566	2.7128e-05	1120.4	1.8291e-06	4.6072e-06	1212.1	235.64	4.1565e-07	3.1418e-06	294.1	81.616	65.092	19.02	1.2818e-06	26.377	0.00029257	0.00030611	8.2507e-05	1100	3.3076e-06	3.2416e-06	1194.4	233.56	3.2954e-06	3.3402e-06	291.37	82.359	65.152	19.293	3.2311e-06	26.778	96.179	129.834	265.311	-8.664	172.467	42.171	-8.492	-0.836	222.101	228.334	-1.210	5.239	5.758	12.590	156.860	12.235	-8191	255	
32097.580	1	1	0	0	0.31421	0.021499	0.19763	0.25568	0.3257	0.26335	0.18028	0.097858	0.20784	0.078249	0.18701	0.18321	0.34233	0.10729	0.11637	0.078865	-3.0292	-2.6354	-2.7958	-3.1229	-2.4521	-3.0479	-3.0479	-2.5708	-3.2042	-2.6646	-2.9125	-3.225	-2.4688	-3.0146	-3.0354	-2.5917	118.330	181.701	67.319	290.805	32.838	20.971	328.723	253.826	68.169	80.730	319.755	263.933	0.269	285.964	86.742	-4.908	0.00017538	0.00063127	0.00015544	1116.6	2.076e-06	4.1248e-06	1215.8	233.96	1.3922e-06	3.9429e-06	294.75	81.304	65.206	19.006	1.1431e-06	26.463	0.00029145	0.00030408	8.4992e-05	1099.8	3.3283e-06	3.2251e-06	1195.5	232.87	3.1571e-06	3.2637e-06	291.68	82.327	65.172	19.268	3.2328e-06	26.89	75.870	80.666	51.197	-8.761	141.371	201.130	-8.517	-0.972	158.435	128.133	-1.551	4.858	6.016	13.406	78.486	12.427	-8191	255	
32097.699	1	1	0	0	0.13742	0.20252	0.32486	0.11817	0.18201	0.091716	0.25382	0.24458	0.31836	0.074676	0.13194	0.17991	0.25693	0.1034	0.19833	0.23393	-2.7896	-2.7167	-2.725	-3.3063	-2.3708	-2.9521	-3.1688	-2.6375	-3.2625	-2.6208	-2.8812	-3.2771	-2.625	-3.0583	-3.1229	-2.7625	32.835	213.182	286.354	126.884	76.337	143.509	328.129	-3.987	329.696	295.105	212.471	339.559	41.855	201.326	-15.323	30.793	0.00017646	0.00032306	9.1502e-05	1119.4	3.1724e-06	2.4341e-06	1215.8	235.54	2.1674e-06	5.4072e-06	293.94	82.238	64.321	19.002	2.3587e-06	26.499	0.00029283	0.00030006	8.2007e-05	1098	3.3318e-06	3.1991e-06	1197.4	233.3	3.2555e-06	3.2573e-06	291.53	82.555	64.864	19.247	3.2785e-06	26.794	98.490	120.471	140.478	-8.502	144.838	110.613	-8.444	-0.836	96.159	177.565	-1.398	5.605	5.721	12.994	97.846	12.664	-8191	255	
32097.771	1	1	0	0	0.12522	0.10632	0.12022	0.1564	0.025371	0.07621	0.036126	0.23955	0.21804	0.22186	0.25597	0.1236	0.20564	0.14538	0.13792	0.090964	-2.6208	-2.7229	-2.5812	-3.3708	-2.6188	-3.0687	-3.2771	-2.5792	-3.1771	-2.7917	-2.725	-3.4583	-2.7625	-2.8896	-3.1604	-2.3271	330.514	159.782	231.957	206.197	299.926	277.663	283.851	298.390	333.674	277.104	269.324	-4.509	177.631	294.194	108.996	101.125	0.00014755	0.00048604	6.6909e-05	1120.8	1.8347e-06	4.1163e-06	1215.9	235.5	3.3923e-06	3.7725e-06	292.5	81.994	64.747	18.952	1.1315e-06	26.464	0.000292	0.00030219	8.2887e-05	1098.1	3.3136e-06	3.3359e-06	1196	233.7	3.2861e-06	3.2496e-06	290.57	82.411	65.032	19.265	3.3367e-06	26.836	94.430	62.349	48.655	-8.432	267.134	104.646	-8.392	-0.821	181.564	108.348	-1.185	5.515	5.705	12.745	25.018	12.048	-8191	255	
32097.867	1	1	0	0	0.2518	0.092987	0.4361	0.17505	0.034233	0.071015	0.23197	0.2866	0.18999	0.029174	0.25346	0.11531	0.20084	0.1856	0.31495	0.25297	-2.8187	-2.7792	-2.7062	-3.375	-2.5042	-2.8146	-3.6125	-2.6333	-3.1229	-3.0312	-2.6396	-3.2708	-2.7729	-2.7417	-3.2875	-2.5271	294.726	174.098	31.880	-18.389	130.086	186.784	292.173	242.530	278.325	240.859	17.033	-5.295	317.026	323.682	154.506	-6.198	0.00017941	0.00035069	2.9753e-05	1118.2	1.2616e-06	3.4518e-06	1213.3	235.79	4.9409e-07	3.6113e-06	294.09	82.252	64.622	19.012	3.7736e-06	26.584	0.00029688	0.00028905	8.2379e-05	1098.6	3.3818e-06	3.3518e-06	1196.1	233.28	3.3379e-06	3.3452e-06	291.33	82.652	65.093	19.254	3.3135e-06	26.81	87.988	75.241	222.761	-8.774	67.706	124.323	-8.312	-0.848	75.060	101.263	-1.320	5.666	5.316	12.287	101.511	12.456	-8191	255	
32097.988	1	1	0	0	0.20836	0.2289	0.1492	0.26263	0.25374	0.2443	0.12594	0.058169	0.20706	0.12336	0.1389	0.13222	0.04209	0.11335	0.079548	0.11514	-2.7083	-3.0083	-2.4292	-3.5104	-2.8	-2.7354	-3.4125	-2.5854	-2.9792	-3.1104	-2.6917	-3.4167	-2.8375	-2.5646	-3.2438	-2.6063	256.653	248.604	230.763	301.466	-6.455	91.146	275.359	319.955	215.351	268.560	81.399	267.862	203.509	134.676	144.749	-18.606	0.00018874	0.00065062	9.6743e-05	1122	2.5833e-06	4.33e-06	1215.4	235.1	4.1633e-06	3.7851e-06	293.13	81.635	64.658	18.746	1.5116e-06	26.452	0.00029194	0.00029595	8.4121e-05	1100.9	3.3858e-06	3.2636e-06	1196.6	233.51	3.2902e-06	3.3494e-06	291.54	82.467	65.032	19.182	3.2164e-06	26.835	113.099	97.728	50.322	-8.445	203.733	133.376	-8.304	-0.941	125.920	127.648	-1.180	5.648	5.504	13.264	-0.294	12.058	-8191	255	
32098.086	1	1	0	0	0.32007	0.10178	0.03794	0.18215	0.15456	0.22763	0.0816	0.18157	0.19959	0.05125	0.26237	0.13675	0.30061	0.039653	0.084701	0.063584	-2.575	-3.0896	-2.5687	-3.2646	-2.7396	-2.6667	-3.7104	-2.725	-2.875	-3.2042	-2.6	-3.2687	-2.8208	-2.4521	-3.4229	-2.7313	280.302	139.661	208.941	314.574	201.447	16.365	299.537	146.598	68.279	197.967	247.147	289.336	292.862	17.729	1.655	236.733	0.00017765	0.00032465	0.0001487	1121	3.2238e-06	5.235e-06	1213.3	233.45	7.5453e-07	2.2597e-06	294.04	81.487	64.375	18.897	2.761e-06	26.457	0.00029513	0.00029464	8.3805e-05	1100.1	3.34e-06	3.2648e-06	1196	232.95	3.238e-06	3.1909e-06	291.14	82.365	64.841	19.268	3.1541e-06	26.774	132.792	182.590	46.465	-8.645	158.485	119.523	-8.528	-0.794	208.231	132.119	-1.466	5.955	5.607	13.089	150.771	12.282	-8191	255	
32098.182	1	1	0	0	0.082617	0.097203	0.16431	0.27018	0.29853	0.34472	0.33623	0.37751	0.26113	0.14295	0.12395	0.16231	0.14828	0.13923	0.14851	0.13168	-2.4833	-3.2542	-2.5208	-3.0542	-2.9562	-2.6583	-3.5125	-2.6771	-2.7438	-3.3187	-2.6292	-2.9875	-3.1854	-2.4771	-3.2	-2.8271	166.977	280.003	326.130	264.629	114.675	330.880	327.495	293.727	128.281	55.193	59.530	297.499	29.119	144.398	260.273	110.320	0.0001845	0.00041654	6.0801e-05	1124	9.0067e-07	2.638e-06	1215	235.09	1.9933e-06	2.4844e-06	294.7	81.504	64.819	19.029	5.0586e-06	26.38	0.00029376	0.00029163	8.0939e-05	1099	3.282e-06	3.2085e-06	1195	233.16	3.2093e-06	3.182e-06	291.48	82.296	65.022	19.293	3.2052e-06	26.786	85.663	70.783	40.460	-8.301	130.496	185.025	-8.479	-1.289	15.741	107.251	-1.189	6.088	5.559	12.330	131.020	11.653	-8191	255	
32098.277	1	1	0	0	0.26682	0.171	0.17316	0.36031	0.30503	0.17398	0.14772	0.15456	0.16872	0.10725	0.22971	0.37963	0.26095	0.22095	0.078445	0.21314	-2.2125	-3.2667	-2.3812	-3.0187	-3.0479	-2.4625	-3.2354	-2.7771	-2.6583	-3.2333	-2.6792	-2.9771	-3.3187	-2.5438	-3.2542	-2.8063	4.522	195.608	136.307	293.422	259.232	270.370	232.752	313.031	289.912	17.863	284.012	331.439	106.019	72.050	165.120	151.096	0.00016807	0.00016192	4.132e-05	1122.9	4.7021e-06	3.3918e-06	1216.6	235.69	2.3239e-06	4.5471e-06	291.92	81.573	64.773	19.022	6.0667e-06	26.596	0.00029185	0.00029503	8.2126e-05	1099.6	3.2794e-06	3.1584e-06	1195	233.42	3.2447e-06	3.2078e-06	290.83	82.166	64.974	19.238	3.2267e-06	26.846	104.800	232.641	27.853	-8.718	127.616	93.900	-8.308	-1.436	178.586	33.033	-1.580	5.347	5.711	12.901	98.487	12.010	-8191	255	
32098.396	1	1	0	0	0.1631	0.077448	0.14506	0.19377	0.13152	0.06122	0.029994	0.18758	0.19495	0.10274	0.25645	0.091403	0.10691	0.083741	0.25897	0.087567	-2.2896	-3.4354	-2.4854	-2.9458	-3.2354	-2.575	-3.4792	-2.9313	-2.6604	-3.3854	-2.5563	-2.9417	-3.2313	-2.6792	-3.0354	-3.0292	190.435	162.670	320.515	235.249	326.740	190.384	-17.683	14.543	44.839	265.928	291.612	23.083	149.184	195.975	203.809	261.054	0.00019824	0.0005366	8.0115e-05	1127.4	2.1352e-06	4.2373e-06	1219.3	235.34	2.7664e-06	3.0682e-06	292.36	81.92	64.899	18.98	4.7338e-06	26.354	0.00029178	0.00029157	8.3726e-05	1101.6	3.1916e-06	3.2239e-06	1198.3	233.59	3.3098e-06	3.2901e-06	290.45	82.458	65.064	19.271	3.2765e-06	26.83	89.533	102.655	32.267	-8.556	102.851	105.838	-8.407	-1.183	146.013	169.042	-1.840	5.767	5.667	12.547	117.909	12.436	-8191	255	
32098.467	1	1	0	0	0.15861	0.12551	0.079979	0.17759	0.11162	0.086461	0.13931	0.29862	0.24982	0.061643	0.25142	0.067595	0.099353	0.12518	0.12291	0.25309	-2.2021	-3.3854	-2.625	-2.8708	-3.2458	-2.4792	-3.2104	-3.0938	-2.7979	-3.4021	-2.9083	-2.7771	-3.2938	-2.6083	-3.1646	-3.2833	58.751	32.431	117.587	241.726	34.468	329.079	214.129	295.301	284.462	17.765	255.664	277.058	111.178	157.581	-16.911	248.387	0.00014506	0.00019088	7.0139e-05	1122.2	2.2907e-06	1.6359e-06	1219.8	234.9	4.281e-06	1.9297e-06	294.29	82.466	64.483	18.941	7.4757e-06	26.284	0.00029269	0.00030254	8.5534e-05	1101.4	3.3533e-06	3.2878e-06	1198.3	233.16	3.3457e-06	3.2735e-06	290.93	82.552	64.906	19.26	3.2953e-06	26.778	96.726	72.581	71.679	-8.313	139.409	-16.398	-8.419	-1.254	133.573	229.963	-1.343	5.125	5.277	12.617	102.942	12.575	-8191	255	
32098.564	1	1	0	0	0.098256	0.17485	0.13986	0.20949	0.037497	0.17744	0.12781	0.20848	0.10332	0.3765	0.058091	0.049209	0.23882	0.10128	0.10706	0.15768	-2.0833	-3.15	-2.9021	-2.7896	-3.1792	-2.6458	-3.175	-3.25	-2.5417	-3.2646	-2.9896	-2.7146	-3.3104	-2.7292	-2.9104	-3.2542	72.763	302.906	46.423	311.600	176.807	34.407	73.008	8.661	296.253	151.647	193.669	11.205	274.311	190.542	91.762	21.684	0.00011467	0.00059726	2.5016e-05	1121.8	1.2829e-06	3.018e-06	1217.2	234.33	3.8182e-06	4.5094e-06	294	82.305	64.544	19.011	3.3244e-06	26.442	0.00029571	0.00030147	8.393e-05	1100.3	3.2945e-06	3.2552e-06	1196.2	233.04	3.283e-06	3.2687e-06	291.19	82.591	65.029	19.254	3.3154e-06	26.776	112.023	64.191	161.179	-8.437	48.177	92.310	-8.204	-0.788	140.959	169.400	-1.310	5.130	5.787	12.560	71.432	12.063	-8191	255	
32098.662	1	1	0	0	0.04649	0.1144	0.20836	0.091644	0.073349	0.1789	0.44194	0.21108	0.16591	0.063454	0.19251	0.076561	0.21225	0.10217	0.1932	0.24137	-2.1271	-3.1104	-2.9417	-2.7958	-3.5208	-2.6521	-3.05	-3.3937	-2.5812	-3.1375	-3.1271	-2.8438	-3.3083	-2.6167	-2.8896	-3.3604	160.803	213.512	115.732	157.402	170.301	201.424	233.796	329.544	157.391	28.061	284.132	260.582	-4.142	14.138	100.035	237.691	0.00014104	0.00030652	0.00019997	1121.8	1.8132e-06	6.2686e-06	1215.6	235.63	2.6054e-06	2.6022e-06	294.13	81.535	64.238	18.973	2.9565e-06	26.366	0.00029441	0.00029736	8.5132e-05	1102.6	3.3618e-06	3.2943e-06	1198.1	233.55	3.3443e-06	3.2256e-06	291.43	82.261	64.952	19.231	3.2856e-06	26.805	117.582	110.634	78.723	-8.545	168.567	190.250	-8.218	-1.050	128.330	134.258	-1.610	5.429	5.779	12.373	176.555	12.179	-8191	255	
32098.779	1	1	0	0	0.091771	0.13672	0.093867	0.11288	0.16114	0.060504	0.18693	0.1588	0.28825	0.21311	0.07416	0.1821	0.25169	0.081776	0.26243	0.15923	-2.1688	-3.1771	-3.2062	-2.6354	-3.3583	-2.6437	-2.9021	-3.425	-2.4042	-3.1833	-3.1979	-2.4229	-3.3542	-2.975	-2.5833	-3.2792	163.656	127.901	271.707	337.810	131.611	250.692	294.376	315.359	86.016	329.404	330.643	183.093	228.339	284.128	232.731	105.786	0.00019388	0.00022616	0.00017828	1117.2	1.77e-06	4.5406e-06	1210.4	235.36	2.7043e-06	2.973e-06	293.26	82.032	64.751	18.945	5.5318e-06	26.418	0.00030165	0.00029977	8.4342e-05	1099.8	3.229e-06	3.3306e-06	1196	233.08	3.3037e-06	3.3584e-06	291.2	82.394	65.009	19.252	3.2937e-06	26.834	97.387	-2.227	79.688	-8.474	121.519	176.020	-8.271	-1.017	166.822	138.245	-1.363	5.429	6.047	12.849	127.390	11.634	-8191	255	
32098.877	1	1	0	0	0.24216	0.19447	0.28754	0.17734	0.2879	0.21014	0.26274	0.079352	0.23335	0.058996	0.19074	0.064532	0.028796	0.14057	0.0562	0.28978	-2.0563	-3.1208	-3.325	-2.8563	-3.2833	-2.9167	-2.6083	-3.2979	-2.4917	-2.7271	-3.0854	-2.75	-3.4417	-2.9021	-2.6646	-3.3729	276.672	38.081	-1.890	32.572	152.814	169.670	313.908	169.648	163.606	48.491	172.928	7.546	290.263	218.719	252.312	34.736	0.00021221	0.00043795	0.00015432	1118.7	2.4348e-06	7.9218e-07	1212	234.88	1.916e-06	4.6938e-06	293.82	81.883	64.851	19.002	3.2607e-06	26.429	0.00029711	0.00030437	8.3023e-05	1099.7	3.3451e-06	3.2688e-06	1197.8	233.31	3.332e-06	3.3008e-06	291.63	82.433	65.111	19.239	3.3247e-06	26.86	104.899	15.151	80.884	-8.635	135.324	174.208	-8.138	-0.833	169.064	136.133	-1.660	5.465	5.357	12.897	119.582	12.456	-8191	255	
32098.973	1	1	0	0	0.13691	0.16215	0.32896	0.15882	0.093753	0.052728	0.17663	0.12498	0.22087	0.0543	0.062695	0.18233	0.20063	0.30216	0.32925	0.15183	-2.3083	-2.7854	-3.1146	-2.7479	-3.15	-3.0687	-2.8688	-3.3625	-2.7854	-2.7958	-3.4062	-2.7229	-3.125	-2.9917	-2.4729	-3.3187	123.521	154.039	234.055	266.736	150.971	226.299	239.910	219.395	291.357	318.591	207.037	324.243	311.606	307.318	2.539	251.449	0.00025398	0.00034089	6.9337e-05	1120.7	2.5189e-06	3.8043e-06	1212.5	234	4.3051e-06	3.6064e-06	292.31	81.62	64.473	18.845	5.7723e-06	26.393	0.00029227	0.0003098	8.2216e-05	1100.5	3.257e-06	3.1612e-06	1196.5	232.83	3.2848e-06	3.1813e-06	290.93	82.293	65.021	19.203	3.2169e-06	26.832	111.377	117.587	90.693	-8.752	136.220	118.256	-8.279	-1.033	117.859	125.250	-1.222	5.436	5.928	12.667	91.786	12.565	-8191	255	
32099.068	1	1	0	0	0.17741	0.22303	0.21703	0.3716	0.075659	0.30085	0.25428	0.26821	0.11864	0.054677	0.23904	0.098005	0.12994	0.10488	0.070144	0.079604	-2.4292	-2.7313	-3.4292	-2.8146	-3.025	-3.1458	-2.8125	-3.2354	-2.8688	-2.7833	-3.3937	-2.7167	-3.0917	-3.3646	-2.6437	-3.2313	230.464	55.010	241.378	304.653	52.997	229.396	307.453	262.416	183.208	124.435	204.137	113.143	294.736	3.108	236.658	289.229	0.00012149	0.00044374	4.1275e-05	1117.6	3.6128e-06	4.401e-06	1217.2	234.49	3.2506e-06	2.181e-06	291.82	82.16	64.708	18.829	1.7125e-06	26.214	0.0002912	0.00029034	7.843e-05	1097.9	3.1359e-06	3.1425e-06	1194.9	233.16	3.154e-06	3.1615e-06	290.55	82.451	64.894	19.198	3.23e-06	26.79	136.402	149.966	52.204	-8.506	158.020	120.952	-8.354	-1.033	111.565	167.199	-1.523	5.453	5.440	12.908	154.431	12.247	-8191	255	
32099.164	1	1	0	0	0.086525	0.022692	0.19877	0.052831	0.29655	0.18204	0.3477	0.11506	0.28323	0.15841	0.25505	0.29959	0.18181	0.18799	0.26043	0.17505	-2.4792	-2.5854	-3.35	-2.6542	-3.0229	-3.225	-2.7687	-3.2917	-2.9833	-2.7125	-3.225	-2.6813	-2.7354	-3.3563	-2.5021	-3.2667	124.127	251.130	175.950	278.327	12.861	267.444	285.248	273.750	237.414	59.540	297.755	55.092	234.094	248.938	228.538	30.068	0.00018126	0.0003933	0.00014348	1122.2	3.1493e-06	1.005e-06	1214.8	235.62	5.7198e-06	3.724e-06	293.08	82.209	64.524	18.976	5.5359e-06	26.43	0.00027897	0.00028628	7.8757e-05	1099.4	3.1423e-06	3.1407e-06	1196.7	233.5	3.1671e-06	3.1619e-06	290.12	82.451	64.932	19.223	3.1805e-06	26.84	123.372	34.884	61.576	-8.627	144.548	182.960	-8.503	-0.922	214.453	202.757	-1.356	5.349	5.713	12.763	130.767	12.355	-8191	255	
32099.262	1	1	0	0	0.15888	0.1228	0.010764	0.34607	0.23404	0.070038	0.09554	0.31377	0.19754	0.082422	0.30709	0.05297	0.023425	0.31027	0.15542	0.040308	-2.4896	-2.6896	-3.2979	-2.7875	-2.6646	-3.2979	-2.6229	-3.0771	-2.9875	-2.4896	-3.5375	-2.8958	-2.7521	-3.3708	-2.4417	-3.1417	107.421	97.251	129.955	321.344	76.203	135.660	163.316	300.591	134.094	130.455	300.618	105.118	279.337	127.968	335.829	17.454	0.00019936	0.00043424	0.00010332	1119.2	1.2854e-06	6.2442e-06	1216.7	235.36	2.1969e-06	5.9568e-07	293.09	82.063	64.881	18.896	2.3194e-06	26.382	0.00027509	0.0002807	7.9702e-05	1098.5	3.0966e-06	3.0953e-06	1197.1	233.01	3.1319e-06	3.0852e-06	290.99	82.547	65.075	19.216	3.0798e-06	26.801	111.315	93.093	48.014	-8.684	308.055	106.900	-8.373	-0.914	71.734	59.849	-1.366	5.532	5.980	12.679	174.973	11.790	-8191	255	
32099.383	1	1	0	0	0.14754	0.26121	0.25478	0.073881	0.2539	0.27907	0.25014	0.046742	0.083912	0.10164	0.13502	0.17761	0.27648	0.14381	0.085746	0.26944	-2.6375	-2.5271	-3.1958	-2.8479	-2.6104	-3.375	-2.7958	-3.1437	-3.2646	-2.5625	-3.4375	-2.9813	-2.8083	-3.25	-2.7188	-3.0208	299.640	235.159	151.154	118.451	8.404	17.313	278.299	157.155	148.432	14.518	167.217	275.215	1.382	22.289	201.650	218.683	0.00017955	0.00036846	6.046e-05	1123.2	2.755e-06	1.8345e-06	1214.7	234.46	1.9636e-06	7.6463e-07	293.38	81.984	64.859	18.886	6.3145e-06	26.479	0.00028114	0.00028351	7.6681e-05	1100.3	3.1359e-06	3.0262e-06	1195.1	232.96	3.0364e-06	3.0643e-06	291.04	82.385	64.96	19.186	3.1273e-06	26.821	83.550	99.479	69.622	-8.890	132.840	154.586	-8.473	-0.844	108.292	323.666	-1.276	5.337	5.854	13.193	147.255	12.560	-8191	255	
32099.477	1	1	0	0	0.19852	0.23677	0.060089	0.20216	0.1455	0.064208	0.10115	0.039672	0.1667	0.010595	0.069157	0.068057	0.2752	0.081159	0.45093	0.1227	-2.8854	-2.6417	-3.1354	-3.1	-2.4771	-3.2479	-2.9479	-2.8	-3.1979	-2.3917	-3.2375	-2.9979	-2.6188	-3.1646	-2.5938	-2.7958	174.772	302.182	2.181	300.198	340.838	150.669	299.464	157.882	316.512	172.477	-11.663	79.114	282.589	84.763	48.107	2.218	0.00018595	0.00038962	4.4073e-05	1118.6	2.9293e-06	2.1997e-06	1205.7	234.02	2.9338e-06	5.1972e-06	295.48	81.725	64.764	19.157	6.1972e-06	26.36	0.00027603	0.00028178	7.8088e-05	1097.3	3.1433e-06	3.1347e-06	1190.7	232.43	3.1504e-06	3.0867e-06	291.28	82.196	64.893	19.228	3.0674e-06	26.733	122.338	64.808	101.844	-8.695	111.527	111.535	-8.327	-0.977	199.203	53.803	-1.419	5.445	5.696	12.809	100.680	11.994	-8191	255	
32099.572	1	1	0	0	0.3168	0.36782	0.19568	0.25241	0.25858	0.022567	0.15375	0.2176	0.048901	0.1366	0.35649	0.31476	0.18835	0.065719	0.18378	0.24495	-2.8021	-2.6042	-3.0708	-3.2146	-2.5333	-3.4354	-2.9938	-2.8646	-3.4062	-2.6125	-3.2042	-3.2396	-2.4229	-3.2042	-2.7354	-2.7646	53.059	95.476	222.360	313.957	35.342	272.664	287.198	200.065	193.753	104.147	-11.039	180.971	321.841	134.628	129.163	152.639	0.00020161	0.00080915	0.0001081	1115.4	2.8576e-06	3.4805e-06	1210.9	234.99	3.4316e-06	1.4854e-06	293.7	81.807	64.303	18.893	5.581e-06	26.482	0.00027189	0.0002766	7.8531e-05	1097.4	3.1502e-06	2.9909e-06	1192.6	232.98	3.0022e-06	2.973e-06	290.73	82.291	64.857	19.201	3.0694e-06	26.773	97.879	55.612	62.969	-8.724	130.523	121.079	-8.262	-0.878	133.598	177.230	-1.235	5.601	5.800	12.487	95.733	12.342	-8191	255	
32099.668	1	1	0	0	0.092179	0.17378	0.24311	0.1093	0.29387	0.21933	0.20025	0.1164	0.016529	0.19467	0.086339	0.11934	0.11606	0.17375	0.12457	0.092735	-3.0812	-2.5958	-2.975	-3.2979	-2.4	-3.1063	-2.9792	-2.6104	-3.175	-2.5958	-3.0062	-3.3021	-2.6208	-3.225	-3.0167	-2.7375	-17.027	-12.641	-0.983	331.110	285.034	305.516	327.682	70.560	117.782	297.707	116.112	261.366	90.512	308.355	23.463	324.385	0.00019945	0.00040053	0.00013022	1116.9	1.5928e-06	1.2881e-06	1215.4	235.07	2.1783e-06	3.5391e-06	293.98	81.413	64.452	18.848	2.5872e-06	26.365	0.0002764	0.00027812	7.5886e-05	1097.8	3.1257e-06	3.0678e-06	1191.4	233.36	3.0467e-06	3.0564e-06	289.88	82.107	64.733	19.161	3.0661e-06	26.827	98.467	82.719	73.586	-8.472	171.088	235.598	-8.283	-0.797	87.510	212.049	-1.143	5.303	5.960	12.756	222.175	11.977	-8191	255	
32099.766	1	1	0	0	0.16313	0.19411	0.20465	0.27504	0.18333	0.06292	0.1472	0.19448	0.045468	0.15237	0.13789	0.27611	0.066729	0.13702	0.14979	0.15327	-2.9875	-2.625	-2.8833	-3.4062	-2.4854	-3.2271	-3.2292	-2.7292	-3.5479	-2.5958	-2.9188	-3.3937	-2.5708	-3.0729	-3.05	-2.6854	-16.880	112.341	164.546	290.246	257.355	102.690	295.623	290.032	210.277	19.773	329.342	338.023	337.953	57.089	190.289	39.916	0.00020923	0.00028071	9.5008e-05	1116.5	1.4032e-06	2.6321e-06	1213.9	234.38	4.3614e-06	1.6903e-06	293.13	81.96	64.516	19.096	1.1606e-06	26.413	0.00027171	0.00028035	7.9597e-05	1097.1	3.0879e-06	3.0542e-06	1193.1	232.6	3.0689e-06	3.0581e-06	290.07	82.344	64.924	19.268	3.0203e-06	26.693	93.299	131.960	59.216	-8.527	58.570	143.301	-8.354	-0.745	107.147	148.371	-1.246	5.301	6.117	13.060	12.812	12.185	-8191	255	
32099.861	1	1	0	0	0.15749	0.093315	0.12397	0.14339	0.11859	0.11018	0.38295	0.19177	0.1594	0.12105	0.31128	0.36076	0.3023	0.17716	0.17979	0.12123	-2.8667	-2.6833	-2.7687	-3.35	-2.6375	-2.975	-3.2125	-2.525	-3.2562	-2.7792	-2.8063	-3.3104	-2.6937	-3.0271	-3.1813	-2.6292	113.732	129.649	328.778	290.158	75.656	287.511	-1.236	310.743	57.462	88.045	229.692	247.429	295.476	138.024	64.232	138.021	0.00015744	0.00021895	0.00013808	1121.7	2.9907e-06	6.1423e-06	1216.4	235.96	2.6362e-06	3.582e-06	293.68	82.104	64.136	18.857	5.3113e-06	26.288	0.00027579	0.00028071	7.7532e-05	1098.8	3.1504e-06	3.1086e-06	1192.9	233.07	3.1011e-06	3.1379e-06	290.97	82.385	64.883	19.191	3.1933e-06	26.734	92.853	43.199	110.816	-8.634	181.334	169.077	-8.088	-0.734	134.566	101.777	-1.263	5.512	5.890	12.867	144.008	12.342	-8191	255	
32099.957	1	1	0	0	0.30069	0.21497	0.23071	0.29659	0.1263	0.10128	0.18512	0.047052	0.044046	0.14726	0.1639	0.16178	0.21562	0.09965	0.23141	0.14076	-2.8417	-2.8458	-2.5167	-3.3917	-2.6146	-2.8479	-3.425	-2.4292	-3.0833	-2.9562	-2.5583	-3.2896	-2.8479	-3.0625	-3.2021	-2.4792	-13.656	155.877	240.368	318.645	22.681	90.175	324.928	-2.219	331.548	47.624	29.770	5.264	252.801	177.937	100.247	145.645	0.00022998	0.00048189	0.00012403	1115.8	1.823e-06	2.3339e-06	1210	235.33	2.8528e-06	1.7088e-06	293.46	81.954	64.253	19.047	3.7022e-06	26.155	0.00028895	0.00029526	8.1407e-05	1095.7	3.291e-06	3.1638e-06	1191.9	233.05	3.1804e-06	3.1869e-06	290.85	82.266	64.722	19.251	3.2537e-06	26.767	100.527	43.235	53.291	-8.326	246.162	137.331	-8.444	-0.519	162.410	150.646	-1.227	5.198	5.656	12.694	147.254	12.094	-8191	255	
32100.078	1	1	0	0	0.062656	0.073215	0.27827	0.1968	0.10441	0.088026	0.22352	0.097255	0.20606	0.164	0.28599	0.14111	0.21026	0.12222	0.060355	0.21404	-2.9938	-2.8708	-2.5917	-3.4458	-2.625	-2.9042	-3.5604	-2.5583	-3.1208	-3.1417	-2.5979	-3.1813	-2.8042	-2.8271	-3.4938	-2.6146	77.446	139.565	49.539	236.874	197.151	206.715	298.973	325.242	171.572	269.624	330.164	28.700	306.884	91.887	295.001	180.584	0.00017271	0.00013444	1.7373e-05	1121.3	1.474e-06	3.6821e-06	1212.3	235.5	4.2269e-06	2.9263e-06	293.06	81.52	64.853	18.933	6.616e-06	26.202	0.00028635	0.00029906	8.374e-05	1098.9	3.4021e-06	3.3901e-06	1192.5	233.48	3.4184e-06	3.4615e-06	290.97	82.18	64.884	19.251	3.3399e-06	26.705	103.687	76.157	126.441	-8.648	185.301	136.742	-8.115	-0.941	171.631	150.597	-1.400	5.412	5.494	13.149	121.486	11.933	-8191	255	
32100.174	1	1	0	0	0.13376	0.18022	0.20872	0.14199	0.24717	0.20557	0.094786	0.26847	0.14109	0.090451	0.022787	0.14167	0.25813	0.10219	0.35608	0.24681	-2.675	-3.0687	-2.4729	-3.2354	-2.9229	-2.6708	-3.5125	-2.5833	-2.9062	-3.1063	-2.6792	-3.3833	-2.9021	-2.6875	-3.4229	-2.6542	158.198	251.705	320.052	296.595	119.663	24.967	264.311	-7.393	304.038	8.907	-8.174	266.841	34.105	318.613	76.804	268.878	0.00022785	0.00043812	8.2933e-05	1120.5	2.4872e-06	1.0032e-06	1211.8	233.69	4.181e-06	3.579e-06	292.81	81.876	64.244	19.018	5.3264e-06	26.491	0.00030967	0.00030847	8.7363e-05	1098.2	3.5017e-06	3.4024e-06	1195.1	233.16	3.5202e-06	3.463e-06	291.15	82.297	64.924	19.342	3.632e-06	26.901	100.286	107.044	8.073	-8.536	94.341	30.894	-8.323	-1.263	131.610	189.750	-1.546	5.226	5.553	12.310	87.350	12.199	-8191	255	
32100.270	1	1	0	0	0.23818	0.15946	0.19975	0.08835	0.1746	0.088205	0.25276	0.13043	0.15121	0.42442	0.29057	0.28237	0.10413	0.22543	0.1387	0.17	-2.7042	-3.1792	-2.4729	-3.4083	-2.8396	-2.5354	-3.7042	-2.8104	-2.6771	-3.275	-2.625	-3.1729	-3.0646	-2.625	-3.3125	-2.6833	246.817	42.784	77.922	225.007	-5.896	189.359	225.033	310.378	72.529	171.355	195.055	314.278	137.333	286.682	15.693	293.642	0.00022927	0.00075484	0.00022963	1117.7	2.2751e-06	3.6716e-06	1212.5	234.45	2.2711e-06	2.7972e-06	292.68	81.952	64.985	18.977	5.5632e-06	26.39	0.00033029	0.00033493	9.4592e-05	1098.7	3.7183e-06	3.767e-06	1193.7	233.45	3.6775e-06	3.6378e-06	290.55	82.538	65.222	19.356	3.7563e-06	26.925	97.821	101.123	39.644	-8.607	152.459	154.903	-8.393	-1.184	160.005	208.479	-1.491	5.372	5.598	13.023	92.849	12.261	-8191	255	
32100.342	1	1	0	0	0.1963	0.21546	0.032482	0.19707	0.24723	0.21926	0.30137	0.10188	0.43034	0.14637	0.16931	0.06748	0.24594	0.26887	0.082548	0.1217	-2.4167	-3.2167	-2.5229	-3.2125	-3.0896	-2.4562	-3.4125	-2.7708	-2.6792	-3.4938	-2.6625	-3.025	-3.2167	-2.4771	-3.1771	-2.8458	259.389	6.670	298.584	323.109	69.469	-0.651	293.120	-12.574	20.924	145.592	135.436	6.746	285.246	298.401	167.505	159.455	0.00022224	0.00056002	4.8309e-05	1121.3	2.2954e-06	2.6367e-06	1220.1	235.35	2.1902e-06	6.5502e-06	294.74	81.942	64.925	19.144	2.6755e-06	26.288	0.00033335	0.00034376	9.6615e-05	1101.9	3.8218e-06	3.817e-06	1196.4	234.24	3.8717e-06	3.8965e-06	292.96	82.487	65.415	19.431	3.9388e-06	26.941	100.957	61.254	109.063	-8.469	193.446	165.938	-8.380	-1.168	190.599	144.787	-1.551	5.494	5.882	12.472	210.195	12.265	-8191	255	
32100.461	1	1	0	0	0.17813	0.17542	0.19056	0.064905	0.20801	0.12545	0.27595	0.13708	0.20452	0.065272	0.065461	0.20043	0.048161	0.1627	0.08369	0.18138	-2.1771	-3.3292	-2.6833	-3.2438	-3.0625	-2.6937	-3.4313	-2.9354	-2.4688	-3.4333	-2.5812	-2.8479	-3.2313	-2.4938	-3.1021	-2.7979	191.194	18.184	128.689	23.317	121.911	149.532	256.167	284.126	110.424	220.089	199.023	180.869	308.652	88.508	332.812	-5.995	0.00027543	0.00036366	0.00011783	1120.1	1.942e-06	1.3222e-06	1214.1	233.81	2.3456e-06	4.0228e-06	293.1	81.284	64.831	18.99	5.6551e-06	26.559	0.00035684	0.0003622	0.0001022	1102.1	3.8964e-06	3.8716e-06	1197.3	233.61	3.9195e-06	3.8206e-06	291.87	82.474	65.378	19.381	3.9372e-06	27.067	82.273	48.889	89.471	-8.432	273.805	102.948	-8.495	-1.205	153.638	108.445	-1.517	5.666	5.215	12.410	143.919	11.979	-8191	255	
32100.557	1	1	0	0	0.15028	0.28021	0.2775	0.2333	0.1611	0.29199	0.21387	0.26853	0.10491	0.1103	0.28225	0.014906	0.17373	0.28167	0.37759	0.11147	-2.3479	-3.2229	-2.6813	-3.0271	-3.3875	-2.5271	-3.2562	-3.0854	-2.5104	-3.1729	-2.8812	-2.8708	-3.3417	-2.7542	-3.2021	-3.0312	197.519	-0.772	24.112	-14.630	212.365	-2.489	216.104	250.510	137.571	292.831	291.989	9.170	9.158	166.771	336.232	215.751	0.00030023	0.00035855	4.3884e-05	1125	2.3294e-06	3.3579e-06	1217.3	235.01	2.3463e-06	4.8776e-06	293.86	82.311	65.11	19.001	3.2229e-06	26.48	0.00035055	0.00035847	0.00010152	1103.6	3.9314e-06	3.8596e-06	1197.6	233.87	3.8615e-06	3.8252e-06	292.12	82.661	65.429	19.38	3.9083e-06	26.905	112.322	63.999	184.413	-8.532	161.566	174.764	-8.358	-1.067	142.108	81.318	-1.744	5.365	5.770	12.620	165.002	12.380	-8191	255	
32100.652	1	1	0	0	0.1203	0.049619	0.030138	0.18035	0.09613	0.19703	0.18426	0.24639	0.22676	0.063454	0.21428	0.24674	0.11577	0.042869	0.31598	0.12683	-2.1146	-3.1958	-2.6792	-3.0062	-3.3	-2.6979	-3.1208	-3.2771	-2.4521	-3.1604	-2.8521	-2.7687	-3.3563	-2.7167	-2.8542	-3.1896	210.199	88.248	268.784	315.571	139.964	61.280	237.861	316.525	276.946	194.965	0.051	-8.411	72.672	-8.328	15.050	84.989	0.00022653	0.00057599	0.00013403	1125	3.9328e-06	5.4958e-06	1223.6	235.07	2.9392e-06	7.4163e-06	294.86	82.087	64.546	18.935	2.3184e-06	26.196	0.00034305	0.00035444	9.7679e-05	1104.5	3.965e-06	3.8908e-06	1200.6	233.96	3.8785e-06	3.8106e-06	292.53	82.889	65.386	19.36	3.9989e-06	26.85	95.946	65.723	74.039	-8.704	191.460	78.671	-8.372	-1.179	174.785	165.019	-1.465	5.688	5.958	12.925	83.839	12.229	-8191	255	
32100.748	1	1	0	0	0.038234	0.19276	0.11049	0.13221	0.040451	0.0068199	0.19968	0.20475	0.28796	0.18586	0.09546	0.13683	0.22561	0.074888	0.16266	0.12088	-2.3333	-3.3083	-2.6708	-2.8833	-3.3167	-2.4583	-3.1479	-3.3458	-2.4125	-3	-2.9958	-2.7375	-3.5625	-2.7083	-2.6917	-3.2229	234.473	227.796	223.281	-1.422	72.109	113.154	266.429	220.223	15.188	228.336	318.461	283.541	43.826	276.806	152.555	278.140	0.00017294	0.00031719	0.00016125	1120.4	9.0833e-07	6.1877e-06	1221	235.42	2.0879e-06	1.0071e-06	292.55	82.12	65.669	19.066	3.4381e-06	26.329	0.0003544	0.00036095	0.00010087	1101.3	3.9787e-06	4.0028e-06	1200	233.89	4.0079e-06	4.0268e-06	291.37	82.92	65.827	19.417	4.0435e-06	26.872	87.050	157.363	44.135	-8.391	57.143	77.257	-8.135	-1.116	99.118	161.073	-1.650	5.377	5.950	12.373	157.157	12.704	-8191	255	
32100.869	1	1	0	0	0.038178	0.17435	0.27127	0.22152	0.11761	0.21749	0.22915	0.16884	0.14789	0.014822	0.12308	0.17523	0.19955	0.031131	0.29046	0.023162	-2.1729	-3.1667	-3.0417	-2.6937	-3.3375	-2.7604	-3.0083	-3.3771	-2.5104	-3.0333	-3.1958	-2.4729	-3.4229	-2.7729	-2.7812	-3.2229	14.547	43.946	284.692	331.771	184.728	331.736	283.136	22.097	181.598	189.023	310.004	313.240	143.674	324.767	251.058	328.884	0.000189	0.00052969	3.0305e-05	1123.1	3.1006e-06	4.5469e-06	1219.7	235.83	5.2419e-07	2.528e-06	293.44	81.733	64.774	19.132	3.502e-06	26.447	0.00036845	0.00037553	0.00010523	1102.9	4.1486e-06	4.2683e-06	1200.3	234.48	4.2249e-06	4.2742e-06	292.57	82.823	65.404	19.443	4.19e-06	26.995	95.944	75.477	101.206	-8.591	127.841	180.426	-8.117	-1.044	258.429	149.929	-1.425	5.792	5.802	12.709	56.160	12.322	-8191	255	
32100.941	1	1	0	0	0.23853	0.25476	0.10222	0.40441	0.084939	0.26522	0.20144	0.25548	0.36613	0.082021	0.23649	0.33164	0.21642	0.20231	0.23342	0.1463	-1.8896	-3.0812	-2.9688	-2.8104	-3.1437	-3.0792	-2.9542	-3.3458	-2.6063	-3.0396	-3.1375	-2.5604	-3.4188	-2.9417	-2.6437	-3.3854	272.272	130.085	324.030	324.873	106.591	163.381	268.190	239.155	286.375	81.222	249.039	124.649	253.337	-14.228	-18.955	323.166	0.00012883	0.00036194	0.00013649	1123.2	3.7389e-06	4.0934e-07	1215.8	236.86	3.0308e-06	4.9072e-06	294.03	81.908	64.4	18.994	2.2265e-06	26.286	0.0003638	0.00038588	0.00010361	1104.4	4.0534e-06	4.1056e-06	1198.9	234.84	4.1505e-06	4.0665e-06	292.5	82.573	65.262	19.385	4.033e-06	26.888	78.266	76.432	34.158	-8.503	140.759	246.540	-8.319	-1.001	111.184	58.261	-1.382	5.081	5.260	12.795	50.910	12.169	-8191	255	
32101.062	1	1	0	0	0.26764	0.17799	0.21372	0.48856	0.14287	0.12195	0.18972	0.39347	0.17496	0.020319	0.21471	0.060321	0.15743	0.13077	0.19743	0.29273	-2.1562	-2.9542	-3.2562	-2.6854	-3.1771	-2.9458	-2.825	-3.2875	-2.725	-2.8563	-3.4062	-2.3375	-3.1792	-3.1042	-2.6813	-3.3958	68.941	186.022	305.973	301.521	5.788	274.437	291.134	280.609	303.725	100.114	251.249	-8.458	233.423	142.258	77.235	177.415	0.00021871	0.00023965	8.5602e-05	1121.4	2.0678e-07	1.0648e-06	1214	235.86	2.5729e-06	5.4413e-06	293.83	81.581	64.768	18.908	6.4707e-06	26.157	0.0003659	0.00037396	0.00010256	1102.6	3.9681e-06	4.0862e-06	1197.4	234.67	3.9973e-06	3.8808e-06	292.42	82.441	65.217	19.364	3.892e-06	26.793	103.840	49.197	85.736	-8.502	26.697	89.349	-8.189	-0.959	158.351	125.580	-1.992	5.496	5.791	12.468	188.588	12.235	-8191	255	
32101.158	1	1	0	0	0.11144	0.18755	0.25902	0.056478	0.1427	0.11657	0.14319	0.080725	0.25196	0.147	0.24535	0.060954	0.28376	0.27262	0.13129	0.22952	-2.2667	-2.7521	-3.1792	-2.5208	-3.125	-3.0333	-2.8208	-3.3125	-2.8167	-2.8417	-3.3167	-2.75	-3.0812	-3.0854	-2.4708	-3.1854	340.210	91.731	-18.528	316.970	267.571	-12.551	239.397	242.995	103.174	147.560	335.277	337.111	281.525	293.388	-12.583	315.109	0.00016776	0.0006647	3.8055e-05	1118.5	1.3924e-06	5.4982e-06	1216.1	235.22	1.7871e-06	6.7816e-06	294.49	81.684	64.787	18.78	9.0808e-07	26.387	0.000344	0.00035468	0.00010036	1102.8	3.9396e-06	3.9938e-06	1197.5	234.2	3.9134e-06	3.8895e-06	292.34	82.728	65.323	19.268	4.0243e-06	26.836	105.558	60.671	135.312	-8.696	316.854	170.235	-8.223	-0.921	122.023	147.975	-1.315	5.448	5.241	12.591	67.363	12.337	-8191	255	
32101.254	1	1	0	0	0.19764	0.24778	0.16821	0.067016	0.17526	0.17136	0.389	0.25707	0.053098	0.10765	0.15409	0.094115	0.11703	0.28426	0.13693	0.11421	-2.3604	-2.2771	-3.2771	-2.8104	-3.1146	-3.0083	-2.725	-3.1771	-2.9521	-2.5792	-3.3542	-2.6896	-2.8854	-3.2021	-2.4729	-3.1042	224.338	130.751	276.429	337.408	283.734	41.226	249.911	6.795	0.422	177.185	220.263	273.658	-2.986	9.077	178.341	91.343	0.00018044	0.0004426	3.6327e-05	1123.1	3.3665e-06	2.6563e-06	1213.9	235.19	2.0209e-06	4.2924e-06	292.1	81.558	65.032	19.028	1.7955e-06	26.451	0.00035755	0.00037104	0.00010362	1101.9	4.0563e-06	4.04e-06	1198	234.4	4.1078e-06	4.1142e-06	290.95	82.583	65.387	19.35	4.1367e-06	26.844	97.853	68.831	273.419	-8.696	94.881	162.605	-8.292	-0.727	137.684	121.266	-1.032	5.382	5.941	12.420	251.220	12.149	-8191	255	
32101.350	1	1	0	0	0.10563	0.17429	0.12989	0.19711	0.097142	0.10065	0.25761	0.23348	0.061266	0.22661	0.13542	0.32048	0.23179	0.17	0.19327	0.28904	-2.5271	-2.7188	-3.3354	-2.8167	-2.8083	-3.3458	-2.7167	-3.2542	-2.8729	-2.6063	-3.3312	-2.7354	-2.9104	-3.2083	-2.3937	-3.2479	246.491	-16.728	29.809	297.654	206.017	48.476	262.236	288.071	304.767	161.303	303.133	-15.911	121.713	275.543	298.887	225.961	0.00022462	0.00070081	0.00014284	1117.5	3.299e-06	4.6278e-06	1210.1	234.69	2.4883e-06	6.0105e-06	293.38	81.473	64.311	19.044	2.6994e-06	26.1	0.00036569	0.00037328	0.00010409	1100.2	4.1673e-06	4.1065e-06	1195.9	234.4	4.1375e-06	4.0859e-06	291.87	82.561	65.258	19.295	3.9488e-06	26.847	94.524	32.502	95.299	-8.537	108.063	122.512	-8.274	-1.037	274.157	149.694	-1.409	5.637	5.673	13.077	193.259	12.427	-8191	255	
32101.469	1	1	0	0	0.17168	0.19519	0.15062	0.34306	0.15144	0.22256	0.19447	0.17812	0.048387	0.077848	0.072615	0.075319	0.10858	0.028599	0.062114	0.18597	-2.6646	-2.4708	-3.1583	-2.8583	-2.7125	-3.4417	-2.7188	-3.1688	-2.9708	-2.5375	-3.2396	-2.7479	-2.6146	-3.2042	-2.8417	-2.8833	127.030	216.613	237.910	-12.976	49.822	154.607	304.919	322.545	20.977	220.260	312.055	300.255	305.664	334.675	59.305	246.007	0.00015459	0.00061123	6.7851e-05	1119.1	5.1666e-07	3.0637e-06	1217.8	234.32	1.4093e-06	1.0992e-06	293.14	81.29	64.834	19.127	5.6305e-06	26.091	0.00035024	0.00035326	9.7508e-05	1100.8	4.026e-06	4.0588e-06	1199.2	234.01	3.9953e-06	3.9825e-06	291.6	82.48	65.264	19.35	3.9914e-06	26.783	120.363	30.238	105.492	-8.566	241.738	179.670	-8.289	-0.792	145.322	1.254	-1.312	5.502	5.904	12.635	186.338	12.256	-8191	255	
32101.564	1	1	0	0	0.28134	0.1524	0.16523	0.36103	0.058612	0.13323	0.30394	0.071164	0.14441	0.15095	0.29007	0.17683	0.095606	0.17734	0.16696	0.043409	-2.7125	-2.3417	-3.1042	-3.0812	-2.55	-3.3458	-2.7333	-3.1542	-3.15	-2.5875	-3.3729	-2.9417	-2.7375	-3.3	-2.7167	-2.9229	241.478	12.012	172.266	245.645	316.055	-15.512	245.742	304.609	279.791	319.294	250.503	50.025	325.853	317.035	201.935	9.859	0.00015202	0.00062024	0.00011966	1117.2	1.4337e-06	4.4607e-06	1214	234.46	3.3559e-06	4.8172e-06	294.55	81.822	64.407	18.849	6.2473e-06	26.301	0.00035133	0.00036594	0.00010133	1100.8	4.0143e-06	3.9633e-06	1197.6	233.72	3.9517e-06	4.0084e-06	291.73	82.545	65.057	19.234	3.9944e-06	26.766	106.803	126.440	23.394	-8.732	167.553	181.766	-8.326	-0.702	122.630	128.546	-1.092	5.593	5.624	13.138	132.652	12.158	-8191	255	
32101.637	1	1	0	0	0.171	0.19809	0.095199	0.10855	0.12457	0.25475	0.2071	0.018619	0.022221	0.09241	0.2975	0.14854	0.088047	0.17981	0.10064	0.17757	-2.9771	-2.4521	-3.1	-3.1437	-2.4021	-3.2625	-2.9729	-3	-3.1729	-2.6896	-3.2	-3.0354	-2.6854	-3.2896	-2.7083	-2.6583	107.667	300.958	102.330	262.423	283.824	327.075	308.920	227.498	120.289	35.847	21.091	311.664	30.512	43.322	113.454	282.445	0.00018111	0.00041738	0.00017625	1126.1	1.8385e-06	6.8359e-06	1215.2	235.32	9.6601e-07	5.8333e-07	292.42	81.857	64.863	18.966	2.5693e-06	26.113	0.00034412	0.00036175	0.00010159	1102.4	4.0047e-06	3.9326e-06	1196.8	233.92	3.9871e-06	4.0856e-06	291.81	82.605	65.237	19.289	4.0253e-06	26.765	82.320	81.419	93.522	-8.457	154.552	113.465	-8.057	-1.002	248.826	150.676	-1.141	5.797	5.832	12.632	119.552	12.493	-8191	255	
32101.758	1	1	0	0	0.17917	0.082643	0.10921	0.127	0.13115	0.16006	0.49945	0.22773	0.3221	0.08743	0.15032	0.24363	0.14437	0.13795	0.10997	0.18965	-2.8979	-2.4292	-3.1104	-3.2812	-2.5771	-3.2667	-2.8979	-2.7771	-3.2896	-2.5146	-3.2438	-3.2458	-2.6604	-3.15	-2.7854	-2.8021	227.253	45.969	135.415	306.027	275.755	111.729	293.693	157.020	278.243	249.856	22.518	281.218	197.791	258.546	23.093	28.067	0.0001291	0.00027482	0.00016157	1120.3	6.0221e-07	2.8058e-06	1218.8	235.77	1.1346e-06	6.4005e-06	293.54	81.963	65.171	18.836	7.2499e-06	26.211	0.00035313	0.00036753	0.00010295	1102.1	4.0627e-06	4.0348e-06	1198.2	234.25	4.0827e-06	4.0878e-06	292.25	82.779	65.468	19.354	4.18e-06	26.77	112.931	81.213	116.930	-8.381	287.861	82.105	-8.299	-0.711	87.881	159.997	-1.077	5.227	5.832	13.121	79.351	12.503	-8191	255	
32101.854	1	1	0	0	0.061122	0.18922	0.074585	0.21771	0.24591	0.20176	0.27373	0.035656	0.26387	0.050623	0.078252	0.17785	0.14828	0.041924	0.18517	0.18214	-2.9667	-2.7687	-2.9562	-3.4292	-2.5167	-3.2125	-3.3208	-2.7625	-3.3688	-2.6729	-2.9083	-3.275	-2.4771	-3.2958	-3.1875	-2.6208	245.679	165.834	16.543	337.250	13.427	70.670	273.240	269.285	7.861	254.792	49.102	339.801	267.866	99.626	240.414	115.485	0.00019961	0.0006075	0.0001567	1120.9	2.4436e-06	2.1736e-06	1215.7	235.72	2.7031e-06	1.421e-06	293.24	81.801	64.185	18.879	1.5695e-06	26.163	0.00036535	0.00038037	0.00010494	1102.1	4.1382e-06	4.1674e-06	1197.7	234.25	4.1171e-06	4.1659e-06	291.99	82.775	65.155	19.307	4.0844e-06	26.766	93.506	68.792	115.516	-8.518	192.951	113.399	-8.268	-0.577	153.049	152.370	-1.068	5.423	5.833	12.635	117.361	12.097	-8191	255	
32101.949	1	1	0	0	0.090743	0.022928	0.29783	0.16735	0.060266	0.22643	0.2025	0.28243	0.26227	0.36074	0.11294	0.28069	0.20575	0.11027	0.25265	0.25361	-2.8083	-2.7708	-2.7458	-3.4479	-2.5333	-3.0667	-3.3333	-2.6188	-3.2687	-2.9	-2.9854	-3.3229	-2.6229	-3.1292	-3.1771	-2.6479	137.668	67.518	283.916	330.700	210.449	318.064	276.188	316.687	59.119	31.312	317.926	272.334	15.850	215.890	305.919	241.827	0.00016603	0.00042911	0.00016756	1122.7	2.8521e-06	2.0239e-06	1215.3	234.78	1.6777e-06	3.2067e-07	291.82	81.926	64.557	18.886	2.104e-06	26.281	0.00035471	0.00036585	9.882e-05	1103.8	3.9442e-06	3.85e-06	1197.3	233.88	3.7368e-06	3.7733e-06	291.6	82.574	65.008	19.263	3.7481e-06	26.729	96.352	43.223	143.072	-8.199	113.719	181.905	-8.121	-0.860	156.237	210.146	-1.199	5.319	5.786	13.141	167.052	12.200	-8191	255	
32102.047	1	1	0	0	0.10708	0.023612	0.23113	0.20685	0.06753	0.17192	0.24289	0.34682	0.17755	0.29867	0.087908	0.095917	0.22015	0.22874	0.026337	0.09214	-3.0208	-2.825	-2.6625	-3.4396	-2.6021	-3.0625	-3.2896	-2.6937	-3.1792	-2.9562	-2.6479	-3.3896	-2.7167	-3.0396	-3.2062	-2.6021	280.780	93.775	155.531	310.162	279.966	283.951	334.924	340.962	92.071	278.600	90.273	205.542	-17.251	264.995	144.621	11.260	0.00015292	0.00041696	5.2519e-05	1121.3	1.8135e-06	2.2427e-06	1215.1	234.6	1.0438e-06	3.242e-06	291.55	81.118	64.453	18.96	4.7063e-06	26.119	0.00032198	0.00034048	9.4458e-05	1101.3	3.6015e-06	3.603e-06	1193.3	233.17	3.544e-06	3.6118e-06	290.14	82.089	64.919	19.238	3.6413e-06	26.648	90.456	107.555	153.338	-8.204	43.832	238.399	-7.907	-0.617	102.071	145.264	-1.410	5.531	5.824	12.842	224.936	12.376	-8191	255	
32102.168	1	1	0	0	0.098868	0.2069	0.031699	0.122	0.035315	0.16711	0.11457	0.14883	0.18261	0.13059	0.10049	0.054197	0.16017	0.18056	0.20777	0.19439	-2.8104	-2.9521	-2.6417	-3.55	-2.8604	-2.8708	-3.3896	-2.4042	-3.0229	-3.0333	-2.5396	-3.4667	-2.7979	-2.8229	-3.1437	-2.6625	88.792	7.575	163.739	329.425	170.210	249.351	304.902	246.557	31.987	64.353	-7.814	150.201	105.509	213.247	34.383	287.307	0.0001869	0.00025895	0.00011434	1118.9	2.4739e-06	4.7858e-06	1211.7	236.67	8.2432e-07	3.464e-06	292.22	81.747	64.548	18.94	4.6239e-06	26.257	0.00032337	0.00032591	8.9759e-05	1096.3	3.6274e-06	3.5147e-06	1191.2	234.03	3.5171e-06	3.5348e-06	290.51	82.131	64.769	19.215	3.4373e-06	26.584	100.973	317.665	77.298	-8.530	142.008	176.048	-8.086	-0.722	252.476	48.954	-1.307	5.717	5.683	13.433	186.602	11.991	-8191	255	
32102.238	1	1	0	0	0.31894	0.14803	0.17632	0.10712	0.40801	0.14883	0.26805	0.23755	0.16892	0.30635	0.122	0.072447	0.36218	0.24561	0.18122	0.34616	-2.6958	-2.9083	-2.4437	-3.3667	-2.7687	-2.6646	-3.6312	-2.6792	-3.0062	-3.1063	-2.7729	-3.3417	-2.8	-2.5667	-3.4313	-2.6333	101.804	22.390	293.581	288.215	155.680	317.598	310.577	-18.403	208.734	299.894	-15.769	56.241	-7.903	282.732	111.452	6.481	8.8203e-05	0.00050295	3.7775e-05	1115.8	4.5532e-06	7.0711e-07	1211	234.62	2.5818e-06	8.0958e-07	293.54	82.422	64.431	18.802	4.9294e-06	26.394	0.00030259	0.0003098	8.636e-05	1094.5	3.4192e-06	3.3854e-06	1192.6	233.15	3.4187e-06	3.423e-06	290.83	82.476	64.98	19.139	3.409e-06	26.704	95.588	101.756	338.950	-8.164	214.314	199.133	-8.126	-0.723	191.696	62.028	-1.248	5.851	6.256	13.396	94.540	12.121	-8191	255	
32102.334	1	1	0	0	0.23605	0.092305	0.11555	0.14333	0.14197	0.22934	0.18583	0.20257	0.17748	0.026199	0.1374	0.1977	0.19002	0.19755	0.15895	0.22905	-2.5917	-3.3125	-2.4667	-3.2458	-2.8979	-2.7771	-3.4458	-2.6646	-2.7	-3.3812	-2.5521	-3.3063	-2.8521	-2.6813	-3.5104	-2.65	167.760	278.318	14.732	31.127	112.450	187.566	-6.764	183.982	106.669	49.004	320.285	104.892	309.633	283.527	215.689	165.093	0.00019092	0.00055776	0.00017476	1120.1	2.1361e-06	4.7351e-06	1215.7	236.24	1.1661e-06	2.7907e-06	292.48	81.446	65.149	18.858	6.3601e-06	26.307	0.00031076	0.00032483	8.7216e-05	1100.9	3.4741e-06	3.5718e-06	1195.9	233.52	3.3997e-06	3.3239e-06	290.97	82.33	65.164	19.213	3.3128e-06	26.597	107.979	45.778	80.578	-7.955	181.603	144.008	-7.978	-0.641	97.695	112.523	-1.035	6.312	6.101	13.447	77.088	12.220	-8191	255	
32102.432	1	1	0	0	0.28886	0.15178	0.06672	0.1312	0.067855	0.35939	0.30773	0.13103	0.21236	0.24524	0.14468	0.48482	0.16482	0.10771	0.16697	0.042758	-2.5062	-3.2687	-2.6167	-3.2583	-2.9667	-2.625	-3.3146	-2.8229	-2.825	-3.2833	-2.5771	-3.0646	-3.0604	-2.4833	-3.2104	-2.7104	137.053	-14.598	337.886	300.875	191.145	325.971	284.836	233.740	166.927	133.816	102.238	326.749	132.812	28.292	170.675	146.999	0.00014138	0.0004294	0.00013951	1123.4	1.9263e-06	3.1737e-06	1218.7	235.39	2.6594e-06	2.6402e-06	293.24	81.652	64.941	18.984	4.561e-06	26.07	0.00030035	0.0002987	8.6539e-05	1102.6	3.4083e-06	3.3449e-06	1197.4	233.04	3.4382e-06	3.3571e-06	290.67	82.212	64.968	19.212	3.3663e-06	26.575	106.138	83.645	71.222	-8.116	102.369	172.240	-7.997	-0.913	191.713	131.962	-1.078	6.339	6.386	13.171	169.653	12.890	-8191	255	
32102.549	1	1	0	0	0.11779	0.015915	0.054279	0.29596	0.30932	0.096414	0.27852	0.1719	0.16173	0.17039	0.27182	0.04252	0.3461	0.043317	0.048395	0.17017	-2.1188	-3.1937	-2.3521	-3.1063	-2.9917	-2.5021	-3.4271	-2.925	-2.6312	-3.2562	-2.5708	-3.075	-3.2042	-2.5062	-3.2146	-2.9125	117.659	65.487	159.952	321.416	327.088	277.207	301.080	213.327	-8.945	211.956	331.032	279.278	286.016	62.058	284.225	14.710	0.00017962	0.00071135	0.00010081	1117.2	1.8462e-06	5.2662e-06	1214.3	235.02	1.5392e-06	2.3341e-06	292.94	81.758	64.319	18.808	7.7362e-06	26.08	0.00030615	0.00030875	8.8504e-05	1099.7	3.4376e-06	3.401e-06	1193.6	232.96	3.4419e-06	3.2605e-06	290.3	82.256	64.766	19.121	3.4046e-06	26.52	76.992	144.270	116.034	-8.002	175.793	155.280	-7.946	-0.503	156.279	78.759	-1.144	6.184	6.090	13.331	161.456	12.653	-8191	255	
32102.646	1	1	0	0	0.15222	0.19458	0.31655	0.26001	0.1878	0.30994	0.13771	0.20139	0.10596	0.1619	0.11223	0.1721	0.2227	0.13563	0.019576	0.18072	-2.2771	-3.2521	-2.6271	-3.2729	-3.2687	-2.6729	-3.4167	-3.0604	-2.6646	-3.2375	-2.7021	-2.7375	-3.1396	-2.4188	-3.3271	-3.2521	133.449	-14.565	340.173	-4.779	106.084	123.009	100.668	269.438	206.156	155.190	322.057	173.211	4.783	-4.228	302.743	30.813	0.00019718	0.00058221	0.00018523	1122.4	4.1914e-06	1.412e-06	1212.8	234.43	1.526e-06	5.4173e-06	292.21	81.634	64.671	19.002	2.0899e-06	26.187	0.00029619	0.00030473	8.5795e-05	1098.7	3.3631e-06	3.2836e-06	1193.5	233.04	3.3354e-06	3.2426e-06	289.89	82.232	64.945	19.241	3.3551e-06	26.604	98.075	37.451	110.143	-8.281	130.278	90.115	-7.781	-0.757	133.067	72.376	-1.055	6.038	6.454	13.066	154.662	12.491	-8191	255	
#DATA ENDS
