BOXY.EXE: ISS Imagent and Oximeter Data Acquisition Program Version 0.80
Ascii Record File

#ACQ INFORMATION
2  Detector Channels 
16  External MUX Channels 
1  Auxiliary Channels 
5000  Waveform (CCF) Frequency (Hz)
1  Waveforms Skipped 
30  Waveforms Averaged 
1  Cycles Averaged 
16  Acquisitions per Waveform 
10.0806  Updata Rate (Hz) 

#FILE INFORMATION
TRUE -- External MUX Channel results are PARSED.
FALSE -- AC DC and Phase are NOT grouped.
TRUE -- Companion Program Settings File CREATED.
FALSE -- AC data not excluded
FALSE -- DC data not excluded
FALSE -- Phase data not excluded
FALSE -- Auxillary Chn. data not excluded
Tab delimiters

#CALIBRATION STATE
TRUE -- Waveform Calibration Values APPLIED.


#AUX CALIBRATION VALUES
Val Type	aux-1	

Term	1.0000e+00	
Factor	0.0000e+00	


#WF CALIBRATION VALUES
A = Detector Channel
Val Type	A-AC1	A-AC2	A-AC3	A-AC4	A-AC5	A-AC6	A-AC7	A-AC8	A-AC9	A-AC10	A-AC11	A-AC12	A-AC13	A-AC14	A-AC15	A-AC16	A-DC1	A-DC2	A-DC3	A-DC4	A-DC5	A-DC6	A-DC7	A-DC8	A-DC9	A-DC10	A-DC11	A-DC12	A-DC13	A-DC14	A-DC15	A-DC16	A-Ph1	A-Ph2	A-Ph3	A-Ph4	A-Ph5	A-Ph6	A-Ph7	A-Ph8	A-Ph9	A-Ph10	A-Ph11	A-Ph12	A-Ph13	A-Ph14	A-Ph15	A-Ph16	

Term	0.00000e+00	0.00000e+00	0.00000e+00	0.00000e+00	0.00000e+00	0.00000e+00	0.00000e+00	0.00000e+00	0.00000e+00	0.00000e+00	0.00000e+00	0.00000e+00	0.00000e+00	0.00000e+00	0.00000e+00	0.00000e+00	0.00000e+00	0.00000e+00	0.00000e+00	0.00000e+00	0.00000e+00	0.00000e+00	0.00000e+00	0.00000e+00	0.00000e+00	0.00000e+00	0.00000e+00	0.00000e+00	0.00000e+00	0.00000e+00	0.00000e+00	0.00000e+00	0.00000e+00	0.00000e+00	0.00000e+00	0.00000e+00	0.00000e+00	0.00000e+00	0.00000e+00	0.00000e+00	0.00000e+00	0.00000e+00	0.00000e+00	0.00000e+00	0.00000e+00	0.00000e+00	0.00000e+00	0.00000e+00	
Factor	1.00000e+00	1.00000e+00	1.00000e+00	1.00000e+00	1.00000e+00	1.00000e+00	1.00000e+00	1.00000e+00	1.00000e+00	1.00000e+00	1.00000e+00	1.00000e+00	1.00000e+00	1.00000e+00	1.00000e+00	1.00000e+00	1.00000e+00	1.00000e+00	1.00000e+00	1.00000e+00	1.00000e+00	1.00000e+00	1.00000e+00	1.00000e+00	1.00000e+00	1.00000e+00	1.00000e+00	1.00000e+00	1.00000e+00	1.00000e+00	1.00000e+00	1.00000e+00	X	X	X	X	X	X	X	X	X	X	X	X	X	X	X	X	

B = Detector Channel
Val Type	B-AC1	B-AC2	B-AC3	B-AC4	B-AC5	B-AC6	B-AC7	B-AC8	B-AC9	B-AC10	B-AC11	B-AC12	B-AC13	B-AC14	B-AC15	B-AC16	B-DC1	B-DC2	B-DC3	B-DC4	B-DC5	B-DC6	B-DC7	B-DC8	B-DC9	B-DC10	B-DC11	B-DC12	B-DC13	B-DC14	B-DC15	B-DC16	B-Ph1	B-Ph2	B-Ph3	B-Ph4	B-Ph5	B-Ph6	B-Ph7	B-Ph8	B-Ph9	B-Ph10	B-Ph11	B-Ph12	B-Ph13	B-Ph14	B-Ph15	B-Ph16	

Term	0.00000e+00	0.00000e+00	0.00000e+00	0.00000e+00	0.00000e+00	0.00000e+00	0.00000e+00	0.00000e+00	0.00000e+00	0.00000e+00	0.00000e+00	0.00000e+00	0.00000e+00	0.00000e+00	0.00000e+00	0.00000e+00	0.00000e+00	0.00000e+00	0.00000e+00	0.00000e+00	0.00000e+00	0.00000e+00	0.00000e+00	0.00000e+00	0.00000e+00	0.00000e+00	0.00000e+00	0.00000e+00	0.00000e+00	0.00000e+00	0.00000e+00	0.00000e+00	-1.65560e+02	-1.26939e+02	-1.30200e+02	-1.83531e+02	-7.95580e+01	-6.23298e+01	-1.55913e+02	-1.62015e+02	-8.00935e+01	-6.99222e+01	-1.69783e+02	-1.70754e+02	-1.79463e+02	-1.76415e+02	-7.83609e+01	-1.49214e+02	
Factor	2.59736e-05	1.59396e-04	3.76247e-05	1.70707e-01	1.04767e-06	1.40068e-06	1.50441e-01	4.85057e-02	9.61463e-07	1.40745e-06	8.22453e-02	2.84523e-02	2.38378e-02	8.71675e-03	1.43886e-06	1.23208e-02	3.02569e-06	3.31224e-06	9.20197e-07	9.14355e-02	3.58392e-08	3.62363e-08	7.61070e-02	2.61631e-02	3.57514e-08	3.62322e-08	4.28669e-02	1.48528e-02	1.29378e-02	4.71403e-03	3.60000e-08	6.45373e-03	X	X	X	X	X	X	X	X	X	X	X	X	X	X	X	X	



#DISTANCE SETTINGS
A = Detector Channel
A-1	A-2	A-3	A-4	A-5	A-6	A-7	A-8	A-9	A-10	A-11	A-12	A-13	A-14	A-15	A-16	

2.5000e+00	3.0000e+00	2.5000e+00	3.0000e+00	2.0000e+00	3.0000e+00	1.5000e+00	3.0000e+00	3.0000e+00	3.0000e+00	3.0000e+00	3.0000e+00	3.0000e+00	3.0000e+00	1.5000e+00	3.0000e+00	

B = Detector Channel
B-1	B-2	B-3	B-4	B-5	B-6	B-7	B-8	B-9	B-10	B-11	B-12	B-13	B-14	B-15	B-16	

1.0000e+01	1.0000e+01	1.0000e+01	1.4400e+00	1.0000e+01	1.0000e+01	1.5100e+00	1.9400e+00	1.0000e+01	1.0000e+01	1.9900e+00	2.4900e+00	2.4100e+00	2.9000e+00	1.0000e+01	2.9800e+00	




#DATA BEGINS
time	group	step	mark	flag	A-AC1	A-AC2	A-AC3	A-AC4	A-AC5	A-AC6	A-AC7	A-AC8	A-AC9	A-AC10	A-AC11	A-AC12	A-AC13	A-AC14	A-AC15	A-AC16	A-DC1	A-DC2	A-DC3	A-DC4	A-DC5	A-DC6	A-DC7	A-DC8	A-DC9	A-DC10	A-DC11	A-DC12	A-DC13	A-DC14	A-DC15	A-DC16	A-Ph1	A-Ph2	A-Ph3	A-Ph4	A-Ph5	A-Ph6	A-Ph7	A-Ph8	A-Ph9	A-Ph10	A-Ph11	A-Ph12	A-Ph13	A-Ph14	A-Ph15	A-Ph16	B-AC1	B-AC2	B-AC3	B-AC4	B-AC5	B-AC6	B-AC7	B-AC8	B-AC9	B-AC10	B-AC11	B-AC12	B-AC13	B-AC14	B-AC15	B-AC16	B-DC1	B-DC2	B-DC3	B-DC4	B-DC5	B-DC6	B-DC7	B-DC8	B-DC9	B-DC10	B-DC11	B-DC12	B-DC13	B-DC14	B-DC15	B-DC16	B-Ph1	B-Ph2	B-Ph3	B-Ph4	B-Ph5	B-Ph6	B-Ph7	B-Ph8	B-Ph9	B-Ph10	B-Ph11	B-Ph12	B-Ph13	B-Ph14	B-Ph15	B-Ph16	aux-1	digaux	

32440.543	1	1	0	256	0.25713	0.13442	0.19776	0.10947	0.13524	0.17923	0.18007	0.38188	0.17344	0.27927	0.28427	0.18213	0.48024	0.26255	0.21567	0.018453	-2.8688	-2.7812	-2.7375	-3.3229	-2.5729	-3.0625	-3.3667	-2.5771	-3.3187	-2.8792	-2.7708	-3.5938	-2.6437	-3.0792	-3.3312	-2.6937	147.847	-31.189	140.796	241.620	106.395	234.257	207.281	260.931	158.154	73.739	-20.695	245.210	286.529	-14.841	-10.381	81.656	0.0004401	0.0020352	0.00022967	750.1	1.299e-05	1.1773e-05	1054	278.38	2.4889e-06	3.0126e-06	412.95	163.97	112.3	46.444	9.5177e-06	71.376	0.0013956	0.0015034	0.00041865	699.89	1.6296e-05	1.6382e-05	963.72	256.93	1.6159e-05	1.6745e-05	380.55	151.27	105.13	43.167	1.6374e-05	65.38	119.870	34.568	11.281	-43.711	22.503	140.912	-43.827	-39.205	158.098	60.028	-40.366	-36.762	-35.349	-30.697	120.920	-33.751	-8191	255	
32440.660	1	1	0	0	0.12061	0.17453	0.20277	0.12392	0.13368	0.18461	0.21631	0.045311	0.22199	0.18965	0.1987	0.30777	0.13712	0.23514	0.04632	0.32821	-2.8646	-2.9792	-2.5687	-3.2833	-2.7708	-2.9958	-3.4188	-2.5708	-3.2375	-3.0521	-2.5792	-3.3583	-2.7938	-2.9479	-3.2687	-2.5667	-44.762	51.900	274.344	219.031	81.204	220.302	294.408	145.360	297.978	288.170	10.910	-55.592	-43.911	259.880	122.766	220.892	0.00027145	0.0016068	0.00050767	747.81	4.2732e-06	1.0461e-05	1053.6	276.81	4.6666e-06	8.1721e-06	411.36	163.49	112.77	46.475	2.8869e-06	70.773	0.0013902	0.0015205	0.00041057	696.56	1.622e-05	1.6426e-05	959.79	256	1.6515e-05	1.6672e-05	379.52	150.89	105.35	43.306	1.628e-05	65.35	114.043	71.900	33.044	-44.024	77.921	68.646	-44.168	-39.096	171.174	102.263	-40.099	-37.354	-34.832	-30.807	-35.048	-34.087	-8191	255	
32440.758	1	1	0	0	0.030877	0.3584	0.24372	0.13181	0.16883	0.13509	0.30177	0.29504	0.15983	0.061866	0.16676	0.20088	0.16477	0.23397	0.11382	0.1586	-2.8146	-2.9042	-2.3958	-3.4979	-2.7438	-2.7562	-3.4271	-2.6146	-3.075	-3.1458	-2.7188	-3.3771	-2.9167	-2.6437	-3.275	-2.5687	281.885	101.749	175.269	-13.206	-6.616	65.569	249.752	31.937	64.176	158.045	164.037	284.225	234.566	296.942	243.549	281.456	4.0887e-05	0.0012719	8.721e-05	750.23	6.1252e-06	7.2935e-06	1049	280.18	6.8771e-06	5.7679e-06	415.59	165	114.59	47.753	3.4015e-06	72.371	0.0014313	0.0014915	0.00041413	700.1	1.6319e-05	1.6396e-05	959.56	258.01	1.6047e-05	1.6334e-05	381.89	151.81	106.92	44.027	1.5598e-05	66.349	23.438	5.961	274.573	-43.736	50.230	107.007	-43.764	-39.056	162.841	231.830	-40.889	-37.388	-34.798	-31.261	-4.803	-33.724	-8191	255	
32440.854	1	1	0	0	0.13953	0.12926	0.15755	0.18074	0.21516	0.050896	0.12653	0.31841	0.087342	0.10837	0.19392	0.31411	0.10574	0.094857	0.13198	0.18462	-2.5354	-3.0958	-2.5125	-3.4208	-3.0354	-2.6458	-3.3854	-2.6312	-2.8042	-3.2417	-2.7521	-3.3979	-3.0292	-2.4646	-3.3271	-2.8271	-16.226	223.177	235.807	269.659	-21.288	27.689	178.925	211.226	143.794	145.726	272.954	298.305	-54.727	0.220	56.768	-10.209	0.00031438	0.0019637	7.7729e-05	755.86	4.2963e-06	1.0286e-05	1057.5	283.24	2.929e-06	8.2393e-06	421.13	168.31	116.39	48.161	1.132e-05	73.477	0.0013795	0.0014637	0.00038975	704.85	1.5848e-05	1.5561e-05	965.64	260.73	1.5646e-05	1.5707e-05	385.95	154.57	108.1	44.646	1.5595e-05	67.546	120.711	21.596	13.872	-43.563	68.441	141.946	-44.145	-39.250	-1.173	164.729	-40.868	-36.888	-35.149	-31.006	56.961	-33.823	-8191	255	
32440.949	1	1	0	0	0.22701	0.023745	0.12456	0.19099	0.033581	0.14285	0.13178	0.26381	0.096773	0.073605	0.25162	0.11238	0.12634	0.074016	0.13009	0.16273	-2.3937	-3.1917	-2.5021	-3.2479	-2.8833	-2.5292	-3.4729	-2.7896	-2.7854	-3.2917	-2.5271	-3.2729	-2.9646	-2.5979	-3.1813	-2.7417	-44.950	-41.820	105.485	266.445	141.419	183.081	264.564	300.190	299.128	-2.409	-4.970	255.995	197.949	-11.904	112.675	294.338	8.9904e-05	0.0023409	0.00013965	764.45	6.4223e-06	4.4751e-06	1059.2	283.27	2.9832e-06	1.2635e-05	417.67	167.56	116.04	48.527	1.071e-05	73.291	0.0013649	0.0014288	0.00040295	706.52	1.5975e-05	1.584e-05	968.84	261.21	1.5875e-05	1.5957e-05	385.32	154.13	107.69	44.751	1.5745e-05	67.305	69.001	23.935	-0.191	-43.525	-7.813	124.749	-44.038	-38.998	61.948	140.733	-40.315	-37.235	-35.020	-30.961	80.921	-33.599	-8191	255	
32441.070	1	1	0	0	0.09325	0.20181	0.060662	0.18319	0.16629	0.12066	0.31354	0.15119	0.098267	0.099506	0.069323	0.20748	0.35354	0.34825	0.2318	0.09783	-2.3917	-3.3812	-2.6375	-3.1792	-3.0542	-2.5979	-3.2646	-3.0354	-2.5146	-3.2562	-2.6521	-3.0708	-3.1688	-2.5271	-3.2125	-2.9708	32.427	-29.589	200.787	-47.702	255.299	177.984	249.399	301.348	133.625	-55.319	-51.882	254.689	293.228	302.424	165.296	281.740	0.00021307	0.00060352	0.0002047	753.63	1.4362e-06	2.2959e-06	1049.7	279.88	5.4011e-06	2.7225e-06	415.17	166.43	115.19	48.023	1.7841e-05	72.509	0.0013708	0.0014149	0.00040656	699.91	1.5702e-05	1.5353e-05	959.59	258.66	1.549e-05	1.5426e-05	382.6	153.11	107.11	44.423	1.5433e-05	66.889	115.074	233.246	136.057	-43.757	74.437	20.629	-43.813	-39.009	55.081	65.817	-40.512	-36.605	-35.378	-31.164	67.332	-33.114	-8191	255	
32441.143	1	1	0	0	0.16852	0.083692	0.076249	0.15226	0.14166	0.12313	0.13022	0.14962	0.15993	0.059156	0.077149	0.1516	0.16102	0.22625	0.02908	0.17706	-2.1208	-3.4521	-2.7104	-3.0438	-3.3354	-2.6229	-3.3771	-3.0708	-2.6854	-3.3042	-2.6458	-3.05	-3.3458	-2.5875	-3.0771	-3.1917	244.716	295.131	135.437	245.114	-11.913	93.644	244.926	254.538	220.718	105.597	271.565	272.093	229.807	273.300	140.338	226.353	0.00012787	0.00066414	0.00037796	756.37	1.5933e-06	1.1192e-05	1050.4	282.29	4.5683e-06	5.8894e-06	415.62	166.63	114.61	48.054	1.1571e-05	72.744	0.0013673	0.0014428	0.00040472	701.88	1.5791e-05	1.5924e-05	963.18	259.58	1.5586e-05	1.5739e-05	383.29	153.52	107.01	44.384	1.5776e-05	67.152	242.992	13.948	48.835	-43.234	231.246	74.642	-43.821	-39.207	56.972	102.341	-40.338	-37.341	-35.162	-31.535	155.364	-33.819	-8191	255	
32441.262	1	1	0	0	0.073405	0.087453	0.1806	0.12338	0.065348	0.16547	0.16839	0.20413	0.15106	0.16891	0.6212	0.2763	0.16756	0.073496	0.45127	0.12776	-2.2313	-3.3083	-2.6063	-2.8417	-3.3563	-2.5333	-3.0938	-3.1229	-2.5854	-3.3854	-2.5646	-2.725	-3.2896	-2.75	-3.075	-3.0792	261.840	160.677	111.237	154.795	-27.054	112.348	254.399	227.320	2.868	299.607	266.084	264.050	285.644	259.479	252.750	285.542	0.00023884	0.0011329	0.0001127	752.43	8.8906e-06	5.694e-06	1064.3	282.51	1.1403e-05	7.8823e-06	419.51	167.73	116.22	48.536	1.5252e-05	73.871	0.0013537	0.001448	0.00040788	701.57	1.5403e-05	1.5778e-05	968.68	260.39	1.5489e-05	1.5672e-05	386.31	154.59	107.79	44.64	1.5656e-05	67.679	165.099	45.455	-49.973	-43.587	135.903	171.355	-43.826	-39.134	85.812	80.498	-40.639	-36.912	-35.119	-31.443	69.931	-34.152	-8191	255	
32441.357	1	1	0	0	0.2586	0.044506	0.018107	0.31132	0.028615	0.28409	0.16496	0.14303	0.40663	0.018979	0.18667	0.065154	0.10902	0.19131	0.04818	0.32001	-1.875	-3.3104	-2.7792	-2.7438	-3.4542	-2.425	-3.1729	-3.2375	-2.4979	-3.3229	-2.7771	-2.7333	-3.4021	-2.7542	-2.9167	-3.2542	-49.968	26.265	-33.018	-45.253	-34.139	-18.158	164.842	203.305	11.423	210.534	38.047	145.949	255.466	269.503	86.291	278.885	9.308e-05	0.0011262	0.00013257	761.4	5.3573e-06	4.9223e-06	1058.2	282.61	3.6602e-06	3.8403e-06	417.21	167.88	115.81	48.664	7.5544e-06	73.84	0.0013442	0.0014276	0.00040583	705.07	1.5403e-05	1.6014e-05	968.41	260.64	1.5472e-05	1.5789e-05	385.92	155.03	107.65	44.788	1.552e-05	67.765	174.965	236.809	46.824	-43.492	92.082	298.733	-43.776	-39.314	158.247	155.912	-40.425	-36.957	-34.794	-31.572	92.152	-34.001	-8191	255	
32441.455	1	1	0	0	0.051327	0.26481	0.1667	0.43833	0.16538	0.068682	0.24666	0.12313	0.19039	0.10887	0.35219	0.072456	0.19421	0.098641	0.16267	0.2875	-2.2313	-3.3563	-2.9125	-2.8292	-3.075	-2.6104	-3.125	-3.1896	-2.525	-3.2458	-2.9917	-2.7854	-3.375	-2.8625	-2.7833	-3.2167	-33.284	247.507	222.361	275.782	54.253	-4.707	250.532	229.988	-47.162	-5.935	256.571	4.057	266.756	145.198	-47.854	217.299	0.00013084	0.0017696	0.00011161	753.56	1.9505e-06	1.0613e-05	1065.1	283.03	1.7824e-06	7.2927e-06	422.26	168.46	116.27	48.334	1.5831e-05	74.222	0.0013189	0.0014339	0.00040136	700.98	1.5069e-05	1.5554e-05	969.39	260.12	1.504e-05	1.5641e-05	387.8	154.75	107.62	44.764	1.5438e-05	67.901	71.038	-50.246	21.161	-43.445	133.657	127.135	-44.169	-39.207	174.585	122.410	-40.281	-37.114	-34.841	-31.573	38.391	-33.415	-8191	255	
32441.551	1	1	0	0	0.051866	0.034999	0.19858	0.54984	0.27019	0.27293	0.13522	0.18001	0.15371	0.30812	0.18047	0.072996	0.11771	0.25758	0.11756	0.33995	-2.0792	-3.2125	-3.1604	-2.7313	-3.3417	-2.7854	-2.8812	-3.4479	-2.6	-3.0938	-3.1542	-2.4437	-3.075	-2.7083	-2.6125	-3.2083	298.111	252.988	110.172	246.180	36.396	77.624	260.646	286.319	153.463	-22.607	186.828	-50.088	152.605	-16.191	15.959	233.357	0.00019222	0.0017016	7.9988e-06	752.49	5.4932e-06	8.8167e-06	1062.6	282.77	4.555e-06	1.9189e-05	420.41	168.27	116.03	48.406	6.7575e-06	74.34	0.0013326	0.0014198	0.00039747	698.58	1.5299e-05	1.5734e-05	966.99	259.94	1.519e-05	1.5756e-05	387.36	154.98	107.99	44.721	1.5115e-05	68.12	157.025	0.539	138.585	-43.453	28.028	32.682	-43.895	-39.275	105.136	79.623	-40.917	-37.004	-34.876	-30.991	7.603	-33.623	-8191	255	
32441.670	1	1	0	0	0.06407	0.17798	0.086078	0.20118	0.15456	0.19924	0.21439	0.26333	0.22626	0.12494	0.051993	0.21322	0.2827	0.25207	0.069463	0.19605	-2.1	-2.9875	-3.075	-2.6896	-3.3563	-3.0292	-2.7292	-3.4604	-2.6104	-3.075	-3.325	-2.5729	-3.3021	-3.0938	-2.4146	-3.5646	-18.347	207.579	-34.305	298.098	141.878	255.278	272.388	208.598	124.714	243.238	-15.330	293.852	252.124	-17.951	172.181	145.026	0.00028613	0.0011196	0.00038999	756.17	7.5643e-06	9.0578e-06	1068.2	283.54	2.2309e-06	1.0458e-05	421.92	171.52	116.43	48.47	5.3587e-06	75.002	0.0013732	0.0014064	0.00038893	699.17	1.5213e-05	1.5482e-05	971.61	260.39	1.5397e-05	1.5515e-05	389.27	156.76	108.46	44.861	1.4987e-05	68.609	135.844	-24.285	51.314	-43.517	195.787	16.142	-43.461	-38.702	18.612	115.896	-40.452	-36.999	-35.289	-31.601	70.722	-33.227	-8191	255	
32441.740	1	1	0	0	0.31669	0.087071	0.23852	0.03538	0.18308	0.32751	0.33245	0.12558	0.45692	0.015082	0.18816	0.10612	0.11724	0.22124	0.28154	0.1863	-2.3854	-2.8729	-3.3208	-2.5438	-3.1708	-3.0104	-2.8896	-3.3167	-2.8229	-2.8187	-3.1979	-2.6083	-3.2021	-2.9708	-2.4667	-3.3521	42.997	81.078	99.801	35.001	2.353	291.737	220.310	26.759	63.753	41.520	140.402	21.827	182.754	268.992	294.635	182.188	0.0003281	0.00044789	0.00021489	762.4	4.6954e-06	7.2079e-06	1078.7	286.64	4.3686e-06	7.8711e-06	426.01	171.02	116.17	48.934	3.4875e-06	74.667	0.0013256	0.0013946	0.0003826	705.93	1.5193e-05	1.5245e-05	978.25	262.96	1.5161e-05	1.5463e-05	391.71	156.77	108.72	45.165	1.5154e-05	68.694	95.966	87.542	-20.035	-43.342	14.108	87.230	-44.371	-39.262	251.334	40.885	-40.343	-37.283	-34.612	-31.369	103.224	-33.591	-8191	255	
32441.838	1	1	0	0	0.13752	0.12624	0.23023	0.38429	0.25606	0.088922	0.18214	0.36455	0.28684	0.091468	0.073749	0.28297	0.058931	0.3129	0.087048	0.15625	-2.0833	-2.725	-3.0771	-2.6813	-3.0167	-2.9333	-2.5875	-3.2396	-2.85	-2.8854	-3.2333	-2.5	-3.0333	-3.0542	-2.4104	-3.4146	289.546	203.477	222.357	274.428	109.462	117.032	207.017	252.499	34.769	282.169	182.910	277.369	254.586	211.200	228.561	173.790	0.0002209	0.0023799	0.00025529	760.51	1.6309e-06	6.0308e-06	1075.7	286.59	5.6092e-06	6.2457e-06	427.59	170.99	117.52	49.11	1.2292e-05	75.084	0.001339	0.0014137	0.00038646	705.58	1.5125e-05	1.5398e-05	978.43	263.17	1.5303e-05	1.5185e-05	390.9	156.75	109.04	45.189	1.5206e-05	68.789	98.972	3.783	125.331	-43.744	129.090	63.698	-43.934	-38.968	109.796	160.978	-40.566	-37.341	-34.917	-31.024	93.091	-33.816	-8191	255	
32441.957	1	1	0	0	0.075782	0.081093	0.14117	0.10904	0.27165	0.24485	0.0641	0.13303	0.13566	0.37565	0.14621	0.25118	0.15344	0.19142	0.074954	0.14354	-2.2646	-2.7083	-3.3542	-2.725	-2.8563	-3.1	-2.7146	-3.2333	-2.6937	-2.7229	-3.6229	-2.7146	-3.0542	-3.3812	-2.5125	-3.3833	206.031	185.320	81.062	116.965	253.226	256.001	11.063	272.096	208.486	159.289	293.587	233.157	244.754	255.492	295.766	224.714	0.00035093	0.00077744	0.00027226	765.23	1.0066e-05	5.1973e-06	1078.7	287.06	5.0372e-06	6.8851e-06	427.74	170.98	117.67	49.53	1.1866e-05	75.181	0.001323	0.0013842	0.00038373	708.01	1.4913e-05	1.5069e-05	981.89	264.18	1.4925e-05	1.5007e-05	392.18	157.6	109.64	45.457	1.515e-05	68.835	149.839	-40.272	9.967	-43.756	45.848	13.586	-44.006	-39.074	206.164	155.205	-40.470	-37.245	-35.289	-31.536	118.929	-33.872	-8191	255	
32442.055	1	1	0	0	0.11086	0.10325	0.016711	0.40333	0.088296	0.06573	0.069395	0.21605	0.27005	0.11512	0.23443	0.1459	0.22232	0.15848	0.11635	0.1355	-2.5729	-2.5312	-3.1688	-2.7583	-2.6875	-3.0979	-2.5875	-3.3187	-3.0708	-2.4708	-3.4083	-2.7458	-2.8667	-3.3875	-2.5542	-3.2521	-13.602	222.560	-18.137	291.887	101.708	288.320	231.539	300.371	-47.463	-24.458	230.899	80.485	246.785	161.479	98.724	208.337	0.00043048	0.00071044	0.00023529	759.78	5.7982e-06	4.6416e-06	1075.8	287.77	9.6445e-06	1.0195e-05	428.52	171.52	118.53	49.659	3.8353e-06	75.335	0.0013286	0.001394	0.00038365	707.53	1.4939e-05	1.4963e-05	980.68	265.16	1.5139e-05	1.5058e-05	392.99	157.9	109.56	45.512	1.5263e-05	69.139	88.809	36.872	4.107	-43.808	-35.544	184.536	-44.055	-38.953	19.240	-10.597	-40.845	-36.962	-35.030	-31.472	58.200	-33.559	-8191	255	
32442.150	1	1	0	0	0.23145	0.20557	0.19052	0.16536	0.093053	0.17303	0.15188	0.21205	0.068479	0.046395	0.16502	0.17032	0.22321	0.22741	0.26087	0.30136	-2.8625	-2.6042	-3.1688	-2.8125	-2.7542	-3.2875	-2.7271	-3.1813	-3.15	-2.475	-3.2375	-2.9813	-2.7458	-3.3979	-2.625	-2.9708	186.713	283.665	212.030	255.878	40.607	-28.903	278.799	16.345	128.601	179.794	238.604	281.294	254.702	239.958	229.684	297.650	0.00039552	0.00076213	0.00032737	761.07	2.2657e-06	9.9944e-06	1075.1	287.7	7.378e-06	6.4475e-06	427.43	171.23	116.61	49.274	5.5764e-06	75.722	0.0013167	0.0014014	0.00038306	707.17	1.5243e-05	1.5217e-05	980.73	264.18	1.4782e-05	1.5193e-05	392.99	157.67	109.05	45.405	1.5165e-05	68.957	103.588	-32.043	1.806	-43.620	10.215	8.808	-44.028	-39.168	94.243	84.887	-40.780	-37.314	-35.066	-31.424	169.864	-33.764	-8191	255	
32442.246	1	1	0	0	0.23313	0.10733	0.1769	0.24281	0.27791	0.16306	0.27351	0.13514	0.13251	0.24293	0.31757	0.097179	0.058092	0.086728	0.20939	0.19484	-2.6958	-2.6063	-3.1292	-2.9417	-2.6792	-3.1542	-2.8438	-3.0354	-3.1	-2.5083	-3.3917	-3.0833	-2.7438	-3.4188	-2.5875	-2.7167	11.310	217.337	-55.401	267.627	-31.127	202.265	-55.542	184.112	212.119	225.127	276.261	230.826	-22.400	-54.074	184.222	-47.695	0.00025416	0.0012912	0.00025243	761.9	6.367e-06	7.8823e-06	1081.1	288.64	3.9641e-06	1.1816e-05	428.61	173.15	118.17	49.783	9.3272e-06	75.178	0.0013018	0.0013887	0.00038341	708.83	1.4842e-05	1.5264e-05	979.39	264.43	1.476e-05	1.5173e-05	393.87	158.59	109.72	45.655	1.5276e-05	69.012	109.817	26.789	24.415	-43.873	61.970	126.374	-44.063	-38.891	26.727	94.299	-40.602	-37.348	-35.107	-31.477	-21.509	-33.477	-8191	255	
32442.344	1	1	0	0	0.10668	0.059016	0.18717	0.16568	0.14361	0.042405	0.27759	0.078817	0.21698	0.15124	0.025024	0.3591	0.24533	0.079096	0.13525	0.45503	-2.625	-2.4521	-3.0687	-3.0042	-2.5792	-3.1958	-2.7417	-2.7375	-3.2417	-2.4292	-3.225	-3.2458	-2.5833	-3.1813	-2.7375	-2.6667	240.651	179.462	191.964	272.431	226.376	7.247	282.101	169.967	-34.940	192.315	180.332	263.809	226.260	287.786	279.893	298.475	6.6387e-05	0.00068817	0.00021147	768.84	8.7376e-06	2.93e-06	1069.9	287.02	5.5547e-06	5.9054e-06	429.5	171.26	119.04	50.073	8.8746e-06	75.888	0.0012948	0.0013848	0.00039073	707.5	1.4995e-05	1.5535e-05	979.22	264.45	1.5067e-05	1.5372e-05	393.7	158.11	110.37	45.896	1.5598e-05	69.351	130.207	189.263	122.301	-43.269	74.675	198.430	-43.806	-39.029	231.428	249.546	-40.258	-37.242	-34.794	-31.105	36.452	-33.553	-8191	255	
32442.439	1	1	0	0	0.17532	0.13324	0.26683	0.1253	0.11925	0.097805	0.091467	0.18945	0.26646	0.22293	0.15667	0.11913	0.098229	0.36561	0.047003	0.17992	-3.0646	-2.375	-2.9542	-3.1542	-2.5917	-3.1375	-2.9625	-2.6562	-3.2646	-2.5812	-3.0062	-3.1604	-2.7479	-3.2375	-2.7792	-2.6771	289.450	10.741	220.318	-30.985	162.653	-24.765	217.375	-51.671	268.714	4.655	56.859	-1.410	280.690	197.545	180.576	253.437	0.00044172	0.00081912	0.00019418	768.05	5.6069e-06	1.3986e-05	1078.1	288.58	8.7081e-07	2.7107e-06	432.78	172.6	118.91	49.989	5.5647e-06	75.685	0.0013355	0.0014253	0.00039031	710.17	1.5336e-05	1.5701e-05	981.31	265.29	1.5238e-05	1.5372e-05	395.89	158.8	110.2	46.129	1.5478e-05	69.348	107.434	-19.918	-30.812	-43.235	86.896	117.906	-44.084	-39.048	-45.497	242.928	-40.489	-37.434	-35.151	-31.342	91.146	-33.321	-8191	255	
32442.535	1	1	0	0	0.22061	0.1191	0.16738	0.13366	0.11919	0.11095	0.1704	0.12169	0.11246	0.17222	0.19878	0.18343	0.29008	0.37122	0.14275	0.10657	-2.9125	-2.5792	-2.8438	-3.3083	-2.6479	-3.1	-3.1021	-2.6562	-3.2729	-2.7625	-2.925	-3.2229	-2.5187	-3.2458	-2.975	-2.6667	67.546	172.337	-47.120	34.337	100.528	-32.085	180.621	298.430	138.388	198.220	277.430	300.918	213.135	254.930	163.632	278.535	0.0002469	0.0011716	4.5278e-05	759.26	5.0371e-06	1.4398e-05	1082.5	287.69	3.5082e-06	9.3573e-06	428.45	171.24	118.51	49.513	1.9595e-05	75.348	0.0013109	0.0014326	0.00039821	707.87	1.5201e-05	1.5458e-05	982.4	265.13	1.5177e-05	1.5754e-05	392.94	157.84	110.32	45.79	1.5281e-05	69.174	90.181	-39.343	84.453	-43.586	125.875	51.738	-44.205	-39.113	127.829	76.804	-40.565	-37.395	-35.405	-31.418	61.496	-33.648	-8191	255	
32442.631	1	1	0	0	0.23692	0.059583	0.13325	0.19561	0.42642	0.062356	0.17761	0.22502	0.035757	0.17843	0.27265	0.17916	0.14817	0.18235	0.13896	0.20375	-2.9479	-2.7333	-3.075	-3.2333	-2.4646	-3.2042	-3.1063	-2.5	-3.275	-2.6458	-2.7	-3.1646	-2.7083	-3.1708	-3.0208	-2.3438	8.480	-51.641	302.713	193.028	40.904	228.413	245.590	171.952	-5.099	209.480	289.771	-28.689	-6.569	-43.399	76.450	238.701	0.00037756	0.0014759	0.00026725	763.17	5.4629e-06	7.7031e-06	1073.2	288.62	7.6494e-06	7.5333e-06	428.08	171.93	118.87	49.707	6.6559e-06	75.892	0.0013205	0.0014209	0.00038338	707.27	1.5337e-05	1.5172e-05	977.33	264.95	1.5495e-05	1.5377e-05	392.27	157.72	110.06	45.94	1.5133e-05	69.449	126.506	75.627	71.404	-44.054	67.601	161.257	-43.849	-38.933	134.442	107.934	-40.478	-37.156	-35.133	-30.948	102.066	-33.634	-8191	255	
32442.750	1	1	0	0	0.29242	0.23509	0.15832	0.0977	0.15689	0.1152	0.19602	0.058653	0.15911	0.10713	0.15662	0.28236	0.25992	0.11088	0.064929	0.34471	-2.7646	-2.7562	-2.6688	-3.4042	-2.6625	-2.9813	-3.3187	-2.5479	-3.2208	-2.9458	-2.7354	-3.45	-2.8542	-3.2812	-3.1354	-2.6667	138.139	301.886	68.534	202.610	163.233	55.961	231.599	272.731	110.119	51.061	248.866	190.937	280.557	250.609	-54.067	241.342	0.00019426	0.00054868	7.2798e-05	760.56	5.5114e-06	4.7392e-06	1072.4	289.96	5.4739e-06	9.7943e-06	425	172.89	119.07	50.317	1.519e-05	75.62	0.0013292	0.0013975	0.00038909	707.54	1.5264e-05	1.5133e-05	980.62	265.22	1.516e-05	1.515e-05	392.5	157.96	110.39	46.039	1.5155e-05	69.448	113.007	34.414	61.495	-43.431	153.778	213.852	-44.036	-39.277	73.043	249.572	-40.421	-37.560	-35.201	-31.450	74.912	-33.562	-8191	255	
32442.846	1	1	0	0	0.073302	0.024675	0.067996	0.14352	0.05367	0.35522	0.15383	0.24095	0.072891	0.21414	0.22378	0.22831	0.23139	0.16917	0.1015	0.20348	-2.7729	-2.9042	-2.5146	-3.3792	-2.625	-2.7396	-3.2479	-2.6229	-3.0271	-2.9583	-2.7708	-3.3208	-2.8396	-2.8771	-3.2292	-2.7521	261.676	-36.722	195.149	263.493	132.001	84.197	208.595	255.763	277.996	229.480	284.594	208.306	270.874	248.631	204.111	301.928	0.00017179	0.0012065	0.00030755	763.26	9.1776e-06	7.4169e-06	1074.5	289.04	3.2837e-06	1.3301e-05	429.34	172.65	119.45	50.391	7.2038e-06	76.442	0.0013116	0.0013954	0.00037711	707.05	1.5319e-05	1.4733e-05	981.61	264.96	1.4759e-05	1.496e-05	394.43	158.75	110.6	46.243	1.4973e-05	70.143	-0.219	-22.851	66.662	-43.500	90.171	55.890	-43.844	-39.151	200.393	75.280	-40.498	-36.962	-35.041	-31.207	83.052	-33.802	-8191	255	
32442.941	1	1	0	0	0.10561	0.2455	0.29907	0.12005	0.028627	0.1943	0.20821	0.08861	0.2065	0.16795	0.37381	0.1168	0.063007	0.2898	0.051615	0.26376	-2.6167	-3.0458	-2.4062	-3.3812	-2.7125	-2.8042	-3.425	-2.6021	-3.025	-3.1083	-2.3917	-3.2875	-2.8375	-2.7042	-3.2271	-2.8167	-13.607	17.886	99.483	136.519	247.176	56.754	220.578	256.343	-28.129	57.315	299.445	222.880	292.321	272.705	-16.723	293.696	0.00042778	0.00095339	0.00031208	765.87	7.7068e-06	4.1147e-06	1079.1	287.34	7.8543e-06	7.8314e-06	429.64	172.98	119.87	50.137	1.2995e-05	76.163	0.0012843	0.0013641	0.00037762	710.82	1.505e-05	1.4913e-05	983.1	264.78	1.4638e-05	1.4981e-05	394.98	158.59	110.73	46.093	1.4857e-05	69.794	103.565	1.575	47.153	-43.842	79.242	255.402	-43.769	-38.751	-2.831	89.754	-40.641	-36.946	-35.208	-31.589	-27.245	-33.917	-8191	255	
32443.037	1	1	0	0	0.13236	0.19134	0.2987	0.24948	0.13037	0.26482	0.20112	0.2854	0.094556	0.25493	0.12554	0.088812	0.072445	0.20175	0.091479	0.15116	-2.425	-3.0083	-2.3917	-3.2083	-2.6354	-2.6063	-3.4979	-2.8292	-3.025	-3.1437	-2.5917	-3.3708	-2.9875	-2.6917	-3.1958	-2.6542	95.814	208.713	216.807	291.194	29.398	246.702	200.378	249.400	-52.462	-4.933	-13.211	295.216	-12.782	272.629	68.410	222.238	0.0002232	0.00015339	0.00017428	768.01	1.0214e-05	2.6794e-06	1074.6	289.74	2.6311e-06	7.8601e-06	427.34	171.9	118.83	50.254	1.0496e-05	75.959	0.0012764	0.0013502	0.00038077	709.96	1.4813e-05	1.5045e-05	981.42	265.64	1.465e-05	1.5196e-05	394.31	158.02	110.45	46.219	1.5197e-05	69.752	126.086	298.756	1.115	-43.398	82.822	252.535	-44.230	-39.132	216.486	127.522	-40.704	-36.831	-35.357	-31.402	-21.304	-33.570	-8191	255	
32443.133	1	1	0	0	0.038538	0.13074	0.24625	0.233	0.041598	0.4003	0.2048	0.25464	0.13549	0.27331	0.088127	0.031676	0.1014	0.26275	0.18318	0.098489	-2.3708	-3.0229	-2.525	-3.15	-2.8375	-2.5479	-3.2812	-2.6583	-2.8312	-3.1312	-2.4458	-3.2771	-3.1354	-2.5542	-3.4521	-2.9167	79.453	33.753	13.541	268.785	100.356	57.990	-45.726	194.182	207.940	-46.665	27.943	34.929	232.733	287.649	164.294	238.046	0.0002896	0.00044387	0.00027537	776.15	8.493e-06	6.7907e-06	1080.2	289.85	8.1486e-06	1.4518e-05	428.51	172.47	119.59	50.467	1.8255e-05	75.782	0.0012763	0.0013635	0.00038235	711.94	1.4915e-05	1.506e-05	984.64	265.76	1.4672e-05	1.4858e-05	393.62	158.66	110.88	46.186	1.4791e-05	69.764	130.896	40.800	-12.525	-43.324	160.269	115.092	-44.087	-39.308	160.314	176.184	-41.025	-36.919	-35.221	-31.338	69.027	-34.022	-8191	255	
32443.254	1	1	0	0	0.10262	0.096314	0.10392	0.1738	0.086612	0.087176	0.25666	0.072992	0.36088	0.12085	0.10205	0.35038	0.095063	0.092268	0.09312	0.33033	-2.3479	-3.3146	-2.4521	-3.2687	-3.0771	-2.725	-3.525	-2.9188	-2.6917	-3.4604	-2.6875	-3.2562	-3.3708	-2.6042	-3.3333	-2.975	281.277	47.076	82.602	297.742	166.296	-31.393	270.201	24.379	-32.610	227.186	-20.636	236.126	106.568	23.800	97.608	226.853	0.00011632	0.001229	0.00031567	767.61	1.0189e-05	3.2447e-06	1078.6	289.64	2.7873e-06	1.4083e-05	433.46	172.94	120.62	50.492	1.0505e-05	76.583	0.0012781	0.0013655	0.00037998	711.43	1.4687e-05	1.4948e-05	984.6	266.53	1.4545e-05	1.4587e-05	395.98	158.77	111.48	46.466	1.4802e-05	70.095	155.294	-1.107	-8.583	-43.448	89.863	41.250	-43.825	-39.082	56.846	91.563	-40.377	-37.128	-35.065	-31.592	-2.754	-33.810	-8191	255	
32443.350	1	1	0	0	0.12082	0.22605	0.12423	0.23025	0.056074	0.3245	0.27114	0.18714	0.093126	0.2152	0.099203	0.12336	0.20005	0.17193	0.22489	0.16952	-2.1333	-3.3937	-2.6896	-3.0271	-3.1562	-2.5708	-3.3542	-3.0354	-2.6813	-3.6146	-2.6979	-3.1063	-3.3146	-2.6875	-3.0521	-2.9417	294.854	150.202	-12.662	265.952	78.902	114.941	236.801	-20.549	169.003	229.937	210.040	-12.434	39.779	259.878	-32.791	-40.695	0.00016091	0.001006	9.9647e-05	775.24	9.9965e-06	4.3422e-06	1081.9	288.79	8.1119e-06	1.0517e-05	425.66	172.13	119.38	50.072	7.2378e-06	75.856	0.0012591	0.0013471	0.00038286	713.21	1.4549e-05	1.4899e-05	982.75	265.72	1.4572e-05	1.4737e-05	391.85	157.95	110.93	46.171	1.4787e-05	69.437	157.680	290.729	179.329	-43.505	70.759	-15.970	-43.961	-39.335	85.920	61.177	-40.607	-36.943	-35.184	-31.396	94.773	-34.039	-8191	255	
32443.445	1	1	0	0	0.30003	0.058872	0.19768	0.34503	0.099001	0.21888	0.027021	0.24516	0.072178	0.2266	0.063207	0.19996	0.35112	0.34059	0.046704	0.044352	-2.1188	-3.3438	-2.6042	-2.8354	-3.3417	-2.5292	-3.2313	-3.25	-2.3354	-3.2938	-2.7979	-2.8021	-3.4313	-2.6312	-3.0125	-3.1021	-52.707	112.599	14.175	232.075	126.830	59.904	297.895	222.860	287.562	89.219	48.011	2.135	295.182	263.952	214.145	192.539	0.00015274	0.00075208	8.4069e-05	763.87	1.1938e-05	3.4589e-06	1067	286.58	2.3302e-06	7.7702e-06	428.28	171.32	120.03	50.08	5.9675e-06	76.163	0.0012804	0.0013737	0.00038312	707.55	1.4832e-05	1.5019e-05	975.06	263.54	1.4758e-05	1.5125e-05	392.27	157.82	110.97	46.197	1.4802e-05	69.6	151.344	121.702	-41.625	-43.369	35.677	164.403	-44.127	-39.052	100.313	55.680	-41.027	-37.131	-35.137	-31.588	53.987	-34.241	-8191	255	
32443.543	1	1	0	0	0.13464	0.14785	0.023345	0.26857	0.057593	0.104	0.24937	0.13665	0.13177	0.052867	0.16076	0.13121	0.45997	0.43031	0.26321	0.145	-2.1458	-3.1479	-2.6125	-2.7604	-3.2729	-2.6271	-3.2354	-3.2292	-2.7896	-3.4875	-3.0083	-2.7188	-3.3271	-2.7521	-2.9583	-3.3479	218.896	-19.104	-41.735	249.870	282.665	249.554	-26.263	156.085	55.159	219.770	185.772	218.829	232.400	282.301	189.503	204.629	0.00014124	0.00062432	0.00018453	763.63	4.5226e-06	1.0134e-05	1075.7	286.93	5.6986e-06	2.1217e-05	425.94	171.82	120.1	50.486	8.9449e-06	76.664	0.0012845	0.0013336	0.00037748	708.43	1.4695e-05	1.4621e-05	979.92	264.46	1.4824e-05	1.4677e-05	392.42	157.71	111.06	46.195	1.4595e-05	69.752	139.807	258.791	72.091	-43.129	68.521	160.682	-44.087	-39.271	7.954	66.480	-40.422	-37.254	-34.838	-31.239	-38.989	-34.051	-8191	255	
32443.639	1	1	0	0	0.2851	0.123	0.37258	0.28832	0.19538	0.096335	0.29078	0.10793	0.34049	0.13753	0.15013	0.43888	0.3655	0.35571	0.20878	0.27205	-2.0938	-3.3	-2.9271	-2.7458	-3.3458	-2.6688	-2.9958	-3.0687	-2.5854	-3.1708	-3.1937	-2.6188	-3.3583	-2.8063	-2.8646	-3.4688	80.582	290.264	185.285	282.131	215.029	89.145	213.274	264.908	61.249	155.614	192.720	293.112	297.658	284.680	-54.067	266.035	0.00030501	0.00044152	1.9859e-05	764.62	9.4242e-06	1.2165e-05	1080.9	289.39	5.9995e-06	1.2703e-05	426.54	172.46	119.67	50.364	1.0506e-05	76.101	0.0012867	0.0013496	0.00037029	709.07	1.4474e-05	1.4659e-05	981.14	264.3	1.4627e-05	1.4918e-05	392.39	157.96	110.78	46.257	1.4755e-05	69.674	105.371	-2.348	70.155	-43.717	113.521	53.213	-43.808	-39.112	19.436	106.013	-40.983	-37.488	-35.194	-31.890	150.811	-33.770	-8191	255	
32443.734	1	1	0	0	0.12354	0.13152	0.13436	0.17653	0.19768	0.043595	0.17913	0.19569	0.3293	0.13607	0.33487	0.17701	0.21764	0.1206	0.10281	0.29093	-2.0146	-3.05	-2.9354	-2.6771	-3.3417	-2.75	-2.8063	-3.3438	-2.5187	-3.3021	-3.2604	-2.4938	-3.4479	-2.8146	-2.7	-3.4292	44.171	177.857	43.033	182.611	55.166	115.145	208.336	251.777	131.757	69.318	285.170	174.882	277.130	-48.536	18.859	245.356	0.00023627	0.0010753	0.000568	760.35	5.1163e-06	4.9684e-06	1072.4	285.64	8.1798e-06	9.2828e-06	422.95	171.95	119.39	50.094	1.6339e-05	76.241	0.0012761	0.00134	0.00037575	706.07	1.4513e-05	1.448e-05	976.22	262.71	1.4482e-05	1.46e-05	388.42	157.44	110.41	46.158	1.4578e-05	69.437	111.285	149.723	85.997	-43.818	171.636	158.128	-44.116	-39.242	90.435	270.212	-40.374	-37.158	-35.363	-31.652	148.546	-33.817	-8191	255	
32443.830	1	1	0	0	0.05105	0.2811	0.043326	0.12387	0.053385	0.18219	0.26503	0.26612	0.16377	0.079764	0.24828	0.19156	0.2116	0.1257	0.12734	0.23482	-1.9125	-2.9062	-3.075	-2.7917	-3.325	-2.8542	-2.7646	-3.4646	-2.4792	-3.0917	-3.3604	-2.7	-3.375	-3.0354	-2.7062	-3.4146	101.663	266.917	163.366	246.020	103.642	195.309	200.230	214.003	291.543	180.365	278.707	-53.794	280.430	31.521	154.028	293.512	0.00048672	0.0013604	0.0001015	764.29	2.2395e-06	5.1721e-06	1065.8	284.88	1.1814e-05	6.2528e-06	426.82	172.17	118.82	50.058	7.8328e-06	76.363	0.0012597	0.0013162	0.0003727	706.56	1.4535e-05	1.4716e-05	971.82	262.8	1.4521e-05	1.4444e-05	391.44	157.57	110.54	45.96	1.4592e-05	69.661	97.964	52.548	119.531	-43.803	237.789	25.246	-43.685	-39.098	39.016	81.788	-40.447	-37.133	-35.230	-31.200	109.965	-33.938	-8191	255	
32443.928	1	1	0	0	0.084103	0.066204	0.23177	0.09529	0.3299	0.27254	0.062475	0.090105	0.030708	0.064913	0.17116	0.16134	0.16616	0.019694	0.2723	0.10289	-2.1708	-2.9604	-3.1375	-2.6167	-3.1292	-2.9208	-2.5333	-3.3625	-2.7396	-2.7146	-3.4437	-2.6625	-3.3187	-3.1	-2.5896	-3.4667	139.259	259.177	21.041	205.837	95.786	-2.460	264.647	231.452	153.905	209.043	-25.641	237.023	147.735	233.970	213.126	174.721	0.00031326	0.0012727	0.00020464	765.64	9.0096e-06	1.0606e-05	1066.9	287.51	5.2416e-06	1.1801e-05	428.48	172.5	119.17	50.348	3.1525e-06	76.394	0.0012791	0.0013469	0.00037569	708.31	1.4541e-05	1.4745e-05	974.26	264.32	1.4723e-05	1.4607e-05	391.96	158.57	110.75	46.3	1.4772e-05	69.859	109.381	2.491	8.868	-43.812	-16.667	152.279	-44.134	-39.029	136.455	89.055	-40.432	-37.306	-35.223	-31.456	155.560	-33.768	-8191	255	
32444.045	1	1	0	0	0.37827	0.12657	0.043272	0.26799	0.24933	0.029994	0.29262	0.12984	0.32343	0.22861	0.26352	0.13718	0.20705	0.208	0.20446	0.20993	-2.3104	-2.8187	-3.2604	-2.6333	-3.2125	-3.0104	-2.6542	-3.375	-2.8167	-2.5625	-3.3104	-2.75	-2.9708	-3.1792	-2.5771	-3.3417	255.830	273.244	280.086	148.416	290.031	286.582	205.433	267.558	-56.724	164.390	-28.463	228.327	239.810	28.396	132.682	-42.035	0.00016692	0.00060692	0.00022203	768.03	5.5453e-06	1.3301e-05	1075.3	289.21	4.4656e-06	2.6286e-06	426.51	173.17	120.33	49.998	1.3409e-05	75.932	0.00127	0.0013426	0.00037456	709.31	1.4497e-05	1.4849e-05	981.79	265.03	1.4769e-05	1.4717e-05	391.82	158.32	110.78	46.152	1.4991e-05	69.707	113.192	-20.575	76.052	-43.526	90.403	127.172	-44.448	-39.233	108.978	211.312	-40.804	-36.959	-35.454	-31.595	85.373	-33.876	-8191	255	
32444.143	1	1	0	0	0.1235	0.3407	0.20142	0.2337	0.10472	0.1465	0.35275	0.04138	0.32261	0.10054	0.082116	0.26949	0.11389	0.25662	0.17164	0.29453	-2.3937	-2.5646	-3.2479	-2.7917	-2.8979	-3.2729	-2.8229	-3.3479	-2.8417	-2.6063	-3.475	-2.6646	-2.9313	-3.3688	-2.6625	-3.2188	-47.043	96.379	-50.496	212.332	44.382	187.804	221.318	183.007	254.659	105.501	239.718	137.774	6.782	252.496	183.536	238.445	0.00017349	0.0013107	7.7318e-05	764.34	4.2375e-06	1.3198e-06	1073.4	290.47	3.7054e-06	7.0595e-06	426.76	172.73	119.39	50.275	5.5508e-06	76.364	0.001288	0.0013441	0.00037269	705.22	1.4458e-05	1.4476e-05	976.3	265.11	1.4538e-05	1.4709e-05	392.56	158.44	110.95	46.332	1.4857e-05	69.715	87.774	13.847	241.777	-43.713	69.005	102.172	-43.922	-39.140	216.233	66.269	-41.096	-37.293	-34.935	-31.307	40.220	-33.894	-8191	255	
32444.238	1	1	0	0	0.2025	0.27381	0.07387	0.15852	0.32151	0.066397	0.2497	0.26486	0.33563	0.24038	0.29732	0.047905	0.27528	0.26255	0.073162	0.062252	-2.5042	-2.4562	-3.1229	-2.7021	-2.8042	-3.3646	-2.75	-3.2896	-3.0854	-2.4896	-3.3896	-2.9354	-2.7458	-3.2333	-2.7021	-3.2208	274.823	213.228	-23.365	-38.026	124.205	152.981	181.834	-22.942	21.370	226.918	240.144	177.416	274.122	244.811	194.076	219.505	0.00035343	0.0010086	0.00044681	764.8	4.8694e-06	6.4109e-06	1084.7	290.2	3.1211e-06	3.5929e-06	428.75	173.02	119.76	50.08	5.8007e-06	76.335	0.0012803	0.001345	0.00036845	707.57	1.4414e-05	1.4699e-05	983.76	265.9	1.4539e-05	1.466e-05	392.54	158.66	110.95	46.169	1.4719e-05	69.857	124.045	2.329	52.996	-43.910	72.712	195.248	-43.779	-38.854	273.698	146.934	-40.508	-37.434	-35.160	-31.622	23.284	-33.786	-8191	255	
32444.334	1	1	0	0	0.39334	0.22758	0.19321	0.22882	0.096692	0.086546	0.27193	0.14389	0.093322	0.21693	0.23822	0.11797	0.16977	0.2998	0.20608	0.29583	-2.6417	-2.3937	-3.2333	-2.9104	-2.5312	-3.5021	-2.6354	-3.0833	-3.1896	-2.4729	-3.5333	-2.8625	-2.6729	-3.4146	-2.6771	-3.1875	-35.697	158.944	91.243	-16.881	-38.468	-20.781	235.887	270.068	89.683	232.945	292.861	210.123	215.478	268.969	95.549	248.860	0.00048111	0.00096624	3.9678e-05	763.92	1.0723e-05	1.0805e-05	1075.3	290.23	8.414e-06	8.4583e-06	430.17	172.75	120.22	50.143	3.0877e-06	76.564	0.0012533	0.0013689	0.00037407	704.38	1.4464e-05	1.4747e-05	980.25	265.35	1.4499e-05	1.4526e-05	393.97	159.27	111.15	46.226	1.4727e-05	70.069	88.063	30.222	242.537	-43.549	62.013	101.437	-43.607	-39.226	33.124	56.345	-40.332	-37.095	-35.003	-31.562	9.804	-33.647	-8191	255	
32444.430	1	1	0	0	0.15996	0.10245	0.15112	0.20621	0.12733	0.11109	0.26545	0.089162	0.12314	0.26128	0.12247	0.13114	0.12262	0.010144	0.20275	0.16233	-2.7521	-2.4542	-3.2292	-3.0042	-2.7458	-3.2833	-2.8458	-2.9688	-3.1562	-2.5417	-3.2604	-3.0396	-2.8187	-3.4562	-2.7458	-2.8438	288.823	30.132	295.925	223.292	80.640	-34.444	233.501	149.621	152.928	144.711	241.777	242.464	-0.565	184.453	260.646	267.140	0.00034952	0.00054804	0.00029893	764.69	1.6621e-05	9.5267e-06	1076.4	290.33	1.4345e-06	9.1565e-06	428.28	173.83	119.66	50.505	1.0615e-05	76.211	0.0012672	0.0013344	0.00036601	708.29	1.4499e-05	1.4517e-05	980.56	266.2	1.4427e-05	1.4719e-05	393.51	159.78	110.74	46.309	1.468e-05	69.826	104.205	43.447	62.100	-43.890	55.042	119.581	-43.909	-38.749	74.907	93.805	-40.392	-37.251	-35.323	-31.002	179.391	-33.795	-8191	255	
32444.525	1	1	0	0	0.12564	0.14461	0.3167	0.060039	0.051117	0.46258	0.27275	0.19374	0.17321	0.097357	0.34094	0.24022	0.18062	0.2504	0.10815	0.11524	-2.7812	-2.4979	-3.175	-3.0375	-2.5854	-3.25	-2.7521	-2.6625	-3.0625	-2.325	-3.1813	-3.2208	-2.6562	-3.4292	-2.7167	-2.8583	183.552	182.891	301.252	265.986	156.123	201.535	238.726	214.591	170.775	135.809	231.043	222.920	205.551	-46.506	63.327	275.764	0.0003499	0.001722	8.9133e-05	762.21	4.2066e-06	1.0567e-05	1078.7	287.24	2.6037e-06	1.6916e-05	431.93	173.58	119.55	50.201	7.2753e-06	76.985	0.001243	0.0013435	0.00036535	703.61	1.4566e-05	1.4504e-05	978.45	264.4	1.4317e-05	1.4473e-05	394.3	158.81	110.57	46.121	1.4349e-05	70.188	106.322	11.464	-54.594	-43.516	-47.610	171.482	-43.921	-39.533	282.242	27.964	-40.179	-37.060	-35.051	-31.290	32.317	-33.836	-8191	255	
32444.621	1	1	0	0	0.15998	0.25623	0.087121	0.077611	0.35717	0.24497	0.27886	0.24952	0.10168	0.14833	0.25153	0.15378	0.010743	0.4142	0.30266	0.20244	-3.0125	-2.5187	-3.2104	-3.0708	-2.7188	-3.3	-3.0542	-2.6688	-3.2458	-2.4375	-3.0146	-3.0187	-2.7604	-3.1312	-2.8146	-2.8729	176.094	132.945	-12.293	122.581	-45.804	118.651	287.653	3.280	114.383	89.648	282.420	221.915	252.430	-10.586	70.242	106.897	0.00025209	0.00067825	0.00021565	761.95	3.8842e-06	1.1649e-06	1081.4	290.75	6.6922e-06	7.4487e-06	432.28	173.82	120.42	50.138	7.684e-06	76.567	0.0012514	0.0013013	0.00036187	704.8	1.4255e-05	1.4151e-05	982.35	266.12	1.4048e-05	1.4141e-05	395.14	159.77	111.4	46.233	1.4409e-05	70.278	77.316	300.894	93.100	-43.641	56.615	28.597	-43.693	-38.922	86.300	114.996	-40.469	-37.415	-35.130	-31.356	106.777	-33.800	-8191	255	
32444.742	1	1	0	0	0.060048	0.20965	0.09353	0.12486	0.14582	0.1443	0.17674	0.14431	0.09555	0.084863	0.27834	0.33007	0.29129	0.14575	0.19648	0.22431	-2.7375	-2.6333	-2.6312	-3.2146	-2.4833	-2.9979	-2.9562	-2.725	-3.2396	-2.7542	-3.1312	-3.3333	-2.6375	-3.3979	-3.0146	-2.5687	95.444	241.540	173.574	-22.723	-55.576	243.860	230.219	172.443	-47.053	186.198	282.482	243.067	270.540	187.185	284.888	265.614	0.00046106	0.0012559	0.00017665	764.61	9.7956e-06	1.9398e-05	1077.8	289.41	3.8274e-06	1.9253e-06	431.79	175.92	120.24	50.456	1.7336e-05	77.371	0.0012296	0.0013194	0.00036703	708.76	1.4407e-05	1.4276e-05	984.79	265.96	1.3995e-05	1.4461e-05	397.17	161	111.11	46.408	1.4748e-05	70.646	101.252	50.092	118.896	-43.276	50.098	92.034	-44.122	-38.919	76.756	261.545	-40.579	-37.299	-35.394	-31.480	48.361	-33.797	-8191	255	
32444.840	1	1	0	0	0.15349	0.26973	0.22163	0.075786	0.0059249	0.13014	0.1014	0.33943	0.29562	0.16387	0.24945	0.17868	0.24579	0.16352	0.36192	0.084432	-2.9479	-2.7021	-2.9	-3.4396	-2.5583	-3.0667	-3.1521	-2.7271	-3.2854	-2.6312	-2.8104	-3.4125	-2.5667	-3.1021	-3.025	-2.675	9.575	116.595	214.229	225.878	298.938	72.250	67.764	260.561	259.722	134.234	-28.899	167.517	-45.260	274.195	35.185	-28.724	0.00012337	0.0012456	0.00029477	763.77	5.1009e-06	7.7223e-06	1087.2	292	3.3248e-06	1.4806e-05	432.09	175.69	119.96	50.133	4.3602e-06	77.027	0.00124	0.0013257	0.00036846	706.98	1.4313e-05	1.4423e-05	986.7	266.26	1.431e-05	1.4608e-05	395.93	160.96	111.17	46.21	1.4572e-05	70.372	47.007	130.456	78.103	-43.890	-4.198	51.836	-43.902	-39.241	107.394	26.126	-40.482	-37.137	-35.244	-31.616	66.582	-33.789	-8191	255	
32444.936	1	1	0	0	0.14387	0.29907	0.086625	0.15293	0.11987	0.27558	0.25863	0.38951	0.33598	0.10509	0.48072	0.17029	0.058025	0.077465	0.046725	0.05031	-2.8708	-2.8312	-2.6354	-3.3438	-2.4542	-3.0604	-3.0667	-2.6375	-3.2771	-2.8312	-2.6312	-3.475	-2.675	-3.0604	-3.1	-2.8208	259.892	103.833	37.135	141.623	-3.312	166.986	174.286	274.074	96.008	220.643	259.150	-24.720	-32.981	261.169	118.541	173.772	0.00021968	0.00067678	0.0002345	768.52	8.0406e-06	1.2322e-05	1080.7	290.35	8.0035e-06	1.2096e-05	431.97	175.12	120.19	50.269	8.356e-06	76.59	0.0012378	0.00132	0.00037171	707.63	1.4062e-05	1.4256e-05	982.58	265.97	1.4087e-05	1.4614e-05	395.69	160.25	110.86	46.258	1.4353e-05	70.136	109.838	76.864	39.692	-43.513	118.407	16.627	-43.890	-39.089	142.436	159.714	-40.340	-37.728	-35.425	-31.399	82.804	-33.828	-8191	255	
32445.031	1	1	0	0	0.026008	0.19306	0.2559	0.1231	0.090481	0.16677	0.28967	0.06268	0.24716	0.18945	0.10403	0.16807	0.37278	0.27585	0.093107	0.30294	-2.5958	-2.8292	-2.4521	-3.4604	-2.5938	-2.8521	-3.5417	-2.6562	-3.0958	-3.175	-2.6813	-3.4292	-2.7333	-2.7208	-3.3312	-2.5812	246.047	223.551	90.502	-9.905	123.481	50.586	271.865	146.876	-18.511	106.613	299.528	223.124	290.560	171.806	158.520	292.933	0.000532	0.0012207	0.00029781	766.51	8.2965e-07	1.9264e-05	1076.2	289.26	7.5725e-07	1.4945e-05	433.83	174.84	120.21	50.755	6.6909e-06	77.049	0.0012553	0.0013213	0.00036927	706.31	1.4256e-05	1.4426e-05	980.29	265.84	1.4216e-05	1.4368e-05	396.78	160.68	111.25	46.441	1.4393e-05	70.416	114.201	-16.208	25.537	-43.687	12.836	29.382	-43.963	-39.326	28.514	74.520	-40.903	-37.689	-35.706	-31.072	116.634	-33.658	-8191	255	
32445.127	1	1	0	0	0.27296	0.055814	0.30416	0.23124	0.11414	0.0095598	0.27412	0.24723	0.060304	0.131	0.10156	0.17456	0.2186	0.071931	0.16503	0.19778	-2.7271	-2.9854	-2.475	-3.2687	-2.7854	-2.6833	-3.3812	-2.7458	-2.9542	-3.2021	-2.6063	-3.3354	-3.0583	-2.8458	-3.3583	-2.6729	290.392	-38.706	173.863	275.011	253.873	189.009	207.969	261.725	169.206	127.671	-56.495	204.532	-22.330	249.343	171.515	11.898	0.00043513	0.0010218	0.00023588	760.88	2.794e-06	1.0425e-05	1081.8	290.32	5.4349e-07	1.2243e-05	435.12	175.12	120.19	50.888	7.1398e-06	77.383	0.0012236	0.0013425	0.00036824	705.72	1.4058e-05	1.4442e-05	985.49	266.68	1.4167e-05	1.456e-05	396.89	161.09	111.32	46.481	1.4228e-05	70.655	112.467	8.190	-36.585	-43.407	54.982	50.226	-43.922	-38.846	190.371	222.164	-40.462	-37.269	-35.484	-31.426	221.239	-33.995	-8191	255	
32445.223	1	1	0	0	0.10239	0.14939	0.055018	0.11512	0.093242	0.18967	0.34505	0.12585	0.08072	0.21429	0.083377	0.31766	0.29897	0.042815	0.24213	0.45599	-2.5146	-3.1979	-2.5917	-3.2854	-2.6813	-2.8125	-3.3167	-2.6354	-2.825	-3.0292	-2.5708	-3.2208	-2.8875	-2.5729	-3.3438	-2.6167	152.875	11.598	111.258	241.542	299.099	43.711	217.847	225.400	274.027	149.012	34.398	-27.464	264.693	299.637	178.446	236.791	0.00022986	0.0015851	0.00017209	765.25	4.7271e-06	1.4099e-05	1087.6	291.62	1.7804e-06	2.5893e-06	432.01	174.74	119.02	50.622	9.0148e-06	76.292	0.0012322	0.0013078	0.00036338	707.07	1.4375e-05	1.4138e-05	986.12	267.33	1.4069e-05	1.4352e-05	396.17	160.16	110.65	46.324	1.4104e-05	70.078	122.349	89.906	92.319	-43.360	37.792	82.345	-44.016	-39.444	288.111	21.225	-40.712	-36.980	-35.419	-31.146	104.364	-34.134	-8191	255	
32445.344	1	1	0	0	0.13191	0.084748	0.15835	0.17502	0.14096	0.21923	0.23478	0.1069	0.43476	0.12788	0.28166	0.14891	0.22671	0.23137	0.27993	0.13004	-2.2146	-3.3521	-2.5604	-3.2125	-2.8125	-2.6792	-3.4771	-2.6792	-2.7188	-3.3375	-2.7833	-3.25	-3.025	-2.5667	-3.2625	-2.9562	-25.931	287.026	70.347	221.695	17.639	107.510	196.722	260.504	235.896	201.029	-35.952	169.899	-6.175	222.812	300.366	230.247	0.00024499	0.0006269	0.00019249	766.19	1.3424e-05	1.1484e-06	1084.4	289.55	5.4233e-06	7.7798e-06	431.67	174.93	119.72	50.611	1.451e-05	76.795	0.0012185	0.0012984	0.00035936	704.46	1.4057e-05	1.422e-05	981.37	265.46	1.3914e-05	1.3992e-05	395.68	160.28	110.95	46.251	1.3734e-05	70.193	118.213	83.992	278.723	-43.683	105.519	63.539	-43.695	-39.397	157.193	35.194	-40.766	-37.120	-35.364	-31.311	100.396	-34.082	-8191	255	
32445.439	1	1	0	0	0.14223	0.18086	0.11607	0.12381	0.048884	0.13252	0.26378	0.17551	0.17256	0.031445	0.12268	0.17264	0.13549	0.34663	0.20658	0.15656	-2.4125	-3.15	-2.4062	-3.0521	-3.1958	-2.5792	-3.4938	-2.9875	-2.7062	-3.2687	-2.7188	-3.1583	-3.3063	-2.4521	-3.2208	-2.95	-38.142	228.914	175.820	235.815	14.013	174.662	258.855	267.789	-8.189	294.955	107.901	269.307	-25.281	-30.135	-34.319	295.760	0.00023358	0.00060611	0.00027432	766.01	1.2557e-06	8.7094e-07	1086.7	291.84	8.2881e-06	4.4637e-06	432.26	176.58	121.23	50.645	8.4158e-06	77.309	0.0012169	0.0012741	0.00034839	706.31	1.3699e-05	1.3835e-05	985.62	266.55	1.3722e-05	1.3838e-05	396.86	161.32	111.41	46.411	1.3768e-05	70.465	110.438	122.797	-8.060	-43.588	15.974	190.863	-43.838	-39.156	42.376	-32.962	-40.478	-37.069	-35.246	-31.646	118.135	-34.132	-8191	255	
32445.510	1	1	0	0	0.21257	0.13549	0.10891	0.12536	0.13756	0.21005	0.090806	0.46706	0.37319	0.20345	0.27283	0.16852	0.18848	0.15692	0.12078	0.14657	-2.2625	-3.3354	-2.5687	-2.8729	-3.2229	-2.5896	-3.4354	-2.9688	-2.7521	-3.3542	-2.6063	-2.8208	-3.425	-2.75	-2.9479	-3.1833	273.534	229.569	281.210	179.693	117.807	201.145	268.208	272.483	228.674	162.813	190.648	253.964	288.675	39.228	9.063	284.219	0.00016167	0.00041872	0.00025876	760.17	1.0977e-05	7.7974e-06	1089.8	290.27	8.8131e-07	1.1899e-05	434.8	176.4	120.97	50.535	8.0082e-06	77.186	0.0012063	0.0012816	0.00035306	705.56	1.395e-05	1.3913e-05	989.65	265.47	1.3913e-05	1.3729e-05	397.69	161.09	111.39	46.379	1.4237e-05	70.389	52.330	208.796	5.767	-43.442	93.172	96.176	-43.712	-39.487	75.331	113.713	-40.518	-37.025	-35.429	-31.280	136.718	-33.672	-8191	255	
32445.607	1	1	0	0	0.12668	0.1647	0.26665	0.38004	0.13143	0.35899	0.21551	0.032333	0.12687	0.084123	0.24115	0.14251	0.062911	0.19423	0.044897	0.19701	-2.1292	-3.1937	-2.8354	-2.9833	-3.3312	-2.5104	-3.2333	-3.2146	-2.4917	-3.275	-2.8458	-2.8708	-3.4	-2.7458	-2.9688	-3.1021	181.565	181.936	18.716	249.876	178.025	118.332	240.304	201.383	74.632	93.832	146.730	285.154	235.319	223.780	150.572	175.799	0.00042526	0.0019257	0.00052651	768.75	3.4157e-06	6.4057e-06	1082	290.29	8.2017e-06	5.5366e-06	435.1	175.65	120.18	50.542	1.2085e-05	77.425	0.0012009	0.0012659	0.00036136	707.42	1.383e-05	1.3689e-05	985.5	266.26	1.3697e-05	1.3881e-05	397.22	160.91	111.14	46.382	1.3899e-05	70.46	143.016	51.406	-19.135	-43.654	290.028	206.212	-43.921	-39.161	106.342	121.206	-40.287	-36.931	-35.248	-31.300	105.296	-34.034	-8191	255	
32445.703	1	1	0	0	0.16753	0.23483	0.10211	0.2212	0.20617	0.21555	0.24622	0.15903	0.17569	0.13561	0.059982	0.17016	0.20092	0.29329	0.087801	0.049481	-2.0229	-3.1833	-2.7271	-2.8292	-3.2042	-2.5812	-3.2604	-3.2104	-2.6583	-3.1292	-3.0771	-2.7438	-3.3312	-2.675	-2.9125	-3.2333	156.265	134.378	-52.774	261.277	166.276	129.025	198.713	229.633	177.711	139.952	40.714	295.039	298.738	-26.521	282.604	289.810	0.00013949	0.00084944	0.00026475	757.2	7.0546e-06	1.4601e-06	1079.4	292.03	5.4146e-06	2.9701e-06	431.68	175.83	120.48	50.762	5.5388e-06	77.121	0.0012047	0.001266	0.00035624	702.56	1.3552e-05	1.3906e-05	985.53	266.1	1.3523e-05	1.3811e-05	395.81	160.74	111.1	46.502	1.3802e-05	70.423	163.656	56.204	63.941	-43.295	27.220	232.755	-43.859	-38.954	31.582	2.857	-40.833	-37.058	-35.208	-31.576	245.251	-34.052	-8191	255	
32445.822	1	1	0	0	0.14203	0.10022	0.20396	0.22299	0.25567	0.17327	0.17796	0.063463	0.10107	0.15591	0.064571	0.15412	0.05987	0.14266	0.15212	0.3613	-1.9813	-3.1521	-2.6333	-2.5729	-3.0625	-2.6688	-2.8812	-3.4562	-2.5229	-3.2125	-3.0042	-2.6542	-3.1625	-2.7396	-2.7917	-3.4771	70.550	283.525	199.120	259.101	301.329	267.383	153.858	-56.735	209.383	-36.745	296.038	229.950	257.831	228.346	298.047	240.666	0.00014972	0.00079726	0.00025845	764.68	1.4348e-05	1.2212e-05	1095.1	292.27	3.6454e-06	7.8251e-06	435.68	175.71	121.01	50.792	3.0346e-06	77.807	0.0011924	0.0012727	0.00035798	707.08	1.3559e-05	1.3956e-05	989.45	267.13	1.3609e-05	1.3844e-05	398.78	160.97	111.77	46.728	1.3586e-05	70.96	85.792	0.725	56.510	-43.549	39.432	-26.943	-43.686	-39.232	45.288	79.882	-40.493	-37.247	-35.297	-31.346	24.890	-33.730	-8191	255	
32445.920	1	1	0	0	0.3151	0.1953	0.13462	0.18123	0.15007	0.18316	0.20766	0.0666	0.13571	0.19474	0.052759	0.2553	0.25429	0.19546	0.27096	0.40831	-2.125	-3.1437	-3.1188	-2.5917	-3.4271	-2.7104	-2.8167	-3.3937	-2.5333	-3.125	-3.125	-2.7208	-3.2667	-2.9437	-2.6854	-3.5208	-0.475	61.665	178.708	224.520	226.648	24.339	186.880	140.424	37.765	34.586	201.382	226.988	-14.703	-22.335	-6.089	231.609	0.0004423	0.0011909	0.00038069	773.43	1.652e-06	3.755e-06	1094.4	292.44	1.3316e-06	6.8492e-06	434.58	176.95	121.16	50.854	8.8195e-06	77.395	0.0011999	0.0012699	0.00035702	708.58	1.3634e-05	1.4197e-05	993.04	268.02	1.3804e-05	1.3991e-05	399.2	161.78	111.8	46.698	1.369e-05	70.973	71.282	-12.643	-52.419	-43.646	105.070	67.920	-43.971	-39.106	110.513	180.441	-40.272	-37.009	-35.460	-31.635	-44.666	-33.917	-8191	255	
32446.016	1	1	0	0	0.12595	0.21617	0.26088	0.056908	0.12563	0.16153	0.14824	0.19484	0.13214	0.15478	0.15591	0.20944	0.22209	0.046662	0.12734	0.28421	-1.8833	-2.8187	-3.2021	-2.7562	-3.2417	-2.7979	-2.8187	-3.4729	-2.6396	-3.0187	-3.3208	-2.5396	-3.375	-2.8292	-2.4771	-3.4375	171.852	181.729	140.366	21.329	-43.847	189.928	219.442	-55.811	56.101	-37.222	150.785	197.975	287.910	42.692	108.504	225.003	0.00018259	0.00065146	0.00036189	767	8.2659e-06	4.4263e-06	1093	294.22	6.2592e-06	1.2633e-05	433.75	176.11	121	50.909	1.2604e-05	77.322	0.0011965	0.0012861	0.00035268	708.88	1.3757e-05	1.407e-05	992.93	268.55	1.4036e-05	1.375e-05	397.57	161.09	112.12	46.727	1.3585e-05	70.544	97.556	260.346	-1.580	-43.350	79.706	76.954	-43.707	-38.858	164.998	95.204	-40.628	-37.650	-35.407	-31.229	122.493	-33.534	-8191	255	
32446.135	1	1	0	0	0.081664	0.1399	0.099899	0.18571	0.29318	0.13926	0.049753	0.28871	0.31233	0.075371	0.34091	0.048932	0.12203	0.24363	0.2443	0.082331	-2.2562	-2.7833	-3.2417	-2.5604	-3.3208	-2.8937	-2.7896	-3.3104	-2.7333	-2.7438	-3.3792	-2.6167	-3.3354	-3.0875	-2.4792	-3.4104	79.931	40.240	-12.306	-23.027	51.279	104.401	294.312	272.580	66.000	232.529	-55.199	-47.314	284.896	220.486	232.415	297.274	0.00032994	0.00072293	0.00036271	768.31	4.9999e-06	1.2126e-05	1091.5	293.98	1.3624e-05	6.3723e-06	436.5	175.66	121.74	50.53	1.0552e-05	76.89	0.0012341	0.0012862	0.00035746	710.46	1.3908e-05	1.4097e-05	989.56	267.69	1.3899e-05	1.4053e-05	397.74	160.79	112.24	46.585	1.3906e-05	70.285	116.311	-23.701	33.878	-43.594	96.289	-32.839	-44.075	-38.984	129.503	42.859	-40.446	-37.455	-35.543	-31.287	299.752	-33.703	-8191	255	
32446.205	1	1	0	0	0.10906	0.065855	0.13208	0.13293	0.2472	0.17684	0.24819	0.15848	0.095174	0.11718	0.092589	0.13524	0.071033	0.063409	0.16987	0.1819	-2.4042	-2.6771	-3.2229	-2.6688	-2.9083	-3.2729	-2.6208	-3.6354	-2.7083	-2.7188	-3.4021	-2.7646	-3.1208	-3.2083	-2.525	-3.4625	33.039	103.826	202.258	31.433	-0.684	7.445	232.189	302.404	253.881	43.211	289.491	-54.416	199.481	246.143	-54.706	260.075	0.00028055	0.0010427	5.5738e-05	767.75	3.3301e-06	1.5507e-05	1084.5	293.41	2.3433e-06	1.7927e-05	434.37	176.68	121.21	51.001	6.0972e-06	77.646	0.0012013	0.0012579	0.00034449	709.1	1.3804e-05	1.3897e-05	989.2	268.52	1.3749e-05	1.3664e-05	398.29	161.2	112.43	46.729	1.3577e-05	70.753	147.497	16.982	-1.904	-43.466	151.193	22.729	-43.809	-39.073	276.189	100.154	-40.486	-37.477	-35.575	-31.583	70.870	-33.967	-8191	255	
32446.305	1	1	0	0	0.026822	0.081725	0.073625	0.17715	0.2753	0.31945	0.34334	0.143	0.17739	0.17285	0.21681	0.10786	0.13793	0.27357	0.11106	0.27455	-2.4146	-2.5833	-3.3833	-2.6833	-2.9479	-3.3146	-2.8458	-3.475	-3.0083	-2.5187	-3.3729	-2.8521	-2.8458	-3.2562	-2.475	-3.2042	248.382	55.066	138.699	22.663	292.229	52.693	254.007	198.531	201.858	178.102	29.612	-1.218	218.400	-44.179	253.927	300.013	0.00011014	0.001636	0.00047655	772.95	3.0992e-06	9.0374e-06	1094.3	292.83	4.63e-06	1.5536e-05	432.62	178.12	121.69	50.951	5.2499e-06	77.53	0.0011865	0.0012684	0.00034435	710.43	1.3524e-05	1.3879e-05	989.81	268.83	1.381e-05	1.3452e-05	398.73	161.73	112.61	46.719	1.3525e-05	70.575	162.919	24.372	43.176	-43.658	237.273	136.776	-44.223	-39.080	119.727	87.621	-40.613	-37.494	-35.359	-31.416	286.607	-33.753	-8191	255	
32446.424	1	1	0	0	0.14008	0.11914	0.051166	0.45805	0.10844	0.1303	0.18364	0.19827	0.10468	0.2808	0.19522	0.083288	0.13051	0.29981	0.21136	0.26627	-2.475	-2.5708	-3.2208	-2.7833	-2.7188	-3.1708	-2.7313	-3.0854	-2.9562	-2.5625	-3.3208	-2.6521	-2.8604	-3.3479	-2.3875	-3.2417	39.713	-57.143	247.800	253.339	-48.861	-55.811	-52.222	260.961	79.797	40.768	-50.248	-22.963	294.904	-36.114	123.656	262.684	0.00028881	0.00072342	0.000182	773.84	1.1535e-05	5.7381e-06	1093.4	294.38	5.25e-06	5.4281e-06	434.28	174.87	122.21	50.991	1.014e-05	77.174	0.0011628	0.0012224	0.0003444	708.77	1.3512e-05	1.3389e-05	989.17	269.09	1.3323e-05	1.3398e-05	397.23	160.64	112.43	46.733	1.3439e-05	70.569	111.521	16.986	42.776	-43.502	78.294	46.809	-43.692	-39.348	128.815	277.621	-40.678	-37.132	-35.129	-31.862	50.757	-33.761	-8191	255	
32446.520	1	1	0	0	0.041697	0.24919	0.39001	0.2004	0.33684	0.24717	0.19903	0.22758	0.24114	0.11738	0.15192	0.13857	0.08785	0.20193	0.49791	0.39182	-2.6979	-2.4167	-3.2375	-2.8563	-2.8833	-3.2292	-2.7229	-2.9333	-3.0854	-2.3875	-3.3187	-3.0625	-2.7208	-3.2958	-2.6146	-2.9708	155.686	23.160	175.220	264.373	218.974	279.058	-34.546	-30.641	127.985	133.181	276.793	274.538	255.289	275.082	163.853	231.996	0.00025072	0.00093958	0.00015008	764.22	1.347e-05	1.0028e-05	1091.5	291.94	3.0222e-06	6.4194e-06	433.87	175.68	122.13	50.912	5.7264e-06	77.243	0.0011761	0.0012298	0.00033613	704.38	1.3389e-05	1.3256e-05	987.77	267.54	1.3363e-05	1.3635e-05	396.05	160.84	112.25	46.753	1.3555e-05	70.478	108.960	47.386	-0.668	-43.641	60.057	88.143	-43.521	-39.062	-50.264	267.773	-40.715	-37.656	-35.617	-31.553	32.582	-33.795	-8191	255	
32446.615	1	1	0	0	0.29199	0.092518	0.11553	0.1129	0.089993	0.060728	0.24075	0.20072	0.23763	0.18295	0.13481	0.14323	0.21546	0.23102	0.22538	0.1671	-2.7729	-2.5354	-3.2375	-2.8271	-2.5979	-3.175	-2.7604	-2.8438	-3.1312	-2.4938	-3.2042	-2.9	-2.5833	-3.4125	-2.6646	-2.8417	150.478	110.017	264.629	-0.328	52.054	177.046	185.586	260.188	78.187	218.921	242.820	-34.254	282.083	239.719	201.479	268.510	0.00024292	0.0015473	8.196e-05	771.05	1.1237e-05	2.0158e-06	1082.9	293.65	5.0499e-06	3.8661e-06	437.56	175.83	122.01	51.229	7.0411e-06	77.745	0.0011632	0.0012364	0.00034774	709.92	1.344e-05	1.3238e-05	987.44	267.94	1.3109e-05	1.3361e-05	398.4	160.89	112.38	46.968	1.3595e-05	70.961	147.509	42.753	86.379	-43.762	107.296	61.475	-44.025	-38.771	224.093	30.422	-40.369	-37.566	-35.142	-31.803	148.585	-33.999	-8191	255	
32446.736	1	1	0	0	0.2991	0.058862	0.11893	0.14413	0.08569	0.3407	0.10864	0.045369	0.30544	0.041668	0.13537	0.060337	0.080677	0.18757	0.28602	0.31576	-2.7062	-2.5104	-3.1083	-3.0458	-2.4646	-3.4313	-2.9729	-2.7771	-3.1042	-2.6458	-3.0792	-3.1083	-2.5354	-3.3146	-2.7854	-2.7708	151.898	-23.798	170.738	294.712	198.049	45.887	25.134	256.211	58.009	234.802	213.838	134.468	189.502	230.557	217.597	243.552	0.00013913	0.00028585	0.00028219	771.93	5.0688e-06	8.4704e-06	1091.7	294.09	3.6858e-06	3.9184e-06	437.55	176.52	122.95	51.491	1.1776e-05	78.296	0.0011388	0.001222	0.00034215	710.13	1.3123e-05	1.3351e-05	992.3	269.04	1.3166e-05	1.345e-05	399.63	161.63	112.93	47.065	1.3386e-05	71.161	131.408	196.529	228.023	-43.569	100.985	136.899	-44.058	-39.064	81.124	88.705	-40.536	-37.534	-35.233	-31.601	81.717	-33.751	-8191	255	
32446.809	1	1	0	0	0.21022	0.07129	0.18635	0.31312	0.33334	0.16426	0.16248	0.28236	0.12719	0.14427	0.25111	0.26819	0.16098	0.11476	0.14171	0.19	-2.7812	-2.4771	-2.9542	-3.2229	-2.4479	-3.375	-2.9625	-2.6917	-3.3771	-2.5604	-3.0375	-3.1396	-2.6937	-3.2917	-2.9708	-2.8375	218.917	-19.907	202.372	237.291	148.970	96.787	122.331	235.591	288.688	23.683	227.225	258.109	195.715	290.382	34.674	231.005	0.00012993	0.00067662	7.7832e-05	763.82	7.5505e-06	5.6843e-06	1086	293.04	7.4128e-06	9.7041e-06	435.56	175.7	123.01	51.305	5.2681e-06	77.375	0.0011527	0.0012588	0.00034153	705.14	1.3206e-05	1.3364e-05	987.8	267.47	1.3131e-05	1.3448e-05	397.38	160.84	112.66	46.869	1.35e-05	70.572	111.910	-1.326	32.060	-43.556	106.727	94.137	-43.830	-38.818	57.566	65.367	-40.839	-37.711	-35.405	-31.656	69.439	-33.910	-8191	255	
32446.904	1	1	0	0	0.1153	0.1243	0.15188	0.058147	0.07741	0.21334	0.30061	0.104	0.062515	0.20253	0.18639	0.13886	0.08088	0.034839	0.11479	0.26812	-2.9208	-2.5521	-2.8167	-3.1813	-2.5854	-3.2167	-3.1229	-2.6188	-3.3875	-2.6646	-2.9458	-3.4229	-2.6229	-3.3854	-3	-2.7062	238.381	-11.870	193.776	-35.426	13.741	238.507	273.354	182.747	53.944	289.773	-54.775	190.807	197.669	30.233	121.891	207.924	0.00042784	0.00076011	0.00025507	763.28	4.2663e-06	8.207e-06	1081.6	292.55	1.4713e-06	1.2611e-05	435.61	175.56	121.08	51.026	7.2608e-06	77.502	0.0011467	0.0012472	0.00034289	704.94	1.3283e-05	1.3681e-05	982.49	267.24	1.3186e-05	1.3573e-05	396.86	160.13	111.8	46.826	1.363e-05	70.635	77.782	101.477	53.153	-44.310	80.311	168.034	-44.086	-38.711	75.547	70.290	-40.655	-37.208	-35.387	-31.554	-15.560	-33.698	-8191	255	
32447.000	1	1	0	0	0.24806	0.079508	0.3164	0.23648	0.14295	0.065612	0.18976	0.23969	0.22479	0.082156	0.18855	0.24176	0.1531	0.30858	0.076564	0.11669	-2.9521	-2.8167	-2.8229	-3.375	-2.45	-3.1708	-3.1583	-2.6208	-3.3208	-2.7875	-2.6979	-3.3812	-2.5771	-3.3667	-2.9771	-2.7583	70.079	302.654	273.590	242.722	211.692	-11.705	258.852	-12.165	59.598	-12.414	-42.659	-39.994	246.581	233.572	108.772	269.263	0.00038216	0.0013392	0.00030596	757.83	1.8246e-06	2.5484e-06	1079.9	292.34	6.0282e-06	1.1192e-05	436.45	175.98	122.05	51.451	1.7502e-05	77.906	0.0011634	0.001242	0.00034529	700.89	1.3242e-05	1.3554e-05	983.22	267.26	1.3292e-05	1.3605e-05	396.77	161.17	112.19	46.952	1.3487e-05	70.859	112.072	74.353	-1.417	-43.566	295.600	271.626	-44.286	-39.139	-6.732	152.893	-40.610	-37.381	-35.516	-31.726	88.958	-33.447	-8191	255	
32447.119	1	1	0	0	0.11879	0.26628	0.38021	0.099239	0.16212	0.23726	0.19648	0.086592	0.15486	0.31851	0.12241	0.20377	0.11309	0.17708	0.22271	0.17456	-2.8083	-2.7646	-2.7313	-3.3792	-2.5	-2.9917	-3.3854	-2.5917	-3.2958	-2.8083	-2.7708	-3.3917	-2.7229	-2.9958	-3.0687	-2.7812	132.601	-44.600	-6.201	-37.159	265.666	251.956	211.773	143.505	37.414	109.623	235.031	293.680	64.136	269.508	245.569	-55.708	0.00020988	0.0010998	0.00024539	763.72	6.6834e-06	4.7248e-06	1083.4	290.91	4.2306e-06	4.3021e-06	433.09	175.79	121.43	51.314	9.7225e-06	77.58	0.0011856	0.0012593	0.00034837	705.27	1.3737e-05	1.357e-05	984.64	267.31	1.3551e-05	1.3794e-05	395.81	161.03	112.35	46.912	1.3612e-05	70.806	84.484	26.488	3.219	-43.694	10.066	-37.723	-44.153	-39.400	169.357	83.477	-40.456	-37.544	-35.881	-31.586	46.690	-33.497	-8191	255	
32447.215	1	1	0	0	0.073135	0.21521	0.23067	0.059161	0.23561	0.095806	0.17016	0.21383	0.083367	0.24499	0.22848	0.094111	0.11	0.28718	0.046875	0.14865	-2.7271	-2.7438	-2.6	-3.375	-2.5792	-2.9167	-3.225	-2.6458	-3.0875	-2.9917	-2.6833	-3.4625	-2.7812	-2.7667	-3.3812	-2.7708	-5.890	-19.936	141.733	132.951	70.153	-33.803	-41.362	176.347	-48.767	212.213	272.123	203.486	-34.236	279.188	158.310	241.681	0.00036443	0.0011354	0.00022237	767.97	3.3886e-06	7.7108e-06	1079.8	291.37	1.9861e-06	1.0856e-05	432.52	175.45	121.78	51.52	1.2807e-05	77.15	0.0011885	0.0012577	0.00034694	707.15	1.3988e-05	1.3731e-05	983.27	267.3	1.3838e-05	1.3768e-05	395.8	160.42	112.55	47.014	1.3519e-05	70.446	122.489	-11.919	26.234	-44.010	187.550	33.697	-44.340	-39.157	67.781	117.500	-40.590	-37.102	-34.975	-31.404	100.205	-34.015	-8191	255	
32447.311	1	1	0	0	0.11403	0.16039	0.17197	0.28575	0.13042	0.15601	0.17078	0.12444	0.055472	0.072362	0.14975	0.14222	0.08955	0.16927	0.11009	0.095433	-2.8104	-3.05	-2.6271	-3.2438	-2.7896	-2.7	-3.4062	-2.8375	-3.1292	-3.0604	-2.6604	-3.2625	-2.85	-2.8333	-3.3396	-2.8104	112.024	126.843	-10.467	-14.932	35.699	-23.718	255.020	240.489	205.007	92.397	200.992	269.887	129.602	-48.282	150.039	95.849	0.00025081	0.0016242	0.000215	773.68	8.8836e-06	4.7902e-06	1087.9	291.5	3.4429e-06	6.1385e-06	432.22	176.26	122.39	51.465	1.0897e-05	77.218	0.0011781	0.0012759	0.00034676	709.65	1.3848e-05	1.3686e-05	985.94	267.77	1.3579e-05	1.3889e-05	397.1	160.94	112.74	47.239	1.3467e-05	70.758	107.814	36.934	90.356	-43.928	22.170	184.907	-44.282	-39.260	197.996	-16.585	-40.070	-37.019	-35.640	-31.518	46.516	-34.255	-8191	255	
32447.406	1	1	0	0	0.18653	0.067656	0.27801	0.19938	0.045138	0.16228	0.3971	0.074052	0.14293	0.20532	0.23149	0.17316	0.11914	0.059221	0.11336	0.372	-2.5646	-3.1042	-2.675	-3.3812	-2.7104	-2.5438	-3.5187	-2.9188	-3.0563	-3.2667	-2.6042	-3.2667	-3.075	-2.5521	-3.4625	-2.8125	32.189	88.617	57.634	-51.648	128.904	2.530	200.283	-1.663	-54.745	223.811	228.905	262.952	-25.266	30.860	96.559	256.126	0.00029959	0.0011173	0.00019015	765.55	5.1725e-06	6.0372e-06	1085.7	293.4	8.7103e-06	4.962e-06	435.73	177.16	121.91	51.765	5.194e-06	77.292	0.0011783	0.0012338	0.00034618	709.89	1.3694e-05	1.3429e-05	986.84	268.54	1.3411e-05	1.3581e-05	399.09	161.7	113.01	47.267	1.3585e-05	71.03	125.942	302.149	-34.059	-44.116	177.358	260.363	-44.155	-39.238	100.638	116.917	-40.638	-37.258	-35.680	-31.491	199.225	-33.904	-8191	255	
32447.504	1	1	0	0	0.079413	0.16934	0.11784	0.13815	0.060409	0.21917	0.14177	0.33104	0.20644	0.080735	0.043513	0.23862	0.12311	0.19251	0.11019	0.13816	-2.4042	-3.3104	-2.5187	-3.1854	-3.1125	-2.475	-3.4437	-2.7396	-2.9167	-3.3583	-2.6708	-3.3167	-3.2125	-2.6125	-3.1437	-2.9437	242.997	-9.627	128.347	174.089	28.108	291.453	109.031	299.232	96.652	9.156	26.958	267.677	15.485	237.321	208.119	-35.037	0.00018527	0.0002734	0.00024116	771.56	7.9192e-06	1.1955e-05	1082.2	294.4	9.3995e-06	1.2333e-05	432.54	176.45	122.61	51.567	1.1087e-05	78.176	0.0011847	0.0012217	0.00034881	709.79	1.3712e-05	1.3643e-05	989.68	268.42	1.3481e-05	1.3531e-05	397.78	161.11	112.72	47.078	1.367e-05	71.09	92.518	172.566	276.403	-43.713	99.792	98.137	-43.979	-39.251	73.747	73.916	-41.012	-37.239	-35.529	-31.406	66.549	-34.175	-8191	255	
32447.600	1	1	0	0	0.12142	0.14987	0.024981	0.16993	0.096556	0.15041	0.071142	0.27005	0.089987	0.33057	0.20489	0.22218	0.26889	0.32056	0.088078	0.1996	-2.2625	-3.1667	-2.3208	-2.95	-3.0875	-2.5083	-3.35	-2.9271	-2.4979	-3.2958	-2.7521	-3.2687	-3.1958	-2.3854	-3.1146	-2.9958	166.662	283.266	35.369	230.250	125.237	235.522	130.050	221.588	298.840	272.419	229.940	208.845	246.309	-31.761	291.002	256.229	0.00024881	0.00036554	0.00033016	768.38	1.2061e-06	7.6136e-06	1080.9	292.13	1.312e-06	9.0155e-06	435.15	175.41	121.97	51.34	1.4496e-05	77.802	0.0011798	0.0012456	0.00034882	708.45	1.3393e-05	1.3592e-05	985.36	267.29	1.3311e-05	1.3484e-05	397.56	160.9	112.51	47.107	1.3496e-05	70.886	111.234	279.348	37.522	-43.497	273.477	43.467	-44.065	-39.290	287.845	152.736	-40.455	-37.402	-35.671	-31.269	50.143	-34.282	-8191	255	
32447.695	1	1	0	0	0.18414	0.054968	0.12606	0.13646	0.21736	0.093753	0.26326	0.18116	0.065603	0.065728	0.16259	0.27429	0.34912	0.23034	0.22611	0.21134	-2.2687	-3.2083	-2.4729	-2.95	-3.0042	-2.4646	-3.3479	-3.0042	-2.4688	-3.2729	-2.5625	-2.8771	-3.2229	-2.6729	-3.1354	-3.2042	256.401	-5.140	28.436	269.153	74.592	147.436	236.078	225.695	12.860	284.498	282.491	256.292	258.880	265.306	283.040	-11.361	0.00016414	0.00050955	0.00044538	769.45	1.4355e-06	1.6385e-05	1086.1	291.05	3.5446e-06	9.4018e-06	435.61	176.84	121.08	51.409	4.8129e-06	77.774	0.0011695	0.0012519	0.0003527	708.06	1.3329e-05	1.3622e-05	987.17	267.49	1.3389e-05	1.3683e-05	398.1	161.4	111.99	47.112	1.3546e-05	70.895	69.104	122.098	46.179	-43.782	248.910	74.510	-44.119	-39.609	144.407	98.389	-40.927	-37.481	-35.680	-31.337	92.232	-34.188	-8191	255	
32447.816	1	1	0	0	0.24829	0.13522	0.20433	0.17442	0.19669	0.19061	0.078634	0.29373	0.10341	0.055137	0.20138	0.14631	0.11908	0.16141	0.073056	0.23189	-2.0812	-3.3104	-2.6021	-2.8479	-3.2625	-2.4708	-3.2542	-3.1229	-2.4292	-3.3271	-3.1479	-2.8187	-3.4188	-2.4938	-2.9854	-3.0396	180.306	52.752	239.542	121.639	33.053	47.953	259.591	206.638	8.800	39.979	166.329	275.270	260.625	299.993	87.643	254.395	0.00025118	0.0011947	0.00019707	766.04	3.8131e-06	4.9102e-06	1089.9	292.37	6.1633e-06	1.7279e-06	437.84	176.72	122.09	51.457	1.2474e-05	78.414	0.0011735	0.0012524	0.00035207	704.87	1.3336e-05	1.376e-05	989.76	268.09	1.3306e-05	1.3422e-05	399.7	162.04	112.74	47.178	1.348e-05	71.379	100.408	34.525	-44.008	-43.483	209.834	-38.332	-44.129	-39.349	-3.750	58.906	-40.787	-37.287	-35.693	-31.685	45.552	-34.370	-8191	255	
32447.912	1	1	0	0	0.12244	0.16306	0.088699	0.23307	0.16486	0.28084	0.24383	0.26853	0.30067	0.31551	0.22522	0.13346	0.23556	0.40185	0.19195	0.28263	-2.1437	-3.2417	-2.8271	-2.6562	-3.3625	-2.5208	-3.0479	-3.2375	-2.4771	-3.1792	-2.8479	-2.7604	-3.4354	-2.5979	-2.875	-3.3167	180.381	229.483	122.150	23.631	-20.109	55.310	222.796	257.804	83.456	0.858	270.582	272.961	257.651	275.359	273.533	280.959	0.00029653	0.00079261	0.00016197	763.59	5.4824e-06	1.0757e-05	1091.5	291.12	6.2208e-06	1.2807e-05	436.16	177.01	122.08	51.417	2.416e-06	78.403	0.0011847	0.0012442	0.00034704	707	1.3429e-05	1.3769e-05	991.03	267.32	1.3389e-05	1.3716e-05	399.38	162.24	112.94	47.07	1.3611e-05	71.364	91.082	-1.679	105.392	-43.642	74.094	78.697	-43.931	-39.195	108.523	121.442	-40.862	-37.200	-35.286	-31.261	52.537	-34.528	-8191	255	
32448.008	1	1	0	0	0.15658	0.19997	0.39897	0.24921	0.14414	0.078443	0.088525	0.22355	0.21007	0.084954	0.23564	0.17536	0.28649	0.12621	0.048512	0.25107	-2.1979	-3.0438	-2.8583	-2.65	-3.2	-2.7854	-3.0354	-3.275	-2.2812	-2.9458	-3.1	-2.5729	-3.25	-2.6958	-2.8875	-3.3917	290.141	-14.646	-12.147	283.135	201.050	67.925	179.215	255.228	266.139	245.805	-47.899	242.339	289.403	216.774	171.686	272.957	0.00030602	9.8032e-05	0.00036786	771.4	3.4369e-06	9.5921e-06	1088.1	293.77	9.0902e-07	8.6497e-06	434.81	177.49	121.12	51.1	9.3915e-06	78.052	0.0011818	0.0012483	0.00034691	707.16	1.3428e-05	1.3833e-05	989.15	268.54	1.3466e-05	1.3684e-05	397.04	161.72	112.1	47.012	1.3324e-05	71.043	140.559	289.902	-6.186	-43.320	70.923	89.214	-43.960	-39.754	63.211	6.830	-40.946	-37.096	-35.478	-31.888	135.650	-34.296	-8191	255	
32448.105	1	1	0	0	0.18459	0.22773	0.21009	0.44976	0.21126	0.11417	0.063059	0.19796	0.19975	0.096252	0.27175	0.11693	0.28007	0.3608	0.16942	0.20026	-2.0708	-2.975	-3.1083	-2.375	-3.1917	-2.6771	-2.8312	-3.2771	-2.6104	-3.025	-3.2667	-2.6125	-3.2542	-3.0583	-2.6979	-3.2771	65.077	167.419	173.829	-44.943	19.927	240.092	-48.704	269.063	128.975	12.725	188.488	78.472	269.169	292.778	184.299	220.836	0.00024692	0.00029586	0.00022966	763.64	6.9455e-06	2.5026e-06	1079.9	291.4	6.858e-06	3.5736e-06	437.35	177.14	121.77	51.455	8.3839e-06	77.868	0.0011821	0.0012475	0.00034711	705.32	1.3615e-05	1.3723e-05	982.67	267.32	1.3715e-05	1.3522e-05	397.18	161.21	112.44	47.044	1.3464e-05	71.222	87.753	35.589	40.318	-43.642	76.135	-35.805	-44.194	-39.429	-25.493	18.647	-40.346	-37.510	-34.989	-31.772	91.256	-34.140	-8191	255	
32448.199	1	1	0	0	0.073797	0.11133	0.18046	0.1761	0.14123	0.13386	0.44109	0.30893	0.12981	0.050144	0.030422	0.36909	0.22824	0.045072	0.16392	0.23718	-2.1312	-2.9917	-3.0604	-2.4854	-3.1333	-2.9708	-2.7271	-3.4625	-2.6125	-3.0021	-3.1729	-2.5125	-3.3063	-2.9375	-2.7979	-3.525	146.927	204.148	164.432	149.332	201.890	92.826	277.013	263.071	102.109	65.340	84.768	-39.144	237.836	-47.158	110.646	250.335	0.00012302	0.00060405	0.00040374	766.65	4.1297e-06	4.3815e-06	1087.4	292.37	4.9402e-06	9.728e-07	438.11	177.12	122.84	51.519	1.2264e-05	78.572	0.0011925	0.0012429	0.00034206	707.24	1.362e-05	1.3518e-05	989.5	267.77	1.3455e-05	1.342e-05	398.59	162.41	112.88	47.171	1.3358e-05	71.536	139.246	287.186	14.972	-43.498	180.543	34.324	-43.837	-39.790	115.281	165.971	-41.167	-37.394	-35.543	-31.758	65.354	-33.938	-8191	255	
32448.295	1	1	0	0	0.22488	0.21147	0.11017	0.21168	0.29822	0.11242	0.37793	0.14294	0.10984	0.19635	0.12388	0.40286	0.5065	0.13975	0.11054	0.18467	-2.1583	-2.7708	-3.2062	-2.5792	-3.2708	-2.925	-2.5625	-3.2521	-2.6167	-2.8083	-3.4104	-2.5917	-3.1896	-3.0958	-2.7438	-3.4688	24.504	156.727	154.810	85.216	256.174	291.703	222.461	236.718	77.420	278.028	228.467	290.383	-31.881	203.938	245.986	-42.481	0.00027981	0.0010974	0.00032376	767.26	5.8986e-06	1.2271e-05	1091.4	293.92	7.5035e-06	9.7637e-06	437.68	176.87	122.59	51.181	1.1259e-05	77.984	0.0011702	0.0012247	0.00034214	708.47	1.3428e-05	1.3659e-05	989.41	268.11	1.3559e-05	1.3383e-05	398.89	161.98	112.96	46.971	1.3483e-05	71.376	110.532	82.789	31.060	-43.521	143.974	155.381	-44.291	-39.181	117.169	55.919	-40.676	-37.374	-35.585	-31.362	-13.666	-33.874	-8191	255	
32448.416	1	1	0	0	0.18179	0.16458	0.075962	0.19435	0.060777	0.17141	0.23918	0.26749	0.29149	0.1257	0.20631	0.15424	0.088488	0.1926	0.08618	0.02498	-2.2646	-2.7375	-3.1375	-2.7938	-2.9771	-3.2062	-2.6375	-3.3208	-2.8438	-2.6208	-3.2438	-2.7375	-3.1354	-3.1979	-2.5833	-3.3521	113.130	97.951	302.213	262.370	142.434	168.717	205.346	242.854	261.681	189.829	237.744	244.766	245.154	257.790	-51.584	-39.220	0.00029193	0.0011737	8.28e-05	766.67	4.1949e-06	4.0304e-06	1086.6	293.48	8.845e-06	1.1474e-05	437.31	176.5	121.31	51.481	1.2105e-05	78.486	0.0011717	0.0012466	0.00034552	708.93	1.337e-05	1.3509e-05	986.68	268.47	1.3383e-05	1.3352e-05	399.16	161.41	112.44	47.219	1.3164e-05	71.501	94.945	86.844	31.703	-44.005	114.634	44.835	-44.238	-39.154	105.402	58.055	-40.896	-37.501	-35.459	-31.679	148.065	-33.734	-8191	255	
32448.512	1	1	0	0	0.14126	0.2573	0.23144	0.34811	0.35767	0.24446	0.22206	0.3477	0.1366	0.10663	0.32117	0.079336	0.15913	0.2701	0.15713	0.12211	-2.3229	-2.5187	-3.3333	-2.5583	-2.8896	-3.25	-2.5667	-3.3854	-2.95	-2.7042	-3.4521	-2.625	-3.075	-3.275	-2.4104	-3.4167	144.773	203.898	143.972	-25.962	221.525	248.948	299.921	271.734	253.859	175.367	296.526	-52.279	297.713	300.834	-35.631	152.914	0.00030533	0.0020729	0.00018747	771.02	1.0115e-06	1.0582e-05	1082.4	293.85	3.2385e-07	1.2683e-05	437.48	178.44	123.13	51.488	1.2908e-05	78.631	0.0011615	0.0012277	0.00034019	709.48	1.3184e-05	1.3361e-05	986.31	269.21	1.3379e-05	1.3436e-05	400.17	162.59	113.12	47.195	1.3496e-05	71.674	118.763	58.219	24.797	-43.514	51.858	55.312	-44.131	-39.337	293.763	88.124	-40.487	-37.522	-35.363	-31.699	34.746	-34.128	-8191	255	
32448.607	1	1	0	0	0.023496	0.091033	0.22407	0.16504	0.0817	0.19279	0.1264	0.14565	0.21219	0.16865	0.064545	0.30855	0.29827	0.17932	0.076654	0.27431	-2.5458	-2.55	-3.225	-2.7687	-2.6437	-3.2396	-2.7938	-3.1667	-3.1104	-2.4875	-3.3917	-2.7292	-2.7167	-3.4375	-2.4792	-3.2771	128.129	48.818	-25.510	204.110	94.306	155.999	167.778	-52.570	4.163	282.630	15.689	-55.857	282.934	282.329	120.078	170.240	0.00024029	0.00087224	0.00012181	773.31	1.0546e-05	7.8986e-06	1103	297.65	2.8616e-06	7.1894e-06	437.62	176.6	124.28	51.507	5.9593e-06	78.77	0.0011793	0.0012261	0.00034683	709.5	1.3358e-05	1.3408e-05	994.63	271.07	1.3504e-05	1.3538e-05	402.1	162.72	113.7	47.493	1.359e-05	71.791	58.962	292.952	134.354	-44.253	112.192	256.036	-44.139	-39.454	99.144	79.280	-40.769	-37.230	-35.648	-31.692	171.198	-34.107	-8191	255	
32448.680	1	1	0	0	0.13327	0.21848	0.39653	0.1599	0.07382	0.31025	0.092634	0.091142	0.24284	0.19526	0.10806	0.13052	0.37487	0.46698	0.026107	0.22886	-2.5229	-2.5708	-3.1125	-2.9125	-2.475	-3.3083	-2.8937	-3.075	-3.2042	-2.4688	-3.4958	-2.9313	-2.7146	-3.4229	-2.6083	-3.0646	25.040	201.180	42.178	264.037	236.482	152.141	165.004	248.860	191.461	226.833	215.490	255.204	284.624	-36.392	136.364	217.072	0.00035693	0.0003535	0.00026778	771.28	3.5158e-06	1.8645e-05	1094	295.2	4.1501e-06	3.2058e-06	439.38	177.64	123.57	51.779	7.1487e-06	78.11	0.001182	0.0012454	0.00033995	708.35	1.343e-05	1.358e-05	991.29	269.24	1.3384e-05	1.3463e-05	400.49	162.6	113.29	47.445	1.3531e-05	71.545	87.725	9.683	6.221	-43.744	131.820	80.634	-43.968	-39.333	198.348	-36.676	-40.498	-37.766	-35.312	-31.703	156.226	-34.357	-8191	255	
32448.801	1	1	0	0	0.1406	0.15652	0.14398	0.15431	0.26438	0.13726	0.11128	0.47271	0.10173	0.11704	0.22887	0.033943	0.17923	0.12384	0.18942	0.21871	-2.7	-2.6708	-3.3187	-3.1188	-2.4938	-3.4708	-2.75	-3.0854	-3.1833	-2.6542	-3.2167	-3.2062	-2.6583	-3.3271	-2.5563	-2.7875	-47.965	294.777	-46.950	216.664	-4.016	240.430	224.518	239.717	10.472	150.798	235.340	298.946	127.153	23.893	18.512	256.976	0.00046412	0.00050637	0.0003277	775.7	2.6255e-06	7.5485e-06	1094.2	295.92	8.5499e-06	1.3058e-05	436.02	177.19	122.07	52.002	2.5183e-06	78.786	0.0011796	0.0012432	0.0003372	709.47	1.3528e-05	1.3285e-05	990.15	270.29	1.3368e-05	1.363e-05	399.4	162.17	113.08	47.413	1.3537e-05	71.733	138.459	47.419	37.862	-43.579	85.684	56.166	-44.005	-39.218	15.112	82.527	-40.771	-37.346	-35.415	-32.096	-34.802	-33.946	-8191	255	
32448.896	1	1	0	0	0.24372	0.087382	0.14153	0.18192	0.22668	0.11636	0.3281	0.24062	0.038038	0.093928	0.19982	0.17742	0.079626	0.14051	0.16236	0.053763	-2.9083	-2.3083	-3.1375	-3.0833	-2.4146	-3.1562	-2.9938	-2.7479	-3.2396	-2.6021	-3.2958	-3.2917	-2.5458	-3.3792	-2.7417	-2.825	107.418	137.724	176.034	201.840	148.665	73.107	301.153	277.347	5.501	167.555	148.415	250.941	190.134	-42.458	301.946	58.634	0.0002222	0.00082514	0.0003754	772.77	5.3391e-06	1.0597e-05	1087.8	293.09	2.8246e-06	1.0361e-05	436.98	176.86	123.56	51.665	8.0931e-06	78.659	0.0011875	0.0012467	0.0003403	709.9	1.3427e-05	1.3542e-05	988.26	269.55	1.3339e-05	1.3539e-05	400.04	161.94	113.51	47.529	1.3423e-05	71.671	103.413	126.403	46.335	-44.000	149.981	61.194	-43.921	-39.250	82.675	97.026	-40.634	-37.446	-35.514	-31.715	131.805	-34.202	-8191	255	
32448.992	1	1	0	0	0.31838	0.066939	0.19403	0.14609	0.071346	0.20625	0.25528	0.30745	0.11798	0.14031	0.17453	0.061971	0.17727	0.15917	0.07132	0.13592	-2.7708	-2.6021	-3.1208	-3.125	-2.625	-3.2104	-2.9875	-2.725	-3.2896	-2.5021	-3.0062	-3.2875	-2.6229	-3.3021	-2.8292	-2.7542	-37.572	241.552	182.059	160.031	135.890	-9.561	260.051	260.744	295.101	102.955	259.730	161.790	260.483	274.642	37.612	280.721	0.00037007	0.00068631	0.00022467	773.28	8.4272e-07	1.223e-05	1090.7	293.79	5.4648e-06	2.4176e-06	438.59	177.9	122.63	51.924	6.4089e-06	79.206	0.0011835	0.001239	0.00034733	712.47	1.3516e-05	1.3571e-05	991.36	269.53	1.3477e-05	1.3433e-05	400.88	162.6	113.56	47.545	1.3531e-05	71.963	106.143	-53.720	28.034	-43.991	98.727	153.658	-44.503	-39.102	118.292	180.984	-41.031	-37.645	-35.532	-31.517	33.639	-33.919	-8191	255	
32449.088	1	1	0	0	0.098593	0.058232	0.1142	0.22542	0.29767	0.040511	0.26921	0.15932	0.23179	0.3197	0.18019	0.14588	0.18039	0.15989	0.11442	0.18644	-2.9188	-2.6542	-2.8312	-3.3063	-2.5896	-3.1833	-2.9688	-2.6604	-3.2562	-2.7812	-2.8708	-3.3563	-2.5229	-3.2396	-3.0771	-2.5604	246.873	275.307	-40.184	-51.342	290.339	50.652	268.899	222.747	51.461	192.540	282.841	-32.224	38.189	-45.738	4.689	253.433	0.00015039	0.0018805	0.00020573	771.73	4.983e-06	1.6976e-05	1093	296.21	8.5e-06	6.9293e-06	440.82	178.17	122.71	51.958	9.6023e-06	78.383	0.0011615	0.0012467	0.00034181	709.28	1.3168e-05	1.3606e-05	994.93	270.66	1.3478e-05	1.3404e-05	400.56	162.53	113.31	47.565	1.3489e-05	71.483	-21.871	62.247	1.826	-43.792	58.175	117.261	-44.174	-39.086	175.952	66.650	-41.006	-37.897	-35.460	-31.654	105.874	-33.828	-8191	255	
32449.207	1	1	0	0	0.30162	0.059565	0.079396	0.13026	0.1036	0.061933	0.13899	0.066352	0.082695	0.30678	0.21232	0.1826	0.12159	0.21129	0.28881	0.2113	-2.6937	-2.7438	-2.6437	-3.3125	-2.6271	-3.1188	-3.1729	-2.7104	-3.1646	-2.8917	-2.7687	-3.3187	-2.6229	-3.1708	-3.0438	-2.6479	117.667	-21.253	102.749	59.992	217.197	6.506	231.024	-9.912	272.172	-9.598	202.094	161.504	-32.137	245.332	91.099	175.761	0.00039164	0.0010996	0.00035061	774.31	3.842e-06	6.8139e-06	1090.6	297.06	8.1105e-06	4.091e-06	438.19	176.02	122.72	51.459	4.6155e-06	77.921	0.0011727	0.0012311	0.00034142	714.32	1.335e-05	1.3324e-05	989.1	269.94	1.3428e-05	1.3551e-05	400.05	161.18	113.25	47.206	1.3527e-05	71.196	104.296	25.142	37.959	-43.911	37.509	65.167	-44.122	-39.401	146.475	214.245	-40.440	-37.460	-35.549	-31.799	146.020	-34.042	-8191	255	
32449.305	1	1	0	0	0.074498	0.1997	0.20512	0.35381	0.20514	0.31153	0.20799	0.20398	0.1338	0.25932	0.29276	0.055267	0.1556	0.17198	0.29557	0.24182	-2.8542	-2.8125	-2.5958	-3.2167	-2.4792	-3.0354	-3.4229	-2.6896	-3.3354	-3.0333	-2.7104	-3.5854	-2.6063	-3	-3.2042	-2.525	183.821	63.760	261.407	-55.546	119.922	52.657	185.183	193.153	31.347	277.117	288.055	13.125	22.422	262.163	231.390	298.825	0.00024353	0.00079764	0.00011894	767.49	9.8757e-06	1.2278e-05	1085.7	294.62	7.2255e-06	1.3511e-05	437.25	175.92	122.71	51.704	9.4332e-06	78.238	0.0012053	0.0012312	0.00034654	710.47	1.3523e-05	1.3419e-05	986.68	269.71	1.3433e-05	1.3596e-05	399.49	161.5	113.22	47.399	1.3541e-05	71.171	153.955	115.531	114.057	-43.644	117.890	57.119	-44.564	-39.588	169.006	82.666	-40.884	-37.256	-35.531	-31.550	98.448	-33.830	-8191	255	
32449.377	1	1	0	0	0.24851	0.1318	0.2088	0.081027	0.14144	0.13211	0.12102	0.29109	0.11347	0.16419	0.079572	0.17911	0.18684	0.069612	0.28517	0.051676	-2.8167	-2.7479	-2.7771	-3.3187	-2.6667	-2.7458	-3.3937	-2.625	-3.1521	-3.2146	-2.7208	-3.4354	-2.6521	-2.8875	-3.225	-2.5083	236.008	122.074	262.782	275.283	150.874	96.791	141.957	256.203	72.333	100.521	201.530	4.906	87.655	91.207	46.729	59.133	0.00020696	0.0011544	0.00027019	769.8	1.8068e-06	7.4e-06	1087.6	295.68	7.21e-06	2.3806e-06	436.62	178.01	123.27	51.576	5.5542e-06	78.327	0.0011722	0.0012192	0.00034153	709.94	1.3284e-05	1.3318e-05	987.51	269.42	1.3247e-05	1.358e-05	399.9	162.62	113.43	47.353	1.359e-05	71.371	116.417	28.888	83.013	-43.843	213.672	129.421	-44.330	-39.530	101.650	71.143	-40.880	-37.392	-35.641	-31.827	117.794	-33.975	-8191	255	
32449.496	1	1	0	0	0.043723	0.187	0.13164	0.253	0.17111	0.25138	0.19536	0.09312	0.096882	0.12768	0.2129	0.3653	0.24716	0.10177	0.10501	0.31685	-2.7729	-2.9437	-2.5208	-3.2271	-2.5312	-2.8229	-3.4375	-2.7146	-2.9458	-3.125	-2.5438	-3.3229	-2.7833	-2.6771	-3.3021	-2.7542	222.877	199.197	-46.163	219.619	213.884	204.106	78.844	-52.728	148.214	240.299	289.512	186.063	273.356	37.357	66.941	230.934	0.00031277	0.00046564	0.00017335	769.39	5.3349e-06	1.0671e-05	1089	292.63	2.1651e-06	3.0816e-06	432.59	175.8	122.74	51.374	2.0963e-06	77.429	0.0011638	0.0012439	0.00034571	709.23	1.3474e-05	1.3603e-05	988.56	268.36	1.3122e-05	1.3584e-05	396.35	160.4	112.77	47.118	1.3235e-05	70.68	129.069	171.676	67.556	-43.756	38.540	95.880	-44.050	-39.325	239.428	102.554	-40.513	-37.400	-35.936	-31.800	152.828	-34.054	-8191	255	
32449.592	1	1	0	0	0.11248	0.16669	0.060124	0.15453	0.074173	0.12725	0.22263	0.092388	0.17468	0.1675	0.21197	0.26575	0.30665	0.12236	0.1771	0.20398	-2.4854	-3.3187	-2.475	-3.3563	-2.8854	-2.6583	-3.4625	-2.8229	-2.9042	-3.2438	-2.5208	-3.2646	-2.9917	-2.5396	-3.375	-2.9313	200.581	255.412	217.621	48.042	236.313	207.910	240.165	-41.923	169.433	175.850	224.111	257.114	299.766	266.043	248.776	156.428	0.00015528	0.0010619	8.3234e-05	769.24	7.7873e-06	3.7617e-06	1083.7	292.51	4.2132e-06	8.0698e-06	433.25	175.57	121.89	51.681	1.0105e-05	77.397	0.0011622	0.0012413	0.00033921	707.5	1.3367e-05	1.3516e-05	979.96	267.63	1.3455e-05	1.3452e-05	395.38	160.57	112.48	47.162	1.3054e-05	70.4	173.771	44.616	95.528	-43.543	163.536	53.487	-44.156	-39.425	135.973	168.188	-40.700	-37.642	-35.826	-31.632	113.202	-34.101	-8191	255	
32449.689	1	1	0	0	0.09546	0.12518	0.25685	0.089011	0.41722	0.11217	0.36339	0.12084	0.068942	0.22073	0.17256	0.16565	0.077289	0.28871	0.10476	0.46358	-2.5083	-3.1646	-2.5771	-3.2	-2.9979	-2.6375	-3.525	-2.8833	-2.7167	-3.2146	-2.6125	-3.3583	-3.1271	-2.6708	-3.4458	-3.0854	92.042	106.938	231.509	156.869	159.075	-23.834	227.653	259.867	37.759	-17.977	249.693	246.343	57.352	289.873	126.184	-56.556	0.00015698	0.0011604	0.00026387	770.16	7.1945e-06	1.0614e-05	1085.2	294.25	5.2361e-06	7.8449e-06	434.54	177.35	121.86	51.997	6.5779e-06	78.012	0.0011418	0.0012307	0.00033463	708.5	1.3108e-05	1.3387e-05	986.7	267.72	1.3039e-05	1.3168e-05	396.8	160.95	112.67	47.292	1.3232e-05	70.815	137.912	42.074	-22.805	-43.631	35.951	108.829	-44.386	-39.295	16.504	95.106	-40.701	-37.406	-35.718	-31.805	41.137	-34.228	-8191	255	
32449.785	1	1	0	0	0.21016	0.12817	0.10746	0.15596	0.034596	0.079134	0.2151	0.33126	0.20372	0.2323	0.24079	0.36799	0.088335	0.30194	0.17987	0.3171	-2.4979	-3.3167	-2.5062	-3.2292	-3.1458	-2.5833	-3.4688	-2.9604	-2.6167	-3.3521	-2.7313	-3.2687	-3.4313	-2.7188	-3.1937	-2.9458	28.019	37.827	178.856	-8.336	-21.252	238.506	281.561	224.088	172.668	191.574	253.549	286.640	155.948	-55.564	279.886	281.753	0.00015765	0.00098347	0.00021066	767.51	6.0481e-06	9.4703e-06	1084.7	293.43	2.9843e-06	1.0841e-05	435.62	175.64	121.92	51.238	4.9763e-06	78.117	0.0011384	0.0012175	0.00033662	708.12	1.3055e-05	1.3322e-05	984.97	268.56	1.319e-05	1.3214e-05	397.48	161	112.67	46.989	1.3054e-05	71.17	124.221	39.707	36.667	-43.777	34.952	40.051	-44.222	-39.674	248.387	137.829	-40.892	-37.530	-35.503	-31.240	74.300	-34.184	-8191	255	
32449.904	1	1	0	0	0.21238	0.080794	0.24483	0.35072	0.11985	0.11106	0.14807	0.049455	0.22598	0.14121	0.1055	0.1823	0.21471	0.23161	0.067903	0.34055	-2.3021	-3.1458	-2.5563	-3.0292	-3.1396	-2.5875	-3.4417	-3.1063	-2.725	-3.2229	-2.85	-2.9708	-3.2896	-2.5646	-3.1542	-3.0187	173.393	168.625	286.035	177.987	100.227	11.494	1.481	251.878	113.943	233.815	251.842	253.742	280.341	258.150	210.484	248.558	0.00028963	0.00043244	0.00022652	772.39	6.522e-06	1.3756e-05	1090	292.61	3.8601e-06	9.7418e-06	435.99	175.28	121.55	51.08	5.106e-06	77.52	0.0011595	0.0012147	0.00034047	709.11	1.3145e-05	1.3162e-05	985.66	268.53	1.3259e-05	1.3057e-05	397.67	160.48	112.81	46.949	1.3068e-05	70.902	103.876	85.563	91.100	-43.693	51.358	150.191	-43.951	-39.382	7.984	89.267	-40.470	-37.468	-35.467	-31.531	25.811	-34.139	-8191	255	
32449.977	1	1	0	0	0.15131	0.12878	0.20819	0.080431	0.35578	0.081079	0.33053	0.024506	0.030751	0.15884	0.10638	0.27492	0.084092	0.18225	0.067748	0.29659	-2.1625	-3.3375	-2.8063	-2.9646	-3.2229	-2.5042	-3.0104	-3.1604	-2.4896	-3.4688	-2.8354	-2.9833	-3.075	-2.6021	-3.0354	-3.2854	147.393	31.847	-14.100	260.578	98.098	158.631	241.127	170.315	187.072	-4.710	277.733	285.918	82.330	-24.476	16.920	244.412	0.00020589	0.00039875	0.00015231	774.01	5.2152e-06	1.1882e-06	1081.7	292.93	5.1497e-06	1.2389e-05	434.11	177.45	122.78	51.489	3.0149e-06	77.638	0.0011514	0.0011836	0.00034056	711.1	1.3157e-05	1.3155e-05	983.44	267.96	1.299e-05	1.2947e-05	397.07	161	113.03	47.18	1.3177e-05	70.727	158.417	93.331	54.882	-43.765	54.607	10.469	-44.314	-39.154	55.791	67.323	-40.978	-37.250	-35.643	-31.666	154.017	-34.138	-8191	255	
32450.098	1	1	0	0	0.056404	0.039755	0.25184	0.11552	0.15217	0.26458	0.25368	0.13491	0.14895	0.15465	0.27414	0.24997	0.29136	0.3846	0.16318	0.22856	-2.2313	-3.2458	-2.75	-2.7979	-3.2396	-2.6729	-3.0917	-3.3375	-2.4042	-3.3479	-2.9792	-2.7917	-3.4	-2.65	-3.0438	-3.3729	270.528	-38.026	297.591	292.508	38.405	214.275	241.844	229.325	75.759	262.387	113.979	-20.933	260.572	-25.747	-47.606	193.957	0.00034469	0.0012913	0.00010972	772.9	5.9436e-06	1.3577e-05	1083.5	293.89	8.2256e-06	1.2071e-05	439.33	176.7	123.15	51.604	6.9207e-06	78.359	0.0011509	0.0012046	0.00034193	712.24	1.314e-05	1.3307e-05	987.05	269.07	1.2907e-05	1.3059e-05	399.48	161.84	113.34	47.252	1.3238e-05	71.104	61.887	74.523	59.671	-43.462	116.368	131.751	-44.068	-39.600	77.270	66.195	-40.789	-37.689	-35.625	-31.674	55.622	-33.930	-8191	255	
32450.191	1	1	0	0	0.22751	0.16866	0.1499	0.044602	0.24082	0.14734	0.16063	0.23373	0.19486	0.10479	0.29324	0.15048	0.18574	0.34349	0.10835	0.14653	-2.0167	-3.2208	-3.0146	-2.7604	-3.4042	-2.6167	-2.8958	-3.4062	-2.5792	-3.2021	-3.1	-2.6333	-3.3958	-2.7458	-2.7146	-3.3729	99.675	168.607	90.660	48.640	194.304	-14.245	124.545	-29.332	83.877	-13.402	-44.496	251.824	-40.987	281.201	5.891	292.366	0.00020866	0.0013526	0.00044308	774.21	1.7588e-05	9.6976e-07	1092.1	296.9	1.6839e-06	6.0807e-06	438.48	177.2	123.72	51.847	4.7373e-06	78.143	0.0011381	0.0012003	0.00033938	711.93	1.308e-05	1.3263e-05	991.54	270.69	1.3166e-05	1.3009e-05	400.87	162.03	113.79	47.516	1.2859e-05	71.229	98.649	23.975	3.159	-43.935	71.776	-35.382	-44.152	-39.460	108.301	226.941	-40.786	-37.338	-35.291	-31.940	-21.071	-34.304	-8191	255	
32450.287	1	1	0	0	0.17087	0.17	0.16478	0.27166	0.10477	0.07696	0.2115	0.10959	0.13827	0.062635	0.15604	0.17633	0.20406	0.17768	0.11587	0.21481	-2.2917	-3.2604	-2.9958	-2.6833	-3.3208	-2.9313	-2.95	-3.5958	-2.6021	-3.025	-3.3	-2.6604	-3.5271	-2.9188	-2.825	-3.5438	169.449	79.302	90.384	-56.468	-6.276	70.193	199.468	273.205	294.070	66.521	292.753	231.698	-20.405	-50.623	157.680	206.194	0.00012463	0.0010301	0.00016128	783.25	9.6377e-06	4.0072e-06	1093.1	297.09	5.9975e-06	5.0219e-06	439.72	176.61	123.39	51.389	7.2687e-06	78.108	0.0011564	0.0011966	0.00033701	715.29	1.2835e-05	1.3155e-05	989.51	270.39	1.3157e-05	1.3186e-05	399.38	161.67	113.46	47.229	1.3406e-05	71.185	116.828	192.276	24.545	-44.090	59.170	230.080	-44.315	-39.538	195.268	79.343	-40.875	-37.540	-35.611	-31.593	125.492	-34.001	-8191	255	
32450.385	1	1	0	0	0.055173	0.22293	0.33322	0.21796	0.24731	0.23455	0.21364	0.20429	0.20801	0.091139	0.15072	0.17011	0.26193	0.16172	0.10461	0.21122	-2.2208	-2.8917	-3.2875	-2.6146	-3.3229	-2.8438	-2.6646	-3.6229	-2.6333	-3.1937	-3.4646	-2.6854	-3.1771	-3.075	-2.7021	-3.4188	205.534	86.825	164.981	130.351	214.939	216.382	202.835	-16.214	-39.988	43.281	261.898	267.109	239.037	215.027	82.762	276.375	0.00024979	0.00051185	0.00020987	771.45	1.0928e-05	5.6795e-06	1091.1	296.79	5.184e-06	6.1021e-06	436.45	176.13	122.55	51.828	1.1911e-05	77.87	0.0011459	0.0012145	0.00033151	709.43	1.3004e-05	1.3597e-05	986.39	270	1.3112e-05	1.313e-05	399.04	161.48	113.56	47.305	1.3182e-05	71.121	166.528	57.267	-27.052	-43.307	35.255	115.865	-44.211	-39.367	56.535	53.460	-41.213	-37.741	-35.362	-31.807	75.385	-34.291	-8191	255	
#DATA ENDS
