BOXY.EXE: ISS Imagent and Oximeter Data Acquisition Program Version 0.80
Ascii Record File

#ACQ INFORMATION
2  Detector Channels 
16  External MUX Channels 
1  Auxiliary Channels 
5000  Waveform (CCF) Frequency (Hz)
1  Waveforms Skipped 
30  Waveforms Averaged 
1  Cycles Averaged 
16  Acquisitions per Waveform 
10.0806  Updata Rate (Hz) 

#FILE INFORMATION
TRUE -- External MUX Channel results are PARSED.
FALSE -- AC DC and Phase are NOT grouped.
TRUE -- Companion Program Settings File CREATED.
FALSE -- AC data not excluded
FALSE -- DC data not excluded
FALSE -- Phase data not excluded
FALSE -- Auxillary Chn. data not excluded
Tab delimiters

#CALIBRATION STATE
TRUE -- Waveform Calibration Values APPLIED.


#AUX CALIBRATION VALUES
Val Type	aux-1	

Term	1.0000e+00	
Factor	0.0000e+00	


#WF CALIBRATION VALUES
A = Detector Channel
Val Type	A-AC1	A-AC2	A-AC3	A-AC4	A-AC5	A-AC6	A-AC7	A-AC8	A-AC9	A-AC10	A-AC11	A-AC12	A-AC13	A-AC14	A-AC15	A-AC16	A-DC1	A-DC2	A-DC3	A-DC4	A-DC5	A-DC6	A-DC7	A-DC8	A-DC9	A-DC10	A-DC11	A-DC12	A-DC13	A-DC14	A-DC15	A-DC16	A-Ph1	A-Ph2	A-Ph3	A-Ph4	A-Ph5	A-Ph6	A-Ph7	A-Ph8	A-Ph9	A-Ph10	A-Ph11	A-Ph12	A-Ph13	A-Ph14	A-Ph15	A-Ph16	

Term	0.00000e+00	0.00000e+00	0.00000e+00	0.00000e+00	0.00000e+00	0.00000e+00	0.00000e+00	0.00000e+00	0.00000e+00	0.00000e+00	0.00000e+00	0.00000e+00	0.00000e+00	0.00000e+00	0.00000e+00	0.00000e+00	0.00000e+00	0.00000e+00	0.00000e+00	0.00000e+00	0.00000e+00	0.00000e+00	0.00000e+00	0.00000e+00	0.00000e+00	0.00000e+00	0.00000e+00	0.00000e+00	0.00000e+00	0.00000e+00	0.00000e+00	0.00000e+00	0.00000e+00	0.00000e+00	0.00000e+00	0.00000e+00	0.00000e+00	0.00000e+00	0.00000e+00	0.00000e+00	0.00000e+00	0.00000e+00	0.00000e+00	0.00000e+00	0.00000e+00	0.00000e+00	0.00000e+00	0.00000e+00	
Factor	1.00000e+00	1.00000e+00	1.00000e+00	1.00000e+00	1.00000e+00	1.00000e+00	1.00000e+00	1.00000e+00	1.00000e+00	1.00000e+00	1.00000e+00	1.00000e+00	1.00000e+00	1.00000e+00	1.00000e+00	1.00000e+00	1.00000e+00	1.00000e+00	1.00000e+00	1.00000e+00	1.00000e+00	1.00000e+00	1.00000e+00	1.00000e+00	1.00000e+00	1.00000e+00	1.00000e+00	1.00000e+00	1.00000e+00	1.00000e+00	1.00000e+00	1.00000e+00	X	X	X	X	X	X	X	X	X	X	X	X	X	X	X	X	

B = Detector Channel
Val Type	B-AC1	B-AC2	B-AC3	B-AC4	B-AC5	B-AC6	B-AC7	B-AC8	B-AC9	B-AC10	B-AC11	B-AC12	B-AC13	B-AC14	B-AC15	B-AC16	B-DC1	B-DC2	B-DC3	B-DC4	B-DC5	B-DC6	B-DC7	B-DC8	B-DC9	B-DC10	B-DC11	B-DC12	B-DC13	B-DC14	B-DC15	B-DC16	B-Ph1	B-Ph2	B-Ph3	B-Ph4	B-Ph5	B-Ph6	B-Ph7	B-Ph8	B-Ph9	B-Ph10	B-Ph11	B-Ph12	B-Ph13	B-Ph14	B-Ph15	B-Ph16	

Term	0.00000e+00	0.00000e+00	0.00000e+00	0.00000e+00	0.00000e+00	0.00000e+00	0.00000e+00	0.00000e+00	0.00000e+00	0.00000e+00	0.00000e+00	0.00000e+00	0.00000e+00	0.00000e+00	0.00000e+00	0.00000e+00	0.00000e+00	0.00000e+00	0.00000e+00	0.00000e+00	0.00000e+00	0.00000e+00	0.00000e+00	0.00000e+00	0.00000e+00	0.00000e+00	0.00000e+00	0.00000e+00	0.00000e+00	0.00000e+00	0.00000e+00	0.00000e+00	-1.65560e+02	-1.26939e+02	-1.30200e+02	-1.83531e+02	-7.95580e+01	-6.23298e+01	-1.55913e+02	-1.62015e+02	-8.00935e+01	-6.99222e+01	-1.69783e+02	-1.70754e+02	-1.79463e+02	-1.76415e+02	-7.83609e+01	-1.49214e+02	
Factor	2.59736e-05	1.59396e-04	3.76247e-05	1.70707e-01	1.04767e-06	1.40068e-06	1.50441e-01	4.85057e-02	9.61463e-07	1.40745e-06	8.22453e-02	2.84523e-02	2.38378e-02	8.71675e-03	1.43886e-06	1.23208e-02	3.02569e-06	3.31224e-06	9.20197e-07	9.14355e-02	3.58392e-08	3.62363e-08	7.61070e-02	2.61631e-02	3.57514e-08	3.62322e-08	4.28669e-02	1.48528e-02	1.29378e-02	4.71403e-03	3.60000e-08	6.45373e-03	X	X	X	X	X	X	X	X	X	X	X	X	X	X	X	X	



#DISTANCE SETTINGS
A = Detector Channel
A-1	A-2	A-3	A-4	A-5	A-6	A-7	A-8	A-9	A-10	A-11	A-12	A-13	A-14	A-15	A-16	

2.5000e+00	3.0000e+00	2.5000e+00	3.0000e+00	2.0000e+00	3.0000e+00	1.5000e+00	3.0000e+00	3.0000e+00	3.0000e+00	3.0000e+00	3.0000e+00	3.0000e+00	3.0000e+00	1.5000e+00	3.0000e+00	

B = Detector Channel
B-1	B-2	B-3	B-4	B-5	B-6	B-7	B-8	B-9	B-10	B-11	B-12	B-13	B-14	B-15	B-16	

1.0000e+01	1.0000e+01	1.0000e+01	1.4400e+00	1.0000e+01	1.0000e+01	1.5100e+00	1.9400e+00	1.0000e+01	1.0000e+01	1.9900e+00	2.4900e+00	2.4100e+00	2.9000e+00	1.0000e+01	2.9800e+00	




#DATA BEGINS
time	group	step	mark	flag	A-AC1	A-AC2	A-AC3	A-AC4	A-AC5	A-AC6	A-AC7	A-AC8	A-AC9	A-AC10	A-AC11	A-AC12	A-AC13	A-AC14	A-AC15	A-AC16	A-DC1	A-DC2	A-DC3	A-DC4	A-DC5	A-DC6	A-DC7	A-DC8	A-DC9	A-DC10	A-DC11	A-DC12	A-DC13	A-DC14	A-DC15	A-DC16	A-Ph1	A-Ph2	A-Ph3	A-Ph4	A-Ph5	A-Ph6	A-Ph7	A-Ph8	A-Ph9	A-Ph10	A-Ph11	A-Ph12	A-Ph13	A-Ph14	A-Ph15	A-Ph16	B-AC1	B-AC2	B-AC3	B-AC4	B-AC5	B-AC6	B-AC7	B-AC8	B-AC9	B-AC10	B-AC11	B-AC12	B-AC13	B-AC14	B-AC15	B-AC16	B-DC1	B-DC2	B-DC3	B-DC4	B-DC5	B-DC6	B-DC7	B-DC8	B-DC9	B-DC10	B-DC11	B-DC12	B-DC13	B-DC14	B-DC15	B-DC16	B-Ph1	B-Ph2	B-Ph3	B-Ph4	B-Ph5	B-Ph6	B-Ph7	B-Ph8	B-Ph9	B-Ph10	B-Ph11	B-Ph12	B-Ph13	B-Ph14	B-Ph15	B-Ph16	aux-1	digaux	

32793.656	1	1	0	512	0.22006	0.31911	0.3137	0.27491	0.25393	0.097658	0.15367	0.15933	0.15922	0.12647	0.26039	0.22832	0.10492	0.10598	0.26028	0.11801	-2.1708	-3.0104	-2.9979	-2.4271	-3.3937	-2.5771	-3.1417	-3.2271	-2.4188	-3.2229	-2.7979	-2.5708	-3.1958	-2.6417	-2.4583	-3.3417	243.000	481.836	260.017	504.822	327.818	274.410	363.653	489.374	443.717	479.380	451.620	519.292	250.862	442.831	411.484	435.066	0.0003285	0.00065124	0.00010744	227.13	3.8649e-06	9.9708e-07	355.46	74.706	5.8096e-06	2.1151e-06	141.33	53.927	26.008	12.797	1.9036e-06	29.36	0.00075971	0.00080327	0.00022058	231.58	8.4842e-06	8.5974e-06	349.47	75.369	8.5981e-06	8.5481e-06	139.76	53.697	26.944	12.946	8.657e-06	28.823	522.000	267.182	392.181	190.714	317.001	378.352	190.040	196.052	225.129	205.838	194.718	198.501	199.942	204.114	431.024	202.258	-8191	255	
32793.754	1	1	0	0	0.14221	0.1979	0.32033	0.2682	0.16597	0.06002	0.025323	0.27362	0.1155	0.29789	0.22025	0.37014	0.17329	0.23811	0.029169	0.1223	-1.8708	-3.0396	-3.0104	-2.5333	-3.3271	-2.7313	-2.8021	-3.2521	-2.4188	-3.0396	-3.2062	-2.3917	-3.1604	-2.7979	-2.4458	-3.2396	256.951	268.768	345.078	537.453	476.375	421.924	352.261	501.107	395.752	525.385	460.061	433.088	503.009	499.339	436.104	525.261	0.00043492	0.00026812	0.00011575	226.25	3.0359e-06	2.5947e-06	357.92	74.825	3.1837e-06	5.8219e-06	140.4	54.205	25.771	12.801	1.073e-05	29.07	0.00075324	0.00078286	0.00022361	230.43	8.5651e-06	8.7424e-06	350.95	75.377	8.6394e-06	8.7883e-06	140.22	53.643	27.118	12.924	8.6663e-06	28.795	511.337	362.447	247.309	191.053	522.553	309.171	190.766	195.780	298.634	232.089	194.661	198.322	200.012	204.424	242.729	202.432	-8191	255	
32793.852	1	1	0	0	0.27171	0.087081	0.17884	0.1477	0.066216	0.13703	0.11341	0.14463	0.17153	0.18937	0.12569	0.10533	0.38472	0.11585	0.22794	0.15359	-2.1688	-2.8104	-3.0875	-2.3771	-3.1104	-2.9354	-2.4938	-3.3271	-2.6063	-2.8479	-3.3021	-2.5417	-3.2354	-2.8521	-2.4542	-3.3917	433.852	386.215	509.001	379.321	533.191	469.054	210.104	357.957	411.842	469.209	298.289	435.376	225.428	295.726	202.016	458.076	0.00036391	0.00059523	0.00023229	224.88	8.5668e-07	8.95e-06	358.21	74.459	5.0991e-06	6.9256e-06	141.43	54.148	26.092	12.627	1.6823e-07	29.508	0.00076517	0.00079909	0.00022228	229.93	8.6224e-06	8.726e-06	351.01	75.346	8.7339e-06	8.7135e-06	141.04	53.775	27.144	12.884	8.8639e-06	28.938	526.942	341.937	265.293	190.783	267.352	318.395	190.344	196.230	475.202	337.336	194.454	198.139	200.095	204.810	403.660	201.551	-8191	255	
32793.945	1	1	0	0	0.11512	0.2589	0.075693	0.14677	0.18034	0.19165	0.21693	0.16157	0.079451	0.26766	0.1818	0.29077	0.13751	0.22918	0.37969	0.13093	-2.2104	-2.6833	-3.0521	-2.6146	-2.9271	-3.1167	-2.6354	-3.3896	-2.7479	-2.8729	-3.1792	-2.5625	-2.9917	-3.0521	-2.4271	-3.2729	478.777	435.906	426.079	229.605	457.857	360.609	505.958	486.057	264.338	271.054	428.771	206.770	536.811	244.414	362.512	325.446	0.00032275	0.00014778	8.5467e-05	226.48	5.331e-06	7.0971e-06	359.98	75.522	3.9227e-06	6.5085e-06	139.54	54.084	25.235	12.582	8.6011e-06	28.888	0.0007731	0.00080944	0.00022361	231.97	8.8293e-06	8.7778e-06	349.24	75.568	8.7957e-06	8.8533e-06	139.19	53.442	26.773	12.865	8.786e-06	28.578	513.327	258.130	307.023	191.160	497.008	371.675	190.343	196.043	523.671	242.535	194.043	198.248	199.578	204.049	350.517	202.385	-8191	255	
32794.043	1	1	0	0	0.13195	0.16673	0.15839	0.18122	0.26547	0.060492	0.3103	0.22648	0.12601	0.058754	0.10722	0.051722	0.1903	0.23426	0.20147	0.18374	-2.1417	-2.6667	-3.275	-2.5292	-2.9583	-3.0792	-2.4396	-3.2771	-2.6479	-2.5938	-3.1833	-2.7042	-2.8958	-3.1375	-2.4625	-3.1417	428.191	489.904	443.901	505.154	446.820	358.774	498.330	457.905	522.624	230.165	415.380	398.384	447.159	335.479	243.894	514.240	0.00037792	0.00059037	4.4563e-05	220.36	9.4786e-07	9.402e-06	353.39	73.579	5.8391e-06	1.265e-06	140.57	53.779	25.273	12.526	3.6913e-06	28.745	0.00078119	0.00081358	0.00022463	228.62	8.7234e-06	9.0049e-06	345.19	74.626	8.8303e-06	8.9083e-06	139.12	53.145	26.621	12.78	8.8667e-06	28.411	515.468	287.872	247.195	190.496	268.791	377.540	189.804	195.646	231.177	283.188	194.552	198.291	199.702	204.477	209.523	202.092	-8191	255	
32794.141	1	1	0	0	0.22559	0.091981	0.17056	0.12612	0.1518	0.26076	0.040662	0.21126	0.072397	0.072855	0.15438	0.18612	0.37167	0.18877	0.15081	0.40876	-2.4896	-2.4646	-3.3187	-2.6167	-2.9479	-3.1458	-2.4792	-3.2833	-2.9458	-2.6125	-3.4896	-2.6083	-2.8688	-3.2792	-2.55	-3.0333	504.788	357.011	198.652	472.584	325.559	211.594	380.237	487.931	179.846	466.867	494.765	194.487	248.513	451.277	286.024	482.880	0.00035824	0.00056586	0.00018592	221.93	6.3675e-06	4.0082e-06	352.31	73.171	4.689e-06	4.4898e-06	140.15	53.608	25.508	12.457	4.859e-06	28.794	0.00078572	0.00082661	0.00022631	227.95	8.8392e-06	8.9211e-06	347.1	74.549	8.9605e-06	9.0626e-06	138.49	53.211	26.789	12.767	8.8559e-06	28.592	533.031	244.981	265.491	190.882	198.244	480.508	190.238	196.276	460.524	355.004	194.293	198.427	200.443	204.559	414.420	201.892	-8191	255	
32794.258	1	1	0	0	0.0081458	0.21171	0.063534	0.017502	0.043201	0.21174	0.12534	0.1484	0.097704	0.2659	0.14315	0.29015	0.040092	0.069101	0.16622	0.14913	-2.5708	-2.4458	-3.0667	-2.6333	-2.8771	-3.2583	-2.6417	-2.9417	-2.9437	-2.4062	-3.2687	-2.7438	-2.6875	-3.1875	-2.5812	-3.1125	467.301	256.608	444.570	297.303	254.017	439.324	346.353	275.127	197.057	537.688	180.308	471.935	443.558	198.673	434.111	479.290	0.00034466	0.00056925	0.00010728	224.64	9.7039e-07	4.7318e-06	352.69	73.513	1.6215e-06	2.6087e-06	139.36	52.945	25.511	12.457	8.7581e-06	28.818	0.00078468	0.00081654	0.00023204	229.99	8.9675e-06	9.0203e-06	346.52	74.819	8.9683e-06	9.1456e-06	139.07	53.252	26.832	12.75	9.0802e-06	28.552	508.955	258.159	526.069	190.746	295.855	328.460	190.726	196.355	345.852	405.431	194.204	198.034	200.453	203.878	227.292	201.808	-8191	255	
32794.355	1	1	0	0	0.0819	0.06577	0.086039	0.09668	0.24842	0.20451	0.16469	0.23501	0.054559	0.23412	0.04952	0.1721	0.19161	0.21374	0.13221	0.047899	-2.5667	-2.3833	-3.275	-2.9021	-2.6458	-3.2667	-2.5604	-2.8208	-3.1167	-2.5604	-3.3021	-2.95	-2.6312	-3.3292	-2.6625	-2.9479	221.164	214.676	237.203	461.071	528.708	285.313	374.633	209.792	528.381	226.728	368.219	214.803	442.611	300.198	393.188	440.955	0.00052274	0.00020613	8.0496e-05	223.08	3.5267e-06	4.8428e-06	353.5	74.019	1.968e-06	9.8112e-06	138.13	53.689	25.296	12.34	6.6336e-06	28.567	0.00078171	0.00083671	0.00023092	228.97	8.9622e-06	9.0053e-06	346.2	74.661	9.0218e-06	9.3312e-06	137.86	53.177	26.761	12.746	9.2336e-06	28.323	525.383	256.463	300.049	190.362	377.281	497.268	189.887	196.505	178.876	337.685	194.499	199.059	199.022	204.614	383.905	202.234	-8191	255	
32794.449	1	1	0	0	0.21864	0.20092	0.0022571	0.18065	0.1798	0.22604	0.39965	0.25396	0.052592	0.10323	0.11763	0.025433	0.22721	0.13069	0.038053	0.009507	-2.5667	-2.4333	-3.2292	-3.0167	-2.6354	-3.1437	-2.7062	-2.7854	-3.3458	-2.4479	-3.0146	-3.1396	-2.6458	-3.3042	-2.7271	-2.775	504.852	183.289	180.000	506.133	263.297	476.181	532.199	390.361	386.939	249.925	179.010	330.695	399.089	224.520	477.118	445.259	0.00041887	0.00019572	0.00025337	219.61	4.1234e-06	4.5428e-06	349.84	73.332	5.7328e-06	6.977e-06	137.94	52.747	25.139	12.536	3.3622e-06	28.667	0.00079891	0.00084706	0.00023461	226.55	9.0854e-06	9.1941e-06	344.01	74.378	8.9962e-06	9.1715e-06	137.65	52.91	26.663	12.779	9.0971e-06	28.375	509.556	238.887	270.273	190.830	340.864	284.975	189.974	196.290	258.302	241.875	194.888	198.460	199.775	204.415	478.031	201.120	-8191	255	
32794.547	1	1	0	0	0.14543	0.058055	0.039036	0.10556	0.12145	0.044775	0.2183	0.06892	0.11772	0.1349	0.17427	0.11272	0.22654	0.069362	0.067776	0.35446	-2.9292	-2.4354	-3.0354	-3.2167	-2.5438	-3.3083	-2.8375	-2.6958	-3.2771	-2.6146	-3.1437	-3.1688	-2.4021	-3.4	-2.9729	-2.5875	269.303	352.338	533.587	255.259	389.003	502.109	181.717	364.648	536.734	505.058	523.707	242.133	217.341	292.849	505.896	450.201	0.00047267	0.0002704	5.2023e-05	222.58	7.2343e-06	3.3976e-06	347.1	73.652	4.4899e-06	4.0535e-06	137.59	53.145	25.441	12.405	4.9629e-06	28.879	0.00080773	0.00084833	0.00023838	228.22	9.0852e-06	9.2836e-06	342.35	74.455	9.0959e-06	9.3057e-06	137.35	52.841	26.592	12.752	9.3155e-06	28.445	508.829	343.650	317.806	191.053	381.627	295.094	190.257	196.446	305.004	346.935	194.568	198.252	200.155	204.465	263.638	202.031	-8191	255	
32794.641	1	1	0	0	0.030893	0.059954	0.27091	0.13588	0.39688	0.1002	0.17477	0.11405	0.35205	0.26487	0.15229	0.15314	0.16902	0.065518	0.15296	0.40898	-3.0958	-2.6292	-3.0333	-2.9104	-2.4646	-3.1354	-3.0875	-2.6125	-3.2083	-2.7125	-2.9417	-3.1917	-2.5271	-3.0563	-2.8958	-2.6188	452.779	535.099	486.707	390.414	309.534	417.681	217.925	471.176	353.383	277.737	528.948	536.287	270.799	448.152	351.857	222.510	0.00029696	0.00076523	0.00015008	221.38	2.7504e-06	5.1994e-06	349.8	72.109	2.9389e-06	5.0391e-06	136.5	52.89	25.145	12.487	8.4169e-06	28.72	0.00081078	0.00086443	0.00023501	227.88	9.1422e-06	9.3543e-06	343.53	73.998	9.1649e-06	9.4196e-06	138.17	52.859	26.558	12.794	9.3044e-06	28.508	515.928	494.520	290.093	191.153	217.606	527.162	190.029	196.965	248.473	261.453	194.103	198.364	199.177	204.737	238.116	202.139	-8191	255	
32794.738	1	1	0	0	0.13496	0.33078	0.090911	0.11027	0.13874	0.10879	0.11728	0.12827	0.24945	0.12748	0.18425	0.075444	0.1223	0.27674	0.13908	0.22789	-2.6854	-2.7458	-2.7542	-3.2854	-2.5563	-3.0958	-2.9875	-2.6063	-3.3146	-2.7729	-2.8292	-3.4417	-2.6188	-2.9562	-3.0062	-2.6437	259.830	507.124	453.903	501.810	498.986	434.962	471.728	247.287	386.604	391.576	240.669	533.160	230.815	291.564	391.467	186.305	0.00028476	0.00053565	0.00010841	222.01	5.8687e-06	3.6019e-06	347.71	73.169	3.9576e-06	6.3631e-06	136.8	53.479	25.351	12.39	2.3347e-06	28.49	0.00080454	0.00085482	0.00023875	226.74	9.0647e-06	9.3115e-06	342.87	74.519	9.1681e-06	9.424e-06	137.43	52.759	26.717	12.771	9.3022e-06	28.315	521.155	357.526	189.150	190.823	293.698	476.054	190.124	195.903	309.724	487.596	194.055	198.597	199.182	204.900	537.315	202.483	-8191	255	
32794.859	1	1	0	0	0.15549	0.21922	0.23788	0.24026	0.061795	0.074346	0.10812	0.11022	0.13849	0.31597	0.22815	0.18199	0.090265	0.11214	0.057527	0.22491	-2.9854	-2.9146	-2.675	-3.2792	-2.3563	-3.0354	-3.0875	-2.4729	-3.2896	-2.8833	-2.6813	-3.4229	-2.5563	-2.7667	-3.1458	-2.5208	192.395	420.409	243.418	397.461	197.125	403.976	486.615	510.523	533.641	313.725	210.570	506.775	196.714	305.476	341.688	499.102	0.00048913	0.00081211	7.6594e-05	222.1	2.7474e-06	5.5322e-06	345.44	73.215	3.7896e-06	3.2149e-06	135.92	53.285	25.242	12.51	6.1308e-06	28.81	0.00080777	0.00085835	0.00023936	228.34	9.2458e-06	9.4183e-06	341.5	74.166	9.2508e-06	9.3985e-06	137.34	53.09	26.69	12.864	9.365e-06	28.526	524.081	235.898	312.503	191.117	513.702	291.329	189.392	196.212	300.082	456.413	194.696	198.346	200.330	203.715	403.550	202.418	-8191	255	
32794.953	1	1	0	0	0.31966	0.24	0.24824	0.15887	0.18456	0.092007	0.11267	0.26988	0.10183	0.21022	0.10434	0.13288	0.06754	0.21228	0.22331	0.11581	-2.7979	-2.8417	-2.5667	-3.1583	-2.6292	-2.8104	-3.2354	-2.5167	-3.2562	-2.8417	-2.6312	-3.0896	-2.6375	-2.7104	-3.175	-2.4625	512.832	374.829	257.600	273.636	501.566	331.060	491.775	521.818	378.147	266.047	429.301	206.868	279.997	448.174	365.677	197.640	0.00039599	0.00079737	0.00020786	219.52	2.3403e-06	6.8375e-07	350.13	73.673	2.5764e-06	5.1478e-06	137.65	53.533	25.428	12.531	5.1975e-06	28.874	0.00080401	0.00086386	0.00023426	228.05	9.1956e-06	9.4451e-06	343.46	74.645	9.1242e-06	9.2323e-06	137.89	53.056	26.661	12.779	9.0566e-06	28.558	532.829	345.263	303.905	191.179	505.133	499.020	190.389	196.381	336.742	325.320	194.671	198.244	199.412	204.930	335.175	201.705	-8191	255	
32795.051	1	1	0	0	0.08212	0.13869	0.28105	0.066121	0.20948	0.40703	0.075117	0.20562	0.0907	0.10107	0.31435	0.043938	0.22131	0.049709	0.11601	0.053059	-2.7729	-2.9333	-2.4667	-3.3104	-2.5687	-2.7167	-3.0833	-2.6354	-3.0083	-3.1875	-2.5667	-3.3479	-2.6083	-2.8292	-3.2604	-2.55	217.185	202.648	330.120	380.842	216.643	343.419	210.501	347.960	423.908	439.520	230.259	262.021	272.193	412.592	515.966	187.775	0.00041121	0.00079055	9.212e-05	221.88	5.33e-06	7.0974e-06	345.93	73.53	1.4939e-06	5.3432e-07	138.07	53.207	25.415	12.441	1.3052e-05	28.837	0.00080695	0.00083161	0.00023575	227.95	9.3119e-06	9.2896e-06	342.18	74.53	9.1681e-06	9.2708e-06	138.04	52.948	26.812	12.831	9.3484e-06	28.482	506.406	290.108	293.551	190.820	296.562	356.620	189.942	196.353	330.883	493.091	194.799	199.073	199.882	203.654	399.134	201.829	-8191	255	
32795.148	1	1	0	0	0.16535	0.10315	0.13022	0.20978	0.10234	0.15508	0.12095	0.14573	0.21154	0.098838	0.075716	0.15069	0.12863	0.31548	0.22356	0.17845	-2.7146	-3.1146	-2.6792	-3.2167	-2.8646	-2.6813	-3.3708	-2.6729	-2.9562	-3.0417	-2.5563	-3.1854	-2.9875	-2.5771	-3.2687	-2.6542	411.542	457.234	309.094	430.944	258.176	186.510	386.488	203.039	368.699	253.252	461.578	214.905	412.537	206.942	367.416	215.457	0.00051085	0.00075007	0.00012147	221.53	4.624e-06	1.5298e-06	345.67	72.845	5.5359e-06	5.2474e-06	136.72	52.6	25.102	12.348	5.6939e-06	28.541	0.00080937	0.000843	0.00023654	228.11	9.2656e-06	9.2876e-06	341.62	74.109	9.1904e-06	9.2928e-06	136.96	52.576	26.629	12.763	9.2094e-06	28.311	520.023	187.240	187.383	191.516	348.134	348.460	189.659	196.879	195.993	425.569	194.923	198.559	199.735	204.436	455.735	202.177	-8191	255	
32795.242	1	1	0	0	0.066578	0.084631	0.21645	0.15131	0.061453	0.03983	0.11885	0.22528	0.20321	0.30803	0.095734	0.06411	0.20542	0.21777	0.21012	0.096931	-2.5854	-3.1979	-2.3563	-3.2042	-3.0083	-2.5333	-3.3542	-2.8979	-2.7125	-3.3333	-2.5417	-2.9042	-2.9396	-2.5604	-3.2375	-2.8667	263.335	297.785	321.643	494.596	258.365	206.141	423.515	512.785	324.770	405.956	428.157	341.377	387.435	286.205	534.383	400.727	0.00035674	0.00024007	0.0003244	219.54	5.8839e-06	2.2195e-06	348.11	72.486	7.315e-06	5.4802e-06	135.49	52.308	25.192	12.326	3.7296e-06	28.254	0.00080241	0.00085232	0.00023986	226.85	9.2246e-06	9.4159e-06	342.12	74.089	9.3281e-06	9.177e-06	136.52	52.482	26.532	12.675	9.3071e-06	28.023	531.844	390.181	319.028	191.456	429.011	290.159	190.296	195.857	216.543	338.879	194.191	198.645	200.073	203.782	484.129	201.891	-8191	255	
32795.340	1	1	0	0	0.16077	0.095352	0.39093	0.19229	0.14077	0.23916	0.26272	0.12259	0.17718	0.17781	0.26438	0.20799	0.28868	0.36106	0.11362	0.24638	-2.2083	-3.1771	-2.5312	-3.1521	-2.9437	-2.6417	-3.4062	-2.9583	-2.7083	-3.2792	-2.4958	-3.0583	-3.1021	-2.4	-3.2583	-2.9667	442.233	465.096	182.677	332.427	437.458	225.663	464.977	457.970	374.446	267.779	354.217	400.886	508.052	408.578	488.843	458.880	0.00037531	0.00037271	0.00015398	218.79	2.5462e-06	5.0015e-06	348.21	72.453	4.3474e-06	1.8402e-06	136.58	52.572	25.024	12.341	7.2464e-06	28.52	0.00081274	0.00086039	0.00023999	226.23	9.2094e-06	9.3653e-06	341.28	73.835	9.1445e-06	9.3066e-06	136.61	52.125	26.505	12.662	9.2612e-06	28.089	526.877	343.170	340.664	191.113	520.844	379.615	190.555	195.863	245.108	189.921	194.242	199.078	199.703	205.145	221.254	202.364	-8191	255	
32795.434	1	1	0	0	0.029895	0.22242	0.149	0.13064	0.072208	0.29523	0.22807	0.26963	0.075254	0.15745	0.13209	0.29948	0.33183	0.1245	0.090825	0.068353	-2.2271	-3.3354	-2.6146	-3.0917	-2.9396	-2.5708	-3.4229	-2.925	-2.3833	-3.3729	-2.5354	-2.9896	-3.2958	-2.45	-3.1167	-2.9854	194.686	383.863	393.819	357.101	448.197	463.750	400.685	187.062	424.714	396.007	444.104	212.158	525.754	302.180	231.304	209.271	0.00039022	0.00022049	8.513e-05	219.49	2.8921e-06	2.4059e-06	347.47	72.475	2.0659e-06	6.8154e-06	135.84	51.829	24.825	12.359	5.1922e-06	27.893	0.00081421	0.00085773	0.00023977	225.76	9.3402e-06	9.3173e-06	341.71	73.866	9.1422e-06	9.0928e-06	136.42	52.058	26.396	12.652	9.4033e-06	27.854	184.810	379.225	345.419	191.034	340.312	353.897	190.159	195.677	531.337	413.724	194.686	198.523	199.958	203.851	226.317	202.109	-8191	255	
32795.555	1	1	0	0	0.1526	0.2058	0.29096	0.1256	0.060648	0.11988	0.16513	0.12781	0.16903	0.06978	0.18731	0.049152	0.13963	0.14056	0.13553	0.25035	-2.225	-3.2792	-2.5479	-2.7708	-3.0104	-2.4229	-3.1229	-3.0708	-2.5208	-3.1917	-2.6562	-2.6688	-3.3	-2.4479	-3.0083	-3.1188	418.067	394.346	399.523	287.784	494.946	276.981	193.623	372.146	364.160	282.129	425.869	391.791	501.477	415.434	341.817	303.125	0.00038805	0.00079699	4.5025e-05	219.42	2.7916e-06	2.418e-06	343.98	71.439	4.181e-06	4.2308e-06	134.47	51.304	24.611	12.115	1.0085e-06	27.754	0.00081191	0.00085831	0.00023812	226.72	9.2414e-06	9.3606e-06	337.98	73.185	9.1146e-06	9.2535e-06	134.94	51.532	26.211	12.568	9.3503e-06	27.634	178.012	291.560	246.484	191.296	210.482	323.584	190.275	195.968	338.504	498.206	194.357	198.642	199.944	204.390	250.501	201.699	-8191	255	
32795.652	1	1	0	0	0.15698	0.050429	0.079566	0.10322	0.23879	0.15259	0.071635	0.11748	0.23085	0.084403	0.091999	0.15856	0.16257	0.2088	0.091958	0.28125	-2.0479	-3.3875	-2.7917	-2.6729	-3.0312	-2.4833	-2.8479	-3.0667	-2.3542	-3.1146	-3.0104	-2.7896	-3.3438	-2.6833	-2.9333	-3.2	390.915	201.141	378.793	440.928	498.938	199.798	440.702	233.086	406.005	493.702	444.572	286.852	368.465	523.046	479.777	481.860	0.00034819	0.00062299	0.00019051	214.35	3.4666e-06	6.8392e-06	340.4	71.763	4.3655e-06	9.1451e-06	134.07	51.345	24.62	12.204	4.0449e-06	27.96	0.00081855	0.0008513	0.00024052	223.71	9.1783e-06	9.4189e-06	335.92	73.06	9.3029e-06	9.2859e-06	134.31	51.557	26.177	12.535	9.3241e-06	27.735	533.517	230.788	262.838	191.047	280.066	333.261	190.288	196.200	314.407	228.708	194.527	198.370	199.293	203.747	376.054	201.897	-8191	255	
32795.723	1	1	0	0	0.048188	0.25805	0.025427	0.11128	0.079342	0.13661	0.12842	0.14869	0.15412	0.34718	0.079091	0.1076	0.20595	0.03427	0.15191	0.18262	-1.9771	-3.1708	-2.8812	-2.4771	-3.2667	-2.6458	-2.8458	-3.3604	-2.6896	-3.1125	-2.975	-2.7438	-3.2479	-2.6354	-2.7938	-3.2771	241.545	494.309	483.030	373.640	238.858	476.290	378.673	248.744	222.144	226.241	425.451	409.742	269.094	452.818	238.838	416.835	0.00034946	0.00069518	0.00013407	214.18	9.9461e-07	1.0296e-06	344.44	71.344	6.4568e-06	3.9611e-06	134.09	51.845	24.778	12.211	3.2103e-06	28.01	0.00082796	0.00086751	0.00024041	222.64	9.3542e-06	9.3404e-06	337.31	72.747	9.203e-06	9.3942e-06	134.75	51.505	26.336	12.54	9.3221e-06	27.792	524.240	345.993	487.719	190.982	512.971	272.077	190.164	196.293	362.167	231.244	194.272	198.429	199.951	204.090	306.345	201.957	-8191	255	
32795.820	1	1	0	0	0.15328	0.096214	0.10154	0.21122	0.13147	0.24627	0.1859	0.073526	0.16406	0.22653	0.12727	0.29724	0.12124	0.086775	0.03632	0.060759	-2.1729	-3.0479	-3.0729	-2.5833	-3.3854	-2.6937	-2.8896	-3.3458	-2.6208	-3.1063	-3.2	-2.6458	-3.2604	-2.7292	-2.6063	-3.4313	407.915	453.746	209.955	228.612	256.405	515.315	356.308	293.903	231.355	494.590	531.141	499.723	263.293	214.120	525.125	509.009	0.00036514	0.00058927	0.00015425	214.52	2.0373e-06	3.253e-06	343.18	70.808	6.4985e-06	3.659e-06	134.18	51.938	24.593	12.219	4.0581e-06	27.787	0.00081786	0.00085475	0.00023487	223.3	9.0551e-06	9.2645e-06	337.66	72.589	9.2949e-06	9.3342e-06	135.16	51.742	25.992	12.564	9.3762e-06	27.734	520.117	318.290	220.715	190.759	429.301	275.627	189.924	195.938	451.478	227.991	194.334	198.319	199.902	204.512	457.695	202.149	-8191	255	
32795.941	1	1	0	0	0.14358	0.0855	0.15518	0.037703	0.12119	0.19076	0.34472	0.105	0.056909	0.21994	0.34438	0.15414	0.28898	0.17689	0.066564	0.052731	-2.3021	-3.0375	-3.1833	-2.4729	-3.2083	-2.8542	-2.7188	-3.3417	-2.5854	-2.9021	-3.2812	-2.5833	-3.1354	-2.8063	-2.5667	-3.3167	326.972	416.073	363.136	450.308	262.524	384.310	502.878	424.080	493.360	188.067	223.794	398.567	487.074	324.696	411.915	329.010	0.00041396	0.00069301	0.00018084	214.97	3.5528e-06	3.8308e-06	338.44	71.342	2.8903e-06	3.9974e-06	133.52	51.129	24.176	12.254	3.4584e-06	27.659	0.00081513	0.00084971	0.00023532	223.73	9.2886e-06	9.3829e-06	335.61	72.881	9.0095e-06	9.3456e-06	134.13	51.314	25.936	12.517	9.2462e-06	27.622	521.302	305.849	443.469	190.954	489.624	337.295	190.252	195.960	395.835	354.259	194.344	198.729	199.945	204.697	268.457	202.169	-8191	255	
32796.035	1	1	0	0	0.14482	0.14801	0.2792	0.25844	0.28836	0.1369	0.34865	0.12412	0.2777	0.19167	0.21137	0.18151	0.028299	0.16249	0.074164	0.096569	-2.3833	-2.9104	-3.2188	-2.4437	-3.1521	-3.1167	-2.4625	-3.2854	-2.3917	-2.8688	-3.2562	-2.5583	-3.2917	-3.0187	-2.5062	-3.3021	515.261	245.668	239.350	268.795	254.812	266.512	520.832	473.173	205.077	434.042	528.063	468.014	457.314	384.356	345.776	510.340	0.00042959	0.00092574	6.5141e-05	217.77	2.2904e-06	2.4965e-06	340.56	71.848	6.333e-06	3.8533e-06	133.43	50.773	24.66	12.305	4.0599e-06	28.027	0.00081251	0.00084956	0.00023602	223.79	9.2394e-06	9.2446e-06	335.67	72.693	9.0379e-06	9.3111e-06	133.86	51.249	26.027	12.567	9.0816e-06	27.717	523.034	223.871	221.327	191.078	216.728	226.513	190.640	195.971	191.335	320.371	194.380	197.730	200.113	204.481	312.171	201.322	-8191	255	
32796.133	1	1	0	0	0.2943	0.096676	0.11827	0.15599	0.098467	0.23173	0.1351	0.20451	0.017414	0.11914	0.062648	0.20791	0.26899	0.095928	0.064042	0.055522	-2.3187	-2.6396	-3.3146	-2.6208	-3.1021	-3.1042	-2.6937	-3.2417	-2.8583	-2.7604	-3.2708	-2.4542	-2.8792	-3.2021	-2.5396	-3.2396	505.483	372.560	217.519	371.876	462.879	495.724	187.435	434.387	501.088	247.102	195.912	437.118	210.770	317.739	355.191	266.484	0.00040542	0.00073213	5.4272e-05	220.52	1.8245e-06	2.0793e-06	340.1	70.998	4.6709e-06	8.0451e-06	132.88	51.045	24.679	12.168	4.8811e-06	28.014	0.00081123	0.00084982	0.00023482	224.25	9.1255e-06	9.2899e-06	336.41	72.6	9.125e-06	9.2518e-06	134.5	51.386	26.179	12.542	9.2988e-06	27.839	524.667	536.834	264.198	191.555	405.947	213.084	190.172	195.958	314.925	341.761	194.278	197.859	199.533	203.892	285.125	201.998	-8191	255	
32796.227	1	1	0	0	0.16119	0.26056	0.13243	0.060143	0.054823	0.33978	0.22781	0.083502	0.088353	0.2904	0.047846	0.091662	0.2383	0.10868	0.17742	0.096631	-2.5354	-2.5875	-3.3229	-2.7	-2.9583	-3.225	-2.7896	-3.225	-2.8688	-2.5438	-3.3271	-2.7792	-2.8812	-3.0292	-2.6104	-3.2313	335.109	315.436	368.058	462.496	217.883	286.393	442.581	185.565	480.919	465.085	507.914	185.449	207.138	446.301	338.950	360.274	0.00035549	0.00090886	0.00029759	216.46	5.3834e-06	3.6698e-06	344.46	71.285	5.127e-06	2.8503e-06	133.57	51.984	24.987	12.361	3.0196e-06	27.881	0.00081263	0.00082171	0.00023229	223.84	9.2147e-06	9.2211e-06	337.89	72.732	9.0734e-06	9.2464e-06	134.64	51.816	26.258	12.587	9.2219e-06	27.765	533.242	297.152	519.179	190.648	354.492	276.947	190.774	196.114	417.922	277.088	194.447	198.677	200.241	204.189	403.105	202.096	-8191	255	
32796.348	1	1	0	0	0.056018	0.19274	0.039634	0.11149	0.018378	0.20025	0.15002	0.21476	0.16907	0.16154	0.015537	0.084781	0.10271	0.10601	0.061542	0.32912	-2.5833	-2.4375	-3.3896	-2.6542	-2.8104	-3.2625	-2.5792	-3.1875	-3.0958	-2.6896	-3.4167	-2.7583	-2.7833	-3.25	-2.6312	-3.2542	486.762	477.190	419.597	286.911	520.518	511.011	508.072	204.178	445.751	323.391	466.818	486.824	225.186	262.041	414.790	187.416	0.0003367	0.00027422	4e-05	216.09	3.7035e-06	4.8472e-06	340.04	71.391	5.7015e-06	2.6944e-06	133.97	51.718	24.514	12.333	5.4029e-06	28.237	0.00080048	0.00084462	0.0002338	223.94	9.0099e-06	9.1721e-06	336.57	72.864	9.0278e-06	9.1821e-06	134.59	51.5	26.113	12.571	9.0775e-06	27.814	526.891	285.656	286.031	191.595	435.501	370.517	189.777	196.716	320.041	486.603	194.495	198.516	200.189	204.616	365.889	202.135	-8191	255	
32796.422	1	1	0	0	0.10252	0.34204	0.12947	0.05439	0.20248	0.17156	0.19985	0.28515	0.074729	0.16029	0.099191	0.23262	0.087742	0.16438	0.13681	0.2146	-2.6125	-2.4292	-3.1354	-2.9479	-2.7646	-3.325	-2.5	-2.9896	-3.1979	-2.5104	-3.2875	-2.8646	-2.5917	-3.1437	-2.7271	-3.0771	356.090	494.498	286.546	396.406	462.695	336.333	211.133	343.011	428.507	341.444	427.720	402.747	497.268	499.311	280.646	279.639	0.00031095	0.0004058	7.4457e-05	213.85	3.7245e-06	8.4112e-06	339.82	71.757	1.5146e-06	3.3407e-06	133.05	52	24.862	12.039	8.2881e-06	28.048	0.00079351	0.00083074	0.00022996	224.21	9.2e-06	9.0932e-06	336.11	73.089	9.0527e-06	9.1759e-06	134.77	51.719	26.139	12.482	9.1691e-06	27.891	521.181	489.258	190.942	190.888	264.770	269.880	189.957	195.915	536.450	324.726	194.902	198.565	200.144	204.185	294.787	201.938	-8191	255	
32796.539	1	1	0	0	0.16116	0.2077	0.27053	0.15998	0.20142	0.14337	0.23146	0.29572	0.20752	0.069408	0.13443	0.1226	0.25996	0.098621	0.21593	0.19364	-2.9562	-2.6271	-3.1521	-2.9708	-2.6542	-3.3542	-2.7521	-2.9396	-3.2917	-2.5208	-3.2542	-2.9292	-2.6437	-3.2	-2.6417	-2.8667	178.810	439.924	515.347	480.676	445.969	487.509	344.820	228.562	215.861	275.537	286.332	459.552	444.777	454.885	183.235	525.792	0.00039379	0.00096291	0.00012109	217.24	2.425e-06	5.5006e-06	343.14	71.455	3.5797e-06	6.7872e-06	134.81	51.778	24.748	12.372	2.7261e-06	28.174	0.00079523	0.00083121	0.00023523	224.45	9.0505e-06	9.0174e-06	338.31	72.938	9.1325e-06	9.1213e-06	135.62	51.824	26.202	12.635	9.2234e-06	28.044	518.851	219.546	490.793	190.848	450.625	221.508	190.230	196.494	533.693	420.086	195.015	198.358	199.494	205.126	373.730	202.489	-8191	255	
32796.637	1	1	0	0	0.19578	0.27442	0.35138	0.31329	0.12297	0.08462	0.29485	0.13116	0.15397	0.097998	0.38089	0.17356	0.11828	0.17131	0.19308	0.13818	-2.9771	-2.4229	-3.1542	-3.0229	-2.5271	-3.3625	-2.8458	-2.8875	-3.35	-2.7458	-3.0521	-3.1583	-2.4792	-3.3896	-2.6646	-2.8604	275.858	367.728	271.210	323.537	415.586	513.574	515.521	223.654	212.947	383.292	402.196	245.428	361.781	529.527	397.686	279.987	0.00029969	0.00028974	0.00023845	219.07	8.3025e-07	5.1244e-06	344.3	72.256	3.3586e-06	5.056e-06	134.83	52.243	24.771	12.278	2.1356e-06	28.216	0.00079923	0.00086219	0.0002369	224.52	9.303e-06	9.2455e-06	339.14	73.19	9.1459e-06	9.277e-06	135.2	52.013	26.369	12.651	9.3134e-06	28.053	498.762	280.184	250.860	190.527	194.632	226.666	189.841	196.489	422.252	481.018	195.253	198.217	199.750	204.588	314.820	202.207	-8191	255	
32796.730	1	1	0	0	0.18653	0.27102	0.11413	0.18646	0.10373	0.16214	0.035752	0.12496	0.12711	0.12984	0.082641	0.20979	0.078345	0.14765	0.17614	0.26025	-2.9437	-2.6063	-3.0833	-3.1083	-2.5583	-3.2792	-2.95	-2.6354	-3.4042	-2.7021	-3.0438	-3.1958	-2.4583	-3.0979	-2.8625	-2.6771	486.655	452.136	196.990	207.368	306.802	231.310	265.974	536.947	302.817	457.346	429.816	511.195	216.109	193.860	305.767	212.420	0.00032864	0.00096004	0.00013581	216.89	4.8725e-08	9.7217e-06	345	71.725	3.5707e-06	2.6154e-06	134.99	52.149	24.768	12.36	6.728e-06	28.493	0.00080724	0.00087507	0.00023991	225.33	9.2912e-06	9.467e-06	338.51	73.226	9.1125e-06	9.333e-06	135.85	52.077	26.229	12.692	9.2891e-06	28.116	520.752	245.376	275.223	190.179	515.547	402.774	190.542	195.717	235.143	181.897	194.236	198.349	199.618	204.039	195.282	201.974	-8191	255	
32796.828	1	1	0	0	0.41103	0.10912	0.071533	0.24164	0.074762	0.22727	0.14938	0.20612	0.12134	0.019173	0.088969	0.094106	0.053477	0.12641	0.30304	0.24472	-2.7854	-2.4104	-2.7938	-3.2396	-2.6833	-3.3021	-2.9583	-2.5667	-3.25	-2.6542	-2.7604	-3.4917	-2.4667	-3.0771	-3.1271	-2.5104	391.603	460.280	499.009	526.991	463.698	258.733	253.201	489.061	257.635	204.914	346.440	256.627	375.735	242.578	328.753	381.791	0.00044785	0.00051093	0.00016882	218.62	2.0734e-06	2.7945e-06	346.15	72.355	4.6574e-06	1.3852e-06	135.06	52.857	25.038	12.46	9.7274e-07	28.636	0.00080736	0.00086011	0.00023369	223.84	9.2689e-06	9.3918e-06	339.28	73.551	9.1186e-06	9.4537e-06	136.38	52.367	26.49	12.81	9.3496e-06	28.367	523.332	406.608	362.919	190.596	485.729	324.473	190.268	196.385	236.685	437.231	194.990	197.891	200.185	203.960	493.207	201.984	-8191	255	
32796.949	1	1	0	0	0.35359	0.030132	0.078974	0.076255	0.29302	0.21338	0.029535	0.34313	0.12378	0.28722	0.23274	0.089138	0.17127	0.15319	0.21899	0.17457	-3.0021	-2.8729	-2.5583	-3.3333	-2.4875	-2.7938	-3.1958	-2.5604	-3.325	-2.7771	-2.7333	-3.3833	-2.4813	-3.1396	-3.3667	-2.6292	533.583	411.399	213.306	296.527	508.777	357.146	250.373	484.293	306.109	448.657	342.013	446.337	226.155	461.161	185.448	182.814	0.00038546	0.00064915	0.00016457	220.56	8.3136e-06	7.8924e-06	347.84	73.215	5.8166e-06	9.2847e-07	137.83	52.863	25.456	12.555	3.9736e-06	28.822	0.00080363	0.00086167	0.00023946	226.73	9.3632e-06	9.4429e-06	341.93	74.613	9.3958e-06	9.4883e-06	137.55	52.789	26.667	12.828	9.3266e-06	28.554	518.727	303.721	451.067	190.492	247.442	306.332	190.331	196.078	332.149	484.475	194.155	198.027	199.880	204.365	380.162	201.826	-8191	255	
32797.020	1	1	0	0	0.061775	0.10689	0.086785	0.21302	0.079171	0.070111	0.098111	0.26611	0.15504	0.07207	0.090813	0.11329	0.24115	0.063786	0.13811	0.21821	-2.8417	-2.8063	-2.6021	-3.3625	-2.7333	-2.8937	-3.25	-2.4667	-3.1896	-2.8208	-2.5917	-3.3333	-2.625	-2.9229	-3.2604	-2.5938	255.455	443.371	357.668	486.119	337.918	535.641	369.690	294.740	330.537	190.298	377.763	466.441	189.025	479.073	375.376	239.565	0.00046872	0.00075281	2.5931e-05	221	2.4905e-06	5.7213e-06	347.25	72.986	2.6805e-06	7.7191e-06	135.38	53.156	25.247	12.581	6.2793e-06	28.67	0.0008059	0.00086414	0.000238	227.41	9.3719e-06	9.3292e-06	342.6	74.476	9.3513e-06	9.3982e-06	137.34	52.993	26.679	12.931	9.3885e-06	28.433	511.844	220.447	403.461	190.530	200.492	391.477	189.774	196.345	530.236	311.495	194.589	198.228	199.586	204.300	430.277	201.811	-8191	255	
32797.117	1	1	0	0	0.14749	0.15225	0.1626	0.22471	0.16233	0.23165	0.29344	0.15739	0.10994	0.13886	0.04694	0.19538	0.13726	0.13554	0.20273	0.18107	-2.8271	-2.9	-2.5271	-3.4104	-2.8667	-2.8125	-3.3146	-2.6479	-3.0542	-3.0771	-2.575	-3.2917	-2.7083	-2.6833	-3.3208	-2.7313	298.882	476.263	254.190	467.626	323.567	409.163	526.054	451.882	318.162	526.554	188.586	490.227	398.743	535.846	251.709	445.653	0.00044238	0.00025651	5.7459e-05	219.27	5.7582e-06	6.0187e-06	349.42	73.23	4.371e-06	6.7399e-06	136.6	52.498	25.202	12.588	1.8025e-06	28.847	0.00082123	0.00087396	0.00024288	227.4	9.3084e-06	9.5588e-06	342.41	74.673	9.3742e-06	9.4053e-06	137.12	52.815	26.725	12.949	9.3239e-06	28.557	532.533	276.347	182.427	191.182	337.667	318.117	190.020	196.182	403.590	435.216	194.576	198.454	199.086	204.491	356.605	201.857	-8191	255	
32797.211	1	1	0	0	0.23829	0.14983	0.23612	0.11355	0.13406	0.16376	0.088371	0.082183	0.1485	0.17157	0.11747	0.37401	0.067809	0.43941	0.11512	0.32443	-2.5354	-3.1146	-2.4333	-3.2438	-2.9562	-2.7771	-3.0979	-2.7313	-3.0792	-3.2583	-2.7313	-3.3667	-2.7229	-2.5021	-3.4083	-2.5208	393.900	450.126	361.205	534.832	463.334	247.186	444.832	215.227	245.143	494.503	184.956	390.343	447.624	257.847	469.024	475.673	0.00042128	0.0008351	4.4687e-05	223.36	4.2337e-06	6.2638e-06	346.4	74.149	5.6419e-06	1.9655e-06	137.08	53.102	25.696	12.56	8.4572e-06	28.762	0.00082768	0.00086895	0.00024022	228.4	9.3057e-06	9.699e-06	341.6	74.958	9.2634e-06	9.3918e-06	138.04	52.802	26.978	12.916	9.4334e-06	28.498	509.579	220.978	377.210	191.418	316.396	503.633	190.883	195.944	320.468	526.771	194.255	198.330	199.544	204.619	316.234	202.073	-8191	255	
32797.332	1	1	0	0	0.1887	0.054302	0.21028	0.24781	0.15019	0.05808	0.19691	0.26636	0.12264	0.085341	0.20416	0.1291	0.11576	0.24048	0.15468	0.10963	-2.475	-3.2417	-2.5542	-3.225	-2.9875	-2.7438	-3.5	-2.7354	-2.8583	-3.2479	-2.5646	-3.2146	-2.9146	-2.6583	-3.4021	-2.7375	327.199	405.880	471.693	513.034	424.290	273.528	456.471	370.499	463.294	316.013	500.731	419.838	453.845	536.985	470.995	479.447	0.00045637	0.00070521	0.00028826	221.96	8.8168e-06	4.8976e-06	348.71	73.417	5.4998e-06	6.6302e-06	137.79	52.454	25.568	12.697	6.2632e-06	28.752	0.00082732	0.00085953	0.00024024	228.5	9.3539e-06	9.4082e-06	343.18	74.521	9.5204e-06	9.4798e-06	138.2	52.792	26.895	12.955	9.356e-06	28.603	522.550	287.795	467.488	190.238	292.807	222.348	190.728	195.835	382.910	330.971	194.797	198.548	199.806	205.396	281.236	201.739	-8191	255	
32797.426	1	1	0	0	0.22797	0.33648	0.17061	0.20299	0.22771	0.23194	0.092084	0.13942	0.24555	0.077339	0.18103	0.16977	0.088985	0.14362	0.13557	0.11593	-2.3792	-3.1771	-2.4583	-3.1458	-3.0812	-2.375	-3.3438	-2.7396	-2.7646	-3.4104	-2.7167	-3.2208	-3.125	-2.6708	-3.3625	-2.9042	389.140	456.437	199.804	525.660	380.596	434.278	451.562	498.165	348.629	470.377	246.389	471.650	223.950	411.465	370.872	199.680	0.00048332	0.00064366	0.00014753	221.48	6.2959e-06	4.4747e-06	349.19	73.079	3.9525e-06	9.7621e-07	135.19	52.522	25.138	12.577	3.5328e-06	28.798	0.00082511	0.00086097	0.00024023	228.39	9.5092e-06	9.557e-06	342.31	74.727	9.4141e-06	9.4804e-06	136.83	52.835	26.794	12.962	9.4245e-06	28.577	516.855	289.598	339.843	191.107	254.049	359.837	190.242	196.137	210.224	196.870	194.318	198.527	199.834	204.716	516.885	202.059	-8191	255	
32797.523	1	1	0	0	0.24619	0.17376	0.051367	0.31517	0.13821	0.16902	0.11317	0.28246	0.2013	0.18856	0.2432	0.15412	0.091416	0.10301	0.096517	0.16412	-2.4271	-3.2208	-2.5875	-3	-3.3333	-2.6104	-3.3375	-2.7958	-2.6271	-3.4313	-2.4875	-3.125	-3.2167	-2.525	-3.2479	-2.9688	356.225	374.119	511.986	431.708	432.385	427.455	497.747	502.505	371.078	355.614	276.886	224.003	246.434	420.457	395.335	424.179	0.00039291	0.00017957	0.00020987	221.86	1.6951e-06	2.5274e-06	345.13	72.968	6.3863e-06	5.7259e-06	135.76	52.966	25.327	12.532	1.7255e-06	28.968	0.00082565	0.00087048	0.00023992	227.67	9.463e-06	9.6303e-06	341.42	74.279	9.3364e-06	9.5471e-06	136.76	52.852	26.741	13.004	9.2747e-06	28.615	523.509	463.085	317.304	191.242	451.236	353.600	190.154	196.035	223.371	434.111	194.139	198.277	200.011	203.657	350.828	202.032	-8191	255	
32797.641	1	1	0	0	0.10097	0.14363	0.30871	0.51208	0.18074	0.20765	0.16223	0.22481	0.012384	0.25875	0.0392	0.15789	0.13247	0.23804	0.16379	0.20525	-2.0542	-3.3521	-2.8458	-2.8083	-3.2958	-2.7354	-3.2229	-3.0687	-2.5187	-3.2958	-2.7521	-2.8146	-3.2708	-2.45	-3.2646	-3.1167	521.344	359.415	186.952	389.736	476.264	402.220	514.608	408.261	287.325	359.888	474.778	193.684	336.739	518.359	282.312	315.746	0.00040209	0.00037384	0.0001959	222.09	1.17e-06	2.3823e-06	350.04	73.23	6.454e-06	8.438e-06	137.07	53.202	25.381	12.568	2.6897e-06	28.726	0.00082099	0.00086083	0.00024325	228.92	9.3653e-06	9.3905e-06	343.36	74.508	9.4043e-06	9.5135e-06	137.8	52.765	26.849	13.037	9.4623e-06	28.629	521.401	283.742	448.394	190.767	235.030	333.914	190.432	195.913	304.419	250.445	194.556	198.201	200.044	204.130	179.138	201.437	-8191	255	
32797.715	1	1	0	0	0.26088	0.14294	0.16202	0.082025	0.19929	0.07022	0.29932	0.14545	0.17997	0.13305	0.10868	0.17817	0.16983	0.11544	0.091033	0.22684	-2.1146	-3.2396	-2.5812	-2.7208	-3.1188	-2.3958	-3.0833	-3.2042	-2.4562	-3.2396	-2.8167	-2.6958	-3.3479	-2.55	-3.0792	-3.1937	437.397	345.857	527.466	416.119	239.195	398.738	498.683	504.524	457.425	384.713	302.880	347.562	230.481	240.814	520.875	499.935	0.00041315	0.00080608	9.0066e-05	220.42	2.1912e-06	6.9211e-06	347.33	72.996	3.5934e-06	7.7225e-06	135.8	52.333	25	12.685	7.192e-06	28.822	0.00082214	0.00087331	0.00023844	228.89	9.4409e-06	9.5767e-06	343.19	74.757	9.3786e-06	9.5417e-06	137.7	53.021	26.732	13.037	9.5917e-06	28.818	524.725	352.359	264.475	191.348	392.693	358.240	190.328	196.452	284.186	365.921	194.766	198.104	199.513	204.507	370.026	201.944	-8191	255	
32797.809	1	1	0	0	0.21025	0.14706	0.18113	0.14956	0.090494	0.1381	0.1184	0.088611	0.20105	0.1025	0.17133	0.013932	0.22726	0.15354	0.21849	0.068808	-2.1167	-3.2271	-2.85	-2.6292	-3.3208	-2.6042	-3.0312	-3.1417	-2.4938	-3.2896	-2.9271	-2.6292	-3.4417	-2.7438	-2.7646	-3.35	414.905	376.169	223.442	524.937	376.953	358.377	507.567	517.340	478.018	340.608	423.849	295.195	212.526	189.002	367.494	495.359	0.00041439	0.00052216	1.3612e-05	221.77	2.3669e-06	1.0353e-05	346.5	73.087	5.4375e-06	4.2997e-06	136.53	52.807	25.63	12.7	3.2883e-06	28.8	0.00082091	0.00087894	0.00024156	228.37	9.3751e-06	9.4365e-06	343.14	74.683	9.5427e-06	9.5051e-06	137.51	52.828	27.012	13.02	9.5397e-06	28.585	523.398	530.111	322.577	191.000	302.973	300.754	190.504	195.778	275.962	224.140	194.612	198.818	199.014	204.966	306.559	202.084	-8191	255	
32797.906	1	1	0	0	0.18861	0.090817	0.14999	0.12349	0.11375	0.14159	0.30594	0.16051	0.1047	0.064387	0.29992	0.06338	0.16945	0.22885	0.15369	0.13244	-2.175	-3.2896	-2.9417	-2.5229	-3.2792	-2.7625	-3.05	-3.1896	-2.6458	-3.1625	-3.1083	-2.6583	-3.3083	-2.8208	-2.6437	-3.4	359.581	433.453	180.721	345.386	260.040	425.113	409.248	209.136	305.624	507.768	452.322	483.621	533.900	188.722	452.099	427.581	0.00028636	0.00020235	0.00021343	222.46	5.0487e-06	2.5536e-06	344.39	72.942	2.2397e-06	8.4987e-06	135.74	52.622	25.448	12.721	7.4558e-06	28.982	0.00083071	0.00086977	0.0002429	228.48	9.4661e-06	9.7063e-06	341.17	74.521	9.368e-06	9.482e-06	136.97	52.804	26.865	12.991	9.5082e-06	28.62	490.859	409.401	292.847	191.139	271.864	387.835	190.575	196.537	514.852	315.331	194.842	198.360	200.182	204.266	259.823	201.874	-8191	255	
32798.027	1	1	0	0	0.23191	0.25937	0.26158	0.10995	0.17137	0.16546	0.098065	0.11786	0.12539	0.16148	0.1012	0.13996	0.15507	0.28863	0.11248	0.17646	-2.1583	-3.1188	-3.1937	-2.6688	-3.1792	-2.8125	-2.6583	-3.1958	-2.5521	-2.8979	-3.2854	-2.5854	-3.2417	-2.8583	-2.6604	-3.2792	252.812	485.158	351.364	511.844	211.297	425.436	436.908	321.768	489.405	514.963	184.258	380.399	199.938	508.586	245.985	258.932	0.00033859	0.00021505	4.2113e-05	223.58	1.7758e-06	6.4542e-06	347.84	73.833	4.928e-06	2.7581e-06	136.45	52.752	25.445	12.835	6.1355e-06	29.043	0.0008294	0.00087968	0.00024284	230.21	9.5072e-06	9.5024e-06	341.97	75.078	9.4668e-06	9.5837e-06	137.41	52.921	27.015	13.118	9.562e-06	28.706	184.434	361.378	191.193	190.989	270.011	416.120	190.680	196.256	193.331	397.102	194.086	198.231	199.989	204.575	427.708	202.214	-8191	255	
32798.121	1	1	0	0	0.09402	0.27349	0.18833	0.2983	0.30979	0.045342	0.15076	0.10548	0.13771	0.16557	0.13227	0.21838	0.23773	0.10153	0.17851	0.068707	-2.2729	-3.0208	-3.125	-2.5896	-3.0417	-3.025	-2.4167	-3.2229	-2.625	-3.0542	-3.3458	-2.7229	-3.1188	-2.9417	-2.6708	-3.2583	304.939	477.500	325.731	498.927	242.179	320.885	469.747	443.575	340.536	218.830	452.074	525.706	210.394	195.236	227.000	503.373	0.00036381	0.00045332	8.5814e-05	222.6	4.6281e-06	4.2617e-06	348.28	72.697	2.8604e-06	3.2415e-06	138.54	53.464	25.565	12.668	5.4725e-06	29.064	0.00084126	0.00087543	0.00024257	228.89	9.4022e-06	9.5533e-06	342.59	74.833	9.4998e-06	9.5028e-06	138.32	53.002	26.982	13.045	9.6206e-06	28.838	520.052	236.771	307.241	190.735	381.176	373.062	190.525	195.985	324.674	234.740	194.577	198.389	199.556	204.694	289.598	201.691	-8191	255	
32798.219	1	1	0	0	0.21964	0.27756	0.052954	0.24834	0.14511	0.063567	0.28908	0.26935	0.081237	0.36461	0.16108	0.093154	0.11219	0.071474	0.24895	0.16241	-2.5687	-2.725	-3.4	-2.3083	-3.0667	-2.9229	-2.5375	-3.1896	-2.8688	-2.925	-3.3083	-2.5458	-2.9271	-3.0521	-2.5812	-3.3667	315.033	334.379	296.138	314.392	326.874	389.900	513.239	389.725	210.151	293.824	500.882	188.621	453.975	281.048	358.680	185.434	0.00038845	0.0004026	0.00010943	221.19	3.5488e-06	3.7959e-06	347.07	73.752	6.4288e-06	2.3882e-06	137.22	52.898	24.905	12.841	7.7953e-06	29.059	0.00083736	0.00087378	0.00024089	229.55	9.4028e-06	9.5337e-06	342.98	75.056	9.3699e-06	9.4011e-06	137.19	52.658	26.82	13.085	9.4805e-06	28.651	508.939	349.066	359.744	191.351	329.773	519.333	190.290	196.647	360.149	351.313	194.416	198.022	199.327	204.421	439.871	201.905	-8191	255	
32798.316	1	1	0	0	0.058644	0.043912	0.1226	0.085985	0.16632	0.16766	0.029726	0.21885	0.23771	0.26937	0.068477	0.076837	0.035583	0.011697	0.065525	0.078149	-2.4792	-2.6792	-3.2083	-2.5917	-2.9333	-3.0729	-2.5542	-3.2646	-2.8792	-2.4938	-3.3646	-2.7375	-3.0854	-3.3	-2.6375	-3.2792	425.159	495.185	502.970	308.971	376.885	297.392	424.693	523.320	392.789	436.144	296.766	478.205	354.868	477.951	519.560	430.766	0.00050563	0.00027782	1.0403e-05	222.49	5.1483e-06	3.6526e-06	349.14	73.338	6.4639e-06	1.47e-06	136.39	52.334	25.288	12.685	2.0219e-06	28.958	0.00081561	0.00086415	0.00024077	228.6	9.3697e-06	9.4266e-06	341.38	74.763	9.4054e-06	9.4547e-06	136.69	52.612	26.769	13.023	9.3644e-06	28.6	523.288	203.257	465.547	191.613	294.177	353.589	190.306	196.525	244.396	323.557	193.928	198.339	200.157	204.058	357.586	202.313	-8191	255	
32798.410	1	1	0	0	0.24897	0.25415	0.095824	0.25178	0.23302	0.11146	0.10228	0.10128	0.24046	0.17671	0.029424	0.31662	0.11215	0.10387	0.15558	0.34433	-2.4688	-2.65	-3.1854	-2.8312	-2.7917	-3.1937	-2.6354	-3.2062	-2.9896	-2.575	-3.2833	-2.5938	-2.7875	-3.4437	-2.5208	-3.2896	268.571	258.769	328.987	428.451	387.291	214.437	313.881	320.590	235.434	261.136	271.135	409.985	320.659	202.049	466.424	534.555	0.00042107	7.5614e-05	0.00011905	221.06	3.5393e-06	5.7983e-06	346.44	73.038	1.773e-06	3.18e-06	137.69	52.504	25.597	12.654	4.8195e-06	28.755	0.00081786	0.00086935	0.0002374	227.51	9.3566e-06	9.3543e-06	341.04	74.379	9.2641e-06	9.3228e-06	136.91	52.594	26.787	12.928	9.2156e-06	28.492	513.246	281.889	251.521	191.285	229.494	378.371	190.309	195.956	233.032	434.924	194.313	197.520	199.615	204.598	280.680	202.173	-8191	255	
32798.508	1	1	0	0	0.24899	0.2936	0.24804	0.21236	0.19147	0.2684	0.12263	0.29506	0.11256	0.10513	0.081836	0.21698	0.094931	0.14385	0.34885	0.21392	-2.7146	-2.25	-3.2271	-2.6917	-2.7604	-3.1521	-2.5625	-2.9417	-3.2438	-2.5812	-3.3271	-2.7292	-2.725	-3.3875	-2.5771	-3.15	312.034	259.846	181.093	488.765	490.201	475.322	222.181	421.418	449.888	517.775	231.382	187.797	503.357	223.829	315.449	433.090	0.00037396	0.00053362	0.00012221	221.98	1.3071e-06	2.7353e-06	346.12	72.804	7.0393e-06	4.6776e-06	134.48	52.101	25.318	12.549	2.9087e-06	28.714	0.00080516	0.0008526	0.0002377	227.23	9.1962e-06	9.294e-06	340.23	74.182	9.3036e-06	9.3576e-06	136.1	52.332	26.764	12.854	9.371e-06	28.333	183.534	346.319	257.646	191.069	295.066	317.313	189.891	196.387	258.057	388.391	194.636	198.161	200.414	204.182	515.336	201.678	-8191	255	
32798.629	1	1	0	0	0.31881	0.022279	0.10231	0.071626	0.082346	0.2274	0.21838	0.047749	0.21792	0.25905	0.20926	0.09996	0.3273	0.18859	0.20061	0.22332	-2.6937	-2.5104	-3.225	-2.85	-2.5812	-3.1937	-2.5146	-2.9813	-3.1708	-2.5854	-3.225	-2.7958	-2.5687	-3.2229	-2.8208	-2.9	193.034	373.474	410.193	254.527	346.866	529.152	314.782	367.976	250.927	518.031	518.418	376.481	185.110	188.347	260.317	426.258	0.00037667	0.00073431	9.9419e-05	222.2	4.2235e-06	6.7967e-06	342.75	72.456	2.3244e-06	5.5057e-06	136.01	51.854	25.166	12.476	4.6747e-06	28.477	0.00080625	0.00085691	0.00024082	226.57	9.2808e-06	9.2837e-06	337.96	74.032	9.197e-06	9.4448e-06	135.83	51.896	26.515	12.848	9.2579e-06	28.201	520.800	213.424	492.316	190.746	287.062	524.870	190.473	196.226	399.523	385.530	194.441	198.692	200.062	204.834	355.927	201.789	-8191	255	
32798.723	1	1	0	0	0.18615	0.341	0.13913	0.24939	0.046973	0.12876	0.14253	0.12087	0.041589	0.24568	0.17229	0.12505	0.050428	0.17063	0.16367	0.069777	-2.9188	-2.3333	-3.0542	-2.9938	-2.6146	-3.4562	-2.7417	-2.7854	-3.2354	-2.5062	-3.1271	-2.925	-2.5125	-3.3958	-2.7083	-2.8479	293.990	273.033	496.683	403.413	341.346	202.030	430.213	371.666	424.433	456.653	259.323	503.517	512.647	218.182	402.949	370.217	0.00057531	0.0013082	0.00016373	218.44	6.5315e-06	2.572e-06	341.29	72.341	5.449e-06	3.0767e-06	134.97	51.253	24.814	12.399	2.1766e-06	28.717	0.00082675	0.00086317	0.00023917	225.27	9.3878e-06	9.4085e-06	336.65	73.653	9.2315e-06	9.3512e-06	135.15	51.908	26.507	12.813	9.4415e-06	28.331	179.494	252.965	348.117	191.294	448.084	408.947	190.131	196.083	339.495	308.298	194.313	198.540	200.091	204.392	292.649	201.765	-8191	255	
32798.820	1	1	0	0	0.18309	0.17937	0.1735	0.15944	0.17798	0.12378	0.092899	0.28206	0.1451	0.17541	0.21785	0.17342	0.24122	0.067363	0.28895	0.12526	-3.1229	-2.4729	-2.9688	-3.2271	-2.4542	-3.425	-3.0354	-2.6958	-3.1667	-2.7646	-3.0875	-3.0229	-2.6396	-3.3104	-2.8771	-2.5417	360.604	353.103	235.989	257.083	306.776	513.932	416.406	241.523	192.691	387.739	195.471	451.635	482.163	263.579	317.239	524.996	0.00045064	0.00056018	0.00019521	217.98	1.2194e-06	5.4995e-06	344.2	72.835	4.2227e-06	8.3368e-06	136.1	51.917	24.792	12.457	9.462e-06	28.735	0.00082961	0.00087123	0.00024119	225.85	9.3152e-06	9.3835e-06	339.02	74.38	9.4021e-06	9.5158e-06	136.16	51.926	26.662	12.928	9.4752e-06	28.472	517.490	340.826	216.353	190.847	390.300	458.830	189.990	195.582	280.062	324.919	194.668	197.892	199.528	204.355	516.248	201.841	-8191	255	
32798.891	1	1	0	0	0.25348	0.13295	0.24441	0.28554	0.15042	0.096928	0.063804	0.14213	0.081709	0.11017	0.17182	0.072759	0.10649	0.089025	0.080809	0.23532	-3.0021	-2.4479	-2.9333	-3.2083	-2.7583	-3.1833	-3.1	-2.5104	-3.3167	-2.75	-2.75	-3.1771	-2.5542	-3.15	-2.9104	-2.4333	495.252	449.651	187.182	204.422	417.285	218.031	469.784	486.322	251.502	469.583	354.492	285.117	459.288	446.744	267.372	469.670	0.00039702	0.00026547	0.00011147	220.95	4.0715e-06	5.6925e-06	346.87	72.691	4.9684e-06	1.0034e-05	135.38	52.665	25.263	12.604	1.6921e-06	28.909	0.00082485	0.00087382	0.00024231	226.7	9.3357e-06	9.5326e-06	339.52	74.144	9.2966e-06	9.4441e-06	136.66	52.415	26.723	12.941	9.5948e-06	28.573	512.139	229.493	398.618	191.226	372.329	324.955	190.134	196.131	221.105	341.475	194.640	198.594	199.522	204.737	304.659	201.905	-8191	255	
32799.012	1	1	0	0	0.13991	0.21551	0.12913	0.076697	0.11759	0.19069	0.10514	0.2146	0.064727	0.14358	0.28825	0.18325	0.14818	0.12486	0.038051	0.070626	-2.7854	-2.6625	-2.7604	-3.2833	-2.6229	-2.9729	-3.0542	-2.3979	-3.4188	-2.6958	-2.6854	-3.2958	-2.5042	-2.9083	-3.0938	-2.5125	403.750	195.161	320.705	322.604	335.118	406.795	254.030	518.990	423.416	412.677	487.299	407.257	408.944	356.078	197.264	495.789	0.00027503	0.00031947	9.6814e-05	217.77	2.1393e-06	5.8952e-06	341.91	73.21	4.7277e-06	2.1316e-06	135.54	51.427	25.018	12.595	3.9525e-06	28.615	0.0008161	0.00088894	0.00024386	226.54	9.5057e-06	9.6324e-06	338.53	74.112	9.3106e-06	9.5535e-06	136.23	52.001	26.696	12.992	9.6165e-06	28.482	514.732	368.644	355.971	191.150	256.259	368.858	190.205	195.936	205.643	270.861	194.089	197.953	199.863	204.527	202.971	201.911	-8191	255	
32799.105	1	1	0	0	0.12232	0.18888	0.16039	0.20079	0.20964	0.20091	0.10436	0.20231	0.11251	0.21196	0.18961	0.089087	0.19524	0.05811	0.18957	0.0058664	-3.1042	-2.6646	-2.7188	-3.2104	-2.5833	-3.0354	-3.1375	-2.5854	-3.2396	-2.8646	-2.5625	-3.3417	-2.7479	-3.0667	-3.2667	-2.55	307.864	384.904	426.339	506.256	421.563	325.679	249.998	415.560	190.565	477.575	428.232	484.114	400.299	192.571	455.429	278.146	0.00059101	0.00010954	0.00025865	223.69	4.015e-06	1.1604e-06	348.07	72.752	6.9101e-07	6.9309e-06	134.87	52.196	25.243	12.589	3.5488e-06	29.079	0.0008192	0.00087578	0.00024174	228.14	9.5251e-06	9.5921e-06	340.02	74.428	9.5497e-06	9.5433e-06	136.7	52.229	26.665	13.008	9.5205e-06	28.642	521.086	277.161	256.415	191.315	223.527	408.482	190.067	196.382	300.754	271.713	195.435	198.504	199.836	204.477	234.939	201.606	-8191	255	
32799.203	1	1	0	0	0.20202	0.2892	0.22904	0.079362	0.19636	0.17379	0.12591	0.019664	0.1552	0.31764	0.088271	0.096209	0.20974	0.18258	0.20808	0.073532	-2.8396	-3.0708	-2.4708	-3.3312	-2.6646	-2.8542	-3.3542	-2.6542	-3.0354	-2.9875	-2.5479	-3.25	-2.725	-2.9646	-3.4208	-2.6792	192.972	343.020	364.692	299.769	287.456	253.932	415.061	449.549	309.064	399.092	388.566	449.994	279.781	469.879	387.973	438.195	0.00018895	0.00097043	9.3659e-05	220.68	2.2903e-06	7.9563e-06	347.09	74.141	4.9903e-06	6.524e-06	136.51	51.897	25.349	12.712	2.9247e-06	29.034	0.00082598	0.00086121	0.00024339	227.76	9.4639e-06	9.5401e-06	341.22	74.925	9.5342e-06	9.5953e-06	137.53	52.151	26.912	13.095	9.471e-06	28.719	509.420	286.915	205.214	190.273	439.169	346.679	190.346	196.143	254.144	278.028	194.739	198.014	200.175	204.697	202.620	202.029	-8191	255	
32799.301	1	1	0	0	0.1815	0.14602	0.34444	0.09561	0.24521	0.20693	0.28892	0.055652	0.22981	0.083577	0.21131	0.055849	0.19616	0.38246	0.097074	0.12681	-2.6771	-3.1063	-2.55	-3.3125	-2.8708	-2.6417	-3.2458	-2.4375	-3.0167	-3.2208	-2.3979	-3.1042	-2.7042	-2.5062	-3.2708	-2.5938	325.589	406.673	346.247	317.904	185.876	336.558	424.336	318.974	253.872	397.167	204.434	347.339	241.899	251.948	393.345	471.841	0.00042719	0.00049244	0.00010611	220.96	1.412e-06	8.4602e-07	347.45	73.645	4.5713e-06	6.1741e-06	134.23	53.062	25.455	12.653	3.0828e-06	28.975	0.00083868	0.00087821	0.00023825	228	9.6143e-06	9.5014e-06	343.12	74.963	9.4958e-06	9.4721e-06	137.2	52.762	26.887	13.04	9.5091e-06	28.675	526.620	273.313	516.744	191.360	482.635	534.418	190.235	196.185	318.617	312.048	194.677	198.067	199.873	204.355	472.211	202.043	-8191	255	
32799.422	1	1	0	0	0.18198	0.093156	0.25844	0.12848	0.23007	0.14861	0.23048	0.13713	0.27383	0.14459	0.19927	0.36489	0.15929	0.1737	0.14328	0.076613	-2.5104	-3.1021	-2.5687	-3.1604	-2.9604	-2.6625	-3.375	-2.6479	-2.9354	-3.1458	-2.3417	-3.2229	-3.0083	-2.55	-3.2188	-2.7958	497.209	298.442	425.359	314.326	193.065	239.075	239.411	282.926	193.305	451.036	333.654	461.111	529.312	204.553	278.045	435.732	0.00045026	0.0010942	6.9132e-05	222.44	4.9815e-06	3.6906e-06	345.38	73.779	2.0795e-06	2.5152e-06	137.29	52.701	25.322	12.607	9.5838e-06	29.023	0.00082813	0.00086581	0.00024054	228.44	9.4986e-06	9.5054e-06	341.74	74.62	9.4569e-06	9.4019e-06	137.33	52.653	26.824	13.019	9.2597e-06	28.606	519.705	330.825	500.661	190.750	178.359	427.705	190.710	196.293	293.183	335.283	194.564	198.590	200.335	204.041	216.135	201.338	-8191	255	
32799.516	1	1	0	0	0.20903	0.031738	0.10917	0.2778	0.12426	0.14209	0.26976	0.19262	0.12945	0.03982	0.042286	0.13847	0.089014	0.15739	0.21545	0.16005	-2.4604	-3.1437	-2.3479	-3.1479	-2.975	-2.5542	-3.3667	-2.6063	-2.7313	-3.1729	-2.3521	-3.0354	-3.0896	-2.4938	-3.3583	-2.7042	298.965	425.146	204.010	237.710	491.802	532.610	493.301	500.337	509.946	398.687	253.068	265.830	220.301	401.055	382.614	496.866	0.00032708	0.00068965	6.5155e-05	224.87	1.1931e-06	8.1797e-06	345.87	72.141	7.2527e-06	6.7564e-06	136.58	52.912	25.536	12.841	2.0654e-06	29.248	0.00083708	0.00086614	0.00024146	227.98	9.4708e-06	9.3678e-06	341.99	74.484	9.2938e-06	9.5969e-06	137.9	52.707	26.969	13.143	9.3728e-06	28.913	532.875	517.879	214.605	191.165	255.480	419.054	190.654	195.635	319.673	369.036	194.310	198.759	198.976	204.466	249.381	201.825	-8191	255	
32799.590	1	1	0	0	0.091308	0.15286	0.20823	0.31857	0.15358	0.20207	0.15355	0.047902	0.14671	0.092283	0.38557	0.14346	0.12606	0.21912	0.1238	0.13332	-2.3708	-3.1	-2.3833	-3.0833	-3.0812	-2.4479	-3.1417	-2.7854	-2.6792	-3.2583	-2.5396	-3.1083	-3.0938	-2.4854	-3.3896	-2.8563	329.511	280.062	446.105	331.102	362.623	316.503	485.124	184.920	298.763	296.750	410.903	420.463	189.801	181.924	312.891	482.768	0.00032759	0.00068704	6.8071e-05	220.02	1.5592e-06	3.5902e-06	345.35	73.098	5.1832e-06	4.379e-06	136.75	52.794	25.626	12.584	8.335e-06	29.07	0.00081736	0.00085648	0.00024007	228.12	9.2705e-06	9.5144e-06	341.62	74.663	9.3383e-06	9.3415e-06	137.13	52.987	26.793	13.056	9.3921e-06	28.811	523.285	317.499	308.843	191.606	255.676	530.616	190.175	195.750	211.251	435.707	194.984	198.382	200.087	204.739	263.991	201.428	-8191	255	
32799.711	1	1	0	0	0.062312	0.094175	0.20823	0.055287	0.32214	0.077858	0.15502	0.12119	0.24117	0.1712	0.15975	0.1722	0.031764	0.20102	0.25972	0.10342	-2.325	-3.3021	-2.5771	-2.8667	-3.0792	-2.5229	-3.175	-2.8063	-2.5438	-3.25	-2.5687	-2.6896	-3.2188	-2.4208	-2.9604	-3.025	204.985	255.797	182.861	428.563	220.503	296.160	504.424	477.397	529.987	211.345	483.807	185.544	534.608	257.210	238.478	536.538	0.00039481	0.00076736	5.8308e-05	220.55	3.7207e-06	9.0988e-06	345.19	73.435	4.0085e-06	5.553e-06	137.24	52.991	25.498	12.744	2.6427e-06	29.017	0.00081488	0.00085746	0.0002423	228.01	9.1827e-06	9.4397e-06	341.64	74.751	9.3367e-06	9.5019e-06	137.23	52.869	26.854	13.033	9.2447e-06	28.758	535.996	266.639	323.482	191.417	527.336	356.938	190.624	195.711	307.426	304.318	194.771	198.447	200.322	204.501	455.693	201.959	-8191	255	
32799.805	1	1	0	0	0.24949	0.051373	0.13646	0.24863	0.2679	0.078481	0.12505	0.13778	0.060833	0.14088	0.12898	0.080355	0.11223	0.23377	0.22692	0.16685	-2.1333	-3.4146	-2.6188	-2.5	-3.2958	-2.5604	-3.0396	-2.9354	-2.4437	-3.3167	-2.7729	-2.7854	-3.3083	-2.4854	-2.8958	-3.2917	228.116	206.901	320.099	246.966	447.159	479.929	486.755	386.769	477.223	289.905	436.513	425.895	396.053	451.432	307.290	471.073	0.00048402	0.00027911	0.00011204	217.93	1.3257e-06	5.9017e-06	346.73	73.527	3.3796e-06	4.0427e-06	135.54	52.271	25.166	12.505	1.0146e-06	29.051	0.00081513	0.00086354	0.0002391	225.8	9.3264e-06	9.4276e-06	339.5	74.671	9.2795e-06	9.476e-06	136.59	52.507	26.743	12.951	9.3383e-06	28.56	517.624	254.973	373.593	191.409	213.097	313.208	190.540	195.988	299.677	385.580	194.429	198.386	200.323	204.183	340.466	201.814	-8191	255	
32799.902	1	1	0	0	0.13969	0.11961	0.17994	0.086864	0.055245	0.13646	0.29802	0.10936	0.10807	0.099345	0.20386	0.25246	0.078152	0.1901	0.18099	0.22627	-2.1521	-3.2396	-2.8083	-2.6917	-3.1958	-2.4125	-2.8667	-2.9125	-2.5354	-3.1646	-2.7646	-2.6479	-3.3333	-2.6271	-2.8896	-3.1646	436.461	196.534	213.079	494.374	322.820	525.655	473.705	487.318	414.756	524.906	438.775	311.655	479.975	426.610	302.312	379.456	0.00041682	8.5725e-05	0.00028763	218.86	5.2801e-06	6.119e-06	343.55	72.433	4.038e-07	6.5442e-06	137.68	52.411	25.392	12.672	6.1835e-06	28.916	0.00082146	0.00086022	0.00023862	225.91	9.1735e-06	9.4232e-06	339.81	74.135	9.1509e-06	9.3193e-06	136.98	52.568	26.699	13.046	9.1461e-06	28.71	530.802	536.904	467.964	190.672	337.808	468.213	190.745	195.281	272.584	217.633	194.563	198.351	200.075	204.749	294.145	201.957	-8191	255	
32800.020	1	1	0	0	0.12647	0.1547	0.32393	0.11544	0.13815	0.28608	0.19008	0.25509	0.4415	0.13452	0.093199	0.27272	0.077284	0.30831	0.10357	0.24224	-2.0812	-3.1417	-2.8958	-2.5042	-3.2375	-2.725	-2.8542	-3.3708	-2.675	-3.1896	-3.0354	-2.5604	-3.225	-2.6375	-2.7	-3.2021	425.677	258.213	500.032	525.080	515.426	453.166	281.502	474.939	515.057	521.551	497.389	233.489	207.301	443.603	216.895	499.757	0.00037463	0.00048306	4.7924e-05	220.13	3.6411e-06	5.0661e-06	344.07	72.721	2.7007e-06	6.5511e-06	135.21	52.461	25.454	12.762	5.7739e-06	29.174	0.00081141	0.0008573	0.00023282	225.68	9.0619e-06	9.2927e-06	338.48	74.116	9.1186e-06	9.3185e-06	136.63	52.765	26.831	13.041	9.191e-06	28.891	181.995	221.152	258.892	191.039	217.412	513.859	190.144	196.717	277.403	422.160	194.803	198.360	200.173	204.572	468.680	201.728	-8191	255	
32800.117	1	1	0	0	0.12872	0.080954	0.3301	0.1514	0.28736	0.21237	0.2135	0.19783	0.089513	0.13286	0.22279	0.15036	0.058181	0.097652	0.078664	0.071324	-2.1375	-3.0958	-2.9896	-2.5479	-3.3146	-2.8146	-2.7771	-3.3333	-2.3688	-2.9833	-3.2521	-2.3667	-3.3667	-2.85	-2.65	-3.3646	509.376	497.224	282.186	383.446	188.608	511.063	376.907	337.193	307.926	410.739	470.784	398.994	462.552	449.964	418.630	192.916	0.00038446	0.00026403	2.2577e-05	218.92	7.7147e-06	4.7941e-06	343.73	72.154	2.8041e-06	7.0916e-06	137.37	52.868	25.678	12.747	2.3247e-06	29.308	0.00082062	0.00084383	0.00023382	225.61	9.0856e-06	9.2991e-06	341.6	74.062	9.1314e-06	9.2461e-06	137.27	52.957	26.797	13.08	9.1433e-06	28.865	535.298	412.934	448.981	191.358	354.148	209.562	190.330	196.265	249.136	461.417	194.572	198.527	199.804	204.569	276.862	202.052	-8191	255	
32800.188	1	1	0	0	0.17159	0.074353	0.065962	0.086657	0.10777	0.20403	0.16861	0.1483	0.27258	0.050888	0.14621	0.052813	0.28366	0.13124	0.32426	0.2827	-2.0792	-2.825	-3.0208	-2.4708	-3.1583	-2.7917	-2.5396	-3.1688	-2.5167	-2.7313	-3.2562	-2.5792	-3.1354	-2.7208	-2.5917	-3.3292	290.178	275.438	466.281	464.354	286.234	367.523	408.041	363.385	276.141	333.114	508.067	214.102	247.903	492.972	434.512	490.740	0.00037293	0.00015884	0.0001021	222.07	9.7201e-06	8.2138e-06	346.43	73.684	6.7167e-07	2.7112e-06	136.51	53.524	25.613	12.878	7.0163e-06	29.156	0.00079828	0.00084053	0.00023186	226.67	9.1493e-06	9.2687e-06	340.64	74.58	9.1845e-06	9.2304e-06	137.25	53.236	26.859	13.119	9.1686e-06	28.924	528.753	351.091	224.057	190.734	286.920	348.287	190.473	196.726	230.947	338.184	194.577	198.601	199.784	204.544	238.852	201.893	-8191	255	
32800.309	1	1	0	0	0.18171	0.10163	0.16052	0.057212	0.020821	0.077709	0.1937	0.059788	0.10505	0.11575	0.17912	0.12854	0.23749	0.24869	0.33869	0.23226	-2.1979	-2.8063	-3.0771	-2.5521	-3.1646	-3.0521	-2.5646	-3.225	-2.6646	-2.775	-3.2542	-2.5396	-3.0646	-2.9375	-2.45	-3.2792	196.318	304.237	376.180	314.265	350.179	500.796	188.901	392.689	327.238	213.873	415.258	263.794	276.246	263.307	515.479	213.008	0.00029994	0.00048719	0.00017267	222.54	9.7167e-06	1.4264e-05	351.86	73.679	1.3433e-06	9.1254e-06	136.94	53.291	25.942	12.721	4.9831e-06	29.533	0.00080814	0.00086272	0.00023528	229.04	9.0591e-06	9.3731e-06	345.28	75.086	9.317e-06	9.3418e-06	138.21	53.323	27.098	13.188	9.2157e-06	29.145	183.253	296.958	195.867	191.447	293.431	292.997	189.860	195.836	211.473	310.119	194.700	198.157	199.596	203.970	349.252	201.868	-8191	255	
32800.402	1	1	0	0	0.10657	0.094387	0.10704	0.10131	0.11184	0.11967	0.037096	0.088762	0.20731	0.087521	0.14138	0.080899	0.25185	0.028269	0.17097	0.0044274	-2.3125	-2.6583	-3.1646	-2.4125	-2.8333	-3.2271	-2.4146	-3.4437	-2.9	-2.7833	-3.2604	-2.65	-2.975	-3.0812	-2.5042	-3.1729	305.059	284.398	344.188	205.257	212.520	380.237	532.882	208.050	335.905	352.314	391.582	268.774	473.777	439.170	330.511	438.407	0.00052693	0.0007516	6.21e-05	224.32	2.4024e-06	4.0596e-06	346.39	74.253	9.7543e-07	2.4363e-06	137.59	53.583	25.807	12.991	2.6694e-06	29.205	0.00082108	0.00085727	0.00023636	229.37	9.1753e-06	9.2776e-06	343.39	75.028	9.1829e-06	9.2086e-06	137.88	53.493	27.039	13.175	9.2792e-06	29.088	517.629	267.925	399.002	191.158	537.556	434.143	190.650	196.001	185.733	307.735	194.959	198.608	199.828	204.294	372.058	201.839	-8191	255	
32800.500	1	1	0	0	0.15287	0.19997	0.060118	0.014216	0.11967	0.039122	0.2521	0.20355	0.13234	0.11929	0.12093	0.24684	0.055353	0.13533	0.27283	0.11444	-2.5208	-2.7604	-3.2229	-2.6292	-2.7375	-3.1458	-2.5479	-3.2104	-2.9708	-2.6167	-3.275	-2.8063	-2.8	-3.2167	-2.6771	-3.2917	305.418	393.094	321.309	178.692	414.924	534.675	307.684	474.635	253.181	306.966	368.302	406.909	289.692	458.160	200.656	196.710	0.00040747	0.00050728	4.6958e-05	222.07	6.428e-06	7.8388e-06	349.07	73.417	3.5528e-06	5.7032e-06	136.23	53.545	25.866	12.66	1.3432e-06	28.967	0.00080848	0.00085582	0.00023377	227.62	9.2903e-06	9.2381e-06	342.47	75.006	9.2061e-06	9.3183e-06	137.7	53.096	27.052	13.013	9.4592e-06	28.867	517.372	197.764	197.941	190.716	339.396	352.882	190.631	196.248	381.314	307.376	194.254	198.065	200.047	204.088	389.032	201.920	-8191	255	
32800.598	1	1	0	0	0.24447	0.046144	0.11357	0.22207	0.072947	0.15258	0.33708	0.24112	0.25047	0.097139	0.038387	0.061063	0.21152	0.18205	0.084383	0.070677	-2.5125	-2.4688	-3.2958	-2.6229	-2.7271	-3.2771	-2.4667	-3.1042	-3.0479	-2.5938	-3.2687	-2.7354	-2.5729	-3.2542	-2.475	-2.9833	296.112	424.236	441.317	450.229	286.163	337.473	197.504	340.538	189.666	200.921	332.449	467.434	214.153	506.391	239.241	449.116	0.00030709	0.00056291	0.00015551	216.83	1.5842e-06	1.2504e-06	348.14	73.38	7.1899e-06	7.4688e-06	136.73	53.124	25.153	12.658	4.5432e-06	29.198	0.00081268	0.0008619	0.00023567	226.7	9.3541e-06	9.2252e-06	342.02	74.327	9.1291e-06	9.2545e-06	137.28	52.977	26.794	13.048	9.2034e-06	28.838	522.814	334.446	473.709	190.483	232.778	383.064	190.313	195.833	291.622	307.143	194.764	197.934	199.770	204.126	437.775	202.011	-8191	255	
32800.715	1	1	0	0	0.039358	0.2173	0.24371	0.23748	0.14946	0.074689	0.27407	0.055723	0.26501	0.10842	0.12262	0.054749	0.16202	0.20175	0.3433	0.099589	-2.6542	-2.5312	-3.2625	-2.8667	-2.6708	-3.3583	-2.6583	-2.9417	-3.2417	-2.3688	-3.3312	-2.7958	-2.6896	-3.2354	-2.5792	-2.9813	468.366	231.518	254.832	499.632	222.727	206.488	522.497	460.077	393.839	427.556	350.078	334.130	451.383	288.362	373.270	402.450	0.0005464	0.00038518	4.8495e-05	221.95	3.8465e-06	3.2999e-06	346.32	73.093	1.0585e-05	8.0857e-06	138.56	53.414	25.439	12.998	1.2176e-05	29.547	0.00080517	0.00086374	0.00023369	228.55	9.2242e-06	9.1487e-06	342.73	74.751	9.1392e-06	9.3398e-06	138.52	53.408	27.006	13.175	9.3361e-06	29.067	525.181	454.768	204.427	190.562	282.128	249.193	189.859	196.911	270.599	282.740	195.050	197.687	200.132	204.152	267.196	201.742	-8191	255	
32800.812	1	1	0	0	0.065452	0.31807	0.09757	0.10642	0.17883	0.11499	0.061382	0.12859	0.10694	0.1513	0.10056	0.27932	0.27399	0.12219	0.18425	0.059842	-2.8937	-2.4104	-2.9562	-2.7833	-2.6208	-3.3792	-2.7	-2.7521	-3.0417	-2.4688	-3.175	-2.9771	-2.4292	-3.3208	-2.7625	-2.7979	415.799	392.682	275.919	382.694	460.767	438.244	384.604	525.824	195.011	374.361	196.087	349.411	496.595	525.268	248.027	477.838	0.00053557	0.00086005	0.00021306	222.82	7.1219e-06	4.7114e-06	351.17	74.949	2.3785e-06	5.1709e-06	138.3	53.756	25.917	12.777	6.1359e-06	29.647	0.00081929	0.00085198	0.00023782	229.06	9.3002e-06	9.2419e-06	344.37	75.642	9.1679e-06	9.2847e-06	138.43	53.657	27.157	13.158	9.3767e-06	29.367	521.178	455.999	334.546	191.196	245.530	367.212	189.616	195.662	322.799	392.144	194.928	198.718	200.426	204.996	322.957	202.223	-8191	255	
32800.883	1	1	0	0	0.161	0.28427	0.20238	0.16337	0.23735	0.076566	0.23888	0.099651	0.31594	0.14484	0.21328	0.15137	0.1661	0.1576	0.10538	0.25286	-2.8521	-2.4625	-2.9604	-2.95	-2.4542	-3.2042	-2.9042	-2.475	-3.2188	-2.3312	-2.9771	-3.0917	-2.4167	-3.3125	-2.6771	-2.7812	195.366	205.856	261.947	184.618	472.528	461.711	413.043	333.241	452.490	270.068	234.967	241.401	229.529	221.479	479.736	453.906	0.00033752	0.00032888	0.0001217	223.34	8.8663e-06	3.4909e-06	350.81	73.812	4.6107e-06	6.7612e-06	139.77	53.872	25.746	13.085	1.3028e-06	29.617	0.00079979	0.00084121	0.00023476	229.7	9.1633e-06	9.1155e-06	344.23	75.132	9.1865e-06	9.2656e-06	139.6	53.711	27.156	13.217	9.4791e-06	29.288	501.914	285.319	309.345	191.263	318.597	380.936	190.475	195.972	291.270	430.269	194.900	198.441	200.110	204.589	342.808	202.239	-8191	255	
32800.980	1	1	0	0	0.086286	0.12615	0.093077	0.21815	0.077104	0.12161	0.27927	0.27965	0.10834	0.099155	0.14285	0.20845	0.156	0.22506	0.06121	0.087423	-2.9979	-2.5771	-2.9104	-3.0979	-2.3292	-3.2354	-2.9396	-2.5708	-3.2188	-2.6333	-2.8438	-3.1833	-2.2771	-3.1208	-2.7812	-2.5938	307.472	311.753	263.401	489.564	317.654	475.830	428.491	430.230	222.728	315.918	275.427	526.595	405.849	478.403	451.276	360.226	0.00038898	0.0010306	0.00018399	222.37	5.8239e-06	2.0093e-06	349.67	73.778	4.2909e-06	8.3298e-06	138.41	53.864	25.669	12.8	3.3808e-06	29.511	0.00080452	0.00083732	0.00023589	228.08	9.0199e-06	9.2634e-06	344.63	75.321	9.0225e-06	9.2352e-06	138.81	53.35	27.126	13.2	9.2435e-06	29.201	515.253	405.608	205.648	191.778	399.400	349.575	189.848	195.787	327.565	374.724	194.305	198.250	199.742	204.264	255.747	201.919	-8191	255	
32801.102	1	1	0	0	0.055362	0.16952	0.1503	0.19797	0.17612	0.13319	0.083981	0.10428	0.19554	0.17617	0.1277	0.09301	0.2625	0.19466	0.016935	0.068136	-2.9917	-2.5312	-2.55	-2.9792	-2.5771	-3.1083	-3.1063	-2.5292	-3.1729	-2.6104	-2.8021	-3.0375	-2.4521	-3.1625	-3.0104	-2.4313	279.459	535.627	304.957	301.329	382.671	214.764	302.407	410.833	370.482	383.061	426.813	406.997	536.298	473.524	439.444	486.950	0.00052089	0.00036114	4.5834e-05	222.41	6.112e-06	1.7679e-06	349.03	74.873	1.3157e-06	3.7782e-06	139.37	53.564	26.115	13.021	3.8015e-06	29.784	0.00080139	0.00082762	0.00022946	229.81	9.0486e-06	9.1312e-06	346.14	75.51	8.8379e-06	9.1308e-06	140.09	53.588	27.232	13.286	9.1465e-06	29.446	525.427	251.541	243.954	190.859	319.734	359.614	189.799	196.197	202.747	431.885	195.016	198.592	199.411	204.052	280.531	201.888	-8191	255	
32801.195	1	1	0	0	0.24419	0.1568	0.05786	0.085252	0.016725	0.15387	0.24008	0.17425	0.10381	0.14061	0.16162	0.028509	0.15721	0.13271	0.16513	0.059866	-2.7917	-2.6542	-2.7042	-3.2417	-2.5292	-3.225	-3.0542	-2.4875	-3.2646	-2.8646	-2.6042	-3.1646	-2.5833	-2.75	-3.0979	-2.4062	218.479	201.464	529.207	533.745	452.874	245.373	513.489	446.600	473.011	482.802	457.368	449.479	315.177	401.103	282.821	486.436	0.0004173	0.00063395	0.00011327	227.95	2.8755e-06	4.7969e-06	354.59	74.815	5.0693e-06	5.6971e-06	139.38	53.922	26.062	13.026	6.3172e-06	29.9	0.00080178	0.00083768	0.00023034	230.75	8.936e-06	8.9977e-06	348.18	75.641	8.8305e-06	9.0079e-06	139.87	53.913	27.304	13.313	8.9393e-06	29.411	507.120	314.539	220.446	191.396	365.446	372.785	190.401	196.006	382.883	415.927	194.205	198.511	199.158	204.406	402.028	201.639	-8191	255	
32801.293	1	1	0	0	0.0086756	0.277	0.15396	0.078144	0.30197	0.085412	0.084304	0.33126	0.19228	0.16866	0.09718	0.19917	0.2433	0.04901	0.18859	0.13563	-2.7229	-2.8792	-2.4667	-3.2042	-2.5167	-2.9375	-3.2125	-2.4146	-3.1771	-2.8792	-2.5604	-3.0917	-2.6292	-2.8146	-3.2521	-2.5042	336.277	466.684	241.524	294.002	209.551	327.298	536.980	278.242	208.650	444.127	479.341	478.560	511.989	506.206	482.186	466.441	0.00042885	0.00090037	0.00011148	224.94	2.0397e-06	6.6093e-06	349.5	74.353	4.2409e-06	7.7705e-07	139.6	53.152	25.504	12.882	8.9717e-06	29.407	0.00078671	0.00083408	0.00022741	228.67	9.0353e-06	9.1259e-06	344.83	75.465	8.8461e-06	9.0142e-06	139.25	53.248	26.962	13.168	8.8476e-06	29.164	538.192	315.168	292.692	190.504	322.376	310.800	190.202	196.449	245.783	377.264	194.550	198.179	199.309	204.540	328.709	201.727	-8191	255	
32801.391	1	1	0	0	0.12441	0.071501	0.062372	0.066742	0.24038	0.088664	0.18036	0.07522	0.1531	0.12802	0.11282	0.13286	0.13801	0.15064	0.098515	0.24006	-2.8792	-3.1521	-2.5125	-3.2583	-2.6562	-2.6917	-3.3021	-2.4333	-3.2542	-3.1521	-2.4458	-3.2042	-2.6083	-2.6042	-3.2854	-2.55	402.485	330.715	243.110	319.558	489.085	392.950	480.720	417.777	292.331	267.881	471.363	375.323	420.087	420.977	205.144	178.830	0.00042134	0.00043613	0.00011493	221.5	3.0721e-06	5.3352e-06	351.09	74.268	4.5558e-06	1.9693e-06	139.24	53.502	25.724	12.879	7.7267e-06	29.329	0.00078025	0.00082995	0.00023413	228.45	8.9204e-06	8.9703e-06	345.04	75.125	8.8614e-06	8.9096e-06	138.79	53.401	27.023	13.133	8.8749e-06	29.038	526.392	296.484	332.334	191.215	393.454	267.686	190.387	196.593	334.020	316.604	194.896	199.060	199.931	204.990	231.451	201.767	-8191	255	
32801.484	1	1	0	0	0.21407	0.25098	0.29639	0.18126	0.080719	0.24855	0.21344	0.28104	0.12543	0.074686	0.018144	0.24505	0.070531	0.19994	0.15809	0.30377	-2.5229	-2.9771	-2.3146	-3.1813	-2.7667	-2.6417	-3.3833	-2.4458	-2.9229	-2.9542	-2.6479	-3.1854	-2.7625	-2.5479	-3.2687	-2.5896	240.256	493.011	452.719	236.670	358.144	389.537	287.660	314.113	323.118	381.030	461.678	182.663	333.423	290.864	215.849	203.163	0.00040298	0.00043164	4.8632e-05	225.24	1.9794e-06	7.0955e-06	350.46	74.124	2.5187e-06	8.6201e-06	137.89	53.915	25.674	12.813	3.5965e-06	29.586	0.00078659	0.00082724	0.00022973	228.94	8.9479e-06	8.9407e-06	344	75.277	8.8488e-06	8.9679e-06	137.88	53.338	26.887	13.111	8.8017e-06	29.167	520.163	253.735	460.534	190.781	386.453	529.722	189.514	195.935	206.690	291.553	194.505	198.241	199.588	204.581	459.077	201.749	-8191	255	
32801.582	1	1	0	0	0.03382	0.27704	0.060911	0.32919	0.080134	0.13886	0.037916	0.32206	0.15914	0.24553	0.06098	0.16473	0.098074	0.19188	0.13826	0.12638	-2.3458	-3.0917	-2.4104	-3.25	-2.8083	-2.3771	-3.2958	-2.6063	-2.7625	-3.3125	-2.4792	-3.0271	-3.0771	-2.6042	-3.4083	-2.6854	399.693	385.130	475.180	336.488	249.159	222.280	329.763	524.317	244.247	367.039	444.628	487.388	356.289	444.478	329.430	213.425	0.00034966	0.00015868	0.00020245	222.89	1.0115e-06	4.9097e-06	348.6	73.424	6.2344e-06	6.0332e-06	138.05	53.458	25.273	12.98	4.9749e-06	29.299	0.00078184	0.00081627	0.0002313	229	8.9234e-06	8.961e-06	343.3	74.948	8.8353e-06	8.877e-06	138.15	53.268	26.79	13.165	8.9054e-06	28.969	180.567	273.832	178.927	191.721	426.304	370.518	190.387	196.052	312.535	367.258	194.754	198.894	199.925	204.548	336.948	202.015	-8191	255	
32801.703	1	1	0	0	0.097059	0.23981	0.169	0.052366	0.17649	0.14008	0.22691	0.1547	0.18326	0.2146	0.17305	0.12456	0.25936	0.17553	0.15088	0.24295	-2.4104	-3.1562	-2.6021	-3.1229	-3.0104	-2.6667	-3.2583	-2.8396	-2.7167	-3.2854	-2.55	-3.0708	-3.0625	-2.4542	-3.2146	-2.975	339.081	326.881	395.699	382.682	428.860	350.667	504.591	425.418	335.472	439.963	418.540	226.625	229.493	463.497	285.309	491.313	0.00028751	0.00054474	1.5405e-05	222.88	4.3942e-06	4.1832e-06	348.21	73.271	3.4982e-06	4.5439e-06	137.23	52.873	25.388	12.831	8.2509e-06	29.16	0.00076921	0.00081108	0.00023044	226.84	8.9495e-06	9.0388e-06	341.69	74.363	8.848e-06	8.9836e-06	137.02	52.694	26.601	13.101	8.9147e-06	28.775	529.756	369.417	521.608	190.738	348.618	251.962	190.190	196.168	209.904	339.073	194.381	198.961	199.985	204.550	347.775	201.625	-8191	255	
32801.797	1	1	0	0	0.087438	0.19671	0.2079	0.18672	0.020276	0.13791	0.087794	0.035744	0.14034	0.15154	0.29721	0.24079	0.15145	0.10543	0.21475	0.08697	-2.2542	-3.2521	-2.5167	-3.0229	-2.95	-2.3104	-3.1667	-2.8667	-2.5812	-3.3292	-2.6771	-2.8021	-3.1146	-2.5563	-3.1417	-2.9979	361.799	428.254	511.221	423.698	294.758	192.093	241.643	441.005	391.547	460.058	223.548	308.664	470.243	513.946	223.404	425.894	0.00050453	0.00059664	8.2217e-05	216.31	9.3197e-07	6.1316e-06	346.5	74.17	2.6147e-06	2.0485e-06	136.8	52.817	25.338	12.757	3.2782e-06	29.326	0.0007806	0.0008123	0.00022857	224.55	8.7118e-06	9.0318e-06	340.17	74.686	8.9116e-06	8.772e-06	137.34	52.361	26.626	13.037	8.8919e-06	28.833	537.352	225.104	489.436	190.777	534.798	320.374	190.780	195.998	488.361	451.569	194.420	198.545	201.000	204.514	313.340	201.988	-8191	255	
32801.891	1	1	0	0	0.093935	0.062801	0.045052	0.2297	0.25435	0.19249	0.15593	0.1497	0.027376	0.060599	0.21791	0.21203	0.20564	0.11635	0.17224	0.052838	-2.175	-3.2333	-2.7167	-2.9354	-3.1937	-2.4104	-3.1333	-3.0542	-2.7604	-3.2333	-2.5938	-2.6271	-3.0438	-2.5104	-3.0729	-3.1063	371.776	514.712	430.649	200.881	333.090	416.463	364.700	292.268	349.412	524.997	219.254	432.189	460.718	178.457	471.519	275.950	0.00030767	0.000257	0.00012555	218.86	4.0883e-06	8.7796e-06	347.74	73.607	3.0415e-06	2.6002e-06	137.42	52.747	25.21	12.97	1.2691e-05	29.55	0.00077507	0.00082103	0.00022759	225.65	8.9296e-06	8.8916e-06	340.2	74.624	8.8015e-06	8.8792e-06	137.05	52.317	26.524	13.08	8.9888e-06	28.998	518.902	352.346	225.244	191.499	323.448	406.766	190.208	196.033	337.982	411.095	194.830	198.262	199.790	204.309	204.273	201.833	-8191	255	
32801.988	1	1	0	0	0.25635	0.11134	0.23221	0.10573	0.30019	0.11279	0.19336	0.21228	0.1123	0.12951	0.3803	0.17307	0.2433	0.28756	0.25512	0.14029	-2.0438	-3.1542	-2.85	-2.8063	-3.25	-2.6396	-3.1021	-3.1667	-2.3917	-3.2042	-2.9354	-2.6417	-3.3896	-2.5167	-2.7708	-3.2167	508.166	530.359	357.032	438.142	266.778	236.226	250.913	450.667	529.321	458.422	191.201	441.198	204.333	255.709	220.107	494.379	0.0004472	0.00031324	1.247e-05	221.81	6.0694e-06	6.0445e-06	348.55	73.318	1.6589e-06	2.9936e-06	137.49	53.105	25.549	12.885	6.2923e-06	29.383	0.00078761	0.00080954	0.00023252	226.74	8.89e-06	8.8769e-06	342.2	74.645	8.8791e-06	8.9281e-06	137.54	52.843	26.825	13.151	8.9318e-06	29.082	515.957	230.369	215.896	190.877	231.884	364.059	190.640	196.034	207.235	305.626	194.770	198.588	199.717	205.060	435.742	201.943	-8191	255	
32802.086	1	1	0	0	0.34564	0.066491	0.22117	0.193	0.16989	0.067468	0.010788	0.032265	0.079535	0.31736	0.19064	0.052205	0.053623	0.27041	0.09149	0.18487	-2.3229	-3.2521	-2.7687	-2.5854	-3.3125	-2.5958	-2.7	-3.2375	-2.35	-3.2438	-2.8229	-2.5958	-3.2458	-2.6063	-2.7708	-3.2083	441.993	429.996	213.846	358.393	282.540	368.673	304.934	335.655	381.576	311.052	325.795	534.500	524.171	506.795	440.799	456.875	0.00045835	0.00047564	0.00012777	220.67	7.8882e-07	2.5481e-06	349.11	74.554	4.2154e-06	5.2841e-06	136.46	52.081	25.185	12.796	2.3556e-06	29.37	0.0007954	0.00082827	0.0002292	226.43	9.063e-06	9.0755e-06	341.48	74.781	9.0136e-06	9.0239e-06	136.62	52.089	26.635	13.119	8.8626e-06	29.01	522.715	344.845	330.400	191.140	389.684	496.228	190.421	195.781	186.062	363.848	194.861	198.571	199.931	204.819	417.661	201.675	-8191	255	
32802.180	1	1	0	0	0.11608	0.27476	0.053443	0.050343	0.29036	0.23657	0.087814	0.20851	0.042359	0.14581	0.25641	0.042303	0.022464	0.35627	0.22254	0.2176	-2.0083	-2.9813	-3.1167	-2.4208	-3.25	-2.7812	-2.8125	-3.1667	-2.5771	-3.1958	-3.0667	-2.4521	-3.2292	-2.6583	-2.7375	-3.3125	211.641	432.165	506.230	366.341	238.658	518.609	535.861	197.685	499.240	457.412	178.007	232.284	417.483	271.095	441.580	410.665	0.00040367	0.00060801	0.00012323	220.67	4.6707e-06	9.0855e-06	346.56	73.464	1.7379e-06	5.7507e-06	136.36	52.336	25.474	12.945	3.9856e-06	29.537	0.00078184	0.00082498	0.00022756	226.61	9.0595e-06	9.1919e-06	340.53	74.353	8.8706e-06	8.956e-06	136.93	51.918	26.591	13.142	9.016e-06	29.052	510.880	339.023	243.492	190.803	419.145	318.314	191.137	195.756	291.299	495.795	194.972	198.699	199.731	203.897	525.906	201.435	-8191	255	
32802.277	1	1	0	0	0.14173	0.073163	0.11304	0.20664	0.052853	0.11512	0.046292	0.25999	0.34451	0.22575	0.16263	0.27084	0.16545	0.23344	0.075218	0.19946	-2.05	-3.1375	-2.9271	-2.4229	-3.3042	-2.8438	-2.6667	-3.0896	-2.5896	-2.9042	-3.2417	-2.5417	-3.3792	-2.9396	-2.8458	-3.3292	524.238	423.066	491.127	230.131	432.742	222.589	367.725	361.320	517.055	188.649	521.581	248.422	232.493	404.907	484.843	373.811	0.00038933	0.00059692	4.1366e-05	219.83	4.8648e-06	2.3652e-06	348.19	73.867	1.8778e-06	2.9307e-06	137.14	52.443	25.055	12.922	5.3394e-06	29.351	0.00079679	0.00083118	0.00022926	226.44	8.9879e-06	9.0418e-06	341.45	74.751	8.9545e-06	9.1127e-06	137.88	52.314	26.644	13.174	8.9977e-06	29.006	509.856	358.400	299.792	190.750	221.418	242.176	190.160	196.114	406.603	395.137	194.190	198.437	200.502	204.636	306.622	201.664	-8191	255	
32802.398	1	1	0	0	0.16994	0.034588	0.227	0.23567	0.15719	0.10682	0.05526	0.069599	0.084937	0.24904	0.16552	0.17289	0.2083	0.26114	0.1527	0.35214	-2.025	-2.8812	-3.1937	-2.6104	-3.1292	-2.8958	-2.6208	-3.2896	-2.4	-2.9146	-3.3063	-2.5354	-3.25	-2.9313	-2.4813	-3.2333	312.906	518.736	495.349	497.733	220.254	229.635	460.028	290.632	335.491	301.337	373.415	537.091	342.985	191.385	364.990	192.983	0.00035854	0.00047526	0.00020792	222.16	5.3597e-06	7.1919e-06	348.75	73.94	7.4413e-07	2.3698e-06	138.11	52.691	26.021	12.801	5.9484e-06	29.231	0.00079208	0.00082448	0.00022685	227.97	8.9307e-06	9.0841e-06	342.1	74.83	9.0481e-06	8.9848e-06	138.01	52.599	27.025	13.131	9.0857e-06	29.035	508.807	514.705	407.149	191.526	448.183	287.551	189.882	196.041	278.853	363.158	194.390	198.020	200.482	204.218	266.735	201.585	-8191	255	
32802.492	1	1	0	0	0.037547	0.21461	0.14021	0.14968	0.15056	0.11688	0.10999	0.074831	0.15268	0.16278	0.13866	0.30649	0.19355	0.20505	0.090857	0.24047	-2.4	-2.7917	-3.2667	-2.4917	-3.2396	-2.9792	-2.6021	-3.3208	-2.5979	-2.6417	-3.3958	-2.4854	-2.8625	-3.1188	-2.7396	-3.0896	454.921	416.003	255.929	204.728	259.977	393.508	469.649	227.587	200.188	474.431	472.148	480.052	507.755	495.732	285.426	260.260	0.000341	0.00051356	7.0068e-05	225.32	3.8059e-06	4.2193e-06	347.7	74.572	3.6547e-06	3.8512e-06	137.64	51.687	25.219	12.789	1.4213e-06	29.438	0.00078737	0.00082734	0.00022941	227.99	9.0454e-06	9.0492e-06	341.48	74.992	8.9842e-06	9.0718e-06	137.56	51.877	26.671	13.138	9.0395e-06	29.085	532.812	436.624	252.159	191.375	411.640	330.396	190.373	196.025	307.930	266.930	194.733	198.280	200.709	204.842	214.082	201.644	-8191	255	
32802.590	1	1	0	0	0.18992	0.10598	0.21684	0.11864	0.17738	0.1746	0.24184	0.025823	0.055386	0.11627	0.062975	0.18458	0.19232	0.049848	0.0791	0.29341	-2.4583	-2.65	-3.3083	-2.5646	-3.0438	-3.0354	-2.3771	-3.1479	-2.9208	-2.6083	-3.2729	-2.6167	-2.9021	-3.05	-2.5833	-3.3167	488.506	221.114	354.513	272.574	254.019	205.517	495.488	412.444	358.515	211.194	358.347	218.544	207.070	470.202	371.768	480.699	0.00027958	0.00015068	0.00013961	221.94	6.3236e-06	1.549e-06	346.97	73.623	3.0574e-06	4.6349e-06	138.08	52.395	25.404	12.865	9.7849e-06	29.527	0.00079505	0.0008329	0.00023123	226.98	9.0447e-06	9.0773e-06	340.98	74.77	9.0752e-06	9.2128e-06	138.22	52.22	26.664	13.177	8.9028e-06	29.124	501.419	319.727	217.896	191.296	398.764	306.267	190.396	195.863	393.088	329.163	194.688	198.566	200.786	204.074	233.375	202.038	-8191	255	
32802.684	1	1	0	0	0.31364	0.051087	0.084022	0.043999	0.053206	0.14183	0.31871	0.17844	0.2023	0.074989	0.050906	0.35547	0.11705	0.13068	0.26264	0.14589	-2.4542	-2.5333	-3.2583	-2.7271	-2.7604	-3.2125	-2.5417	-3.175	-2.9583	-2.5354	-3.2021	-2.6854	-2.7875	-3.1583	-2.4562	-3.0187	237.208	469.381	262.110	300.297	191.683	248.014	377.655	351.336	229.413	256.271	247.790	463.855	330.891	385.637	458.528	510.123	0.00045041	0.00030441	9.2054e-05	222.23	1.6846e-06	6.3821e-07	348.82	73.565	6.5407e-06	2.0863e-06	137.38	52.784	25.579	12.926	6.1696e-06	29.604	0.00079435	0.00083694	0.00022791	227.35	9.011e-06	8.916e-06	343.08	75.038	8.8615e-06	9.1125e-06	138.34	52.602	26.87	13.167	9.0854e-06	29.293	515.273	517.211	533.672	191.343	301.799	205.216	190.373	196.086	251.006	241.973	194.444	198.293	200.640	203.809	331.031	201.776	-8191	255	
32802.781	1	1	0	0	0.088983	0.21819	0.16312	0.12281	0.16163	0.25101	0.28262	0.14962	0.1728	0.25016	0.091736	0.36894	0.10091	0.091389	0.24688	0.11868	-2.4167	-2.4104	-3.1583	-2.7604	-2.6854	-3.2917	-2.5604	-3.0021	-3.1562	-2.5687	-3.2146	-2.6583	-2.6708	-3.3479	-2.5458	-3.0708	463.722	464.980	243.994	221.430	467.959	421.951	467.309	509.969	516.073	493.025	244.251	462.833	188.640	196.513	330.890	432.269	0.00036213	0.00045224	6.4272e-05	222.87	9.5478e-07	3.8982e-06	347.34	74.423	1.655e-06	6.8035e-06	137.28	53.277	26.066	12.945	6.6433e-06	29.654	0.00079525	0.00083421	0.0002292	228.28	9.0866e-06	9.1012e-06	343.56	75.603	8.9189e-06	9.0903e-06	138.24	52.813	27.068	13.227	9.0312e-06	29.226	533.279	417.531	507.808	191.233	402.586	202.308	190.704	196.668	533.271	300.958	194.443	198.517	199.535	204.463	263.920	202.240	-8191	255	
32802.875	1	1	0	0	0.23965	0.024023	0.052971	0.36683	0.20162	0.028001	0.30948	0.21737	0.18758	0.14295	0.16525	0.072268	0.1748	0.15391	0.10295	0.057025	-2.8875	-2.6125	-2.9979	-2.8104	-2.4938	-3.4146	-2.7146	-3.0104	-3.2708	-2.6521	-3.3167	-2.9375	-2.5646	-3.1417	-2.5729	-2.7979	414.630	271.452	356.019	205.152	383.792	383.477	214.775	287.250	276.222	202.102	295.965	232.572	367.470	307.702	351.644	501.980	0.00051259	0.00031367	8.1234e-05	221.27	8.2964e-06	3.5506e-06	348.43	73.201	3.8175e-06	5.7996e-06	137.88	52.384	25.028	12.847	9.5298e-06	29.78	0.00079538	0.00083429	0.0002327	227.15	9.0892e-06	8.9898e-06	342.57	74.881	8.8505e-06	9.1915e-06	138	52.163	26.551	13.152	9.1087e-06	29.213	516.143	331.223	509.103	191.590	249.146	337.827	190.234	195.890	339.864	318.442	194.481	198.354	200.134	204.756	180.367	201.966	-8191	255	
32802.973	1	1	0	0	0.15469	0.10249	0.25002	0.13438	0.37214	0.1946	0.20416	0.029616	0.061154	0.061908	0.1495	0.13034	0.11048	0.24783	0.10312	0.11124	-2.7292	-2.4479	-3.0187	-2.8292	-2.4521	-3.35	-2.8104	-2.7417	-3.2	-2.5333	-2.9521	-3.0563	-2.5438	-3.3312	-2.7042	-2.7833	201.869	360.219	463.227	529.611	306.528	468.156	352.471	348.429	246.711	364.902	323.493	362.074	375.520	457.841	294.226	416.025	0.00051736	0.0003134	6.2948e-05	219.31	4.1557e-06	1.7773e-06	349.03	74.501	1.7524e-06	6.6475e-07	137.45	52.414	25.545	12.917	5.1979e-06	29.526	0.00079427	0.00083996	0.00023289	226.09	8.925e-06	8.9852e-06	343.53	74.922	8.8365e-06	8.9241e-06	137.81	52.311	26.844	13.179	8.9585e-06	29.21	516.786	520.118	279.359	190.655	225.020	363.185	190.606	196.392	242.040	342.338	194.230	197.887	199.978	204.697	419.201	201.668	-8191	255	
32803.070	1	1	0	0	0.21892	0.19725	0.1653	0.14033	0.15087	0.076336	0.23863	0.074308	0.037436	0.21085	0.13854	0.091761	0.33838	0.11103	0.10364	0.040963	-2.9979	-2.4458	-2.9625	-3.0563	-2.6333	-3.1646	-2.9167	-2.5396	-3.1583	-2.6625	-2.9979	-3.0604	-2.3542	-3.1188	-2.8417	-2.6979	348.028	265.669	186.754	403.833	217.445	527.696	517.762	345.054	232.213	456.648	198.446	266.307	209.436	376.286	424.901	366.396	0.00052419	0.0010958	0.00015809	220.01	2.3016e-06	3.8511e-06	349.11	72.948	2.8083e-06	2.5846e-06	137.64	53.3	25.404	13.036	2.5644e-06	29.669	0.00079581	0.0008364	0.00023124	227.11	8.959e-06	8.8629e-06	342.47	74.916	8.8991e-06	9.0719e-06	137.99	52.877	26.791	13.247	9.2171e-06	29.331	515.987	358.436	381.452	191.017	350.819	290.329	190.539	195.760	234.660	305.807	194.324	198.211	200.227	204.513	382.797	202.097	-8191	255	
32803.188	1	1	0	0	0.24742	0.043011	0.15339	0.10172	0.15482	0.045697	0.18766	0.1968	0.23645	0.086407	0.15066	0.22773	0.13544	0.062421	0.17448	0.2927	-2.7771	-2.6646	-2.9792	-3.3333	-2.4188	-3.0812	-2.8958	-2.5542	-3.4958	-2.6562	-2.9458	-3.2167	-2.5042	-3.1208	-3.1229	-2.8021	290.459	434.899	202.135	447.581	476.334	178.682	193.375	445.894	425.165	502.499	178.246	366.095	418.121	444.020	212.784	493.699	0.00046677	0.00087758	8.5097e-05	220.06	5.2306e-06	5.4342e-06	344.6	73.318	5.6002e-06	1.2235e-05	138.44	53.186	25.572	12.969	9.2914e-07	29.812	0.00079534	0.00081825	0.00023407	227.8	8.9099e-06	9.0284e-06	342.37	74.94	8.918e-06	9.1488e-06	138.77	52.784	26.907	13.232	9.163e-06	29.291	507.770	210.528	348.999	191.064	224.479	311.981	190.903	196.130	207.656	414.277	194.204	198.117	199.648	204.811	344.035	201.712	-8191	255	
32803.285	1	1	0	0	0.18013	0.037388	0.15132	0.098376	0.15092	0.15203	0.12004	0.15958	0.18763	0.3028	0.20858	0.12034	0.30044	0.15377	0.13643	0.12309	-2.9292	-2.5062	-2.7917	-3.3	-2.625	-3.0187	-3.1146	-2.5271	-3.3625	-2.9813	-2.7625	-3.1729	-2.725	-3.1458	-3.0333	-2.3917	520.774	206.990	241.909	481.393	440.162	393.312	198.519	496.118	212.130	292.881	211.600	446.728	417.006	506.529	312.548	231.440	0.00048028	0.00096867	0.0002552	221.92	8.5639e-06	1.6711e-06	349.83	73.236	2.6174e-06	5.1218e-06	137.4	52.418	25.523	12.961	9.8696e-06	29.761	0.00078261	0.00083345	0.00022665	226.52	8.8347e-06	8.8676e-06	343.42	74.862	9.0014e-06	9.1336e-06	137.72	52.453	26.784	13.218	9.0647e-06	29.27	527.223	183.939	304.226	191.528	500.047	341.132	190.129	196.067	225.057	242.889	194.296	198.474	199.515	204.107	323.794	202.103	-8191	255	
32803.383	1	1	0	0	0.061762	0.037209	0.057656	0.08	0.2792	0.050979	0.16929	0.19707	0.27418	0.12528	0.15742	0.15009	0.29735	0.21266	0.046827	0.16507	-2.9917	-2.7146	-2.5583	-3.3083	-2.5417	-3.0854	-3.2208	-2.3333	-3.175	-2.95	-2.6833	-3.3979	-2.6146	-2.7188	-3.3312	-2.4042	249.155	525.608	205.676	266.542	533.118	258.715	213.469	326.584	534.494	322.844	327.194	186.556	530.204	276.721	474.980	409.048	0.00046111	0.00034195	0.00019842	221.03	5.3976e-06	6.9101e-06	349.66	74.595	5.9711e-06	4.304e-06	138.88	52.885	25.366	13.116	5.4942e-06	29.779	0.00077503	0.00083474	0.00022489	227.56	8.9042e-06	9.0476e-06	343.68	75.037	8.903e-06	9.0355e-06	138.5	52.588	26.838	13.256	8.9913e-06	29.446	515.640	483.545	286.322	191.160	490.434	520.669	190.631	195.412	352.612	305.944	194.663	198.294	199.527	204.695	393.854	201.852	-8191	255	
32803.477	1	1	0	0	0.27239	0.074668	0.28766	0.22842	0.26855	0.09887	0.22121	0.31788	0.22973	0.089917	0.050521	0.2828	0.12928	0.098847	0.06129	0.27496	-2.6458	-2.9083	-2.6792	-3.3937	-2.5875	-2.7333	-3.2	-2.3083	-3.1312	-2.9458	-2.5354	-3.0875	-2.725	-2.6375	-3.35	-2.5604	305.979	368.139	443.125	433.882	348.000	492.964	234.200	328.726	347.527	218.251	384.984	537.816	378.080	393.177	405.287	487.147	0.00039734	0.00055429	0.00032	223.3	6.5633e-06	5.862e-06	350.89	74.726	6.5871e-06	5.6325e-06	140.07	53.088	25.853	13.114	3.7957e-06	30.123	0.00077829	0.00082238	0.00022789	228.78	8.997e-06	8.8867e-06	343.64	75.158	8.8874e-06	8.9265e-06	139.19	53.064	27.083	13.299	8.8239e-06	29.592	521.360	219.066	517.330	191.180	290.510	306.712	190.003	196.273	267.245	326.595	194.868	198.573	199.908	204.934	372.594	202.036	-8191	255	
#DATA ENDS
