BOXY.EXE: ISS Imagent and Oximeter Data Acquisition Program Version 0.80
Ascii Record File

#ACQ INFORMATION
2  Detector Channels 
16  External MUX Channels 
1  Auxiliary Channels 
5000  Waveform (CCF) Frequency (Hz)
1  Waveforms Skipped 
30  Waveforms Averaged 
1  Cycles Averaged 
16  Acquisitions per Waveform 
10.0806  Updata Rate (Hz) 

#FILE INFORMATION
TRUE -- External MUX Channel results are PARSED.
FALSE -- AC DC and Phase are NOT grouped.
TRUE -- Companion Program Settings File CREATED.
FALSE -- AC data not excluded
FALSE -- DC data not excluded
FALSE -- Phase data not excluded
FALSE -- Auxillary Chn. data not excluded
Tab delimiters

#CALIBRATION STATE
TRUE -- Waveform Calibration Values APPLIED.


#AUX CALIBRATION VALUES
Val Type	aux-1	

Term	1.0000e+00	
Factor	0.0000e+00	


#WF CALIBRATION VALUES
A = Detector Channel
Val Type	A-AC1	A-AC2	A-AC3	A-AC4	A-AC5	A-AC6	A-AC7	A-AC8	A-AC9	A-AC10	A-AC11	A-AC12	A-AC13	A-AC14	A-AC15	A-AC16	A-DC1	A-DC2	A-DC3	A-DC4	A-DC5	A-DC6	A-DC7	A-DC8	A-DC9	A-DC10	A-DC11	A-DC12	A-DC13	A-DC14	A-DC15	A-DC16	A-Ph1	A-Ph2	A-Ph3	A-Ph4	A-Ph5	A-Ph6	A-Ph7	A-Ph8	A-Ph9	A-Ph10	A-Ph11	A-Ph12	A-Ph13	A-Ph14	A-Ph15	A-Ph16	

Term	0.00000e+00	0.00000e+00	0.00000e+00	0.00000e+00	0.00000e+00	0.00000e+00	0.00000e+00	0.00000e+00	0.00000e+00	0.00000e+00	0.00000e+00	0.00000e+00	0.00000e+00	0.00000e+00	0.00000e+00	0.00000e+00	0.00000e+00	0.00000e+00	0.00000e+00	0.00000e+00	0.00000e+00	0.00000e+00	0.00000e+00	0.00000e+00	0.00000e+00	0.00000e+00	0.00000e+00	0.00000e+00	0.00000e+00	0.00000e+00	0.00000e+00	0.00000e+00	0.00000e+00	0.00000e+00	0.00000e+00	0.00000e+00	0.00000e+00	0.00000e+00	0.00000e+00	0.00000e+00	0.00000e+00	0.00000e+00	0.00000e+00	0.00000e+00	0.00000e+00	0.00000e+00	0.00000e+00	0.00000e+00	
Factor	1.00000e+00	1.00000e+00	1.00000e+00	1.00000e+00	1.00000e+00	1.00000e+00	1.00000e+00	1.00000e+00	1.00000e+00	1.00000e+00	1.00000e+00	1.00000e+00	1.00000e+00	1.00000e+00	1.00000e+00	1.00000e+00	1.00000e+00	1.00000e+00	1.00000e+00	1.00000e+00	1.00000e+00	1.00000e+00	1.00000e+00	1.00000e+00	1.00000e+00	1.00000e+00	1.00000e+00	1.00000e+00	1.00000e+00	1.00000e+00	1.00000e+00	1.00000e+00	X	X	X	X	X	X	X	X	X	X	X	X	X	X	X	X	

B = Detector Channel
Val Type	B-AC1	B-AC2	B-AC3	B-AC4	B-AC5	B-AC6	B-AC7	B-AC8	B-AC9	B-AC10	B-AC11	B-AC12	B-AC13	B-AC14	B-AC15	B-AC16	B-DC1	B-DC2	B-DC3	B-DC4	B-DC5	B-DC6	B-DC7	B-DC8	B-DC9	B-DC10	B-DC11	B-DC12	B-DC13	B-DC14	B-DC15	B-DC16	B-Ph1	B-Ph2	B-Ph3	B-Ph4	B-Ph5	B-Ph6	B-Ph7	B-Ph8	B-Ph9	B-Ph10	B-Ph11	B-Ph12	B-Ph13	B-Ph14	B-Ph15	B-Ph16	

Term	0.00000e+00	0.00000e+00	0.00000e+00	0.00000e+00	0.00000e+00	0.00000e+00	0.00000e+00	0.00000e+00	0.00000e+00	0.00000e+00	0.00000e+00	0.00000e+00	0.00000e+00	0.00000e+00	0.00000e+00	0.00000e+00	0.00000e+00	0.00000e+00	0.00000e+00	0.00000e+00	0.00000e+00	0.00000e+00	0.00000e+00	0.00000e+00	0.00000e+00	0.00000e+00	0.00000e+00	0.00000e+00	0.00000e+00	0.00000e+00	0.00000e+00	0.00000e+00	-1.65560e+02	-1.26939e+02	-1.30200e+02	-1.83531e+02	-7.95580e+01	-6.23298e+01	-1.55913e+02	-1.62015e+02	-8.00935e+01	-6.99222e+01	-1.69783e+02	-1.70754e+02	-1.79463e+02	-1.76415e+02	-7.83609e+01	-1.49214e+02	
Factor	2.59736e-05	1.59396e-04	3.76247e-05	1.70707e-01	1.04767e-06	1.40068e-06	1.50441e-01	4.85057e-02	9.61463e-07	1.40745e-06	8.22453e-02	2.84523e-02	2.38378e-02	8.71675e-03	1.43886e-06	1.23208e-02	3.02569e-06	3.31224e-06	9.20197e-07	9.14355e-02	3.58392e-08	3.62363e-08	7.61070e-02	2.61631e-02	3.57514e-08	3.62322e-08	4.28669e-02	1.48528e-02	1.29378e-02	4.71403e-03	3.60000e-08	6.45373e-03	X	X	X	X	X	X	X	X	X	X	X	X	X	X	X	X	



#DISTANCE SETTINGS
A = Detector Channel
A-1	A-2	A-3	A-4	A-5	A-6	A-7	A-8	A-9	A-10	A-11	A-12	A-13	A-14	A-15	A-16	

2.5000e+00	3.0000e+00	2.5000e+00	3.0000e+00	2.0000e+00	3.0000e+00	1.5000e+00	3.0000e+00	3.0000e+00	3.0000e+00	3.0000e+00	3.0000e+00	3.0000e+00	3.0000e+00	1.5000e+00	3.0000e+00	

B = Detector Channel
B-1	B-2	B-3	B-4	B-5	B-6	B-7	B-8	B-9	B-10	B-11	B-12	B-13	B-14	B-15	B-16	

1.0000e+01	1.0000e+01	1.0000e+01	1.4400e+00	1.0000e+01	1.0000e+01	1.5100e+00	1.9400e+00	1.0000e+01	1.0000e+01	1.9900e+00	2.4900e+00	2.4100e+00	2.9000e+00	1.0000e+01	2.9800e+00	




#DATA BEGINS
time	group	step	mark	flag	A-AC1	A-AC2	A-AC3	A-AC4	A-AC5	A-AC6	A-AC7	A-AC8	A-AC9	A-AC10	A-AC11	A-AC12	A-AC13	A-AC14	A-AC15	A-AC16	A-DC1	A-DC2	A-DC3	A-DC4	A-DC5	A-DC6	A-DC7	A-DC8	A-DC9	A-DC10	A-DC11	A-DC12	A-DC13	A-DC14	A-DC15	A-DC16	A-Ph1	A-Ph2	A-Ph3	A-Ph4	A-Ph5	A-Ph6	A-Ph7	A-Ph8	A-Ph9	A-Ph10	A-Ph11	A-Ph12	A-Ph13	A-Ph14	A-Ph15	A-Ph16	B-AC1	B-AC2	B-AC3	B-AC4	B-AC5	B-AC6	B-AC7	B-AC8	B-AC9	B-AC10	B-AC11	B-AC12	B-AC13	B-AC14	B-AC15	B-AC16	B-DC1	B-DC2	B-DC3	B-DC4	B-DC5	B-DC6	B-DC7	B-DC8	B-DC9	B-DC10	B-DC11	B-DC12	B-DC13	B-DC14	B-DC15	B-DC16	B-Ph1	B-Ph2	B-Ph3	B-Ph4	B-Ph5	B-Ph6	B-Ph7	B-Ph8	B-Ph9	B-Ph10	B-Ph11	B-Ph12	B-Ph13	B-Ph14	B-Ph15	B-Ph16	aux-1	digaux	

32725.051	1	1	0	512	0.21181	0.29836	0.12206	0.045879	0.26772	0.2167	0.30262	0.17127	0.20464	0.11287	0.22108	0.17329	0.33397	0.28791	0.15339	0.26466	-2.3375	-2.775	-3.1813	-2.5333	-2.9062	-3.0812	-2.4688	-3.2562	-2.7333	-2.6542	-3.3333	-2.5458	-2.9437	-3.0896	-2.6708	-3.4417	144.896	309.799	161.750	164.033	33.152	65.058	343.673	185.020	170.290	19.418	306.749	202.095	275.809	325.148	79.105	341.008	0.00015129	0.0015314	0.00028291	179.97	7.6348e-06	1.0036e-05	293.67	54.13	1.856e-05	1.2138e-05	98.152	33.553	16.482	7.6245	5.2593e-06	17.98	0.004191	0.0045878	0.0012554	284.88	4.9377e-05	4.9717e-05	361.87	84.132	4.9174e-05	5.0219e-05	145.79	50.09	32.462	13.2	4.9853e-05	24.798	217.793	56.166	247.822	1.360	36.414	-1.610	0.654	5.716	35.804	78.612	5.058	9.642	11.066	14.269	159.086	13.220	-8191	255	
32725.172	1	1	0	0	0.21673	0.13069	0.14034	0.16735	0.12935	0.049906	0.22589	0.059266	0.28069	0.17495	0.098543	0.071187	0.073117	0.16842	0.17567	0.18357	-2.275	-2.4188	-3.2625	-2.55	-2.85	-3.1	-2.475	-3.1104	-2.8708	-2.4167	-3.1958	-2.525	-2.8292	-2.9688	-2.4833	-3.2313	195.956	37.472	36.693	270.554	267.522	151.947	18.245	132.749	63.076	93.825	245.641	219.513	74.811	220.850	63.284	295.351	0.00018307	0.0013085	0.00012922	181.96	3.0663e-06	1.5823e-05	290.43	54.284	7.5761e-06	8.9353e-06	99.104	33.374	16.61	7.4626	9.8716e-06	17.883	0.0042217	0.0046228	0.0012713	287.07	5.0321e-05	5.056e-05	363.16	84.051	4.9585e-05	5.0234e-05	146.39	50.319	32.396	13.169	4.9271e-05	24.747	13.249	197.412	117.162	0.867	193.080	243.369	0.896	6.635	276.095	154.556	5.602	9.815	11.351	15.145	28.213	12.603	-8191	255	
32725.268	1	1	0	0	0.062467	0.28687	0.10004	0.19608	0.15859	0.15512	0.21947	0.22706	0.25687	0.13157	0.28255	0.17899	0.06033	0.092623	0.037105	0.21448	-2.3625	-2.6188	-3.2875	-2.5042	-2.8312	-3.1667	-2.475	-2.9625	-2.9104	-2.7438	-3.2771	-2.7083	-2.7854	-3.2583	-2.4333	-3.1167	307.957	15.437	331.860	228.337	202.294	226.796	294.899	337.556	267.564	-0.372	7.032	258.664	255.195	174.538	156.838	307.332	0.00017131	0.0020509	0.00041358	180.97	8.5425e-06	2.1122e-05	296.58	55.253	6.3887e-06	1.3338e-05	99.125	33.695	16.484	7.6078	7.0073e-06	17.661	0.0041855	0.0045171	0.0012604	285.48	4.9536e-05	4.9697e-05	363.68	84.579	4.939e-05	4.9966e-05	146.14	50.214	32.096	13.24	4.9114e-05	24.542	62.384	236.128	123.662	1.351	2.505	80.121	1.160	6.895	95.922	217.267	5.095	9.642	11.808	16.350	36.653	13.804	-8191	255	
32725.363	1	1	0	0	0.17903	0.17724	0.33347	0.09148	0.018462	0.022012	0.35409	0.15389	0.1646	0.1395	0.25977	0.11927	0.3069	0.1362	0.22759	0.15807	-2.5958	-2.3271	-3.1125	-2.7146	-2.6396	-3.2375	-2.6333	-2.9729	-2.9125	-2.5354	-3.3375	-2.6479	-2.5812	-3.2917	-2.6	-2.8812	41.477	64.514	320.481	219.232	194.854	5.240	349.583	23.832	62.810	332.881	5.540	120.107	346.316	168.310	11.880	219.199	0.00024747	0.0031413	0.00033911	181.99	4.0238e-06	5.9811e-06	293.87	54.61	1.0718e-05	1.7665e-05	102.13	33.701	16.499	7.4358	1.9656e-05	17.491	0.0041657	0.0044915	0.0012582	283.35	4.8998e-05	4.9036e-05	361.53	83.732	4.8298e-05	4.9541e-05	146.01	50.051	31.755	13.103	4.8527e-05	24.501	68.460	83.920	57.058	0.501	273.400	43.822	0.374	7.601	325.422	127.572	4.094	9.299	9.692	14.941	30.808	12.450	-8191	255	
32725.461	1	1	0	0	0.19368	0.1489	0.035789	0.075601	0.19098	0.21476	0.21063	0.16782	0.15976	0.052222	0.066728	0.30259	0.031853	0.094293	0.1417	0.19768	-2.8271	-2.3708	-3.0958	-2.8688	-2.5917	-3.3021	-2.6875	-2.6271	-3.15	-2.3458	-3.1396	-3.0687	-2.2667	-3.2229	-2.7542	-2.7625	285.741	329.072	26.949	141.177	83.703	176.733	68.689	264.471	250.830	53.232	311.475	152.827	43.126	221.152	156.877	289.471	0.00051333	0.00038573	0.00020015	176.88	2.7065e-06	3.9723e-05	293.22	53.981	9.5319e-06	1.4193e-05	100.58	33.778	16.698	7.5024	1.0674e-05	17.787	0.0040751	0.0044925	0.0012446	282.12	4.8236e-05	4.8771e-05	360.67	83.186	4.79e-05	4.8406e-05	145.77	49.857	31.924	12.978	4.8932e-05	24.548	136.334	33.229	113.709	0.093	198.467	344.682	0.840	6.807	343.696	16.011	5.012	8.706	10.429	14.715	119.376	13.622	-8191	255	
32725.557	1	1	0	0	0.12193	0.077753	0.11939	0.073636	0.16703	0.15964	0.056509	0.17096	0.3052	0.21454	0.14524	0.1115	0.24702	0.14297	0.15943	0.3226	-2.9	-2.375	-3.1146	-2.7042	-2.6063	-3.45	-2.6771	-2.7542	-3.2125	-2.3604	-2.9104	-2.9958	-2.3271	-3.1312	-2.8083	-2.5979	207.772	296.011	180.016	168.713	60.873	144.606	338.525	290.743	46.803	148.076	218.410	229.187	318.267	235.705	327.715	15.774	0.00019407	0.001169	0.00044224	183.27	7.9779e-06	1.2864e-05	296.86	54.22	1.4763e-05	8.222e-06	100.66	34.221	16.408	7.6663	6.6375e-06	18.22	0.0040752	0.0044656	0.0012466	282.71	4.8242e-05	4.8593e-05	362.05	82.747	4.7775e-05	4.8563e-05	145.47	49.914	31.665	13.038	4.8226e-05	24.599	-8.920	158.285	275.046	1.315	165.010	4.235	0.268	6.353	125.720	281.120	5.228	9.634	10.195	15.557	77.053	12.560	-8191	255	
32725.652	1	1	0	0	0.2136	0.40872	0.23391	0.17359	0.085548	0.18049	0.16276	0.29994	0.28096	0.10905	0.12613	0.24156	0.11419	0.050069	0.11502	0.13663	-2.875	-2.6208	-2.7146	-3.1917	-2.45	-3.2479	-2.8042	-2.6063	-3.225	-2.5958	-2.9292	-3.3167	-2.625	-3.2938	-3.0771	-2.5708	278.183	-2.949	132.807	37.894	327.923	177.825	40.186	287.290	240.890	179.650	136.553	85.816	53.160	115.103	189.164	287.482	0.00017641	0.0012212	0.00024873	182.35	6.957e-06	2.8482e-05	292.76	54.242	7.4666e-06	1.2745e-05	100.19	33.44	16.201	7.787	1.0101e-05	17.959	0.0039989	0.0044117	0.0012212	280.96	4.7633e-05	4.8252e-05	360.52	82.746	4.7614e-05	4.8314e-05	145.18	49.348	31.437	12.985	4.8287e-05	24.369	7.736	220.807	40.576	1.074	96.290	185.066	0.674	7.534	141.723	42.196	5.756	9.540	11.518	16.676	274.866	13.514	-8191	255	
32725.771	1	1	0	0	0.17468	0.03093	0.12306	0.21776	0.1277	0.24919	0.14847	0.14336	0.05303	0.069176	0.033265	0.16557	0.12509	0.44646	0.17501	0.17489	-2.9021	-2.5667	-2.8208	-3.3417	-2.5917	-3.1458	-3.0729	-2.6167	-3.2	-2.6604	-2.8312	-3.2333	-2.4313	-2.9771	-2.9979	-2.7146	49.754	-10.924	103.057	165.237	318.873	57.890	216.784	272.103	65.757	92.963	343.735	247.710	220.219	37.144	190.735	307.005	8.3067e-05	0.0016064	0.00034705	182.81	9.1893e-06	1.3194e-05	290.42	53.844	1.1797e-05	8.7417e-06	98.619	34.055	16.422	7.6216	3.472e-05	17.974	0.0040343	0.0043926	0.0012202	280.55	4.725e-05	4.792e-05	359.4	82.682	4.7516e-05	4.8533e-05	144.07	49.319	31.645	13.038	4.8032e-05	24.446	324.901	86.428	133.663	0.297	-8.400	223.454	1.421	6.562	23.890	331.048	6.141	9.448	11.126	16.256	144.994	12.210	-8191	255	
32725.867	1	1	0	0	0.24834	0.091634	0.12864	0.092505	0.18147	0.088038	0.10025	0.023204	0.27957	0.17078	0.040908	0.23834	0.098085	0.019318	0.080379	0.037394	-2.7875	-2.7958	-2.7958	-3.1979	-2.5208	-3.1417	-3.2021	-2.5083	-3.1125	-2.7687	-2.7083	-3.1875	-2.5792	-3.1271	-2.9562	-2.4604	90.590	151.290	107.804	216.603	184.212	148.827	31.793	274.965	95.442	193.330	28.986	273.969	98.192	300.402	211.648	18.186	0.00049654	0.0012347	0.00026195	182.19	6.3135e-06	1.6878e-05	293.7	54.018	9.32e-06	1.9527e-05	99.421	34.093	17.005	7.6547	2.1443e-05	17.65	0.0040645	0.00442	0.0012325	281.41	4.812e-05	4.8978e-05	361.17	83.158	4.8081e-05	4.8957e-05	145.81	49.75	31.941	13.132	4.7911e-05	24.214	148.066	326.022	26.276	0.867	38.814	176.850	0.447	7.674	320.566	172.385	6.044	8.997	10.443	14.487	142.021	13.148	-8191	255	
32725.963	1	1	0	0	0.13267	0.11773	0.077384	0.095883	0.12888	0.099706	0.052498	0.081757	0.16793	0.23651	0.27524	0.11538	0.26698	0.1585	0.08268	0.21149	-2.7625	-2.7333	-2.4938	-3.2646	-2.2604	-2.8104	-3.1042	-2.3729	-3.1063	-2.925	-2.3708	-3.3521	-2.5792	-2.7604	-3.1188	-2.5042	282.112	200.897	261.850	234.087	159.968	133.785	249.065	277.706	303.991	205.782	55.559	309.948	347.399	316.209	25.734	312.171	0.00036431	0.0023957	0.00035833	180.69	1.1864e-05	1.1053e-05	289.88	54.038	4.1843e-06	2.8216e-05	99.503	33.875	16.266	7.7913	1.9719e-05	17.893	0.0040548	0.0043972	0.0012193	280.14	4.7558e-05	4.8398e-05	357.16	82.441	4.7573e-05	4.8108e-05	145.53	49.611	31.854	13.074	4.7549e-05	24.283	158.383	274.061	343.151	0.369	117.279	220.622	-0.366	5.829	170.152	128.959	4.347	10.399	10.722	15.229	219.705	13.680	-8191	255	
32726.059	1	1	0	0	0.15699	0.057886	0.28498	0.11444	0.12602	0.13637	0.1888	0.28663	0.16986	0.093975	0.24639	0.14306	0.27118	0.23539	0.10707	0.30304	-2.6854	-2.8042	-2.4771	-3.0708	-2.7979	-2.7167	-3.2875	-2.65	-3.2104	-3.1375	-2.6042	-3.2396	-2.6979	-2.6875	-3.0458	-2.4979	290.053	308.558	79.382	121.097	174.855	112.876	10.172	311.446	78.986	182.797	38.110	325.309	205.552	322.210	70.356	41.025	0.00026367	0.00049836	0.00052791	182.15	1.1468e-05	1.4982e-05	295.1	52.926	3.8033e-06	7.4337e-06	101.4	33.807	16.435	7.5881	1.1802e-05	17.997	0.0040399	0.0043835	0.0012127	278.01	4.7527e-05	4.8048e-05	358.71	82.542	4.8151e-05	4.8476e-05	145.57	49.771	31.815	13.113	4.8273e-05	24.478	11.053	135.943	93.756	0.285	196.988	192.565	0.562	6.770	318.615	241.691	5.601	9.529	10.750	15.920	299.687	13.567	-8191	255	
32726.180	1	1	0	0	0.20856	0.21432	0.19327	0.051634	0.10735	0.029674	0.18788	0.027605	0.17405	0.1828	0.1397	0.11425	0.1924	0.11682	0.17414	0.20642	-2.5979	-3.1646	-2.3104	-3.2687	-2.7562	-2.5896	-3.3104	-2.6521	-3.1604	-3.0771	-2.4896	-3.0812	-2.7812	-2.4625	-3.3979	-2.5	61.017	301.460	179.252	7.944	152.215	167.183	280.120	340.587	286.787	224.160	266.945	333.008	334.720	46.504	325.815	325.079	4.2547e-05	0.00094174	0.00038744	181.59	1.6671e-05	6.4658e-06	291.97	52.897	9.7911e-06	2.5082e-05	97.615	33.797	15.976	7.6519	9.8714e-06	17.714	0.0041058	0.0044667	0.0012337	281.57	4.8084e-05	4.9288e-05	360.55	82.877	4.8001e-05	4.8586e-05	143.77	49.472	31.697	13.028	4.7666e-05	24.308	154.070	287.562	205.435	0.403	127.000	285.547	1.201	6.141	180.208	162.286	4.589	10.692	10.159	15.899	252.528	13.077	-8191	255	
32726.252	1	1	0	0	0.052344	0.13398	0.12074	0.081114	0.15761	0.12291	0.12712	0.082669	0.12126	0.069049	0.13446	0.23722	0.045227	0.30227	0.22497	0.28186	-2.4479	-3.0667	-2.3583	-3.1667	-2.9104	-2.6354	-3.5833	-2.5938	-2.8688	-3.2625	-2.5479	-3.075	-2.9771	-2.6417	-3.1542	-2.6521	316.430	302.114	111.021	-8.139	139.707	210.354	298.741	-0.619	322.253	339.694	313.211	180.516	22.010	127.315	316.664	153.838	0.00018618	0.00085545	0.00019791	181.8	1.4207e-05	1.7485e-05	296.32	54.446	5.0579e-06	9.574e-06	99.555	33.088	16.45	7.6029	2.0479e-05	17.796	0.0040468	0.0043652	0.0012059	279.92	4.8046e-05	4.7463e-05	358.2	82.342	4.7027e-05	4.7378e-05	143.96	49.315	31.472	12.883	4.7519e-05	24.377	154.345	190.616	80.167	0.583	218.716	182.417	0.663	7.753	341.375	162.781	5.243	9.260	11.609	15.022	19.665	13.566	-8191	255	
32726.348	1	1	0	0	0.056359	0.20345	0.21291	0.12113	0.13057	0.30555	0.13739	0.14554	0.067603	0.036034	0.12065	0.064486	0.097973	0.29697	0.227	0.062339	-2.3854	-3.175	-2.4917	-3.0375	-3.1104	-2.7792	-3.4688	-2.8792	-2.7604	-3.3563	-2.3958	-3.225	-2.975	-2.5917	-3.0625	-2.625	74.401	343.369	23.123	239.962	252.012	217.418	94.649	327.864	94.605	225.644	74.946	15.494	71.545	320.482	33.719	251.705	0.00011489	0.00018962	0.00029341	182.31	3.9515e-06	6.1689e-06	293.92	55.102	9.4276e-06	1.4223e-05	98.592	33.809	16.207	7.6997	1.4261e-05	17.596	0.0040457	0.0043674	0.0012301	283.55	4.7329e-05	4.8322e-05	359.47	82.581	4.7246e-05	4.784e-05	144.65	49.726	31.638	12.98	4.7786e-05	24.342	266.006	297.855	94.753	1.772	177.220	162.161	1.052	6.016	43.712	313.322	4.052	10.293	10.452	16.013	137.879	13.609	-8191	255	
32726.443	1	1	0	0	0.13229	0.12649	0.050605	0.08615	0.10624	0.19415	0.20585	0.0077917	0.17371	0.16501	0.17081	0.35322	0.25831	0.085489	0.26466	0.22489	-2.2458	-3.2438	-2.6104	-3.025	-3.1458	-2.5938	-3.425	-2.8375	-2.6646	-3.2479	-2.7	-2.7833	-3.2646	-2.4917	-3.0812	-3.0979	268.983	38.048	137.550	61.177	289.632	201.058	245.366	143.086	71.077	187.765	253.950	328.144	77.277	288.700	125.512	305.952	4.8097e-05	0.00083943	0.00043962	179.86	1.4874e-05	1.2389e-05	293.3	55.275	4.3052e-06	7.5652e-06	99.681	33.479	16.798	7.4761	2.3141e-05	18.072	0.0040324	0.0043794	0.0012313	282.72	4.8091e-05	4.8572e-05	361.16	83.449	4.7753e-05	4.8471e-05	146.13	49.826	31.898	13.03	4.8801e-05	24.493	24.703	99.090	82.062	1.714	85.633	287.032	1.235	6.636	180.364	329.642	3.682	10.313	10.223	15.824	238.047	12.558	-8191	255	
32726.562	1	1	0	0	0.20058	0.10889	0.25205	0.088459	0.16491	0.16487	0.013676	0.26	0.21924	0.2965	0.12008	0.26888	0.095973	0.038067	0.21658	0.10521	-2.2687	-3.2896	-2.5896	-2.6896	-3.2333	-2.7146	-3.1833	-3.1833	-2.5021	-3.3042	-2.9292	-2.6583	-3.1	-2.5396	-3.1063	-3.1396	176.272	288.867	190.686	44.535	69.447	138.818	341.248	129.511	196.735	267.289	85.237	173.074	227.558	138.516	83.999	257.500	0.00034015	0.0014735	0.00041448	185.18	6.3983e-06	5.7402e-06	295.26	54.926	1.5577e-05	2.5462e-05	99.623	33.297	16.606	7.8499	2.4929e-05	18.018	0.0040619	0.0044494	0.001238	283.08	4.826e-05	4.8448e-05	361.36	83.549	4.766e-05	4.8346e-05	144.48	49.509	31.932	13.129	4.8543e-05	24.532	13.040	14.826	169.118	0.003	303.219	37.662	0.987	5.855	185.989	204.256	4.721	8.951	11.725	14.712	328.694	12.995	-8191	255	
32726.658	1	1	0	0	0.11695	0.15342	0.11457	0.12292	0.19733	0.10763	0.24156	0.058428	0.039755	0.087581	0.22498	0.17739	0.3403	0.035568	0.03893	0.18359	-2.1792	-3.2188	-2.6937	-2.6667	-3.1958	-2.6333	-3.0479	-3.0687	-2.5542	-3.2333	-2.8271	-2.7729	-3.4354	-2.5875	-2.7479	-3.1437	122.939	59.922	286.876	226.021	115.814	187.935	303.752	140.069	23.671	69.764	319.354	327.233	236.771	59.897	243.269	304.478	0.00036723	0.00074477	0.00010592	178.65	1.7366e-05	1.3653e-05	293.35	54.693	3.1822e-06	1.1176e-05	100.98	33.652	16.195	7.8255	3.9845e-06	18.367	0.0040472	0.0044358	0.0012346	283.13	4.7594e-05	4.8824e-05	361.96	83.063	4.7821e-05	4.8693e-05	146.16	49.52	31.685	13.085	4.7989e-05	24.534	114.542	273.037	89.266	1.057	294.152	176.323	0.819	7.218	77.755	273.062	4.461	9.679	10.682	15.874	8.237	12.973	-8191	255	
32726.756	1	1	0	0	0.29491	0.14164	0.32741	0.11691	0.20219	0.21441	0.19879	0.0095096	0.22834	0.052613	0.11295	0.17688	0.1051	0.17198	0.13685	0.098205	-1.9146	-3.2021	-2.7792	-2.6458	-3.2667	-2.5958	-2.8063	-3.1271	-2.525	-3.2062	-3.0458	-2.5271	-3.2375	-2.5896	-2.7604	-3.2021	225.525	263.570	115.369	248.543	149.326	48.938	261.150	180.339	168.484	106.748	303.291	286.287	18.843	103.430	87.483	182.353	0.00029607	0.0024169	0.00034473	185.57	5.3671e-06	1.1674e-05	293.99	55.651	1.5854e-05	1.1023e-05	101.19	33.583	16.499	7.6028	6.1928e-06	18.124	0.004035	0.0044476	0.0012306	283.87	4.7857e-05	4.8317e-05	361.78	83.224	4.7532e-05	4.8315e-05	146.37	49.731	31.8	13.099	4.7892e-05	24.514	154.191	140.076	68.810	0.713	-10.183	115.446	1.240	7.218	64.802	141.741	5.142	9.134	9.316	14.814	285.651	13.148	-8191	255	
32726.852	1	1	0	0	0.31746	0.092754	0.35701	0.13315	0.053433	0.1817	0.087116	0.39472	0.12566	0.0067546	0.18732	0.10194	0.11818	0.29311	0.19456	0.13152	-2.1354	-2.9875	-3.1292	-2.5312	-3.275	-2.8104	-2.8187	-3.1104	-2.4188	-2.9833	-3.0396	-2.4313	-3.1833	-2.85	-2.6937	-3.2313	156.576	323.160	243.118	3.173	251.608	251.275	326.846	242.641	5.613	323.694	238.495	31.794	201.035	292.706	61.808	213.963	0.00020863	0.00062548	0.00019059	180.45	8.6971e-06	1.2512e-05	296.07	55.241	1.7393e-05	2.5532e-06	101.09	33.297	16.879	7.58	4.0905e-06	18	0.0040177	0.0044241	0.0012137	281.77	4.6952e-05	4.8238e-05	359.97	82.549	4.7446e-05	4.8291e-05	145.47	49.389	31.964	13.115	4.849e-05	24.53	59.115	53.123	316.025	0.164	-4.354	-4.710	1.592	6.493	132.965	315.587	5.434	9.293	11.309	15.517	301.630	13.626	-8191	255	
32726.947	1	1	0	0	0.27503	0.17053	0.22309	0.30248	0.19032	0.12893	0.17773	0.38446	0.057984	0.14652	0.15393	0.082565	0.15707	0.12216	0.15885	0.39182	-2.0417	-2.8646	-2.95	-2.4688	-3.1875	-2.675	-2.8042	-3.2479	-2.5604	-2.8438	-3.0771	-2.4479	-3.1604	-2.9417	-2.4833	-3.1813	275.665	163.835	197.911	82.588	193.923	142.930	244.082	103.848	64.396	249.828	330.034	145.313	80.183	121.444	149.547	328.765	0.00023299	0.00086271	0.00021947	184.3	5.7993e-06	2.7165e-05	296.84	54.791	1.3213e-05	7.0712e-06	102.41	33.379	16.528	7.7112	2.4181e-05	18.056	0.0040797	0.0044789	0.0012455	283.46	4.8492e-05	4.8888e-05	362.57	83.353	4.8031e-05	4.9329e-05	146.34	49.703	31.971	13.102	4.8517e-05	24.653	93.509	234.539	196.135	1.012	55.466	241.776	0.519	6.948	225.994	147.739	5.352	8.396	11.290	14.901	109.913	13.229	-8191	255	
32727.043	1	1	0	0	0.13519	0.2134	0.089314	0.10336	0.21954	0.35664	0.28658	0.16392	0.21654	0.096171	0.22188	0.21219	0.23426	0.067872	0.30923	0.097447	-2.225	-2.7792	-3.0854	-2.5792	-3.2479	-2.9625	-2.4	-3.2042	-2.8688	-2.8458	-3.1354	-2.4896	-3.0042	-3.0833	-2.5062	-3.2833	196.957	257.557	311.334	207.750	36.813	75.089	311.813	285.313	181.334	99.411	222.011	317.982	238.191	339.254	78.603	22.265	0.00040498	0.00032692	5.9518e-05	183.02	1.0184e-05	1.5715e-05	295.9	56.328	7.2391e-06	1.6852e-05	99.727	34.217	16.38	7.8137	4.0012e-06	18.126	0.0041131	0.0044763	0.001227	284.8	4.8377e-05	4.8645e-05	362.51	83.901	4.8042e-05	4.8787e-05	145.25	49.782	31.844	13.131	4.7989e-05	24.675	105.308	121.411	331.085	0.670	31.450	57.294	0.140	6.376	276.840	215.291	4.304	9.018	11.628	16.494	134.449	14.508	-8191	255	
32727.141	1	1	0	0	0.17276	0.24941	0.2098	0.16932	0.25974	0.18782	0.27033	0.28617	0.11156	0.1681	0.035922	0.068834	0.099465	0.091357	0.093281	0.0080501	-2.3375	-2.5146	-3.2833	-2.4292	-2.9083	-3.0604	-2.5104	-3.1917	-2.8417	-2.6271	-3.2875	-2.5667	-3.0187	-3.1708	-2.6063	-2.9396	247.499	160.228	48.176	283.812	192.504	315.273	41.974	348.340	326.702	47.344	27.910	211.679	44.016	207.893	298.014	206.754	0.00018338	0.00097746	0.00035415	181.29	6.8171e-06	1.338e-05	298.79	55.496	8.5019e-06	6.473e-06	100.33	33.692	16.426	7.9693	1.0895e-05	18.031	0.0040364	0.0043961	0.001211	281.01	4.7946e-05	4.7914e-05	363.92	83.759	4.7583e-05	4.8066e-05	145.65	49.548	31.76	13.059	4.7201e-05	24.462	234.101	202.798	225.909	1.448	311.067	36.386	1.091	6.828	74.669	145.641	4.751	9.190	9.765	15.635	0.579	12.612	-8191	255	
32727.260	1	1	0	0	0.14759	0.19299	0.11308	0.088399	0.049917	0.092676	0.2442	0.10711	0.39229	0.10838	0.090348	0.21952	0.024776	0.066873	0.055621	0.1116	-2.4125	-2.5438	-3.2438	-2.7812	-2.9396	-3.3375	-2.5729	-3.1688	-2.9146	-2.5896	-3.2208	-2.65	-2.8104	-3.1458	-2.3917	-3.1083	96.349	170.104	8.955	-7.786	239.653	24.306	149.016	55.600	142.535	214.157	275.654	131.947	48.571	349.102	136.640	79.593	0.0002055	0.0013364	0.00073847	185.58	1.4586e-05	6.6134e-06	296.98	54.987	3.3789e-06	8.6637e-06	102.14	33.779	16.522	7.564	1.0963e-05	18.224	0.0040886	0.0044107	0.0012214	284.13	4.8104e-05	4.8607e-05	365.11	83.823	4.789e-05	4.8014e-05	146.41	49.556	31.756	13.117	4.745e-05	24.736	68.485	297.729	312.934	0.049	249.500	218.304	1.448	7.823	110.968	95.645	4.399	11.074	12.274	14.545	231.359	13.222	-8191	255	
32727.355	1	1	0	0	0.10319	0.23732	0.095052	0.14847	0.10607	0.077261	0.1489	0.15439	0.1676	0.27217	0.29792	0.24337	0.11287	0.10906	0.090703	0.11961	-2.625	-2.5896	-3.1958	-2.8208	-2.8542	-3.3292	-2.5271	-3	-2.95	-2.4104	-3.2625	-2.5625	-2.6854	-3.3021	-2.6104	-3.0333	296.949	158.570	288.787	312.304	178.452	212.935	-0.619	308.528	5.310	187.111	269.164	111.771	-9.103	214.689	107.433	236.754	0.00044491	0.001009	0.00042038	183	1.2946e-05	1.236e-05	298.15	55.924	7.5448e-06	2.1775e-05	100.47	34.25	16.706	7.6944	3.6661e-06	18.034	0.0039908	0.0043607	0.0012117	282	4.7252e-05	4.7591e-05	363.34	83.93	4.7024e-05	4.7178e-05	145.4	49.697	31.715	12.909	4.6824e-05	24.481	158.930	211.770	173.975	0.241	339.856	170.283	1.200	7.605	1.851	48.108	4.839	9.941	11.970	14.759	88.420	13.623	-8191	255	
32727.453	1	1	0	0	0.20944	0.23371	0.087452	0.23081	0.1978	0.13292	0.049025	0.20713	0.17318	0.26035	0.10728	0.087933	0.16899	0.096879	0.24085	0.030467	-2.7125	-2.3312	-3.1604	-2.7583	-2.5542	-3.1854	-2.4625	-2.9167	-3.2083	-2.5083	-3.1646	-2.7438	-2.5812	-3.2479	-2.6417	-2.9083	242.281	38.526	147.843	197.630	166.946	200.317	173.051	285.191	120.593	-7.992	237.497	299.466	66.920	37.019	108.027	316.843	0.00045825	0.00068005	0.00010315	187.08	7.3302e-06	6.1855e-06	298.93	54.773	6.9451e-06	8.0069e-06	101.89	34.435	16.359	7.8156	1.6964e-05	18.446	0.0039296	0.0042788	0.0011893	280.08	4.6267e-05	4.6318e-05	361.72	82.881	4.6108e-05	4.6838e-05	145.67	49.814	31.314	12.886	4.6634e-05	24.548	236.885	61.649	265.555	0.893	231.369	282.769	0.669	7.841	157.734	237.224	5.899	8.539	11.415	16.024	345.315	12.652	-8191	255	
32727.549	1	1	0	0	0.078775	0.14075	0.045514	0.23492	0.20289	0.1659	0.14386	0.20606	0.074116	0.076606	0.23877	0.10062	0.21976	0.17102	0.19705	0.10619	-2.7833	-2.4354	-3.2062	-3.0083	-2.3292	-3.2521	-2.6312	-2.8083	-3.2687	-2.6	-3.1063	-3.0812	-2.5104	-3.3667	-2.6312	-2.6021	202.067	-2.192	289.795	73.904	295.022	201.251	294.915	304.389	249.608	262.384	314.376	52.273	1.310	107.755	41.653	284.951	7.5787e-05	0.0013158	0.00019364	185.85	1.5914e-05	6.5045e-06	302.51	55.154	4.0111e-06	9.2735e-06	102.17	33.717	16.473	7.7759	1.66e-05	18.438	0.0039013	0.0042403	0.0011853	278.92	4.5362e-05	4.6372e-05	360.55	82.803	4.5508e-05	4.5965e-05	144.9	49.197	31.28	12.944	4.6164e-05	24.417	279.418	8.905	4.508	1.405	179.250	-5.505	-0.049	6.662	290.517	6.220	5.252	10.368	10.644	15.533	71.155	13.529	-8191	255	
32727.643	1	1	0	0	0.034892	0.064422	0.14156	0.1026	0.23825	0.24127	0.21606	0.23627	0.19501	0.18615	0.16147	0.087276	0.071732	0.015436	0.11624	0.17263	-2.7729	-2.475	-2.8979	-2.8937	-2.55	-3.2188	-2.6979	-2.4938	-3.2583	-2.6354	-2.9146	-2.9104	-2.5812	-3.1937	-2.8583	-2.6375	103.724	326.792	89.344	254.133	-11.417	346.413	236.006	182.472	110.794	13.995	84.670	317.587	229.505	325.695	132.861	269.108	0.00025358	0.0029438	0.00041389	178.98	1.3708e-05	5.549e-06	297.88	55.085	8.7829e-06	1.7089e-05	102.76	34.116	16.695	7.9278	1.7328e-05	18.107	0.0038695	0.0042031	0.0011648	276.3	4.5273e-05	4.5924e-05	357.47	81.905	4.5349e-05	4.5956e-05	144.18	48.769	30.936	12.89	4.6079e-05	24.26	3.458	9.735	61.145	0.103	292.259	247.708	1.126	6.131	291.377	148.571	4.728	8.536	10.357	15.707	170.081	12.777	-8191	255	
32727.738	1	1	0	0	0.23071	0.077747	0.11665	0.21883	0.11916	0.17162	0.15513	0.27242	0.26326	0.13115	0.036489	0.15639	0.23051	0.15628	0.067668	0.13926	-2.9062	-2.5	-2.8354	-3.2667	-2.3458	-3.2812	-2.7917	-2.6167	-3.1542	-2.4771	-2.8729	-3.2458	-2.4813	-3.0583	-2.8083	-2.6292	151.151	310.377	334.056	342.013	289.345	277.213	182.085	330.666	20.707	264.564	157.741	142.641	15.569	179.602	25.264	256.232	0.00045205	0.0014368	0.00032696	184.61	3.6611e-06	2.4791e-05	294.98	56.541	2.7943e-06	8.6733e-06	102.38	34.464	16.348	7.8219	7.0435e-06	18.127	0.0038495	0.0041975	0.001173	276.72	4.5289e-05	4.5847e-05	357.92	81.839	4.4995e-05	4.5995e-05	144.06	49.019	30.852	12.835	4.5526e-05	24.254	-0.946	61.887	162.942	0.751	8.567	6.431	0.591	6.580	295.489	175.046	5.111	8.681	12.641	15.563	284.922	13.000	-8191	255	
32727.838	1	1	0	0	0.30213	0.15425	0.27388	0.10129	0.19678	0.17282	0.35646	0.16744	0.088313	0.17683	0.15567	0.18628	0.29129	0.37115	0.15032	0.20843	-2.8708	-2.6208	-2.8125	-3.3708	-2.4625	-3.3312	-3.0479	-2.5229	-3.2479	-2.5375	-2.6458	-3.2729	-2.5083	-3.0083	-3.0271	-2.3854	23.697	145.663	289.978	192.215	234.509	124.157	78.614	69.008	201.295	21.895	222.233	302.516	124.486	305.172	5.146	316.401	0.0007378	0.00069957	0.00046819	187.32	2.016e-05	1.9576e-05	298.25	56.35	1.1984e-05	2.0371e-06	100.89	34.533	16.986	7.9481	1.5617e-05	18.408	0.0037977	0.0041591	0.0011488	274.4	4.4135e-05	4.5018e-05	356.06	81.665	4.4319e-05	4.5385e-05	143.17	48.82	30.757	12.776	4.4652e-05	24.25	309.058	26.100	0.190	0.156	252.133	145.005	0.240	5.349	189.901	84.780	4.829	10.106	10.864	16.032	234.397	13.448	-8191	255	
32727.955	1	1	0	0	0.20645	0.35434	0.055262	0.40847	0.30667	0.34822	0.17627	0.17967	0.14608	0.18293	0.035689	0.037969	0.14262	0.34009	0.17776	0.24975	-2.8042	-2.6083	-2.6937	-3.2854	-2.4604	-3.0438	-3.0542	-2.4938	-3.3937	-2.9208	-2.7229	-3.2625	-2.4938	-2.95	-3.1688	-2.4167	13.435	328.027	31.816	342.586	230.481	204.436	93.991	278.475	54.505	150.307	146.739	197.115	257.691	237.571	128.309	257.360	0.00012639	0.002632	0.00037462	183.76	4.6186e-06	1.1239e-05	296.95	56.318	1.3708e-05	1.73e-05	102.07	34.192	16.451	7.7412	9.5039e-06	18.527	0.0037865	0.0041632	0.0011572	275.65	4.5264e-05	4.6285e-05	358.67	81.958	4.4973e-05	4.576e-05	143.15	48.894	30.86	12.747	4.4746e-05	24.188	239.781	2.268	270.373	-0.099	183.537	106.937	0.728	6.594	122.870	87.398	5.842	10.173	10.485	16.673	149.138	13.190	-8191	255	
32728.053	1	1	0	0	0.092485	0.06877	0.063411	0.13763	0.1871	0.34822	0.14689	0.27365	0.072961	0.09674	0.16037	0.10184	0.12019	0.141	0.26418	0.17814	-2.875	-2.8604	-2.4771	-3.2625	-2.6167	-2.9333	-3.2479	-2.4708	-3.0167	-2.8833	-2.4646	-3.2542	-2.4292	-2.7979	-3.2604	-2.2083	228.354	159.647	88.476	47.072	259.971	-3.140	202.697	338.774	49.076	199.999	180.112	132.737	248.081	-4.394	76.576	322.659	0.00022914	0.0019687	0.00019927	186.51	2.9166e-06	3.8718e-06	293.07	54.058	1.5781e-05	6.8432e-06	101.39	34.834	16.608	7.9299	2.3917e-05	18.235	0.0037769	0.0041384	0.0011385	273.99	4.4929e-05	4.5103e-05	355.91	81.57	4.4632e-05	4.5079e-05	143.07	48.924	30.857	12.754	4.4375e-05	24.192	42.839	177.948	37.101	-0.337	195.803	226.130	0.404	7.079	227.053	231.491	4.990	9.648	10.868	14.880	168.805	14.056	-8191	255	
32728.123	1	1	0	0	0.15166	0.048037	0.0084247	0.24168	0.27585	0.10387	0.1689	0.26133	0.081367	0.15956	0.075369	0.19749	0.15619	0.17703	0.14861	0.14836	-2.6562	-3.0042	-2.4604	-3.2833	-2.6625	-2.6792	-3.1437	-2.3937	-2.9958	-3.0854	-2.3604	-3.175	-2.6771	-2.4708	-3.3229	-2.5208	-8.775	301.204	59.872	2.294	340.145	63.213	57.322	250.372	253.589	168.132	239.445	294.012	334.433	277.613	268.133	317.617	0.00027458	0.0023388	0.00047804	182.12	1.2773e-05	5.0279e-06	296.85	55.334	1.3205e-05	1.3476e-05	101.72	34.919	16.38	7.8355	1.4529e-05	18.53	0.0038048	0.0040897	0.0011467	273.76	4.4989e-05	4.5124e-05	357.25	82.463	4.5508e-05	4.6157e-05	144.31	49.422	31.153	12.908	4.5649e-05	24.392	198.340	62.354	152.860	1.290	17.359	42.296	0.129	7.666	213.431	180.998	5.209	9.172	11.180	15.032	123.546	12.859	-8191	255	
32728.244	1	1	0	0	0.035271	0.18057	0.15499	0.013149	0.0581	0.17983	0.17909	0.28947	0.11705	0.10725	0.16995	0.2274	0.21279	0.065322	0.089929	0.19548	-2.5563	-2.9813	-2.5208	-3.3104	-2.8187	-2.7708	-3.1937	-2.6667	-3.0458	-3.1375	-2.4875	-3.0979	-2.8583	-2.5583	-3.0917	-2.8542	297.012	325.142	134.535	154.526	115.248	36.265	88.432	290.391	21.276	272.662	305.174	77.018	80.994	42.866	311.724	69.244	0.00039155	0.00073209	0.00022639	184.97	1.1746e-05	5.4376e-06	297.11	55.854	7.955e-06	1.3711e-05	101.87	35	17.02	7.6737	2.7774e-05	18.141	0.0038819	0.0041791	0.0011544	277.81	4.561e-05	4.5632e-05	358.35	82.638	4.5302e-05	4.5513e-05	143.66	49.594	31.014	12.79	4.5182e-05	24.329	200.269	315.994	159.038	1.606	115.935	262.777	0.379	6.005	260.253	283.928	5.166	8.742	11.517	14.961	281.808	13.873	-8191	255	
32728.342	1	1	0	0	0.12339	0.18818	0.094187	0.15023	0.22836	0.062318	0.050621	0.33284	0.06969	0.19804	0.052797	0.23178	0.12505	0.065703	0.19016	0.19086	-2.3979	-3.3042	-2.3937	-3.1937	-2.8854	-2.4917	-3.2125	-2.7646	-2.9042	-3.1479	-2.5167	-3.1875	-3.1229	-2.6708	-3.2229	-2.8104	42.547	147.017	99.229	29.671	57.567	325.805	333.261	80.847	140.235	60.224	225.857	29.421	270.870	259.200	331.941	99.317	0.00039319	0.0032319	0.00056962	185.68	1.0322e-05	1.4763e-05	301.2	55.399	8.0294e-06	8.2163e-06	102.05	34.668	17.179	7.6076	1.447e-05	18.649	0.0038304	0.0041041	0.0011431	275.97	4.4537e-05	4.5039e-05	356.54	81.872	4.4138e-05	4.3757e-05	142.09	48.888	30.658	12.619	4.3984e-05	24.044	60.415	101.420	245.720	0.348	313.863	49.608	0.848	7.536	106.384	174.692	5.337	8.859	11.458	14.899	195.752	13.373	-8191	255	
32728.438	1	1	0	0	0.24066	0.18798	0.046774	0.26459	0.13621	0.19262	0.21951	0.040481	0.1153	0.079734	0.19781	0.089598	0.048874	0.18526	0.11634	0.1525	-2.3604	-3.2417	-2.5083	-3.0583	-3.0958	-2.4979	-3.1833	-2.7083	-2.6104	-3.3958	-2.4646	-3.0167	-3.3854	-2.5583	-3.0687	-2.9146	295.504	271.161	-1.303	47.246	100.152	288.755	313.888	145.353	87.990	268.294	315.427	203.313	16.122	25.176	306.930	95.312	0.00046049	0.00035996	0.00027854	185.07	7.2352e-06	1.0193e-05	298.05	56.016	4.442e-06	1.963e-05	103.67	34.664	16.88	7.738	1.0378e-05	18.333	0.0036964	0.0040197	0.0011323	274.27	4.3774e-05	4.4089e-05	354.4	81.02	4.331e-05	4.3822e-05	142.51	48.467	30.499	12.507	4.3373e-05	24.001	100.413	109.376	254.442	-0.684	40.346	195.346	1.193	6.681	88.633	42.588	5.578	10.475	11.906	15.398	57.950	12.523	-8191	255	
32728.533	1	1	0	0	0.096303	0.11098	0.1901	0.12192	0.31176	0.14558	0.20717	0.12269	0.026746	0.32544	0.18888	0.26483	0.11874	0.27821	0.11213	0.26008	-2.0521	-3.3667	-2.6437	-2.9542	-3.0708	-2.5604	-3.2062	-2.9188	-2.5375	-3.2521	-2.65	-2.6688	-3.2729	-2.4771	-3.025	-3.2125	323.293	323.503	181.100	174.823	41.485	319.163	98.064	204.927	261.558	322.461	10.560	153.419	266.817	276.633	233.035	157.336	7.505e-05	0.0014168	0.00058121	182.45	1.4833e-05	8.9814e-06	297.44	55.524	8.5303e-06	3.2474e-05	103.93	35.021	16.835	7.7237	1.596e-05	18.331	0.003694	0.0039863	0.0011197	273.06	4.3576e-05	4.4117e-05	356.59	80.918	4.3391e-05	4.3653e-05	142.45	48.767	30.467	12.518	4.3556e-05	24.073	268.743	346.485	158.507	-0.123	38.900	228.085	0.985	7.085	214.200	251.129	4.146	9.117	10.965	15.163	128.199	13.079	-8191	255	
32728.652	1	1	0	0	0.13026	0.11531	0.072258	0.22816	0.17263	0.079225	0.27392	0.12075	0.2384	0.12742	0.060575	0.10738	0.14342	0.18441	0.14784	0.34275	-2.2083	-3.2271	-2.7083	-2.775	-3.2542	-2.5708	-3.1417	-3.1229	-2.5354	-3.3042	-2.6979	-2.675	-3.1625	-2.5729	-2.8937	-3.05	296.873	58.905	132.206	273.952	342.900	118.867	296.302	178.714	339.405	270.112	197.752	299.743	-2.978	211.795	0.921	238.286	0.00012033	0.0016355	0.00042156	183.96	1.0246e-05	1.1343e-05	302.08	56.423	1.6874e-05	1.1439e-05	104	34.453	16.557	7.7649	1.6189e-05	18.489	0.0036366	0.0040102	0.0011171	272.66	4.3049e-05	4.4072e-05	358.79	81.134	4.368e-05	4.4327e-05	143.09	49.068	30.813	12.725	4.4728e-05	24.157	110.996	212.979	206.741	-0.274	269.794	302.125	1.340	6.973	194.444	165.323	5.919	10.050	10.223	14.955	343.717	12.784	-8191	255	
32728.725	1	1	0	0	0.27169	0.15136	0.32471	0.22688	0.14637	0.18668	0.14663	0.30396	0.21553	0.10223	0.091425	0.24583	0.23762	0.08704	0.045837	0.080989	-1.9937	-3.1188	-2.7125	-2.5479	-3.1646	-2.5833	-2.8021	-3.3396	-2.3563	-3.2875	-2.9354	-2.6229	-3.3292	-2.5938	-2.8667	-3.2438	229.343	33.618	18.526	-5.680	183.023	198.526	161.771	280.144	15.563	263.388	291.501	280.561	53.205	84.926	134.155	81.840	0.00010978	0.0014539	0.0002949	184.77	1.1168e-05	1.717e-05	298.05	56.092	3.6378e-06	1.2076e-05	102.56	34.103	16.722	7.8926	6.1414e-07	18.225	0.0037317	0.0041044	0.0011467	275.61	4.4227e-05	4.4365e-05	357.55	81.408	4.4228e-05	4.5617e-05	143.77	48.927	30.929	12.784	4.4992e-05	24.231	116.265	254.926	129.732	0.537	31.773	276.337	0.569	7.392	122.078	-1.079	4.765	8.710	11.591	14.561	84.822	11.956	-8191	255	
32728.820	1	1	0	0	0.091246	0.20347	0.15555	0.079215	0.01557	0.098487	0.13843	0.23763	0.03724	0.16711	0.092077	0.24755	0.28099	0.090601	0.31988	0.092845	-2.2646	-3.1542	-2.8563	-2.5646	-3.325	-2.6375	-2.8125	-3.1979	-2.35	-3.1125	-3.1833	-2.6146	-3.2604	-2.7167	-2.9333	-3.1813	124.516	304.343	176.852	331.719	264.361	228.230	326.333	295.556	154.832	-1.096	285.686	289.149	343.407	328.748	228.644	172.105	0.00027336	0.0010719	0.00027697	183.29	1.7041e-05	1.4674e-05	299.96	55.25	1.2894e-05	1.2929e-05	99.022	34.742	16.265	7.8228	6.467e-06	18.445	0.0038064	0.0041407	0.0011539	277.86	4.4939e-05	4.5405e-05	360.19	81.817	4.4993e-05	4.6026e-05	143.08	49.191	30.952	12.853	4.5312e-05	24.223	101.793	113.179	80.193	1.785	180.517	327.641	0.838	6.440	327.710	225.512	4.332	9.548	10.099	14.566	243.266	13.142	-8191	255	
32728.939	1	1	0	0	0.34992	0.32504	0.24532	0.14906	0.041485	0.09775	0.12963	0.1674	0.1217	0.16492	0.11615	0.14934	0.16814	0.13917	0.1926	0.033564	-2.1792	-2.9917	-3.0146	-2.5625	-3.2917	-2.6729	-2.5979	-3.2521	-2.6063	-3.0896	-3.1937	-2.425	-3.2646	-2.7646	-2.6271	-3.4021	43.578	272.485	108.525	280.307	305.420	111.980	300.871	102.332	77.459	275.309	0.281	37.770	258.662	305.857	41.128	297.354	0.00010418	0.0008235	0.00084544	188.19	1.7913e-05	6.3207e-06	298.61	55.972	8.9862e-06	9.5889e-06	103.84	35.096	17.249	7.8473	2.0731e-05	18.194	0.0037812	0.0041765	0.0011526	278.2	4.4667e-05	4.5194e-05	361.13	82.104	4.4346e-05	4.5307e-05	143.15	49.155	31.033	12.709	4.4459e-05	24.127	31.114	262.911	309.284	0.926	64.059	136.073	1.488	6.168	172.573	87.568	4.975	9.814	11.251	15.659	9.147	12.861	-8191	255	
32729.035	1	1	0	0	0.2591	0.069804	0.19467	0.27026	0.11661	0.12214	0.17913	0.10387	0.060833	0.055451	0.19554	0.11287	0.18837	0.14203	0.13969	0.12125	-2.0687	-2.9875	-3.025	-2.5229	-3.1833	-2.8917	-2.6979	-3.3583	-2.55	-2.8021	-3.2271	-2.5667	-3.0146	-2.875	-2.6604	-3.2958	330.813	161.154	24.836	264.184	99.586	212.094	86.494	197.733	290.708	254.903	42.472	286.132	302.422	56.858	243.058	340.057	0.00030407	0.001028	0.00037077	185.16	1.1308e-05	9.2241e-06	296.98	54.752	6.4747e-06	1.108e-05	101.58	35.14	16.99	7.8128	1.1305e-05	18	0.0037545	0.0041091	0.0011273	277.51	4.4031e-05	4.4651e-05	358.27	81.421	4.3667e-05	4.4639e-05	143.37	48.941	30.808	12.613	4.4186e-05	24.008	281.789	283.971	210.624	0.554	15.670	151.173	1.044	6.124	274.630	186.183	5.385	10.541	11.854	16.708	-2.242	12.427	-8191	255	
32729.133	1	1	0	0	0.067174	0.14113	0.2119	0.24618	0.22144	0.16634	0.12859	0.15087	0.2999	0.20541	0.15127	0.082855	0.15445	0.12017	0.057555	0.35362	-2.3438	-2.7458	-3.1979	-2.4417	-3.0708	-2.8542	-2.5083	-3.3042	-2.5042	-2.7313	-3.2104	-2.5083	-2.9875	-3.0875	-2.625	-3.2062	174.276	244.701	159.470	205.927	92.015	251.852	244.887	197.661	202.353	271.865	56.068	237.463	236.096	270.745	32.309	254.847	0.00024656	0.0020149	0.00050642	189.74	6.629e-06	1.2992e-05	301.13	56.409	6.5959e-06	5.9665e-06	101.8	35.144	16.985	7.7387	2.0517e-05	18.2	0.0037571	0.0040785	0.0011094	275.36	4.3993e-05	4.3705e-05	356.93	81.145	4.3896e-05	4.3972e-05	141.4	48.735	30.641	12.574	4.3766e-05	24.029	54.159	310.800	210.094	0.428	235.047	95.389	1.298	7.145	56.672	207.335	5.685	9.494	11.306	14.895	189.082	12.660	-8191	255	
32729.254	1	1	0	0	0.092654	0.22595	0.30037	0.13999	0.044524	0.065241	0.084028	0.22407	0.20995	0.13282	0.19119	0.14065	0.2401	0.17558	0.22486	0.090954	-2.3271	-2.4625	-3.1813	-2.5396	-2.9188	-3.1417	-2.6125	-3.1833	-2.775	-2.6896	-3.3646	-2.5438	-2.8187	-2.9417	-2.3354	-3.1917	85.202	328.588	108.759	115.369	99.281	317.791	236.332	251.700	160.580	119.480	57.948	105.422	217.912	249.153	246.194	292.673	0.00021845	0.0019094	0.00022606	184.84	9.0121e-06	4.8845e-06	294.02	56.317	9.0216e-06	1.2053e-05	101.44	34.166	16.414	7.7675	1.5934e-05	18.013	0.0036893	0.0040089	0.0011152	274.27	4.374e-05	4.4241e-05	353.96	80.746	4.3508e-05	4.3979e-05	141.03	48.461	30.525	12.503	4.3501e-05	23.737	139.249	13.827	262.742	0.103	277.017	279.127	0.463	6.906	77.542	319.077	5.886	9.457	11.512	13.981	54.833	12.412	-8191	255	
32729.350	1	1	0	0	0.099932	0.11728	0.23248	0.51729	0.045142	0.084329	0.17577	0.29537	0.08683	0.086488	0.16898	0.028287	0.28074	0.18329	0.12794	0.3207	-2.3708	-2.6146	-3.1042	-2.7375	-2.9062	-3.1625	-2.3854	-3.1625	-3	-2.5062	-3.225	-2.5312	-2.6229	-3.1896	-2.7167	-3.1104	329.018	71.541	103.718	324.914	11.084	333.429	280.737	104.680	213.323	208.996	257.966	190.786	250.258	313.457	-11.190	291.902	6.6409e-05	0.0018011	0.00029948	184	1.2291e-05	1.1428e-05	298.99	55.904	6.4585e-06	1.4052e-05	102.29	34.425	16.617	7.6782	2.4096e-05	18.116	0.0036683	0.0039886	0.0011075	272.57	4.3488e-05	4.3112e-05	354.05	81.202	4.3008e-05	4.3464e-05	142.12	48.428	30.332	12.488	4.3328e-05	23.742	107.321	277.143	26.587	0.416	38.221	2.596	-0.157	5.695	125.971	225.649	4.486	9.362	10.876	15.239	68.657	12.810	-8191	255	
32729.422	1	1	0	0	0.14265	0.19395	0.11192	0.21209	0.15021	0.053577	0.1945	0.25715	0.080689	0.19017	0.22518	0.17221	0.21551	0.13862	0.18273	0.11544	-2.7438	-2.6333	-3.2146	-2.6625	-2.5375	-3.3396	-2.5583	-2.9938	-3.2021	-2.5229	-3.05	-2.7438	-2.5292	-3.2958	-2.5563	-3.1	101.398	89.011	335.509	50.519	230.217	260.904	309.041	210.934	2.333	177.451	-8.827	264.409	323.625	316.520	129.216	304.752	0.00020923	0.0021627	0.00023001	185.06	1.6169e-05	5.9729e-06	299.76	56.186	6.4393e-06	1.38e-05	102.38	34.937	16.362	7.6785	1.2357e-05	18.312	0.00366	0.0039579	0.0011015	271.81	4.3091e-05	4.3739e-05	355.92	81.15	4.3214e-05	4.3354e-05	141.87	48.793	30.33	12.5	4.3393e-05	23.916	185.977	128.750	89.853	-0.027	333.681	72.325	0.328	6.791	-7.218	250.413	5.355	9.080	10.320	16.446	175.702	12.738	-8191	255	
32729.518	1	1	0	0	0.10845	0.23796	0.11199	0.13535	0.097331	0.24316	0.27656	0.2477	0.084066	0.092791	0.24806	0.17213	0.15576	0.094978	0.12676	0.19311	-2.7062	-2.4792	-3.1937	-2.8937	-2.5792	-3.1375	-2.5646	-2.9667	-3.1312	-2.4813	-3.1167	-2.9188	-2.5	-3.2	-2.6771	-2.8271	226.794	318.421	315.970	0.414	280.508	242.468	226.084	222.794	29.171	349.711	83.376	3.523	28.642	118.964	277.994	-9.033	0.00026229	0.00071588	0.00017561	187.47	1.7503e-05	2.0946e-05	297.42	56.182	2.2367e-06	1.386e-05	101.3	34.432	16.487	7.8481	9.8666e-06	18.057	0.0036613	0.0039737	0.0011083	275.06	4.3011e-05	4.3521e-05	355.62	81.198	4.339e-05	4.3583e-05	141.81	48.45	30.481	12.573	4.3903e-05	23.835	271.393	214.022	23.720	-0.107	36.668	233.071	0.926	7.914	335.463	278.797	5.213	9.356	10.908	14.908	110.380	13.961	-8191	255	
32729.637	1	1	0	0	0.14062	0.12043	0.31405	0.2722	0.12697	0.15877	0.18037	0.12853	0.18686	0.38782	0.060315	0.097542	0.1675	0.07021	0.052124	0.20452	-2.7646	-2.5521	-3.275	-2.9458	-2.5979	-3.1688	-2.7333	-2.7583	-3.0479	-2.425	-3.1437	-2.8542	-2.4625	-3.1813	-2.7396	-2.675	88.759	22.073	296.558	259.406	248.152	283.995	339.500	160.703	229.238	186.190	163.160	34.187	27.684	303.837	336.413	294.285	0.00022592	0.0018161	0.00019737	186.59	6.5872e-06	1.2898e-05	296.64	56.055	1.7509e-05	7.6418e-06	103.21	34.615	16.74	7.7969	2.2324e-05	18.196	0.0036865	0.0039923	0.0011183	274.83	4.3391e-05	4.3505e-05	355.54	81.088	4.3316e-05	4.4057e-05	142.87	48.427	30.56	12.638	4.4165e-05	23.847	155.651	186.767	84.044	0.861	1.162	94.241	-0.534	5.964	199.231	41.850	4.841	10.075	10.877	14.683	50.010	13.709	-8191	255	
32729.732	1	1	0	0	0.15793	0.19246	0.17167	0.30462	0.11617	0.18893	0.18778	0.33757	0.10975	0.28226	0.039535	0.28891	0.28153	0.069926	0.28091	0.020331	-2.7687	-2.4771	-2.9521	-2.975	-2.4396	-3.1562	-2.8396	-2.6125	-3.3375	-2.5667	-2.7938	-3.1875	-2.4625	-3.2146	-2.7333	-2.4625	135.390	61.162	288.880	185.259	102.420	192.520	340.884	47.001	342.185	185.605	85.691	57.335	319.754	11.519	328.966	266.831	9.6089e-05	0.001816	0.00046396	189.83	4.1056e-06	9.7896e-06	299.76	56.006	2.6121e-06	5.1703e-06	102.39	34.237	16.617	7.8268	6.3019e-06	18.332	0.0036887	0.004026	0.0011242	274.76	4.3535e-05	4.4314e-05	359.05	81.339	4.3324e-05	4.3904e-05	142.76	48.569	30.436	12.59	4.3559e-05	24.014	65.935	265.960	65.531	0.808	71.225	72.090	-0.108	6.719	334.381	169.420	5.607	9.010	10.833	15.149	225.111	12.246	-8191	255	
32729.828	1	1	0	0	0.14054	0.17558	0.31888	0.12597	0.1133	0.075041	0.18121	0.21121	0.15776	0.11941	0.25816	0.20687	0.2028	0.14115	0.20918	0.21702	-2.9771	-2.5896	-2.85	-3.0563	-2.5729	-3.1792	-3.0104	-2.5563	-3.2875	-2.675	-2.8729	-3.2146	-2.4958	-3.1417	-2.7562	-2.4417	16.477	158.173	180.450	16.337	96.959	33.979	336.470	184.680	103.942	106.351	171.355	-0.050	87.701	320.063	186.889	283.308	0.00013268	0.0019803	7.5235e-05	186.09	1.2122e-05	5.8501e-06	295.43	55.956	1.3794e-05	5.3159e-06	102.49	35.154	16.77	7.8909	1.7646e-05	18.355	0.0037028	0.0040751	0.0011252	274.99	4.3471e-05	4.42e-05	356.98	81.141	4.3337e-05	4.4711e-05	142.32	48.55	30.727	12.682	4.4045e-05	24.04	159.458	52.354	190.305	-0.216	124.729	152.776	0.767	6.581	164.099	287.343	5.071	9.027	7.824	15.838	143.707	13.853	-8191	255	
32729.926	1	1	0	0	0.12505	0.31003	0.21089	0.12444	0.074382	0.2976	0.032565	0.20594	0.21595	0.089928	0.057319	0.14134	0.095316	0.21156	0.17777	0.30085	-2.7875	-2.5979	-2.6937	-3.2792	-2.5354	-3.1958	-3.0896	-2.3688	-3.1646	-2.7583	-2.5833	-3.2667	-2.4188	-2.9479	-3.1729	-2.5938	268.611	224.674	341.342	249.787	161.724	68.900	11.504	150.749	294.709	282.897	109.855	211.771	120.901	69.155	264.221	72.883	0.0001146	0.0013634	0.0003218	188.76	1.3803e-05	3.6485e-06	297.37	56.995	7.2463e-06	3.555e-06	105.48	34.829	16.749	7.8567	2.2659e-05	18.076	0.0037093	0.0040456	0.0011239	276.09	4.4027e-05	4.4505e-05	355.76	81.712	4.3363e-05	4.4273e-05	143.09	48.53	30.472	12.655	4.373e-05	23.985	66.127	138.878	326.104	0.502	243.745	52.609	-0.024	6.608	265.338	123.301	5.415	9.903	9.771	15.221	3.110	12.615	-8191	255	
32730.021	1	1	0	0	0.091675	0.40489	0.10675	0.061475	0.030295	0.23456	0.20109	0.043494	0.16195	0.045346	0.17161	0.11638	0.19341	0.30241	0.16943	0.15364	-2.9479	-2.7438	-2.5312	-3.2333	-2.5833	-2.8667	-3.3125	-2.3625	-3.2542	-3.0854	-2.4938	-3.275	-2.8271	-3.0062	-3.1813	-2.3875	205.464	344.825	67.546	107.376	44.733	235.979	312.816	250.105	235.275	163.188	13.331	337.793	214.371	272.684	339.842	322.562	0.00034749	0.0014325	0.00016661	189.24	5.7159e-06	1.3181e-05	302.1	57.588	5.8971e-06	4.7843e-06	103.75	34.602	16.671	7.5756	1.614e-05	18.245	0.0036839	0.004045	0.0011342	276.24	4.4324e-05	4.4685e-05	358.5	82.213	4.3942e-05	4.4943e-05	143.01	48.667	30.703	12.626	4.3864e-05	23.996	27.341	9.775	159.621	0.465	131.979	224.753	0.418	6.222	63.834	96.869	5.434	9.563	11.601	14.951	206.117	13.070	-8191	255	
32730.117	1	1	0	0	0.14761	0.03848	0.12794	0.16632	0.25142	0.20148	0.26377	0.17624	0.13955	0.22195	0.14976	0.01112	0.095397	0.42648	0.17338	0.17713	-2.7104	-2.85	-2.5167	-3.2417	-2.6146	-3.025	-3.1667	-2.4125	-3.0563	-3.0563	-2.4958	-3.2188	-2.7229	-2.6063	-3.3208	-2.5521	114.066	-9.326	344.783	312.043	210.395	303.645	68.244	328.414	169.342	127.131	29.363	79.336	0.078	255.077	49.785	204.280	0.0001364	0.0015283	0.00023478	188.67	8.3385e-06	1.1347e-05	299.57	55.77	5.175e-06	1.2051e-05	102.99	34.581	17.155	7.8057	7.0249e-06	18.142	0.0037256	0.0040776	0.0011232	276.69	4.442e-05	4.4149e-05	358.95	81.713	4.3703e-05	4.4106e-05	142.37	48.325	30.799	12.602	4.2942e-05	24.014	50.108	339.422	17.108	0.096	67.767	60.551	1.440	5.377	153.402	189.581	5.221	8.502	10.946	14.297	-4.919	12.210	-8191	255	
32730.213	1	1	0	0	0.33863	0.21809	0.09896	0.29398	0.092489	0.074452	0.090154	0.13705	0.27808	0.20078	0.29364	0.071927	0.18415	0.16662	0.17348	0.19206	-2.5479	-3.1292	-2.4479	-3.2271	-2.6875	-2.4479	-3.2792	-2.5854	-2.9542	-2.9667	-2.4979	-3.1625	-2.8229	-2.5625	-3.3146	-2.6146	107.555	139.394	334.227	299.686	36.135	310.104	-6.085	185.783	93.276	197.951	194.207	159.269	3.995	-5.219	89.801	278.555	0.00018694	0.0016345	0.00023292	187.86	9.2696e-06	8.7402e-06	305.5	56.762	6.4883e-06	7.4458e-06	103.1	34.848	16.657	7.7477	1.7813e-05	18.185	0.0036891	0.0039962	0.0011245	275	4.3395e-05	4.392e-05	358.95	81.689	4.3591e-05	4.4295e-05	142.36	48.648	30.468	12.568	4.3147e-05	23.81	2.193	278.050	64.576	-0.272	253.481	52.606	0.387	6.726	232.843	185.684	5.015	9.525	11.556	15.702	131.072	12.981	-8191	255	
32730.334	1	1	0	0	0.10708	0.031569	0.18667	0.055648	0.050252	0.090739	0.27766	0.095039	0.17412	0.12684	0.13876	0.24149	0.057239	0.13565	0.27195	0.048676	-2.4354	-3.2646	-2.4	-3.1667	-2.6688	-2.5438	-3.2167	-2.4917	-2.8021	-3.1646	-2.4417	-3.0563	-2.9667	-2.3979	-3.1208	-2.75	161.525	329.186	-3.695	256.089	46.603	242.775	308.617	28.887	43.948	288.657	315.186	115.928	2.400	69.206	149.044	319.720	0.00024966	0.0014837	0.00014848	189.49	6.2887e-06	2.1053e-05	301.04	57.273	4.0481e-06	7.6182e-06	104.87	34.668	16.606	7.872	7.6215e-06	18.221	0.0036327	0.0039716	0.0011048	275.81	4.3324e-05	4.3797e-05	355.85	81.03	4.2922e-05	4.3533e-05	142.39	48.142	30.516	12.572	4.3095e-05	23.859	117.064	298.251	91.503	1.174	107.475	120.805	0.584	5.594	209.129	257.100	5.759	10.246	10.507	14.328	129.145	13.355	-8191	255	
32730.430	1	1	0	0	0.21722	0.12083	0.08512	0.19578	0.23255	0.10558	0.17823	0.23701	0.025358	0.11784	0.09018	0.14222	0.28757	0.11914	0.093477	0.1511	-2.2875	-3.2833	-2.4167	-3.0146	-2.9146	-2.4562	-3.3083	-2.6792	-2.8708	-3.2375	-2.6417	-3.0771	-3.0875	-2.4479	-3.2708	-2.7333	185.617	32.751	149.858	267.857	20.985	100.651	256.739	265.090	21.526	281.609	-9.286	16.385	165.770	298.566	32.315	102.979	0.00015104	0.00075154	0.000515	193.86	9.1793e-06	1.8407e-05	301.02	55.333	6.4646e-06	1.0186e-05	104.19	34.065	16.495	7.9899	1.6853e-05	18.42	0.0036617	0.003979	0.0011095	277.2	4.3318e-05	4.3967e-05	357.02	81.132	4.3283e-05	4.3276e-05	143.2	48.683	30.609	12.61	4.343e-05	23.906	275.946	37.361	333.516	0.309	263.358	119.996	0.721	7.291	131.621	75.707	5.122	9.875	10.434	14.376	288.845	12.923	-8191	255	
32730.525	1	1	0	0	0.24815	0.092132	0.14559	0.12332	0.11372	0.14401	0.17649	0.28386	0.076327	0.24519	0.15397	0.18822	0.16189	0.15029	0.19036	0.29075	-2.1583	-3.1125	-2.4021	-3.1708	-2.9979	-2.5146	-3.2062	-2.7604	-2.6688	-3.2562	-2.65	-2.9062	-3.3063	-2.5938	-3.0042	-2.7854	347.224	75.490	81.880	209.295	88.182	86.236	311.666	222.767	53.181	330.618	344.981	168.084	235.113	292.751	36.270	228.320	6.8851e-05	0.002121	0.00055159	193.28	5.0122e-06	1.226e-05	300.38	57.956	9.7726e-06	7.9892e-06	104.84	35.455	17.122	7.7382	1.6076e-05	18.333	0.0036611	0.0039868	0.0011136	276.79	4.309e-05	4.354e-05	358.13	81.957	4.3119e-05	4.3181e-05	143.57	48.798	30.481	12.543	4.3597e-05	24.033	340.008	181.471	250.161	1.711	90.494	121.697	0.345	6.636	2.268	55.076	4.668	10.025	11.427	14.477	137.079	12.482	-8191	255	
32730.621	1	1	0	0	0.25863	0.068453	0.16179	0.063807	0.1693	0.26239	0.24956	0.13427	0.17919	0.10798	0.11774	0.042489	0.1874	0.1684	0.16611	0.13366	-2.2042	-3.175	-2.6479	-2.9292	-3.2792	-2.4167	-3.2083	-2.9854	-2.7062	-3.1854	-2.5812	-2.7292	-3.1	-2.4125	-3.1167	-3.1333	25.041	16.884	54.042	91.633	328.261	146.417	291.478	312.877	308.720	202.189	333.588	33.237	52.033	144.967	16.935	37.574	0.00039086	0.00031323	0.00050054	191.42	5.2569e-06	3.9192e-06	299.6	56.199	1.3786e-05	8.7281e-06	103.19	34.799	17.121	7.8539	3.2634e-06	18.333	0.0036274	0.003996	0.0011085	277.12	4.3538e-05	4.358e-05	358.63	81.483	4.3262e-05	4.3952e-05	143.21	48.785	30.754	12.694	4.4181e-05	23.96	59.737	71.629	88.401	-0.280	247.858	194.570	0.976	7.490	22.561	3.083	5.773	9.715	10.500	16.090	180.661	13.598	-8191	255	
32730.717	1	1	0	0	0.065721	0.13174	0.32809	0.11007	0.26642	0.08821	0.03867	0.056545	0.28111	0.01636	0.25331	0.10182	0.16096	0.33761	0.24127	0.29768	-1.8958	-3.1646	-2.4938	-2.6146	-3.2479	-2.4229	-3.075	-2.9583	-2.5625	-3.1688	-2.6875	-2.775	-3.1375	-2.6063	-2.95	-3.2667	323.857	162.993	236.239	25.779	-4.974	298.308	115.381	342.224	315.496	21.917	124.270	58.952	347.083	289.971	192.845	28.893	0.00037755	0.0011622	0.00013468	187.24	1.5157e-05	1.2031e-05	306.32	57.155	7.9734e-06	1.6297e-05	103.88	34.847	16.746	7.8705	8.6227e-06	18.345	0.0036649	0.0040215	0.0011266	275.59	4.3423e-05	4.3826e-05	358.33	81.522	4.3023e-05	4.3381e-05	142.6	48.597	30.363	12.643	4.3476e-05	23.859	20.615	57.719	140.099	0.670	201.894	61.891	1.585	6.621	156.440	172.696	5.834	10.018	12.382	14.383	135.638	12.601	-8191	255	
32730.812	1	1	0	0	0.1577	0.1092	0.043469	0.029044	0.17953	0.25962	0.065568	0.13039	0.16557	0.13225	0.11989	0.1758	0.14814	0.23656	0.15096	0.22394	-1.9771	-3.0792	-2.9125	-2.5521	-3.3042	-2.4229	-2.9042	-3.0708	-2.6917	-3.0833	-2.7958	-2.5833	-3.2313	-2.5687	-2.9688	-3.0958	234.978	95.104	49.182	83.809	44.345	57.720	325.531	124.475	315.552	29.046	272.978	254.123	219.596	95.947	294.915	67.948	0.00028447	0.0021814	0.00026629	192.94	2.0789e-06	2.1954e-05	299.48	57.883	6.5332e-07	5.9268e-06	104.95	35.294	16.533	7.9029	3.6203e-06	18.286	0.0036351	0.0039721	0.001099	275.98	4.2782e-05	4.3624e-05	357.22	81.541	4.2506e-05	4.3219e-05	142.76	48.723	30.35	12.563	4.2977e-05	23.869	223.801	125.608	166.279	2.166	13.131	107.491	1.111	6.316	320.601	110.320	4.820	9.781	11.985	14.237	142.957	13.392	-8191	255	
32730.934	1	1	0	0	0.2018	0.21419	0.17961	0.038945	0.18677	0.33933	0.13911	0.076986	0.053782	0.17568	0.20613	0.1354	0.30714	0.26959	0.051009	0.15864	-2.0146	-2.8812	-2.9333	-2.5938	-3.2854	-2.7667	-2.6521	-3.225	-2.4167	-3.1063	-3.0667	-2.4896	-3.1854	-2.7146	-2.7229	-3.2917	-1.404	168.651	134.040	21.943	31.675	233.283	151.986	256.681	309.429	269.123	213.405	20.010	5.350	181.919	167.824	46.730	0.00032237	0.001485	9.4097e-05	187.82	8.1883e-06	8.8256e-06	305.58	56.148	3.01e-06	2.2396e-05	104.54	34.682	17.345	7.8262	1.0566e-05	18.402	0.0036202	0.0039547	0.0010987	274.06	4.2361e-05	4.3137e-05	360.28	80.786	4.2551e-05	4.3439e-05	142.27	48.777	30.486	12.568	4.2986e-05	23.98	37.939	75.614	138.048	0.724	58.105	198.697	1.169	6.571	243.362	324.142	4.938	9.065	11.309	14.417	209.696	13.500	-8191	255	
32731.027	1	1	0	0	0.13788	0.10813	0.067416	0.04656	0.22868	0.15381	0.1476	0.064216	0.093116	0.13592	0.18457	0.33561	0.1892	0.16739	0.11604	0.14422	-1.9917	-3.1417	-2.8625	-2.3	-3.1875	-2.7938	-2.6771	-3.1854	-2.5396	-3.0208	-3.0792	-2.4771	-3.1188	-2.7354	-2.525	-3.2313	84.095	222.122	257.411	-11.329	83.604	73.888	289.325	57.832	254.463	319.929	51.789	297.416	303.423	13.427	164.118	222.667	0.0006282	0.0016459	0.00026018	192.09	1.5456e-05	5.2259e-06	301.56	57.001	4.2901e-06	6.718e-06	105.37	34.639	17.03	7.8243	1.845e-07	18.066	0.00364	0.0039527	0.0011008	274.26	4.2829e-05	4.3556e-05	357.51	81.127	4.2534e-05	4.3127e-05	142.71	48.397	30.248	12.562	4.2232e-05	23.697	95.223	114.764	145.118	0.717	15.913	65.871	0.466	6.480	225.205	90.024	4.735	10.001	9.509	16.020	95.882	13.851	-8191	255	
32731.123	1	1	0	0	0.082832	0.10767	0.26411	0.14568	0.29298	0.14418	0.18097	0.11947	0.042321	0.23487	0.33828	0.20723	0.16395	0.21051	0.054465	0.14407	-2.1271	-2.7917	-3.2021	-2.4354	-3.2854	-2.8	-2.5771	-3.3771	-2.5062	-2.8604	-3.225	-2.6229	-3.0604	-2.9562	-2.5583	-3.2188	285.403	214.112	180.151	45.739	223.539	-7.449	319.539	307.355	247.287	-0.621	263.368	345.991	290.638	52.696	337.480	324.697	0.00030011	0.0020572	8.1845e-05	190.24	7.2462e-06	1.6438e-05	295.66	56.338	5.37e-06	1.6373e-05	103.9	34.753	16.947	7.7178	1.926e-05	18.235	0.0035819	0.0039231	0.0010763	273.89	4.2096e-05	4.2852e-05	353.76	80.265	4.1812e-05	4.2828e-05	140.43	48.023	30.122	12.421	4.2435e-05	23.751	120.383	340.456	224.892	1.364	286.704	156.647	0.161	6.316	26.951	299.460	5.633	8.502	11.482	15.490	161.886	13.531	-8191	255	
32731.221	1	1	0	0	0.10072	0.1883	0.16782	0.14134	0.061339	0.25136	0.33234	0.19464	0.16241	0.26742	0.27454	0.079751	0.22699	0.13098	0.098632	0.14504	-2.2042	-2.7708	-3.1354	-2.5958	-3.1729	-2.925	-2.5292	-3.2375	-2.3812	-2.6417	-3.2125	-2.65	-3.1688	-2.9896	-2.4	-3.3104	-3.526	215.698	55.221	128.843	101.887	72.954	309.364	253.147	190.473	253.508	263.325	198.721	296.186	128.354	251.883	102.065	0.00039654	0.0020882	0.00033315	192.07	7.9268e-06	1.5549e-05	302.05	57.017	3.2725e-06	2.3615e-06	101.45	34.871	17.289	7.9243	7.7069e-06	18.285	0.0036023	0.0039353	0.0010873	274.31	4.2284e-05	4.2445e-05	354.91	80.668	4.2194e-05	4.2572e-05	140.66	48.035	30.092	12.399	4.1641e-05	23.661	87.433	30.470	238.461	0.723	100.569	27.861	0.679	6.556	-0.853	126.062	5.708	8.904	11.000	14.023	162.387	13.092	-8191	255	
32731.316	1	1	0	0	0.055937	0.22972	0.08271	0.11021	0.19202	0.13718	0.27099	0.1586	0.1532	0.025308	0.24054	0.18712	0.37478	0.048051	0.26342	0.18493	-2.2896	-2.4792	-3.2104	-2.65	-2.9896	-3.0312	-2.4729	-3.0917	-2.7979	-2.6958	-3	-2.4708	-2.7729	-3.2042	-2.4854	-3.0312	254.335	280.382	67.144	4.410	255.550	14.408	285.191	16.798	296.971	322.044	298.971	-6.855	274.700	323.736	3.039	85.558	0.00039482	0.0021364	0.00015071	190.55	4.9551e-06	8.3281e-06	301.91	56.317	1.0605e-05	1.8984e-05	103.48	35.128	16.683	7.8846	1.8716e-05	18.435	0.0035539	0.0038724	0.0010753	272.54	4.2295e-05	4.2475e-05	353.76	80.853	4.2078e-05	4.312e-05	140.47	48.33	30.381	12.524	4.2698e-05	23.815	296.191	57.280	253.446	0.811	39.623	153.385	1.288	6.949	197.312	158.738	6.325	8.893	10.921	15.082	165.226	13.478	-8191	255	
32731.412	1	1	0	0	0.25196	0.13388	0.17715	0.18915	0.21095	0.15704	0.29963	0.24418	0.061988	0.1466	0.22029	0.12782	0.17459	0.033984	0.10527	0.31012	-2.4083	-2.4479	-3.1	-2.4646	-2.7	-3.125	-2.425	-3.1042	-2.9208	-2.5708	-3.2208	-2.7521	-2.8	-3.3896	-2.5896	-3.1458	17.095	101.352	25.009	230.815	348.870	97.139	302.307	22.943	303.409	203.839	168.103	3.959	238.340	160.951	96.420	270.565	2.4577e-05	0.0017635	0.0001113	190.67	2.8559e-06	1.6154e-05	300.76	55.891	1.6859e-05	1.4394e-05	103.56	33.983	16.82	7.7573	7.6939e-06	17.979	0.0035638	0.0039245	0.001088	275.3	4.2842e-05	4.3042e-05	355.45	80.905	4.2959e-05	4.3337e-05	141.69	48.346	30.343	12.48	4.3139e-05	23.7	-10.325	317.187	226.235	0.639	90.855	87.637	1.494	7.354	14.707	139.401	5.818	10.185	9.865	14.381	184.010	13.608	-8191	255	
32731.508	1	1	0	0	0.11946	0.10094	0.044749	0.058457	0.070216	0.26116	0.31916	0.08183	0.19542	0.2008	0.1211	0.10848	0.12851	0.096663	0.13045	0.17019	-2.4229	-2.5354	-3.2083	-2.6396	-2.7438	-3.2146	-2.5333	-2.8875	-3.0833	-2.5354	-3.1917	-2.5938	-2.6063	-3.2292	-2.3729	-3	18.928	348.638	112.512	105.645	-4.147	223.246	330.979	314.072	339.962	136.377	268.319	312.528	333.721	153.076	272.666	45.800	0.0002058	0.0026181	0.0003325	187.42	1.6558e-06	1.2869e-05	302.4	55.913	4.0839e-06	1.8857e-05	101.79	34.49	17.378	7.7892	1.4433e-05	18.353	0.0035946	0.0039243	0.0010839	273.46	4.207e-05	4.2406e-05	354.33	80.461	4.1387e-05	4.2741e-05	140.26	47.767	30.029	12.382	4.2333e-05	23.714	84.206	235.384	52.209	1.703	329.627	120.420	0.860	6.858	137.928	199.591	5.053	10.289	11.249	15.528	10.188	13.474	-8191	255	
32731.605	1	1	0	0	0.066155	0.045414	0.12042	0.1748	0.11761	0.095355	0.12342	0.15834	0.11074	0.3489	0.28792	0.07689	0.18403	0.11473	0.21976	0.15869	-2.5083	-2.5021	-3.2104	-2.8417	-2.4729	-3.5229	-2.7146	-2.7396	-3.1354	-2.6479	-2.9104	-3.1063	-2.475	-3.1729	-2.6792	-2.85	247.173	46.126	25.063	51.322	176.451	73.319	341.263	312.288	129.011	163.197	295.109	188.555	230.332	94.317	306.277	19.787	0.00023548	0.0015583	0.00025577	186.44	5.5763e-06	9.6771e-06	301.61	56.527	4.1159e-06	1.9963e-05	104.11	33.58	17.175	7.9412	1.1178e-05	18.246	0.0035463	0.0039063	0.0010924	272.92	4.2296e-05	4.2371e-05	354.72	80.72	4.1838e-05	4.2363e-05	142.7	47.81	30.172	12.446	4.2852e-05	23.755	67.498	275.427	74.535	0.741	219.701	57.827	1.010	6.913	216.370	297.567	5.215	9.479	11.754	16.383	229.483	13.829	-8191	255	
32731.725	1	1	0	0	0.073007	0.1566	0.08946	0.18879	0.2484	0.15873	0.1306	0.30011	0.23171	0.033083	0.2335	0.20536	0.21211	0.18836	0.15548	0.096749	-2.7646	-2.5062	-2.9062	-2.8563	-2.4667	-3.2396	-2.7021	-2.7771	-3.1542	-2.5312	-3.0417	-3.0104	-2.4604	-3.3104	-2.6167	-2.7812	55.136	78.417	170.870	188.355	221.399	98.149	127.162	295.082	339.853	69.345	288.057	340.253	324.153	95.134	62.824	249.319	0.00017531	0.0024982	0.00083304	190.47	1.0975e-05	7.3939e-06	301.73	55.707	6.6105e-06	7.3399e-06	103.15	34.367	16.93	7.9201	3.0463e-05	18.178	0.003575	0.0039071	0.0010997	274.2	4.2389e-05	4.2453e-05	356.81	80.769	4.2234e-05	4.2693e-05	141.24	48.112	30.151	12.476	4.262e-05	23.593	72.168	110.790	65.763	1.488	33.518	132.036	0.644	6.515	141.260	155.916	5.548	9.851	10.473	17.112	212.063	13.500	-8191	255	
32731.820	1	1	0	0	0.20303	0.1164	0.1928	0.30215	0.20819	0.020759	0.18435	0.11712	0.1023	0.046738	0.069517	0.29503	0.1328	0.18401	0.05781	0.13965	-2.8708	-2.4896	-2.8875	-3.1583	-2.5604	-3.1979	-2.6937	-2.8333	-3.1375	-2.6375	-2.875	-3.0104	-2.5479	-3.225	-2.7708	-2.5417	249.251	-4.922	220.962	56.890	340.505	34.713	136.473	-3.434	333.028	324.047	224.373	206.424	-8.239	1.926	167.848	-10.540	0.00020796	0.00045807	0.0003357	190.04	6.6031e-06	1.6028e-05	297.64	57.378	1.0385e-05	4.6265e-06	101.81	34.204	16.732	7.934	9.1748e-06	18.278	0.003523	0.0039066	0.001089	273.16	4.2112e-05	4.2668e-05	353.84	80.575	4.202e-05	4.2626e-05	140.64	47.681	29.959	12.482	4.2082e-05	23.59	221.857	174.542	320.436	1.236	-5.897	183.884	1.448	6.131	205.845	272.150	5.004	9.911	9.965	16.790	112.813	13.001	-8191	255	
32731.893	1	1	0	0	0.10924	0.26549	0.065004	0.096713	0.16761	0.061209	0.17494	0.16123	0.17532	0.1164	0.17934	0.17524	0.2535	0.12304	0.22029	0.20024	-2.8312	-2.5854	-2.9229	-3.1833	-2.5396	-3.1542	-2.85	-2.5854	-3.2	-2.6437	-2.7896	-3.2604	-2.4729	-3.0146	-3.0396	-2.5479	61.633	240.561	76.321	147.100	253.793	36.613	238.835	185.079	-7.859	279.675	265.659	193.143	306.498	218.654	63.549	282.951	0.00051429	0.0011077	0.00034933	186.76	1.2597e-05	1.0728e-05	300.72	56.897	6.0886e-06	3.9522e-06	103.36	34.17	16.655	7.5875	5.445e-06	17.987	0.0035769	0.0038878	0.0010886	271.54	4.1929e-05	4.2789e-05	353.74	80.351	4.223e-05	4.2794e-05	140.7	47.266	30.031	12.338	4.2114e-05	23.412	127.742	226.948	46.026	0.283	246.127	9.169	0.840	6.715	56.566	244.201	4.904	10.169	12.045	14.503	115.598	13.583	-8191	255	
32732.014	1	1	0	0	0.34901	0.030856	0.1669	0.19512	0.23893	0.088272	0.11166	0.24885	0.21952	0.19527	0.18997	0.08943	0.040827	0.086671	0.14827	0.10719	-2.8208	-2.8417	-2.7354	-3.1021	-2.5771	-2.9583	-2.9625	-2.3312	-3.1312	-2.8875	-2.4208	-3.1312	-2.5958	-3.05	-3.1292	-2.5375	78.045	183.980	346.415	310.986	58.762	239.433	181.836	3.615	207.275	346.078	75.096	56.030	340.816	285.937	326.389	80.379	0.00018791	0.0026054	0.00044273	187.14	1.6057e-05	1.3438e-05	301.25	57.796	1.2834e-05	2.1103e-05	102.62	34.651	16.662	7.8456	8.4279e-07	17.788	0.0035807	0.0039249	0.0010773	271.08	4.2033e-05	4.3052e-05	353.84	80.393	4.2513e-05	4.2765e-05	140.2	47.708	29.925	12.445	4.2056e-05	23.452	135.106	145.618	247.630	0.163	157.673	0.248	0.864	7.450	148.410	51.788	6.019	10.346	10.409	14.825	-6.133	12.279	-8191	255	
32732.109	1	1	0	0	0.14765	0.24162	0.14299	0.19594	0.20392	0.17237	0.063615	0.054467	0.098811	0.080468	0.073678	0.10083	0.17001	0.1983	0.14898	0.013775	-2.8771	-2.8875	-2.6	-3.3208	-2.6271	-2.9396	-3.1604	-2.5354	-3.2229	-2.7812	-2.6437	-3.1729	-2.5438	-2.7771	-3.1542	-2.5458	297.812	329.317	296.143	83.422	249.382	92.380	326.906	178.652	341.696	205.269	15.282	247.073	248.789	254.913	117.235	238.351	0.00011353	0.00076807	0.0004326	186	8.3704e-06	3.619e-06	301.14	56.893	7.2621e-06	1.9603e-05	102.51	34.093	16.981	7.7813	7.9225e-06	18.049	0.0036057	0.0039421	0.0010833	270.66	4.1819e-05	4.243e-05	352.99	80.354	4.2077e-05	4.2707e-05	140.54	47.739	29.935	12.381	4.2014e-05	23.514	7.587	78.464	211.486	1.550	156.227	174.770	1.207	6.827	244.199	165.384	5.388	10.521	11.890	15.160	137.076	12.730	-8191	255	
32732.203	1	1	0	0	0.06726	0.060263	0.10172	0.41163	0.36391	0.1575	0.09311	0.094526	0.12955	0.281	0.069484	0.37177	0.090338	0.26612	0.23146	0.029317	-2.7313	-3.0167	-2.6208	-3.1937	-2.3625	-2.9458	-3.2083	-2.5854	-3.1083	-3.0271	-2.4938	-3.3021	-2.5875	-2.65	-3.1042	-2.5771	223.062	216.907	159.905	237.480	77.706	0.052	32.442	38.982	10.243	238.919	32.502	313.956	145.437	272.400	28.426	-7.857	8.5688e-05	0.00082874	0.00073838	189.63	2.2817e-05	7.7154e-06	298.67	56.37	1.7411e-06	8.9273e-06	101.12	33.854	16.588	7.6005	8.9489e-06	17.805	0.003546	0.0039034	0.0010739	272.13	4.2312e-05	4.2624e-05	352.08	80.113	4.2132e-05	4.2796e-05	139.29	47.337	29.894	12.321	4.2259e-05	23.418	223.281	331.681	188.289	0.398	46.418	335.577	1.016	5.706	79.932	153.608	4.713	10.131	9.812	15.027	161.140	12.166	-8191	255	
32732.303	1	1	0	0	0.16455	0.15219	0.28631	0.18276	0.062887	0.44038	0.1276	0.21725	0.1071	0.1709	0.099756	0.16246	0.1523	0.061694	0.12901	0.025046	-2.4813	-2.975	-2.3729	-3.2062	-2.9146	-2.7271	-3.4271	-2.5917	-2.9229	-3.1542	-2.4229	-3.0646	-3.0104	-2.5854	-3.3583	-2.6125	-7.894	213.000	291.941	288.849	157.116	58.103	53.167	93.452	100.012	46.948	291.040	199.941	338.354	96.353	336.035	91.750	0.00023776	0.0016474	0.00038353	187.33	6.4707e-06	1.4217e-05	295.14	55.403	3.9657e-06	1.8901e-05	101.65	33.551	16.714	7.6735	9.598e-06	18.05	0.003587	0.0039074	0.0010828	270.62	4.2195e-05	4.2632e-05	350.28	80.269	4.2338e-05	4.2736e-05	139.42	47.44	30.062	12.35	4.2538e-05	23.404	54.158	95.076	96.529	1.506	328.463	99.691	0.593	5.796	195.694	149.334	5.769	8.750	9.754	15.589	231.054	12.160	-8191	255	
32732.422	1	1	0	0	0.25291	0.25159	0.23392	0.13825	0.19228	0.21379	0.20135	0.083597	0.069473	0.32779	0.077656	0.096852	0.18307	0.22799	0.16365	0.45442	-2.5542	-3.0208	-2.3937	-3.2021	-2.7812	-2.4062	-3.4	-2.5333	-2.8125	-3.1583	-2.5479	-3.2313	-3.0104	-2.5979	-3.1521	-2.6437	300.533	32.206	340.095	27.011	14.913	13.969	273.838	96.109	271.678	16.617	94.178	182.349	338.494	8.845	338.262	258.013	0.00017702	0.00022702	0.00019265	185.28	2.3605e-06	2.3762e-05	297.27	55.847	7.6676e-06	1.1486e-05	101.56	33.4	16.668	7.7662	5.3989e-06	17.976	0.0036096	0.0039039	0.0010855	271.61	4.2733e-05	4.3152e-05	350.6	80.187	4.2453e-05	4.2945e-05	139.82	47.626	29.972	12.378	4.2553e-05	23.532	-6.544	303.756	50.379	0.765	-2.098	177.392	0.308	6.648	261.957	172.918	4.307	9.830	9.049	15.203	6.393	13.274	-8191	255	
32732.518	1	1	0	0	0.16749	0.17398	0.09788	0.18357	0.12297	0.19384	0.075429	0.072863	0.21011	0.028115	0.13357	0.2882	0.062809	0.054197	0.15189	0.23109	-2.3542	-3.1208	-2.3917	-3.1437	-3.0812	-2.6458	-3.5083	-2.5458	-2.6063	-3.2979	-2.4208	-2.9458	-3.0938	-2.3396	-3.3021	-2.7708	98.786	83.671	73.515	26.565	296.606	180.115	280.310	66.433	-0.262	16.489	296.606	236.280	311.445	285.053	279.195	314.367	0.00016217	0.0010168	0.00054321	188.25	8.3235e-06	4.9449e-06	297.95	55.397	1.8634e-05	6.081e-06	102.13	33.218	16.853	7.7611	1.6957e-05	18.056	0.003608	0.0039097	0.0010945	272.28	4.2653e-05	4.2955e-05	352.62	79.929	4.2914e-05	4.2948e-05	140.58	47.429	30.162	12.386	4.3022e-05	23.425	-6.791	76.879	128.374	0.426	320.155	205.407	0.043	6.289	164.765	202.860	5.398	10.696	8.349	14.846	24.179	12.956	-8191	255	
32732.613	1	1	0	0	0.25678	0.2217	0.062881	0.15618	0.17706	0.22949	0.067855	0.077757	0.206	0.089964	0.2675	0.14441	0.046205	0.20609	0.17804	0.17271	-2.2042	-3.2938	-2.6	-3.075	-3.2458	-2.6	-3.3625	-2.7083	-2.5604	-3.4	-2.6458	-2.9	-3.0958	-2.3812	-3.1312	-2.9896	222.998	271.625	263.360	152.067	12.886	3.583	278.287	236.484	240.600	341.302	303.088	45.608	28.824	216.145	240.525	45.563	0.00033342	0.0016077	0.00012276	189.51	1.1139e-05	8.9181e-06	297.95	56.401	1.5379e-05	9.4794e-06	100.93	33.857	16.527	7.7797	1.7188e-05	17.595	0.0036149	0.0039212	0.0011086	274.33	4.3005e-05	4.3261e-05	352.01	80.836	4.2784e-05	4.3323e-05	140.21	47.764	30.111	12.446	4.3128e-05	23.55	85.760	101.386	22.287	-0.126	137.031	298.319	0.927	5.376	323.182	192.220	5.013	9.195	11.756	14.872	207.119	12.743	-8191	255	
32732.709	1	1	0	0	0.28018	0.03207	0.08357	0.26776	0.025887	0.079269	0.32211	0.17549	0.18754	0.10695	0.20385	0.20732	0.066992	0.14717	0.11901	0.075688	-2.1479	-3.2979	-2.6937	-2.8042	-3.3625	-2.5458	-3.225	-3.025	-2.5604	-3.2042	-2.5271	-2.7062	-3.1417	-2.3479	-3.0667	-3.0333	54.567	236.063	123.029	252.277	304.607	41.795	266.222	70.245	309.432	282.816	106.342	74.940	269.829	344.806	319.862	170.116	0.00010388	0.0012846	0.00060725	184.66	1.1184e-05	5.2014e-06	293.3	57.089	1.72e-05	1.8715e-05	102.19	34.337	16.639	7.8327	1.0235e-05	17.886	0.003609	0.0039792	0.0010939	272.06	4.2608e-05	4.3597e-05	352.66	80.82	4.2596e-05	4.3143e-05	140.9	47.712	30.247	12.437	4.2901e-05	23.471	106.004	53.383	42.497	1.608	175.234	187.190	0.807	6.814	84.711	-7.299	5.389	9.892	10.405	14.676	61.290	13.995	-8191	255	
32732.807	1	1	0	0	0.19287	0.12322	0.25805	0.079998	0.09876	0.10295	0.23402	0.43786	0.17363	0.17038	0.085854	0.074707	0.15334	0.12853	0.14526	0.069774	-2.1083	-3.3021	-2.6875	-2.6063	-3.1458	-2.525	-3.0563	-3.0896	-2.3521	-3.0729	-2.8563	-2.7708	-3.2396	-2.3917	-2.8833	-3.0229	260.521	294.074	230.758	203.322	137.588	136.543	90.479	20.219	28.136	46.623	246.418	296.553	-9.348	-4.719	215.749	343.968	0.0003851	0.0016593	0.00020479	191.09	9.8416e-06	7.5179e-06	298.5	56.282	4.2925e-06	1.4699e-05	102.66	34.343	17.147	7.8342	5.8269e-06	17.937	0.0035978	0.0039428	0.0010974	273.79	4.2657e-05	4.3333e-05	354.77	80.598	4.2641e-05	4.3227e-05	140.96	47.701	30.046	12.473	4.3133e-05	23.582	51.626	346.942	159.544	0.568	261.762	84.492	0.858	7.233	106.478	83.052	4.797	9.124	11.105	15.045	166.544	11.265	-8191	255	
32732.902	1	1	0	0	0.22721	0.18527	0.024083	0.19687	0.21703	0.30569	0.1834	0.34187	0.28388	0.06073	0.3194	0.20942	0.12757	0.15878	0.15114	0.17582	-1.8583	-2.9542	-2.6063	-2.5604	-3.3063	-2.6542	-2.9583	-3.0979	-2.5667	-3.05	-2.9562	-2.5146	-3.2604	-2.6604	-2.8042	-3.1646	259.608	270.588	293.736	285.714	313.011	125.100	2.032	106.063	80.586	110.729	126.002	12.561	131.341	90.373	83.814	-0.326	0.00034293	0.0020169	0.00051653	191.57	4.7375e-06	8.1436e-06	299.96	55.418	4.4637e-06	1.6451e-05	102.49	34.573	16.559	7.8988	2.4102e-05	17.807	0.0036401	0.0039787	0.0011047	275.21	4.2877e-05	4.3547e-05	356.48	80.811	4.3096e-05	4.3774e-05	141.16	47.931	30.186	12.477	4.2915e-05	23.527	201.498	280.125	268.883	0.390	261.229	117.395	0.637	5.996	211.668	176.453	4.465	9.633	10.857	15.268	332.218	13.371	-8191	255	
32733.021	1	1	0	0	0.25617	0.071359	0.12659	0.22649	0.13284	0.11115	0.12418	0.069931	0.25852	0.094087	0.12375	0.15394	0.18727	0.091844	0.15684	0.20782	-2.0104	-3.2333	-2.8438	-2.4833	-3.1292	-2.725	-2.8583	-3.2417	-2.4583	-3.0687	-3.0542	-2.4729	-3.1354	-2.7562	-2.7396	-3.2958	174.804	-8.273	110.372	293.040	257.410	161.647	271.620	45.389	30.465	99.800	152.913	239.896	151.083	8.477	151.274	197.561	0.00011291	0.0017485	0.00031825	189.05	1.0666e-05	4.3602e-06	298.09	56.654	3.2648e-06	1.1172e-05	101.2	33.822	16.911	7.7768	1.8847e-05	18.114	0.0036236	0.0040281	0.001105	273.72	4.2985e-05	4.417e-05	355.31	81.001	4.2469e-05	4.3738e-05	140.21	47.571	29.989	12.463	4.3286e-05	23.522	195.400	163.160	212.047	0.594	147.254	256.981	0.750	6.138	124.911	-4.898	4.373	9.184	10.245	16.587	-6.992	12.533	-8191	255	
32733.117	1	1	0	0	0.020281	0.15156	0.2244	0.41147	0.15427	0.14314	0.27116	0.35187	0.11379	0.12721	0.12352	0.080933	0.20793	0.026367	0.016462	0.13858	-2.0521	-3.0104	-3.0438	-2.4188	-3.3187	-2.75	-2.7729	-3.1021	-2.5438	-3.1333	-3.1667	-2.3146	-3.125	-2.8167	-2.4667	-3.2875	5.591	316.842	116.978	313.439	37.530	104.759	280.606	58.621	343.446	165.359	4.516	36.924	330.798	344.891	62.639	280.549	0.00046774	0.0017014	0.00029643	193.98	3.8241e-06	1.8136e-05	299.71	56.14	1.3886e-05	1.6541e-05	103.05	33.817	16.821	7.8092	2.5946e-05	18.319	0.0035973	0.003943	0.0010976	272.64	4.2809e-05	4.3669e-05	355.09	80.468	4.2713e-05	4.296e-05	140.69	47.538	30.117	12.454	4.2765e-05	23.626	79.632	331.911	291.014	0.347	73.041	329.759	-0.014	7.880	339.812	39.128	4.776	9.206	11.653	14.326	135.009	11.811	-8191	255	
32733.189	1	1	0	0	0.1398	0.16304	0.25302	0.13678	0.21626	0.15023	0.098612	0.043786	0.30862	0.1813	0.24772	0.2181	0.23966	0.073653	0.29228	0.085087	-2.1583	-2.8604	-3.0312	-2.5146	-3.1229	-3.0146	-2.6229	-3.3271	-2.725	-2.7396	-2.9792	-2.7292	-3.2562	-3.0104	-2.4875	-3.2958	121.620	178.455	262.345	285.696	156.069	104.701	124.570	14.855	48.301	305.247	205.990	211.839	121.302	332.613	338.259	-3.306	0.00045296	0.0024672	0.00045303	188.82	2.5945e-06	1.587e-05	297.43	57.308	5.7476e-06	1.561e-05	104	34.276	16.662	7.86	2.1548e-05	18.152	0.0035997	0.0039314	0.0010968	273.13	4.2576e-05	4.306e-05	354.72	81.05	4.2455e-05	4.356e-05	140.96	47.788	30.377	12.527	4.2827e-05	23.681	133.510	113.521	131.544	0.518	166.732	176.458	0.453	7.443	168.754	151.952	5.093	9.500	11.294	14.273	189.796	12.963	-8191	255	
32733.285	1	1	0	0	0.13042	0.20697	0.25211	0.19598	0.2193	0.14199	0.12134	0.18506	0.074047	0.15772	0.10047	0.31142	0.18251	0.22376	0.19599	0.19212	-2.2229	-2.6333	-3	-2.5042	-3.0479	-2.9729	-2.6063	-3.4271	-2.6896	-2.5687	-3.3271	-2.4813	-2.8312	-3.0271	-2.4062	-3.1208	44.920	324.244	148.729	328.032	248.671	43.092	19.977	274.017	131.123	68.820	94.862	52.641	206.848	218.113	95.861	293.255	4.1117e-05	0.0012631	0.00050456	187.11	1.0771e-05	2.9316e-05	302	57.906	7.4426e-06	3.7546e-06	103.67	34.151	17.043	7.5686	9.8532e-06	18.075	0.0036184	0.0039523	0.001095	274.73	4.2794e-05	4.3046e-05	354.06	80.993	4.2683e-05	4.3125e-05	140.91	47.972	30.29	12.438	4.2523e-05	23.684	321.596	281.707	179.362	0.783	35.219	49.233	1.205	6.200	186.862	109.451	4.771	10.065	10.845	15.503	190.758	13.157	-8191	255	
32733.404	1	1	0	0	0.14624	0.15894	0.17519	0.030211	0.14001	0.12675	0.12959	0.19463	0.18006	0.040628	0.097243	0.083122	0.25522	0.080323	0.091065	0.08951	-2.3417	-2.7521	-3.2333	-2.4917	-2.9125	-3.3333	-2.4417	-3.1167	-2.75	-2.7208	-3.3417	-2.4375	-2.9979	-3.1396	-2.2521	-3.1708	75.098	27.238	49.468	118.726	270.082	312.029	112.868	47.252	17.710	0.792	298.852	84.944	99.927	236.354	125.209	225.320	9.8607e-05	0.0013562	0.00016586	188.21	1.588e-05	1.7264e-05	297.03	56.385	5.9735e-06	3.003e-05	104.74	34.341	16.984	7.8548	1.2389e-05	17.884	0.003644	0.0039408	0.0010971	274.42	4.2783e-05	4.3111e-05	355.52	81.434	4.2963e-05	4.3278e-05	141.62	47.899	30.411	12.438	4.3018e-05	23.639	141.682	8.400	340.759	0.060	124.307	35.108	0.345	6.184	161.937	193.737	5.428	9.176	11.714	15.731	41.359	12.444	-8191	255	
32733.502	1	1	0	0	0.23638	0.40098	0.23811	0.18018	0.14268	0.10764	0.039882	0.32355	0.052744	0.065463	0.16472	0.015254	0.13163	0.23293	0.23591	0.12502	-2.3563	-2.4354	-3.3812	-2.6917	-2.8125	-3.2021	-2.5646	-3.0458	-2.9146	-2.4375	-3.2542	-2.5667	-2.8292	-3.1083	-2.4083	-3.1646	195.022	345.121	237.594	217.637	17.072	47.216	311.545	4.461	214.847	-5.414	197.638	201.587	236.700	110.983	88.807	326.305	0.00027085	0.00077308	0.00022507	184.69	2.1954e-05	1.7491e-05	299.14	55.511	2.985e-06	1.7811e-05	104.09	34.501	16.881	7.9993	4.7854e-06	18.465	0.0035838	0.0038987	0.0010875	273.39	4.2375e-05	4.2997e-05	355.83	80.954	4.205e-05	4.2559e-05	141.66	48	30.084	12.426	4.2359e-05	23.701	171.062	247.444	79.725	0.801	315.310	76.655	1.132	7.387	175.703	317.528	4.706	9.523	9.518	15.522	70.576	12.255	-8191	255	
32733.598	1	1	0	0	0.27068	0.27702	0.12588	0.10924	0.29898	0.11155	0.24296	0.073921	0.12808	0.060886	0.22922	0.19144	0.10905	0.18791	0.13392	0.029303	-2.6104	-2.1604	-3.1562	-2.6312	-2.5833	-3.3812	-2.6917	-3.0208	-3.1167	-2.4125	-3.2917	-2.7833	-2.7	-3.1396	-2.5583	-3.0208	54.690	331.931	248.895	27.395	199.638	37.006	220.994	330.724	50.229	75.801	69.038	322.558	9.012	170.101	64.869	288.772	0.00031269	0.0015574	0.00015451	191.97	3.3152e-06	1.5879e-05	301.9	57.51	4.5797e-06	1.3717e-05	102.85	33.696	16.733	7.8774	1.4076e-05	18.515	0.0035966	0.0038994	0.0010735	275.04	4.2244e-05	4.2135e-05	356.09	81.988	4.208e-05	4.275e-05	141.23	47.993	30.069	12.493	4.2534e-05	23.957	68.157	40.929	126.875	0.234	302.050	204.707	0.765	6.543	291.331	177.097	4.193	10.033	11.198	15.219	317.866	12.931	-8191	255	
32733.693	1	1	0	0	0.22785	0.072789	0.093636	0.22764	0.20102	0.091473	0.14797	0.017523	0.21547	0.10797	0.14514	0.17704	0.095252	0.22564	0.1175	0.083206	-2.6667	-2.5354	-3.1708	-2.8063	-2.4958	-3.2771	-2.4875	-2.8729	-3.2	-2.5062	-2.9958	-2.7625	-2.4917	-3.1125	-2.7458	-2.6354	157.181	-2.547	173.751	10.680	299.066	40.476	311.309	233.158	298.283	16.017	341.768	123.191	262.229	-9.885	93.411	266.468	0.00025055	0.0023983	0.00026355	192.64	1.1882e-05	2.2823e-05	306.64	58.367	2.5636e-06	1.5323e-05	101.88	33.577	17.327	7.8357	4.9058e-06	18.26	0.0035862	0.003902	0.0010925	275.27	4.2493e-05	4.2837e-05	357.53	81.66	4.2355e-05	4.2849e-05	141.42	47.693	30.463	12.518	4.2487e-05	23.782	96.994	311.588	137.265	0.790	9.888	176.264	0.341	6.994	86.220	36.153	6.052	8.740	10.746	15.893	103.324	12.698	-8191	255	
32733.814	1	1	0	0	0.092818	0.13957	0.10276	0.073811	0.068071	0.035131	0.18156	0.13762	0.17535	0.21608	0.19888	0.14838	0.093905	0.05029	0.42103	0.067237	-2.7	-2.4521	-3.0729	-2.9479	-2.4167	-3.1646	-2.7354	-2.6625	-3.3604	-2.3833	-3.0354	-3.0146	-2.6167	-2.9375	-2.7083	-2.6646	339.230	41.005	106.852	107.685	58.826	80.145	153.571	38.230	148.327	110.182	338.473	196.635	331.829	128.201	277.403	186.283	0.00016735	0.00058319	3.5264e-05	191.7	8.9645e-06	7.5753e-06	303.09	56.83	7.3332e-06	9.0101e-06	103.48	34.301	17.092	8.0535	2.8777e-06	18.349	0.0035737	0.0039059	0.0010935	274.5	4.2475e-05	4.3025e-05	356.87	81.385	4.1638e-05	4.2422e-05	140.6	47.729	30.171	12.525	4.2572e-05	23.786	61.289	341.185	346.699	0.561	192.002	117.850	0.516	7.290	296.192	171.640	5.048	9.345	12.187	14.936	117.706	12.527	-8191	255	
32733.887	1	1	0	0	0.18868	0.16155	0.17313	0.16675	0.020069	0.18885	0.20228	0.1894	0.14392	0.23342	0.13753	0.19289	0.29401	0.14302	0.15637	0.096039	-2.6354	-2.4646	-2.9229	-3.1042	-2.5354	-3.225	-2.8896	-2.4458	-3.3063	-2.5062	-3.0417	-3.0375	-2.4271	-3.1875	-2.7417	-2.6208	110.774	59.202	47.741	26.512	244.678	311.912	44.780	56.565	78.947	204.404	43.757	60.807	221.294	272.911	207.496	20.311	0.00021939	0.0013031	0.00023719	192.26	7.1106e-06	1.493e-05	303.05	56.889	1.7201e-05	1.2037e-05	104.39	34.809	16.663	7.8372	1.4792e-05	18.239	0.0035412	0.0038646	0.0010857	274.18	4.1864e-05	4.2418e-05	357.48	81.029	4.2072e-05	4.2705e-05	141.69	47.789	30.119	12.565	4.2212e-05	23.674	138.207	229.981	112.879	0.463	231.609	154.458	0.171	7.005	214.844	119.058	4.387	9.516	10.370	14.365	195.314	12.472	-8191	255	
32733.982	1	1	0	0	0.28122	0.21074	0.053722	0.17634	0.054911	0.25211	0.01343	0.19818	0.14167	0.11828	0.042421	0.28214	0.22284	0.19431	0.19053	0.25236	-2.8708	-2.6	-2.7833	-3.1875	-2.5167	-3.1063	-3.1167	-2.5062	-3.2271	-2.75	-2.8521	-3.3229	-2.5667	-3.0542	-2.8479	-2.6146	171.505	188.554	290.792	-4.944	195.990	317.361	310.756	295.377	11.807	68.006	107.738	289.363	196.674	242.525	298.449	163.370	0.00013512	0.00036293	0.00067274	190.78	1.2771e-05	4.763e-06	301.57	57.303	6.1781e-06	2.5325e-05	104.56	35.058	17.32	8.0297	1.3451e-05	18.124	0.0035102	0.0038681	0.0010737	271.87	4.156e-05	4.2084e-05	354.6	80.455	4.1575e-05	4.2146e-05	141.89	47.813	30.064	12.475	4.1678e-05	23.652	252.872	10.060	169.768	0.215	18.051	16.745	0.410	5.686	189.968	71.817	3.895	8.773	10.403	15.220	206.497	13.039	-8191	255	
32734.104	1	1	0	0	0.1629	0.022284	0.079108	0.12298	0.07172	0.15859	0.17447	0.21296	0.1516	0.11884	0.19634	0.23614	0.24449	0.081587	0.24661	0.15326	-2.8479	-2.5729	-2.7833	-3.0854	-2.4667	-3.1125	-3.0479	-2.4208	-3.1729	-2.8104	-2.5083	-3.3292	-2.4437	-3.0042	-3.1063	-2.4042	271.211	106.399	149.667	206.105	343.656	277.957	337.181	292.241	310.249	93.042	194.096	112.983	225.355	344.591	225.927	121.629	0.000236	0.00084646	1.7059e-05	187.09	9.4849e-06	3.336e-05	302.99	58.221	6.891e-06	1.8941e-05	102.98	34.259	16.958	7.8978	9.2843e-06	18.123	0.0034923	0.0038305	0.0010543	270.33	4.1219e-05	4.1915e-05	354.23	80.46	4.1216e-05	4.1857e-05	140	47.56	29.84	12.464	4.1763e-05	23.45	318.017	115.161	4.150	0.173	170.324	155.614	-0.483	6.792	30.426	51.955	5.747	8.987	11.097	15.153	158.776	13.780	-8191	255	
32734.197	1	1	0	0	0.032557	0.060657	0.36733	0.35682	0.091434	0.14911	0.22212	0.093969	0.15021	0.11516	0.25054	0.07601	0.24586	0.14089	0.2257	0.10735	-2.7771	-2.8667	-2.4917	-3.2792	-2.6813	-2.9229	-2.9896	-2.4062	-3.1083	-2.8563	-2.6063	-3.1875	-2.5354	-2.7396	-3.3167	-2.6	103.231	81.123	37.256	325.345	60.284	18.313	28.277	177.791	227.321	133.480	242.316	330.931	28.276	210.781	76.128	104.553	8.9248e-05	0.0015424	0.00043671	189.71	6.9958e-06	7.37e-06	302.31	58.1	7.5805e-06	1.6634e-06	102.89	34.602	16.813	7.769	1.2186e-05	18.086	0.003504	0.0038227	0.0010522	270.72	4.1234e-05	4.1741e-05	353.63	80.337	4.1135e-05	4.1992e-05	139.88	47.41	29.849	12.274	4.1243e-05	23.579	-4.108	86.547	206.109	0.308	42.519	104.307	0.463	6.369	58.365	55.633	4.992	9.721	10.940	15.027	196.876	12.567	-8191	255	
32734.293	1	1	0	0	0.057182	0.058491	0.14364	0.079602	0.10914	0.19482	0.20588	0.28325	0.11383	0.13285	0.16921	0.41094	0.16296	0.037288	0.1554	0.13418	-2.6354	-2.9583	-2.4854	-3.1312	-2.7333	-2.7667	-2.9896	-2.2458	-3.1542	-2.8937	-2.4604	-3.1667	-2.575	-2.6917	-3.2854	-2.3563	9.073	204.243	239.636	315.071	97.598	225.451	132.701	207.827	14.011	206.109	297.665	129.622	301.646	201.138	309.760	0.072	0.00032717	0.00077798	0.00017588	190.79	1.631e-05	1.3822e-05	299.73	57.783	1.3516e-05	1.7577e-05	103.55	34.736	16.996	7.8455	1.2498e-05	18.38	0.0035075	0.0038393	0.0010604	271.9	4.0919e-05	4.1981e-05	352.93	80.589	4.1343e-05	4.1431e-05	140.08	47.596	30.013	12.413	4.1194e-05	23.512	-11.431	62.665	-0.258	0.483	328.246	19.298	-0.392	5.717	24.886	207.147	5.358	9.105	10.568	14.594	311.509	12.486	-8191	255	
32734.414	1	1	0	0	0.14296	0.10695	0.27346	0.1065	0.10485	0.016691	0.17749	0.15809	0.082382	0.10567	0.16553	0.11199	0.18591	0.087072	0.13187	0.054534	-2.4667	-2.825	-2.5146	-3.0354	-2.75	-2.6521	-3.175	-2.4479	-3.1021	-3.1813	-2.2479	-3.2396	-2.8125	-2.4625	-3.2833	-2.5708	146.270	203.364	199.165	291.923	155.243	91.241	25.192	45.002	330.749	249.504	293.348	194.407	130.212	71.794	274.449	257.817	0.00021659	0.0014676	0.00043249	190.75	5.7141e-06	1.6536e-05	301.8	56.493	5.3709e-06	2.286e-05	103.76	34.492	16.918	7.9693	1.7377e-05	18.257	0.0035012	0.0038222	0.001059	272.92	4.1361e-05	4.1683e-05	353.69	80.697	4.1491e-05	4.1642e-05	140.09	47.945	29.973	12.404	4.1425e-05	23.527	330.697	-4.521	1.956	0.458	333.222	260.197	0.541	5.959	122.545	39.073	4.804	10.093	9.648	15.707	165.771	12.889	-8191	255	
32734.486	1	1	0	0	0.18466	0.20472	0.17367	0.24469	0.3502	0.14258	0.14342	0.18138	0.22938	0.086439	0.19068	0.22833	0.16613	0.018164	0.10397	0.14425	-2.5208	-3.0312	-2.4375	-3.0958	-2.8937	-2.5417	-3.2583	-2.5812	-2.5646	-3.1833	-2.4771	-3.1542	-3.0687	-2.5792	-3.0792	-2.7521	227.397	98.549	305.430	258.219	113.208	240.152	255.068	313.739	-10.777	301.531	90.641	229.954	23.452	48.507	198.716	213.289	0.00019218	0.0015113	9.9613e-05	190.43	1.3141e-05	1.7619e-05	301.34	57.766	5.7107e-06	2.4243e-05	104.71	34.401	16.826	7.7549	1.4087e-05	18.029	0.0035009	0.003811	0.0010518	270.32	4.111e-05	4.1586e-05	352.84	80.526	4.1045e-05	4.1538e-05	139.64	47.658	29.793	12.284	4.1316e-05	23.422	102.898	197.113	279.055	0.099	225.312	266.120	0.504	6.907	217.011	286.345	4.292	8.947	11.284	15.571	136.055	12.969	-8191	255	
32734.582	1	1	0	0	0.061776	0.13679	0.098712	0.04199	0.2617	0.24398	0.20311	0.035405	0.19762	0.1598	0.22593	0.25938	0.11363	0.10058	0.11012	0.13542	-2.2313	-3.2333	-2.4083	-3.0229	-3.0125	-2.5062	-3.3688	-2.6667	-2.7646	-3.2958	-2.6021	-2.8896	-3.1458	-2.5583	-3.0708	-2.6125	179.958	36.791	303.431	158.278	346.996	333.179	62.553	279.816	246.455	-7.872	324.870	316.844	72.076	340.675	269.133	258.390	0.00022574	4.0296e-05	0.00052515	189.35	7.5193e-06	1.2564e-05	303.29	57.173	5.1317e-06	1.8075e-05	103.79	34.502	17.169	7.8454	7.7845e-06	18.289	0.0034875	0.0037527	0.0010445	269.98	4.0882e-05	4.1013e-05	351.76	80.601	4.0394e-05	4.1052e-05	139.58	47.337	29.676	12.262	4.0817e-05	23.463	33.844	26.999	48.872	0.251	169.200	264.028	0.935	6.563	183.764	120.506	5.059	9.900	11.478	15.660	296.133	12.517	-8191	255	
32734.701	1	1	0	0	0.034621	0.18223	0.043113	0.14929	0.29287	0.28981	0.25625	0.21795	0.047915	0.10729	0.042397	0.36892	0.16999	0.056764	0.073407	0.14969	-2.1354	-3.3333	-2.3417	-2.8104	-3.2104	-2.375	-3.2125	-2.6562	-2.5958	-3.3417	-2.6063	-2.9958	-3.0292	-2.5021	-3.1021	-3.1063	84.964	201.907	35.424	127.359	335.888	9.063	289.168	41.215	86.357	275.599	285.856	199.801	120.914	205.763	123.215	245.304	0.00032355	0.0015012	0.00063139	190.07	1.1554e-05	4.0686e-06	302.77	56.729	3.0322e-06	4.0231e-06	105.67	35.098	17.142	7.9179	1.3798e-05	18.55	0.0034392	0.00376	0.0010515	271.28	4.0693e-05	4.1136e-05	352.96	79.984	4.0247e-05	4.123e-05	139.99	47.539	29.668	12.302	4.0828e-05	23.53	56.431	322.690	51.631	0.039	195.001	-9.042	0.481	7.182	247.110	140.009	4.910	8.966	11.001	15.933	24.371	13.425	-8191	255	
32734.799	1	1	0	0	0.23607	0.32225	0.12356	0.12366	0.086963	0.025292	0.26068	0.042189	0.23147	0.06032	0.13708	0.28802	0.16353	0.095914	0.16601	0.10278	-2.1437	-3.0938	-2.4583	-2.8542	-3.3187	-2.3292	-3.2646	-2.8333	-2.5021	-3.1896	-2.8083	-2.8167	-3.1125	-2.5896	-3.0687	-2.9313	16.260	-5.394	16.077	305.596	243.702	126.500	214.319	202.073	171.652	269.926	154.539	306.987	335.526	311.403	279.192	174.090	7.9092e-05	0.0014944	0.00053522	193.84	1.7494e-05	2.1545e-05	299.98	57.013	1.0081e-05	9.4358e-06	103.36	34.242	16.763	7.8538	1.3955e-05	18.317	0.0034177	0.0037709	0.001051	272.45	4.0502e-05	4.0928e-05	353.89	80.259	3.9902e-05	4.0963e-05	140.13	47.557	29.675	12.308	4.0744e-05	23.435	3.437	33.131	166.986	0.417	344.661	109.275	1.388	7.496	129.072	330.995	4.253	8.964	10.389	14.306	114.577	12.476	-8191	255	
32734.895	1	1	0	0	0.076727	0.091472	0.24558	0.17594	0.20245	0.28677	0.20513	0.28563	0.30006	0.22553	0.18298	0.048611	0.013343	0.25313	0.22575	0.17535	-1.9917	-3.2875	-2.6146	-2.575	-3.1146	-2.6646	-3.0125	-3.0604	-2.3917	-3.2396	-2.9292	-2.6333	-3.3292	-2.5625	-2.9125	-3.2708	106.740	265.189	345.393	248.974	112.728	120.927	-2.310	337.646	47.695	128.948	16.717	115.134	176.988	259.502	33.249	236.577	0.00031089	0.00030215	0.00013291	192.22	1.5212e-05	1.3332e-05	305.55	56.912	5.3542e-06	5.0793e-06	104.4	34.763	17.189	7.9868	8.736e-06	18.457	0.0034152	0.0037521	0.0010472	269.41	4.0136e-05	4.0565e-05	354.05	79.874	3.9941e-05	4.0595e-05	139.24	47.186	29.416	12.237	4.0303e-05	23.372	105.873	75.202	149.074	-0.023	104.949	185.885	0.197	6.112	7.450	315.936	5.256	8.958	11.261	14.699	282.624	12.880	-8191	255	
#DATA ENDS
