BOXY.EXE: ISS Imagent and Oximeter Data Acquisition Program Version 0.80
Ascii Record File

#ACQ INFORMATION
2  Detector Channels 
16  External MUX Channels 
1  Auxiliary Channels 
5000  Waveform (CCF) Frequency (Hz)
1  Waveforms Skipped 
30  Waveforms Averaged 
1  Cycles Averaged 
16  Acquisitions per Waveform 
10.0806  Updata Rate (Hz) 

#FILE INFORMATION
TRUE -- External MUX Channel results are PARSED.
FALSE -- AC DC and Phase are NOT grouped.
TRUE -- Companion Program Settings File CREATED.
FALSE -- AC data not excluded
FALSE -- DC data not excluded
FALSE -- Phase data not excluded
FALSE -- Auxillary Chn. data not excluded
Tab delimiters

#CALIBRATION STATE
TRUE -- Waveform Calibration Values APPLIED.


#AUX CALIBRATION VALUES
Val Type	aux-1	

Term	1.0000e+00	
Factor	0.0000e+00	


#WF CALIBRATION VALUES
A = Detector Channel
Val Type	A-AC1	A-AC2	A-AC3	A-AC4	A-AC5	A-AC6	A-AC7	A-AC8	A-AC9	A-AC10	A-AC11	A-AC12	A-AC13	A-AC14	A-AC15	A-AC16	A-DC1	A-DC2	A-DC3	A-DC4	A-DC5	A-DC6	A-DC7	A-DC8	A-DC9	A-DC10	A-DC11	A-DC12	A-DC13	A-DC14	A-DC15	A-DC16	A-Ph1	A-Ph2	A-Ph3	A-Ph4	A-Ph5	A-Ph6	A-Ph7	A-Ph8	A-Ph9	A-Ph10	A-Ph11	A-Ph12	A-Ph13	A-Ph14	A-Ph15	A-Ph16	

Term	0.00000e+00	0.00000e+00	0.00000e+00	0.00000e+00	0.00000e+00	0.00000e+00	0.00000e+00	0.00000e+00	0.00000e+00	0.00000e+00	0.00000e+00	0.00000e+00	0.00000e+00	0.00000e+00	0.00000e+00	0.00000e+00	0.00000e+00	0.00000e+00	0.00000e+00	0.00000e+00	0.00000e+00	0.00000e+00	0.00000e+00	0.00000e+00	0.00000e+00	0.00000e+00	0.00000e+00	0.00000e+00	0.00000e+00	0.00000e+00	0.00000e+00	0.00000e+00	0.00000e+00	0.00000e+00	0.00000e+00	0.00000e+00	0.00000e+00	0.00000e+00	0.00000e+00	0.00000e+00	0.00000e+00	0.00000e+00	0.00000e+00	0.00000e+00	0.00000e+00	0.00000e+00	0.00000e+00	0.00000e+00	
Factor	1.00000e+00	1.00000e+00	1.00000e+00	1.00000e+00	1.00000e+00	1.00000e+00	1.00000e+00	1.00000e+00	1.00000e+00	1.00000e+00	1.00000e+00	1.00000e+00	1.00000e+00	1.00000e+00	1.00000e+00	1.00000e+00	1.00000e+00	1.00000e+00	1.00000e+00	1.00000e+00	1.00000e+00	1.00000e+00	1.00000e+00	1.00000e+00	1.00000e+00	1.00000e+00	1.00000e+00	1.00000e+00	1.00000e+00	1.00000e+00	1.00000e+00	1.00000e+00	X	X	X	X	X	X	X	X	X	X	X	X	X	X	X	X	

B = Detector Channel
Val Type	B-AC1	B-AC2	B-AC3	B-AC4	B-AC5	B-AC6	B-AC7	B-AC8	B-AC9	B-AC10	B-AC11	B-AC12	B-AC13	B-AC14	B-AC15	B-AC16	B-DC1	B-DC2	B-DC3	B-DC4	B-DC5	B-DC6	B-DC7	B-DC8	B-DC9	B-DC10	B-DC11	B-DC12	B-DC13	B-DC14	B-DC15	B-DC16	B-Ph1	B-Ph2	B-Ph3	B-Ph4	B-Ph5	B-Ph6	B-Ph7	B-Ph8	B-Ph9	B-Ph10	B-Ph11	B-Ph12	B-Ph13	B-Ph14	B-Ph15	B-Ph16	

Term	0.00000e+00	0.00000e+00	0.00000e+00	0.00000e+00	0.00000e+00	0.00000e+00	0.00000e+00	0.00000e+00	0.00000e+00	0.00000e+00	0.00000e+00	0.00000e+00	0.00000e+00	0.00000e+00	0.00000e+00	0.00000e+00	0.00000e+00	0.00000e+00	0.00000e+00	0.00000e+00	0.00000e+00	0.00000e+00	0.00000e+00	0.00000e+00	0.00000e+00	0.00000e+00	0.00000e+00	0.00000e+00	0.00000e+00	0.00000e+00	0.00000e+00	0.00000e+00	-1.65560e+02	-1.26939e+02	-1.30200e+02	-1.83531e+02	-7.95580e+01	-6.23298e+01	-1.55913e+02	-1.62015e+02	-8.00935e+01	-6.99222e+01	-1.69783e+02	-1.70754e+02	-1.79463e+02	-1.76415e+02	-7.83609e+01	-1.49214e+02	
Factor	2.59736e-05	1.59396e-04	3.76247e-05	1.70707e-01	1.04767e-06	1.40068e-06	1.50441e-01	4.85057e-02	9.61463e-07	1.40745e-06	8.22453e-02	2.84523e-02	2.38378e-02	8.71675e-03	1.43886e-06	1.23208e-02	3.02569e-06	3.31224e-06	9.20197e-07	9.14355e-02	3.58392e-08	3.62363e-08	7.61070e-02	2.61631e-02	3.57514e-08	3.62322e-08	4.28669e-02	1.48528e-02	1.29378e-02	4.71403e-03	3.60000e-08	6.45373e-03	X	X	X	X	X	X	X	X	X	X	X	X	X	X	X	X	



#DISTANCE SETTINGS
A = Detector Channel
A-1	A-2	A-3	A-4	A-5	A-6	A-7	A-8	A-9	A-10	A-11	A-12	A-13	A-14	A-15	A-16	

2.5000e+00	3.0000e+00	2.5000e+00	3.0000e+00	2.0000e+00	3.0000e+00	1.5000e+00	3.0000e+00	3.0000e+00	3.0000e+00	3.0000e+00	3.0000e+00	3.0000e+00	3.0000e+00	1.5000e+00	3.0000e+00	

B = Detector Channel
B-1	B-2	B-3	B-4	B-5	B-6	B-7	B-8	B-9	B-10	B-11	B-12	B-13	B-14	B-15	B-16	

1.0000e+01	1.0000e+01	1.0000e+01	1.4400e+00	1.0000e+01	1.0000e+01	1.5100e+00	1.9400e+00	1.0000e+01	1.0000e+01	1.9900e+00	2.4900e+00	2.4100e+00	2.9000e+00	1.0000e+01	2.9800e+00	




#DATA BEGINS
time	group	step	mark	flag	A-AC1	A-AC2	A-AC3	A-AC4	A-AC5	A-AC6	A-AC7	A-AC8	A-AC9	A-AC10	A-AC11	A-AC12	A-AC13	A-AC14	A-AC15	A-AC16	A-DC1	A-DC2	A-DC3	A-DC4	A-DC5	A-DC6	A-DC7	A-DC8	A-DC9	A-DC10	A-DC11	A-DC12	A-DC13	A-DC14	A-DC15	A-DC16	A-Ph1	A-Ph2	A-Ph3	A-Ph4	A-Ph5	A-Ph6	A-Ph7	A-Ph8	A-Ph9	A-Ph10	A-Ph11	A-Ph12	A-Ph13	A-Ph14	A-Ph15	A-Ph16	B-AC1	B-AC2	B-AC3	B-AC4	B-AC5	B-AC6	B-AC7	B-AC8	B-AC9	B-AC10	B-AC11	B-AC12	B-AC13	B-AC14	B-AC15	B-AC16	B-DC1	B-DC2	B-DC3	B-DC4	B-DC5	B-DC6	B-DC7	B-DC8	B-DC9	B-DC10	B-DC11	B-DC12	B-DC13	B-DC14	B-DC15	B-DC16	B-Ph1	B-Ph2	B-Ph3	B-Ph4	B-Ph5	B-Ph6	B-Ph7	B-Ph8	B-Ph9	B-Ph10	B-Ph11	B-Ph12	B-Ph13	B-Ph14	B-Ph15	B-Ph16	aux-1	digaux	

32027.051	1	1	0	768	0.16893	0.17031	0.10098	0.041165	0.16111	0.071561	0.10621	0.22059	0.10483	0.082018	0.15721	0.27386	0.1927	0.31129	0.10356	0.14838	-2.9813	-2.4229	-2.9688	-3.275	-2.4437	-3.3083	-3.2896	-2.8729	-3.3771	-2.7583	-2.9729	-3.4604	-2.5417	-3.2917	-2.8875	-2.4958	280.271	244.575	411.633	190.612	442.293	166.374	203.283	424.159	509.852	171.077	192.237	496.338	438.144	501.071	372.625	487.755	0.00075543	0.00055873	0.00010618	1355.6	3.7485e-06	7.8754e-06	1351.9	366.14	3.3271e-06	4.6462e-06	417.51	140.41	121.65	41.735	6.2547e-06	51.55	0.0005819	0.00056866	0.00015713	1378.4	6.1841e-06	6.2596e-06	1376.4	373.85	6.2538e-06	6.2023e-06	426.74	143.49	124.41	42.965	6.3015e-06	53.083	160.950	257.755	244.922	167.372	271.829	322.609	166.889	171.788	295.189	280.780	171.397	175.042	175.989	180.902	285.666	179.805	-8191	255	
32027.146	1	1	0	0	0.20802	0.11619	0.29861	0.19927	0.14331	0.25722	0.322	0.21578	0.24729	0.19496	0.31038	0.34927	0.091299	0.21773	0.40344	0.031476	-2.9125	-2.7292	-2.8229	-3.375	-2.6167	-2.95	-3.4313	-2.9167	-3.3125	-2.9667	-3.0958	-3.3917	-2.75	-3.2542	-2.9813	-2.6354	184.987	394.252	281.887	414.369	446.717	378.912	472.301	500.951	442.440	240.634	451.145	165.233	437.184	502.296	474.053	269.978	0.0007773	0.0008714	0.0001789	1352.8	3.9746e-06	7.6358e-06	1359.8	367.72	3.9787e-06	3.6025e-06	418.55	140.03	121.62	41.7	4.9119e-06	51.141	0.0005843	0.00057968	0.00015759	1377.7	6.2535e-06	6.1812e-06	1380.7	374.13	6.2853e-06	6.2303e-06	426.81	142.96	124.39	42.907	6.325e-06	53.041	162.963	242.492	229.826	167.187	279.304	309.181	167.043	171.734	254.710	285.786	171.358	175.239	175.896	180.770	310.573	180.117	-8191	255	
32027.242	1	1	0	0	0.24633	0.21951	0.16249	0.20551	0.10555	0.094524	0.11195	0.25822	0.22929	0.17639	0.16169	0.24273	0.23694	0.21295	0.12362	0.056595	-2.8083	-2.9354	-2.6854	-3.5312	-2.5917	-2.9938	-3.4833	-2.7292	-3.4062	-3.0042	-2.7479	-3.5875	-2.9208	-3.0104	-3.2625	-2.6125	485.322	503.121	467.136	512.778	275.239	213.356	507.677	459.515	441.898	343.171	226.827	486.006	177.160	367.320	268.375	442.052	0.00081759	0.0010503	0.00030298	1360	3.1481e-06	8.2618e-06	1358.8	367.43	5.2527e-06	4.6892e-06	418.33	140.04	121.49	41.787	9.1887e-06	51.211	0.00058569	0.00057366	0.00016007	1381.3	6.3081e-06	6.2801e-06	1379.8	374.52	6.1633e-06	6.2722e-06	426.94	143.34	124.57	42.929	6.2743e-06	53.045	160.404	248.736	247.673	167.301	276.279	302.476	166.897	171.733	241.049	268.338	171.362	175.474	175.972	180.891	312.546	179.955	-8191	255	
32027.340	1	1	0	0	0.11413	0.20286	0.28236	0.037638	0.19678	0.094794	0.34332	0.26168	0.30525	0.18901	0.14695	0.09159	0.26986	0.24667	0.10767	0.22133	-2.8187	-3.0083	-2.6688	-3.5979	-2.5687	-3.0479	-3.5771	-2.8146	-3.1063	-3.1958	-2.5479	-3.3792	-2.8771	-2.8396	-3.2125	-2.8292	242.260	491.761	456.947	297.727	404.731	178.949	492.516	424.305	327.299	204.403	485.147	502.020	455.593	344.177	459.583	389.538	0.00081062	0.00082677	0.00016132	1359.2	1.0417e-06	7.8019e-06	1358.3	366.68	6.2981e-06	5.7787e-06	417.92	140.29	121.85	41.689	7.1972e-06	51.398	0.0005858	0.00057318	0.00015737	1380.3	6.3306e-06	6.3112e-06	1378.6	373.83	6.3584e-06	6.2698e-06	426.8	143.38	124.49	42.939	6.3049e-06	53.14	165.828	203.090	219.752	167.193	247.331	291.345	166.712	171.778	261.068	282.384	171.391	175.485	175.804	180.819	258.569	179.806	-8191	255	
32027.436	1	1	0	0	0.25129	0.089392	0.13318	0.22658	0.26567	0.097101	0.10381	0.13717	0.11533	0.13368	0.16865	0.1578	0.27957	0.20253	0.16164	0.27345	-2.5667	-3.0271	-2.5021	-3.45	-2.7687	-2.9292	-3.6875	-2.6937	-2.7938	-3.2479	-2.6562	-3.2771	-2.8937	-2.7792	-3.3	-2.5792	509.138	414.043	312.187	460.253	414.809	229.882	507.898	426.285	489.371	442.822	196.788	171.826	165.899	440.373	404.859	486.679	0.00084339	0.00070957	8.5288e-05	1361.6	3.314e-06	8.0332e-06	1353.4	368.47	5.7824e-06	7.8438e-06	418.26	140.61	122.03	41.601	5.0633e-06	51.407	0.00059255	0.00057721	0.00016071	1383.2	6.3712e-06	6.2592e-06	1380.9	374.28	6.3588e-06	6.2556e-06	426.75	143.46	124.5	42.89	6.3488e-06	53.185	158.887	263.633	240.246	167.131	263.738	309.887	166.912	171.622	258.951	323.873	171.273	175.307	175.639	180.956	248.500	179.964	-8191	255	
32027.531	1	1	0	0	0.19822	0.083302	0.057844	0.078311	0.097749	0.075779	0.252	0.31245	0.21607	0.22219	0.34207	0.20655	0.23127	0.33509	0.095138	0.13515	-2.3833	-3.2146	-2.5771	-3.4688	-2.975	-2.5521	-3.5083	-2.6833	-2.9313	-3.2271	-2.6396	-3.375	-3.0729	-2.7917	-3.375	-2.8583	167.776	410.185	241.844	480.520	307.516	391.195	403.288	496.423	401.194	390.156	222.944	457.909	445.248	483.534	317.583	345.259	0.00074797	0.00098605	0.00011478	1354.5	5.4762e-06	4.9233e-06	1354.6	367.44	1.8204e-06	6.6299e-06	417.48	139.87	121.77	41.801	9.6336e-06	51.4	0.00059378	0.0005897	0.00016024	1380.8	6.3161e-06	6.3459e-06	1378.6	373.84	6.4684e-06	6.3038e-06	427.28	143.22	124.65	42.926	6.4365e-06	53.105	161.439	201.231	252.233	167.138	261.371	290.578	166.867	171.920	286.595	298.066	171.351	175.504	175.899	181.236	284.646	180.113	-8191	255	
32027.652	1	1	0	0	0.065429	0.34366	0.092531	0.30453	0.22655	0.12463	0.29279	0.14941	0.19995	0.076815	0.13865	0.20679	0.18402	0.45727	0.29718	0.23858	-2.4396	-3.2729	-2.4667	-3.4	-3.0438	-2.6396	-3.6521	-3.0646	-2.8937	-3.5354	-2.75	-3.1708	-3.2062	-2.6354	-3.3	-2.9667	216.467	328.754	363.046	513.384	502.150	203.250	431.398	467.005	208.847	261.683	470.827	172.296	502.746	178.328	236.135	400.474	0.00076353	0.00059814	0.00017653	1359.8	3.1656e-06	6.5729e-06	1363	367.24	4.7449e-06	8.4554e-06	416.7	140.13	121.87	41.7	2.7033e-06	51.319	0.00059687	0.0005936	0.00016506	1382.6	6.4057e-06	6.3784e-06	1382.6	373.76	6.454e-06	6.3603e-06	426.7	143.28	124.48	42.965	6.4126e-06	53.062	157.480	277.679	247.509	167.263	248.954	315.295	167.171	171.628	235.981	303.665	171.353	175.189	175.817	181.020	237.117	179.907	-8191	255	
32027.748	1	1	0	0	0.21453	0.021566	0.3244	0.20186	0.13892	0.16282	0.42277	0.18028	0.21468	0.28456	0.3261	0.23959	0.03874	0.21204	0.058819	0.21362	-2.4167	-3.375	-2.4125	-3.1771	-3.1417	-2.5875	-3.4062	-3.1458	-2.8667	-3.3417	-2.6521	-3.075	-3.1458	-2.6292	-3.2354	-2.9813	472.436	329.229	419.965	460.290	435.370	336.758	479.059	439.407	289.541	183.113	472.196	397.151	450.538	216.023	352.326	388.637	0.00071172	0.00061441	0.00012954	1356.1	5.3019e-06	2.5589e-06	1356.6	366	4.464e-06	2.4613e-06	418.92	140.23	121.61	41.779	3.8074e-06	51.378	0.00060015	0.00058061	0.00016539	1381.5	6.4618e-06	6.4483e-06	1381	373.89	6.4887e-06	6.3647e-06	427.86	143.38	124.6	42.947	6.5058e-06	53.023	155.436	251.230	190.290	167.112	249.609	373.878	166.903	171.602	286.674	227.925	171.404	175.395	175.926	181.113	292.969	180.120	-8191	255	
32027.842	1	1	0	0	0.16849	0.19928	0.18422	0.11974	0.1715	0.22803	0.35455	0.16651	0.25553	0.1727	0.2061	0.13853	0.1606	0.1299	0.2372	0.21859	-2.0833	-3.2458	-2.7833	-3.0438	-3.2958	-2.5604	-3.4958	-3.0229	-2.7083	-3.2021	-2.8417	-3.0979	-3.5021	-2.7229	-3.1375	-3.0583	336.578	495.108	510.602	204.185	230.443	326.236	457.639	161.141	244.524	498.789	218.687	344.488	155.940	354.809	508.143	368.753	0.00080139	0.00062102	7.8532e-05	1356.2	5.025e-06	5.8014e-06	1353.3	367.27	6.8229e-06	3.9762e-06	419.74	139.24	122.18	41.717	5.0693e-06	51.209	0.00060873	0.00058801	0.00016512	1382.3	6.505e-06	6.4979e-06	1380	374.2	6.4327e-06	6.4889e-06	427.75	142.92	124.74	42.919	6.539e-06	53.076	158.395	222.349	250.744	167.246	329.652	305.425	166.989	171.626	239.465	185.416	171.265	175.283	175.995	180.876	264.736	179.934	-8191	255	
32027.939	1	1	0	0	0.20996	0.24961	0.25571	0.1852	0.18052	0.065862	0.24124	0.19025	0.070721	0.12834	0.25496	0.20985	0.22642	0.23678	0.12217	0.33095	-2.1708	-3.2625	-2.7417	-2.8833	-3.3542	-2.6271	-3.25	-3.1917	-2.5062	-3.3312	-3.0167	-3.0687	-3.5563	-2.8625	-2.9667	-3.2667	463.720	264.695	243.218	180.111	260.243	449.208	429.888	476.104	473.975	472.339	465.112	407.115	161.598	512.986	296.736	438.096	0.00073005	0.00051746	0.00012815	1359	4.3407e-06	5.9974e-06	1358.8	366.44	3.1224e-06	4.0193e-06	417.19	140.02	122.17	41.572	3.2782e-06	51.405	0.00060614	0.00059328	0.00016639	1382.2	6.4028e-06	6.4858e-06	1381.8	373.52	6.4601e-06	6.5182e-06	426.71	142.95	124.51	42.856	6.4907e-06	53.062	158.794	283.724	196.153	167.548	252.803	329.031	166.983	171.739	289.043	236.840	171.491	175.313	175.902	180.803	263.862	179.832	-8191	255	
32028.035	1	1	0	0	0.12769	0.20972	0.35223	0.27722	0.099987	0.20847	0.29488	0.066994	0.15509	0.29879	0.13406	0.2867	0.13556	0.3851	0.09407	0.26597	-2.1917	-3.3042	-2.8563	-2.9208	-3.2313	-2.7104	-3.2938	-3.3333	-2.5229	-3.4167	-3.0104	-2.6813	-3.4313	-2.7188	-2.9688	-3.2979	336.131	486.374	184.961	470.440	455.134	431.166	480.936	168.832	489.710	169.303	187.008	190.744	176.660	465.012	424.570	409.517	0.00072906	0.00054858	0.00017704	1359	5.7105e-06	8.8003e-06	1355.6	365.71	5.7225e-06	4.7619e-06	418.41	140.25	121.27	41.561	6.3585e-06	51.173	0.00060533	0.00059494	0.00016436	1382.4	6.4236e-06	6.5242e-06	1381.3	374.07	6.4309e-06	6.4793e-06	427.25	143.48	124.49	42.865	6.4028e-06	53.108	159.038	247.244	237.479	167.439	278.722	287.364	167.049	171.873	256.878	257.080	171.210	175.072	176.123	180.999	313.937	179.788	-8191	255	
32028.131	1	1	0	0	0.095556	0.04395	0.048215	0.22174	0.094463	0.080067	0.34334	0.45389	0.33268	0.01401	0.1852	0.29436	0.21702	0.20613	0.065242	0.12644	-2.075	-3.2208	-3.0729	-2.7083	-3.3229	-2.7188	-3.0729	-3.4188	-2.6458	-3.1042	-3.0812	-2.5521	-3.4083	-2.8875	-2.8229	-3.3646	405.128	188.835	371.505	433.281	159.368	497.284	491.200	485.243	166.078	375.902	463.765	446.181	467.431	488.972	208.085	157.956	0.00074812	0.0011031	0.00021162	1357.9	4.3177e-06	3.956e-06	1360.5	367.93	6.7157e-06	1.0275e-05	417.7	139.6	121.96	41.562	2.2653e-06	51.329	0.00061216	0.00058395	0.00016277	1382	6.468e-06	6.3673e-06	1382.4	374.56	6.4754e-06	6.41e-06	426.63	143.05	124.6	42.805	6.5118e-06	53.142	160.842	203.184	235.023	167.475	257.062	340.811	167.073	171.438	287.968	272.878	171.344	175.479	175.978	180.890	293.984	179.820	-8191	255	
32028.252	1	1	0	0	0.19324	0.24357	0.077268	0.26542	0.076797	0.1723	0.20251	0.088049	0.16008	0.25881	0.3204	0.17952	0.083427	0.19922	0.13757	0.011926	-2.2917	-3.1562	-3.1125	-2.7354	-3.3438	-2.8354	-3.0729	-3.4417	-2.5375	-3.0833	-3.1646	-2.6271	-3.1854	-2.8417	-2.5438	-3.4458	218.823	450.054	394.398	477.833	224.937	356.954	390.231	490.111	459.889	337.070	443.842	431.822	216.201	157.518	415.004	286.500	0.00081977	0.00091614	0.00019033	1356.4	5.5282e-06	4.3196e-06	1353.4	366.23	2.4068e-06	1.7942e-06	417.52	139.53	121.87	41.584	4.8338e-06	51.443	0.00059721	0.00059133	0.0001646	1381.3	6.4368e-06	6.5017e-06	1379	373.88	6.3874e-06	6.3915e-06	427.2	143	124.34	42.913	6.4165e-06	53.076	154.925	248.162	215.792	167.298	285.229	286.686	167.143	171.439	278.372	282.880	171.545	175.463	176.349	180.830	287.976	180.126	-8191	255	
32028.348	1	1	0	0	0.087558	0.081195	0.11815	0.31483	0.090518	0.19618	0.3281	0.018653	0.12982	0.055646	0.34117	0.14967	0.15104	0.39366	0.10216	0.14593	-2.3042	-2.9042	-3.1937	-2.925	-3.1021	-3.0104	-2.9604	-3.6521	-2.6688	-2.9188	-3.3917	-2.5396	-3.1729	-2.9792	-2.7271	-3.2833	242.272	300.316	303.185	453.584	394.733	326.143	413.019	214.756	218.916	457.144	157.687	481.333	421.624	511.800	162.928	263.013	0.00087428	0.0004487	0.00012099	1354	1.9112e-06	7.2902e-06	1357.3	365.36	3.4589e-06	3.4791e-06	418.09	139.86	121.56	41.637	3.785e-06	51.099	0.00061039	0.00059263	0.00016515	1378.9	6.3727e-06	6.4399e-06	1379.6	373.74	6.4792e-06	6.4782e-06	427	143.02	124.68	42.887	6.4213e-06	52.99	157.311	228.762	224.673	167.018	207.903	285.165	167.104	171.635	266.154	394.310	171.115	175.160	175.973	180.606	208.194	179.786	-8191	255	
32028.443	1	1	0	0	0.39795	0.048761	0.075378	0.13727	0.18236	0.039776	0.097181	0.12945	0.14779	0.11242	0.12816	0.16276	0.20461	0.095858	0.14476	0.16501	-2.2188	-2.7979	-3.4104	-2.8688	-3.2062	-2.9688	-2.9583	-3.6021	-2.6833	-2.9604	-3.2687	-2.7021	-3.1625	-3.1833	-2.4479	-3.6042	488.333	470.356	421.339	172.263	271.460	392.924	423.475	488.245	503.023	407.637	391.194	184.454	155.399	435.596	225.388	438.573	0.00074959	0.00022307	0.00012855	1358.1	2.9956e-06	6.1861e-06	1354.1	366.77	4.4038e-06	6.0781e-06	419.1	140.26	122.13	41.528	8.4943e-06	51.367	0.00060745	0.00058691	0.00015839	1381.5	6.4137e-06	6.4101e-06	1378.1	373.99	6.5309e-06	6.3692e-06	427.56	143.27	124.53	42.793	6.4891e-06	53.016	158.382	218.557	242.107	167.262	212.565	324.047	166.532	171.894	287.763	290.436	171.144	175.448	175.974	180.875	271.967	179.870	-8191	255	
32028.539	1	1	0	0	0.18527	0.06626	0.047296	0.16023	0.10767	0.053132	0.021744	0.21175	0.10745	0.31484	0.19715	0.12174	0.043441	0.15202	0.085299	0.10264	-2.4875	-2.6729	-3.4604	-2.9354	-3.0292	-3.1188	-2.8063	-3.5292	-2.7729	-2.7625	-3.4062	-2.8542	-3.1292	-3.2333	-2.5333	-3.4646	403.405	156.845	300.262	483.505	339.013	222.884	378.366	411.890	232.021	493.036	477.203	426.489	204.097	453.085	306.871	472.800	0.00089161	0.00030524	0.00018726	1357	1.6697e-06	7.2323e-06	1355.3	366.53	5.5526e-06	7.7284e-06	417.13	140.11	121.45	41.72	6.4977e-06	51.65	0.000609	0.00058904	0.00016022	1381	6.3771e-06	6.3791e-06	1379.9	374.15	6.4161e-06	6.3394e-06	426.54	143.35	124.48	42.864	6.3494e-06	53.235	155.200	272.040	224.457	167.267	226.909	325.486	167.095	172.084	284.949	316.358	171.312	175.299	176.249	180.895	298.433	179.959	-8191	255	
32028.611	1	1	0	0	0.21839	0.033591	0.19149	0.18561	0.1859	0.025278	0.14181	0.25435	0.12931	0.12686	0.24265	0.29336	0.096863	0.16721	0.092423	0.16899	-2.6229	-2.5687	-3.3708	-2.7458	-3.0042	-3.1875	-2.7958	-3.5104	-3.1167	-2.7562	-3.6375	-2.8563	-3.1229	-3.5896	-2.6667	-3.2479	157.812	390.053	320.466	425.464	463.662	246.671	405.670	432.040	398.084	294.775	448.334	482.354	492.736	177.751	204.555	187.297	0.00090834	0.00054008	6.5153e-05	1362.6	5.2125e-06	2.1368e-06	1355.7	365.73	4.9181e-06	4.4187e-06	420.09	139.64	121.79	41.694	7.2524e-06	51.237	0.00059114	0.00058226	0.00015999	1381.5	6.2969e-06	6.3029e-06	1378.8	373.61	6.3453e-06	6.3011e-06	427.69	143.06	124.5	42.861	6.2953e-06	53.039	155.314	228.495	221.971	167.239	295.532	363.889	166.906	171.912	271.906	238.511	171.252	175.357	176.091	180.982	282.913	180.023	-8191	255	
32028.732	1	1	0	0	0.32021	0.15138	0.2285	0.034319	0.11882	0.16952	0.22017	0.29069	0.098324	0.22781	0.13731	0.046654	0.13155	0.13275	0.31177	0.016127	-2.7229	-2.575	-3.3417	-2.8667	-2.8229	-3.3167	-2.7396	-3.3125	-3.0875	-2.5542	-3.3521	-2.9729	-2.8521	-3.4083	-2.6292	-3.2812	511.659	328.060	242.037	476.543	262.714	440.048	158.724	482.914	207.214	399.065	375.183	415.480	478.196	477.247	274.921	408.989	0.00077715	0.0006683	7.0839e-05	1359.7	5.9742e-06	4.0991e-06	1354.6	367.17	5.5614e-06	5.6097e-06	419.09	139.99	122.01	41.67	5.4018e-06	51.379	0.00059145	0.00057879	0.00015949	1379.5	6.2443e-06	6.1586e-06	1378.3	374.38	6.2841e-06	6.3781e-06	427.46	143.24	124.63	42.881	6.4791e-06	53.18	159.382	224.975	303.213	167.191	285.279	354.183	166.886	172.023	271.675	265.020	171.290	175.118	175.867	181.002	304.169	180.067	-8191	255	
32028.828	1	1	0	0	0.26184	0.13433	0.24956	0.16324	0.22332	0.076948	0.34974	0.18817	0.20202	0.14417	0.094812	0.042997	0.28166	0.20599	0.13005	0.21804	-2.6188	-2.4292	-3.2458	-2.975	-2.7	-3.375	-2.7854	-3.1021	-3.3604	-2.5187	-3.45	-2.9042	-2.6792	-3.2542	-2.7042	-3.1792	511.093	321.544	286.356	458.517	477.040	231.418	448.286	333.188	395.201	339.228	360.349	479.268	469.708	199.279	479.523	428.114	0.00070445	0.00025667	8.5323e-05	1355.2	1.4209e-06	1.5129e-06	1353.4	366.74	6.5809e-06	4.8906e-06	419.12	139.7	121.18	41.548	7.9896e-06	51.457	0.00059114	0.00058222	0.00016236	1380.8	6.3782e-06	6.2807e-06	1376.4	373.9	6.237e-06	6.2236e-06	428.01	143	124.42	42.849	6.2665e-06	53.138	155.332	245.960	265.462	167.228	239.510	338.867	166.828	171.951	264.669	341.642	171.452	175.348	175.821	180.891	253.556	179.751	-8191	255	
32028.924	1	1	0	0	0.13433	0.11779	0.20588	0.22691	0.25438	0.088573	0.45344	0.16193	0.018303	0.11969	0.076826	0.17518	0.21961	0.083871	0.26554	0.11911	-2.8438	-2.4271	-3.3	-3.1312	-2.7625	-3.4667	-2.825	-3.0979	-3.2396	-2.4896	-3.2938	-3.1104	-2.7854	-3.3563	-2.8229	-2.8958	466.487	235.444	425.661	428.105	251.669	498.858	459.412	470.308	369.980	213.103	395.381	171.351	457.029	508.146	386.935	251.472	0.00081707	0.00082211	0.00020633	1357.7	6.0179e-06	1.172e-05	1350.3	365.89	3.8532e-06	5.7598e-06	419.24	139.77	121.52	41.608	4.7507e-06	51.353	0.00058961	0.00057554	0.00016095	1380.5	6.282e-06	6.2425e-06	1376.2	373.53	6.2568e-06	6.2685e-06	427.1	142.91	124.42	42.949	6.3182e-06	53.152	153.962	281.556	261.146	167.171	254.054	297.717	166.952	171.862	288.578	285.201	171.361	175.200	176.110	181.014	251.861	180.115	-8191	255	
32029.021	1	1	0	0	0.13547	0.13816	0.069773	0.27336	0.25134	0.062023	0.24192	0.085756	0.096368	0.10907	0.20651	0.15314	0.06105	0.14419	0.094465	0.13839	-3	-2.4188	-3.1542	-3.4354	-2.6083	-3.3417	-3.1229	-2.8917	-3.1521	-2.5438	-3.2062	-3.1167	-2.6208	-3.2792	-2.9521	-2.7917	491.165	392.947	289.772	469.865	383.663	336.525	495.130	294.400	414.751	421.280	477.190	422.944	503.062	238.388	285.243	482.996	0.00075058	0.00081696	9.2503e-05	1360.8	5.8239e-06	7.175e-06	1350	367.29	5.5277e-06	5.28e-06	416.94	140.39	121.43	41.771	6.3335e-06	51.43	0.00058223	0.00057566	0.0001604	1380.8	6.1923e-06	6.2714e-06	1375.7	374.26	6.1111e-06	6.2619e-06	427.09	143.07	124.44	42.919	6.2849e-06	53.171	159.441	257.634	207.132	167.158	281.189	294.016	167.075	171.916	277.895	312.960	171.247	175.514	176.074	180.807	310.740	180.006	-8191	255	
32029.141	1	1	0	0	0.29584	0.21398	0.29005	0.17977	0.31027	0.057348	0.39217	0.051264	0.063579	0.1081	0.24425	0.2674	0.069235	0.069039	0.11032	0.15339	-3.0563	-2.7042	-2.9	-3.45	-2.5625	-3.3708	-3.2292	-2.8146	-3.2313	-2.6333	-3.025	-3.25	-2.5458	-3.3396	-3.0292	-2.5875	347.826	465.993	510.597	451.014	169.263	488.923	492.533	425.048	512.410	165.371	415.487	371.600	167.336	186.868	270.256	488.491	0.00079529	0.00064262	4.7995e-05	1361.9	4.4224e-06	6.3516e-06	1357.2	366.6	5.5017e-06	5.7331e-06	418.01	140.07	121.97	41.749	4.0422e-06	51.571	0.00058115	0.00057207	0.00015806	1380.9	6.2867e-06	6.2916e-06	1380.2	373.81	6.24e-06	6.3399e-06	427.08	143.26	124.66	42.962	6.2822e-06	53.214	155.860	262.218	336.814	167.183	257.298	344.948	166.987	171.738	314.419	277.447	171.059	175.017	175.904	180.929	275.883	179.631	-8191	255	
32029.211	1	1	0	0	0.099381	0.16246	0.28839	0.29093	0.14341	0.21002	0.25692	0.18381	0.13188	0.083022	0.12274	0.21801	0.14799	0.22157	0.14809	0.06121	-2.9521	-2.675	-2.7521	-3.4083	-2.6146	-3.2271	-3.1583	-2.8187	-3.2479	-2.7542	-2.975	-3.3292	-2.7625	-3.2458	-3.0917	-2.8375	445.841	413.431	262.611	162.458	286.774	392.885	443.373	361.642	425.634	426.613	269.093	505.333	156.400	431.374	487.584	397.694	0.00085773	0.00056358	0.00021163	1359.5	4.2214e-06	3.2191e-06	1355.1	366.7	6.4669e-06	6.4981e-06	418.28	140.03	122.16	41.717	5.502e-06	51.365	0.00057785	0.00058311	0.00015946	1380.3	6.3087e-06	6.2314e-06	1378.5	374.17	6.2977e-06	6.2672e-06	427.69	143.24	124.54	42.871	6.2141e-06	53.227	512.729	287.082	274.140	167.291	289.569	364.205	166.731	171.495	258.763	283.421	171.350	175.095	175.813	180.765	301.125	179.765	-8191	255	
32029.332	1	1	0	0	0.048769	0.059106	0.089956	0.31915	0.31559	0.076921	0.25536	0.19494	0.17666	0.076917	0.29868	0.060763	0.26046	0.11583	0.10328	0.23886	-2.9771	-2.7625	-2.7875	-3.575	-2.5521	-3.2583	-3.2729	-2.725	-3.3417	-2.7146	-2.6417	-3.4437	-2.8417	-3.1	-3.2146	-2.5958	168.051	324.746	365.045	477.658	279.853	169.116	474.359	415.287	268.533	157.650	470.156	461.633	160.479	182.491	490.629	450.727	0.00082923	0.0004947	4.9918e-05	1362.9	5.2588e-06	3.7778e-06	1355.4	366.08	4.2785e-06	6.823e-06	418.11	139.82	121.4	41.89	1.0632e-05	51.392	0.00058328	0.00057238	0.00015852	1381.6	6.1562e-06	6.1986e-06	1379.1	373.71	6.2331e-06	6.2771e-06	426.92	143.06	124.43	42.987	6.095e-06	53.117	158.041	286.392	223.333	166.936	260.182	331.075	166.562	171.459	256.514	327.705	171.100	175.198	175.588	180.774	276.941	179.732	-8191	255	
32029.428	1	1	0	0	0.12394	0.18614	0.13462	0.16366	0.20735	0.1732	0.198	0.512	0.020394	0.17256	0.083134	0.071151	0.27238	0.25196	0.098347	0.10262	-2.8917	-3.0292	-2.6854	-3.3896	-2.6437	-3.0104	-3.4333	-2.7125	-3.1979	-2.9292	-2.6958	-3.4375	-2.8187	-2.9646	-3.3438	-2.7458	403.095	245.648	285.357	365.093	455.781	459.572	161.588	494.755	436.979	197.880	490.812	466.694	478.775	155.183	309.334	360.914	0.00080456	0.0009077	0.00015981	1362.1	7.3206e-06	5.6038e-06	1358.1	366.09	4.8015e-06	3.9876e-06	418.43	140.77	121.71	41.73	5.165e-06	51.347	0.00057962	0.00056702	0.00015929	1378.7	6.2224e-06	6.2089e-06	1377.6	374.3	6.2279e-06	6.1819e-06	426.64	143.55	124.66	42.888	6.1503e-06	53.122	155.640	221.685	210.543	167.089	284.509	307.427	166.579	171.500	299.117	308.731	171.285	174.884	175.879	180.846	281.763	179.788	-8191	255	
32029.523	1	1	0	0	0.22574	0.33226	0.12634	0.14187	0.1344	0.18533	0.22074	0.049491	0.11197	0.11718	0.080023	0.31632	0.24589	0.1368	0.16625	0.22643	-2.8833	-3.0917	-2.4833	-3.6021	-2.7562	-2.6833	-3.4854	-2.7562	-3.0812	-3.1854	-2.7938	-3.55	-2.8208	-2.7812	-3.4604	-2.7396	390.690	433.465	441.693	507.335	512.284	174.561	469.592	464.280	351.555	461.965	496.985	454.262	431.381	485.668	346.046	291.718	0.00078079	0.00057349	9.5422e-05	1356.7	3.8415e-06	1.5382e-06	1355.1	365.52	4.0443e-06	4.8611e-06	415.55	140.58	121.56	41.816	8.4919e-06	51.332	0.00057193	0.00056236	0.00015574	1377.4	6.1998e-06	6.0138e-06	1378.5	373.31	6.2066e-06	6.0524e-06	426.41	143.29	124.39	42.943	6.0689e-06	53.125	513.401	211.838	288.309	167.027	279.970	388.405	166.669	171.545	268.704	279.257	171.160	174.989	175.703	180.708	259.549	179.958	-8191	255	
32029.619	1	1	0	0	0.091471	0.087897	0.33856	0.061564	0.32535	0.25989	0.3291	0.24214	0.16375	0.14472	0.15714	0.035977	0.2077	0.14185	0.075983	0.14574	-2.5	-3.0771	-2.6063	-3.4479	-2.7333	-2.8812	-3.6292	-2.7396	-3.0083	-3.1813	-2.8312	-3.2917	-3.1083	-2.9062	-3.3563	-2.6958	393.757	252.540	384.616	200.587	154.705	282.610	440.562	401.495	310.265	168.788	374.297	441.942	428.693	379.525	476.457	458.419	0.00078061	0.00055101	9.9157e-05	1359.5	5.0414e-06	3.8804e-06	1354.6	366.09	5.0443e-06	6.0419e-06	418.52	140.13	121.45	41.779	6.3726e-06	51.317	0.00057061	0.00055751	0.00015787	1380.7	6.1537e-06	6.0256e-06	1379.4	373.53	6.1081e-06	6.0208e-06	427.43	143.17	124.45	42.905	6.1594e-06	53.051	512.166	311.916	257.501	167.279	272.289	300.128	166.770	171.637	283.193	337.417	171.143	175.194	175.872	180.780	258.386	179.688	-8191	255	
32029.740	1	1	0	0	0.11788	0.16228	0.019838	0.028788	0.17948	0.2566	0.28196	0.17922	0.027555	0.019286	0.13535	0.18221	0.15375	0.12579	0.065882	0.11886	-2.6375	-3.2229	-2.6	-3.2938	-2.9625	-2.8021	-3.5354	-2.8667	-2.9021	-3.2	-2.6604	-3.3708	-3.3271	-2.6354	-3.3125	-2.8937	179.250	187.940	399.730	161.729	254.725	275.860	492.803	449.632	478.226	291.131	208.026	304.928	164.078	272.817	495.155	368.641	0.00084978	0.000662	0.00014295	1358.4	3.1964e-06	9.7548e-06	1352.2	365.38	3.64e-06	6.1925e-06	419.22	139.93	121.68	41.639	5.8164e-06	51.503	0.00057882	0.00055665	0.00015582	1378.9	6.1096e-06	6.1047e-06	1376.4	372.91	6.1147e-06	6.0781e-06	427.67	143.06	124.24	42.851	6.1607e-06	53.102	511.629	232.217	261.653	167.378	240.199	324.726	166.831	171.760	269.628	331.008	171.278	175.050	175.647	180.770	299.367	179.431	-8191	255	
32029.836	1	1	0	0	0.17638	0.10811	0.23343	0.24038	0.10654	0.2007	0.20392	0.10034	0.13755	0.14312	0.21119	0.21552	0.1761	0.11212	0.15904	0.23136	-2.5083	-3.2188	-2.4625	-3.4146	-3.1125	-2.5833	-3.5542	-2.8438	-2.7812	-3.3042	-2.6354	-3.1625	-3.3625	-2.8104	-3.4667	-3.0979	317.476	419.566	163.129	160.953	250.126	346.806	416.962	398.554	249.059	445.814	463.627	502.784	509.495	410.115	259.546	494.658	0.00078213	0.00071241	0.00016197	1357.5	4.7433e-06	3.7509e-06	1354.2	367.01	7.3738e-06	3.947e-06	417.04	140.6	121.81	41.803	5.36e-06	51.527	0.00056623	0.00056203	0.00015208	1379.9	6.0759e-06	6.1995e-06	1378.6	374.39	6.0596e-06	6.0562e-06	427.06	143.16	124.59	42.9	5.9978e-06	53.178	153.825	251.375	239.774	167.242	244.621	340.985	166.930	171.596	264.379	267.092	170.984	175.378	175.575	180.977	311.493	179.756	-8191	255	
32029.908	1	1	0	0	0.19869	0.10547	0.1938	0.1604	0.21588	0.18851	0.31663	0.38142	0.024117	0.097352	0.31349	0.213	0.25315	0.14138	0.083763	0.21327	-2.4375	-3.3917	-2.6833	-3.1854	-3.2083	-2.5083	-3.4167	-3.0854	-2.8125	-3.4146	-2.5958	-3	-3.3563	-2.9188	-3.1958	-3.025	441.539	167.762	233.780	446.356	190.761	426.630	421.031	501.937	325.002	336.902	164.963	383.627	452.343	448.901	424.322	162.310	0.0008354	0.00097038	0.00021767	1358.3	2.5469e-06	2.6289e-06	1352	367.47	5.5786e-06	1.5509e-06	417.6	140.55	122.32	41.523	6.033e-06	51.362	0.00056565	0.00054996	0.00015325	1380.3	6.1389e-06	5.9723e-06	1377.3	374.02	6.0518e-06	6.0271e-06	426.41	143.5	124.77	42.801	5.9999e-06	53.116	162.764	261.057	275.977	167.204	248.238	273.432	167.101	171.583	291.071	226.437	171.249	175.542	176.006	180.943	272.415	179.923	-8191	255	
32030.027	1	1	0	0	0.16065	0.17751	0.16998	0.35551	0.14787	0.18911	0.27706	0.16341	0.01081	0.11157	0.14869	0.087979	0.19543	0.082623	0.10082	0.1007	-2.2667	-3.3312	-2.7167	-3.05	-3.4562	-2.4333	-3.5583	-3.3	-2.6146	-3.4417	-3.0271	-2.9542	-3.6083	-2.8271	-3.0625	-3.2542	307.057	155.557	423.408	479.928	304.920	500.531	402.154	483.786	413.049	293.567	486.711	474.720	482.062	246.145	406.138	405.715	0.00081634	0.00084161	0.0001298	1356.2	4.6759e-06	4.2969e-06	1347.4	366.37	5.9002e-06	5.2023e-06	417.33	139.96	121.56	41.686	6.5587e-06	51.274	0.00057269	0.00055299	0.00015519	1376.9	6.0495e-06	6.1113e-06	1374.5	373.05	6.0967e-06	6.1113e-06	426.06	142.87	124.35	42.882	6.1811e-06	53.045	153.723	225.550	226.257	167.354	262.639	318.122	167.012	171.649	248.392	262.982	170.975	174.918	176.046	180.810	255.791	179.784	-8191	255	
32030.123	1	1	0	0	0.26389	0.19119	0.19716	0.11545	0.18993	0.053539	0.32092	0.054032	0.14842	0.077596	0.033446	0.19306	0.087514	0.13443	0.039954	0.19831	-2.2667	-3.4292	-2.7792	-2.95	-3.2917	-2.5438	-3.4396	-3.3563	-2.6146	-3.2875	-3.2375	-2.8417	-3.6271	-2.8937	-3.1146	-3.375	303.126	232.635	469.889	449.816	178.414	279.896	472.498	167.627	314.681	313.086	463.002	230.963	200.441	295.417	353.396	497.125	0.00077291	0.0011546	0.00014709	1353	2.0579e-06	3.4068e-06	1352.1	364.72	5.6669e-06	8.7227e-06	416.59	139.74	121.65	41.508	4.0885e-06	51.318	0.00057938	0.00056284	0.00015965	1374	6.1833e-06	6.2225e-06	1377.2	372.79	6.1796e-06	6.1583e-06	426.11	143.04	124.32	42.74	6.0412e-06	52.991	158.064	234.039	265.368	167.287	268.364	342.069	166.970	171.607	255.118	288.863	171.035	175.400	175.929	180.897	319.688	179.818	-8191	255	
32030.221	1	1	0	0	0.11515	0.15001	0.18375	0.12924	0.061079	0.16769	0.26705	0.2848	0.1889	0.18198	0.17215	0.21332	0.021272	0.14954	0.086871	0.18535	-2.2125	-3.3104	-2.7812	-3.0979	-3.5625	-2.6979	-3.2396	-3.4	-2.6271	-3.2562	-3.275	-2.7708	-3.5646	-2.8167	-2.9562	-3.4458	257.193	154.816	158.883	471.984	351.641	326.676	183.636	421.779	445.114	422.359	466.715	463.447	250.867	465.691	468.683	359.382	0.00066372	0.00067832	0.00012721	1357.8	7.1496e-06	3.7367e-07	1355.3	367	5.1058e-06	3.6685e-06	418.21	140.24	121.36	41.613	5.454e-06	51.559	0.00056764	0.00055342	0.00015396	1380.3	6.0258e-06	5.987e-06	1378.1	374.87	5.9211e-06	5.9362e-06	426.99	143.11	124.45	42.848	5.9632e-06	53.181	155.736	238.678	234.852	167.247	271.868	333.544	167.202	171.627	261.834	354.052	171.134	175.340	175.769	180.903	305.253	179.924	-8191	255	
32030.316	1	1	0	0	0.096831	0.12035	0.2229	0.29449	0.17739	0.14139	0.21123	0.17875	0.3059	0.23934	0.24194	0.16572	0.23419	0.19841	0.30993	0.17397	-2.2687	-3.0479	-3.0833	-2.85	-3.2979	-2.8625	-3.1937	-3.4896	-2.7792	-3.1521	-3.2771	-2.6792	-3.5271	-2.85	-2.8792	-3.6437	407.209	367.297	376.694	171.897	479.428	212.771	496.035	444.804	503.308	389.485	376.030	495.180	480.546	397.505	510.191	409.974	0.00083944	0.00050246	9.6717e-05	1357.2	3.5676e-06	3.6308e-06	1354	366.53	4.1169e-06	6.4762e-06	417.82	140.65	121.9	41.652	3.7598e-06	51.407	0.00055805	0.00053642	0.00015075	1379.9	5.9472e-06	5.8084e-06	1377.6	374.25	5.8921e-06	5.827e-06	426.32	143.22	124.49	42.841	5.7995e-06	53.041	163.347	282.924	308.151	167.066	300.001	292.950	167.030	171.805	273.389	289.324	171.043	175.227	176.028	181.138	295.346	180.015	-8191	255	
32030.438	1	1	0	0	0.070288	0.22238	0.06522	0.30578	0.10558	0.18827	0.10171	0.20344	0.17667	0.14463	0.23847	0.15551	0.13067	0.085352	0.15201	0.39461	-2.3563	-3.1271	-3.2146	-2.8312	-3.3583	-3.0687	-2.9562	-3.4208	-2.8	-3.175	-3.4813	-2.725	-3.4667	-3.0604	-2.7271	-3.5604	258.051	312.927	275.170	470.345	156.395	238.147	415.800	425.792	498.172	158.583	502.337	185.053	181.007	404.010	368.166	471.581	0.00085256	0.00023524	0.00024798	1352.1	6.099e-06	5.696e-06	1349.1	366.69	4.9735e-06	1.6971e-06	416.67	140.15	121.77	41.728	7.4088e-06	51.574	0.00055022	0.00053285	0.00014765	1375.3	5.7809e-06	5.8105e-06	1375.3	373.43	5.7946e-06	5.7753e-06	426.04	143.14	124.47	42.923	5.7689e-06	53.101	158.167	457.201	239.753	167.388	299.560	292.959	167.134	171.763	302.759	332.341	171.233	175.128	176.091	180.974	270.098	180.089	-8191	255	
32030.508	1	1	0	0	0.084188	0.071849	0.099162	0.32668	0.34178	0.16632	0.1278	0.16742	0.21981	0.19395	0.065069	0.1302	0.11686	0.27165	0.12038	0.11787	-2.1979	-2.9562	-3.3104	-2.8958	-3.3333	-3.0354	-2.8042	-3.4979	-2.7833	-3.0271	-3.4083	-2.6063	-3.5292	-3.0917	-2.5083	-3.5521	162.366	312.598	363.757	445.918	269.278	423.041	432.521	438.043	483.417	508.069	272.669	483.902	163.033	189.008	341.663	438.138	0.00082817	0.00039536	6.2419e-05	1348.8	3.0912e-06	5.068e-06	1345.6	366.57	3.7359e-06	6.0819e-06	415.78	139.81	121.91	41.614	4.8074e-06	51.413	0.00055173	0.00052832	0.00014739	1373.1	5.7888e-06	5.7702e-06	1371.9	373.37	5.7536e-06	5.7811e-06	425.13	142.91	124.29	42.777	5.7749e-06	53.002	163.596	157.461	305.095	167.151	308.803	316.624	167.026	171.526	221.968	277.956	171.313	175.203	175.895	180.882	277.223	179.724	-8191	255	
32030.605	1	1	0	0	0.22939	0.12264	0.16492	0.28243	0.1359	0.31638	0.31234	0.1232	0.056087	0.17472	0.13551	0.13491	0.31248	0.1125	0.25295	0.3943	-2.5438	-2.8187	-3.3208	-2.8354	-3.0958	-2.9771	-2.8	-3.4479	-2.75	-2.7854	-3.3979	-2.8354	-3.4854	-3.3917	-2.5021	-3.4938	505.915	169.053	327.180	479.090	288.853	398.608	425.415	456.675	167.135	181.783	353.034	177.705	486.669	508.404	318.802	440.495	0.00089181	0.00047203	0.00012157	1350.9	4.6678e-06	9.3059e-06	1348.7	367.01	4.7632e-06	2.9315e-06	416.77	140.01	121.8	41.649	8.393e-06	51.386	0.0005553	0.00053662	0.00014642	1371.7	5.9048e-06	5.8088e-06	1372.8	373.56	5.8171e-06	5.8915e-06	426.47	142.92	124.52	42.845	5.9618e-06	52.97	160.871	228.306	233.794	167.458	283.478	264.806	166.984	171.823	254.070	310.336	171.232	175.523	175.808	180.881	271.724	179.894	-8191	255	
32030.701	1	1	0	0	0.2092	0.31572	0.079989	0.28157	0.39703	0.085646	0.47508	0.28188	0.19317	0.12912	0.06014	0.17005	0.20416	0.25947	0.078145	0.051408	-2.475	-2.7521	-3.2646	-2.9771	-3.1542	-3.2396	-2.7646	-3.475	-2.9771	-2.7	-3.7021	-2.8458	-3.0771	-3.3417	-2.8167	-3.4604	475.417	164.479	288.524	173.147	398.834	300.675	429.540	441.991	228.406	239.857	449.368	507.152	169.830	452.731	294.351	182.468	0.00076401	0.00039117	0.00011174	1350.2	1.5659e-06	1.6903e-06	1347.5	365.88	5.7373e-06	3.6669e-06	417.33	139.73	121.87	41.834	7.7741e-06	51.544	0.00055971	0.00053845	0.00014952	1373.4	5.943e-06	5.9853e-06	1373.2	373.43	5.9856e-06	5.9743e-06	426.9	142.97	124.47	42.88	5.9029e-06	53.163	160.136	274.182	179.331	167.112	260.920	299.600	167.138	171.984	306.931	291.618	171.163	175.087	175.858	180.963	272.892	180.038	-8191	255	
32030.820	1	1	0	0	0.091897	0.021832	0.26662	0.2372	0.25137	0.21934	0.22241	0.23294	0.26083	0.083387	0.22012	0.20892	0.065973	0.22328	0.069749	0.10709	-2.6063	-2.6271	-3.35	-2.9104	-2.9729	-3.4313	-2.8396	-3.2458	-3.0854	-2.6979	-3.6042	-2.7396	-2.9854	-3.3875	-2.6229	-3.2417	329.973	240.851	437.775	460.257	196.127	324.755	494.944	441.885	177.109	377.708	354.369	453.813	439.612	392.930	281.564	157.952	0.00084976	0.00038714	0.00014672	1351.6	6.2032e-06	1.1525e-06	1348.2	367.32	4.3896e-06	3.2672e-06	418.35	139.77	121.43	41.781	1.1606e-05	51.678	0.00056197	0.00054539	0.00014985	1375.2	6.004e-06	5.9806e-06	1374.9	373.72	6.0043e-06	6.0774e-06	426.26	142.86	124.4	42.801	6.0338e-06	53.162	160.154	228.154	239.488	167.270	243.883	195.860	166.901	171.738	287.040	326.526	171.344	175.297	175.995	181.002	294.564	180.107	-8191	255	
32030.916	1	1	0	0	0.22645	0.084286	0.087164	0.27479	0.10477	0.083994	0.11414	0.25644	0.20164	0.11017	0.24068	0.22348	0.043912	0.20546	0.11754	0.14836	-2.7417	-2.6271	-3.4042	-3.0771	-2.9062	-3.3438	-2.975	-3.3729	-3.2188	-2.5979	-3.5229	-3.1021	-2.5667	-3.5062	-2.7708	-3.1937	259.917	365.956	313.798	180.285	426.896	171.581	168.450	481.060	316.884	332.917	444.500	450.217	333.071	168.668	251.824	464.734	0.00075318	0.0010932	0.00013887	1351.6	1.5166e-06	5.4731e-06	1345.9	366.28	3.9157e-06	3.738e-06	417.39	139.78	121.34	41.6	6.1375e-06	51.273	0.00056281	0.0005459	0.00015159	1373.3	5.9489e-06	5.951e-06	1371.8	372.94	6.0076e-06	5.9781e-06	426.32	143.05	124.2	42.903	6.0615e-06	52.982	163.727	212.522	228.698	167.269	282.211	318.967	166.852	172.039	230.367	323.365	171.311	175.142	176.094	181.019	294.284	179.884	-8191	255	
32031.014	1	1	0	0	0.035314	0.13242	0.33874	0.25252	0.1761	0.15914	0.2401	0.17536	0.18991	0.17588	0.18905	0.25628	0.14085	0.28889	0.023253	0.054121	-2.9062	-2.4604	-3.1354	-3.0521	-2.7792	-3.5438	-3.0062	-3.2396	-3.4208	-2.7125	-3.4667	-3.2583	-2.7479	-3.4729	-2.7104	-3.0458	336.442	290.648	375.271	445.061	239.877	482.592	459.658	442.250	367.955	175.746	446.010	178.867	431.210	499.239	337.893	481.093	0.00075682	0.00049138	0.0002064	1357	7.4918e-06	3.1309e-06	1348.6	366.52	3.7013e-06	8.0062e-06	418.73	140.37	121.81	41.655	1.3652e-06	51.467	0.0005666	0.00054918	0.00015213	1378.4	6.0689e-06	5.9611e-06	1374.8	373.61	6.0179e-06	6.0246e-06	426.76	143.18	124.5	42.928	6.0216e-06	53.17	509.696	246.277	251.065	167.435	276.701	343.158	167.161	171.970	253.331	276.400	171.240	175.212	175.940	180.920	330.441	180.040	-8191	255	
32031.107	1	1	0	0	0.11913	0.20669	0.095432	0.080337	0.29168	0.27077	0.29247	0.31798	0.078815	0.16776	0.12399	0.37846	0.12853	0.13432	0.082871	0.07073	-2.9479	-2.5958	-3.2667	-3.175	-2.5729	-3.4479	-3.125	-3.075	-3.2812	-2.4042	-3.3979	-3.3646	-2.7979	-3.2979	-2.85	-2.9792	343.943	346.169	490.532	284.148	204.797	459.438	467.709	473.232	171.653	464.251	191.795	485.953	407.225	461.943	366.268	254.956	0.00081422	0.00051012	0.00012737	1354.5	6.4213e-06	7.0479e-06	1355.6	366.04	5.2715e-06	2.1017e-06	417.73	140.1	121.75	41.692	5.6508e-06	51.641	0.00056664	0.00056195	0.00015258	1376.7	6.0166e-06	6.0624e-06	1376.6	373.47	6.0684e-06	6.1254e-06	426.2	143.09	124.32	42.903	6.085e-06	53.139	156.193	251.205	238.050	167.203	306.802	266.847	166.981	171.919	219.057	307.325	171.361	175.214	175.999	180.913	235.951	179.969	-8191	255	
32031.203	1	1	0	0	0.046451	0.059571	0.36428	0.308	0.11336	0.2043	0.26682	0.10541	0.15981	0.037291	0.044752	0.19803	0.20374	0.13418	0.21574	0.29909	-2.9813	-2.4688	-3.0687	-3.1667	-2.7062	-3.5104	-3.0521	-2.9229	-3.4562	-2.7583	-3.1917	-3.2792	-2.7	-3.4417	-2.9375	-2.8021	467.882	367.449	457.030	173.293	270.241	312.829	500.918	479.003	342.912	376.931	443.825	440.672	376.218	457.483	371.234	487.860	0.00076506	0.00077143	0.00024053	1352.7	5.6743e-06	5.6077e-06	1348.9	365.55	5.1102e-06	9.6994e-07	419.68	139.37	121.87	41.495	7.0239e-06	51.542	0.00056881	0.0005622	0.00015736	1374.9	6.065e-06	6.0142e-06	1375.4	373.42	6.104e-06	6.0989e-06	426.63	142.87	124.47	42.852	6.0647e-06	53.107	158.869	263.839	251.177	167.214	324.009	305.997	166.989	171.782	273.036	470.241	171.278	175.150	175.892	180.924	246.807	179.822	-8191	255	
32031.301	1	1	0	0	0.2729	0.21624	0.061648	0.17774	0.18068	0.13012	0.14146	0.19447	0.016732	0.11036	0.11407	0.25423	0.17273	0.24943	0.1312	0.086379	-2.9729	-2.675	-3.1312	-3.4646	-2.5312	-3.2417	-3.2271	-2.6125	-3.2417	-2.7875	-3.1979	-3.5104	-2.5833	-3.2646	-3.1292	-2.8312	195.923	303.964	199.696	164.194	430.454	488.548	419.963	164.099	480.367	200.389	434.465	427.173	177.089	426.226	497.849	181.821	0.00083329	0.00048877	0.0002126	1358	2.7358e-06	6.0916e-06	1346.6	365.68	5.7097e-06	4.3051e-06	416.03	139.97	121.63	41.424	7.4406e-06	51.071	0.00057732	0.00056842	0.00015591	1377	6.0676e-06	6.0592e-06	1374	373.17	6.139e-06	6.1008e-06	426.25	142.91	124.59	42.704	6.2028e-06	52.843	512.652	230.868	195.208	167.322	287.504	289.638	166.933	171.830	295.709	338.729	171.551	174.985	176.143	180.922	275.356	179.831	-8191	255	
32031.422	1	1	0	0	0.14849	0.10204	0.16386	0.23197	0.030158	0.076353	0.23196	0.16633	0.47679	0.064335	0.1316	0.098312	0.43722	0.061447	0.2312	0.14404	-2.9562	-2.8729	-2.9375	-3.3771	-2.6104	-3.0854	-3.2979	-2.7062	-3.1312	-2.8563	-2.9083	-3.4896	-2.7146	-3.3	-3.2687	-2.7521	413.938	299.874	321.995	174.218	216.016	494.887	461.581	430.920	338.130	244.742	364.157	467.990	161.983	277.989	439.539	252.821	0.00091412	0.00044654	5.1289e-05	1350.9	4.8709e-06	3.2171e-06	1352.6	366.06	4.4113e-06	2.7764e-06	419.4	139.71	121.71	41.452	5.6329e-06	50.964	0.00058138	0.0005655	0.00015774	1376.8	6.1983e-06	6.2046e-06	1375	373.12	6.1824e-06	6.2208e-06	427.02	142.97	124.32	42.813	6.2264e-06	53.037	158.455	227.380	201.717	167.237	291.384	376.092	166.939	172.052	274.817	262.583	171.186	175.071	175.787	180.869	272.658	179.725	-8191	255	
32031.518	1	1	0	0	0.25868	0.077408	0.19146	0.051092	0.052028	0.21883	0.1041	0.22378	0.14062	0.20491	0.031395	0.10288	0.080469	0.1629	0.076762	0.14337	-2.8646	-2.9333	-2.8521	-3.5396	-2.8354	-3.2771	-3.4208	-2.7917	-3.3187	-2.7979	-2.7542	-3.6	-2.7375	-2.9042	-3.175	-2.5833	329.410	235.014	388.103	456.393	311.094	505.065	169.957	436.605	413.956	508.240	262.618	280.640	445.361	216.005	278.229	199.593	0.00076117	0.00042213	0.00018511	1348.9	2.8029e-06	6.1301e-06	1351.1	365.32	3.8659e-06	8.766e-06	415.15	139.91	121.33	41.629	2.6051e-06	51.444	0.00058584	0.00058164	0.0001588	1374.7	6.3377e-06	6.216e-06	1375.5	373.08	6.3714e-06	6.345e-06	424.66	143.04	124.22	42.791	6.296e-06	53.039	162.475	270.846	270.397	167.127	278.617	319.217	166.805	171.719	281.337	340.158	171.246	175.121	176.086	180.856	281.144	179.898	-8191	255	
32031.613	1	1	0	0	0.24223	0.035349	0.1622	0.2058	0.030904	0.14236	0.16448	0.36197	0.10334	0.18477	0.3545	0.18902	0.22974	0.14699	0.17982	0.2818	-3.0083	-2.9562	-2.6792	-3.5417	-2.6333	-2.8958	-3.4583	-2.8083	-3.2313	-3.0458	-2.7542	-3.4	-2.7729	-2.8479	-3.2708	-2.7313	270.745	167.725	425.486	487.396	232.408	507.945	428.707	499.455	477.568	215.524	503.406	417.185	408.070	253.476	512.014	492.086	0.00085355	0.00049732	0.00012206	1351.7	7.6862e-06	3.5717e-06	1349.9	366.21	7.4867e-06	3.9188e-06	415.47	140.16	121.15	41.771	4.669e-06	51.354	0.00059147	0.00058745	0.00016036	1375.1	6.2961e-06	6.2701e-06	1373	373.16	6.3077e-06	6.2679e-06	425.95	143.04	124.13	42.829	6.3478e-06	52.945	162.962	245.883	278.659	167.104	308.833	297.149	166.839	171.687	260.305	274.972	171.304	175.418	175.683	181.051	310.535	179.640	-8191	255	
32031.734	1	1	0	0	0.1508	0.078885	0.23809	0.19108	0.058214	0.19875	0.30106	0.10972	0.11552	0.05671	0.02404	0.10657	0.12214	0.063201	0.20257	0.39982	-2.7625	-3.15	-2.5021	-3.3896	-2.6813	-2.6708	-3.5521	-2.7104	-3.2021	-3.2042	-2.5667	-3.2792	-2.8	-2.8771	-3.3917	-2.7542	417.385	477.143	271.734	424.595	431.386	493.560	483.168	398.251	297.080	494.709	331.027	479.570	458.602	466.896	328.043	468.334	0.0008058	0.00073255	9.8433e-05	1357.6	6.0139e-06	6.1054e-06	1347.7	367.79	4.8103e-06	1.8785e-06	417.72	140.39	120.99	41.604	5.3869e-06	51.419	0.0005849	0.00057102	0.00016166	1378.3	6.263e-06	6.2915e-06	1375.9	373.37	6.3469e-06	6.3431e-06	425.97	143.24	124.19	42.856	6.3311e-06	53.038	158.894	236.899	212.496	167.248	254.532	335.397	167.119	171.693	297.083	309.186	171.342	175.427	175.784	180.861	241.027	179.755	-8191	255	
32031.807	1	1	0	0	0.13103	0.1696	0.099866	0.16778	0.23191	0.074586	0.37644	0.33882	0.19585	0.10574	0.14308	0.10899	0.12513	0.056163	0.16999	0.39943	-2.4896	-3.2042	-2.5292	-3.4458	-2.9146	-2.6437	-3.6104	-2.9104	-2.9479	-3.2771	-2.6958	-3.3146	-2.9875	-2.8708	-3.4083	-2.7583	405.910	262.317	361.370	463.479	455.431	369.620	471.149	450.761	431.072	215.906	410.256	301.808	226.335	482.976	190.260	490.206	0.00088693	0.00098663	0.00010454	1356.1	3.3376e-06	7.0658e-06	1347.8	365.17	3.2507e-06	5.183e-06	415.42	140.09	121.41	41.771	1.9086e-06	51.393	0.00058577	0.00057176	0.00015886	1375.6	6.2297e-06	6.2727e-06	1374.3	372.74	6.1987e-06	6.1737e-06	426.08	143.01	124.36	42.864	6.1167e-06	53.124	159.747	259.627	237.583	167.333	318.572	264.156	166.952	171.636	284.246	258.142	171.285	175.581	175.676	180.854	271.847	179.942	-8191	255	
32031.900	1	1	0	0	0.02477	0.14867	0.11325	0.30882	0.2211	0.20286	0.33588	0.36866	0.090723	0.15603	0.22231	0.324	0.12068	0.068388	0.32331	0.331	-2.3375	-3.375	-2.4458	-3.3812	-3.0167	-2.5646	-3.4583	-2.9	-2.9958	-3.2875	-2.9792	-3.225	-3.3167	-2.7687	-3.5167	-2.8688	201.948	424.104	271.555	512.024	484.342	485.101	441.334	478.886	320.354	500.831	471.042	473.812	476.776	330.887	490.257	479.678	0.00074358	0.00046285	4.8709e-05	1354.3	6.411e-06	4.2479e-06	1350.5	364.42	1.9271e-06	3.4423e-06	415.79	139.79	121.55	41.732	4.2314e-06	51.435	0.00057999	0.00057026	0.00015532	1377.1	6.2579e-06	6.1563e-06	1375.1	372.41	6.2457e-06	6.1801e-06	426.13	142.99	124.44	42.871	6.2144e-06	52.967	160.600	256.885	412.560	167.386	304.609	339.491	167.137	171.782	274.007	298.187	171.279	175.181	175.853	180.917	327.302	179.908	-8191	255	
32031.996	1	1	0	0	0.22585	0.13684	0.095681	0.046029	0.32259	0.15743	0.15395	0.34851	0.18012	0.16251	0.10588	0.20706	0.24156	0.21786	0.029009	0.29855	-2.4083	-3.2125	-2.5479	-3.1771	-3.1167	-2.6375	-3.5521	-2.8187	-2.6042	-3.3146	-2.8542	-2.9479	-3.3833	-2.5854	-3.3187	-3.0708	388.922	170.726	502.753	460.151	167.692	174.320	492.589	422.482	424.233	222.227	489.799	458.472	169.206	470.694	255.831	504.335	0.00085804	0.0008092	0.00010336	1354.1	6.4407e-06	2.3905e-06	1355.2	366.03	5.9806e-06	4.002e-06	416.03	140.27	121.43	41.527	4.3566e-06	51.15	0.00058655	0.00056435	0.00015703	1377.9	6.2648e-06	6.2287e-06	1377.6	373.03	6.1333e-06	6.1524e-06	426.46	143.13	124.25	42.846	6.257e-06	53.027	155.733	280.768	247.342	167.090	269.742	274.488	167.067	171.559	314.034	272.496	171.311	175.367	175.900	180.960	250.803	179.940	-8191	255	
32032.117	1	1	0	0	0.29643	0.064248	0.049011	0.068741	0.24042	0.23804	0.21829	0.26812	0.27847	0.22192	0.33523	0.2998	0.1341	0.24335	0.20665	0.24979	-2.3063	-3.4	-2.8396	-2.8729	-3.3167	-2.6583	-3.6083	-3.2042	-2.6042	-3.4417	-2.8646	-2.9667	-3.3958	-2.5792	-3.0667	-3.0667	187.844	238.894	209.377	438.221	327.535	344.646	434.700	469.507	480.532	470.965	490.059	441.506	442.199	375.559	506.798	426.308	0.0009144	0.00089451	6.0173e-05	1353.3	2.6829e-06	2.936e-06	1351.7	366.3	7.009e-06	4.3807e-06	415.36	139.87	121.3	41.501	1.1256e-05	51.202	0.00058831	0.00057026	0.00015799	1376.3	6.11e-06	6.1584e-06	1374.8	373.26	6.3344e-06	6.2448e-06	425.84	143	124.13	42.822	6.2349e-06	52.94	159.756	258.540	321.262	167.348	353.485	271.460	167.004	171.724	285.349	269.492	171.058	175.303	175.606	180.766	291.978	180.016	-8191	255	
32032.213	1	1	0	0	0.03016	0.12405	0.16043	0.16652	0.38913	0.27945	0.47633	0.076903	0.19792	0.18976	0.073245	0.19805	0.21086	0.13458	0.085533	0.20797	-2.2208	-3.275	-2.7667	-2.9188	-3.2833	-2.6521	-3.3542	-3.2896	-2.6146	-3.3187	-2.8771	-2.6771	-3.5229	-2.6833	-3.1417	-3.0458	179.893	242.787	446.893	456.877	273.998	250.250	487.327	242.929	447.686	320.920	171.738	386.445	378.980	509.628	462.387	439.244	0.00075431	0.00082764	0.00021174	1348.4	6.0724e-06	7.3838e-06	1351.9	365.65	3.9431e-06	1.991e-06	417.08	139.16	121.25	41.519	4.482e-06	51.196	0.0005957	0.00057248	0.0001594	1376.4	6.1575e-06	6.1707e-06	1376.7	372.81	6.2945e-06	6.1959e-06	425.57	142.83	124.26	42.794	6.3071e-06	53.023	161.839	255.874	241.050	167.347	273.046	259.927	166.805	171.510	257.668	246.056	171.366	175.125	175.721	180.578	226.500	179.710	-8191	255	
32032.309	1	1	0	0	0.10142	0.1711	0.062224	0.22452	0.14747	0.11087	0.26763	0.17908	0.070268	0.12192	0.12115	0.22673	0.13939	0.15071	0.14739	0.189	-2.0792	-3.2479	-2.9813	-2.9229	-3.3187	-2.725	-3.3458	-3.4188	-2.5271	-3.3417	-3.225	-2.775	-3.525	-2.9062	-3.0396	-3.3937	510.491	453.787	342.376	444.991	322.204	313.277	456.078	496.658	442.653	260.298	450.767	505.415	436.077	471.815	321.395	368.446	0.00072052	0.00032702	0.0001096	1349.9	2.3093e-06	4.2916e-06	1351.2	365.53	6.4321e-06	4.5642e-06	415.78	139.37	122.06	41.705	3.5263e-06	51.553	0.00058337	0.00056725	0.00015895	1374.8	6.1569e-06	6.2302e-06	1376	372.97	6.1977e-06	6.1563e-06	425.65	142.9	124.47	42.822	6.3013e-06	53.173	153.878	280.678	263.179	167.268	197.101	291.279	166.911	171.533	287.150	296.210	171.032	175.229	175.889	180.843	366.020	179.938	-8191	255	
32032.381	1	1	0	0	0.17038	0.057675	0.050905	0.22181	0.15564	0.17484	0.38546	0.22276	0.22793	0.12686	0.04175	0.21076	0.086162	0.30684	0.1299	0.34413	-2.0896	-3.1083	-3.0229	-2.9188	-3.5604	-2.9021	-3.125	-3.5458	-2.6354	-3.1104	-3.2938	-2.6958	-3.6562	-2.9562	-2.9188	-3.3896	304.233	241.833	422.555	438.726	493.127	414.872	489.265	154.429	375.036	490.273	278.529	159.947	491.294	369.462	319.481	390.375	0.00085498	0.00064728	0.00014323	1355.2	2.5661e-06	8.0126e-06	1354	364.9	4.368e-06	5.8717e-06	417.2	139.58	122.04	41.623	8.3729e-06	51.393	0.00058496	0.00056804	0.00016	1376.9	6.1009e-06	6.1985e-06	1374.3	373.16	6.1463e-06	6.2463e-06	426.33	142.8	124.67	42.91	6.2699e-06	53.083	155.209	281.617	260.433	167.124	317.229	310.044	167.008	171.804	286.786	303.585	171.246	175.414	176.045	180.945	303.721	179.751	-8191	255	
32032.502	1	1	0	0	0.14369	0.10647	0.27454	0.1485	0.11764	0.046604	0.20659	0.18847	0.14882	0.12465	0.14812	0.17055	0.22199	0.085973	0.013547	0.19158	-2.1542	-2.9792	-3.0417	-3.0333	-3.5479	-3.0083	-3.0479	-3.4396	-2.6375	-3.1625	-3.2792	-2.7104	-3.4938	-3.0583	-2.7	-3.6417	202.864	256.890	345.399	219.900	161.807	271.687	489.910	408.820	294.607	237.650	463.288	500.264	385.654	406.363	477.502	215.532	0.00085519	0.00044348	0.00024089	1353.9	7.1015e-06	2.6358e-06	1349.5	365.52	6.2279e-06	4.1179e-06	416.66	140.04	121.27	41.578	8.2108e-06	51.3	0.00058304	0.00057871	0.00016015	1377.3	6.2167e-06	6.2976e-06	1376.2	372.79	6.2987e-06	6.1996e-06	425.34	142.95	124.31	42.808	6.1608e-06	53.062	157.892	286.977	257.289	167.364	264.095	259.158	167.098	171.682	259.447	316.746	171.176	175.252	175.985	180.861	310.575	179.952	-8191	255	
32032.598	1	1	0	0	0.062756	0.073635	0.17423	0.31626	0.11766	0.10608	0.32151	0.49347	0.021136	0.25902	0.29455	0.1958	0.13556	0.16237	0.21312	0.13529	-2.4396	-3.0062	-3.3625	-2.8354	-3.3875	-3.0292	-2.9292	-3.6771	-2.5125	-3.0812	-3.4458	-2.6979	-3.4625	-3.2104	-2.6167	-3.4542	255.311	233.836	279.280	425.075	448.297	224.822	484.322	454.986	419.484	349.094	437.677	264.237	485.031	371.123	308.545	167.582	0.00085488	0.0004951	0.00010141	1353.5	3.1474e-06	6.5715e-06	1351.8	367.42	2.2142e-06	4.3442e-06	417.4	139.86	121.52	41.431	6.0066e-06	51.17	0.00059226	0.00057069	0.00015757	1375.9	6.1847e-06	6.1845e-06	1374.8	373.16	6.3374e-06	6.2317e-06	425.56	143.11	124.4	42.773	6.323e-06	53.043	158.598	205.030	195.366	167.398	254.026	283.881	167.095	171.724	289.614	302.910	171.466	175.314	176.032	180.806	230.463	180.077	-8191	255	
32032.693	1	1	0	0	0.14697	0.32164	0.13546	0.16952	0.17264	0.095501	0.043464	0.29099	0.1442	0.30231	0.31263	0.19416	0.24962	0.14606	0.17003	0.0098816	-2.35	-2.7521	-3.475	-2.6729	-3.2917	-2.9417	-2.9521	-3.4458	-2.6375	-2.75	-3.4562	-2.5271	-3.1354	-3.1771	-2.5875	-3.4813	284.160	436.802	277.641	436.738	333.491	495.493	364.853	442.209	189.928	489.702	449.070	376.266	454.832	211.249	503.480	275.214	0.00082017	0.00088839	0.00020555	1345.2	3.2069e-06	4.532e-06	1349.3	366.33	4.4762e-06	4.7599e-06	416.69	139.58	121.67	41.498	1.4739e-06	51.501	0.00058235	0.00057579	0.00015573	1373.4	6.2459e-06	6.1656e-06	1373.2	373.4	6.2677e-06	6.1663e-06	425.62	142.94	124.3	42.809	6.3383e-06	53.061	508.772	237.686	254.120	167.221	235.981	309.692	167.299	171.804	314.326	314.647	171.318	175.259	176.007	181.143	313.684	179.834	-8191	255	
32032.814	1	1	0	0	0.18236	0.016197	0.31928	0.1849	0.31023	0.025745	0.64815	0.37012	0.22246	0.19738	0.35202	0.21333	0.0028205	0.19145	0.071167	0.019471	-2.5208	-2.6792	-3.3271	-2.7167	-3.0854	-3.2458	-2.6875	-3.4396	-2.8396	-2.7479	-3.3479	-2.6354	-3.1688	-3.2646	-2.575	-3.3	257.492	175.972	428.936	201.072	470.702	160.213	439.000	431.285	415.498	456.931	482.895	164.076	500.181	465.236	223.244	396.522	0.00078102	0.00072861	0.0001936	1353.6	4.0545e-06	2.7552e-06	1350.5	365.74	3.5295e-06	4.9978e-06	417.05	140.05	121.63	41.564	6.0696e-06	51.538	0.00058477	0.00056953	0.00015752	1377.3	6.3265e-06	6.2028e-06	1373.5	373.55	6.2369e-06	6.2125e-06	425.24	143.31	124.52	42.791	6.2461e-06	53.151	158.588	319.680	246.466	167.183	304.813	303.358	167.143	171.872	252.836	327.506	171.256	175.496	176.065	180.900	301.835	179.914	-8191	255	
32032.908	1	1	0	0	0.1057	0.29984	0.20028	0.28096	0.048098	0.10299	0.2467	0.063684	0.15436	0.21771	0.28118	0.081601	0.15202	0.12334	0.14151	0.15983	-2.4354	-2.8083	-3.2313	-2.8833	-3.075	-3.225	-2.7271	-3.4688	-2.8958	-2.4562	-3.2646	-2.7229	-2.925	-3.3438	-2.6792	-3.3792	456.952	270.336	466.738	455.218	340.275	372.729	496.143	380.641	380.135	337.691	490.847	494.573	175.621	438.270	192.027	159.718	0.00079916	0.00074165	0.0001095	1351.9	5.5709e-06	3.1679e-06	1351.3	367.41	4.8082e-06	5.9027e-06	417.75	139.86	122.03	41.493	7.1101e-06	51.211	0.00059168	0.0005733	0.00015769	1376.3	6.2516e-06	6.0986e-06	1373.2	373.67	6.3565e-06	6.2504e-06	426.41	142.86	124.59	42.859	6.2612e-06	53.001	156.193	236.393	243.785	167.450	275.376	289.413	167.144	171.795	252.660	299.627	171.462	175.437	176.044	181.363	247.621	179.915	-8191	255	
32033.006	1	1	0	0	0.19239	0.085872	0.044113	0.26325	0.21253	0.025896	0.09468	0.17982	0.072936	0.22275	0.31871	0.17787	0.062466	0.11595	0.093203	0.0086401	-2.5438	-2.5979	-3.4083	-2.9125	-2.975	-3.5312	-2.9958	-3.3479	-3.0396	-2.5958	-3.4625	-2.9688	-3.0125	-3.5333	-2.7646	-3.1333	462.150	460.519	194.247	486.338	441.933	324.582	410.832	470.232	461.558	383.574	154.604	162.112	496.521	360.511	280.341	365.055	0.00081528	0.00043168	0.00020854	1354	2.3349e-06	7.5142e-06	1347.2	367.35	6.1731e-06	2.6205e-06	416.67	140.28	121.81	41.603	1.1654e-06	51.354	0.00058957	0.00056292	0.0001572	1375.2	6.2527e-06	6.2517e-06	1373.6	373.65	6.2287e-06	6.2146e-06	426.07	142.96	124.53	42.888	6.2018e-06	53.095	159.600	270.197	245.176	167.100	334.809	303.255	167.131	171.690	287.460	239.418	171.200	175.067	175.774	180.706	405.799	180.012	-8191	255	
32033.102	1	1	0	0	0.15991	0.19858	0.1164	0.12371	0.2064	0.063696	0.40983	0.10745	0.045467	0.19393	0.18934	0.19224	0.15903	0.26561	0.090398	0.20059	-2.8333	-2.675	-3.2083	-2.9896	-2.6833	-3.3688	-2.7812	-3.1729	-2.9854	-2.6146	-3.4292	-3.1167	-2.7687	-3.4854	-2.7458	-3.0187	445.039	179.502	463.335	183.887	418.261	248.132	472.617	490.541	436.029	189.635	240.555	506.486	448.202	485.623	258.127	467.394	0.00080935	9.261e-05	0.00013372	1354.4	1.3269e-06	5.8415e-06	1357.1	366.48	5.9311e-06	4.509e-06	420.2	140.04	121.82	41.523	6.7602e-06	51.417	0.00057929	0.00056591	0.00015695	1377.1	6.136e-06	6.0925e-06	1375.8	373.67	6.1875e-06	6.25e-06	427.14	143.43	124.46	42.805	6.2513e-06	53.103	153.978	486.897	268.057	167.176	287.677	298.504	166.851	171.743	286.275	244.062	171.184	175.360	175.867	181.042	288.728	180.010	-8191	255	
32033.197	1	1	0	0	0.24436	0.21971	0.13071	0.25673	0.14557	0.097941	0.25618	0.31636	0.45302	0.077264	0.19365	0.29909	0.24139	0.12668	0.13853	0.29424	-2.7104	-2.6479	-3.0979	-3.1333	-2.6542	-3.1583	-3.1271	-3.1625	-3.2833	-2.6167	-3.2708	-3.1208	-2.8875	-3.4562	-2.7833	-2.8542	344.830	416.461	324.458	496.215	293.686	511.688	443.925	485.365	359.985	279.487	427.966	487.754	155.474	172.381	168.952	409.455	0.00077897	0.00067692	0.00016742	1356.1	6.9229e-06	8.2158e-06	1348.2	365.06	3.3747e-06	1.0384e-05	419.8	139.84	121.44	41.502	5.7442e-06	51.343	0.00058272	0.00057066	0.00015675	1377.3	6.1906e-06	6.1371e-06	1375.5	373.36	6.117e-06	6.1638e-06	427.93	142.99	124.23	42.796	6.3392e-06	53.021	159.281	229.079	231.733	167.237	283.028	320.420	166.829	171.908	296.350	323.886	171.176	175.326	176.077	180.725	279.976	180.002	-8191	255	
32033.293	1	1	0	0	0.17107	0.13727	0.053929	0.17946	0.16946	0.053691	0.42789	0.34686	0.088741	0.2221	0.080414	0.11132	0.15486	0.11299	0.16212	0.31959	-2.9354	-2.5458	-2.9479	-3.2271	-2.5	-3.2812	-2.8396	-2.8646	-3.3563	-2.5583	-3.1771	-3.2958	-2.6021	-3.2333	-2.8167	-2.775	266.852	377.660	372.108	470.818	294.556	291.560	465.754	474.673	429.687	404.803	492.954	159.550	466.644	467.465	245.152	432.869	0.00086558	0.00071742	0.00021119	1351.9	1.9945e-06	6.3202e-06	1354.7	366.45	4.3821e-06	4.748e-06	417.77	139.68	121.32	41.626	1.1157e-05	51.434	0.0005854	0.00056473	0.00015975	1373.8	6.1704e-06	6.0337e-06	1376.9	373.31	6.1551e-06	6.2362e-06	426.44	143.05	124.47	42.802	6.1868e-06	53.107	159.846	220.739	266.308	167.218	288.091	355.829	166.913	171.768	267.852	276.104	171.191	175.099	176.051	180.984	302.344	179.688	-8191	255	
32033.414	1	1	0	0	0.077812	0.11768	0.082964	0.12973	0.21382	0.013517	0.22447	0.11928	0.020713	0.16303	0.14857	0.32611	0.22281	0.11746	0.17801	0.32346	-2.9958	-2.775	-2.9896	-3.3521	-2.7479	-3.3729	-3.0792	-2.8583	-3.3542	-2.9083	-3.2333	-3.4292	-2.6771	-3.5438	-2.9875	-2.7208	255.758	157.841	285.289	448.994	372.189	213.969	469.798	489.896	336.818	314.379	431.756	161.156	444.333	444.195	326.198	477.340	0.00080345	1.0927e-05	0.00017651	1347.4	4.5821e-06	1.1465e-05	1354.9	366.59	4.9189e-06	7.1411e-06	419.18	140.71	121.59	41.628	5.3179e-06	51.328	0.0005791	0.00056151	0.00015682	1376.4	6.1853e-06	6.2387e-06	1379.3	373.62	6.1743e-06	6.2301e-06	427.16	143.4	124.56	42.831	6.1601e-06	53.098	155.515	312.580	269.435	167.282	274.213	319.917	166.777	171.945	277.554	300.765	171.471	175.183	175.948	181.050	346.992	180.358	-8191	255	
32033.510	1	1	0	0	0.060155	0.24964	0.17786	0.31343	0.13041	0.13725	0.20965	0.1751	0.22221	0.1208	0.19946	0.17416	0.043831	0.3375	0.1532	0.12049	-2.9188	-2.5271	-2.8396	-3.3396	-2.6063	-3.225	-3.2875	-2.8208	-3.5625	-2.6625	-2.9604	-3.5271	-2.6833	-3.1937	-2.9813	-2.6667	187.010	372.328	373.439	488.702	374.849	473.452	472.349	453.001	248.460	302.196	435.780	393.132	330.972	467.306	447.979	491.649	0.00077702	0.00063495	0.00014411	1350.3	4.3812e-06	1.245e-06	1350.2	365.54	3.3294e-06	5.559e-06	418.51	140.48	121.88	41.731	3.4427e-06	51.549	0.00057768	0.00057406	0.00015868	1376.5	6.1937e-06	6.17e-06	1376.8	373.43	6.0471e-06	6.2119e-06	427.16	143.01	124.34	42.89	6.1703e-06	53.075	512.293	252.965	253.620	167.380	289.263	510.505	166.857	171.888	253.081	324.848	171.164	175.063	175.887	180.838	314.853	180.045	-8191	255	
32033.605	1	1	0	0	0.073085	0.12886	0.20038	0.21645	0.23076	0.23985	0.39392	0.39752	0.17761	0.092043	0.071317	0.26472	0.078726	0.12808	0.11253	0.18855	-2.9062	-2.8479	-2.75	-3.3917	-2.6667	-3.1625	-3.3063	-2.6188	-3.1937	-2.8375	-2.7792	-3.3646	-2.7833	-3.2958	-3.2021	-2.6833	292.298	174.653	255.102	496.389	162.444	231.812	465.941	483.742	169.972	362.385	467.879	169.770	175.124	422.867	163.226	161.972	0.00082969	0.00054074	0.00014273	1356	4.8253e-06	3.8364e-06	1348.9	366.36	6.1407e-06	7.446e-06	418.15	139.68	121.91	41.673	7.1202e-06	51.642	0.00057641	0.00056254	0.00015457	1378.4	6.2137e-06	6.1839e-06	1376	373.73	6.1834e-06	6.2423e-06	426.21	143.12	124.4	42.855	6.1962e-06	53.11	161.692	271.467	216.562	167.265	252.194	218.274	166.818	171.844	259.723	306.591	171.130	175.165	175.674	180.996	304.759	179.865	-8191	255	
32033.678	1	1	0	0	0.31381	0.19935	0.15806	0.21596	0.028732	0.33628	0.35676	0.21003	0.11833	0.12221	0.292	0.23405	0.13606	0.15783	0.12009	0.014713	-2.9562	-2.9208	-2.6667	-3.6042	-2.7292	-2.8479	-3.5083	-2.7521	-3.1375	-3.0187	-2.8104	-3.4604	-2.7125	-3.0917	-3.35	-2.7208	375.290	383.343	157.621	427.704	430.993	253.994	428.896	463.568	438.990	373.105	480.909	181.693	183.279	464.908	434.906	386.328	0.00077252	0.000329	0.00023681	1350.3	4.9366e-06	3.9677e-06	1350.4	365.99	2.657e-06	3.3898e-06	416.58	139.88	122.41	41.678	5.0141e-06	51.391	0.0005724	0.00056623	0.00015422	1374.8	6.1363e-06	6.1467e-06	1375.3	373.21	6.1913e-06	6.1344e-06	426.49	143.24	124.76	42.847	6.1056e-06	53.082	160.837	312.080	260.429	167.175	314.491	316.863	166.900	171.940	253.857	279.035	171.329	175.303	175.986	181.098	306.824	180.011	-8191	255	
32033.797	1	1	0	0	0.13948	0.055405	0.18237	0.16048	0.13896	0.26443	0.16124	0.23418	0.075724	0.094111	0.45315	0.19059	0.022315	0.14654	0.055043	0.042943	-2.7375	-3.1479	-2.5021	-3.5	-2.6396	-3.0312	-3.5396	-2.75	-3.1958	-3.1708	-2.7417	-3.4979	-2.8896	-2.7396	-3.3542	-2.7562	481.234	465.178	457.384	177.619	483.334	321.681	505.223	466.168	290.447	178.254	496.332	471.689	472.921	192.801	236.240	486.815	0.00081608	0.00048888	0.00011327	1355.3	1.9774e-06	2.4531e-06	1353.5	366.69	4.5833e-06	3.587e-06	417.52	140.65	121.8	41.73	4.4193e-06	51.413	0.00058074	0.00056788	0.00015659	1378.1	6.0815e-06	6.1608e-06	1375.9	373.35	6.1272e-06	6.1106e-06	426.81	143.24	124.53	42.969	6.1541e-06	53.095	157.769	198.958	229.019	167.260	296.901	322.866	166.896	171.782	288.646	176.542	171.557	175.174	175.856	180.964	322.104	179.883	-8191	255	
32033.893	1	1	0	0	0.2354	0.19723	0.30668	0.23501	0.067065	0.1792	0.14297	0.095686	0.15571	0.12303	0.28891	0.11572	0.10298	0.22064	0.37672	0.25161	-2.6854	-3.0479	-2.6458	-3.6021	-2.75	-3.0292	-3.6396	-2.6917	-3.0062	-3.225	-2.7083	-3.4896	-3.1979	-2.85	-3.2646	-2.7521	237.520	421.579	362.726	429.455	392.825	428.158	464.337	234.706	453.040	325.995	382.904	155.615	186.328	400.152	455.979	446.303	0.00082132	0.00064384	0.00018123	1355.8	5.6594e-06	5.3336e-06	1353.2	366.43	6.062e-06	6.2737e-06	418.11	140.41	121.89	41.766	3.9967e-06	51.355	0.00057909	0.00056305	0.00015386	1379	6.2381e-06	6.0512e-06	1378.4	373.27	6.2171e-06	6.1358e-06	426.56	143.07	124.51	42.921	6.1246e-06	53.013	162.276	237.151	234.926	167.192	302.966	303.313	167.047	171.726	282.174	322.591	171.195	175.617	175.653	181.040	280.140	179.939	-8191	255	
32033.988	1	1	0	0	0.077041	0.11165	0.26915	0.1526	0.12811	0.11996	0.095998	0.30725	0.22042	0.24535	0.3217	0.27099	0.09889	0.27466	0.16492	0.14671	-2.8417	-3.1646	-2.6292	-3.4813	-2.9771	-2.7208	-3.7625	-2.8417	-3.0458	-3.2562	-2.6042	-3.4062	-3.2896	-2.7292	-3.4146	-3.0104	435.840	316.115	400.539	486.763	410.250	241.919	160.173	478.038	255.397	450.578	459.945	421.978	233.820	460.468	468.302	217.104	0.00079611	0.00057551	0.00017259	1356.6	4.1469e-06	8.1533e-06	1348.9	364.9	5.3461e-06	3.3638e-06	418.14	140.14	122.05	41.975	8.0982e-06	51.329	0.00057999	0.00055965	0.00015776	1378.8	6.1108e-06	6.1876e-06	1376.4	372.92	6.2083e-06	6.1432e-06	426.61	143.31	124.58	43.036	6.152e-06	53.027	158.086	260.764	208.605	167.266	276.928	288.932	166.787	171.696	301.105	335.716	171.157	175.399	175.749	180.749	292.720	179.790	-8191	255	
32034.086	1	1	0	0	0.23505	0.15228	0.092349	0.26652	0.12336	0.067442	0.25793	0.24002	0.13842	0.072355	0.22909	0.28404	0.30074	0.06982	0.10807	0.097639	-2.4396	-3.2583	-2.4708	-3.2333	-3.0292	-2.6542	-3.4875	-2.8271	-2.725	-3.4125	-2.8229	-3.1396	-3.0958	-2.6854	-3.4813	-3.075	364.601	191.317	348.313	462.731	208.522	467.029	155.345	499.689	375.784	196.611	437.010	471.140	162.060	479.329	457.497	197.587	0.00078981	0.00094141	0.00020236	1355.7	5.9176e-06	5.2067e-06	1350.1	367.56	6.3572e-06	2.5507e-06	416.05	140.17	121.32	41.57	6.5858e-06	51.571	0.00058352	0.00056178	0.00015959	1378.5	6.2524e-06	6.2314e-06	1377.2	374.26	6.2522e-06	6.1115e-06	426.05	143.02	124.3	42.869	6.2422e-06	53.132	158.697	196.067	204.680	167.328	287.397	347.044	166.804	171.636	246.576	247.599	171.250	175.035	175.826	180.747	312.147	180.074	-8191	255	
32034.182	1	1	0	0	0.13881	0.070397	0.13733	0.25515	0.070488	0.16541	0.11362	0.12642	0.13287	0.075399	0.3453	0.29972	0.069249	0.14565	0.17509	0.29531	-2.2125	-3.225	-2.6708	-3.2854	-3.1646	-2.4688	-3.5021	-3.1729	-2.6625	-3.4938	-2.5854	-3.1271	-3.4583	-2.6625	-3.2333	-3.1583	508.773	172.544	441.565	443.508	464.299	278.438	186.643	452.882	277.229	253.216	439.886	446.239	460.125	209.056	356.553	439.225	0.00085085	0.00096741	0.0002495	1356.5	5.8827e-06	2.5896e-06	1350.7	366.44	6.1516e-06	2.6082e-06	418.56	140.66	122.23	41.777	4.5665e-06	51.386	0.00058031	0.0005624	0.00015803	1380.3	6.1621e-06	6.1615e-06	1377.7	373.51	6.2913e-06	6.2173e-06	426.97	143.49	124.72	42.852	6.2545e-06	53.019	154.326	261.672	248.260	167.451	261.702	358.054	166.901	171.616	274.743	297.693	171.198	175.013	175.597	180.988	275.019	179.878	-8191	255	
32034.277	1	1	0	0	0.074083	0.02955	0.20317	0.084438	0.15154	0.20998	0.27987	0.35333	0.097635	0.16303	0.056773	0.10803	0.15066	0.19717	0.29539	0.10806	-2.3333	-3.3667	-2.6792	-3.125	-3.325	-2.7	-3.2542	-3.1125	-2.7521	-3.3708	-2.8917	-2.9938	-3.5563	-2.6125	-3.2229	-3.2812	422.446	449.174	275.310	512.261	320.184	195.611	464.926	464.240	323.512	507.080	168.709	503.271	445.192	339.318	274.353	368.842	0.00072792	0.00012546	7.578e-05	1360	5.1432e-06	5.0967e-06	1356.4	365.88	4.6724e-06	5.1106e-06	417.98	140.1	121.9	41.741	5.842e-06	51.438	0.00058669	0.00056931	0.00016146	1379.6	6.2242e-06	6.3942e-06	1379.8	373.52	6.2356e-06	6.1533e-06	426.51	143.3	124.56	42.979	6.2403e-06	53.005	156.260	223.985	260.080	167.311	271.598	319.316	166.989	171.545	284.595	319.272	171.158	175.455	176.090	180.873	268.150	179.957	-8191	255	
32034.373	1	1	0	0	0.1633	0.20056	0.099301	0.19744	0.1652	0.11784	0.19081	0.3164	0.044674	0.14649	0.062357	0.18612	0.063636	0.14807	0.095763	0.083544	-2.225	-3.3625	-2.6188	-3	-3.1771	-2.8271	-3.325	-3.4021	-2.5271	-3.2958	-3.0167	-2.8208	-3.4646	-2.7125	-2.9875	-3.3979	372.774	458.638	312.767	456.395	180.715	374.680	486.151	444.773	226.184	205.724	458.658	509.815	284.028	476.911	402.454	499.186	0.00084366	0.00095255	0.00021118	1352.1	2.4754e-06	3.0227e-06	1354	364.63	5.6354e-06	3.5295e-06	416.68	140.12	121.65	41.692	8.1776e-06	51.534	0.00058333	0.00057814	0.00016007	1378.1	6.2017e-06	6.2467e-06	1376.8	372.53	6.2844e-06	6.2528e-06	425.71	143.31	124.56	42.913	6.2696e-06	53.127	156.049	251.691	245.812	167.354	246.467	248.368	167.056	171.662	273.928	378.814	171.288	175.466	175.954	180.905	298.195	180.015	-8191	255	
32034.494	1	1	0	0	0.11917	0.044931	0.067141	0.41553	0.25999	0.26145	0.14123	0.24291	0.17438	0.34243	0.015476	0.16058	0.1058	0.26602	0.17783	0.30711	-1.9417	-3.2062	-2.9083	-2.8187	-3.3271	-2.5646	-3.1604	-3.3438	-2.5375	-3.2854	-3.2292	-2.7167	-3.3271	-2.7917	-2.775	-3.4083	409.759	225.012	485.269	154.400	302.599	353.503	457.512	457.546	198.936	369.411	376.138	428.889	308.549	510.117	280.321	283.548	0.0008014	0.00089619	0.00016002	1357	3.1108e-06	4.6284e-06	1359.2	367.32	7.6891e-06	6.4824e-06	415.96	140.24	122.07	41.574	5.168e-06	51.402	0.00058883	0.00057253	0.00015935	1380.1	6.2466e-06	6.3232e-06	1377.6	373.41	6.1662e-06	6.2105e-06	426.06	143.22	124.58	42.891	6.2966e-06	53.065	158.153	271.854	220.621	167.255	229.966	227.979	167.276	171.850	281.019	309.651	171.327	175.489	176.126	181.048	306.538	179.755	-8191	255	
32034.590	1	1	0	0	0.1847	0.15761	0.095416	0.37704	0.15228	0.16653	0.11834	0.08128	0.082856	0.23394	0.23996	0.10266	0.24925	0.32626	0.14765	0.23393	-2.0583	-3.1729	-3.1104	-2.8167	-3.3021	-2.7083	-3.0396	-3.3958	-2.5438	-3.2125	-3.4	-2.6854	-3.5646	-2.9167	-2.8563	-3.5208	300.629	186.558	352.358	423.848	359.448	159.905	490.227	344.763	456.422	351.978	441.222	254.155	425.282	459.118	379.215	493.684	0.00081683	0.00035406	0.00021384	1359.1	6.8955e-06	1.9314e-06	1358.1	366.59	5.2444e-06	4.1546e-06	417.3	140.36	121.9	41.449	4.2147e-06	51.458	0.00058572	0.00056959	0.00015896	1380	6.1401e-06	6.3298e-06	1377.8	373.58	6.2446e-06	6.1552e-06	426.34	143.4	124.58	42.852	6.1571e-06	53.066	157.882	282.526	216.138	167.318	269.748	330.362	167.224	171.696	295.909	272.826	171.141	175.568	175.940	181.153	304.630	180.142	-8191	255	
32034.688	1	1	0	0	0.12364	0.053388	0.048835	0.079362	0.19389	0.1248	0.096104	0.25097	0.14403	0.22735	0.2077	0.2901	0.18879	0.19539	0.18291	0.10883	-2.1854	-3.0354	-3.3	-2.9583	-3.3708	-2.8479	-2.9604	-3.5479	-2.7875	-3.1146	-3.4208	-2.6354	-3.4042	-3.0875	-2.7354	-3.4333	230.094	220.293	356.790	485.585	166.069	260.297	434.568	505.883	390.013	405.792	283.882	491.781	165.620	355.465	404.084	460.231	0.00080862	0.00090589	0.00019906	1353.7	2.9045e-06	1.3207e-06	1352.7	365.39	3.1098e-06	3.0356e-06	415.89	140.22	121.78	41.683	4.6969e-06	51.178	0.00059077	0.0005712	0.0001572	1375.4	6.1587e-06	6.2463e-06	1374.5	373.29	6.1883e-06	6.1557e-06	425.54	143.2	124.55	42.879	6.2569e-06	52.962	160.275	235.508	283.328	167.262	248.560	403.260	167.169	171.784	297.027	394.627	171.388	175.143	176.213	180.728	177.150	179.975	-8191	255	
32034.783	1	1	0	0	0.14633	0.11589	0.035183	0.11744	0.22378	0.25672	0.37707	0.21837	0.30086	0.094352	0.15023	0.31597	0.31115	0.26797	0.23111	0.09337	-2.3229	-2.7687	-3.3125	-2.9104	-3.175	-3.1188	-2.8125	-3.55	-2.7625	-2.9854	-3.4833	-2.7313	-3.2875	-3.1271	-2.6354	-3.3896	214.021	257.829	497.945	266.484	264.149	230.870	450.490	497.802	464.647	432.212	463.863	438.726	472.133	449.610	499.704	432.826	0.00070496	0.00045013	0.00014932	1352.7	2.1735e-06	5.0449e-06	1348.9	368.47	4.16e-06	8.6963e-06	417.04	139.92	121.43	41.596	3.435e-06	51.685	0.00057941	0.0005671	0.00015838	1375.3	6.1644e-06	6.1255e-06	1374.5	374.05	6.2552e-06	6.1385e-06	426.45	142.85	124.47	42.846	6.1594e-06	53.084	158.125	256.843	246.309	167.207	315.843	258.371	167.027	171.779	282.912	322.853	171.101	175.333	175.772	180.767	247.711	180.290	-8191	255	
32034.902	1	1	0	0	0.1327	0.17909	0.18409	0.27861	0.039913	0.071158	0.13502	0.080185	0.29333	0.12442	0.15717	0.2613	0.18792	0.12077	0.34361	0.24915	-2.2604	-2.6792	-3.375	-2.7833	-3.1	-3.1042	-2.875	-3.5771	-2.8187	-2.7583	-3.3958	-2.7167	-3.1521	-3.3438	-2.8792	-3.5583	348.924	512.748	491.978	472.239	477.995	509.458	413.282	456.005	165.092	497.219	405.706	472.582	510.098	401.856	433.259	369.878	0.00081622	0.00019957	0.00012696	1352.1	2.7618e-06	1.4062e-06	1348.3	365.74	6.4244e-06	2.2552e-06	417.27	140.1	121.79	41.768	7.0488e-06	51.491	0.00058045	0.00056336	0.00015473	1373.7	6.084e-06	6.1248e-06	1373	372.66	6.1688e-06	6.1064e-06	425.77	143.03	124.5	42.883	6.0536e-06	53.101	510.109	303.762	200.036	167.218	275.624	241.814	167.176	171.828	300.801	341.257	171.023	175.179	176.142	180.762	276.237	179.907	-8191	255	
32034.973	1	1	0	0	0.054034	0.051019	0.15075	0.15135	0.073512	0.27539	0.25375	0.26678	0.075927	0.24945	0.12001	0.15835	0.10431	0.093983	0.23761	0.079087	-2.5917	-2.7687	-3.4417	-2.9062	-3.1375	-3.2583	-2.7854	-3.4688	-2.8833	-2.825	-3.4375	-2.8937	-3.2292	-3.5208	-2.4792	-3.4938	343.355	312.632	206.600	481.354	322.740	287.707	393.597	458.811	474.528	168.053	450.974	494.238	457.411	426.151	298.962	418.787	0.00076736	0.00071326	0.00016388	1350.9	3.1608e-06	9.0334e-06	1350.8	366.83	2.9755e-06	5.68e-06	414.81	139.66	121.42	41.622	5.8986e-06	51.267	0.0005709	0.00055568	0.00015636	1373.2	6.177e-06	6.1227e-06	1373	373.23	6.0575e-06	6.1018e-06	425.69	142.96	124.24	42.819	6.2525e-06	53.031	155.353	252.777	238.491	167.283	366.378	281.835	166.971	171.657	269.192	305.293	171.178	175.306	176.074	180.822	279.087	179.898	-8191	255	
32035.094	1	1	0	0	0.134	0.085877	0.065228	0.24003	0.08853	0.065737	0.2151	0.34785	0.13339	0.15013	0.11566	0.13052	0.27469	0.22911	0.4167	0.11799	-2.5938	-2.6375	-3.2896	-2.8646	-2.8187	-3.3792	-2.8458	-3.4333	-3.2271	-2.7542	-3.5292	-2.9208	-3.0292	-3.5042	-2.4521	-3.3187	458.574	452.917	243.771	158.593	485.443	409.779	498.011	469.864	173.468	458.409	508.455	467.333	395.975	459.987	175.278	404.638	0.00085465	0.00057147	0.00010957	1355	1.0522e-06	5.3459e-06	1351.9	366.08	2.2762e-06	5.734e-06	419.12	139.72	121.57	41.613	5.4949e-06	51.307	0.00057558	0.0005561	0.00015487	1376.3	5.9917e-06	5.9218e-06	1375.1	373.6	6.0307e-06	6.1504e-06	425.74	143.03	124.33	42.748	6.1395e-06	53.031	155.822	214.141	203.400	167.190	355.443	379.778	167.152	171.609	290.337	287.035	171.397	175.167	175.928	181.122	229.964	179.998	-8191	255	
32035.189	1	1	0	0	0.12778	0.14251	0.14961	0.11533	0.13167	0.062549	0.51202	0.15074	0.14203	0.15784	0.11269	0.1225	0.27845	0.36873	0.15417	0.10901	-2.7167	-2.7333	-3.275	-2.975	-2.6667	-3.2479	-2.8	-3.3396	-3.1896	-2.6667	-3.575	-3.0417	-2.8542	-3.4958	-2.7667	-3.1854	200.876	396.188	244.218	466.037	450.426	378.636	432.812	462.059	402.399	490.392	162.085	213.269	424.170	409.832	303.932	443.200	0.00081456	0.00056549	6.3938e-05	1355.3	5.6345e-06	8.4159e-06	1352.3	366.04	8.1244e-06	3.6882e-06	418.24	140.45	121.57	41.666	6.6727e-06	51.301	0.00057912	0.00056397	0.00015734	1375.7	6.0944e-06	6.0912e-06	1374.4	373.35	6.1005e-06	5.9807e-06	426.39	142.96	124.35	42.825	6.1292e-06	52.98	158.282	291.091	233.852	167.337	285.811	320.243	167.084	171.772	263.387	341.129	171.387	175.142	176.056	181.251	286.085	179.929	-8191	255	
32035.285	1	1	0	0	0.28718	0.11288	0.10427	0.23587	0.096881	0.20287	0.10364	0.40212	0.3045	0.11246	0.1729	0.13633	0.11197	0.1108	0.10243	0.048241	-2.8146	-2.4354	-3.2708	-2.9479	-2.6229	-3.3438	-2.8604	-3.1667	-3.3104	-2.6896	-3.3917	-2.9917	-2.7917	-3.5271	-2.6063	-2.925	179.333	396.120	216.858	487.712	263.842	446.170	512.664	158.317	446.713	185.822	364.490	351.671	487.195	180.895	438.227	265.427	0.00069508	0.0004082	0.00013324	1352.5	4.7987e-06	7.0911e-06	1350.4	364.8	4.9025e-06	5.4853e-06	417.6	139.96	121.85	41.604	3.182e-06	51.509	0.00056561	0.00055909	0.00015335	1373.9	6.1137e-06	6.1169e-06	1374.3	372.91	6.0789e-06	6.1366e-06	426.13	143.01	124.5	42.911	6.0725e-06	53.109	159.151	232.025	216.994	167.322	300.176	323.240	167.074	171.693	262.636	259.498	171.236	175.110	175.887	180.817	286.627	180.079	-8191	255	
32035.383	1	1	0	0	0.031725	0.18893	0.054065	0.22321	0.025649	0.076951	0.13863	0.36592	0.29442	0.20891	0.38829	0.047138	0.07564	0.10309	0.16843	0.073248	-2.8708	-2.5146	-3.125	-3.3042	-2.7625	-3.3417	-2.9021	-2.8875	-3.2938	-2.6021	-3.475	-3.2479	-2.6937	-3.4437	-2.7458	-2.9396	449.014	281.074	447.423	472.955	274.065	182.142	358.381	490.290	372.206	383.342	456.750	427.945	402.918	433.383	462.649	500.635	0.00078789	0.00033776	0.00018427	1351.7	4.5534e-06	7.0512e-06	1351.2	366.27	3.9196e-06	4.1078e-06	418.07	140.21	121.57	41.739	3.809e-06	51.709	0.00056804	0.0005554	0.00015405	1374.7	6.0878e-06	6.1307e-06	1374.7	373.1	6.0196e-06	6.0899e-06	426.63	143.43	124.16	42.938	6.1744e-06	53.191	154.930	257.460	163.398	167.453	307.080	359.309	166.886	171.745	277.602	260.326	171.631	175.441	175.718	180.644	275.591	180.192	-8191	255	
32035.479	1	1	0	0	0.31921	0.15227	0.21165	0.085011	0.17522	0.1314	0.018884	0.069647	0.021146	0.20708	0.21657	0.1389	0.58838	0.22912	0.3139	0.063299	-2.9146	-2.4771	-3	-3.3229	-2.5458	-3.2938	-3.0979	-2.9396	-3.3417	-2.7271	-3.1562	-3.2792	-2.6562	-3.3542	-2.9729	-2.8583	390.584	256.676	241.645	380.890	180.206	199.026	388.806	430.162	193.223	460.369	478.955	505.294	503.958	487.005	412.431	324.307	0.00081808	0.00047431	0.00010557	1357.5	2.0352e-06	4.5329e-06	1355.3	365.79	1.2958e-06	3.6927e-06	416	140.05	122.05	41.636	4.1608e-06	51.661	0.00057165	0.00056012	0.00015734	1378.4	6.1671e-06	6.0112e-06	1376.5	373.38	6.0774e-06	6.23e-06	426.28	143.32	124.63	42.892	6.1639e-06	53.227	513.206	208.659	254.399	167.450	264.933	312.600	166.895	171.941	272.478	297.155	171.490	175.417	176.062	180.795	355.649	180.262	-8191	255	
32035.574	1	1	0	0	0.2081	0.094197	0.25113	0.22542	0.14481	0.15865	0.27466	0.10603	0.092748	0.34886	0.22027	0.22428	0.1675	0.17237	0.051103	0.14504	-2.8	-2.6979	-3.0208	-3.3792	-2.4792	-3.2396	-3.1458	-2.8042	-3.3417	-2.7167	-2.9583	-3.3583	-2.7438	-3.4354	-3.0687	-2.7583	174.735	334.871	490.470	155.746	306.399	303.860	409.299	489.372	182.107	248.864	432.991	441.485	182.093	486.051	446.359	462.855	0.00079405	0.00080079	0.00016492	1351.1	3.8644e-06	1.7668e-06	1352.4	367.95	5.386e-06	4.6685e-06	419.57	140.21	122.02	41.647	4.8495e-06	51.681	0.00057653	0.00057431	0.00015857	1377.7	6.302e-06	6.1824e-06	1377	374.24	6.1708e-06	6.217e-06	426.69	143.31	124.65	42.992	6.1681e-06	53.237	154.447	227.326	274.420	167.122	304.920	337.721	166.800	171.765	256.735	295.497	171.337	175.382	175.682	180.967	291.752	180.145	-8191	255	
32035.672	1	1	0	0	0.050095	0.088333	0.10863	0.33989	0.19597	0.38708	0.31795	0.17827	0.23715	0.25882	0.19876	0.34855	0.09459	0.21673	0.28934	0.36112	-3.2333	-2.7833	-3.0354	-3.45	-2.6417	-3.3104	-3.3	-2.7958	-3.0896	-3.05	-2.8375	-3.2792	-2.7646	-3.1333	-3.0333	-2.8104	281.632	489.702	357.527	500.395	307.330	283.422	468.761	407.205	302.900	507.588	161.768	474.461	490.532	184.644	499.517	441.160	0.00076516	0.00054691	0.0001301	1356.4	2.9082e-06	4.0526e-06	1358.2	367.71	5.779e-06	4.7635e-06	418.83	141.02	121.71	41.785	6.338e-06	51.828	0.00057592	0.00056308	0.00015522	1382.5	6.139e-06	6.098e-06	1379.9	374.76	6.076e-06	6.1682e-06	427.49	143.75	124.76	43.049	6.1559e-06	53.328	513.380	261.816	240.004	167.294	280.866	330.534	166.881	171.901	284.791	270.611	171.567	175.157	175.813	181.135	261.014	180.009	-8191	255	
32035.768	1	1	0	0	0.18346	0.12949	0.32576	0.11385	0.14509	0.33258	0.30272	0.1925	0.17177	0.10931	0.18406	0.25755	0.10609	0.10726	0.012129	0.14892	-2.9583	-2.7667	-2.475	-3.4521	-2.6437	-3.075	-3.5208	-2.6958	-3.2812	-3.075	-2.75	-3.4625	-2.75	-2.8375	-3.1229	-2.6667	157.687	246.958	429.940	475.591	257.890	429.287	434.779	431.628	338.685	190.379	224.292	394.077	409.912	388.769	214.910	467.756	0.00084984	0.00070005	0.00017459	1362.6	4.5578e-06	3.488e-06	1353.9	366.11	4.1323e-06	8.6961e-06	417.06	141.36	121.43	41.855	4.9794e-06	51.524	0.00057498	0.00056499	0.00015581	1384.5	6.2477e-06	6.1119e-06	1379.1	373.9	6.1794e-06	6.2431e-06	426.99	143.86	124.66	42.997	6.2239e-06	53.211	155.112	236.172	298.933	167.409	346.407	235.344	166.935	171.773	256.935	286.348	171.137	175.357	176.031	180.951	299.379	179.754	-8191	255	
32035.863	1	1	0	0	0.24881	0.24087	0.087801	0.25184	0.22529	0.19938	0.20937	0.11611	0.18433	0.25398	0.1898	0.049304	0.29273	0.135	0.083319	0.13883	-3.1146	-3.025	-2.4917	-3.5042	-2.6625	-2.7167	-3.4833	-2.7958	-3.3875	-2.9542	-2.8708	-3.6229	-2.8021	-2.9458	-3.3	-2.6875	198.779	457.027	414.415	173.070	206.591	429.073	479.476	200.700	266.000	324.913	471.417	482.483	453.394	370.037	218.165	342.717	0.00073592	0.00058174	0.00016621	1358.9	5.315e-06	2.2337e-06	1352.7	366.47	5.8142e-06	3.8599e-06	417.66	140.25	122.57	41.847	7.1066e-06	51.307	0.0005855	0.00057858	0.00016074	1383.3	6.3241e-06	6.2151e-06	1379.7	374.71	6.2411e-06	6.2877e-06	427.4	143.68	125	43.008	6.3186e-06	53.256	511.957	277.431	240.077	167.147	249.189	279.037	167.109	171.728	279.349	302.698	171.363	175.231	175.870	180.981	311.546	179.960	-8191	255	
32035.982	1	1	0	0	0.26214	0.32736	0.18211	0.18396	0.065907	0.15095	0.39295	0.22996	0.066853	0.040699	0.044503	0.10427	0.28291	0.19696	0.19009	0.1984	-2.7542	-3.2021	-2.55	-3.5917	-2.7313	-2.8729	-3.6417	-2.7875	-3.1688	-3.1896	-2.7833	-3.4375	-2.825	-2.9396	-3.3896	-2.7646	489.927	274.093	373.544	477.536	485.910	221.716	478.842	171.858	434.145	387.997	494.807	485.970	467.809	476.784	479.626	340.003	0.00069787	0.00046746	0.00013092	1358.8	4.3949e-06	3.4738e-06	1358.7	367.63	5.2271e-06	4.2318e-06	420.1	140.09	121.75	41.617	7.8041e-06	51.417	0.00059032	0.00056905	0.00015913	1384.2	6.2695e-06	6.164e-06	1383.1	374.88	6.3047e-06	6.2773e-06	427.77	143.73	124.8	42.986	6.2499e-06	53.168	155.982	234.633	289.437	167.413	235.026	294.595	166.987	171.791	248.576	262.380	171.367	175.232	175.891	180.723	253.374	180.023	-8191	255	
32036.078	1	1	0	0	0.12139	0.11865	0.10369	0.43286	0.063434	0.23512	0.27066	0.42022	0.20931	0.1234	0.19933	0.40575	0.16668	0.22303	0.277	0.31683	-2.6688	-3.2979	-2.55	-3.5646	-2.8875	-2.5229	-3.6396	-2.8646	-2.9646	-3.3292	-2.8	-3.2938	-3.0604	-2.6542	-3.475	-2.75	302.830	487.948	484.313	443.029	342.853	164.496	478.314	164.634	166.660	464.477	472.271	507.103	511.188	402.466	442.343	380.915	0.00083602	0.00048669	0.00012934	1364.2	2.5445e-06	4.083e-06	1356.3	367.1	5.5276e-06	5.5736e-06	418.21	140.39	121.99	41.871	8.8994e-06	51.607	0.00058927	0.00056476	0.00015894	1385.5	6.1722e-06	6.1751e-06	1383.6	374.32	6.3228e-06	6.2349e-06	427.78	143.8	124.7	43.019	6.3196e-06	53.206	158.668	269.511	241.008	167.307	277.576	305.621	166.864	171.731	269.297	288.851	171.449	175.310	175.583	180.983	286.003	179.740	-8191	255	
32036.174	1	1	0	0	0.30835	0.13132	0.24227	0.36674	0.065732	0.22516	0.15924	0.11924	0.15865	0.098952	0.047381	0.23007	0.18267	0.19904	0.13316	0.32468	-2.5	-3.3104	-2.5958	-3.1667	-3	-2.6063	-3.4458	-3.0458	-2.9313	-3.3583	-2.7354	-3.2	-3.2	-2.7396	-3.1688	-3.0896	242.373	386.858	324.334	445.536	344.398	465.883	173.597	360.262	202.519	335.733	220.284	456.304	462.745	154.718	436.834	165.982	0.00076684	0.00078338	0.00017039	1366.3	4.2982e-06	8.2009e-06	1355.2	366.18	4.294e-06	6.2105e-06	419.07	140.73	121.81	41.859	5.771e-06	51.357	0.00058089	0.0005715	0.0001589	1385.6	6.315e-06	6.261e-06	1380.5	374.29	6.2662e-06	6.1141e-06	428.08	143.9	124.81	43.036	6.1774e-06	53.185	160.030	245.948	204.284	167.270	267.161	304.206	166.909	171.800	291.931	290.970	170.991	175.435	175.995	180.709	299.690	179.758	-8191	255	
32036.270	1	1	0	0	0.31173	0.24174	0.2412	0.10891	0.11426	0.12435	0.17194	0.25469	0.24628	0.21846	0.16411	0.28701	0.39011	0.23432	0.38329	0.053947	-2.4917	-3.4917	-2.5771	-3.2438	-3.1042	-2.6458	-3.5563	-3.0583	-2.7062	-3.4396	-2.7812	-3.1479	-3.2604	-2.7292	-3.4146	-3.3063	163.892	307.532	356.956	353.326	336.303	315.568	487.224	451.177	369.720	243.099	410.588	177.999	470.196	341.257	392.611	374.360	0.00077897	0.00087666	0.00012214	1362.2	3.5694e-06	4.566e-06	1355.9	366.67	3.5386e-06	7.4021e-06	418.73	140.9	122.04	41.607	6.8943e-06	51.58	0.000585	0.00056998	0.00015838	1384.1	6.2426e-06	6.1135e-06	1382.6	374.7	6.171e-06	6.1936e-06	427.76	143.82	124.84	42.977	6.2215e-06	53.232	155.852	239.859	322.065	167.628	302.612	305.539	167.013	171.580	292.586	320.963	171.411	175.098	175.878	180.898	307.951	179.830	-8191	255	
32036.367	1	1	0	0	0.20194	0.11071	0.26205	0.22711	0.16107	0.080889	0.18505	0.22561	0.13535	0.067025	0.21965	0.30674	0.044183	0.083213	0.20066	0.091063	-2.4125	-3.3708	-2.7125	-3.2104	-3.3521	-2.6021	-3.3083	-3.025	-2.6896	-3.3104	-2.7854	-2.8688	-3.5187	-2.9646	-3.1479	-3.1521	408.105	188.684	371.499	486.455	266.911	350.779	429.096	496.411	469.906	324.823	425.934	454.092	509.174	388.169	195.438	345.966	0.00080206	0.00048	0.00013127	1359.6	2.2203e-06	3.4253e-06	1360.2	365.67	4.8704e-06	7.0366e-06	418.86	141.36	121.66	41.826	6.5272e-06	51.573	0.00058182	0.00056289	0.00015806	1384.2	6.2933e-06	6.3143e-06	1383.6	374.42	6.1776e-06	6.2473e-06	427.61	144.01	124.7	43.036	6.1901e-06	53.299	513.573	227.912	219.837	167.199	277.485	307.266	167.067	171.621	279.761	297.543	171.226	175.286	175.860	180.670	304.779	179.790	-8191	255	
32036.463	1	1	0	0	0.059052	0.094894	0.28302	0.099999	0.14146	0.15203	0.18598	0.20728	0.26503	0.17228	0.07207	0.022197	0.25444	0.25053	0.27363	0.12136	-2.1188	-3.5354	-2.7729	-3.0771	-3.4354	-2.7771	-3.4542	-3.3604	-2.575	-3.4667	-2.9437	-2.7083	-3.5042	-2.8354	-3.0187	-3.2854	192.232	505.490	236.305	217.349	274.423	452.007	167.436	447.652	373.108	468.263	157.795	363.922	448.453	502.419	353.904	505.443	0.00081339	0.00082785	9.4848e-05	1360	3.4762e-06	6.7978e-06	1358.6	366.69	3.2209e-06	3.8601e-06	419.15	140.1	122.11	41.923	5.5702e-06	51.351	0.00058211	0.00057246	0.00015805	1382.8	6.2145e-06	6.1726e-06	1384.5	375.13	6.2566e-06	6.2463e-06	427.9	143.46	124.89	43.088	6.193e-06	53.208	154.007	274.387	235.402	167.149	340.385	318.618	166.861	171.746	278.949	306.402	171.230	175.230	175.777	180.724	263.117	179.875	-8191	255	
32036.582	1	1	0	0	0.10335	0.14371	0.16298	0.16273	0.04022	0.20452	0.22932	0.40237	0.069094	0.11361	0.14599	0.28237	0.2869	0.059399	0.10627	0.17483	-2.2938	-3.1813	-2.9688	-2.8021	-3.4583	-2.5125	-3.3229	-3.3896	-2.5104	-3.3021	-2.925	-2.65	-3.3542	-2.7833	-2.9437	-3.2917	427.110	235.753	367.047	362.578	380.135	499.183	452.893	481.457	266.652	212.078	429.554	508.775	220.453	450.342	362.046	451.520	0.00081491	0.00061618	0.00017851	1360.9	5.5347e-06	2.8958e-06	1363.6	367.41	4.2413e-06	4.0603e-06	418.75	141.13	121.68	42.039	5.7491e-06	51.487	0.00058523	0.00055979	0.00016212	1385	6.2191e-06	6.2101e-06	1384.8	374.96	6.3301e-06	6.1392e-06	427.63	143.97	124.79	43.108	6.1443e-06	53.276	157.606	242.672	185.902	167.192	293.772	293.251	166.931	171.465	298.932	276.733	171.424	175.133	175.889	180.971	271.119	179.938	-8191	255	
32036.680	1	1	0	0	0.13043	0.089642	0.20073	0.174	0.24254	0.18576	0.29179	0.074983	0.056775	0.18958	0.27727	0.098253	0.31007	0.2408	0.24017	0.092717	-2.1312	-3.225	-2.85	-2.8271	-3.3646	-2.6833	-2.9396	-3.3625	-2.6625	-3.2396	-3.1646	-2.7417	-3.4208	-2.8688	-2.5312	-3.4833	333.672	205.354	362.617	198.990	463.435	438.429	490.615	453.002	235.708	244.881	156.783	413.183	162.974	502.023	172.890	487.523	0.00082552	0.00051078	0.00021371	1364.7	6.3533e-06	5.9425e-06	1361.8	367.38	4.2285e-06	3.1463e-06	418.23	140.74	122.37	41.786	2.3184e-06	51.517	0.00058685	0.00057991	0.00015698	1387.1	6.1481e-06	6.2628e-06	1383.7	374.86	6.331e-06	6.2469e-06	427.12	143.88	125	43.038	6.2069e-06	53.23	160.322	222.784	238.874	167.422	239.144	364.786	167.001	171.586	282.928	275.695	171.173	175.179	175.805	180.791	233.341	179.906	-8191	255	
32036.775	1	1	0	0	0.12858	0.10606	0.25022	0.021144	0.092389	0.049968	0.36954	0.28696	0.026574	0.22923	0.19119	0.12857	0.19332	0.204	0.19207	0.14201	-2.0812	-3.0917	-2.9021	-2.8833	-3.3021	-2.9	-2.95	-3.4562	-2.5604	-3.075	-3.2979	-2.5729	-3.3417	-2.8583	-2.8083	-3.3375	416.680	171.498	373.222	398.189	456.217	184.486	452.417	499.670	361.424	249.915	163.089	371.833	433.024	493.846	266.040	458.257	0.00083098	0.00031939	7.0119e-05	1360.8	6.5098e-06	7.6511e-06	1361.6	367.99	5.9796e-06	6.4182e-06	419.15	141.2	122.85	41.809	4.2482e-06	51.389	0.00058834	0.00056895	0.00015791	1386.2	6.1826e-06	6.1495e-06	1385.3	374.79	6.1848e-06	6.1829e-06	427.91	144.05	125.38	43	6.1219e-06	53.253	512.389	251.294	237.495	167.254	303.977	301.267	166.934	171.848	285.632	276.982	171.174	175.417	175.924	180.792	261.411	179.911	-8191	255	
32036.869	1	1	0	0	0.060546	0.095676	0.23424	0.41806	0.095105	0.13551	0.27949	0.16477	0.26979	0.038091	0.27603	0.23218	0.16315	0.12729	0.30748	0.10265	-2.1792	-2.9042	-3.125	-2.6167	-3.2562	-2.8729	-2.8354	-3.5792	-2.4771	-3.0729	-3.3438	-2.7021	-3.2562	-3.1208	-2.725	-3.4458	207.573	321.569	445.755	431.349	343.542	385.309	430.709	472.766	273.391	442.216	411.398	413.132	237.765	511.779	250.366	244.794	0.0007463	0.0002201	0.00011926	1361.8	6.618e-06	6.4144e-06	1365.6	367.59	2.2496e-06	4.2574e-06	416.41	140.55	122.19	41.983	5.9799e-06	51.616	0.00059053	0.00057082	0.00015816	1383.9	6.2362e-06	6.2696e-06	1384.8	374.82	6.2097e-06	6.2506e-06	427.35	143.73	125.13	43.093	6.1589e-06	53.322	158.210	264.502	258.138	167.246	320.843	315.979	167.117	171.533	297.017	314.543	171.070	174.935	176.285	180.803	274.944	179.903	-8191	255	
#DATA ENDS
