BOXY.EXE: ISS Imagent and Oximeter Data Acquisition Program Version 0.80
Ascii Record File

#ACQ INFORMATION
2  Detector Channels 
16  External MUX Channels 
1  Auxiliary Channels 
5000  Waveform (CCF) Frequency (Hz)
1  Waveforms Skipped 
30  Waveforms Averaged 
1  Cycles Averaged 
16  Acquisitions per Waveform 
10.0806  Updata Rate (Hz) 

#FILE INFORMATION
TRUE -- External MUX Channel results are PARSED.
FALSE -- AC DC and Phase are NOT grouped.
TRUE -- Companion Program Settings File CREATED.
FALSE -- AC data not excluded
FALSE -- DC data not excluded
FALSE -- Phase data not excluded
FALSE -- Auxillary Chn. data not excluded
Tab delimiters

#CALIBRATION STATE
TRUE -- Waveform Calibration Values APPLIED.


#AUX CALIBRATION VALUES
Val Type	aux-1	

Term	1.0000e+00	
Factor	0.0000e+00	


#WF CALIBRATION VALUES
A = Detector Channel
Val Type	A-AC1	A-AC2	A-AC3	A-AC4	A-AC5	A-AC6	A-AC7	A-AC8	A-AC9	A-AC10	A-AC11	A-AC12	A-AC13	A-AC14	A-AC15	A-AC16	A-DC1	A-DC2	A-DC3	A-DC4	A-DC5	A-DC6	A-DC7	A-DC8	A-DC9	A-DC10	A-DC11	A-DC12	A-DC13	A-DC14	A-DC15	A-DC16	A-Ph1	A-Ph2	A-Ph3	A-Ph4	A-Ph5	A-Ph6	A-Ph7	A-Ph8	A-Ph9	A-Ph10	A-Ph11	A-Ph12	A-Ph13	A-Ph14	A-Ph15	A-Ph16	

Term	0.00000e+00	0.00000e+00	0.00000e+00	0.00000e+00	0.00000e+00	0.00000e+00	0.00000e+00	0.00000e+00	0.00000e+00	0.00000e+00	0.00000e+00	0.00000e+00	0.00000e+00	0.00000e+00	0.00000e+00	0.00000e+00	0.00000e+00	0.00000e+00	0.00000e+00	0.00000e+00	0.00000e+00	0.00000e+00	0.00000e+00	0.00000e+00	0.00000e+00	0.00000e+00	0.00000e+00	0.00000e+00	0.00000e+00	0.00000e+00	0.00000e+00	0.00000e+00	0.00000e+00	0.00000e+00	0.00000e+00	0.00000e+00	0.00000e+00	0.00000e+00	0.00000e+00	0.00000e+00	0.00000e+00	0.00000e+00	0.00000e+00	0.00000e+00	0.00000e+00	0.00000e+00	0.00000e+00	0.00000e+00	
Factor	1.00000e+00	1.00000e+00	1.00000e+00	1.00000e+00	1.00000e+00	1.00000e+00	1.00000e+00	1.00000e+00	1.00000e+00	1.00000e+00	1.00000e+00	1.00000e+00	1.00000e+00	1.00000e+00	1.00000e+00	1.00000e+00	1.00000e+00	1.00000e+00	1.00000e+00	1.00000e+00	1.00000e+00	1.00000e+00	1.00000e+00	1.00000e+00	1.00000e+00	1.00000e+00	1.00000e+00	1.00000e+00	1.00000e+00	1.00000e+00	1.00000e+00	1.00000e+00	X	X	X	X	X	X	X	X	X	X	X	X	X	X	X	X	

B = Detector Channel
Val Type	B-AC1	B-AC2	B-AC3	B-AC4	B-AC5	B-AC6	B-AC7	B-AC8	B-AC9	B-AC10	B-AC11	B-AC12	B-AC13	B-AC14	B-AC15	B-AC16	B-DC1	B-DC2	B-DC3	B-DC4	B-DC5	B-DC6	B-DC7	B-DC8	B-DC9	B-DC10	B-DC11	B-DC12	B-DC13	B-DC14	B-DC15	B-DC16	B-Ph1	B-Ph2	B-Ph3	B-Ph4	B-Ph5	B-Ph6	B-Ph7	B-Ph8	B-Ph9	B-Ph10	B-Ph11	B-Ph12	B-Ph13	B-Ph14	B-Ph15	B-Ph16	

Term	0.00000e+00	0.00000e+00	0.00000e+00	0.00000e+00	0.00000e+00	0.00000e+00	0.00000e+00	0.00000e+00	0.00000e+00	0.00000e+00	0.00000e+00	0.00000e+00	0.00000e+00	0.00000e+00	0.00000e+00	0.00000e+00	0.00000e+00	0.00000e+00	0.00000e+00	0.00000e+00	0.00000e+00	0.00000e+00	0.00000e+00	0.00000e+00	0.00000e+00	0.00000e+00	0.00000e+00	0.00000e+00	0.00000e+00	0.00000e+00	0.00000e+00	0.00000e+00	-1.12232e+02	-1.31493e+02	-1.26301e+02	-1.82925e+02	-6.61961e+01	-6.93729e+01	-1.56697e+02	-1.62015e+02	-6.64507e+01	-6.47760e+01	-1.69789e+02	-1.71884e+02	-1.87016e+02	-1.77077e+02	-6.21522e+01	-1.49516e+02	
Factor	1.55884e-05	1.50606e-04	4.28834e-05	2.77585e-01	1.30341e-06	1.75495e-06	1.60847e-01	4.74421e-02	1.05426e-06	1.60286e-06	8.23926e-02	2.73325e-02	3.04750e-02	8.53322e-03	1.33339e-06	1.20591e-02	1.05579e-05	1.86671e-05	5.21731e-06	1.46876e-01	1.94660e-07	2.09585e-07	8.03013e-02	2.53644e-02	1.85624e-07	2.07253e-07	4.25778e-02	1.42240e-02	1.63516e-02	4.59333e-03	1.96714e-07	6.29039e-03	X	X	X	X	X	X	X	X	X	X	X	X	X	X	X	X	



#DISTANCE SETTINGS
A = Detector Channel
A-1	A-2	A-3	A-4	A-5	A-6	A-7	A-8	A-9	A-10	A-11	A-12	A-13	A-14	A-15	A-16	

2.5000e+00	3.0000e+00	2.5000e+00	3.0000e+00	2.0000e+00	3.0000e+00	1.5000e+00	3.0000e+00	3.0000e+00	3.0000e+00	3.0000e+00	3.0000e+00	3.0000e+00	3.0000e+00	1.5000e+00	3.0000e+00	

B = Detector Channel
B-1	B-2	B-3	B-4	B-5	B-6	B-7	B-8	B-9	B-10	B-11	B-12	B-13	B-14	B-15	B-16	

1.0000e+01	1.0000e+01	1.0000e+01	1.4400e+00	1.0000e+01	1.0000e+01	1.5100e+00	1.9400e+00	1.0000e+01	1.0000e+01	1.9900e+00	2.4900e+00	2.4100e+00	2.9000e+00	1.0000e+01	2.9800e+00	




#DATA BEGINS
time	group	step	mark	flag	A-AC1	A-AC2	A-AC3	A-AC4	A-AC5	A-AC6	A-AC7	A-AC8	A-AC9	A-AC10	A-AC11	A-AC12	A-AC13	A-AC14	A-AC15	A-AC16	A-DC1	A-DC2	A-DC3	A-DC4	A-DC5	A-DC6	A-DC7	A-DC8	A-DC9	A-DC10	A-DC11	A-DC12	A-DC13	A-DC14	A-DC15	A-DC16	A-Ph1	A-Ph2	A-Ph3	A-Ph4	A-Ph5	A-Ph6	A-Ph7	A-Ph8	A-Ph9	A-Ph10	A-Ph11	A-Ph12	A-Ph13	A-Ph14	A-Ph15	A-Ph16	B-AC1	B-AC2	B-AC3	B-AC4	B-AC5	B-AC6	B-AC7	B-AC8	B-AC9	B-AC10	B-AC11	B-AC12	B-AC13	B-AC14	B-AC15	B-AC16	B-DC1	B-DC2	B-DC3	B-DC4	B-DC5	B-DC6	B-DC7	B-DC8	B-DC9	B-DC10	B-DC11	B-DC12	B-DC13	B-DC14	B-DC15	B-DC16	B-Ph1	B-Ph2	B-Ph3	B-Ph4	B-Ph5	B-Ph6	B-Ph7	B-Ph8	B-Ph9	B-Ph10	B-Ph11	B-Ph12	B-Ph13	B-Ph14	B-Ph15	B-Ph16	aux-1	digaux	

683.925	1	1	0	256	0.12967	0.17846	0.036543	0.18121	0.24355	0.28475	0.19474	0.13691	0.13006	0.10363	0.14384	0.18637	0.18908	0.16238	0.070057	0.050761	0.13958	0.45	-0.0625	0.09375	0.44583	-0.12292	0.039583	0.26042	0.020833	0.78542	-0.09375	-0.11458	0.53542	-0.31042	0.38333	0.67292	98.422	17.249	136.987	186.437	-22.164	40.632	-102.865	229.520	3.675	199.320	-80.848	95.394	43.557	-97.768	218.206	198.404	0.00011521	0.00019512	6.4626e-05	1132.3	1.5315e-06	3.6305e-06	1205.1	233.25	1.9528e-06	2.3944e-06	299.43	82.633	65.384	18.994	2.9595e-06	26.354	0.00018237	0.00020744	5.7325e-05	1106.5	2.4053e-06	2.1714e-06	1190.1	231.5	2.2758e-06	2.1425e-06	295.41	83.129	65.759	19.04	2.0675e-06	26.486	221.384	-17.331	-20.020	-115.338	14.413	18.343	-115.164	-107.955	-30.109	41.280	-108.121	-101.494	-101.123	-93.631	17.612	-93.951	-8191	255	
684.022	1	1	0	0	0.25917	0.23579	0.17835	0.24559	0.23574	0.13437	0.18918	0.085759	0.40398	0.29943	0.275	0.2618	0.082708	0.014295	0.13904	0.065641	0.2	0.64583	0.0625	0.010417	0.76875	-0.16667	-0.06875	0.4625	-0.23958	0.54167	0.12292	-0.12292	0.67292	-0.27083	0.066667	0.575	-58.582	99.254	-52.645	149.220	141.359	5.674	81.260	-78.860	91.804	184.147	176.379	222.143	126.479	112.741	-122.064	27.515	0.00011298	0.00032565	6.9999e-05	1136.3	2.4256e-06	4.2261e-06	1214.6	235.3	2.1826e-06	3.1253e-06	299.85	82.489	65.084	19.007	2.1828e-06	26.19	0.00018978	0.00020806	5.326e-05	1108	2.2398e-06	2.0688e-06	1193.3	232.04	2.422e-06	2.2159e-06	295.87	83.019	65.454	19.034	2.1466e-06	26.502	224.289	-46.772	-43.376	-115.468	21.123	-3.901	-114.954	-107.821	10.770	31.921	-107.699	-101.657	-101.017	-93.577	57.079	-94.075	-8191	255	
684.118	1	1	0	0	0.14837	0.16504	0.22778	0.20897	0.02566	0.094743	0.17812	0.065121	0.1978	0.17332	0.12889	0.46126	0.1073	0.059507	0.17906	0.12663	0.09375	0.51875	0.22708	-0.23125	0.67917	-0.020833	-0.1125	0.53333	-0.31458	0.5	0.34375	-0.097917	0.67708	-0.14375	0.097917	0.45625	137.523	209.177	131.230	-105.657	-84.848	188.409	130.603	102.010	30.193	73.771	146.391	-34.716	221.371	179.651	197.658	-75.484	0.00010286	0.00033316	7.2446e-05	1132.7	3.2335e-06	2.4521e-06	1215.9	234.36	1.1651e-06	3.8131e-06	297.77	82.403	65.326	18.845	2.7167e-06	26.327	0.00018479	0.0002072	5.6977e-05	1106	2.3339e-06	2.0749e-06	1193.6	232.06	2.2762e-06	2.2133e-06	295.37	83.165	65.847	19.068	2.2925e-06	26.581	219.006	-54.344	-40.317	-115.246	17.112	12.228	-114.789	-107.568	-6.041	34.029	-107.928	-101.355	-100.948	-93.423	25.645	-94.040	-8191	255	
684.214	1	1	0	0	0.24365	0.18178	0.21521	0.089046	0.21195	0.18108	0.57303	0.31909	0.14075	0.17513	0.48235	0.064955	0.16999	0.1139	0.099597	0.21386	0.17917	0.25	0.25833	-0.375	0.40208	-0.12292	-0.35625	0.425	-0.51458	0.42083	0.40417	-0.275	0.42708	0.15	-0.14583	0.43958	-77.313	125.730	166.433	-73.523	-59.535	226.544	164.568	-83.792	218.997	-25.662	196.357	-28.698	198.311	-70.323	-13.743	169.126	0.00012565	0.00029545	8.5113e-05	1131.8	1.5304e-06	4.1984e-06	1210.6	234.87	1.8179e-06	2.0797e-06	299.6	82.195	65.964	18.941	3.0117e-06	26.097	0.000194	0.00019877	5.5173e-05	1105.3	2.4118e-06	2.188e-06	1193.4	232.39	2.359e-06	2.1282e-06	295.44	83.335	65.755	19.02	2.1077e-06	26.501	219.012	-5.645	-50.631	-115.681	7.729	11.011	-115.133	-107.698	7.562	56.390	-107.951	-101.508	-101.628	-93.524	18.988	-94.080	-8191	255	
684.333	1	1	0	0	0.09876	0.24473	0.31571	0.30555	0.16993	0.06644	0.31296	0.12524	0.14816	0.26837	0.044124	0.16318	0.20379	0.33573	0.24442	0.20423	0.19583	0.15833	0.41667	-0.39167	0.54375	0.14792	-0.24792	0.56042	-0.052083	0.01875	0.5625	-0.11042	0.44792	0.36875	-0.0875	0.69792	59.776	53.619	155.903	231.323	207.750	161.294	183.623	214.945	55.783	116.982	74.653	67.993	203.182	233.537	104.834	115.438	0.00011101	0.00029656	8.6147e-05	1132.5	1.625e-06	1.6031e-06	1205.8	234.14	1.61e-06	2.822e-06	299.27	82.244	65.526	19.104	2.744e-06	26.402	0.00018608	0.00019441	5.7803e-05	1108.6	2.2597e-06	2.0871e-06	1192.1	232.24	2.301e-06	2.079e-06	295.65	83.225	65.877	19.104	2.1507e-06	26.614	221.079	-31.132	-10.760	-115.450	41.389	6.923	-114.903	-107.823	-60.333	37.727	-107.931	-101.761	-101.038	-93.413	18.980	-94.121	-8191	255	
684.429	1	1	0	0	0.24723	0.058032	0.26765	0.16542	0.16415	0.13752	0.33617	0.096122	0.28603	0.16948	0.066324	0.34972	0.32265	0.16657	0.1471	0.17674	0.3875	-0.029167	0.70625	-0.52292	0.57292	0.23542	-0.51667	0.70208	-0.077083	-0.0020833	0.49167	-0.21875	0.45625	0.30833	-0.21667	0.3375	-33.875	-80.972	49.981	-98.669	218.365	83.026	200.387	14.349	204.856	58.344	-70.832	181.682	143.415	150.196	103.839	-59.120	0.00011122	0.00018973	6.1471e-05	1130.5	2.047e-06	2.0377e-06	1216	235.46	2.0269e-06	3.3614e-06	300.86	82.533	65.18	18.854	3.3697e-06	26.279	0.00017764	0.00019099	5.5064e-05	1109	2.299e-06	2.036e-06	1194.8	232.78	2.3072e-06	2.0116e-06	296.01	83.188	65.716	19.011	2.143e-06	26.507	227.111	-38.432	-8.681	-114.637	10.606	40.472	-114.764	-107.853	2.942	40.813	-107.823	-101.789	-100.497	-93.310	53.638	-93.866	-8191	255	
684.502	1	1	0	0	0.20425	0.19586	0.1774	0.16558	0.14558	0.099312	0.059688	0.067893	0.21367	0.15153	0.05669	0.25598	0.10275	0.20038	0.23238	0.17029	0.39167	-0.17083	0.52708	-0.50208	0.27708	0.27917	-0.47708	0.41042	-0.05625	-0.25208	0.575	-0.44167	0.0020833	0.43542	-0.27917	0.45625	35.328	14.411	-101.889	-111.432	202.756	-119.894	-8.430	177.094	170.684	-75.386	-60.852	136.843	-91.227	157.097	114.381	178.224	0.00012823	0.00036942	9.0438e-05	1132.8	2.0606e-06	4.2674e-06	1209.6	234.46	1.6075e-06	1.8198e-06	297.22	82.363	64.821	18.812	1.5849e-06	26.171	0.00018949	0.00017555	5.3532e-05	1109.3	2.237e-06	2.1382e-06	1194.1	232.71	2.231e-06	1.8882e-06	295.3	83.417	65.536	18.99	1.9614e-06	26.553	221.643	-38.069	-46.683	-114.734	8.479	26.430	-114.904	-107.406	-21.485	28.232	-107.872	-101.529	-100.822	-93.293	22.654	-93.862	-8191	255	
684.621	1	1	0	0	0.15283	0.20054	0.0097051	0.2225	0.054593	0.29978	0.041746	0.13273	0.081636	0.16238	0.10457	0.18519	0.11652	0.18541	0.20279	0.043803	0.66667	-0.18333	0.60417	-0.16042	0.10625	0.36042	-0.45208	0.39167	0.22917	-0.29167	0.45208	0.027083	-0.052083	0.4625	-0.25417	0.43958	-59.423	-36.406	-108.210	171.542	-116.924	169.562	-63.643	82.585	-35.467	78.929	195.023	-12.467	39.365	-52.594	50.875	130.176	0.00011815	0.00027853	8.7441e-05	1126.2	2.2554e-06	2.136e-06	1204.5	233.98	1.5457e-06	4.3904e-06	295.72	82.487	65.157	18.878	2.3795e-06	26.343	0.00019002	0.00017656	5.3249e-05	1108.5	2.181e-06	2.1007e-06	1192.6	232.16	2.1741e-06	1.8856e-06	294.68	83.328	65.718	18.997	2.1114e-06	26.581	222.338	-40.983	-14.607	-115.026	12.038	20.656	-114.618	-107.264	-9.715	31.870	-107.635	-101.038	-100.567	-93.175	18.826	-93.999	-8191	255	
684.717	1	1	0	0	0.14864	0.18329	0.038825	0.37765	0.1578	0.12692	0.29948	0.090829	0.10744	0.033442	0.17592	0.42096	0.1852	0.34424	0.18983	0.12613	0.69583	-0.125	0.525	0.06875	-0.058333	0.57083	-0.28958	0.28958	0.29375	-0.2625	0.38958	-0.24583	-0.03125	0.61042	-0.20417	0.31667	65.106	172.357	138.786	232.793	113.607	-68.898	232.654	191.535	-85.003	54.378	-84.160	204.778	-100.570	181.793	200.254	148.659	0.00012746	0.00024685	9.9336e-05	1132.4	2.1415e-06	3.8907e-06	1209.5	234.21	1.6172e-06	3.8011e-06	298.24	82.759	64.593	18.784	2.1376e-06	26.032	0.0001964	0.00016695	5.1282e-05	1109.8	2.1194e-06	1.9954e-06	1193.5	232.52	2.2004e-06	1.8312e-06	295.26	83.518	65.68	18.991	2.0733e-06	26.466	221.528	-19.557	-35.439	-115.418	28.228	15.277	-114.855	-107.746	-6.455	38.293	-107.761	-101.378	-100.963	-93.554	10.150	-94.193	-8191	255	
684.813	1	1	0	0	0.18395	0.11794	0.23701	0.29641	0.23514	0.2418	0.34781	0.13458	0.30028	0.012264	0.089957	0.069321	0.17436	0.11629	0.063139	0.02655	0.84792	-0.26042	0.54167	0.075	-0.13958	0.7875	-0.47708	0.072917	0.54583	-0.38958	0.48333	0.11875	-0.13333	0.6625	-0.30833	0.027083	127.135	140.428	-14.268	163.201	175.009	-63.960	173.893	127.311	-56.895	-6.131	127.975	198.388	85.820	-114.271	-1.277	35.018	0.00011913	0.00031027	7.8516e-05	1123.8	1.9285e-06	3.4824e-06	1193.6	228.95	1.0928e-06	2.5877e-06	300.71	83.36	65.598	19.009	1.8624e-06	26.363	0.00018767	0.00019192	5.2238e-05	1106.3	1.949e-06	2.0325e-06	1189.4	230.75	2.2391e-06	1.9141e-06	295.14	83.299	65.889	19.038	1.9262e-06	26.568	222.176	-53.112	-39.399	-115.538	18.010	14.454	-115.098	-108.666	-10.449	27.799	-107.938	-101.224	-100.874	-93.403	38.650	-93.907	-8191	255	
684.934	1	1	0	0	0.23334	0.33887	0.24089	0.27989	0.15215	0.087251	0.3991	0.19927	0.20106	0.21585	0.066298	0.27079	0.16268	0.14132	0.2182	0.18273	0.76667	-0.14792	0.37292	0.10208	-0.29583	0.51667	-0.06875	-0.066667	0.6	-0.26667	0.2875	0.29792	-0.24167	0.625	0.0125	-0.17708	22.254	153.235	128.069	141.093	-28.643	190.942	143.925	232.698	60.314	222.625	150.660	215.424	43.896	193.555	-109.063	105.571	0.00010753	0.00024016	0.00010388	1143.8	2.0129e-06	3.1033e-06	1211.4	235.26	1.9292e-06	2.7095e-06	299.6	83.383	65.73	19.134	2.9057e-06	26.662	0.00018701	0.00018461	5.2151e-05	1109.1	2.0273e-06	2.06e-06	1189.9	231.94	2.1819e-06	1.9214e-06	295.24	83.104	65.847	19.064	1.9655e-06	26.543	222.565	-34.112	-51.231	-114.861	30.166	16.902	-114.584	-107.523	-20.255	34.784	-107.741	-101.332	-100.879	-93.060	28.264	-93.825	-8191	255	
685.030	1	1	0	0	0.11175	0.22408	0.15674	0.1275	0.15996	0.19387	0.3687	0.2517	0.11538	0.22997	0.11575	0.19318	0.16352	0.21718	0.25628	0.13407	0.90208	-0.0625	0.35417	0.375	-0.1625	0.33125	-0.025	-0.095833	0.59583	-0.09375	0.175	0.24583	-0.47292	0.35625	0.091667	0.022917	103.167	-87.055	-102.916	48.808	65.545	-71.312	193.954	222.950	-10.382	-75.233	133.088	181.591	207.297	188.156	-7.958	3.572	0.00011665	0.00035402	7.5279e-05	1129.2	1.4843e-06	2.8824e-06	1221	235.72	2.1858e-06	4.1404e-06	299.71	82.595	65.427	19.143	2.5769e-06	26.475	0.00018701	0.0001766	4.688e-05	1101.5	1.8627e-06	2.0011e-06	1194	231.73	2.1571e-06	1.7824e-06	295.01	83.176	65.682	19.017	2.0073e-06	26.541	218.923	-42.847	-29.762	-114.960	5.319	17.639	-114.610	-107.700	-19.659	55.583	-107.444	-101.341	-100.643	-93.517	15.321	-93.535	-8191	255	
685.102	1	1	0	0	0.19532	0.15432	0.20326	0.1584	0.16511	0.19193	0.1631	0.23145	0.16418	0.233	0.084309	0.23087	0.35501	0.36185	0.07152	0.18291	1.1417	-0.1625	0.30833	0.43125	-0.21875	0.33542	0.0125	-0.16875	0.72917	-0.091667	0.010417	0.39583	-0.29167	0.46042	0.35	-0.31667	-82.554	-60.417	20.713	-111.556	18.949	-67.902	11.181	207.041	-56.634	-5.491	116.765	207.096	190.324	-49.436	157.006	-10.759	0.00011135	0.00032067	8.7153e-05	1136.6	1.6989e-06	3.4521e-06	1216.5	235.76	2.0051e-06	2.835e-06	298.86	84.044	66.093	19.18	1.4983e-06	26.413	0.00017849	0.0001633	4.763e-05	1107.3	2.007e-06	2.0596e-06	1192.3	232.41	2.2124e-06	1.848e-06	294.67	83.612	65.857	19.079	2.1024e-06	26.513	224.244	-41.847	-52.071	-114.674	4.071	23.113	-114.622	-107.680	-11.108	32.511	-108.084	-101.123	-101.122	-92.830	18.472	-93.820	-8191	255	
685.223	1	1	0	0	0.16022	0.20196	0.13839	0.12688	0.21321	0.13754	0.28152	0.28644	0.091574	0.11472	0.031657	0.10856	0.071463	0.16687	0.17939	0.18824	1	0.075	0.089583	0.57083	-0.22292	0.23333	0.10625	-0.22292	0.525	-0.091667	-0.097917	0.56458	-0.13333	0.38958	0.42708	-0.26458	141.452	-6.292	158.735	-123.813	-111.994	-61.985	104.301	192.530	77.805	100.632	-40.946	-77.105	-102.608	144.364	161.189	196.265	0.00011585	0.00027441	0.00010121	1139.9	3.1725e-06	3.3232e-06	1219.1	235.28	1.7751e-06	2.7685e-06	298.54	83.26	66.24	19.115	1.8765e-06	26.67	0.00019215	0.0001715	4.888e-05	1107.5	2.1056e-06	2.0334e-06	1194.3	232.6	2.3126e-06	2.0548e-06	295.21	83.45	65.917	19	2.1864e-06	26.58	224.139	-25.820	-35.006	-114.835	15.050	14.588	-114.424	-107.662	-20.684	4.014	-107.648	-100.935	-100.658	-93.092	6.266	-93.733	-8191	255	
685.317	1	1	0	0	0.25872	0.13121	0.19962	0.22256	0.30351	0.24268	0.36327	0.11083	0.10675	0.14102	0.10842	0.17083	0.19879	0.14676	0.053398	0.13982	1.0125	-0.014583	-0.05625	0.45625	0.00625	0.17083	0.53542	-0.24375	0.34792	0.22708	-0.325	0.44375	-0.28542	0.079167	0.59375	-0.34167	223.461	15.892	-123.209	171.273	79.210	-100.635	124.371	101.246	160.883	9.210	216.849	-116.988	-56.761	-80.831	-103.350	-57.407	0.00011337	0.00041332	3.886e-05	1136.1	3.3396e-06	2.3736e-06	1220.1	235.43	2.1676e-06	2.9458e-06	300.9	83.324	66.266	19.007	2.2817e-06	26.463	0.00018408	0.00018566	4.988e-05	1108	2.0841e-06	1.9539e-06	1197.2	232.46	2.2519e-06	2.0427e-06	295.01	83.201	66.036	18.963	2.2093e-06	26.574	218.933	-33.270	-54.624	-114.807	-7.388	11.853	-114.562	-107.632	-32.178	32.214	-107.713	-101.302	-100.933	-93.223	29.744	-93.701	-8191	255	
685.413	1	1	0	0	0.31184	0.19831	0.21253	0.26202	0.23104	0.094069	0.0642	0.13746	0.11996	0.061973	0.16223	0.13359	0.4969	0.18987	0.11408	0.10211	0.76042	0.30625	-0.1625	0.49167	-0.054167	-0.15833	0.25208	-0.3625	0.35417	0.375	-0.44167	0.60625	-0.095833	-0.14583	0.3875	-0.3	95.324	-112.140	119.138	188.931	-111.552	178.365	159.655	138.956	-112.537	80.624	85.216	122.423	-89.091	229.723	158.802	224.979	0.00011008	0.00036012	9.8954e-05	1138.2	2.3268e-06	2.3179e-06	1222.2	235.32	1.8412e-06	2.8032e-06	301.87	83.129	66.029	18.991	2.8606e-06	26.274	0.00018674	0.00019192	4.8901e-05	1107.5	2.2354e-06	1.9679e-06	1197.3	232.51	2.0933e-06	1.9184e-06	295.52	83.275	65.94	18.979	2.179e-06	26.474	213.198	-31.864	-27.928	-114.717	1.213	32.478	-114.153	-107.573	-33.209	18.763	-107.400	-101.330	-100.465	-93.076	20.248	-93.482	-8191	255	
685.509	1	1	0	0	0.11009	0.21914	0.051089	0.12783	0.24489	0.12796	0.15578	0.066245	0.12847	0.079003	0.045781	0.097709	0.15724	0.016495	0.082834	0.26739	0.48958	0.33542	-0.2125	0.44792	-0.1375	0.064583	0.18125	-0.32083	0.29167	0.3	-0.35208	0.53333	0.060417	-0.21667	0.54583	-0.34375	233.259	52.514	-98.011	-79.285	-86.043	5.919	97.261	58.413	194.750	234.529	-63.365	191.567	-88.217	-97.394	141.705	139.998	0.00012501	0.00033778	6.9305e-05	1136.5	1.805e-06	3.8863e-06	1222.6	238.12	2.0707e-06	3.4239e-06	298.56	83.38	65.748	19.084	2.1762e-06	26.586	0.00018402	0.00018461	4.8195e-05	1107.2	2.1153e-06	1.9408e-06	1197.2	233.37	2.1428e-06	2.0091e-06	295.42	83.33	65.866	19.01	2.211e-06	26.629	223.607	-45.275	-57.251	-114.528	-4.650	17.725	-114.244	-107.291	4.395	51.321	-107.721	-100.568	-100.638	-93.282	6.517	-93.181	-8191	255	
685.630	1	1	0	0	0.15882	0.071824	0.061624	0.35754	0.17429	0.074695	0.22355	0.11558	0.060694	0.12179	0.16991	0.13678	0.28585	0.20016	0.22261	0.19772	0.47292	0.47292	-0.26042	0.35	0.15417	-0.06875	0.38125	-0.31042	0.31458	0.45833	-0.41042	0.42292	0.11458	-0.25417	0.7875	-0.08125	-30.223	46.864	0.105	155.909	101.344	-29.638	154.995	-18.446	20.430	-71.840	-70.090	88.344	-25.911	-91.542	-81.773	7.339	0.00012513	0.00030046	8.5158e-05	1140	2.1737e-06	2.0791e-06	1221.1	236.99	1.6971e-06	3.262e-06	299.75	83.226	65.969	19.042	3.4797e-06	26.36	0.00018611	0.0002065	4.6967e-05	1107.8	2.2252e-06	1.8915e-06	1194.9	233.02	2.277e-06	2.1161e-06	295.96	83.425	65.816	19.013	2.277e-06	26.544	215.391	-32.866	-16.885	-114.726	35.244	13.892	-114.323	-107.508	-12.070	26.838	-107.677	-101.128	-100.379	-93.009	12.831	-93.418	-8191	255	
685.702	1	1	0	0	0.12841	0.11934	0.185	0.17322	0.27324	0.055332	0.35194	0.33107	0.27504	0.14037	0.070466	0.055713	0.16093	0.10427	0.20421	0.2033	0.37292	0.52083	-0.26042	0.24375	0.48333	-0.35417	0.4125	-0.27292	-0.04375	0.58333	-0.45	0.23542	0.1125	-0.49583	0.51667	0.0375	-92.567	186.239	27.932	190.262	187.158	21.036	167.575	171.859	-51.154	216.342	110.452	224.482	-47.237	193.504	-43.329	218.261	0.00012684	0.00031464	5.1361e-05	1136.7	1.7638e-06	3.2877e-06	1216.5	234.61	2.2527e-06	3.0159e-06	300.62	83.229	65.595	18.947	2.4895e-06	26.351	0.00019116	0.00020627	4.7282e-05	1106.7	2.224e-06	2.1151e-06	1195.9	232.24	2.1617e-06	2.0825e-06	295.86	83.465	65.855	19.037	2.1794e-06	26.487	222.070	-32.956	-23.768	-114.616	11.656	7.622	-114.552	-107.525	-15.337	51.109	-107.168	-100.909	-100.548	-93.253	45.604	-93.206	-8191	255	
685.798	1	1	0	0	0.29252	0.22834	0.24614	0.078718	0.26603	0.042372	0.1513	0.079581	0.13346	0.18329	0.2198	0.19124	0.035405	0.23103	0.36608	0.4663	0.1125	0.50417	-0.31667	0.16875	0.71042	-0.36875	0.5125	-0.058333	-0.05	0.52292	-0.47292	0.2125	0.33333	-0.25208	0.39167	0.045833	179.198	152.898	218.761	67.929	-28.589	114.012	146.707	160.844	170.118	16.012	-65.460	104.079	225.641	-47.822	193.538	161.148	0.00011415	0.00039058	5.3961e-05	1139.8	2.8995e-06	3.296e-06	1220.7	235.53	2.3765e-06	2.2747e-06	299.91	82.945	65.693	18.989	2.7918e-06	26.692	0.00017968	0.00018865	5.2825e-05	1107.3	2.2402e-06	1.9771e-06	1196.3	232.29	2.3079e-06	2.2072e-06	295.8	83.386	65.797	19.059	2.2749e-06	26.586	222.655	-37.372	-1.385	-114.576	13.079	27.335	-114.121	-106.847	-3.841	23.266	-107.554	-100.394	-100.330	-92.883	31.901	-93.261	-8191	255	
685.894	1	1	0	0	0.1695	0.12079	0.18278	0.23937	0.21745	0.091152	0.18033	0.11451	0.38383	0.12295	0.26652	0.11024	0.24804	0.11263	0.16279	0.23539	0.09375	0.43333	-0.20625	0.13333	0.54375	-0.3	0.35833	0.05	-0.15	0.48958	-0.20625	0.064583	0.44167	-0.35	0.28333	0.21875	-68.527	30.305	-19.158	-112.904	125.244	38.609	108.689	223.951	121.778	41.896	82.037	-113.799	224.050	143.329	-6.890	-115.351	0.00012177	0.00036203	7.814e-05	1140.8	1.7807e-06	3.3386e-06	1222.9	235.63	2.877e-06	1.5806e-06	300.21	83.118	66.071	19.179	2.6799e-06	26.445	0.00018204	0.00019915	5.1825e-05	1110.9	2.2629e-06	2.0203e-06	1196.3	232.7	2.2801e-06	2.1135e-06	295.66	83.237	65.871	19.063	2.0311e-06	26.579	214.898	-31.631	-39.561	-114.785	35.806	48.983	-114.493	-107.117	-21.815	-1.206	-107.362	-101.232	-100.397	-92.776	22.567	-93.034	-8191	255	
686.014	1	1	0	0	0.17728	0.084851	0.27729	0.097443	0.22303	0.25226	0.40474	0.28316	0.12773	0.094701	0.1749	0.31339	0.09433	0.26405	0.12397	0.37702	0.13958	0.44167	0.010417	-0.097917	0.45208	-0.21875	-0.0041667	0.31458	-0.23542	0.37292	-0.41667	-0.25833	0.62917	-0.31042	0.15625	0.46042	79.576	31.562	56.551	-88.282	16.307	69.183	152.569	180.523	167.232	50.524	197.306	-75.979	184.014	-104.495	214.710	190.536	0.00011297	0.0002858	6.9523e-05	1138.1	1.855e-06	2.9901e-06	1216.5	235.47	1.2376e-06	2.9386e-06	299.97	83.381	66.141	19.207	2.7626e-06	26.593	0.00017643	0.00018749	5.0434e-05	1107.4	2.2382e-06	2.0731e-06	1194.6	232.26	2.1095e-06	2.0656e-06	295.57	83.433	65.951	19.124	2.0839e-06	26.609	223.042	-22.525	-30.128	-114.259	43.740	23.961	-114.232	-106.846	-6.078	39.324	-107.147	-100.408	-100.661	-92.574	38.590	-93.433	-8191	255	
686.111	1	1	0	0	0.11559	0.27303	0.090124	0.29727	0.23577	0.30235	0.14823	0.014825	0.15329	0.36151	0.12262	0.13228	0.22921	0.19436	0.28057	0.33561	-0.20417	0.28333	0.30833	-0.44583	0.29792	-0.070833	-0.0875	0.32917	-0.40833	0.26875	0.21042	-0.225	0.4375	-0.26875	0.20417	0.40833	187.427	189.039	167.762	166.120	-54.912	-45.045	-72.825	98.912	67.602	158.578	-110.161	-114.049	-47.380	204.805	-69.361	3.944	0.0001152	0.00033498	6.3898e-05	1141.6	2.3709e-06	3.8949e-06	1220.1	235.87	1.2654e-06	3.175e-06	299.89	83.626	66.101	19.205	1.2568e-06	26.539	0.000183	0.00018974	5.0749e-05	1111.5	2.3315e-06	1.9876e-06	1196	232.61	2.1397e-06	2.0881e-06	295.73	83.531	66.04	19.101	2.027e-06	26.597	220.563	-51.749	-33.024	-114.187	32.591	13.027	-114.163	-106.971	-23.098	57.419	-106.850	-100.785	-100.071	-92.633	3.444	-92.605	-8191	255	
686.207	1	1	0	0	0.012387	0.27362	0.14527	0.24245	0.26223	0.21851	0.30236	0.26551	0.14857	0.18433	0.33049	0.20641	0.26074	0.27165	0.2344	0.2054	-0.09375	0.50417	0.32083	-0.29375	0.60417	-0.083333	0.0020833	0.46458	-0.24583	0.1375	0.11667	-0.32917	0.52708	0.025	-0.18333	0.44167	79.144	207.803	-120.258	212.291	148.709	44.271	-105.097	144.474	-109.412	97.407	190.283	-70.645	173.776	194.470	-3.789	133.524	0.00010365	0.0002513	7.8105e-05	1142.3	2.7831e-06	4.0575e-06	1225.5	238.48	1.25e-06	2.2206e-06	300.23	83.154	65.779	18.995	1.3594e-06	26.334	0.00018034	0.00019258	5.2858e-05	1113.1	2.2536e-06	2.1234e-06	1200.5	233.6	2.1459e-06	2.0086e-06	296.39	83.496	65.883	19.069	2.1126e-06	26.623	213.998	-39.813	-19.573	-114.219	29.545	6.137	-113.995	-106.813	-21.333	23.674	-107.130	-100.659	-99.894	-92.336	-15.220	-92.944	-8191	255	
686.303	1	1	0	0	0.19393	0.35624	0.088496	0.26725	0.11429	0.28052	0.32837	0.31209	0.23966	0.057548	0.3222	0.23953	0.3317	0.33201	0.17217	0.15798	0.17708	0.11042	0.47083	-0.42708	0.71667	0.34583	-0.24583	0.43958	-0.15	0.035417	0.31042	-0.35208	0.26667	0.05	-0.1375	0.36042	42.910	176.425	-72.727	-56.034	-38.590	77.431	195.698	-90.742	-123.154	-7.036	212.220	-7.805	-116.423	233.700	-123.451	86.100	0.0001132	0.00020128	5.4552e-05	1146	2.6169e-06	2.8558e-06	1224.5	235.98	1.9149e-06	2.1677e-06	301.1	83.383	65.802	19.006	1.6902e-06	26.677	0.00017827	0.00018123	5.4684e-05	1114.6	2.211e-06	2.0614e-06	1200.2	232.51	2.2155e-06	2.016e-06	296.37	83.761	66.062	19.12	2.0991e-06	26.734	214.279	-38.489	-11.198	-114.046	22.953	10.981	-113.903	-106.677	-2.430	9.518	-107.041	-100.347	-100.215	-92.594	22.815	-93.377	-8191	255	
686.399	1	1	0	0	0.24411	0.10587	0.4162	0.34059	0.38993	0.10987	0.14074	0.07761	0.082066	0.26243	0.12042	0.067859	0.064927	0.30062	0.10847	0.1767	0.1375	0.24583	0.32292	-0.38125	0.32917	0.24375	-0.35417	0.55625	-0.06875	0.079167	0.48542	-0.13125	0.44375	0.32917	-0.27708	0.39583	89.526	-68.337	-14.662	183.188	232.774	-101.398	133.913	-31.244	48.970	134.816	136.036	82.390	-52.779	-61.098	-122.159	6.706	0.00011278	0.00029315	0.00011664	1138	1.9497e-06	4.702e-06	1221.4	235.52	2.6231e-06	3.4699e-06	300.18	83.305	66.041	19.112	2.6852e-06	26.779	0.00018984	0.00017753	5.8477e-05	1111.5	2.1701e-06	2.0164e-06	1200.7	232.52	2.1884e-06	2.035e-06	295.86	83.363	65.925	19.146	2.1831e-06	26.749	226.129	-53.652	-26.041	-113.804	11.874	27.128	-113.871	-106.746	-27.520	20.715	-106.937	-100.415	-99.790	-92.424	8.384	-92.784	-8191	255	
686.495	1	1	0	0	0.10075	0.20578	0.26685	0.15827	0.2777	0.025355	0.23506	0.32652	0.069661	0.27097	0.16595	0.13071	0.1119	0.45795	0.068517	0.060885	0.21875	0.04375	0.46458	-0.32917	0.2375	0.43333	-0.5	0.33333	0.054167	-0.18125	0.45833	-0.12292	0.18333	0.32292	-0.22083	0.40208	-122.818	107.217	68.765	-98.633	162.093	-34.793	198.297	177.708	-108.477	43.005	-84.165	204.841	104.695	-107.653	25.416	-41.138	0.00010536	0.00023827	6.8624e-05	1143.4	2.2769e-06	2.4857e-06	1223.7	236.16	2.2737e-06	3.1269e-06	301.77	83.474	66.182	19.266	1.7719e-06	26.824	0.00018538	0.0001939	5.3086e-05	1114.3	2.1798e-06	2.095e-06	1200.4	232.61	2.2778e-06	1.9667e-06	296.41	83.625	66.128	19.194	2.1938e-06	26.673	217.851	-29.410	-53.455	-114.720	-1.304	15.650	-114.482	-107.162	-10.991	14.154	-107.410	-101.273	-100.730	-92.899	8.401	-93.838	-8191	255	
686.614	1	1	0	0	0.022063	0.23712	0.21111	0.12375	0.19213	0.041882	0.10507	0.27793	0.060101	0.25621	0.083169	0.20843	0.063882	0.27846	0.12217	0.28064	0.60625	-0.2125	0.68333	-0.17083	0.033333	0.4625	-0.39792	0.17708	0.18125	-0.15	0.46458	-0.10417	-0.125	0.31458	-0.09375	0.27083	174.800	162.752	132.542	196.466	210.831	222.772	-78.554	128.081	106.871	35.613	158.338	141.246	92.486	213.906	52.991	-40.338	0.00011765	0.00028023	9.4121e-05	1150.7	1.6751e-06	3.4687e-06	1227.6	237.7	2.2011e-06	1.5563e-06	301.75	83.938	66.389	19.228	3.5115e-06	26.644	0.00019114	0.000185	5.7173e-05	1116.7	2.2057e-06	2.1517e-06	1202.1	233.13	2.4402e-06	1.8929e-06	296.52	83.843	66.215	19.228	2.0868e-06	26.76	217.699	-15.860	-12.270	-114.622	36.133	21.001	-114.390	-107.164	-27.336	3.952	-107.189	-100.845	-100.632	-93.339	12.632	-93.619	-8191	255	
686.710	1	1	0	0	0.23121	0.11511	0.080021	0.32425	0.29423	0.21483	0.11137	0.22494	0.25927	0.10133	0.20885	0.18421	0.069865	0.1849	0.070471	0.056535	0.62083	-0.31875	0.6125	-0.16042	0.1375	0.54375	-0.55625	0.25208	0.225	-0.1125	0.46458	-0.17083	-0.19375	0.45833	-0.41458	0.05	11.996	225.289	81.444	108.764	118.649	20.978	-86.743	230.928	-97.182	42.390	199.475	203.961	11.381	-52.629	29.943	23.651	0.00013816	0.00047114	0.00010229	1144.1	1.3364e-06	3.8565e-06	1225.5	237.14	2.1047e-06	2.8798e-06	300.36	83.52	65.981	19.359	1.7478e-06	26.744	0.00019442	0.00019083	5.1173e-05	1115.1	2.1972e-06	2.1666e-06	1202.5	232.86	2.2488e-06	2.0281e-06	296.24	83.8	65.996	19.291	1.9819e-06	26.848	219.642	-26.681	-38.665	-114.633	23.327	31.826	-114.310	-107.196	-16.187	9.084	-107.978	-100.974	-100.960	-93.127	5.627	-93.166	-8191	255	
686.806	1	1	0	0	0.096187	0.073711	0.099597	0.19553	0.14899	0.32848	0.13435	0.21433	0.11549	0.10688	0.33387	0.14024	0.05339	0.034018	0.20153	0.3246	0.69167	-0.2625	0.42708	-0.09375	-0.19167	0.37292	-0.51667	0.089583	0.47083	-0.51667	0.34375	0.13333	-0.20417	0.45	-0.070833	-0.066667	-87.092	-117.451	232.468	186.935	-1.270	-49.834	232.272	169.446	172.553	134.649	126.010	-30.305	-83.269	-51.110	6.385	163.369	0.00011155	0.00034102	0.00010263	1143.1	2.2761e-06	3.2414e-06	1229	237.23	2.1914e-06	2.7628e-06	302.23	83.004	66.601	19.434	2.3647e-06	26.889	0.0001984	0.00018197	5.0923e-05	1116.3	2.1117e-06	2.2303e-06	1202.7	233.53	2.4309e-06	2.0069e-06	296.68	83.775	66.396	19.309	2.0216e-06	26.956	212.839	-36.186	-41.803	-114.350	17.666	37.181	-114.369	-107.166	-20.631	51.011	-107.182	-100.451	-100.464	-92.851	8.138	-93.556	-8191	255	
686.903	1	1	0	0	0.18106	0.13098	0.28544	0.19816	0.15552	0.10052	0.078577	0.25114	0.05715	0.19775	0.10116	0.033422	0.17498	0.17924	0.026354	0.23276	0.66667	-0.35417	0.63333	0.22083	-0.22708	0.51667	-0.21875	-0.1125	0.425	-0.50625	0.25	0.20833	-0.25417	0.48333	-0.26042	0.025	-107.596	22.444	161.338	108.717	162.542	102.961	176.828	-83.000	213.510	-56.584	-104.501	88.610	142.467	152.069	-94.239	214.303	0.00011421	0.00020695	4.5323e-05	1145.7	1.5781e-06	1.2688e-06	1219.9	236.15	1.7951e-06	4.5582e-06	301.54	83.302	66.028	19.327	9.3921e-07	26.909	0.0001964	0.00018146	5.2162e-05	1113.7	2.0192e-06	2.1046e-06	1199.3	232.83	2.3996e-06	1.9184e-06	296.43	83.875	66.34	19.327	2.018e-06	26.909	219.543	-33.754	-37.691	-114.331	25.694	49.842	-114.061	-107.077	-11.088	34.687	-107.101	-100.633	-100.519	-92.121	36.287	-93.376	-8191	255	
686.999	1	1	0	0	0.070201	0.23949	0.081146	0.13962	0.41384	0.28552	0.435	0.22819	0.01988	0.31497	0.19637	0.18782	0.045535	0.1209	0.21913	0.478	0.875	-0.16875	0.34375	0.1	-0.35833	0.46042	-0.016667	-0.2875	0.64792	-0.19167	0.04375	0.35	-0.010417	0.49792	0.18333	-0.14792	-104.131	-105.333	229.711	120.267	-62.633	80.812	204.865	3.345	-70.051	136.430	-10.985	-119.509	72.402	90.755	13.116	172.014	0.00010303	0.00038229	8.9048e-05	1141.6	1.6505e-06	2.6306e-06	1228.1	236.35	1.8498e-06	2.8546e-06	301.22	83.687	65.667	19.353	1.9138e-06	26.838	0.00019198	0.00017924	5.3847e-05	1114.2	1.9032e-06	2.074e-06	1202.1	233.33	2.3918e-06	1.8782e-06	296.29	83.625	65.97	19.346	2.1483e-06	26.87	221.863	-25.026	-55.372	-114.188	23.920	28.717	-114.116	-107.030	-17.274	14.276	-106.951	-101.107	-100.112	-92.535	25.666	-93.097	-8191	255	
687.095	1	1	0	0	0.15314	0.25503	0.14433	0.24708	0.28405	0.084369	0.19532	0.092277	0.19353	0.10315	0.2359	0.14035	0.11503	0.14352	0.096954	0.15185	0.95	-0.17083	0.28125	0.49167	-0.45833	0.37917	-0.089583	-0.24375	0.51458	-0.13958	0.047917	0.48958	-0.27708	0.20417	0.18333	-0.26875	-90.229	203.345	-99.165	231.809	180.248	147.912	189.139	-57.218	182.334	214.333	223.339	-78.339	163.199	226.958	8.521	6.092	0.00011558	0.00030627	9.4475e-05	1143.7	1.5064e-06	3.0492e-06	1223.5	236	2.5189e-06	2.6771e-06	299.4	83.813	66.558	19.383	1.4136e-06	26.825	0.00019693	0.00018189	5.3977e-05	1113.6	2.1514e-06	2.1216e-06	1198.8	232.85	2.3481e-06	2.0276e-06	295.63	83.851	66.186	19.331	2.1229e-06	26.893	223.178	-24.415	-23.986	-114.237	11.047	34.794	-113.981	-106.973	16.366	10.420	-107.106	-100.601	-99.853	-92.785	35.763	-93.229	-8191	255	
687.191	1	1	0	0	0.065033	0.15698	0.083986	0.13488	0.28076	0.24049	0.2413	0.21083	0.18616	0.32438	0.13339	0.23676	0.19829	0.010214	0.12474	0.35246	0.79792	-0.12292	0.14583	0.51458	-0.38333	0.047917	-0.10417	-0.34167	0.37708	0.01875	-0.175	0.52083	-0.52917	0.10833	0.2625	-0.51042	182.663	166.798	-6.106	-100.017	77.624	176.840	175.596	174.412	-110.810	90.935	112.221	15.166	235.245	155.412	-49.105	180.363	0.00011229	0.00027387	6.7147e-05	1143.8	9.8674e-07	3.4886e-06	1224.1	237.44	8.5816e-07	2.1219e-06	302.19	83.464	66.143	19.473	2.0921e-06	26.871	0.00018749	0.00017862	4.7695e-05	1112.8	2.1121e-06	1.974e-06	1198.5	233.65	2.2163e-06	1.9296e-06	296.74	83.946	66.335	19.329	2.1389e-06	26.906	228.093	-13.182	-42.088	-114.433	43.961	32.852	-114.109	-106.716	-27.929	51.586	-106.985	-100.817	-99.833	-92.993	44.019	-92.545	-8191	255	
687.312	1	1	0	0	0.22043	0.21376	0.29971	0.063236	0.12803	0.07091	0.24695	0.21623	0.22006	0.067139	0.041293	0.2188	0.22572	0.10006	0.048096	0.2022	0.7375	-0.022917	0.079167	0.525	-0.35208	0.12708	0.15	-0.325	0.57292	0.20833	-0.25833	0.525	-0.29583	0.014583	0.53958	-0.45208	-41.993	27.704	201.925	-115.004	178.035	194.293	141.562	104.307	145.164	173.396	96.129	86.542	116.252	-35.797	215.793	33.099	0.00011448	0.00030954	0.00011106	1147.2	2.6715e-06	4.6576e-06	1224.1	236.64	2.8332e-06	3.3353e-06	302.52	83.749	66.674	19.309	2.3887e-06	26.687	0.00018549	0.00017959	5.0564e-05	1112.9	2.0898e-06	2.1478e-06	1197.9	233.4	2.224e-06	2.1179e-06	297	83.791	66.247	19.305	2.2261e-06	26.853	216.527	-44.609	-42.431	-114.246	25.313	23.169	-113.674	-106.606	-8.456	22.923	-107.069	-100.711	-99.934	-92.618	28.150	-93.333	-8191	255	
687.406	1	1	0	0	0.26508	0.22809	0.081643	0.20455	0.25446	0.25067	0.34978	0.16764	0.18852	0.22951	0.25269	0.1921	0.25097	0.13971	0.17418	0.20232	0.84167	0.45	-0.20208	0.70833	-0.10833	0.03125	0.28958	-0.275	0.20625	0.14375	-0.29792	0.51667	-0.31875	0.01875	0.66458	-0.10208	86.386	92.695	185.203	1.046	42.141	64.748	175.078	191.120	20.354	116.598	197.127	227.638	132.677	154.929	77.403	83.254	0.00011801	0.00039448	0.00010412	1137.4	2.1048e-06	1.8588e-06	1221.4	236	2.2171e-06	3.2503e-06	302.69	83.95	65.841	19.248	1.6726e-06	26.808	0.00019334	0.00018865	4.8478e-05	1109.9	2.108e-06	1.9714e-06	1197	233.05	2.2283e-06	2.0544e-06	296.48	83.716	66.113	19.334	2.1626e-06	26.903	225.730	-23.132	-28.182	-114.417	26.161	43.105	-113.724	-106.742	-1.387	41.148	-106.902	-100.565	-99.909	-92.382	12.617	-93.241	-8191	255	
687.502	1	1	0	0	0.14622	0.24639	0.13887	0.13633	0.26614	0.093968	0.12017	0.070925	0.14255	0.20262	0.10794	0.17747	0.21786	0.15131	0.09809	0.1553	0.74792	0.47708	-0.42708	0.41458	-0.12083	0.047917	0.33125	-0.089583	0.275	0.33333	-0.48958	0.56042	-0.041667	-0.35208	0.5125	-0.35625	-5.910	47.083	222.209	45.308	62.530	88.043	197.416	169.036	41.396	-123.373	32.394	158.259	165.149	-117.268	191.975	3.874	0.00011528	0.00029424	5.2313e-05	1140.3	2.743e-06	3.1223e-06	1224.8	236.26	2.3146e-06	3.3484e-06	300.25	83.223	66.291	19.397	2.2117e-06	26.934	0.00018571	0.00018418	4.8228e-05	1111.1	2.1417e-06	2.0574e-06	1198.1	232.6	2.183e-06	1.9322e-06	296.48	83.543	66.23	19.323	2.1364e-06	26.96	219.709	-20.451	-41.527	-114.033	31.201	31.496	-113.656	-106.682	-25.042	43.702	-106.593	-100.447	-100.024	-92.514	2.953	-92.921	-8191	255	
687.598	1	1	0	0	0.2407	0.23906	0.096716	0.5173	0.19367	0.093879	0.037486	0.33062	0.066356	0.098214	0.25979	0.085025	0.027443	0.31551	0.14813	0.048345	0.55	0.46458	-0.2625	0.625	0.014583	-0.12083	0.37917	-0.17292	0.22917	0.33125	-0.3875	0.42917	0.1125	-0.25625	0.4875	-0.35625	69.602	20.740	18.341	160.352	-39.077	210.854	216.717	-113.351	-98.635	104.974	191.046	106.716	148.851	-10.446	-43.340	-4.902	0.00012624	0.00023657	7.6566e-05	1148	2.8139e-06	4.2639e-06	1221.5	235.62	1.5385e-06	3.517e-06	301.29	83.665	66.139	19.417	1.7647e-06	26.899	0.00018732	0.00018111	4.8423e-05	1115.2	2.1108e-06	1.9042e-06	1197.7	233.2	2.1571e-06	2.1071e-06	296.26	83.694	66.233	19.322	2.0466e-06	26.891	221.476	-51.460	-20.092	-113.960	10.662	24.512	-113.557	-106.571	4.040	28.634	-106.956	-100.202	-99.625	-91.979	13.844	-92.720	-8191	255	
687.694	1	1	0	0	0.1709	0.25816	0.19182	0.19687	0.19699	0.027627	0.026484	0.19095	0.12666	0.098673	0.24251	0.1557	0.11933	0.28669	0.30506	0.21377	0.35625	0.51458	-0.25208	0.31042	0.24792	-0.31042	0.475	-0.27708	0.0125	0.56875	-0.42083	0.21042	0.38125	-0.28958	0.58958	-0.075	-64.812	-45.183	-23.689	142.619	0.613	64.430	57.478	-76.529	162.131	101.356	-102.740	149.081	28.719	174.037	-5.922	54.990	0.00011857	0.0003101	9.463e-05	1141.5	2.2863e-06	4.5349e-06	1222.1	236.86	2.2798e-06	3.1916e-06	301.64	84.226	66.294	19.34	2.2619e-06	27.093	0.0001849	0.00018897	4.8304e-05	1111.5	2.2305e-06	1.9334e-06	1197.5	233.65	2.0937e-06	2.0859e-06	296.18	83.76	66.222	19.347	2.0938e-06	27.083	218.168	-16.409	-0.060	-113.764	19.104	9.996	-113.783	-106.563	-31.264	26.594	-106.842	-100.371	-99.785	-92.375	47.607	-92.442	-8191	255	
687.791	1	1	0	0	0.17016	0.27158	0.17455	0.14554	0.14985	0.48159	0.19793	0.070635	0.30219	0.10703	0.25134	0.23424	0.13343	0.24798	0.09475	0.073733	0.375	0.52708	-0.26875	0.21667	0.47708	-0.022917	0.37917	0.16042	-0.14375	0.72292	-0.25417	0.15417	0.56667	-0.34583	0.37083	0.15625	36.329	74.329	-0.320	213.250	-122.392	214.320	122.134	208.873	83.603	73.500	-122.326	166.876	138.439	207.123	-86.647	-55.699	0.00011876	0.000338	8.6175e-05	1141.4	2.7174e-06	3.4966e-06	1216	237.7	1.4927e-06	3.9019e-06	301.24	83.837	65.938	19.335	1.4527e-06	27.019	0.00018769	0.00019122	4.6597e-05	1112.5	2.3923e-06	1.988e-06	1195.5	233.3	2.1617e-06	2.0738e-06	296.84	83.535	66.131	19.286	2.0274e-06	27.013	219.133	-39.316	-44.717	-114.774	32.181	19.348	-114.213	-107.031	1.267	14.276	-107.489	-100.519	-100.117	-92.457	42.017	-93.147	-8191	255	
687.887	1	1	0	0	0.090863	0.23194	0.17551	0.39259	0.20476	0.091078	0.10098	0.11975	0.16217	0.154	0.027216	0.22314	0.20001	0.25389	0.21522	0.24493	0.21667	0.49583	0.06875	0.022917	0.44167	-0.11042	0.22083	0.066667	-0.1625	0.53958	-0.2	0.029167	0.75417	-0.28125	0.30417	0.32292	60.933	-96.212	37.649	168.174	-79.167	-12.485	58.403	-89.488	-23.109	108.899	140.735	-97.186	72.075	-57.489	78.697	52.631	0.00011505	0.00033537	9.9889e-05	1144.8	2.0196e-06	2.1146e-06	1222.4	236	1.6608e-06	3.2057e-06	301.46	83.784	66.192	19.35	2.0449e-06	27.08	0.00017902	0.00019017	4.8967e-05	1110.2	2.1615e-06	1.9714e-06	1198	233.34	2.1358e-06	2.1265e-06	296.22	83.728	66.26	19.356	2.1069e-06	27.023	217.805	-30.842	-39.961	-114.555	32.616	27.788	-114.876	-108.116	24.696	37.261	-108.485	-101.647	-101.357	-94.206	6.962	-94.456	-8191	255	
687.983	1	1	0	0	0.071762	0.22037	0.34327	0.079521	0.048162	0.13072	0.43719	0.075385	0.079127	0.28618	0.10301	0.35436	0.050022	0.061179	0.27716	0.12603	0.13542	0.56458	0.05	-0.15625	0.6	-0.1875	0.18125	0.24375	-0.21042	0.6875	0.18958	-0.033333	0.4625	-0.15833	0.37083	0.35208	121.259	-3.651	74.530	136.939	-52.152	7.940	130.784	-103.648	-39.710	84.735	13.268	-106.761	194.309	42.944	-103.969	110.315	0.00011657	0.00036661	0.00012285	1141.7	1.565e-06	4.2415e-06	1221.4	236.48	2.4524e-06	2.1867e-06	301.14	83.534	66.133	19.303	6.9603e-07	26.904	0.00018742	0.00018613	5.1999e-05	1109.5	2.2495e-06	1.8749e-06	1197.4	233.24	2.2259e-06	2.0009e-06	296.43	83.803	66.135	19.397	2.0044e-06	27.017	229.800	-38.176	-33.417	-115.336	24.661	23.093	-115.429	-108.200	-4.996	18.769	-108.325	-101.919	-101.228	-93.800	65.478	-94.008	-8191	255	
688.104	1	1	0	0	0.40034	0.17815	0.10422	0.38322	0.051597	0.11327	0.27937	0.092886	0.21317	0.18052	0.14363	0.14598	0.070424	0.097111	0.33051	0.2951	0.2	0.56875	-0.10833	-0.15	0.57708	-0.010417	0.06875	0.12708	-0.19583	0.38333	0.18333	-0.15417	0.47708	-0.43542	0.041667	0.59792	31.991	-33.639	6.732	192.859	-21.693	129.805	134.279	101.018	-8.897	-74.810	194.342	198.999	167.506	182.551	42.378	-36.306	0.00013669	0.00035002	7.1423e-05	1136.9	2.1749e-06	2.8088e-06	1218.8	234.86	2.1131e-06	2.919e-06	302.04	83.528	66.12	19.51	2.7294e-06	26.908	0.00018742	0.00019188	5.3249e-05	1111.1	2.2366e-06	1.9282e-06	1198.5	232.14	2.1614e-06	2.0285e-06	296.34	83.737	66.02	19.413	2.1057e-06	27.117	223.991	-31.720	-33.938	-115.433	32.839	9.445	-115.276	-108.170	-25.461	38.568	-108.292	-102.007	-101.368	-93.797	-1.889	-93.926	-8191	255	
688.200	1	1	0	0	0.25577	0.29214	0.11455	0.10899	0.25861	0.089255	0.04541	0.046654	0.18166	0.1389	0.11068	0.11914	0.054911	0.029959	0.15194	0.22006	0.13542	0.39792	0.25833	-0.35	0.44792	-0.064583	-0.37708	0.44167	-0.26458	0.48333	0.42083	-0.19792	0.62083	-0.08125	-0.01875	0.55	179.715	-28.578	-60.971	163.346	43.199	-45.517	97.012	-24.767	-122.921	179.913	30.033	221.336	-46.089	-104.728	7.036	96.997	0.00011238	0.00021693	8.3277e-05	1142.4	2.4096e-06	3.0758e-06	1217.4	236.22	1.3062e-06	3.0911e-06	300.86	83.579	66.161	19.375	2.146e-06	27.049	0.00018749	0.00018352	5.0325e-05	1111.8	2.1903e-06	1.9579e-06	1196.2	232.93	2.0585e-06	1.9568e-06	296.41	83.676	66.158	19.393	2.0557e-06	27.15	226.171	-31.873	-19.846	-115.407	1.613	15.482	-115.266	-108.037	-21.958	30.922	-108.224	-101.993	-100.960	-93.972	28.795	-94.100	-8191	255	
688.296	1	1	0	0	0.1489	0.21757	0.084107	0.11664	0.12646	0.13182	0.27635	0.16329	0.099281	0.17139	0.34923	0.30445	0.15332	0.11549	0.29223	0.057425	0.28542	0.29792	0.3875	-0.4375	0.44792	0.12292	-0.41875	0.46875	-0.19583	0.15833	0.4125	-0.3	0.3875	0.10208	-0.04375	0.51042	-7.705	-46.709	-83.229	225.425	-43.443	166.203	147.316	125.864	46.377	231.717	175.225	-101.372	185.333	139.879	102.967	-106.286	0.00011779	0.00028666	5.9454e-05	1139.3	2.4227e-06	3.576e-06	1222.2	235.58	2.1183e-06	3.4451e-06	301.16	83.634	66.872	19.559	2.7083e-06	27.052	0.00018813	0.00018718	5.689e-05	1110.1	2.198e-06	2.0387e-06	1198	232.51	2.1741e-06	1.9253e-06	296.62	83.794	66.407	19.505	1.9848e-06	27.154	221.797	-39.093	-20.196	-115.361	49.094	46.307	-115.112	-108.055	-17.789	28.978	-108.056	-101.631	-101.407	-93.403	10.342	-94.377	-8191	255	
688.392	1	1	0	0	0.23386	0.30355	0.12587	0.048985	0.080446	0.067455	0.26842	0.1581	0.13029	0.16892	0.17528	0.18992	0.11186	0.056134	0.17765	0.27252	0.23125	0.11667	0.64167	-0.56667	0.5	0.21458	-0.42292	0.62292	0.0083333	0.17708	0.25625	-0.19375	0.34375	0.34167	-0.28333	0.46458	48.581	-56.175	-41.077	207.621	-64.838	69.272	168.806	142.179	20.893	-37.029	-125.608	4.214	-104.270	201.594	79.711	132.973	0.00010743	0.00032235	0.00010047	1134.9	2.2957e-06	4.1038e-06	1222.2	235.88	1.9388e-06	2.4519e-06	299.85	83.559	66.51	19.631	1.9729e-06	27.234	0.0001856	0.00018597	5.1956e-05	1108.8	2.1753e-06	2.0251e-06	1198.6	233.09	2.2066e-06	1.9832e-06	296.19	83.838	66.4	19.501	1.9966e-06	27.296	218.930	-38.885	-15.318	-115.016	12.216	24.031	-115.184	-108.030	-1.441	21.775	-107.955	-101.350	-101.203	-93.260	14.720	-93.937	-8191	255	
688.486	1	1	0	0	0.21939	0.08176	0.16496	0.035535	0.22057	0.064121	0.29892	0.10294	0.047236	0.17131	0.13997	0.11789	0.087097	0.15033	0.031532	0.21772	0.42708	0.077083	0.62708	-0.44792	0.34167	0.35208	-0.29792	0.41458	0.19167	-0.05625	0.30208	-0.12917	0.00625	0.26458	-0.34375	0.44792	-103.561	-61.586	110.873	43.450	-47.745	-69.069	181.378	83.727	214.687	39.846	141.687	199.553	195.538	121.359	1.630	-123.755	0.00013282	0.00020297	0.0001112	1141.9	1.7273e-06	3.539e-06	1224.9	236.87	2.4194e-06	4.2279e-06	301.51	83.796	66.409	19.629	2.4123e-06	27.275	0.00018929	0.00017909	5.4314e-05	1111	2.0853e-06	1.9998e-06	1199.9	233	2.1405e-06	1.9957e-06	296.97	83.874	66.081	19.581	2.0503e-06	27.366	227.238	-48.698	-37.542	-115.149	27.772	29.322	-115.068	-108.159	-19.670	31.929	-108.314	-101.484	-101.480	-93.124	32.063	-94.291	-8191	255	
688.584	1	1	0	0	0.32649	0.063284	0.10161	0.22691	0.10136	0.077892	0.3443	0.17631	0.12703	0.27307	0.18194	0.30431	0.086995	0.20717	0.23394	0.33516	0.44375	-0.05	0.67917	-0.25625	0.33542	0.42917	-0.49792	0.48125	0.21458	0	0.56667	-0.054167	0.12292	0.41667	-0.16667	0.42292	198.284	-46.160	124.005	-110.638	-113.734	-114.701	155.113	-110.311	-31.663	74.191	-57.823	160.422	118.223	161.855	-73.665	-103.271	0.00011306	0.00017062	9.3706e-05	1139.2	1.7578e-06	3.0188e-06	1224.6	235.23	2.1317e-06	3.9487e-06	299.39	84.005	66.09	19.486	2.2566e-06	27.278	0.00018428	0.00017753	5.3217e-05	1111.8	2.207e-06	2.2041e-06	1202.4	232.67	2.2441e-06	1.8739e-06	296.59	83.963	66.243	19.541	2.0147e-06	27.346	218.224	-30.532	-29.264	-115.160	22.920	16.038	-116.068	-108.919	-26.051	34.066	-109.283	-102.373	-102.064	-94.606	-0.935	-95.173	-8191	255	
688.703	1	1	0	0	0.10483	0.22815	0.21554	0.27499	0.32894	0.2319	0.18264	0.31304	0.10075	0.19852	0.045689	0.19001	0.027822	0.15461	0.31899	0.15849	0.54792	-0.25208	0.47917	-0.045833	-0.035417	0.61667	-0.425	0.43125	0.23542	-0.14375	0.42917	-0.03125	-0.24167	0.75208	-0.025	0.24375	191.656	-51.294	157.116	223.719	49.009	-59.563	213.570	181.102	48.769	-43.938	-71.251	227.185	191.038	208.280	-95.287	-69.313	0.00012237	0.00026947	6.4397e-05	1143.9	2.4976e-06	3.9284e-06	1223.5	235.54	2.3382e-06	2.8253e-06	300.98	83.679	65.646	19.645	2.8388e-06	27.24	0.00019774	0.00018119	4.9293e-05	1113.9	2.1875e-06	2.0845e-06	1201.3	232.93	2.4255e-06	1.8873e-06	296.61	83.796	66.236	19.616	2.0044e-06	27.485	223.072	-42.278	-24.040	-116.018	33.202	11.329	-116.194	-108.845	-10.927	30.650	-109.078	-102.769	-101.754	-94.476	4.613	-95.113	-8191	255	
688.799	1	1	0	0	0.43301	0.13795	0.056077	0.18572	0.16491	0.093262	0.15229	0.17623	0.10801	0.10287	0.17965	0.19805	0.28881	0.32353	0.2156	0.19485	0.88333	-0.23958	0.60833	0.125	0.1875	0.73333	-0.46042	0.27292	0.31667	-0.29167	0.40625	-0.029167	-0.22708	0.63958	-0.085417	0.060417	229.561	97.614	142.428	-35.671	212.009	150.306	169.425	145.823	190.049	200.832	115.223	203.160	-38.184	160.974	-49.002	-113.153	0.0001373	0.00020358	6.5473e-05	1145.8	2.8822e-06	2.5568e-06	1226.2	236.27	1.9122e-06	2.3566e-06	301.11	83.371	66.288	19.52	2.4183e-06	27.293	0.00019275	0.00017531	5.2086e-05	1114.5	2.1567e-06	2.0037e-06	1201.6	232.82	2.3652e-06	1.9244e-06	296.39	83.731	66.272	19.616	2.0569e-06	27.535	225.943	-41.573	-45.693	-116.088	27.757	10.895	-115.844	-108.749	-13.717	21.795	-109.124	-102.241	-101.919	-94.754	1.738	-95.352	-8191	255	
688.871	1	1	0	0	0.15173	0.11896	0.21949	0.226	0.1569	0.026807	0.39217	0.1969	0.31887	0.22094	0.22908	0.18371	0.20544	0.11049	0.11601	0.16418	0.81875	-0.425	0.39792	0.083333	-0.03125	0.49583	-0.44167	-0.064583	0.57708	-0.43125	0.11042	0.2125	-0.31667	0.38125	0.10833	0.025	65.500	97.539	-93.197	-121.326	-115.015	-111.379	218.849	-124.982	102.061	-21.225	-115.178	135.455	-116.547	153.180	-110.763	104.378	0.00011719	0.00040285	7.2957e-05	1145.6	1.7441e-06	3.3698e-06	1225.7	234.6	2.6203e-06	2.7042e-06	299.78	83.223	66.101	19.634	1.8658e-06	27.324	0.00018918	0.00017473	5.1151e-05	1115.6	2.0447e-06	2.0779e-06	1199.3	233.05	2.2534e-06	1.9382e-06	295.93	83.902	66.276	19.653	2.0716e-06	27.465	219.339	-37.429	-38.444	-115.916	12.585	16.508	-115.742	-108.587	-9.684	-5.011	-108.898	-102.363	-101.782	-94.160	18.877	-94.585	-8191	255	
688.967	1	1	0	0	0.29309	0.093929	0.10433	0.22655	0.21858	0.21637	0.092924	0.27713	0.13166	0.067393	0.075193	0.26197	0.1045	0.13631	0.14825	0.24269	0.93333	-0.22708	0.37708	0.16875	-0.18542	0.45833	-0.21458	0.010417	0.56458	-0.15208	0.29167	0.32292	-0.17708	0.50625	0.23125	-0.20417	-118.280	-105.799	-21.915	211.217	-102.205	-38.824	70.453	-112.498	136.754	-37.943	138.909	211.422	25.708	173.354	190.667	230.325	0.00011658	0.00028184	8.1763e-05	1146.6	2.6022e-06	4.7765e-06	1224.2	236.37	1.5064e-06	3.5647e-06	300.31	83.436	66.697	19.795	1.3317e-06	27.236	0.00019495	0.00017862	5.1162e-05	1112.1	2.1571e-06	2.212e-06	1201	232.95	2.3953e-06	2.0665e-06	296.26	83.898	66.378	19.743	2.0966e-06	27.504	219.180	-37.150	-41.559	-115.806	17.439	35.867	-115.518	-108.720	-9.861	38.772	-108.649	-102.073	-101.958	-94.589	-29.452	-95.026	-8191	255	
689.088	1	1	0	0	0.15814	0.2365	0.18051	0.12557	0.25973	0.16685	0.17625	0.12726	0.18409	0.054586	0.24631	0.11888	0.17176	0.19956	0.2184	0.21194	0.99583	-0.077083	0.23958	0.41458	-0.34583	0.46667	-0.045833	-0.225	0.62917	-0.0125	-0.072917	0.48958	-0.30833	0.37917	0.24375	-0.089583	76.745	-62.353	38.951	-89.180	231.183	66.505	98.889	85.836	-73.252	72.449	-85.350	212.332	45.879	85.715	-23.001	194.519	0.00013341	0.00033721	9.4996e-05	1144.6	2.9156e-06	3.7793e-06	1222.7	237.29	1.7494e-06	4.2304e-06	301.04	83.882	66.171	19.747	2.2631e-06	27.508	0.00019154	0.00018033	5.0793e-05	1117.1	2.0472e-06	1.9627e-06	1200.2	233.16	2.3358e-06	1.9469e-06	296.2	84.202	66.323	19.691	2.0868e-06	27.549	220.984	-37.416	-27.454	-115.644	11.942	4.621	-115.978	-108.875	-19.746	41.041	-108.829	-102.251	-102.292	-94.397	21.645	-94.889	-8191	255	
689.184	1	1	0	0	0.36293	0.27897	0.036238	0.14014	0.10882	0.134	0.027842	0.22962	0.15941	0.19884	0.21508	0.082331	0.11338	0.049313	0.12255	0.078912	0.74167	-0.16042	0.18333	0.425	-0.18125	0.21458	0.15625	-0.31875	0.58542	0.089583	-0.060417	0.38333	-0.25625	0.34583	0.28333	-0.32917	-67.779	44.102	193.661	127.108	-41.295	72.049	132.604	132.980	25.175	59.170	-89.517	-115.919	-0.793	173.471	163.600	132.439	0.00013214	0.00029927	0.00010589	1139.9	3.3916e-06	2.8131e-06	1223.7	236.28	1.5428e-06	3.1645e-06	302.16	83.473	66.516	19.702	2.7739e-06	27.526	0.00019728	0.00018445	5.1173e-05	1112.6	2.1372e-06	2.0679e-06	1201.4	232.96	2.2704e-06	2.0173e-06	296.19	83.806	66.32	19.689	2.2237e-06	27.602	223.549	-25.639	-24.845	-115.824	27.830	48.541	-115.480	-108.586	-52.907	32.208	-109.350	-102.414	-101.649	-94.285	37.337	-95.233	-8191	255	
689.280	1	1	0	0	0.15907	0.093802	0.27438	0.24756	0.16408	0.20569	0.34506	0.2976	0.20393	0.25809	0.2721	0.23201	0.081755	0.2452	0.12428	0.097232	1.0292	0.14375	-0.12708	0.5125	-0.060417	0.05625	0.19375	-0.46042	0.57083	0.091667	-0.2	0.47083	-0.066667	0.25417	0.475	-0.26667	229.701	49.390	222.227	127.457	143.018	164.922	152.394	-120.726	-37.586	-28.069	212.020	-6.020	-77.480	199.043	-21.421	232.906	0.00013914	0.00030575	8.6525e-05	1139.7	2.8973e-06	3.8591e-06	1219.5	236.78	2.7405e-06	3.2113e-06	299.31	83.408	65.94	19.66	2.6905e-06	27.371	0.00019669	0.00019029	5.0423e-05	1113.4	2.1364e-06	2.1509e-06	1199.5	233.52	2.3288e-06	1.9901e-06	295.85	83.912	66.223	19.688	2.2311e-06	27.549	219.728	-53.851	-38.244	-115.993	17.511	41.155	-116.141	-108.393	-43.193	31.386	-108.890	-102.721	-101.813	-94.390	13.449	-94.633	-8191	255	
689.376	1	1	0	0	0.21387	0.16576	0.18404	0.25806	0.40297	0.19107	0.085916	0.16199	0.074159	0.19524	0.088725	0.27268	0.224	0.30088	0.2244	0.084824	0.83333	0.15	-0.041667	0.51667	-0.15417	0.18333	0.5	-0.30417	0.475	0.16458	-0.22708	0.45625	-0.20625	-0.11875	0.71875	-0.20208	-65.295	-78.383	204.068	124.837	-125.037	-20.898	-112.034	203.845	-68.345	-81.347	-4.071	145.340	74.098	-30.661	109.151	-123.528	0.00012614	0.00031109	6.9194e-05	1142.2	2.3579e-06	2.5788e-06	1221.1	234.86	9.2456e-07	2.7818e-06	300.32	83.06	66.039	19.821	2.7073e-06	27.453	0.00018472	0.00018535	4.9836e-05	1113.5	2.2272e-06	2.0771e-06	1198.4	232.78	2.2952e-06	2.139e-06	296.09	83.689	66.331	19.756	2.27e-06	27.588	220.139	-45.364	-45.731	-115.957	4.925	36.265	-115.908	-108.750	-12.721	21.065	-108.839	-102.885	-101.703	-94.743	0.217	-94.703	-8191	255	
689.495	1	1	0	0	0.073402	0.15305	0.079042	0.07398	0.081334	0.17947	0.12394	0.13914	0.025591	0.17622	0.13237	0.14834	0.14969	0.0896	0.18674	0.25285	0.70417	0.44167	-0.21458	0.48958	-0.033333	-0.03125	0.55417	-0.12083	0.43958	0.14375	-0.30208	0.32917	0.045833	-0.21458	0.70833	-0.010417	206.808	-77.051	39.441	-69.261	-59.836	44.779	215.127	120.726	122.218	-30.394	174.334	129.674	170.972	-56.012	67.676	61.411	0.00012097	0.00036518	8.403e-05	1147.3	1.8739e-06	3.2282e-06	1223	235.34	2.1975e-06	3.9279e-06	298.76	83.684	66.319	19.723	2.3472e-06	27.48	0.00019277	0.00019927	4.9478e-05	1114.5	2.1129e-06	2.1583e-06	1200.8	232.75	2.3497e-06	1.9771e-06	295.95	83.841	66.456	19.724	2.2196e-06	27.527	220.395	-35.749	-22.932	-116.452	29.003	18.183	-115.749	-108.573	-26.766	25.222	-109.068	-102.171	-101.869	-94.555	53.258	-95.485	-8191	255	
689.567	1	1	0	0	0.13905	0.15772	0.33658	0.1767	0.15025	0.18552	0.23146	0.29148	0.30848	0.057061	0.32319	0.17267	0.10546	0.14409	0.27078	0.18666	0.475	0.39375	-0.16042	0.55208	0.047917	-0.21875	0.4375	-0.29583	0.17292	0.51042	-0.23125	0.41875	0.13333	-0.13542	0.5875	-0.016667	210.572	14.027	168.561	167.450	27.153	-117.680	219.653	230.645	186.915	52.064	180.432	169.617	225.677	-108.755	160.292	203.544	0.00013484	0.00034216	9.5928e-05	1146.9	2.5778e-06	3.0137e-06	1225.3	237.76	1.7385e-06	3.2246e-06	302.07	83.991	65.899	19.739	2.8251e-06	27.392	0.0001946	0.00019336	5.0575e-05	1111.3	2.2394e-06	2.081e-06	1200.9	233.62	2.2959e-06	2.1563e-06	296.96	83.747	66.313	19.692	2.1229e-06	27.494	221.690	-5.802	-42.731	-115.932	12.961	-0.623	-116.085	-108.768	-25.384	45.349	-108.998	-102.746	-102.182	-94.752	29.327	-94.780	-8191	255	
689.665	1	1	0	0	0.21997	0.27817	0.22918	0.12165	0.25378	0.44891	0.083597	0.075937	0.10402	0.18813	0.25775	0.13443	0.17166	0.23788	0.11197	0.099617	0.50833	0.5	-0.077083	0.41667	0.33542	-0.22083	0.34167	-0.22083	0.083333	0.59583	-0.38958	0.17292	0.29375	-0.18542	0.60625	0	-84.566	2.048	-63.151	-115.451	203.987	-74.650	229.618	184.606	-58.539	-94.552	-91.510	-18.382	230.693	222.881	-116.027	-101.364	0.0001255	0.00034056	7.1041e-05	1134.9	2.2803e-06	3.1052e-06	1220.4	235.96	2.2528e-06	3.5543e-06	301.4	83.67	66.272	19.7	2.258e-06	27.466	0.00019121	0.00019083	5.0217e-05	1111	2.37e-06	1.9002e-06	1199.9	233.03	2.2464e-06	2.2379e-06	297.02	84.131	66.199	19.749	2.1577e-06	27.61	222.957	-33.131	-34.573	-116.110	18.659	23.517	-116.187	-108.661	-26.741	26.012	-108.499	-102.589	-102.110	-94.764	16.571	-95.447	-8191	255	
689.784	1	1	0	0	0.24757	0.11497	0.14346	0.22567	0.072384	0.11812	0.18521	0.26868	0.2511	0.1558	0.1434	0.042155	0.10507	0.20746	0.059173	0.18207	0.38125	0.65417	0.010417	0.38333	0.4375	-0.35	0.29375	-0.25417	-0.15833	0.55208	-0.47917	0.095833	0.44167	-0.3875	0.63125	0.12083	160.013	202.382	-61.098	182.611	20.186	20.298	191.569	219.158	56.961	202.559	169.396	-1.884	41.823	208.809	-55.459	-40.563	0.00012542	0.00032284	5.8432e-05	1139	2.5012e-06	2.6847e-06	1220.6	236.46	9.1746e-07	3.564e-06	301.4	83.79	66.118	19.694	2.6297e-06	27.497	0.00018492	0.00020125	4.851e-05	1113.2	2.2917e-06	1.7653e-06	1199.6	233.09	2.1119e-06	2.1205e-06	296.43	84.045	66.327	19.741	2.2847e-06	27.611	219.823	-29.281	-41.957	-116.165	16.358	48.957	-116.039	-108.560	-5.682	39.187	-108.809	-102.732	-101.921	-94.742	9.630	-94.793	-8191	255	
689.880	1	1	0	0	0.1227	0.21742	0.079077	0.063866	0.18571	0.24879	0.22038	0.40221	0.10399	0.054843	0.29446	0.05093	0.18346	0.11295	0.084616	0.26643	0.21042	0.43333	-0.24375	0.19583	0.59375	-0.275	0.2125	0.05625	-0.072917	0.69792	-0.39375	-0.027083	0.39375	-0.275	0.40625	0.225	67.128	-32.101	-42.846	-93.021	-48.011	-57.920	175.917	158.710	-113.128	-19.835	-45.552	-107.495	195.920	180.190	213.401	216.163	0.00011874	0.00029827	7.4084e-05	1142.1	2.8196e-06	3.6075e-06	1216.1	236.5	1.2739e-06	1.8472e-06	301.81	83.58	66.049	19.725	1.9874e-06	27.431	0.00018795	0.00019779	4.9771e-05	1112	2.301e-06	1.9247e-06	1196.9	233.36	2.096e-06	2.0475e-06	296.17	83.863	66.356	19.727	2.1397e-06	27.568	220.708	-51.442	-36.984	-116.205	22.310	36.513	-115.996	-109.055	-30.537	47.115	-108.949	-102.667	-102.133	-94.288	45.758	-94.700	-8191	255	
689.976	1	1	0	0	0.16064	0.047175	0.23351	0.25904	0.072669	0.24255	0.068189	0.20896	0.20643	0.10407	0.19689	0.051459	0.289	0.07901	0.34233	0.087129	0.19167	0.56042	0.095833	-0.27292	0.43542	-0.00625	0.25	0.25417	-0.19375	0.57708	-0.125	-0.095833	0.44583	-0.20625	0.1125	0.48333	102.565	-13.451	87.582	166.991	-94.958	-1.766	186.482	-96.138	-33.944	-47.292	54.014	222.771	215.410	-96.445	200.869	32.538	0.00011376	0.0003862	0.00012108	1138.9	2.4553e-06	2.2384e-06	1225.1	236.15	1.7123e-06	3.3471e-06	302.47	83.646	65.993	19.861	3.201e-06	27.589	0.00018808	0.00019324	4.7782e-05	1110.6	2.2106e-06	1.8605e-06	1201.9	233.28	2.1517e-06	2.0509e-06	297.43	83.882	66.348	19.817	2.095e-06	27.584	222.152	-50.885	-34.564	-116.455	17.708	18.978	-115.856	-108.842	-17.951	31.326	-108.654	-102.773	-102.257	-94.512	14.500	-94.910	-8191	255	
690.096	1	1	0	0	0.11573	0.19884	0.12662	0.16343	0.26716	0.27436	0.15669	0.12066	0.13364	0.068619	0.34823	0.19874	0.15855	0.22646	0.15056	0.30227	0.20833	0.44167	0.25833	-0.26667	0.71458	-0.15417	0.13125	0.425	-0.1875	0.24167	0.23542	-0.33542	0.54583	-0.275	0.17083	0.57708	-74.027	131.658	-32.307	172.484	-56.516	216.695	189.256	230.736	128.128	88.167	175.458	-126.327	53.501	-100.330	157.152	-75.943	0.00013196	0.00024896	0.00010612	1138.8	9.3455e-07	3.3436e-06	1224.4	237.17	1.8691e-06	3.206e-06	301.14	83.619	66.02	19.91	3.039e-06	27.443	0.00018069	0.00019834	5.0651e-05	1112.6	2.2382e-06	1.9858e-06	1200	233.75	2.0782e-06	2.1731e-06	296.33	83.922	66.3	19.773	2.0971e-06	27.628	224.698	-61.723	-22.407	-116.149	8.315	38.164	-115.726	-108.418	-27.588	38.689	-108.443	-102.150	-101.846	-93.999	19.132	-94.568	-8191	255	
690.168	1	1	0	0	0.25498	0.20988	0.22068	0.1961	0.03591	0.024737	0.4373	0.22956	0.27372	0.28921	0.11076	0.15573	0.21813	0.047734	0.10155	0.22725	0.025	0.325	0.19792	-0.2875	0.66458	0.064583	-0.020833	0.51042	-0.089583	0.33125	0.35	-0.37083	0.43542	0.12917	0.077083	0.52708	109.421	-17.921	10.079	103.575	175.080	147.541	176.307	194.070	53.020	7.630	106.757	-40.836	205.757	197.203	-0.646	66.669	0.00013983	0.00025312	0.00011059	1148.4	2.2472e-06	2.7729e-06	1221.6	236.11	1.854e-06	3.9258e-06	301.1	83.589	65.981	19.76	2.181e-06	27.414	0.00018936	0.00020285	5.4597e-05	1113	2.2832e-06	2.1395e-06	1200.3	233.35	2.3334e-06	2.0186e-06	297.19	83.916	66.107	19.763	2.1802e-06	27.662	220.789	-37.568	-44.928	-115.678	15.186	3.714	-115.624	-108.517	-6.362	15.760	-108.236	-102.035	-101.522	-94.521	27.050	-94.193	-8191	255	
690.264	1	1	0	0	0.038342	0.19583	0.23199	0.26431	0.17613	0.24945	0.22974	0.10649	0.1277	0.27781	0.10719	0.12583	0.1415	0.10292	0.26614	0.19564	0.25833	0.46458	0.5	-0.18125	0.53333	-0.18125	-0.16875	0.51667	-0.077083	0.20417	0.15625	-0.25	0.53958	0.1875	-0.14583	0.59167	189.961	-33.095	-108.139	144.261	41.722	140.552	105.870	207.728	-23.296	19.832	117.421	-83.120	-31.843	117.648	61.110	213.169	0.00012627	0.00027006	7.5211e-05	1146.7	2.2623e-06	3.2944e-06	1221.2	237.07	1.775e-06	3.7514e-06	301.56	83.723	66.193	19.756	2.057e-06	27.569	0.00018668	0.00019632	5.2151e-05	1116.4	2.3193e-06	2.029e-06	1200.2	233.21	2.3547e-06	2.1459e-06	296.5	84.001	66.222	19.768	2.0778e-06	27.671	218.863	-56.999	-49.683	-115.795	17.952	55.822	-115.564	-108.385	-4.295	33.437	-108.285	-101.976	-101.418	-94.229	17.680	-94.786	-8191	255	
690.385	1	1	0	0	0.022365	0.26027	0.081565	0.1412	0.14776	0.10459	0.27331	0.1489	0.0792	0.20761	0.27911	0.16537	0.2116	0.12128	0.12798	0.16743	0.14583	0.1625	0.41458	-0.31458	0.42917	0.21042	-0.30833	0.31042	-0.17917	0.10625	0.51667	-0.32917	0.54375	0.058333	-0.10833	0.56042	-33.718	-53.813	56.262	108.494	208.136	106.537	217.689	110.681	215.081	177.569	131.212	228.669	-40.432	203.706	70.144	136.099	0.00010369	0.00033776	6.9253e-05	1139.2	1.6575e-06	3.2905e-06	1224.7	236.96	1.6999e-06	3.1018e-06	301	83.931	66.35	19.735	2.4425e-06	27.544	0.00018564	0.00019632	5.5173e-05	1113.2	2.2045e-06	2.0338e-06	1201.7	233.68	2.2785e-06	1.9693e-06	297.18	84.03	66.518	19.793	2.1122e-06	27.621	225.252	-55.272	-11.948	-115.659	28.828	24.447	-115.614	-108.239	-27.154	20.827	-108.555	-102.100	-101.742	-94.209	33.171	-94.566	-8191	255	
690.479	1	1	0	0	0.19724	0.093051	0.082093	0.18403	0.12926	0.27325	0.2572	0.33665	0.17335	0.11041	0.084066	0.15694	0.0955	0.085164	0.18871	0.44833	0.29583	-0.035417	0.70208	-0.35625	0.4	0.19375	-0.5625	0.32292	0.035417	-0.083333	0.4125	-0.19792	0.2125	0.39583	-0.4	0.35208	84.323	8.938	-124.573	173.426	-105.315	192.559	210.398	157.885	-39.166	11.049	-105.388	-121.149	76.302	-98.372	104.272	170.859	0.00011793	0.00039762	0.00010291	1146.6	1.5067e-06	3.7569e-06	1223	236.62	1.2831e-06	3.1936e-06	301.26	83.955	66.785	19.698	1.9185e-06	27.43	0.00018914	0.0001864	5.6195e-05	1115.1	2.2009e-06	2.1792e-06	1201.8	233.7	2.3679e-06	1.984e-06	296.81	84.147	66.545	19.764	2.1036e-06	27.658	225.257	-41.620	-41.204	-115.432	16.006	15.786	-115.123	-107.877	-11.644	14.185	-108.372	-101.800	-101.653	-93.455	24.280	-94.181	-8191	255	
690.575	1	1	0	0	0.10894	0.20332	0.16079	0.077019	0.15569	0.18525	0.20518	0.13975	0.28542	0.23761	0.074575	0.32973	0.16824	0.18723	0.027632	0.20752	0.35208	-0.06875	0.6875	-0.28542	0.24583	0.61458	-0.725	0.48333	0.10417	0.04375	0.34583	-0.17917	-0.010417	0.37708	-0.21042	0.43125	73.014	166.708	-105.213	226.157	214.120	181.525	172.132	171.710	99.472	-26.802	-88.719	-103.122	197.442	44.821	151.696	178.001	0.00011598	0.00027867	8.4508e-05	1150.5	1.811e-06	2.5208e-06	1229.1	236.73	2.2765e-06	3.3862e-06	301.33	83.802	66.461	19.771	2.4079e-06	27.508	0.00019176	0.00018628	5.3727e-05	1115.3	2.1076e-06	2.1622e-06	1204.6	233.9	2.2812e-06	2.1075e-06	297.03	83.906	66.432	19.782	1.9434e-06	27.651	223.168	-22.437	-21.624	-115.310	13.632	5.338	-115.066	-107.873	-2.341	48.648	-108.399	-101.908	-101.423	-93.621	9.222	-94.226	-8191	255	
690.672	1	1	0	0	0.25215	0.11817	0.13842	0.076789	0.16884	0.17511	0.10283	0.1939	0.040209	0.24586	0.19196	0.18517	0.086076	0.20188	0.086564	0.18239	0.65208	-0.26875	0.6	-0.19167	0.00625	0.52917	-0.32917	0.34583	0.2875	-0.21875	0.39583	-0.18958	-0.14583	0.47917	-0.1875	0.15833	228.656	-67.981	-14.149	233.350	-61.988	40.178	25.813	88.482	-78.713	32.362	-62.208	195.712	187.889	-114.354	-26.694	25.878	0.00010623	0.00024742	7.3324e-05	1144.6	2.092e-06	3.7416e-06	1223.9	236.34	1.8908e-06	2.8928e-06	302.54	84.056	66.65	19.787	1.6962e-06	27.259	0.00019781	0.00017835	5.3814e-05	1115.6	2.1275e-06	2.0915e-06	1202.9	233.23	2.2565e-06	1.9076e-06	296.84	84.078	66.436	19.771	2.0598e-06	27.555	228.784	-48.935	-39.760	-114.929	13.027	13.844	-115.190	-107.771	-15.290	24.954	-108.208	-101.692	-101.548	-93.633	6.983	-94.367	-8191	255	
690.792	1	1	0	0	0.22332	0.23289	0.19395	0.24223	0.26746	0.16776	0.34556	0.18707	0.059219	0.068008	0.34818	0.14635	0.19453	0.17815	0.066908	0.02702	0.76458	-0.3	0.52292	0.00625	0.12708	0.75	-0.41458	0.21458	0.51042	-0.23125	0.20625	0.025	-0.3	0.57708	0.0041667	0.22083	2.587	209.938	231.062	198.218	54.498	190.473	57.405	33.223	122.344	-73.301	-66.333	137.078	-7.447	175.664	-66.525	67.184	0.00011965	0.00026487	7.3446e-05	1142.8	1.9246e-06	3.2235e-06	1220.8	235.17	1.3818e-06	2.4684e-06	300.8	83.89	66.646	19.839	2.835e-06	27.46	0.00019378	0.00018963	5.4717e-05	1114.4	2.1599e-06	2.0727e-06	1200.9	232.71	2.3269e-06	1.9473e-06	296.18	84.24	66.474	19.798	2.1249e-06	27.571	224.495	-35.014	-37.693	-115.053	28.509	16.964	-115.139	-108.183	3.794	9.514	-108.314	-101.635	-101.107	-93.725	27.094	-94.306	-8191	255	
690.864	1	1	0	0	0.11177	0.17867	0.28645	0.11718	0.42104	0.28029	0.1918	0.2224	0.29024	0.23548	0.14007	0.11778	0.010865	0.20721	0.10283	0.036442	0.85417	-0.12708	0.46875	-0.014583	-0.23125	0.61875	-0.40625	-0.0020833	0.73125	-0.2375	0.11667	0.35417	-0.052083	0.43333	-0.095833	-0.03125	109.095	188.470	95.775	163.963	64.090	-45.065	133.340	123.145	46.441	-5.437	-66.771	143.580	-59.534	210.379	-121.944	-79.722	0.00011398	0.00034536	7.6129e-05	1141.6	2.9665e-06	4.0525e-06	1222.2	236.55	1.6789e-06	3.7015e-06	302.4	83.369	66.433	19.835	7.8876e-07	27.423	0.00020139	0.00018115	5.1532e-05	1113.7	2.1895e-06	2.0531e-06	1201	233.43	2.2785e-06	2.0129e-06	296.41	83.899	66.37	19.812	1.9716e-06	27.605	222.553	-22.082	-51.920	-115.045	21.175	17.304	-114.973	-108.246	-24.399	32.653	-108.332	-101.753	-101.507	-93.996	26.888	-94.007	-8191	255	
690.960	1	1	0	0	0.20387	0.13859	0.10476	0.19022	0.14133	0.078739	0.20589	0.13947	0.089472	0.066203	0.14799	0.27845	0.10828	0.13395	0.14611	0.11839	0.96458	-0.22917	0.53542	0.23333	-0.016667	0.63125	-0.26667	-0.26458	0.61042	-0.22708	0.064583	0.30625	-0.36667	0.4625	0.041667	-0.28542	21.628	231.432	118.273	-116.787	-34.737	194.602	174.730	-96.303	155.164	-86.237	-120.301	-2.401	32.993	-59.824	114.768	-106.767	0.00011935	0.00024331	9.0067e-05	1143.4	2.1309e-06	3.4888e-06	1220.8	237.1	2.1098e-06	4.0717e-06	301.15	83.357	66.692	19.831	1.9493e-06	27.482	0.00018896	0.00016874	4.9336e-05	1115.8	2.0237e-06	2.0906e-06	1200.6	233.49	2.4042e-06	2.0384e-06	296.35	84.078	66.591	19.787	2.0651e-06	27.521	218.754	-54.216	-36.879	-115.065	15.514	16.945	-115.111	-108.014	-17.018	33.149	-108.271	-101.700	-101.359	-93.927	-1.388	-94.075	-8191	255	
691.056	1	1	0	0	0.0715	0.048393	0.21435	0.11892	0.065833	0.27194	0.28195	0.090888	0.3726	0.19512	0.052197	0.0069213	0.086494	0.0945	0.17963	0.28199	0.86875	-0.17708	0.20417	0.48125	-0.3375	0.46667	-0.12708	-0.2625	0.46042	0.014583	0.13958	0.46667	-0.28125	0.5	0.2375	-0.33542	132.767	8.592	181.745	178.427	-86.089	-79.766	206.886	52.925	74.022	226.023	102.315	148.357	-57.829	147.288	-55.256	-114.874	0.0001074	0.00032829	8.7011e-05	1140.9	1.3758e-06	2.7884e-06	1218.2	236.59	1.546e-06	2.4258e-06	301.47	83.052	66.455	19.899	2.5055e-06	27.262	0.00019735	0.00018624	5.2401e-05	1114.7	2.0082e-06	2.129e-06	1201.8	233.32	2.2708e-06	1.9335e-06	296.89	83.888	66.569	19.821	2.0684e-06	27.65	217.633	-13.984	-23.571	-115.302	-13.692	10.592	-114.948	-108.353	-20.285	29.614	-108.056	-101.889	-101.163	-93.821	4.057	-94.385	-8191	255	
691.177	1	1	0	0	0.040826	0.11377	0.33406	0.098788	0.19313	0.35851	0.20763	0.31257	0.0072218	0.31458	0.12617	0.17482	0.047298	0.055391	0.15477	0.25231	0.90417	-0.17083	0.039583	0.41458	-0.2125	0.26458	-0.21458	-0.34792	0.38542	-0.12917	-0.14792	0.32292	-0.34583	0.20833	0.30417	-0.55833	229.883	-86.322	65.864	80.478	-57.868	-86.783	180.316	-40.260	155.864	-3.998	88.382	223.740	71.571	-64.404	-106.463	-71.734	0.00012603	0.0003952	8.9343e-05	1147.7	1.3625e-06	4.8628e-06	1227.4	237.43	2.5027e-06	2.0605e-06	300.78	83.707	65.96	19.943	2.2102e-06	27.585	0.00019983	0.00018426	4.7684e-05	1116.1	2.0516e-06	2.2225e-06	1202.6	233.93	2.3041e-06	2.0142e-06	296.58	83.976	66.404	19.878	2.129e-06	27.622	221.632	-23.770	-28.851	-114.882	41.638	32.617	-114.856	-108.166	-9.220	34.249	-107.931	-101.499	-100.855	-93.757	38.148	-94.143	-8191	255	
691.273	1	1	0	0	0.32091	0.043426	0.13718	0.1003	0.1699	0.22337	0.49941	0.18932	0.034361	0.26434	0.23364	0.06186	0.10144	0.047801	0.17012	0.26675	0.85833	0.075	-0.11458	0.28958	-0.3125	0.17917	0.27292	-0.39792	0.50417	-0.052083	-0.26667	0.53542	-0.32292	0.070833	0.48542	-0.40833	28.734	-107.900	-101.569	149.629	-40.007	-111.643	190.898	163.333	194.976	130.477	177.966	122.293	154.167	-42.536	-108.752	226.064	0.00010673	0.0002	7.3895e-05	1150.5	7.9092e-07	2.7982e-06	1225.3	237.31	2.1122e-06	2.8429e-06	302.83	83.704	66.623	19.798	2.2965e-06	27.365	0.0001942	0.00018928	4.9782e-05	1118.2	2.1676e-06	2.0596e-06	1202.5	233.76	2.4997e-06	2.0803e-06	297.43	84.084	66.526	19.782	2.2975e-06	27.605	224.245	-29.215	-26.662	-115.301	74.395	15.396	-115.037	-107.784	-21.437	9.170	-108.424	-101.673	-100.954	-93.697	15.798	-93.728	-8191	255	
691.367	1	1	0	0	0.069393	0.069238	0.30886	0.39356	0.064162	0.2466	0.17158	0.33838	0.14801	0.37909	0.114	0.15695	0.18472	0.10715	0.14061	0.32371	0.50417	0.28125	-0.0375	0.525	-0.0625	0.22083	0.275	-0.30833	0.525	0.1125	-0.49583	0.36875	-0.3	-0.20208	0.54167	-0.16667	-56.134	61.319	-54.619	204.513	-19.163	120.968	221.694	224.789	173.402	-72.763	-57.133	-74.655	36.967	-121.492	39.101	159.082	0.00013435	0.00026608	7.1729e-05	1142.1	2.5662e-06	3.3074e-06	1222.2	236.44	1.6172e-06	3.443e-06	302.18	83.708	66.151	19.9	2.1643e-06	27.464	0.00019649	0.00020164	4.9532e-05	1115.6	2.0078e-06	2.0727e-06	1201.1	233.62	2.3787e-06	2.082e-06	297.05	83.963	66.217	19.851	2.0807e-06	27.645	218.627	-31.255	-23.040	-115.030	31.853	26.174	-114.770	-107.661	-5.989	52.373	-108.113	-101.347	-101.123	-93.715	6.949	-94.055	-8191	255	
691.465	1	1	0	0	0.097401	0.1171	0.046489	0.10711	0.085882	0.27455	0.21947	0.020096	0.14657	0.2744	0.24652	0.1417	0.099961	0.12155	0.25065	0.13908	0.71042	0.31042	-0.11875	0.51875	-0.035417	-0.014583	0.50417	-0.34375	0.26458	0.38542	-0.33542	0.425	-0.10208	-0.05625	0.50208	-0.35833	229.247	40.669	79.845	-116.667	-91.765	145.459	219.011	-92.170	0.597	84.084	162.863	233.596	1.303	-111.449	189.834	-15.643	0.00011285	0.0002081	5.4805e-05	1151.1	2.1832e-06	2.3628e-06	1226.2	237.79	6.9088e-07	2.6948e-06	300.82	84.266	66.402	19.714	1.7833e-06	27.527	0.00019655	0.00019107	5.0184e-05	1117	2.224e-06	1.8806e-06	1201.7	234.06	2.289e-06	2.1157e-06	296.5	84.165	66.415	19.78	2.2208e-06	27.747	227.363	-30.158	-44.839	-115.225	12.691	33.089	-115.180	-107.642	-7.114	39.333	-107.970	-101.641	-101.227	-93.595	25.972	-94.236	-8191	255	
691.560	1	1	0	0	0.066676	0.19054	0.26839	0.2618	0.06714	0.11362	0.30585	0.18733	0.15003	0.19673	0.25327	0.2685	0.27862	0.16173	0.017458	0.20424	0.44792	0.44583	-0.28333	0.46667	-0.045833	-0.14167	0.5125	-0.17917	0.1875	0.45625	-0.24583	0.34167	0.016667	-0.18333	0.5	-0.47292	110.775	179.567	-59.353	62.429	-120.773	8.220	142.445	222.557	156.813	10.928	121.506	-64.551	220.552	169.146	198.317	-9.585	0.00012899	0.0003715	8.5881e-05	1152.3	2.8203e-06	2.4895e-06	1226.7	236.78	1.6112e-06	3.6317e-06	304.03	83.746	66.104	19.88	2.4656e-06	27.495	0.00018762	0.00019709	4.9956e-05	1118.3	2.2921e-06	1.9705e-06	1202.8	233.87	2.3199e-06	2.2293e-06	297.5	84.163	66.396	19.821	2.1352e-06	27.66	214.642	-43.216	-19.831	-115.242	37.393	19.633	-115.048	-107.903	5.352	44.942	-107.876	-101.364	-100.816	-93.777	34.857	-93.998	-8191	255	
691.656	1	1	0	0	0.19696	0.23709	0.1481	0.31064	0.39545	0.095555	0.17377	0.14125	0.24047	0.26622	0.10312	0.24645	0.085238	0.16313	0.31924	0.12261	0.35208	0.58542	-0.14167	0.19167	0.14792	-0.34167	0.12083	-0.28958	0.014583	0.31667	-0.28958	0.37083	0.13958	-0.34792	0.56875	-0.022917	101.946	41.465	231.231	164.543	219.163	219.805	176.055	212.877	-38.227	-104.650	230.846	-74.037	44.263	50.996	-18.445	-55.950	0.0001061	0.00031454	5.4976e-05	1146.1	2.0001e-06	2.3319e-06	1222.2	235.45	1.5757e-06	2.5847e-06	303.03	84.211	66.179	19.86	2.0195e-06	27.53	0.00019246	0.00020087	5.3358e-05	1117.2	2.2491e-06	1.9841e-06	1201.2	233.45	2.224e-06	2.2742e-06	297.77	84.287	66.428	19.822	2.122e-06	27.621	220.710	-31.274	-19.628	-115.013	9.753	28.516	-114.896	-107.632	2.394	40.331	-107.613	-101.407	-101.194	-93.748	19.249	-93.774	-8191	255	
691.776	1	1	0	0	0.2736	0.21892	0.050673	0.34804	0.38543	0.10239	0.44215	0.12783	0.18282	0.12358	0.11656	0.1476	0.26298	0.046932	0.38871	0.12234	0.2	0.60417	-0.15	-0.0375	0.32083	-0.16667	0.15625	0.12708	-0.00625	0.48542	-0.17292	0.28125	0.425	-0.14375	0.54792	-0.13958	15.094	25.162	101.357	156.320	-89.501	169.006	137.187	-13.637	132.010	83.104	135.539	-99.082	191.540	153.770	-115.354	115.945	0.00012702	0.00027936	0.0001221	1141.9	2.5798e-06	3.3659e-06	1226.4	238.1	2.0164e-06	3.2109e-06	303.43	82.892	65.848	19.891	2.7646e-06	27.66	0.00019127	0.00019068	5.2825e-05	1114.1	2.2285e-06	2.0697e-06	1202.8	234.37	2.2298e-06	2.1757e-06	297.95	83.749	66.116	19.854	2.3643e-06	27.698	222.332	-18.140	-31.398	-115.130	6.482	58.712	-114.861	-107.616	7.685	30.794	-108.271	-101.418	-100.858	-93.580	27.392	-94.196	-8191	255	
691.873	1	1	0	0	0.21782	0.12305	0.16759	0.019418	0.13906	0.21654	0.24439	0.21481	0.26781	0.13817	0.30663	0.099384	0.30573	0.24899	0.063003	0.38975	0.22292	0.7	0.15208	0.14375	0.33542	-0.36458	0.36875	0.21458	0.0083333	0.75208	-0.08125	0.022917	0.50625	-0.15208	0.4375	0.18125	-32.195	120.816	-54.018	25.932	203.601	189.813	188.405	158.990	156.860	8.774	141.490	213.683	70.842	228.421	-96.627	230.354	0.00011355	0.00022764	9.2806e-05	1144.3	2.2057e-06	2.4411e-06	1227.2	236.26	2.3058e-06	1.8805e-06	299.7	83.846	66.476	19.971	2.4974e-06	27.487	0.00018892	0.00019694	5.5314e-05	1115.4	2.2528e-06	1.9727e-06	1202.1	233.67	2.2093e-06	2.057e-06	295.95	84.139	66.385	19.856	2.2893e-06	27.645	222.187	-33.344	-47.399	-115.276	7.832	41.839	-114.729	-107.208	-33.947	42.227	-107.438	-101.578	-100.909	-93.362	23.927	-93.949	-8191	255	
691.969	1	1	0	0	0.24871	0.18591	0.10355	0.16559	0.1422	0.109	0.30595	0.21997	0.15516	0.072106	0.072161	0.078298	0.098717	0.14859	0.2214	0.1712	0.075	0.54583	0.097917	-0.077083	0.33333	-0.035417	0.21667	0.16667	-0.24375	0.50208	-0.19583	-0.26042	0.54583	-0.06875	0.40208	0.28542	-83.281	32.518	-102.401	-98.155	42.830	9.798	194.568	144.557	154.368	-67.771	122.312	87.083	40.484	221.339	-45.024	-93.452	0.00012196	0.0002196	9.2799e-05	1144.9	1.0187e-06	3.3369e-06	1227.4	236.96	2.108e-06	3.5407e-06	302.63	84.12	66.54	19.922	2.8544e-06	27.478	0.00018303	0.00020522	5.2238e-05	1116.2	2.2163e-06	2.0216e-06	1204.3	233.76	2.2306e-06	2.0889e-06	297.85	84.276	66.442	19.827	2.1901e-06	27.743	217.103	-51.054	-27.280	-114.891	16.873	14.267	-115.030	-107.560	-7.930	18.864	-107.784	-101.335	-101.052	-93.371	52.308	-94.011	-8191	255	
692.065	1	1	0	0	0.097045	0.13957	0.16921	0.11303	0.1629	0.26193	0.36903	0.25787	0.051934	0.11728	0.14079	0.18238	0.096972	0.30517	0.44742	0.14728	-0.079167	0.58542	0.022917	-0.29792	0.5875	-0.23958	0.13958	0.36667	-0.21667	0.50417	0.1625	-0.37083	0.39375	-0.11458	-0.014583	0.39375	181.131	32.507	40.567	-111.176	-67.482	44.813	155.030	224.228	-3.869	166.873	-116.967	39.472	193.231	-78.552	27.494	173.670	0.00012813	0.0002881	4.1128e-05	1146.1	2.1667e-06	4.0103e-06	1222.5	236.41	6.8031e-07	3.8365e-06	301.85	83.691	66.213	19.951	2.6148e-06	27.521	0.00018762	0.00020682	5.5804e-05	1118.9	2.3448e-06	2.0443e-06	1203.7	233.91	2.1335e-06	2.1511e-06	297.5	84.298	66.505	19.914	2.2593e-06	27.663	218.616	-35.520	-82.027	-114.550	-25.295	4.368	-114.711	-107.357	-23.716	31.571	-107.716	-101.264	-100.840	-93.196	33.838	-93.731	-8191	255	
692.161	1	1	0	0	0.13231	0.35237	0.08011	0.02734	0.18893	0.012915	0.12743	0.32932	0.10572	0.088082	0.17342	0.3837	0.26706	0.086286	0.18405	0.1947	0.041667	0.46458	0.3375	-0.30833	0.52292	-0.064583	-0.10417	0.475	-0.23333	0.35833	0.2875	-0.18958	0.43542	-0.17083	-0.052083	0.4375	-31.695	171.066	224.607	147.635	16.738	163.239	197.057	200.259	-122.620	132.254	-119.481	221.226	214.470	90.184	-116.914	39.419	0.00013356	0.00023885	6.368e-05	1144.1	2.3033e-06	1.7899e-06	1229.1	237.05	2.006e-06	2.8874e-06	301.04	83.737	66.345	19.816	1.6634e-06	27.661	0.00019926	0.00020736	5.5108e-05	1115.4	2.3724e-06	2.1723e-06	1204.6	233.84	2.3037e-06	2.079e-06	297.1	84.149	66.419	19.843	2.0077e-06	27.724	223.633	-21.210	-50.742	-115.100	33.755	18.781	-114.668	-107.682	-12.395	31.493	-107.709	-101.456	-100.775	-93.294	0.148	-93.198	-8191	255	
692.257	1	1	0	0	0.23167	0.14513	0.32672	0.084207	0.17092	0.19656	0.24453	0.33588	0.26507	0.22039	0.19047	0.041463	0.18059	0.16164	0.15308	0.094531	0.20625	0.43333	0.34167	-0.39792	0.51458	-0.022917	-0.35	0.5875	-0.14583	0.43958	0.33542	-0.36667	0.42292	0.077083	-0.17292	0.54167	225.731	-59.746	33.209	165.579	36.792	217.523	219.497	105.657	201.362	100.631	-5.746	194.080	224.915	133.959	64.994	-82.225	0.00012836	0.00026	8.9751e-05	1141.3	1.2786e-06	3.9236e-06	1224.8	237.1	1.6046e-06	3.3857e-06	303.31	84.279	66.176	19.894	1.8591e-06	27.514	0.00018786	0.00018838	5.6369e-05	1118.1	2.37e-06	2.1395e-06	1206	233.96	2.1726e-06	2.0427e-06	298.28	84.178	66.501	19.905	2.0462e-06	27.637	216.014	-36.994	-28.950	-115.085	-45.781	43.670	-114.731	-107.770	-23.612	32.643	-107.729	-101.357	-101.130	-93.690	12.148	-94.078	-8191	255	
692.353	1	1	0	0	0.21209	0.089733	0.18662	0.057103	0.095767	0.097232	0.13465	0.16583	0.16159	0.26384	0.18307	0.35331	0.13915	0.30218	0.11244	0.087041	0.039583	0.30625	0.43542	-0.41458	0.38125	-0.10208	-0.37292	0.5	-0.30417	0.13958	0.34375	-0.50625	0.36458	0.24792	-0.17708	0.58125	-23.649	139.696	-40.891	97.201	143.205	145.439	-104.408	204.197	102.761	197.413	227.225	160.506	-92.345	-78.742	69.473	131.602	0.00013053	0.00025075	0.00010556	1145	2.1805e-06	2.2418e-06	1226.5	235.69	1.4991e-06	4.0195e-06	300.72	84.215	66.482	20.017	2.4003e-06	27.499	0.00018969	0.00019266	5.489e-05	1119	2.3323e-06	2.1958e-06	1205.6	233.54	2.3029e-06	1.9952e-06	298.1	84.225	66.415	19.918	2.0479e-06	27.643	218.426	-42.699	-45.386	-114.788	42.142	49.150	-114.555	-107.351	19.757	24.458	-107.534	-101.108	-100.483	-93.407	34.084	-93.403	-8191	255	
692.472	1	1	0	0	0.1393	0.087937	0.13033	0.13651	0.2593	0.26743	0.16572	0.41906	0.27284	0.30565	0.060734	0.23381	0.38256	0.18291	0.14516	0.22904	0.26667	0.045833	0.5375	-0.36875	0.54375	0.425	-0.37708	0.43333	0.01875	0.05625	0.2875	-0.35417	0.18333	0.425	-0.30833	0.3875	-105.637	-10.794	94.307	226.122	137.731	-64.621	107.592	174.237	228.599	-93.413	131.228	224.123	234.152	-50.553	-55.085	93.216	0.00012161	0.00029315	8.603e-05	1145.5	2.1023e-06	3.0643e-06	1228.6	236.49	2.0001e-06	3.2634e-06	301.35	84.004	66.14	19.866	2.5946e-06	27.557	0.00018905	0.00019317	5.7162e-05	1116.8	2.3181e-06	2.1928e-06	1204.9	233.64	2.3025e-06	1.946e-06	297.11	84.288	66.577	19.855	2.1573e-06	27.684	222.371	-26.424	-16.457	-114.672	16.589	25.894	-114.659	-107.290	-20.124	34.010	-107.203	-100.920	-100.582	-93.036	26.375	-93.454	-8191	255	
692.568	1	1	0	0	0.073454	0.17608	0.25105	0.067865	0.089097	0.27054	0.31925	0.1525	0.091589	0.26091	0.23976	0.17667	0.12717	0.1581	0.23552	0.21912	0.45625	-0.089583	0.54792	-0.26458	0.22292	0.2125	-0.375	0.425	0.12708	-0.029167	0.52292	-0.072917	0.23542	0.47917	-0.30833	0.38333	-64.019	60.097	-36.097	-116.870	-22.904	156.734	139.743	-78.548	162.317	223.685	-18.596	182.476	65.596	110.848	-110.500	26.279	0.00012017	0.00026809	6.0012e-05	1151.3	2.0901e-06	2.9228e-06	1231.1	237.39	2.4305e-06	1.9379e-06	301.65	83.682	66.912	19.894	2.0249e-06	27.424	0.0001986	0.00018842	5.426e-05	1119.7	2.2289e-06	2.1544e-06	1206.6	234.36	2.3137e-06	1.9775e-06	297.88	84.221	66.649	19.859	2.1966e-06	27.669	222.881	-25.050	-45.630	-114.547	50.987	45.506	-114.427	-107.506	-7.521	18.997	-107.828	-101.113	-100.727	-93.347	42.271	-93.458	-8191	255	
692.665	1	1	0	0	0.14957	0.17206	0.15904	0.24974	0.27487	0.19069	0.17917	0.21345	0.058686	0.043062	0.21323	0.16684	0.2403	0.22322	0.11284	0.3156	0.46458	-0.0875	0.57083	-0.20417	0.25833	0.48542	-0.525	0.32917	0.12708	-0.17917	0.48125	-0.1125	-0.020833	0.64583	-0.1125	0.19375	-14.034	106.549	-5.866	209.597	84.265	115.230	-78.407	230.784	216.004	89.588	227.279	41.004	-48.038	178.330	204.734	164.711	0.00013065	0.00027788	0.00011012	1143.1	2.201e-06	2.6472e-06	1226.2	237.52	2.0351e-06	4.2373e-06	302.29	83.711	66.859	19.73	1.9824e-06	27.356	0.00019552	0.00017699	5.4206e-05	1117.6	2.2633e-06	2.1159e-06	1205.7	234.46	2.2963e-06	2.1187e-06	297.58	84.243	66.561	19.816	2.0786e-06	27.58	221.379	-26.201	-29.520	-114.753	13.917	36.861	-114.480	-107.216	-18.986	18.006	-107.742	-101.279	-100.934	-93.590	30.265	-93.937	-8191	255	
692.738	1	1	0	0	0.26808	0.14905	0.12947	0.059423	0.040962	0.32537	0.33021	0.36489	0.32443	0.074766	0.28014	0.092761	0.16709	0.18379	0.15396	0.10094	0.59375	-0.29583	0.51667	-0.11875	0.08125	0.55625	-0.53125	0.33125	0.28333	-0.43125	0.45208	0.047917	0.052083	0.5375	-0.21875	0.19167	203.220	119.816	-48.559	21.399	-10.637	219.408	149.892	165.224	190.341	-59.771	177.412	-58.220	143.995	155.061	-16.133	136.031	0.00012803	0.00039926	9.9741e-05	1143.9	1.4842e-06	3.2074e-06	1229	236.24	1.4574e-06	2.9177e-06	300.33	83.734	66.554	19.815	2.1857e-06	27.298	0.00018916	0.00020207	5.3064e-05	1118.4	2.1453e-06	2.1299e-06	1204.9	234.25	2.4321e-06	2.237e-06	297.25	84.201	66.593	19.863	2.1934e-06	27.651	218.836	-48.710	-21.889	-114.749	7.128	17.932	-114.409	-107.604	-17.294	24.321	-107.733	-100.972	-100.795	-93.144	27.088	-93.782	-8191	255	
692.857	1	1	0	0	0.28181	0.16096	0.17907	0.17446	0.08788	0.077248	0.17738	0.21178	0.15951	0.33094	0.35174	0.0049169	0.098062	0.2351	0.23088	0.33947	0.71875	-0.15625	0.47917	0.08125	-0.18125	0.62083	-0.33333	0.020833	0.81667	-0.29375	0.23958	0.175	-0.23333	0.6	-0.05625	0.01875	53.168	-55.813	36.973	180.326	-123.262	18.945	230.946	178.958	160.749	175.750	-110.102	-95.376	143.604	115.478	-103.189	172.174	0.00013836	0.00032583	9.4844e-05	1145.3	2.223e-06	4.0379e-06	1226.3	236.44	2.0114e-06	3.1066e-06	299.96	83.967	66.689	19.784	1.9343e-06	27.405	0.00019726	0.00019729	5.6456e-05	1120	2.1287e-06	2.2784e-06	1206.9	234.1	2.2619e-06	2.0099e-06	297.04	84.398	66.562	19.836	2.0889e-06	27.672	220.676	-32.283	-18.488	-114.784	20.031	42.689	-114.359	-107.726	3.360	23.209	-107.487	-101.161	-100.878	-93.401	33.533	-94.123	-8191	255	
692.953	1	1	0	0	0.19598	0.12397	0.043858	0.28713	0.20618	0.079192	0.070231	0.084939	0.28014	0.12387	0.37597	0.14227	0.31021	0.30965	0.18742	0.17535	0.9	-0.020833	0.21458	-0.039583	-0.2125	0.49792	-0.27917	-0.14583	0.56667	-0.36458	0.25625	0.47917	-0.20417	0.49792	0.085417	-0.2	10.398	134.915	26.554	-118.081	129.110	167.947	125.172	226.322	203.209	-15.448	228.172	-97.440	-122.186	-111.965	151.841	143.217	0.00012786	0.00031585	8.1217e-05	1142.7	1.696e-06	3.1453e-06	1222.2	234.7	1.7749e-06	3.1395e-06	298.04	83.849	65.732	19.756	1.0004e-06	27.349	0.00020025	0.00019289	5.5021e-05	1120.8	2.2122e-06	2.1806e-06	1205.7	233.96	2.4847e-06	1.8882e-06	296.13	84.355	66.715	19.83	2.0753e-06	27.594	224.300	-13.196	-33.601	-114.526	56.628	27.760	-114.667	-107.387	-27.675	26.335	-107.862	-101.311	-100.791	-93.537	-6.330	-93.598	-8191	255	
693.049	1	1	0	0	0.072603	0.26367	0.24139	0.26832	0.16742	0.16954	0.19687	0.33592	0.094905	0.19236	0.1208	0.19846	0.23622	0.28204	0.15566	0.11156	1.025	-0.020833	0.28542	0.31458	-0.43125	0.49792	-0.1125	-0.21875	0.69375	-0.38333	0.2625	0.60208	-0.32917	0.5	0.21875	-0.18125	-105.243	81.283	88.788	-109.680	22.627	22.354	-122.538	-63.538	-85.461	198.135	181.925	-94.730	-52.548	-59.963	94.481	-78.119	0.00010049	0.00023039	6.0145e-05	1142.9	2.7253e-06	2.3528e-06	1217.8	235.92	9.722e-07	4.3524e-06	299.85	82.898	65.543	19.639	1.7965e-06	27.248	0.00020038	0.00018951	5.6543e-05	1121	2.1425e-06	2.2452e-06	1205.6	233.88	2.4313e-06	2.0699e-06	296.95	83.864	66.242	19.837	2.202e-06	27.565	218.519	-47.204	-34.999	-115.273	7.807	59.060	-114.674	-107.786	-0.858	35.758	-107.573	-101.280	-100.922	-93.288	25.852	-93.915	-8191	255	
693.145	1	1	0	0	0.20625	0.056681	0.15974	0.051864	0.13826	0.1479	0.13772	0.11886	0.096028	0.11644	0.16171	0.11302	0.18833	0.18477	0.08738	0.16608	0.69167	-0.089583	0.12292	0.52917	-0.37083	0.39583	0.125	-0.24583	0.53958	-0.24583	-0.089583	0.4375	-0.079167	0.32292	0.48542	-0.225	22.075	-38.832	25.948	-87.146	76.010	108.905	193.256	21.743	9.909	147.867	170.540	136.578	-30.533	104.965	192.749	70.773	0.00011338	0.00034228	9.7332e-05	1129.7	2.6337e-06	4.3049e-06	1217.4	234.77	2.1671e-06	3.4132e-06	297.18	82.599	66.077	19.76	2.0661e-06	27.362	0.00019576	0.00019713	5.5336e-05	1116.1	2.2617e-06	2.1897e-06	1204.7	233.84	2.3702e-06	2.1537e-06	296.27	83.967	66.652	19.886	2.2446e-06	27.659	225.984	-35.037	-48.666	-114.781	17.104	20.252	-114.254	-107.434	1.090	-3.962	-107.611	-101.116	-100.588	-93.637	33.135	-93.095	-8191	255	
693.264	1	1	0	0	0.14683	0.2317	0.1195	0.30532	0.097508	0.23248	0.1677	0.13415	0.26472	0.028833	0.24077	0.27961	0.26039	0.1478	0.060608	0.14334	0.91667	0.03125	-0.014583	0.50417	-0.25625	0.36042	0.085417	-0.39375	0.54583	-0.15833	-0.085417	0.575	-0.37708	0.28958	0.43333	-0.37708	210.433	61.810	161.666	100.270	-114.336	-99.159	139.666	194.916	202.274	96.043	178.970	163.931	-73.489	234.191	72.904	25.767	0.00012588	0.00031574	9.4684e-05	1133	2.1557e-06	3.8717e-06	1222.5	235.26	2.5576e-06	3.7012e-06	298.23	83.27	65.84	19.914	2.5875e-06	27.551	0.00019719	0.00020036	5.951e-05	1116.3	2.267e-06	2.1631e-06	1208.6	234.35	2.4386e-06	2.2668e-06	297.12	84.079	66.455	19.899	2.3733e-06	27.691	216.221	-19.163	-29.894	-114.997	24.410	11.084	-114.312	-107.346	-26.490	37.403	-108.015	-101.327	-100.148	-92.967	10.604	-93.924	-8191	255	
693.338	1	1	0	0	0.25276	0.19418	0.19835	0.068693	0.14866	0.17063	0.084126	0.13712	0.16	0.12952	0.39998	0.34567	0.043231	0.17073	0.12297	0.2462	0.92083	0.075	-0.32292	0.35417	-0.11875	0.20833	0.31458	-0.3375	0.4625	-0.1375	-0.34792	0.57083	-0.17708	0.05625	0.56458	-0.17292	-61.975	231.399	-21.210	-47.064	48.353	-6.869	-78.335	111.687	-33.395	136.718	152.254	-68.760	228.211	-45.737	-17.508	150.780	0.00013469	0.00038113	0.00012766	1141.1	2.2285e-06	4.4536e-06	1218.6	234.47	2.1615e-06	2.3336e-06	301.53	84.104	66.683	19.72	2.0579e-06	27.451	0.00019926	0.00019161	5.4097e-05	1118.7	2.398e-06	2.2653e-06	1206.4	233.65	2.3942e-06	2.1036e-06	297.82	84.328	66.661	19.867	2.3364e-06	27.752	218.570	-53.470	-19.378	-114.351	14.085	32.053	-114.198	-107.437	-8.225	20.151	-107.688	-100.893	-100.474	-93.216	20.517	-93.508	-8191	255	
693.458	1	1	0	0	0.25842	0.071813	0.035232	0.37703	0.057886	0.18012	0.30706	0.23168	0.069822	0.372	0.12298	0.097726	0.14283	0.18761	0.12256	0.20526	0.62292	0.20833	-0.24792	0.55	0	0.03125	0.32917	-0.25625	0.33958	0.2625	-0.16042	0.61458	0.070833	-0.24167	0.59375	-0.2875	12.132	226.891	28.483	173.763	42.126	225.076	2.260	135.186	35.047	23.101	-96.134	-21.991	176.540	209.924	77.217	141.387	9.5025e-05	0.00043527	0.00010438	1146.5	2.6832e-06	3.3154e-06	1227.6	235.77	2.3893e-06	2.1492e-06	299.86	83.313	65.823	19.823	1.4265e-06	27.229	0.00019952	0.00020153	5.3369e-05	1123	2.2589e-06	2.064e-06	1208.3	234.34	2.41e-06	2.0756e-06	297.31	84.191	66.549	19.892	2.2663e-06	27.696	219.058	-23.301	-66.323	-114.715	17.007	16.275	-114.310	-107.413	-21.441	10.999	-107.463	-101.000	-100.327	-92.966	33.337	-93.618	-8191	255	
693.554	1	1	0	0	0.17605	0.24136	0.30133	0.055716	0.25433	0.39239	0.085639	0.10502	0.11532	0.14568	0.045523	0.27816	0.043449	0.16123	0.096902	0.068222	0.56875	0.46042	-0.26458	0.39583	0.12917	-0.13958	0.47292	-0.28333	0.2	0.25625	-0.42708	0.46042	0.066667	-0.17083	0.63125	-0.24792	128.263	37.647	-99.028	121.688	186.111	-103.793	184.684	3.118	154.600	-20.800	207.772	201.320	-81.094	-124.786	2.229	200.654	0.00011139	0.00037447	8.2792e-05	1142.1	1.3657e-06	3.5173e-06	1222.9	236.12	1.9097e-06	3.2418e-06	300.13	83.451	66.103	19.685	2.1309e-06	27.446	0.00019508	0.00019538	5.2586e-05	1120.8	2.2917e-06	2.1369e-06	1207.8	234.54	2.451e-06	2.2081e-06	297.96	84.199	66.561	19.815	2.413e-06	27.756	214.764	-65.959	-33.650	-114.337	35.520	40.713	-114.671	-107.531	-27.062	44.424	-107.395	-100.913	-100.767	-93.139	23.525	-93.075	-8191	255	
693.649	1	1	0	0	0.10786	0.064762	0.1258	0.2137	0.15391	0.14869	0.17398	0.18505	0.25675	0.082646	0.25546	0.14936	0.32578	0.24544	0.06203	0.095382	0.40833	0.525	-0.1	0.29792	0.18958	-0.12917	0.29792	-0.12917	0.010417	0.53333	-0.37708	0.32292	0.15417	-0.21875	0.63333	-0.097917	30.081	127.098	-16.982	35.081	85.922	-83.088	97.344	104.790	107.951	3.277	172.723	24.682	22.989	-121.274	216.406	-124.156	0.00012142	0.00036787	0.00010263	1142.1	1.7379e-06	3.1943e-06	1219.9	235.84	1.4566e-06	2.2787e-06	297.34	83.203	66.291	19.675	1.7182e-06	27.091	0.00019004	0.00019717	5.4097e-05	1121.9	2.2236e-06	2.0723e-06	1209.4	234.04	2.313e-06	2.1261e-06	296.82	84.241	66.838	19.823	2.245e-06	27.672	216.703	-38.041	-22.721	-114.922	-20.324	-0.295	-114.408	-107.337	-19.101	24.030	-107.223	-101.000	-100.169	-92.986	15.616	-93.628	-8191	255	
693.745	1	1	0	0	0.29868	0.068235	0.10098	0.19267	0.024252	0.19115	0.20791	0.15724	0.20118	0.12071	0.14465	0.12959	0.15672	0.085253	0.025837	0.077092	0.42083	0.32708	-0.22292	0.325	0.45833	-0.15625	0.16875	-0.20208	0.0020833	0.47708	-0.19792	0.13958	0.29792	-0.53333	0.57917	-0.0083333	-42.982	-14.925	-47.289	-0.576	-79.079	-117.824	105.716	132.457	196.645	-14.708	-115.233	215.594	-46.047	145.999	203.718	227.673	0.00011691	0.00024132	0.00011046	1142.9	1.9741e-06	4.005e-06	1221.4	237.02	3.4587e-06	2.556e-06	298.37	83.568	66.265	19.805	1.3667e-06	27.448	0.0001988	0.00020814	5.3825e-05	1120.4	2.325e-06	2.1552e-06	1209	234.63	2.3369e-06	2.3264e-06	298.15	84.254	66.839	19.896	2.3352e-06	27.716	223.920	-50.150	-31.463	-114.552	29.473	-0.893	-114.123	-107.058	4.754	5.568	-107.014	-100.997	-100.224	-92.783	3.309	-93.004	-8191	255	
#DATA ENDS
