BOXY.EXE: ISS Imagent and Oximeter Data Acquisition Program Version 0.80
Ascii Record File

#ACQ INFORMATION
2  Detector Channels 
16  External MUX Channels 
1  Auxiliary Channels 
5000  Waveform (CCF) Frequency (Hz)
1  Waveforms Skipped 
30  Waveforms Averaged 
1  Cycles Averaged 
16  Acquisitions per Waveform 
10.0806  Updata Rate (Hz) 

#FILE INFORMATION
TRUE -- External MUX Channel results are PARSED.
FALSE -- AC DC and Phase are NOT grouped.
TRUE -- Companion Program Settings File CREATED.
FALSE -- AC data not excluded
FALSE -- DC data not excluded
FALSE -- Phase data not excluded
FALSE -- Auxillary Chn. data not excluded
Tab delimiters

#CALIBRATION STATE
TRUE -- Waveform Calibration Values APPLIED.


#AUX CALIBRATION VALUES
Val Type	aux-1	

Term	1.0000e+00	
Factor	0.0000e+00	


#WF CALIBRATION VALUES
A = Detector Channel
Val Type	A-AC1	A-AC2	A-AC3	A-AC4	A-AC5	A-AC6	A-AC7	A-AC8	A-AC9	A-AC10	A-AC11	A-AC12	A-AC13	A-AC14	A-AC15	A-AC16	A-DC1	A-DC2	A-DC3	A-DC4	A-DC5	A-DC6	A-DC7	A-DC8	A-DC9	A-DC10	A-DC11	A-DC12	A-DC13	A-DC14	A-DC15	A-DC16	A-Ph1	A-Ph2	A-Ph3	A-Ph4	A-Ph5	A-Ph6	A-Ph7	A-Ph8	A-Ph9	A-Ph10	A-Ph11	A-Ph12	A-Ph13	A-Ph14	A-Ph15	A-Ph16	

Term	0.00000e+00	0.00000e+00	0.00000e+00	0.00000e+00	0.00000e+00	0.00000e+00	0.00000e+00	0.00000e+00	0.00000e+00	0.00000e+00	0.00000e+00	0.00000e+00	0.00000e+00	0.00000e+00	0.00000e+00	0.00000e+00	0.00000e+00	0.00000e+00	0.00000e+00	0.00000e+00	0.00000e+00	0.00000e+00	0.00000e+00	0.00000e+00	0.00000e+00	0.00000e+00	0.00000e+00	0.00000e+00	0.00000e+00	0.00000e+00	0.00000e+00	0.00000e+00	0.00000e+00	0.00000e+00	0.00000e+00	0.00000e+00	0.00000e+00	0.00000e+00	0.00000e+00	0.00000e+00	0.00000e+00	0.00000e+00	0.00000e+00	0.00000e+00	0.00000e+00	0.00000e+00	0.00000e+00	0.00000e+00	
Factor	1.00000e+00	1.00000e+00	1.00000e+00	1.00000e+00	1.00000e+00	1.00000e+00	1.00000e+00	1.00000e+00	1.00000e+00	1.00000e+00	1.00000e+00	1.00000e+00	1.00000e+00	1.00000e+00	1.00000e+00	1.00000e+00	1.00000e+00	1.00000e+00	1.00000e+00	1.00000e+00	1.00000e+00	1.00000e+00	1.00000e+00	1.00000e+00	1.00000e+00	1.00000e+00	1.00000e+00	1.00000e+00	1.00000e+00	1.00000e+00	1.00000e+00	1.00000e+00	X	X	X	X	X	X	X	X	X	X	X	X	X	X	X	X	

B = Detector Channel
Val Type	B-AC1	B-AC2	B-AC3	B-AC4	B-AC5	B-AC6	B-AC7	B-AC8	B-AC9	B-AC10	B-AC11	B-AC12	B-AC13	B-AC14	B-AC15	B-AC16	B-DC1	B-DC2	B-DC3	B-DC4	B-DC5	B-DC6	B-DC7	B-DC8	B-DC9	B-DC10	B-DC11	B-DC12	B-DC13	B-DC14	B-DC15	B-DC16	B-Ph1	B-Ph2	B-Ph3	B-Ph4	B-Ph5	B-Ph6	B-Ph7	B-Ph8	B-Ph9	B-Ph10	B-Ph11	B-Ph12	B-Ph13	B-Ph14	B-Ph15	B-Ph16	

Term	0.00000e+00	0.00000e+00	0.00000e+00	0.00000e+00	0.00000e+00	0.00000e+00	0.00000e+00	0.00000e+00	0.00000e+00	0.00000e+00	0.00000e+00	0.00000e+00	0.00000e+00	0.00000e+00	0.00000e+00	0.00000e+00	0.00000e+00	0.00000e+00	0.00000e+00	0.00000e+00	0.00000e+00	0.00000e+00	0.00000e+00	0.00000e+00	0.00000e+00	0.00000e+00	0.00000e+00	0.00000e+00	0.00000e+00	0.00000e+00	0.00000e+00	0.00000e+00	4.69284e+01	-1.27582e+02	-1.30931e+02	-1.83936e+02	-7.62020e+01	-6.69807e+01	-1.56989e+02	-1.62015e+02	-5.22494e+01	-7.94096e+01	-1.78987e+02	-1.72875e+02	-1.82137e+02	-1.78866e+02	-7.23244e+01	-1.51154e+02	
Factor	6.73214e-05	1.82383e-04	5.06034e-05	1.89429e-01	1.93940e-06	2.29934e-06	1.72175e-01	6.05181e-02	3.16237e-06	2.20276e-06	1.07814e-01	3.31898e-02	2.86066e-02	1.08537e-02	2.29806e-06	1.49911e-02	5.72136e-06	6.42153e-06	1.79335e-06	9.47223e-02	6.88599e-08	7.09668e-08	8.12099e-02	3.03370e-02	6.85387e-08	7.09561e-08	5.23066e-02	1.61085e-02	1.44478e-02	5.47581e-03	6.95704e-08	7.34234e-03	X	X	X	X	X	X	X	X	X	X	X	X	X	X	X	X	



#DISTANCE SETTINGS
A = Detector Channel
A-1	A-2	A-3	A-4	A-5	A-6	A-7	A-8	A-9	A-10	A-11	A-12	A-13	A-14	A-15	A-16	

2.5000e+00	3.0000e+00	2.5000e+00	3.0000e+00	2.0000e+00	3.0000e+00	1.5000e+00	3.0000e+00	3.0000e+00	3.0000e+00	3.0000e+00	3.0000e+00	3.0000e+00	3.0000e+00	1.5000e+00	3.0000e+00	

B = Detector Channel
B-1	B-2	B-3	B-4	B-5	B-6	B-7	B-8	B-9	B-10	B-11	B-12	B-13	B-14	B-15	B-16	

1.0000e+01	1.0000e+01	1.0000e+01	1.4400e+00	1.0000e+01	1.0000e+01	1.5100e+00	1.9400e+00	1.0000e+01	1.0000e+01	1.9900e+00	2.4900e+00	2.4100e+00	2.9000e+00	1.0000e+01	2.9800e+00	




#DATA BEGINS
time	group	step	mark	flag	A-AC1	A-AC2	A-AC3	A-AC4	A-AC5	A-AC6	A-AC7	A-AC8	A-AC9	A-AC10	A-AC11	A-AC12	A-AC13	A-AC14	A-AC15	A-AC16	A-DC1	A-DC2	A-DC3	A-DC4	A-DC5	A-DC6	A-DC7	A-DC8	A-DC9	A-DC10	A-DC11	A-DC12	A-DC13	A-DC14	A-DC15	A-DC16	A-Ph1	A-Ph2	A-Ph3	A-Ph4	A-Ph5	A-Ph6	A-Ph7	A-Ph8	A-Ph9	A-Ph10	A-Ph11	A-Ph12	A-Ph13	A-Ph14	A-Ph15	A-Ph16	B-AC1	B-AC2	B-AC3	B-AC4	B-AC5	B-AC6	B-AC7	B-AC8	B-AC9	B-AC10	B-AC11	B-AC12	B-AC13	B-AC14	B-AC15	B-AC16	B-DC1	B-DC2	B-DC3	B-DC4	B-DC5	B-DC6	B-DC7	B-DC8	B-DC9	B-DC10	B-DC11	B-DC12	B-DC13	B-DC14	B-DC15	B-DC16	B-Ph1	B-Ph2	B-Ph3	B-Ph4	B-Ph5	B-Ph6	B-Ph7	B-Ph8	B-Ph9	B-Ph10	B-Ph11	B-Ph12	B-Ph13	B-Ph14	B-Ph15	B-Ph16	aux-1	digaux	

671.220	1	1	0	256	0.14524	0.057995	0.056018	0.13119	0.18964	0.27006	0.33837	0.29558	0.07005	0.086091	0.23781	0.22963	0.27159	0.085221	0.070487	0.2656	-3.0479	-3.1583	-3.4292	-3.425	-3.025	-3.4896	-3.4521	-3.2687	-3.6125	-3.2021	-3.2208	-3.4521	-3.1417	-3.4062	-3.3708	-3.2229	7.579	96.650	-22.470	310.954	4.485	310.777	282.224	280.677	267.175	296.327	307.263	233.135	-0.674	238.245	110.882	315.289	0.00076552	0.00083981	0.00016577	1363.9	5.9868e-06	6.6695e-06	1370.5	377.67	9.5794e-06	9.5031e-06	426.3	146.98	126.38	43.763	5.1214e-06	53.851	0.00060928	0.00061364	0.00017162	1397.3	6.7978e-06	6.6725e-06	1400	387.5	6.7601e-06	6.7033e-06	437.94	151.18	130.06	45.402	6.8278e-06	55.78	313.010	72.626	69.271	-10.702	151.218	103.558	-10.850	-6.070	205.932	120.262	-6.820	-2.583	-1.758	2.886	91.707	1.765	-8191	255	
671.316	1	1	0	0	0.11589	0.080317	0.19498	0.23102	0.36836	0.07468	0.35592	0.27707	0.20376	0.1012	0.068816	0.18012	0.18421	0.18271	0.15032	0.11216	-2.9521	-3.075	-3.3729	-3.5729	-2.8958	-3.4021	-3.5438	-3.0167	-3.5	-2.9979	-3.3271	-3.4979	-3.0854	-3.5375	-3.3937	-3.1104	328.777	125.183	292.924	218.114	263.230	208.147	312.098	296.500	216.455	23.607	239.679	273.482	207.863	257.032	310.386	300.300	0.00073227	0.00031828	0.00019548	1368.1	4.8768e-06	1.1049e-05	1367.7	379.37	1.0729e-05	6.9084e-06	426.79	146.91	126.02	43.719	3.6186e-06	53.467	0.00062416	0.00062352	0.00017303	1399	6.8886e-06	6.9138e-06	1398.9	387.79	6.808e-06	6.8864e-06	438.87	151.19	129.99	45.333	6.8856e-06	55.682	312.210	31.118	74.828	-10.717	156.395	141.646	-10.701	-6.046	157.981	104.662	-6.705	-2.556	-2.041	2.825	112.467	2.239	-8191	255	
671.412	1	1	0	0	0.15795	0.17296	0.17989	0.15274	0.13787	0.25084	0.28973	0.31485	0.26808	0.010928	0.041766	0.076228	0.14526	0.53227	0.071746	0.18791	-3.1917	-3.1063	-3.2667	-3.6083	-3.0396	-3.3187	-3.4729	-3.0542	-3.3208	-3.0229	-3.2896	-3.4938	-3.1312	-3.3083	-3.3479	-2.8875	95.781	204.098	168.687	248.832	327.295	149.350	305.281	-7.020	144.866	237.510	264.854	302.827	315.082	269.573	161.049	296.012	0.00076106	0.00050839	0.00020876	1369.4	6.6177e-06	6.8299e-06	1371.2	377.86	6.5068e-06	3.2826e-06	426.31	147.1	126.01	43.891	5.7874e-06	53.888	0.00062691	0.00062539	0.00017729	1401.4	6.9648e-06	6.9324e-06	1400.9	387.26	7.0515e-06	6.9544e-06	437.81	151.16	129.83	45.416	7.0428e-06	55.744	313.947	78.209	72.049	-10.723	131.114	130.035	-10.801	-5.972	143.580	81.151	-6.567	-2.235	-1.993	2.776	91.952	1.677	-8191	255	
671.531	1	1	0	0	0.2239	0.13434	0.092396	0.28288	0.062797	0.08055	0.098591	0.23031	0.055999	0.047559	0.24229	0.029146	0.35353	0.15841	0.1531	0.11169	-3.1167	-3.1063	-3.0812	-3.6146	-3.2021	-3.2375	-3.5271	-3.1208	-3.4313	-3.1312	-3.2021	-3.5521	-3.0625	-3.2167	-3.4188	-3.1458	87.601	200.206	73.072	301.338	227.670	299.420	-23.743	230.923	50.944	296.217	305.114	-15.290	277.998	7.955	249.021	234.765	0.00082576	0.000536	0.0001635	1369.1	9.7063e-06	3.5138e-06	1372.1	377.64	3.0047e-06	6.4005e-06	426.67	146.99	126.01	44.043	5.3548e-06	53.834	0.00063567	0.00063756	0.00017813	1401.3	6.9536e-06	7.068e-06	1400.8	387.15	6.8987e-06	6.9031e-06	438.53	151.23	129.83	45.447	7.0836e-06	55.77	310.994	61.161	84.315	-10.778	149.092	84.905	-10.754	-6.091	126.930	77.494	-6.734	-2.455	-2.111	2.889	176.763	1.810	-8191	255	
671.602	1	1	0	0	0.14321	0.19188	0.19522	0.18579	0.21972	0.21586	0.14402	0.11912	0.36999	0.24048	0.043566	0.16003	0.12239	0.24335	0.10066	0.27685	-2.9562	-3.2979	-3.0146	-3.6771	-3.0604	-3.2021	-3.5458	-3.1188	-3.4042	-3.525	-3.0938	-3.6229	-3.1958	-3.1708	-3.4646	-3.2583	60.899	24.613	56.060	307.696	173.509	202.137	112.364	-10.440	167.698	20.562	43.635	328.623	30.485	293.024	291.098	283.709	0.00067807	0.00044165	0.00023004	1369.9	7.5041e-06	2.256e-06	1372.2	377.11	8.8282e-06	3.5045e-06	426.74	147	126.15	43.82	7.9475e-06	53.778	0.00062666	0.00062465	0.00017589	1401.4	6.8025e-06	6.8808e-06	1399.8	387.35	6.7117e-06	6.8215e-06	438.02	150.95	129.65	45.284	6.7362e-06	55.735	323.440	68.249	33.132	-10.757	123.348	137.700	-10.601	-6.260	143.562	126.805	-6.799	-2.264	-1.959	2.755	150.183	1.722	-8191	255	
671.699	1	1	0	0	0.17434	0.20454	0.16052	0.060028	0.18912	0.035261	0.033864	0.37014	0.10774	0.11213	0.2381	0.10498	0.28789	0.29598	0.18209	0.21765	-2.9437	-3.3833	-2.9562	-3.4792	-3.0917	-3.2396	-3.7354	-3.1333	-3.4021	-3.3312	-3.0687	-3.3958	-3.1021	-3.2062	-3.4208	-2.9688	142.582	133.279	282.955	262.750	131.416	323.734	271.181	284.131	11.343	-16.350	286.898	171.694	64.506	276.332	280.687	205.322	0.00070294	0.00055089	0.0001685	1371	5.327e-06	1.0314e-05	1371.9	377.19	1.3491e-05	2.2603e-06	425.58	146.81	126.21	43.518	9.501e-06	53.831	0.00061718	0.0006145	0.00017132	1398.3	6.7771e-06	6.8096e-06	1399.5	387.34	6.8377e-06	6.7697e-06	437.49	151.12	129.78	45.232	6.7235e-06	55.66	325.782	60.816	37.360	-10.528	134.201	126.472	-10.746	-6.079	154.781	153.362	-6.659	-2.658	-1.959	2.773	115.865	1.863	-8191	255	
671.795	1	1	0	0	0.16295	0.14364	0.19908	0.18702	0.083809	0.088817	0.13301	0.069685	0.189	0.18067	0.25151	0.086995	0.057714	0.35347	0.22814	0.21943	-2.6604	-3.2917	-2.85	-3.4979	-3.2458	-2.9896	-3.7313	-3.1771	-3.1375	-3.3937	-3.0563	-3.3917	-3.3396	-3.1562	-3.6521	-3.1479	244.816	149.761	284.454	280.815	298.012	134.989	271.726	178.277	188.402	330.381	304.211	216.057	230.733	-17.467	213.362	329.453	0.00070169	0.00045565	0.00017178	1368.5	6.3986e-06	8.3825e-06	1367.9	377.62	3.8625e-06	7.4453e-06	427.23	146.2	126.27	43.592	6.2145e-06	53.953	0.00061201	0.00061181	0.00017511	1397.9	6.7075e-06	6.8328e-06	1400.3	386.81	6.7289e-06	6.811e-06	437.95	150.61	129.69	45.241	6.7428e-06	55.727	323.985	67.939	36.854	-10.382	162.755	88.232	-10.726	-6.092	134.678	89.610	-6.863	-2.416	-2.218	2.828	145.586	1.969	-8191	255	
671.914	1	1	0	0	0.067769	0.2689	0.020827	0.22911	0.2798	0.2059	0.092362	0.16885	0.27124	0.22979	0.14484	0.033888	0.26149	0.27266	0.28148	0.1743	-2.9813	-3.4375	-2.9167	-3.6125	-3.3542	-3.1188	-3.55	-3.0271	-3.0354	-3.3167	-3.0875	-3.375	-3.3229	-3.1521	-3.5646	-3.1937	296.415	105.158	313.330	308.140	294.563	137.811	258.886	232.593	288.318	30.605	-19.956	179.402	-0.193	182.705	32.592	46.111	0.00081264	0.00058944	0.00021075	1364.8	8.3337e-06	6.1957e-06	1364.7	377.64	1.0137e-05	5.1816e-06	424.89	146.29	126.12	43.409	6.9595e-06	53.779	0.00061346	0.000605	0.00017122	1398.1	6.6636e-06	6.7331e-06	1398.4	387.35	6.7601e-06	6.6941e-06	437.08	150.84	129.53	45.17	6.7376e-06	55.755	320.849	76.397	65.162	-10.626	134.942	140.774	-10.741	-6.221	159.943	115.592	-6.679	-2.371	-1.816	2.922	148.469	1.895	-8191	255	
672.010	1	1	0	0	0.18246	0.29573	0.17299	0.14909	0.15144	0.12042	0.23567	0.068824	0.29117	0.1318	0.082625	0.14146	0.16242	0.29384	0.084293	0.20973	-2.8042	-3.4229	-2.95	-3.5896	-3.4917	-3.0229	-3.5938	-3.3167	-3.0062	-3.4521	-3.2604	-3.3208	-3.4667	-3.0938	-3.6271	-3.2562	316.321	133.157	236.869	332.409	119.817	79.109	277.478	231.572	265.122	252.886	-22.072	59.907	30.010	315.497	152.159	261.513	0.00066296	0.00070615	0.00026484	1373.1	8.3612e-06	5.8447e-06	1371.9	377.22	6.2872e-06	6.4897e-06	424.66	146.51	125.68	43.572	1.0169e-05	53.58	0.00062233	0.00062801	0.00017424	1399.6	6.9606e-06	6.9175e-06	1398.4	387.07	6.832e-06	6.8189e-06	437.58	150.67	129.44	45.196	6.8001e-06	55.594	322.405	84.549	74.343	-10.689	164.307	159.126	-10.766	-5.989	138.051	83.277	-6.755	-2.431	-1.983	2.904	147.520	1.797	-8191	255	
672.106	1	1	0	0	0.1211	0.062681	0.089173	0.16875	0.24932	0.096714	0.11603	0.30167	0.14764	0.054011	0.060115	0.36941	0.16922	0.17655	0.08062	0.19399	-2.7146	-3.5292	-3.0812	-3.3937	-3.2792	-2.8979	-3.6417	-3.3333	-2.9938	-3.6312	-3.275	-3.2562	-3.4604	-3.1104	-3.4458	-3.2521	217.352	273.224	36.447	285.570	67.410	293.093	311.167	239.191	275.269	78.483	116.441	-3.711	256.168	318.624	334.787	48.226	0.00065502	0.00093463	0.00030316	1368.5	5.9155e-06	1.8739e-06	1369.7	377.35	7.4728e-06	6.9641e-06	424.32	146.2	125.72	43.507	3.7234e-06	53.428	0.00063186	0.00063295	0.00017839	1398.1	6.9457e-06	7.0741e-06	1398	386.95	7.0244e-06	7.061e-06	436.69	150.62	129.33	45.083	6.884e-06	55.39	311.826	56.521	67.181	-10.638	119.196	82.195	-10.752	-6.112	177.190	109.303	-6.865	-2.431	-2.037	2.552	146.963	1.793	-8191	255	
672.202	1	1	0	0	0.074811	0.066811	0.2979	0.17463	0.10264	0.17328	0.12713	0.28254	0.23818	0.12119	0.067182	0.12488	0.076364	0.27928	0.19068	0.19276	-2.5917	-3.4188	-2.9875	-3.1979	-3.5312	-2.8833	-3.4896	-3.4938	-3.1937	-3.4167	-3.0875	-3.2938	-3.45	-2.9958	-3.3688	-3.2229	319.658	207.884	4.043	1.700	43.898	25.878	12.957	243.230	265.212	255.088	-14.968	152.971	-9.524	13.440	-7.682	51.300	0.00063903	0.00047406	0.00015096	1363.9	6.9371e-06	7.0335e-06	1369.3	376.67	8.3091e-06	7.3705e-06	424.93	146.84	125.5	43.554	7.093e-06	53.595	0.00062583	0.00062304	0.00017373	1396.8	6.883e-06	6.9178e-06	1397	386.49	6.9527e-06	6.9927e-06	437.22	150.53	129.11	45.153	6.9133e-06	55.436	321.819	59.962	81.346	-10.491	159.851	118.907	-10.757	-6.125	152.021	105.343	-6.473	-2.487	-1.882	2.774	120.911	1.874	-8191	255	
672.298	1	1	0	0	0.013247	0.058993	0.099329	0.14087	0.28834	0.23957	0.18245	0.29671	0.090865	0.15738	0.078143	0.1376	0.30527	0.14012	0.058662	0.33875	-2.6125	-3.425	-3.0229	-3.0396	-3.4292	-3.0062	-3.4833	-3.45	-2.9938	-3.5354	-3.3	-3.2125	-3.4875	-3.0896	-3.2375	-3.3521	230.868	40.346	65.305	-20.223	115.727	31.019	268.470	206.076	171.734	66.892	-5.543	27.999	292.289	9.368	212.694	330.135	0.00077761	0.0003923	0.00019485	1357.7	6.1082e-06	6.557e-06	1363	376.56	8.5627e-06	5.8887e-06	425.84	145.68	124.99	43.471	8.5167e-06	53.566	0.00064122	0.00062808	0.00017783	1394.7	6.9016e-06	6.9898e-06	1395.4	386.32	6.8306e-06	6.9948e-06	436.87	150.45	128.96	45.007	6.9214e-06	55.385	314.088	82.899	68.988	-10.615	138.490	103.787	-10.744	-6.126	169.564	97.103	-6.781	-2.336	-2.221	2.811	132.907	1.958	-8191	255	
672.394	1	1	0	0	0.098704	0.15997	0.10528	0.16166	0.11134	0.16836	0.33093	0.063293	0.14316	0.24628	0.16959	0.20498	0.10911	0.086393	0.2449	0.12843	-2.4833	-3.4146	-3.1646	-3.4667	-3.5062	-3.0479	-3.4	-3.4688	-2.9042	-3.3604	-3.3604	-3.175	-3.6854	-3.0854	-3.1708	-3.6437	145.723	77.724	275.513	291.718	286.793	64.743	321.097	6.537	274.272	6.699	248.484	65.544	304.861	9.010	-18.538	22.495	0.00078604	0.000382	0.00012856	1365.9	4.7218e-06	2.2229e-06	1366.8	375.87	8.3654e-06	4.6055e-06	423.03	145.26	125.12	43.345	3.3964e-06	53.532	0.00062903	0.00063795	0.00017356	1396.5	6.927e-06	6.903e-06	1395.6	386.31	6.8967e-06	6.8728e-06	436.72	150.09	128.94	44.982	6.8582e-06	55.379	311.220	82.465	25.252	-10.619	140.346	123.293	-10.764	-6.119	185.866	89.382	-6.817	-2.609	-2.118	2.526	145.409	1.758	-8191	255	
672.490	1	1	0	0	0.17534	0.11632	0.09456	0.26375	0.16266	0.11981	0.35095	0.28529	0.037885	0.2553	0.044544	0.09974	0.1056	0.13946	0.15941	0.26699	-2.65	-3.4333	-3.0938	-3.1167	-3.5083	-3.1854	-3.3167	-3.5354	-3.0062	-3.4375	-3.4083	-3.1708	-3.4646	-3.2917	-3.0854	-3.5146	276.589	247.296	127.679	-5.671	-12.139	144.149	308.894	164.731	288.426	331.439	188.393	224.859	245.616	244.724	-13.010	258.738	0.00080344	0.00059026	9.419e-05	1365.9	7.2346e-06	5.8951e-06	1361.2	377.08	3.4405e-06	4.8124e-06	422.64	145.95	125.16	43.489	3.5906e-06	53.285	0.0006221	0.00062344	0.00017401	1395.3	6.782e-06	6.9408e-06	1393.3	386.43	6.8476e-06	6.7657e-06	436.06	150.12	128.91	45.024	6.9528e-06	55.38	319.668	73.648	39.461	-10.565	148.326	115.226	-10.809	-6.230	162.118	96.519	-6.362	-2.587	-1.894	2.982	179.741	1.893	-8191	255	
672.611	1	1	0	0	0.090228	0.17195	0.082589	0.095494	0.28926	0.12253	0.16306	0.30837	0.09042	0.0090752	0.11674	0.1635	0.19532	0.19446	0.076698	0.12146	-2.6521	-3.4188	-3.3042	-3.05	-3.475	-3.3438	-3.1688	-3.5104	-3.0542	-3.45	-3.4396	-3.2896	-3.3854	-3.2729	-2.9604	-3.7	0.649	241.034	128.385	295.626	100.509	120.378	263.276	283.935	62.212	194.285	7.952	303.206	20.693	322.638	284.863	4.058	0.00072831	0.00055244	0.00013189	1360.6	7.1207e-06	5.091e-06	1362.5	376.5	6.1213e-06	5.0033e-06	424.4	146.19	124.87	43.274	4.2154e-06	53.405	0.0006254	0.0006162	0.00017672	1393.7	6.8617e-06	6.9845e-06	1393.1	385.72	6.8837e-06	6.9286e-06	436.13	150.22	128.85	44.918	6.9475e-06	55.24	311.984	68.277	48.828	-10.708	130.783	146.367	-10.847	-6.049	153.682	108.867	-6.784	-2.462	-2.058	2.789	132.819	1.667	-8191	255	
672.707	1	1	0	0	0.20394	0.059885	0.17834	0.045517	0.19058	0.21709	0.32999	0.16695	0.18183	0.032399	0.10129	0.085438	0.066901	0.095792	0.021426	0.16305	-2.7354	-3.2313	-3.5563	-3.1937	-3.3979	-3.2875	-3.3771	-3.7375	-3.1354	-3.2729	-3.5187	-3.1688	-3.525	-3.3375	-3.0417	-3.5771	209.213	256.722	120.253	267.982	247.849	168.726	246.074	284.520	6.048	325.050	280.655	-16.290	167.811	303.690	244.785	112.364	0.00081067	0.00058132	8.1453e-05	1358	5.4174e-06	5.8298e-06	1360.4	374.28	1.2079e-05	1.0882e-05	422.27	145.14	124.72	43.294	6.0392e-06	53.228	0.00062852	0.00062979	0.00017536	1391.7	6.9089e-06	6.8455e-06	1390.8	385.74	6.803e-06	6.9614e-06	435.85	149.79	128.73	44.9	6.8576e-06	55.283	320.429	68.496	32.967	-10.707	122.622	123.387	-10.581	-5.847	165.412	135.473	-6.784	-2.477	-1.928	2.959	130.595	1.855	-8191	255	
672.803	1	1	0	0	0.11994	0.22268	0.06963	0.24499	0.081575	0.16655	0.17363	0.12263	0.15122	0.039296	0.072443	0.13091	0.25393	0.26133	0.18281	0.13583	-2.7729	-3.0958	-3.5896	-3.2333	-3.3729	-3.3729	-3.2875	-3.4667	-3.1354	-3.0187	-3.5396	-3.0083	-3.3104	-3.5312	-3.1104	-3.5542	50.878	-10.303	329.041	294.004	130.000	301.561	240.462	162.483	-21.989	88.601	280.184	259.207	-10.171	322.952	8.897	59.577	0.00072318	0.00048696	0.0001404	1353.1	7.6654e-06	7.94e-06	1352.9	372.98	4.4405e-06	1.9461e-06	421.91	145.45	124.84	43.195	6.4384e-06	53.407	0.0006199	0.00062947	0.00017431	1387.4	6.792e-06	6.6957e-06	1387.2	385	6.6134e-06	6.8402e-06	435.15	149.56	128.39	44.84	6.7485e-06	55.23	314.977	100.023	77.132	-10.734	169.393	137.134	-10.773	-6.305	229.143	114.686	-6.801	-2.562	-1.881	2.922	154.056	1.885	-8191	255	
672.900	1	1	0	0	0.095611	0.085088	0.23316	0.19294	0.028621	0.10413	0.22827	0.20726	0.04457	0.055845	0.29469	0.13991	0.060632	0.056483	0.43483	0.3153	-2.8833	-3	-3.4208	-3.2562	-2.9562	-3.5271	-3.1042	-3.6271	-3.2333	-3.1312	-3.6375	-3.1479	-3.2542	-3.2958	-2.9646	-3.4938	201.779	245.062	13.052	321.467	256.048	33.665	237.280	314.824	322.828	36.567	-12.938	259.510	129.390	53.738	237.119	216.693	0.00077974	0.00059305	0.00017496	1353	5.2654e-06	6.7001e-06	1351.4	374	6.4629e-06	5.535e-06	421.05	145.43	124.09	42.951	6.3518e-06	53.185	0.00061568	0.00062451	0.00016818	1385.8	6.7372e-06	6.7773e-06	1382.5	384.79	6.7062e-06	6.7531e-06	433.93	149.5	127.91	44.714	6.6554e-06	55.198	317.225	91.659	44.429	-10.616	119.599	93.553	-10.811	-5.900	124.285	114.378	-6.835	-2.617	-1.872	2.874	138.440	1.899	-8191	255	
672.994	1	1	0	0	0.14257	0.020407	0.14788	0.2439	0.164	0.24795	0.1026	0.092702	0.051363	0.058638	0.071606	0.054268	0.38836	0.16608	0.19539	0.048199	-2.8542	-3.0938	-3.4875	-3.2521	-3.2396	-3.3354	-3.0896	-3.5146	-3.2313	-3.0583	-3.6333	-3.3646	-3.2396	-3.6292	-2.8771	-3.2979	-6.212	182.731	133.453	285.323	7.128	284.093	184.902	10.639	294.961	68.217	6.371	291.984	307.214	285.312	267.711	-22.343	0.00088667	0.00065821	0.00020083	1349.9	6.347e-06	6.0196e-06	1346.9	374.19	1.0949e-05	6.9761e-06	421.63	145.62	124.35	43.254	6.8439e-06	53.015	0.0006121	0.0006012	0.0001692	1383.3	6.5321e-06	6.6069e-06	1381.6	384.54	6.5442e-06	6.517e-06	433.7	149.65	128.13	44.785	6.7641e-06	55.091	307.979	79.413	81.525	-10.635	164.210	125.530	-10.873	-6.219	143.881	110.243	-6.630	-2.507	-1.968	2.871	126.130	1.725	-8191	255	
673.090	1	1	0	0	0.2074	0.070482	0.11914	0.023473	0.23091	0.15902	0.056245	0.42469	0.15896	0.24699	0.10599	0.078145	0.21573	0.17247	0.17602	0.14033	-2.85	-2.8896	-3.4	-3.1458	-3.275	-3.5729	-3.1958	-3.4271	-3.2146	-3.0208	-3.3042	-3.3167	-3.3167	-3.6396	-3.0396	-3.3833	116.165	294.532	163.950	0.529	47.279	148.709	278.690	311.314	203.933	35.037	-6.515	42.854	296.305	-13.680	236.410	76.245	0.00078959	0.00065538	0.00016515	1350	7.9067e-06	9.0396e-06	1355.4	374.18	3.4666e-06	6.635e-06	421.59	144.56	123.88	43.011	6.8963e-06	53.097	0.00061687	0.00061232	0.00017242	1384.5	6.8339e-06	6.8449e-06	1384.8	384.69	6.7775e-06	6.8584e-06	434.47	149.19	128.09	44.734	6.9086e-06	55.148	320.118	83.594	61.527	-10.935	153.986	131.839	-10.830	-6.197	253.901	99.917	-6.694	-2.267	-1.907	2.892	153.711	2.056	-8191	255	
673.211	1	1	0	0	0.1064	0.099001	0.21271	0.29831	0.16398	0.20253	0.067606	0.21388	0.030692	0.16076	0.2671	0.222	0.22548	0.099979	0.055112	0.21007	-3.0292	-3.025	-3.3729	-3.3021	-3.0854	-3.5979	-3.2042	-3.4688	-3.5167	-3.1354	-3.6188	-3.3417	-3.1729	-3.5479	-3.1458	-3.3333	26.488	141.294	334.898	286.679	89.308	180.368	193.375	-21.187	87.892	61.099	267.111	297.295	286.785	-21.730	152.095	170.591	0.00077675	0.00063927	0.00020591	1351.5	4.774e-06	7.6108e-06	1353.4	374.82	7.8484e-06	6.2715e-06	424.56	144.77	124.74	42.953	9.2208e-06	53.17	0.00062888	0.00064275	0.00017608	1387.3	7.1254e-06	7.1532e-06	1387.6	385.11	7.2064e-06	7.2516e-06	436.24	149.65	128.61	44.848	7.2808e-06	55.219	320.382	61.407	67.603	-10.644	148.909	114.784	-10.993	-6.045	174.241	130.040	-6.551	-2.397	-2.160	2.902	127.096	1.781	-8191	255	
673.307	1	1	0	0	0.20022	0.115	0.12887	0.16423	0.11605	0.28748	0.27147	0.14596	0.3003	0.159	0.18022	0.18984	0.063783	0.23425	0.075232	0.14327	-3.1688	-3.0667	-3.2542	-3.4958	-3.0625	-3.5375	-3.2896	-3.3479	-3.3917	-2.8563	-3.3958	-3.5167	-3.0625	-3.3875	-2.9583	-3.4062	315.804	130.242	303.340	218.199	218.061	36.263	289.191	279.864	225.477	294.026	211.470	-19.246	224.365	282.582	137.625	318.510	0.00076431	0.00050456	0.00019015	1359.3	7.104e-06	7.6656e-06	1357.3	375.42	9.8675e-06	2.8829e-06	422.28	144.62	124.08	43.105	5.0117e-06	53.12	0.00065162	0.0006642	0.00018454	1394.2	7.3801e-06	7.2943e-06	1391.4	386.04	7.1449e-06	7.2873e-06	436.46	149.72	128.44	44.863	7.1947e-06	55.258	309.190	61.205	72.671	-10.651	101.990	128.273	-10.714	-6.107	139.818	66.581	-6.406	-2.475	-2.127	2.496	133.645	1.534	-8191	255	
673.403	1	1	0	0	0.1082	0.14865	0.36243	0.23525	0.19556	0.14331	0.076919	0.27539	0.19089	0.2813	0.12827	0.29344	0.28582	0.21398	0.094495	0.057656	-3.1146	-3.1208	-3.2771	-3.4667	-2.9125	-3.4771	-3.4333	-3.1854	-3.4667	-3.0146	-3.5458	-3.4979	-2.9896	-3.5812	-3.2646	-2.925	213.888	332.556	221.109	318.880	222.416	65.323	238.382	296.789	302.792	232.254	311.136	42.787	329.449	281.659	179.184	277.277	0.00081031	0.00060762	6.6633e-05	1349.9	6.2541e-06	9.6423e-06	1352.8	374.46	1.2798e-05	7.3453e-06	423.44	144.6	123.8	42.935	4.467e-06	53.194	0.00064996	0.00065791	0.00018395	1388.9	7.1568e-06	7.2244e-06	1388.6	385.49	7.1636e-06	7.3556e-06	435.52	149.63	128.19	44.725	7.2862e-06	55.131	318.432	76.275	36.824	-10.699	144.199	109.873	-10.746	-6.025	175.472	143.365	-6.678	-2.373	-2.097	2.737	145.319	2.049	-8191	255	
673.499	1	1	0	0	0.15464	0.017689	0.2735	0.034665	0.3309	0.15498	0.19721	0.16474	0.14056	0.011128	0.05479	0.14557	0.21972	0.037935	0.049294	0.17998	-3.0771	-3.1188	-3.2521	-3.4896	-2.8979	-3.3646	-3.5521	-3.1562	-3.5396	-3.15	-3.2792	-3.5604	-3.1562	-3.4062	-3.3729	-3.0771	49.237	272.939	92.708	285.593	243.487	195.459	231.734	312.525	310.869	8.114	331.665	203.406	258.041	-14.952	137.518	316.373	0.0007496	0.0003756	4.7627e-05	1351.5	1.8587e-07	3.0571e-06	1354.3	374.17	2.0405e-06	5.6708e-06	422.82	144.63	124.13	42.968	4.1549e-06	53.064	0.00066233	0.00066682	0.0001865	1390.2	7.2637e-06	7.3502e-06	1388.2	385.13	7.278e-06	7.3233e-06	435.4	149.76	128.16	44.741	7.245e-06	55.143	305.797	70.264	118.478	-10.697	-23.457	97.471	-10.826	-6.035	120.431	101.359	-6.884	-2.715	-1.934	2.784	208.644	1.985	-8191	255	
673.595	1	1	0	0	0.13948	0.2086	0.21412	0.14376	0.20471	0.17093	0.3513	0.27774	0.08344	0.17932	0.13265	0.27503	0.22726	0.21095	0.048905	0.13873	-3.0792	-3.1063	-3.1542	-3.6063	-2.7979	-3.3312	-3.5	-3.2521	-3.4667	-3.0958	-3.1562	-3.4104	-3.1333	-3.3333	-3.3646	-2.9375	234.066	80.327	216.691	15.319	167.940	6.682	4.794	302.530	300.858	-21.055	6.383	-18.107	293.073	14.708	109.531	310.414	0.00085293	0.00033634	9.4096e-05	1352.1	9.7381e-07	1.0263e-05	1357.4	374.32	6.4105e-06	6.6269e-06	421.86	144.94	123.85	43.029	8.5696e-06	53.216	0.00065709	0.00066613	0.0001835	1390.1	7.3179e-06	7.2809e-06	1391	384.72	7.2498e-06	7.183e-06	435.23	149.55	128.27	44.755	7.1611e-06	55.177	306.990	86.511	85.513	-10.622	153.737	126.406	-10.653	-6.153	224.007	140.080	-6.761	-2.485	-1.922	2.761	111.940	1.867	-8191	255	
673.691	1	1	0	0	0.24981	0.066324	0.26325	0.39691	0.18016	0.033284	0.18597	0.17471	0.11522	0.17089	0.16303	0.1036	0.096434	0.32306	0.20764	0.063437	-3.0146	-3.2021	-3.0917	-3.6688	-3.0812	-3.4396	-3.6458	-3.0292	-3.3229	-3.2042	-3.125	-3.6208	-3.1958	-3.3312	-3.6125	-3.1229	221.779	140.513	199.841	296.549	273.054	296.257	-15.491	300.145	266.375	195.478	314.456	318.539	79.319	305.307	197.355	204.200	0.00069993	0.00069583	0.00010709	1356.5	4.706e-06	8.8396e-06	1355.9	375.39	6.2241e-06	2.6025e-06	422.19	144.84	123.92	43.04	4.1328e-06	52.987	0.00064695	0.0006611	0.00018269	1390.2	7.1257e-06	7.1428e-06	1388	384.78	6.9931e-06	7.0298e-06	434.92	149.2	127.94	44.68	6.996e-06	55.101	315.872	62.464	83.655	-10.626	148.472	111.876	-10.778	-6.057	93.480	144.129	-6.564	-2.651	-2.052	2.942	127.264	1.948	-8191	255	
673.788	1	1	0	0	0.31399	0.06979	0.08205	0.11708	0.023798	0.16603	0.31769	0.097132	0.11823	0.27547	0.34662	0.16528	0.098954	0.25314	0.16857	0.31638	-3.0687	-3.1792	-2.9792	-3.6792	-3.0771	-3.2625	-3.6292	-3.0917	-3.2667	-3.2562	-3.0021	-3.5146	-3.025	-3.0792	-3.4917	-3.0792	128.756	67.081	36.108	262.775	215.908	59.645	268.016	206.983	322.785	192.003	-19.942	76.846	276.720	310.597	122.124	319.742	0.00084287	0.00056854	0.00016787	1351.7	5.2666e-06	6.3161e-06	1353.2	372.62	1.168e-05	7.3929e-06	421.19	144.42	124.32	43.064	4.0793e-06	53.08	0.00062648	0.00063465	0.00017622	1387	6.9401e-06	6.9491e-06	1386.4	384.07	6.7762e-06	6.8822e-06	435.28	149.25	128.2	44.729	6.9024e-06	55.01	317.771	87.769	52.904	-10.706	131.846	104.240	-10.776	-5.802	158.847	106.996	-6.802	-2.666	-2.020	2.695	159.794	1.636	-8191	255	
673.884	1	1	0	0	0.04699	0.20079	0.037433	0.33505	0.1184	0.2157	0.26707	0.11771	0.25726	0.2296	0.28218	0.31869	0.14365	0.15678	0.18187	0.12158	-2.9667	-3.3937	-2.9042	-3.5229	-3.1854	-3.2875	-3.6104	-3.0646	-3.2146	-3.1417	-3.0708	-3.4813	-3.3125	-3.0771	-3.4125	-2.9188	139.727	252.389	110.644	287.669	297.842	273.345	21.661	333.004	256.342	72.814	199.554	285.111	-20.338	116.381	10.013	28.829	0.00083009	0.00013092	0.0001458	1346.9	8.796e-06	9.5228e-06	1350.7	373.5	1.6113e-05	5.2012e-06	423.31	144.65	124.46	43.138	6.8657e-06	53.012	0.00062778	0.00062321	0.00017785	1384	6.8906e-06	6.9799e-06	1384.6	384.41	6.9394e-06	7.0114e-06	435	149.21	128.16	44.772	6.9421e-06	55.068	308.786	227.585	27.492	-10.685	141.242	117.860	-10.766	-6.102	141.132	84.143	-6.662	-2.305	-1.996	2.768	141.365	1.757	-8191	255	
674.003	1	1	0	0	0.13104	0.18296	0.12762	0.35931	0.18543	0.13954	0.36523	0.12264	0.050044	0.12702	0.25777	0.18292	0.09631	0.18828	0.13298	0.13481	-2.7708	-3.4688	-2.9167	-3.5729	-3.3688	-3.0771	-3.7625	-3.1396	-3.1917	-3.35	-2.9729	-3.4667	-3.2583	-3.0896	-3.5854	-3.1958	260.206	167.834	322.195	306.539	-1.458	255.095	290.690	3.259	119.953	-12.444	277.865	247.600	289.631	188.718	73.647	14.816	0.0006995	0.00060034	0.0001387	1353.4	7.1218e-06	8.0824e-06	1353.9	374.77	4.7409e-06	6.6981e-06	421.61	144.65	124.15	43.053	7.0234e-06	53.167	0.00063431	0.00064552	0.00018075	1388.7	7.115e-06	7.3519e-06	1388.4	385.2	7.1939e-06	7.2993e-06	435.19	149.41	128.14	44.704	7.2375e-06	55.178	316.734	61.909	86.784	-10.763	147.191	108.936	-10.793	-5.985	133.768	158.136	-6.668	-2.394	-1.910	3.028	185.735	2.019	-8191	255	
674.099	1	1	0	0	0.032815	0.14858	0.1131	0.093385	0.044381	0.10232	0.28202	0.25146	0.08824	0.071217	0.10062	0.031615	0.080368	0.19735	0.063016	0.073484	-2.8688	-3.4479	-2.9813	-3.7146	-3.2792	-3.0854	-3.7229	-3.2479	-2.8542	-3.4833	-3.1708	-3.5604	-3.5125	-2.9917	-3.5354	-3.3063	200.545	233.803	150.746	290.512	46.901	265.468	275.468	283.396	61.726	64.655	0.960	220.414	122.315	244.266	303.886	9.943	0.00073253	0.00044575	0.00017447	1354.9	6.1738e-06	6.7911e-06	1362.7	375.29	7.1173e-06	6.5496e-06	421.53	144.75	124.42	43.228	3.9344e-06	52.893	0.00065967	0.00067241	0.00018568	1390.8	7.2281e-06	7.2521e-06	1392.3	386.09	7.0645e-06	6.9958e-06	435.26	149.67	128.32	44.765	7.1265e-06	54.984	312.297	44.162	76.629	-10.719	133.614	186.999	-10.829	-5.983	127.302	102.227	-6.724	-2.640	-2.028	2.382	152.642	1.961	-8191	255	
674.172	1	1	0	0	0.2404	0.052802	0.11237	0.25188	0.13405	0.43841	0.30515	0.12233	0.21775	0.090006	0.27488	0.12003	0.15405	0.11868	0.14281	0.17854	-2.7146	-3.4979	-3.0187	-3.4313	-3.35	-2.9854	-3.7229	-3.3458	-3.125	-3.425	-3.0563	-3.3708	-3.4396	-3.0521	-3.4375	-3.3708	-9.909	290.005	188.551	299.540	27.652	244.745	249.385	224.736	152.771	184.543	295.986	300.775	294.167	223.701	95.466	136.039	0.00084933	0.00051527	8.5981e-05	1356.3	4.5572e-06	5.7801e-06	1361.8	373.9	7.4496e-06	6.5123e-06	423.21	144.88	124.47	42.948	6.6703e-06	52.878	0.00064788	0.00063504	0.00018008	1394.1	6.954e-06	7.1354e-06	1393.6	385.3	6.9063e-06	6.9774e-06	435.79	149.56	128.27	44.704	7.2172e-06	54.991	320.129	105.724	84.174	-10.789	121.908	148.058	-10.812	-6.072	190.259	149.434	-6.554	-2.484	-1.754	2.923	160.455	1.832	-8191	255	
674.291	1	1	0	0	0.14162	0.25049	0.17303	0.1907	0.20857	0.24556	0.11669	0.47713	0.13885	0.2209	0.10499	0.17003	0.15372	0.22595	0.074079	0.029271	-2.7542	-3.4958	-3.0375	-3.4896	-3.3125	-3.0187	-3.6542	-3.2792	-3.0146	-3.4313	-3.2938	-3.4729	-3.5958	-2.925	-3.4354	-3.3	110.126	280.995	166.893	-13.737	312.513	19.598	217.152	246.196	95.040	330.348	166.635	191.395	308.816	303.745	11.924	-22.369	0.00070124	0.00087787	0.00018328	1361	6.0695e-06	7.5035e-06	1364	376.31	2.8394e-06	2.8867e-06	424.37	145.1	124.24	43.035	5.4551e-06	53.244	0.00066027	0.00068064	0.00019106	1398.8	7.5347e-06	7.5829e-06	1400.1	386.86	7.6085e-06	7.5274e-06	437.46	150.05	128.64	44.847	7.2905e-06	55.283	327.535	76.147	72.652	-10.746	117.684	125.325	-10.697	-6.292	199.163	51.735	-6.897	-2.470	-2.009	2.683	154.726	1.913	-8191	255	
674.387	1	1	0	0	0.079555	0.099301	0.060385	0.13824	0.16489	0.16334	0.20568	0.1868	0.32145	0.069212	0.15546	0.080837	0.39029	0.26259	0.18283	0.3349	-2.6083	-3.4583	-3.2167	-3.4271	-3.4458	-3.0479	-3.5312	-3.3167	-2.8646	-3.6521	-3.1729	-3.2396	-3.5125	-3.0938	-3.1708	-3.3271	226.869	130.828	150.348	240.991	91.896	331.600	236.243	-22.882	54.884	168.707	285.881	300.671	10.564	227.402	242.817	258.004	0.00086109	0.00068775	0.00013734	1367.7	6.7784e-06	6.3793e-06	1371.2	375.36	8.5154e-06	1.0361e-05	424.65	145.36	124.83	43.027	7.0887e-06	53.183	0.00065954	0.00065249	0.00018431	1405.8	7.2507e-06	7.1697e-06	1403.9	386.91	7.3289e-06	7.3976e-06	436.91	150.13	128.74	44.81	7.3916e-06	55.263	321.482	48.956	54.737	-10.746	145.098	128.782	-10.933	-6.239	152.413	149.809	-6.694	-2.381	-2.251	2.671	140.966	1.791	-8191	255	
674.483	1	1	0	0	0.13509	0.077167	0.18697	0.24574	0.075307	0.14343	0.32429	0.11241	0.24047	0.32717	0.13632	0.54201	0.15727	0.060766	0.13478	0.38006	-2.7271	-3.2604	-3.1333	-3.2	-3.5333	-3.0792	-3.3729	-3.575	-2.9562	-3.3583	-3.2771	-3.1688	-3.6604	-3.2062	-3.2938	-3.5083	198.239	126.546	34.530	270.719	188.324	130.234	263.916	12.340	197.671	2.270	241.137	322.524	302.658	-17.451	104.994	314.468	0.00069015	0.00071652	0.00011651	1367.5	3.8241e-06	4.7383e-06	1362.2	375.73	7.7854e-06	6.267e-06	422.74	145.18	124.89	42.99	6.0813e-06	52.817	0.00067524	0.00067094	0.00018887	1404	7.3466e-06	7.5138e-06	1400.8	387.15	7.6194e-06	7.5892e-06	437.76	150.13	128.76	44.778	7.432e-06	55.077	314.140	43.671	54.932	-10.713	140.048	111.236	-10.831	-6.024	141.407	118.427	-6.822	-2.615	-2.112	2.816	133.680	1.992	-8191	255	
674.604	1	1	0	0	0.080501	0.1272	0.078828	0.43811	0.1529	0.24313	0.27997	0.26032	0.16067	0.18937	0.032426	0.11297	0.10727	0.168	0.17105	0.19981	-2.7208	-3.475	-3.2479	-3.0271	-3.4833	-3.0458	-3.3417	-3.6625	-2.9188	-3.4896	-3.4083	-3.0833	-3.7292	-3.1688	-3.0521	-3.5187	228.929	-7.575	4.838	268.242	-15.090	103.150	286.802	316.566	14.083	330.564	280.302	138.992	209.188	222.411	268.764	132.402	0.00068425	0.00056959	0.00015608	1353.5	7.8076e-06	1.3699e-06	1359	374.2	1.2024e-05	7.8101e-06	420.91	143.87	124.31	42.952	5.7871e-06	52.824	0.00067567	0.00067894	0.00018742	1391.3	7.3931e-06	7.3349e-06	1392.6	384.91	7.2031e-06	7.1855e-06	434.96	149.13	127.98	44.577	7.0695e-06	54.96	322.079	73.128	62.756	-10.717	137.730	216.420	-10.723	-6.091	176.967	100.022	-6.889	-2.552	-2.161	2.771	134.131	2.037	-8191	255	
674.700	1	1	0	0	0.27811	0.21136	0.30265	0.22793	0.19267	0.23406	0.21518	0.19637	0.13462	0.17581	0.086439	0.21508	0.0090668	0.32254	0.050714	0.19489	-2.4146	-3.4083	-3.3333	-3.1375	-3.575	-3.0271	-3.3896	-3.6437	-3.0667	-3.4396	-3.4729	-3.1521	-3.6771	-3.2417	-3.1688	-3.5979	335.358	309.503	284.939	36.719	214.522	265.383	226.130	235.424	131.960	293.140	120.588	309.780	100.961	284.833	63.302	277.510	0.00080084	0.00057124	0.00017071	1353.9	7.784e-06	6.1924e-06	1353.9	372.62	3.0572e-06	6.1953e-06	418.24	144.34	123.26	42.756	5.7275e-06	52.828	0.00065191	0.00064712	0.00018178	1386.3	7.0985e-06	7.0321e-06	1386.7	383.5	7.0601e-06	6.9408e-06	432.51	149.15	127.56	44.492	6.7177e-06	54.751	317.904	85.454	51.391	-10.676	138.727	89.146	-10.738	-5.841	140.962	30.189	-6.575	-2.211	-1.968	2.799	125.681	1.785	-8191	255	
674.772	1	1	0	0	0.019685	0.24446	0.34313	0.11878	0.27291	0.076574	0.37186	0.26598	0.25261	0.25157	0.16688	0.24231	0.095376	0.3011	0.068573	0.020867	-2.5646	-3.2208	-3.2917	-3.2417	-3.4813	-3.2875	-3.3583	-3.6625	-3.0563	-3.2792	-3.5896	-2.9854	-3.6333	-3.4375	-3.0625	-3.7083	71.041	6.264	242.189	271.789	209.487	142.089	254.152	301.767	166.309	311.548	317.700	335.196	272.680	191.728	144.322	143.925	0.00072552	0.00066912	0.00017738	1347.5	5.4995e-06	5.7404e-06	1354.4	373.23	7.9009e-06	2.6323e-06	419.98	143.76	123.4	42.861	4.4136e-06	52.79	0.00061155	0.00060934	0.00017153	1382.4	6.575e-06	6.6746e-06	1384.6	383.14	6.6888e-06	6.9364e-06	432.73	148.71	127.46	44.487	7.1633e-06	54.905	320.363	52.841	67.763	-10.557	160.893	133.217	-10.761	-5.867	154.191	158.622	-6.582	-2.400	-2.038	2.983	114.877	1.992	-8191	255	
674.892	1	1	0	0	0.24995	0.22165	0.25744	0.16653	0.17035	0.05787	0.23645	0.12942	0.23122	0.12517	0.13392	0.17249	0.16879	0.065491	0.09361	0.19898	-2.6458	-3.1354	-3.4354	-3.1854	-3.4208	-3.3625	-3.1458	-3.7687	-3.0625	-3.0021	-3.4646	-3	-3.4458	-3.525	-3.125	-3.5583	84.256	332.555	79.140	206.954	234.313	198.380	234.834	308.043	164.018	146.091	94.153	269.796	68.091	-2.287	245.732	253.988	0.00073443	0.00035925	0.00012989	1355.8	9.074e-06	5.6227e-06	1354.5	373.62	9.04e-06	1.0713e-05	419.58	144.37	123.63	42.948	3.911e-06	52.6	0.0006584	0.00066511	0.0001891	1387.9	7.3584e-06	7.4777e-06	1386.5	383.66	7.2625e-06	7.3132e-06	433.56	148.92	127.66	44.552	6.8704e-06	54.829	319.128	27.548	84.848	-10.615	134.766	152.937	-10.587	-6.193	182.655	111.905	-6.845	-2.576	-1.914	2.799	115.230	1.952	-8191	255	
674.987	1	1	0	0	0.22157	0.16484	0.12334	0.027294	0.22196	0.24561	0.12614	0.26802	0.06664	0.10101	0.2659	0.18273	0.045378	0.14519	0.36332	0.2099	-2.7167	-3.0104	-3.4083	-3.2083	-3.3417	-3.2979	-3.1667	-3.5312	-3.2229	-3.0396	-3.6083	-3.2146	-3.3792	-3.6229	-3.0104	-3.6667	172.354	235.076	2.705	23.164	279.613	35.191	270.921	-9.309	113.033	21.480	309.783	317.870	18.936	136.732	90.355	-6.579	0.00072446	0.00041416	0.00014523	1346.3	5.8228e-06	6.6537e-06	1346.1	371.85	1.0403e-05	3.007e-06	418.7	143.46	123.07	42.789	6.7729e-06	52.861	0.0006075	0.00060187	0.00016378	1379.6	6.2265e-06	6.1009e-06	1377.1	381.59	6.0293e-06	6.1943e-06	431.03	148.17	127.1	44.316	6.3454e-06	54.746	318.586	93.844	53.774	-10.659	175.452	143.032	-10.769	-6.029	164.531	147.275	-6.707	-2.454	-2.015	2.695	115.519	1.862	-8191	255	
675.083	1	1	0	0	0.16965	0.24962	0.090529	0.15228	0.26047	0.07717	0.17892	0.047707	0.2079	0.18194	0.20896	0.18558	0.18215	0.095214	0.090115	0.20232	-2.9229	-2.9792	-3.4313	-3.3271	-3.2646	-3.5542	-3.2438	-3.5771	-3.4167	-3.0812	-3.55	-3.2458	-3.4396	-3.5583	-2.9604	-3.5	262.805	14.438	202.484	270.474	183.743	289.415	267.783	-0.772	267.605	139.025	-17.049	7.107	22.699	281.269	192.933	2.584	0.00083226	0.00028691	0.00018709	1338.1	6.0772e-06	5.1488e-06	1347.6	371.43	6.3471e-06	5.8632e-06	419.75	143.32	123.71	42.837	6.465e-06	52.791	0.00059251	0.00060271	0.00016755	1373.7	6.5502e-06	6.682e-06	1378.3	381.88	6.4978e-06	6.5253e-06	432.53	148.33	127.4	44.401	6.3237e-06	54.839	319.203	60.353	43.285	-10.398	131.380	127.348	-10.776	-6.089	158.040	120.497	-6.554	-2.624	-2.092	2.783	127.125	2.066	-8191	255	
675.179	1	1	0	0	0.27792	0.05233	0.088428	0.17409	0.099202	0.071321	0.019321	0.074603	0.17552	0.22736	0.35162	0.22178	0.18356	0.11321	0.17759	0.11447	-2.8563	-3.0333	-3.4792	-3.325	-3.2958	-3.4042	-3.1917	-3.425	-3.1875	-3	-3.4104	-3.2438	-3.2521	-3.5729	-3.0271	-3.3375	85.268	241.867	5.646	286.510	198.940	258.501	242.406	264.818	31.842	141.288	316.631	322.541	63.650	0.330	187.374	221.309	0.00077092	0.00072773	0.00014244	1342.1	7.1196e-06	6.2216e-06	1341.1	370.84	9.6074e-06	3.8223e-06	416.18	142.45	123.21	42.688	4.5745e-06	52.483	0.00056313	0.0005558	0.00015178	1373.8	5.8686e-06	5.8721e-06	1371.7	380.35	5.8992e-06	5.9322e-06	430.12	147.49	126.83	44.174	5.9483e-06	54.522	314.768	68.030	72.846	-10.667	111.981	86.249	-10.727	-5.999	174.718	73.957	-6.475	-2.417	-1.844	2.795	134.403	1.766	-8191	255	
675.275	1	1	0	0	0.099673	0.14681	0.012805	0.090931	0.11395	0.072221	0.067739	0.23236	0.099586	0.213	0.090482	0.11435	0.040711	0.045642	0.1111	0.1324	-3.0167	-2.925	-3.475	-3.3875	-3.1375	-3.6	-3.2729	-3.3417	-3.3812	-3.0354	-3.4562	-3.2062	-3.1937	-3.4354	-3.075	-3.3958	330.545	290.490	223.150	104.678	201.772	310.489	223.758	312.165	166.929	-15.590	-9.412	154.321	259.806	142.902	335.113	268.889	0.00069523	0.00072173	0.00012145	1332.4	2.6779e-06	7.1311e-06	1335.8	368.46	2.0142e-06	4.0463e-06	418.49	142.83	122.87	42.634	5.6516e-06	52.579	0.000547	0.00055281	0.0001536	1365.6	6.164e-06	6.0091e-06	1367.6	379.62	5.9967e-06	5.9695e-06	429.8	147.42	126.93	44.261	6.0632e-06	54.684	322.569	99.863	37.238	-10.375	147.201	117.405	-10.786	-5.919	310.133	87.251	-6.787	-2.415	-1.997	2.782	116.621	1.893	-8191	255	
675.396	1	1	0	0	0.21813	0.095491	0.27951	0.37604	0.041624	0.086457	0.19295	0.3735	0.05106	0.27789	0.14817	0.11685	0.24459	0.097897	0.19814	0.29618	-3.0479	-2.8812	-3.4188	-3.4917	-3.0917	-3.4646	-3.3417	-3.3125	-3.5646	-3.0729	-3.5646	-3.5	-3.1312	-3.6521	-3.3229	-3.3438	79.825	194.696	23.254	300.419	79.899	126.085	217.966	280.321	53.203	139.393	330.115	272.163	4.701	300.787	205.355	290.254	0.00077045	0.00049732	0.00014318	1335.5	6.1059e-06	4.4022e-06	1341.4	371.26	7.7569e-06	5.2947e-06	418.74	143.72	123.62	42.754	6.8959e-06	52.649	0.00057583	0.00056677	0.00015835	1367.4	6.4198e-06	6.5158e-06	1371.8	381.09	6.6063e-06	6.6419e-06	430.95	148.13	127.3	44.386	6.7776e-06	54.908	316.349	62.404	64.420	-10.795	132.000	126.988	-10.761	-6.018	144.473	129.557	-6.640	-2.582	-2.203	2.928	166.214	1.961	-8191	255	
675.468	1	1	0	0	0.36134	0.20044	0.3149	0.095525	0.2089	0.11448	0.051528	0.25579	0.1568	0.1389	0.1561	0.17699	0.21714	0.13296	0.10217	0.1299	-3.0563	-2.875	-3.1396	-3.4375	-3.1542	-3.5979	-3.3729	-3.2479	-3.4292	-3.1583	-3.4333	-3.4562	-3.0604	-3.6125	-3.125	-3.0729	28.688	322.492	149.560	36.978	217.228	167.016	-3.289	233.663	80.885	321.569	320.728	249.733	296.042	258.807	309.456	286.533	0.00075133	0.00079769	0.00013912	1341	4.8902e-06	5.2948e-06	1347	369.76	5.0783e-06	6.2899e-06	420.47	143.22	123.5	42.513	8.6565e-06	52.922	0.00062476	0.00062393	0.00017358	1378.9	6.8342e-06	6.8578e-06	1379.9	382.02	6.8524e-06	6.849e-06	432.78	148.28	127.53	44.412	6.7221e-06	54.959	325.164	61.839	82.175	-10.579	156.235	101.839	-10.750	-6.001	160.407	98.192	-6.666	-2.555	-2.039	3.157	126.115	2.183	-8191	255	
675.564	1	1	0	0	0.11106	0.21865	0.041206	0.13894	0.090174	0.18451	0.27961	0.12991	0.19196	0.35494	0.36193	0.21517	0.45506	0.10825	0.081892	0.17042	-3.1396	-3.0646	-3.3063	-3.5583	-2.9917	-3.5479	-3.2583	-3.275	-3.5333	-3.2896	-3.3729	-3.4313	-2.9167	-3.3792	-3.2083	-3.0604	222.315	181.575	289.919	319.060	51.923	71.616	243.134	40.438	57.534	66.169	272.617	191.817	274.498	88.192	76.225	75.417	0.00083186	0.00040989	0.00016169	1346.3	5.2823e-06	1.1292e-05	1349.6	371.63	1.1268e-05	8.2126e-06	418.67	143.89	123.56	42.928	3.0422e-06	52.969	0.00060769	0.00060107	0.00016754	1380.1	6.6499e-06	6.6687e-06	1383.4	382.4	6.7078e-06	6.764e-06	432.58	148.53	127.58	44.455	6.9146e-06	55.072	315.251	38.901	77.842	-10.703	132.631	133.024	-10.877	-5.955	166.860	104.466	-6.778	-2.369	-1.731	3.030	208.083	1.961	-8191	255	
675.684	1	1	0	0	0.31241	0.0030734	0.037849	0.25533	0.070472	0.15021	0.2128	0.29699	0.055701	0.17579	0.13768	0.13752	0.10853	0.13607	0.11919	0.2476	-3.1479	-3.1583	-3.1396	-3.5938	-3.0708	-3.3917	-3.5458	-3.1396	-3.3521	-3.2875	-3.2854	-3.6792	-3.1146	-3.6937	-3.4	-3.0104	89.731	-20.277	62.166	-0.143	270.261	192.321	281.847	255.563	242.015	144.804	56.767	314.789	24.774	288.544	133.186	286.594	0.00067903	0.00038274	0.00012807	1349.6	6.7355e-06	8.5813e-06	1351.3	372.71	7.5472e-06	4.2132e-06	419.53	144.1	123.26	42.791	5.0449e-06	52.992	0.00062756	0.00063786	0.00017622	1386.2	6.8973e-06	6.7333e-06	1384	382.79	6.4446e-06	6.4193e-06	432	148.39	127.49	44.439	6.3492e-06	54.902	326.442	96.429	91.846	-10.702	129.711	102.232	-10.939	-5.988	124.649	99.608	-6.777	-2.314	-1.818	2.880	122.248	1.808	-8191	255	
675.781	1	1	0	0	0.22857	0.171	0.1477	0.21961	0.12703	0.20942	0.1547	0.20947	0.13846	0.14005	0.15489	0.14031	0.19728	0.22328	0.13307	0.073135	-3.1458	-3.0646	-3.1104	-3.5812	-3.1104	-3.4292	-3.4229	-3.0771	-3.4333	-3.375	-3.2625	-3.5	-3.1396	-3.325	-3.3708	-3.0729	247.143	150.436	248.541	4.299	0.674	277.259	247.964	217.799	94.097	72.850	276.393	-11.872	224.769	254.902	301.570	153.577	0.00076854	0.00037254	0.00014749	1345.9	4.3482e-06	8.0196e-06	1351.3	373.36	9.9965e-06	6.462e-06	419.65	144.32	123.73	42.653	9.4758e-06	53.109	0.00059491	0.00059475	0.00017071	1381.5	6.8352e-06	6.8286e-06	1385.2	383.05	7.0585e-06	7.0767e-06	433.69	148.8	127.51	44.478	7.0456e-06	55.133	320.573	74.802	94.216	-10.860	117.373	112.430	-10.759	-6.033	153.949	117.257	-6.780	-2.269	-2.043	2.769	146.681	1.865	-8191	255	
675.877	1	1	0	0	0.060332	0.44998	0.31456	0.27649	0.089444	0.099552	0.099848	0.2281	0.049863	0.12995	0.10714	0.35686	0.19664	0.12742	0.096243	0.062644	-3.0312	-3.0438	-3.025	-3.7125	-2.9083	-3.3292	-3.5417	-2.9896	-3.2104	-3.3312	-3.2062	-3.6292	-3.1104	-3.1729	-3.5062	-3	-9.419	124.724	223.911	316.342	124.161	286.286	264.504	235.633	150.662	214.641	248.487	331.842	2.145	39.940	89.998	333.781	0.00076394	0.00059714	0.00016419	1353.7	6.8765e-06	7.1412e-06	1355.7	371.4	9.6099e-06	7.957e-06	419.69	143.48	123.65	42.868	6.7148e-06	52.85	0.00062464	0.00063471	0.00017684	1385.7	6.8483e-06	6.902e-06	1386.7	382.82	6.7766e-06	6.8105e-06	432.39	148.57	127.53	44.432	7.0046e-06	54.935	321.408	108.239	73.416	-10.661	142.411	124.322	-10.762	-6.092	178.548	140.471	-6.820	-2.466	-1.960	2.823	163.270	1.974	-8191	255	
675.973	1	1	0	0	0.18443	0.13338	0.059982	0.096603	0.078169	0.24097	0.093416	0.16653	0.05058	0.055996	0.1093	0.13766	0.3139	0.19572	0.14481	0.19336	-2.9604	-3.2208	-3.0021	-3.5583	-3.0604	-3.2	-3.6604	-3.1854	-3.1625	-3.4313	-2.9125	-3.5292	-3.2938	-3.1771	-3.6521	-3.2771	82.666	147.722	296.761	221.757	264.173	326.616	239.284	256.443	261.055	184.127	285.160	250.727	303.626	37.023	17.518	263.549	0.00074677	0.00055806	0.00021588	1357	7.1238e-06	6.5191e-06	1354.1	373.6	4.5649e-06	2.4947e-06	419.91	144.55	123.94	42.873	6.3181e-06	52.995	0.00064655	0.00065928	0.00018611	1387.4	7.4518e-06	7.5667e-06	1388.1	383.9	7.5348e-06	7.7355e-06	434.57	149.29	128.06	44.567	7.8804e-06	55.157	315.445	100.846	74.871	-10.547	154.215	93.445	-10.725	-5.975	131.535	153.394	-6.567	-2.420	-1.950	2.920	118.338	1.982	-8191	255	
676.067	1	1	0	0	0.32153	0.097575	0.25792	0.27041	0.091676	0.091478	0.22438	0.16968	0.055341	0.12474	0.27251	0.21953	0.072622	0.13456	0.20723	0.04881	-2.85	-3.3542	-2.9625	-3.5	-3.1083	-3.2208	-3.5875	-3.1562	-3.2292	-3.5854	-3.0563	-3.4542	-3.1979	-3.0521	-3.4833	-2.9833	183.092	88.767	314.484	308.656	324.142	65.749	198.627	240.307	19.386	325.188	262.631	296.138	325.426	292.328	247.497	249.923	0.00075764	0.00072312	0.00029715	1360.5	6.5656e-06	7.2769e-06	1361.6	372.68	1.0738e-05	6.3358e-06	421.51	144.18	123.87	42.8	6.4163e-06	53.168	0.00070798	0.00071229	0.00020106	1395.1	7.7312e-06	7.9227e-06	1392.8	384.01	7.6896e-06	7.8306e-06	435.35	149.2	128.07	44.58	7.6877e-06	55.132	317.403	84.216	53.074	-10.699	128.236	120.144	-10.683	-5.962	174.501	77.066	-6.716	-2.628	-2.093	2.744	95.559	1.844	-8191	255	
676.165	1	1	0	0	0.1738	0.046412	0.14733	0.29715	0.13543	0.098007	0.3533	0.16122	0.24393	0.09008	0.027593	0.29176	0.13948	0.11598	0.067328	0.23332	-2.8792	-3.3583	-2.9792	-3.5917	-3.2	-3.075	-3.8083	-2.9896	-3.2375	-3.4229	-3.0729	-3.4979	-3.2771	-3.0625	-3.5021	-3.2479	28.941	22.858	-20.576	312.312	188.647	261.506	238.934	288.799	111.274	59.987	111.540	314.995	-8.666	307.078	191.166	29.934	0.0007829	0.00097942	5.3344e-05	1354.5	8.5407e-06	4.4659e-06	1357.8	372.63	8.0572e-06	9.7871e-06	420.34	144.19	124.14	42.997	6.5339e-06	52.995	0.00070071	0.00070316	0.00019829	1391.2	7.7572e-06	7.7883e-06	1391.7	383.92	7.693e-06	7.9539e-06	434.9	149.36	128.01	44.654	7.8738e-06	55.151	311.772	61.391	121.109	-10.612	175.410	116.184	-10.746	-6.017	185.252	125.870	-6.675	-2.315	-1.893	2.783	152.657	1.861	-8191	255	
676.284	1	1	0	0	0.3641	0.14019	0.1826	0.28759	0.11276	0.15595	0.12934	0.11005	0.1767	0.16411	0.11864	0.27664	0.099041	0.19007	0.11687	0.2139	-2.6917	-3.3479	-2.9792	-3.5062	-3.3896	-2.8104	-3.6646	-3.2208	-3.1979	-3.4625	-2.9167	-3.3937	-3.5	-3.1104	-3.6125	-3.425	37.349	191.629	304.225	334.378	195.038	244.270	281.788	-4.204	107.263	92.723	33.042	49.282	195.634	172.884	189.850	39.143	0.00071024	0.00082061	0.00022122	1360.2	6.5379e-06	6.4539e-06	1360.3	373.26	9.6375e-06	6.7572e-06	420.19	144.35	124.29	42.933	5.3831e-06	52.969	0.00070811	0.00072301	0.0001997	1396.1	7.745e-06	7.9978e-06	1394	384.54	7.8682e-06	8.0055e-06	435.06	149.07	128.29	44.649	7.7075e-06	55.179	320.960	86.848	103.359	-10.623	126.914	91.888	-10.727	-6.149	154.788	114.297	-6.839	-2.319	-1.944	2.621	155.170	1.728	-8191	255	
676.380	1	1	0	0	0.25846	0.070414	0.11737	0.31782	0.33073	0.14817	0.35411	0.26201	0.25291	0.097391	0.15731	0.36908	0.060535	0.065164	0.13203	0.15185	-2.6688	-3.5854	-3.0375	-3.4813	-3.2417	-2.9313	-3.5521	-3.35	-3.0938	-3.5312	-3.1875	-3.3521	-3.4625	-3.1292	-3.4729	-3.2604	99.414	170.434	74.400	290.902	161.311	299.143	284.055	-5.607	-17.096	277.953	309.036	223.551	310.191	26.940	25.340	-17.223	0.00079059	0.00070538	0.00020017	1364.8	4.2902e-06	6.263e-06	1368.1	374.37	3.6179e-06	6.1499e-06	421.22	144.58	124.4	42.943	3.5372e-06	53.002	0.00070586	0.00073005	0.00020238	1400.1	7.8515e-06	7.9095e-06	1400	385.25	7.823e-06	7.88e-06	435.03	149.5	128.29	44.711	8.0497e-06	55.16	322.219	68.028	61.794	-10.661	123.837	156.504	-10.803	-6.078	209.612	116.825	-6.661	-2.528	-2.136	2.776	119.957	2.008	-8191	255	
676.476	1	1	0	0	0.17193	0.29037	0.14157	0.076048	0.10697	0.076564	0.23285	0.046893	0.10452	0.20446	0.19245	0.19402	0.1343	0.40205	0.15051	0.045534	-2.7625	-3.4333	-3.0271	-3.3271	-3.3708	-3.0354	-3.5833	-3.2729	-3.0833	-3.4979	-3.2104	-3.4062	-3.5708	-3.05	-3.4229	-3.4042	46.447	154.085	75.999	272.077	149.864	84.953	-9.540	282.406	26.361	72.760	285.349	325.672	265.137	329.145	87.805	48.877	0.00072144	0.00040086	0.0001343	1365.5	6.2975e-06	7.8355e-06	1367.9	376.13	1.1818e-05	3.1721e-06	423.89	145.2	124.39	43.02	6.4139e-06	52.972	0.0007323	0.00073509	0.00020287	1403.7	7.9817e-06	8.0603e-06	1403.6	386.36	8.015e-06	7.9635e-06	437.02	149.8	128.56	44.794	8.0261e-06	55.181	312.755	51.208	80.409	-10.724	163.669	108.467	-10.774	-5.981	179.166	58.708	-6.642	-2.486	-2.159	2.834	125.041	1.607	-8191	255	
676.572	1	1	0	0	0.051667	0.083554	0.26139	0.33834	0.30781	0.1672	0.16254	0.12332	0.22379	0.17646	0.075956	0.1244	0.27278	0.16269	0.19449	0.14344	-2.5812	-3.5125	-3.0167	-3.1792	-3.3854	-3.1708	-3.55	-3.4062	-2.8312	-3.5021	-3.2375	-3.3021	-3.5312	-3.1771	-3.2396	-3.4104	149.732	280.499	119.366	-23.844	163.482	244.108	289.823	175.566	189.024	197.425	298.228	287.900	232.620	232.199	251.516	-19.392	0.00075069	0.00056288	0.00014074	1366.3	2.5553e-06	3.0427e-06	1373.6	375.72	8.4436e-06	5.2882e-06	422.03	144.88	124.84	42.919	7.5598e-06	52.985	0.00072862	0.00073823	0.00020462	1406.2	8.0606e-06	8.0747e-06	1407.5	386.49	8.1368e-06	8.0778e-06	436.9	149.96	128.9	44.772	8.3124e-06	55.331	314.625	112.239	58.829	-10.722	189.479	34.781	-10.830	-6.144	138.067	129.755	-6.714	-2.103	-2.207	2.614	135.748	1.792	-8191	255	
676.693	1	1	0	0	0.084542	0.11159	0.16548	0.36285	0.44356	0.18469	0.34192	0.17972	0.10762	0.25911	0.13209	0.1651	0.065673	0.19172	0.28706	0.071794	-2.6229	-3.6479	-3.3167	-3.1875	-3.5042	-3.2396	-3.425	-3.6125	-2.8854	-3.5729	-3.2729	-3.3167	-3.6542	-3.1833	-3.1312	-3.4167	140.915	278.467	212.679	-24.258	145.119	288.388	321.742	257.529	40.824	131.847	259.196	309.261	22.822	310.463	176.114	217.659	0.00075524	0.00063907	0.0001788	1380.7	9.1856e-06	6.4748e-06	1374	376.13	7.2462e-06	4.0664e-06	420.46	145.69	124.64	43.124	9.3077e-06	53.329	0.00075393	0.00076407	0.00021268	1413.8	8.3656e-06	8.5474e-06	1410.9	387.9	8.5281e-06	8.595e-06	437.88	150.42	129.15	44.925	8.6341e-06	55.443	312.382	78.021	72.723	-10.744	126.614	133.002	-10.821	-6.291	187.379	129.026	-6.822	-2.367	-2.239	2.833	130.883	2.070	-8191	255	
676.765	1	1	0	0	0.19791	0.15692	0.20748	0.074704	0.21815	0.11832	0.21119	0.24508	0.12469	0.027001	0.29042	0.094857	0.0737	0.16909	0.20162	0.075825	-2.5875	-3.4437	-3.1375	-3.275	-3.45	-3.1	-3.4104	-3.5208	-3.0563	-3.2333	-3.425	-3.1312	-3.5583	-3.3042	-3.2313	-3.4562	114.027	-5.800	14.136	206.984	285.262	155.592	266.208	294.207	328.264	73.241	276.708	0.334	37.194	199.831	226.410	211.391	0.00068643	0.00055279	9.8892e-05	1378.2	1.0018e-05	7.5393e-06	1381.5	377.08	6.3061e-06	6.9956e-06	424.05	145.75	124.7	42.893	4.4639e-06	53.207	0.0007744	0.00077773	0.00022089	1419.7	8.5118e-06	8.6541e-06	1416	388.35	8.4211e-06	8.4976e-06	438.55	150.45	129.28	44.936	8.4169e-06	55.348	309.151	72.204	86.080	-10.672	152.106	116.228	-10.912	-6.219	216.729	130.111	-6.838	-2.494	-2.143	2.801	149.920	1.671	-8191	255	
676.861	1	1	0	0	0.018876	0.2234	0.030473	0.15317	0.2509	0.40458	0.17317	0.25172	0.16435	0.2396	0.17449	0.10905	0.12519	0.09354	0.053168	0.18163	-2.5729	-3.2646	-3.3021	-3.05	-3.4062	-3.1208	-3.2562	-3.4667	-3.0542	-3.4021	-3.4313	-3.0521	-3.6771	-3.1792	-3.0146	-3.6104	219.787	67.157	313.474	-13.137	256.073	124.751	224.958	285.784	62.433	325.678	334.012	135.323	30.117	54.448	120.335	18.970	0.00072146	0.00042474	0.00014948	1382.3	8.3045e-06	5.7726e-06	1377.2	376.82	1.1439e-05	6.7261e-06	423.81	145.8	125.14	43.133	4.1659e-06	53.319	0.00076104	0.00076652	0.00021448	1418.4	8.2539e-06	8.2364e-06	1414.8	388.41	8.1634e-06	8.2699e-06	438.95	150.37	129.43	44.904	8.2942e-06	55.435	318.470	49.963	61.607	-10.700	146.096	174.082	-10.891	-6.121	132.139	142.963	-6.728	-2.531	-2.112	2.542	121.915	1.799	-8191	255	
676.957	1	1	0	0	0.27121	0.17449	0.17961	0.11979	0.069041	0.24543	0.2696	0.15573	0.15518	0.13422	0.048487	0.26691	0.23651	0.35638	0.10514	0.14424	-2.6521	-3.1771	-3.4104	-3.1083	-3.3521	-3.3208	-3.4062	-3.5312	-3.1042	-2.9896	-3.4792	-3.0187	-3.4729	-3.3125	-3.0104	-3.6479	317.608	187.017	18.391	-11.736	329.009	327.762	-21.628	42.280	281.377	313.138	15.801	290.067	246.961	4.074	89.013	233.852	0.00086321	0.00070437	0.00012647	1380.5	4.8969e-06	6.2573e-06	1380.8	376.9	1.6094e-05	5.0119e-06	424.92	146.14	125.23	43.267	7.5924e-06	53.23	0.00073415	0.00074439	0.00021029	1418.5	8.1203e-06	8.2088e-06	1415.7	388.36	8.1013e-06	8.0667e-06	439.08	150.4	129.35	44.918	8.017e-06	55.341	305.632	76.510	37.924	-10.814	140.599	35.579	-10.914	-6.099	168.758	122.947	-6.756	-2.431	-2.273	2.749	142.300	1.639	-8191	255	
677.076	1	1	0	0	0.15528	0.10013	0.027042	0.23725	0.16171	0.081843	0.26532	0.22764	0.23293	0.21601	0.10819	0.067945	0.29439	0.075342	0.099854	0.2705	-2.4917	-3.0438	-3.4062	-3.1792	-3.3521	-3.2604	-3.3542	-3.4708	-3.0583	-3.1167	-3.5125	-3.2625	-3.6	-3.475	-3.0521	-3.4188	243.282	312.571	316.786	23.622	326.076	111.431	281.836	293.223	118.761	-8.640	104.084	40.061	-11.479	62.027	271.765	295.928	0.00073868	0.00049228	0.00015612	1376	3.9295e-06	7.0195e-06	1382.3	376.13	1.1703e-05	5.1709e-06	424.35	145.05	125.01	42.971	6.0375e-06	53.271	0.00071461	0.00071995	0.00020131	1415.5	7.8122e-06	7.9464e-06	1415.5	387.96	7.7537e-06	7.8618e-06	437.99	150.05	129.05	44.797	7.8378e-06	55.354	316.654	68.115	31.313	-10.804	95.738	147.036	-10.946	-6.032	158.125	105.362	-6.564	-2.521	-1.957	2.670	71.695	1.874	-8191	255	
677.172	1	1	0	0	0.22782	0.032226	0.17758	0.12029	0.11058	0.14069	0.40856	0.10851	0.03034	0.23743	0.24441	0.24101	0.29122	0.22689	0.080722	0.20767	-2.8958	-3.0083	-3.4896	-3.3271	-3.2812	-3.3937	-3.1875	-3.6583	-3.1958	-3.0917	-3.55	-3.1104	-3.3312	-3.4354	-3.0812	-3.5312	209.929	-19.313	149.615	242.777	180.092	134.071	299.154	-23.281	134.320	19.225	308.582	28.624	236.338	320.942	125.804	227.436	0.00078603	0.0005825	0.00016024	1382.4	6.9641e-06	4.4008e-06	1378.6	375.4	1.571e-05	3.5277e-06	423.83	145.17	125.24	42.999	5.6115e-06	53.147	0.00071353	0.0007263	0.00020089	1415.4	7.9936e-06	8.0469e-06	1412.1	387.58	7.9382e-06	8.1044e-06	438.15	150.21	129.13	44.808	7.938e-06	55.342	324.833	80.803	63.991	-10.682	133.315	192.849	-10.749	-6.371	130.364	182.363	-6.791	-2.723	-2.112	2.644	144.319	1.700	-8191	255	
677.268	1	1	0	0	0.161	0.24212	0.072559	0.20379	0.095983	0.19695	0.12048	0.17457	0.13814	0.19892	0.10863	0.22808	0.075045	0.19227	0.17654	0.16962	-2.8479	-3.125	-3.4542	-3.1813	-3.1958	-3.4792	-3.2083	-3.5458	-3.3125	-3.0625	-3.6625	-3.3333	-3.2604	-3.45	-2.9646	-3.6	30.772	82.734	324.939	307.584	90.198	222.915	313.038	197.515	61.717	329.123	104.600	289.615	296.606	207.054	242.550	314.652	0.00083395	0.0004133	0.00011627	1380.2	8.1378e-06	3.8674e-06	1374	375.98	9.5827e-06	5.8637e-06	424.41	144.83	124.56	43.066	7.9876e-06	53.07	0.00071805	0.00073654	0.00019785	1414.9	7.9774e-06	7.8804e-06	1413.5	387.3	7.8438e-06	7.8557e-06	437.87	149.84	128.87	44.788	7.7023e-06	55.313	322.904	55.428	92.362	-10.765	142.643	146.049	-10.719	-6.107	164.108	98.976	-6.780	-2.527	-2.170	2.804	157.714	1.717	-8191	255	
677.364	1	1	0	0	0.17051	0.11176	0.20666	0.31347	0.15708	0.12124	0.24181	0.26056	0.078966	0.23344	0.06823	0.071239	0.039713	0.19631	0.12154	0.16172	-2.8438	-2.9938	-3.5271	-3.2125	-3.2167	-3.5563	-3.4229	-3.4042	-3.375	-2.9813	-3.4396	-3.4042	-3.3792	-3.6396	-2.9437	-3.4604	30.093	189.623	8.862	309.975	74.583	-11.462	281.885	304.115	149.276	-17.931	-19.773	217.396	318.940	-4.622	257.830	208.586	0.0008118	0.00076345	0.00014707	1375.4	7.1167e-06	8.6055e-06	1376.2	376.08	6.7889e-06	6.9935e-06	422.04	144.99	124.35	42.97	8.0413e-06	53.173	0.00069232	0.00070324	0.00019538	1411.6	7.4914e-06	7.5797e-06	1410	387.14	7.5108e-06	7.5561e-06	437.42	149.96	128.77	44.745	7.5762e-06	55.217	314.599	74.380	83.028	-10.664	130.799	135.859	-10.753	-6.059	170.420	103.865	-6.799	-2.662	-1.959	2.741	146.249	1.717	-8191	255	
677.461	1	1	0	0	0.026237	0.054507	0.11238	0.29794	0.055764	0.2527	0.12822	0.11835	0.13017	0.076909	0.038043	0.14786	0.15546	0.082668	0.26537	0.11358	-2.9771	-2.8812	-3.5917	-3.1979	-3.1604	-3.7771	-3.2292	-3.5021	-3.325	-2.9583	-3.4083	-3.2917	-3.1542	-3.55	-3.3	-3.4	313.963	25.920	75.620	-8.084	126.423	227.411	294.629	316.621	17.154	94.824	67.994	309.670	318.157	35.085	123.188	116.479	0.000756	0.00055443	0.00013861	1372.8	2.3765e-06	4.8421e-06	1373.3	376.8	1.0855e-05	7.5612e-06	423.77	145.64	124.55	42.857	4.8665e-06	53.066	0.0006832	0.00069316	0.00019187	1410.4	7.6622e-06	7.5562e-06	1407.9	387.45	7.6035e-06	7.7423e-06	437.48	150.02	128.89	44.675	7.6197e-06	55.312	313.386	56.737	54.982	-10.773	202.973	132.114	-10.926	-6.027	171.534	95.461	-6.895	-2.782	-2.038	2.803	150.793	2.080	-8191	255	
677.557	1	1	0	0	0.096837	0.14899	0.17706	0.12883	0.20713	0.13397	0.38809	0.26515	0.069015	0.1327	0.14957	0.11234	0.019651	0.18617	0.31281	0.056463	-3.1708	-3.0354	-3.2333	-3.4271	-3.1813	-3.4938	-3.2229	-3.1875	-3.4062	-3.0271	-3.5938	-3.6208	-3.1208	-3.5312	-3.2125	-3.3521	77.605	-13.872	246.943	290.720	156.284	-14.347	255.420	221.650	194.572	214.402	151.770	276.800	178.338	17.560	334.175	133.231	0.00081873	0.00053798	0.00015812	1376.7	4.8324e-06	6.3893e-06	1379	376.58	4.7048e-06	8.5703e-06	423.54	145.37	125.5	42.985	8.4082e-06	53.45	0.0007032	0.00071315	0.00019929	1412.3	7.9041e-06	7.9038e-06	1411.4	387.37	7.8387e-06	8.0612e-06	438.23	150.01	129.32	44.812	8.038e-06	55.484	312.717	39.170	63.748	-10.809	148.198	126.124	-10.687	-6.101	166.043	168.896	-6.449	-2.481	-1.867	2.683	114.325	2.007	-8191	255	
677.653	1	1	0	0	0.1636	0.17037	0.2875	0.12933	0.31047	0.16616	0.090386	0.1742	0.067912	0.13644	0.44165	0.16162	0.1527	0.10913	0.10757	0.17277	-3.1375	-2.9875	-3.2896	-3.4646	-3.0104	-3.4896	-3.3688	-3.2667	-3.525	-3.1333	-3.4083	-3.4042	-3.0521	-3.3354	-3.2542	-3.2938	105.789	260.282	34.685	296.807	161.353	201.498	5.505	244.858	69.172	-15.446	261.566	56.017	160.553	227.654	230.260	60.151	0.00072252	0.0001572	0.000194	1378.9	6.7722e-06	5.8976e-06	1380.7	376.01	1.0572e-05	4.526e-06	423.88	145.6	124.41	43.044	7.059e-06	53.384	0.00072363	0.00071774	0.00020492	1413.4	7.9806e-06	7.9855e-06	1412.6	387.94	7.8647e-06	7.8707e-06	438.07	150.14	129.23	44.802	7.9715e-06	55.434	314.925	41.608	66.657	-10.611	133.752	119.389	-10.841	-5.943	114.611	117.162	-6.677	-2.477	-1.942	2.511	178.363	1.681	-8191	255	
677.773	1	1	0	0	0.14361	0.075711	0.19204	0.23124	0.10373	0.33553	0.26173	0.21599	0.23648	0.010557	0.16132	0.28495	0.18147	0.32313	0.085292	0.13476	-3.0354	-3.0625	-3.275	-3.5396	-3.1896	-3.5062	-3.4354	-3.1458	-3.5354	-3.1292	-3.4104	-3.6312	-3.1667	-3.4354	-3.4208	-3.2854	300.224	333.953	0.039	306.802	11.958	226.251	-18.699	299.876	7.922	320.407	320.269	318.354	254.756	292.155	219.611	292.341	0.00064737	0.00094638	5.9384e-05	1381.2	7.3952e-06	6.0693e-06	1376.8	375.68	6.0343e-06	4.9141e-06	424.65	145.24	124.89	42.83	7.0853e-06	53.023	0.00072138	0.00073703	0.00020764	1416.3	8.1192e-06	8.0983e-06	1411.6	388.22	8.0404e-06	7.9599e-06	438.01	150.06	129.19	44.778	8.0025e-06	55.42	308.526	74.246	70.508	-10.859	147.754	147.631	-10.735	-6.224	184.210	136.406	-6.705	-2.356	-1.953	2.773	112.450	2.048	-8191	255	
677.870	1	1	0	0	0.14362	0.061129	0.15871	0.13436	0.025937	0.10504	0.36319	0.40376	0.17859	0.14797	0.074875	0.15446	0.31545	0.27434	0.17985	0.21721	-3.125	-2.8375	-3.0729	-3.4667	-2.9146	-3.4771	-3.5292	-2.9646	-3.5542	-3.0667	-3.2125	-3.4313	-3.0479	-3.5667	-3.3396	-3.1937	-16.359	32.600	288.663	-20.968	105.736	135.719	288.834	236.236	331.835	45.853	126.968	34.208	318.275	311.197	135.086	269.001	0.00078835	0.00054254	0.00018194	1380.2	5.5217e-06	5.7663e-06	1378.6	377.12	1.0884e-05	1.0329e-05	424.78	144.77	125.59	42.964	4.0368e-06	53.205	0.00071715	0.0007252	0.00020472	1417.2	7.8822e-06	7.9026e-06	1412.1	388	7.8672e-06	7.9632e-06	437.91	149.98	129.53	44.79	7.9942e-06	55.437	313.016	77.263	31.333	-10.682	142.055	127.929	-10.811	-6.102	197.057	140.248	-6.790	-2.470	-1.978	2.648	140.137	1.749	-8191	255	
677.966	1	1	0	0	0.24224	0.10222	0.021239	0.26456	0.15325	0.070032	0.23143	0.11459	0.094755	0.22389	0.12633	0.097274	0.06996	0.24107	0.2533	0.11445	-3.1917	-3.2021	-3.2354	-3.6125	-3.1979	-3.4021	-3.5583	-2.9938	-3.6229	-3.2667	-2.9458	-3.6312	-3.325	-3.2604	-3.475	-2.9417	56.194	158.454	78.438	254.594	106.564	301.115	253.918	288.646	267.361	37.823	219.263	79.595	82.653	318.719	260.999	73.397	0.00067609	0.00051569	0.00012146	1374	6.1419e-06	8.7879e-06	1378.6	376.93	1.2675e-05	4.7163e-06	424	145.1	124.43	43.064	3.4718e-06	52.865	0.00072873	0.00074411	0.00021064	1414.6	8.1463e-06	8.3152e-06	1412.6	387.99	8.1947e-06	8.2794e-06	438.7	149.98	129.31	44.814	8.2729e-06	55.471	316.955	72.029	29.479	-10.536	135.961	118.292	-10.989	-6.130	142.850	141.196	-6.687	-2.525	-2.000	2.794	140.284	1.581	-8191	255	
678.062	1	1	0	0	0.10906	0.15346	0.30869	0.25559	0.057167	0.065845	0.18505	0.32305	0.17767	0.19699	0.23558	0.23773	0.087548	0.3615	0.080735	0.23987	-2.9375	-3.1771	-2.8771	-3.7292	-2.9938	-3.1646	-3.6937	-3.1708	-3.3688	-3.1458	-2.9229	-3.5687	-3.2792	-3.2021	-3.4562	-3.1375	331.213	227.797	77.600	258.766	85.373	71.234	13.297	238.805	28.132	-6.971	188.721	248.799	134.826	286.330	101.860	276.671	0.00081913	0.00052042	0.00012175	1379.2	5.8109e-06	1.2408e-05	1379.8	376.22	4.9871e-06	7.5206e-06	424.72	145.61	125.56	43.074	4.6439e-06	53.078	0.00074486	0.00076244	0.00021188	1418	8.4467e-06	8.4317e-06	1413.8	387.8	8.3552e-06	8.3987e-06	438.77	150.36	129.69	44.895	8.3798e-06	55.432	315.737	68.696	60.935	-10.892	105.264	107.387	-10.725	-6.041	78.898	73.108	-7.020	-2.496	-2.192	2.702	96.173	1.797	-8191	255	
678.156	1	1	0	0	0.11906	0.27908	0.17001	0.068986	0.089652	0.14168	0.20961	0.18653	0.26206	0.15147	0.30625	0.39611	0.18293	0.13915	0.21878	0.042295	-2.8354	-3.3271	-2.9521	-3.6937	-3.2938	-3.1312	-3.5667	-2.9729	-3.4042	-3.5229	-3.1417	-3.5083	-3.1229	-3.0979	-3.3646	-3.0896	245.488	280.409	73.516	221.169	144.097	90.426	246.245	310.445	16.822	273.777	294.468	262.233	321.768	267.809	8.371	258.476	0.00083044	0.00080326	0.00016062	1385.6	5.3788e-06	1.099e-05	1378.8	376.9	7.3463e-06	1.6608e-06	424.01	145.27	125.62	42.867	1.0759e-05	53.228	0.00074366	0.00076686	0.0002143	1420	8.28e-06	8.5187e-06	1414.4	388.24	8.3229e-06	8.4989e-06	438.97	150.27	129.69	44.844	8.4879e-06	55.444	309.895	64.924	36.943	-10.931	152.848	116.105	-10.884	-6.078	202.016	127.189	-6.791	-2.659	-2.017	2.795	139.376	1.931	-8191	255	
678.252	1	1	0	0	0.10481	0.11605	0.18622	0.20978	0.13162	0.17078	0.30988	0.33016	0.17052	0.26142	0.019895	0.24056	0.19075	0.079293	0.15487	0.14823	-2.8	-3.2979	-2.9646	-3.6542	-3.1667	-3.1896	-3.6312	-3.2021	-3.4313	-3.4	-2.8958	-3.6042	-3.3271	-3.0333	-3.4979	-3.1312	170.760	236.950	300.847	286.670	313.250	95.817	323.431	278.746	282.251	103.041	120.780	55.915	299.843	158.987	121.134	161.301	0.00072292	0.00015066	6.5972e-05	1388.9	5.3942e-06	1.0388e-05	1378.2	376.75	6.8837e-06	4.8895e-06	425.37	144.81	125.26	43.205	1.0125e-05	53.109	0.00075441	0.00076915	0.00021476	1421.6	8.33e-06	8.4734e-06	1416.9	388.65	8.365e-06	8.4543e-06	438.99	150.32	129.63	44.947	8.5653e-06	55.412	322.064	173.372	7.380	-10.871	113.392	114.652	-10.827	-6.228	182.388	137.263	-6.735	-2.339	-2.207	2.747	82.341	1.512	-8191	255	
678.373	1	1	0	0	0.066167	0.21266	0.21529	0.10379	0.28152	0.15571	0.45668	0.32876	0.075029	0.094275	0.18949	0.027024	0.25754	0.12635	0.11317	0.20058	-2.8667	-3.5	-3.0312	-3.4625	-3.2062	-3.2354	-3.5229	-3.3208	-3.1646	-3.5062	-2.9875	-3.5208	-3.3979	-3.1229	-3.6229	-3.1083	207.364	178.240	99.400	247.195	98.733	-1.648	292.276	243.798	74.486	87.956	-2.514	25.492	167.611	97.151	121.574	200.933	0.00076648	0.00067927	0.00023775	1382	7.4636e-06	1.0945e-06	1382.2	377.29	8.5776e-06	8.1288e-06	424.01	145.68	125.39	43.175	1.022e-05	53.376	0.0007581	0.00077113	0.00021651	1420	8.5487e-06	8.5564e-06	1415.6	388.75	8.4335e-06	8.6692e-06	438.71	150.46	129.61	44.931	8.4861e-06	55.443	311.561	56.786	42.143	-10.728	121.537	115.066	-10.788	-6.259	145.336	124.728	-6.596	-2.594	-1.903	2.662	152.406	1.774	-8191	255	
678.469	1	1	0	0	0.24104	0.28816	0.17923	0.20796	0.10063	0.10398	0.33143	0.27835	0.039666	0.050221	0.25489	0.24868	0.1016	0.16227	0.15819	0.11224	-2.8563	-3.5	-3.0021	-3.3021	-3.2646	-3.0708	-3.5396	-3.2188	-3.0583	-3.5521	-2.9625	-3.3438	-3.4792	-3.0083	-3.3375	-3.0708	135.871	184.221	11.576	286.536	169.208	232.139	290.214	293.075	73.310	309.715	25.645	-20.516	32.124	192.392	-10.047	217.601	0.00089954	0.00054618	0.00019341	1384.9	4.5961e-06	7.1978e-06	1388.4	377.35	8.0233e-06	6.371e-06	425.85	145.52	125.31	43.323	6.4471e-06	53.333	0.00077852	0.00077675	0.00021926	1421.3	8.585e-06	8.5743e-06	1419.5	388.68	8.3557e-06	8.4886e-06	439.32	150.63	129.7	44.979	8.5173e-06	55.429	314.887	43.817	56.540	-10.847	120.917	137.077	-10.762	-6.030	119.837	94.912	-6.933	-2.349	-2.247	2.533	154.918	1.626	-8191	255	
678.565	1	1	0	0	0.068897	0.042084	0.12434	0.25867	0.12719	0.17122	0.40488	0.1599	0.10724	0.096787	0.38724	0.10633	0.016972	0.20501	0.085566	0.20481	-2.7417	-3.5958	-3.0646	-3.3667	-3.5625	-2.95	-3.6875	-3.4042	-3.0271	-3.5396	-3.1125	-3.2792	-3.3958	-2.9333	-3.3708	-3.3625	328.490	31.123	320.960	-5.749	133.588	59.272	317.623	86.597	327.563	236.938	217.979	263.652	241.136	-0.667	4.660	38.915	0.00080349	0.00024023	0.00012347	1388.4	2.5897e-06	8.2353e-06	1384.2	379.23	8.8024e-06	6.327e-06	425.02	146.01	125.46	43.184	8.5026e-06	53.309	0.00077044	0.0007708	0.00021679	1423.3	8.3534e-06	8.5148e-06	1417.9	389.06	8.442e-06	8.4574e-06	438.93	150.42	129.72	44.968	8.448e-06	55.393	316.914	69.678	87.357	-10.722	95.667	136.335	-10.990	-6.034	167.479	100.322	-6.649	-2.516	-1.900	2.651	146.640	1.456	-8191	255	
678.637	1	1	0	0	0.054234	0.023271	0.25033	0.35463	0.11532	0.18641	0.1126	0.11028	0.138	0.041042	0.29527	0.18521	0.17709	0.22741	0.20487	0.13712	-2.725	-3.2417	-3.1583	-3.4042	-3.3792	-3.1271	-3.5771	-3.4167	-2.9729	-3.55	-3.1833	-3.0208	-3.4375	-2.9646	-3.2792	-3.3646	63.373	304.794	4.700	277.671	49.602	14.624	252.146	293.573	329.057	103.822	303.115	325.092	57.152	65.430	106.002	95.186	0.00076952	0.00075129	0.00010029	1383.9	7.2604e-06	7.4688e-06	1384.1	378.26	4.9996e-06	7.6428e-06	425.91	145.57	125.18	43.142	7.5937e-06	53.227	0.00076449	0.00077213	0.00021521	1422.2	8.3389e-06	8.3432e-06	1416.7	389.31	8.2439e-06	8.1268e-06	439.38	150.47	129.61	44.952	8.0136e-06	55.397	323.863	68.475	19.944	-10.763	162.928	106.456	-10.817	-6.019	179.841	74.147	-6.950	-2.468	-1.918	2.716	120.675	1.786	-8191	255	
678.758	1	1	0	0	0.25035	0.25928	0.060999	0.36141	0.11101	0.055678	0.052442	0.27959	0.23008	0.20587	0.20291	0.43848	0.38527	0.33733	0.10187	0.10152	-2.6792	-3.3708	-2.9479	-3.1354	-3.3167	-2.9396	-3.4958	-3.4604	-2.9437	-3.3479	-3.3458	-3.1042	-3.5062	-2.9437	-3.3937	-3.3937	-5.446	184.065	21.796	265.785	23.662	-4.715	334.772	288.843	71.762	315.474	313.399	279.669	208.373	307.178	8.163	-5.642	0.00067724	0.00010234	0.00025043	1384.4	6.0353e-06	4.9646e-06	1377.8	377.08	9.4303e-06	7.812e-06	425.88	144.85	125.06	43.204	2.7803e-06	53.129	0.00072058	0.00072565	0.00019945	1418.7	7.8581e-06	7.7927e-06	1415.3	387.71	7.6719e-06	7.8081e-06	438.41	150	129.38	44.83	7.8688e-06	55.211	319.856	109.320	62.668	-10.878	121.003	142.090	-10.906	-6.301	196.358	127.179	-6.808	-2.648	-2.010	2.690	134.167	1.760	-8191	255	
678.854	1	1	0	0	0.21427	0.18658	0.2658	0.16734	0.05703	0.15008	0.24546	0.12537	0.17876	0.27652	0.24004	0.11856	0.031728	0.1517	0.060834	0.097848	-2.4854	-3.45	-3.2208	-3.1583	-3.5333	-3.2521	-3.5125	-3.4083	-2.9542	-3.4125	-3.1958	-3.2104	-3.5312	-3.0542	-3.2271	-3.6125	323.151	202.436	219.216	261.774	107.016	61.772	230.603	281.908	90.646	328.593	-1.926	239.567	246.877	226.269	-18.923	116.464	0.00080272	0.0004305	7.2904e-05	1382.3	7.5386e-06	1.0068e-05	1380.7	377.65	4.1894e-06	1.9714e-06	424.72	145.35	125.17	43.276	4.292e-06	53.221	0.00071367	0.00072662	0.00020372	1418.5	7.9954e-06	8.2931e-06	1414.2	387.9	8.2585e-06	8.3781e-06	439.23	150.14	129.41	44.932	8.3313e-06	55.177	312.528	85.309	72.460	-10.686	123.515	144.751	-10.905	-6.110	180.783	101.185	-6.797	-2.565	-2.160	2.741	109.963	1.710	-8191	255	
678.950	1	1	0	0	0.10616	0.013048	0.19814	0.30167	0.087081	0.085341	0.23332	0.16934	0.1412	0.14038	0.10947	0.17193	0.22263	0.17679	0.16474	0.12547	-2.6104	-3.375	-3.2375	-3.2438	-3.6208	-3.0625	-3.2417	-3.6312	-2.9896	-3.5292	-3.3333	-3.1667	-3.5146	-3.0542	-3.0708	-3.4938	29.523	-14.632	178.004	239.770	240.347	268.460	278.192	325.539	49.849	26.874	285.498	12.223	321.007	45.606	279.091	260.230	0.00076895	0.00064931	0.00027508	1385.6	4.0702e-06	8.4171e-06	1383.3	377.17	4.0632e-06	5.254e-06	424.6	145.35	125.48	43.06	2.7369e-06	53.038	0.0007399	0.00075019	0.0002153	1419.9	8.2981e-06	8.2656e-06	1416	388.54	8.2306e-06	8.2806e-06	439.09	150.27	129.66	45.033	8.414e-06	55.247	313.602	53.218	43.179	-10.678	126.276	108.692	-10.752	-6.074	187.156	90.971	-6.776	-2.423	-1.992	2.722	159.371	1.884	-8191	255	
679.046	1	1	0	0	0.26443	0.082313	0.1084	0.056463	0.41471	0.089335	0.3967	0.2316	0.1291	0.19086	0.30578	0.14401	0.15214	0.11786	0.077119	0.2762	-2.625	-3.3812	-3.3146	-3.0521	-3.4292	-3.2021	-3.4708	-3.5187	-2.8812	-3.2938	-3.3875	-3.1271	-3.7	-3.4437	-3.1479	-3.4688	-23.082	23.409	62.797	-20.609	182.980	-10.375	259.134	302.404	323.900	211.224	306.787	294.747	309.673	286.325	299.760	255.162	0.0007536	0.00064871	0.00021965	1383.9	7.95e-06	1.1815e-06	1382.9	376.6	1.3176e-05	5.3256e-06	424.91	145.93	125.61	43.058	4.6042e-06	53.083	0.00075205	0.0007733	0.00021144	1418.8	8.4082e-06	8.5618e-06	1417.2	388.34	8.4201e-06	8.7001e-06	439.48	150.58	129.68	44.939	8.5045e-06	55.175	324.961	40.013	51.257	-10.659	152.806	106.965	-10.741	-6.172	181.704	51.179	-6.708	-2.544	-1.883	2.723	128.342	1.837	-8191	255	
679.165	1	1	0	0	0.053462	0.17264	0.29689	0.04512	0.064408	0.16993	0.16351	0.14984	0.067053	0.15126	0.10444	0.13521	0.10072	0.47437	0.20223	0.16506	-2.7354	-3.4125	-3.3375	-3.0729	-3.3667	-3.1896	-3.2562	-3.4854	-3.1813	-3.2583	-3.5396	-3.175	-3.5312	-3.3958	-2.875	-3.6042	322.225	197.512	2.224	114.695	25.888	208.439	270.395	1.994	212.868	61.028	217.161	319.851	124.567	32.949	121.330	278.905	0.00072089	0.0006368	0.00018519	1381.7	5.1484e-06	5.591e-06	1382	378.3	1.2109e-05	7.2148e-06	426.01	145.08	125.55	43.163	7.9129e-06	53.247	0.00075988	0.00077547	0.00021182	1420.4	8.454e-06	8.4829e-06	1418.4	388.7	8.458e-06	8.6284e-06	439.46	150.41	129.78	45	8.7259e-06	55.265	314.037	70.073	34.408	-10.816	151.080	118.223	-10.921	-6.005	178.015	77.640	-6.701	-2.443	-2.184	2.688	137.701	1.789	-8191	255	
679.237	1	1	0	0	0.089595	0.20133	0.28311	0.21812	0.31572	0.046733	0.23789	0.2468	0.10656	0.21618	0.062954	0.21023	0.14818	0.22734	0.22419	0.1246	-2.7417	-3.0792	-3.4292	-3.0771	-3.2542	-3.5083	-3.1292	-3.5563	-3.2	-3.3146	-3.6354	-2.9979	-3.5042	-3.4229	-2.9542	-3.6125	282.396	322.915	281.972	312.901	-7.076	213.210	291.879	265.945	191.363	71.728	-7.267	332.682	333.030	66.806	236.547	311.280	0.00066596	0.00037888	0.00020439	1385.5	4.1713e-06	7.7651e-06	1385.5	377.5	1.0563e-05	7.8499e-06	425.72	145.3	125.44	43.364	4.8417e-06	52.982	0.00077041	0.00079544	0.00021869	1423.2	8.5686e-06	8.6831e-06	1418.8	388.97	8.4748e-06	8.6997e-06	439.94	150.55	129.92	45.124	8.8552e-06	55.226	318.329	106.601	97.378	-10.750	146.374	91.256	-10.969	-6.197	137.987	142.900	-6.695	-2.447	-2.213	2.412	105.725	1.757	-8191	255	
679.333	1	1	0	0	0.11365	0.12195	0.21359	0.19018	0.1274	0.25473	0.31086	0.23209	0.040353	0.072678	0.199	0.1908	0.10366	0.25292	0.044147	0.15323	-2.6792	-2.95	-3.3854	-3.2438	-3.3771	-3.4167	-3.0417	-3.6208	-3.1667	-3.2104	-3.6396	-3.0083	-3.3125	-3.4708	-2.9625	-3.5604	322.587	216.904	228.193	276.204	72.631	-9.370	271.785	288.249	180.752	246.340	-13.757	255.032	304.362	9.268	238.285	237.604	0.00069731	0.00065517	0.00013681	1390.2	3.9118e-06	4.9598e-06	1388.8	378.15	1.287e-05	9.3705e-06	423.83	145.28	125.73	43.397	3.8755e-06	53.089	0.00078881	0.00080733	0.00022485	1425.1	8.7702e-06	8.743e-06	1423.2	389.14	8.7067e-06	8.8262e-06	439.63	150.6	129.94	45.093	8.5856e-06	55.259	323.896	71.424	152.633	-10.900	151.506	94.862	-10.799	-6.307	146.289	107.143	-6.684	-2.659	-2.091	2.635	137.672	1.718	-8191	255	
679.453	1	1	0	0	0.14155	0.25444	0.036529	0.2631	0.16209	0.10985	0.2613	0.18034	0.055478	0.29439	0.089265	0.20051	0.039717	0.17695	0.12918	0.23258	-2.8979	-3.025	-3.4271	-3.0083	-3.3438	-3.5312	-3.15	-3.55	-3.2583	-3.1771	-3.5917	-3.1417	-3.3542	-3.4042	-2.9125	-3.2938	220.248	14.805	222.925	295.689	-8.146	121.696	294.572	281.348	264.142	78.607	159.979	317.487	313.718	96.645	-21.427	306.840	0.00061163	0.00062331	0.00011445	1388.5	5.9117e-06	5.7929e-06	1386.6	377.44	1.0269e-05	3.2084e-06	426.48	145.67	125.5	43.275	7.9435e-06	53.039	0.00076723	0.00078955	0.00022001	1425.1	8.6699e-06	8.7574e-06	1421.7	389.17	8.5748e-06	8.8397e-06	440.68	150.67	129.64	45.063	8.8812e-06	55.281	320.130	76.122	24.796	-10.695	120.737	144.232	-10.747	-6.162	182.673	142.054	-7.016	-2.778	-2.238	2.627	124.401	1.819	-8191	255	
679.550	1	1	0	0	0.19454	0.048999	0.063069	0.10516	0.30484	0.18689	0.20291	0.12951	0.082828	0.2272	0.15383	0.16202	0.30051	0.087408	0.16321	0.19125	-2.9646	-3.0292	-3.4313	-3.3146	-3.1813	-3.4521	-3.3021	-3.4813	-3.4458	-3.0958	-3.6542	-3.0125	-3.2083	-3.5208	-3.0312	-3.1646	274.523	280.057	22.787	-0.304	16.534	-18.470	270.931	297.734	-17.855	3.824	57.942	81.270	267.131	92.675	325.818	-10.975	0.00078629	0.00065763	0.00016829	1392.3	6.6368e-06	1.1243e-05	1387.8	378.05	3.5994e-06	8.9245e-06	425.1	145.5	125.58	43.186	5.7884e-06	53.13	0.00079824	0.00082068	0.00022861	1426.1	9.0789e-06	9.3395e-06	1421.9	389.37	9.1671e-06	9.4786e-06	440.24	150.91	129.92	45.135	9.6138e-06	55.398	305.043	77.405	80.961	-11.008	96.086	142.319	-10.800	-6.232	147.469	135.497	-6.808	-2.752	-2.108	2.787	159.180	1.856	-8191	255	
679.646	1	1	0	0	0.15452	0.10578	0.29526	0.21183	0.23008	0.13084	0.26339	0.23338	0.19274	0.12263	0.10241	0.12569	0.1089	0.2625	0.18649	0.171	-2.9583	-2.9333	-3.4667	-3.3333	-3.0896	-3.6375	-3.3771	-3.3854	-3.4708	-3.0667	-3.575	-3.3354	-2.9062	-3.425	-3.0208	-3.3021	191.077	-5.649	253.827	301.064	155.245	201.173	250.708	274.717	246.277	77.165	-1.715	309.524	298.820	283.172	17.741	306.075	0.00079759	0.00086663	0.00011284	1396	7.0014e-06	5.1665e-06	1391.5	379.95	4.8753e-06	8.3037e-06	427.25	146.49	126.15	43.323	8.8865e-06	53.399	0.00086568	0.0009034	0.00025244	1434.9	9.8992e-06	1.0011e-05	1429.7	391.79	9.8827e-06	1.0099e-05	442.79	151.36	130.74	45.251	9.9732e-06	55.649	309.600	60.520	79.142	-10.981	153.528	186.125	-10.979	-6.038	169.302	92.998	-6.864	-2.468	-2.034	2.639	169.291	1.497	-8191	255	
679.766	1	1	0	0	0.08208	0.14757	0.14344	0.078236	0.052869	0.19791	0.14462	0.27784	0.23056	0.0097684	0.121	0.071394	0.30966	0.071547	0.025657	0.10749	-3.0479	-3.0292	-3.3146	-3.3979	-2.95	-3.4104	-3.2313	-3.2229	-3.4688	-2.9417	-3.4458	-3.3396	-3.1208	-3.425	-3.1333	-3.0458	172.326	220.651	30.838	163.362	145.641	121.788	187.787	11.176	325.803	188.925	293.955	38.545	215.134	243.133	189.107	-12.218	0.00066345	0.00049009	0.00021613	1398.4	7.1111e-06	8.3795e-06	1398.6	379.6	7.6875e-06	4.835e-06	427.67	145.46	125.88	43.217	6.7395e-06	53.263	0.00087942	0.00090251	0.00024874	1437.9	9.7846e-06	9.6827e-06	1434.3	391.83	9.627e-06	9.802e-06	442.31	151.16	130.51	45.232	9.6748e-06	55.586	314.194	111.231	70.209	-10.834	158.978	130.464	-10.865	-6.287	172.651	129.522	-6.647	-2.674	-2.052	2.584	112.150	1.819	-8191	255	
679.863	1	1	0	0	0.098717	0.24889	0.092399	0.16789	0.17145	0.26535	0.43349	0.23925	0.15211	0.11217	0.10745	0.18938	0.26477	0.11514	0.1109	0.23961	-3.1479	-3.0646	-3.3271	-3.475	-2.9396	-3.4313	-3.2146	-3.3229	-3.6417	-3.2521	-3.4521	-3.5271	-3.0354	-3.4458	-3.125	-2.9854	118.864	71.667	0.417	273.777	264.889	260.458	-17.223	267.047	42.708	8.331	49.168	3.403	-9.094	84.579	335.578	292.769	0.00080683	0.00045005	0.00011811	1404	7.5109e-06	7.4552e-06	1398.9	381.69	5.6468e-06	7.3944e-06	426.46	146.12	126.16	43.343	9.8658e-06	53.341	0.00085935	0.00089511	0.00025037	1441	9.7226e-06	9.8752e-06	1434.4	392.51	9.7479e-06	9.8149e-06	442.39	151.33	130.79	45.306	9.7554e-06	55.587	313.727	-6.350	76.808	-10.784	133.467	155.173	-10.898	-6.202	222.410	114.172	-6.750	-2.596	-1.998	2.553	98.843	1.882	-8191	255	
679.934	1	1	0	0	0.2919	0.095803	0.017862	0.17931	0.20498	0.047343	0.14097	0.10811	0.10173	0.29184	0.15022	0.073416	0.17831	0.05791	0.29276	0.18085	-3.1375	-2.9708	-3.225	-3.45	-3.0167	-3.4208	-3.3792	-3.2896	-3.4479	-3.1979	-3.4125	-3.5271	-3.0583	-3.5167	-3.3187	-3.175	110.535	155.930	116.792	-2.597	100.598	177.402	246.873	251.036	152.135	64.841	197.704	164.692	307.823	316.004	9.936	201.721	0.00081233	0.00030023	0.00019855	1403.2	2.634e-06	2.6305e-06	1399.6	380.15	1.284e-06	5.0596e-06	428.16	146.45	126.15	43.488	7.9452e-06	53.25	0.00085913	0.00089933	0.00024895	1442.6	9.8075e-06	9.7692e-06	1436.4	392.4	9.6574e-06	9.82e-06	443.11	151.54	130.7	45.386	9.7457e-06	55.583	320.862	94.727	127.013	-10.873	168.538	184.593	-10.923	-6.279	143.933	89.154	-6.876	-2.497	-1.899	2.743	113.105	1.478	-8191	255	
680.055	1	1	0	0	0.070229	0.15918	0.29165	0.10765	0.18778	0.15375	0.28686	0.33471	0.10251	0.12413	0.2215	0.11202	0.066423	0.40611	0.1636	0.11808	-3.1167	-2.9042	-3.1667	-3.5812	-2.9604	-3.3854	-3.3688	-3.0604	-3.3333	-3.2167	-3.2062	-3.4792	-3.0333	-3.4938	-3.3187	-3.0833	65.674	79.268	67.197	333.467	116.162	187.704	212.808	308.389	0.112	146.086	280.591	46.005	-17.227	302.170	240.583	199.750	0.00078587	0.00069589	6.8103e-05	1410.6	2.3111e-06	4.499e-06	1402.6	380.67	1.2824e-05	3.1248e-06	428.73	146.58	125.9	43.259	9.4372e-06	53.303	0.00086286	0.00089845	0.00025281	1447.1	9.9112e-06	9.9269e-06	1440.7	392.87	9.7639e-06	9.9472e-06	443.23	151.6	130.78	45.288	9.6242e-06	55.649	321.827	59.846	59.717	-10.858	155.358	120.990	-10.964	-6.031	202.502	122.309	-6.883	-2.603	-1.987	2.805	118.621	1.854	-8191	255	
680.149	1	1	0	0	0.11309	0.24554	0.14021	0.22697	0.25928	0.2226	0.01799	0.23428	0.075522	0.123	0.1503	0.17656	0.20427	0.20304	0.07621	0.15427	-3.0708	-3.0708	-2.9917	-3.5833	-2.9625	-3.3833	-3.5375	-3.2375	-3.3667	-3.2687	-3.1	-3.5354	-2.95	-3.3937	-3.4354	-2.9333	107.737	288.230	41.710	314.487	85.517	237.553	14.247	3.479	163.070	226.536	-19.962	-0.268	187.134	35.717	-8.141	0.154	0.00060896	0.00089655	0.00016395	1404.4	1.5761e-06	3.4766e-06	1404.2	381.94	7.4485e-06	4.3465e-06	428.85	145.77	126.08	43.388	4.3654e-06	53.278	0.00085522	0.00089244	0.00024895	1447	9.6895e-06	9.7057e-06	1439.1	393.01	9.596e-06	9.9559e-06	444.16	151.63	130.69	45.349	9.882e-06	55.645	320.298	40.210	68.492	-10.904	177.149	78.600	-11.128	-6.186	177.916	139.524	-6.880	-2.778	-2.125	2.552	126.563	1.826	-8191	255	
680.245	1	1	0	0	0.13837	0.018363	0.22172	0.24764	0.13611	0.014858	0.15371	0.021629	0.1306	0.15394	0.049232	0.12906	0.19807	0.23994	0.30018	0.24668	-3.0792	-3.15	-3.0083	-3.7438	-3.0125	-3.2938	-3.5875	-3.1312	-3.3896	-3.1458	-3.1021	-3.5979	-3.2479	-3.3917	-3.5521	-2.9375	49.396	106.355	141.471	288.776	90.140	151.195	288.571	258.977	313.608	325.894	1.571	306.615	324.009	-18.481	308.182	321.655	0.0007609	0.00043626	0.00012	1410.4	3.4573e-06	7.894e-06	1406	381.91	7.3997e-06	3.0833e-06	427.25	146.65	126.26	43.417	1.1944e-06	52.919	0.00086743	0.00090747	0.00025701	1449.1	9.8734e-06	1.0019e-05	1443.1	393.84	9.8796e-06	1.001e-05	443.81	151.81	130.81	45.421	9.7942e-06	55.532	318.427	71.735	81.196	-10.900	166.781	137.230	-11.070	-6.083	209.538	109.662	-6.638	-2.532	-2.076	2.425	334.057	1.650	-8191	255	
680.342	1	1	0	0	0.20079	0.17451	0.24564	0.064913	0.11347	0.079736	0.27997	0.13046	0.098251	0.09824	0.14889	0.26163	0.092645	0.31217	0.11458	0.18009	-3.0229	-3.3146	-2.8583	-3.5625	-3.1896	-3.1437	-3.7938	-3.1312	-3.2479	-3.2938	-3.0438	-3.4771	-3.2354	-3.0583	-3.4896	-3.0271	209.130	116.892	138.899	-3.834	307.194	98.968	263.058	234.821	268.506	304.418	252.274	331.167	311.043	268.889	276.366	216.792	0.00072668	0.000753	0.00014594	1412.9	6.2164e-06	9.8232e-06	1406.3	381.03	9.8383e-06	1.1117e-05	429.72	146.32	126.33	43.384	2.6296e-06	52.968	0.00086997	0.00089855	0.00025494	1450.1	9.8943e-06	1.0119e-05	1443.3	393.21	9.877e-06	1.0208e-05	444.25	151.85	130.97	45.373	9.8891e-06	55.543	317.642	96.576	61.770	-10.849	149.378	131.072	-10.898	-6.293	170.155	77.338	-6.861	-2.468	-1.965	2.808	121.410	1.670	-8191	255	
680.462	1	1	0	0	0.089925	0.33955	0.24256	0.16488	0.18461	0.15119	0.12402	0.12932	0.14741	0.2005	0.11066	0.35009	0.13903	0.44711	0.20957	0.11832	-2.7854	-3.2917	-2.8104	-3.5104	-3.2604	-3.2104	-3.5979	-3.1042	-3.0167	-3.4	-3.1146	-3.5458	-3.3917	-3.1708	-3.5208	-3.0708	81.327	247.913	109.254	273.757	245.966	307.282	236.194	297.929	163.438	99.557	113.040	300.355	315.735	329.273	105.577	61.178	0.0006253	0.00044491	0.00023473	1411	5.2826e-06	8.5993e-06	1406.2	381.18	1.2583e-05	7.361e-06	427.76	146.35	126.91	43.573	1.1455e-05	53.268	0.00087	0.00090078	0.0002516	1451	9.8438e-06	9.8826e-06	1444.7	394	9.7653e-06	9.9436e-06	444.25	152.08	131.18	45.45	9.9661e-06	55.666	323.790	101.686	55.630	-10.934	75.451	142.197	-11.052	-6.440	157.176	99.190	-6.913	-2.682	-2.180	2.231	125.608	1.695	-8191	255	
680.534	1	1	0	0	0.15286	0.1887	0.033626	0.19494	0.15275	0.15701	0.21066	0.3223	0.17734	0.099073	0.10521	0.14266	0.19853	0.18215	0.1919	0.11786	-2.8812	-3.3583	-2.8208	-3.4833	-3.3417	-3.0042	-3.7083	-3.0417	-3.1271	-3.4333	-2.9979	-3.3521	-3.4167	-2.9021	-3.5875	-3.0271	13.820	226.740	275.999	278.888	87.600	24.526	286.355	282.712	224.380	7.121	157.090	260.854	-7.137	13.237	11.943	29.681	0.00091662	0.00029072	0.00013865	1412.8	6.7814e-06	7.5669e-06	1406.4	380.98	5.9512e-06	6.7342e-06	428.4	146.53	126.53	43.496	7.1535e-06	52.978	0.0008834	0.00091594	0.00025247	1453.8	9.8653e-06	1.0196e-05	1444.6	393.58	9.7012e-06	1.0037e-05	444.41	151.99	130.96	45.452	9.9839e-06	55.572	312.319	123.172	90.335	-10.919	109.099	148.952	-10.915	-6.129	119.570	114.562	-6.884	-2.693	-2.181	2.661	98.432	1.502	-8191	255	
680.630	1	1	0	0	0.13525	0.19456	0.065347	0.24881	0.19011	0.068978	0.17623	0.31782	0.31555	0.18214	0.32425	0.31633	0.070008	0.047978	0.17389	0.12667	-2.7438	-3.5625	-2.9979	-3.3979	-3.3	-3.0458	-3.5125	-3.1583	-3.1625	-3.3771	-3.1271	-3.3438	-3.5271	-3.0333	-3.3688	-3.1458	163.773	291.573	3.426	267.635	157.294	66.879	-18.972	245.126	233.724	170.618	218.677	309.435	28.350	11.724	24.915	22.195	0.00071204	0.00077322	0.00010063	1408.2	4.7954e-06	5.6122e-06	1408.7	382	5.6058e-06	8.0582e-06	427.87	146.45	126.36	43.742	7.6992e-06	53.183	0.00088841	0.00091279	0.00025504	1450.9	9.9622e-06	9.9022e-06	1443.2	394.05	9.7899e-06	1.002e-05	444.19	151.94	131.1	45.5	9.8e-06	55.634	328.873	42.819	115.353	-10.874	161.080	133.821	-10.927	-6.414	164.184	103.164	-6.869	-2.607	-2.154	2.588	115.253	1.626	-8191	255	
680.726	1	1	0	0	0.026604	0.099869	0.076716	0.17152	0.12755	0.18595	0.060476	0.21672	0.19455	0.29663	0.20469	0.17826	0.23122	0.10549	0.19485	0.12433	-2.5604	-3.3521	-3.0187	-3.5021	-3.4625	-2.9062	-3.4979	-3.4729	-3.1229	-3.5792	-3.2292	-3.2521	-3.4583	-3.1813	-3.1979	-3.4417	57.717	133.991	72.010	279.099	122.015	163.705	332.613	308.099	118.065	68.555	36.913	-22.855	21.487	312.473	5.650	-18.122	0.00067952	0.00041721	0.00011865	1415.4	1.7039e-06	6.0049e-06	1405.3	382.61	1.417e-05	8.0638e-06	429.66	146.45	126.72	43.402	7.0309e-06	53.098	0.00086934	0.00091628	0.00025581	1453.7	9.9338e-06	1.0069e-05	1446	394.18	9.8349e-06	9.975e-06	444.62	151.83	131.29	45.377	9.8287e-06	55.601	321.805	131.303	27.804	-11.002	-0.191	145.788	-10.918	-6.247	164.326	93.000	-6.800	-2.493	-2.221	2.485	125.590	1.538	-8191	255	
680.847	1	1	0	0	0.12159	0.085152	0.099706	0.23797	0.076593	0.014397	0.13436	0.26466	0.28431	0.26404	0.089761	0.097472	0.16652	0.054181	0.048565	0.30379	-2.75	-3.5354	-3.0354	-3.3708	-3.6125	-3.0625	-3.3812	-3.4313	-2.9167	-3.5812	-3.3271	-3.2146	-3.5104	-3.0187	-3.3479	-3.3937	187.614	252.024	16.794	285.495	224.558	199.834	267.387	267.479	-23.439	319.751	0.001	302.340	306.040	219.196	212.855	-22.988	0.00078157	0.0004705	0.00011628	1415.7	1.7905e-06	8.6674e-06	1408.4	381.07	5.6598e-06	9.3809e-06	428.98	146.7	126.4	43.537	6.0794e-06	53.298	0.00088391	0.00091021	0.00025556	1453.7	1.0007e-05	1.0141e-05	1446.6	393.91	9.8939e-06	1.0023e-05	444.55	151.98	131.2	45.507	9.9467e-06	55.597	329.864	90.165	6.451	-10.786	103.740	143.951	-10.959	-6.200	147.798	61.692	-6.748	-2.517	-2.230	2.603	126.398	1.859	-8191	255	
680.941	1	1	0	0	0.083873	0.06292	0.076553	0.076512	0.29574	0.10324	0.23909	0.07911	0.1527	0.18257	0.17303	0.1376	0.025271	0.17188	0.24306	0.12665	-2.5229	-3.5479	-2.9792	-3.2708	-3.5292	-2.9896	-3.5708	-3.4188	-3.0458	-3.5312	-3.2	-3.1271	-3.5417	-2.9646	-3.3	-3.45	262.173	-12.703	66.856	-16.092	46.986	-17.142	254.323	53.920	142.493	250.758	-8.794	17.196	326.029	-20.408	133.936	307.332	0.00082063	0.00033008	0.00018606	1421.2	3.3944e-06	6.325e-06	1416.3	382.83	1.1414e-05	6.4297e-06	428.56	147.2	127.29	43.568	5.6955e-06	53.359	0.00089147	0.00091703	0.00025573	1456	9.9815e-06	9.9306e-06	1448	394.69	9.837e-06	9.8416e-06	444.07	152.02	131.41	45.476	9.7915e-06	55.579	319.653	45.860	119.757	-10.848	46.062	116.022	-10.908	-6.134	135.219	122.825	-6.925	-2.766	-2.079	2.566	176.286	1.528	-8191	255	
681.037	1	1	0	0	0.2015	0.14444	0.1038	0.16394	0.10293	0.43688	0.10299	0.095008	0.23405	0.11123	0.22407	0.16266	0.11381	0.026056	0.13964	0.10901	-2.675	-3.3417	-3.3167	-3.2062	-3.5521	-3.1417	-3.6188	-3.5458	-2.9292	-3.3229	-3.1958	-3.1063	-3.6125	-3.225	-3.2562	-3.7062	152.902	29.522	29.681	285.966	113.807	222.385	257.871	134.766	145.559	284.412	297.939	297.276	237.171	92.893	132.814	-6.656	0.00085919	0.00039236	0.00015966	1419.1	3.8062e-06	5.5049e-06	1406.8	383.71	1.0634e-05	5.5379e-06	429.08	146.8	126.58	43.382	5.506e-06	53.23	0.00087785	0.00089865	0.00025494	1455.6	9.8777e-06	1e-05	1445.5	394.44	9.889e-06	1.001e-05	444.6	152.06	131.04	45.424	9.8989e-06	55.666	296.299	70.907	60.255	-10.837	160.628	146.281	-11.053	-6.275	151.327	156.588	-6.734	-2.664	-2.083	2.471	73.845	1.816	-8191	255	
#DATA ENDS
