BOXY.EXE: ISS Imagent and Oximeter Data Acquisition Program Version 0.80
Ascii Record File

#ACQ INFORMATION
2  Detector Channels 
16  External MUX Channels 
1  Auxiliary Channels 
5000  Waveform (CCF) Frequency (Hz)
1  Waveforms Skipped 
30  Waveforms Averaged 
1  Cycles Averaged 
16  Acquisitions per Waveform 
10.0806  Updata Rate (Hz) 

#FILE INFORMATION
TRUE -- External MUX Channel results are PARSED.
FALSE -- AC DC and Phase are NOT grouped.
TRUE -- Companion Program Settings File CREATED.
FALSE -- AC data not excluded
FALSE -- DC data not excluded
FALSE -- Phase data not excluded
FALSE -- Auxillary Chn. data not excluded
Tab delimiters

#CALIBRATION STATE
TRUE -- Waveform Calibration Values APPLIED.


#AUX CALIBRATION VALUES
Val Type	aux-1	

Term	1.0000e+00	
Factor	0.0000e+00	


#WF CALIBRATION VALUES
A = Detector Channel
Val Type	A-AC1	A-AC2	A-AC3	A-AC4	A-AC5	A-AC6	A-AC7	A-AC8	A-AC9	A-AC10	A-AC11	A-AC12	A-AC13	A-AC14	A-AC15	A-AC16	A-DC1	A-DC2	A-DC3	A-DC4	A-DC5	A-DC6	A-DC7	A-DC8	A-DC9	A-DC10	A-DC11	A-DC12	A-DC13	A-DC14	A-DC15	A-DC16	A-Ph1	A-Ph2	A-Ph3	A-Ph4	A-Ph5	A-Ph6	A-Ph7	A-Ph8	A-Ph9	A-Ph10	A-Ph11	A-Ph12	A-Ph13	A-Ph14	A-Ph15	A-Ph16	

Term	0.00000e+00	0.00000e+00	0.00000e+00	0.00000e+00	0.00000e+00	0.00000e+00	0.00000e+00	0.00000e+00	0.00000e+00	0.00000e+00	0.00000e+00	0.00000e+00	0.00000e+00	0.00000e+00	0.00000e+00	0.00000e+00	0.00000e+00	0.00000e+00	0.00000e+00	0.00000e+00	0.00000e+00	0.00000e+00	0.00000e+00	0.00000e+00	0.00000e+00	0.00000e+00	0.00000e+00	0.00000e+00	0.00000e+00	0.00000e+00	0.00000e+00	0.00000e+00	0.00000e+00	0.00000e+00	0.00000e+00	0.00000e+00	0.00000e+00	0.00000e+00	0.00000e+00	0.00000e+00	0.00000e+00	0.00000e+00	0.00000e+00	0.00000e+00	0.00000e+00	0.00000e+00	0.00000e+00	0.00000e+00	
Factor	1.00000e+00	1.00000e+00	1.00000e+00	1.00000e+00	1.00000e+00	1.00000e+00	1.00000e+00	1.00000e+00	1.00000e+00	1.00000e+00	1.00000e+00	1.00000e+00	1.00000e+00	1.00000e+00	1.00000e+00	1.00000e+00	1.00000e+00	1.00000e+00	1.00000e+00	1.00000e+00	1.00000e+00	1.00000e+00	1.00000e+00	1.00000e+00	1.00000e+00	1.00000e+00	1.00000e+00	1.00000e+00	1.00000e+00	1.00000e+00	1.00000e+00	1.00000e+00	X	X	X	X	X	X	X	X	X	X	X	X	X	X	X	X	

B = Detector Channel
Val Type	B-AC1	B-AC2	B-AC3	B-AC4	B-AC5	B-AC6	B-AC7	B-AC8	B-AC9	B-AC10	B-AC11	B-AC12	B-AC13	B-AC14	B-AC15	B-AC16	B-DC1	B-DC2	B-DC3	B-DC4	B-DC5	B-DC6	B-DC7	B-DC8	B-DC9	B-DC10	B-DC11	B-DC12	B-DC13	B-DC14	B-DC15	B-DC16	B-Ph1	B-Ph2	B-Ph3	B-Ph4	B-Ph5	B-Ph6	B-Ph7	B-Ph8	B-Ph9	B-Ph10	B-Ph11	B-Ph12	B-Ph13	B-Ph14	B-Ph15	B-Ph16	

Term	0.00000e+00	0.00000e+00	0.00000e+00	0.00000e+00	0.00000e+00	0.00000e+00	0.00000e+00	0.00000e+00	0.00000e+00	0.00000e+00	0.00000e+00	0.00000e+00	0.00000e+00	0.00000e+00	0.00000e+00	0.00000e+00	0.00000e+00	0.00000e+00	0.00000e+00	0.00000e+00	0.00000e+00	0.00000e+00	0.00000e+00	0.00000e+00	0.00000e+00	0.00000e+00	0.00000e+00	0.00000e+00	0.00000e+00	0.00000e+00	0.00000e+00	0.00000e+00	4.69284e+01	-1.27582e+02	-1.30931e+02	-1.83936e+02	-7.62020e+01	-6.69807e+01	-1.56989e+02	-1.62015e+02	-5.22494e+01	-7.94096e+01	-1.78987e+02	-1.72875e+02	-1.82137e+02	-1.78866e+02	-7.23244e+01	-1.51154e+02	
Factor	6.73214e-05	1.82383e-04	5.06034e-05	1.89429e-01	1.93940e-06	2.29934e-06	1.72175e-01	6.05181e-02	3.16237e-06	2.20276e-06	1.07814e-01	3.31898e-02	2.86066e-02	1.08537e-02	2.29806e-06	1.49911e-02	5.72136e-06	6.42153e-06	1.79335e-06	9.47223e-02	6.88599e-08	7.09668e-08	8.12099e-02	3.03370e-02	6.85387e-08	7.09561e-08	5.23066e-02	1.61085e-02	1.44478e-02	5.47581e-03	6.95704e-08	7.34234e-03	X	X	X	X	X	X	X	X	X	X	X	X	X	X	X	X	



#DISTANCE SETTINGS
A = Detector Channel
A-1	A-2	A-3	A-4	A-5	A-6	A-7	A-8	A-9	A-10	A-11	A-12	A-13	A-14	A-15	A-16	

2.5000e+00	3.0000e+00	2.5000e+00	3.0000e+00	2.0000e+00	3.0000e+00	1.5000e+00	3.0000e+00	3.0000e+00	3.0000e+00	3.0000e+00	3.0000e+00	3.0000e+00	3.0000e+00	1.5000e+00	3.0000e+00	

B = Detector Channel
B-1	B-2	B-3	B-4	B-5	B-6	B-7	B-8	B-9	B-10	B-11	B-12	B-13	B-14	B-15	B-16	

1.0000e+01	1.0000e+01	1.0000e+01	1.4400e+00	1.0000e+01	1.0000e+01	1.5100e+00	1.9400e+00	1.0000e+01	1.0000e+01	1.9900e+00	2.4900e+00	2.4100e+00	2.9000e+00	1.0000e+01	2.9800e+00	




#DATA BEGINS
time	group	step	mark	flag	A-AC1	A-AC2	A-AC3	A-AC4	A-AC5	A-AC6	A-AC7	A-AC8	A-AC9	A-AC10	A-AC11	A-AC12	A-AC13	A-AC14	A-AC15	A-AC16	A-DC1	A-DC2	A-DC3	A-DC4	A-DC5	A-DC6	A-DC7	A-DC8	A-DC9	A-DC10	A-DC11	A-DC12	A-DC13	A-DC14	A-DC15	A-DC16	A-Ph1	A-Ph2	A-Ph3	A-Ph4	A-Ph5	A-Ph6	A-Ph7	A-Ph8	A-Ph9	A-Ph10	A-Ph11	A-Ph12	A-Ph13	A-Ph14	A-Ph15	A-Ph16	B-AC1	B-AC2	B-AC3	B-AC4	B-AC5	B-AC6	B-AC7	B-AC8	B-AC9	B-AC10	B-AC11	B-AC12	B-AC13	B-AC14	B-AC15	B-AC16	B-DC1	B-DC2	B-DC3	B-DC4	B-DC5	B-DC6	B-DC7	B-DC8	B-DC9	B-DC10	B-DC11	B-DC12	B-DC13	B-DC14	B-DC15	B-DC16	B-Ph1	B-Ph2	B-Ph3	B-Ph4	B-Ph5	B-Ph6	B-Ph7	B-Ph8	B-Ph9	B-Ph10	B-Ph11	B-Ph12	B-Ph13	B-Ph14	B-Ph15	B-Ph16	aux-1	digaux	

2638.938	1	1	0	768	0.089335	0.23892	0.25101	0.24534	0.066895	0.091794	0.18889	0.24264	0.11113	0.11877	0.31877	0.24147	0.14799	0.16358	0.096274	0.28397	-2.9167	-3.0542	-3.5563	-3.2542	-3.1792	-3.5604	-3.1229	-3.6042	-3.4604	-3.1708	-3.6042	-3.3708	-3.1458	-3.6375	-3.0083	-3.625	190.621	26.526	254.512	200.402	254.425	50.984	180.479	239.412	227.317	-28.444	145.306	190.611	230.200	233.334	114.592	248.066	0.00038681	0.00034852	0.00016682	752.82	3.8875e-05	4.2177e-06	678.2	271.46	7.8135e-06	3.1797e-05	225.11	99.05	125.75	62.805	2.6804e-05	49.884	0.00012297	9.4463e-05	2.1427e-05	708.34	2.1459e-05	7.8847e-07	637.99	256.85	9.1813e-07	1.3786e-05	212.7	93.594	119.34	60.069	1.4079e-06	49.556	-2.970	20.607	2.258	-65.151	16.183	68.178	-67.616	-59.634	103.853	117.850	-63.908	-60.547	-56.911	-52.116	-28.194	-57.784	-8191	255	
2639.034	1	1	0	0	0.14954	0.08834	0.24238	0.083233	0.16549	0.24804	0.096235	0.21844	0.078836	0.1796	0.18237	0.13797	0.14545	0.32651	0.086112	0.1116	-2.9229	-3.0146	-3.4396	-3.3875	-3.1604	-3.4875	-3.1229	-3.6188	-3.4208	-2.9833	-3.7375	-3.2729	-3.2792	-3.6979	-3.1125	-3.5	218.708	201.819	183.489	226.365	-51.107	108.346	170.885	171.908	151.356	240.912	240.468	192.432	207.640	256.245	76.582	-32.490	0.00044687	0.0003475	0.00012951	743.51	3.2845e-05	3.6753e-06	668.86	267.07	5.8775e-06	4.9079e-05	221.55	97.989	125.06	62.816	2.9206e-06	50.278	0.00012128	8.5754e-05	2.0676e-05	702.22	1.3219e-05	7.6082e-07	629.84	252.98	9.3284e-07	2.1063e-05	209.48	92.409	118.7	59.905	9.608e-07	48.883	-9.004	25.439	14.868	-65.500	17.000	78.843	-67.286	-60.057	99.721	136.926	-63.707	-60.708	-57.207	-52.090	82.047	-57.448	-8191	255	
2639.130	1	1	0	0	0.10066	0.29937	0.10244	0.20564	0.040575	0.14127	0.16194	0.17582	0.1997	0.17911	0.046945	0.1535	0.17382	0.15963	0.17646	0.14406	-3.1292	-3.0542	-3.3125	-3.2708	-3.1208	-3.5896	-3.2562	-3.3729	-3.5229	-3.1042	-3.4792	-3.3875	-3.2042	-3.7438	-3.0854	-3.2333	-63.179	205.698	85.667	45.465	-13.027	136.492	225.937	234.059	129.668	269.467	111.818	218.708	281.386	225.434	211.399	152.411	0.00041989	0.00053061	0.00010746	749.49	5.6161e-05	6.135e-06	668.49	266.58	5.7761e-06	1.9839e-05	221.76	98.9	125.93	63.124	4.7979e-06	50.197	0.0001226	8.7279e-05	2.0922e-05	702.52	2.102e-05	8.1834e-07	630.8	253.47	8.92e-07	8.0322e-06	213.25	93.273	119.07	60.187	9.7181e-07	50.035	-11.880	12.758	14.209	-65.214	29.450	87.411	-67.247	-60.025	74.381	77.199	-63.139	-60.427	-57.291	-52.303	75.802	-57.741	-8191	255	
2639.226	1	1	0	0	0.098068	0.3443	0.12344	0.042779	0.063108	0.29953	0.066971	0.29927	0.017317	0.076162	0.17864	0.13309	0.20536	0.11491	0.32065	0.19251	-2.8688	-2.8896	-3.3604	-3.5229	-3.0625	-3.5708	-3.2583	-3.3625	-3.5	-3.0646	-3.6333	-3.5271	-3.1729	-3.5521	-3.0667	-3.2562	248.145	-74.641	35.609	185.812	-55.937	134.291	78.773	194.125	26.017	11.429	155.836	96.899	192.816	228.430	57.949	176.482	0.00043444	0.00041453	0.00011387	747.02	2.66e-05	5.3211e-06	673.14	269.1	6.5612e-06	3.5422e-06	224.64	99.213	126.18	63.135	3.9935e-06	51.066	0.00012613	7.7754e-05	2.3631e-05	704.27	1.2779e-05	8.4155e-07	634.61	255.82	9.3484e-07	7.579e-07	226.68	93.926	119.76	60.435	9.4022e-07	49.676	-4.345	3.221	14.433	-65.206	44.006	58.240	-67.593	-60.028	93.543	29.155	-63.868	-60.320	-56.930	-51.955	76.277	-57.609	-8191	255	
2639.322	1	1	0	0	0.29099	0.14093	0.054868	0.20154	0.20841	0.19287	0.11811	0.23013	0.038061	0.2786	0.18047	0.25317	0.21088	0.052475	0.35482	0.070859	-3.1292	-3.1104	-3.5083	-3.4938	-3.0062	-3.5833	-3.3937	-3.0208	-3.5417	-3.0958	-3.4333	-3.4583	-3.2	-3.6104	-3.2833	-3.2167	-74.914	9.728	211.134	-53.672	-15.041	-30.582	222.178	240.366	-72.909	251.586	90.474	17.259	154.033	250.292	115.337	11.722	0.00045257	0.0004434	6.7644e-05	746.52	4.5351e-05	5.592e-06	674.51	268.62	7.783e-06	4.4325e-06	220.65	98.25	124.98	62.36	3.2929e-06	50.233	0.00012208	7.6175e-05	2.4621e-05	703.91	2.1012e-05	8.3504e-07	632.83	254.23	9.0857e-07	8.1747e-07	218.42	92.84	118.58	59.763	9.5485e-07	49.691	-9.346	25.578	5.730	-65.157	35.999	80.798	-68.023	-59.964	83.872	62.956	-63.671	-60.963	-57.197	-52.356	54.140	-58.006	-8191	255	
2639.418	1	1	0	0	0.098945	0.097925	0.10778	0.10075	0.29563	0.2339	0.095442	0.21657	0.14277	0.24412	0.093164	0.032871	0.26235	0.2006	0.30835	0.17431	-3.1813	-3.3458	-3.3063	-3.5208	-3.025	-3.4625	-3.3875	-3.1625	-3.5146	-3.2458	-3.2646	-3.5292	-3.2042	-3.4667	-3.2979	-3.1729	20.793	275.675	122.826	-17.922	138.441	-28.539	199.564	180.819	72.227	-61.716	71.259	170.868	-69.076	166.004	77.943	164.610	0.00044567	0.00045486	9.1521e-05	741.3	3.4659e-05	1.1148e-05	666.93	266.32	5.831e-06	5.8642e-06	220.81	98.277	124.92	62.585	2.76e-06	50.476	0.00011832	7.8838e-05	2.405e-05	698.77	7.2449e-06	4.5159e-06	628.23	252.51	9.3441e-07	8.4689e-07	225.26	93.04	118.7	59.905	9.7384e-07	48.978	3.032	8.938	21.152	-65.283	33.448	123.717	-67.495	-59.646	108.038	55.483	-63.412	-60.600	-57.469	-52.208	80.391	-57.570	-8191	255	
2639.539	1	1	0	0	0.061747	0.21233	0.22995	0.23447	0.15325	0.20926	0.03909	0.12018	0.089914	0.15128	0.093191	0.24384	0.27748	0.29263	0.23712	0.22104	-3.2333	-3.1875	-3.2521	-3.6417	-3.1896	-3.4667	-3.5312	-3.0417	-3.5458	-3.2896	-3.2083	-3.5646	-3.1125	-3.5208	-3.4625	-3.2396	-49.282	40.125	57.996	208.298	189.016	244.635	229.702	127.243	-41.946	82.950	267.058	-21.494	120.747	258.176	107.366	241.982	0.00046276	0.00039447	0.00015095	742.96	5.8786e-06	2.2187e-05	670.41	268.06	4.9221e-06	4.1908e-06	222.47	98.585	125.67	62.872	3.2902e-06	50.462	0.00012608	7.4878e-05	2.5327e-05	701.01	9.0063e-07	1.9986e-05	631.37	254.34	9.287e-07	7.7815e-07	220.85	93.428	119.12	60.189	9.4456e-07	50.117	-6.237	-9.274	22.242	-65.060	82.197	142.294	-67.340	-60.001	66.083	48.515	-63.534	-60.751	-57.164	-52.373	37.900	-57.448	-8191	255	
2639.635	1	1	0	0	0.19552	0.12305	0.097908	0.11714	0.038783	0.13781	0.06107	0.061431	0.2436	0.26209	0.16378	0.12775	0.10983	0.087857	0.20619	0.24043	-3.2167	-3.2354	-3.0729	-3.625	-3.1667	-3.4396	-3.5604	-3.1208	-3.4188	-3.1479	-3.1729	-3.6979	-3.1604	-3.2354	-3.5875	-3.1271	180.435	22.244	191.770	269.468	8.810	121.758	146.372	160.453	-69.426	279.582	168.687	246.234	269.427	215.260	48.088	81.128	0.0004613	0.0004144	0.00010199	751.93	2.1167e-06	4.5542e-05	672.86	270.04	2.2843e-06	6.7928e-06	224.21	100.34	125.97	62.914	4.2329e-06	50.879	0.0001298	7.8771e-05	2.5264e-05	705.21	8.9288e-07	1.3744e-05	634.71	255.06	9.584e-07	8.1407e-07	229.33	94.402	119.45	60.261	9.621e-07	48.582	-6.354	17.957	23.490	-64.832	68.743	58.971	-67.718	-60.001	134.983	55.127	-63.428	-60.739	-57.274	-52.142	42.104	-57.650	-8191	255	
2639.730	1	1	0	0	0.20722	0.15525	0.089795	0.10986	0.22094	0.13013	0.12463	0.22481	0.10255	0.08551	0.18712	0.023821	0.30783	0.18957	0.16959	0.068665	-3.1188	-3.3229	-3.0792	-3.5563	-3.2146	-3.1771	-3.5896	-3.0938	-3.5104	-3.2646	-3.1042	-3.5771	-3.3042	-3.3708	-3.6333	-3.2042	12.040	61.979	-43.414	107.597	105.518	-52.692	173.478	-45.521	184.587	98.374	-73.373	268.761	257.381	-68.035	230.416	-53.678	0.0011414	0.00059162	5.7153e-05	741.04	5.0259e-06	6.0228e-05	671.11	267.15	7.4113e-06	4.0561e-06	220.93	98.389	125	62.255	3.3937e-06	50.02	0.00047988	7.6657e-05	2.5413e-05	701.23	9.1096e-07	2.2157e-05	629.72	252.76	9.7796e-07	7.7475e-07	219.14	92.603	118.4	59.593	9.221e-07	47.317	4.325	-15.333	12.786	-65.183	64.473	75.820	-67.734	-59.735	86.310	45.293	-63.471	-60.491	-57.302	-51.953	83.319	-57.314	-8191	255	
2639.827	1	1	0	0	0.16426	0.066057	0.20373	0.059234	0.18507	0.12862	0.17509	0.059991	0.084934	0.14187	0.14818	0.10432	0.1272	0.28617	0.22635	0.068106	-2.95	-3.3396	-3.0271	-3.4979	-3.3167	-3.1917	-3.5667	-3.2667	-3.2896	-3.4792	-3.0229	-3.625	-3.2771	-3.2604	-3.5229	-3.1104	145.158	109.989	-52.928	269.685	-58.333	209.475	212.393	-46.238	196.408	-40.674	159.939	253.747	246.211	253.451	-53.875	68.455	0.0013882	0.00036897	0.00011006	738.27	4.1617e-06	4.4242e-05	666.54	265.77	3.2644e-06	4.2206e-06	220.51	98.394	124.52	62.233	2.2422e-06	50.017	0.0017218	7.4035e-05	2.4939e-05	698.24	9.0895e-07	1.3245e-05	628.72	252.24	1.0658e-06	8.2605e-07	225.34	92.932	118.13	59.611	9.0717e-07	47.442	16.188	18.625	20.112	-65.334	70.181	91.747	-67.629	-60.285	52.613	51.634	-63.658	-60.672	-57.084	-52.005	102.371	-57.585	-8191	255	
2639.922	1	1	0	0	0.086936	0.072717	0.11027	0.23318	0.1817	0.17584	0.12368	0.1433	0.18075	0.07468	0.15371	0.12519	0.26065	0.11663	0.34492	0.18264	-2.9437	-3.3083	-3.0563	-3.4229	-3.3917	-3.1833	-3.6813	-2.975	-3.4167	-3.4542	-3.0438	-3.5854	-3.4521	-3.325	-3.5896	-3.3271	228.609	208.710	214.182	224.542	213.716	241.536	132.035	213.499	7.681	46.015	262.669	23.887	-64.126	217.184	151.957	238.959	0.0010855	0.00042205	0.00011476	742.49	3.4129e-06	6.9934e-05	669.85	267.63	2.565e-06	5.8761e-06	225.95	98.308	126.12	62.562	3.5906e-06	50.604	0.0011128	7.8008e-05	2.3377e-05	701.53	8.7782e-07	2.0925e-05	630.09	253.64	1.0466e-06	8.0092e-07	215.89	94.524	119.06	59.955	9.434e-07	47.857	57.262	43.628	-0.073	-64.930	66.722	90.150	-67.530	-59.802	69.802	71.161	-63.903	-60.399	-57.139	-52.082	94.302	-57.686	-8191	255	
2640.018	1	1	0	0	0.16168	0.14525	0.14206	0.24277	0.09219	0.1557	0.018305	0.19784	0.24792	0.032935	0.15726	0.12846	0.19799	0.088984	0.1251	0.076131	-2.8396	-3.3563	-3.0167	-3.5604	-3.4958	-3.0042	-3.5896	-3.325	-3.3	-3.6417	-3.2083	-3.3833	-3.6396	-3.175	-3.5833	-3.1813	-59.312	122.697	78.633	245.225	238.889	9.539	126.536	263.230	4.744	-52.263	221.147	161.518	136.344	-14.081	160.031	139.036	0.0018666	0.00044622	0.0001399	743.77	3.8254e-06	3.8282e-05	677.05	268.46	3.2166e-06	4.5498e-06	223.22	98.381	124.82	62.198	3.6203e-06	50.001	0.0017692	7.7005e-05	2.1916e-05	702.87	8.6706e-07	1.2931e-05	636.6	254.85	1.0923e-06	8.1112e-07	211.41	97.902	118.42	59.558	9.5978e-07	47.304	65.654	22.593	3.925	-65.085	82.850	99.413	-67.563	-59.794	65.919	72.680	-63.623	-60.345	-57.119	-52.168	100.082	-57.527	-8191	255	
2640.139	1	1	0	0	0.26575	0.18863	0.30342	0.15254	0.15465	0.18723	0.029407	0.033457	0.098478	0.15348	0.075909	0.12644	0.25678	0.18204	0.23206	0.10599	-2.7771	-3.5292	-2.975	-3.4271	-3.2458	-3.0896	-3.6458	-3.3104	-3.0687	-3.4354	-3.1604	-3.2958	-3.6063	-3.0563	-3.3979	-3.2896	186.396	257.520	-74.660	126.097	278.094	79.510	55.396	191.622	193.183	-43.378	-38.815	112.085	268.685	272.554	55.786	274.284	0.0010377	0.00045376	8.3051e-05	739.55	2.7076e-06	6.3322e-05	667.07	265.02	6.5848e-06	5.4526e-06	222.08	97.494	124.48	62.106	4.1199e-06	49.717	0.0011158	7.2684e-05	2.0683e-05	698.25	8.464e-07	2.1117e-05	627.3	251.16	1.0434e-06	8.126e-07	208.96	95.399	117.91	59.418	9.7268e-07	47.287	67.983	21.017	9.965	-65.219	61.556	100.909	-67.785	-59.835	97.823	63.711	-64.129	-60.435	-57.021	-52.262	54.573	-57.485	-8191	255	
2640.235	1	1	0	0	0.23335	0.14252	0.085117	0.16655	0.21386	0.20871	0.15438	0.061055	0.22628	0.2095	0.2237	0.30452	0.070315	0.27632	0.15901	0.16085	-2.7313	-3.6667	-3.1	-3.475	-3.525	-3.0563	-3.6708	-3.2771	-3.075	-3.5771	-3.1937	-3.3375	-3.6604	-3.0729	-3.3083	-3.3625	-60.412	44.948	-71.709	-68.032	239.750	260.955	3.100	133.270	-49.164	200.322	97.706	161.037	217.967	241.228	-24.082	219.488	0.0017666	0.00046545	0.00010455	741.17	3.8908e-06	3.5229e-05	665.83	265.65	4.937e-06	5.5076e-06	223.6	97.616	124.93	62.178	4.6942e-06	50.332	0.0017626	7.6777e-05	2.0859e-05	700.47	8.6304e-07	5.7944e-06	634.97	252.77	1.0719e-06	8.2442e-07	209.66	97.588	118.1	59.545	1.0496e-06	47.532	80.017	3.262	-4.889	-65.054	58.207	65.098	-67.779	-59.753	83.053	45.639	-63.658	-60.449	-56.874	-52.071	76.697	-57.562	-8191	255	
2640.331	1	1	0	0	0.014432	0.2166	0.083411	0.027841	0.069275	0.17612	0.09675	0.088253	0.17432	0.1932	0.16532	0.19555	0.18512	0.29804	0.28391	0.045513	-2.6125	-3.6979	-3.1417	-3.3208	-3.6146	-3.1	-3.3125	-3.5604	-3.0979	-3.3854	-3.225	-3.2667	-3.6188	-3.2979	-3.3042	-3.4667	-38.140	92.127	30.488	98.764	105.302	41.876	255.634	272.025	39.764	-15.294	150.648	195.360	253.214	263.874	-1.648	39.804	0.00074647	0.00047647	0.00012318	741.73	2.2987e-06	5.1995e-06	670.96	266.41	6.2362e-06	5.026e-06	224.11	99.069	124.2	62.674	5.4019e-06	50.497	0.0010953	7.7032e-05	2.211e-05	700.19	8.3708e-07	8.1597e-07	656.51	253.47	1.0484e-06	7.8569e-07	211.52	96.572	118.52	59.891	1.1341e-06	47.798	87.596	27.633	9.409	-65.153	74.415	77.701	-67.329	-60.022	68.302	39.104	-63.790	-60.752	-57.169	-52.213	91.202	-57.503	-8191	255	
2640.427	1	1	0	0	0.045871	0.070343	0.17428	0.35114	0.14473	0.25335	0.11924	0.34725	0.1256	0.09403	0.071794	0.1964	0.095522	0.15239	0.09456	0.051953	-2.7104	-3.4875	-3.0812	-3.45	-3.5625	-3.1833	-3.6937	-3.5833	-3.0229	-3.6188	-3.2	-3.0979	-3.5396	-3.3146	-3.3208	-3.4271	144.678	244.018	51.928	243.327	-38.543	118.920	171.206	194.841	-1.117	155.634	137.556	274.104	168.321	244.984	-22.560	190.592	0.0017096	0.00056505	0.00016361	745.93	3.9303e-06	3.1353e-06	670.28	266.08	7.506e-06	6.0903e-06	220.41	96.896	124.23	61.831	3.4192e-06	49.244	0.0017437	7.4824e-05	2.1374e-05	701.05	8.3894e-07	7.9202e-07	643.88	251.64	1.0748e-06	8.3906e-07	207.78	96.889	117.5	59.131	1.0936e-06	46.852	107.457	-6.150	12.020	-65.105	33.657	84.936	-67.405	-59.895	98.880	66.693	-63.496	-60.997	-57.588	-51.974	81.647	-57.319	-8191	255	
2640.499	1	1	0	0	0.1299	0.039393	0.062301	0.33319	0.093729	0.26257	0.087724	0.25545	0.22437	0.055777	0.22219	0.15237	0.14618	0.22192	0.28344	0.20606	-2.5812	-3.3417	-3.325	-3.2896	-3.6833	-3.1312	-3.3833	-3.5125	-3.1958	-3.3792	-3.2792	-3.2125	-3.5208	-3.2042	-3.2	-3.65	60.480	277.276	7.107	190.003	107.673	-74.098	170.309	-75.724	-29.218	182.841	183.156	-66.071	261.054	-67.635	195.990	-46.917	0.00068633	0.00044107	0.00010893	737.86	1.6684e-06	4.8262e-06	664.41	265.78	1.1061e-05	3.3195e-06	222.43	97.293	123.92	61.921	4.3722e-06	49.45	0.0004723	0.00059054	2.0112e-05	697.6	8.53e-07	8.4672e-07	651.23	250.91	9.1899e-07	8.769e-07	208.63	95.267	117.66	59.175	1.087e-06	46.998	110.825	-75.552	25.479	-65.502	81.453	79.733	-67.172	-59.775	95.290	46.425	-64.006	-60.393	-57.485	-52.218	101.893	-57.482	-8191	255	
2640.619	1	1	0	0	0.2184	0.11485	0.1274	0.1382	0.13053	0.069923	0.25896	0.1549	0.068317	0.28023	0.17209	0.038642	0.26636	0.11958	0.098825	0.023265	-2.7104	-3.4146	-3.2708	-3.0583	-3.2792	-3.3146	-3.2521	-3.5979	-3.1375	-3.2125	-3.4313	-3.0458	-3.6312	-3.2125	-2.9875	-3.6312	114.416	1.718	126.872	-70.904	-33.156	263.734	-50.185	216.112	231.729	-24.530	82.445	280.461	67.864	280.664	254.546	85.385	0.00041257	0.0051122	0.00016765	737.81	3.0039e-06	4.9282e-06	667.63	266.5	4.2353e-06	6.8278e-06	223.6	98.326	124.33	62.054	3.9115e-06	49.847	0.00012258	0.0019115	2.1229e-05	697.58	8.2962e-07	7.8921e-07	644.04	252.3	9.07e-07	9.9058e-07	209.67	97.217	117.72	59.342	1.0427e-06	47.373	-3.549	-41.652	-12.633	-65.090	48.711	93.179	-67.259	-60.238	60.416	81.984	-63.676	-60.782	-57.127	-52.082	57.666	-57.447	-8191	255	
2640.715	1	1	0	0	0.27733	0.11929	0.12708	0.12709	0.14686	0.1928	0.16793	0.12677	0.11528	0.17482	0.25211	0.19422	0.18784	0.25498	0.16289	0.19271	-2.6437	-3.1729	-3.3708	-3.0021	-3.5208	-3.1312	-3.1375	-3.6292	-3.0875	-3.3708	-3.4313	-3.0458	-3.625	-3.4854	-3.1354	-3.6042	168.682	104.954	166.754	-55.990	40.905	-14.139	240.279	193.643	31.617	-11.420	-35.953	256.517	111.191	279.216	152.361	-50.317	0.00044991	0.0027652	0.00013558	739.17	2.7187e-06	3.5607e-06	667.62	266.47	4.7264e-06	5.5365e-06	224.52	99.037	124.18	62.206	3.9213e-06	49.851	0.00012221	0.0011596	2.0683e-05	697.37	9.2545e-07	8.1834e-07	654.87	252.62	9.377e-07	9.9782e-07	211.23	94.287	119.42	59.551	1.0802e-06	47.335	-3.236	-38.664	6.630	-65.536	65.715	77.217	-67.401	-60.013	81.081	40.320	-63.913	-60.803	-57.293	-52.279	88.486	-57.354	-8191	255	
2640.810	1	1	0	0	0.10164	0.24704	0.081509	0.30748	0.16718	0.22676	0.26215	0.10021	0.12365	0.30149	0.11878	0.26486	0.085953	0.17558	0.3137	0.079151	-2.7375	-3.2042	-3.3667	-3.0646	-3.3708	-3.3104	-3.2521	-3.5333	-3.1208	-3.3229	-3.625	-3.1667	-3.6021	-3.5187	-3.1271	-3.5417	89.618	206.867	35.561	201.515	143.809	158.768	242.409	184.297	215.240	-59.622	190.699	36.576	277.147	254.166	37.115	211.224	0.00047333	0.0060938	0.0001241	737.02	5.8977e-06	6.7184e-06	662.18	263	3.2411e-06	4.2658e-06	219.27	97.229	122.64	61.514	3.2166e-06	49.277	0.00012254	0.0019323	1.991e-05	694.48	1.0058e-06	7.3924e-07	638.4	249.67	8.7301e-07	9.7712e-07	206.9	91.745	121.07	58.808	1.0853e-06	46.628	0.750	-27.933	4.038	-65.013	42.217	70.222	-67.201	-60.017	88.991	45.911	-63.754	-60.439	-57.141	-51.984	43.564	-57.330	-8191	255	
2640.908	1	1	0	0	0.21059	0.061199	0.18312	0.056875	0.13545	0.1317	0.27128	0.37174	0.13832	0.52093	0.22537	0.13974	0.21732	0.11496	0.17431	0.26828	-2.7792	-3.225	-3.6562	-3.2979	-3.4458	-3.5396	-3.175	-3.5333	-3.1958	-3.0646	-3.6063	-3.1937	-3.4188	-3.5354	-3.0438	-3.5917	198.040	-47.449	133.691	-68.853	-30.474	51.338	241.239	-67.186	-9.010	200.910	16.217	-69.562	268.684	-59.072	258.727	220.553	0.00042244	0.0033326	0.00012309	735.08	3.5429e-06	5.1549e-06	669.91	264	4.576e-06	5.8355e-06	220.86	97.183	122.7	61.641	3.6081e-06	49.703	0.0001154	0.0012054	1.9858e-05	694.39	1.0531e-06	7.8123e-07	649.28	250.61	8.9372e-07	9.2982e-07	208.33	91.801	119.65	58.99	9.9747e-07	47.102	-3.681	-12.916	37.668	-65.034	68.348	58.094	-67.452	-60.030	73.255	48.756	-64.050	-60.715	-57.175	-52.278	47.630	-57.385	-8191	255	
2641.027	1	1	0	0	0.14905	0.12366	0.084993	0.1819	0.058848	0.076865	0.084019	0.17147	0.1906	0.044771	0.17527	0.064769	0.30814	0.23319	0.092369	0.079413	-2.9792	-3.0604	-3.5271	-3.1792	-3.2438	-3.3021	-3.0563	-3.55	-3.225	-3.1646	-3.6021	-3.2625	-3.3	-3.5479	-3.1417	-3.4938	117.027	63.392	4.948	100.527	172.319	33.719	-12.125	214.976	-32.544	73.712	258.170	170.287	270.809	222.863	163.885	-50.351	0.00043151	0.0055511	0.00012886	739.92	1.9191e-06	4.5638e-06	667.11	264.27	4.1865e-06	6.5931e-06	219.57	98.35	123.58	61.728	2.8716e-06	49.597	0.00012562	0.0020209	2.22e-05	697.85	1.0036e-06	7.0538e-07	631.65	254.71	8.9286e-07	9.9782e-07	208.85	92.368	122.07	59.16	9.708e-07	47.214	2.328	-22.070	12.410	-65.144	-15.722	82.533	-67.660	-59.658	103.623	68.326	-64.063	-60.845	-57.321	-52.256	58.860	-57.365	-8191	255	
2641.098	1	1	0	0	0.37258	0.20749	0.12856	0.23879	0.14082	0.062944	0.31783	0.14123	0.17115	0.17292	0.22652	0.28809	0.050144	0.26278	0.18546	0.13825	-2.9583	-2.8979	-3.4979	-3.1333	-3.3458	-3.5687	-2.8896	-3.4896	-3.4333	-3.025	-3.5667	-3.2792	-3.3333	-3.5271	-3.1208	-3.3187	234.136	-70.339	-32.512	281.312	200.401	92.736	185.193	227.591	32.713	136.358	-66.646	277.108	-10.927	254.711	9.705	-5.375	0.00044147	0.0033585	0.00010635	742.42	4.2308e-06	5.4436e-06	666.87	266.88	1.0037e-05	3.311e-06	222.31	96.995	123.03	61.238	3.7375e-06	49.102	0.00012421	0.001237	2.1042e-05	700.19	1.1115e-06	7.9512e-07	631.23	262.04	9.2199e-07	9.3913e-07	208.65	91.8	119.55	58.642	9.6181e-07	46.511	-9.163	-10.635	4.336	-65.417	61.450	69.808	-67.559	-59.628	78.793	91.384	-63.943	-60.447	-57.171	-51.975	53.438	-57.738	-8191	255	
2641.219	1	1	0	0	0.13355	0.20048	0.11887	0.12349	0.085936	0.04318	0.098431	0.029912	0.2153	0.14316	0.057575	0.064307	0.24757	0.21041	0.091185	0.11971	-3.0229	-2.9625	-3.5833	-3.4458	-3.1417	-3.5271	-2.9896	-3.4	-3.3771	-3.1146	-3.675	-3.3333	-3.1813	-3.5854	-3.1708	-3.4229	79.722	170.628	69.971	248.685	204.141	147.431	249.664	1.118	152.217	230.546	174.650	-39.917	-37.126	242.359	-71.399	227.513	0.00041006	0.0058834	9.5718e-05	732.41	4.567e-06	5.2555e-06	658.24	260.6	4.2491e-06	3.3795e-06	218.38	95.73	122.46	61.324	2.5509e-06	49.122	0.00011998	0.0017205	2.3355e-05	691.05	9.7896e-07	7.5846e-07	619.55	253.95	8.3032e-07	8.7808e-07	205.57	90.763	120.64	58.503	9.392e-07	46.476	-9.390	-20.123	-16.107	-65.180	58.038	90.182	-67.642	-59.603	56.006	71.952	-64.052	-60.755	-57.133	-52.376	67.344	-57.240	-8191	255	
2641.315	1	1	0	0	0.22371	0.13521	0.14791	0.13398	0.28252	0.015596	0.33571	0.086268	0.11577	0.19967	0.19341	0.24957	0.41806	0.21749	0.021119	0.16984	-2.9833	-2.975	-3.2438	-3.3479	-3.2	-3.6312	-3.0708	-3.3937	-3.5375	-3.0771	-3.4896	-3.3688	-3.0542	-3.5604	-3.35	-3.2667	199.792	130.631	234.855	218.271	13.286	271.739	237.178	235.790	26.681	15.059	64.426	207.135	278.981	275.799	-44.621	149.966	0.00046763	0.0032846	0.00020792	735.33	4.6661e-06	5.1613e-06	664.97	264.16	4.8289e-06	5.2193e-06	219.93	97.735	123.38	61.498	3.1901e-06	49.503	0.00011747	0.00035373	0.00021591	694.18	1.0699e-06	8.2174e-07	625.49	259.56	8.5573e-07	8.2664e-07	207.58	92.157	119.52	58.835	8.9746e-07	46.933	-7.647	-14.660	71.589	-65.113	40.334	75.462	-67.515	-59.655	97.584	53.856	-64.222	-60.391	-57.113	-51.965	44.129	-57.326	-8191	255	
2641.411	1	1	0	0	0.17742	0.030186	0.26928	0.15502	0.22928	0.12675	0.16179	0.29058	0.02588	0.17168	0.050868	0.22201	0.25469	0.34187	0.028149	0.030895	-2.9875	-3.0229	-3.3667	-3.3292	-2.85	-3.4437	-3.2083	-3.4333	-3.5792	-2.9938	-3.2979	-3.5229	-2.9667	-3.8292	-3.2562	-3.2146	-0.540	-28.373	-75.554	-32.052	260.884	-68.603	226.979	221.114	85.940	198.175	165.362	-72.343	273.216	-49.840	81.723	281.513	0.00043065	0.00041303	0.0014989	736.49	4.7133e-06	6.733e-06	666.09	265.62	5.6138e-06	6.2744e-06	221.85	98.23	123.51	61.505	2.7518e-06	50.075	0.00012142	7.6202e-05	0.00054781	694.28	9.8455e-07	7.9764e-07	628.63	257.32	8.3474e-07	8.2191e-07	209.72	92.666	120.78	59.066	9.5819e-07	47.321	-4.767	12.636	4.233	-65.068	66.455	64.452	-67.520	-59.565	31.399	49.404	-63.886	-60.460	-57.318	-52.201	42.106	-57.664	-8191	255	
2641.507	1	1	0	0	0.17088	0.1735	0.15672	0.34848	0.20221	0.07313	0.16554	0.17516	0.08849	0.13029	0.08428	0.081428	0.11864	0.20981	0.12876	0.10451	-3.1188	-3.1354	-3.2771	-3.4729	-2.9354	-3.5646	-3.4042	-3.1312	-3.4229	-3.1125	-3.4042	-3.4146	-3.0479	-3.5792	-3.2625	-3.2333	14.153	220.230	3.118	219.695	-75.104	43.839	122.029	262.613	88.406	22.854	-27.592	-68.636	234.758	262.644	166.993	171.152	0.00044633	0.00042624	0.00078354	732.94	2.5599e-06	6.1046e-06	660.41	259.19	3.183e-06	5.5003e-06	217.5	96.088	122.49	60.915	2.9126e-06	48.82	0.00011771	7.7098e-05	0.00032908	693.38	9.7609e-07	8.8014e-07	622.06	256.94	9.2741e-07	7.5864e-07	205.02	90.699	116.33	58.893	8.8949e-07	46.227	-1.393	13.767	15.809	-65.069	36.608	84.554	-67.670	-59.856	110.844	53.215	-64.041	-60.576	-57.339	-52.260	85.734	-57.593	-8191	255	
2641.628	1	1	0	0	0.1367	0.14368	0.14872	0.24913	0.11801	0.11918	0.17303	0.242	0.077672	0.1047	0.27588	0.29744	0.25675	0.14309	0.12789	0.067614	-3.1729	-3.0729	-3.0417	-3.5187	-3.05	-3.3917	-3.4437	-3.2125	-3.3979	-3.1312	-3.1958	-3.3083	-2.9396	-3.425	-3.4167	-3.0104	24.997	-61.764	-48.442	-65.773	202.786	-14.385	279.604	239.512	108.420	56.991	179.985	-60.662	153.124	-47.881	38.290	55.652	0.00055457	0.00052405	0.0012914	729.47	4.9375e-06	4.0839e-06	662.1	259.6	2.9046e-06	5.7969e-06	218.68	96.928	122.54	61.262	2.1965e-06	49.113	0.0001245	7.6256e-05	0.00054051	687.62	9.0077e-07	9.1828e-07	621.26	252.99	8.7373e-07	7.7919e-07	206.16	91.204	116.18	60.139	9.2905e-07	46.588	0.483	7.396	13.830	-65.197	45.881	67.984	-67.639	-59.773	56.107	65.441	-63.711	-61.118	-56.974	-52.405	76.649	-57.297	-8191	255	
2641.722	1	1	0	0	0.32765	0.16485	0.31994	0.044245	0.2462	0.051941	0.21314	0.26769	0.10135	0.1476	0.20821	0.29989	0.38862	0.24367	0.023665	0.32315	-3.0771	-2.9313	-2.9854	-3.625	-3.0563	-3.3917	-3.5667	-3.0438	-3.3604	-3.1979	-3.1479	-3.55	-3.2667	-3.3063	-3.35	-3.2354	147.044	236.702	128.655	243.787	132.618	-21.690	-68.266	140.746	218.938	57.892	109.165	172.297	259.485	257.504	-64.911	-73.596	0.0004467	0.00040295	0.00069996	733.84	2.8351e-06	4.6886e-06	662.94	263.09	7.8519e-05	4.7185e-06	218.96	96.422	121.96	60.994	5.0163e-06	49.109	0.00012048	7.1319e-05	0.00031704	691.58	8.5946e-07	9.65e-07	624.08	255.96	2.4545e-06	7.9412e-07	207.13	91.429	115.86	59.331	9.45e-07	46.638	-4.289	20.935	12.944	-65.130	44.381	68.807	-67.445	-59.931	225.639	30.417	-64.277	-60.620	-57.015	-52.239	73.781	-57.030	-8191	255	
2641.820	1	1	0	0	0.15999	0.20511	0.027337	0.19498	0.027938	0.18011	0.12247	0.1651	0.05752	0.031594	0.41592	0.080413	0.23811	0.24213	0.21809	0.13997	-2.9729	-3.2271	-3.0375	-3.45	-3.1354	-3.275	-3.45	-3.0312	-3.4396	-3.1833	-3.2938	-3.75	-3.1458	-3.2417	-3.5312	-3.1188	-47.775	115.752	97.570	220.991	0.483	178.737	44.789	-71.539	46.978	261.425	-56.855	276.615	186.849	221.486	80.602	156.922	0.00046308	0.00057283	0.0014056	732.91	2.5087e-06	5.1882e-06	666.15	262.84	4.6568e-05	5.5268e-06	222.82	96.844	122.59	61.19	5.0776e-06	48.764	0.00013023	7.3821e-05	0.0005261	691.74	8.9231e-07	9.7165e-07	625.24	249.72	8.442e-06	8.1481e-07	208.9	91.711	116.17	59.92	9.2079e-07	46.212	-7.885	29.246	31.635	-65.047	45.598	53.716	-67.708	-59.797	241.675	51.899	-63.731	-60.497	-57.191	-52.208	62.788	-57.408	-8191	255	
2641.915	1	1	0	0	0.082769	0.12539	0.29526	0.22238	0.04013	0.073786	0.20846	0.18055	0.10157	0.069021	0.23257	0.30662	0.13379	0.2851	0.1908	0.058874	-3.0563	-3.3229	-3.0396	-3.4667	-3.0854	-3.2812	-3.6271	-3.2188	-3.2333	-3.2125	-2.9479	-3.4333	-3.0917	-3.1625	-3.4271	-3.0667	236.409	213.356	198.006	-59.344	263.111	165.575	214.245	192.015	-30.555	-25.037	231.882	198.906	-20.574	265.399	253.589	-75.711	0.00044075	0.00044614	0.00075879	722.65	4.3288e-06	3.8274e-06	651.8	258.27	6.3839e-05	4.9189e-06	216.48	94.943	120.35	60.105	3.668e-06	48.136	0.00012719	7.6496e-05	0.00030365	683.79	9.1971e-07	1.0293e-06	614.21	244.87	2.0206e-05	8.3817e-07	203.45	89.843	114.29	58.471	8.8456e-07	45.64	-1.648	25.432	35.143	-64.989	48.778	66.822	-67.629	-59.773	236.549	85.081	-64.138	-60.493	-56.929	-52.265	53.138	-57.575	-8191	255	
2642.011	1	1	0	0	0.11324	0.2488	0.18956	0.14806	0.10497	0.094157	0.26268	0.13193	0.33816	0.086881	0.45425	0.19606	0.12473	0.18086	0.10954	0.1686	-3.0292	-3.1104	-2.8771	-3.4792	-3.2167	-3.2	-3.5604	-3.1625	-3.1104	-3.4104	-2.9292	-3.4938	-3.1146	-3.0271	-3.625	-3.0062	144.665	140.538	-11.885	143.076	85.398	70.827	19.101	259.703	160.385	210.013	220.907	-23.877	-54.232	182.078	159.281	265.641	0.00039826	0.00044077	0.00098108	722.24	8.7385e-07	3.1349e-06	653.36	259.09	4.1681e-05	5.0687e-06	216.19	95.973	120.81	60.585	3.5099e-06	48.422	0.00012902	7.1132e-05	0.00038572	687.46	8.4985e-07	8.652e-07	616.03	245.73	1.1452e-05	7.7209e-07	204.44	90.261	114.86	59.456	9.4123e-07	46.009	-0.296	0.661	3.629	-65.222	66.835	74.035	-67.707	-59.860	243.744	53.709	-63.763	-60.325	-56.834	-52.439	43.742	-57.338	-8191	255	
2642.107	1	1	0	0	0.123	0.32942	0.17636	0.26312	0.15078	0.15106	0.12287	0.077203	0.16877	0.085802	0.13378	0.068297	0.19497	0.020049	0.12434	0.21747	-2.8833	-3.425	-3.0333	-3.4125	-3.3458	-3.2333	-3.5479	-3.1771	-3.1937	-3.5292	-3.0167	-3.4917	-3.3667	-3.1646	-3.4729	-3.3042	116.560	111.591	-38.928	245.787	151.059	-56.474	269.507	-59.091	-55.852	12.902	192.776	121.182	238.259	-73.302	239.327	221.235	0.00045949	0.00031679	0.00069575	728.34	4.2337e-06	5.218e-06	658.89	260.72	8.4057e-05	3.7475e-06	217.34	97.466	122	60.786	4.819e-06	49.11	0.00012469	7.069e-05	5.2463e-05	697.83	8.5487e-07	9.4312e-07	619.01	246.77	2.022e-05	7.5746e-07	205.9	91.391	115.54	58.983	9.5311e-07	46.48	4.752	9.614	5.591	-64.966	57.290	60.016	-67.749	-59.987	240.950	68.205	-64.031	-60.705	-57.181	-52.234	79.886	-57.483	-8191	255	
2642.203	1	1	0	0	0.20351	0.10659	0.12254	0.081593	0.043412	0.22289	0.28317	0.13908	0.088947	0.13269	0.23201	0.26794	0.13941	0.25353	0.15816	0.1767	-2.7812	-3.3854	-2.9958	-3.5938	-3.2229	-2.9729	-3.7333	-3.275	-3.1312	-3.5979	-3.1667	-3.4625	-3.4729	-3.1229	-3.5167	-3.2875	-49.797	69.737	140.014	131.472	132.316	150.230	217.284	61.096	273.080	140.015	159.650	155.375	-16.548	197.454	6.720	119.565	0.00043354	0.0003625	0.00010242	732.72	4.5107e-06	5.7581e-06	657.81	260.46	4.0299e-05	5.8817e-06	213.09	95.703	120.49	60.094	6.0475e-06	47.631	0.00013725	6.8791e-05	2.0982e-05	717.92	8.5071e-07	9.0231e-07	620.8	246.48	1.1581e-05	7.7564e-07	202.63	90.102	114.19	58.36	4.1699e-06	45.274	-11.684	27.973	-10.154	-64.776	62.609	45.659	-67.205	-59.916	262.777	64.777	-64.094	-60.410	-57.038	-52.169	281.586	-57.535	-8191	255	
2642.324	1	1	0	0	0.15874	0.11023	0.14772	0.15305	0.33087	0.074426	0.10744	0.049635	0.022066	0.20921	0.20606	0.038938	0.25088	0.34504	0.12846	0.26604	-2.7542	-3.4	-3.075	-3.4667	-3.5229	-3.0438	-3.5083	-3.35	-3.0792	-3.5646	-3.05	-3.1937	-3.3042	-3.0083	-3.475	-3.3292	232.320	211.860	262.428	48.573	46.665	-62.687	155.387	261.873	154.476	203.069	147.430	275.120	-60.496	253.804	208.534	-23.778	0.0004376	0.00051019	0.00011534	719.29	4.6769e-06	4.2563e-06	643.78	256.1	7.6864e-05	4.3549e-06	213.01	94.411	119.6	59.986	9.1127e-06	47.92	0.00012713	7.5011e-05	2.1569e-05	692.93	8.9044e-07	8.1981e-07	606.78	242.45	1.9965e-05	8.5354e-07	200.81	89.018	113.64	57.342	9.3358e-06	45.387	-1.159	3.757	10.639	-64.905	56.124	76.996	-67.418	-59.566	259.736	65.448	-63.573	-60.369	-56.859	-52.006	259.450	-57.503	-8191	255	
2642.396	1	1	0	0	0.27716	0.18768	0.17635	0.22305	0.15935	0.048125	0.14885	0.42241	0.098421	0.13452	0.031245	0.098943	0.098396	0.23971	0.1199	0.08526	-2.6146	-3.3396	-2.9667	-3.2396	-3.3667	-3.1292	-3.4479	-3.4417	-3.0125	-3.6542	-3.0458	-3.0833	-3.5708	-3.0438	-3.3375	-3.3312	2.783	222.891	72.718	-63.792	57.541	198.197	208.738	239.062	247.985	258.014	233.659	-30.565	-63.325	205.231	8.268	259.225	0.00040581	0.00050398	0.00011561	724.52	3.3116e-06	3.3278e-06	650.39	257.58	3.4759e-05	6.5935e-06	216.7	95.134	120.66	60.161	5.7695e-05	48.208	0.00013425	7.7005e-05	2.0328e-05	708.29	8.1126e-07	8.2987e-07	611.41	244.15	1.1561e-05	8.3595e-07	203.55	89.97	114.01	57.634	2.0319e-05	45.705	-4.124	-2.127	6.578	-64.924	52.756	71.250	-67.556	-59.923	260.160	56.415	-63.855	-60.526	-57.238	-51.780	16.499	-57.314	-8191	255	
2642.492	1	1	0	0	0.13008	0.098354	0.1839	0.18845	0.083807	0.20263	0.081544	0.20866	0.091153	0.1379	0.10046	0.30597	0.16657	0.25395	0.17669	0.082058	-2.6917	-3.4354	-3.2938	-3.1833	-3.6083	-3.0229	-3.4458	-3.6104	-3.0021	-3.4688	-3.4083	-3.1396	-3.4313	-3.1229	-3.4333	-3.4667	268.682	244.118	149.078	220.873	244.731	-48.465	190.830	279.993	260.312	204.237	-11.449	223.528	265.110	249.678	229.785	180.498	0.00043526	0.00041228	5.8325e-05	723.36	3.8167e-06	6.0631e-06	652.73	260.1	3.2427e-05	4.4593e-05	218.25	95.786	121.47	60.581	3.0121e-05	48.594	0.00012982	7.1466e-05	2.1105e-05	697.48	8.7524e-07	8.4953e-07	614.57	245.96	1.3188e-05	4.8972e-06	205.92	90.85	114.99	57.879	1.1625e-05	46.289	-12.084	10.861	2.145	-65.097	54.613	75.654	-67.693	-59.975	-9.163	228.658	-63.755	-60.382	-56.937	-52.200	29.597	-57.436	-8191	255	
2642.588	1	1	0	0	0.12411	0.088479	0.17841	0.41198	0.14322	0.11367	0.076297	0.27074	0.23575	0.2151	0.10485	0.26437	0.091345	0.17554	0.10046	0.14618	-2.5187	-3.4479	-3.1604	-3.1146	-3.6271	-3.0042	-3.4917	-3.4667	-3.1875	-3.6583	-3.3563	-3.1875	-3.6063	-3.2458	-3.2146	-3.6271	222.065	-27.251	-44.676	248.974	219.657	130.399	197.961	247.685	230.660	105.437	273.447	260.494	113.039	238.909	145.024	215.041	0.00043858	0.0002745	8.068e-05	722.32	5.0209e-06	4.4661e-06	647.25	255.75	2.013e-05	2.2038e-05	211.79	94.521	119.32	59.414	5.5258e-05	47.543	0.00012505	7.7446e-05	1.9622e-05	708.39	8.738e-07	8.037e-07	608.6	242.86	1.1243e-06	9.6311e-06	200.35	88.937	113.14	56.969	2.0164e-05	45.202	-5.473	34.177	1.162	-64.698	66.268	69.398	-67.624	-60.085	8.305	228.818	-63.532	-60.368	-57.003	-51.966	29.964	-57.254	-8191	255	
2642.707	1	1	0	0	0.15655	0.094984	0.073494	0.037425	0.052539	0.31844	0.22353	0.031895	0.10799	0.17163	0.35956	0.2078	0.066112	0.22662	0.12778	0.1428	-2.6021	-3.575	-3.3125	-3.2458	-3.6896	-3.1479	-3.2146	-3.4625	-2.9833	-3.3917	-3.35	-3.2313	-3.4854	-3.2833	-3.2125	-3.6146	48.363	150.220	36.363	90.037	228.337	-73.458	235.187	-18.116	-65.465	237.212	58.737	237.339	-65.711	-69.647	0.149	-3.947	0.00039292	0.00055581	9.8316e-05	716.17	3.8188e-06	5.1092e-06	645.7	257.19	4.8452e-06	4.649e-05	215.37	95.095	119.27	59.686	3.0407e-05	48.125	0.00012194	8.2503e-05	1.976e-05	690.73	8.3292e-07	7.5417e-07	609.67	243.09	9.2042e-07	2.036e-05	202.36	89.624	113.5	57.238	1.1219e-05	45.591	-2.673	18.349	13.552	-64.661	59.548	67.033	-67.520	-60.016	110.991	266.394	-63.639	-60.615	-57.156	-52.039	38.983	-57.445	-8191	255	
2642.803	1	1	0	0	0.096904	0.18264	0.18253	0.16237	0.093286	0.21703	0.2314	0.18977	0.12934	0.21428	0.1253	0.1969	0.18577	0.059554	0.13965	0.19394	-2.7687	-3.275	-3.3042	-3.0438	-3.3958	-3.1729	-3.2979	-3.6208	-3.1646	-3.125	-3.4437	-3.0917	-3.5875	-3.3917	-3.2	-3.5854	115.588	49.892	-75.460	-70.639	-23.124	73.478	191.631	48.175	264.947	28.181	191.046	-30.142	274.117	273.635	-42.158	249.635	0.00041193	0.00053034	8.2687e-05	723.78	4.4174e-05	4.6607e-06	645.9	257.48	3.4097e-06	2.9071e-05	217.37	95.795	120.19	60.156	5.029e-05	48.549	0.00011676	8.9059e-05	1.9618e-05	696.82	5.6577e-06	7.9424e-07	613.04	244.76	8.7844e-07	1.1153e-05	204.27	90.447	114.16	57.607	1.9605e-05	46.153	0.598	-22.557	28.849	-65.175	175.727	75.128	-67.724	-59.875	70.538	272.862	-63.693	-60.905	-56.924	-52.172	50.684	-57.156	-8191	255	
2642.901	1	1	0	0	0.15654	0.19847	0.14622	0.11209	0.23373	0.30956	0.091015	0.00665	0.10601	0.22323	0.16459	0.0816	0.3277	0.19863	0.12479	0.093826	-2.7958	-3.1917	-3.2625	-3.2687	-3.4625	-3.2479	-3.0625	-3.6542	-3.1021	-3.4396	-3.4313	-2.8208	-3.4354	-3.4854	-3.0563	-3.5458	250.378	12.772	9.247	80.120	49.799	186.176	171.606	-19.949	-26.416	32.259	-15.334	161.254	-75.964	214.325	-30.282	259.171	0.00039889	0.00035232	0.00012667	725.52	2.4797e-05	6.1156e-06	657.29	260.1	2.5986e-06	4.5094e-05	219.26	96.268	120.9	60.243	3.3296e-05	48.557	0.00012063	8.2129e-05	1.8815e-05	683.18	9.5527e-06	8.5219e-07	618.68	246.36	8.7573e-07	2.0088e-05	206.41	90.707	114.27	57.592	1.0912e-05	45.722	-1.395	9.692	-1.875	-65.378	178.908	78.426	-67.458	-59.877	101.111	-70.623	-63.791	-60.465	-57.078	-52.036	52.176	-57.262	-8191	255	
2642.995	1	1	0	0	0.34355	0.072343	0.041213	0.19837	0.091862	0.20514	0.10294	0.12377	0.25391	0.27127	0.14569	0.146	0.15833	0.074223	0.072034	0.15712	-2.7479	-3.1542	-3.3854	-3.1208	-3.3354	-3.4583	-3.1417	-3.5938	-3.325	-3.1917	-3.5583	-3.1917	-3.475	-3.5104	-3.1146	-3.6833	-2.881	216.673	271.797	210.384	213.755	279.260	254.262	121.412	-17.258	194.270	-31.043	51.222	213.390	-13.313	162.575	252.025	0.00039362	0.00034888	9.4233e-05	714.82	4.6997e-05	4.1894e-06	643.53	256.62	7.0155e-06	2.1231e-05	212.09	93.794	119.03	59.757	6.2309e-05	48.062	0.0001176	9.0062e-05	1.9447e-05	675.75	1.9179e-05	7.5003e-07	606.9	242.32	9.0914e-07	1.1133e-05	200.75	88.789	113.05	57.106	1.1219e-05	46.105	-7.122	-3.726	23.242	-65.211	162.254	79.549	-67.506	-59.925	91.317	-62.610	-64.063	-60.518	-57.071	-51.933	35.050	-57.279	-8191	255	
2643.091	1	1	0	0	0.083029	0.2109	0.27693	0.14032	0.16012	0.042347	0.14593	0.19706	0.18812	0.027655	0.097668	0.16866	0.3175	0.16706	0.12941	0.27252	-2.7583	-3.3	-3.4604	-3.1708	-3.3896	-3.4833	-3.0479	-3.4521	-3.2313	-3.0125	-3.6271	-3.1083	-3.3417	-3.7125	-2.9729	-3.5625	231.883	-12.442	-61.631	250.942	182.026	136.047	-52.368	249.762	156.441	124.410	255.510	197.679	-8.038	40.145	143.582	172.764	0.00040482	0.00049129	0.00012001	721.75	2.2641e-05	4.6674e-06	654.52	257.57	6.5108e-06	3.8228e-05	216.51	94.554	120.41	60.072	3.965e-06	48.077	0.00011697	8.1139e-05	1.8961e-05	679.05	1.0772e-05	7.2948e-07	613.33	244.42	8.7644e-07	1.9775e-05	203.11	89.447	113.82	57.337	9.6659e-07	46.777	-8.428	18.473	40.966	-65.243	175.004	70.470	-67.422	-59.881	86.044	-48.577	-63.760	-60.612	-57.043	-52.018	55.525	-56.966	-8191	255	
2643.187	1	1	0	0	0.18217	0.21353	0.28568	0.098507	0.1786	0.0073588	0.36692	0.15661	0.034097	0.051866	0.24097	0.13225	0.084333	0.14859	0.17725	0.1347	-2.9042	-3.0771	-3.6729	-3.1104	-3.2313	-3.4688	-2.9875	-3.5312	-3.3083	-3.0771	-3.5583	-3.1729	-3.2854	-3.5375	-3.0979	-3.3833	153.370	-41.807	220.788	240.225	192.411	280.201	228.155	223.082	77.602	-29.502	222.970	268.252	79.266	273.591	206.737	-3.024	0.00047747	0.00037133	0.00011656	721.22	4.54e-05	5.3025e-06	654.96	256.69	3.4865e-06	1.9839e-05	218.35	96.24	119.85	60.032	2.4662e-06	48.925	0.00011368	8.6517e-05	2.0747e-05	680.92	1.9667e-05	7.2475e-07	616.4	244.55	8.9172e-07	1.1286e-05	205.03	90.433	113.98	57.598	9.263e-07	48.191	0.908	11.961	20.669	-65.169	172.750	73.663	-67.749	-59.960	77.579	-55.393	-64.243	-60.320	-57.041	-52.078	49.407	-57.297	-8191	255	
2643.308	1	1	0	0	0.22588	0.15749	0.24007	0.17681	0.13589	0.10052	0.17053	0.083904	0.088099	0.2168	0.19866	0.26164	0.1489	0.28727	0.14913	0.15544	-2.9354	-3.0708	-3.4458	-3.2333	-3.1375	-3.4333	-2.9938	-3.2083	-3.4688	-2.975	-3.4271	-3.35	-3.2479	-3.6979	-3.0438	-3.3958	-13.579	-18.800	74.180	-41.683	-21.075	180.877	250.906	1.239	224.020	259.249	237.203	262.425	89.437	235.487	226.586	207.480	0.00042327	0.0003823	0.00011123	725.22	2.8674e-05	5.7119e-06	658.97	257.32	6.5137e-06	4.759e-05	211.6	94.235	118.71	59.402	2.1258e-06	48.175	0.00011782	8.356e-05	2.1677e-05	683.69	1.0751e-05	7.9512e-07	618.39	244.39	8.4174e-07	1.0483e-05	206.51	88.922	112.75	56.876	8.9514e-07	46.423	-8.124	12.046	-7.276	-65.258	178.547	93.255	-67.160	-59.952	79.951	-11.027	-64.049	-60.501	-57.269	-51.949	56.454	-56.908	-8191	255	
2643.404	1	1	0	0	0.11396	0.044777	0.050129	0.21265	0.089543	0.093045	0.34758	0.30825	0.13457	0.1867	0.12537	0.18717	0.0097353	0.17155	0.10114	0.050455	-2.9813	-2.8979	-3.55	-3.1208	-3.1583	-3.6188	-3.2625	-3.4229	-3.2958	-3.0104	-3.5187	-3.2917	-3.0854	-3.5667	-3.025	-3.2687	-18.582	-39.100	124.591	274.695	275.127	-12.248	127.117	261.717	126.191	-74.673	-8.234	242.956	173.455	190.191	-70.395	194.223	0.00048094	0.00043429	0.00014554	714.82	4.3564e-05	3.862e-06	646.92	254.63	4.589e-06	5.0075e-06	212.87	93.807	119.2	59.639	2.8491e-06	48.259	0.00011321	7.643e-05	2.2398e-05	675.53	1.9324e-05	7.8034e-07	606.92	241.9	8.6173e-07	8.5487e-07	208.19	88.89	112.89	56.988	8.7934e-07	47.53	1.779	-4.353	-7.596	-65.084	191.687	85.148	-67.655	-59.890	78.632	62.650	-64.080	-60.729	-57.066	-51.963	89.503	-57.197	-8191	255	
2643.500	1	1	0	0	0.05913	0.21105	0.074626	0.098304	0.036516	0.14054	0.086249	0.18069	0.044604	0.033538	0.17202	0.098428	0.13919	0.27733	0.088838	0.062013	-3.2375	-3.1542	-3.3146	-3.3854	-3.0542	-3.3604	-3.1146	-3.3688	-3.4729	-3.0583	-3.4229	-3.5187	-3.0229	-3.6417	-3.1458	-3.2875	151.759	137.344	58.988	65.610	81.538	51.617	214.359	170.148	157.340	127.019	89.925	186.166	218.467	276.775	83.448	243.566	0.00038935	0.00047095	8.7734e-05	719.8	2.475e-05	5.0677e-06	645.85	258.2	7.0151e-06	4.8274e-06	217.11	95.049	119.63	60.044	3.5541e-06	48.525	0.00011538	7.6791e-05	2.1483e-05	680.21	1.1038e-05	7.7856e-07	611.24	244.09	8.6045e-07	7.6618e-07	218.27	89.905	113.79	57.301	9.021e-07	46.912	-5.821	18.806	1.721	-65.357	196.329	80.599	-67.792	-59.992	85.774	76.174	-64.205	-60.547	-57.040	-51.990	57.413	-57.085	-8191	255	
2643.621	1	1	0	0	0.13874	0.076913	0.26904	0.37351	0.056549	0.082506	0.19838	0.064498	0.15938	0.14524	0.12169	0.14907	0.12134	0.15448	0.01575	0.20277	-3.1667	-3.1562	-3.4188	-3.2542	-3.05	-3.5604	-3.175	-2.9562	-3.4979	-3.0417	-3.3271	-3.4104	-3.0167	-3.5375	-3.3167	-3.1167	-56.460	58.591	182.130	266.618	-17.367	157.422	-64.657	254.981	87.836	-14.590	76.571	10.739	53.026	278.473	-50.947	202.224	0.0004287	0.00044195	0.00015144	723.53	1.1202e-05	5.3359e-05	652.88	258.93	5.7968e-06	4.5209e-06	218.4	95.989	120.62	59.914	2.5655e-06	48.721	0.00012084	7.7433e-05	2.5365e-05	682.57	9.6919e-06	8.1927e-06	615.65	245.22	9.1542e-07	8.2605e-07	212.86	90.514	114.15	57.562	8.6514e-07	48.166	-4.283	9.650	-2.281	-65.157	53.190	220.708	-67.655	-59.863	63.630	64.642	-64.166	-60.572	-56.949	-51.967	86.897	-57.009	-8191	255	
2643.693	1	1	0	0	0.084817	0.08232	0.1754	0.024653	0.14883	0.077017	0.14036	0.12039	0.080057	0.24347	0.26446	0.15263	0.075815	0.45598	0.19903	0.21471	-3.0417	-3.1813	-3.1396	-3.4479	-2.9646	-3.4479	-3.35	-3.1917	-3.5229	-3.0708	-3.2708	-3.4042	-3.0875	-3.4042	-3.25	-3.0958	-47.779	22.132	119.278	131.859	66.669	74.324	266.560	-59.271	155.947	146.460	267.272	181.227	-58.890	252.614	216.182	246.191	0.00040433	0.00041997	0.00015021	717.21	3.3946e-06	2.9083e-05	646.1	253.62	4.8914e-06	6.2444e-06	214.27	94.44	118.44	59.475	2.527e-06	47.872	0.00012053	7.1453e-05	2.439e-05	676.84	8.9862e-07	1.1227e-05	608.84	241.45	8.8729e-07	7.848e-07	215.6	88.588	112.51	56.82	9.1239e-07	46.329	0.134	1.659	6.743	-65.291	38.556	201.141	-67.575	-59.854	113.854	46.247	-64.846	-60.786	-56.903	-52.062	63.342	-57.305	-8191	255	
2643.789	1	1	0	0	0.20485	0.17132	0.03636	0.3063	0.038295	0.24868	0.11089	0.14338	0.18199	0.32939	0.059377	0.34805	0.23892	0.18789	0.20027	0.11636	-2.9917	-3.0917	-3.1125	-3.575	-3.075	-3.3229	-3.2542	-2.9938	-3.4313	-3.1583	-3.2042	-3.4896	-3.1979	-3.4833	-3.5563	-3.1292	267.865	-55.897	50.953	159.201	201.388	106.657	-29.795	251.887	209.246	191.870	135.908	71.439	214.178	279.846	-63.239	177.775	0.00045555	0.00034697	0.0001342	721.56	3.2955e-06	4.6704e-05	651.47	256.16	2.3625e-06	4.936e-06	215.92	94.344	119.37	59.604	3.3054e-06	47.999	0.00011754	7.1306e-05	2.6609e-05	679.21	8.6677e-07	2.0147e-05	611.71	242.81	8.8929e-07	7.7653e-07	210.42	89.074	113.06	57.058	9.2311e-07	46.287	-10.651	4.719	10.568	-65.445	63.544	229.068	-67.748	-59.487	114.953	40.631	-64.334	-60.636	-56.885	-51.926	90.733	-57.040	-8191	255	
2643.883	1	1	0	0	0.021715	0.17427	0.083499	0.22096	0.21451	0.132	0.18645	0.145	0.14244	0.21266	0.12976	0.14766	0.057662	0.11522	0.18994	0.1764	-3.0062	-3.0875	-3.1208	-3.6833	-3.0229	-3.5104	-3.4729	-2.8083	-3.6521	-3.1417	-3.1833	-3.6729	-3.0021	-3.4729	-3.3208	-3.175	108.998	98.408	108.843	250.327	-15.177	-49.277	149.407	219.707	213.702	195.308	-20.896	52.961	-26.834	-1.720	95.146	261.936	0.0014229	0.00042814	0.00012705	722.49	2.9299e-06	2.5385e-05	654.66	256.16	3.1762e-06	4.835e-06	219.43	95.241	120.05	60.039	3.4169e-06	48.535	0.00076529	7.1587e-05	2.3291e-05	679.99	8.487e-07	1.1072e-05	613.16	243.59	1.0121e-06	7.9929e-07	218.45	89.852	113.63	57.306	9.0847e-07	45.993	-48.587	-10.118	11.684	-64.828	66.597	238.052	-67.403	-59.765	112.945	99.714	-64.236	-60.600	-57.197	-52.005	84.727	-57.125	-8191	255	
2644.004	1	1	0	0	0.13377	0.14786	0.12712	0.19104	0.19363	0.09223	0.31174	0.16498	0.18446	0.16178	0.08699	0.2455	0.25631	0.12542	0.22838	0.22189	-2.9313	-3.3063	-3.1125	-3.6437	-3.0375	-3.2812	-3.5479	-3.3063	-3.4938	-3.325	-3.2458	-3.6354	-3.2167	-3.075	-3.3708	-3.1396	103.312	145.994	148.929	281.392	48.053	104.281	197.496	240.693	104.825	1.202	-46.722	177.006	262.700	252.681	-1.953	252.008	0.00086779	0.00039325	8.0791e-05	722.07	3.9064e-06	4.3756e-05	654.72	258.27	7.1921e-06	3.4556e-06	220.18	95.813	120.47	59.873	3.7237e-06	47.843	0.00095547	7.2563e-05	2.4106e-05	681.41	8.9331e-07	2.0379e-05	618.94	245.52	9.8125e-07	7.304e-07	213.49	90.452	114.26	57.34	8.489e-07	45.421	262.109	17.999	20.329	-64.859	61.077	239.386	-67.664	-59.764	99.894	74.731	-64.068	-60.573	-57.074	-51.798	74.842	-57.130	-8191	255	
2644.100	1	1	0	0	0.32113	0.060275	0.26478	0.27884	0.070542	0.11298	0.23829	0.21422	0.10983	0.070327	0.1021	0.070677	0.090628	0.0131	0.19463	0.24138	-2.925	-3.3708	-2.8875	-3.5854	-3.2479	-3.3292	-3.6917	-3.25	-3.3125	-3.2083	-2.9604	-3.4583	-3.2667	-3.1833	-3.4708	-3.0312	-18.128	267.279	116.331	212.635	266.597	-58.099	123.492	95.165	178.791	254.050	-61.216	257.840	186.176	209.713	119.570	272.663	0.001512	0.00046214	0.0001047	714.87	3.9935e-06	2.341e-05	640.45	256.36	4.884e-06	4.25e-06	212.9	93.676	118.04	59.37	4.2676e-06	47.669	0.0016967	6.9714e-05	2.2738e-05	675	8.3579e-07	1.1105e-05	605.34	242.24	9.941e-07	7.7283e-07	204.91	90.407	112.3	56.69	8.8094e-07	44.989	247.190	24.449	-9.028	-65.218	81.411	240.513	-67.569	-59.855	63.206	63.201	-64.075	-60.467	-56.934	-52.154	54.339	-57.380	-8191	255	
2644.196	1	1	0	0	0.11238	0.18802	0.13471	0.10902	0.19488	0.21819	0.096743	0.16744	0.11448	0.084425	0.20051	0.041595	0.18875	0.18791	0.084171	0.23995	-2.8063	-3.4375	-3.0458	-3.4104	-3.3229	-3.3729	-3.5187	-3.1479	-3.1646	-3.3937	-3.2104	-3.4042	-3.2562	-3.1104	-3.5021	-3.1708	237.248	152.125	97.524	177.846	170.063	29.936	190.221	157.258	171.736	111.354	269.296	175.030	156.231	142.692	-5.939	155.832	0.00090601	0.00045373	0.00015838	718.56	4.0401e-06	5.4722e-05	646.66	254.54	4.1779e-06	4.3726e-06	213.61	94.708	118.8	59.578	4.7367e-06	48.27	0.0009589	7.1332e-05	2.0956e-05	678.47	7.9763e-07	2.0046e-05	609.73	242.62	1.0034e-06	7.6677e-07	202.13	91.428	112.91	56.89	9.6326e-07	45.592	279.770	31.787	6.778	-65.176	63.977	255.445	-67.516	-59.759	97.089	73.016	-63.657	-60.749	-56.746	-52.089	39.779	-57.307	-8191	255	
2644.268	1	1	0	0	0.16869	0.081265	0.11127	0.17223	0.28046	0.10061	0.056609	0.146	0.12841	0.33618	0.23264	0.13565	0.061861	0.058955	0.11861	0.086427	-2.9271	-3.4813	-3	-3.4479	-3.2562	-3.0479	-3.6958	-3.2438	-3.0958	-3.6104	-3.0833	-3.5312	-3.4813	-3.2167	-3.3896	-3.3396	-46.348	188.188	135.027	267.015	35.135	56.373	-22.465	119.295	243.024	131.190	4.315	169.453	190.714	29.228	155.665	216.299	0.0015672	0.0005129	0.00010554	719.35	3.1617e-06	1.928e-05	648.08	258.09	5.3081e-06	4.5268e-06	216.85	96.107	119.43	59.753	4.9729e-06	48.082	0.0016879	6.962e-05	1.9944e-05	679.34	8.6979e-07	1.0437e-05	612.24	243.82	1.0239e-06	7.474e-07	203.75	94.219	113.54	57.232	9.2572e-07	45.687	276.934	7.601	-3.877	-65.035	68.926	22.503	-67.514	-59.480	97.730	60.084	-63.995	-60.816	-57.608	-51.978	70.639	-57.313	-8191	255	
2644.388	1	1	0	0	0.1927	0.33279	0.21037	0.14612	0.3049	0.15031	0.26184	0.29915	0.4026	0.078149	0.13702	0.044018	0.11826	0.3146	0.16192	0.16547	-2.8104	-3.4625	-2.8937	-3.6437	-3.3167	-3.0312	-3.4979	-3.4333	-3.1604	-3.6854	-3.0958	-3.3917	-3.4	-3.1021	-3.4417	-3.25	-10.545	230.350	152.212	88.579	198.865	-66.646	243.727	250.942	43.431	185.047	172.668	42.507	243.945	214.684	213.085	266.329	0.0010973	0.00040695	0.00012137	721	3.8248e-06	2.8528e-05	647.11	256.04	3.4753e-06	3.9986e-06	211.82	93.034	118.23	59.024	3.6253e-06	47.521	0.00094412	7.156e-05	2.0496e-05	680.8	8.2259e-07	7.0319e-06	623.43	242.81	9.6325e-07	8.1466e-07	199.64	90.548	111.95	56.431	9.837e-07	44.741	-63.533	15.441	1.458	-65.141	49.108	-7.425	-67.770	-59.781	81.240	43.230	-63.866	-60.416	-57.012	-51.889	103.508	-57.381	-8191	255	
2644.485	1	1	0	0	0.27201	0.18664	0.14966	0.097035	0.16491	0.019806	0.19578	0.27974	0.053123	0.1046	0.061763	0.28701	0.29764	0.16959	0.19469	0.04435	-2.8438	-3.3979	-2.9792	-3.3604	-3.5312	-2.9938	-3.4417	-3.3708	-3.0042	-3.6167	-3.1396	-3.2896	-3.3792	-3.1521	-3.3667	-3.2687	113.564	34.212	89.343	-25.479	233.217	277.534	275.921	132.636	22.962	-22.568	146.601	259.007	214.357	248.381	26.553	202.390	0.0016473	0.00041045	0.00016176	710.82	3.885e-06	5.8451e-06	634.23	252.94	3.857e-06	5.844e-06	212.69	94.38	117.87	58.902	4.4798e-06	47.285	0.0015848	7.6577e-05	2.059e-05	670.12	8.1441e-07	7.7502e-07	611.43	239.69	1.0052e-06	8.1038e-07	199.78	92.31	111.9	56.461	1.0049e-06	45.038	-71.428	33.276	-2.512	-65.156	53.344	72.706	-67.945	-59.627	99.086	64.927	-63.872	-60.778	-57.131	-52.063	41.334	-57.164	-8191	255	
2644.581	1	1	0	0	0.17995	0.15736	0.093179	0.067661	0.19168	0.18772	0.11555	0.3561	0.28997	0.15448	0.20353	0.26951	0.35388	0.2489	0.076866	0.041794	-2.7438	-3.3708	-3.2062	-3.2542	-3.6396	-3.0875	-3.3604	-3.4042	-3.0312	-3.4771	-3.2167	-2.9542	-3.4208	-3.1604	-3.3229	-3.5563	278.351	155.003	-68.345	73.102	109.322	239.359	118.259	208.330	12.285	67.604	225.474	-55.966	257.037	277.830	-70.265	214.171	0.00033873	0.00034161	7.4525e-05	716.26	3.7147e-06	5.195e-06	641.61	256.16	2.8456e-06	3.4655e-06	212.41	94.5	119.06	59.441	3.5858e-06	47.812	0.00085438	7.7085e-05	2.0601e-05	676.13	8.1369e-07	8.0562e-07	628.58	242.23	8.9743e-07	8.0269e-07	201.06	91.221	112.56	56.752	1.094e-06	45.444	273.376	20.800	-13.905	-64.799	57.077	65.219	-67.901	-60.034	80.503	31.309	-64.482	-60.507	-56.606	-51.855	67.856	-57.556	-8191	255	
2644.701	1	1	0	0	0.26811	0.16911	0.17437	0.10322	0.051804	0.090081	0.17771	0.098606	0.074026	0.22616	0.16978	0.26182	0.1225	0.17358	0.31174	0.47725	-2.7354	-3.325	-3.0792	-3.1125	-3.3937	-2.9729	-3.2812	-3.4792	-3.2042	-3.6375	-3.1771	-3.2125	-3.7167	-3.3042	-3.2687	-3.5104	50.969	-76.777	-55.105	254.085	218.441	252.162	-39.382	111.647	107.459	250.375	258.748	224.858	207.815	-48.122	4.629	-77.758	0.00046778	0.0039116	0.00010036	717.33	4.1142e-06	5.273e-06	651.45	255.37	4.786e-06	4.0219e-06	216.84	95.99	119.14	59.468	3.9862e-06	47.982	0.00056074	0.0010143	2.1176e-05	678.1	9.0766e-07	7.9379e-07	624.48	243.21	9.1828e-07	9.1193e-07	203.76	94.121	113.2	57.131	1.0298e-06	45.463	220.519	127.538	4.763	-65.032	79.505	89.411	-67.884	-59.856	80.858	112.910	-63.978	-60.625	-56.965	-51.921	65.785	-57.628	-8191	255	
2644.796	1	1	0	0	0.39978	0.28292	0.14045	0.32686	0.068365	0.13529	0.32304	0.11019	0.14348	0.40818	0.11235	0.17346	0.12906	0.26812	0.24676	0.39148	-2.5687	-3.3542	-3.3083	-3.0542	-3.4313	-3.0917	-3.1542	-3.4271	-2.875	-3.2938	-3.4542	-3.1917	-3.6542	-3.3958	-3.1375	-3.5667	-41.550	-66.155	50.945	241.160	-70.349	242.177	206.550	196.188	272.432	222.621	254.294	63.748	221.324	266.633	61.002	-65.279	0.00048009	0.0020299	0.00012693	715.9	1.8997e-06	4.0353e-06	639.3	253.73	4.9292e-06	5.0012e-06	209.41	92.287	116.69	58.275	3.0073e-06	46.711	0.00011816	0.00099342	1.9667e-05	673.12	8.5114e-07	7.626e-07	622.8	239.66	9.1671e-07	8.6596e-07	197.13	88.851	110.94	55.859	1.0667e-06	44.201	-3.737	116.162	9.735	-65.516	65.593	90.490	-68.081	-60.004	78.757	66.320	-63.606	-60.443	-57.122	-52.010	53.156	-57.501	-8191	255	
2644.892	1	1	0	0	0.18282	0.10325	0.10738	0.24764	0.14178	0.21955	0.3546	0.064049	0.056156	0.19963	0.23656	0.021652	0.12508	0.09457	0.075004	0.15998	-2.6063	-3.4229	-3.3771	-3.0333	-3.5812	-3.2958	-3.325	-3.5958	-3.0812	-3.3833	-3.4042	-3.0792	-3.5792	-3.4458	-3.0271	-3.6688	239.209	199.031	35.390	235.300	145.944	140.188	94.682	237.781	38.322	266.160	135.078	187.346	241.173	-50.464	-24.510	196.077	0.00037319	0.0047262	0.00012898	705.13	3.845e-06	5.9395e-06	640.69	252.57	3.8023e-06	4.5152e-06	211.25	94.437	117.95	59.036	4.2486e-06	47.689	0.00011748	0.001773	2.028e-05	666.77	8.7366e-07	7.558e-07	613.2	240.04	8.5088e-07	8.7158e-07	199.26	89.109	114.21	56.383	9.7036e-07	45.009	2.644	113.365	19.985	-65.433	57.433	84.118	-67.844	-59.763	62.484	87.058	-63.951	-60.276	-56.613	-52.119	59.791	-57.533	-8191	255	
2644.988	1	1	0	0	0.028405	0.1778	0.07277	0.06094	0.17573	0.050807	0.12993	0.13272	0.11674	0.10549	0.16845	0.1842	0.077344	0.056028	0.24154	0.30705	-2.5146	-3.3146	-3.3167	-2.9208	-3.5687	-3.2938	-3.2083	-3.6312	-3.0146	-3.5208	-3.6312	-2.9583	-3.5021	-3.3667	-2.9813	-3.7479	279.011	280.740	-19.375	202.046	-8.356	12.631	201.478	206.665	81.370	19.508	-69.214	177.107	116.148	151.605	-30.959	180.448	0.00043869	0.0026076	0.00010694	714.21	4.1526e-06	4.6234e-06	645.7	255.5	5.3555e-06	3.0191e-06	213.54	93.366	119.15	58.92	5.0832e-06	47.916	0.00011773	0.00098684	2.0937e-05	673.79	9.7709e-07	8.0917e-07	628.5	241.9	8.693e-07	8.9316e-07	200.83	88.568	114.39	56.586	1.0633e-06	45.249	-1.669	114.144	5.172	-65.011	67.864	54.930	-68.097	-60.032	87.902	61.097	-63.694	-60.105	-56.933	-52.132	43.188	-57.506	-8191	255	
2645.084	1	1	0	0	0.15806	0.25244	0.044785	0.15473	0.24523	0.21739	0.13668	0.22811	0.15296	0.017083	0.074931	0.16706	0.17974	0.19333	0.11575	0.067543	-2.6333	-3.1813	-3.5208	-3.075	-3.4792	-3.2188	-2.9688	-3.6646	-3.3042	-3.25	-3.5833	-3.1875	-3.2479	-3.4354	-3.1146	-3.6625	-23.464	-26.370	112.210	249.461	233.648	275.146	181.058	278.596	208.123	129.795	-7.177	254.860	-43.394	134.692	-28.737	-41.381	0.00041686	0.0041703	0.00012063	712.29	4.2211e-06	5.4434e-06	648.77	255.61	4.242e-06	3.4976e-06	213.11	92.674	118.72	58.925	4.0613e-06	47.035	0.00012221	0.0017687	1.988e-05	673.48	9.2301e-07	7.9734e-07	619.13	242.95	8.8058e-07	9.3485e-07	201.48	88.244	115.76	56.377	9.6181e-07	44.679	0.468	128.439	13.750	-65.154	70.733	76.630	-67.924	-59.703	87.795	47.458	-64.047	-60.476	-56.852	-52.188	52.720	-57.184	-8191	255	
2645.180	1	1	0	0	0.22649	0.013912	0.16356	0.079561	0.06244	0.13531	0.35835	0.22849	0.10897	0.26566	0.2207	0.4394	0.19444	0.17268	0.015232	0.17717	-2.8312	-3.2146	-3.5792	-2.9896	-3.3458	-3.4	-3.1708	-3.5167	-3.25	-3.0875	-3.5062	-3.175	-3.3708	-3.4979	-3.0208	-3.6083	226.208	263.071	25.669	131.522	76.955	14.791	229.066	-49.482	141.625	1.230	95.676	86.267	242.441	269.083	117.380	66.040	0.00041942	0.0020127	0.0001294	707.22	5.2404e-06	4.2643e-06	632.46	250.27	3.2625e-06	6.0281e-06	209.62	92.428	117.51	58.284	5.1568e-06	46.636	0.00011759	0.00095243	2.0878e-05	667.29	9.758e-07	7.7694e-07	600.24	243.25	8.8829e-07	8.8385e-07	196.83	86.714	112.97	55.867	9.6254e-07	44.472	-11.263	140.668	11.899	-65.216	72.543	93.634	-67.845	-60.129	81.639	66.037	-63.939	-60.552	-56.958	-51.996	73.999	-57.228	-8191	255	
2645.301	1	1	0	0	0.065709	0.26561	0.20968	0.2031	0.17452	0.15535	0.15815	0.048131	0.27566	0.15274	0.19532	0.35177	0.15727	0.2843	0.1682	0.15293	-2.9062	-3.0938	-3.5354	-2.9521	-3.2104	-3.5521	-2.9208	-3.4958	-3.275	-3.0021	-3.6396	-3.2354	-3.2188	-3.4938	-2.9833	-3.5062	-71.684	151.556	256.499	-4.158	82.872	173.975	-45.753	195.199	-58.258	63.571	-45.186	228.655	-67.232	-61.852	273.103	-28.660	0.00034913	0.0041083	8.7562e-05	709.45	2.9659e-06	7.2377e-06	638.47	253.51	6.4655e-06	3.1382e-06	209.84	92.616	118.02	58.678	3.9831e-06	46.963	0.00011618	0.0017353	1.9757e-05	671.16	9.1713e-07	7.4619e-07	602.73	244.02	8.2304e-07	9.0646e-07	198.52	87.499	115.06	56.118	8.9166e-07	44.728	-15.722	142.547	29.972	-65.510	62.295	90.391	-67.670	-59.893	64.988	32.927	-63.619	-60.279	-56.900	-51.814	60.925	-57.311	-8191	255	
2645.397	1	1	0	0	0.22684	0.086661	0.25088	0.19657	0.20037	0.23805	0.13212	0.14267	0.18177	0.19568	0.13364	0.13822	0.30837	0.028645	0.02369	0.12407	-3.0104	-3.0771	-3.55	-3.2417	-3.1813	-3.4854	-3.1979	-3.3917	-3.4208	-3.0563	-3.7062	-3.2896	-3.2479	-3.65	-3.0271	-3.3375	60.472	141.580	-62.140	185.758	23.848	-13.777	200.142	141.697	98.718	163.337	265.760	187.348	279.540	61.498	-19.915	183.034	0.00045123	0.00079533	0.00057341	711.38	4.6359e-06	3.3793e-06	643.52	255.75	5.5897e-06	5.5607e-06	211.76	93.482	118.98	59.383	4.789e-06	47.596	0.00011612	0.00076728	3.8475e-05	672.73	9.6633e-07	7.2076e-07	604.75	249.21	8.0961e-07	8.4349e-07	200.34	88.476	114.31	56.618	9.3297e-07	45.234	-8.909	1.143	150.234	-64.783	92.099	97.052	-67.658	-59.933	51.494	55.057	-63.889	-60.565	-56.965	-52.103	69.902	-57.306	-8191	255	
2645.493	1	1	0	0	0.14982	0.069216	0.11272	0.46622	0.47185	0.24347	0.18688	0.19676	0.23786	0.16584	0.14346	0.12525	0.17063	0.078005	0.23041	0.10697	-3.0479	-2.9771	-3.2313	-3.2292	-3.125	-3.5396	-3.1979	-3.3146	-3.3333	-2.9125	-3.4417	-3.2542	-3.2042	-3.5833	-3.0833	-3.2792	-60.781	87.565	-77.699	258.948	-30.585	-9.483	247.042	133.397	210.220	16.115	-73.927	-29.263	214.044	176.900	51.055	224.592	0.00044416	0.0007581	0.0011486	714.34	2.2018e-06	5.8607e-06	643.04	254.01	3.1141e-06	4.5929e-06	208.74	91.49	117.17	58.496	3.3384e-06	46.952	0.00011188	0.00033455	0.00034306	676.19	9.0465e-07	7.898e-07	605.71	244.56	8.5488e-07	8.1659e-07	197.69	86.596	114.58	55.977	9.4007e-07	44.3	-1.889	-25.489	150.206	-64.977	63.379	81.187	-67.735	-59.831	84.758	54.544	-63.597	-60.548	-56.496	-52.058	83.913	-57.314	-8191	255	
2645.565	1	1	0	0	0.15225	0.29089	0.060363	0.08356	0.18391	0.11025	0.25883	0.10968	0.1371	0.39043	0.20683	0.1893	0.27932	0.058184	0.046555	0.089279	-3.0542	-3.0083	-3.3125	-3.4917	-3.2167	-3.45	-3.2271	-3.225	-3.4542	-2.8958	-3.2979	-3.3958	-3.125	-3.5146	-3.1479	-3.1792	-53.032	162.635	-7.615	-76.376	6.207	3.294	96.268	241.131	-11.241	162.951	-50.466	221.867	-61.553	200.102	270.364	92.849	0.00044249	0.00035893	0.00057167	705.63	2.715e-06	4.7388e-06	637.23	251.88	4.1699e-06	5.9387e-06	209.81	92.024	117.2	58.48	5.1497e-06	46.771	0.0001132	7.1988e-05	0.00026919	667.9	1.0111e-06	7.8049e-07	599.16	246.4	8.7373e-07	7.8421e-07	197.38	86.778	112.41	56.149	8.7659e-07	44.512	-2.467	28.738	162.341	-65.117	68.188	60.420	-67.595	-60.502	100.279	60.408	-64.362	-60.353	-57.048	-52.056	83.921	-57.188	-8191	255	
2645.661	1	1	0	0	0.15517	0.24249	0.08275	0.12544	0.11603	0.10574	0.11475	0.27533	0.050932	0.087566	0.052341	0.093046	0.11187	0.12716	0.16524	0.079171	-3.025	-2.9521	-3.4333	-3.4062	-2.9958	-3.5271	-3.1792	-3.1292	-3.3333	-2.9667	-3.3125	-3.3854	-2.9375	-3.6708	-3.1417	-3.1708	239.107	215.412	-16.710	231.683	-7.248	256.068	161.728	191.364	17.715	78.998	247.596	227.517	-18.676	174.225	212.561	80.816	0.00043058	0.00039329	0.00098659	713.35	2.3146e-06	5.6899e-06	640.69	254.05	6.508e-06	3.1357e-06	212.46	92.432	118	58.998	4.2554e-06	47.464	0.00011465	7.5787e-05	0.00049171	671.78	9.2215e-07	7.9926e-07	602.1	244.1	9.3213e-07	7.5997e-07	199.68	87.693	111.87	57.385	9.0876e-07	44.973	-10.912	10.292	180.208	-65.525	58.174	71.716	-67.491	-59.947	63.454	66.755	-63.981	-60.465	-56.804	-51.700	65.335	-58.020	-8191	255	
2645.780	1	1	0	0	0.09565	0.12188	0.24931	0.13043	0.13107	0.068766	0.056793	0.19995	0.055463	0.13299	0.25259	0.19627	0.25049	0.15976	0.064178	0.088685	-3.1813	-2.9396	-3.2875	-3.4062	-2.9688	-3.5354	-3.3375	-2.9125	-3.6375	-3.1083	-3.2687	-3.6292	-3.0979	-3.4896	-3.3229	-3.05	115.143	-73.300	242.317	-36.625	245.290	-55.130	196.157	244.111	140.770	-24.677	235.109	135.300	259.028	-18.174	149.293	-63.593	0.00037038	0.00037124	0.00058357	711.46	1.4439e-06	5.7659e-06	646.82	256.73	5.1873e-06	6.0721e-06	214.12	93.618	118.9	59.606	4.5501e-06	47.682	0.00012135	7.156e-05	0.00026872	673.98	8.9145e-07	9.3706e-07	608.1	250.53	9.4883e-07	8.021e-07	201.76	88.915	112.37	57.622	9.0891e-07	45.094	-3.312	8.472	182.063	-65.192	41.896	69.090	-67.626	-59.776	60.707	64.219	-64.264	-60.837	-57.137	-51.845	68.327	-57.023	-8191	255	
2645.876	1	1	0	0	0.070375	0.30804	0.10871	0.12172	0.26539	0.21754	0.089094	0.1032	0.079807	0.10011	0.064953	0.1707	0.31843	0.11434	0.17254	0.18646	-2.9417	-3.1437	-3.1833	-3.5062	-3.0646	-3.4333	-3.2208	-2.8979	-3.3958	-3.2438	-3.0458	-3.4771	-2.8625	-3.4167	-3.3438	-3.1063	197.207	-26.536	81.848	60.037	-5.497	156.903	177.507	188.928	167.578	-51.472	278.994	224.696	193.561	210.986	278.690	-24.709	0.00040175	0.00026506	0.001016	707.99	3.2939e-06	5.9073e-06	636.79	249.82	3.759e-06	3.8536e-06	208.82	91.559	115.89	58.226	2.5168e-06	46.358	0.0001174	7.5373e-05	0.00049696	669.97	8.4655e-07	8.5234e-07	596.7	240.48	2.4089e-06	6.9611e-07	196.25	86.235	110.08	57.175	8.7934e-07	44.001	6.546	23.950	195.796	-64.981	39.672	76.182	-67.728	-59.952	-27.864	50.605	-63.876	-60.471	-56.877	-51.705	83.538	-57.207	-8191	255	
2645.972	1	1	0	0	0.12151	0.22107	0.13438	0.21801	0.11141	0.1607	0.1124	0.28284	0.091447	0.21449	0.13986	0.21082	0.18843	0.19533	0.19252	0.2926	-3.2354	-3.0896	-3.2333	-3.5854	-2.9896	-3.2417	-3.4083	-3.0146	-3.3146	-3.0958	-3.1208	-3.5875	-3.2333	-3.4813	-3.3937	-2.9604	228.555	59.662	19.497	199.567	-8.193	-53.251	-26.531	-41.911	-49.167	125.195	110.635	174.548	202.746	247.717	275.439	234.565	0.00038447	0.00045206	0.00053102	706.41	2.9023e-06	4.9681e-06	635.12	254.73	9.3496e-06	4.5707e-06	209.49	91.581	117.88	58.897	5.6031e-06	47.175	0.00012004	7.0837e-05	0.00027662	668.09	8.5099e-07	9.0394e-07	599.45	240.13	1.496e-05	7.4445e-07	198.25	86.991	111.25	56.899	8.4673e-07	44.628	5.009	-3.425	192.048	-65.535	50.798	87.051	-67.443	-59.939	253.871	66.550	-63.834	-60.415	-57.045	-51.936	70.373	-57.213	-8191	255	
2646.068	1	1	0	0	0.10092	0.12097	0.22265	0.41269	0.29002	0.15752	0.19976	0.23244	0.31889	0.14673	0.172	0.12189	0.1871	0.2924	0.18911	0.19015	-3.0687	-3.2687	-3.1042	-3.4625	-3.1792	-3.3729	-3.4792	-3.0312	-3.4646	-3.3208	-3.2042	-3.5271	-3.0792	-3.2875	-3.3792	-2.9938	278.391	143.824	58.450	191.688	200.033	181.204	68.638	145.127	-71.018	258.031	209.023	185.181	259.443	-43.197	237.203	-51.212	0.00041711	0.00040771	0.0010416	711.1	3.2003e-06	5.4623e-06	645.79	254.26	4.4915e-05	3.7445e-06	211.76	93.386	118.35	58.997	2.6008e-06	47.572	0.0001311	7.3353e-05	0.0005009	671.9	8.0093e-07	9.1547e-07	605.16	240.85	1.0722e-05	7.8318e-07	199.57	88.129	111.95	57.903	8.8789e-07	45.026	-4.443	24.244	202.833	-64.752	72.076	65.584	-67.224	-59.834	53.191	44.876	-63.944	-60.307	-57.013	-51.797	89.138	-57.302	-8191	255	
2646.165	1	1	0	0	0.19598	0.16598	0.14546	0.2616	0.15086	0.15538	0.14381	0.33422	0.11603	0.13355	0.2361	0.1564	0.20102	0.26741	0.10631	0.12305	-2.9417	-3.2562	-3.1042	-3.5604	-3.2021	-3.1667	-3.525	-2.9875	-3.3958	-3.2687	-3.1937	-3.5729	-3.15	-3.0854	-3.4292	-3.2438	73.411	210.853	45.656	-77.135	34.191	26.278	192.377	-41.808	190.222	43.412	254.088	93.354	193.918	-58.784	76.055	8.078	0.00044297	0.00044454	0.00023215	716.78	4.1729e-06	3.1151e-06	648.57	256.05	7.4537e-05	3.6981e-06	214.13	93.106	117.74	58.896	1.9476e-06	46.814	0.00012132	6.97e-05	0.00018888	679	8.6706e-07	8.5885e-07	610.8	243.02	1.9436e-05	8.0491e-07	201.29	88.234	111.82	57.072	8.7978e-07	44.395	-5.160	19.990	-62.678	-65.257	75.458	80.554	-67.875	-59.755	55.159	46.105	-63.466	-60.747	-57.038	-51.853	47.073	-57.552	-8191	255	
2646.261	1	1	0	0	0.12474	0.20888	0.17257	0.37509	0.048754	0.024082	0.11454	0.020333	0.17867	0.058859	0.18813	0.095017	0.23363	0.16571	0.34734	0.1353	-2.8333	-3.3563	-3.1	-3.6021	-3.0938	-3.2812	-3.7229	-3.2667	-3.3292	-3.3083	-3.0417	-3.5021	-3.4292	-3.0438	-3.3958	-3.0896	239.589	159.669	265.905	-68.362	1.676	213.852	221.730	66.678	278.148	83.609	216.206	204.603	102.604	-2.518	274.348	132.935	0.00035031	0.00034817	0.00074924	702.45	2.7354e-06	5.1592e-06	636.89	250.95	4.5267e-05	3.1036e-06	207.67	92.34	116.82	58.557	3.9401e-06	46.48	0.00012793	7.0717e-05	3.444e-05	689.56	8.4597e-07	8.5367e-07	598.75	238.15	1.0543e-05	7.7815e-07	196.5	86.9	110.53	57.43	9.7007e-07	44.269	-13.162	3.183	-77.244	-64.953	53.731	69.848	-67.641	-59.902	66.811	47.168	-63.898	-60.317	-57.137	-51.853	96.025	-57.557	-8191	255	
2646.381	1	1	0	0	0.18745	0.077657	0.094185	0.1233	0.10213	0.20017	0.096689	0.073814	0.20092	0.38819	0.15274	0.1499	0.15262	0.044581	0.13259	0.25567	-2.8438	-3.425	-2.9292	-3.5333	-3.3125	-3.3458	-3.7167	-3.075	-3.2417	-3.5687	-3.1542	-3.4458	-3.3875	-3.1625	-3.5542	-3.2146	118.973	-15.038	263.510	-52.473	194.493	-51.387	-57.902	-47.659	260.048	16.600	-29.745	90.477	183.885	-7.252	-26.778	264.011	0.00040136	0.0004623	0.00015395	709.02	3.519e-06	5.5486e-06	641.58	252.24	7.8e-05	4.8384e-06	211.35	92.717	117.89	58.69	3.0677e-05	47.097	0.00012271	6.8255e-05	2.1109e-05	684.55	8.1714e-07	9.032e-07	604.63	239.59	1.9282e-05	8.1304e-07	199.07	87.802	111.72	56.694	3.4539e-06	44.733	11.792	18.024	19.881	-65.124	79.440	74.755	-67.426	-60.027	68.922	72.699	-63.894	-60.637	-56.966	-51.763	188.523	-57.563	-8191	255	
2646.478	1	1	0	0	0.11818	0.11545	0.091536	0.11735	0.34057	0.098633	0.0879	0.22259	0.15136	0.20834	0.17449	0.30712	0.10164	0.35159	0.026119	0.081993	-2.8667	-3.4188	-2.9875	-3.4542	-3.5292	-3.05	-3.625	-3.2562	-3.1354	-3.5958	-3.0771	-3.4479	-3.4583	-3.025	-3.4188	-3.1437	158.321	182.830	163.772	282.071	247.690	74.309	245.797	233.958	-66.842	197.246	-70.454	273.636	-73.357	231.058	27.572	186.009	0.00037091	0.00054215	0.00011851	708.68	5.6184e-06	6.1844e-06	646.1	256.47	4.0078e-05	6.0971e-06	214.99	94.355	118.35	59.139	5.6823e-05	47.513	0.00012958	7.3848e-05	2.1274e-05	700.73	8.53e-07	8.5633e-07	608.3	242.65	1.0967e-05	7.678e-07	202	88.906	112.27	56.534	1.7209e-05	45.102	-1.007	22.974	29.083	-65.323	57.037	96.283	-67.506	-59.847	68.144	68.782	-63.957	-60.535	-57.063	-52.256	188.027	-57.436	-8191	255	
2646.574	1	1	0	0	0.11794	0.073573	0.15512	0.06939	0.023287	0.28179	0.21025	0.16063	0.22947	0.11707	0.10759	0.066785	0.11915	0.23157	0.038535	0.11139	-2.825	-3.5417	-3.1229	-3.4646	-3.3083	-2.9417	-3.6396	-3.3	-3.1021	-3.5646	-3.2021	-3.3125	-3.4667	-2.9396	-3.4625	-3.3688	222.015	245.896	27.617	28.918	38.827	64.226	57.965	214.253	-0.862	-24.945	-2.795	163.766	232.032	261.371	-45.748	272.930	0.00041965	0.00056299	0.00011062	712.84	4.1926e-06	5.7064e-06	639.22	251.7	7.4952e-05	4.5813e-06	208.2	91.693	116.34	58.049	2.3832e-05	46.194	0.00012428	7.7286e-05	2.0179e-05	689.05	8.4396e-07	8.1567e-07	601.45	239.14	1.9194e-05	8.602e-07	196.13	86.587	110.38	55.562	1.0802e-05	43.798	-3.444	27.817	-14.175	-65.004	70.670	47.209	-67.439	-59.840	66.107	58.425	-63.421	-60.094	-56.875	-52.028	165.542	-57.441	-8191	255	
2646.670	1	1	0	0	0.1312	0.073917	0.13994	0.11532	0.071379	0.10703	0.13525	0.2177	0.20694	0.10075	0.076825	0.28049	0.31104	0.20019	0.10044	0.52837	-2.6979	-3.5062	-3.1875	-3.2229	-3.4375	-2.9562	-3.4	-3.2438	-3.025	-3.4854	-3.1937	-3.2938	-3.5479	-3.1271	-3.2583	-3.4042	191.211	146.946	-64.039	281.883	147.294	107.518	-54.674	146.298	205.825	239.460	-34.448	177.749	191.430	-33.994	50.269	-59.972	0.00042693	0.00020873	9.7418e-05	702.32	1.7836e-06	3.5427e-06	631.37	250.65	4.0505e-05	1.1027e-05	208.69	92.383	116.81	58.205	5.3525e-05	46.61	0.00012343	6.859e-05	2.0224e-05	690.37	7.8959e-07	7.9926e-07	594.55	236.98	6.2873e-06	3.6551e-06	196.91	86.722	110.81	55.707	1.9236e-05	44.283	-8.394	-4.405	5.369	-65.630	60.041	87.547	-67.687	-59.783	58.626	105.721	-64.147	-60.648	-57.384	-51.931	184.851	-57.428	-8191	255	
2646.789	1	1	0	0	0.20494	0.021304	0.28485	0.34554	0.031099	0.23306	0.17424	0.078596	0.17895	0.45029	0.079417	0.29102	0.10221	0.27868	0.083391	0.20159	-2.5792	-3.4042	-3.0104	-3.3208	-3.6667	-2.8958	-3.4896	-3.4771	-3.1854	-3.4917	-3.1958	-3.1792	-3.5125	-2.9958	-3.2792	-3.3896	13.679	-47.475	124.620	-67.989	75.198	-19.227	157.412	136.646	227.576	23.243	63.971	263.207	-13.163	220.252	246.996	116.921	0.00036106	0.00041196	0.00012993	709.86	2.7949e-06	3.1839e-06	638.97	254.33	4.1627e-06	2.3915e-05	212.39	93.305	117.26	58.821	2.676e-05	46.97	0.00011599	7.6215e-05	2.0889e-05	684.35	8.6405e-07	8.0163e-07	601.55	239.87	8.6345e-07	1.8035e-05	199.39	87.97	111.51	56.155	1.083e-05	44.609	4.176	22.107	19.446	-65.411	52.476	74.948	-67.626	-59.996	75.630	145.483	-64.144	-60.358	-56.971	-52.037	179.542	-57.592	-8191	255	
2646.860	1	1	0	0	0.16276	0.1804	0.119	0.080527	0.088515	0.18545	0.13203	0.23277	0.25926	0.26997	0.12978	0.23034	0.26044	0.21169	0.21107	0.16583	-2.4854	-3.3833	-3.1479	-3.0938	-3.4958	-3.025	-3.5104	-3.4729	-3.0417	-3.4646	-3.2208	-3.0146	-3.4521	-3.1854	-3.1667	-3.3146	142.296	194.779	146.252	237.582	232.639	60.474	181.477	260.671	243.699	207.865	-60.875	32.599	196.630	-62.781	-0.553	-1.858	0.0004319	0.00041301	0.00010828	716.02	3.8126e-06	6.3296e-06	642.42	255.55	5.6521e-06	3.5584e-05	213.59	94.177	119.13	58.783	4.8696e-05	47.035	0.00011616	8.5045e-05	2.025e-05	700.33	8.6577e-07	7.7901e-07	605.72	241.66	9.0214e-07	1.1192e-05	201.75	89.094	112.8	56.44	1.9775e-05	44.747	-0.570	11.022	6.870	-65.529	77.400	91.268	-67.706	-59.665	102.444	59.329	-63.769	-60.372	-57.089	-52.124	193.219	-57.307	-8191	255	
2646.981	1	1	0	0	0.11109	0.078051	0.16758	0.1578	0.052923	0.17875	0.11714	0.14809	0.25095	0.21978	0.22877	0.17963	0.27506	0.046289	0.25118	0.31031	-2.5938	-3.3583	-3.1833	-3	-3.4542	-3.1708	-3.1437	-3.6583	-2.8792	-3.3667	-3.5479	-3.1396	-3.4917	-3.1667	-3.175	-3.3979	104.125	-63.420	53.322	77.766	249.383	276.673	164.409	-40.333	226.985	-30.703	92.317	120.372	-16.892	47.341	120.922	121.247	0.00041846	0.00054892	0.00011162	711.3	1.3235e-05	4.8588e-06	634.53	251.6	6.1848e-06	4.9202e-05	207.28	92.191	117.92	58.281	3.4601e-05	46.38	0.00011711	8.1072e-05	2.0011e-05	674.83	4.2745e-06	7.7856e-07	598.25	238.41	8.6816e-07	1.9712e-05	196.31	87.054	111.56	55.747	1.0875e-05	44.042	-9.534	24.195	3.895	-65.213	247.976	67.063	-67.679	-59.739	75.106	77.612	-63.557	-60.895	-57.447	-52.015	196.107	-57.583	-8191	255	
2647.077	1	1	0	0	0.071309	0.13702	0.19419	0.32319	0.08533	0.11651	0.36881	0.31667	0.10197	0.098124	0.097403	0.14939	0.11433	0.43492	0.080451	0.046094	-2.5187	-3.3063	-3.4146	-3.0687	-3.3979	-3.1104	-3.0792	-3.7458	-3.1125	-3.3354	-3.4313	-3.1146	-3.6521	-3.4688	-3.2667	-3.5479	52.764	219.498	-77.347	266.254	-14.728	66.536	111.154	245.818	21.567	-64.198	14.213	-61.491	-26.339	234.155	277.611	0.821	0.00043371	0.0006007	0.00013173	710.7	2.7911e-05	5.2964e-06	641.26	252.99	5.5139e-06	3.4729e-05	210.11	92.917	117.81	58.617	5.6029e-05	47.059	0.00011862	8.4818e-05	1.9772e-05	669.91	1.8436e-05	8.2129e-07	603.11	239.64	8.4188e-07	1.1094e-05	198.95	87.747	111.71	56.039	1.9644e-05	44.504	-1.433	9.894	13.822	-64.936	270.044	54.564	-67.717	-59.824	55.815	84.333	-64.084	-60.609	-57.137	-52.126	212.228	-57.124	-8191	255	
2647.173	1	1	0	0	0.1185	0.19417	0.032634	0.31421	0.086841	0.18033	0.21581	0.18096	0.0030372	0.057553	0.087704	0.15486	0.29762	0.14309	0.19015	0.25535	-2.6667	-3.2208	-3.2083	-3.1021	-3.3542	-3.4292	-3.2	-3.5021	-3.1937	-3.2021	-3.5667	-3.0542	-3.2771	-3.4562	-2.975	-3.6375	211.632	7.599	-13.384	234.332	169.498	57.855	255.780	-40.773	38.588	183.635	197.064	190.164	-73.358	239.974	16.913	267.271	0.00038107	0.00050316	9.9643e-05	712.95	2.0804e-05	4.8167e-06	642.77	254.54	2.5871e-06	5.7163e-05	213.88	93.306	119.15	58.76	8.337e-06	47.191	0.00011786	8.4055e-05	2.0052e-05	672.9	1.1004e-05	7.6053e-07	605.17	241.37	8.9129e-07	2.0136e-05	200.92	88.296	112.61	56.377	5.7091e-06	45.318	-7.836	23.084	3.577	-65.430	-18.731	75.484	-67.421	-59.860	54.681	78.430	-64.006	-60.318	-56.937	-52.283	57.327	-57.174	-8191	255	
2647.269	1	1	0	0	0.047115	0.13971	0.096374	0.20325	0.25433	0.062206	0.19027	0.12402	0.08264	0.063886	0.07071	0.14118	0.18225	0.079508	0.065263	0.25762	-2.6437	-3.3208	-3.5208	-3.1271	-3.3229	-3.325	-2.9208	-3.5104	-3.1729	-3.1146	-3.5542	-3.1042	-3.4583	-3.3812	-3.2354	-3.5104	166.530	184.965	117.541	-71.736	229.061	132.778	36.367	-55.622	267.767	33.059	152.860	279.269	182.006	119.710	-42.467	248.709	0.00039397	0.00033916	0.00011932	716.47	5.3652e-05	6.8115e-06	647.17	256.07	6.4494e-06	3.5205e-05	214.39	93.173	117.15	58.526	1.8938e-06	46.148	0.00012059	8.9179e-05	2.1281e-05	676.32	1.9515e-05	7.9424e-07	608.24	242.1	8.7158e-07	1.1066e-05	200.47	87.788	111.52	55.873	8.9123e-07	46.089	-12.455	24.956	16.183	-64.922	-20.964	80.492	-67.771	-59.758	54.794	92.930	-64.071	-60.408	-56.809	-52.150	31.990	-57.814	-8191	255	
2647.366	1	1	0	0	0.30618	0.13009	0.15109	0.30719	0.11262	0.058859	0.11136	0.19229	0.26109	0.21571	0.25312	0.27751	0.17566	0.10915	0.17886	0.24315	-2.7083	-3.1813	-3.5354	-3.1104	-3.3063	-3.3563	-3.1646	-3.2938	-3.2208	-3.2	-3.6625	-3.1917	-3.1771	-3.4833	-3.0417	-3.5146	21.705	187.342	122.253	207.183	55.879	228.562	123.507	-42.340	235.669	212.329	127.342	219.076	247.334	-25.402	84.084	215.917	0.00039453	0.00038355	9.8004e-05	707.37	2.5269e-05	6.9096e-06	631.63	251.81	5.3336e-06	5.8298e-05	209.15	91.728	117.3	58.61	4.4575e-06	46.486	0.00011196	8.2129e-05	2.0616e-05	667.67	1.0702e-05	7.8492e-07	596.44	238.45	8.8087e-07	1.9851e-05	197.02	86.864	110.97	55.843	8.9253e-07	45.283	7.343	19.434	13.372	-65.123	-13.254	82.234	-67.706	-59.595	63.600	101.552	-63.916	-60.422	-57.011	-52.186	55.189	-57.301	-8191	255	
2647.462	1	1	0	0	0.13686	0.10481	0.22936	0.29571	0.22783	0.083201	0.076285	0.085786	0.069273	0.012436	0.076056	0.19015	0.11287	0.18142	0.066154	0.17447	-2.7729	-2.9833	-3.5792	-3.0646	-3.2812	-3.6229	-3.0042	-3.4313	-3.3396	-3.0729	-3.5042	-3.0521	-3.2375	-3.4667	-3.1354	-3.4167	176.078	83.672	178.338	192.870	-38.863	-3.483	61.875	121.847	164.714	-21.509	227.409	198.468	-47.514	242.900	133.130	218.489	0.00041413	0.00033251	9.6383e-05	707.42	4.8009e-05	5.6234e-06	643.61	253.88	2.6345e-06	2.9873e-05	209.89	92.747	117.94	58.921	4.3727e-06	46.452	0.00011386	8.6289e-05	2.1064e-05	670.44	1.9545e-05	8.0621e-07	603.97	240.08	8.7358e-07	5.0904e-06	202.37	87.74	111.6	56.217	9.1442e-07	46.64	-9.532	0.133	19.192	-65.116	6.450	67.589	-67.429	-59.681	100.079	61.927	-63.838	-60.668	-57.024	-51.708	63.270	-57.313	-8191	255	
2647.558	1	1	0	0	0.039582	0.16585	0.15121	0.10556	0.096908	0.29718	0.15704	0.052699	0.022533	0.095885	0.11741	0.13174	0.14789	0.21512	0.14197	0.26853	-2.9854	-2.9062	-3.4688	-3.2062	-3.1521	-3.6083	-3.0938	-3.3042	-3.4917	-2.9938	-3.4458	-3.25	-3.2646	-3.7062	-3.1646	-3.4188	188.546	141.530	-54.985	-69.430	147.749	-35.768	265.839	184.826	139.584	54.296	22.932	148.168	246.469	226.634	-69.217	258.211	0.00041371	0.00043184	0.00012517	713.73	2.2466e-05	5.4254e-06	646.54	254.43	2.6931e-06	5.1263e-06	214.34	94.348	118.95	59.057	6.3584e-06	47.329	0.00011275	7.461e-05	2.1352e-05	674.87	1.0959e-05	7.9424e-07	608.16	241.93	8.8972e-07	8.0698e-07	216.12	88.885	112.76	56.618	8.921e-07	46.331	-3.878	1.045	38.300	-65.068	5.132	99.542	-67.710	-59.745	112.838	40.581	-62.979	-60.615	-56.972	-52.009	82.049	-57.565	-8191	255	
2647.654	1	1	0	0	0.057111	0.2024	0.20651	0.19618	0.11452	0.22006	0.11821	0.0036305	0.11944	0.18051	0.22562	0.17974	0.15782	0.2199	0.099339	0.092856	-2.9542	-3.1042	-3.4229	-3.5208	-3.0958	-3.3896	-3.175	-3.3146	-3.4042	-3.0354	-3.4521	-3.3396	-3.2396	-3.575	-3.0438	-3.3521	144.815	257.949	-63.565	-51.168	-59.549	-51.949	23.295	121.194	-61.722	40.303	267.057	209.572	239.449	251.170	177.050	223.475	0.0003999	0.00036875	0.0001162	718.38	4.8808e-05	5.3513e-06	638.94	252.42	6.883e-06	5.9872e-06	207.93	91.954	116.96	58.012	3.0233e-06	46.06	0.0001153	7.8597e-05	2.5858e-05	675.84	1.9364e-05	7.9749e-07	601.94	239.05	8.7244e-07	7.8761e-07	204.35	86.557	110.79	55.592	8.6325e-07	45.963	-4.947	11.612	26.024	-65.096	25.564	100.605	-67.468	-59.554	104.409	66.606	-63.481	-60.718	-56.967	-52.104	42.778	-57.751	-8191	255	
2647.750	1	1	0	0	0.071222	0.047234	0.24029	0.25961	0.071469	0.15716	0.2444	0.12094	0.1077	0.11615	0.054822	0.53735	0.21504	0.081534	0.13327	0.085891	-3.0208	-3.1208	-3.2687	-3.1833	-3.1521	-3.3854	-3.1792	-3.3375	-3.35	-3.0542	-3.3854	-3.4875	-3.0604	-3.5417	-3.2354	-3.1458	33.887	179.353	247.937	-44.576	118.300	253.115	223.580	156.124	208.649	249.595	214.551	241.833	-69.279	231.008	175.118	93.565	0.00040569	0.0005473	0.00013383	710.66	2.7988e-05	4.7218e-06	636.89	251.05	2.7943e-06	5.7197e-06	208.94	92.977	117.47	58.58	2.349e-06	46.571	0.00011738	7.2603e-05	2.2544e-05	668.74	4.6519e-06	5.6388e-06	598.99	238.56	8.6502e-07	7.712e-07	212.12	87.453	111.4	56.064	8.9891e-07	45.445	-7.026	1.729	-4.555	-65.218	29.531	61.053	-67.832	-59.533	67.372	54.574	-62.920	-60.510	-57.204	-52.223	74.199	-57.488	-8191	255	
2647.869	1	1	0	0	0.17363	0.12833	0.30319	0.2379	0.30328	0.16254	0.29026	0.15288	0.076663	0.21179	0.10024	0.28054	0.28706	0.33755	0.36555	0.13535	-3.1167	-3.1917	-3.1854	-3.4396	-2.7792	-3.5729	-3.3417	-3.2104	-3.55	-3.0604	-3.3896	-3.5229	-3.0104	-3.6813	-3.2208	-3.1333	158.606	43.640	-65.918	-54.203	219.268	-35.766	-73.139	219.548	281.794	12.761	153.844	-56.795	145.573	-51.504	134.186	125.417	0.00041559	0.00054935	7.3136e-05	709.21	4.065e-06	5.5653e-05	640.9	253.73	2.7823e-06	3.2441e-06	212.74	93.12	118.13	59.202	4.3818e-06	47.357	0.00011537	7.3379e-05	2.4225e-05	671.5	8.9231e-07	2.0163e-05	603.9	240.48	8.7887e-07	7.8998e-07	207.83	87.979	112.08	56.462	9.0152e-07	46.784	-4.247	7.292	18.114	-65.357	76.348	29.705	-67.804	-59.925	58.505	61.319	-63.445	-60.372	-57.046	-52.044	81.420	-57.474	-8191	255	
2647.965	1	1	0	0	0.068388	0.21002	0.12115	0.25378	0.24525	0.19894	0.26275	0.28352	0.19099	0.11461	0.15451	0.1322	0.22384	0.15555	0.047363	0.1574	-3.2687	-2.9938	-3.2854	-3.6042	-2.9625	-3.3646	-3.3417	-3.1562	-3.5208	-3.2271	-3.2917	-3.5583	-2.9625	-3.5229	-3.3083	-3.175	-46.633	71.058	229.822	36.560	245.443	-32.216	247.155	252.788	49.238	79.466	-51.538	-19.501	-71.986	-65.636	209.235	147.711	0.00036689	0.00035505	0.00015277	713.42	3.2644e-06	3.1355e-05	644.83	257.18	5.0035e-06	2.6278e-06	214.92	93.622	118.32	59.064	3.1927e-06	47.381	0.00012346	7.4128e-05	2.2294e-05	674.87	8.1484e-07	1.1125e-05	607.85	242.74	8.7844e-07	7.4489e-07	216.9	88.943	112.49	56.483	9.1137e-07	45.154	-6.911	16.216	20.816	-65.133	67.316	44.117	-67.593	-59.632	57.879	64.330	-62.778	-60.627	-57.233	-52.248	46.010	-57.284	-8191	255	
2648.061	1	1	0	0	0.098794	0.1791	0.19117	0.11178	0.14549	0.13243	0.12553	0.16904	0.042063	0.098827	0.058262	0.11789	0.051866	0.24428	0.10643	0.068286	-3.0646	-3.0604	-3.25	-3.6125	-2.9979	-3.4813	-3.3542	-3.0458	-3.5042	-3.3021	-3.2667	-3.5708	-3.2062	-3.6292	-3.4125	-3.2021	203.590	36.300	37.425	203.563	169.293	53.255	156.370	155.471	83.341	144.489	103.801	133.778	-13.198	-69.371	106.414	176.297	0.0010551	0.00043936	0.00011919	710.67	3.1565e-06	5.8556e-05	634.77	252.8	3.6085e-06	5.9225e-06	208.9	92.443	117.11	58.315	3.0379e-06	46.59	0.00054923	7.2122e-05	2.3097e-05	668.51	8.6979e-07	2.0131e-05	599.06	238.96	9.504e-07	7.8643e-07	205.15	86.897	110.83	55.796	9.3645e-07	44.089	-7.731	23.877	8.484	-65.114	39.018	41.532	-67.502	-59.542	71.672	84.885	-62.996	-60.875	-56.811	-52.034	95.837	-57.519	-8191	255	
2648.158	1	1	0	0	0.078065	0.2268	0.14994	0.18871	0.23223	0.19104	0.036885	0.065914	0.013998	0.24229	0.25775	0.22556	0.15791	0.15145	0.11817	0.11494	-2.9062	-3.2729	-2.975	-3.6437	-3.1917	-3.2708	-3.4	-3.0479	-3.5021	-3.2292	-3.1833	-3.5062	-3.2125	-3.2438	-3.475	-3.0479	241.473	199.451	-21.265	231.481	140.019	229.173	274.741	136.841	111.421	77.106	138.155	230.536	272.128	182.070	-2.226	272.947	0.0021916	0.00031518	8.8833e-05	708.72	4.8383e-06	2.9795e-05	638.47	252.61	6.3302e-06	4.6612e-06	213.63	93.114	117.05	58.524	5.2324e-06	46.996	0.0016604	7.073e-05	2.3011e-05	669.79	9.0795e-07	1.1206e-05	602.19	239.98	9.7097e-07	7.9752e-07	212.63	87.961	111.41	56.142	9.4413e-07	44.579	25.653	16.625	3.188	-64.900	76.962	44.842	-67.879	-59.955	82.491	54.265	-63.494	-60.722	-56.982	-51.978	59.108	-57.303	-8191	255	
2648.254	1	1	0	0	0.12302	0.20595	0.10023	0.27418	0.078784	0.075277	0.072337	0.12212	0.21866	0.01663	0.1783	0.15806	0.12961	0.14611	0.31225	0.26618	-3.0729	-3.2188	-2.8708	-3.5292	-3.0375	-3.4229	-3.5021	-3.1583	-3.3542	-3.3604	-3.0021	-3.5833	-3.2354	-3.2188	-3.5167	-2.8979	252.942	132.663	-12.690	250.100	46.089	-12.155	270.575	100.250	31.141	90.237	36.529	215.079	239.308	200.568	49.270	186.172	0.001067	0.00040697	7.6804e-05	710.74	4.2379e-06	6.6654e-05	641.49	255.31	4.3243e-06	3.1623e-06	214.45	93.872	118.8	59.009	4.6588e-06	47.295	0.00093017	7.1546e-05	2.2256e-05	671.51	8.2575e-07	2.0099e-05	604.57	241.28	9.3927e-07	7.9367e-07	203.23	89.928	112.1	56.42	9.1369e-07	44.943	33.594	13.649	13.800	-65.019	61.326	49.885	-67.806	-59.931	76.439	58.881	-63.790	-60.538	-57.126	-51.988	45.376	-57.172	-8191	255	
2648.350	1	1	0	0	0.11841	0.038471	0.020255	0.12589	0.14837	0.25825	0.16157	0.083264	0.15878	0.16847	0.10447	0.041761	0.28665	0.09757	0.18719	0.1289	-2.8667	-3.2917	-3.0375	-3.425	-3.2667	-3.025	-3.5792	-3.1896	-3.4333	-3.4229	-2.9875	-3.4479	-3.3271	-3.0604	-3.3208	-3.0021	119.528	168.664	253.929	-76.216	107.578	249.291	227.059	252.837	181.040	189.560	174.669	204.188	221.481	-55.758	-43.362	248.914	0.0020872	0.00040374	9.1485e-05	713.44	3.9095e-06	4.0782e-05	645.31	255.56	4.6407e-06	4.4757e-06	209.66	91.597	117.09	58.138	4.0125e-06	46.386	0.0016492	7.3165e-05	1.9955e-05	674.67	9.2358e-07	1.09e-05	607.97	241.71	1.0431e-06	7.5553e-07	198.53	91.635	110.86	55.664	9.076e-07	43.917	47.189	24.580	27.378	-65.417	86.962	69.129	-67.618	-59.879	93.564	72.159	-63.863	-59.866	-56.613	-52.179	73.192	-57.453	-8191	255	
2648.470	1	1	0	0	0.057094	0.0073488	0.15713	0.12682	0.13262	0.20207	0.24795	0.13806	0.31372	0.31217	0.13744	0.1927	0.12965	0.24874	0.024857	0.10109	-2.8333	-3.4688	-3.025	-3.5875	-3.1437	-3.1937	-3.4917	-3.05	-3.3604	-3.6271	-3.1437	-3.4688	-3.2729	-3.1104	-3.5042	-3.1458	228.846	-39.899	93.379	98.396	11.931	-7.958	180.219	-63.551	267.131	-18.109	-36.097	276.114	278.630	277.041	189.161	13.067	0.0010759	0.00059379	0.00010287	701.44	1.7004e-06	6.9128e-05	631.6	250.41	4.3674e-06	4.8901e-06	207.45	91.367	117.03	58.382	4.1428e-06	46.641	0.00091812	7.1118e-05	2.0452e-05	664.91	8.2044e-07	1.6957e-05	596.24	237.73	9.6625e-07	7.1887e-07	196.49	89.128	110.7	55.774	1.0033e-06	44.213	42.662	-0.695	14.288	-65.102	69.967	46.632	-67.679	-59.880	86.686	46.911	-63.827	-60.546	-57.097	-52.171	37.053	-57.509	-8191	255	
2648.567	1	1	0	0	0.10751	0.09025	0.039992	0.051696	0.2054	0.045901	0.03376	0.28581	0.31211	0.19893	0.34545	0.054491	0.14645	0.055892	0.083816	0.18458	-2.7375	-3.4437	-2.9792	-3.5542	-3.3792	-2.975	-3.6729	-3.2125	-3.3979	-3.4854	-3.1479	-3.3896	-3.4771	-2.9813	-3.475	-3.1208	141.569	144.819	15.570	133.546	30.320	142.230	65.019	200.705	-74.216	-15.251	192.444	200.830	264.362	137.218	45.323	155.863	0.0017655	0.00039197	9.3644e-05	709.62	3.9871e-06	3.4945e-05	637.96	252.06	5.0325e-06	3.7643e-06	211.28	92.061	117.53	58.645	5.3986e-06	47.149	0.0016353	7.4409e-05	2.0829e-05	670	8.4927e-07	3.3406e-06	610.26	239.25	9.961e-07	8.2649e-07	199.41	92.354	111.67	56.164	9.7225e-07	44.661	52.739	12.199	-11.085	-65.186	88.989	52.614	-67.624	-59.564	71.429	61.137	-64.020	-60.412	-57.098	-52.004	71.705	-57.551	-8191	255	
2648.663	1	1	0	0	0.29164	0.15931	0.18994	0.10786	0.091547	0.27008	0.26146	0.12938	0.20188	0.15036	0.069886	0.32969	0.17873	0.22834	0.063357	0.14046	-2.5438	-3.5563	-3.1312	-3.4646	-3.4625	-3.05	-3.625	-3.3917	-3.0979	-3.4292	-2.9979	-3.325	-3.4188	-3.1021	-3.4229	-3.1604	188.150	8.039	11.653	-58.727	1.014	254.476	164.304	246.364	256.448	22.743	10.519	177.706	221.470	-14.595	264.568	-58.152	0.0010218	0.00041316	0.00010031	715.03	3.6638e-06	4.5706e-06	647.22	255.06	8.4099e-06	4.5245e-06	214.7	93.842	118.52	58.794	5.5929e-06	47.501	0.00096923	7.0583e-05	2.0597e-05	674.65	8.1613e-07	8.0887e-07	630.84	241.76	9.7268e-07	7.7845e-07	201.33	91.316	112.51	56.457	1.0585e-06	45.023	55.498	13.307	6.264	-65.098	65.615	75.370	-67.093	-59.936	104.881	40.392	-63.855	-60.261	-57.139	-52.024	99.847	-57.389	-8191	255	
2648.757	1	1	0	0	0.30374	0.14026	0.1634	0.068222	0.22196	0.25929	0.26442	0.14016	0.20283	0.096948	0.093186	0.087614	0.30244	0.2609	0.14556	0.15465	-2.6146	-3.3688	-3.1729	-3.3812	-3.3	-2.9896	-3.5042	-3.1604	-2.9917	-3.5875	-3.2896	-3.3625	-3.4688	-2.9604	-3.4521	-3.3333	176.155	177.581	201.003	112.421	225.238	63.937	255.663	72.661	61.772	145.048	-58.451	228.419	224.203	219.723	122.590	-75.427	0.001205	0.0020663	0.00011553	710.45	3.4475e-06	3.4988e-06	638.48	252.15	6.3724e-06	4.4817e-06	207.02	91.385	116.73	58.127	4.6429e-06	46.392	0.0013939	0.00012456	2.1572e-05	671.6	8.4927e-07	7.9143e-07	610.87	238.9	9.5512e-07	8.2413e-07	195.95	91.121	110.49	55.585	9.6819e-07	43.874	96.753	212.278	9.814	-65.134	77.904	73.866	-67.559	-59.713	59.950	63.977	-64.158	-60.542	-57.052	-51.896	78.399	-56.969	-8191	255	
#DATA ENDS
