BOXY.EXE: ISS Imagent and Oximeter Data Acquisition Program Version 0.80
Ascii Record File

#ACQ INFORMATION
2  Detector Channels 
16  External MUX Channels 
1  Auxiliary Channels 
5000  Waveform (CCF) Frequency (Hz)
1  Waveforms Skipped 
30  Waveforms Averaged 
1  Cycles Averaged 
16  Acquisitions per Waveform 
10.0806  Updata Rate (Hz) 

#FILE INFORMATION
TRUE -- External MUX Channel results are PARSED.
FALSE -- AC DC and Phase are NOT grouped.
TRUE -- Companion Program Settings File CREATED.
FALSE -- AC data not excluded
FALSE -- DC data not excluded
FALSE -- Phase data not excluded
FALSE -- Auxillary Chn. data not excluded
Tab delimiters

#CALIBRATION STATE
TRUE -- Waveform Calibration Values APPLIED.


#AUX CALIBRATION VALUES
Val Type	aux-1	

Term	1.0000e+00	
Factor	0.0000e+00	


#WF CALIBRATION VALUES
A = Detector Channel
Val Type	A-AC1	A-AC2	A-AC3	A-AC4	A-AC5	A-AC6	A-AC7	A-AC8	A-AC9	A-AC10	A-AC11	A-AC12	A-AC13	A-AC14	A-AC15	A-AC16	A-DC1	A-DC2	A-DC3	A-DC4	A-DC5	A-DC6	A-DC7	A-DC8	A-DC9	A-DC10	A-DC11	A-DC12	A-DC13	A-DC14	A-DC15	A-DC16	A-Ph1	A-Ph2	A-Ph3	A-Ph4	A-Ph5	A-Ph6	A-Ph7	A-Ph8	A-Ph9	A-Ph10	A-Ph11	A-Ph12	A-Ph13	A-Ph14	A-Ph15	A-Ph16	

Term	0.00000e+00	0.00000e+00	0.00000e+00	0.00000e+00	0.00000e+00	0.00000e+00	0.00000e+00	0.00000e+00	0.00000e+00	0.00000e+00	0.00000e+00	0.00000e+00	0.00000e+00	0.00000e+00	0.00000e+00	0.00000e+00	0.00000e+00	0.00000e+00	0.00000e+00	0.00000e+00	0.00000e+00	0.00000e+00	0.00000e+00	0.00000e+00	0.00000e+00	0.00000e+00	0.00000e+00	0.00000e+00	0.00000e+00	0.00000e+00	0.00000e+00	0.00000e+00	0.00000e+00	0.00000e+00	0.00000e+00	0.00000e+00	0.00000e+00	0.00000e+00	0.00000e+00	0.00000e+00	0.00000e+00	0.00000e+00	0.00000e+00	0.00000e+00	0.00000e+00	0.00000e+00	0.00000e+00	0.00000e+00	
Factor	1.00000e+00	1.00000e+00	1.00000e+00	1.00000e+00	1.00000e+00	1.00000e+00	1.00000e+00	1.00000e+00	1.00000e+00	1.00000e+00	1.00000e+00	1.00000e+00	1.00000e+00	1.00000e+00	1.00000e+00	1.00000e+00	1.00000e+00	1.00000e+00	1.00000e+00	1.00000e+00	1.00000e+00	1.00000e+00	1.00000e+00	1.00000e+00	1.00000e+00	1.00000e+00	1.00000e+00	1.00000e+00	1.00000e+00	1.00000e+00	1.00000e+00	1.00000e+00	X	X	X	X	X	X	X	X	X	X	X	X	X	X	X	X	

B = Detector Channel
Val Type	B-AC1	B-AC2	B-AC3	B-AC4	B-AC5	B-AC6	B-AC7	B-AC8	B-AC9	B-AC10	B-AC11	B-AC12	B-AC13	B-AC14	B-AC15	B-AC16	B-DC1	B-DC2	B-DC3	B-DC4	B-DC5	B-DC6	B-DC7	B-DC8	B-DC9	B-DC10	B-DC11	B-DC12	B-DC13	B-DC14	B-DC15	B-DC16	B-Ph1	B-Ph2	B-Ph3	B-Ph4	B-Ph5	B-Ph6	B-Ph7	B-Ph8	B-Ph9	B-Ph10	B-Ph11	B-Ph12	B-Ph13	B-Ph14	B-Ph15	B-Ph16	

Term	0.00000e+00	0.00000e+00	0.00000e+00	0.00000e+00	0.00000e+00	0.00000e+00	0.00000e+00	0.00000e+00	0.00000e+00	0.00000e+00	0.00000e+00	0.00000e+00	0.00000e+00	0.00000e+00	0.00000e+00	0.00000e+00	0.00000e+00	0.00000e+00	0.00000e+00	0.00000e+00	0.00000e+00	0.00000e+00	0.00000e+00	0.00000e+00	0.00000e+00	0.00000e+00	0.00000e+00	0.00000e+00	0.00000e+00	0.00000e+00	0.00000e+00	0.00000e+00	4.69284e+01	-1.27582e+02	-1.30931e+02	-1.83936e+02	-7.62020e+01	-6.69807e+01	-1.56989e+02	-1.62015e+02	-5.22494e+01	-7.94096e+01	-1.78987e+02	-1.72875e+02	-1.82137e+02	-1.78866e+02	-7.23244e+01	-1.51154e+02	
Factor	6.73214e-05	1.82383e-04	5.06034e-05	1.89429e-01	1.93940e-06	2.29934e-06	1.72175e-01	6.05181e-02	3.16237e-06	2.20276e-06	1.07814e-01	3.31898e-02	2.86066e-02	1.08537e-02	2.29806e-06	1.49911e-02	5.72136e-06	6.42153e-06	1.79335e-06	9.47223e-02	6.88599e-08	7.09668e-08	8.12099e-02	3.03370e-02	6.85387e-08	7.09561e-08	5.23066e-02	1.61085e-02	1.44478e-02	5.47581e-03	6.95704e-08	7.34234e-03	X	X	X	X	X	X	X	X	X	X	X	X	X	X	X	X	



#DISTANCE SETTINGS
A = Detector Channel
A-1	A-2	A-3	A-4	A-5	A-6	A-7	A-8	A-9	A-10	A-11	A-12	A-13	A-14	A-15	A-16	

2.5000e+00	3.0000e+00	2.5000e+00	3.0000e+00	2.0000e+00	3.0000e+00	1.5000e+00	3.0000e+00	3.0000e+00	3.0000e+00	3.0000e+00	3.0000e+00	3.0000e+00	3.0000e+00	1.5000e+00	3.0000e+00	

B = Detector Channel
B-1	B-2	B-3	B-4	B-5	B-6	B-7	B-8	B-9	B-10	B-11	B-12	B-13	B-14	B-15	B-16	

1.0000e+01	1.0000e+01	1.0000e+01	1.4400e+00	1.0000e+01	1.0000e+01	1.5100e+00	1.9400e+00	1.0000e+01	1.0000e+01	1.9900e+00	2.4900e+00	2.4100e+00	2.9000e+00	1.0000e+01	2.9800e+00	




#DATA BEGINS
time	group	step	mark	flag	A-AC1	A-AC2	A-AC3	A-AC4	A-AC5	A-AC6	A-AC7	A-AC8	A-AC9	A-AC10	A-AC11	A-AC12	A-AC13	A-AC14	A-AC15	A-AC16	A-DC1	A-DC2	A-DC3	A-DC4	A-DC5	A-DC6	A-DC7	A-DC8	A-DC9	A-DC10	A-DC11	A-DC12	A-DC13	A-DC14	A-DC15	A-DC16	A-Ph1	A-Ph2	A-Ph3	A-Ph4	A-Ph5	A-Ph6	A-Ph7	A-Ph8	A-Ph9	A-Ph10	A-Ph11	A-Ph12	A-Ph13	A-Ph14	A-Ph15	A-Ph16	B-AC1	B-AC2	B-AC3	B-AC4	B-AC5	B-AC6	B-AC7	B-AC8	B-AC9	B-AC10	B-AC11	B-AC12	B-AC13	B-AC14	B-AC15	B-AC16	B-DC1	B-DC2	B-DC3	B-DC4	B-DC5	B-DC6	B-DC7	B-DC8	B-DC9	B-DC10	B-DC11	B-DC12	B-DC13	B-DC14	B-DC15	B-DC16	B-Ph1	B-Ph2	B-Ph3	B-Ph4	B-Ph5	B-Ph6	B-Ph7	B-Ph8	B-Ph9	B-Ph10	B-Ph11	B-Ph12	B-Ph13	B-Ph14	B-Ph15	B-Ph16	aux-1	digaux	

586.148	1	1	0	768	0.18322	0.080547	0.037951	0.07003	0.17318	0.080167	0.2105	0.21984	0.15295	0.081542	0.10996	0.064665	0.28497	0.31885	0.22108	0.064813	-2.8167	-3.5563	-3.1458	-3.5917	-3.6604	-3.2021	-3.6312	-3.3729	-3.1083	-3.6437	-3.2333	-3.5167	-3.3563	-3.1542	-3.5687	-3.4	-112.860	151.713	-48.660	146.538	88.557	149.384	-157.495	98.323	109.233	-120.133	-3.732	-2.499	137.246	108.141	82.795	0.640	0.00088444	0.00031574	0.00011769	1441.2	3.3234e-06	6.5093e-06	1504.9	290.26	8.4867e-06	4.549e-06	354.7	102.15	81.108	23.259	9.9748e-06	31.352	0.0007636	0.00078269	0.00021754	1431.5	8.5342e-06	8.4421e-06	1497.7	290.09	8.2476e-06	8.2481e-06	356.06	103.34	81.919	23.863	8.039e-06	32.467	20.273	-54.922	-12.208	-157.490	-51.358	-6.567	-157.680	-150.745	10.313	-14.835	-150.657	-145.159	-144.544	-137.327	1.160	-137.618	-8191	255	
586.244	1	1	0	0	0.14789	0.13336	0.26682	0.21964	0.1165	0.30714	0.37499	0.11088	0.16461	0.0481	0.17265	0.07062	0.17695	0.35976	0.19246	0.19296	-3.0271	-3.6437	-3.1771	-3.6	-3.5438	-3.0958	-3.6937	-3.5354	-3.3208	-3.6521	-3.3458	-3.4771	-3.5875	-3.2917	-3.4646	-3.3521	-71.547	-39.938	-59.267	17.435	-44.877	-163.292	141.107	80.224	-120.692	-146.309	-98.334	39.468	114.276	137.765	-60.134	5.690	0.00084853	0.00032785	0.00014967	1436.7	6.1126e-06	8.6989e-06	1505.4	289.25	9.3126e-06	3.5696e-06	354.29	102.31	81.075	23.267	8.1033e-06	31.769	0.00072382	0.00075066	0.00021171	1429.5	8.2666e-06	8.4572e-06	1496.6	289.7	8.4431e-06	8.3807e-06	356.71	103.44	82.164	23.961	8.3845e-06	32.651	26.393	-71.804	-47.570	-157.460	-52.467	9.921	-157.547	-150.761	-49.374	-49.600	-151.045	-145.019	-144.542	-137.364	-19.655	-137.453	-8191	255	
586.340	1	1	0	0	0.10666	0.24293	0.32999	0.15011	0.0090507	0.32743	0.41885	0.2231	0.20891	0.11923	0.32639	0.20087	0.04114	0.22217	0.10866	0.19649	-2.7104	-3.775	-3.2521	-3.6771	-3.4625	-3.0854	-3.6604	-3.4125	-3.0062	-3.5771	-3.2833	-3.2458	-3.6896	-3.1354	-3.2875	-3.5938	185.997	73.897	48.311	167.840	-29.687	-56.776	118.772	75.605	46.653	-21.596	177.240	68.909	22.853	157.528	-107.602	-4.689	0.00077691	0.00053053	0.00021027	1442.5	8.1574e-06	5.0208e-06	1513.7	290.08	1.2948e-05	7.3444e-06	351.76	102.17	81.077	23.242	6.722e-06	31.358	0.00075074	0.00078723	0.00022187	1435	8.7399e-06	8.783e-06	1504	290.94	8.6256e-06	8.6018e-06	355.74	103.52	82.246	23.953	8.2593e-06	32.648	17.577	-113.753	-55.162	-157.392	-40.576	34.012	-157.703	-150.720	-13.402	27.926	-151.164	-144.826	-144.642	-137.130	-61.803	-137.391	-8191	255	
586.436	1	1	0	0	0.19971	0.087906	0.091237	0.15529	0.11295	0.062669	0.24021	0.27164	0.17633	0.057721	0.09224	0.16429	0.12163	0.17356	0.15662	0.12143	-2.8375	-3.5229	-3.2938	-3.2875	-3.8271	-3.3833	-3.6875	-3.5417	-3.0167	-3.7271	-3.3667	-3.2021	-3.5917	-3.1417	-3.3146	-3.5146	-102.581	153.319	-100.318	10.037	-25.678	-106.824	56.430	179.338	-160.003	2.024	125.029	-8.479	-55.155	179.403	191.042	149.545	0.00088396	0.00049043	0.00020582	1442.3	3.6576e-06	6.2706e-06	1507.4	289.51	1.5706e-05	7.7811e-06	354.11	101.98	81.221	23.118	7.6062e-06	31.118	0.00074	0.00076147	0.0002143	1430.8	8.3325e-06	8.4634e-06	1497.8	289.74	8.2913e-06	8.2773e-06	356.3	103.25	81.901	23.845	8.3724e-06	32.439	19.214	-77.019	-55.973	-157.427	-86.756	28.656	-157.587	-150.674	-39.007	0.597	-150.964	-144.588	-144.432	-137.058	13.171	-137.626	-8191	255	
586.532	1	1	0	0	0.1492	0.15236	0.14953	0.15374	0.23725	0.19522	0.14841	0.233	0.044348	0.18973	0.070509	0.097768	0.19244	0.17193	0.28344	0.43145	-2.725	-3.3833	-3.1688	-3.1833	-3.5521	-3.2583	-3.5458	-3.7062	-3.1	-3.5563	-3.5104	-3.1833	-3.6125	-3.1937	-3.1854	-3.6125	-50.151	73.408	110.684	134.483	-113.312	86.652	99.038	131.146	8.729	-3.422	-1.496	161.162	166.951	168.469	112.963	-136.091	0.00088797	0.00084839	0.00018339	1440.6	1.9898e-06	9.2415e-06	1506.8	289.52	1.2211e-05	1.4992e-06	352.38	101.95	80.888	23.097	9.7697e-06	31.412	0.00074541	0.00077489	0.00021914	1431.8	8.564e-06	8.7759e-06	1500.1	290.58	8.7675e-06	8.7297e-06	357.11	103.68	82.125	23.988	8.6488e-06	32.677	11.885	-83.583	-72.942	-157.427	-8.337	3.397	-157.635	-150.828	-53.197	-1.236	-150.788	-145.079	-144.602	-137.084	-15.571	-137.576	-8191	255	
586.628	1	1	0	0	0.19132	0.055032	0.032559	0.22192	0.17728	0.10797	0.31921	0.26213	0.084138	0.22541	0.31718	0.26201	0.17688	0.083666	0.28843	0.1936	-2.5438	-3.3	-3.5458	-3.1854	-3.4583	-3.2188	-3.4583	-3.725	-3.1583	-3.3979	-3.5187	-3.1188	-3.6813	-3.4229	-3.3187	-3.7604	31.008	-133.615	-36.312	179.211	-43.650	-47.869	157.595	99.610	161.798	60.097	121.561	-142.693	157.877	94.826	0.988	65.134	0.00085788	0.0003832	0.00011951	1439.9	4.1765e-06	4.2215e-06	1505.7	290.41	8.7838e-06	4.0737e-06	354.71	101.86	81.788	23.277	2.3733e-06	31.606	0.0007723	0.00080307	0.00022396	1434.5	8.8495e-06	8.978e-06	1501.9	291.31	8.9367e-06	9.0447e-06	357.74	103.67	82.59	24.113	9.204e-06	32.751	22.878	-89.334	-105.573	-157.427	-59.205	33.181	-157.812	-150.794	-57.738	-3.245	-151.115	-144.929	-144.616	-137.216	-62.190	-137.606	-8191	255	
586.749	1	1	0	0	0.037384	0.17645	0.12226	0.10969	0.20382	0.11627	0.068207	0.45728	0.086737	0.065863	0.30531	0.074418	0.17802	0.41035	0.30499	0.10279	-2.8396	-3.4729	-3.4375	-3.1646	-3.5458	-3.3833	-3.6437	-3.7021	-3.3375	-3.3396	-3.675	-3.2188	-3.5583	-3.5896	-3.1562	-3.6521	-113.345	-61.908	112.943	175.559	101.900	125.859	-168.834	156.594	-62.245	163.047	127.715	173.397	-147.608	37.602	-160.618	143.992	0.00078895	0.00060242	4.8375e-05	1449.9	8.1745e-06	2.1922e-06	1512	290.61	8.155e-06	1.1851e-06	355.94	102.35	81.549	23.289	5.9818e-06	31.66	0.00080498	0.00083535	0.00023414	1437.9	9.0985e-06	9.1541e-06	1505	291.27	9.0098e-06	9.2933e-06	358.67	103.96	82.63	24.103	9.392e-06	32.839	12.798	-61.753	37.148	-157.524	-71.943	-131.158	-157.717	-150.982	-36.200	-131.432	-150.995	-144.841	-144.261	-137.116	-70.946	-137.923	-8191	255	
586.845	1	1	0	0	0.20577	0.20158	0.17544	0.10384	0.18015	0.28404	0.087821	0.07845	0.18351	0.14414	0.066662	0.32688	0.040053	0.23275	0.26321	0.099485	-2.9208	-3.4313	-3.4167	-3.2271	-3.4562	-3.5208	-3.4354	-3.7792	-3.2167	-3.3625	-3.5687	-3.2167	-3.3958	-3.6063	-3.0479	-3.7062	-90.249	-64.790	10.654	186.417	84.341	-19.535	156.940	20.145	91.678	-114.650	-164.780	175.213	140.234	-54.722	88.564	170.318	0.00086026	0.00048834	0.0001445	1450.5	5.4952e-06	1.6591e-06	1518.9	291.89	1.531e-05	3.3171e-06	355.53	102.66	81.903	23.376	3.7167e-06	31.701	0.00083096	0.0008699	0.00024616	1441.2	9.6435e-06	9.7933e-06	1512.7	293.52	9.7382e-06	1.0069e-05	361.29	104.61	83.218	24.272	9.9397e-06	33.01	22.585	-134.287	-42.573	-157.669	-85.513	77.376	-157.657	-150.730	-42.543	-92.643	-150.920	-145.042	-144.290	-137.355	-10.123	-137.700	-8191	255	
586.939	1	1	0	0	0.18575	0.16941	0.10519	0.16684	0.096614	0.059715	0.075925	0.084606	0.17678	0.073371	0.19136	0.020102	0.075155	0.14295	0.1209	0.16177	-2.9375	-3.3417	-3.6458	-3.3125	-3.5	-3.5062	-3.3708	-3.625	-3.1896	-3.1958	-3.6917	-3.3729	-3.5438	-3.6604	-2.9667	-3.5458	-168.275	-24.023	-112.796	11.321	-90.238	-154.387	122.828	158.608	57.807	133.872	-29.716	119.698	188.399	179.490	131.157	111.325	0.00086471	0.00060654	0.00011401	1456	1.8768e-06	6.6849e-06	1534.1	293.31	4.6594e-06	4.975e-06	357.36	103.55	82.051	23.535	7.2288e-06	31.805	0.00086745	0.00091117	0.00025295	1451.8	1.0117e-05	1.0301e-05	1523.8	295.47	1.0328e-05	1.0554e-05	362.61	105.27	83.597	24.445	1.0666e-05	33.188	21.814	-94.262	-125.359	-157.333	-66.835	1.505	-157.688	-150.730	-19.792	-10.259	-150.572	-144.851	-144.635	-137.458	-38.142	-137.702	-8191	255	
587.037	1	1	0	0	0.098129	0.15159	0.13645	0.31233	0.1178	0.059019	0.34397	0.25006	0.31863	0.1128	0.20574	0.3102	0.075027	0.18709	0.35132	0.072321	-2.9521	-3.2625	-3.6333	-3.4979	-3.3479	-3.5812	-3.3479	-3.6833	-3.3333	-3.4188	-3.6146	-3.1917	-3.4208	-3.5646	-3.0771	-3.4542	-85.952	146.647	-131.458	170.245	-38.665	-46.362	115.210	116.431	158.264	-38.604	-112.917	-117.682	140.001	51.123	-62.973	103.380	0.00088453	0.00087422	0.00013384	1463.3	6.4892e-06	1.637e-06	1531.8	295.19	1.1446e-05	8.9544e-06	357.49	102.59	81.932	23.378	4.285e-06	31.76	0.00092609	0.0009837	0.00027053	1457.5	1.0545e-05	1.0779e-05	1527	296.35	1.0526e-05	1.0671e-05	362.63	105.07	83.527	24.337	1.0299e-05	33.069	20.683	-42.662	-70.202	-157.686	-51.322	156.918	-157.830	-150.751	2.933	-70.315	-151.247	-144.871	-144.418	-137.400	-26.499	-137.940	-8191	255	
587.132	1	1	0	0	0.17745	0.24361	0.12776	0.24337	0.23697	0.25358	0.22334	0.015709	0.026623	0.35799	0.088963	0.18962	0.23747	0.18299	0.090135	0.1449	-2.9792	-3.0771	-3.55	-3.3812	-3.15	-3.5312	-3.3271	-3.4938	-3.4854	-3.1437	-3.6646	-3.3271	-3.2375	-3.7	-3.2583	-3.3208	151.030	-106.828	-67.715	-152.634	-56.846	-161.831	108.218	56.289	-160.503	69.302	86.285	-119.241	-116.531	-109.007	168.604	48.261	0.00096491	0.000543	0.00011681	1461.4	4.5035e-06	5.5967e-06	1529	295.77	1.6329e-06	4.0411e-06	359.38	103.34	81.998	23.314	2.7978e-06	31.739	0.00090681	0.00094933	0.0002644	1457.4	1.0425e-05	1.061e-05	1526.6	296.86	1.0365e-05	1.0698e-05	363.32	105.09	83.425	24.275	1.0333e-05	33.03	28.420	-166.084	-152.567	-157.476	-68.627	-3.777	-157.639	-150.674	19.102	38.234	-150.820	-144.872	-144.801	-137.365	-65.536	-137.698	-8191	255	
587.228	1	1	0	0	0.085917	0.014286	0.21661	0.08471	0.14098	0.17831	0.32307	0.25748	0.20504	0.082438	0.090376	0.030398	0.12453	0.03012	0.21687	0.049298	-3.2771	-3.0604	-3.4771	-3.4646	-3.2021	-3.6375	-3.3479	-3.3354	-3.4458	-3.1729	-3.8812	-3.5354	-3.2625	-3.6604	-3.0708	-3.4917	158.482	122.986	-104.542	-106.962	-76.106	22.048	-160.411	186.344	-168.033	138.399	-50.806	-148.254	71.827	19.546	-87.053	28.032	0.0010064	0.00025677	0.00015171	1458.7	5.0526e-06	6.7734e-06	1527.1	292.41	6.6572e-06	3.6276e-06	357.72	102.94	81.756	23.411	7.4533e-06	31.728	0.00091115	0.00096328	0.00026599	1455.5	1.0438e-05	1.0391e-05	1526	296.17	1.0158e-05	1.0256e-05	362.54	104.89	83.333	24.287	9.8574e-06	32.972	16.755	-56.899	-29.975	-157.665	-96.181	-34.244	-157.651	-150.807	-66.590	-62.844	-151.000	-145.122	-144.519	-137.044	-34.359	-137.853	-8191	255	
587.324	1	1	0	0	0.13981	0.081405	0.20573	0.22019	0.13602	0.12323	0.12715	0.1688	0.12599	0.099428	0.14226	0.07106	0.17001	0.11129	0.099593	0.25613	-3.1	-2.9521	-3.3417	-3.5229	-3.1437	-3.6312	-3.3958	-3.3604	-3.5563	-3.0479	-3.5938	-3.3271	-3.0979	-3.5312	-3.3292	-3.2875	-73.958	34.281	-39.711	133.968	68.877	41.369	136.743	101.668	161.747	-158.081	152.385	176.661	-124.919	-140.679	135.480	91.623	0.00067646	0.00041658	0.00011554	1459.7	2.0118e-06	5.3183e-06	1527.6	293.67	9.0935e-06	6.8821e-06	357.21	102.38	81.267	23.268	6.1549e-06	31.491	0.00085971	0.00089509	0.00024458	1453.9	9.5708e-06	9.4569e-06	1521.4	295.07	9.3928e-06	9.4165e-06	359.9	104.14	82.569	24.041	8.6986e-06	32.621	13.396	-120.429	-75.122	-157.690	-82.463	-25.706	-157.881	-150.869	-45.642	-13.787	-151.000	-145.025	-144.546	-137.066	-81.501	-138.113	-8191	255	
587.445	1	1	0	0	0.20984	0.14873	0.17803	0.15887	0.15791	0.256	0.26914	0.27326	0.081797	0.03337	0.34247	0.071505	0.2031	0.22386	0.13257	0.17702	-3.2958	-3.0563	-3.3063	-3.7229	-3.0896	-3.5854	-3.5062	-3.4021	-3.7896	-3.1312	-3.6417	-3.4854	-3.1792	-3.5333	-3.5	-3.1333	-146.574	85.626	70.331	67.547	3.044	96.959	126.135	148.716	-17.600	-46.297	-166.964	68.532	82.215	-127.468	-103.182	181.239	0.00082357	6.0265e-05	0.00017623	1437.8	5.5906e-06	3.0374e-06	1496.5	286.93	7.4247e-06	7.5239e-06	348.96	100.99	79.788	22.821	6.1401e-06	30.945	0.00074362	0.00077668	0.00020813	1430.2	8.022e-06	7.994e-06	1489.1	288.49	7.6192e-06	7.7834e-06	353.07	102.19	80.892	23.548	8.0331e-06	32.124	24.688	-10.204	-92.026	-157.469	-53.322	36.913	-157.705	-150.688	-34.396	-29.383	-150.354	-144.966	-144.392	-136.710	-67.170	-137.900	-8191	255	
587.541	1	1	0	0	0.15846	0.20989	0.07578	0.43923	0.18943	0.10742	0.29678	0.19714	0.14917	0.12438	0.16474	0.25959	0.24456	0.076197	0.1109	0.24157	-3.2354	-3.1729	-3.3833	-3.6708	-3.25	-3.7917	-3.5021	-3.2792	-3.5479	-3.1917	-3.2854	-3.5938	-3.2917	-3.5521	-3.5771	-3.2854	84.647	57.206	81.110	101.166	144.801	-2.758	144.300	130.612	-30.945	-133.465	82.452	112.395	128.246	180.431	173.947	-84.556	0.00092983	0.00052192	0.00024125	1427.1	2.7848e-06	8.2224e-06	1492.5	289.53	7.147e-06	1.7605e-06	352.79	100.93	80.042	23.02	6.0293e-06	31.12	0.00070739	0.00075729	0.00021405	1419	8.3887e-06	8.5932e-06	1486.7	289.38	8.2672e-06	8.4881e-06	354.86	102.5	81.399	23.644	8.2073e-06	32.176	17.177	-90.399	-81.477	-157.432	-111.004	-36.025	-157.785	-150.614	-108.577	-81.607	-150.855	-144.818	-144.496	-137.108	-75.131	-137.437	-8191	255	
587.637	1	1	0	0	0.083423	0.19291	0.069468	0.32214	0.12145	0.17814	0.17224	0.13031	0.039648	0.10683	0.23504	0.075793	0.32594	0.082452	0.10241	0.22061	-3.2521	-3.0896	-3.3042	-3.75	-2.9646	-3.5354	-3.725	-3.2021	-3.6188	-3.3292	-3.225	-3.5187	-3.1208	-3.4729	-3.4042	-3.0521	98.946	-151.697	-45.550	135.429	84.834	12.514	151.194	-79.322	82.038	18.703	183.678	-136.077	-64.388	-27.185	-36.046	141.854	0.00085995	0.00071093	6.088e-05	1424	3.2257e-06	8.683e-06	1495.1	288.55	5.3582e-06	3.2212e-06	352.3	101.75	80.554	23.117	4.045e-06	31.288	0.00072298	0.00075196	0.00020716	1418.1	7.9436e-06	8.1933e-06	1486.1	288.75	8.3015e-06	8.6889e-06	356.22	103.43	81.943	23.879	9.4316e-06	32.628	23.687	-95.507	-158.894	-157.429	62.558	-8.231	-157.865	-150.865	-83.456	29.975	-150.795	-144.753	-144.689	-136.975	-10.927	-137.651	-8191	255	
587.709	1	1	0	0	0.28599	0.26425	0.11958	0.14896	0.35771	0.13586	0.090825	0.35834	0.19862	0.14126	0.11408	0.15319	0.12784	0.13155	0.27649	0.24981	-3.1896	-3.2562	-3.2083	-3.75	-3.1375	-3.5292	-3.7562	-3.1625	-3.6312	-3.2542	-3.2042	-3.6979	-3.1792	-3.4562	-3.5417	-3.2396	137.380	-91.747	56.255	107.983	183.641	-122.421	29.882	144.951	125.647	-101.421	-58.921	70.278	159.342	-27.453	-68.340	-16.039	0.00085497	0.00049046	0.000163	1464.1	1.5146e-06	2.408e-06	1528.1	294.5	6.1254e-06	6.3421e-06	357.88	103.53	82.298	23.755	3.9221e-06	32.071	0.00085981	0.00092259	0.000259	1457.9	1.0431e-05	1.0373e-05	1522.4	294.68	9.0027e-06	9.38e-06	362.08	104.91	83.835	24.543	9.4132e-06	33.244	10.004	-61.669	-45.729	-157.365	-86.436	81.333	-157.913	-150.606	1.011	48.852	-151.055	-145.325	-144.868	-137.480	39.187	-137.536	-8191	255	
587.829	1	1	0	0	0.16989	0.042043	0.29937	0.10071	0.3661	0.24177	0.32037	0.36649	0.16638	0.18058	0.16882	0.085646	0.19318	0.20227	0.13452	0.14207	-3.2125	-3.35	-3.0729	-3.8958	-3.2313	-3.2583	-3.7229	-3.2854	-3.6	-3.4979	-3.3125	-3.7917	-3.1792	-3.2521	-3.5625	-3.225	-98.913	158.194	-65.054	118.038	124.573	-28.904	171.311	130.428	41.455	-101.830	-128.553	-135.809	184.282	147.423	-59.027	83.486	0.00077928	0.00022637	0.0001161	1482.9	7.3756e-06	4.4484e-06	1556.8	302.3	1.3353e-05	5.1513e-06	368.46	106.88	85.589	24.695	1.2822e-05	33.539	0.00083479	0.00088444	0.00025011	1479.6	9.9283e-06	1.0342e-05	1555.5	304.59	1.119e-05	1.1947e-05	375.89	109.51	87.884	25.829	1.4086e-05	35.435	14.417	-156.520	-126.867	-157.687	17.562	20.154	-157.948	-151.014	5.839	-105.508	-151.181	-145.306	-144.886	-137.789	6.813	-138.179	-8191	255	
587.925	1	1	0	0	0.16889	0.18012	0.18331	0.24565	0.26273	0.17943	0.40023	0.14893	0.092457	0.075504	0.077078	0.12753	0.21491	0.18189	0.29171	0.051055	-3.0625	-3.3854	-3.2271	-3.7667	-3.2542	-3.3167	-3.8563	-3.2833	-3.4875	-3.4375	-3.1021	-3.6792	-3.4229	-3.2521	-3.6	-3.1729	182.885	62.602	-43.098	101.934	-49.752	85.351	119.908	57.587	153.440	-23.601	-19.593	145.382	-118.408	-152.081	8.562	-10.780	0.0010536	0.0010304	0.00011626	1531.9	7.1168e-06	6.7153e-06	1609.7	317.07	7.5316e-06	4.1418e-06	382.3	111.21	88.615	25.328	6.9285e-06	34.089	0.0012449	0.0013624	0.00038687	1535.3	1.5762e-05	1.6521e-05	1613.9	321.59	1.6318e-05	1.6705e-05	393	114.15	91.201	26.615	1.4645e-05	35.841	15.436	-46.942	-52.663	-157.600	-77.334	-97.702	-157.975	-150.959	-66.561	0.322	-151.431	-145.152	-144.786	-137.818	-36.508	-138.215	-8191	255	
588.020	1	1	0	0	0.25042	0.06552	0.24228	0.17932	0.24664	0.11354	0.077066	0.17211	0.024198	0.12548	0.29888	0.20867	0.31468	0.18607	0.12111	0.11009	-3.0292	-3.3271	-3.15	-3.7271	-3.3417	-3.3479	-3.7125	-3.3438	-3.3667	-3.6771	-3.1646	-3.6729	-3.5	-3.0792	-3.5896	-3.3083	-98.410	-129.507	112.029	-98.441	-163.949	177.880	12.329	149.110	-29.599	148.160	169.152	74.247	-116.194	-122.877	-29.833	189.081	0.0010255	0.00023268	0.00012545	1517.9	5.8641e-06	3.9974e-06	1574.5	311.98	8.1542e-06	2.2229e-06	372.2	107.77	85.809	24.464	6.7246e-06	33.339	0.0011747	0.0011872	0.00032677	1513.3	1.188e-05	1.174e-05	1571.7	313.56	1.1237e-05	1.1403e-05	379.69	109.84	87.29	25.443	1.1227e-05	34.842	19.710	-42.158	-58.820	-157.503	-79.340	-71.127	-157.730	-150.869	-104.521	-51.150	-150.805	-145.076	-144.700	-137.498	-26.960	-138.004	-8191	255	
588.118	1	1	0	0	0.27122	0.25838	0.097155	0.16389	0.02513	0.096968	0.2432	0.021303	0.083428	0.133	0.32073	0.11835	0.095435	0.099249	0.083808	0.1728	-2.8583	-3.4521	-3.0729	-3.7125	-3.5521	-3.1771	-3.9875	-3.2125	-3.3688	-3.7083	-3.3167	-3.6271	-3.4917	-3.2271	-3.4188	-3.375	100.276	-136.371	60.413	-125.042	42.656	120.362	148.827	-78.010	-151.089	139.651	-167.564	-162.833	-66.913	24.185	174.858	-103.289	0.00088973	0.00032046	0.00018179	1495.3	5.4151e-06	4.5519e-06	1561.7	308.22	1.2118e-05	6.4273e-06	369.95	105.7	84.182	24.103	6.9762e-06	32.971	0.00098447	0.0010394	0.00028634	1489.2	1.1053e-05	1.1069e-05	1556.8	310.23	1.0642e-05	1.0592e-05	374.92	108.05	85.627	24.939	9.4777e-06	34.231	19.348	-46.659	-64.540	-157.601	36.204	123.563	-157.733	-150.949	-43.428	-75.666	-150.797	-145.178	-144.667	-137.367	-20.148	-138.309	-8191	255	
588.237	1	1	0	0	0.19375	0.11051	0.19885	0.135	0.10732	0.081409	0.18971	0.16668	0.27954	0.079245	0.31501	0.062218	0.29529	0.14867	0.12947	0.15509	-3.2354	-3.7208	-3.1792	-3.5375	-3.5125	-3.1604	-3.8187	-3.5875	-3.1896	-3.6063	-3.1792	-3.4188	-3.3604	-3.1458	-3.4333	-3.4354	-87.544	-131.098	-76.265	104.411	52.189	-27.552	126.366	164.296	190.499	-168.751	-163.323	-135.333	-105.553	93.503	-90.214	-161.953	0.00087546	0.00055347	0.00017603	1466.3	6.5644e-06	1.1415e-05	1545.1	303.53	1.1028e-05	5.6758e-06	366.57	105.25	83.817	23.857	8.9688e-06	32.848	0.0008369	0.00086347	0.00024315	1464	9.8663e-06	9.977e-06	1537.6	304.3	9.7179e-06	9.9835e-06	370.84	107.31	85.228	24.745	9.3571e-06	33.953	19.670	-77.252	-97.685	-157.784	-91.428	7.476	-157.620	-150.807	-40.484	-30.304	-151.163	-144.985	-144.730	-137.423	17.253	-137.771	-8191	255	
588.308	1	1	0	0	0.078895	0.060976	0.020466	0.066863	0.21104	0.20141	0.061625	0.050635	0.048507	0.26134	0.028277	0.1252	0.23362	0.20042	0.11346	0.13045	-2.6583	-3.4417	-3.0812	-3.6146	-3.4792	-3.1583	-3.675	-3.45	-3.2188	-3.6917	-3.3292	-3.3604	-3.4771	-3.1292	-3.325	-3.4	-121.138	-77.280	110.646	-147.668	-14.216	-86.918	-164.967	82.406	32.049	140.922	70.943	120.306	114.844	111.146	144.664	-111.854	0.00092006	0.00065491	6.4841e-05	1465.8	1.0812e-06	1.631e-06	1528.7	300.71	1.2805e-05	6.5083e-06	366	105.5	83.63	23.991	6.1962e-06	32.693	0.00080726	0.00085156	0.00023708	1458.9	9.2574e-06	9.3707e-06	1527	301.74	9.6217e-06	9.861e-06	369.71	107.29	85.162	24.84	9.6993e-06	33.986	20.408	-46.231	-73.465	-157.437	103.056	39.970	-157.699	-150.960	-33.888	-27.319	-150.973	-145.106	-144.821	-137.603	-25.677	-137.867	-8191	255	
588.429	1	1	0	0	0.20417	0.03023	0.2325	0.072473	0.17528	0.08405	0.26314	0.082024	0.30104	0.018343	0.054036	0.332	0.083178	0.11206	0.087397	0.2487	-2.7646	-3.5375	-3.1917	-3.2208	-3.4479	-3.1125	-3.5833	-3.525	-3	-3.6854	-3.3271	-3.2104	-3.625	-3.3063	-3.2938	-3.4896	35.987	-32.186	53.455	75.612	81.149	79.704	140.933	68.575	-17.828	-20.875	-30.597	-159.344	-106.306	46.319	33.324	159.316	0.00078317	0.00034897	8.1256e-05	1453.2	2.6176e-06	2.2495e-06	1515.7	299.39	5.32e-06	7.1681e-06	359.82	103.88	82.308	23.606	7.1044e-06	32.159	0.00083522	0.00084957	0.00023064	1450.6	8.727e-06	8.8154e-06	1514.9	299.2	8.2321e-06	8.358e-06	362.43	105.39	83.203	24.183	7.5153e-06	33.189	19.923	-151.265	173.238	-157.404	4.680	-13.856	-157.711	-150.905	-36.584	40.538	-150.883	-145.096	-144.713	-137.469	-5.768	-137.503	-8191	255	
588.525	1	1	0	0	0.22244	0.035473	0.20643	0.29079	0.26034	0.21429	0.35111	0.096102	0.18716	0.30558	0.14911	0.14382	0.15333	0.063664	0.10698	0.13925	-2.7062	-3.2896	-3.1896	-3.2604	-3.5812	-3.1917	-3.4979	-3.5083	-2.8708	-3.5542	-3.525	-2.9958	-3.6063	-3.2479	-3.1833	-3.5521	33.982	-156.071	84.765	169.096	-134.986	-163.481	82.030	149.422	-82.099	-126.187	115.619	179.483	178.461	-21.333	46.388	-154.221	0.0009671	0.00047234	0.00011343	1418.7	5.7017e-06	7.2368e-06	1487.6	290.55	1.0772e-05	3.2624e-06	352.56	101.99	80.33	22.997	4.127e-06	31.732	0.00065378	0.00065871	0.00018466	1412.6	7.0593e-06	6.8363e-06	1481.6	290.37	6.7701e-06	6.8397e-06	354.19	103.13	81.204	23.675	6.4998e-06	32.598	14.786	-74.704	-51.123	-157.537	1.150	-9.750	-157.583	-150.653	-55.480	-20.038	-150.579	-144.947	-144.591	-137.205	50.656	-138.033	-8191	255	
588.621	1	1	0	0	0.10345	0.041987	0.25546	0.16675	0.31895	0.2665	0.26526	0.21323	0.17656	0.21929	0.16114	0.11012	0.26037	0.23381	0.24247	0.23134	-2.7896	-3.3542	-3.2875	-3.3479	-3.6083	-3.2458	-3.5271	-3.6167	-3.0312	-3.5125	-3.3667	-3.1917	-3.5792	-3.2833	-3.3104	-3.7771	-97.846	171.805	115.813	172.953	-166.776	60.752	94.094	102.478	-57.382	-14.092	-159.471	-53.356	139.567	103.150	191.045	133.389	0.00085076	0.00045894	2.8811e-05	1389	4.5383e-06	2.6149e-06	1450.2	281.1	4.4227e-06	4.5491e-06	341.26	99.772	78.578	22.502	6.8e-06	30.997	0.00056216	0.00055742	0.0001508	1383.7	5.7677e-06	5.4987e-06	1445.6	282.06	5.333e-06	5.225e-06	344.05	100.31	79.1	22.956	5.0546e-06	31.83	25.532	-92.992	-25.021	-157.520	-66.835	22.225	-157.425	-150.497	-62.606	-67.110	-150.461	-145.026	-144.188	-136.951	-19.505	-137.372	-8191	255	
588.717	1	1	0	0	0.04026	0.12907	0.097153	0.25793	0.050969	0.14087	0.225	0.11186	0.17037	0.30292	0.20669	0.17032	0.38519	0.22266	0.077826	0.15399	-2.7562	-3.3729	-3.3125	-3.4	-3.6604	-3.2625	-3.4813	-3.6896	-3.1562	-3.4625	-3.5896	-3.1917	-3.5229	-3.2583	-3.0167	-3.6792	169.021	7.144	-116.230	139.113	-65.240	124.466	111.654	130.013	-149.899	-15.125	25.222	-160.579	107.947	-156.807	-31.581	-50.930	0.00090161	0.00022171	0.00012219	1368.6	5.9981e-06	4.8334e-06	1431.8	279.23	8.0724e-06	3.335e-06	338.45	98.636	77.362	22.001	5.9258e-06	30.602	0.00046528	0.00046358	0.0001296	1356.4	5.1269e-06	5.1837e-06	1423.6	278.87	4.8985e-06	4.8327e-06	339.9	99.288	77.816	22.535	4.4412e-06	31.231	23.123	-101.406	-77.003	-157.544	-57.552	4.882	-157.551	-150.520	-58.453	40.884	-150.804	-144.530	-144.396	-136.761	27.217	-137.534	-8191	255	
588.838	1	1	0	0	0.525	0.17339	0.094712	0.33497	0.12953	0.038892	0.21336	0.23812	0.22518	0.1847	0.053754	0.13817	0.12086	0.15191	0.095752	0.2152	-2.6458	-3.4021	-3.2604	-3.0854	-3.4854	-3.4708	-3.2812	-3.6188	-3.1437	-3.5187	-3.5833	-3.175	-3.4583	-3.3583	-2.8812	-3.7104	-125.487	-117.790	-22.012	155.513	-160.029	93.281	170.311	129.870	-70.528	8.781	7.559	102.079	-128.499	-164.587	-65.133	-75.715	0.00077381	0.00027365	9.003e-05	1321.9	3.1827e-06	5.1115e-06	1394.4	271.28	1.1418e-05	7.0323e-06	330.87	96.647	75.695	21.675	4.6425e-06	30.028	0.00040133	0.00039072	0.00010792	1316.5	4.1725e-06	4.1258e-06	1381.5	270.18	4.0439e-06	3.9186e-06	331.47	96.92	75.998	22.144	3.9552e-06	30.623	19.342	-74.900	-130.448	-157.212	17.376	-8.580	-157.549	-150.293	-15.157	-36.574	-150.676	-144.567	-144.340	-136.680	-29.022	-137.149	-8191	255	
588.932	1	1	0	0	0.025384	0.041689	0.23168	0.26407	0.12621	0.093542	0.19249	0.3431	0.062691	0.2096	0.19806	0.24026	0.13529	0.34458	0.18787	0.139	-2.8375	-3.1604	-3.4437	-3.0938	-3.2854	-3.4	-3.275	-3.5667	-3.2333	-3.2896	-3.4792	-3.0896	-3.6333	-3.4396	-3.1125	-3.5458	84.332	22.580	59.467	169.656	-140.540	112.344	85.253	108.645	-57.765	-119.654	156.673	95.063	177.416	-166.937	-82.058	99.662	0.0008771	0.00038314	9.1669e-05	1309	5.5725e-06	1.9354e-06	1372.6	268	4.8505e-06	4.643e-06	327.96	95.86	75.384	21.595	4.0162e-06	29.807	0.00036811	0.0003584	9.7356e-05	1293.8	3.9402e-06	3.7355e-06	1362.7	266.52	3.834e-06	3.7146e-06	327.45	96.003	75.219	21.898	3.6516e-06	30.281	14.295	-50.251	-92.963	-157.165	-36.122	-48.940	-157.407	-150.246	-61.412	-28.649	-150.750	-144.995	-144.096	-137.052	-90.240	-137.353	-8191	255	
589.006	1	1	0	0	0.012245	0.086048	0.17572	0.19755	0.2048	0.24797	0.090847	0.19369	0.22616	0.19726	0.064105	0.09894	0.083627	0.16346	0.17487	0.043483	-2.8417	-3.2396	-3.5833	-3.3417	-3.4854	-3.4313	-3.2146	-3.6813	-3.3604	-3.1896	-3.7583	-3.2042	-3.4021	-3.3354	-2.9938	-3.5938	93.491	-103.959	-134.630	82.409	-44.597	170.854	47.078	111.837	129.801	-88.911	123.568	189.518	-157.579	168.167	-123.429	186.612	0.00086589	0.00032783	0.00011723	1290.6	2.4552e-06	3.7961e-06	1356.4	264.07	5.8693e-06	4.9801e-06	323.72	94.604	73.897	21.122	5.7369e-06	29.533	0.00034979	0.00033111	9.3127e-05	1277.2	3.6958e-06	3.6844e-06	1343.8	262.71	3.5614e-06	3.557e-06	323.3	94.606	74.275	21.521	3.5137e-06	30.01	11.720	-17.479	-93.674	-157.173	-111.816	-2.604	-157.558	-150.395	-50.987	-14.768	-150.796	-144.878	-144.071	-136.561	-21.322	-137.178	-8191	255	
589.125	1	1	0	0	0.20902	0.2558	0.3348	0.15001	0.1336	0.35058	0.35303	0.16135	0.085776	0.09053	0.12508	0.18216	0.14192	0.065775	0.32922	0.19097	-3.0271	-2.9667	-3.4875	-3.2	-3.3438	-3.4167	-3.1979	-3.5812	-3.4667	-3.1792	-3.5938	-3.3208	-3.4	-3.5938	-3.1583	-3.5812	129.385	73.424	57.596	-130.635	-58.249	58.977	-158.938	-137.500	-98.222	61.824	-162.434	47.960	80.896	128.834	-66.815	-45.974	0.00080078	0.00015839	0.0001265	1269.6	2.9521e-06	4.4592e-06	1341.5	261.93	7.5619e-06	4.6138e-06	322.9	92.919	73.421	21.203	2.9671e-06	29.352	0.0003385	0.00032934	9.2126e-05	1259.3	3.7519e-06	3.6978e-06	1329.7	260.78	3.8563e-06	3.8072e-06	321.89	94.023	73.751	21.495	3.7564e-06	29.997	15.367	-72.289	-32.429	-157.323	-102.756	9.205	-157.289	-150.375	-2.936	58.009	-150.373	-144.656	-143.976	-136.525	-50.860	-137.125	-8191	255	
589.221	1	1	0	0	0.21436	0.10076	0.081471	0.29257	0.016916	0.20351	0.21253	0.18417	0.20895	0.063262	0.057294	0.17663	0.17504	0.12946	0.22475	0.20245	-3.0792	-3.0583	-3.6375	-3.3187	-3.2042	-3.4437	-3.2229	-3.4667	-3.5542	-3.0396	-3.6167	-3.3667	-3.3229	-3.6021	-3.1604	-3.4667	-107.350	-65.572	-49.974	142.688	-98.120	140.713	115.845	-77.070	-58.038	149.414	-134.336	75.933	-86.179	163.061	-38.908	-131.791	0.00083745	0.00033436	9.5521e-05	1260.3	4.7781e-07	2.3791e-06	1328.8	260.43	8.1503e-06	2.1997e-06	319.69	93.145	73.254	20.974	5.3306e-06	29.487	0.0003638	0.00035205	9.9871e-05	1250.5	4.0379e-06	4.1649e-06	1322.5	259.51	4.2603e-06	4.3962e-06	320.24	93.758	73.526	21.457	4.4742e-06	30.061	14.512	-86.508	-44.122	-157.125	-120.004	-36.300	-157.235	-150.409	-37.945	181.853	-149.975	-144.489	-144.312	-136.567	-7.855	-137.369	-8191	255	
589.317	1	1	0	0	0.17435	0.076304	0.22767	0.35265	0.11519	0.014075	0.23813	0.329	0.082068	0.059083	0.21208	0.29955	0.37103	0.027654	0.24595	0.16858	-2.9458	-3.1604	-3.5208	-3.3187	-3.2417	-3.5583	-3.2833	-3.4688	-3.4646	-3.1458	-3.5354	-3.4	-3.1042	-3.5687	-3.1417	-3.4313	-17.763	75.148	175.252	132.325	185.391	-91.898	120.593	125.480	121.183	-123.910	168.686	60.783	149.549	100.810	167.725	71.313	0.00093166	0.00033038	0.00013986	1265.3	4.3299e-06	1.3678e-06	1331	258.93	5.874e-06	6.8433e-06	319.04	92.67	72.751	21.058	8.2963e-06	29.296	0.00041226	0.00040226	0.00011457	1252.6	4.498e-06	4.39e-06	1319.2	258.51	4.4664e-06	4.3721e-06	319.3	93.345	73.28	21.416	4.5011e-06	29.88	19.909	-118.567	-91.883	-157.251	-87.839	-1.067	-157.454	-150.194	-29.854	-47.724	-150.836	-144.484	-144.059	-136.688	-44.825	-136.840	-8191	255	
589.413	1	1	0	0	0.27555	0.19425	0.21198	0.12373	0.18225	0.11208	0.11558	0.23252	0.04295	0.048942	0.35184	0.24355	0.22381	0.079493	0.17547	0.117	-2.9188	-3.1708	-3.6208	-3.6042	-3.1271	-3.4958	-3.3708	-3.325	-3.4396	-3.125	-3.3354	-3.3854	-3.0771	-3.6188	-3.1125	-3.1625	113.002	-40.143	162.738	-139.170	10.695	-8.364	143.341	166.023	-92.402	-72.992	-132.658	138.129	100.743	184.128	-78.036	160.553	0.00085384	0.00021948	9.0501e-05	1270.6	3.0116e-06	3.0985e-06	1351	262.87	8.7255e-06	3.8927e-06	324.35	94.695	74.244	21.562	6.3029e-06	29.615	0.00041423	0.00041466	0.00011513	1261.1	4.7023e-06	4.6816e-06	1338.7	261.76	4.7103e-06	4.915e-06	325.22	94.914	74.718	21.965	5.1911e-06	30.306	14.550	-85.548	-50.346	-157.285	-74.984	-8.739	-157.380	-150.446	-32.250	0.888	-150.630	-144.697	-144.192	-136.866	-52.574	-137.513	-8191	255	
589.534	1	1	0	0	0.0585	0.11984	0.29452	0.20014	0.098247	0.18451	0.16147	0.11175	0.13761	0.051778	0.19994	0.247	0.094334	0.27742	0.1652	0.16067	-3.4167	-2.9833	-3.3958	-3.4521	-2.9875	-3.5958	-3.5667	-3.3292	-3.4562	-3.0812	-3.5042	-3.4813	-3.0708	-3.5396	-3.1875	-3.1833	-130.874	74.049	-151.958	115.010	-84.358	10.790	98.424	15.145	46.290	-151.522	126.211	91.291	-40.474	140.422	-86.397	72.588	0.00073366	0.00020579	0.00015568	1310.3	3.9351e-06	5.9842e-06	1378.8	268.63	1.6336e-05	4.3067e-06	329.68	96.203	75.594	21.817	4.7717e-06	29.734	0.0004812	0.000494	0.00013508	1300.4	5.4802e-06	5.611e-06	1373.3	268.23	5.7177e-06	5.9198e-06	331.6	97.008	76.334	22.417	5.8694e-06	30.631	19.897	-167.559	-64.449	-157.260	-59.134	-15.028	-157.385	-150.573	-32.177	-34.948	-150.625	-144.929	-144.398	-136.724	-53.528	-137.228	-8191	255	
589.605	1	1	0	0	0.26396	0.15359	0.084428	0.047476	0.25215	0.090184	0.18484	0.14487	0.33395	0.093445	0.098649	0.092147	0.10493	0.29988	0.10158	0.06167	-3.2229	-3.0854	-3.4708	-3.6188	-3.0333	-3.4729	-3.5438	-3.2604	-3.625	-3.1875	-3.2812	-3.6312	-3.1	-3.4917	-3.4	-3.0146	-40.391	-35.720	-134.775	-122.722	-61.156	-103.367	-157.246	-26.743	-59.522	-115.913	101.609	-90.681	149.293	-34.849	-20.761	13.378	0.00078533	0.00044475	0.00012575	1341.5	2.2584e-06	7.5967e-06	1411.8	272.34	5.9976e-06	5.0634e-06	334.47	97.152	76.262	22.079	6.4289e-06	29.888	0.00054517	0.00055368	0.00015975	1330.9	6.1653e-06	6.0915e-06	1401.8	272.61	6.2255e-06	6.244e-06	335.74	97.94	77.085	22.571	6.3674e-06	30.829	24.115	-103.620	-92.902	-157.294	-91.813	-5.525	-157.674	-150.422	-68.483	-63.000	-150.714	-145.040	-144.663	-136.764	-69.577	-137.320	-8191	255	
589.702	1	1	0	0	0.2252	0.099376	0.20526	0.33351	0.054007	0.046024	0.31715	0.2387	0.063928	0.15603	0.092193	0.038298	0.26634	0.23978	0.1626	0.0283	-3.1896	-3.1792	-3.3292	-3.7604	-3.0479	-3.3417	-3.5979	-3.2458	-3.5812	-3.1792	-3.3208	-3.6437	-3.0646	-3.35	-3.3479	-2.9813	-142.786	-2.751	5.852	152.634	101.834	58.412	142.128	188.656	-143.216	35.769	-60.954	160.862	133.109	-27.839	-19.934	109.234	0.00089836	0.00047573	2.9881e-05	1354.4	7.5004e-06	1.7064e-06	1420.4	275.27	6.5821e-06	6.1434e-06	336.51	97.073	76.928	22.183	5.4097e-06	29.905	0.00056773	0.00057091	0.00016286	1346.6	6.4317e-06	6.3326e-06	1413.2	274.29	6.4318e-06	6.2842e-06	337.7	98.189	77.537	22.72	6.4079e-06	30.862	26.777	-80.650	-17.211	-157.222	-44.611	17.714	-157.585	-150.381	-51.231	19.926	-150.564	-144.603	-144.514	-137.270	-13.741	-137.477	-8191	255	
589.798	1	1	0	0	0.19856	0.2013	0.043489	0.23045	0.050159	0.15672	0.18436	0.2116	0.049711	0.37175	0.17445	0.18836	0.35479	0.074232	0.15854	0.32685	-3.1542	-3.2708	-3.2833	-3.5979	-3.2062	-3.3875	-3.4354	-2.9708	-3.4479	-3.5271	-3.2396	-3.6708	-3.1604	-3.2979	-3.5958	-3.0833	-122.408	169.664	160.238	154.291	-91.071	31.434	137.301	49.497	-72.471	170.472	-26.565	-84.323	185.801	-75.578	11.317	105.654	0.00079815	0.00037577	0.00012054	1363	4.4928e-06	4.769e-06	1427.7	274.52	7.7771e-06	3.5235e-06	335.75	97.313	77.011	22.145	6.7011e-06	30.021	0.00057386	0.00058905	0.00016034	1352.5	6.4111e-06	6.3236e-06	1420.6	274.65	6.1178e-06	6.379e-06	337.9	98.246	77.558	22.643	6.2653e-06	30.901	25.889	-68.736	-115.344	-157.440	-75.860	16.403	-157.392	-150.501	-108.172	-27.131	-150.365	-145.151	-144.432	-137.069	22.890	-137.190	-8191	255	
589.918	1	1	0	0	0.14046	0.16107	0.073188	0.14894	0.20206	0.06914	0.13931	0.25684	0.30287	0.40643	0.21843	0.12355	0.27772	0.061748	0.27778	0.20003	-3.2208	-3.2271	-3.1833	-3.7646	-3.1333	-3.3875	-3.8708	-3.1354	-3.3854	-3.3812	-3.1813	-3.6396	-3.3125	-3.1333	-3.4	-3.0792	-2.867	130.543	-40.587	174.287	-65.952	8.066	120.701	70.609	92.924	175.723	-152.162	-2.856	177.748	123.422	-20.190	-117.684	0.0008498	0.00024128	0.0002361	1360.3	7.0109e-06	1.5469e-06	1423.8	275.32	5.1449e-06	2.7748e-06	334.48	97.049	76.46	21.928	6.03e-06	29.836	0.0005545	0.0005707	0.00016121	1352.7	6.236e-06	6.2318e-06	1418.9	274.27	6.1468e-06	6.2848e-06	337.02	98.187	77.349	22.599	6.268e-06	30.848	1.298	-34.061	-68.193	-157.515	-52.749	-139.288	-157.636	-150.558	-25.158	162.145	-150.920	-144.790	-144.217	-136.822	-33.529	-137.553	-8191	255	
590.013	1	1	0	0	0.048224	0.2356	0.059387	0.10587	0.091916	0.12973	0.20138	0.071742	0.14068	0.25193	0.18241	0.17323	0.15678	0.11835	0.12174	0.10992	-3.1021	-3.4146	-2.9917	-3.7708	-3.1958	-3.3896	-3.6479	-3.1625	-3.2792	-3.5229	-3.2687	-3.6958	-3.3146	-3.1188	-3.5229	-3.0104	13.522	-62.065	67.889	145.985	161.013	53.206	131.799	-3.384	-24.663	108.836	141.793	184.651	-137.642	-126.754	-84.564	136.464	0.00081965	0.00053697	0.00014959	1365.4	5.9541e-06	1.8944e-07	1434.7	276.05	5.295e-06	8.0469e-06	335.93	97.413	76.837	22.145	6.9528e-06	29.952	0.00055121	0.00056239	0.00016028	1355.6	6.3688e-06	6.4883e-06	1426.8	275.35	6.2272e-06	6.2659e-06	337.95	98.428	77.624	22.779	6.3042e-06	30.993	18.420	-98.074	-77.809	-157.391	-47.217	90.801	-157.737	-150.567	-48.016	-34.634	-150.617	-144.748	-144.270	-137.178	-15.089	-137.362	-8191	255	
590.111	1	1	0	0	0.24555	0.2158	0.14614	0.23612	0.22657	0.3762	0.21068	0.10282	0.02388	0.043449	0.049351	0.10207	0.21608	0.16026	0.19212	0.12047	-2.9708	-3.4854	-2.9229	-3.6146	-3.4292	-3.125	-3.9167	-3.2812	-3.3208	-3.6104	-3.2229	-3.5187	-3.3167	-3.125	-3.5792	-3.3333	123.291	126.415	-6.564	82.276	0.106	-61.982	91.971	107.152	99.949	-143.140	44.685	-145.294	165.516	135.004	-145.277	41.057	0.0008303	0.00025427	0.00012294	1366.8	1.112e-06	3.5603e-06	1438.4	274.05	1.2037e-05	7.9866e-06	335.75	97.347	76.602	22.24	1.13e-06	30.034	0.00056422	0.00057919	0.00016093	1360.1	6.3004e-06	6.4096e-06	1428.2	274.57	6.2426e-06	6.4577e-06	338.12	98.606	77.529	22.762	6.3958e-06	31.072	10.773	-71.697	-99.822	-157.451	-1.147	-46.034	-157.772	-150.620	-51.883	-39.950	-150.828	-144.802	-144.493	-137.244	47.750	-137.290	-8191	255	
590.205	1	1	0	0	0.17706	0.18234	0.067895	0.14135	0.22559	0.18358	0.12984	0.20901	0.26888	0.14712	0.21345	0.10041	0.21452	0.20605	0.058227	0.071444	-2.9917	-3.5167	-3.0042	-3.6312	-3.4667	-3.1521	-3.7708	-3.2521	-3.4167	-3.5458	-3.1396	-3.4479	-3.6	-3.0792	-3.5542	-3.1979	12.330	72.933	127.916	180.255	-102.693	-55.009	41.171	155.754	-104.226	175.802	147.136	66.468	61.652	-167.957	-49.239	61.122	0.00084916	0.00022371	5.5893e-05	1373.1	6.9879e-06	4.1774e-06	1435.8	275.19	5.1268e-06	9.8528e-06	337.12	97.691	77.151	22.117	4.3649e-06	30.198	0.00057612	0.000605	0.00017205	1368	6.5903e-06	6.7565e-06	1431.3	275.87	6.5349e-06	6.6e-06	339.27	98.814	78.001	22.702	6.499e-06	31.098	17.419	105.834	-50.221	-157.182	-63.505	-47.920	-157.639	-150.624	-43.296	-37.507	-150.769	-144.810	-144.303	-136.986	-34.130	-137.455	-8191	255	
590.301	1	1	0	0	0.13372	0.11499	0.092293	0.12959	0.065051	0.093547	0.32696	0.29268	0.24703	0.18639	0.16916	0.35714	0.068058	0.18946	0.14878	0.1267	-2.7542	-3.6292	-3.1396	-3.6063	-3.3521	-3.2458	-3.8688	-3.5333	-3.3125	-3.7667	-3.1146	-3.3896	-3.4979	-3.0646	-3.4688	-3.3375	-139.935	-136.016	182.096	-98.891	-41.103	34.923	140.204	173.179	-151.553	148.893	171.435	182.648	154.736	-106.277	-82.803	87.440	0.00078657	0.00044057	0.00011981	1367	1.0597e-06	3.8523e-06	1431.6	274.83	8.6565e-06	2.8145e-06	335.5	97.038	76.923	22.037	3.8503e-06	30.147	0.00058104	0.000578	0.00016151	1363.7	6.2849e-06	6.5417e-06	1429.9	275.4	6.3293e-06	6.3793e-06	338.61	98.485	77.649	22.754	6.5283e-06	31.159	23.696	-56.140	-79.284	-157.520	-132.112	-62.742	-157.650	-150.896	-97.422	-64.351	-150.893	-144.861	-144.508	-137.109	-67.724	-137.767	-8191	255	
590.397	1	1	0	0	0.18449	0.20868	0.081236	0.077065	0.17983	0.08863	0.1356	0.2921	0.22422	0.042553	0.18274	0.07671	0.30157	0.15826	0.16641	0.089202	-2.825	-3.5792	-3.1417	-3.3854	-3.5396	-3.1354	-3.6542	-3.4417	-3.2104	-3.5812	-3.3917	-3.4375	-3.5187	-3.1188	-3.4521	-3.4083	8.118	129.753	182.927	98.112	-71.954	-66.682	125.220	126.777	-143.551	137.993	-155.133	153.170	167.997	59.803	45.349	-78.235	0.00090812	0.0003449	6.5835e-05	1375.7	1.2026e-06	3.0362e-06	1439.9	274.83	8.3775e-06	2.1998e-06	334.51	97.368	77.267	22.305	3.2245e-06	30.134	0.00059959	0.00060138	0.0001716	1367.9	6.688e-06	6.7154e-06	1436.5	276.2	6.5469e-06	6.7119e-06	338.62	98.779	78.084	22.816	6.6363e-06	31.207	20.871	-156.850	-83.341	-157.328	-136.409	-68.113	-157.600	-150.742	-7.404	170.342	-150.590	-144.931	-144.518	-137.212	178.308	-137.463	-8191	255	
590.518	1	1	0	0	0.1733	0.099734	0.052199	0.0254	0.027843	0.077007	0.27461	0.27145	0.12834	0.16868	0.13395	0.12582	0.035628	0.11886	0.09851	0.087338	-2.6667	-3.4208	-3.2792	-3.3792	-3.4958	-3.1583	-3.4917	-3.6042	-3.0187	-3.7625	-3.4021	-3.1333	-3.5583	-3.1792	-3.4083	-3.5396	137.895	53.713	-103.835	-29.679	30.828	153.904	0.677	176.151	63.308	43.185	13.789	156.963	-42.887	-25.962	40.758	44.542	0.0008188	0.00069409	6.726e-05	1379.1	5.5305e-06	6.015e-06	1448.3	275.99	4.4078e-06	3.2227e-06	337.28	98.164	77.847	22.103	1.6468e-06	30.504	0.00057819	0.00059366	0.00016593	1369.4	6.6128e-06	6.7368e-06	1437.5	276.08	6.6557e-06	6.7119e-06	339.82	99.136	78.305	22.842	6.8292e-06	31.46	23.212	-103.777	-113.207	-157.387	-68.519	-1.864	-157.726	-150.620	19.309	-95.705	-150.649	-145.049	-144.261	-137.168	66.109	-137.659	-8191	255	
590.614	1	1	0	0	0.21109	0.09151	0.16826	0.12424	0.20616	0.12732	0.39381	0.098684	0.24759	0.11592	0.10406	0.0044647	0.20855	0.093515	0.10558	0.05728	-2.6146	-3.6625	-3.3625	-3.1833	-3.6583	-3.3292	-3.5708	-3.6188	-3.1771	-3.3812	-3.4479	-3.4354	-3.5312	-3.175	-3.4562	-3.7396	-51.951	-19.600	-97.422	-84.338	7.520	176.034	137.492	191.254	55.416	142.305	85.812	-20.729	-147.567	53.891	75.131	86.746	0.00069415	8.778e-05	0.00018774	1383.2	4.7348e-06	4.6333e-06	1449.8	275.48	1.0182e-05	3.3984e-06	339.04	98.27	77.342	22.224	2.6636e-06	30.188	0.00061165	0.00062449	0.00017182	1373.2	6.8246e-06	6.8297e-06	1441.2	276.69	6.8e-06	6.7923e-06	340.41	99.156	78.393	22.844	6.9392e-06	31.32	12.160	167.507	-103.707	-157.396	-69.866	-10.690	-157.635	-150.392	-28.512	44.661	-151.028	-144.691	-144.265	-136.590	-64.252	-137.369	-8191	255	
590.710	1	1	0	0	0.33108	0.22444	0.057414	0.068588	0.25478	0.10889	0.089972	0.21227	0.092368	0.078743	0.044089	0.12166	0.078685	0.20638	0.14486	0.16018	-2.7354	-3.5208	-3.0687	-3.3646	-3.7146	-3.25	-3.5417	-3.5875	-3.1063	-3.4854	-3.6479	-3.0271	-3.6688	-3.3271	-3.2354	-3.5917	-161.676	-9.735	-38.753	59.820	-123.299	-146.005	134.868	57.334	-40.837	136.391	-168.311	153.587	-107.403	49.989	-153.373	-156.350	0.00076574	0.00046409	9.6189e-05	1385.6	3.4941e-06	9.3461e-06	1446.7	276.89	9.3666e-06	6.4961e-06	337.57	98.442	77.744	22.234	2.6633e-06	30.474	0.00061215	0.00063783	0.00017811	1375.5	6.9434e-06	7.2321e-06	1441.8	277.39	6.9524e-06	7.0334e-06	340.8	99.439	78.549	22.915	6.9327e-06	31.431	16.859	-63.191	-3.191	-157.362	31.016	-73.125	-157.624	-150.538	-13.054	-14.656	-150.857	-144.912	-144.754	-137.225	26.226	-137.673	-8191	255	
590.831	1	1	0	0	0.0073314	0.17446	0.18154	0.1479	0.071365	0.13616	0.19354	0.17428	0.11582	0.13391	0.13315	0.19828	0.088989	0.017229	0.091636	0.14669	-2.6854	-3.4958	-3.15	-3.2292	-3.5792	-3.3417	-3.3271	-3.4625	-3.15	-3.3729	-3.5396	-3.225	-3.675	-3.2	-2.9437	-3.5167	103.593	178.338	-78.772	184.748	185.891	172.253	125.170	118.057	121.519	167.253	38.112	154.128	-134.019	-132.544	-145.976	-37.335	0.000886	0.00027096	3.3842e-05	1378.4	3.7563e-06	2.7519e-06	1449.4	277.57	1.076e-05	7.0815e-06	337.16	98.695	77.771	22.425	5.3146e-06	30.647	0.00062544	0.00062535	0.0001741	1370.6	6.8989e-06	6.9009e-06	1441.1	277.36	6.9775e-06	7.2037e-06	340.6	99.694	78.62	23.006	7.2665e-06	31.557	23.256	-84.212	-141.639	-157.423	-31.420	35.095	-157.417	-150.569	-23.200	-9.221	-150.864	-144.881	-144.292	-136.797	-5.272	-137.497	-8191	255	
590.903	1	1	0	0	0.1422	0.15234	0.21403	0.13865	0.096481	0.28907	0.19962	0.17165	0.17234	0.28842	0.20567	0.08448	0.1606	0.3431	0.099217	0.07199	-2.6542	-3.3833	-3.4958	-3.2854	-3.5125	-3.4375	-3.3042	-3.6729	-2.9938	-3.275	-3.6271	-3.15	-3.3812	-3.4604	-3.2625	-3.7542	127.320	101.617	49.374	55.200	-159.307	172.750	137.196	-121.794	0.417	85.313	134.983	76.166	148.575	-104.422	172.079	-4.825	0.0010107	0.00016277	9.869e-05	1394.1	6.2111e-06	5.5748e-06	1461.1	278.09	1.1399e-05	8.9337e-07	340.54	98.683	78.02	22.397	8.5474e-06	30.561	0.00064667	0.00066781	0.00018497	1383.8	7.3267e-06	7.3488e-06	1450.3	278.15	7.097e-06	7.2483e-06	342.02	99.781	78.756	22.983	7.1514e-06	31.575	21.648	-126.725	-30.593	-157.399	-35.487	31.405	-157.729	-150.594	-18.001	-81.138	-150.642	-144.630	-144.471	-137.439	-26.076	-137.652	-8191	255	
590.999	1	1	0	0	0.053037	0.044701	0.21107	0.34982	0.23293	0.062954	0.24827	0.21256	0.16478	0.064783	0.11625	0.030306	0.32195	0.010593	0.18976	0.23544	-2.7292	-3.2333	-3.5021	-3.2104	-3.3979	-3.4771	-3.1833	-3.8771	-3.3708	-3.2292	-3.5938	-3.175	-3.4042	-3.4792	-3.2188	-3.5563	155.056	-31.687	25.497	96.073	-38.879	-125.834	92.731	102.967	67.416	-24.452	-138.654	83.109	190.526	-135.047	-118.888	111.675	0.00086902	0.00056647	0.00013077	1386.5	5.5825e-06	2.1841e-06	1458.9	278.49	1.9242e-06	2.3524e-06	340.13	98.603	78.2	22.46	3.4359e-06	30.562	0.00063427	0.00065018	0.0001847	1379.8	7.1713e-06	7.2846e-06	1447	278.58	7.1489e-06	7.2709e-06	341.85	99.474	78.674	22.919	7.1856e-06	31.629	14.583	-64.350	-69.909	-157.530	-34.165	-67.230	-157.610	-150.392	57.340	-45.443	-150.960	-144.590	-144.420	-136.970	60.999	-137.958	-8191	255	
591.093	1	1	0	0	0.15135	0.23169	0.17578	0.062838	0.11992	0.085981	0.042721	0.30935	0.15194	0.16945	0.083802	0.11269	0.18067	0.22568	0.029114	0.30853	-2.7896	-3.1312	-3.6479	-3.4208	-3.5563	-3.4333	-3.3292	-3.5292	-3.3354	-3.1771	-3.6708	-3.1188	-3.3271	-3.6479	-3.2229	-3.5187	16.986	-66.205	-50.274	82.393	-59.454	18.144	107.313	83.621	-120.573	87.061	71.121	128.096	-138.039	168.340	-31.848	158.069	0.00072463	0.00056769	3.8034e-05	1394.7	2.558e-06	3.0634e-06	1454.1	279.14	4.6659e-06	7.1606e-06	338.41	98.609	77.419	22.377	4.9174e-06	30.686	0.00063751	0.00067702	0.0001848	1383.7	7.3591e-06	7.2975e-06	1448.3	278.73	7.2133e-06	7.1759e-06	341.24	99.475	78.53	23.016	7.1227e-06	31.514	13.563	-56.642	-46.216	-157.473	-95.787	40.510	-157.586	-150.425	-89.034	-29.889	-151.135	-144.822	-144.420	-136.977	1.919	-138.027	-8191	255	
591.214	1	1	0	0	0.074224	0.17328	0.095244	0.27267	0.078791	0.16192	0.17733	0.28518	0.23681	0.26228	0.25564	0.21656	0.15357	0.11663	0.048266	0.27557	-3.1208	-2.9562	-3.6875	-3.2917	-3.25	-3.4333	-3.2583	-3.6771	-3.3542	-3.1437	-3.7104	-3.1104	-3.3979	-3.5292	-3.0687	-3.4958	25.616	-74.770	137.780	166.015	45.850	67.194	137.189	42.219	129.181	44.974	-160.915	-112.470	-139.391	-105.551	95.759	80.445	0.0007868	0.00049082	0.00014647	1391.4	2.4751e-06	2.5721e-06	1452.3	278.5	1.0402e-05	1.0716e-05	339.18	99.025	77.849	22.37	5.3724e-06	30.587	0.00064444	0.000665	0.00018414	1379.7	7.1844e-06	7.2101e-06	1445.2	277.85	7.0889e-06	7.3528e-06	341.53	99.456	78.589	22.93	7.3359e-06	31.503	13.686	-64.916	-51.187	-157.437	-122.843	-16.932	-157.511	-150.616	-57.754	-52.328	-150.411	-144.898	-144.339	-137.358	-33.691	-137.195	-8191	255	
591.310	1	1	0	0	0.28589	0.30153	0.20853	0.22164	0.10659	0.18027	0.4161	0.44169	0.025534	0.12063	0.22696	0.022917	0.12796	0.029711	0.058828	0.077781	-2.9146	-2.9542	-3.4792	-3.4021	-3.2188	-3.5604	-3.3479	-3.5542	-3.3187	-3.1083	-3.55	-3.5333	-3.1708	-3.5083	-3.0333	-3.4333	102.388	54.669	-91.033	142.168	-146.334	-34.420	140.468	182.948	-55.627	-52.466	16.628	-124.551	-47.648	122.519	139.735	-97.905	0.0007717	0.0003801	0.00018808	1392	4.5821e-06	8.0018e-06	1463.8	278.26	4.2164e-06	5.7711e-06	338.49	98.947	78.107	22.449	1.0091e-05	30.442	0.00065179	0.00066464	0.00018793	1382.2	7.3769e-06	7.4577e-06	1451.2	278.5	7.3616e-06	7.4869e-06	341.14	99.816	78.821	22.98	7.2217e-06	31.507	21.273	-101.278	-50.181	-157.334	-87.826	3.702	-157.672	-150.563	-36.706	28.962	-150.670	-144.647	-144.347	-136.754	-8.546	-137.919	-8191	255	
591.406	1	1	0	0	0.083632	0.17714	0.11489	0.29267	0.14327	0.20825	0.25849	0.080367	0.028911	0.062849	0.14902	0.22946	0.11176	0.13585	0.076534	0.12006	-3.0854	-3.1562	-3.5021	-3.4062	-3.0938	-3.6521	-3.4792	-3.3271	-3.4437	-3.0646	-3.5	-3.3729	-3.1458	-3.7417	-3.2208	-3.2854	-137.825	-86.586	-52.273	131.669	46.277	88.291	98.987	-12.687	-122.410	-92.382	-66.920	-141.270	63.727	22.030	-41.968	148.281	0.00091049	0.00051362	1.5654e-05	1388.3	4.1514e-06	2.8972e-07	1452.3	278.14	1.0201e-05	5.5051e-06	338.77	98.157	78.119	22.258	7.2404e-06	30.723	0.00064821	0.00065248	0.00018027	1377.1	7.1492e-06	7.042e-06	1442.8	277.48	7.0936e-06	7.078e-06	340.84	99.233	78.672	22.907	7.3017e-06	31.59	25.327	-95.817	-22.718	-157.359	26.041	123.178	-157.322	-150.684	-28.507	19.185	-150.849	-144.936	-144.222	-136.566	-2.215	-137.605	-8191	255	
591.478	1	1	0	0	0.072839	0.13729	0.24487	0.16074	0.25503	0.19087	0.15863	0.29913	0.17773	0.059087	0.084972	0.066957	0.051651	0.27212	0.33238	0.11189	-3.25	-3.0396	-3.5625	-3.4958	-3.1229	-3.55	-3.5375	-3.4479	-3.5042	-3.2729	-3.6021	-3.5021	-3.0771	-3.4604	-3.1604	-3.3521	154.687	-118.444	115.252	145.946	58.087	-165.074	129.825	89.447	22.203	80.530	-128.985	143.778	42.291	-155.811	-102.828	-124.420	0.00089708	0.00071781	4.6141e-05	1397.7	3.4449e-06	7.4731e-06	1463.3	280.25	1.2601e-05	6.9237e-06	341.29	98.81	78.174	22.415	4.431e-06	30.668	0.00065389	0.00069399	0.00019386	1385.8	7.7071e-06	7.8232e-06	1453.4	280.06	7.7262e-06	7.843e-06	342.95	100.01	78.958	23.039	7.5872e-06	31.701	21.987	2.869	73.273	-157.297	-42.304	37.549	-157.593	-150.312	-6.785	-31.758	-150.611	-144.781	-144.287	-136.988	-38.622	-137.383	-8191	255	
591.598	1	1	0	0	0.13035	0.11464	0.11158	0.26616	0.25276	0.061035	0.10177	0.19312	0.024566	0.14764	0.13916	0.075306	0.28828	0.044941	0.1971	0.28692	-3.1417	-3.175	-3.3854	-3.7458	-3.0375	-3.6021	-3.3854	-3.2396	-3.7583	-3.175	-3.4021	-3.6792	-3.0958	-3.4854	-3.3458	-3.2562	76.581	181.944	153.155	112.338	-72.647	-90.427	112.388	160.911	119.264	-28.999	-147.414	5.449	-82.613	191.240	-144.758	-108.762	0.00089857	0.00073639	0.00010608	1394.2	8.5904e-06	4.1596e-06	1464.4	278.98	7.209e-06	2.3834e-06	340.4	98.9	78.485	22.417	8.4964e-06	30.765	0.00068203	0.00069088	0.00019268	1384.7	7.6832e-06	7.6526e-06	1452.7	279.24	7.5547e-06	7.7279e-06	342.05	99.961	79.073	22.998	7.6019e-06	31.7	22.603	-58.264	-123.235	-157.284	-28.059	22.203	-157.649	-150.558	-22.507	59.408	-150.798	-144.810	-144.461	-136.618	-59.346	-137.871	-8191	255	
591.695	1	1	0	0	0.3284	0.13349	0.096018	0.3658	0.052576	0.16372	0.25038	0.047697	0.16921	0.09989	0.20371	0.35946	0.24463	0.051183	0.18209	0.4003	-3.1063	-3.1208	-3.4125	-3.6688	-3.1875	-3.4375	-3.5604	-3.1896	-3.5083	-3.1396	-3.4208	-3.4292	-3.2146	-3.6562	-3.3375	-3.0833	-113.986	-61.412	-134.557	162.613	38.179	-19.119	72.483	70.294	-112.911	-22.007	-163.473	-102.076	62.668	139.200	142.379	155.052	0.00083903	0.0005525	0.00010654	1403.8	2.1582e-06	6.5936e-06	1467.8	280.42	5.6111e-06	7.1761e-06	339.87	99.408	78.667	22.397	4.7566e-06	30.505	0.00067126	0.00069818	0.00019688	1388.6	7.8972e-06	7.8723e-06	1456.3	280	7.6858e-06	7.7738e-06	343.57	100.25	79.216	23.066	7.7645e-06	31.674	16.770	-41.615	-35.728	-157.476	-48.945	-44.905	-157.368	-150.352	-59.654	-41.775	-150.558	-144.805	-144.316	-137.113	-25.670	-137.522	-8191	255	
591.791	1	1	0	0	0.12035	0.089939	0.33908	0.21018	0.033849	0.041552	0.31074	0.0096545	0.21335	0.021054	0.26568	0.28051	0.11072	0.1723	0.14618	0.33524	-3.1396	-3.1521	-3.3271	-3.5646	-3.1771	-3.4813	-3.575	-3.1542	-3.5438	-3.2729	-3.3771	-3.6292	-3.0875	-3.4042	-3.475	-3.1063	-78.245	-90.449	-52.587	110.227	63.273	-11.873	121.498	160.199	-122.455	-106.599	80.920	81.263	110.202	-136.607	-6.389	34.194	0.00081986	0.00050857	9.6399e-05	1401.7	6.8677e-06	4.3098e-06	1470	279.89	3.4063e-06	5.452e-06	342.65	98.809	78.722	22.544	3.9058e-06	30.612	0.00067481	0.00069818	0.00019689	1387.6	7.6219e-06	7.6647e-06	1455.5	280.09	7.6459e-06	7.8343e-06	343.17	100.02	79.13	23.133	7.7706e-06	31.747	17.839	-73.879	-96.576	-157.374	-48.263	7.016	-157.599	-150.364	-23.364	80.166	-150.598	-144.728	-144.082	-137.010	-65.281	-137.869	-8191	255	
591.911	1	1	0	0	0.21644	0.16181	0.12003	0.52879	0.2384	0.21779	0.075926	0.34746	0.21521	0.21235	0.16115	0.21365	0.32021	0.042385	0.17175	0.103	-3.1833	-3.2833	-3.0604	-3.7583	-3.0896	-3.3708	-3.6104	-3.1646	-3.5104	-3.2562	-3.3667	-3.6437	-3.2687	-3.3729	-3.5333	-3.1312	-82.516	-61.138	94.432	141.455	-107.108	-3.697	68.747	-134.534	188.146	179.839	-135.994	163.089	116.287	61.246	-119.175	42.369	0.00076443	8.8061e-05	0.0001738	1404.3	4.1603e-06	6.9534e-06	1473.7	281.03	7.469e-06	8.3798e-06	342.58	99.528	78.883	22.463	5.7922e-06	30.8	0.00070621	0.00074551	0.00020828	1393.7	8.0784e-06	8.1897e-06	1462.6	281.29	8.1414e-06	8.1317e-06	344.73	100.51	79.636	23.223	8.0825e-06	31.881	15.917	-86.995	-77.168	-157.377	-71.339	-28.879	-157.589	-150.456	-124.345	2.165	-150.393	-145.039	-144.536	-136.961	-14.855	-137.895	-8191	255	
592.006	1	1	0	0	0.19255	0.22009	0.21228	0.12792	0.060852	0.15318	0.22803	0.1921	0.23931	0.14879	0.14597	0.10206	0.18043	0.23068	0.19008	0.21097	-3.0542	-3.1896	-2.9833	-3.7958	-3.025	-3.1792	-3.6562	-3.2667	-3.3271	-3.5354	-3.2021	-3.7271	-3.3333	-3.3937	-3.6854	-3.0271	10.374	160.544	20.151	-131.800	-24.579	136.652	158.368	-141.696	-133.837	155.287	-100.797	-161.706	5.110	157.437	157.671	114.486	0.00086267	0.00041273	0.00015237	1408.8	3.0058e-06	3.6561e-06	1471.7	281.18	9.5503e-06	4.9916e-06	341.07	99.835	78.705	22.607	1.4991e-06	30.808	0.00072003	0.00074387	0.00021255	1398.7	8.0965e-06	8.0633e-06	1462.7	281.2	8.0086e-06	8.1354e-06	343.91	100.54	79.474	23.253	8.2258e-06	31.824	12.681	-76.976	-78.015	-157.481	39.176	-59.077	-157.319	-150.417	34.859	55.976	-150.341	-144.886	-144.510	-136.960	66.872	-137.872	-8191	255	
592.102	1	1	0	0	0.18739	0.24051	0.051842	0.24198	0.11413	0.059698	0.2951	0.36092	0.1253	0.21012	0.22452	0.076583	0.13138	0.22843	0.16066	0.046359	-3.1063	-3.4583	-3.1542	-3.6688	-3.1292	-3.2812	-3.9375	-3.1188	-3.5354	-3.3833	-3.1146	-3.5708	-3.3521	-3.125	-3.6729	-3.2062	172.856	135.675	-145.037	131.552	-59.912	63.853	97.431	142.183	-33.202	-45.528	125.170	176.484	54.696	146.256	25.451	164.202	0.0008436	0.00054046	0.00015899	1413.4	6.7819e-06	4.6611e-06	1476.7	282.94	7.6047e-06	7.3502e-06	344.13	99.817	78.707	22.538	7.9509e-06	30.694	0.00071586	0.00074918	0.00021392	1399	8.3021e-06	8.4379e-06	1465.7	282.4	8.302e-06	8.4244e-06	345.59	100.81	79.663	23.246	8.2931e-06	31.801	19.204	-89.016	-33.524	-157.346	-22.290	-17.069	-157.677	-150.626	-57.774	6.327	-150.630	-144.881	-144.553	-136.878	-45.945	-137.381	-8191	255	
592.198	1	1	0	0	0.10773	0.22034	0.28042	0.352	0.17052	0.17825	0.15207	0.23151	0.32374	0.07002	0.008289	0.1752	0.0073932	0.11519	0.3379	0.18651	-2.9646	-3.6063	-3.0958	-3.5104	-3.2667	-3.1667	-3.8167	-3.2625	-3.5	-3.5271	-3.1271	-3.4688	-3.2938	-2.9042	-3.5479	-3.2542	-54.623	-133.966	95.148	167.145	137.591	25.409	129.147	156.983	28.092	30.676	-144.908	-60.321	16.739	158.551	-21.414	103.681	0.00088277	0.00060306	0.00020294	1413.7	3.4412e-06	9.9499e-06	1475.5	281.1	8.1352e-06	1.2957e-05	341.59	99.631	78.086	22.424	5.1848e-06	30.86	0.00072515	0.00075152	0.00020862	1400.2	8.1602e-06	8.3457e-06	1464.9	281.67	8.147e-06	8.2144e-06	344.67	100.62	79.369	23.211	8.2457e-06	31.777	27.608	-36.886	-93.687	-157.350	-107.610	-29.503	-157.363	-150.660	0.271	-17.021	-150.491	-144.633	-144.371	-136.848	-21.938	-137.478	-8191	255	
592.294	1	1	0	0	0.15863	0.30435	0.32514	0.19583	0.32931	0.086623	0.16425	0.19489	0.10142	0.11133	0.39793	0.15704	0.20054	0.13867	0.24496	0.073202	-2.8333	-3.6458	-2.8854	-3.575	-3.4917	-3.2083	-3.8479	-3.2313	-3.2208	-3.6625	-3.2313	-3.3917	-3.5021	-3.2104	-3.5312	-3.2354	-17.807	-105.130	-13.689	-135.993	-111.959	39.498	122.101	102.424	-122.301	-75.101	121.932	183.240	138.559	40.899	-8.254	-32.347	0.00070868	0.00023205	9.7376e-05	1417.2	9.9004e-07	4.8433e-06	1482.1	282.58	2.1057e-06	6.8073e-06	343.29	99.283	79.049	22.491	5.4033e-06	30.935	0.00072852	0.00076376	0.00021188	1400.6	8.2803e-06	8.3757e-06	1466.2	281.91	8.1701e-06	8.3653e-06	345.22	100.67	79.68	23.23	8.4399e-06	31.976	21.087	-49.350	-70.173	-157.385	-116.792	33.553	-157.493	-150.472	183.422	33.471	-150.735	-144.583	-143.967	-136.868	-54.185	-137.212	-8191	255	
592.390	1	1	0	0	0.042243	0.052063	0.14754	0.081892	0.082987	0.086501	0.21871	0.16909	0.17148	0.11367	0.12436	0.2417	0.074613	0.23728	0.24249	0.22363	-2.8104	-3.4958	-2.9437	-3.6437	-3.4667	-3.175	-3.7479	-3.4375	-3.3771	-3.6813	-3.0375	-3.2938	-3.3417	-3.0854	-3.4667	-3.3604	169.055	-22.852	-55.647	-103.565	83.419	53.292	184.470	-70.814	-161.503	146.863	-20.946	145.448	-71.175	167.280	68.139	-47.543	0.00073957	0.00047182	0.0002453	1419.2	2.6144e-06	5.1329e-06	1485.4	282.54	1.1571e-05	6.8652e-06	344.82	99.388	78.548	22.469	4.9375e-06	30.994	0.00075298	0.00077781	0.00021977	1407.9	8.5761e-06	8.7042e-06	1472.6	282.48	8.393e-06	8.5493e-06	345.92	100.7	79.648	23.268	8.0986e-06	31.821	23.386	-97.702	-81.058	-157.331	-98.852	12.400	-157.618	-150.560	-58.201	-6.770	-150.533	-144.989	-144.030	-137.314	-7.087	-137.721	-8191	255	
592.511	1	1	0	0	0.11435	0.20592	0.28224	0.17431	0.12903	0.20869	0.15118	0.37213	0.17924	0.21277	0.10515	0.086386	0.19846	0.15655	0.14439	0.15239	-2.6792	-3.35	-3.275	-3.6479	-3.5104	-3.0396	-3.6208	-3.2708	-3.0833	-3.4562	-3.225	-3.3083	-3.575	-3.2083	-3.5687	-3.2625	118.320	32.023	-10.447	151.712	56.751	-61.959	-123.799	139.104	174.564	-147.629	-134.751	70.220	-148.579	-115.818	111.489	-70.094	0.00082324	9.2502e-05	7.4354e-05	1414.9	5.6726e-07	2.1224e-06	1480.4	282.06	9.5741e-06	4.4169e-06	342.75	99.048	79.116	22.551	1.6077e-06	30.867	0.00072991	0.00076545	0.00021113	1402.1	8.2615e-06	8.3714e-06	1467.9	282.05	8.2339e-06	8.3215e-06	345.35	100.34	79.747	23.239	8.3486e-06	31.911	13.319	-77.577	-70.010	-157.312	179.968	88.231	-157.362	-150.609	-10.047	-6.847	-150.521	-144.708	-144.176	-136.852	-121.485	-137.182	-8191	255	
592.607	1	1	0	0	0.17483	0.12335	0.058084	0.1291	0.17284	0.059881	0.27644	0.1081	0.30094	0.24798	0.11622	0.096564	0.1714	0.20787	0.058464	0.11766	-2.5979	-3.5292	-3.0917	-3.2042	-3.7021	-3.3021	-3.6292	-3.4833	-2.8625	-3.4271	-3.375	-3.2125	-3.6521	-3.2396	-3.2396	-3.4375	22.864	-62.967	-32.908	158.745	-49.249	175.984	91.146	118.534	74.083	164.185	104.607	166.345	34.675	162.778	-165.307	-81.545	0.00091714	0.00047342	0.00015205	1410.7	5.2551e-06	2.9449e-06	1475.6	281.67	8.8832e-06	5.0425e-06	342.13	99.249	78.745	22.64	2.3838e-06	30.741	0.00075074	0.00078593	0.00021456	1403.8	8.4563e-06	8.5598e-06	1469.8	282.01	8.369e-06	8.5362e-06	345.66	100.72	79.877	23.312	8.5731e-06	31.884	21.294	-31.276	-128.771	-157.380	-43.708	-14.826	-157.671	-150.357	-38.582	-25.784	-150.625	-144.658	-144.496	-136.877	-60.079	-137.841	-8191	255	
592.703	1	1	0	0	0.42465	0.054996	0.2716	0.25752	0.23736	0.10561	0.15608	0.04036	0.062262	0.19283	0.061173	0.10918	0.093351	0.15479	0.11957	0.143	-2.6667	-3.6729	-3.1958	-3.2979	-3.4604	-3.1625	-3.4562	-3.7438	-2.9646	-3.575	-3.3187	-3.0187	-3.6125	-3.0708	-3.1333	-3.4729	58.115	151.948	107.485	145.865	38.784	-159.351	128.810	94.420	181.593	127.757	-33.702	-160.882	-43.071	-105.694	122.807	-125.865	0.000893	0.00042155	7.0776e-05	1418.9	2.3405e-06	6.8687e-07	1482.7	283.87	1.1518e-05	6.1747e-06	345.3	100.05	79.306	22.819	4.7242e-06	30.796	0.00076336	0.00078894	0.00022427	1406.3	8.7571e-06	8.9142e-06	1474.1	283.82	8.7003e-06	8.7119e-06	346.68	101.19	80.098	23.446	8.7163e-06	31.907	16.175	-79.475	-146.613	-157.329	-105.234	180.671	-157.662	-150.324	-45.669	92.406	-150.581	-145.006	-144.101	-137.236	-40.096	-137.787	-8191	255	
592.775	1	1	0	0	0.24329	0.1036	0.11118	0.097251	0.20465	0.013693	0.12118	0.22477	0.048194	0.081584	0.14282	0.16336	0.35766	0.1297	0.41479	0.18727	-2.6583	-3.3979	-3.3021	-3.3417	-3.4229	-3.1667	-3.5083	-3.5083	-3.0917	-3.4354	-3.3875	-3.1854	-3.5771	-3.0958	-3.2354	-3.5563	171.836	138.223	-115.296	141.931	-7.155	121.508	33.108	191.220	33.959	-45.031	140.895	-54.898	153.497	157.462	119.435	123.386	0.00098047	0.00048382	0.00011588	1420.5	4.5686e-06	1.1039e-06	1483.5	284.26	9.3924e-06	8.339e-06	344.14	99.285	79.225	22.671	6.9306e-06	30.718	0.00076903	0.00080305	0.00022277	1410	8.7709e-06	9.0135e-06	1475.6	283.57	8.7404e-06	8.7618e-06	347.12	100.99	80.097	23.371	8.5686e-06	31.93	20.899	-37.510	-2.344	-157.336	-43.723	142.440	-157.594	-150.535	-6.840	-42.559	-150.838	-144.849	-144.443	-137.297	35.623	-137.622	-8191	255	
592.871	1	1	0	0	0.099002	0.14136	0.023349	0.4345	0.23774	0.16099	0.19258	0.15009	0.12103	0.039375	0.19838	0.19342	0.17579	0.13138	0.23365	0.14635	-2.6688	-3.3667	-3.4521	-3.1792	-3.4229	-3.2729	-3.3604	-3.5062	-3.0854	-3.3583	-3.5021	-3.1167	-3.5563	-3.2667	-3.3146	-3.5625	54.130	-41.042	110.070	-127.120	25.362	-54.679	103.206	-47.935	-155.131	184.938	144.920	190.738	-100.189	187.978	46.513	-109.106	0.00086648	0.00036877	2.2201e-05	1419	2.3448e-06	3.3678e-06	1485.6	281.22	9.4994e-06	7.2954e-06	343.76	100.2	79.085	22.545	3.4013e-06	30.819	0.00075192	0.00078392	0.00021938	1405.9	8.4765e-06	8.6043e-06	1473.9	283.02	8.5411e-06	8.7252e-06	346.67	101.28	80.158	23.373	8.9234e-06	31.999	24.058	-45.611	143.070	-157.340	-11.264	-108.036	-157.832	-150.367	-40.234	-61.850	-150.685	-144.728	-144.502	-137.115	-4.417	-137.477	-8191	255	
592.990	1	1	0	0	0.12039	0.074248	0.19397	0.16482	0.24513	0.19057	0.055698	0.048656	0.13416	0.10698	0.019243	0.069207	0.12963	0.2539	0.20152	0.17462	-2.7188	-3.25	-3.4313	-3.275	-3.5792	-3.3125	-3.2833	-3.5438	-3.2812	-3.2771	-3.7271	-3.0083	-3.5167	-3.5375	-3.2167	-3.6146	-38.523	156.585	-102.497	-136.346	-162.863	59.106	26.823	-87.242	59.655	-117.496	-46.135	-76.913	-54.567	-78.375	79.135	142.208	0.00069968	0.00058125	5.7101e-05	1421.3	3.5212e-06	5.158e-06	1486.3	284.33	4.283e-06	1.0838e-05	344.71	100.38	79.299	22.696	2.9943e-06	30.981	0.00078884	0.00080979	0.00023302	1411.5	9.0141e-06	9.1648e-06	1480.7	284.91	8.9383e-06	9.2861e-06	348.22	101.63	80.341	23.494	9.061e-06	32.063	11.209	-110.546	-28.304	-157.413	-46.328	-52.523	-157.812	-150.798	-0.407	-81.965	-150.705	-144.694	-144.208	-137.017	48.853	-137.603	-8191	255	
593.086	1	1	0	0	0.10867	0.12374	0.15629	0.12867	0.037019	0.15501	0.26894	0.06851	0.19053	0.12145	0.15242	0.27719	0.21405	0.081359	0.16215	0.079714	-2.8167	-3.2729	-3.4021	-3.1437	-3.2542	-3.4417	-3.3146	-3.6146	-3.0833	-3.3729	-3.6146	-3.2354	-3.3	-3.4104	-3.0583	-3.5917	113.959	-117.304	-24.467	-160.601	-3.141	20.956	154.837	40.910	-27.458	-124.170	150.728	-163.526	120.863	185.066	-61.352	131.358	0.00084616	0.00018127	0.00012558	1418.7	4.392e-06	2.1483e-06	1488.6	283.22	1.3081e-05	5.5855e-06	343.71	99.854	79.492	22.71	8.4299e-06	30.884	0.00078572	0.00083702	0.00023259	1413.9	9.0765e-06	9.1133e-06	1482.9	284.65	9.0183e-06	9.3535e-06	348.51	101.63	80.518	23.455	9.1189e-06	32.025	24.556	-15.040	-69.902	-157.405	-25.684	69.519	-157.717	-150.656	-31.969	-28.998	-150.519	-144.581	-144.629	-137.307	-32.953	-137.341	-8191	255	
593.182	1	1	0	0	0.088293	0.1675	0.22628	0.42991	0.12633	0.22519	0.25102	0.26363	0.18242	0.33458	0.096347	0.18543	0.26209	0.23109	0.21053	0.13355	-2.9333	-3.0875	-3.5875	-3.1292	-3.3063	-3.3979	-3.3229	-3.5396	-3.2604	-3.2479	-3.6937	-3.1875	-3.3896	-3.5792	-3.0521	-3.5104	-151.967	137.379	39.363	-165.478	-31.223	-85.542	134.635	132.348	75.831	134.604	12.932	144.660	-138.342	-112.235	145.208	39.381	0.00084752	0.0007012	8.347e-05	1420.6	2.9985e-06	3.3508e-06	1486	283.94	7.979e-06	6.8207e-06	345.58	99.703	79.599	22.676	2.2217e-06	30.974	0.00078441	0.00082527	0.00023124	1413	8.8532e-06	9.2919e-06	1480.6	285.6	8.9683e-06	9.2045e-06	348.04	101.48	80.446	23.447	8.9712e-06	32.069	30.518	-95.569	-44.174	-157.348	-25.764	16.697	-157.546	-150.589	-44.211	-41.329	-150.827	-144.929	-144.401	-137.123	-3.737	-137.672	-8191	255	
593.278	1	1	0	0	0.087543	0.24389	0.27217	0.19539	0.11584	0.03922	0.36455	0.12502	0.12306	0.10213	0.045848	0.073333	0.047784	0.12032	0.012861	0.10981	-2.8333	-3.0938	-3.6104	-3.325	-3.3292	-3.5104	-3.1937	-3.4854	-3.1896	-3.1208	-3.6312	-3.1854	-3.3937	-3.5292	-3.1813	-3.3208	-4.216	-48.722	117.863	114.219	-26.689	40.008	101.350	127.706	-112.484	-120.993	161.254	175.159	46.340	-144.432	172.907	138.298	0.00069516	0.000503	0.00012745	1423.6	5.176e-06	5.633e-06	1489.9	284.53	3.3042e-06	8.5687e-06	345.89	99.893	79.038	22.631	6.1647e-06	30.683	0.00079058	0.00082867	0.00023272	1416	9.2008e-06	9.176e-06	1480.5	284.94	8.9399e-06	9.1774e-06	349.06	101.51	80.381	23.396	8.9326e-06	31.988	23.109	-47.288	-72.399	-157.232	7.331	-70.632	-157.686	-150.459	-16.250	-19.606	-150.634	-144.576	-144.382	-136.920	-16.319	-137.784	-8191	255	
593.375	1	1	0	0	0.32282	0.2751	0.32647	0.29676	0.073999	0.06219	0.43038	0.089641	0.023097	0.097435	0.11575	0.073463	0.23	0.14931	0.32185	0.14291	-2.9854	-3.0083	-3.375	-3.4333	-3.3604	-3.7042	-3.1854	-3.4479	-3.6333	-3.1479	-3.4313	-3.4125	-3.175	-3.5271	-3.3	-3.3396	1.080	-79.488	5.611	-159.211	188.490	179.882	105.827	143.143	34.778	-11.468	-112.097	-152.455	-103.779	190.933	-5.273	-75.856	0.00092849	0.00028741	0.00016223	1427.6	3.2925e-06	1.2975e-05	1484	284.61	1.1288e-05	4.9181e-06	344.45	100.34	78.999	22.799	5.6829e-06	31.123	0.00077825	0.00081215	0.00022662	1413.3	9.0349e-06	9.2056e-06	1480.8	284.79	8.992e-06	8.9456e-06	348.45	101.52	80.24	23.467	8.8653e-06	32.005	16.963	-70.408	-37.116	-157.368	-31.897	-44.407	-157.613	-150.387	-13.223	-39.603	-150.591	-144.597	-144.535	-137.075	-63.748	-137.519	-8191	255	
593.471	1	1	0	0	0.086188	0.10564	0.36386	0.15653	0.19974	0.11637	0.35645	0.30275	0.087177	0.13907	0.10919	0.10989	0.17915	0.13573	0.14279	0.15678	-3.175	-3.0625	-3.5521	-3.3833	-3.0938	-3.6333	-3.3479	-3.4979	-3.4688	-3.1375	-3.625	-3.4313	-3.0979	-3.5625	-3.0896	-3.35	-125.180	-160.642	-30.719	-144.599	-163.749	-117.007	122.036	93.352	-55.744	-31.280	115.991	108.689	-156.534	-19.500	29.075	20.429	0.00085863	0.00062668	3.7121e-05	1416	4.0342e-06	4.4942e-06	1485.1	284.68	1.0138e-05	7.3727e-06	344.72	99.993	79.296	22.726	3.1943e-07	30.79	0.00078364	0.00083321	0.00022846	1412.5	9.0668e-06	9.0592e-06	1480.7	285.36	9.0313e-06	9.1389e-06	348.95	101.77	80.607	23.469	9.1342e-06	32.018	19.661	-91.819	-28.535	-157.554	-79.074	29.288	-157.809	-150.402	-46.340	-90.313	-150.652	-145.000	-144.417	-136.963	35.186	-137.628	-8191	255	
593.591	1	1	0	0	0.1997	0.03687	0.14431	0.20562	0.10885	0.053058	0.27848	0.22294	0.055081	0.1398	0.21256	0.2068	0.19196	0.20903	0.1392	0.23389	-3.1562	-2.9083	-3.45	-3.4708	-3.1125	-3.5979	-3.3896	-3.375	-3.5875	-3.0896	-3.5542	-3.4958	-3.0979	-3.6083	-3.0958	-3.1604	163.045	120.615	145.390	155.645	12.248	106.501	165.758	141.145	-106.527	65.185	-161.445	162.671	-127.618	110.987	66.688	174.170	0.00097751	0.00052831	0.00014887	1422.9	3.1901e-06	4.9687e-06	1489.3	285.13	9.1799e-06	8.9997e-06	345.99	100.77	79.055	22.676	6.9183e-06	30.869	0.00079095	0.0008387	0.00023301	1416.4	8.9374e-06	9.1291e-06	1481.5	285.61	9.1495e-06	9.3294e-06	349.56	101.75	80.597	23.522	9.144e-06	32.121	26.318	-47.337	-44.483	-157.452	-30.810	48.697	-157.555	-150.640	-16.532	-66.512	-150.874	-145.082	-144.318	-136.843	7.199	-137.442	-8191	255	
593.687	1	1	0	0	0.062559	0.17201	0.13774	0.0624	0.29745	0.038118	0.26873	0.38759	0.11482	0.13705	0.089925	0.11035	0.15106	0.12275	0.17405	0.058275	-3.0646	-3.0875	-3.4396	-3.6312	-3.2687	-3.5667	-3.5854	-3.2479	-3.5521	-3.2521	-3.4208	-3.45	-3.0167	-3.4625	-3.3438	-3.1479	-75.790	168.411	-125.165	186.425	-168.253	-125.692	161.034	108.890	17.665	52.181	-115.994	145.553	-135.449	98.884	-5.922	-65.017	0.00095745	0.00027924	6.6815e-05	1425.9	1.2102e-06	7.3505e-06	1484.2	284.49	7.8952e-06	5.5595e-06	345.04	100.25	79.336	22.595	4.8431e-06	30.854	0.00080608	0.00084575	0.00023669	1418.9	9.3215e-06	9.2823e-06	1483	285.47	9.1536e-06	9.2462e-06	348.66	101.71	80.652	23.504	9.2523e-06	32.038	27.029	-71.031	-135.024	-157.448	-79.608	-4.848	-157.748	-150.660	-95.528	10.126	-150.652	-144.893	-144.488	-137.223	-23.317	-137.912	-8191	255	
593.784	1	1	0	0	0.063697	0.12638	0.18971	0.095188	0.12469	0.16721	0.14771	0.1656	0.12975	0.099117	0.17084	0.061137	0.093141	0.16875	0.11437	0.1152	-3.1729	-3.0792	-3.3292	-3.65	-3.1708	-3.4667	-3.5333	-3.0083	-3.5042	-3.2771	-3.1917	-3.5458	-3.2104	-3.5563	-3.3375	-3.0271	155.962	-129.680	78.138	87.160	47.332	-138.750	166.369	-131.700	133.742	15.053	146.328	-57.394	-116.178	161.274	-45.553	16.120	0.0010102	0.00025848	4.3353e-05	1423.8	4.7699e-06	4.5017e-06	1491.1	284.97	9.9851e-06	5.9942e-06	343.39	100.3	79.327	22.679	3.6862e-06	30.984	0.00081124	0.00083781	0.00023504	1416.4	9.2347e-06	9.1723e-06	1485.1	285.93	9.19e-06	9.364e-06	348.55	101.76	80.544	23.523	9.2303e-06	32.157	19.823	-95.873	-117.545	-157.467	-33.108	-6.478	-157.810	-150.742	12.551	-11.343	-150.603	-144.920	-144.491	-137.115	-59.188	-137.497	-8191	255	
593.880	1	1	0	0	0.055134	0.2194	0.15902	0.11146	0.082024	0.15455	0.12808	0.22191	0.17551	0.13854	0.046967	0.13196	0.068976	0.1034	0.20243	0.11577	-3.0896	-3.3438	-3.3229	-3.8	-3.0604	-3.4938	-3.5	-3.2208	-3.4729	-3.4042	-3.2708	-3.6229	-3.2583	-3.6479	-3.3792	-3.1396	118.869	-40.200	83.050	140.338	-37.437	30.145	123.145	179.541	157.159	-64.246	65.326	189.726	177.817	17.381	103.934	-54.289	0.00092427	0.00045194	4.7274e-05	1425.5	1.0232e-06	4.9246e-06	1490.5	282.96	6.939e-06	5.0167e-06	343.37	100.35	79.259	22.726	4.9974e-06	30.78	0.00081057	0.00085602	0.00023787	1417.1	9.1615e-06	9.2486e-06	1481.9	285.31	9.2966e-06	9.3468e-06	348.29	101.71	80.57	23.478	9.3106e-06	32.094	23.211	-45.461	-160.633	-157.394	-114.916	-0.265	-157.688	-150.710	24.837	-10.188	-150.709	-144.775	-144.225	-137.057	68.474	-137.492	-8191	255	
593.999	1	1	0	0	0.063801	0.082283	0.17023	0.092163	0.13688	0.26318	0.2374	0.19394	0.12582	0.1003	0.20773	0.13797	0.19689	0.064709	0.16257	0.24282	-3.0875	-3.1896	-3.0396	-3.6854	-3.1521	-3.325	-3.7458	-3.3104	-3.4083	-3.1937	-3.2208	-3.5625	-3.1729	-3.25	-3.5167	-3.2208	99.215	161.138	58.072	176.668	-94.900	148.533	94.845	-123.365	56.356	138.209	67.337	106.512	119.537	105.587	7.625	-114.689	0.00096545	0.00016589	9.8259e-05	1426.8	4.2137e-06	5.9366e-06	1492.2	284.11	1.4068e-05	7.6113e-06	346.97	100.32	79.204	22.696	5.0416e-06	30.796	0.00080527	0.00084426	0.00023552	1415.5	9.1255e-06	9.0781e-06	1481.3	284.91	9.0291e-06	9.0609e-06	348.49	101.51	80.348	23.476	8.974e-06	31.99	20.291	139.025	-15.650	-157.354	-76.615	-95.571	-157.498	-150.635	-22.529	-32.361	-150.533	-144.666	-144.391	-136.928	14.116	-137.305	-8191	255	
594.072	1	1	0	0	0.15453	0.25227	0.10937	0.088586	0.11732	0.053199	0.20756	0.10335	0.19058	0.1098	0.14265	0.18382	0.17207	0.30235	0.10295	0.078572	-3.2354	-3.2104	-3.1813	-3.6542	-3.2917	-3.4542	-3.8021	-3.1688	-3.4583	-3.4292	-3.0667	-3.65	-3.3375	-3.2458	-3.6917	-3.0333	-87.324	-167.730	174.112	24.774	-117.535	-158.899	121.252	-150.576	-130.176	-133.094	-5.948	-165.614	163.087	7.108	-99.134	26.374	0.00085081	9.8579e-05	4.9975e-05	1421.6	4.85e-06	2.8594e-06	1490	284.16	1.1565e-05	3.8692e-06	345.96	100.42	79.299	22.62	7.0346e-06	30.951	0.0007982	0.00083339	0.00023606	1415.5	9.2391e-06	9.4491e-06	1485.7	285.72	9.221e-06	9.6061e-06	349.92	101.89	80.711	23.496	9.2418e-06	32.074	17.712	82.146	186.250	-157.440	-98.237	-80.944	-157.637	-150.677	-24.116	-24.659	-150.623	-144.956	-144.548	-136.851	9.078	-137.764	-8191	255	
594.191	1	1	0	0	0.18096	0.075769	0.22768	0.32129	0.18399	0.11042	0.14	0.2317	0.099216	0.21206	0.02399	0.27875	0.15109	0.049147	0.11409	0.14745	-2.9979	-3.4688	-3.0062	-3.7438	-3.2021	-3.2979	-3.7438	-3.2271	-3.4062	-3.5167	-3.1979	-3.5042	-3.3021	-3.1604	-3.6208	-3.0854	-8.819	89.557	-85.227	168.503	72.818	98.539	72.943	120.174	-144.161	-120.025	-44.675	133.971	141.921	167.794	-137.910	57.009	0.00075908	0.00030853	0.00013642	1429.8	1.0009e-06	6.6957e-06	1488.6	285.71	8.6392e-06	8.0956e-06	345.87	100.17	78.986	22.714	2.6484e-06	30.702	0.00082684	0.00085786	0.00023466	1420.5	9.1356e-06	9.2514e-06	1484.7	285.87	9.1111e-06	9.3542e-06	349.38	101.77	80.542	23.529	9.2374e-06	32.062	16.346	-100.959	-78.488	-157.508	146.842	48.727	-157.470	-150.540	-47.605	-12.051	-150.742	-144.847	-144.714	-137.098	12.368	-137.550	-8191	255	
594.287	1	1	0	0	0.30363	0.16963	0.10702	0.30042	0.080987	0.18657	0.19387	0.072669	0.31005	0.25975	0.041162	0.032247	0.033923	0.086296	0.18499	0.15253	-2.8708	-3.5875	-3.1688	-3.5458	-3.2917	-2.9792	-3.6896	-3.1333	-3.4104	-3.6083	-3.0729	-3.3958	-3.4333	-3.1063	-3.55	-3.1146	-57.142	189.313	84.458	115.591	29.500	98.959	118.098	117.876	119.411	-30.979	120.192	-22.349	126.665	107.102	-27.776	-83.519	0.00071453	0.00030436	9.7573e-05	1428.1	6.6375e-06	6.3298e-06	1490.2	284.32	6.1014e-06	1.3199e-06	344.14	100.6	79.205	22.624	3.2878e-06	30.91	0.00080688	0.00085817	0.00023831	1421.7	9.4413e-06	9.3945e-06	1484	285.76	9.0908e-06	9.4048e-06	348.5	101.61	80.513	23.441	9.1104e-06	32.044	24.564	-166.616	-118.671	-157.445	-16.583	-19.051	-157.561	-150.656	-35.733	101.963	-150.932	-144.798	-144.519	-136.998	-8.454	-137.931	-8191	255	
594.383	1	1	0	0	0.2384	0.16499	0.15479	0.27101	0.18428	0.10589	0.42605	0.13111	0.14206	0.35703	0.065352	0.11388	0.14324	0.14419	0.27086	0.18169	-2.8604	-3.6104	-3.1792	-3.6312	-3.3667	-3.0854	-3.8312	-3.3521	-3.1229	-3.6479	-3.1375	-3.3667	-3.5104	-3.3479	-3.4688	-3.4792	-2.561	144.842	37.930	102.603	-101.646	52.812	102.356	151.490	-39.174	28.772	169.987	-166.074	-89.315	134.961	0.650	178.035	0.00076143	0.00025547	0.00023115	1426.3	5.4132e-06	7.4057e-06	1489.9	283.22	9.3192e-06	7.9472e-06	346.17	100.01	79.211	22.695	3.4411e-06	30.992	0.00080668	0.0008446	0.00023955	1418.2	9.1612e-06	9.3389e-06	1483.8	285.27	9.1459e-06	9.381e-06	348.96	101.73	80.456	23.478	8.9908e-06	32.093	18.049	-119.259	-92.560	-157.420	-25.966	-14.100	-157.580	-150.518	-76.677	-43.832	-150.758	-144.851	-144.290	-137.001	-64.741	-137.846	-8191	255	
594.479	1	1	0	0	0.33845	0.13571	0.11298	0.30258	0.083821	0.13316	0.14241	0.24574	0.084385	0.076222	0.16246	0.047552	0.13593	0.10975	0.15645	0.11777	-2.8979	-3.5979	-2.9729	-3.6208	-3.5438	-3.0271	-3.7458	-3.4229	-3.2958	-3.7021	-3.1729	-3.4521	-3.5	-3.1708	-3.5938	-3.4271	-75.920	-72.857	83.916	147.970	-19.652	22.154	142.741	-117.718	-53.083	21.448	40.988	55.456	60.989	172.534	124.028	94.267	0.00087292	0.00012953	0.00016167	1425.2	4.7761e-06	5.7398e-06	1489.3	285.24	5.9348e-06	6.4505e-06	345.51	100.26	79.25	22.782	7.9803e-06	30.848	0.00080477	0.00082712	0.00023617	1419.2	9.1204e-06	9.4018e-06	1485.4	285.58	9.1572e-06	9.3876e-06	348.98	101.81	80.514	23.503	9.1994e-06	32.122	12.586	-119.718	-73.413	-157.266	-3.697	-69.257	-157.504	-150.510	-128.272	8.165	-150.885	-144.868	-144.430	-137.411	0.200	-137.519	-8191	255	
594.600	1	1	0	0	0.22214	0.092615	0.073212	0.29768	0.1904	0.16763	0.29452	0.34593	0.095102	0.17051	0.1251	0.19839	0.28747	0.16843	0.24794	0.045188	-2.7354	-3.6312	-3.0625	-3.4833	-3.7229	-3.0563	-3.7292	-3.6771	-3.1896	-3.7687	-3.4125	-3.3187	-3.6	-3.05	-3.4958	-3.375	-22.072	-165.637	-80.640	161.662	-136.982	177.050	102.353	122.919	158.825	87.733	182.196	121.807	-111.576	85.498	61.352	85.267	0.00080813	0.00017969	0.00011928	1425.3	4.8087e-06	7.8825e-06	1488.9	285.03	1.31e-05	4.257e-06	343.91	100.28	79.767	22.638	4.7957e-06	30.793	0.00081446	0.00085762	0.0002373	1419.7	9.1117e-06	9.3265e-06	1482.9	285.25	8.9202e-06	9.1965e-06	348.63	101.71	80.626	23.447	9.2291e-06	31.996	13.998	14.322	-43.899	-157.560	-71.082	-47.856	-157.628	-150.635	-26.544	13.043	-150.661	-144.815	-144.512	-136.586	-98.240	-137.538	-8191	255	
594.672	1	1	0	0	0.12507	0.21657	0.22434	0.47033	0.17381	0.053698	0.17894	0.32297	0.12248	0.13495	0.23581	0.1236	0.17926	0.13306	0.23322	0.16903	-2.5333	-3.6813	-3.1479	-3.3563	-3.4292	-3.1646	-3.7104	-3.3792	-3.1771	-3.5458	-3.4208	-3.3396	-3.6937	-3.0979	-3.3917	-3.3083	68.831	62.744	99.324	100.192	-154.262	54.995	-150.420	137.679	-74.118	181.223	131.874	-125.311	70.057	77.414	-59.340	14.733	0.00092086	0.00039548	0.00014432	1433.1	1.0939e-05	7.3899e-06	1501.6	285.44	5.825e-06	3.515e-06	345.97	100.1	79.747	22.804	5.1274e-06	31.03	0.00081342	0.00087029	0.00024233	1422.6	9.5404e-06	9.7813e-06	1489.2	285.9	9.5165e-06	9.7185e-06	349.83	102.1	80.878	23.629	9.6327e-06	32.238	21.054	-50.248	-57.877	-157.236	-70.780	12.911	-157.622	-150.416	-41.024	-34.593	-150.639	-144.701	-144.199	-137.240	-21.290	-137.517	-8191	255	
594.768	1	1	0	0	0.17974	0.042049	0.087597	0.20142	0.055109	0.17529	0.28943	0.031769	0.097399	0.13746	0.2316	0.25963	0.13953	0.15516	0.2198	0.24461	-2.6979	-3.5146	-3.1271	-3.35	-3.45	-3.2104	-3.5208	-3.7208	-3.1833	-3.3979	-3.4917	-3.1979	-3.6542	-3.0563	-3.2875	-3.5229	-4.905	-58.366	55.703	73.588	-158.172	-102.909	134.338	-144.822	-123.238	150.086	-96.901	112.989	-88.286	113.422	10.598	81.542	0.00087015	0.00015888	5.182e-06	1433.9	2.303e-06	7.5061e-06	1500.8	286.19	1.4974e-06	7.8425e-06	345.6	99.929	79.214	22.683	2.9751e-06	30.968	0.00084857	0.0008819	0.0002476	1425.7	9.6123e-06	9.7269e-06	1491.6	286.64	9.5477e-06	9.6763e-06	350.07	101.99	80.767	23.541	9.5406e-06	32.242	23.198	178.087	-108.820	-157.526	-50.861	-25.189	-157.602	-150.648	-56.939	-30.482	-150.705	-144.628	-144.446	-137.374	-48.286	-137.763	-8191	255	
594.864	1	1	0	0	0.3242	0.1192	0.17935	0.20274	0.038166	0.24228	0.19053	0.33799	0.20015	0.12005	0.030119	0.31373	0.23595	0.1646	0.23322	0.052378	-2.7854	-3.4833	-3.2979	-3.3187	-3.7125	-3.2083	-3.3583	-3.7792	-3.0604	-3.3521	-3.4313	-3.2687	-3.5875	-3.3417	-3.3708	-3.6708	87.178	143.538	-61.405	52.487	74.884	137.401	141.499	105.205	160.699	-77.691	-6.265	137.445	-98.627	78.326	129.824	-88.509	0.00068769	0.0010234	0.00013965	1426.6	2.3578e-06	4.1311e-06	1496.7	285.62	1.2004e-05	6.536e-06	347.52	100.13	80.17	22.566	6.0936e-06	30.917	0.00082861	0.00087349	0.00024379	1421.8	9.5063e-06	9.6055e-06	1491.8	286.6	9.4087e-06	9.6183e-06	349.84	101.8	80.891	23.487	9.4201e-06	32.202	13.775	-50.396	-152.034	-157.445	11.184	-59.224	-157.762	-150.678	-42.940	9.282	-150.662	-144.578	-144.760	-137.325	49.241	-137.449	-8191	255	
594.960	1	1	0	0	0.22412	0.24199	0.25237	0.45746	0.032869	0.18944	0.16754	0.11848	0.051609	0.17062	0.31137	0.16145	0.11553	0.093069	0.1747	0.23994	-2.6792	-3.4083	-3.4313	-3.1937	-3.4396	-3.3854	-3.1792	-3.5229	-3.0229	-3.25	-3.3708	-2.9708	-3.6542	-3.25	-3.0104	-3.7292	-123.457	56.980	-93.779	159.598	11.243	-79.463	124.335	155.839	29.901	-17.127	171.599	115.575	126.860	182.149	41.591	60.121	0.00080267	0.00041969	1.2435e-05	1430.7	1.9359e-06	9.3247e-06	1492.2	287.12	4.4279e-06	8.9392e-06	344.01	100.21	79.436	22.754	2.5996e-07	30.965	0.00083673	0.00086275	0.00024143	1423.6	9.4936e-06	9.687e-06	1487.4	287.09	9.2012e-06	9.3313e-06	349.28	101.83	80.722	23.481	9.2145e-06	32.187	23.615	-72.749	165.447	-157.412	27.504	-32.581	-157.441	-150.724	-113.579	-55.128	-150.807	-144.970	-144.251	-137.068	-63.834	-137.810	-8191	255	
595.079	1	1	0	0	0.15451	0.25963	0.082338	0.2082	0.046776	0.12852	0.28591	0.15473	0.14155	0.097679	0.1676	0.17932	0.26859	0.16375	0.15999	0.2491	-2.6583	-3.3125	-3.3333	-3.1354	-3.4583	-3.1708	-3.3042	-3.8479	-3.1354	-3.3083	-3.7188	-3.2708	-3.4813	-3.3937	-3.0438	-3.5271	139.074	127.937	-64.665	99.025	-12.089	80.392	99.090	-129.400	40.659	82.682	-145.832	50.975	154.267	78.057	-134.689	137.032	0.0010082	0.00065287	8.0633e-05	1423.5	3.0499e-06	3.6924e-06	1497.2	285.03	3.1472e-06	6.2633e-06	347.29	100.15	79.115	22.727	2.813e-06	30.943	0.0008147	0.00086275	0.00023639	1418.4	9.4048e-06	9.5394e-06	1489.5	285.89	9.5212e-06	9.4823e-06	350	101.72	80.584	23.476	9.312e-06	32.11	30.592	-95.030	-149.184	-157.447	-48.833	-46.928	-157.643	-150.716	-10.754	-23.650	-150.753	-144.780	-144.629	-136.897	-55.056	-137.562	-8191	255	
595.175	1	1	0	0	0.053968	0.24922	0.11186	0.10479	0.28559	0.070492	0.13881	0.17984	0.06944	0.0070173	0.12685	0.046031	0.2064	0.28563	0.17024	0.10352	-2.7604	-3.1083	-3.4646	-3.325	-3.3917	-3.3812	-3.2229	-3.7188	-3.2417	-3.0021	-3.6708	-3.0563	-3.4625	-3.4146	-3.0458	-3.5146	-145.976	157.603	-83.377	85.694	-163.836	-154.349	62.263	-161.243	124.689	-92.783	-128.059	185.301	-38.883	-166.306	77.323	88.758	0.00082443	0.00060483	0.00028207	1427.1	3.2181e-06	1.0043e-05	1493.9	284.96	1.2852e-05	3.2131e-06	343.87	99.955	79.508	22.772	1.0953e-05	30.848	0.00080231	0.00084844	0.00023925	1420.1	9.3594e-06	9.3824e-06	1487.4	286.03	9.2513e-06	9.6373e-06	348.77	101.81	80.777	23.541	9.5275e-06	32.166	19.113	-100.809	-78.363	-157.344	42.316	-22.168	-157.709	-150.592	-18.590	-24.131	-150.465	-144.960	-144.375	-136.855	-34.191	-137.648	-8191	255	
595.271	1	1	0	0	0.085758	0.044859	0.19089	0.41772	0.16089	0.13073	0.20786	0.14556	0.072779	0.014463	0.15039	0.29152	0.10286	0.17367	0.19841	0.30863	-2.8625	-3.1458	-3.3812	-3.25	-3.2229	-3.3333	-3.2271	-3.6146	-3.2	-3.1875	-3.5583	-3.175	-3.3146	-3.5521	-2.9813	-3.5042	84.871	141.524	-127.216	123.276	101.162	182.453	137.678	126.690	-29.488	-27.512	134.286	32.017	169.391	182.666	121.054	167.343	0.00074425	0.00023146	0.00012415	1428.4	4.564e-06	6.4518e-06	1494.5	285.9	8.8352e-06	6.0368e-07	345.28	100.41	79.389	22.677	6.3476e-06	31.153	0.00081533	0.00086549	0.00024589	1420.7	9.3939e-06	9.5226e-06	1487.3	286.36	9.3922e-06	9.669e-06	349.77	102.01	80.708	23.566	9.5749e-06	32.208	24.561	-92.638	-71.240	-157.562	-97.348	26.973	-157.739	-150.514	-67.056	5.568	-150.393	-144.879	-144.148	-137.285	-15.176	-137.292	-8191	255	
595.367	1	1	0	0	0.071674	0.21431	0.24297	0.24696	0.10437	0.095682	0.20176	0.1921	0.25972	0.081241	0.099328	0.1743	0.060243	0.078272	0.16232	0.051102	-2.8021	-3.0062	-3.2812	-3.2292	-3.2833	-3.4229	-3.3	-3.5646	-3.3021	-2.9437	-3.5146	-3.2083	-3.2687	-3.5375	-3.0583	-3.525	68.791	-2.276	190.811	73.963	164.730	145.882	111.208	165.833	-70.111	76.135	20.802	-125.345	31.149	-47.954	-127.929	129.781	0.0010228	0.00036303	0.00012815	1428.1	4.3094e-06	8.3225e-06	1492.9	284.14	1.02e-05	3.3055e-06	345.12	100.09	79.36	22.664	6.6044e-06	30.825	0.00083329	0.0008813	0.00024531	1422.4	9.5334e-06	9.7916e-06	1488.3	286.07	9.4581e-06	9.7934e-06	349.84	101.87	80.814	23.539	9.514e-06	32.125	23.971	-49.331	-6.362	-157.458	-96.725	-32.090	-157.714	-150.478	-25.596	31.170	-150.572	-144.826	-144.318	-137.202	5.470	-137.829	-8191	255	
595.464	1	1	0	0	0.18009	0.13027	0.19413	0.24086	0.13592	0.10564	0.24999	0.3169	0.044049	0.089808	0.12881	0.24168	0.22666	0.08263	0.065077	0.16423	-3.0729	-2.9938	-3.575	-3.3625	-3.3583	-3.5187	-3.2292	-3.4875	-3.5104	-3.1375	-3.45	-3.3229	-3.0646	-3.5458	-3.1312	-3.4208	121.563	159.555	62.020	-157.698	-162.061	19.129	145.247	174.303	184.133	-155.705	127.311	34.163	181.858	-9.506	151.090	159.189	0.00078014	0.00033622	0.00020391	1426.6	3.7308e-06	6.929e-06	1489.7	283.48	7.2049e-06	4.5909e-06	346.2	100.44	80.053	22.853	9.5321e-06	31.017	0.00082372	0.00087634	0.00023986	1421.2	9.3802e-06	9.6955e-06	1489.1	285.82	9.5243e-06	9.8199e-06	350.77	102.13	81.011	23.619	9.7377e-06	32.188	34.741	-83.934	-84.226	-157.310	-60.634	9.462	-157.544	-150.667	-15.400	-40.735	-150.895	-144.880	-144.523	-137.248	-17.346	-137.403	-8191	255	
595.560	1	1	0	0	0.10981	0.26111	0.16826	0.10325	0.33946	0.16934	0.35405	0.11985	0.21612	0.2112	0.13791	0.1984	0.03333	0.28293	0.22409	0.10415	-2.9375	-2.9271	-3.4979	-3.5125	-3.0021	-3.6437	-3.3063	-3.4396	-3.3792	-3.1833	-3.65	-3.4354	-3.2417	-3.3854	-3.0312	-3.1479	-121.284	156.435	23.302	-155.299	180.360	23.962	147.699	171.351	131.408	-72.662	-115.825	67.870	144.469	-168.036	-19.177	101.088	0.00073468	0.00038067	5.6036e-05	1427.2	3.36e-06	4.9101e-06	1495.2	284.6	9.2482e-06	5.9263e-06	344.42	100.52	79.41	22.694	3.3005e-06	30.852	0.00083992	0.00089464	0.00024853	1424.5	9.6985e-06	9.7378e-06	1490.6	286.68	9.4551e-06	9.7239e-06	349.34	102.18	81.066	23.543	9.6356e-06	32.249	28.814	-43.565	154.732	-157.546	-75.107	-46.474	-157.468	-150.603	-21.211	-15.376	-150.544	-144.753	-144.588	-137.105	-33.671	-137.529	-8191	255	
595.680	1	1	0	0	0.13566	0.095566	0.16573	0.073785	0.038288	0.10786	0.3489	0.15129	0.21336	0.20363	0.16326	0.084302	0.082672	0.30351	0.21655	0.18332	-3.0958	-3.0583	-3.2062	-3.7042	-3.1021	-3.5187	-3.4729	-3.2812	-3.5021	-2.9729	-3.475	-3.3688	-3.0292	-3.4771	-3.0687	-3.2417	95.217	155.759	109.350	125.847	50.085	122.228	-149.208	-152.261	48.550	0.435	159.617	48.157	-34.725	171.920	78.830	92.855	0.00091209	0.00041586	8.2933e-05	1431.4	6.3413e-06	8.1788e-06	1499.2	285.56	1.4554e-05	4.0187e-06	345.31	100.29	79.604	22.682	4.954e-06	30.96	0.00084313	0.00089465	0.00024888	1425	9.6866e-06	9.8854e-06	1489.4	286.91	9.7595e-06	9.9427e-06	349.93	102.33	81.046	23.573	9.6846e-06	32.274	21.363	-62.443	29.589	-157.533	-56.382	-26.412	-157.566	-150.656	-90.931	23.467	-150.708	-144.869	-144.286	-136.963	-11.910	-137.152	-8191	255	
595.777	1	1	0	0	0.025412	0.30965	0.21142	0.25848	0.12153	0.22755	0.29582	0.23546	0.10982	0.16563	0.19337	0.31675	0.13929	0.078718	0.10735	0.15822	-3.2188	-3.0312	-3.1917	-3.5396	-3.075	-3.4479	-3.4271	-3.3083	-3.675	-3.1208	-3.4021	-3.6146	-3.0417	-3.5583	-3.0104	-3.1333	-49.457	8.998	-100.696	-105.799	108.534	-48.225	151.540	-20.098	87.275	82.496	-167.961	103.597	-167.022	57.230	82.164	85.276	0.00096922	0.00039885	0.00017135	1427	1.9802e-06	4.0126e-06	1497.9	285.47	1.3254e-05	7.6483e-06	347.27	100.45	78.945	22.536	4.7183e-06	30.756	0.00085146	0.00089551	0.00024743	1422.3	9.7907e-06	9.8007e-06	1490.1	286.47	9.6724e-06	9.8156e-06	350.46	102.24	80.715	23.538	9.6187e-06	32.195	30.310	-43.737	-103.153	-157.498	28.971	-42.146	-157.666	-150.753	-41.192	-27.418	-150.654	-144.727	-144.480	-136.965	-66.869	-137.702	-8191	255	
595.873	1	1	0	0	0.17487	0.27353	0.32418	0.11239	0.10549	0.22099	0.10724	0.29552	0.12398	0.14774	0.10668	0.074031	0.1605	0.15759	0.25615	0.28761	-3.3187	-3.25	-3.3146	-3.6813	-3.1875	-3.5833	-3.6292	-3.2417	-3.4292	-3.0229	-3.4146	-3.3792	-3.0354	-3.5646	-3.275	-3.1292	-159.605	-41.801	155.319	135.762	-41.187	108.837	185.700	157.075	155.158	-36.057	96.918	158.592	137.540	146.779	-66.053	58.181	0.00069952	0.0005586	4.1164e-05	1430.2	6.7526e-06	3.7851e-06	1493.6	284.79	4.7216e-06	4.6812e-06	344.93	100.22	79.194	22.789	4.5177e-06	30.887	0.00084201	0.00087909	0.0002477	1424.8	9.7566e-06	9.7443e-06	1491.2	286.64	9.4863e-06	9.6227e-06	350.39	101.89	80.719	23.596	9.6207e-06	32.169	29.559	-82.459	-83.788	-157.595	-32.714	42.501	-157.749	-150.748	-109.751	88.529	-150.652	-145.186	-144.218	-137.322	-87.899	-137.812	-8191	255	
595.969	1	1	0	0	0.23934	0.24421	0.18959	0.34744	0.099188	0.062606	0.20411	0.264	0.11121	0.0743	0.069278	0.16071	0.22556	0.10014	0.23763	0.35114	-3.0271	-3.2354	-3.1292	-3.8812	-2.9667	-3.3312	-3.5979	-3.1813	-3.5896	-3.2562	-3.1083	-3.7208	-3.1583	-3.4437	-3.4729	-3.0271	31.719	-93.845	92.988	162.133	-100.254	101.614	-165.777	157.273	147.969	-88.565	-96.804	106.214	142.658	-145.835	159.869	21.523	0.0010796	0.00023859	9.0984e-05	1427.1	1.6978e-06	4.0853e-06	1495	285.72	5.3826e-06	9.6525e-06	345.76	100.49	79.573	22.665	8.3371e-06	30.97	0.0008373	0.00088965	0.00024519	1422.1	9.5961e-06	9.6688e-06	1491	286.54	9.5063e-06	9.705e-06	350.79	102.24	80.946	23.533	9.4816e-06	32.197	15.249	-87.943	-65.545	-157.265	-105.191	6.192	-157.585	-150.641	-35.846	-17.080	-150.388	-145.196	-144.469	-137.429	-17.366	-137.252	-8191	255	
#DATA ENDS
