BOXY.EXE: ISS Imagent and Oximeter Data Acquisition Program Version 0.80
Ascii Record File

#ACQ INFORMATION
2  Detector Channels 
16  External MUX Channels 
1  Auxiliary Channels 
5000  Waveform (CCF) Frequency (Hz)
1  Waveforms Skipped 
30  Waveforms Averaged 
1  Cycles Averaged 
16  Acquisitions per Waveform 
10.0806  Updata Rate (Hz) 

#FILE INFORMATION
TRUE -- External MUX Channel results are PARSED.
FALSE -- AC DC and Phase are NOT grouped.
TRUE -- Companion Program Settings File CREATED.
FALSE -- AC data not excluded
FALSE -- DC data not excluded
FALSE -- Phase data not excluded
FALSE -- Auxillary Chn. data not excluded
Tab delimiters

#CALIBRATION STATE
TRUE -- Waveform Calibration Values APPLIED.


#AUX CALIBRATION VALUES
Val Type	aux-1	

Term	1.0000e+00	
Factor	0.0000e+00	


#WF CALIBRATION VALUES
A = Detector Channel
Val Type	A-AC1	A-AC2	A-AC3	A-AC4	A-AC5	A-AC6	A-AC7	A-AC8	A-AC9	A-AC10	A-AC11	A-AC12	A-AC13	A-AC14	A-AC15	A-AC16	A-DC1	A-DC2	A-DC3	A-DC4	A-DC5	A-DC6	A-DC7	A-DC8	A-DC9	A-DC10	A-DC11	A-DC12	A-DC13	A-DC14	A-DC15	A-DC16	A-Ph1	A-Ph2	A-Ph3	A-Ph4	A-Ph5	A-Ph6	A-Ph7	A-Ph8	A-Ph9	A-Ph10	A-Ph11	A-Ph12	A-Ph13	A-Ph14	A-Ph15	A-Ph16	

Term	0.00000e+00	0.00000e+00	0.00000e+00	0.00000e+00	0.00000e+00	0.00000e+00	0.00000e+00	0.00000e+00	0.00000e+00	0.00000e+00	0.00000e+00	0.00000e+00	0.00000e+00	0.00000e+00	0.00000e+00	0.00000e+00	0.00000e+00	0.00000e+00	0.00000e+00	0.00000e+00	0.00000e+00	0.00000e+00	0.00000e+00	0.00000e+00	0.00000e+00	0.00000e+00	0.00000e+00	0.00000e+00	0.00000e+00	0.00000e+00	0.00000e+00	0.00000e+00	0.00000e+00	0.00000e+00	0.00000e+00	0.00000e+00	0.00000e+00	0.00000e+00	0.00000e+00	0.00000e+00	0.00000e+00	0.00000e+00	0.00000e+00	0.00000e+00	0.00000e+00	0.00000e+00	0.00000e+00	0.00000e+00	
Factor	1.00000e+00	1.00000e+00	1.00000e+00	1.00000e+00	1.00000e+00	1.00000e+00	1.00000e+00	1.00000e+00	1.00000e+00	1.00000e+00	1.00000e+00	1.00000e+00	1.00000e+00	1.00000e+00	1.00000e+00	1.00000e+00	1.00000e+00	1.00000e+00	1.00000e+00	1.00000e+00	1.00000e+00	1.00000e+00	1.00000e+00	1.00000e+00	1.00000e+00	1.00000e+00	1.00000e+00	1.00000e+00	1.00000e+00	1.00000e+00	1.00000e+00	1.00000e+00	X	X	X	X	X	X	X	X	X	X	X	X	X	X	X	X	

B = Detector Channel
Val Type	B-AC1	B-AC2	B-AC3	B-AC4	B-AC5	B-AC6	B-AC7	B-AC8	B-AC9	B-AC10	B-AC11	B-AC12	B-AC13	B-AC14	B-AC15	B-AC16	B-DC1	B-DC2	B-DC3	B-DC4	B-DC5	B-DC6	B-DC7	B-DC8	B-DC9	B-DC10	B-DC11	B-DC12	B-DC13	B-DC14	B-DC15	B-DC16	B-Ph1	B-Ph2	B-Ph3	B-Ph4	B-Ph5	B-Ph6	B-Ph7	B-Ph8	B-Ph9	B-Ph10	B-Ph11	B-Ph12	B-Ph13	B-Ph14	B-Ph15	B-Ph16	

Term	0.00000e+00	0.00000e+00	0.00000e+00	0.00000e+00	0.00000e+00	0.00000e+00	0.00000e+00	0.00000e+00	0.00000e+00	0.00000e+00	0.00000e+00	0.00000e+00	0.00000e+00	0.00000e+00	0.00000e+00	0.00000e+00	0.00000e+00	0.00000e+00	0.00000e+00	0.00000e+00	0.00000e+00	0.00000e+00	0.00000e+00	0.00000e+00	0.00000e+00	0.00000e+00	0.00000e+00	0.00000e+00	0.00000e+00	0.00000e+00	0.00000e+00	0.00000e+00	4.69284e+01	-1.27582e+02	-1.30931e+02	-1.83936e+02	-7.62020e+01	-6.69807e+01	-1.56989e+02	-1.62015e+02	-5.22494e+01	-7.94096e+01	-1.78987e+02	-1.72875e+02	-1.82137e+02	-1.78866e+02	-7.23244e+01	-1.51154e+02	
Factor	6.73214e-05	1.82383e-04	5.06034e-05	1.89429e-01	1.93940e-06	2.29934e-06	1.72175e-01	6.05181e-02	3.16237e-06	2.20276e-06	1.07814e-01	3.31898e-02	2.86066e-02	1.08537e-02	2.29806e-06	1.49911e-02	5.72136e-06	6.42153e-06	1.79335e-06	9.47223e-02	6.88599e-08	7.09668e-08	8.12099e-02	3.03370e-02	6.85387e-08	7.09561e-08	5.23066e-02	1.61085e-02	1.44478e-02	5.47581e-03	6.95704e-08	7.34234e-03	X	X	X	X	X	X	X	X	X	X	X	X	X	X	X	X	



#DISTANCE SETTINGS
A = Detector Channel
A-1	A-2	A-3	A-4	A-5	A-6	A-7	A-8	A-9	A-10	A-11	A-12	A-13	A-14	A-15	A-16	

2.5000e+00	3.0000e+00	2.5000e+00	3.0000e+00	2.0000e+00	3.0000e+00	1.5000e+00	3.0000e+00	3.0000e+00	3.0000e+00	3.0000e+00	3.0000e+00	3.0000e+00	3.0000e+00	1.5000e+00	3.0000e+00	

B = Detector Channel
B-1	B-2	B-3	B-4	B-5	B-6	B-7	B-8	B-9	B-10	B-11	B-12	B-13	B-14	B-15	B-16	

1.0000e+01	1.0000e+01	1.0000e+01	1.4400e+00	1.0000e+01	1.0000e+01	1.5100e+00	1.9400e+00	1.0000e+01	1.0000e+01	1.9900e+00	2.4900e+00	2.4100e+00	2.9000e+00	1.0000e+01	2.9800e+00	




#DATA BEGINS
time	group	step	mark	flag	A-AC1	A-AC2	A-AC3	A-AC4	A-AC5	A-AC6	A-AC7	A-AC8	A-AC9	A-AC10	A-AC11	A-AC12	A-AC13	A-AC14	A-AC15	A-AC16	A-DC1	A-DC2	A-DC3	A-DC4	A-DC5	A-DC6	A-DC7	A-DC8	A-DC9	A-DC10	A-DC11	A-DC12	A-DC13	A-DC14	A-DC15	A-DC16	A-Ph1	A-Ph2	A-Ph3	A-Ph4	A-Ph5	A-Ph6	A-Ph7	A-Ph8	A-Ph9	A-Ph10	A-Ph11	A-Ph12	A-Ph13	A-Ph14	A-Ph15	A-Ph16	B-AC1	B-AC2	B-AC3	B-AC4	B-AC5	B-AC6	B-AC7	B-AC8	B-AC9	B-AC10	B-AC11	B-AC12	B-AC13	B-AC14	B-AC15	B-AC16	B-DC1	B-DC2	B-DC3	B-DC4	B-DC5	B-DC6	B-DC7	B-DC8	B-DC9	B-DC10	B-DC11	B-DC12	B-DC13	B-DC14	B-DC15	B-DC16	B-Ph1	B-Ph2	B-Ph3	B-Ph4	B-Ph5	B-Ph6	B-Ph7	B-Ph8	B-Ph9	B-Ph10	B-Ph11	B-Ph12	B-Ph13	B-Ph14	B-Ph15	B-Ph16	aux-1	digaux	

654.844	1	1	0	768	0.17586	0.046598	0.24629	0.1917	0.31328	0.16298	0.1921	0.2122	0.21268	0.17387	0.031955	0.25366	0.16678	0.077753	0.22142	0.23655	-2.8604	-3.4771	-2.9667	-3.6167	-3.4625	-3.0729	-3.6937	-3.2667	-3.1583	-3.6229	-3.2396	-3.525	-3.5354	-3.0521	-3.4271	-3.275	175.022	158.037	81.069	305.812	214.989	210.628	307.589	32.485	176.571	123.801	312.157	185.821	275.692	69.630	120.338	161.955	0.00048841	0.00032022	4.1531e-05	1122.3	3.3805e-06	2.6433e-06	1190.3	236.89	5.3493e-06	6.4074e-06	295.64	86.699	67.153	19.91	3.9534e-06	27.72	0.0002295	0.00021562	5.862e-05	1116.1	2.3969e-06	2.3731e-06	1183.4	236.46	2.3273e-06	2.3284e-06	296.01	87.683	67.924	20.311	2.3541e-06	28.442	303.481	111.347	69.769	-8.869	121.229	175.069	-8.716	-1.535	192.982	107.011	-1.512	4.502	4.999	12.390	142.736	11.279	-8191	255	
654.940	1	1	0	0	0.12119	0.16478	0.14945	0.19717	0.14578	0.054929	0.26717	0.076344	0.017495	0.11817	0.085921	0.09412	0.070374	0.27204	0.17049	0.12156	-2.825	-3.5146	-3.05	-3.3708	-3.4542	-2.8833	-3.6937	-3.2771	-3.1042	-3.4208	-3.0875	-3.3771	-3.4188	-3.0083	-3.5229	-3.3104	270.341	295.337	218.573	297.045	201.900	188.580	265.853	306.733	160.002	328.463	318.978	56.619	269.745	29.377	56.426	155.840	0.00042896	0.00024352	8.006e-05	1124.3	4.6524e-06	4.5368e-06	1193.5	237.16	4.5242e-06	3.7637e-06	294.99	86.653	67.22	19.746	6.9284e-06	27.785	0.00022876	0.0002108	6.0507e-05	1118.7	2.4168e-06	2.4068e-06	1185.1	237.41	2.398e-06	2.3244e-06	295.61	87.513	67.796	20.291	2.3902e-06	28.439	319.740	92.294	128.341	-8.643	159.356	132.493	-8.647	-1.267	179.378	119.821	-1.944	4.740	4.836	11.609	148.847	11.003	-8191	255	
655.037	1	1	0	0	0.088051	0.25821	0.061843	0.28705	0.088299	0.13931	0.3742	0.11018	0.13209	0.059801	0.21123	0.21768	0.15209	0.062963	0.052168	0.25582	-2.5875	-3.3625	-3.2042	-3.3771	-3.3417	-3.0771	-3.6458	-3.4333	-3.0646	-3.6083	-3.1729	-3.2375	-3.5271	-2.9604	-3.3104	-3.4083	214.465	328.950	218.953	338.313	192.680	-1.368	268.785	-9.641	103.126	206.458	239.783	174.056	323.114	20.024	308.798	286.150	0.00035889	0.00026948	5.5786e-05	1122	4.1673e-06	6.2364e-06	1192.3	236.57	4.2227e-06	4.3124e-06	295.41	86.396	67.43	19.867	1.1512e-06	27.75	0.00023361	0.00021964	5.9438e-05	1116.9	2.4574e-06	2.4185e-06	1186.2	237	2.4398e-06	2.3615e-06	296.01	87.612	68.118	20.286	2.3752e-06	28.376	319.667	72.961	88.845	-8.682	120.660	130.985	-8.737	-1.404	149.192	166.953	-2.044	4.436	4.997	12.110	110.586	11.202	-8191	255	
655.133	1	1	0	0	0.21084	0.14301	0.11683	0.21401	0.071035	0.055132	0.20837	0.17294	0.25135	0.22232	0.15736	0.1194	0.15085	0.039355	0.020615	0.099362	-2.6833	-3.4396	-3.1188	-3.1854	-3.5458	-3.2271	-3.4333	-3.4479	-2.85	-3.5604	-3.3292	-3.2083	-3.4979	-3.0938	-3.2458	-3.5792	-12.754	50.702	84.592	248.197	34.171	2.423	-9.062	265.115	187.194	-18.958	281.069	121.453	172.089	56.103	166.062	115.976	0.00036096	0.00034765	0.00018522	1123.9	4.3495e-06	3.4748e-06	1188.4	236.52	6.0025e-06	4.067e-06	294.92	86.903	67.582	20.067	1.6666e-06	28.027	0.00022887	0.00021057	6.023e-05	1120	2.4825e-06	2.303e-06	1187.3	237.36	2.4171e-06	2.3376e-06	295.71	87.842	68.045	20.375	2.3771e-06	28.496	313.732	73.349	44.520	-8.750	176.392	125.297	-8.489	-1.361	118.304	117.442	-1.657	4.378	4.348	12.123	84.087	11.365	-8191	255	
655.229	1	1	0	0	0.20023	0.19299	0.16627	0.096727	0.036449	0.073846	0.082833	0.25229	0.17189	0.13467	0.20813	0.2523	0.23153	0.34564	0.052754	0.19215	-2.6937	-3.3896	-3.3375	-3.1521	-3.5187	-2.975	-3.25	-3.5375	-3.0312	-3.4292	-3.1625	-3.1146	-3.5792	-3.1583	-3.3063	-3.4771	243.359	11.600	267.599	-16.297	98.857	113.157	152.900	313.442	43.753	212.939	252.598	77.012	278.581	223.017	89.339	287.182	0.00044179	0.00023751	3.0307e-05	1128.8	4.2247e-06	2.2891e-06	1185.1	236.45	1.0204e-05	3.9275e-06	295.71	87.065	67.643	19.973	4.1102e-06	27.856	0.0002243	0.00021378	5.9905e-05	1119.5	2.4645e-06	2.3107e-06	1185.7	237.35	2.416e-06	2.3751e-06	296	87.555	68.19	20.314	2.3663e-06	28.47	319.264	94.002	39.428	-8.715	145.585	97.771	-8.523	-1.380	148.116	151.337	-1.532	4.688	5.000	12.153	161.428	11.326	-8191	255	
655.325	1	1	0	0	0.23452	0.17432	0.13236	0.30995	0.34381	0.24488	0.28214	0.087806	0.12243	0.12536	0.21527	0.43752	0.080888	0.15274	0.11702	0.27177	-2.6063	-3.5292	-3.2062	-3.0938	-3.5417	-3.2917	-3.3688	-3.5542	-3.0875	-3.4167	-3.4021	-2.9583	-3.4375	-3.1188	-3.0708	-3.5062	24.858	279.931	110.021	283.357	-5.742	310.680	258.620	294.321	314.889	121.235	318.801	330.705	27.231	71.004	309.550	266.276	0.00047114	0.00018318	0.00013042	1126.4	3.9314e-07	6.1532e-06	1189	235.92	7.7709e-06	2.4226e-06	296.41	86.392	67.437	19.843	5.5558e-06	27.797	0.00022878	0.00021187	6.0234e-05	1119.7	2.4008e-06	2.2854e-06	1186	236.87	2.3405e-06	2.3869e-06	296.65	87.463	67.952	20.294	2.3058e-06	28.391	321.073	12.941	77.174	-8.607	280.436	123.128	-8.462	-1.320	172.861	153.970	-1.901	4.500	5.001	12.342	162.832	11.631	-8191	255	
655.446	1	1	0	0	0.14281	0.29241	0.20192	0.3607	0.087061	0.043784	0.086011	0.19077	0.19213	0.18303	0.12283	0.22056	0.25793	0.19332	0.24266	0.15581	-2.5438	-3.2292	-3.2313	-3.0604	-3.4979	-3.2417	-3.3083	-3.6792	-3.1396	-3.3021	-3.3438	-2.9333	-3.5312	-3.3396	-3.1417	-3.5354	287.136	304.793	186.000	325.176	78.124	125.018	304.453	70.188	212.320	330.024	216.790	285.321	191.393	-14.493	29.572	-14.440	0.00040191	0.00032943	5.9585e-05	1126.4	4.7339e-06	2.9868e-06	1188.4	235.91	7.5836e-06	3.6073e-06	292.25	86.956	67.673	19.874	3.4667e-06	28.167	0.0002256	0.00021765	5.986e-05	1119.8	2.3864e-06	2.3313e-06	1186.4	236.71	2.3893e-06	2.3349e-06	295.01	87.566	68.11	20.305	2.2965e-06	28.47	316.929	84.067	111.692	-8.902	136.122	138.400	-8.617	-1.625	160.432	138.555	-2.223	4.656	4.892	11.998	116.354	11.460	-8191	255	
655.540	1	1	0	0	0.089114	0.08693	0.12794	0.16339	0.063985	0.24729	0.12633	0.23901	0.19009	0.14335	0.11507	0.053687	0.28689	0.20481	0.081788	0.26952	-2.5854	-3.2125	-3.4521	-3.0125	-3.3187	-3.3417	-3.3937	-3.3771	-3.0875	-3.2854	-3.4437	-3.0438	-3.4667	-3.2771	-3.0021	-3.5708	98.128	104.990	176.430	-18.438	146.086	77.936	300.983	205.909	75.184	125.298	312.975	268.359	269.049	-12.165	138.655	296.713	0.00047906	5.6327e-05	3.2727e-05	1119.4	4.7226e-06	3.1376e-06	1187.9	236.65	3.9687e-06	3.7996e-06	293.35	87.187	67.6	19.833	4.0387e-06	27.848	0.00022797	0.00021493	5.8288e-05	1117.1	2.3111e-06	2.3185e-06	1184.5	236.99	2.3544e-06	2.275e-06	295.35	87.691	67.895	20.279	2.3438e-06	28.474	311.275	130.727	22.228	-8.867	151.159	150.289	-8.737	-1.435	169.056	137.671	-1.622	4.545	5.213	12.133	106.374	11.056	-8191	255	
655.636	1	1	0	0	0.15471	0.14792	0.060268	0.28646	0.12207	0.35495	0.20636	0.097902	0.084884	0.15595	0.19657	0.12478	0.11659	0.17368	0.062309	0.21095	-2.7938	-3.1396	-3.4313	-3.1667	-3.3521	-3.3521	-3.0292	-3.3479	-3.0833	-3.1063	-3.4021	-2.8896	-3.3958	-3.2167	-3.0312	-3.4583	200.382	67.506	20.059	285.027	264.016	75.569	236.035	-15.383	-14.784	175.194	248.060	304.978	210.571	94.372	28.287	124.247	0.00035194	0.00048784	0.00011025	1124.2	2.647e-06	3.4756e-06	1191.7	236.31	2.358e-06	2.0696e-06	295.7	86.39	67.503	19.957	5.3552e-06	27.828	0.00022485	0.00021653	5.7253e-05	1117.5	2.3886e-06	2.2108e-06	1184.5	236.91	2.3297e-06	2.3903e-06	295.82	87.698	67.963	20.296	2.2867e-06	28.423	302.994	87.834	84.738	-8.798	140.097	155.645	-8.723	-1.280	75.201	161.679	-1.891	4.915	4.962	12.256	144.350	11.776	-8191	255	
655.732	1	1	0	0	0.25802	0.11738	0.096934	0.2332	0.043603	0.1578	0.12205	0.030106	0.19905	0.16591	0.058286	0.032591	0.18638	0.034639	0.059253	0.21762	-2.8417	-2.9792	-3.575	-3.1604	-3.3	-3.3667	-3.2042	-3.5333	-3.1479	-3.075	-3.5125	-3.1875	-3.225	-3.325	-2.8187	-3.5062	164.176	184.491	178.072	280.878	204.432	-17.971	195.551	144.118	3.750	11.497	114.528	157.159	9.033	-13.309	226.628	32.677	0.00046921	0.00043949	0.0001417	1119.9	4.6332e-06	4.3022e-06	1194.6	235.71	2.5349e-06	2.6677e-06	293.8	86.807	67.339	19.966	2.9901e-06	27.771	0.00022354	0.00021174	5.8467e-05	1115.3	2.3691e-06	2.2757e-06	1185.1	237.05	2.2892e-06	2.2889e-06	295.49	87.641	67.906	20.298	2.3416e-06	28.41	310.969	78.677	89.368	-8.806	169.624	111.467	-8.600	-1.214	273.877	67.910	-1.856	4.200	4.816	12.282	106.866	11.048	-8191	255	
655.829	1	1	0	0	0.029727	0.099826	0.12107	0.12997	0.28723	0.028552	0.23635	0.21107	0.083514	0.45094	0.30889	0.095752	0.12884	0.11946	0.22633	0.056439	-2.9188	-3.075	-3.5875	-3.2292	-3.2438	-3.325	-3.1375	-3.5417	-3.4083	-2.9729	-3.5062	-3.0667	-3.2625	-3.4729	-3.1437	-3.5104	-7.047	101.014	115.370	300.775	12.681	113.616	274.567	182.190	95.988	236.658	311.016	-17.980	172.560	34.285	175.478	318.982	0.00038025	0.00040274	8.63e-05	1125.2	3.6702e-06	4.0349e-06	1189.7	236.39	5.4829e-06	5.2532e-06	294.62	87.118	67.551	19.829	1.3564e-06	27.811	0.00022528	0.0002099	5.8725e-05	1116.4	2.377e-06	2.2851e-06	1182.2	236.68	2.2127e-06	2.3846e-06	295.65	87.602	68.106	20.273	2.2738e-06	28.447	317.141	88.490	65.199	-8.813	132.546	165.240	-8.708	-1.354	176.243	152.034	-1.624	4.470	4.759	11.919	151.351	11.778	-8191	255	
655.925	1	1	0	0	0.321	0.14055	0.10397	0.15922	0.18084	0.042503	0.11086	0.17493	0.17277	0.056623	0.1852	0.25534	0.23904	0.11806	0.24366	0.054531	-2.8646	-2.9917	-3.5333	-3.2646	-3.1042	-3.3729	-3.3125	-3.3729	-3.4854	-2.9313	-3.4229	-3.1375	-3.0146	-3.5646	-3.0604	-3.3521	57.318	202.075	39.980	307.077	77.298	38.318	265.495	312.562	77.587	177.030	35.657	-14.698	247.656	10.654	309.116	222.666	0.00041488	0.00028817	5.3457e-05	1123.9	3.9762e-06	4.45e-06	1191.3	236.23	6.5245e-06	1.8773e-06	293.97	86.776	67.617	19.88	6.9673e-06	28.057	0.00021285	0.00020489	5.9322e-05	1115.8	2.4506e-06	2.193e-06	1184.6	236.8	2.3386e-06	2.3031e-06	295.12	87.436	67.987	20.283	2.3067e-06	28.561	303.675	86.962	70.513	-8.873	130.878	155.270	-8.585	-1.377	158.975	142.719	-1.540	4.588	4.710	11.892	107.950	11.371	-8191	255	
656.045	1	1	0	0	0.14031	0.17934	0.060142	0.2249	0.25185	0.09055	0.19526	0.01876	0.20399	0.18449	0.11107	0.040918	0.13817	0.1272	0.12908	0.12588	-3.0333	-2.9854	-3.3333	-3.3146	-2.8833	-3.5958	-3.3771	-3.3729	-3.4625	-3.0687	-3.6042	-3.2604	-3.0979	-3.5729	-2.9479	-3.2062	147.460	11.814	14.096	319.280	74.687	323.735	201.014	50.813	264.573	29.516	44.463	304.617	-9.087	-1.574	197.448	203.178	0.00042731	6.2498e-05	5.9454e-05	1122.2	4.9064e-06	6.0537e-06	1193.5	236.74	3.8621e-06	2.1999e-06	296.99	86.489	67.609	19.837	2.6432e-06	28.032	0.00022027	0.00021093	5.7286e-05	1116.5	2.4226e-06	2.2322e-06	1186.3	236.85	2.2532e-06	2.316e-06	296.21	87.527	67.923	20.315	2.2681e-06	28.457	318.316	287.591	36.017	-8.789	131.698	126.607	-8.731	-1.367	147.577	184.595	-1.695	4.795	5.267	12.379	95.887	11.468	-8191	255	
656.141	1	1	0	0	0.16615	0.14933	0.020694	0.14202	0.20928	0.15451	0.17317	0.25265	0.14643	0.07016	0.079565	0.16305	0.024349	0.21685	0.17422	0.11804	-3.2021	-3.1083	-3.3917	-3.3875	-3.0229	-3.6583	-3.4125	-3.1667	-3.5312	-3.2979	-3.3958	-3.3979	-3.1396	-3.6375	-3.1521	-3.2542	282.079	146.356	289.217	303.876	73.835	330.106	240.333	42.185	214.097	41.881	89.875	35.265	25.186	189.756	323.953	233.879	0.00039451	0.00027035	8.5533e-05	1119.3	3.5056e-06	3.8012e-06	1191.8	236.13	4.6103e-06	4.782e-06	294.66	86.498	67.765	19.885	3.4356e-06	27.839	0.00021554	0.00021065	5.8299e-05	1115.1	2.4232e-06	2.2941e-06	1184.5	236.74	2.2935e-06	2.2987e-06	295.66	87.587	68.109	20.284	2.2967e-06	28.506	326.754	49.256	48.218	-8.675	154.835	180.693	-8.638	-1.309	161.760	130.876	-1.857	4.775	4.938	11.868	127.095	11.115	-8191	255	
656.238	1	1	0	0	0.058562	0.25046	0.27459	0.091204	0.076247	0.31863	0.31484	0.22726	0.13842	0.23816	0.23709	0.29748	0.16169	0.22274	0.076885	0.26199	-3.2917	-3.0042	-3.1396	-3.6417	-3.0396	-3.3688	-3.2854	-3.0667	-3.525	-2.9167	-3.4375	-3.3542	-3.0812	-3.5167	-3.3083	-2.9375	53.963	283.562	275.593	310.867	108.276	149.991	257.104	313.601	340.429	144.047	331.799	285.247	58.947	55.821	340.579	9.911	0.00039644	0.00035484	0.00010891	1123	3.6146e-06	2.6325e-06	1188.1	236.49	2.2048e-06	1.9792e-06	293.65	86.889	67.199	19.942	4.1279e-06	27.906	0.00022039	0.00021412	5.8878e-05	1117.4	2.418e-06	2.2025e-06	1184.2	236.89	2.2429e-06	2.2413e-06	295.63	87.458	67.96	20.283	2.2406e-06	28.472	322.063	66.534	80.776	-8.750	161.398	128.326	-8.656	-1.228	295.411	128.497	-1.642	4.689	4.793	11.895	149.181	11.373	-8191	255	
656.332	1	1	0	0	0.13637	0.30874	0.056327	0.33686	0.29729	0.20139	0.21832	0.17277	0.2079	0.11839	0.066276	0.20709	0.20421	0.11124	0.16353	0.23252	-3.1188	-3.0521	-3.1625	-3.6792	-2.7271	-3.4625	-3.3708	-3.1771	-3.5042	-3.25	-3.2896	-3.4792	-2.9917	-3.3563	-3.4521	-3.1437	-6.320	54.556	332.159	330.348	184.218	292.231	290.012	18.293	14.023	238.114	286.738	83.082	71.891	3.616	103.759	145.176	0.00044402	0.00036783	0.00010481	1127	3.1642e-06	2.0734e-06	1191.8	236.51	3.2566e-06	2.3678e-06	294.62	87.072	67.972	20.079	3.1219e-06	27.946	0.00022342	0.0002118	5.9296e-05	1117	2.4389e-06	2.2933e-06	1185	237	2.2646e-06	2.2537e-06	295.54	87.463	67.964	20.349	2.2318e-06	28.509	320.752	78.442	70.970	-8.621	164.196	128.582	-8.588	-1.338	160.262	125.734	-2.103	4.626	5.045	11.972	99.467	11.632	-8191	255	
656.405	1	1	0	0	0.11404	0.035366	0.14795	0.10974	0.14314	0.14415	0.23242	0.2033	0.15457	0.19307	0.32926	0.083499	0.29567	0.25291	0.25056	0.12724	-3.0438	-3.1667	-3.2208	-3.5875	-3.0229	-3.3583	-3.5708	-3.1688	-3.4042	-3.2167	-3.0958	-3.6083	-2.975	-3.3583	-3.2417	-2.8958	259.916	212.673	17.946	278.427	63.582	61.347	288.550	306.871	188.712	-9.397	228.163	323.607	233.777	238.218	28.345	239.607	0.00032298	0.00022198	0.00011109	1123.8	4.2693e-06	3.64e-06	1191.3	236.2	6.597e-06	2.6123e-06	295.13	86.945	67.455	20.006	3.5729e-06	28.007	0.00021972	0.00020795	5.6192e-05	1117	2.3108e-06	2.2801e-06	1184.2	236.59	2.2851e-06	2.2879e-06	295.17	87.53	67.856	20.277	2.2902e-06	28.459	311.014	103.851	101.393	-8.620	157.994	109.008	-8.598	-1.312	202.928	119.381	-1.678	4.762	4.838	11.704	119.928	11.207	-8191	255	
656.524	1	1	0	0	0.11726	0.18657	0.23767	0.27623	0.044499	0.15776	0.11086	0.21831	0.13791	0.10019	0.22656	0.10787	0.12666	0.19642	0.045324	0.027817	-3.0875	-3.2875	-3.0833	-3.6583	-3.1542	-3.3083	-3.5229	-3.0146	-3.4479	-3.4062	-3.1667	-3.5896	-3.1813	-3.4229	-3.3937	-2.8854	286.778	208.738	238.597	83.457	260.164	299.023	198.394	207.260	250.841	277.652	259.656	251.497	282.540	96.679	33.841	74.181	0.00039961	0.0002483	2.297e-05	1124.6	1.9594e-06	5.0764e-06	1194.9	235.19	1.8104e-06	2.2041e-06	293.4	86.068	67.469	20.007	4.0699e-06	27.921	0.00022406	0.00020733	5.8706e-05	1117.2	2.3378e-06	2.3419e-06	1184.3	236.67	2.2763e-06	2.2332e-06	294.77	87.445	67.896	20.332	2.2918e-06	28.52	309.243	104.091	188.721	-8.844	107.558	111.750	-8.161	-1.153	294.817	121.752	-1.932	4.450	4.686	12.443	154.838	11.371	-8191	255	
656.620	1	1	0	0	0.035855	0.12336	0.23085	0.17747	0.21168	0.15025	0.32863	0.21341	0.093174	0.095559	0.042608	0.15157	0.093997	0.20971	0.10777	0.031535	-2.9646	-3.2542	-3.0104	-3.5354	-3.0667	-3.2833	-3.7833	-2.9854	-3.5	-3.3167	-3.1063	-3.5896	-3.1958	-3.0938	-3.5146	-3.125	171.169	195.732	76.987	297.417	193.055	220.325	280.369	-18.933	17.291	273.249	100.062	202.474	7.597	148.986	301.989	82.201	0.00040331	0.00037545	3.6484e-05	1124.4	3.539e-06	3.8071e-06	1197.1	235.96	5.9814e-06	1.1083e-06	294.73	86.473	67.845	19.981	4.3696e-06	27.924	0.00021928	0.00020391	5.751e-05	1116.8	2.3434e-06	2.2434e-06	1184.6	236.56	2.3267e-06	2.2302e-06	295.1	87.274	67.91	20.311	2.3328e-06	28.49	312.262	70.326	37.837	-8.779	99.768	190.097	-8.668	-1.268	183.261	339.835	-1.693	4.522	4.890	12.214	135.267	11.386	-8191	255	
656.717	1	1	0	0	0.062312	0.1143	0.1122	0.16985	0.13053	0.23626	0.35554	0.08748	0.21955	0.092805	0.11838	0.26203	0.053886	0.11948	0.079397	0.18283	-2.9458	-3.2833	-3.0854	-3.725	-3.175	-3.2979	-3.5792	-3.2958	-3.4042	-3.5271	-3.0479	-3.6229	-3.1625	-3.2667	-3.625	-3.0708	263.957	160.376	154.450	-12.977	334.606	306.214	282.428	296.625	93.032	143.102	73.213	274.504	33.795	333.149	106.610	308.601	0.00035914	0.00031932	8.6617e-05	1123.3	3.1081e-06	2.5736e-06	1188.5	237.1	5.4699e-06	3.5876e-06	295.31	86.697	67.458	19.858	3.8453e-06	28.043	0.00021816	0.00020911	5.8695e-05	1114.8	2.3507e-06	2.2727e-06	1183.9	236.6	2.3217e-06	2.2693e-06	295.35	87.382	68.004	20.278	2.2781e-06	28.575	320.198	42.029	76.349	-8.602	179.126	102.046	-8.795	-1.460	167.930	118.045	-1.811	4.797	5.074	12.165	150.451	11.645	-8191	255	
656.813	1	1	0	0	0.23071	0.053555	0.10579	0.11166	0.031988	0.16441	0.37793	0.24055	0.026243	0.14894	0.088896	0.18952	0.29492	0.1959	0.1308	0.19125	-2.9104	-3.3667	-2.9896	-3.6042	-3.2479	-3.1208	-3.7354	-3.1854	-3.3125	-3.3542	-3.0542	-3.6208	-3.1896	-3.1354	-3.4875	-3.0687	289.560	198.939	156.916	34.625	24.807	241.604	255.856	15.850	192.660	107.511	264.118	265.501	340.324	265.292	171.055	107.132	0.00049052	0.00018992	6.9225e-05	1119.4	5.2066e-06	5.0382e-06	1191.9	236.11	5.1586e-06	6.8296e-07	295.81	86.329	68.122	19.984	1.8802e-06	28.055	0.00022599	0.0002085	5.7992e-05	1116.5	2.3956e-06	2.2767e-06	1183	236.76	2.2668e-06	2.2443e-06	295.4	87.384	68.059	20.337	2.2367e-06	28.532	319.849	69.859	75.220	-8.566	111.560	133.085	-8.582	-1.361	138.777	142.071	-1.959	4.635	4.701	12.046	145.487	11.561	-8191	255	
656.933	1	1	0	0	0.28401	0.29272	0.12625	0.24111	0.21982	0.22126	0.10733	0.19196	0.11003	0.18066	0.056237	0.22232	0.15827	0.12522	0.055517	0.32924	-3.025	-3.4479	-2.9979	-3.4542	-3.4437	-3.1292	-3.8646	-3.2646	-3.1937	-3.55	-3.2917	-3.4875	-3.5042	-3.1708	-3.5417	-3.3167	271.113	328.235	147.797	317.938	-16.133	-17.395	202.971	301.874	67.217	260.768	147.012	324.975	125.680	221.278	330.457	280.350	0.00043349	0.0003206	0.00013046	1123.8	1.9566e-06	1.8018e-06	1190.1	235.89	4.5527e-06	2.7298e-06	294.93	86.736	67.791	19.987	3.6832e-06	27.943	0.00022419	0.00020709	6.0133e-05	1115.8	2.3593e-06	2.27e-06	1184.5	236.59	2.3285e-06	2.2709e-06	295.45	87.593	68.145	20.347	2.2679e-06	28.634	309.966	51.004	64.606	-8.575	150.942	85.120	-8.605	-1.401	150.416	56.541	-2.004	4.585	4.970	11.984	109.228	11.082	-8191	255	
657.005	1	1	0	0	0.18976	0.076592	0.22419	0.16877	0.15738	0.095965	0.30429	0.12672	0.29088	0.060847	0.13783	0.12253	0.24787	0.23837	0.20471	0.20198	-2.8167	-3.6562	-3.1396	-3.4479	-3.3521	-3.1042	-3.5	-3.1396	-3.1646	-3.5333	-3.0896	-3.3063	-3.3167	-2.9771	-3.55	-3.25	87.386	219.065	233.147	238.739	134.742	66.871	292.451	308.927	153.795	161.531	293.209	38.622	299.756	302.886	223.149	276.036	0.00048273	0.00044265	9.8513e-05	1128.6	5.2208e-06	6.298e-06	1192.2	237.19	8.1168e-06	1.9052e-06	296.71	86.419	67.556	19.983	1.6746e-06	28.337	0.0002312	0.00021073	6.0249e-05	1120.9	2.4247e-06	2.3347e-06	1185.7	237.28	2.3363e-06	2.273e-06	295.91	87.458	68.208	20.368	2.245e-06	28.625	310.332	89.543	73.367	-8.655	177.201	153.669	-8.598	-1.413	220.934	48.689	-1.659	4.594	5.253	11.994	187.433	11.235	-8191	255	
657.126	1	1	0	0	0.28872	0.15228	0.19681	0.1656	0.20488	0.12181	0.27609	0.091811	0.15203	0.13697	0.19712	0.35503	0.21258	0.24165	0.14851	0.30707	-2.5833	-3.5021	-3.0833	-3.4437	-3.5375	-3.0833	-3.7167	-3.4917	-3.1	-3.6042	-3.1875	-3.1604	-3.4083	-2.8896	-3.3875	-3.4062	301.687	267.616	208.681	305.300	-2.695	296.920	-12.874	102.820	222.305	333.482	284.265	317.876	294.829	281.260	62.979	237.974	0.00040311	0.00018054	9.3599e-05	1126.2	2.7587e-06	2.2633e-06	1197.4	237.04	5.9848e-06	3.6215e-06	294.17	86.975	67.788	19.8	3.2893e-06	28.045	0.00022801	0.0002094	5.9136e-05	1119.2	2.4059e-06	2.3166e-06	1187.4	237.09	2.4034e-06	2.3337e-06	295.3	87.787	68.187	20.304	2.266e-06	28.644	308.504	97.487	99.557	-8.694	135.341	130.243	-8.537	-1.345	213.043	71.360	-1.662	4.673	5.000	11.701	176.323	11.352	-8191	255	
657.222	1	1	0	0	0.22025	0.055969	0.10366	0.19792	0.20958	0.16002	0.12507	0.14073	0.23448	0.15032	0.10682	0.063331	0.15062	0.19047	0.3033	0.0988	-2.55	-3.4167	-3.3146	-3.4604	-3.5833	-3.0667	-3.5854	-3.4667	-3.0604	-3.5458	-3.3229	-3.0792	-3.5875	-3.1771	-3.325	-3.4292	234.022	138.341	39.969	305.509	96.805	257.539	167.241	218.215	91.312	92.759	300.288	21.069	266.731	74.640	39.568	29.292	0.00046767	0.0002123	0.00011122	1132.8	2.4246e-06	4.3134e-06	1198	237.75	6.7383e-06	1.6103e-06	295.43	86.675	67.811	19.854	5.4469e-06	28.247	0.00023067	0.00020738	5.9405e-05	1122.3	2.4315e-06	2.3073e-06	1188.4	237.44	2.4231e-06	2.3395e-06	296.18	87.656	68.252	20.369	2.347e-06	28.727	311.151	53.064	55.281	-8.681	99.813	111.809	-8.603	-1.167	160.790	110.543	-1.902	4.798	4.335	12.011	161.172	11.320	-8191	255	
657.318	1	1	0	0	0.17768	0.0074556	0.012297	0.12645	0.223	0.23751	0.30236	0.14507	0.16993	0.13125	0.21919	0.19715	0.36449	0.051798	0.12671	0.20826	-2.4521	-3.3208	-3.2417	-3.1854	-3.4813	-3.1479	-3.5229	-3.6333	-2.9229	-3.5521	-3.2667	-3.1437	-3.4562	-3.1896	-3.3292	-3.6583	232.346	101.156	76.994	203.536	239.147	146.191	265.265	26.938	162.138	136.464	87.492	99.080	96.605	290.781	316.256	58.671	0.00039056	0.00012013	9.2962e-05	1129.4	4.5161e-06	3.0225e-06	1194.3	236.9	5.0357e-06	2.6804e-06	295.16	87.159	68.041	19.837	3.9509e-06	28.217	0.00022829	0.00020544	6.1942e-05	1121.1	2.3671e-06	2.2832e-06	1187.6	237	2.4423e-06	2.3414e-06	296.45	87.689	68.243	20.313	2.3924e-06	28.702	313.266	97.690	55.834	-8.764	159.300	70.797	-8.333	-1.352	157.908	118.376	-1.697	4.781	5.111	11.901	101.259	10.970	-8191	255	
657.414	1	1	0	0	0.155	0.17911	0.17366	0.26568	0.28571	0.12392	0.23356	0.24661	0.10386	0.18325	0.032132	0.092462	0.24795	0.034858	0.095021	0.20035	-2.6167	-3.5292	-3.2917	-3.0958	-3.625	-3.0146	-3.2188	-3.5771	-3.0625	-3.3792	-3.5667	-3.1229	-3.4042	-3.4062	-3.1875	-3.4375	215.723	320.501	133.786	314.971	129.568	137.984	244.235	302.128	37.366	239.622	217.631	284.430	-14.793	57.347	256.395	-17.608	0.00043296	0.00041684	9.6513e-05	1129	4.2421e-06	2.3608e-06	1197.5	238.05	5.9277e-06	5.634e-06	296.6	87.073	67.557	19.945	2.5635e-06	28.328	0.00023058	0.00021352	6.0152e-05	1120.2	2.4498e-06	2.3174e-06	1190.3	237.15	2.4454e-06	2.3912e-06	296.53	87.868	68.115	20.345	2.34e-06	28.766	312.192	84.027	84.211	-8.706	127.221	164.164	-8.511	-1.514	172.478	90.051	-2.010	4.869	4.778	12.036	148.152	11.575	-8191	255	
657.533	1	1	0	0	0.20266	0.025455	0.18231	0.20534	0.11372	0.25053	0.054542	0.21679	0.12612	0.06298	0.082725	0.19837	0.18921	0.11247	0.041892	0.14265	-2.6312	-3.2646	-3.2917	-3.1312	-3.5563	-3.1979	-3.3063	-3.5854	-2.9958	-3.3479	-3.4771	-3.0917	-3.5417	-3.1937	-3.1021	-3.5833	46.741	234.644	26.856	5.656	-12.886	287.187	236.323	283.970	144.212	114.651	298.627	257.516	237.123	65.350	84.034	42.392	0.00042104	0.00024186	0.0001019	1129.1	3.4566e-06	6.0317e-06	1204.4	237.74	4.5193e-06	2.1368e-06	297.04	87.554	68.283	20.137	1.8601e-06	27.999	0.00022969	0.00022213	5.8796e-05	1123.6	2.4348e-06	2.4455e-06	1191.9	237.62	2.442e-06	2.3432e-06	297.04	87.944	68.285	20.417	2.3377e-06	28.723	323.565	39.099	55.225	-8.621	165.804	134.289	-8.617	-1.568	129.984	63.052	-1.599	4.781	4.775	12.013	172.101	11.464	-8191	255	
657.629	1	1	0	0	0.16549	0.17787	0.22049	0.11555	0.06413	0.12061	0.28359	0.078971	0.070195	0.18743	0.13332	0.21945	0.16168	0.18897	0.1552	0.096151	-2.7104	-3.3917	-3.5229	-3.1063	-3.4042	-3.1146	-3.35	-3.6458	-3.0896	-3.2	-3.525	-2.9729	-3.3896	-3.425	-3.15	-3.4313	-9.063	-14.182	66.446	188.174	56.667	104.110	322.226	26.333	167.317	50.314	-2.870	216.192	286.722	305.286	223.674	27.101	0.00036426	0.00027598	7.768e-05	1132	3.1198e-06	4.8722e-06	1201.8	238.66	4.3769e-06	2.2103e-06	296.95	87.172	67.947	20	2.6377e-06	28.209	0.00023124	0.00021554	6.0167e-05	1125.8	2.36e-06	2.3953e-06	1191.6	238.23	2.3644e-06	2.3668e-06	296.89	87.904	68.348	20.391	2.3437e-06	28.794	315.519	91.520	116.829	-8.763	132.643	156.802	-8.912	-1.340	160.902	166.510	-2.168	4.391	4.963	12.041	112.726	11.377	-8191	255	
657.701	1	1	0	0	0.11218	0.11533	0.044562	0.26112	0.20993	0.27246	0.29407	0.099743	0.24135	0.049659	0.13794	0.18295	0.086863	0.28041	0.27556	0.065246	-2.8	-3.3146	-3.6146	-3.0917	-3.3312	-3.4708	-3.3438	-3.5687	-3.2083	-3.4146	-3.5958	-3.1375	-3.4292	-3.3563	-3.0854	-3.6146	197.229	109.996	276.163	327.775	139.185	132.977	238.922	281.267	204.324	204.907	249.872	330.805	310.872	-10.065	148.532	-10.585	0.00045116	0.0002757	7.9548e-05	1130.5	3.0891e-06	4.8043e-06	1203.5	236.79	3.6161e-06	2.1246e-06	295.38	87.222	67.868	19.976	1.0031e-06	28.315	0.00023726	0.00022007	5.9931e-05	1125.2	2.4008e-06	2.3685e-06	1194.8	237.77	2.3629e-06	2.3549e-06	296.88	88.002	68.414	20.416	2.3944e-06	28.809	318.675	126.952	81.764	-8.677	165.652	112.966	-8.556	-1.348	160.552	97.811	-2.365	4.576	4.871	11.867	111.109	11.127	-8191	255	
657.821	1	1	0	0	0.23011	0.1761	0.11317	0.30911	0.051016	0.14537	0.29878	0.11493	0.046077	0.090136	0.12642	0.11991	0.22173	0.15598	0.09676	0.031351	-2.8146	-3.0979	-3.4938	-3.025	-3.3563	-3.4417	-3.0958	-3.5187	-3.2354	-3.3167	-3.5563	-3.0375	-3.2458	-3.4396	-2.9771	-3.4562	120.808	282.376	296.517	317.901	248.651	99.253	310.159	54.374	76.258	123.778	340.113	181.860	241.780	228.701	304.472	283.775	0.00043538	0.00031187	9.7197e-05	1131.6	3.1782e-06	3.5813e-06	1203	238.09	4.7351e-06	3.0686e-06	296.15	87.582	67.974	19.96	4.0449e-06	28.241	0.00023237	0.00021903	6.0716e-05	1126.5	2.4462e-06	2.4114e-06	1195.7	238.5	2.3743e-06	2.4029e-06	297.18	88.1	68.462	20.392	2.4567e-06	28.843	308.604	60.747	68.667	-8.645	137.609	151.406	-8.574	-1.514	210.040	101.175	-1.648	4.672	5.176	11.932	130.117	11.561	-8191	255	
657.918	1	1	0	0	0.10538	0.09036	0.078931	0.29353	0.25755	0.10926	0.16602	0.18997	0.13809	0.14061	0.12296	0.09655	0.086396	0.2169	0.21183	0.10072	-2.7896	-3.175	-3.4354	-3.2375	-3.2208	-3.4688	-3.1229	-3.4083	-3.2812	-3.0542	-3.5958	-3.1188	-3.3104	-3.5083	-2.9562	-3.4708	331.230	-11.038	53.670	332.890	117.094	17.827	24.392	-1.444	158.034	25.372	27.721	253.715	317.849	92.802	198.758	336.169	0.00049425	0.00037741	5.375e-05	1136.7	3.8817e-06	4.6569e-06	1201.7	236.34	4.5228e-06	5.5301e-06	297.89	87.524	68.167	20.14	2.1232e-06	28.305	0.00022896	0.00021798	6.0951e-05	1129.6	2.5081e-06	2.3172e-06	1198.1	238	2.3869e-06	2.4381e-06	297.66	88.266	68.602	20.46	2.3993e-06	28.891	315.901	87.129	9.733	-8.694	135.366	155.214	-8.593	-1.312	214.034	111.247	-1.818	4.735	4.820	11.795	104.740	11.106	-8191	255	
658.014	1	1	0	0	0.39939	0.10692	0.11785	0.19635	0.073066	0.17815	0.31186	0.097374	0.073989	0.23299	0.22165	0.084864	0.10958	0.20993	0.091512	0.043249	-2.7729	-2.9833	-3.4229	-3.1979	-3.3042	-3.5146	-3.2021	-3.4479	-3.2979	-3.0583	-3.7646	-3.1708	-3.2375	-3.6271	-3.1396	-3.4562	325.759	0.387	183.666	237.700	55.536	159.130	256.526	296.835	148.807	53.925	35.698	90.022	76.087	280.289	186.307	125.485	0.00038298	0.00021545	9.6399e-05	1139.5	5.5526e-06	4.1319e-06	1204.5	239.62	6.6239e-06	4.7075e-06	298.77	88.004	68.356	20.157	4.9323e-06	28.419	0.00022875	0.00022279	6.1351e-05	1132.2	2.5517e-06	2.4744e-06	1201.3	239.2	2.4544e-06	2.5566e-06	298.96	88.272	68.795	20.508	2.4048e-06	28.956	312.810	45.276	69.055	-8.805	163.273	124.697	-8.488	-1.516	163.465	80.383	-1.770	4.645	4.935	12.392	136.934	11.071	-8191	255	
658.110	1	1	0	0	0.18439	0.027394	0.09163	0.076787	0.048414	0.10529	0.29009	0.39597	0.15905	0.26085	0.16832	0.086985	0.17171	0.14831	0.14911	0.24542	-2.975	-2.9375	-3.4938	-3.4854	-3.1854	-3.6417	-3.2854	-3.4188	-3.5833	-3.1208	-3.6646	-3.3625	-3.1417	-3.6188	-3.0854	-3.2729	323.331	36.211	130.074	32.422	-9.828	6.533	333.496	316.343	118.330	299.290	34.957	284.060	13.692	-18.478	22.006	307.694	0.00037709	0.00043027	9.8228e-05	1142.5	4.4438e-06	2.2976e-06	1208.7	238.06	6.5417e-06	4.996e-06	298.44	87.905	68.138	20.095	5.9247e-06	28.407	0.00023207	0.00022362	6.0686e-05	1134.7	2.5528e-06	2.4138e-06	1203	239.25	2.4467e-06	2.5435e-06	299.09	88.439	68.946	20.552	2.4715e-06	28.992	311.229	104.083	44.676	-8.832	133.513	151.823	-8.746	-1.292	161.199	130.469	-2.130	4.847	4.968	12.247	107.261	11.546	-8191	255	
658.231	1	1	0	0	0.29583	0.10658	0.23591	0.13802	0.18356	0.30641	0.35996	0.18296	0.15879	0.11555	0.12303	0.092443	0.19754	0.20936	0.16248	0.10395	-3.0854	-3.1417	-3.4625	-3.4708	-3.0312	-3.5812	-3.2521	-3.4188	-3.55	-3.1688	-3.5417	-3.375	-3.1583	-3.5583	-3.2146	-3.2229	222.270	237.903	132.064	293.570	222.602	47.679	309.695	313.150	-0.260	15.938	313.013	85.170	130.061	315.636	101.956	212.485	0.00051276	0.00026526	0.00011684	1145.1	3.0511e-06	2.4696e-06	1212.2	240.67	2.3762e-06	3.8383e-06	299.07	87.658	68.362	20.189	4.5617e-06	28.212	0.00023332	0.0002209	6.1067e-05	1138.8	2.601e-06	2.3863e-06	1206.4	239.94	2.4633e-06	2.5252e-06	299.75	88.742	69.059	20.597	2.4761e-06	28.98	318.070	92.245	48.510	-8.695	112.978	170.000	-8.692	-1.507	165.921	114.873	-1.725	4.567	4.487	11.806	132.793	11.315	-8191	255	
658.302	1	1	0	0	0.091	0.12677	0.0203	0.27713	0.065602	0.20913	0.13969	0.20457	0.033391	0.078645	0.075456	0.048831	0.16145	0.054484	0.23234	0.19817	-3.1375	-3.0604	-3.4375	-3.5417	-2.9833	-3.3875	-3.2958	-3.2042	-3.5354	-3.1604	-3.3812	-3.5	-3.25	-3.5229	-3.3104	-3.3708	12.201	205.290	314.857	316.877	88.566	21.602	317.176	12.149	217.875	3.630	282.743	-19.135	299.703	93.843	28.125	227.707	0.00045902	0.00020992	0.00012028	1145.3	2.193e-06	2.4131e-06	1227.5	240.17	2.5904e-06	1.1309e-06	299.91	87.78	68.561	20.249	3.9126e-06	28.568	0.00023533	0.00022624	6.2401e-05	1140.8	2.6178e-06	2.498e-06	1212.4	240.45	2.5169e-06	2.5036e-06	300.72	88.711	69.229	20.603	2.5019e-06	29.099	311.381	54.589	99.734	-8.634	206.072	93.068	-8.601	-1.276	239.809	164.133	-1.866	4.319	4.860	11.998	151.845	11.432	-8191	255	
658.398	1	1	0	0	0.25347	0.12961	0.23187	0.18771	0.12685	0.3186	0.084474	0.26345	0.24809	0.12538	0.15425	0.12108	0.055262	0.14667	0.042573	0.31589	-3.2417	-3.1854	-3.3438	-3.6813	-2.925	-3.6562	-3.4604	-3.2	-3.5438	-3.1375	-3.3167	-3.4521	-3.1813	-3.6083	-3.3271	-3.0396	88.880	302.614	22.984	267.823	269.086	142.519	22.948	281.522	260.606	64.485	225.702	193.517	301.525	185.075	176.950	254.573	0.00047094	0.00027675	0.00010499	1149.4	5.8679e-06	3.1639e-06	1221.4	239.44	6.2517e-06	3.3639e-06	300.04	88.143	69.357	20.268	5.7594e-06	28.433	0.00023865	0.00022231	6.109e-05	1142.4	2.6303e-06	2.4664e-06	1212	240.35	2.5225e-06	2.4966e-06	300.81	88.822	69.49	20.707	2.4605e-06	29.067	314.667	149.957	80.621	-8.523	155.118	100.676	-8.392	-1.743	112.956	129.309	-1.854	4.744	4.898	12.432	121.280	11.025	-8191	255	
658.494	1	1	0	0	0.099599	0.20912	0.26256	0.22863	0.12839	0.20013	0.21098	0.15313	0.17108	0.033789	0.11465	0.1574	0.12247	0.060571	0.15999	0.030755	-3.1104	-3.2208	-3.3292	-3.6729	-3.0396	-3.3667	-3.6521	-3.1521	-3.5521	-3.3688	-3.3625	-3.5604	-3.1521	-3.5896	-3.3125	-3.0938	236.174	308.466	32.252	260.348	215.975	116.736	285.120	4.614	75.891	262.678	238.012	291.008	144.610	327.248	236.232	19.492	0.00040499	0.00035833	0.00015659	1150.3	2.5384e-06	3.0768e-06	1222.8	241.08	2.3783e-06	4.4574e-06	300.67	88.645	68.932	20.272	3.4204e-06	28.462	0.00024194	0.00023178	6.2917e-05	1143.9	2.6418e-06	2.3945e-06	1212.3	241.1	2.5872e-06	2.4833e-06	301.11	88.967	69.262	20.657	2.5132e-06	29.035	302.541	102.948	61.094	-8.835	222.590	140.118	-8.699	-1.309	168.219	114.792	-1.939	4.509	5.026	11.948	110.887	11.265	-8191	255	
658.613	1	1	0	0	0.19071	0.097701	0.14575	0.15991	0.15063	0.035335	0.072054	0.11355	0.30908	0.079738	0.23919	0.082514	0.2009	0.25799	0.16829	0.12418	-3.2146	-3.1542	-3.125	-3.7125	-3.1458	-3.4417	-3.5417	-3.0167	-3.5354	-3.1042	-3.075	-3.5292	-2.9646	-3.3021	-3.3625	-2.9333	174.745	6.348	42.573	35.380	23.698	289.762	238.174	161.699	119.943	322.676	235.624	305.274	193.308	280.404	180.763	303.478	0.00048663	0.00037045	0.00015494	1156.5	3.5842e-06	7.1501e-06	1222.1	240.25	4.9926e-06	6.9094e-06	300.1	88.145	68.927	20.416	2.0074e-06	28.411	0.00023779	0.00023076	6.5409e-05	1145.1	2.5867e-06	2.4522e-06	1215.1	240.73	2.5416e-06	2.5164e-06	301.18	89.064	69.414	20.694	2.457e-06	29.123	325.909	53.234	108.479	-8.432	140.697	135.083	-8.593	-1.136	217.265	135.047	-1.794	4.678	4.610	11.812	130.981	11.384	-8191	255	
658.710	1	1	0	0	0.057012	0.15066	0.15142	0.29793	0.19202	0.077963	0.10238	0.24349	0.14478	0.14483	0.12748	0.080402	0.076705	0.17841	0.22788	0.18416	-3.0604	-3.1979	-2.9458	-3.4979	-2.9792	-3.3375	-3.5854	-3.1688	-3.4625	-3.2208	-3.0938	-3.3	-3.1042	-3.175	-3.6146	-3.0083	94.368	217.992	178.015	318.126	183.559	50.511	232.554	323.787	241.403	240.877	217.328	8.761	241.422	106.498	42.220	234.276	0.00045107	0.00035493	8.7739e-05	1152.5	3.0979e-06	3.9859e-06	1224.5	241.35	7.515e-06	3.5421e-06	301.17	88.626	68.802	20.442	2.4462e-06	28.434	0.00023099	0.00023059	6.5117e-05	1146.4	2.552e-06	2.5864e-06	1216.5	241.42	2.4745e-06	2.5566e-06	301.95	89.301	69.438	20.762	2.5183e-06	29.16	307.905	85.496	63.170	-8.851	160.134	105.465	-8.560	-1.526	141.090	113.365	-1.916	4.407	5.259	12.273	182.269	11.525	-8191	255	
658.806	1	1	0	0	0.011113	0.039417	0.10863	0.003712	0.20239	0.12795	0.28973	0.28986	0.27611	0.10011	0.21779	0.077438	0.21673	0.22114	0.14514	0.11265	-3.0521	-3.2667	-3.1896	-3.5667	-3.1104	-3.2271	-3.6042	-3.1542	-3.3375	-3.3479	-3.0583	-3.4021	-3.1833	-3.1479	-3.5187	-3.1229	258.502	238.928	143.135	228.100	251.092	281.246	231.555	-9.703	185.533	128.482	20.856	56.579	269.983	154.608	6.793	2.104	0.00040433	0.00036973	5.1046e-05	1159.7	4.488e-06	3.7238e-06	1229.5	242.14	4.5048e-06	4.5779e-06	303.29	88.576	69.155	20.357	1.3785e-06	28.685	0.00023578	0.00022905	6.5872e-05	1151.6	2.6322e-06	2.5326e-06	1221.1	242.24	2.5482e-06	2.5682e-06	303.24	89.323	69.615	20.777	2.5547e-06	29.199	310.565	82.136	35.473	-8.997	168.163	151.934	-8.618	-1.438	150.178	140.661	-1.723	4.552	4.921	11.898	76.124	10.992	-8191	255	
658.902	1	1	0	0	0.13912	0.16293	0.037962	0.17425	0.10296	0.10282	0.27568	0.21642	0.08648	0.16914	0.25734	0.20122	0.22718	0.2868	0.14842	0.20953	-3.1562	-3.325	-2.9979	-3.4146	-3.3563	-3.1312	-3.6125	-3.0104	-3.3167	-3.4854	-2.8563	-3.5042	-3.1854	-3.3271	-3.5208	-3.0479	287.940	220.608	295.034	263.533	333.124	335.416	253.229	23.485	100.455	-9.716	293.740	-16.411	127.158	246.985	58.444	161.806	0.00054168	0.00031832	7.7209e-05	1160.2	2.0911e-06	3.8269e-06	1231.3	242.62	6.405e-06	3.1058e-06	300.36	88.734	69.188	20.472	2.5338e-06	28.603	0.000244	0.0002369	6.5831e-05	1153.9	2.6289e-06	2.5276e-06	1222.3	242.58	2.5639e-06	2.5055e-06	302.36	89.429	69.621	20.828	2.5296e-06	29.135	313.695	100.760	15.135	-8.763	153.755	195.389	-8.685	-1.429	184.925	106.076	-1.603	4.664	4.877	12.006	109.501	11.031	-8191	255	
658.998	1	1	0	0	0.19555	0.079675	0.13697	0.2258	0.10596	0.28281	0.26815	0.067004	0.31116	0.095977	0.052551	0.18981	0.10503	0.28594	0.028897	0.069115	-2.7333	-3.3146	-3.0542	-3.5625	-3.3479	-3.1229	-3.6583	-3.1771	-3.1125	-3.5354	-2.9292	-3.3833	-3.3667	-2.8354	-3.5438	-3.2687	223.422	171.985	97.330	327.383	183.558	244.112	319.568	212.710	22.845	311.723	217.788	325.201	128.284	289.448	296.355	-16.346	0.00046132	0.00042241	3.1367e-05	1165	2.6532e-06	2.231e-06	1230.7	241.9	2.9377e-06	2.5899e-06	302.36	88.171	69.071	20.536	6.7178e-06	28.716	0.00023956	0.00023801	6.5125e-05	1155.9	2.6204e-06	2.5585e-06	1224.1	242.18	2.5998e-06	2.5197e-06	302.71	89.196	69.789	20.867	2.524e-06	29.194	318.878	88.964	110.904	-8.591	198.252	235.847	-8.644	-1.437	115.482	130.021	-2.053	4.300	5.058	11.994	135.622	11.226	-8191	255	
659.094	1	1	0	0	0.25575	0.29973	0.084839	0.15604	0.082025	0.099273	0.14992	0.34441	0.045745	0.11455	0.15602	0.036506	0.14816	0.12811	0.26459	0.059205	-2.6937	-3.4688	-3.0938	-3.2292	-3.3896	-3.075	-3.6333	-3.2708	-3.3354	-3.5229	-3.1437	-3.225	-3.3958	-3.0646	-3.4042	-3.2708	328.694	2.183	168.138	185.827	10.630	194.289	307.899	-5.513	178.615	16.131	324.127	207.645	86.456	330.688	76.381	273.499	0.00031046	0.00035986	0.00012006	1167.1	3.1022e-06	4.2743e-06	1233.5	243.31	9.5529e-06	4.8062e-06	302.86	88.861	69.403	20.442	4.4492e-06	28.713	0.00024377	0.00023829	6.4826e-05	1159.2	2.6696e-06	2.5634e-06	1226.4	242.86	2.6237e-06	2.5688e-06	303.95	89.708	69.929	20.807	2.5715e-06	29.273	312.874	34.955	72.564	-8.766	125.046	187.904	-8.709	-1.346	178.343	166.317	-1.818	4.441	4.474	12.220	167.037	11.167	-8191	255	
659.215	1	1	0	0	0.098082	0.19252	0.085564	0.1167	0.30865	0.13402	0.15675	0.10707	0.13438	0.077607	0.12027	0.11338	0.13125	0.10642	0.18842	0.21503	-2.8167	-3.5854	-3.1021	-3.2625	-3.4979	-3.0146	-3.6167	-3.3583	-3.1479	-3.6813	-3.1292	-3.4271	-3.5458	-3.0792	-3.4083	-3.5229	132.206	145.782	262.592	327.466	8.020	212.570	230.171	279.437	242.011	39.726	194.452	231.243	22.449	22.326	327.936	299.322	0.00043683	0.00051163	1.8587e-05	1165.4	4.0594e-06	3.6057e-06	1232.6	242.87	5.6797e-06	1.1748e-06	303.15	89.165	69.883	20.614	9.4075e-07	28.763	0.00025371	0.00024469	6.7299e-05	1159.6	2.6865e-06	2.6741e-06	1229	243.53	2.708e-06	2.6823e-06	304.31	89.817	70.143	20.915	2.5512e-06	29.262	318.326	49.545	90.149	-8.810	109.061	124.572	-8.835	-1.619	145.878	259.564	-1.964	4.787	4.713	12.029	129.527	11.251	-8191	255	
659.311	1	1	0	0	0.16884	0.099491	0.22744	0.21998	0.094357	0.070173	0.1571	0.19546	0.22562	0.078201	0.13295	0.039849	0.22219	0.13676	0.095656	0.23375	-2.5729	-3.4792	-3.1063	-3.2479	-3.5604	-3.0771	-3.4104	-3.4583	-3.0271	-3.5542	-3.1729	-3.0771	-3.5062	-3.0375	-3.4729	-3.375	13.563	155.585	55.714	287.065	-2.435	312.396	327.589	270.649	228.844	208.101	78.307	56.992	53.581	237.558	289.433	28.585	0.00050975	0.00036938	9.3312e-05	1173.6	3.7658e-06	4.1664e-06	1236.6	243.73	3.4586e-06	1.8655e-06	303.8	88.284	69.499	20.49	4.0283e-06	28.719	0.00025123	0.00023393	6.5099e-05	1162.8	2.5833e-06	2.6123e-06	1230.8	243.7	2.7036e-06	2.6192e-06	304.32	89.703	70.001	20.901	2.5057e-06	29.18	308.761	95.066	58.770	-8.782	176.540	137.418	-8.474	-1.497	173.601	105.167	-2.235	4.324	4.794	12.082	162.107	11.129	-8191	255	
659.405	1	1	0	0	0.06798	0.24716	0.13764	0.06844	0.13059	0.1623	0.097149	0.21544	0.076711	0.17265	0.036254	0.078778	0.14256	0.070819	0.17418	0.14127	-2.5542	-3.4604	-3.1562	-3.1437	-3.3583	-3.1063	-3.4583	-3.4542	-3.0708	-3.6021	-3.4375	-3.0083	-3.6104	-3.1396	-3.3438	-3.6312	122.567	139.458	121.677	187.040	254.977	297.321	237.219	-11.619	109.403	310.535	220.112	68.915	-2.049	49.679	244.768	281.173	0.00043462	0.00045982	8.8422e-05	1171.5	2.4027e-06	2.4419e-06	1240	244.2	3.4695e-06	3.9681e-06	302.64	89.266	69.658	20.635	1.8864e-06	28.731	0.00024946	0.00022584	6.5326e-05	1163.2	2.5158e-06	2.5403e-06	1231.7	244.1	2.5454e-06	2.5135e-06	304.57	89.918	69.992	20.938	2.5898e-06	29.234	310.085	60.286	47.358	-8.569	144.232	102.680	-8.747	-1.602	186.989	145.236	-2.118	4.517	5.056	12.001	159.419	11.371	-8191	255	
659.526	1	1	0	0	0.21821	0.28187	0.18256	0.28831	0.18106	0.13189	0.19912	0.13541	0.077579	0.02331	0.11632	0.13045	0.16535	0.074798	0.29263	0.14338	-2.6312	-3.3229	-3.1729	-3.1958	-3.6042	-3.1604	-3.4062	-3.4729	-2.8396	-3.4375	-3.4292	-3.0292	-3.4646	-3.0687	-3.1396	-3.5062	175.025	63.798	210.342	303.671	205.891	174.954	294.618	304.342	73.120	77.742	12.519	-9.217	265.598	145.432	107.976	55.400	0.0004966	0.00046678	0.00012476	1170	3.928e-06	2.3393e-06	1241.6	243.15	4.764e-06	2.5194e-06	302.25	89.112	69.886	20.579	3.7772e-06	28.531	0.00024666	0.00022815	6.2778e-05	1161.5	2.599e-06	2.5504e-06	1232.5	243.86	2.592e-06	2.453e-06	303.91	89.89	70.119	20.942	2.5311e-06	29.218	313.466	71.134	75.875	-8.868	189.243	139.996	-8.596	-1.574	163.829	113.861	-1.432	4.570	4.818	11.986	94.972	11.361	-8191	255	
659.598	1	1	0	0	0.066968	0.13189	0.14246	0.21379	0.14987	0.078556	0.032668	0.15175	0.11533	0.32073	0.13624	0.30312	0.097844	0.038077	0.05205	0.020602	-2.5438	-3.3708	-3.3104	-3.2542	-3.6375	-3.1083	-3.3396	-3.6146	-3.1688	-3.3854	-3.3229	-2.9437	-3.5104	-3.1146	-3.1125	-3.4938	240.589	198.752	93.596	254.055	243.642	130.773	287.266	-1.215	316.065	327.954	329.504	299.559	223.909	65.116	319.383	150.840	0.00047579	0.00043934	0.00010525	1173.5	3.3051e-06	2.2296e-06	1238.8	242.77	4.5785e-06	4.3033e-06	303.7	89.515	69.856	20.615	6.5521e-06	28.713	0.00024363	0.00023242	6.3096e-05	1163.7	2.5381e-06	2.5588e-06	1233.1	243.75	2.5572e-06	2.5689e-06	304.67	89.93	70.18	20.962	2.5624e-06	29.212	320.585	84.254	97.604	-8.674	115.049	192.103	-8.702	-1.549	141.958	141.589	-2.012	4.492	4.956	11.883	112.299	11.138	-8191	255	
659.694	1	1	0	0	0.23369	0.094959	0.23085	0.12293	0.24161	0.20481	0.1899	0.24804	0.10094	0.071169	0.085821	0.20886	0.36059	0.2897	0.27221	0.24433	-2.6104	-3.2167	-3.2042	-3.1083	-3.5208	-3.2729	-3.1604	-3.4854	-3.1146	-3.2917	-3.5292	-2.8583	-3.3292	-3.1813	-2.95	-3.5958	162.764	281.875	84.920	237.976	279.160	271.204	231.441	330.811	84.311	125.045	192.510	-2.559	325.123	23.096	107.286	292.259	0.00045674	0.00055916	0.00012764	1177.5	3.89e-06	2.845e-06	1242.5	243.67	3.8676e-06	1.3022e-06	303.02	89.412	69.509	20.567	3.2543e-06	28.526	0.00024791	0.00022688	6.4826e-05	1164.6	2.5355e-06	2.5833e-06	1232.6	243.95	2.5759e-06	2.5481e-06	304.14	89.807	70.072	20.917	2.5954e-06	29.152	321.177	82.541	93.430	-8.614	150.223	131.572	-8.621	-1.625	215.187	84.528	-2.038	4.517	4.752	11.604	136.177	11.096	-8191	255	
659.790	1	1	0	0	0.058907	0.31404	0.19808	0.26869	0.060006	0.18882	0.18184	0.026347	0.057542	0.25734	0.2945	0.14307	0.088493	0.10509	0.18597	0.14446	-2.6646	-3.1146	-3.2396	-3.0604	-3.2771	-3.2938	-3.2854	-3.5292	-3.0271	-3.4167	-3.4729	-3.0854	-3.4667	-3.3688	-3.1437	-3.5042	16.064	329.660	13.872	-16.103	323.347	52.201	212.771	257.838	92.761	210.949	-8.038	298.188	129.160	83.976	173.376	115.973	0.00031315	0.00025338	4.3427e-05	1169.1	3.2266e-06	5.3293e-06	1238.2	243.83	5.3783e-06	3.239e-06	304.14	89.08	69.895	20.557	7.2065e-06	28.591	0.00024503	0.0002353	6.3174e-05	1163.3	2.6137e-06	2.5044e-06	1232.4	244.11	2.5429e-06	2.5194e-06	304.4	89.967	70.092	20.94	2.5845e-06	29.203	321.785	70.322	80.585	-8.731	126.783	130.636	-8.444	-1.594	128.716	113.743	-2.050	4.864	5.200	12.084	120.860	11.475	-8191	255	
659.911	1	1	0	0	0.10317	0.16354	0.098717	0.14916	0.080587	0.1887	0.11729	0.39669	0.076134	0.063968	0.084673	0.15274	0.29638	0.099996	0.29685	0.20965	-2.85	-3.0375	-3.45	-3.1521	-3.1688	-3.3563	-3.0479	-3.7771	-3.1917	-2.9313	-3.4271	-3.0625	-3.3438	-3.3375	-3.075	-3.5	-11.378	-1.672	84.644	11.793	200.317	2.813	54.099	213.670	277.459	68.387	229.844	86.330	14.558	185.959	108.397	165.549	0.00041779	0.00039153	5.4761e-05	1176.5	3.7539e-06	6.0528e-07	1239.6	243.13	3.01e-06	3.782e-06	304.14	89.096	69.83	20.574	5.4592e-06	28.886	0.00024306	0.00022989	6.366e-05	1164.8	2.5987e-06	2.5097e-06	1231.3	243.89	2.5371e-06	2.6177e-06	305.06	89.736	70.229	20.93	2.545e-06	29.281	311.401	74.979	53.160	-8.689	146.057	261.202	-8.733	-1.267	135.263	115.333	-1.774	4.291	4.966	12.010	137.168	11.310	-8191	255	
660.007	1	1	0	0	0.1112	0.065753	0.14014	0.10511	0.21034	0.12218	0.08729	0.12476	0.20073	0.063547	0.16719	0.056848	0.30757	0.07326	0.14667	0.31472	-2.7042	-2.7958	-3.6542	-3.1229	-3.3104	-3.4979	-2.9875	-3.5958	-2.9813	-3.0083	-3.575	-3.0729	-3.425	-3.1896	-2.9646	-3.5875	241.764	26.593	107.018	219.484	270.240	254.233	331.417	311.067	61.783	1.242	72.222	303.245	212.052	287.044	303.265	230.446	0.00048084	0.00037366	9.012e-05	1174.1	2.5146e-06	5.0669e-06	1243.8	244.13	5.5823e-06	5.6263e-06	305.73	88.935	69.679	20.476	4.4823e-06	28.584	0.00024675	0.00023465	6.369e-05	1165.7	2.6016e-06	2.5294e-06	1234.9	244.57	2.5731e-06	2.5852e-06	304.42	89.864	70.195	20.931	2.5154e-06	29.263	305.777	70.711	49.964	-8.630	176.551	93.783	-8.553	-1.656	189.616	117.900	-1.898	4.422	4.787	11.975	129.369	11.175	-8191	255	
660.103	1	1	0	0	0.19414	0.096087	0.17427	0.15244	0.3403	0.1577	0.082527	0.32549	0.079293	0.065969	0.058413	0.095992	0.13798	0.059873	0.27295	0.14914	-2.9292	-2.9958	-3.3396	-3.1083	-3.1854	-3.3708	-2.9458	-3.3125	-3.2833	-2.9917	-3.675	-3.2125	-3.3063	-3.2479	-3.0438	-3.4292	27.544	-8.559	312.766	5.372	2.984	5.420	271.225	239.078	157.893	104.025	53.036	339.132	-3.918	326.791	303.185	245.991	0.00045911	0.00029659	9.8014e-05	1169.3	1.8912e-06	2.1316e-06	1243.9	244.72	6.9058e-06	3.8688e-06	305.34	88.965	69.703	20.503	1.4269e-06	28.878	0.00024162	0.00023663	6.499e-05	1162.7	2.6078e-06	2.5405e-06	1234.6	244.26	2.499e-06	2.5696e-06	305.33	89.908	70.184	20.953	2.5242e-06	29.349	315.332	11.571	82.835	-8.638	131.840	156.205	-8.645	-1.327	134.882	125.836	-2.255	4.350	4.896	11.927	199.748	11.258	-8191	255	
660.175	1	1	0	0	0.21165	0.086258	0.20725	0.034369	0.21678	0.31975	0.28156	0.22192	0.15432	0.2279	0.17005	0.082268	0.21105	0.11515	0.14999	0.095109	-2.9667	-3.0667	-3.4521	-3.2521	-3.1146	-3.5083	-3.2438	-3.3042	-3.4354	-2.8646	-3.5396	-3.2562	-3.1958	-3.5833	-3.0604	-3.4604	181.792	19.358	298.308	325.250	52.797	55.405	306.826	58.341	200.496	181.743	289.567	54.498	-9.846	30.923	249.531	300.808	0.00050302	0.00032034	0.00013481	1178.9	4.5537e-06	3.8857e-06	1246.2	244.97	3.5118e-06	3.9545e-06	303.94	89.068	69.974	20.545	3.2111e-06	28.742	0.00024841	0.00023893	6.4882e-05	1167.1	2.6481e-06	2.4967e-06	1237	244.62	2.6019e-06	2.5389e-06	304.83	89.931	70.17	20.969	2.4987e-06	29.25	315.583	60.233	51.964	-8.671	127.144	108.115	-8.638	-1.525	169.706	110.412	-1.725	4.655	4.717	11.795	143.204	11.121	-8191	255	
660.295	1	1	0	0	0.26252	0.12242	0.20518	0.055828	0.047446	0.053406	0.13802	0.15588	0.1753	0.21906	0.18365	0.10194	0.15425	0.15356	0.074042	0.031626	-3.1708	-2.9396	-3.3521	-3.3979	-3.0687	-3.3292	-3.3979	-3.3438	-3.3229	-3.0563	-3.4688	-3.2938	-2.9542	-3.4813	-3.1333	-3.3208	307.781	199.482	51.796	149.345	309.927	245.334	234.886	266.476	142.064	-18.569	67.841	179.269	7.972	57.078	85.318	84.247	0.00053906	0.00023656	8.2918e-05	1172.3	3.3328e-06	2.7013e-06	1242	243.73	6.0548e-06	4.4617e-06	306.56	89.15	69.754	20.584	5.1762e-06	28.726	0.00024709	0.00022909	6.4396e-05	1164.8	2.623e-06	2.5526e-06	1234	244.19	2.5235e-06	2.5688e-06	305.45	89.939	70.094	20.993	2.5689e-06	29.304	306.937	102.711	81.425	-8.764	121.541	125.029	-8.551	-1.416	186.754	88.841	-1.732	4.612	4.924	12.201	140.437	11.317	-8191	255	
660.391	1	1	0	0	0.062252	0.16261	0.29897	0.071548	0.15659	0.19878	0.26436	0.40649	0.07855	0.26024	0.1591	0.18653	0.089629	0.19236	0.069002	0.29676	-3.0625	-2.7083	-3.3417	-3.3354	-3.1521	-3.4104	-3.4437	-3.1854	-3.3688	-3.0917	-3.6771	-3.4208	-3.0542	-3.65	-3.1063	-3.2646	334.758	125.652	44.231	319.655	283.814	157.371	207.204	310.129	41.071	47.713	219.712	10.628	309.886	-18.374	132.459	235.623	0.00041199	0.00028695	8.3697e-05	1175.5	2.5229e-06	2.6056e-06	1245.3	244.7	4.2541e-06	3.367e-06	304.86	89.186	69.982	20.608	2.8515e-06	28.608	0.00024281	0.00022891	6.4714e-05	1167.6	2.6181e-06	2.5149e-06	1234.8	244.83	2.5568e-06	2.5658e-06	305.1	89.89	70.192	20.954	2.5283e-06	29.297	313.053	94.381	60.109	-8.726	83.598	124.939	-8.754	-1.359	177.899	93.744	-1.776	4.276	4.933	11.786	128.961	11.834	-8191	255	
660.487	1	1	0	0	0.16661	0.23567	0.10893	0.10798	0.070693	0.13502	0.22777	0.13553	0.15851	0.3131	0.28506	0.17193	0.17565	0.20112	0.3784	0.095656	-3.1833	-3.0208	-3.2646	-3.5604	-2.9083	-3.4354	-3.3125	-3.2687	-3.5167	-3.0875	-3.3542	-3.5187	-2.9542	-3.55	-3.2604	-3.075	-15.945	331.921	284.139	277.778	61.456	30.005	282.752	284.709	319.944	101.240	14.537	119.451	70.915	295.590	208.752	19.586	0.00036943	0.00037489	0.00014187	1175.5	3.3356e-06	3.2875e-06	1248.2	244.49	3.539e-06	4.5262e-06	303.49	89.186	69.454	20.68	2.6459e-06	28.741	0.00023635	0.00023341	6.3305e-05	1167.1	2.658e-06	2.511e-06	1236	244.71	2.4657e-06	2.5176e-06	304.64	89.983	70.106	20.968	2.5657e-06	29.231	322.555	48.852	60.975	-8.566	132.536	150.030	-8.979	-1.442	222.978	110.786	-1.696	4.698	5.147	11.480	72.463	11.008	-8191	255	
660.606	1	1	0	0	0.23508	0.18874	0.19663	0.21965	0.13531	0.16231	0.084317	0.26059	0.11557	0.19793	0.16331	0.30709	0.12029	0.18928	0.04836	0.31724	-3.2646	-3.0104	-3.3292	-3.5521	-3.0208	-3.6104	-3.4354	-3.1667	-3.6688	-3.2062	-3.4042	-3.4479	-3.0771	-3.35	-3.2979	-3.1146	66.697	204.038	100.111	247.614	295.168	234.956	281.855	228.075	-18.667	340.219	168.346	205.051	213.102	339.130	86.324	130.873	0.00045548	0.00032649	5.411e-05	1177.8	3.0024e-06	4.7023e-06	1246.6	245.93	6.0207e-06	3.6476e-06	305.67	89.605	69.684	20.626	5.4903e-06	28.528	0.00024502	0.00022988	6.3425e-05	1167.1	2.6573e-06	2.522e-06	1236.4	245.03	2.607e-06	2.6167e-06	305.54	90.019	70.258	20.982	2.5534e-06	29.25	310.852	110.849	89.599	-8.776	106.927	123.573	-8.695	-1.332	156.251	102.755	-1.688	4.733	5.098	12.354	122.591	11.286	-8191	255	
660.702	1	1	0	0	0.1881	0.18035	0.083377	0.26648	0.23738	0.14766	0.064313	0.05468	0.059599	0.068681	0.23101	0.072992	0.092186	0.30576	0.1495	0.10902	-3.0875	-3.1979	-3.0687	-3.6229	-3.0708	-3.4062	-3.5125	-3.1083	-3.4188	-3.2208	-3.1729	-3.5896	-3.1542	-3.4729	-3.4417	-3.0479	269.124	83.248	114.191	279.412	19.899	194.630	209.434	2.942	306.820	269.779	267.772	90.154	92.527	-9.589	-1.887	116.536	0.00043761	0.00028826	6.0273e-05	1172.6	2.0306e-06	4.0446e-06	1247.9	244.63	4.0367e-06	2.4948e-06	305.04	89.456	70.24	20.583	1.7205e-06	28.71	0.00023741	0.00023131	6.6208e-05	1165.4	2.6392e-06	2.4691e-06	1236.6	244.58	2.5608e-06	2.5578e-06	304.78	90.027	70.31	20.964	2.5563e-06	29.284	315.938	54.977	67.011	-8.607	139.141	119.630	-8.740	-1.579	166.207	155.481	-1.972	4.540	5.004	12.029	146.375	11.039	-8191	255	
660.799	1	1	0	0	0.21378	0.17634	0.20779	0.29279	0.072006	0.032647	0.23021	0.16025	0.18116	0.15412	0.25232	0.14018	0.13832	0.18844	0.26104	0.11125	-3.1396	-3.1271	-3.1667	-3.7188	-3.0375	-3.4208	-3.5042	-3.0917	-3.3854	-3.2104	-3.1437	-3.5354	-2.9729	-3.3438	-3.4167	-2.9604	78.521	197.479	-18.969	309.738	-14.044	59.418	271.329	240.498	243.596	-10.413	311.682	205.669	143.231	152.762	338.825	48.540	0.00050031	0.00034749	0.00010096	1176.5	5.1701e-06	6.3131e-06	1244.5	245.31	9.2092e-06	3.7451e-06	303.45	89.706	69.999	20.709	3.3311e-06	28.79	0.0002449	0.00023737	6.4699e-05	1167.3	2.6534e-06	2.5005e-06	1236.4	245.33	2.5442e-06	2.5453e-06	304.74	90.062	70.411	21.035	2.5469e-06	29.23	318.544	66.433	127.834	-8.690	131.913	159.417	-8.701	-1.295	156.871	112.369	-1.867	4.416	4.766	11.564	122.654	11.352	-8191	255	
660.895	1	1	0	0	0.21695	0.23521	0.10035	0.39088	0.10878	0.13686	0.26442	0.24614	0.092165	0.16953	0.17308	0.30585	0.14385	0.11223	0.08411	0.18165	-2.975	-3.0354	-3.1354	-3.5021	-3.15	-3.1	-3.7125	-3.1396	-3.4604	-3.0229	-3.1917	-3.5438	-3.2021	-3.2792	-3.5333	-3.0042	258.119	175.932	214.990	282.993	241.728	149.966	95.667	15.395	150.729	88.999	89.429	-1.737	22.182	217.245	262.776	282.688	0.00048987	0.00027841	9.1354e-05	1172.7	7.792e-07	3.5399e-06	1248.2	245.49	5.3532e-06	2.5283e-06	305.51	89.202	69.918	20.596	5.0571e-06	28.771	0.00024756	0.0002358	6.6769e-05	1167.3	2.6274e-06	2.5895e-06	1236.4	245.2	2.5464e-06	2.5464e-06	306.07	90.079	70.327	20.966	2.5782e-06	29.276	313.989	53.748	124.338	-8.585	75.731	157.914	-8.848	-1.490	123.067	137.946	-1.808	4.684	4.692	11.766	172.891	11.192	-8191	255	
660.991	1	1	0	0	0.218	0.17826	0.090942	0.1525	0.1617	0.18098	0.15486	0.18477	0.15023	0.045528	0.15631	0.088432	0.08767	0.18163	0.32961	0.10312	-2.9771	-3.3646	-3.025	-3.4167	-3.2271	-3.1104	-3.6479	-2.9396	-3.3708	-3.3583	-3.0458	-3.3875	-3.1958	-3.1167	-3.6396	-2.9708	-12.601	-3.971	277.730	243.750	335.085	311.291	317.214	228.464	278.566	235.256	119.447	221.167	230.442	-16.644	291.724	333.654	0.00047127	0.00011566	0.00010788	1181.9	1.8178e-06	5.2861e-06	1246.3	244.42	3.3506e-06	2.5222e-06	304.97	89.283	69.5	20.531	4.457e-06	28.729	0.00023604	0.00023085	6.6193e-05	1168.7	2.5989e-06	2.5416e-06	1238	244.95	2.5925e-06	2.5225e-06	305.81	90.231	70.314	20.967	2.587e-06	29.239	318.932	319.066	71.385	-8.684	64.910	116.746	-8.706	-1.627	162.816	110.046	-2.190	4.395	4.986	11.797	171.622	11.406	-8191	255	
661.087	1	1	0	0	0.19844	0.084333	0.16897	0.12051	0.28418	0.2492	0.43911	0.31022	0.064235	0.1183	0.050049	0.30342	0.064425	0.11735	0.11279	0.16856	-2.8917	-3.4896	-2.8563	-3.5625	-3.2146	-3.0708	-3.6833	-3.2146	-3.2417	-3.5208	-3.0417	-3.5042	-3.4813	-3.0167	-3.4875	-3.2875	156.613	-13.706	23.975	264.003	300.872	326.383	260.776	297.848	158.443	169.300	125.943	287.326	213.700	138.781	147.927	45.997	0.00038289	0.00030867	0.00010295	1174.4	6.4276e-07	3.7514e-07	1242.6	245.23	5.3463e-06	4.0656e-06	305.93	89.223	69.908	20.74	2.7823e-06	28.813	0.00024368	0.00023055	6.4699e-05	1167.3	2.602e-06	2.5572e-06	1236.4	245.49	2.594e-06	2.5469e-06	305.48	90.042	70.32	21.027	2.5954e-06	29.266	323.916	80.117	64.114	-8.748	63.496	108.265	-8.509	-1.775	135.913	88.954	-2.115	4.747	4.763	11.903	109.368	10.677	-8191	255	
661.208	1	1	0	0	0.19313	0.19751	0.13503	0.12552	0.16977	0.21815	0.11324	0.30347	0.29061	0.13013	0.027674	0.15369	0.17131	0.021658	0.16838	0.086815	-2.7667	-3.3292	-3.0438	-3.5687	-3.4375	-2.8604	-3.5812	-3.2792	-3.0896	-3.4437	-3.2354	-3.2667	-3.3979	-3.0833	-3.5417	-3.1125	267.321	92.709	102.275	290.780	113.718	103.135	257.352	305.660	68.537	318.966	202.173	237.279	249.882	223.537	160.319	292.840	0.00045334	0.00021518	0.00014794	1173.9	2.0487e-06	6.2443e-06	1248.9	244.08	5.5904e-06	1.9269e-06	304.05	89.748	69.661	20.492	6.1862e-06	28.745	0.00024381	0.00022822	6.7079e-05	1167.7	2.6088e-06	2.5273e-06	1238.5	245.08	2.5444e-06	2.5102e-06	305.17	90.216	70.257	20.975	2.4887e-06	29.286	309.578	93.677	36.696	-8.815	133.493	166.151	-8.632	-1.486	156.029	96.431	-1.919	4.960	4.831	12.208	110.951	11.249	-8191	255	
661.304	1	1	0	0	0.15361	0.034107	0.14729	0.079793	0.2042	0.15774	0.2725	0.11977	0.18658	0.1173	0.19748	0.28323	0.13827	0.13516	0.16375	0.051526	-2.7875	-3.4062	-3.0292	-3.3312	-3.4479	-2.9688	-3.5187	-3.2625	-3.1229	-3.5687	-3.2854	-3.1542	-3.3979	-2.9333	-3.4729	-3.2417	132.158	81.997	307.327	227.294	79.466	95.772	265.538	263.773	267.806	325.919	335.357	255.811	207.920	51.540	31.322	86.864	0.00046502	0.00033815	9.9022e-05	1179.4	4.0902e-06	2.8105e-06	1246.2	245.58	5.1263e-06	2.66e-06	304.44	89.813	69.914	20.586	4.6636e-06	28.809	0.00024566	0.00023354	6.4945e-05	1169.2	2.6995e-06	2.607e-06	1238.1	245.79	2.6063e-06	2.5334e-06	304.73	90.392	70.39	21.011	2.4763e-06	29.309	312.858	106.530	58.129	-8.718	141.791	91.886	-8.535	-1.328	192.548	153.031	-1.879	4.537	4.674	11.963	168.786	11.400	-8191	255	
661.398	1	1	0	0	0.29631	0.18276	0.072113	0.18791	0.064412	0.20156	0.16789	0.10704	0.095819	0.25237	0.1509	0.15669	0.07595	0.18898	0.22584	0.098515	-2.6333	-3.4833	-3.0021	-3.3563	-3.5104	-3.0646	-3.5417	-3.5208	-3.1104	-3.6042	-3.2333	-3.4354	-3.6667	-3.0938	-3.4562	-3.3979	113.747	157.605	-17.984	313.791	134.784	5.017	290.941	242.242	-9.511	112.908	250.637	280.135	273.158	289.419	-10.116	189.728	0.00050731	0.00020898	0.00010161	1176.2	4.4035e-06	5.4631e-06	1246.1	245.58	2.7462e-06	1.7815e-06	305.11	89.26	70.011	20.54	3.7564e-06	28.6	0.00025006	0.00023124	6.7269e-05	1167.7	2.7079e-06	2.6045e-06	1238	245.7	2.6369e-06	2.575e-06	305.58	89.986	70.468	20.966	2.5596e-06	29.286	317.738	55.532	43.902	-8.908	195.382	125.985	-8.573	-1.422	160.960	144.931	-1.996	4.950	4.795	12.100	128.348	11.323	-8191	255	
661.472	1	1	0	0	0.17463	0.090269	0.16445	0.23669	0.13852	0.1793	0.31979	0.10571	0.14317	0.030635	0.098696	0.022939	0.28326	0.2836	0.20406	0.085591	-2.5	-3.3479	-3.225	-3.225	-3.5646	-3.1979	-3.6208	-3.525	-3.0604	-3.5687	-3.3042	-3.3021	-3.4646	-2.9167	-3.4458	-3.2729	304.824	286.067	157.950	274.486	267.898	297.634	275.084	58.683	247.233	54.835	327.806	29.581	322.469	277.173	293.843	24.932	0.00041865	0.00046709	0.00013767	1178.8	3.4357e-06	2.1086e-06	1249.8	245.63	3.6883e-06	3.37e-06	304.59	89.042	69.964	20.846	3.57e-06	28.668	0.0002552	0.00023147	6.5513e-05	1171.3	2.668e-06	2.5984e-06	1239.9	245.77	2.6039e-06	2.5491e-06	306.02	90.246	70.406	21.081	2.5518e-06	29.222	311.578	74.411	63.685	-8.713	127.294	129.663	-8.570	-1.275	196.793	153.356	-1.902	4.623	4.563	11.996	147.410	10.904	-8191	255	
661.591	1	1	0	0	0.31708	0.19601	0.117	0.03608	0.10846	0.26216	0.083896	0.020406	0.11455	0.15101	0.10755	0.065298	0.17561	0.074406	0.15867	0.16822	-2.6	-3.5563	-3.3104	-3.0271	-3.5312	-2.9188	-3.6021	-3.4479	-3.0729	-3.4521	-3.4104	-3.0312	-3.7146	-3.1333	-3.1458	-3.5438	274.642	16.516	199.545	85.620	217.205	62.140	161.558	32.977	145.183	325.400	231.394	136.265	50.256	126.525	25.614	192.523	0.00039927	0.00049323	0.00014015	1182.4	4.4532e-06	4.84e-06	1253.6	247.04	5.9883e-06	3.7809e-06	303.69	89.6	69.857	20.602	3.9868e-06	28.761	0.00025147	0.00024475	6.7482e-05	1171.4	2.6359e-06	2.6389e-06	1241.6	246.22	2.6463e-06	2.6461e-06	305.16	90.363	70.46	20.998	2.6306e-06	29.24	307.660	83.081	73.677	-8.761	119.561	122.649	-8.718	-1.572	152.358	132.283	-2.262	4.546	4.796	11.839	127.641	10.949	-8191	255	
661.687	1	1	0	0	0.18652	0.24397	0.077526	0.16975	0.1045	0.2686	0.31504	0.11482	0.26783	0.17833	0.095549	0.23585	0.056968	0.17072	0.057533	0.10541	-2.675	-3.3354	-3.3521	-3.2333	-3.4542	-3.0854	-3.3729	-3.5667	-2.9521	-3.4375	-3.2896	-2.9562	-3.575	-3.1833	-3.2562	-3.3646	323.188	279.114	235.470	79.899	215.222	245.065	329.474	316.344	244.748	9.037	250.241	277.689	231.988	55.522	0.179	276.133	0.0004064	0.00022531	0.00011505	1182.6	5.9725e-06	4.1901e-06	1249.1	246.73	5.1186e-06	3.7329e-06	305.18	89.414	69.909	20.771	3.8371e-06	28.732	0.00025565	0.00023996	6.7946e-05	1173.2	2.5484e-06	2.6367e-06	1241.6	246.03	2.6397e-06	2.59e-06	306.25	90.291	70.368	21.061	2.6731e-06	29.294	325.062	88.722	62.383	-8.634	158.771	202.735	-8.591	-1.316	167.085	109.139	-2.187	4.758	4.596	11.942	123.615	11.483	-8191	255	
661.783	1	1	0	0	0.1724	0.35324	0.062717	0.072007	0.12493	0.29544	0.14929	0.33695	0.092857	0.10142	0.18965	0.31648	0.12682	0.23495	0.02625	0.054269	-2.7854	-3.3729	-3.2542	-3.2438	-3.45	-3.2625	-3.1646	-3.4771	-2.8854	-3.4208	-3.4896	-2.8958	-3.4896	-3.3625	-2.9167	-3.4417	20.785	242.068	134.596	340.136	75.446	35.023	236.148	142.053	144.291	286.564	211.619	-4.546	291.595	-13.733	73.210	-0.172	0.00044896	0.00030389	5.533e-05	1179.1	3.9146e-06	2.8468e-06	1253.7	246.67	5.5969e-06	2.2724e-06	305.4	89.299	69.719	20.672	4.7949e-06	28.673	0.00025307	0.00023282	6.6537e-05	1173.1	2.6283e-06	2.54e-06	1242.8	246.14	2.6926e-06	2.5563e-06	306.04	90.256	70.367	21.065	2.6427e-06	29.329	306.579	71.286	132.148	-8.695	138.914	97.329	-8.778	-1.444	192.568	137.945	-2.107	4.767	4.821	11.826	149.127	11.233	-8191	255	
661.879	1	1	0	0	0.28518	0.23915	0.04018	0.13005	0.15714	0.25004	0.25992	0.11416	0.11063	0.01586	0.28652	0.07484	0.43915	0.1095	0.18441	0.093272	-2.7354	-3.2208	-3.3917	-2.9646	-3.4	-3.2396	-3.2271	-3.7354	-3.0729	-3.2062	-3.5687	-3.0417	-3.3583	-3.1729	-3.1583	-3.6125	282.646	-6.317	246.908	297.441	231.385	150.424	263.102	317.343	329.509	-0.109	260.628	236.041	93.004	262.911	62.118	4.490	0.00043013	0.00034555	7.1914e-05	1181	4.8084e-06	3.0197e-06	1247.6	245.93	5.2662e-06	2.8845e-06	306.32	89.441	69.902	20.612	2.4074e-06	28.88	0.00024472	0.0002394	6.5599e-05	1172	2.6505e-06	2.5724e-06	1240.1	246.02	2.6796e-06	2.5577e-06	306.51	90.235	70.398	21.033	2.6089e-06	29.31	313.334	93.994	44.790	-8.717	179.132	126.402	-8.680	-1.656	181.779	69.877	-1.890	4.414	4.611	11.777	159.292	11.384	-8191	255	
661.975	1	1	0	0	0.080377	0.046495	0.10101	0.17186	0.18501	0.17552	0.13277	0.32465	0.13077	0.068717	0.091652	0.17698	0.12832	0.28828	0.063253	0.08401	-2.6708	-3.2812	-3.3021	-3.1333	-3.3083	-3.2812	-3.1292	-3.5854	-3.0958	-3.2167	-3.5812	-3.2042	-3.3354	-3.3583	-2.9396	-3.5083	258.506	304.537	33.850	293.550	69.592	-12.995	253.891	333.156	112.399	108.442	103.355	62.241	307.614	-9.338	23.173	279.486	0.00045384	0.00028447	0.00010801	1178.7	2.3069e-06	4.8614e-06	1250.3	247.34	4.3127e-06	2.8682e-06	304.03	89.266	70.101	20.57	2.0716e-06	28.641	0.00025967	0.00023691	6.6982e-05	1172.6	2.6524e-06	2.5665e-06	1243	246.08	2.6347e-06	2.6022e-06	305.6	90.161	70.361	21.01	2.5671e-06	29.315	313.312	128.659	71.000	-8.599	180.264	124.639	-8.743	-1.631	200.613	149.187	-2.068	4.510	4.553	12.117	162.043	11.386	-8191	255	
662.071	1	1	0	0	0.072513	0.20273	0.12615	0.33604	0.2128	0.28428	0.18466	0.16366	0.21499	0.11731	0.24534	0.12132	0.13385	0.18576	0.12901	0.10018	-2.6521	-3.15	-3.5187	-3.2292	-3.2271	-3.4625	-2.9229	-3.4771	-3.0875	-3.0292	-3.6604	-3.0146	-3.2833	-3.4229	-2.975	-3.4396	65.169	244.628	218.295	244.895	250.600	71.860	245.122	275.081	175.276	6.389	-18.870	281.683	327.544	300.103	290.953	233.485	0.00043316	0.00024714	0.000103	1181.2	2.9815e-06	6.4042e-06	1250.4	245.46	2.0231e-06	6.2395e-06	303.49	89.466	69.827	20.801	3.236e-06	28.678	0.00025174	0.0002413	6.5592e-05	1174.4	2.7735e-06	2.6472e-06	1241.1	245.84	2.5948e-06	2.6996e-06	306.09	90.331	70.405	21.096	2.5744e-06	29.288	315.803	66.009	84.677	-8.806	136.821	152.299	-8.736	-1.565	191.441	124.923	-2.228	4.705	4.573	12.154	105.918	10.819	-8191	255	
662.167	1	1	0	0	0.2224	0.21469	0.19961	0.27027	0.25112	0.085163	0.17381	0.11302	0.11473	0.19338	0.17825	0.11296	0.18548	0.078206	0.0719	0.077142	-2.9104	-3.0062	-3.3375	-3.1521	-3.2521	-3.5042	-3.0604	-3.4625	-3.1937	-3.0792	-3.4375	-3.2271	-3.3063	-3.4271	-3.0875	-3.4542	182.209	253.417	220.876	317.538	193.930	301.349	255.580	18.800	36.479	87.973	4.332	273.506	259.831	-1.756	149.901	134.938	0.00051972	0.00020448	9.8031e-05	1180.2	5.0663e-06	4.9107e-06	1249.4	245.35	5.0066e-06	1.191e-06	304.03	89.489	69.811	20.599	6.0371e-06	28.826	0.00025066	0.00023603	6.4695e-05	1172.2	2.6974e-06	2.4908e-06	1241.6	245.9	2.6105e-06	2.6546e-06	305.54	90.312	70.387	21.006	2.6006e-06	29.239	313.801	105.222	107.585	-8.783	162.688	142.020	-8.729	-1.593	190.930	92.901	-2.143	4.475	4.940	11.479	130.805	11.173	-8191	255	
662.288	1	1	0	0	0.018218	0.3195	0.22218	0.10374	0.050855	0.087983	0.2032	0.13697	0.21159	0.11591	0.10913	0.15727	0.21056	0.083333	0.34905	0.057435	-2.7021	-2.9417	-3.5583	-3.2667	-3.2729	-3.5604	-3.0438	-3.4062	-3.3312	-3.1188	-3.6	-3.2271	-3.0979	-3.5979	-2.85	-3.2958	63.694	333.743	292.174	105.622	39.136	223.467	289.646	336.017	69.270	8.525	91.829	278.638	304.911	148.011	127.646	266.732	0.00052026	0.00026563	0.00014024	1182.5	4.7643e-06	5.0007e-06	1250.3	245.64	5.4165e-06	1.7716e-06	305.36	89.42	70.23	20.694	3.8454e-06	28.502	0.00024193	0.00022885	6.6033e-05	1171.8	2.6297e-06	2.5907e-06	1242.1	245.93	2.5632e-06	2.6137e-06	305.91	90.056	70.547	21.044	2.5783e-06	29.235	311.198	77.303	98.178	-8.698	139.843	154.572	-8.738	-1.678	150.399	80.310	-1.925	4.603	4.993	11.966	151.954	11.086	-8191	255	
662.384	1	1	0	0	0.16758	0.11997	0.15359	0.12612	0.22187	0.2058	0.28115	0.1772	0.17588	0.30366	0.17022	0.080931	0.18544	0.19412	0.1011	0.028961	-2.9083	-3.0354	-3.3854	-3.1875	-3.1458	-3.4667	-3.2313	-3.2896	-3.5229	-3.0604	-3.4083	-3.3396	-3.1417	-3.4125	-3.1125	-3.5062	25.904	215.081	273.939	271.452	285.264	-4.872	202.106	309.010	157.261	276.043	282.944	136.892	12.292	158.897	332.951	234.894	0.00043441	0.00042638	8.91e-05	1179.7	2.735e-06	3.5792e-06	1246.4	246	4.6413e-06	4.3618e-07	305.8	89.485	69.718	20.636	2.6514e-06	28.894	0.00024443	0.00023489	6.443e-05	1172	2.6587e-06	2.507e-06	1239.6	246.26	2.5561e-06	2.668e-06	306.06	90.188	70.356	21.062	2.5673e-06	29.297	317.402	104.783	96.798	-8.777	146.188	142.738	-8.613	-1.642	169.368	56.332	-2.212	4.387	4.868	11.650	132.146	11.209	-8191	255	
662.479	1	1	0	0	0.20033	0.15995	0.079821	0.099828	0.035153	0.17358	0.080822	0.11094	0.075801	0.33118	0.137	0.09508	0.12902	0.13126	0.19443	0.11056	-3.0812	-2.8333	-3.4333	-3.5292	-3.0917	-3.6063	-3.3	-3.4833	-3.5542	-2.8396	-3.3667	-3.2896	-3.0417	-3.5479	-3.1688	-3.1208	90.276	334.691	78.061	327.723	33.532	22.968	234.291	299.928	88.931	153.628	290.756	276.177	53.348	13.162	203.234	-3.549	0.00046964	0.00056029	0.00013353	1178.9	2.8128e-06	2.4302e-06	1249.3	246.69	5.4384e-06	4.3235e-06	305.17	89.323	70.29	20.505	4.7915e-06	28.551	0.00025076	0.00024659	6.4318e-05	1171.6	2.7314e-06	2.5925e-06	1241.9	246.15	2.6632e-06	2.681e-06	306.04	90.389	70.466	20.983	2.5619e-06	29.234	315.725	105.362	104.566	-8.801	147.065	111.097	-8.714	-1.375	177.960	130.567	-2.051	4.780	4.813	11.912	137.723	10.954	-8191	255	
662.577	1	1	0	0	0.29358	0.097804	0.42712	0.20642	0.037496	0.19608	0.33993	0.19671	0.038849	0.10472	0.076483	0.13538	0.19324	0.27229	0.29044	0.073446	-3.0687	-2.9979	-3.3292	-3.4917	-2.8917	-3.4417	-3.3333	-3.3833	-3.5563	-3.1417	-3.5187	-3.2792	-3	-3.3417	-3.2188	-3.1583	19.574	310.835	7.427	309.906	136.313	218.693	224.721	300.465	3.594	219.340	170.787	193.315	286.291	29.092	209.647	-13.503	0.00041371	0.0003577	3.9171e-05	1180.7	4.1091e-06	2.8322e-06	1245.2	246.46	3.6617e-06	4.8734e-07	305.48	89.095	70.021	20.591	1.5693e-06	28.637	0.00025298	0.0002426	6.8185e-05	1172.2	2.7591e-06	2.6105e-06	1239.1	246.02	2.6724e-06	2.6121e-06	305.25	90.253	70.396	21.062	2.6134e-06	29.28	315.382	77.671	122.726	-8.972	136.690	98.281	-8.745	-1.549	202.703	207.780	-1.931	4.429	5.140	11.903	104.533	11.209	-8191	255	
662.695	1	1	0	0	0.087819	0.18804	0.11098	0.07769	0.11761	0.11224	0.19289	0.34706	0.067335	0.045697	0.23221	0.10148	0.064534	0.11016	0.17771	0.14228	-3.2208	-3.0292	-3.4125	-3.5062	-3.0104	-3.4062	-3.2687	-3.3312	-3.5062	-3.0333	-3.3146	-3.5125	-3.0187	-3.3729	-3.3833	-3.15	331.385	81.224	317.929	204.373	28.382	224.152	332.007	239.706	282.522	326.616	197.451	62.538	281.559	50.118	67.772	70.666	0.00046526	0.00016084	3.9518e-05	1177	5.1544e-06	3.4132e-06	1247.5	244.63	7.9079e-06	3.474e-06	304.57	89.331	69.618	20.666	5.5522e-07	28.76	0.00025163	0.00023116	6.5577e-05	1172.7	2.7042e-06	2.5331e-06	1240.9	245.65	2.6603e-06	2.6873e-06	305.99	90.185	70.292	21.071	2.6376e-06	29.279	301.871	48.797	107.540	-8.981	160.836	146.205	-8.706	-1.259	153.900	109.096	-1.982	4.334	4.785	11.710	11.277	11.075	-8191	255	
662.767	1	1	0	0	0.11412	0.15759	0.1705	0.079935	0.20055	0.1861	0.1492	0.17862	0.11862	0.10079	0.18126	0.17657	0.10544	0.26281	0.14924	0.17813	-3.0312	-3.0187	-3.2021	-3.5312	-2.8292	-3.5646	-3.5771	-2.9833	-3.6167	-3.1333	-3.2021	-3.5333	-3.1354	-3.4021	-3.3875	-3.1521	110.405	45.942	290.462	305.102	256.468	159.953	19.197	237.493	51.280	31.290	289.488	272.434	322.137	195.137	-18.595	238.378	0.000448	0.00029888	8.6993e-05	1179.8	1.363e-06	2.8021e-06	1253	246.48	6.1198e-06	2.8513e-06	304.38	89.289	69.783	20.774	4.347e-06	28.673	0.00025416	0.00023829	6.5749e-05	1171.6	2.6667e-06	2.5545e-06	1241.6	246.29	2.5848e-06	2.6165e-06	305.34	90.21	70.392	21.103	2.5406e-06	29.298	311.613	39.752	66.501	-8.848	129.434	68.401	-8.749	-1.545	128.810	177.462	-2.030	4.248	4.990	11.840	132.118	11.044	-8191	255	
662.888	1	1	0	0	0.22371	0.037315	0.13531	0.053362	0.1569	0.13037	0.30228	0.095401	0.15523	0.085496	0.17371	0.1024	0.14983	0.040809	0.20264	0.058354	-3.175	-3.2333	-3.2188	-3.6875	-3.0625	-3.1458	-3.6813	-3.0563	-3.4167	-3.2854	-3.0604	-3.3292	-3.05	-3.3146	-3.2896	-2.9292	101.073	262.912	134.247	254.224	84.792	154.396	312.548	194.659	47.882	280.178	312.267	296.853	111.175	201.477	32.929	69.512	0.00051012	0.00044973	0.00012074	1174.8	2.6416e-06	3.7526e-06	1251.4	245.11	4.1917e-06	2.9392e-06	306.41	89.81	69.93	20.547	2.9102e-06	28.572	0.00024481	0.00023239	6.4463e-05	1169.9	2.692e-06	2.5575e-06	1242.3	245.56	2.5755e-06	2.5277e-06	306.58	90.413	70.384	21.007	2.6008e-06	29.255	306.769	47.557	78.005	-8.782	146.991	108.269	-8.509	-1.340	232.755	93.799	-1.899	4.253	4.451	11.668	206.656	11.017	-8191	255	
662.984	1	1	0	0	0.12268	0.13887	0.073788	0.12406	0.18947	0.037762	0.047839	0.25004	0.20105	0.23349	0.11616	0.086125	0.11383	0.12293	0.11868	0.24786	-2.9917	-3.1917	-3.0396	-3.6292	-3.0979	-3.1396	-3.5146	-2.9604	-3.3667	-3.2792	-3.1417	-3.5521	-3.0938	-3.1458	-3.475	-3.0208	312.580	299.531	284.003	278.390	277.005	126.490	18.118	232.123	190.150	85.436	272.976	85.541	248.491	-18.128	112.226	234.504	0.00043726	0.00021674	5.9849e-05	1177.2	2.6988e-06	1.4008e-06	1252.7	244.32	5.5734e-06	2.8134e-06	305.38	89.429	70.173	20.677	6.3058e-06	28.755	0.00024713	0.00023879	6.5779e-05	1171.1	2.7617e-06	2.5728e-06	1241.4	245.68	2.6058e-06	2.5587e-06	306.06	90.437	70.607	21.053	2.5693e-06	29.304	320.600	60.801	54.504	-8.678	118.960	168.748	-8.653	-1.558	181.139	74.317	-2.062	4.600	4.787	11.566	151.322	10.966	-8191	255	
663.080	1	1	0	0	0.17138	0.28724	0.0089068	0.32108	0.15261	0.018369	0.15603	0.34718	0.10702	0.15781	0.028946	0.27898	0.21312	0.33885	0.16031	0.03831	-2.9104	-3.2021	-3.0958	-3.5187	-3.1188	-3.2104	-3.5854	-2.9938	-3.3604	-3.3812	-3.1188	-3.5083	-3.0563	-3.2271	-3.4188	-3.25	96.637	150.146	230.847	267.027	150.042	169.063	310.215	300.560	-15.384	254.114	225.604	26.406	205.345	311.419	173.997	317.478	0.00043185	0.0003961	7.6916e-05	1175.7	3.3757e-06	3.2241e-06	1243.3	245.37	3.0304e-06	4.476e-06	306.01	89.558	69.88	20.593	2.1806e-06	28.58	0.00024467	0.00023211	6.5536e-05	1170.8	2.6485e-06	2.6278e-06	1240.4	245.94	2.6118e-06	2.5662e-06	306.28	90.496	70.481	21.069	2.5686e-06	29.314	319.428	37.681	75.710	-8.607	103.355	119.106	-8.774	-1.543	196.207	106.961	-2.176	4.311	4.973	11.685	161.771	11.270	-8191	255	
663.176	1	1	0	0	0.24827	0.045739	0.14634	0.16928	0.18385	0.12009	0.20199	0.095851	0.23219	0.088888	0.17494	0.029655	0.084951	0.06965	0.13096	0.13358	-2.7917	-3.35	-2.9125	-3.7083	-3.2375	-3.1271	-3.6542	-3.0438	-3.3	-3.6083	-2.9417	-3.5229	-3.1562	-3.1917	-3.4938	-3.0896	105.871	277.590	206.214	337.298	301.348	218.087	273.140	135.042	-9.671	248.697	258.995	24.469	44.730	10.583	116.731	45.209	0.000391	0.0001093	4.3946e-05	1179.3	2.9977e-06	2.7371e-06	1250	246.19	9.5515e-06	1.9826e-06	303.83	89.696	70.463	20.525	4.5368e-06	28.846	0.00024664	0.00022953	6.4538e-05	1172.7	2.6122e-06	2.5152e-06	1242.9	246.11	2.6667e-06	2.5628e-06	306.64	90.506	70.632	21.036	2.6532e-06	29.385	326.927	53.011	97.241	-8.728	132.633	144.867	-8.753	-1.481	169.658	102.835	-1.779	4.295	5.077	11.619	131.522	11.261	-8191	255	
663.272	1	1	0	0	0.16073	0.17548	0.1968	0.30245	0.25388	0.14491	0.22664	0.19761	0.37689	0.12708	0.16129	0.26963	0.13323	0.34248	0.083414	0.17046	-2.9917	-3.4396	-3.1625	-3.5021	-3.2292	-3.05	-3.7938	-3.1854	-3.0896	-3.4042	-3.1021	-3.4521	-3.3229	-3.1125	-3.5208	-3.2021	61.125	252.800	160.205	330.058	221.148	115.138	247.891	-11.827	245.603	16.145	319.564	49.138	143.603	7.729	269.362	5.336	0.00032517	0.00024797	0.00011655	1184.4	4.3687e-06	4.2409e-06	1253.1	246.35	5.5176e-06	4.6814e-06	305.74	89.424	70.202	20.704	5.1249e-06	28.697	0.00024461	0.00023536	6.5121e-05	1175.4	2.658e-06	2.6385e-06	1245.5	246.44	2.5728e-06	2.5909e-06	306.39	90.363	70.662	21.114	2.5898e-06	29.339	312.558	62.209	85.942	-8.583	175.698	156.644	-8.763	-1.812	218.184	124.791	-1.785	4.244	4.433	12.008	132.780	11.346	-8191	255	
663.368	1	1	0	0	0.12474	0.17003	0.20759	0.31652	0.014819	0.073183	0.070865	0.12799	0.11591	0.075047	0.26698	0.11507	0.22387	0.11616	0.1179	0.15294	-2.5833	-3.6937	-3.0604	-3.4229	-3.2854	-2.9062	-3.5958	-3.2333	-3.2021	-3.3917	-3.1729	-3.2646	-3.3604	-2.8083	-3.4938	-3.2729	284.208	166.371	53.770	206.755	121.481	51.377	259.721	188.113	290.699	163.281	282.918	-14.187	27.321	197.841	184.431	69.080	0.00047471	0.00037004	7.4985e-05	1176.4	3.7103e-06	5.772e-06	1253.6	246.2	5.6824e-06	3.1458e-06	306.86	89.792	69.786	20.718	2.2607e-06	28.911	0.00024794	0.00023385	6.4273e-05	1172.9	2.6877e-06	2.5792e-06	1245.5	246.66	2.5826e-06	2.4815e-06	306.85	90.561	70.48	21.096	2.5337e-06	29.38	316.320	81.669	62.626	-8.587	162.585	121.838	-8.569	-1.456	165.993	124.286	-2.190	4.264	4.819	11.759	137.354	11.283	-8191	255	
663.465	1	1	0	0	0.10477	0.04297	0.10413	0.19442	0.023794	0.34077	0.30264	0.026327	0.21951	0.24696	0.35863	0.059996	0.20839	0.065087	0.1078	0.1941	-2.5604	-3.5104	-3.1396	-3.4229	-3.2917	-2.8854	-3.7542	-3.1333	-3.1875	-3.3104	-3.2354	-3.4	-3.4021	-3	-3.425	-3.2938	237.698	198.044	62.889	187.077	219.436	102.215	275.351	125.109	236.109	195.389	-9.819	192.624	205.061	304.539	221.420	108.110	0.00051149	0.00030706	5.664e-05	1183.9	1.1098e-06	2.9871e-06	1251.4	246.6	5.7543e-06	2.2361e-06	307.65	89.533	70.326	20.698	4.1125e-06	28.767	0.00025423	0.00022683	6.5222e-05	1176.4	2.6306e-06	2.6345e-06	1244.8	247.02	2.6492e-06	2.5637e-06	307.68	90.485	70.661	21.154	2.5951e-06	29.38	315.567	69.609	115.086	-8.654	294.739	58.525	-8.773	-1.489	106.625	131.560	-1.951	4.047	4.917	11.749	159.835	10.867	-8191	255	
663.559	1	1	0	0	0.3202	0.094967	0.31411	0.1263	0.20095	0.1448	0.09712	0.14472	0.18589	0.1023	0.16891	0.092581	0.34278	0.1054	0.1601	0.15966	-2.5542	-3.4542	-3.1271	-3.2417	-3.3792	-2.8604	-3.5292	-3.3312	-3.1208	-3.6542	-3.0833	-3.1937	-3.4479	-3.0729	-3.4479	-3.3063	228.101	191.528	151.237	303.385	124.084	269.746	259.412	195.623	137.626	239.020	333.050	284.224	11.086	134.689	254.106	80.486	0.00041762	0.00045344	0.00013584	1184.7	3.3126e-06	3.4558e-06	1252.4	246.77	2.8218e-06	4.8788e-06	307.77	89.94	70.195	20.682	3.1451e-06	28.865	0.0002446	0.00023926	6.4968e-05	1176.2	2.637e-06	2.5005e-06	1247.2	247.28	2.5653e-06	2.5747e-06	307.24	90.756	70.713	21.141	2.5305e-06	29.375	311.373	95.846	89.594	-8.600	120.122	147.471	-8.715	-1.330	214.571	122.305	-2.223	4.510	4.664	11.884	121.864	11.117	-8191	255	
663.657	1	1	0	0	0.025943	0.14289	0.19508	0.16405	0.023332	0.40336	0.19403	0.21512	0.11817	0.29442	0.036317	0.037387	0.26969	0.16104	0.1856	0.10673	-2.5354	-3.3125	-2.9625	-3.3187	-3.4396	-2.8854	-3.5458	-3.4625	-2.9792	-3.5146	-3.1271	-2.9688	-3.6312	-3.0125	-3.3292	-3.5958	238.413	171.763	306.488	-3.215	116.627	-15.321	249.535	265.071	152.637	200.412	106.782	312.477	312.889	316.310	174.224	18.853	0.0005155	0.00031333	8.0961e-05	1181.6	2.6225e-06	5.0742e-06	1256	247.39	8.6507e-06	1.6794e-06	306.11	89.941	70.209	20.739	4.5784e-06	28.798	0.00024816	0.00022952	6.4348e-05	1175.7	2.7055e-06	2.6061e-06	1247.1	247.23	2.6617e-06	2.5841e-06	306.54	90.689	70.718	21.108	2.4813e-06	29.346	313.471	82.563	164.146	-8.720	152.644	164.811	-8.745	-1.257	182.145	85.802	-1.981	4.657	4.758	12.069	145.862	11.455	-8191	255	
663.776	1	1	0	0	0.1211	0.38586	0.13311	0.18899	0.27398	0.15966	0.26163	0.23391	0.13395	0.11929	0.22884	0.21924	0.13832	0.16313	0.047523	0.24953	-2.6937	-3.4958	-3.0938	-3.1646	-3.5479	-3.0812	-3.5021	-3.4729	-3.0958	-3.4271	-3.2542	-3.1625	-3.4542	-3.1229	-3.2979	-3.375	135.147	275.012	168.879	3.740	8.495	235.733	336.253	271.568	241.242	222.128	24.821	332.665	223.396	22.340	68.841	280.072	0.00048437	0.00015498	9.4764e-05	1181.9	4.2181e-06	2.8367e-06	1257	246.77	4.2228e-06	3.3512e-06	305.31	89.885	70.213	20.656	5.6676e-06	28.892	0.00025702	0.00022907	6.5326e-05	1175.9	2.6656e-06	2.6349e-06	1246.5	246.93	2.637e-06	2.4786e-06	307.55	90.726	70.704	21.141	2.5977e-06	29.382	307.575	71.753	61.071	-8.773	152.983	175.587	-8.751	-1.376	157.893	94.186	-1.874	4.426	4.549	11.718	127.246	11.010	-8191	255	
663.872	1	1	0	0	0.21455	0.036628	0.17987	0.32552	0.051173	0.18708	0.2472	0.16357	0.10151	0.46565	0.10935	0.22243	0.035464	0.17258	0.092732	0.098653	-2.6625	-3.2521	-3.0646	-3.1125	-3.4646	-3.0208	-3.3708	-3.5333	-2.9979	-3.3979	-3.425	-2.8812	-3.4958	-3.2271	-3.0292	-3.6125	-2.991	122.049	-15.889	290.356	-16.772	252.229	268.636	284.013	67.071	231.321	327.750	334.109	307.594	276.223	99.483	243.073	0.00042013	0.00024939	0.00012475	1187.9	2.9802e-06	3.7463e-06	1252.6	247.5	5.8621e-06	2.3948e-06	304.75	90.048	70.453	20.692	1.4565e-06	28.893	0.00025182	0.00023655	6.4157e-05	1177.7	2.6791e-06	2.5986e-06	1246.8	247.08	2.6967e-06	2.5485e-06	306.92	90.642	70.748	21.123	2.5545e-06	29.328	316.889	64.017	82.169	-8.801	135.749	155.643	-8.608	-1.747	179.571	100.650	-1.952	4.580	4.738	11.440	166.155	11.094	-8191	255	
663.968	1	1	0	0	0.26652	0.068232	0.19909	0.27603	0.079624	0.22541	0.15981	0.084124	0.11709	0.087759	0.31568	0.20814	0.16826	0.15102	0.17543	0.18196	-2.5625	-3.2229	-3.4437	-3.2104	-3.575	-3.4479	-3.1312	-3.4854	-3.0062	-3.2396	-3.4208	-3.0104	-3.3979	-3.2542	-3.1208	-3.4292	31.928	47.475	97.622	304.323	165.756	37.497	212.109	-0.760	243.761	309.564	298.054	-14.094	228.480	322.098	271.582	290.428	0.00043978	0.00032084	0.00011498	1182.8	8.4443e-07	4.0198e-06	1254.4	247.19	3.5368e-06	6.0002e-06	305.7	90	70.382	20.755	2.9761e-06	28.666	0.00024906	0.00023349	6.4519e-05	1177	2.6231e-06	2.5273e-06	1246	247.36	2.6597e-06	2.5801e-06	306.37	90.552	70.762	21.093	2.5519e-06	29.359	314.848	91.970	83.922	-8.637	163.439	131.146	-8.725	-1.433	165.081	123.418	-1.899	4.469	4.703	11.991	133.300	11.580	-8191	255	
664.064	1	1	0	0	0.25946	0.053511	0.069613	0.28835	0.20042	0.077649	0.17151	0.4188	0.29668	0.19823	0.051768	0.079246	0.10946	0.20119	0.070812	0.30833	-2.7146	-3.2167	-3.3646	-3.075	-3.3875	-3.3167	-3.0854	-3.5062	-2.9938	-3.1729	-3.5333	-3.0938	-3.4083	-3.3063	-3.0083	-3.6729	243.961	317.823	89.067	288.016	148.385	71.851	308.251	311.168	260.603	112.071	-15.611	58.327	224.622	321.485	326.151	292.170	0.00047651	0.00057445	0.00011738	1185.3	2.9871e-06	3.3037e-06	1250.6	247.18	2.5791e-06	4.2478e-06	305.83	90.249	70.166	20.871	2.9421e-06	28.838	0.00024828	0.00023524	6.3649e-05	1174.3	2.6927e-06	2.547e-06	1245.9	247.06	2.5985e-06	2.5954e-06	307.21	90.853	70.61	21.168	2.5635e-06	29.397	314.649	57.825	72.289	-8.805	151.020	129.711	-8.898	-1.246	49.865	122.400	-1.936	4.225	4.502	11.979	121.983	11.063	-8191	255	
664.160	1	1	0	0	0.10054	0.15126	0.19332	0.1288	0.12614	0.12997	0.28833	0.27553	0.12059	0.21634	0.1693	0.23698	0.18666	0.13851	0.24105	0.076036	-2.8125	-3.1063	-3.4062	-3.0687	-3.2188	-3.3812	-3.0917	-3.5438	-3.1479	-3.1583	-3.5229	-3.0479	-3.3854	-3.3688	-2.9292	-3.4938	155.818	228.279	122.527	-3.140	4.259	126.714	294.673	294.772	180.053	8.070	295.856	305.223	313.930	60.115	138.517	249.564	0.00046656	0.00050956	9.1355e-05	1187.5	2.0161e-06	4.408e-06	1251.8	247.21	7.3002e-06	6.1034e-06	304.92	90.082	70.19	20.807	2.0542e-06	28.778	0.00024317	0.00023398	6.5502e-05	1177.5	2.6018e-06	2.5155e-06	1244.9	247.6	2.6467e-06	2.6128e-06	306.12	90.681	70.758	21.21	2.5919e-06	29.36	327.955	68.564	43.208	-8.688	152.778	123.987	-8.597	-1.237	136.536	139.862	-2.066	4.625	5.243	11.919	103.074	11.071	-8191	255	
664.257	1	1	0	0	0.1482	0.16227	0.013661	0.28282	0.27305	0.05699	0.10639	0.15248	0.068047	0.12987	0.10674	0.11011	0.087444	0.13981	0.2031	0.13589	-2.9417	-3.05	-3.5208	-3.225	-3.2979	-3.3271	-3.1437	-3.5792	-3.2292	-3.05	-3.6	-3.3146	-3.0646	-3.3479	-2.9354	-3.6458	77.733	-6.883	304.239	-16.510	273.101	-4.949	304.218	198.584	282.522	260.882	311.153	290.729	314.903	281.953	306.277	258.539	0.0004691	0.00024013	6.4191e-05	1186	6.2404e-06	3.533e-06	1252.8	247.07	7.0368e-06	5.0669e-06	304.75	89.525	70.398	20.837	6.3964e-06	28.785	0.00024483	0.00023574	6.5779e-05	1176.2	2.6601e-06	2.6147e-06	1246.2	247.33	2.6951e-06	2.6285e-06	307.02	90.526	70.794	21.194	2.6372e-06	29.338	302.336	77.850	92.926	-8.738	137.422	153.052	-8.853	-1.203	139.298	145.327	-2.017	4.476	4.694	11.761	157.610	11.346	-8191	255	
664.377	1	1	0	0	0.22844	0.073625	0.1173	0.24836	0.088222	0.15098	0.097557	0.13117	0.13376	0.28414	0.1599	0.14797	0.059577	0.11976	0.13023	0.14846	-2.7042	-2.8104	-3.5646	-3.1646	-3.2833	-3.2729	-3.1583	-3.3729	-3.1437	-3.1917	-3.6146	-3.1729	-3.3208	-3.475	-2.9333	-3.3979	249.992	328.208	105.652	11.913	158.947	169.873	298.838	-16.612	182.200	161.683	312.448	255.057	131.237	196.855	315.386	203.114	0.0004259	0.00047605	0.0001747	1188	4.0588e-06	3.3153e-06	1253.6	248.49	7.6272e-06	2.8496e-06	308.89	89.675	70.645	20.828	5.6733e-06	28.991	0.00024851	0.00024148	6.6119e-05	1175.8	2.6686e-06	2.5881e-06	1246.6	248.15	2.6504e-06	2.6085e-06	308.15	90.557	70.734	21.151	2.6035e-06	29.399	312.590	58.072	63.762	-8.611	166.440	186.137	-8.439	-1.595	149.199	121.035	-1.786	4.662	4.928	11.858	142.588	11.540	-8191	255	
664.472	1	1	0	0	0.12311	0.12774	0.20198	0.18725	0.40497	0.045552	0.12874	0.1522	0.14527	0.36432	0.32245	0.089882	0.12227	0.19226	0.081539	0.20485	-2.9896	-2.9333	-3.6188	-3.2542	-3.1063	-3.5458	-3.2188	-3.3146	-3.4229	-3.0438	-3.5646	-3.2104	-3.0104	-3.575	-3.0875	-3.2771	116.122	170.086	-14.354	136.312	187.061	258.820	280.184	180.736	-11.967	24.940	3.997	299.371	163.943	295.806	229.379	-6.556	0.00041954	0.00022193	7.2223e-05	1184.6	6.0177e-06	6.38e-06	1252.9	246.46	2.2649e-06	1.9656e-06	306.13	89.576	70.167	20.666	8.4864e-06	28.904	0.00024032	0.00023464	6.4067e-05	1176.8	2.6634e-06	2.5576e-06	1245.4	247.46	2.5652e-06	2.5497e-06	306.97	90.651	70.611	21.136	2.564e-06	29.381	313.581	67.436	77.917	-8.777	163.638	138.359	-8.499	-1.303	130.224	149.613	-2.078	4.115	4.882	11.867	151.343	11.085	-8191	255	
664.568	1	1	0	0	0.063942	0.096269	0.11094	0.29872	0.054991	0.22904	0.10476	0.20855	0.089313	0.17014	0.21149	0.099286	0.2595	0.28921	0.091257	0.11501	-3.1063	-2.8375	-3.4542	-3.1792	-3.1896	-3.5542	-3.1667	-3.175	-3.4729	-2.8854	-3.2583	-3.1854	-3.025	-3.5187	-3.1604	-3.1354	325.025	147.134	243.191	11.626	99.378	201.266	307.878	33.119	39.955	261.563	301.847	334.313	288.605	74.666	81.070	237.862	0.00042149	0.00046938	0.000126	1180.5	2.5067e-06	1.1334e-06	1252.3	246.25	2.934e-06	3.2599e-06	305.3	90.142	70.409	20.848	1.2405e-06	28.755	0.00024875	0.00023654	6.4138e-05	1175.7	2.6266e-06	2.5331e-06	1244.9	247.21	2.6179e-06	2.5801e-06	307.09	90.632	70.703	21.201	2.5469e-06	29.328	325.864	82.513	72.490	-8.842	89.932	128.508	-8.782	-1.383	191.967	105.211	-1.890	4.434	4.827	12.111	182.671	11.358	-8191	255	
664.664	1	1	0	0	0.17365	0.19585	0.15743	0.17808	0.19624	0.29004	0.079589	0.15316	0.10468	0.28215	0.0070814	0.095274	0.1519	0.21234	0.30901	0.13946	-3.1125	-2.9062	-3.35	-3.3146	-3.2292	-3.5333	-3.225	-3.225	-3.4521	-3.0042	-3.4333	-3.4729	-3.0479	-3.3854	-3.0042	-3.2604	161.581	331.711	265.711	97.868	135.071	195.416	289.028	323.088	151.042	278.003	227.077	336.109	329.083	50.644	35.651	108.132	0.00042552	0.00019552	9.9477e-05	1179.9	5.2352e-06	5.218e-06	1252	247.51	6.4878e-06	3.1545e-06	306.96	89.982	70.835	20.631	3.5364e-06	28.749	0.00024352	0.00023337	6.7415e-05	1174.2	2.6918e-06	2.5789e-06	1246.1	247.76	2.5875e-06	2.6266e-06	307.36	90.626	70.875	21.139	2.6082e-06	29.342	317.376	97.137	54.674	-8.533	179.385	83.210	-8.715	-1.221	158.659	160.386	-2.068	4.406	4.821	11.634	134.466	11.131	-8191	255	
#DATA ENDS
