BOXY.EXE: ISS Imagent and Oximeter Data Acquisition Program Version 0.80
Ascii Record File

#ACQ INFORMATION
2  Detector Channels 
16  External MUX Channels 
1  Auxiliary Channels 
5000  Waveform (CCF) Frequency (Hz)
1  Waveforms Skipped 
30  Waveforms Averaged 
1  Cycles Averaged 
16  Acquisitions per Waveform 
10.0806  Updata Rate (Hz) 

#FILE INFORMATION
TRUE -- External MUX Channel results are PARSED.
FALSE -- AC DC and Phase are NOT grouped.
TRUE -- Companion Program Settings File CREATED.
FALSE -- AC data not excluded
FALSE -- DC data not excluded
FALSE -- Phase data not excluded
FALSE -- Auxillary Chn. data not excluded
Tab delimiters

#CALIBRATION STATE
TRUE -- Waveform Calibration Values APPLIED.


#AUX CALIBRATION VALUES
Val Type	aux-1	

Term	1.0000e+00	
Factor	0.0000e+00	


#WF CALIBRATION VALUES
A = Detector Channel
Val Type	A-AC1	A-AC2	A-AC3	A-AC4	A-AC5	A-AC6	A-AC7	A-AC8	A-AC9	A-AC10	A-AC11	A-AC12	A-AC13	A-AC14	A-AC15	A-AC16	A-DC1	A-DC2	A-DC3	A-DC4	A-DC5	A-DC6	A-DC7	A-DC8	A-DC9	A-DC10	A-DC11	A-DC12	A-DC13	A-DC14	A-DC15	A-DC16	A-Ph1	A-Ph2	A-Ph3	A-Ph4	A-Ph5	A-Ph6	A-Ph7	A-Ph8	A-Ph9	A-Ph10	A-Ph11	A-Ph12	A-Ph13	A-Ph14	A-Ph15	A-Ph16	

Term	0.00000e+00	0.00000e+00	0.00000e+00	0.00000e+00	0.00000e+00	0.00000e+00	0.00000e+00	0.00000e+00	0.00000e+00	0.00000e+00	0.00000e+00	0.00000e+00	0.00000e+00	0.00000e+00	0.00000e+00	0.00000e+00	0.00000e+00	0.00000e+00	0.00000e+00	0.00000e+00	0.00000e+00	0.00000e+00	0.00000e+00	0.00000e+00	0.00000e+00	0.00000e+00	0.00000e+00	0.00000e+00	0.00000e+00	0.00000e+00	0.00000e+00	0.00000e+00	0.00000e+00	0.00000e+00	0.00000e+00	0.00000e+00	0.00000e+00	0.00000e+00	0.00000e+00	0.00000e+00	0.00000e+00	0.00000e+00	0.00000e+00	0.00000e+00	0.00000e+00	0.00000e+00	0.00000e+00	0.00000e+00	
Factor	1.00000e+00	1.00000e+00	1.00000e+00	1.00000e+00	1.00000e+00	1.00000e+00	1.00000e+00	1.00000e+00	1.00000e+00	1.00000e+00	1.00000e+00	1.00000e+00	1.00000e+00	1.00000e+00	1.00000e+00	1.00000e+00	1.00000e+00	1.00000e+00	1.00000e+00	1.00000e+00	1.00000e+00	1.00000e+00	1.00000e+00	1.00000e+00	1.00000e+00	1.00000e+00	1.00000e+00	1.00000e+00	1.00000e+00	1.00000e+00	1.00000e+00	1.00000e+00	X	X	X	X	X	X	X	X	X	X	X	X	X	X	X	X	

B = Detector Channel
Val Type	B-AC1	B-AC2	B-AC3	B-AC4	B-AC5	B-AC6	B-AC7	B-AC8	B-AC9	B-AC10	B-AC11	B-AC12	B-AC13	B-AC14	B-AC15	B-AC16	B-DC1	B-DC2	B-DC3	B-DC4	B-DC5	B-DC6	B-DC7	B-DC8	B-DC9	B-DC10	B-DC11	B-DC12	B-DC13	B-DC14	B-DC15	B-DC16	B-Ph1	B-Ph2	B-Ph3	B-Ph4	B-Ph5	B-Ph6	B-Ph7	B-Ph8	B-Ph9	B-Ph10	B-Ph11	B-Ph12	B-Ph13	B-Ph14	B-Ph15	B-Ph16	

Term	0.00000e+00	0.00000e+00	0.00000e+00	0.00000e+00	0.00000e+00	0.00000e+00	0.00000e+00	0.00000e+00	0.00000e+00	0.00000e+00	0.00000e+00	0.00000e+00	0.00000e+00	0.00000e+00	0.00000e+00	0.00000e+00	0.00000e+00	0.00000e+00	0.00000e+00	0.00000e+00	0.00000e+00	0.00000e+00	0.00000e+00	0.00000e+00	0.00000e+00	0.00000e+00	0.00000e+00	0.00000e+00	0.00000e+00	0.00000e+00	0.00000e+00	0.00000e+00	4.69284e+01	-1.27582e+02	-1.30931e+02	-1.83936e+02	-7.62020e+01	-6.69807e+01	-1.56989e+02	-1.62015e+02	-5.22494e+01	-7.94096e+01	-1.78987e+02	-1.72875e+02	-1.82137e+02	-1.78866e+02	-7.23244e+01	-1.51154e+02	
Factor	6.73214e-05	1.82383e-04	5.06034e-05	1.89429e-01	1.93940e-06	2.29934e-06	1.72175e-01	6.05181e-02	3.16237e-06	2.20276e-06	1.07814e-01	3.31898e-02	2.86066e-02	1.08537e-02	2.29806e-06	1.49911e-02	5.72136e-06	6.42153e-06	1.79335e-06	9.47223e-02	6.88599e-08	7.09668e-08	8.12099e-02	3.03370e-02	6.85387e-08	7.09561e-08	5.23066e-02	1.61085e-02	1.44478e-02	5.47581e-03	6.95704e-08	7.34234e-03	X	X	X	X	X	X	X	X	X	X	X	X	X	X	X	X	



#DISTANCE SETTINGS
A = Detector Channel
A-1	A-2	A-3	A-4	A-5	A-6	A-7	A-8	A-9	A-10	A-11	A-12	A-13	A-14	A-15	A-16	

2.5000e+00	3.0000e+00	2.5000e+00	3.0000e+00	2.0000e+00	3.0000e+00	1.5000e+00	3.0000e+00	3.0000e+00	3.0000e+00	3.0000e+00	3.0000e+00	3.0000e+00	3.0000e+00	1.5000e+00	3.0000e+00	

B = Detector Channel
B-1	B-2	B-3	B-4	B-5	B-6	B-7	B-8	B-9	B-10	B-11	B-12	B-13	B-14	B-15	B-16	

1.0000e+01	1.0000e+01	1.0000e+01	1.4400e+00	1.0000e+01	1.0000e+01	1.5100e+00	1.9400e+00	1.0000e+01	1.0000e+01	1.9900e+00	2.4900e+00	2.4100e+00	2.9000e+00	1.0000e+01	2.9800e+00	




#DATA BEGINS
time	group	step	mark	flag	A-AC1	A-AC2	A-AC3	A-AC4	A-AC5	A-AC6	A-AC7	A-AC8	A-AC9	A-AC10	A-AC11	A-AC12	A-AC13	A-AC14	A-AC15	A-AC16	A-DC1	A-DC2	A-DC3	A-DC4	A-DC5	A-DC6	A-DC7	A-DC8	A-DC9	A-DC10	A-DC11	A-DC12	A-DC13	A-DC14	A-DC15	A-DC16	A-Ph1	A-Ph2	A-Ph3	A-Ph4	A-Ph5	A-Ph6	A-Ph7	A-Ph8	A-Ph9	A-Ph10	A-Ph11	A-Ph12	A-Ph13	A-Ph14	A-Ph15	A-Ph16	B-AC1	B-AC2	B-AC3	B-AC4	B-AC5	B-AC6	B-AC7	B-AC8	B-AC9	B-AC10	B-AC11	B-AC12	B-AC13	B-AC14	B-AC15	B-AC16	B-DC1	B-DC2	B-DC3	B-DC4	B-DC5	B-DC6	B-DC7	B-DC8	B-DC9	B-DC10	B-DC11	B-DC12	B-DC13	B-DC14	B-DC15	B-DC16	B-Ph1	B-Ph2	B-Ph3	B-Ph4	B-Ph5	B-Ph6	B-Ph7	B-Ph8	B-Ph9	B-Ph10	B-Ph11	B-Ph12	B-Ph13	B-Ph14	B-Ph15	B-Ph16	aux-1	digaux	

2724.635	1	1	0	512	0.20826	0.10816	0.10385	0.093136	0.017851	0.083505	0.21756	0.21022	0.28202	0.013878	0.0839	0.25471	0.27737	0.23199	0.086948	0.077874	-2.8208	-3.1562	-3.6167	-3.1542	-3.4083	-3.3458	-3.1896	-3.3854	-3.1646	-3.0854	-3.4688	-3.0375	-3.4521	-3.3354	-3.0125	-3.4625	58.302	196.522	148.153	370.331	118.784	213.330	216.284	313.859	244.254	193.823	327.429	51.575	63.174	28.263	112.408	261.009	0.0055648	0.00028534	8.4116e-05	504.52	2.5299e-06	2.0272e-05	417.14	180.88	6.8857e-06	3.0213e-06	144.86	66.121	82.968	43.236	3.4227e-06	34.265	0.0059546	7.0837e-05	1.4399e-05	479.07	6.1041e-07	1.7579e-05	428.93	171.98	1.1392e-06	7.372e-07	137.16	81.81	78.907	41.635	1.2043e-06	32.541	199.712	84.476	109.166	37.457	160.986	114.563	37.293	43.174	140.241	166.170	39.450	43.306	46.570	51.794	210.541	46.019	-8191	255	
2724.732	1	1	0	0	0.18183	0.25114	0.16907	0.12166	0.21056	0.22721	0.13367	0.084269	0.19382	0.27006	0.15302	0.15437	0.08502	0.074782	0.17919	0.076444	-2.8917	-3.0292	-3.6854	-3.1813	-3.2812	-3.4313	-3.0208	-3.4542	-3.2125	-2.9583	-3.4667	-2.8771	-3.3833	-3.5521	-3.1167	-3.3354	320.081	87.927	95.854	46.828	148.607	332.898	294.682	340.516	352.044	84.049	120.566	327.898	203.174	347.806	300.015	75.530	0.0040025	0.00026606	8.3136e-05	495.36	4.1754e-06	4.3681e-06	405.91	175.39	4.291e-06	3.7068e-06	135.7	63.233	79.564	41.475	6.7636e-06	33.046	0.0043823	6.7921e-05	1.4765e-05	469.75	6.6392e-07	6.2214e-07	457.3	166.94	1.0222e-06	6.7216e-07	129.04	72.648	75.861	39.994	1.3292e-06	31.136	208.970	91.325	105.024	37.922	172.486	134.723	37.996	43.539	164.807	140.277	40.012	43.388	46.570	51.577	190.588	46.166	-8191	255	
2724.852	1	1	0	0	0.32205	0.12774	0.24267	0.14847	0.1716	0.10625	0.099947	0.35874	0.17131	0.14424	0.3261	0.10554	0.1349	0.24021	0.1307	0.22347	-3.0167	-3.1646	-3.3292	-3.2083	-3.0958	-3.5229	-3.0375	-3.4542	-3.4167	-3.0167	-3.4062	-3.2458	-3.2417	-3.3708	-2.9667	-3.4042	369.295	84.393	336.479	68.669	356.503	146.879	372.049	369.504	222.077	77.939	344.188	62.803	320.080	372.616	169.867	383.201	0.0046389	0.00028603	0.00010251	490.93	2.2261e-06	3.4708e-06	401.52	176.42	2.614e-06	3.8992e-06	139.23	64.235	80.816	42.08	6.4876e-06	33.649	0.0047358	7.4048e-05	1.5135e-05	464.59	6.1658e-07	5.9819e-07	435.67	167.53	8.9386e-07	9.1844e-07	131.77	78.361	76.91	40.583	1.2531e-06	31.909	182.082	108.445	107.716	37.770	189.840	189.352	37.064	43.373	194.258	165.805	39.638	42.934	46.727	51.439	190.864	46.214	-8191	255	
2724.947	1	1	0	0	0.054023	0.12165	0.077032	0.30317	0.17059	0.24967	0.091806	0.090585	0.036431	0.28766	0.15822	0.17229	0.033707	0.15166	0.048857	0.15789	-3.05	-3.0021	-3.4417	-3.1937	-3.0646	-3.325	-3.1479	-3.2	-3.3875	-3.0896	-3.5729	-3.2354	-3.1437	-3.5604	-2.9604	-3.2687	226.572	110.233	69.484	42.831	202.532	194.937	238.754	376.851	273.962	375.934	168.894	176.253	181.749	142.892	250.701	142.214	0.0032686	0.0077301	0.00011313	496.82	1.4133e-06	3.4428e-06	401.22	178.16	6.1414e-06	4.1932e-06	141.73	65.936	81.642	42.286	5.6351e-06	33.783	0.0011348	0.0027471	1.5849e-05	472.13	8.1068e-07	5.732e-07	466.2	169.78	6.8967e-07	1.1516e-06	133.96	75.717	77.529	40.948	1.3539e-06	32.117	187.121	108.996	118.075	37.920	176.075	174.588	37.286	43.270	209.641	161.055	39.286	42.621	46.558	51.444	170.382	46.322	-8191	255	
2725.044	1	1	0	0	0.20543	0.12487	0.13197	0.42491	0.22358	0.162	0.10811	0.13218	0.088532	0.14536	0.077801	0.11684	0.22969	0.073061	0.11408	0.057343	-3.0125	-2.9521	-3.2896	-3.3021	-2.9083	-3.7083	-3.1604	-3.1104	-3.4333	-2.9271	-3.2979	-3.4021	-3.0875	-3.6979	-3.3042	-3.4	217.877	38.252	217.092	26.609	62.301	344.262	163.131	292.748	254.492	179.265	319.488	154.055	242.894	363.537	201.345	212.667	0.00066444	0.016811	8.0708e-05	495.76	3.303e-06	3.7192e-06	409.25	179.62	7.5355e-06	6.0182e-06	140.76	64.667	80.817	41.943	2.7724e-06	32.763	9.5249e-05	0.0064227	1.6988e-05	473.35	8.1269e-07	5.5709e-07	448.08	171.12	6.3141e-07	1.2673e-06	133.47	76.306	77.204	40.46	1.1546e-06	31.262	326.850	48.237	106.548	38.104	183.226	191.724	37.310	43.104	214.047	129.142	39.627	41.529	47.335	51.473	205.506	45.800	-8191	255	
2725.163	1	1	0	0	0.14905	0.25621	0.10993	0.013366	0.16845	0.09646	0.16843	0.02743	0.11896	0.14397	0.10343	0.15189	0.13055	0.09471	0.20114	0.22778	-3.0146	-2.9583	-3.1792	-3.4896	-3.0542	-3.5292	-3.1021	-3.0438	-3.3958	-2.9792	-3.4417	-3.5292	-3.0375	-3.4938	-3.2	-3.0625	272.236	229.675	154.565	235.682	365.584	41.348	249.128	176.026	198.747	93.625	357.625	101.277	233.194	243.814	264.190	127.854	0.00056033	0.011937	9.8219e-05	485.89	3.4855e-06	3.1134e-06	387.16	173.63	4.2981e-06	6.6965e-06	135.89	63.207	79.424	41.571	4.2023e-06	32.519	9.3902e-05	0.0045841	1.4963e-05	461.98	9.2373e-07	5.6241e-07	448.41	165.59	6.2913e-07	1.1924e-06	128.36	63.382	81.669	39.947	1.156e-06	31.059	327.131	54.206	109.382	37.664	184.836	193.469	37.151	43.505	208.735	172.783	39.024	42.286	46.901	51.769	191.213	46.059	-8191	255	
2725.260	1	1	0	0	0.18457	0.23966	0.16958	0.095074	0.16692	0.16998	0.02235	0.10738	0.045648	0.18814	0.16077	0.2004	0.12691	0.33356	0.17741	0.15713	-3.1833	-3.0375	-3.1917	-3.4021	-2.875	-3.4042	-3.2271	-3.1562	-3.4208	-3.0458	-3.2167	-3.4104	-3.0438	-3.4313	-3.1958	-3.0812	167.757	177.472	238.668	179.829	149.129	277.838	192.912	53.531	237.896	182.941	201.903	351.515	137.349	136.335	360.015	378.115	0.00061846	0.014512	7.1768e-05	490.18	2.3724e-06	3.4444e-06	398.86	175.91	4.1368e-06	4.3913e-06	139.53	66.128	79.506	42.334	4.385e-06	33.486	9.9647e-05	0.00588	1.5217e-05	464.32	1.1514e-06	6.1741e-07	430.2	167.8	6.4298e-07	1.1838e-06	132.15	62.698	90.436	40.613	1.0441e-06	31.812	324.946	60.347	113.895	37.872	172.283	177.867	36.573	43.716	198.346	118.512	39.593	43.127	45.662	51.443	190.273	46.175	-8191	255	
2725.331	1	1	0	0	0.11568	0.033497	0.20334	0.14509	0.13662	0.15436	0.17452	0.19647	0.12359	0.12403	0.16046	0.13052	0.29858	0.18531	0.17537	0.1003	-3.1896	-3.2979	-3.2667	-3.5125	-2.8563	-3.3875	-3.3042	-3.0229	-3.4104	-2.9792	-3.0563	-3.4729	-3.0667	-3.4042	-3.3521	-3.0708	258.084	174.328	384.629	254.897	335.196	66.234	81.758	379.760	226.049	323.879	91.230	318.552	259.546	369.928	113.938	231.049	0.00068425	0.010747	8.2521e-05	495.84	2.3881e-06	3.2354e-06	408.34	178.65	7.9543e-06	3.374e-06	141.19	68.023	80.765	42.795	3.9229e-06	33.912	9.712e-05	0.0040377	1.5412e-05	470.29	1.2508e-06	6.2451e-07	442.6	171.45	6.7682e-07	1.0182e-06	134.46	64.14	86.923	41.149	8.9876e-07	32.412	323.049	82.759	125.761	37.798	191.214	170.927	35.429	45.160	223.675	162.697	39.746	43.484	46.039	51.670	191.095	46.143	-8191	255	
2725.452	1	1	0	0	0.12635	0.11762	0.085769	0.11243	0.2135	0.085257	0.21993	0.16585	0.13648	0.17912	0.20503	0.026403	0.19222	0.044366	0.20283	0.14983	-3.0354	-3.2104	-3.1875	-3.4604	-3.0479	-3.4125	-3.4292	-2.975	-3.4562	-3.2833	-3.2771	-3.5312	-2.9667	-3.3583	-3.3187	-2.95	213.659	61.295	300.503	306.040	339.995	310.237	380.971	81.709	303.959	207.627	383.570	48.561	131.313	141.590	73.347	338.380	0.00070987	0.014305	0.00010374	500.02	3.5297e-06	2.9124e-06	402.11	176.19	4.6335e-06	3.6105e-06	138.06	65.451	78.492	41.462	4.0197e-06	32.402	0.00010298	0.0057833	1.8655e-05	473.65	1.0996e-06	5.3062e-07	389.56	180.35	6.0742e-07	1.0306e-06	130.22	61.658	88.785	40.001	6.4787e-07	31.079	321.262	75.703	97.147	38.152	139.189	186.007	34.924	44.189	189.953	168.014	39.129	43.393	45.899	51.404	176.252	46.108	-8191	255	
2725.548	1	1	0	0	0.35639	0.17697	0.1098	0.13577	0.13306	0.23921	0.26562	0.097662	0.08788	0.12581	0.091841	0.22677	0.11209	0.13978	0.23492	0.067763	-2.8438	-3.0667	-3.1833	-3.4833	-2.9313	-3.4792	-3.6167	-3.0812	-3.4417	-3.2125	-3.0479	-3.7146	-3.2521	-3.3292	-3.4562	-3.1375	319.987	120.274	368.743	222.257	96.521	267.681	66.515	172.199	378.935	104.971	266.287	341.765	376.224	314.316	111.795	291.454	0.00062129	0.0088089	7.8108e-05	484.91	3.2495e-06	1.5863e-06	394.06	173.53	3.8935e-06	6.0917e-06	137.15	65.613	79.708	42.196	5.3139e-06	33.311	9.631e-05	0.003816	1.7268e-05	460.59	1.2019e-06	5.8326e-07	372.74	192.27	6.6068e-07	9.2553e-07	130.9	62.15	84.988	40.378	6.7353e-07	31.737	324.871	88.709	107.019	37.710	160.941	128.722	35.465	44.417	175.526	159.928	39.380	43.405	45.921	51.604	177.083	46.493	-8191	255	
2725.644	1	1	0	0	0.084442	0.2812	0.12545	0.022815	0.12292	0.28071	0.22325	0.038811	0.19555	0.2396	0.096952	0.045746	0.29134	0.095254	0.14919	0.31254	-3.0938	-3.3812	-2.9729	-3.4167	-3.1292	-3.2708	-3.5896	-3.0146	-3.3771	-3.4104	-2.9479	-3.4479	-3.1688	-3.2125	-3.4125	-3.0604	351.403	201.949	181.006	26.892	41.338	233.115	297.497	180.176	88.042	85.681	180.048	272.884	81.400	41.391	119.966	277.581	0.00068671	0.0075433	0.0036382	497.4	1.3552e-06	3.0049e-06	405.98	175.72	6.7041e-06	5.0623e-06	140.76	67.389	80.554	42.489	4.4208e-06	33.968	9.5892e-05	0.0041507	0.00017742	470.36	1.0421e-06	6.421e-07	383.3	186.6	6.7568e-07	8.0018e-07	133.28	63.544	90.309	40.98	7.0005e-07	32.423	326.974	385.825	123.048	37.451	158.270	193.159	35.742	44.551	176.834	127.602	39.574	43.023	45.838	51.701	197.499	46.540	-8191	255	
2725.740	1	1	0	0	0.16013	0.18892	0.19485	0.33701	0.25937	0.079729	0.066369	0.15985	0.20427	0.065629	0.20336	0.14265	0.22757	0.28053	0.16244	0.14992	-2.9958	-3.45	-2.9062	-3.5792	-3.1	-3.2583	-3.7042	-3.0708	-3.3583	-3.3146	-3.0833	-3.3333	-3.1437	-3.075	-3.4125	-3.0875	131.130	44.772	218.999	29.459	272.381	147.947	91.819	295.600	145.111	302.787	334.619	34.944	78.550	334.325	200.284	35.644	0.00066475	0.0049734	0.002489	502.69	2.6379e-06	3.0895e-06	415.12	178.06	3.0742e-06	3.881e-06	144.32	69.286	81.906	43.164	2.7411e-06	34.147	0.00010014	0.00052564	0.00074816	476.83	1.0721e-06	6.8187e-07	392.07	199.07	6.0999e-07	6.6595e-07	137.92	65.346	87.143	41.413	6.7396e-07	32.495	324.346	386.512	125.043	37.648	151.837	190.458	35.451	44.766	205.939	142.197	39.624	42.797	45.940	51.705	162.267	46.113	-8191	255	
2725.861	1	1	0	0	0.091811	0.0072899	0.098453	0.11449	0.10592	0.11403	0.06074	0.18837	0.20401	0.10959	0.2058	0.25806	0.1254	0.22327	0.11128	0.20327	-2.7875	-3.3792	-3.025	-3.4896	-3.2562	-3.0062	-3.525	-3.1208	-3.1979	-3.4604	-3.0333	-3.3833	-3.3375	-3.1083	-3.2625	-2.9708	50.637	144.226	217.823	378.083	333.576	217.917	328.520	219.075	126.723	132.576	373.415	334.432	342.018	365.393	105.442	378.565	0.00072543	0.00024623	0.0040996	492.73	3.8789e-06	1.1901e-06	400.56	173.6	5.6925e-06	3.3644e-06	138.85	65.395	78.606	41.667	3.9569e-06	32.827	9.8717e-05	5.7085e-05	0.0015354	468.2	1.0036e-06	7.2386e-07	377.95	184.16	6.7011e-07	6.1599e-07	130.6	61.635	84.232	40.697	6.9918e-07	31.272	324.025	146.454	102.735	37.922	209.536	198.477	35.708	44.127	207.660	153.861	39.496	43.508	45.706	51.387	187.543	46.303	-8191	255	
2725.933	1	1	0	0	0.055053	0.20151	0.0067797	0.046709	0.21703	0.078128	0.030966	0.12389	0.075545	0.11158	0.19258	0.060486	0.13187	0.097372	0.32078	0.19392	-2.7708	-3.4521	-2.8708	-3.3208	-3.2583	-2.8979	-3.4562	-3.2083	-2.9646	-3.5729	-3.1437	-3.3229	-3.2333	-3.0792	-3.5333	-3.1625	265.667	174.854	72.545	334.464	320.384	371.014	144.595	104.820	59.117	199.294	221.542	148.049	273.924	293.243	156.759	251.022	0.00068888	0.0003293	0.002619	490.36	1.9117e-06	3.0525e-06	404.15	173.78	3.2755e-06	3.8677e-06	142.73	66.158	80.33	42.345	5.958e-06	33.679	0.00010694	5.6055e-05	0.0010063	465.41	7.9132e-07	9.4238e-07	381.42	194.58	7.3094e-07	5.6528e-07	133.64	62.906	77.607	43.107	6.8107e-07	32.113	324.602	134.828	105.763	38.259	187.449	171.137	35.767	43.927	187.779	165.506	39.644	43.427	45.929	51.623	182.691	46.333	-8191	255	
2726.029	1	1	0	0	0.21824	0.20174	0.19659	0.19093	0.23722	0.17189	0.095737	0.17057	0.10496	0.05737	0.13376	0.15631	0.17161	0.16528	0.21746	0.22156	-2.6063	-3.5167	-3.0771	-3.5187	-3.3167	-2.8729	-3.3563	-3.1562	-3.05	-3.5	-3.0208	-3.2687	-3.45	-2.9729	-3.2979	-3.275	254.424	281.594	112.677	365.336	269.885	114.254	153.422	355.060	250.596	262.120	47.406	306.158	32.299	287.572	134.105	58.326	0.00066789	0.0002299	0.0039389	496.59	3.9239e-06	4.2982e-06	411.31	176.12	6.4534e-06	4.4011e-06	143.86	67.684	81.688	42.736	5.5723e-06	34.215	0.00010965	5.6028e-05	0.0015298	471.56	6.5015e-07	1.0713e-06	387.59	187.36	7.8577e-07	5.8746e-07	136.13	63.997	77.509	45.922	6.7251e-07	32.576	324.849	111.223	110.497	37.961	167.019	169.309	35.814	43.580	209.425	163.036	39.483	43.555	46.780	50.605	183.304	46.187	-8191	255	
2726.125	1	1	0	0	0.068513	0.087422	0.15449	0.043117	0.18096	0.18423	0.11734	0.32868	0.02617	0.19831	0.25181	0.20767	0.25959	0.32552	0.15961	0.17724	-2.5687	-3.3604	-3.0667	-3.1875	-3.4729	-2.9604	-3.4146	-3.2354	-2.9042	-3.4646	-3.0667	-3.2938	-3.6167	-2.9958	-3.3104	-3.3583	55.162	201.032	251.817	252.197	359.422	318.144	220.805	373.134	189.705	258.844	369.018	72.025	369.647	368.476	342.970	153.109	0.0006614	0.00013379	0.0026351	504.45	5.6278e-06	2.973e-06	417.17	178.03	0.00016534	2.9187e-06	142.37	66.836	80.079	41.826	5.9188e-06	33.149	0.00010977	5.6255e-05	0.0010006	477.19	6.6981e-07	1.201e-06	394.27	188.6	1.2041e-05	5.5597e-07	134.08	62.914	76.256	43.367	7.0686e-07	31.391	326.073	71.548	120.918	37.659	171.025	105.947	35.603	42.541	271.040	137.031	39.826	43.640	46.563	50.891	162.646	46.104	-8191	255	
2726.244	1	1	0	0	0.24586	0.038408	0.15654	0.17589	0.20513	0.091905	0.13866	0.22716	0.22296	0.31413	0.053306	0.12446	0.10365	0.13538	0.07343	0.020493	-2.7021	-3.4667	-3.0938	-3.2292	-3.4813	-3.0542	-3.2104	-3.3083	-3.0667	-3.4188	-3.2292	-3.0708	-3.4604	-3.1229	-3.3104	-3.3396	135.052	194.218	110.189	100.460	363.826	80.316	302.488	118.097	282.063	227.899	295.402	378.475	196.313	323.661	109.351	214.739	0.0007093	0.00022811	0.0039624	488.21	3.4365e-06	3.7096e-06	396.14	171.96	0.00010897	4.9735e-06	137.72	65.223	79.23	41.534	6.2562e-06	32.892	0.00012936	5.4516e-05	0.001522	462.27	6.3093e-07	1.0537e-06	373.17	166.62	3.2747e-05	5.678e-07	129.88	61.466	75.44	45.035	7.1121e-07	31.309	333.364	124.215	130.962	37.914	169.130	142.786	35.600	43.199	278.739	153.785	39.615	43.460	46.799	50.501	187.470	46.354	-8191	255	
2726.340	1	1	0	0	0.093817	0.12659	0.19299	0.13107	0.10963	0.23061	0.2569	0.075761	0.19177	0.21905	0.060458	0.12286	0.093461	0.23537	0.09547	0.035435	-2.6708	-3.5083	-3.1292	-3.0687	-3.5292	-3.1479	-3.225	-3.525	-2.9667	-3.4167	-3.4188	-3.1292	-3.4271	-3.0917	-3.3833	-3.4396	329.113	193.317	139.612	327.305	105.103	166.029	288.896	27.276	76.133	284.728	236.914	270.349	61.485	248.676	273.576	189.695	0.0006613	0.00038141	0.0027302	491.4	2.4919e-06	5.2771e-06	401.22	176.47	0.00023776	2.9734e-06	139.2	66.043	79.552	42.121	3.797e-06	33.46	0.00013653	5.4824e-05	0.0011248	465.07	6.8329e-07	1.1943e-06	378.09	167.59	6.3639e-05	6.2604e-07	132.39	62.335	76.004	44.121	7.1614e-07	31.663	336.445	150.760	136.351	37.216	155.977	163.610	35.704	43.647	338.951	167.880	39.580	43.646	47.049	50.906	189.516	45.968	-8191	255	
2726.436	1	1	0	0	0.25578	0.20403	0.14303	0.14474	0.10068	0.21523	0.11168	0.35154	0.07997	0.22094	0.055965	0.15231	0.1481	0.27322	0.082168	0.24914	-2.4313	-3.4521	-3.1146	-2.8958	-3.3708	-3.2229	-3.2271	-3.5812	-3.0062	-3.3375	-3.3146	-2.9354	-3.4521	-3.2396	-3.0292	-3.6188	223.850	86.011	85.116	48.155	337.136	57.688	156.688	301.881	356.505	346.756	309.572	249.375	256.716	342.199	122.563	382.426	0.00057794	0.00022687	0.00072223	501.96	3.8323e-06	2.8984e-06	403.44	178.44	0.00020051	1.8528e-06	141.22	67.257	81.123	42.735	3.7733e-06	33.907	0.00015169	5.3539e-05	0.0010655	489.26	5.8775e-07	1.0104e-06	383.12	169.21	4.5521e-05	5.8465e-07	134.4	63.691	77.211	46.273	8.8775e-07	32.264	331.824	116.877	46.700	39.532	164.434	141.071	35.541	43.472	345.418	170.817	38.888	43.477	46.672	50.313	182.962	45.913	-8191	255	
2726.532	1	1	0	0	0.080629	0.13489	0.14595	0.13271	0.12359	0.098214	0.074393	0.072703	0.12842	0.33793	0.10596	0.18685	0.27822	0.078574	0.10678	0.17957	-2.6708	-3.2687	-3.4125	-2.9813	-3.6042	-3.1729	-3.1875	-3.6583	-3.2104	-3.325	-3.325	-3.0229	-3.4708	-3.2562	-3.1021	-3.4917	43.186	117.602	110.369	40.635	144.895	136.796	268.595	362.783	230.708	68.020	305.871	289.748	309.479	288.939	137.568	239.476	0.00069713	0.00011329	0.00012798	503.07	2.7712e-06	1.7048e-06	398.53	174.79	0.00026218	2.3865e-06	136.52	63.836	78.461	41.341	4.3113e-06	32.083	0.0001525	5.5305e-05	1.7623e-05	524.72	6.3495e-07	1.1372e-06	375.64	166.15	7.0808e-05	5.9041e-07	128.93	60.742	74.532	44.183	8.4543e-07	30.523	329.790	137.039	236.653	39.016	138.179	147.668	35.813	43.189	353.347	174.602	39.211	43.713	46.942	50.664	166.866	46.164	-8191	255	
2726.628	1	1	0	0	0.040905	0.15302	0.17328	0.093046	0.032808	0.16806	0.23431	0.18995	0.047371	0.039076	0.22703	0.30699	0.098023	0.068158	0.074076	0.091482	-2.7521	-3.3104	-3.3688	-3.1479	-3.4354	-3.3667	-3.1521	-3.4396	-3.0104	-3.15	-3.5875	-3.1396	-3.5187	-3.3729	-3.0167	-3.5333	322.810	31.985	91.583	333.009	306.263	94.139	319.548	379.658	209.706	228.497	328.239	323.405	352.480	344.381	315.413	373.399	0.00062875	5.4495e-05	6.5026e-05	488.1	3.3866e-06	2.567e-06	392.4	171.85	0.00032547	4.5184e-06	135.96	64.025	78.506	40.903	0.00017496	32.383	0.00015988	5.7232e-05	1.3943e-05	578.74	6.4513e-07	1.244e-06	366.56	163.64	7.8987e-05	6.3077e-07	128.09	60.755	74.885	43.986	2.7803e-05	30.868	336.806	159.102	145.442	39.894	154.980	140.600	35.453	43.280	355.965	186.844	39.250	43.493	46.569	49.975	160.560	46.493	-8191	255	
2726.725	1	1	0	0	0.048138	0.062723	0.2631	0.19212	0.22331	0.26931	0.092247	0.19415	0.05448	0.1266	0.13757	0.2816	0.11401	0.17014	0.12652	0.16543	-2.6604	-3.0917	-3.3208	-2.9958	-3.3563	-3.5104	-3.0604	-3.4979	-3.2125	-3.0208	-3.5125	-3.0646	-3.2792	-3.4062	-2.9354	-3.5875	43.113	47.539	178.968	130.626	296.001	331.608	330.527	275.667	107.826	188.379	47.986	314.830	87.296	347.614	279.093	322.456	0.00064452	0.00021181	6.2138e-05	489.36	3.6932e-06	2.5356e-06	394.69	175.33	0.00035011	4.0747e-06	138.33	65.34	79.886	41.739	0.00014738	33.166	0.00015646	7.8597e-05	1.5251e-05	562.9	6.5546e-07	7.7502e-07	374.69	166.57	8.9858e-05	8.225e-07	131.24	62.128	75.875	40.136	6.6992e-05	31.478	328.221	97.473	116.157	39.960	199.331	132.078	35.759	43.393	366.146	142.334	39.630	43.323	46.790	51.815	168.041	46.026	-8191	255	
2726.845	1	1	0	0	0.10685	0.10436	0.21034	0.030341	0.026691	0.07648	0.093332	0.17749	0.20225	0.022601	0.093355	0.17362	0.066114	0.21405	0.1042	0.12243	-2.85	-2.9562	-3.5542	-2.9729	-3.2167	-3.4396	-2.9333	-3.45	-3.1646	-3.2083	-3.5333	-3.0875	-3.2687	-3.3604	-2.8375	-3.6604	51.432	95.156	181.652	299.482	235.998	35.258	36.977	262.171	371.545	132.840	204.972	97.313	85.217	350.278	261.999	147.344	0.00052994	0.00021527	0.00013248	496.34	2.1416e-06	3.8435e-06	403.89	176.79	0.00031477	2.2565e-06	141.51	66.241	80.773	41.561	0.00027658	32.557	0.00015679	7.6082e-05	1.6215e-05	594.94	6.6708e-07	6.2436e-07	381.75	168.89	7.5479e-05	8.6419e-07	133.8	62.933	76.339	40.114	9.4991e-05	31.165	322.284	109.785	111.600	40.278	174.453	195.225	35.746	43.765	371.666	149.080	39.475	43.546	46.916	51.668	109.590	46.139	-8191	255	
2726.941	1	1	0	0	0.1272	0.16594	0.22499	0.097104	0.1039	0.029075	0.24258	0.18213	0.091199	0.18255	0.21948	0.034181	0.14795	0.082691	0.19387	0.018443	-2.9167	-3.0563	-3.5292	-3.1458	-3.3208	-3.5125	-2.9437	-3.3771	-3.4	-3.0938	-3.525	-3.1583	-3.1646	-3.3458	-3.1	-3.3021	146.011	199.770	360.691	70.064	250.441	329.161	297.408	296.246	122.841	86.504	336.565	78.238	332.135	215.396	112.731	74.254	0.0005821	0.0002406	7.3118e-05	483.93	5.4119e-06	2.1619e-06	387.98	171	0.00036393	7.1927e-05	134.4	63.86	77.598	40.931	0.00021396	31.91	0.00014724	7.8169e-05	1.4982e-05	564.24	7.3221e-07	6.1386e-07	367.13	163.49	5.1547e-05	3.2921e-05	127.42	60.321	74.184	39.264	8.2457e-05	30.437	330.451	116.228	86.372	40.070	187.020	174.499	35.483	43.612	31.182	263.076	39.546	43.287	46.745	51.483	123.877	46.371	-8191	255	
2727.036	1	1	0	0	0.14192	0.090844	0.22987	0.067071	0.12558	0.16506	0.19631	0.081589	0.084124	0.058139	0.32263	0.093123	0.19621	0.05574	0.15144	0.20043	-2.9667	-3.1042	-3.3646	-3.3021	-3.1125	-3.5417	-2.8417	-3.2313	-3.2729	-2.9917	-3.3	-3.0687	-3.1125	-3.6042	-3.0229	-3.2979	282.348	126.946	255.871	349.424	193.900	130.426	265.451	339.427	271.423	55.893	321.968	249.761	68.656	127.277	263.016	293.648	0.00060003	0.00039888	8.2361e-05	485.12	2.2074e-06	3.1341e-06	392.74	173.6	5.4802e-06	5.6776e-05	137.04	64.706	79.602	41.327	0.00029628	32.995	0.00011228	0.00011932	1.6286e-05	597.38	8.718e-07	6.3604e-07	371.69	165.31	6.6854e-07	8.2529e-05	129.81	61.513	75.503	39.746	0.00010483	31.26	323.316	128.624	113.447	40.563	204.506	178.556	35.690	43.416	166.842	259.174	39.380	43.651	46.963	51.793	117.945	46.171	-8191	255	
2727.134	1	1	0	0	0.19436	0.11957	0.37232	0.26761	0.10335	0.1196	0.201	0.046448	0.1398	0.011053	0.13824	0.21796	0.10255	0.15793	0.18757	0.20149	-3.0438	-2.9604	-3.3833	-3.2687	-3.0542	-3.5354	-3.1354	-3.275	-3.4646	-3.0062	-3.3146	-3.3021	-3.0187	-3.8417	-3.1458	-3.3542	171.287	45.245	84.475	328.516	60.884	53.896	237.103	208.153	242.905	62.591	105.068	348.804	37.631	235.867	241.479	379.209	0.00062506	0.00029241	8.7223e-05	487.75	4.4693e-06	3.7963e-06	399.87	175.45	7.2816e-06	0.00031069	140.06	65.866	80.174	41.973	0.00027808	33.383	9.7752e-05	0.00015203	1.6058e-05	585.03	9.6031e-07	6.0115e-07	378.49	167.15	6.801e-07	0.00011184	132.51	62.462	76.417	40.281	9.7016e-05	31.732	325.000	90.736	75.275	40.524	182.803	157.416	35.740	43.532	198.512	360.590	39.221	43.188	46.594	51.685	132.238	45.918	-8191	255	
2727.228	1	1	0	0	0.13493	0.17128	0.33997	0.10455	0.11988	0.18432	0.18473	0.34532	0.19688	0.17431	0.31955	0.12233	0.1227	0.11774	0.17128	0.25182	-3.0271	-3.0479	-3.2687	-3.2687	-3.1354	-3.4708	-3.0583	-3.2062	-3.4417	-3.1	-3.2896	-3.2625	-2.9979	-3.3479	-3.1708	-3.1188	289.769	47.291	320.536	51.887	174.366	92.526	252.811	346.121	347.530	325.943	113.670	332.995	37.401	188.888	210.038	353.330	0.00064488	0.0002346	7.2636e-05	484.36	0.00027645	1.9487e-06	399.85	176.14	4.8597e-06	0.00028786	136.56	64.553	78.005	40.787	0.00033705	32.056	0.00010121	0.00015682	1.3842e-05	545.24	4.321e-05	6.3397e-07	379.54	167.51	6.9281e-07	0.00010682	129.45	60.981	74.591	39.309	0.00011936	30.475	323.520	27.208	109.242	37.809	225.664	160.600	35.424	43.467	189.996	370.293	39.777	43.484	47.030	51.608	138.033	46.082	-8191	255	
2727.324	1	1	0	0	0.1962	0.25422	0.071832	0.097678	0.094459	0.061142	0.22844	0.20203	0.11458	0.13256	0.1214	0.043104	0.31835	0.14406	0.097057	0.22945	-3.0563	-3.0812	-3.2667	-3.3458	-2.8563	-3.375	-3.1729	-3.0604	-3.4208	-3.1042	-3.3187	-3.3604	-2.9792	-3.3771	-3.1688	-3.0979	103.060	91.563	60.501	341.617	205.286	42.819	381.871	34.018	76.155	367.637	247.837	288.409	335.427	74.867	302.278	54.223	0.00065351	0.00026405	8.3332e-05	473.09	0.00022381	3.7703e-06	381.27	169.88	4.6576e-06	0.00034087	133.48	63.64	77.386	40.825	0.00029788	32.051	9.7752e-05	0.00016576	1.5083e-05	450.5	9.9558e-05	6.3707e-07	362.05	162.32	6.6725e-07	0.00012566	126.23	59.966	74.243	39.234	0.00010822	30.594	329.131	362.738	105.219	37.877	231.563	156.489	35.974	43.534	206.293	374.573	39.432	43.581	46.715	51.460	144.072	46.004	-8191	255	
2727.420	1	1	0	0	0.16639	0.13071	0.075942	0.24312	0.2942	0.21061	0.16536	0.17508	0.19267	0.11236	0.069118	0.12956	0.14991	0.33864	0.11116	0.12451	-2.9729	-2.9771	-3.1188	-3.5208	-2.9604	-3.4042	-3.1771	-2.9479	-3.2854	-3.1354	-3.0917	-3.3708	-2.9125	-3.4292	-3.0271	-3.1354	259.906	100.505	200.608	44.912	44.624	285.857	347.871	233.269	376.404	263.898	287.760	283.115	43.190	350.213	94.504	306.050	0.00066562	0.00060926	6.6883e-05	479.81	0.00030591	1.4892e-06	390.85	173.88	1.5173e-06	0.00029369	136.6	65.198	79.284	41.448	0.00020363	34.027	9.9158e-05	0.0001554	1.6278e-05	455.87	0.00012399	5.9494e-07	371.6	165.22	6.4598e-07	0.00011152	129.76	61.454	75.617	39.829	5.4272e-05	36.541	327.735	47.607	75.600	37.887	262.584	192.814	35.682	43.491	180.306	380.690	39.280	43.262	46.611	51.529	83.104	49.024	-8191	255	
2727.541	1	1	0	0	0.15983	0.095504	0.12138	0.051315	0.12976	0.089103	0.25345	0.16552	0.11255	0.033955	0.10571	0.23222	0.20402	0.25186	0.15031	0.069179	-2.9167	-2.9479	-3.0896	-3.5833	-2.9729	-3.2708	-3.3438	-3.1083	-3.3771	-3.2979	-3.2292	-3.4917	-2.9604	-3.1437	-3.2188	-3.0958	35.105	165.970	350.990	319.107	146.043	157.182	351.171	27.706	350.350	315.118	301.433	89.010	371.471	367.496	360.715	29.699	0.00064873	0.00013721	7.0644e-05	488.95	0.00024416	2.3269e-06	403.3	175.6	6.7933e-06	0.00030865	141.9	66.716	80.697	42.185	3.1594e-06	35.225	9.886e-05	0.00014822	2.3781e-05	462.92	0.00010457	6.3515e-07	378.48	167.73	6.9752e-07	0.0001174	134.05	63.133	76.81	40.515	7.0382e-07	42.093	320.752	374.700	72.842	38.063	269.133	143.081	35.525	43.663	197.429	32.550	39.619	43.171	46.804	51.743	162.509	47.586	-8191	255	
2727.637	1	1	0	0	0.12036	0.18245	0.11327	0.13856	0.093361	0.02428	0.17758	0.14659	0.24469	0.078151	0.31458	0.20399	0.095342	0.23343	0.025942	0.12326	-3.1021	-3.0917	-3.075	-3.5167	-2.9938	-3.2	-3.4188	-3.0938	-3.3104	-3.3	-3.0396	-3.4333	-3.1708	-3.1688	-3.4979	-2.8833	111.725	299.710	117.618	329.966	118.557	282.181	46.952	302.470	361.912	46.305	55.244	333.186	226.837	71.603	79.311	337.015	0.00064068	0.00021145	8.767e-05	490.71	0.00027639	4.4108e-06	398.18	174.6	4.0165e-06	0.00027733	137	64.814	78.624	41.05	2.5859e-06	33.806	9.9707e-05	0.00013194	2.1995e-05	465.88	0.00010877	5.9257e-07	376.19	166.11	6.8524e-07	9.6005e-05	129.57	61.121	75.029	39.55	6.5947e-07	42.583	324.697	51.463	72.317	37.955	276.455	192.843	35.712	43.565	198.144	40.290	39.756	43.451	46.476	51.422	226.286	48.319	-8191	255	
2727.733	1	1	0	0	0.11389	0.098251	0.084947	0.067161	0.19649	0.14843	0.15797	0.171	0.1475	0.063029	0.25517	0.26033	0.080395	0.39332	0.17599	0.16616	-2.9437	-3.2438	-3.0021	-3.4313	-3.1333	-3.2208	-3.4	-3.0312	-3.2229	-3.3708	-3.1604	-3.4521	-3.1042	-3.1583	-3.5708	-2.9375	258.526	211.006	147.755	276.815	129.709	359.348	237.144	308.807	208.068	306.472	380.004	339.778	211.004	368.878	214.921	345.371	0.00063925	0.00023762	7.6186e-05	484.84	0.00023236	5.7163e-06	397.27	174.7	5.0505e-06	0.00032771	144.57	65.987	80.024	41.639	4.0928e-06	34.93	9.6024e-05	0.00011066	2.5858e-05	461.73	9.2709e-05	8.2573e-07	376.54	166.84	6.7396e-07	4.4989e-05	170.38	62.599	76.258	40.248	7.002e-07	41.953	319.283	297.779	63.923	37.752	283.955	188.391	35.585	43.693	191.261	28.910	39.476	43.739	46.798	51.507	156.292	48.409	-8191	255	
2727.805	1	1	0	0	0.061995	0.27665	0.22694	0.044473	0.26545	0.29315	0.23623	0.079508	0.29841	0.051249	0.067901	0.32333	0.27167	0.10606	0.15474	0.034138	-2.9229	-3.2708	-3.0396	-3.5542	-3.2188	-2.9021	-3.5417	-3.2125	-3.4146	-3.5396	-3.05	-3.4208	-3.175	-3.1	-3.4521	-3.2104	342.379	334.343	115.782	28.694	183.753	130.642	311.611	271.181	230.095	103.394	264.422	380.222	67.931	30.571	255.472	53.485	0.00068285	0.00027709	5.9283e-05	493.65	0.00027746	5.1602e-06	415.89	177.47	4.2237e-06	3.6486e-06	146.9	67.499	81.041	42.342	4.8649e-06	35.646	0.00010583	6.1326e-05	3.6954e-05	469.49	0.00010864	9.1074e-07	389.46	169.78	6.8025e-07	5.9041e-07	206.2	64.016	77.557	40.863	6.5903e-07	43.903	322.327	97.120	114.772	37.898	285.708	171.022	35.809	43.464	233.549	156.372	33.841	43.413	46.252	51.544	157.457	48.989	-8191	255	
2727.926	1	1	0	0	0.14615	0.20171	0.11436	0.2612	0.13661	0.10743	0.19346	0.13014	0.16188	0.11774	0.13107	0.17967	0.13573	0.16412	0.20025	0.079728	-2.7958	-3.2812	-3.1083	-3.3833	-3.3021	-3.0208	-3.5229	-3.1917	-3.1708	-3.4167	-2.9604	-3.3646	-3.2792	-2.9646	-3.4542	-3.1	305.566	351.741	159.045	332.122	369.594	112.547	49.553	87.034	46.602	283.875	101.630	224.387	269.336	275.658	247.016	339.510	0.00064912	0.00040274	0.00012114	506.87	0.00015948	3.7054e-06	423.76	181.58	3.8689e-06	4.0711e-06	149.86	69.126	81.729	42.514	4.3114e-06	34.909	0.00010207	5.4837e-05	4.1834e-05	480.81	8.2476e-05	8.8383e-07	401.02	173.26	6.9895e-07	6.0298e-07	216.83	65.39	77.982	41.102	6.6034e-07	40.941	322.402	132.300	62.604	37.825	343.562	200.343	35.598	43.289	189.584	156.150	34.676	43.791	46.962	51.499	187.209	48.330	-8191	255	
2728.022	1	1	0	0	0.16083	0.11944	0.23728	0.15162	0.083151	0.1968	0.088058	0.45203	0.16596	0.28974	0.14744	0.12109	0.10521	0.10298	0.3119	0.11598	-2.7271	-3.3812	-2.8542	-3.4313	-3.3542	-3.0083	-3.2125	-3.1271	-3.1479	-3.575	-2.8667	-3.225	-3.4458	-2.9208	-3.4521	-3.2229	192.561	219.966	232.584	316.150	67.261	253.733	79.662	336.976	356.125	273.365	121.106	287.678	62.999	209.322	183.604	74.225	0.00071683	0.00032387	6.9967e-05	492.44	0.0001779	0.00016851	407.28	176.04	8.1732e-06	2.8395e-06	143.3	66.29	80.23	41.559	5.8e-06	34.381	0.00011476	5.37e-05	3.8635e-05	470.07	3.3676e-05	4.833e-05	383.95	168.11	8.6873e-07	5.7356e-07	191.36	62.522	76.102	40.189	7.2063e-07	41.804	323.166	123.377	35.219	38.229	342.000	261.897	35.690	43.320	205.848	149.117	34.947	43.267	46.859	51.674	190.147	49.024	-8191	255	
2728.116	1	1	0	0	0.062706	0.14841	0.10579	0.21892	0.29199	0.24247	0.023456	0.063268	0.088794	0.2614	0.13599	0.11182	0.25013	0.1527	0.14304	0.47034	-2.7625	-3.4729	-2.9958	-3.2729	-3.4458	-3.0958	-3.4729	-3.2687	-3.0021	-3.5354	-3.2146	-3.1937	-3.3042	-3.0771	-3.375	-3.3146	135.756	383.988	152.495	104.037	248.612	326.598	58.189	249.210	326.972	285.836	40.530	352.311	350.729	343.221	224.265	348.102	0.00071846	0.00036645	6.9247e-05	497.58	1.5672e-06	0.0002188	417.32	179.44	7.5005e-06	1.7622e-06	151.15	68.137	81.602	42.626	5.1346e-06	34.327	0.00011966	5.7901e-05	3.9132e-05	473.59	6.3868e-07	7.8934e-05	393.43	170.84	8.6259e-07	5.6913e-07	207.42	64.423	77.624	41	6.8092e-07	39.886	328.693	109.560	80.908	37.760	150.439	326.464	35.845	43.139	191.827	213.356	35.536	43.782	46.441	51.355	175.830	45.922	-8191	255	
2728.214	1	1	0	0	0.043748	0.11226	0.12035	0.264	0.0927	0.076953	0.027119	0.049111	0.21187	0.12255	0.17378	0.1883	0.13638	0.38252	0.080972	0.13448	-2.5917	-3.4604	-2.9667	-3.1875	-3.45	-2.9271	-3.5271	-3.3854	-3.0229	-3.5833	-3.1333	-3.0917	-3.3729	-3.0521	-3.3042	-3.3833	316.377	250.099	140.245	290.459	59.675	68.678	202.321	200.490	376.187	305.734	292.200	356.343	75.414	360.315	251.191	358.243	0.00074994	0.00036672	0.00010329	508.23	2.9532e-06	0.00026243	421.2	181.96	1.1304e-05	4.6235e-06	152.63	69.226	82.719	43.04	3.986e-06	35.283	0.00012335	5.2162e-05	3.4585e-05	480.53	6.6134e-07	9.4938e-05	398.57	172.79	1.1058e-06	6.1495e-07	197.56	65.962	78.635	41.515	6.9121e-07	36.486	318.003	130.494	91.365	37.436	150.345	325.529	35.522	43.124	223.673	137.807	35.580	43.681	46.644	51.503	168.633	45.882	-8191	255	
2728.333	1	1	0	0	0.063686	0.16873	0.056935	0.25551	0.22726	0.36072	0.19873	0.17559	0.11666	0.092381	0.15354	0.10346	0.2341	0.20189	0.35207	0.19846	-2.7646	-3.4542	-3.1583	-3.1	-3.6208	-2.9979	-3.4313	-3.2917	-3.075	-3.3583	-3.2313	-3.0729	-3.5	-3.0958	-3.2292	-3.4417	142.299	259.962	181.622	53.007	90.107	266.498	65.894	144.322	178.945	229.052	286.407	77.748	359.561	261.546	321.135	64.027	0.0098697	0.00042814	7.5396e-05	513.81	3.3069e-06	0.00022112	428.55	180.09	8.8598e-06	2.5151e-06	152.94	68.054	81.139	42.105	3.7622e-06	33.494	0.0043494	5.6683e-05	3.3614e-05	485.85	6.2548e-07	8.0409e-05	402.75	172.14	1.4841e-06	5.6898e-07	206.94	64.173	77.048	40.518	6.8831e-07	31.853	329.008	141.738	89.810	37.607	186.078	334.448	35.843	43.544	206.682	159.258	35.590	43.418	46.774	51.647	178.490	46.104	-8191	255	
2728.429	1	1	0	0	0.31659	0.085116	0.3549	0.037685	0.13448	0.13318	0.12503	0.068325	0.042999	0.30437	0.11732	0.17367	0.13476	0.114	0.2505	0.18637	-2.65	-3.3812	-3.0667	-3.1583	-3.4958	-3.0146	-3.275	-3.3667	-3.0229	-3.3604	-3.4021	-3.0563	-3.5083	-3.0938	-3.0833	-3.55	80.799	382.695	310.168	356.249	147.609	261.026	105.355	237.514	280.818	140.932	315.705	174.289	333.996	378.233	136.445	41.078	0.0065298	0.00029278	0.00012849	497.31	3.3023e-06	0.00024907	406.27	175.39	8.7393e-06	2.3979e-06	140.31	66.987	80.594	41.878	4.3609e-06	33.873	0.0063897	5.3259e-05	3.0943e-05	470.29	6.6636e-07	9.4472e-05	382.81	167.4	1.5722e-06	6.3624e-07	185.17	63.383	76.743	40.465	7.1426e-07	32.225	329.789	117.054	98.239	37.937	152.242	335.238	35.595	43.467	230.054	169.344	35.447	43.302	46.474	51.339	197.620	46.345	-8191	255	
2728.525	1	1	0	0	0.072215	0.1897	0.080528	0.17826	0.05184	0.012372	0.101	0.025318	0.12744	0.15709	0.091345	0.32292	0.24266	0.28951	0.15099	0.23112	-2.5833	-3.2625	-3.2521	-3.0896	-3.6833	-3.375	-3.2667	-3.4833	-3.2083	-3.4167	-3.3792	-2.9708	-3.3542	-3.2938	-3.1896	-3.5042	69.368	303.576	261.483	330.624	167.189	264.714	291.367	295.711	176.019	163.574	323.448	183.934	218.767	142.400	261.439	372.210	0.010149	0.0003874	5.6261e-05	501.21	1.9725e-06	0.00026656	414.28	178.54	1.0536e-05	4.2297e-06	147.79	71.969	81.002	42.218	2.2726e-06	34.599	0.00847	5.7754e-05	2.7154e-05	475.83	6.1242e-07	9.9466e-05	391.67	169.97	1.7553e-06	6.3934e-07	160.22	80.916	77.524	40.857	1.0134e-06	32.736	340.239	103.434	53.583	37.846	183.160	349.129	35.804	43.362	228.504	166.459	34.179	44.472	46.800	51.449	158.793	46.149	-8191	255	
2728.621	1	1	0	0	0.025291	0.06333	0.19058	0.20545	0.070103	0.059026	0.16914	0.093696	0.15639	0.057788	0.20331	0.16564	0.11777	0.10727	0.15342	0.029634	-2.5604	-3.1375	-3.3229	-2.9688	-3.4229	-3.3375	-3.1167	-3.4917	-3.1833	-3.2479	-3.3812	-2.975	-3.3771	-3.2104	-3.1417	-3.5521	36.783	161.065	368.102	352.383	138.136	297.220	102.484	192.092	184.995	279.685	286.739	322.165	100.239	149.680	111.273	171.086	0.0098266	0.00023092	9.1107e-05	507.52	3.1323e-06	0.00032819	422.85	181.68	1.0296e-05	3.5554e-06	148.32	72.951	82.362	43.005	2.539e-06	34.635	0.0083493	5.9279e-05	1.6148e-05	481.39	6.688e-07	0.00011663	398.74	172.61	1.7319e-06	6.1599e-07	139.69	87.657	78.643	41.428	9.8384e-07	33.063	344.503	82.994	94.622	37.457	188.499	355.503	35.715	43.521	207.748	156.710	39.865	41.990	46.433	51.785	153.637	45.930	-8191	255	
2728.717	1	1	0	0	0.2884	0.23692	0.062348	0.082584	0.07344	0.19356	0.085804	0.164	0.14964	0.15773	0.086425	0.19403	0.058986	0.18217	0.12319	0.13369	-2.7521	-3.2146	-3.4188	-2.9167	-3.4083	-3.4688	-3.0604	-3.4271	-3.1292	-3.2604	-3.6083	-3.025	-3.4354	-3.4208	-3.0396	-3.5083	168.702	122.416	90.139	335.092	81.604	318.958	270.282	334.150	107.493	335.144	244.168	308.173	196.665	371.760	220.005	138.420	0.0095916	0.00026089	7.2487e-05	496.71	1.6357e-06	0.00027959	403.09	175.43	4.341e-06	5.2955e-06	139.93	70.352	79.772	41.687	3.7659e-06	33.076	0.0090218	6.055e-05	1.487e-05	475.11	6.2046e-07	7.7756e-05	388.73	167.66	1.466e-06	6.8813e-07	132.29	87.777	75.874	40.053	1.1885e-06	31.436	353.270	97.345	105.770	38.011	199.276	380.337	36.161	43.249	207.499	153.559	39.918	41.695	46.752	51.845	156.843	46.371	-8191	255	
2728.814	1	1	0	0	0.13461	0.081999	0.14404	0.10286	0.10062	0.15195	0.11685	0.22696	0.089772	0.071963	0.17819	0.03645	0.10019	0.071213	0.11953	0.052079	-2.8792	-3.1333	-3.3688	-3.0771	-3.4708	-3.4813	-3.0625	-3.4771	-3.2271	-3.0917	-3.4	-3.0062	-3.2104	-3.425	-3.0062	-3.5062	136.737	155.769	357.297	143.372	61.819	48.206	25.701	340.154	46.936	162.340	177.856	262.487	325.143	133.490	287.021	226.893	0.0084985	0.00017859	0.00010032	493.86	4.5795e-06	0.0003375	402.4	176.22	9.8553e-06	4.3139e-06	141.49	71.422	80.149	42.086	5.8716e-06	33.752	0.0078402	7.9199e-05	1.5669e-05	468.64	6.1142e-07	2.6296e-05	469.58	167.66	1.5554e-06	8.9745e-07	133.7	87.294	76.367	40.434	1.7172e-06	32.061	358.743	136.713	112.496	37.934	176.928	379.183	35.950	43.249	232.736	171.214	39.794	42.157	46.703	51.570	160.948	46.562	-8191	255	
2728.934	1	1	0	0	0.16907	0.20912	0.12411	0.10546	0.076825	0.073665	0.093487	0.13653	0.35838	0.29754	0.28356	0.16109	0.16259	0.08956	0.06052	0.25223	-2.9458	-3.0896	-3.5271	-3.3083	-3.15	-3.3917	-3.025	-3.2667	-3.3	-3.1979	-3.3688	-3.2917	-3.2625	-3.6854	-3.2375	-3.5062	47.865	71.586	158.732	65.730	60.116	79.442	98.056	370.153	199.327	71.391	123.900	303.954	320.558	98.609	218.438	106.976	0.010167	0.00042166	6.0302e-05	496.88	3.3326e-06	2.6412e-06	409.18	178.39	4.12e-06	3.8475e-06	144.61	73.646	81.414	42.354	5.5749e-06	34.464	0.0097005	8.146e-05	1.4732e-05	473.95	6.4169e-07	6.2229e-07	511.82	169.88	1.4899e-06	8.8991e-07	136.69	92.593	77.718	40.85	1.8768e-06	32.803	366.667	153.998	124.258	38.089	210.182	184.453	32.867	43.606	257.659	204.087	40.018	42.684	46.832	51.687	120.097	46.444	-8191	255	
2729.029	1	1	0	0	0.1973	0.068734	0.24624	0.22305	0.11529	0.078708	0.33754	0.25609	0.17289	0.038108	0.37425	0.10456	0.20784	0.20548	0.073869	0.24132	-3.0208	-2.9938	-3.475	-3.1833	-3.0354	-3.5854	-3.1417	-3.4771	-3.3979	-3.0521	-3.4479	-3.2208	-3.0542	-3.5208	-2.9521	-3.3563	198.138	151.837	184.267	302.602	122.491	294.858	293.482	282.367	299.848	113.851	379.083	50.312	38.457	358.274	351.266	332.958	0.002868	0.022362	0.00012087	503.53	4.0484e-06	4.1746e-06	421.71	181.71	6.1311e-06	5.8147e-06	144	72.521	81.298	42.188	3.0875e-06	33.63	0.0066916	0.00060841	1.4903e-05	479.45	8.0896e-07	6.1017e-07	542.06	172.2	1.1652e-06	1.2429e-06	137.73	88.723	77.414	40.566	1.821e-06	32.032	82.701	176.048	102.591	37.931	176.957	182.234	32.103	43.325	222.205	205.279	39.584	43.182	46.228	51.566	131.242	46.021	-8191	255	
2729.100	1	1	0	0	0.1329	0.036891	0.1258	0.12008	0.262	0.24581	0.13415	0.14204	0.21333	0.1771	0.10097	0.15773	0.058674	0.15998	0.13185	0.14288	-3.0833	-2.8458	-3.3896	-3.2146	-3.0792	-3.4917	-3.2875	-3.1958	-3.3208	-2.9667	-3.3812	-3.3271	-3.2917	-3.7229	-3.05	-3.1646	327.481	86.266	157.864	279.714	266.615	113.258	202.759	312.514	75.653	357.166	316.353	149.161	207.872	227.707	247.150	226.564	0.0039853	0.023884	4.5419e-05	491.49	3.5315e-06	3.8391e-06	398.9	174.32	5.4669e-06	4.4178e-06	138.17	70.66	79.266	41.387	4.9049e-06	33.034	0.0017858	0.0072497	1.6125e-05	465.37	9.5141e-07	5.8459e-07	496.95	165.88	6.7225e-07	1.7715e-06	131.28	89.139	75.519	39.818	1.8856e-06	31.597	81.574	176.200	132.730	37.830	185.159	169.816	32.779	43.597	203.864	216.380	39.583	43.252	46.827	51.575	125.303	46.197	-8191	255	
2729.221	1	1	0	0	0.093936	0.22799	0.13746	0.058606	0.064838	0.058763	0.20998	0.24177	0.047783	0.16265	0.24819	0.11806	0.25332	0.26313	0.241	0.18405	-3.1667	-3.0687	-3.2542	-3.1292	-2.9	-3.5167	-3.0375	-3.2604	-3.4562	-2.9813	-3.4021	-3.3917	-2.9854	-3.5229	-3.2771	-3.2021	129.397	28.010	29.584	117.314	361.989	101.038	322.599	340.332	320.085	310.172	307.147	270.408	296.159	205.325	258.481	316.515	0.00060567	0.022087	6.7215e-05	492.85	4.2046e-06	3.0132e-06	409.17	176.94	4.8699e-06	2.588e-06	141.7	68.902	84.221	41.988	2.9316e-06	33.916	9.5177e-05	0.00912	1.629e-05	469.01	8.9877e-07	6.1638e-07	523.86	167.82	6.6183e-07	1.8784e-06	134.31	81.362	79.016	40.339	1.5955e-06	32.231	325.407	212.867	118.700	37.887	174.653	169.078	32.717	43.030	214.583	214.816	39.603	41.843	47.351	51.459	164.927	46.301	-8191	255	
2729.317	1	1	0	0	0.18152	0.16661	0.19649	0.14337	0.17084	0.097517	0.09005	0.10755	0.28247	0.10176	0.27585	0.051344	0.2177	0.15302	0.11467	0.23077	-2.9771	-3.0187	-3.225	-3.4625	-3.0375	-3.2854	-3.2125	-3.1125	-3.5771	-3.1542	-3.35	-3.4146	-3.1292	-3.575	-3.1813	-3.3833	362.630	368.068	97.967	358.152	342.447	277.497	261.607	187.709	144.236	369.010	339.975	300.433	101.990	288.001	92.983	230.587	0.00060804	0.028472	6.0253e-05	494.39	5.9306e-06	3.487e-06	416.02	177.65	8.3913e-06	3.6679e-06	143.7	69.89	85.412	42.615	1.9035e-06	34.414	0.00010014	0.011076	1.6394e-05	471.28	1.3129e-06	6.1904e-07	507.47	169.18	7.1751e-07	1.6808e-06	135.96	68.361	95.567	40.743	1.6326e-06	32.814	327.312	220.692	126.864	37.951	179.544	167.260	32.908	43.370	209.306	253.194	39.473	41.501	48.002	51.473	150.230	46.002	-8191	255	
2729.413	1	1	0	0	0.17762	0.15331	0.070929	0.038041	0.096508	0.13507	0.042272	0.23405	0.058649	0.13569	0.13803	0.19727	0.17349	0.26741	0.16519	0.31976	-3.175	-3.0042	-3.1979	-3.3625	-3.1292	-3.4375	-3.2938	-3.1521	-3.5396	-3.1333	-3.2	-3.4437	-3.1063	-3.3354	-3.2271	-3.1125	79.128	25.915	364.643	126.516	293.984	190.659	239.716	353.281	127.392	114.843	306.455	101.285	308.067	378.008	99.191	210.998	0.00066135	0.024296	8.4127e-05	497.28	7.8411e-06	3.6754e-06	420.22	176.42	5.6574e-06	3.2775e-06	139.21	66.561	83.331	41.296	3.4258e-06	33.133	9.5487e-05	0.0095279	1.6999e-05	472.57	1.768e-06	6.4831e-07	532.71	168.19	6.3855e-07	1.8554e-06	132.48	62.734	97.209	39.754	1.5114e-06	31.51	321.615	222.753	83.202	37.729	153.559	193.269	32.524	43.644	194.237	219.996	39.610	42.981	47.090	51.847	176.559	46.218	-8191	255	
2729.509	1	1	0	0	0.15789	0.095118	0.072684	0.17026	0.28471	0.20762	0.11681	0.13177	0.24352	0.22014	0.14702	0.12287	0.080992	0.41508	0.023568	0.06417	-3.0771	-2.9313	-2.9792	-3.5646	-2.9813	-3.4354	-3.2583	-2.9979	-3.3979	-3.2458	-3.2396	-3.4188	-3.0625	-3.2958	-3.2729	-2.8958	374.583	383.978	364.616	299.522	203.670	264.604	123.904	327.744	170.215	251.988	82.241	234.076	329.973	53.483	66.180	96.070	0.00059892	0.027411	7.5639e-05	490.4	7.6574e-06	3.8322e-06	405.78	174.84	6.9952e-06	4.3307e-06	139.58	66.111	84.144	41.369	4.9363e-06	33.703	9.6405e-05	0.01107	1.6148e-05	462.56	1.8718e-06	6.041e-07	462.4	172.2	6.574e-07	1.4409e-06	132.59	62.74	101.66	39.976	1.0669e-06	32.019	325.450	234.655	117.942	38.100	162.320	159.543	32.272	43.254	205.439	189.664	40.150	43.975	47.804	51.455	140.997	46.014	-8191	255	
2729.606	1	1	0	0	0.26387	0.31574	0.070404	0.12294	0.31348	0.20811	0.035236	0.21907	0.2497	0.10233	0.13935	0.13715	0.10252	0.045957	0.15314	0.19486	-3.1312	-3.0979	-3.1583	-3.3708	-2.8833	-3.2354	-3.35	-3.0687	-3.4646	-3.2333	-3.0792	-3.4604	-3.0708	-3.2062	-3.3396	-3.0625	280.605	36.859	314.859	93.168	47.417	55.264	140.709	326.996	109.669	116.602	290.757	372.415	321.737	351.805	163.663	315.809	0.00070076	0.02303	3.5886e-05	489.29	8.075e-06	3.8148e-06	415.17	180.37	6.6327e-06	4.1007e-06	142.68	67.441	84.452	42.029	2.9243e-06	34.012	9.9874e-05	0.0096741	2.4016e-05	465.66	1.8615e-06	6.0337e-07	398.38	211.54	6.2556e-07	1.7071e-06	135.15	63.643	100.48	40.371	6.6715e-07	32.5	325.860	241.014	115.734	37.798	179.951	174.139	31.807	43.784	217.667	180.578	39.882	43.392	47.551	51.518	168.897	46.213	-8191	255	
2729.702	1	1	0	0	0.094403	0.19791	0.12363	0.097626	0.10194	0.1868	0.16151	0.11891	0.18956	0.42965	0.060233	0.10347	0.24012	0.087093	0.15415	0.13223	-3.15	-3.2833	-3.0708	-3.4646	-3.0708	-3.2417	-3.4146	-3.0646	-3.2958	-3.3271	-2.9813	-3.5271	-3.1146	-3.2271	-3.5729	-3.0771	366.845	91.721	37.636	233.649	28.881	275.148	169.764	289.582	243.716	44.822	58.586	118.368	183.915	198.706	196.543	308.703	0.00066004	0.030007	4.1992e-05	494.01	7.7814e-06	3.9234e-06	413.57	181.91	2.9909e-06	1.552e-06	145.17	68.456	85.45	42.16	3.5905e-06	34.163	9.9111e-05	0.012532	2.3818e-05	470.02	2.0362e-06	6.18e-07	390.56	220.93	6.5512e-07	1.6409e-06	137.49	65.038	106.22	40.679	6.7425e-07	32.737	318.908	250.520	159.080	38.025	178.539	161.445	35.781	40.553	197.017	278.290	39.969	43.361	48.217	51.194	188.337	46.091	-8191	255	
2729.798	1	1	0	0	0.04714	0.048373	0.1263	0.13165	0.12268	0.098983	0.065248	0.091857	0.29582	0.29092	0.096717	0.073257	0.23187	0.25086	0.16664	0.18258	-2.9417	-3.0438	-3.0979	-3.4625	-3.2	-2.8729	-3.6042	-3.0729	-3.2583	-3.125	-2.9333	-3.4625	-3.3271	-3.1375	-3.3521	-3.0438	326.582	41.782	92.049	380.490	126.054	27.114	163.020	283.679	283.114	31.465	125.512	239.501	244.842	308.268	267.031	380.910	0.00070616	0.021184	0.0046706	488.98	4.8705e-06	6.1263e-06	400.87	178.57	3.3471e-06	3.0177e-06	138.71	64.883	81.693	40.842	1.4693e-06	32.784	0.00010171	0.0070846	0.00057665	463.29	1.6033e-06	9.0453e-07	377.73	224.04	6.674e-07	1.0026e-06	130.42	61.341	98.531	39.207	7.2208e-07	31.235	326.923	294.603	196.141	37.478	181.404	165.662	35.924	40.506	203.238	258.407	39.500	43.238	48.839	51.693	213.268	46.183	-8191	255	
2729.894	1	1	0	0	0.15277	0.027212	0.21856	0.40724	0.079355	0.22419	0.046679	0.24706	0.32899	0.041368	0.085843	0.058243	0.13403	0.093175	0.18598	0.36329	-2.8417	-3.3292	-2.9979	-3.3542	-3.2396	-3.0104	-3.5062	-3.1437	-3.0896	-3.5208	-2.8812	-3.3708	-3.2292	-3.175	-3.4042	-3.0896	265.729	304.765	118.723	45.755	103.937	166.775	234.838	344.238	362.892	131.142	359.184	284.538	238.708	191.402	330.260	29.637	0.00055171	0.025289	0.005172	478.55	7.1495e-06	4.2115e-06	399.09	178.78	4.8679e-06	2.8094e-06	139.46	65.696	83.439	41.43	3.3576e-06	33.407	9.867e-05	0.00059289	0.0027782	455.84	1.6742e-06	9.2479e-07	375.71	216.33	7.1166e-07	6.4452e-07	132.58	62.348	104.39	39.792	7.1223e-07	31.779	324.064	297.186	198.511	37.833	196.102	220.787	35.970	40.916	178.244	157.203	39.689	43.150	49.134	51.452	183.080	46.351	-8191	255	
2730.015	1	1	0	0	0.15395	0.13296	0.10416	0.24322	0.21457	0.25831	0.24949	0.19242	0.27203	0.12259	0.12374	0.13021	0.1644	0.10444	0.026995	0.12977	-2.825	-3.3937	-2.8583	-3.2729	-3.1958	-2.9667	-3.5104	-3.2625	-3.1604	-3.5125	-2.9917	-3.4167	-3.2375	-2.9917	-3.5958	-3.2188	266.996	91.947	332.233	351.826	157.075	80.203	264.594	346.405	108.094	68.388	30.417	346.049	245.684	360.562	281.248	275.002	0.00069721	0.00035946	0.0071676	489.01	3.898e-06	2.0695e-06	402.6	181.84	4.7412e-06	3.2661e-06	141.07	67.04	80.08	42.801	3.655e-06	33.56	0.00010281	5.8797e-05	0.0031792	462.86	1.6348e-06	9.2434e-07	381	230.93	6.9495e-07	5.8036e-07	134.65	63.251	92.132	42.233	7.0295e-07	32.057	327.673	129.931	260.319	37.949	176.460	201.745	35.927	41.132	184.844	154.882	39.887	43.168	46.597	53.276	191.629	46.226	-8191	255	
2730.109	1	1	0	0	0.17473	0.2356	0.24738	0.079229	0.12569	0.19521	0.26795	0.079568	0.42425	0.14529	0.055894	0.10356	0.014778	0.060888	0.20692	0.12683	-2.9229	-3.4479	-2.9125	-3.2521	-3.3792	-2.8542	-3.3312	-3.1146	-3.0792	-3.4667	-3.075	-3.3604	-3.3187	-2.9917	-3.4604	-3.2271	160.539	121.253	301.427	27.278	121.857	260.038	74.626	312.914	367.894	220.678	125.895	34.068	245.416	95.746	309.862	328.844	0.00074824	0.00017463	0.0089683	487.55	3.5323e-06	8.7897e-06	411.25	184.12	8.2791e-06	3.1295e-06	141.67	66.528	78.297	42.375	4.6256e-06	33.191	0.0001292	6.158e-05	0.0037149	464.42	9.9775e-07	1.5719e-06	385.65	221.68	1.0648e-06	6.0771e-07	135.42	62.961	75.27	49.041	7.2542e-07	31.465	317.710	143.447	271.553	37.618	140.614	223.889	35.629	41.094	197.671	137.216	40.068	43.818	46.950	53.509	186.275	46.674	-8191	255	
2730.205	1	1	0	0	0.2247	0.15581	0.20025	0.030164	0.13801	0.13535	0.23949	0.32061	0.26241	0.061996	0.16257	0.043165	0.075833	0.20575	0.039751	0.14831	-2.6292	-3.4562	-3.0687	-3.3021	-3.4917	-2.9292	-3.45	-3.4062	-3.0125	-3.4604	-3.1333	-3.3875	-3.6083	-3.1667	-3.4729	-3.3937	91.231	121.046	80.839	325.105	105.824	80.846	41.830	326.822	317.075	81.733	258.599	380.827	108.437	341.730	249.081	363.766	0.00070811	0.00027803	0.0073359	478.74	2.987e-06	7.4231e-06	390.57	180.25	6.3058e-06	2.8258e-06	134.23	64.48	77.615	41.502	4.2574e-06	32.462	0.00012732	5.7914e-05	0.0031012	455.7	6.4484e-07	1.9427e-06	369.91	224.8	1.0202e-06	6.2501e-07	128.77	60.763	73.88	48.828	7.131e-07	31.059	320.769	82.001	275.966	37.854	181.150	214.600	35.850	41.195	165.199	132.840	39.429	43.348	46.622	53.638	168.273	45.987	-8191	255	
2730.326	1	1	0	0	0.13065	0.063697	0.30068	0.16396	0.093137	0.019998	0.12876	0.096082	0.14221	0.062199	0.14366	0.055317	0.083743	0.031573	0.18778	0.19853	-2.6167	-3.3937	-3.1375	-3.25	-3.6125	-2.9958	-3.4042	-3.3937	-3.1083	-3.5167	-3.1771	-2.9729	-3.4	-3.0396	-3.2583	-3.4375	91.447	94.151	322.864	355.269	171.296	231.941	275.976	276.723	72.367	294.786	347.679	45.654	87.364	142.832	212.859	218.045	0.00072173	0.00024481	0.0081321	479.4	2.5905e-06	5.3331e-06	397.56	175.9	0.00032986	3.7727e-06	138.2	65.785	79.252	41.857	3.7607e-06	33.37	0.00012498	5.5145e-05	0.0036303	457.55	6.3093e-07	2.0511e-06	376.97	194.72	3.3391e-05	5.6661e-07	132.22	62.309	74.994	50.873	7.5064e-07	31.729	326.726	118.656	285.767	37.793	149.273	201.221	35.682	40.903	182.743	169.778	39.649	43.719	46.338	54.299	174.672	46.760	-8191	255	
2730.397	1	1	0	0	0.14356	0.12982	0.047125	0.26428	0.12928	0.0615	0.24677	0.34146	0.29548	0.083858	0.042967	0.14825	0.29094	0.1147	0.056941	0.12126	-2.4188	-3.3604	-3.1583	-3.0667	-3.425	-3.1229	-3.3125	-3.4708	-3.0563	-3.4229	-3.3125	-3.125	-3.5771	-3.1063	-3.1813	-3.3604	368.751	328.057	318.828	341.355	348.883	379.246	348.459	59.404	262.148	252.887	254.783	286.471	371.856	137.410	195.368	55.086	0.00071303	0.00034613	0.0079145	482.84	2.9571e-06	5.7822e-06	405.93	175.29	0.00040181	3.0541e-06	143.2	66.991	79.997	42.391	4.2255e-06	33.885	0.00017529	6.162e-05	0.0030964	462.29	6.8186e-07	1.906e-06	383.25	167.09	0.00012202	6.1333e-07	135.74	63.61	75.914	49.729	7.3498e-07	32.3	319.725	136.928	292.379	37.620	158.689	222.061	35.707	43.377	189.116	173.821	39.749	43.538	46.979	53.740	184.357	45.939	-8191	255	
2730.494	1	1	0	0	0.35699	0.11392	0.16712	0.086637	0.17053	0.10635	0.11012	0.092832	0.23324	0.1886	0.16876	0.098096	0.28959	0.27526	0.12446	0.14028	-2.4271	-3.2125	-3.1479	-2.9875	-3.55	-3.0729	-3.2542	-3.3667	-2.9437	-3.2313	-3.3604	-3.0271	-3.4646	-3.2208	-3.0354	-3.5146	266.943	286.863	294.435	291.171	263.165	325.364	258.542	146.512	298.113	97.638	211.633	90.373	141.891	116.540	192.873	187.119	0.00073555	0.00018379	0.0086566	493.19	3.9702e-06	7.3396e-06	407.28	173.75	0.00047874	2.2956e-06	138.09	65.068	78.125	41.448	6.7077e-06	32.556	0.00020504	5.3646e-05	0.0035822	468.29	6.5345e-07	2.0532e-06	383.83	165.7	0.00011612	6.0268e-07	131.61	61.773	74.133	49.947	8.1296e-07	30.944	316.514	121.161	299.527	37.794	173.887	219.203	35.661	43.419	139.140	113.446	39.472	43.557	46.629	53.816	199.201	45.958	-8191	255	
2730.614	1	1	0	0	0.042393	0.18706	0.15751	0.052922	0.14991	0.30726	0.073169	0.1339	0.2052	0.14888	0.11952	0.12926	0.21427	0.15236	0.056595	0.12638	-2.3667	-3.2542	-3.2833	-3.0187	-3.6146	-3.1437	-3.2313	-3.5729	-3.0458	-3.3375	-3.3479	-3.025	-3.5542	-3.2021	-3.1688	-3.6229	32.776	185.286	51.044	183.335	327.631	76.810	111.192	344.508	210.599	323.425	359.207	53.593	82.433	71.838	166.453	71.595	0.00068192	0.00014107	0.0070649	479.01	2.7649e-06	3.6827e-06	396.31	172.05	0.00053571	3.3499e-06	138.26	65.335	78.061	41.015	3.5942e-06	33.104	0.00021486	5.9051e-05	0.0015526	505.62	6.7712e-07	1.5454e-06	373.65	163.4	0.00012899	6.4984e-07	131	62.146	74.384	48.443	1.0605e-06	31.522	312.062	78.807	313.843	38.347	164.989	211.503	35.844	43.454	147.985	145.066	39.571	43.231	46.596	53.853	224.781	46.421	-8191	255	
2730.710	1	1	0	0	0.18344	0.03548	0.14515	0.11748	0.10867	0.086854	0.046604	0.15789	0.17172	0.037992	0.29025	0.25224	0.026233	0.1866	0.24388	0.0428	-2.7229	-3.2625	-3.4396	-3.0458	-3.5604	-3.3812	-3.0479	-3.4979	-3.1458	-3.1146	-3.3458	-2.9167	-3.4688	-3.2917	-3.0208	-3.4708	84.652	70.586	335.777	166.547	40.463	114.065	285.667	381.309	199.332	75.860	56.610	143.460	75.286	367.435	171.759	37.739	0.00065769	0.00034821	7.9349e-05	486.08	3.9489e-06	3.7389e-06	399.5	174.07	0.00041764	2.6049e-06	140.77	65.888	78.864	41.321	2.7616e-06	33.331	0.00020196	6.4162e-05	1.472e-05	631.34	6.7153e-07	1.6269e-06	379.61	165.52	0.00011044	6.5102e-07	132.94	62.791	75.079	50.44	1.0391e-06	31.863	321.117	124.005	119.455	38.203	160.966	238.889	35.719	43.360	151.735	186.998	39.519	43.605	46.635	54.450	220.510	46.317	-8191	255	
2730.807	1	1	0	0	0.088952	0.16286	0.032416	0.27123	0.15834	0.19636	0.23315	0.10612	0.19695	0.16341	0.20556	0.19441	0.09863	0.17801	0.29909	0.18701	-2.7938	-3.075	-3.6208	-2.8792	-3.4542	-3.2625	-3.1375	-3.5771	-3.2104	-3.15	-3.5646	-2.9271	-3.3167	-3.3812	-2.8708	-3.3896	102.656	47.615	189.174	277.434	113.315	94.267	172.232	316.755	39.368	36.009	35.639	84.406	286.369	37.872	116.721	347.522	0.00078261	0.00019332	0.00010955	468.35	5.6345e-06	3.0808e-06	408.53	174.75	0.00050482	3.9436e-06	143.08	67.352	79.85	40.912	0.0003189	33.422	0.00020802	6.0215e-05	1.5554e-05	619.73	6.8788e-07	1.3408e-06	385.8	166.81	0.00013118	7.2213e-07	135.3	64.232	75.917	44.213	4.1035e-05	31.896	317.915	107.717	118.980	35.303	201.262	114.686	35.203	43.569	158.122	171.064	38.990	43.894	46.503	51.608	234.679	46.405	-8191	255	
2730.903	1	1	0	0	0.061722	0.24356	0.15835	0.12902	0.066887	0.12752	0.13026	0.25333	0.22614	0.14198	0.31956	0.13145	0.26708	0.047446	0.17155	0.087799	-2.6354	-3.0625	-3.3708	-3.1542	-3.3458	-3.3771	-3.0479	-3.5125	-3.2354	-3	-3.5854	-3.0062	-3.3917	-3.45	-2.9292	-3.3542	198.670	337.460	209.440	137.302	353.907	120.456	305.930	287.913	310.413	95.019	299.745	384.523	352.068	317.783	72.751	154.095	0.00072693	0.00041899	8.9218e-05	466.24	4.2499e-06	4.3063e-06	392.93	170.85	0.00036606	5.0177e-06	136.12	64.246	76.389	40.037	0.00032534	32.053	0.00017048	8.1767e-05	1.4728e-05	628.2	6.4054e-07	7.9069e-07	372.82	162.65	9.9832e-05	9.3159e-07	128.67	60.833	73.134	38.665	0.00011691	30.581	314.157	127.953	88.804	34.682	182.535	224.809	35.879	43.711	165.643	162.344	39.785	43.354	46.623	51.778	235.232	46.193	-8191	255	
2730.997	1	1	0	0	0.19077	0.17046	0.11181	0.093422	0.26848	0.16612	0.06433	0.21641	0.06257	0.16061	0.193	0.074881	0.32217	0.24519	0.02469	0.34121	-2.875	-2.8917	-3.4792	-3.2062	-3.2917	-3.3104	-3.15	-3.4229	-3.5021	-3.1437	-3.6188	-3.0646	-3.1208	-3.5062	-3.0104	-3.4333	45.878	34.204	166.681	164.567	230.105	245.002	191.327	175.001	215.390	289.141	368.845	146.409	278.107	320.284	378.591	33.586	0.00073889	0.00043527	7.0522e-05	470.99	2.514e-06	1.9613e-06	393.29	170.18	0.00051103	4.8199e-06	137.33	64.844	77.881	40.54	0.00034257	32.792	0.00017442	8.364e-05	1.4948e-05	596.72	6.4241e-07	6.1253e-07	373.13	162.62	0.00012907	9.585e-07	130.19	61.599	73.859	39.066	0.00011206	31.167	318.732	112.143	126.375	34.937	192.414	182.966	35.691	43.318	171.989	140.340	39.346	43.363	46.671	51.434	271.723	46.082	-8191	255	
2731.093	1	1	0	0	0.10275	0.22685	0.069147	0.18855	0.15286	0.077254	0.15134	0.21078	0.13056	0.12878	0.13737	0.24565	0.22887	0.18706	0.21243	0.090508	-2.8187	-2.9271	-3.4771	-3.2021	-3.2583	-3.575	-2.9917	-3.4375	-3.2771	-3.1021	-3.425	-3.1604	-3.1208	-3.5271	-3.0812	-3.3458	315.062	381.009	380.679	93.452	29.393	66.977	62.531	347.597	251.231	383.928	36.329	31.504	359.171	344.915	312.047	213.951	0.00062518	0.00043622	4.2725e-05	473.99	4.0939e-06	1.3184e-06	402.52	173.84	0.00020526	0.00028667	140.28	65.93	79.022	41.264	0.00035209	33.306	0.00015389	8.9313e-05	1.6047e-05	636.85	8.5085e-07	6.214e-07	379.87	165.31	4.6172e-05	4.4251e-05	132.91	62.694	75.211	39.573	0.00012634	31.743	316.674	128.050	84.643	34.499	180.377	188.749	36.274	43.425	110.793	182.286	39.316	44.132	46.693	51.596	281.262	46.090	-8191	255	
2731.189	1	1	0	0	0.1021	0.078001	0.15083	0.06855	0.17178	0.054021	0.15776	0.2183	0.27513	0.25275	0.012915	0.3079	0.18485	0.28313	0.21916	0.25025	-2.7354	-2.8708	-3.3333	-3.3958	-3.05	-3.6833	-3.1458	-3.4313	-3.275	-3.1521	-3.5083	-3.1521	-3.1063	-3.5667	-2.9813	-3.2729	356.967	113.219	97.170	42.959	108.485	227.709	324.974	329.216	43.304	154.171	44.592	65.488	374.330	344.081	115.609	383.548	0.00066325	0.00056487	6.3511e-05	487.79	2.9844e-06	4.4393e-06	406.87	174.99	6.4445e-06	0.00037473	140.84	65.856	77.689	40.445	0.00028981	32.491	0.00011148	0.00014572	1.6166e-05	612.28	9.933e-07	6.3648e-07	385.59	166.82	7.0838e-07	0.0001294	133.14	62.589	74.181	38.989	0.00010442	30.852	320.094	121.450	102.436	34.576	154.304	191.092	35.842	43.393	184.256	163.411	39.235	43.507	46.791	51.464	286.652	46.436	-8191	255	
2731.287	1	1	0	0	0.086247	0.087271	0.27305	0.18324	0.1981	0.099116	0.16835	0.081541	0.11806	0.036788	0.10246	0.14464	0.24534	0.11381	0.17023	0.055884	-2.95	-2.9771	-3.3208	-3.5458	-3.0479	-3.4667	-3.1604	-3.0646	-3.5583	-3.1417	-3.475	-3.2979	-3.1	-3.4979	-3.1646	-3.175	372.442	247.620	286.366	292.480	107.603	179.685	313.215	255.140	79.590	335.848	119.141	39.274	235.897	77.692	345.556	282.737	0.00062924	0.00058739	9.4481e-05	475.93	4.5574e-06	3.1937e-06	392.85	170.42	2.9536e-06	0.00026581	136.38	64.437	77.504	40.259	0.00035983	32.486	9.5249e-05	0.00016275	1.6017e-05	623.31	9.5529e-07	5.5236e-07	372.13	162.07	6.8582e-07	0.00010521	128.59	60.956	73.68	38.771	0.00012273	30.915	331.131	104.360	76.468	33.887	163.176	154.492	35.526	43.108	200.373	166.960	39.315	43.512	46.591	51.851	292.327	45.987	-8191	255	
2731.406	1	1	0	0	0.13789	0.14785	0.056591	0.18588	0.11524	0.22225	0.096273	0.3166	0.23253	0.037164	0.092293	0.072019	0.085847	0.21775	0.28816	0.10623	-3.0208	-2.9104	-3.2521	-3.4083	-3.2042	-3.4417	-3.1917	-3.1604	-3.4542	-3.1521	-3.4042	-3.3208	-3.0104	-3.4958	-3.1333	-3.1708	348.572	54.247	136.845	381.745	330.508	265.952	179.760	361.421	168.586	205.795	266.431	37.153	173.677	304.635	163.949	194.504	0.00064428	0.00057052	0.00010169	473.85	7.875e-05	5.705e-06	399.45	172.52	7.5479e-06	0.00034608	140.12	65.85	78.206	41.004	0.00030343	32.739	9.6345e-05	0.00016922	1.623e-05	513.1	4.6326e-05	5.9804e-07	377.08	164.2	6.7525e-07	0.00012629	132.06	62.166	74.643	39.29	0.00010168	31.426	323.462	121.353	127.206	34.872	142.830	188.683	36.008	43.224	172.955	176.552	40.101	43.074	46.597	51.482	302.703	46.225	-8191	255	
2731.502	1	1	0	0	0.088865	0.052574	0.17162	0.28299	0.20532	0.071856	0.16054	0.12625	0.19467	0.12585	0.10902	0.15879	0.18008	0.16354	0.17479	0.15745	-3.0333	-3.125	-3.3292	-3.5062	-2.9792	-3.6625	-3.3187	-3.1729	-3.5812	-3.1042	-3.2771	-3.3646	-2.8229	-3.6083	-3.3688	-2.9917	243.099	26.276	74.944	288.761	347.356	372.684	87.856	351.716	294.286	358.055	187.366	319.670	266.483	336.774	250.525	319.361	0.00064586	0.00045668	0.00010794	487.37	0.00029574	2.4405e-06	405.34	173.8	5.5666e-06	0.00028108	141.96	66.571	79.777	41.296	0.00027718	33.48	9.9003e-05	0.00016059	1.6118e-05	461.63	0.00012174	6.2199e-07	383.64	165.7	6.5669e-07	0.00010178	134.15	63.024	75.761	39.727	0.00011851	32.05	330.625	140.247	115.314	37.760	65.717	193.657	35.634	43.410	189.061	184.274	39.510	43.118	46.843	51.400	349.683	46.108	-8191	255	
2731.598	1	1	0	0	0.1907	0.11857	0.11726	0.1572	0.1185	0.12453	0.197	0.2276	0.43907	0.10809	0.12634	0.14298	0.065891	0.027103	0.25572	0.12339	-3.1021	-3.1646	-3.2396	-3.4188	-3.0875	-3.2979	-3.3646	-3.0187	-3.4896	-3.225	-3.1688	-3.3917	-3.0646	-3.4604	-3.4979	-3.1604	245.956	102.828	136.727	26.824	49.316	97.575	318.071	36.966	81.105	31.582	46.841	148.089	31.217	152.597	30.629	375.090	0.00062148	0.0002355	8.5396e-05	489.2	0.00023396	4.0931e-06	395.49	171.23	4.0891e-06	0.00032443	135.96	63.353	76.717	39.898	0.00022141	31.184	9.8312e-05	0.00015398	1.5852e-05	463.02	9.6801e-05	6.659e-07	376.53	163.14	6.7211e-07	0.00011846	128.79	60.223	73.184	38.367	3.3588e-05	35.268	324.402	124.338	128.653	37.644	67.693	162.752	35.756	43.366	188.316	188.700	39.565	43.269	46.681	51.616	351.412	47.898	-8191	255	
2731.695	1	1	0	0	0.073629	0.13026	0.21266	0.15639	0.14157	0.1942	0.23804	0.039237	0.2404	0.11981	0.16569	0.24715	0.10623	0.27547	0.19661	0.082291	-3.1396	-3.1208	-3.1375	-3.5	-2.9646	-3.2708	-3.5583	-3.0438	-3.3979	-3.2792	-3.0375	-3.5583	-3.2167	-3.2833	-3.3396	-3.1479	92.534	288.334	264.615	317.849	141.408	312.533	58.453	165.518	184.921	310.550	53.663	281.199	121.020	382.484	47.496	193.443	0.00062077	0.00041695	8.1607e-05	476.17	0.00028779	3.4932e-06	390.57	169.51	4.8895e-06	0.00025369	137.69	64.2	77.393	40.166	2.7832e-06	30.174	9.352e-05	0.00012852	2.1333e-05	450.4	0.00011224	6.2968e-07	368.46	161.79	6.1199e-07	9.4909e-05	129.78	60.908	73.879	38.717	6.9672e-07	43.093	324.569	118.544	127.032	37.744	78.106	160.842	35.938	43.323	206.216	196.003	39.667	43.330	46.995	51.620	165.750	45.158	-8191	255	
2731.791	1	1	0	0	0.08576	0.13882	0.16842	0.34094	0.099815	0.21033	0.10166	0.08441	0.12462	0.18119	0.11627	0.10015	0.15736	0.12248	0.041973	0.19791	-2.8958	-3.3667	-2.9708	-3.4771	-3.0729	-3.2188	-3.4417	-3.075	-3.5229	-3.3312	-2.8729	-3.575	-3.2229	-3.1542	-3.5458	-3.0583	309.899	360.603	91.285	347.923	363.522	131.375	316.645	65.962	133.372	231.417	292.225	192.520	223.182	54.489	354.669	315.932	0.00065861	0.00052678	6.9918e-05	485.85	0.00023228	4.1738e-06	397.2	172.84	4.6806e-06	4.2595e-05	138.03	65.426	78.414	40.845	3.0999e-06	31.298	9.6322e-05	0.00013326	2.1793e-05	457.63	9.2732e-05	6.4047e-07	374.78	164.42	6.861e-07	0.0001071	131.19	61.736	74.56	39.134	6.873e-07	41.048	318.748	143.603	93.469	37.931	83.165	166.540	35.642	43.859	182.789	117.345	39.890	43.521	46.897	51.166	171.768	44.618	-8191	255	
2731.887	1	1	0	0	0.037083	0.36442	0.094641	0.071647	0.064662	0.066046	0.10811	0.090626	0.041332	0.075976	0.21463	0.41545	0.24788	0.10742	0.10018	0.23075	-3.0833	-3.2542	-3.0521	-3.3792	-3.1146	-3.1208	-3.3438	-3.1562	-3.4104	-3.3708	-3.0333	-3.5375	-3.2146	-3.1646	-3.5438	-3.075	350.711	137.059	374.904	280.600	45.911	352.553	321.086	124.768	167.808	181.776	88.204	200.007	303.258	62.247	313.252	325.045	0.00062809	0.00035987	0.00013359	487.92	0.00026317	2.8669e-06	403.24	174.03	6.0288e-06	4.6486e-06	147.89	66.232	78.665	40.854	3.9287e-06	31.375	9.532e-05	9.9708e-05	2.8141e-05	461.04	0.0001112	8.4495e-07	381.33	166.59	6.9324e-07	2.9352e-05	171.19	62.71	75.027	39.328	7.2368e-07	43.385	328.727	133.350	134.752	37.695	85.577	128.277	35.763	43.395	197.695	67.884	44.671	43.312	46.820	51.500	172.325	43.975	-8191	255	
2732.008	1	1	0	0	0.21504	0.1934	0.088571	0.36832	0.17758	0.24769	0.28872	0.20597	0.13838	0.050526	0.089209	0.10583	0.10567	0.17657	0.14243	0.24707	-2.7188	-3.375	-3.0708	-3.3979	-3.0958	-2.9	-3.4833	-2.925	-3.2	-3.45	-2.9229	-3.3771	-3.1979	-3.2167	-3.6146	-3.2313	192.782	69.414	292.270	302.149	279.193	242.299	137.865	188.827	365.702	161.064	66.347	362.060	356.972	352.280	149.686	65.099	0.0006578	0.00029406	0.00017978	480.7	0.00022577	4.4482e-06	384.94	169.99	5.1878e-06	2.1967e-06	138.29	63.189	76.718	39.777	3.6299e-06	30.409	9.9158e-05	5.5091e-05	3.9293e-05	452.22	8.8884e-05	8.5308e-07	365.53	161.22	6.7354e-07	6.1347e-07	208.43	59.611	72.691	38.178	6.8324e-07	39.473	326.120	99.999	151.231	38.245	95.142	157.380	35.460	43.513	191.310	132.375	45.563	43.554	46.630	51.638	170.041	44.418	-8191	255	
2732.104	1	1	0	0	0.11638	0.26592	0.10076	0.025206	0.26359	0.32432	0.16616	0.11787	0.27498	0.12819	0.10014	0.28281	0.30258	0.17491	0.18326	0.2748	-2.7562	-3.3812	-3.0125	-3.4562	-3.1688	-2.9521	-3.5896	-3.0521	-3.2062	-3.5167	-2.8417	-3.3812	-3.2708	-2.8771	-3.5896	-3.2021	190.690	183.932	201.730	73.400	267.494	136.048	64.097	374.085	63.253	296.776	365.992	117.183	367.723	89.387	30.776	36.941	0.00066359	0.00020172	0.00013603	475.36	0.00024882	3.9945e-06	390.07	169.82	8.3834e-06	2.7676e-06	138.1	64.025	77.272	40.026	3.675e-06	31.177	9.7954e-05	5.9399e-05	4.1165e-05	449.33	9.6136e-05	9.2937e-07	369.77	162.19	7.4479e-07	6.1747e-07	196.55	60.65	73.443	38.569	6.9715e-07	42.627	323.373	130.210	169.987	37.833	56.395	213.203	35.563	43.350	218.806	171.510	44.773	43.671	46.616	51.757	158.624	43.346	-8191	255	
2732.198	1	1	0	0	0.075043	0.10635	0.19723	0.14201	0.071088	0.19949	0.1374	0.14123	0.31213	0.11317	0.18552	0.13558	0.051273	0.32669	0.070895	0.17414	-2.6937	-3.3896	-3.1167	-3.2667	-3.4292	-3.0229	-3.2792	-3.1854	-2.9354	-3.425	-2.9958	-3.3521	-3.3708	-3.0854	-3.3667	-3.1625	320.066	142.825	250.900	238.026	294.898	348.107	239.838	75.059	225.959	102.836	315.211	337.585	245.455	362.515	262.067	267.404	0.00062154	0.00037988	0.00020224	478.34	0.00017555	0.00019086	399.09	172.73	4.5956e-06	5.3355e-06	140.84	65.425	78.353	40.75	4.6606e-06	32.072	0.00012029	5.7218e-05	4.3765e-05	454.78	2.3903e-05	5.3389e-05	374.43	164.14	9e-07	5.9869e-07	216.13	61.751	74.25	39.169	7.1252e-07	40.787	318.674	111.608	143.198	37.667	63.845	173.901	35.749	43.108	184.412	175.258	45.380	43.455	46.737	51.684	199.329	43.901	-8191	255	
2732.294	1	1	0	0	0.12451	0.12284	0.10849	0.203	0.19634	0.12907	0.11586	0.074325	0.28516	0.075907	0.3638	0.18058	0.2547	0.12426	0.23246	0.26205	-2.5375	-3.45	-2.8896	-3.3833	-3.3646	-3.0375	-3.5396	-3.2875	-3.0083	-3.4583	-3.175	-3.3042	-3.4375	-3.0667	-3.4958	-3.4229	34.878	333.835	335.614	369.242	75.639	321.154	57.365	213.166	357.688	149.872	303.160	309.298	382.082	383.718	333.178	323.076	0.00061608	0.00024405	0.0001116	486.15	4.9794e-06	0.00032905	404.11	172.04	5.6313e-06	2.0161e-06	136.13	64.791	76.632	39.962	2.2208e-06	31.209	0.00012531	5.6376e-05	4.2689e-05	460.23	6.3337e-07	0.00011382	379.17	164.61	8.8886e-07	5.6055e-07	195.96	60.908	72.828	38.444	6.844e-07	39.747	318.084	103.664	158.136	37.479	174.303	122.066	35.732	43.344	168.925	159.684	45.807	43.493	46.612	51.714	206.839	42.462	-8191	255	
2732.390	1	1	0	0	0.080771	0.2061	0.20971	0.17015	0.042302	0.016005	0.072981	0.26225	0.084267	0.26581	0.034468	0.12543	0.17918	0.16675	0.10342	0.062335	-2.6896	-3.4604	-2.9229	-3.1917	-3.4771	-3.0542	-3.2562	-3.3333	-2.8812	-3.4	-3.1229	-3.2167	-3.5062	-3.1083	-3.3604	-3.4104	248.892	237.850	309.509	67.225	226.206	360.958	56.572	360.817	211.479	318.064	182.415	314.845	58.844	188.574	79.182	279.270	0.0022602	0.00022342	7.0967e-05	474.05	3.0313e-06	0.00025203	388.12	167.72	4.4069e-06	3.5264e-06	131.1	62.92	76.045	39.692	4.9587e-06	31.709	0.00020735	5.4396e-05	3.4724e-05	449.2	6.3652e-07	8.7042e-05	363.84	159.86	1.1766e-06	5.9899e-07	206.51	59.609	72.276	38.274	6.8846e-07	32.426	376.509	108.666	191.318	37.869	167.011	129.692	36.065	43.453	241.792	133.997	45.473	43.700	46.856	51.303	165.366	43.644	-8191	255	
2732.487	1	1	0	0	0.25774	0.21266	0.22125	0.1746	0.21554	0.17091	0.18844	0.22003	0.12107	0.099523	0.041333	0.23218	0.13552	0.1858	0.17126	0.14549	-2.6	-3.3187	-2.975	-3.0479	-3.6417	-3	-3.3312	-3.5375	-3.0125	-3.4521	-3.2625	-3.2333	-3.5021	-3.2333	-3.2917	-3.5167	201.607	365.026	73.055	356.818	175.414	29.474	276.811	51.098	254.379	371.320	118.836	344.828	329.472	334.696	73.145	310.560	0.0014173	0.00028142	8.1265e-05	475.31	2.3325e-06	0.00031132	392.28	170.93	6.0383e-06	4.2508e-06	134.43	64.67	76.905	40.405	3.6667e-06	32.333	0.0043803	5.8115e-05	3.3483e-05	450.91	6.3322e-07	0.00010881	370.21	162.35	1.5835e-06	6.1894e-07	193.26	61.02	73.298	38.79	7.0962e-07	30.934	355.333	131.395	154.289	37.976	158.312	140.250	35.831	43.353	156.309	177.613	43.585	43.382	47.110	51.677	196.617	46.200	-8191	255	
2732.583	1	1	0	0	0.22029	0.29659	0.11667	0.048057	0.23912	0.037026	0.044815	0.10123	0.22481	0.1323	0.33206	0.079521	0.033314	0.17119	0.14234	0.27814	-2.5396	-3.2979	-3.3104	-2.9208	-3.3563	-3	-3.2604	-3.4	-2.8271	-3.2396	-3.2896	-2.9917	-3.5875	-3.1542	-3.1937	-3.4042	98.528	46.966	285.068	345.867	85.560	323.050	106.757	80.724	72.770	376.819	363.916	266.177	336.642	30.021	155.123	37.946	0.0084148	0.00032983	5.1026e-05	483.24	3.0307e-06	0.00024132	400.29	173.2	4.2274e-06	3.6592e-06	131.89	66.134	78.079	40.727	3.9983e-06	33.071	0.0088405	5.6469e-05	3.5336e-05	457.75	6.9893e-07	8.612e-05	376.82	164.57	1.714e-06	6.1998e-07	195.74	63.734	74.381	39.255	8.2108e-07	31.531	136.951	142.290	150.080	37.894	153.299	145.974	35.969	43.417	134.827	174.260	39.492	46.461	46.559	51.776	181.075	46.163	-8191	255	
2732.703	1	1	0	0	0.1039	0.11573	0.14318	0.12048	0.15858	0.035341	0.10528	0.05393	0.10882	0.024815	0.30704	0.34671	0.23389	0.25121	0.25545	0.057997	-2.5979	-3.2208	-3.25	-3.0208	-3.3312	-3.2896	-3.3625	-3.4458	-2.9646	-3.2708	-3.1896	-2.9729	-3.4062	-3.1854	-3.1688	-3.5854	89.997	306.811	266.329	264.294	232.778	53.995	277.616	126.438	175.689	360.279	340.924	39.075	37.565	358.895	164.090	199.059	0.0058266	0.00018902	9.0065e-05	479.25	3.8312e-06	0.00031339	391.84	169.52	6.2936e-06	3.6757e-06	128.65	62.843	75.53	39.72	4.7109e-06	31.705	0.0068386	5.6095e-05	2.6291e-05	456.03	7.203e-07	0.00010627	369.7	160.98	1.6264e-06	6.2367e-07	138.09	72.217	72.199	38.116	9.1021e-07	30.089	137.555	112.159	108.658	37.897	171.357	151.274	36.130	43.295	143.792	150.543	39.443	46.686	46.529	51.402	165.700	46.520	-8191	255	
2732.799	1	1	0	0	0.19486	0.16673	0.030143	0.10961	0.23214	0.15555	0.024676	0.051886	0.31276	0.14326	0.051665	0.087801	0.13639	0.16247	0.10019	0.10257	-2.5687	-3.1875	-3.2417	-2.975	-3.3833	-3.225	-2.975	-3.5229	-3.0312	-3.4104	-3.3646	-2.8667	-3.3208	-3.3229	-3.0667	-3.525	381.112	277.321	31.367	342.961	198.921	281.255	231.079	221.420	254.693	238.031	267.673	62.967	171.792	380.530	27.690	121.785	0.0083686	0.00026278	7.0818e-05	469.71	4.5539e-06	0.00022742	383.76	167.79	7.5171e-06	4.1032e-06	135.32	61.407	76.466	39.914	4.622e-06	32.055	0.0083771	5.4516e-05	1.5087e-05	447.01	6.4384e-07	7.9983e-05	363	159.92	1.5748e-06	5.9958e-07	127.86	83.618	72.688	38.331	9.2543e-07	30.462	154.537	104.518	94.933	37.837	185.447	163.475	36.110	43.357	112.890	154.516	39.632	46.500	46.520	51.465	203.979	46.366	-8191	255	
2732.871	1	1	0	0	0.25308	0.06673	0.24613	0.1632	0.17109	0.15936	0.17028	0.19517	0.05442	0.14927	0.27048	0.099726	0.19955	0.18018	0.046801	0.12425	-2.6708	-3.2812	-3.3812	-3.2292	-3.4437	-3.3229	-3.1021	-3.4688	-3.1562	-3.1479	-3.5438	-3.0521	-3.3375	-3.4021	-3.0979	-3.4229	220.623	34.957	309.588	216.112	318.189	135.133	48.940	313.333	341.655	51.990	328.325	211.991	341.662	121.031	186.215	303.043	0.0060761	0.00030556	8.2071e-05	473.32	1.9228e-06	0.00012629	398.95	171.49	6.3189e-06	3.3862e-06	137.64	62.613	77.165	40.096	5.5212e-06	32.193	0.0063995	6.0015e-05	1.6319e-05	451.65	6.5689e-07	7.6472e-05	381	162.84	1.2884e-06	7.6485e-07	129.88	78.826	73.423	38.705	1.1776e-06	30.888	157.766	106.128	120.718	37.791	169.108	93.123	38.616	43.284	156.930	188.434	39.763	45.521	46.634	51.761	178.548	46.123	-8191	255	
2732.967	1	1	0	0	0.14162	0.27271	0.047112	0.049239	0.12329	0.054115	0.066604	0.10647	0.24114	0.30084	0.20547	0.15441	0.020464	0.14199	0.24896	0.19961	-2.8125	-3.2062	-3.2792	-3.2083	-3.2417	-3.4083	-2.9313	-3.475	-3.1146	-3.0854	-3.4104	-2.9729	-3.3542	-3.3563	-2.8792	-3.3417	86.500	30.976	261.218	60.213	352.694	251.159	358.447	41.080	81.052	174.134	384.775	307.472	40.278	125.654	118.498	90.014	0.0079865	0.00028376	4.5745e-05	481.04	4.1258e-06	8.5434e-05	402.22	171.73	3.6979e-06	2.2848e-06	139.56	62.142	77.222	40.208	4.9793e-06	32.053	0.0081529	7.4597e-05	1.5755e-05	457.39	6.711e-07	1.0936e-05	439.08	163.93	1.3869e-06	8.429e-07	132.27	84.96	73.607	38.713	1.5398e-06	30.596	164.346	96.873	111.784	38.053	187.646	96.867	38.082	43.757	157.163	141.297	39.696	45.873	46.561	51.523	178.790	46.456	-8191	255	
2733.088	1	1	0	0	0.29967	0.37408	0.22845	0.095876	0.16486	0.24742	0.20989	0.22171	0.14917	0.42516	0.098709	0.13694	0.19126	0.073896	0.22115	0.26993	-2.7875	-2.9604	-3.2979	-2.8896	-3.05	-3.4625	-3.0146	-3.3458	-3.3167	-3.1813	-3.3583	-3.1458	-3.2583	-3.3229	-2.9375	-3.45	63.434	320.093	198.906	373.264	220.638	320.951	308.694	81.312	272.780	288.902	29.414	27.208	288.858	28.485	193.217	200.696	0.0053247	0.00026039	6.7439e-05	469.78	3.0505e-06	4.5328e-06	396.94	167	6.6467e-06	2.2146e-06	133.32	60.02	75.547	39.263	5.8821e-06	31.478	0.00604	7.6296e-05	1.5845e-05	447.66	6.7698e-07	6.0736e-07	473.03	159.64	1.288e-06	7.8673e-07	126.17	76.074	71.874	37.796	1.4914e-06	29.966	172.345	97.885	145.098	37.965	160.470	163.065	38.202	43.350	177.217	151.734	39.380	45.249	46.573	51.746	179.378	46.396	-8191	255	
2733.182	1	1	0	0	0.15733	0.12947	0.054227	0.16005	0.074645	0.22713	0.4263	0.18926	0.044193	0.25965	0.016161	0.24432	0.15294	0.18266	0.086759	0.13758	-2.9042	-2.8729	-3.2687	-3.2687	-3.2604	-3.4313	-3.1042	-3.5	-3.3729	-3.1042	-3.4417	-3.3104	-3.0708	-3.4833	-3.0542	-3.2125	377.126	121.326	383.400	100.862	78.458	85.897	318.329	118.216	370.713	92.208	66.252	316.557	295.119	86.338	277.454	360.847	0.0077423	0.0074101	0.00010507	470.89	5.1649e-06	4.2451e-06	395.99	169.11	2.3618e-06	4.9631e-06	135.8	60.908	76.951	39.958	6.3917e-06	31.99	0.0054811	0.0012832	1.5927e-05	447.98	8.3622e-07	6.4565e-07	449.67	161.15	9.4355e-07	1.1604e-06	128.46	82.614	72.952	38.387	1.5633e-06	30.713	161.201	89.112	104.737	37.883	190.337	176.628	37.918	43.387	179.574	135.074	39.721	44.836	46.863	51.386	168.740	46.173	-8191	255	
2733.278	1	1	0	0	0.14442	0.16235	0.15812	0.10178	0.094959	0.076852	0.21175	0.22356	0.14898	0.25236	0.28461	0.063645	0.46121	0.20385	0.094879	0.20604	-2.8958	-2.7979	-3.3812	-3.1896	-3.0375	-3.5542	-3.1083	-3.3271	-3.3542	-2.9771	-3.4292	-3.1937	-3.1	-3.5396	-3.2583	-3.1917	134.432	102.241	151.808	79.254	128.350	171.104	291.610	70.714	251.439	292.102	117.568	236.302	371.781	56.465	242.803	61.903	0.0055088	0.0071091	9.2302e-05	475.07	4.2918e-06	2.9903e-06	405.15	171.04	3.7958e-06	5.5214e-06	137.67	61.693	77.16	40.313	7.9476e-06	32.902	0.0006213	0.0050476	1.6577e-05	451.71	8.7624e-07	6.0011e-07	483.73	162.64	6.584e-07	1.4404e-06	130.45	78.245	73.735	38.921	1.5885e-06	31.296	165.710	84.048	100.876	37.789	168.656	177.006	38.624	43.085	212.448	153.395	39.568	44.183	46.898	51.567	192.646	46.139	-8191	255	
2733.375	1	1	0	0	0.15041	0.088831	0.20284	0.14684	0.0633	0.24558	0.13701	0.2018	0.056807	0.081655	0.21931	0.37435	0.14283	0.056186	0.26065	0.029117	-2.85	-2.8688	-3.4333	-3.2771	-3.0542	-3.5646	-3.3125	-3.1521	-3.4708	-3.15	-3.4646	-3.2979	-3.0021	-3.5417	-3.2646	-3.25	157.476	193.298	138.509	117.413	309.885	265.993	246.742	150.128	183.142	167.929	173.488	371.405	317.284	211.715	69.084	384.386	0.00065774	0.0215	7.3978e-05	483.78	2.2139e-06	4.5846e-06	405	172.52	5.5588e-06	6.3557e-06	136.8	60.9	76.07	39.665	6.3586e-06	31.596	9.8217e-05	0.0089011	1.5569e-05	458.68	8.5688e-07	6.3855e-07	463.33	163.53	6.5112e-07	1.5399e-06	129.28	74.819	76.227	38.204	1.3439e-06	30.202	321.091	376.964	114.818	37.827	206.337	179.567	37.652	43.373	186.964	140.307	40.024	42.187	48.328	51.483	169.899	46.408	-8191	255	
2733.495	1	1	0	0	0.016813	0.18065	0.10283	0.23168	0.15264	0.10028	0.19848	0.34126	0.073112	0.034284	0.084923	0.08589	0.1054	0.1303	0.1082	0.18134	-3.0083	-3.0187	-3.2146	-3.3854	-2.8833	-3.3854	-3.1521	-3.0438	-3.5312	-3.1063	-3.3396	-3.3854	-2.9875	-3.4021	-3.0896	-3.1771	326.528	183.750	95.702	309.213	314.927	113.908	243.532	314.405	127.681	268.946	250.569	66.885	260.452	150.375	324.977	225.801	0.00072439	0.017339	0.00010923	472.66	2.7252e-06	5.4703e-06	390.27	167.34	6.4956e-06	2.4733e-06	133.37	60.827	75.714	39.848	6.8997e-06	32.103	9.8539e-05	0.006563	1.6846e-05	446.62	1.2092e-06	6.2732e-07	471.74	159.36	7.1052e-07	1.4608e-06	126.64	60.572	84.249	38.311	1.3408e-06	30.561	324.744	25.900	103.183	37.860	232.538	186.521	38.631	43.635	193.001	149.381	39.647	42.376	48.016	51.488	210.790	46.170	-8191	255	
2733.567	1	1	0	0	0.26965	0.10099	0.16098	0.13605	0.11459	0.11927	0.18021	0.19281	0.063153	0.39562	0.26423	0.22555	0.10568	0.20594	0.16145	0.13076	-3.1229	-3.0292	-3.2542	-3.4562	-2.9792	-3.3417	-3.1937	-3.2083	-3.5271	-3.0542	-3.2667	-3.2958	-2.8854	-3.275	-3.3	-3.0479	354.575	258.469	253.979	36.562	331.779	308.979	349.545	324.594	203.467	123.283	294.265	139.306	276.270	369.186	43.920	312.680	0.00059381	0.022052	9.607e-05	479.38	2.6382e-06	2.5918e-06	394.21	170.01	6.1341e-06	2.4537e-06	137.37	64.784	74.331	40.205	3.6079e-06	32.49	9.5034e-05	0.0086635	1.5498e-05	453.61	1.476e-06	5.6034e-07	455.29	162.06	6.4541e-07	1.4988e-06	129.51	61.153	93.665	38.658	1.2973e-06	31.031	327.200	31.658	100.372	37.755	314.557	175.980	38.213	43.166	187.472	107.800	39.644	43.460	46.473	51.810	148.786	46.605	-8191	255	
2733.688	1	1	0	0	0.31762	0.1363	0.17034	0.10089	0.14198	0.23125	0.16499	0.12678	0.044886	0.034011	0.050202	0.16811	0.36848	0.081739	0.35502	0.11449	-3.0479	-3.1292	-3.2167	-3.3021	-2.9646	-3.3771	-3.3771	-3.1479	-3.2771	-2.9354	-3.0792	-3.5208	-2.8312	-3.3771	-3.2292	-2.9625	121.981	317.792	49.285	109.540	175.938	119.472	364.664	216.925	130.129	196.690	80.380	370.893	318.073	332.874	364.146	62.438	0.00064131	0.016677	7.6239e-05	480.8	4.1463e-07	2.0528e-06	397.83	174.82	4.6766e-06	5.0494e-06	139.62	66.331	75.612	40.667	3.3764e-06	32.835	9.6262e-05	0.0067794	1.5251e-05	456.08	1.5597e-06	5.9701e-07	444.25	173.64	7.2009e-07	1.3659e-06	132.66	62.399	89.655	39.061	9.637e-07	31.501	320.799	35.879	128.236	37.425	229.823	186.730	35.578	45.580	202.585	131.774	39.739	43.369	46.881	51.470	176.799	46.597	-8191	255	
2733.784	1	1	0	0	0.056424	0.20425	0.10308	0.21284	0.13998	0.14812	0.1196	0.12803	0.18136	0.076572	0.19501	0.23101	0.047783	0.095909	0.14594	0.27446	-3.0646	-2.95	-3.0417	-3.4813	-3.0854	-3.2771	-3.4271	-3.1146	-3.3854	-3.3063	-3.0333	-3.4437	-3.0667	-3.1875	-3.3292	-3.1042	181.426	139.019	226.175	312.380	212.800	376.162	286.835	114.979	35.065	257.706	336.806	324.542	93.807	45.879	192.922	175.404	0.00070636	0.021529	6.6263e-05	476.46	1.1812e-06	1.761e-06	386.79	168.8	2.3969e-06	5.1467e-06	134.54	63.315	73.131	39.409	3.2013e-06	31.567	0.00010034	0.0087504	2.0911e-05	453.49	1.4808e-06	6.1061e-07	367.6	186.64	6.8467e-07	1.2914e-06	126.93	59.9	91.592	38.011	6.9686e-07	30.256	320.295	45.392	126.885	37.950	282.739	162.622	36.037	45.484	182.861	130.247	39.723	43.489	46.236	51.709	201.532	46.435	-8191	255	
2733.880	1	1	0	0	0.034462	0.34427	0.12638	0.085224	0.090704	0.32194	0.18927	0.37551	0.11422	0.17555	0.22704	0.067226	0.10506	0.17469	0.22596	0.13002	-2.9917	-3.3125	-2.9771	-3.6458	-2.9167	-3.325	-3.5	-2.9521	-3.4146	-3.2292	-3.0375	-3.45	-3.1854	-3.1979	-3.5479	-2.925	232.637	77.694	50.137	257.945	130.154	86.448	347.416	221.995	67.870	302.385	272.742	88.505	211.067	212.849	235.333	244.275	0.00064551	0.016903	8.2407e-05	472.09	1.5319e-06	2.853e-06	386.85	167.59	4.3801e-06	3.3969e-06	135.8	63.895	74.402	39.947	5.4765e-06	32.054	9.5296e-05	0.0065239	2.2312e-05	447.07	1.5955e-06	5.8444e-07	365.77	201.5	6.3327e-07	1.1961e-06	128.69	60.676	88.294	38.44	7.0802e-07	30.743	327.274	50.231	105.871	38.067	146.957	207.716	35.775	45.741	176.381	160.032	39.450	43.535	46.049	51.770	186.141	46.595	-8191	255	
2733.976	1	1	0	0	0.15327	0.10903	0.065643	0.11105	0.098932	0.13244	0.14548	0.26397	0.21967	0.12946	0.15274	0.048341	0.086418	0.12626	0.0067952	0.022765	-2.7167	-3.2917	-2.9396	-3.4646	-3.0563	-3.0083	-3.45	-3.0833	-3.325	-3.4625	-2.9813	-3.5083	-3.2104	-2.9479	-3.4646	-2.9396	242.204	156.477	321.647	30.205	27.667	233.576	289.864	48.217	289.766	379.382	101.919	261.720	328.195	313.638	122.889	355.224	0.00066702	0.018369	0.0043126	477.27	1.6139e-06	3.7453e-06	395.22	170.1	3.2383e-06	2.5538e-06	137.77	64.918	74.71	40.312	4.9253e-06	32.764	9.7597e-05	0.0050291	0.00066188	452.83	1.3132e-06	8.6979e-07	372.81	194.46	6.5769e-07	7.9042e-07	130.67	61.671	93.975	38.844	7.2397e-07	31.238	321.205	370.482	108.505	37.995	135.975	179.759	35.797	44.893	202.331	154.198	39.790	43.645	45.810	51.574	182.211	46.406	-8191	255	
2734.095	1	1	0	0	0.2051	0.22753	0.12946	0.11048	0.23231	0.18214	0.15362	0.29172	0.21339	0.045413	0.057467	0.13458	0.11524	0.21903	0.037825	0.1304	-3.0021	-3.4104	-2.9062	-3.5417	-3.125	-3.2	-3.5521	-2.9	-3.2375	-3.3646	-3.0271	-3.4625	-3.3854	-3.0917	-3.5271	-3.0687	69.810	74.809	122.005	325.551	268.530	207.218	153.719	314.052	125.217	252.306	222.819	324.186	171.909	331.163	309.800	92.960	0.00069833	0.00020338	0.0037943	480.81	2.052e-06	4.098e-06	399.09	169.83	6.2684e-06	2.8595e-06	140.07	65.399	75.818	40.283	3.254e-06	32.119	0.00010319	5.7419e-05	0.0016697	456.39	1.3779e-06	8.8191e-07	376.92	206.55	6.9938e-07	6.2678e-07	132.71	61.977	89.019	38.724	6.9512e-07	30.702	325.689	123.326	113.297	37.975	149.072	144.689	35.601	45.810	210.394	152.814	39.669	43.433	46.036	51.626	159.772	46.675	-8191	255	
2734.167	1	1	0	0	0.11305	0.25227	0.20574	0.015254	0.12061	0.04373	0.22001	0.14583	0.086574	0.11402	0.026688	0.13939	0.15947	0.30144	0.065982	0.27986	-2.7854	-3.2167	-2.9667	-3.3812	-3.2042	-2.9313	-3.5187	-3.0979	-3.1771	-3.4938	-3.1312	-3.5062	-3.3792	-3.0458	-3.3833	-3.1208	251.557	230.020	181.243	39.021	209.488	102.477	50.017	46.026	344.333	96.985	54.830	207.950	353.563	279.710	136.096	292.403	0.00067449	0.00020691	0.0055665	472.85	1.4321e-06	2.3008e-06	382.47	166.01	6.7546e-06	3.3318e-06	132.64	63.077	73.629	39.319	5.8431e-06	31.691	0.0001027	5.8596e-05	0.0023912	447.47	1.1755e-06	8.21e-07	361.71	191.16	7.0538e-07	5.8214e-07	126.25	59.624	82.693	40.294	6.6628e-07	30.242	320.851	88.042	73.683	37.313	215.426	204.658	36.123	45.199	214.324	148.657	39.825	43.636	44.829	52.029	174.945	46.136	-8191	255	
2734.263	1	1	0	0	0.27108	0.032117	0.10643	0.025744	0.16203	0.15355	0.074059	0.072037	0.12735	0.089739	0.15362	0.30472	0.20564	0.1723	0.076721	0.037112	-2.7271	-3.5833	-3.0083	-3.2687	-3.3354	-3.0104	-3.3729	-3.2854	-2.9625	-3.6937	-2.9792	-3.2771	-3.3937	-3.0146	-3.4146	-3.3042	328.023	62.982	98.138	250.726	84.394	304.480	189.905	129.292	118.667	210.451	87.186	346.447	274.461	261.550	385.770	226.040	0.00059854	0.00036198	0.0044235	475.83	2.4295e-06	3.8013e-06	390.71	166.66	4.7792e-06	3.7581e-06	137.12	63.881	76.591	40.132	2.5206e-06	32.37	0.0001139	5.5038e-05	0.0018671	451.53	8.2388e-07	1.2326e-06	368.58	201.59	9.0628e-07	6.1643e-07	129.65	60.916	73.101	43.787	6.7324e-07	30.978	328.476	126.778	76.717	37.745	113.918	170.011	36.005	45.514	222.219	143.736	39.743	43.406	46.384	51.738	182.392	46.452	-8191	255	
2734.359	1	1	0	0	0.1049	0.12436	0.21704	0.28685	0.1278	0.10927	0.15729	0.05483	0.18517	0.20745	0.33222	0.17204	0.089305	0.067757	0.046936	0.21296	-2.6021	-3.3937	-3.2271	-3.2667	-3.4979	-3.0917	-3.4104	-3.1854	-3.0521	-3.3354	-3.125	-2.9146	-3.5208	-2.9354	-3.2729	-3.3875	52.588	238.939	291.364	62.766	322.632	224.483	220.325	175.968	264.348	226.220	341.626	47.437	91.583	348.614	301.531	183.429	0.0006489	0.00031574	0.0061271	480.22	2.6602e-06	3.6435e-06	395.43	168.1	6.3482e-06	2.2532e-06	139.89	65.397	77.762	39.954	2.7455e-06	33.056	0.00011848	5.9573e-05	0.0023717	454.52	6.7784e-07	1.4891e-06	373.04	193.98	9.0971e-07	5.9677e-07	132.59	62.028	74.082	46.353	7.1889e-07	31.468	324.094	105.695	80.369	37.633	209.527	132.351	35.955	44.651	216.487	182.501	39.312	43.545	46.747	50.480	208.248	46.395	-8191	255	
2734.479	1	1	0	0	0.21254	0.062442	0.38984	0.30312	0.25027	0.10362	0.23339	0.25009	0.044413	0.1838	0.045934	0.077364	0.13577	0.080458	0.16444	0.13998	-2.4271	-3.425	-3.1542	-3.0521	-3.4917	-2.9813	-3.5563	-3.3021	-2.9208	-3.2458	-3.1417	-3.1688	-3.5187	-3.1042	-3.2687	-3.4	347.471	201.051	341.594	51.990	127.439	358.063	117.437	118.871	306.222	88.868	361.882	108.541	267.461	38.487	247.446	29.164	0.00072566	0.0001833	0.0046384	483.11	2.4753e-06	4.3937e-07	395.86	168.49	0.00031842	4.0276e-06	136.14	64.006	76.333	38.995	3.7604e-06	31.712	0.00011742	5.6175e-05	0.0017646	458.91	6.5331e-07	1.4315e-06	374.46	182.1	3.2303e-05	5.8864e-07	129.12	60.496	72.575	43.468	6.9469e-07	30.294	327.685	117.464	86.581	37.992	163.244	181.083	36.035	42.867	257.755	158.704	40.229	43.732	46.864	50.382	129.980	46.570	-8191	255	
#DATA ENDS
