BOXY.EXE: ISS Imagent and Oximeter Data Acquisition Program Version 0.80
Ascii Record File

#ACQ INFORMATION
2  Detector Channels 
16  External MUX Channels 
1  Auxiliary Channels 
5000  Waveform (CCF) Frequency (Hz)
1  Waveforms Skipped 
30  Waveforms Averaged 
1  Cycles Averaged 
16  Acquisitions per Waveform 
10.0806  Updata Rate (Hz) 

#FILE INFORMATION
TRUE -- External MUX Channel results are PARSED.
FALSE -- AC DC and Phase are NOT grouped.
TRUE -- Companion Program Settings File CREATED.
FALSE -- AC data not excluded
FALSE -- DC data not excluded
FALSE -- Phase data not excluded
FALSE -- Auxillary Chn. data not excluded
Tab delimiters

#CALIBRATION STATE
TRUE -- Waveform Calibration Values APPLIED.


#AUX CALIBRATION VALUES
Val Type	aux-1	

Term	1.0000e+00	
Factor	0.0000e+00	


#WF CALIBRATION VALUES
A = Detector Channel
Val Type	A-AC1	A-AC2	A-AC3	A-AC4	A-AC5	A-AC6	A-AC7	A-AC8	A-AC9	A-AC10	A-AC11	A-AC12	A-AC13	A-AC14	A-AC15	A-AC16	A-DC1	A-DC2	A-DC3	A-DC4	A-DC5	A-DC6	A-DC7	A-DC8	A-DC9	A-DC10	A-DC11	A-DC12	A-DC13	A-DC14	A-DC15	A-DC16	A-Ph1	A-Ph2	A-Ph3	A-Ph4	A-Ph5	A-Ph6	A-Ph7	A-Ph8	A-Ph9	A-Ph10	A-Ph11	A-Ph12	A-Ph13	A-Ph14	A-Ph15	A-Ph16	

Term	0.00000e+00	0.00000e+00	0.00000e+00	0.00000e+00	0.00000e+00	0.00000e+00	0.00000e+00	0.00000e+00	0.00000e+00	0.00000e+00	0.00000e+00	0.00000e+00	0.00000e+00	0.00000e+00	0.00000e+00	0.00000e+00	0.00000e+00	0.00000e+00	0.00000e+00	0.00000e+00	0.00000e+00	0.00000e+00	0.00000e+00	0.00000e+00	0.00000e+00	0.00000e+00	0.00000e+00	0.00000e+00	0.00000e+00	0.00000e+00	0.00000e+00	0.00000e+00	0.00000e+00	0.00000e+00	0.00000e+00	0.00000e+00	0.00000e+00	0.00000e+00	0.00000e+00	0.00000e+00	0.00000e+00	0.00000e+00	0.00000e+00	0.00000e+00	0.00000e+00	0.00000e+00	0.00000e+00	0.00000e+00	
Factor	1.00000e+00	1.00000e+00	1.00000e+00	1.00000e+00	1.00000e+00	1.00000e+00	1.00000e+00	1.00000e+00	1.00000e+00	1.00000e+00	1.00000e+00	1.00000e+00	1.00000e+00	1.00000e+00	1.00000e+00	1.00000e+00	1.00000e+00	1.00000e+00	1.00000e+00	1.00000e+00	1.00000e+00	1.00000e+00	1.00000e+00	1.00000e+00	1.00000e+00	1.00000e+00	1.00000e+00	1.00000e+00	1.00000e+00	1.00000e+00	1.00000e+00	1.00000e+00	X	X	X	X	X	X	X	X	X	X	X	X	X	X	X	X	

B = Detector Channel
Val Type	B-AC1	B-AC2	B-AC3	B-AC4	B-AC5	B-AC6	B-AC7	B-AC8	B-AC9	B-AC10	B-AC11	B-AC12	B-AC13	B-AC14	B-AC15	B-AC16	B-DC1	B-DC2	B-DC3	B-DC4	B-DC5	B-DC6	B-DC7	B-DC8	B-DC9	B-DC10	B-DC11	B-DC12	B-DC13	B-DC14	B-DC15	B-DC16	B-Ph1	B-Ph2	B-Ph3	B-Ph4	B-Ph5	B-Ph6	B-Ph7	B-Ph8	B-Ph9	B-Ph10	B-Ph11	B-Ph12	B-Ph13	B-Ph14	B-Ph15	B-Ph16	

Term	0.00000e+00	0.00000e+00	0.00000e+00	0.00000e+00	0.00000e+00	0.00000e+00	0.00000e+00	0.00000e+00	0.00000e+00	0.00000e+00	0.00000e+00	0.00000e+00	0.00000e+00	0.00000e+00	0.00000e+00	0.00000e+00	0.00000e+00	0.00000e+00	0.00000e+00	0.00000e+00	0.00000e+00	0.00000e+00	0.00000e+00	0.00000e+00	0.00000e+00	0.00000e+00	0.00000e+00	0.00000e+00	0.00000e+00	0.00000e+00	0.00000e+00	0.00000e+00	4.69284e+01	-1.27582e+02	-1.30931e+02	-1.83936e+02	-7.62020e+01	-6.69807e+01	-1.56989e+02	-1.62015e+02	-5.22494e+01	-7.94096e+01	-1.78987e+02	-1.72875e+02	-1.82137e+02	-1.78866e+02	-7.23244e+01	-1.51154e+02	
Factor	6.73214e-05	1.82383e-04	5.06034e-05	1.89429e-01	1.93940e-06	2.29934e-06	1.72175e-01	6.05181e-02	3.16237e-06	2.20276e-06	1.07814e-01	3.31898e-02	2.86066e-02	1.08537e-02	2.29806e-06	1.49911e-02	5.72136e-06	6.42153e-06	1.79335e-06	9.47223e-02	6.88599e-08	7.09668e-08	8.12099e-02	3.03370e-02	6.85387e-08	7.09561e-08	5.23066e-02	1.61085e-02	1.44478e-02	5.47581e-03	6.95704e-08	7.34234e-03	X	X	X	X	X	X	X	X	X	X	X	X	X	X	X	X	



#DISTANCE SETTINGS
A = Detector Channel
A-1	A-2	A-3	A-4	A-5	A-6	A-7	A-8	A-9	A-10	A-11	A-12	A-13	A-14	A-15	A-16	

2.5000e+00	3.0000e+00	2.5000e+00	3.0000e+00	2.0000e+00	3.0000e+00	1.5000e+00	3.0000e+00	3.0000e+00	3.0000e+00	3.0000e+00	3.0000e+00	3.0000e+00	3.0000e+00	1.5000e+00	3.0000e+00	

B = Detector Channel
B-1	B-2	B-3	B-4	B-5	B-6	B-7	B-8	B-9	B-10	B-11	B-12	B-13	B-14	B-15	B-16	

1.0000e+01	1.0000e+01	1.0000e+01	1.4400e+00	1.0000e+01	1.0000e+01	1.5100e+00	1.9400e+00	1.0000e+01	1.0000e+01	1.9900e+00	2.4900e+00	2.4100e+00	2.9000e+00	1.0000e+01	2.9800e+00	




#DATA BEGINS
time	group	step	mark	flag	A-AC1	A-AC2	A-AC3	A-AC4	A-AC5	A-AC6	A-AC7	A-AC8	A-AC9	A-AC10	A-AC11	A-AC12	A-AC13	A-AC14	A-AC15	A-AC16	A-DC1	A-DC2	A-DC3	A-DC4	A-DC5	A-DC6	A-DC7	A-DC8	A-DC9	A-DC10	A-DC11	A-DC12	A-DC13	A-DC14	A-DC15	A-DC16	A-Ph1	A-Ph2	A-Ph3	A-Ph4	A-Ph5	A-Ph6	A-Ph7	A-Ph8	A-Ph9	A-Ph10	A-Ph11	A-Ph12	A-Ph13	A-Ph14	A-Ph15	A-Ph16	B-AC1	B-AC2	B-AC3	B-AC4	B-AC5	B-AC6	B-AC7	B-AC8	B-AC9	B-AC10	B-AC11	B-AC12	B-AC13	B-AC14	B-AC15	B-AC16	B-DC1	B-DC2	B-DC3	B-DC4	B-DC5	B-DC6	B-DC7	B-DC8	B-DC9	B-DC10	B-DC11	B-DC12	B-DC13	B-DC14	B-DC15	B-DC16	B-Ph1	B-Ph2	B-Ph3	B-Ph4	B-Ph5	B-Ph6	B-Ph7	B-Ph8	B-Ph9	B-Ph10	B-Ph11	B-Ph12	B-Ph13	B-Ph14	B-Ph15	B-Ph16	aux-1	digaux	

442.300	1	1	0	768	0.075982	0.11907	0.14654	0.25973	0.090853	0.12868	0.2356	0.17664	0.24286	0.18158	0.20912	0.12693	0.066974	0.26191	0.2316	0.13168	-3.3	-3.2938	-3.4042	-3.5042	-3.0542	-3.6396	-3.4458	-3.5187	-3.5812	-3.3354	-3.4292	-3.8604	-3.3688	-3.6625	-3.3729	-3.2667	-32.822	202.483	-29.899	286.980	86.655	-15.606	241.062	250.583	50.956	-33.767	-7.560	196.359	259.493	284.122	163.711	-53.424	0.0004904	0.00058436	0.00019474	1367.8	5.9074e-06	4.2878e-06	1366	368.65	8.0151e-06	1.0067e-05	419.9	141.09	122.12	41.812	9.7161e-06	51.812	0.0005647	0.00055495	0.00015686	1386.7	6.0891e-06	6.0674e-06	1385.1	374.96	6.1021e-06	6.1146e-06	427.78	143.72	124.85	43.052	6.2229e-06	53.235	-45.256	21.837	17.521	-42.855	119.418	122.854	-42.838	-38.333	143.709	74.687	-38.669	-34.006	-33.696	-29.078	108.608	-30.224	-8191	255	
442.396	1	1	0	0	0.03987	0.31343	0.2565	0.051621	0.24908	0.11921	0.29641	0.25591	0.3599	0.15163	0.15576	0.11896	0.019455	0.076095	0.22515	0.064196	-3.0917	-3.3271	-3.3083	-3.8833	-3.1521	-3.6167	-3.6104	-3.3604	-3.6937	-3.4437	-3.4979	-3.7	-3.3458	-3.4708	-3.6188	-3.0833	161.100	280.142	82.981	185.894	48.310	240.388	271.309	280.362	257.808	32.353	240.346	199.036	17.529	102.754	246.151	81.380	0.00050137	0.00066989	0.00013511	1368.7	6.8482e-06	4.0021e-06	1369.2	368.04	1.1064e-05	4.3884e-06	420.34	140.92	122.39	41.882	4.938e-06	51.818	0.00055991	0.00056024	0.00015682	1387.5	6.2347e-06	6.0938e-06	1385.6	374.52	6.1474e-06	6.0979e-06	427.86	143.76	125	43.025	6.1467e-06	53.232	-25.139	11.119	26.415	-42.827	99.616	91.239	-42.902	-38.135	103.118	77.335	-38.964	-34.345	-33.775	-29.095	97.038	-30.307	-8191	255	
442.492	1	1	0	0	0.13567	0.14603	0.09703	0.3447	0.1974	0.21667	0.3493	0.29281	0.21499	0.20863	0.11367	0.085448	0.19681	0.16337	0.19319	0.13377	-3.3375	-3.3896	-3.3625	-3.7625	-3.3229	-3.45	-3.7021	-3.3104	-3.65	-3.3167	-3.4167	-3.7729	-3.2771	-3.5521	-3.4792	-3.2229	256.546	191.949	-42.581	252.030	123.818	280.922	241.193	231.462	140.329	288.100	240.460	140.272	-38.803	227.414	54.622	272.975	0.00048737	0.0003122	0.00013224	1367.5	5.8781e-06	8.4542e-06	1364.6	367.82	8.706e-06	5.4061e-06	420.44	140.98	122.28	42.088	5.423e-06	51.886	0.00056124	0.00056365	0.00015756	1386.4	6.1726e-06	6.2399e-06	1385.5	374.93	6.1525e-06	6.3068e-06	428.22	143.75	124.93	43.103	6.2913e-06	53.26	-32.766	31.722	23.537	-42.884	96.128	96.058	-42.826	-38.181	149.637	71.209	-38.929	-34.268	-33.980	-29.410	103.553	-30.322	-8191	255	
442.588	1	1	0	0	0.15996	0.2642	0.25786	0.20711	0.057312	0.16773	0.34519	0.24617	0.20772	0.14665	0.076722	0.19928	0.11786	0.32034	0.11523	0.14931	-3.0375	-3.2438	-3.0771	-3.7188	-3.3333	-3.2646	-3.825	-3.1271	-3.5958	-3.5292	-3.3563	-3.6396	-3.3875	-3.4542	-3.7938	-3.1542	177.809	55.732	249.540	273.292	81.949	279.826	256.457	247.187	190.956	145.191	189.575	217.603	267.801	246.848	230.476	206.536	0.00057519	0.00048652	0.00011913	1368.3	4.2572e-06	5.4846e-06	1364.8	367.97	7.003e-06	8.7794e-06	421.35	140.51	122.88	41.802	3.0858e-06	51.818	0.00055508	0.00056598	0.0001576	1387.7	6.1086e-06	6.1845e-06	1385.6	374.78	6.1698e-06	6.2755e-06	428.45	143.48	125.13	43.03	6.1908e-06	53.286	-32.687	-0.607	45.297	-42.893	89.839	72.495	-43.022	-38.150	120.025	97.555	-38.867	-34.123	-33.693	-29.470	47.730	-30.393	-8191	255	
442.684	1	1	0	0	0.21583	0.088202	0.055973	0.17712	0.1796	0.11371	0.19745	0.22453	0.13461	0.14806	0.34415	0.22152	0.13682	0.071762	0.045267	0.21923	-3.1542	-3.4271	-3.3042	-3.7979	-3.3312	-3.3563	-3.85	-3.5312	-3.4729	-3.6312	-3.2521	-3.6875	-3.4417	-3.5083	-3.8063	-3.2812	185.086	274.767	-6.751	73.027	126.538	277.031	223.430	-44.202	249.627	146.550	166.790	290.013	262.596	13.736	137.237	300.699	0.00059359	0.00053271	0.00013755	1366.2	6.0929e-06	8.1016e-06	1365.7	368.53	3.3598e-06	4.6837e-06	420.81	140.61	122.52	41.949	5.708e-06	51.933	0.00057637	0.0005747	0.00015893	1387.5	6.2743e-06	6.3594e-06	1385.8	375.23	6.1602e-06	6.2554e-06	428.83	143.48	124.94	43.111	6.2808e-06	53.249	-34.475	29.679	6.810	-43.096	82.196	77.843	-42.926	-38.209	5.024	71.151	-38.672	-34.023	-33.999	-29.462	119.923	-30.289	-8191	255	
442.781	1	1	0	0	0.14503	0.20029	0.1091	0.22506	0.21783	0.19345	0.44602	0.099203	0.15541	0.20154	0.06283	0.089186	0.052616	0.34117	0.26771	0.13297	-2.9562	-3.4833	-3.1979	-3.7479	-3.4667	-3.3208	-3.8937	-3.3563	-3.3021	-3.6063	-3.3771	-3.6646	-3.625	-2.9979	-3.8083	-3.3667	45.824	49.847	182.983	277.887	289.686	284.449	290.548	254.709	-22.993	15.464	164.484	-53.094	199.801	277.482	232.707	-30.219	0.00059543	0.00040455	0.00011707	1371.2	4.1303e-06	7.2542e-06	1367.4	369.68	7.4994e-06	2.6896e-06	420.71	140.5	122.65	41.913	3.6688e-06	51.89	0.00056179	0.00057003	0.00015975	1389.7	6.2985e-06	6.2769e-06	1385.9	375.46	6.2362e-06	6.1951e-06	428.7	143.69	125.1	43.122	6.11e-06	53.324	-25.374	56.269	59.513	-42.923	108.228	80.625	-43.011	-38.363	117.619	38.446	-38.794	-34.346	-33.978	-29.145	98.650	-30.298	-8191	255	
442.901	1	1	0	0	0.25378	0.23699	0.21572	0.25219	0.11998	0.090237	0.09826	0.24144	0.16167	0.28298	0.10866	0.068634	0.10202	0.14887	0.032235	0.187	-3.0729	-3.625	-3.1583	-3.6708	-3.4917	-3.3396	-3.8458	-3.6667	-3.2062	-3.7125	-3.2271	-3.7146	-3.5708	-3.1333	-3.8354	-3.3625	-2.192	102.437	14.840	248.884	71.081	220.183	-48.450	269.370	285.711	5.472	229.628	1.001	293.205	76.832	259.364	240.843	0.00048701	0.00037	0.00015158	1369.8	7.6342e-06	6.8256e-06	1367.2	368.52	6.5783e-06	2.7991e-06	421.02	140.36	122.86	41.974	5.3441e-06	51.91	0.00056423	0.00056934	0.00015976	1389.8	6.2439e-06	6.1568e-06	1386.7	375.37	6.2732e-06	6.2461e-06	429.17	143.59	125.15	43.157	6.2812e-06	53.214	-33.913	39.625	49.934	-42.881	83.892	70.428	-42.888	-38.381	154.027	112.912	-38.749	-34.180	-33.703	-29.164	113.509	-30.381	-8191	255	
442.997	1	1	0	0	0.14696	0.041995	0.26868	0.091423	0.18262	0.29901	0.18783	0.33647	0.040995	0.12141	0.12452	0.24107	0.25716	0.21831	0.040935	0.048943	-2.9292	-3.7604	-3.2625	-3.5521	-3.5396	-3.0125	-3.7104	-3.4833	-3.3479	-3.6521	-3.3833	-3.5917	-3.7208	-3.1854	-3.6646	-3.4375	-26.253	136.886	257.692	-39.175	-17.103	131.597	179.139	285.569	216.657	-12.588	118.669	269.259	301.955	279.082	90.739	206.004	0.00049564	0.00070348	4.5528e-05	1374.7	6.5342e-06	7.7739e-06	1365.8	368.67	4.3996e-06	3.7261e-06	419.54	140.76	122.03	41.919	5.5498e-06	51.811	0.00057675	0.0005718	0.0001585	1390.9	6.1902e-06	6.2109e-06	1386.5	375.83	6.2893e-06	6.2428e-06	428.21	143.85	124.93	43.131	6.3097e-06	53.277	-38.471	22.578	22.580	-42.991	132.217	74.555	-42.905	-38.271	144.323	61.991	-38.700	-34.274	-33.640	-29.543	78.973	-30.269	-8191	255	
443.093	1	1	0	0	0.11044	0.039522	0.13713	0.3122	0.25331	0.091497	0.32796	0.19057	0.097547	0.068228	0.25742	0.18428	0.41692	0.15371	0.24703	0.30572	-2.9604	-3.6979	-3.1854	-3.6542	-3.6396	-3.3187	-3.65	-3.7771	-3.1771	-3.7542	-3.2875	-3.5854	-3.7625	-3.0938	-3.5812	-3.5979	157.759	82.949	158.277	244.011	176.554	118.142	238.944	64.319	187.704	83.475	213.277	132.080	303.458	187.523	226.252	206.257	0.00054965	0.00050052	0.000175	1366.2	7.0559e-06	9.0346e-06	1371.3	367.99	6.5152e-06	5.2967e-06	421.32	140.59	122.32	41.904	5.6229e-06	52.145	0.00057407	0.00057404	0.00015716	1388.7	6.3058e-06	6.2491e-06	1387	375.21	6.2843e-06	6.2428e-06	428.87	143.84	124.96	43.136	6.2395e-06	53.403	-43.158	13.259	34.352	-42.922	79.333	109.914	-42.910	-38.472	82.789	99.911	-38.936	-34.253	-33.526	-29.288	111.819	-30.063	-8191	255	
443.190	1	1	0	0	0.093593	0.013058	0.12295	0.28401	0.10665	0.12677	0.29959	0.26801	0.10117	0.26771	0.23728	0.0547	0.29545	0.15026	0.14121	0.092567	-2.9062	-3.5687	-3.3812	-3.35	-3.6292	-3.0312	-3.7458	-3.6854	-3.2062	-3.6417	-3.7479	-3.4104	-3.7604	-3.2562	-3.4229	-3.7229	244.059	72.620	-17.317	252.537	144.768	185.034	183.065	281.949	252.072	237.549	-39.359	256.123	277.974	-33.731	131.923	-7.879	0.00053067	0.00020002	6.8746e-05	1372.9	1.3217e-06	8.4231e-06	1368.4	368.12	3.9423e-06	7.2514e-06	420.63	140.31	123.04	42.017	7.6326e-06	51.88	0.00057419	0.00056895	0.00015895	1390.9	6.2657e-06	6.2794e-06	1388	375.63	6.1841e-06	6.1553e-06	428.79	143.89	125.28	43.129	6.1921e-06	53.31	-31.494	-4.237	63.622	-42.866	139.155	96.045	-43.150	-38.438	64.388	77.994	-38.894	-34.185	-33.758	-29.210	116.655	-30.154	-8191	255	
443.286	1	1	0	0	0.20161	0.16322	0.16501	0.048254	0.040905	0.047681	0.37612	0.085557	0.077012	0.15745	0.10878	0.2001	0.033359	0.12013	0.076484	0.1704	-2.6375	-3.7479	-3.2875	-3.4813	-3.5687	-3.3396	-3.5917	-3.7708	-3.1708	-3.8771	-3.5771	-3.3979	-3.7833	-3.4896	-3.375	-3.7083	279.087	106.596	162.084	271.706	6.395	192.787	-51.632	195.348	251.707	223.904	293.582	250.542	49.175	107.665	196.533	152.101	0.00050711	0.00028031	6.7944e-05	1376.1	1.2751e-06	6.1383e-06	1374.7	371.12	3.0831e-06	7.5078e-06	421.72	140.54	122.09	41.832	3.911e-06	51.794	0.00056759	0.00056742	0.00015949	1391.2	6.2262e-06	6.1408e-06	1389.1	376.28	6.258e-06	6.1846e-06	429.05	143.79	124.93	43.122	6.2266e-06	53.259	-22.122	53.139	45.028	-42.919	115.827	56.803	-42.910	-38.083	18.206	62.527	-38.744	-34.192	-33.923	-29.181	92.449	-30.386	-8191	255	
443.380	1	1	0	0	0.069071	0.22208	0.24305	0.095182	0.10962	0.029553	0.2186	0.056715	0.3694	0.12272	0.0361	0.04818	0.36774	0.29492	0.23329	0.13138	-2.7542	-3.4458	-3.5479	-3.3979	-3.6333	-3.3812	-3.4917	-3.6646	-3.1667	-3.4667	-3.7021	-3.1396	-3.7292	-3.4875	-3.1292	-3.7208	251.594	26.534	100.540	247.840	69.481	210.634	270.252	43.239	102.914	-13.570	123.318	96.424	274.923	3.384	-28.958	208.054	0.00060996	0.00047014	0.00015965	1371.9	5.0299e-06	3.381e-06	1370.6	368.84	6.1644e-06	3.1068e-06	422.12	140.76	122.27	42.002	6.1505e-06	52.054	0.00057498	0.00056881	0.00016038	1389.9	6.2627e-06	6.1907e-06	1388.2	375.76	6.1718e-06	6.2022e-06	428.79	143.95	125.18	43.093	6.3574e-06	53.338	-28.411	35.883	28.864	-43.058	113.858	142.038	-42.986	-38.092	141.932	92.360	-38.956	-34.235	-33.744	-29.075	120.448	-30.200	-8191	255	
443.478	1	1	0	0	0.018319	0.34051	0.29253	0.25073	0.14958	0.032645	0.2345	0.29833	0.1165	0.11125	0.19302	0.19514	0.22146	0.17631	0.071188	0.40559	-2.775	-3.3167	-3.6396	-3.1958	-3.4833	-3.3937	-3.4583	-3.7938	-3.1625	-3.4042	-3.6792	-3.1271	-3.6229	-3.3854	-3.1458	-3.6896	-19.261	18.890	56.368	-37.190	-18.964	191.791	283.667	-56.048	257.443	288.885	242.258	-4.745	-42.183	284.967	100.687	-54.733	0.00059663	0.00054714	0.0001775	1373.6	4.3476e-06	4.9321e-06	1373.1	368.92	8.5789e-06	8.2569e-06	421.64	140.39	122.37	41.952	6.2255e-06	52.114	0.00056692	0.00057065	0.00015915	1389.1	6.1556e-06	6.1936e-06	1389.3	375.71	6.3463e-06	6.1549e-06	428.5	143.78	125.12	43.118	6.3526e-06	53.367	-37.257	21.657	29.138	-42.941	123.970	64.055	-42.959	-38.160	106.838	59.728	-38.748	-34.267	-33.979	-29.230	156.852	-30.135	-8191	255	
443.597	1	1	0	0	0.073008	0.11419	0.081656	0.19807	0.11251	0.095904	0.15669	0.087703	0.29563	0.24383	0.21655	0.33883	0.18404	0.29056	0.22498	0.19128	-2.775	-3.2354	-3.6583	-3.2208	-3.4437	-3.5542	-3.2333	-4.0604	-3.2604	-3.5021	-3.6667	-3.2604	-3.6479	-3.675	-3.325	-3.6729	230.512	292.499	-14.632	-1.221	-1.955	235.722	281.502	189.884	262.161	42.256	231.839	293.735	220.992	266.255	244.643	247.209	0.00065037	0.00013415	0.00018585	1373.3	5.6821e-06	8.8328e-06	1369.6	370.41	7.5024e-06	4.9784e-06	423.3	141.09	122.48	42.242	8.5133e-06	52.141	0.00056707	0.00057042	0.00015792	1391.3	6.2578e-06	6.2519e-06	1389	375.75	6.2283e-06	6.3769e-06	429.45	144.03	125.3	43.222	6.2113e-06	53.426	-29.225	-22.621	43.266	-42.869	124.749	76.772	-42.913	-38.196	205.188	88.442	-38.738	-34.271	-33.859	-29.107	93.682	-30.169	-8191	255	
443.693	1	1	0	0	0.1467	0.41803	0.196	0.087914	0.24549	0.19553	0.51968	0.10972	0.30273	0.26842	0.15766	0.30512	0.16765	0.22752	0.17235	0.1861	-2.8917	-3.3667	-3.6813	-3.4958	-3.4875	-3.5083	-3.3229	-3.6479	-3.4708	-3.0854	-3.7167	-3.2708	-3.4646	-3.5646	-3.0417	-3.6833	-26.124	186.698	5.785	-11.574	125.441	152.936	284.889	39.249	83.167	-37.586	30.203	294.956	259.911	269.335	-53.742	168.660	0.00051855	0.00056593	0.00012777	1374.2	6.4499e-06	2.8585e-06	1369.3	368.87	9.97e-06	3.6543e-06	420.08	140.59	122.75	41.922	8.6049e-06	52.032	0.00056504	0.00057862	0.00015639	1390.7	6.2565e-06	6.3104e-06	1388.5	375.92	6.295e-06	6.3074e-06	428.51	143.73	125.06	43.147	6.1918e-06	53.362	-33.023	47.074	34.896	-42.860	100.564	123.965	-42.788	-38.266	143.815	100.998	-38.654	-34.083	-33.730	-29.280	115.106	-30.317	-8191	255	
443.789	1	1	0	0	0.21395	0.06109	0.087345	0.12977	0.12823	0.12148	0.1418	0.15963	0.22864	0.25951	0.087557	0.011755	0.14416	0.24286	0.066741	0.15925	-3.0646	-3.225	-3.6312	-3.1667	-3.375	-3.4271	-3.4938	-3.6792	-3.4104	-3.1958	-3.8708	-3.2333	-3.5687	-3.7542	-3.075	-3.5708	248.600	236.697	146.004	267.149	113.866	45.176	298.431	293.098	290.781	-40.564	219.906	-33.926	192.507	0.911	-44.092	-23.551	0.0004519	0.00066686	0.00012983	1373.5	7.8431e-06	5.5098e-06	1370.4	369.74	4.1391e-06	4.307e-06	423.22	140.64	122.71	42.171	5.7684e-06	51.956	0.00056175	0.00057334	0.00015813	1392.6	6.3084e-06	6.1995e-06	1389.3	376.1	6.2447e-06	6.286e-06	429.24	143.97	125.13	43.194	6.2637e-06	53.372	-26.065	37.630	3.209	-43.035	96.442	120.805	-43.074	-38.262	126.740	109.285	-38.953	-34.303	-33.799	-29.475	109.310	-30.181	-8191	255	
443.885	1	1	0	0	0.036887	0.31605	0.19365	0.22019	0.14492	0.089152	0.26358	0.21207	0.09677	0.11565	0.20081	0.20232	0.3266	0.095957	0.25518	0.16801	-3.1292	-3.1521	-3.5292	-3.5604	-3.2812	-3.775	-3.3792	-3.525	-3.6042	-3.1521	-3.8333	-3.4021	-3.2458	-3.8708	-3.0875	-3.7521	121.304	105.325	283.034	230.190	280.074	96.726	260.531	-29.782	114.519	-31.759	196.874	283.242	265.505	246.242	99.973	-27.742	0.00051905	0.00048203	0.00010474	1377.4	3.5606e-06	7.7458e-06	1373.3	369.94	7.9572e-06	2.8815e-06	421.44	140.65	122.22	41.889	6.5192e-06	52.108	0.00056764	0.00057316	0.00016083	1394.6	6.3175e-06	6.369e-06	1391	376.08	6.2372e-06	6.428e-06	429.63	143.96	125.21	43.112	6.3084e-06	53.405	-36.967	33.009	41.523	-42.851	84.265	119.680	-43.077	-38.173	141.491	58.535	-38.659	-34.155	-33.963	-29.446	54.930	-30.408	-8191	255	
443.982	1	1	0	0	0.22458	0.16672	0.16266	0.29925	0.039855	0.113	0.19658	0.081922	0.071953	0.13063	0.15031	0.11438	0.14505	0.19835	0.22302	0.055755	-3.0792	-3.2167	-3.5646	-3.5208	-3.3542	-3.7083	-3.45	-3.6771	-3.6833	-3.3021	-3.7229	-3.6542	-3.2583	-3.8292	-3.2042	-3.6667	259.564	46.159	56.102	261.251	238.943	28.128	247.404	266.900	-47.320	109.390	286.161	243.734	292.112	-10.912	14.015	11.653	0.00056661	0.00069669	0.00010811	1382.7	1.0281e-06	5.611e-06	1374.6	370.69	5.2272e-06	4.241e-06	420.65	141.51	122.61	41.815	4.599e-06	51.944	0.0005791	0.00058087	0.0001628	1397.6	6.2869e-06	6.2959e-06	1393	377.04	6.27e-06	6.396e-06	429.06	144.04	125.34	43.147	6.2673e-06	53.38	-35.829	21.438	34.761	-42.909	53.734	119.911	-42.920	-38.225	167.767	114.914	-38.654	-34.033	-33.803	-29.268	51.230	-30.371	-8191	255	
444.078	1	1	0	0	0.030877	0.26781	0.23842	0.18237	0.064972	0.086813	0.068783	0.1292	0.14298	0.13307	0.19625	0.14485	0.14716	0.071538	0.17566	0.068274	-3.2687	-3.1542	-3.4979	-3.5375	-3.1792	-3.5771	-3.2521	-3.4562	-3.6917	-3.1917	-3.6437	-3.6	-3.2021	-3.7854	-3.4896	-3.2646	283.107	110.076	115.307	222.747	-7.458	-44.000	291.344	300.102	104.786	-14.693	-3.143	7.294	-16.829	36.139	257.591	261.473	0.00063198	0.00082599	0.00012345	1377	7.0061e-06	2.902e-06	1375.4	369.43	9.2114e-06	6.7508e-06	421.08	141.3	122.55	41.943	3.8301e-06	51.936	0.00057739	0.00058978	0.00015895	1396.5	6.4084e-06	6.3449e-06	1394.2	376.71	6.2402e-06	6.2737e-06	429.29	144.39	125.35	43.197	6.2105e-06	53.29	-26.758	27.107	67.151	-42.997	129.811	69.901	-42.953	-38.201	111.263	107.110	-38.835	-34.396	-33.875	-29.313	90.403	-30.309	-8191	255	
444.174	1	1	0	0	0.12265	0.13505	0.048658	0.21766	0.02381	0.24646	0.17387	0.23065	0.045589	0.17779	0.33525	0.01714	0.30504	0.097749	0.14571	0.125	-3.2542	-2.9604	-3.4979	-3.6958	-2.9813	-3.5	-3.4896	-3.325	-3.6188	-3.1958	-3.5083	-3.6604	-3.2271	-3.7479	-3.1479	-3.4688	250.891	29.472	170.098	252.999	279.902	102.577	187.507	282.638	75.826	-11.138	294.447	142.658	265.899	290.941	-55.287	95.189	0.00050169	0.00044094	0.00023903	1377	4.3404e-06	8.2314e-06	1371.4	369.33	1.043e-05	8.9083e-06	421.8	141	122.88	41.891	6.023e-06	51.89	0.00057425	0.00057675	0.00016116	1397.6	6.3935e-06	6.3018e-06	1393.9	376.96	6.344e-06	6.4168e-06	430.25	144.23	125.57	43.203	6.319e-06	53.349	-35.675	27.459	35.954	-42.988	96.123	95.407	-43.009	-38.109	91.910	53.581	-38.710	-34.217	-33.825	-29.313	125.572	-30.322	-8191	255	
444.270	1	1	0	0	0.19529	0.071842	0.28848	0.23144	0.092691	0.19765	0.38891	0.25534	0.147	0.32728	0.23602	0.28122	0.34118	0.2098	0.17528	0.30261	-3.2417	-3.1458	-3.3917	-3.9125	-3.1875	-3.8063	-3.7292	-3.4708	-3.6625	-3.1333	-3.4	-3.9104	-3.4479	-3.8021	-3.4	-3.2375	186.541	-33.406	253.040	300.829	194.905	-1.655	247.958	145.564	-54.929	-26.606	131.609	255.042	258.334	-3.012	191.851	270.967	0.00050497	0.00054178	0.00015261	1379	3.3514e-06	3.5241e-06	1377.7	370.57	2.9842e-06	6.3905e-06	421.38	141.1	123.57	41.983	3.7947e-06	52.032	0.00057395	0.00058115	0.00015965	1399.9	6.1604e-06	6.251e-06	1399	377.49	6.199e-06	6.2761e-06	430.49	144.36	125.77	43.181	6.3037e-06	53.35	-34.474	1.109	56.030	-43.038	126.871	121.555	-43.008	-38.195	275.404	83.483	-38.640	-34.422	-33.873	-29.463	90.673	-30.298	-8191	255	
444.389	1	1	0	0	0.24913	0.25263	0.081221	0.022649	0.23442	0.33547	0.23902	0.14841	0.15509	0.088657	0.27843	0.04848	0.24801	0.21611	0.20285	0.092482	-3.3021	-3.2188	-3.2625	-3.9417	-3.1937	-3.7	-3.6917	-3.2771	-3.8458	-3.1354	-3.3625	-3.6896	-3.3771	-3.5104	-3.4917	-3.3083	87.858	61.106	-39.305	-44.072	153.689	80.574	257.323	231.450	-3.850	144.446	171.447	231.291	273.118	259.361	-9.030	165.390	0.00043186	0.00067406	0.00012264	1378.9	3.2087e-06	6.7594e-06	1378	370.83	7.2295e-06	1.583e-06	422.07	140.97	123.04	42.04	2.5093e-06	51.797	0.00057748	0.00058824	0.00016165	1400.2	6.4041e-06	6.3935e-06	1398.2	377.37	6.2851e-06	6.4066e-06	430.41	144.35	125.82	43.291	6.4829e-06	53.401	-18.266	28.010	57.740	-42.875	124.316	127.320	-43.077	-38.198	158.617	76.988	-38.782	-34.108	-33.856	-29.578	91.044	-30.378	-8191	255	
444.462	1	1	0	0	0.2244	0.15547	0.10702	0.080968	0.24806	0.26927	0.1987	0.19295	0.12954	0.32153	0.24654	0.23166	0.17606	0.070855	0.13729	0.19568	-3.1917	-3.4604	-3.1917	-3.7875	-3.1854	-3.4813	-3.65	-3.45	-3.6042	-3.5479	-3.4146	-3.7417	-3.325	-3.5792	-3.4625	-3.1	180.450	0.456	53.639	223.242	289.337	-56.322	184.601	247.502	85.129	49.747	-56.199	213.443	-10.298	44.481	65.979	302.248	0.00053603	0.00050969	0.00016281	1387.5	7.3968e-06	6.8563e-06	1380	370.04	1.0082e-05	9.2344e-06	422.1	141.28	123.31	42.294	5.1899e-06	52.017	0.00057822	0.00058714	0.00016272	1405	6.4604e-06	6.4148e-06	1400.4	377.89	6.4081e-06	6.4512e-06	431.2	144.84	125.96	43.383	6.5215e-06	53.43	-26.120	8.910	34.484	-43.104	81.607	105.529	-43.091	-38.434	86.440	80.701	-38.616	-34.040	-33.795	-29.397	82.374	-30.359	-8191	255	
444.581	1	1	0	0	0.43094	0.14341	0.068446	0.18994	0.11526	0.13972	0.19488	0.20918	0.15774	0.23076	0.22026	0.24838	0.22104	0.08421	0.18962	0.076226	-3.1792	-3.1917	-3.0958	-3.8854	-3.2979	-3.5146	-3.8042	-3.2188	-3.65	-3.5687	-3.3958	-3.7604	-3.3229	-3.5	-3.6104	-3.1708	120.802	-21.159	197.898	272.440	100.394	98.939	269.029	270.065	34.996	41.399	216.386	267.083	217.185	234.826	-32.649	289.519	0.00046949	0.00047067	0.00010531	1387.1	4.2872e-06	5.8808e-06	1383.6	371.1	3.0842e-06	5.4821e-06	422.77	141.48	123.36	42.099	5.2597e-06	52.042	0.00058582	0.00059269	0.00016434	1406.9	6.4225e-06	6.4698e-06	1403.4	378.73	6.3187e-06	6.4861e-06	431.6	144.94	126.11	43.327	6.4554e-06	53.454	-30.151	43.331	37.969	-42.933	110.915	73.132	-43.080	-38.211	22.291	67.000	-38.597	-34.255	-33.773	-29.551	76.234	-30.456	-8191	255	
444.677	1	1	0	0	0.12018	0.28957	0.13515	0.22412	0.14487	0.026295	0.28837	0.079533	0.033396	0.14032	0.25507	0.11647	0.096134	0.057449	0.16919	0.20366	-3.3937	-3.3646	-3.2562	-3.8396	-3.5271	-3.4521	-3.875	-3.1792	-3.5417	-3.4875	-3.2021	-3.8083	-3.3479	-3.4542	-3.6854	-3.3375	195.462	219.389	30.669	248.197	100.224	290.557	139.150	-34.713	-40.539	147.945	242.079	-51.591	59.244	236.796	179.227	283.428	0.00051889	0.00044946	7.9674e-05	1388.8	4.5291e-06	6.7251e-06	1381.3	372.55	1.0304e-05	6.8743e-06	423.82	141.87	123.49	42.238	5.5954e-06	52.271	0.00059184	0.00061061	0.00016892	1408.8	6.6019e-06	6.5826e-06	1405.3	379.48	6.513e-06	6.5729e-06	432.03	145.13	126.33	43.46	6.4035e-06	53.553	-33.234	74.059	-17.206	-42.871	102.564	80.126	-43.029	-38.201	168.378	61.561	-38.776	-34.322	-33.809	-29.506	97.061	-30.211	-8191	255	
444.774	1	1	0	0	0.20433	0.24239	0.14641	0.13529	0.15227	0.25766	0.18157	0.298	0.065417	0.14815	0.22693	0.19732	0.32265	0.16962	0.081073	0.05069	-3.0958	-3.3875	-3.0167	-3.7583	-3.3292	-3.0979	-3.95	-3.2875	-3.3438	-3.5563	-3.2604	-3.5979	-3.3521	-3.2625	-3.6063	-3.2375	3.768	224.325	157.681	267.803	-55.851	-30.642	258.552	-40.686	69.892	169.977	239.472	245.847	286.128	297.928	301.336	302.364	0.00053317	0.00057917	0.00018724	1396.2	2.9382e-06	4.2038e-06	1388	373.16	1.1971e-05	6.8645e-06	422.86	141.64	123.86	42.185	9.9137e-06	51.998	0.00059329	0.00060214	0.00016736	1413.9	6.6362e-06	6.7019e-06	1409.5	380.17	6.5673e-06	6.6054e-06	432.96	145.35	126.84	43.489	6.6005e-06	53.581	-24.978	34.807	18.512	-42.894	71.306	87.743	-42.871	-38.567	92.277	96.335	-38.836	-34.324	-33.946	-29.327	94.280	-30.423	-8191	255	
444.870	1	1	0	0	0.11644	0.22946	0.096119	0.10307	0.064371	0.19306	0.13417	0.14608	0.17076	0.13616	0.32456	0.18596	0.13698	0.32492	0.12011	0.046812	-3.1396	-3.6042	-3.0896	-3.7458	-3.4792	-3.1562	-3.875	-3.3375	-3.3146	-3.6979	-3.2667	-3.4271	-3.6063	-3.1375	-3.5333	-3.3604	248.490	88.694	289.086	-13.376	232.518	-2.760	287.540	-28.642	228.836	91.980	-34.400	233.973	194.784	288.227	171.975	220.866	0.0004335	0.0001315	0.00019388	1401.2	3.4758e-06	8.208e-06	1391.9	374.16	4.5708e-06	3.3204e-06	424.89	142.63	124.03	42.339	6.299e-06	52.237	0.00059265	0.000593	0.0001657	1417.5	6.4381e-06	6.5452e-06	1411.5	380.82	6.4942e-06	6.4591e-06	434.02	145.55	126.69	43.582	6.5964e-06	53.56	-46.104	85.293	35.348	-42.824	111.417	106.089	-43.016	-38.303	156.535	128.743	-38.684	-34.317	-34.115	-29.417	102.773	-30.063	-8191	255	
444.990	1	1	0	0	0.24391	0.30237	0.10627	0.07612	0.10572	0.18964	0.14118	0.27212	0.10749	0.059047	0.14255	0.18066	0.40652	0.22987	0.10852	0.19127	-2.75	-3.5708	-3.0958	-3.5042	-3.3833	-3.2292	-3.8854	-3.3937	-3.0979	-3.8583	-3.0708	-3.5271	-3.525	-3.2354	-3.5917	-3.3646	10.139	73.464	137.723	18.410	125.669	79.190	219.037	22.748	49.008	143.377	-29.922	193.706	-51.943	272.853	178.497	263.180	0.00053072	0.00070823	0.00015847	1402.6	2.6575e-06	8.022e-06	1396.6	373.83	2.9401e-06	8.9819e-06	426.77	142.27	124.28	42.507	5.747e-06	51.863	0.00058652	0.00059198	0.00016631	1419.3	6.4896e-06	6.5547e-06	1416.9	380.88	6.502e-06	6.5807e-06	434.11	145.78	127	43.638	6.5519e-06	53.451	-34.130	17.534	39.610	-43.057	74.191	81.883	-43.140	-38.304	129.720	120.860	-39.012	-34.340	-34.000	-29.449	113.590	-30.404	-8191	255	
445.086	1	1	0	0	0.21914	0.051764	0.2629	0.27083	0.24907	0.2461	0.13163	0.26454	0.081189	0.21197	0.12314	0.24796	0.057977	0.16407	0.14985	0.12768	-2.8	-3.6521	-3.0958	-3.4896	-3.5042	-3.1813	-3.7667	-3.425	-3.0708	-3.7479	-3.3396	-3.5104	-3.7208	-3.2	-3.4958	-3.5354	230.507	-55.694	126.087	200.597	-53.328	199.835	252.799	298.491	184.775	219.297	262.887	-35.251	-45.796	276.528	208.182	197.617	0.00054659	0.00042443	8.8619e-05	1402.1	2.3461e-06	6.6295e-06	1395.4	372.89	2.5925e-06	3.344e-06	426.58	142.69	124.22	42.544	7.1997e-06	51.966	0.00059663	0.00059446	0.00016489	1421.7	6.5394e-06	6.569e-06	1417.5	381	6.6107e-06	6.4841e-06	434.98	145.93	126.98	43.725	6.5743e-06	53.596	-34.907	51.311	6.624	-43.032	93.550	86.404	-43.040	-38.258	157.632	127.190	-38.801	-34.446	-33.899	-29.475	40.572	-30.129	-8191	255	
445.158	1	1	0	0	0.20461	0.27911	0.11595	0.19418	0.10528	0.15226	0.27939	0.25481	0.20668	0.12945	0.19659	0.07203	0.36703	0.1111	0.34215	0.11031	-2.5625	-3.4333	-3.3396	-3.4042	-3.4437	-3.1146	-3.7188	-3.475	-3.0417	-3.7313	-3.4208	-3.4354	-3.5812	-3.2417	-3.4375	-3.3625	198.434	30.778	-40.807	277.356	-45.805	183.983	209.837	273.873	33.859	87.129	221.820	236.668	161.976	208.246	279.155	157.872	0.00043338	0.00086384	0.00012772	1398.9	7.2289e-06	1.1448e-05	1400.6	375.45	5.193e-06	3.7126e-06	425.59	142.59	124.57	42.594	6.2403e-06	52.13	0.00059955	0.00060294	0.00016843	1422.4	6.708e-06	6.6799e-06	1419.5	382.01	6.6201e-06	6.6025e-06	434.33	145.9	127.3	43.779	6.7051e-06	53.665	-34.402	33.832	24.737	-42.904	90.999	98.176	-43.008	-38.243	80.963	105.608	-38.849	-34.213	-33.952	-29.466	126.684	-30.530	-8191	255	
445.277	1	1	0	0	0.15347	0.24583	0.12216	0.060147	0.10638	0.12029	0.29147	0.31024	0.11755	0.18132	0.15009	0.083342	0.33978	0.08519	0.12671	0.18598	-2.6729	-3.425	-3.3917	-3.1542	-3.6167	-3.1771	-3.7396	-3.6896	-3.0104	-3.5687	-3.4167	-3.2021	-3.7792	-3.0667	-3.4375	-3.4625	-25.818	49.188	22.433	201.230	120.978	229.445	215.920	293.215	252.079	240.583	269.626	129.850	255.367	60.840	146.955	284.140	0.0004827	0.00065251	0.00019024	1406.9	3.6964e-06	6.8343e-06	1402.4	375.4	2.4126e-06	7.1672e-06	427.75	142.8	124.75	42.456	5.0506e-06	52.111	0.00060921	0.00060435	0.00016852	1428.8	6.5745e-06	6.6457e-06	1424.7	383.07	6.6688e-06	6.7052e-06	435.66	146.26	127.37	43.747	6.6169e-06	53.607	-49.613	20.619	3.457	-42.923	90.778	84.459	-43.081	-38.334	-14.736	101.341	-38.838	-34.319	-33.974	-29.381	96.590	-30.395	-8191	255	
445.373	1	1	0	0	0.011069	0.20159	0.10691	0.17878	0.054785	0.17152	0.30257	0.16023	0.045018	0.061336	0.29208	0.39628	0.23855	0.24092	0.30799	0.18631	-2.8063	-3.4125	-3.3854	-3.2062	-3.5479	-3.1896	-3.5563	-3.6979	-3.2375	-3.55	-3.575	-3.2646	-3.675	-3.4479	-3.1813	-3.6937	-23.488	-47.475	137.030	223.719	220.801	131.292	220.278	254.694	156.943	273.334	252.700	296.752	279.416	29.508	195.959	278.590	0.00048785	0.00038835	0.00015818	1407.6	7.673e-06	8.7924e-06	1404.6	377.57	1.0951e-05	4.6194e-06	427.76	142.36	124.89	42.623	2.8482e-06	52.128	0.00060882	0.00060812	0.00016956	1430.8	6.6556e-06	6.6196e-06	1425	383.5	6.5753e-06	6.609e-06	436.09	145.91	127.57	43.836	6.6919e-06	53.65	-38.814	48.654	41.477	-42.925	94.304	71.657	-43.205	-38.258	99.796	45.649	-38.940	-34.416	-34.030	-29.503	146.697	-30.313	-8191	255	
445.469	1	1	0	0	0.31455	0.043065	0.069414	0.19949	0.2296	0.056562	0.37513	0.12096	0.028224	0.25882	0.24027	0.10012	0.14397	0.12321	0.05418	0.15502	-2.5521	-3.4833	-3.3458	-3.3021	-3.725	-3.1979	-3.4479	-3.5958	-3.0833	-3.5271	-3.4667	-3.2646	-3.5687	-3.3812	-3.0687	-4.0104	185.653	110.207	59.822	290.704	-55.442	10.065	251.627	238.831	26.785	241.461	261.334	180.079	-4.601	227.732	182.518	264.934	0.00045762	0.00056549	0.00021368	1411.4	6.2426e-06	6.6243e-06	1402.1	375.94	5.1045e-06	5.6574e-06	426.28	142.78	124.54	42.602	6.1804e-06	52.275	0.00060526	0.00061676	0.00017214	1431.6	6.7016e-06	6.7868e-06	1425.1	383.54	6.7438e-06	6.7843e-06	435.58	146.18	127.63	43.889	6.7262e-06	53.667	-42.941	55.053	26.831	-43.134	95.018	106.293	-42.921	-38.397	172.520	73.220	-38.974	-34.232	-33.768	-29.289	121.065	-30.107	-8191	255	
445.565	1	1	0	0	0.058917	0.15771	0.1234	0.20961	0.20293	0.18679	0.18648	0.28245	0.19368	0.38421	0.25953	0.22589	0.12277	0.063452	0.096535	0.22751	-2.5312	-3.4292	-3.5146	-3.2062	-3.6979	-3.4292	-3.4938	-3.7292	-3.2292	-3.2958	-3.6792	-3.2896	-3.5875	-3.4292	-3.1625	-3.5896	-21.790	103.285	18.277	-37.269	58.573	302.427	225.815	-49.846	264.279	124.064	-36.151	255.252	138.943	119.099	-44.507	276.475	0.00045741	0.00013238	0.00014613	1411.1	4.6744e-06	7.8905e-06	1408.1	377.56	2.8419e-06	2.5007e-06	427.6	143.23	124.59	42.54	5.3049e-06	52.418	0.00061005	0.00061732	0.00017011	1433.7	6.7833e-06	6.7179e-06	1428.9	384.02	6.785e-06	6.6719e-06	436.15	146.3	127.76	43.915	6.794e-06	53.777	-54.988	81.157	32.894	-43.120	101.690	95.041	-43.039	-38.329	147.942	87.272	-38.809	-34.370	-33.840	-29.599	121.323	-30.415	-8191	255	
445.686	1	1	0	0	0.1338	0.015223	0.15652	0.14914	0.24492	0.11149	0.36458	0.12328	0.073111	0.27226	0.085208	0.15538	0.21727	0.13508	0.10461	0.28172	-2.8104	-3.3208	-3.6167	-3.4833	-3.5417	-3.4792	-3.3479	-3.6875	-3.3917	-3.3438	-3.7146	-3.2583	-3.6333	-3.6	-3.2667	-3.8375	136.930	-18.019	25.346	182.238	212.220	-18.191	250.433	209.323	214.635	149.095	303.235	300.809	289.853	3.333	163.657	227.217	0.00052404	0.00038525	0.00021283	1415.1	4.0567e-06	6.1294e-06	1409.5	376.75	2.5167e-06	9.6178e-06	426.11	143.17	125.24	42.619	6.1148e-06	52.249	0.00060139	0.00062195	0.00017252	1434.7	6.743e-06	6.773e-06	1429.1	384.37	6.6427e-06	6.8025e-06	435.85	146.63	128.01	43.896	6.8063e-06	53.766	-30.477	15.833	36.792	-43.064	103.205	67.004	-43.163	-38.314	138.121	75.175	-38.951	-34.350	-34.010	-29.341	102.452	-30.447	-8191	255	
445.758	1	1	0	0	0.12843	0.025213	0.24134	0.3493	0.17591	0.15456	0.28535	0.16176	0.20075	0.12324	0.15112	0.14312	0.24662	0.14422	0.20473	0.25849	-2.925	-3.3271	-3.6604	-3.2896	-3.5208	-3.6271	-3.4479	-3.7333	-3.4104	-3.1771	-3.6688	-3.1813	-3.4771	-3.5958	-3.2104	-3.7313	128.964	118.760	158.576	-39.587	296.861	3.496	271.719	94.439	3.847	166.955	-22.766	13.686	267.791	289.917	85.247	182.973	0.0004901	0.00040506	0.00016135	1410.3	7.3852e-06	1.0965e-05	1408.3	378.01	7.2005e-06	4.2384e-06	429.2	142.96	124.81	42.909	5.1144e-06	52.247	0.00061039	0.00061659	0.00016718	1434.2	6.6362e-06	6.7778e-06	1427.7	384.38	6.7582e-06	6.732e-06	436.81	146.47	127.78	43.97	6.6972e-06	53.729	-29.446	42.962	17.251	-42.953	110.238	107.743	-43.247	-38.372	126.079	103.593	-38.783	-34.461	-33.822	-29.391	96.437	-30.293	-8191	255	
445.854	1	1	0	0	0.071024	0.12762	0.11134	0.46658	0.04132	0.096914	0.20115	0.23148	0.090729	0.087275	0.064795	0.075909	0.10234	0.14863	0.077257	0.088751	-2.9917	-3.1854	-3.6833	-3.4146	-3.3354	-3.5167	-3.3354	-3.6083	-3.6458	-3.1958	-3.7625	-3.2396	-3.4062	-3.5396	-3.1583	-3.5687	-8.617	259.833	95.561	264.948	73.814	265.126	245.478	202.483	30.066	295.518	1.734	139.710	-43.747	74.039	70.597	215.734	0.00049501	0.00041177	0.00019862	1411.8	4.8079e-06	6.2372e-06	1411.2	375.88	2.9777e-06	3.7319e-06	427.67	144.05	124.84	42.619	4.2513e-06	52.284	0.00061399	0.00062007	0.00016953	1435.1	6.758e-06	6.789e-06	1429.9	383.54	6.6214e-06	6.7731e-06	436.28	146.91	127.87	43.912	6.6786e-06	53.803	-31.727	38.764	15.835	-42.869	177.490	79.575	-43.129	-38.101	298.492	87.599	-38.769	-34.431	-34.049	-29.444	91.566	-30.104	-8191	255	
445.950	1	1	0	0	0.11277	0.17699	0.24833	0.331	0.1757	0.078018	0.24822	0.34684	0.17815	0.1668	0.1328	0.22493	0.19291	0.17133	0.11859	0.24567	-3.0187	-3.2729	-3.6146	-3.3563	-3.1729	-3.4562	-3.4396	-3.4854	-3.4646	-3.0771	-3.7646	-3.3979	-3.3896	-3.6271	-3.375	-3.4	103.585	100.663	28.087	230.032	286.634	144.854	231.513	301.193	112.882	82.776	53.687	1.085	266.669	232.888	-46.344	163.413	0.0006051	0.00045413	5.3054e-05	1419.8	6.3648e-06	4.7647e-06	1408	377.69	4.7815e-06	5.4184e-06	428.22	142.73	125.03	42.63	9.151e-06	52.037	0.00060714	0.00062043	0.00016909	1436.9	6.6917e-06	6.7559e-06	1430.3	384.56	6.6544e-06	6.8532e-06	436.96	146.64	128.07	43.918	6.6699e-06	53.719	-26.849	34.785	-8.458	-42.966	118.251	116.909	-43.160	-38.236	131.777	89.565	-39.034	-34.110	-33.866	-29.370	100.750	-30.275	-8191	255	
446.071	1	1	0	0	0.15373	0.19269	0.20057	0.25691	0.23232	0.39014	0.26432	0.32937	0.20776	0.18104	0.32062	0.22702	0.16748	0.27151	0.13357	0.22483	-3.0708	-3.1562	-3.5479	-3.5479	-3.1021	-3.6896	-3.3688	-3.5417	-3.5792	-3.1833	-3.6375	-3.3917	-3.2208	-3.75	-3.1625	-3.3646	200.722	190.807	33.364	278.559	215.225	-44.218	255.670	263.082	97.115	286.363	2.342	264.275	-2.879	275.033	118.431	279.378	0.0006154	0.00057806	0.00018835	1417.8	5.804e-06	5.649e-06	1410	377.45	7.2174e-06	7.3776e-06	428.23	143.3	125.12	42.672	7.0036e-06	52.255	0.00060042	0.00062063	0.00016818	1437.7	6.6546e-06	6.6422e-06	1431.1	384.82	6.6952e-06	6.6808e-06	436.86	146.61	127.94	43.997	6.5644e-06	53.814	-41.895	21.856	29.705	-43.056	123.862	84.842	-43.077	-38.388	99.490	78.257	-38.863	-34.256	-33.881	-29.616	71.016	-30.299	-8191	255	
446.167	1	1	0	0	0.21687	0.10583	0.18118	0.27944	0.16924	0.083014	0.13894	0.31024	0.055016	0.092687	0.14985	0.092499	0.22171	0.36071	0.2112	0.1616	-3.1688	-2.9479	-3.5104	-3.5042	-3.2729	-3.6375	-3.5229	-3.375	-3.7229	-3.0687	-3.3917	-3.55	-3.2729	-3.6375	-3.3792	-3.2354	179.344	88.333	-26.225	271.472	280.012	267.864	211.945	243.921	-41.086	-37.097	233.553	32.401	232.238	280.074	55.585	184.374	0.00049955	0.00035979	9.0845e-05	1418.3	1.2178e-06	8.7773e-06	1409.8	378.3	9.9108e-06	3.5712e-06	428.12	143.8	124.83	42.755	5.2411e-06	52.372	0.00060148	0.00060655	0.00016663	1439.8	6.6786e-06	6.6141e-06	1430.6	385.24	6.5759e-06	6.7394e-06	436.8	146.87	127.94	43.959	6.6289e-06	53.832	-42.282	-15.389	70.979	-43.116	193.812	72.229	-43.126	-38.419	101.574	165.590	-38.996	-34.592	-34.035	-29.556	80.711	-30.114	-8191	255	
446.263	1	1	0	0	0.25789	0.23598	0.22483	0.054782	0.13543	0.010447	0.37678	0.24779	0.086884	0.073158	0.22469	0.044792	0.06359	0.24911	0.19977	0.14305	-3.2646	-3.2208	-3.2792	-3.5708	-3.0958	-3.6708	-3.3458	-3.3438	-3.5229	-3.1312	-3.6	-3.7104	-3.1729	-3.75	-3.2875	-3.3146	183.197	243.854	-39.073	212.269	31.317	292.447	201.034	223.361	12.525	63.577	237.145	-49.269	112.309	219.365	143.759	199.729	0.00064643	0.00079426	9.2314e-05	1418.2	5.0523e-06	7.9035e-06	1410	377.73	8.1819e-06	4.0531e-06	425.75	143.37	125.46	42.819	5.4092e-06	52.428	0.0005967	0.00060318	0.00016528	1436.5	6.6717e-06	6.5375e-06	1432	384.73	6.6053e-06	6.5977e-06	436.33	146.79	127.98	43.972	6.6159e-06	53.791	-29.508	34.910	66.410	-42.942	49.920	96.160	-43.082	-38.195	115.492	29.058	-39.174	-34.478	-33.761	-29.302	126.836	-30.080	-8191	255	
446.359	1	1	0	0	0.14482	0.10883	0.2672	0.29011	0.18433	0.12832	0.3647	0.27827	0.28805	0.17914	0.12016	0.12277	0.074818	0.26185	0.17174	0.11994	-3.3521	-3.1	-3.275	-3.7417	-3.0167	-3.5042	-3.5563	-3.2958	-3.7625	-3.1833	-3.5167	-3.7771	-3.05	-3.5979	-3.4375	-3.2479	21.505	0.332	299.075	290.777	90.627	34.029	258.203	204.274	45.181	47.934	252.650	20.885	24.333	275.918	144.079	151.903	0.00046094	0.00069638	0.0001254	1420.3	5.0321e-06	2.7378e-06	1412.1	377.49	5.7701e-06	6.7161e-06	429.91	143.16	125.2	42.749	7.0591e-06	52.265	0.0005958	0.00060888	0.0001702	1437.1	6.6557e-06	6.6157e-06	1433	384.46	6.6087e-06	6.5874e-06	437.05	146.83	128.02	43.967	6.6179e-06	53.722	-49.098	67.734	28.039	-42.857	131.028	114.832	-43.079	-38.297	111.179	110.914	-38.901	-34.456	-33.810	-29.564	98.025	-30.446	-8191	255	
446.454	1	1	0	0	0.10063	0.019177	0.062712	0.28407	0.16227	0.15471	0.061057	0.074797	0.11198	0.22338	0.077716	0.2618	0.078274	0.22959	0.18566	0.20004	-3.1333	-3.275	-3.1771	-3.7833	-3.05	-3.4875	-3.6542	-3.3375	-3.6188	-3.4896	-3.2625	-3.8312	-3.05	-3.5312	-3.4896	-3.1417	-34.331	114.060	42.604	252.752	278.466	-12.999	151.113	136.524	184.388	90.859	-16.331	265.506	293.520	302.005	94.077	91.963	0.00043605	0.00053005	0.00012952	1418.8	4.8555e-06	3.6694e-06	1415.8	376.88	4.5726e-06	5.1617e-06	427.97	143.46	125.7	42.656	4.9332e-06	52.219	0.00059988	0.00059296	0.00016913	1438.2	6.686e-06	6.5684e-06	1432.4	384.37	6.6408e-06	6.6963e-06	436.54	146.8	128.17	43.98	6.6238e-06	53.723	293.129	37.573	48.038	-42.860	97.481	107.634	-43.029	-38.379	109.736	87.753	-38.873	-34.454	-33.790	-29.357	94.243	-30.136	-8191	255	
446.551	1	1	0	0	0.20269	0.075712	0.048418	0.12887	0.07584	0.19557	0.32134	0.31998	0.15071	0.13812	0.057771	0.14181	0.13177	0.10686	0.067887	0.061599	-3.1354	-3.3417	-3.3292	-3.9708	-3.375	-3.4104	-3.6146	-3.2708	-3.4208	-3.3333	-3.2458	-3.8667	-3.2104	-3.2792	-3.4542	-3.1854	68.181	64.563	59.993	137.304	269.271	195.843	205.201	265.710	178.753	125.465	89.314	81.110	286.223	43.496	58.288	299.005	0.00048401	0.00056824	0.00019367	1414.3	2.0869e-06	4.0333e-06	1412.6	378.02	5.5831e-06	6.8199e-06	428.36	143.05	125.15	42.752	8.5353e-06	52.321	0.00060611	0.00059675	0.00017194	1438.2	6.6382e-06	6.6701e-06	1431.3	384.85	6.603e-06	6.6656e-06	436.54	146.72	127.93	43.939	6.6167e-06	53.727	-20.414	45.563	57.277	-43.029	43.724	115.535	-43.028	-38.419	150.086	95.850	-38.817	-34.230	-33.804	-29.658	121.884	-30.330	-8191	255	
446.670	1	1	0	0	0.29962	0.090273	0.19708	0.30987	0.11039	0.34197	0.28923	0.17651	0.15022	0.079998	0.1445	0.14144	0.064427	0.15823	0.18593	0.10083	-3.2562	-3.3958	-3.0563	-3.7854	-3.2417	-3.3937	-3.7542	-3.0396	-3.4854	-3.2854	-3.1125	-3.625	-3.4042	-3.1021	-3.6917	-3.2583	43.121	206.004	59.216	234.564	178.837	134.281	230.136	265.342	254.058	122.492	66.298	257.693	111.190	147.081	211.127	300.278	0.00052315	0.00062824	0.00018067	1416.3	3.8247e-06	6.2775e-06	1406.2	377.03	7.6195e-06	4.656e-06	426.95	143.16	125.36	42.759	6.0585e-06	52.025	0.00059788	0.00060811	0.00016853	1437.2	6.6077e-06	6.6721e-06	1430.9	384.26	6.507e-06	6.6434e-06	435.63	146.71	127.99	43.962	6.5774e-06	53.76	-28.473	0.451	42.851	-43.042	91.695	130.434	-43.138	-38.374	181.354	73.300	-38.809	-34.193	-33.895	-29.544	94.018	-30.524	-8191	255	
446.766	1	1	0	0	0.088858	0.09385	0.12412	0.10833	0.089851	0.1614	0.2896	0.31932	0.1307	0.12468	0.10442	0.21955	0.084634	0.11955	0.1685	0.092926	-3.0854	-3.3042	-3.0563	-3.8812	-3.1979	-3.225	-3.8021	-3.3229	-3.2833	-3.5333	-3.2625	-3.6063	-3.3333	-3.1521	-3.65	-3.2271	272.933	274.966	101.423	12.858	74.686	-41.636	-51.144	-42.185	211.915	-48.418	-20.046	254.073	93.729	-52.658	6.896	-7.853	0.00039357	0.00046934	0.00010454	1416.4	2.9123e-06	1.1489e-05	1408.1	377.77	7.4835e-06	7.7205e-06	429.47	143.81	125.64	43.012	5.7418e-06	52.564	0.00060573	0.00061137	0.00017275	1437.6	6.7374e-06	6.8524e-06	1429.5	384.51	6.7492e-06	6.8637e-06	437.25	147.09	128.3	44.06	6.6864e-06	53.764	-27.252	33.214	62.152	-42.995	36.944	88.036	-43.068	-38.577	132.313	78.647	-38.838	-34.381	-33.730	-29.527	72.088	-30.174	-8191	255	
446.863	1	1	0	0	0.22507	0.2106	0.20367	0.23021	0.076588	0.031809	0.095301	0.26801	0.26398	0.13743	0.063013	0.28336	0.25607	0.06501	0.11463	0.18127	-3.1167	-3.4729	-3.0229	-3.7125	-3.1229	-3.225	-3.8792	-3.3396	-3.2229	-3.5687	-3.1854	-3.6042	-3.35	-3.2917	-3.4792	-3.4625	297.077	-44.087	234.513	181.301	85.420	229.410	13.451	296.299	62.956	191.917	288.719	240.559	-38.043	-28.412	215.992	19.486	0.0005082	0.00063424	7.8303e-05	1419.4	1.6746e-06	6.1839e-06	1412	379	3.829e-06	5.0913e-06	427.9	144.2	125.24	42.922	7.877e-06	52.313	0.00059916	0.00061351	0.00016887	1439.2	6.5427e-06	6.5692e-06	1434	384.87	6.5335e-06	6.5688e-06	436.02	146.86	127.94	44.013	6.5286e-06	53.732	-29.581	62.184	13.864	-42.926	113.365	72.903	-42.900	-38.308	144.240	68.584	-39.055	-34.323	-33.958	-29.215	116.099	-30.483	-8191	255	
446.983	1	1	0	0	0.20357	0.16133	0.17808	0.15009	0.098047	0.052191	0.159	0.075867	0.25081	0.16657	0.17262	0.33879	0.19827	0.17063	0.21781	0.28354	-2.8063	-3.5167	-3.0563	-3.6562	-3.4521	-3.1646	-3.7104	-3.4417	-3.1312	-3.7583	-3.2	-3.525	-3.4771	-3.05	-3.6875	-3.3312	260.984	51.609	158.069	-53.899	218.815	292.530	250.464	265.531	287.424	129.502	-29.205	200.651	275.470	-3.726	231.526	216.051	0.00052966	0.00038788	0.00025484	1415.8	5.3639e-06	2.1527e-06	1411.4	377.95	1.3657e-05	4.4707e-06	429.22	143.7	125.33	42.864	1.0254e-05	52.334	0.00059036	0.00059137	0.00016625	1437.1	6.4606e-06	6.5771e-06	1431.9	384.49	6.5346e-06	6.4532e-06	436.31	146.84	127.96	43.962	6.6338e-06	53.779	-47.672	19.817	17.315	-42.924	101.800	59.487	-43.056	-38.295	155.848	142.714	-38.819	-34.146	-33.772	-29.428	78.379	-30.648	-8191	255	
447.055	1	1	0	0	0.20161	0.27031	0.051196	0.22133	0.13854	0.16179	0.040126	0.14824	0.069031	0.10213	0.15662	0.058673	0.11606	0.15595	0.080152	0.19531	-2.7562	-3.5458	-3.2375	-3.4313	-3.4479	-3.075	-3.6917	-3.4854	-3.1896	-3.7583	-3.1958	-3.6271	-3.5958	-2.9229	-3.3312	-3.3896	31.741	46.333	16.033	292.364	-10.365	219.990	166.714	227.238	186.128	58.502	25.106	285.008	277.628	-51.116	194.470	220.689	0.00053192	0.00082803	0.00012809	1419.8	5.5981e-06	4.71e-06	1411.1	376.91	4.5294e-06	5.1423e-06	429.58	143.76	125.19	42.595	3.8559e-06	52.317	0.00060152	0.00059537	0.00016463	1436.6	6.6091e-06	6.5193e-06	1430.6	384.1	6.6143e-06	6.5964e-06	437.01	146.86	127.99	43.904	6.5532e-06	53.725	-36.879	42.634	52.427	-42.954	123.448	128.374	-43.069	-38.256	40.775	70.999	-39.066	-34.366	-33.877	-29.292	96.336	-30.279	-8191	255	
447.151	1	1	0	0	0.17713	0.032971	0.26699	0.33804	0.13955	0.10069	0.13618	0.17089	0.21899	0.078895	0.23525	0.10342	0.23545	0.26055	0.12533	0.22152	-2.7812	-3.5396	-3.3042	-3.5104	-3.4792	-2.9646	-3.8229	-3.6292	-3.0438	-3.5646	-3.4688	-3.4792	-3.7729	-3.1688	-3.6125	-3.5833	263.909	24.576	157.398	249.535	298.368	6.473	199.068	225.107	291.763	18.682	277.985	28.116	264.734	-39.755	269.470	67.840	0.00049941	0.0003297	0.0001618	1418.3	6.0787e-06	3.7931e-06	1412.3	377.35	4.5235e-06	5.1508e-06	427.85	143.2	125.07	42.836	6.4158e-06	52.293	0.00059249	0.00058794	0.00016765	1437	6.5608e-06	6.5882e-06	1430	383.83	6.526e-06	6.6059e-06	435.88	146.65	127.79	43.998	6.5128e-06	53.682	-29.326	3.395	60.711	-43.047	78.299	110.988	-43.053	-38.464	143.053	69.894	-38.639	-34.186	-33.930	-29.349	118.331	-30.111	-8191	255	
447.247	1	1	0	0	0.08854	0.11365	0.061711	0.12455	0.17659	0.15744	0.081296	0.21512	0.15763	0.16927	0.036119	0.20562	0.04364	0.053942	0.060924	0.11319	-2.6646	-3.6813	-3.325	-3.4979	-3.5083	-3.075	-3.6688	-3.5854	-3.1208	-3.5438	-3.2313	-3.3146	-3.7146	-3.2417	-3.2583	-3.6	141.600	167.041	238.471	270.123	121.634	162.630	243.883	244.357	300.388	226.433	-24.001	48.208	250.466	238.494	83.904	-20.247	0.0005228	0.00062183	0.00017514	1418.1	7.7593e-06	9.3805e-06	1409.4	378.46	7.7056e-06	6.9635e-06	428.75	143.64	125.07	42.726	1.4234e-06	52.113	0.00059916	0.00059085	0.00016511	1437.6	6.5956e-06	6.5424e-06	1428.7	384.56	6.5132e-06	6.4564e-06	436.36	146.64	127.84	43.999	6.5054e-06	53.739	-37.842	45.157	56.627	-42.909	121.959	87.999	-42.991	-38.332	111.318	35.941	-38.771	-34.244	-34.037	-29.431	79.590	-30.340	-8191	255	
447.366	1	1	0	0	0.21095	0.15701	0.22535	0.24979	0.12145	0.18678	0.2047	0.4092	0.21506	0.19228	0.092681	0.12352	0.11975	0.079658	0.07846	0.25674	-2.6437	-3.7167	-3.4083	-3.3917	-3.6	-3.3354	-3.3708	-3.9042	-2.9813	-3.6458	-3.5292	-3.2292	-3.6021	-3.3479	-3.2812	-3.6479	191.451	45.855	276.413	272.756	248.222	61.911	284.542	258.517	73.836	-38.731	153.871	-52.239	293.571	218.466	157.366	262.324	0.00045112	0.00037628	0.00011861	1421	2.4392e-06	6.0966e-06	1413.1	377.84	5.2834e-06	7.8884e-06	427.71	144.25	124.88	42.875	6.9394e-06	52.419	0.00059484	0.00058856	0.00016441	1438.8	6.4529e-06	6.4902e-06	1431.3	384.36	6.4217e-06	6.4368e-06	436.43	147.05	128	44.025	6.4818e-06	53.719	-24.859	-10.157	14.299	-43.037	108.286	115.682	-42.942	-38.323	76.209	84.076	-38.696	-34.359	-33.882	-29.420	107.398	-30.209	-8191	255	
447.462	1	1	0	0	0.18285	0.13475	0.19228	0.16351	0.095666	0.080811	0.16614	0.30804	0.12724	0.15942	0.21441	0.047851	0.18534	0.12635	0.19395	0.18554	-2.8583	-3.5083	-3.4521	-3.2917	-3.6083	-3.1417	-3.3708	-3.6771	-3.1167	-3.5208	-3.5812	-3.2812	-3.8063	-3.3229	-3.2125	-3.8896	98.547	103.179	181.474	96.688	16.295	291.895	-44.184	-55.574	35.169	286.883	205.204	210.393	236.883	125.834	6.084	4.549	0.00056774	0.00025985	4.2972e-05	1423.5	4.4145e-06	3.7437e-06	1415.6	378.4	3.9512e-06	4.8699e-06	429.41	143.85	125.35	42.852	5.709e-06	52.334	0.00058746	0.00059269	0.00016453	1438.2	6.3995e-06	6.4584e-06	1431.7	384.53	6.5854e-06	6.4101e-06	436.36	146.91	128.13	43.994	6.5745e-06	53.704	-36.792	6.234	80.458	-42.935	106.612	86.872	-42.994	-38.207	108.520	85.139	-38.859	-34.324	-33.903	-29.505	131.443	-30.321	-8191	255	
447.558	1	1	0	0	0.24116	0.30302	0.24756	0.14892	0.028446	0.11825	0.28232	0.13596	0.029191	0.094712	0.25214	0.10594	0.19234	0.10021	0.10768	0.19726	-2.7812	-3.4479	-3.4521	-3.1125	-3.7188	-3.4	-3.2625	-3.7771	-3.2042	-3.55	-3.7146	-3.2062	-3.4729	-3.45	-3.0271	-3.8292	-48.614	57.859	12.963	279.445	106.019	-0.920	237.373	-18.799	198.599	143.003	280.463	143.369	290.762	256.176	-24.493	2.884	0.00046746	0.00046277	0.00014561	1418.5	4.7921e-06	1.0558e-05	1414.7	377.7	3.5451e-06	1.0724e-05	429.47	144.07	125.18	42.823	2.6649e-06	52.463	0.00059127	0.00058758	0.00016665	1436.7	6.3979e-06	6.5119e-06	1432.2	384.26	6.4525e-06	6.445e-06	437.05	146.86	128.06	44.005	6.6124e-06	53.784	-35.167	41.836	45.371	-42.941	108.168	88.165	-42.857	-38.128	112.172	87.599	-38.839	-34.389	-33.825	-29.475	126.419	-30.341	-8191	255	
447.632	1	1	0	0	0.22513	0.19986	0.15584	0.18178	0.10175	0.083557	0.26454	0.084422	0.21207	0.26399	0.12364	0.18092	0.089526	0.10115	0.17653	0.12995	-2.7938	-3.3646	-3.6396	-3.1208	-3.725	-3.3187	-3.3812	-3.7917	-3.4292	-3.2854	-3.6646	-3.1583	-3.5708	-3.5708	-2.9354	-3.7771	62.611	123.396	13.392	268.688	-31.464	137.560	138.225	-44.412	102.297	-15.900	269.840	297.293	74.757	124.102	276.535	112.758	0.00058495	0.00072732	8.0078e-05	1417.7	8.7965e-06	6.6738e-06	1412.7	377.64	1.0953e-05	6.7187e-06	427.57	142.92	125.03	42.757	5.0825e-06	52.177	0.00060078	0.00060305	0.00016689	1436.6	6.5338e-06	6.4838e-06	1430.3	384.57	6.524e-06	6.5435e-06	435.91	146.48	127.87	43.944	6.5416e-06	53.691	-32.389	13.299	3.792	-43.026	93.273	108.739	-42.773	-38.271	117.467	92.760	-38.581	-34.249	-33.781	-29.505	105.810	-29.987	-8191	255	
447.751	1	1	0	0	0.27616	0.10664	0.16367	0.26361	0.097558	0.037986	0.42964	0.17367	0.12769	0.1601	0.10623	0.22486	0.098713	0.15132	0.11509	0.20151	-2.8021	-3.2333	-3.5083	-3.2229	-3.7313	-3.4062	-3.3396	-3.7375	-3.2354	-3.2896	-3.6437	-3.3604	-3.5021	-3.5104	-3.0229	-3.5062	236.774	91.674	190.668	207.848	222.721	-13.706	259.004	195.919	193.938	283.849	262.221	221.900	203.095	87.405	266.975	188.631	0.0005853	0.00089239	0.00010665	1416.8	3.2353e-06	1.0034e-05	1411.1	377.79	1.8134e-06	9.1266e-06	427.26	143.36	124.94	42.681	6.493e-06	52.576	0.00057509	0.0005914	0.00016521	1436.4	6.4276e-06	6.4682e-06	1430.4	384.26	6.501e-06	6.5914e-06	435.83	146.84	127.98	43.951	6.5574e-06	53.765	-27.836	42.425	96.379	-43.091	129.194	69.902	-43.002	-38.183	182.408	54.605	-38.842	-34.381	-33.689	-29.504	84.823	-30.495	-8191	255	
447.847	1	1	0	0	0.30926	0.11411	0.091442	0.51515	0.35548	0.038438	0.2971	0.44146	0.14423	0.28307	0.081468	0.2657	0.19783	0.10703	0.10951	0.33551	-3.1104	-3.1396	-3.6437	-3.425	-3.4146	-3.5146	-3.4896	-3.6688	-3.4729	-3.1917	-3.8312	-3.1312	-3.4062	-3.6875	-3.2625	-3.6771	103.100	-25.411	-35.426	-44.827	293.146	243.982	255.012	-25.300	-15.413	93.268	291.785	278.738	17.784	257.679	155.624	173.656	0.00057536	0.00018835	6.9578e-05	1423.4	3.5727e-06	7.0994e-06	1413.7	378.7	7.9458e-06	6.8315e-06	427.59	144.16	125.43	42.728	4.4944e-06	52.494	0.00059037	0.00059439	0.00016689	1440	6.5843e-06	6.5511e-06	1430.9	384.86	6.4182e-06	6.5927e-06	436.37	146.98	128.06	43.936	6.6203e-06	53.773	-40.310	43.331	-7.403	-42.909	124.671	103.126	-42.959	-38.377	148.990	101.363	-38.775	-34.352	-33.725	-29.438	94.736	-29.865	-8191	255	
447.943	1	1	0	0	0.15005	0.048609	0.069397	0.27486	0.14251	0.050707	0.068127	0.19998	0.080233	0.24348	0.033772	0.1163	0.25751	0.17336	0.14784	0.2115	-3.0458	-3.1813	-3.7479	-3.35	-3.3229	-3.6917	-3.3208	-3.4771	-3.3958	-3.0625	-3.6854	-3.3458	-3.3	-3.5687	-3.1917	-3.5	-52.030	102.656	172.270	263.867	71.184	232.176	214.117	301.314	118.845	-47.416	278.780	65.213	229.073	59.334	86.215	303.086	0.00054227	0.00042664	0.00020669	1414.3	7.9881e-06	7.8254e-06	1415.8	378.29	7.264e-06	4.6801e-06	427.21	143.38	125.55	42.933	5.2614e-06	52.148	0.00060109	0.000604	0.00016711	1437.4	6.489e-06	6.6726e-06	1431.5	384.08	6.4669e-06	6.5355e-06	436.09	146.76	128.24	44.061	6.4408e-06	53.677	-49.242	35.570	54.915	-43.011	86.468	85.860	-42.906	-38.376	149.686	93.050	-38.844	-34.323	-33.869	-29.498	69.808	-30.040	-8191	255	
448.064	1	1	0	0	0.15313	0.14581	0.094983	0.22992	0.086852	0.29186	0.17876	0.064854	0.12205	0.1944	0.25262	0.16523	0.061494	0.19352	0.10672	0.10221	-3.1833	-3.0625	-3.6771	-3.3833	-3.3979	-3.7042	-3.2917	-3.55	-3.5021	-3.0875	-3.7708	-3.7	-3.175	-3.7167	-3.1063	-3.5229	289.721	231.760	-31.560	258.792	66.545	273.568	228.975	38.231	267.772	291.541	209.560	232.684	-40.875	-10.877	213.468	301.558	0.00058451	0.00054822	0.00012417	1421.1	6.3626e-06	7.0778e-06	1415.3	378.27	9.7713e-06	1.0279e-05	429.1	144.13	125.76	42.946	5.2729e-06	52.447	0.00059074	0.00060017	0.00016281	1439.1	6.5251e-06	6.392e-06	1431.9	384.93	6.4401e-06	6.4885e-06	436.32	147.14	128.15	44.038	6.4802e-06	53.731	-29.518	6.069	18.611	-42.924	78.085	110.043	-43.049	-38.356	122.321	84.794	-38.699	-34.310	-33.761	-29.490	85.345	-30.294	-8191	255	
448.160	1	1	0	0	0.29786	0.17629	0.050437	0.16097	0.089796	0.060833	0.13471	0.27413	0.23976	0.099203	0.15957	0.099266	0.036096	0.17262	0.20787	0.13083	-3.0896	-2.9771	-3.4688	-3.4562	-3.2417	-3.6417	-3.6521	-3.3146	-3.5958	-3.2042	-3.6208	-3.3375	-3.2313	-3.7958	-3.4208	-3.2667	-11.225	69.019	115.127	288.473	53.089	-39.848	237.927	229.202	194.433	157.001	184.947	279.245	144.988	270.311	221.291	116.168	0.00052442	0.00048219	0.00017944	1420.7	5.6717e-06	6.2557e-06	1412.5	377.46	8.2371e-06	2.326e-06	428.83	143.82	125.18	42.904	2.8781e-06	52.198	0.00058069	0.00059732	0.00016349	1438.9	6.5014e-06	6.5354e-06	1430.8	384.09	6.505e-06	6.439e-06	436.18	146.66	127.92	44.105	6.3663e-06	53.666	-21.566	25.935	37.231	-42.873	105.130	93.217	-43.076	-38.172	82.890	44.197	-38.768	-34.123	-33.952	-29.369	111.820	-30.378	-8191	255	
448.256	1	1	0	0	0.20311	0.039988	0.17888	0.012454	0.091828	0.17373	0.13309	0.22601	0.2214	0.15336	0.14434	0.19311	0.31151	0.24334	0.23656	0.032511	-3.0396	-2.9729	-3.3917	-3.7833	-3.3083	-3.6063	-3.5604	-3.2792	-3.7396	-3.0396	-3.3979	-3.5167	-3.3021	-3.6958	-3.4125	-3.3854	-4.417	6.474	-38.017	188.755	191.050	273.645	287.063	232.703	216.924	73.419	129.394	282.966	237.441	257.050	20.465	-25.700	0.00052391	0.00030564	0.00017339	1414.3	6.3326e-06	5.0363e-06	1411.4	378.19	3.433e-07	3.5468e-06	427.65	143.72	125.26	43.008	4.8208e-06	52.316	0.00058531	0.00059335	0.00016587	1437.6	6.5712e-06	6.4799e-06	1430.8	384.59	6.3875e-06	6.3995e-06	436.7	146.87	127.87	43.978	6.3958e-06	53.708	-26.736	67.326	4.362	-43.041	78.237	104.859	-43.035	-38.232	-37.737	42.796	-38.829	-34.517	-33.757	-29.290	128.910	-30.177	-8191	255	
448.352	1	1	0	0	0.14147	0.052771	0.10034	0.17909	0.069243	0.034003	0.4298	0.28401	0.15337	0.10741	0.21329	0.38359	0.22528	0.17261	0.20205	0.1216	-3.5062	-3.2167	-3.4917	-3.7354	-2.9375	-3.6604	-3.7521	-3.3125	-3.6479	-3.1729	-3.4354	-3.6437	-3.125	-3.7021	-3.4875	-3.2562	175.327	122.482	-15.270	241.031	-26.911	133.792	232.717	-26.202	184.944	106.991	259.438	-43.221	266.294	186.286	30.908	11.593	0.00043844	0.00039491	0.00015727	1419.2	4.9905e-06	5.9738e-06	1415.3	378.35	6.1147e-06	7.4461e-06	428.56	143.77	125.81	42.895	7.4104e-06	52.138	0.00058673	0.00058402	0.00016227	1437.3	6.4443e-06	6.5087e-06	1431.9	384.6	6.4292e-06	6.4053e-06	436.06	146.69	128.15	43.977	6.4321e-06	53.574	-29.745	61.511	14.282	-43.091	115.577	134.542	-42.914	-38.134	121.523	101.246	-38.915	-34.206	-33.855	-29.765	101.284	-30.065	-8191	255	
448.446	1	1	0	0	0.20874	0.11166	0.0042735	0.10389	0.27227	0.086713	0.21012	0.21756	0.065809	0.18855	0.26297	0.060747	0.13609	0.12178	0.24098	0.29283	-3.2812	-3.1979	-3.3042	-3.7875	-3.1125	-3.4792	-3.6729	-3.2708	-3.5875	-3.2667	-3.2625	-3.8375	-3.2188	-3.6333	-3.5229	-3.175	28.929	4.800	282.250	-33.950	247.326	-15.840	278.338	175.054	230.894	24.638	219.674	293.458	173.288	282.863	75.589	301.531	0.00051922	0.00030316	0.00015826	1421.4	4.7445e-06	8.5093e-06	1411.6	378.44	7.3028e-06	1.0251e-05	427.73	143.2	124.82	42.831	6.8073e-06	52.41	0.00058023	0.00059073	0.00016306	1438.1	6.5084e-06	6.4071e-06	1429.9	384.54	6.4375e-06	6.5331e-06	435.52	146.75	127.98	44.026	6.4321e-06	53.717	-32.982	36.845	26.496	-42.722	101.542	92.116	-43.070	-38.332	146.776	102.078	-38.745	-34.185	-33.708	-29.429	100.466	-30.044	-8191	255	
448.543	1	1	0	0	0.12751	0.17693	0.069583	0.12401	0.36784	0.13107	0.24899	0.16984	0.12748	0.17949	0.14539	0.046928	0.18441	0.18036	0.097563	0.1396	-3.2938	-3.2917	-3.2938	-3.7104	-3.2687	-3.3729	-3.7979	-3.2125	-3.7062	-3.3187	-3.1854	-3.6937	-3.1292	-3.5417	-3.5542	-3.2938	93.802	25.250	248.415	302.381	271.528	-2.457	168.191	191.840	-5.290	234.511	-24.909	248.018	286.898	186.985	193.642	301.008	0.00049437	0.00067327	0.00020582	1421.4	4.3637e-06	6.0745e-06	1414.7	378.11	5.3089e-06	6.3856e-06	427.21	143.76	125.77	42.875	7.0988e-06	52.271	0.00058294	0.00059026	0.00016334	1439	6.3931e-06	6.4639e-06	1431.3	384.75	6.3363e-06	6.46e-06	435.63	146.91	128.11	44.044	6.4514e-06	53.71	-35.212	38.288	18.412	-42.852	130.862	100.801	-43.045	-38.216	76.798	90.289	-38.823	-34.307	-33.717	-29.273	78.238	-30.293	-8191	255	
448.663	1	1	0	0	0.14776	0.17009	0.10156	0.30933	0.087912	0.29204	0.13925	0.29838	0.15492	0.18734	0.21227	0.28619	0.13319	0.16816	0.26856	0.19667	-3.0812	-3.4125	-3.2208	-3.8	-3.3854	-3.3729	-3.6083	-3.5396	-3.5354	-3.5312	-3.1875	-3.775	-3.4021	-3.3063	-3.7646	-3.2729	154.988	32.934	110.388	-39.655	165.016	144.295	68.342	191.632	277.486	91.598	297.441	161.309	10.364	258.827	286.623	259.902	0.000554	0.00034291	0.00023865	1422.2	1.9629e-06	6.3304e-06	1413.5	377.7	1.0166e-05	4.8825e-06	428.85	144.18	124.78	42.951	1.4615e-06	52.291	0.00057926	0.00058762	0.00016354	1438.7	6.4416e-06	6.488e-06	1432	384.14	6.5484e-06	6.5586e-06	436.36	146.89	128.05	44.026	6.4873e-06	53.625	-22.733	54.268	50.601	-42.823	145.917	64.804	-42.893	-38.320	90.343	88.790	-38.720	-34.391	-33.922	-29.216	70.202	-30.199	-8191	255	
448.759	1	1	0	0	0.13699	0.22038	0.070929	0.14929	0.20899	0.20522	0.21061	0.055408	0.12081	0.026053	0.11214	0.29103	0.089774	0.22069	0.021417	0.2365	-3.1479	-3.55	-3.025	-3.9042	-3.3396	-3.1042	-3.8292	-3.2667	-3.375	-3.5083	-3.1604	-3.6604	-3.4146	-3.3	-3.6479	-3.25	-0.679	8.379	188.065	277.834	61.342	-13.058	229.507	229.884	125.220	248.181	25.021	270.566	67.041	278.760	266.984	216.709	0.00048147	0.0006347	0.00014333	1416.7	2.309e-06	7.2244e-06	1413.8	377.97	2.4615e-06	5.2569e-06	427.59	143.69	124.93	42.77	6.6579e-06	52.445	0.00058558	0.00058899	0.00016553	1437.4	6.4519e-06	6.6095e-06	1431.9	384.43	6.4459e-06	6.5252e-06	435.69	146.72	127.86	43.962	6.5396e-06	53.753	-39.213	21.402	45.314	-42.863	88.496	121.884	-43.076	-38.390	134.584	101.081	-38.699	-34.394	-33.840	-29.442	106.441	-30.320	-8191	255	
448.856	1	1	0	0	0.043736	0.19631	0.057962	0.12981	0.094051	0.18879	0.14218	0.10042	0.1001	0.044693	0.026175	0.099455	0.16363	0.087064	0.20092	0.22597	-2.9646	-3.6667	-3.1479	-3.6146	-3.3563	-3.2812	-3.9958	-3.1792	-3.3854	-3.6312	-3.225	-3.675	-3.5312	-3.0646	-3.6625	-3.3937	232.560	86.039	128.569	233.229	197.209	40.956	249.943	270.372	218.421	49.317	169.164	14.106	255.219	189.278	-23.453	216.410	0.00054998	0.00041888	0.00021955	1420	8.338e-06	4.5476e-06	1411.2	377.44	6.7422e-06	6.0002e-06	426.21	143	125.43	42.67	1.0195e-05	52.302	0.00058653	0.00059825	0.00017105	1437	6.5288e-06	6.6537e-06	1431.3	384.46	6.5714e-06	6.6025e-06	435.42	146.67	127.98	43.971	6.554e-06	53.722	-22.921	38.527	18.248	-42.912	110.416	73.565	-42.959	-38.454	157.986	66.304	-38.817	-34.274	-33.996	-29.525	105.990	-30.142	-8191	255	
448.927	1	1	0	0	0.11785	0.16194	0.083177	0.087672	0.15012	0.18015	0.10228	0.34696	0.16127	0.20866	0.23532	0.18687	0.10629	0.041197	0.24431	0.13951	-2.8563	-3.6667	-3.2104	-3.6042	-3.4646	-3.2667	-3.9167	-3.5312	-3.4042	-3.3958	-3.3917	-3.5146	-3.5021	-3.2667	-3.8375	-3.2708	210.779	231.485	-23.761	281.135	19.047	120.332	262.612	-42.510	-8.256	204.934	156.230	17.805	270.583	-11.463	21.194	257.487	0.00058612	0.0005753	0.00012553	1419.7	2.8078e-06	6.1086e-06	1417.1	377.75	4.888e-06	3.236e-06	426.65	144.13	125.64	42.634	2.7899e-06	52.61	0.00060096	0.0006033	0.00016804	1437.5	6.5593e-06	6.5995e-06	1433.5	384.5	6.5028e-06	6.5643e-06	435.53	147.08	128.2	43.975	6.6093e-06	53.802	-20.426	35.544	35.451	-42.908	34.562	82.016	-43.021	-38.250	142.189	124.224	-38.722	-34.248	-33.933	-29.625	35.917	-30.494	-8191	255	
449.023	1	1	0	0	0.097231	0.15413	0.094031	0.1943	0.091317	0.033682	0.30867	0.1593	0.074976	0.10933	0.25083	0.31305	0.097392	0.16935	0.16492	0.22795	-3.1	-3.6292	-3.1146	-3.4437	-3.4646	-3.2208	-3.7812	-3.4479	-3.2792	-3.5479	-3.225	-3.5146	-3.6	-3.1167	-3.5542	-3.5333	17.949	-5.920	-31.237	278.780	97.708	153.541	225.438	220.888	-41.044	95.762	-45.555	276.838	-39.418	291.302	61.439	174.248	0.00050049	0.000762	0.00015219	1418.8	3.3589e-06	1.3042e-05	1412.6	377.84	2.8388e-06	5.0827e-06	427.88	143.84	125.43	42.8	8.183e-07	52.454	0.00059369	0.00059364	0.00016575	1439.3	6.5502e-06	6.6735e-06	1432.1	385.01	6.599e-06	6.5281e-06	435.82	146.91	128.12	43.976	6.436e-06	53.729	-29.520	37.030	18.672	-42.915	114.395	88.314	-42.998	-38.063	210.163	57.740	-38.898	-34.033	-33.785	-29.391	108.354	-30.136	-8191	255	
449.144	1	1	0	0	0.018194	0.12205	0.041347	0.21256	0.054159	0.06364	0.14719	0.15068	0.24443	0.082835	0.13217	0.18627	0.10135	0.23147	0.20257	0.40504	-2.5875	-3.6396	-2.9896	-3.4833	-3.5	-3.2	-3.7146	-3.5625	-3.0833	-3.5563	-3.4062	-3.525	-3.6542	-3.1458	-3.4708	-3.6417	236.963	25.583	211.156	221.933	256.492	164.678	235.680	185.319	19.286	123.282	237.085	284.260	61.710	291.729	111.675	178.695	0.00036998	0.00072582	0.00019974	1422.8	4.699e-06	1.0813e-05	1412.4	376.95	2.2572e-06	4.6101e-06	428.86	143.92	125.79	42.879	3.3092e-06	52.272	0.00058743	0.00058963	0.00016815	1440.8	6.456e-06	6.5789e-06	1432.3	384.17	6.5409e-06	6.4635e-06	436.24	146.96	128.16	44.012	6.4122e-06	53.679	-53.028	18.077	20.788	-42.940	81.522	94.383	-43.066	-38.188	93.562	93.061	-38.787	-34.170	-34.080	-29.590	94.081	-30.081	-8191	255	
449.240	1	1	0	0	0.066826	0.30743	0.18925	0.37175	0.23418	0.18122	0.27943	0.085039	0.12024	0.050092	0.21618	0.34008	0.1866	0.18731	0.21621	0.081916	-2.7042	-3.5	-3.1312	-3.6	-3.5312	-3.3063	-3.725	-3.5833	-3.1979	-3.75	-3.4417	-3.2271	-3.7479	-3.25	-3.4771	-3.5771	220.327	151.157	234.395	236.382	10.796	-2.215	184.538	250.438	296.540	215.678	226.374	264.628	-52.254	-4.116	140.507	294.331	0.00048947	0.00048381	9.4017e-05	1419.5	6.468e-06	7.6363e-06	1417.3	378.1	6.0233e-06	7.3588e-06	428.62	143.64	125.06	42.743	8.1277e-06	52.564	0.00059102	0.00059574	0.00016541	1439.7	6.6603e-06	6.5388e-06	1433.9	384.59	6.6098e-06	6.4687e-06	435.94	146.85	128.02	43.987	6.4899e-06	53.819	-37.451	52.887	21.446	-42.885	77.755	102.761	-42.900	-38.214	81.286	73.803	-38.760	-34.301	-33.862	-29.407	141.166	-30.268	-8191	255	
449.335	1	1	0	0	0.19609	0.1344	0.29656	0.22542	0.28516	0.13502	0.21324	0.37999	0.12709	0.24897	0.093487	0.077087	0.13357	0.24365	0.35858	0.12406	-2.5792	-3.575	-3.4042	-3.3208	-3.6146	-3.2188	-3.8042	-3.5833	-3.225	-3.6	-3.5604	-3.3708	-3.6813	-3.15	-3.2938	-3.7646	226.653	-42.613	28.211	282.858	78.216	46.318	263.977	290.313	67.761	206.678	247.315	-49.793	273.282	234.843	62.077	270.863	0.0005525	0.00056792	9.4057e-05	1422.1	8.7492e-06	3.0232e-06	1415.8	378.15	6.3739e-06	7.9853e-06	426.94	143.93	125.94	43.011	7.2215e-06	52.305	0.00060229	0.00058924	0.00016582	1440.1	6.542e-06	6.5192e-06	1432.9	384.41	6.5616e-06	6.4254e-06	435.73	146.85	128.13	44.029	6.4957e-06	53.664	-45.414	41.206	12.544	-43.041	94.163	94.693	-43.091	-38.339	172.704	61.998	-38.791	-34.220	-33.820	-29.306	115.791	-30.165	-8191	255	
449.432	1	1	0	0	0.2332	0.20025	0.040439	0.15499	0.14691	0.11968	0.10291	0.1639	0.14685	0.060858	0.12357	0.12866	0.11071	0.21284	0.20272	0.12315	-2.7167	-3.3438	-3.4313	-3.2583	-3.8042	-3.2625	-3.5312	-3.7313	-3.1042	-3.5354	-3.6167	-3.2083	-3.7271	-3.4708	-3.3563	-3.7104	128.465	137.574	297.074	267.195	82.522	286.353	268.887	247.109	-53.481	108.229	-19.536	81.036	114.606	41.341	200.463	175.062	0.00052735	0.00032543	0.00011478	1419.7	5.5813e-06	1.0215e-05	1413.8	376.77	6.2188e-06	5.0438e-06	428.75	143.92	124.96	43.083	6.902e-06	52.325	0.00060221	0.00058198	0.00016364	1439.1	6.5078e-06	6.5907e-06	1433.7	384.13	6.5876e-06	6.4826e-06	436.42	147.02	127.93	44.102	6.6531e-06	53.731	-44.632	-16.373	69.460	-42.885	83.425	85.990	-42.894	-38.302	165.813	74.701	-38.745	-34.308	-33.867	-29.448	113.866	-30.293	-8191	255	
449.527	1	1	0	0	0.13203	0.1962	0.14707	0.12053	0.14574	0.20222	0.13918	0.2166	0.14727	0.1237	0.13826	0.20145	0.071153	0.20565	0.055813	0.18069	-2.7625	-3.4146	-3.6354	-3.2729	-3.6833	-3.275	-3.3396	-3.6708	-3.3333	-3.4625	-3.5125	-3.1896	-3.5833	-3.5042	-3.3063	-3.7646	7.277	33.107	160.876	-40.951	212.683	-40.157	248.836	184.708	297.517	99.541	204.539	247.916	289.263	228.512	252.995	275.993	0.00056934	0.00062028	0.00012984	1420.3	5.3345e-06	7.7654e-06	1410	377.41	7.1332e-06	4.5132e-06	429.23	143.7	125.6	43.017	6.1969e-06	52.417	0.00058434	0.00059588	0.00016738	1439.3	6.5084e-06	6.4766e-06	1432.1	384.52	6.6114e-06	6.5244e-06	435.9	147.04	128.07	44.107	6.5882e-06	53.784	-27.504	18.501	70.731	-42.732	64.944	122.056	-42.944	-38.165	86.677	57.156	-38.833	-34.424	-33.882	-29.422	75.031	-30.031	-8191	255	
449.625	1	1	0	0	0.095579	0.22101	0.082815	0.18594	0.15891	0.083409	0.1636	0.17504	0.18073	0.10778	0.32595	0.18459	0.2737	0.12109	0.063502	0.11044	-2.675	-3.4542	-3.5021	-3.2396	-3.6479	-3.4208	-3.3729	-3.8063	-3.2521	-3.4542	-3.7208	-3.2292	-3.7188	-3.4625	-3.1333	-3.675	296.420	267.925	287.429	-48.392	74.962	122.517	244.264	222.639	12.837	291.455	-41.497	246.195	184.788	16.784	258.544	121.280	0.0005056	0.00038251	0.00012864	1417.5	3.4501e-06	4.5851e-06	1415.9	378.77	7.1358e-06	4.7682e-06	427.09	144.19	125.49	42.775	6.3501e-06	52.352	0.00059454	0.00059628	0.00016901	1439.2	6.6073e-06	6.5125e-06	1433.7	385.16	6.5909e-06	6.6022e-06	435.83	147.27	128.06	44.086	6.6073e-06	53.732	-22.263	34.970	79.591	-42.902	138.776	70.352	-42.885	-37.921	145.376	83.651	-38.953	-34.168	-33.918	-29.482	44.649	-30.067	-8191	255	
449.744	1	1	0	0	0.17586	0.086447	0.21278	0.27202	0.26665	0.24832	0.43793	0.23292	0.18001	0.32489	0.039987	0.25788	0.075205	0.10388	0.22505	0.22647	-2.8187	-3.3271	-3.5104	-3.2354	-3.5792	-3.4417	-3.4292	-3.6979	-3.3917	-3.3167	-3.7542	-3.2271	-3.5896	-3.5667	-3.0917	-3.6479	2.224	23.381	299.346	-46.476	40.114	107.846	210.577	-54.170	164.995	37.262	284.295	-34.703	227.257	47.976	-44.998	278.642	0.00050415	0.00070027	0.00014847	1419.6	8.0367e-06	7.377e-06	1411.3	378.13	4.9433e-06	5.3991e-06	426.66	144.19	125.56	43.099	9.7821e-06	52.499	0.00059377	0.00060168	0.00016802	1438.7	6.5926e-06	6.5335e-06	1431.8	384.71	6.4738e-06	6.5736e-06	435.76	146.98	128.17	44.129	6.5148e-06	53.833	-27.204	36.057	2.579	-42.911	101.742	72.489	-43.127	-38.216	94.316	65.303	-38.946	-34.261	-33.839	-29.432	96.836	-30.153	-8191	255	
449.840	1	1	0	0	0.083943	0.23627	0.24523	0.20775	0.11542	0.23583	0.32906	0.28938	0.14042	0.19445	0.4221	0.18794	0.26473	0.027974	0.10999	0.10338	-2.8333	-3.1333	-3.7292	-3.4875	-3.5167	-3.2833	-3.3	-3.5563	-3.4417	-3.225	-3.8729	-3.3396	-3.3937	-3.7687	-2.9708	-3.75	27.600	111.332	30.806	-54.555	49.910	27.398	224.188	303.221	216.845	-38.050	-46.158	290.824	275.677	-2.142	87.664	229.350	0.00040362	0.00065417	0.00020146	1420.2	4.0982e-06	7.4394e-06	1417.4	377.79	5.2748e-06	1.1197e-05	428.45	144.25	126.12	42.874	4.5243e-06	52.059	0.00060188	0.00059426	0.00016514	1440.6	6.6061e-06	6.6781e-06	1433.4	384.67	6.5293e-06	6.7198e-06	436.36	147.32	128.21	44.075	6.6744e-06	53.68	-28.835	31.502	27.981	-42.972	92.553	101.364	-43.013	-38.309	71.044	81.737	-38.813	-34.356	-33.982	-29.439	104.944	-30.523	-8191	255	
449.936	1	1	0	0	0.1528	0.2615	0.21486	0.11173	0.12564	0.066083	0.21626	0.2487	0.18277	0.13478	0.051742	0.16801	0.12436	0.091465	0.15624	0.10722	-2.8812	-3.025	-3.7167	-3.4104	-3.4417	-3.7188	-3.2021	-3.7146	-3.2958	-3.0417	-3.7333	-3.1604	-3.3917	-3.5187	-3.1813	-3.3292	32.346	265.612	150.718	251.631	250.194	166.082	203.175	274.250	24.292	-20.351	10.354	296.598	212.006	-34.579	50.545	130.373	0.00047529	0.00035785	0.00020777	1418.7	2.4268e-06	4.4033e-06	1415.1	378.76	3.8604e-06	6.0404e-06	426.64	143.15	125.34	42.929	6.3738e-06	52.203	0.00059919	0.00061021	0.00016676	1440.7	6.6479e-06	6.7092e-06	1434.9	385.2	6.5702e-06	6.6541e-06	435.56	146.89	128.13	44.099	6.5644e-06	53.608	-28.199	35.956	49.927	-42.763	107.337	60.890	-42.961	-38.540	55.689	85.696	-38.802	-34.090	-33.820	-29.491	160.717	-30.235	-8191	255	
450.032	1	1	0	0	0.10352	0.033597	0.11482	0.17925	0.15235	0.076261	0.25926	0.12829	0.29881	0.22673	0.16045	0.099918	0.26459	0.41677	0.075308	0.23786	-3.1021	-3.2313	-3.5021	-3.5625	-3.1813	-3.7625	-3.4938	-3.6271	-3.425	-2.8771	-3.7687	-3.4875	-3.2417	-3.8063	-3.1125	-3.4042	258.038	228.351	76.648	287.169	285.098	-42.286	216.908	233.154	162.218	246.280	253.940	261.983	292.536	-20.380	292.791	74.789	0.00044538	0.00061971	0.00015489	1418.8	2.8303e-06	7.9833e-06	1417.4	377.85	2.2558e-06	4.7591e-06	427.98	143.9	125.11	43.043	6.1801e-06	52.539	0.00059892	0.00061445	0.00016558	1438.4	6.5246e-06	6.5733e-06	1433.8	385.18	6.6525e-06	6.6956e-06	436.12	147.08	128.12	44.112	6.6198e-06	53.81	-13.128	18.046	47.877	-43.030	105.720	99.293	-43.055	-38.413	71.941	61.651	-38.654	-34.279	-33.996	-29.354	68.075	-29.890	-8191	255	
450.153	1	1	0	0	0.16954	0.12041	0.13922	0.3414	0.19298	0.16553	0.098769	0.29207	0.034527	0.1197	0.11326	0.081412	0.17552	0.28532	0.12892	0.32356	-3.2104	-3.025	-3.6708	-3.5187	-3.2958	-3.7833	-3.3875	-3.5083	-3.5062	-3.0875	-3.6312	-3.2979	-3.3521	-3.7042	-3.2896	-3.4062	152.947	261.631	-13.956	265.481	210.643	251.331	226.061	260.442	134.863	88.305	-39.878	-30.938	292.472	-22.294	126.114	250.912	0.00046312	0.00066772	0.00021803	1417.1	3.9676e-06	3.1627e-06	1414.3	378.65	4.9241e-06	8.0738e-06	428.86	143.22	125.75	42.73	3.7347e-06	52.252	0.00058661	0.00060267	0.00016642	1438.5	6.613e-06	6.5288e-06	1435.2	385.48	6.5159e-06	6.4867e-06	435.79	146.83	128.18	44.051	6.5511e-06	53.68	-42.059	35.416	24.431	-43.033	103.340	128.616	-43.098	-38.229	150.150	69.775	-38.715	-34.202	-33.691	-29.473	129.654	-30.190	-8191	255	
450.224	1	1	0	0	0.11452	0.032662	0.19649	0.15117	0.18266	0.053836	0.19009	0.17083	0.30343	0.040318	0.04124	0.1702	0.074793	0.13807	0.10996	0.18288	-3.2438	-3.1833	-3.6688	-3.5271	-3.2458	-3.6562	-3.4604	-3.5292	-3.675	-3.1063	-3.6104	-3.4437	-3.2062	-3.5083	-3.375	-3.4167	159.759	202.877	-29.903	280.670	233.632	114.055	228.778	-54.505	226.877	225.877	293.274	-52.581	-6.540	272.475	252.843	211.158	0.00047583	0.00053729	6.6586e-05	1422.1	2.9753e-06	4.8823e-06	1415.2	378.61	2.4559e-06	4.5713e-06	428.43	144.38	125.28	42.674	5.1453e-06	52.071	0.0005898	0.00059106	0.00016537	1439	6.6157e-06	6.5165e-06	1434.4	385.26	6.4524e-06	6.6348e-06	435.72	147.13	127.99	44.038	6.4093e-06	53.738	-29.368	7.796	24.311	-42.901	90.568	124.807	-43.080	-38.207	138.296	90.634	-38.640	-34.196	-33.823	-29.463	122.513	-29.955	-8191	255	
450.345	1	1	0	0	0.11368	0.20694	0.3279	0.44254	0.24187	0.19824	0.093853	0.020569	0.12862	0.28269	0.10599	0.23405	0.17509	0.012527	0.14675	0.032911	-3.1375	-3.1	-3.2708	-3.6	-3.0583	-3.6083	-3.4542	-3.3604	-3.7188	-3.2208	-3.3208	-3.5333	-3.0771	-3.7833	-3.3521	-3.3187	-2.734	163.560	146.124	238.576	241.218	45.390	226.246	-21.743	-26.404	302.106	16.553	-40.438	254.448	172.455	196.794	11.217	0.00038326	0.000586	0.00014875	1419.8	3.0201e-06	4.7505e-06	1417.1	379.91	1.0645e-05	7.8051e-06	427.37	143.76	125.55	43.07	8.587e-06	52.413	0.00058251	0.00059132	0.00016095	1440.3	6.3665e-06	6.3561e-06	1433.6	385.56	6.3837e-06	6.2802e-06	435.41	147.05	128.3	44.216	6.424e-06	53.766	-30.839	60.409	41.786	-42.933	57.239	102.611	-42.972	-38.186	137.805	107.737	-38.676	-34.557	-33.669	-29.144	77.327	-30.373	-8191	255	
450.439	1	1	0	0	0.2715	0.16189	0.075435	0.29038	0.18994	0.27199	0.097373	0.060015	0.047305	0.10854	0.30227	0.18337	0.17558	0.070413	0.14046	0.33669	-3.2646	-3.3271	-3.3479	-3.8563	-2.9813	-3.7438	-3.6542	-3.3208	-3.6792	-3.2125	-3.5104	-3.4729	-3.3854	-3.5917	-3.3417	-3.2208	49.478	265.685	-40.929	-34.457	129.752	284.757	-51.894	165.590	60.520	191.807	283.838	-28.912	243.480	143.424	225.379	248.244	0.00048378	0.00075669	0.00019227	1422	5.4409e-06	5.071e-06	1410.5	378.86	5.1369e-06	3.6652e-06	428.41	143.83	125.75	42.848	6.5258e-06	52.193	0.00058742	0.00059855	0.00016591	1440.1	6.4748e-06	6.5606e-06	1432.2	384.89	6.4219e-06	6.516e-06	436.54	146.88	128.29	44.116	6.4764e-06	53.615	-18.109	11.068	72.909	-43.059	88.699	87.291	-42.924	-38.152	148.668	105.526	-38.585	-34.300	-33.793	-29.142	95.684	-30.131	-8191	255	
450.536	1	1	0	0	0.14854	0.046648	0.13423	0.35935	0.076889	0.14197	0.065313	0.15608	0.15932	0.05513	0.22558	0.1411	0.27975	0.093134	0.19778	0.079828	-3.2333	-3.1042	-3.3083	-3.6667	-3.1729	-3.55	-3.6083	-3.1417	-3.4813	-3.4604	-3.4208	-3.6625	-3.15	-3.4292	-3.5708	-3.1729	146.642	-26.184	89.811	-41.532	-33.808	-11.602	288.769	248.263	39.137	110.496	268.091	262.903	285.382	202.899	130.142	102.701	0.00045842	0.00077689	6.8205e-05	1421.2	1.7413e-06	4.7845e-06	1416.5	378.29	8.1784e-06	4.1496e-06	427.11	143.06	125.51	42.783	6.1459e-06	52.404	0.00059478	0.00057747	0.00016457	1440.3	6.4378e-06	6.4392e-06	1433.2	384.97	6.3214e-06	6.5328e-06	435.52	146.85	128.11	44.074	6.4695e-06	53.698	-37.681	33.360	21.909	-42.817	137.241	91.983	-42.887	-38.146	108.915	87.606	-39.060	-34.305	-33.857	-29.358	111.426	-30.208	-8191	255	
450.632	1	1	0	0	0.18015	0.27669	0.022752	0.18616	0.0069569	0.033624	0.20499	0.32257	0.25467	0.16564	0.15154	0.13709	0.10363	0.15096	0.18469	0.21978	-3.0687	-3.3104	-3.2333	-3.8917	-3.1271	-3.3833	-3.6271	-3.2146	-3.5312	-3.3771	-3.2875	-3.6458	-3.1708	-3.4229	-3.5958	-3.2146	195.940	156.911	29.499	239.477	225.925	94.925	255.336	-37.486	67.474	-38.113	301.832	285.499	193.119	253.145	226.088	231.742	0.00052748	0.00043781	0.00021986	1414.7	3.7043e-06	7.8924e-06	1415.7	378	4.899e-06	3.4256e-06	428.47	143.6	126.07	42.899	6.3927e-06	52.198	0.00057645	0.00060247	0.00016542	1438.7	6.4849e-06	6.5023e-06	1432.9	384.88	6.4012e-06	6.4076e-06	436.42	146.87	128.33	44.141	6.4357e-06	53.711	-28.455	23.895	30.470	-42.918	118.523	60.721	-43.074	-38.228	154.667	72.012	-38.767	-34.355	-33.814	-29.414	94.151	-30.488	-8191	255	
450.752	1	1	0	0	0.17077	0.10504	0.10134	0.22917	0.24836	0.2232	0.21862	0.1941	0.27321	0.084307	0.11392	0.1089	0.26323	0.2171	0.27958	0.054862	-3.1312	-3.2521	-3.1188	-3.5479	-3.1604	-3.3479	-3.6688	-3.1667	-3.5604	-3.4979	-3.2521	-3.8479	-3.3729	-3.3417	-3.5646	-3.2062	206.492	119.508	274.375	244.148	158.912	-47.182	278.857	245.734	-1.121	15.735	284.001	121.869	249.230	209.929	-22.784	268.498	0.00047638	0.00033924	0.0001527	1420.5	5.9302e-06	4.9759e-06	1415.5	377.4	6.7395e-06	6.461e-06	427.85	144.28	125.24	42.876	6.4213e-06	52.31	0.00058148	0.00058385	0.00016359	1441	6.4083e-06	6.4157e-06	1435.5	384.87	6.3747e-06	6.47e-06	435.97	147.15	128.07	44.157	6.4082e-06	53.726	-25.845	-6.415	48.998	-42.938	82.452	65.670	-42.935	-38.267	140.811	112.428	-38.752	-34.408	-34.146	-29.407	93.707	-29.998	-8191	255	
450.824	1	1	0	0	0.17048	0.269	0.22541	0.12911	0.13795	0.020432	0.064215	0.21876	0.20251	0.1343	0.26171	0.29919	0.11662	0.12197	0.2508	0.36436	-3.1396	-3.5563	-3.1333	-3.5833	-3.1542	-3.1479	-3.8396	-3.1896	-3.3667	-3.4208	-3.2062	-3.3875	-3.2938	-3.3396	-3.7687	-3.2146	7.619	20.918	171.404	228.550	278.241	291.798	119.556	225.175	216.283	160.771	-24.981	284.150	252.859	217.354	117.134	255.255	0.00053699	0.00044229	0.00020776	1422.7	1.6242e-06	8.1972e-06	1417.6	378.23	6.8011e-06	6.9244e-06	426.98	144.08	125.17	43.082	7.2663e-06	52.496	0.00058395	0.00058531	0.00016487	1440.7	6.3915e-06	6.4704e-06	1435.8	384.89	6.4885e-06	6.3566e-06	436.26	147.01	128.18	44.2	6.4414e-06	53.738	-34.391	23.965	29.981	-42.942	161.339	88.288	-43.006	-38.089	131.978	72.884	-38.869	-34.442	-33.808	-29.161	149.609	-30.214	-8191	255	
450.920	1	1	0	0	0.017313	0.12394	0.14646	0.092176	0.044103	0.19706	0.14282	0.25223	0.087968	0.27067	0.1752	0.1811	0.2465	0.2065	0.17772	0.13523	-2.9104	-3.4896	-3.0167	-3.6896	-3.3958	-3.1646	-3.8688	-3.3063	-3.2958	-3.4958	-3.0875	-3.7062	-3.6437	-3.0375	-3.6979	-3.4813	238.619	185.185	177.456	-49.780	123.795	58.132	272.280	189.594	24.401	5.052	299.639	291.794	264.723	230.848	280.091	-17.027	0.00049016	0.00066425	0.00016063	1423.8	6.7321e-06	7.1408e-06	1418.5	378.64	8.1971e-06	6.983e-06	428.22	143.56	125.9	43.004	4.4391e-06	52.348	0.00059526	0.00060758	0.00016608	1442.4	6.5591e-06	6.6219e-06	1436.3	385.12	6.499e-06	6.6369e-06	436.95	147.11	128.41	44.176	6.5835e-06	53.807	-27.412	30.934	12.402	-42.867	89.159	93.738	-43.052	-38.275	149.238	110.270	-38.978	-34.305	-33.738	-29.350	112.618	-30.465	-8191	255	
451.016	1	1	0	0	0.17305	0.12224	0.078338	0.078726	0.26298	0.13825	0.26996	0.22592	0.1234	0.081121	0.13476	0.052977	0.209	0.17392	0.26239	0.088527	-2.7125	-3.5521	-3.0229	-3.8292	-3.3937	-3.1146	-3.8479	-3.5042	-3.3917	-3.5625	-3.2354	-3.5167	-3.5771	-3.2167	-3.5708	-3.2271	-27.703	43.865	126.514	-55.204	198.597	224.699	234.019	197.100	212.198	82.886	27.471	86.119	294.694	282.447	44.748	199.506	0.00049681	0.0005137	0.00018116	1423.4	6.4934e-06	1.0333e-05	1411	377.67	7.747e-06	5.167e-06	428.79	144.23	125.12	43.151	8.7173e-06	52.124	0.00060177	0.00060132	0.00016886	1442.1	6.5893e-06	6.6632e-06	1434.3	384.87	6.5692e-06	6.6308e-06	436.32	147.16	128.3	44.202	6.5273e-06	53.782	-31.931	50.986	30.994	-42.914	48.487	103.945	-43.034	-38.273	135.365	73.753	-38.670	-34.591	-33.602	-29.213	123.849	-30.213	-8191	255	
451.112	1	1	0	0	0.22699	0.153	0.15854	0.29295	0.19378	0.21818	0.21102	0.18792	0.39447	0.061024	0.2908	0.26152	0.1858	0.13	0.11369	0.39086	-2.9396	-3.6542	-2.9583	-3.4375	-3.5312	-3.2125	-3.7938	-3.45	-3.1833	-3.4729	-3.3146	-3.4583	-3.6417	-3.2458	-3.6229	-3.3771	89.768	196.518	59.119	239.397	254.824	232.355	203.282	264.817	-15.572	122.810	268.201	-17.895	294.497	100.970	138.237	156.209	0.00063416	0.00073972	0.00027921	1420.3	6.8655e-06	6.5584e-06	1415.6	379.71	7.1789e-06	5.5582e-06	428.68	144.53	125.79	43.041	1.0316e-05	52.474	0.00060346	0.00060144	0.00016581	1442.2	6.6154e-06	6.5257e-06	1435.5	385.82	6.5046e-06	6.576e-06	436.51	147.4	128.46	44.255	6.5524e-06	53.843	-41.765	35.006	35.619	-43.044	92.036	137.246	-43.053	-38.216	83.624	105.610	-38.930	-34.227	-33.724	-29.335	118.132	-30.164	-8191	255	
451.233	1	1	0	0	0.23496	0.0097824	0.23183	0.46561	0.095641	0.19037	0.24096	0.22719	0.17178	0.22174	0.052591	0.25411	0.12847	0.091072	0.16764	0.11589	-2.7396	-3.6979	-3.0062	-3.5187	-3.7104	-3.1	-3.7396	-3.4729	-3.2479	-3.5625	-3.275	-3.3937	-3.7062	-3.3208	-3.5604	-3.4667	206.621	-52.451	54.752	267.507	190.399	55.785	206.919	264.456	-1.732	-11.303	292.079	279.009	275.812	-19.697	299.574	252.533	0.0005136	0.0010503	8.7619e-05	1427.3	4.8673e-06	5.3758e-06	1415	379.81	6.7165e-06	8.0776e-06	428.94	143.6	125.89	42.973	6.3595e-06	52.42	0.00059538	0.00059487	0.00016371	1443.8	6.5461e-06	6.628e-06	1435.9	385.78	6.5602e-06	6.576e-06	436.86	147.17	128.69	44.229	6.455e-06	53.822	-33.831	56.299	8.575	-42.851	101.918	101.887	-43.106	-38.260	69.211	76.181	-39.036	-34.213	-33.740	-29.393	137.111	-30.304	-8191	255	
451.327	1	1	0	0	0.31119	0.15909	0.1263	0.20484	0.18811	0.16885	0.14981	0.39092	0.10805	0.13394	0.30274	0.2446	0.11181	0.32766	0.092856	0.17111	-2.75	-3.6208	-3.4062	-3.4292	-3.5667	-3.0958	-3.7229	-3.4813	-3.075	-3.6729	-3.375	-3.25	-3.7271	-3.2042	-3.5187	-3.5333	180.323	20.852	-22.694	141.688	69.801	-33.032	199.478	246.813	285.211	105.273	238.799	272.454	237.665	279.804	261.485	210.787	0.00054141	0.00046329	0.00010933	1427.2	7.1144e-06	1.1324e-05	1413.7	378.84	8.9215e-06	8.0177e-06	427.96	144.16	125.51	43.039	1.0969e-05	52.584	0.00059711	0.00058713	0.00016566	1443.5	6.5443e-06	6.5661e-06	1437	385.61	6.5923e-06	6.5994e-06	436.84	147.38	128.39	44.228	6.5796e-06	53.804	-37.201	54.778	17.335	-43.010	68.280	111.078	-42.921	-38.349	140.278	79.153	-38.774	-34.311	-33.865	-29.309	118.936	-30.341	-8191	255	
451.425	1	1	0	0	0.14928	0.088087	0.15063	0.043525	0.01894	0.077205	0.22131	0.18441	0.1081	0.13047	0.1835	0.10635	0.1111	0.073917	0.15525	0.20626	-2.75	-3.5854	-3.3688	-3.4396	-3.6312	-3.0396	-3.6104	-3.5833	-3.1813	-3.4708	-3.4542	-3.1688	-3.6458	-3.3688	-3.3229	-3.6063	36.960	300.249	10.966	122.418	145.201	42.129	248.813	303.107	145.055	24.371	286.652	178.887	-35.726	-26.150	264.341	185.122	0.00056554	0.00040692	0.00017897	1420.9	4.0132e-06	2.6519e-06	1419	379.49	6.2518e-06	3.4473e-06	428.65	144.03	125.25	43.074	8.4131e-06	52.332	0.00059969	0.00060171	0.00017013	1443.8	6.5939e-06	6.6264e-06	1437.2	386.01	6.613e-06	6.5101e-06	437.28	147.21	128.35	44.269	6.6199e-06	53.833	-21.973	22.569	70.941	-42.846	135.930	95.025	-43.139	-38.293	94.673	119.866	-39.020	-34.289	-33.979	-29.515	89.977	-30.244	-8191	255	
451.520	1	1	0	0	0.098097	0.034172	0.19872	0.2078	0.10331	0.086407	0.14146	0.29292	0.12308	0.14052	0.33472	0.46393	0.13193	0.14083	0.1452	0.079741	-2.7146	-3.5938	-3.3583	-3.15	-3.5146	-3.3521	-3.5938	-3.7458	-2.9667	-3.5604	-3.6625	-3.1146	-3.6208	-3.3042	-3.1167	-3.8104	187.122	44.535	285.218	-38.933	285.446	158.916	175.654	232.949	-3.027	232.489	288.325	253.759	-15.505	205.839	32.956	140.816	0.00058877	0.00050961	0.00013349	1427.1	4.6626e-06	6.1225e-06	1415.6	378.69	4.5267e-06	3.9726e-06	427.29	144.23	125.69	43.142	8.0102e-06	52.434	0.00059401	0.00059219	0.0001629	1446.2	6.5437e-06	6.551e-06	1436.2	386.13	6.5951e-06	6.6634e-06	436.33	147.41	128.65	44.296	6.6931e-06	53.851	-27.207	34.006	21.445	-42.916	79.631	86.785	-42.984	-38.222	118.909	108.695	-38.744	-34.101	-33.852	-29.486	85.018	-30.090	-8191	255	
451.616	1	1	0	0	0.11264	0.099984	0.027573	0.28796	0.12799	0.077773	0.096948	0.22136	0.11753	0.12925	0.049204	0.066781	0.19732	0.29491	0.16678	0.067099	-2.6896	-3.4083	-3.2708	-3.3146	-3.5083	-3.4646	-3.2562	-3.6708	-3.2854	-3.3208	-3.7208	-3.0208	-3.6354	-3.4167	-3.1917	-3.8354	119.239	-49.524	280.549	-36.894	-28.865	-27.116	225.982	245.385	288.060	24.440	32.222	208.112	199.023	-22.178	299.816	260.680	0.00059203	0.00036358	0.00013545	1422.4	5.1089e-06	1.2272e-05	1414.7	377.94	6.1052e-06	4.2026e-06	428.55	144.12	125.94	42.889	3.6008e-06	52.583	0.00059998	0.00060239	0.00016591	1444.2	6.5563e-06	6.5995e-06	1435.3	385.95	6.5564e-06	6.5655e-06	436.78	147.32	128.45	44.238	6.5411e-06	53.872	-37.781	6.786	18.734	-42.881	115.617	99.360	-43.033	-38.235	125.629	59.671	-38.703	-34.295	-33.798	-29.381	92.205	-30.326	-8191	255	
451.712	1	1	0	0	0.085246	0.023079	0.065314	0.28823	0.17116	0.15307	0.11477	0.35447	0.42295	0.31706	0.16763	0.11936	0.14199	0.039405	0.10908	0.10548	-2.7854	-3.4354	-3.3792	-3.2812	-3.5854	-3.3625	-3.5771	-3.6937	-3.2667	-3.3771	-3.7479	-3.3479	-3.5687	-3.5917	-3.4167	-3.5583	-42.014	280.801	63.897	259.543	199.018	283.561	231.777	269.093	123.803	115.419	248.345	0.445	210.603	184.349	27.040	220.025	0.00050825	0.00053863	0.00017916	1426.6	4.5579e-06	5.1995e-06	1414.5	377.74	6.7355e-06	4.8562e-06	428.39	144.17	125.58	43.165	2.6632e-06	52.403	0.00058965	0.00060021	0.00016625	1445.7	6.5167e-06	6.5944e-06	1435.7	385.4	6.4349e-06	6.5306e-06	436.33	147.36	128.56	44.318	6.4586e-06	53.841	-30.397	67.498	8.061	-42.921	59.709	121.532	-42.904	-38.294	144.936	94.933	-38.881	-34.201	-33.959	-29.484	94.043	-29.982	-8191	255	
451.833	1	1	0	0	0.11475	0.17746	0.081421	0.15366	0.069211	0.26701	0.38149	0.23873	0.082144	0.016611	0.14623	0.056144	0.13992	0.12079	0.12069	0.15441	-2.9771	-3.2104	-3.5833	-3.1479	-3.6458	-3.4542	-3.4583	-3.8563	-3.2562	-3.3021	-3.6979	-3.2438	-3.525	-3.6083	-3.0396	-3.6896	212.366	-41.380	-40.096	203.472	72.667	-28.120	265.588	280.001	60.816	23.975	248.765	-26.751	253.756	-4.259	91.268	267.507	0.00054812	0.00037378	0.00019471	1425.9	4.0664e-06	6.8237e-06	1416.6	379.59	5.3358e-06	5.642e-06	427.63	143.8	125.35	42.935	3.6369e-06	52.294	0.00058674	0.00059565	0.00016229	1445.8	6.5734e-06	6.523e-06	1436.7	386	6.4916e-06	6.554e-06	435.96	147.21	128.59	44.293	6.5535e-06	53.755	-16.454	23.926	41.385	-42.916	86.087	112.505	-42.924	-38.433	164.488	89.566	-38.533	-34.308	-33.918	-29.292	114.855	-30.072	-8191	255	
451.929	1	1	0	0	0.081499	0.38447	0.1272	0.21688	0.1126	0.20479	0.29847	0.18725	0.18291	0.042649	0.12851	0.080228	0.18214	0.2281	0.068518	0.27413	-2.9813	-3.1562	-3.9917	-3.2875	-3.4292	-3.6354	-3.3333	-3.6104	-3.35	-3.3479	-3.7958	-3.2313	-3.4583	-3.6917	-2.9313	-3.6208	205.618	160.054	-37.170	283.238	269.936	64.995	253.050	207.828	43.511	129.894	296.841	16.144	267.929	-24.446	-17.278	193.970	0.00039112	0.00039874	0.00019286	1421.6	5.8742e-07	6.4125e-06	1418.7	379.18	6.9332e-07	4.5433e-06	427.49	144.14	125.42	43.235	3.6419e-06	52.287	0.00059957	0.00060303	0.00016358	1443.4	6.5137e-06	6.607e-06	1438.1	385.85	6.5369e-06	6.5936e-06	436.7	147.44	128.58	44.339	6.6019e-06	53.814	-24.989	42.645	31.820	-42.755	94.865	76.575	-42.976	-38.367	177.335	123.436	-38.721	-34.460	-33.654	-29.447	88.526	-30.474	-8191	255	
452.025	1	1	0	0	0.1261	0.19002	0.037214	0.39843	0.17255	0.12916	0.16417	0.1572	0.28381	0.16531	0.33938	0.13938	0.20035	0.15519	0.20637	0.12303	-3.0854	-3.4062	-3.6125	-3.3646	-3.1167	-3.4542	-3.225	-3.725	-3.3312	-3.3354	-3.7083	-3.3979	-3.3375	-3.7854	-3.2396	-3.6104	133.027	-14.859	126.315	265.045	35.535	149.493	274.099	229.927	47.820	76.449	270.707	291.887	-38.225	-10.840	66.487	140.688	0.00049503	0.00073279	0.00012907	1422.4	7.3921e-06	4.0354e-06	1418	379.93	1.9903e-06	6.6157e-06	428.25	144.1	125.52	43.052	4.1527e-06	52.353	0.0005935	0.00060475	0.0001685	1444.2	6.5575e-06	6.5384e-06	1438.2	385.86	6.4596e-06	6.6137e-06	436.56	147.3	128.55	44.238	6.6248e-06	53.843	-35.011	62.026	-9.300	-42.927	92.975	100.454	-42.979	-38.212	166.746	53.592	-38.799	-34.336	-33.715	-29.224	81.039	-30.265	-8191	255	
452.121	1	1	0	0	0.024879	0.039369	0.18611	0.17842	0.14651	0.1752	0.22122	0.051624	0.1798	0.23515	0.24446	0.12907	0.17092	0.09927	0.085475	0.11042	-2.9417	-3.0687	-3.7938	-3.3458	-3.2479	-3.7042	-3.3333	-3.6937	-3.5875	-3.0521	-3.5729	-3.4688	-3.325	-3.7417	-3.1958	-3.5333	35.624	190.179	121.543	-30.537	-5.563	208.366	227.551	126.948	294.597	248.045	285.681	259.482	0.314	272.739	-37.403	88.328	0.00044656	0.00056933	7.0942e-05	1424.4	6.9831e-06	1.6261e-06	1419.2	378.83	6.1832e-06	3.8037e-06	427.42	143.14	124.94	42.973	4.5981e-06	52.545	0.00059056	0.00059598	0.00016555	1443	6.5991e-06	6.6397e-06	1436.9	386.02	6.6327e-06	6.6245e-06	436	147.13	128.22	44.224	6.587e-06	53.939	-33.061	64.352	-28.104	-42.747	96.376	18.106	-43.065	-38.415	121.063	96.582	-38.995	-34.380	-33.796	-29.056	118.756	-30.357	-8191	255	
#DATA ENDS
