BOXY.EXE: ISS Imagent and Oximeter Data Acquisition Program Version 0.80
Ascii Record File

#ACQ INFORMATION
2  Detector Channels 
16  External MUX Channels 
1  Auxiliary Channels 
5000  Waveform (CCF) Frequency (Hz)
1  Waveforms Skipped 
30  Waveforms Averaged 
1  Cycles Averaged 
16  Acquisitions per Waveform 
10.0806  Updata Rate (Hz) 

#FILE INFORMATION
TRUE -- External MUX Channel results are PARSED.
FALSE -- AC DC and Phase are NOT grouped.
TRUE -- Companion Program Settings File CREATED.
FALSE -- AC data not excluded
FALSE -- DC data not excluded
FALSE -- Phase data not excluded
FALSE -- Auxillary Chn. data not excluded
Tab delimiters

#CALIBRATION STATE
TRUE -- Waveform Calibration Values APPLIED.


#AUX CALIBRATION VALUES
Val Type	aux-1	

Term	1.0000e+00	
Factor	0.0000e+00	


#WF CALIBRATION VALUES
A = Detector Channel
Val Type	A-AC1	A-AC2	A-AC3	A-AC4	A-AC5	A-AC6	A-AC7	A-AC8	A-AC9	A-AC10	A-AC11	A-AC12	A-AC13	A-AC14	A-AC15	A-AC16	A-DC1	A-DC2	A-DC3	A-DC4	A-DC5	A-DC6	A-DC7	A-DC8	A-DC9	A-DC10	A-DC11	A-DC12	A-DC13	A-DC14	A-DC15	A-DC16	A-Ph1	A-Ph2	A-Ph3	A-Ph4	A-Ph5	A-Ph6	A-Ph7	A-Ph8	A-Ph9	A-Ph10	A-Ph11	A-Ph12	A-Ph13	A-Ph14	A-Ph15	A-Ph16	

Term	0.00000e+00	0.00000e+00	0.00000e+00	0.00000e+00	0.00000e+00	0.00000e+00	0.00000e+00	0.00000e+00	0.00000e+00	0.00000e+00	0.00000e+00	0.00000e+00	0.00000e+00	0.00000e+00	0.00000e+00	0.00000e+00	0.00000e+00	0.00000e+00	0.00000e+00	0.00000e+00	0.00000e+00	0.00000e+00	0.00000e+00	0.00000e+00	0.00000e+00	0.00000e+00	0.00000e+00	0.00000e+00	0.00000e+00	0.00000e+00	0.00000e+00	0.00000e+00	0.00000e+00	0.00000e+00	0.00000e+00	0.00000e+00	0.00000e+00	0.00000e+00	0.00000e+00	0.00000e+00	0.00000e+00	0.00000e+00	0.00000e+00	0.00000e+00	0.00000e+00	0.00000e+00	0.00000e+00	0.00000e+00	
Factor	1.00000e+00	1.00000e+00	1.00000e+00	1.00000e+00	1.00000e+00	1.00000e+00	1.00000e+00	1.00000e+00	1.00000e+00	1.00000e+00	1.00000e+00	1.00000e+00	1.00000e+00	1.00000e+00	1.00000e+00	1.00000e+00	1.00000e+00	1.00000e+00	1.00000e+00	1.00000e+00	1.00000e+00	1.00000e+00	1.00000e+00	1.00000e+00	1.00000e+00	1.00000e+00	1.00000e+00	1.00000e+00	1.00000e+00	1.00000e+00	1.00000e+00	1.00000e+00	X	X	X	X	X	X	X	X	X	X	X	X	X	X	X	X	

B = Detector Channel
Val Type	B-AC1	B-AC2	B-AC3	B-AC4	B-AC5	B-AC6	B-AC7	B-AC8	B-AC9	B-AC10	B-AC11	B-AC12	B-AC13	B-AC14	B-AC15	B-AC16	B-DC1	B-DC2	B-DC3	B-DC4	B-DC5	B-DC6	B-DC7	B-DC8	B-DC9	B-DC10	B-DC11	B-DC12	B-DC13	B-DC14	B-DC15	B-DC16	B-Ph1	B-Ph2	B-Ph3	B-Ph4	B-Ph5	B-Ph6	B-Ph7	B-Ph8	B-Ph9	B-Ph10	B-Ph11	B-Ph12	B-Ph13	B-Ph14	B-Ph15	B-Ph16	

Term	0.00000e+00	0.00000e+00	0.00000e+00	0.00000e+00	0.00000e+00	0.00000e+00	0.00000e+00	0.00000e+00	0.00000e+00	0.00000e+00	0.00000e+00	0.00000e+00	0.00000e+00	0.00000e+00	0.00000e+00	0.00000e+00	0.00000e+00	0.00000e+00	0.00000e+00	0.00000e+00	0.00000e+00	0.00000e+00	0.00000e+00	0.00000e+00	0.00000e+00	0.00000e+00	0.00000e+00	0.00000e+00	0.00000e+00	0.00000e+00	0.00000e+00	0.00000e+00	4.69284e+01	-1.27582e+02	-1.30931e+02	-1.83936e+02	-7.62020e+01	-6.69807e+01	-1.56989e+02	-1.62015e+02	-5.22494e+01	-7.94096e+01	-1.78987e+02	-1.72875e+02	-1.82137e+02	-1.78866e+02	-7.23244e+01	-1.51154e+02	
Factor	6.73214e-05	1.82383e-04	5.06034e-05	1.89429e-01	1.93940e-06	2.29934e-06	1.72175e-01	6.05181e-02	3.16237e-06	2.20276e-06	1.07814e-01	3.31898e-02	2.86066e-02	1.08537e-02	2.29806e-06	1.49911e-02	5.72136e-06	6.42153e-06	1.79335e-06	9.47223e-02	6.88599e-08	7.09668e-08	8.12099e-02	3.03370e-02	6.85387e-08	7.09561e-08	5.23066e-02	1.61085e-02	1.44478e-02	5.47581e-03	6.95704e-08	7.34234e-03	X	X	X	X	X	X	X	X	X	X	X	X	X	X	X	X	



#DISTANCE SETTINGS
A = Detector Channel
A-1	A-2	A-3	A-4	A-5	A-6	A-7	A-8	A-9	A-10	A-11	A-12	A-13	A-14	A-15	A-16	

2.5000e+00	3.0000e+00	2.5000e+00	3.0000e+00	2.0000e+00	3.0000e+00	1.5000e+00	3.0000e+00	3.0000e+00	3.0000e+00	3.0000e+00	3.0000e+00	3.0000e+00	3.0000e+00	1.5000e+00	3.0000e+00	

B = Detector Channel
B-1	B-2	B-3	B-4	B-5	B-6	B-7	B-8	B-9	B-10	B-11	B-12	B-13	B-14	B-15	B-16	

1.0000e+01	1.0000e+01	1.0000e+01	1.4400e+00	1.0000e+01	1.0000e+01	1.5100e+00	1.9400e+00	1.0000e+01	1.0000e+01	1.9900e+00	2.4900e+00	2.4100e+00	2.9000e+00	1.0000e+01	2.9800e+00	




#DATA BEGINS
time	group	step	mark	flag	A-AC1	A-AC2	A-AC3	A-AC4	A-AC5	A-AC6	A-AC7	A-AC8	A-AC9	A-AC10	A-AC11	A-AC12	A-AC13	A-AC14	A-AC15	A-AC16	A-DC1	A-DC2	A-DC3	A-DC4	A-DC5	A-DC6	A-DC7	A-DC8	A-DC9	A-DC10	A-DC11	A-DC12	A-DC13	A-DC14	A-DC15	A-DC16	A-Ph1	A-Ph2	A-Ph3	A-Ph4	A-Ph5	A-Ph6	A-Ph7	A-Ph8	A-Ph9	A-Ph10	A-Ph11	A-Ph12	A-Ph13	A-Ph14	A-Ph15	A-Ph16	B-AC1	B-AC2	B-AC3	B-AC4	B-AC5	B-AC6	B-AC7	B-AC8	B-AC9	B-AC10	B-AC11	B-AC12	B-AC13	B-AC14	B-AC15	B-AC16	B-DC1	B-DC2	B-DC3	B-DC4	B-DC5	B-DC6	B-DC7	B-DC8	B-DC9	B-DC10	B-DC11	B-DC12	B-DC13	B-DC14	B-DC15	B-DC16	B-Ph1	B-Ph2	B-Ph3	B-Ph4	B-Ph5	B-Ph6	B-Ph7	B-Ph8	B-Ph9	B-Ph10	B-Ph11	B-Ph12	B-Ph13	B-Ph14	B-Ph15	B-Ph16	aux-1	digaux	

2751.028	1	1	0	512	0.20668	0.37716	0.26233	0.093751	0.29957	0.20323	0.23938	0.42462	0.18923	0.13853	0.087059	0.33987	0.068118	0.28609	0.16959	0.064244	-2.6833	-3.4458	-3.2562	-3.1292	-3.3063	-2.9979	-3.45	-3.4875	-3.0375	-3.5312	-3.3208	-3.1375	-3.6396	-3.1562	-3.0979	-3.4667	7.858	-25.596	16.694	-85.735	-21.169	-50.866	158.410	97.595	92.668	184.457	-154.956	75.737	122.112	-120.220	43.647	58.065	0.0008456	0.00037019	0.0039367	464.54	3.1898e-06	2.5418e-06	378.3	171.69	0.0001692	3.9588e-06	139.67	64.259	76.341	38.963	3.8273e-06	31.618	0.00014777	4.9419e-05	0.0015651	441.97	6.1529e-07	1.0994e-06	360.91	163.69	4.3973e-05	5.5686e-07	131.88	60.84	72.577	43.154	6.6353e-07	30.076	21.307	-89.341	184.330	-156.286	-43.226	-9.008	-158.237	-150.524	20.840	-22.732	-154.193	-150.946	-147.386	-141.696	-53.337	-147.767	-8191	255	
2751.148	1	1	0	0	0.11796	0.029741	0.19152	0.23007	0.11517	0.10692	0.15336	0.11389	0.12117	0.020184	0.11979	0.24098	0.054633	0.057391	0.14625	0.026473	-2.5438	-3.1458	-3.1917	-2.9104	-3.475	-3.0438	-3.0479	-3.5333	-3.1146	-3.3563	-3.2917	-3.0521	-3.5979	-3.1833	-2.9917	-3.5125	-124.744	91.040	-41.068	-49.828	-164.485	-22.430	148.101	-77.692	97.690	57.921	181.418	50.194	-85.741	-31.339	-69.976	6.456	0.00081372	0.00025383	0.0011292	456.2	1.7676e-06	1.7977e-06	369.08	168.27	0.00022664	3.5131e-06	132.83	62.813	75.121	38.789	4.0787e-06	31.383	0.00014568	5.259e-05	0.00072859	446.95	5.9047e-07	1.0233e-06	350.35	160.02	5.9072e-05	5.2685e-07	126.89	59.278	71.457	41.463	7.618e-07	29.911	25.115	-114.048	-85.083	-157.360	-13.026	-1.230	-158.281	-150.467	28.428	-45.749	-153.995	-150.829	-147.416	-141.987	-45.673	-146.938	-8191	255	
2751.245	1	1	0	0	0.037494	0.27967	0.021738	0.21105	0.17503	0.17177	0.24397	0.14922	0.20768	0.18632	0.11037	0.15725	0.18241	0.14046	0.17455	0.1622	-2.6583	-3.2833	-3.4146	-2.9542	-3.3542	-3.2438	-3.0292	-3.6021	-3.0563	-3.1271	-3.3875	-3.0125	-3.4396	-3.2062	-2.9479	-3.6021	19.979	-83.537	9.708	77.927	-137.327	27.771	7.800	182.268	80.287	84.113	165.302	15.685	-149.681	150.569	-5.375	119.725	0.00090703	0.0001911	0.0016793	463.93	3.4596e-06	2.4889e-06	377.43	169.16	0.00017615	4.1127e-06	136	63.661	76.352	39.16	2.1825e-06	31.93	0.00014839	5.1827e-05	4.3608e-05	505.51	5.8689e-07	9.8023e-07	355.49	161.45	4.3217e-05	5.8864e-07	129.08	60.263	72.46	43.245	8.0136e-07	30.508	22.589	-48.128	-91.045	-157.609	-33.101	-31.222	-158.218	-150.381	36.714	-35.442	-153.914	-150.971	-147.443	-142.429	-61.691	-147.361	-8191	255	
2751.341	1	1	0	0	0.21385	0.043111	0.095527	0.0593	0.28532	0.22817	0.11039	0.035782	0.14541	0.14121	0.087036	0.18674	0.07838	0.091566	0.13315	0.27153	-2.5062	-3.1063	-3.25	-2.8063	-3.4562	-3.2562	-3.0292	-3.5292	-3.0479	-3.2021	-3.4583	-3.0479	-3.4021	-3.3917	-2.8208	-3.4875	14.885	31.509	-52.984	164.723	-77.827	-103.723	-161.439	99.140	135.478	-76.050	-104.358	164.920	64.723	174.637	-124.907	53.176	0.00083663	0.00025303	8.6367e-05	469.87	2.2859e-06	4.8483e-06	381.69	171.54	0.00027174	4.4152e-06	139.11	65.458	77.515	40.214	0.00011494	32.479	0.00014618	5.3071e-05	1.385e-05	499.95	6.1888e-07	9.4992e-07	359.85	163.69	6.0116e-05	5.7341e-07	131.25	61.737	73.478	40.971	1.1916e-05	31.114	18.275	-87.957	-72.980	-157.644	2.514	1.396	-158.212	-150.532	40.897	-40.787	-153.920	-150.911	-147.534	-141.781	184.791	-147.399	-8191	255	
2751.437	1	1	0	0	0.24611	0.20014	0.10057	0.1267	0.052887	0.028872	0.10396	0.27204	0.10789	0.13737	0.25209	0.21034	0.27451	0.18064	0.090165	0.1236	-2.6312	-3.2792	-3.4708	-3.1521	-3.2687	-3.3021	-2.8396	-3.3479	-3.1292	-3.1479	-3.3375	-3.1417	-3.2208	-3.3187	-2.9583	-3.4458	-156.294	-102.454	-166.933	97.237	150.676	-67.010	-150.055	-166.620	9.434	-55.315	147.499	186.002	-66.371	-20.644	-76.406	75.118	0.00086905	0.00036757	5.4261e-05	478.16	2.9917e-06	3.3214e-06	380.58	169.44	0.0001494	3.3399e-06	134.51	62.228	75.176	39.387	0.00016668	31.322	0.00014487	6.7199e-05	1.4773e-05	526.99	5.9636e-07	6.767e-07	358.96	161.62	4.2585e-05	6.5206e-07	127.69	59.46	71.515	37.835	5.1493e-05	29.843	18.502	-77.326	-73.123	-157.090	-44.968	13.053	-158.581	-150.785	52.883	8.674	-154.346	-150.581	-147.804	-142.201	188.225	-147.668	-8191	255	
2751.557	1	1	0	0	0.11326	0.10881	0.035528	0.12968	0.053464	0.11225	0.11982	0.22303	0.26826	0.10469	0.21091	0.23573	0.17717	0.40904	0.087571	0.22875	-2.7771	-3.075	-3.5083	-3.0542	-3.2125	-3.3896	-2.8354	-3.5771	-3.0625	-3.0125	-3.4188	-3.1354	-3.1604	-3.4354	-2.9521	-3.2938	145.914	59.386	67.904	171.483	-118.396	43.034	17.997	-91.632	-130.652	-110.365	-158.225	32.079	-154.161	121.146	27.525	146.594	0.00092975	0.00032021	6.8051e-05	462.35	2.4392e-06	5.182e-06	369.39	168.24	0.00025349	2.2582e-06	135.85	63.104	75.483	39.867	0.00012291	31.522	0.00013759	5.9265e-05	1.4205e-05	488.34	6.1285e-07	5.5842e-07	349.98	159.9	5.8633e-05	7.2213e-07	127.51	59.667	71.765	38.22	4.3439e-05	30.243	20.106	-100.930	-50.726	-156.931	-32.585	0.977	-158.437	-150.411	56.766	-44.598	-154.137	-150.477	-147.234	-142.323	166.104	-146.986	-8191	255	
2751.629	1	1	0	0	0.096217	0.084043	0.14553	0.12893	0.037932	0.077159	0.14508	0.13093	0.25311	0.13377	0.25702	0.022087	0.26774	0.25177	0.096569	0.090874	-2.6625	-2.9667	-3.375	-3.1042	-3.2146	-3.4229	-3.0687	-3.2792	-3.0792	-2.8104	-3.3187	-3.2458	-3.1875	-3.3917	-3.0292	-3.2438	68.225	-111.472	85.184	93.675	-161.237	-87.043	78.611	-124.470	-79.366	-50.168	139.440	-66.210	135.401	129.590	173.074	-43.519	0.00091857	0.00028706	9.5781e-05	476.37	3.1843e-06	2.5944e-06	378.25	170.39	0.00018232	2.1009e-05	137.69	64.213	76.747	39.987	0.00016479	32.073	0.00012977	6.6061e-05	1.3592e-05	520.69	6.2203e-07	5.287e-07	357.28	162.15	2.3796e-05	1.395e-05	130.25	60.655	72.893	38.554	6.0513e-05	30.688	15.988	-43.528	-104.408	-156.795	-54.466	-26.812	-157.959	-150.550	48.813	131.536	-154.209	-150.621	-147.412	-141.971	165.777	-147.667	-8191	255	
2751.748	1	1	0	0	0.070514	0.30928	0.25093	0.21162	0.020897	0.11583	0.035977	0.11131	0.10756	0.079498	0.03833	0.15964	0.14776	0.13385	0.27409	0.274	-2.8458	-2.6646	-3.55	-3.1958	-2.9708	-3.4417	-2.9771	-3.2021	-3.2833	-3.0125	-3.3479	-3.0042	-2.9771	-3.4813	-2.9833	-3.2604	187.677	-86.644	-91.573	119.083	90.218	-149.128	59.797	-58.361	37.174	29.927	-61.195	-121.897	-78.072	-63.245	-151.444	119.164	0.00087355	0.00033934	5.5377e-05	475.01	1.089e-06	2.9245e-06	385.07	173.83	5.7201e-06	4.164e-05	141.12	65.247	77.352	40.602	0.00010727	32.245	0.00010997	8.9781e-05	1.4877e-05	501.24	7.1055e-07	5.6966e-07	363.89	164.77	6.961e-07	5.6972e-05	133.12	61.921	73.519	38.95	4.3705e-05	30.957	19.172	-27.448	-66.031	-156.454	-55.353	-34.199	-158.203	-150.849	0.696	137.927	-154.613	-150.710	-147.156	-142.179	168.690	-147.241	-8191	255	
2751.844	1	1	0	0	0.076265	0.12342	0.15017	0.10749	0.1675	0.13174	0.12323	0.31622	0.044924	0.23488	0.14642	0.15874	0.22628	0.11345	0.1047	0.14983	-2.9208	-3.0042	-3.3146	-3.3021	-2.9313	-3.5021	-3.1333	-3.3604	-3.2854	-2.9021	-3.3458	-3.3458	-2.9958	-3.5458	-3.0146	-3.0958	122.026	-106.907	176.659	-157.039	133.520	-160.079	121.820	-68.939	137.947	-86.298	25.406	182.269	85.585	79.763	71.125	-92.497	0.00087567	0.00031188	8.4621e-05	475.37	3.4587e-06	3.1676e-06	372.85	167.56	5.3591e-06	0.0001236	133.38	62.342	75.207	39.531	0.00016587	31.292	0.00010443	0.00010598	1.3398e-05	519.33	7.6262e-07	5.6389e-07	353.24	160.17	6.0614e-07	4.3842e-05	126.87	59.169	71.501	37.915	5.9058e-05	29.841	18.335	-64.824	-90.531	-156.542	-39.410	-25.962	-157.982	-150.576	-21.056	48.442	-154.236	-150.283	-147.485	-142.426	179.009	-147.368	-8191	255	
2751.940	1	1	0	0	0.093217	0.15584	0.1551	0.14161	0.16586	0.11616	0.26657	0.097418	0.012977	0.19307	0.094715	0.21035	0.1285	0.13839	0.049011	0.27502	-3.025	-2.9083	-3.3021	-3.3438	-2.9479	-3.4521	-3.1167	-3.225	-3.4875	-2.9917	-3.2875	-3.1417	-2.7687	-3.5479	-3.2562	-3.1854	64.411	-99.479	-94.665	-163.859	-123.269	-82.035	-43.241	33.534	18.686	34.779	94.104	60.827	41.848	141.618	187.059	173.646	0.00087775	0.00029539	5.3973e-05	465.56	7.5072e-05	2.7113e-06	377.95	169.33	6.125e-06	0.00017637	137.65	63.884	76.337	40.061	0.00012176	32.24	9.4689e-05	9.9346e-05	1.3831e-05	464.88	1.5378e-05	5.1111e-07	357.2	161.92	6.0428e-07	6.1385e-05	129.51	60.507	72.432	38.432	4.3314e-05	30.653	15.385	-57.992	-88.699	-155.282	-108.060	-29.199	-158.142	-150.510	-43.618	57.970	-153.775	-150.538	-147.384	-142.323	-166.165	-147.282	-8191	255	
2752.036	1	1	0	0	0.40045	0.10793	0.10676	0.083516	0.32377	0.11512	0.14371	0.085129	0.035354	0.16005	0.25866	0.13827	0.31028	0.2936	0.19487	0.21614	-3.075	-3.0042	-3.2604	-3.2812	-3.0833	-3.3333	-3.425	-3.0104	-3.45	-2.9313	-3.3229	-3.4938	-2.8583	-3.4083	-3.1604	-2.9333	-59.713	19.187	-14.239	-89.629	-84.318	103.338	82.051	3.279	-111.054	-71.253	123.372	91.175	135.244	-168.562	10.891	50.103	0.00096713	0.00030042	7.5483e-05	464.59	0.00010189	1.6064e-06	381.42	172.27	7.7854e-06	0.00010532	139.52	65.034	76.973	40.249	0.00015052	32.541	0.00010363	0.00010673	1.4186e-05	439.88	5.6653e-05	5.2545e-07	360.19	163.15	6.4983e-07	4.2599e-05	131.1	61.112	73.084	38.641	5.9818e-05	30.948	17.903	-16.451	-95.787	-156.187	-106.615	-50.268	-158.249	-150.775	-10.605	61.372	-154.514	-150.380	-147.597	-142.390	-161.897	-147.407	-8191	255	
2752.133	1	1	0	0	0.2403	0.24741	0.14476	0.18382	0.20266	0.17661	0.10759	0.21896	0.18497	0.1637	0.13323	0.23549	0.37918	0.16836	0.11074	0.22928	-3.1125	-3.1125	-3.1958	-3.4542	-3.0167	-3.4	-3.2771	-2.975	-3.4271	-3.1208	-3.1729	-3.4167	-3.1083	-3.5938	-3.2562	-2.9688	-70.512	-35.710	-113.473	78.291	1.119	153.281	112.573	142.341	1.440	-100.767	185.896	180.342	113.922	-89.886	89.491	146.198	0.00090366	0.00027258	8.5051e-05	467.88	0.0001035	2.6917e-06	383.77	171.05	5.9484e-06	0.00016489	138.29	63.579	75.629	39.553	1.5886e-05	31.417	0.00010164	9.7059e-05	1.5423e-05	443.66	4.2493e-05	5.3062e-07	364.66	163.66	6.1214e-07	6.0825e-05	130.55	60.297	72.079	38.014	1.9768e-05	31.672	17.565	-29.993	-66.291	-155.845	-45.063	-7.772	-158.333	-150.782	-3.693	76.832	-154.446	-150.969	-147.481	-142.608	99.197	-148.925	-8191	255	
2752.229	1	1	0	0	0.055547	0.14458	0.15667	0.20308	0.016359	0.026622	0.15064	0.30855	0.24745	0.26538	0.054382	0.10485	0.13196	0.31121	0.15711	0.2137	-3.1375	-3.0104	-3.1625	-3.5042	-2.8396	-3.4458	-3.3542	-2.9813	-3.4313	-3.2729	-3.0687	-3.4708	-3.0854	-3.3417	-3.3083	-3.0229	-70.602	131.154	-44.890	52.122	-105.111	-116.397	92.964	-141.079	151.989	165.107	-69.081	-125.927	-161.616	-140.624	-109.933	181.978	0.00084408	0.00033567	8.1807e-05	454.98	0.00013003	2.0068e-06	365.18	166.78	4.8177e-06	0.00011651	134.14	62.643	74.537	39.188	3.0034e-06	31.307	9.9015e-05	8.9674e-05	1.787e-05	431.29	5.7847e-05	5.4866e-07	347.85	159.15	6.1271e-07	4.236e-05	126.67	58.914	71.127	37.689	6.628e-07	36.066	13.090	-61.697	-67.561	-156.364	-39.330	30.850	-158.172	-150.911	12.328	66.506	-154.125	-150.753	-147.512	-142.279	-45.573	-149.703	-8191	255	
2752.325	1	1	0	0	0.22082	0.13796	0.021208	0.22215	0.0060198	0.14947	0.11124	0.21925	0.029823	0.19337	0.025789	0.12118	0.17004	0.2699	0.24319	0.071084	-3.0312	-3.2	-3.1063	-3.4542	-3	-3.2417	-3.4083	-2.9167	-3.2646	-3.0333	-2.8917	-3.5292	-3.2125	-3.2938	-3.3063	-2.8688	58.684	128.530	54.083	-104.555	101.948	-24.579	3.830	-86.443	64.598	-97.912	101.104	-107.019	-91.716	169.189	-86.498	101.769	0.00084622	0.00023584	8.8881e-05	459.42	0.00010791	3.1674e-06	372.72	169.46	6.5893e-06	0.00015642	135.93	63.366	75.584	39.648	2.5912e-06	32.19	9.7132e-05	8.542e-05	1.7519e-05	435.06	4.1306e-05	5.7099e-07	354.32	161.01	6.3427e-07	6.0233e-05	128.7	59.831	71.94	38.181	6.515e-07	34.927	13.073	-52.148	-72.455	-156.228	-32.808	-38.120	-157.963	-150.574	11.769	81.065	-154.284	-150.697	-147.736	-142.337	-70.889	-148.975	-8191	255	
2752.421	1	1	0	0	0.2596	0.12713	0.27879	0.20921	0.21201	0.096427	0.19946	0.11244	0.089616	0.19349	0.081248	0.13093	0.070625	0.27219	0.26307	0.11038	-2.9271	-3.2792	-2.9083	-3.475	-3.1042	-3.2188	-3.375	-2.9	-3.1396	-3.1813	-2.9229	-3.275	-2.9437	-2.9917	-3.4354	-2.9667	-143.879	44.950	182.786	97.667	-128.217	84.956	-95.970	134.832	63.051	-24.063	-67.509	-26.761	-36.911	81.741	176.370	-127.892	0.00087998	0.00026789	7.0482e-05	461.05	0.00014889	3.1268e-06	381.02	170.99	4.4315e-06	0.00011187	135.09	64.539	75.99	40.189	3.2613e-06	32.874	0.00010389	8.2704e-05	1.9667e-05	437.68	5.9471e-05	6.9074e-07	360.62	163.03	5.8401e-07	1.8633e-05	145.5	61.167	72.872	38.743	6.2439e-07	37.49	17.914	-58.529	-82.354	-156.289	-32.927	-9.249	-158.204	-150.889	-42.131	52.384	-155.243	-151.030	-147.460	-142.415	-52.714	-149.224	-8191	255	
2752.517	1	1	0	0	0.063339	0.038781	0.074201	0.16663	0.086669	0.20522	0.23234	0.11887	0.34869	0.12001	0.22637	0.048548	0.060566	0.27938	0.24182	0.25757	-2.8812	-3.3396	-2.7917	-3.4875	-2.9979	-3.025	-3.6125	-2.9792	-3.3125	-3.3688	-2.8229	-3.3583	-3.0771	-3.0146	-3.4375	-3.0771	101.645	0.596	62.400	7.010	-30.766	-60.962	-24.622	-41.627	96.943	61.769	147.069	-98.981	-100.330	-148.988	158.468	7.865	0.00080958	0.00038047	9.6823e-05	464.85	0.00011085	2.3148e-06	375.68	169.25	6.9597e-06	2.3544e-06	127.7	61.894	74.139	39.106	3.5839e-06	31.159	0.00010593	5.762e-05	2.4931e-05	440.99	4.251e-05	6.6945e-07	355	160.85	6.5712e-07	5.0275e-07	171.78	58.61	70.946	37.592	6.1352e-07	33.917	20.026	-65.339	-95.906	-156.462	-17.288	-6.742	-158.269	-150.907	-15.854	-33.478	-152.755	-150.649	-147.484	-142.121	-34.506	-148.889	-8191	255	
2752.638	1	1	0	0	0.24905	0.20361	0.039165	0.23442	0.12644	0.031308	0.12654	0.083587	0.21328	0.14343	0.19383	0.099523	0.096787	0.21351	0.22412	0.17	-2.6417	-3.2583	-2.9792	-3.3917	-3.1646	-3.0563	-3.4375	-3.0062	-3.1521	-3.4604	-2.9062	-3.3896	-3.2104	-3.0229	-3.3625	-3.0729	128.233	-120.249	-56.888	-107.153	152.304	-72.934	46.894	23.120	-94.666	-20.546	135.353	-35.182	62.774	157.529	-133.060	-146.144	0.00086754	0.00020923	7.1557e-05	453.17	0.0001415	4.7394e-06	369.72	166.01	6.228e-06	4.2415e-06	130.64	62.354	74.827	39.31	1.8048e-06	31.972	0.0001031	4.879e-05	2.8111e-05	429.25	5.6552e-05	7.3436e-07	349.37	158.93	6.2299e-07	5.6262e-07	159.29	59.157	71.416	37.863	6.2266e-07	36.291	20.019	-109.084	-64.075	-155.993	8.305	-5.121	-158.174	-150.711	-15.887	-26.002	-153.781	-150.636	-147.680	-142.248	-50.687	-149.270	-8191	255	
2752.732	1	1	0	0	0.047398	0.0044121	0.12496	0.23274	0.18609	0.17903	0.30873	0.045821	0.19607	0.040673	0.29817	0.092577	0.10506	0.12247	0.064653	0.14499	-2.4771	-3.2896	-2.9083	-3.2667	-3.3354	-2.8521	-3.5979	-3.0521	-2.975	-3.4333	-2.9604	-3.375	-3.3	-2.9313	-3.3271	-3.2562	-72.686	99.114	-157.648	131.705	-85.635	37.847	49.260	169.672	117.217	81.037	152.787	153.118	-110.019	66.581	182.101	103.651	0.0009545	0.00020075	9.2959e-06	460.14	0.00010647	3.9634e-05	374.8	171.08	5.8426e-06	5.1748e-06	128.73	63.993	75.904	39.87	3.5745e-06	32.111	0.00011036	5.1506e-05	2.622e-05	436.19	1.5906e-05	2.0994e-05	355.29	162.14	7.7463e-07	5.3409e-07	174.62	60.401	72.095	38.27	6.0831e-07	34.85	15.975	-71.932	-72.350	-155.994	5.964	-70.845	-157.791	-150.923	-53.455	-40.791	-152.952	-150.375	-147.544	-142.020	-38.030	-148.746	-8191	255	
2752.830	1	1	0	0	0.21414	0.18607	0.14656	0.17974	0.067398	0.18064	0.12545	0.14608	0.060267	0.19877	0.1094	0.27191	0.27909	0.243	0.14153	0.089154	-2.5333	-3.3667	-2.9042	-3.2458	-3.4458	-2.8271	-3.4292	-3.1292	-2.9875	-3.3958	-2.9521	-3.2354	-3.3583	-2.9958	-3.2438	-3.2125	134.696	50.023	-59.166	-17.328	-9.275	120.301	161.801	-137.618	-91.127	-1.180	-12.383	130.746	-140.450	170.269	-104.092	-119.931	0.00092325	0.0002145	2.8909e-05	463.16	3.5567e-06	0.00015259	382.05	171.57	5.7758e-06	2.7921e-06	132.63	64.729	76.895	39.946	3.9309e-06	31.564	0.00011139	5.5346e-05	2.894e-05	440.27	6.4241e-07	6.1122e-05	361.08	163.37	7.4108e-07	5.7637e-07	163.16	60.885	72.464	38.345	6.4005e-07	35.912	16.851	-46.957	-78.278	-156.183	-45.192	5.368	-158.656	-151.026	-7.207	-44.708	-153.912	-150.906	-147.813	-142.221	-72.850	-147.032	-8191	255	
2752.925	1	1	0	0	0.30444	0.24451	0.26718	0.16344	0.14867	0.287	0.24481	0.16516	0.11457	0.079189	0.22071	0.15557	0.13401	0.072665	0.04083	0.044769	-2.4479	-3.3688	-2.9583	-3.1042	-3.2979	-2.8354	-3.2708	-3.2625	-2.9583	-3.6354	-3.0354	-2.9	-3.3979	-2.9771	-3.2146	-3.2833	21.836	-168.464	29.965	189.902	132.884	1.240	76.612	102.088	132.820	133.313	28.367	-24.592	-145.929	161.705	-52.436	-54.841	0.00091404	0.00023269	9.1215e-05	455.54	2.3969e-06	0.00012517	369.95	166.56	5.884e-06	3.2082e-06	125.38	61.622	74.572	38.991	4.1493e-06	31.046	0.00011912	4.871e-05	2.6934e-05	432.39	6.0568e-07	4.3039e-05	348.24	158.97	8.7044e-07	5.6159e-07	170.1	58.436	70.696	37.518	6.2454e-07	30.919	16.500	-88.705	-95.980	-156.170	-53.362	15.476	-158.248	-150.775	-42.591	-33.351	-154.228	-150.541	-147.445	-142.409	-53.944	-147.094	-8191	255	
2753.021	1	1	0	0	0.20952	0.085116	0.16096	0.10501	0.14501	0.068036	0.29299	0.20774	0.034251	0.20966	0.12803	0.16238	0.045609	0.28927	0.10025	0.13902	-2.4146	-3.325	-2.9375	-3.1083	-3.3688	-2.9938	-3.25	-3.375	-2.925	-3.4625	-3.1312	-3.025	-3.5708	-3.0312	-3.2521	-3.2854	-102.771	-50.456	-118.379	53.237	-60.874	30.296	-99.965	-141.049	158.871	-109.100	133.577	114.824	161.560	168.449	38.215	-64.990	0.0040771	0.00016727	8.1677e-05	455.09	2.5341e-06	0.00016758	373.59	168.68	7.4794e-06	4.1436e-06	130.02	62.722	75.758	39.494	4.092e-06	31.205	0.0018801	5.2871e-05	2.6426e-05	432.56	6.097e-07	6.0016e-05	352.24	160.37	1.0571e-06	5.4208e-07	159.26	59.509	71.664	37.991	6.9107e-07	29.998	-3.097	-122.209	-34.524	-156.032	-16.335	24.051	-158.392	-150.891	-38.667	-28.068	-155.076	-150.827	-147.697	-142.494	-49.440	-147.337	-8191	255	
2753.117	1	1	0	0	0.20965	0.16417	0.071635	0.33277	0.22307	0.098334	0.1643	0.13884	0.10494	0.24128	0.075986	0.25364	0.1959	0.12934	0.1478	0.14735	-2.5167	-3.4229	-3.1688	-2.9958	-3.6188	-3.1708	-3.1854	-3.4375	-2.9792	-3.4167	-3.1229	-2.8688	-3.3375	-3.1083	-3.2583	-3.3375	-74.395	-83.978	190.019	154.311	126.803	-148.631	138.835	182.518	-78.256	-96.673	-35.773	-12.058	-57.581	-158.947	-164.426	-102.680	0.0056625	0.00039075	1.6351e-05	457.58	2.7824e-06	0.00011315	375.88	169.88	7.5625e-06	4.6644e-06	134.56	63.929	76.409	39.95	2.6789e-06	31.926	0.0048747	5.7018e-05	2.3556e-05	435.63	5.8646e-07	4.2025e-05	355.24	161.69	1.2264e-06	5.6661e-07	170.08	60.439	72.349	38.408	7.3411e-07	30.641	20.650	-74.136	16.907	-156.261	-11.930	26.272	-157.920	-150.604	-55.743	-47.474	-152.861	-150.673	-147.232	-142.131	-73.222	-147.268	-8191	255	
2753.237	1	1	0	0	0.11871	0.064141	0.029372	0.13799	0.12023	0.3085	0.26357	0.083554	0.21415	0.17347	0.065197	0.069647	0.098345	0.21224	0.10602	0.14451	-2.6646	-3.2396	-3.2062	-3.0104	-3.4313	-3.0062	-3.2292	-3.3375	-3.0312	-3.4813	-3.2333	-2.9417	-3.4292	-3.35	-3.1562	-3.5604	-149.509	-58.488	104.401	187.396	28.932	-128.528	141.998	-152.040	136.240	164.314	165.860	-44.840	146.504	16.709	-137.443	123.233	0.0046533	0.00029638	0.00011836	466.48	2.6944e-06	0.0001621	383.82	169.76	9.5312e-06	4.174e-06	134.19	62.106	74.694	39.122	3.0916e-06	30.636	0.0035332	5.3539e-05	2.096e-05	442.06	6.0367e-07	6.1273e-05	361.05	162.38	1.1133e-06	6.1274e-07	137.25	64.59	70.853	37.599	7.5281e-07	29.424	23.087	-67.651	-57.695	-156.029	-62.666	35.840	-158.221	-150.972	-25.350	-31.983	-153.118	-151.765	-147.456	-142.453	-43.633	-147.562	-8191	255	
2753.334	1	1	0	0	0.19629	0.14081	0.063257	0.26881	0.082986	0.26756	0.054212	0.20462	0.21733	0.052696	0.060321	0.27286	0.11041	0.2306	0.10854	0.22932	-2.575	-3.2458	-3.2854	-2.8542	-3.6396	-3.1958	-2.9729	-3.4062	-3.0854	-3.2458	-3.2542	-2.8625	-3.3458	-3.2542	-2.8458	-3.4896	122.223	34.807	-10.791	60.243	105.055	174.908	31.972	-127.323	65.220	48.686	168.062	146.741	-136.488	-87.411	54.879	53.784	0.0055457	0.00043898	7.4926e-05	452.33	3.4529e-06	0.00010583	364.18	166.21	6.8183e-06	3.7132e-06	132.99	59.367	74.16	39.122	2.8256e-06	31.272	0.0048148	5.3125e-05	1.5307e-05	428.26	6.4743e-07	4.157e-05	345.66	158.52	1.2337e-06	5.7208e-07	125.35	71.551	70.499	37.464	7.8397e-07	29.731	31.378	-68.740	-90.584	-156.209	-34.942	45.575	-158.091	-150.683	-30.285	-38.952	-154.323	-151.934	-147.758	-142.397	-48.770	-147.391	-8191	255	
2753.430	1	1	0	0	0.037693	0.16536	0.067279	0.088547	0.16256	0.11313	0.12623	0.1198	0.13525	0.13454	0.14989	0.13788	0.13069	0.2029	0.024084	0.064782	-2.4375	-3.1583	-3.3438	-2.9313	-3.4167	-3.1375	-2.9917	-3.3438	-3.0875	-3.1771	-3.4146	-2.8833	-3.3604	-3.3937	-2.9646	-3.5146	-72.425	21.881	-42.457	101.725	-35.242	91.211	139.927	-52.198	-112.117	20.540	149.284	112.186	127.050	21.215	-163.817	58.468	0.0044194	0.00019774	8.0478e-05	459.42	3.4262e-06	0.00017	371.48	169.63	7.6511e-06	3.1164e-06	135.76	61.195	75.177	39.313	2.3361e-06	31.496	0.0034894	5.6001e-05	1.5318e-05	434.52	5.8976e-07	5.1125e-05	351.91	160.58	1.0508e-06	6.12e-07	128.34	68.692	71.369	37.904	9.3819e-07	29.991	36.276	-78.045	-76.274	-155.953	-47.689	37.957	-158.256	-150.679	-34.203	-54.539	-154.200	-151.745	-147.658	-142.357	-45.651	-147.279	-8191	255	
2753.526	1	1	0	0	0.25202	0.13687	0.053094	0.20365	0.22478	0.11519	0.16532	0.04958	0.094351	0.025039	0.12406	0.31451	0.10771	0.12511	0.083823	0.24724	-2.7104	-3.3167	-3.3417	-3.0563	-3.4104	-3.2458	-2.9104	-3.4625	-3.3125	-3.2146	-3.4646	-3.05	-3.325	-3.3063	-2.8979	-3.3583	65.693	146.044	-12.227	-167.915	149.092	-39.344	-148.346	152.422	-163.296	34.836	122.796	-85.377	62.521	136.165	-45.148	-139.944	0.0054757	0.00018422	0.00010422	462.04	3.0733e-06	0.00013115	375.54	170.36	3.391e-06	3.2116e-06	136.69	62.42	76.282	39.875	2.4851e-06	31.607	0.0048944	6.566e-05	1.4918e-05	437.88	5.9478e-07	1.0717e-05	386.64	161.98	1.0388e-06	7.4179e-07	129.6	74.368	72.437	38.308	1.1943e-06	30.267	45.059	-60.426	-88.026	-155.826	-43.469	40.875	-157.898	-150.722	-31.438	-32.989	-154.254	-152.446	-147.634	-142.184	-14.736	-147.500	-8191	255	
2753.622	1	1	0	0	0.03521	0.10545	0.029986	0.079166	0.29835	0.082893	0.12809	0.10081	0.1182	0.21238	0.11947	0.15726	0.11912	0.30931	0.073868	0.099017	-2.7687	-2.8937	-3.4667	-2.9479	-3.3063	-3.3396	-3.1188	-3.375	-3.2354	-2.9854	-3.3792	-2.9583	-3.1542	-3.2521	-2.8542	-3.2313	-2.235	-52.756	98.456	-16.535	-143.227	106.395	106.918	119.651	158.209	99.253	51.167	121.267	-0.969	-156.495	179.636	-99.017	0.0043875	0.00033732	0.00010136	461.49	3.2793e-06	3.7389e-06	362.06	167.35	2.662e-06	3.4869e-06	132.35	60.757	73.85	38.91	3.6165e-06	30.521	0.0035979	6.8536e-05	1.4724e-05	436.44	5.6393e-07	6.0337e-07	420.1	159.5	1.0358e-06	7.0069e-07	125.07	68.184	70.558	37.37	1.1578e-06	29.183	46.679	-93.451	-65.364	-156.094	-57.660	2.024	-156.905	-150.795	-25.800	-18.243	-154.136	-151.786	-147.884	-142.645	-22.995	-147.679	-8191	255	
2753.716	1	1	0	0	0.14448	0.056276	0.073116	0.090576	0.19109	0.10211	0.095123	0.36192	0.21316	0.05874	0.17132	0.11075	0.085056	0.19088	0.26102	0.019088	-2.8312	-2.9125	-3.2333	-3.1458	-3.1188	-3.2271	-2.9562	-3.2625	-3.225	-2.925	-3.2875	-3.1521	-2.9333	-3.4125	-2.9062	-3.1396	126.726	-91.527	58.751	164.481	119.298	-88.137	53.699	132.747	162.465	6.282	34.334	1.190	154.376	173.201	-166.623	-139.168	0.0036095	0.0087091	8.6289e-05	452.81	2.5555e-06	5.0695e-07	360.6	168.4	5.8993e-06	4.8321e-06	134.38	61.015	75.368	39.198	3.7095e-06	31.064	0.0039714	0.000248	1.3342e-05	430.66	6.2089e-07	5.7764e-07	398.4	159.74	8.1518e-07	8.871e-07	126.62	72.851	71.362	37.708	1.1312e-06	29.695	96.389	-158.948	-85.012	-156.113	-59.177	-99.402	-157.622	-151.013	-17.802	-47.511	-154.623	-152.811	-148.018	-142.388	-8.536	-147.429	-8191	255	
2753.813	1	1	0	0	0.20176	0.1227	0.063881	0.058333	0.097556	0.27596	0.11003	0.25896	0.2453	0.25909	0.25744	0.18026	0.22671	0.05949	0.065062	0.043419	-2.9083	-2.7	-3.45	-3.0875	-3.1063	-3.4021	-2.9688	-3.225	-3.3333	-2.9021	-3.3833	-3.2104	-2.8812	-3.4396	-2.9854	-3.1375	188.175	188.101	121.466	-40.065	-55.824	161.146	-130.467	-140.289	-26.874	39.645	-149.425	-43.034	-57.420	-81.356	1.919	-9.935	0.002941	0.0058217	6.6169e-05	458.08	1.9467e-06	4.3514e-06	363.83	169.07	4.5087e-06	4.1332e-06	135.61	62.291	75.953	39.677	4.5187e-06	31.812	0.00079422	0.0025856	1.5221e-05	435.93	7.5502e-07	5.7557e-07	424.36	161.03	6.6226e-07	1.0667e-06	128.64	69.654	72.097	38.126	1.1657e-06	30.228	93.655	-162.430	-99.899	-156.071	-41.735	-9.489	-156.862	-150.695	-50.085	-19.474	-154.073	-151.981	-147.257	-142.274	12.359	-147.803	-8191	255	
2753.933	1	1	0	0	0.06376	0.16521	0.17947	0.18208	0.10751	0.12668	0.2091	0.17322	0.14749	0.24264	0.17967	0.23429	0.17125	0.13109	0.19256	0.035521	-2.8125	-3.0042	-3.4583	-3.0938	-3.0042	-3.4604	-2.9854	-3.0563	-3.2125	-2.8875	-3.4458	-3.1458	-3.1604	-3.4271	-3.0625	-3.2854	17.820	-134.738	78.743	73.442	-101.832	-97.277	-83.557	137.365	-52.644	24.812	93.310	119.401	116.286	96.722	158.133	57.443	0.0010066	0.014662	7.0552e-05	463.99	2.6701e-06	2.1482e-06	369.72	171.84	3.8537e-06	4.1007e-06	136.99	63.835	75.051	39.663	4.047e-06	31.159	0.00010469	0.0055454	1.4336e-05	440.13	7.6621e-07	5.8193e-07	410.46	163.29	6.0257e-07	1.151e-06	129.98	70.999	73.061	37.977	1.024e-06	29.698	17.162	-96.046	-60.747	-155.434	-72.768	-39.675	-157.809	-150.828	-2.852	-35.488	-154.101	-150.894	-148.983	-142.119	-10.332	-147.398	-8191	255	
2754.029	1	1	0	0	0.1882	0.17032	0.19115	0.20767	0.14146	0.083341	0.11961	0.13259	0.31456	0.19632	0.091333	0.22669	0.090944	0.058645	0.19391	0.051885	-3.2521	-2.9979	-3.4583	-3.3479	-3.1104	-3.3146	-3.0354	-3.0687	-3.3771	-3.0833	-3.2729	-3.3208	-2.9417	-3.3792	-3.0875	-3.0229	133.517	-130.840	-34.138	106.776	-27.613	107.617	29.568	-113.506	-153.458	103.680	46.304	83.719	-106.384	-147.904	25.316	79.703	0.00088892	0.0098202	0.00011322	455.27	2.4886e-06	3.9255e-06	353.23	167.08	5.122e-06	5.4736e-06	132.55	61.365	73.145	38.742	4.7083e-06	30.522	0.00010005	0.0039137	1.4324e-05	431.19	8.6032e-07	5.4585e-07	414.69	158.34	5.8429e-07	9.8984e-07	124.79	59.326	76.541	37.216	1.0596e-06	29.142	21.047	-92.125	-85.927	-156.136	-46.074	-19.841	-157.746	-151.054	-20.156	-49.726	-154.347	-150.546	-148.765	-142.187	3.480	-147.276	-8191	255	
2754.101	1	1	0	0	0.070081	0.12631	0.13257	0.18709	0.17691	0.016039	0.17536	0.06401	0.27449	0.25501	0.22987	0.18012	0.058124	0.25067	0.20039	0.13551	-2.9771	-2.8312	-3.3479	-3.2458	-2.9375	-3.4229	-3.2313	-3.0583	-3.5625	-2.9271	-3.4021	-3.4479	-2.8146	-3.4729	-3.0458	-3.1188	-107.177	-28.400	63.857	71.654	-142.141	-52.597	115.705	-130.580	-167.186	65.478	43.219	165.951	-40.670	165.749	27.514	158.682	0.00082986	0.014504	6.5132e-05	456.66	3.2042e-06	3.9258e-06	364.36	167.29	5.5602e-06	5.1727e-06	134.57	62.006	74.151	39.31	3.6576e-06	30.968	9.9015e-05	0.0054091	1.5856e-05	432.91	1.0685e-06	5.3728e-07	398.05	159.58	6.2142e-07	1.0861e-06	126.81	58.585	83.559	37.776	1.0117e-06	29.609	17.927	-81.382	-90.266	-156.397	-51.008	-18.933	-157.798	-150.795	-22.535	-23.965	-154.158	-150.902	-149.008	-142.171	-67.246	-147.729	-8191	255	
2754.197	1	1	0	0	0.28012	0.13588	0.19874	0.30969	0.12987	0.16592	0.17976	0.033487	0.069376	0.21702	0.18018	0.064919	0.030328	0.085019	0.23586	0.21786	-3.15	-3.0396	-3.1771	-3.35	-3.0312	-3.3292	-3.1208	-2.8563	-3.4708	-3.1937	-3.2188	-3.4562	-3.0042	-3.5812	-3.2417	-2.8563	-98.880	125.833	-1.247	-106.947	-162.716	96.770	129.227	-79.881	-54.262	-9.368	-127.661	169.527	55.990	185.403	-139.685	100.590	0.00080154	0.0094861	8.3531e-05	460.23	4.6193e-06	3.2909e-06	368.39	166.51	5.3538e-06	3.0634e-06	136.8	62.832	75.353	39.684	4.1398e-06	31.422	0.00010066	0.0038726	1.4791e-05	435.54	1.161e-06	5.4955e-07	404.65	164.54	6.207e-07	9.7446e-07	129.16	59.537	80.51	38.142	8.489e-07	30.135	16.814	-75.130	-89.443	-156.259	-48.865	-16.274	-156.598	-151.493	-17.157	-36.896	-154.623	-150.607	-148.785	-142.585	-2.556	-147.415	-8191	255	
2754.318	1	1	0	0	0.051497	0.13596	0.26403	0.2472	0.10401	0.07678	0.074614	0.25144	0.14213	0.049129	0.13086	0.28315	0.25869	0.14255	0.27444	0.13195	-3.1125	-3.1562	-3.0396	-3.4208	-2.8708	-3.3708	-3.3771	-2.9479	-3.5354	-3.1792	-3.1396	-3.4333	-3.1083	-3.4062	-3.3771	-2.7646	90.434	-76.828	166.833	119.982	38.735	-131.141	-155.321	102.429	63.335	-105.679	-84.953	73.449	-157.325	-128.551	131.959	-50.427	0.00090961	0.013738	7.2969e-05	460.8	3.2204e-06	4.3291e-06	368.79	168.69	6.7385e-06	2.2711e-06	134.02	61.531	73.961	38.814	2.8999e-06	30.288	0.0001018	0.0055491	1.9133e-05	439.76	1.0983e-06	5.4674e-07	359.42	174.8	6.4641e-07	1.0167e-06	126.05	58.389	82.976	37.327	6.1918e-07	29.018	17.397	-69.210	-82.965	-156.032	-84.152	-35.235	-157.530	-150.888	-22.780	-31.015	-154.454	-150.646	-149.422	-142.418	-23.453	-147.371	-8191	255	
2754.414	1	1	0	0	0.13056	0.19258	0.10738	0.1633	0.16363	0.16209	0.19324	0.17453	0.1885	0.23708	0.28881	0.044739	0.16922	0.23379	0.22492	0.094177	-3.0979	-3.1417	-2.8854	-3.5083	-3.1271	-3.2313	-3.4583	-2.7792	-3.2896	-3.2188	-2.9	-3.4521	-3.15	-3.1854	-3.3167	-3.0708	109.496	-97.726	4.539	-163.419	183.341	39.470	118.414	172.231	88.805	-21.894	169.946	120.315	-78.645	144.684	184.985	-136.319	0.00084917	0.0096035	2.7562e-05	452.85	1.4541e-06	3.8943e-06	367.6	161.9	6.0361e-06	4.3022e-06	132.29	61.461	75.346	39.038	2.8569e-06	30.456	9.9623e-05	0.0038518	1.8139e-05	429.62	1.1098e-06	5.6966e-07	346.56	183.95	5.9015e-07	9.0883e-07	125.26	58.006	79.704	37.54	6.528e-07	29.373	18.025	-64.779	-92.364	-156.181	-126.295	-21.465	-158.390	-150.595	-14.416	-6.030	-153.542	-150.216	-148.716	-142.132	-25.642	-147.511	-8191	255	
2754.510	1	1	0	0	0.05327	0.16285	0.15209	0.35855	0.10924	0.096229	0.057961	0.12466	0.12627	0.10955	0.17831	0.24331	0.2077	0.028273	0.206	0.27444	-2.9583	-3.1396	-2.8688	-3.4042	-3.0438	-3.1354	-3.275	-2.9271	-3.4167	-3.3521	-2.9125	-3.5271	-3.125	-3.2188	-3.4458	-3.0604	-111.224	-32.977	-75.305	2.593	153.138	-97.092	-6.165	126.730	-162.283	-59.860	174.518	180.276	115.305	-137.601	-136.628	-159.542	0.000806	0.013307	0.00099829	460.17	2.2189e-06	2.2526e-06	373.36	166.77	4.2831e-06	5.3016e-06	133.94	62.532	75.966	39.65	4.2501e-06	31.272	0.00010066	0.0036997	0.00026563	434.25	9.8613e-07	6.6443e-07	352.35	179.13	6.4826e-07	7.239e-07	127.82	59.097	84.375	38.051	6.7686e-07	29.855	17.859	-48.268	-146.420	-156.093	-93.105	-77.869	-158.257	-150.848	-18.322	-8.964	-154.176	-150.607	-148.936	-142.281	-64.175	-147.489	-8191	255	
2754.631	1	1	0	0	0.091595	0.24689	0.089347	0.085462	0.045134	0.19152	0.062292	0.22363	0.17016	0.23277	0.11047	0.090326	0.10856	0.21695	0.23528	0.2671	-2.9229	-3.3292	-2.6583	-3.325	-3.1771	-2.9688	-3.4521	-3.1104	-3.2729	-3.3417	-2.8896	-3.1021	-3.0854	-2.9958	-3.3958	-3.0667	86.324	178.978	-78.661	125.666	-43.460	101.439	183.268	-146.933	-114.838	124.241	-50.837	148.205	178.295	178.991	97.145	102.956	0.00083408	0.010526	0.00016014	463.18	3.1583e-06	4.1371e-06	377.02	166.81	5.4956e-06	3.4618e-06	137.54	63.614	76.785	39.859	2.6756e-06	31.416	0.00010278	0.0003108	0.00085713	440.31	1.0431e-06	7.5151e-07	357.24	188.81	6.5597e-07	5.7962e-07	130.44	60.335	81.418	38.363	6.444e-07	30.097	16.710	-39.614	-144.255	-156.186	-33.168	-29.401	-157.867	-150.915	3.748	3.944	-153.658	-150.926	-148.545	-142.244	-30.335	-147.690	-8191	255	
2754.725	1	1	0	0	0.076578	0.013686	0.082141	0.1828	0.17721	0.21698	0.21138	0.26846	0.30547	0.1284	0.34613	0.19326	0.10969	0.12392	0.21576	0.20639	-2.8104	-3.1917	-2.9354	-3.3208	-3.2438	-3.0333	-3.4375	-2.9708	-3.1292	-3.2729	-2.9667	-3.3208	-3.3438	-2.9979	-3.4833	-2.9896	86.916	150.970	74.416	-132.713	147.264	123.909	-49.798	127.551	42.106	-69.985	-104.260	-108.114	83.702	154.045	-66.006	-132.595	0.00086051	0.0002212	0.0038084	458.4	2.5322e-06	1.6891e-06	365.78	163.22	3.6533e-06	3.8277e-06	132.16	61.187	74.675	38.817	2.6574e-06	30.229	0.00010494	5.1546e-05	0.001519	434.43	9.649e-07	6.8394e-07	346.8	176.4	5.8358e-07	5.1473e-07	125.12	57.707	78.491	38.275	6.415e-07	28.906	19.931	-75.461	-48.287	-156.280	-32.708	-39.928	-158.586	-151.462	-54.356	-43.362	-154.073	-150.810	-147.278	-143.354	-63.584	-147.467	-8191	255	
2754.799	1	1	0	0	0.071411	0.14163	0.37753	0.30259	0.02174	0.20586	0.045272	0.079548	0.089342	0.093017	0.28304	0.23818	0.15051	0.17718	0.27834	0.16418	-2.8187	-3.4125	-2.9042	-3.3792	-3.1917	-2.9729	-3.4458	-3.2167	-3.1271	-3.5271	-2.9188	-3.2687	-3.3063	-2.8542	-3.3688	-3.0625	-95.494	161.760	107.458	-77.860	-160.788	161.363	133.676	60.658	-147.590	-128.167	30.218	32.890	133.679	-157.919	-3.864	83.633	0.00089368	0.00040818	0.0025219	454.77	1.0401e-06	2.2916e-06	368.35	163.4	3.5319e-06	2.5064e-06	132.95	61.875	75.857	39.093	5.1505e-06	30.66	0.00011233	5.3513e-05	0.0010749	429.79	7.2274e-07	9.4134e-07	347.92	185.29	7.6078e-07	5.5908e-07	126.32	58.581	71.53	40.396	6.2961e-07	29.47	15.176	-77.093	-45.032	-156.109	-44.926	-2.982	-158.061	-151.236	-26.852	-41.542	-154.347	-150.903	-147.303	-142.940	-36.327	-147.434	-8191	255	
2754.918	1	1	0	0	0.094987	0.18734	0.15714	0.0974	0.28491	0.14144	0.35326	0.050149	0.056548	0.35829	0.24172	0.062165	0.093786	0.13422	0.1212	0.17523	-2.5417	-3.5542	-2.8292	-3.2792	-3.1917	-2.7979	-3.2438	-3.2062	-3.1104	-3.4896	-2.9708	-3.2333	-3.3104	-2.8667	-3.3937	-3.1104	-65.841	97.583	-105.060	20.158	164.951	137.963	101.207	174.559	-100.390	-107.517	118.008	-31.386	176.525	-99.385	-121.269	-164.339	0.00087295	0.00031703	0.0038017	459.88	2.7778e-06	4.4562e-06	373.59	166.83	5.4713e-06	2.2603e-06	135.12	62.261	76.162	40.201	3.4275e-06	31.269	0.00011247	5.4396e-05	0.0015183	435.88	6.1414e-07	1.0882e-06	353.21	179.49	7.6663e-07	6.0712e-07	128.76	59.216	72.247	42.82	6.3309e-07	29.994	15.001	-67.186	-33.707	-156.114	-63.913	-34.688	-157.962	-151.071	-9.628	-35.823	-153.475	-150.431	-147.888	-143.224	-44.882	-147.335	-8191	255	
2755.014	1	1	0	0	0.13484	0.11241	0.14336	0.28516	0.21596	0.11617	0.13538	0.09919	0.065818	0.27746	0.16219	0.079824	0.075454	0.083912	0.13554	0.10781	-2.5896	-3.4167	-3.0375	-2.9771	-3.375	-2.9396	-3.2125	-3.2771	-3.0125	-3.3771	-3.125	-3.0625	-3.3708	-2.9417	-3.2667	-3.3104	-83.085	113.964	88.749	137.765	93.094	-99.737	78.062	16.437	92.806	29.758	-57.716	-74.173	-1.374	-141.185	170.414	-139.443	0.00088682	0.00028515	0.0027308	466.6	3.7253e-06	5.1315e-06	379.16	169.92	0.00022427	4.1031e-06	136.21	62.545	75.496	39.641	3.1665e-06	30.489	0.00011352	5.5145e-05	0.001073	441.9	6.0382e-07	1.1072e-06	358.73	178.74	1.5345e-05	5.5228e-07	128.83	59.255	71.5	40.91	6.3555e-07	29.204	16.096	-80.841	-29.321	-155.784	2.735	-55.789	-158.353	-150.368	-152.957	-49.012	-154.324	-150.216	-147.454	-142.697	-49.613	-147.223	-8191	255	
2755.110	1	1	0	0	0.19996	0.10275	0.27305	0.2763	0.042842	0.18231	0.16842	0.017482	0.29723	0.10353	0.10531	0.080637	0.1035	0.17653	0.13641	0.0085274	-2.3979	-3.3771	-3.0062	-3.1917	-3.4083	-3.15	-3.2396	-3.2146	-2.9354	-3.4271	-3.1167	-3.0521	-3.6146	-2.9646	-3.1396	-3.3792	63.838	147.276	41.329	-93.959	166.891	-141.175	59.703	30.746	189.979	147.955	149.767	87.915	-80.870	179.922	132.066	121.245	0.00092847	0.00018834	0.0035446	453.36	3.0657e-06	4.7126e-06	364.58	166.11	0.00014613	2.3194e-06	131.24	60.383	74.171	39.638	4.7037e-06	30.567	0.00013493	5.0703e-05	0.0014506	428.9	6.2017e-07	1.0193e-06	344.14	158.13	3.3665e-05	5.3542e-07	124.69	57.592	70.553	41.941	6.3092e-07	29.163	16.245	-113.590	-17.894	-155.934	-29.700	-31.175	-157.926	-150.718	-145.724	-38.330	-154.817	-150.689	-148.034	-143.203	-50.273	-147.717	-8191	255	
2755.230	1	1	0	0	0.1602	0.12683	0.24294	0.05881	0.13968	0.14016	0.1185	0.16642	0.12868	0.26102	0.085929	0.10327	0.1799	0.15178	0.29711	0.14747	-2.3729	-3.4146	-3.0271	-2.8875	-3.4458	-2.9062	-3.2729	-3.5458	-2.8646	-3.3937	-3.0792	-3.1646	-3.4771	-2.9771	-3.25	-3.3542	156.660	126.578	-115.851	-33.869	7.260	155.443	-131.908	168.965	12.092	14.916	-6.016	118.235	-167.600	185.331	115.082	100.528	0.00086107	0.00025177	0.0025395	457.23	1.388e-06	4.1254e-06	371.7	169.56	0.0002469	2.8006e-06	135.72	62.508	75.785	40.284	1.8448e-06	30.965	0.00014386	5.2643e-05	0.0010562	435.03	5.4299e-07	1.0505e-06	351.51	160.98	5.7891e-05	5.4252e-07	128.21	59.12	71.841	41.38	6.6585e-07	29.698	14.796	-51.572	-15.569	-155.934	-44.351	-46.093	-158.331	-150.638	-164.357	-54.334	-153.896	-150.892	-147.314	-142.723	-54.721	-147.510	-8191	255	
2755.327	1	1	0	0	0.16368	0.091961	0.25142	0.21263	0.10235	0.13133	0.095584	0.087998	0.15125	0.33212	0.14223	0.057267	0.028194	0.24893	0.16619	0.15143	-2.5104	-3.3063	-3.1937	-2.9625	-3.2021	-3.0771	-3.0875	-3.2833	-2.9396	-3.2	-3.2542	-3.0354	-3.3021	-3.1896	-3.1937	-3.2792	46.050	69.559	-114.850	-87.182	116.140	145.970	140.888	172.081	-51.745	-70.363	176.388	-77.015	-25.831	102.834	105.054	-6.905	0.00092659	0.00026545	0.0038513	461.53	2.9135e-06	5.4445e-06	372.28	171.37	0.00016239	2.5214e-06	135.56	63.383	76.465	40.625	4.1914e-06	31.458	0.00014623	5.1854e-05	0.00084303	463.98	5.5647e-07	9.6219e-07	355.1	162.53	4.1079e-05	5.5065e-07	128.95	60.065	72.697	43.113	8.1803e-07	30.158	15.319	-100.229	-18.357	-156.012	-39.629	-38.416	-157.986	-150.761	-167.573	-29.286	-154.155	-150.379	-147.451	-142.853	-44.080	-147.353	-8191	255	
2755.398	1	1	0	0	0.12642	0.22946	0.088245	0.36428	0.14184	0.14086	0.24949	0.2422	0.1281	0.25015	0.18279	0.11987	0.10651	0.075817	0.043574	0.20656	-2.6167	-3.2125	-3.2354	-2.8646	-3.3708	-3.1583	-2.9458	-3.3083	-3.0208	-3.2812	-3.4313	-2.9792	-3.3688	-3.2938	-3.0625	-3.5875	42.146	-83.768	-40.015	116.367	142.543	93.328	96.590	37.333	-164.415	-127.280	-12.878	58.809	182.610	-117.045	101.092	-157.483	0.00082469	0.00015215	7.8869e-05	461.47	2.3801e-06	2.8719e-06	371.6	167.97	0.00023664	4.2445e-06	132	61.315	74.375	39.278	4.4974e-06	30.134	0.00014711	5.3914e-05	1.4874e-05	493.45	5.9593e-07	9.8466e-07	351.89	160.36	5.6747e-05	5.9426e-07	125.25	57.937	70.786	40.392	7.8933e-07	28.785	17.506	-90.104	-64.552	-156.218	-42.869	-38.647	-158.063	-150.765	-156.619	-14.350	-153.784	-150.773	-147.676	-142.494	-59.002	-147.652	-8191	255	
2755.494	1	1	0	0	0.05438	0.20232	0.12376	0.32426	0.34701	0.084723	0.26415	0.22668	0.041289	0.42675	0.17956	0.1924	0.10034	0.1069	0.017004	0.058009	-2.425	-3.275	-3.1917	-2.9708	-3.3396	-3.2104	-2.9062	-3.5229	-3.0938	-3.0604	-3.2583	-2.9771	-3.4271	-3.2479	-3.0563	-3.5979	-9.461	111.474	-166.719	83.045	-72.122	-73.103	-73.633	-163.627	-153.441	93.400	83.567	12.287	-54.319	-135.139	22.530	126.636	0.0009016	0.00037831	7.3884e-05	448.95	2.3011e-06	3.8964e-06	361.5	166.39	0.00013949	1.9016e-06	132.68	61.207	74.979	39.872	0.0001038	30.807	0.0001452	5.3044e-05	1.4336e-05	504.87	6.0769e-07	8.7407e-07	343.31	158.22	3.873e-05	6.2841e-07	125.05	58.196	71.039	39.973	1.9902e-05	29.331	15.459	-77.544	-83.544	-154.767	-17.331	-11.441	-158.248	-150.405	-150.342	-47.876	-154.743	-150.837	-147.375	-142.235	-100.334	-147.461	-8191	255	
2755.613	1	1	0	0	0.052452	0.21435	0.16528	0.026542	0.093198	0.20103	0.23234	0.020386	0.26324	0.16951	0.063457	0.13827	0.022315	0.15519	0.10262	0.30122	-2.6021	-3.1229	-3.4625	-2.9479	-3.5062	-3.1542	-2.9646	-3.325	-3.0583	-3.2	-3.3521	-3	-3.2646	-3.4896	-3.0396	-3.4354	-83.266	150.480	96.415	59.797	132.317	108.374	160.515	137.640	-139.303	-79.129	165.283	-118.308	106.481	185.755	-143.643	-79.116	0.00084818	0.00026834	4.6331e-05	454.15	1.7924e-06	4.52e-06	370.59	170.01	0.0002066	1.9799e-06	135.01	62.432	76.25	39.62	6.5162e-05	30.984	0.00013145	5.9814e-05	1.4167e-05	490.48	5.9779e-07	6.5245e-07	351.15	161.71	5.7124e-05	7.307e-07	127.65	59.326	72.029	38.077	3.8766e-05	29.787	17.047	-108.751	-98.282	-155.208	-15.626	-21.480	-158.112	-150.765	-142.519	-7.092	-154.145	-150.760	-147.679	-142.152	-92.101	-147.479	-8191	255	
2755.709	1	1	0	0	0.17614	0.084063	0.23356	0.1003	0.10383	0.1925	0.13816	0.10232	0.12488	0.29232	0.038558	0.1434	0.28186	0.083102	0.11698	0.12109	-2.8229	-3.0312	-3.4771	-3.0292	-3.2833	-3.2354	-2.9583	-3.2917	-3.2333	-2.9354	-3.4437	-2.9688	-3.1813	-3.3875	-3.0062	-3.3729	95.392	-166.734	187.945	64.673	-6.891	-11.172	38.754	-64.024	158.114	28.437	-142.813	89.088	127.986	-109.810	135.782	-135.745	0.00089898	0.00024773	9.461e-05	455.73	3.3818e-06	2.9427e-06	377.14	171.48	0.00016181	2.6305e-06	137.22	63.837	76.564	40.068	0.00018197	30.954	0.00013859	6.6329e-05	1.3958e-05	519.92	6.1673e-07	5.4763e-07	357.68	163.51	3.9908e-05	7.1474e-07	129.99	60.39	72.745	38.46	5.7893e-05	29.881	17.218	-63.650	-107.603	-154.432	-45.193	7.499	-157.883	-150.488	-135.747	-43.860	-154.538	-150.178	-147.799	-142.230	-32.576	-147.504	-8191	255	
2755.806	1	1	0	0	0.087463	0.044784	0.16051	0.13133	0.11777	0.185	0.1696	0.36277	0.13485	0.10036	0.081661	0.17286	0.14828	0.11751	0.19888	0.072219	-2.7083	-3.0542	-3.6271	-3.2146	-3.075	-3.4437	-3.0854	-3.3563	-3.3729	-2.8604	-3.5958	-3.0521	-3.1208	-3.4167	-2.9583	-3.3917	-103.760	-110.095	-149.899	138.498	-9.210	-66.431	-168.254	164.808	4.819	183.275	37.618	-119.211	-115.015	-137.853	156.807	-61.497	0.00084253	0.0001725	0.00012566	453.86	1.1886e-06	3.5378e-06	364.92	167.81	9.166e-06	0.00016596	130.87	60.998	74.635	39.091	0.00012166	30.216	0.00012827	6.6075e-05	1.4044e-05	488.06	6.7239e-07	5.015e-07	345.59	159.19	2.6672e-05	2.2483e-05	124.49	57.94	71.107	37.505	4.0221e-05	29.044	19.810	-131.057	-83.467	-155.134	-13.545	-16.344	-158.839	-150.827	28.687	-153.682	-154.436	-150.685	-147.610	-142.158	-26.346	-147.374	-8191	255	
2755.902	1	1	0	0	0.23599	0.39472	0.10205	0.065089	0.31359	0.1598	0.15312	0.14748	0.13856	0.20399	0.23163	0.24595	0.19201	0.11369	0.24978	0.093885	-3.0458	-2.8146	-3.4167	-3.1542	-3.075	-3.4	-2.925	-3.3146	-3.2687	-3.1104	-3.5521	-3.3333	-3.0438	-3.4708	-3.0896	-3.1625	58.367	-32.397	-88.600	-97.873	-55.994	42.856	-162.049	151.322	-18.302	156.807	-90.534	-91.909	71.804	9.115	189.830	84.576	0.00082534	0.00023866	5.7885e-05	449.66	1.5145e-06	4.2558e-06	370.04	169.87	6.5951e-06	9.9414e-05	135	62.282	75.782	39.552	0.00017625	31.143	0.00010457	8.7881e-05	1.2931e-05	514.45	7.4641e-07	5.5576e-07	351.4	161.08	6.5169e-07	4.1221e-05	127.32	58.922	71.739	38.041	5.8377e-05	29.675	13.993	-94.075	-89.605	-154.924	-76.701	-23.105	-158.102	-150.467	-6.903	-151.148	-154.543	-149.817	-147.109	-141.956	-23.358	-147.397	-8191	255	
2756.022	1	1	0	0	0.15433	0.1018	0.24218	0.14536	0.1612	0.13712	0.17927	0.10636	0.19375	0.10735	0.18508	0.14788	0.12649	0.22952	0.19583	0.13012	-2.8708	-2.7812	-3.4083	-3.0167	-2.95	-3.275	-2.9646	-3.2021	-3.4375	-3.0458	-3.2729	-3.1583	-2.9292	-3.4938	-3.0479	-3.1292	111.320	-117.072	123.789	-121.488	-141.529	-88.576	115.946	148.725	-165.419	176.356	106.843	108.155	-19.067	-121.706	-110.110	75.800	0.00088858	0.00022489	9.4839e-05	456.94	2.3749e-06	1.8734e-06	377.89	171.91	3.6488e-06	0.00016331	136.73	63.39	76.99	40.055	0.0001249	31.696	9.9325e-05	9.647e-05	1.4362e-05	494.88	7.8472e-07	5.1288e-07	355.97	163.18	6.3084e-07	6.0439e-05	129.16	60.045	72.924	38.568	4.1796e-05	30.26	16.690	-106.436	-84.511	-155.392	-60.737	-1.829	-158.260	-150.776	-23.517	-148.008	-154.410	-150.699	-147.407	-142.096	-14.275	-147.363	-8191	255	
2756.094	1	1	0	0	0.26182	0.039442	0.091996	0.3848	0.21545	0.013548	0.088212	0.089288	0.096806	0.11742	0.15776	0.21696	0.078516	0.24136	0.17242	0.13249	-2.9958	-3.0708	-3.1854	-3.2208	-2.9417	-3.7021	-3.1417	-3.1208	-3.45	-3.0771	-3.3292	-3.2562	-2.9813	-3.5438	-3.0354	-3.1479	-56.104	-140.278	187.022	95.882	37.726	-9.329	-7.539	-132.127	-82.689	157.872	58.657	-18.185	-42.700	-165.384	150.128	117.283	0.00087073	0.00026217	6.1546e-05	468.02	0.00010316	2.7909e-06	380.14	172.26	6.4526e-06	0.00011136	135.02	62.179	75.318	39.524	0.00016748	30.482	0.00010121	0.0001004	1.5296e-05	479.47	2.5478e-05	5.2028e-07	360.04	163.9	6.2727e-07	4.2214e-05	127.87	59.035	71.666	37.829	5.8063e-05	29.185	12.619	-146.210	-84.775	-154.587	163.429	-14.089	-158.005	-150.331	-19.665	-126.314	-153.530	-150.441	-147.450	-142.197	-6.528	-147.619	-8191	255	
2756.190	1	1	0	0	0.27614	0.19973	0.17098	0.2611	0.19981	0.046796	0.19666	0.15904	0.088591	0.21009	0.13814	0.098659	0.021288	0.078057	0.39291	0.078844	-3.0021	-2.9854	-3.2687	-3.2958	-2.9917	-3.4146	-3.1063	-3.0917	-3.5687	-2.9854	-3.2083	-3.5062	-2.8958	-3.4917	-3.4396	-3.1583	-150.292	0.952	-157.446	155.669	-61.914	130.451	84.167	38.952	8.410	37.206	156.456	-155.836	29.805	99.718	-80.138	-94.832	0.00084155	0.00019521	6.5831e-05	454.08	9.6515e-05	4.7068e-06	364.57	167.33	5.2308e-06	0.00016725	131.27	61.264	74.994	39.354	0.00012492	30.752	9.3306e-05	9.5788e-05	1.515e-05	431.24	4.0509e-05	5.5251e-07	345.13	159.3	6.2799e-07	5.868e-05	124.6	58.013	71.15	37.702	4.0287e-05	29.295	17.523	-103.625	-82.109	-156.160	104.829	-29.039	-158.356	-150.978	-35.485	-127.537	-154.055	-150.769	-147.692	-142.001	7.874	-147.580	-8191	255	
2756.311	1	1	0	0	0.24066	0.02898	0.087219	0.092543	0.15578	0.37244	0.18782	0.082447	0.15244	0.10792	0.24988	0.21989	0.19762	0.13306	0.31643	0.12052	-3.0771	-3.0021	-3.1396	-3.35	-2.8875	-3.4292	-3.3937	-3.0896	-3.375	-2.9917	-3.1125	-3.5417	-2.9417	-3.5354	-3.2271	-3.0458	-127.766	-23.505	-14.353	43.019	98.175	169.339	-136.930	100.299	-75.544	-88.960	123.280	40.956	189.779	-67.988	52.657	87.276	0.0008872	0.00031624	9.6709e-05	455.45	0.00014464	3.2439e-06	368.9	169.85	3.7658e-06	0.0001284	135.59	62.237	75.917	39.924	0.00018155	31.444	0.00010133	9.7647e-05	1.6077e-05	433.94	5.7582e-05	5.9479e-07	350.87	161.69	6.2399e-07	4.2104e-05	127.79	58.916	72.404	38.251	2.2761e-05	32.768	15.540	-74.614	-80.994	-155.989	117.566	-28.392	-158.657	-150.688	-22.541	-120.737	-153.875	-150.859	-147.558	-142.443	17.735	-147.452	-8191	255	
2756.407	1	1	0	0	0.24221	0.34035	0.25641	0.19453	0.027212	0.11613	0.20061	0.04981	0.15635	0.20977	0.14689	0.17357	0.14021	0.15832	0.34304	0.19	-2.8875	-2.9458	-2.9125	-3.3937	-2.8292	-3.2292	-3.1958	-3.0917	-3.2958	-3.1167	-3.2125	-3.5979	-2.9583	-3.2896	-3.5333	-3.025	30.258	60.808	35.385	135.504	-16.220	-132.933	-109.044	120.646	99.446	-117.075	-76.686	139.940	147.302	79.492	65.306	3.858	0.00087252	0.0002287	5.7411e-05	464.14	0.00011066	3.5342e-06	378.88	172.13	6.5619e-06	0.00017046	138.31	64.135	76.169	40.142	4.6753e-06	32.166	9.985e-05	8.6891e-05	1.7933e-05	439.76	4.1859e-05	5.8001e-07	356.88	163.87	6.0157e-07	6.0669e-05	130.26	60.281	72.805	38.711	6.3874e-07	34.935	18.689	-90.856	-88.945	-156.106	125.210	-48.783	-158.081	-150.593	-29.142	-117.389	-154.281	-150.414	-147.781	-142.026	-22.626	-146.195	-8191	255	
2756.503	1	1	0	0	0.059963	0.15588	0.2874	0.18516	0.18131	0.084617	0.14854	0.18087	0.1397	0.19464	0.11775	0.26463	0.1646	0.12037	0.06229	0.12207	-3.2292	-3.25	-3.0312	-3.5292	-3.0125	-3.3542	-3.2833	-3.0125	-3.5021	-3.2812	-3.1042	-3.4479	-2.9938	-3.1417	-3.5146	-2.9583	21.057	142.032	-135.435	-158.373	78.369	112.562	-162.599	159.773	-58.845	-20.587	-92.901	-145.912	114.566	187.580	-162.059	-26.890	0.00093812	0.00024899	5.1918e-05	463.66	0.00013789	3.7602e-06	369.65	169.87	5.8255e-06	5.0357e-05	132.52	60.903	75.232	39.215	4.5001e-06	30.32	0.00010277	9.0423e-05	1.8991e-05	439.79	5.9072e-05	5.6892e-07	350.05	161.04	6.4669e-07	4.0145e-05	125.36	57.785	71.322	37.673	6.5063e-07	35.16	15.724	-89.781	-119.589	-156.297	132.177	-9.339	-158.726	-150.368	-34.392	-38.344	-154.292	-150.652	-147.708	-142.114	-17.061	-145.079	-8191	255	
2756.599	1	1	0	0	0.24407	0.046514	0.062047	0.17679	0.076812	0.22153	0.27986	0.31309	0.14989	0.12962	0.20953	0.049606	0.089677	0.21132	0.14353	0.28819	-2.8792	-3.0687	-3.1521	-3.4458	-2.9938	-3.1354	-3.4396	-2.9938	-3.3146	-3.1979	-2.9021	-3.4	-3.1021	-3.1917	-3.3063	-2.8417	155.418	98.710	67.466	-18.948	185.279	175.044	75.660	-146.235	-168.588	115.015	14.215	-18.093	-8.048	159.721	154.543	143.641	0.0008325	0.00014264	8.2047e-05	458.97	0.00010719	1.372e-06	368.37	168.45	4.8105e-06	6.7999e-05	134.92	62.179	75.718	39.709	3.1728e-06	30.801	9.7871e-05	7.6884e-05	2.0022e-05	434.08	4.0987e-05	6.4595e-07	347.12	160.7	6.6697e-07	2.047e-05	149.44	58.803	71.899	38.082	6.528e-07	34.123	18.541	-108.926	-84.136	-156.289	130.713	-20.829	-158.035	-150.914	-35.997	-38.032	-157.245	-150.832	-147.272	-142.202	-46.720	-145.767	-8191	255	
2756.694	1	1	0	0	0.24927	0.1807	0.031111	0.086724	0.046918	0.069109	0.21122	0.25254	0.15484	0.068852	0.14618	0.22789	0.26825	0.15327	0.1906	0.1517	-2.8583	-3.15	-2.9083	-3.3417	-3.0792	-3.1125	-3.5187	-3.0208	-3.0875	-3.4396	-2.9333	-3.4042	-3.1958	-3.2208	-3.4604	-3.1583	-111.406	63.124	175.210	-103.523	-132.255	37.846	110.118	92.675	82.012	-163.672	145.625	-124.164	123.631	5.792	-146.805	-109.973	0.0008721	0.00032951	0.00010067	464.35	0.00014546	3.7306e-06	375	171.93	4.9456e-06	3.3447e-06	140.32	63.345	76.7	39.953	2.9269e-06	31.636	9.9993e-05	5.3473e-05	2.5645e-05	438.95	5.8754e-05	7.3303e-07	355.09	163.38	6.3198e-07	5.3927e-07	160.6	59.852	73.036	38.562	6.2295e-07	36.53	13.503	-85.481	-98.201	-156.066	145.084	-25.887	-158.122	-150.759	-49.048	-34.647	-155.451	-150.225	-147.459	-142.370	-54.841	-145.094	-8191	255	
2756.790	1	1	0	0	0.10825	0.17093	0.098661	0.13986	0.14938	0.19334	0.1093	0.21417	0.18734	0.028964	0.13867	0.19186	0.082427	0.15401	0.08321	0.27558	-2.6896	-3.3625	-2.9875	-3.3625	-3.15	-3.2583	-3.5021	-3.0812	-3.1979	-3.2167	-3.0187	-3.3208	-3.2167	-2.975	-3.5104	-3.0771	101.188	28.823	-3.158	-166.125	148.955	131.600	-14.366	37.900	-118.542	22.838	181.741	183.751	90.185	150.737	-101.115	-102.730	0.00087188	0.00024244	0.00012317	468.74	4.4856e-05	4.0398e-06	384.12	174.38	7.359e-06	3.0134e-06	146.27	64.627	77.56	40.278	2.4952e-06	30.758	0.0001026	5.1921e-05	2.8122e-05	444.96	3.7741e-05	7.0656e-07	362.68	165.7	6.7711e-07	5.2079e-07	177.05	60.936	73.383	38.774	6.0062e-07	34.321	14.995	-79.054	-86.263	-155.826	69.948	-19.778	-158.137	-150.819	-40.064	-44.857	-156.057	-150.705	-147.538	-142.486	-30.264	-146.080	-8191	255	
2756.910	1	1	0	0	0.19898	0.13205	0.094943	0.070492	0.20791	0.18585	0.14148	0.1173	0.22486	0.088895	0.17234	0.15097	0.026176	0.077455	0.1407	0.17766	-2.9146	-3.2708	-2.8521	-3.2646	-3.2687	-3.2125	-3.4521	-3.0333	-3.0792	-3.4396	-3.0792	-3.1375	-3.3625	-3.0583	-3.3833	-3.1	-163.703	2.301	64.183	-107.794	161.174	114.147	164.573	140.466	11.042	-74.869	103.030	-128.674	110.267	-125.684	-77.502	-51.113	0.00082127	0.00022716	0.00013532	459.56	5.8942e-05	0.00016993	366.53	168.92	3.3053e-06	5.216e-06	138.42	61.376	75.636	39.659	3.1509e-06	30.2	0.00010983	5.0115e-05	2.9063e-05	437.63	1.7062e-05	3.3456e-05	348.36	161.17	7.5207e-07	5.2714e-07	157.34	58.401	71.7	37.986	6.4411e-07	35.564	16.686	-101.297	-96.941	-156.150	83.466	-166.299	-158.346	-150.822	-7.166	-26.727	-155.367	-150.528	-147.505	-142.474	-20.335	-145.484	-8191	255	
2757.007	1	1	0	0	0.10828	0.11389	0.14802	0.086448	0.13401	0.16734	0.092875	0.18227	0.2743	0.11164	0.073832	0.095224	0.22212	0.30345	0.1922	0.19213	-2.65	-3.5	-2.9479	-3.4854	-3.2313	-2.9979	-3.475	-3.1625	-2.8604	-3.5021	-3.0729	-3.2854	-3.575	-2.7438	-3.4938	-3.1042	-56.458	177.798	10.858	-116.071	122.277	102.185	87.880	-131.027	97.749	61.485	2.534	84.338	-168.884	-160.486	-83.651	-106.629	0.00088131	0.00032857	9.3084e-05	462.23	3.8127e-06	0.00011495	377.54	172.14	4.2985e-06	3.0941e-06	145.62	63.718	76.293	40.216	3.8841e-06	31.317	0.00010981	4.7131e-05	2.6523e-05	439.55	6.0052e-07	4.2892e-05	356.55	163.61	7.5121e-07	5.471e-07	173.95	59.926	72.81	38.654	6.6367e-07	34.006	17.944	-65.465	-93.295	-156.263	-23.386	169.922	-158.218	-150.942	-15.712	-40.728	-155.493	-150.562	-147.653	-142.154	-36.838	-145.827	-8191	255	
2757.103	1	1	0	0	0.095387	0.15894	0.13414	0.079197	0.15182	0.19403	0.10874	0.15865	0.038887	0.18532	0.11564	0.19088	0.23134	0.25355	0.20279	0.22688	-2.6125	-3.4292	-3.1042	-3.2208	-3.6042	-2.9417	-3.4917	-3.275	-2.8792	-3.55	-3.1208	-3.35	-3.4542	-3.0438	-3.3063	-3.3375	-20.815	-88.632	148.012	-10.662	151.682	-82.152	14.521	-101.813	111.080	-109.640	157.482	-136.711	-13.075	177.680	187.403	96.131	0.0010196	0.00037679	0.00013343	470.56	4.3011e-06	0.00016988	382.1	173.15	5.4909e-06	3.5601e-06	145.08	64.386	77.527	40.57	3.8099e-06	31.769	0.00012049	5.2563e-05	2.7199e-05	445.46	6.0884e-07	6.0634e-05	360.47	164.85	8.9857e-07	5.4784e-07	163.61	61.053	73.843	39.14	6.6556e-07	32.283	18.490	-74.244	-69.954	-156.017	-25.043	183.299	-158.078	-150.613	-29.210	-28.505	-154.717	-150.347	-147.373	-142.222	-41.057	-145.580	-8191	255	
2757.199	1	1	0	0	0.082865	0.12042	0.095338	0.11868	0.041315	0.27782	0.11397	0.15933	0.1608	0.09309	0.19257	0.075238	0.10602	0.2454	0.14163	0.39449	-2.6167	-3.4646	-3.1146	-3.1146	-3.4	-3.0187	-3.3292	-3.4083	-2.8417	-3.4229	-3.0417	-3.1167	-3.6042	-3.0854	-3.1521	-3.3438	-157.498	-64.809	-14.536	-96.810	116.698	-107.621	74.203	57.900	102.263	28.000	85.725	-151.975	99.714	-119.972	-102.199	62.847	0.0018358	4.7555e-05	0.00012935	472.67	3.0089e-06	0.00011502	382.25	173.71	5.369e-06	3.3713e-06	143.31	62.632	76.034	39.561	3.0372e-06	30.683	0.0030352	5.2683e-05	2.4173e-05	449.85	6.1414e-07	4.4017e-05	361.93	165.01	1.1222e-06	5.508e-07	172.24	59.249	72.118	38.164	6.6672e-07	29.353	-66.650	-84.755	-75.346	-156.124	-35.072	189.959	-158.010	-150.946	-25.618	8.160	-154.381	-150.775	-147.347	-142.048	-13.840	-147.813	-8191	255	
2757.295	1	1	0	0	0.17938	0.36108	0.15975	0.10696	0.084938	0.14254	0.22394	0.095498	0.3493	0.058032	0.088598	0.18005	0.019377	0.19445	0.099252	0.1911	-2.4604	-3.3292	-3.1625	-2.9854	-3.3563	-2.9417	-3.2562	-3.3604	-2.7979	-3.4479	-3.2729	-2.9917	-3.5229	-3.0396	-3.2562	-3.4437	190.133	167.123	26.461	73.263	39.515	-39.671	-108.631	2.729	52.954	-158.332	117.820	-115.872	37.611	100.039	-145.213	129.667	0.0026821	0.00025717	0.00011576	457.32	1.696e-06	0.00016461	368.79	169.58	3.4775e-06	4.4044e-06	137.99	62.885	75.686	39.9	3.9952e-06	31.118	0.0035895	5.4797e-05	2.4326e-05	434.98	5.889e-07	6.0681e-05	348.84	161.15	1.11e-06	5.8036e-07	152.82	59.233	72.329	38.377	7.7267e-07	29.839	183.421	-59.844	-85.873	-155.938	-40.624	-164.503	-158.384	-150.916	33.841	-12.955	-152.753	-151.398	-147.800	-142.363	-44.381	-147.176	-8191	255	
2757.391	1	1	0	0	0.10635	0.10594	0.1646	0.013743	0.18928	0.24394	0.048119	0.25387	0.10426	0.057359	0.17901	0.21946	0.1403	0.31047	0.17577	0.072148	-2.5229	-3.1542	-3.2125	-3.1146	-3.4	-3.1604	-3.2083	-3.4042	-2.9437	-3.3104	-3.0583	-3.0271	-3.3187	-3.0563	-3.0521	-3.4458	176.855	-74.805	39.301	81.810	-97.402	123.295	-103.375	-95.572	-30.748	132.993	-143.196	140.182	-17.158	108.972	-55.002	-117.028	0.0042251	0.00029853	0.00011442	466.94	2.0478e-06	0.0001227	373.5	172.04	1.7265e-06	3.1829e-06	142.37	64.643	76.889	40.583	4.7127e-06	31.666	0.0049435	5.4891e-05	1.9607e-05	441.8	5.8732e-07	4.3132e-05	355.51	163.89	1.1887e-06	5.4104e-07	138.39	69.145	73.241	38.893	8.0049e-07	30.361	188.967	-89.241	-103.898	-156.210	-85.034	-158.432	-158.264	-150.559	14.701	-36.944	-151.998	-151.528	-147.096	-142.456	-55.151	-147.299	-8191	255	
2757.487	1	1	0	0	0.18676	0.13541	0.09986	0.19355	0.23332	0.22898	0.25446	0.18529	0.22767	0.073732	0.078948	0.33276	0.067995	0.056052	0.22509	0.13821	-2.4167	-3.3292	-3.1708	-2.7979	-3.2271	-3.1688	-3.0563	-3.5833	-3.0208	-3.2792	-3.3563	-2.8875	-3.4437	-3.1354	-3.1063	-3.3583	40.754	105.093	-88.703	109.450	-39.967	-88.269	-58.444	-128.401	16.369	49.552	4.811	-160.233	96.319	181.342	-77.854	138.723	0.0028432	0.00025474	7.1799e-05	467.39	2.4834e-06	0.000168	382.69	173.69	1.9763e-06	1.6858e-06	139.58	65.889	78.022	40.604	3.5544e-06	31.829	0.0036108	5.4168e-05	1.3779e-05	446.96	5.8445e-07	6.1344e-05	361.64	165.96	1.2174e-06	5.8997e-07	132.06	71.026	74.096	39.107	8.1876e-07	30.578	-153.102	-70.581	-84.296	-156.282	-33.111	-153.993	-158.234	-150.709	7.773	16.631	-153.902	-150.117	-147.457	-142.483	-72.187	-147.312	-8191	255	
2757.583	1	1	0	0	0.18734	0.21675	0.36563	0.19855	0.07917	0.087893	0.28013	0.025406	0.056324	0.17903	0.04682	0.24645	0.061501	0.24798	0.20228	0.16368	-2.6646	-3.1646	-3.3396	-2.9792	-3.4292	-3.2396	-3.1708	-3.5812	-2.9083	-3.25	-3.4375	-2.85	-3.5542	-3.25	-3.0771	-3.4208	-135.459	-23.913	-139.757	-21.383	-135.282	24.826	83.615	48.739	86.101	-137.945	97.039	10.113	-7.607	-155.974	127.142	-17.182	0.0043212	0.00030792	8.3039e-05	464.74	4.1367e-06	1.4061e-05	374.5	169.8	2.7608e-06	3.243e-06	133.85	64.304	75.457	39.761	3.2081e-06	30.539	0.0049472	5.7232e-05	1.2796e-05	443.82	6.3251e-07	3.3457e-05	356.43	161.74	1.0061e-06	6.3476e-07	125.86	72.42	71.968	38.186	8.9876e-07	29.355	-146.933	-61.952	-90.061	-156.095	-40.241	54.990	-160.406	-150.625	3.884	-27.328	-154.452	-149.439	-147.594	-142.524	-83.342	-147.575	-8191	255	
2757.702	1	1	0	0	0.10751	0.10609	0.3282	0.1979	0.21499	0.3132	0.20989	0.13344	0.16307	0.10947	0.29704	0.2298	0.069691	0.143	0.24401	0.28469	-2.5896	-3.1437	-3.5271	-2.7479	-3.4833	-3.3083	-3.0604	-3.4896	-3.1208	-3.2062	-3.5062	-2.9313	-3.1354	-3.4417	-2.8771	-3.4208	20.352	91.781	148.826	129.881	-25.106	-49.136	180.189	-138.937	-82.938	-25.127	149.297	-166.487	141.411	160.031	6.507	69.920	0.003082	0.0003341	8.3149e-05	462.66	3.9535e-06	4.7449e-06	378.95	170.91	1.3522e-06	3.311e-06	136	64.586	76.957	40.244	4.3842e-06	31.421	0.0036494	6.4697e-05	1.4052e-05	439.01	5.9808e-07	1.0047e-05	401.16	163	9.9981e-07	6.6211e-07	128.81	69.888	73.041	38.655	1.1912e-06	30.128	-145.303	-70.351	-68.691	-156.281	-40.153	56.540	-160.311	-150.778	-15.366	-23.500	-154.051	-149.865	-147.619	-142.324	-61.588	-147.448	-8191	255	
2757.799	1	1	0	0	0.12694	0.15716	0.18238	0.24312	0.27339	0.11166	0.070749	0.073077	0.1014	0.24759	0.063453	0.047646	0.20221	0.046487	0.043518	0.064743	-2.7604	-2.8875	-3.3021	-2.9146	-3.1667	-3.4083	-3.1104	-3.4729	-3.1458	-3.0771	-3.3917	-2.9021	-3.375	-3.4292	-2.9125	-3.2292	35.293	-146.281	-89.185	142.909	130.475	-150.494	-68.056	72.384	86.504	14.351	171.206	-96.508	13.166	43.022	40.629	-92.133	0.003913	0.0001224	7.8903e-05	470.55	1.2097e-06	2.0352e-06	381.46	174.36	1.9527e-06	2.7276e-06	138.82	66.661	78.041	40.767	4.5122e-06	32.188	0.0049447	7.0262e-05	1.4108e-05	446.37	6.3351e-07	5.4157e-07	409.12	165.27	1.0765e-06	7.069e-07	130.89	74.771	73.816	39.043	1.1491e-06	30.665	-134.429	-43.390	-57.569	-156.103	-10.548	-29.000	-159.204	-150.882	-14.568	17.341	-154.225	-149.681	-147.585	-142.037	-56.193	-147.176	-8191	255	
2757.895	1	1	0	0	0.2884	0.20913	0.14783	0.2547	0.13618	0.26299	0.20063	0.1275	0.30699	0.13239	0.22116	0.17743	0.053691	0.11676	0.16671	0.043888	-2.8646	-3.0958	-3.4917	-3.0938	-3.1792	-3.4667	-3.0563	-3.3563	-3.2646	-2.9271	-3.7229	-3.075	-3.0979	-3.4417	-2.9792	-3.3812	28.976	-99.319	-128.039	-162.699	-34.466	-85.149	85.872	178.037	-106.090	128.760	148.475	-98.052	88.027	72.799	4.205	186.823	0.0018377	0.0063886	9.9607e-05	475.4	2.2847e-06	2.7464e-06	392.54	176.26	5.6348e-06	2.5825e-06	139.81	64.969	77.177	40.269	3.1473e-06	31.054	0.0026712	0.00052693	1.4724e-05	450.31	6.6493e-07	5.4201e-07	435.58	166.78	7.772e-07	8.2383e-07	131.45	70.371	73.28	38.581	1.2156e-06	29.853	190.360	108.344	-89.235	-155.821	-22.979	-9.788	-160.064	-150.810	-47.228	-56.612	-154.189	-149.872	-147.690	-142.108	-68.548	-147.641	-8191	255	
2757.991	1	1	0	0	0.13104	0.043536	0.35512	0.074969	0.34365	0.24579	0.14211	0.14358	0.072978	0.050269	0.16759	0.18297	0.10893	0.049513	0.086938	0.22576	-2.9	-3.0833	-3.3708	-3.0938	-3.0604	-3.4521	-3.0812	-3.3354	-3.4083	-2.9833	-3.5563	-3.1792	-3.0375	-3.5563	-3.0896	-3.3604	181.993	3.975	89.071	177.417	-101.446	-11.680	-151.752	-93.091	103.320	-136.023	-85.601	99.451	-70.784	188.468	-5.107	148.307	0.0032163	0.0094978	5.8875e-05	461.51	2.4784e-06	2.8514e-06	376.04	169.91	4.3997e-06	1.5798e-06	134.02	64.598	75.564	39.623	1.8547e-06	31.038	0.00064617	0.0039317	1.4048e-05	437.81	7.1715e-07	5.772e-07	398.52	161.52	5.5545e-07	1.1455e-06	126.72	72.302	71.998	38.141	1.1156e-06	29.651	184.215	117.251	-90.156	-156.154	-37.650	-34.911	-159.142	-150.698	-30.991	-17.777	-154.531	-149.059	-147.502	-141.822	-48.336	-147.215	-8191	255	
2758.087	1	1	0	0	0.11261	0.2644	0.089556	0.14559	0.028664	0.18697	0.078961	0.15653	0.084223	0.20395	0.28271	0.099093	0.19513	0.18084	0.099019	0.20697	-3.0271	-2.95	-3.45	-3.3	-3.0292	-3.5667	-3.2021	-3.2854	-3.3396	-2.9958	-3.3688	-3.1813	-2.85	-3.6146	-3.2167	-3.125	15.223	46.594	-82.362	21.728	22.234	108.507	-54.285	130.168	103.656	-125.452	-36.105	-139.797	184.096	131.147	115.973	141.236	0.00091962	0.011257	7.6697e-05	463.62	2.4879e-06	1.4764e-06	388.33	172.8	3.2895e-06	3.1624e-06	136.22	64.672	77.3	40.163	3.2431e-06	31.707	0.00010172	0.0039492	1.4612e-05	442.06	7.665e-07	5.1214e-07	426.63	163.98	5.9357e-07	1.0711e-06	128.99	66.905	74.795	38.859	1.0495e-06	30.325	18.123	64.719	-65.130	-156.055	-44.623	-81.099	-159.465	-150.663	3.721	87.260	-154.593	-149.144	-147.991	-142.492	-83.381	-147.187	-8191	255	
2758.183	1	1	0	0	0.058937	0.17454	0.06982	0.15479	0.057296	0.19764	0.18595	0.026203	0.10608	0.039851	0.0794	0.16878	0.14818	0.35453	0.09758	0.1542	-3.1104	-3.0729	-3.2417	-3.2875	-3.1437	-3.375	-3.0229	-3.1479	-3.3479	-3.0125	-3.3792	-3.1958	-2.9771	-3.5792	-3.2771	-2.9792	120.945	-134.534	-80.543	179.249	-1.717	-157.462	107.531	171.553	58.548	109.012	36.280	-124.757	170.636	173.514	47.094	189.720	0.00082369	0.013538	7.694e-05	467.91	3.2155e-06	2.5231e-06	389.07	175.12	5.4302e-06	2.0382e-06	139.44	66.113	78.292	40.843	4.2015e-06	32.355	9.9409e-05	0.0055092	1.4791e-05	447.18	9.3463e-07	4.9588e-07	411.76	165.84	6.3598e-07	1.1535e-06	132.07	62.571	83.998	39.273	1.0834e-06	30.976	14.793	73.233	-84.295	-156.108	-22.584	-25.265	-159.033	-150.493	-1.931	-78.825	-154.380	-148.403	-147.800	-142.415	-82.826	-147.696	-8191	255	
2758.279	1	1	0	0	0.11003	0.28019	0.11641	0.13998	0.018334	0.23281	0.16773	0.035758	0.22781	0.093679	0.099221	0.18841	0.31614	0.19644	0.048912	0.17928	-3.0062	-2.8812	-3.2854	-3.4437	-2.9521	-3.3771	-3.2125	-3.0708	-3.2646	-2.9667	-3.2562	-3.3333	-2.8333	-3.4125	-3.1396	-2.9833	-28.578	20.197	-75.298	-161.769	21.337	-34.998	190.431	-161.463	-157.280	42.186	159.489	71.894	117.131	-103.150	-163.410	71.335	0.00082448	0.0091282	8.7921e-05	474	2.7169e-06	3.8108e-06	390.74	172.54	5.3049e-06	2.2614e-06	134.69	62.944	76.954	39.747	3.8052e-06	30.908	0.00010173	0.0039974	1.4717e-05	450.11	1.1867e-06	5.6596e-07	429.3	164.42	6.1956e-07	1.0618e-06	127.89	59.456	81.124	38.222	1.0454e-06	29.535	17.290	83.969	-61.545	-156.291	-19.537	-7.169	-159.209	-150.950	-46.609	-19.334	-154.233	-150.960	-146.569	-142.334	-20.243	-147.400	-8191	255	
2758.400	1	1	0	0	0.0066318	0.33902	0.084931	0.203	0.063393	0.06672	0.26037	0.050883	0.16333	0.10281	0.2694	0.35024	0.086136	0.13975	0.2258	0.1241	-2.9417	-3.0229	-3.175	-3.5375	-2.8292	-3.275	-3.2062	-2.9458	-3.4958	-3.0458	-3.1813	-3.4771	-2.8146	-3.35	-3.1854	-3.1896	-39.369	58.215	84.626	-68.159	173.556	-26.094	-140.088	89.291	55.052	-134.528	-142.127	155.452	105.030	152.064	-43.786	-137.581	0.00087318	0.013894	6.3643e-05	463.46	3.3797e-06	3.4784e-06	372.74	172.67	4.8959e-06	7.995e-07	134.64	63.102	77.659	40.1	3.8972e-06	31.394	0.00010536	0.0053956	1.4743e-05	437.91	1.1207e-06	5.5738e-07	380.84	165.86	6.1456e-07	1.006e-06	127.84	59.481	85.214	38.586	7.4585e-07	30.037	19.957	84.090	-99.311	-156.158	-33.372	2.764	-157.757	-151.547	5.510	-15.625	-154.378	-150.791	-146.050	-142.449	-37.961	-147.448	-8191	255	
2758.496	1	1	0	0	0.074511	0.090264	0.1846	0.27947	0.15106	0.19565	0.29491	0.072759	0.17536	0.19723	0.20766	0.10337	0.094823	0.12808	0.12883	0.066406	-2.9562	-3.0417	-2.8625	-3.3479	-2.7708	-3.275	-3.3312	-3.1229	-3.3729	-3.0563	-3.0479	-3.4375	-2.9688	-3.2542	-3.3417	-2.9667	176.352	147.971	-61.097	130.518	68.919	-127.214	66.630	-50.296	-165.960	160.466	148.253	109.640	-135.833	-109.618	47.384	166.964	0.00090111	0.0096904	3.2402e-05	468.29	3.5251e-06	3.8445e-06	382.18	175.33	4.7369e-06	2.4028e-06	137.84	63.454	78.47	40.535	2.6635e-06	32.17	0.00010382	0.0039449	1.7149e-05	443.55	1.1736e-06	5.8651e-07	359.25	185.75	6.4555e-07	9.5613e-07	130.27	60.441	82.709	38.966	6.7121e-07	30.519	16.807	97.823	-95.376	-156.055	-19.032	-42.852	-157.577	-151.929	-18.492	-57.637	-154.135	-150.699	-146.598	-141.952	-54.467	-147.372	-8191	255	
2758.568	1	1	0	0	0.18252	0.038726	0.12479	0.33686	0.10771	0.23077	0.11629	0.10059	0.013978	0.23452	0.06976	0.074396	0.064751	0.053403	0.1584	0.20549	-3.0167	-2.8896	-3.0854	-3.4021	-3.0292	-3.1833	-3.3875	-3.0708	-3.2	-3.2771	-2.8604	-3.55	-2.9604	-3.2625	-3.5458	-2.9771	-166.382	-1.894	39.397	-128.512	35.224	175.901	-25.183	131.022	108.043	176.476	-92.026	-154.984	96.497	100.621	2.889	8.337	0.00086426	0.012522	9.4086e-05	471.79	2.8511e-06	3.9556e-06	382.44	178.4	4.2055e-06	4.9041e-06	138.54	64.655	78.681	40.826	3.7092e-06	31.683	9.8658e-05	0.0055089	1.8823e-05	447.58	1.1056e-06	5.8267e-07	361.77	184.71	6.1713e-07	9.1016e-07	132	61.242	86.685	39.142	6.4367e-07	30.425	16.693	106.294	-95.173	-156.193	-30.061	-9.958	-158.336	-151.648	-32.584	-61.632	-154.355	-150.677	-146.085	-142.318	-25.218	-147.355	-8191	255	
2758.688	1	1	0	0	0.19626	0.098646	0.19834	0.023041	0.25882	0.25402	0.083765	0.037433	0.17783	0.19139	0.0078067	0.11606	0.15201	0.077406	0.12129	0.052758	-2.9417	-3.2396	-3.0438	-3.5333	-2.9021	-3.0521	-3.3917	-2.9938	-3.4146	-3.1937	-2.9979	-3.4708	-3.0104	-3.1312	-3.3646	-2.9521	56.115	57.704	-84.102	-112.516	155.487	-107.864	-141.739	-0.272	-32.320	141.586	-96.463	116.830	165.777	171.664	100.774	185.526	0.00089203	0.004234	0.0027598	461.74	2.1002e-06	2.3365e-06	368.66	174.92	5.751e-06	1.0311e-06	133.57	61.98	75.784	39.698	3.7445e-06	30.737	0.00010271	0.0023742	0.00029143	439.78	1.0375e-06	7.039e-07	349.7	187.52	6.2456e-07	6.525e-07	126.43	58.739	80.7	38.092	6.3642e-07	29.445	19.365	25.058	134.367	-156.129	2.086	-10.860	-158.387	-151.209	-24.218	45.642	-153.638	-150.568	-146.366	-142.475	-20.173	-147.733	-8191	255	
2758.783	1	1	0	0	0.20738	0.13314	0.17451	0.30012	0.075927	0.12859	0.044638	0.24278	0.27359	0.16185	0.18086	0.22118	0.11151	0.081165	0.11455	0.36955	-2.8563	-3.2562	-2.7229	-3.525	-3.0396	-3.1021	-3.4	-2.9521	-3.3208	-3.4208	-2.8688	-3.4125	-3.2896	-3.0187	-3.4208	-3.0271	172.316	-121.641	-110.242	134.421	11.602	108.904	-124.479	187.534	-75.139	-143.390	-166.957	116.265	167.458	120.735	-145.012	140.334	0.00088233	0.00034902	0.0037418	462.57	4.9598e-06	2.664e-06	372.45	173.74	4.7379e-06	4.4015e-06	133.88	63.36	76.734	40.066	3.1397e-06	31.43	0.0001024	5.5386e-05	0.0013077	439.1	9.593e-07	6.7566e-07	352.57	181.36	6.297e-07	5.7075e-07	128.18	59.783	85.201	38.555	6.1526e-07	30.032	14.484	-78.276	129.941	-156.224	-29.289	-15.580	-157.777	-150.740	-12.308	-6.666	-154.451	-150.569	-146.319	-142.630	-23.886	-147.711	-8191	255	
2758.879	1	1	0	0	0.055213	0.02558	0.20505	0.21468	0.15612	0.20983	0.14232	0.18286	0.019337	0.13572	0.10442	0.059975	0.2131	0.27928	0.35659	0.09781	-2.8354	-3.3708	-3.0021	-3.5729	-3.2375	-3.0354	-3.525	-2.9646	-3.1833	-3.2917	-3.0438	-3.525	-2.9938	-3.0354	-3.5312	-2.9437	78.806	-162.149	90.402	144.294	51.638	-90.243	44.624	68.030	101.622	23.170	-18.216	-37.413	122.221	-9.308	148.151	-133.569	0.00077428	0.00027487	0.0026368	469.76	4.5029e-06	2.1269e-06	379.93	178.23	5.6871e-06	3.115e-06	139.78	63.918	77.816	40.714	4.9411e-06	31.864	0.00010087	5.2657e-05	0.0011053	444.28	1.0006e-06	6.665e-07	358.49	190.89	6.8524e-07	5.712e-07	131.65	60.587	78.346	40.073	6.9266e-07	30.602	15.884	-62.392	117.440	-156.582	-37.887	-9.066	-158.218	-150.801	-48.093	-1.207	-153.798	-150.772	-146.164	-142.368	-48.552	-147.386	-8191	255	
2759.000	1	1	0	0	0.18504	0.049744	0.25935	0.15483	0.051112	0.22396	0.19533	0.078933	0.15537	0.076637	0.1566	0.27465	0.049793	0.16188	0.23824	0.12237	-2.7604	-3.2542	-2.8958	-3.2062	-3.4021	-3.0771	-3.4333	-3.1854	-3.1958	-3.5292	-2.7812	-3.4021	-3.2396	-3.1542	-3.425	-3.0625	80.786	98.195	28.700	-13.283	164.186	76.867	139.993	-110.877	-166.537	0.038	172.157	-140.059	-162.052	167.705	183.670	45.386	0.00089571	0.0003696	0.0036567	473.66	3.3506e-06	1.3974e-06	385.32	177.4	6.5807e-06	2.7637e-06	137.28	63.639	76.105	39.58	2.8673e-06	31.004	0.00011362	5.5118e-05	0.0015383	448.61	7.2131e-07	9.239e-07	364.62	184.89	8.2075e-07	5.335e-07	130.7	60.228	72.516	42.593	6.1164e-07	29.663	17.348	-106.444	126.108	-156.061	-30.625	-19.934	-158.190	-150.731	-13.294	-22.237	-154.221	-150.832	-147.494	-142.057	-19.119	-147.178	-8191	255	
2759.096	1	1	0	0	0.18432	0.11748	0.20347	0.17598	0.12504	0.30728	0.088759	0.20318	0.15222	0.24677	0.17406	0.17246	0.0748	0.22602	0.077514	0.14184	-2.6125	-3.3646	-2.9771	-3.3104	-3.4292	-3.0333	-3.475	-3.175	-3.1354	-3.6188	-3.0125	-3.2021	-3.4854	-2.9437	-3.3312	-3.2354	30.591	-74.670	-66.796	-160.009	-143.496	128.733	133.795	38.074	-9.850	1.661	10.100	-30.955	-132.840	-158.271	-56.630	-33.129	0.00078566	0.0003028	0.0024142	459.37	2.9744e-06	3.2101e-06	369.08	174.14	6.8375e-06	4.2667e-06	131.86	61.833	75.994	39.696	4.7465e-06	30.958	0.00011189	5.0529e-05	0.0010748	435.44	6.1644e-07	1.0997e-06	348.08	186.56	7.6421e-07	5.4947e-07	126.13	58.503	72.142	41.462	6.4251e-07	29.753	17.232	-67.653	133.188	-156.013	-20.194	17.971	-158.513	-150.350	-36.736	-36.184	-154.168	-150.298	-147.507	-141.479	-36.623	-147.278	-8191	255	
2759.192	1	1	0	0	0.071392	0.14942	0.09577	0.33597	0.044876	0.11935	0.12688	0.058301	0.037623	0.23964	0.14246	0.082166	0.25228	0.14873	0.093616	0.24004	-2.6312	-3.3021	-3.05	-3.0958	-3.2229	-3.0563	-3.4458	-3.2771	-2.8771	-3.4208	-3.0687	-3.1667	-3.4958	-3.0292	-3.3187	-3.2313	-21.297	-104.977	159.952	154.201	141.531	-45.508	77.510	132.955	156.229	-158.514	176.330	-159.113	-141.471	125.128	1.034	153.086	0.0009242	0.00026242	0.0036806	464.69	3.1236e-06	3.5322e-06	375.32	173.26	9.9791e-05	2.8016e-06	136.41	63.272	76.202	39.619	3.4867e-06	31.406	0.00011605	5.0891e-05	0.0015043	440.91	5.8947e-07	1.0197e-06	354.35	172.61	1.4448e-05	5.471e-07	129.13	59.684	72.595	43.122	6.6527e-07	30.081	13.994	-91.792	140.157	-155.999	-53.759	37.403	-158.293	-149.891	-75.516	-22.649	-154.004	-150.369	-147.221	-141.102	-40.450	-147.281	-8191	255	
2759.263	1	1	0	0	0.062446	0.12545	0.025605	0.47311	0.25508	0.032654	0.032131	0.15558	0.083236	0.089708	0.20813	0.31831	0.10562	0.2408	0.073657	0.10122	-2.4583	-3.6167	-2.9396	-3.1396	-3.4354	-3.0729	-3.1604	-3.15	-2.7521	-3.4	-3.0521	-2.8375	-3.4604	-3.0042	-3.1292	-3.3083	-124.335	-62.061	11.766	181.511	51.221	-21.415	-73.352	-127.400	144.539	65.381	146.286	70.592	-154.719	167.256	19.837	161.573	0.00090654	0.00012588	0.0026319	465.64	3.0725e-06	4.5219e-06	375.63	172.55	0.00011901	2.9522e-06	137.23	63.61	77.247	40.248	3.2504e-06	31.779	0.00013095	5.2309e-05	0.0010522	442.98	5.8545e-07	1.1194e-06	357.05	164.41	5.5181e-05	4.9906e-07	130.61	60.431	73.417	42.144	6.4947e-07	30.41	18.681	-83.098	146.850	-156.035	-78.132	62.250	-158.331	-150.659	-80.320	-23.561	-154.302	-151.364	-147.380	-141.549	-37.506	-147.188	-8191	255	
2759.360	1	1	0	0	0.18446	0.23311	0.08897	0.25115	0.21122	0.14261	0.077549	0.099166	0.23744	0.2756	0.1831	0.050171	0.096424	0.065915	0.1713	0.14096	-2.5271	-3.2396	-2.9979	-3.0729	-3.3292	-2.9854	-3.2292	-3.5	-3.0104	-3.3792	-3.2083	-3.1104	-3.375	-2.9271	-3.0187	-3.2521	59.424	65.678	76.575	-29.945	-49.432	155.069	-160.461	11.002	-143.974	-65.927	-156.306	156.607	169.031	-80.233	-29.150	8.857	0.00085156	0.00031815	0.0039353	468.72	2.0597e-06	2.7448e-06	372.93	169.98	0.00015346	1.8687e-06	133.13	61.547	74.858	38.878	3.2601e-06	30.72	0.00015234	5.3352e-05	0.0015119	443.97	5.922e-07	1.1198e-06	353.11	162.22	4.0925e-05	5.4562e-07	126.77	58.207	71.243	42.41	7.0252e-07	29.2	19.368	-68.564	152.839	-156.590	-28.026	-0.849	-158.157	-150.894	-6.182	-10.775	-154.510	-150.883	-147.173	-141.147	-59.105	-147.312	-8191	255	
2759.480	1	1	0	0	0.13954	0.18353	0.14208	0.080667	0.13749	0.17154	0.1087	0.11049	0.13825	0.13484	0.083742	0.10224	0.11387	0.034292	0.18075	0.09671	-2.5396	-3.3521	-3.1167	-3.1021	-3.3542	-2.9125	-3.1354	-3.3375	-3.0229	-3.3792	-3.1729	-3.0083	-3.4375	-3.1312	-2.9375	-3.4562	8.809	149.832	93.936	-43.068	-166.953	70.283	139.984	17.684	-77.435	24.309	-50.276	158.302	-115.740	-150.198	21.208	-110.257	0.00079415	0.00033061	0.00030805	460.6	2.8558e-06	1.7555e-06	370.59	169.59	0.00022414	5.4556e-06	134.99	62.552	76.207	39.52	2.4835e-06	31.177	0.00013854	5.1479e-05	0.00050173	458	6.1572e-07	9.6884e-07	350.1	161.42	5.6752e-05	5.8051e-07	127.79	59.144	72.137	41.586	7.7803e-07	29.762	24.350	-66.495	-65.299	-157.123	-31.123	51.614	-158.023	-150.627	-4.339	-40.558	-153.799	-150.461	-147.403	-141.812	-20.590	-147.718	-8191	255	
2759.576	1	1	0	0	0.12843	0.15745	0.18657	0.19089	0.20128	0.13297	0.15018	0.099197	0.031789	0.023852	0.096768	0.092624	0.039995	0.18038	0.14826	0.13165	-2.5771	-3.1875	-3.2521	-3.0042	-3.4938	-3.1792	-3.1583	-3.6208	-2.9646	-3.3458	-3.4125	-3.0542	-3.3937	-3.2646	-3.1937	-3.5208	-10.746	16.312	-119.934	165.964	-99.728	-1.302	129.918	-38.735	190.088	-25.964	74.015	-28.604	29.752	178.672	-45.795	127.978	0.00086064	0.00026129	4.4036e-05	464.04	9.9217e-07	1.6141e-06	376.98	172.7	0.0001606	3.0994e-06	137	63.273	76.175	39.885	3.0614e-06	31.812	0.00014429	5.1667e-05	1.4448e-05	520.37	6.3079e-07	9.3292e-07	356.97	163.78	4.0212e-05	5.8761e-07	129.43	59.811	72.573	43.191	8.1223e-07	30.149	18.961	-102.026	-66.854	-157.732	-21.437	-3.921	-158.080	-150.963	5.139	-38.957	-154.317	-150.358	-147.350	-141.343	-53.072	-147.222	-8191	255	
2759.673	1	1	0	0	0.24118	0.15795	0.14093	0.31659	0.27513	0.16469	0.15147	0.050021	0.1528	0.14123	0.28794	0.098034	0.1284	0.028024	0.036592	0.057702	-2.3812	-3.2146	-3.2417	-2.8625	-3.3375	-3.1458	-3.1021	-3.4958	-2.9646	-3.225	-3.5333	-3.0708	-3.5812	-3.3458	-3.0125	-3.3792	-28.820	159.125	54.274	128.390	-70.475	-77.446	-107.613	-99.715	45.946	-122.584	16.948	-26.816	116.242	-121.213	135.553	174.273	0.00083704	0.00048726	5.7991e-05	470.83	3.174e-06	1.1942e-06	383.67	174.49	0.00023352	2.2384e-06	139.81	63.937	76.84	40.269	8.3003e-05	31.263	0.00014178	5.366e-05	1.4612e-05	501.65	6.1945e-07	8.7526e-07	362.69	165.46	5.7061e-05	6.5634e-07	131.95	60.808	73.011	40.031	1.7826e-05	29.915	20.439	-71.340	-96.838	-156.926	-59.969	67.763	-158.300	-150.672	12.758	-6.900	-154.302	-150.482	-147.423	-141.580	169.571	-147.440	-8191	255	
2759.791	1	1	0	0	0.031065	0.040771	0.26951	0.32562	0.14222	0.17835	0.24038	0.11243	0.24811	0.16316	0.16194	0.061123	0.21138	0.1871	0.072375	0.19603	-2.4875	-3.1625	-3.3187	-2.9104	-3.3146	-3.2313	-2.8167	-3.4542	-3.0625	-3.0146	-3.2375	-3.0146	-3.4688	-3.4229	-2.95	-3.4583	102.295	-66.261	-74.257	62.985	-121.639	-95.298	-49.410	80.885	91.126	11.969	186.092	60.307	127.040	113.716	-16.606	2.010	0.00086652	0.00033478	0.00011218	462.65	2.8585e-06	2.4389e-06	368.33	169.57	0.00014859	4.8106e-06	131.84	60.835	75.146	39.269	0.000165	30.396	0.0001353	6.4951e-05	1.4698e-05	513.45	6.0654e-07	5.7291e-07	348.64	160.74	3.9448e-05	6.7512e-07	125	57.928	71.073	37.702	5.62e-05	29.099	20.688	-77.467	-81.198	-157.427	-15.251	-34.531	-158.561	-150.292	19.163	-36.858	-154.555	-150.880	-147.481	-142.156	123.426	-147.041	-8191	255	
2759.863	1	1	0	0	0.13826	0.31803	0.11476	0.21795	0.066898	0.11057	0.27802	0.11712	0.21664	0.082608	0.035705	0.15284	0.16157	0.086065	0.09515	0.074084	-2.7854	-2.9375	-3.3625	-2.9646	-3.3208	-3.5042	-2.9938	-3.3896	-3.2083	-3.0375	-3.3979	-3.0354	-3.1792	-3.2562	-2.9042	-3.4708	113.185	-27.677	-63.476	118.226	-30.606	52.479	122.203	-109.784	70.766	-138.993	56.481	-60.217	78.303	-143.748	85.908	-100.579	0.00079995	0.00031438	7.4835e-05	462.2	2.7743e-06	3.4346e-06	370.87	170.3	0.00023149	3.5381e-06	134.89	61.828	75.605	39.756	0.00011457	31.272	0.00012666	6.1901e-05	1.4784e-05	489.91	6.0439e-07	5.7527e-07	352.13	162.07	5.4291e-05	7.1887e-07	127.81	59.02	71.98	38.163	3.9322e-05	29.785	20.214	-101.738	-75.255	-157.497	-47.026	17.723	-158.168	-150.673	32.544	-27.513	-153.662	-150.662	-147.588	-142.542	126.184	-147.198	-8191	255	
2759.961	1	1	0	0	0.060185	0.21593	0.071115	0.17341	0.036404	0.072515	0.022487	0.19972	0.096997	0.019337	0.21982	0.13285	0.29099	0.21183	0.090498	0.27148	-2.7604	-3.0229	-3.6063	-3.0125	-3.1354	-3.4188	-2.9292	-3.35	-3.3875	-3.0333	-3.6479	-2.9333	-3.1729	-3.5896	-3.0271	-3.2729	-10.328	102.500	-28.204	189.456	-145.751	122.252	-155.503	164.639	43.517	-34.888	146.291	-75.469	133.679	-153.833	107.548	172.617	0.00079901	0.00031053	7.0604e-05	470.16	2.0403e-06	3.1809e-06	375.71	172.49	0.0001603	1.5309e-05	136.95	62.826	76.259	40.146	0.00017736	31.601	0.00012482	7.073e-05	1.4067e-05	518.16	6.6306e-07	5.3506e-07	357.19	164.06	1.5294e-05	1.9073e-05	129.79	59.895	72.487	38.439	5.6607e-05	30.162	19.187	-74.097	-73.604	-157.396	-47.756	-6.479	-158.578	-150.633	36.020	-90.390	-154.073	-150.654	-147.492	-142.249	134.588	-147.187	-8191	255	
2760.080	1	1	0	0	0.14636	0.29441	0.095255	0.30565	0.19353	0.2066	0.12918	0.10659	0.13216	0.19347	0.081322	0.062288	0.11377	0.025095	0.11688	0.37325	-2.9	-2.9313	-3.225	-3.2625	-3.1979	-3.5875	-3.0187	-3.3375	-3.3187	-2.8438	-3.4917	-3.1521	-3.2208	-3.4271	-3.0333	-3.3063	47.051	79.294	60.509	133.219	74.808	-100.613	-164.857	119.545	134.552	-162.997	117.175	130.032	-65.467	180.664	-8.035	88.362	0.00092219	0.00031746	6.9459e-05	470.61	3.6571e-06	3.0793e-06	376.47	173.25	4.513e-06	0.00016195	133.73	61.822	75.515	39.338	0.00010538	30.458	0.0001091	9.3955e-05	1.4937e-05	496.99	7.5889e-07	5.8651e-07	357.63	164.1	6.5983e-07	5.7776e-05	127.42	58.491	71.469	37.766	3.9761e-05	29.153	19.561	-68.119	-100.237	-156.969	-14.594	-15.541	-158.255	-150.686	-31.756	7.616	-154.064	-150.949	-147.756	-141.991	143.010	-147.235	-8191	255	
2760.176	1	1	0	0	0.1933	0.13029	0.088745	0.015832	0.080199	0.21717	0.076025	0.174	0.028546	0.060582	0.071669	0.092191	0.20703	0.12613	0.15222	0.081506	-3.0146	-2.8208	-3.375	-3.2188	-3.0646	-3.4604	-2.9708	-3.2229	-3.5312	-3.0854	-3.3667	-3.2313	-2.9292	-3.6708	-2.9958	-3.325	143.718	60.404	53.089	-101.161	3.346	-142.239	103.947	-105.779	-36.368	-122.251	-64.969	-143.029	2.295	181.942	-7.471	184.032	0.00087559	0.00034257	5.9198e-05	464.03	1.1652e-06	3.595e-06	368.26	167.3	3.6643e-06	0.0001164	133.24	61.368	75.046	39.655	0.00015193	30.752	9.8682e-05	0.00010359	1.3473e-05	505.12	7.5258e-07	5.528e-07	347.19	160.18	6.05e-07	4.0451e-05	126.08	57.985	71.332	37.937	5.6413e-05	29.42	12.185	-50.975	-88.972	-155.749	-106.271	-45.394	-158.244	-150.493	4.671	20.104	-154.219	-151.081	-147.336	-142.143	147.690	-147.776	-8191	255	
2760.272	1	1	0	0	0.23152	0.061292	0.24142	0.25502	0.061791	0.069164	0.18635	0.22227	0.16977	0.0872	0.03671	0.1141	0.31096	0.1246	0.25017	0.1874	-3.0438	-2.9292	-3.3937	-3.1979	-3.0938	-3.5875	-2.9833	-3.0625	-3.4813	-3.0125	-3.3896	-3.3229	-2.9104	-3.4604	-3.0583	-3.0792	52.007	175.826	-122.826	152.783	-37.259	70.830	118.239	164.281	72.862	-124.884	40.912	41.016	-100.751	-110.185	-149.852	155.969	0.00077772	0.00027602	8.0316e-05	462.67	9.0522e-05	3.8799e-06	373.15	171.44	4.5879e-06	0.00015748	136.29	62.336	76.14	39.766	0.00011388	31.069	0.00010031	0.00010082	1.4952e-05	456.13	2.0911e-05	5.4467e-07	352.74	162.94	6.1356e-07	5.8463e-05	128.71	59.046	72.282	38.179	4.0724e-05	29.797	16.760	-11.556	-82.007	-155.914	-125.815	-17.842	-158.706	-150.988	-40.950	23.369	-154.014	-150.521	-147.643	-142.287	156.539	-147.792	-8191	255	
2760.393	1	1	0	0	0.21433	0.24394	0.10851	0.13315	0.045362	0.050672	0.1801	0.30367	0.2329	0.071094	0.23865	0.22509	0.062271	0.3154	0.070597	0.2769	-2.9792	-2.8979	-3.3042	-3.2792	-2.8708	-3.4146	-3.1521	-3.1729	-3.35	-3.0083	-3.2333	-3.1854	-2.9208	-3.4188	-2.9958	-3.0896	-95.128	71.705	182.561	-120.165	-33.381	103.045	119.974	179.751	64.492	146.691	106.793	105.150	-47.343	148.115	7.900	158.967	0.00089258	0.00019841	6.4004e-05	464.08	0.00013497	4.7414e-06	378.71	172.93	7.3106e-06	0.00012466	138.07	63.185	76.617	40.031	7.4682e-05	31.466	0.00010254	0.00010226	1.3383e-05	439.98	5.6981e-05	5.6212e-07	357.01	164.13	6.0942e-07	4.2188e-05	130.04	59.792	72.701	38.564	5.2518e-05	30.049	17.007	-82.281	-83.570	-156.047	-83.941	-9.599	-158.030	-150.340	-11.823	32.124	-153.833	-150.644	-147.516	-142.248	93.350	-147.167	-8191	255	
2760.464	1	1	0	0	0.31141	0.062355	0.16258	0.11457	0.24026	0.24364	0.42542	0.23333	0.098036	0.10789	0.097315	0.20411	0.23537	0.039359	0.10485	0.18923	-3.0375	-3.0646	-3.1354	-3.3646	-2.9437	-3.2354	-3.275	-3.0875	-3.3708	-3.1271	-2.9896	-3.4333	-2.9917	-3.6937	-3.0812	-2.9229	-23.224	60.488	81.098	131.842	181.867	-18.684	108.049	-133.396	-86.078	119.631	-56.720	107.214	-104.213	-66.159	-35.272	-3.879	0.00081419	0.00031126	7.2159e-05	461.76	9.7494e-05	1.7906e-06	363.87	168.4	2.564e-06	0.00016845	131.38	60.71	74.575	39.051	4.2573e-05	29.694	0.00010192	9.445e-05	1.4885e-05	438.11	4.1238e-05	5.6315e-07	346.42	160.27	6.2999e-07	5.8262e-05	124.52	57.292	70.682	37.412	1.2535e-05	31.145	18.339	-49.997	-89.835	-155.765	-83.005	-32.609	-158.585	-150.517	-8.525	39.172	-154.084	-150.404	-147.325	-142.339	90.774	-148.595	-8191	255	
2760.561	1	1	0	0	0.057924	0.10511	0.18944	0.23401	0.082808	0.07406	0.24683	0.012547	0.26757	0.040241	0.17609	0.12261	0.24865	0.22419	0.048382	0.11336	-3.0229	-2.8854	-3.0417	-3.5125	-2.9958	-3.1979	-3.2979	-2.9125	-3.3187	-3.1542	-3.1312	-3.2771	-2.9375	-3.3271	-3.3271	-2.9188	-4.831	57.065	-162.056	133.906	149.016	-19.797	-150.078	41.136	35.240	-1.230	31.698	176.360	-159.162	-159.826	-137.676	120.412	0.00081108	0.00026363	6.1829e-05	454.69	0.00015197	3.4363e-06	366.15	168.04	5.6748e-06	0.00012655	133.85	61.632	75.299	39.227	4.1007e-06	30.149	9.8705e-05	8.9299e-05	1.8464e-05	431.71	5.7089e-05	5.3373e-07	346.83	160.8	6.4883e-07	4.2692e-05	126.59	58.125	71.548	37.8	6.3164e-07	35.488	16.969	-66.014	-81.435	-156.382	-72.695	-27.206	-157.945	-150.815	-36.860	45.940	-154.050	-150.408	-147.081	-142.080	-35.496	-149.205	-8191	255	
2760.657	1	1	0	0	0.023299	0.01815	0.092845	0.047915	0.12555	0.26669	0.10989	0.14291	0.26513	0.27363	0.084573	0.18821	0.15582	0.16951	0.22278	0.15408	-2.8792	-3.0896	-2.9625	-3.4729	-2.7313	-3.2333	-3.4271	-2.8771	-3.4167	-3.1312	-3.0375	-3.4792	-3.0583	-3.1083	-3.2646	-2.9729	-129.603	-32.899	86.737	-18.835	158.116	132.196	184.684	105.227	97.854	83.259	-31.728	-97.366	92.550	152.944	-41.207	74.789	0.00084755	0.00023904	7.0753e-05	464.1	9.534e-05	3.687e-06	377.57	171.74	1.9978e-06	0.00016858	136.36	62.865	76.169	39.879	3.8872e-06	31.067	9.9826e-05	8.7092e-05	1.765e-05	438.25	4.1764e-05	5.0993e-07	353.85	163.26	5.94e-07	5.0908e-05	128.86	59.222	72.504	38.342	6.4179e-07	34.254	17.763	-110.018	-91.450	-156.178	-60.247	-38.493	-158.756	-150.764	-33.392	31.686	-154.780	-151.410	-147.495	-142.186	-35.298	-148.917	-8191	255	
2760.776	1	1	0	0	0.11702	0.092956	0.1965	0.18184	0.19386	0.1231	0.15512	0.14393	0.1106	0.20756	0.15515	0.11649	0.14531	0.13127	0.15573	0.12505	-2.8646	-3.1021	-2.7708	-3.5	-3.175	-3.175	-3.1813	-3.1188	-3.4125	-3.1312	-2.9542	-3.5083	-2.9521	-3.1937	-3.3271	-3.0104	86.867	24.809	-96.496	-76.493	-119.018	-141.080	-104.032	-110.681	-123.998	69.072	54.198	-128.233	84.312	94.703	128.347	-19.144	0.00086848	0.00047851	8.1521e-05	470.38	0.00013939	4.1436e-06	377.64	173.07	7.5116e-06	0.00011662	136.46	62.996	76.049	39.791	3.6937e-06	30.766	0.00010122	7.1854e-05	2.1561e-05	444.46	5.7581e-05	7.1115e-07	359.05	165.07	6.6782e-07	1.0832e-05	148.89	59.7	72.404	38.249	6.3106e-07	35.46	16.470	-75.036	-72.022	-156.231	-53.929	-17.766	-158.452	-150.547	-49.037	36.851	-154.937	-150.628	-147.568	-142.450	-43.825	-149.222	-8191	255	
2760.872	1	1	0	0	0.13058	0.23055	0.14149	0.030184	0.059198	0.32781	0.24658	0.038894	0.10094	0.1637	0.30564	0.13472	0.19071	0.1358	0.17305	0.068451	-2.8563	-3.3917	-2.9146	-3.6	-2.9896	-3.1333	-3.5854	-2.9813	-3.3458	-3.3167	-2.9146	-3.3375	-3.2792	-3.0542	-3.3854	-3.0375	80.760	-149.009	-31.063	-18.508	-57.528	-61.780	91.726	-139.049	-94.533	-132.076	78.532	-63.792	65.536	-85.283	-6.151	105.723	0.00083287	0.00022428	9.9225e-05	459.23	0.000106	3.0717e-06	367.13	167.8	7.8981e-06	3.6091e-06	127.45	60.415	74.781	38.995	1.8452e-06	30.167	0.00010109	5.4396e-05	2.7102e-05	435.07	4.0424e-05	6.5112e-07	346.28	160.31	6.5326e-07	5.5361e-07	167.52	57.468	70.959	37.545	6.215e-07	33.313	17.506	-89.521	-82.112	-156.134	-53.865	7.208	-158.227	-150.529	-24.753	-47.343	-151.726	-150.639	-147.320	-142.451	-56.229	-148.900	-8191	255	
#DATA ENDS
