BOXY.EXE: ISS Imagent and Oximeter Data Acquisition Program Version 0.80
Ascii Record File

#ACQ INFORMATION
2  Detector Channels 
16  External MUX Channels 
1  Auxiliary Channels 
5000  Waveform (CCF) Frequency (Hz)
1  Waveforms Skipped 
30  Waveforms Averaged 
1  Cycles Averaged 
16  Acquisitions per Waveform 
10.0806  Updata Rate (Hz) 

#FILE INFORMATION
TRUE -- External MUX Channel results are PARSED.
FALSE -- AC DC and Phase are NOT grouped.
TRUE -- Companion Program Settings File CREATED.
FALSE -- AC data not excluded
FALSE -- DC data not excluded
FALSE -- Phase data not excluded
FALSE -- Auxillary Chn. data not excluded
Tab delimiters

#CALIBRATION STATE
TRUE -- Waveform Calibration Values APPLIED.


#AUX CALIBRATION VALUES
Val Type	aux-1	

Term	1.0000e+00	
Factor	0.0000e+00	


#WF CALIBRATION VALUES
A = Detector Channel
Val Type	A-AC1	A-AC2	A-AC3	A-AC4	A-AC5	A-AC6	A-AC7	A-AC8	A-AC9	A-AC10	A-AC11	A-AC12	A-AC13	A-AC14	A-AC15	A-AC16	A-DC1	A-DC2	A-DC3	A-DC4	A-DC5	A-DC6	A-DC7	A-DC8	A-DC9	A-DC10	A-DC11	A-DC12	A-DC13	A-DC14	A-DC15	A-DC16	A-Ph1	A-Ph2	A-Ph3	A-Ph4	A-Ph5	A-Ph6	A-Ph7	A-Ph8	A-Ph9	A-Ph10	A-Ph11	A-Ph12	A-Ph13	A-Ph14	A-Ph15	A-Ph16	

Term	0.00000e+00	0.00000e+00	0.00000e+00	0.00000e+00	0.00000e+00	0.00000e+00	0.00000e+00	0.00000e+00	0.00000e+00	0.00000e+00	0.00000e+00	0.00000e+00	0.00000e+00	0.00000e+00	0.00000e+00	0.00000e+00	0.00000e+00	0.00000e+00	0.00000e+00	0.00000e+00	0.00000e+00	0.00000e+00	0.00000e+00	0.00000e+00	0.00000e+00	0.00000e+00	0.00000e+00	0.00000e+00	0.00000e+00	0.00000e+00	0.00000e+00	0.00000e+00	0.00000e+00	0.00000e+00	0.00000e+00	0.00000e+00	0.00000e+00	0.00000e+00	0.00000e+00	0.00000e+00	0.00000e+00	0.00000e+00	0.00000e+00	0.00000e+00	0.00000e+00	0.00000e+00	0.00000e+00	0.00000e+00	
Factor	1.00000e+00	1.00000e+00	1.00000e+00	1.00000e+00	1.00000e+00	1.00000e+00	1.00000e+00	1.00000e+00	1.00000e+00	1.00000e+00	1.00000e+00	1.00000e+00	1.00000e+00	1.00000e+00	1.00000e+00	1.00000e+00	1.00000e+00	1.00000e+00	1.00000e+00	1.00000e+00	1.00000e+00	1.00000e+00	1.00000e+00	1.00000e+00	1.00000e+00	1.00000e+00	1.00000e+00	1.00000e+00	1.00000e+00	1.00000e+00	1.00000e+00	1.00000e+00	X	X	X	X	X	X	X	X	X	X	X	X	X	X	X	X	

B = Detector Channel
Val Type	B-AC1	B-AC2	B-AC3	B-AC4	B-AC5	B-AC6	B-AC7	B-AC8	B-AC9	B-AC10	B-AC11	B-AC12	B-AC13	B-AC14	B-AC15	B-AC16	B-DC1	B-DC2	B-DC3	B-DC4	B-DC5	B-DC6	B-DC7	B-DC8	B-DC9	B-DC10	B-DC11	B-DC12	B-DC13	B-DC14	B-DC15	B-DC16	B-Ph1	B-Ph2	B-Ph3	B-Ph4	B-Ph5	B-Ph6	B-Ph7	B-Ph8	B-Ph9	B-Ph10	B-Ph11	B-Ph12	B-Ph13	B-Ph14	B-Ph15	B-Ph16	

Term	0.00000e+00	0.00000e+00	0.00000e+00	0.00000e+00	0.00000e+00	0.00000e+00	0.00000e+00	0.00000e+00	0.00000e+00	0.00000e+00	0.00000e+00	0.00000e+00	0.00000e+00	0.00000e+00	0.00000e+00	0.00000e+00	0.00000e+00	0.00000e+00	0.00000e+00	0.00000e+00	0.00000e+00	0.00000e+00	0.00000e+00	0.00000e+00	0.00000e+00	0.00000e+00	0.00000e+00	0.00000e+00	0.00000e+00	0.00000e+00	0.00000e+00	0.00000e+00	4.69284e+01	-1.27582e+02	-1.30931e+02	-1.83936e+02	-7.62020e+01	-6.69807e+01	-1.56989e+02	-1.62015e+02	-5.22494e+01	-7.94096e+01	-1.78987e+02	-1.72875e+02	-1.82137e+02	-1.78866e+02	-7.23244e+01	-1.51154e+02	
Factor	6.73214e-05	1.82383e-04	5.06034e-05	1.89429e-01	1.93940e-06	2.29934e-06	1.72175e-01	6.05181e-02	3.16237e-06	2.20276e-06	1.07814e-01	3.31898e-02	2.86066e-02	1.08537e-02	2.29806e-06	1.49911e-02	5.72136e-06	6.42153e-06	1.79335e-06	9.47223e-02	6.88599e-08	7.09668e-08	8.12099e-02	3.03370e-02	6.85387e-08	7.09561e-08	5.23066e-02	1.61085e-02	1.44478e-02	5.47581e-03	6.95704e-08	7.34234e-03	X	X	X	X	X	X	X	X	X	X	X	X	X	X	X	X	



#DISTANCE SETTINGS
A = Detector Channel
A-1	A-2	A-3	A-4	A-5	A-6	A-7	A-8	A-9	A-10	A-11	A-12	A-13	A-14	A-15	A-16	

2.5000e+00	3.0000e+00	2.5000e+00	3.0000e+00	2.0000e+00	3.0000e+00	1.5000e+00	3.0000e+00	3.0000e+00	3.0000e+00	3.0000e+00	3.0000e+00	3.0000e+00	3.0000e+00	1.5000e+00	3.0000e+00	

B = Detector Channel
B-1	B-2	B-3	B-4	B-5	B-6	B-7	B-8	B-9	B-10	B-11	B-12	B-13	B-14	B-15	B-16	

1.0000e+01	1.0000e+01	1.0000e+01	1.4400e+00	1.0000e+01	1.0000e+01	1.5100e+00	1.9400e+00	1.0000e+01	1.0000e+01	1.9900e+00	2.4900e+00	2.4100e+00	2.9000e+00	1.0000e+01	2.9800e+00	




#DATA BEGINS
time	group	step	mark	flag	A-AC1	A-AC2	A-AC3	A-AC4	A-AC5	A-AC6	A-AC7	A-AC8	A-AC9	A-AC10	A-AC11	A-AC12	A-AC13	A-AC14	A-AC15	A-AC16	A-DC1	A-DC2	A-DC3	A-DC4	A-DC5	A-DC6	A-DC7	A-DC8	A-DC9	A-DC10	A-DC11	A-DC12	A-DC13	A-DC14	A-DC15	A-DC16	A-Ph1	A-Ph2	A-Ph3	A-Ph4	A-Ph5	A-Ph6	A-Ph7	A-Ph8	A-Ph9	A-Ph10	A-Ph11	A-Ph12	A-Ph13	A-Ph14	A-Ph15	A-Ph16	B-AC1	B-AC2	B-AC3	B-AC4	B-AC5	B-AC6	B-AC7	B-AC8	B-AC9	B-AC10	B-AC11	B-AC12	B-AC13	B-AC14	B-AC15	B-AC16	B-DC1	B-DC2	B-DC3	B-DC4	B-DC5	B-DC6	B-DC7	B-DC8	B-DC9	B-DC10	B-DC11	B-DC12	B-DC13	B-DC14	B-DC15	B-DC16	B-Ph1	B-Ph2	B-Ph3	B-Ph4	B-Ph5	B-Ph6	B-Ph7	B-Ph8	B-Ph9	B-Ph10	B-Ph11	B-Ph12	B-Ph13	B-Ph14	B-Ph15	B-Ph16	aux-1	digaux	

685.696	1	1	0	256	0.18138	0.12446	0.15353	0.090403	0.15272	0.23115	0.37032	0.14079	0.088542	0.042457	0.10624	0.20973	0.14191	0.093628	0.14968	0.14028	-2.5187	-3.1604	-3.3438	-3.0021	-3.3646	-3.3604	-3.1083	-3.4583	-3.0375	-3.2792	-3.4833	-3.05	-3.3396	-3.1458	-2.9479	-3.5021	173.109	273.715	-9.626	85.751	221.514	126.111	321.245	316.056	150.829	52.848	322.030	-17.534	272.986	91.401	180.284	230.555	0.00050168	0.00027108	5.1682e-05	1266.7	5.3133e-06	8.1034e-06	1335.4	259.16	9.3582e-06	1.3237e-06	321.74	91.697	72.365	21.201	4.6521e-06	29.022	0.00061027	0.00063788	0.0001794	1265.3	6.9437e-06	6.9629e-06	1329.7	261.39	7.0199e-06	7.0802e-06	323.71	93.713	73.736	21.854	6.956e-06	30.095	322.187	184.089	70.760	-9.021	128.819	122.793	-8.910	-1.897	147.343	54.089	-2.021	4.161	4.716	11.518	230.705	11.409	-8191	255	
685.792	1	1	0	0	0.20659	0.1315	0.29325	0.057087	0.025027	0.2093	0.35689	0.028298	0.15496	0.036219	0.21106	0.067652	0.18147	0.082134	0.19393	0.14343	-2.6417	-3.1208	-3.4375	-2.9958	-3.2104	-3.4021	-3.0042	-3.525	-3.0417	-3.1229	-3.4917	-3.1188	-3.15	-3.1417	-2.8563	-3.2687	137.941	34.735	174.845	254.875	107.942	166.588	269.174	36.631	219.602	164.353	268.308	16.748	233.240	335.819	174.163	246.018	0.000418	0.00058987	0.00010676	1272.2	5.061e-06	3.6985e-06	1335.3	258.42	3.7143e-06	3.1476e-06	321	91.935	72.122	21.128	5.2769e-06	28.899	0.00061211	0.00063331	0.00017816	1267.5	7.018e-06	7.1264e-06	1330.1	261.05	7.108e-06	7.0955e-06	324.13	93.564	73.514	21.752	7.0784e-06	29.962	320.211	32.763	52.894	-8.863	151.554	148.873	-8.883	-1.979	86.483	106.098	-2.287	3.940	4.643	11.810	32.843	11.044	-8191	255	
685.889	1	1	0	0	0.25824	0.06719	0.24708	0.26444	0.19908	0.12263	0.14643	0.016052	0.041361	0.15988	0.19077	0.16873	0.13143	0.068696	0.23533	0.14667	-2.9562	-3.0167	-3.3583	-2.9604	-3.1979	-3.4729	-3.0917	-3.3042	-3.1813	-2.9021	-3.4562	-2.8917	-3.2188	-3.275	-2.6958	-3.3438	-18.416	152.340	254.705	282.739	146.465	0.641	296.145	304.501	27.023	41.077	97.719	319.628	91.263	43.151	91.575	333.574	0.00041109	0.00047563	0.00015958	1268.5	4.1827e-06	6.6369e-06	1331.8	259.28	8.4313e-06	6.2664e-06	320.44	91.496	71.931	20.978	5.255e-06	28.729	0.00060047	0.00063211	0.00017857	1267.7	6.8962e-06	6.983e-06	1328.3	261.37	6.9417e-06	7.0573e-06	323.9	93.565	73.537	21.739	7.1918e-06	29.816	304.250	104.706	73.846	-9.109	84.492	147.212	-8.847	-1.931	152.184	155.963	-1.946	4.200	4.437	11.524	116.840	11.608	-8191	255	
686.007	1	1	0	0	0.16966	0.17358	0.10342	0.17747	0.027282	0.14807	0.1678	0.24544	0.08674	0.23895	0.28266	0.23245	0.093691	0.054599	0.2401	0.053629	-2.6292	-2.9188	-3.2854	-3.1104	-2.8979	-3.4229	-3.1667	-3.4604	-3.3708	-2.9354	-3.4792	-3.1896	-3.1104	-3.2271	-3.0042	-3.4313	-13.168	317.185	168.409	224.294	171.070	-5.748	281.189	244.146	236.596	227.275	39.195	335.831	-5.414	10.156	143.582	84.695	0.00059031	0.00014186	0.00014182	1271.5	2.0929e-06	8.4663e-06	1330.2	257.79	6.7377e-06	1.5176e-06	320.09	91.722	71.906	20.809	4.8322e-06	28.819	0.00061163	0.00064162	0.00017661	1265.6	6.9589e-06	6.92e-06	1327.9	260.7	6.6378e-06	6.8901e-06	323.16	93.424	73.129	21.613	6.5018e-06	29.71	306.096	91.195	78.134	-8.866	147.266	120.337	-8.868	-1.660	193.340	45.037	-1.974	4.423	4.270	11.218	141.549	11.093	-8191	255	
686.104	1	1	0	0	0.28812	0.10932	0.19863	0.028417	0.15827	0.26955	0.3033	0.052458	0.20254	0.18221	0.051051	0.19602	0.18494	0.11144	0.12172	0.1941	-2.7812	-2.8563	-3.1854	-3.2792	-3.0208	-3.4354	-3.3083	-3.1875	-3.1896	-2.8833	-3.3625	-3.2562	-3.0604	-3.3583	-2.9708	-3.3	258.142	136.632	91.414	137.304	212.885	243.845	256.122	66.437	64.119	52.638	66.198	223.222	12.252	284.299	2.409	16.046	0.00032178	2.6271e-05	3.7004e-05	1265.5	3.7804e-06	3.8143e-06	1331.1	258.48	7.8553e-06	3.3496e-06	318.46	91.51	71.489	20.936	5.7452e-06	28.603	0.0005639	0.00059997	0.00016345	1263.8	6.5129e-06	6.594e-06	1326.1	260.53	6.4075e-06	6.6804e-06	322.48	93.174	73.123	21.58	6.5635e-06	29.656	338.133	95.763	323.220	-8.768	167.134	13.312	-8.777	-1.849	189.259	65.308	-2.086	4.425	4.335	11.800	106.475	11.019	-8191	255	
686.200	1	1	0	0	0.22912	0.041265	0.22243	0.13359	0.057603	0.17046	0.2794	0.12143	0.15558	0.058986	0.29834	0.058848	0.2216	0.17247	0.27923	0.2124	-3.0521	-2.9521	-3.2604	-3.3	-3.0583	-3.475	-3.2042	-3.1583	-3.3333	-2.8438	-3.3354	-3.2854	-2.9729	-3.4875	-3.0083	-2.9938	-2.480	244.816	309.622	300.083	112.713	284.358	222.992	5.280	65.472	32.743	186.965	168.277	24.945	120.649	145.082	190.095	0.00042207	0.00064097	8.3454e-05	1265	8.2654e-06	2.8348e-06	1326.4	257.61	8.5752e-06	4.7137e-06	318.38	91.308	71.667	20.908	3.0182e-06	28.802	0.00057327	0.00060777	0.00016739	1263.9	6.5689e-06	6.5584e-06	1322.8	260.1	6.4298e-06	6.5615e-06	322.1	93.044	73.021	21.548	6.6583e-06	29.684	318.013	45.446	6.946	-9.023	154.155	128.436	-8.806	-1.818	191.012	178.554	-1.825	4.201	4.482	11.595	171.494	11.099	-8191	255	
686.296	1	1	0	0	0.0068769	0.12473	0.25892	0.27681	0.079094	0.16728	0.18189	0.23466	0.17909	0.20247	0.10294	0.11597	0.097299	0.18775	0.27468	0.10195	-2.9271	-2.9979	-3.3021	-3.3042	-3.0104	-3.2667	-3.3583	-3.1188	-3.4479	-2.9688	-3.3854	-3.2708	-2.9375	-3.4833	-3.0833	-2.9479	182.048	1.086	255.955	330.141	308.144	170.749	270.987	257.020	147.609	-19.475	86.732	106.477	336.851	-19.640	123.471	79.655	0.00037749	0.00046308	0.00014955	1262.3	3.1362e-06	4.5968e-06	1328.6	258.09	6.157e-06	2.0288e-06	317.36	90.949	71.633	20.912	6.4352e-06	28.575	0.00057365	0.00061469	0.00016583	1260.8	6.6575e-06	6.4844e-06	1323.8	259.97	6.3848e-06	6.4977e-06	321.62	92.938	72.836	21.535	6.2348e-06	29.595	334.204	50.830	124.257	-8.878	131.346	178.461	-8.930	-1.682	161.000	246.961	-2.144	4.391	4.930	11.858	98.640	11.112	-8191	255	
686.392	1	1	0	0	0.075109	0.074616	0.17772	0.19071	0.17594	0.21009	0.2804	0.28773	0.127	0.071445	0.1567	0.21257	0.20155	0.12867	0.28572	0.36223	-3.0729	-2.9458	-3.3104	-3.4313	-2.8896	-3.3333	-3.3854	-3.0729	-3.5021	-3.0417	-3.0729	-3.3438	-2.8604	-3.5	-3.0208	-2.9062	142.405	75.513	146.677	268.297	176.211	25.668	291.737	270.532	338.138	78.460	309.220	316.660	32.964	-18.807	-13.390	295.425	0.00044945	0.00069122	0.00011634	1262.7	4.9629e-06	3.2689e-06	1323.4	257.76	8.3489e-06	1.3992e-06	316.68	91.118	71.079	20.765	2.116e-06	28.34	0.000547	0.00058686	0.00016067	1259.1	6.422e-06	6.3228e-06	1321.4	259.41	6.349e-06	6.3047e-06	320.88	92.874	72.612	21.468	6.146e-06	29.446	308.192	55.494	67.704	-8.951	158.596	159.934	-8.830	-1.740	145.509	203.900	-2.250	4.651	4.096	11.792	192.865	11.557	-8191	255	
686.488	1	1	0	0	0.16431	0.086293	0.063848	0.11538	0.17649	0.033795	0.078504	0.0932	0.18015	0.17776	0.17828	0.055756	0.084988	0.19449	0.17147	0.072157	-2.8917	-3.0104	-3.0729	-3.5979	-2.9271	-3.2958	-3.3417	-3.1625	-3.5354	-3.0292	-3.1833	-3.4354	-2.8896	-3.3312	-3.2313	-2.9125	84.702	242.890	289.953	-1.055	172.845	174.873	268.065	276.610	188.791	27.413	194.876	248.415	211.566	20.164	160.227	264.242	0.00043909	0.00068981	3.0207e-05	1262.5	4.0863e-06	4.7803e-06	1318.3	257.16	8.4503e-06	7.9201e-07	316.15	91.065	71.361	20.766	1.018e-06	28.507	0.00053745	0.00055553	0.00015273	1254.9	6.0547e-06	6.0489e-06	1315.2	258.68	5.8354e-06	6.0245e-06	319.21	92.336	72.556	21.423	5.741e-06	29.436	310.964	59.057	108.517	-9.086	110.944	116.012	-8.725	-1.995	155.020	120.946	-2.001	4.074	4.427	11.617	257.816	11.417	-8191	255	
686.609	1	1	0	0	0.28263	0.21511	0.099931	0.11619	0.053157	0.12099	0.083901	0.3653	0.13454	0.093347	0.19218	0.11549	0.25761	0.18546	0.078996	0.083157	-3.0104	-3.0479	-3.1146	-3.5667	-3.0479	-3.3792	-3.3688	-2.9062	-3.4271	-3.0521	-3.0375	-3.6271	-3.0021	-3.2333	-3.4	-2.9229	30.647	37.498	97.248	34.882	134.881	215.505	255.677	298.239	153.759	32.669	9.687	301.965	317.602	310.023	322.079	176.649	0.00028759	0.00021025	0.00014598	1255.7	1.3171e-06	4.3822e-06	1310.7	256.14	6.2416e-06	2.8894e-06	317.07	90.878	71.094	20.642	4.7952e-06	28.416	0.00050539	0.00051664	0.00014445	1249.7	5.8836e-06	5.5833e-06	1308.2	257.65	5.5461e-06	5.4629e-06	318.65	92.229	72.085	21.289	5.4413e-06	29.27	321.918	15.222	87.766	-8.770	71.754	63.896	-8.849	-1.586	160.628	110.795	-2.395	4.494	4.609	11.785	113.887	10.941	-8191	255	
686.705	1	1	0	0	0.19713	0.1692	0.015791	0.26339	0.11025	0.16377	0.16593	0.23195	0.14732	0.15349	0.090524	0.15048	0.21108	0.11262	0.047898	0.19825	-2.8104	-3.125	-3.0687	-3.5292	-3.0792	-3.3396	-3.3979	-2.8937	-3.3187	-3.1875	-3.0292	-3.4771	-3.025	-3.125	-3.2479	-2.8792	177.043	130.683	306.441	261.199	255.143	43.114	230.132	298.636	92.033	16.377	336.990	280.113	232.358	247.399	33.255	269.261	0.0004213	0.00032005	9.3465e-05	1247.3	4.0896e-06	3.1824e-06	1309	255.3	7.1138e-06	2.8359e-06	316.12	90.575	70.684	20.786	3.5807e-06	28.239	0.00047928	0.00050159	0.00013947	1245.1	5.619e-06	5.5833e-06	1305.6	256.91	5.314e-06	5.3093e-06	318.14	91.967	71.863	21.271	5.1575e-06	29.203	314.726	67.297	69.434	-8.853	147.234	67.399	-8.792	-1.881	138.654	42.535	-1.967	4.430	4.508	11.113	123.666	11.269	-8191	255	
686.801	1	1	0	0	0.24822	0.032769	0.21713	0.15789	0.25937	0.13282	0.11484	0.20038	0.18589	0.079965	0.25455	0.094264	0.041562	0.18554	0.063271	0.1562	-2.8583	-3.0208	-2.9292	-3.4708	-2.9396	-3.0625	-3.4708	-3.0062	-3.2146	-3.425	-2.9708	-3.3729	-3.0292	-3.0583	-3.4313	-2.9437	226.439	118.176	117.497	85.958	297.559	-6.012	333.227	248.598	216.807	318.315	289.159	243.094	71.719	135.846	173.642	32.466	0.00040119	0.0005322	8.9063e-05	1245.9	6.3739e-06	5.3299e-06	1309.4	253.92	2.67e-06	3.0357e-06	313.59	90.458	70.941	20.513	2.6267e-06	28.163	0.00045467	0.00047929	0.00013454	1240.7	5.2882e-06	5.1426e-06	1302.7	255.85	5.0073e-06	5.0787e-06	316.29	91.794	71.742	21.154	5.0699e-06	29.196	302.853	77.933	79.532	-8.734	104.668	129.661	-8.826	-1.877	316.685	107.718	-2.472	4.431	4.583	11.839	198.496	11.286	-8191	255	
686.897	1	1	0	0	0.063499	0.15593	0.17318	0.2366	0.2444	0.092151	0.22449	0.11981	0.22905	0.16405	0.21387	0.025792	0.11405	0.1842	0.30755	0.1669	-3.0062	-3.2729	-2.8812	-3.4	-3.0583	-3.0854	-3.5938	-3.0271	-3.2979	-3.2812	-2.8875	-3.4	-3.0583	-3.0396	-3.3979	-3.0521	59.261	330.960	28.466	320.854	164.033	323.540	317.283	33.051	312.955	256.067	-15.828	300.791	147.940	-5.659	99.043	30.638	0.00054884	0.00044868	7.2753e-05	1238.7	4.6051e-06	5.6892e-06	1299.9	254.14	8.4982e-06	2.4173e-06	312.36	90.272	70.166	20.513	4.0884e-06	28.297	0.00044405	0.00046691	0.00012949	1235.3	5.1318e-06	5.1373e-06	1294.2	255.43	5.0482e-06	5.1242e-06	315.51	91.507	71.535	21.119	5.1528e-06	29.123	316.680	80.764	104.428	-8.852	140.705	88.767	-8.649	-1.855	167.785	103.786	-1.916	4.604	4.838	11.717	120.951	11.387	-8191	255	
686.993	1	1	0	0	0.16359	0.09922	0.070492	0.50242	0.1801	0.087631	0.23577	0.21273	0.067906	0.18808	0.077676	0.23059	0.21553	0.37286	0.27028	0.10636	-2.8271	-3.2917	-2.8896	-3.5229	-3.0271	-3.0896	-3.4917	-3.0354	-3.0292	-3.4125	-3.0146	-3.3688	-3.2562	-2.8812	-3.4167	-2.9979	125.363	10.508	155.057	320.222	319.815	121.602	224.407	250.675	30.560	118.841	248.463	275.653	267.050	282.067	228.321	8.856	0.00041333	0.00029184	0.00011662	1236.5	2.366e-06	4.2823e-06	1295.6	252.72	1.0564e-05	3.3483e-06	312.85	90.018	70.135	20.478	3.5997e-06	28.203	0.00045633	0.00046722	0.00013062	1234.2	5.0179e-06	5.18e-06	1292.3	254.77	5.0377e-06	5.1357e-06	315.3	91.284	71.543	21.143	5.2215e-06	29.062	314.890	44.881	38.648	-8.790	42.940	110.969	-8.903	-1.626	137.231	186.012	-1.862	4.517	4.864	11.854	103.107	11.220	-8191	255	
687.088	1	1	0	0	0.26017	0.13076	0.25589	0.12272	0.32613	0.16083	0.16571	0.24971	0.27688	0.16491	0.11322	0.11703	0.15992	0.1439	0.20115	0.22393	-2.6771	-3.4188	-2.9229	-3.4375	-3.1063	-2.9646	-3.6125	-3.1271	-3.0896	-3.5521	-2.9792	-3.3	-3.25	-2.9146	-3.4333	-3.2417	39.098	83.588	78.157	-17.746	104.452	292.828	219.617	299.019	189.778	322.656	239.296	18.479	314.807	238.251	157.384	187.169	0.00042207	0.00046855	6.7894e-05	1236.7	5.4824e-06	1.8617e-06	1294.6	253.27	2.5605e-06	2.4329e-06	311.63	89.897	70.614	20.593	2.375e-06	28.207	0.00045573	0.00046596	0.000129	1231.6	5.0203e-06	5.1676e-06	1293.4	254.49	5.0467e-06	5.0303e-06	314.96	91.251	71.44	21.137	5.0773e-06	29.053	294.777	31.823	237.842	-8.686	104.526	125.670	-8.767	-1.373	193.442	114.190	-2.381	4.214	4.541	11.846	123.292	11.211	-8191	255	
687.184	1	1	0	0	0.21121	0.044254	0.077818	0.21545	0.18292	0.213	0.20828	0.16118	0.092669	0.18204	0.3051	0.17464	0.026539	0.25829	0.029964	0.082241	-2.6	-3.3937	-2.8667	-3.5833	-3.1417	-2.9667	-3.5375	-3.1688	-3.1167	-3.4333	-3.1188	-3.1625	-3.3479	-2.8667	-3.3229	-3.2229	141.087	223.193	170.646	317.609	193.592	34.184	308.186	247.302	-5.748	121.446	316.697	43.561	288.002	42.722	68.579	110.023	0.00059195	0.00047758	0.00014688	1236.6	5.4245e-06	8.5786e-07	1301.6	252.88	2.1844e-06	2.7154e-06	313.46	89.219	70.255	20.359	1.3972e-06	28.129	0.00045606	0.00047193	0.00013139	1231.6	5.1853e-06	5.1974e-06	1292.7	254.24	5.1585e-06	5.1105e-06	315.17	91.183	71.301	21.097	5.0027e-06	29.079	311.757	60.508	51.854	-8.812	174.997	72.201	-8.950	-1.646	263.479	147.651	-1.934	4.362	4.983	11.933	243.153	11.422	-8191	255	
687.305	1	1	0	0	0.050441	0.26913	0.17676	0.22608	0.0070107	0.21017	0.18718	0.18146	0.086099	0.06588	0.13096	0.1597	0.27301	0.17854	0.092751	0.1916	-2.4854	-3.5354	-3.0062	-3.3	-3.3229	-3.0125	-3.4104	-3.1625	-2.9583	-3.4646	-3.1042	-2.9167	-3.2521	-2.9146	-3.3208	-3.2479	205.543	120.129	19.647	264.746	121.382	26.652	316.121	21.587	116.404	312.237	222.248	295.986	272.654	18.060	287.192	311.860	0.00038022	0.00063004	9.3745e-05	1230.5	5.2781e-06	5.8564e-06	1295.1	252.35	8.4397e-06	2.7846e-06	311.04	89.688	70.483	20.346	2.3283e-06	28.194	0.00044237	0.00045974	0.00012768	1227.5	4.9123e-06	4.9085e-06	1287.5	254	4.8761e-06	4.8426e-06	314.25	90.992	71.153	20.995	4.9843e-06	28.933	322.240	83.067	53.972	-8.883	138.060	105.820	-8.742	-1.802	217.593	160.454	-1.797	4.361	4.883	11.774	177.148	11.236	-8191	255	
687.401	1	1	0	0	0.24354	0.086453	0.26316	0.33664	0.094662	0.24676	0.25432	0.19664	0.13151	0.059737	0.24175	0.14406	0.16093	0.23306	0.13641	0.13877	-2.5271	-3.3937	-2.9979	-3.1667	-3.4125	-2.8583	-3.2542	-3.3479	-3.0604	-3.5833	-3.1958	-3.0708	-3.4938	-3.0729	-3.4938	-3.3208	-5.120	105.680	264.473	274.233	329.393	83.809	281.868	31.353	217.582	288.043	301.176	171.006	11.169	295.312	143.810	42.064	0.00041961	0.00069887	9.6243e-05	1227.8	4.3897e-06	4.7394e-06	1289.5	251.65	5.5036e-06	5.2411e-06	312.21	89.663	70.251	20.594	6.1944e-06	28.09	0.00045122	0.00045704	0.00012756	1225.3	5.0305e-06	4.9217e-06	1285.9	253.66	5.0423e-06	5.0258e-06	313.81	91.075	71.214	21.068	5.0086e-06	28.938	316.771	-5.958	105.573	-8.792	135.428	137.577	-8.758	-1.545	124.353	135.199	-1.908	4.273	4.973	11.551	131.125	11.167	-8191	255	
687.472	1	1	0	0	0.20503	0.19991	0.24187	0.20488	0.097209	0.04431	0.052905	0.057319	0.12146	0.26658	0.15329	0.17761	0.16156	0.07751	0.062159	0.093101	-2.5021	-3.4896	-3.0625	-3.1271	-3.6271	-2.9542	-3.4417	-3.25	-2.9729	-3.4333	-3.3812	-3.1521	-3.4688	-2.8958	-3.1271	-3.3604	116.472	238.232	-19.000	325.804	334.241	290.806	176.030	3.088	223.998	260.330	153.524	182.441	279.570	3.546	23.622	38.050	0.00053627	0.00040978	0.00017649	1228	2.5e-06	6.2532e-07	1291.5	251.2	6.4897e-06	2.6062e-06	309.5	89.744	70.076	20.36	8.0901e-06	28.006	0.0004509	0.00046294	0.00012791	1225.2	5.0339e-06	5.0636e-06	1287.1	253.1	5.1717e-06	4.9641e-06	313.14	91.1	71.21	21.055	5.0905e-06	28.972	324.114	70.652	39.015	-8.924	238.747	201.934	-8.697	-1.563	202.992	167.306	-2.057	4.412	4.661	11.806	148.602	11.153	-8191	255	
687.569	1	1	0	0	0.11033	0.17853	0.13187	0.24879	0.17128	0.13023	0.37146	0.14931	0.20492	0.031214	0.064477	0.16973	0.10002	0.19023	0.13101	0.077536	-2.5479	-3.2896	-3.2792	-3.025	-3.5687	-3.2146	-3.4042	-3.5208	-2.9083	-3.4125	-3.4542	-3.0563	-3.5104	-3.0563	-2.9396	-3.4625	333.276	224.326	57.400	220.615	116.747	170.880	245.559	208.142	166.388	48.300	25.731	175.651	90.364	288.819	59.278	16.890	0.00045265	0.00043796	9.9783e-05	1226	4.317e-06	5.3746e-06	1284.5	252.24	6.5694e-06	1.4729e-06	310.97	89.669	69.994	20.549	4.6253e-06	28.143	0.00045877	0.00046643	0.00013203	1224	5.1837e-06	5.0587e-06	1285.1	253.27	5.0816e-06	5.1616e-06	313.54	91.001	71.236	21.038	5.1068e-06	29.004	282.894	43.587	78.068	-8.809	177.409	160.544	-8.645	-1.530	178.694	104.920	-2.045	4.383	4.603	11.604	82.977	11.297	-8191	255	
687.689	1	1	0	0	0.14364	0.10768	0.069052	0.30662	0.060307	0.05418	0.16105	0.28654	0.092218	0.052755	0.13744	0.11926	0.21065	0.32018	0.22954	0.33856	-2.6292	-3.2083	-3.25	-3.0625	-3.4313	-3.1375	-3.2438	-3.2458	-2.9562	-3.4167	-3.275	-2.9542	-3.3812	-2.9167	-3.0083	-3.3979	208.840	248.101	75.942	315.346	322.688	123.580	287.261	-16.430	243.203	127.848	155.748	115.258	150.946	320.745	146.891	336.190	0.00031797	0.00013875	0.00012952	1227.9	5.9112e-06	5.9489e-06	1287	250.71	5.4602e-06	5.9811e-06	311.91	89.761	69.931	20.545	1.6514e-06	28.095	0.00046417	0.00047883	0.00013497	1224.3	5.2214e-06	5.2682e-06	1284.6	252.83	5.1504e-06	5.2197e-06	314.29	91.079	71.11	21.068	5.2017e-06	28.924	314.507	102.000	78.115	-8.895	169.731	130.068	-8.651	-1.615	196.028	112.252	-1.799	4.460	4.617	11.929	221.562	10.907	-8191	255	
687.785	1	1	0	0	0.077024	0.12998	0.17174	0.33953	0.24881	0.15609	0.27934	0.061369	0.19475	0.25878	0.084969	0.28677	0.21496	0.26307	0.11121	0.14808	-2.5417	-3.1917	-3.3521	-2.9146	-3.325	-3.2896	-3.1729	-3.5708	-2.9708	-3.1562	-3.4292	-2.8729	-3.2313	-3.2896	-3	-3.5875	310.369	228.134	155.997	327.717	247.074	47.853	291.326	316.433	20.057	5.463	231.988	195.653	228.713	325.807	134.631	268.150	0.0002688	0.00018086	0.00012129	1232.8	4.3751e-06	1.7019e-06	1294.9	252.6	4.6466e-06	4.6134e-06	311.11	89.831	70.195	20.403	1.0968e-05	28.014	0.0004525	0.00046465	0.00012852	1225.1	5.12e-06	5.2069e-06	1287.4	253.4	5.0933e-06	5.0691e-06	313.83	91.027	71.185	21.068	5.1614e-06	28.948	311.005	96.735	-0.829	-8.905	122.963	313.148	-8.873	-1.359	144.624	147.179	-1.721	4.056	4.599	12.085	163.220	11.344	-8191	255	
687.882	1	1	0	0	0.15114	0.11087	0.12665	0.17913	0.20425	0.25258	0.23111	0.21118	0.20706	0.14406	0.1381	0.19823	0.089251	0.19258	0.062155	0.17907	-2.7292	-3.1021	-3.2917	-3.0125	-3.4375	-3.0292	-3.1333	-3.4813	-3.0812	-3.175	-3.4771	-2.9521	-3.1792	-3.2479	-2.9708	-3.3	26.496	129.081	254.100	312.383	39.450	-17.207	299.653	41.786	286.971	129.820	73.422	265.318	232.629	49.626	325.347	261.435	0.00048336	0.00011257	4.4883e-05	1231.9	5.1188e-06	2.0891e-06	1293.7	250.02	6.5655e-06	5.1597e-06	312.07	89.285	69.75	20.367	6.1316e-06	28.089	0.0004555	0.00047248	0.00013196	1224.4	5.1146e-06	5.3133e-06	1286.6	253.34	5.2147e-06	5.3244e-06	314.15	90.872	71	21.055	5.2673e-06	28.964	318.704	85.748	266.390	-8.661	169.384	75.448	-8.859	-1.608	177.596	176.122	-1.966	4.343	4.779	11.858	107.551	10.846	-8191	255	
687.978	1	1	0	0	0.080583	0.18111	0.27132	0.15912	0.034935	0.2325	0.30167	0.18442	0.083086	0.19841	0.18212	0.1486	0.33351	0.076725	0.28194	0.072724	-2.9229	-3.0563	-3.2396	-2.8208	-3.2458	-3.3563	-3.1208	-3.4688	-3.1437	-2.95	-3.3479	-3.0479	-3.2958	-3.3917	-3.0354	-3.4688	96.105	166.738	330.333	254.159	133.032	79.688	275.915	-13.618	192.225	225.309	171.884	197.544	-1.173	-7.219	336.378	-19.097	0.00045041	0.00066463	7.1198e-05	1224.6	5.8398e-06	8.6279e-06	1288.5	251.52	6.4554e-06	1.8402e-06	311.96	89.575	70.059	20.436	1.806e-06	28.246	0.00046826	0.00048085	0.00013348	1224	5.1837e-06	5.1847e-06	1283.1	252.95	5.0746e-06	5.1569e-06	313.77	90.921	71.117	21.028	5.075e-06	29.033	300.855	81.515	64.828	-8.831	167.120	137.119	-8.757	-1.610	144.660	109.148	-2.069	4.761	4.546	11.884	-18.288	11.122	-8191	255	
688.097	1	1	0	0	0.29367	0.17616	0.10302	0.38721	0.20605	0.084868	0.10195	0.27289	0.21401	0.28331	0.29661	0.16321	0.10252	0.23483	0.078506	0.27126	-2.775	-3.0292	-3.3458	-3.175	-3.0146	-3.3021	-3.1458	-3.4458	-3.0958	-2.9562	-3.6292	-2.9313	-3.1833	-3.2292	-2.8583	-3.3438	172.931	276.839	20.084	-12.459	174.559	101.432	234.333	328.853	158.927	121.729	301.180	176.045	245.588	173.148	227.731	225.459	0.0004847	0.00055809	4.6301e-05	1229.7	2.9977e-06	2.4495e-06	1288.6	251.52	5.8012e-06	2.4261e-06	311.77	89.029	69.856	20.422	2.4909e-06	28.113	0.00045597	0.00047705	0.00012845	1225	5.1031e-06	5.0828e-06	1284.3	253.13	5.0256e-06	5.058e-06	313.84	90.806	71.073	21.008	4.9847e-06	28.912	309.755	71.421	117.310	-8.841	115.689	195.154	-8.890	-1.489	192.605	73.117	-2.101	4.435	4.887	11.469	59.312	10.862	-8191	255	
688.170	1	1	0	0	0.34656	0.049648	0.17418	0.35441	0.093707	0.13638	0.28823	0.33332	0.30656	0.040033	0.050494	0.11229	0.21358	0.039869	0.16124	0.1155	-2.6125	-3.0979	-3.35	-3.0646	-2.9604	-3.2896	-3.0812	-3.3042	-3.1417	-2.9792	-3.6667	-3.1	-3.2917	-3.3854	-2.925	-3.2792	2.460	309.480	16.849	272.701	45.886	176.987	244.591	264.821	266.171	129.641	-16.763	187.498	313.078	142.346	75.618	-9.892	0.00043612	0.00069577	0.00012701	1226	3.0832e-06	4.0562e-06	1288.8	252.19	1.4896e-06	5.0467e-06	308.86	89.479	69.875	20.449	3.0609e-06	28.172	0.00045049	0.0004624	0.00012555	1221.6	4.9239e-06	5.0095e-06	1282.8	253.18	4.7903e-06	4.8095e-06	312.28	90.779	70.997	21.008	4.8041e-06	28.875	325.761	35.743	69.852	-8.769	215.668	146.237	-8.875	-1.269	248.183	102.002	-2.060	4.313	4.751	11.619	149.401	11.515	-8191	255	
688.289	1	1	0	0	0.25933	0.038723	0.24079	0.30867	0.084466	0.30767	0.32901	0.13519	0.16287	0.16096	0.059908	0.22247	0.13193	0.21361	0.28731	0.20707	-2.8792	-2.9167	-3.5062	-3.325	-3.0187	-3.4229	-3.2021	-3.3146	-3.3042	-2.7167	-3.3208	-3.2104	-3.1583	-3.4646	-2.9062	-3.3229	0.306	35.430	62.458	216.925	221.695	102.250	285.144	-19.009	220.063	276.646	122.145	92.187	-5.393	171.485	122.270	78.544	0.00045937	0.00030404	3.4567e-05	1226.6	3.4509e-06	2.0389e-06	1285.7	250.07	4.5179e-06	5.7094e-06	311.41	89.821	69.659	20.272	6.0449e-07	27.896	0.00042843	0.00044223	0.00012098	1219.9	4.8601e-06	4.737e-06	1279.8	252.03	4.7086e-06	4.774e-06	312.64	90.687	70.81	20.904	4.6593e-06	28.761	334.102	82.642	110.393	-8.846	144.905	-13.371	-8.612	-1.739	131.045	123.338	-2.034	4.378	4.510	11.518	255.312	11.085	-8191	255	
688.385	1	1	0	0	0.16847	0.082396	0.10149	0.18778	0.18339	0.1334	0.19512	0.12542	0.13233	0.3181	0.055078	0.18726	0.12483	0.12738	0.12805	0.15767	-2.8104	-3.0062	-3.3771	-3.2354	-3.0083	-3.4	-3.1917	-3.2188	-3.3854	-3.0187	-3.4458	-3.3333	-2.9833	-3.4271	-3.1875	-3.2708	235.494	153.176	127.049	330.640	314.072	228.679	227.108	249.824	74.942	43.176	21.121	283.169	72.089	235.248	224.794	285.420	0.0002825	0.00035078	0.00011662	1213.8	1.969e-06	2.8183e-06	1280.6	250.2	1.9615e-06	1.209e-06	309.19	88.488	69.672	20.399	4.2915e-06	27.941	0.00041591	0.00042417	0.00011731	1214	4.683e-06	4.6581e-06	1276.3	251.31	4.7199e-06	4.7035e-06	311.85	90.5	70.741	20.895	4.6459e-06	28.807	318.715	70.249	65.987	-8.845	191.037	113.674	-8.799	-1.422	11.364	62.190	-1.920	4.509	4.617	11.891	83.081	11.000	-8191	255	
688.481	1	1	0	0	0.053588	0.19576	0.21634	0.36152	0.098951	0.11813	0.050371	0.31858	0.042792	0.091358	0.13913	0.27008	0.32709	0.22468	0.28771	0.041038	-3.0312	-2.9062	-3.1896	-3.3688	-3.0187	-3.3375	-3.35	-3.1375	-3.4375	-3.0458	-3.1583	-3.3917	-2.9854	-3.4313	-3.2812	-3.1396	248.238	146.774	58.797	285.509	147.541	169.776	306.450	-17.924	-6.287	336.696	25.302	309.271	84.437	277.388	327.061	271.860	0.00033476	0.00018065	0.00012607	1216.9	2.8316e-06	2.193e-06	1276	250.37	6.0018e-06	1.528e-06	310.18	88.866	69.774	20.324	2.1511e-06	28.049	0.00042311	0.00042957	0.00011924	1213.2	4.6995e-06	4.6533e-06	1275	251.7	4.7773e-06	4.7208e-06	311.98	90.268	70.617	20.881	4.6463e-06	28.787	298.144	69.779	77.499	-8.599	220.510	122.607	-8.650	-1.538	113.698	222.615	-2.166	4.184	4.963	11.908	106.371	11.480	-8191	255	
688.577	1	1	0	0	0.14074	0.024323	0.079792	0.24288	0.26243	0.13386	0.31838	0.029009	0.04012	0.05761	0.26163	0.1176	0.051039	0.0093896	0.24636	0.098872	-3.1292	-3.1708	-3.2792	-3.2292	-2.9625	-3.4667	-3.3208	-2.9667	-3.4729	-2.8979	-3.3896	-3.3688	-2.9083	-3.2875	-3.2042	-3.0354	80.312	339.090	146.339	313.875	34.521	92.659	276.849	1.881	49.558	198.848	196.730	196.424	290.164	129.140	254.229	330.990	0.00052203	0.00025425	7.9054e-05	1219.8	4.5247e-06	1.0442e-06	1278.5	250.14	3.048e-06	4.2737e-06	306.82	88.982	69.812	20.251	4.7323e-06	27.99	0.00042362	0.00042737	0.00012027	1214.7	4.7846e-06	4.6452e-06	1272.9	251.56	4.5336e-06	4.6719e-06	310.63	90.149	70.613	20.89	4.7641e-06	28.782	311.699	-11.138	109.909	-8.520	159.196	191.269	-8.678	-1.519	176.898	152.989	-2.005	4.474	4.761	11.767	160.527	11.409	-8191	255	
688.698	1	1	0	0	0.16819	0.14262	0.22997	0.17646	0.10912	0.13309	0.31469	0.18037	0.12367	0.33616	0.13559	0.048917	0.075615	0.1109	0.1922	0.10446	-3.0396	-2.9938	-3.0854	-3.4313	-2.9437	-3.3979	-3.3542	-3.0583	-3.4813	-3.0583	-3.0792	-3.4479	-3.1229	-3.1708	-3.175	-3.0854	305.449	52.475	250.256	298.987	-5.150	-5.149	275.387	155.155	115.299	167.883	-7.382	275.747	9.521	335.361	153.468	171.761	0.00048588	0.00025738	0.00010067	1212.9	3.1846e-06	4.3435e-06	1274.6	249.33	7.1262e-06	4.4832e-06	307.74	89.475	69.368	20.316	4.8866e-06	27.906	0.00042016	0.00043822	0.00012011	1212	4.9222e-06	4.788e-06	1271.6	251.22	4.6248e-06	4.7288e-06	311.27	90.339	70.498	20.885	4.6714e-06	28.79	333.826	87.614	67.105	-8.735	122.622	56.463	-8.440	-1.516	208.814	130.096	-1.848	4.278	4.805	11.993	122.774	11.113	-8191	255	
688.770	1	1	0	0	0.30682	0.055747	0.17346	0.16929	0.16491	0.055246	0.1766	0.20082	0.2912	0.20198	0.19639	0.055507	0.12085	0.10896	0.13405	0.12217	-2.9917	-3.1083	-3.0354	-3.4208	-2.7687	-3.2708	-3.3146	-2.9521	-3.325	-3.0854	-3.1521	-3.4896	-2.9854	-3.0812	-3.2167	-2.9042	217.576	234.033	172.509	294.655	-2.610	202.310	240.237	274.084	39.165	139.140	-10.739	161.806	54.879	289.012	86.270	305.966	0.0003795	0.00043835	3.5848e-05	1214.7	2.2181e-06	6.5828e-06	1277.5	249.55	2.8248e-06	7.5527e-06	307.57	89.103	69.489	20.299	2.6629e-06	27.991	0.00042412	0.00042931	0.00011965	1213.3	4.8083e-06	4.8707e-06	1273.8	251.25	4.7639e-06	4.9056e-06	311.09	90.373	70.509	20.919	4.794e-06	28.842	300.637	104.986	28.790	-8.634	168.637	156.319	-8.935	-1.724	150.886	75.483	-2.124	4.836	4.613	11.933	232.211	11.777	-8191	255	
688.866	1	1	0	0	0.25112	0.14916	0.14457	0.1118	0.17383	0.17244	0.16359	0.17289	0.061919	0.064222	0.088331	0.098362	0.15205	0.16323	0.37618	0.13663	-3.0271	-3.2646	-3.1646	-3.5021	-2.9354	-3.2646	-3.6437	-3.0667	-3.4271	-3.15	-3.0229	-3.4625	-3.1625	-2.9604	-3.3792	-2.8771	320.893	309.884	210.425	292.710	309.923	208.183	314.257	323.765	256.686	287.844	201.543	281.555	275.435	-9.267	54.535	91.048	0.0003524	0.00030494	8.8741e-05	1216.6	1.6531e-06	3.475e-06	1282.6	250.01	6.8727e-06	3.1648e-06	308.41	88.719	69.518	20.289	2.2622e-06	27.927	0.0004345	0.00044674	0.00012413	1212.1	4.8766e-06	4.7276e-06	1275.9	251.39	4.7697e-06	4.8278e-06	310.87	90.437	70.679	20.913	4.7993e-06	28.784	320.683	96.510	41.764	-8.937	157.153	138.397	-8.725	-1.593	135.648	123.236	-1.954	4.455	5.084	11.749	152.114	11.166	-8191	255	
688.986	1	1	0	0	0.29498	0.13205	0.28791	0.043424	0.13745	0.36102	0.16117	0.39939	0.045057	0.15376	0.11456	0.29997	0.20368	0.086853	0.075369	0.20023	-3.1229	-3.1063	-2.9583	-3.6396	-3.0312	-3.2229	-3.6021	-3.1312	-3.3708	-3.3125	-3.0771	-3.4604	-3.2854	-3.1292	-3.3396	-2.8729	251.322	41.844	291.246	339.150	-16.234	230.983	26.303	268.274	327.520	222.611	304.455	12.713	5.206	247.536	-0.685	172.638	0.00041863	0.00035678	0.00011633	1217.9	3.9575e-06	5.1797e-06	1275	250.47	9.3596e-06	3.9269e-06	310.29	89.362	70.07	20.406	6.7095e-06	27.945	0.00042174	0.00043575	0.00012217	1212.6	4.8635e-06	4.8427e-06	1272.5	251.31	4.8647e-06	4.851e-06	311.72	90.443	70.678	20.896	4.7408e-06	28.708	315.691	35.887	20.409	-8.969	90.987	179.167	-8.613	-1.690	168.751	137.552	-1.953	4.518	4.598	11.990	158.201	11.416	-8191	255	
689.081	1	1	0	0	0.1005	0.34512	0.06833	0.11632	0.080596	0.14531	0.19148	0.22756	0.14347	0.26409	0.30741	0.38508	0.05869	0.18784	0.29708	0.13812	-2.9083	-3.1708	-2.9854	-3.3646	-2.975	-3.0667	-3.6333	-2.9792	-3.1896	-3.5083	-2.8958	-3.6562	-3.2188	-3.0229	-3.4667	-2.9688	205.205	7.513	168.924	9.566	297.921	331.380	193.214	272.881	21.923	-1.768	277.325	262.274	47.742	283.476	60.247	320.949	0.00052004	0.00045618	0.00010277	1220.8	1.858e-06	1.427e-06	1271.9	249.53	4.9569e-06	2.8797e-06	310.23	88.764	69.627	20.288	5.8318e-06	27.956	0.00043733	0.00044256	0.00012259	1213.3	4.9152e-06	4.7805e-06	1271.9	251.06	4.814e-06	4.7548e-06	311.54	90.058	70.508	20.884	4.7302e-06	28.834	306.559	77.762	108.898	-8.736	153.292	49.245	-8.767	-1.525	168.661	169.447	-1.978	4.557	4.815	11.838	104.609	11.438	-8191	255	
689.177	1	1	0	0	0.11157	0.12908	0.23696	0.23327	0.041653	0.091184	0.17801	0.057674	0.10616	0.23998	0.28127	0.25086	0.22878	0.19429	0.048058	0.23984	-2.7604	-3.4271	-2.8063	-3.4521	-3.3458	-3.0396	-3.5708	-3.0125	-3.2188	-3.2708	-2.8833	-3.1167	-3.3	-2.975	-3.2812	-2.9542	46.260	29.258	278.077	294.379	239.483	133.710	-13.178	288.358	25.282	217.116	303.600	297.449	257.058	318.074	96.452	282.396	0.00047087	0.00033428	6.6958e-05	1218.5	4.4371e-06	4.2013e-06	1273.3	248.45	6.0783e-06	6.3058e-06	307.74	88.577	69.292	20.056	3.2621e-06	28.014	0.00041804	0.00042898	0.00011872	1213.1	4.7136e-06	4.6103e-06	1270.2	250.75	4.6925e-06	4.6997e-06	310.17	90.219	70.498	20.834	4.6469e-06	28.728	315.851	127.727	152.222	-8.640	113.364	208.313	-8.593	-1.655	171.426	114.466	-1.932	4.537	4.717	11.984	115.356	11.617	-8191	255	
689.273	1	1	0	0	0.060865	0.086323	0.38225	0.21435	0.023725	0.21133	0.2101	0.16041	0.18063	0.10305	0.167	0.21358	0.09844	0.043928	0.065205	0.092828	-2.8729	-3.3479	-2.9875	-3.2167	-3.3792	-2.875	-3.6646	-3.1458	-3.0792	-3.3583	-2.975	-3.2292	-3.3187	-2.9604	-3.2021	-2.9083	185.678	80.391	114.894	304.095	133.839	297.504	268.125	23.977	126.459	310.085	-4.374	243.805	204.490	219.399	190.535	221.384	0.00045129	0.00065987	3.7653e-05	1215.3	4.3178e-06	4.9722e-06	1275.2	249.68	6.3824e-06	4.3577e-06	309.58	88.624	69.786	20.002	4.2117e-06	27.985	0.00043069	0.00041895	0.0001213	1211.4	4.6697e-06	4.6693e-06	1271.3	250.89	4.5623e-06	4.5645e-06	310.9	90.114	70.511	20.814	4.4977e-06	28.78	311.611	40.877	107.004	-8.823	140.923	145.923	-8.748	-1.518	203.955	120.709	-1.935	4.365	4.784	11.570	125.507	11.125	-8191	255	
689.392	1	1	0	0	0.17476	0.10509	0.11637	0.29937	0.26368	0.11607	0.058298	0.14165	0.18597	0.052546	0.13102	0.15189	0.044106	0.12567	0.19012	0.11924	-2.5854	-3.2896	-2.7625	-3.4208	-3.2146	-2.8667	-3.5312	-3.0604	-3.0438	-3.4375	-2.8958	-3.3667	-3.3187	-2.8292	-3.4125	-3.2604	263.768	70.091	95.214	340.397	193.007	84.035	188.102	259.777	180.520	68.665	258.348	323.453	301.428	315.161	178.231	-8.666	0.00042244	0.00036265	0.00012121	1210.8	3.218e-06	2.8986e-06	1267.8	247.86	3.3459e-06	1.6381e-06	309.83	88.621	69.63	20.291	4.8552e-06	27.806	0.00042033	0.00041344	0.00011798	1209.2	4.5186e-06	4.6041e-06	1268.5	250.23	4.6968e-06	4.6589e-06	310.98	90.135	70.39	20.848	4.7705e-06	28.764	320.251	65.401	106.780	-8.479	166.301	135.715	-8.593	-1.480	177.584	103.190	-2.342	4.390	4.648	12.156	68.408	10.799	-8191	255	
689.465	1	1	0	0	0.22807	0.11242	0.22202	0.16957	0.12808	0.20326	0.19294	0.10369	0.076729	0.2008	0.22583	0.12889	0.11571	0.16821	0.21239	0.20084	-2.5062	-3.4083	-2.9333	-3.1792	-3.3375	-2.8958	-3.5729	-3.2438	-2.8583	-3.4542	-3.1083	-3.3021	-3.4229	-3.1917	-3.45	-3.2313	109.050	229.032	302.166	278.377	188.930	317.123	32.410	309.528	99.451	161.638	319.970	222.444	99.303	244.827	218.283	113.992	0.00031615	0.00025965	3.9339e-05	1214	3.0303e-06	7.2294e-06	1270.3	249.95	6.1764e-06	1.6132e-06	309	88.883	69.645	20.276	1.5351e-06	27.883	0.00042298	0.00041843	0.00012066	1210.6	4.6237e-06	4.6149e-06	1269.4	250.82	4.6205e-06	4.5496e-06	310.71	90.076	70.455	20.825	4.777e-06	28.799	287.257	100.199	59.964	-8.926	220.971	74.346	-8.589	-1.562	197.728	136.234	-2.041	4.509	4.410	11.598	145.512	10.987	-8191	255	
689.560	1	1	0	0	0.21338	0.14642	0.22091	0.22761	0.10853	0.14119	0.18533	0.073569	0.13048	0.2379	0.15641	0.18595	0.089722	0.11316	0.13253	0.025088	-2.3667	-3.4083	-3.0417	-3.1708	-3.1813	-2.8125	-3.2938	-3.3271	-2.9229	-3.2792	-3.1708	-3.0542	-3.2938	-3.0104	-3.2604	-3.3104	122.052	180.432	322.103	-5.134	104.460	213.539	297.952	138.205	201.997	269.595	184.643	101.980	126.405	162.645	-16.284	-14.637	0.00038121	0.00041156	6.6816e-05	1206.8	5.8553e-06	3.5491e-06	1271.2	249.01	5.2943e-06	9.4475e-07	307.13	88.681	69.504	20.449	1.9567e-06	27.827	0.00042052	0.00042758	0.00012017	1208.5	4.6753e-06	4.6702e-06	1269.2	250.49	4.7133e-06	4.694e-06	310.04	90.071	70.542	20.905	4.6437e-06	28.739	305.549	65.685	49.096	-8.720	160.145	218.505	-8.748	-1.542	177.097	174.909	-2.216	4.240	4.630	11.864	216.478	11.207	-8191	255	
689.658	1	1	0	0	0.053237	0.12869	0.21439	0.048813	0.1502	0.048613	0.22468	0.042885	0.22092	0.18907	0.10701	0.1342	0.034336	0.17051	0.22181	0.38758	-2.5	-3.325	-3.0583	-3.1312	-3.4313	-2.9708	-3.3729	-3.2417	-2.9292	-3.3937	-3.1396	-2.9	-3.3708	-3.0979	-3.2313	-3.3667	189.986	194.165	2.181	46.015	68.369	117.579	303.044	221.623	226.875	317.781	260.347	-17.425	65.484	326.854	300.595	-0.866	0.00055153	0.00033216	0.00010141	1214.2	5.8139e-06	8.4662e-06	1272.9	249.72	3.0587e-06	6.5742e-06	307.65	88.916	69.102	20.309	8.198e-06	27.975	0.00041641	0.00042951	0.00011934	1208.9	4.7878e-06	4.8047e-06	1269.7	250.52	4.7917e-06	4.7821e-06	310.27	90.116	70.356	20.892	4.6444e-06	28.742	326.337	79.710	30.583	-8.676	121.024	119.262	-8.878	-1.676	287.335	124.176	-1.915	4.538	5.016	12.026	138.387	11.456	-8191	255	
689.777	1	1	0	0	0.078869	0.18373	0.13901	0.29385	0.17183	0.091891	0.24501	0.12156	0.0028454	0.015149	0.25101	0.30707	0.20006	0.29853	0.040275	0.27197	-2.4104	-3.2271	-3.1854	-3.0792	-3.5312	-3.0229	-3.3063	-3.3792	-2.8333	-3.3146	-3.3333	-3.1292	-3.4708	-3.2062	-3	-3.425	116.142	266.079	143.726	307.927	203.770	314.493	262.156	176.109	191.702	33.287	263.281	253.291	289.144	13.707	110.206	35.624	0.00048877	0.00061883	0.00012253	1214.7	4.7197e-06	2.1894e-06	1274.4	249.66	1.0351e-05	3.5434e-06	308.18	88.427	69.224	20.291	6.9854e-06	27.76	0.00042982	0.00042805	0.00012015	1209.5	4.8519e-06	4.7035e-06	1268	250.41	4.6882e-06	4.7057e-06	310.83	90.131	70.371	20.859	4.7301e-06	28.742	305.940	96.379	85.656	-8.982	145.390	196.025	-8.685	-1.595	181.688	158.709	-2.095	4.521	4.388	11.974	150.050	11.436	-8191	255	
689.873	1	1	0	0	0.098072	0.16591	0.10276	0.22474	0.19331	0.23279	0.064917	0.29971	0.25456	0.1118	0.08696	0.43098	0.26579	0.33263	0.11853	0.12683	-2.4271	-3.2042	-3.1813	-3.1104	-3.4458	-3.1854	-3.1521	-3.4688	-3.0021	-3.2854	-3.3438	-2.8479	-3.475	-3.0792	-3.15	-3.4875	35.738	58.917	275.222	309.373	106.691	256.380	306.680	304.854	235.136	138.963	293.694	299.870	301.372	336.730	95.376	248.496	0.00045658	4.0375e-05	8.6168e-05	1208.8	2.7487e-06	3.4445e-06	1271.2	248.28	4.0397e-06	3.3589e-06	309.12	88.506	69.226	20.298	4.9135e-06	27.765	0.00041744	0.00042696	0.00012067	1205.3	4.6848e-06	4.7839e-06	1267.2	250.35	4.7817e-06	4.7062e-06	310.87	89.981	70.381	20.844	4.6182e-06	28.731	313.990	70.651	91.868	-8.637	157.108	130.284	-8.663	-1.733	216.188	105.229	-2.066	4.534	5.009	11.713	148.691	11.201	-8191	255	
689.969	1	1	0	0	0.14844	0.095679	0.078886	0.24599	0.19339	0.12503	0.10205	0.17737	0.076225	0.098503	0.06544	0.16036	0.20931	0.078023	0.014911	0.039073	-2.5875	-3.1688	-3.1625	-2.9167	-3.4979	-3.3271	-3.0854	-3.5958	-2.8521	-3.2292	-3.3729	-2.9792	-3.6875	-3.1625	-2.9104	-3.5271	130.204	272.775	188.224	243.568	174.296	188.570	-19.326	3.003	220.242	326.018	254.689	16.090	256.018	87.929	123.099	61.145	0.0003774	0.00028369	0.00016701	1208	3.1118e-06	3.4976e-06	1270.9	249.42	8.1175e-06	1.5949e-06	309.04	88.634	69.508	20.351	5.6406e-06	27.953	0.00042091	0.00042159	0.00011842	1207.3	4.6624e-06	4.6949e-06	1266	250.31	4.6376e-06	4.7193e-06	310.6	90.003	70.313	20.846	4.6267e-06	28.736	333.687	34.236	77.197	-8.738	158.029	129.981	-8.769	-1.370	190.889	8.980	-2.039	4.404	4.978	12.113	121.197	11.373	-8191	255	
690.065	1	1	0	0	0.1642	0.14757	0.19523	0.20789	0.29633	0.14879	0.10384	0.1111	0.12422	0.10425	0.13895	0.18814	0.050811	0.083713	0.18379	0.21087	-2.6188	-3.0979	-3.3	-3.1417	-3.3646	-3.0771	-3.0521	-3.5646	-2.9208	-3.0854	-3.6479	-3.2083	-3.3229	-3.4229	-3.0604	-3.5646	108.284	112.059	279.136	-17.564	111.635	178.953	330.369	287.867	323.417	69.505	169.236	181.541	109.318	16.708	259.442	203.373	0.00052828	0.00038257	0.00012709	1209.1	2.2195e-06	7.3442e-07	1270	248.72	2.3008e-06	4.6454e-06	306.98	88.286	69.651	20.291	1.0709e-06	27.744	0.00041656	0.00041706	0.00011598	1204.8	4.6869e-06	4.5648e-06	1265.1	250.19	4.4944e-06	4.6042e-06	309.53	89.843	70.353	20.796	4.6147e-06	28.726	309.197	90.830	37.831	-8.626	97.889	10.466	-8.752	-1.460	228.800	210.926	-1.681	4.645	4.669	11.560	73.262	11.654	-8191	255	
690.161	1	1	0	0	0.041098	0.065278	0.041142	0.090332	0.14496	0.084263	0.16754	0.065198	0.037765	0.095227	0.18721	0.043454	0.069437	0.26959	0.062458	0.059927	-2.7271	-3.0958	-3.4771	-3.0958	-3.1458	-3.2833	-3.1604	-3.5625	-3.1688	-3.0458	-3.4708	-3.0917	-3.225	-3.3937	-2.9083	-3.6083	53.902	66.388	77.433	337.566	117.656	247.709	289.249	83.477	163.030	-5.988	-1.710	316.601	309.769	90.010	165.236	200.351	0.00046897	0.0003028	0.00012102	1212.3	2.0973e-06	2.383e-06	1268.4	247.77	1.8741e-06	4.84e-06	306.82	88.147	69.209	20.209	5.6562e-06	28.013	0.00041797	0.0004345	0.00011921	1205.9	4.7489e-06	4.6582e-06	1264.6	249.78	4.708e-06	4.7204e-06	309.85	89.849	70.345	20.807	4.7059e-06	28.79	320.801	34.157	86.606	-8.465	170.425	105.441	-8.788	-1.363	228.133	112.138	-1.815	4.403	4.939	11.890	101.074	11.423	-8191	255	
690.257	1	1	0	0	0.18053	0.13059	0.12766	0.13349	0.19739	0.046099	0.21567	0.077171	0.094317	0.15432	0.20831	0.084383	0.26244	0.20823	0.028703	0.057238	-2.6521	-3.0271	-3.3958	-2.9521	-3.1792	-3.4896	-3.2167	-3.4771	-3.0354	-2.9479	-3.5	-3.1021	-3.1458	-3.4167	-3.05	-3.5146	187.785	252.483	27.947	155.885	150.487	272.408	292.520	-13.172	159.359	98.560	204.767	17.833	49.050	-13.269	66.864	323.432	0.00044522	0.00027726	3.0571e-05	1208.5	3.8514e-06	4.7968e-06	1272.3	248.48	2.1525e-06	1.9552e-06	305.25	89.114	69.768	20.192	5.8763e-06	27.828	0.00042288	0.00042757	0.00011889	1205.3	4.8727e-06	4.739e-06	1266.7	249.98	4.6739e-06	4.6945e-06	309.58	89.893	70.461	20.783	4.6767e-06	28.682	-15.286	46.647	87.286	-8.746	137.379	196.270	-8.733	-1.309	136.996	144.689	-2.242	4.382	4.388	11.686	134.087	11.080	-8191	255	
690.378	1	1	0	0	0.090631	0.31523	0.078302	0.10382	0.21613	0.086787	0.17914	0.061649	0.17995	0.10057	0.3406	0.072559	0.18826	0.0040932	0.13533	0.20886	-2.7104	-2.9688	-3.4708	-3.2458	-3.3	-3.3375	-3.0708	-3.4875	-3.3417	-3.1229	-3.5042	-2.9688	-3.1354	-3.3937	-2.9542	-3.4667	40.493	234.876	117.451	291.751	210.907	70.770	308.656	43.827	37.381	330.769	245.269	250.166	286.769	130.689	93.271	8.189	0.00041101	0.00028422	6.4051e-05	1210.6	4.6965e-06	1.3236e-06	1271	248.94	3.4724e-06	3.6256e-06	307.21	88.479	69.591	20.165	2.786e-06	28.054	0.00041928	0.00042486	0.00011634	1206.5	4.6978e-06	4.6307e-06	1267.7	249.85	4.5888e-06	4.6583e-06	310.2	89.812	70.367	20.816	4.7591e-06	28.747	334.067	32.919	82.591	-8.808	154.470	209.886	-8.640	-1.342	178.852	24.809	-2.191	4.586	4.698	11.783	191.503	11.636	-8191	255	
690.472	1	1	0	0	0.12978	0.24318	0.082541	0.15194	0.1801	0.24795	0.30287	0.16664	0.0884	0.17368	0.065347	0.046259	0.36828	0.19112	0.070448	0.2707	-2.9333	-2.925	-3.4813	-3.2521	-3.1708	-3.4562	-3.1708	-3.4354	-3.4104	-3.1917	-3.5104	-3.3083	-3.0958	-3.6271	-3.0167	-3.2458	278.123	43.967	170.080	338.885	194.104	127.118	304.085	303.291	-12.988	140.368	328.631	268.673	-16.676	103.525	184.415	272.057	0.00046968	0.00040079	0.00022103	1211.1	5.465e-06	8.1138e-06	1270.2	247.97	5.7798e-06	4.0317e-06	308	88.152	69.172	20.289	6.8824e-06	27.871	0.00042473	0.00044048	0.00011964	1207.3	4.7641e-06	4.6879e-06	1266.5	249.61	4.4926e-06	4.6627e-06	309.74	89.948	70.208	20.797	4.8372e-06	28.679	316.599	44.035	42.494	-8.713	155.574	159.895	-8.615	-1.655	181.376	165.982	-1.902	4.640	4.692	11.847	143.272	11.156	-8191	255	
690.568	1	1	0	0	0.051983	0.12113	0.15617	0.098088	0.16312	0.17714	0.41451	0.1121	0.15083	0.37721	0.28081	0.11892	0.25996	0.041708	0.15864	0.37309	-3.0375	-2.9021	-3.3812	-3.4479	-3.175	-3.3854	-3.3083	-3.3688	-3.4875	-2.9771	-3.5687	-3.0896	-2.8708	-3.5146	-3.1562	-3.0021	209.438	44.824	-1.650	288.118	104.494	235.921	281.253	77.909	123.862	62.741	37.680	-3.094	267.378	127.968	137.984	12.923	0.00028694	0.00044369	9.6351e-05	1212.9	4.5595e-06	9.3439e-07	1270.3	248.7	3.0106e-06	1.9606e-06	306.9	87.991	69.331	20.226	6.2529e-06	27.806	0.00042027	0.00042915	0.00012005	1205.5	4.7183e-06	4.691e-06	1267.1	249.59	4.6222e-06	4.7465e-06	309.87	89.722	70.425	20.791	4.6611e-06	28.663	311.032	86.050	98.852	-8.662	135.381	173.420	-8.668	-1.530	158.953	70.355	-2.150	4.160	4.770	11.721	115.000	11.845	-8191	255	
690.665	1	1	0	0	0.16457	0.15761	0.1326	0.13521	0.11966	0.22156	0.21762	0.15195	0.16108	0.073876	0.070871	0.19232	0.24496	0.041432	0.23193	0.13061	-2.9042	-2.9229	-3.3875	-3.4125	-2.9271	-3.4854	-3.4375	-3.2646	-3.5417	-3.0458	-3.4708	-3.2604	-3.1042	-3.6083	-3.2458	-3.0646	158.957	81.492	48.202	269.226	72.170	102.376	219.809	209.792	249.852	75.135	180.091	24.535	221.506	72.170	98.646	-10.192	0.00040175	0.00078455	0.00011084	1211.5	1.0172e-06	3.0675e-06	1266.6	248.43	3.046e-06	5.2619e-06	306.03	88.37	69.122	20.233	1.9341e-06	27.95	0.00042244	0.00042943	0.00011692	1206.3	4.6277e-06	4.7296e-06	1264.5	249.82	4.6465e-06	4.6998e-06	309.55	89.688	70.095	20.826	4.6459e-06	28.733	303.064	53.111	117.964	-8.611	128.249	92.591	-8.878	-1.603	150.568	150.254	-1.795	4.550	4.961	11.805	117.702	11.067	-8191	255	
690.761	1	1	0	0	0.27936	0.20185	0.1056	0.18768	0.090425	0.14465	0.22502	0.12967	0.040155	0.16586	0.21141	0.14385	0.076895	0.26935	0.33412	0.11502	-3.15	-3.1479	-3.2958	-3.325	-2.95	-3.5021	-3.2792	-3.0687	-3.5521	-3.1958	-3.4813	-3.4688	-2.9771	-3.5042	-3.2604	-2.9167	221.242	207.642	206.322	309.788	263.659	278.835	329.433	46.620	18.615	245.045	228.441	131.733	22.211	14.872	23.041	41.348	0.00045479	0.00047203	7.0939e-05	1209.5	2.4494e-06	3.2653e-06	1269.7	248.54	2.2077e-06	5.1645e-06	307.76	88.975	68.69	20.312	5.7301e-06	28.188	0.00041045	0.00044111	0.00012058	1203.8	4.7149e-06	4.8204e-06	1266.2	249.94	4.6028e-06	4.7218e-06	310.17	89.939	70.115	20.852	4.683e-06	28.783	314.930	43.292	36.919	-8.748	155.469	141.504	-8.767	-1.702	203.817	110.963	-1.966	4.419	4.753	11.509	128.907	11.066	-8191	255	
690.857	1	1	0	0	0.12748	0.087722	0.24136	0.15615	0.20441	0.07038	0.26095	0.26193	0.18608	0.056191	0.16264	0.16225	0.046406	0.13102	0.085497	0.30945	-3.1333	-3.0729	-3.1188	-3.6125	-2.8917	-3.4458	-3.6188	-2.9917	-3.5583	-3.1083	-3.3	-3.5146	-3.0479	-3.3292	-3.4792	-2.9417	150.249	250.539	71.559	235.749	126.640	122.130	213.372	318.628	274.094	189.693	7.647	333.703	75.164	169.210	284.724	298.259	0.0004844	0.00037466	7.627e-05	1209.5	3.2608e-06	6.9583e-06	1270.6	248.56	3.5632e-06	1.9919e-06	306.61	88.409	69.416	20.21	5.8561e-06	27.967	0.00042261	0.00043078	0.00012009	1206.3	4.8466e-06	4.732e-06	1264.8	249.65	4.6007e-06	4.6915e-06	309.21	89.642	70.3	20.821	4.6282e-06	28.659	322.697	72.474	53.737	-8.901	163.180	104.582	-8.623	-1.576	255.205	206.525	-1.914	4.297	4.869	11.983	178.318	11.339	-8191	255	
690.953	1	1	0	0	0.19168	0.10007	0.18757	0.13298	0.23661	0.057913	0.23681	0.057991	0.30696	0.16085	0.07744	0.18385	0.12188	0.054002	0.32087	0.13712	-3.1125	-3.0646	-3.2125	-3.6146	-3.0687	-3.4479	-3.3187	-3.075	-3.4437	-3.1	-3.3667	-3.5396	-3.2375	-3.3521	-3.4021	-2.8292	126.617	194.388	293.687	268.955	235.726	174.918	288.490	248.002	164.374	218.895	71.164	302.939	154.066	73.576	293.306	39.379	0.00051684	0.00034981	8.4361e-05	1210.4	5.8166e-06	1.2931e-06	1268.8	248.83	3.6018e-06	4.7419e-06	305.78	88.706	69.018	20.235	2.5272e-06	27.847	0.0004171	0.00042691	0.00011729	1204.6	4.6938e-06	4.5228e-06	1264.9	249.94	4.5541e-06	4.545e-06	309.51	89.736	70.152	20.822	4.6145e-06	28.696	337.357	141.814	30.788	-9.010	171.399	179.179	-8.721	-1.254	184.798	82.142	-1.675	4.947	5.130	12.087	184.346	11.410	-8191	255	
691.049	1	1	0	0	0.13854	0.088501	0.182	0.31842	0.074873	0.12805	0.15109	0.16124	0.25803	0.17672	0.093017	0.29757	0.10838	0.11428	0.11139	0.10492	-3.0604	-3.2292	-2.9729	-3.4792	-2.9458	-3.1562	-3.575	-3.0563	-3.3292	-3.1083	-3.1917	-3.4813	-2.9562	-3.3312	-3.4437	-3.1312	88.126	130.665	316.052	310.114	231.281	311.601	38.147	276.995	41.365	99.381	298.479	338.533	316.254	-10.451	252.385	140.509	0.00041294	0.00050427	5.1489e-05	1208.3	3.8271e-06	1.8401e-06	1268.1	248.2	7.3182e-06	4.1531e-06	309.62	88.433	69.268	20.094	4.0909e-06	27.896	0.00040967	0.00042177	0.00011681	1203.9	4.5503e-06	4.6242e-06	1263.7	249.75	4.4961e-06	4.5273e-06	310	89.904	70.175	20.746	4.5298e-06	28.697	334.983	78.819	123.312	-8.757	176.679	175.961	-8.622	-1.638	165.179	89.609	-1.872	4.428	4.985	11.995	66.177	11.330	-8191	255	
691.170	1	1	0	0	0.11634	0.10126	0.038522	0.21138	0.077576	0.081939	0.24536	0.021669	0.05174	0.13841	0.096692	0.045239	0.080927	0.059678	0.063836	0.16126	-2.9083	-3.0708	-2.8958	-3.5396	-3.1875	-3.0729	-3.5875	-3.0312	-3.4792	-3.2833	-2.9854	-3.5208	-3.1396	-2.9979	-3.4896	-3.0667	207.434	151.448	157.304	88.327	4.792	205.673	278.045	162.554	255.967	60.647	0.745	163.498	94.174	280.236	254.410	61.798	0.00047355	0.00041335	8.5411e-05	1211.5	2.9671e-06	5.7705e-06	1268.9	248.13	5.5644e-06	4.6872e-06	307.23	88.742	69.025	20.196	4.0367e-06	27.963	0.00042073	0.00041657	0.00011785	1205.6	4.6957e-06	4.6018e-06	1265	249.44	4.6129e-06	4.6163e-06	309.34	89.919	70.233	20.799	4.5537e-06	28.738	314.245	82.975	113.187	-8.645	123.224	166.236	-8.739	-1.386	162.263	147.010	-2.108	4.631	4.714	11.830	172.972	11.544	-8191	255	
691.266	1	1	0	0	0.14802	0.31431	0.09113	0.33439	0.073697	0.045422	0.18246	0.10445	0.12537	0.21697	0.15566	0.16575	0.26222	0.068709	0.16908	0.25927	-2.9167	-3.3104	-2.9896	-3.5875	-2.8875	-3.0896	-3.6437	-3.0312	-3.3021	-3.4417	-3.0146	-3.375	-3.075	-3.175	-3.5479	-3.0896	-13.165	103.382	156.147	-17.472	77.791	17.488	271.899	256.904	310.669	300.365	271.749	330.541	302.227	27.293	306.706	76.396	0.00036782	0.00036409	0.00011028	1210	3.7287e-06	2.1301e-06	1269.1	247.32	9.5926e-06	4.4307e-06	305.35	88.662	69.039	20.259	4.4243e-06	27.779	0.00040588	0.00041793	0.00011816	1203.9	4.5572e-06	4.5938e-06	1264.4	249.69	4.494e-06	4.5805e-06	308.33	89.811	70.101	20.79	4.5234e-06	28.666	304.125	143.289	112.817	-8.774	151.932	158.560	-8.625	-1.566	179.885	97.913	-2.008	4.255	4.605	11.657	146.394	10.900	-8191	255	
691.338	1	1	0	0	0.035708	0.11841	0.10697	0.13627	0.10087	0.089738	0.21977	0.23809	0.23756	0.10347	0.24028	0.28009	0.16625	0.15894	0.039554	0.12281	-2.9917	-3.2604	-2.975	-3.4083	-3.1083	-3.0604	-3.7104	-3.0812	-3.2396	-3.3812	-3.0333	-3.4417	-3.2896	-2.8563	-3.3083	-3.1979	108.700	340.360	323.954	210.597	80.799	207.629	257.979	258.013	-10.740	73.807	261.839	271.676	194.356	332.237	155.953	160.377	0.0003883	0.00015048	9.1549e-05	1212.4	3.492e-06	5.0899e-06	1271.9	247.9	7.2672e-06	3.9065e-06	307.32	88.218	69.294	20.26	1.3042e-06	27.946	0.00040143	0.00041788	0.00011521	1204.8	4.5687e-06	4.5221e-06	1264.4	249.27	4.4514e-06	4.4973e-06	309.12	89.662	70.035	20.787	4.4579e-06	28.612	319.538	115.260	-10.985	-8.749	121.838	124.186	-8.594	-1.358	214.553	115.174	-1.951	4.747	4.734	11.864	192.639	11.100	-8191	255	
691.458	1	1	0	0	0.076248	0.16613	0.15766	0.32367	0.13912	0.35695	0.23759	0.15779	0.25633	0.12057	0.14747	0.11541	0.039212	0.31635	0.17225	0.24655	-2.8771	-3.2271	-2.8917	-3.4313	-3.0583	-2.9125	-3.5729	-3.25	-3.1104	-3.5438	-3.0604	-3.4771	-3.6312	-3.0312	-3.5	-3.1875	146.316	15.253	236.230	323.215	231.591	163.024	304.042	255.479	211.865	30.737	3.332	-11.348	247.267	0.971	105.562	293.733	0.00037631	0.00041871	2.64e-05	1208	4.8967e-06	4.3257e-06	1268.3	247.36	3.4137e-06	6.3018e-06	306.61	88.098	68.831	20.236	1.6224e-06	27.821	0.0004055	0.00041735	0.00011782	1201.6	4.4742e-06	4.58e-06	1263.6	248.88	4.5405e-06	4.5005e-06	308.74	89.621	69.963	20.788	4.4705e-06	28.631	310.467	67.580	23.088	-8.699	139.371	162.284	-8.598	-1.550	123.480	114.493	-1.776	4.699	4.661	11.965	99.421	11.012	-8191	255	
691.553	1	1	0	0	0.16089	0.16695	0.11133	0.24323	0.13987	0.25784	0.20081	0.18268	0.069429	0.13214	0.25147	0.12446	0.21696	0.15143	0.14968	0.14071	-2.7	-3.4833	-3.0771	-3.4417	-3.4167	-2.8292	-3.5958	-3.0292	-3.0542	-3.4375	-3.1229	-3.2854	-3.5062	-2.8125	-3.3958	-3.325	51.948	73.294	288.844	99.736	78.447	64.956	317.143	339.956	-17.993	29.545	238.630	253.747	50.681	291.965	237.479	-11.736	0.00054075	0.00028242	8.5142e-05	1212.7	5.5666e-06	4.4261e-06	1267	247.39	5.7424e-06	6.0748e-06	306.4	88.396	69.302	20.096	7.6008e-07	27.925	0.00040736	0.00040106	0.00011754	1203.3	4.4795e-06	4.4799e-06	1262.5	248.23	4.565e-06	4.4148e-06	308.41	89.622	69.986	20.67	4.4831e-06	28.626	312.143	51.295	51.416	-8.668	163.894	150.883	-8.838	-1.326	151.266	102.224	-1.615	4.589	4.581	12.174	79.221	11.145	-8191	255	
691.651	1	1	0	0	0.21041	0.26243	0.052972	0.18719	0.10551	0.088946	0.21277	0.10171	0.08722	0.11254	0.098752	0.16498	0.11436	0.18263	0.10679	0.16424	-2.625	-3.5	-2.9792	-3.3688	-3.2271	-2.8896	-3.6104	-3.2458	-3.0125	-3.4771	-3.0875	-3.2104	-3.4313	-2.8937	-3.2292	-3.4292	184.812	205.243	159.189	-7.642	292.379	36.491	293.468	134.846	69.172	179.415	91.629	99.192	143.160	191.160	193.654	239.578	0.00042396	0.00043297	0.00010604	1206.9	4.0977e-06	3.5533e-06	1270	248.32	7.6805e-06	5.164e-06	305.94	88.097	69.175	20.114	3.598e-06	27.825	0.00039755	0.00040564	0.00011523	1202.3	4.5343e-06	4.5402e-06	1261.3	248.85	4.5822e-06	4.5224e-06	308.37	89.577	69.987	20.737	4.2786e-06	28.629	318.086	54.648	50.016	-8.818	145.385	252.584	-8.524	-1.620	161.035	141.033	-2.174	4.449	4.584	12.049	82.064	10.981	-8191	255	
691.769	1	1	0	0	0.21934	0.324	0.3792	0.16187	0.072934	0.20413	0.26066	0.097527	0.074239	0.07851	0.30566	0.23837	0.094611	0.16604	0.15618	0.060418	-2.5646	-3.3083	-3.1229	-3.2583	-3.2542	-2.8229	-3.4708	-3.2479	-2.9667	-3.4083	-3.0458	-2.9375	-3.575	-3.0771	-3.2417	-3.2917	253.497	81.882	106.115	57.235	123.352	57.679	305.792	81.679	117.983	180.816	309.865	293.448	257.121	305.003	6.895	180.652	0.00056944	0.00056239	0.00011065	1204.1	3.7109e-06	6.1252e-06	1261.8	246.75	4.2563e-06	4.4642e-06	306.22	88.088	68.867	20.078	3.6991e-06	27.862	0.00040083	0.00039941	0.00011144	1199.4	4.4405e-06	4.5037e-06	1260.5	248.52	4.4583e-06	4.4421e-06	308.15	89.523	69.865	20.685	4.2816e-06	28.61	315.341	51.894	52.099	-8.610	187.316	102.259	-8.898	-1.531	92.304	133.008	-2.063	4.917	5.056	12.106	124.342	11.780	-8191	255	
691.866	1	1	0	0	0.14354	0.17157	0.15411	0.12855	0.30372	0.12392	0.15335	0.20143	0.22671	0.1518	0.12144	0.18008	0.26342	0.24084	0.18864	0.08416	-2.5333	-3.275	-3.1542	-3.0708	-3.5104	-2.9229	-3.3667	-3.4	-2.8667	-3.3854	-3.2875	-2.9062	-3.4542	-2.8979	-3.25	-3.3542	339.786	208.424	73.659	214.173	108.312	292.617	210.105	0.652	296.479	122.684	328.265	-5.753	76.689	-12.447	-5.192	290.049	0.00040962	0.0002135	2.4204e-05	1205.7	1.6883e-06	3.7953e-06	1262.9	246.78	6.066e-06	1.5599e-06	306.25	88.369	68.939	20.194	5.1074e-06	27.856	0.00039934	0.0003913	0.00011227	1199.3	4.3669e-06	4.3355e-06	1257.9	248.11	4.3703e-06	4.2615e-06	307.54	89.501	69.877	20.719	4.2751e-06	28.596	317.771	65.512	23.504	-8.735	302.647	139.911	-8.791	-1.571	159.685	171.824	-2.153	4.368	4.667	11.645	147.732	11.334	-8191	255	
691.937	1	1	0	0	0.061539	0.095879	0.34135	0.11038	0.14947	0.11899	0.17077	0.19602	0.085567	0.15005	0.19588	0.14759	0.27057	0.070108	0.032377	0.16106	-2.3688	-3.5208	-3.0062	-3.1042	-3.6125	-3.1208	-3.2604	-3.5563	-2.8542	-3.2542	-3.3063	-3.0583	-3.5146	-3.2229	-3.1771	-3.65	211.766	305.377	110.382	330.803	13.787	219.967	4.931	262.469	180.159	252.202	337.957	235.155	319.769	287.706	132.871	71.204	0.00047189	0.00045937	7.5459e-05	1205.7	2.466e-06	2.76e-06	1267.1	247.27	4.5268e-06	7.4162e-06	306.75	88.239	69.555	20.127	4.6132e-06	27.765	0.0003826	0.000387	0.00010938	1196.7	4.3389e-06	4.2925e-06	1257.8	248.09	4.3065e-06	4.2611e-06	307.73	89.308	69.928	20.615	4.2261e-06	28.517	317.519	76.946	78.504	-8.693	127.639	201.331	-8.585	-1.381	150.963	102.643	-2.018	4.474	4.718	12.010	100.502	11.644	-8191	255	
692.058	1	1	0	0	0.1347	0.13981	0.13057	0.14023	0.041008	0.084161	0.16999	0.27227	0.30685	0.25025	0.08618	0.23057	0.091059	0.05247	0.10086	0.020178	-2.6292	-3.2375	-3.2625	-2.9271	-3.4125	-3.2479	-3.3375	-3.6	-3.2708	-3.5042	-3.3583	-2.9188	-3.375	-3.2687	-2.9354	-3.5625	58.869	159.524	46.973	196.818	324.861	290.424	296.143	315.177	142.193	234.414	60.936	133.188	39.182	107.518	280.760	195.240	0.00038151	0.00043692	0.00011388	1202.8	3.0229e-06	4.8255e-06	1265.3	247.85	4.9578e-06	3.8551e-06	305.51	88.045	68.604	20.132	2.3568e-06	27.745	0.00038477	0.00037868	0.00010734	1195.9	4.2564e-06	4.2984e-06	1258.5	248	4.2834e-06	4.2475e-06	306.96	89.044	69.683	20.616	4.1796e-06	28.486	322.810	123.839	107.637	-8.586	117.660	137.942	-8.567	-1.573	125.008	171.673	-2.199	5.059	4.788	12.081	219.766	11.272	-8191	255	
692.154	1	1	0	0	0.1575	0.12801	0.11772	0.13384	0.13662	0.1935	0.32862	0.15631	0.46076	0.23414	0.2612	0.43034	0.29793	0.21326	0.04785	0.049322	-2.7729	-3.2958	-3.1854	-3.0812	-3.4333	-3.1021	-3.1354	-3.4813	-2.9458	-3.2833	-3.425	-2.9	-3.3896	-3.1729	-3.0771	-3.6542	196.158	262.957	279.421	231.237	208.645	292.501	310.859	229.386	28.004	88.783	48.087	213.975	-14.952	99.247	48.149	171.168	0.00033678	8.006e-05	8.9135e-05	1199.7	2.2716e-06	3.3329e-06	1261.5	245.75	5.4647e-06	3.3948e-07	303.97	87.829	68.734	20.06	2.393e-06	27.717	0.00036941	0.00038332	0.00010825	1194.8	4.2735e-06	4.2447e-06	1255.3	247.27	4.1794e-06	4.173e-06	306.95	89.172	69.565	20.641	4.2584e-06	28.486	328.414	167.859	34.592	-8.525	115.010	181.183	-8.934	-1.500	148.771	146.761	-2.014	4.616	4.646	12.070	120.804	11.487	-8191	255	
692.250	1	1	0	0	0.081754	0.20579	0.16245	0.070728	0.092269	0.21661	0.3273	0.14101	0.0063623	0.12294	0.088703	0.25369	0.22247	0.25038	0.20189	0.21623	-2.5021	-3.1813	-3.5104	-3.0604	-3.2771	-3.3917	-3.0104	-3.6042	-2.9833	-3.2333	-3.4146	-3.0687	-3.2667	-3.3729	-2.975	-3.5604	271.134	123.470	191.420	310.247	57.009	250.579	336.472	289.671	-11.144	191.924	323.322	27.604	264.403	198.192	84.817	202.465	0.00041281	0.00027107	0.00013999	1193.5	8.5762e-06	7.9079e-06	1261.4	246.51	5.5053e-06	5.1084e-06	304.86	88.061	68.96	20.219	4.3518e-06	27.647	0.00037889	0.00038423	0.00010672	1193.9	4.2621e-06	4.25e-06	1255.4	247.07	4.273e-06	4.3532e-06	306.71	89.293	69.682	20.628	4.3944e-06	28.492	314.654	99.950	326.053	-8.537	156.359	145.910	-8.705	-1.423	190.859	138.615	-2.074	4.604	4.696	11.910	84.639	11.574	-8191	255	
692.346	1	1	0	0	0.1885	0.33413	0.20633	0.028267	0.13195	0.052346	0.38176	0.30638	0.10355	0.19941	0.14649	0.12872	0.22712	0.12633	0.52015	0.048327	-2.8125	-3.1167	-3.5479	-2.9833	-3.2604	-3.3354	-3.1937	-3.3667	-3.1146	-3.1	-3.5021	-3.1458	-3.1417	-3.3917	-2.8771	-3.3125	165.735	92.206	157.433	272.384	93.823	252.464	285.974	269.908	91.702	-8.453	6.488	10.864	333.180	14.520	52.887	149.602	0.00052821	0.00023025	8.4124e-05	1197.7	2.8714e-06	3.1884e-06	1260.9	246.8	2.9524e-06	6.22e-06	303.76	87.406	68.655	20.133	1.4884e-06	27.78	0.00039116	0.00039215	0.00010948	1195.1	4.2997e-06	4.2815e-06	1254.5	247.73	4.3119e-06	4.3257e-06	306.59	89.112	69.626	20.626	4.2641e-06	28.541	316.215	22.855	43.189	-8.786	157.785	68.756	-8.781	-1.400	168.775	130.607	-2.321	4.550	4.966	11.777	114.961	11.220	-8191	255	
692.465	1	1	0	0	0.10172	0.17549	0.20689	0.087666	0.17017	0.43543	0.08569	0.23232	0.16502	0.091059	0.085106	0.34226	0.12925	0.33681	0.15006	0.062248	-2.7542	-2.8896	-3.2729	-3.1083	-2.9729	-3.3708	-3.0833	-3.5208	-3.0229	-3.1833	-3.45	-3.1125	-3.1417	-3.2104	-2.9188	-3.4604	72.820	-2.606	255.535	214.081	257.031	52.130	274.643	275.764	311.838	331.124	172.410	329.820	288.165	248.805	244.866	301.233	0.00038695	0.00023753	3.2627e-05	1196.6	5.3852e-06	4.6935e-06	1256.5	245.99	5.1655e-06	7.096e-06	303.8	87.723	68.596	20.039	3.1114e-06	27.859	0.00037831	0.00038304	0.00010573	1192.3	4.2666e-06	4.2644e-06	1253.1	247.23	4.2697e-06	4.2952e-06	305.95	88.968	69.472	20.619	4.2264e-06	28.534	303.222	69.681	161.272	-8.708	113.090	154.748	-8.706	-1.483	119.052	92.240	-2.209	4.385	4.862	11.770	152.317	11.530	-8191	255	
692.561	1	1	0	0	0.2187	0.25454	0.065009	0.082412	0.083314	0.010749	0.25883	0.14096	0.21717	0.28043	0.1597	0.13585	0.30625	0.32677	0.11195	0.10648	-2.8187	-2.825	-3.4938	-3.1042	-3.1896	-3.2938	-3.0125	-3.475	-3.1479	-2.95	-3.3833	-3.0875	-3.1125	-3.4104	-2.9188	-3.3229	-18.123	296.826	81.076	26.218	298.816	218.518	287.034	256.365	198.837	-18.727	265.105	4.579	5.915	302.448	196.229	221.943	0.00045208	0.00050784	7.8598e-05	1199.1	3.4655e-06	6.1982e-06	1258.6	244.82	3.8368e-06	3.5412e-06	304.56	87.952	68.072	20.092	3.5297e-06	27.721	0.00037451	0.00038409	0.00010873	1193.8	4.2652e-06	4.3395e-06	1253.9	246.92	4.249e-06	4.1808e-06	306.7	89.072	69.515	20.604	4.1716e-06	28.54	299.902	39.215	63.392	-8.671	138.710	136.093	-8.615	-1.356	240.153	116.953	-1.894	4.650	4.956	12.022	154.685	11.375	-8191	255	
692.633	1	1	0	0	0.21049	0.12482	0.22605	0.23306	0.27154	0.089274	0.077348	0.14434	0.11217	0.076149	0.030246	0.35148	0.18487	0.3107	0.17175	0.14414	-2.7646	-2.9021	-3.3667	-3.15	-2.9437	-3.4333	-3.3063	-3.3292	-3.3396	-2.9917	-3.3333	-3.1063	-2.9708	-3.6354	-3.0292	-3.1479	289.524	118.372	139.032	52.292	137.330	116.808	210.606	18.147	145.023	210.142	265.772	289.406	320.221	132.210	222.895	288.638	0.00039919	0.00026151	0.00017195	1202.2	4.0293e-06	5.794e-06	1254.9	245.89	2.8302e-06	2.1717e-06	304.05	87.252	69.004	20	8.4963e-06	27.621	0.00038021	0.00039387	0.00010633	1192.8	4.2864e-06	4.2163e-06	1252.1	247.05	4.3375e-06	4.3218e-06	306.88	88.895	69.634	20.603	4.4121e-06	28.489	304.782	112.626	71.664	-8.673	174.128	89.193	-8.635	-1.621	207.736	105.204	-1.757	4.877	4.667	11.860	114.965	11.083	-8191	255	
692.731	1	1	0	0	0.13771	0.2941	0.058645	0.20474	0.19043	0.18315	0.21599	0.31249	0.11452	0.044268	0.29127	0.082051	0.12837	0.035449	0.086286	0.068451	-3.1521	-2.9104	-3.3312	-3.3438	-2.9896	-3.5542	-3.1021	-3.1083	-3.3396	-2.9771	-3.1708	-3.2625	-2.8896	-3.4917	-3.1396	-3.1688	187.990	186.341	48.758	295.309	20.503	151.905	238.769	286.702	288.071	212.506	278.257	158.390	243.121	170.086	118.441	100.875	0.00047538	0.00037796	0.0001388	1197	3.3854e-06	4.5299e-06	1258.5	245.68	5.9896e-06	4.0501e-06	304.5	87.386	68.669	20.041	3.167e-06	27.816	0.00039135	0.00040085	0.00010659	1193.7	4.4238e-06	4.1887e-06	1251.2	246.9	4.3189e-06	4.3514e-06	306.23	88.902	69.53	20.57	4.3686e-06	28.499	312.081	82.018	60.521	-8.666	175.491	174.483	-8.807	-1.437	155.851	105.384	-1.916	4.268	4.493	11.879	127.163	11.280	-8191	255	
692.850	1	1	0	0	0.065185	0.065867	0.11968	0.26758	0.18533	0.23424	0.29759	0.12232	0.14961	0.14854	0.080507	0.10007	0.25111	0.25271	0.18625	0.10978	-3.0542	-2.8229	-3.1792	-3.2958	-2.8896	-3.3833	-3.2271	-3.1083	-3.2333	-3.1125	-3.3688	-3.3354	-2.9979	-3.4979	-3.1583	-3.0479	212.982	96.021	-0.321	336.325	72.463	152.063	306.905	14.249	202.054	129.847	31.323	38.645	290.787	277.658	207.593	333.380	0.00031924	6.4778e-05	7.2946e-05	1199.1	3.5799e-06	4.5838e-06	1258.1	245.77	5.7864e-06	6.3516e-06	303.98	88.274	68.734	20.008	2.9344e-06	27.687	0.00039066	0.00039799	0.00011171	1193	4.4601e-06	4.3466e-06	1251.9	247.16	4.395e-06	4.4451e-06	306.4	89.227	69.557	20.568	4.3293e-06	28.507	321.643	22.949	84.648	-8.634	96.307	139.050	-8.606	-1.534	153.746	125.261	-2.242	4.345	4.972	11.982	142.510	10.877	-8191	255	
692.946	1	1	0	0	0.12044	0.071824	0.081893	0.10823	0.06311	0.099955	0.36079	0.25313	0.092803	0.050576	0.11819	0.055309	0.1667	0.34372	0.22922	0.064035	-3.1229	-3.0625	-3.2646	-3.3729	-2.8771	-3.4208	-3.25	-3.1312	-3.4604	-3.1667	-3.4958	-3.3521	-2.8688	-3.35	-3.1458	-3.0229	254.469	107.279	187.109	283.983	192.247	253.069	257.772	261.986	119.789	81.792	318.819	5.654	176.012	310.042	81.402	72.556	0.00053108	8.0793e-05	0.00012902	1198.2	2.2362e-06	3.84e-06	1258.9	246.24	2.1706e-06	3.2048e-06	302.77	87.425	68.542	20.088	5.1658e-06	27.891	0.00038182	0.00039456	0.00010709	1192.8	4.3217e-06	4.2709e-06	1252.7	247.1	4.237e-06	4.2884e-06	305.2	88.808	69.66	20.622	4.4047e-06	28.509	321.060	160.720	57.022	-8.894	149.878	129.658	-8.710	-1.470	113.215	72.054	-1.949	4.250	4.730	12.307	127.220	11.121	-8191	255	
693.042	1	1	0	0	0.17695	0.092313	0.14751	0.24377	0.054663	0.097472	0.16791	0.020689	0.17248	0.070179	0.1137	0.13919	0.1708	0.15093	0.10001	0.07188	-3.1208	-2.8375	-3.1833	-3.4979	-2.8937	-3.3021	-3.3479	-3.0812	-3.2729	-3.0896	-3.1312	-3.2854	-2.9667	-3.225	-3.3479	-3.0896	326.932	300.198	180.506	37.449	138.736	325.114	220.658	-9.423	325.646	314.552	239.545	14.820	171.771	-3.895	221.092	-12.218	0.00045116	0.00054653	0.00014573	1196.6	3.3119e-06	7.3303e-07	1256.6	246.14	3.6829e-06	5.9353e-06	304.15	87.637	68.95	20.025	4.953e-06	27.65	0.00038741	0.00039656	0.00011052	1192.9	4.361e-06	4.2345e-06	1251.6	246.8	4.2657e-06	4.2549e-06	306.16	88.861	69.714	20.561	4.288e-06	28.455	310.309	79.689	65.815	-8.743	130.001	249.726	-8.681	-1.207	182.781	92.838	-1.981	4.717	4.902	12.068	180.828	11.081	-8191	255	
693.138	1	1	0	0	0.11864	0.26163	0.21467	0.34979	0.051922	0.087028	0.18083	0.23683	0.15066	0.16676	0.18011	0.25913	0.24658	0.25586	0.046232	0.31684	-3.0271	-3.0083	-3.1437	-3.5208	-2.9854	-3.1625	-3.3563	-3.1208	-3.525	-3.1333	-2.9583	-3.5104	-3.0458	-3.2292	-3.3688	-2.9521	-7.059	279.341	33.145	276.169	156.570	-11.804	237.030	271.987	201.292	2.633	254.308	334.494	314.121	-14.093	164.884	273.568	0.00040743	0.00071975	4.4274e-05	1197.1	2.5588e-06	7.4866e-06	1260.5	246.46	3.4012e-06	3.3298e-06	303.49	87.459	68.54	20.127	3.4918e-06	27.887	0.00037655	0.00038885	0.00010988	1191.2	4.3377e-06	4.2867e-06	1252.8	247.39	4.2167e-06	4.328e-06	306.34	88.787	69.549	20.631	4.2731e-06	28.555	321.087	67.245	28.493	-8.669	46.116	170.558	-8.890	-1.549	156.081	155.925	-1.780	4.858	4.800	11.806	127.576	11.433	-8191	255	
693.234	1	1	0	0	0.084286	0.11828	0.03653	0.18734	0.076731	0.030034	0.3383	0.056807	0.21222	0.15505	0.25669	0.2714	0.13934	0.19089	0.14443	0.1058	-2.8458	-2.9938	-3.0583	-3.4375	-3.125	-3.3375	-3.4646	-3.0458	-3.3646	-3.1937	-3.0687	-3.3667	-3.0854	-3.1229	-3.4604	-3.0583	253.247	272.781	312.375	311.866	339.041	270.125	293.551	68.381	264.387	334.218	323.628	53.780	-17.500	65.894	5.363	267.461	0.00051059	0.00038508	2.2313e-05	1194	5.0897e-06	3.606e-06	1254.3	246.18	4.3694e-06	4.7047e-06	305.12	87.898	68.933	20.021	2.5108e-06	27.775	0.00038495	0.00040817	0.00011082	1190.2	4.3852e-06	4.2871e-06	1250.3	246.87	4.2278e-06	4.3514e-06	306.55	88.873	69.428	20.596	4.2987e-06	28.484	309.200	105.773	112.689	-8.659	168.395	94.294	-8.488	-1.639	213.683	131.598	-2.314	4.849	4.973	11.849	224.008	11.043	-8191	255	
693.331	1	1	0	0	0.11901	0.080308	0.16642	0.10715	0.16383	0.19106	0.083448	0.27785	0.20108	0.072856	0.22447	0.096693	0.11	0.24062	0.18115	0.3063	-3.0146	-3.1417	-2.9292	-3.5167	-3.1042	-3.2708	-3.4917	-3.1333	-3.2917	-3.1562	-2.9229	-3.4333	-3.1063	-3.1125	-3.4813	-3.1292	22.106	320.179	261.997	94.499	32.746	291.962	-16.866	294.514	72.936	179.589	232.819	252.390	225.949	271.316	184.292	273.058	0.00038839	0.00033677	0.0001176	1194.3	4.4165e-06	4.5112e-06	1256.2	244.52	6.0023e-06	3.6031e-06	303.13	87.817	69.065	19.971	6.7673e-06	27.983	0.00039163	0.00039645	0.00011384	1191	4.358e-06	4.3968e-06	1251	246.74	4.3211e-06	4.3849e-06	306.14	89.043	69.601	20.636	4.2458e-06	28.583	311.385	73.360	41.350	-8.875	120.345	174.342	-8.472	-1.571	226.975	123.026	-1.895	4.560	4.533	12.101	118.729	11.153	-8191	255	
693.451	1	1	0	0	0.27244	0.098409	0.082142	0.21342	0.10741	0.021722	0.10256	0.21364	0.1936	0.12345	0.20088	0.058075	0.039964	0.21514	0.018826	0.11874	-2.6917	-3.25	-3.0125	-3.6	-3.0375	-3.0458	-3.7479	-3.0979	-3.2125	-3.5229	-2.7958	-3.4625	-3.1875	-3.0896	-3.6396	-3.0687	278.834	246.537	224.993	293.863	150.904	249.907	197.391	261.348	320.054	46.442	225.762	57.488	4.337	30.740	24.437	106.109	0.00041801	0.00033387	0.00012004	1195.7	3.8235e-06	3.5977e-06	1257.8	245.91	6.1968e-06	7.0123e-07	303.4	88.022	68.796	20.062	7.5247e-06	27.841	0.00039084	0.00039971	0.0001129	1192.2	4.5044e-06	4.4963e-06	1251.4	246.96	4.3368e-06	4.3932e-06	306.26	88.967	69.65	20.593	4.2692e-06	28.508	295.796	40.240	35.116	-8.436	172.667	161.584	-8.716	-1.539	244.361	50.773	-2.082	4.529	4.758	12.165	142.053	11.110	-8191	255	
693.546	1	1	0	0	0.22814	0.12286	0.30849	0.1298	0.33082	0.16186	0.10867	0.12059	0.21653	0.17957	0.07116	0.28934	0.15807	0.25966	0.13865	0.087804	-3.0167	-3.3312	-3.0333	-3.4354	-3.1479	-3.1813	-3.5521	-3.0396	-3.1937	-3.2938	-2.9813	-3.2188	-3.2771	-2.9292	-3.3438	-3.0083	204.688	321.672	23.297	4.914	216.668	229.462	325.593	321.930	319.914	250.034	286.887	6.599	24.494	36.753	23.774	25.850	0.00045377	0.00041671	0.00015829	1198.6	6.1144e-06	3.4013e-06	1252.8	244.45	6.8206e-06	6.0608e-06	305.41	87.227	68.945	20.109	3.6876e-06	27.655	0.00039042	0.00040054	0.0001081	1193.2	4.4654e-06	4.3059e-06	1250	246.68	4.3184e-06	4.2924e-06	306.55	88.81	69.57	20.564	4.2802e-06	28.489	321.285	101.021	72.366	-8.805	120.648	139.597	-8.633	-1.538	198.759	67.875	-1.894	4.824	4.989	11.867	195.416	11.375	-8191	255	
693.642	1	1	0	0	0.26437	0.15152	0.070133	0.051666	0.2843	0.11794	0.16487	0.30936	0.06502	0.20676	0.16669	0.16855	0.1425	0.039235	0.035142	0.066217	-2.7729	-3.2333	-2.8937	-3.5375	-3.1937	-2.9188	-3.6021	-3.1917	-3.3792	-3.5354	-3.0479	-3.3354	-3.2729	-2.9146	-3.3854	-3.0583	280.863	16.127	70.388	166.035	138.399	56.512	315.960	286.575	207.545	155.965	326.553	246.329	30.588	336.555	167.260	-5.066	0.00048263	0.00036538	0.00012381	1196.7	6.0661e-06	6.8654e-06	1257.4	245.4	3.3027e-06	5.8815e-06	304.6	87.485	69.017	19.881	2.6904e-06	27.943	0.0003843	0.00039054	0.00010987	1190.8	4.3654e-06	4.4242e-06	1251.7	246.92	4.1931e-06	4.2031e-06	306.17	88.932	69.61	20.564	4.2573e-06	28.546	322.638	114.552	58.027	-8.554	172.031	70.729	-8.782	-1.693	135.572	127.969	-2.158	4.733	4.825	11.718	69.839	11.529	-8191	255	
693.738	1	1	0	0	0.24625	0.14121	0.34042	0.22659	0.14366	0.2816	0.10666	0.10315	0.090748	0.18166	0.18776	0.25074	0.16916	0.15494	0.094557	0.17463	-2.7625	-3.4854	-2.9938	-3.4792	-3.2604	-2.8479	-3.5125	-3.2354	-3.0396	-3.4229	-3.1437	-3.3063	-3.4813	-2.8896	-3.3021	-3.1083	26.669	5.975	221.762	307.255	251.965	108.371	315.630	283.569	310.822	171.781	146.904	253.738	17.041	240.606	215.513	-16.525	0.00049161	0.00045205	0.00012333	1192.7	4.7458e-06	6.0175e-06	1252.9	245.23	6.8401e-06	5.3764e-06	303.36	88.046	68.33	19.912	5.2097e-06	27.591	0.00039611	0.00039157	0.0001129	1190	4.4102e-06	4.4236e-06	1250.6	246.7	4.3009e-06	4.3113e-06	306.3	89.189	69.534	20.56	4.2579e-06	28.519	316.815	94.317	50.923	-8.904	166.619	127.565	-8.569	-1.491	216.957	88.125	-1.768	4.549	4.532	11.825	98.666	11.611	-8191	255	
693.834	1	1	0	0	0.1753	0.20775	0.17852	0.050584	0.15264	0.017337	0.28839	0.26783	0.083827	0.12938	0.052017	0.047806	0.31076	0.072196	0.21276	0.11816	-2.5771	-3.3667	-2.8958	-3.2542	-3.3875	-2.8896	-3.5563	-3.1292	-2.8104	-3.4354	-3.0146	-3.1188	-3.4813	-2.8937	-3.4021	-3.4646	309.595	256.342	193.278	329.264	37.199	264.921	241.298	68.712	75.253	-16.092	283.992	195.634	321.803	30.094	61.549	12.435	0.00051246	0.00021562	6.0092e-05	1196.3	2.5818e-06	3.4202e-06	1255.5	245.38	4.3139e-06	5.5251e-06	303.45	87.716	68.409	20.09	4.2274e-06	27.805	0.00039206	0.00039209	0.00011046	1192	4.2746e-06	4.2305e-06	1252.7	246.57	4.2714e-06	4.307e-06	306.24	89.014	69.413	20.614	4.1844e-06	28.561	311.752	105.155	68.133	-8.748	106.863	174.457	-8.647	-1.427	120.865	141.901	-2.170	4.241	4.685	11.979	144.123	10.936	-8191	255	
693.930	1	1	0	0	0.052621	0.11397	0.22552	0.26991	0.11098	0.2453	0.18966	0.26983	0.0741	0.18952	0.066338	0.22159	0.12146	0.081123	0.13773	0.24888	-2.4979	-3.525	-2.9708	-3.2479	-3.2792	-2.85	-3.3042	-3.3458	-3.0958	-3.4271	-3.175	-2.9333	-3.5479	-2.9896	-3.2479	-3.3312	155.383	276.643	-9.940	285.409	71.472	238.118	300.479	296.181	8.207	172.572	9.749	231.991	334.675	150.214	205.542	119.251	0.00045534	0.00048959	9.1415e-05	1193.8	1.7854e-06	4.5017e-06	1254.5	245.73	4.0968e-06	3.6662e-06	304.1	87.534	68.541	20.175	4.7525e-06	27.67	0.00038063	0.00038544	0.00010947	1190.9	4.4323e-06	4.2922e-06	1252.7	247.07	4.3275e-06	4.3641e-06	306.03	88.865	69.405	20.661	4.408e-06	28.504	319.216	98.396	24.147	-8.732	73.737	99.744	-8.643	-1.628	130.975	132.629	-1.817	4.590	4.833	12.110	196.388	11.452	-8191	255	
694.026	1	1	0	0	0.15992	0.21409	0.17356	0.16434	0.12223	0.1361	0.14203	0.082335	0.17589	0.28142	0.20014	0.21772	0.12948	0.13525	0.20261	0.078148	-2.525	-3.3583	-2.9104	-3.2208	-3.3937	-2.9229	-3.4167	-3.4958	-2.7438	-3.3125	-3.25	-2.9729	-3.3167	-3.1312	-3.1667	-3.5187	218.489	311.557	107.550	228.996	119.269	60.651	265.303	120.443	226.229	39.915	296.889	269.610	6.065	36.304	58.963	78.662	0.00041281	0.00046077	5.1152e-05	1197.4	4.0393e-06	4.8218e-06	1258.3	245.47	2.7877e-06	5.84e-06	303.61	87.477	68.619	20.076	5.5576e-06	28.036	0.00038868	0.00040655	0.00011041	1192.3	4.3149e-06	4.392e-06	1252.8	246.59	4.3225e-06	4.1883e-06	306.15	88.98	69.46	20.631	4.295e-06	28.502	315.280	104.136	92.902	-8.738	157.654	113.298	-8.632	-1.452	154.916	163.612	-2.087	4.637	4.744	12.036	153.388	11.622	-8191	255	
694.147	1	1	0	0	0.070435	0.28467	0.15372	0.25722	0.0625	0.099675	0.062957	0.10027	0.035001	0.23052	0.2232	0.33898	0.077498	0.22177	0.23436	0.14341	-2.6125	-3.3688	-3.1813	-3.0958	-3.5396	-3.0042	-3.2333	-3.3063	-2.9292	-3.3292	-3.4146	-2.9667	-3.5521	-3.1646	-3.2083	-3.425	266.517	162.745	304.002	50.894	-12.150	326.843	11.078	265.349	282.899	170.426	233.112	319.679	14.380	54.425	145.726	211.096	0.000375	4.0117e-05	0.00011501	1196.6	3.5241e-06	4.2106e-06	1256.8	244.28	1.0467e-05	2.2904e-06	304.7	87.539	68.743	20.115	3.4854e-06	27.748	0.00038641	0.00039397	0.00011043	1191.1	4.4168e-06	4.3553e-06	1251.2	246.21	4.3339e-06	4.3734e-06	306.3	88.866	69.542	20.603	4.2705e-06	28.522	300.910	90.076	51.281	-8.521	106.812	127.441	-8.463	-1.605	197.465	79.953	-1.593	4.721	4.704	12.128	251.588	11.299	-8191	255	
694.243	1	1	0	0	0.074606	0.14735	0.16474	0.28752	0.016414	0.11739	0.29102	0.28712	0.18386	0.087679	0.20905	0.040227	0.037763	0.12904	0.22797	0.19361	-2.5812	-3.2771	-3.2542	-3.2021	-3.3375	-3.2687	-3.1792	-3.3875	-3.0917	-3.1937	-3.4104	-2.975	-3.4771	-3	-3.1292	-3.45	-13.573	-0.986	18.181	330.271	58.912	178.733	236.057	298.584	63.545	73.974	-13.099	193.869	322.691	168.969	81.318	156.717	0.00046082	0.00046679	0.00011691	1195.1	5.5002e-06	3.7782e-06	1257.6	246.18	8.7584e-06	1.927e-06	303.41	87.751	68.864	20.105	2.7035e-06	27.866	0.00038941	0.00039159	0.00011	1190	4.3124e-06	4.3334e-06	1251.7	246.63	4.2544e-06	4.3576e-06	305.92	88.999	69.588	20.636	4.4964e-06	28.567	308.959	48.084	81.541	-8.924	93.372	160.597	-8.570	-1.762	154.638	93.135	-1.923	4.401	4.790	11.944	100.187	10.951	-8191	255	
694.339	1	1	0	0	0.13993	0.10153	0.12613	0.059864	0.059808	0.075517	0.22701	0.050633	0.076001	0.16777	0.11684	0.11447	0.1863	0.20318	0.035455	0.086087	-2.4188	-3.0625	-3.3729	-3.0438	-3.375	-3.1271	-3.2812	-3.5833	-2.9646	-3.3	-3.3604	-2.9646	-3.3312	-3.3688	-2.7583	-3.4146	287.321	310.376	234.262	124.155	267.626	278.086	218.559	290.894	202.076	181.170	216.894	272.225	143.354	313.791	100.376	70.950	0.00042266	0.00056133	6.2931e-05	1191.4	3.5308e-06	5.5184e-06	1255.2	245.64	6.9339e-06	4.5664e-06	305.66	87.64	68.16	19.997	2.2099e-06	27.746	0.00039644	0.00040822	0.00011261	1190.2	4.3664e-06	4.3917e-06	1250.3	246.89	4.277e-06	4.378e-06	306.52	88.881	69.35	20.555	4.2221e-06	28.536	321.045	75.637	75.219	-8.621	193.463	108.426	-8.417	-1.566	142.951	127.987	-2.053	4.619	4.719	12.099	150.733	11.439	-8191	255	
694.435	1	1	0	0	0.14934	0.17121	0.02636	0.42821	0.095339	0.23008	0.073826	0.21822	0.10524	0.12287	0.088918	0.039802	0.12081	0.21826	0.19028	0.17794	-2.6896	-2.9688	-3.3417	-3.1542	-3.3021	-3.2521	-3.0521	-3.4458	-3.2583	-3.2333	-3.4625	-2.9313	-3.5042	-3.275	-3.1021	-3.5062	-2.775	101.084	14.220	328.638	101.793	61.087	315.379	247.137	202.296	17.021	157.081	57.031	339.761	32.660	151.906	277.027	0.00035579	0.00034673	9.7791e-05	1192.4	5.9167e-06	7.0837e-06	1256.9	245.29	8.636e-06	2.8053e-06	304.08	87.69	68.622	20.127	4.3297e-06	27.687	0.0003893	0.00039586	0.00010849	1189.5	4.3862e-06	4.3767e-06	1251.8	246.46	4.3109e-06	4.3427e-06	305.74	88.998	69.513	20.644	4.297e-06	28.504	326.340	112.103	62.882	-8.671	141.125	153.646	-8.693	-1.451	168.185	138.780	-1.700	4.814	4.989	11.873	158.119	11.362	-8191	255	
694.530	1	1	0	0	0.047237	0.13416	0.0081891	0.19448	0.2753	0.27585	0.29821	0.090417	0.12385	0.1084	0.19364	0.23382	0.18754	0.095546	0.20531	0.23223	-2.7542	-2.9896	-3.4125	-3.1604	-3.3896	-3.3	-3.1229	-3.3375	-3.0229	-3.0271	-3.6125	-3.1	-3.1229	-3.2521	-2.9417	-3.225	290.958	328.112	-12.882	320.840	6.091	-12.246	243.231	310.138	39.140	2.640	215.655	308.810	262.277	314.720	204.939	223.343	0.00045841	0.00036876	8.259e-05	1191.6	1.4703e-06	4.8625e-06	1257.2	244.81	5.4171e-06	4.4831e-06	303.77	87.984	68.862	20.018	8.7388e-07	27.916	0.00039079	0.00038624	0.00010623	1189.5	4.3405e-06	4.2583e-06	1249.9	246.26	4.4346e-06	4.3261e-06	306.04	89.022	69.484	20.59	4.4058e-06	28.602	319.284	67.859	13.886	-8.604	89.065	120.406	-8.671	-1.336	260.481	103.476	-1.793	4.552	4.973	12.419	319.296	11.637	-8191	255	
694.626	1	1	0	0	0.17702	0.034081	0.095943	0.34421	0.15048	0.14629	0.11238	0.26698	0.05486	0.087904	0.17741	0.030223	0.13342	0.28669	0.0097144	0.050297	-2.6063	-2.8312	-3.4333	-3.1458	-3.1521	-3.3146	-2.9292	-3.3792	-3.225	-2.9875	-3.5125	-3.0833	-3.3104	-3.3688	-2.8083	-3.45	307.174	113.880	303.084	306.560	326.716	258.207	262.546	274.468	310.292	183.465	258.416	253.553	25.219	30.734	216.034	323.882	0.00040144	0.00039908	0.00012792	1197.4	5.7026e-06	2.2231e-06	1261.4	244.95	3.0006e-06	8.3782e-07	303.09	87.746	68.801	19.942	1.2179e-06	27.67	0.0003896	0.00039166	0.00010863	1189.7	4.4706e-06	4.2778e-06	1251.7	246.41	4.3205e-06	4.3974e-06	305.77	88.822	69.476	20.526	4.2535e-06	28.476	307.916	83.088	96.632	-8.770	131.063	169.177	-8.528	-1.725	144.816	266.444	-1.918	4.505	4.630	12.131	316.391	11.159	-8191	255	
694.722	1	1	0	0	0.10674	0.1627	0.094038	0.19645	0.07681	0.17987	0.34813	0.087659	0.035472	0.2461	0.19526	0.095609	0.17997	0.11112	0.10149	0.17142	-2.9188	-3.0312	-3.5396	-3.225	-3.1875	-3.3146	-3.1375	-3.3167	-3.2438	-2.9938	-3.6188	-3.1229	-3.0792	-3.3875	-3.1208	-3.2271	55.467	160.820	292.561	304.723	179.288	312.653	271.508	25.554	313.581	31.833	323.774	160.246	247.224	328.385	241.237	298.878	0.00042463	0.00027039	4.91e-05	1195.3	6.4916e-06	5.9206e-06	1257.2	244.69	3.6259e-06	3.0888e-06	304.31	87.814	68.793	19.884	3.2968e-06	27.716	0.00038008	0.00039466	0.00010784	1189.8	4.4372e-06	4.3528e-06	1250.1	246.42	4.3085e-06	4.2843e-06	306.46	88.856	69.409	20.527	4.2432e-06	28.485	320.470	53.106	92.698	-8.575	152.745	113.390	-8.330	-1.489	242.570	98.328	-1.800	4.638	4.704	12.260	145.090	11.423	-8191	255	
694.818	1	1	0	0	0.15037	0.1203	0.14616	0.23245	0.083963	0.03735	0.10142	0.33253	0.10724	0.052892	0.13646	0.10006	0.13421	0.30039	0.24123	0.34921	-2.8021	-3.0917	-3.3396	-3.3396	-3.0979	-3.3563	-3.225	-3.3333	-3.2938	-2.8958	-3.4688	-3.2979	-2.9708	-3.6125	-2.8979	-3.3438	112.145	183.299	82.868	311.780	320.615	114.012	70.911	224.747	254.924	147.800	92.496	67.724	17.361	147.120	218.294	289.560	0.00051114	0.00053246	6.318e-05	1196.5	5.7637e-06	3.9329e-06	1253.5	246	8.9138e-06	6.0662e-06	302.9	87.887	68.643	20.009	3.776e-06	27.682	0.00037937	0.00040572	0.00011081	1189.1	4.4703e-06	4.4572e-06	1251.3	246.98	4.4013e-06	4.4377e-06	306.27	89.087	69.44	20.612	4.4045e-06	28.505	335.742	90.233	58.152	-8.724	145.211	230.015	-8.553	-1.363	185.841	159.315	-1.558	4.894	4.894	12.056	163.295	11.123	-8191	255	
694.939	1	1	0	0	0.23919	0.069651	0.15592	0.28517	0.1469	0.05336	0.23279	0.17196	0.28769	0.042712	0.14937	0.17998	0.18154	0.14676	0.18017	0.016726	-2.9562	-2.9146	-3.3167	-3.5375	-3	-3.3896	-3.3792	-3.2354	-3.375	-3.0292	-3.4604	-3.2062	-2.9271	-3.4479	-3.1708	-3.0812	31.364	282.382	12.745	284.788	71.700	296.300	297.421	233.561	4.272	296.069	255.442	238.124	57.821	29.083	86.235	281.537	0.0004031	0.0002978	3.5893e-05	1198.3	3.7341e-06	7.1758e-06	1254	244.35	1.0301e-05	1.3817e-06	304.64	87.68	68.445	20.07	7.0817e-06	27.691	0.00038892	0.0004069	0.00011026	1190.2	4.4547e-06	4.4004e-06	1250.4	246.24	4.3462e-06	4.3449e-06	305.85	88.749	69.465	20.61	4.4986e-06	28.573	316.788	44.986	-6.261	-9.043	168.104	138.622	-8.791	-1.455	158.722	56.178	-1.794	4.818	4.608	11.771	122.284	10.866	-8191	255	
695.035	1	1	0	0	0.23801	0.17387	0.20838	0.14949	0.064938	0.24925	0.11092	0.15478	0.067474	0.21062	0.23325	0.10118	0.19377	0.13498	0.096934	0.088811	-2.9979	-3.025	-3.3833	-3.4229	-2.8688	-3.4813	-3.3625	-3.1646	-3.3146	-2.9542	-3.2354	-3.4292	-2.8625	-3.3625	-3.0958	-2.9479	183.149	60.524	90.232	327.111	128.922	233.097	164.947	308.040	181.524	9.231	320.713	-10.689	-13.378	10.080	302.555	-11.096	0.00052883	0.00018359	8.5264e-05	1192.3	6.0425e-06	4.4877e-06	1249.7	245.11	3.9218e-06	2.3176e-06	304.16	87.428	68.317	20.034	2.2312e-06	27.837	0.00039426	0.00041155	0.00011382	1188.9	4.4082e-06	4.2902e-06	1247.7	246.29	4.2465e-06	4.4946e-06	305.85	88.987	69.489	20.612	4.4203e-06	28.602	313.222	102.973	34.362	-8.672	136.981	126.219	-8.452	-1.423	79.173	182.244	-2.202	4.351	4.503	11.832	299.298	11.332	-8191	255	
695.131	1	1	0	0	0.27255	0.099402	0.1343	0.12491	0.27122	0.082829	0.1075	0.32696	0.064113	0.26929	0.1573	0.26713	0.24096	0.16521	0.07472	0.11831	-3.0083	-2.8542	-3.2687	-3.1375	-2.825	-3.3396	-3.2833	-3.0521	-3.3563	-3.0521	-3.1437	-3.4542	-3.0958	-3.3833	-3.0917	-2.9938	161.494	-1.362	102.391	257.079	239.147	315.797	299.312	264.806	293.290	196.746	249.109	25.705	302.858	287.465	280.273	114.406	0.00039678	3.769e-05	0.00015887	1191.7	3.7216e-06	2.5853e-06	1257.5	245.02	2.9923e-06	5.4689e-06	303.56	87.802	68.219	20.026	4.9334e-06	27.575	0.00039305	0.00040597	0.00011156	1189.4	4.4488e-06	4.4431e-06	1249.9	246.48	4.3172e-06	4.4753e-06	305.4	88.906	69.425	20.584	4.418e-06	28.534	310.224	103.912	84.312	-8.474	107.671	180.339	-8.518	-1.535	30.358	118.784	-1.992	4.807	4.929	11.765	160.424	11.460	-8191	255	
695.227	1	1	0	0	0.083648	0.19391	0.29106	0.4727	0.10412	0.16252	0.34225	0.2987	0.047755	0.11316	0.13894	0.2623	0.29881	0.20127	0.1454	0.035484	-3.0771	-3.1583	-3.0667	-3.4896	-2.9729	-3.5396	-3.5042	-2.9813	-3.3979	-3.1292	-3.1771	-3.5958	-2.9917	-3.275	-3.3979	-2.9417	225.741	30.167	337.521	310.601	227.101	271.443	272.516	317.451	150.837	125.459	128.019	23.290	334.019	-11.888	70.166	304.067	0.00049114	0.00025104	6.9622e-05	1195.4	3.9435e-06	6.56e-06	1256.1	245.89	1.0602e-06	5.4246e-06	302.44	87.529	68.342	20.037	1.3958e-06	27.977	0.00039808	0.00040707	0.00011084	1190.1	4.3758e-06	4.4611e-06	1250.4	246.48	4.3339e-06	4.4056e-06	305.7	88.735	69.445	20.58	4.2945e-06	28.614	319.548	74.818	-6.461	-8.830	185.942	119.643	-8.611	-1.591	177.700	122.389	-1.887	4.399	4.710	12.311	145.586	11.289	-8191	255	
695.324	1	1	0	0	0.24352	0.056588	0.1818	0.040683	0.30389	0.12621	0.29134	0.18027	0.1977	0.065079	0.092365	0.14864	0.23111	0.30829	0.1572	0.41798	-3.1417	-3.0542	-3.125	-3.4458	-3.0479	-3.1833	-3.4521	-2.9125	-3.3854	-3.2354	-3.0271	-3.6125	-3.0062	-3.425	-3.3625	-3.1667	69.668	194.837	58.142	216.621	249.202	75.842	315.248	261.355	307.277	152.121	323.802	1.241	174.062	290.478	140.554	320.181	0.00038489	0.00028853	9.4694e-05	1193	4.8274e-06	3.3995e-06	1255.6	246.3	3.4821e-06	3.2537e-06	303.52	87.317	68.626	19.983	4.9079e-06	27.572	0.0003802	0.00040207	0.00010981	1188.5	4.4255e-06	4.3167e-06	1251.3	246.7	4.2695e-06	4.2625e-06	305.73	88.693	69.363	20.598	4.3229e-06	28.508	305.206	20.101	57.650	-8.765	145.099	74.736	-8.645	-1.174	101.743	192.389	-1.881	4.508	4.609	12.113	148.481	11.633	-8191	255	
695.420	1	1	0	0	0.18186	0.11523	0.11827	0.18515	0.18154	0.065004	0.10354	0.26696	0.073458	0.21309	0.22747	0.12377	0.043668	0.27671	0.031297	0.057158	-3.0354	-3.1688	-3.0396	-3.65	-2.9771	-3.3125	-3.4375	-3.0771	-3.3438	-3.2208	-2.9542	-3.4729	-2.975	-3.3063	-3.3438	-2.8833	110.462	160.190	42.037	12.802	302.530	87.720	30.391	191.739	132.963	56.517	270.388	78.765	242.041	294.744	26.819	43.520	0.00057224	0.00059456	8.0662e-05	1197.9	3.0231e-06	3.631e-06	1254.1	246.15	3.692e-06	4.7892e-06	304.11	88.122	69.011	20.041	1.5458e-06	27.837	0.00038443	0.00038446	0.00010711	1189.4	4.2804e-06	4.1702e-06	1248.4	246.56	4.3158e-06	4.3305e-06	305.7	88.969	69.566	20.579	4.1916e-06	28.53	304.214	88.463	60.118	-8.672	177.628	189.971	-8.673	-1.510	100.330	88.228	-1.983	4.850	4.768	12.038	99.583	11.260	-8191	255	
695.539	1	1	0	0	0.18413	0.10294	0.1897	0.27101	0.16063	0.17007	0.14771	0.1614	0.46567	0.084968	0.06309	0.19828	0.13016	0.19135	0.055683	0.11275	-2.8708	-2.9833	-2.85	-3.4604	-3.0542	-3.2229	-3.3792	-2.8042	-3.2438	-3.3	-3.0875	-3.5271	-3.2229	-3.1708	-3.5771	-3.1688	23.874	203.137	236.256	313.193	261.077	-2.117	195.721	-10.781	336.304	145.327	137.249	247.699	332.995	42.868	295.560	314.873	0.00042091	0.00053367	6.9124e-05	1187.3	4.4858e-06	4.5529e-06	1254.2	244.61	5.7924e-06	6.7896e-06	302.51	87.355	68.518	20.06	2.3641e-06	27.799	0.00037929	0.00038795	0.00010722	1185.2	4.3022e-06	4.1446e-06	1246.8	246.18	4.1514e-06	4.2701e-06	304.47	88.674	69.268	20.535	4.1939e-06	28.473	323.283	64.369	52.223	-8.732	125.321	161.576	-8.676	-1.277	153.022	154.183	-1.558	4.711	4.767	11.875	136.100	11.425	-8191	255	
#DATA ENDS
