BOXY.EXE: ISS Imagent and Oximeter Data Acquisition Program Version 0.80
Ascii Record File

#ACQ INFORMATION
2  Detector Channels 
16  External MUX Channels 
1  Auxiliary Channels 
5000  Waveform (CCF) Frequency (Hz)
1  Waveforms Skipped 
30  Waveforms Averaged 
1  Cycles Averaged 
16  Acquisitions per Waveform 
10.0806  Updata Rate (Hz) 

#FILE INFORMATION
TRUE -- External MUX Channel results are PARSED.
FALSE -- AC DC and Phase are NOT grouped.
TRUE -- Companion Program Settings File CREATED.
FALSE -- AC data not excluded
FALSE -- DC data not excluded
FALSE -- Phase data not excluded
FALSE -- Auxillary Chn. data not excluded
Tab delimiters

#CALIBRATION STATE
TRUE -- Waveform Calibration Values APPLIED.


#AUX CALIBRATION VALUES
Val Type	aux-1	

Term	1.0000e+00	
Factor	0.0000e+00	


#WF CALIBRATION VALUES
A = Detector Channel
Val Type	A-AC1	A-AC2	A-AC3	A-AC4	A-AC5	A-AC6	A-AC7	A-AC8	A-AC9	A-AC10	A-AC11	A-AC12	A-AC13	A-AC14	A-AC15	A-AC16	A-DC1	A-DC2	A-DC3	A-DC4	A-DC5	A-DC6	A-DC7	A-DC8	A-DC9	A-DC10	A-DC11	A-DC12	A-DC13	A-DC14	A-DC15	A-DC16	A-Ph1	A-Ph2	A-Ph3	A-Ph4	A-Ph5	A-Ph6	A-Ph7	A-Ph8	A-Ph9	A-Ph10	A-Ph11	A-Ph12	A-Ph13	A-Ph14	A-Ph15	A-Ph16	

Term	0.00000e+00	0.00000e+00	0.00000e+00	0.00000e+00	0.00000e+00	0.00000e+00	0.00000e+00	0.00000e+00	0.00000e+00	0.00000e+00	0.00000e+00	0.00000e+00	0.00000e+00	0.00000e+00	0.00000e+00	0.00000e+00	0.00000e+00	0.00000e+00	0.00000e+00	0.00000e+00	0.00000e+00	0.00000e+00	0.00000e+00	0.00000e+00	0.00000e+00	0.00000e+00	0.00000e+00	0.00000e+00	0.00000e+00	0.00000e+00	0.00000e+00	0.00000e+00	0.00000e+00	0.00000e+00	0.00000e+00	0.00000e+00	0.00000e+00	0.00000e+00	0.00000e+00	0.00000e+00	0.00000e+00	0.00000e+00	0.00000e+00	0.00000e+00	0.00000e+00	0.00000e+00	0.00000e+00	0.00000e+00	
Factor	1.00000e+00	1.00000e+00	1.00000e+00	1.00000e+00	1.00000e+00	1.00000e+00	1.00000e+00	1.00000e+00	1.00000e+00	1.00000e+00	1.00000e+00	1.00000e+00	1.00000e+00	1.00000e+00	1.00000e+00	1.00000e+00	1.00000e+00	1.00000e+00	1.00000e+00	1.00000e+00	1.00000e+00	1.00000e+00	1.00000e+00	1.00000e+00	1.00000e+00	1.00000e+00	1.00000e+00	1.00000e+00	1.00000e+00	1.00000e+00	1.00000e+00	1.00000e+00	X	X	X	X	X	X	X	X	X	X	X	X	X	X	X	X	

B = Detector Channel
Val Type	B-AC1	B-AC2	B-AC3	B-AC4	B-AC5	B-AC6	B-AC7	B-AC8	B-AC9	B-AC10	B-AC11	B-AC12	B-AC13	B-AC14	B-AC15	B-AC16	B-DC1	B-DC2	B-DC3	B-DC4	B-DC5	B-DC6	B-DC7	B-DC8	B-DC9	B-DC10	B-DC11	B-DC12	B-DC13	B-DC14	B-DC15	B-DC16	B-Ph1	B-Ph2	B-Ph3	B-Ph4	B-Ph5	B-Ph6	B-Ph7	B-Ph8	B-Ph9	B-Ph10	B-Ph11	B-Ph12	B-Ph13	B-Ph14	B-Ph15	B-Ph16	

Term	0.00000e+00	0.00000e+00	0.00000e+00	0.00000e+00	0.00000e+00	0.00000e+00	0.00000e+00	0.00000e+00	0.00000e+00	0.00000e+00	0.00000e+00	0.00000e+00	0.00000e+00	0.00000e+00	0.00000e+00	0.00000e+00	0.00000e+00	0.00000e+00	0.00000e+00	0.00000e+00	0.00000e+00	0.00000e+00	0.00000e+00	0.00000e+00	0.00000e+00	0.00000e+00	0.00000e+00	0.00000e+00	0.00000e+00	0.00000e+00	0.00000e+00	0.00000e+00	-4.75716e+01	-1.35101e+02	-1.29375e+02	-1.84118e+02	-5.44791e+01	-7.58158e+01	-1.56939e+02	-1.62015e+02	-3.92950e+01	-6.79819e+01	-1.79157e+02	-1.72708e+02	-1.81907e+02	-1.79053e+02	-5.40225e+01	-1.51054e+02	
Factor	2.14054e-05	1.65438e-04	4.45207e-05	1.93188e-01	1.52988e-06	1.63477e-06	1.72751e-01	5.79745e-02	1.47156e-06	2.00797e-06	1.02111e-01	3.04012e-02	2.61950e-02	9.67711e-03	1.80977e-06	1.33144e-02	7.04719e-06	9.05723e-06	2.52502e-06	9.81664e-02	9.59974e-08	9.99390e-08	8.26497e-02	2.95921e-02	9.51969e-08	1.00068e-07	5.04123e-02	1.50950e-02	1.35493e-02	4.97842e-03	9.72464e-08	6.63810e-03	X	X	X	X	X	X	X	X	X	X	X	X	X	X	X	X	



#DISTANCE SETTINGS
A = Detector Channel
A-1	A-2	A-3	A-4	A-5	A-6	A-7	A-8	A-9	A-10	A-11	A-12	A-13	A-14	A-15	A-16	

2.5000e+00	3.0000e+00	2.5000e+00	3.0000e+00	2.0000e+00	3.0000e+00	1.5000e+00	3.0000e+00	3.0000e+00	3.0000e+00	3.0000e+00	3.0000e+00	3.0000e+00	3.0000e+00	1.5000e+00	3.0000e+00	

B = Detector Channel
B-1	B-2	B-3	B-4	B-5	B-6	B-7	B-8	B-9	B-10	B-11	B-12	B-13	B-14	B-15	B-16	

1.0000e+01	1.0000e+01	1.0000e+01	1.4400e+00	1.0000e+01	1.0000e+01	1.5100e+00	1.9400e+00	1.0000e+01	1.0000e+01	1.9900e+00	2.4900e+00	2.4100e+00	2.9000e+00	1.0000e+01	2.9800e+00	




#DATA BEGINS
time	group	step	mark	flag	A-AC1	A-AC2	A-AC3	A-AC4	A-AC5	A-AC6	A-AC7	A-AC8	A-AC9	A-AC10	A-AC11	A-AC12	A-AC13	A-AC14	A-AC15	A-AC16	A-DC1	A-DC2	A-DC3	A-DC4	A-DC5	A-DC6	A-DC7	A-DC8	A-DC9	A-DC10	A-DC11	A-DC12	A-DC13	A-DC14	A-DC15	A-DC16	A-Ph1	A-Ph2	A-Ph3	A-Ph4	A-Ph5	A-Ph6	A-Ph7	A-Ph8	A-Ph9	A-Ph10	A-Ph11	A-Ph12	A-Ph13	A-Ph14	A-Ph15	A-Ph16	B-AC1	B-AC2	B-AC3	B-AC4	B-AC5	B-AC6	B-AC7	B-AC8	B-AC9	B-AC10	B-AC11	B-AC12	B-AC13	B-AC14	B-AC15	B-AC16	B-DC1	B-DC2	B-DC3	B-DC4	B-DC5	B-DC6	B-DC7	B-DC8	B-DC9	B-DC10	B-DC11	B-DC12	B-DC13	B-DC14	B-DC15	B-DC16	B-Ph1	B-Ph2	B-Ph3	B-Ph4	B-Ph5	B-Ph6	B-Ph7	B-Ph8	B-Ph9	B-Ph10	B-Ph11	B-Ph12	B-Ph13	B-Ph14	B-Ph15	B-Ph16	aux-1	digaux	

356.911	1	1	0	768	0.16687	0.12186	0.1571	0.078029	0.18587	0.11016	0.17271	0.26002	0.21611	0.24775	0.4142	0.11226	0.20616	0.26926	0.020751	0.10679	-2.7062	-3.5438	-3.8312	-3.4375	-3.6708	-3.4292	-3.2	-3.6437	-3.3438	-3.4167	-4.0333	-3.4625	-3.8583	-3.6167	-3.1813	-3.7729	30.601	50.759	225.698	72.817	-111.804	154.853	142.552	139.414	205.765	-114.464	195.742	228.975	220.527	155.517	-78.982	-97.501	0.00032741	0.00032431	0.00011836	1361.4	3.9299e-06	3.5918e-06	1361.3	366.91	3.7521e-06	5.8574e-06	419.65	140.03	121.79	41.745	3.4411e-06	52.056	0.00052754	0.00055385	0.00015092	1374.7	5.9318e-06	5.9953e-06	1375.4	373.06	5.9748e-06	6.0872e-06	426.78	142.94	124.15	42.897	6.0572e-06	53.143	-80.240	-52.730	-27.539	-107.518	50.389	63.347	-107.715	-102.783	40.118	21.119	-103.508	-99.126	-98.555	-94.135	45.464	-94.801	-8191	255	
357.008	1	1	0	0	0.31279	0.10109	0.16394	0.17546	0.16084	0.13848	0.34316	0.26672	0.076193	0.061438	0.024025	0.18946	0.20632	0.015631	0.13898	0.2094	-3.0458	-3.2458	-3.825	-3.4021	-3.3833	-3.4938	-3.3875	-3.7375	-3.5604	-3.3292	-3.9167	-3.4062	-3.6646	-3.7167	-3.0896	-3.7917	51.573	117.716	-94.078	-22.096	64.184	-88.652	205.417	169.570	27.741	-7.538	-49.767	220.959	218.212	-65.715	94.183	49.341	0.00029734	0.00049856	0.00013279	1362.8	4.5378e-06	2.79e-06	1361.8	367.65	3.784e-06	7.0447e-06	419.91	140.23	121.06	41.893	4.0674e-06	52.284	0.00051936	0.00054708	0.0001525	1374.2	5.9732e-06	5.8995e-06	1375	373.47	5.9454e-06	6.0658e-06	426.58	142.89	124.05	42.903	5.9967e-06	53.136	-77.976	-14.165	-21.188	-107.563	34.017	35.091	-107.650	-102.813	37.691	33.507	-103.293	-99.216	-98.387	-94.306	41.905	-95.015	-8191	255	
357.104	1	1	0	0	0.10121	0.17822	0.06513	0.23802	0.3703	0.11504	0.34634	0.10114	0.37778	0.095559	0.042358	0.18486	0.23303	0.16511	0.12238	0.082172	-3.0208	-3.2313	-3.725	-3.4562	-3.5521	-3.7542	-3.3	-3.95	-3.5354	-3.2479	-3.8854	-3.4708	-3.4625	-3.6875	-3.1521	-3.6437	124.410	-7.794	-48.652	168.099	39.912	-34.592	200.557	194.017	-104.688	228.006	-120.160	174.850	218.314	226.822	176.355	159.204	0.00029767	0.00065444	9.4389e-05	1362.5	3.5203e-06	4.8646e-06	1363.3	367.62	2.4238e-06	3.2537e-06	420.28	140.16	121.32	41.713	9.0807e-07	52	0.00052751	0.00054551	0.00014958	1375.5	5.902e-06	5.9984e-06	1372.9	373.38	5.977e-06	5.988e-06	426.06	142.85	124.12	42.77	5.9606e-06	53.198	-78.098	1.467	-30.340	-107.700	39.723	46.038	-107.533	-103.181	30.566	42.182	-103.536	-99.063	-98.622	-94.189	-0.201	-94.633	-8191	255	
357.200	1	1	0	0	0.43109	0.04214	0.10052	0.38359	0.15107	0.080717	0.15878	0.26499	0.29127	0.090243	0.080392	0.0359	0.2267	0.16352	0.27126	0.22805	-3.1625	-3.3125	-3.7208	-3.3396	-3.2396	-3.6813	-3.5958	-3.7792	-3.5958	-3.2833	-3.6417	-3.2958	-3.2271	-3.7083	-3.1417	-3.5458	98.587	82.434	31.170	234.375	163.548	-88.668	233.194	210.045	66.091	156.019	-30.917	57.525	-109.760	180.125	32.573	229.511	0.00028516	0.00062659	7.7268e-05	1360.9	3.6776e-06	4.6318e-06	1364	367.69	4.0955e-06	8.194e-06	421.7	139.62	120.82	41.834	2.1918e-06	51.711	0.00052579	0.00054123	0.00014927	1374.6	5.8732e-06	5.9445e-06	1375	373.2	5.8738e-06	5.9459e-06	426.41	142.78	123.99	42.874	6.024e-06	53.06	-75.328	-54.202	-20.494	-107.721	19.280	11.696	-107.708	-103.053	33.021	25.418	-103.573	-99.103	-98.412	-94.233	71.282	-94.799	-8191	255	
357.296	1	1	0	0	0.22515	0.14502	0.20031	0.29912	0.21796	0.15587	0.15585	0.3145	0.18847	0.20616	0.17599	0.10686	0.11565	0.32936	0.063251	0.23895	-3.1833	-3.275	-3.6042	-3.5604	-3.1708	-3.5958	-3.4375	-3.5833	-3.6979	-3.0396	-3.7521	-3.5812	-3.3354	-3.9104	-3.4458	-3.5271	-48.060	-117.892	122.591	206.674	196.733	-53.832	185.877	115.441	202.176	193.288	-108.051	-76.685	-52.634	234.875	142.630	159.681	0.00031625	0.00052827	0.00017591	1361.7	1.9678e-06	3.6605e-06	1361.8	366.41	1.3853e-06	4.5533e-06	420.42	139.82	121.3	41.837	6.6159e-06	51.917	0.00052274	0.00054849	0.00015021	1375	5.9562e-06	5.871e-06	1374.6	372.48	6.0024e-06	6.012e-06	426.14	142.73	124	42.795	5.9199e-06	53.116	-76.552	-46.146	-19.014	-107.860	24.258	16.497	-107.634	-102.892	34.890	0.197	-103.308	-99.118	-98.326	-94.253	37.255	-94.896	-8191	255	
357.392	1	1	0	0	0.19814	0.16081	0.12659	0.10042	0.10839	0.2234	0.3618	0.22682	0.087937	0.2193	0.15012	0.43523	0.10662	0.25467	0.19327	0.24822	-3.2479	-3.0771	-3.5208	-3.7896	-3.1583	-3.6562	-3.4979	-3.5583	-3.7812	-3.1708	-3.4375	-3.6312	-3.2771	-3.6271	-3.5375	-3.3167	-116.069	153.282	-33.744	212.009	161.939	-72.635	121.430	189.604	86.121	-76.120	-63.645	-86.304	206.938	-66.042	119.930	28.748	0.00028872	0.00061855	0.00010848	1363.7	1.9512e-06	9.8574e-07	1363.5	367.14	4.8048e-06	5.0132e-06	420.44	139.68	121.12	42.091	4.8055e-06	52.047	0.00051215	0.00054781	0.00015126	1375.4	5.8984e-06	5.951e-06	1372.9	373.08	5.9466e-06	5.962e-06	425.78	142.67	124	42.892	5.9247e-06	53.127	-77.524	-40.100	-27.457	-107.796	52.609	40.096	-107.670	-102.911	23.984	-3.617	-103.506	-98.910	-98.487	-93.968	46.553	-94.882	-8191	255	
357.511	1	1	0	0	0.2439	0.16362	0.14511	0.14725	0.16143	0.16944	0.25878	0.27392	0.14258	0.046388	0.20285	0.17331	0.24628	0.28222	0.38732	0.16733	-3.3271	-3.0687	-3.4458	-3.7188	-3.2896	-3.8771	-3.5104	-3.4583	-3.6896	-3.4521	-3.6625	-3.6958	-3.3417	-3.7542	-3.4313	-3.2396	216.116	212.151	77.994	221.765	197.399	199.386	219.898	93.911	3.384	34.230	74.822	100.918	228.086	223.066	-67.711	139.133	0.00030185	0.00035671	0.00011389	1362.4	3.6975e-06	3.7067e-06	1359.8	367.92	4.6931e-06	7.4367e-06	421.39	140.24	121.61	41.802	5.5313e-06	52.065	0.0005243	0.00054364	0.0001488	1374.1	6.0624e-06	5.9693e-06	1373.9	372.96	5.8828e-06	5.9207e-06	426.62	142.99	124.02	42.811	5.9476e-06	53.152	-82.020	-34.559	-10.842	-107.570	47.270	28.757	-107.598	-102.953	2.299	10.866	-103.288	-99.207	-98.434	-94.139	60.119	-94.502	-8191	255	
357.607	1	1	0	0	0.096711	0.11572	0.16054	0.26428	0.24492	0.25022	0.080739	0.27058	0.18722	0.23532	0.23138	0.26295	0.18602	0.25458	0.16244	0.23745	-3.2938	-3.3146	-3.45	-3.6979	-3.1167	-3.6542	-3.4875	-3.1188	-3.6208	-3.3167	-3.3521	-3.6479	-3.1396	-3.6854	-3.55	-3.2062	103.441	17.232	234.822	218.927	-45.140	-22.584	196.827	172.816	154.178	-84.677	237.424	197.772	194.000	198.435	44.329	230.673	0.00032226	0.00014796	0.00011021	1360.8	1.9646e-06	5.4352e-06	1358.9	367.36	2.3285e-06	6.9188e-06	420.6	139.51	121.1	41.874	2.8336e-06	51.862	0.00051355	0.00053879	0.00015025	1374.2	5.977e-06	5.9072e-06	1373.2	373.21	5.8282e-06	5.9321e-06	426.53	142.7	123.78	42.9	5.8925e-06	53.116	-80.932	-52.029	-29.544	-107.738	64.069	8.383	-107.546	-102.857	64.334	62.563	-103.519	-98.874	-98.512	-94.295	55.317	-95.137	-8191	255	
357.703	1	1	0	0	0.31848	0.27307	0.15113	0.37737	0.38041	0.12094	0.053298	0.17791	0.10677	0.12716	0.14541	0.26838	0.14824	0.29311	0.060963	0.13296	-3.3	-3.2375	-3.4229	-3.6771	-3.2292	-3.4229	-3.8458	-3.225	-3.6542	-3.3312	-3.3958	-3.7167	-3.3333	-3.6833	-3.55	-3.2667	190.525	72.299	130.848	216.468	218.188	-43.852	204.493	161.943	-15.502	192.562	215.817	91.030	-4.372	-115.249	-115.558	-2.831	0.000301	0.00070794	0.0001549	1360.7	6.214e-06	4.2569e-06	1363.6	366.87	4.2243e-06	9.0239e-06	419.77	139.38	121.25	41.934	6.0068e-06	52.08	0.00051359	0.00054204	0.00015219	1372.9	5.9574e-06	5.8693e-06	1372.2	373.39	5.8691e-06	5.9472e-06	426.51	142.76	123.76	42.832	5.8921e-06	53.1	-68.061	-36.453	-21.034	-107.616	37.732	52.973	-107.797	-102.975	14.246	20.187	-103.759	-99.013	-98.476	-94.232	78.908	-94.875	-8191	255	
357.799	1	1	0	0	0.16712	0.18784	0.12496	0.26131	0.22796	0.3261	0.20628	0.079909	0.10281	0.24837	0.16161	0.20522	0.15253	0.35208	0.062	0.20237	-3.0479	-3.5125	-3.2583	-3.7875	-3.2521	-3.7271	-3.7958	-3.2854	-3.6292	-3.5542	-3.3625	-3.6708	-3.3167	-3.5458	-3.5542	-3.1813	90.341	86.262	-31.360	174.703	-3.471	-107.599	233.072	52.199	-69.686	-82.286	218.690	205.797	223.289	169.688	85.646	217.212	0.00034369	0.00034185	0.00017665	1362.1	2.8663e-06	4.4781e-06	1356.6	367.43	2.3115e-06	3.8207e-06	420.84	139.22	121.22	41.8	3.9768e-06	51.596	0.00052089	0.00052509	0.00015237	1373.8	6.0006e-06	5.886e-06	1372.1	372.78	5.8869e-06	5.9063e-06	425.95	142.63	123.87	42.824	5.9136e-06	53.021	-74.589	-26.992	-40.741	-107.777	20.278	5.035	-107.759	-103.026	37.226	1.854	-103.550	-98.949	-98.596	-94.241	10.095	-94.768	-8191	255	
357.896	1	1	0	0	0.097601	0.055582	0.23167	0.19323	0.060393	0.060909	0.11693	0.22488	0.21309	0.2062	0.075478	0.25331	0.12738	0.1417	0.14107	0.17582	-3.2583	-3.2479	-3.225	-3.9375	-3.5062	-3.3521	-3.6917	-3.2562	-3.5292	-3.6146	-3.2125	-3.5979	-3.2708	-3.2625	-3.9708	-3.3312	134.588	152.631	108.343	219.462	-47.991	214.783	127.145	-38.201	-69.330	103.457	159.581	193.743	226.572	189.986	44.714	180.357	0.00029185	0.00041226	0.00017555	1361.2	2.8634e-06	6.7354e-06	1355.7	367.99	4.0379e-06	6.6041e-06	421.34	139.51	121.03	41.739	4.3093e-06	51.959	0.00051386	0.00054025	0.00015064	1373.7	5.8322e-06	5.9739e-06	1372.7	372.89	5.8889e-06	5.915e-06	426.14	142.61	123.98	42.728	5.9341e-06	53.165	-74.627	-57.127	-25.510	-107.588	11.655	26.770	-107.615	-102.953	43.631	43.351	-103.479	-98.988	-98.518	-94.181	64.473	-94.744	-8191	255	
357.992	1	1	0	0	0.1202	0.12617	0.23858	0.02815	0.25044	0.14079	0.25377	0.15764	0.044033	0.21439	0.17587	0.23274	0.056584	0.088955	0.24005	0.38525	-2.9708	-3.5	-3.1875	-3.7125	-3.3354	-3.4188	-3.8167	-3.2062	-3.3688	-3.7833	-3.3146	-3.9688	-3.2313	-3.2812	-3.7292	-3.2458	-23.330	76.882	117.450	212.517	184.362	59.506	217.800	93.912	154.164	-105.059	213.721	146.433	-118.515	228.490	168.343	136.787	0.00031915	0.00034383	0.00012456	1358.1	4.7426e-06	5.638e-06	1363.4	367.97	4.1144e-06	8.5323e-06	419.35	139.39	121.12	41.746	2.4378e-06	51.912	0.00052623	0.00053917	0.0001497	1372.4	5.9494e-06	6.0107e-06	1373.2	373.56	5.8633e-06	5.7895e-06	425.66	142.62	123.83	42.757	5.6824e-06	53.118	-78.693	-38.383	-10.601	-107.715	27.641	-2.154	-107.593	-102.966	34.895	11.402	-103.535	-99.153	-98.400	-94.167	88.224	-94.549	-8191	255	
358.088	1	1	0	0	0.28465	0.3283	0.0088817	0.065653	0.065996	0.068771	0.24469	0.19403	0.11928	0.2183	0.22336	0.1567	0.24377	0.3084	0.063517	0.15138	-3.0625	-3.5062	-3.2188	-3.9375	-3.4729	-3.2417	-3.9	-3.3833	-3.5667	-3.6083	-3.3292	-3.825	-3.5833	-3.2229	-3.7208	-3.4437	176.542	-75.816	-87.042	146.272	102.836	16.032	71.921	206.993	-95.634	-13.540	192.025	219.033	148.746	-101.055	235.137	185.402	0.00028851	0.00057668	0.00011362	1358.5	3.8026e-06	4.8444e-06	1362.3	367.82	5.9059e-06	5.7103e-06	418.96	139.39	120.46	41.795	2.6037e-06	52.131	0.00052663	0.00054943	0.00015174	1372.8	5.9206e-06	5.9895e-06	1371.9	372.65	5.9078e-06	5.875e-06	425.62	142.66	123.49	42.765	5.8792e-06	53.117	-85.538	-60.040	-4.874	-107.489	35.964	17.574	-107.674	-102.904	20.352	-15.369	-103.434	-98.885	-98.359	-94.214	27.358	-94.785	-8191	255	
358.209	1	1	0	0	0.23396	0.2149	0.16489	0.32429	0.04709	0.047742	0.086487	0.16204	0.031808	0.11816	0.2273	0.073001	0.13815	0.11203	0.11251	0.14165	-3.1979	-3.6104	-3.4104	-3.5792	-3.45	-3.0646	-3.7854	-3.4021	-3.3854	-3.5917	-3.2292	-3.5896	-3.6688	-3.2146	-3.7417	-3.4458	-41.511	-115.280	194.608	216.411	215.654	-91.557	92.758	184.170	54.446	169.413	168.042	134.282	220.765	100.814	185.910	225.545	0.00033481	0.0007264	0.00015114	1357.2	3.4886e-06	1.8237e-06	1354.4	368.1	1.8976e-06	5.9515e-06	420.04	140	120.89	41.829	2.7547e-06	52.044	0.00052001	0.00053319	0.00015013	1371.2	5.888e-06	5.992e-06	1371.1	372.73	5.9306e-06	5.8356e-06	425.59	142.75	123.85	42.761	5.9146e-06	53.143	-77.619	-21.552	-34.179	-107.662	37.497	7.014	-107.508	-102.984	54.184	48.931	-103.450	-98.961	-98.584	-94.166	43.556	-94.715	-8191	255	
358.305	1	1	0	0	0.20621	0.14987	0.15057	0.057896	0.12049	0.19027	0.32105	0.28503	0.14176	0.16526	0.16023	0.071544	0.061983	0.093801	0.074359	0.26247	-2.8208	-3.6333	-3.2292	-3.65	-3.5958	-3.4938	-3.8812	-3.3917	-3.1792	-3.7625	-3.3438	-3.6354	-3.6396	-3.3125	-3.4562	-3.5354	71.887	181.288	183.919	149.423	217.645	205.776	172.229	79.607	-44.498	-88.400	186.860	-94.612	-51.900	163.983	209.662	-93.965	0.00029377	0.00041018	0.00012538	1359	2.1549e-06	5.0853e-06	1355.6	367.18	2.6863e-06	5.5185e-06	419.19	139.47	120.7	41.84	2.8744e-06	51.828	0.00051684	0.00054191	0.00014992	1373	5.907e-06	5.9499e-06	1371.8	372.71	5.9308e-06	5.9928e-06	425.95	142.72	123.77	42.76	5.9106e-06	53.081	-77.744	-43.901	-7.838	-107.470	-0.185	36.657	-107.535	-102.958	-0.667	49.483	-103.756	-99.019	-98.615	-94.131	71.551	-94.493	-8191	255	
358.399	1	1	0	0	0.1001	0.10773	0.23712	0.24331	0.17861	0.16368	0.11266	0.18216	0.10632	0.048064	0.1513	0.10716	0.080515	0.12572	0.26352	0.14399	-2.8792	-3.575	-3.0062	-3.5187	-3.5042	-3.1271	-3.7938	-3.5417	-3.0833	-3.5521	-3.2687	-3.4417	-3.7167	-3.3563	-3.5729	-3.6688	-50.679	198.939	166.322	184.712	173.116	109.417	-92.019	169.443	92.671	130.134	130.481	59.237	-94.417	-90.215	119.390	-62.753	0.0003075	0.00034542	0.00014664	1354.6	2.1631e-06	4.8066e-06	1354.3	367.65	3.8854e-06	9.1029e-06	419.35	139.01	121.11	41.63	8.0479e-06	51.948	0.00051185	0.00053896	0.00014746	1372.6	5.9176e-06	5.9988e-06	1370.4	372.96	5.9443e-06	5.9086e-06	426.38	142.65	123.95	42.786	5.9181e-06	53.115	-79.922	-33.555	-57.494	-107.611	83.031	40.440	-107.593	-102.943	7.094	28.332	-103.354	-99.051	-98.363	-94.120	42.585	-94.789	-8191	255	
358.473	1	1	0	0	0.26742	0.2069	0.2469	0.24435	0.13304	0.28358	0.077046	0.35933	0.12164	0.097661	0.058518	0.057456	0.27996	0.16463	0.02219	0.11376	-2.9646	-3.725	-3.4729	-3.5854	-3.8563	-3.3042	-3.6813	-3.7271	-3.075	-3.6562	-3.5563	-3.3521	-3.7729	-3.3667	-3.4354	-3.7396	-12.938	133.062	157.510	188.653	172.101	146.034	144.303	215.454	-84.383	-61.928	-41.191	-4.685	-104.561	-68.946	-14.324	15.787	0.00029671	0.00041649	0.00010541	1356.6	5.1682e-06	4.7259e-06	1357.9	367.69	3.4941e-06	7.0112e-06	419.82	139.67	120.65	41.734	3.674e-06	51.939	0.00052874	0.00054417	0.00015089	1370.6	5.8374e-06	5.9645e-06	1371.3	372.88	5.9974e-06	5.9128e-06	425.69	142.66	123.65	42.76	5.8964e-06	53.181	-69.286	-6.589	-27.113	-107.671	24.595	24.922	-107.551	-102.987	64.838	37.906	-103.677	-98.938	-98.358	-93.997	9.946	-94.780	-8191	255	
358.591	1	1	0	0	0.093587	0.024731	0.12654	0.2821	0.1567	0.079351	0.36329	0.083665	0.11569	0.12027	0.047957	0.11322	0.094658	0.15292	0.17105	0.15112	-2.8896	-3.6979	-3.5167	-3.3833	-3.8125	-3.3292	-3.5083	-3.7438	-3.3125	-3.725	-3.5979	-3.4167	-3.6979	-3.2729	-3.2792	-3.5833	-117.038	-119.760	80.639	155.048	134.631	-106.582	162.529	160.936	159.244	-94.409	-55.736	219.052	142.653	215.242	-111.640	35.742	0.0002813	0.00020328	0.00010137	1361	5.1217e-06	3.9734e-06	1357.9	365.95	1.8058e-06	4.2314e-06	419.44	139.46	121.43	41.828	3.2497e-06	51.944	0.00052076	0.00053464	0.00014967	1372.8	5.9484e-06	5.9616e-06	1372.9	372.96	5.9258e-06	5.948e-06	425.37	142.61	123.93	42.74	5.8917e-06	53.057	-76.224	-22.755	-55.884	-107.613	36.128	34.407	-107.633	-102.910	-40.145	7.983	-103.800	-98.974	-98.383	-94.313	7.727	-94.980	-8191	255	
358.688	1	1	0	0	0.089071	0.15013	0.19757	0.16675	0.16105	0.033023	0.17078	0.07873	0.119	0.24503	0.093836	0.17124	0.19175	0.087263	0.24042	0.22302	-2.8229	-3.4771	-3.3458	-3.3812	-3.6937	-3.5104	-3.5958	-3.9146	-3.1979	-3.4458	-3.5812	-3.1333	-3.6792	-3.4813	-3.4938	-3.7375	42.651	227.471	41.479	194.461	234.867	73.588	180.465	227.718	-10.271	-37.485	-67.847	121.741	163.979	-2.707	196.073	192.130	0.00031325	0.00066595	0.0001016	1360.3	1.9091e-06	6.0148e-06	1361.9	368	3.032e-06	8.0361e-06	421.73	139.46	121.02	41.735	6.1892e-06	51.742	0.00052108	0.00053475	0.00014991	1371.7	5.8458e-06	5.9199e-06	1373.3	372.71	5.9466e-06	5.9221e-06	426.25	142.57	123.62	42.762	5.9468e-06	53.024	-78.965	-39.511	-54.718	-107.629	3.052	31.864	-107.550	-102.767	10.266	9.131	-103.733	-98.937	-98.296	-94.215	47.805	-94.801	-8191	255	
358.784	1	1	0	0	0.19224	0.17628	0.10341	0.34294	0.037186	0.089439	0.085876	0.27959	0.12172	0.088462	0.33318	0.20263	0.20463	0.10544	0.15235	0.13676	-2.7125	-3.3312	-3.4792	-3.375	-3.5917	-3.4708	-3.3812	-3.6708	-3.3458	-3.45	-3.8396	-3.4729	-3.8083	-3.525	-3.2333	-3.8021	-32.483	-54.096	-28.428	235.318	25.459	34.430	231.425	182.275	211.901	164.657	-119.945	209.848	148.965	-56.810	-108.782	122.611	0.00037079	0.00056594	8.6871e-05	1354.4	3.2092e-06	3.9359e-06	1357.8	367.01	2.6794e-06	6.3356e-06	419.37	139.02	120.95	41.747	5.5726e-06	51.869	0.00051839	0.00053875	0.00014866	1369.8	5.8424e-06	5.8733e-06	1371.9	372.34	5.9647e-06	5.8604e-06	425.53	142.46	123.5	42.753	5.9691e-06	53.111	-74.728	-49.923	-24.384	-107.409	50.877	-13.981	-107.478	-102.745	16.447	-10.859	-103.511	-98.751	-98.592	-94.330	56.538	-94.507	-8191	255	
358.880	1	1	0	0	0.024191	0.14609	0.023042	0.22226	0.2415	0.10708	0.11707	0.36169	0.066946	0.30009	0.05878	0.078954	0.39851	0.25839	0.11458	0.12673	-2.9375	-3.3688	-3.525	-3.4417	-3.55	-3.4167	-3.2542	-3.7667	-3.2125	-3.1646	-3.8563	-3.3438	-3.75	-3.5875	-3.1083	-3.8458	219.338	115.708	-61.452	179.088	4.425	102.464	33.031	-30.253	154.233	-57.300	230.001	171.641	218.369	135.035	15.228	-78.798	0.00028933	0.00032249	0.00013936	1356.6	2.5754e-06	4.1527e-06	1359.9	366.1	4.1403e-06	7.8549e-06	420.45	139.51	120.6	41.732	7.153e-06	51.9	0.0005169	0.00054728	0.00014881	1372.1	5.883e-06	5.9751e-06	1371.2	372.13	5.995e-06	6.0435e-06	426.07	142.61	123.76	42.794	6.0003e-06	53.048	-80.412	-54.599	-21.052	-107.665	47.665	48.548	-107.590	-102.937	48.563	27.396	-103.511	-98.801	-98.438	-94.210	36.067	-94.712	-8191	255	
359.001	1	1	0	0	0.12762	0.069529	0.18866	0.15105	0.24748	0.17365	0.14073	0.21423	0.10458	0.19988	0.28241	0.18311	0.074142	0.2187	0.29919	0.24065	-3.025	-3.2583	-3.5604	-3.4583	-3.5125	-3.4813	-3.4271	-3.7729	-3.2729	-3.2729	-3.8146	-3.275	-3.4396	-3.6333	-3.275	-3.8208	118.538	20.338	113.756	163.925	35.453	61.487	224.753	204.435	14.875	-30.203	-80.619	132.737	144.262	-9.928	13.704	182.783	0.00030721	0.0004432	0.00016346	1359.8	3.2393e-06	5.9893e-06	1358.6	367.06	2.6717e-06	6.4913e-06	418.77	139.6	120.78	41.743	3.6486e-06	51.95	0.00052588	0.00054219	0.00015266	1372.6	5.9294e-06	5.9151e-06	1373.3	372.67	6.0014e-06	5.9811e-06	424.89	142.66	123.65	42.727	5.9505e-06	53.124	-76.764	-54.662	-38.338	-107.755	19.583	50.534	-107.365	-102.940	15.300	32.042	-103.434	-98.988	-98.338	-93.949	57.592	-94.660	-8191	255	
359.072	1	1	0	0	0.25283	0.31276	0.045282	0.22205	0.17357	0.18233	0.10417	0.12564	0.25651	0.12901	0.12701	0.12077	0.12311	0.12319	0.053275	0.16094	-2.9688	-3.1188	-3.6542	-3.3438	-3.4375	-3.7604	-3.4083	-3.6875	-3.4396	-3.2854	-3.9271	-3.2708	-3.3563	-3.8271	-3.2229	-3.4583	-84.227	151.422	59.610	182.823	-2.859	-107.062	202.157	140.951	218.112	-97.883	-96.628	145.846	171.335	208.986	-1.501	209.453	0.00032628	0.00054123	0.00010759	1357.2	2.7415e-06	3.9766e-06	1357.5	368.77	4.3671e-06	3.4167e-06	419.57	139.38	120.87	41.603	3.9946e-06	51.741	0.00052118	0.00055264	0.00014961	1371.6	6.0422e-06	5.9029e-06	1371	373.09	5.9129e-06	5.9993e-06	425.65	142.42	123.88	42.732	5.9944e-06	53.007	-77.141	-6.537	-22.427	-107.604	36.837	31.167	-107.704	-102.991	22.017	-0.955	-103.500	-99.113	-98.547	-94.269	54.957	-94.581	-8191	255	
359.193	1	1	0	0	0.21783	0.036662	0.26646	0.13256	0.11594	0.18274	0.067225	0.1888	0.23322	0.14068	0.19252	0.094806	0.16404	0.10465	0.08589	0.10535	-2.9958	-3.2667	-3.8083	-3.35	-3.3708	-3.675	-3.3354	-3.5938	-3.2687	-3.1896	-3.7687	-3.4271	-3.4583	-3.6583	-3.025	-3.6	53.214	62.593	-102.446	82.908	174.535	162.183	-108.114	-86.966	-70.306	-60.826	19.504	228.548	129.603	-14.471	47.236	-89.092	0.00033126	0.00052955	8.6067e-05	1356	4.7e-06	4.767e-06	1356.6	366.61	4.3765e-06	5.0768e-06	420.54	139.72	121.37	41.914	4.2492e-06	51.817	0.00051691	0.00055377	0.00014985	1370.9	5.992e-06	5.9387e-06	1372.8	372.88	5.9441e-06	5.9949e-06	425.57	142.64	123.88	42.8	5.9482e-06	53.11	-79.070	-42.119	-47.989	-107.618	36.759	-2.756	-107.712	-102.980	-16.452	13.771	-103.540	-98.958	-98.243	-94.212	48.858	-94.663	-8191	255	
359.289	1	1	0	0	0.14901	0.2162	0.27097	0.15096	0.0062869	0.11717	0.26168	0.14854	0.045393	0.047724	0.25091	0.055873	0.022469	0.17626	0.035791	0.12495	-3.2479	-3.1875	-3.4646	-3.5208	-3.4062	-3.7625	-3.2438	-3.3937	-3.6125	-3.2604	-3.8708	-3.3625	-3.3	-3.5438	-3.2167	-3.6521	94.914	-86.094	-12.643	131.104	26.166	12.622	169.535	140.479	67.396	32.535	213.774	81.589	203.575	196.804	179.127	121.144	0.0003378	0.00065666	6.4898e-05	1357.9	2.1233e-06	4.6031e-06	1356.6	366.84	5.4454e-06	6.0383e-06	418.92	139.77	121.1	41.769	4.332e-06	51.779	0.00052421	0.00053626	0.0001516	1372.2	5.9276e-06	5.9149e-06	1372.1	372.7	5.904e-06	6.0497e-06	425.22	142.48	123.76	42.806	5.8245e-06	53.089	-79.318	-43.537	-26.780	-107.490	63.813	-1.419	-107.691	-102.763	34.784	40.397	-103.382	-98.867	-98.600	-94.123	49.273	-94.691	-8191	255	
359.385	1	1	0	0	0.35476	0.10015	0.091203	0.08827	0.3105	0.23373	0.27667	0.38174	0.39453	0.037015	0.15574	0.35985	0.11931	0.096698	0.070297	0.12201	-3.1854	-3.1479	-3.6667	-3.6188	-3.2083	-3.6896	-3.3271	-3.4521	-3.7729	-3.1042	-3.575	-3.4146	-3.0687	-3.5625	-3.2083	-3.4646	80.352	-112.413	124.722	174.087	122.554	140.403	203.544	212.956	-57.355	-108.204	118.524	181.872	-86.854	-14.229	91.732	175.889	0.00032084	0.00058031	0.00019422	1359.3	3.3027e-06	5.7873e-06	1355.4	367.94	2.9731e-06	6.2631e-06	418.16	138.79	121.69	41.761	4.8118e-06	51.883	0.00051814	0.00054032	0.00014472	1371.8	5.9442e-06	6.0155e-06	1370.3	372.51	5.9805e-06	5.8819e-06	425.13	142.42	123.97	42.747	5.9357e-06	53.076	-77.575	-28.876	-16.511	-107.634	32.435	51.308	-107.639	-102.739	22.311	37.935	-103.552	-98.996	-98.380	-93.854	33.951	-94.743	-8191	255	
359.481	1	1	0	0	0.028651	0.18906	0.1219	0.21857	0.16165	0.16428	0.23554	0.16638	0.21296	0.07221	0.032595	0.071252	0.26696	0.1252	0.094098	0.23891	-3.3312	-3.2208	-3.4854	-3.5104	-3.0917	-3.6396	-3.6813	-3.3542	-3.5896	-3.2313	-3.5542	-3.7542	-3.2104	-3.6437	-3.5583	-3.4229	20.174	192.243	59.452	162.278	217.416	148.788	129.192	118.856	-113.157	-119.906	174.653	194.435	210.155	165.342	-11.444	140.317	0.00030996	0.00059586	0.0001097	1358.3	4.087e-06	4.4289e-06	1357.1	365.93	3.0078e-06	4.1595e-06	419.38	140.08	121.39	41.545	2.0442e-06	51.74	0.00052415	0.00053553	0.00015185	1372.8	5.949e-06	5.8845e-06	1371.4	372.19	6.0432e-06	5.903e-06	425.87	143.06	123.94	42.741	5.9075e-06	53.08	-78.028	-42.623	-9.951	-107.698	22.214	11.985	-107.546	-102.934	60.014	48.099	-103.281	-98.927	-98.430	-94.110	36.894	-94.537	-8191	255	
359.600	1	1	0	0	0.087457	0.095304	0.16834	0.18039	0.1507	0.11927	0.21059	0.08516	0.29213	0.2862	0.036499	0.1416	0.16895	0.17455	0.10836	0.20867	-3.3271	-3.0687	-3.575	-3.7562	-3.1937	-3.7313	-3.5354	-3.1813	-3.5354	-3.1396	-3.3083	-3.3771	-3.2271	-3.5625	-3.4917	-3.4188	178.712	-118.473	-50.381	166.298	205.511	203.196	192.266	152.905	-34.758	-46.528	200.046	200.365	73.550	174.643	50.295	221.961	0.00029311	0.00060582	0.00013121	1359.7	4.3512e-06	6.2939e-06	1357.8	367.55	3.1739e-06	4.3926e-06	419.18	139.24	121	41.72	4.6893e-06	51.902	0.00050406	0.00054451	0.00015047	1371.6	6.0012e-06	5.8341e-06	1372.4	372.58	5.7749e-06	5.8919e-06	426.31	142.58	123.84	42.748	6.0161e-06	53.168	-73.764	-38.398	-29.098	-107.697	20.679	16.077	-107.510	-102.856	47.403	53.684	-103.534	-99.020	-98.245	-94.188	45.353	-94.370	-8191	255	
359.696	1	1	0	0	0.105	0.081757	0.14072	0.14541	0.077202	0.029509	0.09559	0.26163	0.31217	0.11433	0.065307	0.22028	0.10276	0.25646	0.040259	0.35883	-3.3646	-3.2375	-3.2729	-3.8417	-3.3667	-3.5625	-3.6896	-2.9188	-3.5792	-3.4479	-3.4646	-3.9396	-3.0604	-3.3375	-3.5771	-3.3583	-57.631	-11.029	-81.955	172.846	13.335	54.977	116.167	-112.044	-79.235	-77.848	141.345	-24.209	138.475	123.335	205.893	111.204	0.00029345	0.00063544	0.00010848	1357.3	5.7558e-06	6.0302e-06	1361.5	366.78	3.0322e-06	4.8078e-06	419.29	139.81	121.14	41.81	2.7622e-06	51.765	0.00050681	0.00053753	0.00015128	1372.6	5.8954e-06	5.8081e-06	1372.4	372.72	5.9885e-06	5.8806e-06	425.84	142.78	123.87	42.805	5.9116e-06	53.064	-69.020	-27.831	-44.149	-107.569	39.357	4.807	-107.542	-102.920	25.869	36.633	-103.707	-99.096	-98.387	-94.128	45.387	-94.606	-8191	255	
359.792	1	1	0	0	0.10583	0.16497	0.033206	0.23788	0.11931	0.12171	0.39951	0.14929	0.19454	0.18209	0.34568	0.082638	0.096505	0.14242	0.14387	0.23007	-3.3375	-3.25	-3.1208	-3.7938	-3.2	-3.4542	-3.5979	-3.1604	-3.7854	-3.3479	-3.2229	-3.7438	-3.2917	-3.6417	-3.8208	-3.1917	97.811	221.342	139.168	219.701	-4.124	70.516	206.614	-96.100	119.224	97.326	-94.925	174.695	-82.370	182.154	200.151	-63.854	0.00030069	0.00038277	5.9287e-05	1357.9	1.9868e-06	2.195e-06	1356.5	366.62	3.6541e-06	6.3495e-06	418.75	138.95	121.13	41.684	3.8269e-06	51.756	0.00051227	0.00055193	0.00014869	1372.4	5.845e-06	5.8383e-06	1372.2	372.95	5.8788e-06	5.8312e-06	426.01	142.49	123.73	42.758	5.9126e-06	53.105	-76.650	-27.875	-14.192	-107.723	-4.496	26.721	-107.455	-102.962	24.683	25.637	-103.256	-99.130	-98.351	-94.015	17.457	-94.855	-8191	255	
359.889	1	1	0	0	0.036522	0.21547	0.06701	0.056692	0.14885	0.10882	0.13996	0.13071	0.23324	0.07885	0.099581	0.31459	0.31997	0.16165	0.28058	0.34541	-3.2354	-3.3292	-3.1542	-3.8688	-3.15	-3.3583	-3.9979	-3.4333	-3.6562	-3.325	-3.1354	-3.7333	-3.4375	-3.4292	-3.6	-3.3042	-64.952	236.777	231.703	-49.259	-118.820	178.129	137.914	156.363	180.583	237.835	150.845	210.019	132.355	-110.409	-78.259	183.678	0.00026939	0.00028584	9.1062e-05	1358.8	3.4344e-06	4.4236e-06	1360.7	367.78	2.6179e-06	3.5933e-06	419.32	138.91	120.91	41.909	5.4854e-06	51.881	0.00051356	0.00053753	0.00014771	1372.3	5.8298e-06	5.8779e-06	1372.5	373.26	5.8048e-06	5.9692e-06	425.46	142.43	123.62	42.848	5.9126e-06	53.153	-75.756	-42.607	-26.546	-107.698	23.747	50.442	-107.578	-103.039	18.072	41.822	-103.643	-99.064	-98.226	-94.196	29.885	-94.382	-8191	255	
359.985	1	1	0	0	0.23994	0.15743	0.038884	0.22686	0.24118	0.11472	0.24008	0.11782	0.20482	0.07313	0.030598	0.29582	0.16371	0.044305	0.34915	0.070359	-3.1208	-3.4479	-3.1104	-3.8521	-3.3896	-3.3812	-3.6958	-3.1125	-3.3479	-3.4958	-3.3125	-3.8083	-3.3583	-3.3792	-3.4875	-3.2375	45.997	167.536	233.918	231.189	126.543	38.925	169.135	38.302	33.835	62.232	149.303	232.880	-115.779	90.894	92.636	-69.076	0.00028384	0.00040576	0.00011392	1359.6	4.4961e-06	2.4092e-06	1356.7	367.76	3.931e-06	5.4558e-06	419.69	139.1	121.15	41.722	5.6552e-06	51.875	0.00051516	0.00054447	0.00015154	1372.7	5.8044e-06	5.9899e-06	1371.8	372.95	5.8772e-06	5.8625e-06	425.91	142.53	123.81	42.772	5.8678e-06	53.057	-77.040	-26.268	-18.071	-107.519	36.204	42.881	-107.611	-102.591	47.012	29.149	-103.393	-98.849	-98.384	-94.044	48.777	-94.922	-8191	255	
360.081	1	1	0	0	0.20086	0.13761	0.24458	0.24659	0.11916	0.15928	0.2232	0.16799	0.14077	0.14904	0.082422	0.24914	0.16529	0.27324	0.055229	0.17808	-3.1813	-3.5042	-3.2125	-3.7562	-3.4708	-3.3438	-3.8396	-3.4771	-3.4188	-3.5062	-3.3375	-3.6708	-3.6125	-3.2729	-3.6417	-3.3229	89.788	-72.874	-57.954	83.297	-87.025	190.217	120.676	205.696	17.516	-55.900	30.916	-113.421	163.523	221.149	214.831	183.374	0.00033832	0.00056997	8.1455e-05	1355.4	4.9847e-06	4.3642e-06	1356.2	364.9	4.181e-06	5.9512e-06	420.17	139.34	120.43	41.796	2.774e-06	51.989	0.00052415	0.00053583	0.00015215	1370.8	5.8998e-06	5.9172e-06	1371.2	371.98	5.8455e-06	5.8629e-06	426.56	142.64	123.6	42.795	5.9262e-06	53.096	-77.886	-13.712	-46.731	-107.615	50.601	21.826	-107.885	-103.104	34.148	29.496	-103.502	-98.977	-98.620	-94.247	38.628	-94.770	-8191	255	
360.177	1	1	0	0	0.095057	0.2038	0.13249	0.23086	0.32866	0.22439	0.12425	0.097721	0.040051	0.1331	0.3448	0.18317	0.20939	0.25843	0.31106	0.1176	-3.1979	-3.5917	-2.9042	-3.7417	-3.4813	-3.1437	-3.6667	-3.5667	-3.4583	-4.0771	-3.3771	-3.7125	-3.625	-3.1542	-3.5854	-3.5687	9.667	-98.664	17.774	216.441	-76.377	-120.764	119.302	205.129	84.564	166.470	-89.685	234.927	-98.406	118.280	185.417	116.918	0.00032278	0.00051453	0.00015527	1360.2	4.2973e-06	3.1047e-06	1357.3	366.3	2.2138e-06	6.613e-06	421.14	139.87	121.17	41.728	2.9454e-06	51.851	0.00051765	0.0005427	0.00015354	1373.4	5.968e-06	5.9485e-06	1370.9	372.28	5.9778e-06	5.9103e-06	425.99	142.76	123.71	42.76	5.884e-06	53.105	-71.754	-22.521	-21.205	-107.737	36.438	33.053	-107.528	-102.978	-26.033	25.137	-103.700	-98.830	-98.294	-94.044	39.115	-94.803	-8191	255	
360.298	1	1	0	0	0.23601	0.24777	0.16555	0.32945	0.033956	0.20722	0.29223	0.15706	0.23772	0.18472	0.2263	0.13369	0.051484	0.098863	0.18866	0.13683	-3.0687	-3.55	-3.1625	-3.6083	-3.7229	-3.2792	-3.825	-3.3792	-3.2687	-3.5521	-3.1625	-3.6604	-3.9188	-3.2208	-3.4958	-3.6	178.627	143.602	77.418	199.957	45.961	-45.351	159.631	-115.538	81.068	32.346	-96.512	214.225	-61.726	238.861	0.212	-60.360	0.00028747	0.00057454	0.00013076	1356.4	2.423e-06	3.5711e-06	1356.6	367.47	3.2243e-06	5.705e-06	416.95	139.69	120.85	41.82	4.1196e-06	52.122	0.00052073	0.00054328	0.00015276	1370.8	5.9292e-06	5.9774e-06	1371.1	372.73	5.901e-06	5.7779e-06	425.2	142.7	123.81	42.786	5.8036e-06	53.088	-79.656	-13.214	-36.802	-107.526	56.829	11.361	-107.573	-102.859	59.205	23.888	-103.496	-98.681	-98.422	-93.993	9.536	-94.837	-8191	255	
360.369	1	1	0	0	0.30794	0.21797	0.14196	0.20507	0.047059	0.26868	0.16705	0.19357	0.14563	0.17401	0.049193	0.2891	0.2181	0.093681	0.1291	0.082824	-2.7292	-3.5479	-3.2188	-3.6667	-3.5312	-3.0438	-3.6229	-3.5833	-3.4375	-3.7646	-3.4313	-3.3917	-3.575	-3.3646	-3.6437	-3.8187	-50.647	-28.781	-63.918	167.420	206.585	0.278	151.941	196.935	-74.770	127.772	70.173	-103.609	143.903	-115.508	217.230	-28.625	0.00027228	0.00041479	0.00013934	1359.7	4.1366e-06	6.8304e-06	1357.3	366.36	3.8544e-06	4.8713e-06	418.85	140.06	120.92	41.834	1.3981e-06	51.8	0.00051756	0.00053553	0.00015023	1372.1	5.8426e-06	5.9451e-06	1372.8	372.97	5.8356e-06	5.914e-06	425.47	142.91	123.85	42.752	5.7537e-06	53.025	-75.364	-32.293	-35.988	-107.648	51.577	0.385	-107.552	-102.776	40.421	-5.879	-103.509	-99.015	-98.512	-94.010	61.692	-94.732	-8191	255	
360.465	1	1	0	0	0.1348	0.16485	0.024607	0.40396	0.24314	0.19743	0.31897	0.15792	0.28631	0.15135	0.15416	0.049511	0.11388	0.30254	0.12784	0.21901	-2.6604	-3.6604	-3.3271	-3.3667	-3.4646	-3.2062	-3.7583	-3.7771	-3.2542	-3.4688	-3.5979	-3.5208	-3.8896	-3.2167	-3.6583	-3.7938	-78.059	73.906	199.508	174.979	132.303	-69.043	-100.962	202.419	139.299	139.894	-117.581	161.198	-105.654	237.115	233.283	202.126	0.00034445	0.00062086	0.00018605	1361.7	3.7761e-06	4.3493e-06	1356	367.48	3.6925e-06	5.4652e-06	420.49	140	120.82	41.799	5.8304e-06	51.975	0.00051582	0.0005384	0.00015014	1374.5	5.9032e-06	5.9312e-06	1373.2	372.64	5.9335e-06	5.8437e-06	426.39	142.82	123.6	42.792	5.9027e-06	53.121	-71.959	-43.920	-25.413	-107.643	47.118	31.546	-107.448	-102.664	0.096	51.822	-103.568	-99.080	-98.398	-94.079	53.026	-94.706	-8191	255	
360.562	1	1	0	0	0.074015	0.15152	0.11339	0.10323	0.088638	0.14314	0.36971	0.054551	0.10816	0.10822	0.19782	0.1522	0.30219	0.056165	0.093048	0.12199	-2.6708	-3.6125	-3.4271	-3.6042	-3.7167	-3.3021	-3.6333	-3.6771	-3.3542	-3.625	-3.6083	-3.2313	-3.75	-3.2188	-3.325	-3.8438	124.385	115.057	40.262	-114.689	165.724	13.000	178.722	-77.202	135.379	151.575	213.033	9.758	-35.047	231.588	-32.563	179.203	0.00030367	0.00023593	0.0001084	1361	4.1132e-06	5.2896e-06	1356	367.22	2.1415e-06	6.2194e-06	419.29	139.45	121.35	41.786	5.2672e-06	51.852	0.00052157	0.00053172	0.00015187	1374.2	5.8632e-06	5.8285e-06	1371.5	372.85	5.9099e-06	5.8123e-06	425.36	142.7	123.69	42.837	5.9334e-06	52.985	-85.499	-43.808	-24.410	-107.720	17.739	20.638	-107.618	-103.032	68.648	43.604	-103.360	-99.205	-98.373	-94.126	25.076	-94.508	-8191	255	
360.681	1	1	0	0	0.08908	0.21316	0.2156	0.11754	0.10657	0.12716	0.095693	0.067852	0.19419	0.13482	0.12979	0.14144	0.087958	0.1526	0.097891	0.13292	-2.9729	-3.6542	-3.3583	-3.1667	-3.7833	-3.5	-3.4083	-3.5687	-3.1833	-3.5812	-3.6937	-3.2188	-3.6521	-3.4396	-3.3646	-3.7417	167.754	194.363	-100.718	160.283	15.363	-0.844	-96.919	-90.092	127.588	14.729	176.753	140.950	194.090	159.191	185.428	77.980	0.00029528	0.0004945	0.00014615	1363.5	6.1761e-06	4.5102e-06	1358.6	367.34	3.2584e-06	7.5298e-06	418.29	139.76	120.95	41.745	5.5025e-06	51.607	0.00051422	0.00054385	0.00014995	1374.9	5.93e-06	5.8529e-06	1374	372.58	5.9613e-06	5.9298e-06	425.2	142.63	123.9	42.778	5.9908e-06	52.98	-77.073	-32.098	-26.875	-107.483	31.721	27.398	-107.552	-102.830	31.703	15.766	-103.260	-99.021	-98.358	-93.991	18.580	-94.680	-8191	255	
360.777	1	1	0	0	0.15235	0.21248	0.0029261	0.24689	0.017068	0.095369	0.12772	0.12614	0.0356	0.4401	0.12485	0.067908	0.20037	0.12214	0.059267	0.25063	-2.4625	-3.1937	-3.7188	-3.3729	-3.4125	-3.2729	-3.3729	-3.7708	-3.2792	-3.4938	-3.5812	-3.2771	-3.5854	-3.7208	-3.3625	-3.8667	11.822	212.059	238.410	227.288	199.380	123.764	-88.538	218.565	5.638	-37.800	108.353	225.102	192.216	222.879	121.341	143.178	0.00029867	0.0004612	0.00012961	1361.3	4.07e-06	1.4409e-06	1363.5	366.57	3.3434e-06	5.9914e-06	419.39	139.9	121.41	41.609	6.8566e-06	51.608	0.00052675	0.00053941	0.00015102	1374.3	5.9254e-06	5.8804e-06	1375.2	372.76	5.9742e-06	5.9163e-06	425.79	142.79	123.84	42.736	5.9723e-06	53.069	-76.809	-39.015	-19.103	-107.526	27.771	6.539	-107.630	-102.829	31.383	39.189	-103.246	-99.009	-98.407	-94.157	53.832	-94.554	-8191	255	
360.873	1	1	0	0	0.11185	0.19703	0.20544	0.2062	0.029217	0.11962	0.045454	0.0935	0.11699	0.12643	0.27046	0.086364	0.17235	0.28806	0.14104	0.11406	-2.8937	-3.3229	-3.6979	-3.3958	-3.4646	-3.3333	-3.3438	-3.9833	-3.5396	-3.575	-3.6708	-3.1688	-3.6813	-3.6208	-3.3937	-3.8083	127.504	15.955	-59.290	93.678	89.989	-76.316	107.169	147.819	-93.722	230.307	-40.066	38.004	219.346	207.530	236.008	-106.213	0.00033949	0.00058081	0.00010497	1357.9	4.0603e-06	2.4012e-06	1360	367.77	4.4344e-06	5.6436e-06	419.39	139.33	120.8	41.802	3.6909e-06	51.889	0.00052057	0.00053708	0.00015039	1371.8	5.9018e-06	5.9022e-06	1373.7	373	5.8923e-06	5.9851e-06	425.71	142.55	123.61	42.785	5.9559e-06	53.025	-78.059	-11.149	-10.880	-107.787	14.802	39.569	-107.551	-102.912	27.329	36.327	-103.474	-99.114	-98.635	-94.137	25.081	-95.085	-8191	255	
360.969	1	1	0	0	0.20177	0.1163	0.15668	0.11531	0.090446	0.038382	0.55985	0.49658	0.29977	0.10592	0.23286	0.3095	0.30501	0.15964	0.089749	0.090859	-2.9604	-3.0812	-3.6125	-3.3708	-3.6333	-3.4792	-3.2042	-3.7958	-3.2062	-3.1521	-3.5208	-3.4625	-3.4333	-3.7042	-3.2562	-3.7417	30.488	73.485	-9.920	140.101	160.786	-23.739	209.568	175.595	-69.876	-39.755	236.813	205.222	162.937	192.986	-80.046	83.818	0.00030952	0.00064228	0.00014612	1358.8	4.6439e-06	3.6592e-06	1356.7	367.15	3.5381e-06	7.5851e-06	417.59	139.2	120.65	41.743	4.3425e-06	51.974	0.00051772	0.00054381	0.00015091	1374.2	5.9136e-06	5.8793e-06	1372	372.58	5.9246e-06	5.8919e-06	425.12	142.63	123.7	42.727	5.9825e-06	53.111	-73.004	-51.750	-56.924	-107.488	15.924	19.960	-107.568	-102.830	56.386	21.446	-103.467	-99.061	-98.279	-94.237	57.959	-94.665	-8191	255	
361.065	1	1	0	0	0.2338	0.19732	0.20571	0.09635	0.21959	0.16148	0.21324	0.1732	0.1195	0.20882	0.11088	0.095233	0.12445	0.051017	0.20336	0.16521	-2.9354	-3.1042	-3.7521	-3.5563	-3.475	-3.7417	-3.3312	-3.6542	-3.6875	-3.25	-3.7354	-3.2812	-3.5333	-3.7917	-2.9938	-3.5604	188.141	172.160	101.243	108.978	170.177	-67.415	168.548	185.714	103.587	-10.703	-113.722	127.571	146.875	-70.117	226.232	-44.138	0.00032357	0.00041539	0.00012033	1355	3.0698e-06	4.9589e-06	1360.5	366.07	2.3806e-06	4.3883e-06	419.58	138.62	121.31	41.74	3.6415e-06	52.052	0.00050909	0.00054023	0.00015236	1370.5	5.9542e-06	5.8331e-06	1371.9	372.73	5.8913e-06	6.0057e-06	425.14	142.39	123.74	42.75	5.9938e-06	53.075	-76.958	-52.498	-9.279	-107.568	31.885	7.649	-107.584	-102.833	-16.532	-15.533	-103.555	-99.179	-98.471	-93.966	65.112	-94.756	-8191	255	
361.161	1	1	0	0	0.11788	0.12134	0.20973	0.08902	0.18774	0.098209	0.25385	0.094312	0.13474	0.33985	0.20005	0.046609	0.043041	0.08038	0.040498	0.37526	-3.1937	-3.3417	-3.6875	-3.5417	-3.2479	-3.5854	-3.4417	-3.6542	-3.6167	-3.3271	-3.6354	-3.6167	-3.5208	-3.7396	-3.25	-3.6292	-63.375	228.742	35.774	111.178	-26.237	-9.968	227.597	-113.331	111.246	205.089	-41.523	152.048	114.270	168.159	219.771	203.064	0.00031769	0.00060704	0.00021401	1359.3	1.1958e-06	4.427e-06	1354	367.55	1.8235e-06	5.9119e-06	419.35	139.44	120.75	41.87	1.6632e-06	51.809	0.00051497	0.000543	0.00014704	1371.5	5.8816e-06	5.9545e-06	1373.1	372.64	5.904e-06	5.909e-06	424.92	142.65	123.75	42.814	6.0096e-06	53.013	-73.055	-36.086	-33.520	-107.761	19.562	50.233	-107.574	-102.840	9.016	32.486	-103.334	-99.045	-98.499	-94.354	65.702	-94.716	-8191	255	
361.282	1	1	0	0	0.089131	0.20749	0.24866	0.15022	0.23058	0.10576	0.1653	0.23479	0.11499	0.10324	0.0193	0.12061	0.22577	0.10529	0.061309	0.1604	-3.2479	-3.0438	-3.5854	-3.6854	-3.3458	-3.7479	-3.2562	-3.7375	-3.6146	-3.1562	-3.6417	-3.4958	-3.4229	-3.9208	-3.15	-3.5896	148.464	-91.359	24.762	226.541	-39.386	-35.509	216.277	-115.312	238.947	123.880	-119.726	105.181	-108.265	170.451	179.156	-78.406	0.00032097	0.00035298	9.1801e-05	1359.2	3.4317e-06	3.6406e-06	1358.6	364.96	2.4715e-06	3.9399e-06	418.84	139.14	120.74	41.772	4.3769e-06	51.739	0.0005259	0.00054985	0.00015163	1371.5	5.9736e-06	5.9245e-06	1372	372.2	5.8959e-06	6.0051e-06	425.3	142.42	123.73	42.78	5.9815e-06	53.042	-70.078	-35.312	-10.733	-107.377	29.147	-13.000	-107.526	-102.760	92.709	12.651	-103.377	-99.041	-98.120	-94.373	16.264	-94.805	-8191	255	
361.376	1	1	0	0	0.28534	0.17139	0.087249	0.082687	0.29158	0.017226	0.32399	0.23749	0.14164	0.020298	0.073583	0.22576	0.21495	0.2328	0.084704	0.13592	-3.1979	-2.8937	-3.4771	-3.6375	-3.25	-3.6271	-3.3271	-3.5812	-3.7854	-3.2708	-3.7646	-3.6875	-3.2875	-3.8	-3.3458	-3.3458	34.938	-70.284	238.614	172.518	11.255	152.501	184.407	209.946	181.544	32.760	155.702	145.512	-10.304	-85.789	7.657	193.072	0.00031862	0.00057303	0.00011506	1360.6	3.362e-06	4.3574e-06	1358.4	367.15	3.0777e-06	5.6345e-06	419.52	139.01	121.01	41.649	3.5565e-06	51.92	0.00050897	0.00055145	0.00014961	1372.6	5.9672e-06	5.9187e-06	1372.6	372.67	5.9413e-06	6.028e-06	426.01	142.69	123.61	42.695	6.0052e-06	53.096	-77.098	-24.051	-1.546	-107.605	27.632	37.005	-107.673	-102.675	31.790	-3.494	-103.282	-99.097	-98.520	-94.195	44.912	-94.840	-8191	255	
361.472	1	1	0	0	0.27237	0.055337	0.12948	0.16048	0.1651	0.17619	0.21761	0.13632	0.045553	0.086439	0.10546	0.26297	0.25488	0.10292	0.047359	0.093581	-3.2396	-3.1833	-3.5958	-3.7833	-3.2812	-3.5625	-3.5417	-3.4583	-3.7292	-3.1458	-3.6813	-3.7833	-3.3667	-3.8896	-3.4938	-3.5062	-31.420	-99.646	155.594	235.422	-29.962	225.572	145.160	206.451	79.723	191.612	96.113	57.069	237.425	-110.560	150.964	153.332	0.00030522	0.00066142	7.0781e-05	1353.3	4.9806e-06	3.5589e-06	1358.9	367.43	3.7625e-06	2.6679e-06	418.66	140.33	120.97	41.777	4.9744e-06	51.669	0.00051879	0.00054323	0.00015302	1370.4	5.9072e-06	5.9116e-06	1372.3	372.68	5.8302e-06	5.9436e-06	425.44	142.8	123.64	42.774	5.8506e-06	53.024	-76.951	-62.772	-22.843	-107.503	50.715	-7.635	-107.507	-102.789	70.013	46.133	-103.365	-98.911	-98.265	-94.025	24.941	-94.806	-8191	255	
361.593	1	1	0	0	0.061168	0.063625	0.16495	0.078822	0.065958	0.11744	0.33005	0.20964	0.18741	0.061804	0.058796	0.36607	0.16254	0.36857	0.12602	0.16633	-3.4	-3.2854	-3.3729	-3.8708	-3.1729	-3.5625	-3.4833	-3.4083	-3.6771	-3.4875	-3.5792	-3.9188	-3.2583	-3.7188	-3.3229	-3.1271	126.438	-109.764	129.004	-88.825	123.576	-92.430	220.189	122.298	-108.382	81.438	-18.569	207.666	189.203	224.678	-105.615	-111.182	0.00032793	0.00038507	0.00016228	1359.7	3.9305e-06	3.9283e-06	1363	367.04	3.2051e-06	2.6684e-06	419.8	139.31	121.02	41.803	5.9408e-06	51.828	0.00051784	0.00054364	0.00015102	1371.9	6.031e-06	6.0757e-06	1372.8	372.55	5.9056e-06	5.9403e-06	425.97	142.39	123.76	42.783	5.9478e-06	53.039	-72.917	-28.641	-19.714	-107.590	39.773	61.744	-107.753	-102.823	-7.751	50.175	-103.258	-98.857	-98.545	-94.125	28.490	-94.620	-8191	255	
361.665	1	1	0	0	0.1288	0.20106	0.19981	0.32587	0.10843	0.10044	0.38646	0.42058	0.13991	0.1712	0.23364	0.096223	0.11774	0.12881	0.27901	0.08324	-3.2188	-3.4375	-3.4021	-3.8667	-3.3167	-3.6188	-3.6604	-3.3854	-3.8083	-3.5854	-3.4313	-3.7417	-3.1437	-3.4479	-3.5271	-3.2896	130.705	91.612	124.844	145.966	-85.455	-96.067	167.313	230.801	-118.906	221.323	67.400	228.762	-92.920	-115.606	-109.307	75.166	0.00031106	0.00051738	6.4526e-05	1360.9	4.0743e-06	5.4858e-06	1367.1	366.59	2.5289e-06	2.5541e-06	419.16	139.36	121.21	41.59	4.4148e-06	51.936	0.00052474	0.00054966	0.00015167	1372.4	5.9636e-06	5.8747e-06	1374.2	372.47	5.8223e-06	5.8754e-06	425.25	142.64	123.66	42.733	5.9197e-06	53.123	-72.089	-32.917	-50.207	-107.416	19.836	24.487	-107.606	-102.975	24.938	26.797	-103.357	-98.950	-98.378	-94.137	24.612	-94.583	-8191	255	
361.761	1	1	0	0	0.12279	0.10724	0.29785	0.10308	0.11878	0.20865	0.36145	0.28428	0.1204	0.22914	0.26728	0.14666	0.27478	0.35543	0.23762	0.2222	-3.2562	-3.4562	-3.1729	-3.6	-3.2646	-3.5042	-3.6917	-3.3396	-3.6813	-3.4708	-3.3854	-3.6958	-3.1979	-3.4771	-3.7646	-3.4125	137.497	-49.593	-40.740	-97.688	225.478	4.552	153.033	216.438	86.309	-60.418	-109.318	111.404	224.318	193.743	-18.448	215.966	0.00032438	0.00064226	0.00013594	1363	5.2099e-06	4.6724e-06	1357.8	367.59	3.2529e-06	5.1962e-06	419.6	139.6	120.7	41.948	3.5991e-06	51.853	0.00051164	0.00054017	0.00015159	1372	6.016e-06	5.9455e-06	1372.6	373	5.8469e-06	6.022e-06	425.52	142.65	123.68	42.84	5.867e-06	53.022	-82.040	-12.349	-44.594	-107.463	36.763	15.266	-107.620	-102.640	36.780	43.389	-103.456	-99.004	-98.271	-94.217	66.936	-94.490	-8191	255	
361.857	1	1	0	0	0.16834	0.21317	0.064742	0.1566	0.17117	0.32524	0.12834	0.32057	0.1103	0.21041	0.14635	0.18834	0.13404	0.26989	0.062103	0.34906	-3.0187	-3.4833	-3.1979	-3.9479	-3.4208	-3.3812	-3.7729	-3.4396	-3.6917	-3.5833	-3.1542	-3.7188	-3.4667	-3.5354	-3.7313	-3.4	89.744	-105.527	220.520	184.361	132.190	234.225	-112.118	203.222	86.153	-101.947	-57.204	213.824	125.511	-36.779	191.312	207.857	0.00028025	0.00054732	0.00017317	1357	5.169e-06	4.5218e-06	1361.2	366.37	3.658e-06	4.9394e-06	420.92	139.64	120.88	41.851	3.1642e-06	51.528	0.00051728	0.00054557	0.0001513	1371.6	5.9068e-06	5.8656e-06	1373.2	372.33	5.9103e-06	5.8913e-06	426.34	142.72	123.68	42.831	5.9373e-06	52.949	-80.139	-34.963	-14.570	-107.539	-6.885	18.671	-107.719	-102.752	34.719	32.354	-103.476	-99.017	-98.194	-94.218	46.768	-94.557	-8191	255	
361.978	1	1	0	0	0.29014	0.15449	0.1155	0.30677	0.079145	0.21896	0.22309	0.20233	0.18094	0.077353	0.17757	0.24371	0.080928	0.25992	0.17647	0.18514	-3.2313	-3.425	-3.2729	-3.6604	-3.4104	-3.5458	-4.1188	-3.3187	-3.4625	-3.675	-3.4417	-3.8063	-3.3146	-3.1083	-3.7354	-3.3042	-86.067	-26.428	233.198	-115.129	175.036	-32.058	159.989	152.766	181.385	-55.466	111.418	200.740	181.357	213.211	-111.026	227.584	0.00029443	0.00036399	0.00010068	1358.9	3.6598e-06	5.1051e-06	1356.9	368.21	6.1492e-06	4.492e-06	420.68	139.39	120.59	41.936	5.5008e-06	51.915	0.00051406	0.00053175	0.00015061	1372.6	5.9272e-06	5.8152e-06	1371.5	372.82	5.9278e-06	5.8419e-06	425.79	142.73	123.5	42.783	5.8828e-06	53.136	-79.893	-19.102	-30.685	-107.377	23.606	17.601	-107.694	-103.069	39.934	20.849	-103.271	-98.834	-98.461	-94.203	22.982	-94.498	-8191	255	
362.074	1	1	0	0	0.11888	0.16677	0.016208	0.082608	0.29368	0.07945	0.097405	0.29518	0.14322	0.11439	0.26186	0.052079	0.080282	0.047303	0.068349	0.31247	-3.0292	-3.5333	-3.2667	-4	-3.5438	-3.4021	-3.85	-3.4917	-3.5146	-3.4042	-3.175	-3.725	-3.6833	-3.2104	-3.5292	-3.5729	197.120	79.456	136.269	-93.954	96.488	-27.538	201.759	127.034	176.665	17.862	149.310	-105.836	223.313	223.996	-53.247	-56.979	0.00032962	0.00051957	0.00011989	1358.3	3.6624e-06	4.0311e-06	1356.1	367.52	2.8245e-06	2.566e-06	417.99	138.88	120.75	41.706	1.5021e-06	51.812	0.00051609	0.00053102	0.00014999	1371.8	5.9596e-06	5.9099e-06	1370.8	373.29	5.902e-06	5.9488e-06	424.83	142.59	123.48	42.741	5.68e-06	53.043	-80.717	-36.623	-35.114	-107.392	15.602	14.666	-107.631	-102.913	5.413	23.591	-103.439	-98.945	-98.074	-94.041	8.151	-94.791	-8191	255	
362.170	1	1	0	0	0.11335	0.12874	0.044323	0.18237	0.10682	0.29676	0.27785	0.21461	0.13147	0.17836	0.2433	0.13777	0.20627	0.14525	0.12084	0.18762	-3.1042	-3.6208	-3.1333	-3.7021	-3.3896	-3.1188	-3.4958	-3.575	-3.2917	-3.8563	-3.1458	-3.5104	-3.6	-3.4833	-3.7979	-3.4354	199.995	57.341	158.206	-106.351	159.709	-28.059	180.153	99.913	-76.927	56.109	-53.645	-1.259	-43.369	157.876	159.428	-101.003	0.0003135	0.00049363	0.00018906	1361.4	4.2827e-06	4.6856e-06	1357.2	366.5	3.5261e-06	4.3994e-06	419.97	139.55	120.79	41.693	3.8552e-06	51.843	0.00051107	0.00053238	0.00015225	1371.5	5.8186e-06	5.9287e-06	1371.3	372.46	5.9443e-06	5.9173e-06	425.65	142.66	123.71	42.796	5.871e-06	53.056	-76.793	-28.441	-26.299	-107.482	43.148	49.416	-107.585	-102.868	-12.122	42.384	-103.130	-98.845	-98.309	-94.087	39.972	-94.649	-8191	255	
362.242	1	1	0	0	0.27812	0.19974	0.090342	0.19647	0.18782	0.26711	0.15428	0.066989	0.15196	0.098508	0.20352	0.2125	0.06977	0.22773	0.072286	0.11702	-2.7104	-3.5979	-3.1625	-3.5104	-3.6937	-2.9146	-3.8979	-3.5979	-3.3271	-3.5479	-3.2812	-3.4104	-3.6208	-3.3125	-3.6417	-3.6333	223.092	27.847	41.237	-84.753	18.598	106.266	105.338	104.689	236.820	-32.343	-113.048	178.349	-113.321	-60.779	125.632	130.432	0.00030308	0.00018712	0.00010541	1364.5	5.5441e-06	3.2492e-06	1358.4	367.42	2.3532e-06	4.3779e-06	420.8	138.62	121.01	41.666	9.3294e-07	51.788	0.00052365	0.00054098	0.00014928	1373.5	6.0686e-06	5.9062e-06	1371.8	372.83	6.0349e-06	5.8523e-06	425.64	142.58	123.68	42.769	5.962e-06	52.962	-72.226	-34.384	-26.454	-107.591	55.731	40.393	-107.583	-102.991	25.088	6.131	-103.571	-98.923	-98.227	-94.372	69.269	-94.456	-8191	255	
362.362	1	1	0	0	0.33498	0.41478	0.2309	0.094384	0.067672	0.47076	0.16448	0.12965	0.22272	0.14386	0.11738	0.0090179	0.35457	0.11632	0.019168	0.38853	-2.7875	-3.5271	-3.1813	-3.5417	-3.4625	-3.3312	-3.8479	-3.4229	-3.0771	-3.725	-3.3771	-3.4437	-3.5083	-3.2958	-3.6646	-3.5563	148.017	91.493	140.171	174.942	-80.500	182.310	204.502	-9.582	-100.223	41.653	219.950	99.355	-94.258	183.303	10.776	203.178	0.00029717	0.00060984	0.00012187	1358.1	9.5992e-07	4.1004e-06	1359	366.69	1.9801e-06	4.4056e-06	419.77	139.84	120.6	41.769	3.1605e-06	51.82	0.0005291	0.00054785	0.00015198	1373.6	5.8816e-06	5.9963e-06	1371.7	372.08	5.9813e-06	5.8656e-06	425.98	142.66	123.33	42.772	5.8504e-06	53.039	-75.165	-38.279	-30.164	-107.568	97.055	27.942	-107.687	-102.699	72.158	71.881	-103.554	-99.057	-98.394	-94.020	39.853	-94.984	-8191	255	
362.458	1	1	0	0	0.054916	0.032733	0.17277	0.11434	0.17181	0.15602	0.086047	0.28233	0.14357	0.25232	0.31517	0.21836	0.13377	0.13911	0.19149	0.21485	-2.7313	-3.6292	-3.2917	-3.525	-3.7708	-3.2062	-3.6854	-3.6562	-3.2646	-3.5396	-3.5375	-3.4562	-3.6125	-3.2833	-3.6667	-3.7604	-7.934	158.119	84.683	239.007	86.303	237.698	17.329	214.012	58.462	68.864	-106.597	-93.139	38.136	-85.443	72.603	200.814	0.0002868	0.00071305	0.00014713	1360.9	3.6021e-06	2.7763e-06	1356.3	365.87	2.6623e-06	4.7967e-06	419.63	139.06	121.09	41.88	7.4191e-06	51.551	0.00052836	0.00053781	0.00015441	1374.3	5.9324e-06	5.8458e-06	1371.9	372.72	5.8661e-06	5.7983e-06	425.95	142.52	123.77	42.79	5.915e-06	53.048	-75.136	-45.409	-44.744	-107.594	57.727	24.328	-107.671	-102.928	39.100	25.007	-103.393	-99.181	-98.324	-93.990	40.694	-94.780	-8191	255	
362.555	1	1	0	0	0.25599	0.033026	0.10319	0.30981	0.033822	0.17127	0.22202	0.055557	0.17838	0.34406	0.1139	0.16784	0.075191	0.15032	0.12743	0.076761	-2.8146	-3.3854	-3.2812	-3.3812	-3.7479	-3.1958	-3.6208	-3.6292	-3.2354	-3.5875	-3.3354	-3.2875	-3.8125	-3.3771	-3.3229	-3.575	231.224	101.074	112.426	-111.035	72.758	-33.651	159.759	19.640	52.375	-111.436	-116.113	236.232	116.084	224.942	213.740	114.965	0.00030212	0.00035349	0.00010153	1356.8	3.287e-06	6.4092e-06	1357.1	367	6.3002e-07	6.6504e-06	420.59	138.65	121.18	41.755	5.1029e-06	52.1	0.00051654	0.00054019	0.00014851	1371.7	5.8376e-06	5.8727e-06	1371.5	372.47	6.0456e-06	5.9916e-06	425.65	142.42	123.85	42.781	5.865e-06	53.035	-74.244	-9.453	-25.266	-107.307	40.349	28.205	-107.603	-102.830	73.109	11.526	-103.637	-99.209	-98.384	-94.134	44.292	-94.553	-8191	255	
362.673	1	1	0	0	0.070536	0.050996	0.14025	0.23423	0.25727	0.13856	0.25434	0.14825	0.13022	0.25313	0.11702	0.28319	0.091102	0.18664	0.069632	0.24492	-2.6063	-3.5604	-3.6521	-3.4313	-3.6854	-3.2	-3.6688	-3.8271	-3.2042	-3.3583	-3.7292	-3.3771	-3.7021	-3.45	-3.2542	-3.8125	24.833	191.058	163.815	174.656	171.945	-50.336	193.144	115.069	-114.169	-99.348	34.351	10.555	79.994	-113.511	180.125	195.221	0.00033456	0.00049836	0.00011995	1358.2	3.4117e-06	6.0026e-06	1354.2	366.12	3.6274e-06	5.518e-06	420.45	139.96	120.79	41.782	6.4062e-06	51.77	0.00051942	0.00053874	0.00015023	1372.9	5.8514e-06	5.9043e-06	1372	372.01	6.0466e-06	5.8984e-06	425.86	142.79	123.52	42.793	5.8427e-06	53.046	-80.466	-52.659	-30.027	-107.691	88.070	25.154	-107.699	-102.811	21.824	33.702	-103.452	-98.878	-98.478	-94.081	16.306	-94.711	-8191	255	
362.770	1	1	0	0	0.09612	0.24991	0.17233	0.24086	0.043412	0.13902	0.21941	0.10774	0.15489	0.17009	0.11915	0.17711	0.26871	0.1082	0.2196	0.084681	-2.7938	-3.3063	-3.6458	-3.225	-3.5354	-3.2	-3.5458	-3.8229	-3.3187	-3.4417	-3.7417	-3.275	-3.5167	-3.4271	-3.3021	-3.6312	-0.499	-112.174	-45.401	227.954	204.989	18.686	176.755	142.703	-27.312	92.267	145.050	173.044	236.008	172.435	117.198	136.395	0.0003164	0.00067491	0.0001185	1358.7	2.4115e-06	4.7102e-06	1352.7	366.45	4.5863e-06	4.9543e-06	420.3	139.27	120.64	41.617	3.812e-06	51.791	0.00052187	0.00054617	0.00015207	1370.9	5.8698e-06	5.876e-06	1369.8	372.2	5.8703e-06	5.9211e-06	426.22	142.43	123.57	42.713	5.8984e-06	52.974	-76.900	-40.494	-23.228	-107.622	49.640	36.283	-107.309	-102.932	10.494	18.696	-103.683	-98.839	-98.352	-94.068	55.961	-94.689	-8191	255	
362.866	1	1	0	0	0.18345	0.14626	0.18367	0.28692	0.15078	0.1691	0.29913	0.23243	0.10303	0.18939	0.23906	0.26714	0.16318	0.3109	0.077205	0.10535	-2.8688	-3.4062	-3.5625	-3.4417	-3.5104	-3.3521	-3.3771	-3.8125	-3.1396	-3.4792	-3.9292	-3.3063	-3.45	-3.6	-3.3396	-3.7188	193.615	137.142	76.534	220.354	147.366	129.259	187.162	126.000	163.108	132.870	60.493	195.284	184.099	227.275	172.616	142.564	0.00030008	0.00036542	0.0001685	1357.5	3.4603e-06	4.7092e-06	1355.1	366.53	1.4085e-06	4.1235e-06	418.84	138.51	121.01	41.76	5.4301e-06	51.788	0.00052283	0.0005303	0.00014889	1371.8	5.8466e-06	5.8854e-06	1368.7	372.33	5.9165e-06	5.8944e-06	424.51	142.29	123.59	42.81	5.9035e-06	53.04	-76.081	-18.201	-30.238	-107.611	25.301	70.562	-107.574	-102.778	16.329	-5.125	-103.510	-98.864	-98.456	-93.960	43.281	-94.396	-8191	255	
362.962	1	1	0	0	0.01955	0.13929	0.077209	0.4401	0.038661	0.24304	0.21465	0.27969	0.37375	0.098362	0.16934	0.12541	0.14768	0.13164	0.19676	0.38425	-2.7583	-3.2292	-3.6125	-3.2729	-3.4958	-3.6146	-3.2583	-3.7646	-3.4062	-3.2667	-3.7938	-3.3625	-3.5771	-3.5542	-3.2708	-3.7687	5.886	123.711	203.984	199.538	57.282	-116.628	215.702	-73.701	-110.201	187.462	147.123	86.754	56.999	183.733	194.308	142.008	0.00030068	0.00044581	0.00015531	1360.4	1.1367e-06	4.8401e-06	1361	366.4	1.8872e-06	4.8084e-06	419.59	139.12	120.79	41.747	4.3106e-06	51.918	0.00051257	0.00053772	0.00014817	1371.2	5.8434e-06	5.8085e-06	1373	372.57	5.8155e-06	5.8492e-06	425.36	142.52	123.66	42.77	5.9547e-06	53.031	-79.633	-41.593	-62.880	-107.652	31.311	17.700	-107.453	-102.790	35.837	53.904	-103.424	-98.922	-98.349	-93.961	26.889	-94.782	-8191	255	
363.058	1	1	0	0	0.33273	0.28766	0.10468	0.27578	0.1231	0.27402	0.17537	0.21435	0.062036	0.069383	0.23244	0.14619	0.30609	0.23657	0.25129	0.28441	-2.9083	-3.2896	-3.7625	-3.2687	-3.4167	-3.4792	-3.2083	-3.7292	-3.4646	-3.2208	-3.9062	-3.1688	-3.4208	-3.6021	-3.0583	-3.7313	232.550	-117.085	115.474	185.068	158.965	-46.905	168.182	-15.746	78.694	118.098	221.264	185.727	-119.014	-103.814	-63.227	186.799	0.0002977	0.00047679	0.00012173	1353.9	2.0865e-06	6.2494e-06	1358.5	367.38	2.9552e-06	6.0311e-06	417.79	139.77	121.08	41.734	4.3794e-06	51.658	0.00051259	0.00052892	0.00014748	1370	5.7956e-06	5.9326e-06	1372.7	372.28	5.9306e-06	5.9599e-06	425	142.65	123.55	42.808	6.0072e-06	52.954	-74.144	-42.892	-12.249	-107.598	62.989	17.010	-107.343	-102.810	66.221	35.630	-103.352	-98.822	-98.245	-93.739	46.494	-94.591	-8191	255	
363.154	1	1	0	0	0.14079	0.058664	0.076375	0.098488	0.10089	0.1122	0.2168	0.089299	0.12902	0.18223	0.14473	0.048296	0.12523	0.071	0.34451	0.283	-3.15	-3.0792	-3.3979	-3.4104	-3.1646	-3.6479	-3.2375	-3.675	-3.5542	-3.2458	-3.6354	-3.4917	-3.4562	-3.5458	-3.0458	-3.7062	91.530	51.589	225.821	208.654	206.471	184.453	139.114	-114.427	84.543	-47.628	119.010	-59.129	180.393	176.598	54.251	-114.819	0.00028436	0.00049754	0.00012341	1356.8	4.6456e-06	5.3034e-06	1355.2	365.6	4.7001e-06	2.1511e-06	418.25	139.92	120.62	41.888	5.4031e-06	51.738	0.00051856	0.00053696	0.00014961	1371.2	6.0856e-06	5.9339e-06	1372.2	371.59	5.9206e-06	6.0572e-06	424.78	142.84	123.43	42.783	6.0335e-06	53.046	-77.352	-62.995	-44.256	-107.578	35.307	7.905	-107.494	-102.926	33.943	34.851	-103.293	-99.010	-98.268	-94.161	26.671	-94.708	-8191	255	
363.275	1	1	0	0	0.2664	0.15785	0.17791	0.32481	0.23863	0.12156	0.32536	0.1963	0.10826	0.15838	0.064605	0.17508	0.09971	0.20314	0.064164	0.084714	-3.1667	-3.0979	-3.725	-3.6625	-3.2875	-3.7125	-3.4146	-3.4729	-3.675	-3.0833	-3.6375	-3.5896	-3.2625	-3.7208	-3.2583	-3.5667	122.652	167.639	-91.191	175.157	-46.557	158.003	208.208	180.826	-33.249	196.344	-76.183	66.061	213.996	-108.294	91.401	-6.844	0.00029837	0.00032563	9.3023e-05	1358.5	5.0791e-06	4.6472e-06	1355.6	366.04	2.3842e-06	5.022e-06	419.17	139.32	120.58	41.894	6.1223e-06	51.791	0.00051747	0.00054406	0.00014652	1372.9	6.0866e-06	5.9147e-06	1371.2	372.29	5.9879e-06	5.928e-06	425.4	142.48	123.57	42.773	5.9063e-06	53.009	-77.079	-8.849	-53.687	-107.400	49.768	30.560	-107.563	-102.773	60.995	32.496	-103.350	-99.052	-98.304	-93.964	15.967	-94.775	-8191	255	
363.369	1	1	0	0	0.20855	0.094808	0.097824	0.031966	0.2472	0.089467	0.093564	0.36828	0.23949	0.11936	0.14384	0.24752	0.21863	0.16278	0.29035	0.14714	-3.2479	-3.2271	-3.4833	-3.6646	-3.1688	-3.7313	-3.4313	-3.5771	-3.7083	-3.2833	-3.4854	-3.5625	-3.3563	-3.7917	-3.3333	-3.3563	102.212	169.008	129.737	-118.460	-98.773	231.515	184.636	209.143	-17.153	197.208	-108.629	-106.551	-103.337	201.581	164.866	107.668	0.00028934	0.0006372	0.00014988	1354.4	2.5653e-06	3.8475e-06	1355.8	367.45	2.4156e-06	4.6123e-06	417.6	140.02	120.45	41.698	5.4538e-06	51.606	0.00052039	0.00053891	0.00015041	1369.3	5.9492e-06	5.9291e-06	1371	372.27	5.9016e-06	5.9922e-06	424.49	142.6	123.43	42.677	5.9517e-06	52.939	-73.895	-39.696	-21.780	-107.636	34.278	42.966	-107.532	-102.829	-1.075	52.765	-103.531	-98.780	-98.188	-94.206	47.935	-94.641	-8191	255	
363.465	1	1	0	0	0.29631	0.14375	0.10357	0.259	0.01166	0.074583	0.22161	0.2614	0.32523	0.10024	0.29051	0.0485	0.24735	0.13217	0.23318	0.14481	-3.3729	-3.0375	-3.6833	-3.7188	-3.1083	-3.7917	-3.4979	-3.5958	-3.6104	-3.35	-3.7771	-3.65	-3.2646	-3.6833	-3.2833	-3.6021	64.604	41.864	127.848	214.118	127.963	138.585	158.495	189.044	78.486	-46.885	222.694	105.885	207.802	162.378	-105.729	-19.020	0.00031619	0.00040845	6.8954e-05	1359.2	4.7841e-06	3.5126e-06	1359.5	366.69	2.8474e-06	4.9998e-06	419.34	138.54	120.66	41.635	7.9155e-06	51.671	0.00052524	0.00054747	0.00015106	1371.1	5.9632e-06	5.7638e-06	1370.6	372.21	5.8877e-06	6.0066e-06	425.41	142.46	123.56	42.739	6.0161e-06	52.984	-72.682	-6.788	-77.495	-107.590	54.056	25.053	-107.463	-102.721	55.568	40.955	-103.242	-98.756	-98.243	-93.938	25.567	-94.647	-8191	255	
363.539	1	1	0	0	0.17363	0.12897	0.097625	0.088113	0.22712	0.16371	0.20691	0.13361	0.02421	0.098878	0.048157	0.15944	0.17781	0.22137	0.063048	0.06955	-3.2729	-3.1042	-3.4208	-3.675	-3.0583	-3.5917	-3.5375	-3.4604	-3.7188	-3.3104	-3.5021	-3.8792	-3.1292	-3.7208	-3.35	-3.3563	97.310	190.797	-37.292	115.530	-59.851	-34.200	170.075	-95.602	-110.348	69.862	158.436	115.468	163.252	-89.503	-6.052	38.915	0.0003288	0.00052172	0.0001542	1357.8	4.4654e-06	4.6455e-06	1357.6	366.59	1.4224e-06	3.8078e-06	418.76	139.15	121.27	41.54	5.3908e-06	51.798	0.00052463	0.00053419	0.00015313	1371.4	6.0106e-06	5.8702e-06	1371.5	372.11	5.8508e-06	5.8369e-06	424.92	142.69	123.71	42.688	5.9148e-06	53.085	-74.357	-12.436	-39.531	-107.562	15.770	46.535	-107.523	-102.857	-14.272	27.902	-103.422	-99.134	-98.350	-93.947	26.792	-94.754	-8191	255	
363.635	1	1	0	0	0.054607	0.2539	0.1054	0.34031	0.062178	0.12946	0.11836	0.079477	0.26916	0.076337	0.31803	0.15204	0.11541	0.24203	0.12695	0.16113	-3.3438	-3.2438	-3.3896	-3.6208	-3.1833	-3.5583	-3.6292	-3.2646	-3.8083	-3.4625	-3.2188	-3.6188	-3.2562	-3.4646	-3.7708	-3.0729	0.098	65.229	126.994	194.654	233.089	220.693	-92.207	-48.769	28.629	-114.167	162.985	-117.533	40.289	221.915	58.891	181.189	0.00030253	0.00069946	7.7871e-05	1356	3.5508e-06	6.2391e-06	1354.4	367.15	4.886e-06	5.4999e-06	419.58	139.48	120.41	41.727	3.743e-06	51.753	0.00051663	0.00053804	0.00014818	1371.6	5.9298e-06	5.7911e-06	1369.6	372.26	5.897e-06	5.9123e-06	425.4	142.45	123.54	42.727	5.8413e-06	53.058	-82.325	-45.063	-22.433	-107.571	45.996	28.212	-107.555	-102.977	23.411	31.184	-103.276	-98.905	-98.195	-93.842	35.695	-94.677	-8191	255	
363.754	1	1	0	0	0.18094	0.18463	0.020575	0.10967	0.24184	0.19237	0.22631	0.36052	0.12089	0.065312	0.14138	0.041802	0.16364	0.031585	0.13545	0.13269	-3.4104	-3.1688	-3.2417	-4.0125	-3.2896	-3.4271	-3.6312	-3.3792	-3.5542	-3.3063	-3.2042	-3.7542	-3.3917	-3.6042	-3.6021	-3.2438	182.840	94.096	201.996	190.912	-101.795	-42.582	180.778	225.477	-5.772	210.779	-40.377	189.256	-114.685	72.218	235.751	119.352	0.00031533	0.00053542	0.00014262	1357.1	3.3802e-06	5.4908e-06	1357.1	367.18	3.6271e-06	2.1476e-06	420.77	138.88	120.84	41.692	3.6828e-06	51.74	0.00051713	0.00053524	0.00015247	1370.9	5.9112e-06	5.9239e-06	1371.5	372.33	5.8691e-06	5.9019e-06	426.33	142.43	123.56	42.671	5.8627e-06	52.977	-80.052	-59.898	-52.683	-107.602	76.346	20.162	-107.606	-102.818	2.784	-2.430	-103.288	-98.807	-98.188	-94.097	26.152	-94.732	-8191	255	
363.850	1	1	0	0	0.12201	0.15004	0.091294	0.067617	0.041915	0.11842	0.20293	0.076149	0.35273	0.079559	0.21525	0.1046	0.23502	0.36132	0.12711	0.11526	-3.0812	-3.5646	-3.2125	-3.7562	-3.1917	-3.5896	-3.9479	-3.2667	-3.7188	-3.5208	-3.2167	-3.9875	-3.4208	-3.3917	-3.6521	-3.3187	237.600	78.902	-65.695	74.813	114.404	97.472	192.324	198.208	140.174	72.244	-48.766	-29.508	-112.382	205.728	48.117	104.606	0.00029529	0.00059545	0.00017138	1355.9	7.0076e-07	2.7517e-06	1355.7	366.47	3.6546e-06	5.8835e-06	418.75	139.49	120.63	41.621	5.2553e-06	51.784	0.00051762	0.00053513	0.0001492	1370.1	5.891e-06	6.0326e-06	1368.8	372.41	5.9585e-06	5.7391e-06	425.42	142.66	123.4	42.729	6.0001e-06	52.947	-75.314	-35.060	-38.947	-107.568	85.700	51.294	-107.565	-102.918	40.681	45.698	-103.418	-99.052	-97.891	-94.093	31.153	-95.026	-8191	255	
363.946	1	1	0	0	0.26912	0.0081003	0.11114	0.24971	0.24623	0.019572	0.21013	0.34777	0.30857	0.17707	0.070401	0.16151	0.36775	0.23024	0.20818	0.087398	-3.3563	-3.525	-3.0979	-3.8708	-3.4042	-3.3625	-3.7438	-3.4208	-3.5208	-3.5625	-3.3063	-3.7333	-3.4292	-3.4604	-3.6104	-3.4271	214.105	-49.837	-16.464	210.439	144.818	71.059	192.991	123.446	31.737	140.091	230.689	135.455	144.741	-83.290	34.233	102.353	0.00028439	0.00045112	0.00014382	1355.7	3.5235e-06	5.3558e-06	1358.7	368.34	4.3974e-06	6.5929e-06	418.69	138.79	120.77	41.619	4.3802e-06	51.662	0.00050583	0.000543	0.00015248	1371.7	5.9084e-06	6.0478e-06	1371.2	372.62	5.7761e-06	5.8367e-06	424.42	142.27	123.5	42.744	5.7539e-06	53.039	-71.108	-21.939	-36.601	-107.589	-6.820	35.047	-107.419	-102.820	5.264	41.923	-103.357	-98.911	-98.528	-93.929	28.413	-94.835	-8191	255	
364.067	1	1	0	0	0.21903	0.12218	0.30697	0.27339	0.071576	0.053052	0.33665	0.13798	0.064833	0.1129	0.061221	0.23596	0.23876	0.14485	0.083965	0.2333	-2.7875	-3.5646	-3.1979	-3.7562	-3.3458	-3.2875	-3.9396	-3.45	-3.1854	-3.4542	-3.2292	-3.7438	-3.5792	-3.2062	-3.85	-3.3083	-8.885	-2.124	-38.281	197.490	60.443	229.633	210.532	217.893	145.683	61.694	-97.964	-103.339	-118.241	187.371	-88.266	144.840	0.0003276	0.000358	6.7323e-05	1354.7	6.0731e-06	3.4014e-06	1355.2	368.04	2.5217e-06	5.3076e-06	420.22	139.49	121.09	41.727	2.5607e-06	51.888	0.00052283	0.00054309	0.00015258	1370.8	5.9196e-06	5.9108e-06	1369.5	372.59	5.8861e-06	5.8633e-06	425.84	142.6	123.54	42.689	5.9614e-06	53.042	-73.236	-16.530	-25.157	-107.497	59.306	38.047	-107.551	-102.868	28.601	7.373	-103.532	-99.123	-98.340	-94.075	33.416	-94.594	-8191	255	
364.138	1	1	0	0	0.08115	0.23998	0.096815	0.0040918	0.05533	0.22859	0.26491	0.17294	0.10777	0.18103	0.17899	0.13209	0.12147	0.2493	0.086712	0.16043	-2.9354	-3.575	-3.1771	-3.7271	-3.2854	-3.225	-3.9062	-3.3812	-3.2479	-3.6479	-3.3542	-3.6646	-3.6813	-3.3167	-3.625	-3.4042	202.737	-75.229	215.705	91.403	92.853	161.800	92.234	212.116	-0.675	56.946	-34.478	177.745	142.109	179.039	71.183	-105.970	0.00027258	0.00056792	0.00014049	1354.6	6.3365e-06	5.3864e-06	1355.3	365.28	2.4021e-06	4.082e-06	417.33	139.42	120.55	41.619	3.6507e-06	51.79	0.0005192	0.00054606	0.00015113	1370.1	5.8996e-06	6.0626e-06	1371	371.57	5.9488e-06	5.9428e-06	424.54	142.5	123.36	42.763	5.9183e-06	53.012	-83.797	-52.934	-37.726	-107.371	37.220	-1.061	-107.602	-102.822	76.192	10.561	-103.432	-99.114	-98.464	-94.088	60.858	-94.511	-8191	255	
364.235	1	1	0	0	0.088584	0.053127	0.067787	0.041468	0.23638	0.19292	0.13122	0.3249	0.20735	0.097085	0.29253	0.35297	0.066796	0.030728	0.1592	0.18134	-2.8646	-3.7208	-3.1813	-3.6771	-3.5167	-3.2396	-3.7542	-3.4479	-3.3812	-3.7229	-3.1792	-3.5729	-3.7521	-3.4396	-3.6188	-3.3917	30.265	62.556	-16.195	163.424	-118.094	139.353	-18.868	135.756	109.426	-48.155	165.271	-118.595	25.954	83.885	-68.411	-100.761	0.000297	0.00038941	0.00013331	1354.5	2.0975e-06	2.1841e-06	1359.3	365.57	2.9106e-06	6.8196e-06	418.41	138.63	120.6	41.724	4.0186e-06	51.906	0.00051919	0.00054266	0.00015293	1371	5.922e-06	6.0261e-06	1372.7	371.81	5.9778e-06	5.8675e-06	425.05	142.43	123.54	42.736	5.9762e-06	53.054	-78.191	-46.220	-30.770	-107.326	33.633	44.355	-107.654	-102.924	23.625	26.180	-103.303	-98.864	-98.275	-94.073	68.400	-94.948	-8191	255	
364.355	1	1	0	0	0.20609	0.11305	0.19547	0.12773	0.30572	0.22213	0.29257	0.18353	0.22748	0.050238	0.065403	0.12385	0.098452	0.084651	0.027755	0.21067	-2.8542	-3.5542	-3.1167	-3.4167	-3.5958	-3.2438	-3.7167	-3.5417	-3.5042	-3.7	-3.3792	-3.6188	-3.825	-3.1396	-3.3438	-3.5625	237.568	-105.750	35.661	146.468	74.875	-1.806	189.646	202.588	-0.634	6.272	104.609	215.544	-90.384	89.501	104.826	194.530	0.00033893	0.00056012	0.00011881	1356.9	2.8417e-06	4.3888e-06	1356.8	366.8	2.8399e-06	4.1312e-06	418.73	138.84	121.07	41.699	5.1579e-06	51.885	0.00051672	0.00054713	0.00015268	1372.3	5.8926e-06	5.9691e-06	1369.6	372	5.9649e-06	5.9146e-06	425.31	142.36	123.65	42.77	5.8253e-06	53.057	-79.742	-35.568	-13.823	-107.449	22.107	32.200	-107.514	-102.700	-7.760	42.551	-103.404	-98.736	-98.286	-94.059	70.451	-94.825	-8191	255	
364.451	1	1	0	0	0.069369	0.1339	0.19833	0.19151	0.1756	0.10183	0.1776	0.056346	0.13337	0.16299	0.19965	0.46465	0.27676	0.082866	0.10706	0.21945	-2.7812	-3.4875	-3.1437	-3.6083	-3.6667	-3.2521	-3.4729	-3.5979	-3.1396	-3.5187	-3.4521	-3.2083	-3.7062	-3.2708	-3.3833	-3.6104	164.940	103.979	-53.933	217.427	114.871	153.391	148.962	-107.647	-50.047	-9.053	123.392	215.247	186.194	127.388	-28.695	226.312	0.00029867	0.00044637	0.00015637	1357.6	2.4732e-06	6.9736e-06	1360.7	366.52	1.9851e-06	2.9603e-06	419.39	138.78	120.69	41.676	4.2846e-06	52.059	0.00051649	0.00053724	0.0001506	1371.6	5.8458e-06	5.9857e-06	1372.4	372.22	5.9631e-06	5.8498e-06	425.21	142.36	123.48	42.692	5.9871e-06	53.1	-79.591	-65.067	-28.951	-107.557	53.338	32.388	-107.471	-102.969	-14.388	39.071	-103.246	-98.936	-98.114	-94.031	13.590	-94.556	-8191	255	
364.546	1	1	0	0	0.26927	0.19601	0.20699	0.18137	0.079593	0.063295	0.35658	0.26162	0.12418	0.12638	0.094521	0.3772	0.087239	0.22044	0.17402	0.16573	-2.9208	-3.6667	-3.4188	-3.3083	-3.8021	-3.3042	-3.7417	-3.6979	-3.2292	-3.6312	-3.4833	-3.4125	-3.7792	-3.3625	-3.4646	-3.6604	14.722	122.801	91.964	190.131	-107.903	170.851	153.268	133.611	-39.902	-59.566	153.802	-76.262	-39.562	-68.261	12.579	208.789	0.00031393	0.0006041	0.00016176	1360.5	2.8548e-06	5.0274e-06	1356.1	365.55	2.6816e-06	5.8084e-06	419.28	139.32	120.74	41.886	4.8238e-06	51.81	0.00052317	0.00054083	0.00015139	1371.4	5.8366e-06	5.9412e-06	1369.7	371.76	6.0359e-06	5.8552e-06	424.72	142.52	123.41	42.753	5.9128e-06	52.996	-79.402	-27.174	-26.070	-107.451	72.734	25.238	-107.547	-102.704	62.427	35.192	-103.258	-98.885	-98.238	-93.984	16.040	-94.539	-8191	255	
364.644	1	1	0	0	0.075458	0.15427	0.27771	0.14424	0.16068	0.21654	0.29073	0.27414	0.15432	0.19694	0.1109	0.19843	0.23261	0.16728	0.12157	0.13737	-2.7625	-3.6458	-3.6208	-3.4042	-3.6583	-3.2646	-3.4125	-3.6167	-3.2562	-3.7188	-3.7687	-3.3396	-3.6	-3.2021	-3.2854	-3.7396	-114.333	136.841	-96.463	203.647	-117.973	82.839	164.440	172.219	-24.869	209.168	-101.488	143.497	199.163	-34.933	134.761	234.149	0.00028817	0.00049556	8.9427e-05	1354	3.9272e-06	2.8901e-06	1361.2	366.88	2.9421e-06	5.9855e-06	417.68	139.64	121.09	41.929	4.9313e-06	51.88	0.00052576	0.00054832	0.00015204	1369.7	5.9242e-06	5.9172e-06	1371.1	371.92	5.8762e-06	5.9086e-06	424.65	142.39	123.57	42.765	5.899e-06	53.086	-78.863	-24.175	-18.772	-107.540	25.070	11.252	-107.407	-102.723	50.923	41.007	-103.268	-98.925	-98.403	-93.851	65.342	-94.745	-8191	255	
364.763	1	1	0	0	0.10586	0.1583	0.15809	0.20175	0.1087	0.17343	0.092548	0.17091	0.12654	0.068413	0.057006	0.19444	0.14976	0.32042	0.10714	0.09814	-2.6729	-3.3312	-3.4896	-3.2542	-3.5438	-3.3875	-3.4792	-3.7542	-3.1729	-3.5479	-3.4542	-3.1271	-3.7104	-3.5687	-3.2979	-3.6063	36.919	49.684	143.714	185.904	-27.439	62.593	-18.881	186.481	155.089	-98.036	-1.346	192.906	198.495	225.636	157.037	203.331	0.00029872	0.0005431	9.99e-05	1355.3	4.3446e-06	5.2989e-06	1356.5	365.37	3.3644e-06	4.0967e-06	419.69	139.43	121.04	41.653	5.6934e-06	51.78	0.00052413	0.00053504	0.00014922	1369.5	5.9236e-06	5.9233e-06	1371.3	371.6	5.9611e-06	5.8882e-06	425.16	142.57	123.57	42.724	5.917e-06	53.05	-77.238	-43.942	-28.139	-107.710	39.675	37.156	-107.510	-102.756	41.058	51.005	-103.587	-98.899	-98.134	-94.039	30.797	-94.442	-8191	255	
364.834	1	1	0	0	0.23228	0.10659	0.1282	0.082927	0.053105	0.21938	0.16349	0.33891	0.087998	0.18312	0.19679	0.16586	0.052863	0.20103	0.10056	0.13795	-2.9292	-3.4604	-3.4604	-3.2646	-3.5521	-3.6021	-3.4208	-3.5792	-3.3146	-3.4104	-3.6625	-3.2729	-3.625	-3.6708	-3.4313	-3.6833	23.029	-117.694	48.796	231.595	-78.021	109.944	190.385	184.505	11.496	-2.411	152.194	135.114	-42.371	143.809	229.192	177.565	0.00032225	0.0004406	0.00013929	1358.6	5.6323e-06	5.214e-06	1354.5	365.91	2.259e-06	5.9485e-06	418.78	139.57	120.33	41.62	4.2381e-06	51.785	0.00051299	0.00054196	0.00014942	1371	5.9252e-06	5.8275e-06	1370.9	371.74	5.8374e-06	5.9088e-06	424.9	142.33	123.39	42.689	5.947e-06	52.95	-80.719	-50.871	-5.960	-107.464	-1.321	-7.992	-107.607	-102.944	40.631	17.908	-103.308	-98.679	-98.127	-94.176	42.029	-94.803	-8191	255	
364.955	1	1	0	0	0.25741	0.32322	0.16068	0.2432	0.24909	0.15745	0.20304	0.13261	0.10125	0.14117	0.1651	0.1055	0.12149	0.12356	0.18812	0.057056	-2.8354	-3.2375	-3.5292	-3.3354	-3.3729	-3.4396	-3.3812	-3.8125	-3.4729	-3.4667	-3.8354	-3.3187	-3.5021	-3.5958	-3.2729	-3.825	25.846	-50.668	4.840	154.980	213.878	-34.336	192.489	117.748	-52.267	201.757	110.491	-9.124	-89.906	-84.936	47.839	164.285	0.00030778	0.00073684	0.00016123	1358.1	4.542e-06	5.1143e-06	1358.7	366.83	3.6608e-06	4.8724e-06	420.21	138.95	120.47	41.481	4.3803e-06	51.822	0.0005124	0.00055049	0.00015066	1371.5	5.8954e-06	5.9241e-06	1370.4	372.2	5.8229e-06	5.9424e-06	425.61	142.2	123.26	42.671	5.9553e-06	53.003	-82.441	-11.497	-38.893	-107.411	39.441	24.566	-107.217	-102.954	25.327	66.036	-103.235	-98.981	-98.221	-94.040	39.575	-94.608	-8191	255	
365.051	1	1	0	0	0.086594	0.17289	0.12112	0.22415	0.10482	0.12405	0.22588	0.29344	0.07192	0.054394	0.037697	0.11232	0.19449	0.19026	0.32204	0.25963	-3.0083	-3.2271	-3.5229	-3.3792	-3.3854	-3.7021	-3.3375	-3.7583	-3.4688	-3.3021	-3.6229	-3.5208	-3.5604	-3.8375	-3.2521	-3.8187	-30.722	38.977	177.074	193.534	-58.726	61.920	172.502	179.880	-51.070	88.816	181.516	-98.992	202.090	214.694	62.528	58.058	0.00029149	0.00055755	0.00018811	1356.4	5.7267e-06	6.4011e-06	1353.4	366.25	4.7909e-06	6.9659e-06	420.47	138.42	120.32	41.786	4.6634e-06	51.871	0.00051885	0.00053806	0.00014937	1370	5.9358e-06	5.7906e-06	1369.2	372.08	6.0759e-06	5.9065e-06	425.17	142.12	123.26	42.681	5.9022e-06	53	-75.486	-13.647	-29.814	-107.728	33.895	26.013	-107.660	-102.689	30.734	44.780	-103.304	-98.689	-98.450	-93.956	23.332	-94.658	-8191	255	
365.147	1	1	0	0	0.30779	0.18755	0.10867	0.061764	0.096458	0.057283	0.12092	0.084546	0.029038	0.040894	0.096606	0.15277	0.093458	0.17649	0.092958	0.13575	-2.9313	-3.0146	-3.6667	-3.3625	-3.5438	-3.7292	-3.3417	-3.5396	-3.3333	-3.2229	-3.7708	-3.3583	-3.5833	-3.7917	-3.1312	-3.3688	-85.673	-59.167	85.779	-85.002	221.721	-93.825	167.173	203.304	-114.719	-78.136	-105.497	195.022	230.245	-118.999	26.190	-111.029	0.0003254	0.00040285	0.00013622	1356.9	3.4922e-06	5.0955e-06	1357	367.83	3.1659e-06	5.3862e-06	419.27	139.15	120.98	41.636	4.4707e-06	51.765	0.0005208	0.0005383	0.00015032	1370.8	5.9168e-06	5.9574e-06	1369.1	372.92	5.925e-06	6.0034e-06	425.38	142.37	123.57	42.709	5.9262e-06	52.965	-76.791	-33.560	-16.251	-107.539	14.812	41.667	-107.661	-102.679	-1.276	33.930	-103.406	-99.102	-98.187	-94.088	56.366	-94.514	-8191	255	
365.243	1	1	0	0	0.061659	0.132	0.25382	0.19394	0.11757	0.15167	0.30456	0.13307	0.16024	0.35101	0.088521	0.17988	0.34739	0.14432	0.20411	0.1784	-3.075	-3.0479	-3.6229	-3.4479	-3.2188	-3.6167	-3.2458	-3.6896	-3.6583	-3.2333	-3.7167	-3.5667	-3.0583	-3.6604	-3.1813	-3.6146	175.301	19.696	-65.846	161.523	126.518	174.586	189.511	235.412	95.912	-59.544	154.268	207.130	-89.842	56.545	-4.395	180.986	0.00032784	0.00037611	0.00011246	1361.5	1.641e-06	6.3484e-07	1364.1	366.67	1.5297e-06	4.35e-06	419.6	138.79	121.18	41.71	6.2113e-06	51.855	0.00052264	0.00053985	0.00014999	1371.7	6.0636e-06	5.9634e-06	1373.2	372	5.9367e-06	6.0699e-06	426.23	142.42	123.55	42.804	5.8864e-06	53.033	-75.181	-25.051	-27.844	-107.379	78.263	-0.598	-107.489	-102.748	57.116	42.575	-103.241	-98.952	-98.357	-93.997	36.000	-94.413	-8191	255	
365.339	1	1	0	0	0.22942	0.11061	0.17619	0.15864	0.19891	0.11653	0.21518	0.25187	0.020003	0.11391	0.22847	0.23269	0.10968	0.077676	0.16661	0.29576	-3.0125	-3.1562	-3.5896	-3.4562	-3.3417	-3.8563	-3.4958	-3.2979	-3.5563	-3.1604	-3.6146	-3.4125	-3.1625	-3.7875	-3.4062	-3.3583	21.119	105.261	41.958	-70.952	-55.483	187.081	205.929	179.518	45.822	177.400	209.676	157.491	216.315	183.665	205.381	201.339	0.00034107	0.00056751	0.00013272	1354.4	5.2221e-06	4.6679e-06	1357.1	366.6	2.1967e-06	5.9039e-06	420.03	139.3	120.64	41.602	6.2141e-06	52.235	0.00051864	0.00053917	0.00014843	1369.1	5.952e-06	5.9143e-06	1371.9	372.33	5.9246e-06	6.0074e-06	425.09	142.54	123.63	42.735	5.8471e-06	53.136	-77.026	-57.951	-30.529	-107.614	52.609	33.521	-107.587	-102.794	29.438	32.945	-103.338	-99.070	-98.358	-94.031	29.919	-94.425	-8191	255	
365.436	1	1	0	0	0.16144	0.089156	0.072631	0.069998	0.092238	0.17008	0.24038	0.12681	0.13734	0.036452	0.049238	0.053986	0.20272	0.073701	0.12792	0.3349	-3.2	-3.0667	-3.5687	-3.6104	-3.0938	-3.5667	-3.4208	-3.2646	-3.7229	-3.275	-3.6417	-3.6042	-3.0167	-3.6354	-3.4979	-3.3625	238.682	73.699	175.008	199.643	120.787	190.168	198.356	179.298	33.113	187.903	25.334	-114.228	235.214	223.765	-6.975	234.161	0.00028458	0.00038064	0.00011343	1363.3	4.0538e-06	2.7669e-06	1360	365.64	4.9614e-06	4.9145e-06	418.76	138.91	121.04	41.848	3.5354e-06	51.86	0.00052183	0.00054313	0.00014877	1372.8	5.893e-06	5.902e-06	1371.2	371.96	5.7993e-06	5.9278e-06	425.25	142.61	123.44	42.776	5.8771e-06	53.025	-78.303	-36.013	-33.109	-107.463	36.469	31.897	-107.600	-102.708	33.697	22.239	-103.279	-99.049	-98.165	-94.156	32.063	-94.752	-8191	255	
365.532	1	1	0	0	0.16964	0.053354	0.15825	0.44335	0.081716	0.34544	0.32243	0.27389	0.17869	0.19199	0.1304	0.21572	0.40039	0.12321	0.019854	0.25809	-3.1562	-2.9167	-3.6021	-3.8396	-3.2062	-3.6646	-3.5771	-3.5062	-3.9083	-3.2208	-3.3646	-3.6979	-3.3812	-3.6188	-3.45	-3.4625	73.621	174.103	-3.111	182.139	61.156	118.966	175.122	121.512	149.496	70.563	113.721	231.861	-56.666	110.077	-17.711	139.854	0.00032005	9.8269e-05	0.0001241	1350.9	1.5223e-06	3.4874e-06	1357.3	367.5	4.4114e-06	6.5031e-06	419.65	139.21	120.49	41.82	5.0467e-06	51.739	0.00051333	0.00054794	0.0001514	1367.8	6.0094e-06	5.9162e-06	1370	372.66	5.9151e-06	5.9605e-06	425.66	142.44	123.35	42.807	5.8583e-06	52.97	-75.799	-106.913	-69.225	-107.411	58.222	23.273	-107.391	-102.969	12.772	51.394	-103.501	-98.623	-98.296	-94.083	25.899	-94.358	-8191	255	
365.626	1	1	0	0	0.1704	0.067887	0.12816	0.31542	0.22007	0.13563	0.17885	0.19856	0.13897	0.075625	0.17724	0.14301	0.19867	0.19288	0.037282	0.32518	-3.4167	-3.2979	-3.3729	-3.6042	-2.9333	-3.3333	-3.5687	-3.3521	-3.6646	-3.25	-3.2729	-3.5187	-3.3792	-3.5333	-3.525	-3.2521	-55.476	71.197	8.558	197.711	-81.643	89.026	133.378	181.020	91.249	-69.189	190.317	191.805	-83.717	199.326	124.927	183.114	0.00028151	0.00039073	0.00014104	1352.8	3.4223e-06	3.9522e-06	1357.6	366.74	1.2226e-06	6.322e-06	417.54	139.9	120.52	41.916	3.43e-06	51.773	0.00051804	0.00053666	0.00014792	1369.6	5.995e-06	5.9545e-06	1372.7	372.31	5.8691e-06	5.9232e-06	424.22	142.57	123.33	42.792	5.8611e-06	52.998	-74.215	-47.310	-16.470	-107.446	34.210	-7.483	-107.473	-102.725	66.518	81.532	-103.451	-99.060	-98.340	-94.174	38.081	-94.543	-8191	255	
365.724	1	1	0	0	0.08071	0.020893	0.16606	0.17627	0.22702	0.14335	0.13206	0.082395	0.078813	0.23028	0.16668	0.29412	0.16249	0.20145	0.069021	0.20449	-3.1083	-3.2792	-3.4792	-3.7062	-3.2313	-3.3563	-3.7062	-3.25	-3.5146	-3.5583	-3.4688	-3.9667	-3.2938	-3.2313	-3.675	-3.2562	-112.662	78.365	16.125	-69.856	207.145	-61.818	163.838	58.349	-4.755	-60.089	-104.321	197.351	196.321	159.891	111.796	179.274	0.00032929	0.00056536	9.7581e-05	1358.1	2.4965e-06	5.3816e-06	1355.6	366.07	3.4103e-06	5.8151e-06	419.33	139.14	120.78	41.688	5.2761e-06	51.639	0.00052155	0.00054898	0.00015266	1370.3	5.9062e-06	5.9797e-06	1371.3	372.33	5.8274e-06	5.9263e-06	424.95	142.52	123.6	42.731	6.0157e-06	52.994	-74.125	-40.132	1.821	-107.602	17.760	26.872	-107.525	-102.796	23.653	26.363	-103.680	-99.119	-98.152	-94.046	54.693	-94.516	-8191	255	
365.843	1	1	0	0	0.072541	0.20073	0.14174	0.19928	0.13852	0.16647	0.22407	0.1291	0.039965	0.088565	0.0894	0.33329	0.19642	0.084946	0.1711	0.22509	-3.0542	-3.3229	-3.1771	-3.8187	-3.1708	-3.3917	-3.9229	-3.2854	-3.5333	-3.5667	-3.3354	-3.5646	-3.3563	-3.5917	-3.6854	-3.3604	-116.280	-21.450	-91.390	219.168	190.431	-108.505	211.148	-91.375	233.356	92.542	133.786	216.097	0.250	73.178	149.276	149.205	0.00029882	0.00049419	0.00014082	1358.5	3.6545e-06	6.0009e-06	1355	366.6	3.8014e-07	3.1336e-06	419.59	140.15	120.32	41.582	3.6035e-06	51.917	0.00052952	0.00054457	0.00015041	1370.3	5.983e-06	5.8281e-06	1370.2	371.98	5.9298e-06	5.9344e-06	424.76	142.67	123.33	42.674	5.8946e-06	52.998	-75.516	-51.987	-20.975	-107.470	42.295	17.957	-107.530	-102.819	98.563	1.926	-103.338	-98.932	-98.114	-93.954	32.341	-94.686	-8191	255	
365.939	1	1	0	0	0.086887	0.24799	0.33269	0.16332	0.16892	0.21482	0.12127	0.19018	0.20135	0.1995	0.076534	0.12993	0.17085	0.11762	0.090675	0.11204	-3.0708	-3.2208	-3.0771	-3.8021	-3.2917	-3.2458	-3.7687	-3.3229	-3.5417	-3.4313	-3.3312	-3.7188	-3.3187	-3.1521	-3.8958	-3.45	-81.538	24.996	102.763	233.377	165.526	66.965	230.046	132.011	223.695	130.425	-52.477	153.975	182.290	193.325	205.366	220.897	0.00029497	0.00056555	0.00014639	1357.4	2.0162e-06	6.745e-06	1359.1	366.36	3.827e-06	5.9939e-06	420.57	139.56	120.45	41.702	5.243e-06	51.686	0.00051207	0.00055449	0.00015095	1370.8	5.9476e-06	5.8941e-06	1370.9	372.11	5.9411e-06	5.9872e-06	425.18	142.51	123.4	42.745	5.9162e-06	52.937	-68.003	-45.473	-53.905	-107.510	-49.908	10.457	-107.496	-102.838	19.300	22.972	-103.159	-98.830	-98.301	-93.837	-9.598	-94.625	-8191	255	
366.035	1	1	0	0	0.12435	0.20308	0.037039	0.17154	0.17324	0.18746	0.081071	0.1085	0.1094	0.0032974	0.24546	0.27391	0.10848	0.10268	0.035637	0.2823	-2.9771	-3.6083	-3.1875	-3.7229	-3.4646	-3.325	-3.8375	-3.1521	-3.3875	-3.6521	-3.1688	-3.575	-3.4271	-3.1625	-3.7146	-3.3708	202.987	124.338	125.911	207.150	211.459	-49.516	205.442	171.340	198.436	115.832	118.040	185.497	228.971	181.862	77.698	210.805	0.00026913	0.00032	0.00013124	1357.5	2.1088e-06	3.6935e-06	1354.8	365.89	1.3079e-06	5.8566e-06	419.77	139.28	121.01	41.782	1.8978e-06	52.006	0.00051364	0.00053798	0.00015153	1368.6	6.0738e-06	5.9468e-06	1371.7	371.96	5.9325e-06	5.9595e-06	425.9	142.6	123.73	42.826	5.8269e-06	53.075	-71.085	12.892	-7.729	-107.532	73.903	48.755	-107.702	-102.822	56.744	40.439	-103.293	-98.902	-98.156	-93.870	-42.689	-94.817	-8191	255	
366.131	1	1	0	0	0.11659	0.086413	0.20315	0.13448	0.25409	0.081321	0.11534	0.15332	0.14995	0.042428	0.13459	0.16452	0.066603	0.14196	0.13244	0.046771	-2.6562	-3.4646	-3.1229	-3.6167	-3.4188	-3.0854	-3.6813	-3.3396	-3.4375	-3.6979	-3.0229	-3.5583	-3.625	-3.3667	-3.8208	-3.4146	184.355	41.862	-41.789	146.362	117.923	204.973	112.070	183.480	174.736	72.885	84.871	163.228	-57.649	190.077	-77.986	60.845	0.00027563	0.00035665	0.00015149	1356.1	3.2519e-06	5.2059e-06	1355.1	366.2	2.5786e-06	7.6648e-06	417.91	139.01	120.98	41.779	5.0288e-06	51.956	0.00051983	0.00054889	0.00015052	1370.1	6.0318e-06	6.1646e-06	1371	372.04	5.8681e-06	5.9569e-06	425.16	142.38	123.46	42.804	5.9047e-06	52.987	-73.655	-57.722	-17.332	-107.417	44.303	65.626	-107.443	-102.781	-13.070	25.203	-103.233	-98.816	-98.298	-94.065	45.381	-94.624	-8191	255	
366.228	1	1	0	0	0.17909	0.071724	0.017102	0.30926	0.11217	0.34662	0.25318	0.22784	0.071533	0.048988	0.3357	0.085972	0.24546	0.2741	0.13387	0.2323	-2.8333	-3.7333	-3.0625	-3.675	-3.4417	-3.2354	-3.8479	-3.5646	-3.1771	-3.6792	-3.3979	-3.4938	-3.5667	-3.1125	-3.4854	-3.2708	137.820	-67.715	211.428	221.223	-33.341	-97.645	158.302	-95.005	190.337	209.695	210.355	-64.867	-107.913	-106.388	125.962	-70.522	0.00031492	0.00076976	8.1464e-05	1357.7	4.522e-06	5.9272e-06	1359	367.11	2.9022e-06	5.0798e-06	418.5	139.19	121.27	41.634	7.0969e-06	51.745	0.0005266	0.00053585	0.00015021	1370.6	6.014e-06	6.0101e-06	1370	372.27	6.021e-06	5.9763e-06	425.94	142.42	123.51	42.696	5.9168e-06	53.017	-79.899	-41.909	-8.416	-107.595	40.360	46.617	-107.608	-102.646	67.484	37.424	-103.374	-98.983	-98.159	-93.659	17.568	-94.523	-8191	255	
366.324	1	1	0	0	0.13491	0.23701	0.080741	0.11635	0.11569	0.1681	0.13713	0.1611	0.1756	0.14694	0.3512	0.12422	0.02726	0.33445	0.052289	0.26841	-2.7979	-3.6146	-3.3125	-3.8187	-3.5583	-3.1333	-3.5958	-3.4229	-3.2062	-3.8563	-3.525	-3.5062	-3.7979	-3.2667	-3.4771	-3.5917	2.989	-0.881	-111.836	104.690	33.279	22.974	182.774	118.209	26.882	118.557	163.417	225.446	224.171	-64.501	-84.180	226.732	0.00030831	0.0002977	0.00012322	1355.5	2.5746e-06	2.5847e-06	1359.6	366.37	3.568e-06	4.293e-06	419.04	139.51	120.56	41.645	6.215e-06	51.66	0.00052456	0.00054228	0.00014819	1368	5.909e-06	5.936e-06	1372.5	371.95	5.9534e-06	5.8719e-06	424.77	142.69	123.36	42.678	5.9418e-06	52.926	-78.678	-49.185	-21.951	-107.475	48.497	27.765	-107.514	-102.799	22.340	43.797	-103.320	-98.748	-98.069	-94.273	14.905	-94.583	-8191	255	
366.444	1	1	0	0	0.087251	0.26711	0.050123	0.23616	0.070425	0.17542	0.23931	0.24207	0.050585	0.18693	0.20053	0.25326	0.04722	0.45212	0.13499	0.19985	-2.9146	-3.5625	-3.1312	-3.4854	-3.7438	-3.2188	-3.775	-3.6021	-3.0229	-3.5187	-3.3875	-3.5333	-3.85	-3.1167	-3.5333	-3.775	-105.298	225.064	170.057	224.211	59.818	33.860	137.763	185.531	203.574	-57.068	135.897	165.225	168.041	234.095	-68.830	-110.606	0.00031051	0.00054065	9.1227e-05	1355.1	4.7565e-06	5.0285e-06	1356.7	366.06	3.6275e-06	3.7004e-06	418.54	139.45	120.49	41.819	2.3096e-06	51.637	0.00052364	0.00053289	0.00014928	1370	5.8678e-06	5.7365e-06	1370.3	372.01	5.9476e-06	5.9121e-06	424.95	142.44	123.24	42.788	5.9067e-06	52.953	-76.614	-36.246	-25.931	-107.364	53.983	47.556	-107.344	-102.783	29.827	47.517	-103.353	-98.959	-98.459	-93.994	65.167	-94.653	-8191	255	
366.539	1	1	0	0	0.039148	0.27338	0.12643	0.019013	0.039171	0.14801	0.1755	0.25452	0.071321	0.039535	0.18734	0.075277	0.093077	0.050698	0.074736	0.15236	-2.8229	-3.6042	-3.2208	-3.3208	-3.575	-3.3583	-3.5563	-3.7125	-3.2438	-3.8375	-3.5354	-3.1875	-3.7104	-3.3438	-3.5354	-3.8521	4.569	-36.502	38.114	-114.359	7.289	221.450	-120.275	199.868	-35.228	52.184	140.113	1.838	174.388	179.983	-37.436	-85.876	0.00026724	0.00057469	0.00010284	1355.1	2.5435e-06	3.4799e-06	1352	366.45	5.4778e-06	6.3567e-06	417.85	138.94	120.87	41.847	3.2737e-06	51.63	0.00051696	0.00053323	0.00014743	1368.1	5.9188e-06	5.9528e-06	1370.1	372.2	5.9635e-06	5.8917e-06	425.49	142.52	123.46	42.807	5.8858e-06	52.959	-74.674	-29.843	-24.425	-107.425	79.898	95.610	-107.366	-102.737	34.335	18.242	-103.519	-98.679	-98.130	-93.885	31.366	-94.521	-8191	255	
366.635	1	1	0	0	0.2049	0.36602	0.1109	0.091321	0.099906	0.046109	0.32913	0.15198	0.033993	0.17376	0.06295	0.22132	0.16145	0.19308	0.046213	0.21092	-2.7333	-3.2792	-3.3979	-3.5563	-3.8542	-3.1937	-3.625	-3.7687	-3.1917	-3.6896	-3.5521	-3.3021	-3.7438	-3.3229	-3.4104	-3.8396	109.473	152.070	35.312	-27.632	94.021	77.459	185.736	233.679	-102.497	-49.910	162.210	228.063	151.794	-99.129	148.094	129.650	0.00028311	0.00054525	0.00016815	1358	3.4065e-06	5.9873e-06	1362.3	366.05	2.6536e-06	3.4506e-06	419.3	139.23	120.53	41.731	4.8441e-06	51.808	0.00052189	0.00052728	0.00014881	1370.2	5.8854e-06	5.8516e-06	1371	371.77	5.8905e-06	5.7812e-06	425.9	142.55	123.36	42.756	6.0183e-06	53.023	-80.635	-20.766	10.404	-107.291	22.990	19.055	-107.441	-102.748	-1.535	28.671	-103.529	-98.874	-97.990	-93.947	16.622	-94.578	-8191	255	
366.731	1	1	0	0	0.14636	0.25823	0.094412	0.095836	0.16444	0.17712	0.094732	0.12508	0.14479	0.18583	0.15757	0.15517	0.075563	0.22121	0.10328	0.0419	-2.9813	-3.3667	-3.3417	-3.2917	-3.7042	-3.3958	-3.4729	-3.8812	-3.2625	-3.275	-3.5146	-3.3083	-3.7313	-3.5312	-3.3042	-3.7875	31.332	138.186	56.403	205.845	230.852	-63.372	-115.026	-45.808	-37.206	-14.442	127.812	-46.192	151.729	205.249	202.778	153.162	0.00027858	0.00050839	0.00016506	1356.5	5.0311e-06	4.593e-06	1355.4	366.19	4.3108e-06	5.461e-06	419.6	139.15	120.84	41.944	6.9734e-06	51.845	0.00052115	0.00053883	0.0001519	1368.5	5.8792e-06	5.8623e-06	1369.7	372.16	5.8199e-06	5.9647e-06	425.01	142.59	123.41	42.816	5.9681e-06	52.961	-74.956	-31.910	-31.607	-107.503	55.982	17.559	-107.404	-102.782	17.969	43.948	-103.317	-99.012	-98.356	-94.024	33.899	-94.568	-8191	255	
#DATA ENDS
