BOXY.EXE: ISS Imagent and Oximeter Data Acquisition Program Version 0.80
Ascii Record File

#ACQ INFORMATION
2  Detector Channels 
16  External MUX Channels 
1  Auxiliary Channels 
5000  Waveform (CCF) Frequency (Hz)
1  Waveforms Skipped 
30  Waveforms Averaged 
1  Cycles Averaged 
16  Acquisitions per Waveform 
10.0806  Updata Rate (Hz) 

#FILE INFORMATION
TRUE -- External MUX Channel results are PARSED.
FALSE -- AC DC and Phase are NOT grouped.
TRUE -- Companion Program Settings File CREATED.
FALSE -- AC data not excluded
FALSE -- DC data not excluded
FALSE -- Phase data not excluded
FALSE -- Auxillary Chn. data not excluded
Tab delimiters

#CALIBRATION STATE
TRUE -- Waveform Calibration Values APPLIED.


#AUX CALIBRATION VALUES
Val Type	aux-1	

Term	1.0000e+00	
Factor	0.0000e+00	


#WF CALIBRATION VALUES
A = Detector Channel
Val Type	A-AC1	A-AC2	A-AC3	A-AC4	A-AC5	A-AC6	A-AC7	A-AC8	A-AC9	A-AC10	A-AC11	A-AC12	A-AC13	A-AC14	A-AC15	A-AC16	A-DC1	A-DC2	A-DC3	A-DC4	A-DC5	A-DC6	A-DC7	A-DC8	A-DC9	A-DC10	A-DC11	A-DC12	A-DC13	A-DC14	A-DC15	A-DC16	A-Ph1	A-Ph2	A-Ph3	A-Ph4	A-Ph5	A-Ph6	A-Ph7	A-Ph8	A-Ph9	A-Ph10	A-Ph11	A-Ph12	A-Ph13	A-Ph14	A-Ph15	A-Ph16	

Term	0.00000e+00	0.00000e+00	0.00000e+00	0.00000e+00	0.00000e+00	0.00000e+00	0.00000e+00	0.00000e+00	0.00000e+00	0.00000e+00	0.00000e+00	0.00000e+00	0.00000e+00	0.00000e+00	0.00000e+00	0.00000e+00	0.00000e+00	0.00000e+00	0.00000e+00	0.00000e+00	0.00000e+00	0.00000e+00	0.00000e+00	0.00000e+00	0.00000e+00	0.00000e+00	0.00000e+00	0.00000e+00	0.00000e+00	0.00000e+00	0.00000e+00	0.00000e+00	0.00000e+00	0.00000e+00	0.00000e+00	0.00000e+00	0.00000e+00	0.00000e+00	0.00000e+00	0.00000e+00	0.00000e+00	0.00000e+00	0.00000e+00	0.00000e+00	0.00000e+00	0.00000e+00	0.00000e+00	0.00000e+00	
Factor	1.00000e+00	1.00000e+00	1.00000e+00	1.00000e+00	1.00000e+00	1.00000e+00	1.00000e+00	1.00000e+00	1.00000e+00	1.00000e+00	1.00000e+00	1.00000e+00	1.00000e+00	1.00000e+00	1.00000e+00	1.00000e+00	1.00000e+00	1.00000e+00	1.00000e+00	1.00000e+00	1.00000e+00	1.00000e+00	1.00000e+00	1.00000e+00	1.00000e+00	1.00000e+00	1.00000e+00	1.00000e+00	1.00000e+00	1.00000e+00	1.00000e+00	1.00000e+00	X	X	X	X	X	X	X	X	X	X	X	X	X	X	X	X	

B = Detector Channel
Val Type	B-AC1	B-AC2	B-AC3	B-AC4	B-AC5	B-AC6	B-AC7	B-AC8	B-AC9	B-AC10	B-AC11	B-AC12	B-AC13	B-AC14	B-AC15	B-AC16	B-DC1	B-DC2	B-DC3	B-DC4	B-DC5	B-DC6	B-DC7	B-DC8	B-DC9	B-DC10	B-DC11	B-DC12	B-DC13	B-DC14	B-DC15	B-DC16	B-Ph1	B-Ph2	B-Ph3	B-Ph4	B-Ph5	B-Ph6	B-Ph7	B-Ph8	B-Ph9	B-Ph10	B-Ph11	B-Ph12	B-Ph13	B-Ph14	B-Ph15	B-Ph16	

Term	0.00000e+00	0.00000e+00	0.00000e+00	0.00000e+00	0.00000e+00	0.00000e+00	0.00000e+00	0.00000e+00	0.00000e+00	0.00000e+00	0.00000e+00	0.00000e+00	0.00000e+00	0.00000e+00	0.00000e+00	0.00000e+00	0.00000e+00	0.00000e+00	0.00000e+00	0.00000e+00	0.00000e+00	0.00000e+00	0.00000e+00	0.00000e+00	0.00000e+00	0.00000e+00	0.00000e+00	0.00000e+00	0.00000e+00	0.00000e+00	0.00000e+00	0.00000e+00	4.69284e+01	-1.27582e+02	-1.30931e+02	-1.83936e+02	-7.62020e+01	-6.69807e+01	-1.56989e+02	-1.62015e+02	-5.22494e+01	-7.94096e+01	-1.78987e+02	-1.72875e+02	-1.82137e+02	-1.78866e+02	-7.23244e+01	-1.51154e+02	
Factor	6.73214e-05	1.82383e-04	5.06034e-05	1.89429e-01	1.93940e-06	2.29934e-06	1.72175e-01	6.05181e-02	3.16237e-06	2.20276e-06	1.07814e-01	3.31898e-02	2.86066e-02	1.08537e-02	2.29806e-06	1.49911e-02	5.72136e-06	6.42153e-06	1.79335e-06	9.47223e-02	6.88599e-08	7.09668e-08	8.12099e-02	3.03370e-02	6.85387e-08	7.09561e-08	5.23066e-02	1.61085e-02	1.44478e-02	5.47581e-03	6.95704e-08	7.34234e-03	X	X	X	X	X	X	X	X	X	X	X	X	X	X	X	X	



#DISTANCE SETTINGS
A = Detector Channel
A-1	A-2	A-3	A-4	A-5	A-6	A-7	A-8	A-9	A-10	A-11	A-12	A-13	A-14	A-15	A-16	

2.5000e+00	3.0000e+00	2.5000e+00	3.0000e+00	2.0000e+00	3.0000e+00	1.5000e+00	3.0000e+00	3.0000e+00	3.0000e+00	3.0000e+00	3.0000e+00	3.0000e+00	3.0000e+00	1.5000e+00	3.0000e+00	

B = Detector Channel
B-1	B-2	B-3	B-4	B-5	B-6	B-7	B-8	B-9	B-10	B-11	B-12	B-13	B-14	B-15	B-16	

1.0000e+01	1.0000e+01	1.0000e+01	1.4400e+00	1.0000e+01	1.0000e+01	1.5100e+00	1.9400e+00	1.0000e+01	1.0000e+01	1.9900e+00	2.4900e+00	2.4100e+00	2.9000e+00	1.0000e+01	2.9800e+00	




#DATA BEGINS
time	group	step	mark	flag	A-AC1	A-AC2	A-AC3	A-AC4	A-AC5	A-AC6	A-AC7	A-AC8	A-AC9	A-AC10	A-AC11	A-AC12	A-AC13	A-AC14	A-AC15	A-AC16	A-DC1	A-DC2	A-DC3	A-DC4	A-DC5	A-DC6	A-DC7	A-DC8	A-DC9	A-DC10	A-DC11	A-DC12	A-DC13	A-DC14	A-DC15	A-DC16	A-Ph1	A-Ph2	A-Ph3	A-Ph4	A-Ph5	A-Ph6	A-Ph7	A-Ph8	A-Ph9	A-Ph10	A-Ph11	A-Ph12	A-Ph13	A-Ph14	A-Ph15	A-Ph16	B-AC1	B-AC2	B-AC3	B-AC4	B-AC5	B-AC6	B-AC7	B-AC8	B-AC9	B-AC10	B-AC11	B-AC12	B-AC13	B-AC14	B-AC15	B-AC16	B-DC1	B-DC2	B-DC3	B-DC4	B-DC5	B-DC6	B-DC7	B-DC8	B-DC9	B-DC10	B-DC11	B-DC12	B-DC13	B-DC14	B-DC15	B-DC16	B-Ph1	B-Ph2	B-Ph3	B-Ph4	B-Ph5	B-Ph6	B-Ph7	B-Ph8	B-Ph9	B-Ph10	B-Ph11	B-Ph12	B-Ph13	B-Ph14	B-Ph15	B-Ph16	aux-1	digaux	

2676.795	1	1	0	512	0.029756	0.032918	0.16341	0.17978	0.14603	0.049549	0.14869	0.084203	0.20323	0.12421	0.14363	0.20212	0.046542	0.2259	0.20016	0.015193	-3.0854	-3.1625	-3.1229	-3.6792	-2.9917	-3.4667	-3.3167	-3.2083	-3.6271	-3.2708	-3.2354	-3.5417	-3.1562	-3.4021	-3.3896	-2.9021	176.166	-63.665	-105.949	203.554	-106.016	96.620	93.261	-131.536	-87.618	223.763	-6.120	141.954	-97.394	167.204	27.466	-87.051	0.0097456	0.00063729	0.00016221	968.73	6.5173e-06	0.00014452	906.62	341.37	5.6525e-06	4.0683e-06	307.62	133.07	155.08	82.53	4.2679e-06	68.817	0.010498	0.0001244	2.4132e-05	886.25	1.0943e-06	1.9908e-05	910.35	313.89	2.2672e-06	1.2815e-06	280.63	148.08	142.38	76.605	2.0857e-06	63.342	-96.435	-45.029	-32.566	-123.117	-16.275	-26.786	-126.808	-118.201	35.755	-7.437	-121.819	-116.746	-115.086	-110.356	-48.935	-115.532	-8191	255	
2676.913	1	1	0	0	0.14694	0.18628	0.035566	0.16249	0.35911	0.2012	0.40258	0.031947	0.12805	0.06465	0.29233	0.07077	0.18658	0.027367	0.16387	0.24174	-3.1125	-3.0979	-3.1104	-3.6875	-3.0917	-3.3	-3.4313	-2.9771	-3.3958	-3.3167	-3.0417	-3.65	-3.1917	-3.4062	-3.475	-3.1792	15.275	-67.661	164.525	-123.006	107.547	-98.277	161.265	109.531	207.998	-4.970	-51.350	-117.682	150.786	135.420	-105.391	203.816	0.0083963	0.00040073	0.00011611	965.06	6.5352e-06	7.4564e-06	935.96	345	8.8813e-06	6.5905e-06	311.91	133.43	156.28	83.435	8.5666e-06	69.535	0.0088481	0.00011315	2.4999e-05	887.86	1.0104e-06	9.1991e-07	985.12	316.86	1.8049e-06	1.2039e-06	284.57	144.15	143.35	77.183	2.5905e-06	63.901	-88.266	-45.045	-45.151	-122.997	-8.546	14.865	-127.182	-117.793	31.396	-1.414	-121.421	-117.255	-115.428	-110.279	-31.155	-115.110	-8191	255	
2677.010	1	1	0	0	0.047647	0.19793	0.1863	0.20815	0.14866	0.19928	0.24323	0.13317	0.055056	0.16228	0.11619	0.067049	0.30707	0.2375	0.15601	0.19134	-3.1042	-3.2687	-2.9917	-3.6688	-3.2146	-3.1562	-3.5604	-3.2208	-3.4188	-3.3042	-2.9667	-3.6979	-3.3167	-3.1937	-3.5417	-2.9604	-133.562	171.929	169.805	208.108	211.580	176.161	157.003	197.421	-74.081	66.815	-79.223	43.615	-108.034	166.364	169.671	-11.623	0.0048597	0.027024	0.00023455	974.04	5.5847e-06	5.953e-06	933.45	343.1	9.4634e-06	3.4017e-06	308.97	132.07	154.19	82.141	7.0709e-06	68.161	0.0079002	0.0013011	2.6288e-05	892.69	1.2098e-06	9.613e-07	961.01	315.42	1.5765e-06	1.814e-06	281.4	147.62	141.97	76.412	1.988e-06	62.774	198.247	128.126	-43.288	-122.960	1.943	11.470	-126.375	-118.045	25.737	20.655	-121.781	-116.752	-115.113	-110.202	-20.113	-115.048	-8191	255	
2677.081	1	1	0	0	0.040421	0.21454	0.09068	0.069909	0.1373	0.12375	0.34948	0.13617	0.024166	0.36933	0.18346	0.25624	0.33796	0.25279	0.089932	0.22615	-3.0062	-3.3	-3.0125	-3.525	-3.0563	-3.125	-3.6458	-3.1437	-3.3688	-3.7	-3.2021	-3.4625	-3.2	-3.3667	-3.5729	-3.2021	-54.502	109.698	120.962	136.144	19.914	24.397	220.762	-131.945	54.385	7.832	199.966	210.242	210.818	214.452	189.230	195.704	0.0032726	0.021563	0.0001933	965.32	6.4786e-06	7.8207e-06	926.45	341.63	9.5797e-06	2.4168e-06	305.76	131.31	154.74	82.356	1.2524e-05	68.941	0.0013263	0.0070125	2.6344e-05	881.39	1.3758e-06	9.3794e-07	978.88	313.35	1.1155e-06	1.8743e-06	280.48	142.81	142.3	76.433	2.6115e-06	63.291	203.207	128.250	-43.266	-123.100	16.828	8.986	-126.601	-118.038	5.927	55.330	-121.638	-116.802	-115.299	-110.431	-8.636	-115.555	-8191	255	
2677.202	1	1	0	0	0.3328	0.29027	0.10298	0.2796	0.14101	0.25861	0.11512	0.10601	0.19238	0.080466	0.22231	0.12145	0.091117	0.24155	0.20693	0.2646	-2.925	-3.4167	-2.9375	-3.5396	-3.2042	-3.1562	-3.7479	-3.1167	-3.3208	-3.45	-3.1083	-3.5708	-3.5479	-3.2333	-3.575	-3.2104	72.157	154.734	192.684	-105.226	203.411	44.427	-21.285	140.099	162.914	1.585	161.337	81.767	54.733	-102.614	-88.016	7.197	0.0014471	0.029142	0.00015792	967.11	4.9832e-06	7.42e-06	936.21	343.19	9.892e-06	1.6084e-06	310.61	134.6	154.85	82.858	5.8441e-06	69.101	0.00017772	0.011759	2.6429e-05	886.4	1.2472e-06	1e-06	957.48	315.08	1.1075e-06	2.4104e-06	283.47	140.09	146.97	76.782	1.8149e-06	63.761	22.240	107.859	-41.793	-123.125	20.436	13.107	-126.188	-118.020	5.936	21.284	-121.524	-116.824	-114.988	-110.416	-34.889	-115.644	-8191	255	
2677.298	1	1	0	0	0.17182	0.12439	0.11909	0.066057	0.21214	0.016571	0.19385	0.20846	0.11531	0.2373	0.23908	0.037605	0.052485	0.2407	0.13695	0.011029	-2.7313	-3.5667	-2.9042	-3.3708	-3.3479	-3.1167	-3.5958	-3.3375	-3.2125	-3.4292	-3.2438	-3.4167	-3.3937	-3.1604	-3.45	-3.1729	18.399	42.382	-29.019	6.266	73.000	154.338	147.380	135.440	0.373	-52.492	201.818	-50.377	82.726	211.345	81.538	-6.592	0.0012716	0.024105	0.00015759	967.56	4.1238e-06	4.8487e-06	952.01	344.44	1.1365e-05	3.2788e-06	315.02	135.1	155.68	83.24	7.7831e-06	69.846	0.00017723	0.0098895	2.6127e-05	888.69	1.8984e-06	9.7491e-07	994.64	317.71	1.1143e-06	1.9316e-06	287.37	122.84	161.8	77.448	2.3097e-06	64.282	19.192	121.437	-52.968	-122.859	-5.702	9.297	-126.135	-118.068	-1.584	-11.401	-121.798	-116.508	-115.078	-110.382	-33.404	-115.428	-8191	255	
2677.394	1	1	0	0	0.12858	0.10774	0.082218	0.049286	0.22788	0.11276	0.12192	0.23854	0.28452	0.15254	0.16428	0.19383	0.097558	0.24246	0.26976	0.070082	-2.6979	-3.5958	-3.0563	-3.5042	-3.4313	-3.2958	-3.7125	-3.3896	-3.2146	-3.6896	-3.1458	-3.3208	-3.5146	-3.1917	-3.45	-3.2292	12.098	39.601	13.090	10.995	96.108	103.844	79.979	181.381	-132.826	87.858	194.250	130.104	55.992	115.199	60.120	-72.605	0.0013504	0.028549	0.0001787	967.28	8.8244e-06	5.2235e-06	926.59	340.87	1.2575e-05	3.4911e-06	306.75	128.8	156.81	81.98	7.6532e-06	68.003	0.00018	0.011829	2.6045e-05	884.58	2.0307e-06	9.8939e-07	951.03	312.73	1.1317e-06	2.4637e-06	279.98	117.68	168.65	75.824	1.8597e-06	62.822	20.585	121.250	-54.875	-122.918	9.489	34.851	-125.896	-118.123	20.416	-86.630	-121.841	-118.483	-113.736	-110.331	-10.577	-115.527	-8191	255	
2677.515	1	1	0	0	0.17498	0.16423	0.21267	0.2193	0.26938	0.4001	0.11916	0.21103	0.14493	0.11638	0.2296	0.24118	0.16277	0.18986	0.05097	0.08477	-2.65	-3.4667	-3.1188	-3.3063	-3.4104	-2.9583	-3.4979	-3.4792	-2.9896	-3.5583	-3.2229	-3.3125	-3.6292	-3.2708	-3.4583	-3.3792	-74.198	110.811	-0.578	209.003	-80.217	89.382	166.838	174.152	185.091	-35.773	166.435	129.780	86.666	195.905	191.825	189.820	0.0014378	0.022866	0.000209	963.13	7.6433e-06	6.6501e-06	924.31	344.13	6.6202e-06	5.7368e-06	308.07	129.35	157.35	82.418	9.5783e-06	68.944	0.00016985	0.0097381	2.6142e-05	880.34	2.4904e-06	1.023e-06	926.23	324.72	1.1569e-06	1.5807e-06	282.15	118.64	165.44	76.47	1.5987e-06	63.585	20.089	135.302	-44.656	-122.860	32.252	19.127	-125.067	-118.996	-1.350	-15.443	-121.852	-118.624	-113.647	-110.461	-8.393	-115.710	-8191	255	
2677.609	1	1	0	0	0.32184	0.13327	0.20117	0.10971	0.091267	0.071849	0.37243	0.10943	0.46192	0.18352	0.25994	0.16446	0.19989	0.2476	0.078375	0.45605	-2.75	-3.6083	-3.1854	-3.3458	-3.7229	-3.1396	-3.5438	-3.4792	-3.0708	-3.5333	-3.3542	-3.4458	-3.5854	-3.2521	-3.4313	-3.4396	-117.672	61.608	144.915	60.689	131.318	138.940	190.274	117.495	-134.283	-135.467	-105.439	89.057	198.894	165.412	80.605	176.780	0.0013317	0.028658	0.00016048	966.11	3.7099e-06	6.3063e-06	923.88	345.77	9.3585e-06	3.7927e-06	314.54	131.46	157.72	82.957	8.9401e-06	69.605	0.00018374	0.011642	3.3379e-05	886.05	1.9721e-06	9.375e-07	837.49	354.27	1.1539e-06	2.0707e-06	286.87	119.96	170.98	76.853	1.1425e-06	64.261	21.463	138.395	-47.268	-122.776	14.920	14.005	-124.920	-119.023	5.570	-17.325	-121.680	-118.570	-113.565	-110.463	-11.956	-115.374	-8191	255	
2677.683	1	1	0	0	0.14245	0.12247	0.0073075	0.2222	0.077017	0.11814	0.37349	0.14772	0.18307	0.087362	0.2005	0.038709	0.16913	0.13866	0.038218	0.22104	-2.5708	-3.5083	-3.4083	-3.15	-3.5917	-3.1625	-3.4667	-3.5354	-3.0292	-3.5479	-3.35	-3.1792	-3.7562	-3.2479	-3.2958	-3.6458	-23.657	61.252	57.146	183.827	61.970	9.745	-121.317	-129.572	204.726	191.311	-135.939	19.911	184.844	-121.507	-126.156	114.451	0.0013616	0.024878	0.00013942	978.08	6.5496e-06	6.4103e-06	919.34	356.19	1.163e-05	7.0331e-06	313.95	131.19	156.88	82.535	9.7419e-06	69.235	0.00018175	0.0098411	3.0592e-05	890.42	2.527e-06	9.7417e-07	840.2	375.22	1.0859e-06	1.6568e-06	286.89	120.12	166.08	76.604	1.1621e-06	63.669	18.048	145.192	-71.901	-123.151	1.184	3.700	-125.635	-118.044	16.194	-15.840	-121.873	-118.519	-113.750	-110.433	-6.523	-115.328	-8191	255	
2677.779	1	1	0	0	0.017137	0.12656	0.044998	0.099456	0.21006	0.082615	0.1596	0.21415	0.23848	0.022076	0.22415	0.13745	0.31488	0.13271	0.0466	0.065854	-2.7292	-3.3333	-3.3375	-3.175	-3.675	-3.2188	-3.2375	-3.4979	-3.0354	-3.4479	-3.4188	-3.3396	-3.6146	-3.45	-3.2354	-3.6875	-23.365	61.640	79.191	165.846	110.350	-134.483	114.167	154.568	-71.759	-75.880	-70.041	-118.267	-69.686	214.313	158.171	181.301	0.0013414	0.0037959	0.0080169	965	3.8182e-06	7.3271e-06	902.24	348.49	9.7921e-06	6.8272e-06	308.6	128.46	155.47	81.887	5.3477e-06	68.487	0.00018066	0.0071637	0.00077456	881.79	1.6866e-06	1.1677e-06	824.61	358.88	1.1158e-06	1.2895e-06	281.96	117.9	168.71	75.825	1.0828e-06	63.18	24.535	13.721	150.918	-123.080	5.054	8.440	-125.418	-118.026	-6.501	35.068	-121.887	-118.735	-113.591	-110.273	5.404	-115.663	-8191	255	
2677.898	1	1	0	0	0.13817	0.20954	0.084958	0.1711	0.16173	0.16402	0.21377	0.22565	0.12831	0.027254	0.29855	0.28614	0.18508	0.12639	0.052938	0.14234	-2.75	-3.3958	-3.4021	-3.0896	-3.5187	-3.3354	-3.3354	-3.7292	-3.1042	-3.4042	-3.5708	-3.2313	-3.55	-3.1688	-3.3604	-3.6167	-82.052	24.409	89.158	201.185	-27.528	197.451	101.672	169.052	42.110	9.975	82.441	179.599	-87.774	-102.755	163.721	154.895	0.0013618	0.0024424	0.0067877	969.26	5.8662e-06	6.0572e-06	913.13	352.22	5.4248e-06	6.6652e-06	313.48	131.52	155.96	82.58	3.9801e-06	69.491	0.00017913	0.00012256	0.0023221	885.98	2.2041e-06	1.2715e-06	831.59	371.51	1.0812e-06	9.8792e-07	286	119.68	166.09	76.672	1.1395e-06	64.08	21.040	-87.706	157.363	-122.898	62.480	11.889	-125.405	-118.005	10.215	-14.740	-121.843	-118.924	-113.836	-110.219	-0.419	-115.264	-8191	255	
2677.994	1	1	0	0	0.096205	0.16188	0.18542	0.3129	0.16826	0.18851	0.20084	0.03266	0.049234	0.2407	0.17618	0.4374	0.014801	0.090893	0.021913	0.14556	-2.7646	-3.425	-3.4292	-3.1792	-3.4917	-3.3875	-3.275	-3.6708	-3.1542	-3.1583	-3.7396	-2.925	-3.8396	-3.4125	-3.1229	-3.8438	28.628	-83.094	28.315	153.015	8.883	133.029	77.178	186.438	134.914	-70.601	-68.634	142.707	-114.703	-128.622	-127.389	-57.382	0.0014349	0.00067526	0.0086283	971.19	3.865e-06	6.8342e-06	915.09	352.9	8.4437e-06	8.2535e-06	313.62	132.59	157.7	81.931	4.6852e-06	69.773	0.00018572	8.6316e-05	0.0032491	887.04	1.7701e-06	1.2498e-06	835.3	363.28	1.1606e-06	1.037e-06	288.39	120.79	158.82	79.793	1.1237e-06	64.422	19.811	-46.823	162.109	-122.830	8.218	29.988	-125.818	-117.741	4.472	-7.154	-121.345	-118.389	-113.866	-109.995	-36.451	-115.492	-8191	255	
2678.090	1	1	0	0	0.27898	0.39459	0.052703	0.19781	0.10465	0.14488	0.13694	0.089045	0.10333	0.2123	0.052131	0.20864	0.27875	0.20883	0.092123	0.162	-2.7229	-2.8333	-3.5396	-3.2104	-3.4813	-3.4125	-3.1146	-3.5958	-3.2375	-3.1562	-3.6167	-3.0771	-3.4375	-3.575	-3.0208	-3.6063	125.496	132.995	-85.393	217.393	9.386	-64.322	175.316	154.306	-55.136	-16.281	140.894	190.588	221.193	204.987	208.367	-71.091	0.0014456	0.00056313	0.0067124	968.6	7.9559e-06	4.1298e-06	912.02	352.24	5.1774e-06	7.5742e-06	310.23	130.08	154.38	81.009	6.7852e-06	68.363	0.0001925	9.4437e-05	0.0027354	889.48	1.3261e-06	1.9594e-06	834.7	371.03	1.4315e-06	9.5288e-07	283.24	118.71	142	83.665	1.134e-06	63.192	20.846	-52.629	167.524	-123.357	11.706	49.820	-125.306	-117.428	29.764	27.442	-121.743	-118.355	-115.349	-110.218	-10.083	-115.558	-8191	255	
2678.186	1	1	0	0	0.059441	0.078709	0.095835	0.18557	0.037516	0.086533	0.40382	0.20045	0.10996	0.16576	0.061436	0.12105	0.1713	0.19578	0.064748	0.2216	-2.9292	-3.1979	-3.4604	-3.1417	-3.0854	-3.3063	-3.1688	-3.5146	-3.3229	-3.1354	-3.5812	-3.0875	-3.4833	-3.6333	-2.8708	-3.5479	141.545	-129.454	-127.959	-78.278	-124.135	5.207	138.278	154.860	83.390	208.661	190.810	-4.043	170.296	-8.198	-13.127	199.006	0.0013449	0.00050892	0.0079404	958.32	5.5161e-06	9.9253e-07	903.4	349.05	1.1129e-05	5.6915e-06	308.06	129.82	155.32	81.614	6.5101e-06	69.215	0.00021103	8.9273e-05	0.003231	879.69	1.0432e-06	1.9973e-06	825.52	359.21	1.294e-06	9.5303e-07	283.84	119.14	142.43	86.646	1.161e-06	63.757	20.550	-41.880	172.717	-123.307	2.258	14.968	-125.467	-117.248	20.953	2.691	-121.490	-118.722	-115.105	-109.328	3.857	-115.443	-8191	255	
2678.307	1	1	0	0	0.1529	0.028296	0.086955	0.2726	0.19161	0.073346	0.21953	0.1208	0.073926	0.21991	0.12338	0.068475	0.14695	0.15651	0.26362	0.30244	-2.8583	-3.05	-3.5229	-3.1479	-3.2438	-3.5917	-3.0812	-3.5687	-3.3083	-3.225	-3.5875	-3.2687	-3.2667	-3.7833	-2.9562	-3.6604	198.274	137.830	155.089	-92.539	-46.472	-45.126	186.567	-132.303	123.425	137.621	127.627	88.705	185.448	-129.680	-77.286	150.416	0.0013288	0.00056693	0.006409	962.39	5.7715e-06	3.7127e-06	919.94	350.01	0.00012584	4.6985e-06	314.11	131.66	155.09	82.148	5.1249e-06	69.837	0.00019062	9.4356e-05	0.0027228	882.41	1.0092e-06	2.4557e-06	835.62	344.46	4.0802e-05	1.0077e-06	286.8	120.24	143.03	85.376	1.1439e-06	64.16	22.891	-28.370	182.596	-123.083	16.239	77.802	-125.333	-116.932	-60.163	13.924	-121.537	-118.697	-114.946	-109.584	-10.745	-115.343	-8191	255	
2678.378	1	1	0	0	0.085473	0.24142	0.071441	0.17473	0.24383	0.25825	0.11939	0.2695	0.21743	0.17242	0.041144	0.23086	0.20891	0.35382	0.043029	0.19691	-3.1292	-3.0187	-3.5208	-3.325	-3.2062	-3.6917	-3.2604	-3.475	-3.3563	-3.0458	-3.5229	-3.2479	-3.3021	-3.6479	-3.0729	-3.3458	105.549	-119.639	187.680	163.644	52.609	212.377	133.625	221.795	-76.300	188.256	102.281	149.562	169.718	199.452	-81.060	-134.583	0.0013393	0.00051163	0.0075107	967.75	5.8127e-06	3.5025e-06	919.35	344.25	4.7633e-05	6.7854e-06	315.1	133.03	156.11	82.206	6.0985e-06	69.784	0.00026311	9.2015e-05	0.0032125	887.97	1.0678e-06	1.8941e-06	838.98	317.58	9.7315e-05	9.8925e-07	289.42	121.74	143.6	87.342	1.1401e-06	64.357	21.349	-32.136	191.533	-122.967	-8.861	85.411	-125.593	-118.021	-79.389	3.287	-121.504	-118.290	-115.117	-109.425	12.340	-115.570	-8191	255	
2678.475	1	1	0	0	0.055554	0.1494	0.22683	0.2087	0.088576	0.075035	0.16957	0.1755	0.043745	0.23373	0.36985	0.013353	0.22738	0.23165	0.1311	0.15679	-3.0083	-3.0521	-3.3125	-3.3646	-3.2333	-3.7021	-3.1667	-3.3354	-3.5729	-3.0417	-3.3292	-3.2729	-3.0479	-3.6792	-3.0208	-3.2667	166.047	43.604	187.307	223.314	-16.428	122.707	148.047	157.410	-14.326	-46.663	-117.065	34.339	202.273	-99.297	108.570	128.511	0.0013113	0.00065464	0.0063739	960.29	7.3774e-06	7.2239e-06	905.51	339.35	0.00049925	6.2713e-06	305.43	129.62	153.47	80.413	8.2534e-06	68.493	0.000257	9.0972e-05	0.002715	880.72	1.0708e-06	2.4228e-06	825.87	312.39	0.00012252	9.2553e-07	281.04	118.07	141.61	84.033	1.2437e-06	63.071	22.251	-45.192	197.144	-123.144	4.460	54.536	-125.616	-117.849	34.331	-7.464	-121.881	-118.704	-115.050	-109.739	-1.653	-115.399	-8191	255	
2678.595	1	1	0	0	0.15103	0.13365	0.026542	0.17467	0.24835	0.2074	0.26235	0.15637	0.071558	0.15428	0.1051	0.067747	0.37853	0.12848	0.2004	0.32102	-3.0687	-3.1188	-3.3458	-3.5521	-3.0167	-3.4208	-3.2188	-3.4875	-3.4146	-3.0312	-3.4646	-3.3021	-2.9229	-3.7917	-3.2438	-3.1542	-112.814	74.412	-110.023	-125.606	62.922	-17.866	167.112	179.551	-102.660	165.874	-40.367	140.324	187.710	-121.676	175.846	214.485	0.0013103	0.00060671	0.0033221	945.44	5.1486e-06	4.7541e-06	903.75	340.2	0.00040835	5.8253e-06	311.92	131.39	155.15	80.804	3.9334e-06	69.214	0.00028358	9.1453e-05	0.0015574	939.76	1.0623e-06	1.6518e-06	827.74	313.11	0.00010285	9.7535e-07	284.35	119.73	142.41	86.294	1.4537e-06	63.815	22.839	-46.336	-90.968	-124.473	-5.315	59.791	-125.698	-117.956	42.886	-10.394	-121.779	-118.664	-114.988	-109.577	13.107	-115.266	-8191	255	
2678.690	1	1	0	0	0.33188	0.042906	0.16386	0.08317	0.11591	0.12	0.059245	0.17158	0.10387	0.10039	0.12539	0.21	0.11639	0.060614	0.22934	0.14611	-3.2812	-2.975	-3.3187	-3.5208	-2.9667	-3.5479	-3.25	-3.1104	-3.5729	-3.0333	-3.3542	-3.4104	-3.1937	-3.6875	-3.1896	-3.2729	-95.490	95.230	35.061	130.447	116.998	46.331	129.926	-124.764	13.282	-93.669	160.294	129.611	215.618	180.060	184.895	-76.845	0.0014041	0.00047188	0.00020389	957.81	5.8601e-06	2.2551e-06	913.2	342.78	0.0004773	7.3912e-06	315.44	131.78	156	81.694	8.1779e-06	69.734	0.00025917	9.1681e-05	2.3908e-05	1027	1.0658e-06	2.0947e-06	836.04	314.91	0.00012113	9.7136e-07	287.5	121.1	143.2	85.197	1.3966e-06	64.348	22.605	-55.541	-62.945	-123.859	3.955	121.486	-125.690	-117.876	48.702	13.837	-121.818	-118.479	-115.220	-109.840	-14.300	-115.575	-8191	255	
2678.786	1	1	0	0	0.15645	0.13269	0.35703	0.15383	0.15736	0.050164	0.34334	0.29199	0.18946	0.13417	0.15322	0.10233	0.21785	0.1845	0.065601	0.10586	-3.2229	-3.05	-3.2125	-3.6125	-3.075	-3.5729	-3.5292	-3.1271	-3.6458	-3.2146	-3.2396	-3.4917	-3.1833	-3.5604	-3.3583	-3.3271	128.931	205.473	-94.522	203.515	138.116	10.490	151.895	164.938	-52.222	193.756	192.393	-33.537	-131.992	-133.759	150.684	170.373	0.0013242	0.00032977	0.00013628	982.43	4.3097e-06	6.9443e-06	920.12	344.02	0.00039387	6.8205e-06	314.49	130.91	155.26	81.874	0.0003585	68.825	0.00030298	8.9152e-05	2.5084e-05	1060.4	1.0211e-06	1.4959e-06	842.21	316.92	0.00010292	1.0997e-06	287.24	120.4	142.54	80.328	5.0451e-05	63.397	21.244	-41.977	-49.351	-124.843	-22.818	12.762	-125.476	-118.045	59.882	-12.796	-121.408	-118.837	-115.078	-109.664	186.542	-115.379	-8191	255	
2678.884	1	1	0	0	0.19257	0.22894	0.40287	0.25863	0.17069	0.072473	0.23644	0.46181	0.049364	0.15605	0.15051	0.14522	0.097483	0.17421	0.067962	0.11704	-3.2042	-3.0979	-3.2375	-3.5854	-2.825	-3.4	-3.5979	-3.1875	-3.5187	-3.1917	-3.2917	-3.75	-3.0479	-3.5771	-3.3667	-3.0958	-39.412	-127.622	215.446	107.284	125.173	5.462	130.046	186.924	-131.889	48.828	156.509	193.697	-20.543	205.947	-126.024	135.517	0.0013897	0.00062483	0.000174	975.06	6.1565e-06	9.2501e-06	898.64	338.95	0.00050434	6.1806e-06	310.08	130.23	154.81	81.705	0.00029641	69.433	0.00022975	0.00011654	2.7177e-05	1023.7	1.1197e-06	1.0877e-06	824.79	311.69	0.00011989	1.2921e-06	282.71	119.23	141.86	75.805	0.00010412	63.696	25.068	-44.617	-49.735	-124.544	-1.542	27.772	-125.130	-117.940	59.789	-1.790	-121.399	-118.495	-115.300	-110.168	164.737	-115.479	-8191	255	
2678.978	1	1	0	0	0.083496	0.13219	0.21924	0.070009	0.051392	0.097891	0.19736	0.073023	0.17286	0.24741	0.16652	0.22288	0.052136	0.40688	0.15769	0.097435	-3.1896	-3.2104	-3.1063	-3.7562	-3.0687	-3.4062	-3.5896	-3.0396	-3.5083	-3.3771	-3.2958	-3.5792	-3.3292	-3.4542	-3.5833	-3.0167	-48.480	5.637	110.483	33.801	-61.664	-49.209	74.166	162.812	0.599	142.283	-27.669	133.252	171.240	224.172	220.584	171.217	0.0012921	0.0007723	0.00010029	982.27	4.8453e-06	4.3733e-06	913.31	342.73	0.0004328	7.4646e-06	315.47	131.19	155.99	82.356	0.00034959	69.587	0.00026142	0.00011925	2.5596e-05	1055.9	1.063e-06	9.171e-07	834.59	314.74	0.00010289	1.2491e-06	286.31	120.65	142.8	76.302	0.00012216	64.089	20.844	-20.877	-43.462	-124.299	-5.745	42.461	-125.482	-117.756	63.169	22.617	-122.004	-118.170	-115.024	-110.356	167.762	-115.267	-8191	255	
2679.074	1	1	0	0	0.21692	0.11202	0.23363	0.13234	0.091482	0.24621	0.21254	0.16746	0.1281	0.063096	0.10591	0.29688	0.14426	0.43337	0.082447	0.19762	-3.0125	-3.3042	-3.0438	-3.5708	-3.0208	-3.1896	-3.6625	-3.0583	-3.4313	-3.4437	-3.0896	-3.5583	-3.2188	-3.3187	-3.5062	-3.0938	193.775	-121.983	169.450	208.842	88.212	163.061	-66.442	-132.306	196.594	-20.398	96.516	176.406	169.091	140.501	78.216	-101.930	0.0014764	0.00067211	0.00015573	985.13	4.1304e-06	7.0969e-06	917.08	343.21	0.00052066	9.5817e-05	317.37	132.75	156.44	82.847	0.00027438	70.48	0.00021974	0.00011723	2.421e-05	1029.7	1.2152e-06	9.4401e-07	839.92	316.12	4.8213e-05	5.7275e-05	289.67	121.35	143.82	76.668	0.00010441	64.705	21.199	-38.661	-70.383	-124.264	-36.167	4.870	-125.423	-117.782	57.669	141.326	-121.404	-118.468	-115.430	-110.305	178.043	-115.601	-8191	255	
2679.195	1	1	0	0	0.25094	0.12919	0.12117	0.14184	0.03566	0.090694	0.24431	0.16068	0.15631	0.1727	0.24985	0.048939	0.12647	0.08601	0.064463	0.20964	-3.0292	-3.2896	-3.1104	-3.7146	-3.3375	-3.4062	-3.675	-3.1146	-3.5	-3.4188	-3.0875	-3.6271	-3.3896	-3.2229	-3.3667	-3.0625	177.541	81.715	54.863	178.503	67.333	-76.211	170.143	161.699	-58.767	-123.648	-31.622	223.537	109.658	136.219	-117.838	103.837	0.0011918	0.00042371	0.00018402	988.68	9.332e-06	8.6509e-06	910.16	341.03	9.4937e-06	0.00032838	308.64	129.82	153.32	80.955	0.00032957	68.868	0.00018245	0.00019849	2.4334e-05	1056.3	1.3928e-06	9.6308e-07	832.14	312.76	1.1489e-06	0.00010421	282.09	119.25	141.26	75.345	0.00012001	63.061	26.528	-35.382	-51.239	-124.552	-3.862	18.880	-125.670	-117.811	4.174	57.731	-121.529	-118.707	-114.895	-110.112	182.968	-115.447	-8191	255	
2679.291	1	1	0	0	0.25589	0.22852	0.21834	0.28727	0.046511	0.29693	0.25649	0.31175	0.12124	0.080379	0.3427	0.22423	0.26327	0.21963	0.050686	0.23834	-3.025	-3.1521	-3.0229	-3.4833	-3.2146	-3.1792	-3.6729	-3.2667	-3.2938	-3.3875	-3.1396	-3.5667	-3.2417	-3.2375	-3.5438	-3.3875	124.293	-36.517	24.391	84.845	43.102	-3.684	-133.179	171.108	15.331	181.892	197.072	-90.683	183.491	201.880	209.726	-83.147	0.0012997	0.00085642	0.00014699	977.97	6.9018e-06	4.6748e-06	899.15	336.69	1.1886e-05	0.00033786	311.77	131.05	154.2	81.372	0.00025832	68.478	0.00017387	0.0001693	2.5174e-05	1010.9	1.2807e-06	9.5524e-07	824.65	310.32	1.0861e-06	0.00012285	283.31	119.61	141.61	75.486	0.0001015	63.371	20.259	-9.922	-39.094	-122.943	18.057	4.041	-125.581	-117.955	-2.657	61.772	-121.838	-118.908	-114.948	-110.417	196.509	-115.755	-8191	255	
2679.387	1	1	0	0	0.20455	0.1219	0.069229	0.18548	0.1292	0.10927	0.13772	0.16799	0.19316	0.19873	0.4741	0.30356	0.24877	0.18329	0.32294	0.15603	-2.7229	-3.4	-3.0938	-3.5417	-3.1937	-2.9229	-3.4042	-3.0958	-3.2333	-3.5438	-3.0167	-3.4854	-3.3729	-3.0208	-3.6333	-3.1229	-47.793	172.229	56.529	223.469	188.696	-62.110	49.770	-121.255	46.365	-30.000	187.748	160.732	192.730	-97.763	5.074	-132.933	0.0013821	0.00077015	0.00017287	990.57	0.00018728	7.9768e-06	908.51	341.83	1.0779e-05	0.00030895	313.48	132.19	154.27	81.826	0.00032672	69.446	0.00017849	0.00022041	2.6743e-05	939.22	6.007e-05	9.9058e-07	830.78	313.66	1.0282e-06	0.00010577	286.34	120.8	142.4	75.916	0.00012108	64.178	24.011	-20.660	-57.580	-122.942	-105.121	16.761	-125.688	-118.079	1.814	68.529	-121.444	-118.881	-115.268	-110.418	197.559	-115.580	-8191	255	
2679.483	1	1	0	0	0.12477	0.28862	0.16525	0.25451	0.087409	0.1028	0.14274	0.0086693	0.21014	0.15299	0.19159	0.22214	0.33589	0.04522	0.26856	0.19415	-2.7542	-3.4437	-3.0938	-3.4708	-3.4208	-3.1771	-3.7604	-3.3271	-3.3146	-3.6958	-3.0354	-3.4542	-3.4375	-3.2625	-3.5479	-3.2521	-80.387	100.314	-39.963	-117.142	-107.626	77.035	147.880	47.969	183.053	166.842	-132.724	-134.343	211.308	125.354	197.897	220.283	0.0013606	0.00049154	0.00015518	959.01	0.00025691	5.79e-06	913.45	343.3	9.7513e-06	0.00034794	316.74	133.3	155.82	81.605	3.8162e-05	69.218	0.00017525	0.00017566	2.6422e-05	880.54	0.00010148	9.7845e-07	838.82	315.8	1.1142e-06	0.00012449	290.05	121.53	143.34	75.865	9.4769e-05	63.81	20.846	-47.996	-69.439	-123.170	-41.414	11.181	-125.714	-117.833	16.786	73.300	-121.767	-118.558	-115.077	-110.412	83.259	-115.567	-8191	255	
2679.555	1	1	0	0	0.25985	0.15764	0.22117	0.27735	0.22356	0.18586	0.20525	0.21125	0.14648	0.20516	0.066637	0.15777	0.20959	0.096478	0.22198	0.16233	-2.6104	-3.4792	-2.9292	-3.3792	-3.4458	-2.9313	-3.4562	-3.3729	-3.0646	-3.5771	-3.15	-3.3958	-3.4417	-3.0667	-3.5708	-3.2271	26.466	-101.747	32.499	-94.700	122.575	151.658	190.096	191.852	109.337	2.693	116.134	24.351	155.965	163.967	101.936	164.333	0.0013101	0.0005667	0.00017641	960.79	0.00030357	5.7406e-06	901.35	336.92	9.4827e-06	0.00027037	308.5	129.26	152.99	80.446	3.0248e-05	67.246	0.00017977	0.00019983	2.6844e-05	876.39	0.00011756	1.0024e-06	822.43	309.55	1.0285e-06	0.00010197	281.69	118.15	140.73	74.796	3.7409e-05	69.498	22.189	-11.160	-35.914	-123.237	-35.186	11.414	-125.344	-118.225	-2.885	79.708	-121.445	-118.611	-115.076	-110.203	6.491	-117.013	-8191	255	
2679.676	1	1	0	0	0.16893	0.26319	0.14623	0.23178	0.27511	0.1717	0.24956	0.56238	0.23948	0.14617	0.075171	0.14339	0.36004	0.11609	0.185	0.043047	-2.7479	-3.3646	-3.2167	-3.1792	-3.3333	-2.9792	-3.5292	-3.3812	-2.9479	-3.5292	-3.1667	-3.1333	-3.6083	-3.225	-3.2542	-3.5187	-104.038	-114.989	31.442	-135.392	75.027	1.060	112.399	164.277	106.135	-69.422	222.841	-51.511	200.187	-133.696	125.811	-42.979	0.0013204	0.00069922	0.00016206	954.16	0.00023851	7.7517e-06	901.78	337.67	8.0464e-06	0.0003359	310.69	130.31	154.03	81.182	4.6494e-06	68.487	0.00017395	0.00015097	3.0711e-05	872.38	9.9429e-05	9.8097e-07	825.78	311.53	1.1005e-06	0.00012007	283.88	119.19	141.64	75.216	1.1794e-06	74.317	20.084	-35.933	-42.536	-122.976	-28.159	15.303	-125.469	-117.667	11.525	88.959	-122.145	-118.586	-115.311	-110.393	-32.836	-117.006	-8191	255	
2679.772	1	1	0	0	0.16115	0.1434	0.15185	0.09278	0.12426	0.12551	0.046132	0.39949	0.14533	0.079213	0.10067	0.1807	0.33195	0.24483	0.05259	0.085675	-2.6604	-3.4042	-3.1667	-3.1813	-3.5896	-2.9833	-3.4104	-3.5375	-3.0312	-3.5917	-3.3729	-3.1229	-3.6083	-3.2792	-3.35	-3.6208	175.645	-31.518	130.252	-112.407	63.631	-78.824	200.705	151.171	48.248	111.035	121.938	191.885	155.697	-117.265	-18.733	-83.411	0.0013127	0.00059746	0.0001565	960.89	0.00030451	7.1711e-06	907.04	340.41	8.6965e-06	0.00024422	312.22	131.67	154.66	81.757	5.5126e-06	69.629	0.00018047	0.00018938	3.3289e-05	878.92	0.0001184	9.8392e-07	831.16	313.61	1.0629e-06	9.1133e-05	286.39	120.3	142.28	75.603	1.1788e-06	76.906	21.091	7.191	-49.193	-123.175	-22.578	-4.816	-125.492	-118.017	4.766	54.980	-121.670	-118.574	-115.250	-110.536	-21.337	-117.287	-8191	255	
2679.866	1	1	0	0	0.12799	0.23494	0.12357	0.25279	0.23899	0.23581	0.15746	0.084579	0.15288	0.1165	0.17912	0.21353	0.26064	0.24475	0.10596	0.15199	-2.6875	-3.3542	-3.0583	-3.1521	-3.4792	-3.1458	-3.3604	-3.4542	-3.0979	-3.4333	-3.3688	-3.2396	-3.7854	-3.4083	-3.2875	-3.5646	171.550	90.581	-69.629	109.502	78.248	57.888	196.653	156.242	-17.008	-90.995	49.221	163.113	-35.629	167.370	-52.853	91.744	0.0014151	0.00067265	8.15e-05	959.93	0.00024132	5.8013e-06	912.22	339.52	1.002e-05	0.00026532	299.79	130.29	152.4	80.862	7.7559e-06	68.182	0.00017813	0.00013392	3.6035e-05	880.08	9.8361e-05	1.1599e-06	833.31	313.67	1.1053e-06	3.1999e-05	335.44	119.33	140.58	74.91	1.1501e-06	73.36	20.640	-24.396	-27.717	-122.852	-14.264	11.574	-125.349	-118.008	1.961	56.617	-121.258	-118.154	-115.203	-110.617	-9.418	-116.728	-8191	255	
2679.964	1	1	0	0	0.16081	0.16058	0.054483	0.052017	0.071261	0.1447	0.16161	0.1372	0.06291	0.18788	0.10874	0.11746	0.070887	0.26383	0.21931	0.23655	-2.5958	-3.4896	-3.1813	-3.1229	-3.6208	-3.0458	-3.3229	-3.6104	-3.1875	-3.2479	-3.6583	-3.2062	-3.6562	-3.3458	-3.0479	-3.6063	16.066	-53.836	162.318	-113.129	145.942	-0.049	-18.990	43.461	196.296	-99.221	170.663	-111.287	126.763	185.925	-69.461	206.939	0.0012882	0.00052566	6.0659e-05	950.97	0.00025864	7.0379e-06	899.45	337.51	7.008e-06	8.0642e-06	300.54	129.15	153.03	80.644	6.0918e-06	68.785	0.00017584	9.1426e-05	5.7544e-05	870.75	0.00011332	1.2542e-06	821.07	308.97	1.0534e-06	9.6027e-07	354.53	117.94	140.32	74.636	1.1769e-06	75.41	21.914	-30.823	19.936	-122.791	-8.759	8.573	-125.594	-117.939	-14.570	12.071	-120.040	-118.499	-114.878	-110.244	-19.253	-117.355	-8191	255	
2680.083	1	1	0	0	0.17178	0.25559	0.1538	0.097922	0.11829	0.017436	0.065351	0.13055	0.18621	0.31171	0.16918	0.20188	0.32867	0.25006	0.094528	0.15145	-2.6896	-3.2854	-3.5417	-3.1604	-3.6125	-3.2313	-3.3896	-3.5042	-3.0375	-3.4896	-3.6688	-3.1437	-3.5146	-3.4875	-3.0167	-3.6312	87.206	-103.368	63.918	162.559	213.184	210.851	-5.109	182.898	22.942	31.747	101.261	204.872	177.087	211.853	55.779	-24.377	0.0013668	0.00071649	0.00016558	950.16	0.00027016	5.9082e-05	907.09	337.31	6.1178e-06	4.6113e-06	298.76	130.19	152.92	80.83	5.0685e-06	69.503	0.00017121	8.6985e-05	4.6758e-05	871.58	8.1751e-05	2.1538e-06	825.08	310.57	1.2564e-06	9.449e-07	372.89	119.01	140.81	74.953	1.147e-06	74.259	19.214	-65.367	-18.139	-122.916	10.517	-73.682	-125.655	-117.949	-23.594	0.319	-119.819	-118.271	-115.275	-110.254	-8.151	-117.367	-8191	255	
2680.179	1	1	0	0	0.32487	0.17035	0.17595	0.032131	0.12844	0.18875	0.23247	0.12766	0.19808	0.19653	0.20478	0.18997	0.23053	0.2379	0.26626	0.11321	-2.7687	-3.25	-3.4938	-3.225	-3.4271	-3.3688	-3.1729	-3.5896	-3.0625	-3.1771	-3.5646	-3.1354	-3.4646	-3.4562	-3.0646	-3.6375	70.812	14.424	188.388	190.021	-107.211	-43.017	108.979	208.548	105.996	206.569	-88.332	-135.182	172.324	221.116	109.227	104.175	0.0013672	0.00063912	0.00015342	959.58	0.00029152	4.2095e-05	910.23	340.31	8.3677e-06	6.1992e-06	305.05	131.28	153.32	81.412	4.9788e-06	70.289	0.00019529	9.0503e-05	6.0746e-05	877.66	2.636e-05	7.4465e-05	832.16	312.94	1.3139e-06	9.4002e-07	362.17	120.18	141.34	75.622	1.1339e-06	76.433	20.724	-43.102	2.842	-123.071	12.151	-78.356	-125.156	-117.681	-11.499	2.540	-119.936	-118.444	-115.189	-110.111	-1.974	-117.128	-8191	255	
2680.275	1	1	0	0	0.20768	0.15707	0.056647	0.24623	0.095366	0.09303	0.1345	0.15468	0.15753	0.26946	0.20178	0.19266	0.24408	0.10709	0.23936	0.085728	-2.6979	-3.1125	-3.3187	-3.1437	-3.3937	-3.3812	-2.9417	-3.55	-3.3583	-3.2375	-3.5354	-3.2146	-3.5187	-3.5396	-3.0125	-3.5917	127.536	-26.831	30.677	221.783	213.711	-122.874	170.829	163.472	-23.560	192.015	-124.458	-2.431	207.947	-106.829	129.011	-84.814	0.0015502	0.00049961	0.00013588	956.03	3.2821e-06	0.00031424	894.07	333.6	1.0794e-05	7.7027e-06	290.54	128.01	151.1	79.739	8.2686e-06	68.367	0.0002039	9.4396e-05	4.4983e-05	874.03	1.0794e-06	0.00010015	818.53	307.77	1.402e-06	8.8414e-07	365.92	117.04	139.02	74.048	1.0821e-06	70.533	22.395	-58.282	-19.651	-123.393	-6.944	21.823	-125.282	-117.776	12.406	15.957	-120.413	-118.576	-115.350	-110.401	5.964	-115.391	-8191	255	
2680.371	1	1	0	0	0.12298	0.087515	0.2348	0.12871	0.22337	0.23859	0.077388	0.11105	0.24379	0.13587	0.22151	0.21921	0.23946	0.2604	0.12428	0.11414	-2.8833	-3.1833	-3.3937	-3.1625	-3.3417	-3.5729	-3.1771	-3.7188	-3.3146	-3.1188	-3.5979	-3.1917	-3.2646	-3.6417	-2.9458	-3.5438	212.915	104.704	165.822	-35.802	176.774	53.277	117.164	205.244	70.510	74.256	-99.210	81.966	190.975	127.037	134.022	116.305	0.0089395	0.00052279	0.00015825	944.23	3.1905e-06	0.00034644	893.29	334.54	1.4485e-05	7.4793e-06	295.04	128.84	152.13	80.267	6.2044e-06	69.041	0.00062518	8.9714e-05	5.0875e-05	863.84	9.3693e-07	0.00011961	814.99	307.47	1.5124e-06	9.2139e-07	356.19	117.79	139.87	74.514	1.1292e-06	64.952	-2.417	-40.209	-26.851	-123.293	19.929	29.843	-125.635	-117.774	-34.973	-6.277	-120.638	-119.022	-114.991	-110.390	-1.426	-115.605	-8191	255	
2680.468	1	1	0	0	0.16253	0.1779	0.14268	0.21041	0.17559	0.080987	0.16552	0.29942	0.049223	0.15629	0.17909	0.29418	0.16975	0.19409	0.12392	0.083276	-2.875	-3.2313	-3.4521	-3.2271	-3.2062	-3.6083	-3.075	-3.5292	-3.2938	-2.9938	-3.7	-3.275	-3.4771	-3.7062	-3.0854	-3.4104	40.536	-91.996	-14.591	173.903	-127.448	135.747	163.038	137.980	214.521	42.784	45.186	201.967	140.617	219.895	127.300	53.466	0.010093	0.00057655	0.00013285	950.26	4.5167e-06	0.00027581	898.4	337.51	1.2781e-05	5.2364e-06	295.73	129.42	152.4	80.352	6.6238e-06	68.606	0.0066079	9.0477e-05	4.248e-05	871.28	1.0124e-06	0.00010242	822.29	309.58	2.4768e-06	9.8112e-07	372.57	118.6	140.08	74.738	1.1543e-06	63.275	-4.159	-58.345	-45.983	-123.090	-31.936	37.243	-125.647	-117.916	-17.435	1.944	-120.594	-118.569	-115.341	-110.350	-18.531	-115.431	-8191	255	
2680.564	1	1	0	0	0.2235	0.19672	0.20198	0.13514	0.27864	0.11132	0.19132	0.26433	0.14466	0.17727	0.16622	0.21656	0.1545	0.19208	0.11515	0.26904	-3.1333	-3.0563	-3.575	-3.2479	-3.1521	-3.5708	-3.1708	-3.3937	-3.4458	-2.8896	-3.6917	-3.3458	-3.1875	-3.6667	-2.9688	-3.2771	62.331	4.119	212.107	-50.605	56.855	146.435	-134.425	205.324	-98.881	86.600	167.773	218.928	190.863	-104.762	8.617	161.992	0.010037	0.00057436	5.1855e-05	956.23	4.4741e-06	0.00036436	909.65	339.79	1.477e-05	8.1909e-06	313.2	127.08	152.76	80.351	7.0179e-06	67.882	0.008376	9.5039e-05	5.1275e-05	873.41	1.0936e-06	0.00012187	830.8	311.95	1.9848e-06	9.1696e-07	344.12	122.04	140.48	74.754	1.3321e-06	62.703	29.046	-39.588	-54.210	-123.103	13.148	41.293	-125.460	-118.028	-32.672	-3.387	-120.632	-119.283	-115.405	-110.330	-1.110	-115.480	-8191	255	
2680.684	1	1	0	0	0.173	0.098285	0.037051	0.21983	0.16562	0.064515	0.31385	0.23976	0.25164	0.29383	0.15447	0.30239	0.16392	0.090431	0.26187	0.25372	-2.9875	-2.9688	-3.3646	-3.3187	-2.95	-3.6562	-3.2396	-3.325	-3.4	-3.0312	-3.6792	-3.4208	-3.2479	-3.6312	-3.1021	-3.275	-82.038	57.114	186.069	-102.489	93.649	-93.916	189.661	176.031	-31.416	139.053	105.878	199.706	218.982	-85.335	-88.288	209.463	0.011655	0.00071349	0.00013337	942.89	6.8558e-06	0.00029405	889.42	334.28	1.3834e-05	5.6147e-06	304.02	123.42	150.56	79.389	5.8584e-06	67.26	0.0098834	9.6109e-05	3.0651e-05	863.59	1.0663e-06	0.00010175	812.81	306.48	2.4651e-06	9.1947e-07	290.53	136.54	138.52	73.741	1.335e-06	62.028	38.713	-44.025	-47.807	-122.939	25.024	50.215	-125.504	-118.098	-5.156	13.959	-120.642	-119.810	-115.248	-110.156	-10.186	-115.679	-8191	255	
2680.779	1	1	0	0	0.17947	0.031979	0.13725	0.40113	0.2061	0.20512	0.06394	0.11506	0.38128	0.14914	0.12505	0.1544	0.08416	0.22263	0.19421	0.10013	-3.1125	-2.9938	-3.1979	-3.4833	-2.9938	-3.3688	-3.2896	-3.3042	-3.2771	-2.9792	-3.5229	-3.6	-3.0917	-3.6646	-3.1875	-3.1708	139.642	196.834	123.189	192.403	-71.845	53.710	153.207	89.176	-0.748	203.309	108.139	140.496	131.872	178.795	-104.369	-113.884	0.0096271	0.00042285	0.00013341	947.33	3.9809e-06	0.00033644	896.35	333.43	1.4247e-05	5.6645e-06	305.72	124.62	152.39	79.499	7.924e-06	68.091	0.0083078	9.239e-05	2.3781e-05	868.68	1.0411e-06	0.0001205	820.11	307.35	1.9514e-06	9.789e-07	280.27	141.49	139.69	74.099	1.4181e-06	62.657	44.041	-39.299	-56.777	-122.814	-21.484	55.906	-125.154	-117.835	-16.830	7.709	-121.312	-118.890	-115.477	-110.385	1.960	-115.392	-8191	255	
2680.877	1	1	0	0	0.056544	0.16687	0.12745	0.30217	0.19723	0.13452	0.13602	0.16667	0.17605	0.1036	0.23943	0.23548	0.16752	0.2943	0.1208	0.17036	-3.0167	-3.0354	-3.3187	-3.5792	-2.8167	-3.5958	-3.3229	-3.2958	-3.5167	-3.0208	-3.2146	-3.5479	-3.0417	-3.5833	-3.1708	-3.1479	-45.811	136.038	29.952	-114.247	-52.437	-114.462	-82.671	-106.560	169.851	114.290	25.762	160.818	87.679	-131.571	-113.091	6.512	0.011066	0.00065784	0.00011945	952.78	4.6851e-06	0.00028836	898.88	336.8	1.0161e-05	3.6472e-06	312.08	126.15	152.94	80.4	3.7171e-06	68.754	0.0097776	9.0584e-05	2.2951e-05	872.53	1.0718e-06	7.2381e-05	842.32	309.48	2.0743e-06	1.1898e-06	283.96	146.86	140.61	74.634	1.5581e-06	63.386	49.626	-51.234	-37.220	-122.856	-7.534	43.714	-125.808	-117.987	-10.049	-81.176	-121.985	-119.102	-115.367	-110.426	-8.839	-115.399	-8191	255	
2680.971	1	1	0	0	0.19477	0.090808	0.14074	0.22532	0.13133	0.16602	0.28076	0.13042	0.12524	0.087171	0.071498	0.18077	0.15418	0.14669	0.11154	0.14794	-3.1458	-3.0854	-3.2313	-3.45	-3.1375	-3.4	-3.5458	-3.0687	-3.6188	-3.1771	-3.2479	-3.5833	-3.0938	-3.5479	-3.4437	-3.0208	34.634	-17.509	-122.016	152.251	-33.389	104.852	150.689	129.026	147.752	197.586	5.611	95.340	156.645	-83.944	-116.946	114.993	0.010248	0.00074395	0.00021031	954.5	6.1479e-06	0.00036352	897.73	338.04	9.679e-06	7.2136e-06	307.55	125.11	150.95	79.515	6.6655e-06	67.795	0.0083384	0.00010432	2.6564e-05	876.73	1.0899e-06	1.1892e-05	934.3	310.13	1.7562e-06	1.0868e-06	279.74	140.94	138.73	73.786	2.4638e-06	62.103	50.793	-51.730	-43.269	-123.076	13.143	48.097	-125.963	-118.111	0.703	-8.688	-121.441	-119.272	-115.328	-110.424	45.802	-115.322	-8191	255	
2681.067	1	1	0	0	0.28191	0.22728	0.29707	0.10269	0.22888	0.23852	0.25134	0.23658	0.10466	0.34438	0.22826	0.09287	0.28599	0.28371	0.29219	0.35412	-3.2771	-3.2062	-3.1917	-3.5687	-3.1104	-3.3688	-3.3729	-3.0563	-3.4021	-3.3146	-3.3292	-3.5479	-3.1667	-3.475	-3.5312	-3.0792	31.691	180.718	55.606	104.335	25.897	20.375	220.704	164.655	204.462	-5.901	-132.051	40.282	189.381	217.596	219.195	158.023	0.010858	0.00067905	0.00014655	941.55	5.4779e-06	5.7145e-06	889.82	332.8	8.8103e-06	6.6669e-06	307.19	124.23	151.52	79.462	3.8449e-06	67.871	0.0097372	0.0001225	2.4823e-05	864.36	9.89e-07	8.791e-07	933.1	305.99	2.0766e-06	1.2986e-06	279.28	144.98	139.05	73.686	2.0171e-06	62.271	62.752	-49.995	-32.545	-123.017	2.450	36.847	-124.143	-118.080	5.936	-30.801	-121.676	-119.675	-115.327	-110.541	9.266	-115.584	-8191	255	
2681.163	1	1	0	0	0.36309	0.14435	0.16513	0.11189	0.095722	0.12462	0.24188	0.16125	0.086311	0.22917	0.058274	0.16136	0.056519	0.34218	0.13659	0.21494	-3.1958	-3.225	-3.0979	-3.6417	-3.1604	-3.3542	-3.5417	-3.2	-3.3312	-3.3875	-3.1833	-3.7021	-3.3292	-3.3187	-3.7	-3.2604	12.203	167.758	185.544	168.166	-22.165	128.310	179.831	-53.736	193.011	87.073	135.366	155.463	-96.170	172.310	23.263	-33.492	0.0070008	0.01403	8.5632e-05	949.76	1.4492e-06	7.2254e-06	888.6	335.39	8.8745e-06	9.7443e-06	309.69	125.45	152.18	79.543	1.0562e-05	67.73	0.0056128	0.001776	2.4875e-05	871.1	1.2805e-06	9.9324e-07	965.25	307.95	1.3378e-06	1.4734e-06	282.19	141.77	139.48	74.028	2.5419e-06	62.552	97.288	205.608	-51.316	-123.227	-48.516	27.113	-123.913	-118.135	-5.255	-20.216	-121.702	-119.735	-115.360	-110.381	32.381	-115.218	-8191	255	
2681.284	1	1	0	0	0.32581	0.12578	0.15554	0.20712	0.19731	0.24443	0.16745	0.39685	0.19046	0.060276	0.14858	0.30459	0.050258	0.19295	0.13052	0.13019	-3.0771	-3.3125	-3.0208	-3.5521	-3.0854	-3.1083	-3.7062	-3.1333	-3.4542	-3.2062	-3.0833	-3.4771	-3.3625	-3.2917	-3.5625	-3.2854	-118.580	-57.854	172.345	102.684	-82.491	201.956	-132.432	191.245	109.692	19.614	-84.864	-106.535	-23.013	-125.807	30.238	128.859	0.008859	0.013883	0.00020654	956.28	3.6257e-06	5.714e-06	894.49	336.54	8.581e-06	1.2409e-05	309.67	128.24	152.63	80.631	8.049e-06	68.638	0.0006288	0.0086684	2.5234e-05	873.28	1.2702e-06	9.5554e-07	947.96	309.32	1.0742e-06	2.3454e-06	284.17	147.32	140.18	74.505	2.0174e-06	63.124	106.638	217.337	-68.195	-123.244	-79.978	48.172	-124.522	-117.940	9.969	0.580	-121.890	-120.092	-115.318	-110.357	4.608	-115.835	-8191	255	
2681.380	1	1	0	0	0.17356	0.096968	0.11554	0.14388	0.18155	0.17183	0.127	0.16701	0.17775	0.060686	0.3062	0.076279	0.18441	0.14985	0.23841	0.26587	-3.1396	-3.3271	-2.9792	-3.7854	-3.2792	-3.1729	-3.5187	-3.1979	-3.4458	-3.5312	-3.1083	-3.4479	-3.2521	-3.2417	-3.5229	-2.8854	19.639	63.507	-122.372	172.476	180.839	187.831	157.766	158.738	24.628	-70.439	164.119	200.659	184.784	152.903	88.354	208.898	0.0014681	0.023175	0.0001537	950.22	4.87e-06	6.9174e-06	878.15	330.42	6.782e-06	1.1428e-05	303.72	127.49	147.39	78.96	4.7382e-06	66.54	0.00017418	0.0093643	2.498e-05	867.02	1.3598e-06	9.375e-07	958.29	304.46	9.9153e-07	1.865e-06	276.85	130.51	142.81	72.989	2.1194e-06	61.429	20.597	-82.600	-53.329	-123.047	2.864	-9.928	-124.332	-117.976	26.219	9.616	-121.940	-118.154	-116.321	-110.214	25.239	-115.389	-8191	255	
2681.476	1	1	0	0	0.12725	0.28911	0.22921	0.025448	0.10895	0.07473	0.23939	0.15931	0.14443	0.099718	0.1697	0.21984	0.09166	0.31336	0.071144	0.044979	-2.8229	-3.4271	-3.0563	-3.5667	-3.3083	-3.0604	-3.6375	-3.2375	-3.1854	-3.4771	-3.2	-3.4146	-3.3542	-3.1937	-3.6542	-3.0875	-48.835	79.111	-52.157	217.740	216.407	180.734	9.106	146.226	160.443	199.571	211.385	186.113	-133.902	154.642	-56.906	137.216	0.0013157	0.028861	0.00013893	936.71	3.742e-06	5.1181e-06	876.89	332.11	6.5453e-06	1.3117e-05	303.57	128.93	147.92	78.966	4.185e-06	67.354	0.00017777	0.010819	2.3635e-05	856.86	1.5607e-06	9.3188e-07	931.04	304.88	1.0792e-06	2.2707e-06	278.27	117.26	159.75	73.264	1.7342e-06	61.876	19.426	-79.954	-40.909	-123.189	-22.478	10.677	-124.613	-117.887	6.303	-12.106	-121.834	-118.604	-116.743	-110.372	51.514	-115.242	-8191	255	
2681.548	1	1	0	0	0.031435	0.085063	0.034496	0.09849	0.044404	0.033984	0.14194	0.37887	0.050896	0.022756	0.066272	0.19666	0.21559	0.16814	0.14063	0.062938	-2.6708	-3.4771	-3.0312	-3.55	-3.45	-3.1229	-3.6083	-3.1917	-3.2958	-3.4854	-3.2729	-3.3729	-3.3271	-3.1271	-3.5854	-3.1479	149.388	190.648	148.925	-78.125	7.830	32.741	200.048	193.257	175.132	50.321	124.943	-101.082	222.158	184.292	-38.496	-88.861	0.0013543	0.024271	0.00014714	949.79	6.3248e-06	6.9973e-06	879.58	334.12	9.2213e-06	8.7224e-06	306.04	129	150.02	79.62	7.0343e-06	67.927	0.00016966	0.0092435	2.5645e-05	866.23	2.3955e-06	9.7358e-07	959.93	306.87	1.0693e-06	1.8307e-06	281.35	117.78	160.54	73.626	2.0429e-06	62.589	18.851	-74.566	-61.836	-123.052	-51.402	0.027	-124.831	-118.185	1.691	4.850	-121.671	-118.679	-116.598	-110.382	-13.488	-115.685	-8191	255	
2681.644	1	1	0	0	0.18345	0.11668	0.077019	0.12245	0.028234	0.14991	0.064068	0.096834	0.15391	0.13148	0.25099	0.24433	0.051131	0.12329	0.090474	0.17021	-2.6479	-3.625	-3.1854	-3.4	-3.3708	-3.1146	-3.5542	-3.4479	-3.0708	-3.5792	-3.2417	-3.4688	-3.6167	-3.0583	-3.5875	-3.4979	-56.017	75.061	72.078	212.758	98.235	53.622	160.087	194.571	210.672	14.880	9.570	-107.052	161.708	183.219	150.954	-118.585	0.0014346	0.024551	0.00015215	949.36	4.4782e-06	5.4306e-06	900.15	331.84	1.1467e-05	8.4745e-06	309.33	129.52	149.41	79.115	8.6406e-06	67.063	0.00017567	0.010723	2.6882e-05	870.06	1.953e-06	9.3676e-07	894.1	321.07	1.1095e-06	2.0264e-06	283.02	117.91	163.33	73.272	1.3565e-06	61.671	19.623	-66.236	-76.830	-123.241	9.463	32.948	-124.466	-118.297	-5.636	-1.071	-121.715	-118.628	-116.600	-110.167	14.503	-115.950	-8191	255	
2681.763	1	1	0	0	0.16074	0.1438	0.14601	0.13715	0.1048	0.25182	0.079848	0.34188	0.062158	0.10704	0.22376	0.34175	0.15562	0.24416	0.21906	0.23793	-2.8521	-3.6333	-3.1271	-3.4208	-3.4813	-3.1104	-3.4875	-3.3979	-3.0271	-3.3917	-3.1917	-3.3396	-3.4188	-3.0625	-3.4417	-3.4104	-1.589	-17.803	54.789	-114.863	-13.973	143.888	46.140	208.162	187.388	183.981	-128.409	170.990	210.674	104.898	14.260	166.300	0.0014183	0.022775	0.00015389	940.59	2.0676e-06	8.2335e-06	888.39	323.69	9.7177e-06	5.8002e-06	302.14	125.75	148.42	78.422	7.9583e-06	66.528	0.00017606	0.0090063	3.0909e-05	860.11	2.3138e-06	9.8511e-07	809.09	348.57	1.0464e-06	1.5358e-06	276.11	115.24	158.15	72.573	1.0544e-06	61.296	20.892	-58.257	-44.326	-122.932	-27.069	21.559	-125.427	-118.278	-7.474	10.368	-121.711	-118.839	-116.670	-110.327	-19.501	-115.514	-8191	255	
2681.859	1	1	0	0	0.094585	0.1537	0.14572	0.22241	0.10466	0.041029	0.19054	0.22809	0.094021	0.067007	0.34483	0.29465	0.29179	0.35145	0.04705	0.10092	-2.6854	-3.7167	-3.2625	-3.4354	-3.4979	-3.0438	-3.4458	-3.3917	-3.0417	-3.4979	-3.2333	-3.3125	-3.6229	-3.1229	-3.1604	-3.625	134.017	5.255	166.563	209.854	125.605	188.920	140.761	-96.092	-124.316	14.490	176.891	184.863	157.778	181.723	140.459	180.781	0.0012555	0.02784	0.00022855	937.66	5.7872e-06	6.9079e-06	892.25	324.28	7.4964e-06	1.0763e-05	305.2	128.02	149.47	78.407	6.1059e-06	66.797	0.00016761	0.01067	3.4238e-05	861.58	1.867e-06	9.5598e-07	813.71	348.3	1.1155e-06	1.9375e-06	278.75	116.74	162.72	73.034	1.0999e-06	61.631	21.645	-49.156	-56.418	-123.002	-22.228	22.105	-125.384	-117.536	-16.831	-27.185	-121.583	-118.445	-116.661	-110.176	-19.575	-115.368	-8191	255	
2681.955	1	1	0	0	0.33586	0.087888	0.087125	0.099197	0.064664	0.12763	0.1433	0.34913	0.17389	0.089611	0.21779	0.16631	0.1151	0.17352	0.18594	0.23601	-2.6042	-3.4333	-3.3	-3.2104	-3.5062	-2.8625	-3.4125	-3.4396	-2.9771	-3.525	-3.3	-3.1271	-3.425	-3.2646	-3.2354	-3.7375	15.382	-22.547	165.648	-34.905	31.650	-69.455	151.486	208.065	193.559	163.438	-122.727	142.660	177.949	152.793	208.147	123.123	0.0014478	0.024026	0.00072025	947.12	4.3721e-06	5.6425e-06	898.41	325.11	5.6292e-06	1.2e-05	306.72	127.88	151.01	79.048	6.0805e-06	67.437	0.00017501	0.0048629	0.00081947	864.2	2.051e-06	1.1983e-06	818.36	357.86	1.0685e-06	1.0873e-06	281.07	117.32	159.92	73.395	1.0608e-06	62.384	21.399	-38.378	203.418	-123.090	-45.590	4.980	-125.459	-117.347	-22.393	0.154	-121.374	-118.601	-116.546	-110.424	-13.150	-115.746	-8191	255	
2682.076	1	1	0	0	0.11811	0.36551	0.10451	0.31758	0.12468	0.095274	0.07785	0.091897	0.23146	0.29735	0.17558	0.11974	0.15451	0.24466	0.056108	0.020795	-2.6104	-3.4938	-3.1417	-3.0708	-3.3438	-3.2708	-3.0896	-3.5667	-3.1	-3.55	-3.25	-3.05	-3.6271	-3.2042	-3.1354	-3.4958	128.264	66.954	-3.195	-89.097	74.716	-120.972	189.263	-32.054	48.538	-7.924	118.139	198.265	49.594	194.399	-83.984	106.004	0.0013402	0.00061639	0.0010154	945.34	6.5878e-06	5.4563e-06	893.79	325.05	6.6522e-06	6.3847e-06	302.66	126.66	148.79	78.413	6.1984e-06	65.741	0.00017571	9.1012e-05	0.0027865	865.34	1.7697e-06	1.1863e-06	817.19	348.02	1.1042e-06	9.1977e-07	276.53	115.26	161.04	72.428	1.1269e-06	60.81	19.214	-49.656	195.707	-123.187	-20.636	1.242	-125.473	-117.523	42.388	-3.693	-121.325	-118.306	-116.568	-110.456	-13.668	-115.643	-8191	255	
2682.148	1	1	0	0	0.13014	0.10241	0.31254	0.089924	0.10895	0.12167	0.22781	0.18558	0.083079	0.062461	0.1713	0.16621	0.58436	0.2592	0.098605	0.14298	-2.6708	-3.4375	-3.3854	-3.2604	-3.4562	-3.2229	-3.2875	-3.6417	-3.1229	-3.3063	-3.6021	-3.1396	-3.4646	-3.3063	-3.0687	-3.5375	-3.048	8.191	-49.130	199.900	-29.174	-90.132	-123.287	204.618	17.505	-54.432	118.661	-125.658	196.174	182.489	191.826	205.624	0.0013963	0.00040818	0.0066086	934.84	7.7616e-06	5.2253e-06	881.89	318.41	5.8347e-06	5.4244e-06	299.94	125.75	151.38	78.202	7.1038e-06	66.544	0.00017419	8.6851e-05	0.0025029	854.07	1.8377e-06	1.2635e-06	804.67	353.36	1.1901e-06	9.6042e-07	274.33	115.24	147.21	75.682	1.1108e-06	61.37	16.670	-45.069	-35.820	-122.937	-14.965	-21.474	-125.619	-118.047	31.557	14.122	-121.432	-118.764	-115.632	-111.014	-10.703	-115.512	-8191	255	
2682.244	1	1	0	0	0.18487	0.037369	0.014915	0.22146	0.11479	0.074782	0.2711	0.12952	0.13124	0.12523	0.28487	0.16889	0.14023	0.16708	0.13203	0.39401	-2.6542	-3.1146	-3.3854	-3.1104	-3.5167	-3.3604	-3.0812	-3.5396	-3.0625	-3.3042	-3.6333	-3.0917	-3.5875	-3.6063	-2.9021	-3.525	110.053	10.583	-118.887	223.630	-92.891	-125.829	124.160	-44.873	-84.046	179.583	-43.304	204.903	-41.260	202.908	208.042	172.256	0.0012551	0.0006614	0.0075965	944.75	5.6809e-06	6.3774e-06	889.79	327.07	6.6214e-06	7.1198e-06	306.97	126.77	150.85	78.703	6.7927e-06	67.085	0.00019585	9.3299e-05	0.0030811	860.92	1.1141e-06	1.6574e-06	813.33	350.17	1.2761e-06	9.2598e-07	279.71	116.35	138.03	82.71	1.1288e-06	61.838	15.725	-36.547	-28.097	-123.138	-7.486	6.767	-125.507	-118.026	-6.783	7.328	-121.692	-118.520	-114.974	-111.531	-3.413	-115.348	-8191	255	
2682.364	1	1	0	0	0.16656	0.13785	0.075115	0.16893	0.071347	0.088248	0.16075	0.19061	0.077067	0.015914	0.046973	0.1557	0.13632	0.10528	0.12526	0.051771	-2.7188	-3.1229	-3.55	-3.1292	-3.2812	-3.3479	-3.1562	-3.4792	-3.2042	-3.1271	-3.6542	-3.1312	-3.4354	-3.4938	-3.0167	-3.7479	47.281	-120.431	21.581	207.093	181.019	87.330	140.881	-128.575	-71.224	-99.472	49.810	-71.062	207.744	-124.137	-70.324	151.179	0.0013758	0.00057292	0.0066077	950.8	3.837e-06	1.2943e-05	900.5	325.27	6.3697e-06	5.7927e-06	308.77	128.49	151.4	79.983	8.3907e-06	67.226	0.00019504	8.649e-05	0.0025736	866.06	9.7623e-07	2.3968e-06	819.48	359.3	1.4714e-06	9.5968e-07	282	117.49	138.68	81.843	1.1617e-06	62.011	18.182	-37.486	-22.240	-122.820	-3.790	-17.229	-125.502	-118.221	9.079	4.612	-121.834	-118.745	-115.254	-111.524	-6.121	-115.572	-8191	255	
2682.460	1	1	0	0	0.26115	0.11392	0.15067	0.21481	0.10291	0.021146	0.34058	0.17819	0.064122	0.18201	0.17266	0.12552	0.15699	0.19583	0.21146	0.10323	-2.9021	-3.2354	-3.6125	-3.2188	-3.3542	-3.6312	-3.1104	-3.5521	-3.1979	-3.2646	-3.6125	-3.2646	-3.3729	-3.5958	-2.875	-3.4667	55.730	48.207	146.129	220.763	-133.081	-129.947	133.492	-94.038	96.740	48.727	-91.372	132.644	-116.050	169.941	146.505	3.368	0.0014324	0.00052789	0.0075801	943.15	4.0863e-06	7.5635e-06	882.19	326.68	0.00038937	5.4634e-06	299.62	125.44	148.25	78.648	5.4694e-06	65.757	0.00020242	8.9701e-05	0.0030296	861.57	1.0038e-06	1.803e-06	806.92	321.46	3.9634e-05	9.2243e-07	274.73	114.2	135.92	81.715	1.1282e-06	60.38	13.730	-59.006	-14.433	-123.463	8.261	-13.487	-125.592	-117.441	212.997	-7.963	-121.525	-118.772	-115.202	-111.574	5.461	-115.343	-8191	255	
2682.557	1	1	0	0	0.12018	0.05494	0.1379	0.18707	0.10028	0.080996	0.17007	0.18341	0.089772	0.12866	0.25626	0.13426	0.067089	0.25496	0.053292	0.13913	-2.9792	-3.0625	-3.5833	-3.275	-3.3125	-3.5667	-3.1188	-3.5875	-3.3438	-3.2104	-3.5146	-3.2438	-3.2313	-3.7188	-2.9938	-3.5208	-30.387	116.379	-58.524	-105.450	133.339	-60.697	184.435	162.757	74.834	168.039	170.943	108.023	-93.620	-122.176	222.172	164.993	0.0013599	0.00052909	0.0065653	934.51	5.9203e-06	1.0676e-05	890.16	328.17	0.00040785	6.3778e-06	300.06	125.89	149.01	79.724	3.1165e-06	66.171	0.00022391	8.954e-05	0.0024801	855.68	1.0081e-06	2.3456e-06	809.25	302.34	0.00011209	1.0222e-06	274.8	115.07	136.71	80.701	1.1452e-06	61.067	16.165	-47.898	-6.996	-123.008	0.674	0.332	-125.550	-117.747	196.060	7.237	-121.887	-118.578	-115.186	-111.242	4.659	-115.687	-8191	255	
2682.677	1	1	0	0	0.098575	0.41664	0.11397	0.20471	0.25218	0.14046	0.34775	0.011407	0.21208	0.22132	0.051542	0.18034	0.25222	0.23516	0.11376	0.17389	-3.0417	-3.1271	-3.4437	-3.2917	-3.3208	-3.4396	-3.0271	-3.4333	-3.3396	-2.9417	-3.4167	-3.3208	-3.2583	-3.7583	-3.0583	-3.4208	192.297	203.352	-115.617	156.039	-22.828	-61.625	161.954	-34.043	110.635	-21.116	160.584	-106.778	-84.884	190.370	-99.231	21.621	0.0014239	0.00041264	0.0072228	936.29	1.6826e-06	9.0058e-06	894.3	330.6	0.00037909	6.0167e-06	304.46	127.21	150.08	80.423	6.7995e-06	66.971	0.00027951	9.3955e-05	0.002964	860.18	9.9388e-07	1.7445e-06	814.79	305.29	9.6529e-05	9.5495e-07	278.47	116.24	137.66	82.656	1.3543e-06	61.69	17.824	-51.327	-2.103	-123.046	-36.596	-10.850	-125.614	-118.094	195.247	-17.683	-121.894	-118.543	-115.407	-111.166	-30.947	-115.870	-8191	255	
2682.749	1	1	0	0	0.19523	0.12584	0.37002	0.18813	0.010598	0.21226	0.39119	0.28478	0.052156	0.039161	0.1635	0.20568	0.11554	0.14973	0.19029	0.055053	-2.9938	-2.8479	-3.4833	-3.1813	-3.0521	-3.55	-3.2604	-3.4208	-3.3667	-2.9792	-3.575	-3.4667	-3.2979	-3.6688	-3.0542	-3.3563	84.311	211.623	94.865	-107.907	217.470	37.031	135.846	194.487	86.133	117.700	-60.454	-121.318	147.985	223.428	-111.089	18.759	0.001351	0.00042733	0.0066203	939.25	4.0165e-06	8.8614e-06	899.18	334.75	0.00042954	4.8915e-06	304.89	126.23	149.28	79.921	8.7092e-06	65.844	0.00024725	9.0343e-05	0.001022	926.16	1.0649e-06	2.0044e-06	821.97	307.39	0.00011163	9.3884e-07	278.51	116.04	137.11	80.676	1.3785e-06	60.765	16.215	-38.825	-12.893	-122.825	4.179	-16.427	-125.471	-118.271	206.097	-8.379	-121.698	-118.570	-115.217	-111.124	-8.030	-115.601	-8191	255	
2682.843	1	1	0	0	0.15411	0.33717	0.22025	0.21958	0.12465	0.092941	0.15281	0.013495	0.087049	0.21351	0.13094	0.43143	0.13878	0.14576	0.13124	0.028833	-3.0167	-3.0208	-3.2854	-3.4125	-3.0563	-3.5042	-3.1542	-3.2979	-3.4833	-2.9104	-3.6562	-3.4333	-2.9979	-3.7167	-3.15	-3.1063	-42.437	-77.297	74.808	192.891	116.672	-110.975	152.204	162.286	134.944	106.382	201.840	202.322	7.823	-125.680	-40.333	-106.827	0.0013228	0.00058798	0.00016934	943.13	4.0744e-06	6.6583e-06	879.79	329.18	0.00038883	5.2513e-06	299.63	125.34	148.22	79.33	5.9665e-06	65.159	0.0002798	8.8791e-05	2.4236e-05	1015.2	1.0026e-06	1.6002e-06	803.93	302.37	9.4862e-05	9.2657e-07	272.48	114.51	136.15	81.39	1.454e-06	60.44	19.492	-61.384	-66.553	-121.544	-35.975	7.076	-125.703	-117.771	207.218	-0.094	-121.951	-118.651	-115.567	-110.534	-10.358	-115.846	-8191	255	
2682.939	1	1	0	0	0.080436	0.11409	0.12589	0.2186	0.062619	0.20838	0.12998	0.23904	0.2502	0.28484	0.10928	0.040751	0.27048	0.27826	0.12211	0.20937	-3.1104	-3.0833	-3.2729	-3.7354	-3.0479	-3.6312	-3.2583	-3.1333	-3.6646	-3.2646	-3.425	-3.4688	-3.0083	-3.6396	-3.3417	-3.2438	139.684	109.699	-108.809	-47.008	144.197	-1.338	-118.345	155.494	-127.947	-123.742	127.425	-113.097	-133.768	174.537	116.724	187.340	0.0013931	0.0007914	0.00019414	940.72	6.2392e-06	6.4746e-06	889.1	330.45	0.00043768	6.6165e-06	302.41	126.14	150.17	79.934	0.00013476	66	0.00023874	9.1146e-05	2.4662e-05	996.74	1.0579e-06	1.5522e-06	812.65	303.93	0.00011347	1.2704e-06	276.62	115.55	137.35	75.658	4.8566e-05	61.173	21.391	-54.515	-55.554	-122.111	-14.807	5.032	-125.437	-117.879	215.106	7.579	-121.586	-118.777	-115.087	-110.371	-95.625	-115.859	-8191	255	
2683.058	1	1	0	0	0.13298	0.18127	0.11746	0.071217	0.16597	0.090723	0.37407	0.11729	0.26344	0.083617	0.04134	0.039568	0.21347	0.39627	0.082558	0.19148	-3.1146	-3.0333	-3.1833	-3.5417	-3.1229	-3.4688	-3.3896	-3.2333	-3.7396	-2.9896	-3.3312	-3.4958	-3.0958	-3.475	-3.1896	-3.1104	78.436	18.996	221.605	-104.833	49.494	-4.035	155.271	84.309	-95.690	19.839	48.369	6.690	-126.033	-113.449	28.342	-104.167	0.0015023	0.00045214	0.00016765	944.01	3.5795e-06	6.1451e-06	904.14	334.41	0.00037384	5.9844e-06	305.99	128.31	150.07	78.944	0.00030362	67.073	0.00026085	0.00011425	2.449e-05	1025.9	1.0039e-06	9.6441e-07	820.81	307.11	9.6406e-05	1.0989e-06	279.97	117.08	138.27	73.364	0.00011307	61.829	18.901	-61.558	-51.819	-121.144	18.475	28.912	-125.789	-117.926	-134.347	-7.088	-121.720	-118.637	-115.552	-110.202	-30.918	-115.927	-8191	255	
2683.154	1	1	0	0	0.10789	0.2596	0.28676	0.16575	0.18598	0.14689	0.14183	0.075855	0.046047	0.056439	0.12891	0.20528	0.28362	0.015477	0.14055	0.19865	-3.1562	-3.05	-3.0958	-3.6188	-2.9729	-3.3458	-3.3979	-3.3	-3.6146	-3.1396	-3.3729	-3.525	-3.3042	-3.525	-3.3042	-3.2125	23.508	50.829	11.573	-64.177	183.514	-32.723	114.409	-28.362	190.130	135.752	120.566	220.513	185.887	40.839	-68.239	98.581	0.0013732	0.00050321	0.000144	949.37	6.1106e-06	4.0783e-06	891.24	330.14	1.6631e-05	5.1325e-06	298.63	124.34	148.19	77.87	0.00027085	65.048	0.00022748	0.00010905	2.4535e-05	1001.3	1.0723e-06	8.8605e-07	813.99	303.24	0.00010061	1.2729e-06	272.54	114.19	136.1	72.027	9.3272e-05	59.976	22.452	-46.854	-46.438	-121.478	-6.843	11.457	-125.386	-117.909	-30.151	-24.615	-121.590	-118.840	-115.121	-110.447	-22.507	-115.346	-8191	255	
2683.251	1	1	0	0	0.20873	0.047099	0.1695	0.27685	0.10548	0.18038	0.097071	0.27293	0.1982	0.069176	0.071753	0.30094	0.2241	0.47201	0.16709	0.34315	-3.1292	-3.3146	-3.1354	-3.6667	-3.1875	-3.2646	-3.4688	-3.1104	-3.4021	-3.2896	-3.2667	-3.6417	-3.2104	-3.5146	-3.35	-3.0563	5.860	15.133	199.289	176.660	-49.152	-117.901	-1.563	1.784	-41.740	126.569	171.771	162.538	190.430	201.620	-100.286	190.758	0.0012946	0.00047294	0.00010999	923.27	5.3514e-06	5.842e-06	877.98	327.67	3.0078e-05	0.00024863	301.95	125.01	148.55	77.83	0.00028695	65.278	0.00020569	0.00012901	2.368e-05	1003.8	1.2302e-06	9.1044e-07	801.81	300.8	2.9271e-05	4.9817e-05	274.02	114.27	136.71	72.116	0.00010476	60.146	19.850	-115.370	-55.445	-121.846	9.408	28.996	-125.771	-118.078	-21.134	209.191	-121.789	-118.746	-115.515	-110.587	-18.007	-115.654	-8191	255	
2683.349	1	1	0	0	0.10236	0.11771	0.27137	0.1359	0.13116	0.20827	0.25211	0.34539	0.18337	0.18896	0.078418	0.11568	0.2253	0.19536	0.16037	0.19589	-3.1917	-3.2687	-2.9125	-3.525	-3.1063	-3.2042	-3.7792	-2.9917	-3.4625	-3.3771	-3.1542	-3.5708	-3.2375	-3.3333	-3.4646	-3.2062	14.070	52.411	182.878	-116.855	37.156	-109.216	202.994	191.016	-21.526	189.115	-55.820	-12.166	140.160	188.697	-92.674	-122.977	0.0013692	0.00064849	0.00011131	933.53	4.0823e-06	6.9332e-06	885.06	331.47	8.035e-06	0.00026519	301.99	125.71	149.11	78.34	0.00026175	65.747	0.0001676	0.0001505	2.4576e-05	983.28	1.1959e-06	9.1784e-07	811.24	304.06	1.1062e-06	0.00010153	276.61	115	137.2	72.477	8.6414e-05	60.589	21.604	-66.790	-37.482	-122.061	-9.418	21.762	-125.790	-117.951	-3.694	-134.360	-121.784	-118.416	-115.452	-110.337	-11.880	-115.585	-8191	255	
2683.443	1	1	0	0	0.13546	0.18146	0.16827	0.21823	0.032389	0.1321	0.37068	0.2585	0.16139	0.084244	0.24163	0.074421	0.25404	0.2141	0.163	0.2279	-3.0563	-3.4375	-2.8812	-3.6104	-3.4042	-3.1667	-3.8229	-3.15	-3.4437	-3.5583	-3.2667	-3.675	-3.3021	-3.2542	-3.4729	-3.3229	114.257	-116.870	-119.361	-103.545	-26.000	41.178	160.949	210.876	-110.946	52.242	-53.111	161.983	-86.901	175.118	122.071	187.855	0.0013234	0.00051065	0.00020831	949.6	4.3785e-06	8.4195e-06	895.09	331.42	7.3779e-06	0.00021045	304.59	126.05	149.81	78.605	0.00025835	65.956	0.00016907	0.00019469	2.4677e-05	974.22	1.3497e-06	9.2434e-07	815.61	305.6	1.0478e-06	8.4124e-05	277.9	116.06	137.88	72.704	8.511e-05	60.544	24.609	-70.908	-47.015	-122.168	2.317	25.491	-125.648	-118.268	17.695	-131.264	-121.573	-118.724	-115.390	-110.438	-2.736	-115.522	-8191	255	
2683.539	1	1	0	0	0.28335	0.12209	0.21269	0.21357	0.14739	0.38081	0.16597	0.13061	0.046338	0.12348	0.13278	0.14572	0.24966	0.089269	0.079982	0.10516	-3.0625	-3.3083	-2.9229	-3.7083	-3.3	-3.0938	-3.6604	-3.0479	-3.3646	-3.4583	-3.2042	-3.4292	-3.4146	-3.2417	-3.6229	-3.1562	13.704	98.290	5.101	147.178	-4.569	-111.143	165.970	210.000	50.672	167.669	132.990	133.959	-126.645	193.880	-18.647	110.235	0.0012836	0.00053084	0.00012879	930.4	0.00015413	5.974e-06	868.99	322.97	9.9113e-06	0.00019847	292.54	123.78	146.65	76.927	0.00020166	64.177	0.00016401	0.00014866	2.541e-05	879.06	4.352e-05	9.1192e-07	796.07	298.56	1.0435e-06	7.633e-05	268.64	112.6	135.16	71.407	7.0694e-05	59.138	20.419	-80.222	-40.037	-121.952	167.127	29.350	-125.450	-118.270	-3.134	-123.190	-121.695	-118.344	-114.735	-110.486	3.481	-115.580	-8191	255	
2683.635	1	1	0	0	0.17673	0.086411	0.18453	0.52983	0.12658	0.1085	0.24114	0.076436	0.18697	0.092284	0.086244	0.031692	0.24126	0.15935	0.14493	0.15564	-2.8729	-3.5625	-3.2396	-3.4021	-3.1479	-3.0896	-3.6792	-3.3	-3.1188	-3.4604	-3.1146	-3.4854	-3.2875	-3.1292	-3.5458	-3.5167	-11.087	160.094	163.508	191.896	115.848	-21.221	114.208	12.243	-69.313	28.276	-119.351	178.417	-76.388	176.324	-16.704	221.402	0.0011719	0.00043489	0.00012597	930.19	0.00016542	5.9251e-06	872.93	326.73	7.2727e-06	0.00020299	297.7	123.5	148.62	78.275	0.00020096	65.285	0.00016545	0.00015496	2.405e-05	851.14	6.7749e-05	9.4031e-07	798.43	300.8	1.0345e-06	6.9761e-05	272.71	113.42	136.42	72.147	5.5596e-05	60.279	23.905	-71.094	-32.886	-123.081	124.181	32.837	-125.543	-118.048	4.877	-115.971	-121.619	-118.790	-115.217	-110.309	14.647	-116.163	-8191	255	
2683.756	1	1	0	0	0.30676	0.17783	0.053562	0.20302	0.16814	0.17012	0.29839	0.20147	0.24616	0.18595	0.34132	0.17363	0.14027	0.12794	0.18473	0.1308	-2.825	-3.6063	-3	-3.5125	-3.4333	-2.9	-3.6729	-3.3812	-3.2333	-3.6063	-3.2062	-3.4625	-3.4833	-3.2042	-3.4146	-3.6021	203.597	-14.283	-105.086	155.474	-100.301	-7.540	-45.378	146.160	207.100	88.767	195.692	184.855	152.189	162.470	150.354	79.036	0.0012074	0.00053131	0.00012975	936.26	0.00014672	5.8169e-06	885.97	328.74	6.5839e-06	0.00016376	301.09	126.06	149.25	78.118	0.00020413	66.137	0.00016525	0.00012559	2.4113e-05	855.65	6.6154e-05	9.3972e-07	807.48	303.22	1.0711e-06	6.5439e-05	275.29	115.04	137.21	72.492	1.5746e-05	65.276	21.123	-78.793	-48.775	-122.968	129.101	18.165	-125.533	-118.044	5.675	-108.046	-121.867	-118.677	-115.244	-110.364	18.478	-115.619	-8191	255	
2683.852	1	1	0	0	0.12861	0.20087	0.1517	0.15289	0.17668	0.049685	0.16224	0.26499	0.21132	0.11322	0.084021	0.26212	0.048465	0.23502	0.24796	0.14721	-2.8896	-3.5708	-3.2833	-3.5542	-3.4062	-3.0979	-3.7	-3.5604	-3.1604	-3.7167	-3.1	-3.3917	-3.7479	-3.2125	-3.5312	-3.4875	-71.156	201.882	82.111	188.235	110.858	43.403	140.617	163.340	-5.163	205.637	194.193	212.613	81.156	204.197	198.328	76.793	0.0012921	0.0004885	0.0001768	935.64	0.00016199	5.4844e-06	887.8	332.74	7.5749e-06	0.0001983	300.14	124.64	147.73	77.732	5.077e-06	64.991	0.00017507	0.00013722	2.9078e-05	859.13	6.3069e-05	9.7091e-07	812.51	305.15	1.0681e-06	6.7903e-05	273.38	113.82	135.85	71.972	1.0996e-06	66.008	20.695	-44.583	-47.657	-123.327	133.698	22.444	-125.655	-117.901	13.589	-98.943	-121.614	-118.594	-115.268	-110.356	-24.028	-114.614	-8191	255	
2683.948	1	1	0	0	0.2772	0.058388	0.14838	0.29469	0.064012	0.10822	0.18619	0.10946	0.17222	0.21733	0.14629	0.1192	0.032055	0.14531	0.077414	0.11237	-2.65	-3.5125	-3.3125	-3.2938	-3.5917	-3.3187	-3.6083	-3.3917	-3.0729	-3.8063	-3.3563	-3.2958	-3.7604	-3.1417	-3.475	-3.4958	-102.138	138.846	-59.021	168.605	42.439	118.316	164.448	192.073	-20.823	-31.055	123.063	-133.951	142.111	143.822	50.098	130.238	0.0012904	0.00065186	0.00019113	923.91	0.00014578	6.3181e-06	862.88	324.11	9.6904e-06	8.5022e-05	290.01	122.2	146.93	76.873	5.276e-06	65.051	0.00017317	0.00012847	2.7681e-05	845.66	6.369e-05	9.1325e-07	788.59	297.77	1.0671e-06	4.9434e-05	269.83	112.1	135.13	71.491	1.0637e-06	65.985	21.962	-41.766	-47.673	-123.321	136.564	10.395	-125.471	-118.089	-1.532	-34.684	-122.926	-118.709	-115.157	-110.368	6.757	-114.699	-8191	255	
2684.044	1	1	0	0	0.17047	0.13604	0.22534	0.14616	0.06039	0.25325	0.14759	0.087052	0.31367	0.13762	0.18717	0.21493	0.23444	0.17475	0.046588	0.10802	-2.6021	-3.5021	-3.2458	-3.3708	-3.6042	-3.2042	-3.4396	-3.5958	-3.0958	-3.5812	-3.3042	-3.0729	-3.7021	-3.2479	-3.3729	-3.5771	55.568	160.744	156.961	176.990	-127.780	-39.339	67.424	54.046	-79.694	116.302	113.441	133.228	212.551	196.181	63.762	-132.996	0.0012833	0.00055413	0.0001457	935.49	0.00014521	6.3533e-06	869.96	327.65	9.583e-06	9.9104e-05	296.1	123.42	149.56	77.692	4.8629e-06	65.699	0.00016318	0.00010503	3.1339e-05	851.51	5.6938e-05	1.0927e-06	797.39	301.25	1.1225e-06	1.2604e-05	302.74	113.59	136.86	72.031	1.1249e-06	66.064	19.303	-57.452	-77.706	-122.934	144.201	21.863	-125.872	-118.118	6.746	-30.875	-123.043	-118.619	-115.319	-110.566	-5.651	-114.823	-8191	255	
2684.140	1	1	0	0	0.043225	0.1375	0.069526	0.24829	0.105	0.069931	0.23193	0.18603	0.10882	0.01299	0.33091	0.28145	0.28739	0.23851	0.15264	0.04512	-2.6896	-3.3208	-3.2708	-3.2167	-3.5479	-3.1396	-3.3646	-3.4896	-3.1125	-3.3563	-3.3333	-3.1333	-3.6333	-3.2729	-3.2396	-3.5833	21.856	121.044	129.916	218.212	-92.745	-38.150	211.764	-102.573	-82.683	85.565	181.609	160.062	197.482	188.995	82.272	43.453	0.0012109	0.00072457	0.00016389	938.44	0.00013533	5.1817e-06	887.16	330.7	8.8528e-06	3.6626e-06	303.5	126.07	149.42	78.374	6.5663e-06	66.248	0.0001677	8.7279e-05	3.7354e-05	856	5.9269e-05	1.0924e-06	807.21	303.99	1.0309e-06	9.0706e-07	313.27	115.2	137.25	72.513	1.0938e-06	66.936	18.974	-57.448	-51.155	-123.080	154.862	28.111	-125.264	-117.938	-10.995	-3.991	-122.732	-118.331	-115.079	-110.188	-6.541	-114.393	-8191	255	
2684.235	1	1	0	0	0.12993	0.1653	0.19765	0.25021	0.19827	0.14963	0.06543	0.068687	0.17541	0.03264	0.17656	0.32016	0.26964	0.123	0.25976	0.27921	-2.6333	-3.425	-3.2146	-3.0563	-3.5708	-3.2313	-3.1104	-3.7	-3.0125	-3.2104	-3.2896	-3.1354	-3.6229	-3.2188	-3.2042	-3.6188	187.902	147.362	-53.101	194.049	123.239	-80.056	103.919	101.830	-13.867	51.151	58.421	175.403	201.254	181.927	-46.556	172.191	0.0012827	0.00044561	0.00013615	935.57	5.2584e-05	0.00013321	870.15	324.56	8.2104e-06	3.9366e-06	297.44	122.04	145.9	76.755	4.9426e-06	63.852	0.00016976	9.1814e-05	4.0093e-05	854.13	3.6187e-05	5.6759e-06	794.59	298.69	1.1436e-06	8.4822e-07	308.16	111.5	134.28	71.159	1.1147e-06	62.957	21.796	-24.441	-59.413	-123.171	88.233	196.498	-125.748	-117.978	-4.465	18.491	-123.053	-118.719	-115.067	-110.093	-28.831	-115.099	-8191	255	
2684.355	1	1	0	0	0.17706	0.090875	0.026188	0.11613	0.12657	0.091625	0.090303	0.31954	0.11334	0.10419	0.20439	0.10315	0.077185	0.11448	0.36191	0.39528	-2.5979	-3.2042	-3.4521	-3.1917	-3.4604	-3.2438	-3.2479	-3.6437	-3.1521	-3.3187	-3.5667	-3.1021	-3.5792	-3.4292	-3.0792	-3.5271	162.647	-111.754	75.156	-69.001	86.748	-108.950	194.808	173.580	219.656	67.705	147.150	-18.361	-119.159	151.170	-8.990	112.381	0.0011345	0.00064932	0.00015467	920.56	4.4597e-05	0.00015011	858.86	323.94	1.1649e-05	7.0295e-06	299.7	124.08	147.72	77.323	5.286e-06	64.779	0.00017795	8.6691e-05	3.4727e-05	842.63	7.8337e-06	3.6687e-05	787.99	298.6	1.1008e-06	9.2657e-07	299.33	112.87	135.84	71.757	1.1269e-06	65.021	17.022	-42.313	-75.753	-123.296	74.549	200.010	-125.461	-117.878	20.834	4.436	-122.586	-118.277	-115.035	-110.295	-22.341	-114.791	-8191	255	
2684.452	1	1	0	0	0.11046	0.13379	0.16675	0.1539	0.16212	0.17271	0.062174	0.14072	0.077037	0.064899	0.1763	0.16975	0.26695	0.070722	0.093056	0.34394	-2.8042	-3.2271	-3.2583	-3.0604	-3.2646	-3.3458	-3.0958	-3.5583	-3.225	-3.3333	-3.5625	-3.1458	-3.4688	-3.4667	-3.3292	-3.7333	-125.977	-122.752	-91.282	214.036	88.677	106.507	204.268	189.182	145.660	161.017	199.249	157.780	-91.342	135.941	-96.936	197.406	0.0013067	0.00051926	0.00016797	929.65	4.0732e-06	9.8349e-05	877.02	328.22	7.5244e-06	5.2722e-06	305.2	125.18	149.19	78.188	5.6778e-06	65.564	0.00017635	8.5219e-05	3.3042e-05	849.89	1.0346e-06	4.0016e-05	800.63	302	1.169e-06	8.9893e-07	313.09	114.59	137.18	72.22	1.1289e-06	63.184	18.863	-48.469	-62.577	-122.824	-23.815	185.904	-125.707	-117.768	10.374	-10.874	-122.338	-118.844	-115.246	-110.483	-12.517	-114.799	-8191	255	
2684.548	1	1	0	0	0.059286	0.22528	0.056412	0.11093	0.21066	0.24826	0.25119	0.022852	0.093118	0.18248	0.18891	0.050958	0.13096	0.2401	0.16657	0.053811	-2.9583	-3.1917	-3.5625	-3.0187	-3.3042	-3.4875	-3.0438	-3.5771	-3.225	-3.3604	-3.6813	-3.1833	-3.2438	-3.5292	-3.0646	-3.6354	194.141	-121.829	141.059	194.792	110.657	-66.865	133.337	79.916	-60.627	-82.944	-131.970	102.457	-58.678	-100.288	107.895	100.841	0.0013221	0.00055912	0.00016984	936.32	4.7865e-06	0.00014621	887.58	333.62	1.1485e-05	7.1196e-06	308.57	126.67	150.46	78.042	5.5401e-06	65.09	0.00062437	8.8483e-05	3.3506e-05	856.9	1.0571e-06	5.2261e-05	811.57	306.36	1.3626e-06	9.6042e-07	306.69	116.08	138.1	72.437	1.0802e-06	60.452	-31.100	-55.273	-65.813	-122.949	-13.746	188.467	-125.714	-117.986	14.527	-5.720	-122.322	-118.659	-115.140	-110.522	-7.527	-114.532	-8191	255	
2684.644	1	1	0	0	0.26964	0.27362	0.13163	0.21372	0.15639	0.095887	0.16474	0.21315	0.16612	0.26132	0.12089	0.31255	0.15429	0.33531	0.10052	0.04727	-2.8021	-3	-3.3917	-3.2271	-3.425	-3.6354	-3.1688	-3.4833	-3.1792	-3.0229	-3.4958	-3.1521	-3.3104	-3.5604	-3.0646	-3.6188	157.240	4.219	85.738	136.980	217.703	126.379	197.222	198.219	146.391	-18.396	105.933	146.388	-67.186	138.522	41.803	-62.474	0.0021307	0.00065729	0.00020592	927.16	5.3282e-06	0.00010004	869.46	325.81	8.0938e-06	3.544e-06	301.57	123.16	147.94	76.765	5.5496e-06	63.864	0.0032704	8.9915e-05	3.1533e-05	847.37	9.9087e-07	4.0728e-05	792.72	299.74	1.5391e-06	9.3795e-07	309.66	112.2	135.88	71.159	1.077e-06	58.961	-56.840	-51.914	-43.956	-123.056	3.048	196.459	-125.364	-117.643	12.397	-25.888	-122.408	-118.927	-115.164	-110.545	-5.582	-115.517	-8191	255	
2684.740	1	1	0	0	0.070352	0.2016	0.036381	0.11625	0.20075	0.042831	0.11205	0.26439	0.18408	0.099177	0.062094	0.019507	0.28781	0.30238	0.12031	0.04623	-2.8396	-2.9583	-3.6083	-3.4521	-3.1292	-3.5729	-3.1813	-3.4729	-3.4729	-3.1042	-3.5917	-3.2271	-3.2979	-3.6375	-3.2417	-3.4021	15.783	65.375	204.259	137.421	21.191	90.565	-85.764	189.643	42.110	135.616	209.010	155.253	189.126	182.779	210.812	90.455	0.0021105	0.00059299	0.00020056	922.03	5.9214e-06	0.00014734	875.77	329.42	8.6216e-06	5.341e-06	306.9	125.61	150.43	77.263	5.7311e-06	64.833	0.0036378	9.2738e-05	3.3842e-05	846.84	1.0412e-06	5.5987e-05	798.34	302.57	1.5438e-06	9.5983e-07	296.45	116.42	137.87	71.805	1.2315e-06	59.828	192.542	-38.790	-57.361	-123.207	-11.034	205.530	-125.566	-118.115	15.316	6.899	-121.955	-119.061	-115.599	-110.292	-1.391	-115.516	-8191	255	
2684.836	1	1	0	0	0.084712	0.099574	0.051008	0.073747	0.12188	0.18691	0.16129	0.04119	0.2122	0.11021	0.04999	0.076441	0.17639	0.23317	0.19805	0.19675	-2.8875	-3	-3.4917	-3.3396	-3.1437	-3.5021	-3.175	-3.3958	-3.2583	-2.9771	-3.6479	-3.5271	-3.1208	-3.6688	-3.2896	-3.4292	-42.441	42.964	62.442	103.598	192.110	79.153	94.981	120.653	159.053	197.649	-78.272	125.128	120.405	171.744	41.763	182.829	0.0035631	0.00068865	0.0001822	932.02	3.5118e-06	0.00013076	879.94	330.51	1.1285e-05	7.5589e-06	311.25	126.63	151.33	77.694	7.4788e-06	65.609	0.0047998	8.9794e-05	2.7233e-05	852.87	1.03e-06	5.3056e-05	802.22	304.33	1.5544e-06	9.6279e-07	278.39	127.87	138.41	72.21	1.291e-06	60.251	205.053	-31.137	-66.699	-123.122	-24.932	214.478	-125.624	-117.687	41.805	-5.183	-121.806	-119.103	-115.435	-110.442	-7.242	-115.527	-8191	255	
2684.932	1	1	0	0	0.15947	0.13176	0.29341	0.080635	0.20672	0.18447	0.17908	0.099776	0.079069	0.1466	0.16634	0.18943	0.064317	0.15562	0.1553	0.1238	-3.0583	-2.9167	-3.3104	-3.3375	-3.0583	-3.6937	-3.3063	-3.3729	-3.4083	-3.0687	-3.4646	-3.3354	-3.1896	-3.5479	-3.125	-3.2958	156.658	71.820	155.764	174.847	-129.377	141.694	32.365	-82.742	214.149	-87.989	189.192	79.380	-87.690	140.270	60.173	154.822	0.0064307	0.0005711	0.00016855	924.68	5.9737e-06	0.00031785	872.92	328.11	9.4432e-06	5.2396e-06	291.32	128.29	147.31	75.744	4.9269e-06	62.137	0.0077392	9.0222e-05	2.3534e-05	850.46	1.0699e-06	0.00011679	796.4	301.73	2.7558e-06	9.4638e-07	267.39	147.97	135	70.441	1.3024e-06	57.352	220.164	-60.268	-59.199	-122.940	-5.800	218.348	-125.657	-117.978	72.257	-2.933	-122.019	-119.155	-115.159	-110.349	-21.670	-115.479	-8191	255	
2685.029	1	1	0	0	0.19754	0.18981	0.11041	0.067164	0.050274	0.21688	0.23105	0.19445	0.043206	0.15607	0.17911	0.34596	0.15814	0.092056	0.33571	0.080666	-3.0854	-2.9042	-3.4188	-3.4375	-3.0396	-3.5438	-3.4708	-3.3333	-3.5875	-3.1729	-3.3042	-3.5938	-3.0187	-3.5979	-3.2438	-3.1292	64.828	-111.755	-46.251	-23.008	-48.854	-129.659	169.561	154.658	-76.256	124.241	216.069	207.170	-124.395	72.434	122.570	115.412	0.010513	0.00063672	0.00016515	901.86	6.9156e-06	9.6648e-05	827.46	318.44	7.2937e-06	9.797e-07	286.69	126.06	144.85	75.45	9.5088e-06	61.77	0.011782	9.1172e-05	2.1935e-05	828.4	9.8828e-07	0.00012029	812.65	293.45	2.0183e-06	1.2247e-06	261.4	147.38	133.43	69.979	2.6798e-06	57.125	215.918	-50.115	-49.095	-123.151	2.825	-22.738	-128.408	-117.909	56.264	47.120	-121.903	-118.589	-115.357	-110.274	-103.120	-115.693	-8191	255	
2685.147	1	1	0	0	0.063993	0.19307	0.32011	0.25444	0.15652	0.14723	0.12998	0.13882	0.20985	0.075156	0.035895	0.069425	0.24818	0.19447	0.14723	0.27889	-3.2208	-3.1875	-3.3187	-3.4917	-3.0896	-3.4708	-3.5021	-3.2208	-3.5667	-2.9708	-3.4104	-3.4896	-3.1104	-3.6542	-3.2646	-3.2542	-125.229	-135.939	8.381	217.808	46.809	-4.306	153.471	186.464	147.425	169.927	-38.487	-103.166	144.212	193.011	-33.373	209.784	0.016982	0.0005113	0.000118	905.84	3.7016e-06	0.00010268	846.07	323.15	1.18e-05	3.9954e-06	294.03	131.79	147.93	76.031	4.2843e-06	63.514	0.017922	0.00013302	2.4576e-05	833.87	9.6691e-07	2.4444e-06	956.21	297.26	3.0524e-06	1.5678e-06	266.92	164.98	135.37	70.693	2.7734e-06	58.322	-132.413	-19.563	-37.737	-123.336	13.453	-35.109	-128.258	-118.046	64.678	10.350	-121.668	-118.256	-115.415	-110.485	-69.529	-115.493	-8191	255	
2685.244	1	1	0	0	0.094629	0.19113	0.14423	0.030505	0.21711	0.16961	0.062628	0.11897	0.20466	0.29505	0.11339	0.29932	0.32197	0.12329	0.22614	0.17728	-3.175	-3.0229	-3.1521	-3.4833	-3.0271	-3.6	-3.3375	-3.1583	-3.5667	-3.125	-3.1625	-3.6625	-3.0958	-3.6271	-3.4771	-3.2458	120.442	96.233	-108.136	-70.917	-3.962	206.111	123.746	153.867	-46.676	49.765	201.448	-93.634	184.669	92.844	-19.156	205.003	0.014995	0.00055821	0.00015001	910.47	3.8283e-06	6.6828e-06	858.82	324.03	1.1855e-05	5.8277e-06	292.64	130.02	147.66	76.176	1.1888e-05	63.265	0.015636	0.00012185	2.3205e-05	838.23	1.0157e-06	8.519e-07	1072.2	297.57	2.2025e-06	1.2892e-06	267.49	157.79	135.21	70.893	3.917e-06	58.601	-125.864	-37.573	-46.793	-123.007	-7.196	15.249	-129.137	-117.806	13.358	-5.013	-121.468	-117.486	-115.199	-110.286	-70.573	-115.303	-8191	255	
2685.317	1	1	0	0	0.12525	0.10815	0.38069	0.31132	0.13223	0.3477	0.080395	0.24321	0.15758	0.082735	0.069273	0.3051	0.07767	0.39563	0.22063	0.17498	-3.025	-3.3333	-3.0542	-3.4625	-3.0333	-3.4	-3.6063	-3.0875	-3.4479	-3.3063	-3.1562	-3.7667	-3.2042	-3.3875	-3.4938	-3.0542	203.928	140.400	21.797	122.250	-7.818	-63.724	143.790	124.504	187.082	-31.517	-104.687	212.099	118.389	170.624	106.452	54.249	0.015238	0.043719	9.8405e-05	908.35	4.8789e-06	5.0416e-06	847.5	319.22	6.779e-06	1.766e-07	283.38	127.48	144.96	74.9	6.7934e-06	60.992	0.012182	0.0063676	2.3295e-05	833.37	1.3492e-06	8.8708e-07	986.78	293.25	1.6599e-06	2.8607e-06	258.3	163.87	132.8	69.445	2.5609e-06	56.287	187.587	113.658	-70.913	-122.900	8.742	0.738	-128.346	-118.141	35.892	102.347	-121.601	-117.117	-115.154	-110.359	-69.168	-115.400	-8191	255	
2685.436	1	1	0	0	0.2202	0.26971	0.21019	0.045065	0.41218	0.29389	0.12867	0.17393	0.21541	0.063107	0.066184	0.3526	0.21179	0.21712	0.040676	0.12712	-3.1229	-3.2771	-3	-3.6792	-3.0333	-3.3583	-3.5896	-3.1562	-3.6667	-3.4271	-3.2313	-3.6875	-3.2708	-3.3771	-3.6021	-3.1771	-12.540	34.085	69.645	58.677	133.295	143.777	84.713	-27.571	-64.513	-72.696	-119.684	162.319	148.484	184.791	122.866	-112.957	0.0012469	0.032226	0.00012738	886.08	5.7241e-06	5.2674e-06	838.7	314.01	6.8878e-06	7.3811e-06	280.3	121.37	142.08	74.532	1.1776e-05	61.261	0.00015442	0.014034	2.2305e-05	816.19	1.4527e-06	8.7067e-07	973.49	288.6	1.0248e-06	2.0864e-06	255.28	135.85	130.92	69.076	2.5309e-06	56.305	18.605	113.623	-58.934	-123.061	22.381	2.166	-128.354	-117.965	5.499	61.706	-121.476	-117.220	-115.224	-110.205	-61.436	-115.392	-8191	255	
2685.532	1	1	0	0	0.23511	0.2236	0.13576	0.035789	0.055294	0.040054	0.03958	0.24907	0.11215	0.26676	0.17624	0.20173	0.19845	0.18648	0.096065	0.29608	-2.9292	-3.3167	-2.9708	-3.6542	-2.9458	-3.1688	-3.6875	-3.2188	-3.3771	-3.3083	-3.1583	-3.6063	-3.3104	-3.3563	-3.4208	-3.1292	91.622	150.147	-80.149	51.642	-50.445	-126.794	130.881	183.060	85.645	153.678	-120.762	163.467	173.537	-95.270	-55.208	131.570	0.0012413	0.027825	0.00010754	887.32	5.5952e-06	5.0237e-06	833.32	315.82	8.0518e-06	2.6459e-06	281.83	118.77	143.47	74.652	7.4819e-06	61.56	0.00015921	0.010777	2.3736e-05	816.77	1.123e-06	8.3002e-07	845.34	289.48	1.0278e-06	1.662e-06	257.09	113.85	135.31	69.05	1.4368e-06	56.643	16.591	77.939	-50.269	-122.602	9.217	24.809	-126.682	-117.945	18.614	32.889	-121.284	-117.622	-115.258	-110.023	-33.072	-115.556	-8191	255	
2685.628	1	1	0	0	0.322	0.24822	0.17001	0.17957	0.10731	0.038997	0.30737	0.22879	0.045064	0.10876	0.33319	0.2159	0.35497	0.15794	0.20594	0.15633	-3.0396	-3.4208	-2.9375	-3.7042	-3.1042	-3.275	-3.5354	-3.2333	-3.4062	-3.4437	-3.1042	-3.6458	-3.4542	-3.2792	-3.525	-3.1875	-22.635	-43.966	-112.601	206.457	160.066	152.528	158.507	162.047	-78.451	-100.267	202.434	175.479	-123.291	206.338	154.689	150.184	0.0012398	0.01249	9.3003e-05	893.12	5.2604e-06	8.2302e-06	830.18	315.07	5.3819e-06	7.7157e-06	284.14	117.25	142.88	73.638	6.8935e-06	59.913	0.00016228	0.0050402	2.4386e-05	818.48	1.1728e-06	9.3425e-07	795.16	290.37	1.0511e-06	1.3168e-06	257.83	106.98	140.37	68.117	1.3273e-06	55.113	18.419	83.368	-53.502	-122.847	-16.615	36.878	-125.697	-117.857	18.110	-1.754	-121.773	-118.255	-115.272	-110.004	-13.243	-115.709	-8191	255	
2685.749	1	1	0	0	0.25701	0.10718	0.21024	0.25867	0.13213	0.13135	0.11213	0.16503	0.041343	0.10772	0.3443	0.09384	0.14857	0.30775	0.19582	0.29421	-2.7646	-3.4792	-3.0917	-3.4708	-3.2354	-3.0354	-3.75	-3.1979	-3.0792	-3.5292	-3.0833	-3.5646	-3.3417	-3.2042	-3.4458	-3.1708	-54.439	-4.101	151.061	196.028	-115.067	66.038	46.619	96.683	46.835	-128.673	180.167	-126.211	222.575	-124.982	-63.535	193.427	0.001162	0.0083326	0.00014172	877.36	3.8866e-06	6.6119e-06	794.61	305.57	8.6295e-06	5.5215e-06	266.61	111.34	137.34	71.053	5.1868e-06	58.251	0.00015188	0.0031827	2.3657e-05	798.68	1.3649e-06	8.7333e-07	778.45	280.02	9.9538e-07	1.3165e-06	243.26	101.65	133.06	66.022	1.2627e-06	53.304	19.901	88.166	-48.578	-123.039	-33.061	1.018	-126.142	-117.598	-19.707	3.253	-121.426	-118.392	-114.974	-110.087	-13.796	-115.191	-8191	255	
2685.845	1	1	0	0	0.18675	0.11694	0.06977	0.46652	0.18177	0.11758	0.11921	0.22828	0.16344	0.13435	0.28638	0.37659	0.21577	0.30131	0.30945	0.072349	-2.8625	-3.525	-3.0771	-3.4813	-3.3396	-2.9521	-3.7042	-3.3417	-3.1625	-3.5979	-3.0625	-3.4708	-3.6521	-3.2354	-3.5625	-3.3708	117.298	83.554	51.809	205.066	-89.068	48.954	151.659	186.096	196.486	183.320	-135.760	207.854	-87.460	182.081	154.162	-69.447	0.0012131	0.0091648	0.00015302	869.96	5.8591e-06	6.3574e-06	788.85	304.54	8.8092e-06	2.8542e-06	266.36	111.03	139.64	70.952	8.2159e-06	58.152	0.00015423	0.0044478	2.5185e-05	795.12	1.2973e-06	9.0956e-07	737.37	284.98	1.0514e-06	1.2394e-06	242.88	101.91	137.47	66.092	1.0618e-06	53.541	17.502	97.592	-18.383	-122.829	6.433	33.327	-125.164	-118.067	-8.394	18.313	-121.258	-118.165	-114.531	-109.977	-9.362	-115.129	-8191	255	
2685.917	1	1	0	0	0.17806	0.040851	0.060009	0.42289	0.15927	0.25889	0.14313	0.47614	0.15922	0.19986	0.1018	0.13137	0.15411	0.29001	0.034495	0.22438	-2.7396	-3.4104	-3.0312	-3.2646	-3.4792	-2.8646	-3.5125	-3.425	-3.1292	-3.5917	-3.0625	-3.425	-3.5042	-3.1854	-3.4188	-3.325	114.220	158.741	107.054	182.875	2.046	-17.113	206.541	154.612	-99.590	-70.140	88.433	222.451	75.066	175.225	-94.274	-70.854	0.0010613	0.0063733	0.00012871	869.86	5.9079e-06	4.9012e-06	799.29	306.96	4.2648e-06	5.5902e-06	271.4	113.69	140.86	71.891	5.5978e-06	58.43	0.00015095	0.0030924	2.6362e-05	796.47	1.3524e-06	8.7659e-07	727.44	303.94	9.8325e-07	1.1949e-06	248.24	103.8	136.17	66.588	1.0488e-06	54.009	21.623	109.131	-45.102	-123.080	3.654	17.035	-125.277	-118.377	-2.157	-16.093	-121.081	-118.100	-114.594	-110.181	15.296	-115.284	-8191	255	
2686.037	1	1	0	0	0.13557	0.069857	0.22496	0.12356	0.039274	0.18951	0.24975	0.22892	0.27138	0.12749	0.30914	0.1193	0.20841	0.20254	0.15276	0.16105	-2.7542	-3.4583	-3.0875	-3.2417	-3.5167	-2.8604	-3.7042	-3.3	-3.1479	-3.7021	-3.0167	-3.1667	-3.5854	-3.225	-3.5229	-3.5	-39.730	-116.724	-32.266	114.781	152.610	-13.057	191.886	147.257	-68.963	58.952	163.400	-65.237	160.152	215.702	67.794	98.870	0.0011215	0.011348	0.00014384	872.38	8.1481e-06	3.3466e-06	790.35	308.4	7.4701e-06	5.9094e-06	262.51	110.09	138.01	70.094	7.0694e-06	56.601	0.00015708	0.0050312	2.7857e-05	797.2	1.4082e-06	8.5145e-07	722.22	296.05	1.0021e-06	1.1563e-06	241.14	100.53	137.9	64.909	1.086e-06	52.123	22.550	112.967	-46.890	-122.887	16.251	23.209	-125.217	-117.857	3.561	-23.191	-121.325	-118.345	-113.998	-109.788	-9.073	-115.136	-8191	255	
2686.132	1	1	0	0	0.078414	0.1196	0.022546	0.21503	0.29834	0.30505	0.16208	0.28893	0.1761	0.14616	0.15695	0.12015	0.12882	0.34743	0.14795	0.12219	-2.6646	-3.4354	-3.1417	-3.0729	-3.2146	-3.0604	-3.3083	-3.5687	-3.1437	-3.5604	-3.4083	-3.3	-3.6854	-3.3187	-3.1188	-3.4771	-45.468	-124.772	-108.514	209.788	179.496	-63.059	184.211	192.957	-8.941	196.013	141.027	188.332	175.830	208.180	155.699	78.294	0.0011263	0.0049155	0.0037776	857.2	4.9211e-06	5.3831e-06	771.17	306.91	9.078e-06	7.3363e-06	261.28	109.07	139.48	69.955	5.905e-06	56.662	0.00014953	0.0025032	0.00063975	784.06	1.4964e-06	1.063e-06	705.2	315.4	1.0164e-06	1.0207e-06	239.66	99.985	150.36	64.852	1.0567e-06	52.478	15.647	31.690	136.944	-122.769	9.513	22.939	-125.546	-118.334	11.182	2.746	-121.435	-117.946	-113.244	-109.929	-12.415	-114.914	-8191	255	
2686.228	1	1	0	0	0.20751	0.099857	0.064783	0.1673	0.14609	0.086247	0.17986	0.22957	0.11226	0.059792	0.24814	0.19238	0.10238	0.2132	0.21717	0.15641	-2.5771	-3.3667	-3.225	-3.2271	-3.7208	-3.0604	-3.5396	-3.5958	-3.025	-3.4417	-3.3229	-3.0896	-3.6771	-3.1583	-3.2167	-3.5021	85.212	-105.790	183.922	219.926	112.692	1.952	161.362	146.599	-41.509	215.560	-124.511	-119.448	-35.267	177.619	31.387	-59.972	0.0012451	0.00048555	0.0072099	864.35	5.4287e-06	8.0949e-06	787.76	312.24	7.9579e-06	7.2511e-06	267.23	110.85	139.43	70.769	5.5216e-06	57.691	0.00016176	8.2878e-05	0.0028718	790.67	1.935e-06	1.1985e-06	720.02	329.08	1.0558e-06	8.5931e-07	243.62	101.51	146.47	65.628	1.0385e-06	53.257	22.729	-41.129	120.285	-122.928	6.950	33.874	-125.291	-118.572	16.217	6.853	-121.107	-118.276	-113.511	-109.966	12.582	-115.407	-8191	255	
2686.324	1	1	0	0	0.04121	0.17194	0.17079	0.20516	0.13061	0.048253	0.077054	0.25096	0.052574	0.033585	0.14958	0.095924	0.26317	0.16297	0.24393	0.16776	-2.6479	-3.4708	-3.4	-3.2167	-3.5438	-3.2875	-3.3417	-3.5687	-3.0938	-3.4938	-3.5333	-3.0708	-3.6958	-3.4292	-3.0958	-3.4521	-74.689	110.477	170.113	-134.017	63.928	190.977	-97.300	206.472	-29.220	197.708	-74.617	114.827	196.236	187.030	51.039	-103.899	0.0011168	0.00055033	0.0041355	872.04	4.7911e-06	1.4745e-06	798.69	312.12	7.6881e-06	5.218e-06	270.31	112.01	140.15	71.12	4.2786e-06	58.527	0.00015618	8.8671e-05	0.0018631	796.86	1.2822e-06	1.1346e-06	728.76	313.93	1.1405e-06	8.2457e-07	247.88	102.84	132.29	68.188	9.9993e-07	53.858	17.336	-65.833	129.963	-122.820	17.822	77.665	-125.311	-118.130	8.819	2.584	-121.832	-118.192	-113.997	-109.803	-23.408	-115.016	-8191	255	
2686.445	1	1	0	0	0.16807	0.21517	0.30318	0.17014	0.11481	0.1637	0.11879	0.20398	0.084266	0.090466	0.15783	0.16629	0.4746	0.09457	0.10083	0.044076	-2.6813	-3.2396	-3.35	-3.0521	-3.5208	-3.3208	-3.1979	-3.4542	-3.0042	-3.2917	-3.3667	-3.1063	-3.4271	-3.4667	-3.0667	-3.7104	-134.541	-104.984	161.988	166.499	89.897	-41.579	70.543	178.039	185.788	-102.760	-42.115	-124.310	-127.412	209.549	206.550	167.955	0.0012206	0.00050571	0.0040754	863.45	5.9136e-06	7.6289e-06	778.11	303.37	7.8153e-06	6.8121e-06	261.92	108.95	136.43	69.79	5.3548e-06	56.307	0.00017	8.1594e-05	0.0016001	792.32	9.3549e-07	1.3768e-06	711.96	295.31	1.1046e-06	9.2465e-07	239.6	99.759	125.08	69.191	1.0756e-06	51.889	21.787	-71.014	142.129	-122.758	2.050	47.834	-125.264	-117.967	-2.472	5.959	-121.279	-118.452	-114.760	-109.409	-38.308	-115.043	-8191	255	
2686.541	1	1	0	0	0.19105	0.28172	0.067803	0.19735	0.083335	0.17923	0.034881	0.20934	0.19563	0.12352	0.2101	0.18062	0.15589	0.28875	0.075403	0.079723	-2.7583	-3.3375	-3.4417	-3.1	-3.3042	-3.2062	-3.3708	-3.7271	-3.2062	-3.1854	-3.5833	-3.0229	-3.4625	-3.3104	-2.9542	-3.6208	18.525	182.636	91.558	36.156	-107.733	175.065	140.748	223.617	-39.728	49.261	158.486	-10.882	10.827	191.867	169.075	153.611	0.0011368	0.00045087	0.0024416	855.29	4.2444e-06	7.5702e-06	782.74	305.33	7.4043e-06	4.5564e-06	264.51	109.99	137.11	70.68	5.2701e-06	57.282	0.00016329	8.1286e-05	0.0010597	783.59	9.2158e-07	1.384e-06	713.61	301.82	1.1169e-06	8.4674e-07	241.85	100.96	126.04	68.726	1.017e-06	52.852	18.627	-38.628	140.601	-123.067	-3.884	27.997	-125.254	-117.429	4.877	-14.564	-121.127	-118.317	-114.780	-109.687	-43.193	-114.907	-8191	255	
2686.612	1	1	0	0	0.2245	0.22589	0.2186	0.23955	0.15862	0.17553	0.25618	0.3804	0.054855	0.055503	0.11192	0.044621	0.058407	0.14663	0.074055	0.23991	-2.7333	-3.1625	-3.45	-3.1896	-3.4062	-3.2417	-2.8937	-3.5354	-3.2917	-3.1833	-3.5833	-3.0896	-3.425	-3.5625	-3.1521	-3.5563	218.247	-57.076	-101.361	-30.358	82.755	32.870	214.223	189.667	6.355	-92.315	-119.877	-119.478	20.362	144.379	-35.321	75.735	0.0011703	0.00037617	0.0030157	866.35	7.588e-06	4.0072e-06	793.14	307.44	8.2659e-05	6.8718e-06	269.07	112.4	139.23	71.473	8.3672e-06	58.105	0.00017668	8.4229e-05	0.0015021	794.67	9.8871e-07	1.3191e-06	725.45	287.35	2.048e-05	9.0233e-07	245.86	102.88	127.4	70.706	1.0685e-06	53.634	21.348	-20.377	150.341	-122.848	-0.257	33.056	-125.293	-117.433	-68.558	-6.448	-121.531	-118.275	-114.965	-109.511	-19.020	-115.310	-8191	255	
#DATA ENDS
