BOXY.EXE: ISS Imagent and Oximeter Data Acquisition Program Version 0.80
Ascii Record File

#ACQ INFORMATION
2  Detector Channels 
16  External MUX Channels 
1  Auxiliary Channels 
5000  Waveform (CCF) Frequency (Hz)
1  Waveforms Skipped 
30  Waveforms Averaged 
1  Cycles Averaged 
16  Acquisitions per Waveform 
10.0806  Updata Rate (Hz) 

#FILE INFORMATION
TRUE -- External MUX Channel results are PARSED.
FALSE -- AC DC and Phase are NOT grouped.
TRUE -- Companion Program Settings File CREATED.
FALSE -- AC data not excluded
FALSE -- DC data not excluded
FALSE -- Phase data not excluded
FALSE -- Auxillary Chn. data not excluded
Tab delimiters

#CALIBRATION STATE
TRUE -- Waveform Calibration Values APPLIED.


#AUX CALIBRATION VALUES
Val Type	aux-1	

Term	1.0000e+00	
Factor	0.0000e+00	


#WF CALIBRATION VALUES
A = Detector Channel
Val Type	A-AC1	A-AC2	A-AC3	A-AC4	A-AC5	A-AC6	A-AC7	A-AC8	A-AC9	A-AC10	A-AC11	A-AC12	A-AC13	A-AC14	A-AC15	A-AC16	A-DC1	A-DC2	A-DC3	A-DC4	A-DC5	A-DC6	A-DC7	A-DC8	A-DC9	A-DC10	A-DC11	A-DC12	A-DC13	A-DC14	A-DC15	A-DC16	A-Ph1	A-Ph2	A-Ph3	A-Ph4	A-Ph5	A-Ph6	A-Ph7	A-Ph8	A-Ph9	A-Ph10	A-Ph11	A-Ph12	A-Ph13	A-Ph14	A-Ph15	A-Ph16	

Term	0.00000e+00	0.00000e+00	0.00000e+00	0.00000e+00	0.00000e+00	0.00000e+00	0.00000e+00	0.00000e+00	0.00000e+00	0.00000e+00	0.00000e+00	0.00000e+00	0.00000e+00	0.00000e+00	0.00000e+00	0.00000e+00	0.00000e+00	0.00000e+00	0.00000e+00	0.00000e+00	0.00000e+00	0.00000e+00	0.00000e+00	0.00000e+00	0.00000e+00	0.00000e+00	0.00000e+00	0.00000e+00	0.00000e+00	0.00000e+00	0.00000e+00	0.00000e+00	0.00000e+00	0.00000e+00	0.00000e+00	0.00000e+00	0.00000e+00	0.00000e+00	0.00000e+00	0.00000e+00	0.00000e+00	0.00000e+00	0.00000e+00	0.00000e+00	0.00000e+00	0.00000e+00	0.00000e+00	0.00000e+00	
Factor	1.00000e+00	1.00000e+00	1.00000e+00	1.00000e+00	1.00000e+00	1.00000e+00	1.00000e+00	1.00000e+00	1.00000e+00	1.00000e+00	1.00000e+00	1.00000e+00	1.00000e+00	1.00000e+00	1.00000e+00	1.00000e+00	1.00000e+00	1.00000e+00	1.00000e+00	1.00000e+00	1.00000e+00	1.00000e+00	1.00000e+00	1.00000e+00	1.00000e+00	1.00000e+00	1.00000e+00	1.00000e+00	1.00000e+00	1.00000e+00	1.00000e+00	1.00000e+00	X	X	X	X	X	X	X	X	X	X	X	X	X	X	X	X	

B = Detector Channel
Val Type	B-AC1	B-AC2	B-AC3	B-AC4	B-AC5	B-AC6	B-AC7	B-AC8	B-AC9	B-AC10	B-AC11	B-AC12	B-AC13	B-AC14	B-AC15	B-AC16	B-DC1	B-DC2	B-DC3	B-DC4	B-DC5	B-DC6	B-DC7	B-DC8	B-DC9	B-DC10	B-DC11	B-DC12	B-DC13	B-DC14	B-DC15	B-DC16	B-Ph1	B-Ph2	B-Ph3	B-Ph4	B-Ph5	B-Ph6	B-Ph7	B-Ph8	B-Ph9	B-Ph10	B-Ph11	B-Ph12	B-Ph13	B-Ph14	B-Ph15	B-Ph16	

Term	0.00000e+00	0.00000e+00	0.00000e+00	0.00000e+00	0.00000e+00	0.00000e+00	0.00000e+00	0.00000e+00	0.00000e+00	0.00000e+00	0.00000e+00	0.00000e+00	0.00000e+00	0.00000e+00	0.00000e+00	0.00000e+00	0.00000e+00	0.00000e+00	0.00000e+00	0.00000e+00	0.00000e+00	0.00000e+00	0.00000e+00	0.00000e+00	0.00000e+00	0.00000e+00	0.00000e+00	0.00000e+00	0.00000e+00	0.00000e+00	0.00000e+00	0.00000e+00	4.69284e+01	-1.27582e+02	-1.30931e+02	-1.83936e+02	-7.62020e+01	-6.69807e+01	-1.56989e+02	-1.62015e+02	-5.22494e+01	-7.94096e+01	-1.78987e+02	-1.72875e+02	-1.82137e+02	-1.78866e+02	-7.23244e+01	-1.51154e+02	
Factor	6.73214e-05	1.82383e-04	5.06034e-05	1.89429e-01	1.93940e-06	2.29934e-06	1.72175e-01	6.05181e-02	3.16237e-06	2.20276e-06	1.07814e-01	3.31898e-02	2.86066e-02	1.08537e-02	2.29806e-06	1.49911e-02	5.72136e-06	6.42153e-06	1.79335e-06	9.47223e-02	6.88599e-08	7.09668e-08	8.12099e-02	3.03370e-02	6.85387e-08	7.09561e-08	5.23066e-02	1.61085e-02	1.44478e-02	5.47581e-03	6.95704e-08	7.34234e-03	X	X	X	X	X	X	X	X	X	X	X	X	X	X	X	X	



#DISTANCE SETTINGS
A = Detector Channel
A-1	A-2	A-3	A-4	A-5	A-6	A-7	A-8	A-9	A-10	A-11	A-12	A-13	A-14	A-15	A-16	

2.5000e+00	3.0000e+00	2.5000e+00	3.0000e+00	2.0000e+00	3.0000e+00	1.5000e+00	3.0000e+00	3.0000e+00	3.0000e+00	3.0000e+00	3.0000e+00	3.0000e+00	3.0000e+00	1.5000e+00	3.0000e+00	

B = Detector Channel
B-1	B-2	B-3	B-4	B-5	B-6	B-7	B-8	B-9	B-10	B-11	B-12	B-13	B-14	B-15	B-16	

1.0000e+01	1.0000e+01	1.0000e+01	1.4400e+00	1.0000e+01	1.0000e+01	1.5100e+00	1.9400e+00	1.0000e+01	1.0000e+01	1.9900e+00	2.4900e+00	2.4100e+00	2.9000e+00	1.0000e+01	2.9800e+00	




#DATA BEGINS
time	group	step	mark	flag	A-AC1	A-AC2	A-AC3	A-AC4	A-AC5	A-AC6	A-AC7	A-AC8	A-AC9	A-AC10	A-AC11	A-AC12	A-AC13	A-AC14	A-AC15	A-AC16	A-DC1	A-DC2	A-DC3	A-DC4	A-DC5	A-DC6	A-DC7	A-DC8	A-DC9	A-DC10	A-DC11	A-DC12	A-DC13	A-DC14	A-DC15	A-DC16	A-Ph1	A-Ph2	A-Ph3	A-Ph4	A-Ph5	A-Ph6	A-Ph7	A-Ph8	A-Ph9	A-Ph10	A-Ph11	A-Ph12	A-Ph13	A-Ph14	A-Ph15	A-Ph16	B-AC1	B-AC2	B-AC3	B-AC4	B-AC5	B-AC6	B-AC7	B-AC8	B-AC9	B-AC10	B-AC11	B-AC12	B-AC13	B-AC14	B-AC15	B-AC16	B-DC1	B-DC2	B-DC3	B-DC4	B-DC5	B-DC6	B-DC7	B-DC8	B-DC9	B-DC10	B-DC11	B-DC12	B-DC13	B-DC14	B-DC15	B-DC16	B-Ph1	B-Ph2	B-Ph3	B-Ph4	B-Ph5	B-Ph6	B-Ph7	B-Ph8	B-Ph9	B-Ph10	B-Ph11	B-Ph12	B-Ph13	B-Ph14	B-Ph15	B-Ph16	aux-1	digaux	

478.325	1	1	0	768	0.14642	0.073685	0.42409	0.40418	0.2795	0.26552	0.11961	0.34416	0.17923	0.063484	0.12933	0.022834	0.19969	0.2044	0.13312	0.08012	-2.7917	-3.7625	-3.4021	-3.375	-3.5646	-3.1396	-3.7833	-3.7292	-3.2167	-3.75	-3.5792	-3.3333	-3.7229	-3.4729	-3.3979	-3.6625	293.091	337.255	345.671	501.099	410.527	168.943	442.838	441.444	284.044	445.896	202.026	333.528	499.303	246.153	489.119	169.596	0.0010408	0.00054011	0.00017305	1394.7	4.6495e-06	7.9902e-06	1463	280.93	1.6053e-05	6.8317e-06	346.36	99.174	78.441	22.603	3.4112e-06	30.865	0.00062275	0.00062518	0.00017505	1380.8	7.0148e-06	6.9782e-06	1453.6	279.79	7.0065e-06	7.0628e-06	346.63	100.09	78.844	23.164	6.6724e-06	31.772	376.978	265.950	280.731	177.379	284.393	297.457	177.143	184.227	301.019	367.220	184.232	190.081	190.489	197.616	214.338	196.664	-8191	255	
478.421	1	1	0	0	0.19462	0.22987	0.089765	0.24534	0.31242	0.2051	0.30564	0.32386	0.12343	0.1997	0.11317	0.23183	0.12592	0.23832	0.15102	0.35781	-3.0312	-3.7542	-3.4896	-3.4896	-3.7625	-3.3187	-3.6458	-3.7	-3.0563	-3.5812	-3.6917	-3.3646	-3.7604	-3.5771	-3.2542	-3.725	268.851	181.475	354.210	512.963	514.325	519.508	495.406	498.268	464.605	205.949	224.831	183.229	475.862	500.126	166.409	472.857	0.00095415	0.00028687	9.418e-05	1392.8	8.1578e-06	1.2786e-06	1466.4	279.14	4.6481e-06	6.5815e-06	343.48	99.315	78.301	22.463	3.0424e-06	30.537	0.0006294	0.00061687	0.00017383	1380.9	7.0088e-06	6.8641e-06	1452.3	279	6.7898e-06	7.0261e-06	345.57	99.895	78.936	23.129	6.7305e-06	31.701	366.062	190.988	207.612	177.347	307.697	207.174	177.032	184.370	312.665	296.670	184.018	190.282	190.696	197.477	284.124	196.970	-8191	255	
478.517	1	1	0	0	0.025558	0.13879	0.21084	0.21616	0.14418	0.19776	0.27722	0.25171	0.037845	0.075773	0.11037	0.077744	0.16706	0.12151	0.063658	0.25669	-2.9188	-3.5062	-3.5396	-3.5083	-3.7417	-3.4854	-3.5812	-3.8146	-3.3229	-3.5812	-3.7625	-3.3063	-3.6312	-3.5208	-3.3812	-3.8521	514.969	456.528	310.131	482.399	401.755	283.785	493.517	196.435	207.853	366.036	421.065	397.834	347.026	220.834	314.698	491.403	0.00099714	0.000256	2.7294e-05	1394	4.8426e-06	4.3541e-06	1461.9	280.42	1.0174e-05	5.3778e-06	346.32	98.941	78.29	22.474	4.3016e-06	30.89	0.00063535	0.00064057	0.0001755	1382	6.9812e-06	6.9669e-06	1451.7	279.13	7.1215e-06	7.0091e-06	347.24	99.934	79.062	23.104	6.9602e-06	31.808	385.308	266.645	251.126	177.264	266.262	347.887	177.201	184.179	273.483	232.685	183.985	190.120	190.604	197.721	368.088	196.860	-8191	255	
478.613	1	1	0	0	0.093161	0.071927	0.15445	0.28514	0.084082	0.1878	0.14454	0.19782	0.044364	0.073982	0.037392	0.10026	0.053394	0.12981	0.2136	0.051359	-3.0604	-3.5833	-3.8771	-3.2167	-3.6792	-3.4771	-3.425	-3.9	-3.3833	-3.6583	-3.7687	-3.2229	-3.7208	-3.275	-3.1333	-3.6792	320.534	188.869	254.937	438.608	421.515	337.282	398.558	481.591	346.683	249.118	405.052	257.661	310.412	240.288	438.299	346.651	0.0010322	0.00022307	3.8245e-05	1387.4	5.0114e-06	9.8805e-06	1458.1	280.45	8.974e-06	3.9225e-06	344.55	98.697	78.268	22.557	5.612e-06	30.665	0.00063762	0.0006254	0.00017695	1380.5	7.0547e-06	7.065e-06	1451.7	279.59	6.9138e-06	6.9414e-06	346.45	100.16	79.107	23.139	6.9824e-06	31.765	378.067	250.429	182.846	177.463	266.442	350.745	176.965	184.015	348.487	356.950	184.083	190.217	190.762	197.805	330.579	196.897	-8191	255	
478.709	1	1	0	0	0.119	0.15186	0.09138	0.23256	0.15576	0.02047	0.12721	0.22853	0.24684	0.15269	0.087739	0.17398	0.13594	0.15079	0.23657	0.22787	-2.8708	-3.3417	-3.5563	-3.3917	-3.4813	-3.5625	-3.3229	-3.7125	-3.2208	-3.5938	-3.6854	-3.2229	-3.675	-3.4875	-3.1146	-3.8104	287.225	237.712	362.087	475.569	418.242	282.264	410.626	466.627	218.736	423.909	448.397	177.723	416.377	291.316	520.634	360.123	0.00091476	0.00031357	0.0001102	1392.8	3.043e-06	8.612e-07	1462.8	280.08	1.625e-05	6.0928e-06	343.78	99.628	79.081	22.568	3.0407e-06	30.819	0.00062753	0.00062867	0.00017993	1382.9	6.9943e-06	6.9321e-06	1453.8	279.58	6.8597e-06	6.942e-06	346.55	100.1	79.283	23.173	6.9833e-06	31.813	371.537	274.329	312.913	177.287	278.560	424.283	177.182	184.117	296.271	243.513	184.070	190.377	190.620	197.675	300.142	196.765	-8191	255	
478.805	1	1	0	0	0.0090967	0.15118	0.079435	0.029791	0.075988	0.094523	0.22906	0.19411	0.097818	0.22221	0.1802	0.24231	0.24759	0.2263	0.026548	0.13616	-3.1583	-3.3729	-3.7854	-3.3417	-3.4562	-3.6708	-3.5021	-3.7812	-3.3875	-3.2833	-3.725	-3.3688	-3.2583	-3.3979	-3.2354	-3.6167	232.676	186.598	525.961	381.403	433.820	395.191	447.811	417.246	168.931	339.330	401.906	487.037	520.178	491.649	499.530	234.123	0.0010561	0.00039257	0.00020359	1390.7	3.252e-06	6.5109e-06	1465.5	280.26	1.1572e-05	6.6095e-06	345.88	99.873	78.324	22.488	5.747e-06	30.72	0.00062579	0.00064332	0.00018308	1381.8	7.1461e-06	7.2374e-06	1454.2	280.27	7.0698e-06	7.3422e-06	347.36	100.46	79.063	23.143	7.2258e-06	31.836	377.340	270.035	272.831	177.152	304.687	357.527	176.953	184.293	332.933	346.962	183.897	190.306	190.708	197.697	282.648	196.584	-8191	255	
478.926	1	1	0	0	0.23694	0.020734	0.13618	0.25378	0.22283	0.23631	0.096353	0.12725	0.015108	0.093389	0.21904	0.20748	0.014693	0.21895	0.13845	0.044236	-3.0479	-3.2521	-3.5438	-3.5	-3.2604	-3.6521	-3.3083	-3.6375	-3.525	-3.1729	-3.8646	-3.4938	-3.3708	-3.7729	-3.275	-3.7271	508.626	435.206	433.955	508.782	330.611	353.397	177.090	171.642	486.238	316.876	463.107	431.800	329.060	314.398	319.172	335.485	0.0011656	0.00041999	2.1752e-05	1390.8	3.8423e-06	2.9879e-06	1463.5	281.15	2.7566e-06	3.8718e-06	344.81	99.342	78.956	22.359	9.0752e-06	30.719	0.00064352	0.00066498	0.00018404	1383	7.0085e-06	7.177e-06	1455.1	280.1	6.9814e-06	7.2029e-06	346.67	100.15	79.266	23.141	7.1246e-06	31.718	372.864	281.159	368.414	177.343	312.514	328.179	177.038	183.878	304.860	298.488	184.069	190.255	190.524	197.554	284.965	197.336	-8191	255	
479.022	1	1	0	0	0.15655	0.047468	0.027415	0.25687	0.2248	0.11667	0.08654	0.18168	0.16987	0.29219	0.1727	0.050191	0.15444	0.19277	0.12284	0.055825	-3.1917	-3.3	-3.7083	-3.5438	-3.3583	-3.4917	-3.4542	-3.8104	-3.6229	-3.2313	-3.6458	-3.4938	-3.2083	-3.6937	-3.3812	-3.5417	464.370	387.648	341.863	506.298	326.928	300.395	228.575	252.319	299.716	500.510	177.093	359.786	444.353	419.120	238.347	414.108	0.00091184	0.0003455	4.5209e-05	1391.5	4.894e-06	5.3919e-06	1462.3	279.89	1.09e-05	1.6423e-06	345.99	99.318	78.783	22.444	7.9114e-06	30.792	0.00063238	0.00065969	0.00018226	1382.9	7.0008e-06	7.1178e-06	1455.6	279.84	6.8861e-06	7.0331e-06	346.63	100.04	79.207	23.156	7.0052e-06	31.814	371.773	321.663	209.777	177.355	290.177	283.972	177.061	184.166	289.237	465.936	184.191	190.142	190.951	197.720	328.401	196.801	-8191	255	
479.118	1	1	0	0	0.21752	0.25124	0.14176	0.23483	0.094741	0.10549	0.43556	0.0096494	0.067867	0.14595	0.094711	0.2122	0.1578	0.11992	0.1095	0.036304	-3.1604	-3.0625	-3.7021	-3.4271	-3.15	-3.8833	-3.575	-3.4104	-3.8083	-3.2708	-3.7375	-3.5604	-3.3	-3.7792	-3.2313	-3.3979	300.004	281.852	201.882	471.227	423.953	509.041	471.091	251.440	520.578	224.432	471.438	521.018	493.586	390.299	301.717	471.629	0.0011185	0.00057315	0.00012218	1390.6	2.0721e-06	4.3097e-06	1462.6	279.76	1.5072e-05	4.6705e-06	346.35	99.338	78.558	22.615	3.9787e-06	30.88	0.00062465	0.00064938	0.00017728	1382.4	6.743e-06	6.9902e-06	1454.4	279.86	6.6271e-06	6.8461e-06	347.05	99.987	79.061	23.153	6.5522e-06	31.762	366.640	239.284	251.807	177.276	232.409	317.024	177.124	184.197	275.982	272.146	184.083	190.030	190.628	197.650	317.352	197.247	-8191	255	
479.215	1	1	0	0	0.12629	0.32506	0.26403	0.026548	0.08754	0.040045	0.17635	0.17644	0.27636	0.12117	0.31579	0.24005	0.31669	0.026694	0.089864	0.12839	-3.1021	-3.0667	-3.6479	-3.6271	-3.3875	-3.7542	-3.5417	-3.5187	-3.6125	-3.4292	-3.5896	-3.6813	-3.3	-3.8146	-3.45	-3.3937	249.516	221.549	451.108	214.743	209.317	431.949	459.455	444.361	521.516	342.604	228.073	462.483	180.003	498.846	500.855	215.125	0.00084859	0.00032112	0.00013509	1385.7	3.4395e-06	5.2054e-06	1461.3	279.77	4.8762e-06	3.1764e-06	344.31	99.331	78.436	22.525	5.4212e-06	30.895	0.00059804	0.00060564	0.00016891	1377.7	6.7378e-06	6.9487e-06	1451.6	279.5	6.7822e-06	6.9558e-06	346.93	100.09	79.103	23.193	6.8157e-06	31.861	375.151	224.466	253.876	177.245	332.703	305.973	177.051	184.205	293.772	259.988	184.178	190.237	190.559	197.501	352.619	197.128	-8191	255	
479.311	1	1	0	0	0.20923	0.11035	0.26456	0.22679	0.093817	0.21417	0.1813	0.30785	0.022188	0.048574	0.07205	0.15878	0.095895	0.12742	0.17904	0.045119	-3.1792	-3.2208	-3.4125	-3.5875	-3.3021	-3.775	-3.4854	-3.425	-3.7729	-3.3563	-3.6937	-3.7521	-3.1562	-3.4833	-3.2521	-3.2396	455.769	449.535	262.996	439.881	456.687	410.624	448.087	440.975	218.153	200.237	342.382	415.947	414.267	385.771	273.540	522.320	0.0010385	0.00037189	0.00019108	1389.6	4.978e-06	7.0123e-06	1462.5	281.57	6.6383e-06	1.8485e-06	344.95	99.255	78.223	22.542	8.1752e-06	30.814	0.00064684	0.00064753	0.00018144	1381.5	7.4121e-06	7.3139e-06	1452.5	280.52	7.3545e-06	7.6194e-06	348.01	100.14	79.214	23.247	7.3292e-06	31.904	371.855	310.425	328.808	177.377	277.715	287.276	177.010	184.331	349.670	208.387	184.012	190.257	190.535	197.602	274.499	196.933	-8191	255	
479.405	1	1	0	0	0.24804	0.29592	0.028688	0.065876	0.16934	0.12801	0.18384	0.22098	0.068138	0.15164	0.15985	0.04073	0.20296	0.16828	0.19198	0.23368	-3.4125	-3.2375	-3.4313	-3.6958	-3.2	-3.5583	-3.6729	-3.4833	-3.8729	-3.2792	-3.5646	-3.6708	-3.1708	-3.5854	-3.6021	-3.2229	229.289	418.701	282.279	425.376	314.455	198.166	457.319	217.004	281.983	510.568	261.504	509.633	478.291	257.825	508.907	499.051	0.0011359	0.00052853	0.0001101	1391.7	3.7515e-06	3.921e-06	1469.9	281.61	1.0582e-05	6.4154e-06	346.33	99.816	78.679	22.584	8.8636e-06	30.93	0.00067271	0.00068332	0.0001892	1384.5	7.4268e-06	7.4256e-06	1457.4	281.05	7.4436e-06	7.4499e-06	348.04	100.75	79.466	23.189	7.2965e-06	31.9	371.124	252.648	235.913	177.272	251.851	311.447	177.038	184.126	359.106	274.641	184.093	190.272	190.344	197.554	317.010	196.805	-8191	255	
479.501	1	1	0	0	0.22667	0.17277	0.19465	0.19492	0.13802	0.072421	0.21847	0.037011	0.1094	0.23864	0.086175	0.15885	0.060433	0.10231	0.16565	0.087055	-3.2667	-3.3104	-3.2729	-3.725	-3.2083	-3.7583	-3.7938	-3.3458	-3.6604	-3.4229	-3.3292	-3.9375	-3.2396	-3.6146	-3.5687	-3.1229	267.946	201.352	351.618	488.180	228.705	235.115	464.344	419.540	424.188	422.044	247.833	202.265	241.310	431.465	348.089	412.761	0.00091287	0.00028786	0.00010163	1397	5.9894e-06	7.0953e-06	1471.7	282.06	1.143e-05	2.917e-06	347.55	100.23	78.868	22.62	3.6816e-06	30.999	0.00066183	0.00066599	0.00018316	1386.5	7.2792e-06	7.1749e-06	1459.4	281.35	7.0749e-06	7.1546e-06	348.45	100.62	79.412	23.242	7.3305e-06	31.879	377.397	307.458	276.237	177.134	333.252	347.956	177.107	184.198	317.401	275.095	184.099	190.404	190.784	197.641	277.071	196.976	-8191	255	
479.622	1	1	0	0	0.060931	0.15137	0.21945	0.17085	0.18918	0.11853	0.2826	0.085319	0.15608	0.2754	0.15721	0.14665	0.025745	0.31733	0.14724	0.16984	-3.3292	-3.4354	-3.075	-3.8333	-3.2167	-3.5146	-3.8625	-3.2333	-3.675	-3.3792	-3.2542	-3.8667	-3.2604	-3.5938	-3.6333	-3.1792	199.710	439.750	315.510	192.574	216.236	201.685	451.482	379.129	498.857	337.979	248.848	253.713	387.128	472.755	215.050	379.097	0.00095782	0.00037871	0.0001039	1401.2	2.8261e-06	5.4584e-06	1478.9	280.49	1.1354e-05	2.2953e-06	345.91	100.02	78.742	22.602	4.1248e-06	31.056	0.00065498	0.00065802	0.00018435	1388.2	7.1388e-06	6.9694e-06	1462.1	280.79	6.6633e-06	6.9065e-06	348.15	100.41	79.393	23.274	6.8375e-06	31.947	366.434	247.735	226.067	177.268	301.923	338.411	177.121	184.082	316.083	327.841	183.869	189.848	190.575	197.442	352.487	197.094	-8191	255	
479.718	1	1	0	0	0.11145	0.14368	0.071358	0.18435	0.11842	0.12243	0.20549	0.014397	0.31654	0.24676	0.24785	0.070163	0.04746	0.18348	0.18076	0.22735	-3.1729	-3.4104	-3.3542	-3.825	-3.3646	-3.4917	-3.8812	-3.3042	-3.5563	-3.5354	-3.2896	-3.7125	-3.5229	-3.475	-3.6271	-3.2167	522.213	409.885	233.885	240.104	481.251	239.344	451.273	461.968	319.789	330.538	264.793	456.887	197.199	349.043	320.494	185.663	0.00089128	0.00030328	6.8175e-05	1400.8	7.6459e-06	4.542e-06	1469.1	284.77	6.8888e-06	6.2059e-06	348.28	99.941	79.546	22.686	3.3845e-07	31.217	0.00063141	0.00064732	0.00018409	1391.9	7.3359e-06	7.2494e-06	1462.8	283.04	7.135e-06	7.3417e-06	349.77	100.83	79.932	23.362	7.2988e-06	32.064	370.412	227.628	230.002	177.419	303.168	409.431	176.962	184.168	369.195	281.343	184.165	190.312	190.469	197.656	187.336	196.959	-8191	255	
479.814	1	1	0	0	0.098507	0.23406	0.13312	0.042224	0.066201	0.085853	0.23705	0.15809	0.39217	0.22577	0.25357	0.11899	0.16216	0.17731	0.12296	0.21238	-3.1625	-3.6354	-3.0021	-3.8167	-3.4354	-3.3937	-3.9062	-3.3583	-3.625	-3.6146	-3.4042	-3.6188	-3.2771	-3.1188	-3.6	-3.3042	342.536	390.907	486.554	326.274	512.588	169.988	478.779	381.622	374.516	272.274	432.869	218.166	334.002	492.704	206.602	497.927	0.0012485	0.00031382	0.00014608	1406.9	5.9322e-06	4.4916e-06	1479.6	282.07	4.4021e-06	7.207e-06	349.96	99.913	78.564	22.567	5.0716e-06	31.208	0.00063637	0.00064419	0.00017896	1395.4	6.7877e-06	6.8152e-06	1467.2	282.28	6.5322e-06	6.7632e-06	349.99	100.57	79.39	23.248	6.8604e-06	31.987	366.852	251.878	293.924	177.325	267.281	298.077	177.013	184.272	350.508	315.494	184.157	190.137	190.481	197.516	323.909	197.102	-8191	255	
479.910	1	1	0	0	0.12061	0.10659	0.10634	0.27325	0.13304	0.015038	0.30748	0.19159	0.15993	0.1654	0.42758	0.12202	0.27554	0.31273	0.063623	0.18814	-3.0938	-3.3833	-3.2521	-3.9333	-3.625	-3.2458	-3.9313	-3.3354	-3.4292	-3.6562	-3.2792	-3.6521	-3.5104	-3.2687	-3.8063	-3.35	235.672	313.617	412.831	475.299	168.561	396.636	451.045	469.755	269.725	504.005	438.176	444.334	475.803	188.609	451.887	414.528	0.00097109	0.00018407	0.0001364	1405.8	2.0447e-06	5.4726e-07	1476.7	282.8	1.6772e-05	1.6048e-06	349.41	99.773	79.273	22.777	1.7838e-06	30.884	0.00062307	0.0006295	0.00017784	1393.2	6.8398e-06	7.0259e-06	1463.9	282.17	6.9291e-06	7.124e-06	349.92	100.57	79.659	23.379	6.8976e-06	31.901	376.800	223.534	265.705	177.432	206.117	354.789	177.108	184.308	328.613	358.255	183.990	190.404	190.628	197.687	242.677	196.716	-8191	255	
480.006	1	1	0	0	0.11733	0.20921	0.35057	0.13671	0.13466	0.23455	0.21591	0.25477	0.2211	0.056749	0.088448	0.11352	0.17274	0.24418	0.078609	0.036775	-2.9313	-3.5812	-3.1604	-3.4833	-3.3812	-3.175	-3.7146	-3.3146	-3.2021	-3.7854	-3.3	-3.6375	-3.5583	-3.3	-3.7417	-3.475	298.763	381.710	291.103	210.099	270.517	479.258	434.775	476.515	247.504	176.893	243.407	245.972	446.703	433.383	307.661	406.155	0.00097128	0.00018661	0.00017419	1409.4	3.794e-06	5.7566e-06	1478.4	283.38	1.0949e-05	4.2501e-06	347.52	99.691	79.032	22.652	5.4161e-06	30.898	0.00061182	0.0006286	0.00017415	1393.7	6.7712e-06	6.8767e-06	1463.4	281.95	6.616e-06	6.6218e-06	348.83	100.35	79.398	23.245	6.5553e-06	31.809	381.936	270.254	274.290	177.412	306.565	314.232	177.210	184.354	313.433	331.558	183.844	190.436	190.668	197.315	286.835	196.872	-8191	255	
480.103	1	1	0	0	0.27353	0.1758	0.19527	0.096123	0.32013	0.077655	0.20525	0.081436	0.3158	0.20692	0.11222	0.14534	0.17194	0.24308	0.16936	0.20819	-2.9625	-3.7438	-3.0708	-3.6271	-3.5479	-3.1854	-3.8708	-3.5417	-3.0187	-3.6562	-3.4083	-3.3708	-3.7875	-3.1104	-3.4938	-3.3187	525.945	254.071	500.974	412.425	280.699	519.922	477.779	497.030	177.786	374.665	406.331	229.177	460.127	496.626	488.349	505.711	0.0010397	0.00050473	0.00020557	1406.5	2.8065e-06	2.1885e-06	1476.2	282.54	1.8074e-05	1.6574e-06	348.11	100.03	78.403	22.712	9.6938e-06	31.006	0.00059645	0.0005957	0.0001638	1391.7	6.517e-06	6.577e-06	1461.9	281.86	6.5053e-06	6.503e-06	348.17	100.51	79.219	23.231	6.2689e-06	31.863	366.966	267.944	237.689	177.327	292.604	213.953	177.188	184.225	309.435	319.225	184.029	190.193	190.582	197.814	300.044	197.059	-8191	255	
480.199	1	1	0	0	0.10187	0.21035	0.21339	0.18112	0.14829	0.24738	0.047222	0.076465	0.10521	0.049702	0.097032	0.07046	0.27232	0.039576	0.23386	0.01501	-2.8563	-3.6208	-3.375	-3.4437	-3.5167	-3.2542	-3.7417	-3.3396	-3.175	-3.5958	-3.2833	-3.4146	-3.6063	-3.3729	-3.6125	-3.3917	173.372	352.419	330.351	451.363	247.300	258.484	472.731	496.081	513.583	369.002	343.108	291.496	521.635	351.768	300.901	462.741	0.0010251	0.00034725	8.4997e-05	1401.9	5.4702e-06	6.0895e-07	1473.2	282.86	7.9795e-06	4.4102e-06	349.52	99.61	78.593	22.536	6.7636e-06	30.78	0.00057684	0.00057688	0.00015744	1389	6.2975e-06	6.3002e-06	1461.4	281.39	6.1979e-06	6.2115e-06	349.12	100.22	79.164	23.193	6.1726e-06	31.827	374.792	275.782	198.245	177.085	275.979	475.871	177.057	184.299	341.562	302.820	184.226	190.302	190.569	197.339	282.285	196.856	-8191	255	
480.295	1	1	0	0	0.2595	0.052016	0.16197	0.21952	0.18743	0.10923	0.18686	0.06863	0.17491	0.093134	0.35756	0.40835	0.15565	0.15141	0.064067	0.16754	-2.8333	-3.5792	-3.3896	-3.4396	-3.8021	-3.0708	-3.7479	-3.6729	-3.1917	-3.7271	-3.3646	-3.3187	-3.7042	-3.1729	-3.5021	-3.5271	316.633	519.042	212.387	492.116	383.376	296.278	167.223	421.380	256.065	255.703	185.264	231.795	184.810	340.394	513.457	186.814	0.00091203	0.00067423	4.626e-05	1404.5	4.5862e-06	5.8215e-06	1476.1	281.77	1.1241e-05	1.9698e-06	348.21	100.04	79.149	22.525	5.6353e-06	31.021	0.00058181	0.00056836	0.00015708	1391.4	6.341e-06	6.3611e-06	1464.5	281.5	6.5103e-06	6.4804e-06	349.16	100.61	79.451	23.208	6.4102e-06	31.965	371.558	238.569	198.847	177.429	275.516	305.236	177.054	184.068	288.578	466.409	184.396	190.391	190.422	197.661	263.189	196.905	-8191	255	
480.414	1	1	0	0	0.24613	0.064634	0.22655	0.16739	0.10774	0.18059	0.20848	0.23141	0.10759	0.12117	0.058512	0.13445	0.068973	0.13509	0.11584	0.13886	-2.8792	-3.6104	-3.4104	-3.3792	-3.6104	-3.2542	-3.8792	-3.7	-3.1021	-3.6208	-3.3729	-3.2771	-3.6667	-3.1813	-3.4979	-3.6667	365.812	263.653	287.952	490.059	362.460	507.726	453.155	494.845	277.018	322.223	171.298	446.187	503.836	255.213	168.028	381.352	0.00090672	0.00076571	6.3846e-05	1411.8	4.2743e-06	6.5553e-06	1477.9	283.4	1.1816e-05	5.7311e-06	348.55	99.836	79.382	22.746	3.431e-06	30.987	0.00058748	0.00058378	0.00016125	1395.9	6.3985e-06	6.4812e-06	1468.6	282	6.4692e-06	6.3448e-06	349.46	100.52	79.774	23.333	6.4461e-06	31.902	375.626	243.251	184.950	177.343	246.834	323.192	176.979	184.117	332.821	340.457	183.811	190.446	190.307	197.625	368.658	197.176	-8191	255	
480.487	1	1	0	0	0.36169	0.12738	0.073599	0.067722	0.11458	0.11959	0.23634	0.08901	0.026761	0.02331	0.099041	0.063259	0.12604	0.16921	0.11477	0.12525	-2.6937	-3.4521	-3.4479	-3.2625	-3.5875	-3.4229	-3.5896	-3.6458	-3.0438	-3.6021	-3.5062	-3.0083	-3.625	-3.4813	-3.2104	-3.5083	313.993	484.003	492.476	516.050	347.391	453.355	470.511	252.975	355.007	331.058	469.339	524.100	201.386	449.821	344.855	407.359	0.00096552	0.00034687	0.00012939	1411.5	6.5515e-06	7.6637e-06	1481.5	283.27	5.7044e-06	3.3065e-06	348.07	100.43	79.309	22.695	8.0111e-06	31.145	0.00059075	0.00057415	0.00016715	1396.6	6.6104e-06	6.5643e-06	1470.4	282.28	6.5994e-06	6.5976e-06	349.58	100.69	79.42	23.31	6.5076e-06	31.895	381.312	249.684	277.794	177.340	248.674	311.545	177.160	184.122	303.275	314.487	184.020	190.241	190.607	197.455	264.463	197.253	-8191	255	
480.606	1	1	0	0	0.16297	0.13975	0.16859	0.39835	0.14489	0.15513	0.31205	0.23314	0.14688	0.26861	0.24617	0.15142	0.22909	0.22704	0.06127	0.02589	-2.9104	-3.2562	-3.3771	-3.3292	-3.65	-3.3229	-3.4979	-3.7146	-3.1792	-3.3875	-3.6896	-3.3271	-3.725	-3.4292	-3.2042	-3.8667	349.560	305.570	295.124	495.702	400.294	323.595	489.120	498.145	197.430	279.514	426.318	396.379	505.464	505.889	252.003	484.892	0.00092487	0.00038392	0.00014488	1402.7	2.6792e-06	6.8457e-06	1475.8	281.89	9.7074e-06	3.8177e-06	347.03	99.617	78.641	22.419	4.8737e-06	31.127	0.00059303	0.00058714	0.00016702	1390.8	6.2767e-06	6.2726e-06	1463.5	281.1	6.1918e-06	6.1554e-06	348.22	100.14	79.155	23.095	6.2587e-06	31.779	376.131	243.559	267.945	177.414	330.651	281.346	177.103	184.347	299.067	324.937	183.860	190.319	190.929	197.668	297.950	197.097	-8191	255	
480.702	1	1	0	0	0.040793	0.12182	0.13016	0.25828	0.13752	0.11205	0.25986	0.041354	0.073146	0.1431	0.20312	0.15351	0.1813	0.13639	0.15236	0.063589	-2.9229	-3.2062	-3.6104	-3.15	-3.4542	-3.6167	-3.5104	-3.8208	-3.2729	-3.2854	-3.725	-3.1271	-3.5646	-3.4646	-3.1396	-3.8146	271.987	300.060	245.664	487.755	205.772	188.377	482.163	239.856	489.225	289.081	459.080	507.540	440.432	205.826	235.594	215.393	0.0010499	0.00018123	0.00012856	1396.7	3.2451e-06	3.2232e-06	1470.8	282.25	1.2293e-05	5.1145e-06	344.67	99.536	78.434	22.507	4.4268e-06	30.756	0.00056103	0.00056916	0.00016069	1387.2	6.0676e-06	6.2741e-06	1460.5	280.12	5.9523e-06	6.0234e-06	346.12	99.921	78.88	23.066	5.773e-06	31.597	372.361	517.492	309.866	177.331	260.934	288.943	177.310	184.091	320.679	318.232	184.081	190.537	190.998	197.597	345.065	197.155	-8191	255	
480.798	1	1	0	0	0.11748	0.060819	0.16864	0.4053	0.15624	0.19048	0.24104	0.27071	0.091568	0.18037	0.093024	0.25421	0.35869	0.17428	0.23603	0.15486	-2.9062	-3.1937	-3.4333	-3.3521	-3.4938	-3.5396	-3.4625	-3.5208	-3.3354	-3.3854	-3.7938	-3.3333	-3.5062	-3.5417	-2.9917	-3.6708	524.032	198.101	472.974	453.669	349.528	377.151	463.560	457.744	342.612	272.026	434.204	222.430	467.443	291.921	394.197	197.067	0.0010464	0.00060683	8.4748e-05	1386.8	4.9004e-06	2.1954e-06	1468.6	280.49	8.9256e-06	3.4858e-06	344.59	99.684	78.897	22.711	8.3374e-06	30.917	0.00052055	0.00052143	0.00014666	1378	5.7141e-06	5.6935e-06	1453	278.24	5.6186e-06	5.7782e-06	345.45	99.972	78.817	23.168	5.6023e-06	31.69	365.834	250.050	295.645	177.358	264.239	248.056	177.234	184.189	289.270	249.586	184.411	190.503	190.480	197.257	288.451	196.931	-8191	255	
480.895	1	1	0	0	0.032988	0.074242	0.15122	0.022462	0.025245	0.34177	0.15632	0.16489	0.19359	0.40451	0.29749	0.15272	0.057271	0.12939	0.088694	0.076728	-2.9667	-3.1417	-3.6375	-3.4854	-3.4375	-3.6917	-3.3479	-3.6271	-3.5104	-3.2771	-3.7854	-3.3021	-3.3583	-3.4896	-3.2792	-3.5958	360.870	358.999	440.233	176.574	419.383	325.022	470.167	404.601	184.478	258.124	518.317	410.307	394.560	307.744	229.100	369.961	0.00096681	0.00032909	6.2135e-05	1383.5	1.5016e-06	1.9365e-06	1462.1	278.46	7.8578e-06	5.2525e-06	343.76	99.886	78.16	22.682	4.8179e-06	30.888	0.00050995	0.00051055	0.00013915	1374.7	5.425e-06	5.4334e-06	1449.6	277.57	5.3337e-06	5.382e-06	344.57	100.03	78.749	23.198	5.2184e-06	31.724	365.448	285.933	287.250	177.449	274.449	301.748	177.139	184.521	298.985	320.236	183.987	190.786	190.539	197.821	309.546	197.443	-8191	255	
481.015	1	1	0	0	0.13919	0.28482	0.12503	0.11677	0.33038	0.35984	0.11078	0.14371	0.16606	0.21245	0.13383	0.23805	0.13642	0.13506	0.10506	0.089491	-2.8625	-3.1104	-3.6229	-3.4729	-3.3771	-3.6146	-3.2958	-3.5896	-3.35	-3.25	-3.6271	-3.2812	-3.475	-3.65	-3.1229	-3.6437	199.895	402.163	321.770	461.149	424.014	375.933	445.830	403.636	304.484	312.256	202.586	193.674	488.924	193.039	420.443	499.908	0.00097162	0.00041584	0.00011438	1385.7	3.8389e-06	6.2312e-06	1463.4	279.58	1.0135e-05	2.687e-06	343.39	100.14	78.998	22.847	6.4041e-06	31.242	0.0004902	0.00048932	0.00013519	1375.3	5.4633e-06	5.4227e-06	1449.3	277.54	5.3149e-06	5.4531e-06	344.71	100.3	79.145	23.35	5.3805e-06	31.954	371.658	276.125	308.294	177.332	322.762	351.787	177.004	184.324	296.938	248.058	184.438	190.300	190.410	197.833	375.672	196.958	-8191	255	
481.111	1	1	0	0	0.10228	0.040792	0.34148	0.34641	0.090287	0.13315	0.16161	0.20362	0.24385	0.059828	0.13997	0.34467	0.24055	0.08103	0.21978	0.16336	-3.2417	-3.0167	-3.5521	-3.5312	-3.0687	-3.6604	-3.3146	-3.5125	-3.7396	-3.1833	-3.8021	-3.5208	-3.1583	-3.6917	-3.2458	-3.4125	486.600	440.046	348.853	508.364	285.894	314.494	513.220	359.339	448.839	239.680	467.830	174.292	243.570	370.573	246.909	474.715	0.00091676	0.00040609	9.7664e-05	1395.8	4.7181e-06	8.9903e-06	1465.7	279.43	1.1996e-05	5.9669e-06	344.75	99.737	78.889	22.889	2.5155e-06	31.185	0.00050085	0.00051404	0.00013775	1377.1	5.5851e-06	5.5617e-06	1452.2	277.97	5.5142e-06	5.5204e-06	345.87	100.53	79.073	23.372	5.2413e-06	32.013	366.002	216.567	257.624	177.272	316.198	360.810	177.142	184.402	315.862	331.825	184.162	190.715	190.754	197.379	302.598	196.962	-8191	255	
481.183	1	1	0	0	0.31801	0.13866	0.095519	0.43651	0.20946	0.24955	0.43193	0.1284	0.16697	0.11453	0.12385	0.45511	0.15415	0.12041	0.12406	0.16306	-3.1208	-3.1458	-3.5229	-3.5229	-3.3396	-3.7583	-3.3271	-3.5208	-3.7458	-2.9667	-3.4396	-3.5396	-3.0354	-3.7313	-3.2646	-3.3646	194.246	293.031	461.583	497.226	278.832	308.947	453.986	457.406	383.676	195.562	211.370	399.134	415.845	428.540	243.054	286.265	0.0010031	0.0004066	0.00010101	1391.6	3.6658e-06	2.7386e-06	1465	280.23	6.7822e-06	3.1958e-06	346.22	100.33	79.379	22.735	6.286e-06	31.112	0.00049839	0.00049729	0.00013527	1376.4	5.3296e-06	5.3559e-06	1450.8	278.38	5.3696e-06	5.1805e-06	346.13	100.29	79.036	23.242	4.9999e-06	31.871	374.045	295.658	311.070	177.518	260.037	445.126	177.033	184.255	319.191	308.329	184.145	190.258	190.784	197.806	299.233	197.018	-8191	255	
481.304	1	1	0	0	0.25321	0.15978	0.13034	0.21813	0.1751	0.23668	0.18491	0.18381	0.18419	0.19308	0.25982	0.12137	0.33627	0.17199	0.17141	0.087093	-3.225	-2.9813	-3.5479	-3.5646	-3.1854	-3.5333	-3.525	-3.4667	-3.5896	-3.2229	-3.5062	-3.6354	-3.1688	-3.6688	-3.3229	-3.3646	480.142	508.459	459.997	336.167	171.041	324.568	407.734	413.768	385.136	489.272	174.423	210.890	464.269	198.150	426.411	176.317	0.0011113	1.2513e-05	0.00018305	1385.2	5.7508e-06	7.6511e-06	1462.1	279.5	1.1512e-05	3.5364e-06	343.02	100.4	78.563	22.747	2.3059e-06	31.047	0.00047808	0.00045617	0.00012763	1371.5	5.1625e-06	4.9992e-06	1445.7	278.06	5.0624e-06	5.046e-06	343.92	100.52	78.829	23.219	4.8704e-06	31.833	378.321	521.744	290.773	177.279	312.266	325.855	177.283	184.301	314.587	310.131	184.205	190.382	190.729	197.537	315.587	196.894	-8191	255	
481.398	1	1	0	0	0.38102	0.10822	0.031131	0.19389	0.090166	0.045906	0.12289	0.21256	0.10188	0.11841	0.23865	0.15442	0.19153	0.30577	0.14937	0.090734	-3.2542	-3.2708	-3.4958	-3.7	-3.2146	-3.7313	-3.5938	-3.3333	-3.6625	-3.2417	-3.5354	-3.6354	-3.1771	-3.7729	-3.3021	-3.3812	295.250	310.596	438.392	229.904	368.591	456.232	456.365	175.487	479.267	400.599	175.577	376.528	171.630	179.593	397.267	512.750	0.00096144	0.00058617	0.00011497	1378.9	6.8619e-06	5.4065e-06	1456.1	278.13	1.2836e-05	1.8327e-06	345.72	99.477	78.407	22.684	4.228e-06	31.208	0.00045896	0.00044684	0.00012638	1368.5	5.0133e-06	4.7874e-06	1442	276.78	4.7704e-06	4.8187e-06	344.45	99.802	78.531	23.115	4.7286e-06	31.779	367.021	291.378	231.447	177.186	299.523	302.545	177.193	184.211	306.816	252.960	184.260	190.066	190.755	197.767	292.520	196.986	-8191	255	
481.494	1	1	0	0	0.14397	0.18752	0.13729	0.1236	0.2362	0.093621	0.19683	0.14345	0.17506	0.11486	0.025742	0.035313	0.23805	0.18365	0.22237	0.13679	-3.2313	-3.2313	-3.3729	-3.6583	-3.1083	-3.4875	-3.6583	-3.3792	-3.6146	-3.15	-3.55	-3.6833	-3.2021	-3.4875	-3.5667	-3.2687	271.064	414.369	408.309	260.697	407.527	204.408	493.121	473.045	187.523	236.046	465.092	292.215	187.047	170.861	192.718	228.024	0.0010606	0.00028057	3.7682e-05	1375.4	4.9357e-06	4.6181e-06	1444.6	277.84	1.3288e-05	4.884e-06	342.81	99.254	77.992	22.657	1.834e-06	30.942	0.00044672	0.00043296	0.00012356	1361	4.8786e-06	4.6556e-06	1434	275.96	4.6518e-06	4.7821e-06	342.86	99.523	78.239	23.12	4.7233e-06	31.678	376.781	275.305	282.706	177.226	265.634	348.021	177.221	184.330	296.429	268.798	184.191	189.992	190.477	197.773	279.161	197.091	-8191	255	
481.590	1	1	0	0	0.18461	0.31553	0.15465	0.11113	0.2398	0.36121	0.19544	0.10646	0.21942	0.1863	0.03375	0.054989	0.043674	0.15063	0.19955	0.015789	-3.2417	-3.3917	-3.2687	-3.6646	-3.1	-3.375	-3.6833	-3.2667	-3.4979	-3.2667	-3.3958	-3.9292	-3.3542	-3.4729	-3.5896	-3.2417	429.992	415.468	318.046	179.062	246.388	404.126	452.588	348.048	286.950	381.194	243.860	278.446	359.472	430.248	265.042	284.798	0.0010249	0.00058706	4.1801e-05	1369.4	9.8128e-07	2.585e-06	1443.8	276.44	6.3241e-06	4.2711e-06	341.74	99.506	77.987	22.544	4.905e-06	30.836	0.00043318	0.00042474	0.00012182	1355.2	4.7031e-06	4.7469e-06	1430.2	275.1	4.7136e-06	4.816e-06	341.93	99.354	78.094	23.084	4.8435e-06	31.641	375.136	254.626	244.196	177.367	259.609	264.137	177.108	184.471	360.118	377.833	184.286	190.328	190.736	197.609	353.735	197.242	-8191	255	
481.711	1	1	0	0	0.074497	0.14573	0.092564	0.29948	0.16932	0.12606	0.10754	0.30032	0.26588	0.12854	0.22396	0.052801	0.11578	0.27411	0.14017	0.14408	-3.1375	-3.2521	-3.1875	-3.8312	-3.2812	-3.3125	-3.7729	-3.2396	-3.6	-3.5417	-3.2708	-3.7792	-3.2687	-3.3792	-3.6708	-3.0563	166.642	210.452	421.739	479.795	348.533	276.745	342.171	497.651	222.500	464.309	509.779	466.827	179.181	525.971	390.543	204.561	0.00091249	0.0004543	9.2629e-05	1372.6	1.3827e-06	3.2939e-06	1444.3	275.83	4.1006e-06	5.99e-06	342.21	98.84	77.796	22.482	3.9032e-06	30.959	0.00045068	0.00045224	0.0001248	1358.4	4.9688e-06	4.919e-06	1432.8	274.98	4.8069e-06	5.024e-06	342.13	99.188	78.253	23.024	5.0812e-06	31.664	377.031	284.154	252.189	177.619	312.953	258.181	177.170	184.347	296.577	311.397	184.144	190.318	190.855	198.127	312.294	197.174	-8191	255	
481.783	1	1	0	0	0.18222	0.14523	0.1874	0.15123	0.2084	0.20524	0.14986	0.17809	0.13951	0.17302	0.28576	0.12896	0.16829	0.17662	0.066436	0.15891	-3.1042	-3.2417	-3.1167	-3.7292	-3.3771	-3.2479	-3.6979	-3.3167	-3.4771	-3.5292	-3.2062	-3.7917	-3.2542	-3.1063	-3.7938	-3.1333	344.468	216.723	499.273	287.260	311.820	335.004	183.917	515.282	409.944	376.529	505.578	206.844	320.453	217.890	317.276	521.216	0.0010475	0.00051785	0.00021847	1367.8	4.0767e-06	5.3543e-06	1446.1	274.79	8.7351e-06	4.3433e-06	342.11	99.134	77.701	22.653	3.2337e-06	31.14	0.00046891	0.00046488	0.00012905	1354.4	5.0222e-06	5.0156e-06	1429.6	274.49	4.9492e-06	4.8898e-06	341.64	99.292	77.998	23.041	4.7457e-06	31.611	370.452	259.198	272.226	177.554	296.261	305.202	177.196	184.302	311.394	303.388	184.435	190.270	190.549	197.901	260.612	197.251	-8191	255	
481.879	1	1	0	0	0.14067	0.13532	0.28171	0.24398	0.11238	0.11017	0.13927	0.18454	0.041621	0.23315	0.2771	0.18415	0.19928	0.18759	0.086168	0.059484	-3.0771	-3.6229	-2.9688	-3.7188	-3.2146	-3.2396	-3.8292	-3.2021	-3.3	-3.5625	-3.2417	-3.5812	-3.3354	-3.1021	-3.4542	-3.4083	517.085	421.787	230.431	181.699	175.088	265.143	486.645	519.865	406.054	470.270	435.171	486.530	514.298	514.362	433.184	506.077	0.0009843	0.00050691	0.00010009	1367.1	4.8338e-06	6.9561e-06	1444.1	275.83	6.4443e-06	7.1609e-06	341.9	99.33	77.911	22.5	4.9398e-06	30.606	0.00044705	0.00043921	0.00012078	1352.3	4.8185e-06	4.7558e-06	1427.3	273.72	4.6429e-06	4.596e-06	341.12	99.146	77.992	22.956	4.6685e-06	31.524	375.771	269.728	245.673	177.653	316.098	335.694	177.187	184.346	343.169	311.529	184.231	190.148	190.658	197.595	302.420	197.474	-8191	255	
481.975	1	1	0	0	0.14331	0.11902	0.35691	0.092126	0.24848	0.24541	0.16565	0.19712	0.12984	0.22771	0.28491	0.22399	0.15452	0.092684	0.10888	0.10249	-2.9083	-3.6208	-3.0687	-3.6479	-3.2938	-3.1771	-3.8312	-3.4521	-3.275	-3.5458	-3.2104	-3.6396	-3.4583	-3.275	-3.5208	-3.4021	381.830	425.454	508.729	193.255	464.310	521.491	512.841	492.323	514.899	305.201	508.476	520.876	508.350	396.588	182.580	523.336	0.0010846	0.00022426	0.00010478	1360.2	3.4117e-06	6.649e-06	1436.5	276.2	1.001e-05	6.5031e-06	341.37	98.627	78.106	22.616	2.8908e-06	30.679	0.00043859	0.00042247	0.00011802	1349.9	4.6907e-06	4.6603e-06	1421.8	273.79	4.721e-06	4.7706e-06	341.17	99.081	77.863	23.015	4.6299e-06	31.514	378.777	236.567	275.281	177.562	285.585	279.208	177.199	184.628	263.013	290.844	184.446	190.280	190.792	197.417	280.874	197.149	-8191	255	
482.096	1	1	0	0	0.21505	0.28439	0.22068	0.31727	0.13777	0.26093	0.27178	0.15067	0.17833	0.087033	0.082485	0.16792	0.19946	0.1668	0.16612	0.12616	-2.875	-3.5167	-3.2479	-3.7458	-3.4708	-3.2333	-3.95	-3.5521	-3.3979	-3.7667	-3.35	-3.4875	-3.6021	-3.2188	-3.5208	-3.3479	213.126	378.960	179.490	421.787	310.706	305.849	438.187	241.658	327.317	276.410	242.229	215.318	501.546	455.960	268.472	431.200	0.00096269	0.00054722	6.0673e-05	1357.8	4.3629e-06	4.7994e-06	1437.6	274.81	6.1092e-06	4.7223e-06	342.15	98.718	77.841	22.504	8.1653e-06	30.889	0.00045113	0.00042836	0.00011897	1348.4	4.7394e-06	4.7252e-06	1423	273.36	4.6536e-06	4.7591e-06	340.91	98.936	77.953	22.966	4.5886e-06	31.507	377.621	265.478	274.050	177.486	303.827	302.622	177.172	184.579	332.809	267.933	184.549	190.364	190.883	197.725	303.087	197.268	-8191	255	
482.192	1	1	0	0	0.31199	0.11952	0.032125	0.19825	0.14816	0.10822	0.14511	0.38082	0.17083	0.21154	0.075756	0.14279	0.21047	0.075308	0.25334	0.31132	-3.0146	-3.7021	-3.2875	-3.6083	-3.6104	-3.0958	-3.8729	-3.4354	-3.2354	-3.7104	-3.3396	-3.2875	-3.5458	-3.2062	-3.525	-3.5292	233.164	391.013	463.942	421.158	211.407	217.116	409.835	506.900	173.161	430.321	522.969	456.480	355.651	186.968	230.962	514.560	0.00096895	0.00040251	0.00011093	1361.7	5.3103e-06	6.3929e-06	1437	275.72	1.1101e-05	1.4442e-06	342.11	98.851	77.775	22.438	5.3573e-06	31.081	0.00044803	0.00043109	0.00011795	1350.7	4.6973e-06	4.7503e-06	1423.4	274.18	4.7981e-06	4.6937e-06	341.1	99.167	77.944	22.978	4.6628e-06	31.653	369.258	287.401	237.229	177.285	312.862	263.781	177.201	184.336	324.892	431.132	184.177	190.156	190.738	197.867	346.915	196.858	-8191	255	
482.288	1	1	0	0	0.041977	0.08248	0.1089	0.2271	0.063847	0.096205	0.23141	0.30892	0.10053	0.025068	0.12542	0.050607	0.20593	0.33657	0.33881	0.084868	-2.7083	-3.5938	-3.1354	-3.3542	-3.6042	-3.1854	-3.7792	-3.4813	-3.2104	-3.7375	-3.3125	-3.3	-3.5708	-3.3208	-3.4104	-3.6083	284.360	379.160	261.816	196.936	281.069	252.585	466.036	502.144	458.422	414.916	189.487	303.708	354.388	300.160	347.903	177.295	0.00094866	0.00065958	5.9713e-06	1366.2	4.4406e-06	5.9731e-06	1439.6	274.5	8.5774e-06	6.1777e-06	341.33	99.079	77.873	22.568	8.1888e-06	31.089	0.00045236	0.00042397	0.00012083	1351.1	4.743e-06	4.7469e-06	1426.2	273.46	4.8523e-06	4.7356e-06	340.37	99.299	77.985	23.009	4.8488e-06	31.628	383.494	265.587	400.793	177.585	357.011	316.992	177.081	184.312	340.769	352.510	184.184	190.286	190.915	197.895	344.392	197.166	-8191	255	
482.384	1	1	0	0	0.053516	0.080607	0.1283	0.087968	0.052492	0.16043	0.30199	0.14318	0.097917	0.13496	0.18287	0.14087	0.1719	0.054585	0.18354	0.11339	-2.6562	-3.5167	-3.3104	-3.5271	-3.7292	-3.3625	-3.6813	-3.5771	-3.0833	-3.8167	-3.3271	-3.3438	-3.7208	-3.2146	-3.4917	-3.6146	297.601	425.517	190.871	523.691	421.790	323.972	447.273	490.766	358.013	441.988	489.740	489.308	493.087	208.419	514.283	191.162	0.0010151	0.00077013	0.00020617	1362.2	4.1804e-06	7.648e-07	1433.8	275.37	4.1564e-06	5.3537e-06	340.85	98.901	77.901	22.677	2.7805e-06	30.832	0.00045181	0.00043241	0.00012418	1352.1	4.8591e-06	4.8753e-06	1426.3	274.02	4.853e-06	4.7728e-06	340.7	99.281	78.024	23.028	4.9298e-06	31.59	383.118	263.624	226.550	177.587	293.434	207.359	177.366	184.262	292.494	340.917	184.346	190.470	190.447	197.512	233.092	197.137	-8191	255	
482.478	1	1	0	0	0.1887	0.062295	0.24425	0.29495	0.10673	0.30012	0.13142	0.15201	0.10173	0.020107	0.49755	0.063418	0.36662	0.21911	0.094533	0.046336	-2.8583	-3.4542	-3.2979	-3.3292	-3.6937	-3.3646	-3.725	-3.7167	-3.0104	-3.5563	-3.5167	-3.1667	-3.6042	-3.4396	-3.3292	-3.7687	264.290	496.493	496.337	173.812	217.811	516.951	478.413	335.086	513.389	478.027	477.622	461.386	463.819	389.555	449.819	197.862	0.0010187	0.00049681	7.1714e-05	1367.8	5.9792e-06	4.9473e-06	1434.9	276.03	1.2289e-05	1.4696e-06	340.93	99.078	78.125	22.673	2.025e-06	30.891	0.00045755	0.00045579	0.00012549	1353.7	5.0593e-06	5.1103e-06	1426.1	274.22	5.036e-06	5.0527e-06	341.06	99.554	78.209	23.082	5.1049e-06	31.607	382.803	235.595	313.643	177.626	280.357	357.731	177.073	184.398	285.373	359.200	184.274	190.563	190.614	197.876	256.960	197.045	-8191	255	
482.576	1	1	0	0	0.38738	0.17507	0.25265	0.19192	0.24585	0.22381	0.17311	0.27085	0.11988	0.10164	0.16374	0.093567	0.034392	0.11088	0.17471	0.12312	-2.9188	-3.4958	-3.3458	-3.225	-3.7167	-3.2958	-3.5979	-3.5542	-3.1937	-3.4521	-3.7	-3.1979	-3.65	-3.4313	-3.1479	-3.7562	486.837	281.929	382.324	408.960	503.314	170.998	454.360	230.164	457.176	515.178	455.193	495.186	498.824	462.577	523.881	483.545	0.0009495	0.00056571	4.7753e-05	1369.8	2.6917e-06	5.5572e-06	1443.4	275.35	8.0717e-06	5.8132e-06	341.75	99.099	78.091	22.646	7.1042e-06	30.781	0.00047515	0.00047359	0.00013235	1354.4	5.1174e-06	5.2056e-06	1429.2	274.27	5.2067e-06	5.3235e-06	341.88	99.274	78.127	23.101	5.3417e-06	31.577	374.967	247.335	221.405	177.482	334.196	297.750	177.186	184.307	292.045	321.875	184.220	190.583	190.943	197.752	304.503	196.871	-8191	255	
482.695	1	1	0	0	0.077424	0.05968	0.12421	0.066622	0.088798	0.15176	0.34577	0.23075	0.24337	0.17387	0.15762	0.24831	0.10811	0.22668	0.30543	0.14214	-2.8812	-3.4083	-3.5458	-3.275	-3.5854	-3.4104	-3.4313	-3.7354	-3.1271	-3.4521	-3.6292	-3.1896	-3.6604	-3.3833	-3.2146	-3.6667	307.823	289.105	313.781	455.893	252.871	508.599	463.858	176.178	417.607	347.138	373.339	482.974	505.187	441.966	411.995	222.496	0.0010517	1.4824e-05	0.00014905	1361.1	2.7318e-06	4.0302e-06	1436	275.35	8.2048e-06	6.3095e-06	340.36	98.633	78.104	22.568	2.9561e-06	30.804	0.00049377	0.00049094	0.00014015	1352.2	5.5045e-06	5.4483e-06	1426.1	274.63	5.4019e-06	5.5454e-06	341.48	99.249	78.3	23.081	5.2874e-06	31.607	380.095	284.537	276.723	177.263	307.868	296.810	177.125	184.439	303.795	263.508	184.025	190.379	190.802	197.682	293.904	197.181	-8191	255	
482.791	1	1	0	0	0.089035	0.20208	0.080715	0.026113	0.15966	0.22912	0.17437	0.18296	0.068253	0.076501	0.14998	0.28638	0.11318	0.092841	0.092922	0.1885	-2.8729	-3.6375	-3.3833	-3.1437	-3.7042	-3.5146	-3.4208	-3.6708	-3.2812	-3.2458	-3.5896	-3.2604	-3.3646	-3.3688	-3.2208	-3.6688	406.526	311.801	222.966	201.527	239.893	264.088	507.571	502.943	393.216	233.180	467.331	462.388	517.992	182.299	229.212	438.820	0.0010932	0.00024569	4.9633e-05	1361.4	8.2685e-06	4.9674e-06	1439.2	274.72	4.9127e-06	3.8406e-06	342.85	99.166	77.522	22.531	7.5185e-06	30.945	0.00049497	0.00049705	0.00013563	1351.2	5.48e-06	5.4096e-06	1423.8	273.88	5.341e-06	5.3835e-06	341.99	99.306	78.13	23.059	5.4416e-06	31.67	376.521	304.586	300.944	177.526	310.098	413.682	177.047	184.362	283.095	274.528	184.295	190.403	190.900	197.749	294.555	197.208	-8191	255	
482.887	1	1	0	0	0.18038	0.0514	0.22697	0.10034	0.19435	0.062127	0.20269	0.064933	0.14582	0.14994	0.17728	0.093464	0.16014	0.15175	0.097263	0.17513	-2.8063	-3.0833	-3.4875	-3.2396	-3.75	-3.5958	-3.3458	-3.6375	-3.3708	-3.0479	-3.4604	-3.3333	-3.4104	-3.425	-3.1167	-3.375	503.289	241.255	311.275	507.275	441.100	496.904	191.093	431.891	282.524	323.208	502.943	210.597	178.545	291.845	524.450	177.450	0.0010192	0.00027625	6.8992e-05	1369.5	4.8141e-06	3.3982e-06	1437.1	274.78	1.1145e-05	6.781e-06	339.66	98.455	77.863	22.65	4.1698e-06	30.793	0.00050964	0.00050384	0.00013681	1354.1	5.5528e-06	5.5058e-06	1423.9	274.08	5.5709e-06	5.6623e-06	340.89	99.369	78.156	23.091	5.4145e-06	31.66	370.194	272.772	280.715	177.500	287.809	245.183	177.166	184.413	297.204	274.343	184.155	190.433	190.872	197.655	284.573	197.036	-8191	255	
483.008	1	1	0	0	0.13626	0.11337	0.24736	0.27318	0.012827	0.13948	0.16586	0.088346	0.17769	0.26166	0.19241	0.15553	0.18575	0.059586	0.23076	0.057811	-3	-3.1646	-3.5958	-3.4854	-3.3729	-3.5	-3.3292	-3.625	-3.3937	-3.3146	-3.8792	-3.3083	-3.5771	-3.5417	-3.1813	-3.5333	393.742	391.308	403.001	455.884	268.967	448.876	377.940	170.869	229.593	484.967	479.051	309.962	379.017	524.940	247.024	444.181	0.0010362	0.00053538	4.8548e-05	1361	6.1091e-06	5.914e-06	1439.4	274.1	7.0339e-06	5.2574e-06	341.03	99.216	77.714	22.49	2.4268e-06	30.827	0.00051498	0.00050548	0.00013588	1351.2	5.5781e-06	5.484e-06	1425.6	273.63	5.4957e-06	5.5933e-06	341.16	99.334	78.118	23.022	5.5119e-06	31.602	381.343	277.229	321.053	177.477	325.892	377.469	176.970	184.596	281.289	307.411	184.067	190.629	190.942	197.590	269.872	197.101	-8191	255	
483.080	1	1	0	0	0.27244	0.14474	0.055114	0.25739	0.11254	0.17465	0.26596	0.18968	0.177	0.092045	0.097128	0.049567	0.1168	0.099304	0.30839	0.35188	-2.9646	-3.3083	-3.5146	-3.2667	-3.4042	-3.5563	-3.0792	-3.5917	-3.4833	-3.1833	-3.6458	-3.275	-3.3812	-3.5458	-3.2146	-3.4167	252.475	306.719	524.332	469.095	267.273	504.191	474.531	486.051	489.199	276.859	181.810	399.602	465.003	507.474	380.028	426.193	0.00093132	9.5293e-05	9.7464e-05	1359.2	4.5826e-06	5.2037e-06	1435.2	276.4	4.2448e-06	1.5359e-06	343.58	99.24	77.575	22.595	4.0559e-06	30.82	0.00052486	0.00050382	0.00014176	1349.9	5.62e-06	5.3963e-06	1424.7	274.91	5.5071e-06	5.5198e-06	342.22	99.321	78.1	23.025	5.4555e-06	31.626	372.982	269.733	281.516	177.443	308.151	268.612	177.299	184.550	349.537	263.257	184.158	190.219	190.963	197.572	329.167	197.065	-8191	255	
483.176	1	1	0	0	0.18481	0.11043	0.21346	0.26508	0.27485	0.074989	0.30781	0.16111	0.30909	0.10868	0.15508	0.18192	0.30388	0.098349	0.079195	0.17099	-3.2271	-3.1396	-3.3896	-3.2167	-3.1542	-3.7333	-3.4625	-3.5979	-3.5896	-3.1813	-3.6833	-3.3104	-3.0917	-3.8229	-3.3	-3.4271	405.520	286.010	364.428	498.321	208.053	170.560	462.341	473.493	293.072	385.853	417.692	511.514	168.138	196.247	351.767	437.039	0.0010012	0.00028728	0.00012393	1365.5	1.6296e-06	4.8052e-06	1439	275.6	1.4186e-05	3.5397e-06	340.94	99.042	77.988	22.572	4.709e-06	30.908	0.00049852	0.00048739	0.0001343	1353.9	5.3886e-06	5.3842e-06	1425.5	274.29	5.3692e-06	5.3075e-06	341.41	99.362	78.069	23.071	5.2808e-06	31.684	372.002	215.094	217.543	177.395	332.584	354.610	177.105	184.397	332.253	343.722	184.493	190.302	190.785	197.864	311.309	197.099	-8191	255	
483.272	1	1	0	0	0.17535	0.25001	0.038203	0.22129	0.16869	0.31054	0.33082	0.13095	0.21352	0.10538	0.21589	0.13204	0.37137	0.081959	0.050652	0.14062	-3.3917	-2.95	-3.5271	-3.725	-3.2042	-3.5833	-3.4167	-3.5083	-3.5417	-3.1042	-3.8063	-3.5083	-3.3792	-3.6937	-3.2188	-3.2208	197.259	455.298	172.420	464.545	512.601	276.790	465.911	175.365	277.912	210.601	203.123	390.124	167.756	469.400	319.826	446.108	0.00096156	0.0003122	0.00016195	1362.3	5.9394e-06	4.716e-06	1440	275.37	1.3867e-05	7.2798e-06	339.73	98.43	77.948	22.538	7.001e-06	30.75	0.00049205	0.00048179	0.00013708	1351.9	5.3714e-06	5.1753e-06	1424.3	274.41	5.1772e-06	5.2784e-06	341.15	99.063	78.02	23.05	5.2011e-06	31.539	377.807	240.403	231.382	177.492	284.908	313.833	177.103	184.367	296.445	287.005	184.260	190.420	190.748	197.749	312.505	197.199	-8191	255	
483.391	1	1	0	0	0.29076	0.094322	0.13296	0.12235	0.10478	0.03462	0.28613	0.17981	0.10667	0.10292	0.17821	0.18819	0.091939	0.16047	0.066486	0.14519	-3.1958	-3.2667	-3.4375	-3.6646	-3.0354	-3.5812	-3.4688	-3.4375	-3.7396	-3.3167	-3.4958	-3.4854	-3.1271	-3.7313	-3.3833	-3.3521	281.282	242.181	435.223	520.502	412.165	397.761	472.975	417.805	181.545	190.243	447.113	401.726	367.371	481.245	171.423	343.365	0.0010677	6.4906e-05	0.00012604	1365.4	3.6991e-06	1.9589e-06	1443.7	276.08	9.7862e-06	1.2026e-06	339.83	98.831	77.529	22.672	5.816e-06	30.748	0.00047499	0.0004609	0.00013213	1351.8	5.1461e-06	5.0975e-06	1425.9	274.11	4.9953e-06	5.2633e-06	340.55	99.02	77.833	23.04	5.2e-06	31.582	376.565	425.348	260.075	177.383	275.986	244.118	177.181	184.265	316.892	267.532	184.282	190.488	190.665	197.931	253.646	197.406	-8191	255	
483.487	1	1	0	0	0.14761	0.27969	0.047914	0.2721	0.065121	0.36482	0.15341	0.24251	0.081875	0.052148	0.12183	0.060671	0.19985	0.1734	0.10041	0.11149	-3.2583	-3.175	-3.5625	-3.4771	-3.0771	-3.5125	-3.4625	-3.25	-3.8	-3.15	-3.4062	-3.6896	-3.125	-3.4625	-3.4458	-3.1979	216.485	236.261	434.965	499.699	196.212	494.416	411.111	394.763	228.840	282.550	204.950	187.963	522.105	495.926	336.438	365.643	0.0010522	0.00043361	0.00010527	1360.5	5.0642e-06	5.5972e-06	1438.5	275	9.6881e-06	7.1935e-06	341.85	98.449	77.657	22.492	8.4492e-06	30.933	0.00047553	0.00047248	0.00012957	1348.3	5.2361e-06	5.2183e-06	1423.2	273.81	5.056e-06	5.2182e-06	340.89	98.707	77.699	22.907	5.0304e-06	31.543	374.166	233.128	239.700	177.373	249.617	313.593	177.338	184.335	277.014	294.473	184.189	190.838	190.409	198.247	306.182	197.249	-8191	255	
483.583	1	1	0	0	0.21103	0.18022	0.094479	0.22137	0.1575	0.13583	0.078568	0.22314	0.1882	0.19568	0.21717	0.15907	0.13103	0.17754	0.071803	0.14809	-3.3187	-3.1146	-3.325	-3.7875	-3.1667	-3.6604	-3.7125	-3.2958	-3.6021	-3.0979	-3.3375	-3.675	-3.1458	-3.3208	-3.4417	-3.2062	307.202	310.316	288.197	476.633	478.777	205.028	486.562	415.774	175.161	217.022	468.234	178.239	385.923	345.451	526.034	402.016	0.0011476	0.00014681	0.00013275	1360.8	3.7617e-06	2.531e-06	1433.7	275.26	6.0274e-06	8.0724e-06	340.7	98.787	77.392	22.513	4.2887e-06	30.629	0.0004692	0.0004608	0.00012861	1344.5	5.0955e-06	5.0605e-06	1420.3	273.19	4.9853e-06	5.1459e-06	340.15	98.798	77.677	22.907	4.9756e-06	31.459	378.230	286.682	251.823	177.604	283.681	282.925	177.175	184.200	310.523	320.300	184.357	190.577	190.656	197.901	265.262	197.472	-8191	255	
483.657	1	1	0	0	0.27127	0.051499	0.11955	0.20947	0.26547	0.14281	0.28315	0.17048	0.28419	0.068849	0.19432	0.14708	0.23839	0.13228	0.14798	0.15553	-3.2729	-3.1437	-3.3312	-3.7375	-3.1479	-3.4833	-3.7542	-3.1146	-3.6458	-3.1792	-3.2646	-3.6063	-3.1896	-3.4771	-3.675	-3.0687	401.624	313.773	524.493	200.858	485.499	449.997	180.670	421.909	472.490	188.960	393.085	310.735	448.713	174.189	459.214	456.949	0.001033	0.00024251	3.5919e-05	1361.1	4.0047e-06	3.2725e-06	1427.4	274.26	1.1497e-05	3.2579e-06	338.81	98.666	77.519	22.361	3.0102e-06	30.651	0.00046597	0.00046113	0.00012622	1343.7	5.0976e-06	5.0231e-06	1416.7	272.38	4.9689e-06	5.0439e-06	339.77	98.783	77.561	22.876	4.9415e-06	31.427	366.731	265.111	293.872	177.468	289.816	351.993	177.214	184.349	273.887	337.665	184.556	190.411	190.726	197.673	349.312	197.137	-8191	255	
483.776	1	1	0	0	0.067483	0.008205	0.079636	0.077696	0.03198	0.072401	0.28967	0.10874	0.12086	0.2963	0.17187	0.18169	0.10713	0.20624	0.053029	0.048921	-3.2417	-3.4437	-3.2188	-3.8271	-3.2979	-3.475	-3.6875	-3.2354	-3.6542	-3.3375	-3.1854	-3.6667	-3.4333	-3.3187	-3.6729	-3.2979	396.051	279.306	316.640	461.814	215.123	296.437	450.324	206.387	203.866	495.912	321.118	385.092	430.847	321.306	479.133	286.643	0.0010761	0.00051838	9.3106e-05	1354.9	3.7565e-06	2.5468e-06	1435.3	275.17	8.9339e-06	3.1372e-06	337.71	98.933	77.341	22.513	4.2981e-06	30.79	0.00046691	0.00046136	0.00012674	1341.7	5.1691e-06	5.1713e-06	1417.5	273.08	5.0637e-06	5.0828e-06	338.9	98.888	77.385	22.89	4.9091e-06	31.5	378.903	256.503	192.888	177.485	310.030	378.467	177.262	184.492	293.368	323.797	184.153	190.474	191.150	198.168	225.080	197.243	-8191	255	
483.872	1	1	0	0	0.14052	0.19295	0.037932	0.072023	0.1547	0.074316	0.26318	0.17934	0.13463	0.078045	0.135	0.16996	0.044375	0.10038	0.062243	0.11829	-3.2	-3.3083	-3.0875	-3.7417	-3.3083	-3.5708	-3.7667	-3.2271	-3.5667	-3.5625	-3.3438	-3.6792	-3.3354	-3.2729	-3.6417	-3.0104	423.230	257.846	322.362	479.049	321.935	240.750	500.064	418.093	381.804	492.200	515.613	416.201	407.735	211.951	455.435	432.509	0.0010166	0.00024187	0.00015544	1353.4	2.9269e-06	7.411e-06	1425.5	274.11	9.9461e-06	4.2191e-06	340.18	98.55	77.381	22.415	5.4476e-06	30.821	0.00047583	0.00046987	0.00012738	1340.6	5.2348e-06	5.0506e-06	1414.9	272.27	5.041e-06	4.9637e-06	339.39	98.865	77.506	22.854	4.9398e-06	31.406	372.289	268.025	210.889	177.326	298.775	295.363	177.181	184.420	335.753	346.758	184.497	190.627	190.570	198.021	324.290	197.121	-8191	255	
483.968	1	1	0	0	0.025023	0.37407	0.23902	0.41867	0.13183	0.15238	0.405	0.19871	0.18703	0.20077	0.18313	0.14823	0.21431	0.047979	0.20478	0.42864	-3.1646	-3.5229	-3.0021	-3.8104	-3.2812	-3.1958	-3.8583	-3.3083	-3.4813	-3.6021	-3.2167	-3.575	-3.3792	-3.2562	-3.7458	-3.2083	486.105	478.559	174.017	495.197	345.074	186.803	472.508	425.536	446.225	429.148	499.171	253.431	194.990	314.849	250.992	462.067	0.00095194	0.00023099	7.9724e-05	1361.5	5.4405e-06	7.3663e-07	1430.5	273.81	4.5899e-06	4.0297e-06	339.09	98.586	77.615	22.26	3.2817e-06	30.475	0.00046977	0.00045135	0.00012634	1342.3	5.1666e-06	5.0199e-06	1415.3	272.42	5.0048e-06	5.0002e-06	339.1	98.75	77.524	22.854	4.9234e-06	31.394	370.389	259.420	256.071	177.447	284.259	247.523	177.270	184.245	274.503	337.888	184.441	190.561	190.702	198.213	245.776	197.137	-8191	255	
484.088	1	1	0	0	0.25214	0.18009	0.17519	0.13883	0.31728	0.14552	0.27382	0.2611	0.053743	0.11781	0.13773	0.21278	0.24858	0.16787	0.24258	0.23115	-3.1021	-3.4021	-3.2146	-3.6417	-3.375	-3.1125	-3.8312	-3.2604	-3.6188	-3.5583	-3.1125	-3.6	-3.4875	-3.2375	-3.6979	-3.2458	436.063	506.421	441.286	182.478	204.760	335.570	522.535	492.203	333.434	447.088	194.980	191.663	168.934	199.196	469.336	469.919	0.00084812	0.00011295	8.7462e-05	1357.3	3.3799e-06	4.4222e-06	1426.8	274	1.1041e-05	1.7905e-06	338.05	98.429	77.332	22.583	2.319e-06	30.556	0.00046648	0.00044753	0.00012939	1340.8	4.9817e-06	4.9335e-06	1413.4	272.27	4.9148e-06	4.969e-06	338.66	98.661	77.423	22.87	4.9711e-06	31.398	376.437	525.871	276.482	177.221	300.933	327.724	177.231	184.373	290.149	362.385	184.488	190.583	191.376	197.975	507.457	197.681	-8191	255	
484.185	1	1	0	0	0.13976	0.10874	0.030929	0.047157	0.16773	0.29515	0.27088	0.064111	0.17653	0.19637	0.063843	0.087643	0.10406	0.19918	0.26498	0.054415	-2.8875	-3.6854	-3.2083	-3.5979	-3.5104	-3.1917	-3.7229	-3.5125	-3.3979	-3.7583	-3.2958	-3.6063	-3.5896	-3.2083	-3.5458	-3.5312	356.024	511.582	238.465	420.626	228.004	300.735	474.023	524.670	449.655	496.588	354.629	203.538	439.278	344.267	408.732	253.204	0.00091748	0.00049071	0.00011291	1349.1	1.7923e-06	4.9226e-06	1427.9	274.11	7.7366e-06	7.1759e-06	338.13	97.966	77.263	22.369	2.8762e-06	30.638	0.00045555	0.00044177	0.00012654	1338.3	4.947e-06	5.0173e-06	1415	271.82	4.9525e-06	4.9697e-06	338.03	98.482	77.342	22.803	4.957e-06	31.387	380.367	258.751	267.750	177.402	357.855	349.376	177.255	184.575	330.395	286.480	184.090	190.321	190.660	197.618	330.059	197.104	-8191	255	
484.281	1	1	0	0	0.23656	0.26487	0.088826	0.13527	0.16557	0.26603	0.25577	0.13575	0.084258	0.25717	0.21515	0.14458	0.13878	0.10047	0.17365	0.14784	-2.9813	-3.4042	-3.2562	-3.525	-3.4875	-3.2396	-3.7188	-3.375	-3.1437	-3.7354	-3.3479	-3.6312	-3.6083	-3.0917	-3.475	-3.4875	270.564	477.605	348.552	450.713	496.024	360.445	470.295	472.411	446.710	460.263	463.531	312.898	259.543	252.257	384.718	482.338	0.0009482	0.0001663	0.00014139	1350.8	6.1865e-06	5.943e-06	1426	273.24	2.514e-06	5.5329e-06	338.9	98.028	77.32	22.399	5.966e-06	30.753	0.00046069	0.00044631	0.00012957	1338.3	4.9721e-06	5.0786e-06	1412	271.89	4.9164e-06	5.0247e-06	338.71	98.472	77.26	22.832	5.0704e-06	31.391	368.057	286.459	277.706	177.225	272.886	354.026	177.243	184.343	341.927	308.422	184.129	190.721	190.902	198.138	297.431	197.204	-8191	255	
484.377	1	1	0	0	0.35213	0.17457	0.12203	0.20164	0.050038	0.10852	0.16857	0.053987	0.21764	0.15211	0.18002	0.094626	0.3881	0.15366	0.39937	0.17549	-2.775	-3.6104	-3.3604	-3.3875	-3.7438	-3.3042	-3.7604	-3.5646	-3.1125	-3.6396	-3.3979	-3.4042	-3.6813	-3.0979	-3.3625	-3.6208	370.657	308.571	508.626	205.149	212.565	274.655	410.971	239.052	473.868	364.093	483.338	186.758	427.465	414.373	471.563	234.528	0.0010282	0.0004228	0.00010407	1352.4	7.915e-06	6.095e-06	1422.6	271.26	2.4854e-06	2.1271e-06	338.89	98.992	76.96	22.279	6.2274e-06	30.696	0.00046964	0.00046347	0.0001274	1336.9	4.9948e-06	5.0678e-06	1409.3	270.79	4.9482e-06	5.074e-06	337.81	98.479	77.29	22.786	4.9802e-06	31.347	371.725	254.345	265.469	177.445	290.318	333.087	177.231	184.615	467.303	323.051	184.488	190.375	190.731	197.871	253.239	197.397	-8191	255	
484.471	1	1	0	0	0.085827	0.097213	0.048961	0.051273	0.28028	0.066844	0.1413	0.23991	0.28832	0.15893	0.1992	0.082333	0.18139	0.099686	0.093405	0.13696	-2.6458	-3.5458	-3.2875	-3.4146	-3.7854	-3.1125	-3.6875	-3.5312	-3.1292	-3.6896	-3.5167	-3.1708	-3.6	-3.4208	-3.3708	-3.6229	463.704	493.911	256.132	174.345	463.096	230.328	440.387	433.237	317.796	356.830	431.054	495.154	266.964	254.217	287.955	287.196	0.00098666	0.00074439	5.2813e-05	1347.4	2.793e-06	2.714e-06	1428.1	272.45	5.3052e-06	4.7046e-06	337.99	98.096	77.102	22.212	5.3807e-06	30.608	0.00047279	0.00046379	0.00012812	1334.5	5.0141e-06	4.9458e-06	1412.6	270.97	4.9495e-06	4.9932e-06	338.01	98.349	77.236	22.827	4.8922e-06	31.283	378.870	249.403	270.076	177.658	303.643	356.956	177.312	184.485	260.818	315.300	184.443	190.340	190.974	198.004	282.221	197.071	-8191	255	
484.567	1	1	0	0	0.057281	0.051857	0.15835	0.16418	0.29465	0.14842	0.17655	0.32602	0.10199	0.22335	0.076875	0.19963	0.070468	0.12166	0.074654	0.14259	-2.8021	-3.6188	-3.4437	-3.3333	-3.4083	-3.3333	-3.6458	-3.6354	-3.0083	-3.5687	-3.4562	-3.3729	-3.65	-3.2958	-3.3979	-3.5667	285.866	264.627	226.939	513.550	473.408	494.978	460.039	447.921	430.250	269.211	384.656	475.182	493.312	463.626	394.241	310.677	0.00097942	0.00042371	0.00013994	1346.8	4.962e-06	9.0313e-06	1422.4	272.51	8.1073e-06	4.7417e-06	337.61	97.825	76.466	22.318	5.3696e-06	30.653	0.00046891	0.00044907	0.00012559	1335.8	5.0183e-06	4.9909e-06	1408.7	271.07	5.0277e-06	5.0097e-06	338	98.29	76.922	22.825	4.8247e-06	31.335	375.518	274.105	267.216	177.625	311.862	346.421	177.111	184.654	309.748	336.617	184.371	190.748	190.657	198.156	281.879	197.176	-8191	255	
484.688	1	1	0	0	0.10822	0.085523	0.084727	0.079979	0.19746	0.1504	0.21633	0.20444	0.062003	0.096515	0.10009	0.26163	0.09609	0.1896	0.20908	0.23019	-2.6146	-3.5458	-3.4813	-3.4562	-3.7104	-3.3708	-3.5312	-3.6729	-3.3125	-3.6458	-3.6292	-3.1583	-3.6937	-3.4042	-3.35	-3.8625	374.026	520.901	508.043	524.409	239.914	215.463	418.691	492.385	195.377	257.394	469.259	353.570	522.260	273.187	335.525	437.485	0.0010011	0.00057198	0.00012158	1345.8	3.3245e-06	5.7488e-06	1423.8	272.72	9.7751e-06	2.9356e-06	339.1	98.357	76.908	22.361	4.8727e-06	30.771	0.0004671	0.00045591	0.00012431	1336.1	5.0215e-06	5.0769e-06	1410.7	271.24	5.0553e-06	5.066e-06	337.73	98.496	77.316	22.822	5.0175e-06	31.419	371.353	247.556	270.233	177.475	299.999	328.744	177.288	184.362	330.214	327.603	184.320	190.482	190.613	198.077	324.835	197.040	-8191	255	
484.784	1	1	0	0	0.27932	0.027635	0.091469	0.24049	0.09919	0.1138	0.055528	0.20067	0.13035	0.06144	0.14764	0.038427	0.074161	0.21025	0.22349	0.12656	-2.6917	-3.7313	-3.5042	-3.3458	-3.6396	-3.4083	-3.5917	-3.8396	-3.225	-3.5187	-3.625	-3.2271	-3.5375	-3.3833	-3.4417	-3.6125	249.133	461.316	522.311	505.582	335.991	405.092	479.135	432.210	518.233	212.757	216.872	221.001	481.947	202.669	294.661	174.510	0.00093637	0.00034987	7.8453e-05	1345.5	3.7744e-06	5.4686e-06	1425.3	272.81	8.3494e-06	4.4821e-06	337.41	98.258	77.125	22.224	5.0096e-06	30.753	0.00047102	0.00045945	0.00012666	1333.2	5.0865e-06	5.0242e-06	1411.4	271.76	4.9702e-06	5.0745e-06	338.16	98.394	77.426	22.78	4.8936e-06	31.331	374.318	285.315	166.845	177.417	291.230	318.054	177.149	184.476	301.521	314.682	184.298	190.570	190.810	197.684	347.479	197.385	-8191	255	
484.880	1	1	0	0	0.042115	0.13687	0.14019	0.22603	0.13875	0.041178	0.26923	0.28052	0.16359	0.17399	0.08748	0.12982	0.20645	0.095983	0.072403	0.094878	-2.8375	-3.3604	-3.5667	-3.4667	-3.5083	-3.4313	-3.5458	-3.7104	-3.1688	-3.3187	-3.6521	-3.2313	-3.5646	-3.6646	-3.1958	-3.4646	406.762	293.687	485.867	404.973	491.645	462.264	412.345	441.761	303.206	281.413	463.153	178.718	201.160	406.401	167.556	198.694	0.00090564	0.00027004	4.9405e-05	1350.1	1.642e-06	5.3659e-06	1423.9	272.43	4.8085e-06	4.7465e-06	338	98.377	77.25	22.297	2.0038e-06	30.568	0.00046556	0.00045254	0.00012578	1337.7	5.1813e-06	5.0558e-06	1410.1	270.99	5.0403e-06	5.0442e-06	337.97	98.596	77.443	22.805	4.9607e-06	31.377	369.307	225.094	267.506	177.559	302.065	339.465	177.244	184.537	254.723	326.908	184.273	190.456	190.776	197.908	353.187	197.189	-8191	255	
484.952	1	1	0	0	0.1424	0.16843	0.20855	0.35529	0.064506	0.22135	0.14457	0.072583	0.17524	0.19457	0.093828	0.09401	0.17942	0.13576	0.22439	0.13619	-2.8812	-3.2979	-3.5521	-3.3646	-3.5312	-3.5104	-3.2958	-3.7583	-3.3583	-3.2896	-3.6667	-3.2458	-3.5083	-3.6167	-3.2542	-3.6542	227.339	193.350	385.318	485.516	197.436	447.466	506.990	296.887	396.226	467.745	512.582	367.789	336.270	362.256	354.837	214.088	0.00097767	0.0005986	0.00010197	1349.1	2.1256e-06	6.862e-06	1425.3	272.67	8.7373e-06	4.4252e-06	336.35	98.356	77.007	22.244	5.7162e-06	30.495	0.00046131	0.00045458	0.00012859	1334.4	4.9556e-06	4.8858e-06	1411.3	271.35	5.0105e-06	4.9422e-06	337.93	98.536	77.423	22.788	5.0784e-06	31.34	374.921	248.114	251.282	177.395	341.328	292.630	177.259	184.188	328.599	299.176	184.327	190.613	191.029	197.608	373.896	197.304	-8191	255	
485.048	1	1	0	0	0.22954	0.14356	0.14304	0.12785	0.14136	0.22097	0.25376	0.1491	0.088345	0.29063	0.1325	0.13286	0.094463	0.016161	0.072094	0.3118	-2.9	-3.0812	-3.7125	-3.4083	-3.5	-3.6312	-3.3542	-3.5896	-3.4604	-3.1521	-3.7271	-3.0396	-3.4229	-3.7396	-3.1021	-3.6104	525.949	262.701	241.644	494.842	268.307	302.567	463.922	464.941	447.636	237.320	334.693	450.369	194.896	469.742	380.891	446.062	0.00092307	0.00020519	7.8333e-05	1348.5	2.4566e-06	3.2106e-06	1423.9	273.11	6.7651e-06	1.2729e-06	336.49	97.413	76.689	22.303	4.2338e-06	30.464	0.00045959	0.00046556	0.00013194	1337.9	5.1509e-06	5.0181e-06	1412.4	271.84	4.8937e-06	5.0367e-06	338	98.246	77.169	22.822	5.0841e-06	31.299	369.532	200.301	285.851	177.499	222.036	336.398	177.251	184.382	354.919	340.266	184.406	190.480	190.757	197.735	303.667	197.060	-8191	255	
485.169	1	1	0	0	0.22541	0.16112	0.025103	0.26205	0.12637	0.087397	0.11625	0.063144	0.17629	0.24343	0.19214	0.27399	0.17743	0.13981	0.024239	0.21336	-2.9167	-3.2125	-3.6042	-3.4083	-3.4146	-3.7354	-3.3563	-3.7062	-3.5438	-3.2208	-3.7792	-3.3667	-3.0896	-3.7146	-3.2188	-3.5083	419.392	357.598	321.336	517.046	332.074	273.244	460.320	219.286	182.585	261.208	450.453	521.375	473.060	472.596	199.337	479.995	0.00094533	0.00022802	0.00012219	1342.5	3.2639e-06	5.6159e-06	1423.5	273.21	8.3904e-06	4.8628e-06	338.6	98.065	77.377	22.167	2.536e-06	30.622	0.00046263	0.00045074	0.00012759	1335.5	5.0471e-06	5.058e-06	1410.5	271.69	4.9651e-06	5.0388e-06	338.96	98.439	77.47	22.765	4.9899e-06	31.371	367.209	226.275	271.051	177.473	299.944	347.834	177.304	184.467	305.328	283.336	184.536	190.503	190.828	197.774	370.884	197.029	-8191	255	
485.265	1	1	0	0	0.23603	0.07174	0.15874	0.14576	0.23748	0.087926	0.21886	0.19069	0.19304	0.15649	0.16997	0.18448	0.15189	0.078984	0.13804	0.04026	-3.1083	-3.0146	-3.6979	-3.4375	-3.2729	-3.5375	-3.6167	-3.5458	-3.5854	-3.1958	-3.7417	-3.4813	-3.1688	-3.5917	-3.1958	-3.5021	199.204	424.302	278.632	261.981	458.320	457.263	515.894	174.695	223.205	389.253	272.709	220.658	458.889	313.368	488.833	465.729	0.00085681	0.00021849	9.5481e-05	1347.8	3.7052e-06	3.1539e-06	1420.1	271.66	7.7113e-06	3.2136e-06	337.55	98.163	77.439	22.32	7.3571e-06	30.675	0.00045478	0.00045814	0.00012539	1334.8	4.9387e-06	5.1021e-06	1410.1	271.43	4.9798e-06	5.0543e-06	338	98.228	77.365	22.813	5.0407e-06	31.37	369.276	220.307	272.424	177.369	321.371	348.870	177.249	184.389	321.634	303.020	184.227	190.492	190.441	197.963	320.381	197.441	-8191	255	
485.361	1	1	0	0	0.15205	0.13954	0.17682	0.15039	0.038162	0.16327	0.42908	0.21609	0.10845	0.32487	0.022299	0.1715	0.026214	0.087445	0.25592	0.26318	-3.3354	-3.0438	-3.6188	-3.5375	-3.1854	-3.725	-3.4833	-3.2313	-3.5771	-3.2958	-3.6521	-3.4667	-3.2979	-3.5917	-3.2208	-3.5938	506.637	344.859	517.044	508.983	504.062	269.188	466.149	458.818	433.734	475.949	501.505	519.497	208.999	318.754	479.875	434.099	0.00096317	0.00040226	6.4505e-05	1343.3	5.5308e-07	7.6118e-06	1420.4	272.08	7.0824e-06	4.7874e-06	336.64	97.941	76.85	22.25	7.6877e-06	30.614	0.00046212	0.00045898	0.00012659	1334.1	5.0467e-06	4.9995e-06	1408.3	271.26	4.9159e-06	5.0859e-06	338.6	98.337	77.315	22.761	5.0843e-06	31.351	376.528	261.878	176.558	177.558	329.904	337.342	177.339	184.285	287.088	373.219	184.496	190.468	190.974	197.642	311.601	197.270	-8191	255	
485.457	1	1	0	0	0.16877	0.13252	0.08336	0.15372	0.1257	0.15801	0.14042	0.3628	0.18429	0.011988	0.17241	0.15128	0.17967	0.27544	0.056264	0.19943	-3.3229	-3.125	-3.5333	-3.4208	-3.0729	-3.6854	-3.6813	-3.3792	-3.5729	-3.2021	-3.5396	-3.6312	-3.2854	-3.6437	-3.2833	-3.1854	292.647	224.615	324.908	207.060	439.875	452.167	381.206	171.210	340.664	412.400	482.068	364.252	435.429	490.632	379.450	496.892	0.001018	0.00047976	9.3183e-05	1347.1	3.1055e-06	3.2552e-06	1419.6	271.06	8.0254e-06	1.6332e-06	339.44	98.025	77.339	22.389	2.6833e-06	30.46	0.00046807	0.00046872	0.00012846	1335.4	5.1754e-06	5.2329e-06	1412.5	271.19	5.084e-06	5.2114e-06	338.87	98.564	77.384	22.855	5.2575e-06	31.318	380.864	265.060	210.714	177.338	316.290	359.003	177.301	184.498	322.775	391.648	184.414	190.496	190.791	198.054	331.950	197.154	-8191	255	
485.552	1	1	0	0	0.22235	0.14976	0.16501	0.07188	0.12093	0.29361	0.33103	0.05019	0.17673	0.12749	0.12925	0.23889	0.18292	0.059515	0.067038	0.088919	-3.2062	-3.1875	-3.3604	-3.6229	-3.3187	-3.5417	-3.7167	-3.2938	-3.7229	-3.2188	-3.6646	-3.5521	-3.2042	-3.5687	-3.4562	-3.2917	206.755	341.268	392.185	211.318	449.363	254.017	416.824	408.466	499.745	187.659	258.792	205.461	285.013	429.893	435.003	265.471	0.0009926	0.00063006	9.391e-05	1349.4	2.4327e-06	1.751e-06	1423.5	273.08	5.9831e-06	3.8921e-06	336.38	98.161	76.974	22.397	6.7288e-06	30.722	0.00048595	0.00047777	0.00013146	1336.1	5.3157e-06	5.1936e-06	1411	271.6	5.3717e-06	5.3035e-06	338.16	98.466	77.458	22.869	5.2037e-06	31.436	378.151	275.389	281.837	177.528	344.056	345.678	177.272	184.233	313.275	291.901	184.133	190.413	190.733	197.957	275.308	197.445	-8191	255	
485.650	1	1	0	0	0.080466	0.14059	0.25195	0.27801	0.18831	0.063645	0.24673	0.068279	0.17123	0.077749	0.12473	0.34817	0.13233	0.11696	0.16705	0.092136	-3.2104	-3.0938	-3.3958	-3.6083	-2.9708	-3.4583	-3.6521	-3.3292	-3.4417	-3.3563	-3.4417	-3.6958	-3.1521	-3.5083	-3.5083	-3.0729	437.652	392.691	351.319	472.976	224.062	499.722	444.298	452.584	402.718	323.949	406.308	185.156	230.890	305.434	436.663	385.884	0.0010269	0.00012807	7.0175e-05	1351	1.7235e-06	7.4898e-06	1423.3	272.07	1.2206e-05	4.3449e-06	339.62	98.488	77.246	22.361	2.2833e-06	30.732	0.00049144	0.00048441	0.00013382	1337.3	5.4936e-06	5.3768e-06	1411.2	271.2	5.2701e-06	5.3947e-06	338.88	98.501	77.355	22.872	5.306e-06	31.447	372.147	303.528	261.961	177.347	355.522	328.060	177.223	184.390	286.079	344.004	184.526	190.265	190.904	197.844	200.063	197.250	-8191	255	
485.768	1	1	0	0	0.10735	0.044098	0.20331	0.20114	0.19158	0.27709	0.29326	0.24597	0.043497	0.22609	0.2642	0.13285	0.34218	0.14019	0.20693	0.14524	-3.1792	-3.3229	-3.3125	-3.7333	-3.1583	-3.3937	-3.5687	-3.3708	-3.6104	-3.3833	-3.3729	-3.7583	-3.2479	-3.4396	-3.5938	-3.1688	252.089	267.513	256.724	457.585	389.549	220.105	475.823	518.340	432.759	227.932	337.176	372.176	485.027	273.751	287.512	363.202	0.000886	0.00061632	0.00013139	1348.3	3.2612e-06	8.4127e-06	1420.8	272.64	9.9659e-06	5.8632e-06	337.76	97.936	77.046	22.198	2.0943e-06	30.347	0.00049701	0.0004939	0.00013978	1337.2	5.4741e-06	5.4264e-06	1411.8	271.64	5.4013e-06	5.5371e-06	338.52	98.482	77.301	22.855	5.332e-06	31.355	374.136	266.708	300.044	177.294	259.203	335.194	177.193	184.450	318.275	304.324	184.281	190.674	191.090	197.791	266.633	197.236	-8191	255	
485.865	1	1	0	0	0.19824	0.049602	0.19141	0.16971	0.20646	0.46598	0.15431	0.24643	0.16024	0.12769	0.31781	0.083548	0.10033	0.23661	0.033603	0.16435	-3.1146	-3.2792	-3.1229	-3.7438	-3.3479	-3.2771	-3.8937	-3.2146	-3.5521	-3.4167	-3.2021	-3.6875	-3.175	-3.4167	-3.6896	-3.2021	393.189	362.206	182.550	516.692	256.249	300.504	216.245	486.291	180.619	187.606	449.238	344.133	475.112	463.442	349.563	469.748	0.0010161	0.00075551	9.0919e-05	1349	5.787e-06	4.6647e-06	1427.1	272.87	1.0773e-05	2.2381e-06	336.1	98.207	77.136	22.258	4.7394e-06	30.764	0.0004962	0.00048552	0.00013781	1337.6	5.4596e-06	5.4647e-06	1412.6	271.77	5.3256e-06	5.4064e-06	338.64	98.508	77.351	22.834	5.4042e-06	31.507	368.384	259.762	304.745	177.380	301.627	353.933	177.102	184.339	324.517	408.677	184.328	190.365	190.856	197.966	253.553	197.490	-8191	255	
485.961	1	1	0	0	0.23152	0.28343	0.17095	0.27627	0.18451	0.017586	0.27816	0.36958	0.19796	0.19216	0.14204	0.11658	0.10444	0.096073	0.21768	0.18772	-3.1708	-3.3792	-3.2438	-3.6521	-3.3146	-3.3229	-3.9396	-3.3396	-3.45	-3.4125	-3.0812	-3.6292	-3.4542	-3.1542	-3.5687	-3.1917	255.854	425.881	269.997	493.740	525.019	478.552	450.744	200.949	245.502	365.773	460.278	362.130	493.645	432.377	447.087	436.063	0.00089273	0.00015487	9.6834e-05	1345.4	6.932e-06	4.3729e-06	1419.9	272.89	9.1317e-06	1.5955e-06	337.08	98.44	76.803	22.376	6.6895e-06	30.797	0.00050168	0.00049646	0.00014287	1336	5.4424e-06	5.4329e-06	1410	271.21	5.5312e-06	5.4318e-06	338.32	98.528	77.309	22.886	5.4968e-06	31.485	376.446	296.086	245.564	177.430	313.161	320.050	177.242	184.419	306.037	269.998	184.555	190.616	190.883	198.061	320.802	197.252	-8191	255	
486.057	1	1	0	0	0.043427	0.057392	0.1239	0.16133	0.3189	0.13176	0.1919	0.25202	0.30506	0.13632	0.26139	0.067223	0.19969	0.1802	0.15628	0.36038	-3.1208	-3.5958	-3.0417	-3.725	-3.35	-3.2479	-3.8479	-3.4292	-3.4	-3.5958	-3.3563	-3.6479	-3.4125	-3.0771	-3.6375	-3.25	302.296	190.907	389.219	459.124	431.529	496.144	413.421	445.364	494.737	288.798	507.868	391.242	180.460	336.784	190.235	286.672	0.00099523	0.00042102	0.00013535	1353.9	3.5315e-06	5.0421e-06	1420.8	273.32	1.1534e-05	4.6992e-06	337.68	98.282	77.232	22.454	4.6334e-06	30.69	0.00049639	0.00049035	0.00013981	1339	5.3699e-06	5.3513e-06	1410	271.64	5.3537e-06	5.4882e-06	338.32	98.504	77.433	22.889	5.351e-06	31.423	373.583	280.184	282.669	177.274	283.058	300.986	177.282	184.450	285.579	327.140	184.308	190.474	190.382	198.165	272.910	197.045	-8191	255	
486.178	1	1	0	0	0.12237	0.088559	0.23254	0.11208	0.20907	0.30015	0.34484	0.24029	0.1028	0.032204	0.22281	0.022011	0.083579	0.099296	0.089258	0.13152	-2.85	-3.35	-3.3187	-3.7	-3.4229	-3.2625	-3.6521	-3.1771	-3.2979	-3.6354	-3.425	-3.5854	-3.2708	-3.1729	-3.6396	-3.2562	365.445	509.550	279.375	399.309	170.873	416.987	427.841	426.479	203.387	475.903	505.849	181.617	415.215	293.176	293.520	372.606	0.00096927	0.00051937	9.3281e-06	1349.3	3.2841e-06	7.42e-06	1422.6	271.56	5.4896e-06	3.2139e-06	336.36	97.856	77.017	22.399	3.8171e-06	30.589	0.0004986	0.00048319	0.00013996	1337.5	5.4408e-06	5.3811e-06	1410.8	271.28	5.3931e-06	5.4122e-06	338.03	98.594	77.412	22.875	5.3062e-06	31.431	375.173	289.021	453.164	177.453	257.269	342.914	177.263	184.407	283.956	295.248	184.529	190.621	190.908	197.742	285.858	197.291	-8191	255	
486.249	1	1	0	0	0.068623	0.10644	0.084098	0.27334	0.037831	0.14428	0.35289	0.24966	0.090462	0.10003	0.11587	0.1626	0.3473	0.2285	0.34468	0.40326	-2.8	-3.5229	-3.0854	-3.4146	-3.5333	-3.1042	-3.75	-3.2604	-3.1167	-3.5375	-3.2042	-3.475	-3.3479	-3.1646	-3.5667	-3.4333	246.931	209.428	490.516	378.621	511.080	321.894	423.264	479.824	322.702	219.343	325.144	433.517	494.606	268.192	208.623	479.116	0.0010589	0.00025219	0.00013658	1349.2	4.1469e-06	7.5961e-06	1420.9	271.74	1.4071e-05	5.6668e-06	337.45	97.814	77.171	22.354	1.0526e-06	30.662	0.00049434	0.00049321	0.00013772	1340.1	5.3214e-06	5.4661e-06	1411.6	271.44	5.3653e-06	5.4234e-06	338.25	98.46	77.321	22.877	5.3824e-06	31.405	372.963	309.723	262.230	177.518	240.007	324.984	177.270	184.548	273.596	321.488	184.218	190.471	190.761	198.162	369.007	197.094	-8191	255	
486.370	1	1	0	0	0.37801	0.32445	0.15124	0.25478	0.060466	0.25293	0.12412	0.17359	0.17585	0.10136	0.099573	0.21756	0.083106	0.26372	0.085411	0.087925	-2.7542	-3.5083	-3.2292	-3.5854	-3.4188	-3.1208	-3.9125	-3.4333	-3.0271	-3.6583	-3.3458	-3.4833	-3.5938	-3.0917	-3.5375	-3.3771	217.765	345.921	480.122	521.955	186.116	459.553	472.602	501.206	450.368	375.200	249.327	432.126	474.836	456.445	265.042	499.701	0.00092052	0.00079766	0.0001226	1348	8.2912e-06	5.4673e-06	1424.6	271.09	8.8735e-06	7.7159e-06	337.42	98.382	77.045	22.347	2.7935e-06	30.62	0.00050088	0.00049522	0.00013997	1338.6	5.4593e-06	5.6563e-06	1413	271.46	5.5753e-06	5.607e-06	338.29	98.626	77.412	22.884	5.5039e-06	31.48	377.915	251.336	265.727	177.439	286.337	293.472	177.058	184.444	314.565	266.378	184.525	190.494	190.661	197.643	361.972	197.405	-8191	255	
486.464	1	1	0	0	0.1959	0.25951	0.14947	0.22355	0.2214	0.20258	0.17632	0.21085	0.24322	0.36783	0.14232	0.22787	0.064041	0.26564	0.23136	0.097013	-2.6833	-3.5542	-3.3083	-3.4771	-3.7687	-3.3333	-3.7833	-3.5708	-2.9646	-3.6437	-3.2125	-3.4062	-3.7417	-3.1125	-3.4083	-3.3479	364.276	361.518	478.927	493.215	178.521	372.527	478.962	303.705	425.374	415.273	373.721	433.404	287.704	524.628	310.189	196.526	0.0010761	0.00045581	9.5365e-05	1350.5	6.7746e-06	2.4526e-06	1422.4	271.84	9.8459e-06	6.2401e-06	338.5	98.631	77.086	22.48	3.2959e-06	30.647	0.00051913	0.00051311	0.00013848	1337	5.4966e-06	5.5676e-06	1412.4	271.48	5.443e-06	5.4868e-06	338.84	98.77	77.37	22.958	5.372e-06	31.48	376.856	242.079	245.978	177.342	292.465	418.221	177.376	184.486	318.107	276.414	184.342	190.435	190.838	197.547	278.603	197.544	-8191	255	
486.560	1	1	0	0	0.12664	0.08611	0.24156	0.22907	0.14291	0.086666	0.17413	0.091994	0.12865	0.19918	0.19479	0.2066	0.048587	0.058882	0.10261	0.20249	-2.7458	-3.5875	-3.3896	-3.3375	-3.4979	-3.2458	-3.6312	-3.5687	-3.1063	-3.4875	-3.4771	-3.0938	-3.6375	-3.2896	-3.3396	-3.5812	182.744	443.804	395.900	515.821	214.790	501.613	479.163	487.757	345.267	371.185	519.398	356.233	370.840	498.242	471.743	523.814	0.0011328	0.00049523	0.00015326	1353.9	6.6598e-06	1.6625e-06	1423.8	273.04	5.8873e-06	3.6173e-06	338.37	98.645	77.11	22.506	1.0082e-05	30.546	0.00050777	0.00050025	0.00013709	1340.4	5.4904e-06	5.4389e-06	1413.4	271.57	5.6123e-06	5.3934e-06	338.95	98.859	77.453	22.92	5.236e-06	31.328	366.416	253.138	256.154	177.258	276.130	276.523	177.410	184.545	319.582	263.405	184.707	190.481	190.732	197.855	338.217	197.225	-8191	255	
486.657	1	1	0	0	0.13089	0.15176	0.31255	0.27522	0.18179	0.13873	0.137	0.091958	0.15336	0.090098	0.16817	0.1946	0.12215	0.15427	0.078531	0.16735	-2.575	-3.5292	-3.2438	-3.3479	-3.6021	-3.3042	-3.4875	-3.725	-3.1792	-3.5708	-3.5083	-3.0917	-3.5792	-3.1312	-3.3229	-3.6208	467.346	281.239	298.330	497.085	523.872	204.041	425.244	370.972	381.812	246.401	187.875	465.428	380.936	471.866	523.831	410.299	0.00092057	0.00041077	8.6468e-05	1351.3	4.6589e-06	3.6558e-06	1430.2	272.76	8.701e-06	6.3734e-06	338.87	98.335	77.239	22.437	5.7574e-06	30.502	0.00050102	0.00048927	0.0001331	1339.5	5.4072e-06	5.3287e-06	1414	271.59	5.2765e-06	5.291e-06	339.03	98.686	77.592	22.847	5.2682e-06	31.324	372.935	198.770	240.000	177.520	285.742	308.441	177.404	184.550	313.028	306.179	184.397	190.266	190.392	197.809	274.168	197.608	-8191	255	
486.753	1	1	0	0	0.13957	0.23633	0.33761	0.11756	0.030754	0.090871	0.026599	0.14797	0.1506	0.21585	0.099787	0.10884	0.10463	0.15956	0.059204	0.21913	-2.8292	-3.5292	-3.5021	-3.3104	-3.6833	-3.4667	-3.5167	-3.5333	-3.1813	-3.5479	-3.5167	-3.2271	-3.6604	-3.3688	-3.3438	-3.7271	320.517	247.036	440.863	489.176	187.505	461.625	464.640	445.168	172.526	401.344	427.345	467.889	444.480	177.344	221.185	484.085	0.00094488	0.00042769	8.0092e-05	1346.7	3.2727e-06	2.1458e-06	1427.6	273.67	6.5015e-06	2.7682e-06	338.03	98.469	77.226	22.407	3.6455e-06	30.762	0.00049897	0.00047056	0.0001353	1339.5	5.3474e-06	5.1757e-06	1413.5	271.87	5.2304e-06	5.3483e-06	338.94	98.693	77.605	22.882	5.2642e-06	31.516	369.740	196.650	267.896	177.524	261.631	245.102	177.117	184.367	295.882	281.209	184.194	190.426	191.096	197.704	348.079	196.916	-8191	255	
486.849	1	1	0	0	0.2173	0.27763	0.30129	0.095672	0.20914	0.14555	0.23145	0.16621	0.031504	0.13475	0.16517	0.080347	0.096479	0.075582	0.16668	0.079816	-2.7021	-3.275	-3.5271	-3.3125	-3.5	-3.2771	-3.2812	-3.7667	-3.2458	-3.3542	-3.6375	-3.3	-3.5687	-3.4729	-3.0771	-3.5792	175.575	370.858	460.395	174.109	271.884	471.611	424.867	471.314	178.315	475.591	416.264	246.015	450.745	470.767	340.899	411.132	0.00094991	0.00014103	0.00012392	1353.4	2.9727e-06	3.3196e-06	1427.9	272.93	6.9055e-06	5.8048e-06	337.61	98.876	77.319	22.391	6.3186e-06	30.683	0.0005026	0.00048642	0.00013459	1340.1	5.2385e-06	5.2576e-06	1414	271.35	5.2529e-06	5.1467e-06	338.15	98.747	77.437	22.918	5.3052e-06	31.505	374.395	198.427	290.330	177.391	282.808	313.087	177.148	184.363	289.500	295.368	184.366	190.632	190.861	197.877	288.599	197.123	-8191	255	
486.945	1	1	0	0	0.26638	0.21537	0.20996	0.21524	0.054596	0.088156	0.12343	0.30529	0.079624	0.073886	0.22	0.1847	0.17042	0.16668	0.11528	0.18925	-2.9313	-3.2479	-3.7604	-3.3917	-3.4167	-3.4062	-3.4625	-3.5792	-3.2542	-3.1271	-3.6521	-3.2458	-3.6458	-3.3125	-3.2271	-3.575	337.435	310.595	342.848	456.027	215.129	206.582	399.206	186.542	215.248	462.993	439.792	489.816	369.991	428.200	245.555	209.437	0.0010096	0.00047058	7.7648e-05	1350.2	5.8311e-06	4.2687e-06	1426.4	271.58	9.1088e-06	4.4784e-06	337.26	98.443	78.048	22.37	3.9635e-06	30.676	0.00048864	0.00047621	0.00013575	1337.8	5.179e-06	5.2881e-06	1413.7	271.72	5.1969e-06	5.1909e-06	338.35	98.772	77.601	22.889	5.3847e-06	31.402	375.768	234.367	318.097	177.596	308.098	315.056	177.298	184.387	304.125	297.578	184.151	190.662	190.927	197.973	295.695	197.172	-8191	255	
487.041	1	1	0	0	0.033878	0.12541	0.13326	0.22004	0.15067	0.31178	0.33573	0.14697	0.1435	0.076889	0.079229	0.079696	0.13209	0.16538	0.25748	0.11217	-2.8792	-3.1479	-3.5396	-3.2188	-3.6458	-3.4562	-3.2583	-3.6583	-3.1562	-3.1979	-3.7792	-3.0979	-3.4938	-3.575	-3.1917	-3.5021	492.489	368.402	359.802	523.650	349.836	435.533	435.019	483.666	492.866	197.182	199.008	429.099	222.026	481.037	272.004	446.166	0.00093291	0.00059398	3.7088e-05	1358.5	6.1234e-06	7.0913e-06	1426.9	273.97	4.8993e-06	3.0836e-06	338.47	97.852	77.171	22.44	4.678e-06	30.761	0.0004861	0.00048156	0.00013589	1341.6	5.2295e-06	5.3536e-06	1415.1	272.07	5.3049e-06	5.4549e-06	339	98.462	77.506	22.941	5.2972e-06	31.485	372.548	255.561	371.940	177.341	272.731	299.074	177.161	184.564	287.468	253.014	184.199	190.563	190.998	197.819	286.083	196.976	-8191	255	
487.137	1	1	0	0	0.13106	0.13629	0.12623	0.20007	0.27705	0.074328	0.19562	0.1084	0.14592	0.22233	0.1431	0.055048	0.057586	0.12283	0.056018	0.24998	-3.1437	-3.0583	-3.6	-3.3125	-3.3563	-3.7	-3.525	-3.6333	-3.4583	-3.2208	-3.5896	-3.2229	-3.4979	-3.4437	-3.0438	-3.3375	215.269	265.906	364.064	172.029	198.012	433.194	445.294	288.144	367.625	234.470	184.900	467.940	203.600	481.176	171.709	437.614	0.0010793	0.0003178	0.000132	1349.9	3.1104e-06	8.5035e-06	1427.5	273.15	6.2809e-06	3.4291e-06	337.1	97.808	77.249	22.442	4.7315e-06	30.765	0.00049471	0.00049715	0.00013632	1339.7	5.2569e-06	5.3886e-06	1412.3	271.77	5.2129e-06	5.45e-06	337.87	98.633	77.373	22.942	5.2976e-06	31.477	375.877	276.389	233.197	177.441	299.880	325.951	177.073	184.382	286.167	297.416	184.256	190.530	190.541	197.839	371.605	197.550	-8191	255	
487.258	1	1	0	0	0.30134	0.061536	0.23683	0.36381	0.010824	0.22662	0.17002	0.10447	0.044405	0.20263	0.21387	0.19663	0.10519	0.13991	0.20531	0.10892	-3.0479	-3.0729	-3.6375	-3.4729	-3.2646	-3.4958	-3.3063	-3.7125	-3.6021	-3.1583	-3.7417	-3.4354	-3.2583	-3.6479	-2.9	-3.5583	261.847	235.946	339.702	492.832	221.885	419.537	459.946	190.639	436.869	280.692	507.334	484.199	448.706	226.400	261.187	505.740	0.00097314	0.00071919	0.0001269	1348.5	4.9524e-06	5.1773e-06	1426.6	272.6	8.1859e-06	6.5984e-06	336.79	98.652	76.86	22.328	6.0741e-06	30.485	0.00048274	0.00049436	0.00013589	1337.7	5.4352e-06	5.3913e-06	1413.2	271.77	5.2171e-06	5.4932e-06	337.42	98.657	77.404	22.875	5.2475e-06	31.344	372.894	237.867	287.328	177.503	299.334	299.518	177.314	184.438	321.442	325.843	184.273	190.644	190.508	198.019	286.537	197.105	-8191	255	
487.352	1	1	0	0	0.16282	0.1008	0.21435	0.49475	0.1712	0.14681	0.18203	0.12914	0.068752	0.050071	0.20083	0.12169	0.23268	0.07772	0.13638	0.13307	-3.0542	-3.0875	-3.6521	-3.45	-3.3542	-3.6604	-3.4292	-3.5604	-3.45	-3.1917	-3.6188	-3.4146	-3.3958	-3.7396	-3.1104	-3.4	518.139	325.479	453.432	522.244	481.589	232.024	424.439	194.608	351.850	407.890	214.781	180.010	445.859	483.388	200.746	413.381	0.00085158	0.0009316	2.4765e-05	1346.7	3.2282e-06	3.3695e-06	1422	271.94	3.8817e-06	5.9426e-06	338.55	97.907	77.024	22.358	8.1312e-06	30.552	0.00048459	0.00049052	0.00013431	1336.5	5.3838e-06	5.3482e-06	1411.3	271.44	5.3656e-06	5.3513e-06	338.73	98.729	77.356	22.865	5.2376e-06	31.347	375.557	248.693	233.756	177.353	304.515	242.898	177.316	184.232	330.523	298.685	184.282	190.514	190.905	197.819	286.022	197.161	-8191	255	
487.450	1	1	0	0	0.24189	0.18664	0.21692	0.19147	0.13174	0.22741	0.23804	0.16911	0.0090572	0.085453	0.1427	0.20054	0.17817	0.06955	0.18225	0.24216	-3.1875	-3.2313	-3.2292	-3.5708	-3.0229	-3.7	-3.6104	-3.3812	-3.5917	-3.2062	-3.5042	-3.4	-3.0812	-3.5729	-3.2271	-3.4521	233.138	279.986	295.569	511.632	206.092	176.249	520.601	397.041	224.123	221.891	474.796	462.785	397.357	285.437	443.194	243.651	0.0011022	0.0003842	8.2933e-05	1346.7	2.6387e-06	3.6547e-06	1427.5	273.3	5.6256e-06	3.6761e-06	339.75	98.397	77.578	22.35	6.8001e-07	30.725	0.00050354	0.00049044	0.00013327	1335.8	5.3975e-06	5.3252e-06	1414.4	271.47	5.3296e-06	5.3641e-06	337.97	98.672	77.548	22.84	5.2449e-06	31.442	369.959	257.754	283.705	177.567	301.736	272.160	177.068	184.264	345.601	318.242	184.221	190.514	190.625	197.905	397.188	197.135	-8191	255	
487.545	1	1	0	0	0.15699	0.045417	0.05039	0.17356	0.13914	0.12276	0.15104	0.16631	0.11452	0.10979	0.041065	0.17995	0.20608	0.094701	0.32625	0.28587	-3.0792	-3.1333	-3.325	-3.6604	-3.0687	-3.6708	-3.7667	-3.2062	-3.4688	-3.05	-3.6063	-3.4667	-3.0646	-3.6188	-3.35	-3.1979	266.798	439.190	304.169	172.008	254.688	184.491	438.894	341.411	282.283	399.897	499.463	470.567	519.382	210.252	458.512	195.260	0.00096675	0.00045783	7.6702e-05	1346.7	1.8644e-06	3.5897e-06	1420.3	272.22	3.8224e-06	5.8057e-06	337.28	98.266	77.091	22.45	5.8375e-06	30.755	0.0005007	0.00048224	0.00013587	1336.3	5.3526e-06	5.3238e-06	1410.2	271.28	5.3529e-06	5.4072e-06	338.45	98.404	77.532	22.917	5.323e-06	31.546	374.179	262.338	201.674	177.569	321.394	250.493	177.187	184.447	339.141	286.571	184.595	190.549	190.723	197.815	294.326	197.057	-8191	255	
487.641	1	1	0	0	0.19858	0.17494	0.15599	0.3167	0.16795	0.028728	0.20365	0.099128	0.078461	0.11739	0.16898	0.11103	0.12104	0.14413	0.074621	0.15312	-3.2708	-3.0687	-3.275	-3.5208	-3.0312	-3.4646	-3.5458	-3.1708	-3.4708	-3.1958	-3.4375	-3.6063	-3.1333	-3.6333	-3.4104	-3.2396	299.703	514.314	469.991	479.276	370.359	506.864	446.925	487.479	288.226	339.813	168.343	189.336	226.247	224.712	198.417	207.772	0.0010627	0.00017125	6.2613e-05	1348.4	5.0144e-06	1.0328e-05	1427.7	271.84	9.7805e-06	7.9194e-06	337.97	98.001	77.389	22.195	4.646e-06	30.76	0.00049795	0.00048822	0.0001355	1337.4	5.4547e-06	5.1869e-06	1414	271.68	5.2865e-06	5.2751e-06	337.97	98.502	77.499	22.867	5.3053e-06	31.427	380.458	240.930	224.609	177.437	317.522	279.753	177.241	184.590	302.369	295.115	184.117	190.666	190.970	197.986	293.352	197.262	-8191	255	
487.737	1	1	0	0	0.09648	0.067033	0.030152	0.073119	0.13371	0.066841	0.18522	0.18168	0.025139	0.23611	0.21111	0.070346	0.21123	0.15155	0.20625	0.3817	-3.3417	-3.1271	-3.3083	-3.6896	-3.1271	-3.5542	-3.7812	-3.1583	-3.6917	-3.3312	-3.3604	-3.8187	-3.3187	-3.4479	-3.5375	-3.1292	426.911	428.839	215.707	508.249	490.508	448.787	459.823	486.146	385.693	324.636	489.308	354.808	515.635	240.628	466.915	385.287	0.00083259	0.00066178	5.077e-05	1352.2	4.1119e-06	4.1203e-06	1425.7	272.67	9.5114e-06	7.1086e-06	339.66	98.255	76.936	22.26	5.0728e-06	30.496	0.00049027	0.00048413	0.00013557	1338.1	5.43e-06	5.4403e-06	1413.4	271.37	5.4101e-06	5.2984e-06	338.84	98.599	77.45	22.905	5.4181e-06	31.463	377.236	259.650	220.321	177.483	271.641	288.959	177.084	184.408	315.945	267.181	184.135	190.523	190.740	197.660	262.282	197.226	-8191	255	
487.858	1	1	0	0	0.10889	0.016072	0.104	0.1633	0.089483	0.10857	0.05863	0.14135	0.1442	0.13077	0.3616	0.22089	0.062741	0.1284	0.1378	0.082151	-3.1312	-3.3271	-3.0646	-3.8125	-3.2375	-3.4708	-3.7958	-3.2771	-3.4583	-3.2729	-3.3271	-3.7083	-3.1458	-3.4292	-3.5396	-3.1833	341.159	288.698	498.653	171.397	355.673	178.669	481.574	457.183	491.194	266.407	505.953	526.071	287.553	410.856	347.168	354.910	0.00091686	0.00027037	9.7461e-05	1349	7.994e-06	5.2178e-06	1425.4	272.9	9.6403e-06	6.5896e-06	337.95	98.394	76.989	22.301	9.3198e-06	30.627	0.0004897	0.00049154	0.00014191	1337.4	5.4607e-06	5.446e-06	1415	271.51	5.452e-06	5.5936e-06	338.67	98.659	77.52	22.903	5.4659e-06	31.421	371.481	266.324	254.839	177.389	267.112	272.068	177.111	184.613	304.447	344.943	184.366	190.533	190.819	197.882	290.356	197.012	-8191	255	
487.954	1	1	0	0	0.095742	0.031332	0.0097734	0.10054	0.18436	0.056112	0.19726	0.15115	0.086949	0.2461	0.079379	0.14881	0.15088	0.062573	0.24579	0.16517	-3.0854	-3.1917	-3.175	-3.9083	-3.4792	-3.2271	-3.7521	-3.2562	-3.5646	-3.4313	-3.2167	-3.725	-3.2812	-3.3646	-3.4667	-3.3292	425.074	240.678	303.678	512.231	188.623	255.383	463.468	447.103	368.803	371.460	457.380	402.047	483.656	189.755	413.159	408.335	0.0011135	0.00021697	0.00010555	1350.4	5.7979e-06	3.8354e-06	1425	272.53	8.5903e-06	2.0354e-06	334.98	98.096	77.238	22.489	1.7421e-06	30.623	0.00049704	0.00050159	0.00013958	1337.6	5.4544e-06	5.5835e-06	1413.6	271.57	5.2541e-06	5.4271e-06	337.79	98.547	77.536	22.942	5.3133e-06	31.452	368.517	484.850	326.768	177.629	280.740	366.018	177.247	184.364	307.668	380.562	184.363	190.739	190.751	197.970	353.101	197.273	-8191	255	
488.050	1	1	0	0	0.14664	0.1901	0.3044	0.19742	0.082904	0.085083	0.2899	0.48506	0.079	0.18398	0.1298	0.11099	0.23079	0.11373	0.10027	0.065101	-3.2083	-3.4417	-3.0792	-3.8625	-3.2979	-3.3521	-3.9062	-3.3042	-3.4604	-3.65	-3.375	-3.5167	-3.2625	-3.3375	-3.7396	-3.1625	334.610	314.401	275.034	507.101	432.075	457.410	452.973	427.821	212.061	405.721	205.189	454.931	424.954	489.186	192.415	318.169	0.0010136	0.00028605	8.3025e-05	1347.3	4.7848e-06	6.1551e-06	1420.2	272.94	5.2598e-06	4.3978e-06	337.85	98.819	76.548	22.506	4.7368e-06	30.842	0.0004787	0.00048295	0.00013634	1337.9	5.1549e-06	5.3005e-06	1411.4	271.82	5.112e-06	5.1958e-06	338.81	98.805	77.304	22.907	5.1653e-06	31.516	380.869	175.930	299.246	177.522	264.956	278.423	177.266	184.525	278.036	248.694	184.095	190.331	190.719	197.934	307.587	197.226	-8191	255	
488.146	1	1	0	0	0.054206	0.19262	0.19374	0.14903	0.18328	0.014934	0.10213	0.23949	0.045683	0.18598	0.10588	0.0026954	0.096899	0.087093	0.12382	0.18397	-3.1917	-3.5583	-3.1333	-3.5938	-3.4625	-3.2375	-3.8958	-3.2229	-3.4354	-3.6354	-3.3563	-3.6042	-3.3396	-3.0583	-3.65	-3.2687	220.093	224.986	388.730	414.066	407.460	327.909	297.180	429.456	217.712	519.797	367.945	281.130	182.749	306.068	417.515	396.553	0.00097208	0.00024584	0.0001187	1346.2	4.4831e-06	5.5171e-06	1425.6	271.73	9.3445e-06	3.6749e-06	338.66	98.055	77.225	22.47	9.0462e-06	30.518	0.00047754	0.00046813	0.00013397	1339.1	5.3153e-06	5.2906e-06	1413.6	271.04	5.2436e-06	5.3402e-06	338.6	98.606	77.629	22.99	5.2978e-06	31.389	367.726	271.195	226.076	177.587	324.987	244.545	177.279	184.497	274.677	341.804	184.244	190.596	190.793	198.201	332.049	197.178	-8191	255	
#DATA ENDS
