BOXY.EXE: ISS Imagent and Oximeter Data Acquisition Program Version 0.80
Ascii Record File

#ACQ INFORMATION
2  Detector Channels 
16  External MUX Channels 
1  Auxiliary Channels 
5000  Waveform (CCF) Frequency (Hz)
1  Waveforms Skipped 
30  Waveforms Averaged 
1  Cycles Averaged 
16  Acquisitions per Waveform 
10.0806  Updata Rate (Hz) 

#FILE INFORMATION
TRUE -- External MUX Channel results are PARSED.
FALSE -- AC DC and Phase are NOT grouped.
TRUE -- Companion Program Settings File CREATED.
FALSE -- AC data not excluded
FALSE -- DC data not excluded
FALSE -- Phase data not excluded
FALSE -- Auxillary Chn. data not excluded
Tab delimiters

#CALIBRATION STATE
TRUE -- Waveform Calibration Values APPLIED.


#AUX CALIBRATION VALUES
Val Type	aux-1	

Term	1.0000e+00	
Factor	0.0000e+00	


#WF CALIBRATION VALUES
A = Detector Channel
Val Type	A-AC1	A-AC2	A-AC3	A-AC4	A-AC5	A-AC6	A-AC7	A-AC8	A-AC9	A-AC10	A-AC11	A-AC12	A-AC13	A-AC14	A-AC15	A-AC16	A-DC1	A-DC2	A-DC3	A-DC4	A-DC5	A-DC6	A-DC7	A-DC8	A-DC9	A-DC10	A-DC11	A-DC12	A-DC13	A-DC14	A-DC15	A-DC16	A-Ph1	A-Ph2	A-Ph3	A-Ph4	A-Ph5	A-Ph6	A-Ph7	A-Ph8	A-Ph9	A-Ph10	A-Ph11	A-Ph12	A-Ph13	A-Ph14	A-Ph15	A-Ph16	

Term	0.00000e+00	0.00000e+00	0.00000e+00	0.00000e+00	0.00000e+00	0.00000e+00	0.00000e+00	0.00000e+00	0.00000e+00	0.00000e+00	0.00000e+00	0.00000e+00	0.00000e+00	0.00000e+00	0.00000e+00	0.00000e+00	0.00000e+00	0.00000e+00	0.00000e+00	0.00000e+00	0.00000e+00	0.00000e+00	0.00000e+00	0.00000e+00	0.00000e+00	0.00000e+00	0.00000e+00	0.00000e+00	0.00000e+00	0.00000e+00	0.00000e+00	0.00000e+00	0.00000e+00	0.00000e+00	0.00000e+00	0.00000e+00	0.00000e+00	0.00000e+00	0.00000e+00	0.00000e+00	0.00000e+00	0.00000e+00	0.00000e+00	0.00000e+00	0.00000e+00	0.00000e+00	0.00000e+00	0.00000e+00	
Factor	1.00000e+00	1.00000e+00	1.00000e+00	1.00000e+00	1.00000e+00	1.00000e+00	1.00000e+00	1.00000e+00	1.00000e+00	1.00000e+00	1.00000e+00	1.00000e+00	1.00000e+00	1.00000e+00	1.00000e+00	1.00000e+00	1.00000e+00	1.00000e+00	1.00000e+00	1.00000e+00	1.00000e+00	1.00000e+00	1.00000e+00	1.00000e+00	1.00000e+00	1.00000e+00	1.00000e+00	1.00000e+00	1.00000e+00	1.00000e+00	1.00000e+00	1.00000e+00	X	X	X	X	X	X	X	X	X	X	X	X	X	X	X	X	

B = Detector Channel
Val Type	B-AC1	B-AC2	B-AC3	B-AC4	B-AC5	B-AC6	B-AC7	B-AC8	B-AC9	B-AC10	B-AC11	B-AC12	B-AC13	B-AC14	B-AC15	B-AC16	B-DC1	B-DC2	B-DC3	B-DC4	B-DC5	B-DC6	B-DC7	B-DC8	B-DC9	B-DC10	B-DC11	B-DC12	B-DC13	B-DC14	B-DC15	B-DC16	B-Ph1	B-Ph2	B-Ph3	B-Ph4	B-Ph5	B-Ph6	B-Ph7	B-Ph8	B-Ph9	B-Ph10	B-Ph11	B-Ph12	B-Ph13	B-Ph14	B-Ph15	B-Ph16	

Term	0.00000e+00	0.00000e+00	0.00000e+00	0.00000e+00	0.00000e+00	0.00000e+00	0.00000e+00	0.00000e+00	0.00000e+00	0.00000e+00	0.00000e+00	0.00000e+00	0.00000e+00	0.00000e+00	0.00000e+00	0.00000e+00	0.00000e+00	0.00000e+00	0.00000e+00	0.00000e+00	0.00000e+00	0.00000e+00	0.00000e+00	0.00000e+00	0.00000e+00	0.00000e+00	0.00000e+00	0.00000e+00	0.00000e+00	0.00000e+00	0.00000e+00	0.00000e+00	-1.63787e+02	-1.30482e+02	-1.27013e+02	-1.82279e+02	-8.24491e+01	-6.84222e+01	-1.57983e+02	-1.62015e+02	-7.99557e+01	-6.61839e+01	-1.70752e+02	-1.71092e+02	-1.83452e+02	-1.76822e+02	-7.40614e+01	-1.49983e+02	
Factor	2.59249e-05	1.52061e-04	4.07654e-05	1.48901e-01	1.23010e-06	1.67438e-06	1.54864e-01	4.69470e-02	1.30575e-06	1.53596e-06	8.14838e-02	2.72825e-02	2.22300e-02	8.62773e-03	1.45183e-06	1.23607e-02	1.23476e-05	1.95143e-05	5.42117e-06	7.93904e-02	1.93728e-07	2.16972e-07	7.74914e-02	2.51744e-02	1.93923e-07	2.16875e-07	4.22625e-02	1.41663e-02	1.20339e-02	4.66463e-03	2.03514e-07	6.46462e-03	X	X	X	X	X	X	X	X	X	X	X	X	X	X	X	X	



#DISTANCE SETTINGS
A = Detector Channel
A-1	A-2	A-3	A-4	A-5	A-6	A-7	A-8	A-9	A-10	A-11	A-12	A-13	A-14	A-15	A-16	

2.5000e+00	3.0000e+00	2.5000e+00	3.0000e+00	2.0000e+00	3.0000e+00	1.5000e+00	3.0000e+00	3.0000e+00	3.0000e+00	3.0000e+00	3.0000e+00	3.0000e+00	3.0000e+00	1.5000e+00	3.0000e+00	

B = Detector Channel
B-1	B-2	B-3	B-4	B-5	B-6	B-7	B-8	B-9	B-10	B-11	B-12	B-13	B-14	B-15	B-16	

1.0000e+01	1.0000e+01	1.0000e+01	1.4400e+00	1.0000e+01	1.0000e+01	1.5100e+00	1.9400e+00	1.0000e+01	1.0000e+01	1.9900e+00	2.4900e+00	2.4100e+00	2.9000e+00	1.0000e+01	2.9800e+00	




#DATA BEGINS
time	group	step	mark	flag	A-AC1	A-AC2	A-AC3	A-AC4	A-AC5	A-AC6	A-AC7	A-AC8	A-AC9	A-AC10	A-AC11	A-AC12	A-AC13	A-AC14	A-AC15	A-AC16	A-DC1	A-DC2	A-DC3	A-DC4	A-DC5	A-DC6	A-DC7	A-DC8	A-DC9	A-DC10	A-DC11	A-DC12	A-DC13	A-DC14	A-DC15	A-DC16	A-Ph1	A-Ph2	A-Ph3	A-Ph4	A-Ph5	A-Ph6	A-Ph7	A-Ph8	A-Ph9	A-Ph10	A-Ph11	A-Ph12	A-Ph13	A-Ph14	A-Ph15	A-Ph16	B-AC1	B-AC2	B-AC3	B-AC4	B-AC5	B-AC6	B-AC7	B-AC8	B-AC9	B-AC10	B-AC11	B-AC12	B-AC13	B-AC14	B-AC15	B-AC16	B-DC1	B-DC2	B-DC3	B-DC4	B-DC5	B-DC6	B-DC7	B-DC8	B-DC9	B-DC10	B-DC11	B-DC12	B-DC13	B-DC14	B-DC15	B-DC16	B-Ph1	B-Ph2	B-Ph3	B-Ph4	B-Ph5	B-Ph6	B-Ph7	B-Ph8	B-Ph9	B-Ph10	B-Ph11	B-Ph12	B-Ph13	B-Ph14	B-Ph15	B-Ph16	aux-1	digaux	

704.363	1	1	0	256	0.16042	0.033318	0.042859	0.18324	0.15319	0.163	0.34202	0.1785	0.1262	0.15742	0.050497	0.335	0.030343	0.28658	0.17491	0.16761	-3.1604	-3.1979	-4.2	-3.3438	-3.8604	-3.9333	-3.6167	-4.1625	-3.7708	-3.3979	-4.2625	-3.5875	-3.6979	-3.9917	-3.1833	-4.025	-79.964	120.058	95.037	124.643	-77.820	69.262	179.436	146.585	-99.134	-77.278	-90.010	226.594	37.467	196.057	156.762	103.335	0.0001924	7.9307e-05	0.00011461	1050.4	2.1055e-06	3.9345e-06	1135.8	216.33	2.6321e-06	2.4794e-06	276.04	78.127	61.128	18.3	1.2766e-06	25.543	0.00042604	0.00053014	0.00014166	1035.6	5.5531e-06	5.7882e-06	1123.7	215.35	5.7215e-06	5.5954e-06	274.81	78.993	61.693	18.5	5.6802e-06	25.87	175.310	-31.841	-34.410	-115.326	-17.365	-0.441	-114.936	-107.434	-16.001	6.692	-108.016	-101.545	-101.012	-93.383	28.620	-93.701	-8191	255	
704.460	1	1	0	0	0.15958	0.12573	0.10245	0.10373	0.091832	0.13209	0.024533	0.17546	0.24073	0.077159	0.1985	0.16151	0.042128	0.073908	0.18287	0.25701	-3.4562	-3.1188	-4.25	-3.3708	-3.5896	-4.1	-3.4833	-4.2083	-3.7271	-3.3333	-4.0667	-3.4667	-3.4396	-4.0708	-3.2917	-3.9437	136.584	76.615	99.895	-116.485	216.230	-82.728	140.830	225.678	-13.614	-62.274	179.397	162.726	180.766	-81.309	160.579	117.478	0.00016908	0.00038179	8.9809e-05	1048.5	3.4543e-06	3.0008e-06	1135	217.03	3.1373e-06	1.9691e-06	274.41	77.979	61.371	18.216	2.787e-06	25.508	0.00042033	0.0005355	0.00014128	1035.2	5.6944e-06	5.6327e-06	1124.7	215.28	5.4537e-06	5.6478e-06	274.4	78.829	61.707	18.511	5.5436e-06	25.888	167.640	-40.850	9.900	-115.009	-2.320	16.242	-115.086	-107.593	20.497	10.372	-107.782	-101.564	-101.145	-93.694	4.653	-94.501	-8191	255	
704.580	1	1	0	0	0.10892	0.36284	0.27983	0.21696	0.14067	0.17185	0.1681	0.054388	0.18458	0.24151	0.29586	0.23498	0.082982	0.21324	0.12055	0.083337	-3.6146	-3.1437	-4.1271	-3.7875	-3.4917	-4.0813	-3.4583	-3.95	-3.8958	-3.175	-4.3229	-3.6729	-3.4208	-4.0354	-3.3521	-3.8521	-91.295	173.708	4.329	-116.271	200.009	92.930	149.803	110.967	164.504	-99.563	143.253	67.277	-20.546	228.624	-85.297	62.710	0.00017864	0.00039244	4.6848e-05	1048.6	2.9301e-06	2.3571e-06	1134.6	214.35	3.4761e-06	4.6796e-06	274.62	77.584	61.101	18.192	4.5737e-07	25.284	0.00042972	0.00053697	0.00014279	1034.9	5.7255e-06	5.9631e-06	1122.1	214.75	5.7805e-06	5.8534e-06	273.98	78.657	61.581	18.496	5.5229e-06	25.829	175.292	4.450	-69.413	-114.976	28.988	35.929	-115.160	-107.497	-10.086	33.204	-107.945	-101.191	-101.183	-93.627	-9.138	-93.881	-8191	255	
704.676	1	1	0	0	0.17402	0.056473	0.062625	0.12665	0.092007	0.18714	0.065724	0.26241	0.26016	0.21431	0.10157	0.041479	0.32367	0.23879	0.27537	0.22457	-3.6021	-3.325	-4.2125	-3.8104	-3.3063	-4.0771	-3.4792	-3.7708	-4.025	-3.1646	-4.1562	-3.5896	-3.45	-4.1021	-3.5042	-3.6562	36.263	-87.838	-34.997	-84.854	210.213	156.624	116.819	154.814	168.778	-93.832	-30.368	-94.714	118.849	156.808	29.991	-84.929	0.00020628	0.00042171	0.00010198	1049.8	2.4195e-06	2.3372e-06	1134.7	215.66	2.9841e-06	2.9704e-06	273.69	78.014	61.022	18.297	4.1796e-06	25.344	0.00043515	0.0005442	0.00014662	1034.4	5.9184e-06	5.6919e-06	1122.1	215.28	5.7276e-06	5.993e-06	273.97	78.788	61.56	18.514	6.0151e-06	25.788	167.380	-31.702	-24.548	-115.011	8.947	32.502	-115.286	-107.511	20.199	8.503	-107.773	-101.628	-101.221	-93.828	29.433	-93.968	-8191	255	
704.771	1	1	0	0	0.054423	0.22551	0.083793	0.29815	0.10688	0.12649	0.081942	0.071605	0.30892	0.098383	0.20925	0.1238	0.064596	0.20121	0.032104	0.29049	-3.6729	-3.2625	-3.8312	-4.0021	-3.3542	-4.2021	-3.5333	-3.7333	-4.1062	-3.2292	-4.125	-3.8542	-3.3625	-4.2479	-3.6833	-3.5104	112.958	193.085	9.193	-116.844	-30.737	76.132	208.701	185.510	63.218	168.955	168.338	110.461	112.896	201.018	-59.439	67.775	0.00017823	0.00039343	0.00011843	1048.9	5.6757e-07	3.1966e-06	1134	216.39	1.8917e-06	1.5191e-06	273.54	78.084	61.015	18.326	2.5251e-06	25.363	0.00043286	0.00055169	0.00014748	1032.4	5.6629e-06	5.625e-06	1123.1	215.51	5.3422e-06	5.7336e-06	273.81	78.897	61.617	18.524	5.6598e-06	25.774	158.595	-46.079	-51.138	-115.161	-89.016	-10.910	-114.923	-107.377	-18.752	45.036	-107.648	-101.930	-101.103	-93.321	30.608	-93.821	-8191	255	
704.867	1	1	0	0	0.16124	0.2146	0.20784	0.092484	0.20721	0.10533	0.13063	0.14435	0.084318	0.12321	0.21388	0.060101	0.27482	0.089885	0.29949	0.029245	-3.8625	-3.3542	-3.6688	-3.9708	-3.3396	-3.9479	-3.8042	-3.4479	-4.1625	-3.4938	-3.7146	-4.0396	-3.3104	-4.1062	-3.5312	-3.3312	109.566	132.569	-8.600	212.968	207.281	231.758	60.318	221.878	187.847	6.605	167.172	-71.875	218.040	123.103	157.969	213.757	0.0001829	0.00049508	9.0878e-05	1045.9	1.6198e-06	4.0824e-06	1128.9	215.52	2.2865e-06	2.5772e-06	273.75	77.828	61.194	18.327	2.5713e-06	25.433	0.00039911	0.00051237	0.00014002	1030.8	5.5475e-06	5.5703e-06	1121.6	214.49	5.3814e-06	5.6347e-06	274.26	78.757	61.602	18.469	5.4262e-06	25.85	175.755	-39.914	-32.542	-115.031	-45.050	53.690	-115.040	-107.428	-31.079	48.263	-107.632	-101.690	-101.173	-93.403	2.697	-94.196	-8191	255	
704.988	1	1	0	0	0.1248	0.010896	0.16764	0.16992	0.1683	0.20463	0.255	0.11711	0.078401	0.21614	0.27097	0.1466	0.2294	0.038661	0.078472	0.27299	-3.55	-3.3375	-3.5792	-4.1667	-3.2771	-3.9458	-3.9479	-3.1979	-4.2188	-3.5875	-3.5583	-4.2562	-3.2479	-3.9479	-3.9333	-3.2833	-14.408	22.043	70.951	177.733	99.379	18.731	198.001	125.809	177.316	45.094	226.409	103.430	183.228	209.540	-0.037	167.452	0.00021951	0.00024905	0.0001026	1044.8	2.2224e-06	5.6215e-06	1135.8	214.84	2.9134e-06	2.7517e-06	274.74	78.337	61.07	18.215	2.6142e-06	25.285	0.00040629	0.00051497	0.00014154	1031.9	5.4555e-06	5.6431e-06	1121	214.35	5.391e-06	5.7639e-06	274.06	78.795	61.628	18.461	5.494e-06	25.872	172.244	-15.809	-47.006	-115.100	-40.438	43.677	-115.096	-107.677	-8.630	35.309	-107.586	-101.867	-101.215	-93.349	37.708	-94.028	-8191	255	
705.059	1	1	0	0	0.070262	0.26025	0.2817	0.32281	0.059346	0.094426	0.37851	0.20509	0.17018	0.12238	0.49792	0.10328	0.20793	0.1753	0.19297	0.14714	-3.5729	-3.5646	-3.3937	-4.1917	-3.2917	-3.9208	-4.075	-3.475	-4.1937	-3.5417	-3.3896	-4.0708	-3.4083	-3.8271	-3.9479	-3.6063	0.387	106.755	216.054	201.032	27.130	226.473	179.597	99.306	54.744	43.487	156.588	-74.699	204.253	-77.917	-70.259	-88.457	0.00015466	0.0001701	7.7511e-05	1044.8	1.5191e-06	3.0924e-06	1131.1	215.15	2.6959e-06	4.5251e-06	274.98	78.081	61.432	18.365	1.1774e-06	25.236	0.00043013	0.00052274	0.00014555	1031.6	5.7174e-06	5.6074e-06	1120.8	215.1	5.4921e-06	5.7268e-06	274.15	78.931	61.631	18.555	5.4656e-06	25.836	159.047	-7.735	-40.349	-115.038	-20.482	23.807	-115.149	-107.681	-56.044	37.535	-108.035	-101.713	-101.186	-93.061	43.602	-94.087	-8191	255	
705.155	1	1	0	0	0.20227	0.22972	0.078225	0.26612	0.1956	0.18222	0.11436	0.33895	0.064892	0.15651	0.030831	0.093212	0.019405	0.14471	0.20764	0.055173	-3.8083	-3.6021	-3.3583	-4.2792	-3.3708	-3.7042	-4.0333	-3.4208	-4.025	-3.7667	-3.3708	-4.2937	-3.4125	-3.6292	-4.0521	-3.2917	131.585	124.467	156.304	166.122	202.426	145.950	129.238	173.515	211.673	9.629	9.115	-60.944	187.140	-121.672	92.651	-89.482	0.00016454	0.00032772	7.8778e-05	1046.7	1.3936e-06	4.8934e-06	1133.4	214.59	3.1938e-06	4.7493e-06	273.32	77.275	61.819	18.266	2.8713e-06	25.402	0.00040904	0.00052469	0.00014367	1032.9	5.69e-06	5.5174e-06	1122.5	214.36	5.2109e-06	5.4458e-06	274.11	78.659	61.935	18.49	5.1905e-06	25.854	175.002	-57.375	-13.546	-114.998	-77.697	21.692	-115.047	-107.821	-34.924	57.731	-107.771	-101.630	-101.201	-93.469	59.935	-93.952	-8191	255	
705.251	1	1	0	0	0.11091	0.13308	0.20071	0.11574	0.1754	0.21861	0.13722	0.21725	0.31795	0.12826	0.16506	0.21508	0.37728	0.21045	0.10442	0.21606	-3.6583	-3.8708	-3.3	-4.2167	-3.5333	-3.6854	-4.1771	-3.4604	-3.8812	-3.9688	-3.3625	-4.1375	-3.625	-3.6854	-4.0813	-3.5438	-11.586	54.178	-115.037	119.054	-112.202	140.342	226.449	-66.829	-16.405	-32.008	206.014	158.773	-97.468	-113.408	-32.001	76.545	0.00022158	0.00037405	8.8528e-05	1049.6	3.1739e-06	2.2376e-06	1129.2	215.77	2.3866e-06	2.6493e-06	274.61	77.865	61.015	18.325	1.4749e-06	25.285	0.00039741	0.00050135	0.00013565	1034.7	5.3368e-06	5.1924e-06	1120.7	214.9	5.1717e-06	5.2827e-06	274.27	78.656	61.551	18.525	5.1095e-06	25.768	176.121	-27.693	-20.110	-115.154	-0.093	-15.259	-115.111	-107.577	-63.931	34.171	-107.956	-101.695	-101.045	-93.510	24.496	-93.893	-8191	255	
705.372	1	1	0	0	0.20097	0.26661	0.11902	0.18575	0.19483	0.1092	0.16804	0.18857	0.033883	0.10777	0.093122	0.22326	0.11171	0.11116	0.12066	0.25717	-3.5771	-3.7458	-3.2	-4.375	-3.6312	-3.45	-4.1792	-3.525	-3.75	-4.0167	-3.4917	-4.1354	-3.7042	-3.5042	-4.1708	-3.575	90.087	188.002	-78.935	230.078	186.148	-10.889	-119.231	179.984	171.521	24.830	229.086	-120.145	164.437	199.709	-51.277	-4.232	0.00015162	0.00033015	0.00010833	1050.2	1.1908e-06	2.7944e-06	1132	215.74	2.9218e-06	4.7099e-06	274.22	77.809	61.349	18.145	2.5728e-06	25.421	0.0003873	0.00044777	0.00013266	1033.4	4.9171e-06	5.361e-06	1120	214.82	5.1244e-06	5.2741e-06	273.47	78.771	61.665	18.446	5.0607e-06	25.776	160.828	-50.517	-30.365	-115.263	-58.784	3.049	-115.351	-107.819	-57.983	41.087	-107.310	-101.476	-100.694	-93.051	4.205	-93.633	-8191	255	
705.468	1	1	0	0	0.016559	0.24425	0.24702	0.206	0.26439	0.13167	0.14365	0.016232	0.09959	0.16713	0.05675	0.058292	0.14072	0.095314	0.14602	0.0766	-3.2417	-4.0458	-3.3417	-4.0167	-3.65	-3.4521	-4.2083	-3.3688	-3.5229	-4.1354	-3.4313	-3.9083	-3.7625	-3.3667	-4.1521	-3.5354	-13.293	18.295	216.052	181.660	49.515	-13.285	123.321	-27.964	-56.592	-69.563	38.974	-47.957	155.806	-100.991	-28.615	-93.108	0.00020315	0.00042025	5.3384e-05	1047.9	1.1414e-06	2.2075e-06	1130.2	215.02	2.258e-06	4.9555e-06	271	77.741	61.208	18.174	3.5082e-06	25.289	0.00036971	0.00044301	0.00012975	1030.5	4.9372e-06	5.21e-06	1120.6	214.39	4.9079e-06	4.8164e-06	272.51	78.526	61.477	18.482	4.5426e-06	25.782	166.991	-39.311	-86.140	-115.207	-11.002	28.780	-114.736	-107.743	-18.900	40.283	-107.803	-101.383	-101.233	-93.241	-19.182	-93.948	-8191	255	
705.564	1	1	0	0	0.13354	0.2956	0.24231	0.24123	0.14354	0.086973	0.10384	0.30645	0.19801	0.23225	0.22633	0.2259	0.15131	0.14218	0.1938	0.32695	-3.125	-3.9479	-3.2687	-4.0437	-4.1396	-3.1937	-4.0708	-3.6854	-3.4458	-4.0917	-3.6792	-3.9792	-3.7542	-3.3438	-4.2896	-3.6813	148.782	218.737	226.058	-51.722	113.884	-92.729	147.435	212.682	212.358	46.638	-73.129	42.063	97.124	127.679	65.122	-105.434	0.00020245	0.00037954	0.00011186	1048.4	1.5212e-06	3.3185e-06	1127.6	214.43	1.8711e-06	1.6515e-06	273.27	77.779	61.064	18.159	1.55e-06	25.237	0.00036739	0.00044342	0.00012296	1031.9	4.8254e-06	5.0256e-06	1116.9	213.73	4.5661e-06	4.6791e-06	272.65	78.321	61.386	18.424	4.5591e-06	25.75	165.952	-9.706	-18.766	-114.900	-51.903	-2.517	-115.025	-107.466	-11.602	-11.099	-107.920	-101.194	-100.867	-92.967	50.233	-93.722	-8191	255	
705.661	1	1	0	0	0.077606	0.21033	0.077341	0.23803	0.15797	0.078987	0.091885	0.13717	0.027021	0.33585	0.32124	0.16669	0.051685	0.14808	0.13207	0.10058	-2.9958	-4.3479	-3.2167	-3.9729	-3.9604	-3.2583	-4.3938	-3.8854	-3.5375	-4.1438	-3.4833	-3.85	-4.1188	-3.4104	-4.0646	-3.7479	139.401	92.498	120.733	-120.029	-22.071	182.162	-121.615	13.447	-44.800	139.993	8.376	203.479	-124.357	166.706	36.616	160.832	0.00017857	0.00029999	0.00011178	1044.1	1.4292e-06	1.8994e-06	1130.8	214.55	1.6301e-06	1.2601e-06	273.75	78.228	61.17	17.953	1.584e-06	25.534	0.00035147	0.00042521	0.0001191	1027.8	4.5881e-06	4.9257e-06	1118.7	213.58	4.7164e-06	4.7121e-06	272.83	78.659	61.435	18.358	4.7928e-06	25.852	173.079	-26.215	-60.062	-114.876	43.026	20.367	-114.792	-107.443	-27.899	5.606	-107.934	-101.401	-101.182	-93.556	16.936	-94.219	-8191	255	
705.755	1	1	0	0	0.10338	0.11959	0.10264	0.17624	0.02233	0.15352	0.16689	0.075736	0.05744	0.22117	0.052184	0.087381	0.20731	0.20982	0.16704	0.21894	-3.2979	-4.2125	-3.525	-3.8771	-4.0687	-3.3646	-4.1354	-3.775	-3.3208	-4.1625	-3.4917	-3.4708	-4.1979	-3.4062	-3.8542	-3.9875	-48.557	-51.313	180.020	-85.538	16.676	-71.523	-89.265	125.149	-12.560	-98.695	-124.966	-116.386	164.863	127.313	93.571	156.685	0.00015926	0.00040122	8.0338e-05	1042.8	2.386e-06	6.3162e-07	1123.9	214.28	2.0256e-06	1.4774e-06	273.83	78.222	61.146	18.24	3.2417e-06	25.323	0.00036243	0.00041163	0.00012241	1028.3	4.5857e-06	4.767e-06	1115.3	213.83	4.564e-06	4.6127e-06	273.13	78.602	61.433	18.395	4.6274e-06	25.7	174.132	-11.538	-15.906	-115.035	-55.430	-36.075	-115.163	-107.831	-36.554	28.642	-107.863	-101.771	-101.193	-93.688	7.578	-93.802	-8191	255	
705.851	1	1	0	0	0.27765	0.092195	0.074865	0.23962	0.18591	0.22553	0.14861	0.21744	0.27943	0.22783	0.083611	0.14744	0.113	0.17174	0.073544	0.27127	-3.075	-3.8729	-3.5375	-3.5979	-3.8375	-3.4146	-4.1333	-3.9938	-3.3458	-4.0271	-3.4813	-3.575	-4.1813	-3.4021	-3.9208	-4.0563	233.141	35.380	-54.957	199.987	233.088	129.254	150.944	172.225	138.309	175.129	-5.351	26.666	5.711	141.775	-72.386	131.246	0.00018724	0.00033322	3.7256e-05	1039.2	3.1103e-06	6.5028e-07	1120.4	214.1	3.0188e-06	2.7864e-06	273.08	77.629	60.996	18.092	2.3618e-06	25.109	0.00036582	0.00042984	0.00012527	1026.1	4.6729e-06	5.168e-06	1115.3	214.06	4.9167e-06	4.6831e-06	272.53	78.48	61.458	18.387	4.7415e-06	25.674	160.651	-51.194	-41.602	-114.983	-6.052	40.834	-114.969	-107.788	-2.242	73.113	-107.823	-101.886	-100.961	-93.442	32.339	-94.076	-8191	255	
705.949	1	1	0	0	0.089675	0.17494	0.050672	0.11802	0.06777	0.07789	0.18821	0.1671	0.071104	0.056955	0.19682	0.2066	0.21168	0.22074	0.093366	0.2439	-2.8833	-4.1146	-3.7979	-3.7313	-4.2271	-3.4188	-3.9	-4.0729	-3.2771	-3.9958	-3.8396	-3.2958	-4.2396	-3.2021	-3.6208	-4.2	-119.160	177.123	201.482	5.256	194.935	-122.607	133.421	119.935	-30.212	42.294	162.429	213.621	210.378	194.249	-104.973	105.692	0.00021319	0.00031642	0.00010848	1039.3	6.1492e-07	2.7645e-06	1126	215.72	2.141e-06	4.6883e-06	273.21	77.814	61.031	18.203	2.0346e-06	25.129	0.00037645	0.00044005	0.00011343	1026.3	4.6628e-06	4.9745e-06	1116.6	214.59	4.9066e-06	4.5331e-06	272.63	78.384	61.563	18.369	4.6779e-06	25.665	160.395	-72.880	-29.299	-114.937	-124.188	17.195	-115.160	-107.826	-59.601	35.818	-108.102	-101.447	-101.010	-93.927	-0.602	-94.238	-8191	255	
706.068	1	1	0	0	0.13464	0.19087	0.10829	0.29859	0.21583	0.081235	0.10191	0.13399	0.15796	0.028544	0.080032	0.30801	0.0090217	0.24179	0.086832	0.17844	-3.0208	-3.85	-3.9375	-3.4313	-4.0875	-3.4833	-3.6917	-4.2021	-3.3854	-3.7917	-3.7833	-3.0917	-4.1875	-3.5375	-3.4479	-4.1604	85.830	166.068	99.174	157.734	-57.577	208.149	-98.391	170.620	136.012	47.822	192.953	60.773	-43.022	164.172	13.076	-92.269	0.00019473	0.0003597	6.2999e-05	1044.5	1.8948e-06	2.0529e-06	1125.6	214.54	2.0305e-06	1.9415e-06	272.71	77.701	61.152	18.277	2.9476e-06	24.958	0.000372	0.00043135	0.00012227	1028.4	4.7665e-06	4.8e-06	1114.4	214.1	4.6638e-06	4.5508e-06	272.49	78.54	61.479	18.431	4.8491e-06	25.574	175.754	-71.749	-9.513	-115.166	14.499	43.380	-115.182	-107.858	-43.720	29.408	-107.792	-101.595	-101.322	-93.537	1.928	-94.128	-8191	255	
706.164	1	1	0	0	0.15566	0.12497	0.13242	0.044262	0.11986	0.13961	0.17977	0.2609	0.071681	0.12028	0.28979	0.3809	0.15807	0.1665	0.24564	0.1365	-3.0292	-3.7708	-3.775	-3.3271	-4.0188	-3.575	-3.6833	-4.0687	-3.3792	-3.7812	-4.1271	-3.2896	-4	-3.7896	-3.0917	-4.1125	-77.752	27.911	233.259	169.330	29.165	-43.052	178.856	190.667	119.555	-77.643	-125.712	232.802	165.966	226.461	-19.820	176.692	0.00017988	0.00039131	4.5678e-05	1040.9	2.2577e-06	3.7481e-06	1122.4	214.57	2.3634e-06	2.5314e-06	272.74	77.543	60.925	18.239	2.3796e-06	25.194	0.00036953	0.00042753	0.00011595	1026.1	4.6757e-06	4.7178e-06	1113.4	214	4.5507e-06	4.4997e-06	272.58	78.343	61.454	18.398	4.4353e-06	25.675	181.244	-10.036	-46.834	-115.032	16.506	45.444	-115.319	-108.114	-52.496	34.175	-108.340	-101.497	-101.389	-94.160	-20.143	-94.109	-8191	255	
706.260	1	1	0	0	0.043258	0.041133	0.19584	0.15798	0.23069	0.053616	0.14836	0.13399	0.13401	0.16255	0.096192	0.21696	0.18996	0.36273	0.2069	0.067139	-3.1	-3.5729	-3.9833	-3.5521	-3.9854	-3.6542	-3.5125	-4.0312	-3.3417	-3.5854	-4.0979	-3.3771	-3.9771	-3.8396	-3.4167	-4.0583	85.005	102.979	77.519	112.774	100.285	-60.065	157.036	98.097	7.225	-85.049	-109.458	-89.080	171.610	219.536	26.529	-63.697	0.00020232	0.0004139	5.2977e-05	1040.2	1.3298e-06	1.4891e-06	1129.1	214.29	1.8969e-06	2.7435e-06	273.02	77.361	60.985	18.009	2.0854e-06	25.283	0.00035479	0.0004122	0.00010962	1025.8	4.3185e-06	4.4307e-06	1115.5	213.71	4.2958e-06	4.511e-06	272.12	78.271	61.414	18.359	4.3251e-06	25.649	167.872	-18.531	-13.870	-115.300	-13.933	-17.159	-115.232	-107.743	-0.260	33.623	-108.015	-102.109	-101.296	-94.062	30.173	-94.186	-8191	255	
706.356	1	1	0	0	0.24681	0.073214	0.040877	0.025048	0.10122	0.14344	0.094166	0.29741	0.23441	0.25838	0.23261	0.10995	0.11879	0.047459	0.13127	0.08941	-3.1417	-3.5708	-4.0375	-3.2417	-3.7333	-4.0271	-3.45	-4.1188	-3.7687	-3.4042	-4.1854	-3.3187	-3.875	-3.9062	-3.3521	-4.1479	-98.800	205.258	9.997	189.740	-68.140	163.127	-41.790	230.899	-69.102	124.274	-125.961	-35.546	8.454	-114.604	76.999	-28.494	0.00019624	0.00043701	0.00010803	1037	1.3355e-06	4.6446e-06	1124.3	214.34	2.4916e-06	2.592e-06	272.2	78.099	60.9	18.098	2.081e-06	25.308	0.00035003	0.00041598	0.00010609	1024.1	4.2955e-06	4.3182e-06	1114.2	213.2	4.4029e-06	4.5589e-06	271.8	78.599	61.459	18.354	4.3717e-06	25.668	170.192	-41.892	-38.561	-115.211	12.631	21.135	-115.365	-108.107	-33.265	41.917	-108.277	-101.735	-101.413	-93.752	-19.692	-94.373	-8191	255	
706.452	1	1	0	0	0.11619	0.29659	0.1443	0.096215	0.15553	0.072273	0.37382	0.048528	0.28938	0.30133	0.10941	0.1715	0.15656	0.18468	0.080398	0.19919	-3.4146	-3.3208	-3.9917	-3.4396	-3.8042	-3.9396	-3.2625	-3.9938	-3.6458	-3.0917	-4.2562	-3.5875	-3.5125	-4.1083	-3.2604	-4.0417	110.255	46.879	-74.137	-110.934	-28.043	33.017	192.357	181.185	-125.803	68.593	140.383	133.106	-123.503	178.394	131.286	159.130	0.00015573	0.00029443	7.4107e-05	1038.5	1.8195e-06	1.267e-06	1120.6	214.17	9.6321e-07	1.8286e-06	271.07	77.71	60.827	18.107	2.677e-06	25.363	0.00033354	0.00040094	0.00010561	1023.5	4.2309e-06	4.6152e-06	1112.1	213.5	4.3507e-06	4.633e-06	271.45	78.47	61.242	18.33	4.4523e-06	25.648	169.867	-1.553	-37.203	-115.549	-2.340	36.931	-115.428	-108.096	-1.995	24.834	-107.991	-101.762	-101.304	-94.136	10.326	-94.162	-8191	255	
706.549	1	1	0	0	0.12228	0.15519	0.25781	0.31271	0.10798	0.050194	0.159	0.31905	0.10666	0.020324	0.045428	0.27471	0.19988	0.14599	0.10868	0.19517	-3.5083	-3.1583	-3.9354	-3.6229	-3.4125	-4.0792	-3.3333	-3.8625	-3.825	-3.2708	-4.2667	-3.7458	-3.5146	-4.2333	-3.15	-3.8125	-41.328	210.793	132.451	126.637	14.499	199.587	212.150	158.733	178.794	-48.777	121.865	-61.509	-49.594	-64.165	-120.145	198.353	0.00016957	0.00031998	0.00010516	1037.5	1.0355e-06	2.446e-06	1123.6	215.67	2.037e-06	3.608e-06	273.08	77.682	60.73	18.068	5.1083e-06	25.166	0.00034164	0.00041122	0.000106	1022.7	4.534e-06	4.3629e-06	1111.4	214	4.1665e-06	4.3429e-06	272.26	78.335	61.176	18.336	4.6282e-06	25.612	175.492	-28.698	-27.345	-115.380	11.043	34.266	-115.265	-108.097	1.787	19.354	-108.194	-102.070	-101.488	-93.869	21.603	-94.244	-8191	255	
706.668	1	1	0	0	0.16676	0.17768	0.062435	0.043154	0.03596	0.11295	0.18258	0.078414	0.18869	0.023225	0.24418	0.17429	0.18828	0.075183	0.16222	0.21997	-3.6479	-3.3875	-3.9604	-3.8	-3.5917	-4.1188	-3.4333	-3.8271	-3.9083	-3.0312	-4.0479	-3.8354	-3.2125	-4.1438	-3.3271	-3.6667	61.815	-125.331	104.125	-26.421	-9.036	-111.424	164.218	119.193	91.623	-25.019	230.193	165.205	214.738	137.893	175.349	134.924	0.0001755	0.00022378	6.7728e-05	1042.4	1.4286e-06	2.4379e-06	1117.9	214.36	2.0943e-06	1.8435e-06	272.55	77.341	60.723	17.906	2.189e-06	25.109	0.0003411	0.00040151	0.00010693	1024	4.3831e-06	4.2716e-06	1109.9	213.64	4.0554e-06	4.4116e-06	272.33	78.278	61.113	18.274	4.1767e-06	25.571	176.260	-3.746	-42.125	-115.379	-43.714	-0.858	-115.569	-107.766	11.364	29.465	-108.129	-102.018	-101.260	-94.247	-25.732	-94.108	-8191	255	
706.764	1	1	0	0	0.09046	0.16579	0.14936	0.14358	0.14422	0.27033	0.35445	0.21666	0.24426	0.12394	0.1051	0.053378	0.029711	0.21146	0.27372	0.1016	-3.5792	-3.1833	-3.6979	-3.8063	-3.3667	-3.9146	-3.7333	-3.6813	-3.975	-3.3438	-3.9188	-3.7083	-3.3063	-4.0667	-3.4854	-3.5771	74.105	-121.061	12.547	-105.020	-96.132	142.518	186.713	192.666	159.490	48.243	-74.539	45.826	-81.938	-70.494	51.918	88.597	0.00017053	0.00026357	7.176e-05	1038.3	1.7427e-06	3.4755e-06	1114.3	213.26	2.4834e-06	1.7519e-06	271.73	77.684	60.152	18.15	2.3162e-06	25.097	0.0003154	0.00037606	0.00010245	1020.9	4.2237e-06	3.9828e-06	1107.7	213.04	4.0695e-06	4.2069e-06	271.52	78.294	61.026	18.327	4.1034e-06	25.527	174.097	-25.368	-21.479	-115.277	-4.540	61.429	-115.437	-107.698	-3.529	-14.821	-107.936	-101.826	-101.187	-93.644	22.093	-94.181	-8191	255	
706.860	1	1	0	0	0.12288	0.091029	0.099093	0.039301	0.16498	0.18565	0.14096	0.29838	0.089409	0.24277	0.23647	0.031864	0.22385	0.24535	0.14278	0.33427	-3.7625	-3.175	-3.7167	-4.0458	-3.1979	-3.9917	-3.6896	-3.4979	-4.1562	-3.2458	-3.7771	-4.05	-3.2708	-4.1417	-3.5438	-3.4458	176.437	-20.690	-82.528	-24.367	131.899	-6.521	176.280	200.886	68.521	-29.328	131.208	-64.220	180.507	-103.835	-18.251	144.896	0.00017564	0.00032157	0.00012036	1032.2	2.3824e-06	4.3237e-06	1115.3	212.73	2.3538e-06	2.5946e-06	272.35	77.206	60.397	18.026	3.0963e-06	25.14	0.00032827	0.00037988	0.00010066	1018.2	4.4602e-06	3.9968e-06	1106	212.8	4.1439e-06	4.2941e-06	270.98	77.884	60.932	18.283	4.0677e-06	25.595	174.989	0.851	-14.200	-115.248	-58.803	5.666	-115.464	-107.814	-33.739	6.541	-108.086	-101.744	-101.524	-93.189	6.354	-93.986	-8191	255	
706.931	1	1	0	0	0.14371	0.07136	0.065329	0.32723	0.078853	0.1695	0.11135	0.1062	0.057687	0.19202	0.13069	0.37112	0.066928	0.21584	0.16143	0.075056	-3.6458	-3.2167	-3.725	-4.1937	-3.1333	-4.2	-3.7313	-3.3937	-4.1	-3.4208	-3.7438	-4.3354	-3.2271	-3.9688	-3.8312	-3.4188	-49.540	-102.333	-31.207	204.236	75.685	8.273	-92.052	141.325	101.613	173.938	117.036	-67.418	-95.242	178.154	1.244	-99.436	0.00017613	0.00049707	0.00010231	1037.6	2.6445e-06	1.9496e-06	1113.9	213.64	3.0935e-06	1.3488e-06	270.58	77.302	60.586	17.908	3.9441e-06	25.008	0.0003268	0.00040708	0.00010672	1019.5	4.3524e-06	4.0623e-06	1104.6	212.5	3.8631e-06	4.0971e-06	270.79	78.072	60.935	18.208	4.1322e-06	25.434	170.845	-45.693	-52.093	-115.600	-8.530	63.651	-115.299	-107.906	-61.461	1.400	-108.058	-101.779	-101.614	-93.552	49.111	-93.980	-8191	255	
707.052	1	1	0	0	0.088334	0.24814	0.31235	0.2346	0.26485	0.11046	0.22193	0.10643	0.16201	0.11736	0.18606	0.090223	0.21072	0.069934	0.1825	0.065142	-3.5604	-3.4292	-3.6396	-4.2854	-3.3396	-3.7812	-4.0417	-3.4771	-4.0375	-3.5021	-3.4333	-4.1438	-3.5479	-3.8208	-3.8438	-3.3708	-97.964	-52.972	-35.368	120.380	50.356	-121.357	184.611	69.168	153.263	176.316	159.201	160.198	179.111	-99.233	233.718	62.412	0.00018222	0.00034735	9.8714e-05	1031	3.0245e-06	3.0868e-06	1113	212.37	3.1712e-06	4.1665e-06	270.82	76.848	60.225	18.067	3.0031e-06	25.072	0.0003009	0.00036215	9.7208e-05	1015.6	4.1704e-06	4.0583e-06	1103.7	211.68	3.7952e-06	3.9078e-06	270.16	77.67	60.615	18.214	3.9355e-06	25.446	169.643	-56.228	-31.531	-115.230	-11.030	18.362	-115.527	-107.725	-15.741	43.948	-107.945	-101.966	-101.516	-93.439	54.172	-93.663	-8191	255	
707.148	1	1	0	0	0.11019	0.22123	0.12429	0.17275	0.11703	0.14623	0.18274	0.3233	0.16857	0.11651	0.11575	0.22144	0.12712	0.19263	0.077509	0.21598	-3.6667	-3.4229	-3.475	-4.2354	-3.3083	-3.725	-4.1312	-3.2083	-3.9646	-3.4875	-3.5417	-4.2271	-3.2271	-3.8354	-3.9313	-3.3646	152.605	-30.100	-107.517	216.271	47.016	56.789	207.315	177.883	-106.994	184.512	168.324	-26.111	200.904	220.047	208.965	168.665	0.000156	0.0003358	0.00011468	1028	2.483e-06	1.757e-06	1109.1	212.21	2.4023e-06	2.5272e-06	270.8	76.925	60.271	17.805	3.9706e-06	25.01	0.0003028	0.00035516	9.7694e-05	1012.6	3.7724e-06	3.6659e-06	1098.9	211.77	3.6643e-06	3.7718e-06	269.96	77.579	60.658	18.092	3.5004e-06	25.442	174.476	-16.771	-14.381	-115.368	-21.204	34.045	-115.454	-108.012	-86.678	12.669	-107.970	-101.645	-101.403	-93.453	-5.223	-93.722	-8191	255	
707.244	1	1	0	0	0.12282	0.12304	0.11058	0.31422	0.19419	0.16219	0.25871	0.17067	0.13481	0.30153	0.19241	0.14684	0.070608	0.25877	0.14071	0.17638	-3.7208	-3.5687	-3.3646	-4.2188	-3.3854	-3.6146	-4.0625	-3.15	-3.8208	-3.7333	-3.3812	-4.1375	-3.4333	-3.6021	-3.9833	-3.4292	187.182	220.974	21.592	195.714	-62.340	215.157	117.477	-52.780	6.823	58.340	92.853	194.186	194.675	19.446	95.395	-45.793	0.00021077	0.00038907	5.0741e-05	1028.4	1.7438e-06	3.1742e-06	1106.6	212.23	2.6225e-06	1.6056e-06	270.74	76.938	60.394	17.862	2.733e-06	24.949	0.0003074	0.00035305	9.3176e-05	1012.3	3.6828e-06	3.9439e-06	1099	211.08	3.712e-06	3.7e-06	269.61	77.676	60.707	18.139	3.8379e-06	25.391	169.756	-35.695	-60.388	-115.261	19.360	40.712	-115.197	-107.839	-26.560	47.234	-107.872	-101.549	-101.121	-93.247	28.944	-94.314	-8191	255	
707.341	1	1	0	0	0.14158	0.10117	0.11623	0.18233	0.14546	0.18843	0.11879	0.12214	0.087718	0.21387	0.14365	0.10999	0.11721	0.22354	0.29563	0.27635	-3.5229	-3.6479	-3.1625	-4.3583	-3.4375	-3.4667	-4.1833	-3.3521	-3.8937	-3.9354	-3.3229	-4.1396	-3.8229	-3.2833	-3.9771	-3.3979	12.888	-123.594	211.780	218.109	167.968	-106.582	-108.559	-73.968	-69.552	120.104	-37.095	193.314	-69.505	-54.571	58.728	109.192	0.00015808	0.00022665	6.4218e-05	1022.6	1.6289e-06	2.0807e-06	1108.8	211.65	8.4018e-07	1.9397e-06	270.76	76.55	60.15	17.81	1.9998e-06	24.947	0.00031592	0.00032902	9.8033e-05	1009.7	3.8221e-06	3.6768e-06	1097.7	211.03	3.9193e-06	3.7709e-06	268.99	77.464	60.576	18.1	3.5835e-06	25.405	176.443	-23.119	-26.246	-114.964	-18.516	8.549	-115.137	-107.874	-60.898	42.134	-107.656	-101.509	-101.356	-93.506	7.206	-94.317	-8191	255	
707.461	1	1	0	0	0.1928	0.089096	0.075698	0.3406	0.035544	0.11051	0.36929	0.1605	0.22146	0.075362	0.13196	0.020699	0.21358	0.074871	0.15691	0.15424	-3.5354	-3.9396	-3.4208	-3.9313	-3.6458	-3.5792	-4.1021	-3.4167	-3.7271	-4.0083	-3.5229	-4.0167	-3.7	-3.5021	-3.9562	-3.575	48.707	-96.284	130.142	-119.506	-74.361	102.906	158.087	170.769	128.982	-101.694	122.484	231.973	-94.158	225.700	-85.312	7.448	0.00020371	0.00026881	9.9274e-05	1027.7	2.5713e-06	3.4913e-06	1112.5	211.65	2.4338e-06	2.6722e-06	270.2	77.071	60.095	17.875	2.0639e-06	24.768	0.00031358	0.00033609	9.8439e-05	1011.2	3.7305e-06	3.7495e-06	1100.6	210.76	3.8348e-06	3.432e-06	269.26	77.595	60.556	18.142	3.7218e-06	25.362	167.364	-77.862	-18.611	-115.126	0.800	28.484	-115.173	-107.496	-13.465	25.353	-107.793	-101.620	-101.114	-93.257	28.681	-94.313	-8191	255	
707.533	1	1	0	0	0.063851	0.16153	0.10884	0.19715	0.13435	0.045005	0.19669	0.079271	0.037798	0.13283	0.12109	0.16807	0.31543	0.12086	0.11584	0.065834	-3.0979	-4.0146	-3.5396	-3.9833	-3.7667	-3.2417	-4.1542	-3.2542	-3.6146	-4.0833	-3.1542	-3.8563	-3.825	-3.2771	-3.9958	-3.4396	-120.822	-27.470	163.060	-53.694	-70.275	-122.992	-65.760	-82.264	189.706	186.376	122.653	3.730	-0.224	118.687	122.684	2.722	0.00020994	0.00019209	5.2195e-05	1023.1	1.4933e-06	3.5362e-06	1106.1	211.31	2.03e-06	3.4084e-06	269.08	76.677	60.461	17.832	2.6835e-06	24.871	0.00030054	0.00032776	9.6621e-05	1008.5	3.7886e-06	3.7794e-06	1095.3	210.72	3.6041e-06	3.5798e-06	268.94	77.545	60.645	18.044	3.4576e-06	25.391	163.095	-56.770	-32.818	-115.246	13.755	38.857	-115.259	-107.949	2.539	30.886	-107.812	-101.600	-101.289	-92.990	0.863	-94.292	-8191	255	
707.629	1	1	0	0	0.109	0.37049	0.17405	0.23565	0.48195	0.20082	0.31221	0.22976	0.054761	0.092429	0.25325	0.10275	0.13447	0.18976	0.24678	0.041347	-3.0229	-4.0563	-3.2375	-3.7604	-3.7812	-3.025	-4.1917	-3.7	-3.4062	-4.0854	-3.4167	-3.6396	-3.9458	-3.2062	-3.9333	-3.7938	175.663	180.164	-22.899	216.193	197.829	-112.855	203.349	148.416	-107.666	-67.938	176.397	225.834	177.772	-71.841	209.889	-63.107	0.0001881	0.0004356	0.00012231	1024.8	1.2293e-06	2.2447e-06	1109.3	211.74	1.5669e-06	3.1357e-06	268.32	76.473	59.907	17.906	2.1817e-06	24.844	0.00030154	0.00033105	9.9862e-05	1009	3.5307e-06	3.9954e-06	1097.4	210.99	3.8009e-06	3.648e-06	268.84	77.441	60.391	18.124	3.6467e-06	25.376	172.783	-27.348	-35.059	-114.900	36.415	26.765	-115.103	-107.978	44.204	14.736	-108.050	-101.426	-101.191	-93.846	-11.692	-93.848	-8191	255	
707.750	1	1	0	0	0.20027	0.07176	0.082973	0.14549	0.06942	0.17896	0.10766	0.068477	0.089342	0.067493	0.17085	0.21467	0.25319	0.20875	0.19208	0.19708	-2.9729	-4.0708	-3.4667	-3.8042	-3.9896	-3.2354	-4.1229	-3.7979	-3.225	-3.9875	-3.5312	-3.6229	-4.1687	-3.3312	-3.7313	-3.9604	-54.655	-110.141	71.643	182.809	130.706	31.066	189.878	-110.085	227.916	215.901	208.004	133.551	32.642	-119.329	-8.533	-112.593	0.00018037	0.00035176	7.8434e-05	1022	1.3773e-06	3.7263e-06	1107.6	211.36	3.098e-06	5.503e-06	268.97	77.288	59.715	17.942	3.5384e-06	24.905	0.00031337	0.00033548	9.6836e-05	1008.1	3.8911e-06	3.8883e-06	1097.1	210.99	3.8841e-06	3.8211e-06	268.41	77.549	60.5	18.091	3.5267e-06	25.384	181.267	-45.062	-53.219	-115.117	41.770	48.134	-115.021	-107.849	-21.691	44.518	-107.870	-101.470	-101.315	-93.388	-22.277	-93.961	-8191	255	
707.844	1	1	0	0	0.17969	0.11982	0.11722	0.15959	0.059447	0.038627	0.23107	0.20156	0.20403	0.27349	0.094305	0.074759	0.18583	0.17504	0.07618	0.13912	-3.0146	-3.8771	-3.3563	-3.4354	-4.1229	-3.0125	-4.1229	-3.7583	-3.2354	-4.0625	-3.4708	-3.3271	-4.1208	-3.3187	-3.7354	-3.9729	103.299	-49.704	4.710	209.502	-66.300	54.089	198.071	168.736	20.603	177.407	142.479	156.067	-121.944	205.055	136.152	39.707	0.00016384	0.00025648	8.86e-05	1022.9	2.1265e-06	3.5224e-06	1107.7	211.22	2.0903e-06	2.5668e-06	270.58	76.966	60.075	17.822	9.8652e-07	24.888	0.00030581	0.00032695	9.6497e-05	1007.7	3.5916e-06	3.7468e-06	1095.8	210.75	3.672e-06	3.3042e-06	269.23	77.642	60.626	18.092	3.5475e-06	25.334	169.681	-59.192	-53.357	-114.944	-20.852	20.227	-114.778	-107.416	-30.789	-0.805	-107.943	-101.574	-101.484	-93.610	-14.921	-93.737	-8191	255	
707.940	1	1	0	0	0.1876	0.25163	0.11998	0.23252	0.27999	0.14994	0.042805	0.2892	0.17049	0.19524	0.22642	0.1332	0.24115	0.15819	0.209	0.048694	-2.9292	-3.8875	-3.5687	-3.4167	-3.9688	-3.3271	-3.8708	-3.9083	-3.1708	-4.0646	-3.6708	-3.1667	-4.0896	-3.4188	-3.6688	-3.95	-30.615	-79.527	-108.646	139.451	-107.286	-65.779	-82.332	196.995	-4.574	169.291	-95.364	-6.743	125.368	-55.714	180.054	66.014	0.00018036	0.00029054	0.00012386	1022.2	1.8836e-06	1.4848e-06	1104.7	212.11	2.6689e-06	2.1538e-06	268.91	76.232	60.072	17.876	2.7008e-06	24.947	0.0003021	0.0003104	8.5406e-05	1008.8	3.5323e-06	3.7491e-06	1096.1	210.97	3.586e-06	3.2757e-06	268.99	77.29	60.547	18.127	3.3516e-06	25.375	168.106	-32.866	-39.221	-114.945	25.394	14.660	-114.799	-107.732	-14.628	-8.709	-107.517	-101.468	-101.234	-93.502	-9.413	-94.026	-8191	255	
708.061	1	1	0	0	0.21882	0.28268	0.18292	0.040758	0.15997	0.066572	0.16465	0.22985	0.25411	0.025281	0.098654	0.11485	0.13102	0.23726	0.188	0.056564	-2.9062	-3.7958	-3.625	-3.4062	-3.9896	-3.4313	-3.5792	-4.1708	-3.2458	-3.9104	-3.9437	-3.3	-4.2229	-3.5	-3.3083	-4.0958	151.109	76.936	176.694	206.267	-81.961	168.644	48.996	182.560	214.832	190.285	187.608	198.613	-116.452	128.906	68.151	219.504	0.00015585	0.0004121	0.00013779	1020.6	3.1371e-06	3.8986e-06	1112.3	212.67	1.9676e-06	1.7307e-06	269.51	76.458	60.2	17.866	2.7814e-06	25.122	0.00028626	0.00031231	8.6908e-05	1005.6	3.3019e-06	3.3875e-06	1097.3	211.07	3.4971e-06	3.353e-06	268.34	77.452	60.508	18.072	3.422e-06	25.423	167.636	-29.009	-47.378	-115.013	-26.425	27.681	-115.051	-107.560	-10.114	53.016	-108.230	-101.035	-100.963	-93.023	37.167	-93.583	-8191	255	
708.157	1	1	0	0	0.11806	0.068109	0.25282	0.13907	0.10457	0.16945	0.14324	0.29338	0.11926	0.058781	0.099086	0.19651	0.095315	0.075908	0.050984	0.049308	-2.8271	-3.6667	-3.7208	-3.3458	-3.9583	-3.6875	-3.5042	-4.1542	-3.2896	-3.6521	-4.1146	-3.2208	-4.1771	-3.6479	-3.3208	-4.1188	231.028	43.653	126.163	122.165	146.701	56.978	203.555	87.193	-35.904	111.372	164.328	124.421	210.688	-51.305	-29.065	197.150	0.00018712	0.00031377	4.8261e-05	1021.6	1.8688e-06	1.8342e-06	1106.2	211.83	1.7148e-06	2.0728e-06	269.76	76.696	60.439	17.813	1.7916e-06	24.997	0.00029156	0.00030215	8.4378e-05	1007.8	3.5012e-06	3.5344e-06	1094.8	210.63	3.4425e-06	3.4492e-06	268.96	77.569	60.531	18.065	3.6819e-06	25.442	175.316	-41.218	-34.929	-114.864	-3.925	-14.506	-114.697	-107.667	3.934	28.279	-107.547	-101.495	-100.915	-93.282	-17.329	-94.052	-8191	255	
708.229	1	1	0	0	0.2635	0.026226	0.06714	0.10404	0.17572	0.19496	0.1915	0.20843	0.052835	0.16607	0.20327	0.056488	0.27429	0.034461	0.058495	0.2902	-3.0375	-3.6979	-4.0396	-3.3979	-3.9167	-3.5604	-3.4583	-4.2063	-3.1917	-3.6625	-4.1396	-3.1771	-3.9917	-3.9125	-3.3729	-3.8917	41.443	-118.354	-50.503	196.915	85.196	226.782	181.240	193.257	156.238	-60.548	-88.556	-25.825	-106.919	193.181	72.216	215.840	0.00019933	0.00026402	0.00010054	1019	1.1468e-06	3.0335e-06	1109.4	212.21	1.9662e-06	3.4865e-06	270.04	76.947	60.459	17.837	2.3553e-06	24.993	0.00028271	0.00031345	8.0606e-05	1006.4	3.3826e-06	3.0629e-06	1094.2	210.83	3.5278e-06	3.2518e-06	268.5	77.522	60.621	18.086	3.2588e-06	25.406	173.191	-23.948	-24.016	-114.939	-21.786	29.267	-115.155	-107.234	-37.597	14.062	-107.857	-101.439	-101.183	-93.650	2.518	-93.842	-8191	255	
708.349	1	1	0	0	0.099441	0.11913	0.096799	0.12458	0.064353	0.21106	0.13702	0.13148	0.12057	0.23255	0.2615	0.060698	0.33157	0.053219	0.18218	0.16269	-2.95	-3.6625	-3.7667	-3.4021	-3.7708	-3.7271	-3.4437	-4.1813	-3.5021	-3.2812	-4.2354	-3.2458	-3.7875	-3.8	-3.0146	-4	211.782	160.323	120.366	219.913	121.620	97.692	162.067	124.165	203.383	88.001	208.153	113.079	206.912	-78.885	213.422	229.565	0.00020646	0.00028136	8.7928e-05	1019.3	1.7421e-06	2.2569e-06	1105.2	210.99	2.3614e-06	1.9199e-06	270.51	77.122	60.203	17.907	2.8879e-06	24.978	0.00029562	0.00031552	8.2357e-05	1006.2	3.41e-06	3.2858e-06	1094.5	210.49	3.4187e-06	3.5712e-06	268.83	77.614	60.77	18.147	3.4195e-06	25.374	174.519	-41.799	-5.197	-115.136	-5.911	15.410	-115.144	-107.600	-6.098	11.698	-108.136	-101.538	-101.178	-93.607	3.385	-93.855	-8191	255	
708.445	1	1	0	0	0.10744	0.2849	0.27265	0.081974	0.09199	0.25513	0.14398	0.26686	0.091013	0.10966	0.16104	0.093761	0.15835	0.13403	0.14208	0.075362	-3.0896	-3.2292	-4.0333	-3.5375	-3.7708	-3.9958	-3.5187	-4.0083	-3.7625	-3.25	-4.1646	-3.35	-3.5938	-4.0042	-3.3187	-3.9688	154.244	-73.036	-62.085	-20.819	203.298	199.274	179.731	88.294	-123.212	96.898	126.180	-95.689	-120.244	-23.970	194.282	221.834	0.00017364	0.00041934	8.4506e-05	1019.4	5.47e-07	2.7149e-06	1102.7	211.72	4.1337e-06	2.8884e-06	268.09	76.404	60.163	17.852	1.8554e-06	24.977	0.00028433	0.00031532	8.1317e-05	1004.3	3.4806e-06	3.2614e-06	1093.5	210.54	3.5318e-06	3.4212e-06	268.65	77.326	60.662	18.111	3.2859e-06	25.379	173.015	-31.990	-14.226	-114.996	-30.377	43.104	-114.993	-107.690	-19.968	9.863	-107.955	-101.481	-100.998	-93.646	-9.946	-93.757	-8191	255	
708.542	1	1	0	0	0.23871	0.084151	0.036581	0.21273	0.27192	0.080481	0.29204	0.24177	0.087259	0.081413	0.21565	0.10864	0.2424	0.20605	0.10747	0.1577	-3.4875	-3.2625	-3.8812	-3.5812	-3.6104	-3.9583	-3.4083	-4.0062	-3.5604	-3.3271	-4.2063	-3.3021	-3.5042	-4.1458	-3.0958	-3.925	163.102	-78.889	-113.747	-91.941	3.521	105.245	149.348	227.725	-116.855	-2.621	-121.565	-31.479	-38.840	62.447	78.151	210.077	0.00016829	0.00037237	5.56e-05	1025.5	1.6986e-06	3.4365e-06	1107.3	212.42	1.8268e-06	3.2764e-06	268.01	76.877	60.428	17.808	2.3296e-06	25.13	0.00028096	0.00031097	8.2277e-05	1007.4	3.4262e-06	3.2555e-06	1094.9	211.09	3.4021e-06	3.5152e-06	268.7	77.569	60.655	18.101	3.2516e-06	25.463	171.147	-47.014	-66.848	-115.322	16.188	-6.665	-115.173	-107.612	-19.287	25.736	-107.563	-101.533	-100.681	-93.448	36.139	-94.152	-8191	255	
708.638	1	1	0	0	0.17874	0.12728	0.18017	0.14446	0.18803	0.19203	0.1555	0.078536	0.13869	0.068505	0.14601	0.28777	0.2843	0.25026	0.10879	0.17193	-3.3104	-3.2208	-4.1208	-3.5833	-3.3688	-4.1229	-3.575	-3.8729	-3.9854	-3.1437	-3.9125	-3.7313	-3.3521	-3.9292	-3.4771	-3.7687	-76.465	75.437	158.254	120.777	-119.506	-109.590	219.602	98.256	190.886	182.647	-91.134	190.981	205.727	-111.106	187.528	192.867	0.00023221	0.00038447	8.8348e-05	1021.1	7.5779e-07	2.8901e-06	1106.7	211.94	1.9981e-06	4.6168e-06	270.53	77.004	60.445	18.058	1.7691e-06	24.812	0.00027695	0.00031422	8.2198e-05	1006.8	3.5916e-06	3.2293e-06	1095.7	211.16	3.4191e-06	3.4311e-06	269.32	77.724	60.797	18.16	3.3966e-06	25.376	166.022	-32.641	-56.143	-115.229	-53.474	5.739	-115.152	-107.346	-40.535	32.461	-107.804	-101.662	-100.799	-93.580	19.198	-93.800	-8191	255	
708.757	1	1	0	0	0.12116	0.13669	0.088077	0.26055	0.13951	0.19354	0.076501	0.19066	0.11639	0.088257	0.10982	0.09307	0.22652	0.08246	0.088635	0.034034	-3.3917	-3.2896	-3.8979	-3.5458	-3.2292	-3.9688	-3.4021	-3.6979	-3.8167	-3.2792	-4.0083	-3.8063	-3.3063	-4.0854	-3.2958	-3.7562	207.533	182.417	-95.825	171.624	122.192	74.188	14.486	-109.281	109.607	64.247	-35.951	54.409	181.042	25.020	216.085	-45.422	0.00020471	0.00028277	7.0448e-05	1022.1	2.5254e-06	2.2893e-06	1101.9	213	3.1067e-06	2.4353e-06	268.36	77.017	59.878	17.873	2.5551e-06	24.944	0.00028507	0.0003217	7.7003e-05	1006.6	3.5363e-06	3.2067e-06	1094.2	210.89	3.1977e-06	3.2305e-06	268.67	77.597	60.5	18.14	3.3584e-06	25.399	169.815	-18.239	-28.548	-115.016	6.465	19.961	-114.953	-107.494	-23.809	2.385	-108.152	-101.336	-101.009	-93.306	46.199	-94.064	-8191	255	
708.828	1	1	0	0	0.13585	0.10917	0.02451	0.21645	0.28449	0.24528	0.19523	0.26303	0.20094	0.35593	0.24574	0.14101	0.081825	0.40449	0.16302	0.17186	-3.4542	-3.0833	-3.7542	-3.9354	-3.3292	-3.9229	-3.7	-3.6	-3.7792	-3.1854	-3.9771	-3.9104	-3.1667	-3.9958	-3.5187	-3.4	234.159	-11.849	159.402	167.662	98.981	-70.337	163.271	156.806	12.903	137.374	205.796	186.316	122.864	-105.670	-14.719	227.766	0.00018665	0.00039766	8.461e-05	1015.4	3.101e-07	3.2723e-06	1104.2	211.96	1.4043e-06	2.5285e-06	268.32	76.774	60.48	17.848	1.7741e-06	24.907	0.00027458	0.00031284	7.9928e-05	1003	3.4205e-06	3.2623e-06	1093.5	210.73	3.3508e-06	3.3634e-06	268.77	77.372	60.654	18.109	3.2566e-06	25.417	171.832	-45.441	-12.322	-115.204	23.009	7.976	-114.981	-107.847	-4.105	30.826	-108.039	-101.710	-101.090	-93.065	43.349	-93.820	-8191	255	
708.924	1	1	0	0	0.014097	0.21741	0.12957	0.048006	0.031755	0.13072	0.033664	0.05946	0.024803	0.05235	0.12288	0.13401	0.20851	0.01127	0.046705	0.043018	-3.5167	-3.3187	-3.6604	-3.9896	-3.3417	-3.9896	-3.5312	-3.4792	-4.1354	-3.2083	-3.7062	-3.9313	-3.0833	-3.9896	-3.6875	-3.325	170.650	146.282	209.624	144.474	-66.893	169.869	-42.340	41.381	195.335	125.338	147.219	178.066	138.937	-62.620	23.194	152.286	0.00015698	0.00031353	7.3397e-05	1018.7	1.1443e-06	3.8433e-06	1101.8	210.84	2.3253e-06	1.2241e-06	268.87	76.742	60.59	17.97	8.4604e-07	24.689	0.00026496	0.0003006	8.2221e-05	1004.4	3.2889e-06	3.1389e-06	1094.5	210.42	3.2474e-06	3.3941e-06	269.05	77.694	60.512	18.133	3.3033e-06	25.319	173.779	-13.905	-4.962	-115.209	5.724	21.086	-115.480	-107.447	7.109	-1.284	-107.901	-101.628	-100.712	-93.531	12.685	-93.976	-8191	255	
709.021	1	1	0	0	0.2049	0.039918	0.30811	0.25786	0.19127	0.10118	0.30411	0.2234	0.094652	0.11109	0.088562	0.16342	0.22134	0.29177	0.21328	0.31966	-3.7208	-3.3354	-3.5333	-4.0813	-3.0208	-3.825	-3.7	-3.5146	-3.9354	-3.3229	-3.5187	-3.9229	-3.3812	-3.8979	-3.6375	-3.1854	130.170	-99.198	-87.362	205.676	103.851	173.852	211.583	96.384	-47.435	39.724	204.424	175.299	94.154	200.080	-49.348	220.832	0.00016944	0.0002932	7.0609e-05	1019	1.4357e-06	2.6121e-06	1106.7	210.89	1.3419e-06	2.8684e-06	269.17	76.873	60.188	17.946	2.8515e-06	24.917	0.00027445	0.00031345	8.6445e-05	1005.8	3.4968e-06	3.152e-06	1093.2	210.76	3.2236e-06	3.3887e-06	268.78	77.635	60.595	18.168	3.319e-06	25.353	173.469	-49.621	-68.429	-115.226	-57.472	11.243	-115.042	-107.494	13.092	11.312	-107.656	-101.608	-101.354	-93.223	20.516	-94.219	-8191	255	
709.141	1	1	0	0	0.13591	0.072492	0.34624	0.28473	0.097373	0.25737	0.098111	0.075138	0.11122	0.31852	0.24437	0.15269	0.28669	0.09129	0.18638	0.20881	-3.5333	-3.4271	-3.275	-3.9562	-3.1542	-3.7875	-3.8333	-3.3229	-3.9125	-3.3875	-3.5917	-4.1667	-3.3833	-3.7687	-3.9271	-3.2188	208.551	121.490	-78.085	-99.950	-11.744	-42.849	-17.554	-19.886	82.478	75.305	-69.538	102.426	58.770	-119.631	94.848	77.744	0.000196	0.00032185	6.9754e-05	1020.8	1.8327e-06	2.8068e-06	1105.8	211.07	2.2807e-06	1.9625e-06	270.19	76.968	60.038	17.995	1.5432e-06	25.087	0.00026354	0.0002982	7.8731e-05	1006.5	3.6118e-06	3.2351e-06	1094	210.55	3.2551e-06	3.3683e-06	269.08	77.636	60.539	18.158	3.4305e-06	25.407	164.771	-22.395	-23.993	-114.871	29.710	28.555	-115.057	-107.539	-51.702	54.187	-107.635	-101.685	-101.171	-93.592	18.220	-94.183	-8191	255	
709.237	1	1	0	0	0.11202	0.11013	0.078863	0.16041	0.18658	0.084614	0.2653	0.23337	0.16258	0.08087	0.14606	0.074186	0.062068	0.063179	0.13922	0.19435	-3.5396	-3.6604	-3.5708	-4.0062	-3.1646	-3.7708	-4.0104	-3.3792	-3.8896	-3.4792	-3.3833	-4.0875	-3.4125	-3.5167	-3.8708	-3.25	132.557	136.630	196.913	214.030	74.923	141.420	142.503	209.150	6.793	-107.400	69.945	191.202	135.735	140.726	79.972	-33.726	0.00016037	0.00033028	0.00011322	1020.3	2.9098e-06	2.1887e-06	1100.6	210.92	1.8535e-06	1.444e-06	269.91	77.037	60.243	17.976	2.1522e-06	24.764	0.00027736	0.00030593	8.9833e-05	1004	3.7236e-06	3.166e-06	1092.4	210.4	3.3064e-06	3.2034e-06	268.7	77.676	60.654	18.144	3.1261e-06	25.419	166.070	-23.801	-41.791	-114.823	-2.556	1.802	-114.773	-107.592	-38.490	37.833	-107.801	-101.738	-100.857	-93.159	44.876	-93.725	-8191	255	
709.333	1	1	0	0	0.052349	0.072652	0.12601	0.072506	0.07672	0.14885	0.20211	0.20173	0.10431	0.10246	0.25228	0.10009	0.19519	0.23083	0.040646	0.10466	-3.6854	-3.675	-3.2375	-4.1979	-3.2583	-3.4	-4.2333	-3.2792	-3.8083	-3.9188	-3.2729	-3.9792	-3.6208	-3.4875	-3.8438	-3.2854	51.954	-62.465	154.624	183.799	15.723	192.847	207.121	201.632	-80.246	222.440	209.389	9.580	-89.574	206.118	114.056	180.524	0.00018268	0.00028819	0.00011388	1024.8	1.2219e-06	2.3423e-06	1098.9	211.14	2.4171e-06	2.4118e-06	269.31	76.77	60.302	17.943	1.7555e-06	24.804	0.00027471	0.00029715	8.2797e-05	1006.6	3.4819e-06	3.4973e-06	1090.8	210.44	3.4268e-06	3.3132e-06	268.69	77.614	60.703	18.147	3.3872e-06	25.342	169.973	-57.339	-27.330	-115.019	-1.456	27.652	-114.940	-107.387	-2.344	25.999	-107.488	-101.376	-100.739	-93.437	2.186	-94.341	-8191	255	
709.430	1	1	0	0	0.21563	0.18432	0.13294	0.19735	0.047346	0.15162	0.24393	0.22675	0.085425	0.1946	0.20994	0.17242	0.059528	0.25873	0.065658	0.037415	-3.3688	-3.7479	-3.3625	-3.9188	-3.3563	-3.4	-4.0896	-3.4813	-3.7083	-3.9271	-3.1	-3.9396	-3.6292	-3.3438	-4.0229	-3.5042	87.470	210.357	45.101	-111.638	-96.951	169.812	186.669	213.513	114.539	93.492	-64.861	-64.474	-124.259	219.790	-15.873	164.436	0.00016139	0.00031546	7.694e-05	1021.7	1.3199e-06	2.5017e-06	1103.5	210.54	2.8087e-06	1.4159e-06	269.1	77.021	60.571	17.889	3.7887e-06	24.877	0.00026699	0.00030312	8.6005e-05	1006.6	3.5924e-06	3.5262e-06	1092.9	210.58	3.4696e-06	3.2116e-06	268.44	77.77	60.628	18.133	3.33e-06	25.349	165.138	-43.370	-62.818	-114.952	31.122	36.518	-114.748	-107.509	-1.300	4.916	-107.780	-101.115	-101.007	-93.360	-1.911	-94.186	-8191	255	
709.526	1	1	0	0	0.065396	0.065978	0.17593	0.21007	0.15251	0.049239	0.080935	0.091165	0.041192	0.14916	0.11573	0.23346	0.24475	0.09444	0.26339	0.072659	-3.3792	-3.6896	-3.1479	-4.1208	-3.5958	-3.2875	-4.1854	-3.3979	-3.4854	-3.8292	-3.275	-4.05	-3.5792	-3.4583	-3.9562	-3.3333	-113.314	-82.040	95.545	-116.913	107.345	203.592	16.427	-77.667	34.093	206.322	-43.021	-85.597	151.778	69.128	184.717	-50.010	0.00017712	0.00039501	6.9924e-05	1020.4	1.4154e-06	3.4536e-06	1106.3	210.88	1.8731e-06	3.4018e-06	269.95	77.123	60.255	18.018	2.1638e-06	24.954	0.00027978	0.0003191	8.7642e-05	1006.3	3.4044e-06	3.345e-06	1094.5	210.25	3.3242e-06	3.3688e-06	269.04	77.739	60.65	18.129	3.143e-06	25.372	178.117	-35.493	-31.365	-114.957	31.985	34.483	-115.222	-107.768	-13.823	16.065	-107.770	-101.813	-100.982	-93.371	49.334	-94.115	-8191	255	
709.622	1	1	0	0	0.25872	0.081674	0.25186	0.065261	0.23668	0.065154	0.18446	0.35928	0.040063	0.13902	0.01544	0.19619	0.1249	0.20214	0.1195	0.13628	-3.1354	-4.1292	-3.1896	-4.0208	-3.7854	-3.1417	-4.2396	-3.4354	-3.4708	-4.0292	-3.4104	-3.8417	-3.9354	-3.375	-4.05	-3.6063	209.409	93.404	-56.525	179.749	-18.150	-14.166	-123.603	208.898	-76.801	95.018	131.603	-97.645	-22.604	194.928	66.118	-49.958	0.00018423	0.00023159	5.0069e-05	1024.3	1.9061e-06	2.0621e-06	1105.5	210.88	2.9558e-06	4.4906e-06	269.06	77.177	60.368	17.88	1.6742e-06	24.792	0.00029742	0.00031016	8.204e-05	1007.4	3.3745e-06	3.3712e-06	1095.2	210.43	3.5807e-06	3.5951e-06	268.89	77.757	60.684	18.126	3.3058e-06	25.393	169.702	-17.557	-7.689	-114.851	-35.789	35.208	-115.087	-107.515	-16.245	30.288	-107.611	-101.275	-101.187	-93.838	-3.779	-93.966	-8191	255	
709.743	1	1	0	0	0.23795	0.17209	0.12921	0.12995	0.1161	0.14966	0.23333	0.099253	0.16619	0.048418	0.10407	0.15334	0.099	0.037603	0.08626	0.17757	-3.1667	-4.15	-3.2104	-4.0458	-4.1333	-3.2958	-4.0521	-3.9396	-3.2729	-4.0312	-3.3917	-3.7667	-3.875	-3.3438	-3.9146	-3.6979	114.525	132.347	98.506	-87.167	160.713	81.981	176.237	-28.504	-33.247	146.114	-47.251	158.210	-21.366	-40.187	158.965	191.522	0.00017752	0.00030023	7.187e-05	1025.9	1.9818e-06	2.8642e-06	1105	210.72	2.1279e-06	2.9029e-06	268.2	76.848	60.243	18.005	2.6139e-06	25.047	0.00028474	0.00031922	9.2691e-05	1009.6	3.5145e-06	3.5823e-06	1095.9	210.78	3.6154e-06	3.5522e-06	268.4	77.694	60.669	18.162	3.2863e-06	25.423	170.848	-17.205	-28.858	-115.028	10.607	2.745	-115.121	-107.597	-33.905	24.253	-108.021	-101.696	-101.268	-93.464	-34.453	-94.015	-8191	255	
709.837	1	1	0	0	0.078332	0.23934	0.1193	0.26708	0.25149	0.29359	0.17518	0.045444	0.11949	0.024992	0.12876	0.04076	0.016169	0.37992	0.088901	0.09835	-2.9146	-3.9917	-3.4292	-3.7562	-3.6667	-3.4625	-4.175	-3.6667	-3.3688	-4.0958	-3.4688	-3.5375	-4.0062	-3.2354	-3.9542	-3.7375	-30.278	224.630	44.355	-120.885	221.210	224.252	203.792	179.590	21.053	-36.452	191.876	-88.109	-28.915	-9.238	219.038	-82.018	0.00013348	0.00035731	8.1246e-05	1025.1	5.128e-07	4.2048e-06	1112.4	211.85	1.7906e-06	2.9955e-06	271.19	76.644	60.201	17.933	2.0576e-06	25.05	0.00028868	0.00030434	9.094e-05	1009.1	3.4338e-06	3.6826e-06	1098	211.09	3.5625e-06	3.536e-06	269.78	77.655	60.834	18.144	3.3715e-06	25.387	160.906	-21.290	-41.579	-115.008	55.111	52.074	-115.025	-107.477	6.018	36.443	-107.885	-101.502	-101.241	-93.642	21.753	-93.972	-8191	255	
709.933	1	1	0	0	0.13305	0.20099	0.071489	0.10527	0.26904	0.20037	0.12397	0.052138	0.11884	0.15147	0.25002	0.16613	0.12691	0.1673	0.061248	0.055138	-2.9375	-3.9354	-3.4604	-3.6208	-4.2146	-3.3875	-3.9208	-4.0458	-3.0687	-4.1438	-3.6729	-3.375	-4.1396	-3.2146	-3.6396	-3.7958	49.376	158.418	63.915	-35.598	144.521	-17.910	227.687	126.594	-69.577	176.831	201.770	228.747	101.578	131.022	61.844	-47.097	0.00015395	0.00030506	8.769e-05	1024.4	1.7136e-06	3.2384e-06	1111.3	212.03	2.941e-06	3.5194e-06	271.51	76.919	60.605	17.916	2.4844e-06	25.015	0.00029843	0.00030406	8.7518e-05	1008.9	3.4423e-06	3.4919e-06	1097.8	210.86	3.6445e-06	3.3869e-06	269.58	77.545	60.804	18.143	3.2846e-06	25.413	175.960	-41.247	-58.830	-114.878	-22.707	44.186	-115.047	-107.453	-53.412	19.124	-108.212	-101.867	-100.845	-93.231	6.627	-94.194	-8191	255	
710.029	1	1	0	0	0.072019	0.15991	0.19439	0.17772	0.32177	0.1065	0.11119	0.11464	0.13402	0.14631	0.11406	0.1156	0.38137	0.12343	0.087504	0.12189	-2.6958	-3.8417	-3.4625	-3.5333	-3.9146	-3.5042	-3.8271	-4.0104	-3.3521	-4.0875	-3.7479	-3.4333	-4.0479	-3.4458	-3.4958	-3.8917	121.711	134.565	-4.685	192.995	-38.449	-109.115	178.552	52.087	144.973	15.794	-67.716	-89.176	182.612	164.623	102.759	-112.912	0.00018368	0.00028636	6.0099e-05	1022.5	1.3141e-06	4.0288e-06	1111.6	212.02	2.0611e-06	1.7158e-06	268.03	76.786	60.7	17.997	3.6647e-06	25.083	0.00029745	0.00031528	8.57e-05	1007.8	3.4116e-06	3.4783e-06	1098.2	211.16	3.588e-06	3.3864e-06	268.65	77.639	60.901	18.164	3.5369e-06	25.435	165.138	-11.610	-12.868	-115.013	-5.467	32.313	-114.893	-107.529	-29.103	21.834	-107.913	-101.194	-101.088	-93.348	-27.015	-93.913	-8191	255	
710.125	1	1	0	0	0.079402	0.18138	0.11807	0.19131	0.025592	0.10177	0.13455	0.11763	0.39642	0.10962	0.082249	0.18813	0.11189	0.13263	0.043547	0.14857	-3.0021	-3.8104	-3.7062	-3.4104	-3.9938	-3.6104	-3.6875	-4.2521	-3.2646	-3.7417	-3.8479	-3.2479	-4.0333	-3.3625	-3.4125	-4.1625	187.530	-117.137	-100.743	225.702	-76.635	70.520	210.658	132.875	6.126	46.533	187.977	186.226	191.431	1.937	124.210	80.997	0.00018751	0.00029508	6.5136e-05	1024.4	1.5196e-06	2.81e-06	1105.7	212.08	2.6047e-06	3.1345e-06	271.86	77.116	60.294	17.977	8.9745e-07	25.113	0.00029341	0.00033373	8.4649e-05	1006.8	3.5509e-06	3.6596e-06	1095.7	210.81	3.575e-06	3.4704e-06	269.47	77.774	60.704	18.167	3.6098e-06	25.5	165.064	-33.265	-30.979	-114.896	-11.393	78.653	-115.012	-107.765	-3.621	-3.354	-107.414	-101.481	-100.937	-93.098	1.621	-94.035	-8191	255	
710.222	1	1	0	0	0.2677	0.11217	0.22095	0.15773	0.18049	0.46545	0.084424	0.15329	0.30198	0.11371	0.16603	0.1819	0.10779	0.14948	0.10544	0.075971	-2.825	-3.6667	-3.8125	-3.6396	-4.1583	-3.4854	-3.5083	-4.3167	-3.4729	-3.8229	-4.0583	-3.3292	-3.9938	-3.6208	-3.2125	-4.1562	-57.415	27.397	215.546	-82.271	166.165	190.564	227.351	5.091	-125.356	32.696	-104.246	196.102	-100.128	-24.263	134.673	53.632	0.00019257	0.00029043	9.284e-05	1025.5	8.2947e-07	2.9031e-06	1109	210.96	1.6224e-06	2.3686e-06	270.54	76.797	60.153	17.865	2.7885e-06	25.043	0.00029539	0.00030711	8.9777e-05	1007.9	3.4673e-06	3.3811e-06	1095.9	210.77	3.5371e-06	3.1722e-06	269.07	77.64	60.544	18.157	3.6238e-06	25.351	166.187	-58.162	-37.117	-115.041	73.097	47.619	-114.953	-107.457	9.948	19.805	-107.975	-101.347	-100.939	-93.634	-15.909	-93.811	-8191	255	
710.318	1	1	0	0	0.1229	0.17379	0.14075	0.12095	0.18353	0.046054	0.11069	0.046474	0.35213	0.061219	0.18381	0.23265	0.22568	0.13263	0.28788	0.19574	-2.9021	-3.6	-3.9708	-3.4917	-3.8708	-3.6354	-3.5083	-4.1667	-3.5	-3.5271	-3.9021	-3.3208	-3.8333	-3.6896	-3.3583	-4.0833	-26.245	-121.584	141.096	-35.355	-20.003	-63.656	218.744	-8.388	74.133	197.593	46.218	224.361	230.103	-70.659	214.532	70.364	0.00016645	0.00034322	8.8101e-05	1023.9	1.8638e-06	4.0327e-06	1108	212.23	1.7891e-06	1.8771e-06	270.56	76.704	60.354	17.987	2.4878e-06	24.769	0.00029066	0.00030698	8.1589e-05	1007	3.4132e-06	3.6126e-06	1094.1	211.26	3.4724e-06	3.3159e-06	269.52	77.563	60.528	18.173	3.4975e-06	25.347	170.334	-40.039	-25.896	-115.021	53.634	39.301	-114.964	-107.671	14.636	40.028	-107.649	-101.486	-101.004	-93.253	-0.197	-93.880	-8191	255	
710.438	1	1	0	0	0.099902	0.15263	0.042952	0.21992	0.076429	0.11172	0.25069	0.27571	0.20133	0.13727	0.046985	0.19567	0.087947	0.16686	0.11969	0.14668	-3.1083	-3.4771	-3.9188	-3.4458	-3.7667	-3.7458	-3.5833	-4.0125	-3.3312	-3.5833	-4.0792	-3.3271	-3.7292	-3.7854	-3.2938	-4.0354	219.271	230.118	227.818	-123.696	178.938	212.557	210.988	-111.329	179.489	112.261	136.800	101.285	-28.808	175.812	80.354	-101.595	0.00018368	0.00033823	5.8281e-05	1024.4	1.7672e-06	1.9251e-06	1105.7	211.44	1.5465e-06	2.5696e-06	270.92	76.601	60.692	17.92	1.5866e-06	25.075	0.00028466	0.00031036	8.2978e-05	1007.9	3.5832e-06	3.3509e-06	1095	210.6	3.5068e-06	3.3914e-06	269.12	77.561	60.769	18.125	3.4504e-06	25.332	168.661	-54.182	-7.994	-115.061	25.464	34.091	-115.067	-107.415	-39.643	-17.540	-107.813	-101.364	-100.949	-93.445	22.005	-94.330	-8191	255	
710.535	1	1	0	0	0.29688	0.030034	0.16662	0.11905	0.12817	0.11915	0.33	0.44276	0.1458	0.091691	0.1912	0.14792	0.058574	0.18669	0.47495	0.10586	-3.0604	-3.3146	-4.1604	-3.3854	-3.6771	-3.9833	-3.2958	-3.7854	-3.6229	-3.2979	-4.0896	-3.3104	-3.6833	-4.0021	-3.0583	-3.9938	61.954	-54.878	49.245	-78.066	10.464	-91.163	188.764	-113.029	-29.870	30.079	91.424	-22.798	-107.882	-35.091	89.929	-33.807	0.0001751	0.00040737	7.6573e-05	1018.7	1.2537e-06	2.6053e-06	1104.6	210.51	1.4194e-06	3.6532e-06	269.92	77.165	59.854	17.868	3.0256e-06	24.929	0.00028531	0.00031902	8.3079e-05	1004.2	3.5941e-06	3.203e-06	1093.7	210.62	3.5052e-06	3.4799e-06	269.42	77.596	60.51	18.189	3.4669e-06	25.363	176.368	-45.152	-44.360	-115.056	35.471	34.731	-115.132	-107.412	-42.803	21.007	-107.641	-101.650	-100.981	-93.479	25.375	-93.898	-8191	255	
710.629	1	1	0	0	0.15255	0.32133	0.28522	0.21784	0.34172	0.17105	0.22738	0.098532	0.19976	0.082996	0.052874	0.20993	0.15382	0.17447	0.24892	0.24783	-3.3021	-3.2271	-4.0771	-3.4667	-3.4521	-4.2583	-3.4417	-3.7208	-3.75	-3.3354	-4.1354	-3.6188	-3.5583	-4.1354	-3.3688	-3.9437	-56.454	146.812	34.569	138.518	-111.904	156.727	148.883	206.647	-13.255	-121.399	52.342	151.443	-12.298	-56.780	196.892	152.424	0.00016064	0.00036423	7.916e-05	1022.6	2.0651e-06	3.0638e-06	1098.5	211.66	1.2097e-06	3.5305e-06	272.89	76.806	60.09	18.025	2.855e-06	24.905	0.00028721	0.00031028	7.9996e-05	1005.5	3.4944e-06	3.3197e-06	1093.1	210.58	3.3569e-06	3.4397e-06	269.67	77.416	60.604	18.164	3.372e-06	25.407	169.963	-38.523	-18.997	-115.177	5.296	48.186	-115.019	-107.850	-28.167	37.118	-107.848	-101.312	-100.909	-93.405	18.096	-93.884	-8191	255	
710.702	1	1	0	0	0.059901	0.16615	0.17541	0.36497	0.061249	0.1299	0.075807	0.15315	0.13191	0.19784	0.091518	0.16524	0.096892	0.29314	0.029966	0.23698	-3.5021	-3.225	-4.0958	-3.6208	-3.4167	-4.3375	-3.4146	-3.7896	-4.0437	-3.1917	-4.0979	-3.7646	-3.3375	-4.1125	-3.3792	-3.6042	85.257	-84.157	121.430	181.552	-78.232	197.731	120.916	113.754	132.666	19.812	-112.221	17.517	59.773	111.571	146.770	-121.790	0.00020774	0.00015813	8.6971e-05	1018.7	2.9245e-06	4.2484e-06	1099.6	212.9	2.8078e-06	3.9195e-06	268.93	76.529	60.312	17.846	2.2832e-06	25.021	0.00027736	0.0002993	7.8934e-05	1002.7	3.4108e-06	3.3427e-06	1093.1	211.01	3.2644e-06	3.3647e-06	268.91	77.511	60.654	18.089	3.4347e-06	25.449	171.644	-27.658	-56.316	-114.966	-3.776	14.978	-115.003	-107.491	-43.987	30.505	-107.925	-101.735	-100.902	-93.218	37.214	-93.802	-8191	255	
710.823	1	1	0	0	0.2698	0.091364	0.14532	0.21521	0.22035	0.24892	0.14023	0.076618	0.14888	0.07446	0.16281	0.1778	0.12274	0.15863	0.19611	0.096109	-3.7917	-3.2188	-3.9062	-3.9896	-3.3104	-4.0583	-3.6396	-3.7042	-3.8542	-3.425	-4.0729	-3.65	-3.1667	-4.1104	-3.3812	-3.4333	-28.811	34.651	166.518	228.073	-57.633	47.304	213.264	-39.787	60.778	-121.289	-44.490	12.931	17.281	58.946	-39.956	-25.421	0.00018294	0.00027666	6.3451e-05	1019.4	1.8978e-06	1.5338e-06	1102.8	212.65	1.7377e-06	2.4261e-06	272.62	76.777	60.543	17.822	1.6316e-06	24.93	0.00027551	0.00031658	8.3068e-05	1004.5	3.5004e-06	3.1172e-06	1092.4	211.21	3.3161e-06	3.3995e-06	269.45	77.526	60.653	18.116	3.3503e-06	25.337	184.693	-8.087	-49.497	-115.111	-44.461	21.638	-115.232	-107.736	11.825	53.284	-107.239	-101.559	-101.375	-93.450	17.557	-93.892	-8191	255	
710.917	1	1	0	0	0.06007	0.1823	0.12965	0.13976	0.16155	0.10982	0.31183	0.10219	0.13636	0.1789	0.0081466	0.14881	0.15405	0.222	0.28098	0.17355	-3.8312	-3.2917	-3.7958	-3.6542	-3.1792	-4.0938	-3.6604	-3.5146	-4.1917	-3.2167	-3.7521	-3.8792	-3.2917	-3.8896	-3.5083	-3.6208	-65.124	-14.653	185.257	94.122	95.504	47.161	172.809	127.342	-37.696	-63.239	64.978	188.423	94.331	-123.750	129.971	-96.717	0.00016605	0.00035576	6.1399e-05	1019.3	1.6318e-06	3.0204e-06	1104	211.91	1.4649e-06	2.5197e-06	271.05	76.886	60.171	17.848	2.7728e-06	24.73	0.00026601	0.00029304	8.291e-05	1005.2	3.4677e-06	3.1601e-06	1092.7	210.71	3.2425e-06	3.2418e-06	269.14	77.487	60.64	18.102	3.4135e-06	25.344	169.596	-19.546	-34.893	-114.862	-48.990	1.997	-115.130	-107.474	-41.374	53.407	-107.650	-101.409	-101.201	-93.292	-6.027	-94.036	-8191	255	
711.014	1	1	0	0	0.14819	0.094589	0.17223	0.33078	0.14214	0.049801	0.049157	0.02603	0.0854	0.059447	0.1714	0.035126	0.17355	0.11062	0.31532	0.15497	-3.6875	-3.2417	-3.7667	-3.9729	-3.2104	-3.8792	-3.6542	-3.5354	-3.8979	-3.3792	-3.7938	-3.975	-3.2313	-3.9375	-3.6917	-3.4667	-124.164	119.264	-8.812	157.880	-76.410	185.120	-66.411	128.931	17.844	37.323	160.552	58.946	212.782	-106.690	-117.152	48.099	0.00020333	0.00028144	0.00012746	1020.5	1.5366e-06	1.3352e-06	1104.2	211.39	2.7853e-06	3.7482e-06	270.88	76.835	60.02	17.913	2.1114e-06	24.862	0.00028101	0.00029523	8.2582e-05	1005.1	3.5759e-06	3.189e-06	1093.5	210.58	3.4959e-06	3.3783e-06	269.13	77.423	60.507	18.095	3.4368e-06	25.347	173.124	-36.624	-39.657	-114.737	8.089	67.419	-115.191	-107.432	-25.765	17.554	-107.319	-101.331	-100.876	-93.495	50.918	-93.472	-8191	255	
711.110	1	1	0	0	0.15263	0.25145	0.078409	0.39153	0.13412	0.069247	0.2061	0.1884	0.19068	0.1738	0.096749	0.15441	0.19173	0.094636	0.12159	0.16286	-3.8104	-3.2438	-3.5167	-3.8583	-3.2667	-3.7479	-3.7875	-3.4708	-3.8833	-3.4667	-3.6083	-3.9667	-3.3187	-3.8563	-3.8125	-3.1688	-37.926	101.700	108.774	186.035	41.892	207.357	145.523	127.717	-87.997	-30.924	-37.113	131.706	-72.324	-89.727	139.466	122.534	0.00019305	0.00033538	8.021e-05	1018.5	1.8599e-06	3.1994e-06	1104.8	212.26	2.2486e-06	4.1776e-06	268.63	77.156	59.992	17.965	7.8368e-07	24.829	0.00028248	0.0003017	8.8647e-05	1004.1	3.4028e-06	3.1339e-06	1093.6	210.84	3.0668e-06	3.343e-06	268.79	77.696	60.568	18.116	3.4012e-06	25.29	170.710	-37.292	-42.401	-114.727	-4.997	36.596	-115.014	-107.410	-68.024	39.691	-107.718	-100.939	-100.922	-93.170	36.512	-94.025	-8191	255	
711.230	1	1	0	0	0.14357	0.27338	0.24828	0.17495	0.11199	0.21583	0.051822	0.10453	0.13071	0.1495	0.10394	0.14262	0.11638	0.12424	0.1661	0.24053	-3.85	-3.5312	-3.4833	-4.2771	-3.1792	-3.7812	-3.95	-3.1937	-4.0687	-3.5333	-3.5604	-4.1687	-3.2792	-3.9354	-3.8979	-3.3979	43.580	-1.063	-22.959	214.038	-87.877	58.272	224.072	-67.340	176.371	-68.914	-112.345	57.494	183.072	157.483	5.597	160.746	0.00019389	0.00026123	7.1809e-05	1017.4	2.7538e-06	4.0489e-06	1100.4	211.79	2.5185e-06	3.4309e-06	267.25	77.002	60.196	17.786	1.7314e-06	25.072	0.00028384	0.0003091	8.6309e-05	1004.6	3.4423e-06	3.5163e-06	1090.5	210.79	3.3387e-06	3.3155e-06	267.83	77.283	60.542	18.086	3.2359e-06	25.401	168.066	-47.943	-36.607	-115.076	-38.639	56.444	-115.205	-107.468	-25.951	28.426	-107.407	-101.593	-101.408	-93.346	42.086	-93.921	-8191	255	
711.326	1	1	0	0	0.051158	0.17012	0.069742	0.19616	0.13263	0.036723	0.2197	0.13648	0.24438	0.45159	0.047832	0.19195	0.088508	0.071528	0.084604	0.15958	-3.6417	-3.5521	-3.4104	-4.2021	-3.2958	-3.7375	-3.9271	-3.2979	-3.9083	-3.6063	-3.4958	-4.1771	-3.3854	-3.5604	-3.8917	-3.2396	106.365	213.188	19.019	-96.748	139.137	158.120	207.648	172.345	109.047	66.423	-0.247	153.447	-18.746	206.643	199.541	205.462	0.00015828	0.00023278	8.2708e-05	1021.2	1.8561e-06	2.141e-06	1105.4	212.59	2.0851e-06	3.0991e-06	269.17	76.988	60.416	17.851	1.7625e-06	24.909	0.0002709	0.00031235	8.649e-05	1004.7	3.4576e-06	3.5543e-06	1094.8	210.42	3.287e-06	3.3724e-06	268.51	77.751	60.602	18.078	3.2104e-06	25.299	180.689	-44.913	-42.044	-115.074	40.287	34.220	-114.740	-107.295	7.581	42.330	-107.906	-101.209	-100.793	-93.488	22.729	-94.070	-8191	255	
711.423	1	1	0	0	0.046344	0.19486	0.091593	0.19346	0.11234	0.13681	0.20036	0.18484	0.11731	0.1552	0.060163	0.1041	0.20785	0.15932	0.038554	0.061659	-3.6396	-3.6646	-3.2896	-3.9729	-3.5187	-3.4437	-4.2583	-3.2646	-3.8146	-3.8771	-3.1625	-4.1667	-3.5042	-3.5312	-3.9854	-3.3667	-25.627	-113.990	-71.873	-14.072	-6.532	32.230	191.885	168.488	30.488	177.059	37.259	-31.796	215.425	174.008	233.962	33.913	0.0001783	0.00033679	8.474e-05	1024.3	1.7933e-06	2.0466e-06	1104.2	212.51	3.4608e-06	2.7616e-06	269.08	77.25	59.995	17.987	2.0905e-06	24.999	0.00028621	0.00031662	8.7925e-05	1007	3.5618e-06	3.4408e-06	1094.7	210.86	3.5173e-06	3.3543e-06	268.85	77.671	60.479	18.166	3.2507e-06	25.339	169.734	-33.395	-14.801	-115.041	-40.994	-5.400	-114.886	-107.539	-41.297	75.554	-107.587	-101.246	-100.906	-93.354	30.536	-93.792	-8191	255	
711.519	1	1	0	0	0.052349	0.2314	0.07286	0.27578	0.1925	0.033524	0.18884	0.24739	0.1054	0.043906	0.085952	0.23015	0.24891	0.099428	0.099486	0.16299	-3.5458	-3.9896	-3.2375	-3.9583	-3.5917	-3.4229	-4.2708	-3.3333	-3.7021	-3.9188	-3.3792	-4.1062	-3.8208	-3.4792	-3.9562	-3.3854	0.277	-102.067	207.022	197.574	83.449	18.325	76.687	145.044	-57.539	195.285	-26.147	91.892	185.586	-89.795	125.700	169.183	0.00015944	0.00023492	0.00010869	1027.1	1.6926e-06	3.5824e-06	1109.4	211.52	1.3884e-06	2.1351e-06	271.05	76.446	60.042	17.909	1.8664e-06	25.07	0.00027988	0.00030568	8.5327e-05	1008.6	3.5158e-06	3.4015e-06	1095.2	210.64	3.35e-06	3.1149e-06	269.02	77.403	60.519	18.145	3.2083e-06	25.424	175.296	-55.240	-26.138	-114.890	-16.360	31.507	-114.713	-107.246	-45.588	56.708	-107.767	-102.027	-101.388	-93.428	-14.092	-93.556	-8191	255	
711.615	1	1	0	0	0.14873	0.063475	0.18558	0.13549	0.086142	0.088375	0.22891	0.012139	0.1655	0.22164	0.21727	0.26733	0.072098	0.16915	0.12672	0.23375	-3.1354	-3.9021	-3.3896	-3.9667	-3.5917	-3.3792	-4.2833	-3.4938	-3.2792	-3.9979	-3.2646	-3.9104	-3.6854	-3.3146	-4.1146	-3.5333	23.870	34.817	54.842	114.396	-84.099	48.389	126.690	229.196	125.899	41.864	145.242	64.718	42.449	-87.212	-52.546	57.795	0.00016056	0.00031936	7.138e-05	1024.8	1.8919e-06	2.3728e-06	1099.8	211.37	1.7547e-06	4.7909e-06	270.03	76.738	60.586	17.843	2.6918e-06	24.963	0.000278	0.00029885	8.4683e-05	1007.1	3.4322e-06	3.3129e-06	1092.9	210.46	3.2987e-06	3.2631e-06	269.07	77.558	60.648	18.15	3.1252e-06	25.325	173.789	-20.615	-37.572	-114.748	25.309	6.334	-114.783	-107.184	-12.518	16.807	-107.257	-101.147	-100.969	-93.452	22.245	-93.607	-8191	255	
711.711	1	1	0	0	0.13319	0.19663	0.16326	0.1916	0.092419	0.035782	0.15168	0.099137	0.014501	0.12268	0.16195	0.13075	0.10112	0.086161	0.19524	0.29871	-3.1854	-4.0687	-3.2521	-3.8438	-3.8375	-3.175	-4.2083	-3.5312	-3.2062	-4.0687	-3.3875	-3.7104	-3.9458	-3.2521	-4.0563	-3.6958	201.602	-90.903	124.517	181.397	127.700	-35.152	183.137	182.809	-117.032	-98.520	175.864	139.850	-84.590	-76.171	28.877	104.198	0.00015188	0.00021637	8.6038e-05	1026.8	2.0629e-06	3.7792e-06	1106.9	211.03	9.5736e-07	3.5142e-06	268.84	76.895	60.438	17.873	1.9515e-06	24.827	0.00027664	0.00027633	8.0132e-05	1007.6	3.1392e-06	3.3576e-06	1093.6	210.43	3.264e-06	3.3164e-06	268.43	77.635	60.637	18.122	3.2371e-06	25.269	171.702	-29.358	-55.163	-114.953	5.046	25.265	-114.872	-107.505	-4.177	10.172	-107.861	-101.165	-100.875	-93.070	24.888	-93.985	-8191	255	
711.830	1	1	0	0	0.1449	0.21256	0.044555	0.19228	0.060863	0.10299	0.24823	0.21347	0.24173	0.11773	0.127	0.39282	0.1596	0.074722	0.077222	0.054907	-2.9333	-4.1458	-3.3104	-3.6188	-3.9771	-3.2042	-4.075	-3.6875	-3.1542	-4.1312	-3.4125	-3.5229	-4.1021	-3.4229	-3.925	-3.5938	-105.517	-13.292	9.935	190.715	178.986	-109.649	177.502	171.075	213.905	-71.645	-107.991	217.700	20.544	-4.883	52.908	135.330	0.00014992	0.00035622	7.2526e-05	1016.6	2.4652e-06	3.2483e-06	1108.4	211.05	2.293e-06	2.4659e-06	268.9	77.198	60.276	17.879	1.928e-06	25.041	0.00027067	0.00027625	8.4977e-05	1006.1	3.2607e-06	3.4752e-06	1095.3	210.59	3.4959e-06	3.1975e-06	268.62	77.679	60.671	18.131	3.2427e-06	25.372	174.395	-25.767	-23.852	-114.648	16.023	37.974	-114.908	-107.305	1.316	-6.081	-107.680	-101.227	-100.940	-93.101	4.374	-93.962	-8191	255	
711.926	1	1	0	0	0.22991	0.10205	0.33621	0.13155	0.13235	0.12473	0.082817	0.26139	0.14824	0.1428	0.21212	0.061153	0.24535	0.12363	0.0021533	0.17976	-2.9083	-4.0271	-3.5708	-3.7271	-3.9813	-3.3812	-4.0333	-3.8542	-3.3104	-3.8396	-3.6479	-3.5792	-4.0104	-3.4313	-3.9604	-3.7021	163.335	63.659	165.953	-121.680	124.837	26.873	201.994	177.609	204.549	158.996	191.391	-121.110	-104.587	-12.475	180.000	169.431	0.00019869	0.00021092	0.0001267	1019.5	2.0385e-06	2.4672e-06	1107.8	211.72	2.0632e-06	2.6565e-06	269.15	77.27	60.072	17.904	1.5836e-06	24.801	0.00027908	0.00028129	8.4073e-05	1006.8	3.2458e-06	3.3938e-06	1095.5	210.31	3.3965e-06	3.2021e-06	268.68	77.777	60.603	18.158	3.0544e-06	25.41	167.342	-18.063	-19.475	-114.616	-5.012	-10.536	-114.787	-107.546	-12.309	8.230	-107.592	-101.823	-101.033	-92.738	52.130	-93.996	-8191	255	
711.998	1	1	0	0	0.089302	0.0083469	0.10514	0.15042	0.26593	0.16374	0.36033	0.15532	0.26544	0.12127	0.13295	0.264	0.11982	0.058656	0.23683	0.15295	-2.6688	-3.9313	-3.3896	-3.5646	-3.9313	-3.2375	-3.975	-3.7271	-3.25	-3.9458	-3.6937	-3.5333	-4.1167	-3.4875	-3.6813	-4.0208	-102.127	15.450	166.707	140.402	29.823	179.093	172.375	211.196	-52.542	212.498	-111.220	-55.720	-43.281	122.402	197.526	191.011	0.00017348	0.00033997	5.6465e-05	1023.5	1.7049e-06	4.2396e-06	1105.7	212.08	1.8436e-06	2.4179e-06	270.51	76.692	60.38	17.81	2.075e-06	24.82	0.00029133	0.00028064	8.2752e-05	1006.2	3.4286e-06	3.3766e-06	1096.5	210.61	3.4486e-06	3.4049e-06	269.05	77.789	60.684	18.11	3.0328e-06	25.282	170.915	-17.127	-32.035	-114.857	-13.570	22.123	-114.686	-107.428	13.565	47.862	-108.123	-101.300	-100.985	-93.366	41.657	-93.884	-8191	255	
712.094	1	1	0	0	0.030895	0.22139	0.21751	0.13521	0.22237	0.16498	0.17399	0.20732	0.13713	0.10982	0.20045	0.16335	0.19403	0.18946	0.051812	0.10306	-2.8458	-4.0958	-3.6646	-3.4521	-4.1833	-3.3979	-3.7146	-4.1333	-3.1375	-3.8375	-3.85	-3.2583	-4.0708	-3.6188	-3.4562	-3.9542	-39.102	58.636	49.726	164.686	-77.453	61.048	194.100	140.598	102.524	141.921	195.999	230.209	130.423	160.013	49.573	98.525	0.00017919	0.00019618	5.5467e-05	1022.7	4.4879e-07	3.6849e-06	1103.9	211.44	1.2124e-06	4.5936e-06	268.49	76.841	60.349	17.807	1.8893e-06	25.122	0.00027756	0.00028763	7.5874e-05	1005.5	3.0637e-06	3.1705e-06	1094.1	211.05	3.3629e-06	3.2658e-06	268.98	77.614	60.749	18.111	3.2367e-06	25.411	165.794	-33.653	5.531	-114.972	-18.600	22.613	-115.085	-107.672	-59.429	24.781	-107.850	-101.308	-101.139	-93.117	-2.405	-94.006	-8191	255	
712.215	1	1	0	0	0.05757	0.134	0.11184	0.26178	0.17076	0.28866	0.21806	0.1859	0.18019	0.076572	0.10864	0.10376	0.045704	0.061341	0.23905	0.20655	-2.8792	-3.7333	-3.7854	-3.3708	-3.8625	-3.5396	-3.7062	-4.2875	-3.325	-3.8417	-3.8271	-3.3646	-3.9583	-3.4833	-3.4375	-4.1396	-65.062	138.500	-25.430	69.947	-67.974	129.386	159.985	-121.487	89.876	-113.465	187.501	171.385	231.869	-46.102	27.936	165.942	0.00016032	0.00025832	0.00010491	1020.5	1.5033e-06	3.1873e-06	1104.7	210.91	2.0449e-06	2.7217e-06	269.04	77.245	60.268	17.864	2.3114e-06	24.73	0.0002797	0.00028243	8.0256e-05	1005.9	3.159e-06	3.2668e-06	1096.5	210.6	3.3116e-06	3.3516e-06	268.88	77.719	60.596	18.042	3.2778e-06	25.329	160.280	-29.392	-41.725	-114.738	23.185	12.570	-115.109	-107.815	-16.206	20.712	-107.944	-101.376	-100.824	-93.287	-26.061	-93.795	-8191	255	
712.311	1	1	0	0	0.025212	0.21562	0.17885	0.30822	0.13017	0.048188	0.20746	0.084334	0.23301	0.031043	0.097578	0.1046	0.14723	0.028139	0.060231	0.16536	-2.6937	-3.8396	-3.7542	-3.4146	-3.9062	-3.6083	-3.475	-4	-3.3187	-3.7708	-3.9354	-3.35	-3.9562	-3.7771	-3.4062	-4.0229	190.728	29.363	102.509	-115.809	-64.820	56.658	231.597	126.424	125.722	220.725	211.351	231.904	175.500	159.155	46.682	139.839	0.00015101	0.00015471	9.4703e-05	1018.8	2.2598e-06	2.9702e-06	1106.3	211.79	1.2123e-06	2.0829e-06	269.37	76.756	60.12	17.949	2.509e-06	25.035	0.00027731	0.00029284	7.6981e-05	1004.5	3.4132e-06	3.2708e-06	1094.4	210.64	3.3945e-06	3.0905e-06	268.79	77.509	60.703	18.111	3.2583e-06	25.391	176.687	-53.273	-46.035	-115.139	-15.618	22.911	-115.034	-107.429	26.859	14.888	-108.129	-101.444	-101.055	-93.172	34.135	-93.384	-8191	255	
712.407	1	1	0	0	0.14341	0.069866	0.20575	0.24868	0.072828	0.096129	0.16344	0.22635	0.20743	0.18031	0.10286	0.17315	0.14917	0.051235	0.15366	0.062823	-3	-3.5042	-3.9125	-3.4833	-3.7458	-3.6167	-3.2333	-4.1083	-3.2646	-3.5792	-4.0667	-3.2979	-3.8292	-3.9021	-3.1917	-3.8896	123.199	189.687	187.712	173.827	116.189	226.074	174.700	142.040	-46.269	-96.587	140.493	152.052	65.411	-76.641	-100.560	-65.551	0.00019242	0.0002877	7.092e-05	1021.2	1.0539e-06	3.147e-06	1107.4	211.03	1.477e-06	3.9294e-06	267.8	76.67	60.333	17.906	2.899e-06	25.06	0.00027787	0.00028808	7.6235e-05	1004.9	3.2962e-06	3.2275e-06	1095.6	210.27	3.2854e-06	3.2852e-06	268.2	77.36	60.702	18.145	3.1511e-06	25.377	176.033	-21.341	-32.767	-114.989	-29.634	19.781	-115.118	-107.550	4.343	35.329	-107.757	-101.504	-100.988	-93.657	10.582	-93.826	-8191	255	
712.503	1	1	0	0	0.055128	0.23814	0.34903	0.31992	0.24573	0.074607	0.14688	0.06837	0.14561	0.12438	0.20832	0.31454	0.36078	0.18539	0.084032	0.069862	-3.3479	-3.3563	-4.1937	-3.3021	-3.7667	-3.7958	-3.4313	-4.0312	-3.6188	-3.4354	-4.1479	-3.4583	-3.7292	-3.9062	-3.3104	-3.9708	220.716	189.723	-70.165	210.188	192.726	-109.349	144.739	21.410	-76.762	-57.482	112.133	-100.630	-104.540	47.587	188.787	217.419	0.00019307	0.00025537	9.3538e-05	1021.1	1.4076e-06	2.2544e-06	1106.2	210.85	1.7462e-06	2.6907e-06	270.83	76.913	60	17.913	2.9221e-06	25.062	0.00027962	0.0002919	7.9126e-05	1005.3	3.2127e-06	3.3296e-06	1094.6	210.38	3.4361e-06	3.526e-06	268.97	77.616	60.664	18.106	3.4076e-06	25.465	165.403	-27.245	-25.281	-115.037	8.946	14.821	-115.024	-107.529	-23.691	61.128	-107.752	-101.251	-101.039	-93.561	16.969	-93.565	-8191	255	
712.599	1	1	0	0	0.17746	0.18892	0.18504	0.28618	0.085642	0.12034	0.088091	0.27397	0.13635	0.052065	0.18311	0.10582	0.034187	0.095226	0.16187	0.10865	-3.2458	-3.2812	-4.0771	-3.4833	-3.4562	-4.0437	-3.2313	-4.0938	-3.5563	-3.2354	-4.1729	-3.4646	-3.7167	-4.1687	-3.175	-3.8542	62.028	116.654	202.295	166.082	83.779	-8.851	33.827	192.191	29.561	-54.597	-99.976	112.420	193.488	-52.791	126.053	175.950	0.00016732	0.00031962	7.5333e-05	1015.5	1.3053e-06	2.1937e-06	1106	211.76	2.4999e-06	2.8603e-06	268.49	76.97	60.334	17.844	7.8674e-07	24.981	0.00027574	0.00029548	8.3384e-05	1005.3	3.4011e-06	3.1108e-06	1093.9	210.64	3.2413e-06	3.4375e-06	268.69	77.562	60.601	18.085	3.3236e-06	25.386	162.212	-41.139	-34.058	-115.060	25.743	23.663	-115.110	-107.536	-5.307	18.040	-107.678	-101.289	-101.139	-93.472	4.824	-93.440	-8191	255	
712.695	1	1	0	0	0.20398	0.093789	0.13509	0.21175	0.17733	0.17105	0.16898	0.088748	0.048058	0.018776	0.1869	0.20367	0.18154	0.041058	0.28041	0.1627	-3.2438	-3.2729	-3.9125	-3.5854	-3.6021	-3.9792	-3.3958	-3.7854	-3.6354	-3.325	-3.9042	-3.5729	-3.4458	-4.0938	-3.1479	-3.6542	-38.447	162.887	222.302	189.541	79.212	226.507	148.056	156.481	-88.746	72.472	178.515	-98.930	-86.059	199.354	-62.100	-89.775	0.00016202	0.00049008	6.8548e-05	1020.9	1.966e-06	2.9632e-06	1104.7	210.86	2.0379e-06	4.0987e-06	268.87	76.592	60.204	18.075	1.7639e-06	24.995	0.00027846	0.0003189	8.2221e-05	1004.8	3.5537e-06	3.175e-06	1092.7	210.35	3.2741e-06	3.3033e-06	268.62	77.536	60.678	18.182	3.1401e-06	25.362	177.511	-61.784	-40.103	-115.032	-3.212	46.369	-115.173	-107.572	-24.446	36.218	-107.544	-101.428	-101.281	-93.597	19.843	-93.463	-8191	255	
712.791	1	1	0	0	0.045583	0.32699	0.16286	0.31768	0.064614	0.15533	0.2622	0.28218	0.18944	0.12097	0.098396	0.25483	0.090521	0.19241	0.18	0.12224	-3.55	-3.2458	-4.0292	-3.5667	-3.3271	-3.9854	-3.3667	-3.7313	-3.8854	-3.1437	-4.1062	-3.5083	-3.3125	-3.9396	-3.1125	-3.5958	92.643	59.297	-9.992	198.006	-7.159	196.701	162.545	160.419	19.336	137.771	116.840	145.801	-75.514	-66.936	195.062	-36.336	0.00016839	0.00040269	6.6808e-05	1017.7	1.7423e-06	3.5482e-06	1101	211.32	3.1656e-06	3.3315e-06	268.08	77.008	60.079	17.946	1.2261e-06	25.025	0.00026388	0.00029499	7.9657e-05	1004.3	3.4225e-06	3.1483e-06	1093.1	210.32	3.2353e-06	3.4723e-06	268.53	77.625	60.492	18.121	3.294e-06	25.382	166.547	-44.396	-22.903	-115.223	9.858	39.819	-114.965	-107.324	-23.704	10.735	-107.573	-101.628	-100.995	-92.980	25.390	-93.772	-8191	255	
712.910	1	1	0	0	0.11587	0.27987	0.071768	0.18948	0.27018	0.1224	0.1459	0.19055	0.020802	0.27636	0.29581	0.14037	0.34391	0.04739	0.21126	0.18871	-3.6271	-3.1729	-3.9333	-3.8979	-3.2958	-3.9813	-3.5687	-3.5833	-3.9667	-3.3104	-3.8542	-3.8854	-3.3146	-3.975	-3.4292	-3.4021	-43.080	225.033	96.481	-106.246	-73.112	-38.940	93.884	-50.711	-91.565	-111.709	225.211	226.760	227.279	209.844	3.893	70.971	0.00014983	0.00033353	9.7599e-05	1026.1	2.1789e-06	3.0448e-06	1106.7	211.07	2.614e-06	1.924e-06	270.71	77.08	60.316	18.077	5.0092e-06	24.945	0.00026164	0.00031499	8.2289e-05	1005.4	3.4899e-06	3.3599e-06	1093.6	210.48	3.2745e-06	3.5188e-06	268.67	77.693	60.607	18.151	3.3864e-06	25.402	167.742	-53.593	-10.645	-114.945	-4.342	34.291	-115.184	-107.421	-44.427	70.484	-107.902	-101.740	-101.329	-93.475	22.549	-93.855	-8191	255	
713.006	1	1	0	0	0.29576	0.041995	0.13849	0.081076	0.31202	0.17368	0.21761	0.12164	0.054507	0.066824	0.10447	0.30006	0.10208	0.11053	0.055873	0.12962	-3.8292	-3.1042	-3.8688	-4.0708	-3.45	-3.9813	-3.7396	-3.5229	-4.0333	-3.2583	-3.9604	-3.8688	-3.1437	-4.0833	-3.5833	-3.4146	118.603	-73.333	19.132	198.721	-101.104	8.890	121.939	126.590	178.163	105.797	210.144	159.707	193.239	48.030	-77.079	109.637	0.00018305	0.00032994	8.2513e-05	1020.8	1.9688e-06	3.265e-06	1106.5	211.44	3.6671e-06	2.8174e-06	269.31	76.855	59.67	17.94	2.4503e-06	24.769	0.00027198	0.00032012	8.2594e-05	1004.7	3.5553e-06	3.1601e-06	1093.2	210.55	3.1537e-06	3.386e-06	268.28	77.656	60.463	18.15	3.308e-06	25.321	164.257	-9.239	-9.506	-114.999	4.277	21.196	-114.961	-107.556	-13.128	52.557	-107.573	-101.059	-101.062	-93.098	12.185	-93.792	-8191	255	
713.103	1	1	0	0	0.092026	0.10052	0.066455	0.087427	0.074843	0.14225	0.20433	0.33602	0.097434	0.21213	0.063539	0.16925	0.22154	0.043182	0.10233	0.061374	-3.6562	-3.1188	-3.55	-4.1	-3.0187	-4.0062	-3.7521	-3.3854	-4.1167	-3.4208	-3.6708	-4.1229	-3.2542	-3.9708	-3.6312	-3.3208	41.401	174.543	64.893	-117.490	-18.489	38.314	184.621	222.725	103.223	165.431	69.069	165.935	167.866	13.790	208.229	-27.243	0.00015662	0.00016717	3.3675e-05	1018	3.3306e-06	3.2854e-06	1101.5	210.89	2.1792e-06	4.2565e-06	268.36	77.201	60.067	17.853	1.072e-06	25.009	0.00026707	0.00030154	8.1814e-05	1004.5	3.5791e-06	3.2428e-06	1092.7	210.34	3.1961e-06	3.3982e-06	268.25	77.482	60.498	18.1	3.2287e-06	25.351	175.084	-57.513	-33.907	-115.035	14.212	22.085	-115.001	-107.428	-1.847	10.487	-107.216	-101.374	-100.883	-92.753	-25.214	-93.832	-8191	255	
713.223	1	1	0	0	0.17247	0.17983	0.12171	0.12255	0.059268	0.11819	0.22109	0.11948	0.15565	0.12001	0.15881	0.014269	0.1519	0.11863	0.15717	0.14916	-3.6104	-3.35	-3.2417	-4.3646	-3.425	-3.8271	-3.9458	-3.3271	-4.1229	-3.6437	-3.6708	-3.8896	-3.4542	-3.8646	-3.8458	-3.2479	-81.254	-115.409	40.177	175.722	-38.687	47.391	179.436	213.977	-76.441	133.493	204.604	31.969	78.843	199.961	104.819	-75.303	0.00019664	0.00035676	8.0228e-05	1021.8	4.9965e-07	2.4104e-06	1100	210.32	3.5915e-06	1.6064e-06	269.11	76.61	60.301	17.886	3.6429e-06	24.944	0.00026594	0.00030625	7.9827e-05	1005.8	3.4532e-06	2.9535e-06	1092.3	210.04	3.1108e-06	3.2301e-06	268.57	77.514	60.487	18.118	3.2087e-06	25.33	171.796	-28.564	-12.909	-115.103	-27.230	7.388	-115.061	-107.357	-35.491	26.409	-107.659	-101.554	-101.218	-93.308	15.826	-93.614	-8191	255	
713.295	1	1	0	0	0.087297	0.061297	0.030377	0.17965	0.2956	0.10513	0.43234	0.22119	0.138	0.069706	0.15426	0.06997	0.069901	0.055644	0.21001	0.11093	-3.6229	-3.4042	-3.3542	-4.1458	-3.1146	-3.7292	-3.8771	-3.4042	-3.8979	-3.6562	-3.4292	-4.0042	-3.3417	-3.7292	-3.7667	-3.3729	-115.500	104.691	-35.839	208.873	226.131	204.593	101.747	118.504	-107.247	-101.559	-52.106	162.770	-12.544	-61.689	135.155	120.786	0.00017003	0.00041569	7.7787e-05	1018.7	7.2347e-07	3.3308e-06	1099.4	211.04	1.6794e-06	3.0001e-06	269.75	76.397	60.069	17.86	2.4784e-06	24.819	0.00026905	0.00028873	8.4446e-05	1004.1	3.3289e-06	3.1985e-06	1090.9	210.12	3.2559e-06	3.1424e-06	269.07	77.434	60.591	18.116	3.0748e-06	25.291	179.151	-14.296	-48.509	-115.216	-6.606	33.477	-114.924	-107.420	-13.842	33.006	-107.845	-100.957	-100.873	-93.724	36.105	-94.081	-8191	255	
713.391	1	1	0	0	0.13788	0.16498	0.11479	0.094096	0.084565	0.18816	0.22755	0.11539	0.20663	0.19694	0.16479	0.20167	0.13568	0.16902	0.091706	0.27018	-3.575	-3.5458	-3.3833	-4.1333	-3.5062	-3.6917	-4.0396	-3.2313	-3.875	-3.7167	-3.3958	-4.0917	-3.6167	-3.6646	-4.1375	-3.4417	193.552	6.234	24.159	213.904	49.548	48.214	178.440	-96.850	11.988	60.733	160.900	-122.304	-96.778	215.486	152.213	170.048	0.00017278	0.0002164	9.9024e-05	1017.5	1.2303e-06	3.0981e-06	1101.7	211.47	1.2885e-06	2.3354e-06	269.64	76.974	60.46	17.98	3.7895e-06	25.107	0.00026884	0.00027792	8.1984e-05	1003.7	3.3006e-06	3.067e-06	1092.4	210.15	3.1775e-06	3.0091e-06	268.4	77.568	60.641	18.188	3.0154e-06	25.327	169.594	-17.719	-7.654	-114.923	-4.518	34.997	-114.933	-107.502	-9.714	35.557	-107.881	-101.588	-100.869	-93.169	-1.231	-93.810	-8191	255	
713.512	1	1	0	0	0.097137	0.28906	0.23899	0.37178	0.12327	0.16548	0.30054	0.28674	0.10922	0.21973	0.15329	0.144	0.15501	0.14977	0.081738	0.041576	-3.4083	-3.7979	-3.2958	-4.2771	-3.55	-3.6542	-4.2	-3.5062	-3.8292	-3.8	-3.3708	-3.9813	-3.5917	-3.5354	-3.925	-3.3729	126.888	-79.728	97.130	177.693	-78.084	-4.386	141.926	190.397	-117.553	77.952	126.162	43.426	187.603	161.095	48.114	219.172	0.00018895	0.00034964	9.3085e-05	1017.4	2.0405e-06	2.3243e-06	1103.9	211.59	1.1274e-06	3.0562e-06	270.52	76.752	59.963	17.862	3.1301e-06	24.85	0.00025706	0.00027926	8.108e-05	1004.6	3.3192e-06	3.0168e-06	1092.4	210.74	3.1646e-06	3.104e-06	268.66	77.624	60.545	18.104	3.0146e-06	25.328	171.616	-32.961	-17.042	-114.669	26.518	27.698	-114.854	-107.210	-19.814	33.141	-107.765	-101.597	-101.240	-93.770	5.960	-93.950	-8191	255	
713.608	1	1	0	0	0.070259	0.11956	0.1072	0.25155	0.15274	0.071323	0.17558	0.18472	0.16083	0.34282	0.41107	0.12272	0.12875	0.23325	0.1528	0.13162	-3.1896	-3.8063	-3.2979	-3.9771	-3.6271	-3.3042	-4.1562	-3.5354	-3.6375	-3.9354	-3.3063	-4.0104	-3.7646	-3.3438	-3.9667	-3.5167	70.464	60.911	144.752	143.728	217.826	212.702	162.951	124.558	-93.015	29.812	176.803	83.657	-61.261	92.494	-118.537	203.382	0.00019025	0.00040538	0.00012364	1016.5	1.3694e-06	4.1507e-06	1107.1	210.37	2.216e-06	4.397e-06	268.72	77.306	60.387	17.956	3.349e-06	25.019	0.00025781	0.00027092	7.9928e-05	1004.8	3.291e-06	3.0711e-06	1094.7	210.01	3.1193e-06	3.1203e-06	268.64	77.752	60.607	18.144	3.0887e-06	25.328	167.683	-55.718	-35.673	-114.733	22.006	10.826	-114.936	-107.339	-28.457	32.338	-107.907	-101.486	-101.152	-93.378	-10.199	-93.994	-8191	255	
713.702	1	1	0	0	0.17519	0.14554	0.10074	0.048598	0.10126	0.11108	0.13529	0.1679	0.17375	0.32214	0.10834	0.13655	0.18031	0.22492	0.28354	0.089846	-3.2625	-3.9333	-3.1688	-4.1229	-3.7583	-3.3271	-4.2167	-3.5125	-3.5625	-4.0271	-3.3104	-3.7354	-3.8521	-3.2125	-3.9604	-3.7417	165.788	129.594	4.260	157.342	125.008	-1.224	182.551	137.182	106.133	-24.823	181.190	215.383	-104.796	-102.447	181.978	193.915	0.00019383	0.00042937	8.3392e-05	1017.6	1.1392e-06	1.953e-06	1106.7	211.93	3.9051e-06	3.7456e-06	269.33	76.99	60.064	17.942	2.1579e-06	24.898	0.00027769	0.00027592	8.239e-05	1006.3	3.0476e-06	3.1529e-06	1095.2	210.55	3.3771e-06	3.1085e-06	268.56	77.67	60.563	18.124	3.0773e-06	25.351	168.524	-30.277	-55.264	-114.982	20.135	5.474	-115.046	-107.633	-17.433	19.408	-107.691	-101.461	-101.241	-93.460	-23.433	-93.904	-8191	255	
713.798	1	1	0	0	0.045011	0.12882	0.12735	0.11114	0.024223	0.058375	0.22466	0.056195	0.16089	0.36299	0.12678	0.28988	0.16423	0.12812	0.18954	0.086135	-3.2396	-4.025	-3.45	-3.8312	-3.7646	-3.1375	-4.2542	-3.7625	-3.3771	-3.9792	-3.3771	-3.6708	-3.9875	-3.3312	-3.8292	-3.6729	-14.451	198.102	-95.599	-33.038	78.738	-111.591	179.603	16.550	101.839	-96.979	-103.303	213.212	174.760	206.556	-89.255	2.531	0.00015186	0.00033491	4.3341e-05	1020.1	2.2535e-06	3.9819e-06	1106.7	209.61	2.4159e-06	3.4738e-06	270.41	76.793	60.041	18.012	3.0105e-06	24.922	0.0002851	0.00028097	7.7636e-05	1005.1	3.0129e-06	3.189e-06	1095.1	209.94	3.2947e-06	3.1225e-06	268.94	77.625	60.642	18.182	3.0358e-06	25.304	162.447	-50.614	-34.478	-114.943	-36.142	51.261	-115.002	-107.725	-28.169	16.542	-107.780	-101.719	-100.849	-93.579	35.725	-93.424	-8191	255	
713.895	1	1	0	0	0.19281	0.23747	0.099377	0.16055	0.2765	0.072831	0.29901	0.16304	0.16735	0.13818	0.13052	0.25426	0.10569	0.085346	0.11737	0.078757	-3.0521	-4.1521	-3.4562	-3.6667	-4.0062	-3.1021	-4.0521	-3.7208	-3.1979	-4.1229	-3.3979	-3.5771	-4	-3.3604	-3.9708	-3.9313	75.998	198.451	199.494	201.158	7.809	220.546	130.041	115.494	198.848	15.983	130.411	116.384	-55.018	203.885	101.852	68.872	0.00015819	0.00016474	4.7e-05	1023	3.0493e-06	3.2743e-06	1103.8	210.9	2.3936e-06	3.5043e-06	267.77	76.823	59.924	18.015	2.9954e-06	24.991	0.00028338	0.00027661	7.8234e-05	1007	3.1638e-06	3.1764e-06	1094.1	210.2	3.3375e-06	2.9807e-06	268	77.616	60.335	18.145	3.0985e-06	25.402	175.537	-39.095	-21.503	-114.804	-11.420	-5.452	-114.999	-107.600	-22.444	51.405	-107.993	-101.517	-101.302	-93.236	9.603	-93.960	-8191	255	
713.991	1	1	0	0	0.15363	0.050138	0.095282	0.29178	0.15692	0.13675	0.26954	0.072378	0.28683	0.10664	0.16601	0.10357	0.095865	0.24429	0.13512	0.16873	-3.0458	-3.9875	-3.5792	-3.6292	-4.1271	-3.275	-3.9604	-4.025	-3.2917	-3.9521	-3.4625	-3.4167	-4.1188	-3.1437	-3.8896	-3.9021	127.171	-4.807	-18.066	205.536	184.906	157.408	-119.421	-26.548	-112.502	101.246	72.163	87.434	70.876	167.152	146.602	-124.561	0.00018792	0.00049778	7.4112e-05	1021.6	2.5826e-06	5.2119e-06	1102.7	211.83	2.6339e-06	3.0139e-06	270.52	76.87	60.169	18.04	3.5945e-06	24.976	0.00026555	0.00028206	8.1724e-05	1005	3.1489e-06	3.1547e-06	1092.7	210.56	3.3803e-06	3.0887e-06	269.11	77.579	60.657	18.146	3.1481e-06	25.362	176.519	-26.991	-25.156	-114.884	-16.612	32.163	-114.853	-107.621	-19.747	20.035	-107.885	-101.598	-100.765	-93.233	23.450	-93.767	-8191	255	
714.087	1	1	0	0	0.13331	0.10545	0.25944	0.19211	0.17249	0.21951	0.17714	0.14926	0.21658	0.042864	0.16056	0.17281	0.075631	0.18457	0.21874	0.21834	-2.8312	-4.0292	-3.5312	-3.5625	-4.0875	-3.35	-3.7062	-4.1625	-3.2083	-4.0521	-3.6083	-3.4437	-4.1042	-3.3937	-3.5062	-4.0604	-62.318	-39.412	54.361	191.886	-103.141	122.128	154.016	-110.614	-60.921	17.065	-51.642	157.364	104.945	-123.151	-62.449	-115.633	0.00020176	0.00020928	4.2387e-05	1026	2.3722e-06	3.5461e-06	1103.8	211.89	1.9152e-06	2.0556e-06	269.56	77.041	60.452	17.917	2.243e-06	24.993	0.00027062	0.00026791	7.7771e-05	1006.3	3.1404e-06	3.0032e-06	1092.7	210.44	3.3751e-06	3.0195e-06	268.42	77.527	60.708	18.133	3.0069e-06	25.307	168.192	-54.106	-31.070	-114.889	-7.237	0.472	-114.923	-107.356	-11.438	39.784	-107.809	-101.496	-101.251	-93.381	-4.845	-94.303	-8191	255	
714.183	1	1	0	0	0.11892	0.24921	0.034559	0.37827	0.11748	0.12356	0.22819	0.046767	0.0559	0.31269	0.25195	0.15381	0.05281	0.26917	0.098785	0.093751	-2.8729	-3.9146	-3.7875	-3.5229	-4.1417	-3.4146	-3.4396	-4.1083	-3.1521	-3.8667	-3.9188	-3.5021	-4.0917	-3.6042	-3.3292	-4.0625	-113.662	-56.487	-43.594	199.802	160.188	-44.998	198.851	123.641	42.210	-93.440	65.148	16.819	-26.554	-80.709	15.790	6.747	0.00018962	0.00035168	4.1209e-05	1019.2	2.4683e-06	3.9269e-06	1103.5	211.73	7.738e-07	2.3204e-06	269.02	76.914	60.433	17.814	3.6899e-06	24.807	0.0002734	0.00026007	7.2802e-05	1005.3	3.1057e-06	2.9838e-06	1094.5	210.56	3.1682e-06	3.001e-06	268.59	77.597	60.593	18.095	3.0112e-06	25.331	178.248	-31.135	-11.704	-114.829	8.800	23.733	-114.735	-107.585	-29.064	23.727	-107.618	-101.622	-100.933	-93.402	12.255	-93.962	-8191	255	
#DATA ENDS
