BOXY.EXE: ISS Imagent and Oximeter Data Acquisition Program Version 0.80
Ascii Record File

#ACQ INFORMATION
2  Detector Channels 
16  External MUX Channels 
1  Auxiliary Channels 
5000  Waveform (CCF) Frequency (Hz)
1  Waveforms Skipped 
30  Waveforms Averaged 
1  Cycles Averaged 
16  Acquisitions per Waveform 
10.0806  Updata Rate (Hz) 

#FILE INFORMATION
TRUE -- External MUX Channel results are PARSED.
FALSE -- AC DC and Phase are NOT grouped.
TRUE -- Companion Program Settings File CREATED.
FALSE -- AC data not excluded
FALSE -- DC data not excluded
FALSE -- Phase data not excluded
FALSE -- Auxillary Chn. data not excluded
Tab delimiters

#CALIBRATION STATE
TRUE -- Waveform Calibration Values APPLIED.


#AUX CALIBRATION VALUES
Val Type	aux-1	

Term	1.0000e+00	
Factor	0.0000e+00	


#WF CALIBRATION VALUES
A = Detector Channel
Val Type	A-AC1	A-AC2	A-AC3	A-AC4	A-AC5	A-AC6	A-AC7	A-AC8	A-AC9	A-AC10	A-AC11	A-AC12	A-AC13	A-AC14	A-AC15	A-AC16	A-DC1	A-DC2	A-DC3	A-DC4	A-DC5	A-DC6	A-DC7	A-DC8	A-DC9	A-DC10	A-DC11	A-DC12	A-DC13	A-DC14	A-DC15	A-DC16	A-Ph1	A-Ph2	A-Ph3	A-Ph4	A-Ph5	A-Ph6	A-Ph7	A-Ph8	A-Ph9	A-Ph10	A-Ph11	A-Ph12	A-Ph13	A-Ph14	A-Ph15	A-Ph16	

Term	0.00000e+00	0.00000e+00	0.00000e+00	0.00000e+00	0.00000e+00	0.00000e+00	0.00000e+00	0.00000e+00	0.00000e+00	0.00000e+00	0.00000e+00	0.00000e+00	0.00000e+00	0.00000e+00	0.00000e+00	0.00000e+00	0.00000e+00	0.00000e+00	0.00000e+00	0.00000e+00	0.00000e+00	0.00000e+00	0.00000e+00	0.00000e+00	0.00000e+00	0.00000e+00	0.00000e+00	0.00000e+00	0.00000e+00	0.00000e+00	0.00000e+00	0.00000e+00	0.00000e+00	0.00000e+00	0.00000e+00	0.00000e+00	0.00000e+00	0.00000e+00	0.00000e+00	0.00000e+00	0.00000e+00	0.00000e+00	0.00000e+00	0.00000e+00	0.00000e+00	0.00000e+00	0.00000e+00	0.00000e+00	
Factor	1.00000e+00	1.00000e+00	1.00000e+00	1.00000e+00	1.00000e+00	1.00000e+00	1.00000e+00	1.00000e+00	1.00000e+00	1.00000e+00	1.00000e+00	1.00000e+00	1.00000e+00	1.00000e+00	1.00000e+00	1.00000e+00	1.00000e+00	1.00000e+00	1.00000e+00	1.00000e+00	1.00000e+00	1.00000e+00	1.00000e+00	1.00000e+00	1.00000e+00	1.00000e+00	1.00000e+00	1.00000e+00	1.00000e+00	1.00000e+00	1.00000e+00	1.00000e+00	X	X	X	X	X	X	X	X	X	X	X	X	X	X	X	X	

B = Detector Channel
Val Type	B-AC1	B-AC2	B-AC3	B-AC4	B-AC5	B-AC6	B-AC7	B-AC8	B-AC9	B-AC10	B-AC11	B-AC12	B-AC13	B-AC14	B-AC15	B-AC16	B-DC1	B-DC2	B-DC3	B-DC4	B-DC5	B-DC6	B-DC7	B-DC8	B-DC9	B-DC10	B-DC11	B-DC12	B-DC13	B-DC14	B-DC15	B-DC16	B-Ph1	B-Ph2	B-Ph3	B-Ph4	B-Ph5	B-Ph6	B-Ph7	B-Ph8	B-Ph9	B-Ph10	B-Ph11	B-Ph12	B-Ph13	B-Ph14	B-Ph15	B-Ph16	

Term	0.00000e+00	0.00000e+00	0.00000e+00	0.00000e+00	0.00000e+00	0.00000e+00	0.00000e+00	0.00000e+00	0.00000e+00	0.00000e+00	0.00000e+00	0.00000e+00	0.00000e+00	0.00000e+00	0.00000e+00	0.00000e+00	0.00000e+00	0.00000e+00	0.00000e+00	0.00000e+00	0.00000e+00	0.00000e+00	0.00000e+00	0.00000e+00	0.00000e+00	0.00000e+00	0.00000e+00	0.00000e+00	0.00000e+00	0.00000e+00	0.00000e+00	0.00000e+00	-1.63787e+02	-1.30482e+02	-1.27013e+02	-1.82279e+02	-8.24491e+01	-6.84222e+01	-1.57983e+02	-1.62015e+02	-7.99557e+01	-6.61839e+01	-1.70752e+02	-1.71092e+02	-1.83452e+02	-1.76822e+02	-7.40614e+01	-1.49983e+02	
Factor	2.59249e-05	1.52061e-04	4.07654e-05	1.48901e-01	1.23010e-06	1.67438e-06	1.54864e-01	4.69470e-02	1.30575e-06	1.53596e-06	8.14838e-02	2.72825e-02	2.22300e-02	8.62773e-03	1.45183e-06	1.23607e-02	1.23476e-05	1.95143e-05	5.42117e-06	7.93904e-02	1.93728e-07	2.16972e-07	7.74914e-02	2.51744e-02	1.93923e-07	2.16875e-07	4.22625e-02	1.41663e-02	1.20339e-02	4.66463e-03	2.03514e-07	6.46462e-03	X	X	X	X	X	X	X	X	X	X	X	X	X	X	X	X	



#DISTANCE SETTINGS
A = Detector Channel
A-1	A-2	A-3	A-4	A-5	A-6	A-7	A-8	A-9	A-10	A-11	A-12	A-13	A-14	A-15	A-16	

2.5000e+00	3.0000e+00	2.5000e+00	3.0000e+00	2.0000e+00	3.0000e+00	1.5000e+00	3.0000e+00	3.0000e+00	3.0000e+00	3.0000e+00	3.0000e+00	3.0000e+00	3.0000e+00	1.5000e+00	3.0000e+00	

B = Detector Channel
B-1	B-2	B-3	B-4	B-5	B-6	B-7	B-8	B-9	B-10	B-11	B-12	B-13	B-14	B-15	B-16	

1.0000e+01	1.0000e+01	1.0000e+01	1.4400e+00	1.0000e+01	1.0000e+01	1.5100e+00	1.9400e+00	1.0000e+01	1.0000e+01	1.9900e+00	2.4900e+00	2.4100e+00	2.9000e+00	1.0000e+01	2.9800e+00	




#DATA BEGINS
time	group	step	mark	flag	A-AC1	A-AC2	A-AC3	A-AC4	A-AC5	A-AC6	A-AC7	A-AC8	A-AC9	A-AC10	A-AC11	A-AC12	A-AC13	A-AC14	A-AC15	A-AC16	A-DC1	A-DC2	A-DC3	A-DC4	A-DC5	A-DC6	A-DC7	A-DC8	A-DC9	A-DC10	A-DC11	A-DC12	A-DC13	A-DC14	A-DC15	A-DC16	A-Ph1	A-Ph2	A-Ph3	A-Ph4	A-Ph5	A-Ph6	A-Ph7	A-Ph8	A-Ph9	A-Ph10	A-Ph11	A-Ph12	A-Ph13	A-Ph14	A-Ph15	A-Ph16	B-AC1	B-AC2	B-AC3	B-AC4	B-AC5	B-AC6	B-AC7	B-AC8	B-AC9	B-AC10	B-AC11	B-AC12	B-AC13	B-AC14	B-AC15	B-AC16	B-DC1	B-DC2	B-DC3	B-DC4	B-DC5	B-DC6	B-DC7	B-DC8	B-DC9	B-DC10	B-DC11	B-DC12	B-DC13	B-DC14	B-DC15	B-DC16	B-Ph1	B-Ph2	B-Ph3	B-Ph4	B-Ph5	B-Ph6	B-Ph7	B-Ph8	B-Ph9	B-Ph10	B-Ph11	B-Ph12	B-Ph13	B-Ph14	B-Ph15	B-Ph16	aux-1	digaux	

744.769	1	1	0	256	0.060951	0.10896	0.24336	0.12149	0.12859	0.19851	0.24768	0.16351	0.05534	0.07429	0.21544	0.12292	0.029741	0.1759	0.096762	0.035426	-2.9583	-3.9792	-3.5354	-3.7333	-4.1417	-3.3	-4.1875	-3.7375	-3.5229	-4.0042	-3.625	-3.6167	-4.0604	-3.2292	-3.9521	-3.9729	48.858	-29.114	99.118	-109.614	51.722	162.878	204.471	200.825	-98.425	104.165	213.305	176.320	204.063	80.595	-114.786	11.506	0.00017761	0.00021346	6.8138e-05	1096.5	1.6477e-06	4.3494e-06	1197.6	226.02	3.5244e-06	2.9245e-06	291.14	81.221	63.342	18.821	2.367e-06	26.293	0.00048104	0.00059132	0.00016243	1079.7	6.4314e-06	6.8332e-06	1183.9	225.64	6.4742e-06	6.4028e-06	289.01	82.032	63.661	19.042	6.1877e-06	26.766	163.274	-49.025	16.186	-115.137	4.092	4.304	-115.131	-108.148	-74.676	-9.149	-107.978	-101.643	-101.271	-94.191	35.494	-93.945	-8191	255	
744.865	1	1	0	0	0.071649	0.099353	0.038272	0.15375	0.082148	0.13601	0.14811	0.069104	0.029336	0.072147	0.12209	0.091406	0.39523	0.24781	0.1001	0.12749	-2.9021	-3.9646	-3.5896	-3.3729	-4.05	-3.425	-3.8667	-4.1167	-3.2292	-4.2063	-3.6771	-3.4729	-4.2125	-3.4667	-3.6688	-4.1083	157.550	60.188	141.650	-51.392	-93.484	180.717	213.572	1.143	35.136	-97.339	180.338	171.068	180.044	-66.293	-16.967	-1.614	0.00019742	6.0138e-05	9.6884e-05	1090.9	2.9067e-07	1.5753e-06	1188.3	225.72	1.9442e-06	1.148e-06	288.22	80.705	62.899	18.629	3.5184e-06	26.011	0.00046159	0.00058579	0.00016363	1076.8	6.0318e-06	6.5534e-06	1180	224.92	6.1991e-06	5.9735e-06	287.82	81.484	63.417	18.962	5.8557e-06	26.579	164.240	70.490	-43.270	-115.374	207.752	30.317	-115.088	-107.816	-44.090	-1.740	-108.020	-101.829	-101.272	-93.551	-14.546	-94.266	-8191	255	
744.962	1	1	0	0	0.25666	0.22446	0.094878	0.27746	0.042948	0.082355	0.18612	0.25522	0.066218	0.045766	0.12871	0.080134	0.10421	0.088163	0.04099	0.052083	-2.95	-3.7854	-3.7146	-3.6104	-4.0771	-3.3937	-3.7354	-4.1062	-3.25	-3.9479	-3.8542	-3.2396	-4.1333	-3.5896	-3.5979	-4.2125	143.615	-81.381	-4.075	164.952	182.438	169.740	224.696	135.907	217.992	116.047	231.795	-64.704	-99.751	-37.830	95.804	-66.282	0.00014483	0.00023554	6.0686e-05	1087.4	1.1231e-06	1.8976e-06	1189.5	225.5	1.4592e-06	2.6626e-06	290.1	80.36	62.851	18.615	1.648e-06	26.003	0.00046355	0.00056234	0.00015986	1073.5	6.1448e-06	6.5485e-06	1180.5	224.6	6.1781e-06	6.3345e-06	288.88	81.561	63.474	18.939	6.5642e-06	26.629	177.644	-42.080	-52.803	-115.006	31.051	73.423	-115.354	-108.027	-10.627	35.131	-108.039	-101.805	-101.400	-94.335	29.908	-94.414	-8191	255	
745.035	1	1	0	0	0.096491	0.12553	0.069362	0.080869	0.23638	0.052569	0.32041	0.35661	0.17455	0.20273	0.25526	0.26759	0.10587	0.19377	0.2441	0.29375	-2.8812	-3.7938	-3.7604	-3.3479	-4.0396	-3.55	-3.4521	-4.1271	-3.2417	-3.7	-4.0437	-3.3125	-4.0979	-3.625	-3.5312	-4.0354	23.244	229.157	33.195	43.728	140.810	79.259	170.239	-48.763	212.538	-99.636	132.103	229.457	-83.690	109.520	-123.348	152.151	0.00016433	0.00042628	8.6229e-05	1095.9	9.7162e-07	4.8855e-06	1190.4	225.27	1.2209e-06	4.8352e-06	287.98	81.02	62.929	18.747	5.4752e-06	26.244	0.00048809	0.0005925	0.00016631	1077.1	6.525e-06	6.9829e-06	1182	224.5	6.5122e-06	7.0882e-06	288.06	81.771	63.551	19.027	6.7651e-06	26.709	165.516	-6.127	-39.523	-114.999	-18.614	17.678	-115.218	-107.742	-11.509	31.799	-108.053	-101.447	-101.361	-94.091	28.130	-93.959	-8191	255	
745.154	1	1	0	0	0.26857	0.07854	0.077249	0.35643	0.029182	0.049766	0.22785	0.11875	0.2092	0.10563	0.14189	0.10056	0.067838	0.096868	0.067879	0.19257	-2.9521	-3.7542	-3.9208	-3.4	-3.9021	-3.7438	-3.5771	-4.1562	-3.525	-3.7292	-4.0646	-3.3625	-4.1521	-3.7104	-3.325	-3.9333	19.345	-34.671	-56.217	183.185	-28.304	70.377	155.186	147.893	10.346	-61.855	-83.726	-46.548	-113.129	104.103	-58.276	-10.858	0.00017135	0.00038247	8.2641e-05	1091.7	2.0775e-06	2.5927e-06	1187.5	224.74	1.688e-06	8.8639e-07	286.95	80.59	62.915	18.774	4.0424e-06	26.262	0.0004859	0.00059685	0.00016474	1075	6.4366e-06	6.6398e-06	1178.9	224.68	6.5817e-06	6.34e-06	287.81	81.638	63.597	19.037	6.4921e-06	26.731	188.615	-31.430	-26.863	-115.189	-2.003	48.668	-115.031	-108.030	-41.574	-30.860	-108.123	-101.567	-100.867	-94.018	-24.140	-94.293	-8191	255	
745.250	1	1	0	0	0.084055	0.03337	0.11315	0.32551	0.1542	0.11435	0.17162	0.12696	0.034813	0.29683	0.23525	0.075517	0.2108	0.3311	0.16935	0.21928	-3.2542	-3.4833	-4.0813	-3.4625	-3.9667	-3.9125	-3.3771	-4.1125	-3.4896	-3.5	-4.1708	-3.3875	-4	-3.9854	-3.3312	-4.0854	60.304	46.440	47.977	204.239	199.720	-24.071	195.325	-35.534	80.250	-17.665	156.523	76.007	197.379	-99.753	89.662	185.989	0.00015557	0.00041387	5.2889e-05	1088.1	2.2228e-06	3.0763e-06	1186.3	224.57	1.9916e-06	2.8335e-06	288.66	80.717	62.863	18.645	4.5368e-06	26.088	0.00047188	0.00060905	0.0001655	1074.3	6.3547e-06	6.5345e-06	1179.5	224.43	6.3247e-06	6.4818e-06	287.89	81.562	63.501	18.977	6.5693e-06	26.629	173.568	-49.985	-62.369	-115.078	-16.866	49.638	-115.050	-107.790	-22.605	19.872	-107.954	-101.562	-101.298	-94.753	15.363	-94.082	-8191	255	
745.346	1	1	0	0	0.61453	0.23278	0.26532	0.21021	0.2734	0.16002	0.20832	0.17105	0.03131	0.089087	0.41457	0.14982	0.2525	0.16642	0.053144	0.080479	-3.1271	-3.4271	-4.1771	-3.5333	-3.8021	-3.9833	-3.4333	-4.1792	-3.5583	-3.4208	-4.2333	-3.3896	-3.7583	-4.1146	-3.3063	-4.1104	-95.277	-22.897	158.662	206.270	-92.607	205.901	184.152	119.573	106.502	82.743	198.514	-18.841	-74.271	-122.573	-17.267	-32.647	0.0001871	0.00016394	9.2918e-05	1089.9	6.2453e-07	4.389e-06	1195.2	226.17	1.4183e-06	2.1518e-06	288.72	81.002	63.235	18.485	2.5017e-06	26.12	0.00047224	0.00060803	0.00016506	1074.4	6.5932e-06	6.6208e-06	1183	225.2	6.3841e-06	6.9224e-06	288.15	81.698	63.678	18.911	6.3814e-06	26.647	168.126	-72.026	-13.386	-115.223	54.695	14.015	-114.942	-107.869	12.241	71.996	-108.074	-101.877	-101.249	-93.725	4.201	-94.709	-8191	255	
745.467	1	1	0	0	0.15139	0.47539	0.15673	0.21526	0.39226	0.046364	0.30143	0.14817	0.063642	0.079895	0.13613	0.02408	0.089679	0.056728	0.21655	0.13934	-3.4854	-3.3042	-4.1583	-3.6437	-3.675	-4.0042	-3.5917	-4.0667	-3.8688	-3.3063	-4.2125	-3.5021	-3.6667	-4.2167	-3.2208	-4.1125	59.527	123.179	131.964	231.522	-67.269	71.827	77.884	222.707	47.143	-68.414	171.203	225.695	-100.001	192.537	-91.230	49.083	0.00015795	0.00032604	7.2741e-05	1096.2	2.5399e-06	3.4845e-06	1199.4	225.61	1.0865e-06	1.6572e-06	289.47	80.632	63.07	18.496	4.1363e-06	26.008	0.00048024	0.00062279	0.00016555	1079.3	6.2437e-06	6.553e-06	1183.4	224.6	6.3999e-06	6.7837e-06	288.3	81.607	63.416	18.893	6.2352e-06	26.491	164.258	-92.180	-32.875	-115.209	-10.645	-4.375	-115.197	-107.490	-65.557	32.146	-107.912	-102.082	-101.065	-93.332	8.875	-94.635	-8191	255	
745.563	1	1	0	0	0.27264	0.21908	0.18039	0.27345	0.20691	0.29425	0.20569	0.28184	0.35382	0.076705	0.041309	0.2143	0.2946	0.085981	0.0958	0.18094	-3.5062	-3.4938	-4.1479	-3.7354	-3.5833	-4.2083	-3.5167	-4.0896	-4.0292	-3.1333	-4.0771	-3.7583	-3.5396	-4.0979	-3.2354	-3.8396	34.004	66.684	31.888	211.377	26.980	123.848	144.981	209.508	-22.981	-41.902	54.743	129.533	129.963	-90.593	206.302	161.799	0.00021497	0.00023552	5.6543e-05	1084.4	8.2681e-07	2.1074e-06	1187.1	224.04	2.496e-06	3.1178e-06	286.42	80.081	62.167	18.31	3.0932e-06	25.583	0.00045488	0.00060364	0.00015345	1073.1	6.0794e-06	6.0472e-06	1178.3	223.38	5.6775e-06	6.3386e-06	286.31	80.744	62.744	18.579	5.6793e-06	26.198	173.373	-42.332	-50.482	-115.068	-13.312	-4.768	-114.995	-107.518	7.596	38.570	-107.572	-101.398	-100.941	-93.487	29.122	-94.289	-8191	255	
745.635	1	1	0	0	0.12362	0.1535	0.071585	0.13573	0.034125	0.0087111	0.12522	0.039752	0.17854	0.17739	0.17421	0.16013	0.2053	0.12042	0.03123	0.14648	-3.625	-3.3167	-4.0875	-3.6833	-3.3812	-4.1604	-3.5958	-3.9396	-4.0021	-3.2396	-4.0021	-3.9667	-3.1667	-4.2104	-3.5021	-3.6792	106.216	203.267	18.697	-96.463	-59.857	121.354	165.820	157.676	19.586	-61.505	-42.175	170.814	213.911	123.742	218.703	110.078	0.0001859	0.00020288	6.8197e-05	1082.8	1.7464e-06	4.0674e-06	1187.4	222.74	1.1847e-06	4.4901e-06	285.5	79.435	62.178	18.263	2.293e-06	25.353	0.0004227	0.00054799	0.00014639	1068.5	5.5636e-06	5.6548e-06	1174.4	222.23	5.4985e-06	5.8448e-06	285.2	80.64	62.58	18.507	5.7709e-06	25.97	164.065	-98.316	-46.651	-115.065	1.596	37.946	-115.068	-107.570	-53.574	-13.186	-107.328	-101.813	-101.537	-93.604	60.260	-94.601	-8191	255	
745.755	1	1	0	0	0.15256	0.19099	0.12279	0.022719	0.21459	0.092201	0.076993	0.066159	0.061667	0.20637	0.21372	0.053391	0.16436	0.33922	0.037684	0.087866	-3.8604	-3.3271	-3.9042	-4.0646	-3.2854	-4.0813	-3.7562	-3.6688	-4.1125	-3.3688	-4.0896	-3.8875	-3.2938	-4.1854	-3.6208	-3.6667	221.369	42.917	-67.818	224.499	66.633	-8.868	123.312	-108.650	220.590	27.382	162.113	201.572	169.067	188.729	97.443	-1.531	0.00019553	0.00025984	2.7618e-05	1087.6	1.4744e-06	3.4174e-06	1187.9	223.76	2.3269e-06	3.2456e-06	285.86	79.153	62.433	18.172	3.6947e-06	25.503	0.00041863	0.00054416	0.00014742	1069.3	5.8284e-06	5.6413e-06	1173.9	222.03	5.5413e-06	5.852e-06	284.78	80.42	62.721	18.484	5.67e-06	25.935	158.467	-42.915	-82.422	-114.927	-4.997	35.447	-115.081	-107.828	-32.530	4.583	-107.727	-101.517	-101.269	-93.763	37.133	-93.986	-8191	255	
745.850	1	1	0	0	0.12949	0.13173	0.095319	0.32792	0.2598	0.097618	0.14419	0.31819	0.17539	0.12783	0.24375	0.075256	0.23895	0.24407	0.056911	0.24648	-3.75	-3.5417	-3.8458	-4.0979	-3.2229	-4.0979	-3.8167	-3.2562	-4.0708	-3.3896	-3.7812	-4.0021	-3.375	-3.875	-3.6854	-3.5958	46.980	110.968	-14.941	201.434	-118.843	-118.661	196.371	124.530	-55.790	133.195	216.764	135.824	211.610	188.073	104.785	156.509	0.00017203	0.00045186	0.00010388	1084.9	2.0094e-06	4.251e-06	1181.6	223.85	2.2707e-06	5.7862e-06	285.79	79.793	61.714	18.22	8.1945e-07	25.567	0.00041966	0.00054384	0.00015028	1069.7	6.117e-06	5.9871e-06	1172.2	222.16	5.7639e-06	6.2248e-06	284.96	80.624	62.576	18.436	5.9095e-06	26.037	186.015	-42.777	-27.574	-115.175	2.506	25.931	-115.246	-107.813	-23.667	-6.224	-107.715	-101.538	-100.916	-93.754	1.889	-93.990	-8191	255	
745.946	1	1	0	0	0.20461	0.22834	0.14264	0.29906	0.10243	0.10656	0.28589	0.2273	0.086487	0.36113	0.26531	0.27347	0.17661	0.11489	0.067917	0.050195	-3.8583	-3.5521	-3.6792	-4.2125	-3.2313	-4.05	-3.9875	-3.5	-4.0396	-3.7375	-3.6104	-4.1833	-3.3792	-4.0146	-3.7833	-3.4375	-39.822	-59.313	-46.130	-112.694	7.716	155.784	179.536	-118.368	95.974	190.908	182.738	-31.648	161.654	-12.794	89.931	205.699	0.00018942	0.00015212	0.00013008	1083.9	1.916e-06	3.385e-06	1185.9	222.24	2.1442e-06	2.3098e-06	283.58	79.389	62.417	18.1	1.7552e-06	25.474	0.00044035	0.00055632	0.00015934	1068.3	6.1836e-06	6.3934e-06	1173.2	222.04	5.871e-06	6.3915e-06	284.48	80.514	62.809	18.477	6.3759e-06	26.047	169.068	14.899	-53.862	-114.977	55.931	7.423	-115.255	-107.667	72.721	-16.448	-107.805	-101.869	-101.156	-93.499	68.376	-94.175	-8191	255	
746.066	1	1	0	0	0.16806	0.20387	0.073316	0.14528	0.046191	0.030731	0.044271	0.13963	0.16562	0.16573	0.056718	0.13204	0.078522	0.081698	0.038334	0.24037	-3.6833	-3.6021	-3.4875	-4.3104	-3.35	-3.9437	-4.2458	-3.5833	-4.0708	-3.5979	-3.6167	-4.2583	-3.4479	-3.85	-4.0188	-3.3458	-18.815	-0.490	-113.369	150.126	102.844	-124.902	-121.597	195.155	-114.490	-116.345	187.477	-104.324	-18.623	95.413	86.392	-85.479	0.00017495	0.00028271	9.5739e-05	1082.6	7.8354e-07	3.6174e-06	1188	221.94	1.9934e-06	1.7347e-06	284.13	79.543	62.347	18.195	1.7934e-06	25.386	0.00045028	0.00057039	0.00016288	1071	6.1876e-06	6.4947e-06	1176.9	222.02	6.1554e-06	6.4886e-06	285.25	80.721	62.764	18.439	5.7442e-06	25.894	174.109	-41.523	-22.211	-115.144	18.997	28.121	-115.052	-107.700	-26.106	64.914	-107.652	-101.322	-101.313	-93.654	-12.127	-94.204	-8191	255	
746.163	1	1	0	0	0.10794	0.14834	0.2444	0.21408	0.092975	0.034698	0.28653	0.16001	0.048794	0.13116	0.26832	0.054891	0.21977	0.28331	0.17999	0.12205	-3.7313	-3.5833	-3.4437	-4.3979	-3.4333	-3.7479	-4.0938	-3.3563	-4.0167	-3.7854	-3.5187	-4.2312	-3.5312	-3.8125	-4.0146	-3.4104	36.116	-56.294	80.387	115.676	111.724	43.976	186.029	203.902	148.633	58.362	110.552	-123.806	179.534	92.003	57.103	102.123	0.00018452	0.00018509	0.00012087	1081.1	3.2888e-06	1.2608e-06	1185.1	222.88	7.508e-07	3.6251e-06	285	80.404	62.241	18.148	3.0412e-06	25.412	0.00044804	0.00055042	0.00015262	1068.5	5.918e-06	6.2519e-06	1173.6	222.03	5.6835e-06	6.096e-06	284.46	80.822	62.636	18.375	5.7989e-06	25.876	160.661	-105.482	-55.061	-115.196	-30.626	86.404	-115.289	-107.581	4.562	37.454	-107.605	-101.693	-101.557	-94.013	38.952	-94.209	-8191	255	
746.259	1	1	0	0	0.24921	0.068762	0.21776	0.23198	0.10603	0.16677	0.25128	0.010326	0.071314	0.14069	0.081332	0.15047	0.1268	0.31612	0.088623	0.13312	-3.6729	-3.7375	-3.3271	-4.2417	-3.5229	-3.65	-4.2875	-3.2917	-3.9021	-3.8646	-3.3688	-4.1479	-3.3729	-3.7438	-3.8667	-3.2646	-44.379	183.118	215.131	229.689	-63.884	-106.707	183.793	54.884	63.500	36.613	-90.001	-111.544	192.612	216.404	-45.997	191.479	0.00015314	0.00026016	4.7969e-05	1083.5	1.5302e-06	2.0994e-06	1185.3	222.59	2.2903e-06	2.1668e-06	283.51	79.764	62.762	18.045	2.7584e-06	25.008	0.00044276	0.00055904	0.00015244	1069.2	5.8869e-06	6.1059e-06	1173.1	222.05	5.7918e-06	5.8737e-06	283.92	80.647	62.734	18.345	5.5148e-06	25.824	166.103	-25.267	-7.252	-114.968	-1.419	10.477	-115.280	-107.773	-8.820	53.424	-107.697	-101.436	-101.347	-93.896	35.214	-94.293	-8191	255	
746.355	1	1	0	0	0.088009	0.22999	0.11003	0.030141	0.073239	0.15752	0.15761	0.17979	0.21126	0.20283	0.22161	0.11901	0.14849	0.21028	0.1919	0.085331	-3.4938	-3.8854	-3.1854	-4.0333	-3.5042	-3.4083	-4.2771	-3.3604	-3.6208	-4.0188	-3.5	-4.0333	-3.8021	-3.4833	-3.9479	-3.4208	35.093	183.367	0.868	170.943	107.975	87.843	176.249	226.548	-85.546	-25.576	192.854	26.600	-112.854	-45.864	-81.000	-121.329	0.00018569	0.00040522	0.00012274	1081.4	3.1356e-06	2.8235e-06	1179.1	222.35	3.3912e-06	4.7771e-06	283.27	79.585	61.899	18.222	2.3549e-06	25.213	0.00043505	0.00052782	0.00015107	1066.8	5.7541e-06	6.044e-06	1169.8	222.03	5.8807e-06	5.7634e-06	283.81	80.579	62.59	18.372	5.4737e-06	25.757	173.512	-60.544	-43.286	-115.314	-7.739	21.217	-115.129	-107.837	-39.240	19.468	-107.653	-101.581	-101.366	-93.325	24.061	-94.135	-8191	255	
746.451	1	1	0	0	0.26919	0.074566	0.23791	0.11066	0.23889	0.079108	0.26361	0.13674	0.10549	0.33418	0.28667	0.1862	0.13286	0.080097	0.064446	0.23476	-3.4229	-3.9333	-3.2833	-4.0125	-3.5792	-3.4833	-4.3583	-3.6229	-3.5375	-4.0125	-3.4396	-4.0271	-3.9667	-3.2729	-3.8896	-3.5479	139.428	138.142	216.248	-79.766	132.380	6.681	137.971	157.857	-100.867	196.625	154.288	186.273	177.085	64.038	73.976	114.158	0.00017671	0.00023311	0.00013135	1078.4	1.4518e-06	1.4349e-06	1184	222.03	2.8447e-06	4.4908e-06	283.52	79.187	62.193	18.016	4.0793e-06	25.156	0.00042347	0.00051542	0.00014872	1066.7	5.7182e-06	5.9093e-06	1170.5	221.27	5.7312e-06	5.6681e-06	283.16	80.086	62.483	18.338	5.6598e-06	25.751	162.739	-40.978	-14.401	-115.125	-25.167	-28.798	-115.026	-107.526	-34.861	40.265	-108.124	-101.522	-101.006	-93.778	-1.918	-94.232	-8191	255	
746.547	1	1	0	0	0.074762	0.2402	0.066464	0.14121	0.15279	0.083558	0.15992	0.27001	0.14985	0.25672	0.087818	0.10617	0.055687	0.11466	0.10425	0.32123	-3.0312	-4.1104	-3.3271	-4.0625	-3.9188	-3.4313	-4.1417	-3.7875	-3.5312	-4.1083	-3.4146	-3.9125	-3.9833	-3.2604	-4.0875	-3.6688	108.767	9.807	155.305	196.644	106.093	71.420	162.746	191.605	-29.170	72.548	189.402	206.612	162.524	198.258	86.519	101.238	0.00019792	0.00037586	7.4199e-05	1086.1	4.1643e-06	5.7052e-06	1182.5	222.68	2.7029e-06	3.4867e-06	284.4	79.411	61.945	18.121	2.7743e-06	25.037	0.00042604	0.00051453	0.00014618	1068.1	5.7719e-06	5.9274e-06	1171.3	221.82	5.4832e-06	5.6256e-06	282.92	80.344	62.418	18.339	5.5491e-06	25.62	179.111	-19.253	10.922	-114.871	-36.986	17.714	-114.992	-107.876	-28.791	-12.347	-107.753	-101.560	-101.563	-93.660	13.914	-94.044	-8191	255	
746.643	1	1	0	0	0.21355	0.17875	0.12237	0.063962	0.11846	0.10051	0.10014	0.11924	0.36749	0.16083	0.19872	0.10479	0.020081	0.13932	0.050122	0.26138	-3.2083	-4.0458	-3.375	-3.9896	-3.9813	-3.1104	-4.2375	-3.8521	-3.3896	-4.0875	-3.3229	-3.7604	-4.1792	-3.3354	-3.9604	-3.9833	-41.111	65.420	-54.288	217.833	79.812	-119.960	142.207	209.713	-4.901	3.645	23.005	121.312	-124.968	146.383	-10.504	131.294	0.00016741	0.00022532	0.00012242	1081.8	8.2731e-07	3.8801e-06	1183.2	221.6	2.9772e-06	1.0296e-06	285.28	80.049	61.781	18.092	2.9376e-06	25.334	0.000413	0.00053266	0.00014914	1066.9	5.8203e-06	6.294e-06	1170.4	221.24	6.0997e-06	6.1719e-06	284.13	80.741	62.452	18.37	6.122e-06	25.797	172.521	-34.284	-37.118	-115.001	-34.885	18.794	-115.082	-108.001	0.463	88.664	-107.950	-101.569	-101.095	-93.383	-15.683	-93.880	-8191	255	
746.739	1	1	0	0	0.23421	0.21662	0.19181	0.099829	0.12392	0.011081	0.071564	0.078513	0.21632	0.23021	0.18492	0.062348	0.39065	0.18348	0.13153	0.14712	-3.1312	-4.0354	-3.4583	-3.6146	-4.2042	-3.2271	-4.0646	-3.9313	-3.2188	-4.1271	-3.5729	-3.4396	-4.0479	-3.4625	-3.9437	-3.9708	94.051	148.152	157.739	-78.810	179.478	37.942	-117.271	233.748	212.185	-42.232	-105.515	116.699	217.483	228.398	196.824	232.819	0.00016838	0.0003751	0.00010236	1085.9	1.8913e-06	3.0137e-06	1180.9	223.23	2.3925e-06	2.8092e-06	283.75	79.655	62.141	17.964	1.2934e-06	25.367	0.00045452	0.00056839	0.00015964	1068.9	6.2526e-06	6.4296e-06	1171.8	221.58	6.0076e-06	6.0183e-06	283.52	80.473	62.627	18.292	6.1822e-06	25.791	175.341	-17.616	-59.186	-114.931	6.838	17.463	-115.111	-107.730	-34.606	34.294	-108.016	-101.226	-101.247	-93.426	-30.000	-94.375	-8191	255	
746.858	1	1	0	0	0.17176	0.17348	0.16158	0.16708	0.21247	0.23655	0.025575	0.14177	0.157	0.028204	0.084235	0.10339	0.19281	0.17736	0.34317	0.08776	-2.9604	-4.2146	-3.5771	-3.6562	-3.9771	-3.3125	-3.9875	-4.1417	-3.4354	-4.0312	-3.5979	-3.5438	-4.2458	-3.2375	-3.7396	-4.0042	-23.606	117.420	232.979	-45.579	26.180	22.682	-27.029	70.043	160.033	137.986	-44.521	7.217	25.181	114.602	-14.309	212.529	0.00020914	0.00054117	7.7445e-05	1084.9	2.4563e-06	4.8904e-06	1186.7	221.75	3.6536e-06	2.6785e-06	283.77	79.745	62.039	18.123	5.9812e-06	25.194	0.00045982	0.00055193	0.0001534	1069.4	5.9563e-06	6.1417e-06	1172.6	221.67	6.016e-06	6.0987e-06	283.19	80.295	62.44	18.36	5.9935e-06	25.791	172.954	-21.684	-41.173	-114.955	-15.127	46.949	-114.925	-107.662	-41.453	8.298	-107.919	-101.510	-101.101	-93.536	19.351	-93.885	-8191	255	
746.930	1	1	0	0	0.14102	0.10092	0.077182	0.096499	0.06859	0.10594	0.25964	0.12161	0.31048	0.2501	0.09617	0.06297	0.13718	0.12724	0.13098	0.15208	-2.6729	-3.9354	-3.6604	-3.3146	-4.0271	-3.4146	-3.7125	-4.1625	-3.1917	-3.8937	-4.0042	-3.4708	-4.0271	-3.5375	-3.775	-4.1146	80.460	199.806	174.875	231.455	68.726	104.580	214.580	175.795	5.029	-104.549	-89.988	102.135	57.093	-110.473	201.395	92.279	0.00017727	0.00030991	7.9814e-05	1083.3	1.58e-06	2.1271e-06	1180.3	222.03	2.4258e-06	2.6095e-06	283.55	79.244	61.776	18.012	4.566e-06	25.042	0.00044125	0.00053246	0.00015332	1066.5	5.7517e-06	6.1606e-06	1168.9	221.38	5.8245e-06	5.8701e-06	283.39	80.171	62.208	18.293	5.7968e-06	25.653	173.436	-28.263	-61.515	-115.031	-16.894	41.420	-115.140	-107.610	-5.547	24.290	-107.971	-101.612	-100.914	-93.558	25.954	-93.802	-8191	255	
747.028	1	1	0	0	0.20699	0.21668	0.17159	0.23113	0.045481	0.24745	0.052943	0.055477	0.27718	0.17905	0.08012	0.15621	0.25818	0.094986	0.12086	0.035299	-2.9875	-3.8063	-3.9813	-3.4021	-4.0667	-3.4979	-3.7792	-4.2417	-3.3563	-3.8354	-3.9875	-3.4833	-4.0875	-3.4938	-3.4875	-4.2188	48.977	-40.093	51.238	167.679	-99.819	76.408	-123.320	72.797	209.500	71.540	135.863	181.977	-60.158	-65.628	34.398	-33.319	0.00019242	0.00034707	8.6278e-05	1080.4	2.1786e-06	2.0161e-06	1177	221.6	2.3114e-06	2.8897e-06	284.57	79.457	62.06	18.009	2.9594e-06	25.222	0.00044688	0.00054965	0.00015372	1065.6	5.7634e-06	5.9803e-06	1167	221.6	5.9352e-06	6.1046e-06	283.36	80.354	62.338	18.282	5.6412e-06	25.715	171.072	-52.520	-55.026	-115.111	8.745	48.734	-115.137	-107.822	5.008	14.218	-107.652	-101.910	-101.353	-94.026	6.166	-93.885	-8191	255	
747.147	1	1	0	0	0.21085	0.20255	0.23796	0.24977	0.1107	0.15943	0.14962	0.1431	0.11601	0.1747	0.078609	0.075567	0.11236	0.045176	0.17671	0.1949	-3.0708	-3.8333	-4.0917	-3.6333	-4.1167	-3.7917	-3.5208	-4.1375	-3.4292	-3.7833	-4.1771	-3.3958	-4.0312	-3.8229	-3.4062	-4.2646	28.427	-50.099	68.777	133.105	204.552	92.019	-125.386	-7.898	162.842	140.651	162.876	-115.949	223.540	65.210	-60.262	-86.717	0.0001779	0.00034414	7.481e-05	1076.9	2.1181e-06	2.736e-06	1178.3	221.84	3.0732e-06	1.752e-06	284.33	79.498	61.604	18.109	1.3684e-06	25.093	0.00041704	0.00053099	0.00014785	1063.6	5.6294e-06	6.0083e-06	1169.4	221.16	5.85e-06	5.8841e-06	282.98	80.473	62.459	18.326	5.9545e-06	25.683	167.869	-26.345	-27.319	-114.688	-10.056	-8.950	-114.940	-107.616	-55.031	14.178	-107.845	-101.593	-101.040	-93.251	11.050	-93.876	-8191	255	
747.243	1	1	0	0	0.067422	0.1724	0.15968	0.26626	0.16823	0.090475	0.25041	0.027881	0.15641	0.15857	0.12941	0.25928	0.17415	0.2508	0.074553	0.17893	-2.9229	-3.6583	-3.9646	-3.45	-3.925	-3.6583	-3.4083	-4.2604	-3.5458	-3.5979	-4.1354	-3.3521	-4.0104	-3.9062	-3.2562	-4.2646	89.316	1.051	87.030	162.341	-46.399	-77.931	206.532	116.945	96.735	9.388	113.649	100.038	214.257	-63.208	36.469	81.432	0.00019308	0.00037826	5.3008e-05	1081.9	1.5385e-06	1.2127e-06	1183.9	222.9	2.5498e-06	2.1326e-06	283.93	79.336	62.009	18.089	3.1895e-06	25.155	0.00044081	0.00055791	0.00015421	1067.3	5.6734e-06	6.044e-06	1170.9	221.89	5.8027e-06	6.0648e-06	283.57	80.298	62.428	18.31	5.8654e-06	25.695	166.319	-16.859	-45.366	-114.894	-30.037	31.706	-114.903	-107.739	-39.734	-19.218	-107.638	-101.424	-100.998	-93.803	1.221	-94.124	-8191	255	
747.339	1	1	0	0	0.1708	0.23898	0.13148	0.1434	0.069023	0.11723	0.11868	0.11722	0.032852	0.2097	0.1432	0.1179	0.19566	0.075546	0.12556	0.37634	-3.1146	-3.3646	-4.0833	-3.4104	-3.6562	-3.8812	-3.5062	-4.1438	-3.5417	-3.4188	-4.2208	-3.4854	-3.7667	-4.0833	-3.3563	-3.9562	44.645	87.806	210.510	-95.368	-65.996	-99.642	84.629	191.754	-0.003	47.854	112.505	215.188	197.539	213.525	-97.999	75.499	0.00018934	0.00013881	6.8591e-05	1082	2.7595e-06	2.4709e-06	1179.4	220.92	2.5515e-06	3.8591e-06	283.26	79.468	61.972	17.992	1.2283e-06	25.314	0.00045372	0.00056408	0.00014747	1064.7	6.0007e-06	5.8844e-06	1168.3	220.75	5.9175e-06	6.2098e-06	283.37	80.227	62.532	18.304	5.8031e-06	25.735	174.144	-0.094	-1.287	-114.900	9.849	13.148	-114.980	-107.579	57.435	24.319	-107.784	-101.414	-101.040	-93.713	44.336	-93.779	-8191	255	
747.435	1	1	0	0	0.11683	0.030309	0.068702	0.32544	0.035015	0.15629	0.15566	0.1573	0.18897	0.026019	0.16809	0.09857	0.19964	0.098386	0.13471	0.18493	-3.1792	-3.2542	-4.0104	-3.5375	-3.6854	-4.1312	-3.5125	-4.0521	-3.8083	-3.4854	-4.1646	-3.4625	-3.575	-4.0312	-3.1583	-4.0042	-46.437	222.092	221.059	141.112	38.612	223.002	118.615	80.407	147.465	37.749	211.317	193.228	231.562	69.710	-83.460	-66.973	0.00017924	0.00023031	9.2731e-05	1080.5	1.3186e-06	2.146e-06	1174.2	222.16	1.9458e-06	3.1203e-06	284.12	78.964	62.092	18.023	3.1726e-06	25.243	0.00045586	0.00056043	0.00015217	1066.2	5.7327e-06	6.0752e-06	1167.8	221.91	5.9995e-06	6.4832e-06	283.23	80.199	62.445	18.247	5.9931e-06	25.735	175.128	-38.619	-31.752	-114.931	1.319	8.250	-114.914	-107.599	-19.184	42.526	-107.710	-101.205	-101.058	-93.937	15.731	-94.174	-8191	255	
747.531	1	1	0	0	0.26016	0.088897	0.06075	0.076372	0.097263	0.23423	0.24985	0.051248	0.28639	0.1584	0.099727	0.13491	0.13979	0.10885	0.1592	0.06369	-3.3146	-3.3646	-3.9917	-3.6708	-3.5333	-4.1229	-3.3563	-4.0479	-3.8604	-3.3479	-4.1292	-3.5792	-3.4542	-4.0146	-3.3833	-3.7417	152.647	103.652	205.143	206.511	222.576	123.349	151.663	108.976	-97.858	41.105	-101.033	232.770	-67.136	155.617	200.965	128.534	0.00015712	0.00044146	9.0689e-05	1081.8	1.5166e-06	5.046e-06	1176.4	223.04	2.3458e-06	2.1165e-06	286.31	80.077	61.574	17.981	2.3986e-06	25.402	0.00044238	0.00056295	0.00015043	1065.1	6.0592e-06	5.7244e-06	1169.4	221.6	5.9756e-06	6.0991e-06	284.03	80.422	62.36	18.258	5.9057e-06	25.821	180.145	-47.050	-59.940	-115.285	-8.302	27.819	-115.133	-107.488	35.180	77.489	-107.819	-101.460	-100.969	-93.678	-3.156	-94.163	-8191	255	
747.628	1	1	0	0	0.058393	0.082679	0.0269	0.3129	0.010839	0.18943	0.17875	0.18964	0.099305	0.041658	0.067526	0.18179	0.1537	0.071473	0.10352	0.1332	-3.7167	-3.3396	-3.8937	-3.7104	-3.5583	-4.1167	-3.4625	-3.7583	-3.95	-3.2687	-4.1479	-3.7625	-3.5854	-4.0437	-3.1458	-3.6562	6.406	-90.977	-71.643	228.402	216.572	188.342	114.356	182.541	115.216	99.835	-100.881	11.033	79.528	201.666	111.826	158.212	0.00019544	0.00030488	0.00010895	1077.7	1.0509e-06	2.4648e-06	1175.2	223.67	2.5701e-06	2.3032e-06	284.01	79.643	61.726	18.062	6.1021e-07	25.276	0.00043975	0.00057742	0.00015265	1064.4	5.9995e-06	6.152e-06	1168.1	221.8	5.5296e-06	6.2686e-06	282.75	80.221	62.29	18.347	5.9744e-06	25.757	167.665	0.239	-52.271	-114.878	-84.862	23.552	-114.840	-107.526	-37.006	60.438	-107.734	-102.046	-101.094	-93.554	7.635	-94.346	-8191	255	
747.748	1	1	0	0	0.18549	0.085105	0.13217	0.3363	0.22143	0.091425	0.22141	0.12935	0.2037	0.13808	0.11804	0.098527	0.15772	0.22559	0.030337	0.12384	-3.6792	-3.3958	-3.9521	-3.8771	-3.3667	-3.9333	-3.7875	-3.5833	-3.9521	-3.3083	-4.05	-3.7458	-3.2583	-4.0563	-3.4771	-3.4875	-120.550	105.640	30.935	212.934	230.367	-39.267	171.929	-119.113	61.185	212.134	113.707	-52.946	163.956	148.973	206.438	201.819	0.00017888	0.00010399	0.00010438	1081.3	3.3989e-06	2.929e-06	1180.5	221.66	1.9045e-06	2.7925e-06	281.8	79.429	61.886	17.956	2.9438e-06	25.372	0.00043446	0.00055319	0.00015585	1066.7	6.0786e-06	5.997e-06	1168.7	221.35	6.0193e-06	6.349e-06	282.24	80.337	62.498	18.264	5.9269e-06	25.791	167.077	-8.346	1.568	-114.978	-2.090	26.090	-114.936	-107.519	-22.489	3.904	-107.669	-101.215	-100.981	-93.317	25.663	-94.047	-8191	255	
747.844	1	1	0	0	0.17333	0.11906	0.26213	0.081974	0.08948	0.10331	0.18167	0.064845	0.082356	0.27864	0.11418	0.13832	0.14325	0.11123	0.13982	0.16668	-3.6292	-3.1458	-3.6167	-4.05	-3.1583	-4.1208	-3.8688	-3.5271	-4.15	-3.3625	-3.8792	-4.0437	-3.2521	-4.0792	-3.6917	-3.3937	145.977	9.368	-63.376	221.507	136.809	226.342	168.108	60.126	-121.886	-100.123	-72.953	203.901	-48.237	-33.170	3.224	8.583	0.00016927	0.00038246	6.9732e-05	1081.3	1.7317e-06	3.6121e-06	1183.1	222.28	1.8996e-06	2.8962e-06	284.77	79.123	61.887	18.069	1.9491e-06	25.059	0.00043183	0.00054725	0.00015009	1065.9	6.0439e-06	6.0775e-06	1169.2	221.52	5.9021e-06	6.265e-06	283.27	80.124	62.441	18.3	5.8544e-06	25.702	164.780	-10.234	-25.655	-114.872	-38.059	16.499	-114.829	-107.376	31.692	39.121	-107.702	-101.367	-100.870	-93.693	-5.262	-93.869	-8191	255	
747.939	1	1	0	0	0.14258	0.27959	0.03813	0.066021	0.23667	0.20286	0.14251	0.17704	0.13147	0.33369	0.29931	0.22426	0.10809	0.12816	0.16148	0.24428	-3.7729	-3.5	-3.5771	-4.0292	-3.3125	-3.9896	-3.8521	-3.2979	-4.0333	-3.575	-3.6688	-4.2542	-3.3167	-3.9354	-3.7396	-3.4458	0.121	-6.622	37.621	127.474	-3.781	141.654	181.211	0.812	-66.778	68.477	198.205	149.485	218.041	125.392	57.174	-20.109	0.00021921	0.00050526	0.00015499	1074.4	2.8818e-06	3.8227e-06	1178.7	222.03	2.4516e-06	3.8672e-06	284.54	79.48	61.728	18.074	3.3108e-06	25.167	0.0004342	0.00057819	0.00015979	1064.4	6.3123e-06	6.1733e-06	1167.8	221.91	5.7716e-06	6.2966e-06	283.16	80.359	62.301	18.309	5.9108e-06	25.741	173.436	-62.095	-32.235	-114.933	24.877	55.307	-114.994	-107.767	-14.181	6.263	-107.814	-101.385	-101.111	-93.430	30.898	-93.817	-8191	255	
748.035	1	1	0	0	0.088392	0.097461	0.36112	0.095515	0.39437	0.12737	0.30546	0.22272	0.24425	0.26461	0.15373	0.12193	0.13573	0.20285	0.16479	0.10344	-3.6708	-3.5042	-3.5229	-4.2562	-3.2146	-4.0104	-4.025	-3.4188	-4.025	-3.5646	-3.7729	-4.1562	-3.2792	-3.9021	-3.9604	-3.3458	-85.565	173.919	34.584	190.224	50.205	173.075	119.897	191.462	-98.773	-124.820	208.318	-55.893	6.119	-18.352	40.230	164.715	0.00017928	0.00040267	5.6657e-05	1080.5	5.1607e-07	3.3908e-06	1178	222.48	3.1335e-06	3.5917e-06	282.51	79.486	61.564	18.078	3.3451e-06	25.456	0.00043271	0.00053311	0.00015097	1063.6	5.88e-06	6.068e-06	1168.7	221.37	5.8068e-06	6.0422e-06	282.69	80.146	62.361	18.374	5.6301e-06	25.784	161.564	-43.915	-22.164	-114.794	-22.856	61.636	-114.907	-107.445	-32.622	53.064	-107.617	-101.714	-101.106	-93.564	-0.453	-93.615	-8191	255	
748.155	1	1	0	0	0.19234	0.16117	0.093114	0.16368	0.15568	0.073159	0.3545	0.2107	0.11281	0.057969	0.14049	0.050351	0.15372	0.19097	0.081467	0.14532	-3.6833	-3.6229	-3.4688	-4.2896	-3.3063	-3.7667	-4.1375	-3.5	-4.0437	-3.7812	-3.6042	-4.1417	-3.4938	-3.7396	-3.7417	-3.4562	163.163	-85.223	95.895	108.577	103.572	-13.699	204.559	121.099	122.466	11.563	221.314	-25.653	136.518	-98.129	103.397	177.893	0.00016377	0.00046302	0.00010503	1079.6	2.0119e-06	1.0118e-06	1174.5	222.83	1.794e-06	1.2122e-06	282.04	79.371	62.099	18.053	2.7227e-07	25.374	0.00042923	0.00054746	0.00015364	1063.9	6.0003e-06	6.0323e-06	1167.1	221.73	5.6702e-06	6.1019e-06	283.19	80.254	62.593	18.305	5.6874e-06	25.743	166.539	-43.895	-40.427	-114.857	-11.193	64.884	-114.919	-107.533	-33.852	50.047	-107.697	-101.257	-101.128	-93.564	170.456	-93.871	-8191	255	
748.227	1	1	0	0	0.12044	0.14549	0.12412	0.13465	0.26987	0.16211	0.13456	0.069897	0.11608	0.083804	0.082811	0.13734	0.14942	0.10937	0.18917	0.24443	-3.7042	-3.7667	-3.2979	-4.2604	-3.4542	-3.6875	-4.3917	-3.2188	-4.0146	-3.8125	-3.4208	-4.0958	-3.5687	-3.6646	-4.2021	-3.3604	-31.428	194.140	-37.848	-81.453	-14.363	222.384	163.420	195.481	165.716	-67.304	125.279	49.017	171.621	-6.586	150.365	113.268	0.00014816	0.0002876	2.7592e-05	1077.8	2.9977e-06	3.2958e-06	1182.9	222.21	2.6098e-06	4.874e-06	284.13	79.892	61.889	18.048	2.5509e-06	25.094	0.00043618	0.00053701	0.00015581	1063.6	6.0015e-06	6.124e-06	1169.5	221.29	5.8019e-06	6.1543e-06	283.92	80.313	62.358	18.303	5.8684e-06	25.738	168.278	-56.260	-31.336	-114.837	6.906	46.394	-115.140	-107.485	-34.233	4.359	-107.812	-101.177	-101.361	-93.564	39.998	-94.136	-8191	255	
748.323	1	1	0	0	0.26617	0.13159	0.020221	0.18175	0.086262	0.17737	0.28653	0.31353	0.075198	0.19984	0.32212	0.21059	0.094783	0.11438	0.10956	0.078807	-3.5604	-3.8063	-3.2771	-4.3333	-3.8083	-3.5687	-4.1687	-3.325	-3.8271	-3.8271	-3.4333	-4.1312	-3.7042	-3.5292	-4.1375	-3.3896	34.514	175.530	142.165	-108.771	231.309	24.333	-122.493	38.128	-75.444	215.527	-27.206	119.140	8.864	157.286	88.427	198.637	0.00017024	0.00029426	9.1876e-05	1080.4	1.6597e-06	3.0589e-06	1178.3	221.9	2.914e-06	8.8523e-07	283.75	78.873	61.654	18.126	2.1592e-06	25.072	0.00042859	0.00053839	0.00015835	1065.2	6.0419e-06	6.4052e-06	1170.1	221.59	5.9389e-06	5.9347e-06	283.5	80.148	62.385	18.364	5.8917e-06	25.674	173.612	-33.367	-54.979	-114.989	45.764	-3.095	-115.089	-107.694	-14.387	-8.964	-107.617	-101.106	-101.146	-93.716	3.696	-93.777	-8191	255	
748.419	1	1	0	0	0.23421	0.27749	0.11714	0.41775	0.18924	0.12871	0.13918	0.17578	0.052295	0.20844	0.10745	0.17767	0.27653	0.26599	0.15486	0.1865	-3.2375	-3.9958	-3.2812	-4.0104	-3.8458	-3.4354	-4.2375	-3.6646	-3.7396	-4.0771	-3.4167	-3.9896	-3.7354	-3.5438	-4.1271	-3.6125	223.663	-4.051	56.251	201.490	61.398	-63.432	187.884	-38.314	-15.375	148.239	-94.543	181.419	-64.075	175.465	117.868	207.947	0.00019122	0.00023162	5.8457e-05	1078.6	2.6986e-06	2.8336e-06	1180.2	221.89	3.821e-06	1.8708e-06	282.99	79.462	61.829	18.032	4.8227e-06	25.207	0.00046255	0.00055754	0.00015937	1064.4	6.0722e-06	6.0924e-06	1168.3	221.53	5.9942e-06	6.1439e-06	283.25	80.303	62.436	18.277	5.7866e-06	25.767	165.721	-22.206	6.934	-115.140	-14.171	-18.920	-115.328	-107.716	-14.936	69.549	-107.813	-101.256	-101.244	-93.425	44.520	-94.107	-8191	255	
748.540	1	1	0	0	0.18343	0.14024	0.29984	0.18345	0.27358	0.091778	0.29429	0.13823	0.074581	0.057469	0.20128	0.1725	0.12519	0.16527	0.1513	0.080529	-3.3229	-3.9729	-3.2958	-4.075	-3.8396	-3.4354	-4.4125	-3.7042	-3.4146	-4.1	-3.4292	-3.8312	-3.9271	-3.1833	-4.0854	-3.7229	22.583	-34.467	-16.020	-13.777	-10.544	-6.092	-125.625	233.205	91.783	196.110	218.963	159.760	132.331	132.983	190.153	-88.805	0.00022036	0.0004368	4.0029e-05	1077.7	1.677e-06	4.1388e-06	1173.9	221.98	2.802e-06	3.2815e-06	282.92	79.201	61.861	17.879	2.1987e-06	25.184	0.00044673	0.00054465	0.00015567	1063.1	5.7222e-06	6.0915e-06	1165.5	220.97	5.9445e-06	5.7725e-06	282.94	80.19	62.4	18.211	5.5313e-06	25.688	169.631	-28.866	-41.544	-114.789	15.529	21.968	-115.031	-107.774	-11.834	40.043	-107.393	-101.448	-101.269	-93.226	-28.633	-94.074	-8191	255	
748.636	1	1	0	0	0.021803	0.1591	0.075677	0.20543	0.23057	0.18047	0.33738	0.22639	0.24004	0.05224	0.1259	0.17594	0.15145	0.18621	0.080064	0.27128	-2.9542	-4.1687	-3.3458	-3.9896	-4.1583	-3.1896	-4.3396	-3.8187	-3.5625	-4.1333	-3.6229	-3.6	-4.0583	-3.3	-4.0354	-3.6958	136.515	60.391	103.842	196.940	-21.195	-68.895	226.792	183.085	-93.934	115.785	-30.315	-20.951	185.164	191.507	184.982	74.242	0.00015051	0.00035323	6.2626e-05	1079.4	1.1217e-06	3.0291e-06	1174.2	222.44	8.2226e-07	1.7608e-06	284.19	79.428	61.343	17.944	3.5089e-06	25.293	0.00042818	0.00050209	0.00014383	1064.3	5.6205e-06	5.8953e-06	1165.7	220.98	5.7603e-06	5.6848e-06	282.46	80.248	62.079	18.277	5.8582e-06	25.805	182.750	-14.806	-23.098	-114.626	-24.448	18.399	-114.956	-107.870	-30.103	-31.548	-107.600	-101.136	-101.065	-93.772	9.773	-94.106	-8191	255	
748.731	1	1	0	0	0.10229	0.095452	0.26321	0.1582	0.085122	0.14344	0.21039	0.28519	0.22477	0.16206	0.11386	0.29069	0.10908	0.13334	0.17927	0.15114	-3.2875	-4.1583	-3.4833	-3.9104	-4.0146	-3.3688	-4.1229	-3.8917	-3.4292	-4.0917	-3.4229	-3.4958	-4.1854	-3.3187	-3.8979	-4.05	51.268	58.055	193.983	5.596	-87.799	100.858	103.515	158.326	183.932	-76.815	95.759	209.375	-43.714	126.125	195.764	99.814	0.00018322	0.00023669	9.9364e-05	1080.1	6.256e-07	6.9565e-06	1180	222.51	2.0947e-06	3.1297e-06	284.67	79.278	61.745	17.872	2.4143e-06	25.369	0.00043651	0.00053477	0.00014723	1064	5.7065e-06	6.101e-06	1167.9	221.48	5.9187e-06	5.7259e-06	282.69	80.149	62.315	18.207	5.8192e-06	25.746	178.713	-33.904	-54.641	-114.909	-33.558	3.620	-114.979	-107.770	-15.112	11.442	-107.587	-101.557	-101.328	-93.577	33.622	-94.001	-8191	255	
748.829	1	1	0	0	0.22206	0.19343	0.1092	0.39985	0.21286	0.03987	0.10826	0.27874	0.061596	0.21361	0.032433	0.098565	0.22693	0.16556	0.11119	0.16348	-2.8958	-4.0271	-3.525	-3.775	-3.9833	-3.2292	-3.9188	-3.7875	-3.2354	-4.1125	-3.4646	-3.5146	-4.2542	-3.2708	-3.8438	-4.025	28.297	-4.096	126.826	195.865	225.766	-123.494	-96.501	177.195	69.171	202.045	-66.019	175.171	-7.883	-98.158	141.329	-21.803	0.00019933	0.00030005	0.00011764	1080.2	1.6552e-06	3.3622e-06	1177.1	222.31	2.3813e-06	3.1171e-06	283.06	79.495	62.013	17.947	2.3367e-06	25.192	0.00042934	0.00053803	0.00014828	1065.9	5.5943e-06	5.8921e-06	1166.8	221.05	5.5139e-06	5.6884e-06	282.55	80.203	62.529	18.25	5.6585e-06	25.623	167.591	-59.173	-30.575	-114.849	-1.031	-9.398	-114.799	-107.512	-2.602	10.188	-107.957	-100.975	-101.218	-93.183	-1.577	-94.093	-8191	255	
748.925	1	1	0	0	0.20921	0.08684	0.2073	0.061907	0.13076	0.30884	0.11536	0.35312	0.23157	0.19694	0.11139	0.033057	0.10788	0.12695	0.089404	0.067517	-2.9292	-3.9917	-3.7188	-3.6021	-4.1333	-3.3333	-3.9792	-4.1062	-3.3396	-4.025	-3.7687	-3.5479	-4.0979	-3.45	-3.7333	-4.0958	-43.465	203.019	103.989	182.793	-71.768	213.536	66.916	192.154	43.140	-88.445	228.853	-102.701	-112.086	205.967	7.215	5.091	0.00018923	0.00039201	9.1912e-05	1075.6	1.8813e-06	4.1034e-06	1176.6	221.86	2.2711e-06	1.9085e-06	282.09	79.36	62.091	17.919	2.1851e-06	25.233	0.00044729	0.00052985	0.00014898	1062.9	5.6661e-06	6.0418e-06	1165.1	221.44	5.8957e-06	5.7906e-06	282.2	80.24	62.379	18.267	5.5059e-06	25.71	170.216	-13.210	-21.513	-114.753	21.502	65.442	-114.748	-107.842	-27.381	30.763	-107.774	-101.287	-101.308	-93.649	8.920	-94.154	-8191	255	
749.019	1	1	0	0	0.18794	0.06536	0.068918	0.31875	0.12894	0.16507	0.2446	0.14115	0.19199	0.26006	0.20105	0.058052	0.18439	0.26995	0.31779	0.24232	-2.9979	-3.9042	-3.7938	-3.5208	-4.1979	-3.2896	-3.9146	-4.1083	-3.4583	-4.025	-3.8979	-3.2188	-4.0854	-3.6479	-3.3896	-4.0979	181.342	111.064	-67.270	164.163	136.399	21.948	123.572	-59.018	78.914	207.554	-72.892	-114.829	134.700	-124.223	-4.910	-122.083	0.00018491	0.00044509	7.6557e-05	1079.3	7.7936e-07	4.6714e-06	1172	221.84	1.0403e-06	1.8133e-06	282.77	79.344	61.917	17.878	3.1168e-06	25.098	0.00041133	0.00050879	0.00014328	1064	5.3227e-06	5.5965e-06	1164.4	221.1	5.4424e-06	5.4553e-06	282.14	80.004	62.298	18.222	5.2011e-06	25.639	164.638	-47.435	-12.382	-115.076	-27.045	32.154	-114.928	-107.673	-15.352	41.717	-107.663	-101.814	-100.902	-93.578	30.763	-94.066	-8191	255	
749.115	1	1	0	0	0.23017	0.34314	0.12154	0.23875	0.020879	0.10449	0.2392	0.19326	0.30675	0.12098	0.24065	0.055765	0.24417	0.19279	0.13344	0.18636	-2.9062	-3.7438	-3.8896	-3.4021	-4.0271	-3.6604	-3.6792	-4.0354	-3.2167	-3.8271	-3.9458	-3.3375	-4.0729	-3.525	-3.3479	-4.1604	175.063	211.996	-106.113	-79.701	-57.419	-89.019	188.559	160.941	135.901	84.131	181.032	136.891	-67.228	45.840	23.795	141.930	0.00017157	0.00037136	1.2247e-05	1080.3	2.5793e-06	3.8598e-06	1176.3	221.78	1.3785e-06	2.0992e-06	283.15	79.349	61.832	17.97	2.55e-06	25.244	0.00041264	0.00050274	0.00013311	1064.3	5.2718e-06	5.5793e-06	1166.6	221.46	5.604e-06	5.8859e-06	282.42	80.194	62.366	18.286	5.745e-06	25.662	163.935	-18.111	-27.498	-114.836	-33.238	33.680	-114.768	-107.642	-42.179	4.664	-107.931	-101.464	-100.659	-93.344	35.916	-94.309	-8191	255	
749.236	1	1	0	0	0.21065	0.24876	0.076851	0.18421	0.1414	0.21406	0.12401	0.13807	0.15315	0.29385	0.11683	0.1361	0.14184	0.067293	0.16808	0.043193	-3.0083	-3.4896	-3.8396	-3.4813	-3.7313	-3.6396	-3.6396	-4.1417	-3.4458	-3.5354	-4.1	-3.275	-3.8104	-3.8333	-3.2083	-4.2812	73.077	48.261	34.226	-113.201	191.974	157.380	171.538	-17.308	162.559	177.278	214.111	-119.993	42.070	19.061	103.696	146.233	0.00019146	0.00036461	8.6881e-05	1076.5	1.405e-06	4.1793e-06	1178.4	222.41	1.9991e-06	4.0494e-06	283.77	79.055	61.905	18.005	2.0872e-06	25.323	0.00043633	0.00055002	0.00015394	1062.8	5.6887e-06	6.0327e-06	1166.8	221.09	5.5761e-06	5.993e-06	282.65	80.156	62.286	18.218	5.6518e-06	25.681	166.027	-36.225	-30.083	-114.846	-85.294	33.282	-114.752	-107.667	-46.424	17.242	-107.467	-101.129	-101.166	-93.388	49.602	-93.821	-8191	255	
749.332	1	1	0	0	0.10925	0.032956	0.17724	0.1836	0.096893	0.13871	0.34252	0.076752	0.21277	0.10961	0.21468	0.14622	0.086928	0.19236	0.21001	0.18073	-3.3	-3.4833	-4.0021	-3.4729	-3.775	-3.8417	-3.6167	-4.0125	-3.5833	-3.4729	-4.175	-3.3646	-3.8479	-3.9042	-3.2958	-4.1	90.728	140.709	1.307	199.975	5.197	91.777	232.489	191.602	-102.140	8.053	205.176	-69.524	134.345	199.203	231.366	192.782	0.00020888	0.00035951	7.5883e-05	1077.4	2.0416e-06	5.7589e-06	1175.9	221.2	2.8088e-06	2.6176e-06	284.8	79.568	61.817	17.993	2.9837e-06	25.189	0.00042411	0.00051814	0.00013629	1063.7	5.5556e-06	5.6838e-06	1165.7	220.89	5.5191e-06	5.6749e-06	283.42	80.024	62.202	18.259	5.656e-06	25.607	172.065	-49.661	-21.191	-114.899	-29.559	26.393	-114.869	-107.555	-23.531	42.711	-107.636	-101.271	-100.884	-93.614	20.553	-93.762	-8191	255	
749.428	1	1	0	0	0.047117	0.029471	0.099826	0.1132	0.37719	0.1635	0.23763	0.0778	0.20272	0.19162	0.12633	0.13476	0.18898	0.18662	0.12656	0.18102	-3.3937	-3.2854	-4.125	-3.5104	-3.8354	-4.0625	-3.6208	-4.1667	-3.6896	-3.3979	-4.15	-3.5333	-3.7	-4.0208	-3.35	-3.9833	67.426	72.682	123.724	137.884	213.478	-36.780	166.427	179.661	-98.921	147.544	179.565	155.138	-30.817	60.762	-2.647	63.082	0.00016395	0.00036588	0.00010125	1079.2	8.369e-07	3.6421e-06	1175.4	221.33	3.2959e-06	3.0492e-06	282.54	79.589	61.811	17.983	9.4412e-07	25.195	0.00041843	0.00052685	0.00014462	1061.6	5.8304e-06	5.7027e-06	1164.4	220.77	5.6698e-06	5.9437e-06	282.86	80.176	62.329	18.254	5.7344e-06	25.715	171.699	-66.884	-12.772	-114.839	38.416	13.476	-115.090	-107.680	-34.856	20.496	-107.806	-101.423	-100.828	-93.472	66.138	-94.021	-8191	255	
749.524	1	1	0	0	0.27887	0.050371	0.24533	0.15977	0.091266	0.15108	0.20536	0.23504	0.22066	0.15661	0.20875	0.39589	0.084484	0.30309	0.17049	0.037739	-3.3958	-3.2854	-4.1667	-3.5771	-3.6583	-3.9958	-3.6083	-4.1208	-3.7313	-3.5667	-4.1583	-3.6937	-3.6437	-4.0875	-3.1813	-3.8917	52.791	213.807	66.841	150.055	165.641	-61.264	185.988	127.217	168.688	42.102	70.551	192.991	221.651	125.776	-116.412	176.851	0.00017773	0.00038821	5.8205e-05	1079.5	1.6292e-06	4.0786e-06	1171.4	220.91	2.6357e-06	3.3467e-06	282.73	79.805	61.468	17.955	2.0733e-06	25.21	0.00043088	0.00054233	0.00014411	1064.4	5.7541e-06	5.7014e-06	1165.2	221.19	5.4626e-06	5.8714e-06	282.9	80.426	62.255	18.265	5.8701e-06	25.739	159.055	-62.263	-44.247	-114.941	-11.811	22.401	-114.898	-107.411	63.564	35.070	-107.553	-101.116	-101.014	-93.478	13.320	-93.368	-8191	255	
749.620	1	1	0	0	0.03964	0.12414	0.11461	0.1354	0.11175	0.231	0.2061	0.2018	0.10017	0.39898	0.07452	0.11871	0.18191	0.12357	0.16548	0.13664	-3.5229	-3.2146	-4.0104	-3.6437	-3.3187	-4.0292	-3.4896	-3.7125	-3.9146	-3.3937	-4.2	-3.6833	-3.3812	-3.9896	-3.3458	-3.8208	94.673	144.101	204.921	228.171	218.567	92.942	162.316	187.100	-8.228	11.420	195.108	202.647	-45.978	115.284	146.205	221.624	0.0001625	0.0002711	4.9813e-05	1082.5	1.0745e-06	3.4055e-06	1179.6	222.98	3.2937e-06	3.2533e-06	284.06	79.165	61.789	18.209	4.5739e-06	25.312	0.00042733	0.00053859	0.00014584	1066.5	5.8627e-06	5.8013e-06	1169.1	221.41	5.65e-06	5.7594e-06	283.57	80.15	62.393	18.322	5.8286e-06	25.7	167.934	-17.395	-13.664	-114.840	-77.755	-5.574	-114.779	-107.511	-50.221	14.672	-107.622	-101.721	-100.978	-93.280	10.346	-93.958	-8191	255	
749.717	1	1	0	0	0.26705	0.11938	0.064794	0.36734	0.19898	0.19425	0.10365	0.24102	0.21145	0.1572	0.060851	0.17686	0.17875	0.087685	0.27916	0.27063	-3.4875	-3.35	-3.8438	-4.0708	-3.3688	-4.1833	-3.6521	-3.5375	-3.9062	-3.2729	-4.1417	-3.8917	-3.2833	-4.2375	-3.5125	-3.5375	107.348	-58.582	170.175	233.249	81.621	63.171	-118.402	224.087	29.501	-123.424	-17.009	232.339	-109.971	113.819	-74.353	183.604	0.00018765	0.00025304	0.00012298	1077	2.2636e-06	3.3784e-06	1181.2	222.55	4.0588e-06	3.2532e-06	283.88	79.357	62.197	17.994	2.1922e-06	25.255	0.00041809	0.00054697	0.00014607	1064.2	5.7678e-06	5.9559e-06	1171.1	221.67	5.6621e-06	5.8877e-06	283.03	80.136	62.493	18.334	5.6204e-06	25.751	172.601	-35.124	-21.671	-115.020	-12.896	22.668	-114.930	-107.322	-36.016	-24.807	-107.569	-101.454	-101.338	-93.898	37.388	-94.033	-8191	255	
749.835	1	1	0	0	0.13561	0.16545	0.32592	0.17405	0.032219	0.052289	0.17751	0.22612	0.13797	0.050964	0.27255	0.084841	0.079801	0.098069	0.19926	0.045381	-3.725	-3.3229	-3.8688	-3.8583	-3.1813	-4.05	-3.7375	-3.4521	-4.2521	-3.2938	-3.8688	-3.9062	-3.4229	-4.1646	-3.6188	-3.5583	117.310	90.674	182.102	171.956	-37.232	-85.870	193.880	150.586	-105.486	209.374	143.659	25.145	182.028	20.786	55.499	-63.528	0.00021328	0.0001222	0.00010338	1087.6	2.9313e-06	3.6225e-06	1180.6	222.13	9.94e-07	2.2256e-06	283.21	78.973	61.833	18.121	3.882e-06	25.039	0.00041966	0.00052924	0.00013728	1067.4	5.3994e-06	5.5183e-06	1167.4	221.14	5.128e-06	5.5344e-06	282.38	80.09	62.308	18.303	5.1616e-06	25.626	186.986	-63.325	-11.322	-114.895	3.297	-16.218	-114.883	-107.594	-34.356	-10.724	-107.890	-101.304	-101.053	-93.281	6.628	-94.093	-8191	255	
749.932	1	1	0	0	0.068676	0.15816	0.050734	0.41346	0.10574	0.073415	0.20847	0.35322	0.26015	0.16745	0.13644	0.28395	0.077174	0.14178	0.092869	0.10022	-3.7854	-3.3812	-3.6771	-4.1937	-3.4167	-3.9896	-3.7792	-3.3187	-4.0833	-3.4167	-3.9313	-3.9396	-3.3271	-4.0917	-3.8646	-3.5958	130.679	-46.018	43.200	167.052	69.398	-42.209	188.903	230.722	131.103	-28.082	179.910	-91.272	227.010	45.978	128.850	113.658	0.00018806	0.00026267	6.5912e-05	1078.6	2.4181e-06	1.5825e-06	1182.7	222.2	1.1668e-06	1.874e-06	282.74	79.008	61.738	18	1.2535e-06	25.249	0.00041233	0.00048298	0.00013378	1064.6	5.5685e-06	5.3642e-06	1168.9	220.87	5.2331e-06	5.641e-06	282.96	80.05	62.425	18.251	5.0743e-06	25.693	177.225	-43.392	-5.276	-114.942	-14.463	24.081	-114.720	-107.490	-71.520	36.383	-107.179	-101.400	-100.935	-93.467	-107.065	-93.588	-8191	255	
750.028	1	1	0	0	0.15185	0.10639	0.1443	0.26985	0.1782	0.1784	0.095814	0.30292	0.14968	0.25001	0.028812	0.29648	0.19435	0.038464	0.051638	0.12434	-3.7062	-3.3208	-3.5292	-4.2958	-3.1583	-4.0188	-4.0042	-3.475	-4.1583	-3.4521	-3.7188	-4.0896	-3.3271	-3.9188	-4.0021	-3.2104	-44.697	-13.266	1.121	211.885	93.558	-117.063	146.045	190.821	-81.233	12.994	82.000	196.173	228.991	56.690	96.578	-67.451	0.00018886	0.00015307	6.6881e-05	1075.7	7.1507e-07	2.3663e-06	1179.6	222.11	3.6689e-06	1.4662e-06	281.8	78.764	61.308	18.025	1.229e-06	25.282	0.00040431	0.00050103	0.00013755	1060.9	5.466e-06	5.502e-06	1167	220.7	5.3373e-06	5.514e-06	281.58	80.005	62.135	18.224	5.2303e-06	25.667	165.409	-9.107	13.870	-114.901	-75.512	-9.657	-114.812	-107.596	-32.337	29.431	-107.912	-101.407	-101.065	-92.935	86.908	-93.783	-8191	255	
750.099	1	1	0	0	0.22914	0.15204	0.14377	0.031038	0.06405	0.29276	0.29294	0.25722	0.15174	0.061052	0.091764	0.26806	0.057522	0.035673	0.21	0.063528	-3.6917	-3.5125	-3.5354	-4.2479	-3.3229	-3.8667	-4.0271	-3.3083	-3.8208	-3.55	-3.6042	-4.2562	-3.4958	-3.6604	-4.0396	-3.3125	38.748	223.288	102.043	-92.942	-104.421	182.822	161.397	173.648	-121.975	223.889	-121.890	-72.354	138.891	98.166	16.104	60.291	0.00018442	0.00018182	0.00010427	1081.9	1.4843e-06	5.5551e-06	1184.3	220.89	2.6216e-06	3.6316e-06	283.43	79.282	62.021	17.955	2.4084e-06	25.102	0.00041542	0.00052762	0.00014836	1065.1	5.5535e-06	5.6372e-06	1169.5	220.65	5.3765e-06	5.411e-06	282.67	80.159	62.222	18.275	5.3965e-06	25.648	166.860	-36.091	-41.635	-114.797	32.700	34.910	-115.073	-107.390	-10.373	3.816	-107.507	-101.617	-100.837	-93.179	7.192	-94.143	-8191	255	
750.196	1	1	0	0	0.11428	0.1373	0.25252	0.24396	0.12563	0.067383	0.1193	0.35244	0.11838	0.14315	0.11426	0.075009	0.17143	0.16898	0.12026	0.19607	-3.6437	-3.6208	-3.3146	-4.3729	-3.3354	-3.7458	-4.1854	-3.3792	-3.8542	-3.6375	-3.3333	-4.1687	-3.4958	-3.4646	-4.0521	-3.325	152.679	-14.756	188.409	232.720	232.319	-35.372	161.475	220.323	8.864	159.634	175.714	204.295	-76.153	-52.966	-100.917	-105.550	0.0001995	0.00026285	6.0986e-05	1081.7	2.4718e-06	2.1122e-06	1179.1	220.89	2.4818e-06	2.6332e-06	282.79	79.106	62.123	17.998	4.9576e-06	25.174	0.00040325	0.00050005	0.00013804	1065.2	5.5572e-06	5.3425e-06	1168.7	220.2	5.3046e-06	5.543e-06	282.07	80.229	62.417	18.216	5.3355e-06	25.685	167.191	-31.195	-46.374	-114.780	28.640	17.490	-114.830	-107.560	17.262	60.444	-107.783	-101.617	-101.242	-93.576	33.082	-94.113	-8191	255	
750.316	1	1	0	0	0.10658	0.097908	0.14541	0.16535	0.066307	0.20492	0.10542	0.2316	0.18202	0.077855	0.21016	0.24795	0.21872	0.16957	0.12905	0.077455	-3.6354	-3.9083	-3.2583	-4.2479	-3.6833	-3.2146	-4.3083	-3.3563	-3.8646	-3.9062	-3.2625	-4.0604	-3.6875	-3.4188	-4.1333	-3.4688	148.170	115.919	-26.427	227.560	-73.398	58.676	-10.878	-108.236	195.818	24.117	70.267	193.943	85.695	-31.169	5.615	149.974	0.0001793	0.00018332	0.00011832	1084.4	2.1933e-06	3.0029e-06	1178.3	221.12	1.8162e-06	4.6665e-06	283.85	78.817	62.058	17.849	3.8907e-06	25.491	0.00041454	0.00050867	0.00013682	1066.5	5.7614e-06	5.6575e-06	1169.3	220.61	5.4181e-06	5.7101e-06	282.68	80.083	62.523	18.229	5.2032e-06	25.762	186.453	-19.249	-40.761	-114.775	24.322	32.215	-115.035	-107.321	-0.763	-10.501	-107.641	-101.514	-101.049	-93.623	-6.542	-94.078	-8191	255	
750.412	1	1	0	0	0.26103	0.3332	0.12271	0.15834	0.12202	0.084385	0.24224	0.17661	0.10035	0.072841	0.23162	0.29719	0.14355	0.2358	0.20902	0.32399	-3.5042	-4.0875	-3.3208	-4.1792	-3.65	-3.4708	-4.1875	-3.3229	-3.5854	-3.9167	-3.3479	-4.0917	-3.8729	-3.45	-4.1208	-3.3917	-44.334	112.145	109.171	232.057	-105.341	223.405	207.665	73.484	32.821	175.606	92.176	192.385	87.212	-85.504	39.730	205.656	0.00019848	0.00032792	9.7607e-05	1080.6	1.6905e-06	1.31e-06	1179.8	221.89	1.9021e-06	2.8075e-06	283.29	78.96	62.019	17.949	3.7584e-06	25.201	0.0004149	0.00051774	0.00013755	1064.8	5.2763e-06	5.6426e-06	1169.3	221.09	5.2634e-06	5.6681e-06	282.56	79.98	62.267	18.252	5.2574e-06	25.647	187.562	-26.057	-41.938	-114.750	-4.249	7.004	-114.708	-107.498	-36.901	-14.059	-107.767	-101.346	-101.320	-93.080	27.975	-94.488	-8191	255	
750.509	1	1	0	0	0.077241	0.097417	0.07489	0.27354	0.18392	0.065651	0.26342	0.37081	0.12618	0.2144	0.16983	0.067742	0.073403	0.11395	0.025901	0.21449	-3.3583	-3.975	-3.4208	-3.9354	-3.7542	-3.3646	-4.1979	-3.45	-3.6354	-4.0396	-3.2458	-4.0458	-3.8792	-3.2708	-4.1229	-3.5	116.467	60.585	-109.147	129.830	-75.643	26.748	213.938	135.969	27.846	-2.551	183.067	191.132	202.000	137.842	210.271	169.408	0.00019508	0.00033377	9.0609e-05	1079.1	1.8714e-06	2.6009e-06	1179.4	221.61	2.7266e-06	1.3253e-06	284.53	78.968	61.581	17.885	2.9696e-06	25.102	0.00041861	0.00050245	0.00014513	1064.7	5.5701e-06	5.7154e-06	1169.3	220.52	5.5082e-06	5.5077e-06	282.45	80.032	62.334	18.178	5.1383e-06	25.616	167.942	-61.083	-28.126	-114.604	1.253	61.319	-114.841	-107.656	-57.768	-57.140	-107.520	-101.242	-101.075	-93.537	-28.930	-93.861	-8191	255	
750.629	1	1	0	0	0.18478	0.026587	0.075022	0.082821	0.14505	0.28096	0.1597	0.20759	0.19859	0.15733	0.211	0.057119	0.12963	0.24352	0.1758	0.024312	-3.0875	-4.025	-3.3854	-3.9625	-3.7167	-3.35	-4.1354	-3.6521	-3.4896	-4.1521	-3.6104	-3.7083	-3.925	-3.3292	-3.9042	-3.7729	158.789	159.841	147.989	103.976	-39.704	71.659	160.394	121.423	117.356	51.738	157.302	222.720	119.852	44.811	-107.732	80.752	0.00018571	0.00028558	9.3474e-05	1081.3	5.8279e-07	2.8782e-06	1183	222.19	2.2412e-06	3.6714e-06	283.04	79.245	62.145	17.964	3.3176e-06	24.931	0.00040657	0.00048078	0.0001372	1066	5.0753e-06	5.2534e-06	1170	221.02	5.2589e-06	5.3993e-06	281.9	80.228	62.427	18.246	5.4075e-06	25.544	159.349	-31.077	-25.591	-114.753	132.153	3.807	-114.778	-107.581	-81.932	6.194	-107.833	-101.204	-101.409	-93.124	10.037	-93.692	-8191	255	
750.701	1	1	0	0	0.17541	0.12761	0.049374	0.075719	0.36086	0.19527	0.065673	0.026825	0.17814	0.1219	0.15117	0.20026	0.17654	0.28822	0.22251	0.085132	-3.1042	-3.9667	-3.5604	-3.6479	-3.6896	-3.25	-4.075	-3.9437	-3.4208	-4.0958	-3.4458	-3.4771	-4.0417	-3.2833	-3.8688	-3.9125	8.308	-48.510	38.385	178.713	16.318	31.903	172.603	224.899	-101.169	228.900	129.537	142.879	219.153	-119.704	-57.321	91.021	0.00017492	0.00026904	6.9766e-05	1085.3	1.1497e-06	3.6542e-06	1177.2	220.16	2.4621e-06	2.3628e-06	283.99	78.789	61.904	18.059	1.145e-06	25.178	0.0004093	0.0004833	0.00014241	1065.1	5.271e-06	5.7091e-06	1168.9	220.2	5.322e-06	5.5434e-06	282.5	79.952	62.214	18.301	5.2528e-06	25.64	172.243	-56.782	-33.214	-114.585	-12.940	26.132	-114.812	-107.398	-7.249	8.726	-107.362	-101.343	-100.987	-93.608	-3.803	-93.801	-8191	255	
750.797	1	1	0	0	0.076206	0.2536	0.35695	0.33003	0.19892	0.24774	0.26862	0.12024	0.020366	0.24761	0.19561	0.14404	0.067909	0.15603	0.20144	0.098986	-2.9979	-4.0229	-3.6229	-3.6625	-4.0771	-3.3729	-3.9458	-3.9979	-3.2438	-4.0042	-3.7417	-3.4292	-4.0583	-3.3792	-3.7417	-4.05	115.099	8.127	-97.872	233.761	77.214	16.709	196.752	-8.774	80.533	-46.514	157.296	74.580	30.269	77.523	62.395	132.959	0.00014842	0.00043679	9.7336e-05	1082.5	3.3621e-06	3.9869e-06	1177.9	220.63	2.6547e-06	3.8274e-06	282.5	79.327	61.733	18.035	2.5393e-06	25.089	0.00040266	0.00047464	0.00013665	1064.1	5.1326e-06	5.5879e-06	1167.7	220.03	5.4549e-06	5.3342e-06	282.32	79.966	62.315	18.197	5.076e-06	25.629	176.065	-46.130	-54.718	-114.934	36.655	13.315	-114.758	-107.523	-37.769	36.847	-107.851	-101.208	-100.989	-93.258	-24.279	-93.530	-8191	255	
750.916	1	1	0	0	0.18422	0.28495	0.16377	0.16019	0.11605	0.028814	0.1862	0.092002	0.25913	0.16225	0.052372	0.13501	0.27366	0.28071	0.12863	0.19876	-2.85	-3.9854	-3.5354	-3.4854	-4.1875	-3.1813	-3.8458	-4.0146	-3.1917	-4.0354	-3.6292	-3.3333	-4.3	-3.4958	-3.5417	-4.0563	234.355	126.062	148.120	227.724	-50.927	-33.053	150.274	-123.360	-4.973	189.064	232.287	70.250	-89.047	207.527	201.594	166.671	0.00017403	0.00024576	6.7361e-05	1083.7	3.8648e-06	3.5726e-06	1173.4	221.4	1.473e-06	3.1804e-06	282.29	79.092	61.871	17.947	3.6149e-06	25.181	0.00040953	0.00049948	0.00013028	1065.8	5.296e-06	5.4369e-06	1167	220.57	5.2359e-06	5.5289e-06	281.95	79.92	62.161	18.22	5.4071e-06	25.652	175.418	-5.266	-11.776	-114.902	-24.829	-4.926	-114.751	-107.546	-59.102	26.422	-107.641	-100.892	-100.992	-93.618	0.988	-93.960	-8191	255	
751.012	1	1	0	0	0.25092	0.052241	0.16038	0.25109	0.15475	0.17287	0.069368	0.23077	0.13993	0.085946	0.47695	0.32885	0.21845	0.14996	0.34477	0.043666	-2.9167	-3.9354	-3.6854	-3.4792	-4.1583	-3.5083	-3.5812	-4.1354	-3.0896	-3.8292	-3.8438	-3.4167	-4.2208	-3.3688	-3.4875	-4.1667	162.746	56.036	-120.745	142.833	205.141	-17.191	231.861	-95.835	9.472	-69.368	167.040	193.968	220.302	195.085	199.110	157.175	0.00019479	0.00027775	0.00011881	1077.3	2.6531e-06	1.6634e-06	1180.9	220.49	2.3514e-06	2.9379e-06	282.93	79.393	61.971	17.943	3.499e-06	25.063	0.0004119	0.0005029	0.0001347	1062.5	5.2964e-06	5.441e-06	1167.4	220.5	5.3906e-06	5.3898e-06	282.04	80.054	62.259	18.234	5.4796e-06	25.619	161.006	-57.798	-23.294	-114.791	2.862	18.841	-114.967	-107.507	-45.998	60.685	-107.672	-101.396	-100.874	-93.664	2.579	-93.997	-8191	255	
751.108	1	1	0	0	0.11927	0.1853	0.10363	0.054489	0.15559	0.20963	0.14468	0.17675	0.039231	0.12128	0.19042	0.27917	0.095916	0.2621	0.060693	0.14217	-2.9521	-3.6875	-3.8396	-3.2875	-4.2063	-3.525	-3.5604	-4.0188	-3.1771	-3.6729	-3.975	-3.1417	-4.0583	-3.7896	-3.4021	-4.2521	75.845	87.968	-70.515	-50.759	229.347	-84.220	198.813	107.398	-83.814	-118.938	113.266	168.319	182.298	100.858	-49.048	150.105	0.00017831	0.00035582	4.7069e-05	1081.1	1.3193e-06	2.6522e-06	1180.8	221.92	1.906e-06	2.1728e-06	282.48	79.043	61.66	17.875	2.3052e-06	25.374	0.00042272	0.00052189	0.00014063	1065.1	5.359e-06	5.5748e-06	1167	220.97	5.5195e-06	5.7034e-06	282.03	79.982	62.308	18.211	5.5089e-06	25.674	185.681	-50.516	-14.527	-114.747	17.329	15.399	-114.803	-107.613	-8.215	-0.153	-107.505	-101.421	-100.760	-93.386	-3.877	-93.827	-8191	255	
751.229	1	1	0	0	0.27417	0.064031	0.10637	0.13278	0.097557	0.23426	0.23925	0.25305	0.13719	0.1699	0.10209	0.057757	0.17488	0.22483	0.036364	0.094277	-3.0438	-3.7458	-3.9875	-3.3917	-3.8563	-3.6896	-3.5125	-4.0333	-3.3104	-3.6583	-4.075	-3.3979	-4.0292	-3.7604	-3.4167	-4.2646	171.881	147.400	149.091	155.349	-56.319	-78.195	205.426	144.081	-51.785	175.060	-96.728	18.493	-76.203	143.786	151.159	125.191	0.00018903	0.00023844	0.00013452	1082.4	2.2304e-06	3.2423e-06	1176.6	221.31	5.1434e-07	2.8122e-06	284.56	79.321	62.343	18.013	3.7259e-06	25.184	0.0004149	0.00053896	0.00014129	1063.9	5.5003e-06	5.7195e-06	1167.4	220.87	5.4706e-06	5.6311e-06	283.15	80.328	62.401	18.228	5.5814e-06	25.646	171.905	-10.968	-56.133	-114.847	20.996	40.760	-114.902	-107.510	-86.450	59.054	-107.384	-101.541	-101.215	-93.371	11.050	-93.660	-8191	255	
751.325	1	1	0	0	0.27198	0.1674	0.18979	0.12446	0.086774	0.072994	0.099502	0.16738	0.18919	0.22515	0.19019	0.11843	0.054975	0.087977	0.14394	0.12591	-3.1021	-3.575	-4.1062	-3.4083	-4.0104	-3.6146	-3.4562	-4.075	-3.4313	-3.6125	-4.3854	-3.3604	-3.7812	-3.9958	-3.3042	-4.0979	-4.974	-118.134	-96.314	223.487	112.342	-95.476	185.836	160.512	136.385	-29.595	88.779	165.903	-125.487	136.808	-6.173	-2.576	0.00016517	6.2445e-05	1.2486e-05	1079	2.3383e-06	4.3152e-06	1178.8	221.2	2.6024e-06	1.9891e-06	282.79	79.147	61.843	18.06	3.0164e-06	25.252	0.00042028	0.00049826	0.00013782	1064.2	5.5443e-06	5.3651e-06	1167.8	221.04	5.6258e-06	5.8728e-06	282.42	80.269	62.421	18.29	5.5746e-06	25.68	179.069	-110.134	-54.674	-114.822	-33.980	49.995	-114.862	-107.526	-10.045	29.508	-107.610	-101.238	-100.955	-93.304	13.814	-94.071	-8191	255	
751.397	1	1	0	0	0.084855	0.10315	0.064809	0.21788	0.10983	0.11469	0.35751	0.060915	0.30976	0.2501	0.34056	0.16938	0.092553	0.25524	0.11445	0.091852	-3.3875	-3.5167	-4.2542	-3.5021	-3.7979	-3.875	-3.375	-4.1	-3.4938	-3.4521	-4.1021	-3.3187	-3.6312	-3.95	-3.2292	-4.1542	-3.220	157.257	-112.135	152.354	186.419	-75.363	133.552	14.404	131.500	52.688	65.986	173.209	95.791	203.937	195.265	170.295	0.00014319	0.00036778	8.3033e-05	1078.7	3.0107e-06	2.5216e-06	1180.4	221.21	4.0999e-06	2.6582e-06	284.8	78.718	61.906	18.086	2.1589e-06	25.396	0.00041992	0.00052457	0.00014222	1065.6	5.564e-06	5.681e-06	1171.3	220.74	5.8068e-06	5.7323e-06	283.31	79.908	62.429	18.272	5.6492e-06	25.73	173.091	-33.471	-10.413	-114.848	-21.513	19.650	-114.842	-107.520	-31.982	6.988	-107.822	-101.264	-100.576	-93.397	27.613	-93.734	-8191	255	
751.493	1	1	0	0	0.20116	0.072446	0.13865	0.18027	0.21399	0.31255	0.13705	0.13486	0.19817	0.18143	0.1828	0.2325	0.083269	0.21461	0.12622	0.1178	-3.5812	-3.2583	-4.1375	-3.7125	-3.5187	-4.2146	-3.6521	-3.9375	-3.6979	-3.3563	-4.1854	-3.625	-3.6125	-4.0146	-3.3667	-3.9833	8.105	-44.334	109.427	159.662	17.170	184.175	-56.140	207.089	28.007	200.611	151.331	109.904	-56.856	161.098	74.257	-52.527	0.00023052	0.00038358	5.9611e-05	1079.2	2.7489e-06	4.1596e-06	1180.8	221.68	3.0935e-06	1.9884e-06	283.94	79.305	61.704	17.966	3.767e-06	25.117	0.00041969	0.00052062	0.00014161	1064.3	5.5604e-06	5.653e-06	1169.9	220.86	5.5797e-06	5.711e-06	283.02	80.035	62.39	18.265	5.1858e-06	25.62	172.063	-32.898	-68.327	-115.058	24.261	5.487	-114.957	-107.610	-26.985	-7.951	-107.345	-101.567	-101.163	-93.486	47.915	-94.216	-8191	255	
751.613	1	1	0	0	0.0063641	0.18724	0.10163	0.2148	0.10358	0.31609	0.39868	0.17884	0.3035	0.16842	0.089142	0.13717	0.32621	0.11367	0.12967	0.11557	-3.5104	-3.2646	-4.1042	-3.5687	-3.4854	-4.175	-3.4875	-3.8187	-3.9167	-3.2667	-4.1292	-3.6937	-3.2083	-4.1146	-3.4313	-3.6042	149.123	-64.688	221.635	18.437	216.218	60.133	154.246	137.610	-115.269	102.325	75.729	174.811	190.493	-59.999	49.814	85.730	0.00023691	0.00036859	5.9455e-05	1077.6	4.9936e-06	4.0587e-06	1181.5	222.04	2.3957e-06	2.1902e-06	282.38	79.039	61.685	17.981	4.013e-06	25.128	0.00039878	0.00048294	0.0001408	1063.1	5.6645e-06	5.5839e-06	1169.3	221.05	5.5426e-06	5.5181e-06	282.64	80.194	62.334	18.215	5.3143e-06	25.654	176.120	-26.637	-30.138	-114.930	-15.307	19.774	-115.015	-107.655	-79.885	3.411	-107.586	-101.548	-100.876	-93.702	10.195	-93.842	-8191	255	
751.708	1	1	0	0	0.22073	0.27076	0.1604	0.2064	0.17647	0.17794	0.38153	0.19058	0.08627	0.06756	0.11633	0.29407	0.18561	0.10902	0.13281	0.21078	-3.6208	-3.2792	-3.9583	-3.7896	-3.5083	-3.9562	-3.5875	-3.7521	-3.8063	-3.3708	-4.1188	-3.7062	-3.5062	-4.2312	-3.3958	-3.5646	-98.127	108.150	-108.481	184.685	220.843	152.629	159.418	188.127	41.994	139.112	208.281	-122.509	47.918	91.188	76.102	-33.969	0.00015923	0.00050018	4.4167e-05	1080.2	1.847e-06	1.2924e-06	1179.5	221.71	3.4705e-06	3.3407e-06	281.43	78.936	61.662	17.911	2.7428e-06	25.275	0.00039458	0.00049188	0.00013134	1062.5	5.2742e-06	5.2326e-06	1167.3	220.49	5.1361e-06	5.4404e-06	282.18	79.884	62.211	18.248	5.2545e-06	25.555	161.121	-43.966	-64.366	-114.828	6.366	71.466	-114.926	-107.429	-5.806	16.837	-107.111	-101.075	-100.916	-93.345	26.049	-93.659	-8191	255	
751.804	1	1	0	0	0.036449	0.084833	0.11726	0.20816	0.12833	0.21451	0.27167	0.1385	0.14463	0.14861	0.12985	0.2123	0.10101	0.21352	0.14758	0.015106	-3.6021	-3.3125	-3.8458	-3.9271	-3.3	-4.225	-3.7021	-3.6104	-4.125	-3.3646	-3.8729	-3.8792	-3.3979	-4.1375	-3.5042	-3.5625	77.362	128.572	20.225	-116.791	188.796	49.655	132.242	8.615	99.051	9.022	209.302	-100.483	83.567	-44.783	-121.458	-96.672	0.00018212	0.00040248	0.00010833	1079.1	1.1717e-06	2.0336e-06	1174.9	222.26	1.7249e-06	3.0948e-06	282.67	79.222	61.696	17.928	3.9156e-06	25.056	0.00038807	0.00049664	0.0001363	1063.6	5.4292e-06	5.1373e-06	1165.6	220.95	5.0848e-06	5.5073e-06	282.43	79.895	62.141	18.17	5.0251e-06	25.577	180.233	5.882	-29.371	-115.045	-9.973	22.713	-114.992	-107.395	-31.144	39.898	-107.115	-101.437	-100.831	-93.251	28.028	-93.923	-8191	255	
751.900	1	1	0	0	0.091668	0.11798	0.06882	0.33947	0.18673	0.071213	0.24089	0.16233	0.27013	0.32709	0.095004	0.18505	0.087801	0.24119	0.3042	0.16145	-3.6979	-3.2167	-3.8375	-4.0542	-3.3375	-4.125	-3.7542	-3.3458	-4.15	-3.3958	-3.7896	-4	-3.1271	-3.9854	-3.7896	-3.4313	-35.895	174.143	-22.514	-98.990	202.114	171.780	151.341	-117.923	176.316	104.378	198.515	157.929	229.695	199.564	-112.424	20.915	0.00016767	0.00024558	7.6272e-05	1079.1	2.5669e-06	3.6761e-06	1175.8	221.48	2.1635e-06	1.764e-06	282.49	79.001	62.291	17.954	2.2873e-06	25.304	0.00039047	0.00045903	0.00013423	1062.1	5.3295e-06	5.1006e-06	1166.1	220.52	5.0182e-06	5.2628e-06	282.68	79.964	62.295	18.17	5.0929e-06	25.672	167.872	-22.630	-46.724	-115.075	-5.375	19.295	-114.895	-107.483	-32.206	35.685	-107.559	-101.228	-100.743	-93.430	29.394	-93.787	-8191	255	
751.996	1	1	0	0	0.085261	0.25346	0.35513	0.19017	0.33844	0.050262	0.23024	0.22555	0.16154	0.1921	0.099984	0.17954	0.072259	0.079708	0.15156	0.056752	-3.7979	-3.4938	-3.7979	-4.1979	-3.5083	-3.9979	-3.9437	-3.2583	-4.1813	-3.3563	-3.5958	-3.9938	-3.2958	-3.9021	-3.8021	-3.4938	-103.673	89.460	232.297	128.881	-1.390	29.670	122.995	233.796	76.040	118.220	-67.045	202.572	106.951	44.415	-83.615	130.445	0.00021383	0.00045162	8.2144e-05	1077.5	1.3305e-06	6.1678e-06	1174.7	221.31	1.8216e-06	3.4763e-06	282.5	78.855	61.801	18.082	2.8717e-06	25.092	0.00039669	0.00048969	0.00013653	1062.9	5.4094e-06	5.3592e-06	1164.5	220.69	5.0981e-06	5.7237e-06	282.52	79.893	62.196	18.262	5.5288e-06	25.642	171.688	-41.684	-48.726	-114.833	16.861	22.308	-114.997	-107.622	-17.161	14.250	-107.629	-101.309	-100.995	-93.433	23.267	-93.962	-8191	255	
752.092	1	1	0	0	0.14959	0.10632	0.21405	0.15262	0.10072	0.10971	0.087938	0.36861	0.1001	0.082462	0.071073	0.10229	0.19759	0.14814	0.099829	0.14358	-3.7396	-3.4896	-3.4646	-4.0563	-3.3333	-3.6792	-3.8563	-3.4458	-4.0729	-3.6437	-3.6125	-4.0188	-3.3167	-3.9542	-3.8896	-3.5271	7.921	192.648	14.384	207.033	227.005	-92.496	221.666	125.307	116.974	-88.621	145.726	-114.663	-36.071	-85.944	217.971	154.581	0.00015084	0.00031943	9.0669e-05	1079.8	2.1403e-06	2.6954e-06	1175.9	221.5	3.0677e-06	1.8862e-06	284.21	79.888	61.987	17.887	5.2976e-06	25.157	0.00039785	0.0005166	0.00013761	1064.2	5.2553e-06	5.4021e-06	1165.5	220.69	5.2666e-06	5.2886e-06	282.49	80.247	62.263	18.193	5.3384e-06	25.609	178.756	-46.057	-41.666	-114.910	-4.041	41.865	-114.882	-107.168	2.404	92.791	-107.730	-101.063	-100.828	-93.284	31.377	-93.778	-8191	255	
752.189	1	1	0	0	0.11036	0.18336	0.26866	0.095186	0.081287	0.10121	0.12665	0.27532	0.23459	0.15997	0.064492	0.12887	0.085524	0.18111	0.0749	0.12868	-3.6042	-3.8521	-3.3021	-4.1271	-3.2104	-3.8333	-4.0333	-3.3125	-4.0354	-3.7438	-3.3417	-4.0979	-3.2896	-3.5312	-4.1562	-3.3292	-118.704	231.823	32.526	143.271	229.638	63.961	-89.572	214.325	-89.749	-79.876	86.681	125.744	216.429	148.075	190.429	205.841	0.00018732	0.00037276	3.225e-05	1072.9	1.4659e-06	3.461e-06	1176.6	220.52	1.2248e-06	3.1719e-06	281.41	79.315	61.309	17.973	3.3577e-06	25.175	0.00039265	0.00047908	0.00013901	1059.8	5.2262e-06	5.4148e-06	1165.4	220.13	5.1462e-06	5.3839e-06	281.52	80.056	62.068	18.187	5.1582e-06	25.644	174.941	-3.442	-95.010	-114.859	-45.899	38.825	-114.866	-107.437	0.404	1.739	-107.647	-101.176	-100.796	-93.657	-25.333	-93.496	-8191	255	
752.309	1	1	0	0	0.23129	0.017783	0.186	0.21945	0.13516	0.074927	0.24552	0.15447	0.088639	0.23666	0.15039	0.20194	0.24555	0.13182	0.088691	0.12785	-3.4708	-3.7083	-3.3042	-4.1208	-3.5125	-3.5417	-4.2188	-3.2542	-3.7979	-3.7604	-3.3125	-4.0938	-3.6937	-3.4125	-4.0625	-3.5187	188.174	-20.444	179.394	-102.565	47.979	127.888	224.785	211.047	-100.180	126.793	-74.085	198.534	-69.686	38.322	-2.905	176.022	0.00015448	0.00033842	8.178e-05	1077.8	3.1991e-06	4.2363e-06	1170.7	220.65	1.0984e-06	5.205e-06	282	79.045	61.868	17.895	2.7159e-06	25.048	0.00038288	0.00048725	0.00013189	1061.3	5.384e-06	5.4614e-06	1163.5	220.55	5.202e-06	5.1395e-06	282.04	79.877	62.307	18.218	5.1404e-06	25.613	177.204	-7.216	-45.758	-114.936	0.692	24.096	-115.011	-107.744	0.029	14.889	-107.466	-101.312	-101.314	-93.548	23.654	-93.555	-8191	255	
752.405	1	1	0	0	0.23693	0.25561	0.0122	0.11356	0.2381	0.10722	0.2453	0.207	0.068575	0.17056	0.2052	0.29148	0.1752	0.087953	0.15988	0.10402	-3.5646	-3.8083	-3.4021	-4.2625	-3.6688	-3.4833	-4.1937	-3.4562	-3.6229	-4.075	-3.4208	-4.0938	-3.6813	-3.5896	-3.9417	-3.4562	-69.614	175.178	19.116	218.914	117.508	-11.296	176.525	199.426	50.967	51.004	162.940	226.884	-63.416	135.251	-123.851	-100.845	0.00019674	0.00029653	8.1828e-05	1077.2	1.946e-06	3.7723e-06	1173.9	219.8	2.3871e-06	3.6283e-06	283.12	79.286	61.844	17.979	1.0657e-06	25.281	0.00038568	0.00045948	0.00013708	1062.4	5.2835e-06	5.3176e-06	1164.7	219.84	5.2444e-06	5.2511e-06	282.13	79.928	62.122	18.234	4.9208e-06	25.642	172.224	-43.626	-18.500	-114.949	3.699	19.564	-114.808	-107.778	-13.882	81.489	-107.665	-101.409	-101.063	-93.490	-57.185	-94.321	-8191	255	
752.501	1	1	0	0	0.078396	0.20183	0.11558	0.27035	0.10937	0.0051545	0.35959	0.078705	0.12103	0.19192	0.095336	0.066738	0.12644	0.028314	0.19348	0.18097	-3.3104	-3.9125	-3.2292	-4.1	-3.8229	-3.3729	-4.3458	-3.3125	-3.8688	-4.0208	-3.3229	-3.9375	-3.9125	-3.2917	-4.0604	-3.5021	217.603	171.977	60.092	220.576	27.712	73.104	204.743	233.766	26.552	97.519	214.286	-73.393	193.334	233.619	62.466	225.194	0.0001845	0.0002767	0.00010562	1075.2	8.5188e-07	3.906e-06	1172.4	220.39	6.8992e-07	2.5083e-06	281.76	78.674	61.31	17.935	2.733e-06	24.98	0.00038488	0.00046314	0.00013053	1060.1	4.928e-06	5.3768e-06	1161.9	219.69	4.899e-06	4.7586e-06	280.71	79.467	61.933	18.132	4.5061e-06	25.511	168.376	-33.811	-49.176	-114.772	-44.096	22.162	-114.867	-107.300	-12.266	51.273	-107.982	-101.027	-101.220	-93.263	22.435	-93.705	-8191	255	
752.598	1	1	0	0	0.15162	0.023832	0.11531	0.23674	0.099633	0.12732	0.14984	0.23357	0.015479	0.032116	0.15054	0.025723	0.182	0.19046	0.21016	0.11481	-3.1833	-3.8792	-3.375	-3.9729	-3.7833	-3.2938	-4.2271	-3.6396	-3.5375	-4.1875	-3.4062	-3.8937	-4.0646	-3.3646	-3.8792	-3.7083	-52.348	-120.847	38.639	212.056	49.095	220.504	180.818	-102.237	86.813	223.960	160.582	131.336	159.218	-29.217	-106.098	49.820	0.00016933	0.00030133	4.375e-05	1067.9	7.5847e-07	1.591e-06	1168.2	220.73	1.9322e-06	1.2584e-06	282.29	78.973	61.349	17.902	3.501e-06	25.177	0.00037068	0.0004148	0.0001199	1054.1	4.8396e-06	4.7815e-06	1159.2	219.55	4.8533e-06	4.7464e-06	280.77	79.646	61.734	18.097	4.8564e-06	25.561	165.151	-54.573	-64.249	-114.609	122.316	21.286	-114.756	-107.431	-40.886	16.307	-107.560	-100.995	-101.019	-93.831	23.601	-93.560	-8191	255	
752.692	1	1	0	0	0.20855	0.089409	0.1564	0.36595	0.12604	0.07067	0.22428	0.23941	0.26204	0.059384	0.12315	0.1494	0.23682	0.038473	0.15363	0.15255	-2.8979	-3.9437	-3.2917	-3.8417	-3.9833	-3.4417	-4.2167	-3.6458	-3.2625	-4.1667	-3.5271	-3.6562	-3.9813	-3.1833	-3.8875	-3.7583	122.249	-17.428	57.102	-123.367	75.234	188.656	225.902	-75.100	-65.325	131.829	106.376	198.636	-88.324	132.978	25.347	125.264	0.0001653	0.00028898	7.4698e-05	1074.1	1.2092e-06	2.7466e-06	1170.7	220.19	3.0734e-06	3.9214e-06	282.16	78.404	61.302	17.909	2.5563e-06	25.002	0.00039734	0.00044639	0.00013543	1057.4	4.9627e-06	5.3673e-06	1159.6	219.39	5.1018e-06	5.0089e-06	281.18	79.594	61.86	18.107	4.5837e-06	25.469	168.741	-44.675	-33.033	-114.671	52.582	20.309	-114.779	-107.184	-41.937	25.371	-107.408	-101.168	-100.898	-93.311	14.822	-93.957	-8191	255	
752.788	1	1	0	0	0.19914	0.23033	0.077854	0.20778	0.039326	0.18984	0.19709	0.28873	0.13839	0.26321	0.082678	0.21546	0.15529	0.28658	0.16742	0.25928	-2.8063	-4.1375	-3.6479	-3.6208	-3.8896	-3.1521	-4.075	-3.9354	-3.0021	-4.0792	-3.5438	-3.6958	-4.0208	-3.3292	-3.7292	-3.8021	220.975	95.199	65.066	191.051	-65.823	93.263	196.611	-61.621	223.534	152.972	-77.103	44.067	123.215	124.564	106.277	62.899	0.00016771	0.00047642	6.7918e-05	1070.3	2.6376e-06	4.3111e-06	1173.9	219.24	3.6653e-06	3.2567e-06	280.32	79.533	61.805	18.077	4.1729e-06	25.189	0.0003552	0.00043297	0.00011662	1055.1	4.5849e-06	4.8032e-06	1161.5	219.07	4.863e-06	4.7473e-06	280.54	79.81	62.112	18.224	4.8483e-06	25.538	173.727	-21.857	-43.612	-114.677	-13.100	23.898	-114.604	-107.419	-33.864	23.426	-107.438	-101.172	-100.897	-93.396	-6.646	-93.787	-8191	255	
752.909	1	1	0	0	0.14584	0.1366	0.13177	0.16228	0.18217	0.33004	0.076132	0.18851	0.050644	0.26684	0.078507	0.27167	0.12061	0.34446	0.18235	0.093568	-2.9042	-3.8917	-3.5771	-3.5104	-3.9021	-3.3187	-4.0542	-3.9167	-3.2271	-3.9188	-3.7292	-3.5021	-4.1625	-3.45	-3.6333	-4.0563	135.151	35.451	-63.876	228.070	221.011	-41.160	161.559	-117.896	17.772	136.686	145.771	138.573	173.563	209.528	-71.164	-83.589	0.00017511	0.00043179	0.00011539	1074.1	1.4732e-06	3.753e-06	1173.9	219.91	1.2743e-06	3.3931e-06	282.26	78.632	61.5	18.064	2.2539e-06	24.887	0.0004022	0.00046611	0.00013353	1056.4	4.9066e-06	4.9483e-06	1160.5	219.69	5.0339e-06	4.905e-06	281.17	79.684	61.939	18.174	4.9941e-06	25.408	165.153	-36.737	10.877	-114.694	-16.635	35.299	-114.590	-107.139	-34.051	43.807	-107.528	-101.403	-101.014	-92.853	23.056	-93.594	-8191	255	
753.005	1	1	0	0	0.15997	0.16726	0.03511	0.19232	0.18341	0.28356	0.33293	0.078508	0.14626	0.23066	0.27012	0.18838	0.075957	0.10433	0.15257	0.24586	-2.8354	-3.8438	-3.7479	-3.425	-4.1	-3.4583	-3.6896	-3.9688	-3.2354	-3.875	-3.9125	-3.4167	-4.1292	-3.4625	-3.3458	-4.1396	-112.445	-33.373	226.544	168.032	37.655	25.703	188.471	153.882	-75.206	-35.327	-124.807	159.808	72.209	229.013	47.379	-82.692	0.0001913	6.0205e-05	0.00014239	1071.8	2.481e-06	2.3959e-06	1175	220.62	1.6837e-06	4.6498e-06	281.66	78.815	61.543	18.044	1.0531e-06	25.191	0.00039222	0.00047757	0.00012888	1057.5	4.8626e-06	5.3257e-06	1159.8	219.78	5.1002e-06	5.0116e-06	281.05	79.742	61.849	18.168	4.9963e-06	25.481	165.903	-40.720	-39.451	-114.434	1.480	68.236	-114.767	-107.354	-21.132	21.492	-107.446	-101.396	-100.852	-93.573	23.641	-93.743	-8191	255	
753.101	1	1	0	0	0.16327	0.12478	0.14678	0.20767	0.15644	0.18585	0.089154	0.070791	0.27351	0.092746	0.15745	0.13957	0.10375	0.12647	0.11243	0.09969	-3.1292	-3.7792	-3.7521	-3.45	-4.0271	-3.6437	-3.9458	-4.1979	-3.2917	-3.8604	-3.8688	-3.3292	-4.0375	-3.5375	-3.5667	-4.175	24.535	67.641	191.240	-111.418	202.887	-41.161	72.273	162.413	99.189	207.340	225.881	-117.002	181.543	-87.577	30.473	102.051	0.00013676	0.00039938	9.2204e-05	1076.6	3.6316e-06	3.0714e-06	1171.2	221.01	2.2422e-06	2.69e-06	281.19	78.898	61.411	17.998	2.9711e-06	25.205	0.00038604	0.00045204	0.00012229	1057.9	4.9409e-06	5.041e-06	1160.8	220.09	4.9733e-06	4.9515e-06	280.81	79.644	61.966	18.184	5.0709e-06	25.591	167.738	-1.480	-9.483	-114.791	-12.262	33.588	-114.723	-107.271	-22.905	32.999	-107.587	-101.034	-100.546	-93.696	10.504	-93.804	-8191	255	
753.195	1	1	0	0	0.096367	0.19813	0.12682	0.36645	0.15498	0.26604	0.2105	0.20106	0.060017	0.231	0.022568	0.10326	0.080085	0.033394	0.17545	0.083296	-2.925	-3.6146	-3.8333	-3.4	-3.8958	-3.7292	-3.5333	-4.1417	-3.3812	-3.4854	-4.0667	-3.4646	-3.9646	-3.5792	-3.3583	-4.0896	231.695	151.970	-11.696	210.536	172.739	84.666	143.998	114.843	48.454	185.582	-47.597	210.757	172.828	164.447	-33.065	202.349	0.00016504	0.00025939	0.00010145	1071.9	2.282e-06	3.1836e-06	1168.6	220.39	1.8556e-06	2.1374e-06	282.26	79.037	61.448	17.901	4.0584e-06	25.251	0.00037627	0.0004592	0.0001308	1058.3	5.043e-06	5.0355e-06	1159.8	219.8	5.2214e-06	5.0089e-06	281.11	79.66	62.042	18.151	4.953e-06	25.603	162.081	-48.542	-46.337	-114.838	-25.912	2.379	-114.585	-107.406	-34.915	74.778	-107.509	-101.470	-100.658	-93.430	72.424	-93.553	-8191	255	
753.292	1	1	0	0	0.32799	0.061296	0.20033	0.21744	0.19203	0.050958	0.027805	0.11388	0.090148	0.21981	0.13514	0.22711	0.15923	0.095327	0.11914	0.097921	-3.0563	-3.5354	-3.9792	-3.3521	-3.9125	-3.7521	-3.2396	-4.0104	-3.6	-3.5479	-4.2188	-3.5	-3.7521	-3.7604	-3.3458	-4.0208	-74.157	137.122	102.657	141.101	66.376	10.615	-12.174	225.607	130.519	130.815	147.064	153.758	200.067	135.607	-27.028	167.746	0.00016538	0.00048198	6.933e-05	1070.8	2.85e-07	2.149e-06	1169.7	220.83	2.4425e-06	2.6128e-06	281.62	78.696	61.772	17.922	2.6271e-06	24.983	0.00037297	0.00046668	0.00012045	1056.5	4.8121e-06	4.8828e-06	1160	219.83	4.7717e-06	5.0301e-06	280.89	79.495	62.058	18.134	4.8474e-06	25.5	175.712	-44.001	-36.280	-114.585	25.923	-10.418	-114.670	-107.269	-41.847	2.630	-107.366	-101.418	-100.795	-92.936	31.992	-93.951	-8191	255	
753.388	1	1	0	0	0.03365	0.095625	0.2363	0.10239	0.065416	0.24042	0.14791	0.06327	0.036968	0.052342	0.26666	0.12061	0.13713	0.13494	0.11343	0.18736	-3.1688	-3.3208	-4.0271	-3.5792	-3.8375	-4.0375	-3.4104	-4.0229	-3.7792	-3.4083	-4.2188	-3.3896	-3.7354	-3.7958	-3.4188	-4.0813	-6.411	27.505	144.646	40.400	-71.846	108.521	174.645	35.347	-33.152	-73.422	79.304	39.204	-66.078	180.367	97.133	-82.740	0.00018359	0.00035553	0.00012188	1068.1	1.2434e-06	3.5572e-06	1173.8	220.64	7.3782e-07	1.6062e-06	284.28	79.186	61.393	17.884	1.6217e-06	25.076	0.00037405	0.00044915	0.00011757	1055	5.1411e-06	4.8168e-06	1160.8	219.81	4.9713e-06	5.0807e-06	281.82	79.77	61.999	18.144	4.9382e-06	25.586	162.123	-20.031	-40.661	-114.579	-0.706	-4.380	-114.702	-107.062	-69.630	-47.948	-107.446	-101.624	-100.878	-93.403	20.672	-93.499	-8191	255	
753.484	1	1	0	0	0.061497	0.11993	0.11126	0.11723	0.14857	0.14804	0.10692	0.19831	0.17776	0.16185	0.12248	0.14468	0.093684	0.25224	0.047007	0.090826	-3.3	-3.3208	-4.1604	-3.3458	-3.6771	-4.0583	-3.4854	-4.0938	-3.8021	-3.3125	-4.1354	-3.5146	-3.6583	-4.1104	-3.2188	-3.8271	92.096	-11.542	94.145	-124.167	87.010	-61.907	193.861	188.904	231.492	72.104	202.630	147.939	-121.030	147.587	-20.812	194.678	0.00017499	0.00040676	0.00011017	1070.2	1.3534e-06	1.6389e-06	1172.6	219.95	1.594e-06	2.1039e-06	280.89	78.747	61.588	18.018	1.9362e-06	24.986	0.0003847	0.00045346	0.00012631	1056.4	4.7552e-06	4.7648e-06	1161.4	219.64	4.6865e-06	4.8368e-06	280.28	79.743	61.973	18.167	4.9297e-06	25.541	182.458	-33.857	-16.678	-114.411	5.361	23.688	-114.838	-107.278	-14.677	21.040	-107.310	-101.094	-100.516	-93.408	9.308	-94.168	-8191	255	
753.580	1	1	0	0	0.072765	0.1388	0.070706	0.30886	0.26027	0.055227	0.13491	0.22764	0.23118	0.20895	0.13304	0.13603	0.12154	0.078517	0.18068	0.13082	-3.45	-3.4188	-4.2083	-3.5812	-3.4083	-4.0813	-3.3625	-3.9083	-3.75	-3.1271	-4.1667	-3.6042	-3.3896	-4.2458	-3.3375	-3.7771	-99.080	-90.126	109.011	186.153	224.023	29.313	148.714	204.345	127.155	7.912	60.430	156.166	-41.343	229.139	30.583	123.390	0.0001493	0.00028666	8.5734e-05	1074.9	1.1532e-06	1.3447e-06	1170.2	220.79	2.7514e-06	3.8457e-06	280.99	78.593	61.745	17.984	5.1749e-06	25.134	0.00038056	0.00046314	0.00012457	1056.6	5.0123e-06	5.0862e-06	1160.4	219.93	4.9988e-06	5.4544e-06	280.81	79.475	62.148	18.215	5.2214e-06	25.59	182.766	-57.877	-54.071	-114.695	55.252	54.662	-114.515	-107.355	-1.299	22.822	-107.210	-101.258	-100.730	-93.453	36.621	-93.863	-8191	255	
753.701	1	1	0	0	0.099395	0.13444	0.094505	0.07967	0.2273	0.051176	0.38016	0.16622	0.2841	0.11502	0.1285	0.16962	0.36792	0.34297	0.19141	0.10813	-3.7229	-3.2125	-3.7604	-3.7396	-3.3937	-4.2208	-3.4917	-3.7542	-3.9979	-3.2354	-4.0729	-3.7021	-3.2771	-4.0854	-3.3917	-3.7875	1.948	153.315	-82.101	-75.850	-122.154	153.909	212.540	161.157	34.790	38.215	135.413	128.850	-120.459	-96.387	-57.579	17.855	0.00018262	0.00036706	9.7067e-05	1066.6	1.8434e-06	2.6979e-06	1168.8	220.58	3.0248e-06	2.718e-06	281.88	78.836	61.84	17.963	3.3347e-06	25.21	0.00038411	0.00048676	0.00012681	1053.6	5.0765e-06	5.1165e-06	1158.6	219.65	4.8937e-06	5.055e-06	281.11	79.68	62.085	18.16	5.0031e-06	25.617	175.608	-18.988	-37.440	-114.775	21.689	10.802	-114.702	-106.934	-35.379	4.544	-107.516	-100.916	-100.911	-93.727	24.176	-94.095	-8191	255	
753.797	1	1	0	0	0.065615	0.14715	0.34348	0.012871	0.044392	0.14496	0.26673	0.11149	0.17028	0.2313	0.15217	0.21798	0.10105	0.055638	0.11501	0.232	-3.7417	-3.3604	-4.025	-3.9417	-3.3771	-4.2083	-3.7	-3.8229	-4.0271	-3.1458	-3.9375	-4.0625	-3.325	-4.1625	-3.4708	-3.5333	-32.349	162.235	-39.433	151.981	212.214	183.511	129.776	170.560	129.479	-86.936	166.616	-80.925	-109.895	-32.616	-43.140	222.531	0.00016009	0.00034951	8.8778e-05	1073.8	2.2479e-07	4.5063e-06	1169.7	219.42	1.7079e-06	1.8688e-06	281.88	78.772	61.363	17.871	3.368e-06	25.002	0.00037938	0.00045672	0.00012576	1056.2	5.0406e-06	4.8914e-06	1158.7	219.33	4.7123e-06	4.942e-06	281.72	79.693	62.001	18.143	5.037e-06	25.533	174.678	-44.514	-49.095	-114.802	89.280	23.094	-114.656	-107.305	-64.839	42.654	-107.061	-101.075	-100.745	-93.291	-9.484	-93.725	-8191	255	
753.869	1	1	0	0	0.033601	0.10636	0.040421	0.14233	0.065199	0.13439	0.24177	0.117	0.22702	0.18258	0.15165	0.06912	0.10754	0.099318	0.19045	0.16106	-3.3937	-3.3854	-3.8354	-4.0563	-3.2604	-4.0292	-3.6333	-3.525	-4.1417	-3.4792	-3.9542	-4.0417	-3.5104	-4.0042	-3.5938	-3.4792	185.723	-68.188	188.736	204.348	57.166	40.278	174.133	-22.891	210.466	82.977	-98.666	-102.117	227.962	-99.918	-58.079	-124.759	0.00016793	0.00019733	0.0001027	1072.4	2.4408e-06	3.3593e-06	1168.6	219.45	3.5261e-06	3.5382e-06	282.47	78.882	62.096	17.972	2.2533e-06	25.059	0.00038275	0.00046725	0.00012901	1057.2	4.9651e-06	5.0771e-06	1160.4	219.53	4.9725e-06	5.364e-06	281.63	79.699	62.204	18.201	5.1146e-06	25.557	160.417	-25.770	-12.347	-114.616	13.389	36.038	-114.738	-107.163	-37.088	23.295	-107.413	-100.907	-101.015	-93.224	52.115	-93.635	-8191	255	
753.989	1	1	0	0	0.13714	0.012354	0.17059	0.25672	0.13904	0.19874	0.17309	0.021905	0.14931	0.31105	0.37112	0.019416	0.17303	0.10244	0.2076	0.14766	-3.8187	-3.4667	-3.6479	-4.2146	-3.2812	-3.9167	-3.9625	-3.3396	-4.0375	-3.7042	-3.6833	-4.2708	-3.3688	-3.825	-3.7833	-3.2479	-103.103	-107.340	80.364	204.963	151.743	36.619	217.730	150.837	-88.087	8.925	185.773	27.398	30.789	-0.482	96.064	186.935	0.00019628	0.00022353	9.3356e-05	1066.8	2.7108e-06	3.7865e-06	1169	220.07	1.6117e-06	2.5356e-06	281.09	78.562	61.416	18.075	2.7403e-06	25.276	0.00038375	0.00047505	0.00012878	1055.8	5.2185e-06	5.2869e-06	1159	219.8	4.9778e-06	5.1729e-06	280.86	79.626	62.012	18.208	4.8551e-06	25.585	171.868	-58.041	-46.748	-114.662	20.638	11.953	-114.999	-107.082	-47.099	-7.520	-107.239	-101.676	-100.811	-92.976	50.986	-93.724	-8191	255	
754.085	1	1	0	0	0.058427	0.13483	0.23752	0.30387	0.077274	0.10047	0.10815	0.17404	0.16882	0.16597	0.2088	0.22994	0.21229	0.092675	0.087102	0.21954	-3.6104	-3.5396	-3.5187	-4.2562	-3.4146	-3.875	-3.9875	-3.1312	-4.0958	-3.7771	-3.6104	-4.1104	-3.2542	-3.8625	-3.875	-3.3104	-82.462	-100.666	225.103	152.889	57.591	148.263	95.842	150.337	86.388	96.399	191.056	163.252	188.340	-90.807	29.266	175.141	0.00017795	0.00034781	0.00013574	1070.7	1.5518e-06	3.6126e-06	1169.3	219.93	3.3979e-06	4.0374e-06	282.23	79.114	61.405	17.857	2.5788e-06	24.91	0.00039031	0.00047924	0.00013068	1056.4	5.3085e-06	5.1599e-06	1159.1	219.58	4.9321e-06	5.0419e-06	281.6	79.821	61.865	18.126	5.045e-06	25.536	172.811	-3.580	-44.817	-114.799	57.188	16.346	-114.822	-107.100	-21.489	19.525	-107.363	-101.219	-100.778	-93.085	33.430	-93.727	-8191	255	
754.181	1	1	0	0	0.0064209	0.069164	0.067251	0.35015	0.21839	0.11151	0.27761	0.30022	0.17852	0.13181	0.20617	0.039245	0.31197	0.29491	0.22465	0.15984	-3.6542	-3.6958	-3.3583	-4.2917	-3.4875	-3.7521	-4.0229	-3.3583	-3.9208	-3.6875	-3.3146	-4.175	-3.4667	-3.6188	-3.9854	-3.45	233.311	-27.231	53.742	216.053	195.981	-9.011	103.882	210.199	-9.054	-19.097	-72.949	157.832	175.856	-68.001	-74.147	157.567	0.0001834	0.00022814	0.0001157	1076	3.2142e-06	3.0929e-06	1170.3	220.7	6.4386e-07	2.3505e-06	282.14	78.95	61.641	17.972	3.2282e-06	25.212	0.00037696	0.00047046	0.00013373	1057.7	5.2972e-06	4.9935e-06	1159.7	219.58	5.1709e-06	5.2832e-06	281.75	79.759	62.085	18.19	5.1273e-06	25.653	164.667	-41.763	-29.856	-114.884	7.968	34.578	-114.813	-107.462	-62.834	55.544	-107.258	-101.086	-101.149	-93.072	-15.301	-93.887	-8191	255	
754.278	1	1	0	0	0.039726	0.15602	0.08532	0.22608	0.20685	0.1901	0.2953	0.10796	0.19769	0.1207	0.13934	0.16106	0.30612	0.25643	0.094338	0.26802	-3.5042	-3.7667	-3.3625	-4.2312	-3.4083	-3.6146	-4.2479	-3.2938	-3.8021	-3.7979	-3.4333	-4.1	-3.5563	-3.575	-4.1146	-3.3292	98.396	98.689	-32.602	165.320	228.577	-19.042	98.495	176.829	141.111	211.946	132.974	204.990	168.593	97.353	49.122	203.378	0.00016093	0.00039493	0.00010663	1075.7	9.4989e-07	1.7991e-06	1168.1	219.5	2.6856e-06	4.2925e-06	282.13	79.112	62.011	17.893	1.3533e-06	25.064	0.00040119	0.00048416	0.00013713	1059.3	5.6238e-06	5.2747e-06	1159.8	219.98	5.3781e-06	5.3948e-06	281.64	79.953	62.03	18.133	5.335e-06	25.625	172.717	-72.130	-14.765	-114.633	-37.989	12.182	-114.739	-107.205	-11.996	55.970	-107.716	-101.265	-100.513	-93.167	-32.139	-94.112	-8191	255	
754.396	1	1	0	0	0.18307	0.17307	0.23709	0.38002	0.23902	0.16991	0.31577	0.11542	0.11071	0.19861	0.0468	0.25868	0.22864	0.25733	0.21252	0.11379	-3.4333	-3.8646	-3.25	-4.075	-3.5396	-3.3875	-4.3229	-3.4313	-3.7771	-3.9417	-3.4125	-4.1792	-3.6854	-3.3271	-4.1396	-3.6146	205.356	138.319	134.610	187.748	85.804	182.798	220.761	-37.436	157.081	-3.782	141.059	-107.688	-107.849	95.993	9.818	137.191	0.00015538	0.00023469	4.8434e-05	1073.8	2.024e-06	3.0211e-06	1176.4	220.65	1.5329e-06	5.0509e-06	281.84	79.144	61.652	18.007	3.7042e-06	24.932	0.00040721	0.00049233	0.00013763	1057.9	5.5471e-06	5.611e-06	1161.7	219.91	5.2751e-06	5.4065e-06	281.42	79.983	62.098	18.264	5.6785e-06	25.663	174.468	-56.911	-22.745	-114.681	-3.744	16.904	-114.649	-107.368	10.436	28.361	-107.387	-101.043	-101.034	-93.565	21.893	-93.535	-8191	255	
754.493	1	1	0	0	0.13776	0.050598	0.048881	0.26785	0.0098822	0.12376	0.31863	0.19504	0.039995	0.18793	0.08669	0.3327	0.069064	0.048456	0.11487	0.10704	-3.3292	-3.9146	-3.0792	-4.0667	-3.7396	-3.4104	-4.2312	-3.6083	-3.6979	-3.9521	-3.5104	-3.9167	-3.6521	-3.2938	-4.1021	-3.5979	219.585	182.488	-105.329	104.394	64.481	-114.632	161.407	140.563	-90.353	86.361	-119.665	159.752	179.211	121.731	19.536	-119.744	0.0001902	0.000314	5.5157e-05	1078.3	6.1554e-07	3.715e-06	1173.5	221.04	2.2453e-06	3.1933e-06	281.16	79.491	61.396	17.965	3.8902e-06	25.096	0.00041069	0.00050379	0.00014465	1059.8	5.3134e-06	5.8524e-06	1162.2	220.14	5.3668e-06	5.5908e-06	281.52	79.908	62.135	18.235	5.2803e-06	25.661	161.245	-24.123	-53.872	-114.760	-22.607	-0.440	-114.670	-107.625	-17.873	53.700	-107.426	-101.113	-100.833	-93.309	8.977	-93.579	-8191	255	
754.589	1	1	0	0	0.17302	0.17921	0.20065	0.13887	0.1279	0.096655	0.14181	0.10442	0.11467	0.23824	0.035045	0.2429	0.31207	0.085546	0.087684	0.12075	-3.1771	-4.0167	-3.1729	-4.0708	-3.8208	-3.2271	-4.3292	-3.6458	-3.5667	-4.0479	-3.375	-3.8625	-3.9771	-3.2917	-4.0979	-3.7188	70.725	-79.277	-82.883	149.660	-29.500	138.901	87.657	114.180	40.205	12.217	177.083	65.252	160.172	129.415	-31.063	-60.694	0.00016373	0.00022791	5.6627e-05	1079.8	1.3721e-06	4.0991e-06	1171.1	220.54	1.866e-06	4.2008e-06	282.37	79.294	61.912	18.064	4.1619e-06	25.065	0.00041015	0.00049257	0.00014392	1060.8	5.3881e-06	5.7398e-06	1162.4	220.24	5.3955e-06	5.6817e-06	281.54	79.935	62.322	18.286	5.4215e-06	25.647	174.654	-76.575	-23.609	-114.772	22.196	31.230	-114.669	-107.247	18.680	50.618	-107.654	-101.013	-100.627	-93.323	6.409	-93.774	-8191	255	
#DATA ENDS
