BOXY.EXE: ISS Imagent and Oximeter Data Acquisition Program Version 0.80
Ascii Record File

#ACQ INFORMATION
2  Detector Channels 
16  External MUX Channels 
1  Auxiliary Channels 
5000  Waveform (CCF) Frequency (Hz)
1  Waveforms Skipped 
30  Waveforms Averaged 
1  Cycles Averaged 
16  Acquisitions per Waveform 
10.0806  Updata Rate (Hz) 

#FILE INFORMATION
TRUE -- External MUX Channel results are PARSED.
FALSE -- AC DC and Phase are NOT grouped.
TRUE -- Companion Program Settings File CREATED.
FALSE -- AC data not excluded
FALSE -- DC data not excluded
FALSE -- Phase data not excluded
FALSE -- Auxillary Chn. data not excluded
Tab delimiters

#CALIBRATION STATE
TRUE -- Waveform Calibration Values APPLIED.


#AUX CALIBRATION VALUES
Val Type	aux-1	

Term	1.0000e+00	
Factor	0.0000e+00	


#WF CALIBRATION VALUES
A = Detector Channel
Val Type	A-AC1	A-AC2	A-AC3	A-AC4	A-AC5	A-AC6	A-AC7	A-AC8	A-AC9	A-AC10	A-AC11	A-AC12	A-AC13	A-AC14	A-AC15	A-AC16	A-DC1	A-DC2	A-DC3	A-DC4	A-DC5	A-DC6	A-DC7	A-DC8	A-DC9	A-DC10	A-DC11	A-DC12	A-DC13	A-DC14	A-DC15	A-DC16	A-Ph1	A-Ph2	A-Ph3	A-Ph4	A-Ph5	A-Ph6	A-Ph7	A-Ph8	A-Ph9	A-Ph10	A-Ph11	A-Ph12	A-Ph13	A-Ph14	A-Ph15	A-Ph16	

Term	0.00000e+00	0.00000e+00	0.00000e+00	0.00000e+00	0.00000e+00	0.00000e+00	0.00000e+00	0.00000e+00	0.00000e+00	0.00000e+00	0.00000e+00	0.00000e+00	0.00000e+00	0.00000e+00	0.00000e+00	0.00000e+00	0.00000e+00	0.00000e+00	0.00000e+00	0.00000e+00	0.00000e+00	0.00000e+00	0.00000e+00	0.00000e+00	0.00000e+00	0.00000e+00	0.00000e+00	0.00000e+00	0.00000e+00	0.00000e+00	0.00000e+00	0.00000e+00	0.00000e+00	0.00000e+00	0.00000e+00	0.00000e+00	0.00000e+00	0.00000e+00	0.00000e+00	0.00000e+00	0.00000e+00	0.00000e+00	0.00000e+00	0.00000e+00	0.00000e+00	0.00000e+00	0.00000e+00	0.00000e+00	
Factor	1.00000e+00	1.00000e+00	1.00000e+00	1.00000e+00	1.00000e+00	1.00000e+00	1.00000e+00	1.00000e+00	1.00000e+00	1.00000e+00	1.00000e+00	1.00000e+00	1.00000e+00	1.00000e+00	1.00000e+00	1.00000e+00	1.00000e+00	1.00000e+00	1.00000e+00	1.00000e+00	1.00000e+00	1.00000e+00	1.00000e+00	1.00000e+00	1.00000e+00	1.00000e+00	1.00000e+00	1.00000e+00	1.00000e+00	1.00000e+00	1.00000e+00	1.00000e+00	X	X	X	X	X	X	X	X	X	X	X	X	X	X	X	X	

B = Detector Channel
Val Type	B-AC1	B-AC2	B-AC3	B-AC4	B-AC5	B-AC6	B-AC7	B-AC8	B-AC9	B-AC10	B-AC11	B-AC12	B-AC13	B-AC14	B-AC15	B-AC16	B-DC1	B-DC2	B-DC3	B-DC4	B-DC5	B-DC6	B-DC7	B-DC8	B-DC9	B-DC10	B-DC11	B-DC12	B-DC13	B-DC14	B-DC15	B-DC16	B-Ph1	B-Ph2	B-Ph3	B-Ph4	B-Ph5	B-Ph6	B-Ph7	B-Ph8	B-Ph9	B-Ph10	B-Ph11	B-Ph12	B-Ph13	B-Ph14	B-Ph15	B-Ph16	

Term	0.00000e+00	0.00000e+00	0.00000e+00	0.00000e+00	0.00000e+00	0.00000e+00	0.00000e+00	0.00000e+00	0.00000e+00	0.00000e+00	0.00000e+00	0.00000e+00	0.00000e+00	0.00000e+00	0.00000e+00	0.00000e+00	0.00000e+00	0.00000e+00	0.00000e+00	0.00000e+00	0.00000e+00	0.00000e+00	0.00000e+00	0.00000e+00	0.00000e+00	0.00000e+00	0.00000e+00	0.00000e+00	0.00000e+00	0.00000e+00	0.00000e+00	0.00000e+00	-1.63787e+02	-1.30482e+02	-1.27013e+02	-1.82279e+02	-8.24491e+01	-6.84222e+01	-1.57983e+02	-1.62015e+02	-7.99557e+01	-6.61839e+01	-1.70752e+02	-1.71092e+02	-1.83452e+02	-1.76822e+02	-7.40614e+01	-1.49983e+02	
Factor	2.59249e-05	1.52061e-04	4.07654e-05	1.48901e-01	1.23010e-06	1.67438e-06	1.54864e-01	4.69470e-02	1.30575e-06	1.53596e-06	8.14838e-02	2.72825e-02	2.22300e-02	8.62773e-03	1.45183e-06	1.23607e-02	1.23476e-05	1.95143e-05	5.42117e-06	7.93904e-02	1.93728e-07	2.16972e-07	7.74914e-02	2.51744e-02	1.93923e-07	2.16875e-07	4.22625e-02	1.41663e-02	1.20339e-02	4.66463e-03	2.03514e-07	6.46462e-03	X	X	X	X	X	X	X	X	X	X	X	X	X	X	X	X	



#DISTANCE SETTINGS
A = Detector Channel
A-1	A-2	A-3	A-4	A-5	A-6	A-7	A-8	A-9	A-10	A-11	A-12	A-13	A-14	A-15	A-16	

2.5000e+00	3.0000e+00	2.5000e+00	3.0000e+00	2.0000e+00	3.0000e+00	1.5000e+00	3.0000e+00	3.0000e+00	3.0000e+00	3.0000e+00	3.0000e+00	3.0000e+00	3.0000e+00	1.5000e+00	3.0000e+00	

B = Detector Channel
B-1	B-2	B-3	B-4	B-5	B-6	B-7	B-8	B-9	B-10	B-11	B-12	B-13	B-14	B-15	B-16	

1.0000e+01	1.0000e+01	1.0000e+01	1.4400e+00	1.0000e+01	1.0000e+01	1.5100e+00	1.9400e+00	1.0000e+01	1.0000e+01	1.9900e+00	2.4900e+00	2.4100e+00	2.9000e+00	1.0000e+01	2.9800e+00	




#DATA BEGINS
time	group	step	mark	flag	A-AC1	A-AC2	A-AC3	A-AC4	A-AC5	A-AC6	A-AC7	A-AC8	A-AC9	A-AC10	A-AC11	A-AC12	A-AC13	A-AC14	A-AC15	A-AC16	A-DC1	A-DC2	A-DC3	A-DC4	A-DC5	A-DC6	A-DC7	A-DC8	A-DC9	A-DC10	A-DC11	A-DC12	A-DC13	A-DC14	A-DC15	A-DC16	A-Ph1	A-Ph2	A-Ph3	A-Ph4	A-Ph5	A-Ph6	A-Ph7	A-Ph8	A-Ph9	A-Ph10	A-Ph11	A-Ph12	A-Ph13	A-Ph14	A-Ph15	A-Ph16	B-AC1	B-AC2	B-AC3	B-AC4	B-AC5	B-AC6	B-AC7	B-AC8	B-AC9	B-AC10	B-AC11	B-AC12	B-AC13	B-AC14	B-AC15	B-AC16	B-DC1	B-DC2	B-DC3	B-DC4	B-DC5	B-DC6	B-DC7	B-DC8	B-DC9	B-DC10	B-DC11	B-DC12	B-DC13	B-DC14	B-DC15	B-DC16	B-Ph1	B-Ph2	B-Ph3	B-Ph4	B-Ph5	B-Ph6	B-Ph7	B-Ph8	B-Ph9	B-Ph10	B-Ph11	B-Ph12	B-Ph13	B-Ph14	B-Ph15	B-Ph16	aux-1	digaux	

786.575	1	1	0	768	0.16182	0.082345	0.22329	0.17466	0.14048	0.31312	0.1376	0.21262	0.08815	0.15059	0.086916	0.022404	0.17702	0.31963	0.028947	0.28828	-3.7812	-3.4604	-4.0021	-4.0854	-3.3479	-4.2854	-3.8854	-3.6937	-4.2208	-3.2021	-4.0563	-3.9458	-3.375	-4.2854	-3.7104	-3.5479	116.251	-115.587	37.890	200.513	56.101	23.003	89.541	-132.840	-57.702	112.516	128.706	135.022	-116.368	172.929	20.226	154.610	0.00053154	0.0005524	0.00012076	1348.1	2.5505e-06	4.3285e-06	1343.4	371.72	5.1043e-06	6.1302e-06	427.88	141.51	123.21	42.272	7.2115e-06	52.583	0.00089301	0.0011155	0.00030901	1367.6	1.1517e-05	1.229e-05	1370.7	378.59	1.1531e-05	1.2277e-05	435.99	145.47	126.43	43.463	1.1871e-05	54.272	168.024	-66.932	-57.557	-129.746	-35.629	16.851	-130.055	-125.331	-47.977	12.933	-125.588	-122.047	-121.354	-116.606	1.690	-117.061	-8191	255	
786.672	1	1	0	0	0.065031	0.090074	0.17492	0.14645	0.19651	0.065663	0.088062	0.36186	0.10152	0.02889	0.10279	0.065346	0.25714	0.19279	0.21864	0.16047	-3.8292	-3.3833	-3.8917	-4.4542	-3.2833	-4.1438	-4.0563	-3.5708	-4.1292	-3.6292	-3.8875	-4.2104	-3.5354	-4.2125	-3.8833	-3.5271	-83.794	47.722	40.591	136.349	7.541	100.711	173.603	168.240	-78.074	193.876	-25.697	170.904	201.728	121.335	-17.160	91.954	0.00049746	0.00065664	0.00015606	1353.5	3.4794e-06	6.4663e-06	1349	371.44	3.001e-06	3.5501e-06	426.8	141.75	123.8	42.42	4.961e-06	52.629	0.00090395	0.0011198	0.00031572	1368	1.1744e-05	1.2262e-05	1372.7	379.05	1.1659e-05	1.2416e-05	436.15	145.69	126.53	43.507	1.2232e-05	54.288	170.020	-34.179	-36.628	-129.949	-7.120	28.808	-130.051	-125.237	-7.409	-5.141	-125.615	-122.071	-121.395	-116.221	-4.030	-116.842	-8191	255	
786.768	1	1	0	0	0.24517	0.081956	0.12041	0.062376	0.089116	0.090745	0.10145	0.1492	0.14655	0.24112	0.056654	0.4037	0.11993	0.10976	0.065852	0.16789	-3.875	-3.5479	-3.5896	-4.25	-3.2104	-3.9042	-4.2708	-3.4875	-4.2688	-3.6312	-3.7167	-4.3375	-3.6479	-4.0167	-3.9562	-3.4646	128.379	96.874	160.774	86.778	44.876	-53.615	146.824	130.345	53.559	-14.670	166.892	199.620	-140.347	-83.853	182.892	100.220	0.00049181	0.00065811	0.00012617	1347	3.7778e-06	5.3996e-06	1352.1	372.02	4.043e-06	6.9325e-06	427.24	141.93	123.28	42.325	5.1858e-06	52.666	0.00091758	0.0011143	0.00032038	1365.7	1.1836e-05	1.2195e-05	1371.9	379.13	1.1367e-05	1.2447e-05	436.67	145.78	126.47	43.517	1.1839e-05	54.309	175.416	-69.141	-72.147	-129.877	-33.078	-29.080	-129.878	-125.111	-11.337	-17.346	-125.481	-121.854	-121.329	-116.417	-40.980	-116.993	-8191	255	
786.864	1	1	0	0	0.061016	0.078016	0.011063	0.15476	0.24756	0.11389	0.32789	0.085035	0.0883	0.30338	0.15278	0.20002	0.24549	0.24432	0.18584	0.36025	-3.9313	-3.75	-3.5167	-4.4333	-3.4542	-4.0563	-4.0729	-3.5729	-4.2646	-3.8542	-3.5208	-4.4208	-3.3917	-3.9583	-4.0146	-3.4896	-109.687	66.658	94.221	214.331	106.253	-137.469	142.351	-117.061	138.477	55.251	103.497	88.701	179.315	155.697	17.019	132.208	0.00055984	0.00059717	6.0929e-05	1347.6	7.2901e-07	4.9793e-06	1342.2	370.4	4.6491e-06	6.0564e-06	428.54	142.44	123.39	42.498	3.9804e-06	52.691	0.00092646	0.0011127	0.00030549	1365.3	1.1796e-05	1.2295e-05	1368	378.25	1.1489e-05	1.2189e-05	435.78	145.91	126.29	43.528	1.1951e-05	54.293	165.564	-51.921	-102.131	-129.802	31.854	-8.694	-129.936	-125.386	-80.722	-46.670	-125.657	-121.980	-121.463	-116.303	15.802	-116.987	-8191	255	
786.960	1	1	0	0	0.09313	0.21931	0.091796	0.33503	0.1121	0.087482	0.37303	0.23096	0.070432	0.18575	0.29126	0.10416	0.17257	0.042197	0.055767	0.050489	-3.6	-3.8917	-3.4792	-4.3479	-3.4813	-3.7	-4.3063	-3.5292	-4.1625	-3.7229	-3.6083	-4.3792	-3.5333	-3.7729	-4.1292	-3.4292	91.717	-17.533	-37.539	161.085	-31.923	-141.027	126.023	-139.550	120.606	198.066	150.616	206.746	175.279	116.008	203.846	116.691	0.00054549	0.00063741	0.00013405	1346.6	3.8975e-06	3.5659e-06	1349.7	371.04	2.7644e-06	3.8437e-06	425.23	141.62	122.83	42.259	4.3137e-06	52.533	0.00091843	0.0011191	0.00030935	1363.3	1.1657e-05	1.2473e-05	1368.8	378.17	1.1519e-05	1.2441e-05	434.38	145.62	126.05	43.425	1.149e-05	54.124	169.980	-40.552	-65.731	-129.699	-22.262	28.963	-130.076	-125.314	-10.527	20.940	-125.505	-121.684	-121.294	-116.215	-40.350	-117.040	-8191	255	
787.056	1	1	0	0	0.25598	0.037497	0.065086	0.24219	0.17322	0.13297	0.077508	0.27074	0.10983	0.047117	0.11771	0.20261	0.22937	0.13568	0.23491	0.0324	-3.4813	-3.75	-3.2604	-4.4437	-3.5687	-3.5396	-4.3875	-3.5062	-3.975	-3.9542	-3.5854	-4.15	-3.6688	-3.6625	-4.1292	-3.4062	139.601	12.445	120.451	148.371	26.446	21.466	151.102	-109.897	214.303	155.291	127.138	64.796	198.673	174.198	130.467	134.173	0.00054929	0.00033291	0.00016373	1345.6	3.6997e-06	4.9175e-06	1342.5	369.86	6.1926e-06	6.0118e-06	427.42	141.61	122.69	42.177	8.6864e-06	52.52	0.00091033	0.0011343	0.00032053	1361.9	1.1484e-05	1.2215e-05	1366	377.76	1.2007e-05	1.1937e-05	435.27	145.56	126.1	43.438	1.1588e-05	54.273	173.176	-53.502	-49.275	-129.541	-4.617	14.883	-129.873	-125.263	-36.261	16.072	-125.493	-121.738	-121.449	-116.333	-26.548	-116.946	-8191	255	
787.177	1	1	0	0	0.12641	0.22318	0.11255	0.23705	0.11472	0.10888	0.085017	0.24755	0.14408	0.17437	0.35514	0.20476	0.22554	0.056929	0.17481	0.12401	-3.4417	-4.0833	-3.1542	-4.2729	-3.7125	-3.4104	-4.3229	-3.7208	-3.6917	-3.975	-3.3563	-4.175	-4.0083	-3.4271	-3.9938	-3.6354	178.941	89.812	13.880	196.073	94.121	25.477	108.765	200.125	-24.592	93.589	165.039	99.300	171.750	205.531	74.922	153.935	0.00052722	0.0007181	0.00015355	1341.4	2.3897e-06	5.1057e-06	1343.6	369.65	3.2823e-06	3.1724e-06	425.25	141.66	123.32	42.3	3.1492e-06	52.423	0.00092167	0.0010881	0.00031117	1360.6	1.1305e-05	1.2421e-05	1363.4	377.01	1.1536e-05	1.2082e-05	434.22	145.38	126.04	43.33	1.1442e-05	54.134	176.105	-42.593	-83.203	-129.604	-19.249	9.252	-129.811	-125.126	-55.037	30.040	-125.475	-121.965	-121.333	-116.235	1.809	-116.961	-8191	255	
787.273	1	1	0	0	0.23766	0.25411	0.17033	0.25984	0.015637	0.23399	0.36146	0.13715	0.087366	0.033346	0.14445	0.094135	0.18267	0.037392	0.1232	0.059693	-3.3125	-4.0646	-3.3354	-4.1167	-3.6958	-3.4229	-4.1583	-3.6208	-3.6625	-4.2417	-3.4167	-4.1333	-4.0042	-3.3438	-4.1958	-3.7062	53.851	204.139	46.363	187.245	132.019	-60.419	167.976	150.296	-97.144	158.749	-67.877	189.672	-80.757	179.056	56.275	20.980	0.00052021	0.00054641	0.00019972	1344.3	4.3976e-06	4.7427e-06	1341.1	370.08	4.3306e-06	4.054e-06	424.66	141.07	122.63	42.274	2.608e-06	52.164	0.00090531	0.0010548	0.00030456	1358.3	1.1092e-05	1.2128e-05	1361.8	377.12	1.1366e-05	1.1692e-05	433.7	145	125.77	43.372	1.1424e-05	53.994	166.162	-30.298	-38.550	-129.649	-40.754	-3.963	-129.829	-125.385	-47.480	25.870	-125.583	-121.622	-121.382	-116.181	6.989	-117.102	-8191	255	
787.369	1	1	0	0	0.056299	0.20473	0.20991	0.2517	0.04332	0.11479	0.20463	0.21944	0.10335	0.19696	0.08003	0.092031	0.19698	0.22552	0.080636	0.053629	-3.1417	-4.1708	-3.3542	-4.1104	-3.9083	-3.2729	-4.3604	-3.8208	-3.4688	-4.1958	-3.5625	-3.9021	-4.0625	-3.4771	-4.0167	-3.9188	-32.509	-14.110	-65.758	111.184	-121.373	86.673	134.419	123.300	101.900	-127.641	85.698	-110.654	102.712	208.504	-12.215	-43.759	0.00052946	0.00067072	0.00016488	1343.2	2.7388e-06	5.8115e-06	1341.9	368.17	2.8571e-06	4.0626e-06	422.08	140.77	122.65	42.066	6.061e-06	52.335	0.00089664	0.0010265	0.00030496	1357.2	1.1076e-05	1.2074e-05	1360.4	376.12	1.1162e-05	1.1585e-05	431.91	144.87	125.64	43.25	1.1469e-05	53.96	172.004	-65.112	-38.443	-129.372	-17.193	7.743	-129.714	-125.215	-47.347	52.337	-125.808	-121.751	-121.235	-116.217	-40.684	-117.030	-8191	255	
787.465	1	1	0	0	0.11986	0.22644	0.077067	0.12679	0.21443	0.2755	0.11643	0.15616	0.13709	0.1644	0.10701	0.12416	0.21122	0.17024	0.079996	0.16796	-3.0625	-4.1771	-3.5917	-3.9813	-4.1292	-3.2875	-4.2604	-3.8979	-3.3542	-4.3625	-3.6875	-3.8354	-4.2604	-3.5208	-3.9083	-3.8375	28.313	76.255	45.027	123.453	123.735	-60.397	197.567	-110.674	-119.413	-27.777	211.108	-131.015	142.084	-68.702	113.102	57.706	0.00056171	0.00045018	0.00014708	1337	2.1598e-06	6.0288e-06	1328.7	368.25	4.1429e-06	5.5688e-06	422.03	141.23	122.49	41.934	4.3543e-06	52.012	0.00088324	0.0010668	0.0002902	1353.7	1.0825e-05	1.1773e-05	1354.1	375.24	1.098e-05	1.1281e-05	431.78	144.69	125.38	43.195	1.0972e-05	53.826	165.762	-84.487	-32.788	-129.526	-24.011	42.767	-129.899	-125.220	-40.307	-8.411	-125.779	-121.622	-121.323	-116.286	-25.276	-116.832	-8191	255	
787.561	1	1	0	0	0.15259	0.2373	0.05841	0.14649	0.057058	0.15945	0.15702	0.25009	0.3308	0.21126	0.17116	0.22534	0.25787	0.03357	0.11866	0.094016	-2.9625	-4.0896	-3.4813	-3.9083	-4.2063	-3.2667	-4.0125	-4.0896	-3.3	-4.0521	-3.8104	-3.6312	-4.225	-3.3854	-3.9313	-4.1188	160.573	208.805	1.056	130.947	169.488	171.082	0.476	152.231	-75.027	-42.711	137.147	139.513	182.256	67.559	-108.596	205.285	0.00051748	0.00034363	0.00015416	1333.9	3.9112e-06	4.6886e-06	1333	367.61	5.6768e-06	5.6743e-06	422.92	140.91	122.66	41.913	4.3477e-06	52.233	0.00088043	0.0010309	0.00028441	1350.9	1.0877e-05	1.122e-05	1353.4	374.96	1.1118e-05	1.1211e-05	430.96	144.44	125.4	43.141	1.1288e-05	53.761	166.324	-90.690	-36.618	-129.574	-24.989	5.218	-129.758	-125.240	-46.865	-12.157	-125.843	-121.716	-121.146	-116.204	-14.950	-116.712	-8191	255	
787.656	1	1	0	0	0.33104	0.1531	0.013695	0.16982	0.061375	0.18386	0.0861	0.15695	0.059573	0.20791	0.29567	0.27923	0.16533	0.19021	0.13447	0.15866	-2.9042	-3.9229	-3.6917	-3.6292	-3.9667	-3.5021	-4.0833	-4.0813	-3.2542	-4.1458	-3.7354	-3.3833	-4.1146	-3.4604	-3.8937	-4.2667	25.479	212.009	-116.006	-115.270	-62.560	-119.829	187.285	150.339	188.590	-6.667	73.706	144.755	205.569	154.966	-141.311	-88.571	0.0005123	0.000676	0.00012229	1327.8	3.9519e-06	6.8717e-06	1326.7	366.75	6.8523e-06	8.2813e-06	422.14	140.52	121.83	41.861	3.7608e-06	52.31	0.00086395	0.001019	0.00027733	1345.5	1.0454e-05	1.0961e-05	1350	374.15	1.0987e-05	1.1e-05	430.59	144.11	124.78	42.983	1.0737e-05	53.732	168.992	-73.655	-57.266	-129.556	-19.298	12.433	-129.805	-125.213	-32.705	21.506	-125.883	-121.789	-121.152	-116.324	-44.918	-116.692	-8191	255	
787.776	1	1	0	0	0.10256	0.12525	0.18684	0.2259	0.037048	0.15418	0.077656	0.042698	0.053439	0.18354	0.11895	0.29593	0.10174	0.17371	0.072847	0.23116	-2.9271	-4.0417	-3.8208	-3.5583	-4.175	-3.5438	-3.8542	-4.1458	-3.3187	-4.0375	-4	-3.2542	-4.3271	-3.5042	-3.5187	-4.1562	-89.359	80.592	121.486	164.511	98.439	91.828	-79.224	166.614	-64.914	11.498	-24.774	112.930	92.488	-102.878	115.371	157.846	0.00047736	0.00050465	0.00016059	1331.5	3.3588e-06	5.2738e-06	1323.6	365.8	5.5478e-06	4.9332e-06	421.3	139.98	121.13	41.894	4.7133e-06	51.997	0.0008453	0.0009971	0.00027579	1344.1	1.0113e-05	1.0758e-05	1345.8	373.06	1.0492e-05	1.0518e-05	429.14	143.79	124.58	43.029	1.0895e-05	53.641	174.719	-76.897	-72.269	-129.689	-7.749	9.624	-129.815	-125.204	-42.531	10.625	-125.405	-121.587	-121.114	-116.271	-6.112	-116.771	-8191	255	
787.873	1	1	0	0	0.21203	0.24314	0.09395	0.12091	0.14854	0.14397	0.15485	0.46514	0.14375	0.20055	0.098038	0.065142	0.13044	0.24384	0.12589	0.13329	-2.9354	-3.9313	-3.6875	-3.5271	-4.1667	-3.4917	-3.5896	-4.2917	-3.3271	-3.85	-4.0396	-3.4417	-4.1208	-3.6667	-3.4396	-4.1604	172.269	36.336	-73.605	171.653	-98.121	-136.646	206.908	176.062	104.971	21.478	75.821	160.676	157.250	135.486	-40.241	119.931	0.00047079	0.00055995	0.0001269	1322.6	1.5482e-06	6.3329e-06	1322.3	365.54	5.3165e-06	6.2294e-06	422.8	140.48	121.83	41.88	4.469e-06	52.001	0.00084738	0.00098287	0.00027174	1340.1	1.0367e-05	1.1034e-05	1346.7	373.25	1.0604e-05	1.0921e-05	429.81	143.99	124.94	42.998	1.0786e-05	53.66	171.618	-77.764	-48.382	-129.539	-13.189	15.624	-129.659	-125.152	-44.445	-10.043	-125.269	-121.951	-121.253	-115.967	-26.819	-116.893	-8191	255	
787.969	1	1	0	0	0.27922	0.14872	0.095465	0.1545	0.061925	0.10369	0.31417	0.2289	0.064011	0.21591	0.21058	0.11915	0.35049	0.085393	0.082813	0.21105	-2.9542	-3.6333	-3.9479	-3.4021	-3.9021	-3.8812	-3.6792	-4.2812	-3.4854	-3.7479	-4.1021	-3.4562	-4.1646	-3.9125	-3.3229	-4.1188	-128.337	216.389	27.656	-99.082	72.087	-109.863	152.320	162.131	47.827	53.204	148.042	180.712	175.268	-85.518	-90.914	-136.119	0.0004849	0.0007088	0.00011429	1315.3	4.1737e-06	6.6141e-06	1319.5	366.49	5.9924e-06	3.734e-06	419.78	140.42	121.57	41.615	4.4351e-06	52.035	0.00083339	0.00099612	0.00027113	1337.2	1.0155e-05	1.0711e-05	1343.5	372.76	1.0333e-05	1.0702e-05	428.64	143.78	124.75	42.846	1.0583e-05	53.593	171.467	-47.881	-45.852	-129.339	-23.309	-4.897	-129.646	-125.002	-35.940	-4.792	-125.394	-121.631	-120.729	-116.132	-32.573	-116.747	-8191	255	
788.065	1	1	0	0	0.16718	0.21534	0.22408	0.1156	0.05156	0.13969	0.084398	0.15492	0.25817	0.097613	0.16796	0.13603	0.27079	0.1971	0.053547	0.091293	-3.1354	-3.4917	-4.0292	-3.5042	-3.975	-3.9062	-3.4521	-4.2458	-3.5604	-3.5521	-4.2083	-3.5396	-3.8958	-4.1396	-3.4604	-4.0646	177.021	-30.697	116.669	-142.938	6.869	65.729	213.344	102.508	-2.854	-34.164	-35.328	148.441	-113.792	208.674	214.071	102.014	0.0004945	0.00070275	8.3771e-05	1318.6	4.4475e-06	7.9441e-06	1316.4	366.49	3.6849e-06	5.1593e-06	420.85	140.01	121.87	41.784	4.7695e-06	51.729	0.00082045	0.00099629	0.00026354	1335.1	1.0142e-05	1.0424e-05	1339.4	372.74	9.9684e-06	1.0608e-05	428.26	143.53	124.57	42.943	1.0404e-05	53.451	170.343	-71.699	-41.661	-129.515	-38.551	21.156	-129.624	-124.992	-41.072	-23.746	-125.367	-121.397	-120.881	-115.987	-28.376	-116.544	-8191	255	
788.136	1	1	0	0	0.21255	0.19457	0.21287	0.25341	0.11385	0.13389	0.24243	0.11554	0.25829	0.11516	0.11836	0.2932	0.33114	0.23668	0.085962	0.23281	-3.2896	-3.5875	-3.9375	-3.6188	-3.775	-3.8563	-3.4958	-4.2833	-3.5583	-3.5646	-4.2562	-3.4938	-3.8563	-4.0979	-3.3104	-4.1021	69.734	72.864	-98.585	198.227	88.565	65.865	156.551	209.812	-112.406	165.790	140.693	205.586	124.366	-85.629	-50.972	127.276	0.00051912	0.00028432	0.00015444	1319.7	3.9838e-06	5.3688e-06	1318.4	365.27	3.5434e-06	4.0757e-06	417.99	139.91	121.19	41.914	8.0286e-06	52.079	0.0008152	0.00096584	0.00026765	1336.7	1.0088e-05	1.0304e-05	1341	372.12	1.0175e-05	1.0413e-05	427.82	143.52	124.21	42.872	1.0353e-05	53.544	170.088	-63.948	-40.037	-129.482	-18.997	16.106	-129.594	-124.840	-49.586	-28.971	-125.223	-121.930	-120.680	-116.140	-33.985	-116.520	-8191	255	
788.257	1	1	0	0	0.12883	0.023111	0.32448	0.47349	0.16977	0.082681	0.10444	0.16806	0.15379	0.23251	0.098651	0.13053	0.078859	0.12913	0.11377	0.18999	-3.2708	-3.4396	-4.025	-3.7667	-3.6979	-4.1062	-3.3667	-3.9771	-3.9083	-3.525	-4.3667	-3.5292	-3.6417	-4.25	-3.2854	-4.1396	4.064	-138.989	-55.365	203.467	14.838	141.299	135.359	210.687	-15.006	-43.631	116.774	151.004	-102.538	-94.943	-20.809	161.552	0.00047367	0.00066067	0.00016791	1323	2.7857e-06	4.3682e-06	1317.9	364.86	4.8301e-06	4.9698e-06	419.61	139.7	121.29	41.826	4.1584e-06	51.782	0.00081458	0.00097027	0.00026112	1334.6	9.9512e-06	1.0305e-05	1337.7	371.62	1.0025e-05	1.0379e-05	427.86	143.4	124.29	42.826	1.0179e-05	53.481	170.543	-84.004	-64.002	-129.295	-1.768	7.098	-129.613	-124.790	-24.371	-13.911	-125.215	-121.460	-120.823	-115.923	-29.631	-116.672	-8191	255	
788.353	1	1	0	0	0.035019	0.12335	0.096897	0.45932	0.042911	0.12515	0.10656	0.12324	0.2133	0.091181	0.16757	0.23214	0.15618	0.24606	0.08499	0.14107	-3.4125	-3.2729	-4.0229	-3.8167	-3.5604	-4.2479	-3.6521	-3.9042	-4.1042	-3.3187	-4.3125	-3.8271	-3.4646	-4.2542	-3.3458	-3.9854	204.728	-122.413	70.736	177.970	-67.958	85.928	142.660	186.128	18.941	207.425	-114.359	182.452	212.972	179.149	-84.965	157.615	0.00051808	0.00051543	0.00017389	1315.6	2.7842e-06	6.9443e-06	1319.1	365.35	4.9841e-06	4.9814e-06	419.42	140.25	121	41.725	6.1182e-06	51.788	0.00080933	0.00095575	0.00025739	1332.7	1.0073e-05	1.0505e-05	1338	371.99	9.7381e-06	1.039e-05	427.54	143.32	123.99	42.739	1.0214e-05	53.472	174.126	-63.015	-62.058	-129.419	-27.619	37.058	-129.567	-124.902	-57.391	4.368	-125.156	-121.574	-121.023	-116.119	-4.231	-116.463	-8191	255	
788.449	1	1	0	0	0.11002	0.056248	0.15116	0.20481	0.038735	0.19689	0.23275	0.12938	0.28197	0.13325	0.28444	0.36368	0.030528	0.20558	0.26901	0.16357	-3.6042	-3.3896	-4.0542	-3.7958	-3.3583	-4.1833	-3.6833	-3.9896	-3.9604	-3.3604	-4.1292	-3.9208	-3.5667	-4.2604	-3.4875	-3.6958	144.649	-25.399	48.218	-134.480	-72.859	157.845	-124.063	-130.188	62.254	-57.548	137.709	204.646	-113.421	-83.608	84.481	216.300	0.00051215	0.00055788	0.00014919	1318	4.3424e-06	4.8267e-06	1316.5	363.18	4.5593e-06	5.9719e-06	421.84	140.16	121.35	41.728	6.156e-06	51.94	0.00079315	0.00094904	0.00025903	1333.4	9.7671e-06	1.0286e-05	1335.8	371.25	9.8137e-06	1.0122e-05	427.75	143.23	124.14	42.848	1.0242e-05	53.453	168.063	-57.832	-39.681	-129.402	-18.179	32.631	-129.514	-124.809	-39.614	-4.147	-125.207	-121.557	-120.980	-115.554	-7.703	-116.471	-8191	255	
788.570	1	1	0	0	0.22699	0.17992	0.14316	0.26793	0.13566	0.15058	0.26673	0.15839	0.23528	0.18942	0.12775	0.27881	0.27614	0.13198	0.21748	0.16512	-3.5458	-3.3375	-3.9417	-4.0167	-3.3021	-4.4125	-3.7562	-3.7396	-4.0583	-3.4646	-4.0146	-4.0208	-3.475	-4.3125	-3.6188	-3.6833	-57.477	-84.385	155.917	182.467	49.119	-25.834	149.165	216.092	199.447	66.721	1.030	83.696	191.538	146.659	-112.116	155.592	0.0004954	0.00034252	0.0001872	1315	3.8708e-06	7.2371e-06	1312.4	364.87	3.1549e-06	5.078e-06	419.12	139.39	120.71	41.592	5.9304e-06	51.779	0.00079189	0.00094787	0.00026738	1331.8	9.9334e-06	1.0388e-05	1334.4	371.29	9.8901e-06	1.0666e-05	427.66	143.01	123.98	42.741	1.0274e-05	53.387	166.679	-74.284	-60.567	-129.382	-71.520	-2.114	-129.437	-124.599	-36.418	23.308	-125.076	-121.441	-120.906	-115.643	-10.186	-116.563	-8191	255	
788.664	1	1	0	0	0.26702	0.10822	0.1254	0.081247	0.26341	0.19635	0.16176	0.32215	0.15974	0.14157	0.037394	0.42344	0.21429	0.11396	0.18641	0.17902	-3.7646	-3.4604	-3.9167	-4.1854	-3.4708	-4.1521	-3.8708	-3.5083	-4.2042	-3.5062	-3.9229	-4.0833	-3.4208	-4.225	-3.8563	-3.5	-68.260	-14.719	2.626	94.700	53.129	2.795	139.258	196.104	98.753	-120.426	189.877	130.636	-135.399	216.878	51.040	193.168	0.00052473	0.00078784	0.00013866	1316.6	4.2485e-06	4.1037e-06	1311.9	364.61	4.751e-06	4.7006e-06	418.81	139.85	120.76	41.561	3.6543e-06	51.879	0.00078891	0.00096925	0.00026602	1330.9	1.0239e-05	1.0423e-05	1334.7	371.46	9.981e-06	1.0653e-05	427.55	143.6	123.99	42.769	1.0358e-05	53.458	175.600	-63.285	-56.042	-129.332	-30.942	13.915	-129.593	-124.739	-51.077	8.218	-125.117	-121.165	-121.038	-116.047	-10.409	-116.337	-8191	255	
788.738	1	1	0	0	0.10341	0.17486	0.14308	0.13477	0.032893	0.16284	0.12412	0.093233	0.17991	0.19905	0.081308	0.26582	0.19921	0.33727	0.098302	0.098025	-3.8812	-3.4	-3.7708	-4.275	-3.4375	-3.8521	-4.1396	-3.5396	-4.0813	-3.3438	-3.8417	-4.2583	-3.225	-4.1354	-4.0229	-3.3771	-13.965	6.104	136.891	187.344	-74.497	127.027	140.589	143.013	36.116	139.915	-125.801	-48.517	210.996	172.079	-135.640	-126.578	0.00051574	0.00078573	0.00019556	1309	1.9473e-06	7.677e-06	1311	362.68	3.8753e-06	5.2967e-06	419.27	139.89	121.51	41.843	4.2714e-06	51.908	0.00080373	0.00097364	0.00026851	1330.2	1.0111e-05	1.0537e-05	1335	370.63	1.0075e-05	1.0744e-05	426.99	143.37	124.2	42.83	1.0204e-05	53.474	167.821	-57.906	-63.779	-129.379	26.576	19.726	-129.741	-124.880	-28.556	31.791	-125.355	-121.585	-120.980	-115.850	-6.938	-116.381	-8191	255	
788.857	1	1	0	0	0.14496	0.092715	0.19744	0.47877	0.081335	0.19032	0.30592	0.089394	0.048973	0.054808	0.047365	0.24014	0.040982	0.075829	0.031681	0.30202	-3.7062	-3.575	-3.5458	-4.2021	-3.3583	-3.8958	-4.0792	-3.5292	-4.0375	-3.6042	-3.7458	-4.2375	-3.4542	-4	-3.8688	-3.4562	39.244	-115.594	-122.092	204.721	211.936	192.574	213.686	178.845	-132.535	-57.655	-22.577	-139.853	-58.452	110.588	-56.705	145.037	0.00051651	0.00082167	0.00012788	1309.4	3.2667e-06	3.657e-06	1315.3	365.06	4.6713e-06	6.3598e-06	420.68	138.98	121.19	41.503	4.574e-06	51.811	0.00080643	0.00097649	0.00027072	1327.2	9.8817e-06	1.0487e-05	1335.3	371.35	1.0143e-05	1.0397e-05	427.36	143.14	124.23	42.79	1.0288e-05	53.457	167.702	-51.255	-59.597	-129.334	0.213	15.915	-129.768	-125.107	-39.493	-15.271	-125.316	-121.355	-121.258	-115.923	-5.944	-116.493	-8191	255	
788.953	1	1	0	0	0.028799	0.079017	0.14488	0.21042	0.19865	0.022229	0.42122	0.16002	0.1712	0.24039	0.06265	0.16667	0.15453	0.10036	0.23548	0.28493	-3.7646	-3.4896	-3.5292	-4.2333	-3.4667	-3.8417	-4.1687	-3.4958	-4.1542	-3.6354	-3.5104	-4.3896	-3.5687	-3.6917	-3.95	-3.5375	-80.761	55.521	191.620	-107.774	-88.995	134.954	126.538	145.365	98.252	-43.327	180.079	-31.180	-52.239	68.054	-4.990	172.340	0.00048719	0.00042494	0.00017433	1314.1	6.5913e-06	4.4543e-06	1311.1	364.39	5.7802e-06	4.8121e-06	418.89	139.44	120.95	41.771	6.739e-06	51.316	0.0008021	0.0009651	0.00027056	1329.1	1.0132e-05	1.0541e-05	1334.6	370.89	9.8347e-06	1.0388e-05	427.1	143.21	123.84	42.857	9.8196e-06	53.189	176.298	-44.985	-53.542	-129.189	-29.831	9.183	-129.602	-125.025	-60.893	-2.729	-125.530	-121.421	-121.025	-115.829	3.715	-116.697	-8191	255	
789.049	1	1	0	0	0.13014	0.053481	0.1358	0.066454	0.035335	0.24826	0.24024	0.13546	0.022394	0.29222	0.26329	0.348	0.21629	0.29381	0.067473	0.12353	-3.6979	-3.7021	-3.35	-4.35	-3.6146	-3.5687	-4.2896	-3.4688	-3.85	-3.7958	-3.4604	-4.0625	-3.6208	-3.6479	-4.2104	-3.3937	61.067	100.066	-101.311	101.695	33.595	-95.590	182.848	145.572	163.532	195.424	76.018	157.815	202.993	212.078	46.109	183.889	0.00050213	0.00055479	0.00010869	1313.4	2.4678e-06	4.6478e-06	1310.7	362.64	4.6056e-06	7.5205e-06	417.81	139.44	121.02	41.702	3.9818e-06	51.957	0.00079251	0.00094864	0.00026689	1329.1	1.0006e-05	1.0566e-05	1333.1	370.12	1.0031e-05	1.0443e-05	427.74	142.94	124.07	42.762	9.9383e-06	53.408	170.309	-38.390	-33.102	-129.384	-26.577	17.474	-129.463	-124.953	-14.409	5.476	-125.250	-121.590	-120.937	-115.873	-25.114	-116.579	-8191	255	
789.170	1	1	0	0	0.24203	0.11998	0.068063	0.31817	0.16458	0.50724	0.31656	0.13749	0.09341	0.32594	0.14134	0.04498	0.13937	0.30295	0.10243	0.069349	-3.4875	-3.8542	-3.2292	-4.1604	-3.6312	-3.5375	-4.2708	-3.4958	-3.7854	-3.9688	-3.3667	-4.1375	-3.8792	-3.5042	-4.1125	-3.5271	188.932	181.804	-73.811	183.248	63.715	174.872	104.047	137.956	13.477	36.951	19.862	194.678	-133.373	200.722	-110.978	201.108	0.00052267	0.00047885	0.00014668	1314.4	2.7961e-06	6.5559e-06	1310.4	364.62	3.308e-06	6.2703e-06	419.54	139.38	121.28	41.584	3.9847e-06	51.97	0.00079382	0.00092217	0.00026436	1329	9.5141e-06	1.0504e-05	1331.1	371.49	9.9159e-06	1.0187e-05	427.2	143.11	124.11	42.752	1.0054e-05	53.346	170.752	-46.780	-54.265	-129.300	-6.750	18.970	-129.622	-125.017	-54.386	9.583	-125.390	-121.561	-120.884	-115.813	-19.051	-116.757	-8191	255	
789.266	1	1	0	0	0.2589	0.20109	0.15966	0.37289	0.1034	0.18279	0.26449	0.10959	0.20623	0.026968	0.20575	0.14272	0.11971	0.078423	0.060822	0.25475	-3.3958	-4.0521	-3.3708	-4.075	-3.7062	-3.425	-4.2604	-3.5896	-3.5875	-4.0312	-3.5333	-4.1208	-3.8458	-3.5792	-4.1479	-3.6208	-7.906	153.999	34.500	171.496	85.748	134.905	85.416	38.570	-69.988	204.291	111.079	-64.128	-137.046	-50.996	195.542	128.962	0.00052663	0.00049703	0.00013332	1310.6	4.2322e-06	5.2411e-06	1312.1	362.07	3.9143e-06	6.1749e-06	417.8	139.43	120.38	41.534	4.1884e-06	51.705	0.00078881	0.00091949	0.00026272	1327.3	9.6953e-06	1.0248e-05	1331.5	370.02	1.009e-05	1.0328e-05	426.87	142.96	123.71	42.723	9.9802e-06	53.338	171.454	-37.923	-63.239	-129.262	-23.787	-0.114	-129.731	-125.080	-42.310	-14.202	-125.490	-121.436	-121.210	-115.917	8.866	-116.726	-8191	255	
789.362	1	1	0	0	0.061467	0.091564	0.1445	0.1871	0.21191	0.23007	0.27389	0.232	0.081998	0.25773	0.16076	0.12462	0.29028	0.064916	0.16792	0.16041	-3.3333	-4.0563	-3.4875	-4.1667	-3.8125	-3.3333	-4.3458	-3.7229	-3.475	-4.1521	-3.5125	-3.8917	-4.0646	-3.5104	-4.2146	-3.9208	179.940	181.342	-19.894	159.054	148.316	205.934	74.204	205.979	-141.190	64.755	99.185	133.119	215.707	22.520	100.397	109.024	0.00052643	0.0004469	0.0002394	1306.6	4.3496e-06	7.6633e-06	1308.1	363.69	3.9584e-06	3.2663e-06	421.66	139.39	121.21	41.45	5.7525e-06	51.699	0.00080221	0.00091522	0.00026572	1326	9.7671e-06	1.0421e-05	1331.8	370.19	1.0045e-05	1.013e-05	427.33	143.14	124.04	42.726	1.026e-05	53.383	169.329	-50.059	-60.168	-129.349	-1.064	3.524	-129.653	-125.040	-45.476	13.437	-125.418	-121.597	-121.230	-116.128	33.760	-116.907	-8191	255	
789.434	1	1	0	0	0.049145	0.14899	0.081709	0.16794	0.26593	0.22676	0.35309	0.21242	0.31539	0.16561	0.12615	0.071479	0.046119	0.1055	0.2968	0.067186	-3.125	-4.1354	-3.2625	-4.0938	-3.7667	-3.3354	-4.2354	-3.6312	-3.5563	-4.1021	-3.6083	-3.9417	-4.1625	-3.3979	-4.0167	-3.8646	-93.755	98.306	39.728	-72.203	14.204	-34.075	194.488	169.971	45.890	127.707	216.444	163.382	-86.699	-125.801	-122.597	132.878	0.00049135	0.00051945	0.0001396	1311.6	2.8894e-06	4.9423e-06	1307.4	362.8	3.5064e-06	7.61e-06	419.45	139.36	121.12	41.411	4.6938e-06	51.628	0.00080342	0.0009403	0.00026284	1326.5	9.8055e-06	1.0257e-05	1332	370.08	9.8387e-06	1.0361e-05	427.03	143.01	124	42.708	1.0097e-05	53.174	170.295	-40.152	-60.155	-129.710	-49.382	12.898	-129.860	-125.077	-38.865	13.295	-125.689	-121.790	-121.168	-116.190	-24.270	-116.821	-8191	255	
789.553	1	1	0	0	0.16785	0.12422	0.20337	0.18467	0.029175	0.29102	0.16105	0.32512	0.32779	0.082188	0.058937	0.15592	0.22186	0.076549	0.24207	0.19951	-3.1146	-4.0104	-3.3187	-3.9083	-4.1375	-3.4	-3.9979	-4.0062	-3.3646	-4.0771	-3.7125	-3.8375	-4.1708	-3.3896	-4.1687	-4.0917	-48.618	127.850	-26.360	208.846	31.451	-123.981	134.638	142.317	161.183	-73.704	109.149	165.106	-95.668	-122.233	-113.899	144.307	0.00052159	0.00050846	0.0001617	1312.7	4.3172e-06	5.3391e-06	1308.2	363.11	6.1538e-06	6.6816e-06	417.96	139.18	120.87	41.529	5.5207e-06	51.736	0.00081075	0.00091616	0.00026674	1327.3	9.914e-06	1.042e-05	1332.2	370.43	9.9902e-06	1.0352e-05	427.21	143.09	123.84	42.687	1.0087e-05	53.31	168.765	-59.816	-60.221	-129.556	-26.128	36.784	-129.738	-125.218	-37.609	-17.173	-125.435	-121.716	-121.309	-116.326	-4.602	-116.809	-8191	255	
789.649	1	1	0	0	0.155	0.2492	0.13868	0.36388	0.15321	0.28124	0.19542	0.30911	0.11319	0.14573	0.19945	0.14754	0.2541	0.20126	0.12152	0.23431	-2.8729	-3.9729	-3.6167	-3.8104	-4.2646	-3.4437	-4.0854	-4.175	-3.3812	-3.9437	-3.6479	-3.6562	-4.1875	-3.5312	-3.9062	-4.2167	98.808	113.946	-66.972	112.466	-52.620	52.463	209.748	151.916	116.895	98.666	-118.999	127.590	215.376	158.360	118.606	168.178	0.00054042	0.00054841	0.00017241	1310.4	4.2507e-06	6.9452e-06	1308	363.3	3.7956e-06	4.9016e-06	419.74	139.7	121.12	41.652	3.5471e-06	51.712	0.00081556	0.00095002	0.00026159	1326.8	9.8547e-06	1.0265e-05	1331.5	370.49	1.0124e-05	1.0169e-05	427.4	143.17	124.32	42.679	1.0095e-05	53.241	167.345	-81.094	-58.780	-129.587	-31.548	29.967	-129.735	-125.284	-39.171	3.478	-125.748	-121.526	-121.291	-116.229	-12.587	-117.037	-8191	255	
789.745	1	1	0	0	0.16595	0.18386	0.24567	0.1692	0.13359	0.12731	0.31692	0.16105	0.10522	0.28136	0.31846	0.0081051	0.083259	0.21513	0.31507	0.10562	-2.9854	-4.1021	-3.7521	-3.5083	-4.1958	-3.6167	-4.0604	-4.2	-3.2854	-3.9208	-4.0917	-3.5104	-4.3313	-3.4625	-3.7458	-4.1937	-58.815	-7.487	-82.303	207.585	-105.334	-112.593	201.619	95.813	-12.751	172.915	180.214	7.062	195.986	-134.176	-130.531	56.263	0.00050068	0.00078888	0.00012413	1309.1	6.2207e-06	7.7842e-06	1309.1	364.05	4.848e-06	2.4759e-06	418.61	139.04	120.51	41.674	5.173e-06	51.853	0.00079866	0.0009216	0.00026193	1327.4	9.7094e-06	1.0174e-05	1332.4	371.1	9.9074e-06	1.015e-05	426.94	142.88	123.91	42.673	1.0171e-05	53.381	164.301	-49.368	-50.934	-129.381	-26.814	8.845	-129.726	-125.112	-50.218	17.554	-125.549	-121.584	-121.039	-116.149	2.500	-116.786	-8191	255	
789.841	1	1	0	0	0.10896	0.32546	0.12301	0.16085	0.086186	0.28338	0.28721	0.13159	0.086785	0.13491	0.074679	0.30077	0.14092	0.091063	0.0059958	0.135	-2.9542	-3.9062	-3.8542	-3.6813	-4.1937	-3.4354	-3.7417	-4.2708	-3.2729	-4.0208	-4.1958	-3.4833	-4.1667	-3.8187	-3.5062	-4.2854	-5.075	-115.379	81.991	136.208	197.949	79.536	147.064	102.506	11.246	-14.114	90.511	123.024	-75.712	-125.631	-64.349	97.320	0.00055107	0.00036102	0.00017307	1313.8	3.5957e-06	7.5305e-06	1309.5	363.21	6.2336e-06	4.8368e-06	417.27	139.78	121.5	41.254	4.7841e-06	51.879	0.00080802	0.00093091	0.00026384	1326.8	9.6246e-06	1.027e-05	1333.5	370.67	9.6792e-06	1.0086e-05	426.29	143.22	124.16	42.553	9.778e-06	53.326	168.459	-54.429	-63.773	-129.611	-32.771	7.428	-129.867	-125.185	-43.435	4.567	-125.463	-121.631	-121.114	-116.118	-5.569	-116.635	-8191	255	
789.962	1	1	0	0	0.23006	0.12295	0.12751	0.092736	0.20483	0.090029	0.088726	0.14331	0.13822	0.16669	0.078191	0.21197	0.13717	0.096187	0.082085	0.21841	-3.0292	-3.8979	-4.05	-3.5646	-4.1062	-3.7729	-3.6958	-4.3229	-3.4333	-3.8958	-4.1125	-3.4021	-4.2458	-3.7438	-3.2542	-4.2688	208.190	-115.457	11.264	145.689	142.021	-7.965	-137.481	165.049	125.067	-68.936	30.431	164.984	168.287	153.733	156.010	201.619	0.00052004	0.0007278	0.00013414	1309.2	2.7779e-06	5.7533e-06	1310.9	362.88	3.9004e-06	4.7495e-06	420.1	139.44	120.82	41.454	4.9976e-06	51.594	0.00079408	0.00092534	0.00024494	1325.2	9.4781e-06	9.9278e-06	1332.7	370.53	9.7317e-06	1.0039e-05	427.09	142.94	123.93	42.492	9.8395e-06	53.229	168.037	-66.585	-65.805	-129.551	-27.612	16.766	-129.860	-125.084	-20.630	43.662	-125.596	-121.532	-121.167	-116.234	6.579	-116.861	-8191	255	
790.033	1	1	0	0	0.20871	0.2393	0.22439	0.18849	0.18491	0.1407	0.3827	0.23019	0.34673	0.18191	0.32126	0.14582	0.14955	0.27585	0.12489	0.25202	-2.9917	-3.8729	-4.225	-3.5417	-3.9083	-4.0188	-3.5812	-4.375	-3.5208	-3.6708	-4.1521	-3.5875	-4.1667	-3.8708	-3.3354	-4.3479	133.518	116.650	10.393	169.901	84.290	210.758	164.999	142.924	65.311	131.639	175.174	87.408	99.946	145.574	66.776	207.832	0.00051018	0.00052605	0.00012775	1307.7	1.0294e-06	8.5099e-06	1307.3	362.87	3.3666e-06	4.2798e-06	418.51	139.14	121.15	41.417	4.2847e-06	51.755	0.00079022	0.00091766	0.00025149	1322.9	9.3478e-06	9.9197e-06	1330	370.6	9.4073e-06	1.01e-05	426.72	142.93	123.82	42.569	9.7844e-06	53.297	170.546	-48.233	-48.448	-129.676	-22.736	5.813	-129.693	-125.171	-22.323	17.657	-125.504	-121.646	-120.917	-116.192	-15.885	-116.530	-8191	255	
790.129	1	1	0	0	0.096778	0.2588	0.095109	0.37196	0.084362	0.26399	0.24208	0.24225	0.14702	0.14253	0.11157	0.29178	0.1963	0.11974	0.12458	0.16481	-3.1375	-3.5167	-4.0667	-3.5812	-3.9417	-4.1	-3.4604	-4.0771	-3.6042	-3.5792	-4.075	-3.4521	-3.9062	-4.1438	-3.2604	-4.1979	150.560	173.337	30.036	143.241	50.888	67.452	-84.812	169.360	-86.823	38.044	-115.317	128.825	140.608	-107.717	59.419	22.649	0.00048798	0.00050102	0.00012098	1309.3	5.4013e-06	4.6385e-06	1306.9	363.46	4.707e-06	4.9817e-06	417.77	139.52	120.92	41.5	4.609e-06	51.726	0.00077545	0.00092286	0.00024975	1324.5	9.3797e-06	1.0003e-05	1327.7	370.31	9.4444e-06	1.0252e-05	425.94	142.85	124.02	42.575	9.87e-06	53.248	171.570	-37.919	-36.399	-129.434	-12.673	-4.370	-129.702	-125.036	-39.783	11.453	-125.569	-121.667	-120.870	-115.915	-0.474	-116.834	-8191	255	
790.250	1	1	0	0	0.14998	0.063203	0.084709	0.27875	0.17557	0.1095	0.073354	0.076526	0.13405	0.2172	0.22861	0.18465	0.068884	0.19415	0.13569	0.26418	-3.2521	-3.4875	-4.2021	-3.6396	-3.6333	-4.1729	-3.5854	-4.2583	-3.7854	-3.5479	-4.1208	-3.425	-3.85	-3.9833	-3.4583	-4.1667	-84.185	-22.369	194.859	109.564	-26.165	93.128	57.313	-92.666	161.164	39.404	133.009	157.606	203.206	200.245	73.307	188.331	0.00052174	0.00052061	0.00019267	1309.9	3.4255e-06	5.0421e-06	1311.4	362.5	4.2681e-06	5.6868e-06	419.3	139.57	121.19	41.503	5.0468e-06	51.62	0.00076758	0.00091628	0.00025138	1324.9	9.4975e-06	9.8632e-06	1329.4	369.98	9.4751e-06	1.0087e-05	426.29	143.03	123.92	42.556	1.0052e-05	53.222	171.058	-64.465	-56.081	-129.473	3.164	23.675	-129.781	-124.875	-61.511	-12.039	-125.445	-121.350	-120.956	-116.239	-14.676	-116.490	-8191	255	
790.346	1	1	0	0	0.043025	0.27635	0.10189	0.23455	0.064826	0.099713	0.27758	0.10227	0.056171	0.18777	0.1987	0.061439	0.2382	0.14829	0.16755	0.29173	-3.3563	-3.3646	-4.1583	-3.7604	-3.6979	-4.25	-3.5833	-4.0208	-3.8208	-3.4333	-4.0917	-3.7021	-3.8	-4.2896	-3.2562	-4.0146	7.242	-49.559	53.112	-58.160	-94.305	192.033	100.915	157.292	-113.521	117.572	-115.135	-7.189	161.298	197.924	22.841	138.096	0.00048674	0.00064693	0.00016036	1302.6	3.0416e-06	7.6948e-06	1308.5	362.94	3.23e-06	6.986e-06	417.83	139.36	120.77	41.411	4.9669e-06	51.507	0.00078142	0.0009364	0.00025373	1322.1	9.9302e-06	1.0153e-05	1328.5	369.84	9.6279e-06	1.0458e-05	426.31	142.68	123.74	42.611	1.0129e-05	53.304	174.654	-24.986	-60.577	-129.563	-22.172	-8.524	-129.545	-124.816	-33.536	8.002	-125.261	-121.655	-120.594	-116.025	-14.912	-116.509	-8191	255	
790.442	1	1	0	0	0.1871	0.10879	0.25846	0.16338	0.08891	0.071214	0.17488	0.21175	0.11056	0.12234	0.04196	0.096897	0.1627	0.065678	0.049888	0.12056	-3.6375	-3.5	-4.0875	-3.7188	-3.6667	-4.1625	-3.7146	-4.0146	-3.9875	-3.4437	-4.1729	-3.7687	-3.5062	-4.3458	-3.4583	-3.8333	-100.262	137.343	127.723	157.778	54.100	-99.356	210.207	207.802	17.847	-62.297	163.963	-82.477	-125.236	61.081	148.592	-83.507	0.00052554	0.00051768	0.00018674	1305.5	4.8572e-06	5.1296e-06	1306	362.48	4.8294e-06	5.6679e-06	416.47	138.61	120.59	41.442	5.5765e-06	51.465	0.00079382	0.00092278	0.0002587	1321.4	1.003e-05	1.0469e-05	1326.5	370.1	9.5196e-06	1.03e-05	425.49	142.64	123.72	42.56	9.9018e-06	53.224	176.319	-48.429	-45.453	-129.442	-21.060	13.435	-129.662	-124.939	-61.388	26.170	-124.889	-121.440	-120.678	-115.840	-7.841	-116.358	-8191	255	
790.538	1	1	0	0	0.099851	0.010467	0.021287	0.41877	0.10573	0.081189	0.28205	0.20416	0.12406	0.051656	0.13759	0.096332	0.36589	0.22862	0.10223	0.17052	-3.7146	-3.4313	-4.0208	-3.7479	-3.3792	-4.0479	-3.5729	-3.9688	-4.0542	-3.5062	-3.9813	-3.8187	-3.5979	-4.2417	-3.4	-3.7729	114.564	185.730	-121.154	175.414	207.425	38.931	147.489	178.763	181.923	74.561	-133.842	-97.907	152.283	188.918	195.076	125.572	0.0005293	0.00047838	0.00013304	1304.1	4.6027e-06	5.3881e-06	1307.6	362.54	3.6722e-06	4.0202e-06	418.83	138.76	120.83	41.548	6.5432e-06	51.836	0.00079367	0.00094888	0.00025685	1321.2	9.9762e-06	9.9653e-06	1327.4	369.43	9.8032e-06	1.0385e-05	426.11	142.82	123.83	42.635	1.0036e-05	53.312	171.055	-45.528	-52.403	-129.159	-13.558	3.945	-129.561	-125.002	-49.545	15.225	-125.300	-121.444	-120.877	-116.117	-29.228	-116.842	-8191	255	
790.633	1	1	0	0	0.067813	0.15002	0.073788	0.2206	0.15093	0.21058	0.15441	0.18336	0.050868	0.053942	0.31969	0.11244	0.20136	0.20961	0.12481	0.1428	-3.7208	-3.2687	-3.8958	-3.9667	-3.225	-4.0729	-3.6875	-3.5417	-4.1542	-3.3979	-4.0354	-3.8354	-3.4125	-4.3604	-3.525	-3.6688	45.706	-97.969	124.294	-30.202	5.652	4.865	-51.358	129.380	-2.602	93.852	120.891	-141.099	53.298	-104.182	168.947	84.342	0.00049702	0.00080317	0.00011656	1304.6	2.1589e-06	3.3088e-06	1303.5	362.07	3.5661e-06	3.6472e-06	420.09	139.67	120.55	41.64	4.508e-06	51.627	0.0007904	0.00094717	0.00026201	1320.9	9.7429e-06	1.0134e-05	1326.4	369.27	9.8985e-06	1.046e-05	426.5	142.9	123.52	42.609	9.9251e-06	53.201	172.781	-56.399	-65.717	-129.709	-7.061	46.697	-129.536	-124.851	-44.812	38.362	-125.471	-121.517	-120.866	-115.992	-0.949	-116.419	-8191	255	
790.729	1	1	0	0	0.17796	0.38266	0.23575	0.15253	0.10147	0.096496	0.2657	0.43722	0.057902	0.22058	0.090629	0.14675	0.16721	0.14733	0.023068	0.20106	-3.7292	-3.4979	-3.6729	-4.0583	-3.2792	-4.1396	-4.0042	-3.6729	-4.3271	-3.3792	-3.7438	-4.0896	-3.5521	-4.0083	-3.7729	-3.3729	-61.624	58.094	103.979	214.653	-68.942	158.043	187.094	210.930	-61.269	37.831	-86.401	155.991	161.451	155.556	106.695	-88.768	0.00049399	0.00060242	0.00017522	1303.5	3.6298e-06	6.0874e-06	1302.9	361.94	3.7644e-06	5.2973e-06	418.04	138.61	120.75	41.524	3.6645e-06	51.804	0.00079765	0.0009364	0.0002573	1321.4	9.4559e-06	9.8907e-06	1325.3	369.61	9.5757e-06	1.0048e-05	426.08	142.55	123.53	42.56	9.6262e-06	53.204	170.242	-69.229	-75.009	-129.276	-77.045	46.724	-129.550	-124.576	-37.340	-8.121	-125.550	-121.618	-121.303	-115.951	-15.732	-116.774	-8191	255	
790.850	1	1	0	0	0.18667	0.048608	0.23023	0.23551	0.2975	0.057145	0.11906	0.19264	0.15649	0.18407	0.23922	0.13939	0.23775	0.23061	0.18452	0.10484	-3.725	-3.3833	-3.6271	-4.1583	-3.3729	-3.8688	-4.0208	-3.4917	-4.1021	-3.4833	-3.6792	-4.1562	-3.425	-4.0479	-3.8479	-3.4458	84.191	175.490	-130.751	199.003	161.754	168.171	60.454	205.894	-114.599	-141.374	140.342	203.828	195.836	159.866	202.084	-84.845	0.00053435	0.00053482	9.2038e-05	1304.8	3.4253e-06	4.1415e-06	1303.2	363.63	4.783e-06	5.3003e-06	417.2	139.17	120.64	41.611	3.1485e-06	51.475	0.0007974	0.00093254	0.00025197	1320.5	9.6646e-06	9.9368e-06	1324.7	369.74	9.5911e-06	9.9826e-06	425.38	142.67	123.51	42.599	9.7085e-06	53.153	172.667	-81.140	-64.251	-129.549	8.163	-7.454	-129.590	-124.832	-57.721	0.346	-125.202	-121.330	-120.899	-115.857	-1.333	-116.380	-8191	255	
790.946	1	1	0	0	0.27014	0.033848	0.18029	0.19176	0.042004	0.16589	0.24821	0.36632	0.23235	0.08349	0.3283	0.057812	0.23156	0.043845	0.028544	0.34471	-3.7313	-3.4875	-3.5187	-4.2333	-3.4	-3.8	-4.1937	-3.4437	-4.2188	-3.5167	-3.4979	-4.3104	-3.3833	-3.925	-3.8979	-3.4542	125.506	85.543	168.344	-88.778	185.649	213.201	107.263	171.480	-49.559	74.537	-112.954	139.253	-128.013	-103.710	169.100	194.258	0.00050468	0.0006368	0.00012895	1303	3.3336e-06	5.1273e-06	1304	362.66	4.9272e-06	2.6184e-06	418.95	139.42	120.35	41.647	3.1429e-06	51.744	0.00076787	0.00091603	0.00025403	1319	9.6707e-06	9.9572e-06	1324	368.91	9.5693e-06	9.6713e-06	426.1	142.72	123.36	42.642	9.728e-06	53.194	171.770	-68.340	-30.168	-129.298	-21.050	15.093	-129.773	-124.986	-61.697	0.877	-125.382	-121.504	-120.856	-115.969	-72.574	-116.656	-8191	255	
791.042	1	1	0	0	0.22189	0.15911	0.10028	0.18162	0.17076	0.23473	0.056138	0.090041	0.073978	0.11073	0.27678	0.23548	0.20531	0.18397	0.014585	0.20387	-3.5563	-3.6188	-3.4604	-4.3354	-3.425	-3.7104	-4.3187	-3.5958	-4.0042	-3.7292	-3.7021	-4.2458	-3.6083	-3.6646	-4.0042	-3.2875	-90.864	87.397	137.651	204.218	25.549	-12.978	91.927	78.966	151.182	-95.022	145.942	210.937	-130.551	214.926	176.528	157.742	0.00054325	0.00075514	0.00015115	1305.1	5.2143e-06	3.6705e-06	1304.3	362.17	4.1778e-06	4.0887e-06	416.33	139.29	120.64	41.502	3.7826e-06	51.787	0.00079099	0.00091428	0.00025642	1320.4	9.4309e-06	9.9305e-06	1324.1	369.18	9.7672e-06	9.9695e-06	425.36	142.51	123.67	42.592	9.4952e-06	53.285	168.959	-65.794	-62.594	-129.154	-18.905	-15.850	-129.694	-124.675	-20.179	-2.436	-124.826	-121.556	-120.737	-115.792	-14.533	-116.537	-8191	255	
791.138	1	1	0	0	0.079429	0.1211	0.19074	0.26861	0.1576	0.067704	0.28756	0.05774	0.19602	0.048654	0.2542	0.30036	0.11638	0.072524	0.042602	0.059536	-3.5229	-3.6937	-3.2958	-4.1562	-3.4792	-3.5542	-4.4313	-3.4583	-3.9458	-3.9792	-3.4688	-4.2542	-3.5625	-3.6875	-4.0896	-3.3646	-15.985	200.960	-68.183	174.860	115.354	134.511	126.275	-112.980	-28.474	153.197	199.981	-111.430	-134.478	118.474	-0.500	55.931	0.00053471	0.00027132	0.00014833	1304.6	4.0343e-06	6.1637e-06	1307	361.56	5.6322e-06	3.9057e-06	416.45	138.86	120.9	41.586	4.1828e-06	51.272	0.00077594	0.0008881	0.0002537	1321.3	9.5899e-06	1.0301e-05	1327.1	368.95	9.6481e-06	1.0207e-05	425.35	142.66	123.76	42.598	9.8276e-06	53.107	173.272	-64.562	-40.598	-129.348	-21.616	1.112	-129.603	-125.028	-41.731	11.653	-125.145	-121.469	-120.812	-115.871	-5.485	-116.566	-8191	255	
791.259	1	1	0	0	0.1716	0.25664	0.039952	0.27055	0.099125	0.030015	0.38201	0.083518	0.14041	0.12235	0.22698	0.17316	0.11064	0.18183	0.07741	0.13666	-3.4792	-3.8625	-3.2979	-4.2229	-3.4938	-3.3771	-4.2417	-3.5292	-3.6583	-4.0437	-3.6083	-4.1188	-3.9	-3.5604	-3.9667	-3.2667	156.614	-7.848	-0.942	-132.249	96.793	-67.874	117.294	123.674	77.588	156.113	178.673	190.182	15.218	153.895	210.707	216.822	0.00052493	0.00051467	0.00012408	1305.6	3.856e-06	3.6693e-06	1305.4	362.81	5.1648e-06	5.3097e-06	416.17	138.99	120.98	41.523	2.6751e-06	51.771	0.00078443	0.00091201	0.00025551	1321.8	9.6061e-06	1.0215e-05	1326.3	369.44	9.8129e-06	1.0246e-05	425.32	142.88	123.75	42.603	9.8166e-06	53.191	166.014	-66.896	-60.915	-129.375	-44.211	6.399	-129.553	-124.726	-26.820	7.044	-125.361	-121.298	-121.080	-115.692	-7.069	-116.602	-8191	255	
791.330	1	1	0	0	0.1569	0.14703	0.177	0.046577	0.064094	0.062331	0.16045	0.097313	0.13524	0.26355	0.15769	0.051067	0.31782	0.14158	0.30977	0.22854	-3.3604	-3.9354	-3.3479	-4.0979	-3.6771	-3.2354	-4.0833	-3.4875	-3.5646	-4.2854	-3.2583	-3.9708	-3.8812	-3.4375	-4.1521	-3.6229	18.820	23.680	32.227	-2.884	135.375	216.624	154.441	-67.564	-64.603	63.239	144.798	-77.244	139.571	-140.939	-9.834	76.418	0.00055304	0.00054441	0.00019858	1303.7	4.9065e-06	4.6451e-06	1302.1	362.73	4.1027e-06	4.0981e-06	416.79	139.56	120.96	41.605	4.5161e-06	51.701	0.00078706	0.00091189	0.00025647	1320.3	9.3397e-06	1.0327e-05	1327.1	369.47	9.8448e-06	9.8497e-06	425.17	142.91	123.82	42.597	9.7967e-06	53.223	169.027	-40.764	-36.688	-129.346	-3.326	28.570	-129.339	-124.909	-43.394	2.849	-125.217	-121.336	-120.921	-115.727	12.877	-116.517	-8191	255	
791.427	1	1	0	0	0.20284	0.23954	0.15287	0.42824	0.38515	0.04821	0.15875	0.26108	0.17684	0.26586	0.21686	0.17421	0.10208	0.10838	0.038851	0.28559	-3.1104	-3.9833	-3.0875	-3.9417	-3.8187	-3.3833	-4.2792	-3.6083	-3.5312	-4	-3.3792	-3.8583	-3.9042	-3.175	-3.8896	-3.575	139.607	124.930	178.714	177.169	99.646	170.242	-108.388	100.416	173.869	200.600	192.361	146.778	-6.651	216.408	95.955	190.439	0.00053477	0.00039488	0.00017481	1304.7	4.1305e-06	9.5742e-06	1303.3	362.82	3.1774e-06	5.5948e-06	417.68	140.36	120.66	41.506	5.2476e-06	51.419	0.00078456	0.00089997	0.00025862	1321.1	9.5794e-06	1.0037e-05	1327	369.51	9.6771e-06	9.9789e-06	426.02	143.12	123.73	42.581	9.725e-06	53.152	168.514	-50.191	-45.568	-129.148	-14.721	9.886	-129.360	-125.007	-15.828	-0.438	-125.375	-121.544	-120.794	-115.958	-7.371	-116.536	-8191	255	
791.523	1	1	0	0	0.08323	0.2446	0.086905	0.29587	0.20338	0.19476	0.37	0.1882	0.21576	0.14611	0.15775	0.17153	0.17941	0.040846	0.16562	0.14195	-3.0229	-4.1458	-3.5229	-3.7646	-4.025	-3.2583	-4.2708	-3.6521	-3.4437	-4.0792	-3.4437	-3.6917	-4.1	-3.4104	-3.9729	-3.8688	203.963	38.044	167.201	181.011	50.444	148.936	125.653	164.682	188.531	153.502	65.964	45.804	166.963	139.263	15.574	-133.240	0.00054191	0.00068542	0.00017535	1301.7	3.0009e-06	7.8335e-06	1304.1	361.99	3.9376e-06	4.4617e-06	418	139.9	120.45	41.524	4.7948e-06	51.546	0.00078605	0.00090282	0.00025426	1319.4	9.6311e-06	1.0226e-05	1327.8	369.45	9.7163e-06	1.0227e-05	425.78	143.25	123.64	42.605	9.7034e-06	53.243	170.364	-59.053	-54.184	-129.131	-34.904	-1.321	-129.526	-125.053	-8.242	0.454	-125.484	-121.366	-121.106	-115.908	-26.145	-116.651	-8191	255	
791.642	1	1	0	0	0.21554	0.1408	0.23535	0.16141	0.1436	0.18714	0.047504	0.19563	0.13979	0.14308	0.17779	0.19021	0.23524	0.023798	0.10661	0.084502	-2.8708	-4.1146	-3.4146	-3.9292	-3.9896	-3.3708	-4.0062	-3.9167	-3.15	-4.2229	-3.5542	-3.6437	-4.1021	-3.1354	-3.8125	-3.8833	111.272	-66.903	-27.127	-61.016	193.228	72.612	5.814	154.423	10.177	82.018	137.923	178.007	-112.499	182.141	143.321	-46.115	0.00053029	0.00045828	0.00011674	1305.6	4.0613e-06	7.1268e-06	1313.3	362.81	6.3112e-06	5.4783e-06	417.93	138.98	120.24	41.502	4.7022e-06	51.693	0.00079266	0.00091071	0.00025074	1323.4	9.5363e-06	1.011e-05	1329.8	369.67	9.7159e-06	9.9889e-06	426.16	142.93	123.64	42.543	9.7386e-06	53.27	169.897	-51.018	-82.500	-129.311	-11.079	11.426	-129.525	-124.810	-34.320	21.086	-125.459	-121.418	-120.937	-116.115	-28.791	-116.963	-8191	255	
791.738	1	1	0	0	0.11038	0.15429	0.18271	0.095056	0.13446	0.14378	0.1436	0.16377	0.1255	0.074676	0.12537	0.28882	0.080342	0.084571	0.23137	0.18456	-3.0625	-3.9771	-3.5312	-3.6521	-4.0521	-3.3021	-3.8833	-3.9896	-3.2062	-3.9125	-3.7417	-3.4479	-4.2021	-3.4021	-3.725	-4.0333	162.890	-10.994	-49.723	-132.200	55.909	80.927	206.580	171.515	-100.688	-96.711	127.007	-39.288	-80.381	202.661	-25.636	164.155	0.00050981	0.00033789	0.00015425	1307.1	3.5324e-06	5.1684e-06	1309.2	363.96	5.6178e-06	3.4736e-06	419.11	139.36	120.84	41.451	5.6535e-06	51.829	0.00077916	0.00090282	0.00025249	1323.3	9.4596e-06	1.0143e-05	1331.6	370.72	9.7903e-06	9.9686e-06	427.12	142.98	123.74	42.514	9.7911e-06	53.316	168.039	-45.269	-73.227	-129.397	-19.322	16.653	-129.653	-124.779	-30.461	14.176	-125.527	-121.490	-121.021	-116.209	6.679	-116.635	-8191	255	
791.834	1	1	0	0	0.27078	0.21108	0.25744	0.075537	0.09865	0.10319	0.11345	0.26059	0.126	0.19204	0.17111	0.20462	0.07288	0.12787	0.13317	0.19111	-2.9688	-3.8396	-3.6708	-3.5771	-4.1083	-3.4167	-3.7958	-4.2292	-3.3646	-3.9833	-3.8458	-3.4792	-4.0458	-3.7167	-3.5125	-4.1375	-1.095	-119.181	-7.625	195.644	191.843	-71.579	183.249	184.766	177.236	153.478	167.378	-100.474	-121.790	-122.494	-15.285	176.181	0.00051602	0.00054735	0.00012516	1312.5	3.3034e-06	4.531e-06	1311	363.27	5.3212e-06	3.6007e-06	416.77	139.39	120.74	41.56	6.6395e-06	51.857	0.00077476	0.00092563	0.00024786	1326.5	9.4172e-06	9.7004e-06	1331.5	370.01	9.4719e-06	9.7047e-06	425.44	142.97	123.75	42.605	9.4422e-06	53.35	165.168	-41.403	-71.476	-129.227	-0.354	11.227	-129.617	-125.023	-39.642	-31.418	-125.326	-121.520	-120.778	-115.944	-11.825	-116.734	-8191	255	
791.930	1	1	0	0	0.15085	0.19494	0.11265	0.2472	0.3022	0.17191	0.30935	0.30316	0.14834	0.10535	0.21337	0.10865	0.16236	0.15083	0.22442	0.12794	-2.8875	-3.9917	-3.8021	-3.5104	-4.1708	-3.4917	-3.8667	-4.2708	-3.3667	-4.0229	-4.0042	-3.4083	-4.2917	-3.7792	-3.3958	-4.1292	97.266	-84.701	-86.970	106.811	35.404	130.669	-132.652	-122.496	-132.827	40.479	166.846	174.363	114.063	89.909	-135.009	206.226	0.0005266	0.00061061	0.00014422	1307.8	4.3376e-06	4.9961e-06	1304	361.8	6.0907e-06	3.5254e-06	418.62	139.51	120.96	41.594	4.3005e-06	51.917	0.0007789	0.00089786	0.00025234	1323.7	9.5169e-06	1.0269e-05	1329.2	369.91	9.9604e-06	1.0317e-05	426.46	142.94	123.84	42.68	1.012e-05	53.404	169.274	-52.386	-62.830	-129.521	-3.574	5.487	-129.604	-125.214	-18.426	19.954	-125.579	-121.658	-120.913	-115.985	-19.485	-116.614	-8191	255	
792.026	1	1	0	0	0.032592	0.066989	0.062378	0.34075	0.21985	0.24155	0.23657	0.16208	0.22291	0.020003	0.097392	0.19948	0.16161	0.03777	0.12596	0.10371	-3.0563	-3.8625	-4.0021	-3.5833	-3.9979	-3.7625	-3.6875	-4.2958	-3.4042	-3.6063	-4.0354	-3.5021	-4.1917	-3.7958	-3.375	-4.2812	113.835	-83.930	66.278	-142.995	54.834	126.495	206.154	125.546	-91.779	48.781	-141.848	-105.414	-120.177	44.783	205.350	129.501	0.00052861	0.00031681	0.00016599	1307.5	4.2714e-06	4.1469e-06	1310.8	364.87	5.3519e-06	5.5805e-06	420.13	139.89	121.45	41.71	3.1952e-06	51.816	0.00080416	0.00095669	0.00026158	1324.8	1.0228e-05	1.0404e-05	1331.5	370.95	9.9107e-06	1.0404e-05	427.66	143.19	124.09	42.73	1.007e-05	53.43	168.166	-54.295	-60.469	-129.433	16.514	3.073	-129.561	-125.085	-8.110	2.459	-125.583	-121.697	-120.946	-115.920	-43.878	-116.648	-8191	255	
792.122	1	1	0	0	0.21547	0.19916	0.033394	0.18315	0.13695	0.24814	0.34965	0.2215	0.20463	0.029605	0.30035	0.0020054	0.19243	0.12742	0.22521	0.15068	-3.0708	-3.6437	-4.0312	-3.5583	-3.9271	-3.8125	-3.5958	-4.2729	-3.4646	-3.4917	-4.0021	-3.325	-4.1792	-3.8583	-3.375	-4.1708	-70.584	-103.085	176.977	212.878	200.438	91.924	164.008	216.811	-59.307	-30.812	154.561	180.000	-129.371	179.708	-23.019	-53.105	0.00048878	0.00047	0.00011375	1308.9	4.3642e-06	5.2666e-06	1312.7	364.93	4.8286e-06	5.4167e-06	418.3	140.14	120.93	41.605	3.3073e-06	51.872	0.00079444	0.00095059	0.00026236	1326.7	9.9677e-06	1.029e-05	1333.3	370.94	9.7874e-06	1.0303e-05	427.12	143.36	124.02	42.679	1.0181e-05	53.437	174.262	-49.879	-51.380	-129.269	2.855	-22.172	-129.566	-125.044	-43.164	-12.875	-125.360	-121.699	-120.823	-116.062	3.130	-116.514	-8191	255	
792.218	1	1	0	0	0.12736	0.039917	0.13673	0.083725	0.10925	0.14966	0.17468	0.071525	0.076097	0.10932	0.16503	0.23963	0.25905	0.20397	0.11427	0.11168	-3.1271	-3.4813	-4.2271	-3.4313	-3.825	-3.7667	-3.5792	-4.2125	-3.6	-3.5729	-4.2958	-3.4042	-4.0583	-3.9625	-3.2542	-4.1625	-98.392	-111.263	204.906	-116.837	196.881	155.745	151.713	-20.585	18.274	12.035	123.838	151.954	187.567	137.713	-139.245	102.357	0.00047992	0.00048805	0.0001584	1313.1	2.142e-06	5.0202e-06	1312.6	365.01	3.661e-06	2.6257e-06	419.65	139.32	121.23	41.558	3.5876e-06	51.461	0.00080321	0.00092071	0.00026325	1326.9	9.8313e-06	1.0166e-05	1333.1	371.22	9.8727e-06	1.0373e-05	427.32	143.28	124.16	42.636	1.0214e-05	53.329	161.215	-64.588	-62.173	-129.479	-24.377	19.046	-129.578	-124.986	-50.991	-9.232	-125.183	-121.535	-120.944	-115.891	-19.539	-116.632	-8191	255	
792.339	1	1	0	0	0.11554	0.16982	0.24863	0.22122	0.16	0.1718	0.26866	0.071032	0.26675	0.10367	0.20251	0.13405	0.31694	0.28601	0.11569	0.13498	-3.3937	-3.4188	-4.0396	-3.5625	-3.6542	-4.0354	-3.5292	-4.0563	-3.75	-3.2938	-4.3063	-3.5292	-3.7625	-3.9917	-3.0542	-4.2583	199.890	11.327	-15.833	-94.101	-132.973	-105.716	191.083	44.960	71.008	111.521	-102.682	-128.213	-104.464	169.262	-139.232	143.884	0.00056703	0.00052753	0.00013686	1309.1	4.2247e-06	4.547e-06	1313.4	364.48	4.4492e-06	6.5968e-06	419.76	139.23	121.76	41.571	5.4174e-06	51.816	0.00080486	0.00093717	0.00026435	1327.8	9.9205e-06	1.0135e-05	1333.4	371.18	9.8739e-06	1.0349e-05	427.88	143.21	124.4	42.698	1.0044e-05	53.479	171.395	-62.738	-48.883	-129.336	-15.077	-3.893	-129.435	-124.749	-23.521	32.471	-125.482	-121.679	-120.767	-115.950	-34.105	-116.407	-8191	255	
792.435	1	1	0	0	0.087501	0.15491	0.23308	0.26997	0.32896	0.13417	0.023124	0.028379	0.13436	0.074329	0.10163	0.20641	0.21883	0.35504	0.080475	0.15804	-3.3708	-3.3	-4.0146	-3.7375	-3.5458	-3.8312	-3.5021	-4.0437	-3.8958	-3.4479	-4.2688	-3.625	-3.475	-4.15	-3.3646	-4.0667	118.441	138.240	-100.960	186.402	-75.462	182.708	153.324	60.133	192.134	120.477	165.396	91.268	163.142	-122.310	102.036	106.671	0.00052956	0.0002959	0.00013588	1311.2	4.0779e-06	4.2973e-06	1311.9	363.22	4.8479e-06	7.4279e-06	419.73	139.82	121.12	41.727	4.43e-06	51.645	0.00080432	0.00096685	0.00026311	1326.4	9.8313e-06	1.0416e-05	1335	370.91	9.844e-06	1.0375e-05	428.36	143.3	124.21	42.8	1.0207e-05	53.32	175.606	-81.932	-72.917	-129.538	-13.493	19.470	-129.502	-124.741	-20.429	11.698	-125.025	-121.729	-120.908	-116.005	-15.424	-116.540	-8191	255	
792.531	1	1	0	0	0.12358	0.25162	0.11514	0.46478	0.18103	0.13255	0.12766	0.11	0.18532	0.23123	0.29147	0.28436	0.19436	0.19944	0.046384	0.22821	-3.4125	-3.2083	-4.1979	-3.7896	-3.5062	-4.1083	-3.5625	-3.7833	-4.0021	-2.9938	-4.225	-3.7833	-3.6542	-4.1292	-3.4917	-3.7083	24.165	-104.813	142.351	156.583	208.706	-35.920	191.362	-112.162	73.793	-122.341	171.173	126.428	212.835	192.579	195.113	82.754	0.00051104	0.00053209	0.00018364	1308.4	2.8875e-06	6.8324e-06	1311.9	363.98	3.4694e-06	3.4582e-06	420.41	139.25	120.9	41.604	5.4112e-06	51.663	0.00080679	0.00093738	0.00025866	1326.9	9.6468e-06	1.0317e-05	1333.6	370.79	1.0089e-05	1.05e-05	428.68	143.31	124.06	42.745	1.0353e-05	53.381	168.638	-37.124	-48.584	-129.402	-43.760	-19.649	-129.867	-124.921	-58.641	5.299	-125.464	-122.027	-120.861	-116.230	-17.724	-116.473	-8191	255	
792.628	1	1	0	0	0.072708	0.22375	0.089212	0.26509	0.064388	0.14986	0.31548	0.18907	0.085489	0.054143	0.29482	0.26091	0.075458	0.27018	0.076323	0.080766	-3.8208	-3.2958	-3.9208	-3.9458	-3.3708	-4.075	-3.5938	-3.625	-4.1458	-3.5187	-4.0875	-3.9375	-3.4854	-4.1479	-3.55	-3.6854	-77.550	99.870	131.760	158.932	-34.007	82.638	152.488	216.017	-117.678	116.755	202.610	-106.735	104.449	177.227	41.658	168.160	0.00055161	0.00056873	0.00018899	1311.2	3.342e-06	6.3665e-06	1313.7	363.95	5.2277e-06	4.5235e-06	421.24	139.84	121.55	41.692	4.4007e-06	51.938	0.00079709	0.00097096	0.00026921	1328.4	1.0131e-05	1.0408e-05	1335.5	371.33	9.9571e-06	1.053e-05	428.05	143.48	124.26	42.759	1.0341e-05	53.494	170.169	-49.712	-33.887	-129.590	-36.445	-17.110	-129.705	-125.009	-43.655	2.175	-125.276	-121.742	-120.918	-115.995	-17.178	-116.669	-8191	255	
792.722	1	1	0	0	0.3618	0.058636	0.035902	0.26446	0.072057	0.044844	0.1766	0.33784	0.17556	0.20785	0.35545	0.2652	0.13965	0.0762	0.16848	0.1428	-3.8021	-3.425	-3.9208	-4.1042	-3.3042	-4.2292	-3.7583	-3.625	-4.0604	-3.3896	-3.9938	-4.0271	-3.4229	-4.1438	-3.6375	-3.4792	111.941	-46.791	-74.152	178.371	202.933	122.323	129.373	94.152	183.127	191.258	109.659	162.303	13.931	-44.250	38.781	-110.759	0.00050785	0.000528	0.00015332	1317	4.9581e-06	6.1725e-06	1314.1	363.58	4.9612e-06	4.8245e-06	420.73	139.4	121.3	41.807	5.6279e-06	51.862	0.0007956	0.00094689	0.0002654	1330.4	9.8995e-06	1.0325e-05	1336.6	371.42	9.781e-06	1.0324e-05	428.03	143.21	124.31	42.808	1.0239e-05	53.386	167.327	-73.098	-51.507	-129.317	-12.158	5.871	-129.666	-125.041	-27.729	16.841	-125.153	-121.647	-121.002	-115.996	-21.906	-116.533	-8191	255	
792.818	1	1	0	0	0.16059	0.25545	0.2972	0.11612	0.049848	0.20444	0.30138	0.28249	0.10725	0.06788	0.10557	0.12431	0.33667	0.18753	0.11688	0.059361	-3.8458	-3.3792	-3.6188	-4.0542	-3.1958	-4.1917	-3.7292	-3.4542	-4.1	-3.2167	-3.975	-4.1646	-3.3521	-4.0896	-3.7292	-3.4979	-42.098	3.654	53.624	-142.275	-6.171	41.727	188.804	166.319	138.060	62.309	-133.711	182.599	-103.985	208.486	-63.194	-121.552	0.00052049	0.00054682	0.00011476	1310.5	3.5827e-06	5.4099e-06	1313.1	363.97	2.4663e-06	5.4724e-06	418.75	140.02	121.34	41.972	6.9033e-06	51.968	0.00080414	0.00097937	0.00025622	1329.8	9.6981e-06	1.0273e-05	1335.9	371.2	9.8913e-06	1.0714e-05	427.75	143.31	124.25	42.835	1.0014e-05	53.543	165.365	-54.975	-33.550	-129.359	-30.209	-7.971	-129.838	-124.855	-12.491	-11.924	-125.377	-121.568	-120.937	-116.099	-30.331	-116.727	-8191	255	
792.939	1	1	0	0	0.088301	0.28713	0.34094	0.28693	0.13923	0.24316	0.47687	0.20282	0.028063	0.19549	0.19726	0.3362	0.20918	0.17244	0.15131	0.26618	-3.8146	-3.4917	-3.5542	-4.0333	-3.3917	-3.8917	-4.0396	-3.4938	-4.0771	-3.4271	-3.75	-4.1562	-3.4813	-3.9313	-3.8312	-3.3375	33.095	20.906	207.952	181.074	-34.659	-119.316	153.366	174.504	-49.916	-111.459	158.026	151.626	109.982	137.441	4.488	133.965	0.00052378	0.0004746	0.00012384	1316.7	3.9474e-06	4.4171e-06	1310.7	364.8	4.5472e-06	4.2794e-06	419.88	139.51	121.13	41.796	5.6077e-06	51.837	0.00079053	0.00096128	0.00026404	1330.3	9.9612e-06	1.021e-05	1334.6	371.57	9.821e-06	1.0264e-05	427.89	143.49	124.09	42.767	1.0112e-05	53.401	167.736	-46.078	-69.459	-129.543	-29.993	-24.569	-129.561	-124.937	-39.341	12.626	-125.312	-121.689	-121.089	-116.177	-10.759	-116.836	-8191	255	
793.035	1	1	0	0	0.13113	0.24058	0.26217	0.061452	0.32526	0.060312	0.057544	0.23749	0.1784	0.26765	0.16133	0.041708	0.05799	0.10884	0.11526	0.13031	-3.7604	-3.475	-3.6583	-4.1833	-3.3083	-3.7812	-4.125	-3.3104	-4.0938	-3.6271	-3.5208	-4.2104	-3.5958	-3.7146	-4.0417	-3.4792	115.580	-17.233	155.540	105.209	172.419	-133.476	123.775	159.532	-55.406	58.597	185.827	-96.337	154.914	171.104	144.591	188.560	0.00053745	0.00060542	0.00020241	1311.2	3.1836e-06	4.1844e-06	1317.4	362.93	4.0724e-06	3.6237e-06	417.83	139.49	120.99	41.574	4.2493e-06	52.051	0.0007896	0.00094697	0.00025866	1329.9	9.9156e-06	1.0124e-05	1336.6	370.76	9.6638e-06	1.0266e-05	427.49	143.28	124.01	42.714	9.887e-06	53.394	168.683	-56.711	-51.862	-129.737	-45.643	1.059	-129.984	-125.246	-12.401	8.280	-125.507	-121.934	-121.243	-116.381	-9.322	-117.232	-8191	255	
793.131	1	1	0	0	0.18014	0.029031	0.21672	0.21418	0.17575	0.15319	0.1898	0.19174	0.10685	0.1258	0.17438	0.23549	0.18534	0.17975	0.23343	0.059274	-3.7208	-3.6708	-3.2604	-4.1937	-3.5375	-3.6271	-4.1375	-3.4938	-3.9667	-3.7438	-3.5208	-4.1312	-3.5438	-3.7104	-4.0146	-3.3917	-74.173	9.476	-101.517	147.885	122.480	45.644	159.684	196.446	-108.018	-31.266	194.430	208.265	201.751	-91.306	172.449	-96.547	0.00051994	0.00054466	0.00012981	1313	4.4557e-06	5.9913e-06	1313	364.41	5.7992e-06	3.9854e-06	420.4	139.93	121.22	41.66	3.4998e-06	51.584	0.00077903	0.00091067	0.00025265	1330.7	9.7239e-06	1.0172e-05	1336	371.3	9.8125e-06	1.0145e-05	427.35	143.32	124.17	42.674	9.7971e-06	53.188	172.975	-60.113	-57.334	-129.630	-1.118	16.376	-129.888	-124.966	-58.958	36.871	-125.549	-121.682	-121.316	-115.936	-27.792	-116.715	-8191	255	
793.203	1	1	0	0	0.21349	0.1587	0.032677	0.088765	0.2726	0.26804	0.24441	0.41646	0.086538	0.268	0.05504	0.060662	0.29954	0.18419	0.13062	0.19262	-3.5021	-3.9021	-3.225	-4.3833	-3.5479	-3.4688	-4.1542	-3.4396	-3.8708	-3.8	-3.4062	-4.1521	-3.7417	-3.3917	-4.1375	-3.3792	65.250	-55.891	-91.918	-129.230	-68.636	-56.063	197.832	145.535	-63.923	158.367	167.496	89.165	186.345	-122.472	-45.757	-37.443	0.0004918	0.00033259	0.00011522	1314.5	4.2625e-06	4.3731e-06	1314.4	364.47	4.9887e-06	5.3767e-06	418.14	139.52	120.71	41.521	3.8437e-06	51.757	0.00076825	0.00091774	0.00025438	1329.6	9.4915e-06	9.747e-06	1333.4	371.05	9.5701e-06	9.8646e-06	427.88	143.16	123.8	42.707	9.7411e-06	53.29	171.874	-44.470	-58.745	-129.387	-36.201	39.458	-129.805	-125.063	-26.298	11.725	-125.276	-121.504	-121.110	-115.959	-23.872	-116.700	-8191	255	
793.323	1	1	0	0	0.072335	0.13436	0.13267	0.12764	0.1268	0.37688	0.18761	0.14822	0.12337	0.098826	0.06962	0.34805	0.12101	0.053667	0.29623	0.1097	-3.4188	-3.9813	-3.1562	-4.2479	-3.6583	-3.5875	-4.3458	-3.5792	-3.65	-4.0292	-3.5438	-4.0958	-3.7625	-3.3625	-4.2063	-3.5208	-138.140	-138.531	-65.613	106.978	-143.064	137.610	194.404	-137.766	-98.800	54.467	98.898	102.894	43.212	-105.024	-99.597	189.645	0.00052887	0.00063801	0.00013635	1314.9	3.6468e-06	3.6195e-06	1312.6	364.29	5.1768e-06	3.3152e-06	416.94	139.71	120.74	41.586	4.267e-06	51.754	0.00080728	0.00091107	0.00025184	1330.2	9.6545e-06	1.0182e-05	1333.8	371	9.5248e-06	1.0049e-05	426.1	143.31	123.94	42.689	9.9268e-06	53.326	173.941	-53.313	-44.549	-129.516	2.394	-17.533	-129.835	-125.082	-30.261	26.164	-125.309	-121.713	-120.909	-116.098	-10.461	-116.743	-8191	255	
793.419	1	1	0	0	0.13933	0.15526	0.11319	0.25992	0.054906	0.18675	0.12388	0.64395	0.3727	0.20392	0.10267	0.047239	0.067662	0.25832	0.17277	0.092424	-3.3417	-4.1042	-3.3063	-4.1167	-3.6729	-3.4958	-4.2542	-3.6396	-3.6542	-4.1229	-3.3542	-4.0354	-3.8375	-3.4771	-3.975	-3.4021	211.357	-18.861	-96.105	181.505	205.477	-50.725	-116.811	157.674	85.065	181.361	95.305	-128.706	191.952	148.915	171.631	144.764	0.00055147	0.00042983	0.00017838	1315.7	4.6067e-06	5.3067e-06	1310.5	363.94	5.5135e-06	7.8183e-06	421.6	140.14	121.25	41.431	4.003e-06	51.491	0.00079794	0.00090717	0.00025487	1329.4	9.3252e-06	1.0217e-05	1332.8	370.83	9.707e-06	1.0003e-05	427.47	143.36	123.92	42.62	9.6266e-06	53.229	172.162	-93.325	-45.555	-129.417	-44.820	-18.142	-129.735	-124.899	-39.616	-11.793	-125.338	-121.684	-121.150	-115.923	-42.084	-116.875	-8191	255	
793.516	1	1	0	0	0.19508	0.065429	0.16604	0.31696	0.067304	0.11429	0.28891	0.23697	0.064337	0.20457	0.089955	0.29668	0.15924	0.21905	0.099613	0.11788	-3.3708	-4.0833	-3.3063	-3.9396	-3.8979	-3.2	-4.3438	-3.6688	-3.5458	-4.1	-3.5771	-3.7354	-4.1125	-3.525	-4.0167	-3.7854	-64.533	-99.503	73.534	193.478	215.046	74.889	205.602	170.695	-103.558	-130.811	160.147	195.533	126.013	134.877	128.586	181.656	0.0005021	0.00039934	0.00016668	1315.9	5.695e-06	4.2198e-06	1312.8	363.91	5.2337e-06	6.3991e-06	419.42	139.83	120.86	41.542	4.9114e-06	51.642	0.0007895	0.00089672	0.00025356	1329.2	9.3938e-06	1.0148e-05	1335	370.96	9.9923e-06	1.0114e-05	427.03	143.48	123.87	42.635	9.8492e-06	53.315	171.243	-56.031	-46.513	-129.312	-57.283	-15.636	-129.725	-125.159	-45.496	-13.355	-125.452	-121.481	-121.225	-115.793	-8.238	-116.602	-8191	255	
793.612	1	1	0	0	0.086994	0.17834	0.34468	0.13014	0.28946	0.21417	0.064372	0.12498	0.07486	0.20151	0.28424	0.26588	0.23938	0.27081	0.07966	0.063421	-2.9458	-4.0292	-3.4333	-3.8396	-4.0125	-3.275	-4.1771	-3.8396	-3.325	-4.1792	-3.6292	-3.6396	-4.05	-3.3563	-3.9458	-3.8229	205.633	94.180	67.000	152.980	126.775	14.181	-63.312	-83.517	167.172	101.674	187.372	215.082	174.625	185.881	192.166	-105.326	0.00051058	0.00067375	0.00012039	1307.2	3.3877e-06	5.65e-06	1313.9	363.65	2.7113e-06	4.3251e-06	417.66	140.1	121.21	41.762	4.1676e-06	51.552	0.00079837	0.00091014	0.00025592	1325.8	9.5734e-06	1.0138e-05	1334.3	370.54	9.8226e-06	9.7747e-06	426.56	143.6	124.01	42.695	9.6792e-06	53.213	168.710	-84.244	-35.384	-129.442	5.728	22.818	-129.709	-125.099	-19.034	3.620	-125.254	-121.641	-120.992	-116.013	-27.104	-116.689	-8191	255	
793.731	1	1	0	0	0.088241	0.061769	0.15111	0.16019	0.092683	0.16099	0.13219	0.13179	0.16939	0.2869	0.11929	0.0083814	0.075691	0.24078	0.075197	0.11744	-2.8979	-4.1958	-3.35	-3.7229	-4.0292	-3.4125	-3.9313	-3.9146	-3.3438	-4.1	-3.6729	-3.7938	-4.125	-3.4562	-3.8104	-3.9667	48.965	143.332	29.413	-121.296	-96.072	209.243	-119.118	-122.040	117.220	32.805	46.332	186.186	174.078	145.901	110.230	116.427	0.00052841	0.00058224	0.00017004	1311.2	4.9462e-06	5.5932e-06	1316.5	363.56	3.075e-06	3.4865e-06	417.38	139.32	120.52	41.449	3.8708e-06	51.653	0.00078235	0.0009138	0.00025344	1328.3	9.6816e-06	1.0018e-05	1334	370.8	9.6109e-06	9.9089e-06	426.13	143.45	123.84	42.597	9.8798e-06	53.401	168.397	-52.197	-35.990	-129.394	-24.495	0.762	-129.348	-125.111	-24.827	11.905	-125.299	-121.634	-121.113	-116.007	-10.840	-116.737	-8191	255	
793.802	1	1	0	0	0.33132	0.15572	0.1686	0.16362	0.31553	0.09655	0.12299	0.1834	0.3545	0.29184	0.17541	0.095041	0.077638	0.25418	0.17302	0.076492	-2.925	-4.0687	-3.8667	-3.7708	-4.0542	-3.3083	-3.9458	-4.1438	-3.2667	-4.1583	-3.7646	-3.5146	-4.3625	-3.5833	-3.6771	-4.1167	104.629	142.001	153.687	-117.172	37.669	89.666	175.846	162.986	158.638	77.381	161.812	153.128	-100.590	186.855	-113.822	181.223	0.00053693	0.00078933	0.00012037	1315.9	4.1568e-06	5.7996e-06	1315.8	363.45	2.7127e-06	3.0764e-06	419.61	139.99	120.8	41.589	5.461e-06	51.989	0.00079063	0.0009025	0.00025476	1328.6	9.368e-06	1.0108e-05	1332.8	370.23	9.6133e-06	9.9749e-06	426.74	143.29	124.08	42.606	9.6907e-06	53.328	172.522	-64.970	-46.115	-129.500	-19.234	13.664	-129.639	-125.019	-29.987	29.266	-125.352	-121.499	-121.040	-116.026	-29.348	-116.754	-8191	255	
793.900	1	1	0	0	0.3208	0.057727	0.24097	0.257	0.21012	0.023444	0.30767	0.30128	0.085379	0.14888	0.049041	0.13152	0.20076	0.23456	0.099102	0.14354	-2.8563	-4.0042	-3.8208	-3.6583	-4.0208	-3.4854	-3.6667	-4.0333	-3.3083	-4.0604	-3.95	-3.6063	-4.1312	-3.5125	-3.5979	-4.3021	-41.968	11.051	-91.261	184.893	-106.542	34.815	123.530	113.545	-48.837	-67.146	-133.231	130.201	194.650	-94.264	184.383	-142.401	0.00049439	0.00035679	0.00010741	1311.3	2.4878e-06	5.2756e-06	1312.6	364.27	2.9599e-06	3.0141e-06	418.16	139.28	121.24	41.555	6.5638e-06	51.768	0.00077558	0.00091648	0.00025496	1326.8	9.1867e-06	1.037e-05	1334.3	370.9	9.9426e-06	9.9866e-06	427.1	143.01	124.09	42.604	9.9082e-06	53.313	167.819	-78.143	-45.902	-129.407	-39.671	36.265	-129.511	-124.946	-30.560	5.077	-125.427	-121.469	-120.929	-116.140	-38.409	-116.809	-8191	255	
794.019	1	1	0	0	0.075266	0.077067	0.040487	0.15363	0.24414	0.14202	0.14363	0.22074	0.025922	0.067955	0.14872	0.25084	0.3327	0.30862	0.13959	0.018479	-2.8396	-3.9333	-3.8396	-3.4604	-4.0917	-3.5083	-3.7812	-4.1667	-3.1104	-3.9437	-3.9771	-3.3229	-4.1813	-3.6583	-3.4167	-4.1562	169.806	-94.248	-81.248	130.715	87.789	-139.261	-136.038	197.545	-91.632	-51.130	-88.602	163.536	208.792	179.489	87.825	80.433	0.00051983	0.00048002	0.00016701	1311.7	4.0325e-06	4.1368e-06	1312.6	363.95	4.0775e-06	3.2655e-06	417.32	139.87	120.75	41.549	2.6381e-06	51.632	0.00078083	0.0009005	0.0002551	1326.4	9.684e-06	1.0093e-05	1332.3	370.83	9.7697e-06	9.9808e-06	427.05	143.45	123.95	42.627	9.9001e-06	53.437	168.505	-40.720	-30.114	-129.221	-47.574	-21.907	-129.740	-125.026	-41.874	4.037	-125.315	-121.573	-120.967	-115.985	6.992	-116.587	-8191	255	
794.115	1	1	0	0	0.14589	0.096335	0.1813	0.18475	0.17572	0.039554	0.07316	0.15383	0.27878	0.35802	0.080862	0.10872	0.12655	0.27496	0.035316	0.25831	-2.9979	-3.85	-3.95	-3.6188	-3.9813	-3.8333	-3.6	-4.0813	-3.4792	-3.725	-4.0833	-3.4396	-3.8937	-3.8229	-3.4417	-4.1354	60.832	121.444	122.812	133.090	-45.388	-48.723	171.244	189.974	93.185	101.380	-22.209	184.992	141.656	-125.024	-44.450	185.917	0.00049629	0.00039595	0.00014366	1310.1	3.8634e-06	4.686e-06	1309.6	363.27	5.2054e-06	3.1576e-06	419.35	139.55	121.2	41.393	3.4698e-06	52.12	0.00078096	0.00091144	0.00024228	1325.4	9.7784e-06	1.0155e-05	1332.6	370.22	9.6376e-06	1.0072e-05	426.93	143.36	124.12	42.596	1.0067e-05	53.455	167.816	-92.076	-37.485	-129.539	-28.272	35.157	-129.475	-124.890	-55.558	25.989	-125.276	-121.609	-120.854	-116.062	7.016	-116.458	-8191	255	
794.211	1	1	0	0	0.18144	0.051585	0.13747	0.18484	0.21555	0.038957	0.038995	0.10208	0.26404	0.15847	0.32935	0.10938	0.33307	0.10822	0.28292	0.063364	-2.925	-3.7042	-4.0062	-3.5292	-3.9896	-3.8125	-3.475	-4.2958	-3.5875	-3.5083	-4.2125	-3.5583	-3.9313	-4.0958	-3.3688	-4.1229	-18.621	131.010	183.309	137.308	155.898	177.860	-139.932	109.058	19.855	14.809	-120.410	113.797	214.637	-49.820	-57.379	-113.526	0.00053549	0.0006028	0.00017447	1309.4	3.196e-06	5.2803e-06	1311.2	364.42	6.2865e-06	3.7674e-06	419.48	139.27	121.3	41.597	3.8484e-06	51.807	0.00078363	0.0009103	0.0002529	1325.2	9.6376e-06	1.0097e-05	1330.3	371.26	9.9757e-06	1.0157e-05	427.08	143.15	124.03	42.604	1.002e-05	53.311	168.264	-54.494	-61.499	-129.382	-17.077	22.143	-129.606	-124.940	-22.657	10.134	-125.256	-121.562	-120.795	-116.157	10.524	-116.714	-8191	255	
794.332	1	1	0	0	0.061473	0.2483	0.13817	0.11235	0.11263	0.093081	0.15958	0.12251	0.039553	0.14762	0.15579	0.10648	0.15574	0.21608	0.30916	0.23352	-3.1083	-3.4792	-4.0042	-3.425	-4.0062	-3.8667	-3.4437	-4.1937	-3.4313	-3.2687	-4.1792	-3.4458	-3.8583	-3.7812	-3.3917	-4.0563	-61.272	-78.882	150.491	214.319	-116.615	214.070	132.990	166.542	-50.948	116.368	168.509	-111.256	-128.011	-103.793	5.727	72.544	0.00048893	0.00042681	0.00014722	1306.3	2.5511e-06	3.3388e-06	1310.7	362.87	4.8918e-06	7.2198e-06	418.93	139.32	121.12	41.542	5.1977e-06	51.711	0.0007823	0.00091343	0.00025409	1324.2	9.571e-06	9.8134e-06	1333.8	370.93	9.9301e-06	1.0215e-05	427.05	142.99	124.11	42.632	9.7712e-06	53.327	170.415	-82.993	-57.868	-129.454	-21.860	31.924	-129.675	-125.035	-47.160	-1.895	-125.378	-121.495	-121.113	-116.149	-30.495	-116.646	-8191	255	
794.428	1	1	0	0	0.10737	0.37686	0.18294	0.35585	0.061449	0.22897	0.10023	0.21904	0.066003	0.23235	0.19343	0.28161	0.17458	0.15722	0.18002	0.29813	-3.3167	-3.3438	-4.1083	-3.4875	-3.8104	-4.0917	-3.4375	-4.0958	-3.8125	-3.2	-4.2021	-3.6833	-3.6063	-4.0938	-3.3625	-3.9813	15.006	-86.245	-90.106	-120.976	209.605	25.024	81.595	110.529	105.031	103.634	-132.047	-127.531	205.042	34.741	154.384	206.152	0.00050669	0.00046838	0.00017149	1308.2	2.5433e-06	7.8621e-06	1303.2	363.71	6.034e-06	4.3285e-06	419.07	139.74	120.92	41.532	4.1778e-06	51.408	0.00077121	0.00091681	0.00024683	1325.9	9.5681e-06	1.0177e-05	1331	370.83	9.4812e-06	1.0165e-05	427.29	143.18	124.09	42.656	9.856e-06	53.2	168.917	-71.602	-52.930	-129.449	-28.217	1.475	-129.593	-125.002	-35.248	-5.987	-125.406	-121.613	-120.896	-116.086	-1.511	-116.558	-8191	255	
794.500	1	1	0	0	0.070489	0.2153	0.028188	0.35008	0.087826	0.26162	0.29342	0.090332	0.12144	0.13932	0.22178	0.17147	0.26466	0.11271	0.17684	0.30014	-3.6083	-3.4125	-4.1042	-3.5354	-3.5146	-4.1813	-3.5563	-4.0833	-3.9292	-3.25	-4.2479	-3.5604	-3.6437	-4.2688	-3.4146	-4.0271	211.104	146.252	84.467	-138.658	116.776	19.654	168.732	-92.894	192.021	61.129	80.061	171.353	168.699	108.232	137.465	140.137	0.00053715	0.00073715	0.0002403	1309.9	4.3861e-06	5.8682e-06	1308.6	364.38	5.4157e-06	6.5318e-06	419.65	139.34	121.28	41.554	5.2157e-06	51.759	0.00078258	0.00091546	0.0002468	1324.8	9.4414e-06	1.007e-05	1331.7	370.62	9.5466e-06	1.0205e-05	427.93	143.04	124.05	42.577	9.8301e-06	53.307	169.302	-62.988	-49.496	-129.366	-29.528	-3.265	-129.706	-125.026	-25.726	20.518	-125.441	-121.543	-120.770	-115.990	6.691	-116.474	-8191	255	
794.596	1	1	0	0	0.24535	0.18935	0.11409	0.19367	0.14881	0.060159	0.39133	0.23164	0.19975	0.26804	0.043866	0.21162	0.11187	0.29497	0.13395	0.18413	-3.6958	-3.4104	-4.0021	-3.675	-3.2625	-4.175	-3.6292	-3.9208	-3.8896	-3.5021	-4.0646	-3.85	-3.4396	-4.175	-3.4646	-3.8312	215.386	-118.323	-73.822	-130.330	135.925	162.251	145.196	137.805	134.499	7.644	-72.306	-117.525	25.523	165.470	-45.018	185.833	0.00050315	0.00043917	0.00011568	1308.6	3.9473e-06	5.5426e-06	1309.2	364.31	4.144e-06	5.4983e-06	420.84	139.09	121.26	41.588	4.9153e-06	51.737	0.00078479	0.00093404	0.00025638	1323.4	9.797e-06	1.0175e-05	1332.2	370.93	9.9789e-06	1.0524e-05	427.48	142.79	124.23	42.704	9.8946e-06	53.353	168.309	-78.726	-27.563	-129.509	-3.118	-5.096	-129.589	-124.717	-64.615	1.574	-125.192	-121.668	-121.040	-116.106	-15.678	-116.466	-8191	255	
794.715	1	1	0	0	0.30071	0.12639	0.2582	0.047754	0.16344	0.18548	0.08394	0.16365	0.15395	0.016155	0.14178	0.12222	0.20065	0.16572	0.029505	0.15555	-3.6375	-3.2812	-3.9021	-3.7417	-3.2208	-4.15	-3.8354	-3.6958	-3.9542	-3.3333	-4.1229	-3.9313	-3.3854	-4.125	-3.5104	-3.4938	121.624	-93.078	194.197	-121.597	32.109	67.021	185.274	-138.428	-116.572	18.550	-125.366	162.495	190.867	-5.302	-44.051	184.099	0.00050591	0.00032618	0.00012517	1308.9	3.4079e-06	4.3231e-06	1313.6	362.6	4.3489e-06	4.0926e-06	419.05	139.82	120.91	41.469	6.6897e-06	51.794	0.00080295	0.0009453	0.00025798	1323.8	9.6101e-06	1.0238e-05	1332.2	370.22	9.9232e-06	1.015e-05	427.04	143.18	123.95	42.548	1.0036e-05	53.368	170.711	-30.684	-62.520	-129.594	-19.294	-19.863	-129.551	-124.895	-32.164	17.519	-125.169	-121.488	-120.997	-116.058	0.953	-116.755	-8191	255	
794.811	1	1	0	0	0.10776	0.25427	0.12087	0.40015	0.14495	0.23417	0.11828	0.14995	0.18523	0.1537	0.1157	0.2339	0.26428	0.17941	0.090254	0.20252	-3.6292	-3.2021	-3.7708	-4.1125	-3.2396	-3.9021	-3.7771	-3.7188	-4.0417	-3.5042	-4.0125	-4.0229	-3.2729	-4.0125	-3.5646	-3.4792	-59.345	201.740	123.398	192.890	34.026	197.348	109.429	-129.036	102.992	-96.192	-46.452	174.638	161.562	172.202	-109.316	53.118	0.00050967	0.00050517	0.00013224	1309.1	3.7599e-06	4.5079e-06	1306.6	363.28	3.6917e-06	5.9624e-06	419.59	139.63	120.57	41.49	5.0795e-06	51.901	0.00079122	0.00092559	0.00025172	1325.6	9.6767e-06	9.8541e-06	1329.7	370.29	9.7842e-06	1.0312e-05	426.86	143.21	123.79	42.664	9.959e-06	53.357	168.769	-51.299	-50.021	-129.343	-29.922	5.480	-129.858	-124.920	-27.219	16.904	-125.282	-121.729	-120.933	-115.940	7.350	-116.321	-8191	255	
794.907	1	1	0	0	0.15164	0.12503	0.14319	0.23053	0.23399	0.051839	0.24137	0.249	0.051852	0.035992	0.023692	0.087332	0.16244	0.043481	0.09657	0.18547	-3.475	-3.3021	-3.6354	-4.1479	-3.3187	-3.9917	-3.8542	-3.6167	-4.0521	-3.5542	-3.6813	-4.1604	-3.65	-4.0833	-3.6583	-3.1833	196.542	-79.707	214.810	156.839	-96.992	179.213	130.399	-126.416	94.529	79.662	-22.375	134.705	-86.192	179.459	201.876	122.717	0.00053903	0.00062442	0.00017018	1306.4	4.566e-06	7.9932e-06	1310	363.42	4.6993e-06	5.6416e-06	419.41	139.53	120.64	41.488	3.6466e-06	51.709	0.00079246	0.00090685	0.00025254	1323.6	9.6791e-06	9.968e-06	1333.1	370.49	9.5095e-06	9.9672e-06	427.05	143.28	123.85	42.571	9.6873e-06	53.264	170.909	-33.852	-63.377	-129.265	-37.412	-11.225	-129.538	-124.681	-48.204	-6.466	-125.223	-121.457	-120.803	-115.752	12.060	-116.415	-8191	255	
795.003	1	1	0	0	0.17771	0.36961	0.25445	0.29941	0.106	0.091235	0.1678	0.30592	0.01184	0.13182	0.21529	0.11487	0.059451	0.31111	0.12567	0.050412	-3.7125	-3.3125	-3.4313	-4.0875	-3.2625	-3.8521	-3.9333	-3.35	-3.975	-3.7396	-3.4958	-4.1917	-3.3625	-4.0083	-3.9854	-3.4208	18.458	163.473	150.195	128.112	3.293	129.076	194.711	170.456	-123.128	73.610	185.414	177.207	189.486	177.320	147.240	137.461	0.00054481	0.00065757	0.00013126	1307.9	3.1156e-06	4.6676e-06	1311.3	363.5	4.8343e-06	4.2922e-06	419.6	139.84	121.13	41.643	2.3618e-06	51.406	0.00078117	0.00090315	0.00025053	1325.3	9.73e-06	9.9527e-06	1331.9	370.17	9.5911e-06	1.0287e-05	426.67	143.34	124.08	42.636	9.4503e-06	53.218	170.553	-53.070	-53.257	-129.343	-27.416	19.571	-129.411	-124.822	-21.177	20.287	-125.172	-121.620	-120.827	-115.804	-3.774	-116.601	-8191	255	
795.100	1	1	0	0	0.31821	0.19391	0.028769	0.10721	0.15897	0.059434	0.32488	0.25634	0.05076	0.16531	0.14046	0.073619	0.28479	0.05387	0.027743	0.11192	-3.6813	-3.7062	-3.4313	-4.3021	-3.3438	-3.8354	-4.1771	-3.3021	-4.0396	-3.5375	-3.2958	-4.3375	-3.5167	-3.975	-4.0104	-3.3979	148.076	-35.444	-42.977	142.632	75.365	206.999	119.864	208.895	66.980	111.353	-63.609	6.124	192.039	215.081	-16.810	192.795	0.00054029	0.00054747	0.00012705	1309	4.1277e-06	4.2373e-06	1309.7	363.9	3.0454e-06	5.7372e-06	418.73	140.03	120.51	41.544	2.9124e-06	51.808	0.00077787	0.0009003	0.00024841	1327.4	9.5391e-06	9.8134e-06	1332.5	370.62	9.2137e-06	9.8366e-06	427.1	143.25	123.97	42.591	9.4617e-06	53.398	174.566	-54.116	-63.597	-129.409	-38.765	2.010	-129.625	-124.885	-33.025	-21.174	-125.168	-121.396	-120.842	-115.860	25.829	-116.466	-8191	255	
795.196	1	1	0	0	0.077577	0.19095	0.069831	0.21501	0.088434	0.060397	0.07379	0.32844	0.1476	0.17487	0.29913	0.17719	0.12367	0.28434	0.14325	0.1264	-3.675	-3.7146	-3.3854	-4.2896	-3.4437	-3.6792	-4.3	-3.4938	-4.0896	-3.6042	-3.325	-4.1333	-3.425	-3.8	-4.1542	-3.3375	159.452	-57.419	41.324	144.389	14.351	-81.350	126.914	94.020	-103.846	12.476	184.589	89.728	75.814	163.000	-109.180	83.016	0.0005403	0.00036812	0.00011076	1310.1	2.8839e-06	6.9915e-06	1311.4	362.15	4.6115e-06	2.8149e-06	418.15	140.17	121.05	41.432	4.9045e-06	51.527	0.00076226	0.00088562	0.00025075	1328.9	9.4172e-06	9.8528e-06	1332.7	369.74	9.3467e-06	9.8922e-06	426.56	143.39	123.94	42.538	9.5291e-06	53.228	168.516	-50.781	-55.818	-129.267	-45.451	17.128	-129.529	-124.927	-47.209	-12.589	-124.870	-121.367	-120.715	-115.748	-22.276	-116.351	-8191	255	
795.292	1	1	0	0	0.11472	0.058334	0.081707	0.26998	0.37165	0.19708	0.38333	0.22122	0.25119	0.24442	0.2207	0.20599	0.098701	0.25031	0.18142	0.10327	-3.4917	-3.7313	-3.2208	-4.225	-3.4229	-3.625	-4.1375	-3.4708	-3.8312	-3.9896	-3.3125	-4.2458	-3.7479	-3.4896	-4.1104	-3.4583	57.013	-8.972	111.585	-104.580	-71.866	196.568	-130.810	171.310	69.400	139.464	110.710	184.019	3.350	115.609	134.985	155.914	0.00053843	0.00062191	0.00014852	1311.5	2.9489e-06	4.9568e-06	1308.4	364.25	3.9996e-06	4.0162e-06	418.89	139.79	121.26	41.594	5.6714e-06	51.589	0.00079526	0.00090331	0.00024932	1326.8	9.4697e-06	9.9084e-06	1333.6	370.8	9.5232e-06	9.683e-06	427.09	143.3	124.01	42.587	9.8115e-06	53.394	168.934	-52.101	-59.306	-129.419	-45.409	12.247	-129.618	-124.967	-47.095	-1.686	-125.488	-121.359	-120.862	-116.022	-13.665	-116.390	-8191	255	
795.412	1	1	0	0	0.17414	0.12525	0.31209	0.091193	0.19566	0.097446	0.17613	0.32792	0.063365	0.1091	0.073779	0.050901	0.12941	0.20201	0.046525	0.17423	-3.3229	-3.8229	-3.2104	-4.2479	-3.7229	-3.4375	-4.2396	-3.5396	-3.6375	-3.9292	-3.4583	-4.075	-3.7375	-3.475	-4.1396	-3.4938	153.910	133.706	114.542	191.887	-137.105	-113.788	87.764	96.002	159.162	40.808	-27.899	146.620	192.525	-137.431	123.701	176.774	0.0005481	0.00040418	0.00016937	1316.9	1.87e-06	7.1955e-06	1310.2	363.25	3.3477e-06	5.7865e-06	416.99	139.37	120.74	41.481	4.8212e-06	51.808	0.00078389	0.00089562	0.00025181	1328.4	9.4781e-06	1.0107e-05	1332.6	370.42	9.4557e-06	9.7711e-06	426.65	142.95	123.82	42.54	9.761e-06	53.316	171.917	-29.989	-61.084	-129.266	-21.560	-10.350	-129.335	-124.978	-43.424	4.598	-125.175	-121.388	-120.844	-115.988	-46.770	-116.517	-8191	255	
795.509	1	1	0	0	0.07846	0.068991	0.39214	0.2045	0.2037	0.33714	0.22136	0.21547	0.10926	0.22086	0.17638	0.11565	0.22335	0.22916	0.12312	0.11203	-3.2313	-4.1896	-3.2542	-3.9958	-3.7562	-3.4896	-4.3021	-3.7625	-3.7375	-4.0042	-3.4625	-3.8958	-4.0625	-3.5	-4.0958	-3.6521	116.858	100.805	78.565	167.934	-0.875	5.190	-139.036	150.020	-87.359	-1.598	90.415	-134.281	-17.914	137.035	-5.242	119.469	0.00053289	0.00054641	0.00012304	1308.3	2.9751e-06	3.9432e-06	1309.6	362.48	5.4598e-06	6.8749e-06	419.62	139.89	120.94	41.523	4.5055e-06	51.499	0.00076964	0.00088725	0.00025367	1326.1	9.1738e-06	9.709e-06	1331.6	369.84	9.6125e-06	9.889e-06	426.75	143.27	123.91	42.569	9.5228e-06	53.284	172.257	-43.106	-35.189	-129.372	-22.400	-5.505	-129.473	-125.008	-45.839	-1.076	-125.295	-121.458	-120.935	-116.184	-4.483	-116.738	-8191	255	
795.603	1	1	0	0	0.071038	0.086117	0.31678	0.19594	0.19956	0.17909	0.22638	0.17372	0.03514	0.071466	0.22096	0.13039	0.076224	0.21212	0.17736	0.07283	-3.0396	-3.9979	-3.25	-4.1375	-3.9542	-3.2979	-4.2917	-3.6875	-3.4708	-3.8875	-3.5	-3.8312	-4.1729	-3.2667	-4.0854	-3.7979	126.556	124.491	128.459	162.577	-23.286	64.576	157.314	137.029	28.025	52.696	173.481	-99.706	32.856	188.222	9.976	-121.079	0.00048321	0.00065678	9.2311e-05	1311.7	2.1946e-06	4.1573e-06	1309.2	362.93	4.2521e-06	4.5775e-06	418.33	139.83	121.07	41.371	4.0647e-06	51.694	0.00077471	0.000877	0.00025561	1325.8	9.1181e-06	9.6851e-06	1332	370.19	9.3265e-06	9.6545e-06	426.71	143.28	123.9	42.535	9.6996e-06	53.305	174.497	-47.269	-50.162	-129.167	-21.932	-5.489	-129.485	-125.098	-44.452	21.104	-125.337	-121.656	-121.151	-116.069	-17.305	-116.702	-8191	255	
795.701	1	1	0	0	0.16611	0.036076	0.084363	0.15361	0.13182	0.1618	0.20345	0.1428	0.11502	0.17389	0.20635	0.14652	0.26642	0.083882	0.1866	0.12671	-2.9125	-4.0667	-3.5458	-3.7667	-3.9437	-3.2604	-4.3396	-3.9188	-3.4062	-4.0312	-3.6375	-3.6604	-4.1229	-3.3729	-3.7771	-3.9917	28.417	190.090	109.998	215.313	116.040	-122.765	143.655	115.669	114.087	93.861	-84.516	214.267	-71.705	214.353	47.735	-48.278	0.00053033	0.00055942	0.00014274	1305.7	2.2092e-06	5.6005e-06	1310.7	363.49	5.2251e-06	4.6001e-06	417.58	139.67	121.09	41.456	3.7671e-06	51.594	0.00076226	0.00088831	0.00025303	1323.1	9.2485e-06	9.9418e-06	1332.1	370.17	9.6327e-06	9.5466e-06	426.92	142.85	123.99	42.597	9.4617e-06	53.243	173.813	-54.850	-57.488	-129.206	-51.398	11.616	-129.623	-125.042	-66.063	29.840	-125.496	-121.543	-121.046	-116.109	1.445	-116.750	-8191	255	
795.795	1	1	0	0	0.06598	0.19154	0.18376	0.20096	0.10881	0.19456	0.18622	0.18663	0.26269	0.25359	0.10798	0.25267	0.40947	0.23567	0.10319	0.14807	-2.8979	-3.9708	-3.4292	-3.7	-4.1146	-3.3812	-3.9708	-3.8958	-3.2896	-3.9042	-3.7729	-3.6229	-4.1188	-3.3646	-3.7729	-4.0917	-133.144	206.182	-40.732	160.291	-22.891	-34.550	136.435	156.681	47.823	207.174	77.564	141.212	81.827	153.526	27.500	95.288	0.00050623	0.00049163	0.00018739	1309.3	3.4482e-06	4.8516e-06	1309.8	364.28	3.5324e-06	5.3537e-06	417.31	139.5	121.05	41.486	4.4004e-06	51.731	0.00076568	0.00086778	0.00024782	1325	9.2162e-06	9.8767e-06	1332.2	370.45	9.3503e-06	9.6252e-06	426.7	143.17	123.85	42.53	9.4884e-06	53.31	171.355	-97.244	-60.795	-129.273	-36.550	4.026	-129.766	-125.000	-19.428	8.602	-125.616	-121.533	-120.994	-116.044	1.380	-116.798	-8191	255	
795.891	1	1	0	0	0.26035	0.10077	0.24586	0.30722	0.13462	0.16629	0.11755	0.10954	0.078278	0.19039	0.34379	0.07743	0.1911	0.34152	0.12107	0.16953	-2.8771	-4.1583	-3.5771	-3.4437	-3.8833	-3.425	-4.0021	-4.0646	-3.2938	-4.1	-3.7104	-3.4	-4.1042	-3.3646	-3.6896	-4.0042	177.295	130.354	160.583	42.476	57.696	-3.959	-110.548	209.650	193.760	-64.018	152.522	-117.112	195.065	123.738	-52.993	-131.136	0.0005097	0.00021658	0.00011088	1310.8	3.4477e-06	5.9192e-06	1310.2	363.35	5.0933e-06	3.7477e-06	420.53	139.08	121.34	41.345	3.5389e-06	51.85	0.00075907	0.00088026	0.00024391	1324	9.144e-06	9.9622e-06	1331.4	369.87	9.4901e-06	9.7494e-06	427.67	143.01	124.22	42.515	9.6309e-06	53.287	173.377	-66.976	-27.820	-129.375	-19.050	-7.898	-129.517	-124.878	-50.847	0.116	-125.661	-121.496	-120.867	-115.797	-32.898	-116.701	-8191	255	
796.012	1	1	0	0	0.21307	0.11991	0.14853	0.25597	0.063422	0.26055	0.1408	0.21432	0.11563	0.054275	0.29023	0.14075	0.19893	0.2303	0.11646	0.10888	-2.8688	-4.1375	-3.9208	-3.5792	-4.2042	-3.4896	-3.9167	-4.2104	-3.2583	-3.9479	-3.9667	-3.4208	-4.4083	-3.5938	-3.5667	-4.1875	186.491	194.867	-123.641	215.865	126.181	-26.416	186.613	150.703	160.705	-109.201	157.061	-126.747	154.858	137.962	-102.917	156.771	0.00050363	0.0003003	0.00014108	1311.5	5.1641e-06	3.4098e-06	1304.5	363.9	4.5186e-06	4.9352e-06	418	140.07	121.16	41.22	5.0208e-06	51.683	0.00076197	0.00087639	0.0002423	1324.7	9.3716e-06	9.5345e-06	1330.4	370.29	9.3737e-06	9.7589e-06	426.7	143.2	123.9	42.478	9.4091e-06	53.242	169.253	-37.485	-34.130	-129.290	-28.938	20.010	-129.584	-124.901	-43.774	23.671	-125.471	-121.661	-120.820	-116.138	-43.670	-116.620	-8191	255	
796.108	1	1	0	0	0.16039	0.059913	0.18738	0.28313	0.14669	0.14413	0.14412	0.18209	0.23649	0.13303	0.17887	0.22767	0.17863	0.07228	0.080582	0.019761	-2.8708	-3.8958	-3.9917	-3.4604	-3.9583	-3.5354	-3.7229	-4.2729	-3.325	-3.825	-3.9729	-3.3521	-4.2667	-3.8688	-3.4229	-4.3812	167.003	8.525	-99.596	171.218	-7.160	39.118	149.065	178.390	-94.242	-141.767	215.389	158.822	216.712	-93.203	-24.295	29.220	0.00054478	0.00065127	0.00012686	1310.2	2.3335e-06	5.4416e-06	1312.7	362.18	3.9379e-06	5.5951e-06	419.27	139.61	121.1	41.547	4.3246e-06	51.919	0.00078024	0.00086737	0.00024516	1325.1	8.9789e-06	9.8577e-06	1333	369.97	9.5058e-06	9.711e-06	426.66	143.14	124.05	42.596	9.5185e-06	53.354	168.625	-54.814	-27.337	-129.320	-41.212	0.500	-129.567	-124.804	-26.283	-29.257	-125.280	-121.403	-120.889	-116.010	-20.203	-116.899	-8191	255	
796.204	1	1	0	0	0.090936	0.39549	0.063725	0.24159	0.11218	0.20462	0.35977	0.19159	0.072317	0.26529	0.15147	0.39251	0.21157	0.17252	0.17485	0.079999	-3.0896	-3.7062	-4.0104	-3.5083	-4.0625	-3.5833	-3.6083	-4.4812	-3.4521	-3.6896	-4.2646	-3.4271	-4.1438	-3.825	-3.4313	-4.4646	66.515	124.789	137.420	210.498	-37.052	-139.581	-133.274	166.536	-84.325	175.742	148.765	-129.445	208.485	204.047	107.033	80.704	0.00049857	0.00061193	0.00010637	1309.7	2.8091e-06	4.761e-06	1314.3	363.37	3.6364e-06	3.8405e-06	416.66	139.19	120.4	41.419	2.5988e-06	51.729	0.00077221	0.00088168	0.00024707	1326.3	9.2089e-06	9.577e-06	1332.4	370.21	9.4048e-06	9.6853e-06	426.02	143.05	123.82	42.508	9.5567e-06	53.34	173.621	-48.271	-82.453	-129.554	25.438	0.758	-129.681	-125.069	-27.512	24.040	-125.434	-121.323	-120.922	-115.994	-37.444	-116.748	-8191	255	
796.301	1	1	0	0	0.047929	0.14716	0.14231	0.29291	0.091739	0.11359	0.10858	0.099907	0.24716	0.18021	0.37906	0.018502	0.12438	0.19985	0.17105	0.06694	-3.1083	-3.7292	-3.9729	-3.4417	-3.8521	-3.7167	-3.5312	-4.3375	-3.45	-3.5229	-4.1729	-3.4938	-4.1479	-3.9417	-3.3771	-4.1438	58.803	-91.751	60.748	154.796	155.873	-89.637	178.626	210.855	-120.512	-108.675	-127.730	-94.844	133.457	3.948	-115.266	-106.603	0.00049331	0.00045215	0.00014451	1309.3	3.8942e-06	4.6045e-06	1310.2	364.39	9.2843e-07	4.8639e-06	417.98	140.09	121.06	41.394	5.1806e-06	51.732	0.00077527	0.00089766	0.00024998	1325.2	9.4406e-06	9.7095e-06	1332.1	370.79	9.3006e-06	9.6338e-06	427.3	143.27	123.78	42.504	9.5291e-06	53.321	174.255	-82.147	-38.551	-129.306	-13.523	27.712	-129.823	-124.907	-89.499	6.880	-125.387	-121.646	-120.907	-115.915	-20.336	-116.613	-8191	255	
796.397	1	1	0	0	0.26668	0.055868	0.22918	0.065758	0.17557	0.11187	0.09866	0.17996	0.10947	0.23117	0.10928	0.20002	0.1745	0.222	0.27875	0.13662	-3.3104	-3.4813	-4.15	-3.6417	-3.8375	-3.9667	-3.4562	-4.375	-3.7354	-3.375	-4.4187	-3.6896	-3.7521	-4.1583	-3.3521	-4.1229	53.485	136.160	-57.316	45.910	28.092	102.300	183.069	-87.887	-46.752	147.508	178.848	-140.111	135.924	192.406	-135.056	202.472	0.00051896	0.0005787	0.00017206	1311.6	4.0424e-06	6.9728e-06	1308.1	363.46	2.9786e-06	3.9255e-06	417.76	140.12	121.18	41.333	2.9396e-06	51.738	0.00075909	0.0008916	0.00024314	1327.1	9.2202e-06	9.7859e-06	1331.7	370.26	9.5002e-06	9.5782e-06	426.21	143.32	124	42.599	9.5266e-06	53.322	168.346	-64.502	-46.667	-129.268	-16.830	11.921	-129.599	-124.800	-30.952	-9.866	-125.371	-121.422	-120.926	-115.799	4.360	-116.300	-8191	255	
#DATA ENDS
