BOXY.EXE: ISS Imagent and Oximeter Data Acquisition Program Version 0.80
Ascii Record File

#ACQ INFORMATION
2  Detector Channels 
16  External MUX Channels 
1  Auxiliary Channels 
5000  Waveform (CCF) Frequency (Hz)
1  Waveforms Skipped 
30  Waveforms Averaged 
1  Cycles Averaged 
16  Acquisitions per Waveform 
10.0806  Updata Rate (Hz) 

#FILE INFORMATION
TRUE -- External MUX Channel results are PARSED.
FALSE -- AC DC and Phase are NOT grouped.
TRUE -- Companion Program Settings File CREATED.
FALSE -- AC data not excluded
FALSE -- DC data not excluded
FALSE -- Phase data not excluded
FALSE -- Auxillary Chn. data not excluded
Tab delimiters

#CALIBRATION STATE
TRUE -- Waveform Calibration Values APPLIED.


#AUX CALIBRATION VALUES
Val Type	aux-1	

Term	1.0000e+00	
Factor	0.0000e+00	


#WF CALIBRATION VALUES
A = Detector Channel
Val Type	A-AC1	A-AC2	A-AC3	A-AC4	A-AC5	A-AC6	A-AC7	A-AC8	A-AC9	A-AC10	A-AC11	A-AC12	A-AC13	A-AC14	A-AC15	A-AC16	A-DC1	A-DC2	A-DC3	A-DC4	A-DC5	A-DC6	A-DC7	A-DC8	A-DC9	A-DC10	A-DC11	A-DC12	A-DC13	A-DC14	A-DC15	A-DC16	A-Ph1	A-Ph2	A-Ph3	A-Ph4	A-Ph5	A-Ph6	A-Ph7	A-Ph8	A-Ph9	A-Ph10	A-Ph11	A-Ph12	A-Ph13	A-Ph14	A-Ph15	A-Ph16	

Term	0.00000e+00	0.00000e+00	0.00000e+00	0.00000e+00	0.00000e+00	0.00000e+00	0.00000e+00	0.00000e+00	0.00000e+00	0.00000e+00	0.00000e+00	0.00000e+00	0.00000e+00	0.00000e+00	0.00000e+00	0.00000e+00	0.00000e+00	0.00000e+00	0.00000e+00	0.00000e+00	0.00000e+00	0.00000e+00	0.00000e+00	0.00000e+00	0.00000e+00	0.00000e+00	0.00000e+00	0.00000e+00	0.00000e+00	0.00000e+00	0.00000e+00	0.00000e+00	0.00000e+00	0.00000e+00	0.00000e+00	0.00000e+00	0.00000e+00	0.00000e+00	0.00000e+00	0.00000e+00	0.00000e+00	0.00000e+00	0.00000e+00	0.00000e+00	0.00000e+00	0.00000e+00	0.00000e+00	0.00000e+00	
Factor	1.00000e+00	1.00000e+00	1.00000e+00	1.00000e+00	1.00000e+00	1.00000e+00	1.00000e+00	1.00000e+00	1.00000e+00	1.00000e+00	1.00000e+00	1.00000e+00	1.00000e+00	1.00000e+00	1.00000e+00	1.00000e+00	1.00000e+00	1.00000e+00	1.00000e+00	1.00000e+00	1.00000e+00	1.00000e+00	1.00000e+00	1.00000e+00	1.00000e+00	1.00000e+00	1.00000e+00	1.00000e+00	1.00000e+00	1.00000e+00	1.00000e+00	1.00000e+00	X	X	X	X	X	X	X	X	X	X	X	X	X	X	X	X	

B = Detector Channel
Val Type	B-AC1	B-AC2	B-AC3	B-AC4	B-AC5	B-AC6	B-AC7	B-AC8	B-AC9	B-AC10	B-AC11	B-AC12	B-AC13	B-AC14	B-AC15	B-AC16	B-DC1	B-DC2	B-DC3	B-DC4	B-DC5	B-DC6	B-DC7	B-DC8	B-DC9	B-DC10	B-DC11	B-DC12	B-DC13	B-DC14	B-DC15	B-DC16	B-Ph1	B-Ph2	B-Ph3	B-Ph4	B-Ph5	B-Ph6	B-Ph7	B-Ph8	B-Ph9	B-Ph10	B-Ph11	B-Ph12	B-Ph13	B-Ph14	B-Ph15	B-Ph16	

Term	0.00000e+00	0.00000e+00	0.00000e+00	0.00000e+00	0.00000e+00	0.00000e+00	0.00000e+00	0.00000e+00	0.00000e+00	0.00000e+00	0.00000e+00	0.00000e+00	0.00000e+00	0.00000e+00	0.00000e+00	0.00000e+00	0.00000e+00	0.00000e+00	0.00000e+00	0.00000e+00	0.00000e+00	0.00000e+00	0.00000e+00	0.00000e+00	0.00000e+00	0.00000e+00	0.00000e+00	0.00000e+00	0.00000e+00	0.00000e+00	0.00000e+00	0.00000e+00	-1.63787e+02	-1.30482e+02	-1.27013e+02	-1.82279e+02	-8.24491e+01	-6.84222e+01	-1.57983e+02	-1.62015e+02	-7.99557e+01	-6.61839e+01	-1.70752e+02	-1.71092e+02	-1.83452e+02	-1.76822e+02	-7.40614e+01	-1.49983e+02	
Factor	2.59249e-05	1.52061e-04	4.07654e-05	1.48901e-01	1.23010e-06	1.67438e-06	1.54864e-01	4.69470e-02	1.30575e-06	1.53596e-06	8.14838e-02	2.72825e-02	2.22300e-02	8.62773e-03	1.45183e-06	1.23607e-02	1.23476e-05	1.95143e-05	5.42117e-06	7.93904e-02	1.93728e-07	2.16972e-07	7.74914e-02	2.51744e-02	1.93923e-07	2.16875e-07	4.22625e-02	1.41663e-02	1.20339e-02	4.66463e-03	2.03514e-07	6.46462e-03	X	X	X	X	X	X	X	X	X	X	X	X	X	X	X	X	



#DISTANCE SETTINGS
A = Detector Channel
A-1	A-2	A-3	A-4	A-5	A-6	A-7	A-8	A-9	A-10	A-11	A-12	A-13	A-14	A-15	A-16	

2.5000e+00	3.0000e+00	2.5000e+00	3.0000e+00	2.0000e+00	3.0000e+00	1.5000e+00	3.0000e+00	3.0000e+00	3.0000e+00	3.0000e+00	3.0000e+00	3.0000e+00	3.0000e+00	1.5000e+00	3.0000e+00	

B = Detector Channel
B-1	B-2	B-3	B-4	B-5	B-6	B-7	B-8	B-9	B-10	B-11	B-12	B-13	B-14	B-15	B-16	

1.0000e+01	1.0000e+01	1.0000e+01	1.4400e+00	1.0000e+01	1.0000e+01	1.5100e+00	1.9400e+00	1.0000e+01	1.0000e+01	1.9900e+00	2.4900e+00	2.4100e+00	2.9000e+00	1.0000e+01	2.9800e+00	




#DATA BEGINS
time	group	step	mark	flag	A-AC1	A-AC2	A-AC3	A-AC4	A-AC5	A-AC6	A-AC7	A-AC8	A-AC9	A-AC10	A-AC11	A-AC12	A-AC13	A-AC14	A-AC15	A-AC16	A-DC1	A-DC2	A-DC3	A-DC4	A-DC5	A-DC6	A-DC7	A-DC8	A-DC9	A-DC10	A-DC11	A-DC12	A-DC13	A-DC14	A-DC15	A-DC16	A-Ph1	A-Ph2	A-Ph3	A-Ph4	A-Ph5	A-Ph6	A-Ph7	A-Ph8	A-Ph9	A-Ph10	A-Ph11	A-Ph12	A-Ph13	A-Ph14	A-Ph15	A-Ph16	B-AC1	B-AC2	B-AC3	B-AC4	B-AC5	B-AC6	B-AC7	B-AC8	B-AC9	B-AC10	B-AC11	B-AC12	B-AC13	B-AC14	B-AC15	B-AC16	B-DC1	B-DC2	B-DC3	B-DC4	B-DC5	B-DC6	B-DC7	B-DC8	B-DC9	B-DC10	B-DC11	B-DC12	B-DC13	B-DC14	B-DC15	B-DC16	B-Ph1	B-Ph2	B-Ph3	B-Ph4	B-Ph5	B-Ph6	B-Ph7	B-Ph8	B-Ph9	B-Ph10	B-Ph11	B-Ph12	B-Ph13	B-Ph14	B-Ph15	B-Ph16	aux-1	digaux	

722.826	1	1	0	256	0.22498	0.19806	0.25469	0.17498	0.23256	0.27523	0.34046	0.26849	0.28789	0.11593	0.10732	0.11206	0.16086	0.28818	0.21054	0.028656	-3.2021	-3.3187	-4.1229	-3.4896	-3.7021	-3.6958	-3.4375	-4.2229	-3.4958	-3.2646	-4.2438	-3.3563	-3.8271	-3.9708	-3.2271	-3.9854	73.291	40.430	-9.198	187.332	102.063	-32.651	170.749	171.005	187.103	148.476	184.209	118.804	-69.679	170.364	-98.323	202.265	0.0004872	0.00068055	0.00014337	1415.4	3.1171e-06	4.5917e-06	1410.7	387.72	3.7514e-06	6.2484e-06	443.35	148.17	129.28	44.3	4.0547e-06	54.917	0.00054695	0.00056034	0.00015258	1428.9	6.1436e-06	5.785e-06	1431.6	394.07	6.2447e-06	6.1823e-06	450.32	151.63	132.23	45.462	6.0668e-06	56.459	167.642	-53.491	-37.592	-117.941	-22.639	6.525	-118.075	-113.426	-34.553	20.486	-114.168	-109.966	-109.388	-104.305	-2.650	-105.031	-8191	255	
722.922	1	1	0	0	0.21862	0.25701	0.06215	0.31771	0.1332	0.020785	0.29466	0.19258	0.13997	0.15642	0.15032	0.32188	0.097063	0.25938	0.29054	0.31991	-3.2604	-3.3937	-4.1083	-3.4479	-3.6667	-3.8208	-3.4604	-3.9875	-3.7604	-3.3333	-4.2937	-3.3937	-3.7479	-4.1354	-3.1208	-3.9167	129.176	214.068	-129.837	192.598	220.088	-5.675	170.440	187.733	90.348	91.535	100.845	148.897	-112.157	-125.394	77.691	143.813	0.00048567	0.00055701	0.00015605	1408.6	3.7954e-06	5.6272e-06	1411.8	387.28	4.6769e-06	5.8525e-06	443.18	148.99	129.19	44.487	4.9909e-06	55.055	0.00056892	0.00056986	0.00015572	1425.5	6.2134e-06	6.4233e-06	1430.7	394.23	6.4976e-06	6.354e-06	449.98	151.8	132.26	45.49	6.381e-06	56.414	168.263	-39.865	-47.637	-117.810	-10.801	39.981	-118.017	-113.276	-16.412	19.682	-113.774	-110.226	-109.234	-104.644	16.533	-104.967	-8191	255	
723.018	1	1	0	0	0.17059	0.048642	0.10558	0.26215	0.15058	0.29406	0.27391	0.30165	0.058166	0.1782	0.28836	0.3278	0.055191	0.097257	0.16554	0.16337	-3.3583	-3.1208	-3.9854	-3.7646	-3.2604	-4.0271	-3.5458	-4.0188	-3.8792	-3.2167	-4.05	-3.4896	-3.3896	-4.225	-3.3021	-3.8688	26.807	-15.290	84.592	182.853	-106.483	83.205	124.231	162.958	72.503	-130.525	-70.043	171.835	193.551	214.936	208.118	-91.735	0.00045755	0.00059294	0.00012098	1412.4	5.6148e-06	6.5576e-06	1410.7	387.65	4.4638e-06	3.895e-06	444.46	147.77	129.29	44.479	2.8822e-06	54.882	0.00056938	0.00058649	0.00014941	1429	6.55e-06	6.2443e-06	1432.4	394.35	6.4112e-06	6.5713e-06	450.09	151.72	132.18	45.527	6.5565e-06	56.333	172.014	-56.500	-39.406	-117.808	-3.028	13.585	-118.129	-113.365	-29.583	33.756	-113.762	-110.297	-109.194	-104.408	-10.302	-104.922	-8191	255	
723.114	1	1	0	0	0.16472	0.166	0.10975	0.37174	0.092511	0.066827	0.041658	0.16604	0.11306	0.32031	0.075412	0.10522	0.20695	0.03068	0.29825	0.1603	-3.3875	-3.2271	-3.8958	-3.9167	-3.3104	-3.9854	-3.5042	-3.9042	-3.9271	-3.3708	-4.1167	-3.8083	-3.4375	-4.1292	-3.4625	-3.6292	92.431	92.052	-123.208	202.894	54.736	4.743	-101.892	216.029	25.724	4.317	128.517	136.026	193.525	137.721	-63.825	-122.825	0.00047254	0.00051341	0.00013096	1411.6	3.1365e-06	5.1826e-06	1411.3	386.57	4.3293e-06	5.7571e-06	442.72	148.06	129.06	44.306	4.7786e-06	54.8	0.00056958	0.00058779	0.00016467	1426.3	6.4624e-06	6.3256e-06	1428.6	393.3	6.3445e-06	6.7457e-06	449.64	151.7	131.73	45.463	6.4421e-06	56.288	168.429	-58.127	-48.761	-117.712	1.165	27.159	-118.021	-113.381	-9.212	10.665	-113.786	-109.721	-109.131	-104.385	22.982	-105.185	-8191	255	
723.235	1	1	0	0	0.15386	0.14707	0.16202	0.32477	0.069319	0.28326	0.20909	0.1301	0.072928	0.086446	0.35977	0.15146	0.28853	0.19594	0.10384	0.13561	-3.5979	-3.3563	-3.875	-3.8438	-3.375	-4.1646	-3.7521	-3.7479	-4.0292	-3.2458	-3.9146	-3.9792	-3.375	-4.025	-3.5625	-3.4875	-104.776	-37.528	13.946	-124.189	-88.028	-121.740	158.221	199.268	-49.062	106.414	-114.104	208.096	-104.174	-117.718	114.760	197.378	0.00045723	0.00063257	0.00010417	1414.2	5.1002e-06	4.0518e-06	1407	385.91	4.7158e-06	4.6186e-06	442.17	147.61	128.7	44.181	4.201e-06	54.727	0.00056012	0.00058559	0.00016206	1427	6.5012e-06	6.1765e-06	1426.9	393.21	6.1692e-06	6.4421e-06	448.57	151.34	131.58	45.364	6.0567e-06	56.232	172.600	-60.374	-31.555	-117.856	4.327	15.980	-117.937	-113.439	-33.144	4.029	-113.581	-110.016	-109.445	-104.188	19.377	-104.964	-8191	255	
723.329	1	1	0	0	0.37349	0.19033	0.27239	0.33506	0.11292	0.25344	0.29936	0.093856	0.019508	0.21204	0.13851	0.16118	0.14906	0.17516	0.13673	0.17731	-3.6875	-3.2708	-3.7562	-3.9188	-3.075	-4.1333	-3.7208	-3.5271	-3.9562	-3.4271	-3.9146	-4.025	-3.2375	-4.2688	-3.6813	-3.4708	4.842	76.998	94.081	205.534	-45.578	98.996	139.565	227.572	192.108	-115.989	89.117	92.958	8.027	201.333	-121.218	88.548	0.00047221	0.00053848	0.0001034	1408.2	3.4408e-06	5.22e-06	1403.8	385.82	4.1652e-06	4.3316e-06	442.5	147.68	128.84	44.503	2.9982e-06	54.713	0.000572	0.00056469	0.00015197	1423	6.2195e-06	6.0255e-06	1424	392.65	6.2104e-06	6.3246e-06	449.01	151.06	131.47	45.361	6.2971e-06	56.182	171.351	-39.287	-29.823	-117.908	0.669	17.662	-118.146	-113.468	-28.830	-8.476	-113.721	-109.975	-109.513	-104.469	13.976	-104.842	-8191	255	
723.426	1	1	0	0	0.10786	0.1435	0.092314	0.10866	0.3002	0.096469	0.27688	0.11627	0.22122	0.10929	0.076942	0.20607	0.10381	0.038953	0.064876	0.16489	-3.7417	-3.1417	-3.6333	-4.2562	-3.2104	-3.9583	-3.8833	-3.5333	-4.1312	-3.4979	-3.6813	-4.0958	-3.3896	-4.1	-3.6937	-3.5042	30.487	127.597	83.078	156.528	-53.217	24.777	146.107	-112.261	45.511	80.659	-57.784	102.535	165.568	211.824	150.259	169.336	0.00045375	0.00039356	0.00014059	1413.3	3.5349e-06	6.8749e-06	1404.9	385.33	5.8465e-06	4.9542e-06	441.59	147.55	128.34	44.251	5.2877e-06	54.61	0.00056346	0.00056417	0.00015831	1421.5	6.4778e-06	6.2492e-06	1424.8	392.29	6.2063e-06	6.3124e-06	448.66	150.97	131.3	45.253	6.3339e-06	56.096	167.290	-51.062	-70.851	-117.761	16.325	3.333	-118.066	-113.343	-26.497	5.953	-113.326	-109.670	-109.459	-104.558	-2.851	-105.249	-8191	255	
723.522	1	1	0	0	0.14578	0.10604	0.09916	0.17542	0.09397	0.09184	0.32222	0.30528	0.046318	0.12574	0.086329	0.14195	0.17621	0.28551	0.098509	0.18044	-3.65	-3.5104	-3.5563	-4.2229	-3.3271	-3.9313	-3.9479	-3.5479	-4.2333	-3.5208	-3.5896	-4.1646	-3.4271	-3.7771	-3.9333	-3.3958	-115.554	-21.428	-18.837	188.513	169.609	83.741	156.793	161.693	-130.974	-108.113	24.313	195.176	-116.044	-97.928	121.341	218.723	0.00048886	0.00051857	0.00015743	1410.3	3.4225e-06	3.9888e-06	1406.2	385.22	3.8936e-06	2.4839e-06	440.51	147.39	128.51	44.237	3.8643e-06	54.476	0.00056133	0.00058417	0.00015842	1421	6.0839e-06	6.0354e-06	1425	391.39	6.4152e-06	6.1425e-06	448.1	150.9	131.09	45.183	6.5023e-06	55.88	172.752	-27.100	-44.792	-117.896	-6.894	29.271	-118.024	-113.357	-30.622	52.793	-113.579	-109.895	-109.610	-104.356	-12.763	-104.973	-8191	255	
723.618	1	1	0	0	0.10499	0.11272	0.19812	0.26801	0.060729	0.17659	0.077611	0.09061	0.18528	0.28569	0.12978	0.15955	0.27611	0.084358	0.20237	0.30696	-3.55	-3.3667	-3.2938	-4.3729	-3.2854	-3.7708	-4.2104	-3.3292	-3.9375	-3.6125	-3.5167	-4.1312	-3.5104	-3.8333	-3.925	-3.4688	63.351	-75.139	142.322	195.009	-37.937	194.681	175.188	123.883	158.774	93.013	112.098	193.836	170.558	219.498	177.793	216.747	0.00047201	0.00051131	0.00017999	1399.8	4.3081e-06	3.8276e-06	1401.7	385.82	4.806e-06	5.737e-06	443.28	147.33	127.73	44.027	5.295e-06	54.57	0.00056693	0.00059673	0.00016215	1417.3	6.4891e-06	6.416e-06	1421.1	391.56	6.597e-06	6.438e-06	448.34	150.74	130.87	45.055	6.4713e-06	55.971	171.580	-29.834	-39.516	-117.666	-4.535	26.924	-118.079	-113.448	-37.061	34.687	-113.745	-109.822	-109.500	-104.444	-3.722	-105.000	-8191	255	
723.714	1	1	0	0	0.13788	0.19218	0.1821	0.14579	0.083964	0.21092	0.063269	0.18836	0.15108	0.22191	0.10615	0.17963	0.030442	0.066659	0.097288	0.33868	-3.5687	-3.7313	-3.4208	-4.3729	-3.4021	-3.6229	-4.175	-3.5729	-3.7562	-3.5812	-3.45	-4.0292	-3.6188	-3.6208	-4.1021	-3.3542	-15.204	166.184	177.386	131.893	39.175	170.491	-58.204	213.610	-6.487	-78.514	86.558	107.395	218.848	168.180	149.390	145.848	0.00046434	0.00046089	0.00019096	1401.3	4.1277e-06	6.4778e-06	1395.3	383.97	3.2428e-06	5.4971e-06	438.93	147.49	127.52	43.917	3.7803e-06	54.42	0.00056174	0.00057779	0.00016267	1415.6	6.4447e-06	6.4038e-06	1416.6	390.22	6.3291e-06	6.1963e-06	446.75	150.46	130.66	44.999	6.2305e-06	55.792	171.316	-50.146	-40.502	-117.869	-14.414	26.106	-117.961	-113.392	-25.073	25.175	-113.762	-110.023	-109.360	-104.222	-16.557	-105.002	-8191	255	
723.835	1	1	0	0	0.15227	0.14474	0.10239	0.21998	0.072632	0.13429	0.29343	0.41774	0.044573	0.32569	0.23297	0.08857	0.11499	0.10153	0.079201	0.25308	-3.4458	-3.8708	-3.1146	-4.1792	-3.6271	-3.3688	-4.2521	-3.5521	-3.7375	-4.0833	-3.3187	-4.1146	-3.7438	-3.525	-3.9542	-3.4292	19.135	-122.800	173.372	146.868	-11.449	-70.743	-119.211	188.789	26.481	175.588	156.438	188.293	208.271	-99.079	103.300	217.028	0.00048517	0.00053574	0.00011418	1403.3	3.804e-06	5.2246e-06	1396.9	383.09	2.8448e-06	5.3019e-06	438.21	146.64	127.96	43.955	4.9992e-06	54.417	0.00057033	0.00056437	0.00015724	1416.6	6.3942e-06	6.3098e-06	1415.5	389.93	6.1595e-06	6.2216e-06	446.12	150.12	130.68	44.968	6.0601e-06	55.791	169.565	-34.665	-22.455	-117.746	-8.296	20.536	-118.009	-113.458	-36.149	35.887	-113.712	-109.994	-109.453	-104.513	13.323	-105.163	-8191	255	
723.931	1	1	0	0	0.14194	0.12994	0.16705	0.20608	0.16192	0.22943	0.071582	0.19687	0.14036	0.23592	0.19365	0.051708	0.22313	0.16911	0.15429	0.20909	-3.375	-4.0167	-3.1458	-4.2354	-3.6646	-3.2875	-4.2521	-3.5333	-3.6063	-3.9542	-3.4292	-4.0375	-3.6646	-3.3937	-4.1104	-3.4479	80.386	45.432	51.402	198.635	79.338	216.380	164.570	99.513	38.395	69.234	180.677	-85.064	227.835	-105.641	181.877	153.170	0.00045071	0.00069784	0.00019986	1402.1	2.2065e-06	5.43e-06	1396.5	383.6	5.231e-06	4.723e-06	439.01	146.59	127.23	43.922	5.2116e-06	54.353	0.00056711	0.00055421	0.00016156	1413.8	6.2542e-06	6.2095e-06	1415.8	389.44	6.2706e-06	6.293e-06	446.6	150.29	130.58	45	6.1686e-06	55.831	167.918	-54.422	-27.059	-117.765	-35.501	-3.518	-118.070	-113.360	-29.325	35.811	-113.423	-109.752	-109.498	-104.372	5.309	-105.277	-8191	255	
724.027	1	1	0	0	0.099598	0.046681	0.28225	0.38929	0.12599	0.068757	0.14256	0.2615	0.16798	0.20032	0.12436	0.097715	0.38842	0.22591	0.13476	0.17055	-3.2875	-3.85	-3.2292	-3.9271	-3.7521	-3.3458	-4.2333	-3.7854	-3.1646	-4.0938	-3.5125	-4.025	-3.9417	-3.5438	-4.0417	-3.5438	-10.829	-58.996	-65.063	187.728	60.035	-81.254	138.927	175.529	-7.289	29.345	154.422	-4.157	193.785	146.311	178.501	137.309	0.00047064	0.00052353	0.00015555	1400.9	2.5333e-06	6.092e-06	1399.1	383.06	4.6757e-06	5.0466e-06	439.63	146.53	127.54	43.857	4.6671e-06	54.18	0.00056315	0.00055925	0.00016266	1414.7	6.2425e-06	6.5584e-06	1416	389.95	6.3417e-06	6.2745e-06	446.87	149.97	130.6	44.93	6.2479e-06	55.76	168.328	-45.643	-48.641	-117.627	10.115	38.589	-117.991	-113.478	-29.489	21.711	-113.690	-109.830	-109.309	-104.346	-14.220	-104.766	-8191	255	
724.099	1	1	0	0	0.16332	0.13655	0.18443	0.19761	0.16307	0.34569	0.2458	0.056394	0.19991	0.11761	0.28684	0.074944	0.20432	0.10769	0.087909	0.25744	-3.1854	-3.8667	-3.3979	-4.0292	-3.9625	-3.1708	-4.2812	-3.7313	-3.4208	-3.8854	-3.4458	-3.8729	-4.0875	-3.3833	-3.9458	-3.6937	-61.333	31.985	192.084	176.728	181.949	-80.997	187.692	221.892	213.696	63.399	99.219	-103.024	-123.036	-25.230	45.258	168.627	0.00045522	0.00047092	0.00018199	1400.2	4.2858e-06	6.7462e-06	1393.2	381.39	1.9543e-06	4.977e-06	439.47	146.89	127.46	43.704	3.8218e-06	54.1	0.00056112	0.00054563	0.0001585	1411	6.184e-06	6.153e-06	1412.4	388.45	6.2185e-06	5.8872e-06	445.17	149.75	130.06	44.732	6.1728e-06	55.554	172.570	-36.933	-38.819	-117.670	-5.416	3.392	-118.012	-113.411	-15.854	28.826	-113.612	-109.869	-109.323	-104.399	0.394	-104.874	-8191	255	
724.218	1	1	0	0	0.2056	0.1895	0.12852	0.18645	0.11016	0.23305	0.043272	0.3098	0.17	0.26025	0.24037	0.21305	0.39722	0.1602	0.07179	0.30413	-3.1604	-4.1021	-3.5083	-3.8458	-4.0771	-3.3438	-4.0417	-3.9062	-3.2896	-4.0854	-3.4333	-3.7583	-4.1042	-3.3708	-3.9958	-3.8937	179.368	-89.814	-109.837	109.983	-63.113	122.485	-29.628	220.792	-8.583	-35.901	-124.604	-80.311	180.314	189.543	-105.953	44.051	0.00045776	0.00043265	0.0001417	1391.5	4.0605e-06	7.3297e-06	1382.8	379.9	4.594e-06	5.1215e-06	436.69	145.83	126.95	43.746	3.4976e-06	54.316	0.0005516	0.00053034	0.00015262	1405.3	6.0007e-06	6.1091e-06	1407.6	386.45	6.2544e-06	6.0454e-06	443.62	149.31	129.81	44.673	6.0753e-06	55.453	170.770	-20.298	-35.415	-117.537	-11.401	14.894	-117.910	-113.379	-37.320	17.410	-113.806	-109.765	-109.273	-104.280	1.482	-104.846	-8191	255	
724.314	1	1	0	0	0.11759	0.13885	0.13132	0.2113	0.059606	0.064124	0.28291	0.26413	0.20639	0.02659	0.19368	0.25362	0.15867	0.11778	0.048177	0.17257	-2.9333	-4.0188	-3.5646	-3.6271	-4.0833	-3.2625	-3.9479	-3.9958	-3.2917	-3.9938	-3.6458	-3.4958	-4.1	-3.3146	-3.8333	-3.9458	150.890	204.296	67.521	228.287	210.241	-123.934	176.381	103.656	-83.371	22.306	194.247	172.764	211.770	119.737	60.154	-40.399	0.00047654	0.00054407	0.00016977	1388.9	3.729e-06	5.6529e-06	1377.4	379.82	4.2544e-06	3.8436e-06	436.29	145.3	126.45	43.643	4.2779e-06	53.843	0.00056315	0.00054006	0.00014945	1404.2	6.0209e-06	5.9812e-06	1405.2	386.39	6.0164e-06	5.9415e-06	443.24	149.13	129.52	44.673	5.7692e-06	55.304	168.140	-48.329	-34.166	-117.562	-5.243	2.079	-117.672	-113.382	-4.907	17.552	-113.784	-109.831	-109.160	-104.179	-13.688	-104.958	-8191	255	
724.410	1	1	0	0	0.14652	0.064292	0.15294	0.17232	0.2798	0.12757	0.45739	0.024957	0.14446	0.22603	0.11889	0.10556	0.053127	0.2082	0.071231	0.084784	-2.8438	-3.9229	-3.5729	-3.5104	-4.1167	-3.3583	-4.0938	-3.9208	-3.2771	-3.9417	-3.9562	-3.6083	-4.2562	-3.3625	-3.6875	-3.9833	-71.156	225.611	101.674	160.968	-122.994	143.402	159.414	140.622	64.204	218.333	209.908	-59.578	180.796	148.636	97.017	179.108	0.00047556	0.00035982	0.00012132	1387.1	3.5801e-06	6.7204e-06	1380.6	380.94	3.58e-06	4.4337e-06	434.94	145.81	126.32	43.424	4.0061e-06	53.908	0.00053918	0.00051518	0.00014732	1401.5	5.5931e-06	5.8221e-06	1404.5	386.06	6.0007e-06	5.6342e-06	442.2	148.86	129.47	44.461	5.7599e-06	55.296	175.057	-54.201	-22.487	-117.505	-6.671	7.962	-117.840	-113.148	-43.422	36.925	-113.557	-109.717	-108.995	-104.284	-19.250	-104.985	-8191	255	
724.506	1	1	0	0	0.12369	0.054794	0.077667	0.3075	0.058844	0.18466	0.22484	0.34881	0.11115	0.11789	0.25099	0.11793	0.19517	0.20432	0.056118	0.19117	-2.9792	-3.8021	-3.7562	-3.4208	-4.1646	-3.4917	-3.8875	-4.1396	-3.3333	-3.8375	-3.9646	-3.3208	-4.25	-3.4625	-3.5021	-4.1229	-95.380	91.568	-41.923	205.421	227.195	19.861	192.479	192.374	113.119	20.903	185.255	181.945	-83.086	72.609	203.351	194.950	0.0004179	0.00026458	0.00014035	1387.4	3.2037e-06	4.8541e-06	1380.7	378.69	5.2932e-06	4.3109e-06	434.17	145.27	126.89	43.312	3.729e-06	53.721	0.00054818	0.00052026	0.00014598	1400.4	5.7642e-06	5.8555e-06	1401.4	385.21	6.0876e-06	5.8086e-06	441.49	148.85	129.32	44.486	5.9248e-06	55.21	170.927	-52.125	-33.304	-117.628	4.838	33.374	-117.764	-113.247	-20.813	46.576	-113.808	-109.731	-108.970	-104.332	-0.043	-104.724	-8191	255	
724.627	1	1	0	0	0.017071	0.088183	0.10458	0.31312	0.18607	0.13409	0.15183	0.11707	0.22894	0.0038358	0.23825	0.12794	0.11955	0.2522	0.1164	0.10303	-2.8875	-3.8708	-3.8083	-3.4104	-4.0917	-3.5333	-3.6937	-4.1583	-3.5146	-3.7667	-3.9417	-3.3292	-3.9896	-3.6458	-3.2417	-4.2583	-117.449	201.674	157.160	221.160	-7.762	108.981	226.902	189.910	166.236	27.633	189.140	205.113	146.565	198.159	105.751	46.644	0.00044824	0.00071759	0.00012208	1380.9	3.5397e-06	4.1371e-06	1383.6	378.01	4.018e-06	4.1481e-06	434.73	145.29	125.83	43.532	3.7953e-06	53.969	0.00054574	0.00052477	0.00014166	1396.8	5.7428e-06	5.9495e-06	1399.5	384.21	5.7983e-06	5.6916e-06	440.59	148.4	128.8	44.462	5.7446e-06	55.297	168.106	-43.219	-36.990	-117.651	-3.899	1.923	-117.842	-113.294	-25.276	27.680	-113.750	-109.819	-109.101	-104.191	5.993	-104.831	-8191	255	
724.698	1	1	0	0	0.13525	0.076044	0.15893	0.18532	0.16557	0.016117	0.13512	0.175	0.091043	0.05379	0.11534	0.19832	0.11433	0.12478	0.091987	0.15385	-2.8688	-3.7021	-3.9646	-3.4396	-3.9229	-3.8396	-3.7229	-4.2625	-3.5729	-3.4167	-4.1083	-3.275	-4.2396	-3.7021	-3.1583	-4.0875	112.172	-50.304	120.161	197.227	6.599	120.720	48.227	182.697	118.560	-108.093	20.432	168.320	202.531	-100.628	186.910	-101.002	0.00045069	0.00063184	0.00014666	1379.9	2.6629e-06	6.4918e-06	1368.4	378.71	3.854e-06	5.4046e-06	432.45	144.58	125.92	43.324	3.801e-06	53.699	0.00053095	0.00052774	0.00014311	1394.3	5.6209e-06	5.8768e-06	1393.7	384.52	5.8052e-06	5.8353e-06	440.82	148.19	128.86	44.393	5.8705e-06	55.13	168.889	-40.656	-47.400	-117.506	-4.215	13.092	-117.817	-112.984	-28.927	9.849	-113.630	-109.845	-109.001	-104.245	-7.919	-104.685	-8191	255	
724.794	1	1	0	0	0.13252	0.13262	0.061412	0.30817	0.14497	0.19779	0.27869	0.15856	0.21425	0.19369	0.061922	0.14478	0.20771	0.19095	0.11105	0.41769	-3.0687	-3.4562	-4.0167	-3.3229	-3.8542	-3.8875	-3.4813	-4.1917	-3.3125	-3.5229	-4.2833	-3.4396	-3.6333	-4.1125	-2.9417	-4.1667	10.888	-13.023	128.620	145.993	203.129	-51.929	114.633	163.370	-123.562	101.027	6.945	80.803	200.066	-21.989	149.553	94.709	0.0004461	0.00055378	0.00012498	1379.7	4.5036e-06	3.9622e-06	1374.9	377.51	5.9076e-06	4.6378e-06	435.34	145.06	126.3	43.504	5.3767e-06	53.945	0.00052979	0.00053668	0.00014183	1393.2	5.7614e-06	5.4284e-06	1394.3	383.69	5.9437e-06	5.6162e-06	441.31	148.25	128.89	44.466	6.0151e-06	55.196	169.822	-36.967	-29.121	-117.648	2.148	17.712	-117.852	-113.174	-45.840	18.782	-113.388	-109.776	-109.123	-104.189	5.514	-104.937	-8191	255	
724.915	1	1	0	0	0.039884	0.18265	0.22116	0.47304	0.12403	0.06619	0.1961	0.050083	0.18753	0.11442	0.16086	0.023383	0.15914	0.096525	0.10903	0.15512	-3.2875	-3.3896	-3.8625	-3.3812	-3.7896	-4.0354	-3.375	-4.0917	-3.6167	-3.2542	-4.1708	-3.3854	-3.75	-3.9104	-3.2521	-3.825	223.299	-11.329	51.637	186.845	67.646	140.110	137.038	61.437	39.372	127.676	180.089	172.398	163.721	74.399	26.211	182.430	0.00047141	0.00060284	0.00012006	1376.1	4.3669e-06	8.228e-06	1380.5	376.7	4.34e-06	5.8354e-06	433.92	144.98	126.04	43.532	4.2701e-06	53.846	0.00053874	0.00054254	0.00014314	1392.4	5.7331e-06	5.5947e-06	1396.3	384.24	5.9066e-06	5.7603e-06	441.18	148.35	128.98	44.438	6.155e-06	55.281	167.493	-33.066	-52.997	-117.754	3.668	16.695	-117.771	-113.170	-27.538	26.737	-113.345	-109.514	-109.108	-104.498	16.561	-104.876	-8191	255	
725.011	1	1	0	0	0.053619	0.25412	0.0883	0.12728	0.24687	0.19689	0.14171	0.069836	0.29806	0.060259	0.19558	0.12711	0.13886	0.029399	0.02145	0.12938	-3.3688	-3.1208	-3.9229	-3.5958	-3.7917	-3.9083	-3.3833	-4.0687	-3.5917	-3.2271	-4.0896	-3.5271	-3.6042	-3.9917	-3.2917	-3.7875	63.016	-122.822	23.050	208.098	-122.129	122.665	111.705	84.028	43.976	174.378	224.778	144.414	37.836	-79.154	-9.363	183.782	0.00043367	0.00048981	0.00016259	1384.7	4.6728e-06	6.6826e-06	1382.9	378.49	4.41e-06	5.8973e-06	433.27	144.99	125.99	43.314	4.5542e-06	53.615	0.00052825	0.00051904	0.00014697	1396.6	5.669e-06	5.9315e-06	1399.3	384.62	5.8645e-06	6.054e-06	441.47	148.46	128.9	44.441	6.0859e-06	55.169	172.804	-40.679	-38.017	-117.728	-4.814	39.209	-117.756	-113.031	-31.588	16.052	-113.320	-109.514	-109.330	-104.211	-6.610	-104.397	-8191	255	
725.107	1	1	0	0	0.074062	0.12776	0.14626	0.15903	0.21135	0.12181	0.19115	0.30432	0.028498	0.24325	0.098905	0.30208	0.1919	0.18194	0.18294	0.26354	-3.3	-3.3021	-3.9542	-3.5375	-3.6521	-4.1146	-3.5146	-3.9208	-3.7875	-3.2833	-4.1729	-3.5708	-3.4437	-4.175	-3.2604	-3.8646	59.853	161.579	-44.255	78.730	-49.878	159.619	122.747	200.739	-52.240	55.204	217.394	169.529	-96.548	147.571	54.829	177.137	0.00044678	0.00072409	0.00013188	1383.6	3.2338e-06	4.867e-06	1380.1	379.08	5.0385e-06	4.4074e-06	434.5	145	126.27	43.444	4.5329e-06	54.026	0.00051826	0.00053229	0.00014591	1397.5	5.8643e-06	5.7407e-06	1398.8	384.94	5.9033e-06	6.0544e-06	441.73	148.43	129.07	44.426	6.102e-06	55.274	169.904	-39.763	-56.677	-117.729	-29.920	27.417	-117.899	-113.036	-32.349	11.282	-113.539	-109.686	-109.201	-104.230	-6.014	-104.353	-8191	255	
725.226	1	1	0	0	0.16518	0.082443	0.19247	0.34707	0.296	0.047542	0.30221	0.25425	0.1046	0.2287	0.13223	0.049165	0.043988	0.16252	0.060149	0.23929	-3.4938	-3.2042	-3.9979	-3.8708	-3.3563	-4.0625	-3.5333	-3.8229	-3.8583	-3.4208	-4.1687	-3.7542	-3.4333	-4.2688	-3.65	-3.6	-76.668	118.481	218.995	-119.061	-18.976	-74.513	162.142	149.204	-34.209	216.331	100.201	1.495	-107.077	103.834	-76.202	-108.584	0.00045624	0.00066656	0.00012318	1381.7	3.8897e-06	4.8765e-06	1380	378.87	4.8573e-06	5.274e-06	433.26	144.82	126.39	43.508	5.7194e-06	53.738	0.00053347	0.00052937	0.00014463	1395.8	6.0096e-06	5.6331e-06	1396.8	384.68	5.8359e-06	5.9528e-06	441.29	148.49	128.93	44.501	5.6975e-06	55.275	171.018	-39.619	-46.315	-117.719	-3.973	23.327	-117.821	-113.066	-37.375	29.312	-113.469	-109.508	-108.972	-104.010	1.553	-104.726	-8191	255	
725.298	1	1	0	0	0.16542	0.15504	0.14096	0.30542	0.070564	0.15879	0.36067	0.14489	0.11782	0.20438	0.14934	0.2876	0.23434	0.089327	0.054045	0.018668	-3.5104	-3.3312	-3.9458	-3.7583	-3.4979	-3.9083	-3.4417	-3.6063	-3.9854	-3.2833	-3.9313	-3.7062	-3.3896	-4.0458	-3.3812	-3.5646	-48.634	-83.896	6.850	151.346	171.874	123.499	167.175	-122.419	145.698	108.077	133.628	176.742	45.878	87.956	129.645	-115.588	0.00047546	0.00048709	0.00011788	1379.8	3.8401e-06	3.6896e-06	1375.4	377.85	2.8299e-06	4.1259e-06	433.82	145.08	125.98	43.535	4.2631e-06	53.972	0.00052868	0.00053969	0.00014368	1393.4	5.8393e-06	5.8203e-06	1395.6	383.84	5.9441e-06	5.8922e-06	440.99	148.23	128.93	44.482	6.024e-06	55.244	171.938	-27.634	-32.440	-117.459	-16.715	16.333	-117.822	-112.943	-34.743	15.786	-113.500	-109.841	-109.055	-103.978	25.373	-104.479	-8191	255	
725.394	1	1	0	0	0.21244	0.10053	0.22212	0.12662	0.11124	0.13117	0.3051	0.25474	0.20599	0.13523	0.14684	0.10351	0.30263	0.084042	0.11125	0.12421	-3.5687	-3.1688	-3.7292	-4.1417	-3.1229	-4.0583	-3.7854	-3.7792	-4.1833	-3.2042	-3.8146	-3.9646	-3.4521	-3.9208	-3.5479	-3.4854	12.578	-108.756	-122.001	222.476	-128.228	173.106	141.372	217.188	88.666	218.606	163.026	134.385	212.278	-69.426	33.906	-32.294	0.00048773	0.00050359	0.00018783	1378.8	2.9416e-06	4.6817e-06	1377.6	379.04	4.2026e-06	4.3604e-06	435.14	144.51	126.08	43.575	4.2604e-06	53.626	0.00052704	0.00052205	0.00014174	1394.1	5.9846e-06	5.5866e-06	1396.5	384.47	5.6674e-06	5.8226e-06	441.84	148.37	129.07	44.484	5.9986e-06	55.224	169.157	-50.618	-37.316	-117.602	-31.037	34.833	-117.785	-112.961	-6.329	20.277	-113.286	-109.903	-108.867	-104.014	-2.103	-104.472	-8191	255	
725.515	1	1	0	0	0.058712	0.23826	0.10842	0.22728	0.12111	0.13066	0.2609	0.37135	0.061146	0.18483	0.133	0.2409	0.083457	0.1647	0.19842	0.096642	-3.7021	-3.3917	-3.6896	-4.0042	-3.4688	-4.1708	-4	-3.6208	-4.2458	-3.4854	-3.6708	-4.1375	-3.2896	-4.0042	-3.8896	-3.5458	218.495	-45.385	106.350	130.743	48.902	76.050	188.624	176.694	-119.982	-104.538	141.841	166.268	177.086	225.741	66.845	-68.184	0.0004451	0.00069082	0.0001298	1383.9	2.6225e-06	4.8041e-06	1379.1	377.03	4.2919e-06	5.3416e-06	434.46	144.65	126.28	43.35	3.4051e-06	53.972	0.00053252	0.00054697	0.00015005	1395.3	5.8005e-06	5.9966e-06	1397.6	383.98	5.789e-06	5.9857e-06	441.71	148.28	128.89	44.467	5.8468e-06	55.35	166.212	-41.294	-60.009	-117.498	-4.430	20.423	-117.872	-113.150	-36.402	15.925	-113.219	-109.735	-109.188	-104.204	-2.269	-104.704	-8191	255	
725.611	1	1	0	0	0.21902	0.18012	0.098111	0.38454	0.16271	0.10243	0.23591	0.24981	0.072469	0.051184	0.25969	0.34387	0.14422	0.1409	0.27968	0.16604	-3.6375	-3.5708	-3.4333	-4.3354	-3.3229	-4.0208	-4.2688	-3.3479	-4.1417	-3.5354	-3.7021	-4.0729	-3.5521	-3.7146	-3.9292	-3.4604	128.812	72.946	0.885	199.562	-0.554	6.229	174.254	195.753	45.165	160.868	-119.537	-64.076	195.568	184.022	112.724	163.194	0.00046272	0.00051692	0.00013271	1380.4	3.6357e-06	5.8339e-06	1373.6	377.49	3.6369e-06	3.1976e-06	434.24	145.07	125.86	43.515	4.2681e-06	53.703	0.00053637	0.0005612	0.00014698	1394.5	5.8639e-06	5.9342e-06	1395.1	383.92	5.6965e-06	5.7996e-06	440.84	148.37	128.67	44.456	5.8057e-06	55.13	170.672	-21.545	-49.882	-117.298	1.552	22.347	-117.833	-112.895	-25.013	-9.336	-113.364	-109.456	-108.835	-104.117	22.141	-104.754	-8191	255	
725.707	1	1	0	0	0.1267	0.15044	0.12255	0.17174	0.16473	0.14264	0.27968	0.1045	0.43277	0.16242	0.23593	0.12649	0.20585	0.15221	0.070298	0.23948	-3.7188	-3.6646	-3.4667	-4.2229	-3.3812	-3.8375	-4.0833	-3.3646	-4.0354	-3.6437	-3.4208	-4.2979	-3.3729	-3.6479	-3.9583	-3.4042	-83.673	123.498	225.010	182.264	100.245	-66.473	164.504	213.588	-125.296	112.307	202.428	-86.448	-92.409	204.637	-105.392	171.735	0.00045198	0.00058946	0.00010749	1378.6	5.3207e-06	6.2902e-06	1377.1	377.92	3.712e-06	4.9351e-06	435.74	145.46	126.36	43.661	5.0231e-06	53.76	0.00054113	0.00052502	0.0001497	1392.4	5.9148e-06	5.799e-06	1396.8	384.41	5.7676e-06	5.9722e-06	441.03	148.51	128.94	44.488	5.7349e-06	55.163	166.598	-44.850	-48.891	-117.308	-17.850	26.908	-117.519	-113.145	-32.994	3.923	-113.294	-109.590	-109.084	-103.913	-9.445	-104.622	-8191	255	
725.803	1	1	0	0	0.074897	0.065979	0.099745	0.20422	0.1871	0.1185	0.30562	0.34703	0.088877	0.059231	0.217	0.15224	0.1454	0.1719	0.14529	0.14632	-3.6312	-3.6937	-3.2938	-4.2875	-3.3729	-3.6063	-4.2521	-3.5062	-3.9875	-3.7979	-3.3896	-4.1042	-3.5167	-3.5187	-4.1708	-3.3458	-23.795	-8.869	216.760	214.445	-71.228	156.861	113.981	135.487	81.782	47.856	186.907	196.370	135.566	132.807	-88.517	178.690	0.00046795	0.00043693	0.00013743	1381.5	3.4133e-06	5.7994e-06	1372.6	378.06	4.3627e-06	5.0376e-06	433.88	145.23	126.27	43.419	4.3947e-06	53.764	0.00054983	0.0005325	0.00014268	1394	5.9002e-06	5.9315e-06	1394.7	384.43	6.0819e-06	5.8317e-06	441.21	148.42	128.88	44.463	5.9112e-06	55.288	172.218	-39.215	-36.623	-117.448	-4.830	20.610	-117.771	-113.194	-32.117	33.788	-113.519	-109.869	-109.044	-103.973	10.867	-104.658	-8191	255	
725.924	1	1	0	0	0.20205	0.30616	0.11167	0.30479	0.13145	0.036255	0.32267	0.29629	0.045288	0.078199	0.032218	0.41714	0.41044	0.05063	0.042355	0.3922	-3.4917	-3.7417	-3.3667	-4.4604	-3.5667	-3.5646	-4.2375	-3.5271	-3.7521	-3.8417	-3.5604	-4.1771	-3.8125	-3.475	-4.0687	-3.425	-21.668	127.201	104.758	196.292	135.342	206.313	176.675	194.936	66.757	-101.759	181.465	201.487	220.199	85.093	136.955	201.832	0.00045373	0.00055059	0.00011977	1378.7	4.5647e-06	5.235e-06	1379.1	377.23	3.9443e-06	5.0046e-06	434.39	145.17	126.21	43.35	4.4155e-06	54.104	0.00053496	0.00050522	0.00014648	1392.8	5.7537e-06	5.9663e-06	1396.3	383.68	5.854e-06	5.7531e-06	441.37	148.33	128.92	44.415	5.6306e-06	55.347	169.943	-51.264	-24.246	-117.408	-3.837	14.055	-117.810	-113.066	-36.339	25.091	-113.300	-109.452	-109.051	-103.942	-7.269	-104.592	-8191	255	
725.995	1	1	0	0	0.22894	0.096222	0.16543	0.14436	0.12581	0.2087	0.13049	0.37565	0.24496	0.17208	0.393	0.14386	0.44187	0.19911	0.1109	0.043061	-3.1729	-3.9854	-3.1312	-4.1771	-3.6875	-3.4062	-4.3625	-3.7062	-3.5396	-4.0833	-3.2292	-4.1854	-3.8021	-3.4062	-4.1396	-3.625	0.820	-20.910	206.452	-83.093	179.100	127.304	-104.910	188.983	-91.662	-60.931	198.297	189.709	-125.561	209.413	31.993	151.565	0.00044747	0.0002757	0.00013082	1378.8	3.4409e-06	5.7807e-06	1382.5	376.47	3.9957e-06	4.9061e-06	435.14	145.28	126.54	43.508	5.7057e-06	53.934	0.00051363	0.00050099	0.00014652	1393.2	5.9543e-06	5.6847e-06	1396.1	384	5.9175e-06	5.7336e-06	441.17	148.47	128.92	44.491	5.7404e-06	55.213	165.728	-52.109	-35.618	-117.306	-19.611	21.125	-117.661	-113.164	-16.973	1.841	-113.355	-109.439	-108.938	-104.156	29.004	-104.736	-8191	255	
726.092	1	1	0	0	0.12584	0.25303	0.15435	0.21107	0.068723	0.18027	0.40001	0.14548	0.10373	0.17719	0.081838	0.32666	0.063183	0.06345	0.07486	0.17138	-3.3583	-3.8417	-3.3688	-4.0604	-4.0312	-3.35	-4.2312	-3.6188	-3.5083	-4.2583	-3.3917	-3.975	-4.0521	-3.2979	-4.0938	-3.4667	0.742	161.934	98.964	185.106	156.197	0.728	162.295	165.422	101.728	167.117	151.845	217.708	206.238	144.753	94.483	213.492	0.00043719	0.0007069	0.00014317	1375.8	4.219e-06	4.1212e-06	1374.8	379.28	2.6459e-06	4.2948e-06	433.53	145.19	126.28	43.476	3.5368e-06	53.843	0.00053185	0.00053437	0.00015307	1390.8	5.466e-06	5.9712e-06	1393.5	384.14	5.7272e-06	5.6993e-06	440.86	148.29	128.61	44.418	5.4504e-06	55.126	170.017	-30.128	-51.887	-117.437	15.915	14.700	-117.908	-113.168	-29.547	-14.444	-113.430	-109.404	-109.228	-104.109	17.621	-104.680	-8191	255	
726.188	1	1	0	0	0.10442	0.10059	0.11808	0.099229	0.28519	0.21002	0.29362	0.28683	0.21419	0.030379	0.36426	0.13649	0.17011	0.081216	0.1927	0.05871	-3.0354	-4.0875	-3.3187	-3.9792	-3.8979	-3.3438	-4.3479	-3.8812	-3.3021	-4.0896	-3.6083	-3.7208	-4.0542	-3.4417	-3.9646	-3.5729	202.698	33.095	168.808	-128.504	48.308	33.115	148.793	129.832	-130.761	209.899	211.530	98.199	-57.198	36.673	69.906	224.849	0.0004657	0.00048937	0.0001326	1375.2	3.4331e-06	5.6511e-06	1370.2	375.51	2.3993e-06	5.5228e-06	433.2	143.93	125.41	43.422	4.1394e-06	53.563	0.00052331	0.00051119	0.00014713	1389.5	5.5007e-06	5.6526e-06	1390.3	382.3	5.7215e-06	5.4458e-06	439.77	147.94	128.42	44.378	5.5042e-06	55.067	167.628	-38.827	-53.064	-117.428	-22.927	1.658	-117.799	-113.134	-9.349	21.164	-113.478	-109.560	-109.108	-104.031	15.993	-104.729	-8191	255	
726.307	1	1	0	0	0.092583	0.12282	0.12401	0.21436	0.18011	0.11174	0.24713	0.29346	0.1708	0.10441	0.10642	0.25359	0.24666	0.1701	0.063316	0.17024	-3.0083	-3.95	-3.1708	-3.625	-4.0542	-3.2896	-4.0771	-3.8688	-3.3688	-4.2271	-3.7104	-3.6375	-4.2188	-3.5312	-3.9396	-4.0229	-95.473	17.932	61.076	225.723	-78.919	20.027	-118.759	162.209	159.926	214.413	-85.744	163.758	147.338	190.019	-89.278	-118.943	0.00049643	0.00060298	0.00012562	1372.3	3.0735e-06	5.301e-06	1369.8	376.96	4.0165e-06	4.0822e-06	433.87	143.99	126.28	43.422	5.3671e-06	53.532	0.00054134	0.00049717	0.00014131	1386.5	5.3554e-06	5.4528e-06	1387.5	382.53	5.6844e-06	5.346e-06	439.46	147.73	128.47	44.314	5.5424e-06	54.996	171.015	-47.013	-24.207	-117.243	-0.799	14.630	-117.477	-112.941	-34.749	14.395	-113.474	-109.619	-108.966	-103.893	-1.718	-104.787	-8191	255	
726.403	1	1	0	0	0.19683	0.17467	0.18737	0.26756	0.049794	0.28112	0.33737	0.33943	0.099254	0.1837	0.23423	0.34132	0.24044	0.27763	0.085273	0.2079	-3.0458	-3.8625	-3.5375	-3.6437	-4.2042	-3.5229	-3.9771	-4.0083	-3.1896	-3.9458	-3.6083	-3.6604	-4.1167	-3.3625	-3.7938	-3.8792	3.517	-23.290	112.415	219.283	170.127	24.662	195.951	179.675	98.773	160.926	210.421	202.331	181.863	222.038	-123.313	-111.335	0.00043203	0.00042137	0.00010744	1374.1	5.1242e-06	4.9883e-06	1369.7	377.29	4.7392e-06	6.7229e-06	432.49	144.78	125.92	43.387	4.4935e-06	53.69	0.00051736	0.00050119	0.00014385	1383.6	5.652e-06	5.7195e-06	1388.4	382.53	5.833e-06	5.6098e-06	439.51	148.01	128.54	44.307	5.7815e-06	55.025	169.915	-44.081	-27.094	-117.537	7.862	4.079	-117.558	-113.236	-28.967	25.784	-113.560	-109.836	-108.949	-104.169	-1.767	-104.585	-8191	255	
726.499	1	1	0	0	0.10972	0.17658	0.20529	0.18347	0.15916	0.21556	0.27117	0.19276	0.23482	0.19466	0.090919	0.060298	0.22096	0.061213	0.17367	0.14209	-2.8229	-3.8625	-3.6063	-3.5521	-4.0813	-3.3375	-3.8396	-4.2604	-3.3167	-3.9938	-3.7583	-3.65	-3.9417	-3.4833	-3.5563	-4.1813	198.591	-11.873	-27.578	-123.725	-80.259	114.016	203.300	52.890	-117.731	-74.416	86.028	95.919	-94.710	-69.445	-76.298	206.279	0.00043053	0.00051528	0.00014356	1374.9	2.8582e-06	4.8003e-06	1367.3	376.1	3.2974e-06	4.0326e-06	431.17	144.38	125.55	43.22	3.9142e-06	53.655	0.00051973	0.00049745	0.00014571	1386	5.5451e-06	5.743e-06	1387.4	382.68	5.9146e-06	5.7743e-06	438.98	147.73	128.31	44.265	5.9193e-06	55.063	167.288	-51.473	-45.959	-117.604	27.704	17.218	-117.451	-112.995	-38.228	46.141	-113.361	-109.472	-109.151	-104.285	7.443	-104.714	-8191	255	
726.595	1	1	0	0	0.44669	0.01184	0.25166	0.16025	0.21863	0.093347	0.16235	0.32604	0.07477	0.027488	0.12945	0.25782	0.37443	0.12255	0.13691	0.07859	-2.9271	-3.7625	-3.8917	-3.5229	-4.2417	-3.4458	-3.8167	-4.1208	-3.2167	-3.8292	-3.9688	-3.3708	-4.1354	-3.6583	-3.4688	-4.0917	-5.947	48.857	65.520	182.043	-112.612	102.865	75.983	156.295	155.083	-116.190	150.756	155.835	190.049	228.691	-65.566	-93.058	0.00043392	0.00070236	0.00015071	1374.4	4.614e-06	4.9692e-06	1370.9	377.26	3.6897e-06	4.8395e-06	434.12	145.3	126.37	43.322	3.369e-06	53.972	0.00053828	0.00053433	0.00014434	1386.2	5.761e-06	5.8677e-06	1389.4	382.95	5.9999e-06	5.8086e-06	440.56	148.33	128.67	44.428	6.1669e-06	55.267	170.260	-53.213	-45.010	-117.468	8.767	15.866	-117.442	-112.904	-36.688	24.006	-113.358	-109.741	-108.957	-104.232	-14.467	-104.837	-8191	255	
726.691	1	1	0	0	0.10532	0.10862	0.16453	0.23077	0.087789	0.1695	0.32746	0.24032	0.20852	0.14416	0.20282	0.18483	0.24437	0.20709	0.21259	0.16295	-3.0208	-3.8375	-3.7687	-3.3271	-3.8438	-3.475	-3.5938	-4.3313	-3.3146	-3.8083	-3.9708	-3.3771	-4.1604	-3.7479	-3.3521	-4.1854	162.839	8.722	35.353	208.743	44.961	187.387	153.308	214.898	-80.284	23.039	182.333	-99.648	-112.363	-118.368	227.837	-24.870	0.00040057	0.00052419	0.00017499	1373.8	4.0345e-06	5.9678e-06	1370.8	377.85	5.327e-06	6.3634e-06	431.84	145.27	126.55	43.435	3.8433e-06	54.014	0.0005559	0.0005599	0.00015358	1389.7	5.9898e-06	6.2054e-06	1393	384.23	6.3182e-06	6.4642e-06	440.68	148.5	129.19	44.434	6.3674e-06	55.343	162.099	-52.610	-23.399	-117.274	-23.250	8.873	-117.587	-112.914	-46.574	16.478	-113.475	-109.451	-108.990	-104.175	-0.015	-104.839	-8191	255	
726.787	1	1	0	0	0.15252	0.016381	0.10997	0.2169	0.02701	0.098947	0.11646	0.29688	0.22284	0.15406	0.097171	0.14177	0.1264	0.099866	0.15483	0.2171	-2.8167	-3.6875	-3.9417	-3.4375	-4.1042	-3.7667	-3.5542	-4.2583	-3.4125	-3.6917	-4.1792	-3.4229	-4.0312	-3.9125	-3.2333	-4.2312	-51.816	117.268	82.167	187.201	-60.558	-122.967	23.436	215.736	69.091	-95.866	14.223	195.070	127.270	-53.949	20.853	212.276	0.00044737	0.0007651	0.00013191	1377.5	2.9226e-06	5.4104e-06	1372.6	379.45	5.2038e-06	5.5889e-06	434.2	145.07	125.59	43.459	4.5866e-06	54.084	0.00057154	0.00056425	0.00015589	1392.9	6.1622e-06	6.2122e-06	1396.3	385.21	6.3805e-06	6.4742e-06	441.83	148.62	128.96	44.542	6.353e-06	55.371	169.039	-44.688	-32.525	-117.300	-5.564	23.419	-117.454	-112.930	-24.301	20.300	-113.256	-109.322	-109.031	-104.099	9.930	-104.675	-8191	255	
726.908	1	1	0	0	0.058183	0.089689	0.29074	0.10003	0.10767	0.15679	0.20859	0.19423	0.082674	0.32331	0.055723	0.28846	0.2328	0.092396	0.116	0.2155	-2.9958	-3.5271	-3.9833	-3.4979	-3.7854	-3.7583	-3.6312	-4.0833	-3.4875	-3.5312	-4.1417	-3.35	-3.9417	-3.8083	-3.3042	-3.9437	-83.737	149.017	78.897	203.737	96.004	162.669	165.929	130.608	-118.921	-90.736	223.186	195.290	117.249	159.787	71.196	-12.629	0.00047851	0.00055792	0.00017323	1382.4	4.6093e-06	4.3504e-06	1374.1	379.76	4.0358e-06	5.3639e-06	435.73	144.99	126.16	43.547	3.2074e-06	54.149	0.0005693	0.00061051	0.00016286	1394.4	6.3208e-06	6.511e-06	1395.7	385.72	6.6136e-06	6.7195e-06	442.55	148.65	129.08	44.632	6.791e-06	55.437	170.274	-51.844	-34.947	-117.206	-9.523	-8.735	-117.543	-112.745	-15.121	6.459	-113.114	-109.351	-108.526	-104.011	-12.695	-104.603	-8191	255	
727.004	1	1	0	0	0.14656	0.23544	0.14511	0.21006	0.1361	0.028619	0.2785	0.45262	0.12648	0.14813	0.092442	0.15751	0.076326	0.17879	0.1608	0.155	-3.1333	-3.3563	-4.0729	-3.4708	-3.6188	-4.1583	-3.275	-4.0042	-3.6813	-3.2292	-4.1937	-3.35	-3.8083	-4.025	-3.2417	-3.9979	129.555	123.512	-125.961	181.948	-128.017	224.129	128.896	203.967	206.877	207.292	201.689	175.867	-53.160	70.671	-97.827	69.208	0.00044996	0.00041296	0.00018054	1380.4	4.4925e-06	7.0152e-06	1378.2	379.06	5.2621e-06	6.5865e-06	436.53	145.68	126.82	43.597	3.5632e-06	53.948	0.00059124	0.00060897	0.00015925	1395.4	6.795e-06	6.5842e-06	1398.4	386.08	6.6612e-06	6.8076e-06	443.42	149.01	129.49	44.636	6.6668e-06	55.384	169.298	-41.823	-50.581	-117.274	-8.171	5.804	-117.691	-112.880	-19.261	9.493	-113.458	-109.589	-108.854	-103.859	-16.578	-104.725	-8191	255	
727.100	1	1	0	0	0.21558	0.19225	0.096198	0.17622	0.16588	0.031508	0.24779	0.15294	0.18096	0.13735	0.053304	0.023263	0.035269	0.26672	0.034183	0.07956	-3.3542	-3.1354	-4.0708	-3.5354	-3.4042	-4.1104	-3.4104	-3.9562	-3.7438	-3.4021	-4.1208	-3.6583	-3.6604	-4.0979	-3.3021	-3.7667	142.183	-108.679	10.569	161.416	167.898	196.052	192.370	123.944	-87.009	71.809	168.673	-22.121	179.804	189.582	146.007	136.450	0.00045376	0.00041667	0.00014978	1382.9	1.9429e-06	4.607e-06	1378.5	380.45	2.3883e-06	3.896e-06	435.21	145.19	127.02	43.485	5.4527e-06	53.529	0.00058906	0.0006284	0.00016643	1396.5	6.6949e-06	6.708e-06	1399.7	386.25	6.6212e-06	6.8858e-06	442.45	148.74	129.54	44.55	6.5811e-06	55.242	171.509	-45.888	-26.997	-117.335	-18.659	15.864	-117.619	-112.784	-19.439	20.002	-113.384	-109.509	-108.898	-103.943	7.530	-104.742	-8191	255	
727.196	1	1	0	0	0.16278	0.14733	0.16901	0.16238	0.10565	0.11396	0.25108	0.30868	0.017294	0.28168	0.18733	0.10252	0.24407	0.19904	0.19994	0.044015	-3.5167	-3.2542	-3.9917	-3.5812	-3.4479	-3.9771	-3.65	-3.9729	-3.7896	-3.2292	-4.225	-3.7917	-3.6229	-4.275	-3.3479	-3.8333	-35.983	60.752	9.385	147.367	194.048	81.537	-117.456	208.215	113.418	-5.631	176.516	219.214	202.996	188.469	6.864	-41.711	0.00044846	0.00040732	0.00014829	1385.2	3.2287e-06	5.8273e-06	1379	378.77	2.5439e-06	5.2623e-06	436.1	145.12	126.13	43.537	5.7822e-06	53.925	0.00057584	0.00061624	0.00016275	1398.2	6.46e-06	6.5308e-06	1398.1	385.7	6.6423e-06	6.5632e-06	442.65	148.58	129.25	44.598	6.6867e-06	55.355	170.701	-53.743	-44.193	-117.338	-24.348	12.190	-117.521	-112.704	-7.622	22.576	-113.403	-109.586	-108.890	-103.944	-15.635	-104.424	-8191	255	
727.291	1	1	0	0	0.022056	0.17665	0.22625	0.12914	0.20157	0.16389	0.28067	0.37102	0.23022	0.18671	0.19359	0.23429	0.16159	0.079226	0.20287	0.18869	-3.6813	-3.1333	-4.0062	-3.9354	-3.3958	-4.1062	-3.5125	-3.7396	-4.0583	-3.3521	-3.9333	-3.9625	-3.5375	-4.0896	-3.5062	-3.7125	-40.622	44.696	-32.589	-110.883	-53.947	143.540	143.512	179.503	110.989	143.319	108.405	-116.539	-125.849	65.111	168.869	170.737	0.00046829	0.00044496	8.0108e-05	1377.2	3.1487e-06	5.5225e-06	1371.8	379.57	6.2188e-06	4.4495e-06	435.08	145.02	126.18	43.554	4.6257e-06	54.113	0.00056997	0.00059242	0.00016571	1392.8	6.6069e-06	6.3912e-06	1396.1	385.66	6.233e-06	6.4958e-06	442.3	148.46	129.25	44.572	6.2445e-06	55.411	174.110	-57.527	-31.395	-117.361	-16.560	-3.296	-117.633	-112.744	-39.322	28.669	-113.191	-109.596	-108.589	-104.214	-22.014	-104.157	-8191	255	
727.387	1	1	0	0	0.042547	0.18788	0.13174	0.25095	0.15868	0.055091	0.39877	0.14631	0.068082	0.11164	0.19924	0.21216	0.3131	0.068454	0.15248	0.14045	-3.6583	-3.5229	-3.825	-4.1687	-3.275	-4.0375	-3.6479	-3.6708	-4.0896	-3.3	-3.9125	-3.9771	-3.2812	-4.2396	-3.5729	-3.4542	133.731	-89.765	121.561	184.960	16.175	174.898	175.278	137.570	108.055	19.276	-19.846	198.575	177.216	210.761	199.134	-9.088	0.00045966	0.00061436	0.0001192	1381.5	3.7935e-06	3.8074e-06	1374.6	379.31	2.7988e-06	2.2094e-06	435.14	145.17	125.98	43.359	5.465e-06	53.664	0.00055454	0.00057799	0.00015902	1394.3	6.1242e-06	5.9364e-06	1392.9	385.47	5.8322e-06	5.8543e-06	441.76	148.36	128.78	44.416	5.8464e-06	55.093	166.284	-38.945	-54.547	-117.384	11.675	19.884	-117.588	-112.576	-30.939	4.019	-113.291	-109.514	-108.924	-104.044	12.593	-104.608	-8191	255	
727.483	1	1	0	0	0.2352	0.054146	0.19654	0.13063	0.099655	0.13466	0.22448	0.12438	0.23948	0.34681	0.096815	0.051268	0.18735	0.13302	0.12741	0.19807	-3.6708	-3.4188	-3.7396	-3.9646	-3.3708	-3.9417	-3.8625	-3.6562	-3.9292	-3.4229	-3.7729	-4.0813	-3.3458	-4.0917	-3.6562	-3.5521	129.378	152.237	186.671	174.041	-77.494	-120.165	162.233	217.565	-67.474	103.967	97.593	45.182	159.272	-94.633	198.467	179.153	0.00045159	0.00050384	0.00015937	1373.2	3.265e-06	6.1786e-06	1371.3	377.7	5.2129e-06	5.8181e-06	433.58	145	125.61	43.274	6.2813e-06	53.6	0.0005196	0.00053185	0.00014708	1388.3	5.6076e-06	5.6028e-06	1388.4	383.7	5.8734e-06	6.0332e-06	440.77	147.91	128.42	44.294	5.6178e-06	54.999	171.328	-34.574	-45.181	-117.375	-45.484	19.157	-117.530	-112.873	-14.291	26.044	-113.249	-109.468	-108.848	-103.758	-9.307	-104.376	-8191	255	
727.604	1	1	0	0	0.18614	0.23787	0.10931	0.26693	0.2656	0.10603	0.37462	0.11111	0.059359	0.24437	0.063919	0.071428	0.21601	0.11161	0.14514	0.12686	-3.7333	-3.4083	-3.7292	-4.2583	-3.2208	-3.9667	-4.0417	-3.4229	-4.1125	-3.4875	-3.7229	-4.2812	-3.3146	-3.9813	-3.9292	-3.5354	75.754	138.873	82.538	196.966	-111.803	105.661	117.068	174.921	127.562	-97.512	154.886	112.143	186.406	169.858	60.184	-67.686	0.00045278	0.00043263	0.00015073	1369.6	4.2721e-06	3.8451e-06	1376.8	377.01	5.5551e-06	4.3789e-06	433.53	144.55	125.59	43.246	3.6407e-06	53.795	0.00051754	0.00051347	0.00014571	1386.5	5.7545e-06	5.4677e-06	1391.5	382.94	5.6246e-06	5.5556e-06	439.89	147.8	128.33	44.364	5.6967e-06	55.132	172.114	-57.645	-20.605	-117.344	-10.721	27.548	-117.521	-112.804	-37.085	21.232	-113.353	-109.211	-108.870	-103.671	3.948	-104.396	-8191	255	
727.700	1	1	0	0	0.085249	0.23267	0.11116	0.22513	0.077613	0.14624	0.1259	0.084314	0.062682	0.11252	0.076269	0.12208	0.24378	0.25968	0.14705	0.096408	-3.7958	-3.6083	-3.5687	-4.3417	-3.2438	-3.8937	-4.0625	-3.5479	-3.9437	-3.525	-3.6771	-4.0437	-3.4625	-3.9292	-3.7792	-3.4729	56.581	155.936	204.768	170.846	-122.142	-18.443	157.305	-76.675	172.763	-17.992	-57.288	219.641	-87.426	148.393	-112.110	218.740	0.00048573	0.00077146	0.00010508	1371.6	4.085e-06	4.7023e-06	1365.1	374.72	4.3946e-06	4.1945e-06	433.22	144.4	125.23	43.161	3.5025e-06	53.285	0.00050576	0.00052128	0.00013834	1385	5.6205e-06	5.4921e-06	1385.4	382.01	5.5619e-06	5.3405e-06	439.3	147.49	128.02	44.208	5.6687e-06	54.869	168.992	-34.611	-57.904	-117.261	-16.633	34.389	-117.649	-112.830	-17.683	40.030	-113.318	-109.773	-109.112	-103.968	-1.392	-104.514	-8191	255	
727.796	1	1	0	0	0.23128	0.045391	0.1691	0.10999	0.047649	0.16026	0.1974	0.21089	0.11146	0.023082	0.12525	0.31021	0.14025	0.21135	0.21049	0.20706	-3.4875	-3.7708	-3.3792	-4.3792	-3.5771	-3.7958	-4.1875	-3.3271	-4.0375	-3.6917	-3.4521	-4.1854	-3.5375	-3.7042	-4.0188	-3.3729	174.572	191.558	-17.459	162.956	70.772	-1.641	170.532	103.712	2.875	122.235	213.471	-94.884	96.108	119.388	177.193	96.056	0.00047635	0.00052727	0.00013257	1365.8	3.4402e-06	5.5175e-06	1363	376.24	2.9286e-06	5.8014e-06	430.57	144.34	125.39	43.3	4.8637e-06	53.261	0.00050569	0.00050575	0.00013852	1382.5	5.4877e-06	5.5264e-06	1383.4	381.95	5.3967e-06	5.2972e-06	438.57	147.54	127.94	44.268	5.3427e-06	54.881	171.836	-75.581	-35.946	-117.712	0.911	-6.329	-117.756	-113.060	-23.138	12.841	-113.416	-109.518	-109.000	-103.931	16.929	-104.501	-8191	255	
727.868	1	1	0	0	0.11431	0.11929	0.14884	0.14812	0.2388	0.032276	0.36445	0.36145	0.17922	0.27514	0.13924	0.34184	0.12206	0.094408	0.20717	0.27384	-3.4979	-3.8854	-3.3271	-4.4604	-3.4625	-3.7062	-4.3187	-3.4375	-3.875	-3.8187	-3.5375	-4.225	-3.6333	-3.5354	-3.9229	-3.55	-63.214	181.916	-89.692	188.724	3.545	141.587	149.504	104.637	-78.758	127.388	173.302	157.732	37.391	227.795	132.331	170.646	0.00044222	0.00062917	0.00015851	1362.3	1.3721e-06	6.9082e-06	1364.5	376.3	4.9119e-06	5.5389e-06	432.33	144.43	125.43	43.129	3.7639e-06	53.472	0.00050046	0.00049501	0.00014115	1380.1	5.4805e-06	5.5866e-06	1384.7	382.06	5.4549e-06	5.3387e-06	438.39	147.77	127.97	44.156	5.3193e-06	54.958	169.670	-53.954	-39.878	-117.467	-22.794	7.958	-117.762	-113.118	-47.008	24.848	-113.494	-109.633	-109.315	-104.184	0.976	-104.706	-8191	255	
727.988	1	1	0	0	0.10149	0.13188	0.059164	0.099857	0.20539	0.11544	0.24216	0.091493	0.15862	0.080126	0.052539	0.11822	0.23187	0.30443	0.16871	0.16317	-3.5583	-3.8896	-3.4354	-4.25	-3.4375	-3.5833	-4.1208	-3.5458	-3.8396	-4.0333	-3.4542	-4.1583	-3.7188	-3.4562	-3.9229	-3.4562	2.014	-89.321	-67.635	227.662	177.630	-73.933	166.199	167.474	-77.402	-32.808	119.788	91.202	-110.900	200.421	176.484	142.545	0.00049441	0.0005066	0.00012543	1370.9	3.3156e-06	5.2367e-06	1363.4	375.86	3.3294e-06	4.2476e-06	430.17	144.22	124.99	43.093	5.1099e-06	53.355	0.00050888	0.0004933	0.00013672	1382	5.5245e-06	5.3777e-06	1381	381.72	5.49e-06	5.1051e-06	438.21	147.42	127.83	44.129	5.4376e-06	54.813	170.260	-46.257	-34.975	-117.424	-13.081	21.990	-117.595	-113.123	-16.186	20.433	-113.375	-109.236	-108.922	-103.723	16.221	-104.433	-8191	255	
728.085	1	1	0	0	0.18199	0.11257	0.18847	0.29573	0.093602	0.4648	0.14114	0.34912	0.14131	0.097255	0.17828	0.16772	0.13478	0.1174	0.031381	0.081316	-3.2417	-3.9604	-3.2188	-3.9208	-3.7604	-3.3104	-4.3542	-3.6792	-3.6354	-4.1146	-3.5229	-4.125	-3.9542	-3.25	-3.9208	-3.5479	125.225	135.952	161.171	-128.740	206.041	4.962	171.682	146.667	-36.610	216.394	87.203	176.553	133.410	-66.846	202.242	181.465	0.00045821	0.00064118	0.00011806	1363.3	3.2093e-06	5.012e-06	1365.9	375.71	5.486e-06	4.1905e-06	431.69	143.79	125.09	42.97	3.748e-06	53.425	0.00050309	0.00047635	0.00013886	1377.9	5.315e-06	5.4754e-06	1383.7	381.45	5.2905e-06	5.1729e-06	438.6	147.14	127.84	44.128	5.2083e-06	54.791	169.723	-54.736	-41.686	-117.470	-1.199	-18.876	-117.722	-112.957	-28.073	14.113	-113.439	-109.444	-109.193	-103.958	5.785	-104.509	-8191	255	
728.181	1	1	0	0	0.13635	0.20255	0.070706	0.18937	0.25379	0.086025	0.2121	0.14471	0.0077636	0.16802	0.12969	0.1528	0.15356	0.18202	0.035476	0.078214	-3.1208	-4.0958	-3.2042	-4.0354	-3.7729	-3.4188	-4.45	-3.6667	-3.4292	-4.075	-3.4208	-4.0208	-3.9875	-3.1917	-4.2458	-3.7375	197.285	-118.510	-73.138	227.534	86.485	130.185	165.376	-130.357	199.078	129.920	107.447	225.903	-116.454	226.595	-99.068	136.678	0.00044785	0.00051122	0.00014065	1365.4	3.727e-06	5.3593e-06	1359.3	375.14	2.4286e-06	4.8878e-06	431.47	143.85	124.84	43.116	4.7414e-06	53.469	0.0004956	0.00048046	0.0001373	1376	5.3953e-06	5.4514e-06	1380.1	380.86	5.4876e-06	5.4187e-06	438.09	147.25	127.73	44.14	5.5097e-06	54.818	168.947	-53.037	-46.389	-117.310	-15.783	38.070	-117.668	-112.980	-40.250	8.372	-113.396	-109.529	-109.119	-103.924	4.926	-104.543	-8191	255	
728.277	1	1	0	0	0.23502	0.33034	0.05243	0.22475	0.08499	0.12436	0.20011	0.15112	0.26361	0.087348	0.12547	0.14376	0.06821	0.22131	0.16318	0.21876	-3.1542	-4.0437	-3.4396	-3.9229	-3.8708	-3.3708	-4.2021	-3.8271	-3.4062	-4.1813	-3.4688	-3.6375	-4.2083	-3.3604	-3.975	-3.9625	97.651	105.145	191.336	174.179	-47.931	-103.553	160.885	166.285	-51.090	-70.476	-111.103	209.537	208.616	80.079	120.889	127.922	0.00040865	0.00058855	0.00011324	1361.1	3.7707e-06	4.1146e-06	1362.5	376.19	4.2318e-06	2.9045e-06	430.48	144.16	125.44	43.158	4.1787e-06	53.54	0.00050759	0.000477	0.00013665	1376.5	5.3832e-06	5.5323e-06	1380.6	381.19	5.8019e-06	5.1725e-06	437.75	147.42	127.97	44.164	5.2532e-06	54.903	167.070	-52.265	-40.196	-117.383	-33.656	29.350	-117.512	-113.029	-15.399	24.241	-113.450	-109.269	-109.031	-103.662	-3.523	-104.649	-8191	255	
728.396	1	1	0	0	0.052396	0.097704	0.33814	0.27374	0.071078	0.18132	0.064345	0.26391	0.20348	0.16906	0.27096	0.087542	0.2087	0.068817	0.27192	0.17866	-2.8167	-4.1979	-3.5896	-3.9125	-3.9979	-3.4083	-3.9792	-3.8563	-3.1604	-3.9917	-3.4167	-3.6083	-4.1521	-3.4708	-3.7729	-3.9354	130.888	-63.923	-69.697	-127.682	-7.829	-112.793	-110.219	202.721	-64.981	39.102	-120.052	223.943	185.221	208.063	-74.664	-105.977	0.00045716	0.00063474	0.00016934	1366.2	2.844e-06	4.561e-06	1368.9	375.01	4.614e-06	4.7587e-06	431.97	144.19	125.33	43.311	6.125e-06	53.608	0.00052421	0.00051103	0.00014624	1379.9	5.2928e-06	5.4256e-06	1384	381.51	5.6238e-06	5.2009e-06	438.7	147.63	127.93	44.225	5.4092e-06	54.867	170.358	-26.345	-44.031	-117.150	-7.679	14.754	-117.489	-112.925	-37.920	9.355	-113.502	-109.380	-108.846	-103.914	-29.088	-104.546	-8191	255	
728.469	1	1	0	0	0.068843	0.026109	0.024433	0.12598	0.057336	0.069714	0.095809	0.27825	0.086121	0.22451	0.094155	0.071014	0.069669	0.20151	0.23255	0.22714	-2.7979	-4.1	-3.5563	-3.7333	-3.9104	-3.4021	-3.9271	-4.2333	-3.2146	-3.9896	-3.775	-3.6146	-4.1167	-3.375	-3.4375	-4.0062	-115.614	61.902	-121.219	220.822	-114.393	129.299	151.244	187.614	75.861	161.674	101.879	-110.554	-2.274	-118.155	38.389	124.905	0.00045604	0.00039684	0.00019693	1365.3	2.4349e-06	6.1932e-06	1367.3	373.99	4.0238e-06	4.948e-06	431.06	143.83	125.52	43.158	3.3427e-06	53.507	0.00051466	0.0004927	0.00014086	1378.7	5.3998e-06	5.6037e-06	1383	381.06	5.5603e-06	5.2777e-06	438.23	147.32	128.09	44.105	5.6064e-06	54.92	169.906	-46.153	-42.976	-117.045	-13.619	37.916	-117.322	-112.773	-24.965	20.591	-113.346	-109.434	-108.441	-103.699	8.246	-104.457	-8191	255	
728.588	1	1	0	0	0.12229	0.30569	0.054544	0.25073	0.072059	0.20946	0.30062	0.052156	0.16466	0.07955	0.41543	0.11464	0.13308	0.050382	0.24854	0.10363	-2.7167	-3.9229	-3.5667	-3.5146	-4.0229	-3.4938	-3.7917	-4.0687	-3.1708	-4.05	-3.875	-3.475	-4.0771	-3.6542	-3.5958	-4.1396	-99.803	-16.712	35.119	225.784	134.024	141.743	197.716	-101.341	17.813	-67.213	161.473	192.252	88.340	-64.240	208.659	66.213	0.0004915	0.00043097	0.00013079	1366.5	4.6536e-06	5.1464e-06	1365.2	374.58	5.8435e-06	3.5539e-06	431.94	143.64	125.51	43.074	4.2573e-06	53.37	0.00050666	0.00047733	0.00013481	1377.6	5.3425e-06	5.2851e-06	1382.8	381.34	5.8019e-06	5.3753e-06	439.15	147.26	128.1	44.095	5.3711e-06	54.85	172.407	-37.929	-40.396	-117.188	-23.019	25.821	-117.557	-112.879	-30.600	35.792	-113.132	-109.253	-108.820	-104.002	5.882	-104.482	-8191	255	
728.684	1	1	0	0	0.074082	0.19924	0.086558	0.13696	0.13384	0.10824	0.34831	0.1831	0.19156	0.22327	0.24469	0.16837	0.13371	0.18662	0.076956	0.21485	-2.8521	-3.7667	-3.7292	-3.3396	-4.0646	-3.4625	-3.8542	-3.9396	-3.5062	-3.9188	-3.9354	-3.4625	-4.1292	-3.6729	-3.4188	-4.0125	108.768	-105.071	-5.718	185.594	116.260	219.954	107.995	205.330	-32.590	-63.308	139.818	154.816	42.482	91.569	215.042	-124.182	0.00045299	0.00065076	0.00015464	1364.9	2.6524e-06	5.6747e-06	1363.9	374.43	3.7845e-06	4.6211e-06	429.37	144.07	125.49	43.07	3.8149e-06	53.692	0.00052022	0.00050656	0.00013363	1379	5.3683e-06	5.5138e-06	1383.7	381.56	5.5737e-06	5.5759e-06	437.58	147.41	128.03	44.098	5.4105e-06	55.001	168.285	-38.749	-39.524	-117.209	15.589	26.917	-117.405	-112.811	-35.037	19.668	-113.528	-109.139	-108.553	-103.617	3.371	-104.279	-8191	255	
728.780	1	1	0	0	0.17284	0.13976	0.013378	0.18296	0.33779	0.12342	0.32005	0.12279	0.13355	0.082536	0.13101	0.10276	0.27689	0.07542	0.17934	0.20624	-2.7604	-3.8563	-3.8271	-3.4688	-4.0333	-3.4167	-3.6792	-4.2188	-3.3333	-3.6063	-4.0042	-3.3292	-4.0437	-3.8625	-3.2875	-4.2125	-88.694	148.147	174.140	213.230	88.676	-88.192	176.853	207.491	47.751	110.955	90.540	72.138	221.669	198.751	185.443	139.364	0.00042748	0.0005442	0.00016411	1365.2	4.2603e-06	5.7829e-06	1367.5	373.94	4.3154e-06	4.9137e-06	431.16	143.72	125	43.407	4.4148e-06	53.693	0.00051335	0.00051278	0.00013665	1378.7	5.4571e-06	5.3506e-06	1385	381.02	5.7591e-06	5.3821e-06	438.63	147.45	128.03	44.199	5.5695e-06	54.945	165.988	-25.197	-36.355	-117.160	-10.891	18.626	-117.366	-112.675	-16.121	15.725	-112.926	-109.140	-108.353	-103.849	-2.388	-104.447	-8191	255	
728.876	1	1	0	0	0.022149	0.061431	0.13986	0.22666	0.28185	0.10746	0.34393	0.14287	0.10222	0.15959	0.17234	0.16577	0.21818	0.15714	0.072411	0.075969	-3.1333	-3.4875	-4.1292	-3.4458	-4.0292	-3.6521	-3.4625	-4.0729	-3.2708	-3.6	-4.0958	-3.3792	-4.1375	-3.8542	-3.225	-4.1521	-78.092	205.655	50.049	205.408	145.281	29.477	177.337	110.334	45.725	213.855	216.556	204.043	114.609	-72.666	219.827	180.271	0.00045808	0.00056896	8.8098e-05	1365.4	3.9562e-06	5.9935e-06	1367.5	375.35	4.5543e-06	5.462e-06	429.97	144.34	125.86	43.158	6.5597e-06	53.699	0.00050262	0.0004883	0.00013227	1378.9	5.2379e-06	5.1974e-06	1383	381.66	5.526e-06	5.2832e-06	437.68	147.58	128.26	44.209	5.316e-06	54.949	167.301	-70.164	-51.623	-117.053	-22.918	35.307	-117.358	-112.795	-6.030	30.538	-112.779	-109.195	-108.658	-103.897	3.257	-104.173	-8191	255	
728.997	1	1	0	0	0.19045	0.3383	0.010234	0.23969	0.095467	0.035708	0.16609	0.12989	0.23961	0.32468	0.3895	0.28901	0.32992	0.15648	0.080415	0.15143	-3.1542	-3.4458	-3.9292	-3.5125	-3.7562	-3.8896	-3.3625	-4.2021	-3.5979	-3.5708	-4.1396	-3.3396	-3.9625	-3.7792	-3.3354	-3.9104	-81.496	99.746	-70.094	205.097	-126.062	128.901	164.606	209.835	146.053	135.951	-93.007	-110.206	-107.206	217.314	1.484	176.132	0.00046582	0.00053588	0.00018562	1361.1	3.4481e-06	4.4693e-06	1361	375.55	2.3494e-06	4.9782e-06	430.43	143.99	125.74	43.149	5.5442e-06	53.274	0.00049805	0.00048257	0.00013108	1376.1	5.4312e-06	5.1553e-06	1380	381.35	5.6254e-06	5.3374e-06	437.24	147.2	128.06	44.172	5.6136e-06	54.881	170.418	-53.612	-37.386	-117.024	-10.626	19.578	-117.405	-112.734	-33.339	26.023	-113.173	-109.435	-108.413	-103.771	-2.990	-104.221	-8191	255	
729.091	1	1	0	0	0.22714	0.092277	0.1179	0.23593	0.16568	0.068234	0.36856	0.14243	0.040373	0.14337	0.17022	0.11647	0.25103	0.3119	0.183	0.26119	-3.1896	-3.4104	-3.9062	-3.4146	-3.8104	-4.0708	-3.5458	-4.1208	-3.6125	-3.2875	-4.1125	-3.3792	-3.725	-4.0042	-3.1583	-3.9813	62.376	37.779	-99.476	-101.682	217.724	41.478	147.436	149.794	-61.883	128.507	-125.439	-56.921	220.502	103.147	-5.269	129.727	0.00045335	0.00048921	0.00013692	1361	4.7204e-06	7.2158e-06	1362.6	376.21	4.3906e-06	5.733e-06	431.23	144.05	125.24	42.931	5.7576e-06	53.604	0.00049635	0.00048009	0.00013579	1375.2	5.3626e-06	5.1698e-06	1380.9	381.53	5.4395e-06	5.3238e-06	438.28	147.25	127.93	44.015	5.6034e-06	54.918	170.446	-56.009	-21.623	-117.252	-16.876	11.611	-117.135	-112.556	-36.734	20.243	-113.062	-109.236	-108.661	-103.836	-0.066	-104.322	-8191	255	
729.165	1	1	0	0	0.135	0.22766	0.15071	0.17988	0.035137	0.1721	0.28881	0.14323	0.068	0.063482	0.061143	0.077931	0.093283	0.13719	0.19546	0.082354	-3.1604	-3.0667	-4.0125	-3.6583	-3.4625	-3.9896	-3.5292	-4.0896	-3.6729	-3.3833	-3.9333	-3.4396	-3.5938	-4.1146	-3.2812	-4.0833	167.113	44.840	-91.601	-106.686	98.856	138.369	123.307	97.708	-66.155	-48.674	70.589	195.989	193.467	99.832	102.306	205.100	0.00045619	0.00055699	0.00012237	1363.1	4.6165e-06	6.0524e-06	1362	375.38	4.7168e-06	4.5889e-06	432.73	143.96	125.17	43.215	4.5243e-06	53.643	0.00050069	0.00049457	0.00012661	1375.7	5.5903e-06	5.3578e-06	1379.6	381.29	5.4339e-06	5.397e-06	438.46	147.19	127.91	44.191	5.4088e-06	54.897	167.181	-42.720	-48.507	-117.169	6.728	20.638	-117.411	-112.586	-13.524	2.081	-113.078	-109.415	-108.674	-103.894	12.770	-104.293	-8191	255	
729.284	1	1	0	0	0.07481	0.19404	0.010758	0.2149	0.24052	0.23395	0.2087	0.51254	0.17165	0.11977	0.12355	0.19449	0.04755	0.22462	0.15438	0.11352	-3.5833	-3.3875	-4.0354	-3.7708	-3.7104	-3.9333	-3.6083	-3.8792	-3.9313	-3.2313	-4.0729	-3.7167	-3.525	-4.1375	-3.3396	-3.7479	-56.988	-106.606	98.266	-119.322	10.973	10.570	177.997	201.819	84.491	-29.680	146.352	177.037	87.272	180.796	222.927	207.365	0.00044899	0.00061799	0.0001559	1358.6	3.9499e-06	3.9669e-06	1361.1	374.07	4.9883e-06	4.6637e-06	428.52	143.7	124.69	43.145	5.7254e-06	53.228	0.00048868	0.00049111	0.00012672	1374	5.6234e-06	5.0143e-06	1377.8	381.06	5.5022e-06	5.4919e-06	436.85	147.17	127.64	44.119	5.324e-06	54.7	168.589	-41.925	-37.308	-117.294	2.308	10.261	-117.578	-112.785	-36.226	25.233	-113.106	-109.435	-108.609	-103.737	0.753	-104.272	-8191	255	
729.380	1	1	0	0	0.27016	0.29001	0.057491	0.33258	0.066422	0.1539	0.28139	0.14727	0.060801	0.060688	0.25733	0.16198	0.13952	0.4462	0.06962	0.16181	-3.3896	-3.2958	-3.8937	-3.8896	-3.3833	-4.1896	-3.6854	-3.7667	-3.9333	-3.4125	-4.0083	-3.7646	-3.4104	-4.0708	-3.6021	-3.6083	88.849	75.936	162.753	175.294	119.650	200.705	133.944	164.694	164.376	171.851	168.155	193.077	-90.125	208.037	106.858	132.857	0.00047512	0.00063868	0.00016377	1357.8	4.0227e-06	5.0033e-06	1359	375	5.4507e-06	5.1376e-06	431.8	143.68	124.82	43.211	4.9451e-06	53.303	0.00049583	0.00047765	0.00012749	1371.5	5.3638e-06	5.2602e-06	1377.2	381.12	5.2492e-06	5.2976e-06	437.04	147.06	127.84	44.117	5.2803e-06	54.895	167.295	-37.718	-46.798	-117.125	-22.865	17.577	-117.507	-112.782	-41.484	17.911	-113.054	-109.260	-108.895	-103.737	9.245	-104.340	-8191	255	
729.476	1	1	0	0	0.070753	0.15063	0.22304	0.20695	0.24755	0.24865	0.25273	0.21525	0.30857	0.040526	0.11024	0.26525	0.23123	0.11676	0.080938	0.084198	-3.6479	-3.3146	-4.0875	-3.925	-3.3042	-4.075	-3.7604	-3.6854	-4.1167	-3.3812	-3.8396	-4.1125	-3.3604	-4.1438	-3.6042	-3.4958	-127.538	40.872	214.302	227.820	-52.409	-21.389	204.651	144.091	-28.950	96.433	163.072	188.440	173.538	-120.808	153.588	184.767	0.00047484	0.0005202	0.00013374	1359.9	3.6813e-06	6.8576e-06	1356.4	376.17	4.3287e-06	5.0551e-06	431.8	143.88	124.94	43.105	4.0701e-06	53.536	0.0005035	0.00049578	0.00012765	1374.6	5.5172e-06	5.2254e-06	1376.9	381.01	5.3228e-06	5.3848e-06	437.88	147.1	127.59	44.092	5.5381e-06	54.814	169.540	-53.599	-49.493	-117.340	-12.305	10.891	-117.437	-112.663	-14.540	30.117	-113.108	-109.200	-108.821	-103.836	6.650	-104.469	-8191	255	
729.572	1	1	0	0	0.056284	0.017433	0.034959	0.24237	0.22122	0.25123	0.22355	0.4445	0.17177	0.29369	0.22753	0.043279	0.15537	0.098108	0.062218	0.16123	-3.7583	-3.3604	-3.6333	-4.0813	-3.3146	-4.2312	-3.8688	-3.5312	-4.1583	-3.4042	-3.8958	-4.1333	-3.3625	-4.0833	-3.6458	-3.4625	205.230	-46.077	120.742	213.042	157.822	-66.163	166.762	205.593	-40.622	-110.420	169.428	120.279	172.268	77.125	187.401	207.259	0.00045694	0.00044929	0.00014344	1360.5	5.0947e-06	5.4027e-06	1356.1	373.75	4.2322e-06	3.978e-06	431.23	143.84	125.17	43.05	4.6369e-06	53.572	0.00049877	0.000492	0.00013749	1373.9	5.3784e-06	5.1196e-06	1375.1	380.46	5.2981e-06	5.0685e-06	437.67	147.14	127.88	44.058	5.288e-06	54.8	170.713	-28.970	-52.702	-117.232	-13.787	5.516	-117.502	-112.706	-22.411	10.533	-112.995	-109.395	-108.908	-103.676	17.318	-104.336	-8191	255	
729.693	1	1	0	0	0.1799	0.19406	0.23408	0.24199	0.07682	0.058054	0.10273	0.1648	0.15563	0.23751	0.15013	0.18221	0.21854	0.13947	0.17019	0.096367	-3.7625	-3.5146	-3.6771	-4.3146	-3.2229	-4.0146	-3.9417	-3.3583	-4.1875	-3.4833	-3.7479	-4.1625	-3.2333	-4.0125	-4.0062	-3.4688	134.038	13.025	-5.180	178.360	-64.670	112.334	154.212	-118.091	165.474	-124.925	78.499	214.276	-108.273	220.934	-56.345	-64.297	0.00043722	0.0005203	0.00017115	1359.1	3.5956e-06	5.2712e-06	1359.7	373.57	4.8967e-06	5.2914e-06	430.88	143.54	124.72	42.996	2.6658e-06	53.327	0.0004894	0.00047481	0.00012909	1371.6	5.2734e-06	5.1919e-06	1376.5	380.02	5.4379e-06	5.2262e-06	437.5	146.98	127.54	43.997	5.154e-06	54.753	170.257	-32.898	-17.094	-117.314	6.646	13.088	-117.470	-112.613	-38.320	15.058	-112.872	-109.377	-108.598	-103.834	5.898	-104.400	-8191	255	
729.765	1	1	0	0	0.17142	0.11843	0.071429	0.45191	0.27008	0.078054	0.27263	0.1687	0.2251	0.15291	0.23901	0.28148	0.10853	0.28484	0.022581	0.23227	-3.8	-3.4625	-3.6396	-4.2792	-3.5208	-3.8167	-4.0167	-3.3833	-4.0354	-3.75	-3.65	-4.2875	-3.4646	-3.9313	-3.9271	-3.5458	53.519	157.009	128.068	183.280	134.554	42.502	143.750	199.536	169.252	27.271	163.558	195.496	57.334	-124.180	61.788	120.882	0.00043498	0.00035207	0.0001233	1359	3.498e-06	2.729e-06	1354.9	373.47	4.5736e-06	2.7833e-06	428.68	143.81	124.46	42.916	5.2587e-06	53.295	0.00048976	0.00047716	0.00012976	1370.6	5.3751e-06	5.14e-06	1373.2	379.71	5.1915e-06	5.0166e-06	436.14	147.12	127.36	44.007	5.2473e-06	54.667	168.866	-26.162	-62.752	-117.150	-16.750	10.221	-117.514	-112.553	-28.164	12.325	-112.927	-109.246	-108.630	-103.544	-1.979	-104.293	-8191	255	
729.861	1	1	0	0	0.095852	0.086031	0.11395	0.37229	0.041543	0.085655	0.25013	0.23148	0.13832	0.10511	0.10467	0.135	0.22646	0.13294	0.21891	0.31523	-3.6708	-3.5938	-3.2667	-4.1604	-3.3771	-3.7667	-4.1937	-3.6417	-3.8521	-3.7542	-3.5271	-4.2271	-3.6688	-3.7375	-4.1438	-3.3937	181.023	29.238	126.881	202.687	-121.800	-113.190	161.686	158.213	218.877	-72.980	228.066	207.656	159.392	195.905	18.999	145.735	0.00044212	0.0003989	0.00013921	1357.4	3.8805e-06	5.7676e-06	1353.9	374.33	4.0012e-06	3.394e-06	428.65	144.37	124.83	43.251	5.1583e-06	53.292	0.00049028	0.00046765	0.00013152	1369.7	5.338e-06	5.2331e-06	1375.1	379.86	5.391e-06	5.0572e-06	436.63	147.21	127.62	44.072	5.0531e-06	54.714	169.366	-54.308	-51.417	-117.089	-13.302	9.380	-117.293	-112.553	-29.961	30.840	-113.085	-109.210	-108.442	-103.393	10.679	-103.846	-8191	255	
729.957	1	1	0	0	0.15372	0.030571	0.21837	0.22539	0.19056	0.19199	0.3179	0.32607	0.053873	0.32403	0.16577	0.16374	0.12688	0.1785	0.077983	0.31823	-3.5042	-3.8396	-3.3604	-4.3104	-3.425	-3.5667	-4.2312	-3.2188	-3.8208	-3.7229	-3.4125	-4.025	-3.6646	-3.6917	-3.9917	-3.4833	-107.795	45.976	-8.197	211.795	-7.819	40.417	177.700	133.041	27.644	170.568	-31.889	87.401	209.268	-112.630	-10.837	122.157	0.00043315	0.00062744	0.00015232	1357.6	4.5074e-06	5.1702e-06	1353.9	374.12	4.6864e-06	6.1678e-06	431.07	143.44	124.51	43.161	4.0117e-06	53.483	0.00049059	0.00047412	0.00013056	1369.7	5.2089e-06	5.1386e-06	1372.5	380.12	5.2408e-06	5.1318e-06	436.38	147	127.52	44.109	5.0968e-06	54.782	173.791	-32.312	-18.075	-116.768	-11.074	6.073	-117.162	-112.628	-18.293	19.605	-112.898	-109.238	-108.611	-103.456	12.616	-104.122	-8191	255	
730.077	1	1	0	0	0.19285	0.2098	0.040506	0.19557	0.28481	0.073518	0.18724	0.033749	0.081713	0.22988	0.177	0.060531	0.18354	0.16025	0.090346	0.095357	-3.3833	-3.8104	-3.2958	-4.15	-3.6021	-3.4583	-4.1375	-3.7	-3.7729	-3.975	-3.4562	-3.9167	-3.975	-3.2917	-4.1813	-3.4854	-116.674	101.578	175.917	214.800	-85.477	125.263	147.508	-113.069	45.593	-89.712	-126.850	139.710	218.228	183.717	-77.658	-82.462	0.00045895	0.00077878	0.00018767	1358.2	2.9148e-06	5.9916e-06	1353.9	372.71	3.9738e-06	4.0378e-06	429.37	143.78	124.65	43.205	3.6716e-06	53.527	0.00049799	0.00048652	0.00012801	1370.5	5.1645e-06	5.1201e-06	1374.1	379.42	5.2905e-06	5.0188e-06	436.84	147	127.38	44.079	5.1069e-06	54.715	166.810	-45.047	-48.335	-116.797	-6.548	16.862	-116.912	-112.494	-29.268	6.983	-112.843	-108.796	-108.489	-103.386	2.483	-103.934	-8191	255	
730.174	1	1	0	0	0.20932	0.076034	0.11711	0.29205	0.29596	0.10104	0.087536	0.17765	0.12755	0.03677	0.12623	0.2031	0.30784	0.064116	0.060607	0.22238	-3.2646	-3.9917	-3.2979	-4.1687	-3.7896	-3.2208	-4.3979	-3.5729	-3.6937	-4.1979	-3.4354	-4.0396	-3.8542	-3.6229	-3.9208	-3.5646	-0.012	1.015	221.276	205.560	-104.109	-55.190	158.810	207.005	-102.652	-31.796	206.975	195.884	-123.272	150.213	-61.152	180.427	0.00043161	0.00050758	0.00015177	1356.7	3.9911e-06	5.7367e-06	1359.1	373.24	3.6627e-06	5.6069e-06	429.91	143.43	125.18	43.063	3.119e-06	53.35	0.00049372	0.00047074	0.00013316	1368.8	5.2516e-06	5.2652e-06	1375	379.6	5.4492e-06	5.2981e-06	436.43	147.07	127.7	43.964	5.3372e-06	54.704	168.130	-54.807	-30.938	-116.680	-10.862	5.717	-117.264	-112.639	-20.988	13.021	-112.567	-108.798	-108.446	-103.457	12.322	-104.494	-8191	255	
730.270	1	1	0	0	0.16382	0.063689	0.45166	0.29878	0.21895	0.098552	0.2407	0.11092	0.1679	0.090605	0.09733	0.19249	0.0080283	0.14736	0.076391	0.24602	-3.0146	-4.0563	-3.3187	-4.0667	-3.8875	-3.3563	-4.3646	-3.7667	-3.4417	-4.1271	-3.6125	-3.8354	-4.05	-3.3292	-4.0833	-3.6937	-79.738	18.854	145.615	173.842	145.323	-113.936	180.419	163.196	-100.685	-68.415	229.026	187.931	120.874	188.125	93.375	223.023	0.00044874	0.00055207	0.00015148	1355.4	3.3628e-06	4.7041e-06	1356.6	374.54	4.1307e-06	5.0039e-06	429.45	143.75	124.4	42.914	4.7557e-06	53.281	0.00050139	0.00046224	0.00013578	1370.9	5.1669e-06	5.2598e-06	1375.5	379.92	5.3555e-06	4.9859e-06	435.95	147.08	127.31	43.987	5.2252e-06	54.688	171.319	-37.165	-34.953	-116.808	-18.436	25.833	-116.941	-112.219	-34.760	31.708	-112.214	-108.440	-108.138	-103.281	3.288	-103.863	-8191	255	
730.389	1	1	0	0	0.24733	0.31485	0.051967	0.26004	0.12691	0.11859	0.3031	0.19248	0.1616	0.19145	0.27027	0.31571	0.19849	0.23591	0.23055	0.16187	-3.1083	-4.2917	-3.425	-3.85	-3.9938	-3.1625	-4.3604	-4.0417	-3.45	-4.1937	-3.6583	-3.6646	-4.0896	-3.5833	-3.9479	-3.9042	42.814	96.591	165.730	190.057	94.780	115.883	163.901	117.107	22.307	117.812	168.120	155.520	179.779	-90.318	-106.908	106.000	0.00047419	0.00048611	0.00015772	1354.9	2.8898e-06	6.5054e-06	1359	374.1	3.6789e-06	4.6515e-06	429.28	143.82	124.88	43.148	4.5575e-06	53.263	0.00049053	0.00047038	0.00013807	1367.6	5.1564e-06	5.3926e-06	1374.5	379.98	5.3975e-06	4.9289e-06	436.44	146.71	127.42	44.005	5.2019e-06	54.666	170.417	-44.725	-30.265	-116.597	-6.902	27.983	-116.904	-112.327	-10.378	28.233	-112.632	-108.713	-108.068	-103.149	7.773	-103.749	-8191	255	
730.460	1	1	0	0	0.11305	0.19501	0.13479	0.25735	0.12963	0.12542	0.21513	0.28169	0.31464	0.049026	0.12997	0.27123	0.052275	0.11828	0.17042	0.34377	-3.1771	-4.2417	-3.6104	-3.8146	-4.1979	-3.2083	-4.1167	-4.0042	-3.3937	-4.0146	-3.5917	-3.6208	-4.1958	-3.475	-3.8875	-3.8729	-18.385	-14.647	109.070	211.674	139.911	212.848	180.972	63.961	72.108	217.620	-98.345	159.295	-60.257	-1.562	159.483	165.302	0.00044354	0.00068143	0.00012872	1354.5	2.4107e-06	4.217e-06	1351.9	374.9	4.5772e-06	7.11e-06	429.68	143.55	124.97	43.182	3.0658e-06	53.117	0.00051178	0.00046627	0.00013313	1367.4	5.1193e-06	5.2593e-06	1370.7	380.03	5.41e-06	4.8584e-06	435.79	147.02	127.32	43.967	5.19e-06	54.666	165.204	-50.696	-45.721	-116.857	-13.998	16.012	-117.066	-112.327	-22.438	5.434	-112.786	-108.713	-108.308	-103.604	-33.691	-104.349	-8191	255	
730.556	1	1	0	0	0.23987	0.039516	0.03728	0.4322	0.18967	0.17633	0.14125	0.19022	0.12272	0.13019	0.37351	0.28075	0.26742	0.14523	0.11149	0.11579	-2.8688	-4.0417	-3.5375	-3.875	-3.9896	-3.3937	-3.9146	-4.1021	-3.2292	-4.0708	-3.7875	-3.6042	-4.2542	-3.3042	-3.725	-4.1917	209.563	30.396	151.761	218.502	-9.870	-60.470	101.060	141.983	-60.692	-71.689	163.025	162.040	212.047	186.189	41.696	223.462	0.00042794	0.00041612	0.0001829	1347.5	2.189e-06	6.5235e-06	1351.1	372.16	2.2417e-06	5.1351e-06	428.82	143.08	124.62	42.811	4.1934e-06	53.331	0.00049722	0.00046501	0.00013009	1364.6	4.9986e-06	5.1395e-06	1368.5	379.13	5.3167e-06	4.9976e-06	435.65	146.92	127.29	43.883	5.0671e-06	54.695	168.477	-23.129	-18.277	-117.272	-1.193	11.800	-117.325	-112.887	-47.817	31.053	-113.340	-109.427	-108.813	-103.830	6.117	-104.487	-8191	255	
730.677	1	1	0	0	0.24711	0.34711	0.083601	0.30673	0.074449	0.025401	0.37531	0.1801	0.1649	0.072275	0.20635	0.14444	0.29517	0.2159	0.29339	0.29995	-2.9562	-4.0021	-3.7562	-3.525	-4.0875	-3.6292	-3.7938	-4.2417	-3.2729	-3.8958	-3.8667	-3.4604	-4.0583	-3.4521	-3.4708	-4.1271	198.541	-120.906	13.853	-127.677	-120.390	117.564	161.332	183.457	-47.538	132.693	199.362	136.836	176.273	-98.445	224.165	195.629	0.00047583	0.00046868	0.00016659	1353	3.6423e-06	6.3546e-06	1347.5	374.11	3.8396e-06	5.5768e-06	428.36	144.08	123.82	43.148	3.8983e-06	53.268	0.00049442	0.00045387	0.00012148	1365.1	5.0995e-06	5.1802e-06	1367.6	379.32	5.2084e-06	4.9127e-06	435.28	146.74	127.11	43.966	5.1943e-06	54.668	168.024	-47.126	-50.560	-117.218	-10.000	41.489	-117.456	-112.898	-17.952	12.176	-113.475	-109.465	-108.789	-103.788	3.292	-104.352	-8191	255	
730.773	1	1	0	0	0.09795	0.14946	0.08322	0.1217	0.078688	0.17273	0.29742	0.19295	0.2166	0.2479	0.025836	0.10993	0.061337	0.23347	0.14304	0.095502	-2.9021	-3.9271	-3.8854	-3.5062	-4.1979	-3.4833	-3.7583	-4.1375	-3.2729	-3.9562	-3.875	-3.45	-4.0958	-3.7667	-3.5563	-4.1979	141.900	216.248	79.239	162.507	-106.550	-58.920	121.929	182.440	-47.553	99.279	-120.700	37.808	-81.895	-25.268	-85.419	183.142	0.0004547	0.00057387	0.00013691	1351.3	3.1414e-06	4.8717e-06	1348.2	371.99	3.7607e-06	4.5896e-06	429.35	143.2	124.41	42.973	4.7228e-06	53.278	0.00049545	0.00045781	0.00012918	1363.2	4.9978e-06	5.088e-06	1368.4	379.29	5.4452e-06	5.0997e-06	436.04	146.65	127.34	43.917	5.1565e-06	54.599	169.524	-45.412	-31.074	-116.996	-11.241	42.432	-117.100	-112.510	-31.939	24.538	-112.733	-109.202	-108.512	-103.625	8.544	-104.414	-8191	255	
730.869	1	1	0	0	0.21848	0.13148	0.19419	0.11862	0.073855	0.28006	0.28119	0.4998	0.2246	0.16912	0.17769	0.10318	0.10169	0.16767	0.15897	0.063493	-3.2438	-3.675	-4.0458	-3.4604	-3.9083	-3.7438	-3.4604	-4.1792	-3.3146	-3.5563	-4.1292	-3.3604	-4.1208	-3.675	-3.4437	-4.2396	43.044	124.442	-78.428	183.969	137.849	28.452	189.201	177.726	167.334	155.060	-63.329	190.146	-107.814	-106.367	33.969	68.473	0.00048054	0.00062692	0.0001159	1356.8	3.2772e-06	5.6351e-06	1350.5	372.89	3.015e-06	4.9571e-06	428.64	143.13	124.73	43.086	4.9522e-06	53.343	0.00049434	0.0004733	0.00012342	1365.5	5.0228e-06	4.9827e-06	1368	379.61	5.3022e-06	5.135e-06	435.96	146.73	127.42	43.937	5.4521e-06	54.652	168.552	-38.715	-22.018	-116.902	-0.407	18.088	-116.995	-112.345	-36.645	3.082	-112.935	-109.019	-108.556	-103.703	8.305	-104.339	-8191	255	
730.990	1	1	0	0	0.12574	0.062647	0.3327	0.076877	0.17437	0.06244	0.14004	0.23404	0.30156	0.11973	0.19557	0.15581	0.043911	0.12219	0.12074	0.091564	-2.9729	-3.6437	-3.9146	-3.6917	-3.9583	-3.95	-3.5021	-4.1917	-3.6146	-3.6354	-4.0875	-3.5604	-3.9625	-4.025	-3.1833	-4.2146	202.630	224.034	190.131	193.623	210.163	-50.654	87.136	158.920	178.563	53.804	175.963	-127.352	-37.164	207.545	116.997	-9.977	0.00045351	0.00046123	9.1828e-05	1350.5	3.4446e-06	4.2011e-06	1349.8	374.05	4.6301e-06	6.005e-06	428.86	143.63	124.74	42.911	4.8975e-06	53.441	0.00049051	0.00045586	0.00012411	1364.3	5.2872e-06	4.9741e-06	1369.4	379.46	5.3244e-06	5.2172e-06	436.37	146.96	127.42	43.908	5.3045e-06	54.705	173.208	-55.978	-23.275	-116.738	-5.752	3.298	-116.892	-112.126	-13.464	19.440	-112.611	-108.537	-108.091	-103.342	-2.893	-103.970	-8191	255	
731.062	1	1	0	0	0.059651	0.17442	0.13089	0.40434	0.044804	0.1896	0.27101	0.41916	0.109	0.16641	0.15408	0.18018	0.24638	0.065263	0.062678	0.12851	-3.2458	-3.3229	-3.9833	-3.675	-3.8688	-3.9354	-3.5	-4.3125	-3.5604	-3.3521	-4.2792	-3.5375	-3.7313	-4.1375	-3.3563	-3.825	197.257	186.746	51.973	160.431	58.314	5.399	159.780	202.026	101.063	89.259	134.226	150.661	205.734	183.489	-81.300	65.078	0.00047451	0.00059159	0.00013248	1350.7	2.8496e-06	6.1332e-06	1348.9	372.04	4.7152e-06	4.8246e-06	429.77	143.31	125.01	43.06	5.1197e-06	53.031	0.0004981	0.00046875	0.00012568	1364.6	5.3182e-06	5.1187e-06	1368.3	379.32	5.2214e-06	5.1327e-06	436.44	146.93	127.38	43.977	5.2303e-06	54.564	171.876	-43.045	-43.287	-116.942	-19.139	6.307	-117.169	-112.397	-29.736	31.687	-112.703	-108.752	-108.218	-103.638	-8.123	-104.036	-8191	255	
731.158	1	1	0	0	0.28878	0.19947	0.29506	0.21739	0.12083	0.19274	0.16583	0.32768	0.2212	0.12733	0.02431	0.017422	0.19173	0.34306	0.1404	0.083302	-3.475	-3.4479	-3.9083	-3.6146	-3.7083	-4.0625	-3.4854	-4.1646	-3.7667	-3.4354	-4.2521	-3.6917	-3.7167	-4.2792	-3.2542	-4.0458	80.827	80.874	-77.343	171.680	-18.714	222.892	177.525	187.750	-64.003	-76.752	88.455	-82.908	143.160	-125.353	-4.624	67.811	0.00041042	0.00056657	0.00014928	1346.8	2.6868e-06	5.1693e-06	1352.4	372.68	3.5833e-06	5.8237e-06	429.22	143.54	124.87	43.085	3.8316e-06	53.329	0.00048909	0.00047883	0.00012539	1362	5.3001e-06	4.8154e-06	1369.3	379.31	5.442e-06	5.252e-06	435.99	146.66	127.28	43.96	5.2494e-06	54.707	170.612	-41.777	-47.851	-116.808	0.823	12.233	-117.224	-112.125	-27.114	22.365	-112.875	-109.025	-108.185	-103.515	-4.909	-104.023	-8191	255	
731.254	1	1	0	0	0.17862	0.28831	0.27817	0.43227	0.30618	0.21044	0.10715	0.21067	0.22135	0.16657	0.040425	0.29171	0.12633	0.18311	0.0025159	0.052304	-3.225	-3.2125	-4.175	-3.6604	-3.5187	-3.9958	-3.5375	-4.0229	-3.8854	-3.5083	-4.1292	-3.7521	-3.5979	-4.2854	-3.5187	-3.8521	229.308	-6.703	163.431	179.945	58.844	65.182	222.410	161.597	-34.900	218.438	-91.224	185.973	135.472	-72.019	163.722	132.464	0.0004341	0.00049001	0.00016596	1351.2	4.1271e-06	6.3226e-06	1349.7	374.82	4.5811e-06	4.8391e-06	428.63	143.44	124.82	43.023	3.325e-06	53.102	0.00049846	0.00048091	0.00012832	1364.2	5.0014e-06	4.8755e-06	1368.1	379.88	5.1636e-06	5.3889e-06	435.32	146.48	127.55	43.976	5.2574e-06	54.522	174.876	-47.888	-40.561	-116.749	-26.088	5.159	-116.971	-112.088	-8.824	25.571	-112.619	-108.791	-108.072	-103.363	-6.516	-103.977	-8191	255	
731.350	1	1	0	0	0.17162	0.1117	0.049438	0.19523	0.12313	0.044808	0.12539	0.13408	0.096518	0.075261	0.25915	0.11632	0.26089	0.33447	0.070142	0.11096	-3.7208	-3.2104	-3.9958	-4.0354	-3.3771	-4.3187	-3.55	-3.9479	-3.8917	-3.2146	-4.1271	-3.6583	-3.6	-4.2042	-3.25	-3.7958	-33.137	-37.410	53.458	-47.043	15.496	-72.893	118.796	-92.434	37.830	68.170	100.121	-98.032	197.836	-107.946	35.257	-98.910	0.000449	0.0004828	0.000158	1346.8	4.0502e-06	3.8963e-06	1344.3	372.12	3.4021e-06	4.8496e-06	430.34	143.14	123.8	43.044	4.0263e-06	53.274	0.00048264	0.00049806	0.0001301	1361.3	5.3392e-06	5.0306e-06	1367	379.03	5.2602e-06	5.191e-06	435.87	146.7	127.03	43.942	5.3622e-06	54.589	168.338	-55.620	-49.477	-116.959	4.023	34.057	-117.007	-112.165	-31.219	28.225	-112.880	-109.098	-108.607	-103.686	-7.308	-104.203	-8191	255	
731.469	1	1	0	0	0.23322	0.16052	0.17984	0.23313	0.34586	0.22055	0.12185	0.11876	0.0092082	0.055244	0.33959	0.17996	0.16638	0.11619	0.063487	0.17822	-3.7125	-3.2062	-4.0771	-3.8292	-3.2542	-4.2625	-3.6562	-3.7313	-4.0333	-3.2917	-4.0563	-3.9729	-3.4062	-4.1625	-3.4604	-3.5812	-34.989	113.632	96.938	145.853	218.687	116.008	68.599	155.764	18.658	134.371	221.903	222.232	200.623	-92.623	-20.806	28.012	0.0004319	0.00045304	0.00014451	1352.8	3.76e-06	4.7717e-06	1349.3	373.92	2.4053e-06	3.7811e-06	429.87	143.14	124.83	43.131	5.4208e-06	53.433	0.00050759	0.00048757	0.00012687	1362	5.2468e-06	5.0536e-06	1366.7	379.81	5.3777e-06	5.2253e-06	436.99	146.63	127.48	43.984	5.2829e-06	54.636	170.002	-47.459	-33.674	-117.172	-25.547	17.710	-117.208	-112.608	-58.830	21.925	-113.130	-109.216	-108.429	-103.528	15.857	-104.120	-8191	255	
731.565	1	1	0	0	0.14041	0.14168	0.15504	0.14053	0.068543	0.19963	0.11267	0.15787	0.12953	0.072285	0.30336	0.2216	0.071788	0.21082	0.1783	0.18065	-3.6104	-3.4688	-3.7292	-3.85	-3.1896	-4.1604	-3.6708	-3.7292	-3.8771	-3.4229	-3.8479	-4.0833	-3.4062	-4.0458	-3.5854	-3.3208	85.022	-49.469	94.137	198.172	29.775	226.367	-69.499	166.995	189.394	1.327	185.320	152.934	117.106	-96.148	34.750	212.908	0.0004424	0.00052595	0.00013233	1351.8	3.3668e-06	4.3678e-06	1349.7	373.59	3.5098e-06	4.4119e-06	430.13	143.24	124.44	42.963	4.5867e-06	53.257	0.00050448	0.00046424	0.00012819	1363.6	5.0482e-06	5.1739e-06	1367.4	378.89	5.2509e-06	5.0306e-06	436.75	146.41	127.18	43.939	5.1235e-06	54.593	168.904	-42.262	-23.117	-116.619	-1.631	11.001	-116.963	-112.173	-43.045	1.728	-112.722	-108.848	-108.344	-103.351	4.020	-104.059	-8191	255	
731.639	1	1	0	0	0.21841	0.11066	0.16983	0.26852	0.22933	0.13987	0.23538	0.10257	0.15876	0.067419	0.079576	0.20469	0.23927	0.13812	0.18928	0.069113	-3.6792	-3.3833	-3.7625	-3.9896	-3.3833	-4.1104	-3.9521	-3.6521	-4.075	-3.4771	-3.8417	-4.0792	-3.6167	-4.0813	-3.7125	-3.3917	105.622	221.386	40.235	-114.097	-124.274	3.930	164.135	-53.971	216.970	155.334	218.337	183.904	152.391	200.432	116.179	141.492	0.00042501	0.00041616	0.00014599	1349.8	3.5784e-06	7.2622e-06	1346.6	372.33	4.1574e-06	5.4862e-06	427.78	143.9	125	43.07	5.0685e-06	53.113	0.00048351	0.00046615	0.00012846	1362.2	5.4619e-06	4.9271e-06	1367.5	378.58	5.1539e-06	5.1734e-06	435.5	146.65	127.46	43.992	4.9238e-06	54.585	169.898	-39.020	-44.482	-117.021	1.687	21.256	-117.125	-112.361	-28.902	12.940	-112.706	-109.311	-108.447	-103.389	-4.555	-104.133	-8191	255	
731.757	1	1	0	0	0.10379	0.18167	0.35673	0.11252	0.044467	0.062093	0.37796	0.11431	0.24161	0.29645	0.20491	0.056227	0.13828	0.073224	0.17534	0.11331	-3.4938	-3.4854	-3.5729	-4.2688	-3.3812	-3.7646	-4.0292	-3.6354	-4.0271	-3.5375	-3.6854	-4.2417	-3.3625	-3.8438	-3.8271	-3.2188	210.872	46.412	-58.899	96.613	-74.205	157.996	114.612	157.627	83.686	46.187	-127.003	-116.298	159.475	65.096	139.826	161.462	0.00045909	0.00050526	0.00014807	1350.7	3.2641e-06	5.1531e-06	1350.7	372.06	2.5924e-06	3.8829e-06	430.3	143.86	124.57	42.978	5.4772e-06	53.453	0.00048346	0.00045403	0.00013014	1363.2	5.1338e-06	5.158e-06	1368.3	378.46	5.1462e-06	5.0975e-06	435.97	146.82	127.29	43.932	5.1485e-06	54.608	168.810	-49.214	-51.554	-116.691	-25.914	52.609	-117.078	-112.391	-35.899	23.353	-112.479	-108.981	-108.191	-103.462	7.565	-103.717	-8191	255	
731.854	1	1	0	0	0.099321	0.14987	0.094415	0.21842	0.07987	0.1711	0.2614	0.13435	0.19339	0.16106	0.16374	0.11306	0.14195	0.11341	0.14787	0.29178	-3.6667	-3.7229	-3.5271	-4.2458	-3.4562	-3.7604	-4.1333	-3.6896	-4.0042	-3.7	-3.5521	-4.1083	-3.5729	-3.8208	-4.0021	-3.2833	184.812	204.591	-79.448	198.334	-127.984	100.312	169.162	175.679	91.649	62.654	208.230	91.568	211.972	180.059	-49.075	169.214	0.00044936	0.00056883	0.00012979	1348	2.6347e-06	4.6614e-06	1348.7	373.16	3.7231e-06	6.754e-06	428.12	143.28	125.02	42.918	5.3833e-06	53.127	0.00047937	0.00046363	0.00012514	1360.5	5.1754e-06	5.0428e-06	1366.4	378.48	5.103e-06	5.1648e-06	435.17	146.4	127.2	43.848	5.1353e-06	54.579	170.833	-38.519	-33.983	-116.471	-28.099	14.062	-117.030	-112.362	-25.953	24.201	-112.635	-108.667	-108.430	-103.407	3.595	-103.758	-8191	255	
731.950	1	1	0	0	0.21288	0.164	0.096218	0.28913	0.31162	0.17474	0.073873	0.35873	0.17981	0.15828	0.16412	0.17318	0.074242	0.227	0.16627	0.069547	-3.4562	-3.8208	-3.4354	-4.3042	-3.3792	-3.7479	-4.2063	-3.4771	-3.8875	-3.8208	-3.3604	-4.0542	-3.575	-3.6104	-4.1062	-3.4396	-76.228	32.104	61.306	222.506	-1.537	109.233	64.684	149.319	225.351	-15.747	142.818	221.770	-118.649	214.345	155.522	136.815	0.00044757	0.00054752	6.8214e-05	1348.5	3.8309e-06	6.3866e-06	1352.8	371.66	5.3095e-06	5.3965e-06	430.21	143.46	124.33	42.868	4.442e-06	52.9	0.00049432	0.00046407	0.00013039	1363.5	5.2343e-06	4.979e-06	1367.3	378.32	5.099e-06	4.9045e-06	435.4	146.6	126.98	43.886	4.9844e-06	54.462	170.789	-69.423	-38.901	-116.701	-4.862	17.098	-117.190	-112.497	-18.958	19.447	-112.483	-108.702	-108.608	-103.476	20.069	-104.067	-8191	255	
732.070	1	1	0	0	0.19119	0.076433	0.15858	0.19734	0.24017	0.087458	0.092144	0.054868	0.1217	0.13218	0.1855	0.17201	0.12117	0.16973	0.035512	0.34169	-3.4208	-3.7958	-3.0771	-4.1521	-3.5229	-3.3771	-4.3417	-3.4313	-3.7729	-3.7333	-3.5583	-4.2063	-3.7062	-3.6937	-4.0458	-3.5896	-84.661	14.378	201.409	207.153	199.906	148.680	144.272	-82.927	70.407	-70.991	191.854	152.448	117.986	134.556	-28.129	174.578	0.00048322	0.00050621	0.00016081	1345.8	2.4677e-06	3.8167e-06	1345.9	371.16	4.6676e-06	3.4352e-06	429.1	143.22	124.09	42.803	5.3925e-06	53.106	0.00049051	0.00045981	0.00013232	1359.6	5.1935e-06	5.1693e-06	1362.3	377.58	5.3208e-06	4.8386e-06	435.28	146.44	127.03	43.824	5.0081e-06	54.503	168.530	-51.379	-53.454	-117.201	-1.303	25.850	-117.410	-112.565	-25.803	5.820	-113.101	-109.418	-108.839	-103.838	5.118	-104.697	-8191	255	
732.165	1	1	0	0	0.19985	0.19341	0.22246	0.1232	0.08806	0.030451	0.18165	0.19498	0.16335	0.31243	0.068157	0.15953	0.025604	0.15679	0.11526	0.244	-3.3292	-3.9917	-3.1625	-4.0167	-3.6479	-3.3646	-4.2937	-3.475	-3.8458	-4.0792	-3.4313	-4.0938	-3.8146	-3.375	-4.0125	-3.4562	-60.901	-110.593	103.358	95.590	149.054	-34.627	-101.606	219.540	13.617	19.135	-94.095	209.074	-63.978	169.096	130.988	84.502	0.00043448	0.00048643	0.00017045	1345.6	3.5832e-06	5.7902e-06	1342.3	371.08	2.1571e-06	5e-06	427.2	143.4	123.97	43.023	4.802e-06	53.214	0.00049545	0.00047883	0.00013316	1358.4	5.1039e-06	5.036e-06	1363.2	377.63	5.4129e-06	4.9217e-06	434.87	146.41	126.85	43.844	5.0357e-06	54.509	170.699	-62.215	-28.719	-117.321	-19.776	23.054	-117.694	-112.924	-42.603	23.273	-113.243	-109.501	-108.925	-103.935	-9.035	-104.747	-8191	255	
732.261	1	1	0	0	0.092498	0.064574	0.21481	0.24824	0.012317	0.068811	0.24782	0.18067	0.12869	0.18621	0.15815	0.16237	0.080501	0.13966	0.14585	0.14597	-3.3229	-4.0021	-3.0896	-4.0792	-3.7875	-3.2833	-4.3604	-3.55	-3.6562	-4.2042	-3.5458	-4.0042	-3.9958	-3.4062	-4.0479	-3.4958	26.900	91.024	156.263	172.991	-68.936	123.871	165.389	99.993	-11.177	157.359	157.182	-108.612	138.040	139.324	44.910	-51.461	0.00044733	0.00053505	0.0001153	1343.5	3.593e-06	4.5629e-06	1340.1	370.59	4.747e-06	5.9967e-06	426.4	142.42	123.9	42.691	3.5268e-06	52.976	0.0004866	0.00044261	0.00012654	1357.9	4.9679e-06	5.196e-06	1360.1	376.63	5.0901e-06	5.0582e-06	433.68	146.33	126.65	43.748	4.9971e-06	54.266	171.334	-40.147	-37.518	-117.434	-12.688	31.627	-117.579	-113.141	-33.606	0.135	-113.626	-109.484	-109.063	-104.058	-2.192	-104.829	-8191	255	
732.359	1	1	0	0	0.058133	0.15033	0.16722	0.25939	0.074428	0.17142	0.24473	0.075751	0.097047	0.26593	0.098989	0.14926	0.16403	0.19349	0.13167	0.2405	-3.125	-4.0292	-3.2917	-4	-3.8812	-3.3896	-4.1479	-3.7542	-3.3396	-3.9104	-3.4875	-4.0375	-3.9062	-3.5042	-4.0833	-3.6937	179.313	-101.863	-75.614	210.682	156.840	-122.545	157.179	126.815	-129.606	-3.051	126.210	91.233	81.151	182.211	178.793	155.395	0.00044388	0.00054269	0.00014003	1341.3	2.7641e-06	6.174e-06	1338.5	369.61	3.5307e-06	5.3512e-06	425.9	143.24	123.65	42.664	4.8472e-06	52.906	0.00049205	0.00044196	0.00012843	1354.1	4.7548e-06	5.0437e-06	1357.6	376.6	5.0343e-06	4.8693e-06	433.58	146.09	126.41	43.765	4.9166e-06	54.331	169.032	-51.830	-73.330	-117.498	20.351	23.540	-117.704	-113.236	3.975	7.864	-113.523	-109.481	-109.218	-103.756	6.089	-104.939	-8191	255	
732.453	1	1	0	0	0.28412	0.20617	0.19857	0.24325	0.13362	0.16445	0.36301	0.3307	0.050172	0.23311	0.20612	0.28251	0.23309	0.12874	0.14981	0.08157	-3.0417	-4.2	-3.375	-3.8333	-3.9583	-3.4646	-4.3396	-3.9875	-3.3792	-4.0875	-3.6792	-3.7083	-4.2958	-3.2083	-3.8917	-3.9146	20.667	120.454	33.963	189.153	159.700	150.349	182.248	206.036	19.522	60.925	78.525	217.800	192.388	-75.228	184.127	209.570	0.00043481	0.00051872	0.00012551	1339.1	2.8517e-06	3.8021e-06	1337.8	370.59	3.9161e-06	4.4967e-06	426.26	142.39	124.07	42.677	3.5935e-06	53.182	0.00049781	0.00044334	0.00012793	1351.6	5.1608e-06	4.9872e-06	1355.5	376.8	5.2953e-06	4.7148e-06	432.6	145.98	126.69	43.688	5.0531e-06	54.424	167.458	-35.586	-26.757	-117.263	-2.963	-5.845	-117.583	-113.002	-50.417	16.645	-113.697	-109.464	-109.088	-104.250	-32.782	-104.885	-8191	255	
732.549	1	1	0	0	0.13792	0.11641	0.065061	0.19152	0.22167	0.12007	0.21494	0.15086	0.086426	0.20457	0.20494	0.1434	0.1285	0.20993	0.084094	0.1285	-2.9437	-4.2104	-3.4333	-3.7021	-3.9917	-3.4354	-3.9333	-3.8646	-3.4521	-3.9646	-3.7208	-3.525	-4.1292	-3.3521	-3.8563	-3.925	129.820	-11.682	-80.070	-67.566	-128.547	-128.702	125.101	137.581	47.230	-49.101	-95.201	215.755	140.487	-72.203	-70.109	195.648	0.00047157	0.0005736	0.00015828	1335.9	3.8451e-06	3.9371e-06	1333.7	371.16	4.1487e-06	3.4016e-06	426.02	142.89	123.63	42.608	3.8745e-06	52.78	0.00047919	0.00044338	0.00012139	1350.9	4.8642e-06	5.1743e-06	1354.7	376.79	5.1785e-06	4.8115e-06	433.38	146.07	126.39	43.708	5.0624e-06	54.265	172.876	-35.870	-42.787	-117.502	-15.298	11.408	-117.583	-113.156	-4.621	22.051	-113.391	-109.820	-109.052	-104.201	-15.212	-104.661	-8191	255	
732.646	1	1	0	0	0.18051	0.08581	0.18444	0.28978	0.14225	0.13279	0.14777	0.28588	0.045236	0.11442	0.12837	0.16661	0.24944	0.26764	0.048538	0.27545	-2.9437	-4.0417	-3.5083	-3.6792	-3.9792	-3.2771	-3.8146	-4.0771	-3.3104	-3.9333	-3.7583	-3.425	-4.2208	-3.4875	-3.4979	-4.2271	-67.254	-71.598	144.542	186.650	-46.759	-106.430	198.504	187.079	92.493	213.752	-95.765	150.140	-128.994	179.354	97.677	134.793	0.00046479	0.00066409	0.00013918	1340.2	4.0494e-06	4.1098e-06	1339	369.93	3.202e-06	4.3924e-06	425.71	142.42	124.09	42.602	5.7968e-06	52.809	0.00049136	0.0004594	0.00011976	1351.8	4.89e-06	5.0166e-06	1355.6	376.11	5.1167e-06	5.017e-06	432.82	145.77	126.58	43.635	5.257e-06	54.305	172.869	-43.422	-35.526	-117.445	-7.319	22.657	-117.694	-113.165	-12.461	11.102	-113.556	-109.622	-109.316	-104.368	14.486	-104.983	-8191	255	
#DATA ENDS
