BOXY.EXE: ISS Imagent and Oximeter Data Acquisition Program Version 0.80
Ascii Record File

#ACQ INFORMATION
2  Detector Channels 
16  External MUX Channels 
1  Auxiliary Channels 
5000  Waveform (CCF) Frequency (Hz)
1  Waveforms Skipped 
30  Waveforms Averaged 
1  Cycles Averaged 
16  Acquisitions per Waveform 
10.0806  Updata Rate (Hz) 

#FILE INFORMATION
TRUE -- External MUX Channel results are PARSED.
FALSE -- AC DC and Phase are NOT grouped.
TRUE -- Companion Program Settings File CREATED.
FALSE -- AC data not excluded
FALSE -- DC data not excluded
FALSE -- Phase data not excluded
FALSE -- Auxillary Chn. data not excluded
Tab delimiters

#CALIBRATION STATE
TRUE -- Waveform Calibration Values APPLIED.


#AUX CALIBRATION VALUES
Val Type	aux-1	

Term	1.0000e+00	
Factor	0.0000e+00	


#WF CALIBRATION VALUES
A = Detector Channel
Val Type	A-AC1	A-AC2	A-AC3	A-AC4	A-AC5	A-AC6	A-AC7	A-AC8	A-AC9	A-AC10	A-AC11	A-AC12	A-AC13	A-AC14	A-AC15	A-AC16	A-DC1	A-DC2	A-DC3	A-DC4	A-DC5	A-DC6	A-DC7	A-DC8	A-DC9	A-DC10	A-DC11	A-DC12	A-DC13	A-DC14	A-DC15	A-DC16	A-Ph1	A-Ph2	A-Ph3	A-Ph4	A-Ph5	A-Ph6	A-Ph7	A-Ph8	A-Ph9	A-Ph10	A-Ph11	A-Ph12	A-Ph13	A-Ph14	A-Ph15	A-Ph16	

Term	0.00000e+00	0.00000e+00	0.00000e+00	0.00000e+00	0.00000e+00	0.00000e+00	0.00000e+00	0.00000e+00	0.00000e+00	0.00000e+00	0.00000e+00	0.00000e+00	0.00000e+00	0.00000e+00	0.00000e+00	0.00000e+00	0.00000e+00	0.00000e+00	0.00000e+00	0.00000e+00	0.00000e+00	0.00000e+00	0.00000e+00	0.00000e+00	0.00000e+00	0.00000e+00	0.00000e+00	0.00000e+00	0.00000e+00	0.00000e+00	0.00000e+00	0.00000e+00	0.00000e+00	0.00000e+00	0.00000e+00	0.00000e+00	0.00000e+00	0.00000e+00	0.00000e+00	0.00000e+00	0.00000e+00	0.00000e+00	0.00000e+00	0.00000e+00	0.00000e+00	0.00000e+00	0.00000e+00	0.00000e+00	
Factor	1.00000e+00	1.00000e+00	1.00000e+00	1.00000e+00	1.00000e+00	1.00000e+00	1.00000e+00	1.00000e+00	1.00000e+00	1.00000e+00	1.00000e+00	1.00000e+00	1.00000e+00	1.00000e+00	1.00000e+00	1.00000e+00	1.00000e+00	1.00000e+00	1.00000e+00	1.00000e+00	1.00000e+00	1.00000e+00	1.00000e+00	1.00000e+00	1.00000e+00	1.00000e+00	1.00000e+00	1.00000e+00	1.00000e+00	1.00000e+00	1.00000e+00	1.00000e+00	X	X	X	X	X	X	X	X	X	X	X	X	X	X	X	X	

B = Detector Channel
Val Type	B-AC1	B-AC2	B-AC3	B-AC4	B-AC5	B-AC6	B-AC7	B-AC8	B-AC9	B-AC10	B-AC11	B-AC12	B-AC13	B-AC14	B-AC15	B-AC16	B-DC1	B-DC2	B-DC3	B-DC4	B-DC5	B-DC6	B-DC7	B-DC8	B-DC9	B-DC10	B-DC11	B-DC12	B-DC13	B-DC14	B-DC15	B-DC16	B-Ph1	B-Ph2	B-Ph3	B-Ph4	B-Ph5	B-Ph6	B-Ph7	B-Ph8	B-Ph9	B-Ph10	B-Ph11	B-Ph12	B-Ph13	B-Ph14	B-Ph15	B-Ph16	

Term	0.00000e+00	0.00000e+00	0.00000e+00	0.00000e+00	0.00000e+00	0.00000e+00	0.00000e+00	0.00000e+00	0.00000e+00	0.00000e+00	0.00000e+00	0.00000e+00	0.00000e+00	0.00000e+00	0.00000e+00	0.00000e+00	0.00000e+00	0.00000e+00	0.00000e+00	0.00000e+00	0.00000e+00	0.00000e+00	0.00000e+00	0.00000e+00	0.00000e+00	0.00000e+00	0.00000e+00	0.00000e+00	0.00000e+00	0.00000e+00	0.00000e+00	0.00000e+00	-1.63787e+02	-1.30482e+02	-1.27013e+02	-1.82279e+02	-8.24491e+01	-6.84222e+01	-1.57983e+02	-1.62015e+02	-7.99557e+01	-6.61839e+01	-1.70752e+02	-1.71092e+02	-1.83452e+02	-1.76822e+02	-7.40614e+01	-1.49983e+02	
Factor	2.59249e-05	1.52061e-04	4.07654e-05	1.48901e-01	1.23010e-06	1.67438e-06	1.54864e-01	4.69470e-02	1.30575e-06	1.53596e-06	8.14838e-02	2.72825e-02	2.22300e-02	8.62773e-03	1.45183e-06	1.23607e-02	1.23476e-05	1.95143e-05	5.42117e-06	7.93904e-02	1.93728e-07	2.16972e-07	7.74914e-02	2.51744e-02	1.93923e-07	2.16875e-07	4.22625e-02	1.41663e-02	1.20339e-02	4.66463e-03	2.03514e-07	6.46462e-03	X	X	X	X	X	X	X	X	X	X	X	X	X	X	X	X	



#DISTANCE SETTINGS
A = Detector Channel
A-1	A-2	A-3	A-4	A-5	A-6	A-7	A-8	A-9	A-10	A-11	A-12	A-13	A-14	A-15	A-16	

2.5000e+00	3.0000e+00	2.5000e+00	3.0000e+00	2.0000e+00	3.0000e+00	1.5000e+00	3.0000e+00	3.0000e+00	3.0000e+00	3.0000e+00	3.0000e+00	3.0000e+00	3.0000e+00	1.5000e+00	3.0000e+00	

B = Detector Channel
B-1	B-2	B-3	B-4	B-5	B-6	B-7	B-8	B-9	B-10	B-11	B-12	B-13	B-14	B-15	B-16	

1.0000e+01	1.0000e+01	1.0000e+01	1.4400e+00	1.0000e+01	1.0000e+01	1.5100e+00	1.9400e+00	1.0000e+01	1.0000e+01	1.9900e+00	2.4900e+00	2.4100e+00	2.9000e+00	1.0000e+01	2.9800e+00	




#DATA BEGINS
time	group	step	mark	flag	A-AC1	A-AC2	A-AC3	A-AC4	A-AC5	A-AC6	A-AC7	A-AC8	A-AC9	A-AC10	A-AC11	A-AC12	A-AC13	A-AC14	A-AC15	A-AC16	A-DC1	A-DC2	A-DC3	A-DC4	A-DC5	A-DC6	A-DC7	A-DC8	A-DC9	A-DC10	A-DC11	A-DC12	A-DC13	A-DC14	A-DC15	A-DC16	A-Ph1	A-Ph2	A-Ph3	A-Ph4	A-Ph5	A-Ph6	A-Ph7	A-Ph8	A-Ph9	A-Ph10	A-Ph11	A-Ph12	A-Ph13	A-Ph14	A-Ph15	A-Ph16	B-AC1	B-AC2	B-AC3	B-AC4	B-AC5	B-AC6	B-AC7	B-AC8	B-AC9	B-AC10	B-AC11	B-AC12	B-AC13	B-AC14	B-AC15	B-AC16	B-DC1	B-DC2	B-DC3	B-DC4	B-DC5	B-DC6	B-DC7	B-DC8	B-DC9	B-DC10	B-DC11	B-DC12	B-DC13	B-DC14	B-DC15	B-DC16	B-Ph1	B-Ph2	B-Ph3	B-Ph4	B-Ph5	B-Ph6	B-Ph7	B-Ph8	B-Ph9	B-Ph10	B-Ph11	B-Ph12	B-Ph13	B-Ph14	B-Ph15	B-Ph16	aux-1	digaux	

683.139	1	1	0	768	0.10106	0.17113	0.12513	0.18762	0.095234	0.09138	0.08647	0.25152	0.33791	0.1977	0.07208	0.12563	0.27581	0.17041	0.084776	0.37117	-3.0083	-4.1542	-3.3688	-3.9188	-3.9104	-3.2708	-4.3146	-3.675	-3.6896	-4.2917	-3.6146	-3.925	-3.9062	-3.4083	-4.0708	-3.6896	-10.650	105.265	216.926	-92.635	144.535	-43.571	151.475	192.048	-30.742	202.119	186.094	-102.553	226.310	-119.167	-85.190	171.873	0.00043176	0.00046898	0.00014894	1369.2	3.5727e-06	7.0195e-06	1361	367.28	4.8356e-06	5.1422e-06	419.46	139.71	122.2	41.873	4.7714e-06	51.741	0.00055063	0.00054327	0.00015776	1381.1	6.0835e-06	6.1832e-06	1379.5	373.83	6.193e-06	6.0467e-06	427.5	143.2	124.52	42.91	6.0906e-06	53.136	169.596	-33.595	-49.082	-117.933	-10.485	17.700	-118.220	-113.605	-21.182	6.189	-113.945	-110.032	-109.569	-104.603	-2.201	-105.010	-8191	255	
683.235	1	1	0	0	0.17799	0.26191	0.10956	0.13521	0.099399	0.19156	0.20081	0.2954	0.13438	0.23086	0.2306	0.13425	0.34553	0.48603	0.09962	0.094203	-3.1479	-4.1375	-3.2729	-3.8729	-3.8958	-3.4083	-4.3521	-3.8917	-3.4688	-4.1062	-3.2042	-3.7812	-3.8396	-3.45	-4.2021	-3.8812	60.995	73.978	129.291	183.416	-11.432	-18.116	163.498	195.048	-64.219	162.676	104.027	-114.293	174.640	207.663	19.596	-81.153	0.00044647	0.00054856	0.00013901	1367.1	3.5435e-06	3.1459e-06	1362.7	367.78	4.7407e-06	4.0066e-06	421.12	140.62	121.88	41.816	3.4181e-06	51.609	0.00056104	0.000554	0.00015809	1380.8	5.9914e-06	6.1209e-06	1381.7	374.27	6.1671e-06	6.0481e-06	427.56	143.48	124.53	42.957	6.1296e-06	53.052	168.701	-29.602	-60.902	-117.993	-24.696	5.370	-117.952	-113.519	-26.217	15.503	-114.007	-109.847	-109.583	-104.359	40.409	-105.146	-8191	255	
683.331	1	1	0	0	0.15686	0.092268	0.17721	0.33105	0.1812	0.17761	0.1538	0.13875	0.17546	0.3782	0.21573	0.28541	0.32489	0.23301	0.17575	0.11518	-3.1437	-4.1542	-3.4708	-3.8333	-3.8771	-3.2958	-4.1375	-3.9125	-3.3708	-4.0458	-3.7604	-3.7438	-4.0437	-3.4604	-3.9042	-3.7438	170.986	-110.937	186.762	180.184	-87.536	151.405	-110.137	134.489	194.222	36.469	2.358	183.453	149.179	143.137	-29.222	169.594	0.00041452	0.00057779	0.00018046	1365.1	2.7917e-06	4.5682e-06	1356.4	367.84	5.0241e-06	4.6046e-06	418.94	140.79	121.56	42.071	3.5374e-06	51.631	0.00054201	0.00056535	0.00015789	1379.7	6.1977e-06	6.1927e-06	1378.9	374.26	6.5627e-06	5.9921e-06	426.69	143.52	124.46	42.979	6.1097e-06	53.195	170.569	-45.197	-46.835	-118.018	-29.745	30.232	-118.236	-113.551	-27.154	1.391	-113.939	-110.013	-109.313	-104.354	-18.180	-105.330	-8191	255	
683.427	1	1	0	0	0.066973	0.053211	0.2274	0.064266	0.11981	0.31296	0.21326	0.033305	0.12797	0.30306	0.32172	0.11477	0.07084	0.22442	0.28914	0.31154	-2.8979	-4.0792	-3.4354	-3.7	-4.2354	-3.3208	-4.0958	-4.1354	-3.4062	-4.15	-3.7146	-3.5438	-4.3021	-3.6708	-3.7104	-4.0437	183.232	-104.644	-103.981	118.754	-108.093	30.955	173.721	90.269	-14.722	146.809	196.506	-74.230	-11.849	-123.903	108.402	137.841	0.00047601	0.00059814	0.00011988	1367.5	3.682e-06	4.2758e-06	1357.9	368.31	4.5161e-06	4.8329e-06	420.51	139.94	121.75	42.007	4.392e-06	51.575	0.00055001	0.00054416	0.00015794	1381.1	6.1388e-06	6.0992e-06	1379.5	374.81	6.3716e-06	6.0757e-06	427.58	143.19	124.61	42.998	6.1406e-06	53.171	169.780	-48.785	-23.535	-117.843	-4.674	-8.680	-118.282	-113.514	-38.048	16.587	-114.039	-110.081	-109.399	-104.300	-13.201	-105.201	-8191	255	
683.523	1	1	0	0	0.19337	0.10436	0.14571	0.38114	0.14611	0.31128	0.13528	0.30009	0.30646	0.064688	0.28239	0.21261	0.19874	0.11001	0.10935	0.15059	-2.9792	-3.9688	-3.4208	-3.425	-4.2479	-3.2854	-3.8625	-4	-3.3042	-4.025	-3.9313	-3.3937	-4.0062	-3.4229	-3.8521	-4.3271	27.669	94.297	187.761	-120.633	13.924	186.739	186.358	176.679	184.064	87.497	-109.033	188.109	215.173	211.025	74.243	-121.413	0.00042778	0.00049748	0.00014246	1368.2	2.8142e-06	8.0808e-06	1359.7	368.13	4.8987e-06	4.9221e-06	419.9	139.79	122.21	42.091	6.0735e-06	51.704	0.00055299	0.00054835	0.0001585	1382.4	6.0052e-06	6.011e-06	1380.1	374.68	6.4407e-06	6.185e-06	427.19	143.22	124.66	42.92	6.0545e-06	53.189	168.696	-47.528	-28.700	-117.853	-9.966	1.306	-118.081	-113.500	-22.129	19.109	-114.087	-110.255	-109.486	-104.583	17.389	-104.848	-8191	255	
683.619	1	1	0	0	0.12032	0.19151	0.1476	0.30581	0.24322	0.031094	0.19303	0.29823	0.25528	0.10196	0.061929	0.59015	0.27304	0.093025	0.060817	0.16026	-2.875	-3.8708	-3.8771	-3.7521	-4.15	-3.5229	-3.8667	-4.3688	-3.2229	-3.8312	-3.9083	-3.5312	-4.2063	-3.75	-3.3229	-4.2479	209.560	147.037	56.204	210.152	92.072	202.313	194.998	186.475	144.370	55.558	100.257	206.253	-125.574	171.458	24.044	227.745	0.00046767	0.00043972	0.00020633	1366.4	3.8687e-06	8.423e-06	1358.3	369.11	3.9624e-06	6.1068e-06	420.09	139.2	122.2	41.92	4.0172e-06	51.753	0.00053913	0.00057234	0.00015153	1379.9	5.9547e-06	6.2343e-06	1379.7	374.32	6.3724e-06	5.8637e-06	427.5	142.96	124.56	42.983	6.0308e-06	53.133	170.368	-34.733	-44.396	-117.784	-17.638	18.681	-118.185	-113.463	-52.218	15.462	-113.956	-110.051	-109.548	-104.240	0.005	-105.329	-8191	255	
683.740	1	1	0	0	0.092545	0.16499	0.23406	0.13101	0.088742	0.092851	0.13689	0.28625	0.090271	0.061901	0.058937	0.21682	0.10284	0.12686	0.20787	0.22575	-3.0687	-3.8146	-3.9062	-3.3812	-3.9104	-3.6417	-3.7938	-4.4125	-3.5271	-3.8875	-4.0021	-3.4729	-3.9604	-3.6667	-3.7021	-4.2188	179.957	-130.142	121.853	195.455	103.287	59.466	-71.308	180.077	78.225	15.061	-85.260	203.958	217.137	140.600	-123.657	117.313	0.00044364	0.00050556	0.00016024	1364.7	4.5796e-06	3.7352e-06	1360.6	369.32	3.1642e-06	7.0361e-06	421.41	140.12	122.04	41.991	4.9122e-06	51.796	0.00054975	0.0005438	0.00015052	1381.1	5.9188e-06	6.1123e-06	1378.3	374.19	6.09e-06	5.9997e-06	428.2	143.34	124.8	42.974	6.0808e-06	53.218	170.504	-38.711	-50.590	-117.779	8.079	40.130	-118.050	-113.596	-45.740	15.189	-113.945	-110.205	-109.271	-104.572	2.778	-105.116	-8191	255	
683.836	1	1	0	0	0.020085	0.1303	0.15999	0.41993	0.13178	0.066214	0.14363	0.31543	0.12364	0.093484	0.1969	0.2473	0.20101	0.052663	0.1949	0.14095	-2.8104	-3.6604	-3.9146	-3.475	-3.9854	-3.6604	-3.5938	-4.2729	-3.5354	-3.6813	-3.9833	-3.3625	-4.1104	-3.9917	-3.3417	-4.1646	156.202	-109.611	-70.262	176.040	-54.565	190.660	-35.398	226.623	-111.817	-65.207	168.032	148.283	220.560	62.986	168.828	93.350	0.00042632	0.00037282	0.00010964	1362.9	4.9182e-06	5.7305e-06	1357.1	369.32	4.7501e-06	4.3044e-06	420.64	140.92	122.3	42.005	5.7849e-06	51.621	0.00053511	0.00055152	0.00015497	1380	5.924e-06	6.006e-06	1379.6	374.71	6.2189e-06	6.1452e-06	427.53	143.47	124.7	43.028	6.2742e-06	53.19	167.568	-26.130	-40.396	-117.920	-4.270	15.658	-118.161	-113.548	-21.961	7.804	-113.743	-110.174	-109.400	-104.710	-10.107	-105.254	-8191	255	
683.932	1	1	0	0	0.14122	0.25276	0.13039	0.045355	0.10207	0.18723	0.23796	0.33177	0.12793	0.17211	0.25805	0.22115	0.053923	0.12837	0.11627	0.17668	-3.2687	-3.475	-4.1229	-3.3125	-3.8417	-3.95	-3.4562	-4.3063	-3.5875	-3.4604	-4.2146	-3.7729	-3.9938	-3.8021	-3.3833	-4.25	118.669	-110.567	18.026	-15.280	121.682	-73.684	144.352	195.549	37.289	-58.576	-99.545	178.352	-12.833	110.330	141.163	227.588	0.00045875	0.00042061	0.00015291	1368.2	3.4057e-06	4.8725e-06	1359.6	368.51	3.9337e-06	4.68e-06	419.97	139.79	121.4	41.98	2.9052e-06	51.704	0.0005478	0.00054721	0.00014664	1380.8	5.8962e-06	6.0856e-06	1379.5	374.82	6.2471e-06	6.147e-06	427.43	143.13	124.56	42.957	6.1143e-06	53.186	170.683	-48.782	-33.869	-117.954	-11.667	12.857	-118.213	-113.658	-33.996	12.849	-113.914	-110.126	-109.401	-104.356	-29.235	-104.903	-8191	255	
684.029	1	1	0	0	0.11448	0.089864	0.24708	0.38465	0.11252	0.13105	0.37744	0.13586	0.18569	0.034916	0.11896	0.14665	0.18385	0.26028	0.1291	0.18245	-3.4104	-3.4083	-3.9167	-3.4938	-3.7208	-4.0333	-3.5125	-4.1312	-3.6479	-3.3896	-4.2521	-3.4667	-3.8104	-4.0229	-3.3125	-4.1771	132.468	61.364	-37.306	201.973	92.758	171.914	156.103	170.896	84.628	-95.066	-115.834	-16.740	170.503	-91.368	221.307	-111.854	0.00045706	0.00050293	0.00013476	1367.5	3.688e-06	6.0521e-06	1360	368.68	4.8797e-06	4.6507e-06	421.36	140.22	122.34	41.942	4.004e-06	51.801	0.00054553	0.00056811	0.00015075	1380	6.102e-06	5.8985e-06	1379.1	374.4	6.1469e-06	6.1511e-06	427.46	143.22	124.72	43	6.1114e-06	53.207	171.461	-38.278	-25.954	-117.895	-3.884	3.318	-118.318	-113.374	-50.891	34.648	-113.990	-110.106	-109.309	-104.517	-3.981	-105.051	-8191	255	
684.123	1	1	0	0	0.16429	0.12844	0.090195	0.27953	0.057964	0.1406	0.28225	0.21033	0.1534	0.045807	0.23761	0.18606	0.30665	0.079843	0.10964	0.30162	-3.4062	-3.3375	-4.0458	-3.7229	-3.4292	-3.85	-3.4917	-4.2708	-4.0292	-3.4792	-4.3896	-3.7083	-3.6625	-4.2396	-3.2271	-3.9	219.544	220.892	181.010	206.863	-92.972	128.824	132.521	194.604	6.961	50.481	174.816	205.054	-126.282	58.481	190.516	219.140	0.00046867	0.00068766	0.00015372	1368.4	4.2853e-06	4.9279e-06	1363.2	369.19	4.6585e-06	5.7927e-06	420.72	139.83	121.94	41.991	2.8637e-06	51.678	0.00053931	0.00055026	0.00014848	1381.4	6.0927e-06	6.0698e-06	1379.6	374.6	5.9785e-06	6.0476e-06	427.43	143.35	124.71	42.959	6.2805e-06	53.201	170.449	-37.012	-52.996	-117.772	-1.525	24.661	-118.196	-113.550	-30.661	1.029	-113.898	-109.912	-109.589	-104.228	-0.005	-105.220	-8191	255	
684.219	1	1	0	0	0.08899	0.11255	0.23195	0.17662	0.13355	0.16404	0.39464	0.2778	0.16555	0.12354	0.29959	0.26609	0.051472	0.092582	0.18289	0.056819	-3.5479	-3.2354	-3.9521	-3.7062	-3.4479	-3.9938	-3.2917	-3.8187	-3.8812	-3.3417	-4.1438	-3.6646	-3.3646	-4.3083	-3.3792	-3.725	106.268	-59.501	179.557	206.578	102.286	-34.219	184.184	209.909	125.509	-113.533	97.080	117.774	161.096	219.115	209.419	165.704	0.00041523	0.00065855	0.00011469	1367.6	4.7515e-06	5.3506e-06	1362.7	368.16	3.4552e-06	4.8442e-06	421.23	139.98	121.84	42	4.9501e-06	51.811	0.00053902	0.00055421	0.00014816	1380	6.0645e-06	5.8415e-06	1380.9	374.58	5.9664e-06	6.1159e-06	428.06	143.17	124.69	43.027	6.1953e-06	53.223	167.329	-40.935	-38.294	-118.002	-13.786	23.283	-118.053	-113.385	-34.453	19.674	-113.943	-110.003	-109.232	-104.535	9.383	-105.037	-8191	255	
684.340	1	1	0	0	0.17029	0.10422	0.20349	0.29697	0.19265	0.15564	0.41545	0.5766	0.21663	0.29801	0.28181	0.14311	0.043262	0.042005	0.19037	0.16888	-3.6188	-3.3937	-4.0354	-3.7375	-3.2	-4.1333	-3.8083	-3.8771	-4.1104	-3.6479	-4.075	-3.8229	-3.5187	-4.3646	-3.4688	-3.4938	90.349	-122.772	-57.084	208.010	70.889	217.069	209.418	200.066	68.241	166.430	137.485	129.296	-64.846	219.137	-28.437	172.806	0.00048336	0.00056786	0.0001124	1366.4	3.01e-06	4.691e-06	1359.9	369.21	3.7802e-06	4.5624e-06	420.65	139.81	122.26	41.898	4.6439e-06	51.631	0.00054386	0.00056681	0.00014875	1378.7	6.1262e-06	5.8035e-06	1377.8	374.77	5.8237e-06	6.0395e-06	427.25	143.12	124.5	42.966	5.89e-06	53.097	170.238	-20.495	-62.965	-118.041	-13.756	31.040	-118.263	-113.404	-35.256	-6.543	-113.781	-109.934	-109.350	-104.265	-19.387	-104.843	-8191	255	
684.436	1	1	0	0	0.11454	0.058865	0.070816	0.20093	0.3289	0.086123	0.22895	0.16568	0.089017	0.33493	0.25039	0.14764	0.28447	0.12542	0.16258	0.051892	-3.5458	-3.3417	-3.8958	-3.9271	-3.3667	-4.175	-3.8063	-3.6562	-4.0938	-3.4417	-4.0146	-3.7812	-3.4458	-4.2542	-3.5542	-3.4688	198.707	206.508	125.860	132.749	-51.639	-119.718	142.987	-120.777	189.010	-122.688	-125.844	-30.811	173.220	2.334	14.649	-123.635	0.00046071	0.00056073	0.00011799	1370.5	3.4098e-06	4.2826e-06	1361	368.53	3.6346e-06	5.515e-06	421.32	140.07	122.15	42.106	5.531e-06	51.832	0.00053547	0.00056128	0.00015011	1378.9	6.012e-06	5.9464e-06	1377.3	374.7	6.0173e-06	6.0824e-06	427.55	143.11	124.55	42.994	6.1461e-06	53.146	169.632	-42.510	-38.749	-118.029	-20.237	43.701	-118.296	-113.647	-33.797	16.561	-113.970	-109.719	-109.520	-104.518	-2.663	-105.021	-8191	255	
684.532	1	1	0	0	0.042793	0.16562	0.049866	0.13355	0.14618	0.13403	0.26172	0.19415	0.088555	0.30045	0.27812	0.05789	0.15657	0.17814	0.13995	0.1442	-3.7812	-3.3521	-3.7917	-4.1	-3.3146	-4.2625	-4	-3.45	-4.1708	-3.3167	-3.7021	-4.2063	-3.4229	-4.2354	-3.6708	-3.3271	225.966	133.177	134.987	224.281	83.213	-63.960	212.059	141.153	-17.342	47.590	225.537	217.644	216.593	175.107	24.221	106.450	0.00044756	0.00057709	0.00014058	1364.2	3.6858e-06	5.9865e-06	1356.8	367.95	4.5517e-06	4.0788e-06	420.67	140.11	121.74	41.971	3.8929e-06	52.069	0.00052876	0.00054514	0.00015805	1378.7	5.9757e-06	6.058e-06	1377.9	374.14	6.2092e-06	5.9053e-06	427.33	142.93	124.33	42.958	6.0656e-06	53.283	168.773	-54.187	-29.441	-117.962	13.468	18.589	-118.093	-113.391	-29.628	34.739	-113.834	-110.035	-109.483	-104.576	-3.697	-104.994	-8191	255	
684.628	1	1	0	0	0.17019	0.09544	0.18787	0.24566	0.19842	0.055232	0.2753	0.11521	0.14952	0.14947	0.25852	0.049235	0.093288	0.17933	0.15369	0.23727	-3.725	-3.2354	-3.5646	-4.1583	-3.2521	-3.9604	-3.9229	-3.3479	-4.2479	-3.4542	-3.6667	-4.1083	-3.65	-4.0875	-3.6333	-3.5458	65.766	10.147	134.797	199.075	147.387	152.291	166.804	203.994	151.457	-42.795	-114.951	-97.301	191.705	179.478	-130.161	84.372	0.00043963	0.00055907	0.00013152	1367.6	4.3963e-06	5.4509e-06	1359.9	366.8	3.1685e-06	5.2955e-06	420.34	139.38	121.53	42.139	4.5128e-06	51.661	0.00053954	0.00055559	0.00014728	1377.8	6.121e-06	5.8117e-06	1377.1	373.69	5.8132e-06	5.9627e-06	427.33	143.05	124.59	42.955	5.8476e-06	53.113	171.003	-40.111	-37.431	-117.910	-11.088	11.225	-118.194	-113.538	-26.689	13.616	-113.889	-110.218	-109.516	-104.705	-4.518	-105.286	-8191	255	
684.724	1	1	0	0	0.19919	0.18492	0.23741	0.29418	0.094833	0.085401	0.12649	0.30563	0.043115	0.27451	0.29665	0.17354	0.085989	0.14109	0.095679	0.017634	-3.6083	-3.3604	-3.3792	-4.2396	-3.175	-3.8063	-4.0354	-3.2896	-4.1333	-3.45	-3.5604	-4.2396	-3.5042	-3.6896	-4.0062	-3.2375	73.651	191.158	105.232	161.906	62.515	-92.792	193.393	108.996	157.570	107.007	64.385	200.943	116.173	220.307	215.211	189.097	0.00042042	0.00055726	0.00014594	1362.3	3.9888e-06	4.4755e-06	1355.3	367.75	5.4184e-06	5.2064e-06	420.4	140.06	122.02	41.999	4.2318e-06	51.532	0.00050695	0.00055746	0.00014767	1377.2	5.918e-06	5.7737e-06	1377.6	373.77	6.0714e-06	6.0504e-06	427.14	143.22	124.35	42.957	5.9464e-06	53.102	168.595	-28.511	-37.502	-118.012	-2.591	5.426	-118.333	-113.575	-18.789	6.123	-114.063	-110.042	-109.635	-104.385	12.452	-104.825	-8191	255	
684.820	1	1	0	0	0.46694	0.15728	0.11974	0.40675	0.059854	0.085267	0.2165	0.23612	0.19472	0.059994	0.32695	0.16707	0.20834	0.074329	0.2156	0.25786	-3.5125	-3.5521	-3.3396	-4.2396	-3.3479	-3.5021	-4.1979	-3.4417	-3.8021	-3.5104	-3.1792	-4.0875	-3.4646	-3.7146	-3.8771	-3.2458	63.331	76.460	15.180	179.359	11.379	-71.920	153.615	114.203	192.068	120.895	165.943	177.160	-70.694	199.625	-14.776	180.688	0.00044078	0.00059145	0.0001365	1366.9	3.8022e-06	2.1048e-06	1354.6	368.64	5.4616e-06	5.331e-06	420.53	139.91	121.61	42.04	4.5116e-06	51.928	0.00053033	0.00054376	0.0001587	1378.6	5.8667e-06	5.8817e-06	1377.9	374.44	5.8847e-06	5.9437e-06	427.54	143.17	124.27	42.997	6.0045e-06	53.226	174.971	-53.724	-35.678	-118.013	1.821	44.180	-118.102	-113.504	-15.517	-1.980	-113.925	-110.177	-109.748	-104.494	-10.707	-105.068	-8191	255	
684.917	1	1	0	0	0.0096597	0.10693	0.2193	0.091812	0.17041	0.029923	0.16953	0.24458	0.24353	0.11532	0.21186	0.2059	0.22606	0.23886	0.040145	0.14147	-3.4188	-3.8104	-3.1729	-4.1646	-3.4917	-3.5729	-4.2625	-3.3312	-3.6583	-3.6792	-3.4208	-4.3063	-3.6875	-3.5812	-4.0021	-3.3896	-79.751	6.734	195.142	150.974	208.675	27.858	109.307	204.126	-130.789	154.745	184.691	227.589	146.132	164.920	-74.435	105.613	0.00045815	0.00047716	0.0001189	1363.3	4.4407e-06	3.8004e-06	1355.8	367.01	1.7906e-06	5.999e-06	419.24	139.62	121.56	41.698	2.6913e-06	51.57	0.00052907	0.00052985	0.00015388	1378.4	5.9939e-06	6.1475e-06	1376.1	373.79	5.9251e-06	6.0757e-06	426.74	143.06	124.38	42.89	5.9587e-06	53.123	167.502	-21.179	-31.019	-117.984	-33.051	28.656	-118.222	-113.685	-25.975	29.565	-113.915	-110.048	-109.615	-104.497	29.395	-105.216	-8191	255	
685.013	1	1	0	0	0.18863	0.16494	0.39	0.085674	0.21058	0.31692	0.1185	0.13339	0.273	0.12944	0.1723	0.07973	0.24783	0.14649	0.062058	0.16711	-3.3125	-3.8042	-3.2271	-4.1396	-3.5812	-3.2417	-4.1854	-3.3292	-3.8021	-3.8958	-3.4708	-4.1771	-3.7062	-3.5667	-4.2896	-3.6542	-71.699	156.578	104.995	204.356	121.786	130.083	145.407	158.564	84.028	169.271	195.961	119.936	204.172	-74.568	-35.619	144.961	0.00040241	0.00036664	0.00014227	1360.4	2.9602e-06	3.3577e-06	1357.4	366.79	3.5741e-06	4.8032e-06	419.25	140.3	122.23	41.917	4.2109e-06	51.659	0.00052858	0.00053103	0.00015505	1376.6	5.8619e-06	5.9184e-06	1376.5	374.09	6.0977e-06	6.0752e-06	426.9	143.32	124.64	43	5.7667e-06	53.082	171.030	-57.307	-79.188	-117.930	-19.215	38.245	-118.299	-113.621	-16.671	-5.878	-113.780	-110.262	-109.620	-104.260	35.282	-105.298	-8191	255	
685.109	1	1	0	0	0.27204	0.17923	0.049003	0.27585	0.2257	0.16637	0.17716	0.31525	0.18346	0.19294	0.15428	0.23188	0.080143	0.15101	0.27788	0.16007	-3.2625	-3.7583	-3.2562	-4.0687	-3.8083	-3.3979	-4.1229	-3.3937	-3.4688	-3.8354	-3.4229	-4.2167	-3.725	-3.3854	-3.9979	-3.55	-9.036	118.974	180.761	220.320	135.072	142.475	155.006	200.432	59.515	-4.257	191.340	140.863	195.318	50.573	3.886	127.927	0.00042782	0.00067086	0.00016088	1363.3	3.7552e-06	3.2385e-06	1356.1	367.44	5.2116e-06	6.6365e-06	419.25	139.62	122.1	41.949	2.7315e-06	51.593	0.00054036	0.00054168	0.00015063	1376.6	5.8809e-06	5.9052e-06	1376.3	373.89	6.0779e-06	5.8371e-06	426.87	143.05	124.54	42.975	5.8523e-06	53.179	168.382	-38.886	-34.423	-117.889	-11.770	18.825	-118.271	-113.657	-16.430	41.209	-113.885	-110.002	-109.428	-104.521	-10.502	-105.367	-8191	255	
685.228	1	1	0	0	0.17411	0.12693	0.031798	0.34422	0.15704	0.090793	0.39359	0.34023	0.12226	0.036188	0.14656	0.070803	0.20373	0.045549	0.11785	0.19853	-3.2375	-3.9979	-3.3417	-4.0167	-3.8646	-3.4313	-4.2146	-3.7458	-3.3271	-3.9833	-3.4229	-3.925	-4.0583	-3.3542	-4.0146	-3.5125	-82.151	165.740	-36.744	192.151	21.131	74.470	147.948	157.625	-31.072	-122.510	-125.686	102.390	155.945	-71.793	-43.051	166.150	0.00044033	0.00081131	0.00014526	1361.8	3.4406e-06	6.7621e-06	1360.7	367.11	4.45e-06	4.9468e-06	418.96	139.99	122.1	42.062	2.8763e-06	52.044	0.00054	0.00055315	0.00014569	1378	5.9374e-06	6.0937e-06	1377.5	373.51	5.8694e-06	5.7508e-06	427.05	143.13	124.46	42.985	5.8014e-06	53.24	168.672	-52.463	-48.358	-117.939	-10.724	23.163	-118.218	-113.442	-55.006	22.835	-113.911	-109.958	-109.524	-104.374	23.489	-105.209	-8191	255	
685.301	1	1	0	0	0.1706	0.12669	0.17178	0.12953	0.11899	0.24966	0.11668	0.21183	0.050051	0.13669	0.21408	0.097855	0.15485	0.17516	0.12774	0.075662	-3.2229	-4.0583	-3.3167	-3.8208	-3.7146	-3.0646	-4.2812	-3.875	-3.4062	-4.0229	-3.3875	-3.6771	-3.925	-3.2542	-3.6979	-3.8917	79.538	-38.224	211.473	-130.718	44.942	-70.441	149.060	164.014	66.947	3.848	116.178	178.389	-24.075	204.861	-84.223	190.763	0.00044981	0.00057839	0.00015922	1364.2	3.023e-06	5.0816e-06	1362.7	368.38	3.1826e-06	4.7515e-06	418.41	139.95	121.93	41.954	4.8105e-06	51.992	0.0005276	0.00053599	0.00015593	1379.1	5.8538e-06	6.0024e-06	1377.8	374.08	6.0884e-06	5.918e-06	426.3	143.26	124.39	42.955	5.943e-06	53.195	169.911	-57.075	-51.321	-118.009	-21.007	7.662	-118.020	-113.612	-33.937	18.745	-113.750	-109.797	-109.438	-104.389	-12.720	-105.494	-8191	255	
685.420	1	1	0	0	0.21121	0.15164	0.14505	0.2063	0.16322	0.050532	0.23454	0.16052	0.25525	0.15232	0.061883	0.090993	0.34802	0.30463	0.16587	0.15981	-2.85	-4.0229	-3.2896	-3.6583	-4.0792	-3.2146	-3.8104	-3.8958	-3.0771	-4.1292	-3.8542	-3.4667	-4.0021	-3.3521	-3.575	-3.7313	146.603	-46.120	-54.831	185.860	43.170	196.547	185.417	198.640	163.845	222.330	123.091	145.802	189.352	-116.943	118.664	146.399	0.00044724	0.00032202	0.00015788	1362	3.9223e-06	7.5605e-06	1359	367.92	4.392e-06	5.3422e-06	421.05	139.68	121.35	41.852	5.0827e-06	51.849	0.000539	0.00053363	0.0001495	1376.8	5.851e-06	6.0517e-06	1376.8	374.1	6.0556e-06	5.843e-06	427.34	143.18	124.35	42.941	5.6267e-06	53.266	168.885	-61.954	-43.139	-117.975	-8.099	16.728	-118.120	-113.544	-15.303	20.682	-113.931	-109.907	-109.400	-104.439	-11.286	-105.337	-8191	255	
685.516	1	1	0	0	0.26358	0.12859	0.14258	0.38216	0.10604	0.13471	0.16291	0.13755	0.14875	0.037723	0.075971	0.19239	0.11339	0.40856	0.13305	0.10022	-2.7958	-4.0854	-3.6063	-3.5125	-4.1104	-3.3958	-3.9271	-3.7479	-3.1875	-4.0708	-3.7104	-3.4521	-4.1833	-3.4896	-3.5021	-3.8729	81.165	1.020	112.257	-118.524	-34.153	179.004	197.899	185.739	167.514	-45.423	172.379	-45.880	-113.403	179.084	108.695	145.040	0.00040217	0.00055135	0.00014604	1367.7	1.6915e-06	4.8839e-06	1359.9	368.45	2.9602e-06	4.4509e-06	420.63	139.8	121.53	41.873	3.3706e-06	51.705	0.00053354	0.00052652	0.00014941	1378.8	5.8926e-06	6.0097e-06	1377.5	374.29	6.0791e-06	5.9067e-06	427.06	143.08	124.24	42.824	5.9032e-06	53.159	172.643	-57.961	-43.064	-117.704	-12.027	28.812	-118.034	-113.452	-24.266	12.133	-113.938	-109.630	-109.477	-104.496	-9.711	-104.922	-8191	255	
685.612	1	1	0	0	0.17591	0.12214	0.13696	0.22551	0.14064	0.22479	0.21027	0.23783	0.18385	0.081186	0.12778	0.14744	0.22078	0.13032	0.14628	0.18585	-2.8958	-3.8917	-3.5042	-3.4938	-4.0854	-3.3979	-3.7229	-4.1708	-3.2917	-3.8354	-3.9208	-3.3458	-3.9854	-3.4396	-3.6125	-4.0813	17.631	40.509	-92.914	168.726	101.820	-107.721	121.808	182.738	-102.311	127.804	225.976	-111.675	200.944	28.079	48.304	95.331	0.00046734	0.00046822	0.00018338	1363.3	3.3017e-06	6.3569e-06	1364.2	367.35	5.5185e-06	5.7459e-06	420	139.54	121.93	41.84	5.5432e-06	51.862	0.00053591	0.00053075	0.00015241	1376.1	5.8413e-06	5.9319e-06	1378.8	373.7	6.1203e-06	5.7196e-06	426.86	142.94	124.38	42.954	6.1359e-06	53.168	168.214	-39.772	-25.952	-117.806	-16.749	11.683	-118.003	-113.542	-32.667	13.055	-113.685	-110.084	-109.408	-104.668	-9.317	-104.976	-8191	255	
685.709	1	1	0	0	0.099195	0.15487	0.37608	0.25372	0.10165	0.099759	0.29347	0.1512	0.16433	0.045234	0.2006	0.42152	0.16405	0.030856	0.15953	0.38655	-2.7021	-3.8375	-3.7854	-3.2646	-3.9979	-3.5229	-3.6375	-4.2583	-3.3812	-3.8958	-3.8646	-3.2958	-4.1229	-3.5583	-3.2771	-4.0708	207.914	88.781	-29.964	204.983	-38.610	181.438	213.248	196.855	104.661	45.767	84.720	211.557	163.870	97.773	108.256	115.164	0.00041231	0.0004756	0.00017705	1365.3	4.2847e-06	4.3983e-06	1350.7	367.57	3.9093e-06	2.9554e-06	419.82	139.6	121.69	41.991	5.0023e-06	51.692	0.00054561	0.00054766	0.00015419	1377	5.8058e-06	5.9233e-06	1374.1	373.53	5.9805e-06	5.9979e-06	426.65	142.86	124.3	42.921	6.1097e-06	53.098	170.503	-50.416	-33.519	-117.806	7.053	29.988	-117.956	-113.595	-13.397	-5.215	-113.859	-109.657	-109.439	-104.260	-16.728	-104.907	-8191	255	
685.829	1	1	0	0	0.20267	0.2169	0.11569	0.30958	0.13239	0.069005	0.11765	0.20246	0.32659	0.094793	0.16414	0.041857	0.1135	0.05903	0.062778	0.26182	-2.9229	-3.7021	-4.0625	-3.4188	-3.9458	-3.8146	-3.7667	-4.2167	-3.1875	-3.6125	-4.1062	-3.4375	-3.9396	-3.7104	-3.3708	-4.3063	152.840	-110.745	115.880	164.306	41.379	-56.210	166.003	166.895	183.308	-71.794	-104.552	11.478	144.318	-66.980	108.782	134.606	0.00043422	0.00034966	0.00014832	1363.4	4.8271e-06	5.6725e-06	1355.8	367.19	4.6863e-06	5.1859e-06	420.17	139.77	121.87	41.975	6.0266e-06	51.98	0.0005363	0.00054961	0.00015514	1377.2	5.9636e-06	5.9649e-06	1375	373.49	5.9692e-06	5.9731e-06	426.49	142.93	124.41	42.933	5.9189e-06	53.165	169.221	-29.588	-43.205	-117.969	-9.677	39.417	-117.912	-113.440	-40.244	17.733	-113.692	-109.796	-109.342	-104.563	-10.335	-105.136	-8191	255	
685.925	1	1	0	0	0.22323	0.22985	0.29615	0.22144	0.17293	0.27597	0.43267	0.17759	0.071009	0.13049	0.30062	0.30156	0.35654	0.3529	0.29745	0.12924	-2.9604	-3.5667	-3.9479	-3.3458	-4.125	-3.8167	-3.5146	-3.9333	-3.5271	-3.6646	-4.2	-3.1917	-3.875	-3.9479	-3.3438	-4.1333	67.711	221.321	87.697	193.002	25.998	43.833	165.688	205.171	-20.528	135.194	169.370	190.077	145.807	146.828	93.828	158.407	0.00044481	0.00041216	0.00012677	1361.5	4.1771e-06	4.2702e-06	1354.7	366.44	4.2048e-06	5.1173e-06	419.99	139.5	121.48	41.994	4.0411e-06	51.919	0.00054535	0.00053652	0.00014839	1377.8	5.7416e-06	5.8429e-06	1375.5	373.77	6.0564e-06	5.8967e-06	426.88	142.87	124.39	42.938	5.8587e-06	53.207	172.886	-54.906	-50.126	-118.021	-24.025	-0.936	-118.038	-113.332	-9.379	24.805	-113.826	-109.912	-109.394	-104.379	16.033	-104.991	-8191	255	
685.997	1	1	0	0	0.068057	0.17909	0.060058	0.15398	0.21364	0.28343	0.38269	0.21851	0.13289	0.23136	0.092222	0.078903	0.20139	0.32153	0.081994	0.11676	-3.1188	-3.5938	-3.9813	-3.3583	-3.9833	-3.9062	-3.4646	-4.1917	-3.7062	-3.3812	-4.0792	-3.5062	-3.9	-3.9667	-3.2021	-4.1354	166.915	198.900	75.038	221.261	-88.006	75.090	172.919	184.163	195.563	63.211	142.403	166.974	220.793	175.168	23.540	185.763	0.00043193	0.0005692	0.00012335	1360	2.6542e-06	4.1144e-06	1354	367.78	5.3278e-06	3.9878e-06	419.01	139.28	121.9	41.823	2.8881e-06	51.472	0.00053046	0.00052737	0.00014757	1376.5	5.7356e-06	5.7597e-06	1375.3	373.88	5.9365e-06	6.002e-06	426.5	142.86	124.42	42.918	5.924e-06	53.004	174.850	-41.771	-36.244	-117.769	-16.024	35.445	-118.002	-113.547	-32.617	25.019	-113.764	-109.947	-109.213	-104.323	33.633	-105.067	-8191	255	
686.116	1	1	0	0	0.12743	0.3867	0.2449	0.3459	0.11232	0.016232	0.23075	0.30661	0.12087	0.1375	0.1579	0.13806	0.23756	0.13219	0.34438	0.19577	-3.1708	-3.5125	-3.8771	-3.6063	-3.6896	-4.0563	-3.4375	-4.1604	-3.6562	-3.4146	-4.1646	-3.5208	-3.7521	-4.0854	-3.0187	-4.0375	133.841	3.612	6.677	196.724	-60.244	204.987	182.604	-118.291	-100.185	-100.970	-49.190	178.340	-106.992	-109.186	91.974	148.367	0.0004421	0.00056094	0.00012127	1360.9	3.1119e-06	4.3782e-06	1354.8	367.87	5.2636e-06	6.0335e-06	421.31	139.62	121.68	42.072	4.7827e-06	51.996	0.00052431	0.00052904	0.00014479	1375.4	5.9624e-06	5.7339e-06	1374.8	374.08	5.9381e-06	5.9329e-06	427.21	142.8	124.29	42.932	5.8129e-06	53.238	170.346	-49.844	-40.543	-117.907	20.600	9.800	-118.034	-113.437	-23.022	18.739	-113.967	-110.102	-109.426	-104.484	13.629	-105.086	-8191	255	
686.212	1	1	0	0	0.24173	0.099238	0.20621	0.054712	0.065924	0.16716	0.32558	0.28548	0.14019	0.20719	0.15841	0.10213	0.10802	0.18774	0.14473	0.1521	-3.5438	-3.3229	-3.9	-3.575	-3.6146	-3.9333	-3.5083	-4.1542	-3.7938	-3.3479	-4.3271	-3.8167	-3.4917	-4.1521	-3.3896	-3.9083	17.670	152.922	127.108	215.201	-54.740	171.533	181.439	164.491	130.207	-36.243	158.010	107.837	111.081	154.735	172.621	207.990	0.00047248	0.00052475	0.00014469	1362.8	3.2104e-06	5.3277e-06	1350	367.38	3.8605e-06	4.1261e-06	420.96	139.87	121.3	42.091	3.732e-06	51.806	0.00052025	0.00053571	0.00014102	1377.5	5.7295e-06	5.3728e-06	1375.1	373.9	5.8104e-06	5.9351e-06	427.22	143.16	124.51	42.916	5.7611e-06	53.114	170.218	-34.010	-39.673	-117.853	-6.306	14.133	-118.063	-113.515	-43.113	7.572	-113.767	-110.068	-109.638	-104.627	-21.485	-104.831	-8191	255	
686.308	1	1	0	0	0.18901	0.08513	0.10158	0.39975	0.16421	0.068672	0.094449	0.015591	0.10217	0.03748	0.14238	0.2257	0.20781	0.20071	0.11228	0.29141	-3.5354	-3.4813	-4.0292	-3.6688	-3.4104	-4.0542	-3.5062	-3.9313	-3.9188	-3.2333	-4.1375	-3.7208	-3.3167	-4.2104	-3.3187	-3.8375	52.136	-74.517	76.935	226.986	106.836	70.477	-85.312	218.508	-40.804	76.509	168.217	202.234	204.072	96.192	-3.226	104.691	0.00041565	0.00032941	0.00013492	1357.1	3.3717e-06	3.9289e-06	1353.1	366.4	4.59e-06	4.0973e-06	420.49	139.78	121.61	41.703	4.8986e-06	51.769	0.0005188	0.00052636	0.00014061	1374	5.7787e-06	5.8248e-06	1374	373.48	5.8706e-06	5.9668e-06	426.92	143.04	124.49	42.795	6.2127e-06	53.117	171.876	-41.127	-35.639	-118.018	-18.580	16.586	-118.057	-113.437	-27.142	60.768	-113.575	-110.209	-109.377	-104.375	-3.575	-104.677	-8191	255	
686.404	1	1	0	0	0.19878	0.20767	0.29539	0.38025	0.12816	0.19914	0.21405	0.35795	0.18395	0.45625	0.2087	0.027423	0.21947	0.10912	0.078351	0.035632	-3.5083	-3.2729	-3.9771	-3.7438	-3.2021	-4.2667	-3.5687	-3.625	-4.1354	-3.2917	-3.8229	-3.9021	-3.3729	-4.2479	-3.3875	-3.5938	-76.269	4.680	166.581	-126.718	135.851	197.140	201.950	142.373	99.815	-57.300	204.805	-130.369	219.517	169.330	216.071	47.287	0.00044258	0.00039019	0.00015741	1358.9	3.3e-06	4.5353e-06	1353.6	367.13	3.3615e-06	3.9939e-06	420.51	140.02	121.34	42.004	4.5695e-06	51.802	0.00053447	0.00053595	0.00014512	1375.8	6.0661e-06	5.8411e-06	1374.2	373.43	6.0613e-06	5.913e-06	427.5	143.23	124.3	42.893	5.9184e-06	53.154	175.272	-53.850	-36.745	-117.952	-4.614	-3.005	-118.291	-113.388	-24.476	28.771	-113.755	-109.958	-109.462	-104.565	8.737	-104.815	-8191	255	
686.525	1	1	0	0	0.12365	0.21728	0.16793	0.26105	0.021694	0.28798	0.37549	0.23516	0.096721	0.13642	0.17013	0.23526	0.040649	0.18974	0.18784	0.067457	-3.875	-3.2875	-3.8812	-4.2688	-3.1667	-4.0229	-3.8458	-3.5667	-3.9333	-3.2542	-3.8417	-3.9188	-3.3354	-4.3958	-3.6146	-3.5625	-52.251	1.370	-85.332	213.270	3.252	196.484	141.600	162.398	2.802	7.496	-79.885	187.489	156.467	118.972	99.106	-35.162	0.00043418	0.00041804	0.00015925	1365	3.4448e-06	4.7527e-06	1354.6	367.58	4.577e-06	3.8665e-06	420.26	140.03	121.77	41.976	3.8003e-06	51.678	0.00052374	0.00057644	0.00015331	1375.6	5.8284e-06	5.7719e-06	1374.4	373.78	6.0714e-06	5.9641e-06	426.8	142.91	124.35	42.921	5.8311e-06	53.105	169.535	-30.589	-29.157	-117.941	-22.035	14.015	-118.079	-113.249	-16.732	22.929	-113.559	-109.906	-109.070	-104.347	-1.369	-104.842	-8191	255	
686.597	1	1	0	0	0.18684	0.014509	0.20169	0.18973	0.11469	0.21492	0.30286	0.27658	0.11264	0.26731	0.34497	0.071458	0.23005	0.12509	0.19794	0.1499	-3.8833	-3.3271	-3.7542	-4.1813	-3.2521	-4.0188	-3.9021	-3.6042	-4.2542	-3.4188	-3.7562	-4.0687	-3.3438	-3.8208	-3.5187	-3.4229	-125.819	-83.681	222.708	125.216	-91.143	30.406	167.887	159.381	-61.640	90.200	167.300	-41.485	166.170	-49.969	37.204	193.294	0.0004795	0.00051572	0.00013579	1362.4	3.6332e-06	5.0961e-06	1356	367.43	3.6582e-06	3.0795e-06	418.95	139.47	121.72	41.834	5.2763e-06	51.677	0.00053576	0.00054912	0.00014976	1376.7	6.0528e-06	5.6801e-06	1375.4	373.35	5.8961e-06	5.7702e-06	426.65	142.98	124.27	42.894	5.8498e-06	53.062	170.652	-43.994	-36.012	-117.890	-20.419	34.800	-118.241	-113.300	-29.499	48.476	-113.784	-109.854	-109.315	-104.247	13.437	-104.825	-8191	255	
686.693	1	1	0	0	0.096302	0.094986	0.0077715	0.17779	0.1825	0.21254	0.18988	0.32773	0.019381	0.10625	0.17392	0.24499	0.092614	0.22698	0.11477	0.13292	-3.8187	-3.4667	-3.5583	-4.0521	-3.0271	-3.8396	-4.0958	-3.5896	-3.9229	-3.3729	-3.625	-4.2667	-3.4417	-3.9562	-3.7708	-3.2458	110.440	-78.091	127.519	-123.447	5.959	-39.071	160.658	167.979	-84.260	52.405	149.337	187.326	-126.549	-114.446	-87.589	-104.713	0.00047048	0.000536	0.00018708	1361.3	2.7895e-06	5.8219e-06	1356.1	367.37	3.9668e-06	4.0466e-06	419.12	140.1	122.04	41.972	5.065e-06	51.818	0.00052791	0.00055571	0.00014471	1377.7	6.2013e-06	5.8745e-06	1375.4	373.64	5.8031e-06	6.0269e-06	426.46	143.04	124.42	42.931	5.7361e-06	53.124	167.694	-58.037	-12.921	-117.824	-1.466	11.518	-118.186	-113.308	-40.319	11.802	-113.614	-110.194	-109.247	-104.580	-14.063	-104.736	-8191	255	
686.789	1	1	0	0	0.11177	0.17317	0.10862	0.32588	0.076186	0.12199	0.18045	0.39614	0.23436	0.20834	0.11816	0.21355	0.30147	0.16302	0.1105	0.11265	-3.6792	-3.3958	-3.4042	-4.225	-3.125	-3.9896	-4.0083	-3.3229	-3.9083	-3.5687	-3.3187	-4.2562	-3.5042	-3.8208	-3.8063	-3.3875	-44.758	146.572	-7.131	192.954	111.618	23.109	142.641	203.846	-26.275	-77.588	214.486	87.737	174.936	-76.194	72.728	-26.185	0.00043199	0.0005704	0.00013821	1355.7	3.4245e-06	7.3709e-06	1357	367.55	4.759e-06	6.714e-06	419.93	140.21	121.59	41.799	2.7133e-06	51.767	0.0005196	0.00054514	0.00015905	1372.1	6.0447e-06	5.7719e-06	1374.6	373.87	5.9538e-06	6.0007e-06	426.39	143.09	124.2	42.806	5.9744e-06	53.049	171.996	-35.420	-52.535	-117.816	2.855	19.241	-118.131	-113.289	-14.528	-2.801	-113.750	-109.923	-109.175	-104.313	-18.288	-105.018	-8191	255	
686.910	1	1	0	0	0.11257	0.12703	0.1092	0.23939	0.21495	0.13514	0.28013	0.098055	0.060968	0.2238	0.17673	0.071382	0.156	0.11789	0.052449	0.18833	-3.7021	-3.6688	-3.5146	-4.2667	-3.4208	-3.45	-4.1646	-3.3021	-3.8187	-3.8521	-3.5	-4.1396	-3.5104	-3.7188	-4.1146	-3.3792	148.569	100.302	-130.601	192.656	117.019	-108.430	140.379	-98.514	31.768	169.439	67.226	45.063	164.440	-69.992	189.800	194.505	0.00042437	0.0007208	0.00016281	1364.1	3.203e-06	4.8437e-06	1358.8	367.62	4.5628e-06	5.7355e-06	419.49	140.15	121.4	41.921	5.6131e-06	51.574	0.0005347	0.000561	0.0001573	1377.6	6.1109e-06	6.148e-06	1375.5	373.47	6.1037e-06	5.9952e-06	426.77	143.14	124.41	42.893	6.222e-06	53.107	170.237	-35.899	-45.041	-117.878	-32.856	22.879	-118.056	-113.272	-34.312	25.272	-113.841	-109.996	-109.242	-104.330	7.239	-104.894	-8191	255	
687.006	1	1	0	0	0.071138	0.1411	0.092954	0.31557	0.13417	0.18787	0.02493	0.09954	0.15434	0.089589	0.02635	0.15557	0.28255	0.19912	0.084671	0.14881	-3.3083	-3.8708	-3.3875	-4.2542	-3.4125	-3.5792	-4.3375	-3.4104	-3.7521	-3.7604	-3.4562	-4.1521	-3.5958	-3.4771	-4.0521	-3.3542	85.060	20.581	-4.750	157.698	48.897	-24.159	-29.712	65.420	49.005	214.489	-102.711	-73.623	177.376	196.080	22.918	138.819	0.0004791	0.00057867	0.0001389	1365.2	3.6715e-06	4.3771e-06	1363	367.45	5.369e-06	5.5769e-06	419.86	139.09	121.4	41.929	3.8425e-06	51.697	0.00054512	0.00051941	0.00015538	1377.6	6.0508e-06	5.9586e-06	1378	373.74	6.0981e-06	5.9776e-06	426.72	142.97	124.19	42.905	5.8027e-06	53.074	171.261	-26.023	-36.344	-117.729	12.486	21.684	-118.100	-113.385	-13.212	1.819	-113.667	-109.923	-109.496	-104.454	-18.358	-104.976	-8191	255	
687.102	1	1	0	0	0.10515	0.16616	0.36487	0.2601	0.03391	0.10461	0.29821	0.067497	0.038234	0.10442	0.084206	0.25635	0.20518	0.12589	0.055607	0.33348	-3.2229	-3.9333	-3.3812	-4.1708	-3.5104	-3.4292	-4.275	-3.475	-3.5458	-3.9833	-3.4313	-4.1042	-3.65	-3.4667	-4.1354	-3.4104	-17.114	191.287	-92.556	199.929	88.055	-51.078	144.325	187.746	-7.030	-2.860	218.763	225.071	-86.088	109.696	171.752	73.322	0.00039333	0.00062314	0.00015384	1366.7	2.7093e-06	5.265e-06	1358.5	367.78	4.217e-06	4.6887e-06	418.18	139.34	121.55	41.991	2.0448e-06	51.671	0.00053329	0.00054921	0.00015739	1379.2	5.9567e-06	6.0363e-06	1376.1	373.74	5.9037e-06	5.6875e-06	425.94	142.96	124.07	42.979	5.9621e-06	53.053	168.624	-37.476	-27.906	-117.652	-19.549	31.341	-118.015	-113.501	-21.455	31.829	-113.682	-109.708	-109.286	-104.350	21.339	-104.938	-8191	255	
687.196	1	1	0	0	0.059802	0.082918	0.13724	0.15078	0.27285	0.21849	0.21929	0.27826	0.35766	0.21762	0.2184	0.43876	0.18439	0.082153	0.15865	0.29184	-3.0646	-3.9979	-3.1813	-4.1021	-3.6292	-3.3396	-4.2208	-3.5083	-3.6188	-3.8875	-3.4708	-3.875	-4.0521	-3.4167	-3.9271	-3.5396	-32.445	13.807	92.280	182.956	158.839	-131.140	207.267	151.360	198.590	153.075	-131.242	211.208	-120.163	172.836	-95.220	191.345	0.00044072	0.00054504	0.00013536	1363.4	3.9978e-06	6.7229e-06	1357.4	367.36	4.636e-06	5.9395e-06	418.1	139.65	121.35	41.908	4.8412e-06	51.52	0.00054646	0.00054384	0.00015543	1375.6	6.0911e-06	6.3731e-06	1373.7	372.88	6.3784e-06	6.4199e-06	425.29	142.81	124.17	42.851	6.225e-06	52.971	170.034	-39.122	-46.963	-117.787	-38.090	30.843	-118.143	-113.263	-9.083	18.754	-113.798	-109.715	-109.479	-104.479	-7.303	-104.977	-8191	255	
687.292	1	1	0	0	0.097593	0.24608	0.2639	0.27679	0.2571	0.086723	0.10345	0.20785	0.11567	0.208	0.13471	0.15495	0.25393	0.044006	0.15145	0.10761	-3.1604	-3.9958	-3.1854	-3.9958	-3.8333	-3.1354	-4.1438	-3.6667	-3.3937	-3.9813	-3.6562	-3.6917	-4.0167	-3.2604	-4.0292	-3.7833	199.582	-55.012	119.363	-96.606	100.758	130.724	102.644	154.913	-84.901	177.662	137.163	-35.308	-121.624	171.738	-91.216	90.398	0.00046164	0.00048575	0.00011921	1360.1	4.0477e-06	5.6747e-06	1356.9	366.92	4.634e-06	4.6227e-06	418.95	139.16	121.25	42.041	2.6818e-06	51.615	0.00056439	0.00057266	0.00016195	1374.3	6.1214e-06	6.3351e-06	1374.8	373.28	6.5303e-06	6.1511e-06	425.94	142.52	124.08	42.926	6.2742e-06	52.994	166.081	-48.195	-48.018	-117.789	-19.325	29.482	-117.970	-113.432	-1.389	11.146	-113.647	-110.157	-109.273	-104.378	1.062	-104.993	-8191	255	
687.390	1	1	0	0	0.10359	0.074364	0.087924	0.12466	0.12436	0.39588	0.41545	0.021267	0.02575	0.16531	0.23769	0.075006	0.20257	0.29637	0.080996	0.19977	-2.8896	-3.9958	-3.3604	-3.6562	-4.0146	-3.4083	-4.0938	-3.8812	-3.5479	-4.1458	-3.475	-3.7979	-4.125	-3.3521	-3.9313	-3.9813	17.212	-73.540	174.408	-56.144	-35.585	83.138	140.855	182.415	159.951	155.326	177.041	221.101	221.277	-62.719	89.596	204.657	0.00043309	0.0005876	0.000111	1357.9	3.1844e-06	4.7545e-06	1354.7	367.85	4.3901e-06	4.3442e-06	420.24	139.25	121.4	41.772	4.3307e-06	52.002	0.00055333	0.0005614	0.00015555	1374.6	6.1884e-06	6.3622e-06	1373.9	373.5	6.0257e-06	5.9713e-06	427.13	142.69	124.33	42.898	5.9634e-06	53.155	173.636	-25.709	-28.263	-117.762	-32.543	11.236	-118.121	-113.310	-39.333	9.457	-113.859	-109.666	-109.225	-104.370	10.463	-104.674	-8191	255	
687.509	1	1	0	0	0.14714	0.2278	0.29769	0.11407	0.065946	0.12029	0.2348	0.3932	0.10564	0.055152	0.18716	0.2527	0.040968	0.17376	0.052525	0.14533	-2.8667	-4.0854	-3.5021	-3.6146	-3.9688	-3.2208	-3.9479	-4.0312	-3.1958	-3.8063	-3.6396	-3.4417	-4.1062	-3.4333	-3.7313	-3.8729	105.333	149.453	172.829	-56.672	62.510	75.702	189.188	142.779	10.317	-61.691	183.387	116.204	-131.027	-95.528	35.705	88.367	0.00043005	0.00039489	0.00016407	1359.9	4.5358e-06	5.1547e-06	1352.2	367.3	1.9834e-06	4.0272e-06	420.6	139.51	121.53	41.902	3.9863e-06	51.643	0.0005542	0.00054376	0.00015658	1374.3	5.9991e-06	6.1263e-06	1374.1	373.53	6.1619e-06	6.0119e-06	426.46	142.93	124.12	42.856	6.0151e-06	52.983	166.129	-51.187	-36.650	-117.946	-16.224	26.634	-118.154	-113.655	-19.481	21.692	-113.856	-109.912	-109.495	-104.473	4.816	-105.091	-8191	255	
687.605	1	1	0	0	0.21779	0.14696	0.078802	0.22783	0.21186	0.15265	0.32534	0.353	0.29211	0.08139	0.17008	0.25362	0.26655	0.20574	0.21056	0.12977	-2.8396	-4.1312	-3.425	-3.4833	-4.1062	-3.3396	-3.7167	-4.0792	-3.4542	-3.8083	-3.8021	-3.4208	-4.1521	-3.4938	-3.6625	-3.9688	18.932	-122.461	46.110	171.219	-96.047	-8.303	171.773	98.820	202.589	-55.310	-118.241	187.024	208.694	216.063	52.902	-30.142	0.00043729	0.00039835	0.00015808	1364.2	3.5869e-06	5.1262e-06	1357.7	366.88	2.7749e-06	4.7001e-06	419.14	139.9	121.9	42.045	3.2614e-06	51.976	0.00054661	0.00054835	0.00014725	1376.9	5.8869e-06	6.2429e-06	1375.7	373.12	6.2366e-06	6.1254e-06	426.24	143.03	124.37	42.966	5.8701e-06	53.138	164.804	-49.239	-35.474	-117.809	-4.974	9.394	-118.082	-113.250	-45.102	18.913	-113.876	-110.035	-109.314	-104.332	18.699	-105.029	-8191	255	
687.701	1	1	0	0	0.10377	0.19786	0.29143	0.14229	0.064839	0.093653	0.33066	0.28379	0.18581	0.12147	0.32126	0.11126	0.29935	0.039744	0.070021	0.19594	-2.8771	-4.0208	-3.6042	-3.2958	-4.0417	-3.5833	-3.9083	-4.1021	-3.2313	-3.8812	-3.9021	-3.4104	-4.0292	-3.6937	-3.4208	-4.0583	162.724	5.475	205.579	8.904	-53.922	-93.079	214.414	177.912	-64.146	-110.473	197.739	190.320	162.156	148.345	-0.573	-110.450	0.00044287	0.00067656	0.00010726	1362.5	2.4406e-06	5.4203e-06	1351.8	367.9	3.3781e-06	4.0266e-06	421.03	139.39	121.89	41.895	4.1953e-06	51.706	0.00052994	0.000549	0.00015309	1376.8	5.7917e-06	5.992e-06	1373.9	373.89	6.212e-06	5.9925e-06	426.93	142.94	124.23	42.95	5.9714e-06	53.092	169.841	-42.468	-33.280	-117.954	-24.282	12.565	-118.119	-113.543	-17.986	22.000	-113.932	-109.728	-109.313	-104.582	-2.084	-105.105	-8191	255	
687.822	1	1	0	0	0.11122	0.26405	0.23836	0.22206	0.095701	0.18074	0.27735	0.25633	0.14703	0.11178	0.22362	0.20076	0.04691	0.22412	0.1263	0.24436	-2.8792	-3.8604	-3.825	-3.3479	-3.9854	-3.3063	-3.5521	-4.2146	-3.3688	-3.5583	-4.05	-3.1125	-3.9938	-3.6875	-3.4479	-4.1	-112.777	189.841	114.004	-129.139	2.257	100.491	178.759	188.541	119.566	76.818	169.828	202.920	227.615	224.671	-98.763	128.117	0.00044661	0.00039606	0.00014338	1366.3	3.8232e-06	5.2709e-06	1353.9	367.56	4.0046e-06	5.1157e-06	421.31	139.85	121.93	41.887	3.6248e-06	51.679	0.00054826	0.00053388	0.00014775	1376.9	5.9971e-06	6.0662e-06	1374	373.6	6.2964e-06	6.2193e-06	427.18	143.01	124.53	42.924	6.2525e-06	53.086	168.265	-35.198	-42.109	-117.762	-9.125	23.038	-117.894	-113.384	-44.500	28.651	-113.671	-110.097	-109.196	-104.362	14.317	-104.958	-8191	255	
687.894	1	1	0	0	0.19669	0.046932	0.12911	0.23969	0.096151	0.10053	0.21532	0.19501	0.13043	0.129	0.20701	0.18052	0.12946	0.32014	0.14282	0.12714	-2.8812	-3.6646	-4.0646	-3.4833	-4.0896	-3.6208	-3.3958	-4.2042	-3.4667	-3.6333	-4.0167	-3.3917	-3.8917	-3.825	-3.3937	-4.2667	-74.442	111.326	44.786	196.980	149.916	107.292	168.505	174.595	63.741	83.083	111.188	157.280	118.844	218.784	-5.939	226.616	0.00045214	0.00059148	0.00012392	1364.2	3.3104e-06	7.1079e-06	1360	367.04	3.2901e-06	6.2633e-06	420.46	139.41	121.26	41.99	3.9745e-06	51.875	0.00054476	0.0005575	0.00015139	1378.1	6.2647e-06	6.3035e-06	1376.6	373.6	6.3433e-06	6.0869e-06	427.17	143.04	124.33	42.957	6.2564e-06	53.202	171.464	-38.558	-38.685	-117.924	-15.361	15.371	-117.999	-113.092	-35.888	19.997	-113.640	-109.940	-109.344	-104.361	10.883	-104.785	-8191	255	
687.990	1	1	0	0	0.25218	0.25435	0.026156	0.37325	0.26763	0.10834	0.20938	0.1927	0.12301	0.1619	0.049124	0.1476	0.14321	0.081032	0.21822	0.36514	-2.8354	-3.3875	-3.9458	-3.4396	-3.8167	-3.95	-3.2958	-4.0958	-3.5875	-3.5229	-4.075	-3.3063	-3.8146	-3.95	-3.3583	-4.2125	179.123	-75.240	132.701	207.697	-66.451	-18.456	194.315	189.527	40.522	164.734	217.889	192.804	-128.770	-54.013	-115.556	-131.224	0.0004441	0.00047195	0.00012868	1362.1	3.4636e-06	4.2448e-06	1356.6	367.29	3.5724e-06	6.8909e-06	421.19	138.98	122.02	42.042	4.2025e-06	51.697	0.00054054	0.0005638	0.00015646	1377.8	6.144e-06	6.2257e-06	1375.3	374.15	6.1029e-06	6.2939e-06	427.21	142.96	124.57	42.947	6.2631e-06	53.156	166.948	-59.705	-16.471	-117.885	-29.123	25.599	-118.068	-113.386	-21.968	5.967	-113.889	-110.138	-109.507	-104.425	7.197	-104.887	-8191	255	
688.086	1	1	0	0	0.19003	0.23767	0.061012	0.45753	0.071219	0.11823	0.13803	0.056011	0.19539	0.15603	0.31123	0.15849	0.24708	0.15366	0.24434	0.12034	-3.1562	-3.5333	-4.125	-3.5062	-3.6437	-3.9146	-3.4229	-4.2896	-3.7729	-3.5229	-4.3646	-3.6063	-3.5729	-3.9938	-3.1146	-4.0146	123.467	-26.497	-48.053	224.131	150.019	133.415	163.591	161.643	-63.967	110.815	199.766	-100.631	156.062	172.605	-6.760	-126.242	0.00044784	0.00040305	0.00011411	1367.6	1.3096e-06	5.1746e-06	1357.1	366.87	4.9954e-06	4.1488e-06	420.31	139.86	121.62	42.041	5.4931e-06	51.812	0.00056374	0.00056551	0.00015152	1380.3	5.9983e-06	6.2122e-06	1378.5	373.98	6.0649e-06	5.9763e-06	427.33	143.01	124.45	42.963	6.2097e-06	53.136	168.089	-53.377	-35.572	-118.076	10.059	33.694	-118.068	-113.368	-43.468	11.963	-114.198	-109.975	-109.422	-104.467	-15.754	-104.869	-8191	255	
688.205	1	1	0	0	0.18612	0.11471	0.20499	0.091067	0.16367	0.057924	0.35546	0.06026	0.10184	0.054947	0.27259	0.14362	0.15189	0.25079	0.30322	0.10583	-3.5625	-3.2771	-4.0292	-3.5521	-3.4792	-3.8042	-3.525	-4.0687	-3.7583	-3.2812	-4.2792	-3.4917	-3.4938	-4.2271	-3.3417	-4.2438	87.530	165.704	196.467	173.183	-127.079	151.024	118.064	196.958	15.682	195.749	175.542	-104.452	221.772	-122.075	-9.003	148.202	0.00043868	0.00068253	0.00021399	1365.1	4.0979e-06	6.137e-06	1355.9	367.99	4.177e-06	5.7117e-06	419.48	139.41	121.94	41.925	3.3835e-06	51.756	0.00054973	0.00057079	0.00015511	1377.6	6.188e-06	6.1724e-06	1376.8	374.19	6.1215e-06	6.2794e-06	426.88	142.89	124.49	42.942	6.1851e-06	53.111	169.123	-53.962	-44.651	-117.834	-33.186	22.113	-117.997	-113.275	-28.928	26.001	-113.831	-109.840	-109.195	-104.449	18.427	-104.881	-8191	255	
688.301	1	1	0	0	0.061011	0.15891	0.13789	0.18962	0.18235	0.1002	0.30303	0.28122	0.1693	0.22276	0.075356	0.31874	0.17457	0.098629	0.13283	0.21246	-3.3833	-3.1333	-3.9667	-3.7375	-3.4042	-4.0229	-3.7042	-4.05	-3.9146	-3.2938	-4.3354	-3.8458	-3.6542	-4.075	-3.3521	-3.8812	0.245	-11.746	190.165	-107.658	73.633	149.634	-129.840	221.414	-79.283	-59.270	5.605	214.068	160.879	212.635	60.519	133.707	0.00045743	0.00046972	0.0001267	1361	1.6695e-06	5.4371e-06	1355.6	368.34	4.5154e-06	3.9477e-06	418.19	139.78	121.68	42.096	2.9399e-06	51.634	0.00053403	0.00056766	0.00014944	1375.7	6.0262e-06	6.0458e-06	1375.3	374.44	6.3243e-06	6.2758e-06	426.54	142.9	124.28	42.911	5.9901e-06	53.109	167.280	-37.973	-17.273	-117.901	-5.796	19.679	-118.153	-113.389	-17.201	23.164	-113.931	-109.855	-109.366	-104.194	2.003	-104.904	-8191	255	
688.397	1	1	0	0	0.037105	0.44453	0.16637	0.29109	0.24925	0.22585	0.37971	0.31492	0.1028	0.04936	0.16958	0.30094	0.13826	0.24104	0.14934	0.31154	-3.6937	-3.2458	-3.8896	-3.8458	-3.3542	-4.1146	-3.6937	-3.9917	-4.2625	-3.1813	-4.0458	-3.8688	-3.4667	-4.2083	-3.5062	-3.7354	-55.811	-102.050	-128.013	224.180	-86.771	-27.822	137.532	194.491	148.348	43.151	64.256	151.306	165.096	166.087	70.454	183.561	0.00042793	0.00062637	0.00015923	1359.7	2.941e-06	5.0218e-06	1355.3	368.27	4.7092e-06	6.0402e-06	418.58	139.9	122.03	41.744	5.1983e-06	51.676	0.00053043	0.00055628	0.00015158	1372.8	5.9955e-06	5.8505e-06	1373.5	374.38	5.9514e-06	5.8375e-06	426.68	142.94	124.39	42.835	6.1978e-06	53.001	174.175	-32.486	-37.795	-117.858	8.401	14.182	-118.175	-113.456	-15.501	25.283	-113.627	-110.248	-109.195	-104.363	1.266	-104.775	-8191	255	
688.471	1	1	0	0	0.36147	0.11163	0.32063	0.20152	0.09079	0.20627	0.096398	0.44589	0.17118	0.14499	0.035027	0.073434	0.21632	0.13423	0.30253	0.14489	-3.7458	-3.1396	-3.8771	-4.0833	-3.3792	-4.0833	-3.6208	-3.5812	-4.2083	-3.4083	-3.9188	-3.9521	-3.5083	-4.125	-3.6875	-3.5292	92.023	-16.284	43.547	203.859	203.102	-2.792	134.269	154.873	-107.523	-21.927	140.979	-26.964	204.486	138.261	-122.935	217.876	0.00048492	0.00035454	0.00015241	1360.8	2.0332e-06	5.0556e-06	1351.3	368.08	4.4399e-06	4.6425e-06	419.25	139.81	121.43	41.991	3.5489e-06	51.792	0.00053841	0.00055876	0.00014618	1373.2	5.8526e-06	6.0146e-06	1371.4	374.34	5.9445e-06	6.1443e-06	425.95	142.82	124.07	42.812	6.0427e-06	53.147	169.178	-40.475	-30.109	-117.956	-30.581	23.772	-118.115	-113.240	-21.357	32.091	-113.858	-109.844	-109.140	-104.269	16.205	-105.099	-8191	255	
688.590	1	1	0	0	0.21626	0.21556	0.050456	0.13833	0.34387	0.086767	0.38198	0.21494	0.20188	0.27611	0.067922	0.040631	0.0049475	0.17284	0.19503	0.18164	-3.8146	-3.3187	-3.6875	-4.0604	-3.2604	-3.875	-3.9792	-3.7042	-3.8708	-3.3208	-3.9708	-4.0979	-3.2438	-3.9479	-3.8	-3.4896	-88.164	40.350	-47.725	-85.978	70.357	147.501	167.400	216.789	103.092	43.091	-109.069	-82.094	71.340	195.353	-41.245	11.904	0.00047598	0.00047628	0.00010927	1362.9	3.1967e-06	6.9989e-06	1354.6	367.96	4.5306e-06	6.1849e-06	420.29	139.62	121.64	42.022	3.0636e-06	51.623	0.00052724	0.00056567	0.00015118	1374.6	6.1702e-06	5.8587e-06	1373.7	373.66	5.9332e-06	6.021e-06	426.92	142.6	124.35	42.937	5.8239e-06	53.073	168.315	-51.994	-40.791	-117.964	24.899	6.966	-118.059	-113.032	-40.181	23.686	-113.711	-110.010	-109.386	-104.366	-29.449	-104.896	-8191	255	
688.686	1	1	0	0	0.1421	0.21261	0.13109	0.28797	0.251	0.11113	0.28243	0.13768	0.16742	0.20422	0.25849	0.15548	0.17668	0.20026	0.2075	0.044871	-3.5167	-3.1437	-3.5771	-4.1625	-3.275	-3.9833	-3.9313	-3.4542	-4.0333	-3.4813	-3.6354	-4.0979	-3.4854	-4.0104	-3.7562	-3.3229	55.986	-0.853	133.672	208.146	187.361	-119.183	82.081	167.831	220.501	108.864	207.723	-120.512	206.662	165.095	147.658	214.145	0.00043612	0.00038817	0.00015402	1360.2	4.4037e-06	5.6073e-06	1351.7	368.76	3.9393e-06	5.9474e-06	420.82	140.16	121.51	41.636	5.2098e-06	51.778	0.00052055	0.00054925	0.0001506	1374.7	6.0492e-06	5.8117e-06	1371.3	374.28	5.8807e-06	6.0702e-06	426.66	143.11	124.14	42.768	6.1953e-06	53.097	175.253	-37.083	-19.239	-117.773	-32.481	7.943	-117.996	-113.468	-9.680	21.957	-113.834	-109.835	-109.260	-104.472	9.353	-105.025	-8191	255	
688.782	1	1	0	0	0.20034	0.080428	0.19457	0.25656	0.10253	0.043003	0.14941	0.1862	0.18323	0.22209	0.081625	0.19043	0.15901	0.15549	0.24681	0.099087	-3.5375	-3.4479	-3.3375	-4.2958	-3.1875	-3.9708	-4.1937	-3.3396	-3.9896	-3.4521	-3.5583	-4.1667	-3.3375	-3.6813	-3.9583	-3.5625	119.563	-32.056	-4.188	217.889	99.072	-95.092	184.403	187.295	54.406	118.312	150.330	112.961	-109.767	134.515	47.143	122.645	0.00048224	0.0003974	0.00013783	1359.7	3.7271e-06	3.8621e-06	1355.1	367.43	3.5917e-06	4.6059e-06	419.8	139.32	121.62	41.793	4.0783e-06	51.721	0.00053745	0.00054498	0.00015091	1373.6	5.941e-06	5.8894e-06	1372.5	373.59	5.8359e-06	6.1958e-06	426.82	142.8	124.2	42.847	6.1529e-06	53.116	171.094	-52.590	-51.147	-117.783	7.065	16.868	-118.136	-113.234	-23.918	28.693	-113.482	-109.908	-109.340	-104.182	-8.434	-104.817	-8191	255	
688.902	1	1	0	0	0.17464	0.28815	0.14758	0.08537	0.26931	0.14889	0.23731	0.30018	0.023402	0.14324	0.042401	0.13515	0.093572	0.36744	0.076341	0.15833	-3.7125	-3.6417	-3.3458	-4.2875	-3.2208	-3.8604	-4.2729	-3.1063	-3.9771	-3.8417	-3.4583	-4.1917	-3.5708	-3.6104	-3.9188	-3.5521	-77.032	128.627	121.050	162.355	146.004	217.474	176.858	214.715	-0.763	-27.220	187.995	0.353	85.174	152.515	77.430	200.853	0.00047906	0.00075747	0.00017192	1355.9	3.5361e-06	5.8512e-06	1351.5	366.9	4.7033e-06	4.6586e-06	420.58	139.52	121.21	41.775	3.7547e-06	51.514	0.0005311	0.00053652	0.00015052	1373.1	6.1577e-06	6.1154e-06	1370.5	373.65	6.2532e-06	6.0725e-06	427.34	142.68	123.89	42.901	5.8247e-06	52.911	169.417	-44.053	-16.234	-118.110	-18.999	18.323	-118.026	-113.282	-49.403	20.015	-113.425	-109.817	-109.301	-104.316	3.269	-104.874	-8191	255	
688.999	1	1	0	0	0.26779	0.093568	0.21384	0.15654	0.14262	0.14866	0.26125	0.301	0.21211	0.19671	0.25326	0.29342	0.082414	0.20793	0.19992	0.30077	-3.4604	-3.7479	-3.4583	-4.2167	-3.6	-3.5583	-4.2167	-3.5458	-3.85	-3.8917	-3.4208	-4.0667	-3.675	-3.5875	-3.9146	-3.2938	-48.255	225.618	42.029	-82.334	-96.524	179.944	151.183	201.252	108.514	-66.659	172.244	202.544	102.227	187.352	186.069	-98.598	0.00046084	0.00056491	0.00011846	1364.1	4.8631e-06	3.7715e-06	1353.9	366.46	4.1085e-06	6.7342e-06	421.16	139.46	121.25	41.859	3.1827e-06	51.806	0.00054052	0.0005462	0.000152	1374.6	5.9519e-06	5.9735e-06	1370.4	373.06	6.0189e-06	6.03e-06	427.39	142.85	124.19	42.776	5.977e-06	53.072	171.089	-67.556	-52.204	-117.559	1.621	22.488	-118.014	-113.482	-17.234	13.191	-113.652	-109.800	-109.284	-104.194	14.619	-104.533	-8191	255	
689.093	1	1	0	0	0.13937	0.29155	0.2558	0.30294	0.1408	0.031725	0.019965	0.2038	0.058939	0.057885	0.48002	0.15484	0.21323	0.42071	0.15363	0.13437	-3.5604	-3.5875	-3.2333	-4.1229	-3.6937	-3.3646	-4.1396	-3.6104	-3.7083	-3.8646	-3.4292	-4.15	-3.8854	-3.3917	-3.8708	-3.4792	-108.622	223.146	-124.128	-126.677	16.565	95.450	48.085	90.335	210.018	45.693	163.241	109.250	103.944	201.754	77.250	201.408	0.00046025	0.0006497	0.00013256	1363	3.8327e-06	5.0468e-06	1351.9	368.03	3.9267e-06	3.8416e-06	418.92	139.9	121.57	41.876	5.4191e-06	51.646	0.00053576	0.00055669	0.00016221	1374.3	6.0019e-06	6.1068e-06	1372	373.79	6.1506e-06	5.8448e-06	426.76	143.03	124.17	42.864	6.0855e-06	52.996	171.223	-38.648	-44.533	-117.609	-14.133	6.305	-118.054	-113.186	-31.409	15.709	-113.602	-109.849	-109.383	-103.953	-3.656	-104.882	-8191	255	
689.191	1	1	0	0	0.25113	0.1141	0.075744	0.13243	0.28167	0.093777	0.12048	0.25795	0.049099	0.069355	0.18916	0.093556	0.11479	0.21491	0.11919	0.033228	-3.2292	-3.9792	-3.1188	-4.025	-3.7917	-3.3479	-4.3187	-3.4729	-3.6333	-3.9729	-3.3875	-3.9729	-3.6937	-3.3521	-4.0813	-3.5542	-57.911	25.199	56.032	162.748	92.302	-28.823	102.074	93.609	46.669	56.069	-93.613	89.178	-38.418	134.387	-29.999	-82.128	0.00046334	0.0004567	0.00012796	1363	2.6735e-06	7.182e-06	1350	368.24	3.4852e-06	4.7122e-06	419.83	139.75	121.52	42.015	4.0412e-06	51.803	0.00054924	0.00053311	0.00015397	1373.9	6.0108e-06	6.1728e-06	1371.3	373.74	6.1962e-06	6.0092e-06	426.38	142.89	123.99	42.914	6.094e-06	53.062	173.433	-27.314	-42.802	-117.776	-19.084	21.493	-117.965	-113.336	-34.467	18.932	-113.439	-109.721	-109.428	-103.992	-6.030	-104.785	-8191	255	
689.285	1	1	0	0	0.17664	0.23229	0.22746	0.20219	0.12096	0.25509	0.14585	0.20362	0.17335	0.23797	0.026028	0.24861	0.097093	0.13087	0.22077	0.026559	-3.2562	-3.9333	-3.2188	-3.9771	-3.8333	-3.3333	-4.1792	-3.5604	-3.2167	-4.0417	-3.4771	-3.8792	-4.025	-3.3583	-3.9854	-3.7083	52.423	-42.549	197.220	222.419	53.845	110.332	177.092	137.111	42.227	-130.628	169.701	228.134	-111.979	-92.385	-39.898	185.968	0.00044268	0.00041461	0.00014439	1360.6	2.937e-06	6.1515e-06	1356.9	367.93	3.9042e-06	4.8162e-06	419.96	139.26	121.45	42.056	3.9317e-06	51.727	0.00055523	0.00054831	0.00015965	1373.9	6.0403e-06	6.1878e-06	1373	373.88	6.3401e-06	6.1028e-06	426.94	142.94	124.25	42.955	5.9358e-06	53.028	167.005	-48.256	-50.519	-117.622	-8.264	40.978	-117.982	-113.224	-41.655	25.068	-113.468	-109.650	-109.090	-104.449	3.075	-105.004	-8191	255	
689.381	1	1	0	0	0.13731	0.11544	0.26471	0.12121	0.015097	0.061302	0.21101	0.13349	0.23644	0.25125	0.19262	0.31018	0.26698	0.035905	0.10444	0.15457	-3.0896	-3.8833	-3.3438	-3.9167	-3.7687	-3.3563	-4.2896	-3.7833	-3.2083	-4.0292	-3.4271	-3.5979	-4.1479	-3.45	-3.8396	-3.7521	204.670	169.230	-66.717	-79.352	-63.971	196.169	-124.575	128.820	-40.630	102.275	223.506	218.311	138.225	130.384	-107.292	160.100	0.00048082	0.00057381	0.00017848	1358	3.8478e-06	7.933e-06	1352.7	368.13	4.1034e-06	4.4523e-06	418.79	139.14	121.27	41.965	3.5744e-06	51.812	0.00055757	0.0005351	0.00015745	1374.8	5.7977e-06	6.138e-06	1373.8	373.89	6.2799e-06	6.0788e-06	426.27	142.74	124.03	42.912	6.1376e-06	53.003	170.903	-48.191	-45.951	-117.523	-18.139	16.516	-117.900	-113.327	-56.580	19.007	-113.531	-109.703	-109.205	-104.299	-13.654	-104.775	-8191	255	
689.502	1	1	0	0	0.27816	0.10573	0.25267	0.18761	0.15054	0.10556	0.3534	0.11841	0.1903	0.13267	0.035526	0.16551	0.21843	0.43317	0.13976	0.24087	-2.9854	-3.925	-3.2438	-3.5979	-4.0938	-3.2958	-4.0396	-4.0458	-3.2792	-4.0646	-3.625	-3.5438	-4.0104	-3.4167	-3.8583	-4.0375	63.763	226.456	127.576	207.992	76.239	215.254	220.746	177.782	218.040	50.991	212.537	176.544	-104.314	152.111	-14.315	207.477	0.00043218	0.00045481	0.00013891	1363	3.6008e-06	6.3002e-06	1358.7	366.21	3.7422e-06	3.3238e-06	419.33	138.96	121.37	41.896	4.413e-06	51.824	0.00054949	0.0005412	0.00015834	1374.5	5.9947e-06	6.0219e-06	1374.9	373.08	6.2726e-06	6.1154e-06	426.7	142.75	124.24	42.897	5.907e-06	53.08	169.649	-41.627	-37.014	-117.600	11.160	24.278	-117.899	-113.327	-30.288	12.507	-113.825	-109.722	-109.217	-104.523	5.362	-104.981	-8191	255	
689.598	1	1	0	0	0.21568	0.096593	0.14958	0.042488	0.12571	0.1915	0.24902	0.33288	0.12085	0.12932	0.29173	0.14245	0.030621	0.52329	0.13874	0.1439	-3.0396	-4.1417	-3.6813	-3.6083	-4.0104	-3.0042	-4.0229	-3.9313	-3.4146	-4.1354	-3.6667	-3.4646	-4.1417	-3.5854	-3.6375	-4.2542	-3.889	228.342	-92.091	181.045	-10.303	68.541	197.250	176.610	-82.747	-33.549	192.738	181.308	-22.555	142.358	55.269	161.715	0.00046775	0.000505	0.00011191	1364.1	3.5501e-06	5.505e-06	1353.3	367.89	4.8439e-06	5.1587e-06	421.61	139.42	121.19	41.942	2.4742e-06	51.721	0.00053812	0.00053042	0.00014729	1375.1	5.9624e-06	6.1606e-06	1372.3	374.21	6.1328e-06	5.7124e-06	426.67	143.02	124.1	42.933	6.0558e-06	53.066	169.081	-48.072	-46.673	-117.689	-11.541	29.125	-117.896	-113.275	-36.497	37.294	-113.545	-109.596	-109.370	-104.195	-12.157	-105.139	-8191	255	
689.694	1	1	0	0	0.21992	0.098732	0.084838	0.22987	0.36685	0.13496	0.30601	0.24521	0.034774	0.15389	0.12259	0.15658	0.043448	0.25494	0.062659	0.1781	-2.8292	-3.9188	-3.7521	-3.5812	-4.1687	-3.3812	-3.9083	-4.0375	-3.2667	-3.7104	-3.9229	-3.3354	-4.2021	-3.4417	-3.65	-4.1229	62.652	-55.622	11.127	-115.064	-85.994	-90.823	147.889	185.633	187.395	-35.961	186.035	-126.906	208.003	192.342	142.517	160.505	0.00046054	0.00041945	0.00014602	1363.5	3.8397e-06	4.0075e-06	1353.4	368.1	2.8285e-06	4.7546e-06	419.79	139.24	121.26	41.849	5.2106e-06	51.901	0.00055798	0.00054973	0.0001508	1374.6	5.7606e-06	5.9486e-06	1372.6	374.25	6.0548e-06	6.04e-06	426.64	142.82	124.32	42.81	5.8392e-06	53.154	174.512	-46.705	-28.538	-117.740	-17.654	11.354	-117.642	-113.276	-50.399	36.278	-113.722	-109.730	-108.985	-104.183	-3.946	-104.958	-8191	255	
689.766	1	1	0	0	0.17771	0.1243	0.22904	0.38665	0.10943	0.14321	0.24802	0.051686	0.087555	0.072405	0.064621	0.19954	0.24898	0.13903	0.2898	0.10567	-2.8333	-3.9125	-3.8563	-3.6125	-3.9208	-3.6458	-3.6458	-4.1542	-3.2917	-3.6104	-4.0229	-3.3042	-4.1521	-3.6271	-3.4646	-4.2146	165.242	-42.964	1.032	152.708	44.811	129.850	173.709	185.531	131.656	-4.515	118.794	134.721	183.363	215.492	118.212	-110.427	0.00047294	0.00049491	0.00011631	1357.7	4.2812e-06	5.1478e-06	1354.4	366.71	2.9225e-06	4.9562e-06	420.21	139.42	121.81	41.842	4.0188e-06	51.818	0.00053473	0.00054449	0.00015316	1373.7	6.0217e-06	6.1968e-06	1373.8	374.1	6.1381e-06	5.8543e-06	427.08	142.87	124.32	42.881	6.1398e-06	53.062	168.056	-49.655	-20.093	-117.759	-2.411	27.434	-117.811	-113.274	-19.090	25.631	-113.760	-109.684	-109.409	-104.382	26.816	-104.889	-8191	255	
689.887	1	1	0	0	0.17848	0.25622	0.19297	0.32033	0.11174	0.050722	0.2704	0.13967	0.10511	0.17454	0.11793	0.17338	0.10346	0.12764	0.20752	0.14158	-2.9333	-3.6792	-3.9625	-3.5438	-4.0021	-3.4417	-3.6542	-4.3396	-3.3458	-3.6437	-4.1354	-3.4688	-4.2458	-3.9125	-3.325	-4.2167	9.713	46.379	224.490	203.783	-42.499	34.632	210.307	80.348	71.138	42.340	146.038	-106.066	-83.006	152.358	188.761	-41.834	0.00044442	0.00043524	0.00010693	1359.8	2.9555e-06	3.8173e-06	1356.9	367.56	3.8914e-06	5.0767e-06	418.95	139.55	121.63	41.856	1.799e-06	51.692	0.0005401	0.00052855	0.00014564	1374.5	5.924e-06	5.9075e-06	1373.1	373.96	6.3728e-06	6.0083e-06	426.23	142.7	124.23	42.844	5.9808e-06	53.098	174.827	-39.534	-19.631	-117.686	-10.647	20.582	-117.901	-113.305	-38.879	11.077	-113.471	-109.780	-109.144	-104.170	-16.684	-104.929	-8191	255	
689.983	1	1	0	0	0.20439	0.031363	0.15343	0.12705	0.051059	0.081822	0.23142	0.13013	0.073302	0.1919	0.075658	0.13598	0.28925	0.060559	0.050112	0.25151	-2.9333	-3.5479	-4.0271	-3.325	-4.0312	-3.8083	-3.6771	-4.2083	-3.6	-3.5625	-4.3063	-3.3583	-3.9979	-3.9625	-3.2521	-4.2417	39.137	99.449	103.955	211.599	177.663	188.778	197.663	95.108	29.129	141.357	188.295	219.523	161.477	212.435	-48.771	159.893	0.00045285	0.00054408	0.0001124	1363.4	5.0085e-06	6.0272e-06	1355.4	366.5	4.4312e-06	6.2401e-06	420.97	139.53	121.72	41.903	3.4944e-06	51.608	0.00053277	0.00055482	0.00014909	1374.2	5.9075e-06	5.8298e-06	1373.8	373.66	5.7979e-06	5.8199e-06	426.65	142.82	124.35	42.86	6.0673e-06	53.079	169.676	-38.286	-52.080	-117.822	18.564	27.698	-117.687	-113.147	-41.433	36.383	-113.561	-109.973	-108.929	-104.339	11.664	-104.580	-8191	255	
690.079	1	1	0	0	0.066985	0.07938	0.12727	0.50229	0.18172	0.055549	0.24948	0.057706	0.19561	0.13098	0.15467	0.2989	0.33256	0.027269	0.19995	0.23853	-3.1625	-3.6167	-4.1583	-3.3042	-3.8438	-3.8896	-3.6104	-4.25	-3.7313	-3.2854	-4.2708	-3.775	-3.7625	-4.1146	-3.4	-4.0604	147.161	222.879	96.464	161.985	1.533	91.894	155.715	101.311	165.431	210.583	-84.995	214.684	172.692	198.729	-96.624	134.536	0.0004612	0.00058162	0.00016334	1360.8	4.0505e-06	5.1537e-06	1356.1	368.41	3.4825e-06	5.2812e-06	420.19	139.49	121.69	41.841	4.1421e-06	51.791	0.00053776	0.0005529	0.00014639	1373.8	5.983e-06	5.8157e-06	1373.3	374.24	6.2738e-06	6.2374e-06	426.48	142.65	124.05	42.851	6.1215e-06	53.027	171.078	-27.188	-34.297	-117.612	-10.721	27.319	-117.843	-113.224	-7.897	27.367	-113.495	-109.714	-109.198	-104.345	11.310	-104.489	-8191	255	
690.175	1	1	0	0	0.083407	0.076347	0.14451	0.16089	0.11407	0.050162	0.13724	0.16263	0.20715	0.041916	0.026696	0.11896	0.23439	0.28136	0.19871	0.23127	-3.3375	-3.3667	-4.2417	-3.5667	-3.6896	-3.85	-3.4938	-4.1292	-3.7083	-3.5583	-4.2125	-3.4958	-3.6583	-4.0396	-3.3771	-4.0896	63.663	66.124	51.967	-127.995	138.452	27.638	179.250	161.029	-48.511	-57.108	202.973	224.804	-28.345	162.473	123.442	184.463	0.00048355	0.00034332	0.00011869	1357.6	4.3012e-06	6.6321e-06	1357.3	367.85	4.34e-06	4.0315e-06	421.39	139.73	121.49	42.003	4.4324e-06	51.97	0.00052904	0.0005512	0.00014406	1371.5	6.0233e-06	5.7131e-06	1373.4	374.12	6.1469e-06	5.9044e-06	427.57	142.84	124.14	42.857	6.0274e-06	53.086	172.559	-45.629	-39.828	-117.582	1.271	13.991	-118.013	-113.303	-12.399	28.474	-113.164	-109.748	-108.890	-104.016	4.150	-104.785	-8191	255	
690.271	1	1	0	0	0.19867	0.20106	0.15026	0.36905	0.17319	0.31925	0.089693	0.12204	0.062495	0.23473	0.21794	0.13751	0.10363	0.10417	0.19366	0.12673	-3.4542	-3.4771	-4.0188	-3.5917	-3.6271	-3.8958	-3.6896	-4.0042	-3.8729	-3.3208	-4.2562	-3.5417	-3.5083	-4.3187	-3.2458	-3.8771	-41.872	215.285	132.144	211.995	133.591	83.405	175.532	130.144	154.588	76.387	228.822	-101.424	84.666	217.275	-3.387	213.829	0.00043486	0.00051005	0.00012511	1357.9	4.9217e-06	5.081e-06	1360	367.74	4.4258e-06	5.0501e-06	419.84	139.88	121.3	42.131	4.7542e-06	51.794	0.0005383	0.00054872	0.00014654	1370.5	6.0181e-06	5.6824e-06	1373.3	373.8	5.9866e-06	5.951e-06	426.46	142.71	124.28	42.915	6.1872e-06	53.068	168.363	-53.064	-39.565	-117.780	12.890	6.861	-118.006	-113.068	-36.140	18.156	-113.490	-109.903	-109.164	-104.085	-16.938	-104.222	-8191	255	
690.366	1	1	0	0	0.048171	0.24865	0.08791	0.17978	0.24243	0.20095	0.21317	0.096446	0.34385	0.17287	0.21348	0.20797	0.22942	0.027356	0.072862	0.21819	-3.5729	-3.1188	-3.9833	-3.6562	-3.425	-4.2208	-3.525	-3.9938	-3.9292	-3.3333	-4.0437	-3.9125	-3.425	-4.2792	-3.4	-3.6562	53.588	200.323	-69.521	209.019	-16.052	160.086	206.813	158.832	155.098	-10.367	-107.930	-84.514	202.216	-95.065	-95.981	76.304	0.00044045	0.00050363	0.0001405	1356.3	4.4483e-06	3.0123e-06	1351.5	367.37	3.3964e-06	5.3496e-06	418.6	138.89	121.8	42.067	4.0889e-06	51.585	0.00053429	0.00055339	0.00014737	1372	5.9862e-06	5.7235e-06	1372.4	373.84	5.8318e-06	5.9907e-06	426.82	142.42	124.24	42.908	5.8086e-06	53.008	169.242	-41.304	-45.454	-117.650	-8.631	-22.305	-117.720	-113.013	-38.730	22.664	-113.366	-109.553	-108.996	-103.778	-1.974	-104.953	-8191	255	
690.464	1	1	0	0	0.049728	0.17841	0.16161	0.2061	0.12514	0.14058	0.15149	0.089235	0.22208	0.1347	0.35922	0.26916	0.071748	0.20572	0.11179	0.1279	-3.6688	-3.2521	-4.0708	-4.0167	-3.2062	-4.1854	-3.7438	-3.8021	-4.0375	-3.3812	-4.0125	-3.9021	-3.4667	-4.0917	-3.5771	-3.3792	132.944	-52.835	181.981	206.331	-75.451	16.545	148.033	108.445	223.206	29.902	167.266	146.952	207.081	149.931	7.232	-44.216	0.00040625	0.00057495	0.00016248	1358	3.5162e-06	8.3628e-06	1352.2	368.65	3.6575e-06	4.3598e-06	418.67	139.55	121.49	41.934	1.9417e-06	51.698	0.00052107	0.00053331	0.00014828	1371.5	6.234e-06	5.6991e-06	1370.9	374.23	5.8048e-06	6.04e-06	426.36	142.62	124.15	42.833	5.6102e-06	53.046	167.550	-44.076	-48.994	-117.512	7.560	9.387	-117.744	-113.026	-55.980	13.829	-113.550	-109.502	-109.188	-104.232	5.757	-104.869	-8191	255	
690.582	1	1	0	0	0.178	0.058702	0.10213	0.15364	0.088769	0.15923	0.10892	0.19569	0.023782	0.13045	0.21013	0.1783	0.29524	0.24498	0.19293	0.018427	-3.7562	-3.4042	-4.0271	-4.2063	-3.1479	-4.0437	-3.8229	-3.6083	-4.2083	-3.4271	-4.0375	-4.1833	-3.4292	-4.1208	-3.8521	-3.5396	53.585	-0.340	-48.925	226.190	122.878	39.529	133.752	172.653	83.079	-71.910	112.319	188.755	193.760	160.137	168.186	-53.675	0.00043898	0.00049973	0.00010762	1362.7	3.0802e-06	6.4398e-06	1353.6	369.66	4.0583e-06	5.4891e-06	419.5	139.44	121.17	42.153	3.439e-06	51.625	0.00053277	0.00054754	0.00014965	1374.6	5.7775e-06	5.729e-06	1372.9	374.11	5.7106e-06	5.8922e-06	426.63	142.65	124.14	42.922	5.5627e-06	52.959	166.609	-40.150	-52.774	-117.663	-13.009	1.983	-117.893	-112.812	-46.611	24.135	-113.292	-109.674	-108.945	-103.897	-10.849	-104.712	-8191	255	
690.679	1	1	0	0	0.10434	0.038663	0.26224	0.20242	0.13426	0.18534	0.15934	0.16632	0.062482	0.16624	0.24828	0.15946	0.16283	0.11197	0.11628	0.29113	-3.7188	-3.2708	-3.6896	-4.175	-3.2042	-4.0917	-3.875	-3.4896	-3.9271	-3.55	-3.7229	-4.1021	-3.4062	-4.1708	-3.7146	-3.3917	15.629	88.533	212.998	154.646	-111.235	-122.038	148.126	-92.297	-12.888	-120.841	-113.527	195.218	192.794	223.991	216.761	160.459	0.00038285	0.00055781	0.00021702	1359.2	1.8581e-06	6.4151e-06	1356.1	367.61	3.3977e-06	3.6778e-06	420.83	139.5	120.69	41.751	3.6634e-06	51.481	0.00052097	0.00053518	0.00014612	1371.3	5.9026e-06	5.663e-06	1372.9	373.5	5.7866e-06	5.8872e-06	426.76	142.7	124.03	42.775	5.7633e-06	53.006	173.372	-48.724	-29.621	-117.502	-11.973	39.755	-117.747	-112.929	-26.247	8.404	-113.301	-109.802	-109.164	-104.084	-1.566	-104.568	-8191	255	
690.775	1	1	0	0	0.23531	0.23248	0.18372	0.24229	0.3355	0.12901	0.18054	0.35016	0.082044	0.18613	0.13545	0.27524	0.23393	0.1326	0.096809	0.3452	-3.7271	-3.4208	-3.525	-4.2979	-3.2042	-3.8729	-4.0271	-3.4292	-4.1104	-3.5583	-3.8479	-4.1708	-3.3187	-3.9396	-3.9396	-3.4	121.859	13.945	139.502	213.338	216.344	-67.782	214.151	191.934	216.139	-106.489	184.531	167.102	12.887	-76.634	-68.958	114.152	0.00043161	0.00039134	0.0001888	1360.6	2.5466e-06	3.9436e-06	1348	367.79	4.5908e-06	4.1437e-06	419.05	139.86	121.56	41.872	4.4151e-06	51.603	0.00052423	0.00053676	0.0001491	1374.5	5.7997e-06	5.5527e-06	1369.8	373.61	5.7494e-06	5.5253e-06	426.19	142.88	124.11	42.877	5.7539e-06	53.114	171.353	-38.599	-49.962	-117.456	-9.634	9.218	-117.722	-112.897	-31.553	15.888	-113.395	-109.593	-108.953	-104.156	-9.175	-104.540	-8191	255	
690.871	1	1	0	0	0.28386	0.13604	0.012413	0.25723	0.037679	0.19992	0.1302	0.081639	0.1251	0.02552	0.18314	0.27873	0.16106	0.1932	0.038011	0.26581	-3.7167	-3.6458	-3.3625	-4.1937	-3.3771	-3.8563	-4.0875	-3.5792	-3.9562	-3.4771	-3.4062	-4.2625	-3.5604	-3.7938	-3.7708	-3.5854	113.342	121.189	62.405	132.841	71.834	-8.368	135.416	-129.622	-74.027	170.637	43.574	-125.427	-121.985	215.667	-60.134	192.263	0.0004229	0.00053086	0.00013674	1358.6	2.7055e-06	7.4588e-06	1352.4	368.12	3.3361e-06	4.5024e-06	420.87	139.22	121.12	41.978	3.8461e-06	51.876	0.00053146	0.00054006	0.00014918	1371.8	5.9785e-06	5.898e-06	1370.8	373.56	5.7595e-06	5.8208e-06	426.74	142.53	123.94	42.827	5.7374e-06	53.025	166.735	-39.874	-44.034	-117.442	-29.204	28.005	-117.755	-112.953	-18.899	20.356	-113.282	-109.508	-109.004	-103.912	-10.748	-104.563	-8191	255	
690.992	1	1	0	0	0.026284	0.13162	0.028067	0.1228	0.083887	0.086229	0.45257	0.15474	0.27857	0.19162	0.15126	0.22334	0.14277	0.27277	0.079685	0.049095	-3.6458	-3.6312	-3.35	-4.3812	-3.35	-3.7667	-4.1958	-3.5479	-4.1229	-3.7896	-3.5792	-4.1583	-3.3896	-3.6188	-4.0729	-3.5292	-93.275	128.897	-6.411	-89.690	2.854	-118.771	199.649	191.243	114.773	-45.417	222.835	173.149	155.725	-23.556	-42.672	128.317	0.00042846	0.00060564	0.00015327	1354.9	3.0244e-06	4.9037e-06	1355.4	367.58	2.7198e-06	6.7317e-06	420.08	139.36	121.11	41.9	2.9764e-06	51.7	0.00052753	0.00054831	0.00014794	1369.9	6.0508e-06	5.7448e-06	1372.1	373.24	5.8957e-06	5.8787e-06	426.95	142.75	124.12	42.868	5.7162e-06	53.045	163.662	-38.706	-31.518	-117.270	-9.381	43.557	-117.554	-113.215	-38.527	27.707	-113.403	-109.550	-108.836	-103.941	-9.331	-104.464	-8191	255	
691.063	1	1	0	0	0.12686	0.18739	0.14761	0.28295	0.18819	0.083696	0.1048	0.39504	0.14935	0.055083	0.15963	0.24471	0.11549	0.13502	0.15023	0.15801	-3.4646	-3.7854	-3.4771	-4.3438	-3.2396	-3.5563	-4.3625	-3.5396	-3.8333	-3.7875	-3.4125	-4.2167	-3.6208	-3.4313	-4.0875	-3.4729	122.590	17.747	22.411	223.774	-52.380	34.240	-113.207	194.521	181.962	-71.079	181.795	212.408	-119.149	-90.759	174.879	138.201	0.00045714	0.00045487	0.00014176	1358.6	3.3902e-06	4.851e-06	1353.1	367.42	4.6949e-06	6.3939e-06	418.22	139.14	121.89	41.858	3.9985e-06	51.514	0.0005222	0.00052611	0.00014826	1372.2	5.9579e-06	5.851e-06	1370.4	373.61	5.7547e-06	5.5832e-06	426.35	142.56	124.22	42.85	5.7175e-06	53.033	164.518	-55.990	-40.881	-117.586	-14.615	45.405	-117.707	-113.077	-35.571	30.694	-113.320	-109.323	-109.337	-103.988	9.233	-104.669	-8191	255	
691.184	1	1	0	0	0.22898	0.21676	0.21874	0.11214	0.12063	0.08994	0.23506	0.27276	0.26583	0.0090346	0.36968	0.053594	0.16657	0.097179	0.047752	0.12578	-3.3812	-3.8667	-3.3	-4.2688	-3.6562	-3.2438	-4.3562	-3.4125	-3.6396	-4	-3.5708	-4.2646	-3.8979	-3.4562	-4.125	-3.4104	-103.286	-14.274	118.044	120.354	167.567	14.964	170.161	173.668	-76.125	-50.732	122.027	22.815	-38.533	85.444	13.776	164.941	0.00042135	0.00045024	0.00017189	1363.8	3.8787e-06	5.6906e-06	1353.9	367.32	5.0396e-06	4.527e-06	419.19	138.65	121.66	41.869	3.791e-06	51.634	0.0005214	0.00052412	0.00015161	1373.4	5.6427e-06	5.7407e-06	1371.8	373.17	5.8969e-06	5.6776e-06	425.95	142.46	124.1	42.815	5.7955e-06	52.977	173.120	-40.303	-36.986	-117.332	-19.950	25.020	-117.684	-113.230	-4.214	4.833	-113.405	-109.374	-109.091	-103.811	-42.549	-104.577	-8191	255	
691.278	1	1	0	0	0.21529	0.18041	0.016176	0.33393	0.17844	0.13982	0.27279	0.35411	0.061182	0.089354	0.082283	0.10167	0.1976	0.28687	0.14383	0.15258	-3.0771	-3.9833	-3.3208	-4.1438	-3.7292	-3.4375	-4.1333	-3.6896	-3.5417	-4.1292	-3.5187	-3.9667	-3.9896	-3.4938	-3.9562	-3.5438	10.071	109.242	-120.074	198.402	-120.618	-68.218	171.689	151.742	206.680	-3.720	157.668	127.845	-130.877	-124.904	170.957	-78.618	0.00045233	0.00051944	0.00015887	1360.4	3.618e-06	5.3741e-06	1350	366.95	2.7852e-06	5.8783e-06	419.37	140.02	121.58	41.954	4.654e-06	51.721	0.00053172	0.00054502	0.00015259	1373.4	5.813e-06	5.8867e-06	1372	373.25	6.0282e-06	5.9247e-06	426.12	142.8	124.08	42.886	5.5415e-06	53.014	169.223	-52.000	-38.682	-117.351	-33.580	18.864	-117.696	-112.953	-10.592	43.760	-113.030	-109.162	-108.904	-104.022	-7.974	-104.706	-8191	255	
691.374	1	1	0	0	0.16465	0.1243	0.043584	0.2771	0.13568	0.12786	0.21774	0.036272	0.11658	0.12206	0.067729	0.14657	0.1554	0.25748	0.045968	0.16744	-3.0146	-4.2063	-3.2833	-3.8521	-3.8583	-3.3646	-4.0437	-3.6833	-3.5104	-4.1667	-3.5312	-3.7771	-4.0854	-3.2313	-4.1042	-3.75	-90.700	154.834	59.817	150.405	136.131	-111.718	175.074	190.696	51.247	-19.761	-71.200	79.357	189.488	169.971	81.049	197.685	0.00042866	0.00057611	0.00014472	1359.8	3.6651e-06	4.6292e-06	1357.2	368.67	4.3374e-06	4.5363e-06	418.07	139.35	121.62	42.077	4.4217e-06	51.425	0.00053426	0.00051668	0.00014904	1373.1	5.7622e-06	6.152e-06	1373.4	373.77	5.9558e-06	5.8773e-06	426.29	142.59	124.1	42.894	5.8654e-06	53.018	169.626	-41.773	-54.428	-117.179	-15.210	5.891	-117.612	-112.970	-32.364	16.115	-113.115	-109.575	-109.038	-103.939	-1.185	-104.540	-8191	255	
691.471	1	1	0	0	0.096955	0.16872	0.19924	0.36396	0.30663	0.13266	0.074673	0.25556	0.033733	0.28215	0.14379	0.225	0.27092	0.1478	0.23348	0.11215	-2.8104	-3.9083	-3.3208	-3.6417	-4.0021	-3.3312	-4.2583	-3.8417	-3.2667	-4.0958	-3.5583	-3.7562	-4.2083	-3.3333	-3.8333	-4.0917	226.470	80.950	123.926	170.581	-78.498	39.503	153.168	172.872	-122.972	-49.613	100.007	215.296	212.060	157.120	176.920	216.341	0.00044505	0.00056155	0.00013875	1363.7	3.797e-06	3.894e-06	1353	367.39	3.7542e-06	5.7995e-06	420.34	139.44	121.25	41.788	3.4885e-06	51.689	0.00055436	0.0005266	0.00014999	1375.4	5.8901e-06	5.9242e-06	1370.7	373.51	5.9971e-06	5.9374e-06	425.98	142.7	124.07	42.831	5.9651e-06	52.956	171.397	-56.945	-38.251	-117.278	-17.329	28.977	-117.551	-113.149	-50.545	15.095	-113.440	-109.352	-109.104	-103.789	3.309	-104.624	-8191	255	
691.567	1	1	0	0	0.1164	0.16206	0.15703	0.10068	0.13464	0.088519	0.35128	0.091965	0.2185	0.080675	0.10585	0.056527	0.12582	0.3384	0.15112	0.078469	-3.0542	-4.0833	-3.3729	-3.5521	-4.1729	-3.3625	-4.1354	-4.0729	-3.1813	-3.8896	-3.7625	-3.6042	-4.0667	-3.3396	-3.6437	-3.9562	-37.650	60.077	127.193	-90.549	48.873	-76.758	166.735	28.959	17.115	-49.157	184.280	-23.621	-119.420	206.408	58.302	48.593	0.00042345	0.00046887	0.00010761	1361	3.2884e-06	5.3269e-06	1358.3	368.69	5.4069e-06	3.7581e-06	420.28	139.57	121.5	42.02	2.45e-06	51.655	0.00051857	0.00054412	0.00015175	1373.5	5.7771e-06	6.0567e-06	1371.9	373.42	6.1974e-06	5.8262e-06	426.02	142.5	124.03	42.885	5.9706e-06	52.965	168.767	-49.383	-37.821	-117.320	0.462	30.785	-117.660	-113.011	-9.728	34.430	-113.299	-109.446	-109.257	-104.173	-21.694	-104.730	-8191	255	
691.663	1	1	0	0	0.2963	0.29817	0.3012	0.2256	0.033718	0.28245	0.1731	0.24132	0.26595	0.18086	0.11019	0.03355	0.24501	0.22766	0.26941	0.31446	-2.9167	-4.1292	-3.65	-3.4062	-3.9437	-3.3937	-3.7958	-4.075	-2.9646	-4.0229	-3.9479	-3.3854	-4.1667	-3.7354	-3.4688	-4.2604	-92.139	200.852	169.527	227.428	-97.353	217.950	225.206	-105.974	-86.777	-86.088	-116.443	-89.857	-130.054	-46.800	-1.170	175.790	0.00045516	0.00057762	0.00011529	1359.9	2.9177e-06	5.6078e-06	1353.2	366.1	3.0856e-06	5.5965e-06	419.98	138.35	121.31	41.889	3.6109e-06	51.331	0.00053802	0.00053384	0.00014301	1372.3	5.6488e-06	6.0205e-06	1372.4	372.88	6.2964e-06	5.8009e-06	426.19	142.33	124.23	42.754	5.8964e-06	52.907	170.289	-40.830	-56.543	-117.360	-24.674	15.460	-117.710	-113.011	-19.276	7.975	-113.568	-109.725	-108.965	-104.395	-16.367	-104.879	-8191	255	
691.759	1	1	0	0	0.30062	0.066929	0.030191	0.33693	0.073733	0.28172	0.29609	0.060703	0.11499	0.12923	0.2075	0.032064	0.070767	0.074613	0.097221	0.31375	-2.9083	-3.9021	-3.5563	-3.6417	-4.1375	-3.2833	-3.675	-4.2708	-3.2021	-3.9938	-3.9771	-3.3	-4.1271	-3.6896	-3.6208	-4.1667	-103.697	197.652	98.712	170.777	191.825	213.253	179.810	204.323	153.952	115.873	149.608	7.368	-38.687	93.388	138.102	151.320	0.00046234	0.00062919	0.00016676	1359	4.4522e-06	6.4182e-06	1351.5	367.45	2.4275e-06	5.3298e-06	419.9	139.42	121.67	41.734	4.5658e-06	51.566	0.00053807	0.00054628	0.0001473	1371.9	5.6657e-06	6.0169e-06	1369.8	373.03	5.974e-06	5.814e-06	425.99	142.61	124.13	42.756	5.8171e-06	52.941	169.286	-56.005	-39.189	-117.460	-21.613	45.694	-117.677	-113.064	-34.021	33.071	-113.491	-109.807	-108.943	-104.014	21.792	-104.706	-8191	255	
691.855	1	1	0	0	0.15511	0.13598	0.19716	0.19912	0.26021	0.13446	0.18615	0.21858	0.080612	0.1198	0.17269	0.25565	0.33338	0.15991	0.16919	0.061898	-2.8479	-3.6	-3.6875	-3.5062	-4.1417	-3.7438	-3.6396	-4.2646	-3.3271	-3.6604	-4.0979	-3.1646	-4.1479	-3.7062	-3.5042	-4.0813	28.369	195.027	97.818	160.428	-55.379	158.551	165.737	191.560	14.319	39.317	175.926	177.773	211.469	133.710	111.528	-110.000	0.00046196	0.00055697	0.00020082	1355	3.5249e-06	5.2295e-06	1350.2	367.24	3.8731e-06	6.1258e-06	418.31	139.38	121.61	41.84	3.5402e-06	51.668	0.00054661	0.00052624	0.00014793	1371.2	5.8635e-06	5.8049e-06	1371.2	373.08	6.0391e-06	5.9622e-06	426.14	142.53	123.96	42.762	6.08e-06	53.023	169.327	-39.226	-41.881	-117.474	-14.636	15.311	-117.588	-113.047	-25.618	21.288	-113.309	-109.691	-108.872	-104.133	6.904	-104.785	-8191	255	
691.951	1	1	0	0	0.24988	0.13125	0.15042	0.36318	0.19507	0.074682	0.21821	0.19493	0.12001	0.29308	0.13242	0.18924	0.22659	0.14213	0.058603	0.17836	-2.9542	-3.6792	-3.7917	-3.4021	-3.9625	-3.6958	-3.4062	-4.55	-3.3833	-3.6667	-4.1333	-3.4	-3.975	-3.9854	-3.3646	-4.0792	39.957	-110.074	171.495	199.598	55.626	-20.649	118.656	-125.324	13.489	103.478	-15.041	201.488	165.469	115.208	-128.848	163.508	0.00048022	0.00047777	0.00010231	1357	3.318e-06	6.6861e-06	1351.1	366.63	3.2815e-06	4.6015e-06	419.99	139.11	121.34	41.748	5.3116e-06	51.755	0.00053956	0.00054425	0.00014229	1371.6	5.8114e-06	5.8415e-06	1370.3	372.95	5.7474e-06	5.9243e-06	426.4	142.65	124.07	42.76	6.0961e-06	52.923	171.280	-49.169	-33.941	-117.573	-11.539	19.127	-117.583	-112.838	-28.450	26.233	-113.445	-109.610	-108.789	-104.092	6.986	-104.548	-8191	255	
692.072	1	1	0	0	0.074263	0.063637	0.075256	0.20582	0.15178	0.18258	0.14002	0.21001	0.22653	0.26251	0.13396	0.062735	0.14521	0.19065	0.055498	0.26154	-3.0458	-3.6562	-4.1021	-3.5417	-3.9167	-3.8354	-3.5771	-4.3208	-3.525	-3.3646	-4.1167	-3.3396	-3.9604	-3.8729	-3.4396	-4.1604	79.095	19.047	-19.154	139.139	55.363	73.476	-130.068	114.041	174.840	78.787	145.301	10.113	-81.585	209.114	192.898	221.161	0.00045882	0.00046686	0.00013298	1359.4	4.0754e-06	5.1576e-06	1354.1	367.73	4.8873e-06	4.7328e-06	417.04	139.82	121.37	41.897	4.445e-06	51.482	0.000524	0.00053737	0.00014043	1370.8	5.7767e-06	5.7177e-06	1370.6	372.75	5.8682e-06	5.8818e-06	425.3	142.66	124.11	42.811	6.0232e-06	52.94	170.588	-25.396	-37.590	-117.514	1.697	24.802	-117.657	-112.988	-47.344	33.412	-113.583	-109.524	-108.806	-104.121	5.167	-104.655	-8191	255	
692.166	1	1	0	0	0.017681	0.11267	0.099169	0.30727	0.19499	0.19341	0.18602	0.10764	0.19129	0.11963	0.21851	0.15437	0.13813	0.09901	0.26426	0.1137	-3.2042	-3.3167	-3.9833	-3.5083	-3.5917	-3.8458	-3.2729	-4.0458	-3.3896	-3.5354	-4.3458	-3.3708	-3.7438	-4.025	-3.1625	-3.8229	160.862	0.242	188.900	-120.780	-83.070	54.375	171.627	170.120	134.672	-81.535	205.233	127.822	-76.162	167.120	-2.349	-101.629	0.0004288	0.00047735	0.00010796	1357.2	3.5326e-06	4.9099e-06	1348.5	367.32	5.0496e-06	4.484e-06	419.01	139.73	121.26	41.875	5.5693e-06	51.773	0.00051952	0.0005416	0.00014388	1371.2	5.8587e-06	5.8682e-06	1370	373.18	5.8589e-06	5.7381e-06	426.03	142.67	124.18	42.815	5.932e-06	53.059	168.625	-44.202	-55.448	-117.334	-31.010	22.019	-117.610	-112.749	-28.014	16.554	-113.352	-109.692	-108.991	-103.940	8.820	-104.370	-8191	255	
692.264	1	1	0	0	0.15045	0.17558	0.078681	0.15186	0.19068	0.20736	0.34811	0.27647	0.2337	0.19179	0.3172	0.08465	0.25121	0.3425	0.19916	0.16566	-3.4375	-3.4125	-4.1396	-3.6437	-3.4042	-3.9125	-3.3937	-4.1021	-3.475	-3.5042	-4.1271	-3.5333	-3.625	-4.1062	-3.2625	-3.8625	140.680	120.255	214.258	160.055	-42.662	160.269	155.939	126.646	164.286	69.192	184.924	205.065	213.259	187.126	47.085	114.723	0.00045059	0.00050137	0.00018948	1354.2	3.371e-06	6.2269e-06	1355.3	368.69	4.8412e-06	5.6003e-06	420.29	139.04	121.38	41.797	4.7921e-06	51.548	0.00053187	0.00053311	0.00014348	1372.2	5.7077e-06	5.6715e-06	1372.2	374.03	5.8019e-06	5.833e-06	426.85	142.44	124.14	42.786	5.8786e-06	53.014	169.357	-34.582	-43.350	-117.345	-29.001	-2.736	-117.609	-112.851	-25.326	-8.970	-113.415	-109.688	-108.960	-104.063	21.006	-104.410	-8191	255	
692.359	1	1	0	0	0.10032	0.17196	0.14591	0.16881	0.28538	0.11676	0.34248	0.18855	0.079382	0.12167	0.23842	0.24923	0.19319	0.089323	0.1769	0.1439	-3.5271	-3.2875	-3.9938	-3.6646	-3.4729	-4.0917	-3.5396	-3.8896	-3.8771	-3.1396	-4.175	-3.7417	-3.2354	-4.2312	-3.35	-3.85	199.586	172.292	-3.517	-107.659	44.142	152.288	178.729	128.569	225.728	45.356	204.902	212.177	209.341	204.211	204.188	223.148	0.00044567	0.00055942	0.00013747	1355.3	2.3556e-06	7.3285e-06	1347.7	367.25	2.4046e-06	4.3786e-06	420.73	138.79	121.72	41.755	3.5787e-06	51.575	0.00051924	0.00051762	0.0001399	1367.9	5.7949e-06	5.5179e-06	1368.3	372.87	5.6056e-06	5.6649e-06	426.23	142.5	124	42.759	5.6768e-06	52.953	168.547	-51.168	-22.615	-117.490	-13.483	33.006	-117.525	-112.904	-6.273	11.161	-113.165	-109.668	-108.719	-104.017	-18.001	-104.694	-8191	255	
692.455	1	1	0	0	0.071657	0.062712	0.31307	0.33495	0.066438	0.14356	0.16979	0.19764	0.17576	0.10428	0.19747	0.30253	0.15681	0.09013	0.089307	0.074132	-3.7062	-3.1813	-3.8417	-3.9375	-3.3292	-4.125	-3.4521	-3.7562	-4.025	-3.2896	-4.1896	-3.5312	-3.2229	-4.2875	-3.4833	-3.6229	57.101	136.226	67.008	222.856	122.799	199.307	156.021	76.092	98.365	-18.329	-126.805	170.642	157.898	154.048	63.777	91.836	0.00047865	0.00062905	0.0001047	1361.2	4.0754e-06	5.1295e-06	1349.7	367.54	3.7557e-06	6.2678e-06	418.71	139.29	121.97	42.164	4.1828e-06	51.254	0.00051567	0.00053445	0.00014324	1371.4	5.7569e-06	5.4953e-06	1369.3	373.49	5.6698e-06	5.8782e-06	425.84	142.46	124.2	42.842	5.7565e-06	52.91	170.340	-46.501	-22.113	-117.418	-4.512	29.675	-117.646	-113.095	-9.829	34.698	-113.242	-109.623	-108.739	-103.868	-3.162	-104.667	-8191	255	
692.551	1	1	0	0	0.062919	0.10582	0.17272	0.3013	0.19465	0.10738	0.32171	0.13787	0.058239	0.11421	0.19833	0.10478	0.17218	0.1112	0.15141	0.033177	-3.6396	-3.1333	-3.9792	-4.1438	-3.2854	-4.0521	-3.5438	-3.5417	-4.0979	-3.4792	-3.9104	-4.0333	-3.2188	-4.3417	-3.675	-3.5687	102.762	93.493	-94.949	210.696	45.606	-14.791	190.854	96.471	125.426	216.230	165.469	180.694	169.341	142.725	-82.485	6.566	0.00045551	0.00034086	0.00010227	1356.6	5.1109e-06	4.8639e-06	1349.9	366.5	3.7185e-06	4.8314e-06	419.84	138.78	121.42	41.849	4.9058e-06	51.649	0.00052251	0.00051985	0.00014633	1368.9	5.83e-06	5.677e-06	1368.7	372.96	5.8973e-06	6.0043e-06	426.07	142.5	123.93	42.737	5.8748e-06	52.94	168.337	-64.362	-47.143	-117.337	-3.018	25.874	-117.615	-112.703	-22.443	20.591	-113.266	-109.887	-108.806	-103.747	9.025	-104.408	-8191	255	
692.672	1	1	0	0	0.18441	0.16561	0.10882	0.17087	0.0677	0.16681	0.12277	0.10929	0.047874	0.1159	0.12499	0.1411	0.13291	0.019761	0.19606	0.22649	-3.6667	-3.1958	-3.6708	-4.1	-3.0917	-4.2312	-3.8771	-3.4354	-4.1896	-3.3875	-3.825	-3.975	-3.475	-4.0604	-3.4	-3.45	-103.256	74.399	140.664	169.544	163.618	135.375	151.594	58.946	158.587	201.558	190.883	-71.396	-96.046	-123.187	179.228	147.654	0.00043764	0.00066922	0.00015451	1354.4	2.4247e-06	4.7205e-06	1351.9	367.19	1.9865e-06	4.7059e-06	419.64	139.63	121.28	41.808	3.7787e-06	51.425	0.00051605	0.00052766	0.0001498	1370.7	5.8421e-06	5.6652e-06	1368.9	373.2	5.7866e-06	5.9437e-06	426.35	142.68	124.1	42.848	5.8722e-06	52.955	170.278	-52.264	-31.878	-117.525	-38.975	2.730	-117.761	-112.991	-31.120	23.688	-113.148	-109.478	-109.019	-104.060	-3.475	-104.394	-8191	255	
692.768	1	1	0	0	0.078008	0.1439	0.11137	0.13529	0.18116	0.28745	0.15763	0.29102	0.10233	0.27788	0.092743	0.069822	0.12298	0.22594	0.10752	0.11929	-3.7	-3.2083	-3.3792	-3.8771	-3.3187	-4.0792	-4.1458	-3.5979	-3.8375	-3.3875	-3.6917	-4.0437	-3.3812	-3.9833	-3.6854	-3.25	187.802	112.305	24.459	200.269	151.984	138.294	158.019	185.806	126.079	-122.926	150.486	184.972	-66.904	218.145	133.756	179.292	0.00043158	0.00050888	0.00016671	1358.2	2.9225e-06	5.0334e-06	1352.1	367.14	2.3398e-06	3.3786e-06	419.98	139.62	121.23	41.79	3.3334e-06	51.471	0.00052758	0.00051977	0.00014464	1369.4	5.782e-06	5.5807e-06	1367.9	373.17	5.6646e-06	5.6898e-06	426.68	142.54	123.91	42.784	5.6068e-06	52.901	171.349	-33.814	-39.044	-117.581	-4.876	13.997	-117.725	-112.859	-30.631	-2.449	-113.517	-109.792	-108.602	-103.868	-5.834	-104.670	-8191	255	
692.864	1	1	0	0	0.066943	0.08815	0.12569	0.16229	0.22671	0.2003	0.31192	0.46219	0.031013	0.15366	0.14913	0.12452	0.15032	0.22437	0.19336	0.28229	-3.6771	-3.525	-3.4333	-4.1771	-3.2833	-3.725	-3.9688	-3.3729	-4.0938	-3.5167	-3.5375	-4.0771	-3.2438	-4.0208	-3.8792	-3.3583	-49.213	147.665	63.833	170.954	112.654	114.167	197.296	187.885	-8.456	96.523	209.897	141.201	90.319	-130.669	67.870	140.954	0.00039019	0.00037447	9.1485e-05	1357.3	3.6877e-06	7.6421e-06	1347.1	365.05	3.6776e-06	5.5171e-06	418.48	139.42	121.56	41.936	4.3549e-06	51.828	0.00050792	0.00051587	0.00014683	1370.1	5.7307e-06	5.7832e-06	1367.7	372.43	5.8456e-06	5.679e-06	425.21	142.64	124.1	42.885	5.5224e-06	52.92	167.448	-34.928	-45.319	-117.363	-9.801	13.336	-117.818	-112.888	-67.159	11.704	-113.123	-109.313	-108.853	-103.824	8.585	-104.426	-8191	255	
692.960	1	1	0	0	0.090762	0.10658	0.26062	0.25175	0.29379	0.088584	0.22917	0.24935	0.13142	0.20361	0.16138	0.26161	0.090745	0.11987	0.15489	0.10047	-3.7208	-3.5062	-3.3187	-4.2896	-3.225	-3.5229	-4.2729	-3.4333	-3.9792	-3.6729	-3.425	-3.9958	-3.6229	-3.7687	-4.0188	-3.4313	-74.513	-101.690	149.096	203.369	-20.449	151.296	189.527	-96.187	-108.221	43.194	176.880	177.715	182.856	-51.874	-67.415	35.256	0.0003825	0.00062088	0.00016231	1358.4	4.9389e-06	4.2321e-06	1355.8	367.3	4.792e-06	4.7949e-06	422.37	139.77	121.25	41.709	5.0466e-06	51.458	0.00050211	0.00051188	0.00014776	1371.1	5.7549e-06	5.6476e-06	1372.2	372.97	5.688e-06	5.6202e-06	426.87	142.61	123.94	42.754	5.734e-06	52.89	171.198	-33.174	-45.308	-117.384	-21.621	31.449	-117.782	-113.000	-41.383	5.820	-113.406	-109.403	-108.938	-103.674	-3.147	-104.435	-8191	255	
#DATA ENDS
