BOXY.EXE: ISS Imagent and Oximeter Data Acquisition Program Version 0.80
Ascii Record File

#ACQ INFORMATION
2  Detector Channels 
16  External MUX Channels 
1  Auxiliary Channels 
5000  Waveform (CCF) Frequency (Hz)
1  Waveforms Skipped 
30  Waveforms Averaged 
1  Cycles Averaged 
16  Acquisitions per Waveform 
10.0806  Updata Rate (Hz) 

#FILE INFORMATION
TRUE -- External MUX Channel results are PARSED.
FALSE -- AC DC and Phase are NOT grouped.
TRUE -- Companion Program Settings File CREATED.
FALSE -- AC data not excluded
FALSE -- DC data not excluded
FALSE -- Phase data not excluded
FALSE -- Auxillary Chn. data not excluded
Tab delimiters

#CALIBRATION STATE
TRUE -- Waveform Calibration Values APPLIED.


#AUX CALIBRATION VALUES
Val Type	aux-1	

Term	1.0000e+00	
Factor	0.0000e+00	


#WF CALIBRATION VALUES
A = Detector Channel
Val Type	A-AC1	A-AC2	A-AC3	A-AC4	A-AC5	A-AC6	A-AC7	A-AC8	A-AC9	A-AC10	A-AC11	A-AC12	A-AC13	A-AC14	A-AC15	A-AC16	A-DC1	A-DC2	A-DC3	A-DC4	A-DC5	A-DC6	A-DC7	A-DC8	A-DC9	A-DC10	A-DC11	A-DC12	A-DC13	A-DC14	A-DC15	A-DC16	A-Ph1	A-Ph2	A-Ph3	A-Ph4	A-Ph5	A-Ph6	A-Ph7	A-Ph8	A-Ph9	A-Ph10	A-Ph11	A-Ph12	A-Ph13	A-Ph14	A-Ph15	A-Ph16	

Term	0.00000e+00	0.00000e+00	0.00000e+00	0.00000e+00	0.00000e+00	0.00000e+00	0.00000e+00	0.00000e+00	0.00000e+00	0.00000e+00	0.00000e+00	0.00000e+00	0.00000e+00	0.00000e+00	0.00000e+00	0.00000e+00	0.00000e+00	0.00000e+00	0.00000e+00	0.00000e+00	0.00000e+00	0.00000e+00	0.00000e+00	0.00000e+00	0.00000e+00	0.00000e+00	0.00000e+00	0.00000e+00	0.00000e+00	0.00000e+00	0.00000e+00	0.00000e+00	0.00000e+00	0.00000e+00	0.00000e+00	0.00000e+00	0.00000e+00	0.00000e+00	0.00000e+00	0.00000e+00	0.00000e+00	0.00000e+00	0.00000e+00	0.00000e+00	0.00000e+00	0.00000e+00	0.00000e+00	0.00000e+00	
Factor	1.00000e+00	1.00000e+00	1.00000e+00	1.00000e+00	1.00000e+00	1.00000e+00	1.00000e+00	1.00000e+00	1.00000e+00	1.00000e+00	1.00000e+00	1.00000e+00	1.00000e+00	1.00000e+00	1.00000e+00	1.00000e+00	1.00000e+00	1.00000e+00	1.00000e+00	1.00000e+00	1.00000e+00	1.00000e+00	1.00000e+00	1.00000e+00	1.00000e+00	1.00000e+00	1.00000e+00	1.00000e+00	1.00000e+00	1.00000e+00	1.00000e+00	1.00000e+00	X	X	X	X	X	X	X	X	X	X	X	X	X	X	X	X	

B = Detector Channel
Val Type	B-AC1	B-AC2	B-AC3	B-AC4	B-AC5	B-AC6	B-AC7	B-AC8	B-AC9	B-AC10	B-AC11	B-AC12	B-AC13	B-AC14	B-AC15	B-AC16	B-DC1	B-DC2	B-DC3	B-DC4	B-DC5	B-DC6	B-DC7	B-DC8	B-DC9	B-DC10	B-DC11	B-DC12	B-DC13	B-DC14	B-DC15	B-DC16	B-Ph1	B-Ph2	B-Ph3	B-Ph4	B-Ph5	B-Ph6	B-Ph7	B-Ph8	B-Ph9	B-Ph10	B-Ph11	B-Ph12	B-Ph13	B-Ph14	B-Ph15	B-Ph16	

Term	0.00000e+00	0.00000e+00	0.00000e+00	0.00000e+00	0.00000e+00	0.00000e+00	0.00000e+00	0.00000e+00	0.00000e+00	0.00000e+00	0.00000e+00	0.00000e+00	0.00000e+00	0.00000e+00	0.00000e+00	0.00000e+00	0.00000e+00	0.00000e+00	0.00000e+00	0.00000e+00	0.00000e+00	0.00000e+00	0.00000e+00	0.00000e+00	0.00000e+00	0.00000e+00	0.00000e+00	0.00000e+00	0.00000e+00	0.00000e+00	0.00000e+00	0.00000e+00	-1.07286e+02	-1.33750e+02	-1.30724e+02	-1.82363e+02	-6.19824e+01	-6.62161e+01	-1.57848e+02	-1.62015e+02	-5.98885e+01	-6.91183e+01	-1.70843e+02	-1.70945e+02	-1.83296e+02	-1.76809e+02	-6.51458e+01	-1.49940e+02	
Factor	1.60289e-05	1.47158e-04	4.35422e-05	1.53391e-01	1.14493e-06	1.53336e-06	1.58280e-01	4.76737e-02	1.01461e-06	1.45935e-06	8.23878e-02	2.72771e-02	2.23222e-02	8.72536e-03	1.20848e-06	1.24093e-02	9.10509e-06	1.43128e-05	4.00729e-06	8.10904e-02	1.47627e-07	1.59585e-07	7.86080e-02	2.53910e-02	1.46793e-07	1.59995e-07	4.23457e-02	1.41041e-02	1.20320e-02	4.67646e-03	1.51879e-07	6.42207e-03	X	X	X	X	X	X	X	X	X	X	X	X	X	X	X	X	



#DISTANCE SETTINGS
A = Detector Channel
A-1	A-2	A-3	A-4	A-5	A-6	A-7	A-8	A-9	A-10	A-11	A-12	A-13	A-14	A-15	A-16	

2.5000e+00	3.0000e+00	2.5000e+00	3.0000e+00	2.0000e+00	3.0000e+00	1.5000e+00	3.0000e+00	3.0000e+00	3.0000e+00	3.0000e+00	3.0000e+00	3.0000e+00	3.0000e+00	1.5000e+00	3.0000e+00	

B = Detector Channel
B-1	B-2	B-3	B-4	B-5	B-6	B-7	B-8	B-9	B-10	B-11	B-12	B-13	B-14	B-15	B-16	

1.0000e+01	1.0000e+01	1.0000e+01	1.4400e+00	1.0000e+01	1.0000e+01	1.5100e+00	1.9400e+00	1.0000e+01	1.0000e+01	1.9900e+00	2.4900e+00	2.4100e+00	2.9000e+00	1.0000e+01	2.9800e+00	




#DATA BEGINS
time	group	step	mark	flag	A-AC1	A-AC2	A-AC3	A-AC4	A-AC5	A-AC6	A-AC7	A-AC8	A-AC9	A-AC10	A-AC11	A-AC12	A-AC13	A-AC14	A-AC15	A-AC16	A-DC1	A-DC2	A-DC3	A-DC4	A-DC5	A-DC6	A-DC7	A-DC8	A-DC9	A-DC10	A-DC11	A-DC12	A-DC13	A-DC14	A-DC15	A-DC16	A-Ph1	A-Ph2	A-Ph3	A-Ph4	A-Ph5	A-Ph6	A-Ph7	A-Ph8	A-Ph9	A-Ph10	A-Ph11	A-Ph12	A-Ph13	A-Ph14	A-Ph15	A-Ph16	B-AC1	B-AC2	B-AC3	B-AC4	B-AC5	B-AC6	B-AC7	B-AC8	B-AC9	B-AC10	B-AC11	B-AC12	B-AC13	B-AC14	B-AC15	B-AC16	B-DC1	B-DC2	B-DC3	B-DC4	B-DC5	B-DC6	B-DC7	B-DC8	B-DC9	B-DC10	B-DC11	B-DC12	B-DC13	B-DC14	B-DC15	B-DC16	B-Ph1	B-Ph2	B-Ph3	B-Ph4	B-Ph5	B-Ph6	B-Ph7	B-Ph8	B-Ph9	B-Ph10	B-Ph11	B-Ph12	B-Ph13	B-Ph14	B-Ph15	B-Ph16	aux-1	digaux	

1161.060	1	1	0	512	0.14911	0.097135	0.082931	0.14851	0.13453	0.13235	0.11498	0.070826	0.15179	0.31688	0.14269	0.3738	0.01005	0.066615	0.059375	0.16412	-2.8125	-4.0208	-3.8063	-3.2625	-3.9521	-3.5708	-3.7292	-4.1312	-3.4125	-3.9146	-4.0646	-3.4229	-4.1	-3.8229	-3.4208	-4.2521	172.867	93.217	139.855	-19.372	-142.233	99.192	-84.828	111.180	73.039	-90.555	101.486	152.813	-105.713	-11.696	188.149	123.850	0.00090092	0.002765	0.00074542	365.39	1.0506e-05	1.5983e-05	614.86	175.09	1.4222e-05	4.5163e-06	317.66	159.98	87.782	54.573	1.519e-05	97.158	0.025029	0.039085	0.011001	568.71	0.00040693	0.00044202	805.18	237.36	0.00040512	0.00044029	420.68	193.49	118.33	65.569	0.00043278	112.41	-137.842	106.398	34.882	-147.942	91.210	-83.164	-147.818	-142.662	-8.884	164.898	-145.151	-142.007	-141.036	-136.129	-5.211	-138.034	-8191	255	
1161.156	1	1	0	0	0.12349	0.080026	0.15578	0.4117	0.25419	0.15461	0.12428	0.12303	0.20955	0.19694	0.26784	0.097922	0.12573	0.33636	0.015057	0.11089	-2.7854	-3.6833	-3.9667	-3.4021	-3.9	-3.4917	-3.5042	-4.1646	-3.4667	-3.6354	-4.0563	-3.3937	-4.0354	-3.9958	-3.4833	-4.1792	-69.133	-47.898	116.352	112.238	-38.881	114.444	7.193	186.337	-36.324	-103.183	190.750	104.132	190.321	184.675	0.367	136.878	0.00088111	0.0028484	0.00055571	359.24	1.6236e-07	2.6116e-05	606.61	171.6	1.7611e-05	7.2673e-06	312.38	159.25	87.152	53.955	1.201e-05	97.025	0.026957	0.04263	0.012082	587.84	0.00045597	0.00049704	821.39	243.09	0.00046153	0.00050413	430.92	196.77	121.44	66.6	0.00047458	113.5	-133.954	-56.736	7.725	-147.599	106.295	-158.686	-148.178	-142.914	71.637	-128.138	-145.314	-141.663	-140.482	-136.256	-15.286	-138.178	-8191	255	
1161.252	1	1	0	0	0.25091	0.058059	0.11007	0.0754	0.14759	0.09784	0.19853	0.20243	0.22298	0.084654	0.12365	0.31704	0.17365	0.12	0.066154	0.041776	-3.2083	-3.6437	-4.1292	-3.4125	-3.9958	-4.0021	-3.4458	-4.2146	-3.4188	-3.4562	-4.2	-3.6104	-3.8896	-3.9979	-3.2583	-4.2771	-4.164	149.309	75.025	71.148	-54.298	97.745	124.000	53.716	-14.175	168.184	84.859	143.331	161.531	71.164	153.280	-148.906	0.00047861	0.0031359	0.00048326	351.85	1.5338e-05	1.6508e-05	591.98	168.26	1.1854e-05	2.3332e-05	307.38	159.6	88.794	55.341	6.3675e-06	97.178	0.028545	0.044297	0.012358	581.03	0.0004507	0.00048397	801.52	237.32	0.0004361	0.00047197	418.79	195.27	120.66	67.025	0.00044972	112.7	-142.364	-67.955	78.208	-146.897	0.530	-7.971	-147.636	-142.482	-43.364	127.557	-144.568	-141.367	-139.756	-135.831	-131.120	-137.662	-8191	255	
1161.348	1	1	0	0	0.081474	0.17733	0.33207	0.13148	0.089548	0.21961	0.18143	0.0087743	0.17135	0.12837	0.062961	0.2097	0.2114	0.10396	0.1609	0.22244	-3.4375	-3.5812	-4.0563	-3.5208	-3.9667	-3.7062	-3.5	-3.9875	-3.5625	-3.5667	-4.2479	-3.4813	-3.7125	-4.1562	-3.3187	-4.0563	147.295	186.802	159.291	153.255	-25.055	-140.482	136.340	94.429	22.570	-121.309	-115.254	133.262	195.680	121.184	-54.316	136.651	0.00083018	0.0016968	0.00087239	344.9	1.2302e-05	1.3963e-05	576.16	165.32	1.675e-05	1.1096e-05	298.14	156.31	88.23	54.245	3.7577e-06	95.851	0.027521	0.043221	0.012094	573.04	0.00044613	0.00048345	789.42	234.61	0.00044179	0.00047867	412.69	192.42	119.63	66.091	0.00043945	110.79	-134.381	-110.826	78.789	-146.947	154.411	102.713	-148.205	-143.368	65.664	-88.102	-144.961	-142.544	-141.267	-137.155	90.139	-138.484	-8191	255	
1161.444	1	1	0	0	0.17315	0.22234	0.11071	0.10066	0.098721	0.11945	0.21841	0.23332	0.12713	0.10775	0.20535	0.06417	0.14921	0.065746	0.15659	0.21415	-3.275	-3.3396	-4.0542	-3.4292	-3.5667	-4.0292	-3.4313	-4.0729	-3.7479	-3.4604	-4.2896	-3.6625	-3.5083	-4.1083	-3.2188	-3.9917	60.711	-15.777	155.128	40.547	-21.911	124.929	99.726	75.640	111.333	96.150	-87.912	-0.184	-157.613	192.315	-36.735	153.025	0.00039981	0.0018989	0.00041157	344.47	2.5812e-05	2.719e-05	576.32	169.69	1.2901e-05	2.0825e-05	308.77	162.49	91.205	56.653	1.4037e-05	99.398	0.026213	0.040904	0.011276	555.74	0.00041075	0.00044091	768.28	231.04	0.00039996	0.00043399	408.8	193.94	119.76	67.03	0.00040166	113.04	-124.552	-18.915	-89.287	-148.306	-24.505	51.004	-148.354	-143.530	11.933	-90.563	-145.017	-142.136	-140.776	-136.599	-67.428	-138.063	-8191	255	
1161.540	1	1	0	0	0.10004	0.16741	0.10888	0.25132	0.15838	0.16059	0.16889	0.11088	0.067252	0.044253	0.20383	0.1445	0.080222	0.26719	0.099754	0.28374	-3.4375	-3.4104	-4.0021	-3.4146	-3.4562	-4.0042	-3.5208	-3.8583	-3.8208	-3.2729	-4.3187	-3.6	-3.4875	-4.1792	-3.3875	-3.9688	121.313	-147.983	19.197	169.305	61.120	-102.779	158.754	165.139	-110.145	136.178	137.585	-106.227	-61.895	105.704	-15.114	165.003	0.00059077	0.00074702	0.00023699	352.85	1.0004e-05	1.2456e-05	586.03	176.45	3.8266e-06	1.6519e-05	319.63	167.11	94.509	57.982	1.7192e-05	101.62	0.024423	0.037533	0.010525	545.57	0.00038467	0.00041156	759.45	232.7	0.00037281	0.00040854	411.87	196.66	121.24	67.874	0.00038473	114.21	-150.224	-9.247	-82.583	-146.999	30.911	6.118	-147.610	-142.644	90.218	57.752	-144.714	-142.291	-141.699	-136.916	9.757	-138.712	-8191	255	
1161.661	1	1	0	0	0.12754	0.16048	0.12766	0.14053	0.18342	0.18069	0.19225	0.091125	0.1997	0.066679	0.18574	0.35907	0.21071	0.22573	0.21924	0.1296	-3.6333	-3.0667	-4.0375	-3.75	-3.5042	-4.0792	-3.3125	-3.8521	-3.9625	-3.3604	-4.1604	-3.8833	-3.2562	-4.225	-3.5896	-3.7875	-77.205	2.260	65.066	112.719	37.450	86.525	127.555	156.479	-77.197	-36.272	191.761	161.541	172.226	-89.152	67.813	17.460	0.00059529	0.0025937	0.00010485	358.13	1.5461e-05	2.5342e-05	587.65	177.83	1.7744e-05	1.2419e-05	317.85	163.96	92.763	56.757	1.007e-05	98.644	0.023265	0.036182	0.010089	542.6	0.00037237	0.00040458	760.07	234.27	0.00037334	0.00040935	411.35	194.8	120.39	66.782	0.00039738	111.93	-136.362	186.747	107.945	-146.471	52.745	126.612	-148.019	-143.086	84.505	132.536	-144.804	-141.851	-140.791	-136.064	-64.041	-138.200	-8191	255	
1161.755	1	1	0	0	0.25317	0.027667	0.18399	0.19538	0.091439	0.18258	0.23797	0.059157	0.039958	0.26904	0.19982	0.26801	0.27919	0.26756	0.10197	0.18732	-3.5375	-3.2979	-3.9562	-3.8792	-3.4688	-4.15	-3.5667	-3.7271	-3.9396	-3.3167	-4.0771	-3.9271	-3.4729	-4.0437	-3.5062	-3.6021	-130.882	130.035	-40.885	173.884	-44.427	-55.920	100.108	98.606	-26.263	-103.635	185.193	-148.976	160.643	142.809	101.636	127.448	0.00071297	0.0023057	0.00033095	354.7	1.4856e-05	4.798e-06	584.01	172.04	3.1315e-06	1.2626e-05	304.58	152.3	83.441	51.814	2.1048e-05	90.66	0.024357	0.038164	0.010762	556.34	0.00040483	0.00043737	777.59	234.77	0.00041095	0.00044849	410.29	186.49	114.71	62.98	0.00042741	105.98	-134.839	-89.372	-118.542	-147.423	69.675	-104.481	-148.578	-143.224	-122.601	-94.758	-144.976	-141.556	-140.198	-135.495	84.005	-137.677	-8191	255	
1161.851	1	1	0	0	0.10249	0.09321	0.14729	0.21188	0.067956	0.091808	0.31724	0.19655	0.19895	0.26648	0.22836	0.1241	0.10241	0.21127	0.083862	0.088754	-3.6979	-3.4062	-3.9479	-4.05	-3.3854	-4.1458	-3.7354	-3.5854	-4.1687	-3.4354	-3.9604	-4	-3.3104	-4.0813	-3.6833	-3.4188	145.442	111.051	56.465	40.368	-72.444	5.987	-97.330	24.212	7.360	131.276	129.962	197.047	-2.383	-105.320	-96.802	151.934	0.00090543	0.0010227	0.0007776	358.08	5.5227e-06	3.7462e-06	594.83	164.7	8.9244e-06	2.1907e-05	295.3	143.02	78.041	48.76	1.848e-05	87.766	0.02607	0.040876	0.011477	572.66	0.0004251	0.00046314	794.53	230.42	0.00042869	0.00047025	405.72	178.97	110.33	60.526	0.00044429	103.56	-128.628	-7.304	-3.410	-147.259	105.315	-64.734	-148.378	-143.508	-143.639	-20.510	-144.557	-141.899	-139.934	-135.835	55.355	-138.005	-8191	255	
1161.948	1	1	0	0	0.1198	0.18913	0.15547	0.058056	0.095566	0.13827	0.11888	0.22105	0.16211	0.12143	0.41456	0.11172	0.19896	0.026501	0.066476	0.21841	-3.7188	-3.525	-3.5187	-3.95	-3.2146	-3.9792	-3.7458	-3.3812	-4.0333	-3.4083	-3.6437	-4.0938	-3.275	-4.0083	-3.7562	-3.4271	92.991	-102.512	7.204	-24.509	-137.063	68.352	87.725	161.306	110.373	122.965	184.073	-109.510	-40.287	-132.342	96.106	166.456	0.00092276	0.0012851	0.00058738	361.96	7.7706e-06	5.267e-06	597.1	163.57	9.1444e-06	2.8439e-05	296.41	142.64	77.628	48.553	1.9801e-05	88.349	0.026905	0.042166	0.011863	582.6	0.00043918	0.00047648	806.4	232.25	0.00044424	0.00048599	410.68	180.93	111.54	61.113	0.00046807	104.98	-150.147	-8.772	11.957	-147.696	165.182	8.683	-149.233	-143.365	10.572	-36.053	-145.235	-141.696	-140.291	-135.905	-60.575	-138.029	-8191	255	
1162.044	1	1	0	0	0.11035	0.15028	0.14249	0.18041	0.25025	0.12715	0.11254	0.10057	0.17469	0.088089	0.14992	0.16386	0.034866	0.099073	0.019555	0.18622	-3.8021	-3.5521	-3.6333	-4.1583	-3.2396	-4.1562	-3.9229	-3.3979	-4.0458	-3.4833	-3.4625	-4.0771	-3.475	-3.9	-3.7729	-3.2729	-116.086	13.925	31.620	-140.706	-0.876	-110.372	-67.927	-113.488	-32.694	-25.553	-10.424	-147.547	-155.679	-142.709	-113.426	197.648	0.00072744	0.0006273	0.00054342	364.4	1.0503e-05	2.9472e-05	601.17	160.45	4.3714e-06	9.3699e-06	292.87	140.25	75.523	48.074	1.2775e-05	86.802	0.028493	0.044725	0.01256	599.58	0.00046347	0.00050211	821.35	233.46	0.00046197	0.00050218	414.23	180.18	111.52	61.038	0.00047993	104.01	-134.569	-157.618	163.242	-147.961	112.227	-43.001	-149.489	-143.256	48.290	-75.801	-145.261	-141.341	-140.087	-135.447	-83.000	-138.272	-8191	255	
1162.140	1	1	0	0	0.22563	0.11786	0.23907	0.28672	0.096945	0.024119	0.21257	0.18801	0.38381	0.02237	0.24942	0.12132	0.21731	0.17015	0.064111	0.42543	-3.4688	-3.4667	-3.4708	-4.1521	-3.3708	-3.7833	-3.9771	-3.2917	-4.1271	-3.6333	-3.5146	-4.2104	-3.3396	-3.9146	-3.8375	-3.3104	-98.859	91.924	-20.194	130.547	22.753	-131.941	-152.513	165.917	-48.179	77.812	173.808	-114.476	-118.290	143.145	-18.128	147.539	0.00073137	0.0014609	0.00049858	362.84	4.2237e-06	2.5663e-05	608.89	161.36	4.5744e-06	2.8024e-05	289.01	139.06	74.856	47.16	9.939e-06	85.331	0.02905	0.045648	0.012808	604.17	0.0004717	0.00051112	832.52	235.8	0.00047184	0.00051855	416.78	180.97	112.15	61.046	0.00049977	103.98	-141.757	-155.185	-152.646	-148.211	136.761	50.635	-149.003	-143.286	136.814	-35.782	-145.840	-141.622	-140.102	-135.546	-43.348	-137.835	-8191	255	
1162.261	1	1	0	0	0.22097	0.055373	0.22872	0.055344	0.15783	0.090646	0.14142	0.052293	0.085122	0.1297	0.10614	0.24589	0.075931	0.18742	0.11665	0.20675	-3.65	-3.6625	-3.2604	-4.2458	-3.3	-3.5583	-4.1417	-3.3729	-3.8812	-3.8812	-3.4292	-4.2146	-3.4708	-3.7479	-4.0917	-3.4583	-139.156	152.433	146.954	26.817	56.742	-33.294	78.921	-79.750	-134.118	-91.407	190.720	111.329	3.266	94.105	-101.375	122.489	0.00071087	0.0031454	0.00018268	363.62	7.2458e-06	2.5718e-05	609.13	158.79	3.543e-06	2.96e-05	290.51	139.1	74.422	46.804	2.07e-05	85.762	0.030557	0.047784	0.013428	615.73	0.00049262	0.00053208	841.61	235.69	0.00048481	0.00052678	417.39	180.4	110.84	60.37	0.00048632	103.57	-145.191	-53.162	-153.128	-148.187	118.298	60.702	-148.512	-143.522	119.343	-90.383	-145.076	-140.989	-139.902	-135.203	119.337	-137.990	-8191	255	
1162.357	1	1	0	0	0.033502	0.11346	0.047253	0.079897	0.14683	0.17897	0.15682	0.15399	0.09171	0.17294	0.18434	0.15691	0.056892	0.049356	0.14221	0.074508	-3.7021	-3.9521	-3.2667	-4.1771	-3.5271	-3.4542	-4.1438	-3.2354	-3.6937	-4.0146	-3.3333	-4.175	-3.6417	-3.4417	-3.9813	-3.5062	-54.753	2.499	-119.753	-148.485	167.297	-155.287	115.616	113.492	163.782	173.078	126.239	30.333	-87.648	-108.986	174.447	-26.016	0.00078203	0.00098911	0.00073484	366.65	3.5599e-06	2.0149e-05	606.92	158.63	1.2478e-05	1.6823e-05	290.48	139.3	74.425	46.879	2.9644e-05	85.215	0.029395	0.045888	0.012874	607.35	0.00047892	0.00051847	838.85	234.42	0.00047393	0.00051423	414.13	179.07	109.7	59.912	0.00047739	102.69	-144.461	26.463	-157.980	-147.830	67.956	-95.185	-148.944	-143.882	88.414	-67.921	-145.263	-140.943	-139.810	-135.503	-26.677	-137.889	-8191	255	
1162.453	1	1	0	0	0.1324	0.097792	0.03998	0.20881	0.1626	0.049302	0.17954	0.10568	0.053912	0.16086	0.20833	0.085799	0.048685	0.31556	0.050758	0.092839	-3.4167	-4.0646	-3.4437	-3.9229	-3.7271	-3.3063	-4.2979	-3.4271	-3.6583	-3.9896	-3.275	-3.975	-3.8125	-3.3667	-4.1521	-3.625	4.713	137.003	-36.136	48.412	13.295	160.907	190.806	-80.410	18.623	128.513	-41.964	107.125	25.310	183.047	76.685	146.167	0.00065677	0.0017382	0.00093441	365.56	8.968e-06	2.4066e-05	605.41	157.39	9.8649e-06	2.0853e-05	289.23	137.27	72.954	46.216	8.5498e-06	84.145	0.029138	0.045676	0.012878	605.89	0.00047513	0.00051629	833.25	231.97	0.00047422	0.00051673	410.84	177.84	109.39	59.628	0.00048693	101.86	-119.983	-111.921	-61.381	-147.943	121.158	-2.079	-148.527	-143.387	61.293	-51.876	-144.992	-140.910	-139.887	-135.398	26.226	-138.008	-8191	255	
1162.525	1	1	0	0	0.15914	0.04118	0.18963	0.17552	0.018328	0.20748	0.085375	0.16656	0.17941	0.20981	0.27331	0.076201	0.19599	0.20637	0.1819	0.33736	-3.2625	-3.9437	-3.3521	-3.8104	-3.7417	-3.3812	-4.1104	-3.3771	-3.4542	-4.0354	-3.3333	-3.875	-3.9021	-3.3312	-4.1417	-3.6542	11.812	81.268	117.274	83.831	184.480	19.942	-24.557	-60.178	195.248	144.622	101.486	176.193	193.273	175.928	-52.315	-152.981	0.00051893	0.0003837	0.00048708	367.72	7.0961e-06	1.8001e-05	607.66	155.5	1.1176e-05	1.3571e-05	282.57	134.91	72.411	45.747	1.7913e-05	82.772	0.029513	0.046151	0.012957	607.58	0.00048013	0.00052264	833.05	231.29	0.00047979	0.00052213	409.73	176.57	109.4	59.249	0.00049666	100.99	-97.854	-45.694	51.326	-148.701	-47.706	-123.431	-149.056	-143.192	-56.257	25.301	-145.148	-141.227	-139.901	-135.624	4.551	-138.019	-8191	255	
1162.643	1	1	0	0	0.15658	0.10111	0.075728	0.10932	0.16942	0.11679	0.11218	0.19059	0.20107	0.15883	0.1531	0.17145	0.31119	0.36773	0.19227	0.45411	-3.0375	-3.9875	-3.2271	-3.7458	-3.875	-3.2229	-4.1	-3.7396	-3.5146	-4.1625	-3.2917	-3.6854	-4	-3.1333	-3.8521	-3.8563	-106.264	98.876	183.950	115.355	156.007	99.779	153.687	119.838	95.369	142.018	120.422	-147.226	-132.985	-159.084	-10.935	170.507	0.0006524	0.00083737	0.00051699	359.96	1.8257e-05	2.6725e-05	602.36	152.48	1.131e-05	1.6649e-05	279.26	131.31	69.876	44.609	7.9885e-06	80.978	0.030257	0.047357	0.013288	610.68	0.00049181	0.00053629	835.64	231.54	0.00049982	0.00054683	413.29	176.66	109.71	59.123	0.00053448	100.78	-144.160	-4.115	123.241	-148.176	29.275	63.131	-148.790	-142.921	-130.394	112.522	-145.247	-141.156	-139.613	-135.314	-138.493	-137.612	-8191	255	
1162.740	1	1	0	0	0.16806	0.13024	0.18312	0.27897	0.35035	0.24831	0.15226	0.20444	0.1962	0.11522	0.30951	0.19977	0.020746	0.20652	0.2558	0.31088	-3.1146	-4.0437	-3.3792	-3.6771	-4.0792	-3.2771	-4.0646	-3.7313	-3.275	-4.0563	-3.4729	-3.525	-4.2146	-3.3042	-3.8042	-3.9208	-105.435	-131.228	85.675	-135.239	5.767	-11.809	179.385	-101.932	-137.567	-93.859	88.369	54.392	80.541	140.156	84.050	137.502	0.00062199	0.0048535	0.00046721	358.36	4.2918e-06	2.4591e-05	594.02	149.11	1.4367e-05	2.5388e-06	277.04	130.3	68.932	43.679	2.0075e-05	79.488	0.032458	0.050698	0.014276	628.07	0.00052747	0.0005691	850.68	232.69	0.00051819	0.00056681	413.78	175.9	109.31	58.488	0.00053552	99.558	-114.728	-84.573	190.100	-147.846	158.987	174.990	-148.377	-143.280	-55.340	-51.775	-144.709	-140.701	-138.951	-134.779	14.838	-137.774	-8191	255	
1162.836	1	1	0	0	0.18358	0.1217	0.045167	0.012645	0.34702	0.22344	0.085741	0.085969	0.1425	0.14834	0.22455	0.072041	0.25182	0.082189	0.16865	0.13508	-2.9437	-4.0479	-3.4625	-3.5229	-4.075	-3.2896	-4.0583	-3.9125	-3.3396	-4.0437	-3.6125	-3.55	-4.1708	-3.3042	-3.85	-3.9062	188.033	93.034	-15.848	-36.452	116.966	36.509	126.102	187.390	66.904	16.585	104.625	179.339	116.561	80.030	59.467	115.332	0.00059513	0.00043566	0.0003756	354.82	1.7782e-05	2.2801e-05	591.5	148.41	1.2194e-05	3.5254e-05	271.46	128.51	68.383	42.689	1.1807e-05	77.377	0.032581	0.050816	0.014319	627.6	0.0005269	0.0005717	849.79	233.59	0.00053519	0.00058453	415.37	176.41	110.63	58.544	0.00057178	99.251	-138.896	109.050	-103.087	-147.539	-128.928	54.532	-148.188	-142.989	29.560	-77.534	-144.644	-141.216	-139.846	-135.776	35.964	-137.888	-8191	255	
1162.932	1	1	0	0	0.13452	0.12603	0.13175	0.15118	0.18127	0.11069	0.21149	0.40755	0.24321	0.1387	0.0059367	0.10072	0.26057	0.10038	0.051315	0.22038	-2.875	-4.0292	-3.7021	-3.4021	-4.0188	-3.4583	-3.7438	-4.1896	-3.2354	-3.9521	-3.8729	-3.3917	-4.3688	-3.7104	-3.5625	-4.1562	64.194	89.547	-41.661	157.440	1.158	164.220	-111.061	50.490	79.220	-41.886	24.867	111.607	-112.993	64.416	-98.491	150.551	0.00061552	0.0017417	0.00058044	354.86	1.0737e-05	1.4079e-05	597.26	147.29	1.8168e-06	1.1269e-05	269.15	126.96	67.184	42	5.7165e-06	76.533	0.03451	0.054086	0.015089	642.73	0.00055343	0.0006012	860.92	234.78	0.00054874	0.00059892	416.71	175.44	110.15	57.955	0.00057007	98.49	-134.936	140.708	-140.427	-148.846	-51.848	-110.840	-149.325	-143.780	171.673	-40.693	-144.944	-141.169	-139.440	-135.713	35.312	-138.028	-8191	255	
1163.052	1	1	0	0	0.29038	0.087538	0.11935	0.24494	0.18067	0.17893	0.1261	0.01201	0.066705	0.13536	0.12072	0.10812	0.15891	0.24617	0.25349	0.10177	-2.9333	-3.8625	-3.7125	-3.3354	-4.1229	-3.55	-3.4854	-4.0833	-3.2792	-3.6896	-4.0312	-3.3187	-4.0479	-3.6188	-3.5708	-4.1188	45.409	64.795	50.509	122.075	-40.277	105.400	75.949	73.529	155.362	133.369	173.043	155.872	129.504	148.739	159.071	177.750	0.00086194	0.0007842	0.00089899	354.28	1.2452e-05	2.6214e-05	588.07	145	1.645e-05	2.2301e-05	271.04	125.93	66.282	40.955	1.9696e-05	76.041	0.034809	0.054581	0.015385	648.67	0.00057571	0.00062853	875.96	239.77	0.0005867	0.00064189	429.53	178.45	112.65	58.477	0.0006092	99.182	-122.221	70.251	65.995	-149.076	-45.024	146.831	-149.285	-143.786	-142.704	-125.596	-145.673	-141.168	-139.518	-135.531	-122.468	-138.049	-8191	255	
1163.124	1	1	0	0	0.089819	0.030713	0.28061	0.056465	0.20069	0.13146	0.28196	0.15582	0.13293	0.14105	0.11542	0.31262	0.20691	0.10677	0.15714	0.058048	-2.9854	-3.8563	-3.6542	-3.3292	-4.0354	-3.55	-3.6042	-4.1021	-3.3917	-3.8958	-4.0563	-3.4313	-4.0354	-3.6542	-3.4521	-4.2979	7.471	55.690	166.176	43.972	161.309	189.178	143.070	166.025	52.291	-66.390	69.087	156.873	-61.784	184.673	-10.093	162.362	0.00045856	0.0021764	0.00056077	349.55	6.9394e-06	3.1449e-05	592.23	143.35	3.6229e-06	8.6599e-06	268.13	123.54	65.203	39.785	2.5518e-05	73.553	0.036613	0.056924	0.015949	656.91	0.000584	0.00063448	878.1	237.02	0.00058003	0.0006339	424.18	175.34	110.35	56.831	0.00059801	95.851	-133.660	15.213	-26.285	-148.603	-49.656	7.124	-148.920	-143.417	-50.592	189.227	-145.158	-141.042	-139.450	-135.147	174.509	-137.774	-8191	255	
1163.220	1	1	0	0	0.12928	0.13684	0.25052	0.085466	0.13504	0.18787	0.066462	0.11276	0.070445	0.20597	0.11857	0.20175	0.24568	0.015004	0.28425	0.056082	-3.1146	-3.6417	-3.9021	-3.2667	-3.9146	-3.6979	-3.4146	-4.2521	-3.3917	-3.6229	-4.0875	-3.2208	-3.9958	-3.9333	-3.25	-4.2292	68.134	15.572	61.909	187.643	105.709	121.566	-23.996	-25.249	-137.142	154.929	95.573	187.701	55.544	-106.165	139.050	-130.741	0.00068887	0.0033965	0.00043866	350.05	1.8168e-05	2.9875e-06	582.83	137.52	3.8854e-06	2.3092e-05	257.12	117.63	60.366	36.593	2.9234e-05	66.987	0.035526	0.055208	0.015392	639.84	0.00055557	0.00059703	852.13	225.18	0.00053472	0.0005784	397.46	162.57	100.44	51.406	0.00051929	86.4	-146.212	-99.714	-84.356	-148.579	-9.108	150.765	-149.088	-143.079	-34.647	120.176	-145.287	-140.499	-139.518	-134.746	-73.355	-137.316	-8191	255	
1163.341	1	1	0	0	0.32857	0.11709	0.18982	0.32698	0.32114	0.063115	0.1349	0.15216	0.40484	0.14564	0.10622	0.33937	0.16696	0.14346	0.085277	0.17639	-2.9458	-3.5771	-4.1208	-3.4562	-3.9125	-3.8771	-3.3563	-4.1	-3.4313	-3.5375	-4.3083	-3.3729	-3.8625	-3.9833	-3.2188	-4.0687	-46.809	140.987	-42.026	191.597	102.870	155.394	120.081	-128.287	5.386	99.424	-42.610	162.651	80.831	84.074	-19.958	-109.817	0.00053529	0.00213	0.0005428	337.02	1.6518e-05	2.3003e-05	563.15	125.76	3.224e-06	8.0708e-06	236.17	108.65	54.754	34.081	2.064e-05	63.303	0.030534	0.047312	0.013081	578.64	0.00047018	0.00050369	780.57	199.81	0.00046139	0.00050438	359.84	149.92	92.363	48.069	0.00051068	83.218	-123.151	-56.092	28.139	-148.508	-131.041	54.779	-148.657	-142.558	-25.570	84.068	-144.499	-140.482	-138.821	-134.589	-8.305	-137.054	-8191	255	
1163.437	1	1	0	0	0.14462	0.097869	0.10243	0.24536	0.050953	0.10992	0.11186	0.19696	0.2426	0.23203	0.10085	0.18282	0.20964	0.11128	0.22078	0.11185	-3.3208	-3.3042	-4.2146	-3.2771	-3.7812	-3.9188	-3.4792	-3.9875	-3.7042	-3.4375	-4.2292	-3.4854	-3.6521	-4.0792	-3.4979	-4.1875	-95.768	192.747	-150.817	111.124	23.658	7.318	136.817	155.836	-49.161	-83.154	59.810	-125.720	168.520	32.468	5.189	77.240	0.00033714	0.0005954	0.00029757	329.51	1.9649e-05	1.2894e-05	553.64	124.45	5.9921e-06	2.11e-05	237.1	112.84	58.16	33.023	2.2666e-05	65.391	0.031966	0.051221	0.014581	617.03	0.00057754	0.00065967	877.58	238.31	0.00072792	0.0008399	465.15	193.14	132.79	63.662	0.0010799	111.5	-119.227	-34.074	-145.126	-146.817	-71.979	139.548	-149.682	-143.001	-16.547	-39.613	-144.518	-140.804	-139.141	-134.405	-7.348	-137.289	-8191	255	
1163.533	1	1	0	0	0.062439	0.075612	0.33297	0.037623	0.10662	0.11984	0.17388	0.22864	0.18594	0.068516	0.29952	0.36697	0.11436	0.20185	0.23517	0.032796	-3.3792	-3.2771	-4.0938	-3.5667	-3.7104	-4.1813	-3.4396	-4.1188	-3.7917	-3.5333	-4.2167	-3.6937	-3.6771	-4.275	-3.3708	-4.0021	128.429	191.656	2.237	-101.682	78.601	183.606	146.819	65.820	-16.759	66.653	133.325	193.715	102.360	-116.824	125.414	87.570	0.0005169	0.0032277	0.00071267	323.18	3.0043e-05	4.0105e-05	565.67	132.59	1.0151e-05	1.355e-05	254.79	127.55	65.993	38.258	8.9939e-06	76.064	0.070935	0.11594	0.033542	1006.8	0.0012957	0.0014282	1261.1	360.88	0.001366	0.001513	652.71	261.47	181.8	82.769	0.0014876	137.69	-130.290	-20.534	194.725	-147.606	-119.690	90.486	-149.148	-142.621	18.486	-10.435	-144.674	-141.914	-139.941	-135.601	93.588	-137.879	-8191	255	
1163.654	1	1	0	0	0.17168	0.16287	0.062024	0.27193	0.15307	0.058695	0.10207	0.12998	0.17438	0.20226	0.096943	0.22048	0.13359	0.21418	0.020145	0.40752	-3.5146	-3.2104	-3.9437	-3.6833	-3.35	-4.0437	-3.3937	-4.0229	-3.8042	-3.4208	-4.2896	-3.7854	-3.525	-4.2167	-3.4896	-4.0062	51.864	-96.843	-116.105	72.674	-141.810	-61.782	-137.594	-143.228	-77.912	109.272	177.950	188.707	-94.090	159.576	165.252	185.274	0.00063317	0.0013793	0.00042211	341.76	2.6662e-05	3.2606e-05	587.71	140.35	1.683e-05	3.9035e-05	268.08	137.39	71.798	40.795	2.8442e-05	80.586	0.090128	0.14228	0.03992	1135.8	0.0014839	0.0016187	1369	395.25	0.0015174	0.0016702	707.9	283.39	198.85	89.897	0.0016521	149.07	178.647	-73.430	-159.536	-148.036	190.780	-102.600	-148.509	-143.192	174.968	-33.513	-144.476	-141.297	-139.786	-135.507	158.559	-138.571	-8191	255	
1163.748	1	1	0	0	0.14463	0.13596	0.16364	0.07876	0.026774	0.07211	0.035241	0.2223	0.083381	0.13765	0.20654	0.14163	0.3044	0.22002	0.12373	0.24174	-3.85	-3.3708	-4.1	-3.7542	-3.4979	-4.0792	-3.5187	-3.7604	-4.0854	-3.4917	-4.0396	-3.9562	-3.5667	-4.35	-3.7333	-3.875	115.669	-43.426	116.948	144.017	-40.176	116.411	16.355	196.847	-31.275	152.385	88.255	104.278	195.905	-135.001	108.103	22.710	0.00036816	0.0060942	0.00060822	346.84	1.5523e-05	3.8976e-05	607.26	141.37	1.7009e-05	4.496e-05	280.35	138.18	71.405	39.98	2.7884e-05	80.845	0.10038	0.15836	0.044683	1238.6	0.0016495	0.0017855	1462.2	420.46	0.0016367	0.0017885	741.86	291.5	203.55	90.619	0.001659	148.44	197.883	-123.219	-75.660	-147.740	-116.971	-146.421	-148.737	-143.095	47.276	113.313	-145.492	-141.911	-140.018	-135.592	-91.732	-138.432	-8191	255	
1163.820	1	1	0	0	0.037448	0.33607	0.19786	0.13557	0.13563	0.14717	0.26499	0.10376	0.28403	0.12436	0.21466	0.23758	0.18939	0.23994	0.048441	0.16474	-3.8042	-3.3771	-4.0687	-4.025	-3.5375	-4.0792	-3.6667	-3.6292	-3.9021	-3.4083	-3.9146	-3.925	-3.375	-4.0292	-3.7729	-3.6833	-65.638	-7.643	-95.045	91.980	178.566	183.830	-63.820	-68.243	121.432	4.113	-116.363	14.874	-135.028	-84.188	-34.457	136.480	0.0008476	0.0038819	0.00058554	351.68	3.1838e-05	2.36e-05	599.06	141.76	2.8815e-05	4.2428e-05	280.51	138.01	73.195	41.512	1.1986e-05	81.145	0.098249	0.15303	0.042359	1183.3	0.0015178	0.0016109	1357.6	383.2	0.0013947	0.0014923	653.55	260.78	175.8	80.549	0.0012853	132.49	-111.405	-91.137	-85.023	-147.217	2.690	95.334	-148.850	-142.729	78.611	-33.840	-144.557	-141.171	-139.627	-135.308	-80.513	-137.704	-8191	255	
1163.941	1	1	0	0	0.058563	0.067821	0.075709	0.097776	0.10497	0.23052	0.061592	0.12533	0.14672	0.043573	0.072264	0.2409	0.10691	0.23707	0.33839	0.16126	-3.8542	-3.2792	-3.8708	-4.1729	-3.3229	-4.0312	-3.6396	-3.6479	-4.1	-3.2479	-3.9062	-4.2	-3.5167	-4.1833	-3.7458	-3.55	-20.410	39.937	13.622	141.517	-148.901	-105.621	68.647	187.483	135.690	-136.370	198.950	91.927	181.295	165.055	113.941	120.904	0.0007982	0.0030988	0.00051726	345.09	1.1234e-05	1.2751e-05	577.71	140.65	1.1943e-05	2.6366e-05	269.53	138.42	73.628	42.833	2.3339e-05	82.244	0.074063	0.11385	0.031202	942.84	0.0011011	0.0011695	1123.1	315.14	0.0010332	0.0011156	555.31	231.76	154.79	74.037	0.0010526	124.86	-150.448	-41.519	30.713	-147.108	86.178	156.289	-148.009	-142.860	29.563	94.428	-144.477	-140.857	-139.509	-135.037	1.509	-137.270	-8191	255	
1164.037	1	1	0	0	0.064962	0.089004	0.22583	0.084319	0.068264	0.13567	0.18741	0.20626	0.18422	0.098968	0.091657	0.24131	0.13189	0.19578	0.027569	0.21047	-3.775	-3.2	-3.6063	-3.9562	-3.3333	-3.8833	-3.7458	-3.5979	-4.2479	-3.4375	-3.6854	-4.1833	-3.1958	-4.0625	-3.9021	-3.5625	-90.221	-146.647	1.603	-79.958	-134.694	-65.124	135.965	192.419	-97.980	149.002	113.878	131.126	144.726	190.219	-61.590	176.486	0.00059618	0.0020722	0.0004577	347.5	1.4366e-05	2.8313e-05	583.14	144.61	1.4085e-05	3.8181e-05	274.83	141.99	76.513	44.184	2.0442e-05	83.682	0.063941	0.10064	0.028252	898.82	0.0010488	0.001136	1120.2	320.41	0.0010565	0.0011577	571.29	240.45	161.37	77.024	0.001107	128.54	-116.095	-1.675	40.829	-147.324	-20.263	45.137	-148.126	-142.917	4.713	-99.883	-144.585	-141.521	-140.094	-135.608	-81.025	-137.977	-8191	255	
1164.133	1	1	0	0	0.12565	0.088808	0.19748	0.25442	0.068752	0.09555	0.049928	0.083537	0.19124	0.052527	0.10109	0.18838	0.12531	0.29956	0.090685	0.25449	-3.7188	-3.475	-3.5583	-3.9979	-3.4229	-3.9271	-3.9896	-3.5708	-4.0458	-3.6958	-3.4354	-4.225	-3.4854	-3.9688	-3.8521	-3.3708	-36.410	97.400	150.303	-146.473	-95.983	-137.400	158.713	127.972	-95.244	56.770	-38.728	164.529	6.594	131.720	124.839	190.817	0.00041153	0.0020667	0.00076541	341.8	2.0319e-05	3.0084e-05	589.38	145.86	1.1182e-05	5.8974e-06	278.31	144.41	77.684	44.751	2.2031e-05	84.618	0.066861	0.10539	0.029566	929.37	0.0010925	0.0011909	1154.6	331.15	0.0011092	0.001215	591.91	248.47	167.25	79.447	0.0011721	132.23	-151.218	25.135	0.969	-147.778	-62.289	-53.410	-149.066	-143.188	-118.634	-141.154	-145.142	-141.623	-139.897	-135.419	-136.519	-138.049	-8191	255	
1164.229	1	1	0	0	0.16413	0.10869	0.14707	0.26621	0.16655	0.19202	0.26017	0.13218	0.059782	0.088338	0.15786	0.27384	0.27011	0.15654	0.090214	0.19263	-3.675	-3.7083	-3.375	-4.2417	-3.4125	-3.7062	-4.2146	-3.2354	-4.0062	-3.6396	-3.4667	-4.175	-3.4604	-3.7875	-4.0583	-3.5021	174.053	110.456	-25.046	118.090	53.061	-3.964	-160.887	93.319	197.358	-74.823	138.995	163.296	186.781	-132.072	65.212	145.831	0.00029188	0.0021359	0.00070162	349.02	9.933e-06	4.6669e-05	592.86	147.31	1.6792e-05	1.3852e-05	280.57	145.51	77.708	44.84	3.0908e-05	84.761	0.070956	0.11175	0.031454	968.92	0.0011646	0.0012646	1189.6	341.78	0.0011629	0.0012679	607.21	253.21	170.92	80.641	0.0012075	133.98	-158.132	-9.230	83.108	-147.800	-101.648	132.831	-148.754	-143.262	106.533	-55.053	-143.912	-141.519	-139.955	-135.086	-91.873	-138.423	-8191	255	
1164.350	1	1	0	0	0.075154	0.17721	0.073742	0.14942	0.23142	0.11294	0.097553	0.10521	0.11915	0.04002	0.26681	0.0731	0.19781	0.19956	0.2474	0.18519	-3.6437	-3.8292	-3.2542	-4.1646	-3.5938	-3.6833	-4.2979	-3.3479	-3.9854	-3.8021	-3.2729	-4.1458	-3.6125	-3.7208	-4.0271	-3.575	15.359	-31.831	-157.862	50.747	6.403	132.056	55.003	198.801	112.680	62.344	-124.475	-110.354	176.142	-152.318	151.816	189.052	0.00055808	0.0031687	0.0011986	351.24	2.7656e-05	1.7861e-05	589.72	145.08	2.9596e-05	2.2354e-05	275.56	144.89	77.65	44.384	6.1738e-06	84.248	0.072259	0.11381	0.031707	972.62	0.0011617	0.0012572	1182	339.81	0.0011427	0.0012402	596.18	249.19	166.99	78.787	0.0011465	130.57	-93.521	-55.956	-81.572	-147.580	-55.649	-90.183	-149.098	-142.348	-91.703	-11.022	-145.151	-141.363	-139.505	-135.058	-50.777	-138.068	-8191	255	
1164.421	1	1	0	0	0.12257	0.15876	0.014548	0.040403	0.10174	0.13987	0.1586	0.12329	0.052345	0.1602	0.14704	0.1992	0.08488	0.15714	0.017106	0.21859	-3.5771	-3.95	-3.3458	-4.1271	-3.6146	-3.5938	-4.2458	-3.5208	-3.7896	-4.0583	-3.45	-4.0958	-3.875	-3.4604	-4.1958	-3.5563	-146.253	168.751	65.706	3.156	-143.740	83.299	-69.277	137.615	-31.431	-70.040	-104.499	-41.612	-126.118	163.869	-133.383	184.859	0.00098557	0.0018346	0.00044079	345.85	1.63e-05	3.3182e-05	581.88	147.34	3.292e-05	2.1205e-05	280.9	144.6	78.039	44.806	2.9017e-05	84.922	0.068233	0.10656	0.029788	931.78	0.0010942	0.0011829	1136.4	328.81	0.001078	0.0011717	579	243.99	162.89	77.235	0.0010887	128.24	-141.486	85.383	-41.556	-147.536	114.746	4.284	-149.332	-143.172	-25.053	-3.214	-145.157	-141.556	-140.401	-135.693	-96.668	-138.824	-8191	255	
1164.517	1	1	0	0	0.068008	0.16233	0.24197	0.046284	0.13665	0.054506	0.050337	0.34885	0.086966	0.037255	0.16651	0.033838	0.13173	0.11992	0.087734	0.28622	-3.3563	-3.9771	-3.0021	-3.9917	-3.5625	-3.4271	-4.225	-3.5292	-3.4646	-3.9167	-3.3729	-4.1083	-3.85	-3.5062	-4.1562	-3.7208	-40.273	109.257	77.129	-71.302	75.341	171.987	-39.337	127.584	158.994	54.952	-15.799	-31.884	108.716	142.992	151.297	98.508	0.00079628	0.0018639	4.8555e-05	345.57	7.9378e-06	2.1822e-06	581.28	146.67	3.0941e-05	2.356e-05	280.15	144.82	77.167	44.328	1.4294e-05	84.101	0.064796	0.1009	0.028171	896.76	0.0010369	0.0011255	1114.3	322.06	0.001049	0.0011532	576.19	244.21	163.9	77.598	0.0011285	129.73	-143.301	15.280	194.186	-148.968	-97.738	-52.615	-149.596	-143.778	-29.100	18.841	-145.411	-142.205	-140.303	-136.013	-21.468	-138.763	-8191	255	
1164.614	1	1	0	0	0.2095	0.14926	0.067882	0.17369	0.040692	0.21338	0.08913	0.18321	0.091397	0.15961	0.1407	0.080202	0.10862	0.20236	0.10945	0.24795	-3.1354	-3.9521	-3.2833	-3.9792	-3.8271	-3.3708	-4.1375	-3.6688	-3.5396	-4.1125	-3.3	-4.0188	-3.9979	-3.3833	-3.9167	-3.7396	-51.412	108.430	122.575	-69.319	-34.291	-34.093	165.109	7.070	57.014	157.072	-118.591	-88.599	-106.285	70.711	-32.257	84.421	0.00067678	0.0026144	0.00080906	340.6	3.6495e-05	2.4645e-05	582.34	147.11	2.0617e-05	3.3796e-05	275.25	143.49	77.254	43.463	1.7556e-05	82.143	0.068375	0.10786	0.03045	950.88	0.0011343	0.0012306	1167.4	337.19	0.0011285	0.0012258	589.33	245.74	165.26	77.429	0.0011328	127.56	-153.031	141.778	-122.505	-148.691	50.002	-32.101	-149.662	-143.880	52.960	103.357	-146.281	-141.809	-140.465	-136.245	134.097	-139.306	-8191	255	
1164.732	1	1	0	0	0.19973	0.095228	0.10152	0.12785	0.12192	0.076398	0.12538	0.15611	0.21129	0.14156	0.074284	0.15375	0.17717	0.18997	0.22375	0.15485	-2.85	-4.1917	-3.3417	-3.9313	-4	-3.3083	-4.0896	-3.775	-3.275	-4.1188	-3.5125	-3.6208	-3.9375	-3.4167	-4.0125	-3.9562	148.829	-80.851	153.839	182.400	16.993	159.445	-69.371	164.535	-121.960	25.457	84.258	-161.082	136.439	173.548	51.470	151.169	0.00052784	0.0041546	0.00055048	334.31	3.0752e-05	2.4685e-05	569.02	145.02	1.9634e-05	5.2324e-05	270.31	139.46	75.584	43.451	9.1614e-06	81.046	0.066891	0.10405	0.029032	904.07	0.0010454	0.0011267	1100.9	315.05	0.0010102	0.00109	545.07	229.56	152.3	72.412	0.00097663	119.55	-125.675	108.405	-28.311	-149.227	4.518	14.796	-149.286	-144.088	-86.818	-15.119	-145.740	-141.948	-140.484	-135.894	-85.421	-138.881	-8191	255	
1164.829	1	1	0	0	0.363	0.075119	0.24231	0.37876	0.30681	0.10262	0.22444	0.14012	0.059965	0.22324	0.24917	0.1778	0.13169	0.054145	0.067727	0.327	-3.0604	-3.9979	-3.4271	-3.7667	-4.1917	-3.3771	-3.8375	-3.7958	-3.3771	-4.1	-3.6167	-3.6833	-4.1438	-3.2458	-3.9208	-3.9208	96.305	87.934	-72.320	143.413	-38.985	66.147	112.215	-121.842	178.757	60.505	125.013	-150.983	146.611	-49.955	182.107	137.385	0.00052479	0.0026561	0.0015456	342.66	4.6378e-06	1.6372e-05	571.66	145.44	7.0156e-06	2.973e-05	270.42	136.09	73.934	43.281	1.7674e-05	80.308	0.057475	0.089221	0.024804	817.82	0.00089479	0.00095805	1013	288.48	0.00085688	0.0009296	502.29	212.38	139.62	68.051	0.00085	113.64	-141.896	-155.887	-59.889	-148.879	108.866	123.890	-149.269	-144.074	-44.352	-4.511	-145.773	-141.435	-140.442	-136.163	137.436	-138.898	-8191	255	
1164.925	1	1	0	0	0.10596	0.073012	0.31728	0.36822	0.026581	0.027717	0.21461	0.20625	0.20029	0.066226	0.1484	0.05582	0.1969	0.32337	0.11638	0.10173	-3.0229	-4.1438	-3.5583	-3.5208	-4.1292	-3.3125	-3.7146	-3.8688	-3.1729	-4.2208	-3.6896	-3.6	-4.1604	-3.4729	-3.7125	-4.0833	-104.944	100.957	140.614	162.184	111.768	173.834	-107.165	156.956	154.412	193.201	168.223	186.687	165.260	162.767	-11.560	150.756	0.001058	0.0014535	0.00074437	337.56	1.2233e-05	3.1799e-05	568.09	142.6	1.0719e-05	1.207e-05	266.62	133.81	73.163	43.987	1.5537e-05	81.379	0.050643	0.078593	0.021827	759.02	0.00078664	0.00084299	949	267.25	0.00073988	0.00079642	463.51	198.09	128.63	64.872	0.00072537	109.15	-128.337	-67.487	44.355	-149.100	-4.707	-7.170	-149.286	-143.900	-122.657	-151.501	-145.503	-141.593	-140.751	-135.935	-103.753	-138.591	-8191	255	
1165.021	1	1	0	0	0.052074	0.15684	0.27494	0.10421	0.14171	0.026873	0.1518	0.27868	0.097088	0.12395	0.04415	0.28851	0.12164	0.2563	0.17011	0.02212	-2.9854	-4.0875	-3.6479	-3.4729	-3.9229	-3.4938	-3.8896	-4.0396	-3.1937	-3.9396	-3.8333	-3.3646	-4.1813	-3.5979	-3.6312	-4.1562	52.422	-68.054	-40.287	-77.886	-14.956	155.880	-151.118	90.225	100.139	41.328	-48.044	143.783	-137.795	186.258	141.177	35.505	0.00071014	0.0020992	0.00025658	333.89	1.456e-05	8.66e-06	565.66	144.08	1.8094e-05	5.793e-06	267	134.95	74.336	45.254	2.6877e-05	83.452	0.04289	0.066942	0.018626	695.02	0.00067938	0.0007327	898.14	254.5	0.00066761	0.00072076	446.82	193.32	124.57	63.999	0.00064647	107.38	-134.437	-54.175	158.658	-149.021	-45.022	-40.303	-149.230	-143.504	-37.371	148.165	-145.759	-141.918	-140.164	-136.344	-161.141	-138.627	-8191	255	
1165.117	1	1	0	0	0.099448	0.078611	0.045537	0.042699	0.05471	0.050356	0.3546	0.075227	0.11094	0.24806	0.056146	0.25803	0.090973	0.084697	0.13314	0.045181	-2.9271	-4.0646	-3.8229	-3.2833	-4.0583	-3.4833	-3.4896	-4.1208	-3.4208	-3.8833	-3.9167	-3.4083	-4.1896	-3.5208	-3.3688	-4.3104	-30.102	-54.467	130.889	-75.645	-91.033	-57.205	173.913	-12.130	114.853	-58.768	-39.148	90.130	191.595	146.667	193.761	189.472	0.00059012	0.0026513	0.00036127	335.68	1.7735e-05	1.6867e-05	567.23	148.92	2.3533e-05	1.1571e-05	272.97	139.6	77.416	48.702	7.1902e-06	87.502	0.037543	0.057566	0.015743	633.83	0.00055492	0.00058886	825.8	234.06	0.00051521	0.0005532	406.54	182.46	114.67	62.145	0.00049458	105.58	-144.185	-90.296	181.474	-147.955	-78.135	-76.715	-149.186	-143.818	-64.917	56.712	-145.554	-141.617	-140.407	-135.910	192.678	-138.420	-8191	255	
1165.213	1	1	0	0	0.14843	0.02987	0.18312	0.1283	0.23143	0.2393	0.08002	0.12974	0.034985	0.15916	0.028275	0.25442	0.051394	0.11967	0.29307	0.1278	-2.8771	-3.7438	-3.7958	-3.225	-3.9813	-3.4979	-3.4146	-4.0833	-3.4021	-3.6854	-4.1104	-3.4479	-4.0271	-3.9083	-3.3271	-4.1542	-158.088	47.854	10.499	117.911	78.485	-134.583	-152.794	33.473	-27.903	-64.308	16.892	129.964	-52.892	169.546	-94.245	-113.691	0.00073113	0.002349	0.00035702	347.37	3.2009e-05	2.4759e-05	579.7	159.35	1.5829e-05	2.144e-05	290.7	151.55	84.578	52.203	1.1187e-05	94.06	0.029208	0.04497	0.012458	578.25	0.00044849	0.00047809	785.33	227.89	0.0004304	0.00046376	399.79	186.35	116.12	63.531	0.0004289	108.75	-137.834	-49.753	-56.793	-148.031	10.185	-6.045	-149.005	-143.447	-62.910	-100.516	-145.533	-142.002	-141.044	-136.303	8.208	-138.555	-8191	255	
1165.334	1	1	0	0	0.26207	0.19973	0.072593	0.099398	0.15722	0.21275	0.39649	0.063609	0.036657	0.15517	0.078078	0.20828	0.15832	0.21375	0.34092	0.078749	-3.1542	-3.6833	-4.0521	-3.3396	-3.9688	-3.8479	-3.4167	-4.1104	-3.4375	-3.5	-4.2042	-3.425	-3.8875	-4.0542	-3.3104	-4.1229	62.924	-24.083	132.240	69.366	102.696	38.735	111.748	-115.268	-15.912	-19.833	80.732	176.595	147.183	181.381	71.008	0.722	0.00069245	0.0034935	0.00032495	349.8	6.6644e-06	2.9362e-05	580.01	168.97	1.4394e-05	1.4688e-05	302.86	159.42	89.025	54.339	1.1823e-05	96.864	0.025707	0.040206	0.011245	561.26	0.0004175	0.00045586	779.86	235.72	0.00042978	0.00047289	414.6	195.23	122.1	66.483	0.00045333	112.7	-154.007	-89.499	-108.693	-147.797	-141.999	81.457	-148.987	-143.690	-45.894	38.644	-145.983	-142.423	-141.240	-136.684	-82.854	-138.708	-8191	255	
1165.430	1	1	0	0	0.15242	0.15425	0.19578	0.1111	0.02753	0.19905	0.21724	0.15647	0.19368	0.050837	0.23763	0.11575	0.38534	0.2039	0.1408	0.24912	-3.075	-3.4833	-4.1958	-3.1312	-3.8063	-3.9813	-3.3292	-4.1062	-3.6729	-3.4479	-4.0833	-3.2979	-3.7438	-4.0979	-3.1604	-4.225	94.069	-147.556	184.546	171.343	-38.196	76.674	-133.153	156.055	-94.771	39.870	161.623	-137.862	154.640	-123.559	48.516	114.318	0.00065231	0.0037502	0.00030336	355.52	1.4977e-05	1.7521e-05	588.09	175.62	5.7575e-06	1.0683e-05	312.66	163.66	93.105	56.78	9.5197e-06	99.255	0.027039	0.041811	0.01154	566.32	0.00041175	0.00044121	775.34	236.36	0.00039361	0.00042615	411.35	195.69	121.43	66.623	0.00039859	112.59	185.870	-53.755	-98.676	-148.543	-28.989	-15.046	-148.508	-143.771	-35.376	12.542	-145.769	-142.622	-141.320	-136.341	6.517	-138.493	-8191	255	
1165.526	1	1	0	0	0.049378	0.076081	0.13425	0.086303	0.083928	0.1299	0.16599	0.079004	0.25822	0.14929	0.11382	0.12337	0.27296	0.17319	0.12455	0.2003	-3.1688	-3.2854	-4.0417	-3.3937	-3.7042	-3.9271	-3.4229	-3.9188	-3.6729	-3.475	-4.2479	-3.5062	-3.7438	-4.0854	-3.2687	-4.0687	-47.420	54.877	-159.116	-114.920	-75.951	169.503	109.906	118.892	71.355	32.959	39.488	190.604	-51.134	113.612	153.309	81.963	0.00075821	0.0014246	0.0015553	358.33	8.865e-06	2.3922e-05	591.48	176.1	5.8919e-06	3.6145e-05	308.91	161.74	91.34	55.374	1.2339e-05	97.585	0.024111	0.037742	0.010545	552.37	0.00039003	0.00042038	770.33	235.83	0.00038445	0.00041991	406.49	193.08	119.34	65.738	0.00039675	111.16	-155.390	-3.801	-9.352	-147.717	-53.794	-81.736	-148.535	-143.578	49.232	-17.735	-145.269	-142.483	-140.747	-136.300	3.816	-138.406	-8191	255	
1165.622	1	1	0	0	0.087575	0.11866	0.23083	0.37717	0.15934	0.1904	0.1652	0.20218	0.0487	0.076081	0.17515	0.36608	0.11933	0.16548	0.13443	0.24515	-3.5521	-3.3021	-4.0833	-3.4958	-3.3875	-4.0396	-3.3646	-3.9667	-3.7479	-3.3667	-4.0354	-3.65	-3.4896	-4.1729	-3.1458	-3.8937	165.656	4.315	24.215	180.459	-8.528	152.920	-42.512	152.460	53.092	66.179	137.877	163.480	91.874	150.451	-101.277	52.000	0.00089793	0.0020224	9.8941e-05	361.87	1.5827e-05	2.423e-05	593.41	175.38	1.4033e-05	4.2922e-06	312.69	159.87	90.15	55.021	8.8916e-06	97.165	0.024162	0.037362	0.010421	552.97	0.00038336	0.00040992	771.15	232.72	0.00037076	0.00040117	402.79	189.51	116.93	64.91	0.00038539	110.55	-147.796	167.766	25.706	-147.820	-31.909	32.563	-148.827	-143.694	11.254	12.242	-145.428	-142.375	-140.586	-136.397	-31.526	-138.397	-8191	255	
1165.717	1	1	0	0	0.09646	0.085456	0.10309	0.044638	0.13117	0.043253	0.051853	0.096424	0.086785	0.10782	0.19284	0.21645	0.097902	0.14853	0.20039	0.21708	-3.45	-3.1292	-3.9208	-3.4562	-3.3417	-3.8812	-3.4437	-3.8646	-4.0083	-3.1292	-3.8937	-3.6417	-3.2333	-4.2083	-3.2792	-3.8937	185.468	94.825	108.423	32.240	-55.521	-147.517	83.763	164.630	-3.143	2.221	172.192	140.181	142.352	163.549	16.184	106.138	0.00064618	0.0030424	0.00047487	365.01	1.0283e-05	2.5803e-05	608.3	172.41	1.6182e-05	7.718e-06	307.89	156.32	86.839	54.015	1.1619e-05	95.617	0.023525	0.036907	0.010431	558.45	0.00039305	0.00042649	784.69	234.25	0.00039551	0.00043245	407.15	189.5	116.77	64.694	0.00040743	109.98	-149.553	-125.399	-89.782	-148.250	-75.709	-130.631	-148.797	-143.158	-20.360	28.660	-145.242	-141.862	-140.642	-135.573	-77.820	-137.984	-8191	255	
1165.813	1	1	0	0	0.17717	0.21803	0.23515	0.10383	0.15733	0.091739	0.28188	0.26609	0.192	0.22521	0.023506	0.14474	0.058306	0.18561	0.10655	0.40975	-3.5687	-3.1146	-3.9271	-3.5229	-3.3812	-3.9188	-3.5729	-3.6458	-3.8583	-3.3583	-4.0188	-3.7062	-3.4271	-4.1104	-3.3583	-3.6042	124.618	-2.564	-90.712	-44.604	96.902	-80.408	171.065	161.355	197.637	37.426	34.521	156.755	44.764	196.293	-76.875	130.783	0.00061478	0.00070753	0.00068222	363.15	1.0447e-05	1.584e-05	603.04	172.35	4.688e-06	6.15e-06	307.94	157.22	87.24	53.961	1.8331e-05	96.188	0.024451	0.0381	0.010636	559.76	0.00038802	0.00041969	781.68	231.64	0.00038486	0.00041856	403.68	187.8	115.5	64.381	0.00039277	109.21	-121.940	55.916	-58.357	-147.970	37.996	159.247	-149.163	-143.092	37.845	-29.766	-145.494	-141.670	-140.558	-135.698	-48.252	-138.243	-8191	255	
1165.909	1	1	0	0	0.13528	0.12058	0.059094	0.17554	0.27503	0.08914	0.17433	0.26345	0.069781	0.14524	0.11869	0.043784	0.23918	0.11153	0.084161	0.36392	-3.7708	-3.0771	-3.8812	-3.8333	-3.2812	-3.8958	-3.4896	-3.3271	-4.1771	-3.3833	-3.7458	-3.9646	-3.4188	-3.9729	-3.4042	-3.4688	160.625	-109.590	119.325	188.618	112.983	-66.823	178.528	-66.035	104.594	174.228	174.360	79.312	153.147	116.556	156.378	81.928	0.00078965	0.00072044	0.0003935	362.66	1.0119e-05	2.3472e-05	604.14	175.78	9.8836e-06	3.2804e-06	309.72	158.45	88.831	54.877	4.5929e-06	96.55	0.023665	0.036858	0.010298	551.73	0.00037618	0.00040874	774.29	232.2	0.00037628	0.00041244	404.59	189.16	116.87	65.067	0.00039584	110.13	-136.903	165.118	46.836	-146.981	107.674	-69.079	-148.507	-142.987	21.143	-48.806	-145.707	-142.214	-140.392	-135.686	48.642	-137.956	-8191	255	
1166.005	1	1	0	0	0.18897	0.054753	0.17696	0.15607	0.12047	0.14085	0.091913	0.03686	0.18248	0.075107	0.18571	0.15728	0.1691	0.19096	0.068846	0.37607	-3.6125	-3.2938	-3.6375	-3.9625	-3.1542	-3.9604	-3.6208	-3.2562	-4.0646	-3.3521	-3.7875	-4.0833	-3.45	-3.8563	-3.7	-3.3792	-44.201	-102.163	-19.526	133.193	57.265	177.529	102.116	57.508	-146.462	-99.590	166.282	153.573	-51.838	84.286	131.117	131.857	0.00066469	0.00047498	0.00024807	361.16	9.0491e-06	7.0102e-06	601.43	174.65	4.5677e-06	6.572e-06	308.89	158.32	89.039	54.786	3.2917e-06	97.104	0.024315	0.038	0.010713	560.05	0.00039622	0.00043142	780.91	235.14	0.00039434	0.00042942	409.68	190.64	118.39	65.51	0.00041031	111.02	-138.584	-32.165	26.044	-147.587	-107.171	43.951	-148.735	-143.745	-90.546	161.720	-144.904	-141.740	-140.686	-135.905	-127.971	-138.495	-8191	255	
1166.126	1	1	0	0	0.15299	0.20412	0.12011	0.089654	0.1486	0.17062	0.30974	0.095592	0.077432	0.11372	0.079789	0.1789	0.10757	0.078941	0.18172	0.36531	-3.7562	-3.5896	-3.5917	-4.0792	-3.2417	-3.9667	-3.8896	-3.3063	-3.9875	-3.5563	-3.6917	-4.1958	-3.3187	-3.9125	-3.6583	-3.4521	41.386	131.985	-146.099	89.509	182.692	69.032	147.716	178.868	-29.577	-61.242	179.317	167.481	151.536	-81.605	155.100	169.097	0.00064871	0.001586	0.00038923	362.84	1.6655e-05	5.2971e-06	601.38	173.38	1.0116e-05	1.554e-05	308.89	159.12	88.647	54.896	3.1286e-06	96.91	0.024952	0.039029	0.011005	565.85	0.00040691	0.00043976	788.96	236.71	0.00040623	0.00044099	412.54	191.94	118.85	65.803	0.00041453	111.2	-130.475	-156.820	-127.803	-147.512	-21.715	-79.368	-148.349	-143.612	35.924	-17.225	-145.654	-142.183	-140.944	-135.771	190.467	-138.389	-8191	255	
1166.222	1	1	0	0	0.14816	0.28598	0.14102	0.014774	0.15983	0.21548	0.29627	0.11525	0.13285	0.18719	0.09837	0.15791	0.35137	0.30461	0.31756	0.20412	-3.65	-3.5062	-3.4729	-4.0687	-3.3417	-3.8292	-4.0333	-3.1646	-4.0625	-3.6458	-3.4562	-4.1396	-3.3479	-3.8312	-3.9646	-3.4021	89.091	-139.772	153.889	102.350	109.483	-42.203	67.255	144.252	-150.166	41.772	172.445	176.046	149.123	143.189	-126.640	172.630	0.00082617	0.0024202	0.0005	361.89	1.0544e-05	9.1292e-06	602.96	174.83	1.5265e-05	9.701e-06	308.79	159.5	89.858	55.214	7.0338e-06	96.51	0.02505	0.03911	0.010973	567.13	0.00040252	0.00043493	787.54	236.7	0.00040251	0.00043818	412.12	192.6	119.95	66.087	0.00041881	111.19	-129.783	183.838	-52.428	-147.648	3.864	87.290	-149.001	-143.406	20.154	-62.533	-145.042	-142.020	-140.683	-136.273	-21.938	-138.476	-8191	255	
1166.294	1	1	0	0	0.17686	0.10087	0.1836	0.14011	0.19022	0.10743	0.17917	0.21282	0.2496	0.12752	0.34346	0.080359	0.092867	0.25255	0.15794	0.36615	-3.5563	-3.7646	-3.3438	-3.9813	-3.2708	-3.625	-3.9917	-3.2979	-3.8312	-3.6729	-3.3875	-4.05	-3.5625	-3.6146	-4.0771	-3.3917	161.217	179.187	-38.972	-158.859	152.605	164.743	99.863	91.533	18.335	-69.773	174.293	116.792	-111.394	166.217	167.420	155.263	0.00087688	0.00089773	0.00082484	364.23	1.8454e-05	1.7428e-05	596.98	176.52	2.6928e-06	1.1041e-05	310.77	161.81	91.705	55.733	1.046e-05	98.335	0.025608	0.03971	0.0111	571.4	0.00040769	0.00044184	791.5	238.94	0.00040605	0.00044298	414.8	195	121.45	66.797	0.00041597	112.51	-130.499	-56.979	-45.097	-147.740	-63.647	-9.374	-149.160	-143.878	43.350	-118.514	-145.430	-142.297	-141.244	-136.346	84.908	-138.771	-8191	255	
1166.414	1	1	0	0	0.21675	0.20307	0.11335	0.064682	0.15317	0.1562	0.099145	0.091707	0.028257	0.10843	0.18538	0.17492	0.19705	0.20925	0.039218	0.35895	-3.5333	-3.6583	-3.3479	-3.9521	-3.4896	-3.4417	-4.2083	-3.3125	-3.8521	-3.8312	-3.4771	-4.1708	-3.6583	-3.5479	-3.9417	-3.2958	94.333	39.850	-136.726	176.121	76.768	171.591	-152.550	104.543	-98.366	164.630	65.209	-96.571	170.105	-121.183	70.619	162.902	0.00084015	0.0018892	0.00035144	364.74	1.8751e-05	1.7269e-05	598.63	180.64	1.7936e-06	1.2941e-05	317.64	165.89	94.332	57	1.1495e-05	99.852	0.025149	0.039155	0.011016	568.36	0.00040356	0.00043797	787.46	241.64	0.00040158	0.00043729	419.5	198.48	123.64	67.791	0.0004155	114	-148.188	-125.504	-88.160	-147.680	4.373	3.346	-149.252	-143.564	170.194	-76.585	-145.783	-142.354	-141.212	-136.557	-35.960	-138.511	-8191	255	
1166.510	1	1	0	0	0.090074	0.31209	0.11771	0.079114	0.013024	0.09946	0.22811	0.031503	0.1751	0.26869	0.29447	0.33761	0.086931	0.093214	0.20854	0.14384	-3.1396	-3.7479	-3.1792	-4.0687	-3.4083	-3.4917	-4.0938	-3.2396	-3.7104	-4	-3.4208	-4.1188	-3.7313	-3.4625	-3.9062	-3.6979	132.876	117.356	155.488	-13.160	-125.820	-75.681	41.693	-87.010	178.938	92.619	53.703	193.679	66.715	178.093	-150.483	176.329	0.00070916	0.00057959	9.197e-05	368.04	1.0268e-05	1.2999e-05	606.21	180.39	1.9201e-05	6.5761e-06	319.74	165.88	94.339	57.267	2.0221e-05	99.765	0.025231	0.039165	0.010989	572.32	0.00040291	0.00043819	791.68	241.63	0.00040111	0.00043657	420.03	198.73	123.45	67.833	0.00041016	113.91	-126.912	188.932	76.816	-147.150	-33.921	26.562	-148.763	-143.757	-41.025	-88.694	-146.052	-142.412	-141.478	-136.316	87.651	-138.855	-8191	255	
1166.607	1	1	0	0	0.1778	0.18602	0.18205	0.15517	0.073	0.11056	0.14903	0.070216	0.064019	0.12748	0.17824	0.30308	0.06512	0.11076	0.051569	0.35358	-3.3	-3.9354	-3.1958	-3.8333	-3.9583	-3.2917	-4.2292	-3.4083	-3.5438	-4.1125	-3.4229	-4.0833	-3.8646	-3.4646	-4.0375	-3.7	-154.609	80.556	190.327	93.521	18.323	75.589	141.835	-133.714	85.559	-61.195	180.228	152.832	-15.522	122.889	-105.170	-151.924	0.00092225	0.0009996	0.00011461	370.13	7.8069e-06	1.5298e-05	607.43	182.63	9.6529e-06	1.074e-05	320.88	167.41	94.902	57.145	1.2547e-05	100.17	0.024711	0.038412	0.0107	565.96	0.00038934	0.00042057	782.38	240.51	0.00037989	0.00041306	415.18	197.41	122.16	67.143	0.00038154	113.07	-131.547	-9.943	100.632	-147.509	57.324	-43.466	-148.929	-143.706	2.529	-78.762	-145.747	-142.369	-141.355	-136.315	179.465	-138.626	-8191	255	
1166.703	1	1	0	0	0.30094	0.077141	0.17112	0.43044	0.11745	0.11855	0.29802	0.20329	0.091854	0.074036	0.10146	0.11838	0.15224	0.36886	0.078944	0.095799	-3.0271	-3.9875	-3.2771	-3.6167	-3.85	-3.1562	-4.1167	-3.6271	-3.3063	-4.025	-3.3229	-3.675	-3.9562	-3.4458	-3.9042	-3.9542	-45.131	-13.202	6.999	-87.859	80.958	38.531	176.983	181.966	165.447	-60.624	119.584	125.981	-147.403	-160.887	-65.290	82.641	0.00080386	0.0011977	0.00025543	368.56	6.6307e-06	1.3942e-05	608.28	183.93	6.3693e-06	5.7438e-06	324.8	170.46	96.585	58.351	1.5208e-05	102.28	0.023085	0.035736	0.0099717	552.8	0.00036459	0.00039171	773.17	238.56	0.00035696	0.00038811	413.23	198.53	122.52	67.534	0.00036741	114.22	-151.657	164.024	-111.697	-148.128	-23.777	80.254	-148.656	-143.952	-21.407	-35.328	-145.636	-142.195	-140.820	-136.326	-51.821	-138.787	-8191	255	
1166.822	1	1	0	0	0.066267	0.2021	0.15204	0.071637	0.14181	0.22357	0.20119	0.10498	0.10399	0.016927	0.068628	0.29886	0.10579	0.11842	0.1224	0.39739	-2.9938	-3.8771	-3.2812	-3.7458	-4.0979	-3.2667	-3.9583	-3.7542	-3.3021	-4.2292	-3.5375	-3.6042	-4.0625	-3.3438	-4.1083	-3.8021	-128.098	40.018	111.173	-42.664	144.290	-91.434	79.541	-48.501	192.836	-44.302	-142.216	96.908	-128.319	35.780	51.633	149.721	0.0007181	0.0011133	0.00012299	366.01	9.0532e-06	2.9046e-05	612.96	185.89	7.436e-06	8.9e-06	330.06	173.09	97.524	58.84	5.8678e-06	103.1	0.022471	0.034943	0.0097453	551.32	0.00036117	0.00039016	775.9	239.94	0.00035484	0.00038712	416.62	200.45	123.18	68.039	0.00036539	115.12	-148.436	-76.219	-58.293	-147.440	68.585	-52.337	-148.414	-144.086	82.953	63.751	-145.745	-142.248	-141.229	-136.447	124.417	-138.550	-8191	255	
1166.918	1	1	0	0	0.1425	0.18236	0.16111	0.043353	0.095781	0.0807	0.24488	0.078418	0.1108	0.10015	0.24714	0.14941	0.058384	0.12518	0.10613	0.2288	-3.0521	-3.9896	-3.4625	-3.6021	-4.0292	-3.2708	-3.9625	-3.825	-3.3042	-4.1875	-3.5833	-3.475	-4.25	-3.4021	-3.7375	-4.1312	-149.641	48.935	167.974	6.380	-100.371	198.012	164.981	-76.929	-133.824	186.077	112.848	102.307	83.873	187.251	194.816	196.790	0.00078546	0.0021613	0.0005322	377.31	7.9774e-06	2.0595e-05	616.37	188.02	2.3714e-06	1.1601e-05	331.3	172.53	97.184	58.605	1.3414e-05	102.85	0.022295	0.034643	0.0096758	552.71	0.00035863	0.00038743	778.9	241.09	0.00035681	0.00038747	418.55	200.63	123.03	67.808	0.00036425	114.59	-136.017	-151.230	-33.638	-147.782	89.392	-40.790	-148.304	-143.336	50.247	-61.503	-145.834	-142.138	-141.420	-136.589	-21.098	-138.537	-8191	255	
1167.014	1	1	0	0	0.059717	0.028827	0.16893	0.21565	0.044582	0.23466	0.22372	0.0050585	0.2199	0.026867	0.063928	0.023475	0.084966	0.25622	0.29949	0.039214	-2.7604	-4.0146	-3.5833	-3.2083	-4.1438	-3.2646	-3.7125	-3.9875	-3.2271	-3.8563	-3.675	-3.2542	-4.1104	-3.5	-3.625	-3.9979	-128.882	183.458	-146.619	151.353	159.137	-103.496	34.532	161.939	-30.029	-155.976	174.951	86.064	131.903	-157.678	-107.276	-87.354	0.00084062	0.0025714	0.00021068	373.81	1.7312e-05	1.0496e-05	619.84	188.83	1.676e-05	2.6208e-05	331.92	172.92	98.036	58.84	1.7293e-05	103.63	0.021874	0.03367	0.0093523	547.16	0.00034308	0.00036679	770.74	239.2	0.00033206	0.00036293	413.41	198.82	122.24	67.487	0.00034461	114.65	-125.569	-87.990	99.697	-147.652	-40.458	39.331	-148.516	-144.124	175.226	-0.152	-145.637	-142.294	-141.065	-136.570	69.580	-138.531	-8191	255	
1167.110	1	1	0	0	0.10414	0.082908	0.18391	0.22804	0.13641	0.12013	0.34016	0.33455	0.085275	0.11596	0.13578	0.18802	0.20079	0.095531	0.22235	0.28162	-2.7833	-3.8187	-3.75	-3.4417	-3.9521	-3.4646	-3.5604	-3.9938	-3.1854	-3.9833	-3.8917	-3.4917	-4.0292	-3.6354	-3.4437	-4.225	-123.357	-13.843	20.976	170.088	30.383	-127.555	87.142	137.387	-39.023	-37.595	153.199	112.724	-140.516	190.436	-108.653	124.689	0.00083988	0.0021011	0.0001858	375.98	1.5789e-05	9.68e-06	619.63	190.45	8.9619e-06	8.0663e-06	334.8	175.11	99.201	59.143	9.5872e-06	104.29	0.021021	0.032808	0.0092006	545.52	0.0003423	0.00037197	774.83	241.57	0.00034416	0.00037666	418.88	201.82	124.27	68.279	0.00035868	116.3	-143.157	-39.247	-20.014	-147.736	-85.951	-83.165	-148.639	-143.914	195.782	-87.786	-145.529	-142.193	-140.785	-136.881	14.904	-139.025	-8191	255	
1167.206	1	1	0	0	0.20153	0.18151	0.17923	0.14414	0.13401	0.2024	0.25037	0.17083	0.085363	0.16833	0.067636	0.056726	0.041832	0.26685	0.2263	0.10186	-2.8229	-3.6708	-3.6813	-3.2667	-4.0833	-3.3292	-3.4688	-4.0062	-3.2188	-3.8104	-3.9479	-3.225	-4	-3.7083	-3.3021	-4.3	76.792	132.289	-136.601	-57.043	0.953	68.944	145.824	183.064	176.520	52.544	138.989	104.152	56.889	166.470	-40.813	-29.891	0.00094411	0.0011329	0.00054042	375.27	8.6445e-06	5.7818e-06	621.44	192.45	1.2463e-05	1.0128e-05	337.92	176.47	100.06	59.868	1.0965e-05	105.4	0.021694	0.033801	0.009422	547.5	0.00034351	0.00037295	773.55	242.9	0.00034081	0.00037212	421.16	203.42	125.2	68.894	0.00035846	117.01	-126.280	-67.014	36.270	-148.148	39.985	172.758	-149.084	-143.857	16.013	39.253	-146.284	-142.775	-141.380	-136.515	166.349	-138.902	-8191	255	
1167.302	1	1	0	0	0.059914	0.11265	0.15581	0.11147	0.21434	0.059435	0.27245	0.21312	0.24529	0.18712	0.083666	0.1472	0.15582	0.16486	0.18289	0.24958	-2.8958	-3.7271	-3.8979	-3.1292	-4.0417	-3.6937	-3.4375	-4.1354	-3.3563	-3.6917	-4.0563	-3.4104	-4.0417	-3.8583	-3.4	-4.2354	69.742	78.659	151.651	13.408	118.983	-4.697	133.665	-158.549	163.043	76.681	66.663	-104.938	-160.945	119.801	26.113	119.973	0.00091892	0.00031908	0.00067439	376.39	2.0371e-05	1.3164e-05	617.43	191.37	9.1436e-06	1.629e-05	336.23	174.86	99.958	59.713	7.4935e-06	105.11	0.021784	0.034128	0.0095579	551.06	0.00035504	0.00038141	778.15	243.68	0.00035259	0.00038704	422.66	202.81	125.04	68.749	0.00036117	116.26	-143.039	139.703	-63.057	-148.131	-13.597	4.775	-148.940	-144.176	-4.683	111.726	-145.529	-142.641	-141.456	-136.337	-21.537	-138.754	-8191	255	
1167.423	1	1	0	0	0.08185	0.14761	0.040847	0.023332	0.066188	0.097178	0.34404	0.16193	0.088027	0.1338	0.29094	0.15722	0.2285	0.19826	0.22026	0.13464	-2.8583	-3.4833	-3.8	-3.3917	-3.8625	-4.0062	-3.3438	-4.0125	-3.3979	-3.4083	-4.0333	-3.1063	-4	-4.0979	-3.4	-4.1542	146.298	189.106	170.792	21.474	-77.500	-138.210	123.959	182.182	-121.263	176.965	123.549	69.778	-110.954	122.498	-91.167	-21.160	0.00072339	0.0014262	4.6267e-05	377.34	7.0731e-06	1.6635e-05	619.1	191.01	1.7187e-05	1.2127e-05	336	177.36	100.78	60.382	3.679e-06	105.39	0.021809	0.033796	0.009501	548.69	0.00034798	0.00037568	773.71	243.07	0.00034557	0.0003798	421.73	204.51	126.14	69.262	0.00036357	117.22	-123.203	164.256	181.233	-147.351	-102.998	89.715	-148.960	-143.476	-76.914	55.285	-146.130	-142.609	-141.193	-136.856	-65.461	-138.720	-8191	255	
1167.519	1	1	0	0	0.23119	0.1554	0.14331	0.17536	0.091625	0.23545	0.15111	0.30654	0.043252	0.16197	0.082623	0.063541	0.059607	0.28848	0.1169	0.20793	-3.1875	-3.4708	-4.1271	-3.2438	-3.6292	-3.7896	-3.3958	-4.0437	-3.5083	-3.3229	-4.0833	-3.2625	-3.7354	-3.9729	-3.1729	-4.1271	42.748	-40.768	-52.247	-57.239	70.553	102.522	79.599	109.712	54.823	-16.887	65.989	109.791	152.227	183.764	-84.910	128.319	0.00092363	0.0012907	0.00018459	375.93	1.2782e-05	1.7188e-05	611.22	192.96	1.3448e-05	1.9435e-05	341.89	179.78	103.3	61.202	9.7939e-06	106.72	0.022114	0.03464	0.0096628	551.09	0.00035646	0.00038281	773.7	245.82	0.00035237	0.00038478	427.45	207.57	128.46	70.246	0.00036618	118.83	-139.366	44.358	76.009	-147.564	-78.261	75.524	-148.658	-143.282	19.459	-25.057	-145.488	-142.583	-141.393	-136.865	-119.666	-138.618	-8191	255	
1167.591	1	1	0	0	0.16925	0.28553	0.057004	0.044566	0.22176	0.093795	0.11911	0.053162	0.17223	0.047286	0.19739	0.21213	0.018548	0.12753	0.080966	0.14415	-3.2042	-3.2042	-3.975	-3.2687	-3.4771	-3.8896	-3.3896	-3.9125	-3.5396	-3.2833	-4.0167	-3.6875	-3.6354	-4.1833	-3.2146	-4.0583	-22.109	23.191	191.126	-80.231	67.116	80.355	114.988	-36.114	104.439	-134.470	-88.123	124.037	-44.797	96.193	12.881	152.134	0.00086972	0.0020227	0.00035366	373.7	1.1089e-05	1.8587e-05	614.88	194.5	8.5539e-06	2.9118e-05	337.45	179.38	102.57	60.767	1.1786e-05	106.68	0.022369	0.034999	0.0097764	554.98	0.00036432	0.0003921	781.2	248.54	0.00036469	0.00040127	430.36	208.35	129.22	70.621	0.00038822	119.46	-142.583	-129.982	163.862	-147.438	-6.989	3.856	-148.432	-143.805	28.585	-23.671	-145.489	-142.542	-141.071	-136.583	-28.439	-138.653	-8191	255	
1167.687	1	1	0	0	0.27865	0.10858	0.082762	0.12961	0.066387	0.13638	0.11303	0.20618	0.091339	0.065868	0.22798	0.34146	0.17302	0.30229	0.045056	0.28058	-3.375	-3.3958	-3.7938	-3.475	-3.5396	-4.025	-3.2646	-3.7667	-3.8229	-3.2313	-4.075	-3.6208	-3.4896	-4.1937	-3.1937	-3.8583	185.010	132.957	-39.725	-81.384	-39.370	-72.777	198.326	129.397	75.983	-26.838	157.873	148.227	55.836	-144.975	-95.125	128.937	0.00068574	0.0026282	0.00029791	371.76	2.1542e-05	1.2988e-05	608.22	190.26	1.6834e-05	2.1936e-05	333.1	176.66	100.77	60.4	1.3102e-05	104.95	0.02389	0.03717	0.010459	567.18	0.00039132	0.00042534	793.02	250.92	0.00039604	0.00043392	435.1	209.13	130.07	71.165	0.00041672	118.95	-133.957	-33.904	-69.461	-147.629	45.183	-74.397	-148.410	-143.311	155.622	-108.788	-145.880	-143.099	-141.290	-136.525	-134.228	-138.669	-8191	255	
1167.806	1	1	0	0	0.24891	0.21868	0.10301	0.36933	0.19522	0.28897	0.2175	0.11701	0.11217	0.18077	0.34345	0.15278	0.089762	0.14589	0.061472	0.23421	-3.6042	-3.2438	-3.9646	-3.6646	-3.3563	-4.0125	-3.3312	-3.7458	-3.8375	-3.2729	-4.2417	-3.6188	-3.3083	-4.0333	-3.3	-3.5583	-73.350	57.847	-13.057	179.372	-9.375	114.991	177.668	193.259	-105.198	-141.769	-157.930	190.532	85.941	-15.545	139.513	170.118	0.00055144	0.0013515	0.00057477	372.29	3.6375e-06	5.2879e-06	608.2	189.23	1.4595e-05	1.8776e-05	334.99	176.69	101.36	60.278	1.2828e-05	105.45	0.02511	0.038966	0.010858	569.82	0.00039641	0.00042659	790.57	248.97	0.00038632	0.00042023	430.41	207.31	128.94	70.311	0.00038371	118.18	-128.553	36.544	118.640	-147.582	27.835	42.765	-148.724	-143.623	-80.863	-17.786	-145.677	-142.521	-141.120	-136.565	-32.658	-138.626	-8191	255	
1167.902	1	1	0	0	0.085233	0.039418	0.12491	0.26371	0.091866	0.11518	0.20237	0.26543	0.20944	0.038231	0.16995	0.01037	0.1573	0.19804	0.10328	0.31944	-3.5417	-3.2396	-3.6771	-3.7	-3.0167	-3.7188	-3.4792	-3.5229	-3.9792	-3.0208	-3.7396	-3.7271	-3.2604	-3.825	-3.4521	-3.4604	-8.391	105.628	-24.764	160.252	75.998	-105.924	131.535	135.961	-5.262	185.875	132.887	113.956	124.776	152.574	-1.745	121.519	0.00087254	0.0014953	0.0002441	377.3	1.2536e-05	2.256e-05	613.16	193.17	6.6564e-06	2.5727e-06	337.85	179.18	101.97	60.845	1.0229e-05	106.56	0.023142	0.035572	0.0099335	556.62	0.00036535	0.00039257	780.3	247.17	0.00036393	0.00039608	427.67	206.97	127.65	70.168	0.00037034	118.83	-150.040	15.300	15.489	-147.616	89.843	-33.603	-148.672	-143.650	15.508	131.552	-145.612	-142.807	-141.039	-136.686	-14.088	-138.699	-8191	255	
1167.998	1	1	0	0	0.21533	0.095986	0.3237	0.067657	0.14901	0.11063	0.16703	0.30227	0.099212	0.053006	0.064642	0.28352	0.30076	0.19717	0.088452	0.0012026	-3.5667	-3.1542	-3.6688	-3.6562	-3.25	-3.8708	-3.5208	-3.5042	-3.8063	-3.2167	-3.6521	-4.0229	-2.9417	-3.9313	-3.3	-3.3563	-9.339	-49.181	-153.331	-71.523	-53.359	142.933	149.369	104.607	152.074	0.762	156.455	153.284	126.230	159.870	137.735	180.000	0.00090041	0.0013938	0.0003547	381.16	2.2605e-05	2.2621e-05	621.83	194.97	1.0648e-05	2.5228e-05	345.95	182.13	103.05	61.403	1.1476e-05	107.75	0.022351	0.034719	0.0097326	554.8	0.00035421	0.0003823	779.51	246.36	0.00034911	0.00037906	430.25	209.03	128.15	70.391	0.0003607	119.41	-147.387	-120.246	-144.868	-147.716	71.596	-51.227	-148.494	-143.510	-98.637	121.006	-145.674	-142.622	-141.551	-136.429	33.562	-138.451	-8191	255	
1168.094	1	1	0	0	0.11383	0.14679	0.2529	0.063721	0.27318	0.14334	0.044192	0.13287	0.083133	0.14025	0.18853	0.14165	0.053502	0.25098	0.2598	0.058121	-3.4792	-3.1292	-3.4333	-3.7292	-2.9562	-3.8021	-3.6896	-3.2958	-3.8667	-3.3958	-3.5062	-4.0188	-3.2708	-4.0396	-3.575	-3.4208	122.579	90.910	-24.821	-74.678	-88.381	31.275	-39.903	-138.428	156.106	37.259	182.394	96.823	34.401	-146.864	166.854	99.099	0.0009909	0.0016586	0.00029944	377.05	6.6569e-06	1.5328e-05	619.28	194.57	2.0254e-06	2.1089e-05	340.66	180.03	103.48	61.07	2.2185e-05	106.54	0.021931	0.034201	0.0095893	553.6	0.00035345	0.00038489	780.04	247.66	0.00035785	0.0003916	430.79	208.99	129.02	70.547	0.00037308	118.81	-147.178	-46.827	-109.717	-147.456	-130.619	72.244	-148.554	-143.440	-92.724	65.644	-145.505	-142.248	-141.174	-136.646	-53.256	-138.425	-8191	255	
1168.190	1	1	0	0	0.15669	0.13309	0.092454	0.19839	0.13668	0.14042	0.15455	0.11529	0.050367	0.043232	0.088291	0.031715	0.26111	0.11009	0.057536	0.12422	-3.6646	-3.3271	-3.3792	-3.8688	-3.0062	-3.7229	-3.8083	-3.1396	-3.9458	-3.4375	-3.4292	-4.1687	-3.1771	-3.9375	-3.5833	-3.3771	-131.119	0.330	-68.305	-9.338	14.760	48.747	54.592	-124.774	113.254	-156.649	94.633	-88.615	112.829	-42.055	30.974	169.894	0.00074775	0.0021746	0.00036624	376.62	7.9409e-06	1.6138e-05	614.03	194.78	2.1908e-05	6.1999e-06	341.64	181.75	103.06	61.539	2.1304e-05	106.79	0.022731	0.035381	0.0099252	557.8	0.00036407	0.00039684	783.61	248.73	0.00036215	0.00039364	430.29	209.6	128.97	70.722	0.00037091	119.14	-135.926	-139.537	-52.117	-147.944	10.026	40.821	-148.572	-143.782	46.398	-66.710	-145.329	-142.289	-141.600	-136.280	28.929	-138.591	-8191	255	
1168.287	1	1	0	0	0.17103	0.085178	0.050544	0.21401	0.28704	0.13446	0.16153	0.27964	0.15719	0.067364	0.21963	0.2508	0.063744	0.23861	0.094175	0.06837	-3.2812	-3.3083	-3.0792	-3.8875	-3.1146	-3.5146	-3.8937	-3.1021	-3.8479	-3.5771	-3.3229	-4.0771	-3.2833	-3.6104	-3.9125	-3.45	-20.997	-104.869	37.769	114.278	141.401	72.331	138.728	163.029	-97.417	152.917	192.536	-63.901	-91.176	-161.011	103.902	-139.832	0.00072635	0.00085749	0.00064009	376.03	9.5367e-06	3.5013e-05	617.7	194.84	7.2386e-06	2.5667e-05	342.85	182.89	104.07	61.784	6.4745e-06	108.1	0.022611	0.035204	0.0098867	558.09	0.0003646	0.00039711	785.17	249.82	0.00036493	0.00040056	433.21	211.52	130.69	71.417	0.00038223	120.54	-143.348	-18.874	195.098	-147.742	105.949	-50.345	-148.250	-143.394	127.326	97.265	-145.263	-142.416	-141.699	-136.674	-10.074	-138.485	-8191	255	
1168.383	1	1	0	0	0.11882	0.16897	0.19817	0.10655	0.24263	0.26154	0.033215	0.18846	0.13253	0.11845	0.18442	0.065346	0.38545	0.34848	0.23703	0.17711	-3.3438	-3.6417	-3.1229	-3.7896	-3.3542	-3.4437	-4.1312	-3.2313	-3.7479	-3.7	-3.2812	-4.2042	-3.6063	-3.4667	-4.0729	-3.4	3.758	92.231	47.147	-80.836	106.156	14.578	-42.260	179.165	68.635	-132.398	78.509	88.228	168.594	89.829	-7.640	176.830	0.00092242	0.0017279	0.00052756	379.33	1.374e-05	2.0833e-05	621.67	194.62	3.5709e-06	1.5703e-05	341.56	182.82	104.36	62.213	1.3343e-05	107.88	0.023323	0.036177	0.010125	564.54	0.00037337	0.00040522	790.78	249.93	0.00036964	0.00040097	434.56	212.08	130.82	71.477	0.00038037	120.59	-137.500	173.442	-107.499	-147.848	-20.300	83.484	-147.928	-143.432	11.866	16.811	-145.632	-142.534	-141.263	-136.518	92.653	-138.636	-8191	255	
1168.503	1	1	0	0	0.16326	0.16735	0.042134	0.2312	0.024488	0.20619	0.26073	0.23263	0.038302	0.13105	0.189	0.17883	0.11723	0.27785	0.072218	0.16765	-3.3146	-3.6396	-3.1396	-4.0396	-3.3354	-3.3479	-4.2688	-3.3083	-3.725	-3.7292	-3.1458	-4.1146	-3.5458	-3.5083	-3.8104	-3.3563	196.623	20.118	114.112	161.008	69.996	23.035	-92.297	90.430	-147.349	93.267	73.840	163.936	-17.559	107.943	186.674	-159.439	0.00059083	0.00099347	0.00019328	381.57	8.7628e-06	1.6692e-05	620.28	194.82	1.0864e-05	1.0985e-05	340.48	182.33	104.03	61.679	8.2109e-06	106.97	0.023123	0.035986	0.010074	561.81	0.00037091	0.00039935	785.38	249.08	0.00036004	0.0003921	429.75	210.03	129.44	70.898	0.00037124	119.43	-134.765	-21.286	-106.423	-147.732	9.899	-7.332	-148.548	-143.438	-92.298	46.518	-145.297	-142.359	-141.536	-136.397	-53.910	-139.137	-8191	255	
1168.599	1	1	0	0	0.27743	0.23207	0.32607	0.25798	0.12727	0.11	0.19054	0.26656	0.30946	0.031475	0.027871	0.20292	0.14139	0.23449	0.11669	0.18754	-3.1167	-3.8896	-2.9792	-3.9125	-3.575	-3.2271	-4.0792	-3.2625	-3.4958	-3.8979	-3.2083	-4.0458	-3.7417	-3.2729	-3.9833	-3.4021	13.486	157.695	41.181	114.361	130.616	158.059	101.733	122.891	-55.800	59.347	-6.396	11.008	-126.182	106.527	64.672	102.534	0.00056933	0.0012675	0.0010283	377.44	1.9707e-05	1.9736e-05	623.12	195.4	1.2769e-05	1.9417e-05	341.46	183.05	103.61	61.7	1.4373e-05	107.67	0.022778	0.035382	0.0098714	559.29	0.00036539	0.00039594	784.97	248.25	0.00036354	0.00039604	431.33	210.92	129.96	70.959	0.00036967	119.85	-123.804	-3.127	-96.306	-147.446	109.195	-55.248	-148.820	-143.563	36.732	-16.457	-145.763	-142.420	-141.698	-136.957	-7.562	-138.906	-8191	255	
1168.696	1	1	0	0	0.32672	0.082957	0.11777	0.052307	0.12072	0.14179	0.35546	0.33876	0.047829	0.085118	0.11171	0.28221	0.29322	0.12752	0.098799	0.22399	-2.9938	-3.8563	-3.2167	-3.7083	-3.7292	-3.2354	-3.8583	-3.4562	-3.45	-3.9917	-3.1896	-3.7938	-3.8354	-3.1917	-4.0563	-3.7583	-155.741	58.044	148.752	-144.160	-21.025	137.450	121.207	176.043	13.382	79.213	63.143	76.775	151.056	138.400	195.722	150.042	0.00095376	0.0028265	0.00023061	378.49	1.9515e-05	1.2397e-05	625.01	197.21	1.2094e-05	7.4052e-06	348.89	186.67	106.34	62.514	1.3795e-05	109.66	0.022278	0.034563	0.0096053	555.28	0.0003502	0.0003784	780.09	248.04	0.0003441	0.00037434	431.57	212.29	130.27	71.557	0.00035119	121.2	-133.090	-96.723	-43.081	-147.346	-22.342	-84.180	-148.369	-143.646	-32.565	9.674	-145.257	-142.343	-141.517	-136.518	29.302	-138.639	-8191	255	
1168.814	1	1	0	0	0.052036	0.12688	0.15687	0.14647	0.25231	0.092919	0.32889	0.21583	0.052439	0.12248	0.19015	0.2041	0.29584	0.14912	0.27965	0.37703	-2.8063	-3.9667	-3.1667	-3.7938	-3.7396	-3.1688	-3.9333	-3.5479	-3.3458	-3.8854	-3.2438	-3.7854	-3.8604	-3.3812	-3.7521	-3.7292	-108.609	-148.375	-138.202	-117.697	-59.439	189.806	104.028	88.649	-14.308	-25.456	143.270	-136.811	-155.808	177.896	129.281	111.931	0.00064025	0.0017899	0.0002689	383.43	9.2223e-06	9.3292e-06	627.78	198.29	6.0615e-06	1.2063e-05	351.15	188.23	106.92	63.56	2.2542e-05	110.37	0.021359	0.033107	0.0092447	548.99	0.00033825	0.00036801	778.84	248.5	0.00033722	0.00036774	432.35	213.8	130.86	71.594	0.00034707	121.19	-128.200	-40.931	-20.625	-147.114	10.673	-24.999	-147.365	-142.710	195.195	-17.556	-143.955	-141.494	-140.358	-135.633	-91.933	-137.932	-8191	255	
1168.886	1	1	0	0	0.078049	0.20894	0.085934	0.44556	0.18112	0.13923	0.1384	0.17585	0.29674	0.16356	0.15547	0.26662	0.14762	0.24409	0.32206	0.39775	-3.0271	-4.1354	-3.1813	-3.5667	-3.8583	-3.1625	-3.8604	-3.675	-3.0583	-4.0062	-3.3896	-3.5146	-3.9729	-3.1854	-3.5646	-3.8417	51.934	17.628	-30.790	21.483	-18.107	185.975	-150.474	133.221	-80.648	15.656	143.353	147.097	113.258	93.779	-63.131	158.720	0.00082231	0.0022036	0.00028978	380.89	6.2133e-06	6.9312e-06	620.47	198.15	1.4925e-05	3.6975e-06	348.44	186.65	107.54	62.896	1.3062e-05	109.78	0.021125	0.0328	0.0091651	547.95	0.00033874	0.00036602	774.73	248.44	0.00033803	0.00036713	430.93	212.88	130.97	71.322	0.0003416	120.57	-136.773	-48.714	-148.976	-146.188	20.302	190.318	-147.233	-142.790	33.569	-17.513	-144.063	-141.176	-141.138	-136.268	-26.521	-138.443	-8191	255	
1168.982	1	1	0	0	0.099339	0.064916	0.092085	0.18507	0.14584	0.21247	0.2012	0.18437	0.16796	0.079301	0.34137	0.16411	0.050548	0.20501	0.23822	0.12638	-2.6708	-3.8312	-3.3458	-3.2583	-3.8042	-3.1833	-3.8146	-3.8708	-3.1146	-3.8542	-3.5979	-3.3833	-4.0917	-3.2729	-3.5896	-3.8542	-36.740	60.602	118.820	134.525	137.582	-117.195	-111.777	80.747	171.368	86.134	-137.137	-141.625	123.180	191.341	126.587	147.445	0.0008849	0.00034258	0.00061254	380.91	6.7575e-06	1.2282e-05	628.03	200.98	1.6157e-05	1.1309e-05	352.53	188.58	107.8	63.512	8.8644e-06	110.39	0.020382	0.031324	0.0086448	536.8	0.0003146	0.00033683	761.84	245.14	0.0003066	0.00033806	426.03	211.67	129.33	70.952	0.00032211	120.31	-140.701	46.532	-31.623	-146.393	109.773	-58.711	-147.751	-143.379	-71.978	21.515	-145.349	-141.962	-141.361	-136.408	-47.668	-138.259	-8191	255	
1169.103	1	1	0	0	0.10012	0.28914	0.16973	0.22621	0.057303	0.13618	0.2653	0.23048	0.067763	0.24895	0.16808	0.39812	0.45119	0.30703	0.13268	0.28597	-2.6979	-3.8083	-3.5354	-3.1271	-3.9375	-3.2271	-3.7104	-3.8708	-3.1125	-3.6521	-3.6188	-3.275	-4	-3.4188	-3.6312	-4.0417	160.442	-5.889	27.673	186.075	128.061	62.468	-87.794	45.221	-102.977	-63.100	-150.841	198.620	-142.655	182.963	-96.076	121.369	0.00085875	0.002294	0.00032719	384	5.6796e-06	2.2492e-05	625.32	199.78	1.9662e-05	2.0221e-05	354.2	188.89	108.06	63.271	5.0732e-06	111.16	0.019563	0.030369	0.0085477	534.8	0.00031621	0.00034196	764.56	245.44	0.00031597	0.00034677	428.57	212.42	129.81	71.289	0.00032573	121.23	-143.039	-48.528	-50.652	-147.456	72.602	-38.470	-148.162	-143.078	-6.250	92.254	-144.900	-141.832	-140.893	-136.446	1.260	-138.666	-8191	255	
1169.199	1	1	0	0	0.10961	0.18934	0.12212	0.11832	0.052207	0.050723	0.088064	0.08465	0.23239	0.12408	0.022228	0.16946	0.12901	0.17982	0.23443	0.33496	-2.7229	-3.7333	-3.6146	-3.2	-3.9021	-3.4188	-3.65	-3.8563	-3.05	-4.0083	-3.7542	-3.1813	-4	-3.4958	-3.4333	-4.1896	-78.691	174.032	152.624	127.796	-35.181	-115.548	15.545	174.287	-136.861	-53.492	-94.601	158.922	-132.996	-139.926	142.605	109.248	0.0008056	0.0015579	0.00051326	379.92	1.3923e-05	2.5315e-06	628.68	200.74	5.7058e-06	6.6514e-06	352.73	190.13	107.95	63.643	1.183e-05	111.4	0.01981	0.030666	0.0085762	535.88	0.00031594	0.00034067	767.13	245.76	0.00031477	0.00034406	427.54	213.1	129.62	71.283	0.00032426	121.15	-126.743	23.646	-50.602	-147.024	63.054	181.114	-147.449	-143.160	-6.584	-37.117	-145.053	-141.663	-140.916	-136.872	-93.623	-138.525	-8191	255	
1169.295	1	1	0	0	0.30082	0.17376	0.25158	0.22708	0.062027	0.21093	0.07504	0.14331	0.25279	0.36314	0.16276	0.034987	0.18381	0.34122	0.16182	0.20795	-2.65	-3.6708	-3.8021	-3.1521	-3.7458	-3.5854	-3.3542	-4.1417	-3.1104	-3.6833	-3.9875	-3.4521	-3.9062	-3.5375	-3.1896	-4.0667	18.523	49.340	39.186	125.438	-0.633	194.873	-128.400	-77.805	106.746	-126.399	-143.076	-26.867	-14.918	145.422	78.014	152.641	0.00074779	0.0025916	0.00056806	380.77	1.3859e-05	2.9621e-05	619.38	197.62	9.9929e-06	1.5946e-05	345.47	187.27	106.45	62.844	1.5524e-05	109.65	0.019907	0.031188	0.0086916	537.58	0.00032363	0.00035087	763.52	244.3	0.00032195	0.00035193	422.88	210.9	128.93	70.774	0.00033023	120.07	-140.324	-12.842	155.938	-147.232	100.766	-45.784	-148.044	-143.004	-18.363	73.095	-145.214	-142.117	-141.048	-136.624	4.444	-138.564	-8191	255	
1169.391	1	1	0	0	0.084124	0.1845	0.10442	0.11011	0.15437	0.21721	0.19698	0.065012	0.23625	0.097531	0.26025	0.047092	0.10607	0.16592	0.03253	0.21257	-2.8812	-3.5333	-3.8146	-3.3208	-3.7417	-3.6	-3.4729	-4.0396	-3.2687	-3.4583	-3.9604	-3.4396	-3.9083	-3.8542	-3.3292	-4.1667	74.019	16.641	198.131	169.513	-104.119	14.457	105.007	43.215	-87.203	15.074	86.324	-106.977	54.303	-159.183	-160.378	123.366	0.00090107	0.00052038	0.00067305	376.29	5.7198e-06	5.7823e-06	620.01	197.25	2.3479e-05	1.0063e-05	348.49	186.46	106.93	63.064	1.6615e-05	110.01	0.020002	0.031216	0.0087161	534.37	0.00032177	0.00034779	761.01	243.82	0.00031956	0.00035137	424.51	210.84	129.11	71.061	0.00033383	120.46	-145.312	25.474	-117.499	-146.880	-74.395	178.217	-147.923	-142.794	-45.151	-141.625	-145.144	-142.108	-141.113	-136.421	191.303	-138.213	-8191	255	
1169.488	1	1	0	0	0.1061	0.088466	0.1178	0.33786	0.1646	0.19218	0.20274	0.20018	0.31067	0.25936	0.14195	0.22234	0.14941	0.12484	0.1003	0.17436	-3.2417	-3.4437	-3.8521	-3.2188	-3.6188	-3.6708	-3.2313	-3.9854	-3.3021	-3.3271	-3.8979	-3.4458	-3.7625	-3.95	-3.1792	-3.9521	-112.210	146.280	159.686	138.893	-2.577	178.188	-8.405	139.789	31.895	-112.474	-113.157	183.576	60.276	190.910	-7.808	181.658	0.00084635	0.0014092	0.00072557	377.2	3.0206e-06	2.9991e-05	618.58	196.92	8.8361e-06	1.8758e-05	351.72	188.76	107.06	63.732	8.0263e-06	111.81	0.01996	0.03112	0.0086148	531.95	0.00031349	0.00033873	755.74	242.15	0.00030543	0.00033065	421.61	210.8	128.09	70.854	0.00030307	120.5	-133.122	111.344	-87.828	-146.613	-101.634	4.264	-147.816	-142.922	-0.978	31.960	-144.903	-142.233	-141.108	-136.342	6.925	-138.086	-8191	255	
1169.584	1	1	0	0	0.12742	0.059092	0.14401	0.22535	0.11813	0.25713	0.070105	0.16888	0.24603	0.20558	0.25133	0.16801	0.28785	0.058986	0.00683	0.13912	-3.1437	-3.2896	-3.7958	-3.2625	-3.5708	-3.9938	-3.0625	-3.8896	-3.5854	-3.2479	-4.0479	-3.4813	-3.7229	-4.1146	-3.2375	-4.1042	-57.378	117.570	-88.963	-29.432	42.064	-158.665	198.283	174.070	-16.836	70.325	-109.554	-139.013	92.946	15.504	95.328	69.269	0.00090585	0.001962	0.00072634	382.19	1.186e-05	2.481e-05	624.24	198.71	6.1728e-06	1.6492e-05	351.92	189.94	107.83	64.067	1.0778e-05	111.57	0.018303	0.028282	0.0078906	520.21	0.00029122	0.00031372	747.1	239.87	0.0002879	0.0003175	419.58	210.98	128.49	70.965	0.00030391	120.32	-132.065	-71.287	-64.829	-147.195	-60.371	-78.197	-147.783	-142.850	8.146	43.024	-144.867	-142.002	-140.905	-136.901	10.184	-138.255	-8191	255	
1169.680	1	1	0	0	0.23363	0.056499	0.30689	0.095285	0.1647	0.18628	0.13704	0.12239	0.034635	0.16512	0.17521	0.16179	0.28473	0.13305	0.1574	0.11517	-3.3854	-3.2583	-4.0396	-3.2271	-3.5812	-3.9688	-3.2562	-3.7562	-3.4917	-3.2125	-4.0771	-3.425	-3.3833	-3.9521	-3.1854	-3.9938	-36.760	-129.061	39.176	168.826	145.633	78.556	141.252	127.673	-157.739	26.977	-154.404	145.400	-125.116	-20.370	-153.227	159.501	0.00091156	0.0010443	8.7636e-05	382.64	2.0559e-05	1.9518e-05	622.4	200.3	2.9299e-06	4.8432e-06	353.41	190.67	108.97	64.379	1.6902e-05	112.1	0.01841	0.02833	0.0079207	518.98	0.00028999	0.00031174	743.98	240.3	0.00028198	0.00031092	418.51	211.23	129	71.217	0.00029712	120.99	-146.892	154.573	-67.120	-146.635	-33.237	-118.259	-146.774	-142.376	-98.932	109.392	-144.743	-142.334	-141.177	-135.874	-74.063	-138.276	-8191	255	
1169.776	1	1	0	0	0.20035	0.13398	0.10718	0.21086	0.20028	0.18013	0.22194	0.17953	0.21335	0.16497	0.20171	0.14089	0.14721	0.31062	0.28426	0.22918	-3.4813	-3.0792	-3.8271	-3.5771	-3.3333	-3.8833	-3.4271	-3.6333	-3.7062	-3.0333	-3.9271	-3.6396	-3.3708	-4.1958	-3.1208	-3.7938	42.420	7.666	-129.222	35.931	-52.077	188.675	152.567	37.988	-74.676	167.399	-38.666	-121.940	-154.901	143.553	57.680	84.509	0.00068058	0.0010448	0.00030648	381.55	1.181e-05	4.2952e-06	625.56	202.47	8.1029e-06	7.4889e-06	358.83	194.36	110.61	65.252	8.864e-06	113.51	0.017985	0.027947	0.0078307	518.89	0.00028647	0.00030839	743.48	241.29	0.00027995	0.00030537	420.72	213.4	129.17	71.535	0.00028243	121.55	-143.230	-33.851	-31.259	-146.949	-52.369	89.744	-147.138	-142.929	-75.639	-62.396	-145.116	-142.088	-141.093	-136.628	-145.138	-138.588	-8191	255	
1169.895	1	1	0	0	0.26335	0.12709	0.050097	0.12713	0.15925	0.13892	0.17073	0.06865	0.18523	0.26748	0.11147	0.19194	0.11174	0.058958	0.10979	0.26387	-3.4208	-3.1458	-3.9521	-3.5896	-3.2	-3.8187	-3.3146	-3.4271	-3.9688	-3.0375	-3.8812	-3.7417	-3.3208	-4.1458	-3.425	-3.4729	142.576	76.232	58.640	105.400	53.252	-125.148	-106.555	143.034	-96.392	-40.526	23.633	176.522	88.702	-69.114	72.634	148.037	0.00085355	0.00066778	0.00031933	382.08	9.6242e-06	6.4644e-06	618.28	203.09	5.3472e-06	8.9091e-06	357.33	192.89	111.12	65.1	9.9563e-06	113.73	0.017141	0.026441	0.0073635	510.15	0.00027228	0.00029469	739.71	240.61	0.00027112	0.00029747	420.84	213.16	129.55	71.955	0.00029105	122.51	-135.438	37.756	-125.325	-147.117	-107.207	109.613	-148.691	-143.938	9.920	-141.535	-145.827	-143.239	-142.451	-137.712	-98.242	-139.734	-8191	255	
1169.991	1	1	0	0	0.019737	0.077314	0.15519	0.33348	0.20949	0.067961	0.11792	0.27275	0.099044	0.17505	0.19831	0.27751	0.22068	0.22645	0.11639	0.27583	-3.4188	-3.2917	-3.7896	-3.8208	-3.1104	-4.0312	-3.4042	-3.4271	-4.1042	-3.2687	-3.7896	-3.7313	-3.1479	-3.9104	-3.425	-3.4417	87.588	-117.908	136.575	117.525	179.816	98.193	92.971	127.514	-145.102	-4.105	180.156	167.175	136.306	125.701	-83.842	143.886	0.00094821	0.0017455	0.00058681	377.48	1.4229e-05	1.4477e-05	620.64	199.07	1.2919e-05	6.7808e-06	353.39	190.24	109.87	64.866	2.7998e-06	112.88	0.018085	0.028052	0.0079036	522.14	0.00029495	0.00032246	750.87	242.38	0.00029692	0.0003229	422.78	213.34	130.42	71.906	0.00030232	121.86	-130.366	-14.553	-61.899	-149.090	4.614	190.598	-149.316	-143.955	-29.251	158.474	-146.171	-143.345	-142.613	-138.020	47.486	-139.695	-8191	255	
1170.087	1	1	0	0	0.028072	0.085068	0.11283	0.14751	0.04806	0.16037	0.19059	0.037417	0.2303	0.19463	0.056745	0.22254	0.23438	0.22729	0.13048	0.069339	-3.5563	-3.0542	-3.6521	-3.7396	-3.0708	-3.9188	-3.4729	-3.4188	-3.9688	-3.1083	-3.5667	-3.9354	-3.1271	-3.9271	-3.6312	-3.5083	-137.527	189.497	60.295	-128.632	147.927	-151.092	-159.554	4.840	29.014	77.612	17.727	131.206	177.020	169.784	96.749	-38.884	0.0009661	0.0023435	6.7628e-05	377.06	3.1777e-05	1.3063e-05	616.61	201.17	1.1035e-05	1.322e-05	352.93	193.01	110.73	65.23	8.1824e-07	112.66	0.018336	0.028203	0.0078501	518.18	0.00028492	0.00030844	741.2	241.75	0.00027995	0.00030628	419.46	213.04	129.93	71.945	0.00029425	121.16	-143.501	-58.376	-84.085	-148.630	43.689	-43.188	-149.533	-144.321	-151.959	-40.423	-146.325	-143.627	-142.646	-137.644	24.524	-139.714	-8191	255	
1170.183	1	1	0	0	0.019861	0.17885	0.029798	0.19374	0.045399	0.24587	0.18087	0.10389	0.10476	0.3362	0.1209	0.13109	0.085338	0.18157	0.14064	0.19961	-3.5083	-3.3417	-3.4979	-4.0208	-3.0312	-3.8333	-3.6792	-3.2313	-3.9979	-3.1479	-3.5708	-4.1083	-3.2896	-3.9458	-3.6437	-3.2583	61.883	136.564	-161.030	29.616	-115.394	-145.010	159.061	110.966	44.798	-149.425	163.513	177.193	41.020	136.122	-11.932	115.363	0.00087011	0.0014139	0.00035929	382.67	1.3176e-05	5.2839e-06	622.19	199.9	7.6183e-06	1.8708e-05	353.71	190.97	110.08	64.673	1.1178e-05	112.39	0.018021	0.027609	0.007765	519.07	0.00028323	0.00030756	743.58	240.78	0.00027923	0.00030291	418.54	211.67	128.7	71.297	0.00028679	120.66	-138.541	-11.430	176.940	-148.199	130.896	29.366	-148.952	-144.451	-75.496	120.138	-146.125	-143.524	-142.216	-137.813	125.423	-139.719	-8191	255	
1170.279	1	1	0	0	0.18327	0.073088	0.11504	0.24487	0.13579	0.16015	0.24833	0.019285	0.23791	0.18808	0.18543	0.31385	0.0385	0.21478	0.11651	0.20009	-3.3833	-3.3688	-3.2583	-3.9604	-3.2062	-3.7354	-3.7292	-3.2583	-3.925	-3.4375	-3.4313	-3.9437	-3.3146	-3.7417	-3.7354	-3.4062	-94.676	54.214	42.824	111.144	73.317	35.941	141.811	15.177	169.020	143.957	156.004	134.057	196.774	147.173	169.303	194.379	0.00079573	0.00069375	0.00050327	379.18	8.7046e-07	1.2048e-05	621.13	200.65	3.5507e-06	1.3356e-05	352.62	190.2	109.14	64.138	1.5729e-05	111.69	0.017668	0.027347	0.0077379	517.13	0.000285	0.00030968	747.08	241.02	0.00028791	0.00031336	420.45	211.05	128.54	71.159	0.00029942	120.66	-122.457	99.662	4.863	-148.382	2.549	69.736	-149.001	-144.303	-57.570	161.234	-146.430	-143.222	-142.247	-137.580	-88.899	-139.390	-8191	255	
1170.376	1	1	0	0	0.19062	0.21678	0.13805	0.28631	0.09589	0.10219	0.22356	0.083517	0.054766	0.2079	0.26781	0.22793	0.081306	0.14934	0.1828	0.097196	-3.425	-3.6188	-3.4292	-4.0729	-3.1771	-3.6792	-3.8625	-3.1937	-3.8979	-3.6396	-3.425	-4.1333	-3.2646	-3.5375	-3.8854	-3.2812	-130.782	7.276	-0.978	181.085	112.680	-46.844	192.566	45.695	13.715	93.306	189.201	133.245	192.132	-65.736	-92.974	124.661	0.0009697	0.0014357	6.9436e-05	381.06	1.0982e-05	1.3122e-05	618.75	196.76	9.6806e-06	7.006e-06	346.06	185.54	105.46	62.376	7.4093e-06	109.08	0.018472	0.028641	0.0080613	523.98	0.0002978	0.00032422	750.81	239.92	0.00029797	0.00032383	416.08	207.08	126.07	69.761	0.00030502	118.12	-133.295	15.788	173.264	-148.131	-68.868	-70.954	-148.949	-144.315	21.833	-77.912	-145.885	-143.318	-141.963	-137.031	-72.836	-139.513	-8191	255	
1170.496	1	1	0	0	0.23121	0.049042	0.068579	0.12574	0.10922	0.092004	0.19954	0.13873	0.035156	0.022799	0.29028	0.24201	0.21537	0.29881	0.19722	0.19643	-3.4083	-3.6771	-3.0125	-3.8833	-3.2042	-3.4271	-4.0208	-3.3292	-3.6375	-3.6458	-3.2333	-4.0083	-3.3563	-3.475	-3.9375	-3.3083	-85.492	-99.150	146.432	5.328	129.784	-154.334	181.830	-56.502	95.895	-12.852	-152.425	162.171	153.950	103.925	-152.137	114.165	0.00075123	0.00077998	0.00085792	379.06	1.1095e-05	6.4678e-06	614.93	196.9	6.9393e-06	6.5074e-06	345.98	184.99	106.02	62.731	1.2988e-05	109.09	0.018579	0.028519	0.0080035	521.96	0.0002938	0.0003167	744.27	238.46	0.00029155	0.00031681	413.77	206.22	125.91	69.832	0.00029853	118.32	-128.137	109.418	-117.512	-147.688	-101.449	55.744	-149.239	-144.302	7.986	153.781	-146.057	-142.916	-142.111	-137.166	6.251	-139.362	-8191	255	
1170.592	1	1	0	0	0.068324	0.12701	0.035678	0.11879	0.046588	0.21168	0.30933	0.18664	0.13023	0.097584	0.082198	0.19648	0.33811	0.23409	0.11196	0.38623	-3.3104	-3.8583	-3.1312	-3.9833	-3.4771	-3.3021	-4.075	-3.1458	-3.7979	-3.8479	-3.0979	-3.9562	-3.6792	-3.3417	-3.8396	-3.3563	10.374	-137.311	57.336	138.117	134.701	13.185	152.138	108.889	-52.549	147.685	179.975	-144.853	167.554	146.724	-14.604	120.871	0.00074724	0.00069791	0.00071112	376.16	7.3962e-06	6.2317e-06	616.55	200.11	5.3693e-06	1.0303e-05	347.8	189.63	108.47	64.57	1.0937e-05	112.18	0.018085	0.027826	0.0078613	516.34	0.00028992	0.00031497	742.12	239.98	0.00029193	0.00031617	417.33	210.88	128.64	71.552	0.00030355	121	-143.442	-35.686	-113.821	-147.469	149.342	-40.444	-148.847	-144.101	-6.908	-9.308	-145.659	-142.867	-141.838	-137.221	180.858	-139.338	-8191	255	
1170.687	1	1	0	0	0.11877	0.077699	0.27524	0.25094	0.026658	0.19494	0.14199	0.1428	0.26939	0.151	0.25593	0.11463	0.11954	0.10736	0.10597	0.22007	-3.1562	-3.8333	-3.1958	-3.5812	-3.5438	-3.1792	-3.9813	-3.3438	-3.4021	-4.0021	-3.3375	-3.9813	-3.7604	-3.275	-3.8458	-3.5875	-143.377	-87.373	-53.433	71.859	-127.267	158.057	121.311	121.377	49.861	-158.323	109.565	99.129	143.696	-154.519	-160.875	113.161	0.00078246	0.0015231	0.00059091	379.41	1.9099e-05	1.1753e-05	619.87	199.77	1.6289e-05	1.3524e-05	353.58	192.85	111.28	65.476	3.0926e-06	112.89	0.018552	0.028673	0.0080213	521.64	0.00029411	0.00031886	746.79	241.48	0.00029287	0.000319	421.1	214.2	130.87	72.55	0.00030463	122.35	-143.330	-25.297	-51.516	-147.748	62.543	-87.727	-148.475	-144.230	-112.380	9.166	-145.831	-143.331	-142.371	-137.666	-98.736	-139.319	-8191	255	
1170.785	1	1	0	0	0.23497	0.12385	0.11661	0.12457	0.083511	0.13001	0.14681	0.2351	0.10189	0.15124	0.38128	0.38198	0.27857	0.27547	0.023777	0.10897	-3.0521	-3.7542	-3.1354	-3.7042	-3.6625	-3.1646	-3.9938	-3.5625	-3.3667	-3.9313	-3.3146	-3.8292	-3.8354	-3.2083	-3.9354	-3.5667	-134.277	65.700	-67.056	-36.964	-60.952	80.725	87.292	-144.745	-129.611	190.365	128.603	173.417	-159.746	173.816	78.403	99.309	0.0009591	0.0010796	0.00025255	375.75	1.097e-05	4.0322e-06	614.03	198.21	1.0043e-05	2.3767e-05	350.05	193.83	112.26	66.028	1.7231e-05	113.27	0.01845	0.028694	0.0080122	520.28	0.00029637	0.00032161	742.39	241.55	0.0002934	0.00032071	418.27	214.85	131.66	72.988	0.00029714	121.94	-128.763	-114.876	22.324	-147.694	36.918	-72.339	-147.947	-143.946	-1.455	64.799	-145.523	-142.879	-142.243	-137.776	30.044	-139.608	-8191	255	
1170.879	1	1	0	0	0.083378	0.18899	0.25985	0.087696	0.11775	0.12109	0.12363	0.1935	0.14023	0.072866	0.029488	0.05228	0.24928	0.12373	0.028244	0.1173	-2.8604	-3.9333	-3.1917	-3.6771	-3.7729	-3.1854	-3.8625	-3.6854	-3.0417	-3.8812	-3.3896	-3.5396	-4.0625	-3.2604	-3.6708	-3.7542	-146.103	102.915	101.138	139.173	113.140	-39.733	-81.298	130.861	82.353	-38.706	62.271	-109.998	184.630	131.314	-26.411	38.672	0.00086342	0.0035403	0.00019465	380.44	1.5845e-05	1.6607e-05	612.32	199.91	1.855e-05	1.7932e-05	349.3	194.28	112.22	66.292	9.4679e-06	113.54	0.01822	0.028106	0.0078888	518.06	0.00029134	0.00031482	739.46	241.66	0.00029035	0.00031679	418.2	215.09	132.24	73.199	0.00030258	122.51	-134.585	-116.340	-31.343	-148.143	75.401	-83.209	-148.359	-143.444	10.208	112.830	-145.772	-142.712	-141.785	-136.592	-51.322	-138.874	-8191	255	
#DATA ENDS
