BOXY.EXE: ISS Imagent and Oximeter Data Acquisition Program Version 0.80
Ascii Record File

#ACQ INFORMATION
2  Detector Channels 
16  External MUX Channels 
1  Auxiliary Channels 
5000  Waveform (CCF) Frequency (Hz)
1  Waveforms Skipped 
30  Waveforms Averaged 
1  Cycles Averaged 
16  Acquisitions per Waveform 
10.0806  Updata Rate (Hz) 

#FILE INFORMATION
TRUE -- External MUX Channel results are PARSED.
FALSE -- AC DC and Phase are NOT grouped.
TRUE -- Companion Program Settings File CREATED.
FALSE -- AC data not excluded
FALSE -- DC data not excluded
FALSE -- Phase data not excluded
FALSE -- Auxillary Chn. data not excluded
Tab delimiters

#CALIBRATION STATE
TRUE -- Waveform Calibration Values APPLIED.


#AUX CALIBRATION VALUES
Val Type	aux-1	

Term	1.0000e+00	
Factor	0.0000e+00	


#WF CALIBRATION VALUES
A = Detector Channel
Val Type	A-AC1	A-AC2	A-AC3	A-AC4	A-AC5	A-AC6	A-AC7	A-AC8	A-AC9	A-AC10	A-AC11	A-AC12	A-AC13	A-AC14	A-AC15	A-AC16	A-DC1	A-DC2	A-DC3	A-DC4	A-DC5	A-DC6	A-DC7	A-DC8	A-DC9	A-DC10	A-DC11	A-DC12	A-DC13	A-DC14	A-DC15	A-DC16	A-Ph1	A-Ph2	A-Ph3	A-Ph4	A-Ph5	A-Ph6	A-Ph7	A-Ph8	A-Ph9	A-Ph10	A-Ph11	A-Ph12	A-Ph13	A-Ph14	A-Ph15	A-Ph16	

Term	0.00000e+00	0.00000e+00	0.00000e+00	0.00000e+00	0.00000e+00	0.00000e+00	0.00000e+00	0.00000e+00	0.00000e+00	0.00000e+00	0.00000e+00	0.00000e+00	0.00000e+00	0.00000e+00	0.00000e+00	0.00000e+00	0.00000e+00	0.00000e+00	0.00000e+00	0.00000e+00	0.00000e+00	0.00000e+00	0.00000e+00	0.00000e+00	0.00000e+00	0.00000e+00	0.00000e+00	0.00000e+00	0.00000e+00	0.00000e+00	0.00000e+00	0.00000e+00	0.00000e+00	0.00000e+00	0.00000e+00	0.00000e+00	0.00000e+00	0.00000e+00	0.00000e+00	0.00000e+00	0.00000e+00	0.00000e+00	0.00000e+00	0.00000e+00	0.00000e+00	0.00000e+00	0.00000e+00	0.00000e+00	
Factor	1.00000e+00	1.00000e+00	1.00000e+00	1.00000e+00	1.00000e+00	1.00000e+00	1.00000e+00	1.00000e+00	1.00000e+00	1.00000e+00	1.00000e+00	1.00000e+00	1.00000e+00	1.00000e+00	1.00000e+00	1.00000e+00	1.00000e+00	1.00000e+00	1.00000e+00	1.00000e+00	1.00000e+00	1.00000e+00	1.00000e+00	1.00000e+00	1.00000e+00	1.00000e+00	1.00000e+00	1.00000e+00	1.00000e+00	1.00000e+00	1.00000e+00	1.00000e+00	X	X	X	X	X	X	X	X	X	X	X	X	X	X	X	X	

B = Detector Channel
Val Type	B-AC1	B-AC2	B-AC3	B-AC4	B-AC5	B-AC6	B-AC7	B-AC8	B-AC9	B-AC10	B-AC11	B-AC12	B-AC13	B-AC14	B-AC15	B-AC16	B-DC1	B-DC2	B-DC3	B-DC4	B-DC5	B-DC6	B-DC7	B-DC8	B-DC9	B-DC10	B-DC11	B-DC12	B-DC13	B-DC14	B-DC15	B-DC16	B-Ph1	B-Ph2	B-Ph3	B-Ph4	B-Ph5	B-Ph6	B-Ph7	B-Ph8	B-Ph9	B-Ph10	B-Ph11	B-Ph12	B-Ph13	B-Ph14	B-Ph15	B-Ph16	

Term	0.00000e+00	0.00000e+00	0.00000e+00	0.00000e+00	0.00000e+00	0.00000e+00	0.00000e+00	0.00000e+00	0.00000e+00	0.00000e+00	0.00000e+00	0.00000e+00	0.00000e+00	0.00000e+00	0.00000e+00	0.00000e+00	0.00000e+00	0.00000e+00	0.00000e+00	0.00000e+00	0.00000e+00	0.00000e+00	0.00000e+00	0.00000e+00	0.00000e+00	0.00000e+00	0.00000e+00	0.00000e+00	0.00000e+00	0.00000e+00	0.00000e+00	0.00000e+00	-1.09754e+02	-1.38239e+02	-1.31532e+02	-1.81391e+02	-5.83897e+01	-6.33243e+01	-1.56241e+02	-1.62015e+02	-6.27957e+01	-6.37577e+01	-1.71665e+02	-1.69273e+02	-1.84696e+02	-1.76456e+02	-6.03418e+01	-1.48566e+02	
Factor	1.80032e-05	1.77734e-04	5.07847e-05	1.53170e-01	1.28778e-06	1.75967e-06	1.74453e-01	5.42787e-02	1.21557e-06	1.68431e-06	9.53181e-02	3.01745e-02	2.53625e-02	9.70778e-03	1.52160e-06	1.39865e-02	5.92495e-06	7.47141e-06	2.08445e-06	7.86376e-02	7.93799e-08	8.28280e-08	8.42936e-02	2.80420e-02	7.93589e-08	8.30258e-08	4.74837e-02	1.51785e-02	1.32141e-02	5.04186e-03	8.08542e-08	7.02531e-03	X	X	X	X	X	X	X	X	X	X	X	X	X	X	X	X	



#DISTANCE SETTINGS
A = Detector Channel
A-1	A-2	A-3	A-4	A-5	A-6	A-7	A-8	A-9	A-10	A-11	A-12	A-13	A-14	A-15	A-16	

2.5000e+00	3.0000e+00	2.5000e+00	3.0000e+00	2.0000e+00	3.0000e+00	1.5000e+00	3.0000e+00	3.0000e+00	3.0000e+00	3.0000e+00	3.0000e+00	3.0000e+00	3.0000e+00	1.5000e+00	3.0000e+00	

B = Detector Channel
B-1	B-2	B-3	B-4	B-5	B-6	B-7	B-8	B-9	B-10	B-11	B-12	B-13	B-14	B-15	B-16	

1.0000e+01	1.0000e+01	1.0000e+01	1.4400e+00	1.0000e+01	1.0000e+01	1.5100e+00	1.9400e+00	1.0000e+01	1.0000e+01	1.9900e+00	2.4900e+00	2.4100e+00	2.9000e+00	1.0000e+01	2.9800e+00	




#DATA BEGINS
time	group	step	mark	flag	A-AC1	A-AC2	A-AC3	A-AC4	A-AC5	A-AC6	A-AC7	A-AC8	A-AC9	A-AC10	A-AC11	A-AC12	A-AC13	A-AC14	A-AC15	A-AC16	A-DC1	A-DC2	A-DC3	A-DC4	A-DC5	A-DC6	A-DC7	A-DC8	A-DC9	A-DC10	A-DC11	A-DC12	A-DC13	A-DC14	A-DC15	A-DC16	A-Ph1	A-Ph2	A-Ph3	A-Ph4	A-Ph5	A-Ph6	A-Ph7	A-Ph8	A-Ph9	A-Ph10	A-Ph11	A-Ph12	A-Ph13	A-Ph14	A-Ph15	A-Ph16	B-AC1	B-AC2	B-AC3	B-AC4	B-AC5	B-AC6	B-AC7	B-AC8	B-AC9	B-AC10	B-AC11	B-AC12	B-AC13	B-AC14	B-AC15	B-AC16	B-DC1	B-DC2	B-DC3	B-DC4	B-DC5	B-DC6	B-DC7	B-DC8	B-DC9	B-DC10	B-DC11	B-DC12	B-DC13	B-DC14	B-DC15	B-DC16	B-Ph1	B-Ph2	B-Ph3	B-Ph4	B-Ph5	B-Ph6	B-Ph7	B-Ph8	B-Ph9	B-Ph10	B-Ph11	B-Ph12	B-Ph13	B-Ph14	B-Ph15	B-Ph16	aux-1	digaux	

35288.230	1	1	0	768	0.29397	0.27895	0.14696	0.19278	0.2458	0.11878	0.47848	0.23042	0.26563	0.27308	0.202	0.061899	0.10062	0.14027	0.32777	0.064479	-0.57083	-0.45	-1.0979	-0.48125	-0.79167	-1.1833	-0.43333	-1.1875	-1.0271	-0.36042	-1.4271	-0.4875	-0.78125	-1.2229	-0.29167	-1.2896	-47.973	-21.354	149.069	170.694	98.683	-30.726	-65.540	90.621	121.698	-41.603	5.824	232.895	98.841	236.591	166.187	49.240	8.5303e-05	0.0009253	0.00017475	651.66	2.1165e-06	1.3928e-05	329.06	192.43	5.4394e-07	2.6447e-06	100.15	29.562	59.744	24.126	4.5755e-06	11.988	0.0031363	0.0038811	0.0010849	705	4.0683e-05	4.2135e-05	378.46	210.64	3.9383e-05	4.0855e-05	125.01	37.567	67.775	27.322	3.8335e-05	15.541	-107.686	52.403	146.173	-107.332	-15.201	-5.998	-108.927	-102.353	200.044	7.773	-105.663	-101.008	-97.318	-91.957	-58.169	-96.315	-8191	255	
35288.328	1	1	0	0	0.11523	0.33715	0.18818	0.3748	0.29807	0.12926	0.014395	0.1673	0.099211	0.17567	0.073729	0.22025	0.21263	0.1343	0.22149	0.11373	-0.56667	-0.53125	-1.1917	-0.675	-0.5	-1.2479	-0.39792	-0.9375	-1.0521	-0.27292	-1.3188	-0.61875	-0.47083	-1.1313	-0.35625	-0.84167	-117.109	-47.837	87.778	-109.380	222.583	172.722	55.643	182.152	-24.423	183.840	-41.615	169.221	35.438	185.850	68.605	78.151	1.4743e-05	0.00014373	0.00032895	653.66	3.1234e-06	1.2119e-06	333.4	192.51	2.0568e-06	8.6194e-07	101.83	29.006	59.369	24.059	6.8213e-06	11.911	0.0027938	0.0035369	0.00098547	702.17	3.7882e-05	3.9645e-05	378.23	211.05	3.8512e-05	4.0862e-05	126.29	37.72	67.93	27.444	3.9807e-05	15.635	-11.907	-112.292	-23.488	-107.205	52.622	206.469	-109.205	-102.419	-88.145	6.058	-105.813	-101.670	-97.365	-91.728	60.621	-96.496	-8191	255	
35288.422	1	1	0	0	0.15865	0.17695	0.39478	0.27323	0.062631	0.33886	0.19968	0.081208	0.11115	0.47791	0.089766	0.097673	0.13134	0.072399	0.10056	0.15505	-0.56042	-0.14792	-1.2563	-0.82083	-0.54792	-1.1938	-0.36875	-0.89583	-1.1167	-0.46042	-1.1917	-0.84583	-0.36667	-1.1583	-0.24167	-0.79583	142.229	-17.994	-59.302	-110.375	-12.923	166.141	100.244	190.784	-112.905	79.548	-30.676	-97.197	160.196	85.753	49.995	55.750	4.8525e-05	0.0011284	0.00016615	652.81	2.9185e-06	7.2891e-06	333.45	192.93	2.6851e-06	9.068e-06	101.1	29.266	59.54	23.97	3.6625e-06	11.809	0.0028951	0.0036717	0.0010179	702.93	3.9076e-05	4.0617e-05	379.45	212.04	3.888e-05	4.0778e-05	126.11	37.579	67.737	27.195	3.8931e-05	15.476	-118.085	-62.230	120.633	-107.086	118.580	-56.317	-109.467	-102.377	13.181	206.318	-105.689	-101.485	-97.420	-91.670	232.793	-96.171	-8191	255	
35288.520	1	1	0	0	0.19492	0.21022	0.15867	0.16963	0.07968	0.20317	0.17151	0.37841	0.19085	0.17823	0.13077	0.31088	0.32356	0.068404	0.094001	0.074928	-0.63125	-0.20625	-0.96667	-0.98125	-0.49375	-1.1333	-0.64792	-0.59375	-1.1208	-0.33125	-1.0438	-0.875	-0.26458	-1.2229	-0.49375	-0.65	100.346	-100.228	-27.716	144.903	98.136	137.375	-85.436	171.909	150.713	51.373	170.267	14.953	22.895	225.764	186.476	49.992	0.00014322	0.00043397	0.00020164	654.48	4.8522e-06	4.1122e-06	329.36	193.07	4.4601e-06	3.8505e-06	100.91	28.838	59.231	23.853	7.42e-06	11.643	0.0028267	0.0035166	0.00097951	702.43	3.711e-05	3.88e-05	376.29	210.85	3.7175e-05	3.9042e-05	124.98	36.943	67.329	26.986	3.8278e-05	15.193	-101.808	-73.354	43.275	-107.265	15.347	-73.711	-109.112	-102.350	-111.369	21.323	-105.752	-101.418	-97.384	-91.828	-81.485	-96.830	-8191	255	
35288.613	1	1	0	0	0.17534	0.38798	0.35165	0.083052	0.14341	0.31499	0.30701	0.080394	0.25782	0.16512	0.15196	0.12876	0.22035	0.26889	0.15153	0.23741	-0.92917	-0.37708	-0.96042	-0.91875	-0.44792	-1.0688	-0.725	-0.52292	-1.0792	-0.22292	-1.075	-1.1458	-0.57083	-1.1917	-0.53125	-0.69375	129.779	206.395	97.307	54.405	-75.124	144.350	225.733	110.969	-62.559	76.420	182.053	143.755	182.685	-105.814	234.055	-105.867	0.00011628	0.00035803	9.2592e-05	650.58	1.0023e-06	1.7231e-06	328.32	192.24	2.1692e-06	2.589e-06	101.02	28.801	58.958	23.841	2.953e-06	11.687	0.0027866	0.0035161	0.00097443	699.04	3.7217e-05	3.9017e-05	374.82	210.25	3.6801e-05	3.8404e-05	123.95	36.62	66.931	26.879	3.6942e-05	15.115	167.817	59.005	2.169	-107.432	-47.891	-17.713	-109.438	-102.336	90.455	-15.369	-105.878	-101.066	-97.268	-91.787	173.099	-96.730	-8191	255	
35288.711	1	1	0	0	0.19772	0.3219	0.12995	0.18344	0.20847	0.12252	0.15671	0.40459	0.25374	0.052469	0.11407	0.23802	0.22242	0.31111	0.31001	0.12693	-0.68542	-0.3	-0.71042	-0.92083	-0.31667	-1.2437	-0.96458	-0.59167	-1.1812	-0.42708	-0.8125	-1.2437	-0.36667	-1.0354	-0.80417	-0.48125	-96.018	157.437	81.800	159.426	-34.036	102.619	-99.501	-43.549	185.313	-85.995	151.958	93.889	99.296	-105.815	194.551	126.784	5.853e-05	0.00039439	0.00011486	650.64	3.0758e-06	5.1181e-06	329.85	191.99	3.5995e-06	7.4296e-06	100.95	28.718	59.114	23.714	8.7957e-06	11.675	0.0026753	0.0033808	0.0009413	698.46	3.619e-05	3.7604e-05	373.78	210.42	3.7095e-05	3.9501e-05	124.83	37.021	67.487	27.048	4.0052e-05	15.372	215.623	-46.363	-41.672	-106.949	-82.244	111.351	-109.190	-102.198	-37.991	33.591	-105.771	-101.574	-97.326	-91.339	4.188	-96.585	-8191	255	
35288.828	1	1	0	0	0.16441	0.43573	0.12052	0.21613	0.22208	0.090252	0.13526	0.12596	0.17486	0.3195	0.1484	0.20772	0.22688	0.28947	0.12029	0.05769	-0.82083	-0.66042	-0.65	-1.2687	-0.4875	-0.93125	-0.86875	-0.46875	-1.125	-0.5125	-0.63333	-1.2625	-0.36875	-0.91042	-1.0979	-0.11042	169.224	-71.967	-9.893	-38.807	-48.953	38.138	18.394	60.231	69.924	51.526	37.873	109.164	-22.814	107.521	238.199	118.856	9.1674e-05	0.00027834	0.00026571	653.04	2.8063e-06	3.4401e-06	330.7	193.17	3.1435e-06	4.4488e-06	100.45	29.013	59.253	23.602	3.8024e-06	11.523	0.0029887	0.0038105	0.0010447	702.99	3.9527e-05	4.0932e-05	377.31	211.49	3.8707e-05	4.0393e-05	125.56	37.131	67.338	26.832	3.953e-05	15.258	-117.677	223.212	50.455	-107.069	13.306	43.785	-108.868	-102.486	181.996	19.145	-105.767	-101.818	-97.241	-91.452	-40.818	-96.240	-8191	255	
35288.926	1	1	0	0	0.16833	0.2587	0.22703	0.25194	0.23195	0.041628	0.28178	0.20129	0.24718	0.033173	0.22839	0.20092	0.048023	0.24003	0.17304	0.19956	-0.95625	-0.54583	-0.60833	-1.4604	-0.27917	-0.9	-0.87083	-0.5	-1.1229	-0.55208	-0.30833	-1.2208	-0.45833	-0.78958	-1.0312	-0.31458	194.019	-96.136	106.544	199.162	89.208	70.217	121.937	178.776	132.040	128.791	85.849	-18.048	-34.586	5.616	-73.213	114.601	0.00013001	0.00026141	0.00013317	652.74	6.4383e-06	2.1752e-06	331.94	193.58	2.0598e-06	4.2024e-06	100.75	28.924	59.202	23.446	6.263e-06	11.437	0.0029518	0.0037338	0.0010462	704.79	4.0449e-05	4.2744e-05	381.08	212.87	4.1477e-05	4.3484e-05	127.38	37.694	68.006	26.911	4.3061e-05	15.418	234.492	16.423	154.101	-107.043	-19.385	48.603	-108.870	-102.610	-50.633	117.343	-105.325	-101.279	-97.675	-91.854	-23.105	-96.746	-8191	255	
35289.023	1	1	0	0	0.22429	0.11896	0.093332	0.38231	0.14583	0.39218	0.13768	0.11829	0.20453	0.39559	0.14385	0.18277	0.17079	0.26957	0.24812	0.23691	-0.89792	-0.65	-0.60625	-1.3125	-0.55	-0.79167	-1.2542	-0.41042	-1.2062	-0.59375	-0.45625	-1.1333	-0.62292	-0.81875	-1.2125	-0.52083	3.286	43.816	-21.955	231.700	11.753	-33.815	220.936	155.528	-63.114	145.434	120.748	-118.563	199.608	-53.104	74.238	205.824	1.26e-05	0.00054745	7.2675e-06	650.27	3.9921e-06	7.1981e-06	330.41	192.9	3.695e-06	7.4487e-06	100.05	28.322	58.427	23.081	4.6784e-06	11.196	0.0032092	0.0040298	0.0011246	704.72	4.3516e-05	4.564e-05	382.02	213.33	4.469e-05	4.7052e-05	128.63	37.935	68.193	26.769	4.6737e-05	15.491	-43.670	-56.117	-34.825	-106.924	14.200	50.951	-108.821	-102.642	-4.319	197.110	-106.051	-101.179	-97.562	-91.448	74.556	-96.429	-8191	255	
35289.117	1	1	0	0	0.099203	0.070417	0.21895	0.064565	0.15376	0.10022	0.13849	0.10841	0.12936	0.16279	0.35685	0.28231	0.17686	0.11766	0.12114	0.31614	-0.84167	-0.80625	-0.0875	-1.4062	-0.55833	-0.69792	-1.3375	-0.33958	-1.225	-0.87292	-0.31458	-1.2417	-0.525	-0.58542	-1.4479	-0.425	113.164	55.617	238.073	81.644	217.528	-88.634	121.171	-28.148	55.983	205.787	186.492	186.088	-88.291	168.968	140.476	123.282	0.00012255	0.00060805	0.00018918	648.47	3.4247e-06	1.8868e-06	328	192.16	2.9498e-06	4.6578e-06	100.29	28.218	58.542	23.072	1.8047e-06	11.087	0.0034186	0.0042811	0.0011953	706.93	4.6114e-05	4.7545e-05	381.8	213.03	4.5592e-05	4.7608e-05	128.97	37.894	68.058	26.73	4.7591e-05	15.539	-119.502	17.928	28.033	-106.828	38.207	152.342	-108.791	-102.674	-116.125	-74.553	-106.115	-101.661	-97.796	-91.597	-17.461	-96.702	-8191	255	
35289.215	1	1	0	0	0.19652	0.099379	0.039669	0.28545	0.28688	0.19165	0.32026	0.32379	0.19725	0.29154	0.11138	0.065291	0.074655	0.29717	0.04281	0.42222	-0.58125	-1.0271	-0.34792	-1.1812	-0.64375	-0.58125	-1.2771	-0.36042	-0.83333	-0.98542	-0.35833	-1.1042	-0.65833	-0.41667	-1.1604	-0.51042	-56.126	13.829	-50.501	-96.056	200.886	38.355	116.882	-14.357	-76.058	-36.634	-83.074	60.854	-78.192	-56.092	60.283	-93.771	7.3797e-05	0.00023038	0.00019089	653.64	5.43e-06	8.7304e-06	327.74	192.5	5.0048e-06	4.786e-06	99.98	28.323	58.288	23.016	3.9923e-06	11.012	0.0035634	0.0044866	0.0012527	710.92	4.8374e-05	5.0802e-05	386.23	214.66	4.9962e-05	5.3103e-05	131.62	38.885	68.717	26.86	5.0627e-05	15.704	201.855	-12.843	5.493	-107.055	-0.201	176.781	-108.744	-102.609	-19.659	-11.723	-105.729	-101.234	-97.871	-91.652	175.791	-96.762	-8191	255	
35289.312	1	1	0	0	0.12819	0.20539	0.090927	0.23457	0.21481	0.12726	0.22455	0.23397	0.19561	0.045338	0.039848	0.048447	0.23013	0.22071	0.19383	0.31194	-0.4625	-0.98958	-0.3	-1.2917	-0.81042	-0.525	-1.3833	-0.56875	-0.9125	-1.3687	-0.39583	-1.3167	-0.60208	-0.53333	-1.2042	-0.5625	-15.096	-69.530	82.819	161.450	-48.104	47.246	129.003	84.111	176.865	22.668	43.154	-10.179	30.496	37.891	106.916	-39.193	6.1624e-05	0.0005035	0.00013322	649.35	2.5125e-06	5.3197e-06	326.5	192.83	6.7148e-06	7.7815e-06	99.547	28.395	58.535	23.177	3.8662e-06	11.121	0.0037554	0.0046484	0.0013047	711.46	4.965e-05	5.1396e-05	385.99	214.37	4.8487e-05	5.0249e-05	129.8	38.26	68.128	26.772	4.6057e-05	15.462	227.870	-76.403	-36.914	-107.151	-90.118	235.015	-108.708	-102.580	111.162	136.780	-105.372	-101.813	-97.621	-91.736	99.957	-96.089	-8191	255	
35289.406	1	1	0	0	0.024187	0.12633	0.14668	0.19121	0.097241	0.11042	0.086436	0.067108	0.13327	0.0924	0.16898	0.26265	0.14667	0.18649	0.21503	0.065047	-0.21042	-1.2708	-0.23125	-1.0458	-0.93333	-0.37083	-1.5854	-0.57292	-0.5875	-1.2646	-0.36458	-0.88542	-1.0604	-0.15625	-1.3792	-0.7	20.042	15.278	196.980	-88.843	-120.580	-49.216	189.089	45.907	-65.440	-119.176	189.231	-78.606	-87.051	202.607	231.791	130.518	0.00010227	0.00094565	0.00011844	651.1	4.9312e-06	3.0891e-06	326.99	192.2	2.2545e-06	9.503e-06	98.945	28.205	58.715	23.3	5.5242e-06	11.182	0.0033821	0.0041944	0.0011644	705.83	4.418e-05	4.5194e-05	379.4	212.12	4.2313e-05	4.3429e-05	125.82	37.098	67.401	26.615	4.1109e-05	15.098	212.295	-97.292	77.020	-106.986	137.814	-7.305	-108.639	-102.657	212.175	66.752	-105.941	-101.508	-97.759	-91.451	-39.899	-96.272	-8191	255	
35289.527	1	1	0	0	0.069867	0.067189	0.13896	0.14299	0.19327	0.10739	0.072573	0.10647	0.093613	0.21014	0.035145	0.1268	0.17084	0.15126	0.084509	0.071444	-0.045833	-1.4813	-0.20625	-1.1396	-1.2021	-0.3875	-1.1729	-0.81458	-0.50625	-1.1812	-0.26042	-0.81875	-1.0604	-0.42708	-1.2104	-0.80625	-63.580	28.377	196.495	228.841	27.455	-59.262	237.258	-17.919	75.397	38.353	-78.264	-22.186	-34.218	188.202	5.857	70.920	8.547e-05	0.00058307	0.00013809	648.67	4.8074e-06	8.5573e-06	323.32	191.34	2.6553e-06	7.0188e-06	97.69	28.176	58.648	23.379	3.6681e-06	11.223	0.0029845	0.0037328	0.001042	699.25	3.9143e-05	4.0666e-05	371.27	209.62	3.8931e-05	4.0547e-05	122.89	36.341	66.773	26.519	3.8473e-05	14.779	229.345	-14.690	53.198	-107.161	55.216	-39.339	-108.835	-102.461	226.415	209.476	-106.043	-101.362	-97.500	-91.950	188.549	-96.518	-8191	255	
35289.621	1	1	0	0	0.17956	0.36088	0.21766	0.28123	0.37231	0.010909	0.17564	0.19662	0.1768	0.05627	0.28283	0.098493	0.14508	0.11765	0.35289	0.16169	0	-1.15	-0.30625	-1.1	-1.0917	-0.275	-1.0833	-0.78958	-0.25417	-1.2729	-0.5125	-0.72708	-1.3208	-0.28125	-1.2042	-0.95208	-20.080	25.561	221.995	222.180	234.334	84.496	-95.651	121.432	139.662	112.372	232.800	-70.399	238.983	193.184	-61.421	163.641	8.9305e-05	0.00061824	0.00021705	647.66	7.4909e-07	5.7608e-06	321.74	191.06	3.376e-06	2.4354e-06	98.146	28.266	58.773	23.455	8.0571e-06	11.305	0.0027694	0.003442	0.00096028	695.01	3.6194e-05	3.7681e-05	367.66	208.41	3.6442e-05	3.8011e-05	121.96	36.161	66.533	26.514	3.7262e-05	14.786	184.903	55.166	-64.947	-106.840	-105.651	-56.545	-108.911	-102.759	-4.536	-69.072	-105.623	-101.037	-97.716	-91.508	20.236	-96.298	-8191	255	
35289.719	1	1	0	0	0.19104	0.39304	0.18901	0.087395	0.12775	0.12308	0.17647	0.41037	0.067679	0.23054	0.1838	0.1309	0.20936	0.10333	0.23057	0.12036	-0.08125	-1.2958	-0.52292	-0.88958	-1.425	-0.30417	-1.125	-0.97917	-0.45208	-1.1917	-0.6375	-0.475	-1.1354	-0.40417	-0.88125	-1.0271	232.643	-95.166	-62.114	195.459	-6.144	205.363	136.346	186.846	188.332	-44.783	-32.405	-115.352	132.451	50.542	90.933	-45.559	2.2887e-05	0.00074873	0.00021412	647.42	2.3325e-06	2.6589e-06	326.24	192.31	3.9946e-06	3.3626e-06	98.929	28.579	58.731	23.508	6.8797e-06	11.348	0.0027437	0.0033989	0.00094641	695.15	3.5363e-05	3.7192e-05	369.06	208.79	3.552e-05	3.711e-05	122.09	36.194	66.626	26.544	3.6328e-05	14.748	150.301	218.850	-50.683	-107.038	55.961	-76.800	-108.876	-102.514	195.195	66.367	-105.066	-101.813	-97.053	-91.757	61.163	-96.072	-8191	255	
35289.793	1	1	0	0	0.055283	0.29146	0.13628	0.098764	0.18207	0.055317	0.16971	0.064531	0.23507	0.046924	0.47474	0.023708	0.056064	0.14253	0.20792	0.16481	0.10208	-1.0354	-0.63333	-0.56875	-1.1958	-0.39792	-0.87708	-0.86875	-0.15625	-1.1271	-0.6125	-0.3	-1.1396	-0.5125	-0.675	-1.175	220.633	108.975	212.074	174.631	43.329	-40.065	194.096	123.470	1.871	215.787	192.354	-109.348	145.273	-40.814	86.787	129.046	3.156e-05	0.00029138	4.1208e-05	649.3	4.5831e-06	1.7412e-06	326.92	192.47	3.3452e-06	7.9181e-06	99.666	28.726	59.09	23.644	7.6856e-06	11.487	0.0026534	0.0033319	0.00092641	696.98	3.5421e-05	3.7414e-05	371.77	209.86	3.6128e-05	3.777e-05	122.8	36.361	66.9	26.661	3.6408e-05	14.867	161.703	-52.232	144.408	-106.874	-69.276	-74.899	-108.829	-102.373	208.749	-0.878	-105.648	-101.414	-97.251	-91.605	198.056	-95.906	-8191	255	
35289.910	1	1	0	0	0.10326	0.32476	0.055923	0.2094	0.26177	0.2946	0.15912	0.16719	0.16375	0.044678	0.12544	0.15642	0.23255	0.050816	0.2361	0.13423	0.14792	-1.0729	-0.80833	-0.48958	-1.2021	-0.45417	-0.81458	-1.1521	-0.29167	-1.0583	-0.87292	-0.55417	-1.1208	-0.5875	-0.63542	-1.0167	210.067	-71.562	231.216	230.992	155.493	149.236	142.728	-78.355	-89.275	-11.602	109.466	-38.813	70.595	151.195	-92.220	146.019	0.00010403	0.00035385	0.00022705	651.19	3.3129e-06	4.5765e-06	328.69	193.04	2.6715e-06	1.8337e-06	99.268	28.497	58.68	23.565	4.407e-06	11.416	0.0026638	0.0033621	0.0009372	699.18	3.5806e-05	3.7821e-05	373.03	210.45	3.6783e-05	3.828e-05	123.26	36.432	66.9	26.664	3.8737e-05	14.911	-67.232	155.859	32.244	-107.022	69.368	-0.021	-108.861	-102.679	-0.147	-70.579	-105.864	-101.238	-97.418	-91.304	51.356	-96.593	-8191	255	
35290.008	1	1	0	0	0.07018	0.15589	0.2363	0.25762	0.13106	0.17529	0.17579	0.1352	0.14977	0.17281	0.19911	0.2226	0.2365	0.18611	0.22324	0.023138	0.035417	-1.1896	-0.77708	-0.275	-1.2604	-0.44375	-0.6	-1.4	-0.24583	-1.1042	-1.05	-0.26042	-1.1958	-0.63958	-0.41458	-1.2062	44.568	174.711	104.724	180.430	-61.188	86.463	169.343	-40.570	-88.251	26.626	204.348	-119.803	-75.081	-112.631	173.478	109.453	0.00012769	0.00064625	5.8536e-05	650.25	3.3638e-06	2.6012e-06	323.47	193.07	2.4142e-06	6.344e-06	99.271	28.125	58.847	23.266	3.1659e-06	11.216	0.0028147	0.003544	0.00098616	697.88	3.723e-05	3.9255e-05	370.67	210.52	3.765e-05	3.932e-05	123.74	36.302	67.041	26.476	3.8794e-05	14.784	229.350	-74.402	54.923	-107.036	113.162	-119.832	-108.872	-102.632	71.274	16.050	-105.269	-101.175	-97.581	-91.625	139.142	-96.833	-8191	255	
35290.102	1	1	0	0	0.21994	0.24193	0.23489	0.29265	0.071246	0.24643	0.18667	0.09926	0.22853	0.10706	0.14783	0.16179	0.27655	0.17562	0.036544	0.15313	-0.010417	-0.82917	-0.93542	-0.41667	-1.1271	-0.625	-0.53333	-1.3167	-0.45417	-0.77708	-1.1625	-0.30833	-1.2833	-0.74167	-0.30625	-1.2792	151.233	40.306	-35.427	179.131	108.625	-13.725	98.957	-113.414	7.576	-72.770	91.483	73.129	114.778	-42.157	43.896	-8.746	7.3224e-05	0.00070762	0.00012719	651.75	3.2235e-06	9.1937e-07	325.22	192.83	3.6154e-06	4.557e-06	98.603	28.41	59.1	23.287	5.5781e-06	11.206	0.0028644	0.0036345	0.0010027	700.36	3.8027e-05	3.942e-05	373.14	210.7	3.837e-05	3.9984e-05	123.82	36.496	67.013	26.454	3.7932e-05	14.798	-114.824	-60.337	-61.287	-106.837	-42.462	172.075	-109.010	-102.471	-23.077	-43.340	-105.540	-101.042	-97.494	-91.810	17.560	-96.667	-8191	255	
35290.223	1	1	0	0	0.23037	0.06388	0.19018	0.26005	0.22418	0.038832	0.19197	0.053194	0.21166	0.13123	0.2691	0.07175	0.29963	0.041781	0.14563	0.25872	-0.077083	-0.80208	-1.0917	-0.22708	-0.98542	-0.80208	-0.19583	-1.2896	-0.525	-0.61458	-1.25	-0.33125	-1.1083	-0.92083	-0.25625	-1.075	-107.731	-95.730	44.217	-39.071	-70.442	83.004	230.789	-112.139	-8.361	-101.623	28.098	217.931	-54.675	9.721	230.897	-43.968	0.00011353	0.00068474	9.4392e-05	650.61	2.8809e-06	8.2915e-06	325.27	192.66	5.1812e-06	4.4675e-06	98.993	28.892	59.444	23.602	6.5438e-06	11.485	0.0027661	0.0034465	0.00095437	698.35	3.5983e-05	3.7593e-05	370.17	209.78	3.5205e-05	3.638e-05	121.6	35.989	66.798	26.541	3.4264e-05	14.723	216.563	26.848	80.171	-106.941	-106.631	-89.476	-109.063	-102.422	-35.278	-42.357	-105.694	-101.266	-97.361	-91.641	116.349	-96.386	-8191	255	
35290.316	1	1	0	0	0.13419	0.13042	0.13781	0.45563	0.16746	0.093871	0.10025	0.14675	0.18965	0.24902	0.3194	0.11138	0.097281	0.31574	0.26464	0.107	-0.25417	-0.6125	-1.1958	-0.31875	-0.85833	-0.91042	-0.32708	-1.2146	-0.54792	-0.41667	-1.2333	-0.36667	-0.96458	-1.1458	-0.3125	-1.2083	234.917	-0.593	214.839	180.661	137.447	-87.914	-51.913	-120.469	-82.581	162.356	-119.959	73.156	-29.566	60.559	-108.414	60.233	9.1272e-05	0.00034716	1.4425e-05	650.61	3.837e-06	5.5501e-06	327.2	192.93	2.7571e-06	4.0131e-06	99.659	28.849	59.109	23.944	4.1927e-06	11.675	0.002518	0.0031141	0.00086391	695.18	3.2598e-05	3.3767e-05	367.14	208.74	3.203e-05	3.319e-05	120.28	35.705	66.482	26.777	3.2099e-05	14.703	149.810	236.288	126.511	-107.051	64.473	-61.412	-108.957	-102.532	135.521	57.619	-105.324	-101.325	-97.314	-91.458	51.604	-96.045	-8191	255	
35290.391	1	1	0	0	0.094129	0.09635	0.1554	0.044446	0.054045	0.13787	0.2254	0.099761	0.18903	0.25496	0.11741	0.10933	0.21311	0.067539	0.14001	0.17515	-0.13125	-0.43958	-1.2125	-0.33125	-0.92083	-1.1792	-0.2125	-1.1854	-0.59167	-0.33542	-1.2479	-0.36875	-0.83125	-1.1917	-0.36667	-1.2625	-113.411	-51.791	169.915	178.794	-32.904	209.383	160.350	202.107	-67.057	-76.831	-97.316	37.352	218.116	182.516	207.975	102.954	4.4134e-05	0.0003997	0.00021049	651.17	2.169e-06	5.2359e-06	325.06	192.54	4.1437e-06	7.6268e-06	99.423	28.456	59.534	24.195	4.0062e-06	11.595	0.0023482	0.0029126	0.00080449	692.07	3.0638e-05	3.1587e-05	363.9	207.85	2.9626e-05	3.0697e-05	118.21	35.103	66.179	26.744	2.9177e-05	14.465	207.954	-48.071	-5.472	-106.977	109.623	69.768	-108.654	-102.250	-11.015	11.977	-105.877	-101.212	-97.206	-91.759	91.143	-96.196	-8191	255	
35290.512	1	1	0	0	0.080176	0.09835	0.062474	0.042919	0.16102	0.21344	0.14323	0.10232	0.14467	0.06314	0.20903	0.25778	0.1605	0.27672	0.13511	0.047347	-0.33125	-0.37708	-1.2042	-0.5625	-0.86458	-1.2271	-0.5	-1.0187	-0.63125	-0.28958	-1.3542	-0.5625	-0.75	-1.0604	-0.22292	-1.0938	-75.920	145.597	9.593	106.978	153.168	42.654	92.754	234.603	168.771	209.139	-47.372	125.567	-74.680	2.012	191.345	232.425	1.1803e-05	0.00021247	0.00022435	651.07	3.9836e-06	3.8389e-06	324.75	191.88	5.4577e-06	3.2125e-06	98.963	28.725	59.637	24.256	2.4654e-06	11.628	0.0021569	0.0026923	0.00075129	690.73	2.9086e-05	3.0371e-05	361.31	207.29	2.941e-05	3.0625e-05	118.22	35.303	66.409	26.902	3.0502e-05	14.634	228.816	-76.790	-23.015	-106.674	33.805	-90.094	-108.549	-102.103	-104.772	47.770	-105.531	-100.963	-97.205	-91.265	-20.700	-95.970	-8191	255	
35290.605	1	1	0	0	0.19519	0.16078	0.10002	0.19125	0.15367	0.12316	0.17272	0.27275	0.18914	0.17077	0.2185	0.17759	0.069053	0.069009	0.12408	0.19073	-0.44167	-0.25625	-1.1271	-0.67708	-0.41667	-1.2271	-0.31667	-0.9375	-0.89792	-0.4375	-1.2104	-0.43125	-0.46458	-1.2104	-0.39167	-0.97708	-104.359	238.314	61.140	170.890	227.801	-22.141	-101.500	-119.320	139.317	23.525	-116.242	-24.312	-41.952	105.613	202.229	96.050	8.304e-05	0.00048331	0.00011018	649.46	1.4297e-06	3.023e-06	324.1	191.73	4.3364e-06	6.9609e-06	100.01	28.935	59.686	24.194	4.7293e-06	11.632	0.0022378	0.0028075	0.00079371	692.12	3.0466e-05	3.1687e-05	363.57	207.7	3.049e-05	3.2009e-05	119.52	35.559	66.584	26.831	3.1922e-05	14.712	-80.038	10.849	-75.876	-106.901	157.491	-15.645	-108.664	-102.335	73.372	59.163	-105.883	-101.515	-97.241	-91.089	7.265	-95.942	-8191	255	
35290.703	1	1	0	0	0.21612	0.063166	0.14505	0.012156	0.3602	0.19058	0.14172	0.23166	0.099115	0.30007	0.25397	0.1659	0.23857	0.29681	0.16093	0.061631	-0.63125	-0.38958	-1.0521	-0.75208	-0.25417	-1.3083	-0.43333	-0.68542	-1.0521	-0.34375	-1.1875	-0.72917	-0.4125	-1.2396	-0.45417	-0.76667	46.648	-47.387	40.563	-26.663	8.126	239.335	-102.134	193.096	-2.534	178.737	-116.175	-15.045	112.517	217.380	76.553	130.931	3.1131e-05	0.00018665	0.00013089	651.92	3.9174e-06	8.6883e-06	326.64	193.14	3.1186e-06	7.4646e-06	100.63	28.793	59.265	24.194	2.4092e-06	11.749	0.0023285	0.0029326	0.00082257	694.88	3.1106e-05	3.2337e-05	365.38	208.73	3.0712e-05	3.181e-05	119.78	35.531	66.474	26.898	3.0805e-05	14.691	130.604	54.839	54.025	-106.709	-31.110	93.910	-108.596	-102.083	107.351	-7.310	-105.667	-101.054	-97.223	-91.386	85.298	-96.194	-8191	255	
35290.824	1	1	0	0	0.13938	0.24406	0.29664	0.14578	0.082485	0.095935	0.050456	0.060318	0.14943	0.21257	0.21654	0.024994	0.11749	0.091415	0.18157	0.10309	-0.64375	-0.1	-0.90417	-1.1125	-0.2125	-1.2354	-0.44583	-0.81458	-1.2792	-0.525	-1.2313	-0.84375	-0.225	-1.2792	-0.56667	-0.74375	-44.148	215.241	207.951	-96.963	-12.247	133.672	178.814	226.644	-62.888	112.834	171.425	107.894	-59.893	216.762	4.132	-94.465	7.3706e-05	0.00017399	0.00013613	651.74	1.6867e-06	5.6829e-06	326.16	192.79	2.4259e-06	1.1718e-05	99.527	28.948	59.709	24.344	7.5108e-06	11.658	0.0022419	0.0027974	0.00077755	692.55	2.9538e-05	3.0672e-05	363.93	207.95	2.8886e-05	3.0272e-05	118.68	35.384	66.354	26.975	2.9611e-05	14.656	-86.051	155.651	-91.895	-106.576	-1.469	-56.357	-108.819	-102.158	-112.301	-18.987	-105.140	-100.866	-97.243	-91.399	0.966	-96.473	-8191	255	
35290.918	1	1	0	0	0.11192	0.21519	0.040591	0.13841	0.053232	0.072471	0.22868	0.24437	0.14166	0.094901	0.095957	0.16272	0.20097	0.33832	0.16924	0.13585	-0.6	-0.3	-1.1437	-0.91875	-0.34167	-1.1083	-0.75208	-0.66875	-1.1479	-0.35625	-1.0833	-1.0104	-0.175	-1.2375	-0.48333	-0.3625	29.046	-86.213	-101.640	-19.725	212.618	202.992	133.995	27.824	-21.176	-88.883	93.327	102.344	-83.854	29.252	104.510	59.615	1.0415e-05	0.00035462	0.00017639	647.31	3.385e-06	2.5575e-06	323.41	192.05	4.4279e-06	6.193e-06	98.416	28.581	59.492	24.383	3.8496e-06	11.69	0.0021633	0.0027372	0.00076623	690.27	2.899e-05	3.0326e-05	360.86	207.03	2.8917e-05	3.0451e-05	117.48	35.012	66.1	26.959	2.9993e-05	14.569	216.442	64.580	113.479	-106.749	-23.972	30.771	-108.700	-102.066	-16.905	15.711	-105.157	-100.710	-96.908	-91.186	230.599	-96.785	-8191	255	
35291.016	1	1	0	0	0.14024	0.13107	0.11291	0.19315	0.085783	0.14434	0.10329	0.28939	0.20748	0.23492	0.31215	0.16416	0.11247	0.17648	0.20336	0.12697	-0.73333	-0.22292	-0.79583	-1.0125	-0.054167	-1.1042	-0.8	-0.54167	-1.0021	-0.17292	-0.81667	-1.2375	-0.27083	-1.1875	-0.89167	-0.425	58.516	-21.943	53.651	-99.817	223.228	47.914	25.754	204.228	239.176	-40.243	236.950	80.662	191.188	-103.513	220.322	110.696	5.6242e-05	0.00078181	8.0972e-05	646.4	3.4007e-06	2.7586e-06	322.91	192.23	3.5261e-06	6.4956e-06	98.916	28.752	59.351	24.225	5.1648e-06	11.743	0.0022286	0.0028208	0.00078154	689.57	2.9823e-05	3.0946e-05	360.99	207.05	2.9651e-05	3.1356e-05	118.33	35.296	66.336	26.966	3.1055e-05	14.656	214.877	238.877	-80.648	-106.803	136.330	-15.324	-109.174	-102.120	-20.418	-66.801	-106.197	-100.697	-97.122	-91.182	-27.228	-96.094	-8191	255	
35291.086	1	1	0	0	0.078578	0.3623	0.19031	0.046921	0.21869	0.17541	0.29766	0.068979	0.032004	0.18245	0.15608	0.23705	0.28767	0.1298	0.14253	0.13551	-1.0083	-0.18542	-0.79583	-1.2271	-0.39792	-1.1042	-0.7625	-0.6375	-1.2875	-0.3875	-0.86458	-1.2167	-0.20833	-1.1	-0.9875	-0.45833	139.894	93.156	-5.313	-73.916	187.977	-76.448	154.022	177.871	233.312	160.805	-34.533	-96.991	203.118	229.545	49.047	144.108	8.7873e-05	0.00089946	0.00013683	649.19	5.1114e-06	3.4468e-06	323.49	191.98	3.7461e-06	7.0106e-06	98.168	28.709	59.253	24.086	1.82e-06	11.61	0.0022694	0.0028732	0.00079436	690.5	3.0373e-05	3.14e-05	361.65	207.29	2.9869e-05	3.1017e-05	118.41	35.13	66.193	26.869	2.9913e-05	14.559	196.250	-6.724	-71.006	-106.776	195.143	99.377	-108.655	-102.162	-81.601	95.469	-105.141	-101.229	-96.997	-91.397	-1.629	-96.288	-8191	255	
35291.207	1	1	0	0	0.038168	0.28125	0.24568	0.33787	0.20838	0.27625	0.26646	0.21864	0.033647	0.19839	0.31085	0.27	0.11594	0.1126	0.42343	0.20633	-0.88958	-0.48125	-0.50208	-1.3271	-0.3625	-0.92917	-1.0854	-0.31042	-1.0896	-0.84167	-0.59167	-1.1146	-0.50625	-0.86458	-1.1292	-0.21875	-19.064	-25.177	132.470	-99.053	119.929	34.478	-119.002	222.545	9.701	-2.910	219.039	168.482	-61.998	-86.538	150.901	-34.308	5.5201e-05	0.00039277	3.5107e-05	646.76	4.9635e-07	1.418e-06	325.76	193.07	3.2908e-06	8.8633e-06	99.501	28.699	59.651	24.198	5.6204e-06	11.697	0.0022255	0.002777	0.00077348	689.69	2.9896e-05	3.0986e-05	363.17	208.04	3.0148e-05	3.1883e-05	119.43	35.527	66.563	26.938	3.1673e-05	14.745	-107.188	79.793	36.043	-106.688	53.565	82.856	-108.687	-102.135	-22.997	57.413	-105.182	-100.951	-97.193	-91.378	-7.318	-95.777	-8191	255	
35291.305	1	1	0	0	0.12626	0.16926	0.13173	0.17673	0.3064	0.11109	0.14863	0.085521	0.082872	0.28977	0.055998	0.033871	0.22716	0.24697	0.10246	0.24332	-0.74167	-0.65208	-0.34375	-1.5354	-0.34375	-0.88333	-1.0604	-0.32083	-1.0521	-0.7375	-0.49375	-1.1083	-0.49792	-0.7375	-1.1375	-0.19167	171.994	30.316	203.378	149.175	37.488	212.557	223.364	183.326	137.345	174.123	-57.802	-38.554	85.128	-97.761	-35.763	216.675	0.00015103	0.00099181	3.1066e-05	651.38	3.2201e-06	6.9396e-06	324.66	192.26	2.1369e-06	4.0297e-06	98.937	28.616	59.46	23.993	4.9374e-06	11.487	0.0023591	0.0029534	0.00083474	694.64	3.2201e-05	3.4142e-05	366.88	209.24	3.3676e-05	3.5131e-05	121.01	35.823	66.87	26.916	3.5177e-05	14.786	-116.593	-35.055	15.611	-106.806	39.637	34.289	-108.542	-102.359	167.438	-117.818	-105.029	-101.316	-97.108	-91.449	20.005	-96.158	-8191	255	
35291.398	1	1	0	0	0.20522	0.3534	0.3355	0.37176	0.088827	0.065149	0.21483	0.10566	0.063564	0.078955	0.15192	0.12236	0.30924	0.22293	0.050369	0.063713	-0.84375	-0.81667	-0.34167	-1.4667	-0.25625	-0.82917	-1.2833	-0.48958	-1.0896	-0.84583	-0.37917	-1.0812	-0.69375	-0.63125	-1.2542	-0.047917	132.207	-23.707	58.611	221.379	-3.677	10.833	153.101	79.675	-35.543	192.400	173.383	226.352	-92.103	-83.274	24.770	140.445	8.0488e-05	0.00087301	9.4181e-05	648.35	2.2332e-06	9.3197e-06	323.8	191.25	4.6249e-06	5.0871e-06	97.546	28.379	59.377	23.904	4.1787e-06	11.475	0.0026022	0.0032655	0.00091437	694.67	3.5224e-05	3.6246e-05	365.29	208.76	3.5134e-05	3.6507e-05	120.3	35.797	66.806	26.87	3.3771e-05	14.685	233.368	-66.575	190.336	-106.668	121.850	26.233	-108.746	-102.034	79.915	149.376	-105.270	-100.967	-97.378	-91.186	89.552	-95.627	-8191	255	
35291.492	1	1	0	0	0.26054	0.22747	0.23098	0.1618	0.19509	0.15424	0.043312	0.051822	0.13092	0.05022	0.23158	0.36977	0.19184	0.082282	0.1364	0.098007	-0.63542	-0.86042	-0.37292	-1.2313	-0.53125	-0.52083	-1.2313	-0.36458	-0.7625	-0.85833	-0.30833	-1.1958	-0.72292	-0.5625	-1.1354	-0.36875	-33.514	-86.806	83.368	175.876	-30.271	-15.420	37.705	113.885	216.686	-50.507	99.196	-81.575	-75.249	211.028	-58.274	53.408	6.8859e-05	0.00079516	0.00020536	647.46	3.2205e-06	6.2535e-06	321.52	190.62	1.2115e-06	5.1944e-06	97.813	28.437	59.266	24.534	3.5014e-06	11.793	0.0024783	0.0030486	0.0008471	690.83	3.1931e-05	3.28e-05	360.15	206.18	3.04e-05	3.141e-05	117.05	34.962	66.035	27.096	2.9193e-05	14.592	233.385	-74.410	15.801	-106.703	212.418	50.732	-108.471	-102.098	222.591	-97.813	-105.072	-100.785	-97.234	-91.185	62.656	-96.362	-8191	255	
35291.613	1	1	0	0	0.050195	0.32423	0.20631	0.1023	0.078685	0.12395	0.28716	0.2465	0.07748	0.16153	0.19925	0.38421	0.20352	0.27332	0.29655	0.15306	-0.46458	-0.9875	-0.19167	-1.225	-0.71458	-0.43125	-1.375	-0.52083	-0.725	-1.1792	-0.27292	-1.0354	-0.6375	-0.31667	-1.2729	-0.45	23.392	123.843	-70.245	128.217	-7.426	4.267	9.054	227.391	230.756	22.023	187.948	-73.523	211.977	-96.561	-111.097	134.503	3.7944e-05	0.00084743	6.8923e-05	645.44	1.5378e-06	5.2447e-06	320.86	190.66	2.4272e-06	5.1829e-06	97.964	28.874	59.537	24.68	1.6623e-06	11.872	0.0021206	0.0026066	0.00072033	683.64	2.6979e-05	2.7856e-05	355.34	204.75	2.6949e-05	2.8185e-05	115.68	34.74	65.945	27.195	2.7413e-05	14.571	147.089	-27.909	-109.252	-106.761	-88.860	25.377	-108.463	-102.118	-88.102	39.637	-105.276	-101.030	-96.756	-91.394	81.327	-96.615	-8191	255	
35291.688	1	1	0	0	0.19862	0.072058	0.31337	0.24924	0.19266	0.052406	0.24487	0.35057	0.18229	0.11745	0.13623	0.11755	0.075883	0.25629	0.059077	0.074666	-0.27083	-1.1354	-0.20417	-0.97917	-1.0042	-0.32917	-1.1667	-0.82708	-0.67917	-1.1375	-0.22083	-0.9	-0.82083	-0.23542	-1.1479	-0.6875	-65.366	-61.844	47.437	238.050	-58.481	-117.166	71.126	159.875	54.368	179.149	-22.917	-61.563	-42.524	-55.772	132.595	77.246	0.00012062	0.00045125	0.00011439	648.83	6.1697e-06	3.1042e-06	321.25	191.97	6.7815e-06	4.0912e-06	98.749	28.829	59.627	24.432	4.4557e-06	11.766	0.0020076	0.0025264	0.00070897	686.19	2.7298e-05	2.8575e-05	357.82	206.26	2.8029e-05	2.9293e-05	117.3	35.154	66.35	27.002	2.9631e-05	14.621	-101.646	-115.976	48.161	-106.480	-47.929	-81.977	-108.442	-102.143	-1.993	-62.093	-105.556	-100.872	-96.992	-91.124	-96.643	-96.157	-8191	255	
35291.785	1	1	0	0	0.11799	0.22724	0.18461	0.31569	0.2175	0.1009	0.051339	0.14482	0.20989	0.26578	0.07643	0.21669	0.071255	0.27277	0.10892	0.2718	-0.21667	-1.0688	-0.35417	-1.1333	-0.8625	-0.30625	-1.0396	-0.69792	-0.47292	-1.1208	-0.30208	-0.76875	-1.0417	-0.18542	-1.1938	-0.69583	173.062	44.213	103.051	189.917	-52.394	152.072	-72.109	115.186	41.693	-18.201	194.897	-71.472	215.391	128.022	124.146	-90.896	6.5285e-05	0.00028385	0.00010863	650.54	1.1288e-06	4.671e-06	324.02	192.61	3.3577e-06	8.9343e-06	98.367	28.313	59.267	24.03	4.6661e-06	11.459	0.0022027	0.0027765	0.00078043	692.2	2.9733e-05	3.109e-05	361.54	207.63	2.9872e-05	3.1439e-05	118.31	35.189	66.142	26.683	3.1351e-05	14.499	236.257	111.839	68.295	-106.341	151.656	35.494	-108.246	-102.285	123.701	37.763	-105.541	-101.298	-96.974	-91.157	38.699	-96.071	-8191	255	
35291.902	1	1	0	0	0.25525	0.21235	0.28119	0.30607	0.38385	0.19447	0.31893	0.21505	0.045297	0.093615	0.119	0.22337	0.17283	0.30796	0.12568	0.30472	-0.06875	-1.1708	-0.43125	-0.71667	-1.1542	-0.20208	-1.1313	-0.74583	-0.37917	-1.3729	-0.57083	-0.72292	-1.1125	-0.40417	-1.05	-1.0167	190.563	169.995	37.331	138.845	110.256	167.986	179.952	190.236	74.492	5.572	29.139	98.679	228.823	196.408	-18.708	116.433	0.00011723	0.00014493	0.00011908	651.01	5.9773e-07	1.5741e-06	321.87	191.47	7.2176e-06	5.1058e-06	98.337	28.039	58.702	23.745	2.5685e-06	11.432	0.0023749	0.0030088	0.00084824	693.34	3.2361e-05	3.4088e-05	363.8	208.33	3.2881e-05	3.4507e-05	119.98	35.336	66.323	26.7	3.4603e-05	14.629	221.076	-68.447	-37.351	-106.668	222.895	233.041	-108.416	-102.017	59.835	7.806	-105.547	-100.541	-96.946	-91.343	116.034	-95.760	-8191	255	
35292.000	1	1	0	0	0.2027	0.25706	0.074929	0.16342	0.069734	0.10135	0.30369	0.098222	0.20269	0.11173	0.24954	0.16753	0.11623	0.23992	0.053389	0.12766	0.00625	-1.0583	-0.43542	-0.7625	-1.0917	-0.37708	-0.99792	-0.87083	-0.25833	-1.3375	-0.63125	-0.72292	-1.3625	-0.36875	-1.0167	-0.87708	-94.033	5.068	125.153	192.187	-23.565	149.646	130.353	26.399	31.795	-118.106	58.431	219.119	41.268	-49.161	139.844	170.978	7.8167e-05	0.00061432	6.1184e-05	650.64	1.9396e-06	3.9656e-06	323.69	192.22	2.7803e-06	6.2866e-06	98.067	28.073	58.841	23.644	2.7944e-06	11.172	0.0025872	0.0032327	0.00091732	696.26	3.4808e-05	3.6214e-05	366.92	208.89	3.4868e-05	3.6472e-05	120.9	35.71	66.486	26.594	3.5306e-05	14.542	-108.222	-7.934	-65.004	-106.606	174.768	184.475	-108.342	-102.213	104.749	19.766	-105.256	-101.067	-96.841	-90.962	29.418	-96.006	-8191	255	
35292.098	1	1	0	0	0.18361	0.16452	0.22003	0.014657	0.069911	0.20713	0.15991	0.071195	0.15727	0.20393	0.2064	0.28185	0.15575	0.3014	0.16426	0.0049456	-0.010417	-1.1958	-0.63333	-0.68542	-1.2292	-0.47292	-0.94583	-1.1896	-0.35	-1.1979	-0.44167	-0.45	-1.2375	-0.38958	-0.92083	-1.1812	89.956	227.671	87.572	213.397	191.918	102.802	-60.687	-67.857	-117.698	-10.560	219.290	197.704	-61.375	194.586	7.809	-93.813	7.9355e-05	0.00051433	4.6268e-05	650.6	4.3474e-06	1.6422e-06	325.02	191.9	3.9433e-06	5.0114e-06	99.15	28.427	58.918	23.502	4.8712e-06	11.274	0.0025754	0.0032199	0.00089522	694.25	3.39e-05	3.5286e-05	366.06	208.9	3.376e-05	3.5081e-05	120.39	35.701	66.548	26.598	3.464e-05	14.551	217.403	230.123	46.045	-106.838	24.109	54.267	-108.829	-102.040	-114.118	51.423	-105.273	-100.886	-96.863	-91.171	-44.574	-95.699	-8191	255	
35292.191	1	1	0	0	0.064794	0.1634	0.2847	0.16847	0.13303	0.29195	0.18976	0.20237	0.12111	0.28793	0.10988	0.098171	0.17722	0.22696	0.20716	0.25694	0.16458	-1.0896	-0.73542	-0.22292	-1.3625	-0.37917	-0.87292	-1.3958	-0.30625	-1.0104	-0.80208	-0.45417	-1.275	-0.47708	-0.78125	-1.2542	-33.083	64.932	136.910	90.839	163.403	39.248	110.781	-111.660	-106.049	-67.800	31.392	158.079	-5.840	-106.571	199.924	177.530	7.1144e-05	0.00081832	0.00016352	649.86	6.3146e-06	8.8899e-06	324.55	192.19	3.677e-06	3.9043e-06	98.475	28.535	59.304	23.846	3.9524e-06	11.337	0.0025776	0.0032644	0.00090491	695.49	3.4263e-05	3.5817e-05	367.65	209.47	3.4179e-05	3.5396e-05	121.1	35.786	66.78	26.734	3.4872e-05	14.697	-84.157	231.855	-5.159	-106.480	35.872	175.363	-108.662	-102.161	213.192	-23.405	-105.173	-101.060	-97.201	-91.278	231.805	-96.386	-8191	255	
35292.289	1	1	0	0	0.12084	0.16161	0.24105	0.3829	0.059977	0.16203	0.28671	0.19924	0.19944	0.48825	0.04107	0.12455	0.084184	0.20558	0.13438	0.15492	0.18125	-1.0146	-0.7875	-0.54167	-1.4479	-0.69167	-0.52292	-1.2917	-0.27917	-0.97083	-0.8125	-0.2875	-1.1854	-0.61458	-0.62917	-1.2313	123.678	129.446	83.770	-57.844	199.859	238.973	12.271	165.573	150.588	184.926	187.418	3.783	204.523	-43.827	54.070	83.870	6.6267e-05	0.00030829	0.00012043	651.2	2.164e-06	8.034e-06	323.06	192.29	4.0116e-06	3.312e-06	98.483	28.379	59.172	23.569	5.0483e-06	11.262	0.002584	0.0032806	0.0009082	696.26	3.4633e-05	3.6394e-05	366.51	209.7	3.4776e-05	3.5971e-05	120.77	35.682	66.509	26.564	3.4862e-05	14.539	165.008	-90.324	-10.861	-106.677	12.226	101.131	-108.553	-102.041	149.190	117.669	-105.262	-101.223	-96.809	-91.363	75.377	-96.337	-8191	255	
35292.383	1	1	0	0	0.080638	0.099752	0.2763	0.11519	0.12462	0.14719	0.14966	0.14001	0.19741	0.13743	0.076489	0.28885	0.33919	0.0085901	0.078581	0.01559	-0.075	-0.84792	-0.95625	-0.34375	-1.1812	-0.57083	-0.50833	-1.2417	-0.35833	-0.85417	-1.0063	-0.4125	-1.0333	-0.65625	-0.38542	-1.1792	-71.910	-68.338	74.891	204.809	-30.461	102.778	113.366	-50.757	53.001	93.529	-33.700	147.961	137.670	70.883	-13.879	105.599	4.1307e-05	0.00076776	0.00022948	647.38	2.1968e-06	3.303e-07	322.54	192.55	2.3042e-06	4.6906e-06	99.24	28.501	58.791	23.743	5.9795e-06	11.274	0.0025751	0.0032461	0.00089582	693.42	3.4668e-05	3.625e-05	365.92	209.58	3.4952e-05	3.6663e-05	121.51	35.924	66.57	26.574	3.5281e-05	14.518	176.503	-10.682	-38.861	-106.347	-49.190	8.611	-108.563	-101.822	64.005	145.727	-105.327	-100.937	-96.597	-91.065	-6.572	-95.950	-8191	255	
35292.504	1	1	0	0	0.16097	0.30024	0.24637	0.24574	0.20239	0.076395	0.11195	0.13407	0.067303	0.20509	0.17705	0.1599	0.053044	0.28545	0.19844	0.065907	-0.05	-0.7	-1.1542	-0.30417	-1.0604	-0.87708	-0.33333	-1.2396	-0.59583	-0.71875	-1.2604	-0.30417	-1.0833	-0.91875	-0.45625	-1.1792	166.350	-102.700	-5.124	187.855	119.688	-31.069	67.905	90.609	125.378	-23.779	120.767	200.615	-12.964	5.402	-73.161	-85.933	6.3835e-05	0.0010368	4.682e-05	647.98	2.3226e-06	7.4387e-06	322.58	192.85	3.861e-06	4.3617e-06	99.728	28.173	59.278	23.602	3.1083e-06	11.397	0.0025933	0.0032276	0.00089326	693.95	3.4167e-05	3.5382e-05	365.57	209.65	3.3477e-05	3.4454e-05	120.37	35.432	66.506	26.499	3.3373e-05	14.538	186.009	-18.750	29.876	-106.573	29.704	-107.185	-108.315	-101.842	232.656	-51.156	-104.931	-100.986	-96.645	-90.912	176.946	-96.146	-8191	255	
35292.598	1	1	0	0	0.12976	0.15218	0.23071	0.24785	0.16666	0.17342	0.09543	0.30563	0.11844	0.22105	0.20106	0.10656	0.15152	0.11473	0.085261	0.29278	0	-0.59792	-1.3146	-0.33958	-0.99375	-0.84375	-0.32292	-1.325	-0.50208	-0.42917	-1.1646	-0.30833	-1.0167	-0.95208	-0.29375	-1.4375	53.883	-114.465	139.559	-106.278	62.972	103.266	-116.918	-73.177	131.602	146.389	-18.197	-102.272	236.468	70.984	49.274	193.680	8.8462e-05	0.00072159	7.7288e-05	648.87	1.9893e-06	3.0893e-06	323.98	193.97	3.4488e-06	3.5062e-06	99.551	28.618	59.451	23.668	1.0824e-05	11.371	0.0025094	0.0031275	0.00087553	693.89	3.3696e-05	3.5145e-05	366.84	210.15	3.4134e-05	3.5758e-05	121.61	35.84	66.716	26.577	3.4562e-05	14.649	-79.763	212.703	155.428	-106.473	-24.230	-24.297	-108.281	-101.718	77.730	86.512	-105.106	-100.861	-97.047	-91.064	66.360	-95.443	-8191	255	
35292.695	1	1	0	0	0.14221	0.10992	0.16069	0.33161	0.11348	0.22738	0.20406	0.34773	0.14865	0.34987	0.21989	0.1836	0.12622	0.26102	0.18551	0.2554	-0.28125	-0.32708	-1.1938	-0.34583	-0.84167	-0.925	-0.35625	-1.2938	-0.63125	-0.53333	-1.1771	-0.37292	-0.89375	-1.0833	-0.31042	-1.1437	161.576	-107.111	-63.235	-84.780	138.967	157.477	-114.510	154.963	14.314	-97.694	31.489	42.946	163.369	119.026	108.548	-28.915	3.4667e-05	0.00052543	0.0001262	650.55	4.7127e-06	5.1088e-06	326.34	193.88	5.2064e-06	5.3942e-06	100.9	28.376	59.398	23.795	1.9807e-06	11.405	0.0025537	0.0032085	0.00088024	694.77	3.4134e-05	3.5381e-05	367.28	210.77	3.4085e-05	3.5446e-05	121.96	35.84	66.969	26.67	3.4447e-05	14.652	220.004	-65.428	30.156	-106.656	71.048	4.228	-107.848	-102.031	-14.312	52.481	-104.858	-100.193	-96.692	-91.107	171.373	-95.928	-8191	255	
35292.793	1	1	0	0	0.12591	0.18147	0.051344	0.10771	0.14104	0.32805	0.21439	0.099914	0.35227	0.12628	0.17189	0.015551	0.18846	0.10379	0.22365	0.27802	-0.25	-0.43125	-1.2646	-0.48125	-0.74583	-0.86875	-0.42917	-1.2896	-0.64375	-0.61042	-1.2833	-0.48125	-0.65833	-1.1812	-0.32292	-1.2687	56.080	-12.027	-29.413	196.917	27.458	71.034	-28.997	116.775	-93.468	208.513	144.133	159.423	-108.336	42.144	-19.177	-93.602	4.155e-05	0.00088199	0.00026284	651.69	2.2062e-06	7.9465e-06	323.06	193.25	5.301e-06	3.2963e-06	98.786	28.537	59.503	23.766	8.2782e-07	11.337	0.0025412	0.0031588	0.00087584	695.45	3.3545e-05	3.507e-05	364.79	210.12	3.409e-05	3.5506e-05	120.67	35.677	66.788	26.71	3.3822e-05	14.624	94.209	22.418	-29.243	-106.485	207.925	45.834	-107.960	-101.731	-32.674	-92.760	-105.146	-100.776	-96.452	-90.993	201.767	-95.856	-8191	255	
35292.910	1	1	0	0	0.16258	0.091969	0.18429	0.15599	0.11094	0.042739	0.23618	0.13936	0.20538	0.096902	0.29654	0.33208	0.1958	0.28945	0.096057	0.3222	-0.30625	-0.25208	-1.1979	-0.43333	-0.48333	-1.2042	-0.37708	-1.1562	-0.94792	-0.44583	-1.1896	-0.72292	-0.43125	-1.4438	-0.40417	-0.97708	145.611	129.997	-35.487	90.494	208.071	32.087	115.077	-54.784	1.613	153.732	224.576	223.784	142.809	151.629	-108.935	-95.702	8.1193e-05	0.00029582	0.00022438	649.42	1.1965e-06	3.708e-06	321.71	193.37	4.2315e-06	1.0985e-05	98.654	28.593	59.222	24.096	5.0806e-06	11.608	0.0024636	0.0030926	0.00085615	691.84	3.2614e-05	3.3608e-05	362.29	208.81	3.1803e-05	3.3276e-05	119.17	35.383	66.378	26.867	3.1365e-05	14.536	-109.272	132.956	198.750	-106.595	-76.327	27.679	-108.650	-101.781	-40.682	6.271	-104.862	-101.047	-96.895	-90.865	-32.156	-95.630	-8191	255	
35292.984	1	1	0	0	0.37499	0.11309	0.063034	0.051081	0.14711	0.283	0.03567	0.093716	0.049924	0.26586	0.12592	0.11877	0.19252	0.057233	0.2629	0.1826	-0.67292	-0.25	-1.1083	-0.68958	-0.38542	-1.1104	-0.41458	-0.74792	-1.1896	-0.10208	-1.15	-0.75417	-0.36667	-1.0583	-0.19375	-0.60833	78.026	-93.279	20.139	-94.790	134.473	221.223	-20.629	-57.060	237.681	71.815	87.346	109.920	99.047	-103.017	237.815	149.904	1.8937e-05	0.00052291	0.0002343	648.22	5.929e-06	3.543e-06	322.46	191.94	6.2078e-07	4.6313e-06	99.63	28.784	59.312	24.32	4.5478e-06	11.745	0.0023176	0.0028825	0.0008015	689.01	3.0555e-05	3.1242e-05	360.27	207.47	2.9838e-05	3.1095e-05	118.33	35.237	66.205	27.016	2.9677e-05	14.586	208.428	-94.766	-49.546	-106.668	109.954	135.182	-108.303	-101.865	17.684	45.297	-104.599	-100.934	-96.620	-90.689	-47.801	-95.481	-8191	255	
35293.078	1	1	0	0	0.12725	0.16179	0.17505	0.19908	0.2154	0.21768	0.26259	0.082914	0.15382	0.077933	0.13855	0.30066	0.1376	0.076253	0.0074247	0.02831	-0.66458	-0.1125	-1.1167	-0.75625	-0.32708	-1.5021	-0.4875	-0.74792	-1.1708	-0.42083	-1.0354	-0.6125	-0.24792	-1.1479	-0.33125	-0.65417	130.484	15.366	-36.767	125.281	42.821	229.428	-86.457	-116.219	57.917	-116.514	135.826	96.028	-0.595	119.443	131.154	-10.392	7.9393e-05	0.00035449	0.00017851	647.88	2.503e-06	3.1856e-06	322.05	192.34	1.8496e-06	6.399e-06	98.713	28.716	60.256	24.719	1.4692e-06	11.949	0.0021772	0.0026783	0.00075343	686.96	2.8197e-05	2.9061e-05	358.67	206.88	2.7068e-05	2.8317e-05	116.95	34.814	66.302	27.144	2.6298e-05	14.532	-76.835	-68.140	59.223	-106.364	-10.379	33.927	-108.290	-101.418	188.219	34.357	-104.773	-100.358	-96.604	-91.074	-22.687	-95.818	-8191	255	
35293.176	1	1	0	0	0.2183	0.084532	0.19265	0.29415	0.35863	0.073339	0.14248	0.24316	0.24063	0.1906	0.19443	0.24959	0.082223	0.37327	0.27519	0.048236	-0.83125	-0.1875	-0.91667	-0.91042	-0.2125	-1.1896	-0.40625	-0.51875	-1.0521	-0.375	-0.95833	-0.98958	-0.31875	-1.3188	-0.55417	-0.47292	186.150	-13.299	-96.937	145.302	173.211	23.090	55.278	-88.599	-33.997	-31.071	152.087	23.548	86.188	212.911	161.885	236.989	4.9959e-05	0.00010118	5.5909e-05	647.48	4.2958e-07	5.4579e-06	321.79	193.36	8.1857e-07	5.108e-06	100.25	28.68	59.921	24.993	4.7026e-06	11.953	0.0019459	0.0024337	0.00067375	684.85	2.5627e-05	2.6621e-05	355.89	207.15	2.5212e-05	2.6491e-05	116.32	34.6	66.171	27.324	2.5871e-05	14.458	200.788	119.080	207.474	-106.402	8.988	69.214	-108.558	-101.560	196.787	-84.972	-105.207	-99.586	-96.562	-90.771	-55.965	-96.053	-8191	255	
35293.297	1	1	0	0	0.14506	0.14586	0.056804	0.1283	0.23043	0.055997	0.22519	0.096535	0.20492	0.25401	0.22672	0.074757	0.27717	0.10439	0.17474	0.053449	-0.81875	-0.45833	-0.775	-1.1562	-0.20625	-0.98333	-0.84583	-0.4125	-0.97708	-0.3375	-0.71667	-1.0958	-0.070833	-1.0125	-0.62083	-0.59583	97.649	219.582	-38.253	237.562	-4.079	227.233	11.220	67.578	160.572	-42.336	186.681	122.582	211.318	178.450	-112.664	231.356	4.7685e-05	0.00052796	0.00020926	649.02	2.072e-06	3.6829e-06	322.37	192.8	1.5132e-06	4.6553e-06	97.884	28.85	60.262	24.884	4.069e-06	11.989	0.0018637	0.0023499	0.00065105	683.1	2.4811e-05	2.5365e-05	353.51	205.64	2.413e-05	2.5363e-05	114.17	34.217	65.962	27.23	2.3987e-05	14.36	-117.724	222.789	-60.277	-106.168	140.602	70.650	-108.434	-101.501	57.231	-10.546	-104.423	-100.439	-96.242	-90.941	16.082	-95.530	-8191	255	
35293.391	1	1	0	0	0.02818	0.074192	0.26477	0.15525	0.13661	0.17151	0.24496	0.022518	0.050468	0.20787	0.087603	0.15517	0.1585	0.089886	0.11543	0.19059	-0.81458	-0.44167	-0.74792	-1.2313	-0.19583	-1.1625	-0.81667	-0.45625	-1.2521	-0.48542	-0.61667	-1.0979	-0.32083	-1.0333	-0.81875	-0.21667	163.077	69.536	-47.757	162.818	-10.776	-24.279	118.280	-87.347	-62.234	207.525	157.590	170.496	6.384	-115.838	124.855	113.333	5.7006e-05	0.00067828	8.7264e-05	647.82	2.8806e-06	1.7879e-06	320.47	193.22	3.1162e-06	5.7683e-06	98.849	28.777	60.254	24.992	4.0598e-06	11.873	0.0017596	0.0022224	0.00062022	681.4	2.3698e-05	2.4626e-05	351.98	205.97	2.3603e-05	2.4899e-05	114.77	34.355	66.185	27.254	2.4664e-05	14.402	-114.914	-16.478	-22.513	-106.241	-30.307	132.929	-108.524	-101.636	-54.804	11.955	-104.589	-100.735	-96.531	-90.430	233.972	-95.519	-8191	255	
35293.488	1	1	0	0	0.041677	0.23192	0.13748	0.14867	0.0042459	0.3331	0.070993	0.22162	0.19063	0.051062	0.061894	0.15023	0.11392	0.16944	0.17272	0.23467	-0.75417	-0.44375	-0.43125	-1.1313	-0.1625	-0.83125	-0.89792	-0.30833	-1.2583	-0.45625	-0.55625	-1.2271	-0.34792	-0.86875	-0.97917	-0.31042	200.096	-20.213	139.079	-48.234	82.220	11.912	182.194	180.891	-10.858	103.879	49.710	-20.989	213.333	158.467	-86.612	106.580	2.287e-05	0.00022956	5.1911e-05	650.94	5.0993e-06	6.9696e-06	322.07	194.2	1.6194e-06	2.2847e-06	98.816	28.847	60.243	24.963	8.7681e-06	11.928	0.0018257	0.0022893	0.00063781	683.9	2.4218e-05	2.4994e-05	353.97	206.66	2.3647e-05	2.4932e-05	114.85	34.309	66.042	27.259	2.4387e-05	14.344	204.536	16.472	39.303	-106.323	75.412	111.183	-108.567	-101.492	174.456	71.261	-104.847	-100.329	-96.582	-90.905	39.308	-95.863	-8191	255	
35293.586	1	1	0	0	0.094299	0.096002	0.088377	0.22065	0.055855	0.17839	0.085415	0.11678	0.14667	0.15656	0.017404	0.23851	0.143	0.32297	0.06165	0.27433	-0.79375	-0.80833	-0.425	-1.2188	-0.36667	-0.89583	-0.97292	-0.34792	-1.275	-0.69375	-0.42708	-1.0125	-0.41042	-0.77917	-0.9625	-0.25	106.839	214.272	102.251	235.324	111.795	37.412	126.273	204.246	48.101	216.397	187.353	63.239	176.850	-118.248	114.199	-96.541	5.1644e-05	0.00076489	0.00015867	648.79	3.2723e-06	6.8855e-06	323.34	193.32	1.6322e-06	5.3651e-06	99.238	29.325	60.228	25.107	3.1738e-06	12.183	0.0018	0.0022548	0.00063271	683.78	2.4069e-05	2.5101e-05	354.57	206.36	2.3826e-05	2.4857e-05	114.73	34.422	66.012	27.405	2.3856e-05	14.486	225.523	29.569	-88.563	-106.194	-28.175	152.763	-108.174	-101.701	56.506	4.262	-104.463	-100.219	-96.543	-90.566	204.370	-95.723	-8191	255	
35293.680	1	1	0	0	0.23169	0.23913	0.034137	0.072445	0.13716	0.12722	0.13001	0.31365	0.28443	0.15372	0.06873	0.17493	0.087115	0.079858	0.11021	0.11199	-0.62083	-0.77708	-0.4	-1.3417	-0.26458	-0.59375	-1.2625	-0.34792	-0.9875	-0.8375	-0.39583	-1.2792	-0.35	-0.42708	-1.0917	-0.27917	182.061	-81.496	228.883	178.136	-42.927	132.588	-75.451	219.404	216.941	-68.928	160.332	-58.339	-73.678	235.576	-82.548	117.717	9.4207e-05	0.00097313	0.00021316	646.31	4.7978e-07	3.5454e-06	321.68	193.21	1.6122e-06	6.2394e-07	98.285	28.932	60.492	25.394	3.4492e-06	12.052	0.0017409	0.0021505	0.00059708	681.08	2.2787e-05	2.3468e-05	351.61	205.39	2.2768e-05	2.3784e-05	113.18	34.24	66.19	27.604	2.3012e-05	14.452	240.155	-37.381	-45.310	-106.328	60.998	238.880	-108.286	-101.828	98.018	86.295	-104.850	-100.027	-96.511	-90.629	21.612	-95.086	-8191	255	
35293.777	1	1	0	0	0.25152	0.06079	0.42267	0.044394	0.16417	0.14926	0.087633	0.26759	0.30452	0.11346	0.27914	0.14333	0.060605	0.14104	0.29429	0.0359	-0.62083	-0.63125	0.010417	-1.1938	-0.55417	-0.55625	-1.2062	-0.30208	-0.8625	-0.91042	-0.43958	-1.2646	-0.74167	-0.5125	-1.1667	-0.32708	118.358	68.912	3.322	25.670	32.108	204.979	154.852	232.266	162.653	73.876	182.078	185.239	47.031	168.021	43.280	57.552	2.8486e-05	0.00029174	0.00019336	645.44	7.3339e-07	3.0425e-06	320.35	191.16	1.3491e-06	3.8906e-06	97.465	28.968	60.223	25.517	2.9006e-06	12.294	0.0017279	0.0021599	0.00059496	679.98	2.2779e-05	2.3177e-05	348.78	203.75	2.2339e-05	2.296e-05	112.02	34.003	65.834	27.744	2.1861e-05	14.411	38.120	63.112	-28.247	-106.055	-53.918	-91.226	-107.788	-101.405	223.384	88.343	-105.118	-100.000	-96.041	-90.727	181.460	-95.691	-8191	255	
35293.871	1	1	0	0	0.099348	0.14474	0.17712	0.19134	0.13646	0.080093	0.26859	0.13403	0.45239	0.095251	0.24241	0.25079	0.056805	0.14037	0.29505	0.13608	-0.46458	-1.0646	-0.30625	-1.3375	-0.57708	-0.26667	-1.2229	-0.32708	-0.84792	-1.1	-0.18958	-1.1167	-0.76458	-0.42292	-1.1583	-0.4625	-112.555	22.361	79.573	-96.295	-32.538	18.017	95.929	65.860	227.177	-88.296	122.877	142.956	156.186	200.894	-80.285	196.347	5.3841e-05	0.00014645	8.0754e-05	645.93	6.053e-07	5.2578e-06	320.58	190.54	1.4044e-06	3.0219e-06	97.265	29.399	60.822	25.771	9.3963e-07	12.486	0.001613	0.0019995	0.00055427	676.72	2.1325e-05	2.2067e-05	347.05	203.01	2.0631e-05	2.1258e-05	111.25	33.863	65.93	27.912	2.0373e-05	14.545	220.617	-47.873	-13.914	-106.187	-110.013	13.999	-108.277	-101.294	-102.136	-55.143	-104.892	-100.988	-96.207	-90.467	54.598	-96.233	-8191	255	
35293.992	1	1	0	0	0.18279	0.17632	0.22056	0.010397	0.31673	0.20846	0.19651	0.28797	0.17424	0.19289	0.2262	0.083989	0.18327	0.065259	0.16546	0.14706	-0.44583	-0.94792	-0.23958	-1.1854	-0.88333	-0.3125	-1.2354	-0.54375	-0.87083	-1.175	-0.30417	-1.0917	-0.93958	-0.45833	-1.3438	-0.625	51.818	69.485	127.664	150.302	213.301	5.641	143.817	-68.415	136.188	197.136	36.275	83.854	-81.130	89.550	-12.644	76.996	8.3613e-05	0.0004128	4.5758e-05	643.7	9.3789e-07	2.7552e-06	318.27	190.23	1.5434e-06	4.3382e-06	97.349	29.52	61.055	25.982	3.9492e-06	12.563	0.0015205	0.001865	0.00052516	674.07	1.9978e-05	2.0823e-05	345.07	202.5	2.0058e-05	2.0721e-05	111.07	34.012	66.125	28.092	2.0104e-05	14.623	190.452	-116.029	-99.552	-106.026	19.635	65.552	-108.149	-101.508	24.886	19.611	-105.025	-100.148	-96.375	-90.828	67.564	-95.838	-8191	255	
35294.090	1	1	0	0	0.10326	0.082078	0.060684	0.22394	0.25962	0.042829	0.027539	0.44461	0.25035	0.22747	0.18745	0.40859	0.18555	0.16348	0.43827	0.2364	-0.38125	-1.3208	-0.3875	-1.1083	-0.83125	-0.21667	-1.2417	-0.63125	-0.61875	-1.2646	-0.30208	-0.775	-1.1	-0.37708	-1.3792	-0.58958	140.616	-13.585	-61.891	150.665	220.831	223.649	174.771	213.197	98.449	103.893	108.336	4.091	106.044	150.485	-15.159	-42.379	4.0063e-05	0.00038775	9.2584e-05	645.26	1.7179e-06	3.6848e-06	317.24	191.87	2.3781e-06	3.9327e-06	97.509	29.271	61.197	26.12	3.3187e-06	12.556	0.0015078	0.0018528	0.00052421	675.26	1.9903e-05	2.0492e-05	345.45	203.79	1.9689e-05	2.048e-05	111.23	33.993	66.35	28.163	2.0055e-05	14.633	230.883	1.727	175.212	-106.174	176.456	22.081	-108.171	-101.454	164.984	65.024	-104.872	-100.190	-96.346	-90.550	-38.588	-95.126	-8191	255	
35294.184	1	1	0	0	0.15664	0.22527	0.23471	0.15487	0.16106	0.36125	0.025849	0.038042	0.14614	0.145	0.14465	0.10017	0.10402	0.18828	0.1697	0.15783	-0.052083	-1.2188	-0.34792	-0.88125	-1.1583	-0.36458	-1.1875	-0.84375	-0.32708	-1.3354	-0.31042	-0.65	-0.95833	-0.28958	-1.125	-0.7625	-56.542	50.177	67.245	101.845	16.902	182.634	206.587	-40.296	227.272	-4.602	-66.743	-100.393	-74.076	157.518	195.665	-3.939	8.167e-05	0.00020259	0.00014963	644.41	2.9732e-06	1.726e-06	318.29	191.73	2.245e-06	3.1856e-06	96.507	29.136	60.911	25.936	4.1973e-06	12.507	0.0014967	0.0018655	0.00052412	674.49	1.9768e-05	2.1145e-05	345.77	203.41	2.015e-05	2.0729e-05	110.81	33.841	66.109	28.011	2.0442e-05	14.494	239.911	-10.185	45.364	-106.028	73.348	-10.039	-107.922	-101.449	207.341	168.037	-104.463	-100.163	-96.452	-90.676	-58.142	-95.822	-8191	255	
35294.281	1	1	0	0	0.33894	0.26245	0.16329	0.23044	0.10048	0.2075	0.29331	0.06085	0.14044	0.14292	0.19063	0.32186	0.18607	0.21857	0.10396	0.27927	-0.0625	-1.3292	-0.425	-0.79167	-1.1917	-0.21667	-1.0667	-0.88333	-0.22708	-1.2729	-0.5125	-0.66875	-1.2125	-0.20417	-0.91875	-0.73958	133.131	221.101	170.361	164.754	134.273	58.165	-63.281	-83.318	6.801	178.608	-83.928	132.464	180.899	162.547	31.373	149.560	8.5002e-05	0.00081793	0.00011138	643.02	1.5822e-06	1.3914e-06	316.88	190.94	2.1004e-06	5.0727e-06	96.944	28.984	60.533	25.854	2.2466e-06	12.365	0.0015232	0.0018871	0.00053725	673.37	2.0229e-05	2.1159e-05	344.37	203.04	2.0789e-05	2.1687e-05	110.85	33.934	66.081	28.007	2.1552e-05	14.538	201.913	-91.764	-89.143	-105.934	227.107	8.621	-107.674	-101.235	24.596	214.932	-104.909	-99.703	-96.131	-90.749	-59.281	-95.512	-8191	255	
35294.379	1	1	0	0	0.063952	0.11091	0.027541	0.40847	0.18642	0.15934	0.15879	0.0045368	0.1239	0.040205	0.22834	0.057622	0.092472	0.28418	0.076552	0.071694	-0.095833	-1.3188	-0.53958	-0.57083	-1.5187	-0.44167	-0.84167	-1.0896	-0.31458	-1.3146	-0.57917	-0.33542	-1.1917	-0.31875	-0.69167	-0.92083	-100.462	51.191	-33.035	-84.312	-47.283	226.882	202.596	-87.887	111.544	194.373	165.143	40.521	-39.516	-80.264	13.995	16.704	7.4086e-05	0.00019611	0.00021359	643.24	4.1496e-06	4.0877e-06	318.73	191.32	3.3205e-06	4.16e-06	97.148	29.341	60.707	25.827	3.9251e-06	12.556	0.0015713	0.0019786	0.00055421	674.42	2.0929e-05	2.1909e-05	345.66	202.9	2.0994e-05	2.1985e-05	111.31	33.993	66.057	27.986	2.1807e-05	14.669	-84.278	16.648	-101.295	-105.969	-9.062	140.339	-107.528	-101.596	-8.007	96.409	-104.401	-100.250	-96.350	-90.642	-6.314	-95.762	-8191	255	
35294.473	1	1	0	0	0.16849	0.08982	0.33345	0.24381	0.068552	0.38701	0.11973	0.27906	0.16223	0.17989	0.11524	0.22075	0.042962	0.11654	0.10082	0.25571	0.20417	-1.1208	-0.55208	-0.34167	-1.1917	-0.33542	-0.6625	-1.2271	-0.23958	-1.0667	-0.79792	-0.32292	-1.4042	-0.60833	-0.79583	-1.1042	6.696	125.255	199.435	20.256	199.228	74.947	192.512	161.008	179.549	195.021	152.819	102.883	71.091	-117.890	-111.209	84.674	6.4926e-05	0.0004899	0.00016627	642.68	3.7207e-06	1.1522e-06	316.72	191.66	6.8843e-07	3.8525e-06	97.652	29.038	60.725	25.912	3.9256e-06	12.539	0.0015956	0.002025	0.00056151	674.41	2.1247e-05	2.2169e-05	346.96	203.42	2.1262e-05	2.253e-05	111.81	34.074	66.22	28.124	2.1503e-05	14.679	231.304	48.873	9.310	-106.088	11.372	89.978	-107.609	-101.391	-44.302	-16.402	-104.590	-99.935	-96.140	-90.441	-32.378	-95.119	-8191	255	
35294.594	1	1	0	0	0.021827	0.2751	0.13838	0.13624	0.22081	0.13266	0.1679	0.13214	0.26366	0.045219	0.11027	0.14516	0.11431	0.28094	0.31052	0.14982	0.054167	-1.0229	-0.55833	-0.39167	-1.1417	-0.625	-0.55833	-1.1167	-0.2625	-1.2229	-1.0333	-0.40625	-1.2021	-0.67292	-0.46042	-1.325	233.772	89.789	43.867	-114.354	115.807	76.191	131.600	-3.440	152.898	25.499	189.959	91.920	107.837	-115.322	57.115	130.130	4.3054e-05	0.00021865	6.5832e-05	642.37	3.4829e-06	2.7654e-06	318.86	191.21	1.9842e-06	5.2068e-06	97.78	29.283	61.256	25.915	5.9476e-06	12.587	0.001583	0.0019829	0.00055826	675.44	2.1444e-05	2.2333e-05	347.53	203.51	2.1585e-05	2.2469e-05	112.52	34.247	66.401	28.193	2.2128e-05	14.743	236.175	-57.513	73.357	-106.001	18.695	-90.181	-107.742	-101.332	24.633	-62.954	-104.459	-99.854	-96.334	-90.657	80.191	-96.056	-8191	255	
35294.688	1	1	0	0	0.34607	0.2075	0.054264	0.12558	0.35497	0.14195	0.21118	0.23869	0.19397	0.041141	0.16764	0.21461	0.17121	0.051264	0.17861	0.11135	0.075	-1.0708	-0.94167	-0.28125	-1.4438	-0.7625	-0.82083	-1.3354	-0.31667	-0.92708	-1.0458	-0.32708	-1.0458	-0.95833	-0.59375	-1.2896	-42.012	-49.491	21.625	-69.378	168.954	61.345	-8.977	-16.484	214.026	122.326	179.227	-113.705	-93.095	-92.686	86.655	125.712	5.5886e-05	0.00041312	0.00016563	646.11	1.3127e-06	1.2533e-06	317.52	191.35	2.1107e-06	1.4922e-06	97.679	29.216	60.801	25.859	6.5724e-06	12.586	0.0016325	0.0020377	0.00056093	675.3	2.176e-05	2.2841e-05	346.55	203.39	2.1844e-05	2.3193e-05	111.93	34.125	66.309	28.114	2.253e-05	14.679	173.876	-9.348	-73.201	-106.179	23.718	111.812	-107.607	-101.188	101.287	39.426	-104.493	-100.452	-96.073	-90.617	28.071	-95.263	-8191	255	
35294.785	1	1	0	0	0.41371	0.34983	0.1747	0.14304	0.11791	0.21848	0.0097696	0.10591	0.093896	0.12377	0.1659	0.16286	0.086067	0.15106	0.15068	0.12739	-0.045833	-0.80417	-0.99167	-0.47917	-0.99167	-0.90833	-0.48958	-1.3521	-0.3125	-0.76667	-1.3062	-0.33542	-1.1125	-0.79792	-0.43542	-1.3146	-62.583	-13.242	-107.458	-29.089	-29.724	238.404	-30.592	156.752	193.087	186.996	165.582	-78.024	133.750	-38.811	-9.283	215.160	6.7241e-05	0.00048063	5.9225e-05	642.57	2.4399e-06	2.9678e-06	319.19	190.7	1.9538e-06	4.5448e-06	97.428	29.072	60.846	25.984	2.1207e-06	12.473	0.0016656	0.0020639	0.00057383	676.46	2.2007e-05	2.3034e-05	347.4	203.48	2.2167e-05	2.2695e-05	112.1	34.291	66.369	28.183	2.2507e-05	14.781	227.240	117.204	-106.094	-105.982	107.257	-92.456	-107.651	-101.483	-64.426	29.498	-104.382	-99.919	-95.882	-90.730	117.644	-95.234	-8191	255	
35294.855	1	1	0	0	0.19519	0.033999	0.061329	0.035416	0.049239	0.32136	0.085462	0.14728	0.28927	0.21985	0.05001	0.17542	0.24332	0.15113	0.20065	0.23076	-0.14375	-0.77708	-1.1083	-0.37083	-0.85833	-0.95417	-0.37292	-1.3417	-0.57292	-0.68958	-1.3083	-0.25833	-1.2313	-0.9625	-0.2875	-1.3729	12.991	137.277	-13.345	73.524	114.671	144.232	31.097	-61.649	121.875	149.815	199.928	187.102	160.267	-113.636	204.962	21.908	4.4924e-05	0.00027134	0.00017519	644.39	6.1244e-06	2.635e-06	318.17	192.48	1.4939e-06	6.1943e-06	98.409	29.168	60.283	25.65	3.9675e-06	12.466	0.0016907	0.002116	0.00059242	678.62	2.3064e-05	2.382e-05	350.05	205.1	2.3181e-05	2.4074e-05	113.55	34.445	66.074	27.906	2.2889e-05	14.771	221.532	105.494	-11.865	-105.940	-89.247	23.576	-107.570	-101.310	-28.666	-60.363	-104.266	-99.901	-96.116	-90.633	18.167	-95.703	-8191	255	
35294.977	1	1	0	0	0.24928	0.18622	0.19995	0.48978	0.094633	0.1459	0.16576	0.18817	0.31139	0.29092	0.099494	0.1658	0.15426	0.16279	0.14593	0.036862	-0.21667	-0.46875	-1.15	-0.47708	-1.1667	-1.1979	-0.43542	-1.3104	-0.60417	-0.37708	-1.2708	-0.37917	-1.0146	-0.92708	-0.32083	-1.2771	-80.748	-60.389	234.343	210.820	188.859	-96.819	193.870	-112.587	-5.349	114.859	114.621	108.895	-108.070	185.426	97.564	-6.699	7.3757e-05	0.00032293	0.0001338	645.34	9.5608e-07	5.4737e-06	319.74	192.57	7.7277e-07	6.3545e-07	98.58	29.592	60.604	25.483	1.3483e-06	12.392	0.0017399	0.0021182	0.00059466	678.65	2.2825e-05	2.3898e-05	351.05	205.76	2.3457e-05	2.4281e-05	114.51	34.734	66.48	27.852	2.4269e-05	14.843	206.424	-117.014	-11.942	-105.918	-31.996	-3.430	-107.762	-101.204	144.913	3.590	-104.509	-100.367	-96.259	-90.294	-7.639	-95.885	-8191	255	
35295.074	1	1	0	0	0.28247	0.24757	0.28655	0.10374	0.14442	0.21944	0.12265	0.24259	0.20363	0.20711	0.17314	0.12827	0.052767	0.12235	0.22926	0.23661	-0.42917	-0.45	-1.1229	-0.35625	-0.74583	-1.1833	-0.27292	-1.1917	-0.66875	-0.40833	-1.3396	-0.4125	-0.70417	-1.275	-0.29375	-0.96458	-112.791	27.294	198.120	195.222	-96.575	185.070	-56.519	45.167	-71.345	240.463	-65.819	112.201	74.411	119.711	-111.241	104.863	8.6133e-05	0.00048212	0.0001342	646.31	1.8552e-06	3.8079e-06	322.38	194.22	2.868e-06	5.1168e-06	98.607	29.319	60.782	25.659	2.1728e-06	12.37	0.0018375	0.0022635	0.00062915	681.6	2.4108e-05	2.5227e-05	353.66	207.21	2.4658e-05	2.5307e-05	114.87	34.735	66.665	27.974	2.5166e-05	14.838	221.925	7.407	-85.708	-106.129	47.319	-23.328	-107.863	-101.009	13.903	-4.894	-104.992	-99.682	-96.206	-90.325	103.537	-95.485	-8191	255	
35295.168	1	1	0	0	0.33838	0.10681	0.02425	0.29283	0.085935	0.17891	0.22758	0.081361	0.10748	0.19113	0.10631	0.36437	0.17779	0.10191	0.25836	0.16974	-0.50625	-0.39375	-1.2604	-0.41667	-0.57083	-1.1958	-0.36458	-1.1042	-0.7875	-0.40625	-1.25	-0.31667	-0.61042	-1.5292	-0.34375	-1.0292	34.540	-38.393	43.817	210.392	160.697	53.024	187.495	80.634	72.297	150.109	-37.665	-53.840	209.583	-116.806	117.959	221.908	7.6669e-05	0.00035626	0.00015408	647.05	2.9281e-06	1.8853e-06	320.26	192.61	4.3994e-06	8.4063e-06	98.305	29.06	60.45	25.62	3.5814e-06	12.333	0.0018665	0.00229	0.0006465	682.54	2.506e-05	2.5925e-05	353.04	206.18	2.536e-05	2.6154e-05	115.08	34.764	66.655	28.015	2.5784e-05	14.94	240.383	1.262	-30.473	-105.965	147.995	-19.007	-108.210	-101.245	82.776	-29.593	-104.550	-100.147	-96.379	-90.153	54.937	-95.518	-8191	255	
35295.266	1	1	0	0	0.072854	0.093733	0.049499	0.21045	0.25987	0.18905	0.056187	0.11719	0.045969	0.34811	0.13462	0.074118	0.32592	0.076768	0.036469	0.061629	-0.58542	-0.36667	-1.2146	-0.78542	-0.64375	-1.1521	-0.55833	-1.0063	-1.1833	-0.20625	-0.9125	-0.73333	-0.45625	-1.3687	-0.5625	-0.76458	94.543	-1.146	140.609	223.737	-63.048	-118.605	85.519	-78.723	213.039	200.670	-115.197	25.041	185.872	71.011	-45.884	234.128	3.3052e-05	0.00025752	0.00013465	645.89	2.4447e-06	1.5257e-06	318.34	192.2	1.7401e-06	6.4225e-06	97.419	29.227	60.784	25.724	6.6854e-06	12.403	0.0019247	0.002398	0.00066991	681.21	2.5545e-05	2.6451e-05	352.29	206.03	2.5261e-05	2.6353e-05	114.86	34.801	66.672	28.092	2.5806e-05	14.935	-117.174	-44.263	-71.857	-105.875	81.273	139.747	-107.811	-101.302	104.915	47.706	-104.525	-99.830	-95.763	-90.306	3.160	-94.728	-8191	255	
35295.383	1	1	0	0	0.25207	0.31045	0.082805	0.24789	0.41484	0.15773	0.27862	0.34989	0.077058	0.28429	0.25462	0.06196	0.19112	0.20855	0.098051	0.24726	-0.5375	-0.38333	-1.1021	-0.61458	-0.20208	-1.3667	-0.49792	-0.96875	-1.1125	-0.35833	-1.0917	-0.9	-0.3875	-1.25	-0.35417	-0.64375	146.258	-12.315	-38.333	162.349	83.829	37.068	181.060	-117.132	-107.797	56.512	157.502	-14.216	161.042	-95.767	236.678	-15.002	1.7661e-05	0.00058009	2.4059e-05	644.05	4.2581e-06	4.0254e-06	320.33	192.04	1.8046e-06	7.7713e-06	98.111	29.193	60.781	25.941	4.8557e-06	12.671	0.0018468	0.0023155	0.00063499	679.26	2.3926e-05	2.4857e-05	350.77	205.21	2.377e-05	2.4962e-05	114.06	34.653	66.493	28.24	2.4076e-05	14.962	236.277	-21.769	-41.149	-106.189	2.997	-38.417	-107.610	-101.175	226.781	5.609	-104.739	-100.180	-95.966	-90.302	-23.819	-95.306	-8191	255	
35295.457	1	1	0	0	0.12354	0.18102	0.20565	0.095654	0.096378	0.30638	0.26088	0.18483	0.17119	0.10197	0.17157	0.16569	0.011993	0.35884	0.16301	0.36778	-0.80208	-0.3375	-0.9875	-1.0812	-0.22917	-1.4583	-0.64375	-0.61458	-1.3312	-0.62917	-0.98125	-0.88958	-0.38333	-1.1604	-0.7125	-0.63542	-67.204	141.338	-109.139	155.275	-17.227	143.699	100.785	152.382	-50.333	108.540	113.816	235.979	67.658	150.958	195.245	190.064	6.1207e-05	0.00033729	0.00014522	644.08	2.0971e-06	3.0225e-06	321.33	191.69	3.1031e-06	2.8314e-06	98.703	29.661	60.867	26.229	1.778e-06	12.84	0.0017367	0.002177	0.00060181	677.33	2.2798e-05	2.3263e-05	350.2	204.83	2.1854e-05	2.296e-05	113.46	34.546	66.553	28.43	2.2298e-05	15.039	220.983	202.934	-8.334	-105.736	43.950	127.618	-107.559	-101.199	-80.678	68.134	-103.897	-99.914	-96.096	-90.325	231.459	-95.451	-8191	255	
35295.555	1	1	0	0	0.2858	0.078225	0.27793	0.1913	0.14213	0.085832	0.036966	0.26362	0.20514	0.15342	0.069218	0.15014	0.32864	0.42991	0.11288	0.053517	-1.0104	-0.2125	-0.78125	-1.0167	-0.33125	-1.2833	-0.70208	-0.3625	-1.3271	-0.39792	-0.96875	-1.1	-0.42292	-1.2104	-0.63542	-0.52708	228.296	-5.224	197.513	-54.398	207.777	150.893	131.311	133.749	-34.260	124.964	-34.452	170.080	98.377	206.530	81.829	14.316	7.8749e-05	0.00056815	0.00010075	647.25	4.4775e-06	3.2768e-06	320.77	192.8	3.7247e-07	2.2209e-06	98.734	29.486	60.95	25.91	3.209e-06	12.593	0.001624	0.0020611	0.00057761	679.14	2.232e-05	2.3102e-05	350.61	205.41	2.2293e-05	2.3464e-05	113.76	34.608	66.508	28.277	2.3014e-05	14.875	238.440	-22.428	-107.275	-106.109	148.054	-9.292	-107.971	-101.837	52.891	-78.353	-105.090	-100.792	-96.881	-91.353	-48.965	-96.124	-8191	255	
35295.672	1	1	0	0	0.3111	0.2894	0.25905	0.075011	0.22892	0.10652	0.094113	0.21832	0.23534	0.16187	0.15802	0.093221	0.10366	0.11097	0.13978	0.14009	-0.82708	-0.37917	-0.58542	-1.1271	-0.27083	-0.97708	-0.81458	-0.39792	-1.3333	-0.62917	-0.81042	-1.1896	-0.47083	-0.84792	-0.83958	-0.33125	196.293	-102.289	154.837	239.876	183.006	12.100	-50.857	168.219	179.999	101.272	-112.113	46.582	198.214	35.891	-105.460	72.826	1.849e-05	0.00015225	0.0002237	644.84	1.525e-06	4.8593e-06	319.1	191.63	4.429e-06	8.6935e-06	97.781	29.208	60.318	25.595	1.9681e-06	12.348	0.0017175	0.0021673	0.00060552	677.97	2.3003e-05	2.442e-05	350.51	205.04	2.3562e-05	2.4791e-05	113.67	34.524	66.423	28.031	2.45e-05	14.818	-112.743	90.950	-63.480	-106.535	142.332	147.887	-108.430	-101.684	-2.771	62.910	-105.675	-100.839	-96.603	-91.046	-118.235	-95.869	-8191	255	
35295.770	1	1	0	0	0.25163	0.10803	0.072783	0.27931	0.27457	0.021474	0.35495	0.22047	0.14217	0.16807	0.27047	0.045667	0.10023	0.12074	0.18088	0.08067	-0.76667	-0.51667	-0.71458	-1.2938	-0.29167	-1.2396	-0.98542	-0.6	-1.1917	-0.70625	-0.63542	-1.3271	-0.36667	-0.93125	-1.1271	-0.13542	202.956	132.901	10.118	-113.885	16.814	-70.164	172.847	68.252	-109.047	13.068	142.010	215.672	129.833	-11.248	7.406	-87.451	4.1962e-05	0.00016231	0.0001856	645.2	2.1484e-06	2.9815e-06	319.35	192.85	4.1633e-06	6.1146e-06	98.024	28.979	60.438	25.738	5.4585e-06	12.369	0.0018174	0.0022601	0.00062579	679.88	2.4097e-05	2.5045e-05	352.07	205.94	2.4443e-05	2.563e-05	114.38	34.533	66.641	28.027	2.5111e-05	14.802	208.415	1.857	-70.737	-106.601	-7.966	-4.025	-108.600	-101.952	-9.874	30.078	-105.005	-100.879	-96.468	-91.040	-33.601	-96.619	-8191	255	
35295.863	1	1	0	0	0.14198	0.13267	0.22661	0.18873	0.27177	0.30876	0.075726	0.29752	0.18573	0.06229	0.18967	0.12775	0.23474	0.13281	0.088532	0.31445	-0.86667	-0.65208	-0.31042	-1.2792	-0.38958	-0.98542	-1.0542	-0.27292	-1.1271	-0.62083	-0.57708	-1.2229	-0.41042	-0.77083	-1.1271	-0.21875	216.663	147.036	230.753	-119.621	37.666	120.545	-47.243	207.125	137.494	-104.309	61.795	-32.076	-109.989	235.838	-97.463	-92.085	0.00010567	0.00059338	0.00028063	645.59	4.8113e-06	3.4051e-06	321.97	192.73	4.4151e-06	6.8453e-06	98.507	29.068	60.618	25.716	1.4495e-06	12.544	0.0018403	0.0022954	0.00063766	681.05	2.4364e-05	2.5334e-05	352.66	205.88	2.3751e-05	2.4885e-05	114.37	34.654	66.438	28.037	2.4178e-05	14.862	-98.143	5.677	-70.143	-106.512	32.440	-88.392	-108.713	-101.684	-79.318	77.810	-104.655	-100.838	-96.649	-90.797	110.770	-95.793	-8191	255	
35295.984	1	1	0	0	0.25155	0.31146	0.20388	0.12084	0.26576	0.17725	0.23204	0.24796	0.090869	0.03282	0.27573	0.18326	0.14268	0.056968	0.11214	0.035579	-0.7375	-0.75208	-0.36667	-1.4417	-0.47917	-0.75	-1.4354	-0.32292	-1.0396	-0.82292	-0.24167	-1.2521	-0.37917	-0.675	-1.0792	-0.17708	-93.371	-30.355	-23.746	-14.361	73.614	-97.632	-113.536	141.135	-87.685	-53.334	171.862	53.344	84.476	212.099	209.978	-3.737	8.5941e-05	0.00086745	0.0001453	644.19	7.7719e-07	6.5312e-06	319.8	193.09	2.7443e-06	2.6031e-06	99.295	29.367	60.956	25.939	4.4817e-06	12.552	0.0017834	0.0022321	0.00062294	680.71	2.3779e-05	2.4815e-05	352.26	206.24	2.3685e-05	2.4495e-05	114.83	34.791	66.648	28.145	2.3799e-05	14.905	-110.842	-35.095	-52.846	-106.492	116.594	106.676	-108.055	-102.094	181.977	-51.374	-104.502	-100.726	-96.437	-91.001	108.427	-95.751	-8191	255	
35296.082	1	1	0	0	0.42157	0.20077	0.3985	0.34611	0.32121	0.15576	0.10407	0.19953	0.20591	0.05128	0.27768	0.15659	0.17997	0.3418	0.085373	0.062912	-0.66667	-0.79583	-0.3375	-1.05	-0.5875	-0.74375	-1.1167	-0.33542	-0.82292	-0.96042	-0.47708	-1.175	-0.60625	-0.39792	-1.3104	-0.39583	171.264	97.005	-80.824	231.433	115.924	115.354	-0.095	-119.270	85.281	-67.481	73.644	218.089	148.554	-89.364	72.619	190.428	9.1333e-05	0.0003497	7.0222e-05	645.09	5.6346e-06	5.3623e-06	319.93	192.4	8.9176e-07	6.0907e-06	99.063	29.261	60.511	25.829	4.7043e-06	12.41	0.001779	0.0022074	0.0006126	680.3	2.3658e-05	2.4712e-05	351.38	205.43	2.3851e-05	2.4835e-05	114.25	34.58	66.479	28.114	2.4054e-05	14.82	214.417	-88.020	-32.623	-106.426	-25.076	-7.451	-108.618	-101.584	-1.340	44.649	-104.700	-100.750	-96.598	-90.922	-2.490	-96.237	-8191	255	
35296.152	1	1	0	0	0.12022	0.23338	0.041604	0.20153	0.23847	0.10492	0.30394	0.056748	0.031389	0.16703	0.24641	0.19368	0.27235	0.048293	0.11446	0.1909	-0.62292	-1.1604	-0.30417	-1.3563	-0.61667	-0.43125	-1.3	-0.49792	-0.92708	-1.05	-0.30833	-1.3542	-0.68125	-0.44375	-1.2771	-0.37083	18.949	207.072	71.973	-87.677	177.060	-41.405	184.525	199.419	48.889	46.632	162.850	10.808	227.807	147.125	107.382	63.722	9.6341e-05	0.00024008	0.00029295	644.16	2.1191e-06	4.2223e-06	319.74	192.27	3.716e-06	5.9486e-06	97.017	29.296	60.518	25.736	2.7804e-06	12.533	0.0018215	0.0022255	0.00062123	678.81	2.3723e-05	2.4778e-05	350.21	205.33	2.3911e-05	2.4475e-05	113.31	34.562	66.48	28.153	2.4045e-05	14.863	189.075	-86.582	-26.930	-106.372	80.252	23.710	-108.218	-101.876	39.813	-34.610	-104.668	-100.641	-96.343	-90.913	57.499	-95.880	-8191	255	
35296.273	1	1	0	0	0.53462	0.19078	0.14598	0.24294	0.2216	0.1847	0.13737	0.31152	0.048668	0.03845	0.41245	0.28701	0.12636	0.1237	0.048042	0.27574	-0.37083	-1.0167	-0.32083	-1.0792	-0.95833	-0.32708	-1.1958	-0.54167	-0.68125	-1.3563	-0.39792	-0.96458	-0.98542	-0.4	-1.2042	-0.6125	-104.004	73.825	61.029	171.508	-89.824	-70.523	-36.693	-101.440	-61.347	-51.334	162.624	87.215	-78.069	32.835	-46.833	-57.031	1.9676e-05	0.00052467	0.00021046	645.45	4.4296e-06	3.2292e-06	318.63	192.25	3.8446e-06	3.251e-06	98.115	29.621	60.693	25.847	3.4652e-06	12.526	0.0017771	0.0022211	0.00061562	680.17	2.361e-05	2.4348e-05	351.33	205.42	2.3268e-05	2.4151e-05	113.73	34.723	66.546	28.196	2.3362e-05	14.917	212.550	-7.553	197.152	-106.420	76.569	25.347	-108.410	-101.664	235.093	108.276	-104.733	-100.317	-96.943	-90.768	40.375	-95.663	-8191	255	
35296.371	1	1	0	0	0.090585	0.14456	0.092476	0.18557	0.2176	0.12089	0.13626	0.16928	0.13393	0.28233	0.070229	0.13143	0.53219	0.32068	0.060787	0.20112	-0.1375	-1.3375	-0.29792	-1.0417	-0.96042	-0.19583	-1.2604	-0.65	-0.4625	-1.2542	-0.34583	-1.1083	-1.0146	-0.20208	-1.0167	-0.82083	9.453	134.621	225.660	219.531	-2.160	15.396	109.079	183.161	126.173	199.116	71.792	50.351	-71.528	236.192	179.862	99.223	0.00012145	0.0003605	0.00010228	647.67	1.1552e-06	6.4467e-06	321.45	193.21	4.768e-06	6.6969e-06	98.217	29.407	61.368	26.115	6.4312e-06	12.536	0.0017372	0.0021815	0.00060374	680.8	2.3002e-05	2.388e-05	352.17	205.86	2.339e-05	2.4212e-05	114.03	34.866	66.94	28.409	2.388e-05	14.986	200.538	-117.772	-11.065	-106.109	-99.086	42.062	-108.347	-102.171	-20.297	99.968	-105.389	-100.197	-96.763	-91.136	28.616	-95.603	-8191	255	
35296.465	1	1	0	0	0.18056	0.31	0.30755	0.26729	0.25487	0.13703	0.31246	0.31068	0.1237	0.18765	0.2632	0.15263	0.086842	0.18306	0.13699	0.31641	-0.16042	-1.1125	-0.2625	-0.93542	-1.1646	-0.33125	-1.1625	-0.65208	-0.35	-1.15	-0.1375	-0.67917	-1.075	-0.18958	-1.1688	-0.89792	168.869	-4.459	-29.259	188.230	77.463	134.249	190.781	76.901	-10.636	211.920	-65.900	11.522	231.427	-32.451	207.002	159.121	7.5407e-05	0.00065216	0.00012072	646.14	6.0947e-06	1.1478e-06	322.25	192.86	4.5272e-06	3.0344e-06	99.302	29.817	61.409	26.088	3.5333e-06	12.744	0.0017659	0.0021919	0.00061352	681.87	2.3399e-05	2.4421e-05	353.63	206.38	2.3627e-05	2.4266e-05	114.87	34.962	67.096	28.382	2.3955e-05	15.093	214.311	120.710	-72.409	-106.488	-8.035	-117.192	-108.344	-101.907	-0.276	111.131	-105.049	-100.245	-96.883	-91.061	134.776	-96.062	-8191	255	
35296.562	1	1	0	0	0.17241	0.19026	0.050337	0.21103	0.12647	0.13665	0.26022	0.15072	0.030206	0.17753	0.064701	0.23923	0.15235	0.22871	0.11615	0.19367	-0.020833	-1.2271	-0.3625	-0.96875	-1.0583	-0.21875	-1.1562	-0.84583	-0.3125	-1.2792	-0.53542	-0.58333	-1.1875	-0.22083	-1.0458	-0.72708	41.887	230.015	231.818	-111.256	72.902	218.752	-73.199	106.409	167.109	25.863	-117.221	-60.616	-16.593	127.248	175.901	57.556	4.9916e-05	0.00021562	0.00013368	648.01	5.4575e-06	6.0319e-06	321.02	192.76	3.588e-06	5.4171e-06	98.772	29.557	61.094	26.098	1.3162e-06	12.708	0.0017744	0.0022016	0.00061712	681.36	2.3321e-05	2.4297e-05	351.54	205.95	2.3543e-05	2.4319e-05	113.87	34.773	66.884	28.439	2.2974e-05	14.941	234.025	-48.853	-3.499	-106.513	47.528	31.914	-108.003	-102.127	3.300	-53.574	-105.140	-100.890	-96.541	-91.025	-23.749	-95.643	-8191	255	
35296.656	1	1	0	0	0.076773	0.15153	0.11603	0.18985	0.11253	0.10476	0.1782	0.32561	0.12533	0.059362	0.15425	0.23571	0.15576	0.19947	0.13323	0.35468	0.30625	-1.1792	-0.41042	-0.70625	-1.2646	-0.29792	-0.98542	-1.0458	-0.45625	-1.3521	-0.66667	-0.49375	-1.2625	-0.36458	-0.9875	-1.1812	30.507	183.681	84.644	119.545	207.460	231.116	36.132	175.631	32.652	139.188	-101.165	-37.858	22.837	-18.257	121.273	-78.410	5.0731e-05	0.00051519	0.00017138	643.57	1.0429e-06	1.9235e-06	320.02	193.02	3.2367e-06	1.7844e-06	97.927	29.596	61.368	26.567	1.9006e-06	13.004	0.0016772	0.0020656	0.00057431	675.93	2.1498e-05	2.2209e-05	348.13	204.67	2.1106e-05	2.231e-05	112.48	34.564	66.781	28.724	2.105e-05	15.127	230.328	-89.716	-60.866	-106.388	82.356	-95.488	-107.981	-101.830	-43.605	105.220	-105.029	-100.641	-96.704	-90.792	-40.387	-96.063	-8191	255	
35296.754	1	1	0	0	0.23243	0.29826	0.03635	0.12443	0.11551	0.30475	0.15527	0.20243	0.082919	0.05444	0.21772	0.24243	0.19189	0.36105	0.1023	0.097797	0.29583	-1.125	-0.61875	-0.39167	-1.2792	-0.59375	-0.73125	-1.0104	-0.33333	-1.0771	-0.74167	-0.55417	-1.5271	-0.47708	-0.75208	-1.0688	186.866	65.259	180.719	234.484	74.548	49.404	-52.936	215.060	-28.691	195.533	48.894	112.172	215.163	124.585	-113.812	66.398	4.1254e-05	0.00013742	0.00016936	641.48	1.8692e-06	3.0789e-06	320.7	193.17	5.0076e-06	6.0947e-06	98.205	29.692	61.865	26.725	2.6554e-06	13.178	0.0015359	0.0019099	0.00053479	673.8	1.9798e-05	2.0786e-05	347.5	204.44	2.0122e-05	2.1095e-05	112	34.568	67.131	28.948	2.1002e-05	15.253	-108.266	-92.983	11.416	-106.182	94.508	5.511	-108.168	-101.993	-49.947	-32.883	-105.452	-100.190	-96.479	-90.819	-18.121	-95.533	-8191	255	
35296.848	1	1	0	0	0.16732	0.31387	0.24845	0.22651	0.18711	0.16416	0.2387	0.18011	0.10753	0.041242	0.29472	0.24698	0.13882	0.081491	0.12805	0.10701	0.039583	-1.1646	-0.73958	-0.26458	-1.3125	-0.6125	-0.63958	-1.4521	-0.36042	-1.0604	-0.90833	-0.22292	-1.2167	-0.57083	-0.65	-1.2188	-58.374	58.681	-118.858	170.696	88.007	224.789	103.657	-80.363	-88.855	63.324	30.842	-4.831	210.697	120.033	203.466	95.275	8.2107e-05	0.00060476	0.00016791	644.56	1.3225e-06	1.0717e-06	320.77	194.12	3.1263e-06	4.6456e-06	98.93	29.957	61.975	26.426	5.4685e-06	12.818	0.0015711	0.0019401	0.00055098	677.83	2.0855e-05	2.1955e-05	350.12	206.08	2.1619e-05	2.2369e-05	113.77	34.852	67.223	28.811	2.2499e-05	15.214	205.964	-45.615	-82.752	-106.395	28.199	24.318	-108.242	-101.951	-23.604	-53.566	-105.358	-100.138	-96.113	-91.083	41.094	-95.966	-8191	255	
35296.945	1	1	0	0	0.11385	0.037285	0.080611	0.16004	0.34958	0.1659	0.079095	0.27703	0.14657	0.081976	0.17805	0.18981	0.19255	0.14345	0.1769	0.25656	0.13125	-0.94583	-0.87083	-0.4875	-1.2958	-0.7125	-0.58542	-1.2354	-0.38333	-1.1	-1.0146	-0.38958	-1.1146	-0.75833	-0.47083	-1.1875	33.631	170.960	146.279	-96.636	7.850	131.201	172.852	-35.160	42.518	238.337	168.080	136.102	107.474	-96.473	15.843	179.253	6.0165e-05	0.00085943	0.00016586	651.05	1.3367e-06	2.8679e-06	325.29	195.06	3.4406e-07	2.9053e-06	98.597	29.787	61.566	26.307	4.0291e-06	12.693	0.0016678	0.0021067	0.00058841	683.43	2.2598e-05	2.3871e-05	354.2	207.67	2.3339e-05	2.4174e-05	114.41	35.144	67.505	28.669	2.3782e-05	15.145	182.890	-21.585	11.872	-106.359	27.619	27.614	-108.273	-101.811	122.014	-13.565	-105.306	-100.612	-96.690	-91.086	86.116	-95.536	-8191	255	
35297.066	1	1	0	0	0.040423	0.29937	0.30215	0.19404	0.11197	0.31366	0.28058	0.30424	0.1529	0.095182	0.27116	0.062291	0.18969	0.15582	0.2328	0.063286	-0.22917	-0.825	-1.1479	-0.43958	-1.2646	-0.78125	-0.6	-1.1958	-0.2125	-0.85417	-0.90208	-0.36042	-0.94375	-0.8375	-0.43958	-1.35	-91.632	159.085	209.465	176.384	23.151	218.781	83.426	235.757	124.798	57.666	-102.837	169.908	174.430	98.635	232.157	-66.833	8.896e-05	0.00042559	8.0326e-05	649.1	1.5964e-06	3.1443e-06	321.55	193.52	5.2465e-06	7.5363e-06	98.475	29.5	61.517	26.174	1.2816e-06	12.669	0.0017592	0.0021783	0.00060367	682.26	2.3053e-05	2.3879e-05	351.68	205.86	2.2947e-05	2.4005e-05	113.84	34.788	67.238	28.594	2.3532e-05	15.095	216.547	65.590	93.366	-106.412	-23.422	48.418	-107.917	-101.807	-84.527	42.962	-105.505	-100.567	-96.351	-90.597	177.859	-95.168	-8191	255	
35297.160	1	1	0	0	0.2095	0.11549	0.31462	0.28451	0.2738	0.19675	0.21979	0.10545	0.20184	0.058753	0.24717	0.079156	0.12607	0.2461	0.22882	0.098797	-0.10417	-0.43958	-0.97708	-0.42708	-1.0479	-1.0125	-0.35	-1.1271	-0.46875	-0.67708	-1.25	-0.4125	-0.94167	-0.6375	-0.39375	-1.175	55.781	-13.585	70.267	231.611	206.553	216.788	-82.944	161.479	-63.816	109.519	191.782	13.576	31.613	-98.219	156.722	4.092	3.1843e-05	0.00021939	0.00010499	648.35	5.5721e-07	4.5285e-06	321.05	193.82	2.376e-06	5.5113e-06	98.648	29.398	61.511	26.333	4.9154e-06	12.862	0.0017677	0.0021969	0.00060732	682.13	2.3581e-05	2.4499e-05	351.63	206.21	2.3828e-05	2.4635e-05	113.83	34.85	67.309	28.719	2.3946e-05	15.132	-100.448	-106.278	-58.205	-106.311	206.924	66.263	-108.118	-101.734	224.517	69.053	-105.188	-100.116	-96.439	-90.954	0.601	-96.351	-8191	255	
35297.258	1	1	0	0	0.29727	0.14831	0.1371	0.2393	0.12975	0.41127	0.054303	0.26647	0.21143	0.13062	0.07138	0.23704	0.16315	0.20918	0.43404	0.26709	-0.17917	-0.38125	-1.2896	-0.43958	-1.0958	-0.9875	-0.34167	-1.3563	-0.70208	-0.30833	-1.2062	-0.34167	-1.0063	-0.90208	-0.36458	-1.2313	111.621	-62.130	174.854	148.583	146.254	-49.203	87.415	196.335	-45.094	234.064	1.612	236.160	66.141	193.089	133.280	18.463	8.7752e-05	0.00035531	0.00016174	645.72	1.2266e-06	1.1456e-05	320.42	193.09	3.9419e-06	3.9366e-06	98.368	29.894	61.563	26.505	2.548e-06	12.953	0.0017784	0.0022055	0.00061906	679.58	2.3506e-05	2.4511e-05	351.62	205.8	2.3337e-05	2.4542e-05	114.12	34.986	67.265	28.918	2.3857e-05	15.291	222.569	99.843	-119.384	-106.440	123.300	-29.805	-108.048	-101.437	-5.106	48.983	-105.193	-100.260	-96.356	-90.712	198.596	-95.698	-8191	255	
35297.355	1	1	0	0	0.3395	0.14112	0.13652	0.084309	0.037532	0.22549	0.047824	0.2224	0.14624	0.13003	0.066919	0.086463	0.45977	0.11972	0.067645	0.307	-0.20417	-0.31667	-1.2375	-0.475	-0.65417	-1.1042	-0.19167	-1.4042	-0.77083	-0.49167	-1.3937	-0.49792	-0.67917	-1.1896	-0.44792	-1.2021	194.696	225.785	193.736	231.709	237.132	218.472	0.405	210.316	139.483	123.034	217.687	-81.553	147.926	-6.536	29.741	18.754	7.4764e-05	0.00044228	0.00010952	644.24	5.6052e-07	2.5595e-06	322.04	193.55	2.6399e-06	3.685e-06	98.694	29.607	61.433	26.665	1.1185e-06	13.012	0.0017897	0.0022258	0.00061726	681.11	2.3592e-05	2.4321e-05	352.33	205.88	2.3473e-05	2.4293e-05	113.97	35.05	67.572	29.022	2.3652e-05	15.384	168.161	155.722	22.018	-106.278	-113.772	141.736	-108.219	-101.127	-82.045	90.980	-105.017	-100.630	-95.868	-90.852	-32.912	-95.323	-8191	255	
35297.449	1	1	0	0	0.24275	0.22465	0.15823	0.40886	0.28975	0.26575	0.14857	0.21239	0.14624	0.20006	0.19632	0.21363	0.24339	0.26152	0.11196	0.39825	-0.47292	-0.33125	-1.175	-0.42708	-0.65208	-1.3937	-0.36875	-1.0167	-1.0083	-0.32083	-1.2812	-0.55208	-0.47708	-1.0875	-0.3625	-0.78542	152.234	-21.242	194.677	-83.702	-8.468	-6.316	-73.625	216.146	210.886	-39.098	116.564	121.082	-26.328	-28.818	-38.873	170.587	6.0452e-05	0.00022946	0.00016473	646.39	2.8691e-06	6.7865e-06	321.82	192.71	2.857e-06	2.335e-06	97.906	29.714	61.775	26.759	3.2753e-06	12.945	0.001737	0.0021752	0.00060856	681.2	2.3399e-05	2.4225e-05	350.63	205.54	2.3083e-05	2.3942e-05	113.06	34.957	67.396	29.017	2.2929e-05	15.265	233.806	236.312	-56.999	-106.155	207.444	86.659	-107.776	-101.294	204.797	-77.288	-105.041	-100.244	-96.246	-91.112	53.022	-95.450	-8191	255	
35297.547	1	1	0	0	0.38802	0.21434	0.25254	0.17024	0.09915	0.15632	0.052118	0.13114	0.197	0.20823	0.2772	0.19253	0.36059	0.19845	0.11181	0.2131	-0.47917	-0.19583	-1.0875	-0.52292	-0.52708	-1.3208	-0.44792	-0.99792	-1.1271	-0.21458	-0.90625	-0.70208	-0.36667	-1.4917	-0.29583	-0.79792	-22.329	229.723	163.689	130.140	208.396	116.782	112.013	209.904	41.251	157.482	136.716	-99.776	206.646	184.258	26.744	67.283	6.4585e-05	0.00078247	7.0485e-05	641.14	2.2259e-06	3.3371e-06	317.12	192.11	3.6365e-06	2.4788e-06	97.111	29.405	61.53	26.639	5.3466e-07	12.878	0.001691	0.0020977	0.00058759	676.44	2.2697e-05	2.3619e-05	347.4	204.47	2.2803e-05	2.3652e-05	112.34	34.636	67.246	28.967	2.315e-05	15.206	202.916	-59.778	-60.770	-106.334	70.627	107.347	-108.124	-101.377	-69.436	-44.741	-104.921	-99.687	-96.371	-90.507	-81.521	-95.601	-8191	255	
35297.664	1	1	0	0	0.073617	0.48105	0.25621	0.28797	0.42378	0.35008	0.2228	0.11441	0.10408	0.19001	0.13414	0.089794	0.17809	0.15726	0.14233	0.13199	-0.6625	-0.17292	-1.1688	-0.83542	-0.30833	-1.3062	-0.62708	-0.76458	-0.94792	-0.23125	-1.1292	-0.90417	-0.20625	-1.15	-0.4125	-0.66875	-92.202	47.758	-23.616	236.745	-92.175	19.321	137.709	37.867	6.342	20.745	197.405	-77.481	216.280	-44.450	188.712	-100.395	9.1828e-05	0.00029244	0.00024655	642.26	4.4024e-06	4.2261e-06	319.8	191.61	3.6225e-06	4.7129e-06	98.336	29.416	61.787	26.322	1.5686e-06	12.854	0.001704	0.0021304	0.00059778	677.15	2.2864e-05	2.4145e-05	349.3	204.85	2.3038e-05	2.4263e-05	113.25	34.797	67.343	28.723	2.416e-05	15.153	193.057	-27.981	-82.479	-106.162	23.498	193.522	-107.885	-101.102	-70.737	95.784	-104.593	-100.456	-96.312	-90.788	-3.409	-96.029	-8191	255	
35297.762	1	1	0	0	0.14472	0.22281	0.19616	0.12815	0.10827	0.12354	0.087477	0.26206	0.15719	0.28039	0.18889	0.12681	0.12818	0.13714	0.15649	0.34436	-0.79167	-0.29375	-0.90833	-0.79792	-0.28542	-1.15	-0.54167	-0.69167	-1.1021	-0.1625	-0.95625	-1.0312	-0.22292	-1.175	-0.56667	-0.41875	-18.725	158.932	88.254	-103.607	78.017	143.418	204.210	158.452	178.820	35.220	-95.126	182.750	73.944	-19.325	187.989	134.406	5.348e-05	0.00024396	0.00011053	646.23	1.7382e-06	5.8526e-06	320.55	191.89	2.9663e-06	5.8157e-06	97.985	29.434	61.062	26.047	5.6582e-06	12.86	0.0017861	0.0022331	0.00062925	680.85	2.3964e-05	2.4941e-05	352.13	205.54	2.4128e-05	2.5185e-05	114.07	34.906	67.078	28.536	2.4846e-05	15.201	209.342	220.206	61.189	-106.200	165.633	-14.157	-107.834	-101.210	114.859	20.490	-104.673	-100.405	-96.241	-90.168	27.292	-95.569	-8191	255	
35297.859	1	1	0	0	0.073572	0.23703	0.11004	0.17387	0.24297	0.11215	0.27693	0.19603	0.33108	0.037625	0.11128	0.10634	0.2589	0.062089	0.22786	0.13698	-0.9	-0.36458	-0.84583	-1.1042	-0.25625	-1.1875	-0.88542	-0.54792	-1.3687	-0.3375	-0.825	-1.0917	-0.38542	-1.2333	-0.68542	-0.52292	233.517	93.585	159.068	147.947	203.884	11.001	120.895	128.520	107.584	-112.398	-50.973	136.188	133.661	-6.979	-3.188	143.389	6.0886e-05	0.00064344	0.00011203	645.32	3.4996e-06	6.1516e-06	321.1	192.82	2.5883e-06	1.7002e-06	97.694	29.481	61.071	26.071	3.6101e-06	12.785	0.001828	0.0022931	0.00064525	682.22	2.446e-05	2.5536e-05	352.73	206.18	2.415e-05	2.5324e-05	114.06	34.968	66.937	28.44	2.4219e-05	15.157	-84.423	240.598	231.309	-106.099	124.181	233.584	-108.165	-101.301	-93.615	-3.557	-104.935	-100.060	-96.518	-91.176	31.004	-95.821	-8191	255	
35297.953	1	1	0	0	0.19607	0.11152	0.21241	0.16903	0.062008	0.10078	0.21636	0.31117	0.078547	0.18051	0.17767	0.23804	0.2946	0.50766	0.27448	0.12868	-0.82917	-0.42917	-0.9	-1.0708	-0.10833	-1.1208	-0.78542	-0.36667	-1.1042	-0.56458	-0.64792	-0.925	-0.44583	-1.0917	-0.86042	-0.40833	85.474	178.881	52.961	67.838	171.837	138.553	95.575	200.957	128.886	140.225	90.334	19.969	224.111	-58.478	77.623	-6.756	5.3931e-05	0.00013987	0.0001883	647.16	4.3229e-06	6.547e-06	320.13	193.1	2.9053e-06	8.1443e-07	98.466	29.294	61.021	25.886	2.1703e-06	12.556	0.0017708	0.0022309	0.0006193	680.61	2.3691e-05	2.455e-05	350.56	205.72	2.3739e-05	2.4756e-05	113.9	34.629	66.854	28.377	2.4892e-05	14.973	-119.246	25.696	114.499	-105.963	28.135	57.759	-107.838	-101.267	-74.933	-32.137	-104.284	-100.056	-96.350	-90.669	33.433	-95.143	-8191	255	
35298.051	1	1	0	0	0.19007	0.06353	0.39783	0.34146	0.093991	0.07502	0.21696	0.28051	0.23366	0.1448	0.21627	0.30195	0.36266	0.060487	0.23661	0.17272	-0.73542	-0.37708	-0.76042	-1.5292	-0.17083	-0.92083	-1.0396	-0.22708	-1.3188	-0.81667	-0.70417	-1.1583	-0.23958	-1.0417	-1.0208	-0.25625	-106.281	-95.824	180.751	-113.328	154.483	51.101	142.852	153.527	12.652	231.281	-102.809	-115.320	220.367	55.149	-14.590	229.175	2.8928e-05	0.00024703	0.0001096	642.26	5.2851e-06	5.9412e-06	319.46	192.73	1.4979e-06	1.7197e-06	97.487	29.105	60.755	25.587	3.9666e-06	12.377	0.001846	0.002345	0.00065275	680.27	2.5095e-05	2.6375e-05	351.75	205.89	2.5325e-05	2.6662e-05	114.5	34.711	66.712	28.024	2.5724e-05	14.837	-118.786	41.747	215.950	-105.992	-33.948	121.049	-108.141	-101.416	239.934	-55.523	-105.140	-100.427	-96.101	-90.725	211.672	-95.623	-8191	255	
#DATA ENDS
