BOXY.EXE: ISS Imagent and Oximeter Data Acquisition Program Version 0.80
Ascii Record File

#ACQ INFORMATION
2  Detector Channels 
16  External MUX Channels 
1  Auxiliary Channels 
5000  Waveform (CCF) Frequency (Hz)
1  Waveforms Skipped 
30  Waveforms Averaged 
1  Cycles Averaged 
16  Acquisitions per Waveform 
10.0806  Updata Rate (Hz) 

#FILE INFORMATION
TRUE -- External MUX Channel results are PARSED.
FALSE -- AC DC and Phase are NOT grouped.
TRUE -- Companion Program Settings File CREATED.
FALSE -- AC data not excluded
FALSE -- DC data not excluded
FALSE -- Phase data not excluded
FALSE -- Auxillary Chn. data not excluded
Tab delimiters

#CALIBRATION STATE
TRUE -- Waveform Calibration Values APPLIED.


#AUX CALIBRATION VALUES
Val Type	aux-1	

Term	1.0000e+00	
Factor	0.0000e+00	


#WF CALIBRATION VALUES
A = Detector Channel
Val Type	A-AC1	A-AC2	A-AC3	A-AC4	A-AC5	A-AC6	A-AC7	A-AC8	A-AC9	A-AC10	A-AC11	A-AC12	A-AC13	A-AC14	A-AC15	A-AC16	A-DC1	A-DC2	A-DC3	A-DC4	A-DC5	A-DC6	A-DC7	A-DC8	A-DC9	A-DC10	A-DC11	A-DC12	A-DC13	A-DC14	A-DC15	A-DC16	A-Ph1	A-Ph2	A-Ph3	A-Ph4	A-Ph5	A-Ph6	A-Ph7	A-Ph8	A-Ph9	A-Ph10	A-Ph11	A-Ph12	A-Ph13	A-Ph14	A-Ph15	A-Ph16	

Term	0.00000e+00	0.00000e+00	0.00000e+00	0.00000e+00	0.00000e+00	0.00000e+00	0.00000e+00	0.00000e+00	0.00000e+00	0.00000e+00	0.00000e+00	0.00000e+00	0.00000e+00	0.00000e+00	0.00000e+00	0.00000e+00	0.00000e+00	0.00000e+00	0.00000e+00	0.00000e+00	0.00000e+00	0.00000e+00	0.00000e+00	0.00000e+00	0.00000e+00	0.00000e+00	0.00000e+00	0.00000e+00	0.00000e+00	0.00000e+00	0.00000e+00	0.00000e+00	0.00000e+00	0.00000e+00	0.00000e+00	0.00000e+00	0.00000e+00	0.00000e+00	0.00000e+00	0.00000e+00	0.00000e+00	0.00000e+00	0.00000e+00	0.00000e+00	0.00000e+00	0.00000e+00	0.00000e+00	0.00000e+00	
Factor	1.00000e+00	1.00000e+00	1.00000e+00	1.00000e+00	1.00000e+00	1.00000e+00	1.00000e+00	1.00000e+00	1.00000e+00	1.00000e+00	1.00000e+00	1.00000e+00	1.00000e+00	1.00000e+00	1.00000e+00	1.00000e+00	1.00000e+00	1.00000e+00	1.00000e+00	1.00000e+00	1.00000e+00	1.00000e+00	1.00000e+00	1.00000e+00	1.00000e+00	1.00000e+00	1.00000e+00	1.00000e+00	1.00000e+00	1.00000e+00	1.00000e+00	1.00000e+00	X	X	X	X	X	X	X	X	X	X	X	X	X	X	X	X	

B = Detector Channel
Val Type	B-AC1	B-AC2	B-AC3	B-AC4	B-AC5	B-AC6	B-AC7	B-AC8	B-AC9	B-AC10	B-AC11	B-AC12	B-AC13	B-AC14	B-AC15	B-AC16	B-DC1	B-DC2	B-DC3	B-DC4	B-DC5	B-DC6	B-DC7	B-DC8	B-DC9	B-DC10	B-DC11	B-DC12	B-DC13	B-DC14	B-DC15	B-DC16	B-Ph1	B-Ph2	B-Ph3	B-Ph4	B-Ph5	B-Ph6	B-Ph7	B-Ph8	B-Ph9	B-Ph10	B-Ph11	B-Ph12	B-Ph13	B-Ph14	B-Ph15	B-Ph16	

Term	0.00000e+00	0.00000e+00	0.00000e+00	0.00000e+00	0.00000e+00	0.00000e+00	0.00000e+00	0.00000e+00	0.00000e+00	0.00000e+00	0.00000e+00	0.00000e+00	0.00000e+00	0.00000e+00	0.00000e+00	0.00000e+00	0.00000e+00	0.00000e+00	0.00000e+00	0.00000e+00	0.00000e+00	0.00000e+00	0.00000e+00	0.00000e+00	0.00000e+00	0.00000e+00	0.00000e+00	0.00000e+00	0.00000e+00	0.00000e+00	0.00000e+00	0.00000e+00	-1.09754e+02	-1.38239e+02	-1.31532e+02	-1.81391e+02	-5.83897e+01	-6.33243e+01	-1.56241e+02	-1.62015e+02	-6.27957e+01	-6.37577e+01	-1.71665e+02	-1.69273e+02	-1.84696e+02	-1.76456e+02	-6.03418e+01	-1.48566e+02	
Factor	1.80032e-05	1.77734e-04	5.07847e-05	1.53170e-01	1.28778e-06	1.75967e-06	1.74453e-01	5.42787e-02	1.21557e-06	1.68431e-06	9.53181e-02	3.01745e-02	2.53625e-02	9.70778e-03	1.52160e-06	1.39865e-02	5.92495e-06	7.47141e-06	2.08445e-06	7.86376e-02	7.93799e-08	8.28280e-08	8.42936e-02	2.80420e-02	7.93589e-08	8.30258e-08	4.74837e-02	1.51785e-02	1.32141e-02	5.04186e-03	8.08542e-08	7.02531e-03	X	X	X	X	X	X	X	X	X	X	X	X	X	X	X	X	



#DISTANCE SETTINGS
A = Detector Channel
A-1	A-2	A-3	A-4	A-5	A-6	A-7	A-8	A-9	A-10	A-11	A-12	A-13	A-14	A-15	A-16	

2.5000e+00	3.0000e+00	2.5000e+00	3.0000e+00	2.0000e+00	3.0000e+00	1.5000e+00	3.0000e+00	3.0000e+00	3.0000e+00	3.0000e+00	3.0000e+00	3.0000e+00	3.0000e+00	1.5000e+00	3.0000e+00	

B = Detector Channel
B-1	B-2	B-3	B-4	B-5	B-6	B-7	B-8	B-9	B-10	B-11	B-12	B-13	B-14	B-15	B-16	

1.0000e+01	1.0000e+01	1.0000e+01	1.4400e+00	1.0000e+01	1.0000e+01	1.5100e+00	1.9400e+00	1.0000e+01	1.0000e+01	1.9900e+00	2.4900e+00	2.4100e+00	2.9000e+00	1.0000e+01	2.9800e+00	




#DATA BEGINS
time	group	step	mark	flag	A-AC1	A-AC2	A-AC3	A-AC4	A-AC5	A-AC6	A-AC7	A-AC8	A-AC9	A-AC10	A-AC11	A-AC12	A-AC13	A-AC14	A-AC15	A-AC16	A-DC1	A-DC2	A-DC3	A-DC4	A-DC5	A-DC6	A-DC7	A-DC8	A-DC9	A-DC10	A-DC11	A-DC12	A-DC13	A-DC14	A-DC15	A-DC16	A-Ph1	A-Ph2	A-Ph3	A-Ph4	A-Ph5	A-Ph6	A-Ph7	A-Ph8	A-Ph9	A-Ph10	A-Ph11	A-Ph12	A-Ph13	A-Ph14	A-Ph15	A-Ph16	B-AC1	B-AC2	B-AC3	B-AC4	B-AC5	B-AC6	B-AC7	B-AC8	B-AC9	B-AC10	B-AC11	B-AC12	B-AC13	B-AC14	B-AC15	B-AC16	B-DC1	B-DC2	B-DC3	B-DC4	B-DC5	B-DC6	B-DC7	B-DC8	B-DC9	B-DC10	B-DC11	B-DC12	B-DC13	B-DC14	B-DC15	B-DC16	B-Ph1	B-Ph2	B-Ph3	B-Ph4	B-Ph5	B-Ph6	B-Ph7	B-Ph8	B-Ph9	B-Ph10	B-Ph11	B-Ph12	B-Ph13	B-Ph14	B-Ph15	B-Ph16	aux-1	digaux	

35002.902	1	1	0	256	0.018767	0.017681	0.17847	0.26159	0.32583	0.14664	0.25813	0.16208	0.23494	0.17631	0.1132	0.33197	0.31923	0.25347	0.11026	0.066293	-0.87708	-0.38958	-1.2	-1.2188	-0.48542	-1.3854	-0.71458	-1.1063	-1.2771	-0.51667	-1.4	-1.0396	-0.3875	-1.3563	-0.6125	-0.825	166.802	262.473	274.674	434.082	373.358	194.419	341.344	417.541	426.321	178.550	125.005	387.473	182.671	113.958	179.514	273.208	0.00049051	0.00063298	0.00018108	1221.2	5.3433e-06	5.4214e-06	1233.6	341.8	4.2442e-06	5.1788e-06	391	130.83	112.06	38.366	3.862e-06	47.952	0.00030352	0.00025463	6.675e-05	1235.7	2.8549e-06	2.7128e-06	1247	347.7	2.7919e-06	2.7203e-06	397.45	132.88	114.19	39.158	2.8831e-06	48.971	200.632	208.854	203.940	126.604	253.119	270.660	126.440	131.240	262.036	248.132	130.529	135.009	135.811	140.221	256.032	139.415	-8191	255	
35003.000	1	1	0	0	0.021567	0.23763	0.079268	0.33096	0.089874	0.16217	0.33701	0.12772	0.30272	0.27048	0.08109	0.23295	0.22428	0.10454	0.19277	0.27895	-0.8	-0.43125	-1.1104	-1.0812	-0.38125	-1.5271	-0.92083	-0.83542	-1.3417	-0.39792	-1.475	-1.1021	-0.55208	-1.1896	-0.82708	-0.7	164.832	359.961	337.080	430.965	213.267	337.634	393.991	267.169	448.381	462.027	249.961	147.272	125.937	148.442	318.441	176.418	0.00046718	0.00042944	9.7013e-05	1225.8	4.2574e-06	2.6665e-06	1237.3	342.86	5.0981e-06	4.1354e-06	393.33	130.41	112.44	38.506	5.4437e-06	48.238	0.00030446	0.00026039	6.8175e-05	1240.7	2.941e-06	2.7137e-06	1249.4	348.46	2.8839e-06	2.839e-06	399.09	133.17	114.55	39.363	3.0367e-06	49.305	200.872	208.464	208.820	126.494	273.555	255.741	126.165	131.416	281.507	271.465	130.688	134.936	135.518	140.332	266.679	139.450	-8191	255	
35003.098	1	1	0	0	0.174	0.13743	0.13277	0.15269	0.065663	0.16483	0.11693	0.058187	0.069303	0.22515	0.12207	0.13747	0.37022	0.069533	0.26615	0.046261	-1.0667	-0.475	-0.81042	-1.3354	-0.19792	-1.1688	-1.0458	-0.73333	-1.375	-0.56042	-1.0917	-1.1562	-0.43333	-1.1375	-0.91042	-0.66458	237.825	322.620	455.329	396.627	371.741	177.391	364.466	402.347	317.175	210.580	201.746	437.385	117.791	167.187	139.616	191.350	0.0005041	0.00071534	0.00011183	1239.9	5.7372e-06	5.9346e-06	1247.3	345.83	5.137e-06	5.0544e-06	394.89	130.67	113.21	38.652	5.949e-06	48.071	0.00032556	0.00027569	7.5249e-05	1253.3	3.1598e-06	3.0061e-06	1261.5	351.08	3.0671e-06	2.9967e-06	401.36	133.58	115.21	39.484	2.9781e-06	49.255	201.440	177.191	188.186	126.281	269.624	256.121	126.199	131.188	272.679	275.959	130.632	134.563	135.443	139.918	273.756	139.229	-8191	255	
35003.215	1	1	0	0	0.21131	0.10509	0.30029	0.15109	0.21558	0.27114	0.21317	0.29532	0.19288	0.10413	0.31135	0.069224	0.41251	0.12358	0.15827	0.04454	-0.97292	-0.46042	-0.84792	-1.3062	-0.31667	-1.1313	-0.99167	-0.63958	-1.3	-0.57292	-1.0479	-1.3521	-0.38958	-1.1729	-1.0583	-0.46458	447.054	280.627	291.636	454.810	150.587	211.952	355.816	194.456	329.548	348.657	400.149	171.464	388.866	462.958	328.345	422.840	0.00047461	0.00046936	0.00012859	1235.9	4.3786e-06	3.373e-06	1234.9	344.28	4.867e-06	5.1267e-06	392.93	130.66	113.12	38.539	5.638e-06	48.155	0.00030585	0.00026978	7.174e-05	1248.4	2.9412e-06	2.6998e-06	1253.1	349.57	2.8313e-06	2.9253e-06	398.97	133.21	115.1	39.47	2.8722e-06	49.301	199.089	185.669	210.238	126.490	267.354	284.658	126.286	131.329	272.756	272.513	130.554	134.530	135.747	139.984	255.233	139.180	-8191	255	
35003.312	1	1	0	0	0.095948	0.20445	0.18251	0.19341	0.075634	0.33923	0.043373	0.25948	0.17109	0.14169	0.44298	0.36362	0.38617	0.18138	0.21151	0.038098	-0.9125	-0.65208	-0.81458	-1.4229	-0.27083	-1.1833	-1.0833	-0.39583	-1.4583	-0.73542	-0.67708	-1.3333	-0.37292	-1.1854	-1.1729	-0.37083	157.319	459.060	127.042	447.167	167.414	381.263	334.511	417.712	411.641	124.538	420.924	135.972	464.327	137.699	454.709	166.018	0.00047142	0.00054459	0.00013963	1240.4	6.1301e-06	5.9185e-06	1254.3	346.97	4.3105e-06	2.6784e-06	395.55	131.63	113.09	38.865	5.552e-06	48.294	0.00031502	0.00027358	7.4632e-05	1256.7	3.1894e-06	2.9673e-06	1266.5	352.4	3.1236e-06	3.082e-06	402.53	134.42	115.61	39.639	3.1366e-06	49.46	198.715	201.138	195.861	126.423	268.548	252.279	126.358	130.916	263.997	242.557	130.542	134.667	135.754	140.130	247.530	139.358	-8191	255	
35003.406	1	1	0	0	0.16979	0.19555	0.24838	0.18373	0.14545	0.12096	0.23295	0.099172	0.066651	0.040919	0.13565	0.26247	0.26078	0.17925	0.31042	0.18628	-0.85	-0.81042	-0.51458	-1.4979	-0.45208	-0.8	-1.2229	-0.53333	-1.2917	-0.89167	-0.72708	-1.4292	-0.67917	-1.0042	-1.1125	-0.27708	217.289	190.953	461.162	372.028	310.427	459.743	411.596	459.163	335.721	428.657	309.302	463.087	462.941	343.018	328.946	329.295	0.00046941	0.00057403	0.00018556	1246.9	4.2257e-06	4.8079e-06	1248.8	346.46	5.4123e-06	5.5645e-06	397.9	131.26	113.83	38.644	3.754e-06	48.39	0.00032066	0.00028074	7.5957e-05	1262.6	3.087e-06	2.9383e-06	1266.9	352.27	2.9975e-06	3.0144e-06	403.81	134.5	115.91	39.694	3.1154e-06	49.515	200.968	195.010	189.508	126.415	270.389	282.467	125.984	130.877	277.666	242.105	130.171	134.772	135.325	139.921	270.745	139.184	-8191	255	
35003.504	1	1	0	0	0.067855	0.061567	0.17948	0.23296	0.21172	0.31468	0.41713	0.21754	0.035579	0.085533	0.1463	0.18431	0.15449	0.055056	0.14463	0.22188	-0.90417	-0.82708	-0.50625	-1.5042	-0.63125	-0.86667	-1.4979	-0.42083	-1.2729	-0.91875	-0.45625	-1.4312	-0.8125	-0.67292	-1.1812	-0.34792	439.607	427.141	344.145	440.569	325.963	314.012	368.712	328.342	411.562	310.056	216.620	449.967	395.933	170.036	443.462	444.668	0.00050326	0.0004019	5.5669e-05	1248.7	5.5053e-06	4.8907e-06	1256.4	346.96	4.8523e-06	2.4739e-06	396.94	131.89	113.9	38.834	7.3538e-06	48.477	0.0003283	0.00028145	7.7021e-05	1264.2	3.1557e-06	3.0603e-06	1271.2	352.75	3.0641e-06	3.0346e-06	403.23	134.48	115.98	39.656	3.0809e-06	49.575	200.654	215.486	224.963	126.354	275.801	274.548	125.966	131.171	282.359	297.493	130.494	134.879	135.450	140.163	258.366	138.605	-8191	255	
35003.602	1	1	0	0	0.31899	0.10206	0.11994	0.025944	0.074237	0.15601	0.37079	0.13773	0.43212	0.16458	0.058635	0.37588	0.23321	0.13005	0.047351	0.16713	-0.8125	-0.98125	-0.30625	-1.4583	-0.79583	-0.65	-1.5167	-0.41667	-0.88333	-0.88958	-0.53333	-1.3563	-0.78333	-0.7125	-1.3854	-0.69792	206.451	359.049	386.381	182.053	194.884	471.298	396.400	159.343	388.695	381.726	434.529	442.542	437.534	218.057	451.793	189.826	0.00047879	0.0005003	0.00013091	1249.6	2.7675e-06	3.8359e-06	1252.1	347.7	5.1224e-06	4.0512e-06	396.77	131.53	112.99	38.559	4.9567e-06	48.478	0.00032089	0.00028601	7.8454e-05	1261.6	3.0656e-06	2.9987e-06	1267.8	352.05	2.9811e-06	2.9211e-06	401.84	134.01	115.44	39.542	2.9353e-06	49.424	198.294	186.800	214.398	126.239	281.772	279.374	126.109	130.775	268.461	234.733	130.270	134.474	135.385	139.958	285.928	139.162	-8191	255	
35003.695	1	1	0	0	0.14897	0.15517	0.18153	0.1744	0.30706	0.53816	0.16213	0.18504	0.22186	0.071912	0.36621	0.065356	0.23679	0.051871	0.12852	0.16039	-0.575	-1.0583	-0.25833	-1.4104	-0.87083	-0.73125	-1.5187	-0.63125	-0.97292	-1.2021	-0.49792	-1.1271	-0.8625	-0.65833	-1.3042	-0.59792	450.252	420.975	300.119	448.362	356.431	205.236	380.790	451.770	332.517	342.135	432.751	171.828	448.501	230.360	304.451	391.818	0.00048315	0.00057268	0.00016817	1240	5.601e-06	5.257e-06	1248	345.62	4.1168e-06	6.1134e-06	394.94	131.11	113.26	38.67	5.2535e-06	48.396	0.00031591	0.00026204	7.6708e-05	1255.1	2.9546e-06	2.9647e-06	1264.4	351.27	2.9604e-06	2.935e-06	401.7	134.08	115.69	39.631	3.0172e-06	49.491	202.038	203.862	195.562	126.212	270.437	277.385	126.220	131.100	244.156	248.416	130.230	134.584	135.247	139.785	288.594	139.020	-8191	255	
35003.816	1	1	0	0	0.39845	0.19333	0.20624	0.067206	0.1079	0.14797	0.073913	0.16062	0.1962	0.28716	0.25396	0.31579	0.11658	0.19339	0.35366	0.047676	-0.34375	-1.1875	-0.27083	-1.175	-0.87292	-0.51042	-1.4542	-0.53125	-0.84583	-1.3521	-0.5125	-1.0875	-0.92708	-0.43958	-1.1417	-0.97292	189.847	152.740	418.023	270.414	405.850	151.016	329.123	323.935	449.175	304.565	416.264	137.850	118.859	224.232	118.604	267.079	0.0004903	0.00054893	0.00017401	1243.2	5.0714e-06	4.115e-06	1255	345.15	4.0757e-06	4.2575e-06	397.39	131.77	113.38	38.749	5.1076e-06	48.428	0.00032432	0.00027292	7.4936e-05	1260.6	3.0829e-06	2.9521e-06	1268.9	351.53	2.9837e-06	2.8922e-06	403.18	134.27	115.6	39.597	2.938e-06	49.502	199.961	190.663	181.105	126.210	276.404	279.322	126.011	130.855	276.729	278.809	130.465	134.485	135.369	139.902	240.842	138.827	-8191	255	
35003.910	1	1	0	0	0.0886	0.22792	0.39123	0.17951	0.15632	0.1834	0.12818	0.15817	0.10473	0.030284	0.27861	0.16888	0.11931	0.23688	0.21852	0.054601	-0.175	-1.3542	-0.52292	-1.1562	-0.97292	-0.2875	-1.4438	-0.75	-0.63125	-1.275	-0.59583	-1.0708	-1.2521	-0.26667	-1.2583	-0.7875	259.224	227.313	166.107	447.882	401.686	310.344	387.255	133.644	353.256	377.851	415.353	356.521	406.890	456.877	285.418	269.614	0.00048909	0.00035941	0.00013942	1243.2	4.8867e-06	5.1717e-06	1249.8	346.84	4.3938e-06	6.3066e-06	396.88	132.14	113.77	38.701	3.9995e-06	48.471	0.00031815	0.00026552	7.4836e-05	1258.9	3.0619e-06	3.0381e-06	1267.5	351.81	3.0674e-06	2.9158e-06	403.15	134.5	115.79	39.692	2.9399e-06	49.598	202.084	181.388	194.855	126.131	259.220	286.749	126.156	130.719	271.075	260.087	130.103	134.649	135.183	139.713	234.514	138.978	-8191	255	
35004.008	1	1	0	0	0.1438	0.12562	0.17663	0.34166	0.070269	0.054663	0.29128	0.14031	0.068732	0.18197	0.22105	0.35895	0.41838	0.1754	0.081743	0.071583	-0.225	-1.4542	-0.4375	-1.1063	-1.0833	-0.27292	-1.4104	-0.96875	-0.37083	-1.0354	-0.50625	-0.84375	-1.3292	-0.56667	-1.2021	-0.90625	351.501	358.956	321.293	458.091	283.041	448.948	382.593	386.757	331.625	194.439	128.136	391.755	439.668	399.051	317.144	210.194	0.00042642	0.00081373	0.00020944	1243.3	4.9229e-06	3.7912e-06	1245	344.47	4.5205e-06	3.1666e-06	394.78	131.45	113.4	38.651	4.0887e-06	48.355	0.00031876	0.00027082	7.7576e-05	1259.8	3.0578e-06	3.0738e-06	1266.1	351.25	3.0633e-06	2.9351e-06	401.67	134.12	115.59	39.609	2.9259e-06	49.527	200.831	189.306	215.462	126.052	257.302	274.158	126.053	130.805	276.953	264.944	130.278	134.720	135.030	139.420	253.447	138.768	-8191	255	
35004.105	1	1	0	0	0.1288	0.15577	0.29725	0.15137	0.075782	0.11851	0.10354	0.14535	0.1782	0.27919	0.17137	0.12251	0.24482	0.093738	0.19935	0.14247	-0.064583	-1.4688	-0.3375	-0.72292	-1.2375	-0.33333	-1.3083	-1.1875	-0.4625	-1.2208	-0.84792	-0.50417	-1.1625	-0.33333	-1.0354	-1.0688	193.508	331.976	445.028	459.972	174.237	462.807	446.504	436.070	126.563	384.586	141.544	468.514	390.409	141.361	445.946	118.568	0.00047162	0.00034487	0.00018611	1241.3	5.5263e-06	4.1668e-06	1255.2	346.05	4.9374e-06	5.4119e-06	394.45	131.25	112.89	38.632	5.6088e-06	48.456	0.00032211	0.00027464	7.646e-05	1259.7	3.0245e-06	2.9507e-06	1268	351.42	2.9188e-06	2.8071e-06	402.02	134.24	115.48	39.659	2.7669e-06	49.575	200.983	171.981	202.294	126.252	270.029	241.743	126.039	130.610	259.345	262.146	130.197	134.647	135.305	139.704	274.104	138.804	-8191	255	
35004.199	1	1	0	0	0.132	0.12656	0.15924	0.12034	0.12659	0.24232	0.23415	0.079552	0.11789	0.20109	0.060629	0.17912	0.20289	0.11762	0.22554	0.11759	-0.039583	-1.075	-0.6875	-0.86458	-1.3687	-0.15417	-1.2458	-1.1187	-0.50417	-1.2313	-0.60417	-0.59583	-1.3937	-0.47917	-1.025	-1.3146	118.605	194.529	320.445	438.489	144.994	164.615	431.266	153.983	337.500	416.803	296.155	433.911	431.354	433.189	432.204	318.430	0.00045242	0.0005393	0.00011377	1239.1	5.6481e-06	3.8141e-06	1244.2	344.35	3.7973e-06	3.9529e-06	395.97	131.56	113.37	38.681	4.3275e-06	48.237	0.0003046	0.00025152	7.227e-05	1254.5	2.814e-06	2.7903e-06	1261.7	350.63	2.915e-06	2.7191e-06	401.75	134.37	115.6	39.679	2.8233e-06	49.503	200.366	175.486	186.020	126.180	268.225	243.684	125.942	130.678	243.206	262.594	130.376	134.666	135.048	139.739	267.595	138.961	-8191	255	
35004.297	1	1	0	0	0.2359	0.12376	0.056932	0.26042	0.19979	0.064313	0.15163	0.2502	0.11907	0.13062	0.26299	0.036068	0.21153	0.11376	0.30864	0.2297	0.18542	-1.125	-0.75625	-0.6125	-1.325	-0.4125	-0.98333	-1.3062	-0.41042	-1.2417	-0.86458	-0.50208	-1.2396	-0.55625	-0.8375	-1.2104	467.177	133.810	461.882	441.707	146.798	452.591	321.912	410.765	471.122	231.670	449.458	146.347	417.317	415.208	157.814	403.571	0.00048117	0.00055574	0.00012533	1240.7	4.3342e-06	3.9453e-06	1243.3	343.88	4.3296e-06	1.2908e-06	395.47	132	113.36	38.729	5.6414e-06	48.591	0.00030821	0.00025437	7.2865e-05	1255.9	2.921e-06	2.7973e-06	1263.3	350.25	2.996e-06	2.7584e-06	402.83	134.4	115.72	39.684	2.946e-06	49.66	200.054	190.731	175.628	126.048	278.426	266.766	125.920	130.620	276.673	297.064	130.093	134.548	135.037	139.705	279.384	138.922	-8191	255	
35004.391	1	1	0	0	0.14448	0.22549	0.27296	0.12585	0.14618	0.12999	0.17283	0.41992	0.15032	0.066952	0.23528	0.38593	0.18272	0.18071	0.066124	0.25042	-0.05	-1.1604	-0.90833	-0.59583	-1.2542	-0.58333	-0.8	-1.2771	-0.47917	-1.1625	-1.1562	-0.38542	-1.2104	-0.63958	-0.58333	-1.2	436.779	407.887	459.451	154.080	140.169	310.227	396.426	422.535	367.688	115.160	117.881	404.613	130.157	407.702	149.535	368.131	0.00048959	0.00053842	0.00015965	1243	5.1547e-06	4.8096e-06	1252.6	346.89	5.9071e-06	4.7861e-06	396.08	131.68	113.51	38.877	5.7066e-06	48.561	0.00032065	0.00025882	7.3494e-05	1258.7	2.9142e-06	2.9224e-06	1266.7	351.99	2.9945e-06	2.8455e-06	402.79	134.26	115.91	39.739	2.8914e-06	49.663	201.354	197.331	219.746	126.091	253.970	285.151	125.966	130.643	256.441	249.469	130.216	134.516	135.085	139.464	256.557	138.722	-8191	255	
35004.512	1	1	0	0	0.028456	0.10214	0.060739	0.17899	0.025034	0.15509	0.34718	0.16221	0.083822	0.13685	0.11253	0.29338	0.027089	0.16074	0.2681	0.22856	0.25208	-0.86458	-1.0917	-0.41458	-1.2479	-0.69167	-0.66667	-1.2917	-0.33333	-0.925	-0.96042	-0.38125	-1.4271	-0.84167	-0.47708	-1.3563	398.634	353.133	292.421	202.652	295.380	190.593	438.680	411.921	226.885	151.788	139.600	390.213	398.230	124.369	236.544	412.448	0.00044786	0.00062123	0.0002052	1242.6	4.3347e-06	5.6349e-06	1252.3	346.08	4.6663e-06	2.459e-06	397.83	131.65	114.07	38.845	3.0068e-06	48.341	0.00032018	0.0002528	7.2087e-05	1258.3	2.7995e-06	2.8971e-06	1265	351.73	3.0467e-06	2.7693e-06	402.91	134.4	116.08	39.69	3.0123e-06	49.531	200.932	190.085	203.743	126.067	277.906	272.599	125.943	130.656	259.400	257.836	130.063	134.408	135.315	139.701	259.427	138.737	-8191	255	
35004.609	1	1	0	0	0.14587	0.19245	0.098399	0.33732	0.10735	0.07211	0.10194	0.14244	0.14445	0.19753	0.37938	0.29853	0.33396	0.084156	0.16927	0.13853	0.12917	-0.76458	-1.0542	-0.44167	-1.2229	-0.93125	-0.66042	-1.4708	-0.46042	-0.80208	-1.3292	-0.41875	-1.1021	-1.0021	-0.3875	-1.2812	379.954	334.556	262.077	453.567	340.825	136.868	118.497	421.427	403.413	191.905	442.325	467.653	212.913	113.547	198.336	200.312	0.0004794	0.00034823	0.00015935	1241.6	3.5883e-06	3.3156e-06	1245.9	345.45	5.2959e-06	4.6397e-06	392.71	130.77	113.38	38.708	5.0124e-06	48.328	0.00032022	0.00026198	7.187e-05	1254	2.9144e-06	2.7668e-06	1261.2	351.45	2.9338e-06	2.6553e-06	401.16	133.83	115.58	39.558	2.8038e-06	49.429	203.439	175.887	190.887	126.112	261.712	262.858	126.187	130.740	267.818	274.747	130.167	134.483	135.321	139.573	266.959	139.023	-8191	255	
35004.703	1	1	0	0	0.1788	0.41909	0.064163	0.19443	0.066023	0.26922	0.12809	0.095655	0.14202	0.15663	0.12121	0.3764	0.0091948	0.37981	0.13733	0.16568	-0.20208	-0.74792	-1.1208	-0.52292	-1.1667	-0.95	-0.62708	-1.4292	-0.5875	-0.7875	-1.4271	-0.24583	-1.0417	-1.2292	-0.45208	-1.2333	179.170	299.606	172.852	437.471	210.399	156.329	412.637	180.311	197.634	313.295	460.542	420.703	438.346	444.957	454.199	466.437	0.00046573	0.00046469	0.00019366	1236.4	3.5798e-06	6.346e-06	1237.1	343.99	6.6269e-06	2.3301e-06	393.28	130.99	113.53	38.658	7.5127e-06	48.227	0.00031228	0.000252	6.9556e-05	1248.3	2.8499e-06	2.7718e-06	1255.5	350.67	2.927e-06	2.7547e-06	400.94	133.72	115.41	39.538	2.8757e-06	49.397	198.745	194.733	210.105	126.007	261.043	257.511	125.855	130.779	272.706	262.693	130.060	134.490	135.211	139.392	277.532	138.696	-8191	255	
35004.777	1	1	0	0	0.051483	0.28629	0.14464	0.27913	0.03275	0.36741	0.21633	0.2385	0.15369	0.16348	0.1176	0.33938	0.3819	0.36857	0.1181	0.24149	-0.13542	-0.50208	-1.2479	-0.58333	-1.1458	-1.1396	-0.48542	-1.4479	-0.69375	-0.70208	-1.5146	-0.625	-0.89583	-1.0792	-0.35625	-1.4271	209.178	437.402	345.579	463.915	302.842	139.468	428.536	142.799	239.966	422.182	156.085	127.543	407.555	412.761	372.466	452.745	0.00047372	0.00044024	0.00010819	1232.4	6.2477e-06	3.3701e-06	1241.6	344.5	5.1476e-06	6.4822e-06	395.85	131.4	113.36	38.704	6.3008e-06	48.612	0.00031405	0.00025123	7.0064e-05	1250	2.7885e-06	2.7539e-06	1258.2	350.85	2.8974e-06	2.7378e-06	402.22	133.77	115.55	39.588	2.8702e-06	49.471	201.707	182.867	206.299	126.028	277.648	279.984	125.884	130.613	260.671	278.461	130.108	134.484	135.210	139.651	264.317	138.821	-8191	255	
35004.898	1	1	0	0	0.30312	0.23112	0.28118	0.27539	0.20273	0.049162	0.32177	0.35066	0.28169	0.12453	0.18925	0.090299	0.17114	0.22656	0.29514	0.35277	-0.51458	-0.60833	-1.3271	-0.63542	-0.82083	-1.2812	-0.51458	-1.3417	-0.84583	-0.44583	-1.5458	-0.61875	-0.62083	-1.4167	-0.375	-1.2854	178.946	416.471	461.615	452.447	429.470	141.442	456.251	454.632	136.396	430.896	377.156	122.841	358.614	431.132	433.902	416.735	0.00048805	0.00051748	0.0001474	1234.5	5.2029e-06	3.8238e-06	1237.5	345.33	4.3962e-06	4.8427e-06	396.89	130.71	113.53	38.675	3.4067e-06	48.526	0.00030873	0.0002546	6.738e-05	1248.5	2.8463e-06	2.7294e-06	1256.2	351.05	2.8174e-06	2.7404e-06	402.16	133.59	115.64	39.569	2.8253e-06	49.472	202.647	217.361	191.282	126.152	274.797	271.536	125.975	130.750	263.250	278.597	130.217	134.290	135.181	139.843	259.554	138.918	-8191	255	
35004.992	1	1	0	0	0.046344	0.26302	0.16651	0.1744	0.22578	0.17206	0.31128	0.055619	0.064657	0.13014	0.309	0.18272	0.19385	0.17183	0.4041	0.10369	-0.47708	-0.39167	-1.3458	-0.59583	-0.63333	-1.2104	-0.56667	-1.0625	-1.05	-0.51458	-1.3937	-0.79167	-0.5875	-1.4083	-0.32708	-1.3854	282.483	442.919	419.379	463.035	417.072	128.225	448.118	379.932	273.608	433.897	115.299	326.207	229.958	137.971	272.587	374.200	0.00047288	0.00057474	0.0001436	1228.7	5.627e-06	4.1314e-06	1236.6	345.79	5.7507e-06	5.3732e-06	393.79	131.15	113.03	38.585	3.0362e-06	48.286	0.00030548	0.00024478	6.5708e-05	1244.7	2.7816e-06	2.6641e-06	1255.1	350.79	2.7357e-06	2.7677e-06	400.81	133.81	115.35	39.491	2.7373e-06	49.433	200.077	195.617	174.333	125.827	265.689	259.155	126.085	130.853	269.868	252.287	130.172	134.313	135.360	139.591	291.745	138.711	-8191	255	
35005.086	1	1	0	0	0.080202	0.16578	0.13171	0.28533	0.12035	0.21745	0.19037	0.093901	0.10084	0.14136	0.11637	0.17708	0.15049	0.1063	0.14745	0.14364	-0.75	-0.26667	-1.1417	-0.99583	-0.375	-1.3354	-0.62708	-0.83958	-1.0958	-0.37083	-1.2667	-0.86458	-0.76042	-1.525	-0.43958	-0.88125	442.671	120.571	157.630	438.638	248.918	302.816	451.692	211.703	139.171	343.470	133.604	290.141	132.206	469.557	379.465	278.837	0.00048824	0.00054647	0.00013184	1222.2	5.3026e-06	6.3456e-06	1231.5	343.72	3.9772e-06	3.1278e-06	394.94	130.29	113.31	38.573	4.8753e-06	48.38	0.00029441	0.00023857	6.2725e-05	1239	2.6829e-06	2.5539e-06	1246.7	349.61	2.6744e-06	2.5726e-06	400.65	133.44	115.36	39.486	2.7415e-06	49.347	200.924	188.915	207.664	126.052	260.740	264.818	125.912	130.692	258.650	250.727	130.310	134.355	135.268	139.448	271.728	139.150	-8191	255	
35005.184	1	1	0	0	0.03987	0.15911	0.22345	0.21446	0.18937	0.41971	0.5514	0.29367	0.26387	0.103	0.11434	0.18174	0.18523	0.19034	0.19749	0.079219	-0.6	-0.38542	-1.1604	-0.97917	-0.53125	-1.2313	-0.76875	-0.80208	-1.2667	-0.40625	-1.2708	-1.0333	-0.32083	-1.4292	-0.60208	-0.74375	420.798	168.390	122.642	123.953	119.371	147.482	381.564	417.589	458.299	126.460	385.516	457.297	469.913	455.501	313.544	159.360	0.00049255	0.00079227	0.000154	1226.8	4.9105e-06	4.5274e-06	1230.2	342.88	4.6266e-06	6.154e-06	393.88	130.78	113.15	38.564	5.4277e-06	48.285	0.00029456	0.00024396	6.6399e-05	1238.4	2.7565e-06	2.5178e-06	1246.5	348.7	2.7042e-06	2.6418e-06	399.87	133.3	115.15	39.473	2.6599e-06	49.283	203.591	208.193	190.907	126.004	277.223	265.184	125.808	130.702	248.884	269.349	130.484	134.371	135.029	139.623	241.711	138.537	-8191	255	
35005.305	1	1	0	0	0.30441	0.27459	0.21979	0.11251	0.30446	0.090292	0.11134	0.10602	0.023425	0.093657	0.1571	0.14395	0.21724	0.19466	0.21698	0.12508	-0.75833	-0.41042	-1.0542	-1.3146	-0.46875	-1.4	-0.82917	-0.85208	-1.2604	-0.54792	-1.1479	-1.1437	-0.49792	-1.4146	-0.73125	-0.56042	278.623	366.197	242.342	339.461	224.571	256.638	303.078	437.636	456.975	131.417	159.503	249.563	433.280	198.754	273.626	194.992	0.00046217	0.00052766	0.00015226	1214.8	4.0981e-06	5.4036e-06	1228.5	343.65	5.5686e-06	4.377e-06	391.74	130.48	112.74	38.498	4.8254e-06	47.976	0.00029304	0.00024165	6.3741e-05	1233.3	2.7479e-06	2.5426e-06	1243.7	348.42	2.6995e-06	2.6355e-06	398.78	133.28	114.88	39.376	2.7714e-06	49.196	197.893	202.073	184.342	126.080	260.267	279.977	125.734	130.847	267.654	259.266	130.242	134.331	135.378	139.784	255.466	138.888	-8191	255	
35005.375	1	1	0	0	0.25926	0.12843	0.23999	0.20248	0.072869	0.10197	0.36443	0.19881	0.094823	0.12582	0.37861	0.30388	0.094306	0.31942	0.071722	0.11879	-1.0208	-0.32083	-1.1104	-1.2896	-0.48125	-1.2771	-1.0187	-0.66667	-1.3604	-0.76042	-0.9375	-1.3917	-0.40833	-1.2542	-0.86458	-0.65	241.156	294.659	396.726	420.070	447.103	433.053	428.190	203.466	339.992	348.182	118.155	442.988	349.806	466.583	432.505	387.504	0.00048536	0.00029183	0.000146	1217.6	5.9434e-06	5.3405e-06	1227	341.65	4.3261e-06	4.7862e-06	391.29	130.4	111.72	38.455	5.1554e-06	48.236	0.00029751	0.00024413	6.7714e-05	1233.7	2.7437e-06	2.5946e-06	1241.9	348.04	2.679e-06	2.6572e-06	398.28	133.06	114.32	39.345	2.7152e-06	49.217	199.945	208.988	188.560	126.075	254.404	263.838	125.864	130.713	262.223	264.868	130.116	134.528	135.235	139.651	277.601	138.912	-8191	255	
35005.496	1	1	0	0	0.16498	0.12642	0.11253	0.24774	0.25847	0.23217	0.12315	0.32289	0.26982	0.067219	0.17917	0.16923	0.32235	0.048111	0.1433	0.02345	-0.74792	-0.52708	-0.6875	-1.3854	-0.36875	-1.1167	-1.0458	-0.51875	-1.2	-0.88542	-0.8625	-1.2083	-0.57708	-1.1562	-0.99792	-0.64583	219.432	413.073	238.663	309.224	118.058	143.941	422.743	419.630	363.827	264.851	277.932	134.634	411.239	399.950	437.851	283.160	0.00049701	0.00044723	0.0001175	1217.5	5.4114e-06	6.241e-06	1231	341.73	5.3161e-06	3.9142e-06	393.07	130.59	112.75	38.45	6.0158e-06	48.084	0.00029704	0.00025731	6.6863e-05	1234	2.8542e-06	2.6256e-06	1245.3	347.85	2.7473e-06	2.7454e-06	399.08	133	115.01	39.408	2.8227e-06	49.244	200.532	186.669	184.727	126.143	275.576	248.889	125.804	130.768	258.945	259.592	130.029	134.311	135.202	139.704	266.100	138.781	-8191	255	
35005.594	1	1	0	0	0.30788	0.25923	0.025622	0.23125	0.24639	0.1946	0.27543	0.37483	0.13127	0.10738	0.11712	0.39587	0.06052	0.056008	0.20748	0.096652	-0.88542	-0.6625	-0.71458	-1.6542	-0.38958	-1.0354	-1.3583	-0.49583	-1.1917	-0.6	-0.73958	-1.3333	-0.79583	-1.0875	-1.0938	-0.5375	142.389	373.890	131.208	409.990	424.691	146.741	438.707	388.642	405.411	115.595	274.328	421.911	161.416	220.201	276.311	288.611	0.00046279	0.00064377	0.00014604	1218.5	4.5576e-06	7.4142e-06	1225.7	341.64	5.2471e-06	2.403e-06	393.08	131.09	112.69	38.498	5.2695e-06	47.969	0.0003001	0.00025627	6.8083e-05	1233.6	2.838e-06	2.62e-06	1241.8	348.08	2.6909e-06	2.6689e-06	398.92	133.34	114.73	39.369	2.7773e-06	49.136	200.615	208.108	196.247	125.981	263.571	254.316	125.850	130.826	259.925	270.500	130.166	134.670	135.182	139.673	268.875	139.059	-8191	255	
35005.688	1	1	0	0	0.099426	0.10174	0.081082	0.46532	0.10021	0.11877	0.19436	0.3532	0.22633	0.10878	0.22763	0.034087	0.17266	0.089584	0.037359	0.31053	-0.91458	-0.575	-0.24167	-1.3229	-0.32708	-0.91875	-1.4937	-0.43542	-1.2437	-0.73125	-0.53333	-1.4438	-0.525	-0.91875	-1.1521	-0.53333	196.350	240.048	420.137	425.122	462.933	196.805	311.822	431.590	386.972	452.652	322.728	415.691	453.545	342.964	440.915	419.736	0.00050377	0.00058674	0.00014208	1220.5	4.1869e-06	3.6648e-06	1220.6	342.4	4.983e-06	5.3195e-06	393.34	130.07	112.38	38.433	4.2539e-06	48.118	0.00031022	0.00025492	6.8631e-05	1234.6	2.8439e-06	2.6879e-06	1242.3	347.72	2.7905e-06	2.7788e-06	398.44	132.94	114.66	39.346	2.8026e-06	49.165	200.268	207.991	209.111	126.142	243.383	248.733	126.027	130.714	270.865	255.802	130.419	134.436	135.127	139.625	266.584	138.995	-8191	255	
35005.785	1	1	0	0	0.11274	0.099507	0.22439	0.31987	0.33166	0.18261	0.11951	0.081104	0.25968	0.35413	0.032719	0.17065	0.40344	0.10355	0.18484	0.09351	-0.71667	-0.90417	-0.43958	-1.6187	-0.56875	-0.82083	-1.4333	-0.60833	-1.1958	-0.98958	-0.55417	-1.3312	-0.68958	-0.65417	-1.225	-0.38333	437.469	174.334	209.315	234.576	331.933	369.170	434.887	172.400	462.725	129.739	198.810	443.283	113.681	174.139	249.895	367.219	0.00045836	0.00028905	0.00012352	1215.7	4.2356e-06	6.1891e-06	1220.9	343.04	4.084e-06	4.9999e-06	391.45	129.96	112.16	38.402	3.3662e-06	47.798	0.00029909	0.0002492	6.9221e-05	1231.4	2.8979e-06	2.7011e-06	1240.8	347.83	2.7318e-06	2.7539e-06	397.9	132.97	114.64	39.331	2.6207e-06	49.126	201.464	178.361	188.090	126.115	265.383	261.831	126.048	130.764	256.503	277.832	130.235	134.625	135.269	139.949	284.181	139.055	-8191	255	
35005.906	1	1	0	0	0.1829	0.20184	0.11605	0.36997	0.09263	0.068452	0.17828	0.30788	0.42231	0.040428	0.1397	0.037694	0.20135	0.14392	0.11492	0.084721	-0.78542	-0.94583	-0.32708	-1.4292	-0.5625	-0.5625	-1.3896	-0.56042	-0.90417	-1.0354	-0.54792	-1.3354	-0.73542	-0.61875	-1.3188	-0.44583	325.866	317.163	434.745	432.729	261.435	421.319	302.590	415.431	151.606	390.325	390.271	157.956	324.968	145.719	336.723	416.230	0.00044907	0.00055071	0.00016237	1220	5.3049e-06	6.3385e-06	1220.1	342.45	4.5033e-06	5.8255e-06	391.68	130.4	112.61	38.309	5.3191e-06	48.045	0.00029672	0.00024007	6.7171e-05	1232.5	2.8439e-06	2.5697e-06	1237.9	347.53	2.657e-06	2.5961e-06	397.82	133.21	114.61	39.205	2.618e-06	49.187	199.236	201.151	198.047	126.196	266.040	248.834	125.952	130.734	276.411	277.051	130.077	134.519	135.103	139.711	277.377	139.135	-8191	255	
35006.000	1	1	0	0	0.11659	0.14898	0.29739	0.50086	0.30791	0.14735	0.082954	0.28966	0.34854	0.17215	0.20981	0.13589	0.25041	0.26749	0.17463	0.34534	-0.72708	-1.1146	-0.45417	-1.275	-0.79375	-0.54792	-1.4771	-0.60833	-0.87292	-1.2583	-0.52292	-1.4167	-0.97708	-0.48958	-1.4854	-0.775	192.193	176.430	275.981	443.392	147.911	332.995	400.340	418.477	406.725	120.621	405.433	158.296	438.154	160.161	385.207	418.200	0.00047232	0.00050101	0.00016914	1213	3.2263e-06	5.6132e-06	1222.7	340.79	5.1673e-06	4.7299e-06	391.41	129.84	112.3	38.279	3.6507e-06	48.089	0.00029791	0.00023733	6.3754e-05	1228.8	2.6624e-06	2.5542e-06	1237.2	346.4	2.5421e-06	2.4456e-06	397.34	132.95	114.4	39.28	2.4036e-06	49.048	197.690	173.888	200.550	126.147	244.834	264.030	125.900	130.753	271.370	270.770	129.866	134.569	135.050	139.645	256.312	138.940	-8191	255	
35006.074	1	1	0	0	0.11592	0.09903	0.14511	0.44522	0.11823	0.27887	0.30992	0.10976	0.15664	0.14407	0.22118	0.22487	0.12852	0.15085	0.17868	0.1433	-0.30417	-1.1771	-0.125	-1.2229	-0.8125	-0.57708	-1.5292	-0.72292	-0.9125	-1.1333	-0.5375	-1.1542	-1.0292	-0.45417	-1.275	-0.83542	140.590	179.812	131.701	392.978	337.528	238.010	467.851	338.134	368.710	273.266	392.532	121.219	147.920	461.247	163.875	397.929	0.00046723	0.00049927	0.00013674	1207.8	5.6222e-06	4.4266e-06	1219.8	340.43	3.2839e-06	3.4113e-06	391.3	130.21	112.21	38.398	4.4433e-06	47.925	0.00027811	0.00022612	6.3211e-05	1224	2.5863e-06	2.4567e-06	1234.5	346.64	2.5605e-06	2.3989e-06	397.27	132.81	114.32	39.311	2.3635e-06	49.012	200.982	179.849	211.052	126.332	282.228	275.076	125.952	131.025	273.419	277.211	130.271	134.520	135.094	139.741	271.421	138.855	-8191	255	
35006.191	1	1	0	0	0.11326	0.13943	0.27667	0.18571	0.083486	0.14076	0.35763	0.18252	0.27477	0.10533	0.18606	0.244	0.12257	0.20984	0.10914	0.054789	-0.20208	-1.3375	-0.24375	-1.1542	-1.0979	-0.53542	-1.4958	-1.1375	-0.65833	-1.5312	-0.53958	-0.90208	-1.1833	-0.65417	-1.1812	-0.84792	432.158	442.596	287.202	131.816	215.956	227.170	372.868	446.465	471.929	337.931	317.483	378.925	393.446	423.086	159.856	304.919	0.00049509	0.00054125	0.0001706	1211.4	5.3888e-06	3.5974e-06	1220.2	340.63	4.5471e-06	5.7626e-06	391.33	130.04	112.06	38.217	5.8741e-06	48.26	0.00028173	0.00022576	6.4405e-05	1223.5	2.6237e-06	2.4198e-06	1236	346.42	2.6033e-06	2.4041e-06	397.82	132.77	114.34	39.195	2.4735e-06	49.072	199.105	198.861	199.253	126.334	274.639	277.757	126.022	130.559	274.347	248.540	130.073	134.446	135.319	139.926	259.703	138.653	-8191	255	
35006.289	1	1	0	0	0.12315	0.21182	0.097492	0.25364	0.10149	0.17763	0.15019	0.28854	0.059153	0.13875	0.2147	0.15887	0.17842	0.15051	0.014737	0.23678	-0.13333	-1.3813	-0.40417	-1.1437	-1.0979	-0.36042	-1.4813	-0.97708	-0.31667	-1.4062	-0.71667	-0.97292	-1.2625	-0.52083	-1.0021	-1.0104	154.174	194.441	360.353	381.609	316.448	466.977	245.832	120.881	277.584	123.618	457.293	454.748	220.344	339.206	277.037	176.081	0.00048616	0.00068932	0.0001394	1215.6	5.8064e-06	5.4514e-06	1219.6	340	4.6113e-06	3.6457e-06	391.63	130.34	112.31	38.4	4.4126e-06	47.866	0.00029333	0.00022578	6.3611e-05	1226.2	2.564e-06	2.4291e-06	1236.1	345.83	2.5773e-06	2.4579e-06	397.54	132.92	114.29	39.192	2.4266e-06	48.994	202.103	180.157	190.712	126.048	266.761	264.660	126.106	130.675	265.121	273.679	129.911	134.699	135.121	139.425	271.312	139.024	-8191	255	
35006.383	1	1	0	0	0.17509	0.34931	0.38605	0.15073	0.22745	0.41846	0.10624	0.22618	0.21849	0.22363	0.052983	0.12401	0.16204	0.19122	0.15219	0.18886	0.025	-1.2042	-0.54375	-0.93958	-1.3104	-0.30833	-1.2021	-1.1354	-0.45625	-1.4562	-0.61458	-0.54167	-1.5229	-0.6	-1.1375	-1.1021	114.502	130.611	211.554	454.818	384.730	299.420	331.278	394.253	430.869	299.993	217.752	463.591	442.382	348.466	211.030	193.776	0.0004582	0.00051835	0.00014241	1211.4	3.8424e-06	4.374e-06	1221.3	342.12	3.7156e-06	2.8293e-06	390.14	130.48	112.27	38.316	5.586e-06	47.769	0.0002825	0.00022017	6.183e-05	1226	2.5397e-06	2.4859e-06	1235.7	346.61	2.5312e-06	2.3327e-06	397.36	132.92	114.58	39.296	2.512e-06	49.019	199.112	193.533	192.368	126.235	259.363	258.681	126.256	130.676	261.869	276.480	130.197	134.425	134.954	139.670	258.773	139.052	-8191	255	
35006.480	1	1	0	0	0.1571	0.17882	0.12867	0.13146	0.1299	0.26614	0.40146	0.10371	0.14367	0.082877	0.19163	0.12072	0.16704	0.32784	0.26699	0.092265	0.11042	-1.2188	-0.57292	-0.60625	-1.4	-0.45625	-1.1229	-1.0812	-0.2	-1.3042	-0.8	-0.56667	-1.4188	-0.33125	-0.95208	-1.2375	469.089	256.251	268.336	357.515	420.981	132.234	411.208	464.938	387.927	124.267	362.837	437.686	436.456	435.771	266.375	313.359	0.00046294	0.00057837	0.00014597	1212.5	3.9992e-06	4.7214e-06	1223	341.69	4.1441e-06	6.5683e-06	392.65	130.77	112.34	38.503	5.3491e-06	47.891	0.00028415	0.00022336	6.2473e-05	1228	2.523e-06	2.5194e-06	1237.8	346.53	2.5583e-06	2.3991e-06	397.48	133.05	114.41	39.341	2.4627e-06	49.16	201.239	196.376	194.120	126.051	273.830	249.956	125.987	130.869	263.029	285.962	130.097	134.471	135.174	139.501	258.153	138.901	-8191	255	
35006.602	1	1	0	0	0.050436	0.08793	0.16528	0.098243	0.1246	0.26426	0.18546	0.02287	0.24563	0.28384	0.24197	0.26933	0.24314	0.10037	0.12068	0.26935	0.10208	-1.1354	-0.60417	-0.68542	-1.3604	-0.44375	-0.95	-1.2521	-0.43125	-1.2583	-1.0271	-0.4375	-1.3708	-0.63125	-0.675	-1.2333	403.566	353.658	246.299	221.694	249.155	445.511	275.995	277.413	326.520	274.981	409.841	419.439	147.974	115.321	196.751	400.179	0.00047002	0.00036776	0.00013283	1211.7	5.4808e-06	4.4053e-06	1228.8	341.84	3.7569e-06	5.4233e-06	390.4	130.73	112.32	38.475	4.1479e-06	48.304	0.00028552	0.00021308	6.2221e-05	1227.5	2.5218e-06	2.5033e-06	1239.4	346.79	2.5659e-06	2.4442e-06	397.58	133.07	114.58	39.316	2.4832e-06	49.22	200.439	189.741	191.437	126.201	285.263	259.948	126.068	130.720	253.096	251.949	130.278	134.466	135.122	139.689	268.406	139.199	-8191	255	
35006.672	1	1	0	0	0.10773	0.17579	0.25393	0.30617	0.27019	0.10378	0.075913	0.39051	0.29951	0.27823	0.25734	0.36744	0.3269	0.23785	0.08902	0.25075	0.010417	-0.98542	-0.85833	-0.59583	-1.1583	-0.57917	-0.93958	-1.3479	-0.47292	-0.95208	-1.1083	-0.69792	-1.4625	-0.77292	-0.64583	-1.3875	342.001	221.345	223.910	382.681	358.523	234.806	321.894	442.596	301.847	237.032	132.172	413.748	383.158	465.149	215.984	125.059	0.00045395	0.00040701	0.00015667	1210.9	4.6366e-06	4.7771e-06	1220.6	342.93	3.4787e-06	4.8117e-06	392.24	130.51	112.25	38.309	3.3421e-06	48.12	0.0002853	0.00021326	6.16e-05	1226.7	2.48e-06	2.474e-06	1236.1	347.19	2.5897e-06	2.3448e-06	397.79	133.02	114.51	39.193	2.4083e-06	49.075	196.896	207.236	192.989	126.211	254.976	279.611	126.014	130.788	261.700	276.055	130.245	134.711	135.483	139.780	257.943	139.020	-8191	255	
35006.770	1	1	0	0	0.29408	0.33311	0.25959	0.18902	0.30173	0.22479	0.080927	0.027	0.084974	0.058076	0.18121	0.1304	0.12788	0.26688	0.30701	0.37545	-0.06875	-1.0083	-0.8875	-0.55625	-1.4688	-0.81667	-0.925	-1.3542	-0.49792	-0.89375	-1.3646	-0.45625	-1.1688	-0.70417	-0.62292	-1.5479	299.978	186.734	450.752	415.604	350.836	217.702	298.198	313.146	177.787	221.891	429.961	235.142	314.242	398.845	181.044	459.477	0.00044964	0.00061697	0.00015341	1209	4.3891e-06	4.247e-06	1219.9	340.71	4.2364e-06	5.8744e-06	391.17	130.02	112.45	38.222	5.3232e-06	47.899	0.00027946	0.00021807	6.1817e-05	1225.7	2.4853e-06	2.5226e-06	1235.9	346.52	2.5299e-06	2.3534e-06	397.93	132.61	114.41	39.184	2.4652e-06	49.056	200.007	184.676	176.954	126.178	258.734	246.077	126.123	130.662	259.609	281.562	130.023	134.658	135.284	139.875	258.018	139.000	-8191	255	
35006.863	1	1	0	0	0.39633	0.10875	0.2328	0.017936	0.22023	0.22991	0.28125	0.28224	0.42938	0.077582	0.25429	0.23393	0.046448	0.35454	0.13735	0.13653	-0.15417	-0.9	-1.0958	-0.56458	-1.2146	-1.0562	-0.56875	-1.4333	-0.44583	-0.94375	-1.1417	-0.28333	-1.1667	-1.0812	-0.55208	-1.4604	228.582	211.221	429.437	342.539	209.722	421.312	367.514	430.751	360.351	384.860	383.648	460.732	380.252	464.562	463.470	410.471	0.00049994	0.00064699	0.00012895	1213.2	3.1836e-06	3.3439e-06	1222.3	342.13	4.3647e-06	3.229e-06	391.1	130.43	112.59	38.21	5.1138e-06	47.77	0.00029774	0.00022662	6.3563e-05	1226.3	2.5726e-06	2.5625e-06	1237.6	346.9	2.6314e-06	2.4837e-06	397.85	132.85	114.42	39.127	2.6274e-06	48.9	202.775	193.553	222.361	126.304	250.690	279.175	126.047	130.899	266.326	259.618	130.191	134.626	135.205	139.674	266.039	138.939	-8191	255	
35006.984	1	1	0	0	0.057429	0.059927	0.16104	0.24781	0.2598	0.34554	0.054345	0.11664	0.24355	0.14775	0.28814	0.074392	0.26187	0.19953	0.37461	0.044472	-0.15	-0.8	-1.0979	-0.5375	-1.2042	-0.97708	-0.49792	-1.5042	-0.72917	-0.67292	-1.4021	-0.49792	-1.1729	-1.0292	-0.35417	-1.1812	169.341	463.416	165.169	345.695	246.745	428.103	469.320	227.679	123.740	213.149	401.512	399.963	143.584	117.269	221.443	431.479	0.00047477	0.00063195	0.00020028	1216.5	4.4719e-06	5.2484e-06	1221.3	342.31	4.255e-06	4.1917e-06	391.91	130.24	112.76	38.334	5.7011e-06	48.224	0.00029279	0.00023292	6.4718e-05	1231	2.6629e-06	2.5725e-06	1238.6	347.52	2.6311e-06	2.57e-06	397.88	132.74	114.48	39.301	2.6168e-06	49.192	199.078	182.512	199.957	126.117	268.036	269.725	126.081	130.865	260.937	266.017	130.262	134.501	135.463	139.657	254.835	139.187	-8191	255	
35007.078	1	1	0	0	0.093989	0.27971	0.28157	0.22095	0.18968	0.035999	0.17641	0.2321	0.053207	0.21476	0.22525	0.30219	0.43563	0.34801	0.13974	0.16086	-0.2375	-0.49583	-1.1271	-0.58958	-0.90208	-1.1063	-0.37917	-1.3937	-0.77083	-0.71458	-1.4333	-0.63125	-0.86042	-1.1729	-0.53542	-1.3646	381.461	264.169	436.671	401.012	227.524	347.129	336.951	383.565	127.341	451.539	165.461	355.810	442.508	364.769	252.476	188.951	0.00046475	0.00031676	0.00010209	1216.5	6.2994e-06	5.93e-06	1223.1	342.33	5.2687e-06	5.937e-06	390.99	129.59	111.69	38.445	6.5121e-06	48.216	0.00028988	0.00023443	6.411e-05	1232.8	2.623e-06	2.6036e-06	1240.3	347.6	2.558e-06	2.5351e-06	397.76	132.6	114.46	39.269	2.6033e-06	49.151	199.850	183.665	211.766	126.167	258.836	243.292	125.993	130.941	254.999	278.085	130.244	134.515	135.439	139.620	251.581	139.217	-8191	255	
35007.180	1	1	0	0	0.20866	0.092598	0.25054	0.51772	0.13582	0.20609	0.24609	0.051225	0.12254	0.15882	0.159	0.24895	0.1143	0.24114	0.10223	0.29025	-0.63333	-0.48125	-1.2333	-0.7875	-0.975	-1.375	-0.62708	-1.1688	-0.90625	-0.46042	-1.5688	-0.69375	-0.93958	-1.2604	-0.34375	-1.3271	185.906	295.703	266.847	431.758	116.829	416.955	462.548	400.631	351.677	335.178	150.288	410.713	433.765	471.246	176.713	410.372	0.00046695	0.00066656	0.00017407	1216.8	4.9061e-06	4.7475e-06	1225.9	341.95	4.3632e-06	5.2556e-06	393.04	129.98	112.99	38.467	4.947e-06	47.85	0.0002893	0.00023255	6.087e-05	1232.8	2.5884e-06	2.3993e-06	1242.9	347.54	2.724e-06	2.5864e-06	398.76	132.96	114.88	39.39	2.747e-06	49.26	201.366	194.605	201.604	126.110	265.713	285.911	126.142	131.056	274.635	285.139	130.231	134.528	135.191	139.925	267.751	138.938	-8191	255	
35007.297	1	1	0	0	0.13358	0.096501	0.1247	0.11072	0.23693	0.24341	0.39333	0.16642	0.24313	0.17477	0.090037	0.29428	0.22699	0.14607	0.1374	0.12419	-0.63958	-0.41667	-1.1958	-0.6375	-0.80417	-1.3625	-0.56458	-1.2292	-1.1458	-0.51875	-1.5354	-0.61042	-0.71458	-1.4292	-0.54167	-1.0292	188.114	331.329	392.924	231.628	166.504	341.195	414.027	404.453	188.684	133.024	331.023	125.556	457.088	400.322	154.732	354.556	0.000456	0.00039064	0.00018853	1219.4	3.8031e-06	5.9415e-06	1231	342.67	5.0616e-06	3.2314e-06	392.54	130.32	112.67	38.45	5.1356e-06	48.369	0.00030971	0.00025087	6.8761e-05	1234	2.8287e-06	2.6914e-06	1243.2	348.49	2.8768e-06	2.7706e-06	398.91	133.19	114.88	39.373	2.8358e-06	49.347	199.392	191.830	203.848	126.285	270.173	268.810	125.960	130.966	257.301	285.042	130.359	134.682	135.332	139.889	269.454	138.944	-8191	255	
35007.367	1	1	0	0	0.12463	0.24812	0.13781	0.23014	0.022714	0.11811	0.3268	0.29612	0.057964	0.18516	0.039853	0.070099	0.3173	0.22984	0.1707	0.31405	-0.44167	-0.31875	-1.3479	-0.94167	-0.52708	-1.4021	-0.66875	-1.1521	-1.0625	-0.43958	-1.1958	-1.0083	-0.54792	-1.4604	-0.32708	-0.9875	280.197	274.878	166.708	463.528	284.018	469.401	367.545	133.014	185.282	367.727	373.415	143.517	394.818	140.880	454.374	330.279	0.00045469	0.00033316	0.00011867	1214.6	4.2098e-06	1.3734e-06	1227.1	342.28	4.0241e-06	2.0494e-06	391.16	130	112.5	38.205	5.2173e-06	47.97	0.0003019	0.00025535	6.8435e-05	1231.3	2.8076e-06	2.6129e-06	1240.5	348.05	2.7075e-06	2.7241e-06	398.18	132.99	114.74	39.281	2.8181e-06	49.176	200.081	215.817	204.247	126.294	264.827	297.087	125.890	131.052	247.377	237.316	130.538	134.594	135.484	139.667	270.443	139.226	-8191	255	
35007.465	1	1	0	0	0.1201	0.16368	0.11991	0.60009	0.12389	0.18505	0.26709	0.11361	0.26427	0.10109	0.17903	0.17659	0.25294	0.18442	0.46557	0.33967	-0.74167	-0.1625	-1.0375	-1.0833	-0.52708	-1.2437	-0.63542	-1.025	-1.2521	-0.34792	-1.5104	-1.025	-0.67083	-1.3833	-0.71458	-0.77083	220.192	319.895	155.823	169.108	346.536	340.014	394.269	295.797	308.093	219.517	407.304	116.468	393.083	409.573	123.256	437.117	0.00042578	0.00049842	0.00010445	1214	6.169e-06	2.823e-06	1224.7	341.92	5.7422e-06	5.192e-06	392.51	130.21	112.08	38.576	5.7918e-06	48.065	0.0002951	0.00025028	6.6642e-05	1230.8	2.8345e-06	2.6481e-06	1239.4	347.27	2.7161e-06	2.7068e-06	398.96	133.17	114.67	39.414	2.7465e-06	49.193	201.532	187.952	211.492	126.166	260.630	231.697	126.108	131.089	238.982	253.278	130.646	134.590	135.467	139.494	282.279	139.137	-8191	255	
35007.586	1	1	0	0	0.1365	0.17068	0.11448	0.18944	0.32581	0.1485	0.092939	0.060501	0.15252	0.15039	0.078556	0.067983	0.17866	0.22682	0.14675	0.15704	-0.78125	-0.35208	-1.1437	-1.2417	-0.29375	-1.2938	-0.86875	-0.8875	-1.1187	-0.46875	-1.0792	-1.2479	-0.42083	-1.4646	-0.70625	-0.68542	281.156	184.813	239.822	384.224	136.639	255.161	383.514	406.894	349.877	138.788	199.333	366.375	470.126	182.958	379.636	194.929	0.00046654	0.00057085	0.00015471	1217.7	3.7869e-06	3.0613e-06	1220.3	342.78	4.6855e-06	5.2236e-06	391.46	131	112.64	38.352	2.7853e-06	48.359	0.00029875	0.00024965	6.6889e-05	1231.3	2.7525e-06	2.5915e-06	1240.4	347.94	2.7914e-06	2.6419e-06	398.67	133.4	114.93	39.415	2.7866e-06	49.398	200.798	216.951	201.276	126.311	282.358	269.431	125.960	130.768	261.218	271.739	130.346	134.347	135.322	139.814	270.742	139.321	-8191	255	
35007.684	1	1	0	0	0.2121	0.1063	0.11749	0.28565	0.17629	0.26978	0.17072	0.27804	0.17656	0.18344	0.11459	0.31761	0.040177	0.2748	0.2303	0.29032	-1.1583	-0.19792	-0.88958	-1.1708	-0.27292	-1.2125	-1.0292	-0.52708	-1.4062	-0.4375	-1.1	-1.2979	-0.26875	-1.1333	-0.70833	-0.24792	403.518	261.505	315.010	379.059	134.461	315.854	440.319	423.926	139.587	460.565	456.425	463.712	247.036	147.388	230.596	437.088	0.00044895	0.00051578	0.00012973	1218.7	4.2398e-06	5.2699e-06	1226.8	341.65	4.6952e-06	4.0909e-06	391.24	130.19	112.71	38.525	5.0762e-06	47.989	0.00029994	0.00025199	6.8995e-05	1233.1	2.9235e-06	2.6707e-06	1242.4	347.28	2.8007e-06	2.7629e-06	398.36	133.06	114.73	39.357	2.8425e-06	49.218	200.314	187.587	205.572	126.116	258.209	253.640	125.913	131.008	270.554	276.618	130.230	134.592	135.455	139.776	257.958	139.017	-8191	255	
35007.777	1	1	0	0	0.14607	0.47181	0.22208	0.16796	0.090706	0.21249	0.11986	0.049397	0.21553	0.28382	0.22496	0.16645	0.25418	0.12329	0.3092	0.16187	-0.94583	-0.45417	-0.78958	-1.625	-0.57292	-1.1167	-1.1271	-0.56458	-1.3563	-0.67083	-0.72083	-1.3937	-0.40833	-1.2083	-0.89375	-0.41042	350.265	121.360	372.819	438.144	287.529	392.826	298.004	239.345	340.826	138.312	123.123	114.248	408.485	279.222	472.354	471.547	0.00047116	0.00046419	0.00020995	1216.8	4.1062e-06	3.8928e-06	1227.3	342.1	5.939e-06	6.7569e-06	390.85	130.64	112.62	38.465	5.8773e-06	47.994	0.00029844	0.0002572	7.1458e-05	1232.3	2.9118e-06	2.6779e-06	1240.7	347.63	2.8338e-06	2.8514e-06	398.14	133.19	114.85	39.358	2.8862e-06	49.176	200.422	188.679	232.950	126.204	251.704	267.746	126.116	130.724	256.008	268.508	130.552	134.475	135.279	139.848	275.612	139.097	-8191	255	
35007.898	1	1	0	0	0.035548	0.26345	0.14507	0.27025	0.15222	0.10062	0.12943	0.21491	0.23945	0.2927	0.33627	0.30318	0.24476	0.092991	0.059279	0.24047	-0.95	-0.40417	-0.54167	-1.2125	-0.32292	-1.025	-1.1812	-0.41458	-1.4771	-0.725	-0.67917	-1.2708	-0.575	-1.0771	-1.0729	-0.46458	179.923	376.862	392.102	425.561	310.049	438.148	177.871	440.446	221.437	255.531	469.065	338.330	372.680	450.189	260.839	384.567	0.00047235	0.00063563	0.00014226	1213.7	3.5748e-06	5.3552e-06	1223.8	341.84	4.5724e-06	4.4219e-06	392.29	130.24	112.68	38.479	4.8584e-06	48.161	0.00030439	0.00025751	7.1618e-05	1232.1	2.9013e-06	2.7038e-06	1240.2	347.45	2.7799e-06	2.8058e-06	398.85	133.12	114.88	39.406	2.7708e-06	49.262	201.440	184.038	191.425	126.183	265.076	280.818	126.032	131.053	269.476	260.706	130.347	134.832	135.302	140.015	262.243	139.178	-8191	255	
35007.969	1	1	0	0	0.050542	0.14722	0.22802	0.10244	0.069412	0.28322	0.20747	0.17174	0.072194	0.16045	0.23039	0.016563	0.35934	0.41158	0.12719	0.13337	-0.93542	-0.64583	-0.46458	-1.6042	-0.2375	-0.85417	-1.2646	-0.28542	-1.1208	-0.90417	-0.31042	-1.5167	-0.63958	-0.69792	-1.0104	-0.35	241.881	299.003	295.497	418.561	235.806	263.310	117.262	397.016	255.036	452.394	151.307	392.323	452.364	404.487	126.422	163.593	0.00048746	0.0003713	0.00015251	1215.8	4.5379e-06	5.1497e-06	1221.1	341.24	6.1467e-06	5.5013e-06	392.54	130.81	112.31	38.436	3.6282e-06	48.256	0.0003061	0.00024747	6.8179e-05	1230.1	2.8583e-06	2.6017e-06	1239.5	347.01	2.6779e-06	2.6831e-06	398.46	133.14	114.46	39.387	2.6988e-06	49.312	201.157	195.219	192.003	126.298	247.748	270.273	126.148	130.980	260.401	269.347	130.393	134.640	135.482	140.140	269.825	139.273	-8191	255	
35008.062	1	1	0	0	0.097712	0.17794	0.21175	0.22918	0.21532	0.27301	0.3082	0.30167	0.25101	0.35843	0.38051	0.17792	0.10164	0.15095	0.065387	0.42271	-0.84583	-0.91875	-0.3625	-1.4937	-0.48125	-0.69792	-1.3979	-0.75417	-1.0063	-1.1646	-0.35625	-1.3625	-0.63333	-0.62917	-1.3104	-0.49167	287.397	211.415	265.353	364.581	179.828	218.021	418.266	118.651	409.957	219.934	441.331	136.570	241.901	302.716	265.036	425.434	0.00046504	0.00050512	0.00020178	1214.4	5.8877e-06	3.6621e-06	1225.9	340.27	4.82e-06	4.3512e-06	391.23	130.48	113.21	38.582	3.0009e-06	48.316	0.00029526	0.00024497	6.7354e-05	1228.9	2.8666e-06	2.5944e-06	1239.8	346.63	2.764e-06	2.7144e-06	398.17	133.55	115.06	39.47	2.7346e-06	49.328	199.626	204.430	194.673	126.302	271.992	272.846	126.199	131.097	268.229	287.385	130.530	134.916	135.372	139.958	245.830	139.327	-8191	255	
35008.160	1	1	0	0	0.1092	0.10984	0.020846	0.2245	0.20079	0.030599	0.18007	0.31978	0.12391	0.14941	0.3019	0.39607	0.21978	0.12334	0.23128	0.39099	-0.57292	-1.1104	-0.31042	-1.4	-0.61875	-0.56875	-1.4438	-0.4375	-0.80208	-1.0229	-0.3625	-1.3	-0.76667	-0.52292	-1.1646	-0.53125	337.410	423.896	292.251	466.551	398.698	134.021	419.321	419.711	335.980	357.600	442.840	300.626	434.298	201.244	360.116	177.927	0.00047724	0.00070267	0.00020501	1213.4	4.9772e-06	6.406e-06	1220.6	341.09	3.72e-06	3.9135e-06	392.41	131.1	112.41	38.501	4.5478e-06	48.3	0.00029878	0.00025294	6.8509e-05	1228.5	2.8139e-06	2.7268e-06	1237.5	346.9	2.8197e-06	2.7123e-06	398.42	133.32	115.03	39.463	2.8397e-06	49.341	200.853	186.687	194.928	126.253	281.723	286.943	126.143	130.927	267.307	266.101	130.505	134.776	135.407	139.987	254.509	139.126	-8191	255	
35008.258	1	1	0	0	0.2386	0.2505	0.2675	0.20243	0.12902	0.086263	0.23467	0.31031	0.19915	0.064598	0.16892	0.20248	0.30127	0.2905	0.12838	0.20028	-0.46667	-1.0833	-0.19792	-1.4729	-0.67083	-0.6	-1.5271	-0.54792	-0.83125	-1.2812	-0.47708	-1.2958	-0.88333	-0.50625	-1.2396	-0.54167	282.181	221.924	268.696	153.274	163.632	381.331	413.764	133.190	306.153	292.732	395.096	321.669	459.597	160.413	125.913	117.114	0.00049217	0.00036321	0.0002281	1215.9	4.4211e-06	5.8713e-06	1220.8	342.26	5.0199e-06	6.4039e-06	391.43	131.02	113.42	38.682	5.4866e-06	48.083	0.00031211	0.000257	7.3034e-05	1229.4	3.0164e-06	2.8769e-06	1237.5	347.45	2.908e-06	2.9203e-06	399.1	133.5	115.19	39.484	2.8117e-06	49.302	200.177	209.102	198.576	126.441	264.910	246.995	126.126	130.942	275.208	255.251	130.304	134.775	135.547	139.687	267.190	138.919	-8191	255	
35008.379	1	1	0	0	0.22123	0.30133	0.39291	0.47405	0.1706	0.25559	0.21775	0.073106	0.064246	0.17795	0.098867	0.23807	0.38738	0.13902	0.12164	0.15254	-0.38542	-1.0104	-0.29583	-1.2042	-0.87708	-0.3375	-1.5667	-0.64792	-0.69583	-1.0812	-0.48125	-1.2	-1.1521	-0.3375	-1.2667	-0.85417	344.165	223.184	319.236	140.511	144.159	194.030	407.021	282.924	235.951	279.168	447.378	454.203	467.010	422.599	363.538	459.326	0.0004595	0.00040268	0.00016053	1217.8	5.2386e-06	4.4588e-06	1224.2	342.52	5.8953e-06	2.0432e-06	392.66	131.47	113.23	38.718	5.8374e-06	48.249	0.00031211	0.00026316	7.3225e-05	1230.1	3.0325e-06	2.8453e-06	1238.3	347.51	3.0383e-06	2.8781e-06	399.4	133.57	115.12	39.475	2.8607e-06	49.337	201.355	181.701	195.242	126.459	280.616	277.285	126.142	130.828	262.772	249.425	130.332	135.014	135.361	139.849	292.386	139.035	-8191	255	
35008.473	1	1	0	0	0.1155	0.2463	0.34545	0.1372	0.097102	0.16313	0.36751	0.15982	0.084297	0.13753	0.18686	0.26584	0.044225	0.23426	0.20803	0.055934	-0.37083	-1.3021	-0.38958	-1.1688	-0.95833	-0.37292	-1.4958	-0.94375	-0.72917	-1.3312	-0.48542	-1.0083	-1.2604	-0.26042	-1.2062	-0.90833	253.883	218.688	428.020	127.940	258.684	458.390	388.894	415.304	138.946	465.089	423.537	182.873	119.444	202.604	250.926	464.736	0.00048258	0.00055682	0.00016493	1214.8	4.9241e-06	6.376e-06	1223	340.99	5.9042e-06	4.3173e-06	394.03	130.87	113.05	38.591	4.3489e-06	48.07	0.00032118	0.00026706	7.6825e-05	1230.1	2.9868e-06	2.9344e-06	1240.2	347.04	3.0299e-06	2.9031e-06	398.89	133.48	115.04	39.461	2.9682e-06	49.31	202.221	180.590	192.511	126.434	267.125	261.376	126.358	130.916	267.449	262.396	130.403	134.808	135.200	139.781	274.196	139.295	-8191	255	
35008.547	1	1	0	0	0.14631	0.012731	0.039229	0.21337	0.22664	0.2165	0.14506	0.096353	0.27386	0.17098	0.069589	0.13462	0.2269	0.073932	0.16202	0.031806	-0.39583	-1.3542	-0.47917	-1.0854	-1.0542	-0.3875	-1.3312	-0.925	-0.43333	-1.2313	-0.44375	-0.86458	-1.1375	-0.4	-1.3229	-0.81458	277.704	194.083	293.240	145.972	151.992	452.641	446.282	181.329	251.152	242.678	149.769	459.796	149.170	323.575	147.233	183.251	0.00047716	0.0006623	0.00015199	1218	4.2944e-06	6.0299e-06	1220.5	340.51	4.788e-06	4.2357e-06	393.63	130.71	112.69	38.435	6.0368e-06	47.974	0.00032271	0.00026833	7.6925e-05	1230.3	3.0302e-06	2.967e-06	1237.3	347.09	2.9874e-06	2.8841e-06	399.22	133.67	115.12	39.43	2.937e-06	49.18	201.667	193.930	182.032	126.445	256.719	268.721	126.104	131.114	270.627	261.017	130.535	134.873	135.531	140.017	249.175	139.023	-8191	255	
35008.664	1	1	0	0	0.25785	0.068126	0.10262	0.10706	0.062306	0.091931	0.03155	0.13979	0.21151	0.25853	0.13986	0.21645	0.24465	0.16216	0.16633	0.13724	-0.045833	-1.3	-0.44167	-0.97708	-1.0875	-0.39792	-1.4854	-1.2792	-0.47708	-1.3083	-0.81042	-0.61667	-1.3188	-0.55833	-1.0958	-1.2792	164.079	417.180	276.850	428.549	247.780	191.946	301.980	115.713	119.051	451.898	406.188	441.363	420.404	147.132	138.365	126.963	0.00046286	0.00066735	0.0001326	1215.3	3.9951e-06	5.99e-06	1222	341.76	4.1676e-06	4.6359e-06	390.2	130.92	113.09	38.511	4.5761e-06	48.009	0.0003215	0.00026657	7.5587e-05	1227.6	2.9703e-06	2.9533e-06	1236.6	347.47	3.0654e-06	2.8915e-06	397.76	133.43	115.19	39.417	2.9965e-06	49.209	202.613	178.223	197.383	126.367	276.781	284.061	126.257	131.010	267.371	253.930	130.428	134.872	135.548	139.865	284.159	139.089	-8191	255	
35008.762	1	1	0	0	0.14411	0.16278	0.14769	0.28119	0.10177	0.21218	0.37996	0.32032	0.15191	0.31026	0.0097428	0.2016	0.37992	0.051092	0.062424	0.33201	-0.06875	-1.2812	-0.72917	-0.61458	-1.2479	-0.35208	-1.225	-1.0917	-0.2875	-1.2542	-0.68958	-0.59167	-1.4875	-0.30833	-0.92292	-1.1604	114.077	231.488	317.583	130.316	253.204	214.178	430.162	137.060	229.886	280.195	416.876	322.547	316.402	307.064	451.699	395.783	0.00050959	0.00043942	0.00019046	1214.5	2.3811e-06	3.5003e-06	1224.5	341.11	5.1627e-06	5.6526e-06	391.05	131.12	113	38.341	4.6714e-06	48.097	0.00032837	0.00026464	7.6734e-05	1228.5	3.027e-06	3.0488e-06	1239	346.7	3.1773e-06	2.854e-06	398.58	133.54	115.19	39.327	2.9913e-06	49.248	200.565	176.103	201.695	126.504	295.177	266.304	126.443	131.105	259.101	265.919	130.544	134.750	135.442	139.974	276.506	139.165	-8191	255	
35008.859	1	1	0	0	0.14252	0.084277	0.4154	0.29766	0.19366	0.243	0.29854	0.092365	0.099726	0.32559	0.080696	0.33748	0.073738	0.088658	0.2569	0.1507	-0.18542	-1.2833	-0.6125	-0.81875	-1.2271	-0.51667	-1.1458	-1.3229	-0.27083	-1.1375	-0.92083	-0.47083	-1.2708	-0.47083	-0.79583	-1.2062	211.636	339.017	114.802	378.687	318.189	304.587	392.476	411.040	464.022	167.783	316.537	399.179	253.046	429.598	183.309	434.896	0.00046589	0.00059282	0.00015109	1216.4	5.2342e-06	4.2869e-06	1221.6	341.16	5.6031e-06	4.2353e-06	390.34	130.65	112.5	38.386	4.8505e-06	48.123	0.00032308	0.00027107	7.5431e-05	1227.4	3.0398e-06	3.1373e-06	1237.7	346.91	3.1092e-06	2.9441e-06	397.83	133.41	114.85	39.319	2.9138e-06	49.267	200.811	197.849	202.613	126.514	275.868	275.017	126.349	130.892	273.487	231.742	130.246	134.806	135.653	140.127	269.155	138.710	-8191	255	
35008.980	1	1	0	0	0.167	0.15991	0.066576	0.28845	0.16509	0.29706	0.15056	0.38042	0.21604	0.26139	0.14873	0.12151	0.41735	0.44295	0.072297	0.08675	0.12292	-1.15	-0.97708	-0.52917	-1.2792	-0.60833	-0.91875	-1.4562	-0.47292	-1.0833	-1.1729	-0.62083	-1.2229	-0.74583	-0.675	-1.1479	369.277	394.196	450.451	113.374	208.015	118.156	415.579	414.303	431.505	174.731	416.006	116.353	464.813	432.723	340.071	299.752	0.00048538	0.00035871	0.00015773	1213.8	3.0298e-06	4.4396e-06	1220.3	340.41	4.2975e-06	4.1545e-06	392.41	130.62	112.43	38.384	6.0887e-06	47.947	0.00032783	0.00026533	7.438e-05	1226.1	3.0138e-06	2.992e-06	1236	346.42	3.0836e-06	2.9322e-06	398.76	133.16	114.94	39.34	2.9463e-06	49.205	200.120	218.195	192.657	126.437	244.498	270.524	126.408	131.017	275.595	269.903	130.341	134.854	135.581	140.111	248.198	139.360	-8191	255	
35009.074	1	1	0	0	0.11306	0.11821	0.10799	0.20717	0.026092	0.077493	0.2028	0.081133	0.11224	0.26197	0.066959	0.013279	0.26663	0.11615	0.081569	0.16533	0.20208	-0.83333	-1.0479	-0.46875	-1.2708	-0.65833	-0.8	-1.3312	-0.45417	-0.825	-1.0917	-0.4125	-1.4271	-0.73125	-0.40833	-1.3479	394.464	264.360	304.201	410.903	324.165	278.847	154.004	309.979	275.360	118.187	230.103	457.668	437.105	414.503	202.119	217.401	0.00048928	0.00044112	0.00011181	1209.5	5.2192e-06	3.0423e-06	1220	341.22	2.4572e-06	5.3962e-06	390.64	130.32	113.09	38.375	5.4776e-06	48.077	0.00032523	0.00026679	7.5713e-05	1226.9	3.0531e-06	3.0631e-06	1235.9	347.06	3.038e-06	2.908e-06	398.16	133.16	114.97	39.367	2.8974e-06	49.182	200.280	209.179	222.890	126.642	257.246	221.146	126.312	130.959	257.759	273.761	130.228	134.863	135.259	139.577	246.083	139.042	-8191	255	
35009.168	1	1	0	0	0.12011	0.17052	0.091912	0.34881	0.11874	0.11196	0.11698	0.11834	0.40453	0.18437	0.19207	0.10574	0.12545	0.15515	0.1622	0.3364	-0.2125	-0.91667	-0.97917	-0.50833	-1.3021	-0.6875	-0.62083	-1.3875	-0.71875	-0.73542	-1.4333	-0.45208	-1.2667	-0.95417	-0.38542	-1.2292	194.724	179.765	313.324	181.036	175.634	162.280	144.395	364.541	208.989	169.007	445.386	152.264	406.839	338.159	211.427	124.678	0.00047057	0.00050557	0.00017494	1211.1	4.7313e-06	6.0055e-06	1219.5	341.92	5.1146e-06	5.728e-06	390.9	130.58	112.17	38.47	5.6507e-06	48.013	0.00032075	0.00026443	7.4467e-05	1226.2	2.9448e-06	2.9444e-06	1234.1	346.78	3.0047e-06	2.9402e-06	397.31	133.04	114.72	39.312	2.9759e-06	49.147	201.143	181.769	192.278	126.542	262.327	242.076	126.261	130.756	255.643	275.898	130.360	134.868	135.459	140.324	258.478	139.172	-8191	255	
35009.266	1	1	0	0	0.092239	0.011866	0.10195	0.19127	0.099492	0.15346	0.025519	0.13395	0.077899	0.10082	0.17074	0.32862	0.18007	0.38094	0.17218	0.11505	-0.13542	-0.72708	-1.1458	-0.63958	-1.0125	-1.0271	-0.59375	-1.3854	-0.65	-0.66875	-1.2917	-0.5625	-1.2104	-0.82708	-0.39583	-1.6271	295.236	316.535	233.599	367.382	315.798	355.517	221.015	457.923	244.010	451.248	119.110	453.470	461.256	375.317	177.949	462.019	0.00045884	0.00063483	0.00016665	1208.4	5.2673e-06	5.7967e-06	1216.9	341.6	4.1494e-06	4.1576e-06	392.65	130.51	112.83	38.419	7.1736e-06	47.978	0.00031365	0.00026435	7.3295e-05	1224.2	2.9586e-06	2.8795e-06	1234	346.62	2.9394e-06	2.8708e-06	398.16	133.09	114.79	39.315	2.8941e-06	49.169	201.480	198.217	188.196	126.532	271.249	277.952	126.067	131.138	264.117	268.945	130.309	134.824	135.572	139.904	279.191	139.349	-8191	255	
35009.363	1	1	0	0	0.13961	0.15881	0.065625	0.24725	0.092619	0.14317	0.25577	0.089694	0.21195	0.19333	0.062908	0.195	0.22172	0.22826	0.084456	0.2277	-0.37917	-0.39167	-1.3792	-0.73542	-0.77917	-1.0854	-0.53333	-1.4062	-0.71042	-0.55417	-1.2979	-0.42292	-0.94583	-1.2292	-0.36042	-1.2958	302.275	145.670	195.215	437.030	165.142	169.296	140.634	368.702	221.501	242.904	320.512	118.374	465.291	176.696	311.806	456.248	0.00045982	0.0006143	0.00013678	1205.2	5.0444e-06	5.4459e-06	1216.1	340.53	4.7424e-06	4.2562e-06	391.77	130.33	112.39	38.324	4.1838e-06	47.956	0.00030963	0.00026119	7.0867e-05	1220.7	2.8383e-06	2.7545e-06	1232.8	346.3	2.9107e-06	2.821e-06	397.88	133.11	114.73	39.334	2.8899e-06	49.113	202.920	183.533	208.821	126.564	269.455	269.439	126.316	131.060	264.093	254.279	130.507	134.753	135.702	140.151	260.207	139.234	-8191	255	
35009.457	1	1	0	0	0.11607	0.18866	0.19293	0.22801	0.20853	0.082999	0.30738	0.17706	0.2002	0.3409	0.064351	0.2483	0.48621	0.21302	0.093825	0.26163	-0.5625	-0.38542	-1.2062	-0.8125	-0.74375	-1.0812	-0.73333	-1.0438	-0.81875	-0.34375	-1.2	-0.71458	-0.6875	-1.2396	-0.4875	-1.1042	256.544	250.138	119.995	408.832	172.097	408.851	459.431	150.050	321.393	427.966	377.004	342.497	429.016	452.253	226.043	471.941	0.00047905	0.00052347	0.00011	1207.9	3.4429e-06	4.6996e-06	1215.8	340.01	4.9423e-06	4.7808e-06	391.64	130.22	112.46	38.421	5.201e-06	47.992	0.00031345	0.00026049	6.9395e-05	1222.4	2.9746e-06	2.7953e-06	1231.2	346.29	2.9087e-06	2.8161e-06	397.59	133.05	114.89	39.353	2.8616e-06	49.178	199.509	207.864	201.009	126.277	253.588	253.425	126.484	131.236	264.938	279.459	130.703	134.745	135.664	139.767	260.630	139.183	-8191	255	
35009.555	1	1	0	0	0.10389	0.18729	0.17291	0.3361	0.24595	0.10374	0.50056	0.28269	0.1297	0.018637	0.091094	0.1404	0.095058	0.36547	0.13992	0.14391	-0.57917	-0.42083	-1.2917	-0.575	-0.68333	-1.1729	-0.51458	-1.2104	-0.99583	-0.34583	-1.45	-0.60417	-0.72708	-1.3833	-0.32083	-1.1708	465.011	399.556	383.714	438.529	427.321	209.597	416.166	406.432	341.194	431.600	460.807	211.354	224.363	426.407	233.275	274.820	0.00045701	0.00033383	0.00011891	1203.9	3.7119e-06	4.3922e-06	1218.1	341.98	4.2907e-06	3.8476e-06	391.04	130.48	112.64	38.473	4.4407e-06	48.098	0.00031186	0.00024463	6.8088e-05	1220.4	2.8067e-06	2.6564e-06	1231.2	346.94	2.8239e-06	2.6899e-06	397.22	133.14	114.69	39.436	2.7994e-06	49.295	202.733	168.223	202.250	126.403	259.071	250.877	126.200	131.135	242.567	269.245	130.357	134.927	135.692	140.008	244.642	139.398	-8191	255	
35009.676	1	1	0	0	0.22256	0.1061	0.20011	0.19667	0.084447	0.080534	0.25325	0.29232	0.32657	0.14443	0.31049	0.20506	0.27743	0.13007	0.086263	0.11619	-0.79792	-0.35625	-1.1646	-0.93125	-0.62708	-1.2729	-0.48125	-0.97917	-1.0896	-0.35417	-1.1667	-0.85417	-0.5625	-1.3521	-0.35625	-0.82917	203.662	354.860	287.651	407.575	336.048	356.315	341.556	373.437	425.318	333.338	447.930	115.362	397.761	446.571	219.452	466.991	0.00049414	0.00051169	0.00017768	1208	4.307e-06	4.0992e-06	1215.3	340.32	3.8668e-06	6.4849e-06	392.97	130.91	112.43	38.434	4.7092e-06	48.317	0.00030829	0.00024939	6.695e-05	1222	2.8191e-06	2.6362e-06	1230.9	346.31	2.7038e-06	2.6565e-06	398.53	133.06	114.8	39.409	2.7347e-06	49.343	199.784	165.215	202.285	126.499	268.251	287.506	126.436	131.017	268.149	285.876	130.413	134.876	135.548	140.001	262.116	139.238	-8191	255	
35009.770	1	1	0	0	0.12771	0.097383	0.23253	0.24442	0.085142	0.10271	0.48485	0.12229	0.16548	0.12299	0.3097	0.2609	0.23242	0.15548	0.49906	0.16173	-0.58333	-0.33958	-1.1	-0.83958	-0.19375	-1.2854	-0.64167	-0.89792	-1.3146	-0.28958	-1.3438	-1.0042	-0.45208	-1.4354	-0.66667	-0.80208	308.299	415.913	158.431	458.885	275.553	135.085	399.435	402.945	133.774	192.243	414.339	158.701	138.264	299.342	435.653	419.275	0.00047295	0.00068812	0.00019856	1206.9	3.2556e-06	3.2305e-06	1219.1	340.93	3.7874e-06	4.2577e-06	392.3	130.58	112.61	38.612	5.209e-06	48.192	0.00029977	0.00024771	6.5995e-05	1220.7	2.8165e-06	2.537e-06	1232.1	346.3	2.738e-06	2.6656e-06	397.69	133.19	114.78	39.336	2.7714e-06	49.321	200.528	197.792	200.521	126.537	302.990	283.986	126.383	131.295	277.919	270.149	130.427	134.926	135.582	140.002	274.892	139.243	-8191	255	
35009.844	1	1	0	0	0.15631	0.13916	0.19364	0.18183	0.14073	0.031475	0.3083	0.24705	0.1025	0.10997	0.083691	0.34812	0.21218	0.20771	0.30329	0.10012	-0.84375	-0.41875	-1.2083	-1.2021	-0.35208	-1.4458	-0.79167	-0.89583	-1.1479	-0.36458	-0.90417	-1.1417	-0.50833	-1.3854	-0.525	-0.69167	324.503	251.451	304.826	452.262	161.937	423.843	143.392	445.325	267.528	416.627	462.548	445.329	384.270	420.756	271.351	124.804	0.00047803	0.00062712	0.00015697	1207.1	4.4669e-06	5.3164e-06	1213.7	340.6	4.5756e-06	4.9842e-06	392.75	130.34	113.02	38.483	4.8368e-06	48.259	0.00029932	0.00024654	6.6012e-05	1220.8	2.7422e-06	2.5311e-06	1232	346.3	2.7471e-06	2.7343e-06	397.77	133.23	114.89	39.421	2.7797e-06	49.335	200.587	197.400	215.690	126.701	240.678	253.388	126.170	131.230	245.635	248.328	130.484	134.852	135.808	140.081	253.691	139.510	-8191	255	
35009.938	1	1	0	0	0.10407	0.33874	0.19532	0.29661	0.049408	0.26563	0.58022	0.20727	0.024926	0.018805	0.088503	0.16318	0.10971	0.20782	0.092525	0.18954	-1.1187	-0.27917	-0.98333	-1.0854	-0.28125	-1.3208	-0.8625	-0.68333	-1.2396	-0.35833	-1.0229	-1.1917	-0.20208	-1.2479	-0.61667	-0.44375	322.557	195.009	152.884	127.006	435.375	297.802	406.524	213.435	197.923	181.197	445.488	380.549	292.754	450.975	452.399	272.785	0.00047731	0.0005583	0.00020373	1204.7	3.992e-06	4.5178e-06	1215	340.78	6.3517e-06	3.0985e-06	392.85	131	112.74	38.41	5.0011e-06	48.263	0.0003043	0.00025446	6.5673e-05	1220.9	2.7371e-06	2.5223e-06	1231	346.03	2.7304e-06	2.6432e-06	398.28	133.31	114.77	39.325	2.5574e-06	49.23	202.136	188.623	200.231	126.541	262.249	276.596	126.316	131.268	264.436	260.855	130.699	135.138	135.616	140.087	247.051	139.307	-8191	255	
35010.059	1	1	0	0	0.083122	0.36196	0.28304	0.27977	0.05976	0.16474	0.25994	0.19598	0.26575	0.27205	0.21115	0.017087	0.29906	0.31989	0.18286	0.096171	-0.83125	-0.35625	-0.72917	-1.2896	-0.39167	-1.1688	-0.7875	-0.36667	-1.1792	-0.41667	-0.83542	-1.2604	-0.4125	-1.1979	-0.80417	-0.29792	407.697	197.360	309.028	116.579	193.354	160.659	447.385	467.631	293.517	422.734	438.002	186.194	126.506	472.607	237.175	409.735	0.0004724	0.00058162	0.0001996	1207.9	3.9113e-06	4.2633e-06	1215.7	340.4	6.2288e-06	6.4439e-06	391.56	130.08	112.18	38.319	4.3379e-06	48.1	0.00028547	0.0002337	6.2412e-05	1222.3	2.5473e-06	2.4011e-06	1231.3	345.85	2.5195e-06	2.5328e-06	397.52	132.84	114.57	39.32	2.5865e-06	49.239	200.982	186.843	194.955	126.519	296.787	273.673	126.413	131.109	258.580	282.667	130.773	134.862	135.617	140.031	245.448	139.292	-8191	255	
35010.152	1	1	0	0	0.47139	0.18387	0.13254	0.34292	0.25676	0.27746	0.19373	0.15095	0.20852	0.16352	0.2208	0.11199	0.19144	0.22138	0.22808	0.033491	-0.88542	-0.56667	-0.61875	-1.4917	-0.41667	-1.0271	-1.1625	-0.60417	-1.0854	-0.66875	-0.57292	-1.4229	-0.39583	-1	-0.9875	-0.34583	445.721	198.979	118.431	452.368	168.794	267.877	441.235	422.168	399.648	421.516	448.899	172.455	189.822	136.296	232.063	444.653	0.00048247	0.00042421	0.00017996	1208.7	3.7024e-06	4.263e-06	1217.6	341.42	6.2962e-06	4.2194e-06	391.53	130.46	112.51	38.559	5.1192e-06	48.318	0.00028213	0.00023124	6.2134e-05	1222.4	2.62e-06	2.4419e-06	1231.6	346.37	2.5593e-06	2.544e-06	397.43	133.13	114.6	39.41	2.567e-06	49.201	200.867	191.203	212.708	126.455	273.002	294.151	126.236	131.534	266.501	266.755	130.784	135.135	135.649	140.172	271.261	139.322	-8191	255	
35010.250	1	1	0	0	0.058818	0.030781	0.13541	0.39658	0.1266	0.19237	0.34835	0.39605	0.29612	0.084511	0.052597	0.1674	0.19674	0.33625	0.09762	0.1407	-0.84375	-0.61875	-0.44792	-1.4062	-0.31042	-0.63958	-1.2646	-0.39583	-1.3021	-0.69167	-0.54583	-1.3771	-0.575	-0.84167	-1.0958	-0.40208	410.293	427.758	418.498	459.885	361.774	333.404	394.741	450.398	350.645	288.205	303.635	292.673	374.608	139.461	342.619	160.852	0.00048821	0.00057499	0.00018697	1208	6.7004e-06	6.6533e-06	1219.2	341.27	5.5332e-06	4.5879e-06	392.37	130.7	112.51	38.33	5.0574e-06	48.056	0.00028346	0.0002275	6.3124e-05	1220.4	2.6425e-06	2.4674e-06	1231.7	346.19	2.4737e-06	2.505e-06	398.06	133.1	114.44	39.306	2.5774e-06	49.166	199.775	185.243	181.180	126.619	254.509	273.152	126.457	131.144	250.858	274.970	130.933	134.810	135.752	139.942	268.833	139.540	-8191	255	
35010.348	1	1	0	0	0.010321	0.15602	0.14634	0.10313	0.041597	0.35674	0.36521	0.36298	0.19247	0.066461	0.22979	0.22351	0.15772	0.33708	0.11297	0.28083	-0.74792	-0.94375	-0.38125	-1.3417	-0.57917	-0.69167	-1.3604	-0.31458	-1.1604	-0.82292	-0.39375	-1.1896	-0.63333	-0.75833	-1.3229	-0.4375	435.552	354.065	208.349	124.280	224.131	131.434	452.504	397.631	375.781	200.874	160.773	447.197	144.656	468.606	261.587	469.591	0.00047695	0.00053682	0.00015169	1206.7	4.69e-06	5.5514e-06	1215.1	339.95	4.7189e-06	4.512e-06	391.47	130.55	112.57	38.644	5.2761e-06	48.017	0.00028898	0.00022799	6.3185e-05	1220.4	2.7014e-06	2.4253e-06	1229.4	345.83	2.4838e-06	2.4546e-06	397.43	133.06	114.77	39.406	2.4172e-06	49.189	200.133	198.671	192.013	126.571	268.471	270.338	126.179	131.182	281.857	244.365	130.609	135.170	135.573	140.149	286.731	139.135	-8191	255	
35010.465	1	1	0	0	0.26153	0.11318	0.15957	0.11475	0.19347	0.27931	0.42914	0.38172	0.031275	0.18757	0.1594	0.10681	0.20897	0.32014	0.2629	0.14693	-0.65	-0.78958	-0.46458	-1.3021	-0.53958	-0.5	-1.3792	-0.55208	-0.84583	-1.1167	-0.425	-1.1625	-0.91875	-0.62292	-1.2917	-0.37708	382.658	172.045	373.760	221.998	139.591	356.690	350.699	436.559	381.767	442.662	342.382	419.598	383.975	447.740	443.065	435.778	0.00046484	0.00052788	0.00010218	1206.6	4.8206e-06	5.4074e-06	1213.6	340.9	6.3884e-06	4.7379e-06	392.29	131.13	112.36	38.476	4.4145e-06	48.027	0.00027968	0.00021876	6.1074e-05	1220.8	2.5597e-06	2.4172e-06	1229.6	346.45	2.5149e-06	2.414e-06	398.34	133.37	114.9	39.401	2.3791e-06	49.272	199.855	201.845	220.997	126.448	257.112	272.992	126.243	131.018	261.587	261.817	130.574	134.673	135.368	140.099	266.902	139.142	-8191	255	
35010.539	1	1	0	0	0.12971	0.1783	0.2056	0.41543	0.11368	0.30541	0.14587	0.41584	0.13955	0.077086	0.3205	0.25172	0.081855	0.073281	0.087301	0.174	-0.50208	-1.1125	-0.2375	-1.4333	-0.575	-0.53125	-1.35	-0.55625	-0.875	-1.2	-0.60625	-1.0021	-0.98333	-0.33958	-1.4458	-0.62292	396.153	372.154	417.284	388.814	361.309	455.736	432.288	353.058	187.730	453.970	468.522	418.699	387.753	450.924	229.515	353.956	0.00045909	0.00041933	0.00013639	1208.3	3.9576e-06	5.5744e-06	1216.8	341.89	4.7421e-06	3.8198e-06	392.41	131.17	112.61	38.627	3.3128e-06	48.232	0.00027956	0.00021234	6.1352e-05	1220.3	2.4904e-06	2.3604e-06	1228.6	346.44	2.4201e-06	2.2339e-06	397.67	133.38	114.91	39.484	2.3547e-06	49.264	198.431	194.388	215.562	126.637	258.611	249.810	126.211	131.133	262.675	267.181	130.433	134.888	135.531	140.014	275.289	139.099	-8191	255	
35010.660	1	1	0	0	0.17006	0.12527	0.29921	0.28688	0.28138	0.23492	0.46011	0.22414	0.34373	0.26264	0.32516	0.094741	0.20079	0.31868	0.26158	0.050111	-0.33958	-1.1708	-0.36667	-1.2062	-0.90833	-0.48958	-1.4583	-0.60625	-0.81667	-1.1896	-0.5	-1.2771	-1.1083	-0.45417	-1.4917	-0.88958	259.943	229.134	454.754	380.648	245.045	342.228	115.221	442.453	364.154	355.024	468.685	160.272	122.511	457.475	458.298	357.245	0.00045878	0.00072397	0.00019629	1200.5	5.926e-06	3.8575e-06	1208.3	341.81	5.5157e-06	4.3389e-06	390.07	130.51	113.4	38.539	6.3605e-06	48.29	0.00027304	0.00020191	5.9259e-05	1214.9	2.4136e-06	2.2779e-06	1225.4	346.39	2.3728e-06	2.204e-06	397.76	133.13	115.07	39.396	2.2395e-06	49.236	199.723	195.823	221.268	126.562	266.891	273.587	126.393	131.137	271.021	274.117	130.402	135.043	135.221	140.029	250.548	139.066	-8191	255	
35010.754	1	1	0	0	0.22609	0.077174	0.32288	0.16415	0.24939	0.082396	0.16963	0.18524	0.096565	0.15198	0.17449	0.078617	0.25229	0.16701	0.13369	0.38113	-0.1	-1.2604	-0.53333	-1.2896	-1.0208	-0.41667	-1.325	-0.9125	-0.51875	-1.3625	-0.6	-0.99167	-1.2333	-0.58333	-1.3375	-0.85833	334.527	272.106	403.059	469.886	161.583	448.369	309.207	433.437	246.854	242.044	332.644	427.328	130.627	139.214	427.957	450.786	0.00048678	0.00071977	0.00018108	1202.3	2.8061e-06	3.617e-06	1209.6	340.6	4.3275e-06	4.7591e-06	389.19	130.15	112.81	38.368	5.0682e-06	48.145	0.00027877	0.00020511	5.8612e-05	1216.3	2.4009e-06	2.3307e-06	1226	345.97	2.4067e-06	2.1531e-06	397.23	132.96	114.91	39.412	2.2732e-06	49.129	200.668	193.665	200.474	126.518	241.542	266.466	126.302	130.959	268.114	254.724	130.762	135.004	135.529	140.108	251.484	139.162	-8191	255	
35010.852	1	1	0	0	0.14477	0.22323	0.30388	0.051238	0.14979	0.060402	0.20652	0.31079	0.19735	0.18998	0.20399	0.084845	0.22137	0.2274	0.13141	0.075068	-0.11042	-1.2229	-0.60625	-1.0312	-1.1917	-0.52292	-1.5229	-1.025	-0.52083	-1.4729	-0.62708	-0.72708	-1.0917	-0.35208	-1.0625	-0.92708	124.002	450.044	282.696	358.608	428.871	342.479	138.667	253.357	284.784	378.490	187.423	328.520	388.964	233.911	383.118	209.226	0.00047096	0.00052687	0.00014494	1201.4	3.6907e-06	4.2547e-06	1211.5	340.44	5.3877e-06	3.8423e-06	392.06	129.93	112.92	38.606	5.4581e-06	48.266	0.00027177	0.00020297	6.0866e-05	1215.4	2.3521e-06	2.2659e-06	1227	346.07	2.4052e-06	2.1801e-06	397.7	133.05	114.87	39.422	2.2959e-06	49.355	201.907	194.955	199.465	126.464	266.563	278.727	126.286	130.850	248.520	268.289	130.422	134.955	135.448	140.139	274.351	138.993	-8191	255	
35010.945	1	1	0	0	0.027578	0.31541	0.12594	0.10047	0.24504	0.25466	0.085242	0.066386	0.22339	0.062652	0.35803	0.36485	0.14683	0.20732	0.20035	0.12966	-0.01875	-1.2896	-0.57083	-0.95	-1.0562	-0.28125	-1.2313	-1.0979	-0.47083	-1.4625	-0.84375	-0.7	-1.2583	-0.39583	-1.1479	-1.1437	397.247	237.851	242.211	127.177	161.896	225.235	471.363	326.109	135.537	153.273	425.485	443.445	431.019	370.020	318.442	140.304	0.0004661	0.00068822	0.00020324	1202.5	5.9925e-06	2.8619e-06	1208.3	340.49	4.9546e-06	3.8332e-06	392.38	130.69	113.06	38.702	4.202e-06	47.972	0.00027707	0.00020297	5.7857e-05	1214.9	2.3783e-06	2.3414e-06	1224.4	346.15	2.4319e-06	2.21e-06	397.77	133.44	115.15	39.458	2.3062e-06	49.334	199.454	182.630	201.286	126.569	268.710	258.549	126.322	131.024	283.820	264.497	130.428	134.817	135.575	139.967	254.763	139.163	-8191	255	
35011.066	1	1	0	0	0.039138	0.072041	0.16388	0.2484	0.28244	0.18138	0.028853	0.35944	0.23981	0.22819	0.10964	0.11514	0.059436	0.29591	0.29381	0.11722	0.2	-1.2542	-0.68542	-0.65417	-1.2458	-0.38958	-1.1	-1.15	-0.225	-1.2792	-0.80208	-0.52708	-1.3604	-0.60625	-0.89375	-1.1667	451.705	158.302	421.709	436.774	255.494	385.747	131.658	459.841	259.297	427.239	162.543	128.090	206.468	141.969	197.315	122.929	0.00048067	0.0006169	0.00015629	1202.7	4.3113e-06	5.9639e-06	1210.8	340.06	4.5468e-06	4.3015e-06	392.3	130.48	112.91	38.701	4.3592e-06	48.274	0.00027626	0.00020159	6.0493e-05	1214.9	2.3096e-06	2.3446e-06	1226.1	345.74	2.4879e-06	2.2616e-06	397.82	133.04	114.94	39.456	2.3914e-06	49.303	200.389	188.839	217.581	126.687	274.178	253.131	126.387	131.042	269.260	292.278	130.306	135.000	135.526	140.326	259.008	139.064	-8191	255	
35011.137	1	1	0	0	0.19088	0.066488	0.097208	0.44756	0.32204	0.22025	0.10197	0.20301	0.14285	0.15016	0.080638	0.025275	0.30618	0.18779	0.14333	0.18613	-0.058333	-1.0083	-0.63125	-0.85208	-1.1708	-0.46875	-1.1479	-1.2792	-0.46458	-1.4542	-0.84792	-0.56042	-1.4229	-0.62083	-0.79583	-1.2687	460.347	315.029	334.447	468.025	372.051	273.243	466.038	459.383	407.187	208.963	204.644	388.721	423.340	117.435	169.534	398.336	0.00044768	0.00068998	0.00016688	1205.1	4.9507e-06	2.8847e-06	1210.6	340.24	4.3249e-06	2.8723e-06	391	131	112.52	38.628	3.5577e-06	48.259	0.00028187	0.00021504	6.1431e-05	1216.1	2.4801e-06	2.4353e-06	1226.2	345.85	2.4285e-06	2.3562e-06	397.64	133.3	114.68	39.478	2.4868e-06	49.301	197.931	188.896	201.654	126.385	273.240	260.476	126.467	131.111	266.891	298.710	130.541	134.720	135.785	140.048	259.630	139.139	-8191	255	
35011.234	1	1	0	0	0.18282	0.26453	0.38971	0.37723	0.2226	0.052594	0.22615	0.1926	0.032162	0.17441	0.1013	0.34255	0.12566	0.063822	0.25822	0.22581	0.32083	-1.0562	-0.92917	-0.38542	-1.1792	-0.6125	-0.70833	-1.45	-0.32292	-1.0979	-1.2396	-0.38125	-1.3042	-0.66042	-0.66875	-1.4375	440.332	468.508	422.276	142.067	398.591	352.999	386.546	460.267	304.579	374.343	160.491	113.200	119.095	277.018	131.000	397.566	0.0004717	0.00057533	0.00011061	1204.6	4.4615e-06	5.4024e-06	1214.1	340.61	5.0292e-06	4.7075e-06	390.11	130.2	112.28	38.633	6.1606e-06	48.087	0.0002868	0.00021893	6.1939e-05	1215.9	2.5393e-06	2.4486e-06	1227.3	346.01	2.6514e-06	2.3515e-06	397.41	133.1	114.63	39.467	2.4303e-06	49.272	199.364	183.527	216.209	126.499	259.944	273.129	126.291	131.112	272.867	281.165	130.297	135.120	135.411	139.713	259.637	139.220	-8191	255	
35011.355	1	1	0	0	0.031974	0.079908	0.059668	0.18422	0.1782	0.17867	0.24898	0.11214	0.1043	0.20869	0.19594	0.1943	0.37483	0.10364	0.14726	0.28379	-0.035417	-0.91042	-0.93333	-0.40833	-1.1896	-0.7125	-0.69375	-1.3146	-0.3625	-0.85833	-0.99167	-0.40208	-1.2104	-0.72083	-0.31667	-1.3979	154.378	469.000	306.335	441.294	145.703	453.049	449.711	447.829	451.521	280.841	464.104	447.838	414.030	130.795	252.803	398.917	0.00044832	0.00035723	0.00014323	1201.2	5.474e-06	4.8889e-06	1211.6	340.09	4.0988e-06	4.5984e-06	392.49	130.21	112.24	38.608	3.8591e-06	48.246	0.00028614	0.00021972	6.2746e-05	1215.7	2.5082e-06	2.4105e-06	1226.5	345.44	2.4849e-06	2.3526e-06	397.51	132.9	114.56	39.372	2.4999e-06	49.238	203.206	187.469	205.116	126.424	269.751	247.295	126.276	131.183	267.774	259.701	130.253	134.820	135.527	139.801	278.865	139.148	-8191	255	
35011.449	1	1	0	0	0.07352	0.097101	0.11834	0.20688	0.092259	0.16445	0.3209	0.026269	0.16789	0.043875	0.17288	0.16519	0.11942	0.42265	0.30568	0.14097	-0.01875	-0.91042	-0.86667	-0.29583	-1.2021	-0.92708	-0.7625	-1.4625	-0.39167	-0.68542	-1.4667	-0.56667	-1.2687	-0.95417	-0.48958	-1.4062	251.328	193.455	469.572	454.197	435.514	245.362	439.270	408.158	217.450	184.960	119.599	350.269	122.992	443.249	248.919	405.786	0.00046643	0.00046531	0.00015537	1199.4	4.4427e-06	5.0336e-06	1212.8	339.75	3.685e-06	3.7965e-06	390.74	130.36	112.52	38.277	3.8706e-06	48.093	0.00028318	0.00021354	6.0241e-05	1215.5	2.4656e-06	2.4698e-06	1226.3	345.26	2.5228e-06	2.432e-06	397.14	132.87	114.61	39.337	2.6035e-06	49.177	199.286	172.968	186.013	126.664	258.243	266.543	126.451	131.121	263.956	257.966	130.459	135.218	135.644	140.050	265.075	139.517	-8191	255	
35011.547	1	1	0	0	0.12318	0.12157	0.09627	0.17185	0.21912	0.038765	0.20018	0.25905	0.20211	0.16599	0.24849	0.24229	0.16553	0.083195	0.16022	0.11419	-0.25	-0.53333	-1.2646	-0.27083	-1.1042	-0.84583	-0.63542	-1.2979	-0.42708	-0.79583	-1.3833	-0.6125	-1.175	-1.0688	-0.23125	-1.4354	172.296	295.418	365.434	164.027	289.647	339.265	169.912	431.369	455.232	340.001	113.391	442.810	407.145	317.430	281.219	329.414	0.00046838	0.00070735	0.00014325	1204.3	5.7278e-06	2.6913e-06	1209.7	339.73	4.1847e-06	5.843e-06	390.54	130.89	112.77	38.295	5.4022e-06	48.232	0.00029414	0.00023821	6.6407e-05	1216	2.6619e-06	2.5998e-06	1228.1	345.88	2.7944e-06	2.6746e-06	396.83	133.18	114.67	39.326	2.7954e-06	49.255	200.473	192.903	198.518	126.557	253.906	257.526	126.460	131.286	256.223	261.877	130.067	135.082	135.526	140.166	251.575	139.229	-8191	255	
35011.645	1	1	0	0	0.061636	0.18243	0.099615	0.052353	0.1691	0.16532	0.41282	0.14777	0.23945	0.053795	0.28075	0.11997	0.089014	0.36607	0.032703	0.12483	-0.20208	-0.66458	-1.2271	-0.575	-1.0354	-1.1958	-0.6	-1.3	-0.78125	-0.29167	-1.3042	-0.61458	-0.94583	-1.3292	-0.36458	-1.0521	155.191	435.780	455.429	313.994	398.047	239.696	445.655	395.684	239.169	202.084	452.590	372.028	299.554	467.077	369.402	358.361	0.00047946	0.00035535	0.00016038	1198.6	4.7095e-06	4.5151e-06	1210.1	339.84	3.2208e-06	2.8603e-06	391.28	130.64	112.38	38.495	5.2195e-06	48.093	0.00030676	0.00025401	6.7111e-05	1216.8	2.8044e-06	2.7174e-06	1226.2	345.68	2.8683e-06	2.763e-06	397.24	132.9	114.53	39.333	2.8611e-06	49.259	200.756	175.439	195.390	126.558	249.478	276.048	126.315	131.138	253.179	255.771	130.677	134.892	135.365	139.737	266.206	139.176	-8191	255	
35011.738	1	1	0	0	0.25479	0.28165	0.25261	0.47691	0.13461	0.17846	0.4151	0.14256	0.24071	0.13939	0.13489	0.08263	0.25801	0.35807	0.27118	0.18453	-0.425	-0.25208	-1.15	-0.62917	-0.78125	-1.3479	-0.525	-1.3292	-0.89167	-0.525	-1.5083	-0.86875	-0.79167	-1.3771	-0.42917	-1.1771	378.122	115.657	255.915	425.924	172.120	270.518	391.864	338.331	334.412	113.497	288.939	419.851	145.011	423.221	216.081	444.859	0.00048394	0.00043905	0.0001718	1204.3	4.6192e-06	4.5813e-06	1211.6	339.98	6.5456e-06	2.8041e-06	390.94	130.11	112.27	38.622	5.0605e-06	48.149	0.00031596	0.00024561	6.8813e-05	1217.6	2.8787e-06	2.6961e-06	1227.8	345.37	2.9414e-06	2.7343e-06	397.05	132.94	114.59	39.42	2.838e-06	49.265	201.972	182.869	192.328	126.475	255.424	297.297	126.169	131.097	281.786	252.911	130.503	134.866	135.422	139.923	265.317	139.151	-8191	255	
35011.836	1	1	0	0	0.19218	0.069302	0.019027	0.11982	0.30366	0.056149	0.16157	0.21247	0.091117	0.21594	0.26602	0.2952	0.26663	0.021101	0.19678	0.20154	-0.53542	-0.45	-1.1646	-0.99375	-0.60833	-1.2854	-0.69167	-1.0187	-1.0229	-0.43958	-1.4771	-0.96458	-0.67083	-1.2479	-0.54583	-1.0479	462.267	356.137	303.676	468.623	191.058	405.912	345.659	419.142	189.293	177.423	468.851	154.296	117.836	344.904	401.725	327.126	0.00048868	0.00048897	0.00012688	1203	3.6849e-06	3.1383e-06	1215.2	339.44	4.8307e-06	3.0162e-06	390.05	130.75	112.38	38.243	4.9786e-06	47.912	0.00031211	0.00025023	6.9803e-05	1217.2	2.7803e-06	2.6275e-06	1229.3	345.82	2.8167e-06	2.7603e-06	397.59	133.16	114.53	39.268	2.9217e-06	49.196	200.293	208.069	230.635	126.534	244.767	250.593	126.424	131.170	265.203	263.082	130.522	134.968	135.609	140.129	286.578	139.328	-8191	255	
35011.930	1	1	0	0	0.28655	0.094547	0.065139	0.31162	0.073569	0.092108	0.207	0.27308	0.088251	0.2572	0.080046	0.404	0.21459	0.16903	0.10169	0.13842	-0.6625	-0.22083	-1.0625	-0.84583	-0.41042	-1.3833	-0.41875	-0.99583	-1.0583	-0.25	-1.4104	-0.8125	-0.74792	-1.2833	-0.50625	-1.0104	177.045	328.679	335.959	468.550	332.084	402.383	380.076	465.310	149.922	172.464	129.999	420.438	310.186	378.918	376.493	146.817	0.00046289	0.00037804	0.00014026	1203.9	4.6841e-06	3.6482e-06	1210.3	339.77	6.6345e-06	4.3945e-06	391.07	129.54	111.66	38.499	4.8199e-06	47.986	0.00031607	0.0002691	7.0276e-05	1218	2.918e-06	2.7494e-06	1227.9	345.36	2.8718e-06	2.7907e-06	397.28	132.76	114.39	39.393	2.9419e-06	49.059	197.752	238.239	183.983	126.605	271.650	251.959	126.416	131.405	258.841	281.359	130.681	134.972	135.743	140.056	256.383	139.309	-8191	255	
35012.027	1	1	0	0	0.16576	0.099202	0.2126	0.19441	0.25996	0.099696	0.13486	0.22782	0.27293	0.11311	0.088304	0.18274	0.13627	0.19376	0.095068	0.12286	-0.88542	-0.3875	-1.2062	-0.99375	-0.46458	-1.4688	-0.79583	-0.82083	-1.0958	-0.4125	-1.0604	-0.97292	-0.58333	-1.2437	-0.43958	-0.70417	220.871	349.611	260.686	386.986	466.427	251.412	455.978	135.963	416.684	472.193	415.840	118.094	402.101	183.927	178.858	326.860	0.00047558	0.00061751	0.00011451	1206.8	5.613e-06	4.751e-06	1214.7	340.15	6.102e-06	3.6701e-06	391.89	129.85	112.18	38.391	4.9784e-06	48.124	0.00031223	0.00026088	7.3494e-05	1220.9	2.9973e-06	2.7485e-06	1230.9	346.07	3.0107e-06	2.8628e-06	398.03	132.75	114.43	39.273	2.969e-06	49.217	201.764	190.717	219.403	126.431	258.760	267.224	126.435	131.444	270.264	262.437	130.898	134.853	135.683	140.006	252.120	139.443	-8191	255	
35012.145	1	1	0	0	0.26993	0.019242	0.26997	0.18754	0.37232	0.16955	0.09618	0.15456	0.031031	0.16288	0.37201	0.13521	0.27236	0.15538	0.10314	0.34478	-0.70208	-0.35417	-0.98125	-1.0604	-0.44167	-1.3062	-0.75625	-0.66042	-1.2854	-0.51875	-1.0417	-1.0167	-0.3875	-1.1812	-0.62083	-0.55417	426.419	265.805	412.140	439.241	190.107	412.022	264.399	199.165	413.864	352.187	432.685	379.144	163.121	449.439	473.006	413.705	0.00046986	0.00034063	0.00013739	1209	5.3224e-06	3.5705e-06	1220.8	341.12	3.9266e-06	4.2006e-06	391.61	130.63	112.9	38.683	6.3157e-06	48.174	0.00030823	0.00026094	7.2265e-05	1220.8	2.9387e-06	2.772e-06	1233.2	346.12	2.9315e-06	2.8789e-06	397.75	132.9	114.68	39.458	2.7842e-06	49.201	201.090	177.483	217.750	126.552	271.226	264.586	126.474	131.339	261.435	276.522	130.791	135.060	135.861	140.213	263.719	139.253	-8191	255	
35012.242	1	1	0	0	0.3029	0.23784	0.16306	0.50302	0.062218	0.085396	0.41399	0.44214	0.12442	0.34504	0.2394	0.58381	0.10889	0.145	0.19726	0.1562	-0.90208	-0.1875	-0.96875	-1.2396	-0.12708	-1.1354	-0.92292	-0.5125	-1.3312	-0.45	-0.91667	-1.0896	-0.45625	-1.2812	-0.73958	-0.58542	138.220	273.706	163.635	425.873	448.434	174.354	467.090	410.874	445.025	276.990	458.035	448.385	367.207	130.481	430.799	435.050	0.00047666	0.00062456	0.00014947	1204.7	3.6946e-06	5.1689e-06	1215.2	340.46	3.1131e-06	3.9511e-06	392.11	130.33	112.2	38.521	2.8714e-06	48.282	0.00030522	0.00025045	6.8331e-05	1221	2.9194e-06	2.5961e-06	1231.4	346.02	2.8167e-06	2.7132e-06	398.19	132.88	114.55	39.365	2.6828e-06	49.322	201.103	194.613	207.354	126.615	271.104	269.361	126.343	131.289	259.165	251.566	130.991	134.904	135.746	140.270	296.558	139.606	-8191	255	
35012.340	1	1	0	0	0.10656	0.096055	0.24454	0.13869	0.16267	0.19226	0.25043	0.17143	0.0414	0.053985	0.18289	0.26562	0.27539	0.11994	0.25706	0.15504	-1.0792	-0.37083	-0.81042	-1.3854	-0.2625	-1.2812	-1.0083	-0.39375	-1.3625	-0.48333	-0.6875	-1.2708	-0.38958	-1.1917	-1.0042	-0.44583	233.471	155.787	292.258	117.005	157.289	200.781	360.137	433.032	250.700	128.609	330.325	177.256	420.357	155.673	231.651	404.666	0.00048221	0.0005682	0.00013661	1207.3	3.993e-06	5.2077e-06	1215.9	340.81	4.928e-06	4.5362e-06	391.85	130.16	112.02	38.467	5.4358e-06	48.047	0.00030207	0.00025134	6.8383e-05	1221.5	2.7384e-06	2.5994e-06	1230.8	346.33	2.7726e-06	2.799e-06	397.53	132.84	114.46	39.359	2.6825e-06	49.194	200.902	193.955	215.892	126.596	270.275	275.494	126.526	131.255	255.053	267.989	130.833	135.131	135.981	140.112	267.701	139.633	-8191	255	
35012.434	1	1	0	0	0.06582	0.15048	0.1654	0.0796	0.41959	0.067899	0.14169	0.050523	0.098628	0.12407	0.23039	0.31568	0.19888	0.24477	0.15155	0.38599	-0.9	-0.47292	-0.52292	-1.4125	-0.36458	-1.0354	-1.05	-0.50833	-1.2146	-0.72083	-0.65833	-1.5583	-0.4625	-1.0146	-0.95625	-0.56667	341.904	441.124	208.352	377.825	126.024	343.973	130.836	347.362	430.403	289.529	454.167	440.472	382.089	219.190	142.742	404.773	0.00047538	0.00068195	0.00015381	1206.3	4.0921e-06	4.7368e-06	1218.2	341.29	5.3595e-06	5.6515e-06	392.79	130.47	112.04	38.393	3.7657e-06	48.354	0.00030152	0.00024582	6.731e-05	1221.3	2.7938e-06	2.5839e-06	1231.7	346.6	2.6822e-06	2.6885e-06	398.23	133.05	114.58	39.332	2.6092e-06	49.293	201.095	177.444	229.269	126.722	252.521	244.786	126.418	131.428	272.196	275.575	130.705	134.972	135.724	140.246	271.347	139.510	-8191	255	
35012.527	1	1	0	0	0.11117	0.12927	0.19144	0.37951	0.10247	0.14158	0.18515	0.11305	0.1203	0.12255	0.12816	0.38186	0.35176	0.2443	0.15776	0.10242	-0.825	-0.59375	-0.16042	-1.4521	-0.51667	-0.89375	-1.3479	-0.53542	-1.35	-0.77917	-0.54167	-1.3771	-0.475	-0.83333	-1.1292	-0.29375	355.428	369.023	223.241	453.714	205.094	436.613	436.670	449.549	320.334	239.248	178.115	128.861	167.821	308.235	311.186	183.702	0.00046974	0.00044133	0.00018469	1205.1	3.7173e-06	4.7081e-06	1218.8	340.11	4.0257e-06	4.0224e-06	391.6	130.41	112.34	38.555	5.2377e-06	47.99	0.00029933	0.00023918	6.6828e-05	1220.6	2.8357e-06	2.6251e-06	1233.3	345.79	2.6754e-06	2.7011e-06	398.18	133.2	114.48	39.377	2.7767e-06	49.162	201.507	178.771	202.780	126.769	248.895	251.328	126.451	131.265	262.542	269.475	130.718	135.148	136.089	140.411	268.137	139.492	-8191	255	
35012.648	1	1	0	0	0.15199	0.058833	0.38426	0.35811	0.081399	0.20453	0.58074	0.27847	0.25914	0.099183	0.18697	0.11139	0.47394	0.20497	0.14417	0.077958	-0.775	-0.72292	-0.31042	-1.4	-0.38542	-0.81458	-1.4688	-0.62292	-1.0521	-1.2125	-0.55625	-1.225	-0.68542	-0.81458	-1.3479	-0.32708	457.885	217.000	308.736	385.405	349.463	366.851	425.827	463.172	236.948	403.588	366.767	363.968	447.983	450.194	300.738	421.705	0.00044441	0.00048424	0.00011198	1204.8	3.6163e-06	4.4935e-06	1217.5	341.71	3.7496e-06	5.8162e-06	391.57	130.28	111.8	38.392	4.005e-06	48.051	0.00029709	0.00024382	6.7658e-05	1219.9	2.8216e-06	2.6897e-06	1231.4	345.99	2.703e-06	2.7115e-06	397.84	132.76	114.35	39.232	2.7026e-06	49.176	200.729	187.998	191.861	126.672	266.312	270.607	126.449	131.239	260.936	276.423	130.737	134.984	135.708	140.198	247.392	139.417	-8191	255	
35012.746	1	1	0	0	0.14419	0.26075	0.080306	0.13726	0.22044	0.16139	0.25287	0.3214	0.1675	0.086811	0.04655	0.24522	0.24593	0.2354	0.14584	0.14776	-0.62708	-0.94375	-0.23958	-1.4375	-0.75208	-0.69167	-1.5375	-0.50833	-0.94375	-1.2333	-0.45	-1.2	-0.75833	-0.575	-1.2938	-0.52292	355.250	415.064	260.504	217.040	239.603	167.469	421.379	425.152	429.139	258.549	289.848	419.931	450.360	416.828	393.568	262.262	0.00047058	0.00063759	0.00014786	1205.3	4.9005e-06	3.9561e-06	1217.8	340.42	4.2058e-06	4.6734e-06	391.55	130.71	112.13	38.3	6.6253e-06	48.068	0.000299	0.00024732	6.8023e-05	1220.9	2.7718e-06	2.7116e-06	1231.5	345.83	2.7979e-06	2.6449e-06	398.13	132.9	114.24	39.308	2.7224e-06	49.148	200.153	204.793	198.908	126.864	263.573	236.760	126.534	131.237	262.549	273.324	130.718	135.179	135.604	140.345	274.481	139.455	-8191	255	
#DATA ENDS
