BOXY.EXE: ISS Imagent and Oximeter Data Acquisition Program Version 0.80
Ascii Record File

#ACQ INFORMATION
2  Detector Channels 
16  External MUX Channels 
1  Auxiliary Channels 
5000  Waveform (CCF) Frequency (Hz)
1  Waveforms Skipped 
30  Waveforms Averaged 
1  Cycles Averaged 
16  Acquisitions per Waveform 
10.0806  Updata Rate (Hz) 

#FILE INFORMATION
TRUE -- External MUX Channel results are PARSED.
FALSE -- AC DC and Phase are NOT grouped.
TRUE -- Companion Program Settings File CREATED.
FALSE -- AC data not excluded
FALSE -- DC data not excluded
FALSE -- Phase data not excluded
FALSE -- Auxillary Chn. data not excluded
Tab delimiters

#CALIBRATION STATE
TRUE -- Waveform Calibration Values APPLIED.


#AUX CALIBRATION VALUES
Val Type	aux-1	

Term	1.0000e+00	
Factor	0.0000e+00	


#WF CALIBRATION VALUES
A = Detector Channel
Val Type	A-AC1	A-AC2	A-AC3	A-AC4	A-AC5	A-AC6	A-AC7	A-AC8	A-AC9	A-AC10	A-AC11	A-AC12	A-AC13	A-AC14	A-AC15	A-AC16	A-DC1	A-DC2	A-DC3	A-DC4	A-DC5	A-DC6	A-DC7	A-DC8	A-DC9	A-DC10	A-DC11	A-DC12	A-DC13	A-DC14	A-DC15	A-DC16	A-Ph1	A-Ph2	A-Ph3	A-Ph4	A-Ph5	A-Ph6	A-Ph7	A-Ph8	A-Ph9	A-Ph10	A-Ph11	A-Ph12	A-Ph13	A-Ph14	A-Ph15	A-Ph16	

Term	0.00000e+00	0.00000e+00	0.00000e+00	0.00000e+00	0.00000e+00	0.00000e+00	0.00000e+00	0.00000e+00	0.00000e+00	0.00000e+00	0.00000e+00	0.00000e+00	0.00000e+00	0.00000e+00	0.00000e+00	0.00000e+00	0.00000e+00	0.00000e+00	0.00000e+00	0.00000e+00	0.00000e+00	0.00000e+00	0.00000e+00	0.00000e+00	0.00000e+00	0.00000e+00	0.00000e+00	0.00000e+00	0.00000e+00	0.00000e+00	0.00000e+00	0.00000e+00	0.00000e+00	0.00000e+00	0.00000e+00	0.00000e+00	0.00000e+00	0.00000e+00	0.00000e+00	0.00000e+00	0.00000e+00	0.00000e+00	0.00000e+00	0.00000e+00	0.00000e+00	0.00000e+00	0.00000e+00	0.00000e+00	
Factor	1.00000e+00	1.00000e+00	1.00000e+00	1.00000e+00	1.00000e+00	1.00000e+00	1.00000e+00	1.00000e+00	1.00000e+00	1.00000e+00	1.00000e+00	1.00000e+00	1.00000e+00	1.00000e+00	1.00000e+00	1.00000e+00	1.00000e+00	1.00000e+00	1.00000e+00	1.00000e+00	1.00000e+00	1.00000e+00	1.00000e+00	1.00000e+00	1.00000e+00	1.00000e+00	1.00000e+00	1.00000e+00	1.00000e+00	1.00000e+00	1.00000e+00	1.00000e+00	X	X	X	X	X	X	X	X	X	X	X	X	X	X	X	X	

B = Detector Channel
Val Type	B-AC1	B-AC2	B-AC3	B-AC4	B-AC5	B-AC6	B-AC7	B-AC8	B-AC9	B-AC10	B-AC11	B-AC12	B-AC13	B-AC14	B-AC15	B-AC16	B-DC1	B-DC2	B-DC3	B-DC4	B-DC5	B-DC6	B-DC7	B-DC8	B-DC9	B-DC10	B-DC11	B-DC12	B-DC13	B-DC14	B-DC15	B-DC16	B-Ph1	B-Ph2	B-Ph3	B-Ph4	B-Ph5	B-Ph6	B-Ph7	B-Ph8	B-Ph9	B-Ph10	B-Ph11	B-Ph12	B-Ph13	B-Ph14	B-Ph15	B-Ph16	

Term	0.00000e+00	0.00000e+00	0.00000e+00	0.00000e+00	0.00000e+00	0.00000e+00	0.00000e+00	0.00000e+00	0.00000e+00	0.00000e+00	0.00000e+00	0.00000e+00	0.00000e+00	0.00000e+00	0.00000e+00	0.00000e+00	0.00000e+00	0.00000e+00	0.00000e+00	0.00000e+00	0.00000e+00	0.00000e+00	0.00000e+00	0.00000e+00	0.00000e+00	0.00000e+00	0.00000e+00	0.00000e+00	0.00000e+00	0.00000e+00	0.00000e+00	0.00000e+00	-1.09754e+02	-1.38239e+02	-1.31532e+02	-1.81391e+02	-5.83897e+01	-6.33243e+01	-1.56241e+02	-1.62015e+02	-6.27957e+01	-6.37577e+01	-1.71665e+02	-1.69273e+02	-1.84696e+02	-1.76456e+02	-6.03418e+01	-1.48566e+02	
Factor	1.80032e-05	1.77734e-04	5.07847e-05	1.53170e-01	1.28778e-06	1.75967e-06	1.74453e-01	5.42787e-02	1.21557e-06	1.68431e-06	9.53181e-02	3.01745e-02	2.53625e-02	9.70778e-03	1.52160e-06	1.39865e-02	5.92495e-06	7.47141e-06	2.08445e-06	7.86376e-02	7.93799e-08	8.28280e-08	8.42936e-02	2.80420e-02	7.93589e-08	8.30258e-08	4.74837e-02	1.51785e-02	1.32141e-02	5.04186e-03	8.08542e-08	7.02531e-03	X	X	X	X	X	X	X	X	X	X	X	X	X	X	X	X	



#DISTANCE SETTINGS
A = Detector Channel
A-1	A-2	A-3	A-4	A-5	A-6	A-7	A-8	A-9	A-10	A-11	A-12	A-13	A-14	A-15	A-16	

2.5000e+00	3.0000e+00	2.5000e+00	3.0000e+00	2.0000e+00	3.0000e+00	1.5000e+00	3.0000e+00	3.0000e+00	3.0000e+00	3.0000e+00	3.0000e+00	3.0000e+00	3.0000e+00	1.5000e+00	3.0000e+00	

B = Detector Channel
B-1	B-2	B-3	B-4	B-5	B-6	B-7	B-8	B-9	B-10	B-11	B-12	B-13	B-14	B-15	B-16	

1.0000e+01	1.0000e+01	1.0000e+01	1.4400e+00	1.0000e+01	1.0000e+01	1.5100e+00	1.9400e+00	1.0000e+01	1.0000e+01	1.9900e+00	2.4900e+00	2.4100e+00	2.9000e+00	1.0000e+01	2.9800e+00	




#DATA BEGINS
time	group	step	mark	flag	A-AC1	A-AC2	A-AC3	A-AC4	A-AC5	A-AC6	A-AC7	A-AC8	A-AC9	A-AC10	A-AC11	A-AC12	A-AC13	A-AC14	A-AC15	A-AC16	A-DC1	A-DC2	A-DC3	A-DC4	A-DC5	A-DC6	A-DC7	A-DC8	A-DC9	A-DC10	A-DC11	A-DC12	A-DC13	A-DC14	A-DC15	A-DC16	A-Ph1	A-Ph2	A-Ph3	A-Ph4	A-Ph5	A-Ph6	A-Ph7	A-Ph8	A-Ph9	A-Ph10	A-Ph11	A-Ph12	A-Ph13	A-Ph14	A-Ph15	A-Ph16	B-AC1	B-AC2	B-AC3	B-AC4	B-AC5	B-AC6	B-AC7	B-AC8	B-AC9	B-AC10	B-AC11	B-AC12	B-AC13	B-AC14	B-AC15	B-AC16	B-DC1	B-DC2	B-DC3	B-DC4	B-DC5	B-DC6	B-DC7	B-DC8	B-DC9	B-DC10	B-DC11	B-DC12	B-DC13	B-DC14	B-DC15	B-DC16	B-Ph1	B-Ph2	B-Ph3	B-Ph4	B-Ph5	B-Ph6	B-Ph7	B-Ph8	B-Ph9	B-Ph10	B-Ph11	B-Ph12	B-Ph13	B-Ph14	B-Ph15	B-Ph16	aux-1	digaux	

35565.535	1	1	0	256	0.291	0.11562	0.14201	0.10977	0.19998	0.22247	0.14091	0.1076	0.1524	0.17184	0.15708	0.30711	0.15007	0.13069	0.23841	0.16431	-1.0542	-0.50208	-0.72708	-1.2208	-0.35833	-1.05	-1.2896	-0.3	-1.425	-0.66667	-0.70625	-1.1896	-0.6125	-1.2646	-1.1729	-0.61458	175.106	-39.939	24.516	217.605	223.515	169.983	220.048	273.901	-58.916	74.103	165.775	262.092	209.768	252.826	56.050	255.592	0.00011304	0.00070036	0.00011798	673.01	5.5762e-06	3.9242e-06	361.45	249.44	1.9833e-06	6.4525e-06	137.48	52.021	96.931	50.59	6.5002e-06	26.925	0.0021792	0.0027369	0.00075952	669.55	2.9002e-05	3.0266e-05	373.43	250.02	2.8348e-05	3.0453e-05	148.19	55.85	98.31	50.98	2.9503e-05	28.265	154.384	114.719	48.669	-71.297	108.988	203.033	-73.429	-65.778	102.694	135.785	-69.857	-65.777	-61.235	-57.456	72.368	-63.046	-8191	255	
35565.609	1	1	0	0	0.062793	0.075989	0.058565	0.42856	0.13478	0.2478	0.084679	0.13023	0.13766	0.10141	0.29474	0.12202	0.086675	0.24233	0.24833	0.21316	-0.91875	-0.74167	-0.62917	-1.6896	-0.65208	-0.96458	-1.3208	-0.5	-1.4167	-0.72292	-0.47292	-1.5208	-0.62083	-0.82708	-1.4125	-0.35833	180.461	-54.790	74.659	230.574	259.553	75.029	221.924	-62.570	108.832	-3.696	-8.981	176.075	184.393	225.868	246.745	248.443	0.00010854	0.00073677	0.00026121	673.34	2.9565e-06	1.0879e-05	357.8	249.04	1.3278e-06	5.9578e-06	137.59	52.801	96.048	50.547	1.2362e-05	27.065	0.0021715	0.0027143	0.00075821	669.96	2.8977e-05	3.0051e-05	373.22	249.97	2.8696e-05	3.0026e-05	148.02	56.099	97.988	50.966	2.9385e-05	28.324	162.967	238.128	110.770	-71.085	50.131	81.950	-73.540	-65.726	271.381	223.385	-69.062	-65.690	-61.258	-57.857	59.592	-62.804	-8191	255	
35565.730	1	1	0	0	0.27695	0.18681	0.27911	0.090261	0.18584	0.15798	0.14582	0.28205	0.080163	0.17485	0.11339	0.15214	0.061516	0.21073	0.19251	0.28473	-0.89167	-0.87917	-0.35625	-1.6021	-0.82708	-0.93542	-1.2854	-0.57917	-1.3979	-1.0375	-0.6125	-1.4771	-0.76042	-0.84792	-1.5292	-0.525	101.836	49.702	163.277	219.227	87.816	258.446	74.901	153.604	-9.478	246.294	89.037	194.433	7.753	235.436	188.386	268.182	4.1899e-05	0.00028405	0.00022297	671.99	2.3636e-06	5.0356e-06	358.33	250.08	4.9915e-06	5.08e-06	136.53	52.74	96.4	51.096	3.8535e-06	27.062	0.0021727	0.0026875	0.00074606	669.72	2.8516e-05	2.9763e-05	373.36	249.78	2.898e-05	2.9934e-05	147.91	56.286	98.063	51.244	2.9265e-05	28.454	174.015	-76.161	177.827	-71.136	84.760	82.062	-73.608	-65.627	52.713	-64.551	-69.215	-65.870	-61.383	-57.454	-26.431	-62.461	-8191	255	
35565.824	1	1	0	0	0.32987	0.097314	0.09446	0.25766	0.15108	0.20524	0.054027	0.21142	0.19176	0.04856	0.20163	0.17805	0.036612	0.27344	0.037263	0.095052	-0.85625	-1.0438	-0.40833	-1.5604	-0.77708	-0.65833	-1.6604	-0.61667	-1.0938	-1.1812	-0.50625	-1.3833	-0.78542	-0.67708	-1.4542	-0.75417	-51.247	-81.209	94.042	-82.057	156.523	32.054	175.637	266.845	188.653	132.120	-53.663	-0.956	-39.083	227.238	-57.931	-9.640	5.2077e-05	0.00092495	6.6068e-05	672.05	2.0735e-06	7.2235e-06	358.59	248.31	6.3371e-07	5.8354e-06	137.36	52.236	96.145	50.846	1.1046e-06	27.041	0.0022004	0.0027196	0.00075939	669.63	2.9008e-05	3.014e-05	373.33	249.58	2.9508e-05	3.0363e-05	148.08	55.975	98.109	51.123	2.9804e-05	28.326	171.877	-10.233	-4.883	-71.107	188.012	-77.251	-73.268	-65.828	39.904	57.970	-69.263	-65.873	-61.557	-57.556	218.921	-62.926	-8191	255	
35565.922	1	1	0	0	0.17083	0.13271	0.18427	0.40273	0.083676	0.086079	0.30336	0.35368	0.098492	0.22468	0.32959	0.17034	0.39048	0.073835	0.20033	0.26447	-0.77292	-1.2271	-0.52708	-1.3396	-0.86667	-0.74167	-1.3792	-0.64375	-0.96875	-1.2938	-0.46875	-1.2812	-1.0375	-0.78125	-1.1958	-0.87917	195.665	236.661	139.387	184.680	-82.177	-63.378	172.213	166.518	237.287	-52.736	-57.795	247.710	221.030	200.742	219.498	41.713	9.3872e-05	7.7243e-05	6.545e-05	668.98	2.9209e-06	8.4522e-06	352.51	247.04	4.4118e-06	9.0382e-06	135.72	51.308	96.145	50.373	3.5217e-06	26.544	0.002211	0.0027431	0.00077491	666.97	2.973e-05	3.0766e-05	368.08	247.89	2.9611e-05	3.0605e-05	146.75	55.38	97.405	50.854	2.9904e-05	28.133	140.510	52.729	7.295	-71.170	-14.704	91.073	-73.389	-65.586	134.227	152.266	-69.402	-65.648	-61.155	-57.752	78.209	-62.771	-8191	255	
35566.016	1	1	0	0	0.32178	0.20561	0.24443	0.23829	0.36651	0.21106	0.13456	0.28477	0.12467	0.1156	0.16973	0.13504	0.070487	0.16459	0.30517	0.31748	-0.52083	-1.3771	-0.41458	-1.4333	-1.0604	-0.51667	-1.6833	-0.79792	-0.87917	-1.3667	-0.45625	-1.2125	-1.3479	-0.49375	-1.4354	-0.76458	251.037	197.736	184.731	216.597	-53.945	178.542	166.147	201.503	64.669	-37.223	188.940	85.338	171.816	203.465	112.003	-80.408	0.00012728	0.00062296	5.8322e-06	665.55	2.2462e-07	6.7894e-06	352.08	245.83	3.2662e-06	5.2002e-06	133.43	51.584	95.217	50.542	9.6484e-06	26.691	0.0022358	0.0027765	0.0007821	662.94	2.9329e-05	3.0681e-05	366.33	246.82	2.9764e-05	3.0904e-05	145.77	55.421	97.145	50.748	2.9824e-05	28.273	221.531	-1.276	218.797	-71.279	206.563	94.178	-73.524	-65.822	-41.741	50.666	-69.396	-65.862	-61.953	-57.668	24.689	-63.174	-8191	255	
35566.137	1	1	0	0	0.029729	0.20447	0.11984	0.18471	0.32182	0.3292	0.18954	0.21111	0.17725	0.23574	0.2059	0.25075	0.30116	0.45179	0.15834	0.23083	-0.50417	-1.2667	-0.32917	-1.2667	-1.2313	-0.49583	-1.4875	-0.91667	-0.61667	-1.4521	-0.56875	-1.0292	-1.3146	-0.62083	-1.3937	-0.8875	176.613	264.153	-70.390	-81.204	80.842	58.194	268.109	175.102	101.104	253.203	67.719	-34.712	211.721	-73.919	-46.944	153.114	0.00012748	0.0011304	0.00019952	662.51	3.8172e-06	5.1607e-06	353.39	246.48	2.7915e-06	3.3666e-06	134.33	51.913	94.918	50.864	1.6727e-06	27.126	0.0022177	0.0027646	0.00077869	662.09	2.9376e-05	3.0417e-05	369.45	247.18	2.9406e-05	3.0413e-05	146.77	55.644	97.373	51.044	2.9871e-05	28.396	150.200	-54.292	270.625	-71.346	93.217	1.987	-73.332	-65.983	125.068	63.296	-69.893	-65.953	-61.570	-58.557	-4.047	-64.060	-8191	255	
35566.211	1	1	0	0	0.13795	0.11996	0.10095	0.14792	0.16354	0.15281	0.07741	0.27219	0.19067	0.24564	0.2684	0.036853	0.04862	0.22931	0.065142	0.23933	-0.089583	-1.2854	-0.54167	-1.0375	-1.2979	-0.55	-1.3271	-1.0667	-0.55625	-1.3458	-0.48125	-0.90208	-1.3833	-0.42708	-1.2375	-1.1542	-38.646	-27.759	94.589	216.527	9.405	210.739	194.261	209.520	188.887	96.815	93.869	54.950	128.127	207.783	16.578	-9.171	5.0472e-05	0.00045845	6.4897e-05	666.4	9.4654e-06	6.4914e-06	356.21	247.8	6.981e-06	7.759e-06	136.8	51.971	95.677	50.812	4.8099e-06	26.916	0.0022125	0.0027514	0.00076765	663.42	2.9522e-05	3.0553e-05	371.11	247.96	2.9147e-05	3.0027e-05	147.67	55.879	97.743	51.107	3.0298e-05	28.476	271.814	156.102	164.271	-72.615	107.044	-37.818	-74.655	-66.817	12.467	136.392	-70.421	-66.504	-62.576	-58.597	148.709	-63.770	-8191	255	
35566.328	1	1	0	0	0.19271	0.16976	0.11282	0.17439	0.1765	0.10641	0.050137	0.15201	0.043655	0.22181	0.28875	0.11684	0.44677	0.29857	0.14668	0.017972	-0.025	-1.4813	-0.7125	-0.89583	-1.4062	-0.425	-1.2958	-1.2458	-0.63333	-1.3646	-0.66458	-0.75208	-1.4229	-0.46042	-1.0708	-1.1792	58.774	103.384	81.204	238.654	-57.434	-2.119	156.998	-67.080	74.240	76.434	248.361	204.430	267.821	-41.249	144.181	-81.803	0.00011037	0.0004784	0.00015682	668.13	2.8314e-06	4.5088e-06	352.75	245.58	3.4408e-06	6.4344e-06	133.71	51.128	95.153	50.077	2.8208e-06	26.548	0.0022305	0.0027802	0.00077861	665.56	2.9621e-05	3.1007e-05	367.8	246.95	2.9645e-05	3.125e-05	146.04	55.18	97.167	50.696	3.0505e-05	28.173	215.087	256.811	66.978	-72.277	173.759	-26.300	-74.186	-66.525	62.004	-34.123	-70.139	-66.658	-62.335	-58.827	73.529	-63.658	-8191	255	
35566.426	1	1	0	0	0.068085	0.37442	0.10756	0.092838	0.06567	0.19485	0.2766	0.11709	0.063069	0.15643	0.060733	0.18685	0.16339	0.19027	0.12875	0.2282	-0.022917	-1.3563	-0.79167	-0.79375	-1.3417	-0.49167	-1.0667	-1.2646	-0.5	-1.4646	-0.89792	-0.39583	-1.5292	-0.52917	-1.0125	-1.2333	243.844	203.760	-61.037	224.525	148.190	204.663	217.515	256.473	-22.702	-70.764	24.078	19.169	-26.546	-62.387	-21.284	90.858	8.1807e-05	0.0016607	0.00028221	661.03	3.242e-06	3.1221e-06	351.86	244.26	4.329e-06	1.4578e-05	133.94	51.75	95.28	50.379	2.5449e-06	26.893	0.0022576	0.0027909	0.00078369	660.43	2.9518e-05	3.1076e-05	367.32	246.01	2.9943e-05	3.1264e-05	145.72	55.383	97.004	50.792	3.0422e-05	28.193	207.581	-8.368	-17.882	-72.118	36.551	31.048	-73.772	-66.568	149.588	31.720	-69.826	-66.778	-62.058	-58.419	48.246	-63.437	-8191	255	
35566.523	1	1	0	0	0.1143	0.047578	0.16185	0.39394	0.10464	0.1092	0.11145	0.16741	0.071771	0.097785	0.33566	0.3224	0.1859	0.30064	0.2367	0.14777	0.0875	-1.3042	-0.96667	-0.52917	-1.3354	-0.85208	-0.75	-1.3896	-0.36458	-1.1958	-1.0208	-0.65833	-1.4688	-0.68333	-0.74375	-1.3792	135.057	12.413	90.716	266.554	213.748	148.298	25.323	-44.171	106.545	157.860	-24.375	-14.980	221.531	192.339	63.136	252.463	8.996e-05	0.0003626	0.00013062	663.18	6.2585e-06	7.5581e-06	353.86	245.21	6.0588e-07	4.9887e-06	135.81	51.153	95.059	50.632	3.4547e-06	26.957	0.0022192	0.002801	0.00077185	659.77	2.9603e-05	3.102e-05	367.12	246.53	2.9719e-05	3.119e-05	146.54	55.31	97.31	50.99	3.0215e-05	28.35	192.682	23.105	76.110	-71.701	100.466	235.642	-73.882	-66.573	63.182	66.567	-70.381	-66.372	-62.353	-58.541	36.438	-63.256	-8191	255	
35566.617	1	1	0	0	0.33121	0.20469	0.097717	0.18635	0.12773	0.27392	0.11273	0.36812	0.26005	0.074844	0.10138	0.16262	0.13255	0.21383	0.083147	0.014812	0.0020833	-1.0979	-1.0812	-0.48125	-1.3167	-0.7875	-0.70625	-1.5083	-0.62917	-0.84583	-1.1812	-0.52292	-1.1604	-0.7125	-0.55625	-1.4271	-24.997	254.163	267.650	236.293	227.978	143.613	22.348	251.604	208.365	161.053	-28.581	-66.785	230.329	217.809	165.402	-12.595	7.1654e-05	0.00059045	0.00021869	661.97	5.1355e-06	1.9307e-06	353.66	244.88	4.2594e-06	7.18e-06	135.76	51.563	95.765	50.581	5.3414e-06	26.98	0.002249	0.0028008	0.00078038	661.61	2.9584e-05	3.1082e-05	369.13	246.36	2.9626e-05	3.0945e-05	146.56	55.545	97.404	50.919	3.0356e-05	28.481	185.199	44.987	-51.433	-71.711	53.492	134.458	-74.090	-66.483	106.633	94.966	-70.105	-66.174	-61.756	-58.508	45.244	-63.016	-8191	255	
35566.738	1	1	0	0	0.23035	0.10036	0.21153	0.18292	0.15523	0.2829	0.17259	0.10897	0.07491	0.14942	0.23317	0.15702	0.18514	0.025623	0.18916	0.10899	-0.18125	-0.93125	-1.1542	-0.575	-1.1167	-0.97083	-0.55208	-1.4854	-0.5625	-0.83542	-1.2542	-0.46042	-1.3687	-1.0812	-0.36042	-1.35	132.319	104.128	127.565	246.491	-52.329	166.779	38.080	213.337	168.378	-77.986	36.552	18.851	243.785	66.880	73.005	76.796	3.278e-05	0.00073935	0.00035573	665.76	2.4702e-06	1.2192e-05	350.95	245.42	4.0615e-06	4.9756e-06	135.67	51.657	95.52	50.538	3.0317e-06	26.859	0.0022751	0.0028266	0.00077308	661.69	2.9911e-05	3.1159e-05	368.09	246.98	3.0092e-05	3.1616e-05	147.43	55.561	97.491	50.996	3.0223e-05	28.349	201.996	226.678	-45.111	-71.926	-14.000	-20.516	-74.042	-66.321	204.950	-50.731	-69.638	-66.859	-62.075	-58.091	249.948	-63.044	-8191	255	
35566.809	1	1	0	0	0.19903	0.14693	0.27352	0.12112	0.070863	0.30317	0.15512	0.11048	0.07793	0.3626	0.17463	0.041577	0.35774	0.43238	0.14434	0.5221	-0.40625	-0.9625	-1.3312	-0.56458	-1.2979	-1.1313	-0.54375	-1.4292	-0.76875	-0.71875	-1.3646	-0.5625	-1.3146	-1.1042	-0.49583	-1.4646	236.141	153.136	227.583	182.812	170.261	107.760	102.824	140.397	-10.674	228.868	-69.391	142.877	210.912	214.612	222.607	-25.974	8.7344e-06	0.0011727	0.00030006	663.37	4.3451e-06	4.2077e-06	350.25	246.3	7.3976e-06	3.9004e-06	135.64	51.011	95.431	50.823	2.2896e-06	26.744	0.0022778	0.0028482	0.00077786	661.93	3.0185e-05	3.1316e-05	366.29	247.19	2.9668e-05	3.0881e-05	146.09	55.05	97.41	51.117	2.9869e-05	28.355	80.816	-23.734	38.736	-71.712	22.964	64.441	-73.766	-66.412	78.491	-68.164	-70.294	-66.380	-62.089	-58.763	244.980	-63.877	-8191	255	
35566.906	1	1	0	0	0.09302	0.26003	0.16745	0.087361	0.10842	0.14904	0.31009	0.040352	0.1194	0.19673	0.11223	0.18787	0.43839	0.42085	0.075409	0.26177	-0.27292	-0.57083	-1.4375	-0.75417	-1.0438	-1.2146	-0.40208	-1.4729	-0.71458	-0.56458	-1.2646	-0.5625	-1.1063	-1.3771	-0.4	-1.2896	1.559	228.286	-6.563	245.249	131.603	90.067	-76.632	-73.311	-63.873	17.422	196.503	68.577	261.634	200.563	180.486	233.320	8.6815e-05	0.0012762	2.7998e-05	663.82	3.4603e-06	6.5302e-06	351.22	246.54	2.5392e-06	4.6679e-06	134.6	51.081	95.32	50.777	3.4807e-06	26.942	0.0022367	0.0027631	0.00076024	661.3	2.9132e-05	3.0115e-05	365.91	246.46	2.9017e-05	3.0022e-05	145.55	55.032	97.272	51.03	2.8887e-05	28.41	185.459	-72.735	-27.159	-72.306	-17.109	52.793	-74.349	-66.446	217.248	-10.344	-70.038	-66.666	-61.865	-58.137	111.761	-63.566	-8191	255	
35567.004	1	1	0	0	0.19258	0.21895	0.06964	0.12371	0.011871	0.30522	0.12603	0.037366	0.12167	0.36883	0.10365	0.071175	0.22541	0.38987	0.074582	0.1256	-0.56875	-0.47292	-1.3396	-0.68542	-1.1146	-1.1604	-0.47292	-1.4167	-0.85625	-0.62708	-1.3417	-0.67292	-0.9	-1.4875	-0.43958	-1.3833	9.509	23.826	101.917	-60.726	190.124	-45.458	-0.718	214.169	-5.590	-16.584	88.764	90.777	-69.721	252.109	238.164	246.941	0.00012129	0.0010711	5.5871e-05	665.11	4.4736e-06	6.8032e-06	352.76	247.1	4.3581e-06	5.7222e-06	134.91	51.676	95.682	50.879	8.8149e-06	27.205	0.0021565	0.0026585	0.00073028	660.96	2.803e-05	2.8919e-05	367.1	246.86	2.7994e-05	2.8927e-05	145.85	55.293	97.198	51.033	2.8579e-05	28.411	229.587	20.547	132.696	-71.788	126.986	218.567	-73.903	-65.832	156.573	173.550	-69.999	-66.778	-62.280	-57.928	133.939	-63.617	-8191	255	
35567.121	1	1	0	0	0.081267	0.28864	0.22962	0.13826	0.19205	0.20553	0.35912	0.16303	0.087567	0.07254	0.082619	0.22758	0.16025	0.28182	0.20338	0.39447	-0.72292	-0.38125	-1.3271	-0.88542	-0.8625	-1.3479	-0.59167	-1.2542	-1.2125	-0.53333	-1.4458	-0.89583	-0.5375	-1.5396	-0.64167	-1.0521	258.763	139.759	200.723	-19.891	167.074	-68.624	237.806	-24.006	169.172	-25.351	-69.843	171.942	-79.240	201.210	137.259	226.651	7.1238e-05	0.0005448	0.00011026	665.57	6.9508e-06	3.1387e-06	355.59	247.09	3.4165e-06	6.2484e-06	135.97	51.871	95.603	51.297	3.7196e-06	27.434	0.0021329	0.0026138	0.00073185	662.58	2.7726e-05	2.9068e-05	369.78	247.46	2.8108e-05	2.8956e-05	147.03	55.532	97.875	51.404	2.8221e-05	28.678	172.682	26.020	113.131	-71.836	41.825	162.298	-73.633	-66.306	212.934	137.832	-70.178	-66.349	-62.206	-58.611	95.651	-63.385	-8191	255	
35567.219	1	1	0	0	0.0087777	0.054099	0.11765	0.22485	0.069881	0.26821	0.046852	0.26542	0.097427	0.10746	0.064182	0.090403	0.20466	0.26235	0.16149	0.098158	-0.81458	-0.5875	-1.15	-0.8375	-0.61042	-1.5021	-0.45417	-0.92708	-1.3167	-0.39583	-1.2042	-0.73958	-0.58333	-1.5583	-0.80833	-1.0562	185.188	252.707	13.511	239.182	122.651	-24.992	146.192	201.088	232.799	9.380	112.387	211.046	-71.216	175.829	97.918	200.049	0.00013164	0.00087828	0.00030687	671.72	4.2387e-06	6.6101e-06	359.43	250.2	3.1662e-06	5.7237e-06	137.51	51.974	96.556	51.208	1.0724e-05	27.149	0.0021254	0.0025956	0.00073448	666.96	2.7933e-05	2.9291e-05	372.42	249.1	2.7917e-05	2.9278e-05	147.91	55.74	98.163	51.469	2.9361e-05	28.641	222.053	-26.153	-19.037	-72.265	50.312	5.755	-74.095	-66.260	148.874	2.623	-70.240	-66.484	-62.009	-57.986	106.944	-62.992	-8191	255	
35567.312	1	1	0	0	0.088903	0.12937	0.23396	0.32356	0.076555	0.28329	0.068962	0.047981	0.086919	0.10854	0.24157	0.15504	0.2631	0.17976	0.037545	0.24888	-0.92083	-0.55625	-1.2521	-1.0958	-0.61667	-1.4396	-0.9125	-0.94167	-1.2062	-0.76458	-1.2271	-1.2542	-0.54792	-1.4271	-0.76042	-1	-50.331	206.982	211.638	165.902	160.495	123.305	181.479	187.238	224.646	147.719	163.919	-42.403	210.484	-73.837	-52.863	120.559	0.00010098	0.00029876	7.6107e-05	668.96	6.0155e-06	7.3313e-06	356.77	247.54	6.7325e-06	6.0004e-06	135.92	51.828	96.665	51.074	1.6512e-06	27.302	0.0021484	0.0026627	0.00074582	665.43	2.8671e-05	2.9481e-05	370.34	248.22	2.8379e-05	3.0002e-05	146.77	55.626	98.182	51.337	2.9925e-05	28.646	204.304	71.362	-58.172	-71.778	186.008	257.964	-73.769	-66.171	13.888	128.204	-70.942	-67.174	-62.849	-58.772	73.638	-63.894	-8191	255	
35567.410	1	1	0	0	0.31182	0.11881	0.34585	0.30667	0.15763	0.10892	0.13229	0.084101	0.18893	0.090482	0.23274	0.20234	0.17212	0.2698	0.21836	0.079501	-1.0167	-0.71042	-1.0042	-1.1542	-0.29167	-1.6646	-0.90833	-0.84583	-1.3646	-0.57292	-0.88333	-1.4021	-0.47708	-1.3062	-1.0125	-0.84167	38.594	245.666	265.284	175.605	96.370	30.839	162.189	-53.938	256.349	161.823	119.536	167.265	-38.500	-56.765	66.037	217.014	9.0989e-05	0.00082217	7.7839e-05	665.43	5.619e-06	4.6226e-06	355.71	247.36	9.5427e-06	3.3474e-06	137.3	52.053	96.131	51.128	8.1457e-06	27.218	0.0021669	0.0027218	0.00075633	663.63	2.8899e-05	2.996e-05	369.94	247.79	2.8687e-05	3.0089e-05	147.49	55.637	97.837	51.328	2.9354e-05	28.631	180.259	37.030	251.970	-72.893	75.406	272.060	-74.962	-67.391	41.973	26.546	-70.960	-67.600	-62.879	-59.404	37.656	-64.290	-8191	255	
35567.504	1	1	0	0	0.30936	0.14639	0.18616	0.21683	0.088265	0.16674	0.25779	0.12617	0.043094	0.18122	0.033678	0.10341	0.11281	0.18059	0.1559	0.10318	-1.0021	-0.62292	-0.9625	-1.2708	-0.39583	-1.3771	-0.7875	-0.79167	-1.2667	-0.5125	-0.99375	-1.1437	-0.45833	-1.2104	-0.9	-0.31042	26.271	28.709	147.964	243.523	254.215	27.788	180.388	192.969	72.601	200.889	49.575	13.909	236.700	240.558	183.826	-9.322	0.00014403	0.00068427	7.5956e-05	666.93	2.2956e-06	8.5573e-06	356.42	247.07	7.3702e-06	6.1851e-06	136.22	51.976	96.393	50.909	2.9889e-06	27.144	0.0021377	0.0026848	0.00075045	664.25	2.8405e-05	2.9425e-05	371.04	248.41	2.8497e-05	2.9584e-05	147.68	55.909	98.229	51.448	2.8825e-05	28.704	204.986	16.234	56.986	-73.509	196.392	132.618	-75.238	-67.801	-38.200	-15.536	-71.240	-66.862	-63.473	-59.103	36.200	-64.034	-8191	255	
35567.602	1	1	0	0	0.23149	0.46086	0.15855	0.016865	0.2987	0.14874	0.14977	0.27009	0.24205	0.13792	0.30607	0.19566	0.1038	0.085284	0.389	0.48814	-0.89167	-0.59583	-0.56042	-1.3167	-0.35208	-1.2375	-1.1771	-0.39375	-1.3125	-0.7	-0.55833	-1.2646	-0.6125	-1.1167	-1.1104	-0.37708	225.592	139.483	-26.322	54.915	-32.375	-63.684	213.523	33.054	258.649	99.137	256.214	192.397	211.048	76.224	185.386	207.922	0.00011345	0.0003311	0.00012256	667.9	2.5188e-06	9.104e-06	360.56	248.68	1.0686e-06	1.0144e-05	136.74	52.544	96.187	51.111	2.6115e-06	27.39	0.0021425	0.002655	0.00073951	666.4	2.8365e-05	2.9424e-05	373.99	249.12	2.8487e-05	2.9373e-05	148.47	56.229	98.024	51.645	2.8603e-05	28.873	190.577	104.123	-74.418	-73.066	90.438	84.230	-74.870	-67.317	273.291	61.707	-71.505	-67.611	-62.871	-59.228	3.606	-64.687	-8191	255	
35567.695	1	1	0	0	0.27547	0.10914	0.25902	0.13774	0.24615	0.02707	0.11254	0.089077	0.076391	0.24308	0.18135	0.1679	0.21354	0.039313	0.13062	0.17496	-1.0396	-0.55	-0.48333	-1.6375	-0.52917	-1	-1.225	-0.82292	-1.45	-1.0125	-0.52083	-1.4417	-0.88125	-1.1167	-1.2271	-0.40208	251.114	183.116	254.081	174.927	128.979	9.463	260.969	-48.302	30.056	144.812	-6.701	-66.091	79.277	89.748	261.312	74.013	5.2906e-05	8.525e-05	0.00027486	671.58	7.6516e-06	8.2434e-06	360.04	248.67	2.3834e-06	9.0133e-06	137.84	52.161	96.439	51.01	5.1022e-06	27.205	0.0021306	0.0026584	0.0007416	668.32	2.8219e-05	2.9501e-05	373.09	249.12	2.8556e-05	2.9926e-05	147.88	55.935	98.165	51.471	2.8921e-05	28.631	271.930	209.115	49.828	-73.326	115.978	205.711	-75.082	-67.496	0.605	225.439	-71.053	-67.396	-63.490	-59.475	-41.325	-64.046	-8191	255	
35567.816	1	1	0	0	0.1337	0.06212	0.076604	0.12509	0.073665	0.20748	0.19748	0.26014	0.2377	0.20116	0.096883	0.25193	0.18185	0.11772	0.056563	0.045442	-0.62917	-0.80833	-0.34167	-1.4333	-0.55833	-0.63125	-1.325	-0.40208	-1.1458	-0.99583	-0.42292	-1.1479	-0.65625	-0.58958	-1.2417	-0.30833	155.163	136.706	-50.010	188.313	-74.336	173.109	110.962	206.695	-3.977	-59.543	76.249	252.579	-73.380	187.480	224.894	117.193	9.5004e-05	0.00042562	0.0002596	664.65	1.9147e-06	4.7184e-06	358.62	246.37	3.8352e-06	2.2021e-06	135.67	51.975	95.616	51.031	1.8042e-06	27.133	0.002168	0.0026837	0.00074527	665.68	2.8426e-05	2.9821e-05	370.93	247.45	2.8569e-05	2.9564e-05	147.01	55.652	97.517	51.369	2.8495e-05	28.51	167.751	11.542	23.006	-73.007	60.790	209.749	-75.248	-67.603	215.037	80.652	-71.140	-67.687	-63.200	-59.082	123.397	-63.889	-8191	255	
35567.914	1	1	0	0	0.036065	0.29209	0.076811	0.10391	0.20014	0.21986	0.17563	0.19499	0.16475	0.28091	0.20974	0.11143	0.1816	0.21508	0.097699	0.12597	-0.42708	-1.0458	-0.27917	-1.4146	-0.78333	-0.8375	-1.5063	-0.41875	-1.1792	-1.2354	-0.3625	-1.4333	-0.7625	-0.57292	-1.5	-0.61458	264.564	77.931	97.981	252.657	60.192	209.571	49.675	214.415	234.098	110.227	110.867	259.730	214.044	236.162	135.965	62.237	5.9268e-05	0.00036745	0.00013106	662.49	3.0204e-06	9.3332e-06	357.84	247.16	2.3375e-06	2.1761e-06	137.34	51.644	95.081	50.887	3.3568e-06	27.033	0.0021828	0.0026665	0.00074186	663.15	2.8439e-05	2.9546e-05	370.09	247.27	2.8266e-05	2.9479e-05	147.11	55.882	97.481	51.178	2.8663e-05	28.55	250.182	-6.288	69.343	-72.892	108.205	86.083	-75.198	-67.409	65.541	94.287	-71.325	-67.439	-63.058	-59.139	15.726	-64.418	-8191	255	
35568.012	1	1	0	0	0.21968	0.32192	0.14084	0.24673	0.26697	0.1571	0.12849	0.28154	0.14955	0.35753	0.14431	0.10843	0.19717	0.20349	0.15962	0.29958	-0.45417	-1.3687	-0.30833	-1.25	-0.70625	-0.63333	-1.4125	-0.59792	-0.81667	-1.3438	-0.52083	-1.2083	-1.1208	-0.3875	-1.3146	-0.68333	190.726	115.863	74.197	271.611	-5.221	-81.218	-31.190	252.608	-2.926	211.024	273.310	237.281	214.663	206.484	137.010	126.633	0.0001098	0.00062179	0.0001105	665.73	1.4039e-06	3.3811e-06	356.58	246.49	4.6621e-06	3.5522e-06	138.55	51.972	95.17	50.949	6.8586e-06	27.372	0.0021545	0.0026483	0.00073962	662.29	2.8354e-05	2.9372e-05	370.72	247.55	2.8309e-05	2.9392e-05	147.59	55.881	97.564	51.079	2.8547e-05	28.676	208.488	257.668	-64.055	-72.765	47.351	5.287	-75.152	-67.430	7.280	42.561	-71.223	-67.117	-63.124	-59.428	66.468	-64.470	-8191	255	
35568.105	1	1	0	0	0.30779	0.12043	0.22761	0.21001	0.23321	0.058324	0.14872	0.20463	0.10822	0.14919	0.16278	0.20383	0.068151	0.23755	0.10468	0.35913	-0.36042	-1.3479	-0.34792	-1.2021	-0.99792	-0.43125	-1.3521	-0.68333	-0.50208	-1.4104	-0.68125	-0.97917	-0.95417	-0.54375	-1.3958	-0.78958	138.165	112.649	-8.577	197.455	235.602	243.075	251.904	174.094	244.972	12.434	17.515	-39.396	210.986	-13.923	137.338	-37.750	3.0608e-05	0.00098633	0.00016352	667.09	4.1086e-06	1.1303e-05	358.15	245.94	7.9164e-06	7.5349e-06	136.96	52.372	95.731	50.551	4.5193e-06	26.999	0.0021504	0.0026324	0.00074152	663.98	2.8166e-05	2.9252e-05	371.94	247.28	2.8473e-05	2.9149e-05	147.58	55.857	97.582	50.879	2.904e-05	28.523	101.735	248.278	-47.899	-73.044	126.584	88.881	-75.414	-67.386	-20.963	111.831	-70.880	-67.092	-63.517	-59.379	32.630	-64.627	-8191	255	
35568.199	1	1	0	0	0.34618	0.21104	0.13983	0.34698	0.19761	0.4292	0.1368	0.18469	0.11269	0.12127	0.33672	0.15633	0.26702	0.1756	0.015762	0.04832	-0.10417	-1.3479	-0.40833	-1.1083	-1.0083	-0.45417	-1.4521	-0.69375	-0.39375	-1.3917	-0.575	-0.7625	-1.225	-0.45208	-1.2875	-0.87708	-13.616	263.681	201.540	211.426	47.519	-84.408	244.828	19.091	-34.305	-29.381	209.868	-44.326	270.740	-57.687	-57.821	123.950	7.3665e-05	0.00023742	5.7824e-05	667.09	6.9571e-06	9.0036e-06	355.41	245.92	5.1451e-06	8.603e-06	134.28	51.939	95.598	50.561	3.3727e-06	26.822	0.0021386	0.0026679	0.00074755	663.23	2.8122e-05	2.9496e-05	368.25	246.78	2.8378e-05	2.9294e-05	145.98	55.301	97.254	50.886	2.8698e-05	28.279	195.515	110.578	-67.113	-72.767	117.272	80.303	-75.200	-67.568	7.277	95.963	-71.387	-67.724	-63.255	-59.523	126.561	-64.245	-8191	255	
35568.297	1	1	0	0	0.12454	0.29354	0.27372	0.27584	0.15423	0.16828	0.13155	0.07667	0.2486	0.19318	0.074437	0.19926	0.13853	0.13727	0.23982	0.14206	-0.016667	-1.1458	-0.58333	-0.86458	-1.2083	-0.44167	-1.3229	-0.91042	-0.39375	-1.4688	-0.88333	-0.81875	-1.4188	-0.6125	-1.0833	-1.1229	69.325	77.886	-29.158	-84.536	-40.183	156.372	70.289	168.911	13.239	-17.654	238.067	-17.251	244.517	257.008	-65.383	172.243	5.0743e-05	0.00072788	0.00016551	662.4	1.9891e-06	6.8079e-06	352.59	245.88	1.6776e-06	6.731e-07	136.28	51.792	95.182	50.683	4.8114e-06	27.002	0.0020808	0.0025977	0.000738	660.83	2.794e-05	2.8983e-05	367.79	245.74	2.7682e-05	2.8902e-05	146.38	55.357	97.148	50.964	2.8636e-05	28.479	172.827	-38.169	269.308	-72.941	85.914	58.604	-74.666	-67.443	4.594	-19.129	-70.922	-67.234	-63.339	-59.581	213.962	-64.193	-8191	255	
35568.418	1	1	0	0	0.20391	0.21985	0.49576	0.24916	0.115	0.20279	0.11444	0.22724	0.32965	0.12559	0.29023	0.1872	0.10489	0.060772	0.10638	0.14544	-0.225	-1.3521	-0.85	-0.80208	-1.4562	-0.47708	-1.1771	-1.1938	-0.3375	-1.3604	-0.74792	-0.62292	-1.6167	-0.65208	-1.0125	-1.2333	270.623	-1.255	-77.830	147.218	173.689	229.749	-80.472	190.977	199.830	2.244	62.494	240.163	184.951	201.498	55.958	-59.163	0.00012179	0.00083592	0.00015229	664.93	4.1093e-06	2.6888e-06	354.19	246.68	7.7701e-06	1.0852e-05	135.51	52.258	95.728	50.98	8.9464e-06	27.514	0.0020883	0.002623	0.0007263	660.9	2.7716e-05	2.896e-05	369.09	247	2.776e-05	2.881e-05	146.29	55.769	97.661	51.269	2.8449e-05	28.677	158.520	255.709	57.884	-72.679	-41.680	81.999	-74.847	-67.177	18.372	66.765	-71.093	-67.196	-63.136	-59.231	21.801	-64.513	-8191	255	
35568.516	1	1	0	0	0.20141	0.04219	0.2381	0.18337	0.17239	0.15432	0.085477	0.10322	0.040018	0.071543	0.023574	0.098848	0.11311	0.082998	0.26595	0.091928	0.0020833	-1.1979	-0.67292	-0.5375	-1.4708	-0.52292	-1.0542	-1.3396	-0.33125	-1.45	-1.0458	-0.57083	-1.5354	-0.46042	-0.96875	-1.3042	266.667	58.680	72.927	259.315	-73.183	138.824	124.499	172.455	46.468	-71.104	-57.676	126.799	182.028	35.456	98.479	200.391	7.2092e-05	0.00054096	0.00026368	667.96	2.3702e-06	3.5705e-06	356.1	247.6	4.9223e-06	7.9913e-06	137.11	52.592	96.068	51.03	6.6033e-06	27.402	0.0020994	0.0026483	0.0007212	663.57	2.7817e-05	2.8978e-05	371.41	247.76	2.8072e-05	2.9029e-05	147.56	56.037	97.946	51.431	2.8606e-05	28.849	242.576	-9.433	-48.987	-72.814	60.365	-14.831	-74.850	-67.526	231.937	14.478	-71.330	-67.225	-62.850	-59.273	-4.441	-64.229	-8191	255	
35568.609	1	1	0	0	0.031296	0.095911	0.19256	0.21794	0.068775	0.19013	0.048772	0.19749	0.043968	0.03287	0.072816	0.23907	0.072804	0.31598	0.21104	0.19874	0.0375	-1.1104	-1.0146	-0.61875	-1.625	-0.57708	-0.63125	-1.4813	-0.475	-0.97292	-0.91875	-0.32917	-1.3771	-0.82917	-0.5875	-1.3625	107.999	-65.144	209.249	-53.889	4.493	125.842	-0.496	183.828	-14.890	53.177	8.128	247.011	229.304	199.302	-60.314	90.946	0.00016299	0.00057703	0.00015228	666.6	2.0369e-06	1.0899e-05	357.52	247.23	2.1275e-06	6.4802e-06	136.84	52.09	96.404	50.963	6.056e-06	27.444	0.0021209	0.002615	0.0007331	665.78	2.8056e-05	2.9071e-05	372.8	247.86	2.7907e-05	2.9411e-05	147.31	55.891	98.056	51.346	2.8647e-05	28.777	185.821	18.228	-54.761	-73.141	-40.190	94.911	-74.505	-67.610	201.914	218.957	-70.728	-67.298	-63.096	-59.258	102.656	-63.971	-8191	255	
35568.707	1	1	0	0	0.077635	0.087711	0.2711	0.22872	0.27107	0.050488	0.18915	0.24199	0.034167	0.13463	0.22634	0.088655	0.22742	0.28033	0.13794	0.13173	-0.10833	-1.1417	-1.0854	-0.65417	-1.3417	-0.86042	-0.33125	-1.4438	-0.41042	-1.1292	-1.2979	-0.37292	-1.2667	-1.0854	-0.51667	-1.3563	165.612	267.389	31.236	-79.085	97.514	88.241	-29.875	-2.358	183.687	-44.314	111.116	167.092	-37.518	253.720	214.760	68.678	0.00012358	0.00074128	9.1344e-05	669.96	5.0215e-06	1.4827e-05	358.21	248.45	3.8009e-06	1.1935e-05	135.67	51.617	95.395	51.131	7.8608e-06	27.263	0.0021031	0.0026253	0.00073567	664.06	2.8031e-05	2.8927e-05	370.78	248.26	2.7957e-05	2.9023e-05	146.91	55.553	97.527	51.397	2.802e-05	28.73	192.359	-35.139	65.400	-72.740	-55.007	64.955	-75.119	-67.519	73.880	174.192	-70.934	-67.301	-63.321	-59.299	67.887	-64.326	-8191	255	
35568.801	1	1	0	0	0.15441	0.25239	0.26232	0.25215	0.20387	0.29613	0.14447	0.43293	0.13509	0.090214	0.22808	0.15787	0.22647	0.057748	0.31393	0.2346	-0.19167	-0.83125	-1.05	-0.79375	-1.1271	-1.0229	-0.54583	-1.6542	-0.6625	-0.84375	-1.5208	-0.4125	-1.2313	-1.1354	-0.71667	-1.3354	140.677	195.928	243.338	233.851	189.760	185.809	102.349	218.576	125.581	-23.927	-11.773	-53.243	167.389	-40.777	-24.128	-57.701	6.9401e-05	0.00043118	9.7869e-05	662.33	2.4525e-06	5.657e-06	358.7	246.2	7.6591e-06	5.8001e-06	137.83	51.821	96.458	51.366	7.2399e-06	27.343	0.0021197	0.0026094	0.00072722	662.39	2.7931e-05	2.8734e-05	370.94	247.44	2.7388e-05	2.8827e-05	146.93	55.796	98.037	51.46	2.8463e-05	28.762	248.479	-33.947	223.375	-72.619	91.961	67.377	-74.033	-67.563	106.622	156.476	-71.234	-68.064	-62.875	-59.442	144.296	-64.201	-8191	255	
35568.898	1	1	0	0	0.13871	0.053124	0.22065	0.24754	0.032161	0.19665	0.14937	0.11466	0.015011	0.033869	0.20246	0.22949	0.34772	0.24136	0.030829	0.16055	-0.35	-0.67292	-1.1271	-0.36667	-1.1938	-1.3604	-0.54167	-1.5187	-0.68125	-0.74375	-1.3896	-0.45833	-1.2458	-1.2146	-0.40625	-1.2979	68.661	18.084	54.352	262.274	72.693	103.701	93.751	69.905	-48.463	255.372	-19.492	234.086	-81.736	199.993	-64.332	220.875	9.8218e-05	0.00067917	0.00014294	661.98	2.1654e-06	5.9866e-06	358.19	247.45	8.8353e-06	1.7171e-06	137.34	52.287	95.949	51.42	6.062e-06	27.543	0.0020882	0.0026153	0.00072053	662.33	2.7844e-05	2.906e-05	371.2	247.47	2.7718e-05	2.8931e-05	147.78	56.077	98.137	51.644	2.811e-05	29.003	186.333	81.672	193.127	-72.515	87.453	93.896	-74.707	-66.983	56.034	43.820	-70.789	-67.366	-62.908	-59.184	35.497	-64.450	-8191	255	
35568.992	1	1	0	0	0.15837	0.13752	0.18611	0.25009	0.20232	0.089711	0.27807	0.26224	0.11219	0.12797	0.16782	0.30474	0.11069	0.48198	0.1417	0.16174	-0.36667	-0.5125	-1.3937	-0.57083	-0.79583	-1.0562	-0.37708	-1.3438	-0.82708	-0.66042	-1.5375	-0.62708	-0.89583	-1.2292	-0.42917	-1.3604	233.871	177.745	232.560	-50.773	84.742	10.660	-74.308	217.730	140.707	197.752	-25.614	98.859	252.648	240.831	197.326	217.250	0.00011058	0.00017507	0.00014769	664.17	6.818e-06	1.2699e-05	361.39	247.32	1.8011e-06	5.8443e-07	137.09	53.002	96.357	51.588	5.6916e-06	27.925	0.0020872	0.0025984	0.00071622	663.3	2.7723e-05	2.8507e-05	373.33	248.87	2.7639e-05	2.8909e-05	148.16	56.553	98.222	51.862	2.7925e-05	29.248	207.700	18.222	72.941	-72.768	100.237	121.928	-74.464	-67.051	148.198	212.495	-70.874	-66.818	-62.705	-59.091	95.681	-63.970	-8191	255	
35569.090	1	1	0	0	0.20125	0.22345	0.062199	0.27525	0.19289	0.20695	0.036266	0.20654	0.0037541	0.25839	0.096941	0.16123	0.1952	0.47591	0.2184	0.13279	-0.68542	-0.47292	-1.3854	-0.60833	-0.89583	-1.3833	-0.38542	-1.2667	-1.0125	-0.64167	-1.3813	-0.57292	-0.70208	-1.3937	-0.53125	-1.1667	-74.247	227.158	123.700	166.216	72.564	105.011	229.298	274.178	211.649	9.288	-81.985	28.580	272.297	-77.313	239.379	248.652	0.00015371	0.00087823	0.00025305	665.18	6.7274e-06	7.1374e-06	356.27	246.73	4.9651e-06	8.2232e-07	137.61	52.503	96.043	51.509	2.4253e-06	27.639	0.0021014	0.0025981	0.00072567	665.49	2.7613e-05	2.8733e-05	371.77	248.57	2.7672e-05	2.8779e-05	147.79	56.051	98.109	51.61	2.8533e-05	28.94	250.904	73.699	-61.605	-72.707	105.966	63.092	-74.973	-67.111	114.603	155.868	-70.712	-67.396	-63.047	-59.021	82.741	-63.870	-8191	255	
35569.211	1	1	0	0	0.18582	0.15522	0.19516	0.14343	0.14274	0.36796	0.24893	0.034395	0.11106	0.18786	0.17332	0.30506	0.21374	0.28178	0.10493	0.062055	-0.84167	-0.53958	-1.3292	-0.89583	-0.83542	-1.2792	-0.59167	-1.0625	-1.3125	-0.37292	-1.4604	-0.825	-0.79375	-1.3896	-0.61042	-1.1604	-65.012	-38.261	-49.671	179.907	204.633	210.812	148.597	151.144	249.377	200.958	259.869	160.323	14.494	-84.489	264.282	54.197	7.1738e-05	0.00069928	5.225e-05	667.79	6.0364e-06	4.2203e-06	354.11	246.28	1.483e-06	2.8809e-06	135.7	52.536	96.036	51.502	1.1483e-05	27.499	0.0020914	0.0026158	0.00073064	663.92	2.7739e-05	2.8571e-05	369.52	247.46	2.7536e-05	2.8902e-05	146.55	56.08	97.734	51.61	2.8368e-05	28.867	263.644	-20.471	-21.052	-72.783	36.647	93.797	-74.374	-67.084	-54.095	142.389	-71.020	-66.976	-63.240	-59.285	78.649	-64.547	-8191	255	
35569.305	1	1	0	0	0.28994	0.16165	0.10782	0.03963	0.047576	0.27811	0.13201	0.28282	0.15808	0.080369	0.051537	0.1075	0.21691	0.23582	0.36493	0.27413	-0.80417	-0.46458	-1.0229	-0.90417	-0.5875	-1.4979	-0.57708	-0.8875	-0.97708	-0.50417	-1.2646	-0.86667	-0.63542	-1.4021	-0.60208	-0.90208	130.025	219.599	83.423	58.922	73.233	132.470	149.022	238.773	168.834	57.228	190.820	240.340	72.004	263.716	248.437	203.493	9.359e-05	0.00046352	3.4386e-05	665.67	4.161e-06	5.7833e-06	354.96	246.8	2.612e-06	1.101e-05	137.94	52.206	96.528	51.565	5.2811e-06	27.912	0.0020781	0.0025886	0.00072742	660.95	2.728e-05	2.8468e-05	369.02	247.63	2.7211e-05	2.8725e-05	147.28	55.862	97.902	51.633	2.8244e-05	29.117	233.774	-44.371	53.932	-72.876	43.614	46.169	-74.521	-66.944	52.592	41.351	-70.913	-67.353	-62.976	-59.228	185.410	-64.252	-8191	255	
35569.379	1	1	0	0	0.31036	0.080637	0.25409	0.06847	0.18367	0.063606	0.24043	0.22432	0.20329	0.12008	0.20159	0.069621	0.16992	0.23568	0.11992	0.15717	-0.78333	-0.43125	-0.93333	-1.2354	-0.44792	-1.4875	-0.85417	-0.775	-1.3125	-0.55	-1.0771	-1.075	-0.4	-1.5271	-0.7375	-0.7	206.260	134.655	33.598	265.607	31.334	34.589	148.258	239.523	75.668	-11.952	56.162	119.835	-34.222	-69.696	12.558	90.354	4.4668e-05	0.00050249	0.00030439	666.03	3.1678e-06	1.2118e-05	361.8	247.4	8.8778e-07	3.2008e-06	138.47	52.658	96.627	51.677	4.4646e-07	27.995	0.002066	0.0025857	0.00072093	662.44	2.712e-05	2.857e-05	373.33	247.88	2.7094e-05	2.8227e-05	148.22	56.366	98.31	51.827	2.7965e-05	29.21	256.057	244.342	-23.244	-73.102	130.778	11.793	-74.945	-67.034	240.008	-16.197	-71.295	-67.244	-63.025	-59.129	-69.694	-63.925	-8191	255	
35569.496	1	1	0	0	0.20982	0.084061	0.098172	0.23578	0.22897	0.23521	0.10721	0.13706	0.11769	0.17123	0.28901	0.10167	0.22454	0.069002	0.26172	0.32174	-0.86667	-0.45625	-0.93958	-1.4604	-0.53542	-1.1917	-0.9125	-0.76042	-1.4354	-0.45625	-1.0042	-1.3146	-0.39375	-1.3687	-0.975	-0.6375	108.557	207.165	171.291	-83.688	131.982	248.747	-37.937	171.644	149.145	98.414	257.184	119.020	243.505	109.498	-46.286	-76.115	9.9577e-05	0.00073833	0.00020853	661.81	2.5413e-06	2.7296e-06	362.8	248.54	3.6252e-06	1.0028e-06	137.93	53.412	96.878	51.69	1.0906e-05	27.673	0.0020367	0.0025481	0.00072231	661.69	2.6698e-05	2.8438e-05	374.12	248.74	2.7274e-05	2.8759e-05	149.05	56.635	98.514	51.883	2.7988e-05	29.165	249.308	35.283	82.100	-72.597	59.306	-74.863	-75.012	-67.333	-9.625	185.531	-70.410	-67.252	-62.866	-58.955	105.553	-64.122	-8191	255	
35569.594	1	1	0	0	0.20934	0.097852	0.16906	0.14502	0.23569	0.082041	0.11005	0.17182	0.15027	0.065829	0.32269	0.17287	0.054955	0.049602	0.12396	0.048734	-1.0208	-0.55417	-0.70833	-1.2896	-0.49167	-1.0542	-0.77917	-0.54792	-1.5438	-0.62708	-0.96875	-1.3479	-0.41458	-1.2333	-0.875	-0.4125	4.613	182.652	239.371	-49.172	194.358	-11.161	113.107	-73.660	110.560	48.277	-12.790	-55.674	180.838	39.103	-7.012	249.213	6.4838e-05	0.00032317	0.00015664	669.61	5.6566e-06	6.7595e-06	358.1	248.39	4.6275e-06	9.5626e-06	137.23	52.852	95.735	51.518	7.8551e-06	27.604	0.0020594	0.0026008	0.00072691	664.73	2.7779e-05	2.8641e-05	371.6	248.51	2.7837e-05	2.9509e-05	147.73	56.161	97.915	51.786	2.8571e-05	29.029	202.215	165.370	9.117	-72.601	-23.466	142.867	-75.144	-67.122	229.240	31.666	-70.933	-67.631	-63.154	-59.079	10.129	-64.367	-8191	255	
35569.691	1	1	0	0	0.082476	0.22376	0.098621	0.062782	0.2517	0.10951	0.072921	0.20771	0.34096	0.31321	0.24652	0.11749	0.17274	0.18295	0.1084	0.26576	-0.95417	-0.65208	-0.8625	-1.35	-0.2875	-1.2667	-1.1708	-0.65417	-1.1375	-0.725	-0.64792	-1.2729	-0.53333	-1.1875	-1.2646	-0.43125	-40.406	-50.835	-70.640	-67.232	160.302	-22.516	200.935	-1.742	-55.327	80.724	258.973	253.620	214.197	267.198	112.256	190.983	0.0001198	0.00051934	0.00013582	663.92	8.1665e-06	7.4719e-06	355.78	246.72	3.4105e-06	9.6969e-06	138.51	52.393	96.246	51.527	5.8457e-06	27.696	0.0021114	0.0026304	0.00073202	660.31	2.7882e-05	2.9398e-05	369.93	247.17	2.8056e-05	2.9358e-05	147.76	55.976	97.904	51.753	2.8518e-05	29.082	153.154	-22.490	-12.626	-72.994	170.624	60.906	-74.395	-66.916	133.069	29.417	-70.478	-66.714	-62.598	-59.085	234.638	-63.775	-8191	255	
35569.812	1	1	0	0	0.14158	0.096643	0.24216	0.22264	0.16698	0.11757	0.20875	0.2775	0.14453	0.31933	0.16936	0.048769	0.040805	0.1622	0.20898	0.31646	-1.1167	-0.8875	-0.48542	-1.4583	-0.51667	-0.775	-1.3292	-0.44375	-1.1708	-0.92708	-0.59375	-1.3438	-0.53125	-0.80625	-1.2146	-0.43542	-33.580	134.158	274.309	228.422	238.139	106.535	274.654	174.311	204.678	73.617	235.131	-18.690	-4.610	-84.733	16.465	218.343	9.0295e-05	0.0012876	0.00010441	663	5.5576e-06	4.6465e-06	355.92	247.5	4.3732e-06	7.1039e-06	137.58	52.485	95.615	51.456	9.7748e-06	27.793	0.0021211	0.0026695	0.00073506	661.16	2.8565e-05	2.9736e-05	371.5	247.27	2.8065e-05	2.9375e-05	147.69	56.128	97.743	51.671	2.85e-05	29.091	251.192	-30.352	26.313	-72.704	-73.844	-7.903	-74.948	-66.948	143.913	51.444	-70.403	-67.073	-62.848	-58.840	58.407	-63.847	-8191	255	
35569.906	1	1	0	0	0.020526	0.25101	0.10497	0.30554	0.15475	0.18054	0.028186	0.2718	0.17612	0.16779	0.34438	0.30556	0.034942	0.13392	0.17215	0.16759	-0.84792	-0.8375	-0.25208	-1.3771	-0.60417	-0.69583	-1.2979	-0.53958	-1.1167	-1.1521	-0.42292	-1.3292	-0.9	-0.74167	-1.4104	-0.28542	-28.915	274.191	111.862	229.010	-71.561	-65.104	93.953	-82.007	117.968	33.430	-46.540	242.390	82.659	-41.325	-5.113	-66.414	9.7392e-05	0.00022943	0.00012729	665.07	6.2841e-06	3.846e-06	358.18	247.22	5.1859e-06	3.7791e-06	137.9	52.84	96.523	51.458	9.1031e-06	27.73	0.0021299	0.0026824	0.00074048	661	2.8458e-05	2.9379e-05	371.39	248.23	2.8348e-05	2.949e-05	148.35	56.519	98.245	51.751	2.8798e-05	29.24	216.644	272.590	216.280	-72.587	90.107	34.694	-74.728	-67.064	89.978	76.799	-70.635	-66.614	-62.962	-58.878	104.905	-63.833	-8191	255	
35569.980	1	1	0	0	0.22379	0.1585	0.23065	0.078676	0.20677	0.11453	0.22062	0.1465	0.24636	0.17968	0.32236	0.36319	0.35251	0.14343	0.10451	0.29114	-0.6375	-1.2271	-0.41667	-1.2375	-0.58542	-0.74167	-1.5354	-0.74375	-1.0521	-1.1313	-0.5	-1.3813	-0.67708	-0.6	-1.5396	-0.725	-66.898	112.921	-1.322	-74.722	-84.172	254.130	133.541	225.625	-0.092	-20.602	258.159	-37.013	253.503	242.973	23.900	215.108	8.6408e-05	0.00047064	0.0001197	664.81	1.4745e-06	1.0467e-05	358.05	247.31	4.3498e-06	5.4162e-06	137.36	52.399	95.653	51.133	4.0938e-06	27.393	0.0021312	0.002643	0.00073404	664.16	2.8526e-05	2.9565e-05	373.03	247.89	2.8783e-05	2.9826e-05	148.01	56.227	97.943	51.423	2.8907e-05	28.903	171.630	-43.034	-47.468	-72.504	140.656	44.977	-75.097	-66.780	-42.256	62.687	-71.080	-67.058	-62.506	-59.217	-37.114	-63.838	-8191	255	
35570.098	1	1	0	0	0.075243	0.24808	0.05246	0.10451	0.25624	0.09401	0.1839	0.32883	0.070197	0.15736	0.29841	0.17688	0.32549	0.17849	0.13395	0.014046	-0.58333	-1.2604	-0.30833	-1.3396	-0.72292	-0.47708	-1.3771	-0.60417	-0.81667	-1.3583	-0.45	-1.0979	-0.86458	-0.5875	-1.3375	-0.60625	255.895	15.272	-0.917	2.773	244.869	46.685	106.365	-84.161	161.877	-25.512	87.202	14.341	235.726	244.708	-84.333	-84.886	6.424e-05	0.00039669	5.7844e-05	661.65	4.1444e-06	1.1252e-05	354.98	245.58	6.6261e-06	2.2232e-06	134.2	51.428	95.088	50.795	7.2124e-06	27.251	0.0021621	0.0026121	0.00075051	661.11	2.8626e-05	2.9749e-05	368.5	246.35	2.8507e-05	2.9405e-05	145.96	55.629	96.898	51.067	2.8785e-05	28.583	-74.985	-15.948	183.610	-72.675	157.460	-67.619	-74.944	-67.217	53.811	217.727	-71.015	-67.312	-63.361	-59.233	73.531	-64.379	-8191	255	
35570.195	1	1	0	0	0.077751	0.27843	0.27194	0.27741	0.19008	0.30717	0.24554	0.30365	0.19779	0.3157	0.015614	0.087939	0.18763	0.044251	0.19212	0.072639	-0.3375	-1.3062	-0.48125	-1.1292	-1.0479	-0.54583	-1.4083	-0.85625	-0.61458	-1.4875	-0.475	-1.0625	-1.2563	-0.47917	-1.1583	-0.67292	126.056	60.570	230.932	170.503	141.278	24.100	-24.644	197.271	-38.725	68.658	71.098	43.492	17.861	113.974	183.946	163.654	7.7929e-05	0.00040708	0.00012491	659.29	3.0659e-06	8.3834e-06	357.63	246	3.9279e-06	9.5838e-06	136.51	53.038	95.493	50.843	2.8111e-06	27.272	0.002149	0.0026627	0.00074005	659.21	2.8072e-05	2.9669e-05	369.27	246.26	2.8093e-05	2.9128e-05	147.15	55.989	97.337	51.211	2.8914e-05	28.883	177.239	223.069	-23.696	-72.746	-45.460	231.452	-74.587	-67.086	223.660	64.530	-71.065	-67.277	-63.303	-59.446	17.267	-64.156	-8191	255	
35570.289	1	1	0	0	0.31615	0.097089	0.17963	0.33272	0.11878	0.19633	0.24218	0.12462	0.084163	0.14679	0.22157	0.21328	0.12819	0.21577	0.32033	0.038804	-0.20625	-1.2104	-0.36042	-1.0292	-1.2479	-0.5375	-1.3958	-0.94167	-0.48125	-1.2708	-0.42292	-0.93333	-1.3917	-0.45833	-1.1792	-0.91042	254.997	-17.211	-50.391	238.246	91.868	199.379	261.093	240.006	251.560	229.939	79.682	178.223	186.574	266.599	82.882	191.476	5.9683e-05	0.00016759	0.00032551	663.55	5.9193e-06	7.0407e-06	356.86	246.13	6.0211e-06	8.9629e-07	136.56	52.831	95.9	50.936	3.9435e-06	27.609	0.0021249	0.0026564	0.00073519	660.94	2.8225e-05	2.9526e-05	371.36	246.64	2.8316e-05	2.9353e-05	147.53	56.092	97.918	51.391	2.9045e-05	28.97	210.649	240.746	-27.724	-73.015	-3.703	14.068	-74.747	-67.506	134.239	221.050	-70.549	-67.216	-63.122	-59.134	43.536	-64.259	-8191	255	
35570.387	1	1	0	0	0.046814	0.1462	0.17114	0.17025	0.14836	0.25112	0.04385	0.15457	0.10863	0.156	0.2675	0.1403	0.16002	0.36763	0.2218	0.29554	0.1	-1.2979	-0.65625	-0.87917	-1.1313	-0.48542	-1.0729	-1.1146	-0.45417	-1.2708	-0.77708	-0.80833	-1.3021	-0.46042	-1.1083	-1.2062	57.206	263.232	-42.357	-76.376	91.868	257.571	49.308	166.638	227.332	-24.460	126.472	-84.597	247.848	235.212	233.841	229.520	0.00018881	0.00077047	7.848e-05	662.59	4.1078e-06	3.2622e-06	359.22	246.79	4.2846e-06	3.7635e-06	138.2	52.752	96.826	51.325	3.553e-06	27.896	0.0021692	0.0026782	0.00074799	661.56	2.8729e-05	2.9624e-05	372.62	247.74	2.8799e-05	3.0126e-05	148.62	56.365	98.138	51.459	2.9241e-05	29.252	194.740	146.037	-52.095	-72.662	55.194	110.286	-75.092	-67.501	85.584	111.656	-70.685	-67.601	-63.054	-59.157	195.133	-64.146	-8191	255	
35570.480	1	1	0	0	0.44496	0.22622	0.14141	0.093304	0.27124	0.29431	0.19442	0.26271	0.081463	0.19597	0.092912	0.32029	0.24091	0.36408	0.15562	0.22951	0.1	-1.2125	-0.82083	-0.52292	-1.3854	-0.39375	-0.93125	-1.2125	-0.64583	-1.3813	-0.91042	-0.74167	-1.4958	-0.5875	-0.86458	-1.3646	260.687	154.351	142.245	-33.061	32.157	166.926	2.444	-20.984	-67.020	5.359	-75.081	8.868	272.097	-79.706	21.608	102.410	0.00010531	0.00095224	0.00045874	669.07	5.0588e-06	6.5201e-06	358.44	247.27	1.6384e-06	7.6531e-06	138.57	52.521	96.048	51.278	5.9123e-06	27.602	0.0021826	0.0027042	0.00075226	667.43	2.8702e-05	3.0327e-05	373.43	247.96	2.8624e-05	3.0099e-05	148.7	56.379	97.892	51.554	2.9746e-05	29.167	155.820	0.220	43.729	-72.584	222.727	-59.805	-74.741	-67.159	8.644	174.421	-71.220	-67.309	-63.009	-59.183	88.564	-64.511	-8191	255	
35570.602	1	1	0	0	0.13621	0.14171	0.089324	0.28593	0.17427	0.057847	0.22438	0.10374	0.16458	0.1245	0.090395	0.35276	0.32326	0.1726	0.1203	0.22412	0.04375	-1.3333	-0.88125	-0.81875	-1.4396	-0.62708	-0.92708	-1.2604	-0.325	-1.1063	-1.0479	-0.4875	-1.5167	-0.71875	-0.62708	-1.4146	91.007	254.638	-64.187	221.648	35.505	207.022	-10.392	182.149	260.917	262.340	-84.324	35.601	-19.592	240.618	270.207	218.626	0.00013896	0.00061559	0.00018551	665.27	8.847e-07	8.1177e-06	357.86	246.21	4.0714e-06	4.279e-06	137.21	52.78	95.959	51.332	3.2004e-06	28.017	0.0021943	0.0027464	0.00076381	662.19	2.8959e-05	3.0185e-05	372.79	247.27	2.9275e-05	3.0743e-05	148.66	56.557	98.179	51.674	3.0263e-05	29.386	203.454	-65.975	176.622	-72.985	-70.755	153.494	-74.987	-67.283	-48.664	13.835	-71.498	-66.619	-62.904	-59.036	40.000	-64.051	-8191	255	
35570.676	1	1	0	0	0.24516	0.26927	0.17403	0.18604	0.17725	0.15662	0.081253	0.17278	0.20588	0.1734	0.07829	0.079188	0.16586	0.40524	0.098079	0.1981	-0.097917	-1.1875	-1.0438	-0.5	-1.3896	-0.55417	-0.875	-1.2917	-0.525	-1.1021	-1.0375	-0.31458	-1.5458	-0.8875	-0.70208	-1.475	212.368	232.483	8.124	-50.625	-83.902	251.419	228.870	240.032	70.654	174.403	-28.580	-24.418	-74.841	250.103	-28.702	-78.609	9.2933e-05	0.00044407	0.00025919	660.07	3.1209e-06	5.5047e-06	355.84	245.33	3.5171e-06	3.7863e-06	138.22	52.964	95.623	50.951	3.3489e-06	27.811	0.0022629	0.0028078	0.00077613	659.6	2.9617e-05	3.1333e-05	372.35	247.17	3.0338e-05	3.1407e-05	149.04	56.768	98.039	51.471	3.0737e-05	29.349	186.273	-10.442	5.247	-72.631	40.226	115.314	-75.193	-67.100	35.228	30.676	-70.781	-66.860	-62.445	-59.179	-24.386	-64.197	-8191	255	
35570.770	1	1	0	0	0.29879	0.10851	0.092834	0.20007	0.29152	0.25522	0.05408	0.14958	0.23068	0.30656	0.13641	0.30808	0.034005	0.37466	0.098134	0.046902	-0.12917	-0.96875	-1.1	-0.34375	-1.0271	-0.82917	-0.625	-1.3438	-0.38958	-0.975	-1.1771	-0.42292	-1.4229	-0.80625	-0.40833	-1.3042	95.623	76.540	116.328	229.567	89.181	-55.315	35.940	-56.395	30.354	97.816	202.956	233.908	63.283	217.563	36.620	-55.678	0.00012742	0.00012519	0.00012088	657.61	6.2364e-06	4.1258e-06	359.48	245.09	1.5803e-06	2.0638e-06	137.21	52.936	95.775	50.668	5.5377e-06	27.677	0.0022932	0.0028735	0.00080003	660.31	3.0544e-05	3.1732e-05	373.02	247.31	3.105e-05	3.2193e-05	149.32	56.798	97.982	51.229	3.1494e-05	29.314	198.054	82.510	-83.215	-72.504	169.120	66.066	-74.621	-67.068	-8.588	271.648	-70.891	-67.093	-62.822	-58.983	-16.964	-63.587	-8191	255	
35570.891	1	1	0	0	0.23533	0.27537	0.20535	0.034851	0.17821	0.14017	0.060682	0.31679	0.30249	0.099489	0.11077	0.16262	0.033033	0.1588	0.17814	0.32735	-0.29792	-0.97917	-1.0646	-0.38333	-1.1979	-0.925	-0.4375	-1.3687	-0.59583	-0.65208	-1.4396	-0.53542	-1.0708	-1.0604	-0.2875	-1.3375	104.784	196.381	65.017	-12.772	-38.343	-11.296	253.733	204.575	107.845	37.752	84.972	-50.074	182.042	-33.182	250.554	265.786	8.0608e-05	0.00021156	5.2052e-05	658.44	2.7716e-07	4.3528e-06	355.4	244.56	5.5257e-06	7.3489e-06	137.61	52.05	94.62	50.436	1.2803e-05	27.424	0.0023518	0.0029348	0.00082485	659.24	3.1421e-05	3.2781e-05	373.87	247.26	3.1646e-05	3.2995e-05	149.52	56.611	97.506	51.155	3.2444e-05	29.143	228.639	-59.960	-70.212	-72.638	155.178	-61.255	-74.812	-67.208	138.485	-27.595	-70.963	-67.342	-62.769	-58.989	16.874	-64.029	-8191	255	
35570.988	1	1	0	0	0.13519	0.15309	0.2135	0.17238	0.35234	0.03407	0.28695	0.15003	0.18318	0.22815	0.11955	0.16313	0.12996	0.091467	0.10511	0.24795	-0.2625	-0.48333	-1.3729	-0.43542	-1.0479	-1.1583	-0.28958	-1.4604	-0.76667	-0.60625	-1.4104	-0.53333	-1.0875	-1.3146	-0.675	-1.1792	99.775	-31.142	-45.504	231.408	-81.951	65.101	-67.236	210.346	-29.548	-1.890	46.691	-26.924	240.018	-63.837	115.687	141.403	9.0009e-05	0.0012761	6.4901e-05	656.19	5.4191e-06	2.6845e-06	350.1	244.52	2.4231e-06	3.7072e-06	135.41	51.948	94.692	50.159	5.3124e-06	27.021	0.0024227	0.003	0.00083338	657.63	3.1901e-05	3.3107e-05	369.1	245.39	3.2217e-05	3.3428e-05	148.07	56.07	97.041	50.719	3.259e-05	28.875	239.188	-39.072	44.502	-72.728	173.581	238.633	-74.713	-67.091	17.571	33.925	-70.770	-67.227	-62.695	-59.126	5.581	-64.053	-8191	255	
35571.082	1	1	0	0	0.14244	0.15807	0.050986	0.34534	0.30342	0.25819	0.058326	0.26583	0.24402	0.26061	0.24286	0.25196	0.46962	0.12446	0.1701	0.20516	-0.25625	-0.42708	-1.4417	-0.70208	-0.97292	-1.1958	-0.4375	-1.4062	-1.1979	-0.63125	-1.4979	-0.65417	-0.74583	-1.3542	-0.37708	-1.2896	-72.163	224.396	-67.179	223.884	239.598	123.252	97.045	229.789	75.614	148.949	119.201	-11.155	264.814	189.122	-8.609	269.982	0.00010279	0.00068264	0.00016509	655.79	3.0121e-06	3.8358e-06	347.16	242.55	3.5861e-06	6.0972e-06	133.07	51.414	94.511	49.942	9.6212e-06	27.32	0.0024079	0.0030095	0.00083577	655.38	3.1994e-05	3.3551e-05	367.89	244.45	3.247e-05	3.3933e-05	147.63	56.15	96.979	50.721	3.3751e-05	29.113	249.804	-49.787	16.449	-72.808	55.544	68.256	-74.391	-67.056	74.615	22.322	-70.815	-67.440	-62.839	-58.886	116.012	-64.090	-8191	255	
35571.180	1	1	0	0	0.12074	0.19059	0.40511	0.13704	0.21182	0.30467	0.014913	0.095702	0.079252	0.2466	0.089014	0.24856	0.068904	0.24024	0.23999	0.055853	-0.525	-0.67708	-1.3354	-0.90208	-0.59167	-1.375	-0.48125	-1.2167	-0.92083	-0.38333	-1.45	-0.7	-0.55417	-1.3604	-0.24792	-0.96042	222.457	23.646	212.111	121.391	-81.414	129.084	-51.684	186.857	253.529	-58.099	7.041	-22.411	51.798	240.981	-19.440	66.532	2.4152e-05	0.0012634	1.9086e-05	647.72	3.473e-06	8.9236e-06	349.47	240.71	4.9639e-06	7.9553e-06	135.39	51.905	94.143	49.694	3.3113e-06	27.166	0.0025386	0.0031378	0.00087733	654.02	3.35e-05	3.4844e-05	369	244.76	3.43e-05	3.5656e-05	148.77	56.53	96.973	50.539	3.5484e-05	29.158	164.662	165.820	268.415	-72.262	64.088	265.441	-74.778	-67.038	171.482	146.770	-70.685	-67.385	-62.746	-59.095	93.025	-63.752	-8191	255	
35571.273	1	1	0	0	0.15736	0.17647	0.23468	0.2473	0.10267	0.14995	0.090944	0.27777	0.085567	0.12127	0.10964	0.03339	0.067663	0.30198	0.1848	0.096325	-0.76667	-0.32292	-1.4042	-1.0479	-0.59792	-1.4521	-0.35	-0.86042	-1.0875	-0.39792	-1.2687	-0.71458	-0.66458	-1.6187	-0.70833	-0.84583	165.281	120.896	-75.805	241.473	126.245	12.353	12.274	-53.022	-73.152	162.299	140.393	52.001	92.961	226.417	83.507	90.269	4.9822e-05	0.00079211	0.0002371	646.44	2.549e-06	9.388e-06	348.54	241.52	6.1911e-06	1.0234e-05	134.13	50.75	94.186	49.759	5.1964e-06	27.289	0.002639	0.0033105	0.00092475	653.04	3.5281e-05	3.6424e-05	369.83	244.67	3.5034e-05	3.6611e-05	149.19	56.353	96.839	50.613	3.5113e-05	29.164	196.035	51.530	-8.309	-72.788	81.938	91.714	-74.783	-67.097	-24.688	150.665	-70.989	-67.404	-62.819	-58.828	233.976	-63.668	-8191	255	
35571.371	1	1	0	0	0.18405	0.032543	0.23663	0.063773	0.26694	0.15542	0.19188	0.19309	0.1952	0.21463	0.3807	0.10144	0.03709	0.24171	0.06237	0.27771	-0.80833	-0.39167	-1.2417	-0.72292	-0.46042	-1.475	-0.74167	-0.86458	-1.3292	-0.36458	-1.325	-0.88125	-0.60208	-1.3813	-0.62292	-0.72708	270.868	107.774	58.857	182.135	254.829	29.290	-78.366	235.316	169.938	192.712	111.784	149.225	206.935	188.405	-72.787	-32.357	1.5352e-05	0.00073037	0.00015943	645.51	5.0491e-06	6.7147e-06	348.66	241.12	2.8249e-06	6.4378e-06	133.79	51.748	93.616	49.731	5.1518e-06	27.174	0.0025703	0.0032261	0.0009028	653.7	3.4613e-05	3.5813e-05	369.82	244.7	3.4732e-05	3.6103e-05	148.68	56.342	96.853	50.518	3.5567e-05	28.969	137.818	257.219	21.822	-72.623	84.876	102.121	-74.697	-66.849	261.352	112.279	-70.681	-67.201	-63.054	-59.051	-20.946	-63.981	-8191	255	
35571.492	1	1	0	0	0.13949	0.13106	0.11925	0.14485	0.045535	0.29763	0.13606	0.22191	0.080573	0.17406	0.17199	0.2519	0.14167	0.13868	0.1102	0.26272	-1.0458	-0.20625	-1.1229	-1.0729	-0.44167	-1.5396	-0.77917	-0.78333	-1.3479	-0.34375	-0.91875	-1.2083	-0.65208	-1.35	-0.6875	-0.5375	64.195	46.643	136.139	-80.258	-33.586	225.899	207.949	199.408	1.666	229.099	159.494	226.603	-73.776	-28.956	91.623	237.460	0.00014312	0.001277	0.00015987	648.94	5.4626e-06	1.4328e-05	344.12	241.28	4.8504e-06	1.2035e-05	133	51.103	93.013	49.704	9.3575e-06	26.835	0.0026095	0.0032876	0.0009206	653.71	3.4978e-05	3.6685e-05	367.66	244.56	3.5299e-05	3.7259e-05	148.45	56.062	96.613	50.542	3.5974e-05	28.901	174.667	25.871	-26.727	-72.839	1.465	-83.500	-75.283	-67.034	36.465	6.166	-70.778	-67.028	-62.832	-59.020	141.382	-64.076	-8191	255	
35571.586	1	1	0	0	0.040494	0.030998	0.094802	0.12725	0.32833	0.12413	0.32818	0.15767	0.16742	0.056519	0.19482	0.079062	0.18557	0.1272	0.17329	0.10902	-1.0333	-0.58125	-1.0021	-1.1667	-0.26667	-1.3563	-0.94375	-0.54375	-1.4729	-0.45833	-0.91667	-1.3771	-0.43958	-1.3042	-0.83958	-0.49167	248.660	208.308	231.060	178.824	106.337	123.029	147.889	89.922	204.380	180.967	-48.581	127.481	107.604	255.043	29.244	86.082	9.6388e-05	0.00047113	0.00019555	645.73	5.7196e-06	8.6859e-06	344.87	240.66	3.2256e-07	1.096e-06	134.15	51.411	93.445	49.664	3.7763e-06	26.735	0.00268	0.0033493	0.00093618	651.83	3.5755e-05	3.7525e-05	367.58	244.01	3.5708e-05	3.7766e-05	148.94	56.397	96.513	50.413	3.6694e-05	28.985	179.042	116.493	-3.886	-72.824	257.763	-35.966	-74.923	-67.088	-54.970	13.307	-70.625	-67.504	-62.735	-59.186	102.376	-63.969	-8191	255	
35571.684	1	1	0	0	0.08671	0.32505	0.17581	0.2749	0.20571	0.2052	0.21104	0.11776	0.20834	0.24424	0.15887	0.088614	0.14014	0.1367	0.18366	0.044906	-0.775	-0.50833	-0.70417	-1.2396	-0.3	-1.3021	-0.90625	-0.58125	-1.3937	-0.48958	-0.74375	-1.3521	-0.56042	-1.1063	-1.0625	-0.42083	121.892	-78.222	78.353	233.918	211.505	237.621	236.501	164.881	30.870	173.252	-33.874	160.899	107.929	194.895	188.133	98.472	8.5274e-05	0.00099604	0.00022825	640.74	2.5383e-06	7.0988e-06	344.34	239.7	6.1396e-06	6.9735e-06	134.21	51.209	92.867	49.551	4.2816e-06	26.882	0.0026977	0.0033889	0.00094226	650.96	3.5713e-05	3.7374e-05	367.4	243.63	3.5481e-05	3.7178e-05	148.22	56.261	96.238	50.389	3.5711e-05	28.91	145.122	-29.550	29.552	-72.510	34.057	160.720	-74.956	-67.216	-21.607	-18.166	-71.014	-67.442	-62.771	-59.000	142.511	-63.853	-8191	255	
35571.777	1	1	0	0	0.11928	0.40351	0.069826	0.22807	0.37731	0.12093	0.22386	0.26066	0.11849	0.2128	0.21767	0.13529	0.19838	0.25385	0.15266	0.32632	-0.8625	-0.59583	-0.44583	-1.5667	-0.43125	-1.0604	-1.2229	-0.51667	-1.2	-0.87292	-0.67708	-1.375	-0.61458	-1.0167	-1.0917	-0.47083	110.130	172.244	-55.640	259.658	213.303	260.693	188.204	150.968	252.712	225.339	-2.361	189.962	217.860	242.207	219.001	25.712	2.3165e-05	0.00036778	0.00029905	652.43	6.0434e-06	2.1706e-06	348.56	241.26	9.7248e-06	6.8217e-06	133.36	51.452	93.754	49.844	4.4767e-06	27.293	0.0026265	0.0032734	0.00090413	653.59	3.4449e-05	3.6002e-05	368.63	244.74	3.4479e-05	3.5815e-05	148.94	56.464	96.903	50.639	3.4582e-05	29.095	46.259	213.595	26.419	-72.539	-57.905	23.209	-75.301	-67.122	-58.784	125.655	-70.851	-67.287	-63.083	-58.790	18.598	-64.212	-8191	255	
35571.898	1	1	0	0	0.16367	0.10487	0.040305	0.15807	0.11547	0.2231	0.18151	0.10007	0.24596	0.045261	0.14874	0.32289	0.33232	0.19642	0.12553	0.27326	-0.81875	-0.67708	-0.30625	-1.5479	-0.61667	-0.83542	-1.3208	-0.46875	-1.1812	-0.8625	-0.53542	-1.3125	-0.77292	-0.8125	-1.3563	-0.51042	157.756	206.887	-60.043	274.825	166.669	140.361	-4.514	167.739	247.614	195.725	196.548	268.602	-82.379	189.098	260.296	97.173	9.2303e-05	0.0012636	0.0001061	650.04	1.5114e-05	2.3994e-06	347.04	241.44	4.6673e-06	1.0311e-05	134.33	51.364	93.988	49.949	4.9826e-06	26.721	0.0025751	0.003216	0.00090378	654.35	3.3854e-05	3.5567e-05	368.08	243.97	3.387e-05	3.5592e-05	148.03	56.066	96.757	50.537	3.4226e-05	28.829	260.966	-14.274	217.133	-72.841	97.422	101.531	-74.426	-67.148	256.136	94.241	-70.488	-67.275	-62.830	-59.099	257.592	-63.869	-8191	255	
35571.973	1	1	0	0	0.16572	0.056858	0.10699	0.18804	0.29796	0.32701	0.18546	0.10784	0.12843	0.22687	0.25985	0.045533	0.082038	0.28554	0.32312	0.14313	-0.64167	-1.1458	-0.3375	-1.5104	-0.60625	-0.90625	-1.4813	-0.54167	-1.0229	-1.2125	-0.41042	-1.5438	-0.77292	-0.87083	-1.2958	-0.44167	259.792	-24.988	261.869	226.173	78.525	-36.723	-21.995	210.784	-31.866	-9.532	160.032	-18.608	-82.052	-58.058	60.896	-47.742	4.7392e-05	0.00018384	0.00022565	650.57	9.8025e-07	7.111e-06	345.15	240.77	5.3942e-06	7.9211e-06	134.11	51.688	94.172	49.948	5.5899e-06	27.009	0.0025604	0.0032327	0.00088136	654.21	3.3696e-05	3.5271e-05	367.23	243.98	3.3797e-05	3.452e-05	147.46	56.241	96.644	50.718	3.4155e-05	28.969	207.988	14.006	-30.767	-72.467	273.060	-47.797	-74.327	-66.784	58.825	127.168	-70.996	-67.137	-62.853	-58.809	115.529	-64.190	-8191	255	
35572.066	1	1	0	0	0.29582	0.13957	0.25363	0.28545	0.12117	0.10092	0.19287	0.23067	0.2833	0.17295	0.11211	0.22966	0.053038	0.15888	0.1066	0.32277	-0.62917	-1.2604	-0.31875	-1.4604	-0.84375	-0.72708	-1.5167	-0.65625	-0.88125	-1.2167	-0.325	-1.1896	-0.83125	-0.76667	-1.4417	-0.78125	-15.230	79.896	9.129	222.877	10.314	-23.346	264.784	71.118	6.220	188.729	-81.937	-65.854	45.051	-81.493	34.634	191.656	0.0001264	0.0010393	0.00012488	650.02	6.6768e-06	3.93e-06	349.16	241.63	4.4311e-08	1.0304e-05	133.32	51.827	93.908	50.059	4.6423e-06	27.232	0.0025331	0.0031619	0.0008812	655.01	3.3417e-05	3.5352e-05	368.92	244.44	3.3505e-05	3.479e-05	147.96	56.317	96.917	50.728	3.3794e-05	29.091	244.626	198.538	-83.844	-72.626	267.862	15.189	-74.638	-66.887	144.635	132.631	-70.216	-67.031	-62.799	-58.936	98.708	-63.959	-8191	255	
35572.164	1	1	0	0	0.081203	0.12239	0.1108	0.14537	0.12663	0.14521	0.2169	0.10456	0.10514	0.035719	0.098104	0.31153	0.16944	0.14098	0.37535	0.085037	-0.6375	-1.1875	-0.325	-1.2437	-1.05	-0.52083	-1.3396	-0.77708	-0.91042	-1.3021	-0.53542	-1.2625	-1.0417	-0.41458	-1.2417	-0.73125	152.798	193.181	34.385	227.611	-45.047	97.042	210.351	-41.906	-72.396	272.648	39.292	228.595	-10.397	61.765	-22.931	272.008	2.7521e-05	0.0012069	0.0001405	653.68	2.2335e-06	1.0539e-05	353.74	241.69	3.1027e-06	5.2166e-06	135.13	52.598	94.696	50.415	5.5831e-06	27.373	0.0025127	0.0031294	0.00087295	654.91	3.2678e-05	3.4605e-05	372.85	245.06	3.3266e-05	3.4433e-05	149.25	56.903	97.312	50.992	3.3762e-05	29.254	249.030	58.568	8.228	-72.119	226.263	-47.482	-73.958	-66.769	67.964	-40.334	-71.175	-66.509	-62.920	-58.722	135.678	-63.709	-8191	255	
35572.281	1	1	0	0	0.095172	0.13073	0.098249	0.17972	0.14058	0.059111	0.15423	0.22018	0.096375	0.12166	0.13433	0.14407	0.026795	0.36173	0.29604	0.26699	-0.13542	-1.1771	-0.55833	-1.0417	-1.1417	-0.35	-1.325	-0.84583	-0.67917	-1.4	-0.47708	-1.225	-1.1417	-0.58125	-1.1875	-0.70417	121.378	268.374	-32.362	157.776	179.594	235.044	196.440	258.028	26.027	244.412	26.746	-30.652	21.914	261.101	32.556	155.772	5.4969e-05	0.00066472	0.00022117	657.24	7.3636e-06	1.4538e-05	356.7	243.81	3.1016e-06	1.213e-06	136.5	52.115	94.808	50.21	3.3272e-06	27.42	0.0024813	0.0031176	0.00087148	659.15	3.3112e-05	3.4588e-05	374.03	245.76	3.3263e-05	3.4717e-05	150.14	57.021	97.877	51.011	3.4304e-05	29.339	179.393	6.254	64.248	-72.268	76.452	44.557	-74.724	-66.943	20.471	90.745	-71.032	-66.927	-62.917	-58.809	201.305	-63.762	-8191	255	
35572.379	1	1	0	0	0.049307	0.072777	0.28123	0.15987	0.13246	0.099703	0.15368	0.16264	0.16114	0.066026	0.18317	0.16185	0.078137	0.28319	0.18084	0.091259	-0.32708	-1.2729	-0.64583	-0.9625	-1.2167	-0.42083	-1.1458	-0.92083	-0.70417	-1.5229	-0.47708	-0.82708	-1.3583	-0.6625	-1.2771	-1.0604	43.528	122.061	258.951	188.901	151.494	-58.528	195.236	-68.734	23.456	-60.389	218.616	-1.342	60.932	271.548	39.779	262.902	5.7547e-05	0.00092683	0.00016116	654.37	8.4816e-06	6.6684e-06	356.08	243.43	1.8682e-06	4.1487e-06	135.63	51.852	94.302	50.388	2.1453e-06	27.192	0.002565	0.0031447	0.00088946	658.96	3.3386e-05	3.4905e-05	374.26	245.91	3.3571e-05	3.4788e-05	149.13	56.758	97.177	50.957	3.4597e-05	29.171	232.690	63.826	130.659	-72.317	47.081	176.048	-74.309	-67.048	249.453	-23.530	-70.365	-67.006	-62.744	-58.886	-21.027	-63.569	-8191	255	
35572.477	1	1	0	0	0.048821	0.2256	0.16461	0.12089	0.20875	0.088867	0.18142	0.17326	0.20401	0.1758	0.21425	0.030749	0.2432	0.14005	0.044496	0.27956	-0.04375	-1.3625	-0.5125	-0.7125	-1.4146	-0.41042	-1.1333	-1.0063	-0.58125	-1.5125	-0.60208	-0.75	-1.6333	-0.68542	-1.0375	-1.0958	148.070	213.972	251.445	223.604	159.617	147.861	72.698	-78.684	60.755	-36.739	236.109	109.167	241.668	176.388	147.652	224.300	0.0001238	0.00077655	0.00016359	654.68	2.4166e-06	1.3006e-05	352.29	242.65	6.0229e-06	4.8921e-06	136.01	52.03	94.308	50.203	6.1817e-06	27.44	0.0025579	0.0031783	0.00088846	658.39	3.3927e-05	3.5238e-05	372.58	245.28	3.3794e-05	3.5443e-05	149.56	56.738	97.458	50.865	3.4408e-05	29.375	207.448	245.851	-19.218	-72.444	10.239	61.221	-74.351	-66.649	27.050	127.407	-70.225	-66.491	-62.286	-58.538	26.045	-63.738	-8191	255	
35572.570	1	1	0	0	0.085767	0.3037	0.10036	0.14901	0.20583	0.15984	0.021995	0.40431	0.19262	0.3274	0.15004	0.27154	0.088805	0.30843	0.10398	0.19297	0.054167	-1.2	-0.61458	-0.8	-1.3312	-0.525	-1.1562	-1.0708	-0.37917	-1.2708	-1.0063	-0.47292	-1.4792	-0.7875	-0.82917	-1.2021	-84.051	254.260	210.060	115.810	-4.491	-18.715	-80.308	200.486	143.970	270.159	-44.593	-21.766	-64.072	199.926	193.884	-28.103	7.523e-05	0.00099409	0.00013632	655.85	1.3507e-06	6.9374e-06	355.51	242.52	3.6373e-06	7.3444e-06	136.82	52.383	95.075	50.353	3.1348e-06	27.649	0.0025504	0.0032152	0.00089202	659.26	3.3792e-05	3.5317e-05	375.46	245.65	3.4041e-05	3.5785e-05	150.67	57.183	97.736	51.132	3.4889e-05	29.594	199.209	172.106	248.535	-72.683	233.129	81.155	-74.258	-67.099	124.008	-60.663	-70.726	-67.030	-62.324	-58.592	148.439	-64.063	-8191	255	
35572.668	1	1	0	0	0.30373	0.070004	0.046482	0.29335	0.1856	0.22128	0.1752	0.24628	0.11142	0.037255	0.19847	0.32605	0.22293	0.0099559	0.073388	0.27291	-0.23542	-1.1833	-0.71458	-0.68125	-1.3292	-0.4875	-0.87292	-1.4667	-0.37708	-1.0625	-1.0292	-0.54792	-1.4604	-0.75833	-0.69167	-1.375	258.104	73.877	95.611	270.155	80.886	184.239	271.314	256.639	211.593	134.263	215.319	-19.917	74.393	-66.441	-26.602	247.436	7.7232e-05	0.00051327	8.7389e-05	658.63	1.126e-05	8.8913e-06	352.97	243.65	7.934e-06	5.9713e-06	137.72	53.163	94.36	50.666	3.2032e-06	27.753	0.0025846	0.003257	0.00090863	660.54	3.4345e-05	3.5802e-05	375.8	246.9	3.4464e-05	3.5816e-05	151.28	57.551	97.777	51.25	3.5423e-05	29.721	192.453	181.427	242.363	-72.387	95.814	153.196	-74.129	-66.785	45.430	145.691	-70.116	-66.597	-62.594	-58.530	120.201	-63.584	-8191	255	
35572.766	1	1	0	0	0.040343	0.14018	0.21755	0.26375	0.35307	0.079138	0.22031	0.19153	0.05408	0.07116	0.14355	0.2861	0.1093	0.46854	0.2784	0.10311	-0.0375	-1.2271	-1.0042	-0.60208	-1.3646	-0.77708	-0.65	-1.5208	-0.50833	-1.0521	-1.25	-0.54167	-1.4646	-0.83958	-0.64792	-1.5438	-32.803	109.901	223.858	242.854	103.072	-49.435	68.401	-75.434	108.386	-5.809	230.237	250.476	-54.967	-62.804	-14.057	93.167	4.8743e-05	0.00059367	0.00017986	657.64	5.9245e-06	8.2619e-06	352.95	243.84	7.1593e-06	2.8484e-06	137.54	52.716	94.129	50.279	8.671e-06	27.343	0.0026204	0.0033001	0.0009117	662.62	3.5532e-05	3.7306e-05	376.3	246.75	3.5448e-05	3.7719e-05	151.5	57.393	97.646	50.941	3.6432e-05	29.418	228.976	20.873	173.120	-72.092	59.078	21.565	-74.177	-66.919	86.815	200.891	-70.687	-67.110	-62.546	-58.769	205.045	-63.130	-8191	255	
35572.859	1	1	0	0	0.26303	0.03263	0.53147	0.19896	0.1883	0.30512	0.14828	0.0468	0.09368	0.21309	0.093584	0.23358	0.10489	0.41906	0.20807	0.15679	-0.21875	-0.87917	-1.1938	-0.42292	-1.5667	-0.96042	-0.72292	-1.4354	-0.6375	-1.1479	-1.1729	-0.58125	-1.325	-1.075	-0.59167	-1.35	251.865	137.913	-1.751	-56.320	-2.631	199.568	-4.190	-24.278	101.475	211.587	74.983	228.378	-69.984	244.962	189.562	4.485	0.00020769	0.00046599	0.00023758	651.87	2.2285e-06	4.8242e-06	351.13	242.6	4.0617e-07	9.702e-06	134.46	52.28	94.316	50.049	2.7555e-06	27.401	0.0027014	0.0033897	0.00093362	658.07	3.5771e-05	3.7163e-05	373.2	245.63	3.5739e-05	3.7485e-05	149.72	57.141	97.507	50.804	3.5936e-05	29.382	161.039	-34.346	-81.976	-71.988	67.364	14.655	-74.535	-66.765	-2.883	5.866	-70.353	-66.563	-62.500	-58.665	-18.941	-63.729	-8191	255	
35572.980	1	1	0	0	0.23373	0.20653	0.12077	0.082167	0.30283	0.18733	0.14398	0.1525	0.10364	0.1864	0.35653	0.058845	0.15319	0.22272	0.2666	0.17431	-0.325	-0.85208	-1.2938	-0.32083	-1.2604	-1.0167	-0.48958	-1.5479	-0.69792	-1.0708	-1.4062	-0.49375	-0.96458	-1.1354	-0.325	-1.3875	89.773	247.413	231.900	254.384	-51.538	227.316	233.908	195.781	-10.946	242.253	249.550	205.297	215.527	-20.516	-64.221	150.125	6.1719e-05	0.0013785	9.3071e-05	652.92	9.0632e-06	7.2637e-06	352.84	242.74	3.1613e-06	8.6594e-06	135.94	52.172	94.887	49.98	6.0822e-07	27.252	0.0026561	0.0033077	0.00091392	657.44	3.4968e-05	3.6441e-05	372.92	245.15	3.4908e-05	3.5813e-05	150.49	56.961	97.268	50.755	3.4693e-05	29.252	210.644	-34.365	-1.119	-72.281	211.646	-7.315	-74.478	-66.708	45.451	10.003	-70.259	-66.291	-62.600	-58.642	30.363	-63.436	-8191	255	
35573.074	1	1	0	0	0.28472	0.33792	0.20185	0.080623	0.14298	0.19105	0.18393	0.23685	0.10294	0.2369	0.16941	0.054547	0.18049	0.22349	0.10957	0.24333	-0.52292	-0.62083	-1.2083	-0.56875	-0.90833	-1.2083	-0.34792	-1.3583	-0.59375	-0.61042	-1.45	-0.44792	-0.95208	-1.4146	-0.47917	-1.4	155.729	42.309	-14.267	181.583	264.285	-9.752	233.467	-48.265	33.761	55.678	26.791	49.814	-56.738	9.444	-35.593	171.086	2.2288e-05	0.00079891	0.00042456	654.96	2.7949e-06	7.9683e-06	354.52	242.05	4.2895e-06	4.2254e-06	135.39	52.549	94.432	49.949	3.411e-06	27.559	0.002585	0.0032082	0.00088484	656.77	3.4529e-05	3.5572e-05	374.21	245.24	3.4388e-05	3.5863e-05	150.51	57.28	97.45	50.84	3.5309e-05	29.565	272.552	76.376	-22.858	-72.459	83.747	59.500	-74.805	-66.501	163.884	271.517	-70.392	-66.440	-62.531	-58.767	-73.673	-63.808	-8191	255	
35573.172	1	1	0	0	0.24581	0.18869	0.16856	0.25696	0.18179	0.072611	0.094854	0.16727	0.22259	0.088707	0.11109	0.24881	0.14626	0.2629	0.1524	0.13934	-0.53333	-0.64375	-1.2313	-0.6625	-0.91458	-1.2021	-0.61875	-1.3396	-1.0375	-0.52708	-1.5312	-0.61042	-0.79583	-1.2729	-0.48542	-1.1667	29.995	158.255	76.162	-70.059	-17.870	134.288	108.748	233.835	180.311	-69.216	-30.081	209.110	249.374	-80.568	169.102	235.818	7.978e-05	0.00060057	0.00039306	652.55	7.9201e-07	2.6829e-06	355.56	241.66	3.3318e-06	5.2015e-06	136.17	52.798	94.471	49.973	4.2728e-06	27.318	0.0026734	0.0033102	0.00091823	657.97	3.5528e-05	3.6506e-05	376.6	245.64	3.5567e-05	3.7338e-05	150.98	57.574	97.472	50.82	3.6789e-05	29.472	204.404	120.105	18.226	-72.016	204.581	147.739	-73.999	-66.531	262.197	79.571	-70.207	-66.317	-61.959	-58.569	53.572	-62.986	-8191	255	
35573.266	1	1	0	0	0.02368	0.030873	0.17646	0.20806	0.35307	0.11897	0.10384	0.05439	0.072545	0.1605	0.20631	0.24994	0.27501	0.22343	0.15007	0.30629	-0.76042	-0.37083	-1.4438	-0.68958	-0.7625	-1.3188	-0.44375	-1.2417	-1.1604	-0.52292	-1.3479	-0.79375	-0.69375	-1.4625	-0.60208	-1.1417	-79.017	129.193	160.612	-54.608	95.262	165.691	-14.598	-68.292	97.318	87.568	11.500	219.037	274.202	243.705	-64.764	180.926	7.726e-05	0.0009642	0.00033528	650.25	8.4286e-06	1.0684e-06	354.26	241.46	6.8932e-06	4.403e-06	134.97	51.957	93.961	49.685	8.2708e-06	27.126	0.002739	0.0033991	0.00095728	658.47	3.6621e-05	3.7979e-05	374.35	244.9	3.6798e-05	3.8231e-05	150.75	56.947	97.077	50.44	3.7469e-05	29.192	184.733	-51.947	202.350	-72.413	38.936	174.174	-74.625	-66.260	70.258	197.128	-70.372	-66.930	-62.388	-58.497	124.800	-63.243	-8191	255	
35573.363	1	1	0	0	0.22147	0.30626	0.14414	0.12764	0.178	0.083561	0.19717	0.26462	0.2964	0.1153	0.20163	0.087347	0.21291	0.1826	0.22408	0.05763	-0.7	-0.50417	-1.5375	-0.9375	-0.68333	-1.3021	-0.70833	-0.86667	-1.1771	-0.1875	-1.2583	-1.025	-0.51458	-1.6208	-0.55	-0.87292	-14.979	151.709	-6.308	37.326	124.649	62.119	-69.110	183.620	40.418	41.560	155.974	-15.842	70.381	-53.866	192.549	113.716	7.1004e-05	0.00028481	0.0002762	649.72	4.442e-06	2.5256e-06	347.99	240.64	2.6408e-06	8.3997e-06	135.44	51.91	93.993	49.904	7.1246e-06	27.194	0.0027287	0.0033667	0.00095016	655.43	3.6186e-05	3.7605e-05	372.87	244.65	3.6052e-05	3.7806e-05	150.82	57.069	97.167	50.703	3.7438e-05	29.377	231.826	112.675	-56.156	-72.303	30.529	58.731	-74.615	-66.597	-24.918	122.477	-70.131	-66.672	-62.173	-58.401	163.988	-63.685	-8191	255	
35573.461	1	1	0	0	0.19446	0.12659	0.010777	0.24027	0.086958	0.36264	0.18469	0.34093	0.15253	0.29515	0.096477	0.13717	0.071368	0.059884	0.13921	0.39716	-0.90833	-0.45208	-1.2146	-0.94583	-0.43125	-1.3583	-0.8625	-0.89792	-1.2979	-0.39375	-1.2417	-0.97083	-0.41042	-1.4	-0.70417	-0.7625	-55.690	164.271	259.268	168.690	-30.900	-30.330	6.783	169.415	-78.403	160.593	-44.088	154.653	-2.795	149.558	-81.186	244.945	6.966e-05	0.00053928	9.079e-05	647.5	6.477e-06	8.5541e-06	352.26	240.24	1.4618e-06	5.0368e-06	135.39	52.016	94.494	49.81	4.8429e-06	27.186	0.0027472	0.0034299	0.0009589	656.74	3.6333e-05	3.8027e-05	375.48	244.93	3.6436e-05	3.8301e-05	151.15	57.131	97.5	50.615	3.7982e-05	29.453	148.814	-60.444	-26.851	-71.961	72.633	-12.915	-74.553	-66.533	217.973	-76.477	-70.227	-66.854	-62.325	-58.455	171.954	-63.240	-8191	255	
35573.578	1	1	0	0	0.20336	0.086672	0.22845	0.23818	0.18971	0.41018	0.3019	0.070976	0.3823	0.022423	0.15779	0.29865	0.30673	0.14637	0.095976	0.1138	-1.0583	-0.32917	-0.90625	-0.98542	-0.5	-1.3146	-0.74792	-0.55417	-1.4333	-0.53333	-0.92708	-1.0375	-0.4625	-1.1688	-0.61875	-0.71667	213.659	103.374	255.065	-53.132	-52.651	2.933	251.086	169.991	38.137	182.472	172.146	44.107	-69.464	-46.364	129.518	228.501	4.3896e-05	0.0015915	0.00012658	648.85	2.5211e-06	4.8127e-06	353.65	241.7	2.574e-06	6.0164e-06	136.07	52.458	93.945	49.362	4.7347e-06	27.108	0.0027949	0.003455	0.00097753	657.64	3.7206e-05	3.8973e-05	376.03	245.38	3.683e-05	3.8409e-05	151.66	57.436	97.343	50.502	3.8791e-05	29.418	205.995	-42.940	206.242	-72.006	18.687	74.960	-74.034	-66.358	248.218	107.921	-69.846	-66.677	-61.893	-58.438	163.885	-63.369	-8191	255	
35573.676	1	1	0	0	0.25187	0.14997	0.14511	0.11574	0.067269	0.14905	0.092396	0.53936	0.16143	0.18458	0.15332	0.27371	0.27914	0.18856	0.12981	0.16401	-1.0292	-0.43542	-0.76875	-1.45	-0.43333	-1.3208	-0.92083	-0.55625	-1.4271	-0.53125	-0.91042	-1.3042	-0.57292	-1.2979	-0.82917	-0.62083	63.400	75.914	-22.057	246.447	102.381	-7.900	-14.618	272.564	-53.080	-5.136	112.396	214.027	143.621	180.492	-15.640	-41.937	0.00010208	0.0010443	0.00023918	649.58	6.4347e-06	4.1091e-06	354.12	241.95	4.3525e-06	8.7363e-06	136.51	52.166	93.427	49.697	2.2507e-06	27.102	0.0028703	0.0036038	0.00099562	657.83	3.8176e-05	3.9816e-05	378.5	246.34	3.8294e-05	3.9762e-05	152.6	57.52	97.249	50.543	3.8906e-05	29.434	208.768	23.315	67.620	-72.337	208.988	-67.287	-74.080	-66.629	-44.858	105.899	-70.083	-66.354	-61.957	-58.397	195.944	-63.351	-8191	255	
35573.773	1	1	0	0	0.38781	0.36089	0.1264	0.069277	0.13486	0.2052	0.17653	0.050797	0.28158	0.17935	0.030059	0.16854	0.32341	0.084256	0.055757	0.23399	-1.0792	-0.55833	-0.93125	-1.1979	-0.35625	-1.1417	-1.1771	-0.60208	-1.3167	-0.82917	-0.7875	-1.3125	-0.3875	-1.2	-1.1479	-0.51042	117.081	92.351	-40.550	238.778	-69.512	96.406	139.109	189.473	32.524	85.018	87.096	190.539	-64.810	269.249	129.501	109.380	0.00010814	0.0012408	0.00030264	650.23	1.6358e-06	9.3217e-06	354.43	240.68	3.8077e-06	3.9701e-06	133.92	51.554	93.502	49.436	1.2202e-06	26.995	0.0028871	0.0036175	0.0010053	659.85	3.8466e-05	3.9816e-05	374.85	244.81	3.8149e-05	3.9875e-05	150.84	57.216	96.934	50.397	3.8592e-05	29.295	187.507	-31.200	-37.596	-71.931	-7.566	1.440	-73.883	-66.624	155.544	215.035	-69.786	-66.340	-62.165	-58.135	231.069	-63.731	-8191	255	
35573.844	1	1	0	0	0.10538	0.20676	0.12892	0.26284	0.25437	0.365	0.20816	0.3018	0.26941	0.24025	0.25333	0.25631	0.10051	0.27528	0.026288	0.09616	-0.96667	-0.61458	-0.61875	-1.4021	-0.53125	-1.1667	-1.3458	-0.40833	-1.2396	-0.61875	-0.6125	-1.4125	-0.56042	-0.96875	-1.3354	-0.33542	45.786	169.689	150.572	182.876	98.049	-43.642	257.773	209.087	269.565	102.211	-43.301	198.910	194.440	-54.604	262.636	179.386	4.349e-05	0.00092402	5.9208e-05	647.48	4.4034e-06	1.8857e-06	348.09	240.46	3.3992e-06	9.6275e-06	134.81	51.328	93.368	49.433	6.6257e-06	26.936	0.0028363	0.0035695	0.00098772	655.09	3.7764e-05	3.9121e-05	372.79	244.36	3.7397e-05	3.9198e-05	151.09	56.804	96.865	50.118	3.7768e-05	29.207	-52.822	203.914	-1.650	-72.141	55.496	-4.991	-74.066	-66.132	154.031	30.844	-69.492	-66.619	-62.034	-58.186	103.620	-63.476	-8191	255	
35573.965	1	1	0	0	0.17744	0.18797	0.12583	0.11766	0.10112	0.1268	0.32601	0.19851	0.32431	0.15578	0.44184	0.2011	0.29018	0.30317	0.25993	0.19617	-0.85417	-0.825	-0.39167	-1.2854	-0.75625	-0.92083	-1.1896	-0.58958	-1.2812	-1.175	-0.58958	-1.3375	-0.77708	-0.86875	-1.3375	-0.46875	148.413	-64.301	-60.312	-66.050	108.552	-25.088	224.775	191.059	7.337	273.349	271.430	-51.721	-57.614	224.067	-7.607	-17.358	0.00010949	0.00091432	0.00033036	649.67	1.1485e-06	8.5711e-06	351.55	238.84	2.3637e-06	8.6334e-06	134.02	51.281	92.829	49.197	8.2519e-07	26.972	0.0028183	0.0035264	0.00098473	656.96	3.7224e-05	3.8836e-05	375.25	243.33	3.7251e-05	3.8948e-05	150.66	56.947	96.532	50.103	3.8572e-05	29.221	256.312	20.687	42.737	-71.589	-40.409	65.252	-74.216	-66.524	63.268	25.439	-69.342	-66.280	-61.952	-58.444	203.084	-63.086	-8191	255	
35574.062	1	1	0	0	0.43043	0.086498	0.048856	0.13161	0.19265	0.29807	0.074679	0.24222	0.098804	0.26486	0.2754	0.2441	0.2122	0.21423	0.15322	0.22129	-0.7375	-1.0271	-0.35833	-1.5208	-0.66042	-0.72917	-1.4354	-0.52083	-0.925	-1.025	-0.45833	-1.3125	-0.83542	-0.66458	-1.3896	-0.21458	208.668	177.519	28.613	183.517	151.662	-4.342	-61.522	217.859	150.365	11.355	-80.545	1.475	243.826	-54.576	84.250	190.598	9.1616e-05	0.000538	4.4338e-05	651.67	5.1887e-06	5.7164e-06	350.61	240.01	4.3136e-06	6.3785e-06	135.5	51.555	92.923	49.344	1.4082e-06	26.829	0.0028924	0.0036096	0.0010021	658.36	3.8555e-05	4.0229e-05	376.83	244.2	3.8762e-05	4.0564e-05	151.81	57.263	96.865	50.303	4.0119e-05	29.324	212.050	-45.340	-49.978	-71.843	127.362	229.049	-73.684	-66.568	111.815	-37.464	-69.765	-66.678	-62.181	-58.081	-59.932	-63.041	-8191	255	
35574.156	1	1	0	0	0.15527	0.031502	0.055469	0.094934	0.14813	0.14668	0.25989	0.29772	0.1459	0.18409	0.017816	0.3582	0.29564	0.15741	0.14418	0.1931	-0.42708	-1.1562	-0.4	-1.3583	-0.91042	-0.5375	-1.3396	-0.60625	-0.86875	-1.3229	-0.38958	-1.3292	-1.0063	-0.54167	-1.4583	-0.61667	0.326	136.197	50.032	130.729	182.752	110.093	238.209	-81.743	240.238	-41.821	200.778	124.623	177.999	186.282	-53.839	-80.162	3.667e-05	0.00091915	9.7015e-05	646.91	5.5643e-06	1.2484e-05	348.24	241.2	2.9834e-06	1.1601e-05	134.51	50.899	93.05	49.034	8.1261e-06	26.621	0.0030027	0.0037	0.00104	660.19	3.9546e-05	4.0965e-05	375.75	244.74	3.9388e-05	4.0857e-05	151.67	57.066	96.806	49.971	4.0194e-05	29.111	156.344	49.497	157.192	-71.745	205.307	10.968	-72.985	-66.536	72.763	43.798	-70.050	-66.304	-62.287	-58.234	223.493	-63.573	-8191	255	
35574.254	1	1	0	0	0.06878	0.13771	0.16095	0.20184	0.21163	0.082066	0.19913	0.54928	0.15823	0.099226	0.22068	0.18125	0.29322	0.086709	0.15265	0.18418	-0.51042	-1.1854	-0.525	-1.2	-1.0729	-0.34792	-1.3875	-0.81042	-0.69375	-1.4958	-0.49375	-1.3771	-1.1333	-0.48333	-1.4604	-0.7125	-25.901	176.309	94.045	-35.751	150.680	67.236	-84.312	262.984	255.562	167.095	-9.251	-53.765	-70.422	2.002	271.687	-70.451	0.00012117	0.00031271	0.00017137	651.85	2.37e-06	1.3735e-06	348.97	238.7	3.724e-06	2.7853e-06	133.1	50.968	92.069	49.034	2.512e-06	26.625	0.0029698	0.0036839	0.0010323	658.17	3.909e-05	4.0809e-05	374.52	243.31	3.9126e-05	4.1192e-05	150.74	57.124	96.166	49.913	4.0099e-05	29.147	-73.348	246.027	-19.743	-71.856	-66.362	197.292	-73.803	-66.411	204.541	149.102	-69.865	-66.445	-62.360	-58.111	93.870	-62.788	-8191	255	
35574.371	1	1	0	0	0.2049	0.1533	0.27575	0.23989	0.095103	0.056257	0.30551	0.10704	0.2161	0.29535	0.087202	0.099911	0.21867	0.34887	0.37551	0.26288	-0.18125	-1.2167	-0.38333	-1.175	-1.2354	-0.62917	-1.325	-1.0583	-0.63958	-1.4688	-0.42292	-1.0083	-1.4479	-0.43333	-1.2437	-0.93958	-9.151	142.097	232.766	268.807	-73.087	166.490	273.684	32.038	92.269	270.018	151.071	217.133	-61.808	-49.838	-76.312	-8.007	0.00013905	0.00070848	0.00031023	646.08	3.6003e-06	3.4332e-06	346.5	238.15	4.6681e-06	6.8835e-06	134.04	51.752	91.87	48.668	7.7996e-06	26.69	0.0029981	0.0037268	0.0010298	656.02	3.9545e-05	4.1715e-05	375.31	243.35	3.9893e-05	4.1543e-05	151.57	57.242	96.133	49.797	4.0902e-05	29.089	252.496	62.224	20.761	-71.752	16.080	160.098	-73.877	-66.230	136.962	-60.557	-69.699	-66.161	-61.943	-57.823	162.194	-63.397	-8191	255	
35574.445	1	1	0	0	0.060964	0.27791	0.16711	0.28614	0.077226	0.19288	0.22668	0.18245	0.14853	0.10832	0.16402	0.12194	0.21543	0.26201	0.30276	0.22415	-0.12083	-1.3729	-0.66875	-1.025	-1.2229	-0.50417	-1.1917	-1.0042	-0.54167	-1.3729	-0.61875	-0.94583	-1.5146	-0.40833	-1.1187	-1.275	206.182	133.992	-11.731	204.160	-34.000	258.369	219.196	49.857	90.612	178.430	148.522	32.931	208.351	237.348	7.074	217.684	3.5782e-05	0.00087303	0.00018567	648.56	3.8065e-06	3.04e-06	351.37	237.93	3.8515e-06	6.2255e-06	133.09	51.216	92.559	48.731	4.1322e-06	26.843	0.0030386	0.0037634	0.001058	657.52	4.0191e-05	4.1683e-05	376	243.25	3.971e-05	4.141e-05	151.26	56.932	95.998	49.633	3.989e-05	29.1	29.483	5.948	-42.779	-72.158	75.131	224.328	-74.028	-66.089	-4.843	153.750	-70.139	-65.873	-61.989	-58.382	213.958	-63.605	-8191	255	
35574.539	1	1	0	0	0.24617	0.08227	0.028785	0.41552	0.15036	0.33243	0.13655	0.23996	0.18904	0.25216	0.20333	0.04694	0.29786	0.10166	0.18043	0.43729	-0.25417	-1.3438	-0.71458	-0.95833	-1.2771	-0.52708	-1.1271	-1.2167	-0.43958	-1.4229	-0.83333	-0.67292	-1.6542	-0.575	-1.0958	-1.3229	-50.140	-2.089	-40.572	-34.220	-16.056	268.959	58.249	232.932	183.809	-11.759	248.328	195.432	259.123	190.352	15.996	96.900	9.3149e-05	0.00053439	0.0001951	649.8	6.0555e-06	1.6795e-05	353.71	238.18	5.5045e-06	7.1378e-06	133.76	51.746	92.914	48.671	6.8757e-06	26.633	0.0029267	0.0036228	0.0010224	656.45	3.8414e-05	4.0553e-05	377.39	243.1	3.867e-05	4.0484e-05	151.38	57.268	96.393	49.727	3.9982e-05	29.032	203.537	-1.312	108.146	-71.810	18.545	34.187	-73.860	-66.162	110.576	55.251	-70.306	-66.422	-62.235	-58.322	133.632	-63.071	-8191	255	
35574.660	1	1	0	0	0.33515	0.11422	0.20276	0.11605	0.033948	0.24491	0.058671	0.17878	0.16819	0.015388	0.12843	0.12228	0.22887	0.10004	0.10555	0.27838	-0.275	-1.2313	-0.75208	-0.70625	-1.4937	-0.42292	-1.0312	-1.3958	-0.39583	-1.3542	-0.875	-0.64167	-1.5979	-1.0771	-0.79583	-1.4562	167.994	8.709	24.679	42.782	228.353	13.797	72.214	230.585	247.092	171.949	248.698	92.285	-45.031	-49.798	-58.104	96.518	9.3518e-05	0.00061112	0.00022837	648.61	5.8297e-06	1.9519e-06	347.87	236.45	2.3212e-06	3.8534e-06	133.15	50.707	92.034	48.044	1.9758e-06	26.458	0.0029353	0.0036759	0.0010201	657.62	3.8593e-05	4.0576e-05	374.17	242.41	3.8665e-05	4.0382e-05	150.25	56.467	95.542	49.218	3.9224e-05	28.664	206.589	34.878	97.745	-71.653	172.820	124.358	-74.055	-66.386	-17.394	28.437	-70.315	-66.060	-61.721	-58.264	110.161	-63.265	-8191	255	
35574.758	1	1	0	0	0.23207	0.1619	0.10935	0.29285	0.34288	0.22709	0.097138	0.2853	0.11831	0.23494	0.30591	0.16241	0.23943	0.34184	0.097011	0.11737	-0.05	-1.1583	-0.97292	-0.6375	-1.3687	-0.53542	-0.6625	-1.5583	-0.47292	-1.0896	-1.0896	-0.38542	-1.5875	-0.79167	-0.63542	-1.3542	33.954	129.153	-47.953	19.890	115.467	249.357	236.768	216.058	-46.268	170.988	16.757	-81.225	177.551	-76.006	163.142	176.492	6.2888e-05	0.00034127	0.00017789	648.13	3.6664e-06	7.4491e-06	349.92	236.88	7.1853e-06	3.107e-06	133.43	51.518	92.177	48.215	6.2849e-06	26.609	0.0029184	0.0036573	0.0010188	656.21	3.8432e-05	4.0264e-05	374.41	241.98	3.8185e-05	3.9897e-05	149.79	56.346	95.624	49.256	3.8729e-05	28.717	111.363	184.573	58.242	-71.758	105.867	70.024	-74.037	-65.948	68.357	141.912	-70.418	-65.961	-62.227	-58.455	104.514	-62.827	-8191	255	
35574.852	1	1	0	0	0.21066	0.10542	0.22046	0.092213	0.30478	0.17256	0.19327	0.25084	0.11632	0.0066581	0.13985	0.14554	0.031122	0.1939	0.15287	0.030577	-0.1	-0.97917	-1.0771	-0.43333	-1.1104	-0.68542	-0.83125	-1.5812	-0.56667	-0.96458	-1.1	-0.47708	-1.3521	-1.1063	-0.83958	-1.4312	131.696	236.295	-22.638	95.591	-53.253	157.554	56.923	148.291	14.768	-32.426	-40.099	189.161	189.465	164.548	34.035	-55.886	9.9675e-05	0.00051157	0.00018672	651.21	4.6993e-06	7.115e-06	349.26	238.37	1.0257e-05	1.2416e-05	133.37	51.328	91.886	48.339	4.6546e-06	26.385	0.0028475	0.0035866	0.00097934	655.6	3.7164e-05	3.8973e-05	374.06	242.08	3.6821e-05	3.8358e-05	149.25	56.446	95.464	49.329	3.7317e-05	28.702	130.335	100.786	-60.926	-72.317	86.839	47.942	-73.786	-66.444	-18.071	115.704	-70.736	-66.685	-61.778	-58.736	-61.471	-63.481	-8191	255	
35574.973	1	1	0	0	0.23726	0.089295	0.40985	0.24041	0.16833	0.1816	0.45898	0.088796	0.23285	0.19888	0.030804	0.084077	0.058546	0.12408	0.13657	0.21615	-0.0020833	-0.8625	-1.1542	-0.37708	-1.2687	-0.75833	-0.60208	-1.3896	-0.58125	-0.76875	-1.2938	-0.50625	-1.2042	-0.96458	-0.49167	-1.3792	58.830	0.922	61.019	-71.857	132.866	188.760	164.478	237.358	-22.998	66.161	141.532	262.518	-68.385	8.655	-52.707	67.189	0.00017503	0.00108	0.00028965	651.4	3.6482e-06	3.1695e-06	354.22	238.85	3.5936e-06	5.3682e-06	136.24	51.392	92.897	48.556	6.448e-06	26.728	0.0027249	0.0034051	0.000948	656.15	3.6198e-05	3.7823e-05	376.67	243.01	3.6216e-05	3.7184e-05	150.65	56.712	96.045	49.501	3.6695e-05	29.01	198.418	-72.161	255.876	-71.903	80.843	219.952	-74.006	-65.943	113.768	52.571	-69.974	-66.101	-62.275	-58.417	36.495	-63.506	-8191	255	
35575.066	1	1	0	0	0.20696	0.053433	0.25935	0.23147	0.27079	0.063008	0.20665	0.26133	0.040911	0.12517	0.034394	0.31782	0.093918	0.19371	0.14352	0.077363	-0.25833	-0.75833	-1.4146	-0.54792	-1.1229	-1.1667	-0.52292	-1.5125	-0.83125	-0.88333	-1.4396	-0.60833	-1.0542	-1.0021	-0.4375	-1.2229	118.962	244.792	68.418	225.028	-3.909	151.318	-35.456	211.735	267.955	50.349	245.946	251.845	37.210	251.094	148.897	194.669	6.18e-05	0.00057218	0.00024972	658.88	5.9834e-06	4.6516e-06	353.52	239.38	5.7569e-06	4.7624e-06	136.02	51.094	93.11	48.573	5.5102e-06	26.751	0.0027217	0.0034086	0.00094222	661.74	3.6452e-05	3.7683e-05	376.21	244.04	3.6308e-05	3.7744e-05	150.16	56.795	96.19	49.514	3.7149e-05	28.835	160.003	-6.482	4.815	-71.994	122.148	129.157	-74.196	-66.406	42.665	-0.977	-69.761	-66.279	-61.886	-58.173	1.972	-63.207	-8191	255	
35575.141	1	1	0	0	0.18983	0.24545	0.08746	0.27135	0.20184	0.21719	0.11262	0.16959	0.3234	0.20093	0.14859	0.23524	0.1721	0.11811	0.038435	0.33204	-0.64792	-0.67917	-1.3333	-0.52917	-1.1042	-1.3167	-0.49792	-1.3958	-0.93958	-0.61458	-1.3167	-0.41875	-0.99583	-1.3563	-0.44167	-1.2854	206.036	231.385	69.773	189.783	213.264	158.063	145.377	125.518	243.874	145.470	98.780	161.236	206.396	136.377	99.168	-82.627	6.8296e-05	0.00072355	0.00031436	653.94	4.1054e-06	2.8624e-06	352.55	239.34	7.1341e-07	7.7175e-06	134.44	52.123	92.949	48.667	4.0097e-06	26.586	0.0027876	0.0034162	0.00095554	659.37	3.6654e-05	3.8089e-05	374.94	243.46	3.6731e-05	3.8131e-05	149.78	56.734	96.038	49.579	3.6747e-05	28.938	127.345	54.413	-34.101	-72.071	191.998	95.162	-74.069	-66.135	220.243	-49.350	-70.273	-66.499	-61.750	-58.338	-21.600	-63.389	-8191	255	
35575.262	1	1	0	0	0.41541	0.14459	0.17725	0.22505	0.35263	0.16285	0.18401	0.44314	0.18588	0.3861	0.21002	0.27672	0.16297	0.18521	0.27826	0.11769	-0.58542	-0.49792	-1.3104	-0.69375	-0.85833	-1.3646	-0.51667	-1.1	-0.97708	-0.50833	-1.4417	-0.59792	-0.92292	-1.5917	-0.43958	-1.2333	138.238	130.341	156.180	-61.013	-1.941	251.086	-46.194	210.124	260.010	129.098	53.734	154.822	257.270	151.674	42.420	248.617	8.0193e-05	0.00053576	0.00028666	650.42	1.4764e-06	9.5832e-06	353.03	239.81	4.3198e-06	1.8376e-06	133.93	51.629	92.873	48.802	1.0736e-05	26.994	0.0027563	0.0034217	0.00096448	657.49	3.6618e-05	3.8076e-05	374.18	242.97	3.6232e-05	3.7905e-05	149.92	56.662	96.051	49.511	3.6247e-05	28.975	269.583	217.647	42.305	-71.840	45.022	140.625	-74.201	-66.435	40.427	168.737	-69.186	-66.489	-62.054	-58.282	147.208	-63.106	-8191	255	
35575.355	1	1	0	0	0.13141	0.23937	0.1491	0.20439	0.35676	0.23016	0.1289	0.14176	0.095814	0.34251	0.062448	0.16369	0.058226	0.11266	0.05813	0.054348	-0.78958	-0.53958	-1.1958	-1.0646	-0.78125	-1.4	-0.42292	-1.1187	-1.2021	-0.46667	-1.5375	-0.78333	-0.70833	-1.5396	-0.54583	-1.1542	83.536	157.214	197.413	194.761	34.837	47.021	232.405	191.943	-76.458	-75.157	171.192	236.639	97.359	166.033	177.322	120.478	7.8403e-06	0.00043952	7.9053e-05	654.1	5.7796e-06	3.2085e-06	353.84	239.13	4.1934e-06	1.2728e-05	135.65	51.921	92.953	48.842	7.0104e-06	26.902	0.0026971	0.0032994	0.00093199	657.37	3.5249e-05	3.6685e-05	375.74	243.35	3.5551e-05	3.696e-05	150.52	56.784	95.968	49.593	3.6338e-05	29.007	59.069	-77.307	113.179	-71.953	-69.763	39.343	-73.527	-66.382	-26.924	98.721	-69.867	-65.817	-61.954	-58.228	77.931	-63.186	-8191	255	
#DATA ENDS
