BOXY.EXE: ISS Imagent and Oximeter Data Acquisition Program Version 0.80
Ascii Record File

#ACQ INFORMATION
2  Detector Channels 
16  External MUX Channels 
1  Auxiliary Channels 
5000  Waveform (CCF) Frequency (Hz)
1  Waveforms Skipped 
30  Waveforms Averaged 
1  Cycles Averaged 
16  Acquisitions per Waveform 
10.0806  Updata Rate (Hz) 

#FILE INFORMATION
TRUE -- External MUX Channel results are PARSED.
FALSE -- AC DC and Phase are NOT grouped.
TRUE -- Companion Program Settings File CREATED.
FALSE -- AC data not excluded
FALSE -- DC data not excluded
FALSE -- Phase data not excluded
FALSE -- Auxillary Chn. data not excluded
Tab delimiters

#CALIBRATION STATE
TRUE -- Waveform Calibration Values APPLIED.


#AUX CALIBRATION VALUES
Val Type	aux-1	

Term	1.0000e+00	
Factor	0.0000e+00	


#WF CALIBRATION VALUES
A = Detector Channel
Val Type	A-AC1	A-AC2	A-AC3	A-AC4	A-AC5	A-AC6	A-AC7	A-AC8	A-AC9	A-AC10	A-AC11	A-AC12	A-AC13	A-AC14	A-AC15	A-AC16	A-DC1	A-DC2	A-DC3	A-DC4	A-DC5	A-DC6	A-DC7	A-DC8	A-DC9	A-DC10	A-DC11	A-DC12	A-DC13	A-DC14	A-DC15	A-DC16	A-Ph1	A-Ph2	A-Ph3	A-Ph4	A-Ph5	A-Ph6	A-Ph7	A-Ph8	A-Ph9	A-Ph10	A-Ph11	A-Ph12	A-Ph13	A-Ph14	A-Ph15	A-Ph16	

Term	0.00000e+00	0.00000e+00	0.00000e+00	0.00000e+00	0.00000e+00	0.00000e+00	0.00000e+00	0.00000e+00	0.00000e+00	0.00000e+00	0.00000e+00	0.00000e+00	0.00000e+00	0.00000e+00	0.00000e+00	0.00000e+00	0.00000e+00	0.00000e+00	0.00000e+00	0.00000e+00	0.00000e+00	0.00000e+00	0.00000e+00	0.00000e+00	0.00000e+00	0.00000e+00	0.00000e+00	0.00000e+00	0.00000e+00	0.00000e+00	0.00000e+00	0.00000e+00	0.00000e+00	0.00000e+00	0.00000e+00	0.00000e+00	0.00000e+00	0.00000e+00	0.00000e+00	0.00000e+00	0.00000e+00	0.00000e+00	0.00000e+00	0.00000e+00	0.00000e+00	0.00000e+00	0.00000e+00	0.00000e+00	
Factor	1.00000e+00	1.00000e+00	1.00000e+00	1.00000e+00	1.00000e+00	1.00000e+00	1.00000e+00	1.00000e+00	1.00000e+00	1.00000e+00	1.00000e+00	1.00000e+00	1.00000e+00	1.00000e+00	1.00000e+00	1.00000e+00	1.00000e+00	1.00000e+00	1.00000e+00	1.00000e+00	1.00000e+00	1.00000e+00	1.00000e+00	1.00000e+00	1.00000e+00	1.00000e+00	1.00000e+00	1.00000e+00	1.00000e+00	1.00000e+00	1.00000e+00	1.00000e+00	X	X	X	X	X	X	X	X	X	X	X	X	X	X	X	X	

B = Detector Channel
Val Type	B-AC1	B-AC2	B-AC3	B-AC4	B-AC5	B-AC6	B-AC7	B-AC8	B-AC9	B-AC10	B-AC11	B-AC12	B-AC13	B-AC14	B-AC15	B-AC16	B-DC1	B-DC2	B-DC3	B-DC4	B-DC5	B-DC6	B-DC7	B-DC8	B-DC9	B-DC10	B-DC11	B-DC12	B-DC13	B-DC14	B-DC15	B-DC16	B-Ph1	B-Ph2	B-Ph3	B-Ph4	B-Ph5	B-Ph6	B-Ph7	B-Ph8	B-Ph9	B-Ph10	B-Ph11	B-Ph12	B-Ph13	B-Ph14	B-Ph15	B-Ph16	

Term	0.00000e+00	0.00000e+00	0.00000e+00	0.00000e+00	0.00000e+00	0.00000e+00	0.00000e+00	0.00000e+00	0.00000e+00	0.00000e+00	0.00000e+00	0.00000e+00	0.00000e+00	0.00000e+00	0.00000e+00	0.00000e+00	0.00000e+00	0.00000e+00	0.00000e+00	0.00000e+00	0.00000e+00	0.00000e+00	0.00000e+00	0.00000e+00	0.00000e+00	0.00000e+00	0.00000e+00	0.00000e+00	0.00000e+00	0.00000e+00	0.00000e+00	0.00000e+00	-1.09754e+02	-1.38239e+02	-1.31532e+02	-1.81391e+02	-5.83897e+01	-6.33243e+01	-1.56241e+02	-1.62015e+02	-6.27957e+01	-6.37577e+01	-1.71665e+02	-1.69273e+02	-1.84696e+02	-1.76456e+02	-6.03418e+01	-1.48566e+02	
Factor	1.80032e-05	1.77734e-04	5.07847e-05	1.53170e-01	1.28778e-06	1.75967e-06	1.74453e-01	5.42787e-02	1.21557e-06	1.68431e-06	9.53181e-02	3.01745e-02	2.53625e-02	9.70778e-03	1.52160e-06	1.39865e-02	5.92495e-06	7.47141e-06	2.08445e-06	7.86376e-02	7.93799e-08	8.28280e-08	8.42936e-02	2.80420e-02	7.93589e-08	8.30258e-08	4.74837e-02	1.51785e-02	1.32141e-02	5.04186e-03	8.08542e-08	7.02531e-03	X	X	X	X	X	X	X	X	X	X	X	X	X	X	X	X	



#DISTANCE SETTINGS
A = Detector Channel
A-1	A-2	A-3	A-4	A-5	A-6	A-7	A-8	A-9	A-10	A-11	A-12	A-13	A-14	A-15	A-16	

2.5000e+00	3.0000e+00	2.5000e+00	3.0000e+00	2.0000e+00	3.0000e+00	1.5000e+00	3.0000e+00	3.0000e+00	3.0000e+00	3.0000e+00	3.0000e+00	3.0000e+00	3.0000e+00	1.5000e+00	3.0000e+00	

B = Detector Channel
B-1	B-2	B-3	B-4	B-5	B-6	B-7	B-8	B-9	B-10	B-11	B-12	B-13	B-14	B-15	B-16	

1.0000e+01	1.0000e+01	1.0000e+01	1.4400e+00	1.0000e+01	1.0000e+01	1.5100e+00	1.9400e+00	1.0000e+01	1.0000e+01	1.9900e+00	2.4900e+00	2.4100e+00	2.9000e+00	1.0000e+01	2.9800e+00	




#DATA BEGINS
time	group	step	mark	flag	A-AC1	A-AC2	A-AC3	A-AC4	A-AC5	A-AC6	A-AC7	A-AC8	A-AC9	A-AC10	A-AC11	A-AC12	A-AC13	A-AC14	A-AC15	A-AC16	A-DC1	A-DC2	A-DC3	A-DC4	A-DC5	A-DC6	A-DC7	A-DC8	A-DC9	A-DC10	A-DC11	A-DC12	A-DC13	A-DC14	A-DC15	A-DC16	A-Ph1	A-Ph2	A-Ph3	A-Ph4	A-Ph5	A-Ph6	A-Ph7	A-Ph8	A-Ph9	A-Ph10	A-Ph11	A-Ph12	A-Ph13	A-Ph14	A-Ph15	A-Ph16	B-AC1	B-AC2	B-AC3	B-AC4	B-AC5	B-AC6	B-AC7	B-AC8	B-AC9	B-AC10	B-AC11	B-AC12	B-AC13	B-AC14	B-AC15	B-AC16	B-DC1	B-DC2	B-DC3	B-DC4	B-DC5	B-DC6	B-DC7	B-DC8	B-DC9	B-DC10	B-DC11	B-DC12	B-DC13	B-DC14	B-DC15	B-DC16	B-Ph1	B-Ph2	B-Ph3	B-Ph4	B-Ph5	B-Ph6	B-Ph7	B-Ph8	B-Ph9	B-Ph10	B-Ph11	B-Ph12	B-Ph13	B-Ph14	B-Ph15	B-Ph16	aux-1	digaux	

35325.324	1	1	0	256	0.11714	0.27917	0.24222	0.18632	0.12395	0.039688	0.064873	0.33645	0.12036	0.14105	0.13313	0.16631	0.15841	0.18867	0.25023	0.14835	-0.75625	-1.0458	-0.4375	-1.4021	-0.50833	-0.91042	-1.2729	-0.38958	-1.2917	-0.92292	-0.39375	-1.3167	-0.74375	-0.6625	-1.3771	-0.39375	-69.860	178.215	183.698	176.258	28.499	-24.131	22.069	141.779	-84.740	59.164	214.699	196.978	-65.559	25.092	126.946	138.141	0.00014565	0.0007524	0.0001769	722.78	3.7795e-06	1.4859e-05	400.67	222.36	6.9251e-06	1.0277e-05	114.05	44.048	84.087	36.27	9.0141e-06	17.772	0.010062	0.012699	0.0034986	869.98	0.00013165	0.00013685	545.32	273.06	0.0001256	0.00012736	187.12	67.611	106.17	44.784	0.00010856	27.442	-74.575	1.482	170.196	-105.518	45.334	71.072	-107.593	-101.567	-81.350	206.785	-104.830	-101.695	-97.462	-93.065	47.514	-98.469	-8191	255	
35325.445	1	1	0	0	0.22624	0.041735	0.17057	0.19772	0.17454	0.077048	0.25747	0.095497	0.1999	0.22737	0.19999	0.17683	0.046683	0.063987	0.13438	0.2525	-1.0708	-1.1396	-0.39792	-1.2521	-0.61458	-0.68542	-1.5729	-0.33958	-0.82083	-1.2333	-0.2875	-1.2479	-0.80833	-0.47917	-1.35	-0.42292	-89.798	-74.355	110.858	111.755	209.530	151.358	106.359	-80.345	31.718	6.019	162.388	-65.972	172.183	226.125	63.867	-5.959	0.00022661	0.00077504	0.00023977	717	3.3404e-06	6.6803e-06	383.15	215.17	5.9049e-06	7.3966e-06	108.07	41.691	81.198	34.665	6.6561e-06	16.86	0.0075483	0.0091625	0.0024611	819.89	8.5996e-05	8.5642e-05	476.17	247.73	7.492e-05	7.6479e-05	153.33	56.568	95.761	40.419	7.0359e-05	23.474	210.152	195.924	-53.291	-105.273	-112.504	223.897	-107.529	-101.097	53.418	-4.965	-104.391	-101.393	-96.995	-92.347	-110.460	-97.684	-8191	255	
35325.539	1	1	0	0	0.26584	0.29496	0.071945	0.33154	0.21088	0.24141	0.13021	0.2336	0.029864	0.15056	0.074778	0.15023	0.36616	0.23091	0.056149	0.22963	-0.49375	-0.98958	-0.21875	-1.1771	-0.7875	-0.55	-1.1542	-0.6	-0.925	-1.0646	-0.32708	-1.0458	-0.93958	-0.53333	-1.3271	-0.62083	223.926	-41.128	-28.827	-89.907	234.652	80.501	116.312	218.384	185.270	-67.449	-94.740	220.899	92.117	168.605	238.376	185.587	0.00010762	0.00033986	0.00034268	711.43	4.6893e-06	9.2398e-06	389.63	219.25	5.3581e-06	3.0743e-06	110.68	41.906	81.199	33.027	3.721e-06	15.554	0.0051994	0.0064726	0.0018156	795.09	7.0134e-05	7.3089e-05	472.42	250.12	7.305e-05	7.6633e-05	156.66	57.284	96.28	38.836	7.3896e-05	22.505	229.093	58.712	164.507	-105.471	46.424	-62.941	-107.725	-100.804	230.928	49.004	-104.536	-101.922	-97.211	-92.236	93.050	-97.547	-8191	255	
35325.637	1	1	0	0	0.30956	0.055015	0.36129	0.28594	0.29155	0.30331	0.3378	0.17925	0.20663	0.44174	0.24632	0.33242	0.16802	0.1606	0.075884	0.13177	-0.27917	-1.0833	-0.25625	-1.1375	-1.0667	-0.31458	-1.3354	-0.575	-0.58542	-1.3375	-0.44375	-1.0979	-1.0333	-0.39792	-1.2667	-0.39375	201.741	50.850	-97.571	189.868	3.441	174.612	214.639	164.032	76.797	110.630	-3.022	-56.763	74.910	-52.546	110.898	-7.383	0.00010472	0.00078129	0.00021194	717.24	7.7818e-06	7.3031e-06	390.93	222.66	1.5057e-06	1.1747e-05	115.84	44.219	85.544	33.038	3.477e-06	15.554	0.0055466	0.0071233	0.002039	809.96	8.2746e-05	8.9431e-05	495.02	263.25	0.00010225	0.00011615	190.19	72.095	113.94	44.899	0.00017782	31.959	205.285	50.109	164.190	-105.415	-79.927	149.218	-107.801	-101.573	213.403	2.492	-104.761	-102.787	-98.382	-92.355	-39.217	-97.544	-8191	255	
35325.730	1	1	0	0	0.2844	0.41587	0.061994	0.28209	0.25395	0.24944	0.20528	0.30634	0.076107	0.18156	0.085268	0.14848	0.054598	0.2461	0.096961	0.26385	-0.2125	-1.3	-0.18125	-1.0125	-1.0854	-0.32708	-1.4771	-0.70625	-0.51458	-1.3958	-0.30417	-0.79375	-1.1271	-0.39375	-1.1896	-0.70208	-97.425	87.653	-109.395	196.992	139.298	226.355	156.308	207.908	97.414	107.463	229.154	-6.040	-41.366	-111.306	-114.264	229.479	0.00012054	0.0010537	0.00033566	728.15	3.513e-06	5.2809e-06	392.87	216.55	3.2359e-06	9.9612e-06	104.76	35.998	72.679	31.655	1.2565e-05	15.14	0.013735	0.017679	0.0050558	938.86	0.00019985	0.00021318	624.95	297.68	0.00021179	0.0002236	237.4	78.817	111.38	46.805	0.00022257	35.088	-16.019	-53.848	94.755	-105.756	131.918	26.176	-107.748	-101.665	-37.564	236.463	-104.805	-101.783	-96.940	-91.132	-31.836	-97.795	-8191	255	
35325.852	1	1	0	0	0.029205	0.51391	0.22055	0.12773	0.34918	0.1401	0.0022103	0.28296	0.11894	0.0044415	0.13419	0.077047	0.092309	0.2473	0.23539	0.046621	-0.083333	-1.3229	-0.24375	-1.0146	-1.0854	-0.40833	-1.075	-0.90625	-0.53333	-1.2521	-0.51042	-0.81667	-1.2271	-0.41875	-1.1896	-0.83125	58.816	146.258	-51.120	-15.804	-91.332	214.317	1.447	177.167	208.944	54.891	5.244	122.725	-88.587	-78.532	-97.752	202.491	0.00018675	0.00098593	0.00038863	699.29	6.7845e-06	2.732e-06	378.21	205.41	1.1769e-06	7.3331e-06	98.168	32.927	67.404	31.874	1.1225e-05	15.662	0.016316	0.02058	0.0057755	936.2	0.0002182	0.00022711	617.08	288.44	0.00021615	0.0002269	231.53	75.838	106.3	47.2	0.00022411	35.567	-108.668	155.841	-37.264	-105.447	92.689	121.522	-107.589	-101.582	-112.947	16.521	-104.080	-101.199	-95.955	-90.861	143.039	-96.553	-8191	255	
35325.949	1	1	0	0	0.19836	0.18652	0.011851	0.081457	0.10698	0.29169	0.35399	0.16366	0.10943	0.051334	0.026867	0.11315	0.25832	0.37427	0.2505	0.13473	-0.045833	-1.175	-0.51042	-0.52292	-1.125	-0.42292	-1.1104	-1.0479	-0.32917	-1.3062	-0.50625	-0.43333	-1.3229	-0.33542	-1.0833	-1.0562	19.840	187.463	28.755	-118.453	-63.513	-44.526	-118.000	-87.510	205.430	39.472	39.556	-32.902	121.519	99.504	135.284	-90.010	9.5166e-05	0.0018294	7.938e-05	675.76	5.9725e-06	1.5325e-05	359.93	194.39	4.1077e-06	1.1184e-05	93.949	31.971	66.802	31.793	1.1092e-05	15.358	0.016462	0.020886	0.0058549	911.03	0.00022221	0.0002333	608.51	280.07	0.00022391	0.00023682	232.15	76.944	106.78	47.564	0.00023531	36.295	-58.396	-108.983	176.097	-105.233	48.127	65.234	-106.950	-100.760	66.942	-80.074	-104.465	-100.548	-95.813	-90.628	119.963	-95.714	-8191	255	
35326.020	1	1	0	0	0.082038	0.079792	0.10417	0.19394	0.040304	0.21266	0.054751	0.24448	0.17193	0.076605	0.053112	0.23679	0.22884	0.11661	0.1569	0.17797	0.19792	-1.1479	-0.52917	-0.42708	-1.2917	-0.38542	-0.88542	-1.2062	-0.32292	-1.15	-0.525	-0.35417	-1.1562	-0.53333	-0.7	-1.2375	-15.234	185.751	94.763	183.808	-92.815	195.457	77.076	43.113	-14.312	58.348	236.121	-67.561	-63.713	9.881	-70.795	228.642	0.00020569	0.0028648	0.00038893	677.65	1.7833e-05	1.0865e-06	362.23	191.61	1.9341e-05	8.4295e-06	90.027	31.401	64.442	30.626	1.2028e-05	14.473	0.017339	0.022008	0.0061968	925.62	0.00023646	0.00024893	623.85	282.06	0.00024044	0.00025417	239.21	78.757	107.51	47.557	0.00025226	37.185	-57.616	-28.172	91.817	-105.502	-98.199	237.159	-107.462	-100.852	125.820	71.079	-104.147	-99.410	-96.027	-90.326	155.257	-96.155	-8191	255	
35326.113	1	1	0	0	0.26917	0.093519	0.14929	0.23442	0.23954	0.20217	0.36242	0.0868	0.12221	0.25467	0.30329	0.13655	0.094165	0.22584	0.16184	0.13391	0.2	-1.1417	-0.75625	-0.53542	-1.1021	-0.50208	-0.62083	-1.1792	-0.35417	-0.91875	-0.95417	-0.43125	-1.2625	-0.57917	-0.66875	-1.2208	3.411	-102.016	-56.055	40.780	240.167	162.383	-39.427	75.056	29.082	229.724	130.587	130.144	-38.523	-69.810	-46.999	-83.122	1.3337e-05	0.0021876	0.00033335	663.16	1.0909e-05	8.341e-06	339.7	181.46	6.0883e-06	1.034e-05	82.527	28.968	61.422	29.047	4.5742e-06	13.784	0.018703	0.023882	0.0065181	907.4	0.00021788	0.00021362	550.76	247.04	0.00015	0.00013678	152.45	48.812	77.845	35.037	6.8518e-05	19.507	-13.236	-78.926	233.138	-105.333	170.496	121.525	-107.853	-100.934	183.354	-5.524	-103.738	-100.031	-95.703	-90.862	228.732	-96.151	-8191	255	
35326.234	1	1	0	0	0.12675	0.13135	0.16319	0.31443	0.12445	0.10489	0.086082	0.047018	0.078359	0.14772	0.23054	0.21308	0.20346	0.091888	0.30517	0.1416	0.01875	-0.96042	-0.75417	-0.47708	-1.0708	-0.59583	-0.72083	-1.175	-0.15208	-0.925	-1.0063	-0.22708	-0.97917	-0.8125	-0.50417	-1.2896	23.693	-64.029	5.838	107.150	-34.844	110.586	90.005	37.228	-14.054	-31.830	53.375	-64.227	138.461	26.626	175.689	38.724	8.0072e-05	0.00047061	0.00012144	632.54	2.6833e-06	6.1128e-06	333.99	186.81	2.4221e-06	3.8158e-06	89.224	31.851	67.403	29.904	3.5316e-06	14.038	0.0042611	0.0050525	0.0013235	691.71	4.4979e-05	4.5175e-05	384.79	205.01	3.7786e-05	3.7621e-05	111.05	38.929	74.548	32.783	2.9089e-05	16.757	239.758	189.776	-111.339	-105.209	76.263	93.586	-107.389	-100.833	-51.046	-3.764	-104.274	-100.501	-95.662	-90.700	199.771	-95.766	-8191	255	
35326.332	1	1	0	0	0.10029	0.2844	0.12233	0.18407	0.37936	0.22092	0.10878	0.086136	0.14073	0.41608	0.18333	0.12299	0.18721	0.31648	0.20137	0.27675	-0.12083	-0.97708	-0.97292	-0.22292	-0.99167	-0.70625	-0.52917	-1.3604	-0.16042	-0.96875	-1.1562	-0.17083	-1.1854	-0.85625	-0.475	-1.1958	-43.723	-100.207	-40.293	199.915	-92.539	-31.717	8.459	-66.686	-71.594	198.669	94.040	48.268	223.508	-93.579	-12.452	155.197	9.0065e-05	0.00016415	7.0138e-05	658.52	3.4911e-06	5.0249e-06	345.88	197.12	4.9639e-06	1.8839e-06	92.107	32.421	68.33	30.701	5.3958e-06	14.534	0.0020122	0.0024153	0.0006505	691.53	2.3762e-05	2.4203e-05	375.49	209.71	2.1906e-05	2.2737e-05	106.52	37.402	74.043	33.111	2.129e-05	16.715	-114.725	47.309	-44.166	-105.395	104.208	104.844	-107.591	-100.414	-37.820	100.472	-103.782	-99.581	-95.613	-90.321	-31.793	-96.030	-8191	255	
35326.430	1	1	0	0	0.24546	0.20901	0.14221	0.36158	0.11923	0.22822	0.14109	0.41881	0.2115	0.1301	0.37696	0.060176	0.20644	0.2502	0.055494	0.21574	-0.11667	-0.65208	-1.1854	-0.375	-0.98125	-1.0854	-0.35625	-1.2479	-0.575	-0.66875	-1.3042	-0.28333	-1.1688	-0.85417	-0.3875	-1.2979	62.949	-14.609	-115.071	197.215	-54.965	194.604	14.774	-112.074	3.199	48.824	52.267	152.762	154.693	202.026	44.334	-72.680	0.00010455	0.00052997	5.7803e-05	662.39	1.26e-06	6.9941e-06	349.28	199.46	1.2896e-06	2.3177e-06	94.151	32.536	68.247	30.827	5.3581e-06	14.523	0.001589	0.0019861	0.00054965	696.45	2.1624e-05	2.2964e-05	380.43	212.96	2.3168e-05	2.4194e-05	109.22	37.938	74.505	33.401	2.4449e-05	16.951	-110.194	-26.450	42.608	-105.064	200.276	146.303	-106.977	-100.652	37.132	171.808	-103.768	-99.854	-95.976	-90.234	119.385	-96.021	-8191	255	
35326.547	1	1	0	0	0.24439	0.29524	0.20458	0.26274	0.093752	0.10271	0.16379	0.27078	0.25161	0.15372	0.14179	0.3671	0.067989	0.25026	0.17217	0.09867	-0.275	-0.6125	-1.2146	-0.49583	-1.0187	-1.0375	-0.32708	-1.3604	-0.75625	-0.62292	-1.2938	-0.45625	-1.0938	-1.1271	-0.18125	-1.3479	180.541	-72.478	15.990	-103.172	-41.597	72.224	-89.250	-91.646	115.422	-10.810	11.072	-45.497	183.375	227.799	-15.167	-59.490	6.4288e-05	0.00028182	0.00018058	657.4	4.4001e-06	5.12e-06	344.75	191.89	1.133e-06	6.5689e-06	89.386	31.232	65.644	30.759	3.4246e-06	14.448	0.0018481	0.0023024	0.00063757	692.95	2.4481e-05	2.5148e-05	374.95	204.63	2.3507e-05	2.3953e-05	103.42	36.253	71.391	33.222	2.3625e-05	16.967	196.315	-90.656	-24.658	-105.181	27.688	65.358	-107.517	-100.575	155.511	-50.038	-103.510	-100.167	-95.233	-90.433	221.908	-95.745	-8191	255	
35326.617	1	1	0	0	0.14986	0.065092	0.062538	0.22004	0.095635	0.16218	0.025529	0.10615	0.10848	0.22485	0.38328	0.042386	0.41888	0.28033	0.25213	0.19494	-0.43542	-0.46042	-1.5104	-0.62708	-0.84167	-1.1417	-0.41667	-1.2542	-0.79167	-0.35625	-1.2333	-0.44792	-0.79167	-1.2583	-0.23125	-0.97083	175.665	-49.521	-12.987	237.723	200.133	143.646	150.483	152.276	-86.330	23.259	80.109	-79.456	198.690	-28.965	-46.733	-26.319	2.1504e-05	0.00060094	0.00019211	646.44	6.1252e-06	7.1973e-07	338.8	186.72	4.5815e-06	5.9827e-06	88.049	30.83	64.916	31.484	2.4745e-06	15.144	0.0018667	0.0024199	0.00071037	687.17	3.0448e-05	3.351e-05	380.53	203.31	3.5505e-05	3.7835e-05	110.77	39.071	73.793	34.997	3.9238e-05	18.942	-96.503	-104.551	4.075	-105.163	12.288	198.535	-107.183	-100.284	-20.477	36.212	-103.986	-99.585	-95.196	-90.186	-18.641	-95.739	-8191	255	
35326.719	1	1	0	0	0.17204	0.20328	0.33477	0.25559	0.1472	0.060523	0.11699	0.19574	0.18162	0.21547	0.13723	0.041316	0.069455	0.14604	0.14721	0.034416	-0.65625	-0.4625	-1.3625	-0.55	-0.87292	-1.2146	-0.10208	-1.2104	-0.95	-0.39583	-1.0812	-0.4	-0.7	-1.425	-0.35417	-1.0583	155.060	222.792	77.159	132.541	-73.996	228.186	199.552	-93.402	-70.821	-88.662	62.284	6.410	37.840	-66.010	48.873	200.782	6.1024e-05	0.00067756	0.00025769	649.33	2.1756e-06	3.0561e-06	339	186.67	4.6589e-06	5.9392e-06	86.707	31.407	66.295	32.055	6.9053e-06	15.482	0.0029596	0.0037234	0.0010353	699.88	3.9782e-05	4.1291e-05	389.47	205.76	4.2167e-05	4.5098e-05	115.87	41.198	76.046	36.258	5.1047e-05	20.408	216.503	-73.686	-34.045	-105.532	194.512	136.474	-107.600	-100.755	74.730	-49.941	-103.627	-99.979	-95.557	-90.619	161.351	-95.952	-8191	255	
35326.836	1	1	0	0	0.33643	0.16991	0.095587	0.25976	0.20336	0.1232	0.12288	0.19876	0.14993	0.10222	0.30998	0.36231	0.2038	0.36048	0.046051	0.18442	-0.61875	-0.42292	-1.2771	-0.63125	-0.52292	-1.3667	-0.55417	-0.87083	-0.92083	-0.19375	-1.1646	-0.75208	-0.37708	-1.2604	-0.43542	-0.81667	26.642	67.466	-57.742	221.423	-100.056	86.062	84.142	151.770	6.690	125.254	-72.189	205.661	228.760	-79.988	59.719	-13.865	7.2976e-05	0.0008326	0.00011595	651.4	5.997e-07	2.789e-06	343.66	188	2.6355e-06	4.8141e-06	89.142	31.719	66.299	32.125	8.2466e-06	15.753	0.0038572	0.0048781	0.0013746	715.27	5.2441e-05	5.4352e-05	406.09	211.39	5.1936e-05	5.4071e-05	121.7	42.567	77.119	36.656	5.394e-05	20.776	222.162	-51.647	-88.063	-105.266	-108.040	-3.803	-107.637	-100.935	134.105	-12.513	-103.665	-99.743	-95.760	-90.715	92.689	-95.657	-8191	255	
35326.934	1	1	0	0	0.20453	0.11861	0.1436	0.31795	0.15964	0.28302	0.15246	0.21086	0.21432	0.14626	0.25407	0.19668	0.29249	0.1307	0.18529	0.21097	-0.82083	-0.39792	-1.075	-0.88958	-0.38958	-1.1625	-0.40833	-0.68333	-1.1896	-0.25833	-0.96667	-0.88958	-0.44583	-1.4417	-0.41667	-0.71875	193.008	-42.067	75.201	178.847	18.052	175.541	105.229	-114.492	12.143	-10.910	-78.855	87.948	-92.030	-79.893	50.780	32.191	5.6158e-05	0.00056173	0.00015691	655.27	2.5532e-06	1.4462e-06	344.63	189.14	5.9942e-06	4.4229e-06	89.54	31.862	65.803	32.469	5.5699e-06	15.721	0.0039383	0.0049088	0.0013557	717.78	5.1238e-05	5.3041e-05	406.34	211.72	5.1455e-05	5.4642e-05	122.1	42.65	77.101	36.867	5.3062e-05	20.675	169.744	162.943	24.038	-105.588	-16.260	127.772	-107.740	-100.542	107.766	30.423	-103.744	-100.060	-95.684	-90.686	-103.704	-95.958	-8191	255	
35327.027	1	1	0	0	0.070561	0.053014	0.18334	0.23114	0.29229	0.19505	0.063989	0.22875	0.18906	0.4028	0.1992	0.23005	0.036464	0.23166	0.24143	0.36902	-0.8375	-0.24792	-1.15	-0.97083	-0.37083	-1.3542	-0.74167	-0.70417	-1.3229	-0.45625	-1.0187	-0.93125	-0.25833	-1.2687	-0.62083	-0.54167	174.806	33.965	191.124	156.506	221.217	-59.374	109.366	166.693	136.679	213.168	78.362	238.879	236.192	206.526	-22.360	-105.786	8.6273e-05	0.00037965	0.00018087	653.54	3.7084e-06	6.7476e-06	341.6	188.3	4.7882e-06	9.4171e-06	89.267	31.66	66.158	32.313	8.1188e-07	15.676	0.0037872	0.0046883	0.0012946	713.59	4.7828e-05	4.9749e-05	399.61	209.86	4.8892e-05	5.2051e-05	121.1	42.464	77.207	36.675	5.5637e-05	20.926	198.377	18.998	70.793	-105.734	-82.728	10.160	-107.528	-100.735	-2.049	9.188	-104.462	-100.300	-96.213	-90.951	-17.947	-95.955	-8191	255	
35327.148	1	1	0	0	0.085843	0.11389	0.11534	0.14211	0.074851	0.18201	0.22794	0.39721	0.33349	0.19515	0.25702	0.10589	0.021498	0.24101	0.097023	0.21455	-0.93542	-0.40208	-0.93958	-1.2229	-0.20208	-1.1479	-0.76458	-0.46875	-1.1625	-0.45625	-0.81875	-1.0771	-0.42083	-1.2979	-0.70625	-0.59792	-7.326	2.761	-82.363	210.298	81.791	157.623	-104.764	235.217	139.767	-51.184	-13.508	136.046	-17.974	208.442	7.334	186.755	6.827e-05	0.0003279	9.4907e-05	657.63	6.8839e-06	4.1305e-06	348.12	192.57	5.493e-06	6.0266e-06	91.684	32.624	68.014	32.842	3.7746e-06	16.011	0.0041923	0.0053421	0.001514	727.95	5.9384e-05	6.3472e-05	419.8	219.47	6.3983e-05	6.7927e-05	133.27	46.231	81.221	38.158	6.9109e-05	22.358	-73.757	221.175	76.364	-105.390	182.210	51.349	-107.697	-100.771	159.954	69.198	-103.846	-101.017	-95.781	-90.744	-45.986	-96.229	-8191	255	
35327.219	1	1	0	0	0.28953	0.26033	0.18507	0.073871	0.2064	0.37227	0.18605	0.19151	0.17234	0.34989	0.16704	0.12898	0.1363	0.27711	0.067452	0.22	-0.8375	-0.3125	-0.81458	-1.2458	-0.28542	-1.0458	-0.84375	-0.51458	-1.2958	-0.39792	-0.66667	-1.2521	-0.44375	-1.1688	-0.95833	-0.3625	44.534	201.457	26.554	204.378	154.971	-35.929	215.294	-13.815	215.435	-67.605	233.979	-26.310	175.198	-96.480	82.173	134.472	2.96e-05	0.00020099	0.00018084	665.09	8.1291e-06	3.3241e-06	352.81	193.76	2.44e-06	6.7423e-06	93.891	33.382	68.981	33.129	1.1569e-06	16.345	0.0050706	0.0063732	0.0017831	743.22	6.6928e-05	7.0939e-05	431.63	223.56	6.9593e-05	7.4452e-05	138.06	47.975	83.161	39.085	7.5376e-05	23.303	192.765	210.959	224.692	-105.716	-69.306	142.115	-107.274	-100.889	12.818	-62.030	-104.075	-100.452	-95.994	-90.564	4.984	-96.201	-8191	255	
35327.316	1	1	0	0	0.11481	0.08143	0.26999	0.19005	0.27891	0.38133	0.36246	0.48484	0.28241	0.23427	0.037253	0.043387	0.032068	0.013704	0.16257	0.40069	-0.8875	-0.64583	-0.74375	-1.3083	-0.375	-1.1167	-1.05	-0.30208	-1.15	-0.7	-0.39375	-1.3104	-0.60208	-1.0729	-1.075	-0.047917	226.945	240.731	-82.538	-10.825	27.769	230.421	183.789	165.271	-115.825	192.265	96.000	5.388	-25.673	85.160	-27.610	121.806	7.1671e-05	0.00017559	6.6371e-05	668.94	6.783e-06	5.202e-06	354.43	195.88	2.5039e-06	1.7602e-06	93.8	33.355	68.989	33.263	4.0878e-06	16.239	0.0056431	0.0071853	0.0019833	755.77	7.4399e-05	7.6475e-05	438.29	226.19	7.2413e-05	7.5351e-05	138.99	48.032	83.407	39.021	7.2163e-05	23.02	-118.414	104.298	120.596	-105.440	30.520	82.938	-107.657	-101.227	80.225	230.139	-103.747	-99.606	-95.926	-90.397	134.901	-95.871	-8191	255	
35327.414	1	1	0	0	0.16352	0.18338	0.12745	0.11594	0.23508	0.1903	0.1298	0.057137	0.12404	0.19789	0.22273	0.083017	0.22308	0.078703	0.028073	0.097362	-0.87292	-0.69375	-0.24375	-1.4	-0.4625	-0.80833	-1.2167	-0.34792	-1.3188	-0.91042	-0.4625	-1.2021	-0.45208	-0.89375	-1.0333	-0.41875	-62.843	89.074	69.994	-117.675	-13.734	-39.233	122.182	8.348	184.254	146.973	227.506	-89.690	-115.659	189.029	231.351	83.642	0.00011909	0.0018806	0.00021971	669.62	2.7207e-06	3.6134e-06	352.95	195.15	8.2922e-07	9.3979e-07	93.183	32.907	68.615	33.064	4.1258e-06	16.036	0.0053361	0.0066899	0.0018533	751.97	7.1241e-05	7.4461e-05	435.13	225.47	7.0869e-05	7.3378e-05	136.78	47.301	82.66	38.672	7.1776e-05	22.719	-116.162	-35.501	-16.598	-105.089	61.538	54.366	-107.311	-100.684	208.824	114.701	-103.954	-99.825	-95.948	-90.631	95.888	-95.508	-8191	255	
35327.531	1	1	0	0	0.20007	0.25384	0.12848	0.11568	0.30695	0.23991	0.017625	0.16349	0.21887	0.062638	0.23686	0.1392	0.072411	0.26934	0.22773	0.039926	-0.55833	-0.66458	-0.54583	-1.2938	-0.48333	-0.75833	-1.3646	-0.46667	-1.3583	-0.99375	-0.31042	-1.0417	-0.64167	-0.76042	-1.2375	-0.14792	-89.886	167.410	17.909	90.965	85.841	-47.014	20.885	149.045	85.603	222.154	141.683	96.647	-54.030	231.284	20.402	-71.403	5.5921e-05	0.0005555	0.00020467	665.6	1.3284e-06	1.0617e-05	351.59	192.73	5.9276e-06	5.2274e-06	92.643	32.839	68.124	32.674	7.8169e-06	15.952	0.0053382	0.0066862	0.0018509	748.19	7.1177e-05	7.4522e-05	432.4	224.08	7.112e-05	7.4248e-05	136.73	47.102	82.063	38.356	7.0688e-05	22.469	112.005	161.037	89.195	-105.507	40.153	-32.642	-107.673	-100.744	168.293	185.429	-103.950	-100.025	-95.637	-90.530	-80.775	-95.503	-8191	255	
35327.629	1	1	0	0	0.057899	0.10067	0.04115	0.14719	0.22456	0.35581	0.17863	0.14826	0.055337	0.29723	0.29588	0.3065	0.13992	0.29648	0.26068	0.11597	-0.66667	-0.79583	-0.27083	-1.3125	-0.54583	-0.60208	-1.4125	-0.34583	-0.91667	-1.1604	-0.45833	-1.2812	-0.68125	-0.61458	-1.1187	-0.32292	-7.951	156.282	43.957	-14.435	70.281	221.552	214.536	171.876	-67.319	-62.298	33.428	113.385	42.666	-96.231	-102.087	-57.232	1.7784e-05	0.0019011	8.1257e-05	666.65	4.8438e-06	1.0839e-05	349.67	193.49	3.9035e-06	3.8268e-06	94.662	32.804	68.525	33.018	6.4569e-06	16.15	0.0051751	0.0064969	0.0018038	746.81	6.9294e-05	7.228e-05	431.08	223.52	6.976e-05	7.3349e-05	137.16	47.363	82.613	38.563	7.2328e-05	22.798	175.632	-47.312	18.555	-105.292	199.367	23.937	-107.256	-100.511	78.193	153.741	-103.949	-100.078	-95.824	-90.747	-103.910	-95.871	-8191	255	
35327.723	1	1	0	0	0.098247	0.21611	0.13334	0.22227	0.1985	0.29415	0.26543	0.078489	0.17046	0.033497	0.12303	0.070548	0.26369	0.19159	0.1123	0.30431	-0.39167	-1.1042	-0.12083	-1.4146	-0.79375	-0.37708	-1.4229	-0.5625	-0.77083	-1.0625	-0.41042	-1.3104	-0.82917	-0.33125	-1.375	-0.53125	163.742	16.704	95.233	178.983	26.432	46.530	227.051	-53.456	-92.863	-101.763	13.817	-38.250	74.636	-85.204	108.557	224.984	7.2054e-05	0.00070796	0.00022821	669.32	4.5284e-06	1.8419e-06	352.98	196.31	4.7907e-06	6.8451e-06	94.169	33.683	69.641	33.226	5.4052e-06	16.312	0.0053756	0.0067673	0.0018946	752.06	7.28e-05	7.558e-05	437.37	227.1	7.3491e-05	7.6703e-05	140.45	48.884	84.365	39.232	7.799e-05	23.629	-54.053	188.834	-38.755	-105.155	-44.488	-74.836	-107.380	-100.779	72.891	39.194	-104.389	-100.366	-95.699	-90.510	17.994	-95.734	-8191	255	
35327.820	1	1	0	0	0.15092	0.10664	0.20897	0.23779	0.35999	0.10575	0.054027	0.062567	0.20943	0.11844	0.017182	0.27537	0.067447	0.12455	0.077554	0.11584	-0.20833	-1.1146	-0.40833	-1.175	-0.98958	-0.55833	-1.2437	-0.66667	-0.56042	-1.4792	-0.33958	-0.98958	-1.2271	-0.49583	-1.2854	-0.81875	105.979	229.340	-51.600	194.784	57.481	9.609	-117.048	-23.920	81.530	-117.907	143.951	173.094	116.984	-110.883	185.555	95.678	0.00013799	0.0010135	0.00024331	676.06	3.006e-06	2.0089e-06	360.56	200.6	5.6284e-06	9.1055e-06	97.55	34.765	71.407	33.626	2.5536e-06	16.558	0.0058801	0.0074521	0.0021026	769.9	8.2508e-05	8.7003e-05	458.92	236.27	8.5987e-05	9.1013e-05	152.54	52.613	88.561	40.436	9.2238e-05	25.033	-116.578	-60.734	-18.963	-105.099	127.733	-116.623	-107.726	-100.787	6.775	43.339	-104.079	-100.215	-96.391	-90.893	-25.168	-96.394	-8191	255	
35327.914	1	1	0	0	0.32083	0.12479	0.20972	0.27481	0.34241	0.064138	0.24661	0.29125	0.23295	0.088834	0.33763	0.18926	0.071852	0.20008	0.2021	0.20803	-0.10625	-1.3708	-0.33333	-1.0063	-0.89792	-0.31667	-1.3917	-0.73958	-0.4875	-1.1729	-0.37083	-0.83958	-1.0562	-0.35833	-1.0729	-0.64167	137.239	-3.939	-71.173	196.162	166.562	234.006	158.635	-115.254	-12.646	-9.235	-92.010	-82.670	0.355	-84.893	172.533	167.789	0.00013301	0.00051148	0.00044207	689.29	1.2382e-05	1.3241e-05	365.48	206.79	6.3031e-06	1.3301e-05	101.28	35.578	72.91	34.077	3.3927e-06	16.619	0.0069142	0.0087885	0.0025146	798.8	9.8356e-05	0.00010406	482.8	248.09	0.00010454	0.00011038	167.16	57.699	94.226	42.147	0.00011558	27.219	-104.296	-106.308	-9.249	-105.583	38.125	45.638	-107.999	-101.269	75.991	62.943	-104.115	-100.859	-96.215	-90.920	75.036	-96.468	-8191	255	
35328.012	1	1	0	0	0.076965	0.36256	0.41032	0.39713	0.065203	0.069241	0.1088	0.07162	0.14188	0.17112	0.034615	0.25222	0.11508	0.022609	0.23048	0.026092	-0.022917	-1.3271	-0.39792	-0.87917	-1.0583	-0.38333	-1.0812	-0.76667	-0.47292	-1.3813	-0.55417	-0.69167	-1.1562	-0.35	-1.1104	-0.87292	47.543	222.764	33.471	-66.191	-8.302	152.910	102.785	185.358	109.478	135.892	157.045	116.066	-84.997	226.525	-85.331	89.958	9.3998e-05	0.0015199	0.00017206	694.16	6.8566e-06	2.0638e-05	373.21	210.42	1.2291e-05	9.6583e-06	103.56	36.264	74.205	33.868	2.9372e-06	16.554	0.008596	0.010932	0.0030986	827.72	0.00012029	0.00012648	512.34	259.06	0.00012336	0.00012958	180.16	61.605	97.428	42.985	0.00012758	27.979	188.740	238.801	-51.127	-105.502	107.453	76.866	-107.698	-101.455	136.722	150.312	-104.472	-100.608	-96.860	-91.296	-36.023	-96.397	-8191	255	
35328.109	1	1	0	0	0.041286	0.19102	0.10663	0.15683	0.3518	0.046291	0.47007	0.22103	0.23674	0.1158	0.17649	0.18839	0.16449	0.12249	0.23894	0.10819	-0.175	-1.1917	-0.38125	-0.72917	-1.2958	-0.425	-1.0896	-1.0646	-0.31667	-1.2687	-0.43333	-0.57917	-1.2771	-0.36042	-0.92292	-1.2458	-30.343	-91.608	-13.592	207.898	22.541	-5.170	-88.303	231.884	-115.392	20.239	220.668	230.227	-86.697	175.503	44.376	73.446	5.7089e-05	0.00050913	0.00015833	697.8	3.5474e-06	4.9923e-06	374.62	208.64	4.6173e-06	1.1415e-05	102.58	36.295	73.842	33.569	2.0183e-05	16.574	0.0092879	0.01165	0.0032562	832.73	0.00012244	0.00012742	511.33	257.12	0.0001211	0.00012699	176.69	60.298	95.963	42.272	0.0001219	27.398	188.658	-114.829	-62.391	-105.623	-106.127	-78.049	-107.818	-101.272	29.410	-54.232	-104.432	-100.912	-96.461	-90.562	18.852	-95.854	-8191	255	
35328.230	1	1	0	0	0.10331	0.40833	0.16526	0.31826	0.5204	0.19343	0.14508	0.27852	0.10913	0.057577	0.17049	0.39414	0.14139	0.25957	0.21367	0.032266	0.23542	-1.2646	-0.50833	-0.48542	-1.2229	-0.45417	-0.91458	-1.1313	-0.38125	-1.1812	-0.74583	-0.55833	-1.3167	-0.41458	-0.81667	-1.225	-45.270	-106.282	-19.951	-114.987	35.723	214.030	186.636	210.996	-48.492	238.866	85.088	202.597	33.737	238.966	66.129	-77.841	0.000212	0.00074324	0.00028359	690.75	8.2146e-06	1.7548e-06	372.46	206.96	3.6166e-06	2.0899e-05	103.53	36	73.871	33.715	5.2096e-06	16.625	0.0089263	0.011217	0.003124	823.98	0.00011758	0.00012332	507.25	254.8	0.00011701	0.0001229	175.1	59.705	95.751	42.276	0.00011917	27.158	174.591	-115.160	64.668	-105.180	-99.726	83.333	-107.300	-101.073	119.870	72.722	-104.524	-100.732	-96.358	-90.659	186.491	-96.552	-8191	255	
35328.324	1	1	0	0	0.19275	0.07503	0.14173	0.16034	0.22177	0.17367	0.37433	0.23287	0.31524	0.12453	0.11597	0.30545	0.14185	0.24702	0.34034	0.20412	0.11667	-1.0083	-0.92708	-0.50417	-1.4062	-0.50417	-0.85	-1.1458	-0.20833	-0.94792	-0.87292	-0.36667	-1.2083	-0.38125	-0.50625	-1.1875	-111.050	108.339	173.102	197.332	107.226	-41.944	-109.264	-59.156	-117.148	35.567	23.356	202.948	-83.135	-92.039	229.564	123.787	0.00015522	0.0015144	4.854e-05	693.05	6.6591e-06	2.6146e-06	375.29	207.38	9.5404e-06	4.261e-06	102.34	36.102	74.015	33.86	1.5836e-06	16.672	0.00864	0.010899	0.0030401	820.15	0.00011482	0.00012003	501.63	253.49	0.00011448	0.00011939	172.47	58.934	95.14	42.332	0.00011617	27.103	-60.637	100.849	179.808	-105.386	165.191	-117.201	-107.756	-101.282	-76.498	-76.589	-104.482	-100.703	-96.594	-91.354	-25.912	-96.474	-8191	255	
35328.422	1	1	0	0	0.16776	0.060637	0.30834	0.41533	0.018155	0.37188	0.19372	0.34505	0.0746	0.20261	0.22294	0.40119	0.06917	0.083562	0.19138	0.026159	0.035417	-0.89792	-0.95	-0.44167	-1.0458	-0.54167	-0.65625	-1.4062	-0.33125	-0.90208	-1.0458	-0.25208	-1.0479	-0.68958	-0.59167	-1.4646	-77.310	-59.866	-47.652	-104.560	73.273	137.075	-109.648	222.886	-2.274	-114.520	163.537	-59.566	-89.283	-102.703	8.517	-51.358	2.1873e-05	0.0001181	0.0003256	690.23	6.3733e-06	6.402e-06	367.87	206.48	1.2241e-05	1.1316e-05	100.3	35.615	73.237	33.662	2.864e-06	16.485	0.0085255	0.010762	0.0029736	817.9	0.00011223	0.00011687	493.76	251.4	0.00010929	0.00011414	167.03	57.423	93.647	41.795	0.00010882	26.356	-32.819	-45.412	224.951	-105.389	211.723	-87.372	-107.438	-101.137	-95.813	-64.849	-104.064	-100.079	-96.359	-90.882	-57.820	-95.959	-8191	255	
35328.516	1	1	0	0	0.12182	0.22697	0.086009	0.07538	0.3166	0.28517	0.48978	0.13669	0.038125	0.25142	0.21278	0.28199	0.1531	0.38935	0.23921	0.11374	-0.054167	-0.81458	-1.2333	-0.40208	-1.2729	-0.71042	-0.64792	-1.4646	-0.3	-0.9375	-1.0833	-0.23542	-1.2583	-0.81667	-0.49792	-1.2667	170.859	91.103	51.164	90.789	85.250	-90.892	-88.794	-113.336	-1.141	65.691	212.461	118.545	164.261	-118.287	221.835	29.009	9.6649e-05	0.00058709	3.7703e-05	691.44	7.6126e-06	4.4939e-06	369.87	207.64	3.3612e-06	1.3634e-05	101.31	36.45	74.197	34.132	1.2496e-06	16.794	0.0080279	0.010088	0.002824	810.27	0.0001089	0.00011338	491.84	251.77	0.00010951	0.00011537	170.07	58.542	95.045	42.322	0.00011205	26.875	237.048	-70.036	66.719	-104.968	135.171	70.584	-107.171	-100.766	-6.197	-42.838	-104.162	-100.772	-96.453	-91.185	-37.556	-96.454	-8191	255	
35328.613	1	1	0	0	0.18229	0.068668	0.12489	0.19599	0.23736	0.17539	0.064505	0.22847	0.26072	0.049839	0.17747	0.1461	0.33405	0.061296	0.26924	0.1718	-0.022917	-0.475	-0.91667	-0.27708	-1.0458	-0.8625	-0.325	-1.1875	-0.3875	-0.74792	-1.2604	-0.35833	-0.975	-0.9625	-0.38333	-1.1875	180.129	210.872	-50.336	171.609	214.906	225.945	33.734	199.928	187.862	179.915	-96.034	224.134	181.703	86.535	230.208	172.217	0.00021855	0.00054443	0.00041694	689.29	4.3381e-06	1.0351e-05	369.74	209.59	5.4062e-06	8.1181e-06	102.29	36.744	74.454	34.006	8.9086e-06	16.738	0.0082472	0.010374	0.0028765	812.69	0.0001099	0.0001147	495.23	253.4	0.00011047	0.00011544	170.97	58.925	95.618	42.258	0.00011309	26.972	209.583	236.273	-67.999	-105.170	233.672	67.164	-107.672	-100.627	-117.499	157.998	-104.371	-100.715	-96.185	-90.774	70.687	-95.860	-8191	255	
35328.707	1	1	0	0	0.14533	0.099837	0.052427	0.18501	0.1723	0.28777	0.34713	0.059813	0.08399	0.24855	0.19933	0.087529	0.17334	0.16204	0.12546	0.30139	-0.12292	-0.51458	-1.2479	-0.4	-1.0938	-0.96458	-0.56042	-1.1437	-0.4125	-0.62917	-1.2167	-0.34583	-0.95	-1.0104	-0.21042	-1.1708	224.088	130.556	227.823	-68.975	-31.442	-97.229	-83.004	225.145	141.710	-2.269	214.415	107.531	143.459	-89.082	123.431	58.959	6.1905e-05	0.00031709	8.0978e-05	690.49	3.0459e-06	8.4196e-06	372.72	209.33	2.4076e-06	4.1829e-06	103.38	36.715	74.8	34.219	6.6431e-06	17.001	0.008331	0.010394	0.0028722	815.35	0.00010954	0.00011443	497.35	254.42	0.00011143	0.00011642	172.62	59.568	96.338	42.646	0.00011574	27.561	-105.392	1.067	197.410	-105.143	-96.725	69.818	-107.225	-100.921	117.397	-118.012	-103.952	-101.490	-96.290	-91.165	128.899	-96.017	-8191	255	
35328.828	1	1	0	0	0.32079	0.093233	0.18055	0.16898	0.12651	0.10798	0.15603	0.3087	0.048485	0.059656	0.2489	0.12494	0.28428	0.44446	0.38954	0.099335	-0.36667	-0.59583	-1.2437	-0.50417	-0.825	-1.1	-0.4625	-1.2458	-0.82917	-0.52292	-1.3042	-0.52917	-0.8	-1.1562	-0.33958	-1.2	204.059	-62.064	15.697	119.626	-43.738	-52.531	171.496	153.294	-70.050	228.641	204.084	-0.149	96.286	198.664	-71.565	-49.161	7.3721e-05	0.0010436	0.00049606	697.64	1.313e-06	3.8343e-06	378.28	212.58	2.984e-06	3.8105e-06	106.12	37.488	75.936	34.651	1.0335e-05	17.197	0.0086015	0.010776	0.0030048	824.46	0.00011499	0.00011937	506.39	259.25	0.00011543	0.00012003	176.08	61.045	98.318	43.35	0.00011966	28.007	-18.099	42.814	-8.603	-105.333	7.171	7.219	-107.314	-100.810	-58.662	-98.673	-104.332	-99.989	-96.608	-90.778	144.055	-95.982	-8191	255	
35328.926	1	1	0	0	0.10152	0.17487	0.27925	0.28248	0.15678	0.37522	0.19259	0.33249	0.16579	0.023819	0.21887	0.034336	0.13386	0.058008	0.25018	0.13714	-0.32917	-0.33542	-1.2542	-0.575	-0.59167	-1.2938	-0.50208	-1.2458	-1.1042	-0.36042	-1.2854	-0.57083	-0.49375	-1.4062	-0.3	-1.0021	-108.676	180.242	209.971	179.039	-98.601	52.993	218.052	189.775	70.933	16.961	169.238	124.285	147.961	193.464	37.741	98.997	1.7384e-05	0.0012564	0.00023355	698.98	4.3673e-06	5.591e-06	377.65	214.24	1.5513e-06	1.7335e-05	105.81	38.13	76.114	35.039	9.5361e-06	17.308	0.0088309	0.011098	0.00312	832.3	0.00011914	0.00012395	512.08	262.52	0.00011941	0.00012485	179.63	62.173	99.261	43.819	0.00012323	28.443	-90.365	99.066	182.784	-105.341	-27.225	-74.506	-107.783	-100.695	99.519	61.846	-104.422	-100.921	-96.623	-90.778	134.982	-95.899	-8191	255	
35329.020	1	1	0	0	0.23686	0.37219	0.20268	0.085178	0.18128	0.22485	0.16089	0.20457	0.10843	0.21371	0.13172	0.17535	0.27658	0.17	0.2534	0.095912	-0.76042	-0.37708	-1.2521	-0.71042	-0.5125	-1.225	-0.37083	-1	-1.0667	-0.31458	-1.2354	-0.91042	-0.575	-1.3937	-0.46458	-0.92292	212.212	106.933	-23.811	-16.902	76.301	22.799	146.866	-17.478	-26.979	-46.981	114.203	201.874	98.075	158.332	-31.262	99.575	0.00011204	0.00065309	0.00018037	700.75	1.0912e-05	3.5569e-06	379.27	214.56	8.3873e-06	1.3988e-05	106.89	38.345	76.763	35.35	4.3693e-06	17.613	0.0090232	0.011325	0.0031726	835.26	0.0001198	0.00012469	514.2	263.51	0.00011997	0.00012551	180.2	62.516	99.769	44.348	0.00012266	28.787	-39.129	30.598	-67.120	-105.051	-16.196	-71.061	-107.547	-100.695	-28.302	138.564	-103.820	-101.161	-96.142	-91.012	138.338	-95.890	-8191	255	
35329.117	1	1	0	0	0.064865	0.014354	0.2528	0.20935	0.22686	0.14748	0.054668	0.2429	0.30536	0.18658	0.18121	0.11489	0.097136	0.15867	0.19871	0.14024	-0.78333	-0.10625	-1.2021	-0.88333	-0.49375	-1.2083	-0.62083	-0.8875	-1.1958	-0.45208	-1.225	-0.82917	-0.45208	-1.3083	-0.63958	-0.69583	-37.849	-6.608	-34.276	-62.146	178.089	211.014	184.373	216.454	-110.794	-55.261	72.429	89.613	42.495	191.944	15.092	238.353	0.00011968	0.0022345	0.00012622	701.22	1.8763e-06	5.3847e-06	381.19	216.23	6.083e-06	5.9486e-06	107.18	38.721	77.826	35.941	9.3533e-06	17.798	0.0090229	0.011336	0.0031621	836.41	0.00012003	0.00012476	516.89	264.52	0.00011899	0.00012434	180.58	62.813	100.67	44.949	0.0001221	28.944	-109.829	-28.059	-112.915	-105.501	70.809	-89.775	-107.486	-100.972	67.106	201.378	-104.551	-100.730	-96.415	-90.678	174.260	-96.305	-8191	255	
35329.188	1	1	0	0	0.28428	0.29014	0.15455	0.11487	0.20883	0.12894	0.033896	0.44558	0.12486	0.084732	0.115	0.40146	0.14291	0.17059	0.13275	0.037343	-0.74583	-0.2875	-0.98125	-0.90208	-0.29167	-1.2229	-0.71667	-0.7625	-1.2479	-0.34375	-1.0604	-0.98958	-0.4	-1.2708	-0.58333	-0.83125	105.441	119.511	20.387	162.227	94.645	234.729	177.185	234.252	-53.373	-0.807	-66.435	26.386	-89.260	-87.600	159.908	153.831	0.00022067	0.00148	0.00021068	700.98	8.0705e-06	1.5378e-05	381.45	216.42	5.0601e-06	6.1843e-06	107.12	38.832	78.486	36.284	1.4618e-05	18.251	0.0089275	0.011258	0.0031134	835.05	0.00011724	0.0001228	515.55	264.06	0.00011693	0.00012319	180.1	62.804	100.52	45.111	0.00012006	29.064	240.586	-12.629	58.862	-105.141	210.558	12.847	-107.204	-100.824	216.374	45.565	-104.237	-100.736	-96.476	-90.993	64.585	-96.657	-8191	255	
35329.309	1	1	0	0	0.10821	0.27417	0.19249	0.089447	0.1472	0.067033	0.074439	0.16105	0.28658	0.29016	0.10143	0.29222	0.33381	0.15453	0.15008	0.11722	-0.9	-0.19167	-0.87292	-1.275	-0.48125	-1.4833	-0.83125	-0.65	-1.2062	-0.58333	-1.0146	-1.2104	-0.38958	-1.2354	-0.85625	-0.60417	48.804	-99.335	-82.002	-99.971	-115.300	-2.455	1.297	187.925	24.444	-43.288	63.919	203.725	207.832	124.415	-81.860	65.388	0.00010934	0.0012148	3.7813e-05	702.72	3.0312e-06	1.5795e-05	382.54	216.81	2.1264e-06	1.1228e-05	106.84	38.799	78.454	36.876	3.5591e-06	18.193	0.0087781	0.011125	0.0031058	836.45	0.00011796	0.00012272	513.93	264.45	0.00011654	0.00012252	178.6	62.13	100.31	45.392	0.00011828	28.911	-81.142	23.325	1.711	-105.642	224.028	90.818	-107.742	-101.322	70.623	-54.514	-104.275	-100.915	-96.710	-91.213	41.922	-96.656	-8191	255	
35329.406	1	1	0	0	0.21734	0.18284	0.25609	0.082786	0.080131	0.30161	0.32255	0.057654	0.10523	0.14072	0.15662	0.2858	0.23989	0.19218	0.44762	0.096944	-0.69375	-0.525	-0.68542	-1.35	-0.2125	-1.2687	-1.0208	-0.39792	-1.2375	-0.67708	-0.73333	-1.2396	-0.29792	-1.1125	-1.1667	-0.30208	175.772	109.075	117.081	170.547	59.380	-21.178	-84.347	104.625	199.861	-38.453	-80.753	194.990	203.470	-52.058	-37.582	106.692	0.000122	0.0023982	0.00031693	704.52	1.1303e-05	8.3055e-06	382.3	218.58	5.705e-06	9.7733e-06	109.17	40.428	80.043	37.158	4.037e-06	18.584	0.0086596	0.011019	0.0030789	835.23	0.00011823	0.00012448	519.57	268.73	0.00012163	0.00012738	184.71	64.669	103.28	46.349	0.00012459	29.944	-85.890	-50.712	161.611	-105.675	-14.237	76.480	-107.345	-100.938	153.023	29.002	-104.061	-100.873	-96.830	-91.218	170.737	-96.334	-8191	255	
35329.504	1	1	0	0	0.22453	0.30126	0.083498	0.19553	0.19726	0.22124	0.097021	0.20495	0.31996	0.23599	0.23311	0.30747	0.16065	0.25939	0.094317	0.09696	-0.78125	-0.66042	-0.67083	-1.3479	-0.5	-1.0854	-0.95208	-0.39375	-1.2396	-0.5875	-0.61458	-1.3771	-0.58542	-1.0521	-1.0042	-0.55	38.605	65.808	110.796	-102.630	139.039	150.913	80.934	199.435	-84.658	-35.819	197.150	-84.807	-103.675	-113.580	-95.968	106.545	9.9251e-05	0.0016652	5.5797e-05	707.51	2.5885e-06	1.0119e-05	383.7	220.82	8.4551e-06	1.9845e-06	109.83	40.09	80.635	37.553	2.5814e-06	18.769	0.0091946	0.011577	0.0032387	844.35	0.00012368	0.00012997	525.07	271.74	0.00012591	0.00013312	188.89	66.13	105.15	47.155	0.00013389	30.849	158.244	-35.898	-79.968	-105.545	158.088	164.192	-108.180	-101.001	223.896	175.711	-104.211	-101.542	-96.443	-91.227	225.836	-96.854	-8191	255	
35329.598	1	1	0	0	0.25032	0.10321	0.10445	0.27218	0.10919	0.20652	0.24601	0.12679	0.26263	0.29263	0.27639	0.083626	0.26339	0.12068	0.14398	0.11856	-0.89375	-0.65833	-0.46042	-1.2854	-0.375	-0.95417	-1.1396	-0.36667	-1.1125	-0.85833	-0.58958	-1.1271	-0.47708	-0.88958	-1.1229	-0.3875	178.178	204.476	147.354	140.324	-61.065	91.315	201.331	218.976	89.736	228.185	237.455	222.508	194.930	7.338	-15.318	230.539	9.2462e-05	0.0014923	0.00036403	709.69	7.888e-06	1.0631e-05	386.44	219.6	7.4873e-06	8.839e-06	108.88	39.534	78.661	37.22	7.101e-06	18.447	0.0098556	0.012357	0.0034488	853.4	0.00012934	0.00013387	529.02	270.19	0.00012443	0.00013004	184.68	64.321	102.41	46.302	0.00012656	29.949	89.294	217.203	39.579	-105.361	81.964	51.680	-107.823	-100.804	167.789	21.561	-104.466	-100.809	-96.296	-90.989	-18.002	-96.427	-8191	255	
35329.719	1	1	0	0	0.33058	0.13179	0.049899	0.23263	0.20104	0.041982	0.17102	0.1985	0.077456	0.29225	0.22926	0.12925	0.15188	0.13326	0.026261	0.033464	-0.77083	-0.91875	-0.61458	-1.5208	-0.48958	-0.80417	-1.2979	-0.45417	-1.025	-1.0146	-0.32917	-1.0979	-0.55	-0.70208	-1.2396	-0.32292	126.803	111.242	22.384	186.238	74.960	104.121	220.980	188.884	91.831	22.281	-8.206	33.516	-90.265	200.658	63.398	150.214	0.00013913	0.0020972	0.00036983	706.06	6.5121e-06	1.0275e-05	381.7	218.77	1.1373e-05	7.9259e-06	108.89	39.784	79.408	37.126	4.8587e-06	18.391	0.0093783	0.011778	0.0032987	844.87	0.00012791	0.00013429	529.25	270.69	0.00013019	0.00013667	190	66.201	104.25	46.862	0.00013388	30.729	40.181	75.658	-40.466	-105.364	-10.353	137.952	-107.481	-100.654	-19.943	61.126	-104.208	-100.770	-96.483	-90.958	-28.951	-96.927	-8191	255	
35329.789	1	1	0	0	0.15103	0.2847	0.25286	0.055334	0.20651	0.12488	0.054684	0.19228	0.037136	0.27617	0.16207	0.019264	0.18131	0.08165	0.188	0.13015	-0.43542	-0.94375	-0.2125	-1.3708	-0.70625	-0.63958	-1.1583	-0.44167	-1.0417	-1.1479	-0.35	-1.2062	-0.79375	-0.55417	-1.4354	-0.63125	154.135	42.167	201.342	165.559	-108.969	201.086	53.899	112.152	-116.365	81.800	126.386	80.001	185.378	-31.761	140.250	207.791	0.00013075	0.0016868	0.00010977	712.04	1.2372e-05	6.6747e-06	382.19	218.4	5.3419e-06	8.1438e-06	107.56	39.05	79.103	36.884	9.6589e-06	18.321	0.010004	0.012546	0.0034956	855.43	0.00013404	0.00013908	532.6	272.36	0.00013286	0.00013792	188.98	65.662	103.87	46.562	0.00013222	30.281	-99.291	-61.634	53.045	-105.370	18.048	3.160	-107.403	-101.138	20.807	76.493	-104.105	-100.803	-96.370	-90.853	88.530	-96.666	-8191	255	
35329.910	1	1	0	0	0.13749	0.20947	0.11687	0.27548	0.085922	0.20852	0.042027	0.041869	0.11389	0.24412	0.21311	0.16079	0.19018	0.14403	0.08932	0.23442	-0.4625	-0.90833	-0.25833	-1.1646	-0.83333	-0.39583	-1.4583	-0.32708	-0.72083	-1.0438	-0.21667	-1.0542	-0.7625	-0.53542	-1.2938	-0.50417	-29.400	150.987	2.091	232.554	110.998	-93.847	17.290	-17.151	-76.721	219.496	44.932	95.837	-113.707	197.987	50.424	190.804	0.00018666	4.955e-05	0.00046042	700.78	5.781e-06	6.8342e-06	379.59	216.79	6.8807e-06	5.6433e-06	106.1	38.863	78.455	37.114	1.0753e-05	18.369	0.0096825	0.012002	0.0033283	840.84	0.00012641	0.00013121	519.23	266.83	0.00012512	0.0001312	183.33	64.277	102.22	46.405	0.0001281	30.275	234.394	77.488	82.068	-105.187	-84.610	-41.727	-107.394	-101.051	60.730	-1.043	-103.399	-100.556	-96.601	-91.188	-11.737	-96.576	-8191	255	
35330.004	1	1	0	0	0.047096	0.21487	0.1221	0.33036	0.091755	0.1277	0.24634	0.05121	0.13492	0.11996	0.060467	0.13452	0.14669	0.10743	0.13823	0.25278	-0.38542	-1.1417	-0.39167	-1.1333	-0.93958	-0.4625	-1.3792	-0.73542	-0.64792	-1.3521	-0.35208	-1.0542	-1.0562	-0.59583	-1.2062	-0.56875	44.957	196.386	0.613	217.653	-75.622	-111.487	92.378	168.683	217.198	65.568	61.914	174.422	52.097	162.373	88.062	80.596	5.6465e-05	0.0006931	8.9019e-05	698.71	1.1799e-05	4.6338e-06	378.4	217.48	3.161e-06	8.7649e-06	107.88	39.057	78.811	37.262	4.5759e-06	18.771	0.0095196	0.011938	0.0033374	843.23	0.00012799	0.00013296	524.85	269.1	0.0001278	0.00013242	185.34	64.8	102.73	46.587	0.00012751	30.283	229.924	49.395	-116.185	-105.183	45.566	-47.959	-107.849	-101.282	-77.004	13.043	-104.654	-101.207	-96.520	-91.360	-101.931	-97.081	-8191	255	
35330.102	1	1	0	0	0.24154	0.09025	0.33696	0.1813	0.15057	0.21655	0.10589	0.22394	0.24164	0.20221	0.19567	0.11904	0.13011	0.079558	0.077061	0.028387	-0.30833	-1.2458	-0.25208	-0.96458	-1.1896	-0.29375	-1.2	-0.7875	-0.57292	-1.1812	-0.42083	-0.76458	-1.1437	-0.49792	-1.1917	-0.95	-12.607	-59.612	48.144	-16.072	229.390	21.363	110.491	218.272	-48.636	155.534	62.310	194.193	-53.803	168.949	-71.542	163.544	8.1232e-05	0.00091061	0.00023379	703.41	1.9708e-06	1.1562e-05	381.16	218.64	2.207e-06	9.27e-06	107.56	39.351	78.339	37.428	7.372e-06	18.754	0.0094088	0.011885	0.0033365	844.25	0.00012661	0.00013248	525.71	269.79	0.00012783	0.00013318	185.91	64.996	102.81	46.676	0.0001266	30.21	199.638	-31.588	19.835	-105.521	184.822	-7.345	-107.292	-100.985	219.255	235.844	-104.225	-101.019	-96.308	-91.063	19.448	-96.773	-8191	255	
35330.195	1	1	0	0	0.13782	0.19736	0.20942	0.12789	0.15641	0.12821	0.1414	0.46302	0.34917	0.29908	0.10462	0.216	0.079002	0.37344	0.36993	0.091015	0.0041667	-1.2083	-0.38125	-0.91042	-1.3312	-0.30417	-1.3479	-1.0146	-0.45	-1.3062	-0.38125	-0.68958	-1.3458	-0.66667	-1.1146	-1	75.109	32.020	119.311	213.105	184.411	190.079	-117.124	186.302	135.739	-24.888	-14.913	-60.341	-64.442	227.461	-43.706	142.178	6.3545e-05	0.0013385	0.0001401	697.36	6.8962e-06	6.9687e-06	380.12	215.34	1.4788e-05	4.2086e-06	104.88	38.695	78.083	37.115	1.3572e-05	18.571	0.0091951	0.011478	0.0032057	834.54	0.00012091	0.00012584	516.22	264.46	0.00012028	0.00012603	180.85	63.151	101.07	46.328	0.000127	30.118	195.030	85.722	14.239	-105.234	-101.904	79.699	-107.437	-100.751	-31.046	-97.132	-103.741	-100.907	-96.408	-91.091	-17.005	-96.724	-8191	255	
35330.316	1	1	0	0	0.20805	0.16812	0.072229	0.082123	0.086076	0.2403	0.05761	0.14056	0.23893	0.091232	0.27299	0.14977	0.13329	0.12405	0.2164	0.22021	0.091667	-1.0625	-0.40625	-0.64167	-1.3729	-0.275	-1.2354	-1.05	-0.42708	-1.2958	-0.70833	-0.69583	-1.3542	-0.39792	-1.1521	-1.075	161.287	129.659	37.039	161.903	134.877	76.825	-116.931	112.805	235.557	134.439	-3.492	-118.424	-47.943	213.418	134.728	123.167	0.00018749	0.0016602	6.3255e-05	703.73	2.7476e-06	1.7405e-05	380.87	217.52	6.1961e-06	7.2907e-06	107.4	39.564	79.672	37.115	9.9466e-06	18.502	0.0093384	0.011846	0.0033582	844.61	0.00012901	0.00013642	529.83	270.8	0.00013437	0.00014246	193.59	67.556	106.2	47.675	0.00014879	32.105	-76.869	237.080	219.877	-105.320	153.270	30.456	-107.295	-101.063	193.977	-1.052	-104.211	-100.388	-96.462	-90.854	163.371	-96.314	-8191	255	
35330.391	1	1	0	0	0.25929	0.13434	0.048416	0.14148	0.085247	0.11232	0.32353	0.35441	0.12337	0.039489	0.13261	0.026861	0.21866	0.085808	0.15946	0.22805	0.03125	-1.1333	-0.625	-0.80417	-1.1938	-0.59167	-0.96667	-1.1833	-0.47708	-1.2854	-0.80417	-0.66667	-1.4542	-0.63542	-0.82917	-1.2208	201.871	124.767	-107.646	-17.664	-61.012	55.970	215.640	84.713	-99.844	15.636	71.880	-93.619	122.153	232.643	-16.974	23.173	0.00011511	0.00043291	4.0642e-05	710.96	1.6444e-05	1.4187e-05	388.67	221.89	7.1179e-06	5.1361e-06	111.49	40.738	80.708	37.029	7.8988e-06	18.551	0.011078	0.01407	0.0040028	879.45	0.00015431	0.00016216	564.54	283.55	0.00015677	0.00016498	208.23	72.099	110.19	48.541	0.00016064	32.959	-88.267	231.922	81.900	-104.973	36.706	71.580	-106.937	-100.878	-115.382	-64.230	-104.630	-101.239	-96.762	-91.625	187.646	-97.044	-8191	255	
35330.512	1	1	0	0	0.1653	0.21472	0.069115	0.20229	0.22768	0.13922	0.044492	0.18679	0.11005	0.19091	0.081509	0.17452	0.19237	0.043724	0.036878	0.19924	0.14375	-1.0646	-0.80625	-0.66042	-1.4708	-0.58542	-0.89583	-1.6625	-0.29167	-1.0979	-0.94792	-0.35	-1.3271	-0.75833	-0.81667	-1.2833	225.178	-94.647	118.291	159.406	34.969	38.677	109.701	187.063	-99.385	147.892	144.049	34.877	215.210	222.752	10.005	183.908	3.9079e-05	0.00042558	0.00013695	713.22	4.4561e-06	1.9352e-06	391.87	222.23	6.9161e-06	1.8659e-05	109.47	40.514	80.13	37.003	3.3737e-06	18.344	0.011741	0.014847	0.0041414	884.1	0.00015625	0.00016383	566.92	283.36	0.00015449	0.00016173	205.73	70.999	108.63	47.965	0.00015327	32.257	-90.355	22.549	143.669	-105.480	-22.843	209.888	-107.835	-101.369	107.901	-4.001	-104.989	-101.140	-96.838	-91.303	6.657	-96.367	-8191	255	
35330.605	1	1	0	0	0.062272	0.18081	0.23665	0.14861	0.18764	0.29915	0.070611	0.22593	0.26401	0.045349	0.12893	0.24214	0.09942	0.31731	0.10867	0.053291	0.052083	-0.87292	-0.89167	-0.39792	-1.4229	-0.79583	-0.7625	-1.2958	-0.32292	-1.1792	-1.1729	-0.3625	-1.2458	-0.725	-0.27292	-1.375	55.160	-20.116	47.814	95.193	80.637	232.557	1.530	167.709	43.935	89.464	-28.740	142.727	-60.027	-41.042	215.591	-16.830	9.39e-05	0.00051723	0.00021494	708.01	6.8144e-06	7.4962e-06	387.51	218.96	9.4835e-06	4.101e-06	109.04	40.073	79.211	36.759	8.6063e-06	18.472	0.011109	0.013952	0.0038503	866.77	0.00014439	0.00015044	548.23	275.09	0.00014269	0.00014954	196.68	68.446	106.16	47.411	0.00014568	31.647	-44.016	-18.994	170.220	-105.271	175.903	-12.720	-107.358	-100.863	109.238	137.864	-104.546	-101.193	-96.339	-91.212	185.270	-96.118	-8191	255	
35330.699	1	1	0	0	0.19711	0.089174	0.080258	0.13646	0.065296	0.1203	0.25234	0.23464	0.1804	0.34612	0.22626	0.34245	0.19105	0.30501	0.13447	0.25427	0.052083	-0.88958	-0.82292	-0.55	-1.0625	-0.66667	-0.63333	-1.3062	-0.58333	-0.95208	-1.2687	-0.24792	-1.1896	-0.93125	-0.34375	-1.2	-76.259	37.616	5.019	227.632	-77.672	183.049	187.220	-89.315	21.892	124.017	2.087	63.080	170.471	224.993	22.082	133.259	5.7124e-05	0.00013632	0.00036816	711.13	5.5261e-06	1.3562e-05	387.6	219.05	7.4927e-06	2.0475e-06	107.34	39.236	79.06	36.653	1.4342e-05	18.134	0.010731	0.013562	0.0037747	868.8	0.00014538	0.00015228	549.84	277.48	0.00014607	0.00015329	198.22	68.798	106.37	47.319	0.00014734	31.556	124.607	28.492	-9.188	-105.206	164.264	215.986	-107.237	-100.850	221.494	181.330	-104.437	-101.460	-96.555	-91.353	213.224	-96.090	-8191	255	
35330.797	1	1	0	0	0.08036	0.093176	0.069386	0.24786	0.088868	0.086736	0.16487	0.25833	0.13468	0.099901	0.11755	0.14062	0.098557	0.25931	0.26391	0.20994	0.0125	-0.70625	-1.175	-0.40833	-1.175	-0.925	-0.57292	-1.3729	-0.37917	-0.55	-1.2292	-0.36042	-1.1125	-1.1146	-0.51458	-1.3312	170.934	175.913	176.966	224.836	196.796	113.850	80.948	189.966	34.426	161.568	168.443	-53.342	158.671	109.118	-72.966	24.627	5.9512e-05	0.0013815	0.0001691	706.18	7.4219e-06	6.286e-06	385.57	216.18	7.3581e-06	9.5607e-06	106.5	38.168	77.15	35.66	1.2738e-05	17.848	0.010842	0.013728	0.0038175	865.01	0.00014685	0.00015135	544.49	273.43	0.00014427	0.00014952	193.58	66.757	103.72	45.906	0.00014223	30.743	130.813	191.984	-100.894	-105.403	97.327	226.764	-107.112	-101.007	234.900	-58.498	-104.393	-100.295	-96.385	-90.757	53.612	-97.025	-8191	255	
35330.895	1	1	0	0	0.13158	0.3278	0.048412	0.29033	0.17915	0.20214	0.29626	0.17503	0.041675	0.13634	0.17032	0.10482	0.074016	0.12356	0.077864	0.12227	-0.275	-0.56667	-1.2437	-0.41042	-1.1667	-0.975	-0.44375	-1.3667	-0.68125	-0.46667	-1.45	-0.36042	-0.9	-1.1021	-0.51875	-1.2917	-79.072	2.010	-20.476	-118.224	125.936	239.537	109.386	202.426	6.097	-34.040	-14.963	45.815	-111.059	-96.856	144.016	46.516	6.0579e-05	0.00092401	0.00012374	699.89	4.1448e-06	1.5189e-05	384.09	216.06	1.1414e-05	7.6275e-06	105.86	38.671	78.324	36.1	3.207e-06	18	0.010512	0.013164	0.0036532	854.89	0.00013813	0.00014429	535.81	270.15	0.00013643	0.00014243	190.36	66.389	103.67	46.115	0.00013712	30.462	-103.777	35.898	-111.143	-105.634	-61.904	72.791	-107.919	-101.067	-115.057	86.329	-104.309	-100.826	-96.008	-90.821	9.572	-96.589	-8191	255	
35331.016	1	1	0	0	0.23513	0.080378	0.059831	0.018476	0.13322	0.20134	0.16794	0.20085	0.17143	0.30854	0.16678	0.1901	0.27397	0.22751	0.022383	0.13374	-0.45208	-0.40417	-1.2771	-0.59167	-0.78333	-1.2104	-0.38958	-1.1917	-0.59583	-0.35625	-1.3021	-0.36875	-0.84583	-1.2521	-0.34792	-1.1	56.879	-17.818	-16.293	-32.510	182.563	26.332	185.830	90.567	-35.527	-104.537	171.310	-93.841	-19.707	-110.124	237.795	171.684	0.00013003	0.0011241	0.00011152	703.79	1.4996e-06	4.4242e-06	379.16	215.13	6.4825e-06	1.2977e-05	106.55	38.653	78.168	36.327	1.0218e-05	18.186	0.010052	0.012498	0.0034463	847.51	0.00012856	0.00013347	524.43	267.09	0.00012534	0.00013002	183.18	63.893	101.68	45.397	0.00012519	29.566	22.551	179.389	230.009	-105.106	-73.122	61.031	-106.821	-100.757	209.445	-18.966	-104.866	-100.956	-96.275	-91.070	-92.033	-96.760	-8191	255	
35331.086	1	1	0	0	0.20636	0.14494	0.17993	0.15168	0.019158	0.05444	0.24829	0.18289	0.27687	0.27603	0.10497	0.12424	0.11121	0.054185	0.14258	0.2766	-0.69167	-0.42708	-1.2229	-0.38333	-0.59792	-1.1958	-0.325	-1.2521	-0.9875	-0.21667	-1.225	-0.54167	-0.77917	-1.4104	-0.25417	-0.90208	61.745	-6.803	209.699	178.242	-35.771	105.263	-13.913	225.000	153.798	26.635	-15.039	85.722	71.750	-39.740	145.225	159.033	9.8483e-05	0.0002764	0.00029338	701.62	8.4912e-06	1.1375e-05	379.85	214.61	1.0441e-05	6.4339e-06	105.72	38.37	77.3	36.182	7.1292e-06	17.928	0.0091778	0.011439	0.0031828	836.2	0.00012151	0.0001261	516.65	263.62	0.00012022	0.00012542	179.88	62.628	99.944	44.885	0.00012132	29.009	141.167	-43.377	-46.002	-105.386	-81.436	56.663	-107.795	-100.828	236.313	-13.525	-104.074	-101.098	-96.234	-90.699	80.172	-96.236	-8191	255	
35331.184	1	1	0	0	0.11818	0.050225	0.4253	0.20621	0.16157	0.14561	0.11552	0.062579	0.13044	0.12923	0.091716	0.072204	0.29672	0.10649	0.10836	0.17482	-0.72917	-0.33125	-1.2354	-0.83125	-0.46875	-1.4042	-0.59583	-0.88333	-0.99792	-0.20625	-1.1458	-0.60833	-0.73542	-1.3125	-0.35833	-0.99375	104.013	78.419	101.343	121.607	-87.875	35.570	134.675	176.732	178.613	108.669	229.059	75.162	203.115	200.353	-113.095	47.050	0.00016533	0.00050461	0.0003218	697	2.1538e-06	2.0428e-06	375.66	213.48	8.2517e-06	2.1915e-05	105.19	37.541	76.214	35.445	9.1346e-06	17.78	0.0088929	0.011056	0.0031151	829.66	0.00011807	0.00012352	510.41	261.42	0.00011808	0.00012367	177.84	61.557	98.823	44.277	0.00012103	28.683	-88.563	185.633	-19.554	-105.202	72.052	-75.067	-107.623	-100.685	-14.289	68.454	-104.047	-100.780	-96.515	-90.951	-61.085	-96.002	-8191	255	
35331.277	1	1	0	0	0.063298	0.078167	0.23551	0.12576	0.38412	0.16712	0.25253	0.056974	0.10989	0.097528	0.20438	0.064241	0.17814	0.25047	0.3034	0.25912	-0.70625	-0.53333	-0.93542	-0.6875	-0.42708	-1.1521	-0.5375	-0.95	-1.2708	-0.31458	-1.0917	-0.87917	-0.2875	-1.4604	-0.63958	-0.83125	138.358	-99.116	-14.747	65.055	-68.157	91.325	157.188	0.636	-58.586	87.759	174.153	135.811	201.346	-59.362	128.847	89.514	7.6543e-05	0.00089317	0.00038339	693.94	1.3068e-05	1.5873e-05	370.47	211.23	4.1358e-06	1.5713e-05	103.14	37.267	75.733	35.356	9.836e-06	17.491	0.0088092	0.011046	0.0030895	825.92	0.00011642	0.00012078	504.28	257.67	0.00011429	0.00011903	173.65	60.246	96.831	43.695	0.00011471	27.919	136.448	-35.767	-115.758	-104.939	70.506	61.122	-107.449	-100.571	108.790	91.332	-104.311	-100.273	-96.013	-90.627	135.751	-96.119	-8191	255	
35331.398	1	1	0	0	0.12748	0.21715	0.1969	0.10055	0.17425	0.1147	0.22534	0.18805	0.28226	0.18289	0.31774	0.21869	0.054197	0.18759	0.1444	0.16161	-0.74792	-0.26458	-0.87917	-0.88542	-0.36042	-1.1771	-0.63333	-0.62083	-1.3104	-0.29583	-0.97292	-0.93958	-0.23125	-1.3917	-0.71042	-0.53333	172.272	-103.707	234.494	106.204	182.061	53.544	-93.576	-12.378	17.069	-53.766	-36.724	-92.603	96.355	222.974	-2.106	197.536	7.1844e-05	0.00068944	0.0003501	690.35	3.8439e-06	1.4994e-05	369.22	208.59	7.1747e-06	4.8252e-06	102.66	37.257	75.517	35.329	1.1018e-05	17.484	0.0083408	0.010485	0.0029171	814.76	0.00010879	0.00011437	494.37	252.99	0.00010778	0.00011253	169.72	58.872	95.894	43.457	0.00010913	27.572	-42.995	40.412	70.122	-105.287	91.306	68.949	-106.975	-100.498	86.447	7.650	-103.580	-100.497	-95.865	-91.010	-0.309	-96.440	-8191	255	
35331.492	1	1	0	0	0.09484	0.29187	0.074003	0.033281	0.27368	0.23639	0.15841	0.10633	0.16338	0.10336	0.13925	0.036787	0.04718	0.14955	0.10875	0.26113	-0.80208	-0.22708	-1.025	-1.0271	-0.18333	-1.1354	-0.92292	-0.42292	-1.1187	-0.40833	-0.875	-1.0438	-0.3125	-1.1812	-0.89792	-0.47292	-50.843	43.038	76.833	-65.745	93.512	-60.567	188.887	60.581	-0.728	27.339	179.267	77.308	81.319	-69.201	-17.280	-67.749	9.7441e-05	0.00068383	0.00023034	691.99	7.1672e-06	1.0206e-05	371.09	210.09	2.5694e-06	7.4798e-06	103.14	37.528	75.375	35.502	7.3374e-06	17.632	0.0079354	0.010067	0.0028199	811.25	0.00010712	0.00011206	495.5	253.67	0.00010772	0.00011322	170.37	59.351	96.308	43.678	0.00011145	27.897	-50.549	30.732	189.955	-105.325	-97.739	113.123	-107.751	-101.249	137.663	45.752	-104.358	-100.692	-96.288	-91.212	76.022	-96.591	-8191	255	
35331.590	1	1	0	0	0.1746	0.09323	0.13947	0.12011	0.1705	0.27773	0.094202	0.1156	0.13156	0.22162	0.24289	0.10723	0.17522	0.13658	0.28347	0.10181	-0.81875	-0.41875	-0.58125	-1.2417	-0.20417	-1.2917	-0.9125	-0.5125	-1.3771	-0.50833	-0.62708	-1.1271	-0.44583	-1.2375	-0.96458	-0.3125	31.868	-44.251	114.233	237.289	173.380	185.209	-117.146	50.293	-42.495	97.368	189.828	-109.209	222.961	239.724	-14.894	182.756	0.00019115	0.00093902	0.00016333	694.3	7.098e-06	5.739e-06	374.77	211	4.2746e-06	7.5216e-06	103.44	37.322	75.77	35.339	3.7674e-06	17.596	0.0081586	0.010346	0.0028905	817.39	0.00010998	0.00011559	501.34	255.53	0.00011098	0.00011713	173.04	60.173	97.265	43.865	0.00011523	28.218	185.384	-17.077	-2.975	-105.523	-6.859	-4.123	-107.883	-100.874	159.931	91.154	-104.589	-100.343	-96.341	-91.227	15.646	-96.170	-8191	255	
35331.688	1	1	0	0	0.22197	0.2194	0.14424	0.10949	0.10985	0.15624	0.077312	0.132	0.21274	0.30624	0.082797	0.11505	0.13478	0.2225	0.23625	0.078206	-0.85208	-0.625	-0.63125	-1.1667	-0.35833	-1.0104	-1.1458	-0.44792	-1.4708	-0.48333	-0.53333	-1.2375	-0.53333	-1.1833	-0.8375	-0.50417	216.525	29.759	107.974	138.924	-21.303	173.296	-113.723	-47.559	136.346	162.617	208.506	19.650	158.758	-48.633	83.413	-84.799	0.00015481	0.00042912	4.4298e-05	696.67	8.6323e-06	1.152e-05	376.59	211.38	7.19e-06	6.2832e-06	104	37.485	75.901	35.315	9.4322e-06	17.546	0.0085739	0.010886	0.0030269	825	0.00011557	0.00012116	506.19	258.12	0.0001161	0.00012211	175.74	60.975	97.874	43.985	0.00011898	28.36	-97.459	-87.146	-1.897	-105.624	73.847	48.196	-108.128	-101.230	-98.168	-38.278	-104.325	-100.976	-96.419	-91.381	27.462	-96.571	-8191	255	
35331.781	1	1	0	0	0.17906	0.28385	0.11656	0.26941	0.31469	0.17415	0.14922	0.17158	0.14794	0.19459	0.17985	0.09506	0.27702	0.19323	0.083759	0.085203	-0.76667	-0.66042	-0.49167	-1.2687	-0.52292	-0.91458	-1.2958	-0.23542	-1.1625	-0.72708	-0.37917	-1.3229	-0.33125	-0.8625	-1.1812	-0.41042	-66.518	173.630	140.343	217.642	25.975	-85.431	-9.559	137.377	24.735	-5.056	200.556	-78.186	164.325	-66.511	-0.463	-93.705	0.00011248	0.00097548	4.7721e-05	701.19	1.4901e-05	5.9865e-06	378.41	210	7.158e-06	6.0588e-06	104.84	37.951	76.004	35.321	6.414e-06	17.635	0.0088232	0.011125	0.0031028	830.88	0.00011924	0.00012465	512.95	259.88	0.00012019	0.00012579	178.52	61.924	98.869	44.238	0.00012058	28.55	174.029	233.450	-48.420	-105.484	-14.699	27.388	-107.844	-101.218	98.142	198.578	-104.612	-101.231	-96.687	-91.360	-72.112	-96.724	-8191	255	
35331.879	1	1	0	0	0.12249	0.28408	0.097154	0.14841	0.17126	0.15386	0.090975	0.28175	0.21099	0.14355	0.2443	0.10076	0.18206	0.20808	0.10584	0.047506	-0.76667	-0.74792	-0.32917	-1.3479	-0.21667	-0.66042	-1.1562	-0.4125	-1.0438	-0.89792	-0.53125	-1.1771	-0.60625	-0.69792	-1.1271	-0.39167	-34.980	40.047	70.550	66.034	-36.208	90.918	214.659	-100.829	150.000	79.662	66.840	214.319	-75.227	121.670	-101.261	138.398	9.7954e-05	0.0013101	9.2011e-05	694.37	9.5418e-06	1.9995e-06	378.02	211.92	2.8648e-06	3.5485e-06	104.54	37.27	75.826	35.347	1.0261e-05	17.712	0.0088714	0.011097	0.0030813	827.41	0.00011735	0.00012236	508.7	258.89	0.00011749	0.00012178	176.05	61.131	98.142	44.04	0.00011937	28.617	-109.872	-94.527	162.445	-105.613	61.805	86.590	-108.017	-101.184	-94.339	46.304	-104.583	-101.307	-96.609	-91.373	90.038	-96.887	-8191	255	
35331.996	1	1	0	0	0.1182	0.16104	0.20487	0.11622	0.15373	0.22345	0.15392	0.12627	0.093539	0.15059	0.10578	0.11541	0.22242	0.087371	0.21617	0.10687	-0.65625	-0.875	-0.33958	-1.2792	-0.61667	-0.55	-1.3479	-0.51042	-0.9	-1.0667	-0.30417	-1.3542	-0.69792	-0.86667	-1.3771	-0.54792	84.178	-19.444	55.621	109.558	104.072	226.570	-27.735	-40.113	-25.172	-58.404	-39.601	55.819	-86.655	104.104	180.213	121.107	0.00015187	0.0010601	0.00018049	695.39	3.0847e-06	1.1708e-05	376.88	211.18	5.1423e-06	4.4349e-06	103.95	37.904	76.367	35.604	2.7591e-06	18.11	0.0088472	0.011011	0.0030391	826.98	0.00011618	0.0001203	506.97	257.37	0.00011484	0.00011945	174.81	61.121	98.153	44.145	0.00011625	28.674	-113.327	92.798	-87.490	-105.518	-84.359	135.033	-107.997	-101.307	52.370	70.011	-104.103	-101.272	-96.750	-91.047	7.863	-96.915	-8191	255	
35332.094	1	1	0	0	0.11055	0.19825	0.15316	0.22599	0.15144	0.083966	0.060917	0.13863	0.059527	0.23871	0.28489	0.26429	0.23839	0.35846	0.055415	0.18955	-0.34167	-1.0396	-0.14167	-1.3896	-0.92708	-0.56667	-1.2375	-0.47083	-0.81667	-1.0583	-0.35625	-1.3062	-0.89375	-0.54167	-1.2792	-0.67083	-11.528	238.295	44.457	-92.992	205.707	-101.562	64.363	42.062	-108.695	52.871	201.370	-62.193	206.338	173.211	-117.308	56.833	5.3776e-05	0.00031281	0.00028371	698.75	1.1396e-05	1.0557e-05	380.37	213.8	4.8646e-06	4.0148e-06	105.54	38.423	77.021	35.887	4.5745e-06	18.135	0.0086582	0.010793	0.0030185	827.98	0.00011559	0.00012033	510.86	260.24	0.00011644	0.0001211	177.56	62.071	99.288	44.523	0.00011796	28.97	-84.422	-8.814	-35.708	-105.492	159.987	-39.889	-107.735	-101.121	204.303	47.179	-104.046	-100.516	-96.329	-90.817	-52.609	-95.413	-8191	255	
35332.191	1	1	0	0	0.23013	0.23488	0.14959	0.078269	0.066818	0.15001	0.16444	0.12098	0.10637	0.22684	0.2452	0.052197	0.15036	0.14715	0.33787	0.30172	-0.37708	-1.2042	-0.25417	-1.1792	-1.0646	-0.14792	-1.2354	-0.54375	-0.54583	-1.2396	-0.32917	-1.0583	-1.0521	-0.27917	-1.2792	-0.6	83.921	-57.621	-44.226	-43.460	58.703	98.649	-117.126	15.721	195.054	-118.379	-50.484	116.253	28.940	-41.801	-32.922	72.117	0.00012208	0.0016658	0.00031498	700.29	4.321e-06	1.4017e-05	378.71	212.78	9.4421e-06	1.1153e-05	106.71	38.395	76.909	35.777	1.6643e-05	17.86	0.0087039	0.01087	0.0030558	829.86	0.00011568	0.00012089	510.98	260.34	0.00011575	0.00012061	177.87	61.635	98.775	44.35	0.00011763	28.649	235.845	-86.860	14.469	-105.061	153.677	134.521	-107.256	-100.869	-19.752	48.838	-104.555	-100.891	-96.602	-90.660	23.758	-96.737	-8191	255	
35332.312	1	1	0	0	0.070419	0.31447	0.23728	0.1931	0.12741	0.45428	0.13969	0.34289	0.21512	0.2719	0.068507	0.204	0.20312	0.36471	0.088461	0.070377	-0.23958	-1.2833	-0.11875	-1.0125	-0.99167	-0.35625	-1.0833	-0.93333	-0.62083	-1.3458	-0.33333	-0.7625	-1.1917	-0.41875	-1.2375	-0.64792	147.790	-82.809	-54.047	141.555	114.471	-45.099	78.526	140.996	-29.357	-13.628	-93.270	171.753	-111.667	237.284	-106.451	91.726	0.00011455	0.00051619	0.00040578	700.1	3.3856e-06	4.2663e-06	377.62	211.19	8.9961e-06	4.9134e-06	104.23	38.111	76.057	35.324	1.3212e-05	17.842	0.0086272	0.010812	0.003012	826.54	0.00011296	0.00011752	504.95	257.22	0.00011155	0.00011565	173.07	60.274	97.023	43.695	0.00011159	28.052	197.750	156.178	40.274	-105.811	128.205	163.595	-107.320	-101.014	100.152	71.290	-104.419	-99.945	-95.908	-90.789	137.517	-96.148	-8191	255	
35332.383	1	1	0	0	0.2939	0.1677	0.1391	0.05623	0.031197	0.070742	0.21603	0.49425	0.22166	0.031396	0.070232	0.088026	0.058888	0.4073	0.14985	0.23423	-0.3	-1.4229	-0.37917	-0.85417	-0.96667	-0.35833	-1.2833	-0.77708	-0.34792	-1.3188	-0.52917	-0.82708	-1.1688	-0.34792	-1.1708	-0.91667	-4.971	68.897	172.385	158.580	221.037	-102.275	124.549	121.084	133.547	-42.305	14.497	-115.152	110.544	-103.885	162.510	-5.704	0.00010281	0.00093904	1.2303e-05	693.22	1.1508e-05	1.8249e-05	375	209.77	5.0704e-06	8.1832e-06	104.16	38.351	76.361	35.946	1.389e-05	18.303	0.0081098	0.010136	0.002817	813.96	0.00010536	0.00010981	496.37	253.91	0.00010398	0.00010867	168.89	59.038	95.977	43.772	0.00010481	27.785	135.429	177.295	-65.919	-105.160	-71.585	-43.944	-107.527	-101.095	67.523	69.213	-104.092	-100.025	-96.274	-91.395	63.108	-96.659	-8191	255	
35332.480	1	1	0	0	0.14672	0.088549	0.27223	0.10125	0.29881	0.25091	0.090585	0.17525	0.21399	0.23412	0.13835	0.051915	0.12346	0.30437	0.16193	0.079952	0.022917	-1.1167	-0.41667	-0.73958	-1.1771	-0.17292	-1.1458	-0.91458	-0.17083	-0.9875	-0.575	-0.46667	-1.3854	-0.5	-0.92708	-1.1313	164.667	-90.167	-11.642	-79.710	201.320	202.639	-107.030	65.018	91.293	-14.655	-18.854	-58.106	223.511	-106.569	198.856	200.744	3.9617e-05	0.00055597	9.7032e-05	693.09	5.2579e-06	3.7979e-06	376.39	212.06	1.7088e-05	5.687e-06	104.56	38.594	77.244	36.351	9.9582e-06	18.513	0.0076283	0.0095979	0.0026731	809.36	0.00010129	0.00010627	493.24	253.91	0.00010194	0.00010739	169.18	59.4	96.943	44.25	0.00010585	28.178	185.894	-53.600	-37.580	-104.896	62.946	-90.203	-107.426	-101.145	-5.582	-34.711	-103.682	-100.189	-96.083	-90.747	112.317	-96.687	-8191	255	
35332.574	1	1	0	0	0.098498	0.10719	0.13454	0.26477	0.17511	0.36046	0.25949	0.46189	0.19775	0.28749	0.048932	0.12172	0.21095	0.25078	0.20964	0.078366	0.11667	-1.2042	-0.67292	-0.71042	-1.2083	-0.34583	-1.0479	-1.0375	-0.35	-1.1375	-0.69375	-0.5625	-1.3813	-0.50208	-1.0604	-1.0479	170.235	-62.379	111.750	163.552	-106.444	179.432	-98.230	-114.239	70.697	-42.650	160.156	108.443	104.767	223.394	-5.125	185.787	4.4531e-05	0.00045333	0.00029182	697.85	4.0985e-06	2.2955e-06	377.84	211.99	4.6941e-06	1.0552e-05	105.02	37.858	76.468	36.133	1.0707e-05	18.209	0.0077603	0.0098057	0.0027356	816.02	0.00010418	0.00010936	495.89	255.83	0.00010419	0.00010942	169.85	59.53	96.887	44.11	0.0001066	27.959	-96.874	-22.788	23.260	-105.359	68.057	31.483	-107.347	-100.316	-32.824	43.967	-103.832	-101.040	-96.649	-91.437	126.732	-96.396	-8191	255	
35332.695	1	1	0	0	0.18422	0.36786	0.12218	0.3378	0.2283	0.18733	0.086351	0.069154	0.12368	0.081404	0.03231	0.16943	0.179	0.26832	0.2876	0.1107	0.052083	-0.84375	-0.88333	-0.28542	-1.2917	-0.49375	-0.74583	-1.2021	-0.29375	-1.0354	-0.89583	-0.38125	-1.4167	-0.59583	-0.70208	-1.1375	-101.337	99.454	128.832	236.675	75.468	16.886	-102.960	82.651	-26.704	231.021	-25.116	42.047	194.567	93.984	-22.137	-29.202	0.00015345	0.00020435	0.00022245	695.72	4.9988e-06	8.6589e-06	374.88	211.07	5.3409e-06	3.0767e-06	104.09	38.569	76.609	36.352	5.5533e-06	18.336	0.0078554	0.009903	0.0027586	814.45	0.00010464	0.00010924	494.28	253.95	0.00010384	0.00010874	168.21	59.301	96.796	44.229	0.00010406	27.88	233.632	-66.005	204.123	-105.003	36.601	-39.396	-107.288	-100.765	110.181	99.386	-104.445	-100.094	-96.212	-91.334	224.508	-96.513	-8191	255	
35332.789	1	1	0	0	0.18461	0.16995	0.14501	0.28349	0.23267	0.18783	0.2268	0.029506	0.10748	0.3962	0.25195	0.36962	0.12046	0.058911	0.1193	0.3765	0.0625	-1.0063	-0.78333	-0.44583	-1.2417	-0.375	-0.75833	-1.3042	-0.34583	-1.1313	-0.98333	-0.49167	-1.1396	-0.8125	-0.47708	-1.4521	147.123	-104.757	235.307	180.523	38.698	145.704	126.047	221.921	213.006	39.723	-109.984	-96.337	-37.701	-69.744	176.032	152.347	0.00017351	0.0013258	0.00072278	694.86	9.8683e-07	1.9442e-05	376.53	212.21	1.1369e-05	1.1413e-05	105.64	38.482	77.794	36.804	9.2479e-06	18.623	0.007659	0.0095933	0.0026845	809.26	0.00010151	0.0001062	491.57	254.26	0.00010163	0.00010662	167.91	59.381	97.468	44.596	0.0001028	28.018	190.602	43.297	-107.990	-105.365	121.749	38.220	-107.147	-100.672	-81.544	31.984	-104.734	-100.236	-96.276	-91.060	73.217	-96.341	-8191	255	
35332.887	1	1	0	0	0.15743	0.098318	0.1899	0.091704	0.27355	0.27907	0.099016	0.19371	0.086867	0.31745	0.11252	0.30529	0.22438	0.14981	0.21214	0.12031	0.13542	-0.72083	-0.9625	-0.4875	-1.1187	-0.76042	-0.54583	-1.4062	-0.38125	-0.76458	-1.0625	-0.14583	-1.1833	-0.89792	-0.40417	-1.1479	74.338	60.070	147.720	-71.344	222.560	129.375	7.344	219.603	204.188	121.642	155.554	143.360	-59.950	95.270	145.427	80.214	0.00017602	0.00070666	0.00020046	698.28	1.6332e-06	3.6862e-06	378.38	213.92	6.9516e-07	7.2659e-06	106.34	39.346	78.138	36.783	1.3454e-05	18.656	0.0075934	0.0095802	0.0026564	811.68	0.00010208	0.00010713	495.4	256.13	0.0001028	0.00010759	169.55	59.99	98.164	44.671	0.00010357	28.168	214.708	188.228	-88.426	-105.382	76.849	27.348	-107.466	-101.019	50.750	-74.127	-104.351	-100.271	-96.240	-91.045	-4.059	-96.083	-8191	255	
35332.957	1	1	0	0	0.072761	0.055982	0.067732	0.11346	0.096191	0.083554	0.14277	0.14855	0.17166	0.18393	0.19153	0.099539	0.2566	0.10901	0.29397	0.18305	0.047917	-0.64167	-0.87708	-0.44375	-1.0667	-0.85625	-0.23125	-1.3312	-0.35	-0.64375	-1.2354	-0.34167	-1.1333	-1.025	-0.33125	-1.3271	176.441	-57.950	22.921	119.802	-20.857	89.415	-65.440	-102.627	90.171	78.306	66.835	-100.103	196.986	67.620	219.821	33.246	9.7636e-05	0.00022622	7.5023e-05	698.33	1.0095e-05	8.1903e-06	377.01	212.87	2.7035e-06	7.1001e-06	106.29	38.996	78.071	36.802	6.1538e-06	18.702	0.0076308	0.009596	0.0026626	810.44	0.00010183	0.00010549	491.49	254	0.00010072	0.00010498	167.91	59.402	97.451	44.549	0.00010225	28.058	231.459	87.608	19.216	-105.353	134.979	-29.413	-107.337	-100.777	208.207	217.844	-103.802	-100.135	-96.456	-91.191	-12.786	-96.687	-8191	255	
35333.078	1	1	0	0	0.048829	0.12527	0.05301	0.42563	0.27587	0.18215	0.035623	0.22635	0.17662	0.28136	0.10971	0.044671	0.11899	0.1591	0.067084	0.13502	-0.1125	-0.4625	-1.4208	-0.59167	-0.86458	-1.0792	-0.32292	-1.2583	-0.5625	-0.325	-1.2792	-0.27083	-1.0396	-1.025	-0.21667	-1.1375	208.205	-88.596	24.979	198.284	237.197	60.285	228.122	193.702	212.898	206.189	125.620	233.416	111.022	209.682	43.388	223.724	7.7149e-05	0.0015768	0.00017659	696.56	5.6912e-06	9.6957e-06	375.03	213.03	2.5601e-06	2.9765e-06	104.84	38.38	77.155	36.627	1.0351e-05	18.267	0.0075652	0.0094517	0.0026385	810.87	0.0001005	0.00010494	489.45	253.65	0.00010062	0.00010505	166.82	58.664	96.686	44.349	0.00010133	27.751	-102.371	25.151	118.632	-105.440	88.306	-11.197	-107.214	-101.168	157.948	1.546	-104.315	-100.685	-96.458	-91.291	-114.002	-96.216	-8191	255	
35333.176	1	1	0	0	0.15092	0.22532	0.19264	0.25514	0.15149	0.15034	0.13329	0.10828	0.1585	0.25271	0.28334	0.08612	0.079591	0.16374	0.096659	0.069559	-0.24375	-0.53958	-1.0271	-0.36458	-0.81042	-1.3	-0.45833	-1.2583	-0.85625	-0.475	-1.1625	-0.55417	-0.86458	-1.2292	-0.38958	-1.1875	-59.008	-7.796	133.836	205.181	212.774	-41.757	14.292	77.513	78.998	81.649	-11.809	-40.488	39.056	54.514	-35.208	84.924	0.00010761	0.0011137	0.00034649	694.24	2.1485e-06	1.2504e-05	374.02	212.64	1.039e-05	7.5094e-06	105.19	38.923	78.235	36.553	3.066e-06	18.49	0.0075263	0.0095249	0.0026563	809.96	0.00010261	0.00010818	493.88	255.69	0.00010606	0.00011125	171.5	60.697	98.749	44.714	0.00011046	28.655	220.582	29.103	31.872	-105.094	84.337	18.917	-107.484	-100.908	92.241	11.442	-103.890	-100.648	-96.170	-91.465	-33.962	-96.799	-8191	255	
35333.270	1	1	0	0	0.17173	0.21753	0.11323	0.12754	0.24848	0.055716	0.16494	0.21064	0.084517	0.27464	0.11483	0.22508	0.12266	0.16523	0.12372	0.096219	-0.33125	-0.5	-1.1063	-0.43125	-0.73542	-1.1854	-0.12708	-0.80208	-0.74583	-0.3	-1.1437	-0.55208	-0.58125	-1.4208	-0.31667	-1	-30.827	136.365	-64.176	-55.941	-25.821	19.224	167.702	184.001	43.709	223.392	207.413	-93.946	83.291	-69.786	145.026	92.351	0.00016857	0.0019658	0.00020909	694.94	9.3777e-06	1.3228e-05	378.13	213.58	6.2564e-06	7.6705e-06	106.42	38.96	77.453	36.363	9.2278e-06	18.473	0.008225	0.010363	0.0028993	821.45	0.0001109	0.0001158	504.78	259.5	0.00011242	0.00011801	176.75	62.135	99.817	44.951	0.00011773	29.157	-95.835	23.257	10.599	-105.470	111.464	-79.628	-107.733	-101.128	18.182	-14.078	-104.550	-100.868	-96.125	-91.083	131.984	-95.978	-8191	255	
35333.391	1	1	0	0	0.092333	0.32934	0.25451	0.10887	0.24718	0.057676	0.26325	0.26301	0.31476	0.24662	0.2016	0.11648	0.32341	0.18304	0.1707	0.18444	-0.5125	-0.2	-1.1729	-0.76667	-0.325	-1.2208	-0.44792	-1.0875	-1.0292	-0.3625	-1.2646	-0.68958	-0.49375	-1.4625	-0.40208	-0.9125	186.136	111.746	52.560	197.060	52.064	58.646	203.129	184.103	32.247	-44.130	211.836	-85.933	159.083	-107.365	-84.765	87.765	0.00012551	0.00021859	0.00036495	701.5	8.8922e-06	1.3017e-05	380.79	214.72	4.5851e-06	2.8429e-06	107	39.043	78.183	36.406	5.7745e-06	18.301	0.0087552	0.010996	0.0030773	830.86	0.00011696	0.00012142	513.42	261.87	0.00011683	0.00012329	180.12	63.374	100.98	45.21	0.0001227	29.519	205.870	12.338	225.323	-105.691	42.892	-2.061	-107.215	-101.135	-104.767	9.549	-103.590	-100.413	-96.252	-90.946	94.525	-95.999	-8191	255	
35333.484	1	1	0	0	0.17165	0.29319	0.10169	0.12828	0.17683	0.11285	0.054824	0.12545	0.22186	0.14797	0.13192	0.15345	0.19903	0.11751	0.24951	0.28624	-0.91667	-0.41667	-1.1958	-0.95208	-0.38958	-1.1542	-0.76667	-0.85625	-1.225	-0.3875	-1.0417	-0.84167	-0.5625	-1.3375	-0.27708	-0.79167	1.634	60.790	157.136	172.002	-31.147	-98.124	216.194	42.201	24.175	40.038	-108.602	-94.391	-105.706	230.476	124.201	127.408	0.00021757	0.00049416	0.00023378	699.03	7.3495e-06	1.3161e-05	379.31	213.27	8.4164e-06	9.0144e-06	105.99	38.313	76.943	35.954	1.6158e-05	17.989	0.008905	0.011212	0.0031344	833.4	0.00011885	0.00012355	516.03	261.31	0.00011877	0.00012495	179.44	62.56	99.727	44.853	0.00012184	29.081	227.981	156.569	-105.356	-105.098	120.089	-28.995	-107.300	-100.683	149.349	-78.701	-104.963	-100.528	-96.528	-91.452	-4.216	-96.380	-8191	255	
35333.559	1	1	0	0	0.167	0.12344	0.18557	0.13276	0.14324	0.085547	0.25297	0.29807	0.16742	0.081841	0.30301	0.13069	0.07687	0.2026	0.29214	0.3062	-0.94792	-0.3625	-1.1021	-1.0125	-0.4125	-1.225	-0.6	-0.48125	-1.2625	-0.275	-0.93333	-1.0042	-0.45	-1.225	-0.64375	-0.47708	23.361	186.714	155.059	-57.624	65.024	36.735	238.096	-30.721	35.417	189.407	205.464	-43.901	89.202	167.800	237.202	146.248	0.00015937	0.0012532	0.00052565	697.47	3.2814e-06	5.2689e-06	376.97	211.71	7.1158e-06	6.7425e-06	104.69	38.331	77.361	35.849	1.0674e-05	17.583	0.0089331	0.011293	0.0031719	832.63	0.00012117	0.00012714	515.92	261.5	0.00012166	0.0001276	180.45	62.883	100.21	44.839	0.00012383	29.066	205.953	14.429	111.637	-105.566	231.389	106.341	-107.755	-101.253	85.231	195.851	-104.575	-101.176	-96.452	-91.243	-34.538	-96.585	-8191	255	
35333.680	1	1	0	0	0.1569	0.16726	0.20967	0.27933	0.19171	0.13224	0.24056	0.020245	0.12622	0.28497	0.09773	0.1175	0.09468	0.046316	0.24372	0.19402	-0.82292	-0.28333	-1.0604	-1.0604	-0.28333	-1.1708	-0.85625	-0.46458	-1.1375	-0.39792	-1.2146	-1.2687	-0.37292	-1.3396	-0.69167	-0.6125	217.710	178.831	-108.079	198.233	144.147	180.630	229.698	209.054	199.256	98.921	41.691	72.564	155.631	-106.058	189.258	168.586	0.00014871	0.0011892	0.00010206	696.81	8.1e-06	1.1692e-05	375.3	210.39	6.9587e-06	8.6903e-06	106.09	38.152	76.304	35.368	1.1717e-05	17.696	0.0090292	0.011437	0.0031695	829.49	0.00011982	0.00012465	511.59	259.28	0.00011937	0.00012558	179.13	62.245	99.07	44.389	0.00012142	28.792	161.968	-89.444	-114.839	-105.554	-85.423	110.453	-107.815	-101.086	-94.841	-73.384	-104.429	-101.158	-96.674	-90.825	76.926	-96.191	-8191	255	
35333.773	1	1	0	0	0.2447	0.20369	0.16624	0.1867	0.19382	0.35496	0.21449	0.45425	0.24144	0.019122	0.045775	0.25857	0.23552	0.2268	0.13505	0.091228	-0.94167	-0.40417	-0.71042	-1.2083	-0.29375	-1.3729	-0.67292	-0.58333	-1.2083	-0.78958	-0.85625	-1.2042	-0.28125	-1.1521	-0.9125	-0.44583	162.449	-15.006	81.888	-111.541	155.278	-71.101	230.494	114.098	91.144	-80.274	127.683	70.972	-104.590	171.229	-107.831	19.618	0.00017509	0.00041874	4.8121e-05	697.64	3.9808e-06	7.8124e-06	375.66	209.21	1.9466e-06	7.8308e-06	105.06	37.881	76.159	35.586	4.7829e-06	17.674	0.0088904	0.011214	0.0031185	828.47	0.00011775	0.00012329	510.15	257.22	0.00011685	0.00012253	175.52	61.131	98.018	44.041	0.00011492	28.165	-91.628	63.420	44.179	-105.601	226.946	55.283	-107.745	-100.986	-117.951	36.934	-104.750	-100.242	-96.461	-91.179	166.134	-95.995	-8191	255	
35333.871	1	1	0	0	0.1754	0.19441	0.15771	0.017398	0.14667	0.21437	0.20803	0.13572	0.15964	0.086447	0.15018	0.10954	0.17922	0.27392	0.23284	0.19998	-0.91667	-0.5875	-0.48542	-1.3667	-0.54583	-1.1458	-1.125	-0.35833	-1.2458	-0.55208	-0.68333	-1.2396	-0.38125	-0.96458	-0.92708	-0.3625	-74.836	197.723	210.098	78.619	153.027	114.565	21.816	-109.620	231.003	219.379	-20.108	134.431	224.939	-116.917	193.242	-44.847	1.5689e-05	0.0012521	9.2029e-05	696.03	9.5274e-06	1.0646e-05	377.47	209.53	4.1388e-06	9.1057e-06	105.3	38.511	76.776	35.941	7.3774e-06	18.15	0.0083131	0.010389	0.0028754	817.73	0.00010856	0.00011361	499.52	254.11	0.0001072	0.00011296	170.86	59.86	97.245	43.835	0.00010536	27.648	6.492	69.136	170.034	-105.048	-48.137	25.248	-107.373	-100.889	-98.134	116.388	-103.769	-99.912	-96.188	-91.184	-96.947	-96.533	-8191	255	
35333.992	1	1	0	0	0.11097	0.15572	0.22298	0.24154	0.12393	0.15341	0.24296	0.084478	0.10402	0.15248	0.18495	0.28196	0.12004	0.15503	0.047312	0.17564	-0.77708	-0.48125	-0.35833	-1.5333	-0.40208	-0.82917	-1.1667	-0.54375	-1.1979	-0.55417	-0.54375	-1.2437	-0.60208	-0.92083	-1.0958	-0.30417	162.086	109.151	23.654	186.883	99.229	166.323	218.006	153.182	44.043	154.994	57.952	152.167	187.388	216.483	-58.493	-104.662	6.8818e-05	0.00048091	0.00015201	698.63	1.5474e-06	8.372e-06	375.16	210.79	1.5491e-06	8.5797e-06	104.92	38.463	76.671	35.879	6.8667e-06	17.865	0.0077161	0.0097005	0.0026782	813.09	0.0001025	0.00010781	494.13	252.78	0.00010317	0.000108	168.53	59.029	96.632	43.583	0.00010461	27.52	-110.077	20.812	-30.745	-105.413	-98.231	-90.718	-106.998	-101.139	198.214	68.096	-104.081	-100.284	-96.277	-90.913	225.256	-96.460	-8191	255	
35334.086	1	1	0	0	0.12072	0.16136	0.20713	0.19455	0.13084	0.19551	0.22614	0.09164	0.14686	0.133	0.28982	0.18981	0.11354	0.10977	0.061777	0.05568	-0.48958	-0.87708	-0.46042	-1.4458	-0.375	-0.75625	-1.3458	-0.24375	-1.1	-0.8625	-0.44792	-1.4146	-0.78542	-0.79792	-1.3375	-0.19583	10.213	120.993	90.632	236.159	26.384	15.071	168.874	206.739	225.483	85.253	171.465	93.135	-54.092	121.434	181.599	36.906	0.00021439	0.00051966	5.0193e-05	699.51	7.2511e-06	1.0057e-05	375.76	211.11	1.987e-06	4.8718e-06	104.85	38.122	76.34	35.369	7.6283e-06	17.703	0.0077674	0.0098005	0.0027381	815.1	0.00010549	0.00011003	495.87	253.88	0.00010616	0.00011099	170.39	59.725	97.122	43.499	0.00010896	27.732	193.730	27.924	115.416	-105.656	113.483	57.635	-108.147	-101.259	48.200	3.491	-104.410	-100.361	-96.514	-91.318	32.005	-96.559	-8191	255	
35334.184	1	1	0	0	0.14576	0.085953	0.2503	0.13802	0.082795	0.076824	0.29223	0.13111	0.22159	0.12009	0.30447	0.13732	0.4756	0.28229	0.27429	0.038368	-0.59583	-0.81042	-0.19792	-1.1708	-0.40625	-0.50833	-1.3188	-0.43958	-0.675	-1.0063	-0.25625	-1.4229	-0.51875	-0.57708	-0.99167	-0.25417	42.004	-117.577	212.473	-90.120	-103.875	-28.343	199.993	116.257	216.391	202.021	118.018	28.491	194.803	-83.916	-105.119	-45.164	8.0332e-05	0.00064341	4.4253e-05	697.74	7.3831e-06	5.6104e-06	378.92	211.49	2.4088e-06	4.5327e-06	105.3	38.07	76.291	35.064	8.4547e-06	17.538	0.0081101	0.010203	0.0028472	821.04	0.00010898	0.00011312	500.97	255.15	0.00010983	0.00011416	172.54	60.313	97.162	43.258	0.00011024	27.702	216.851	-104.841	169.988	-105.492	17.727	47.021	-107.431	-101.109	75.445	162.421	-104.118	-101.258	-96.870	-91.391	-12.592	-96.690	-8191	255	
35334.254	1	1	0	0	0.21297	0.24978	0.11661	0.38436	0.21784	0.065895	0.22265	0.038171	0.082249	0.29076	0.099503	0.16932	0.0039421	0.15206	0.16033	0.031345	-0.47708	-1.15	-0.39167	-1.2458	-0.85417	-0.76667	-1.2104	-0.51875	-0.78333	-1.125	-0.12708	-1.0729	-0.9	-0.55625	-1.3208	-0.62083	118.352	144.783	-21.846	148.128	199.558	-64.283	95.745	230.021	43.823	149.512	208.126	227.029	-104.662	29.034	-7.226	74.554	9.7949e-05	0.00055197	9.5405e-05	696.19	3.3166e-06	9.6877e-06	379.86	210.21	6.3429e-06	1.3296e-05	106.04	38.412	76.271	35.17	5.5273e-06	17.763	0.0081317	0.010197	0.0028427	818.73	0.00010768	0.00011191	500.3	253.92	0.00010734	0.00011174	171.23	59.973	96.887	43.224	0.00010928	27.788	-118.663	64.476	-3.825	-105.478	64.528	-39.884	-107.214	-101.037	-42.135	-64.155	-104.666	-100.715	-96.328	-90.785	-69.217	-96.399	-8191	255	
35334.375	1	1	0	0	0.13125	0.16138	0.094862	0.094111	0.23778	0.21439	0.23089	0.35203	0.33843	0.30866	0.3106	0.19908	0.35422	0.22898	0.073052	0.085898	-0.29375	-1.2646	-0.19167	-1.2833	-0.66458	-0.25	-1.4646	-0.49167	-0.76042	-1.1688	-0.475	-1.0417	-0.86875	-0.22917	-1.2563	-0.77292	-73.117	-76.837	221.356	-55.332	-39.988	93.207	207.643	-111.413	-94.280	-118.137	84.250	19.421	-3.732	-94.976	149.474	203.617	6.7353e-05	0.00058402	0.0001576	702.61	1.1319e-05	5.4033e-06	382.35	212.99	7.1638e-06	1.4132e-06	106.52	38.774	76.771	35.405	1.7586e-06	17.908	0.0080888	0.010171	0.0028533	823.93	0.00010955	0.00011436	506.85	257.42	0.00011087	0.00011613	176.01	61.418	98.471	43.71	0.0001142	28.355	215.520	-55.475	118.133	-105.118	-63.143	-46.264	-107.299	-100.986	225.365	239.010	-104.299	-101.205	-96.439	-91.534	-34.370	-96.618	-8191	255	
35334.473	1	1	0	0	0.22331	0.16344	0.16408	0.20337	0.10331	0.3183	0.18213	0.41877	0.37048	0.14332	0.25129	0.055841	0.12447	0.10573	0.25331	0.20621	-0.21458	-1.0875	-0.4375	-0.87917	-0.86875	-0.21875	-1.3292	-0.65208	-0.49375	-1.05	-0.46458	-0.87292	-0.95625	-0.32917	-1.2729	-0.86458	51.406	-86.882	-1.841	-10.909	126.799	117.138	-53.696	235.280	7.768	20.971	115.261	-85.505	-19.135	32.175	1.322	121.487	0.00011204	0.0005218	0.0001568	706.25	2.3039e-06	5.4846e-06	383.49	214.13	4.8606e-06	2.55e-06	107.31	38.212	77.581	34.834	4.1829e-06	17.611	0.0084666	0.010594	0.0029845	832.93	0.0001145	0.00012029	514.67	261.26	0.00011679	0.00012287	180.32	62.646	99.867	43.771	0.00012115	28.607	-97.648	107.681	-30.341	-105.321	90.677	31.637	-107.551	-101.179	-21.925	210.366	-104.737	-101.244	-96.815	-91.314	4.528	-96.030	-8191	255	
35334.566	1	1	0	0	0.25103	0.18302	0.23078	0.31623	0.23386	0.1551	0.11994	0.19265	0.14095	0.11617	0.12472	0.052787	0.11663	0.17572	0.046919	0.25909	-0.016667	-1.3104	-0.24583	-0.95625	-1.025	-0.50833	-1.2396	-0.73958	-0.37292	-1.2833	-0.4125	-0.57708	-1.1625	-0.47292	-0.95417	-0.98958	184.446	214.772	54.352	227.023	13.770	-41.992	-18.788	195.930	144.631	218.796	-72.600	-23.352	-52.293	-85.110	191.438	114.239	0.00014524	0.0011092	0.00031134	705.84	4.5997e-06	1.0067e-05	383.22	212.99	7.8701e-06	1.7348e-05	107.01	38.318	77.057	35.065	4.6041e-06	17.65	0.0088915	0.011115	0.0031115	835.77	0.00011648	0.00012214	516.53	260.79	0.00011714	0.00012293	180.13	62.376	99.586	43.612	0.0001202	28.503	203.276	11.563	17.919	-105.486	20.142	96.208	-107.371	-101.195	-84.569	125.686	-104.760	-100.617	-96.852	-91.230	-107.245	-96.472	-8191	255	
35334.660	1	1	0	0	0.11441	0.10357	0.062856	0.44719	0.21993	0.2065	0.18968	0.27464	0.34837	0.24939	0.23666	0.21193	0.16807	0.059149	0.2741	0.24524	0.010417	-1.1437	-0.52083	-0.94583	-1.2417	-0.15208	-1.1	-0.98125	-0.2625	-1.2667	-0.68125	-0.525	-1.2437	-0.51667	-0.94583	-0.875	213.421	84.146	-22.308	-105.311	123.912	20.373	-103.277	43.481	-19.614	128.677	240.182	-70.956	206.020	39.214	211.739	195.834	0.00018359	0.00033153	0.00028236	706.42	1.3865e-05	1.3651e-05	383.46	213.78	2.1508e-06	7.6931e-06	108.21	39.032	76.897	35.092	5.6672e-06	17.717	0.008782	0.011042	0.003095	835.77	0.00011718	0.00012261	517.94	261.76	0.00011788	0.0001235	180.76	62.785	99.406	43.769	0.00011988	28.475	177.091	211.657	-15.342	-105.535	181.802	128.270	-107.672	-101.222	-50.662	10.102	-104.816	-100.595	-96.833	-91.454	119.241	-96.897	-8191	255	
35334.781	1	1	0	0	0.24797	0.17068	0.077136	0.17462	0.092667	0.1327	0.23886	0.032554	0.19234	0.10198	0.07638	0.1727	0.23972	0.15641	0.26287	0.21051	0.1125	-1.3458	-0.55417	-0.74583	-1.2437	-0.26667	-0.9625	-1.2313	-0.375	-1.3104	-0.76875	-0.46458	-1.1583	-0.5125	-0.78125	-1.3333	100.936	234.974	35.442	211.161	-7.301	27.919	122.743	-72.535	85.018	134.356	161.300	-27.241	171.426	217.163	-79.573	207.093	0.00023914	0.0011395	0.00061533	704.41	3.0999e-07	4.9927e-06	383.41	211.99	9.6374e-06	7.5628e-06	107.88	38.935	77.104	35.239	1.1294e-05	17.852	0.0086744	0.010902	0.0030369	832.21	0.00011416	0.00011951	513.64	258.72	0.00011389	0.0001189	177.25	61.654	98.688	43.81	0.00011491	28.291	-117.528	32.612	-77.543	-105.446	100.051	189.414	-107.525	-101.231	237.736	98.367	-104.115	-100.488	-96.735	-91.612	82.765	-96.534	-8191	255	
35334.855	1	1	0	0	0.16933	0.24581	0.15713	0.22099	0.072147	0.14922	0.029891	0.33317	0.13384	0.067185	0.28068	0.17712	0.21975	0.2793	0.21927	0.060706	-0.041667	-1.0854	-0.68958	-0.58958	-1.2563	-0.60833	-0.94375	-1.2771	-0.22708	-1.0125	-0.87083	-0.42917	-1.3771	-0.57708	-0.70625	-1.1542	-41.439	-72.702	-43.729	165.268	169.117	217.020	0.541	218.151	-109.476	108.422	-82.677	-10.992	165.829	70.418	187.529	179.962	0.00013701	0.00077311	0.00013184	701.73	6.3953e-06	7.4179e-06	378.6	212.63	5.5762e-06	7.0778e-06	107.35	39.321	77.244	35.633	7.5546e-06	17.968	0.0083258	0.010497	0.0029161	826.18	0.0001099	0.00011493	506.61	257.47	0.00010853	0.00011379	173.79	60.89	98.201	43.737	0.00010808	27.929	-85.109	15.908	-70.673	-105.432	198.780	137.528	-107.144	-100.788	51.681	-79.184	-103.704	-100.839	-96.019	-90.848	-9.341	-96.149	-8191	255	
35334.949	1	1	0	0	0.3282	0.11185	0.082008	0.19568	0.30524	0.20097	0.010908	0.01362	0.096168	0.24002	0.16916	0.2665	0.23237	0.25338	0.1285	0.20963	-0.097917	-1.1479	-0.8625	-0.59375	-1.2333	-0.67708	-0.72292	-1.3458	-0.44792	-1.2625	-1.0438	-0.3625	-1.3792	-0.90625	-0.5625	-1.3792	148.655	-73.553	204.236	205.124	-71.973	102.702	141.913	175.493	13.159	185.216	-63.358	216.503	214.950	121.808	162.151	-59.464	0.0002151	0.001054	0.00027429	697.89	7.9692e-06	8.8606e-06	378.32	212.31	1.108e-06	8.0102e-06	104.87	38.731	77.194	35.516	8.9505e-06	17.918	0.0079191	0.010018	0.0027841	818.66	0.00010566	0.00010979	496.51	254.5	0.00010386	0.0001094	169.35	59.506	96.906	43.502	0.00010453	27.501	201.939	65.404	-62.481	-104.990	-5.050	114.810	-107.134	-100.620	140.097	147.408	-104.069	-100.542	-95.864	-90.760	-43.130	-95.942	-8191	255	
35335.070	1	1	0	0	0.11518	0.30347	0.09922	0.21038	0.16957	0.067747	0.17762	0.097943	0.28575	0.12395	0.1092	0.15478	0.16223	0.19177	0.10209	0.41161	-0.10208	-0.95417	-0.89583	-0.40833	-1.0229	-0.67292	-0.60208	-1.3458	-0.43542	-0.88125	-1.1938	-0.41667	-1.1958	-0.82292	-0.42917	-1.3125	-78.353	89.704	236.839	-112.404	-73.103	2.159	-20.459	147.547	-11.869	100.078	-98.481	158.335	178.378	-56.965	1.388	176.732	0.00019536	0.00085098	9.8339e-05	693.92	4.3311e-06	5.7636e-06	376.16	209.73	6.0144e-06	1.1347e-05	104.32	38.194	76.617	35.696	1.3392e-06	18.042	0.0076844	0.0095981	0.0026505	808.19	0.00010072	0.00010537	489.25	251.7	0.00010029	0.0001042	165.19	58.207	95.87	43.24	9.9095e-05	27.145	186.727	209.032	120.944	-105.094	-55.644	184.194	-107.505	-100.900	10.824	166.984	-103.788	-100.642	-96.030	-90.885	-106.395	-96.558	-8191	255	
35335.168	1	1	0	0	0.074824	0.24524	0.15502	0.16577	0.25046	0.17938	0.081121	0.19601	0.0049473	0.21999	0.20495	0.01665	0.30123	0.39897	0.097531	0.074432	-0.13542	-0.86042	-1.1792	-0.38542	-1.0438	-0.71042	-0.34792	-1.3292	-0.3875	-0.86667	-1.0812	-0.48333	-1.2812	-1.0458	-0.6	-1.2833	49.593	214.077	20.250	95.974	187.446	167.498	-111.169	131.575	79.861	237.200	9.532	19.246	168.780	186.796	188.886	-111.739	0.00013486	0.00080869	0.00030334	693.14	6.111e-06	1.2561e-05	376.4	209.7	3.1279e-06	3.3587e-06	104.94	38.19	77.194	36.104	7.0068e-06	18.006	0.007335	0.0091891	0.0025388	803.53	9.7223e-05	0.00010087	485.94	250	9.6508e-05	0.0001003	164.01	58.072	96.029	43.477	9.8106e-05	27.332	197.999	-3.355	-54.220	-105.085	71.662	-11.783	-107.056	-100.732	227.741	-36.990	-104.364	-100.389	-95.517	-90.746	97.238	-96.363	-8191	255	
#DATA ENDS
