BOXY.EXE: ISS Imagent and Oximeter Data Acquisition Program Version 0.80
Ascii Record File

#ACQ INFORMATION
2  Detector Channels 
16  External MUX Channels 
1  Auxiliary Channels 
5000  Waveform (CCF) Frequency (Hz)
1  Waveforms Skipped 
30  Waveforms Averaged 
1  Cycles Averaged 
16  Acquisitions per Waveform 
10.0806  Updata Rate (Hz) 

#FILE INFORMATION
TRUE -- External MUX Channel results are PARSED.
FALSE -- AC DC and Phase are NOT grouped.
TRUE -- Companion Program Settings File CREATED.
FALSE -- AC data not excluded
FALSE -- DC data not excluded
FALSE -- Phase data not excluded
FALSE -- Auxillary Chn. data not excluded
Tab delimiters

#CALIBRATION STATE
TRUE -- Waveform Calibration Values APPLIED.


#AUX CALIBRATION VALUES
Val Type	aux-1	

Term	1.0000e+00	
Factor	0.0000e+00	


#WF CALIBRATION VALUES
A = Detector Channel
Val Type	A-AC1	A-AC2	A-AC3	A-AC4	A-AC5	A-AC6	A-AC7	A-AC8	A-AC9	A-AC10	A-AC11	A-AC12	A-AC13	A-AC14	A-AC15	A-AC16	A-DC1	A-DC2	A-DC3	A-DC4	A-DC5	A-DC6	A-DC7	A-DC8	A-DC9	A-DC10	A-DC11	A-DC12	A-DC13	A-DC14	A-DC15	A-DC16	A-Ph1	A-Ph2	A-Ph3	A-Ph4	A-Ph5	A-Ph6	A-Ph7	A-Ph8	A-Ph9	A-Ph10	A-Ph11	A-Ph12	A-Ph13	A-Ph14	A-Ph15	A-Ph16	

Term	0.00000e+00	0.00000e+00	0.00000e+00	0.00000e+00	0.00000e+00	0.00000e+00	0.00000e+00	0.00000e+00	0.00000e+00	0.00000e+00	0.00000e+00	0.00000e+00	0.00000e+00	0.00000e+00	0.00000e+00	0.00000e+00	0.00000e+00	0.00000e+00	0.00000e+00	0.00000e+00	0.00000e+00	0.00000e+00	0.00000e+00	0.00000e+00	0.00000e+00	0.00000e+00	0.00000e+00	0.00000e+00	0.00000e+00	0.00000e+00	0.00000e+00	0.00000e+00	0.00000e+00	0.00000e+00	0.00000e+00	0.00000e+00	0.00000e+00	0.00000e+00	0.00000e+00	0.00000e+00	0.00000e+00	0.00000e+00	0.00000e+00	0.00000e+00	0.00000e+00	0.00000e+00	0.00000e+00	0.00000e+00	
Factor	1.00000e+00	1.00000e+00	1.00000e+00	1.00000e+00	1.00000e+00	1.00000e+00	1.00000e+00	1.00000e+00	1.00000e+00	1.00000e+00	1.00000e+00	1.00000e+00	1.00000e+00	1.00000e+00	1.00000e+00	1.00000e+00	1.00000e+00	1.00000e+00	1.00000e+00	1.00000e+00	1.00000e+00	1.00000e+00	1.00000e+00	1.00000e+00	1.00000e+00	1.00000e+00	1.00000e+00	1.00000e+00	1.00000e+00	1.00000e+00	1.00000e+00	1.00000e+00	X	X	X	X	X	X	X	X	X	X	X	X	X	X	X	X	

B = Detector Channel
Val Type	B-AC1	B-AC2	B-AC3	B-AC4	B-AC5	B-AC6	B-AC7	B-AC8	B-AC9	B-AC10	B-AC11	B-AC12	B-AC13	B-AC14	B-AC15	B-AC16	B-DC1	B-DC2	B-DC3	B-DC4	B-DC5	B-DC6	B-DC7	B-DC8	B-DC9	B-DC10	B-DC11	B-DC12	B-DC13	B-DC14	B-DC15	B-DC16	B-Ph1	B-Ph2	B-Ph3	B-Ph4	B-Ph5	B-Ph6	B-Ph7	B-Ph8	B-Ph9	B-Ph10	B-Ph11	B-Ph12	B-Ph13	B-Ph14	B-Ph15	B-Ph16	

Term	0.00000e+00	0.00000e+00	0.00000e+00	0.00000e+00	0.00000e+00	0.00000e+00	0.00000e+00	0.00000e+00	0.00000e+00	0.00000e+00	0.00000e+00	0.00000e+00	0.00000e+00	0.00000e+00	0.00000e+00	0.00000e+00	0.00000e+00	0.00000e+00	0.00000e+00	0.00000e+00	0.00000e+00	0.00000e+00	0.00000e+00	0.00000e+00	0.00000e+00	0.00000e+00	0.00000e+00	0.00000e+00	0.00000e+00	0.00000e+00	0.00000e+00	0.00000e+00	-1.09754e+02	-1.38239e+02	-1.31532e+02	-1.81391e+02	-5.83897e+01	-6.33243e+01	-1.56241e+02	-1.62015e+02	-6.27957e+01	-6.37577e+01	-1.71665e+02	-1.69273e+02	-1.84696e+02	-1.76456e+02	-6.03418e+01	-1.48566e+02	
Factor	1.80032e-05	1.77734e-04	5.07847e-05	1.53170e-01	1.28778e-06	1.75967e-06	1.74453e-01	5.42787e-02	1.21557e-06	1.68431e-06	9.53181e-02	3.01745e-02	2.53625e-02	9.70778e-03	1.52160e-06	1.39865e-02	5.92495e-06	7.47141e-06	2.08445e-06	7.86376e-02	7.93799e-08	8.28280e-08	8.42936e-02	2.80420e-02	7.93589e-08	8.30258e-08	4.74837e-02	1.51785e-02	1.32141e-02	5.04186e-03	8.08542e-08	7.02531e-03	X	X	X	X	X	X	X	X	X	X	X	X	X	X	X	X	



#DISTANCE SETTINGS
A = Detector Channel
A-1	A-2	A-3	A-4	A-5	A-6	A-7	A-8	A-9	A-10	A-11	A-12	A-13	A-14	A-15	A-16	

2.5000e+00	3.0000e+00	2.5000e+00	3.0000e+00	2.0000e+00	3.0000e+00	1.5000e+00	3.0000e+00	3.0000e+00	3.0000e+00	3.0000e+00	3.0000e+00	3.0000e+00	3.0000e+00	1.5000e+00	3.0000e+00	

B = Detector Channel
B-1	B-2	B-3	B-4	B-5	B-6	B-7	B-8	B-9	B-10	B-11	B-12	B-13	B-14	B-15	B-16	

1.0000e+01	1.0000e+01	1.0000e+01	1.4400e+00	1.0000e+01	1.0000e+01	1.5100e+00	1.9400e+00	1.0000e+01	1.0000e+01	1.9900e+00	2.4900e+00	2.4100e+00	2.9000e+00	1.0000e+01	2.9800e+00	




#DATA BEGINS
time	group	step	mark	flag	A-AC1	A-AC2	A-AC3	A-AC4	A-AC5	A-AC6	A-AC7	A-AC8	A-AC9	A-AC10	A-AC11	A-AC12	A-AC13	A-AC14	A-AC15	A-AC16	A-DC1	A-DC2	A-DC3	A-DC4	A-DC5	A-DC6	A-DC7	A-DC8	A-DC9	A-DC10	A-DC11	A-DC12	A-DC13	A-DC14	A-DC15	A-DC16	A-Ph1	A-Ph2	A-Ph3	A-Ph4	A-Ph5	A-Ph6	A-Ph7	A-Ph8	A-Ph9	A-Ph10	A-Ph11	A-Ph12	A-Ph13	A-Ph14	A-Ph15	A-Ph16	B-AC1	B-AC2	B-AC3	B-AC4	B-AC5	B-AC6	B-AC7	B-AC8	B-AC9	B-AC10	B-AC11	B-AC12	B-AC13	B-AC14	B-AC15	B-AC16	B-DC1	B-DC2	B-DC3	B-DC4	B-DC5	B-DC6	B-DC7	B-DC8	B-DC9	B-DC10	B-DC11	B-DC12	B-DC13	B-DC14	B-DC15	B-DC16	B-Ph1	B-Ph2	B-Ph3	B-Ph4	B-Ph5	B-Ph6	B-Ph7	B-Ph8	B-Ph9	B-Ph10	B-Ph11	B-Ph12	B-Ph13	B-Ph14	B-Ph15	B-Ph16	aux-1	digaux	

35305.781	1	1	0	256	0.18783	0.20689	0.10451	0.18251	0.11698	0.066472	0.26713	0.19158	0.16789	0.17254	0.16537	0.16642	0.11454	0.1884	0.11072	0.16583	-0.1	-0.98125	-0.43542	-0.6625	-1.25	-0.22083	-1.0042	-0.97708	-0.33125	-1.2646	-0.55417	-0.48333	-1.1521	-0.18542	-0.92083	-1.0667	210.894	185.532	205.511	225.389	191.158	-34.031	-28.000	78.713	-77.302	2.449	75.643	87.750	-82.203	-120.224	24.045	37.075	3.5113e-05	0.00016262	6.0237e-05	631.73	5.2635e-07	1.8052e-06	366.73	228.24	3.6904e-06	8.4687e-06	130.9	37.964	72.708	26.983	1.2418e-06	13.737	0.0015008	0.0018174	0.00050041	659.47	1.8192e-05	1.8693e-05	394.18	239.83	1.7262e-05	1.7821e-05	143.9	42.052	77.42	28.874	1.6634e-05	15.387	-79.147	5.801	223.421	-106.085	-91.004	22.951	-108.085	-102.273	-1.237	93.484	-105.435	-101.961	-97.793	-91.701	6.445	-96.649	-8191	255	
35305.879	1	1	0	0	0.16406	0.16889	0.097088	0.29167	0.13045	0.12071	0.32195	0.28287	0.11743	0.16305	0.29207	0.1686	0.13653	0.1501	0.063552	0.11741	0.083333	-1.2333	-0.56667	-0.5625	-1.2625	-0.23125	-0.83125	-1.1792	-0.34583	-1.1167	-0.57083	-0.35	-1.1104	-0.4625	-0.68333	-1.0979	207.806	115.553	6.366	226.611	-105.535	177.441	197.103	214.721	-43.855	229.249	166.308	-53.438	-112.151	239.230	101.943	-1.919	0.00010501	0.00065155	3.1303e-05	633.61	3.9869e-06	6.6068e-06	370.07	228.97	1.4191e-06	4.7089e-06	132.31	38.383	73.319	27.304	1.8325e-06	13.913	0.001224	0.0014914	0.00041786	658.7	1.5599e-05	1.5998e-05	394.45	240.37	1.5434e-05	1.5716e-05	143.97	42.283	77.858	29.085	1.485e-05	15.517	224.168	-16.204	-91.625	-105.969	28.272	64.714	-108.335	-101.994	44.793	-64.696	-105.421	-101.588	-97.669	-92.020	79.030	-96.498	-8191	255	
35305.996	1	1	0	0	0.30339	0.12238	0.14986	0.25068	0.069843	0.02868	0.1449	0.27119	0.08806	0.33648	0.087106	0.27343	0.1008	0.081252	0.070054	0.11873	0.10208	-1.0625	-0.7	-0.31458	-1.2875	-0.41458	-0.60625	-1.3312	-0.35833	-1.0479	-0.81458	-0.47083	-1.1583	-0.76042	-0.7625	-1.2812	11.413	92.950	222.834	236.436	34.662	-107.766	-90.984	-90.021	222.966	230.572	23.999	103.966	-59.072	187.024	235.282	93.897	4.4747e-05	0.00049726	0.00015615	637.02	8.4199e-07	1.6505e-06	376.85	231.2	2.8055e-06	3.3353e-06	132.97	38.598	73.557	27.29	2.4139e-06	13.728	0.0011112	0.0013907	0.00038603	660.98	1.4748e-05	1.5504e-05	397.49	241.92	1.4884e-05	1.5761e-05	144.34	42.333	78.282	29.008	1.5585e-05	15.399	208.832	212.722	7.318	-105.930	85.114	17.017	-108.210	-102.227	-6.602	78.485	-105.157	-101.409	-97.242	-91.895	62.835	-96.863	-8191	255	
35306.094	1	1	0	0	0.11009	0.46722	0.083683	0.30818	0.21118	0.29555	0.29149	0.26929	0.052948	0.454	0.28082	0.11107	0.285	0.067926	0.14103	0.19331	0.079167	-0.87083	-0.87292	-0.35208	-1.2146	-0.56042	-0.44375	-1.3062	-0.17083	-0.89167	-0.8875	-0.27083	-1.2208	-0.72708	-0.43958	-1.2292	77.396	-4.351	218.509	-98.390	-6.224	115.405	130.508	-101.934	128.973	186.372	91.728	-87.453	-4.966	237.335	132.075	-0.590	3.8115e-05	0.00025958	3.3747e-05	636.01	1.2612e-06	3.5571e-06	373.93	231.12	1.0582e-06	1.0376e-06	132.64	38.201	73.132	27.188	3.3357e-06	13.629	0.0011693	0.0014565	0.00040837	662.63	1.5832e-05	1.6424e-05	397.03	241.66	1.5982e-05	1.6667e-05	144.47	42.168	78.167	28.967	1.6359e-05	15.361	207.370	-105.790	14.698	-105.911	167.920	-4.020	-107.709	-102.199	-49.564	-32.964	-105.462	-101.250	-97.804	-92.012	-33.314	-96.926	-8191	255	
35306.188	1	1	0	0	0.08382	0.14294	0.15286	0.3537	0.17764	0.11881	0.0873	0.2339	0.097971	0.057552	0.21645	0.2437	0.2487	0.20363	0.096591	0.16821	0.052083	-0.77917	-1.0792	-0.34375	-1.1896	-0.76667	-0.56667	-1.1854	-0.3375	-0.74792	-1.1667	-0.21458	-1.1396	-0.78542	-0.46458	-1.2708	-40.946	237.862	165.475	-118.304	167.619	49.617	180.039	227.481	239.673	-42.818	68.023	-17.292	-98.710	-60.445	123.994	53.349	7.2939e-05	0.00042017	9.4501e-05	634.22	2.7877e-06	2.8214e-06	373.07	230.64	9.4123e-07	1.9835e-06	131.82	38.13	73.317	27.093	5.129e-06	13.646	0.0012317	0.0014986	0.00041754	660.48	1.5949e-05	1.6539e-05	395.73	241.13	1.5885e-05	1.6612e-05	143.55	42.175	77.842	28.904	1.6263e-05	15.37	-96.350	-26.723	-97.762	-105.764	-49.977	133.946	-107.987	-102.102	137.174	53.843	-106.009	-101.774	-97.683	-92.388	22.348	-96.510	-8191	255	
35306.285	1	1	0	0	0.20778	0.20165	0.11478	0.045026	0.027552	0.23123	0.18055	0.28253	0.11904	0.2033	0.11134	0.12989	0.040256	0.26535	0.11855	0.20992	0.0020833	-0.67708	-1.1417	-0.50208	-1.0312	-0.88333	-0.31667	-1.5	-0.51042	-0.72708	-1.2062	-0.39167	-1.1313	-0.94583	-0.2625	-1.3	141.036	-6.992	154.815	208.658	-2.337	-52.566	204.232	192.044	-49.507	-40.648	228.470	185.724	6.272	207.699	110.902	-52.808	0.00010462	0.00044928	6.9914e-05	635.15	3.4012e-06	5.5403e-06	373.89	230.33	1.742e-06	5.7817e-06	132.45	37.928	73.154	27.078	5.3907e-06	13.898	0.0012035	0.0014794	0.00041488	659.48	1.6036e-05	1.6534e-05	396.67	241.13	1.579e-05	1.6296e-05	143.57	42.185	77.992	28.936	1.5897e-05	15.419	214.337	-81.188	26.530	-106.118	-33.919	59.307	-108.008	-102.010	-58.348	66.321	-105.427	-101.689	-97.759	-91.962	71.370	-96.739	-8191	255	
35306.379	1	1	0	0	0.097262	0.30953	0.33571	0.39986	0.18575	0.29564	0.086529	0.23998	0.31223	0.23293	0.11654	0.095912	0.04093	0.18761	0.031666	0.27341	-0.29583	-0.69375	-1.1771	-0.38333	-1.0292	-0.96042	-0.23125	-1.2021	-0.64583	-0.62708	-1.2854	-0.475	-0.96667	-0.95	-0.35417	-1.1917	23.419	104.566	200.989	-116.525	-97.039	178.123	34.022	224.225	22.062	-96.375	-25.750	207.473	215.924	198.744	95.955	145.513	3.4193e-05	0.0006097	0.00023659	633.08	4.6648e-07	4.5247e-06	371.59	229.59	3.9309e-06	1.038e-06	132.82	38.067	73.489	27.034	2.296e-06	13.613	0.0012028	0.0014772	0.0004078	659.77	1.5824e-05	1.6219e-05	396.15	240.86	1.5972e-05	1.6532e-05	144.2	42.234	78.14	28.879	1.6475e-05	15.344	225.354	17.160	-29.616	-105.914	209.760	85.527	-108.504	-102.020	-22.744	112.486	-105.199	-101.654	-97.502	-92.065	108.864	-96.385	-8191	255	
35306.477	1	1	0	0	0.26128	0.18783	0.11281	0.29418	0.28616	0.05088	0.20453	0.27607	0.076454	0.23991	0.12402	0.096923	0.39435	0.13266	0.086413	0.17859	-0.18333	-0.47708	-1.2104	-0.45417	-0.825	-1.0187	-0.27708	-1.0438	-0.79167	-0.2625	-1.1667	-0.47708	-0.90625	-1.1583	-0.24167	-0.98333	-34.011	162.665	75.570	-89.275	62.754	43.171	127.537	181.255	94.423	226.506	-72.483	111.987	-70.601	128.049	187.962	50.827	7.2829e-05	0.00026165	6.4781e-05	632.08	4.4599e-06	4.7601e-06	371.21	229.58	1.9616e-06	4.799e-06	131.8	37.644	72.741	26.688	3.5356e-06	13.404	0.0012171	0.0015055	0.00041461	659.07	1.5876e-05	1.6328e-05	394.07	240.44	1.5706e-05	1.6202e-05	142.79	41.79	77.639	28.537	1.6008e-05	15.097	204.126	-101.662	-30.567	-105.690	23.570	73.042	-108.165	-102.005	28.216	62.705	-105.414	-101.598	-98.062	-91.879	23.248	-96.390	-8191	255	
35306.598	1	1	0	0	0.28873	0.18196	0.2802	0.10763	0.10757	0.12331	0.14983	0.33577	0.31745	0.22036	0.30306	0.15753	0.088629	0.15188	0.12995	0.12932	-0.5375	-0.17708	-1.0771	-0.48125	-0.64583	-1.1667	-0.38333	-1.1208	-0.84167	-0.24375	-1.1271	-0.29792	-0.74167	-1.1104	-0.43333	-0.87708	-77.530	-41.014	-117.037	-73.633	-6.044	-55.397	22.325	-102.644	169.927	-101.863	-88.929	145.472	56.833	91.257	-84.598	96.165	5.0686e-05	0.00052043	0.00017689	631.6	5.0224e-06	5.2998e-06	371.84	228.95	2.1925e-06	3.8104e-06	131.25	37.617	72.72	26.87	6.6763e-07	13.451	0.0011904	0.001484	0.00041037	657.79	1.5927e-05	1.6138e-05	393.78	239.87	1.58e-05	1.6278e-05	142.71	41.575	77.474	28.54	1.5374e-05	15.069	223.365	-69.616	21.244	-105.984	86.651	1.276	-108.147	-101.953	226.874	-38.415	-105.313	-101.806	-97.567	-91.830	-75.158	-96.502	-8191	255	
35306.691	1	1	0	0	0.24597	0.21396	0.13331	0.26466	0.33438	0.3202	0.12779	0.088876	0.11499	0.21016	0.047241	0.12312	0.1407	0.29241	0.11084	0.29814	-0.55833	-0.19583	-1.0771	-0.67708	-0.5375	-1.0979	-0.38333	-1.1688	-0.97083	-0.11667	-1.2542	-0.66458	-0.3625	-1.375	-0.40417	-0.74792	51.269	-51.542	26.693	184.094	16.111	13.524	-71.918	28.490	175.813	-68.649	197.678	238.603	183.433	-62.228	133.981	181.239	8.7301e-05	0.00035016	0.00010872	630	2.4266e-06	2.222e-06	369.43	228.83	2.6696e-06	3.66e-06	131.5	37.474	73.006	27.157	3.6779e-06	13.586	0.0011137	0.0013898	0.00038169	655.24	1.47e-05	1.5156e-05	391.4	239.17	1.4558e-05	1.5159e-05	141.83	41.535	77.463	28.718	1.4472e-05	15.162	-105.660	-8.732	221.028	-106.074	-13.950	-49.999	-108.007	-101.863	99.906	65.488	-105.475	-101.722	-97.624	-91.763	63.163	-96.380	-8191	255	
35306.789	1	1	0	0	0.14646	0.28373	0.34124	0.22898	0.12204	0.043392	0.1451	0.16252	0.14706	0.1671	0.039995	0.14651	0.076292	0.18657	0.15658	0.16112	-0.61875	-0.29167	-1.15	-0.73542	-0.78958	-1.2583	-0.38542	-1.1521	-1.2125	-0.15208	-1.1229	-0.80208	-0.38125	-1.3396	-0.44167	-0.63542	127.365	87.450	8.832	192.211	-22.246	-39.297	147.203	-50.565	-119.266	-88.154	123.178	-12.041	-57.190	-62.652	44.073	203.230	9.6669e-05	0.00010392	0.0001202	628.86	3.3006e-06	5.2362e-06	371.75	229.1	3.5575e-06	4.0893e-06	132.12	38.104	73.085	27.128	1.5478e-06	13.752	0.0010757	0.001332	0.00037563	655.83	1.4116e-05	1.4698e-05	392.54	239.74	1.417e-05	1.475e-05	142.33	41.688	77.548	28.796	1.4634e-05	15.286	221.037	-55.662	-22.574	-106.109	-19.162	72.682	-108.343	-101.810	1.047	-94.473	-105.242	-101.614	-97.756	-92.076	-34.073	-96.437	-8191	255	
35306.887	1	1	0	0	0.058987	0.22131	0.16169	0.1781	0.20044	0.16634	0.21974	0.30962	0.24681	0.14268	0.38597	0.26078	0.2538	0.25703	0.11111	0.3225	-0.67083	-0.23542	-0.91042	-0.99167	-0.21667	-1.2333	-0.36042	-0.63542	-0.94792	-0.22083	-0.99583	-0.86458	-0.39792	-1.3042	-0.56042	-0.5375	187.973	-72.916	13.051	-92.996	-57.782	67.356	123.030	157.518	186.669	-93.798	178.978	45.235	-66.621	109.192	-79.792	160.527	9.8806e-05	0.00016892	3.7417e-05	632.01	1.0509e-06	2.2406e-06	369.64	229.55	1.5339e-06	2.4131e-06	132.23	37.939	73.031	27.137	1.131e-06	13.529	0.0010748	0.0013225	0.00037028	656.71	1.4052e-05	1.4426e-05	393.08	239.96	1.3879e-05	1.4405e-05	142.11	41.66	77.383	28.776	1.4232e-05	15.134	-110.491	-47.944	-54.996	-106.457	87.592	204.065	-108.597	-102.311	-84.196	-42.861	-105.287	-101.861	-97.905	-92.147	-50.539	-97.103	-8191	255	
35306.980	1	1	0	0	0.28281	0.19446	0.094076	0.25211	0.1935	0.11223	0.038937	0.1537	0.19302	0.2877	0.2034	0.041546	0.10392	0.099483	0.31823	0.15499	-0.8125	-0.17083	-0.68125	-0.88542	-0.095833	-1.1063	-0.50625	-0.54583	-1.1521	-0.42083	-0.93542	-1.1938	-0.45	-1.2188	-0.51667	-0.33542	93.215	34.408	-59.810	86.019	136.879	179.377	69.466	97.215	-87.453	-77.875	-13.711	161.606	-82.459	151.146	-99.768	-5.848	3.9601e-05	0.00048832	0.00015445	628.23	1.0489e-06	4.9819e-06	371.45	228.98	1.3142e-06	5.2666e-06	130.29	37.695	72.433	26.897	2.2311e-06	13.544	0.0010403	0.0012956	0.00036455	654.4	1.3871e-05	1.4377e-05	391.91	238.98	1.3933e-05	1.4618e-05	141.19	41.309	77.091	28.6	1.4479e-05	15.059	-100.056	-91.385	-78.922	-106.350	-4.124	132.346	-108.159	-102.251	-40.295	67.438	-105.466	-102.051	-98.029	-92.011	114.431	-97.420	-8191	255	
35307.074	1	1	0	0	0.20399	0.12569	0.10369	0.21619	0.20278	0.198	0.15112	0.094316	0.25393	0.23237	0.24322	0.20184	0.16993	0.082396	0.1471	0.016303	-0.875	-0.45	-0.61875	-1.3312	-0.26042	-1.0833	-0.76667	-0.41458	-1.1562	-0.30625	-0.93333	-1.2333	-0.14375	-1.2687	-0.73333	-0.45417	-9.880	-89.709	201.332	200.188	-59.494	199.537	104.671	170.712	-56.565	-2.708	-1.730	194.095	127.928	203.073	77.673	101.221	7.456e-05	0.00018323	0.00014294	629.61	2.7823e-06	2.6711e-06	369.06	228.39	1.7772e-06	2.8178e-06	130.43	37.611	72.644	26.946	6.792e-07	13.472	0.0010639	0.001324	0.00036748	654.96	1.4281e-05	1.4725e-05	390.77	238.69	1.4273e-05	1.4922e-05	141.29	41.341	77.303	28.695	1.4796e-05	15.049	-112.084	63.961	-15.321	-106.301	211.399	106.213	-108.647	-102.044	-61.254	-20.648	-105.581	-101.536	-98.240	-92.166	-94.133	-96.483	-8191	255	
35307.172	1	1	0	0	0.22526	0.22276	0.08307	0.17268	0.27191	0.17947	0.26149	0.23501	0.25646	0.33973	0.24373	0.030815	0.15831	0.18364	0.071091	0.14867	-0.72917	-0.43542	-0.60625	-1.3083	-0.37917	-0.97708	-0.72917	-0.31042	-1.2333	-0.4875	-0.6125	-1.0521	-0.34375	-0.85625	-0.94792	-0.15625	58.313	237.328	-31.586	-76.838	-40.038	76.102	237.370	151.775	121.984	215.910	78.546	232.764	140.297	195.413	184.696	-111.060	0.00010963	0.00011258	9.2695e-05	631.32	3.2855e-06	3.1921e-06	368.74	228.27	2.4058e-06	1.9875e-06	130.59	37.563	72.585	26.861	4.1685e-06	13.475	0.0011022	0.0014006	0.00038742	656.65	1.4791e-05	1.5481e-05	391.95	238.92	1.4922e-05	1.558e-05	141.82	41.484	77.19	28.606	1.4992e-05	15.047	234.303	187.729	-16.405	-106.248	136.280	55.739	-108.334	-102.572	19.359	103.252	-105.728	-101.587	-98.100	-92.335	79.689	-96.621	-8191	255	
35307.270	1	1	0	0	0.24066	0.15723	0.34156	0.31678	0.18788	0.16989	0.15865	0.13985	0.26804	0.047267	0.31451	0.26997	0.14053	0.019258	0.1043	0.29422	-0.73333	-0.47083	-0.35833	-1.2042	-0.39167	-0.80208	-0.95208	-0.375	-1.2208	-0.60833	-0.4125	-1.3771	-0.40625	-0.65208	-1.0375	-0.31042	-104.870	-42.818	-83.991	218.082	-62.240	65.308	205.757	-98.084	225.818	140.709	175.354	-112.840	220.958	148.135	70.208	58.966	6.6867e-05	0.0001315	4.0127e-05	628.62	3.0751e-06	3.2549e-06	370.77	228.86	1.6564e-06	3.6254e-06	130.67	37.82	72.829	26.972	3.1655e-06	13.631	0.001108	0.00138	0.0003815	654.7	1.4788e-05	1.5301e-05	392.41	238.85	1.4576e-05	1.5334e-05	141.75	41.515	77.311	28.656	1.4539e-05	15.178	-102.303	178.919	14.877	-106.382	20.747	21.795	-108.601	-101.901	-2.217	105.760	-105.707	-101.909	-97.866	-92.223	25.497	-96.782	-8191	255	
35307.391	1	1	0	0	0.21891	0.12041	0.16574	0.19244	0.42388	0.16187	0.10454	0.18537	0.37478	0.079704	0.23283	0.28249	0.097505	0.10057	0.020221	0.2511	-0.71458	-0.5875	-0.20417	-1.275	-0.41875	-0.76042	-1.0396	-0.29375	-0.89792	-0.83333	-0.29167	-1.125	-0.60208	-0.69792	-1.1917	-0.20625	239.515	20.545	-63.573	194.423	51.730	7.880	192.479	132.357	-77.563	54.247	91.146	27.287	169.760	174.633	118.954	-105.026	7.7515e-05	0.00025645	0.00011941	628.22	4.2041e-06	5.3243e-06	366.43	229.26	9.2222e-07	4.2914e-06	130.24	37.44	72.483	27.085	1.9445e-06	13.621	0.0010815	0.001325	0.00036834	653.12	1.4101e-05	1.4516e-05	390.12	238.83	1.4035e-05	1.4513e-05	141.2	41.322	77.168	28.745	1.3982e-05	15.087	-85.390	-71.012	6.486	-106.083	75.847	2.025	-108.497	-102.035	146.019	-32.074	-105.606	-101.822	-97.801	-92.162	74.918	-96.705	-8191	255	
35307.484	1	1	0	0	0.29605	0.22542	0.20613	0.20481	0.11941	0.15038	0.21834	0.15714	0.19554	0.22555	0.33804	0.067344	0.30055	0.044946	0.18433	0.044249	-0.61667	-0.99375	-0.47083	-1.2521	-0.6375	-0.56875	-1.0625	-0.31458	-0.98542	-1.0771	-0.1875	-1.2188	-0.50625	-0.4125	-1.1562	-0.32708	-105.622	-65.900	-14.999	130.625	196.466	-52.800	192.661	-116.595	228.692	-83.619	66.491	-27.097	-48.991	236.248	-17.487	222.954	6.0081e-05	0.00027622	0.00012072	627.27	2.5558e-06	5.6708e-06	367.98	228.52	1.8338e-06	3.8305e-06	129.95	37.395	72.608	27.018	2.1629e-06	13.594	0.001064	0.0013169	0.00036127	652.32	1.4081e-05	1.4653e-05	389.27	238.53	1.4221e-05	1.4573e-05	140.59	41.051	77.094	28.702	1.4206e-05	15.053	213.682	28.878	11.021	-106.178	8.906	33.012	-108.368	-102.251	62.615	33.821	-105.566	-101.535	-97.765	-91.941	114.026	-97.275	-8191	255	
35307.559	1	1	0	0	0.13386	0.26661	0.2116	0.14521	0.28927	0.20589	0.17748	0.16612	0.3155	0.25331	0.29541	0.13732	0.059138	0.25614	0.40789	0.16253	-0.80208	-0.89167	-0.275	-1.3438	-0.70833	-0.44167	-1.525	-0.42292	-0.92292	-0.94583	-0.15833	-1.0833	-0.76875	-0.50833	-1.2354	-0.43333	215.030	134.787	-29.323	-89.951	118.498	151.726	207.841	182.287	203.340	79.665	212.928	16.703	-58.092	33.336	63.057	120.478	4.9399e-05	0.00056836	5.0872e-05	629.46	2.492e-06	1.5259e-06	368.18	227.94	2.3491e-06	2.4456e-06	130.18	37.284	72.601	26.877	2.671e-06	13.602	0.0010841	0.0013385	0.00036874	654.07	1.4462e-05	1.4781e-05	390	238.62	1.4412e-05	1.4885e-05	140.71	41.225	77.113	28.597	1.4642e-05	15.068	-100.677	-28.815	93.060	-105.943	42.094	-16.990	-108.292	-102.191	113.543	37.487	-105.553	-101.589	-97.992	-91.865	-30.813	-97.182	-8191	255	
35307.676	1	1	0	0	0.034961	0.15143	0.2031	0.16528	0.18158	0.11671	0.14763	0.1984	0.070913	0.14285	0.33467	0.24288	0.15541	0.16606	0.26109	0.29822	-0.52917	-0.975	-0.375	-1.0854	-0.71458	-0.32083	-1.1021	-0.35625	-0.79583	-1.0562	-0.19583	-0.95417	-0.62917	-0.4	-1.2667	-0.45625	-89.808	142.428	137.596	229.042	-79.231	-98.581	-79.817	56.332	188.918	117.601	148.861	116.288	25.636	212.140	102.342	116.439	4.7381e-05	0.0003537	0.00016349	630.64	1.6901e-06	2.788e-06	367.25	228.38	3.542e-07	2.704e-06	131.02	37.867	72.741	26.964	2.487e-06	13.689	0.0010932	0.0013315	0.00037516	655.69	1.452e-05	1.5019e-05	390.91	238.97	1.4406e-05	1.475e-05	141.5	41.518	77.201	28.665	1.468e-05	15.151	-103.437	237.894	-29.335	-106.302	94.945	-4.623	-108.436	-102.309	32.975	21.908	-105.559	-101.719	-97.711	-91.815	63.703	-96.581	-8191	255	
35307.773	1	1	0	0	0.11979	0.1391	0.25337	0.3726	0.15702	0.12163	0.092086	0.31826	0.12243	0.10882	0.2837	0.23425	0.13636	0.1967	0.17411	0.22027	-0.13125	-1.075	-0.25625	-1.0771	-0.7875	-0.46458	-1.2396	-0.51458	-0.49167	-1.15	0.0083333	-0.9125	-0.88958	-0.2625	-1.1542	-0.50417	-78.483	180.844	164.815	192.857	120.184	-119.274	-91.206	205.199	-100.028	11.182	-111.112	-36.196	52.191	145.529	219.271	84.819	7.5907e-05	0.00040672	0.00019439	631.52	3.8948e-06	6.3792e-06	367.6	229.04	3.3765e-06	5.9836e-06	130.03	37.45	73.056	27.061	3.0396e-06	13.638	0.001094	0.001336	0.0003754	655.29	1.4378e-05	1.496e-05	390.83	238.95	1.4502e-05	1.4952e-05	141.31	41.427	77.282	28.789	1.4678e-05	15.257	205.816	-72.886	17.804	-106.193	-70.869	41.085	-108.596	-102.103	2.924	14.535	-104.954	-101.200	-97.934	-91.578	41.786	-97.058	-8191	255	
35307.871	1	1	0	0	0.16478	0.10258	0.017383	0.0944	0.12175	0.089526	0.13075	0.34718	0.13287	0.092251	0.22918	0.14196	0.14967	0.051659	0.18451	0.2465	-0.21042	-1.0604	-0.13333	-0.82083	-0.89583	-0.20625	-1.2	-0.68542	-0.475	-1.2188	-0.43333	-0.94792	-1.375	-0.1375	-1.1292	-0.90417	-3.462	-37.772	104.381	-78.279	-81.131	-64.247	226.873	127.043	125.225	225.469	189.565	131.556	198.564	208.205	101.962	-46.495	8.267e-05	0.00048221	0.00021894	629.83	2.1308e-06	7.5387e-06	365.38	228.73	3.0741e-06	2.9665e-06	128.69	37.244	72.43	26.936	1.4544e-06	13.529	0.0010923	0.001344	0.00037835	654.25	1.4256e-05	1.4826e-05	389.02	238.79	1.4554e-05	1.4894e-05	140.48	41.172	77.013	28.681	1.4941e-05	15.113	233.799	-33.875	-66.583	-106.045	-29.381	45.456	-108.560	-102.439	-112.232	-38.824	-105.970	-101.834	-97.917	-92.413	76.249	-97.244	-8191	255	
35307.988	1	1	0	0	0.14835	0.26507	0.28719	0.057671	0.08803	0.15531	0.10449	0.114	0.14676	0.013323	0.24868	0.14033	0.088604	0.096802	0.13584	0.090914	-0.11667	-1.0438	-0.16667	-0.76875	-1.2333	-0.38125	-1.0917	-0.96458	-0.33958	-1.1125	-0.51042	-0.64792	-0.96042	-0.4	-1.0042	-0.76042	74.355	68.117	238.983	17.441	183.070	50.611	108.365	-18.083	53.211	188.370	49.454	48.065	-11.040	155.035	-68.562	146.846	4.6468e-05	0.00031439	0.00011834	626.96	1.3718e-06	5.902e-06	365.22	225.85	9.429e-07	4.8462e-06	128.89	36.862	72.183	27.051	4.8445e-06	13.631	0.0011165	0.0013389	0.00038003	651.77	1.451e-05	1.5003e-05	387	237.28	1.4457e-05	1.4969e-05	139.71	40.92	76.821	28.746	1.4886e-05	15.135	-50.171	-73.305	-58.535	-106.174	118.174	92.455	-108.428	-102.441	-48.754	-10.244	-105.478	-101.649	-97.826	-92.119	47.650	-97.255	-8191	255	
35308.086	1	1	0	0	0.074662	0.16725	0.10609	0.16944	0.26401	0.21139	0.12571	0.29331	0.060935	0.24378	0.30475	0.16455	0.2761	0.11189	0.29367	0.32362	-0.014583	-1.2417	-0.34792	-0.4875	-1.1729	-0.14792	-0.95625	-1.1812	-0.28542	-1.3271	-0.48333	-0.70417	-1.1792	-0.37083	-0.95833	-1.0521	128.118	56.663	-41.262	211.209	39.231	72.879	212.446	166.738	87.103	-44.787	-9.735	-68.986	218.080	-118.056	138.057	14.928	6.4952e-05	0.0004006	0.00010973	624.27	8.8039e-07	2.1152e-06	365.75	227.55	4.0308e-06	2.3357e-06	129.48	37.155	72.304	27.095	1.3343e-06	13.67	0.0010772	0.0013526	0.00037693	649.76	1.424e-05	1.4995e-05	386	237.34	1.4497e-05	1.5027e-05	140.03	40.93	76.706	28.881	1.4914e-05	15.241	-76.531	-29.788	-53.283	-105.962	203.160	89.265	-108.433	-102.241	3.391	22.149	-105.625	-101.824	-98.197	-91.843	173.619	-97.158	-8191	255	
35308.156	1	1	0	0	0.14309	0.065622	0.11556	0.11668	0.10185	0.15503	0.088813	0.31832	0.072573	0.128	0.19842	0.23672	0.22243	0.108	0.1788	0.043705	0.11667	-1.1688	-0.86042	-0.60208	-1.2208	-0.25208	-0.78542	-1.1063	-0.3625	-1.175	-0.74167	-0.44792	-1.1542	-0.38542	-0.79792	-1.0271	-73.140	-68.131	218.974	10.477	126.365	183.603	119.563	135.881	169.615	149.993	150.974	104.644	158.594	-107.225	-42.392	-97.780	9.1757e-05	0.00041716	7.9198e-05	628.38	2.6926e-06	2.0539e-06	365.3	227.13	1.1793e-06	6.4676e-06	129.31	37.018	72.252	27.074	3.7768e-06	13.599	0.0011106	0.001359	0.00038192	651.64	1.4453e-05	1.5374e-05	386.95	237.24	1.4833e-05	1.5372e-05	139.8	41.065	76.803	28.876	1.5077e-05	15.251	-118.406	209.473	205.835	-106.304	50.110	-29.422	-108.357	-102.310	-77.484	15.170	-106.156	-102.093	-97.907	-92.041	-13.935	-96.988	-8191	255	
35308.277	1	1	0	0	0.14412	0.14988	0.18535	0.18387	0.072616	0.075197	0.35297	0.20124	0.077376	0.12247	0.048247	0.082532	0.10822	0.16167	0.10671	0.045655	0.11667	-1.1125	-0.62708	-0.45417	-1.2146	-0.56458	-0.83125	-1.1896	-0.10417	-1.1833	-0.7375	-0.31042	-1.3062	-0.4125	-0.56667	-1.2917	161.454	-45.667	207.314	-116.229	45.544	30.804	-113.767	-97.410	-75.427	67.778	211.090	136.023	156.478	-85.169	76.705	49.174	0.00013186	0.00019585	5.3562e-05	625.73	3.6263e-06	3.4926e-06	364.8	227.43	3.9271e-06	5.6184e-06	128.58	37.077	71.944	27.125	1.7072e-06	13.635	0.0011357	0.0014069	0.00039205	650.85	1.4956e-05	1.5518e-05	386.45	237.56	1.4925e-05	1.5798e-05	139.89	41.117	76.832	28.982	1.5525e-05	15.296	-116.409	213.783	191.984	-106.410	18.406	71.118	-108.450	-102.399	21.228	79.128	-105.989	-102.022	-98.072	-92.475	-36.147	-97.411	-8191	255	
35308.371	1	1	0	0	0.14792	0.29464	0.15261	0.17493	0.4521	0.36122	0.16607	0.1164	0.080309	0.17673	0.38059	0.032271	0.13147	0.081456	0.043469	0.10822	0.077083	-0.89375	-0.81042	-0.2375	-1.1479	-0.44792	-0.74792	-1.1063	-0.30833	-0.98542	-1.075	-0.28125	-1.1229	-0.775	-0.49792	-1.1958	25.135	-102.114	203.156	-24.178	234.784	79.560	146.596	176.905	-30.924	187.568	63.770	140.642	-108.748	-116.239	-8.913	-49.594	2.6175e-05	0.00016559	0.00010904	624.4	3.8858e-06	2.8033e-06	357.97	224.78	8.9341e-07	2.6994e-06	126.61	36.522	71.285	26.873	1.5341e-06	13.368	0.0011781	0.0014443	0.00040127	647.96	1.5436e-05	1.6089e-05	382.38	235.8	1.5544e-05	1.6162e-05	138.29	40.529	76.143	28.748	1.5711e-05	15.081	-85.302	75.119	-54.718	-106.271	-72.667	105.281	-108.531	-102.507	-109.097	-41.887	-106.163	-101.876	-97.994	-92.225	-18.621	-97.134	-8191	255	
35308.469	1	1	0	0	0.095824	0.073486	0.16897	0.10016	0.018811	0.17022	0.24507	0.12974	0.26961	0.1427	0.27329	0.25262	0.53088	0.22265	0.24071	0.2127	0.022917	-0.77083	-0.81042	-0.46042	-1.2313	-0.72083	-0.375	-1.1979	-0.37708	-0.76667	-0.88333	-0.18333	-0.98958	-0.67917	-0.37708	-1.0833	-63.341	190.639	99.659	-80.961	166.670	196.817	34.873	63.702	-65.998	-11.851	-105.775	172.325	193.322	-50.331	-60.507	-65.465	8.9361e-05	0.0001918	3.8789e-05	621.13	1.1796e-06	2.9456e-06	357.58	224.66	1.2252e-06	4.4484e-06	127.2	36.505	71.045	26.99	2.8008e-06	13.446	0.0011868	0.001476	0.00040192	645.43	1.5414e-05	1.6116e-05	380.98	234.86	1.5512e-05	1.6058e-05	138.2	40.374	76.066	28.802	1.5978e-05	15.113	223.830	39.896	-26.207	-106.331	-41.438	-27.738	-108.375	-102.423	-76.404	-71.578	-105.620	-101.714	-98.123	-92.221	0.195	-96.755	-8191	255	
35308.566	1	1	0	0	0.050035	0.2535	0.24411	0.22594	0.015444	0.12764	0.066687	0.17761	0.080289	0.18246	0.1027	0.18894	0.10435	0.096542	0.21975	0.31221	0.11042	-0.49583	-1.0854	-0.39167	-0.81667	-0.85833	-0.46042	-1.3438	-0.40833	-0.6	-1.3917	-0.45625	-0.96042	-0.86042	-0.060417	-1.3208	34.948	-96.733	236.780	-96.396	53.208	93.155	107.660	162.856	218.027	165.493	-52.065	161.970	204.926	176.652	-117.140	-93.070	6.5782e-05	0.00045411	6.8529e-05	620.01	2.1347e-06	5.1589e-06	357.19	224.41	2.5515e-06	5.076e-06	125.92	36.472	71.43	26.932	3.9674e-06	13.324	0.0012074	0.0014717	0.00041029	646.13	1.5805e-05	1.6384e-05	381.7	235.36	1.6307e-05	1.6827e-05	138.05	40.637	76.232	28.744	1.6555e-05	15.17	220.343	-28.719	-96.467	-106.306	140.796	38.360	-109.015	-102.614	-36.225	-32.444	-105.720	-102.330	-97.685	-92.422	-50.596	-97.556	-8191	255	
35308.688	1	1	0	0	0.35417	0.068922	0.13966	0.23874	0.11557	0.19587	0.28175	0.22472	0.13096	0.16326	0.12787	0.017965	0.22942	0.12485	0.13476	0.20832	-0.04375	-0.3375	-1.0854	-0.33542	-0.87917	-0.99375	-0.33333	-1.1521	-0.52292	-0.50417	-1.4042	-0.033333	-0.875	-1.1	-0.26042	-1.1208	-41.638	36.931	231.449	233.755	35.884	154.085	85.695	-99.570	-84.291	79.552	-101.988	147.048	189.243	187.757	176.553	2.827	9.0854e-05	0.0005468	6.8505e-05	618.48	2.1532e-06	4.2196e-06	355.45	223.49	2.2219e-06	5.8705e-06	125.81	36.362	71.402	26.731	4.5879e-06	13.275	0.0012659	0.001559	0.00043541	646.17	1.7172e-05	1.7556e-05	381.41	235.26	1.756e-05	1.7973e-05	138.82	40.688	76.346	28.68	1.7916e-05	15.244	-117.127	-80.039	-58.997	-106.585	111.881	152.254	-108.979	-102.390	43.799	42.335	-105.645	-101.870	-97.824	-92.066	15.941	-96.852	-8191	255	
35308.781	1	1	0	0	0.22522	0.077089	0.21808	0.13318	0.20815	0.17282	0.11446	0.22704	0.23309	0.097069	0.13293	0.12148	0.20218	0.18046	0.10815	0.31616	-0.39583	-0.52917	-0.97292	-0.4	-0.75625	-1.0167	-0.475	-1.2792	-0.7375	-0.47708	-1.3729	-0.46458	-0.625	-1.0312	-0.21875	-1.0271	55.412	-105.440	197.748	185.568	212.378	-11.982	224.198	134.713	140.455	-3.423	-87.881	70.975	-92.184	211.527	82.676	182.062	0.00012195	0.00038856	0.000117	619.45	3.9347e-06	5.8604e-06	356.3	223.52	1.8039e-06	3.1206e-06	125.35	36.13	71.167	26.742	4.1434e-06	13.255	0.0013449	0.0016732	0.0004683	646.75	1.7827e-05	1.8682e-05	382.41	235.32	1.8546e-05	1.9049e-05	138.83	40.736	76.141	28.634	1.8572e-05	15.14	-113.942	-65.937	-22.769	-106.353	0.925	38.620	-108.411	-102.060	71.899	131.439	-105.573	-101.832	-98.063	-92.344	6.193	-97.240	-8191	255	
35308.855	1	1	0	0	0.23421	0.13724	0.066665	0.14575	0.19507	0.15306	0.13363	0.12272	0.075842	0.056161	0.2735	0.035817	0.14525	0.23737	0.15248	0.19125	-0.52708	-0.36875	-1.1396	-0.54792	-0.725	-1.0521	-0.45833	-1.0208	-0.93125	-0.3	-1.3604	-0.43125	-0.55625	-1.1187	-0.32917	-1.0542	93.652	19.703	70.260	87.635	0.292	132.028	-119.910	181.678	-58.248	34.214	-11.649	-92.626	-116.038	174.605	234.975	-111.985	8.8771e-05	0.00030248	0.00011108	613.52	1.1369e-06	4.8064e-06	353.83	221.69	1.3457e-06	3.4448e-06	124.17	35.676	70.196	26.463	8.2165e-07	13.029	0.0014	0.0017276	0.00048668	643.71	1.8776e-05	1.9719e-05	379.99	234.19	1.9123e-05	1.9942e-05	138.05	40.433	75.719	28.463	1.9745e-05	15.047	231.799	-79.919	-24.504	-106.182	232.887	4.222	-108.551	-102.102	35.869	73.554	-105.809	-101.934	-98.024	-91.971	171.874	-97.223	-8191	255	
35308.949	1	1	0	0	0.13783	0.3542	0.12012	0.20029	0.18829	0.060556	0.16712	0.23683	0.22791	0.29775	0.027808	0.11408	0.20861	0.36785	0.06686	0.15259	-0.46667	-0.11667	-1.1542	-0.81667	-0.675	-0.93125	-0.36667	-1.1542	-0.83333	-0.35833	-1.3125	-0.39792	-0.3875	-1.2125	-0.43958	-0.87708	53.947	140.739	34.403	165.000	156.941	95.839	193.880	136.559	99.199	-76.334	-87.211	22.371	216.438	226.960	1.455	-37.764	6.3838e-05	0.00076703	9.4517e-05	613.49	4.2528e-06	4.892e-06	352.42	220.44	1.3713e-06	1.7858e-06	124.78	35.435	70.451	26.368	1.017e-06	13.051	0.0014509	0.0018193	0.00051182	645.07	1.9978e-05	2.051e-05	380.6	233.5	1.96e-05	2.053e-05	138.59	40.318	75.801	28.386	2.0342e-05	15.087	230.079	-64.229	4.680	-106.674	48.441	77.010	-108.587	-102.156	110.304	78.878	-105.793	-101.799	-97.607	-92.050	46.950	-97.253	-8191	255	
35309.070	1	1	0	0	0.25166	0.31528	0.15322	0.089176	0.16591	0.19739	0.11322	0.23296	0.18964	0.32876	0.061997	0.096477	0.39458	0.12487	0.076713	0.20741	-0.58958	0.064583	-1.0958	-0.7125	-0.33542	-1.3	-0.26875	-0.87708	-1.0354	-0.44375	-1.1771	-0.70833	-0.4375	-1.1292	-0.36875	-0.73542	101.107	-20.740	-58.754	149.684	-103.046	-64.148	-29.784	134.079	108.656	120.101	91.056	206.824	121.895	179.897	-23.678	-96.147	8.5523e-05	0.00040336	0.00011054	611.44	9.9624e-08	7.6536e-06	353.24	222.15	2.8147e-06	5.2009e-06	124.79	35.813	70.66	26.306	2.1132e-06	13.126	0.0014801	0.0018598	0.00052616	644.56	1.999e-05	2.0889e-05	380.67	234.11	2.0422e-05	2.1137e-05	139.34	40.706	75.953	28.391	2.1457e-05	15.13	233.097	-39.147	26.264	-106.254	212.957	28.569	-108.694	-102.501	7.613	-23.400	-105.721	-102.555	-97.939	-92.106	205.160	-97.162	-8191	255	
35309.164	1	1	0	0	0.32959	0.13745	0.093411	0.076592	0.29416	0.15515	0.20649	0.075775	0.062494	0.29056	0.12493	0.1294	0.063827	0.092478	0.036397	0.3272	-0.80833	-0.33542	-1.0042	-0.97917	-0.35417	-1.25	-0.40625	-0.6875	-1.35	-0.28333	-1.0583	-0.9375	-0.28542	-1.3687	-0.4125	-0.54792	233.438	217.418	-9.123	-72.034	-120.174	127.720	39.142	195.504	-78.894	-75.870	-74.189	184.098	-111.924	131.626	191.059	166.115	7.4111e-05	0.00029015	0.00015018	613.27	9.6906e-07	1.7427e-06	352.58	221.25	2.8653e-06	2.4075e-06	125.65	36.264	70.762	26.312	8.3581e-06	13.098	0.0015592	0.0019498	0.00054373	646.35	2.0878e-05	2.1347e-05	382.82	234.35	2.0606e-05	2.1423e-05	139.71	40.891	76.097	28.355	2.0367e-05	15.07	214.925	35.458	160.196	-106.370	-31.826	46.627	-108.277	-102.258	-101.790	73.090	-105.854	-101.815	-97.849	-92.251	20.510	-97.309	-8191	255	
35309.262	1	1	0	0	0.22335	0.19439	0.15718	0.18823	0.15659	0.32369	0.32921	0.10698	0.18691	0.257	0.2638	0.16088	0.38952	0.2763	0.21063	0.24541	-0.74375	-0.37708	-0.85417	-0.9625	-0.32708	-1.15	-0.69375	-0.61042	-1.1167	-0.59583	-0.83958	-0.89792	-0.32292	-1.2771	-0.65625	-0.53333	-100.779	61.533	-87.636	229.086	-75.755	120.966	215.955	-119.001	13.281	-106.076	138.888	29.439	143.729	-63.652	-13.727	216.202	2.8562e-05	0.00064091	9.2252e-05	617.09	4.1523e-06	3.3768e-06	353.69	222.49	1.8515e-06	2.0716e-06	125.01	35.6	70.434	26.245	5.0111e-07	12.961	0.0014682	0.0018536	0.00051334	646.45	1.9717e-05	2.0205e-05	381.53	234.62	1.9136e-05	1.9986e-05	138.43	40.359	75.884	28.3	1.8756e-05	14.853	222.899	-101.881	-92.603	-106.488	163.996	223.992	-108.766	-102.207	230.325	219.171	-105.779	-102.410	-97.877	-91.785	69.948	-96.769	-8191	255	
35309.355	1	1	0	0	0.054637	0.089442	0.34639	0.025437	0.22928	0.35829	0.043422	0.078228	0.26907	0.060635	0.21212	0.35789	0.18688	0.17023	0.31679	0.14355	-1.0458	-0.41667	-0.95833	-1.1875	-0.36042	-1.1104	-0.875	-0.47708	-1.2833	-0.46875	-0.62917	-1.0271	-0.32917	-1.2042	-0.64792	-0.39583	167.306	181.118	-80.353	-93.521	183.345	162.796	78.592	-86.325	164.408	157.269	220.743	32.111	16.265	12.695	175.962	-105.389	1.5719e-05	0.00075104	6.6311e-05	616.85	3.6278e-06	2.0652e-06	356.33	222.86	2.7061e-06	1.5872e-06	125.75	35.764	70.88	26.241	1.3783e-06	13.043	0.0013615	0.0016862	0.00046969	644.04	1.758e-05	1.8205e-05	380.09	234.16	1.7217e-05	1.7898e-05	137.94	40.169	75.886	28.214	1.7415e-05	14.75	206.686	-48.072	52.751	-106.400	91.743	73.927	-108.305	-102.390	-18.568	0.525	-105.673	-102.039	-97.881	-92.246	23.344	-97.283	-8191	255	
35309.453	1	1	0	0	0.072973	0.07443	0.094487	0.1792	0.22327	0.18256	0.20245	0.038492	0.07855	0.41405	0.20687	0.1146	0.3225	0.19726	0.038978	0.17968	-1.0354	-0.57083	-0.81667	-1.1812	-0.43958	-1.0771	-0.95625	-0.40208	-1.225	-0.49375	-0.45625	-1.4708	-0.31042	-1.1583	-1.15	-0.31042	132.705	65.572	-23.074	-95.031	-68.535	36.815	-64.942	149.300	24.525	156.525	226.631	133.135	179.201	233.356	28.542	155.462	8.758e-05	0.00035667	6.2505e-05	620.19	3.3693e-06	1.0472e-06	355.07	222.97	5.5962e-06	2.312e-06	126.75	36.015	71.16	26.316	4.7678e-06	12.96	0.001277	0.0016126	0.00045022	646.13	1.7018e-05	1.7597e-05	380.5	234.6	1.7194e-05	1.7665e-05	138.32	40.309	76.106	28.218	1.7114e-05	14.733	210.656	-61.987	137.768	-106.234	18.694	145.760	-108.001	-102.311	-95.937	80.483	-105.492	-101.699	-98.119	-92.283	45.323	-96.877	-8191	255	
35309.551	1	1	0	0	0.21459	0.17083	0.04298	0.16852	0.2963	0.24582	0.33792	0.4896	0.040045	0.067761	0.17056	0.11792	0.23719	0.050889	0.23082	0.31327	-0.92292	-0.72708	-0.45833	-1.3417	-0.25	-0.84375	-1.05	-0.15417	-1.3438	-0.56875	-0.625	-1.225	-0.44792	-0.79583	-1.0417	-0.25417	110.026	162.245	157.906	230.615	-82.817	-31.667	231.731	196.361	-90.613	35.707	115.095	170.687	-108.179	23.280	23.487	237.019	5.0673e-05	0.00034749	0.00016358	621.62	2.8041e-06	3.2319e-06	360.12	224.32	1.287e-06	3.5658e-06	127.34	36.423	71.518	26.313	3.9502e-06	13.007	0.0012818	0.0015708	0.00044435	646.68	1.692e-05	1.7626e-05	381.92	235.48	1.7053e-05	1.7527e-05	139.2	40.666	76.436	28.199	1.7511e-05	14.79	120.405	20.637	-22.771	-106.310	-26.007	169.420	-108.804	-102.235	206.211	41.534	-105.754	-101.992	-98.166	-92.111	85.602	-96.850	-8191	255	
35309.672	1	1	0	0	0.23167	0.098158	0.51869	0.11054	0.14948	0.073119	0.2999	0.19678	0.12041	0.3057	0.038957	0.32804	0.16581	0.1787	0.067721	0.27479	-0.8	-0.86667	-0.51667	-1.3563	-0.4	-0.87083	-1.0958	-0.43542	-1.2333	-0.74375	-0.34583	-1.225	-0.375	-0.6875	-1.3542	-0.29792	-60.680	151.741	-6.453	155.353	230.103	-36.439	146.034	209.572	188.414	215.842	-9.430	33.563	82.824	-72.558	22.910	177.998	8.7297e-05	0.00017391	0.00010628	620.35	4.968e-06	3.505e-06	358.84	224.94	4.795e-06	4.203e-06	126.56	36.528	71.398	26.318	2.9622e-06	12.911	0.0012954	0.0015988	0.00045015	648.57	1.7038e-05	1.7752e-05	384.5	236.85	1.7236e-05	1.7965e-05	139.68	40.856	76.555	28.17	1.7671e-05	14.847	222.076	93.532	-35.049	-106.330	30.823	-65.513	-108.840	-102.441	16.413	49.962	-106.115	-101.650	-98.090	-92.306	-30.159	-97.203	-8191	255	
35309.766	1	1	0	0	0.24344	0.15751	0.10265	0.32137	0.12494	0.22412	0.30508	0.068501	0.090393	0.082445	0.24028	0.1381	0.20228	0.34959	0.26082	0.24247	-0.57292	-0.90625	-0.39583	-1.3438	-0.55833	-0.63125	-1.1354	-0.38958	-0.87708	-0.98958	-0.29792	-1.0479	-0.575	-0.575	-1.3458	-0.29792	-45.666	157.010	174.222	-17.881	58.985	-52.785	50.917	-53.209	4.150	-23.562	-23.174	206.236	-65.298	-101.554	-111.565	62.448	1.9216e-05	0.00035263	0.00021091	624.41	5.0938e-06	3.0627e-06	357.23	225.26	5.0419e-06	3.6755e-06	127.85	36.474	71.034	26.131	3.8882e-06	12.754	0.0013271	0.0016374	0.00046578	651.15	1.7986e-05	1.8624e-05	385.29	236.92	1.8313e-05	1.9028e-05	140.11	40.795	76.321	28.075	1.8756e-05	14.719	231.353	-8.736	-50.123	-106.143	95.178	1.625	-108.544	-102.386	-80.380	-28.871	-105.757	-101.528	-98.311	-92.217	101.362	-96.724	-8191	255	
35309.863	1	1	0	0	0.12375	0.30859	0.11303	0.30958	0.26364	0.18136	0.18028	0.30591	0.10372	0.2861	0.072515	0.44136	0.080323	0.07793	0.096088	0.15783	-0.61875	-1.1562	-0.2375	-1.1333	-0.86042	-0.49583	-1.2208	-0.52917	-0.89167	-1.0375	-0.37917	-1.1333	-0.69583	-0.48125	-1.1521	-0.43333	-116.314	74.098	105.533	222.086	37.359	136.916	27.011	205.725	212.062	51.917	61.068	198.633	-101.669	-119.179	-90.260	37.132	0.00011175	0.00018416	4.4317e-05	620.75	7.1667e-07	3.7261e-06	356.76	224.46	4.9247e-06	4.4448e-06	127.52	36.06	71.235	26.039	5.5774e-07	12.724	0.00139	0.0017168	0.00047916	649.05	1.8563e-05	1.9158e-05	383.91	235.81	1.8767e-05	1.9419e-05	140	40.754	76.267	27.968	1.8707e-05	14.696	207.925	-42.313	4.130	-106.115	118.766	82.565	-108.139	-102.381	183.749	-7.422	-106.015	-101.539	-98.179	-92.364	-119.774	-97.207	-8191	255	
35309.961	1	1	0	0	0.12417	0.22018	0.15838	0.26008	0.055542	0.088538	0.20584	0.30361	0.066473	0.29189	0.2659	0.18584	0.16319	0.10043	0.097268	0.29605	-0.37917	-1.0917	-0.20625	-1.2875	-0.71667	-0.47083	-1.3479	-0.65625	-0.83125	-1.1562	-0.44792	-1.0521	-0.925	-0.18125	-1.3042	-0.48958	-76.142	219.818	49.258	-36.828	7.168	215.928	214.507	-108.659	161.000	-108.954	110.259	152.343	118.152	111.029	163.035	206.173	6.182e-05	0.00041611	0.00018512	620.81	3.0182e-06	3.4546e-06	358.97	223.61	1.3984e-06	4.7557e-06	127.82	36.301	71.115	26.162	4.4303e-06	12.919	0.001394	0.001705	0.00047661	648.08	1.7989e-05	1.8265e-05	383.26	235.56	1.7605e-05	1.8096e-05	139.32	40.646	76.167	28.061	1.7471e-05	14.781	232.554	-67.639	-9.244	-106.271	-57.497	4.411	-108.054	-102.386	-85.808	15.185	-105.606	-102.002	-97.982	-91.933	119.909	-96.430	-8191	255	
35310.078	1	1	0	0	0.15208	0.15728	0.069862	0.20469	0.13237	0.20269	0.27357	0.14798	0.27838	0.17327	0.31555	0.084089	0.043047	0.16862	0.14728	0.08693	-0.24167	-1.1854	-0.28333	-0.93542	-0.88542	-0.26875	-1.3854	-0.51875	-0.70833	-1.1313	-0.4625	-1.0688	-0.94583	-0.32708	-1.1458	-0.58125	36.376	113.200	106.823	-93.110	151.230	60.970	201.657	162.965	-61.526	-83.523	40.842	158.645	163.006	164.797	-60.530	-11.655	6.6837e-05	0.00021811	0.00030996	622.4	3.5374e-06	3.0758e-06	360.1	222.74	2.9258e-06	4.5042e-06	126.94	36.449	71.486	26.543	2.4203e-06	13.192	0.0013014	0.0016047	0.00044595	648	1.6903e-05	1.7432e-05	382.65	234.89	1.69e-05	1.7134e-05	138.94	40.646	76.271	28.246	1.66e-05	14.857	-111.388	-114.768	-75.226	-106.189	161.999	8.260	-108.443	-102.328	59.517	-16.461	-105.911	-101.520	-97.975	-92.140	79.042	-97.052	-8191	255	
35310.148	1	1	0	0	0.20512	0.032879	0.18427	0.27515	0.1437	0.26744	0.087457	0.23328	0.23121	0.23376	0.17736	0.10746	0.18859	0.099052	0.11021	0.18888	-0.0625	-1.2292	-0.3625	-0.99167	-1.0625	-0.15625	-1.1896	-0.58958	-0.40833	-1.2396	-0.43125	-0.86875	-1.1083	-0.44375	-1.1833	-0.75417	-67.085	136.015	-28.786	219.437	189.785	-67.044	1.436	86.716	143.312	-24.816	192.461	228.996	208.183	-117.278	-103.656	2.625	3.8474e-05	0.00038328	0.00020414	618.52	2.4657e-06	1.6111e-06	358.42	223.64	2.2034e-06	4.0206e-06	127.6	36.59	71.722	26.709	6.6876e-07	13.206	0.0012182	0.0015205	0.00042525	646.04	1.5967e-05	1.6606e-05	383.32	235.24	1.6069e-05	1.6599e-05	139.12	40.692	76.335	28.458	1.6078e-05	14.921	199.557	-16.158	11.462	-106.087	-97.944	211.192	-108.577	-102.192	-77.235	45.070	-105.686	-101.384	-97.797	-91.897	-4.197	-96.972	-8191	255	
35310.246	1	1	0	0	0.09165	0.30683	0.11791	0.078936	0.35344	0.39339	0.23111	0.26841	0.027539	0.12091	0.20613	0.20106	0.047669	0.17974	0.11494	0.19605	-0.10417	-0.99375	-0.17083	-0.70208	-1.0479	-0.2375	-1.15	-0.83333	-0.25208	-1.0292	-0.53958	-0.6875	-1.2812	-0.28125	-0.85208	-1	-85.065	155.437	-96.314	-93.399	-119.297	219.331	141.862	133.571	8.771	197.785	210.941	227.906	63.798	-22.659	99.067	81.952	7.3031e-05	7.1028e-05	5.7127e-05	620.3	4.9803e-07	5.7127e-06	356.1	224.09	1.2318e-06	6.6948e-06	126.23	36.389	70.901	26.549	1.0315e-06	13.088	0.0012048	0.001503	0.0004166	645.3	1.5972e-05	1.6624e-05	380.63	234.59	1.6058e-05	1.6604e-05	137.85	40.394	76.008	28.371	1.6069e-05	14.797	212.422	59.444	2.917	-106.288	110.451	64.696	-108.211	-102.305	-11.806	153.662	-105.361	-101.621	-97.778	-92.034	7.156	-97.122	-8191	255	
35310.344	1	1	0	0	0.12246	0.080081	0.24386	0.25805	0.1142	0.17976	0.23641	0.24867	0.16689	0.03605	0.19408	0.13991	0.089357	0.22903	0.1001	0.23994	0.10625	-1.0604	-0.50417	-0.6875	-1.1792	-0.35417	-0.9	-0.97292	-0.34167	-1.0583	-0.49583	-0.54583	-1.1688	-0.46875	-0.96042	-1.1875	25.399	89.466	45.214	-91.555	-37.300	159.805	94.310	-92.893	78.913	80.048	-72.918	127.646	100.360	-45.436	-67.503	-74.836	8.8455e-05	0.00033658	4.9637e-05	616.51	3.8162e-06	3.4256e-06	357.26	223.28	2.3287e-06	3.0471e-06	126.22	36.307	71.182	26.435	2.6647e-06	13.15	0.0012225	0.0014972	0.00042195	644.1	1.6101e-05	1.6955e-05	380.7	234.48	1.6427e-05	1.7031e-05	138.17	40.44	76.167	28.329	1.7536e-05	14.874	224.730	161.929	2.807	-105.796	-78.969	206.823	-108.387	-102.154	27.878	18.470	-105.967	-101.740	-97.559	-92.193	-61.412	-97.256	-8191	255	
35310.461	1	1	0	0	0.1681	0.083626	0.090993	0.32079	0.17408	0.11561	0.1129	0.23385	0.119	0.14709	0.13217	0.10416	0.031506	0.26217	0.11318	0.16786	0.072917	-1.1208	-0.61458	-0.58125	-1.2375	-0.51667	-0.76667	-1.2042	-0.2125	-1.1167	-0.58125	-0.59167	-1.2396	-0.1625	-0.71042	-1.1167	205.666	61.403	59.132	-120.362	-82.082	-36.207	174.804	84.825	67.940	-8.774	102.056	171.405	-2.061	-104.795	-59.430	225.070	3.1065e-05	4.9617e-05	4.8688e-05	619.91	1.342e-06	3.4419e-06	356.4	223.61	2.5384e-06	8.9279e-07	125.42	36.361	71.097	26.37	4.9532e-06	13.132	0.0013067	0.0016273	0.00046117	646.49	1.7766e-05	1.8267e-05	382.12	234.91	1.7457e-05	1.8278e-05	138.28	40.485	76.075	28.261	1.7668e-05	14.874	-117.525	-77.017	-71.131	-106.246	154.923	52.410	-108.369	-102.451	8.411	93.145	-105.843	-101.863	-97.904	-92.067	81.723	-96.634	-8191	255	
35310.559	1	1	0	0	0.22103	0.17243	0.16547	0.12161	0.33046	0.24168	0.089661	0.20451	0.092661	0.08549	0.10753	0.22777	0.21874	0.11036	0.21069	0.36331	0.15625	-1.0542	-0.62917	-0.42083	-1.2167	-0.38333	-0.65625	-1.1396	-0.11458	-0.91458	-0.93542	-0.23125	-1.2729	-0.36458	-0.51667	-1.2729	84.634	45.408	28.469	232.512	222.353	-28.642	180.343	-87.397	-10.347	-10.232	-102.798	99.909	137.109	231.374	25.519	122.199	2.3221e-05	0.00020786	7.003e-05	617.24	8.7481e-07	1.8448e-06	357.08	224.28	2.9512e-07	1.9491e-06	126.72	36.071	71.397	26.527	4.7492e-06	13.121	0.0013146	0.001624	0.00044731	644.9	1.7009e-05	1.7705e-05	382.17	234.97	1.6809e-05	1.7709e-05	138.62	40.595	76.218	28.435	1.7103e-05	14.934	-63.605	163.784	37.729	-106.120	188.075	196.624	-108.557	-102.417	-119.700	120.211	-105.753	-101.655	-97.759	-92.069	9.607	-96.926	-8191	255	
35310.652	1	1	0	0	0.10159	0.12083	0.080884	0.071489	0.24714	0.1769	0.18636	0.13103	0.039378	0.052976	0.065335	0.19207	0.23219	0.16942	0.16988	0.017677	0.1	-0.875	-0.86667	-0.55417	-1.0854	-0.52917	-0.4625	-1.2708	-0.25833	-0.85417	-0.95625	-0.30208	-1.0021	-0.64375	-0.49792	-1.0271	-86.995	-22.474	-46.599	37.791	3.361	2.395	185.102	-5.072	206.279	-15.038	125.236	-91.199	-47.629	145.852	-49.599	-97.257	4.3295e-05	0.00078883	0.00020235	620.07	2.4859e-06	6.7174e-06	357.23	223.28	2.6651e-06	1.6052e-06	127.54	36.133	71.471	26.506	1.8794e-06	13.039	0.0012597	0.0015637	0.00043242	645.11	1.6347e-05	1.7096e-05	381.17	235.05	1.6345e-05	1.6788e-05	138.41	40.348	76.115	28.362	1.6539e-05	14.803	-91.270	-29.995	-60.530	-106.102	203.211	-21.147	-108.306	-102.343	-5.841	-3.038	-106.064	-101.829	-98.045	-91.970	121.087	-96.685	-8191	255	
35310.750	1	1	0	0	0.11729	0.25111	0.32343	0.085761	0.27942	0.34154	0.15868	0.26416	0.28976	0.37832	0.13177	0.022931	0.15451	0.085634	0.11073	0.080133	0.072917	-0.69583	-1.0729	-0.54583	-1.1688	-0.55417	-0.55417	-1.4188	-0.6	-0.75625	-1.0417	-0.089583	-0.98125	-0.76042	-0.35833	-1.3583	215.784	-22.493	59.042	153.336	-108.817	62.058	163.037	-112.309	203.971	-81.142	107.683	79.417	99.974	-45.959	91.503	153.803	0.00010886	0.00076207	5.317e-05	617.73	1.0299e-06	8.0401e-06	355.06	223.25	3.5737e-06	4.4571e-06	125.47	36.09	70.922	26.569	3.6941e-06	13.05	0.001236	0.0015214	0.00042746	642.87	1.6295e-05	1.6954e-05	379.1	234.09	1.6176e-05	1.6855e-05	136.82	40.049	75.802	28.306	1.6151e-05	14.715	230.475	1.718	-56.823	-106.199	37.034	17.620	-108.211	-101.911	-3.554	70.919	-105.508	-101.757	-97.833	-92.152	55.430	-96.870	-8191	255	
35310.848	1	1	0	0	0.2345	0.27137	0.29383	0.15388	0.23835	0.062394	0.020321	0.21044	0.22427	0.38353	0.29341	0.14675	0.035878	0.14978	0.13607	0.03687	-0.10417	-0.525	-1.1125	-0.28958	-1.0625	-0.7125	-0.40833	-1.2792	-0.48958	-0.48125	-1.275	-0.24375	-1.2375	-0.97083	-0.33958	-1.2729	82.602	93.412	52.189	177.036	118.255	56.853	170.196	122.630	-76.173	-14.836	184.041	-35.507	163.025	85.979	225.872	4.823	5.1961e-05	0.00039475	8.5736e-05	618.06	2.6535e-06	2.5058e-06	353.73	222.85	2.5218e-06	2.6227e-06	124.62	36.09	70.99	26.687	2.8336e-06	13.218	0.001208	0.0014861	0.00041311	642.05	1.5769e-05	1.6451e-05	376.79	233.72	1.5502e-05	1.6245e-05	136.38	39.978	75.807	28.487	1.5582e-05	14.806	184.923	-91.063	-4.552	-106.167	-5.751	177.876	-108.388	-102.056	-101.172	-82.606	-105.467	-101.214	-97.732	-91.863	0.314	-96.850	-8191	255	
35310.941	1	1	0	0	0.098321	0.17879	0.154	0.08538	0.21231	0.34606	0.099068	0.12063	0.31303	0.13221	0.08722	0.060104	0.078556	0.076612	0.13664	0.159	-0.08125	-0.46042	-1.1458	-0.40833	-0.83542	-1.0375	-0.2375	-1.225	-0.40208	-0.54583	-1.1	-0.40625	-0.96875	-0.86875	-0.18333	-1.1333	110.833	-118.374	230.004	210.491	29.345	10.688	229.215	160.725	159.789	4.032	232.099	44.329	-19.006	114.431	-6.447	183.755	7.9579e-05	0.0002403	0.00019373	616.49	2.6841e-06	2.2298e-06	355.14	222.91	4.0636e-07	4.2388e-06	126.89	36.262	71.46	26.965	2.0246e-06	13.448	0.0011472	0.0014294	0.00039032	640.25	1.5159e-05	1.5629e-05	377.82	233.66	1.4936e-05	1.553e-05	137.26	40.137	76.017	28.685	1.524e-05	15.01	237.384	26.395	-71.419	-106.015	66.721	25.881	-108.286	-101.809	-98.887	-72.344	-104.998	-102.149	-97.679	-92.100	-44.978	-97.341	-8191	255	
35311.039	1	1	0	0	0.048275	0.23396	0.027718	0.065819	0.11839	0.16083	0.041233	0.15701	0.20976	0.27121	0.27258	0.22783	0.21071	0.085448	0.29056	0.19172	-0.44583	-0.41042	-1.3375	-0.49792	-0.67917	-1.0771	-0.5125	-1.0021	-0.75625	-0.5625	-0.99583	-0.56458	-0.70833	-1.1958	-0.25208	-1.1521	-112.062	210.070	217.709	214.212	-22.769	-50.840	106.892	-118.087	53.148	62.981	135.862	16.504	88.967	130.815	142.914	83.890	9.0399e-05	0.00032271	0.0002236	619.26	1.4288e-06	4.4251e-06	353.09	224.22	1.8582e-07	2.3411e-06	126.96	36.034	71.712	26.793	5.9059e-06	13.43	0.0011488	0.0014014	0.0003917	642.75	1.5067e-05	1.5491e-05	378.63	234.69	1.5109e-05	1.5676e-05	137.41	40.216	76.318	28.675	1.5473e-05	15.046	237.382	-102.318	-4.358	-106.076	-99.293	13.303	-108.384	-101.986	231.168	-19.452	-105.223	-101.791	-97.515	-91.910	3.764	-96.921	-8191	255	
35311.156	1	1	0	0	0.097554	0.17103	0.17578	0.071094	0.28214	0.041777	0.099214	0.2608	0.046906	0.14245	0.12477	0.179	0.36724	0.389	0.2031	0.06204	-0.44167	-0.30208	-1.2458	-0.50417	-0.61875	-1.1271	-0.38958	-1.1458	-0.80625	-0.35	-1.2812	-0.38125	-0.54375	-1.2	-0.38333	-0.78958	136.427	-36.622	57.632	117.602	-73.506	176.414	161.175	225.160	-8.892	-51.191	205.820	48.576	-118.887	-111.078	-86.898	47.742	5.1956e-05	0.000598	0.0001597	618.37	9.2638e-07	3.9003e-06	354.94	225.27	4.5575e-06	2.5009e-06	125.75	36.104	71.357	26.96	4.2647e-07	13.241	0.0011626	0.0014282	0.00039675	644.49	1.5087e-05	1.5618e-05	379.25	235.1	1.5409e-05	1.5855e-05	137.27	40.186	75.992	28.64	1.5349e-05	14.917	228.015	-34.136	-75.197	-105.821	175.774	-67.669	-108.251	-102.154	23.579	82.807	-105.611	-101.832	-97.498	-91.973	149.298	-96.651	-8191	255	
35311.254	1	1	0	0	0.24766	0.06424	0.25242	0.091049	0.3378	0.021892	0.35488	0.29088	0.065315	0.028374	0.095538	0.19134	0.074322	0.088079	0.20109	0.32858	-0.5375	-0.34583	-1.125	-0.57708	-0.55833	-1.2854	-0.44375	-0.99583	-0.88542	-0.42292	-1.3167	-0.75417	-0.60208	-1.2917	-0.65833	-0.73958	-15.000	38.528	25.146	234.537	-42.774	128.849	-118.425	175.082	-23.793	15.699	-103.923	21.392	233.248	205.465	124.990	-85.995	7.5939e-05	0.00045331	4.5794e-05	617.28	1.2526e-06	6.7115e-06	354.37	224.04	3.1762e-06	1.3365e-06	125.45	36.153	71.208	26.791	3.3165e-06	13.121	0.0011527	0.0014358	0.00039374	642.8	1.5454e-05	1.5773e-05	378.21	234.34	1.5304e-05	1.6001e-05	136.85	40.093	76.024	28.551	1.5779e-05	14.819	228.496	-23.126	-47.000	-106.256	9.470	35.508	-108.372	-102.161	-44.061	83.003	-105.438	-101.741	-97.571	-92.260	139.283	-96.682	-8191	255	
35311.352	1	1	0	0	0.16895	0.1049	0.1689	0.28801	0.23801	0.032163	0.13804	0.18858	0.15605	0.14313	0.041134	0.1377	0.1023	0.20576	0.035422	0.27662	-0.68958	-0.27708	-0.97708	-0.90417	-0.29375	-1.125	-0.425	-0.83542	-1.2375	-0.25833	-0.98125	-0.81875	-0.43333	-1.2292	-0.50417	-0.61667	-95.779	-94.203	6.012	232.538	58.317	166.308	190.458	-67.853	146.094	199.797	149.154	58.817	31.427	-52.028	-14.163	190.273	0.00010476	0.00025876	5.1308e-05	619.5	1.0529e-06	2.8973e-06	356.69	223.5	2.136e-06	2.1398e-06	126.54	36.394	71.529	26.734	1.5531e-06	13.254	0.0011663	0.0014433	0.00040581	643.97	1.5526e-05	1.5838e-05	379.1	234.61	1.5164e-05	1.5929e-05	137.54	40.144	76.051	28.53	1.5468e-05	14.871	-113.580	-11.730	236.054	-105.966	239.769	15.613	-108.220	-101.999	133.058	-113.198	-105.274	-101.145	-97.474	-91.770	-20.798	-96.676	-8191	255	
35311.445	1	1	0	0	0.054212	0.21672	0.13236	0.25712	0.28873	0.11216	0.27172	0.12347	0.33169	0.048996	0.2097	0.13338	0.2675	0.31587	0.10712	0.077308	-0.64375	-0.275	-1.0271	-0.94583	-0.31042	-1.1521	-0.4625	-0.63542	-1.1562	-0.16667	-0.96667	-0.84583	-0.475	-1.0646	-0.44375	-0.57083	-98.109	-41.214	17.164	197.131	70.070	133.024	47.871	187.841	117.013	-12.925	90.802	10.195	-71.285	152.536	190.470	158.418	1.3744e-05	0.00065036	1.2821e-05	619.15	1.1938e-06	2.5239e-06	360.09	224.9	4.7495e-06	2.0538e-06	126.94	36.361	71.459	26.86	2.805e-06	13.259	0.0011512	0.0014095	0.00038732	644.82	1.496e-05	1.5617e-05	380.36	235.15	1.5022e-05	1.5609e-05	137.74	40.274	76.104	28.666	1.5312e-05	14.954	212.179	-71.799	-50.045	-106.129	180.623	29.415	-108.182	-101.756	1.798	-22.133	-105.174	-101.463	-97.572	-91.825	27.248	-96.132	-8191	255	
35311.543	1	1	0	0	0.15702	0.1259	0.037002	0.32035	0.065094	0.2052	0.22885	0.20487	0.012541	0.15157	0.062879	0.31692	0.21905	0.20981	0.18392	0.43767	-0.94792	-0.39375	-0.83542	-0.99792	-0.53542	-1.2708	-0.77083	-0.47708	-1.1417	-0.34375	-0.83958	-1.1208	-0.17292	-1.2	-0.92708	-0.30625	-37.734	93.863	-85.526	211.924	106.969	-49.398	119.438	228.347	112.151	10.431	16.049	-1.601	-44.447	-111.580	1.578	-57.971	9.6946e-05	0.0004249	8.8853e-05	619.65	6.4254e-07	5.9998e-06	359.17	225.83	3.8885e-06	2.0552e-06	128.04	36.515	71.829	27.004	2.9231e-06	13.594	0.001112	0.0013853	0.00038799	645.95	1.4609e-05	1.5331e-05	381.81	235.86	1.4661e-05	1.5549e-05	138.73	40.581	76.505	28.685	1.5151e-05	15.07	208.843	-108.304	-65.425	-105.942	49.914	62.219	-108.046	-101.935	75.857	22.417	-105.455	-101.588	-97.584	-91.823	13.378	-96.809	-8191	255	
35311.641	1	1	0	0	0.036983	0.19842	0.19587	0.15879	0.39254	0.23095	0.3298	0.1773	0.031566	0.12013	0.097212	0.053267	0.26709	0.16975	0.19768	0.21837	-0.96875	-0.25	-0.77708	-1.1208	-0.3875	-1.2062	-0.79792	-0.40625	-1.2687	-0.31458	-0.59792	-1.1688	-0.4875	-1.1604	-0.85	-0.43333	131.999	-32.314	69.140	117.545	-52.826	191.084	229.730	227.540	30.376	120.510	156.001	6.016	17.924	102.192	33.807	162.690	6.5419e-05	0.0006934	0.00015616	619.98	4.3528e-06	5.8681e-08	358.55	225.14	8.2517e-07	1.916e-06	127.37	36.443	71.498	27.006	1.2702e-06	13.352	0.0011369	0.0014237	0.00038719	646.16	1.5143e-05	1.5631e-05	382.23	236.02	1.4988e-05	1.5688e-05	138.34	40.365	76.315	28.724	1.5446e-05	14.945	198.708	-54.521	26.412	-105.893	-28.118	233.645	-107.959	-101.681	-58.945	67.318	-105.281	-101.551	-97.545	-91.873	132.820	-96.735	-8191	255	
35311.758	1	1	0	0	0.19761	0.15672	0.17119	0.31782	0.057769	0.25141	0.071365	0.14256	0.12754	0.22431	0.077807	0.14521	0.18508	0.067442	0.24135	0.11221	-0.91458	-0.44792	-0.53958	-1.2771	-0.31458	-1.0792	-1.0292	-0.27083	-1.2125	-0.57292	-0.40417	-1.2729	-0.28125	-0.97083	-0.99792	-0.37708	8.914	-37.127	-117.283	193.325	11.573	179.663	185.057	-70.119	203.534	-74.180	38.708	0.515	234.179	-94.195	28.803	-78.890	2.0317e-05	0.0002683	7.1877e-05	618.56	1.5423e-06	7.2295e-06	359.57	225.51	9.941e-07	1.8226e-06	126.89	36.502	72.028	26.848	1.7289e-06	13.429	0.0011568	0.0014187	0.00039516	643.94	1.5213e-05	1.5755e-05	380.4	235.58	1.5078e-05	1.5937e-05	137.94	40.306	76.395	28.627	1.5312e-05	14.97	-119.870	-106.059	45.947	-105.739	-10.774	-53.787	-107.960	-101.995	217.667	125.984	-105.543	-101.469	-97.465	-91.840	-50.285	-96.599	-8191	255	
35311.855	1	1	0	0	0.15206	0.14396	0.26006	0.23108	0.24405	0.072503	0.052683	0.15662	0.082584	0.16716	0.08108	0.24592	0.12804	0.13964	0.1213	0.073586	-0.90417	-0.65	-0.35208	-1.2729	-0.32083	-0.81458	-1.0646	-0.34792	-1.0333	-0.75625	-0.50417	-1.3813	-0.52083	-0.67083	-1.1542	-0.22292	218.230	18.105	223.616	-85.213	226.634	217.653	98.817	-99.086	185.055	189.585	146.088	215.314	-116.627	84.877	101.792	-55.907	9.5756e-05	0.00069371	0.00010529	618.56	2.7042e-06	3.3197e-06	357.36	224.09	1.0053e-06	3.1871e-06	126.5	36.449	71.713	26.959	2.0916e-06	13.408	0.0011433	0.0014413	0.00039706	644.9	1.5312e-05	1.5857e-05	380.18	234.94	1.5201e-05	1.5914e-05	137.85	40.425	76.242	28.778	1.5407e-05	15.013	202.014	-11.182	-13.278	-105.892	34.084	-24.980	-108.074	-101.550	12.716	14.214	-104.978	-101.369	-97.325	-91.791	30.733	-96.609	-8191	255	
35311.949	1	1	0	0	0.18022	0.10668	0.21758	0.1997	0.055967	0.19624	0.25314	0.20363	0.28113	0.29963	0.12199	0.36071	0.043616	0.30428	0.25739	0.21749	-0.80417	-0.70833	-0.50625	-1.1583	-0.39375	-0.59583	-1.1792	-0.24583	-1.25	-0.875	-0.34792	-1.125	-0.57917	-0.70417	-0.975	-0.38542	82.139	137.598	131.216	-78.061	-117.914	42.147	181.220	188.505	189.355	211.410	49.836	133.031	138.810	131.603	-106.665	159.058	9.7523e-05	0.00066522	8.513e-05	617.92	2.5679e-06	6.0352e-06	357.66	224.74	8.1876e-07	5.0621e-06	127.29	36.578	71.833	26.908	5.5309e-06	13.491	0.0011474	0.0014311	0.00039799	645.66	1.5468e-05	1.6161e-05	381.17	235.35	1.5534e-05	1.6147e-05	138.36	40.527	76.494	28.8	1.5993e-05	15.111	227.559	-60.977	-60.031	-105.734	-23.917	-1.163	-108.351	-101.829	191.408	-88.361	-105.591	-101.325	-97.509	-91.651	67.770	-96.586	-8191	255	
35312.023	1	1	0	0	0.17457	0.17074	0.15441	0.14963	0.16636	0.24801	0.13187	0.16636	0.11091	0.29348	0.19794	0.31602	0.052948	0.048305	0.17712	0.19438	-0.66042	-0.87708	-0.35208	-1.2042	-0.53125	-0.53125	-1.1521	-0.46875	-0.89583	-1.0542	-0.36875	-1.3125	-0.525	-0.4375	-1.2458	-0.22917	-47.812	234.994	-67.215	201.316	20.712	-96.997	66.778	221.294	-24.692	220.747	-24.595	-43.306	218.784	88.214	112.355	197.603	4.2099e-05	0.00040159	8.4582e-05	623.63	1.6955e-06	4.5471e-06	358.85	225.85	2.5184e-06	6.609e-07	126.7	36.387	71.651	26.909	8.7699e-07	13.265	0.0012051	0.0014853	0.00041454	648.27	1.618e-05	1.706e-05	382.07	236.48	1.6607e-05	1.7412e-05	138.89	40.798	76.584	28.824	1.7047e-05	15.062	-89.497	3.466	30.935	-105.612	183.006	-56.302	-107.806	-101.865	-26.247	5.298	-105.248	-101.179	-97.607	-91.772	-42.187	-96.819	-8191	255	
35312.141	1	1	0	0	0.21822	0.10516	0.26789	0.1055	0.26944	0.13146	0.067152	0.23013	0.076739	0.24523	0.16763	0.26402	0.096023	0.067742	0.061243	0.31612	-0.41458	-1.0479	-0.35	-1.4083	-0.76875	-0.47292	-1	-0.56042	-0.90833	-1.1208	-0.39792	-1.15	-0.88333	-0.37917	-1.1729	-0.3125	130.116	177.348	-1.161	91.482	152.356	63.361	-30.328	192.504	154.007	151.397	175.748	-100.658	-34.522	23.404	-46.267	159.288	9.6538e-05	0.00033022	2.4916e-05	619.14	5.2541e-06	5.223e-06	356.76	224.96	3.1905e-06	1.3826e-06	126.15	36.306	71.546	26.49	6.0734e-06	13.203	0.0012762	0.0015741	0.00044275	645.39	1.6787e-05	1.7599e-05	379.11	235.53	1.6954e-05	1.7437e-05	137.68	40.452	76.451	28.475	1.7595e-05	14.939	226.801	-94.092	-59.356	-105.799	-37.093	49.335	-107.872	-101.872	6.998	218.554	-105.008	-101.355	-97.470	-91.455	30.099	-96.474	-8191	255	
35312.238	1	1	0	0	0.17347	0.098376	0.47105	0.22587	0.14923	0.19965	0.11596	0.18784	0.26721	0.15131	0.2174	0.11284	0.077333	0.083578	0.15266	0.10765	-0.25833	-1.0146	-0.41458	-1.2979	-0.825	-0.3625	-1.2729	-0.5375	-0.59583	-1.2458	-0.11875	-1.125	-1.1562	-0.3875	-1.275	-0.54792	51.889	163.107	229.259	-93.643	126.380	155.783	125.371	132.307	-108.415	127.596	-114.333	21.910	-106.233	157.515	-22.803	-89.144	5.6282e-05	0.0004496	0.00013691	619.5	4.7231e-06	4.3559e-06	353.9	223.33	1.0329e-06	1.1229e-06	125.56	35.94	71.063	26.534	6.9613e-06	12.96	0.001327	0.0016275	0.0004587	646.34	1.7509e-05	1.8307e-05	379.15	234.79	1.7727e-05	1.853e-05	138.04	40.38	76.104	28.439	1.8471e-05	14.913	-113.109	231.421	-41.869	-106.051	-1.567	9.034	-108.379	-102.244	-115.414	27.541	-105.169	-101.039	-97.621	-91.728	40.322	-96.348	-8191	255	
35312.336	1	1	0	0	0.14184	0.24536	0.077068	0.11698	0.15723	0.30873	0.23118	0.09675	0.19093	0.35298	0.036593	0.13872	0.23685	0.11194	0.14899	0.1548	-0.15625	-1.1021	-0.1625	-1.0833	-0.99792	-0.09375	-1.1667	-0.57083	-0.52083	-1.2104	-0.40625	-0.80625	-0.84375	-0.30625	-1.2292	-0.76875	-106.011	177.765	127.796	97.830	120.749	166.284	-112.237	138.644	-10.667	91.230	222.200	121.235	120.701	-67.584	163.366	-113.194	9.2046e-05	0.00028192	0.00018397	616.97	8.2766e-07	1.5769e-06	354.87	223.45	1.1865e-06	5.3275e-06	126.1	35.877	71.214	26.416	1.5469e-06	13.124	0.0013852	0.0016937	0.00047976	645.1	1.818e-05	1.8926e-05	379.7	234.97	1.8306e-05	1.9125e-05	138.35	40.553	76.162	28.386	1.8725e-05	14.952	-108.625	-84.379	-74.340	-105.977	64.418	83.098	-108.200	-101.933	-86.093	-17.754	-105.089	-101.516	-97.580	-91.773	-75.921	-96.588	-8191	255	
35312.430	1	1	0	0	0.099099	0.17521	0.030317	0.027369	0.05044	0.29875	0.096008	0.028564	0.33507	0.17605	0.088196	0.10419	0.084939	0.12452	0.09495	0.1325	-0.18125	-1.2375	-0.21875	-0.67708	-1.0042	-0.17083	-1.0688	-0.71458	-0.38333	-1.2875	-0.425	-0.90833	-1.1896	-0.30833	-0.98333	-0.81042	135.474	208.438	-92.731	-41.193	-82.016	-105.127	124.168	-112.153	43.914	207.023	235.000	-101.922	4.104	-31.192	46.509	-96.842	7.7708e-05	4.9907e-05	7.9815e-05	617.85	1.6572e-06	3.0202e-06	355.78	223.07	9.6751e-07	3.8689e-06	126.37	36.058	71.441	26.486	2.2078e-06	13.065	0.0013788	0.0017159	0.00048218	645.37	1.8497e-05	1.9067e-05	381.3	234.94	1.8403e-05	1.909e-05	138.67	40.578	76.353	28.442	1.9041e-05	15.062	205.577	16.103	202.067	-105.380	115.224	-109.706	-108.265	-101.837	-64.329	109.153	-105.435	-101.477	-97.701	-91.865	-4.623	-96.394	-8191	255	
35312.551	1	1	0	0	0.23051	0.13863	0.10304	0.22128	0.034236	0.11313	0.24828	0.30995	0.064842	0.13637	0.086855	0.028296	0.32971	0.16208	0.47488	0.089123	-0.025	-1.1208	-0.25833	-0.82292	-1.0917	-0.2	-0.90417	-0.81667	-0.28333	-1.2062	-0.575	-0.70417	-1.3271	-0.45625	-1.0708	-0.95	171.670	74.833	-57.714	-46.894	43.822	194.070	42.228	108.813	233.014	45.928	-86.215	59.475	-68.976	-119.205	-53.752	-114.816	3.1285e-05	0.00042748	4.6276e-05	617.94	2.7292e-06	4.3306e-06	355.36	223.39	1.5811e-06	4.913e-06	125.61	35.893	71.082	26.472	3.6595e-06	12.903	0.0014082	0.0017366	0.00049229	647.06	1.8585e-05	1.9476e-05	381.33	235.1	1.8812e-05	1.9718e-05	138.43	40.498	76.17	28.378	1.9244e-05	14.928	-84.741	-71.243	-22.648	-105.818	9.692	-38.161	-108.034	-101.937	34.283	-54.432	-105.205	-101.234	-97.237	-91.755	12.306	-96.724	-8191	255	
35312.621	1	1	0	0	0.26804	0.28234	0.36727	0.056142	0.21689	0.19722	0.16749	0.109	0.21971	0.040077	0.11689	0.13423	0.055813	0.16161	0.18456	0.15759	0.13958	-1.2458	-0.63333	-0.57917	-1.1333	-0.24167	-0.90625	-0.87083	-0.20625	-1.1688	-0.65208	-0.55	-1.1042	-0.35625	-0.85208	-1.15	-55.573	-34.851	4.183	188.474	67.050	103.083	224.416	130.900	168.968	194.260	179.976	93.130	16.903	-98.407	128.537	153.180	8.3752e-05	0.00039254	5.8389e-05	614.66	1.6964e-06	2.725e-06	353.17	221.54	1.4205e-06	3.8725e-06	123.8	35.575	70.695	26.235	5.2691e-06	12.938	0.0014248	0.0017806	0.00049645	643.04	1.8674e-05	1.9579e-05	378.56	233.75	1.8661e-05	1.9516e-05	137.23	40.153	75.845	28.198	1.8889e-05	14.785	198.213	16.894	205.636	-105.808	-15.024	7.094	-107.738	-101.951	181.637	39.628	-105.442	-101.906	-97.434	-91.448	4.993	-96.532	-8191	255	
35312.719	1	1	0	0	0.1575	0.16785	0.10896	0.34168	0.32649	0.12563	0.11989	0.084011	0.14679	0.24013	0.28032	0.22067	0.31172	0.067166	0.28903	0.023788	0.0125	-1.1	-0.77917	-0.725	-1.4125	-0.51042	-0.69583	-1.2042	-0.20625	-1.1792	-0.82292	-0.46458	-1.2958	-0.71667	-0.58125	-1.3104	-79.116	231.618	89.427	197.823	54.202	-18.923	-63.527	12.833	-60.289	-42.642	122.569	220.246	-119.550	107.013	119.677	-81.267	5.8376e-05	0.00047701	0.00012893	616.11	1.7269e-06	1.8102e-06	352.33	221.52	2.7596e-06	5.9739e-07	124.54	35.605	70.862	26.303	2.6026e-06	12.867	0.0013944	0.0017333	0.00048169	642.28	1.8252e-05	1.9089e-05	376.91	233.26	1.8191e-05	1.9046e-05	137.15	40.145	75.883	28.299	1.8415e-05	14.784	239.189	-60.672	-66.938	-105.964	-37.136	98.867	-107.840	-102.011	-13.617	15.361	-104.952	-101.023	-97.715	-91.684	60.245	-96.600	-8191	255	
35312.840	1	1	0	0	0.091915	0.17815	0.065725	0.17385	0.12511	0.22072	0.090234	0.21529	0.13572	0.15039	0.15218	0.216	0.26067	0.41484	0.058455	0.28082	0.058333	-1.1104	-0.87917	-0.53333	-1.1354	-0.32292	-0.77708	-1.2188	-0.35417	-0.99167	-1.0542	-0.15417	-1.2375	-0.75417	-0.72083	-1.3271	-69.820	97.113	47.482	236.583	206.553	-83.081	206.674	171.812	226.721	-25.310	148.681	221.361	156.153	182.564	24.778	-72.067	7.9343e-05	0.00015034	0.00020209	612.8	4.7671e-06	7.3052e-06	351.51	222.18	1.8762e-06	2.8796e-06	124.11	35.833	70.981	26.482	4.6941e-06	13.227	0.0013654	0.0017107	0.00047158	641.99	1.8032e-05	1.8734e-05	378.06	234.07	1.8006e-05	1.8479e-05	137.78	40.238	76.027	28.34	1.8188e-05	14.935	210.395	-48.312	-3.181	-105.839	173.580	100.508	-108.243	-101.911	-44.683	12.818	-105.452	-101.392	-97.310	-91.639	-66.061	-96.666	-8191	255	
35312.934	1	1	0	0	0.12253	0.079473	0.37907	0.2377	0.27392	0.23751	0.23532	0.10817	0.24424	0.1753	0.06495	0.16353	0.43398	0.075636	0.12112	0.20494	-0.03125	-1.0271	-0.90208	-0.37708	-1.0688	-0.38125	-0.58333	-1.4333	-0.31875	-0.99792	-1.1729	-0.37708	-1.2479	-0.54167	-0.43542	-1.3583	-57.503	38.441	49.151	-75.411	203.265	60.856	224.939	227.314	-117.802	134.748	139.913	-106.498	166.178	115.739	225.971	95.040	3.5129e-05	0.00023937	0.00016787	614.94	4.322e-07	3.3639e-06	354.31	224.21	2.6247e-06	3.9404e-06	126.39	36.38	71.201	26.621	5.3523e-07	13.148	0.0013569	0.0016787	0.00046375	644.14	1.7777e-05	1.8579e-05	379.77	234.99	1.7919e-05	1.8664e-05	138.46	40.516	76.221	28.397	1.8108e-05	14.929	176.491	-57.302	-47.443	-105.985	181.499	-15.822	-108.186	-101.823	-31.261	98.370	-105.330	-101.568	-97.803	-91.970	144.386	-96.803	-8191	255	
35313.031	1	1	0	0	0.10996	0.15234	0.22847	0.14277	0.042164	0.20751	0.17894	0.054302	0.0017242	0.18363	0.2183	0.054409	0.21703	0.29606	0.17604	0.20209	0.0125	-0.72083	-1.0417	-0.37083	-1.0562	-0.53125	-0.37708	-1.3125	-0.65625	-0.80625	-1.1229	-0.38125	-1.0771	-0.79167	-0.29167	-1.3208	-33.677	-85.211	159.882	91.308	22.228	22.972	-21.324	174.519	180.000	-1.112	147.055	153.679	-71.816	97.019	-23.793	83.766	4.6636e-05	0.0002575	9.6109e-05	618.31	1.7226e-06	6.9556e-06	355.01	224.19	1.5845e-06	2.7389e-06	125.67	36.04	71.002	26.216	1.7052e-06	12.915	0.0013513	0.0016807	0.00047073	646.29	1.8089e-05	1.8844e-05	380.6	235.72	1.8055e-05	1.8828e-05	138.51	40.406	76.13	28.207	1.8291e-05	14.778	-115.856	-0.601	71.043	-106.096	55.183	105.981	-108.705	-102.180	31.507	35.626	-105.546	-101.915	-97.813	-92.120	-79.229	-96.936	-8191	255	
35313.152	1	1	0	0	0.068369	0.20913	0.31971	0.17035	0.085474	0.082316	0.31163	0.19265	0.01334	0.24697	0.11163	0.20515	0.16035	0.19898	0.16412	0.090638	-0.047917	-0.69375	-1.1833	-0.1625	-0.89375	-1.0667	-0.37917	-1.1437	-0.38333	-0.67708	-1.3646	-0.21458	-1.0271	-0.96458	-0.31458	-1.2396	209.236	61.294	18.174	-12.718	-69.342	180.921	109.465	-84.783	213.944	20.498	-91.944	-98.578	42.873	39.138	-25.020	-81.821	6.9208e-05	0.00076343	7.4917e-05	616.01	1.0179e-06	9.8722e-06	352.85	224	3.0914e-06	2.7242e-06	125.04	36.034	71.531	26.292	2.9615e-06	13.025	0.0013557	0.0016727	0.00046328	644.16	1.7985e-05	1.8225e-05	378.21	234.8	1.7883e-05	1.8495e-05	137.74	40.335	76.14	28.186	1.786e-05	14.782	-107.218	-12.156	-103.692	-106.261	-54.769	58.382	-108.097	-102.018	-58.202	9.133	-106.050	-101.859	-98.028	-92.060	44.712	-97.117	-8191	255	
35313.246	1	1	0	0	0.15807	0.25197	0.16487	0.07252	0.12818	0.055894	0.20747	0.097423	0.35045	0.13826	0.2637	0.13527	0.15463	0.1258	0.19155	0.0055205	-0.37708	-0.48958	-1.2604	-0.37917	-0.83125	-1.1146	-0.23125	-1.1333	-0.60625	-0.40417	-1.1021	-0.4375	-0.80625	-1.0896	-0.38333	-1.1458	-75.065	-41.056	158.826	19.110	-85.423	183.775	-102.453	80.188	199.927	108.464	121.968	182.222	-74.915	91.361	8.004	83.179	8.0662e-05	0.00045625	0.00013465	620.17	4.1546e-06	5.6647e-06	355.74	223.6	3.1976e-06	3.961e-06	125.77	35.897	71.01	26.257	1.1439e-06	12.99	0.0013344	0.0016401	0.00045669	645.55	1.7409e-05	1.8112e-05	379.99	234.91	1.7638e-05	1.8073e-05	138.3	40.46	76.134	28.16	1.7658e-05	14.809	-95.831	-35.491	5.541	-106.084	-52.291	119.093	-108.671	-102.042	-68.004	113.338	-105.701	-101.446	-97.706	-92.160	62.655	-96.922	-8191	255	
35313.320	1	1	0	0	0.083266	0.19901	0.18236	0.21961	0.17804	0.20205	0.050299	0.18242	0.39991	0.04807	0.066429	0.16883	0.36505	0.064305	0.15513	0.20769	-0.32708	-0.35833	-1.2125	-0.5	-0.66875	-1.1375	-0.2625	-0.95417	-0.70417	-0.25417	-1.2271	-0.55417	-0.85208	-1.2271	-0.275	-1.0063	220.256	230.744	123.074	227.622	71.273	237.109	63.223	148.747	235.444	-116.053	216.989	85.330	227.627	210.315	198.719	-102.829	4.9719e-05	0.00060349	8.3275e-05	617.61	1.5747e-06	6.2653e-06	356.69	224.76	4.863e-06	7.8503e-06	127.47	36.551	71.403	26.304	4.6027e-06	12.928	0.0013274	0.001637	0.00045494	646.01	1.7404e-05	1.7915e-05	381.55	236.08	1.7582e-05	1.8129e-05	139.19	40.762	76.498	28.189	1.7533e-05	14.819	224.392	-91.576	31.487	-106.145	-62.926	160.964	-108.491	-102.359	-29.225	-13.573	-105.638	-101.457	-98.003	-92.221	19.236	-97.430	-8191	255	
35313.438	1	1	0	0	0.10407	0.032674	0.16459	0.14134	0.10817	0.22591	0.13024	0.23443	0.092597	0.29085	0.078404	0.10991	0.10129	0.14982	0.17565	0.24688	-0.71875	-0.49167	-1.325	-0.57708	-0.6375	-1.0958	-0.41667	-0.99167	-0.93333	-0.36458	-1.2583	-0.74375	-0.62292	-1.2042	-0.45833	-0.76667	155.186	201.692	-23.884	145.378	24.242	-52.505	91.964	-63.548	-8.794	43.483	231.566	173.931	232.064	37.573	81.543	42.320	9.3115e-05	0.00049798	0.00011195	619.61	3.5862e-06	3.8157e-06	356.89	224.06	3.2321e-06	3.7191e-06	128.52	36.691	71.727	26.418	2.2298e-06	13.023	0.0012809	0.0016317	0.00045548	647.54	1.7189e-05	1.7955e-05	382.37	236.1	1.7579e-05	1.8145e-05	140.27	40.973	76.597	28.261	1.7731e-05	14.884	192.602	34.331	25.972	-106.437	16.243	191.798	-108.509	-102.037	15.160	43.254	-105.454	-101.672	-97.220	-92.011	-63.569	-96.047	-8191	255	
35313.535	1	1	0	0	0.15817	0.15592	0.23987	0.15839	0.27943	0.11085	0.14924	0.1568	0.10523	0.20901	0.16817	0.13819	0.29944	0.22953	0.12321	0.086947	-0.84583	-0.24375	-1.1354	-0.63542	-0.61042	-1.4188	-0.32917	-1.0146	-0.95208	-0.30417	-1.2938	-0.92708	-0.57083	-1.3083	-0.37292	-0.725	163.984	112.502	129.657	133.551	-65.472	-107.290	-67.002	233.956	144.234	34.799	67.572	180.879	-86.072	-38.492	-34.819	181.262	8.3283e-05	0.00037027	0.00014493	618.36	2.9272e-06	3.3227e-06	356.4	225.11	3.3487e-06	1.6371e-06	126.32	36.201	71.202	26.281	5.1801e-06	13.099	0.0013267	0.0016468	0.00045986	647.01	1.7502e-05	1.8045e-05	382.11	236	1.7324e-05	1.8255e-05	138.96	40.613	76.4	28.247	1.8003e-05	14.877	233.361	230.546	-73.407	-105.933	-98.588	125.438	-108.486	-101.812	-57.305	-23.474	-105.410	-101.358	-97.696	-91.902	-16.539	-96.905	-8191	255	
35313.633	1	1	0	0	0.20878	0.05984	0.17353	0.26724	0.033035	0.10006	0.25589	0.17947	0.10606	0.17606	0.27724	0.17708	0.20935	0.22832	0.24891	0.046653	-0.73542	-0.16458	-1.1542	-0.69375	-0.25625	-1.3646	-0.52292	-0.81875	-1.1313	-0.37917	-1.1437	-1.0292	-0.48542	-1.375	-0.79583	-0.7125	-114.200	95.994	-109.206	205.796	-66.343	-11.313	114.583	15.745	165.236	49.699	227.003	-81.757	-66.958	178.513	69.885	97.533	1.1245e-05	0.0007554	0.0001194	616.16	1.2066e-06	6.0138e-06	355.47	223.93	3.8312e-06	2.0922e-06	125.71	36.184	71.187	26.274	3.476e-06	12.961	0.0013221	0.0016394	0.00046015	644.65	1.7205e-05	1.8003e-05	381	235.36	1.7268e-05	1.8121e-05	138.54	40.496	76.215	28.276	1.7595e-05	14.842	158.024	-49.314	-98.825	-105.984	129.622	34.863	-108.197	-102.121	-79.799	38.101	-105.576	-101.267	-97.920	-91.828	87.445	-96.658	-8191	255	
35313.727	1	1	0	0	0.21233	0.14123	0.17514	0.11735	0.17055	0.33054	0.28868	0.28893	0.11413	0.1594	0.096095	0.12956	0.35166	0.033948	0.19114	0.21893	-0.8875	-0.30417	-0.95208	-0.86875	-0.48125	-1.1667	-0.5125	-0.60833	-1.2292	-0.26875	-1.0229	-1.1792	-0.33333	-1.2521	-0.73958	-0.54167	174.231	225.063	-91.634	153.987	1.191	3.067	161.325	120.072	65.161	115.066	-119.030	56.819	224.048	-64.642	94.233	182.927	0.00014581	0.00048563	0.00010773	618.27	3.0778e-06	3.3858e-06	354.72	224.01	2.196e-06	5.8889e-06	126.23	36.485	71.431	26.477	2.3985e-06	13.22	0.0012961	0.0015998	0.00045372	644.44	1.7279e-05	1.8098e-05	380.51	235.25	1.7239e-05	1.7978e-05	138.49	40.69	76.35	28.361	1.7478e-05	14.983	196.792	-26.870	206.870	-106.006	45.784	-41.666	-108.493	-102.052	9.237	-11.732	-105.398	-101.665	-97.885	-91.774	-104.076	-96.806	-8191	255	
35313.848	1	1	0	0	0.051537	0.1074	0.15271	0.05843	0.13969	0.038001	0.10943	0.27955	0.054309	0.24393	0.16537	0.085133	0.30097	0.18471	0.23302	0.28178	-0.94792	-0.39167	-0.9375	-1.2687	-0.43542	-1.3	-0.91042	-0.66042	-1.4021	-0.35	-0.81458	-1.1292	-0.46667	-1.1479	-0.58125	-0.31042	81.001	118.924	239.518	34.050	177.813	27.569	192.469	-88.822	33.744	216.683	-80.011	92.332	-84.276	24.861	208.828	-38.443	8.4005e-05	0.00016395	8.0838e-05	618.43	2.3086e-06	4.6535e-06	356.89	224.61	1.4586e-06	4.7582e-06	126.55	36.42	71.594	26.587	2.8578e-06	13.294	0.0012913	0.0016025	0.0004438	644.42	1.7057e-05	1.7569e-05	380.97	235.56	1.6941e-05	1.7678e-05	139.1	40.664	76.354	28.5	1.7076e-05	15.076	205.521	-87.200	-79.848	-105.934	201.439	63.893	-108.433	-102.321	12.025	36.392	-105.509	-101.755	-97.590	-91.761	167.079	-96.727	-8191	255	
35313.922	1	1	0	0	0.18072	0.2712	0.085341	0.026529	0.093931	0.050161	0.22813	0.10613	0.10773	0.21786	0.15132	0.17692	0.11111	0.19035	0.19733	0.10208	-0.9125	-0.48333	-0.7	-1.2854	-0.41042	-0.99792	-0.92708	-0.3625	-1.3625	-0.5625	-0.81667	-1.2042	-0.35833	-1.0896	-0.92083	-0.45833	205.396	84.360	176.994	-88.830	103.215	32.665	234.050	-91.056	114.123	90.015	-88.812	146.537	223.744	233.300	186.009	153.498	7.5216e-05	0.00030858	7.0393e-05	617.46	3.7218e-06	3.0636e-06	356.72	223.77	3.5817e-06	5.0297e-06	127.47	36.251	71.255	26.911	4.9739e-06	13.409	0.0012682	0.0015763	0.00043817	644.05	1.6796e-05	1.7387e-05	380.59	234.91	1.6639e-05	1.746e-05	138.79	40.718	76.224	28.646	1.7332e-05	15.136	204.082	-92.141	67.302	-106.083	155.078	-57.310	-108.096	-101.800	58.402	-45.136	-105.131	-101.578	-97.695	-91.739	-3.989	-97.070	-8191	255	
35314.016	1	1	0	0	0.081849	0.16784	0.2471	0.020989	0.11737	0.14984	0.29085	0.12285	0.23937	0.19079	0.097597	0.16481	0.40029	0.13992	0.14659	0.12292	-0.72292	-0.36458	-0.62917	-1.3604	-0.21667	-1.1938	-1.0438	-0.39583	-1.1979	-0.78542	-0.32083	-0.96458	-0.39375	-1.0417	-1.0771	-0.14167	-72.243	-92.054	-19.036	21.050	-34.731	236.216	170.604	129.555	-107.911	186.354	157.276	9.147	183.104	-117.907	56.663	7.058	8.1713e-05	0.00027563	8.1858e-05	615.64	2.5618e-06	7.3407e-07	352.81	222.1	2.4798e-06	1.511e-06	125.31	36.084	70.952	26.707	6.0864e-06	13.239	0.0012756	0.0015603	0.00044534	641.76	1.7122e-05	1.7572e-05	377.45	233.69	1.7144e-05	1.7674e-05	137.58	40.212	75.824	28.671	1.7191e-05	15.007	227.211	168.607	-108.424	-106.449	138.739	151.210	-108.719	-102.547	48.870	74.303	-105.694	-101.220	-97.939	-91.539	29.221	-96.600	-8191	255	
35314.113	1	1	0	0	0.17633	0.22628	0.2542	0.12917	0.12938	0.22555	0.10703	0.28802	0.10487	0.041847	0.34005	0.2186	0.22748	0.22206	0.052622	0.10004	-0.67292	-0.6625	-0.41458	-1.3458	-0.34167	-0.75	-1.1	-0.57292	-1.1583	-0.8125	-0.46875	-1.1542	-0.3375	-0.73542	-1.1458	-0.22708	-38.897	-73.157	88.969	90.625	91.820	50.703	101.610	214.342	96.889	162.920	148.872	137.810	-73.895	186.771	55.230	81.779	6.0472e-05	0.00011722	0.00013305	614.36	3.5022e-06	3.0598e-06	351.63	221.34	3.1347e-06	8.4798e-07	125.64	36.209	71.448	26.932	4.9225e-06	13.414	0.0012709	0.0015769	0.00044059	639.23	1.6525e-05	1.7109e-05	375.38	233.28	1.5883e-05	1.642e-05	136.66	40.103	75.782	28.738	1.561e-05	15.019	208.351	221.057	-28.357	-106.150	10.504	-86.629	-108.148	-101.870	-75.243	61.078	-105.496	-101.203	-97.395	-91.552	-39.685	-96.630	-8191	255	
35314.230	1	1	0	0	0.26384	0.27364	0.21007	0.16116	0.047899	0.18151	0.14632	0.25161	0.17662	0.20535	0.13143	0.078562	0.29939	0.14356	0.19311	0.16891	-0.52917	-0.79167	-0.43333	-1.3375	-0.28958	-0.67708	-1.1875	-0.32708	-1.0042	-0.98125	-0.54375	-1.2771	-0.48333	-0.70417	-1.1333	-0.25	-28.897	206.288	79.172	199.341	88.903	130.938	-87.564	168.691	-67.988	136.057	-5.657	158.247	178.890	61.968	92.552	-36.349	5.153e-05	0.00023487	0.00015458	611.29	3.4327e-06	3.8465e-06	352.16	221.62	4.0639e-06	2.5924e-06	125.88	36.313	71.147	27.384	3.0731e-06	13.537	0.0011296	0.001415	0.00039006	637.3	1.4933e-05	1.5353e-05	375.12	232.4	1.4771e-05	1.5123e-05	136.25	40.105	75.835	29.087	1.4308e-05	15.178	187.809	-39.710	40.929	-105.892	10.463	-35.722	-108.367	-101.868	12.258	18.364	-105.246	-101.408	-97.517	-91.809	4.992	-97.189	-8191	255	
35314.328	1	1	0	0	0.51245	0.20937	0.15399	0.12576	0.063628	0.23661	0.16709	0.1765	0.13807	0.24008	0.21683	0.20452	0.090682	0.10717	0.23815	0.19611	-0.47708	-0.91458	-0.27708	-1.1479	-0.70833	-0.65417	-1.3979	-0.37292	-0.97917	-0.98333	-0.25625	-1.1479	-0.725	-0.43542	-1.1396	-0.56875	85.266	146.067	-18.096	-105.487	70.773	232.103	-94.506	184.284	-63.015	183.617	124.135	171.470	5.197	-117.294	-118.167	158.591	5.4215e-05	0.00057347	0.00012824	615.01	3.9619e-06	7.21e-06	355.78	223.81	1.5886e-06	3.1139e-06	126.85	36.703	71.891	27.52	7.4305e-07	13.744	0.0010831	0.0013291	0.00037256	639.52	1.4232e-05	1.4754e-05	377.45	233.87	1.456e-05	1.5019e-05	137.24	40.486	76.493	29.22	1.4872e-05	15.324	-106.345	-65.831	-21.634	-105.883	7.737	25.725	-108.326	-101.926	239.816	-109.914	-105.935	-101.434	-97.441	-91.673	159.253	-96.484	-8191	255	
35314.426	1	1	0	0	0.036634	0.14094	0.13708	0.061824	0.3621	0.15805	0.18809	0.24642	0.17809	0.27067	0.28045	0.30174	0.19815	0.39501	0.20499	0.28287	-0.37083	-1.0479	-0.325	-1.1604	-0.85833	-0.51458	-1.2812	-0.51875	-0.775	-1.2021	-0.20625	-1.0521	-0.99792	-0.51458	-1.3708	-0.54583	-76.743	189.871	-36.889	-39.437	209.541	137.279	-66.145	-81.083	173.212	-119.288	126.802	-36.513	-56.967	177.066	85.080	57.283	6.0959e-05	0.00032225	0.00015243	619.98	2.3354e-06	1.2784e-06	355.94	224.52	3.2433e-06	3.5529e-06	126.21	36.642	71.991	27.172	2.8129e-06	13.448	0.0011131	0.0013882	0.0003944	644.06	1.5027e-05	1.5356e-05	379.53	235.39	1.5295e-05	1.5571e-05	137.79	40.56	76.474	28.977	1.5533e-05	15.115	-102.366	55.800	-57.418	-106.033	136.440	73.170	-108.519	-101.928	-14.872	27.455	-105.237	-101.774	-97.637	-91.954	-73.157	-97.312	-8191	255	
35314.520	1	1	0	0	0.18361	0.23957	0.10836	0.1894	0.21485	0.09968	0.14607	0.081793	0.19831	0.24331	0.12977	0.15597	0.12158	0.2221	0.28656	0.19761	-0.30625	-1.2042	-0.1875	-0.98542	-0.69167	-0.45	-1.3	-0.45833	-0.61875	-1.2583	-0.18958	-0.9875	-1.0083	-0.50417	-1.1812	-0.54792	183.089	66.023	230.004	18.728	33.845	21.833	141.053	-75.196	-112.765	57.291	231.308	-57.008	-50.849	152.578	220.335	193.709	8.3881e-05	0.00071016	0.00018337	615.96	8.7734e-07	6.6929e-06	353.66	225.37	3.8093e-06	3.9651e-06	127.51	36.628	71.892	26.8	4.2587e-06	13.166	0.0011804	0.0014491	0.00040894	643.58	1.5735e-05	1.6215e-05	378.97	235.24	1.6281e-05	1.7052e-05	138.49	40.67	76.551	28.771	1.7561e-05	15.009	-115.895	228.025	-0.303	-106.176	-84.413	-34.619	-108.658	-102.572	-4.006	-15.329	-105.897	-102.093	-98.213	-92.368	45.701	-97.229	-8191	255	
35314.617	1	1	0	0	0.17105	0.13517	0.066489	0.2115	0.13818	0.028434	0.20129	0.2717	0.15881	0.11311	0.39655	0.34907	0.04326	0.35717	0.15198	0.16285	-0.15	-1.2417	-0.45417	-1.1667	-0.8375	-0.17708	-1.3188	-0.87292	-0.46458	-1.1771	-0.35625	-1.0146	-1.0708	-0.40625	-1.025	-0.65208	-79.099	-60.719	93.604	173.912	-34.404	-60.282	173.187	-87.468	-10.120	232.888	56.441	68.678	151.598	-102.988	63.504	97.569	4.6798e-05	0.00046386	0.00016159	617.64	2.8662e-06	2.5624e-06	356.3	224.33	4.1223e-06	4.6212e-06	125.75	36.262	71.16	26.558	5.3081e-06	12.996	0.0013378	0.0016714	0.00047966	647.63	1.8399e-05	1.9331e-05	382.1	236.23	1.8825e-05	1.9689e-05	139.39	40.883	76.61	28.505	1.8961e-05	14.951	-103.737	-4.397	10.914	-105.798	53.550	53.037	-108.006	-101.946	36.421	6.170	-105.336	-101.534	-97.462	-91.871	205.330	-96.838	-8191	255	
35314.711	1	1	0	0	0.30583	0.086928	0.1954	0.20407	0.18243	0.03549	0.21846	0.10187	0.049511	0.10169	0.16822	0.15352	0.26376	0.24234	0.18962	0.064116	-0.1625	-1.3563	-0.32292	-0.76667	-1.1729	-0.34792	-1.1458	-0.975	-0.44583	-1.1875	-0.41042	-0.58958	-1.3042	-0.40208	-0.78542	-0.93958	139.615	18.284	120.196	-39.431	108.169	81.768	-51.781	-58.792	191.072	26.613	69.410	-88.940	196.373	129.537	135.080	77.066	7.8484e-05	0.00034228	0.00016671	617.08	4.0521e-06	4.2237e-06	356.33	224.41	3.0131e-06	2.9983e-06	126.45	36.235	71.553	26.817	7.7309e-07	13.458	0.0013773	0.0017057	0.00047427	645.29	1.7636e-05	1.815e-05	379.4	235.25	1.6755e-05	1.7537e-05	138.27	40.335	76.203	28.625	1.6012e-05	15.038	233.156	236.690	-63.371	-105.765	108.386	69.354	-107.976	-102.024	-13.880	32.083	-104.986	-101.597	-97.791	-91.849	-34.059	-96.933	-8191	255	
35314.832	1	1	0	0	0.15788	0.055785	0.028564	0.28438	0.17769	0.071687	0.2815	0.30439	0.19265	0.10119	0.25481	0.086489	0.20565	0.26263	0.17901	0.09859	0.045833	-1.1667	-0.54792	-0.58958	-1.1417	-0.22708	-0.83542	-0.97708	-0.25	-1.2229	-0.49375	-0.53958	-1.3083	-0.41458	-0.87708	-0.97292	105.868	221.962	188.505	228.876	172.264	-66.447	-77.922	174.760	32.140	-87.653	74.545	-106.453	103.805	-15.149	127.958	192.583	6.7269e-05	0.00018988	0.0001222	613.66	3.2882e-06	5.0513e-06	357.39	223.29	2.5683e-06	2.9805e-06	124.85	36.582	71.725	27.375	2.5893e-06	13.64	0.0011788	0.0014469	0.00040027	639.4	1.5027e-05	1.5618e-05	377.43	233.91	1.4774e-05	1.5324e-05	137.22	40.305	76.18	29.162	1.5221e-05	15.298	-114.039	-85.622	19.186	-105.905	44.418	-0.596	-108.246	-102.236	-12.381	92.899	-105.556	-101.051	-97.744	-91.627	161.593	-96.465	-8191	255	
35314.926	1	1	0	0	0.33312	0.35691	0.21511	0.25315	0.10091	0.19969	0.072703	0.20277	0.13646	0.13182	0.10795	0.016496	0.2505	0.19837	0.17105	0.23438	0.26042	-1.1	-0.39375	-0.475	-1.1979	-0.3625	-0.98125	-1.1958	-0.43333	-1.1354	-0.71458	-0.49167	-1.3292	-0.55208	-0.84167	-1.2146	180.811	-42.943	187.985	218.159	-70.222	169.445	-34.793	199.305	165.004	183.560	-110.306	-86.841	-93.969	-58.882	150.397	208.503	0.00010835	0.00050398	6.3914e-05	616.15	2.9097e-06	5.7127e-06	355.18	224.66	1.7321e-06	5.5771e-06	125.92	36.225	71.702	27.193	2.5606e-06	13.477	0.0011398	0.0014183	0.00039849	642.54	1.5133e-05	1.6077e-05	377.86	234.53	1.5428e-05	1.5954e-05	137.24	40.193	76.223	29.015	1.5981e-05	15.175	-114.168	-100.104	-7.065	-105.844	50.788	29.427	-108.586	-102.028	-84.050	-17.778	-105.222	-101.499	-97.801	-91.750	151.211	-96.416	-8191	255	
35315.023	1	1	0	0	0.066561	0.18156	0.13685	0.28097	0.26876	0.098053	0.16606	0.36208	0.22767	0.13397	0.19376	0.14338	0.14757	0.1596	0.12846	0.082855	-0.079167	-1.0729	-0.74167	-0.38333	-1.3354	-0.41042	-0.60833	-1.2646	-0.30208	-1.0646	-0.87083	-0.39583	-1.3083	-0.60208	-0.59583	-1.1604	60.331	53.885	-29.623	99.826	-43.598	-102.549	66.384	155.523	2.606	235.056	200.633	212.895	-5.191	-72.735	109.024	39.195	7.2428e-05	0.00045573	2.2152e-05	618	6.8229e-07	2.7841e-06	353.68	223.19	1.4602e-07	2.1918e-06	125.73	36.324	71.376	27.081	2.7441e-06	13.527	0.0011817	0.0014999	0.00041989	642.44	1.6123e-05	1.6801e-05	377.78	234.3	1.6218e-05	1.7013e-05	137.2	40.347	76.112	29.014	1.6759e-05	15.295	232.866	-73.340	-76.829	-106.164	31.287	41.017	-108.205	-101.904	-67.235	74.961	-105.317	-101.705	-97.635	-91.800	35.928	-96.486	-8191	255	
35315.121	1	1	0	0	0.17149	0.23712	0.12056	0.43464	0.071921	0.10071	0.064793	0.24172	0.13452	0.048022	0.25877	0.19523	0.11151	0.18402	0.27123	0.050554	0.13958	-0.99792	-1.1292	-0.3875	-1.2708	-0.62917	-0.47292	-1.2042	-0.35208	-0.93542	-0.7125	-0.33333	-1.2833	-0.49167	-0.49375	-1.25	214.259	161.595	217.774	195.293	42.218	166.396	-18.054	218.312	78.569	54.800	-105.865	132.837	195.014	118.980	223.766	170.620	6.4412e-05	0.00024416	0.00020483	615.48	1.9538e-06	6.6985e-06	353.37	222.86	1.7677e-06	5.1903e-06	124.7	36.202	71.278	27.249	4.7781e-06	13.505	0.0012541	0.0015686	0.00043267	640.31	1.6346e-05	1.717e-05	376.97	233.99	1.6525e-05	1.6965e-05	136.98	40.337	76.061	29.103	1.6513e-05	15.302	210.789	-18.762	-32.199	-105.658	57.412	76.690	-108.106	-101.997	43.541	203.929	-105.025	-101.812	-97.475	-92.137	96.802	-96.496	-8191	255	
35315.215	1	1	0	0	0.076099	0.15253	0.0253	0.15541	0.34025	0.10926	0.43183	0.33615	0.13393	0.098103	0.24297	0.21572	0.14625	0.29773	0.15654	0.22697	0.0020833	-0.7875	-1.0521	-0.32083	-1.2042	-0.675	-0.56667	-1.4312	-0.34375	-0.76667	-1.2188	-0.23958	-1.0667	-0.6875	-0.60208	-1.4083	97.889	52.969	214.911	143.776	193.388	20.568	168.570	210.595	229.945	-27.871	50.832	-99.518	104.992	138.940	39.971	202.473	7.0398e-05	0.0003019	6.3459e-05	615.96	1.1053e-06	5.4179e-06	353.49	223.28	4.7729e-06	5.513e-06	126.01	36.366	71.299	27.262	4.2208e-06	13.486	0.0012416	0.001539	0.00043086	640	1.6578e-05	1.7382e-05	376.85	233.86	1.6859e-05	1.7694e-05	138.18	40.505	76.319	29.14	1.754e-05	15.372	238.774	77.981	7.195	-106.129	148.236	66.609	-108.463	-102.067	1.674	11.260	-105.658	-101.426	-97.397	-91.717	-62.240	-97.091	-8191	255	
35315.312	1	1	0	0	0.11365	0.049606	0.10756	0.32457	0.28998	0.092162	0.12554	0.13553	0.24	0.032302	0.29166	0.099467	0.32603	0.14374	0.038261	0.069876	-0.15625	-0.7625	-0.9625	-0.11458	-0.96875	-0.82292	-0.36042	-1.1979	-0.5125	-0.62708	-1.2896	-0.325	-1.0583	-0.85625	-0.37917	-1.225	26.185	76.750	36.565	130.854	-45.955	104.918	-85.003	113.239	150.645	217.522	209.332	238.626	66.288	188.099	-90.184	183.260	0.00010678	0.00064624	0.00014815	614.63	3.235e-06	4.6888e-06	355.45	224.15	2.2e-06	3.7122e-06	126.7	36.497	71.376	26.974	5.9476e-06	13.407	0.0013316	0.0016612	0.00046098	643.04	1.8027e-05	1.8866e-05	381.21	235.29	1.8705e-05	1.9542e-05	139.17	40.95	76.522	28.926	1.9616e-05	15.319	210.383	-1.457	-52.545	-105.974	22.940	78.201	-108.282	-101.771	-45.428	-20.434	-105.546	-101.414	-97.157	-91.743	-69.101	-96.674	-8191	255	
35315.406	1	1	0	0	0.27172	0.048032	0.16407	0.14094	0.057088	0.049152	0.11347	0.10847	0.14135	0.16471	0.16082	0.15961	0.096727	0.087385	0.095522	0.19993	-0.033333	-0.48125	-1.1917	-0.3375	-1.0458	-0.9125	-0.33333	-1.3563	-0.55417	-0.40833	-1.3563	-0.25625	-1.0708	-1.15	-0.31458	-1.1708	200.847	22.858	187.898	146.355	61.848	117.304	202.398	-107.354	116.302	-90.036	33.581	80.825	226.994	-34.479	19.085	35.148	5.639e-05	0.00057086	6.9695e-05	615.43	4.363e-06	4.0161e-06	352.91	222.75	1.3873e-06	4.2358e-06	124.83	35.788	70.606	26.515	3.494e-06	13.117	0.0014822	0.0018311	0.00051325	644.16	2.0049e-05	2.0515e-05	379.78	234.83	2.0254e-05	2.1251e-05	138.41	40.607	76.072	28.671	2.1159e-05	15.17	222.190	-48.220	75.340	-105.992	22.753	215.837	-108.553	-102.061	145.644	-49.570	-105.334	-101.249	-97.453	-91.974	78.944	-96.937	-8191	255	
35315.527	1	1	0	0	0.16314	0.10407	0.12117	0.1484	0.10008	0.19547	0.30371	0.20582	0.22923	0.44194	0.053919	0.20452	0.29433	0.39298	0.22687	0.066437	-0.31667	-0.48958	-1.2125	-0.3	-0.89375	-0.975	-0.12292	-1.0083	-0.80208	-0.48125	-1.1458	-0.34583	-0.78542	-1.2979	-0.2375	-1.2188	-89.155	-71.674	160.496	-90.814	238.813	151.785	24.974	239.128	222.887	18.504	176.490	50.696	-83.135	205.088	178.954	8.525	9.7624e-05	0.00060029	5.4768e-05	611.6	4.802e-06	3.7959e-06	351.6	220.67	1.8016e-06	2.1563e-06	124.67	35.607	70.434	26.514	1.401e-06	13.183	0.0015533	0.0019165	0.00052739	641.34	2.0095e-05	2.0526e-05	378.03	233.3	1.9618e-05	2.044e-05	138.51	40.388	75.872	28.551	2.0207e-05	15.148	-113.804	-60.382	-14.583	-106.163	81.765	69.711	-108.335	-102.276	-6.590	102.551	-105.510	-101.390	-97.603	-92.036	2.144	-96.898	-8191	255	
35315.625	1	1	0	0	0.23258	0.24824	0.25909	0.26563	0.24625	0.19092	0.12675	0.26157	0.11938	0.28874	0.081415	0.10522	0.34357	0.22242	0.10108	0.18736	-0.40417	-0.31875	-1.225	-0.48125	-0.54792	-1.25	-0.25625	-1.05	-0.69375	-0.40625	-1.4312	-0.50833	-0.64792	-1.1	-0.18542	-0.98125	194.076	110.099	102.086	200.678	166.151	75.653	-19.045	174.714	14.439	52.756	64.839	-40.031	162.667	1.554	186.857	147.921	0.00010457	0.00042825	7.0171e-05	611.48	4.2243e-06	3.8555e-06	350.27	221.07	1.2447e-06	3.9076e-06	124.6	35.63	70.547	26.181	7.2253e-06	13.048	0.0015159	0.0018747	0.00052182	639.51	1.9857e-05	2.0486e-05	377.55	233.61	2.0156e-05	2.0549e-05	138.47	40.464	76.048	28.432	2.0298e-05	15.165	237.494	-19.262	20.369	-106.031	18.778	4.098	-107.974	-102.058	59.416	-8.839	-105.692	-101.519	-97.627	-91.849	69.069	-96.796	-8191	255	
#DATA ENDS
