BOXY.EXE: ISS Imagent and Oximeter Data Acquisition Program Version 0.80
Ascii Record File

#ACQ INFORMATION
2  Detector Channels 
16  External MUX Channels 
1  Auxiliary Channels 
5000  Waveform (CCF) Frequency (Hz)
1  Waveforms Skipped 
30  Waveforms Averaged 
1  Cycles Averaged 
16  Acquisitions per Waveform 
10.0806  Updata Rate (Hz) 

#FILE INFORMATION
TRUE -- External MUX Channel results are PARSED.
FALSE -- AC DC and Phase are NOT grouped.
TRUE -- Companion Program Settings File CREATED.
FALSE -- AC data not excluded
FALSE -- DC data not excluded
FALSE -- Phase data not excluded
FALSE -- Auxillary Chn. data not excluded
Tab delimiters

#CALIBRATION STATE
TRUE -- Waveform Calibration Values APPLIED.


#AUX CALIBRATION VALUES
Val Type	aux-1	

Term	1.0000e+00	
Factor	0.0000e+00	


#WF CALIBRATION VALUES
A = Detector Channel
Val Type	A-AC1	A-AC2	A-AC3	A-AC4	A-AC5	A-AC6	A-AC7	A-AC8	A-AC9	A-AC10	A-AC11	A-AC12	A-AC13	A-AC14	A-AC15	A-AC16	A-DC1	A-DC2	A-DC3	A-DC4	A-DC5	A-DC6	A-DC7	A-DC8	A-DC9	A-DC10	A-DC11	A-DC12	A-DC13	A-DC14	A-DC15	A-DC16	A-Ph1	A-Ph2	A-Ph3	A-Ph4	A-Ph5	A-Ph6	A-Ph7	A-Ph8	A-Ph9	A-Ph10	A-Ph11	A-Ph12	A-Ph13	A-Ph14	A-Ph15	A-Ph16	

Term	0.00000e+00	0.00000e+00	0.00000e+00	0.00000e+00	0.00000e+00	0.00000e+00	0.00000e+00	0.00000e+00	0.00000e+00	0.00000e+00	0.00000e+00	0.00000e+00	0.00000e+00	0.00000e+00	0.00000e+00	0.00000e+00	0.00000e+00	0.00000e+00	0.00000e+00	0.00000e+00	0.00000e+00	0.00000e+00	0.00000e+00	0.00000e+00	0.00000e+00	0.00000e+00	0.00000e+00	0.00000e+00	0.00000e+00	0.00000e+00	0.00000e+00	0.00000e+00	0.00000e+00	0.00000e+00	0.00000e+00	0.00000e+00	0.00000e+00	0.00000e+00	0.00000e+00	0.00000e+00	0.00000e+00	0.00000e+00	0.00000e+00	0.00000e+00	0.00000e+00	0.00000e+00	0.00000e+00	0.00000e+00	
Factor	1.00000e+00	1.00000e+00	1.00000e+00	1.00000e+00	1.00000e+00	1.00000e+00	1.00000e+00	1.00000e+00	1.00000e+00	1.00000e+00	1.00000e+00	1.00000e+00	1.00000e+00	1.00000e+00	1.00000e+00	1.00000e+00	1.00000e+00	1.00000e+00	1.00000e+00	1.00000e+00	1.00000e+00	1.00000e+00	1.00000e+00	1.00000e+00	1.00000e+00	1.00000e+00	1.00000e+00	1.00000e+00	1.00000e+00	1.00000e+00	1.00000e+00	1.00000e+00	X	X	X	X	X	X	X	X	X	X	X	X	X	X	X	X	

B = Detector Channel
Val Type	B-AC1	B-AC2	B-AC3	B-AC4	B-AC5	B-AC6	B-AC7	B-AC8	B-AC9	B-AC10	B-AC11	B-AC12	B-AC13	B-AC14	B-AC15	B-AC16	B-DC1	B-DC2	B-DC3	B-DC4	B-DC5	B-DC6	B-DC7	B-DC8	B-DC9	B-DC10	B-DC11	B-DC12	B-DC13	B-DC14	B-DC15	B-DC16	B-Ph1	B-Ph2	B-Ph3	B-Ph4	B-Ph5	B-Ph6	B-Ph7	B-Ph8	B-Ph9	B-Ph10	B-Ph11	B-Ph12	B-Ph13	B-Ph14	B-Ph15	B-Ph16	

Term	0.00000e+00	0.00000e+00	0.00000e+00	0.00000e+00	0.00000e+00	0.00000e+00	0.00000e+00	0.00000e+00	0.00000e+00	0.00000e+00	0.00000e+00	0.00000e+00	0.00000e+00	0.00000e+00	0.00000e+00	0.00000e+00	0.00000e+00	0.00000e+00	0.00000e+00	0.00000e+00	0.00000e+00	0.00000e+00	0.00000e+00	0.00000e+00	0.00000e+00	0.00000e+00	0.00000e+00	0.00000e+00	0.00000e+00	0.00000e+00	0.00000e+00	0.00000e+00	-1.09754e+02	-1.38239e+02	-1.31532e+02	-1.81391e+02	-5.83897e+01	-6.33243e+01	-1.56241e+02	-1.62015e+02	-6.27957e+01	-6.37577e+01	-1.71665e+02	-1.69273e+02	-1.84696e+02	-1.76456e+02	-6.03418e+01	-1.48566e+02	
Factor	1.80032e-05	1.77734e-04	5.07847e-05	1.53170e-01	1.28778e-06	1.75967e-06	1.74453e-01	5.42787e-02	1.21557e-06	1.68431e-06	9.53181e-02	3.01745e-02	2.53625e-02	9.70778e-03	1.52160e-06	1.39865e-02	5.92495e-06	7.47141e-06	2.08445e-06	7.86376e-02	7.93799e-08	8.28280e-08	8.42936e-02	2.80420e-02	7.93589e-08	8.30258e-08	4.74837e-02	1.51785e-02	1.32141e-02	5.04186e-03	8.08542e-08	7.02531e-03	X	X	X	X	X	X	X	X	X	X	X	X	X	X	X	X	



#DISTANCE SETTINGS
A = Detector Channel
A-1	A-2	A-3	A-4	A-5	A-6	A-7	A-8	A-9	A-10	A-11	A-12	A-13	A-14	A-15	A-16	

2.5000e+00	3.0000e+00	2.5000e+00	3.0000e+00	2.0000e+00	3.0000e+00	1.5000e+00	3.0000e+00	3.0000e+00	3.0000e+00	3.0000e+00	3.0000e+00	3.0000e+00	3.0000e+00	1.5000e+00	3.0000e+00	

B = Detector Channel
B-1	B-2	B-3	B-4	B-5	B-6	B-7	B-8	B-9	B-10	B-11	B-12	B-13	B-14	B-15	B-16	

1.0000e+01	1.0000e+01	1.0000e+01	1.4400e+00	1.0000e+01	1.0000e+01	1.5100e+00	1.9400e+00	1.0000e+01	1.0000e+01	1.9900e+00	2.4900e+00	2.4100e+00	2.9000e+00	1.0000e+01	2.9800e+00	




#DATA BEGINS
time	group	step	mark	flag	A-AC1	A-AC2	A-AC3	A-AC4	A-AC5	A-AC6	A-AC7	A-AC8	A-AC9	A-AC10	A-AC11	A-AC12	A-AC13	A-AC14	A-AC15	A-AC16	A-DC1	A-DC2	A-DC3	A-DC4	A-DC5	A-DC6	A-DC7	A-DC8	A-DC9	A-DC10	A-DC11	A-DC12	A-DC13	A-DC14	A-DC15	A-DC16	A-Ph1	A-Ph2	A-Ph3	A-Ph4	A-Ph5	A-Ph6	A-Ph7	A-Ph8	A-Ph9	A-Ph10	A-Ph11	A-Ph12	A-Ph13	A-Ph14	A-Ph15	A-Ph16	B-AC1	B-AC2	B-AC3	B-AC4	B-AC5	B-AC6	B-AC7	B-AC8	B-AC9	B-AC10	B-AC11	B-AC12	B-AC13	B-AC14	B-AC15	B-AC16	B-DC1	B-DC2	B-DC3	B-DC4	B-DC5	B-DC6	B-DC7	B-DC8	B-DC9	B-DC10	B-DC11	B-DC12	B-DC13	B-DC14	B-DC15	B-DC16	B-Ph1	B-Ph2	B-Ph3	B-Ph4	B-Ph5	B-Ph6	B-Ph7	B-Ph8	B-Ph9	B-Ph10	B-Ph11	B-Ph12	B-Ph13	B-Ph14	B-Ph15	B-Ph16	aux-1	digaux	

35481.164	1	1	0	256	0.15044	0.074105	0.27702	0.15507	0.12334	0.11478	0.10049	0.15512	0.39036	0.12684	0.20349	0.31545	0.18768	0.059265	0.21968	0.12983	-0.71458	-0.8375	-0.30417	-1.2729	-0.49375	-0.78542	-1.5333	-0.27292	-1.0458	-1.1333	-0.28125	-1.1125	-0.62708	-0.79375	-1.2812	-0.23542	250.843	249.612	167.876	94.971	420.749	103.595	106.834	382.677	134.661	184.311	266.030	144.413	204.314	372.317	330.509	76.734	0.00026431	0.00028136	0.0001089	691.22	5.7323e-06	5.0311e-06	356.62	253.95	5.5286e-06	2.9343e-06	143.09	53.943	94.776	52.479	6.3629e-06	29.826	0.0016999	0.0020776	0.00057895	685.78	2.2413e-05	2.3312e-05	365.26	253.7	2.2182e-05	2.342e-05	150.81	56.456	95.985	52.607	2.2762e-05	30.77	196.804	132.666	237.528	83.614	102.532	422.241	81.983	89.116	243.061	133.469	85.135	89.230	93.075	96.432	96.209	91.050	-8191	255	
35481.262	1	1	0	0	0.14757	0.15717	0.071501	0.14602	0.19143	0.086546	0.1812	0.34871	0.28704	0.1278	0.21613	0.040207	0.18452	0.17335	0.25523	0.13184	-0.55625	-1.0583	-0.27708	-1.2417	-0.60208	-0.41875	-1.3042	-0.50833	-0.82292	-1.2687	-0.31042	-1.3917	-0.69792	-0.6875	-1.2062	-0.41042	376.147	319.139	288.231	371.711	132.420	211.337	93.525	379.513	301.191	375.797	320.198	317.877	103.565	196.879	71.893	93.303	0.00027388	0.00091232	0.00018158	685.48	4.1733e-06	3.3434e-06	358.12	254.35	3.6437e-06	1.6995e-06	144.38	53.808	94.704	52.76	3.3974e-06	29.701	0.001737	0.0021001	0.00058355	683.24	2.2507e-05	2.3372e-05	367.73	253.62	2.2545e-05	2.3389e-05	151.77	56.277	95.988	52.63	2.2797e-05	30.744	174.975	181.231	219.836	83.444	232.030	252.860	81.570	88.941	212.634	126.192	84.608	88.670	93.199	96.265	221.777	91.064	-8191	255	
35481.355	1	1	0	0	0.16871	0.11443	0.12461	0.059751	0.048841	0.13579	0.26068	0.30794	0.094641	0.097113	0.2334	0.093015	0.15628	0.20969	0.22955	0.17857	-0.42917	-0.97708	-0.38542	-1.1	-0.83958	-0.57292	-1.2313	-0.575	-0.59167	-1.4708	-0.34583	-0.88542	-1.1042	-0.45208	-1.2938	-0.73958	419.212	220.014	272.515	184.231	204.935	192.204	383.670	388.706	410.957	100.809	400.230	224.995	106.322	314.434	287.666	197.532	0.00022517	0.000421	0.00015529	686.52	3.5826e-06	1.1881e-05	358.05	252.94	9.2965e-07	2.4511e-06	144.38	54.319	94.329	52.286	3.1717e-06	29.837	0.0017362	0.0021012	0.00058721	682.36	2.2491e-05	2.3395e-05	366.3	252.99	2.2419e-05	2.3459e-05	151.5	56.57	95.815	52.584	2.2772e-05	30.881	173.236	352.807	210.269	83.533	211.670	193.527	82.041	89.064	315.430	387.703	85.316	89.209	93.177	96.806	149.671	91.457	-8191	255	
35481.453	1	1	0	0	0.02127	0.22593	0.24224	0.47661	0.24469	0.23245	0.072042	0.13428	0.074597	0.49705	0.027546	0.23163	0.04891	0.15978	0.12045	0.12763	-0.3	-1.0542	-0.32917	-1.2604	-1.0083	-0.21042	-1.2083	-0.68333	-0.53958	-1.3333	-0.39792	-0.91875	-1.0042	-0.5875	-1.2583	-0.80833	136.700	135.767	92.055	431.112	377.397	290.110	157.726	97.907	301.011	228.884	380.042	100.294	381.098	170.434	255.626	338.204	0.00027025	0.00032981	0.00010921	686.75	5.038e-06	3.2213e-06	358.4	253.83	1.9993e-06	6.6326e-06	144.91	54.133	94.855	52.434	8.1022e-06	30.12	0.0017313	0.0020927	0.00059025	683.93	2.2305e-05	2.3316e-05	366.64	253.06	2.2448e-05	2.3267e-05	152.44	56.609	96.038	52.743	2.2688e-05	31.209	179.237	403.685	184.969	83.504	268.577	254.799	81.672	89.165	261.593	233.201	85.323	88.945	93.517	96.640	214.024	90.906	-8191	255	
35481.547	1	1	0	0	0.10172	0.18413	0.10001	0.14878	0.10959	0.11075	0.25784	0.06645	0.14989	0.059278	0.16724	0.099471	0.10083	0.26559	0.042329	0.07182	-0.24375	-1.225	-0.37708	-0.98125	-1.1333	-0.45208	-1.225	-0.91667	-0.61667	-1.4292	-0.62083	-0.70625	-1.3	-0.62708	-1.3854	-0.82083	91.984	196.495	205.909	273.444	339.953	255.804	182.021	368.908	174.014	334.299	140.517	167.350	169.551	392.329	122.888	365.554	0.00029494	0.000306	9.6329e-05	692.78	9.2615e-06	8.4905e-06	364.55	254.83	5.0541e-06	1.0231e-05	145.61	55.093	95.809	52.9	2.5255e-06	30.099	0.0017361	0.0021287	0.00058682	687.51	2.2468e-05	2.3501e-05	371.58	254.81	2.2825e-05	2.3368e-05	153.68	57.308	97.017	52.964	2.2924e-05	31.224	179.752	352.674	217.492	83.680	180.079	189.061	81.421	88.938	242.310	218.401	85.038	89.006	93.293	96.730	241.203	91.632	-8191	255	
35481.645	1	1	0	0	0.18531	0.1495	0.19811	0.08814	0.18843	0.3115	0.093412	0.3338	0.065496	0.23463	0.17867	0.13054	0.13375	0.1397	0.20551	0.11928	0.01875	-1.225	-0.32917	-0.72917	-1.0938	-0.56667	-0.975	-1.0729	-0.30417	-1.0875	-0.675	-0.65625	-1.3146	-0.63333	-1.0125	-1.1646	426.479	159.984	316.477	72.680	381.259	164.657	398.151	341.372	252.025	176.070	247.212	217.051	174.232	412.288	362.859	180.946	0.00024595	0.00045851	0.00014495	694.99	4.4434e-06	4.3495e-06	362.93	255.91	5.6171e-06	1.1388e-06	145.7	54.543	94.702	52.561	3.9081e-06	30.184	0.0017335	0.0021139	0.00059051	690.61	2.2389e-05	2.3145e-05	370.85	255.55	2.2505e-05	2.3418e-05	152.9	56.789	96.398	52.729	2.3213e-05	31.049	179.692	410.176	109.317	83.769	187.638	257.003	81.920	89.061	197.984	205.897	85.259	89.219	93.481	96.710	251.980	91.350	-8191	255	
35481.742	1	1	0	0	0.16129	0.27175	0.042013	0.16194	0.25948	0.15311	0.21966	0.30153	0.17882	0.15514	0.079111	0.2258	0.42935	0.16306	0.14188	0.13733	-0.095833	-1.3542	-0.55833	-0.7625	-1.3542	-0.42708	-0.89792	-1.2687	-0.26875	-1.1917	-0.7875	-0.58958	-1.5604	-0.59167	-0.9125	-1.2604	131.404	323.792	143.255	423.530	206.745	208.027	146.440	376.016	184.666	276.962	205.924	428.212	426.876	369.545	190.296	79.842	0.00029495	0.00099845	0.00016276	693.63	1.6661e-06	9.854e-06	359.75	255.9	1.1812e-05	7.8614e-06	145.89	54.515	95.503	52.335	5.012e-07	30.314	0.001733	0.0021379	0.00059398	689.69	2.267e-05	2.3531e-05	369.76	254.86	2.2593e-05	2.3459e-05	152.95	56.969	96.505	52.776	2.3159e-05	31.108	178.940	165.038	374.666	83.869	265.523	140.674	81.913	88.908	197.242	246.979	85.149	89.511	93.201	96.874	167.995	91.729	-8191	255	
35481.859	1	1	0	0	0.18641	0.19776	0.28219	0.29187	0.14646	0.10532	0.26171	0.06082	0.15283	0.12354	0.19065	0.21872	0.16404	0.22653	0.11592	0.28207	0.020833	-1.1	-0.90625	-0.63333	-1.3104	-0.36458	-0.68333	-1.3813	-0.35625	-1.1458	-0.96875	-0.69792	-1.2708	-0.72292	-0.68542	-1.375	340.935	140.852	76.764	371.376	337.508	329.500	335.241	122.763	186.099	218.689	264.643	424.929	173.626	398.779	366.895	335.358	0.00019642	0.00021088	0.00011181	693.67	4.0891e-06	3.9883e-06	360.7	254.78	3.5989e-06	5.9711e-06	144.96	54.536	94.576	52.53	3.2736e-06	30.415	0.0017438	0.0021297	0.00059381	689.27	2.2634e-05	2.3572e-05	370.34	254.56	2.2539e-05	2.3826e-05	152.9	56.986	96.369	52.796	2.3013e-05	31.269	188.672	79.791	372.266	83.376	265.219	408.230	81.847	89.030	293.291	254.903	84.915	88.856	93.431	96.250	253.115	91.700	-8191	255	
35481.957	1	1	0	0	0.029908	0.28676	0.085978	0.42861	0.18156	0.26148	0.088226	0.23666	0.44239	0.21377	0.58508	0.27973	0.11084	0.22675	0.11737	0.22916	-0.10833	-1	-0.97292	-0.5875	-1.125	-0.67917	-0.51667	-1.5167	-0.54583	-1.0479	-1.1083	-0.26458	-1.075	-0.84375	-0.69167	-1.4312	198.560	379.687	146.099	349.098	257.084	397.666	260.984	411.213	208.227	328.199	232.486	378.825	87.998	81.030	237.358	385.056	0.00024311	0.00090566	0.00021167	692.12	7.2742e-06	2.9039e-06	362.88	254.87	4.7246e-06	2.6458e-06	145.43	54.539	95.775	52.682	4.6317e-06	30.601	0.0017586	0.0021613	0.00059443	688.7	2.266e-05	2.3804e-05	371.11	254.62	2.2554e-05	2.3925e-05	153.48	57.073	96.537	52.853	2.3159e-05	31.353	186.130	92.675	134.436	83.547	233.319	409.346	82.193	88.759	280.908	151.057	85.009	89.069	93.254	96.557	164.818	91.300	-8191	255	
35482.027	1	1	0	0	0.12273	0.14378	0.092731	0.10381	0.043684	0.092802	0.14656	0.37021	0.12528	0.10541	0.13548	0.20198	0.041567	0.058878	0.33585	0.14435	-0.091667	-0.88542	-1.0979	-0.4625	-1.2792	-0.86667	-0.56875	-1.5042	-0.50417	-0.95417	-1.1417	-0.4	-1.3542	-0.88958	-0.45625	-1.25	343.380	337.697	427.188	396.064	425.716	108.935	346.473	330.792	230.629	77.592	326.705	245.043	398.525	417.692	192.727	342.062	0.00019429	0.00076264	0.0001671	692.79	3.0684e-06	6.6066e-06	360.29	254.33	3.9676e-06	5.5423e-06	144.94	54.229	95.132	52.356	5.5997e-06	29.744	0.0017472	0.0021141	0.00058596	689.09	2.2594e-05	2.3285e-05	368.28	254.65	2.2556e-05	2.3491e-05	152.01	56.755	96.18	52.562	2.2887e-05	30.888	202.295	177.339	97.437	83.758	276.749	209.733	82.131	88.840	210.262	297.563	85.150	88.966	93.461	96.829	209.251	91.507	-8191	255	
35482.148	1	1	0	0	0.14571	0.034088	0.01805	0.15176	0.14681	0.17023	0.075693	0.1614	0.29225	0.14596	0.22587	0.22771	0.068642	0.18188	0.17978	0.152	-0.35625	-0.725	-1.0917	-0.58542	-1.0167	-0.90833	-0.50833	-1.3021	-0.57083	-0.48542	-1.3917	-0.58125	-1.0521	-1.1	-0.43958	-1.3521	100.289	184.236	102.029	402.607	250.709	372.051	418.713	422.152	92.734	247.161	394.210	104.688	361.809	334.632	85.101	404.535	0.00028671	0.0010019	0.00032463	685.67	1.8577e-06	4.1259e-06	354.86	253.19	1.1416e-06	2.396e-06	144.36	53.61	93.902	52.145	1.3357e-05	29.904	0.00174	0.0020975	0.00058767	683.38	2.2539e-05	2.3337e-05	364.45	252.91	2.2484e-05	2.3309e-05	151.57	56.051	95.4	52.248	2.2726e-05	30.683	193.648	202.513	218.175	83.721	344.209	277.624	81.708	88.808	424.333	129.378	85.445	88.819	93.416	96.540	247.166	91.474	-8191	255	
35482.242	1	1	0	0	0.2502	0.13319	0.11978	0.153	0.13974	0.17178	0.15749	0.14162	0.17304	0.26072	0.18669	0.17237	0.15718	0.22385	0.055028	0.14537	-0.325	-0.70833	-1.3417	-0.43125	-0.94792	-1.15	-0.55208	-1.4146	-0.52292	-0.58333	-1.4	-0.4375	-1.1354	-1.0812	-0.23333	-1.2062	226.611	241.862	147.752	334.789	90.315	76.598	376.557	386.870	260.666	343.687	158.621	330.985	385.365	380.625	201.710	352.028	0.00021986	0.00029854	0.00011596	683.6	1.2861e-06	6.2976e-06	353.51	253.21	6.826e-06	9.3741e-06	143.65	53.739	94.723	52.056	7.2808e-06	30.069	0.0017341	0.0021127	0.0005887	680.94	2.2337e-05	2.2883e-05	363.25	252.57	2.2474e-05	2.332e-05	151.42	56.365	95.597	52.167	2.2766e-05	30.781	196.861	86.184	387.037	83.435	405.020	146.791	81.987	89.145	233.168	365.429	84.906	88.823	93.244	96.805	190.677	91.052	-8191	255	
35482.344	1	1	0	0	0.29326	0.35256	0.083593	0.14044	0.22131	0.3568	0.29466	0.055604	0.29542	0.18519	0.37561	0.054621	0.42558	0.41524	0.17402	0.35048	-0.34792	-0.375	-1.2854	-0.78958	-0.88333	-1.25	-0.425	-1.3667	-0.78542	-0.40417	-1.4646	-0.725	-0.85833	-1.3563	-0.3125	-1.1104	267.331	423.363	377.912	371.785	252.821	359.931	239.455	195.003	204.771	404.814	315.857	271.638	383.391	412.125	183.990	402.082	0.00023412	0.00055663	0.00022564	685.58	8.0668e-06	4.664e-06	355.88	252.89	2.9893e-06	6.1786e-06	143.75	53.87	94.535	51.817	1.4645e-05	30.023	0.0017237	0.0020982	0.00058304	681.88	2.2241e-05	2.307e-05	365.38	252.6	2.2219e-05	2.3276e-05	151.42	56.317	95.54	52.206	2.2759e-05	30.931	184.215	144.055	233.732	83.570	265.853	247.124	81.722	88.896	274.438	220.917	85.331	89.107	93.301	96.567	211.776	91.169	-8191	255	
35482.461	1	1	0	0	0.2204	0.046028	0.043791	0.31877	0.064335	0.0526	0.26654	0.12777	0.10535	0.24589	0.40171	0.16507	0.082502	0.49451	0.14246	0.18218	-0.43958	-0.47708	-1.0688	-0.66667	-0.68333	-1.3521	-0.40833	-1.0625	-0.99792	-0.43958	-1.4062	-0.53333	-0.80833	-1.5271	-0.29792	-0.9875	390.047	345.566	135.647	428.808	215.769	340.112	115.166	392.071	150.615	401.781	330.828	367.553	276.577	75.759	267.390	282.288	0.0002533	0.0002279	0.00015966	688.92	1.5795e-06	3.6411e-06	358.17	252.3	5.7022e-06	2.185e-06	144.84	54.227	95.329	52.291	7.8989e-06	30.288	0.0017286	0.0020996	0.00058796	683.92	2.2397e-05	2.3286e-05	365.95	252.94	2.2406e-05	2.3365e-05	152.75	56.858	96.2	52.579	2.2771e-05	30.985	175.940	418.795	145.963	83.648	215.756	418.436	81.967	89.122	167.075	237.375	85.151	88.823	93.394	96.831	278.255	91.018	-8191	255	
35482.559	1	1	0	0	0.086603	0.17168	0.11448	0.041663	0.18566	0.0797	0.26273	0.21514	0.3503	0.29422	0.29177	0.17846	0.24514	0.18238	0.12139	0.16355	-0.67917	-0.31042	-1.1729	-0.94792	-0.48333	-1.2229	-0.62292	-0.88958	-1.3188	-0.26667	-1.3292	-0.825	-0.43333	-1.3083	-0.54167	-0.88958	75.347	219.458	124.181	363.380	282.781	371.380	358.732	355.607	370.615	327.007	378.881	201.869	393.852	424.831	427.975	371.243	0.00019962	0.00043361	0.00018903	687.03	4.0811e-06	7.311e-06	355.78	253.97	1.927e-06	5.7286e-06	144.11	53.673	94.564	51.896	1.0383e-05	29.675	0.0017276	0.0020977	0.00058746	683.76	2.2323e-05	2.2929e-05	363.95	253.78	2.2255e-05	2.3046e-05	151.02	56.014	95.7	52.224	2.2912e-05	30.507	194.829	116.912	143.390	83.617	151.453	289.207	81.768	89.115	307.453	311.875	85.258	88.958	93.379	96.595	205.183	91.961	-8191	255	
35482.629	1	1	0	0	0.19	0.28388	0.17051	0.17307	0.066644	0.1675	0.20966	0.28236	0.12615	0.11093	0.27526	0.034657	0.14922	0.09133	0.21725	0.045255	-0.83958	-0.53125	-1.1271	-0.89375	-0.54792	-1.5479	-0.75625	-0.75417	-1.3667	-0.32083	-1.1875	-0.81667	-0.43958	-1.3813	-0.56667	-0.47708	395.259	419.665	187.101	403.553	328.019	309.148	240.070	285.086	231.865	105.057	316.993	188.652	389.382	257.232	221.010	358.423	0.00024391	0.00032275	0.00014853	681.73	1.6994e-06	3.629e-06	354.17	251.59	5.3323e-06	9.1595e-06	142.68	53.025	94.202	51.612	3.9464e-06	29.434	0.0017041	0.0021021	0.00057967	679.59	2.2394e-05	2.3253e-05	363.85	252.11	2.2246e-05	2.3162e-05	150.28	55.822	95.435	52	2.2685e-05	30.385	160.574	256.017	150.133	83.360	429.824	306.498	82.079	89.139	209.161	228.451	85.884	88.777	93.261	97.005	422.931	91.484	-8191	255	
35482.750	1	1	0	0	0.1066	0.023073	0.089446	0.25394	0.10042	0.18854	0.059252	0.1446	0.2973	0.077968	0.048225	0.31107	0.098926	0.15691	0.055457	0.36093	-0.8125	-0.22292	-1.0729	-1.0083	-0.35417	-1.4042	-0.83333	-0.57083	-1.3687	-0.46875	-0.94375	-1.2042	-0.25	-1.3229	-0.88958	-0.77083	99.565	172.461	216.474	369.633	331.648	244.514	167.687	337.339	114.556	118.845	284.820	416.907	371.803	155.128	271.584	98.411	0.00016124	0.00054093	0.00012446	688.05	2.9069e-06	5.1305e-06	355.82	251	2.0366e-06	3.8028e-06	143.21	53.408	93.91	51.876	3.442e-06	29.802	0.0017072	0.0021017	0.00058572	680.85	2.2203e-05	2.3566e-05	364.07	251.78	2.2298e-05	2.3192e-05	150.9	55.927	95.289	52.202	2.2997e-05	30.606	180.481	238.676	181.818	83.450	295.428	265.563	81.349	88.892	160.262	279.818	85.026	88.638	93.314	96.770	235.426	91.515	-8191	255	
35482.848	1	1	0	0	0.21593	0.26272	0.30848	0.023595	0.16491	0.12275	0.10629	0.11687	0.13098	0.12968	0.073521	0.22704	0.027976	0.23331	0.11744	0.24973	-0.825	-0.4	-0.75625	-1.1458	-0.28542	-1.1875	-0.82917	-0.49583	-1.1708	-0.425	-0.97292	-1.1771	-0.41667	-1.2375	-0.94375	-0.32083	155.271	149.705	372.064	291.338	357.846	223.652	391.395	369.397	404.565	276.548	226.477	179.924	233.898	355.056	184.299	76.364	0.00024677	0.00076028	0.00032709	684.28	4.6785e-07	6.5177e-06	356.38	253.16	8.6965e-06	4.3374e-06	144.89	53.954	94.167	52.331	4.4719e-06	29.839	0.001729	0.0020856	0.00060048	681.89	2.2357e-05	2.3081e-05	364.45	253.01	2.2111e-05	2.3348e-05	152.25	56.293	95.5	52.409	2.2495e-05	30.826	184.161	142.159	149.335	83.447	382.836	89.377	82.099	88.905	221.694	194.253	85.222	88.593	92.977	96.738	308.683	91.448	-8191	255	
35482.941	1	1	0	0	0.19058	0.1473	0.12075	0.2605	0.11735	0.11168	0.078004	0.2021	0.048441	0.18611	0.23141	0.053598	0.16619	0.084547	0.27107	0.29322	-0.83542	-0.45417	-0.7625	-1.2896	-0.41042	-1.0729	-1.0792	-0.39583	-1.3479	-0.77083	-0.88125	-1.3125	-0.35	-1.175	-0.95833	-0.58125	291.042	253.431	401.527	367.452	263.653	339.768	179.997	354.298	405.676	219.103	137.385	402.694	128.249	216.014	79.378	79.764	0.0002035	0.00017056	0.00017637	686.07	6.5901e-06	1.2281e-06	356.38	254.44	5.1488e-06	6.8581e-06	145.84	54.328	94.627	52.04	6.538e-06	29.756	0.0016878	0.0020779	0.00057828	682.76	2.2026e-05	2.3298e-05	366.25	254.69	2.2185e-05	2.2901e-05	152.64	56.546	96.048	52.377	2.2492e-05	30.658	192.485	110.435	355.394	83.607	210.567	354.493	81.561	89.085	205.196	207.862	85.673	88.703	93.036	96.647	256.521	91.193	-8191	255	
35483.039	1	1	0	0	0.20289	0.32431	0.27474	0.16095	0.08918	0.03065	0.15328	0.31914	0.19	0.15526	0.23261	0.22772	0.017905	0.24247	0.13985	0.1376	-0.86042	-0.65208	-0.4125	-1.3417	-0.49583	-1.0375	-1.2375	-0.52917	-1.1708	-0.68333	-0.38333	-1.2646	-0.56042	-1.0792	-1.1542	-0.28125	281.546	164.581	253.618	103.972	196.991	399.967	267.041	423.318	182.194	115.859	263.289	217.816	385.345	91.003	391.524	88.971	0.00029726	0.00078432	0.00016039	689.23	3.0869e-06	2.4418e-06	355.69	253.09	4.5695e-06	5.1e-06	144.61	53.791	93.604	51.695	5.9539e-06	29.262	0.0016876	0.002057	0.00057502	683.94	2.2145e-05	2.3067e-05	363.64	252.47	2.2132e-05	2.3151e-05	150.99	56.025	95.001	51.933	2.2435e-05	30.166	192.317	177.873	246.722	83.724	263.833	295.230	81.758	88.666	270.305	261.108	85.752	89.242	93.123	96.710	155.143	91.336	-8191	255	
35483.156	1	1	0	0	0.11721	0.20889	0.23815	0.086119	0.26677	0.22408	0.097918	0.25377	0.090414	0.43605	0.099999	0.28561	0.17399	0.19443	0.1391	0.016825	-0.74375	-0.84167	-0.60833	-1.5438	-0.62917	-0.86875	-1.2896	-0.5125	-1.2833	-0.975	-0.575	-1.3833	-0.78125	-0.85	-1.3646	-0.56875	329.934	407.195	376.780	374.632	84.445	259.403	224.326	366.552	376.427	374.512	404.132	346.777	293.816	83.863	430.361	346.521	0.00015284	0.00067704	5.769e-05	682.6	6.6794e-06	8.7713e-06	353.44	250	7.6012e-07	4.3807e-06	141.27	52.975	93.393	51.271	2.9406e-07	29.305	0.0017005	0.0021078	0.00057535	677.59	2.1786e-05	2.2739e-05	359.14	250.22	2.2169e-05	2.2624e-05	149.4	55.449	94.557	51.639	2.2082e-05	30.214	177.575	197.582	400.716	83.735	249.845	185.337	82.086	88.941	77.358	107.605	85.703	88.569	93.333	96.696	426.353	91.193	-8191	255	
35483.254	1	1	0	0	0.29643	0.10517	0.08192	0.10242	0.12577	0.085395	0.17176	0.41919	0.27492	0.22428	0.16918	0.31571	0.038139	0.1795	0.24627	0.33902	-0.72083	-0.90208	-0.43958	-1.3625	-0.70833	-0.65833	-1.4813	-0.49167	-0.84167	-1.3188	-0.43958	-1.2188	-0.99583	-0.61667	-1.3708	-0.43542	246.236	222.983	129.547	270.870	313.233	211.470	376.410	390.099	111.201	309.617	237.920	356.395	331.530	419.420	143.246	78.425	0.00026323	0.0007024	0.0001185	678.57	8.0905e-06	5.4426e-06	347.5	251.96	7.0854e-06	4.9641e-06	142.68	53.475	94.184	51.613	4.1486e-06	29.489	0.0016801	0.0020599	0.00057302	674.86	2.1842e-05	2.2653e-05	358.67	251.19	2.1916e-05	2.2393e-05	150.03	55.781	94.9	51.827	2.1885e-05	30.387	188.399	191.057	74.931	83.603	271.639	239.054	81.991	89.135	200.448	373.737	85.566	89.383	93.175	96.647	250.910	91.019	-8191	255	
35483.324	1	1	0	0	0.15837	0.34458	0.27251	0.29056	0.073726	0.10007	0.056806	0.11519	0.080069	0.26476	0.10213	0.01837	0.24049	0.22876	0.14237	0.13926	-0.51667	-1.125	-0.32708	-1.3604	-0.77292	-0.48958	-1.4896	-0.60625	-0.80417	-1.2646	-0.35208	-1.2521	-1.0625	-0.35208	-1.1083	-0.54167	110.002	71.828	305.713	385.962	71.407	287.963	164.418	352.269	93.922	423.358	415.122	105.009	352.445	369.538	142.957	136.238	0.00016502	0.00013024	0.00016643	681.65	7.2847e-06	2.7211e-06	350.29	250.72	5.2376e-06	3.1587e-06	144.32	53.211	94.275	52.11	2.2476e-06	29.908	0.0016541	0.0020286	0.00056286	676.45	2.135e-05	2.2418e-05	360	251.36	2.1674e-05	2.2655e-05	150.8	56.03	95.236	52.113	2.1842e-05	30.681	164.709	371.064	161.416	83.884	213.373	229.118	81.872	88.989	220.510	279.348	85.227	89.211	93.350	96.734	272.342	91.656	-8191	255	
35483.422	1	1	0	0	0.32776	0.27856	0.071063	0.14087	0.17935	0.24056	0.16922	0.24826	0.26459	0.14048	0.1774	0.20899	0.097721	0.10585	0.14802	0.096949	-0.12917	-0.975	-0.30208	-1.1812	-0.87292	-0.53542	-1.4229	-0.57708	-0.73958	-1.4646	-0.34792	-1.0375	-1.0125	-0.47708	-1.2208	-0.70833	189.242	408.512	274.502	88.506	275.563	368.237	187.485	391.272	83.365	394.526	387.582	406.917	378.890	424.697	205.978	240.307	0.00013319	0.0011153	0.00023294	683.19	6.2953e-06	9.7511e-06	351.8	252.01	4.2368e-06	2.4505e-06	143.19	54.041	94.049	52.094	7.1679e-06	29.312	0.0016641	0.0020127	0.00056287	679.71	2.1887e-05	2.2594e-05	359.82	252.65	2.1654e-05	2.2533e-05	150.38	56.1	95.296	52.132	2.1954e-05	30.359	166.609	171.355	125.063	83.783	288.449	138.043	81.975	88.965	204.093	79.160	85.017	89.174	92.962	96.798	188.894	91.294	-8191	255	
35483.539	1	1	0	0	0.10658	0.18689	0.10159	0.19896	0.1788	0.19147	0.031154	0.17902	0.098174	0.044212	0.18645	0.31609	0.22471	0.17457	0.31917	0.10016	-0.26875	-1.3687	-0.34375	-1.0854	-1.0229	-0.31458	-1.4292	-0.775	-0.725	-1.2917	-0.50833	-0.94167	-1.1708	-0.51875	-1.4375	-1.0208	76.983	386.549	387.336	396.242	313.276	297.249	140.165	79.754	195.651	101.743	121.534	161.096	358.832	107.382	367.920	317.191	0.00027011	0.0005812	0.00024109	684.42	2.0933e-06	1.2134e-05	350.76	251.49	3.1177e-06	9.4189e-06	142.73	53.451	93.772	51.623	4.0465e-06	29.667	0.0016606	0.0020254	0.00057649	678.04	2.1655e-05	2.2343e-05	359.98	251.66	2.1833e-05	2.2625e-05	150.47	55.822	95.126	52.007	2.1985e-05	30.436	181.539	159.903	159.160	83.764	254.556	243.659	82.054	88.813	105.649	306.982	85.076	89.086	93.212	96.643	196.848	91.088	-8191	255	
35483.637	1	1	0	0	0.12759	0.33574	0.22734	0.11326	0.12707	0.19725	0.05959	0.1731	0.089185	0.2049	0.29986	0.084304	0.33514	0.2196	0.19214	0.3166	-0.20208	-1.3833	-0.33125	-0.8625	-1.2896	-0.48333	-1.2458	-0.96667	-0.55	-1.3583	-0.40833	-0.74792	-1.3917	-0.58125	-1.0333	-0.96042	130.227	227.723	424.653	354.066	415.108	256.264	340.624	320.013	346.215	371.216	366.197	129.165	315.241	326.610	122.935	340.790	0.00018568	0.000887	0.0001135	683.96	6.2567e-06	9.1394e-06	349.28	251.93	7.5811e-06	6.1303e-06	143.53	53.653	93.574	51.995	4.9335e-06	29.701	0.0016809	0.0020291	0.00057311	678.48	2.1563e-05	2.2703e-05	359.95	252.18	2.1861e-05	2.2799e-05	151.05	56.054	95.038	52.178	2.2504e-05	30.537	187.489	195.033	165.671	83.617	251.535	226.918	81.972	88.993	252.841	274.018	85.674	89.287	93.349	96.611	218.997	91.270	-8191	255	
35483.734	1	1	0	0	0.26749	0.057772	0.15964	0.23702	0.13014	0.25853	0.12623	0.33591	0.1099	0.047794	0.22319	0.31927	0.12703	0.065758	0.16258	0.27226	-0.13333	-1.3625	-0.48125	-0.75	-1.4083	-0.4	-1.1958	-1.0646	-0.48125	-1.3333	-0.78333	-0.53333	-1.2667	-0.56458	-1.1688	-1.1729	427.500	191.019	223.220	422.999	84.859	257.458	246.666	402.490	119.854	346.552	93.715	118.804	367.361	408.181	228.870	349.096	0.00028151	0.0011669	0.00011486	683.12	2.8853e-07	2.8468e-06	354.27	253.48	3.4152e-06	3.4388e-06	143.86	53.729	94.123	52.21	2.4698e-06	29.688	0.001672	0.0020369	0.00057783	680.34	2.1629e-05	2.2836e-05	362.09	252.85	2.1897e-05	2.2741e-05	151.07	56.177	95.358	52.307	2.2391e-05	30.654	179.086	126.342	261.805	83.661	275.978	221.410	81.623	89.208	186.806	111.762	84.945	89.391	93.445	96.472	281.097	91.401	-8191	255	
35483.828	1	1	0	0	0.11366	0.082366	0.25689	0.18762	0.082696	0.27397	0.37117	0.25664	0.053954	0.23296	0.28697	0.16259	0.095243	0.22101	0.27374	0.38916	0.20833	-1.0542	-0.575	-0.67292	-1.275	-0.51042	-0.89583	-1.2646	-0.20833	-1.4042	-0.77917	-0.37292	-1.3979	-0.66667	-0.8875	-1.0854	291.114	343.618	190.806	406.811	372.087	175.700	240.346	413.131	283.330	197.780	380.042	196.119	259.198	390.406	341.094	399.085	0.00025629	0.00067941	0.00026268	685.94	4.1466e-06	5.1928e-06	352.45	252.54	3.5891e-06	5.6422e-06	144.51	54.54	94.288	52.119	4.6376e-06	29.791	0.0016952	0.0020665	0.00057339	681.44	2.1777e-05	2.3147e-05	363.85	253.02	2.1905e-05	2.3334e-05	152	56.539	95.674	52.346	2.2134e-05	30.59	182.104	384.061	138.357	83.956	228.438	352.125	82.196	89.273	229.257	236.603	85.144	88.903	93.485	96.776	242.477	91.443	-8191	255	
35483.926	1	1	0	0	0.12837	0.2292	0.15972	0.1147	0.09935	0.23597	0.14463	0.42014	0.13918	0.22562	0.34984	0.14581	0.27067	0.16747	0.21982	0.28096	0.064583	-1.0938	-0.875	-0.50833	-1.2875	-0.37917	-0.59167	-1.3146	-0.41875	-1.0562	-1.1792	-0.39375	-1.2125	-0.76042	-0.73125	-1.4354	301.849	200.627	252.080	292.614	165.903	109.376	302.557	342.721	251.879	341.110	284.828	301.840	302.894	358.150	159.328	351.730	0.00022923	0.0010326	0.00028578	687.26	6.9284e-06	2.9403e-06	355.88	252.66	1.6546e-06	5.6012e-06	144.9	53.546	94.285	52.048	6.7985e-06	29.633	0.0017067	0.0020668	0.00057791	681.62	2.1868e-05	2.2998e-05	361.77	252.76	2.1897e-05	2.2751e-05	150.8	55.824	95.477	52.101	2.2578e-05	30.331	194.893	151.241	190.212	83.780	235.930	151.989	82.292	88.863	303.434	277.762	84.741	89.601	93.131	96.552	280.356	91.341	-8191	255	
35484.023	1	1	0	0	0.27644	0.18332	0.1314	0.23482	0.054813	0.18227	0.1072	0.34372	0.21529	0.13514	0.44924	0.19189	0.2323	0.2348	0.10742	0.45918	-0.025	-1.0688	-0.83333	-0.43958	-1.1812	-0.775	-0.66042	-1.4875	-0.37917	-0.95833	-1.1292	-0.38958	-1.2021	-0.72083	-0.475	-1.4021	411.392	234.608	216.800	116.363	150.613	369.292	339.747	336.804	401.491	346.022	384.465	359.168	353.008	371.559	295.085	305.555	0.00019095	0.0009081	0.0001333	687.9	9.3115e-06	4.2236e-06	350.97	252.79	3.5327e-06	5.0678e-06	142.24	52.52	94.139	51.61	9.6578e-06	29.503	0.0016829	0.0020504	0.00057049	681.62	2.1966e-05	2.2745e-05	361	251.66	2.1671e-05	2.2736e-05	149.81	55.351	95.069	51.771	2.2155e-05	30.266	200.562	98.912	178.549	83.926	254.644	235.177	81.981	88.908	174.187	211.892	85.071	88.955	93.342	96.414	208.050	91.702	-8191	255	
35484.145	1	1	0	0	0.04721	0.20614	0.14379	0.071498	0.24255	0.16997	0.14009	0.18766	0.25515	0.087284	0.12933	0.28329	0.081591	0.22869	0.062624	0.2467	-0.11458	-0.79583	-0.94375	-0.45208	-1.2583	-0.60833	-0.32292	-1.4625	-0.34167	-0.76875	-1.1604	-0.30417	-1.1604	-0.91042	-0.28542	-1.0604	378.398	308.378	417.410	184.353	166.416	318.068	316.296	331.134	207.906	167.109	101.530	247.556	299.617	150.029	157.409	302.094	0.00020654	0.00092982	0.00021177	681.8	6.6766e-06	5.0205e-06	347.54	252.32	3.7566e-06	7.4531e-06	141.53	53.277	93.678	51.346	9.3919e-06	29.595	0.0016784	0.0020318	0.00056577	677.51	2.1731e-05	2.2561e-05	358.61	251.62	2.152e-05	2.2265e-05	149.56	55.609	95.175	51.704	2.2021e-05	30.281	198.010	141.671	154.872	83.268	266.855	137.047	82.142	89.011	237.575	180.054	85.101	89.282	93.696	96.562	166.920	91.194	-8191	255	
35484.238	1	1	0	0	0.10184	0.16523	0.1642	0.19715	0.2193	0.33058	0.12202	0.21878	0.18752	0.27942	0.25093	0.10861	0.2873	0.1518	0.28548	0.10534	-0.24583	-0.72083	-1.1812	-0.50208	-0.89792	-1.2479	-0.14583	-1.2354	-0.62083	-0.6375	-1.2146	-0.36458	-0.92083	-1.2021	-0.23333	-1.1333	272.127	254.623	79.115	103.028	311.059	328.264	336.039	349.420	97.668	275.478	76.462	221.446	78.389	374.590	193.883	161.471	0.00029272	0.00050158	0.00024408	679.27	6.7808e-06	2.6776e-06	350.13	252.46	2.0537e-06	1.4923e-06	144.27	53.6	94.258	51.551	7.7376e-06	29.707	0.0016756	0.0020155	0.00056479	675.81	2.1433e-05	2.2457e-05	359.01	251.68	2.1422e-05	2.2334e-05	150.8	55.975	95.145	51.896	2.1845e-05	30.514	176.315	191.339	182.743	83.601	262.735	209.886	82.078	88.942	344.218	307.050	84.834	89.378	93.201	96.796	270.638	91.258	-8191	255	
35484.332	1	1	0	0	0.10757	0.095237	0.09105	0.021259	0.04803	0.16199	0.18173	0.12755	0.058706	0.10187	0.18792	0.18222	0.11144	0.060894	0.096585	0.19042	-0.28333	-0.53125	-1.1583	-0.58542	-0.94167	-1.1375	-0.28958	-1.2854	-0.79583	-0.62292	-1.3	-0.50417	-0.82083	-1.3021	-0.23958	-1.3333	290.456	313.178	263.671	87.878	284.690	271.593	111.791	389.859	426.748	136.678	124.884	162.109	344.821	119.419	334.895	397.893	0.00020117	0.00023873	0.00024387	681.81	1.8747e-06	5.675e-06	355.01	254.61	1.7748e-06	4.2574e-06	143.53	53.481	94.114	52.039	2.7791e-06	29.566	0.0016448	0.0020005	0.00055992	678	2.1567e-05	2.2352e-05	361.19	253.62	2.1292e-05	2.2542e-05	151.14	55.927	95.54	52.156	2.1749e-05	30.387	173.153	122.445	193.950	83.529	360.989	239.274	82.219	89.053	237.281	238.265	85.107	88.745	93.314	96.701	171.683	91.533	-8191	255	
35484.430	1	1	0	0	0.19376	0.1879	0.14645	0.098934	0.018637	0.089795	0.12302	0.21395	0.255	0.12332	0.050217	0.10748	0.28076	0.13148	0.089566	0.13742	-0.51042	-0.37917	-1.2313	-0.65833	-0.84583	-1.3188	-0.32708	-1.1042	-0.87083	-0.39375	-1.4167	-0.76458	-0.7625	-1.2604	-0.45	-1.2146	350.210	260.844	237.223	379.571	201.296	367.248	377.434	76.223	231.791	428.128	379.629	416.210	417.201	356.469	375.431	231.965	0.00012074	0.00031638	9.0874e-05	678.31	7.6715e-06	3.8272e-06	350.44	251.73	2.2357e-06	7.8862e-06	144.74	53.237	94.061	51.982	4.5601e-06	29.527	0.001645	0.0019895	0.00055344	676.31	2.1454e-05	2.2e-05	358.2	252.17	2.1546e-05	2.2135e-05	150.76	55.654	95.241	52.003	2.206e-05	30.382	164.493	208.833	214.553	83.456	206.672	202.244	82.003	89.144	108.302	256.140	84.836	89.154	93.103	96.562	279.618	91.460	-8191	255	
35484.551	1	1	0	0	0.28022	0.1811	0.33077	0.2182	0.1977	0.23779	0.21868	0.20085	0.21114	0.027585	0.24583	0.066654	0.28606	0.2141	0.10983	0.15449	-0.69792	-0.32917	-1.2729	-0.90625	-0.58125	-1.2667	-0.47292	-1.0771	-1.0542	-0.34167	-1.3417	-0.71458	-0.56667	-1.3354	-0.44583	-0.93958	144.280	276.989	315.842	122.680	279.623	159.504	330.823	92.418	396.030	119.163	386.769	298.742	139.707	418.445	205.736	261.427	0.00029156	0.0010188	5.9745e-05	678.84	2.3469e-06	3.5244e-06	352.17	253.61	5.6575e-06	4.5905e-06	144.22	53.755	94.393	51.84	1.1863e-05	29.578	0.0016411	0.0019918	0.0005557	674.96	2.139e-05	2.2185e-05	359.2	252.61	2.1275e-05	2.215e-05	150.44	56.018	95.19	52.024	2.1961e-05	30.413	178.159	250.923	385.120	83.501	242.695	194.090	81.529	88.809	299.427	190.746	85.532	88.999	93.025	96.589	227.015	91.433	-8191	255	
35484.621	1	1	0	0	0.22249	0.21624	0.084635	0.15383	0.2048	0.15304	0.16944	0.39847	0.077844	0.27998	0.19673	0.046812	0.24566	0.29728	0.26806	0.11849	-0.60417	-0.30417	-1.0646	-0.91667	-0.5125	-1.525	-0.48958	-1.1021	-1.2667	-0.2875	-1.2062	-0.70625	-0.40208	-1.3125	-0.51667	-0.675	238.431	134.396	211.140	268.711	391.423	328.117	341.320	350.945	167.392	257.726	343.348	286.358	410.919	116.350	225.298	384.040	0.00025793	0.00071799	0.0001698	685.93	4.8028e-06	3.1558e-06	355.07	252.65	9.5753e-06	1.2997e-05	145.58	53.843	93.2	52.088	6.3249e-06	29.545	0.0016496	0.0020083	0.00056216	677.58	2.1415e-05	2.2076e-05	361.19	252.45	2.1424e-05	2.2166e-05	151.37	55.901	95.051	52.174	2.1956e-05	30.494	181.403	220.078	145.066	83.647	194.149	123.297	81.689	89.254	216.236	271.045	85.352	89.271	93.582	96.835	242.067	91.583	-8191	255	
35484.719	1	1	0	0	0.29993	0.3094	0.11173	0.34153	0.10569	0.30573	0.18747	0.19356	0.27303	0.22597	0.14323	0.11602	0.17062	0.37545	0.081084	0.29142	-0.76458	-0.36667	-0.89583	-1.1042	-0.2625	-1.375	-0.42292	-0.81667	-1.4062	-0.54583	-1.0125	-0.90833	-0.4	-1.3563	-0.84375	-0.61667	93.514	271.601	136.971	428.031	113.804	369.214	86.722	424.289	365.596	405.445	209.556	310.410	218.402	106.373	188.578	341.608	0.0002988	0.00051538	0.00020326	682.74	6.8215e-06	7.0677e-06	354.48	253.57	2.2974e-06	4.3423e-06	143.42	53.656	95.042	52.455	3.9589e-06	29.842	0.0016399	0.0020548	0.00057155	679.29	2.1512e-05	2.2235e-05	362.15	253.57	2.1245e-05	2.2257e-05	151.51	56.27	95.927	52.567	2.221e-05	30.808	187.647	386.883	246.859	83.550	263.159	243.424	81.775	89.215	402.898	144.583	85.277	89.234	93.361	96.626	184.436	91.548	-8191	255	
35484.812	1	1	0	0	0.14316	0.30292	0.21225	0.14764	0.056306	0.15601	0.16176	0.29383	0.19016	0.24446	0.10721	0.083002	0.16774	0.34465	0.16637	0.09127	-1.0604	-0.2625	-0.94375	-0.98958	-0.40625	-1.3208	-0.7625	-0.49583	-1.2792	-0.52083	-0.99167	-1.1542	-0.35833	-1.3854	-0.67083	-0.5	256.088	422.063	397.673	427.163	154.669	341.465	402.816	375.506	322.573	251.398	258.137	218.015	101.543	153.375	300.731	230.336	0.00027286	0.00067637	0.00031476	688.59	2.8312e-06	7.1408e-06	357.06	255.32	6.0178e-07	6.6589e-06	145.59	53.801	94.77	52.112	3.126e-06	29.796	0.0016626	0.0020603	0.00056517	683.5	2.1536e-05	2.2552e-05	362.91	254.5	2.1728e-05	2.285e-05	151.8	56.097	95.944	52.309	2.2211e-05	30.491	180.264	231.221	206.771	83.462	356.211	210.383	81.327	88.937	139.811	273.356	85.112	88.941	93.166	96.975	242.217	91.149	-8191	255	
35484.934	1	1	0	0	0.13356	0.26664	0.10158	0.33384	0.32416	0.2005	0.28806	0.17553	0.144	0.074756	0.085721	0.054617	0.10668	0.34267	0.16724	0.043012	-0.86458	-0.33125	-0.72708	-1.1938	-0.4	-1.1812	-0.71667	-0.48333	-1.1979	-0.41458	-0.66458	-1.1625	-0.53333	-1.0521	-1.0354	-0.4125	220.306	391.468	72.677	86.545	286.505	250.139	386.306	288.410	133.658	331.578	310.167	361.133	365.036	340.408	203.780	334.199	0.00031009	0.00021912	9.8186e-05	684.85	2.3745e-06	3.244e-06	354.06	253.54	6.0003e-06	4.4291e-06	146.48	53.57	94.815	52.289	5.1068e-06	29.808	0.0016589	0.0020291	0.00057006	682.68	2.1632e-05	2.2853e-05	362.85	253.35	2.143e-05	2.286e-05	152	56.02	95.699	52.401	2.2096e-05	30.687	170.989	169.574	219.335	83.684	268.117	127.816	81.863	88.834	273.544	270.534	85.147	89.044	92.961	96.784	157.402	91.658	-8191	255	
35485.031	1	1	0	0	0.14926	0.022411	0.23621	0.13211	0.11307	0.21282	0.20666	0.18954	0.1539	0.11658	0.084212	0.19793	0.19743	0.084746	0.14479	0.1099	-0.9	-0.64375	-0.47083	-1.1542	-0.42292	-1.0979	-0.88333	-0.39167	-1.1417	-0.61042	-0.51667	-1.1083	-0.34375	-0.91458	-1.0146	-0.26667	282.475	328.971	272.526	305.782	242.031	211.858	119.323	98.887	415.015	248.372	163.596	353.257	322.796	125.087	250.971	373.039	0.00018457	0.00022082	0.0001241	691.82	1.7208e-06	2.2359e-06	355.71	255.25	8.4279e-07	2.8187e-06	145.58	54.358	95.737	52.451	8.4101e-06	29.914	0.001662	0.002051	0.00057517	686.41	2.1749e-05	2.2678e-05	365.3	255.03	2.189e-05	2.2974e-05	152.5	56.619	96.6	52.587	2.2231e-05	30.834	172.516	302.363	111.235	83.793	184.906	381.723	82.182	89.251	259.107	225.457	84.862	88.964	93.349	96.604	284.997	90.802	-8191	255	
35485.129	1	1	0	0	0.18794	0.11209	0.17227	0.26086	0.083215	0.087337	0.14165	0.03976	0.13202	0.11689	0.28922	0.10861	0.025201	0.3314	0.18993	0.25058	-0.81458	-0.61667	-0.45625	-1.2833	-0.55625	-0.86042	-1.3042	-0.21875	-1.1417	-0.65208	-0.43125	-1.2313	-0.425	-0.7875	-1.3271	-0.4625	144.523	274.404	280.791	379.820	196.886	269.626	194.880	201.895	187.122	284.056	306.253	395.804	97.605	360.549	336.113	181.527	0.00027467	0.00057117	0.0002487	691.36	4.3878e-06	3.6874e-06	355.46	254.89	3.6284e-06	6.6871e-06	146.02	54.784	94.489	52.859	5.0364e-06	29.953	0.0016853	0.0020403	0.0005695	685.07	2.1725e-05	2.2855e-05	364.31	254.4	2.178e-05	2.2996e-05	152.88	56.753	96.056	52.646	2.1946e-05	30.887	185.322	128.682	86.675	83.300	159.036	291.518	81.711	89.092	248.407	256.479	85.453	89.084	93.286	96.762	246.424	91.432	-8191	255	
35485.223	1	1	0	0	0.14749	0.20321	0.26057	0.32736	0.065031	0.14539	0.22537	0.33868	0.12359	0.13178	0.22271	0.16997	0.096436	0.13116	0.28838	0.26773	-0.71875	-0.95833	-0.28958	-1.3396	-0.575	-0.77917	-1.3917	-0.35833	-1.1083	-0.73542	-0.31042	-1.1792	-0.7	-0.77292	-1.1375	-0.49792	258.149	313.716	410.541	363.275	121.551	300.385	395.191	374.082	366.311	102.336	367.801	278.880	388.200	92.206	174.327	364.434	0.00019757	0.00046082	0.00010502	685.13	4.6934e-06	8.7209e-06	356.57	255.18	4.9932e-06	1.0083e-05	144.71	54.607	95.536	52.767	3.9457e-06	30.159	0.0016722	0.0020374	0.00057153	683.06	2.1843e-05	2.2507e-05	365.09	255.2	2.1581e-05	2.2506e-05	152.75	56.785	96.607	52.826	2.1885e-05	30.992	178.556	408.423	425.915	83.775	173.893	301.070	81.503	89.001	222.302	158.675	85.128	88.852	93.186	96.660	232.573	91.352	-8191	255	
35485.316	1	1	0	0	0.23296	0.037379	0.27201	0.088317	0.29327	0.077008	0.24495	0.091225	0.18736	0.16174	0.14706	0.18517	0.19947	0.15476	0.36276	0.13332	-0.63333	-1.0521	-0.49792	-1.4312	-0.64375	-0.69167	-1.3604	-0.45625	-0.94375	-1.0021	-0.45	-1.2771	-0.93333	-0.66667	-1.2938	-0.66667	414.037	291.678	142.117	396.562	110.931	407.777	326.525	101.377	190.431	415.107	219.902	363.292	93.140	158.271	176.521	214.358	0.00020378	0.00025039	4.3326e-05	691.09	5.7672e-06	5.6754e-06	356.41	255.47	7.4724e-06	4.0982e-06	146.29	53.72	95.324	52.735	7.5643e-06	30.105	0.0016777	0.0020515	0.00056893	685.97	2.1943e-05	2.2752e-05	364.68	255.27	2.1624e-05	2.2621e-05	152.78	56.365	96.562	52.801	2.2085e-05	30.894	174.151	426.620	203.464	83.512	284.507	201.276	81.924	89.032	339.912	133.447	85.180	88.726	93.247	96.748	235.718	91.323	-8191	255	
35485.414	1	1	0	0	0.13117	0.14983	0.17816	0.20989	0.1344	0.21541	0.035266	0.076533	0.16938	0.21822	0.30539	0.28966	0.24934	0.17132	0.082378	0.14354	-0.5625	-1.1125	-0.15	-1.3646	-0.925	-0.72083	-1.2792	-0.225	-0.81667	-1.175	-0.41458	-1.1812	-0.82708	-0.44583	-1.2375	-0.6125	174.471	371.828	101.515	309.287	381.016	306.480	138.827	409.016	349.435	348.445	423.846	249.381	87.803	82.862	294.334	180.845	0.00026489	0.00036323	0.0001422	688.73	9.8338e-06	3.0287e-06	354.41	254.95	6.0939e-06	4.2091e-06	145.16	54.587	95.578	52.576	3.7952e-06	29.883	0.0016824	0.0020207	0.00056658	685.63	2.1646e-05	2.2298e-05	362.77	254.99	2.1612e-05	2.2394e-05	152.63	56.579	96.278	52.689	2.2194e-05	30.766	189.670	147.660	214.209	83.887	259.756	303.074	81.718	88.981	196.459	168.544	84.848	89.283	93.238	96.754	119.754	91.452	-8191	255	
35485.512	1	1	0	0	0.029059	0.30875	0.18803	0.093467	0.12735	0.051601	0.25175	0.32506	0.14939	0.14272	0.12167	0.28273	0.17342	0.1417	0.065278	0.28387	-0.54583	-1.1667	-0.25	-1.1542	-0.89167	-0.30833	-1.2208	-0.79583	-0.4875	-1.3729	-0.27708	-1.2042	-1.0667	-0.575	-1.2313	-0.90208	424.829	131.831	184.052	120.635	387.873	295.536	394.076	366.436	139.339	112.319	87.822	363.839	133.794	377.564	182.033	370.930	0.0002354	0.0008059	0.00023027	690.82	4.692e-06	1.7051e-06	353.53	255.42	1.2354e-06	7.2854e-06	145.13	54.671	95.498	52.306	5.7675e-06	29.973	0.0016665	0.0019914	0.00056937	684.95	2.1721e-05	2.2286e-05	362.41	254.46	2.1553e-05	2.2182e-05	152.28	56.817	96.273	52.523	2.2073e-05	30.865	174.485	158.018	184.816	83.675	235.406	356.488	81.800	88.744	214.356	188.932	85.153	88.905	93.184	96.605	227.171	91.235	-8191	255	
35485.629	1	1	0	0	0.47539	0.012833	0.091996	0.26413	0.20046	0.19899	0.25318	0.11409	0.034684	0.21614	0.040232	0.28433	0.11203	0.24526	0.31903	0.17543	0.0125	-1.2417	-0.41875	-0.7625	-0.99583	-0.275	-1.1583	-0.825	-0.49167	-1.3375	-0.58542	-0.92083	-1.3354	-0.40208	-1.2021	-0.83333	101.958	256.195	122.355	91.351	358.527	276.491	214.926	379.650	101.099	87.956	409.313	400.417	146.240	402.996	337.958	343.206	0.00025998	0.00065344	0.00029726	689.75	4.7912e-06	7.6841e-06	357.6	257.1	3.3436e-06	5.7988e-06	146.59	54.646	95.412	52.667	5.9729e-06	30.545	0.0016359	0.0019976	0.00056189	685.42	2.1387e-05	2.2195e-05	365.61	255.67	2.1813e-05	2.23e-05	152.92	57.093	96.487	52.867	2.2054e-05	31.259	191.938	85.529	194.095	83.853	246.293	350.747	81.897	88.574	159.746	211.752	84.892	88.985	93.171	96.716	336.232	91.444	-8191	255	
35485.727	1	1	0	0	0.11385	0.20662	0.23476	0.037516	0.2907	0.29559	0.10107	0.21714	0.16556	0.29372	0.052032	0.14783	0.23387	0.19884	0.39284	0.21179	0.04375	-1.2125	-0.41042	-0.96875	-1.225	-0.18958	-1.1208	-1.1	-0.51875	-1.3458	-0.72292	-0.58542	-1.225	-0.46875	-0.95	-1.0812	341.581	267.513	132.241	203.689	195.588	110.279	97.640	87.255	183.916	340.415	161.418	370.641	85.748	415.401	307.948	407.679	0.00018197	0.0002061	0.00013548	694.05	7.7216e-06	7.5513e-06	357.13	257.34	4.8821e-06	4.5786e-06	146.26	54.968	96.017	52.912	5.167e-06	29.969	0.0016756	0.0020087	0.00057436	690.07	2.1713e-05	2.2625e-05	366.94	256.85	2.1459e-05	2.2478e-05	153.34	57.2	96.908	53.018	2.2162e-05	30.97	195.264	138.837	222.773	83.610	207.224	222.065	82.041	88.927	193.011	148.043	85.226	89.187	93.103	96.821	160.995	91.367	-8191	255	
35485.824	1	1	0	0	0.14342	0.23576	0.094587	0.09351	0.19804	0.26657	0.11109	0.095813	0.069366	0.1667	0.10262	0.23611	0.090354	0.20545	0.20887	0.077649	0.058333	-1.3062	-0.45208	-0.77292	-1.2062	-0.64792	-1.1167	-1.1292	-0.31875	-1.4188	-0.66042	-0.46875	-1.3479	-0.53542	-0.88542	-1.0958	72.706	296.027	366.744	407.653	141.661	133.869	325.737	258.821	194.561	92.669	342.278	354.690	331.025	100.945	135.131	403.763	0.00022161	0.00091871	0.00026132	691.4	2.9e-06	3.3243e-06	360.65	256.51	5.2704e-06	1.2015e-06	146.89	55.121	95.698	52.653	4.5128e-06	30.042	0.0016437	0.0020198	0.00056427	688.8	2.1603e-05	2.2535e-05	366.75	255.87	2.1729e-05	2.2636e-05	152.66	57.043	96.828	52.852	2.2245e-05	30.813	183.586	107.783	137.183	83.593	245.479	225.864	82.266	88.837	259.654	354.551	85.302	88.851	93.317	96.520	207.929	91.135	-8191	255	
35485.918	1	1	0	0	0.29857	0.139	0.27254	0.14886	0.29224	0.23232	0.053653	0.21177	0.19366	0.15553	0.2643	0.24156	0.068743	0.39948	0.44097	0.12286	0.21667	-1.2729	-0.75625	-0.55625	-1.2521	-0.33333	-0.92917	-1.2604	-0.42708	-1.2042	-0.78542	-0.42708	-1.1958	-0.61875	-0.78958	-1.5	231.864	412.425	232.598	316.313	157.672	208.064	430.594	341.558	171.606	155.778	74.899	398.063	126.848	422.001	348.337	421.259	0.00026918	0.00025183	0.00011131	696.74	7.0279e-06	3.8744e-06	359.13	258.02	2.9555e-06	5.4625e-06	146.02	54.558	95.742	52.925	2.1252e-06	30.252	0.0016833	0.0020201	0.00057129	689.54	2.1633e-05	2.2713e-05	368.22	256.95	2.2034e-05	2.275e-05	154.09	57.036	97.077	53.075	2.2384e-05	31.121	174.805	354.179	350.819	83.729	232.094	131.850	82.115	88.906	278.017	165.150	84.971	89.375	93.406	96.772	300.395	91.004	-8191	255	
35486.016	1	1	0	0	0.099362	0.22542	0.11058	0.21813	0.073751	0.081966	0.1239	0.14015	0.12674	0.060032	0.16113	0.091051	0.14586	0.14544	0.2731	0.060677	-0.11458	-1.1167	-0.98333	-0.48125	-1.3813	-0.62083	-0.86458	-1.4042	-0.3375	-1.0917	-1.2062	-0.52292	-1.3813	-0.84792	-0.64792	-1.1604	143.017	244.874	72.277	328.380	394.426	308.524	325.368	82.771	204.438	260.776	168.779	72.425	169.863	141.590	232.142	262.757	0.00028952	0.00058054	0.00024627	697.17	5.3146e-07	2.6232e-06	360.3	258.57	5.6543e-06	8.8367e-06	146.6	55.312	96.465	53.175	4.8774e-06	30.639	0.0016724	0.0020405	0.00057097	692.69	2.1767e-05	2.2763e-05	371.45	257.57	2.1796e-05	2.3141e-05	154.48	57.442	97.447	53.305	2.2119e-05	31.41	189.847	140.882	78.806	83.739	227.786	289.563	81.847	88.944	235.518	238.378	85.692	89.098	93.712	96.570	287.224	91.684	-8191	255	
35486.109	1	1	0	0	0.067388	0.24547	0.025241	0.099503	0.23741	0.3408	0.047105	0.17266	0.22268	0.27391	0.22395	0.071191	0.073469	0.30421	0.14335	0.25044	-0.11875	-1.1313	-1.0083	-0.33958	-1.2896	-0.62083	-0.55625	-1.5271	-0.3875	-0.93542	-1.0812	-0.27083	-1.1667	-0.8375	-0.43125	-1.3625	340.385	332.482	428.783	320.388	415.458	134.086	390.449	402.150	274.820	139.833	302.538	100.924	113.815	427.485	286.725	298.708	0.00027383	0.00050138	0.00011188	698.51	3.0543e-06	8.2483e-06	366.89	258.32	3.0936e-06	1.7399e-06	148.18	55.766	96.423	53.135	2.7883e-06	30.73	0.0016782	0.0020433	0.00057269	694.85	2.2091e-05	2.2983e-05	372.38	258.33	2.1713e-05	2.2743e-05	155.32	57.716	97.674	53.428	2.21e-05	31.389	189.340	185.323	318.482	83.360	198.718	270.557	82.261	88.584	229.596	232.934	85.508	89.284	93.243	96.357	198.073	91.011	-8191	255	
35486.230	1	1	0	0	0.064089	0.16012	0.16875	0.10656	0.096914	0.15546	0.14081	0.11763	0.12676	0.1621	0.083842	0.26934	0.096449	0.3662	0.11138	0.28217	-0.047917	-0.6625	-1.0021	-0.41458	-1.1979	-0.79583	-0.48958	-1.2271	-0.48333	-0.66042	-1.2042	-0.35417	-1.1083	-0.87083	-0.34167	-1.2021	381.872	157.687	102.035	411.662	201.232	177.441	249.591	330.098	241.601	285.353	282.141	346.256	130.157	342.617	145.391	242.779	0.00022727	0.00048393	0.0001527	700.44	3.5613e-06	5.5459e-06	361.9	258.47	6.1574e-06	4.0257e-06	148.68	54.882	96.205	52.764	5.1407e-06	30.052	0.0016779	0.0020395	0.00055459	694.12	2.1632e-05	2.2608e-05	368.84	258.29	2.1712e-05	2.2468e-05	154.49	57.329	97.414	53.019	2.2144e-05	31.064	178.603	125.794	168.050	83.593	249.395	194.832	81.750	89.132	208.022	166.840	85.378	89.280	93.227	96.716	91.386	91.012	-8191	255	
35486.324	1	1	0	0	0.015725	0.12276	0.12408	0.02405	0.18122	0.14545	0.36121	0.15354	0.34022	0.22333	0.24204	0.15223	0.39521	0.5	0.0018887	0.19192	-0.20417	-0.63333	-1.1583	-0.41667	-1	-0.92708	-0.31042	-1.3104	-0.7375	-0.55	-1.1583	-0.43542	-1.1083	-1.1542	-0.21875	-1.2375	209.194	132.095	415.370	299.557	235.003	253.966	321.695	283.614	166.276	83.090	414.334	348.806	367.141	93.271	180.000	314.496	0.00025998	0.0004558	7.6359e-05	697.94	4.2957e-06	7.5858e-06	361.76	257.69	6.4011e-06	7.7126e-06	145.87	55.004	95.203	52.827	1.1608e-06	30.278	0.0016724	0.0020616	0.00057043	691.49	2.137e-05	2.2286e-05	367.85	257.31	2.1815e-05	2.2638e-05	153.85	57.099	96.861	52.916	2.2058e-05	31.058	182.182	130.499	119.062	83.555	211.707	178.232	82.059	88.960	187.500	216.692	84.435	89.049	93.437	96.783	279.259	91.498	-8191	255	
35486.422	1	1	0	0	0.30076	0.21461	0.068231	0.11085	0.16949	0.030278	0.11005	0.22425	0.20823	0.21755	0.11409	0.0944	0.21395	0.054485	0.28189	0.20341	-0.39167	-0.3125	-1.225	-0.60208	-0.83125	-1.2146	-0.36667	-1.3208	-1.0521	-0.62708	-1.2	-0.4125	-0.81875	-1.2521	-0.37917	-1.3292	391.616	366.243	232.748	206.660	186.775	215.494	292.476	349.480	302.635	267.899	391.092	289.515	160.195	233.591	261.662	138.262	0.00027303	0.0001417	0.00017053	694.41	4.878e-06	1.0591e-05	358.24	258.12	6.4794e-06	5.8303e-07	145.63	54.775	96.09	53.025	4.4598e-06	30.286	0.0016756	0.002049	0.00056426	688.96	2.1737e-05	2.2708e-05	368.18	257.32	2.1452e-05	2.234e-05	153.96	57.145	97.383	53.055	2.2135e-05	31.199	184.326	101.613	169.396	83.471	273.949	155.059	81.713	88.979	223.101	420.138	85.158	88.756	93.411	96.615	171.747	91.548	-8191	255	
35486.492	1	1	0	0	0.21661	0.21158	0.25783	0.11439	0.31756	0.12936	0.090958	0.18265	0.14098	0.27559	0.086241	0.19993	0.04125	0.11994	0.079684	0.059678	-0.37292	-0.22083	-1.1021	-0.61042	-0.69583	-1.2229	-0.49792	-1.1979	-0.77292	-0.61458	-1.3292	-0.57292	-0.7375	-1.3292	-0.44375	-1.0958	140.026	159.633	107.634	191.877	303.572	254.701	79.629	326.579	106.577	394.442	385.141	255.671	165.647	183.976	100.023	273.748	0.00022705	0.00078843	0.00030416	699.81	6.5782e-06	3.2973e-06	362.35	258.08	4.6121e-06	4.66e-06	147.67	55.198	95.541	53.037	5.7893e-06	30.406	0.0016656	0.002029	0.00056238	691.86	2.1674e-05	2.2462e-05	368.85	258.09	2.1677e-05	2.2213e-05	154.64	57.529	97.077	53.207	2.1749e-05	31.311	175.515	137.667	132.448	83.343	232.314	146.323	81.757	88.916	232.052	292.400	85.066	89.186	93.411	96.666	272.694	91.391	-8191	255	
35486.613	1	1	0	0	0.18209	0.16737	0.045232	0.098405	0.2418	0.039971	0.3031	0.23954	0.20876	0.18835	0.19413	0.177	0.087808	0.15232	0.15701	0.20647	-0.61458	-0.3875	-1.1792	-0.75625	-0.4875	-1.1729	-0.4375	-1.0104	-1.0917	-0.27917	-1.0375	-0.55208	-0.52917	-1.4146	-0.44167	-0.96042	270.209	307.541	106.804	215.320	413.071	120.616	331.307	187.557	169.848	400.954	208.692	368.587	381.360	404.030	398.880	251.616	0.00022866	0.0011855	0.00025506	698.71	3.9455e-06	6.3667e-06	360.15	259.49	2.0809e-06	1.0051e-05	147.16	55.107	96.531	52.852	3.438e-06	30.212	0.0016341	0.0020376	0.00056165	692.59	2.1479e-05	2.2204e-05	368.45	258.07	2.147e-05	2.2942e-05	154.35	57.398	97.33	53.096	2.2163e-05	31.1	169.721	169.043	147.826	83.445	208.306	165.399	81.428	89.003	283.953	341.136	85.464	89.318	93.344	96.598	143.227	91.132	-8191	255	
35486.711	1	1	0	0	0.038347	0.28884	0.11239	0.20521	0.22494	0.16966	0.14025	0.10464	0.14419	0.095286	0.1	0.19704	0.29734	0.28478	0.070913	0.058518	-0.66875	-0.28958	-1.0583	-0.74167	-0.425	-1.2417	-0.47708	-0.87917	-0.97083	-0.4625	-1.1562	-0.89583	-0.47708	-1.3375	-0.55417	-0.525	220.693	400.483	238.231	377.142	196.680	421.372	370.738	87.787	152.544	254.774	134.603	410.004	78.183	412.487	309.503	356.254	0.0002955	0.00087392	0.00013697	696.51	6.6234e-06	3.4571e-06	359.78	257.46	6.7808e-06	8.271e-06	147.64	54.426	95.113	52.821	2.9919e-06	30.161	0.0016511	0.0020384	0.00056473	691.09	2.1725e-05	2.2329e-05	367.64	257.27	2.1858e-05	2.2398e-05	154.02	56.844	96.842	53.067	2.2404e-05	31.008	176.556	189.738	123.682	83.615	197.682	303.272	81.864	89.141	199.974	218.664	85.124	88.816	93.353	96.812	417.615	91.537	-8191	255	
35486.809	1	1	0	0	0.076039	0.1621	0.24331	0.29564	0.31182	0.12535	0.16125	0.17301	0.16121	0.1082	0.073309	0.098414	0.27624	0.11729	0.18882	0.12989	-0.90833	-0.38333	-0.98958	-1.075	-0.38333	-1.0396	-0.60208	-0.7125	-1.2812	-0.42292	-0.86875	-1.0771	-0.22292	-1.3062	-0.66042	-0.63542	338.045	430.310	80.039	128.609	183.375	212.702	342.500	410.894	183.206	147.006	265.481	114.226	189.922	328.935	352.740	287.365	0.00025314	0.00043466	0.00032803	694.93	4.0647e-06	8.4713e-06	360.68	257.52	3.0791e-06	3.862e-06	146.36	54.614	96.175	52.836	5.5454e-06	30.415	0.0016662	0.0020757	0.00056566	690.45	2.1908e-05	2.2498e-05	368.34	257.36	2.1627e-05	2.2383e-05	153.85	57.099	97.135	53.157	2.2583e-05	31.298	172.626	151.182	166.114	83.711	199.905	204.858	82.030	88.950	258.916	172.438	84.970	89.354	93.376	96.793	205.538	91.005	-8191	255	
35486.902	1	1	0	0	0.27322	0.081053	0.13285	0.2438	0.079547	0.09394	0.1011	0.14923	0.156	0.075524	0.18855	0.071827	0.1715	0.2255	0.22344	0.20245	-0.94583	-0.4875	-0.99792	-1.1021	-0.17917	-1.2771	-0.76458	-0.63542	-1.2583	-0.475	-0.85625	-1.0396	-0.42292	-1.2771	-0.92708	-0.6125	110.254	396.595	313.099	352.611	172.619	260.725	397.854	326.719	416.801	282.554	344.956	78.067	169.395	103.729	241.526	389.967	0.00017889	0.00093508	9.5474e-05	703.02	6.2949e-06	6.2251e-06	366.48	257.82	6.6276e-06	1.0267e-06	147.9	55.144	96.342	53.402	2.0741e-06	30.69	0.0016811	0.0020658	0.0005767	695.11	2.1978e-05	2.2765e-05	371.41	257.98	2.1613e-05	2.2763e-05	155.12	57.699	97.332	53.523	2.2498e-05	31.434	207.472	174.761	293.979	83.711	154.790	201.590	81.813	88.927	203.434	351.377	85.224	88.960	93.505	96.662	247.137	91.265	-8191	255	
35487.023	1	1	0	0	0.20185	0.2481	0.19689	0.15647	0.05197	0.085425	0.19635	0.085576	0.40128	0.064505	0.19207	0.35342	0.062142	0.23065	0.18651	0.046366	-0.93542	-0.51042	-0.79792	-1.2208	-0.40625	-1.2062	-0.84167	-0.5625	-1.1583	-0.64583	-0.53333	-1.275	-0.45625	-1.1896	-1.0063	-0.39375	385.141	202.177	213.013	418.572	214.247	429.311	105.419	360.455	413.750	156.172	209.040	383.727	148.392	418.158	167.155	191.059	0.00029842	0.00061044	5.9838e-05	701.5	6.0546e-06	3.5129e-06	366.02	259.66	2.3346e-06	8.7492e-06	148.14	55.51	96.652	53.54	4.731e-06	30.91	0.0016914	0.0020589	0.00057768	694.79	2.2284e-05	2.2905e-05	373.05	259.03	2.196e-05	2.3018e-05	155.98	57.935	97.993	53.693	2.2436e-05	31.656	180.412	118.152	157.829	83.831	257.336	219.941	81.670	88.825	205.434	184.352	85.475	88.734	93.265	96.706	211.791	91.378	-8191	255	
35487.094	1	1	0	0	0.22147	0.22695	0.19411	0.084712	0.1638	0.21306	0.16015	0.095414	0.060717	0.08535	0.042636	0.10524	0.14193	0.20424	0.24518	0.10484	-0.79792	-0.4375	-0.51042	-1.1729	-0.14167	-1.1229	-1.1542	-0.38125	-1.1417	-0.72292	-0.58958	-1.2208	-0.57292	-0.94167	-1.0688	-0.475	201.650	210.945	193.872	373.039	268.337	180.772	184.543	326.092	207.162	86.300	357.646	388.934	166.111	385.935	189.265	251.886	0.00022734	0.00077952	0.00014038	702.88	5.6849e-06	3.8364e-06	363.21	260.06	2.898e-06	6.019e-06	147.2	55.431	96.624	53.392	6.461e-06	30.583	0.001692	0.0021044	0.00057282	698.12	2.1856e-05	2.3131e-05	371.15	259.46	2.2192e-05	2.334e-05	155.31	57.646	97.926	53.605	2.2503e-05	31.322	174.122	115.664	127.323	83.638	215.632	215.379	81.813	88.934	272.468	155.996	85.394	89.337	93.343	96.703	286.533	91.261	-8191	255	
35487.191	1	1	0	0	0.017233	0.25528	0.27649	0.13167	0.080368	0.14473	0.07994	0.17926	0.22728	0.4094	0.095066	0.1775	0.073172	0.24948	0.064056	0.18765	-0.825	-0.8125	-0.39167	-1.425	-0.52917	-0.80625	-1.1854	-0.44375	-1.0833	-0.73125	-0.61667	-1.2604	-0.6125	-0.75625	-1.2271	-0.35	170.622	137.571	259.105	103.186	278.249	302.229	419.085	336.460	299.660	245.770	313.737	428.041	397.990	122.852	380.261	220.376	0.00026879	0.0010794	8.8362e-06	702.58	2.8328e-06	4.5842e-06	362.38	260.39	5.0383e-06	1.2394e-05	149.17	55.176	96.707	53.61	3.354e-06	30.684	0.0016981	0.0020531	0.000576	695.02	2.2187e-05	2.2879e-05	369.82	259.16	2.207e-05	2.3034e-05	155.54	57.615	98.046	53.772	2.2422e-05	31.554	175.338	416.793	242.084	83.664	419.590	197.343	82.209	88.896	201.047	210.860	85.639	89.202	93.647	96.898	182.972	91.348	-8191	255	
35487.312	1	1	0	0	0.10832	0.18525	0.19095	0.22192	0.068054	0.075521	0.30333	0.37115	0.18633	0.37671	0.15123	0.18922	0.11815	0.081628	0.056276	0.13598	-0.7	-0.76875	-0.35208	-1.3542	-0.52083	-0.73542	-1.4917	-0.54375	-1.1437	-1.0562	-0.325	-1.4333	-0.76667	-0.59792	-1.4167	-0.75	252.803	317.525	205.244	191.814	254.866	132.105	380.075	407.513	240.480	333.461	176.750	415.502	74.270	402.996	71.424	227.252	0.00023291	0.00086121	0.00028134	704.03	4.3964e-06	3.732e-06	362.76	261.51	4.3316e-06	8.1443e-06	148.81	55.84	97.097	53.549	1.1027e-06	30.739	0.001703	0.0020688	0.00057979	696.65	2.2082e-05	2.3073e-05	371.53	260.33	2.212e-05	2.3375e-05	156.44	58.027	98.409	53.86	2.2623e-05	31.734	184.028	247.211	130.875	83.796	212.396	253.107	81.866	89.302	257.599	253.810	84.887	88.849	93.014	96.907	342.189	91.145	-8191	255	
35487.406	1	1	0	0	0.18799	0.13739	0.111	0.18661	0.24309	0.36813	0.15742	0.1057	0.2347	0.32411	0.021295	0.36923	0.19583	0.19598	0.15182	0.079843	-0.575	-1.2146	-0.33542	-1.3458	-0.775	-0.63542	-1.3083	-0.65	-0.75833	-1.1792	-0.37708	-1.0979	-0.98125	-0.55	-1.3146	-0.47292	409.031	99.821	343.077	180.051	190.282	333.463	380.343	330.959	214.964	326.445	287.388	356.799	334.549	373.468	171.295	334.912	0.00025118	0.00032691	0.00011521	699.42	2.4473e-06	1.0216e-05	363.29	260.04	5.9631e-06	3.0359e-06	148.58	55.861	97.029	53.545	8.4877e-06	30.705	0.0017263	0.0020871	0.00057859	695.76	2.2262e-05	2.312e-05	371.9	259.04	2.243e-05	2.2973e-05	156.32	58.191	98.285	53.728	2.281e-05	31.72	186.839	71.545	123.694	83.980	218.497	203.526	82.400	88.724	206.011	168.001	85.369	89.344	93.454	96.450	238.110	91.251	-8191	255	
35487.504	1	1	0	0	0.39544	0.1429	0.23397	0.25329	0.19153	0.078475	0.14388	0.28315	0.17266	0.13578	0.060728	0.048049	0.14265	0.16724	0.41561	0.02832	-0.3	-1.05	-0.38542	-1.1479	-0.68958	-0.53125	-1.3708	-0.47708	-0.73958	-1.1854	-0.5125	-1.1458	-0.96042	-0.32917	-0.96875	-0.55625	260.103	360.811	95.025	405.044	92.275	233.181	345.885	368.783	424.652	115.814	385.305	217.594	257.797	397.250	418.525	416.683	0.00024034	0.00064104	0.0001808	698.61	6.5702e-06	1.222e-05	364.25	259.95	2.7832e-06	7.8853e-06	147.95	55.782	96.733	53.454	3.2793e-06	30.976	0.0017242	0.0020936	0.00058439	694.53	2.231e-05	2.3426e-05	373.1	259.52	2.2439e-05	2.3143e-05	156.06	58.091	98.231	53.599	2.2581e-05	31.636	170.041	281.567	158.741	83.680	275.577	190.619	81.818	88.857	212.627	200.903	85.258	88.860	93.090	96.813	218.547	91.669	-8191	255	
35487.621	1	1	0	0	0.20353	0.18014	0.38717	0.23322	0.097863	0.27811	0.15394	0.18081	0.19626	0.077155	0.24836	0.11138	0.10503	0.1313	0.067521	0.14285	-0.1375	-1.3458	-0.37083	-1.0333	-1.2687	-0.375	-1.3521	-0.55208	-0.50208	-1.4396	-0.35417	-0.78958	-1.0729	-0.41875	-1.1917	-0.86875	384.832	130.505	207.828	85.740	217.615	196.817	134.014	283.128	130.544	428.521	166.938	418.796	420.115	104.410	245.947	422.485	0.00019437	0.0009027	0.00016107	698.58	6.4577e-06	6.846e-06	363.31	260.51	4.0534e-06	3.3963e-06	148.71	55.154	96.381	53.09	8.7349e-06	30.354	0.0017509	0.0021172	0.00059038	695.63	2.2725e-05	2.3264e-05	370.62	259.08	2.2655e-05	2.3554e-05	155.53	57.714	98.029	53.4	2.3043e-05	31.393	185.592	190.326	136.147	83.747	235.414	224.682	81.964	88.972	245.904	79.305	85.067	89.188	93.097	96.959	283.076	91.380	-8191	255	
35487.719	1	1	0	0	0.16099	0.24081	0.048215	0.052941	0.010308	0.067359	0.161	0.084044	0.28766	0.17302	0.14921	0.25446	0.053146	0.55913	0.25342	0.11887	-0.0020833	-1.3396	-0.18125	-1.0208	-1.0417	-0.33333	-1.1562	-0.90625	-0.42292	-1.2042	-0.47708	-0.90833	-1.175	-0.58958	-1.0042	-0.94583	125.192	373.708	322.629	376.176	371.602	308.297	236.072	295.996	72.980	90.540	275.529	333.186	251.045	82.444	135.121	389.114	0.00023162	0.0012039	0.00020464	697.61	3.7392e-06	8.3652e-06	363.06	259.25	5.6797e-06	6.4651e-06	147.97	55.408	96.715	53.31	1.0098e-05	30.466	0.001747	0.002116	0.00059313	694.01	2.2276e-05	2.3134e-05	371.39	258.09	2.2398e-05	2.371e-05	155.07	57.701	97.56	53.527	2.3115e-05	31.494	194.520	162.823	189.707	83.464	113.562	217.572	82.033	88.745	207.608	289.916	85.253	88.952	93.453	96.559	205.613	91.414	-8191	255	
35487.789	1	1	0	0	0.15391	0.12098	0.18311	0.24406	0.12105	0.36201	0.33488	0.17243	0.15682	0.10589	0.33223	0.31358	0.24038	0.21285	0.1285	0.25349	0.18958	-1.2479	-0.45625	-0.79583	-1.3167	-0.35	-1.1875	-1.0146	-0.275	-1.2313	-0.7	-0.45625	-1.2333	-0.525	-0.87708	-0.81042	362.424	184.059	195.261	423.525	315.967	367.811	342.235	321.348	161.859	292.404	398.452	415.909	90.474	397.121	399.408	129.504	0.0001462	0.00097159	5.6965e-05	698.76	5.3338e-06	7.2231e-06	361.3	258.68	2.9391e-06	4.4889e-06	147.97	55.313	96.97	53.182	1.7023e-06	30.704	0.0017285	0.0021128	0.00058716	693.51	2.2675e-05	2.3767e-05	371.1	258.48	2.2755e-05	2.3609e-05	156.08	57.822	97.926	53.49	2.3234e-05	31.568	182.196	200.090	142.627	84.020	210.720	299.270	81.634	88.847	260.834	157.019	85.286	88.868	93.384	96.659	116.058	91.507	-8191	255	
35487.910	1	1	0	0	0.18274	0.15918	0.36763	0.19064	0.3431	0.15193	0.13684	0.071617	0.11668	0.027121	0.10714	0.066999	0.26134	0.065376	0.25206	0.13449	0.070833	-1.1833	-0.67083	-0.57917	-1.3	-0.57083	-1.0646	-1.1729	-0.40833	-1.2333	-0.7625	-0.3	-1.5854	-0.70625	-0.89792	-1.3125	224.158	105.874	309.541	423.980	333.903	236.399	336.407	283.233	302.998	112.405	78.006	266.188	84.312	287.049	213.096	326.843	0.00030635	4.8618e-05	0.00016363	699.21	3.7495e-06	4.0612e-06	365.67	260.34	5.8981e-06	3.9968e-06	147.73	55.42	96.834	53.488	6.1428e-06	30.863	0.0017502	0.0021372	0.00060053	696.08	2.2768e-05	2.3808e-05	372.79	258.89	2.2844e-05	2.3728e-05	155.96	58.03	98.092	53.627	2.3324e-05	31.727	188.893	279.510	216.154	83.958	185.909	286.425	82.322	88.897	233.841	298.036	84.651	89.077	93.203	96.780	215.772	91.550	-8191	255	
35488.008	1	1	0	0	0.1625	0.31834	0.2099	0.033518	0.16356	0.27781	0.052974	0.2538	0.060762	0.041255	0.28503	0.14537	0.27682	0.30944	0.31241	0.087246	0.058333	-1.2188	-0.75	-0.50208	-1.3458	-0.61458	-0.84375	-1.2313	-0.45208	-1.1208	-1.0562	-0.44792	-1.3896	-0.73125	-0.61458	-1.2708	259.334	354.851	102.743	380.557	189.767	147.259	288.793	424.901	101.578	119.072	328.421	112.907	236.877	364.862	379.995	217.281	0.00027721	0.00057086	7.395e-05	704.85	4.7655e-06	4.3636e-06	362.18	258.9	4.1486e-06	2.2495e-06	146.82	55.262	96.398	52.873	8.5474e-06	30.143	0.0017616	0.002158	0.00059802	696.61	2.2773e-05	2.3828e-05	371.86	258.37	2.315e-05	2.4456e-05	155.17	57.582	97.69	53.208	2.3702e-05	31.191	175.364	204.861	312.482	83.771	130.017	168.301	81.726	88.867	331.214	376.133	85.754	88.846	93.823	96.618	280.482	91.227	-8191	255	
35488.105	1	1	0	0	0.1754	0.18683	0.079403	0.3074	0.29356	0.47616	0.093753	0.080153	0.39678	0.081138	0.33275	0.15349	0.21467	0.14754	0.094726	0.046985	0.16667	-0.86042	-0.90833	-0.49583	-1.2479	-0.575	-0.64792	-1.5604	-0.475	-0.88333	-1.175	-0.43542	-1.2333	-0.94375	-0.71042	-1.4375	196.428	302.112	129.505	405.347	196.997	406.851	245.075	409.527	98.063	265.284	369.401	167.881	401.226	430.093	283.447	372.397	0.00027502	0.00043048	4.9626e-05	696.11	5.9672e-06	1.2082e-06	357.79	258.26	9.054e-06	9.9289e-06	146.04	54.804	96.017	53.059	7.7243e-06	30.461	0.0017919	0.0021883	0.00061517	692.69	2.3389e-05	2.4366e-05	368.87	256.99	2.3702e-05	2.4442e-05	153.99	57.355	97.658	53.331	2.4264e-05	31.289	186.414	223.156	74.140	83.797	148.308	414.984	82.161	89.032	210.558	245.284	85.850	88.993	93.158	96.726	272.334	91.461	-8191	255	
35488.199	1	1	0	0	0.14637	0.13228	0.1604	0.5554	0.12225	0.12815	0.10296	0.31699	0.1193	0.17163	0.21659	0.075137	0.25989	0.2868	0.10473	0.20121	0.010417	-0.83958	-0.96042	-0.35625	-1.0938	-0.97083	-0.64167	-1.4021	-0.53542	-0.975	-1.0646	-0.43125	-1.0417	-1.0187	-0.3	-1.2396	190.234	166.228	159.621	413.367	261.233	207.597	359.740	358.756	269.673	260.812	283.894	108.329	393.097	403.869	153.119	90.366	0.0002012	0.0011628	0.00018441	698.05	3.7965e-06	5.2707e-06	361.05	258.17	8.5978e-06	1.0678e-05	146.96	54.995	96.813	53.305	9.7963e-06	30.624	0.0018084	0.002209	0.00061755	694.92	2.3823e-05	2.4509e-05	371.66	258.3	2.3924e-05	2.4706e-05	155.26	57.564	98.02	53.563	2.3992e-05	31.606	186.386	143.253	166.646	83.730	136.966	164.530	82.228	89.259	258.564	231.169	85.081	88.871	93.492	96.526	190.116	91.525	-8191	255	
35488.320	1	1	0	0	0.22101	0.13832	0.16012	0.12831	0.086842	0.071501	0.11033	0.24674	0.12912	0.11122	0.18171	0.25028	0.31776	0.22286	0.23449	0.38297	-0.26667	-0.65417	-1.0958	-0.40208	-1.0958	-0.87917	-0.57917	-1.2771	-0.55417	-0.81458	-1.1458	-0.38333	-1.1396	-1.1063	-0.27917	-1.1688	408.688	286.042	260.596	410.380	93.131	110.831	224.039	371.998	422.916	188.150	422.321	361.730	414.242	380.956	254.817	348.874	0.00022193	0.00090314	0.00016908	700.29	1.9412e-06	5.1396e-06	363.55	259.86	4.4132e-06	6.96e-06	147.74	55.233	97.005	53.343	6.4646e-06	30.863	0.0018209	0.0022397	0.00062071	697.25	2.3627e-05	2.4397e-05	373.77	258.81	2.3721e-05	2.4914e-05	156.34	57.979	97.979	53.526	2.4255e-05	31.645	191.402	82.601	178.797	83.874	391.153	300.623	82.421	89.019	210.959	177.182	85.375	89.320	93.183	96.587	189.604	91.286	-8191	255	
35488.391	1	1	0	0	0.27992	0.066103	0.29999	0.20697	0.31169	0.35301	0.10022	0.22988	0.12806	0.33314	0.21102	0.083949	0.063611	0.1352	0.10485	0.13452	-0.16875	-0.52083	-1.4583	-0.50417	-1.1333	-1.0521	-0.34375	-1.3521	-0.55	-0.55625	-1.3333	-0.40417	-0.89167	-1.1646	-0.29583	-1.1562	345.613	158.073	274.002	333.966	260.564	417.604	379.235	427.761	398.247	328.153	380.798	315.539	103.889	427.729	165.699	368.673	0.00024391	0.00086289	0.00012787	702.43	3.5524e-06	3.6805e-06	366.7	259.39	1.7835e-06	5.8722e-06	146.84	55.449	97.276	53.508	4.7225e-06	30.676	0.0018398	0.0022399	0.0006256	699.24	2.408e-05	2.4642e-05	375.53	258.77	2.4086e-05	2.4838e-05	156.72	58.171	98.36	53.786	2.4306e-05	31.793	172.861	225.731	428.750	83.737	256.353	157.697	81.997	89.133	140.271	277.868	85.124	89.234	93.200	96.561	165.879	91.614	-8191	255	
35488.488	1	1	0	0	0.26395	0.2611	0.041926	0.22424	0.18511	0.24411	0.083752	0.33634	0.18634	0.11416	0.14581	0.11108	0.089093	0.27977	0.048897	0.026024	-0.39792	-0.37292	-1.2583	-0.69167	-0.725	-1.1479	-0.35208	-1.1333	-0.59375	-0.64375	-1.5042	-0.68125	-0.85417	-1.4896	-0.35625	-1.1146	387.056	417.448	92.296	81.447	265.114	204.713	334.781	404.015	120.043	391.377	124.887	243.484	334.104	384.627	141.726	398.329	0.00027711	0.00086479	0.0001383	703.54	9.57e-06	7.1289e-06	362.37	259	7.6086e-06	1.2017e-06	148.1	55.259	96.362	53.192	8.1682e-06	30.084	0.001849	0.002256	0.00062445	701.03	2.3945e-05	2.4964e-05	374.38	259.45	2.3591e-05	2.4958e-05	155.65	57.651	97.856	53.452	2.4301e-05	31.34	198.966	89.786	186.662	83.609	203.949	204.277	81.805	89.202	223.157	380.671	84.794	89.060	93.469	96.618	219.737	91.610	-8191	255	
35488.582	1	1	0	0	0.2109	0.31606	0.22083	0.27744	0.24485	0.32042	0.25625	0.17112	0.17004	0.074512	0.062716	0.18475	0.14375	0.15597	0.13428	0.066571	-0.45208	-0.27083	-1.3021	-0.7875	-0.66458	-1.3	-0.28542	-1.2917	-1.075	-0.25208	-1.1625	-0.74375	-0.75625	-1.3646	-0.31875	-0.95	86.696	191.405	423.999	371.833	123.862	332.747	115.834	346.975	134.214	294.923	116.849	361.416	102.325	340.822	259.256	243.121	0.00023064	0.0015254	0.00022812	698.6	1.8156e-06	7.8715e-06	362.6	257.75	5.5022e-06	3.6701e-06	147.59	54.665	96.266	53.154	2.3252e-06	30.336	0.0018412	0.0022672	0.00062508	696.36	2.3763e-05	2.4642e-05	372.7	257.69	2.3842e-05	2.5036e-05	155.59	57.675	97.761	53.444	2.4173e-05	31.441	200.375	144.965	220.668	83.571	331.127	240.990	82.070	89.210	167.441	116.127	85.191	88.917	93.064	96.378	418.333	91.661	-8191	255	
35488.703	1	1	0	0	0.26387	0.1853	0.18244	0.203	0.053902	0.11366	0.10383	0.24385	0.16712	0.06633	0.28074	0.17617	0.22818	0.21146	0.042314	0.17017	-0.55417	-0.31042	-1.3271	-0.76875	-0.52917	-1.1875	-0.36875	-1.0542	-1.1958	-0.36042	-1.3021	-0.98958	-0.59583	-1.4146	-0.74375	-0.69167	200.011	170.464	339.830	305.351	279.548	130.702	346.593	91.030	126.945	357.569	161.846	352.812	227.335	84.431	118.995	182.919	0.00018326	0.00051099	0.00017669	696.71	1.1474e-06	4.0935e-06	364.25	259.66	7.0144e-06	6.8779e-06	148.09	55.305	96.619	53.638	7.2518e-06	30.924	0.0018249	0.0022419	0.00062662	695.69	2.357e-05	2.4374e-05	374.57	259.16	2.3649e-05	2.5017e-05	156.81	58.073	98.389	53.885	2.4547e-05	32.038	178.596	137.885	116.208	83.690	402.005	237.705	82.469	89.002	215.318	108.555	84.777	89.169	93.658	96.591	228.160	91.458	-8191	255	
35488.801	1	1	0	0	0.10878	0.02527	0.063316	0.15624	0.19239	0.27625	0.13737	0.2025	0.28066	0.17927	0.40358	0.14344	0.065324	0.24217	0.17367	0.26742	-0.725	-0.28958	-1.0375	-0.92083	-0.29375	-1.2812	-0.52708	-0.72917	-1.2917	-0.40625	-1.15	-1.0396	-0.4125	-1.3625	-0.75417	-0.69792	299.573	334.117	402.093	87.886	210.120	254.513	342.162	388.344	336.098	258.675	416.553	373.707	247.177	352.046	334.534	83.261	0.0002446	0.00042975	0.0001294	706.16	9.9389e-06	9.7571e-06	368.12	261.28	1.5231e-06	6.6906e-06	150.7	55.492	97.897	54.05	1.1961e-06	31.404	0.0018512	0.0022552	0.0006357	703.09	2.3976e-05	2.4876e-05	378.33	261.76	2.37e-05	2.5213e-05	158.58	58.682	99.25	54.347	2.4575e-05	32.369	183.653	241.154	237.426	83.685	200.936	240.650	81.709	88.997	304.606	191.749	85.219	89.020	93.292	96.704	134.713	91.601	-8191	255	
35488.895	1	1	0	0	0.21599	0.066513	0.066908	0.090372	0.095662	0.15059	0.16598	0.20266	0.2108	0.13349	0.10515	0.12945	0.2542	0.12066	0.14285	0.28247	-0.79583	-0.37292	-0.96042	-1.0354	-0.32917	-1.3021	-0.72708	-0.60625	-1.1396	-0.32083	-0.8	-1.0521	-0.45625	-1.1521	-0.73958	-0.53542	114.435	92.019	136.200	171.518	90.425	335.855	219.316	327.976	422.311	153.478	138.518	113.856	278.377	147.714	384.103	351.219	0.00028296	0.00048153	6.1119e-05	713.6	7.3614e-06	6.8079e-06	372.31	261.56	4.4498e-06	4.1883e-06	149.89	55.974	97.838	53.812	6.1675e-06	30.989	0.0018684	0.0022806	0.00063264	708.08	2.4173e-05	2.515e-05	382.72	262.69	2.4225e-05	2.5305e-05	158.81	58.761	99.425	54.298	2.4549e-05	32.075	182.497	206.309	209.949	83.733	213.673	113.976	82.084	89.196	178.482	198.741	85.817	89.088	93.035	96.539	239.841	91.269	-8191	255	
35488.992	1	1	0	0	0.091089	0.14624	0.072726	0.10149	0.20516	0.08062	0.32122	0.034035	0.19646	0.10003	0.14089	0.09015	0.11626	0.33306	0.095199	0.059732	-0.98333	-0.5125	-0.94792	-1.2271	-0.4875	-1.2313	-0.87083	-0.47083	-1.2104	-0.63125	-0.63958	-1.2708	-0.37917	-1.1562	-1.0042	-0.51875	140.348	383.058	139.561	121.469	402.028	115.046	305.229	420.529	242.153	177.382	348.577	185.592	168.538	339.599	77.739	262.788	0.00021651	0.00062477	0.0002303	714.2	5.5578e-06	6.8333e-06	366.39	260.44	7.8946e-06	5.0556e-06	149.34	55.704	97.738	53.5	8.7791e-06	30.962	0.0018355	0.0022587	0.00062279	707.23	2.4083e-05	2.477e-05	377.45	261.05	2.3918e-05	2.4963e-05	157.36	58.204	98.984	54.005	2.4417e-05	31.884	181.564	133.465	79.250	83.489	165.034	186.585	81.987	89.308	213.083	271.428	85.392	89.053	93.275	96.900	220.239	91.619	-8191	255	
35489.090	1	1	0	0	0.27462	0.21037	0.13302	0.29003	0.093004	0.12353	0.1895	0.36844	0.28873	0.18716	0.058333	0.12897	0.21339	0.28543	0.11853	0.070121	-0.86875	-0.51042	-0.72292	-1.2271	-0.35833	-1.0667	-1.0583	-0.48958	-1.375	-0.6875	-0.7	-1.3292	-0.56458	-0.98958	-1.0521	-0.21042	147.671	264.215	200.061	94.679	347.952	427.058	329.450	405.140	310.676	252.407	134.638	204.261	109.670	349.074	235.058	340.436	0.0002314	0.00041122	8.4969e-05	708.52	5.4037e-06	1.4504e-06	366.83	259.21	1.761e-06	6.6701e-06	148.8	55.749	97.723	53.673	1.0775e-05	30.842	0.0018291	0.0022442	0.00062739	703.76	2.3893e-05	2.4906e-05	377.55	260.39	2.394e-05	2.514e-05	157.25	58.352	98.749	53.993	2.4269e-05	31.852	181.138	155.772	123.585	83.502	221.961	247.937	81.644	89.146	82.471	226.870	85.655	89.551	93.227	96.976	209.622	91.626	-8191	255	
35489.184	1	1	0	0	0.16262	0.13307	0.096384	0.22656	0.28213	0.041857	0.1866	0.12238	0.12771	0.23865	0.10484	0.2802	0.05746	0.16026	0.17656	0.081877	-0.66458	-0.51667	-0.69583	-1.3979	-0.42708	-0.97708	-1.2271	-0.50208	-1.1271	-0.89375	-0.48542	-1.3083	-0.51667	-0.82708	-1.1	-0.2625	348.586	355.041	313.143	135.856	296.947	180.452	374.714	428.290	416.023	157.999	151.432	374.931	199.234	137.687	208.974	395.114	0.0001387	0.00037947	0.00020292	705.16	6.8233e-06	8.9752e-06	368.65	260.4	6.8777e-06	5.5384e-06	149.67	55.612	97.194	53.688	4.0735e-06	30.72	0.0018433	0.0022701	0.00062494	704.45	2.3721e-05	2.4915e-05	379.5	260.99	2.4173e-05	2.4904e-05	157.59	58.271	98.781	54.013	2.4174e-05	31.902	195.989	162.728	164.310	83.748	99.113	208.748	81.833	89.269	194.721	170.009	85.135	89.167	93.448	96.993	233.726	91.705	-8191	255	
35489.305	1	1	0	0	0.1899	0.11024	0.44304	0.19424	0.14921	0.13559	0.35717	0.19385	0.24373	0.12807	0.21098	0.3441	0.055865	0.25461	0.15538	0.05839	-0.81042	-0.81875	-0.46042	-1.3333	-0.36875	-0.7875	-1.15	-0.22708	-1.1	-1.0875	-0.24167	-1.3396	-0.75	-0.86875	-1.2521	-0.33958	183.097	389.210	291.681	370.309	199.245	244.633	214.578	298.317	183.535	105.774	425.152	370.009	344.523	428.944	121.665	276.739	0.00026486	0.00021347	0.00010391	709.26	5.3942e-06	3.8143e-06	370.72	259.93	5.8519e-06	4.982e-06	148.54	56.037	97.229	53.635	9.0683e-06	30.756	0.0018512	0.0022411	0.00062997	704.87	2.4232e-05	2.4869e-05	379.36	260.46	2.3892e-05	2.4762e-05	157.12	58.482	98.653	53.929	2.4227e-05	31.862	170.317	106.845	426.159	83.916	203.170	155.220	81.946	89.056	213.492	194.764	85.453	88.804	93.327	96.735	267.964	91.438	-8191	255	
35489.398	1	1	0	0	0.10593	0.044302	0.17081	0.41561	0.068998	0.12103	0.068778	0.31255	0.34872	0.098325	0.32176	0.0243	0.21014	0.29576	0.050934	0.45132	-0.77917	-0.79792	-0.50833	-1.2271	-0.68333	-0.64167	-1.4354	-0.43542	-1.1292	-1.0958	-0.26042	-1.225	-0.95833	-0.775	-1.2437	-0.55	226.230	106.715	237.429	400.429	334.507	368.703	144.013	419.251	185.769	190.895	346.261	300.638	412.292	405.990	166.426	314.733	0.0002964	0.00030495	0.00019534	703.09	7.8114e-06	6.1595e-06	364.4	260.15	3.9084e-06	7.4709e-06	147.82	55.191	96.805	53.194	8.1234e-06	30.09	0.0018361	0.0022168	0.00062622	703.48	2.3655e-05	2.4779e-05	375.62	259.62	2.3509e-05	2.4607e-05	155.97	57.657	98.256	53.39	2.3783e-05	31.217	174.194	341.125	427.304	83.665	249.727	193.296	81.616	88.931	131.191	89.067	85.445	89.547	93.122	96.788	256.560	91.367	-8191	255	
35489.496	1	1	0	0	0.26048	0.13393	0.36885	0.41824	0.21707	0.046322	0.22634	0.10511	0.24152	0.18751	0.21485	0.13816	0.020033	0.32092	0.18229	0.20002	-0.55	-1.1875	-0.33958	-1.3687	-0.84375	-0.62083	-1.1708	-0.48958	-0.89375	-1.1729	-0.42708	-1.275	-0.89375	-0.36875	-1.1562	-0.40625	314.649	356.312	384.725	418.897	137.661	382.760	116.520	355.654	225.449	168.166	404.101	367.742	393.718	394.253	72.262	323.996	0.00025328	0.00042299	0.0001397	702.94	3.225e-06	1.156e-05	365.2	258.99	5.8061e-06	3.524e-06	148.89	55.528	96.218	53.188	1.2899e-06	30.441	0.0018111	0.0021895	0.0006149	698.76	2.3369e-05	2.4101e-05	373.3	258.63	2.3387e-05	2.4353e-05	155.78	57.743	97.934	53.434	2.3539e-05	31.401	178.848	96.346	244.031	83.480	266.981	240.534	81.954	88.974	250.694	255.919	84.473	89.144	93.083	96.678	272.230	91.554	-8191	255	
35489.594	1	1	0	0	0.19968	0.21279	0.12114	0.35612	0.21553	0.24685	0.099012	0.093219	0.11733	0.082375	0.30972	0.084899	0.20997	0.18791	0.23593	0.017053	-0.18542	-1.2333	-0.21042	-1.2083	-0.94167	-0.18958	-1.1896	-0.6625	-0.5625	-1.3042	-0.42292	-0.92083	-0.91875	-0.17917	-1.4688	-0.57917	365.547	231.738	104.681	398.593	94.599	213.975	220.019	82.910	409.940	75.608	404.277	331.292	351.788	409.263	224.965	116.561	0.00026148	0.00053762	8.6744e-05	701.56	5.2824e-06	1.1045e-05	361.23	260.32	5.4756e-06	6.6804e-06	148.51	54.959	95.978	52.936	1.6198e-06	30.288	0.0017765	0.0021572	0.00061474	697.88	2.287e-05	2.4104e-05	371.76	259.4	2.3189e-05	2.4127e-05	155.25	57.551	97.46	53.262	2.3354e-05	31.297	203.866	200.604	382.085	83.854	163.279	244.431	82.088	89.095	213.370	199.694	85.049	89.755	93.172	96.773	233.387	91.318	-8191	255	
35489.688	1	1	0	0	0.11639	0.12661	0.14739	0.082545	0.18709	0.12254	0.26359	0.41211	0.033896	0.13875	0.034318	0.093885	0.1192	0.16581	0.2094	0.48911	-0.23333	-1.3188	-0.30208	-0.93958	-1.2	-0.33333	-1.4083	-0.80625	-0.375	-1.4125	-0.50625	-0.79375	-1.1854	-0.46875	-1.0812	-0.92917	286.397	313.730	428.588	283.824	193.993	234.326	282.777	421.550	198.954	190.755	235.872	393.045	365.381	360.698	133.164	378.480	0.00020333	0.00032951	0.00017542	695.18	5.2905e-06	4.1659e-06	364.1	257.55	2.9355e-06	1.7222e-06	148.09	54.465	96.362	53.056	4.6807e-06	30.554	0.0017672	0.0021446	0.00060605	692.82	2.2913e-05	2.3915e-05	370.74	257.62	2.2527e-05	2.3291e-05	154.98	57.354	97.255	53.093	2.2498e-05	31.307	191.832	110.220	151.713	83.647	256.825	223.281	82.425	88.955	188.843	280.433	84.819	89.391	93.032	96.438	221.943	91.550	-8191	255	
35489.785	1	1	0	0	0.21818	0.10135	0.070275	0.16317	0.094881	0.085341	0.14047	0.080247	0.15107	0.13791	0.30845	0.25352	0.26944	0.17538	0.18721	0.0768	-0.12292	-1.2354	-0.35625	-0.75208	-0.94583	-0.16875	-1.0396	-1.0396	-0.37917	-1.4229	-0.64792	-0.72292	-1.2396	-0.5	-1.2396	-0.89792	339.734	201.346	140.708	374.577	82.833	278.329	406.384	404.682	367.859	205.707	413.293	135.041	100.129	88.954	160.495	154.532	0.00024759	0.00060374	0.00016593	694.97	1.1578e-06	3.184e-06	359.75	259.81	5.2868e-07	6.1394e-06	148.39	55.001	96.215	52.94	4.6853e-06	30.131	0.0016951	0.0020394	0.00056947	690.75	2.1412e-05	2.2498e-05	368.61	258.31	2.1183e-05	2.2014e-05	155.18	57.227	97.156	52.947	2.1379e-05	30.988	188.626	156.678	163.043	83.982	236.283	189.769	81.852	88.751	196.205	152.728	85.596	89.283	93.209	96.639	275.119	91.435	-8191	255	
35489.879	1	1	0	0	0.075827	0.17565	0.12959	0.047498	0.20742	0.20225	0.014648	0.2249	0.098389	0.29385	0.050888	0.2491	0.062542	0.17401	0.30558	0.11143	-0.12917	-1.3188	-0.62917	-0.88542	-1.1667	-0.43125	-1.1271	-1.1313	-0.49375	-1.1396	-0.76875	-0.525	-1.3146	-0.54375	-0.90833	-1.1958	266.226	320.731	146.896	299.696	408.947	151.070	74.866	407.963	197.376	330.867	240.416	98.036	75.749	97.273	291.893	73.893	0.00029151	0.00034689	0.00017272	697.48	2.6166e-06	6.8371e-06	359.38	258.2	5.9619e-06	9.7916e-06	147.29	54.111	96.024	52.335	3.4926e-06	30.024	0.0016184	0.0019662	0.00054558	690.57	2.0768e-05	2.1819e-05	365	257.38	2.0476e-05	2.156e-05	153.18	56.582	96.716	52.528	2.0747e-05	30.707	178.793	145.704	177.364	83.744	211.004	207.432	81.771	88.862	201.282	162.790	85.367	89.335	93.188	96.792	305.043	91.484	-8191	255	
35489.977	1	1	0	0	0.21738	0.15083	0.13856	0.23446	0.094625	0.056361	0.19721	0.05302	0.07541	0.061372	0.20235	0.22831	0.20473	0.25362	0.1567	0.09742	-0.13125	-1.0167	-0.5125	-0.55833	-1.1875	-0.37708	-0.75417	-1.1125	-0.42708	-1.2417	-0.67292	-0.65833	-1.3021	-0.76042	-0.95208	-1.3271	90.835	382.884	245.444	332.224	378.535	148.024	83.927	422.919	303.518	307.724	421.723	339.970	429.430	98.059	91.151	191.583	0.00023478	0.00056033	0.0002442	690.84	3.362e-06	7.7289e-06	360.53	257.23	6.4343e-07	6.949e-06	146.8	54.873	95.685	52.281	5.9598e-06	29.914	0.0015639	0.0018968	0.00052892	685.09	1.9922e-05	2.0864e-05	364.31	255.83	1.9671e-05	2.0328e-05	152.2	56.492	96.291	52.363	1.9656e-05	30.497	172.881	201.799	387.245	83.857	390.910	250.730	81.624	88.832	248.704	226.350	84.885	89.042	93.481	96.715	228.972	91.136	-8191	255	
35490.094	1	1	0	0	0.11289	0.12433	0.28919	0.38906	0.10013	0.11414	0.2319	0.32022	0.29774	0.018102	0.20066	0.079771	0.2593	0.18288	0.15762	0.25714	0.095833	-1.1812	-0.71875	-0.33958	-1.3396	-0.59792	-0.875	-1.3625	-0.3125	-0.98958	-0.97292	-0.42917	-1.4979	-0.56042	-0.6875	-1.3083	244.254	124.370	82.991	371.992	280.533	92.277	379.578	290.488	416.891	342.330	383.127	293.340	332.124	297.697	279.198	139.364	0.00023958	0.00071404	0.00016545	690.35	5.1013e-06	7.3637e-06	358.99	258.15	3.9107e-06	3.4664e-06	146.98	54.171	95.512	52.299	1.4831e-06	30.147	0.0014775	0.001765	0.00049428	682	1.8421e-05	1.9275e-05	361.73	255.2	1.8128e-05	1.8697e-05	151.75	56.264	96.248	52.276	1.7522e-05	30.515	174.948	173.036	212.049	83.579	238.986	307.776	82.007	89.138	203.053	261.723	84.926	89.217	93.627	96.665	301.361	91.629	-8191	255	
35490.191	1	1	0	0	0.27361	0.25504	0.095272	0.018874	0.37283	0.21865	0.056237	0.022976	0.10157	0.18393	0.23961	0.28087	0.17556	0.25115	0.11639	0.21189	0.010417	-0.99167	-1.1729	-0.5625	-1.0521	-0.86458	-0.44792	-1.3146	-0.38958	-0.84167	-0.97917	-0.425	-1.3604	-0.90417	-0.58333	-1.5417	77.410	144.555	427.913	106.003	241.907	386.957	165.396	115.657	80.422	395.748	327.351	384.714	341.207	139.175	102.467	170.585	0.00019625	0.00071941	0.00010351	692.76	6.0079e-06	1.9348e-06	357.43	258.44	3.2863e-06	6.531e-06	148.48	55.267	96.022	52.854	5.5346e-06	30.637	0.0013175	0.0015976	0.0004355	681.8	1.6588e-05	1.717e-05	360.73	256.37	1.609e-05	1.6594e-05	152.26	56.398	96.557	52.683	1.5486e-05	30.848	176.620	181.786	215.606	83.570	261.384	162.320	81.879	88.905	131.624	178.173	85.621	89.236	93.094	96.662	198.003	91.154	-8191	255	
35490.266	1	1	0	0	0.10754	0.2195	0.24031	0.39087	0.0584	0.082831	0.26996	0.29285	0.36964	0.27243	0.024235	0.20433	0.21562	0.15728	0.1139	0.32815	-0.12292	-1.0438	-1.1167	-0.38542	-1.2083	-0.78125	-0.61042	-1.1812	-0.31875	-0.77083	-1.1479	-0.19167	-1.225	-1.0125	-0.28542	-1.3083	86.988	321.119	161.339	425.837	279.574	364.499	379.497	383.731	328.530	304.490	216.866	270.354	376.145	408.528	306.628	367.010	0.00021418	0.001122	0.00018781	693.15	3.7867e-06	6.9379e-06	363.6	263.35	2.549e-06	4.4666e-06	150.13	56.16	97.524	53.312	4.9399e-06	30.822	0.0011671	0.0013724	0.00038909	683.56	1.4365e-05	1.4894e-05	363.57	259.53	1.4274e-05	1.4856e-05	152.63	56.869	97.507	53.164	1.4267e-05	30.849	180.805	125.492	87.936	83.227	275.995	184.997	82.226	89.068	118.297	364.365	85.008	89.427	93.499	96.934	287.488	91.149	-8191	255	
35490.387	1	1	0	0	0.063011	0.28884	0.2415	0.12781	0.36173	0.093255	0.29074	0.49753	0.17755	0.23329	0.28954	0.15038	0.26643	0.51023	0.027575	0.20575	-0.025	-0.72083	-1.3687	-0.47292	-0.8125	-1.1396	-0.27917	-1.2563	-0.70833	-0.8375	-1.2229	-0.50417	-1.0583	-1.0562	-0.56042	-1.5104	369.187	84.733	124.163	411.388	340.136	275.158	104.107	333.428	417.782	269.226	136.378	425.933	372.163	350.339	159.596	376.357	0.00023845	0.00089369	0.00022106	695.54	6.8306e-06	4.7965e-06	365.07	261.96	1.9761e-06	2.3215e-06	149.94	56.196	97.711	53.727	2.249e-06	30.915	0.0010855	0.001299	0.00035879	683.47	1.3906e-05	1.4339e-05	363.52	258.78	1.38e-05	1.4188e-05	152.4	56.753	97.625	53.409	1.3642e-05	30.967	196.556	220.069	127.370	83.561	264.905	250.128	82.071	88.665	270.148	218.417	84.646	89.012	93.619	96.481	263.690	91.511	-8191	255	
35490.480	1	1	0	0	0.11995	0.10213	0.30177	0.20781	0.25139	0.17486	0.061987	0.18962	0.23521	0.17749	0.10799	0.32991	0.13008	0.12821	0.16332	0.1483	-0.27292	-0.65833	-1.3521	-0.49375	-0.9	-1.1854	-0.33958	-1.3771	-0.9875	-0.74167	-1.3937	-0.73542	-0.74375	-1.2104	-0.37292	-1.3625	140.961	184.639	263.741	419.324	75.679	98.346	354.020	409.353	207.322	144.910	205.774	421.371	372.571	88.762	416.103	372.071	0.00028763	0.0009082	9.0019e-05	702.91	2.059e-06	8.4402e-06	365.86	264.29	3.1109e-06	1.5731e-06	151.99	56.198	98.253	53.942	1.9224e-06	31.255	0.0010435	0.0012332	0.0003414	686.03	1.3e-05	1.3381e-05	364.77	259.49	1.2922e-05	1.335e-05	153.21	56.895	97.972	53.594	1.2946e-05	31.179	189.513	130.074	216.830	83.590	262.250	181.026	82.124	89.077	186.970	260.901	84.971	88.396	93.188	96.645	221.313	91.167	-8191	255	
35490.574	1	1	0	0	0.075774	0.17487	0.16044	0.27943	0.045833	0.26304	0.15006	0.1801	0.21516	0.081547	0.054215	0.1761	0.24124	0.23699	0.23699	0.043458	-0.61458	-0.58542	-1.3438	-0.53333	-0.77292	-1.2437	-0.45417	-1.1313	-1.0938	-0.6125	-1.3729	-0.39583	-0.58958	-1.3167	-0.50417	-1.1521	163.077	372.956	390.087	413.214	258.267	155.715	110.936	349.182	92.857	330.309	244.779	420.955	74.531	105.466	212.749	221.587	0.00026438	0.00049287	0.0001067	699.64	4.4321e-06	3.5997e-06	364.3	265.69	2.8768e-06	6.1319e-06	153.5	57.033	99.691	54.566	5.1926e-06	31.474	0.00098413	0.0011652	0.00032699	685.79	1.2621e-05	1.2868e-05	363.73	261.32	1.2295e-05	1.2831e-05	154.71	57.501	98.748	54.078	1.2551e-05	31.465	190.754	159.730	208.009	83.672	218.745	156.085	81.763	89.100	208.810	254.308	85.151	88.781	93.291	96.660	254.897	91.474	-8191	255	
35490.672	1	1	0	0	0.24385	0.032752	0.29709	0.23615	0.10702	0.1466	0.15934	0.22423	0.15776	0.31616	0.12107	0.086625	0.51083	0.20758	0.08527	0.071937	-0.66042	-0.35208	-1.3354	-0.58958	-0.69583	-1.3312	-0.57708	-0.975	-1.3333	-0.49792	-0.94792	-0.72292	-0.72917	-1.3792	-0.47292	-0.89167	382.234	303.351	309.810	415.378	358.060	403.035	93.859	369.257	166.157	151.991	187.259	393.781	389.870	425.407	91.707	385.508	0.00025913	0.00069759	0.00025584	698.68	1.669e-06	3.8825e-06	369.74	267.14	9.0568e-06	3.4769e-06	156.16	57.731	100.15	55.335	7.0599e-06	31.731	0.00097527	0.0011447	0.00031483	686.33	1.2284e-05	1.2476e-05	366.22	262.95	1.2269e-05	1.2684e-05	156.34	58.043	99.502	54.488	1.2421e-05	31.514	184.805	171.470	197.037	83.368	128.857	261.859	81.770	89.020	188.146	207.699	85.244	88.754	93.383	96.824	249.354	91.629	-8191	255	
35490.793	1	1	0	0	0.12767	0.19665	0.033597	0.42245	0.3549	0.11107	0.14218	0.13777	0.15985	0.093137	0.36414	0.22586	0.31418	0.18657	0.37311	0.1213	-0.75833	-0.45417	-1.2104	-0.94792	-0.60417	-1.2042	-0.62708	-0.77083	-1.4104	-0.35417	-1.125	-0.67708	-0.4625	-1.4083	-0.41458	-0.87917	216.733	312.001	384.211	413.746	257.735	414.990	398.490	280.084	299.736	95.673	333.703	368.229	411.274	398.608	126.717	73.743	0.00026797	0.00012081	0.00018923	707.53	2.9885e-07	1.8803e-06	366.37	269.12	2.5487e-06	3.3986e-06	155.68	56.937	99.52	54.951	4.2828e-06	31.486	0.00094808	0.0011163	0.00031449	689.11	1.1984e-05	1.2216e-05	365.79	263.49	1.1843e-05	1.2283e-05	155.78	57.755	99.11	54.401	1.2089e-05	31.376	188.246	197.079	171.663	83.469	258.433	347.973	81.618	89.006	203.248	227.229	85.132	88.739	93.437	96.615	232.767	91.589	-8191	255	
35490.891	1	1	0	0	0.11222	0.072086	0.097913	0.41475	0.0073076	0.15938	0.10476	0.080759	0.17611	0.21256	0.10275	0.18536	0.024073	0.24706	0.095088	0.26095	-0.60625	-0.35	-1.0542	-0.875	-0.475	-1.4792	-0.51667	-0.75417	-1.3604	-0.35625	-0.97708	-1.0979	-0.32708	-1.0854	-0.62292	-0.70625	102.161	108.944	293.266	159.293	417.895	372.620	350.706	317.443	297.173	166.525	383.625	136.435	367.322	92.690	316.181	417.879	0.00027768	0.00055847	0.00010412	707.01	4.2016e-06	4.3471e-06	370.49	269.02	2.6793e-06	2.4031e-06	155.49	58.958	100.7	55.554	3.6192e-06	32.147	0.00094134	0.0011165	0.00030789	691.28	1.1815e-05	1.2064e-05	367.25	265.17	1.1528e-05	1.2054e-05	156.59	58.645	100.36	55.168	1.1862e-05	32.081	189.335	182.793	177.671	83.429	184.697	116.223	81.656	88.992	156.154	258.449	85.391	88.606	93.181	96.611	245.023	91.420	-8191	255	
35490.984	1	1	0	0	0.32768	0.19991	0.36187	0.15225	0.23334	0.13047	0.22544	0.15582	0.1008	0.39257	0.095414	0.31796	0.16067	0.1515	0.088548	0.19313	-1.0688	-0.47292	-0.81875	-1.2625	-0.30417	-1.2375	-0.85417	-0.53542	-1.2833	-0.45	-0.90208	-1.0938	-0.27292	-1.2229	-0.70208	-0.39167	126.385	373.282	233.028	94.776	84.535	170.147	105.338	336.958	79.574	342.158	391.436	148.242	391.581	305.587	208.827	323.593	0.00025044	0.00071027	0.00023884	715.99	1.6988e-06	3.4292e-06	377.87	272.35	1.9389e-06	2.9386e-06	160.02	59.575	102.56	56.749	6.1508e-06	32.913	0.00092086	0.0010914	0.00030141	698.2	1.1485e-05	1.1963e-05	372.87	268.35	1.164e-05	1.193e-05	159.64	59.792	102.12	56.322	1.1988e-05	32.904	181.314	120.925	213.501	83.308	328.986	235.514	81.819	88.763	241.953	373.903	85.430	89.372	92.971	96.726	253.449	91.299	-8191	255	
#DATA ENDS
