BOXY.EXE: ISS Imagent and Oximeter Data Acquisition Program Version 0.80
Ascii Record File

#ACQ INFORMATION
2  Detector Channels 
16  External MUX Channels 
1  Auxiliary Channels 
5000  Waveform (CCF) Frequency (Hz)
1  Waveforms Skipped 
30  Waveforms Averaged 
1  Cycles Averaged 
16  Acquisitions per Waveform 
10.0806  Updata Rate (Hz) 

#FILE INFORMATION
TRUE -- External MUX Channel results are PARSED.
FALSE -- AC DC and Phase are NOT grouped.
TRUE -- Companion Program Settings File CREATED.
FALSE -- AC data not excluded
FALSE -- DC data not excluded
FALSE -- Phase data not excluded
FALSE -- Auxillary Chn. data not excluded
Tab delimiters

#CALIBRATION STATE
TRUE -- Waveform Calibration Values APPLIED.


#AUX CALIBRATION VALUES
Val Type	aux-1	

Term	1.0000e+00	
Factor	0.0000e+00	


#WF CALIBRATION VALUES
A = Detector Channel
Val Type	A-AC1	A-AC2	A-AC3	A-AC4	A-AC5	A-AC6	A-AC7	A-AC8	A-AC9	A-AC10	A-AC11	A-AC12	A-AC13	A-AC14	A-AC15	A-AC16	A-DC1	A-DC2	A-DC3	A-DC4	A-DC5	A-DC6	A-DC7	A-DC8	A-DC9	A-DC10	A-DC11	A-DC12	A-DC13	A-DC14	A-DC15	A-DC16	A-Ph1	A-Ph2	A-Ph3	A-Ph4	A-Ph5	A-Ph6	A-Ph7	A-Ph8	A-Ph9	A-Ph10	A-Ph11	A-Ph12	A-Ph13	A-Ph14	A-Ph15	A-Ph16	

Term	0.00000e+00	0.00000e+00	0.00000e+00	0.00000e+00	0.00000e+00	0.00000e+00	0.00000e+00	0.00000e+00	0.00000e+00	0.00000e+00	0.00000e+00	0.00000e+00	0.00000e+00	0.00000e+00	0.00000e+00	0.00000e+00	0.00000e+00	0.00000e+00	0.00000e+00	0.00000e+00	0.00000e+00	0.00000e+00	0.00000e+00	0.00000e+00	0.00000e+00	0.00000e+00	0.00000e+00	0.00000e+00	0.00000e+00	0.00000e+00	0.00000e+00	0.00000e+00	0.00000e+00	0.00000e+00	0.00000e+00	0.00000e+00	0.00000e+00	0.00000e+00	0.00000e+00	0.00000e+00	0.00000e+00	0.00000e+00	0.00000e+00	0.00000e+00	0.00000e+00	0.00000e+00	0.00000e+00	0.00000e+00	
Factor	1.00000e+00	1.00000e+00	1.00000e+00	1.00000e+00	1.00000e+00	1.00000e+00	1.00000e+00	1.00000e+00	1.00000e+00	1.00000e+00	1.00000e+00	1.00000e+00	1.00000e+00	1.00000e+00	1.00000e+00	1.00000e+00	1.00000e+00	1.00000e+00	1.00000e+00	1.00000e+00	1.00000e+00	1.00000e+00	1.00000e+00	1.00000e+00	1.00000e+00	1.00000e+00	1.00000e+00	1.00000e+00	1.00000e+00	1.00000e+00	1.00000e+00	1.00000e+00	X	X	X	X	X	X	X	X	X	X	X	X	X	X	X	X	

B = Detector Channel
Val Type	B-AC1	B-AC2	B-AC3	B-AC4	B-AC5	B-AC6	B-AC7	B-AC8	B-AC9	B-AC10	B-AC11	B-AC12	B-AC13	B-AC14	B-AC15	B-AC16	B-DC1	B-DC2	B-DC3	B-DC4	B-DC5	B-DC6	B-DC7	B-DC8	B-DC9	B-DC10	B-DC11	B-DC12	B-DC13	B-DC14	B-DC15	B-DC16	B-Ph1	B-Ph2	B-Ph3	B-Ph4	B-Ph5	B-Ph6	B-Ph7	B-Ph8	B-Ph9	B-Ph10	B-Ph11	B-Ph12	B-Ph13	B-Ph14	B-Ph15	B-Ph16	

Term	0.00000e+00	0.00000e+00	0.00000e+00	0.00000e+00	0.00000e+00	0.00000e+00	0.00000e+00	0.00000e+00	0.00000e+00	0.00000e+00	0.00000e+00	0.00000e+00	0.00000e+00	0.00000e+00	0.00000e+00	0.00000e+00	0.00000e+00	0.00000e+00	0.00000e+00	0.00000e+00	0.00000e+00	0.00000e+00	0.00000e+00	0.00000e+00	0.00000e+00	0.00000e+00	0.00000e+00	0.00000e+00	0.00000e+00	0.00000e+00	0.00000e+00	0.00000e+00	-1.09754e+02	-1.38239e+02	-1.31532e+02	-1.81391e+02	-5.83897e+01	-6.33243e+01	-1.56241e+02	-1.62015e+02	-6.27957e+01	-6.37577e+01	-1.71665e+02	-1.69273e+02	-1.84696e+02	-1.76456e+02	-6.03418e+01	-1.48566e+02	
Factor	1.80032e-05	1.77734e-04	5.07847e-05	1.53170e-01	1.28778e-06	1.75967e-06	1.74453e-01	5.42787e-02	1.21557e-06	1.68431e-06	9.53181e-02	3.01745e-02	2.53625e-02	9.70778e-03	1.52160e-06	1.39865e-02	5.92495e-06	7.47141e-06	2.08445e-06	7.86376e-02	7.93799e-08	8.28280e-08	8.42936e-02	2.80420e-02	7.93589e-08	8.30258e-08	4.74837e-02	1.51785e-02	1.32141e-02	5.04186e-03	8.08542e-08	7.02531e-03	X	X	X	X	X	X	X	X	X	X	X	X	X	X	X	X	



#DISTANCE SETTINGS
A = Detector Channel
A-1	A-2	A-3	A-4	A-5	A-6	A-7	A-8	A-9	A-10	A-11	A-12	A-13	A-14	A-15	A-16	

2.5000e+00	3.0000e+00	2.5000e+00	3.0000e+00	2.0000e+00	3.0000e+00	1.5000e+00	3.0000e+00	3.0000e+00	3.0000e+00	3.0000e+00	3.0000e+00	3.0000e+00	3.0000e+00	1.5000e+00	3.0000e+00	

B = Detector Channel
B-1	B-2	B-3	B-4	B-5	B-6	B-7	B-8	B-9	B-10	B-11	B-12	B-13	B-14	B-15	B-16	

1.0000e+01	1.0000e+01	1.0000e+01	1.4400e+00	1.0000e+01	1.0000e+01	1.5100e+00	1.9400e+00	1.0000e+01	1.0000e+01	1.9900e+00	2.4900e+00	2.4100e+00	2.9000e+00	1.0000e+01	2.9800e+00	




#DATA BEGINS
time	group	step	mark	flag	A-AC1	A-AC2	A-AC3	A-AC4	A-AC5	A-AC6	A-AC7	A-AC8	A-AC9	A-AC10	A-AC11	A-AC12	A-AC13	A-AC14	A-AC15	A-AC16	A-DC1	A-DC2	A-DC3	A-DC4	A-DC5	A-DC6	A-DC7	A-DC8	A-DC9	A-DC10	A-DC11	A-DC12	A-DC13	A-DC14	A-DC15	A-DC16	A-Ph1	A-Ph2	A-Ph3	A-Ph4	A-Ph5	A-Ph6	A-Ph7	A-Ph8	A-Ph9	A-Ph10	A-Ph11	A-Ph12	A-Ph13	A-Ph14	A-Ph15	A-Ph16	B-AC1	B-AC2	B-AC3	B-AC4	B-AC5	B-AC6	B-AC7	B-AC8	B-AC9	B-AC10	B-AC11	B-AC12	B-AC13	B-AC14	B-AC15	B-AC16	B-DC1	B-DC2	B-DC3	B-DC4	B-DC5	B-DC6	B-DC7	B-DC8	B-DC9	B-DC10	B-DC11	B-DC12	B-DC13	B-DC14	B-DC15	B-DC16	B-Ph1	B-Ph2	B-Ph3	B-Ph4	B-Ph5	B-Ph6	B-Ph7	B-Ph8	B-Ph9	B-Ph10	B-Ph11	B-Ph12	B-Ph13	B-Ph14	B-Ph15	B-Ph16	aux-1	digaux	

35550.051	1	1	0	768	0.07656	0.28649	0.33991	0.20447	0.39104	0.31361	0.25524	0.24408	0.14234	0.054166	0.20892	0.1113	0.28694	0.23211	0.3207	0.13111	-0.30417	-1.5042	-0.775	-0.76458	-1.3937	-0.75417	-1.0854	-1.4958	-0.40625	-1.3646	-0.99792	-0.67708	-1.5042	-0.52917	-0.79167	-1.4125	25.056	17.850	-20.684	244.809	233.739	-40.367	264.175	230.066	189.750	41.772	36.572	162.576	-65.997	-64.772	83.092	222.388	0.00010022	0.00036744	0.0002863	720.12	3.3461e-06	6.6365e-06	400.66	274.26	2.6884e-06	6.3881e-06	153.85	57.837	106.05	57.294	4.4011e-06	30.367	0.0014248	0.001781	0.00049682	710.07	1.8884e-05	1.9954e-05	401.49	270.56	1.8998e-05	1.9664e-05	157.66	59.545	106.59	56.732	1.9326e-05	30.711	197.991	-25.799	-24.274	-72.575	146.887	89.328	-74.540	-67.019	261.331	21.996	-70.212	-66.631	-62.768	-59.159	20.768	-64.075	-8191	255	
35550.148	1	1	0	0	0.19783	0.13396	0.35463	0.20157	0.18739	0.040323	0.15123	0.16571	0.13331	0.12081	0.17804	0.23617	0.10119	0.14278	0.1474	0.2806	-0.070833	-1.2083	-0.82292	-0.7625	-1.3625	-0.6	-0.93542	-1.5521	-0.66042	-1.1708	-1.0312	-0.525	-1.6146	-0.83542	-0.81667	-1.2958	88.646	-72.905	-35.607	215.700	-40.023	-32.158	207.322	238.703	222.507	-19.122	190.305	150.208	229.666	21.940	55.285	53.611	7.4064e-05	0.00022698	3.8524e-05	727.68	6.903e-07	6.4089e-06	399.25	273.06	2.6991e-06	2.9546e-06	150.58	56.827	105.44	56.547	9.6559e-06	29.593	0.001456	0.001798	0.00050077	713.25	1.9256e-05	2.0268e-05	402.1	269.72	1.9554e-05	2.0423e-05	155.6	58.637	105.53	56.031	2.0392e-05	30.198	236.723	50.780	17.129	-72.262	206.559	-29.161	-74.296	-67.117	13.526	37.018	-70.796	-67.105	-62.798	-59.256	35.299	-64.077	-8191	255	
35550.242	1	1	0	0	0.23446	0.15665	0.058677	0.1944	0.098176	0.3577	0.10879	0.11056	0.14605	0.25292	0.16145	0.23598	0.32414	0.33398	0.063677	0.17737	-0.12917	-1.1083	-1.0208	-0.9125	-1.4896	-0.92708	-0.64583	-1.5583	-0.62083	-1.1167	-1.2292	-0.52083	-1.3563	-0.94583	-0.75833	-1.5396	104.245	62.129	253.429	175.388	139.187	124.324	-37.963	179.130	-13.461	107.971	152.977	254.485	223.123	203.724	123.357	31.893	0.00017142	0.00051506	3.7825e-05	717.38	1.7527e-06	7.3362e-06	396.43	271.38	2.6192e-06	5.4941e-06	149.4	56.078	104.74	56.041	1.5744e-06	29.517	0.0015455	0.0019141	0.00053332	706.95	2.0461e-05	2.1546e-05	397.59	268.06	2.0769e-05	2.1961e-05	154.49	58.372	105.04	55.789	2.1719e-05	30.128	198.181	-42.888	-43.554	-72.880	107.586	77.646	-74.266	-66.968	142.060	73.955	-70.687	-67.056	-62.528	-58.888	93.082	-63.982	-8191	255	
35550.340	1	1	0	0	0.11456	0.10162	0.04315	0.4998	0.26033	0.12227	0.15316	0.107	0.032696	0.088172	0.038257	0.17974	0.25673	0.22834	0.037946	0.16473	-0.25	-1.0396	-1.2313	-0.51042	-1.35	-1.0042	-0.71458	-1.575	-0.82708	-1.05	-1.3979	-0.53333	-1.3563	-1.3563	-0.63542	-1.4021	31.091	213.240	148.884	235.041	237.392	205.419	-19.764	234.097	104.439	222.597	-66.240	123.808	233.161	199.988	271.402	255.664	9.5635e-05	0.00045264	0.00014792	717.58	5.8956e-06	3.7055e-06	392.34	269.35	2.5927e-06	1.1192e-06	149.12	55.772	105.09	56.224	8.5147e-07	29.27	0.0016237	0.0020283	0.00056386	703.68	2.1722e-05	2.2476e-05	395.29	267.31	2.1813e-05	2.2576e-05	155.43	58.345	105.36	55.86	2.2136e-05	30.092	194.581	74.295	196.031	-72.833	-12.874	61.202	-74.599	-66.697	-1.497	-61.150	-70.380	-66.609	-62.449	-59.005	73.631	-63.778	-8191	255	
35550.438	1	1	0	0	0.14848	0.40778	0.020561	0.18354	0.20461	0.21849	0.078701	0.089203	0.31625	0.15116	0.033649	0.17279	0.13239	0.087617	0.25214	0.14682	-0.28333	-0.68125	-1.475	-0.64167	-1.1562	-1.0958	-0.52708	-1.3979	-0.84375	-0.71042	-1.4917	-0.5	-1.3438	-1.4271	-0.39375	-1.3	213.662	-83.012	22.027	-56.999	62.859	76.533	-2.481	-27.706	187.315	-19.351	215.620	-5.940	86.301	240.752	207.985	-62.993	0.00012068	0.00053701	0.00013432	712.87	5.7339e-06	3.6195e-06	393.1	271.18	2.8355e-06	8.8714e-06	151.45	57.004	105.5	56.775	1.7546e-06	29.967	0.0016418	0.0020385	0.00057389	703.61	2.1793e-05	2.2435e-05	398.37	268.35	2.1627e-05	2.2458e-05	156.56	59.116	105.95	56.434	2.198e-05	30.592	183.333	125.729	-43.803	-72.361	67.682	20.823	-74.425	-66.896	95.683	68.475	-70.379	-66.471	-62.702	-59.152	205.924	-63.557	-8191	255	
35550.531	1	1	0	0	0.20111	0.37412	0.12713	0.068633	0.21689	0.065189	0.20188	0.14682	0.11629	0.14066	0.1535	0.15722	0.31645	0.39022	0.17362	0.14316	-0.62708	-0.55417	-1.3312	-0.52083	-1.0521	-1.1896	-0.47708	-1.3354	-0.93125	-0.80417	-1.3625	-0.57292	-1.0896	-1.4583	-0.40208	-1.3125	41.135	84.443	-78.553	259.940	-44.520	154.627	-44.014	253.034	244.003	107.680	39.469	202.322	-75.631	214.482	-82.857	-81.302	0.00010586	0.00032286	0.00027969	719.92	1.0185e-06	1.1267e-06	398.45	272.14	3.5244e-06	2.3838e-06	153.29	57.773	105.78	57.296	2.9361e-06	30.279	0.00162	0.0020078	0.00056001	708.46	2.1197e-05	2.2254e-05	402.49	270.07	2.1275e-05	2.2306e-05	157.92	59.75	106.51	56.832	2.2124e-05	30.828	207.249	26.528	-31.059	-72.328	266.107	118.242	-74.480	-66.977	231.138	210.379	-70.656	-66.859	-62.523	-58.610	100.811	-63.905	-8191	255	
35550.652	1	1	0	0	0.22887	0.038483	0.19587	0.073823	0.43189	0.13542	0.31265	0.2062	0.13481	0.33825	0.2304	0.1334	0.08835	0.045288	0.1484	0.066825	-0.55208	-0.525	-1.3458	-0.6875	-0.70833	-1.2896	-0.45	-1.2646	-1.0979	-0.37917	-1.3333	-0.78125	-0.87708	-1.4292	-0.37917	-1.2625	173.911	102.254	264.730	63.863	52.326	217.549	-67.168	163.499	-80.423	-23.888	187.896	255.000	-34.036	146.029	-12.889	162.614	2.6058e-05	0.00087076	0.00013013	722.24	5.8465e-06	6.3467e-06	393.76	273.54	4.6355e-06	1.2195e-06	151.6	57.234	105.56	57.259	5.2143e-06	29.952	0.0016355	0.0020139	0.00056545	709.86	2.1747e-05	2.2162e-05	398.9	270.54	2.1995e-05	2.2725e-05	156.85	59.373	106.42	56.739	2.2704e-05	30.693	165.878	0.576	175.545	-72.449	57.184	173.840	-73.961	-66.764	93.522	-1.803	-70.972	-66.799	-62.456	-58.750	104.338	-63.483	-8191	255	
35550.746	1	1	0	0	0.16041	0.11126	0.15873	0.13435	0.2792	0.087307	0.029718	0.25356	0.17143	0.17488	0.2189	0.093099	0.22678	0.21078	0.012044	0.13413	-0.8125	-0.21458	-1.0729	-0.70208	-0.70625	-1.2708	-0.35625	-1.0812	-1.1667	-0.57917	-1.3958	-0.87708	-0.59167	-1.6229	-0.61667	-1.0667	56.669	-68.712	157.649	231.520	70.367	270.147	195.402	216.945	37.945	-11.412	-76.874	63.739	10.285	160.814	273.421	201.724	6.7775e-05	0.0006376	0.00037101	714.76	2.2194e-06	5.1669e-06	391.51	272.38	2.6261e-06	9.0915e-06	149.84	56.689	105.22	56.685	2.3935e-06	29.86	0.0017104	0.0021229	0.00058432	706.45	2.2389e-05	2.3253e-05	397.09	269.13	2.2121e-05	2.3335e-05	156.25	59.028	105.94	56.316	2.2972e-05	30.617	221.126	80.724	18.805	-72.180	-1.835	44.428	-74.161	-66.565	4.928	131.085	-70.607	-66.922	-62.273	-58.538	224.270	-63.181	-8191	255	
35550.844	1	1	0	0	0.055052	0.060717	0.25486	0.2005	0.090101	0.15802	0.27218	0.21456	0.20803	0.20712	0.41168	0.12474	0.14944	0.09109	0.18076	0.04051	-0.83542	-0.38542	-1.2396	-1.1979	-0.68125	-1.6	-0.6625	-1.0354	-1.3438	-0.46042	-1.175	-1.0146	-0.73333	-1.5125	-0.66042	-0.99792	11.030	97.590	46.214	265.950	35.685	-47.543	234.108	-49.433	25.533	219.172	261.820	179.835	222.676	-67.077	187.709	106.210	4.4326e-05	0.00089523	0.00026616	716.46	4.5651e-06	6.9438e-07	391.18	271.14	2.5753e-06	8.7958e-06	148.76	56.609	105.15	56.583	5.7841e-06	29.645	0.0017043	0.0021265	0.00058834	705.66	2.2585e-05	2.3487e-05	397.93	267.7	2.2743e-05	2.3723e-05	156.01	58.838	105.59	56.241	2.3078e-05	30.462	117.130	258.059	55.941	-72.619	96.973	59.814	-74.349	-66.750	-39.983	56.623	-70.005	-67.031	-62.223	-58.919	16.299	-63.960	-8191	255	
35550.938	1	1	0	0	0.12251	0.18173	0.14993	0.28565	0.062662	0.1271	0.078316	0.27001	0.23707	0.1372	0.11662	0.27943	0.091702	0.1823	0.22764	0.1249	-1.0458	-0.40833	-1.3	-1.2104	-0.52708	-1.5438	-0.67708	-0.91458	-1.3854	-0.59375	-1.3104	-1.2708	-0.75417	-1.5312	-0.77917	-0.76875	209.627	-4.341	145.183	201.281	182.993	-78.812	-74.884	192.364	-0.683	62.857	202.875	183.381	15.766	18.976	138.653	255.040	0.0001016	0.00049825	0.00034365	717.47	3.3428e-07	8.4823e-06	389.3	269.23	2.6817e-06	7.613e-06	149.34	56.968	104.83	56.806	3.3121e-06	29.896	0.0017181	0.0021448	0.00059238	705.84	2.2854e-05	2.3785e-05	397.3	268.32	2.2897e-05	2.4169e-05	156.05	59.32	105.43	56.466	2.3809e-05	30.619	207.080	-70.389	40.694	-72.069	-6.383	118.405	-74.215	-66.649	117.507	8.450	-70.603	-66.855	-62.535	-58.575	71.631	-63.882	-8191	255	
35551.035	1	1	0	0	0.20964	0.12304	0.099083	0.06923	0.11651	0.071816	0.19492	0.35137	0.16563	0.3309	0.18469	0.15001	0.24128	0.21648	0.19961	0.2118	-1.0438	-0.52708	-1.0417	-1.2125	-0.41875	-1.4854	-0.6625	-0.88125	-1.4479	-0.53333	-0.95	-1.4521	-0.58333	-1.5333	-0.74792	-0.76875	4.499	108.043	-54.523	-9.294	124.694	173.563	245.728	247.144	142.841	-47.723	-38.376	103.523	197.263	-81.059	-83.657	19.728	8.3927e-05	0.00026909	0.00010093	718	2.192e-06	5.1162e-06	396.77	269.91	5.3958e-06	9.916e-06	148.27	56.498	104.07	56.441	4.4466e-06	29.612	0.0017569	0.002167	0.00060427	705.09	2.3018e-05	2.4046e-05	398.41	267.99	2.3152e-05	2.4144e-05	155.45	58.778	105.06	56.138	2.3481e-05	30.312	196.624	241.074	241.763	-72.184	23.584	145.960	-74.467	-66.431	77.721	86.199	-70.095	-67.191	-62.611	-58.655	16.260	-63.381	-8191	255	
35551.133	1	1	0	0	0.27812	0.29134	0.31249	0.091894	0.068192	0.14616	0.11843	0.24803	0.043717	0.15016	0.29462	0.315	0.27592	0.10409	0.050607	0.034072	-1.0854	-0.44167	-0.9375	-1.3292	-0.57708	-1.2646	-0.91042	-0.59167	-1.4375	-0.55625	-0.82083	-1.35	-0.68958	-1.4833	-1.1833	-0.5375	147.817	266.307	-57.252	141.819	-61.609	170.229	128.922	187.334	275.245	103.232	-33.431	258.118	147.287	-73.679	45.837	83.264	5.7596e-05	0.00063176	3.1607e-05	710.07	6.5664e-06	3.7803e-06	384.26	268.68	3.1529e-06	8.9015e-06	147.96	55.646	104.89	56.276	3.5835e-06	29.344	0.0017208	0.0021327	0.00059813	701.7	2.2764e-05	2.3672e-05	390.9	266.46	2.2773e-05	2.3628e-05	154.07	57.907	104.79	55.819	2.2978e-05	30.075	265.384	31.803	105.880	-72.508	65.756	-16.077	-74.635	-66.518	272.351	149.034	-69.813	-66.712	-62.258	-58.598	-8.241	-63.646	-8191	255	
35551.254	1	1	0	0	0.22129	0.1863	0.37327	0.099846	0.16504	0.18688	0.28456	0.09518	0.12259	0.1042	0.19697	0.11257	0.24068	0.20487	0.21767	0.1614	-1.0042	-0.76667	-0.71042	-1.4354	-0.38542	-1.3271	-1.0604	-0.52292	-1.4417	-0.95	-0.87708	-1.4312	-0.69167	-0.99167	-1.1896	-0.48958	-33.665	47.761	75.327	-37.250	206.327	-14.881	-28.879	37.130	-43.569	123.916	203.591	173.962	-46.604	128.163	202.168	251.276	8.3931e-05	0.00037069	0.00013671	709.3	6.6254e-06	4.5991e-06	384.37	266.62	2.6606e-06	4.0835e-07	148.58	56.159	104.36	56.336	1.1209e-05	29.408	0.0017029	0.0021096	0.00058383	700.4	2.2245e-05	2.3359e-05	390.12	265.01	2.2241e-05	2.3475e-05	153.42	58.107	104.69	55.928	2.2534e-05	30.135	172.676	66.389	139.827	-72.057	162.536	144.498	-74.297	-66.393	-10.750	137.855	-70.359	-66.412	-62.498	-58.487	72.161	-63.992	-8191	255	
35551.348	1	1	0	0	0.25569	0.1455	0.25277	0.24492	0.15725	0.068484	0.17485	0.27402	0.23678	0.095848	0.034223	0.025885	0.20128	0.1113	0.12326	0.086769	-0.92292	-0.84167	-0.61458	-1.5104	-0.58958	-1.0438	-1.4167	-0.63125	-1.35	-0.975	-0.54375	-1.3083	-0.60417	-1.1812	-1.1583	-0.41667	-9.291	196.416	-72.895	-83.872	-54.122	-46.032	209.022	212.571	-22.133	55.723	228.886	-31.071	200.189	-22.524	-14.626	177.143	8.6663e-05	0.00047818	0.00021085	710.55	1.175e-06	8.7157e-06	384.99	268.72	4.289e-06	2.8676e-06	147.24	55.949	104.35	56.007	7.092e-06	29.072	0.0016718	0.0020736	0.00058065	699.04	2.2398e-05	2.3083e-05	390.6	265.23	2.2135e-05	2.2989e-05	153.34	58.145	104.65	55.823	2.2411e-05	30.06	192.249	37.183	208.021	-71.926	64.170	9.384	-73.903	-66.490	238.025	77.209	-69.694	-66.709	-62.155	-58.515	94.806	-63.293	-8191	255	
35551.441	1	1	0	0	0.11236	0.045227	0.20918	0.107	0.14314	0.27365	0.057009	0.1926	0.16619	0.21058	0.21095	0.19479	0.28146	0.35561	0.1166	0.2581	-0.9625	-1.0292	-0.51875	-1.4688	-0.68333	-0.94375	-1.4125	-0.67708	-1.1542	-1.1688	-0.3	-1.2458	-0.75833	-0.79792	-1.2563	-0.54167	-73.282	151.120	17.409	192.178	85.062	21.883	103.276	-83.057	-70.011	-24.720	-0.334	254.815	-18.067	90.404	158.604	-51.839	8.7275e-05	0.00046352	0.00021346	708.38	1.2171e-06	5.5998e-06	384.63	267.56	7.7074e-06	6.3248e-06	148.62	56.156	103.81	56.003	2.1316e-06	29.708	0.0016588	0.0020785	0.00056927	697.22	2.2178e-05	2.2848e-05	389.96	265.08	2.2113e-05	2.2695e-05	153.95	58.213	104.44	55.827	2.1615e-05	30.306	227.588	-57.222	71.409	-72.244	205.595	81.175	-74.096	-66.768	45.190	131.199	-70.493	-66.569	-62.689	-58.707	190.898	-64.091	-8191	255	
35551.539	1	1	0	0	0.1618	0.072337	0.099013	0.16062	0.16135	0.18745	0.12058	0.20725	0.26788	0.22876	0.10938	0.084654	0.35607	0.30761	0.13399	0.1185	-0.81875	-0.96042	-0.35208	-1.4146	-0.89583	-0.80208	-1.4604	-0.54375	-1.0562	-1.2	-0.39167	-1.3375	-0.95417	-0.62708	-1.2896	-0.57292	275.226	234.345	-50.756	179.824	213.184	-77.055	150.349	193.846	260.951	29.854	17.108	125.557	240.338	-56.955	-58.422	199.945	8.2508e-05	0.00068357	0.00014444	713.02	3.3976e-06	3.2875e-06	383.5	268.72	1.7461e-06	4.4959e-06	147.11	55.166	103.98	55.94	4.907e-06	29.174	0.0016578	0.0020365	0.00057343	700.87	2.1945e-05	2.279e-05	387.65	265.05	2.1827e-05	2.2566e-05	152.47	57.54	104.2	55.715	2.2094e-05	29.786	207.365	36.454	117.806	-72.190	120.057	73.985	-73.814	-66.758	32.108	160.688	-70.174	-66.388	-62.610	-58.719	37.679	-63.946	-8191	255	
35551.613	1	1	0	0	0.11557	0.10636	0.10635	0.30257	0.31288	0.16483	0.22017	0.12005	0.15258	0.21603	0.025176	0.14613	0.29829	0.30595	0.15563	0.33429	-0.46458	-1.3083	-0.27708	-1.5125	-1.0104	-0.60417	-1.3042	-0.69792	-0.75	-1.2604	-0.44375	-1.3563	-1.0667	-0.65625	-1.4188	-0.55625	-23.186	19.650	227.257	248.749	81.412	70.825	172.610	165.495	4.459	-9.341	68.378	154.263	234.068	216.837	-11.940	-46.849	7.2306e-05	0.00054258	0.00015163	705.09	2.8567e-06	4.7414e-06	380.07	265.8	2.722e-06	3.0932e-06	144.99	54.679	103.63	56.06	5.6011e-06	29.041	0.0016212	0.0020344	0.00056908	694.51	2.1781e-05	2.2487e-05	384.67	263.77	2.1485e-05	2.2566e-05	151.35	57.267	104.02	55.68	2.1789e-05	29.836	141.562	111.421	-6.881	-72.276	116.140	70.893	-74.172	-66.879	120.523	-25.767	-70.468	-66.257	-62.460	-58.319	190.860	-63.355	-8191	255	
35551.730	1	1	0	0	0.35848	0.21187	0.12865	0.18563	0.21708	0.067743	0.37256	0.11656	0.11387	0.058695	0.18149	0.19567	0.072974	0.15084	0.25582	0.091941	-0.18333	-1.1958	-0.31458	-1.3312	-1.0438	-0.44375	-1.3667	-0.78333	-0.55	-1.3917	-0.53542	-1.1854	-1.2667	-0.57083	-1.2771	-0.84167	18.861	142.908	65.699	-78.726	178.782	66.015	166.278	216.612	-4.716	57.033	-5.475	262.677	-29.500	-54.892	149.244	10.190	8.8009e-05	0.00036544	0.00038979	706.45	1.51e-06	1.9746e-06	381.34	265.9	2.3157e-06	4.8048e-06	146.26	54.699	103.53	56.041	2.1186e-06	29.022	0.0016541	0.0020135	0.00056537	694.21	2.1497e-05	2.2172e-05	384.21	263.25	2.1647e-05	2.2196e-05	151.49	57.296	103.89	55.506	2.182e-05	29.742	188.339	228.087	68.154	-71.829	59.965	115.847	-73.728	-66.613	134.279	105.955	-70.843	-66.149	-62.613	-58.483	28.693	-63.720	-8191	255	
35551.828	1	1	0	0	0.12325	0.025681	0.14721	0.41044	0.1204	0.086228	0.15702	0.19215	0.39564	0.15321	0.15656	0.23134	0.37214	0.13817	0.15614	0.095265	-0.21042	-1.4292	-0.38542	-1.2958	-1.1521	-0.49167	-1.3229	-0.96458	-0.53333	-1.4688	-0.57917	-0.9125	-1.2875	-0.64375	-1.5354	-0.95625	-33.422	198.265	260.750	-72.950	237.382	264.393	-61.800	246.008	-60.433	207.877	242.504	79.408	-0.334	-50.631	178.717	156.658	0.00012146	0.00079797	2.4051e-05	703.6	3.4666e-06	3.7776e-06	377.23	265.17	2.7128e-06	2.4293e-06	145.67	54.753	102.92	55.774	6.2203e-06	29.139	0.0016467	0.0020381	0.00057063	693.81	2.1647e-05	2.275e-05	384.06	263.26	2.2028e-05	2.2906e-05	152	57.489	103.63	55.479	2.2645e-05	29.927	242.050	12.100	-59.579	-71.613	52.876	124.707	-73.676	-66.727	158.295	21.192	-70.025	-66.837	-62.589	-58.820	21.862	-64.225	-8191	255	
35551.922	1	1	0	0	0.20674	0.11979	0.15817	0.12225	0.44722	0.1186	0.16496	0.3713	0.12356	0.1524	0.24326	0.11929	0.054486	0.1795	0.28579	0.32814	-0.0625	-1.3188	-0.67083	-0.71875	-1.3	-0.32708	-1.1854	-1.1729	-0.32708	-1.5708	-0.68333	-0.80208	-1.425	-0.53125	-1.1521	-1.1104	252.087	89.880	198.788	217.403	79.575	-50.352	194.006	-19.959	206.964	75.629	190.369	-46.950	-61.957	219.765	255.951	196.596	6.5105e-05	0.0001342	0.00021043	702.43	5.3467e-06	7.3044e-06	379.43	265.6	2.3974e-06	4.6071e-06	146.82	55.475	103.45	56.064	4.3465e-06	29.186	0.0016746	0.0020651	0.00058476	692.85	2.2166e-05	2.2944e-05	385.91	263.15	2.2201e-05	2.297e-05	153.1	57.817	104.1	55.753	2.3223e-05	29.952	196.251	24.425	21.283	-72.352	40.809	55.140	-74.026	-66.837	68.660	-78.188	-70.769	-66.776	-62.835	-58.826	154.502	-63.691	-8191	255	
35552.043	1	1	0	0	0.17888	0.18238	0.21949	0.091204	0.061898	0.089699	0.16406	0.096751	0.27843	0.30374	0.18905	0.25201	0.2519	0.23016	0.12501	0.25748	-0.079167	-1.3	-0.52708	-0.7625	-1.4	-0.47083	-1.0833	-1.1021	-0.27708	-1.4271	-1.0187	-0.80833	-1.4354	-0.68333	-0.9625	-1.2479	-53.968	183.931	24.153	215.590	0.887	12.897	-5.681	272.043	46.450	0.064	175.643	213.093	214.892	221.926	245.029	269.096	7.1454e-05	0.00035578	0.00012396	703.8	6.0384e-06	8.2969e-06	375.79	264.49	1.8408e-06	4.8316e-06	143.91	54.298	103	55.713	1.4897e-07	28.961	0.0017247	0.0021386	0.0005996	692.9	2.2733e-05	2.3838e-05	382.28	262.44	2.3188e-05	2.3872e-05	150.74	56.885	103.3	55.24	2.3613e-05	29.619	198.436	-26.993	32.899	-72.041	-2.415	108.602	-74.207	-66.791	179.559	36.236	-70.656	-66.393	-62.201	-58.912	47.409	-64.044	-8191	255	
35552.141	1	1	0	0	0.20708	0.23271	0.12757	0.33173	0.25279	0.084177	0.13947	0.25785	0.027676	0.22522	0.3227	0.14755	0.11656	0.2486	0.22233	0.064148	0.00625	-1.3396	-0.87083	-0.72083	-1.4312	-0.4875	-0.92917	-1.3708	-0.48125	-1.0187	-1.0167	-0.55	-1.5187	-0.92083	-0.8625	-1.4188	120.881	78.043	-55.847	258.695	115.800	60.331	72.612	-46.745	-57.500	51.087	-9.289	66.190	-31.645	228.994	136.694	-43.309	6.0368e-05	0.00087588	7.4821e-05	698.39	4.6592e-06	7.8444e-06	376.89	263.59	2.4714e-06	3.1423e-06	142.6	54.54	102.32	55.183	1.0857e-05	28.779	0.0017555	0.0021814	0.00061078	689.08	2.2968e-05	2.4241e-05	380.14	261.35	2.2835e-05	2.4354e-05	149.84	56.745	102.98	55.18	2.372e-05	29.552	159.387	-65.556	71.671	-72.433	-26.064	152.763	-74.299	-66.754	201.517	217.746	-70.485	-67.487	-62.653	-58.864	12.514	-63.387	-8191	255	
35552.211	1	1	0	0	0.10529	0.21927	0.31364	0.21452	0.24702	0.23293	0.3488	0.17882	0.055767	0.38056	0.30726	0.15364	0.056815	0.11964	0.10392	0.14875	-0.091667	-1.0771	-0.9375	-0.56667	-1.5104	-0.63958	-0.72708	-1.3458	-0.44583	-0.98333	-1.1542	-0.38958	-1.2938	-0.83333	-0.49792	-1.6104	220.226	68.890	-64.900	189.246	-67.801	25.023	12.448	45.174	136.975	156.227	142.652	-54.708	231.432	212.005	28.304	-36.664	9.5795e-05	0.00089526	0.00027401	697.27	7.0294e-06	6.6399e-06	371.14	262.36	2.8162e-06	2.9281e-06	142.38	54.453	102.61	55.635	7.4521e-07	28.942	0.0017691	0.0021822	0.00060541	687.19	2.3236e-05	2.4327e-05	379.18	260.82	2.2902e-05	2.406e-05	149.54	56.888	103.36	55.34	2.3126e-05	29.805	213.434	268.469	-49.479	-72.179	117.613	62.779	-74.032	-66.591	157.578	101.855	-70.874	-66.435	-62.330	-59.029	161.524	-63.546	-8191	255	
35552.332	1	1	0	0	0.18417	0.33518	0.13026	0.30829	0.046009	0.21053	0.30729	0.023739	0.22595	0.17746	0.033723	0.12194	0.27483	0.096388	0.17113	0.033181	-0.070833	-1.0146	-1.1208	-0.44792	-1.2958	-0.925	-0.53542	-1.4833	-0.38333	-0.88333	-1.4062	-0.61042	-1.4208	-1.0688	-0.62708	-1.5542	15.587	-6.155	-7.990	-83.287	93.561	136.646	-38.133	131.388	256.085	224.570	184.117	9.303	-58.785	-65.656	146.139	209.816	7.4152e-05	0.00032466	0.00014013	698.36	3.6487e-06	2.3307e-06	369.24	263.18	1.826e-06	9.7141e-06	144.22	55.128	103.09	55.826	2.9404e-06	29.153	0.0017331	0.0021533	0.00058394	687.45	2.2786e-05	2.3391e-05	379.69	261.55	2.2416e-05	2.3541e-05	150.71	57.237	103.56	55.579	2.2716e-05	29.92	222.392	15.754	164.487	-71.806	116.542	86.689	-73.932	-66.329	13.387	56.663	-69.995	-66.685	-62.541	-58.701	35.242	-63.273	-8191	255	
35552.430	1	1	0	0	0.22328	0.090141	0.20879	0.34487	0.18465	0.12187	0.14657	0.11474	0.081588	0.24831	0.18792	0.46788	0.11535	0.16634	0.16723	0.031273	-0.36667	-0.9375	-1.2396	-0.46667	-1.1292	-1.1	-0.69792	-1.4542	-0.64792	-0.8125	-1.5042	-0.63125	-1.125	-1.1979	-0.40625	-1.5063	190.145	224.224	108.776	255.417	194.173	111.406	248.575	73.693	-42.176	133.365	-54.763	-84.471	-54.083	234.345	120.660	-29.262	5.2337e-05	0.00080967	0.00030848	699.3	2.9042e-06	1.0036e-05	373.31	265.06	3.6774e-06	9.622e-06	144.28	54.546	102.36	55.769	6.9036e-06	28.883	0.0017196	0.0021298	0.00058327	688.17	2.2837e-05	2.3607e-05	382.31	262.27	2.303e-05	2.4124e-05	150.73	57.104	103.4	55.5	2.4217e-05	29.779	272.990	5.809	23.255	-71.652	47.790	59.826	-73.767	-66.527	178.474	-52.400	-69.936	-66.517	-62.512	-58.898	101.788	-63.772	-8191	255	
35552.523	1	1	0	0	0.18987	0.20643	0.13142	0.25251	0.1134	0.3041	0.037163	0.29441	0.23457	0.14721	0.12531	0.15571	0.1291	0.19614	0.28333	0.059603	-0.35208	-0.55	-1.475	-0.72083	-1.0875	-1.3062	-0.56458	-1.475	-0.86042	-0.65208	-1.5021	-0.40417	-1.2188	-1.35	-0.34792	-1.3375	55.450	66.955	128.424	222.458	-14.474	109.245	48.712	260.258	121.846	254.334	206.905	231.756	-1.265	159.926	250.325	225.047	1.2975e-05	0.00078717	0.00023512	695.35	3.648e-06	1.0783e-05	369.13	263.13	5.6857e-06	5.689e-06	141.48	54.121	102.09	55.643	4.6866e-06	28.731	0.0018155	0.0022677	0.00061944	687.21	2.3911e-05	2.455e-05	376.98	261.43	2.422e-05	2.4993e-05	149.42	56.809	103.25	55.541	2.4264e-05	29.794	184.994	-82.556	4.609	-72.252	168.061	67.588	-74.257	-66.786	67.846	75.600	-70.041	-66.600	-62.374	-58.308	-47.040	-63.659	-8191	255	
35552.645	1	1	0	0	0.071064	0.20896	0.045359	0.29118	0.29273	0.098057	0.093678	0.19045	0.097831	0.24323	0.24717	0.14821	0.45871	0.46725	0.31805	0.13088	-0.38125	-0.68125	-1.3854	-0.60208	-0.75833	-1.2021	-0.46042	-1.3896	-1.1313	-0.62917	-1.4042	-0.68333	-1.0104	-1.4	-0.38542	-1.275	-24.322	216.989	-34.431	-48.007	210.962	107.396	157.301	-64.960	-7.692	221.063	174.957	-82.835	-50.204	241.399	37.900	-42.445	8.9111e-05	0.00083053	8.9862e-05	694.28	3.5234e-06	6.9898e-06	365.6	262.72	7.3921e-06	4.5774e-06	141.98	53.735	102.27	55.834	1.152e-05	29.034	0.0018337	0.0022475	0.00062666	683.23	2.3684e-05	2.4491e-05	375.58	260.36	2.3556e-05	2.4431e-05	149.04	56.53	103	55.509	2.3588e-05	29.775	199.827	-4.461	101.797	-72.086	56.277	38.659	-73.597	-66.299	59.550	-64.075	-70.552	-66.810	-62.383	-58.602	72.218	-63.219	-8191	255	
35552.738	1	1	0	0	0.23599	0.24844	0.064497	0.17343	0.24164	0.13053	0.089136	0.17762	0.098843	0.088823	0.046446	0.11455	0.25714	0.34155	0.096042	0.12448	-0.76042	-0.425	-1.5021	-0.88542	-0.8625	-1.4396	-0.51875	-1.2687	-0.99167	-0.49792	-1.5125	-0.76042	-0.74583	-1.5604	-0.47083	-1.0458	260.466	226.126	182.903	255.436	232.514	-44.796	211.225	254.571	-49.787	191.171	-50.983	0.944	208.597	262.033	-10.398	217.434	8.6976e-05	0.00032637	0.00038939	696.75	2.8563e-06	4.4198e-06	366.98	263.06	5.8989e-07	6.9973e-06	143.23	54.724	103.06	56.203	7.521e-06	29.122	0.0017618	0.0021843	0.00060847	686	2.3626e-05	2.4011e-05	376.74	260.93	2.3398e-05	2.4566e-05	150.71	57.129	103.95	55.868	2.4025e-05	30.104	254.800	-44.521	77.629	-71.495	64.651	57.719	-73.482	-66.566	211.915	34.075	-69.807	-66.293	-61.768	-58.477	-74.217	-62.921	-8191	255	
35552.836	1	1	0	0	0.21342	0.069796	0.13271	0.13618	0.18058	0.11104	0.092102	0.27265	0.11321	0.33684	0.033162	0.20729	0.27515	0.13255	0.33303	0.14399	-0.99167	-0.37708	-1.2854	-0.85833	-0.7	-1.5208	-0.53958	-1.0521	-1.2354	-0.78542	-1.2792	-1.0125	-0.78333	-1.3958	-0.63333	-1	-62.354	-57.642	273.924	199.149	-56.560	-9.830	-53.954	235.361	109.607	199.643	130.467	-75.403	243.818	-41.703	121.678	221.214	4.7219e-05	0.00052151	0.00019239	696.88	2.8755e-06	7.4992e-06	373.82	264.93	4.6239e-06	3.9974e-06	145.32	54.912	103.36	56.532	1.2339e-06	29.681	0.0017724	0.0021888	0.00061488	686.79	2.3542e-05	2.4131e-05	381.35	262.76	2.371e-05	2.4921e-05	152.27	57.76	104.31	56.286	2.5284e-05	30.561	241.122	-53.000	-9.225	-72.175	55.025	43.111	-73.854	-66.141	270.136	197.551	-69.706	-66.663	-62.179	-58.755	11.570	-63.389	-8191	255	
35552.906	1	1	0	0	0.057658	0.16237	0.15679	0.13258	0.28201	0.16211	0.41265	0.10573	0.2171	0.19047	0.23305	0.13265	0.17996	0.041727	0.075625	0.15964	-0.80208	-0.48333	-1.2854	-1.1833	-0.45833	-1.2896	-0.84167	-0.8375	-1.3042	-0.25833	-1.1792	-1.1958	-0.57083	-1.2917	-0.75	-0.75833	-60.171	191.557	203.043	-62.086	274.811	177.733	115.268	-73.052	19.222	84.931	111.594	93.016	-83.694	16.851	118.370	-34.289	7.239e-05	0.00069739	0.00026585	698.44	2.0804e-06	1.303e-06	371.74	264.62	4.8773e-06	3.9291e-06	141.92	54.369	103.03	56.185	5.9295e-06	29.207	0.0018593	0.0023464	0.00065723	690.65	2.478e-05	2.6099e-05	381.28	263.09	2.4714e-05	2.5852e-05	151.5	57.388	104.21	56.045	2.563e-05	30.21	224.449	20.051	193.134	-71.928	100.431	-0.566	-73.760	-66.376	147.928	140.732	-69.855	-66.386	-62.047	-58.374	86.309	-63.661	-8191	255	
35553.027	1	1	0	0	0.12446	0.10985	0.184	0.085115	0.045101	0.17577	0.21567	0.3423	0.24891	0.34774	0.13172	0.13065	0.20044	0.2348	0.048289	0.32683	-1.0812	-0.44167	-0.925	-1.1812	-0.4	-1.2833	-0.775	-0.60208	-1.3271	-0.5875	-1.2229	-1.2458	-0.67917	-1.425	-0.90417	-0.80417	211.616	217.204	-47.237	133.426	37.601	269.659	173.288	256.533	-75.480	167.014	95.086	193.899	224.862	-67.914	244.710	-77.736	9.4685e-05	0.00071313	0.00031712	696.51	4.9041e-06	1.6819e-06	370.21	262.47	3.2741e-06	4.5359e-06	142.68	54.362	102.92	55.951	2.8003e-06	29.148	0.0018805	0.0023207	0.00064873	687.46	2.4389e-05	2.5653e-05	378.66	260.95	2.4545e-05	2.5374e-05	149.93	57.117	103.46	55.845	2.4556e-05	30.11	215.672	52.790	-6.945	-71.749	-71.854	234.353	-74.082	-66.326	79.685	44.073	-70.183	-66.384	-62.098	-58.350	142.033	-63.615	-8191	255	
35553.125	1	1	0	0	0.10075	0.24523	0.074103	0.13723	0.098038	0.39756	0.099646	0.25065	0.20496	0.085587	0.016941	0.079179	0.15693	0.15428	0.21108	0.14574	-1.0021	-0.57292	-0.80625	-1.3167	-0.56458	-1.4104	-0.92083	-0.58958	-1.4083	-0.65208	-0.99375	-1.4583	-0.45625	-1.4542	-0.87917	-0.67292	11.113	77.463	-31.560	-74.719	98.897	119.518	235.458	270.981	128.967	223.005	190.141	6.127	186.129	257.743	-82.570	143.960	8.0618e-05	0.00091547	0.00010762	694.81	1.6677e-06	3.9392e-06	369.93	262.26	1.7107e-06	3.8501e-06	143.86	54.557	103.14	56.521	7.7924e-06	29.857	0.0018189	0.0022572	0.00062988	684.41	2.3394e-05	2.4664e-05	377.04	261.27	2.3397e-05	2.4629e-05	150.64	57.345	103.9	56.294	2.4129e-05	30.473	-73.144	-32.905	28.428	-71.723	94.589	139.333	-73.693	-66.438	211.165	99.616	-69.989	-66.267	-62.041	-58.529	75.600	-63.113	-8191	255	
35553.223	1	1	0	0	0.22776	0.2125	0.1809	0.078868	0.17884	0.19299	0.2073	0.32536	0.12724	0.070707	0.17419	0.24769	0.097246	0.13532	0.18261	0.091381	-1.1458	-0.56042	-0.87083	-1.4312	-0.48542	-1.0521	-1.1688	-0.63958	-1.5187	-0.62708	-0.92708	-1.3625	-0.60833	-1.125	-1.1208	-0.54792	216.707	41.712	17.371	24.470	148.958	47.426	27.898	196.221	252.303	71.580	254.581	88.470	-75.716	257.511	42.029	182.958	6.9807e-05	0.00085267	0.00020847	696.92	4.8468e-06	4.1104e-06	369.41	265.75	3.7998e-06	2.7361e-06	145.38	55.464	103.13	56.642	4.5747e-06	29.904	0.0017702	0.0021942	0.00060665	685.68	2.3194e-05	2.3916e-05	378.01	262.33	2.3123e-05	2.4071e-05	150.95	57.757	104.08	56.511	2.326e-05	30.645	213.455	-17.483	-1.310	-71.719	97.575	186.725	-73.543	-66.287	155.967	18.089	-69.807	-66.094	-62.091	-58.502	143.148	-63.827	-8191	255	
35553.316	1	1	0	0	0.11103	0.12579	0.12004	0.088539	0.14255	0.39111	0.23394	0.15432	0.23914	0.32209	0.1087	0.19406	0.30444	0.052165	0.078976	0.24588	-0.98542	-0.83333	-0.60625	-1.3833	-0.46042	-0.90625	-1.3354	-0.34167	-1.3188	-1	-0.66458	-1.3646	-0.64792	-1.0083	-1.2	-0.60625	172.698	133.322	-3.240	268.976	-18.678	-25.159	170.833	158.097	76.356	158.444	206.488	158.210	262.752	175.049	246.836	190.347	4.7668e-05	0.00028601	9.5048e-05	692.95	8.6702e-06	1.0218e-05	370.52	262.93	5.0158e-06	5.8327e-06	145.35	54.969	103.09	56.504	7.6695e-06	29.629	0.0017295	0.0021348	0.00059249	685.68	2.2551e-05	2.357e-05	377.06	261.13	2.2545e-05	2.4008e-05	151.13	57.628	103.6	56.191	2.3574e-05	30.38	238.137	1.219	-45.948	-72.833	57.456	65.478	-74.677	-67.081	158.945	78.044	-70.909	-67.324	-62.932	-59.244	20.640	-64.418	-8191	255	
35553.438	1	1	0	0	0.091362	0.0045426	0.22406	0.082057	0.14499	0.22517	0.14144	0.20416	0.12758	0.20052	0.074546	0.16458	0.059658	0.21463	0.13426	0.11994	-1.0063	-1.0375	-0.54167	-1.5	-0.82292	-1.1521	-1.3396	-0.65833	-1.1479	-1.0438	-0.60417	-1.4604	-0.575	-1.0208	-1.3521	-0.65833	224.866	-70.554	135.745	-17.033	269.163	228.623	206.314	-22.989	166.709	-52.368	68.927	240.236	6.759	209.378	93.990	179.888	0.00013573	0.00055362	0.00026044	693.46	2.4193e-06	5.162e-06	369.09	262.16	7.564e-07	3.748e-06	141.58	54.158	102.13	55.717	9.3736e-07	29.256	0.0017943	0.0022223	0.00062048	684.99	2.3961e-05	2.4506e-05	375.8	260.34	2.3596e-05	2.4736e-05	149.27	56.809	102.9	55.599	2.4171e-05	30.069	231.412	-72.208	33.648	-72.229	137.814	47.618	-74.791	-67.000	214.262	168.034	-70.733	-67.135	-63.041	-59.229	164.071	-63.954	-8191	255	
35553.508	1	1	0	0	0.17027	0.29907	0.221	0.33353	0.048443	0.065106	0.25701	0.1205	0.29418	0.13509	0.13782	0.24192	0.21719	0.10603	0.22705	0.12689	-0.82083	-1.1375	-0.31875	-1.5	-0.88542	-0.71042	-1.4062	-0.58333	-1.3104	-1.2229	-0.475	-1.525	-0.67292	-0.7875	-1.6271	-0.64583	54.645	-80.506	-49.465	214.959	235.201	223.748	-28.732	190.440	251.309	269.230	-26.112	-46.546	-18.083	253.971	115.533	178.415	0.00012447	0.00090645	0.00026652	690.32	2.7314e-06	6.216e-06	362.84	261.65	5.4384e-06	9.9197e-06	141.21	53.616	102.01	55.475	4.5205e-06	29.032	0.0018313	0.0022355	0.00061936	681.15	2.3787e-05	2.4594e-05	372.37	259.32	2.3399e-05	2.4429e-05	148.51	56.645	102.81	55.522	2.3631e-05	30.021	199.337	7.275	-53.902	-72.547	202.193	133.409	-74.799	-67.085	125.215	110.010	-71.019	-67.430	-62.844	-59.030	99.977	-64.247	-8191	255	
35553.605	1	1	0	0	0.21843	0.38691	0.18587	0.25717	0.12369	0.067712	0.17033	0.22279	0.031111	0.062563	0.15547	0.2785	0.16911	0.048923	0.098857	0.34994	-0.71042	-1.175	-0.45	-1.525	-0.91667	-0.67083	-1.4771	-0.625	-0.95208	-1.1125	-0.49792	-1.1479	-1.0479	-0.62917	-1.3687	-0.84375	106.468	2.264	234.389	251.268	119.836	182.227	140.591	-48.240	80.846	-24.458	151.178	21.951	243.355	-33.990	-59.169	218.254	0.00013855	0.00088894	0.00018209	688.72	5.9159e-06	7.4021e-06	367.46	261.88	5.307e-06	6.899e-06	141.17	54.554	102.28	56.095	4.3534e-06	29.44	0.0017418	0.0021342	0.00060398	679.98	2.2607e-05	2.3649e-05	372.86	259.59	2.2765e-05	2.3718e-05	148.67	56.99	103.06	55.782	2.2599e-05	30.119	179.803	-39.072	51.934	-72.313	101.181	86.539	-74.654	-67.280	29.795	63.369	-70.338	-67.020	-62.928	-59.113	111.161	-64.501	-8191	255	
35553.723	1	1	0	0	0.25427	0.32792	0.074118	0.2336	0.16399	0.13103	0.11083	0.27217	0.28674	0.13417	0.13431	0.14731	0.24866	0.020357	0.24836	0.35122	-0.44792	-1.2563	-0.60625	-1.1917	-1.1292	-0.69792	-1.5167	-0.90625	-0.7625	-1.3438	-0.64792	-0.88958	-1.225	-0.69167	-1.4312	-0.99375	87.153	268.078	-14.320	-50.496	173.536	15.884	186.769	188.162	27.316	-26.990	-56.231	-6.986	228.027	271.579	-50.958	65.601	0.00015619	0.00028767	0.00017897	691.27	3.3616e-06	6.4993e-06	365.4	261.34	3.512e-06	4.5987e-06	143.31	54.72	102.15	55.932	8.6758e-07	29.509	0.0017226	0.0020991	0.0005932	679.93	2.2703e-05	2.3754e-05	372.65	259.14	2.3078e-05	2.3888e-05	149.38	57.067	103	55.785	2.373e-05	30.305	245.912	106.367	-41.283	-72.490	116.752	2.497	-74.267	-67.281	-12.790	86.724	-70.790	-67.278	-62.773	-58.974	108.880	-64.314	-8191	255	
35553.820	1	1	0	0	0.21147	0.23396	0.24283	0.20451	0.10821	0.1873	0.074608	0.21318	0.20258	0.20043	0.27334	0.010487	0.075859	0.28066	0.20553	0.090972	-0.40208	-1.3583	-0.42083	-1.2	-1.3813	-0.40625	-1.4479	-0.83125	-0.73958	-1.375	-0.62083	-1.0542	-1.4792	-0.42292	-1.2146	-0.80625	-45.790	238.460	190.700	192.697	194.264	24.040	226.641	-81.450	176.836	68.767	188.853	236.232	236.452	142.117	93.413	240.274	1.7341e-05	0.0010536	0.00012654	693.57	2.2944e-06	4.4763e-06	366.78	260.62	7.3448e-06	1.0335e-05	141.38	54.139	101.82	55.453	2.4453e-06	29.029	0.0017885	0.0022313	0.00062088	682.11	2.3805e-05	2.5186e-05	373.79	259.42	2.3897e-05	2.523e-05	149.13	56.975	102.76	55.526	2.5267e-05	30.018	118.455	72.630	205.039	-72.346	79.082	-32.386	-74.352	-67.082	146.421	65.062	-70.380	-66.933	-62.908	-58.853	152.719	-63.756	-8191	255	
35553.914	1	1	0	0	0.081894	0.25035	0.18952	0.24519	0.1474	0.19642	0.41449	0.16858	0.10116	0.20133	0.16559	0.092584	0.10082	0.18444	0.11665	0.10714	-0.039583	-1.3563	-0.35417	-0.84375	-1.1458	-0.56667	-1.2042	-1.0771	-0.61042	-1.4771	-0.6375	-0.7875	-1.3687	-0.5	-1.2125	-0.90417	119.068	264.956	55.656	253.112	143.464	254.010	185.965	-66.108	229.581	-31.166	260.257	63.594	166.954	271.689	218.580	162.857	7.0496e-05	0.00049092	0.00022504	682.48	6.7705e-06	3.2189e-06	355.66	257.67	5.8205e-06	5.7209e-06	140.03	53.55	101.5	55.467	4.9457e-07	28.604	0.0019011	0.0023677	0.00066517	676.19	2.5321e-05	2.6547e-05	368.85	257.8	2.5643e-05	2.6554e-05	147.94	56.452	102.54	55.216	2.6417e-05	29.819	204.607	-37.152	20.519	-72.240	129.634	141.085	-74.524	-66.999	201.991	102.033	-69.993	-66.808	-62.610	-58.742	198.072	-64.247	-8191	255	
35554.012	1	1	0	0	0.16369	0.15083	0.22927	0.28593	0.19365	0.36407	0.22682	0.30791	0.088276	0.096878	0.098373	0.086527	0.06618	0.13021	0.085521	0.17613	0.12292	-1.1812	-0.81042	-0.68542	-1.2729	-0.63958	-1.05	-1.1292	-0.46042	-1.4688	-0.82083	-0.75417	-1.5187	-0.51458	-1.0042	-1.1875	-44.360	-18.559	44.837	259.920	111.852	32.305	267.381	249.704	-82.767	112.105	257.494	259.032	-81.023	-40.837	-5.563	-20.319	8.6272e-05	0.0010198	0.00034402	682.13	4.4456e-06	1.8807e-06	356.88	258.8	6.0388e-06	4.3472e-06	137.48	53.197	101.64	55.6	1.3068e-06	28.775	0.0019702	0.0024293	0.00068919	675.06	2.6143e-05	2.7331e-05	368.96	257.84	2.6246e-05	2.7701e-05	148.19	56.535	102.85	55.409	2.78e-05	29.959	145.182	41.697	-20.211	-72.084	7.900	45.321	-74.112	-67.087	-69.219	251.376	-70.480	-67.069	-62.620	-58.787	-60.475	-63.730	-8191	255	
35554.109	1	1	0	0	0.12232	0.24192	0.20832	0.097483	0.26801	0.094436	0.073085	0.32194	0.036267	0.069323	0.12394	0.21461	0.22038	0.080335	0.33427	0.046707	-0.052083	-1.4396	-0.77292	-0.72292	-1.2833	-0.525	-0.95833	-1.3125	-0.45208	-1.3292	-0.71875	-0.72292	-1.5521	-0.74583	-0.82708	-1.375	-48.928	-59.195	-59.874	5.984	150.408	166.432	-68.277	214.434	-1.240	-42.989	-68.366	251.313	3.354	-15.685	266.510	252.158	6.809e-05	0.00032478	0.00017701	678.16	4.5676e-06	8.3707e-06	358.97	257.06	3.3768e-06	7.8214e-06	138.75	53.606	101.6	55.471	1.0481e-05	28.989	0.0020114	0.0025026	0.00069281	672.87	2.6503e-05	2.8126e-05	370.28	257.22	2.6446e-05	2.7661e-05	148	56.709	102.87	55.535	2.7489e-05	30.184	162.023	250.409	-42.127	-72.324	92.092	87.256	-74.284	-66.961	72.900	90.593	-70.699	-66.849	-62.593	-58.698	0.400	-63.803	-8191	255	
35554.203	1	1	0	0	0.13379	0.11218	0.13445	0.13778	0.16519	0.15831	0.12487	0.22622	0.23172	0.0066521	0.26237	0.33968	0.20267	0.060444	0.061814	0.26323	0.033333	-1.1583	-0.92917	-0.47292	-1.2979	-0.65625	-0.73958	-1.1729	-0.53125	-1.1	-1.1875	-0.525	-1.4583	-0.98542	-0.75208	-1.4208	260.909	256.785	244.369	206.839	124.881	73.478	115.174	141.655	243.755	136.032	241.005	116.283	-61.134	-71.657	93.895	270.849	5.2184e-05	0.0012765	0.00019573	679.48	2.2735e-06	4.3454e-06	358.16	257.21	4.1939e-06	5.4306e-06	137.82	53.326	101.83	55.288	3.3758e-06	28.672	0.0020237	0.0025216	0.00071112	674.28	2.6743e-05	2.8545e-05	370.69	257.49	2.7499e-05	2.8972e-05	148.92	57.042	102.99	55.423	2.9635e-05	30.147	233.546	24.130	-35.414	-71.867	105.717	55.199	-74.306	-66.645	-2.351	84.470	-70.341	-67.190	-62.364	-58.897	245.687	-63.792	-8191	255	
35554.324	1	1	0	0	0.26841	0.17243	0.16984	0.29995	0.31591	0.16374	0.35848	0.19232	0.1459	0.25803	0.51653	0.16445	0.24947	0.11163	0.16193	0.051708	-0.083333	-1.1042	-0.95833	-0.5125	-1.275	-0.83958	-0.75417	-1.5938	-0.58333	-1.1083	-1.2	-0.4875	-1.4042	-1.0187	-0.43958	-1.2708	-56.904	214.272	63.151	-56.197	-1.142	84.014	167.511	43.498	109.744	-27.341	143.301	-25.888	253.102	4.995	159.914	159.548	0.00012168	0.00025978	0.0001103	680.59	7.9206e-06	1.5845e-06	356.69	257.56	1.145e-06	3.2633e-06	136.14	52.673	100.44	54.834	5.5621e-06	28.315	0.0022711	0.00285	0.00079962	678.55	3.1429e-05	3.316e-05	372.71	258.16	3.2381e-05	3.3728e-05	149.57	57.186	102.96	55.201	3.2454e-05	29.884	219.919	251.168	260.633	-72.314	54.018	177.568	-74.037	-67.050	239.765	56.302	-70.366	-66.998	-62.543	-58.918	-55.934	-63.655	-8191	255	
35554.422	1	1	0	0	0.11547	0.10668	0.26885	0.19545	0.19434	0.12973	0.33816	0.32565	0.10861	0.099156	0.084838	0.23829	0.27155	0.33597	0.021274	0.21129	-0.0375	-0.84375	-1.0938	-0.45	-1.3687	-0.92917	-0.68542	-1.3396	-0.46042	-0.72917	-1.4458	-0.3375	-1.2083	-1.1625	-0.65	-1.3729	83.587	12.534	68.300	-39.173	273.949	96.350	189.694	199.045	236.284	-49.363	239.487	164.443	-48.641	-17.650	119.830	157.044	0.0001422	0.00018376	0.00017157	673.69	1.5859e-06	4.2086e-06	351.94	256.2	1.7954e-06	2.015e-06	136.37	52.329	100.45	54.456	1.9286e-07	28.31	0.0024054	0.0029904	0.00083467	673.79	3.1052e-05	3.2009e-05	367.4	255.99	2.9684e-05	3.0685e-05	147.37	56.308	102.18	54.859	2.8949e-05	29.69	194.137	217.812	71.517	-72.326	120.221	129.688	-74.510	-66.953	69.051	68.660	-70.636	-66.954	-62.518	-58.748	182.741	-63.576	-8191	255	
35554.516	1	1	0	0	0.33084	0.13533	0.12764	0.3069	0.16275	0.1391	0.12414	0.34481	0.25383	0.035728	0.13364	0.15187	0.20806	0.12486	0.083181	0.23485	-0.41042	-0.85	-1.2437	-0.46042	-1.1729	-1.025	-0.54583	-1.5104	-0.63333	-0.66042	-1.3542	-0.5625	-1.3521	-1.1688	-0.37083	-1.4479	-24.213	-81.581	189.137	176.732	33.590	169.617	223.720	168.757	-10.269	11.138	-40.923	-47.161	147.123	223.875	-19.092	263.909	0.00011994	0.00069478	0.00018169	676.14	2.8625e-06	1.3567e-06	351.62	256.19	4.7477e-06	7.4673e-06	137.84	52.728	100.39	54.779	2.584e-06	28.068	0.0021653	0.0026442	0.000735	670.23	2.8314e-05	2.9566e-05	367.6	256.62	2.8947e-05	2.9995e-05	148.06	56.466	102.47	54.986	2.9845e-05	29.688	191.489	97.254	89.400	-72.360	130.052	199.382	-73.828	-66.754	-30.809	143.982	-70.162	-66.961	-62.372	-58.907	145.983	-63.898	-8191	255	
35554.613	1	1	0	0	0.13033	0.17405	0.29377	0.15177	0.34805	0.056036	0.11136	0.19596	0.16779	0.26217	0.31086	0.2618	0.11685	0.23637	0.080574	0.19791	-0.51667	-0.49583	-1.3667	-0.67917	-1.1229	-1.2708	-0.46875	-1.4604	-0.725	-0.69792	-1.5167	-0.61458	-1.1562	-1.3333	-0.3875	-1.3771	-51.290	181.317	-83.821	247.401	229.850	191.819	-35.595	245.451	163.940	-10.779	-74.476	226.111	-77.911	198.208	118.707	76.301	4.3229e-05	0.00092379	0.00016215	673.52	5.5057e-06	2.6358e-06	349.9	254.83	9.3071e-06	7.9037e-06	136.54	51.905	99.5	54.232	4.1108e-06	28.043	0.0022424	0.0028084	0.0007818	671.96	3.0816e-05	3.2357e-05	369.04	256.16	3.1663e-05	3.3242e-05	148.91	56.542	102.11	54.757	3.316e-05	29.816	210.505	256.201	73.112	-72.439	159.370	67.724	-74.369	-66.633	97.441	149.652	-69.999	-66.595	-62.581	-58.915	221.269	-63.769	-8191	255	
35554.734	1	1	0	0	0.24244	0.12883	0.44756	0.20847	0.14511	0.15354	0.24069	0.15144	0.12068	0.24805	0.26854	0.27614	0.31292	0.17139	0.38887	0.34317	-0.69375	-0.51875	-1.4188	-0.81667	-0.62708	-1.3687	-0.32708	-1.4	-0.80625	-0.5	-1.4125	-0.85625	-0.92708	-1.6021	-0.51042	-1.2292	196.194	-83.576	179.417	70.092	38.751	262.813	62.216	220.097	184.330	41.528	146.063	254.073	269.374	192.773	-35.021	-71.952	0.00014242	0.00069344	0.00017519	671.81	4.7839e-06	1.8396e-06	353.61	255.09	3.8595e-06	9.1583e-06	137.14	52.483	99.978	54.802	8.1527e-06	28.155	0.0024554	0.003064	0.00085137	673.6	3.1942e-05	3.3277e-05	371.06	256.56	3.1913e-05	3.3411e-05	149.15	56.687	102.34	54.953	3.1856e-05	29.835	217.677	-8.025	-27.359	-71.947	266.418	86.381	-74.200	-66.474	-42.044	92.161	-70.369	-66.644	-62.625	-58.676	46.749	-63.622	-8191	255	
35554.805	1	1	0	0	0.20788	0.21349	0.1375	0.40448	0.15478	0.1454	0.10464	0.2064	0.085022	0.079333	0.071289	0.26245	0.41537	0.137	0.17217	0.21663	-0.80417	-0.65417	-1.4208	-0.75208	-0.79792	-1.3479	-0.60625	-1.225	-1.2146	-0.21875	-1.4188	-0.79792	-0.58958	-1.4583	-0.37292	-1.0083	125.831	119.570	157.698	247.033	-47.790	3.810	96.700	247.942	35.869	87.441	232.244	-5.435	235.177	177.488	215.414	-27.985	8.2802e-05	0.00014332	0.00011654	672.55	4.455e-06	4.6889e-06	347.98	254.59	2.5339e-06	9.389e-06	135.92	51.669	100.06	54.747	3.6947e-06	28.309	0.0023466	0.0029198	0.0008075	671.23	3.0579e-05	3.1986e-05	366.62	255.92	3.032e-05	3.1545e-05	147.85	56.023	101.71	54.81	3.0122e-05	29.604	238.562	-40.325	-49.761	-72.244	173.660	274.492	-74.265	-66.726	-69.033	133.200	-70.639	-67.035	-62.515	-58.710	223.883	-63.448	-8191	255	
35554.902	1	1	0	0	0.034969	0.10864	0.16496	0.18591	0.16145	0.076882	0.19472	0.12261	0.12422	0.30072	0.12512	0.32076	0.15795	0.35507	0.35562	0.14096	-0.84167	-0.32083	-1.1521	-1.0083	-0.55417	-1.2375	-0.55417	-0.97292	-1.3833	-0.6	-1.2292	-0.89375	-0.8625	-1.6	-0.59583	-0.86875	155.099	249.397	4.188	55.951	240.377	224.755	9.502	175.926	108.098	249.233	-37.511	221.351	73.952	-72.048	-30.195	11.334	0.00010895	0.00064607	0.00017817	671.37	3.8574e-06	4.9135e-06	352.77	255.12	5.3946e-06	5.7427e-06	134.69	52.551	99.641	54.751	9.7398e-06	28.15	0.0021795	0.0027079	0.00075921	668.2	2.8583e-05	2.9514e-05	365.74	255.05	2.7907e-05	2.9579e-05	146.13	55.811	101.46	54.752	2.8408e-05	29.478	215.004	26.378	-14.966	-72.150	95.011	140.328	-74.512	-66.642	-19.876	47.812	-70.541	-66.792	-62.637	-58.719	2.041	-63.883	-8191	255	
35554.996	1	1	0	0	0.19375	0.2298	0.1408	0.33784	0.18494	0.07113	0.22196	0.27874	0.42545	0.063696	0.093963	0.37235	0.12563	0.21498	0.33996	0.088649	-0.95417	-0.40625	-1.2083	-1.1187	-0.55208	-1.2875	-0.92917	-0.78125	-1.3875	-0.52917	-1.0771	-0.82708	-0.5	-1.4062	-0.69583	-0.67917	46.852	95.684	-17.243	206.858	261.969	-69.538	37.766	267.920	27.829	153.532	-69.133	48.954	-47.275	249.872	65.607	44.476	0.00011544	0.00023912	0.0002999	677.13	5.2627e-06	2.8643e-06	353.22	254.18	1.3969e-06	9.5974e-06	137.23	52.636	100.07	54.955	4.2238e-06	28.527	0.0021001	0.0026314	0.00073477	669.31	2.7892e-05	2.9105e-05	366.19	254.27	2.7628e-05	2.8901e-05	147.24	56.033	101.75	54.957	2.8653e-05	29.705	233.064	-51.228	-16.584	-72.227	105.750	168.842	-73.808	-66.633	69.466	63.287	-69.560	-67.007	-62.373	-58.422	109.715	-63.761	-8191	255	
35555.117	1	1	0	0	0.10461	0.24858	0.11627	0.38854	0.14293	0.29617	0.099496	0.1692	0.02972	0.10595	0.096913	0.25252	0.032699	0.064825	0.22958	0.19559	-0.86667	-0.42292	-1.1104	-1.2396	-0.31042	-1.3188	-0.88125	-0.81458	-1.3542	-0.64583	-1.0333	-1.3042	-0.50417	-1.45	-0.925	-0.64375	85.961	210.970	261.210	261.452	-17.705	214.673	204.498	274.421	2.456	83.706	196.945	266.536	-45.357	190.427	-37.534	252.558	8.1678e-05	0.00089677	0.00011427	669.67	2.1029e-06	1.2513e-05	354.59	255.87	4.7618e-06	9.6497e-06	138.68	52.773	99.74	54.98	3.2043e-06	28.542	0.0020706	0.0026154	0.00072063	669.16	2.7591e-05	2.8535e-05	366.92	255.36	2.6974e-05	2.8127e-05	147.13	56.047	101.62	55.045	2.6693e-05	29.747	186.372	-18.977	16.757	-72.053	274.468	129.186	-74.347	-66.536	127.721	-67.875	-70.260	-66.486	-62.320	-58.586	135.366	-63.715	-8191	255	
35555.215	1	1	0	0	0.20725	0.069309	0.07333	0.026525	0.071124	0.14764	0.17659	0.22801	0.10622	0.24185	0.23914	0.08198	0.21653	0.052991	0.046248	0.28677	-1.1104	-0.50833	-0.86458	-1.55	-0.50625	-1.2917	-1.0625	-0.47083	-1.4021	-0.63542	-0.98958	-1.3125	-0.47708	-1.1875	-1.1562	-0.63333	108.753	156.747	80.029	-16.682	146.128	-14.832	218.917	229.140	263.922	60.844	-33.254	269.178	-19.004	125.377	254.760	184.935	0.00011102	0.0010979	0.00017421	677.01	9.1814e-06	8.1501e-06	358.89	256.2	3.1377e-06	3.1293e-06	137.49	53.025	101.02	55.03	1.4282e-06	28.52	0.0019388	0.0024738	0.00067781	672.88	2.601e-05	2.6829e-05	367.99	255.27	2.5759e-05	2.6532e-05	146.56	55.874	101.99	54.976	2.5647e-05	29.614	236.852	273.105	63.581	-72.080	3.941	84.585	-73.931	-66.511	145.524	-35.667	-70.112	-66.627	-62.192	-58.546	7.778	-63.373	-8191	255	
35555.309	1	1	0	0	0.16267	0.2974	0.18247	0.12641	0.058676	0.14603	0.31222	0.2257	0.036748	0.057055	0.033137	0.24277	0.066895	0.017575	0.115	0.23984	-1.0938	-0.6125	-0.67292	-1.3917	-0.58333	-1.0146	-1.05	-0.48333	-1.3479	-0.82917	-0.5375	-1.3229	-0.46042	-1.1604	-1.1792	-0.425	123.011	153.013	6.485	255.952	127.880	8.581	-80.420	223.166	3.407	97.536	96.780	72.800	259.750	94.332	27.690	231.044	4.7637e-05	0.00078752	7.9449e-05	675.21	5.3119e-06	1.33e-05	354.5	254.58	5.5579e-06	6.3886e-06	137.01	53.316	100.9	54.7	1.2863e-05	28.605	0.0018893	0.0023404	0.00065074	670.92	2.4772e-05	2.5606e-05	365.44	254.01	2.4645e-05	2.5547e-05	145.58	55.696	101.45	54.913	2.4602e-05	29.514	219.206	126.085	-36.022	-71.935	-65.411	93.899	-74.046	-66.387	-13.127	-21.590	-69.536	-66.170	-62.353	-58.495	107.967	-63.206	-8191	255	
35555.406	1	1	0	0	0.074456	0.015069	0.28716	0.14047	0.13538	0.15396	0.26354	0.1708	0.083693	0.05782	0.23979	0.10017	0.2692	0.10749	0.25066	0.22192	-0.90833	-0.85208	-0.525	-1.5521	-0.55625	-1.0479	-1.2542	-0.49583	-1.1875	-1.1208	-0.54375	-1.5792	-0.71875	-1.0396	-1.2354	-0.35	97.568	-28.771	169.779	-63.847	202.993	262.120	164.454	42.701	97.335	-1.387	223.953	213.895	-15.706	-58.320	115.700	68.841	8.5046e-05	0.00070827	0.00021652	679.35	7.1517e-06	8.6738e-06	358.11	256.97	2.3077e-06	7.3045e-06	137.97	53.296	101	55.343	2.8261e-06	28.913	0.0018365	0.002222	0.00062123	671.26	2.3494e-05	2.4464e-05	365.77	254.93	2.3208e-05	2.4208e-05	145.39	55.79	101.83	55.24	2.3097e-05	29.727	204.727	60.064	-33.346	-72.452	253.886	63.485	-74.379	-66.332	165.227	73.001	-70.045	-65.902	-62.031	-58.263	171.582	-63.089	-8191	255	
35555.504	1	1	0	0	0.25403	0.13781	0.15043	0.27963	0.09321	0.15482	0.12008	0.33972	0.14	0.05484	0.21762	0.34013	0.12284	0.34639	0.26401	0.028448	-0.85	-0.94583	-0.38333	-1.4917	-0.67083	-0.93125	-1.3604	-0.60833	-1.175	-1.05	-0.52292	-1.3646	-0.88333	-0.81042	-1.1479	-0.6375	62.893	-26.104	117.030	231.921	47.573	205.229	16.875	221.307	220.319	12.841	208.769	230.501	-70.763	245.504	83.119	253.786	6.8074e-05	0.00075349	3.7337e-05	684.14	4.4269e-06	8.2533e-06	363	258.98	4.9219e-06	2.2758e-06	140.6	53.997	101.55	56.262	7.4367e-07	29.527	0.001716	0.0020938	0.00058492	673.84	2.2428e-05	2.3106e-05	370	256.85	2.2222e-05	2.292e-05	146.68	56.3	102.46	55.804	2.2209e-05	30.095	203.341	80.814	-31.652	-72.071	94.661	50.278	-74.931	-66.749	43.336	173.541	-70.346	-66.299	-62.433	-58.800	137.058	-64.033	-8191	255	
35555.598	1	1	0	0	0.23644	0.2766	0.027507	0.091383	0.099277	0.25607	0.20983	0.17955	0.16009	0.11605	0.221	0.24662	0.18515	0.1679	0.23647	0.11137	-0.74375	-1.1375	-0.33125	-1.4312	-0.72917	-0.70208	-1.2896	-0.48958	-1.1396	-1.3396	-0.31458	-1.3	-0.96875	-0.67708	-1.2583	-0.57917	195.463	170.313	-10.911	186.591	198.480	-45.806	162.215	-79.839	208.937	-15.579	-42.644	185.383	90.711	-54.894	45.721	18.334	0.00014151	0.00043537	0.00026252	691.98	2.5948e-06	5.9499e-06	364.78	260.32	7.1028e-06	6.0875e-06	142.42	54.578	101.96	56.671	1.1247e-06	29.671	0.0016382	0.0020229	0.00056911	678.97	2.152e-05	2.2269e-05	372.89	258.46	2.1738e-05	2.2355e-05	148.35	56.81	103.15	56.22	2.1932e-05	30.394	229.037	28.685	-22.097	-72.458	63.413	77.833	-74.065	-66.815	36.531	71.004	-70.316	-66.544	-62.602	-58.337	271.100	-63.762	-8191	255	
35555.695	1	1	0	0	0.18267	0.25701	0.19752	0.25848	0.12695	0.081622	0.097385	0.28011	0.28104	0.18438	0.08705	0.089497	0.086789	0.035624	0.10366	0.056394	-0.56667	-1.1958	-0.45625	-1.3083	-0.93125	-0.56667	-1.4979	-0.79167	-0.8875	-1.45	-0.5125	-1.3896	-1.25	-0.60417	-1.4312	-0.82083	239.866	-60.413	-73.813	-35.869	-57.490	103.326	43.711	232.577	274.088	-34.465	-55.992	240.202	271.318	141.126	-10.109	-63.610	5.8145e-05	0.001147	0.0001001	696	3.1073e-06	5.3473e-06	368.49	262.13	1.0212e-06	9.9225e-06	141.32	54.119	102.79	56.374	4.6145e-06	29.489	0.0016625	0.0020507	0.00056979	683.43	2.2006e-05	2.2569e-05	374.88	259.15	2.1898e-05	2.2582e-05	148.31	56.665	103.07	56.085	2.2354e-05	30.192	201.208	-18.868	55.569	-71.980	65.728	57.374	-73.783	-66.756	-22.999	31.671	-70.699	-66.663	-62.218	-58.531	-77.710	-63.569	-8191	255	
35555.812	1	1	0	0	0.27855	0.078459	0.32407	0.10219	0.19649	0.1053	0.13422	0.22166	0.19109	0.25126	0.17764	0.20547	0.10724	0.18819	0.078016	0.19616	-0.52083	-1.4979	-0.40208	-1.4083	-1.1021	-0.57917	-1.5292	-0.88125	-0.75	-1.5292	-0.53542	-1.0646	-1.1333	-0.625	-1.3312	-0.97708	-73.824	67.627	159.097	-34.690	169.166	272.770	-52.391	-42.110	258.433	185.752	52.624	-59.396	32.268	247.085	46.770	173.466	7.4836e-05	0.00045666	0.00022524	689.43	5.0552e-06	4.1961e-06	370.46	261.19	1.962e-06	5.3592e-06	139.96	54.279	102.34	56.452	6.6204e-06	29.457	0.0016657	0.0020742	0.00057296	679.82	2.2163e-05	2.284e-05	374.81	258.92	2.2214e-05	2.2694e-05	147.71	56.791	102.93	56.078	2.2774e-05	30.325	239.861	101.018	-68.093	-72.019	17.091	55.155	-73.299	-66.341	34.055	274.421	-70.407	-66.607	-62.492	-58.442	71.099	-63.439	-8191	255	
35555.910	1	1	0	0	0.11016	0.16205	0.079695	0.061121	0.18292	0.30342	0.24157	0.23748	0.16757	0.14272	0.26668	0.33646	0.13126	0.25242	0.29608	0.26415	-0.26875	-1.6021	-0.60417	-1.1646	-1.2083	-0.65833	-1.575	-1.0333	-0.675	-1.3375	-0.7125	-0.9875	-1.5333	-0.61667	-1.3417	-0.97708	51.247	22.119	76.765	-57.894	72.501	162.804	212.703	181.682	60.569	-45.900	-83.779	171.329	148.570	145.680	3.366	-22.310	0.00015696	0.00038144	0.00031702	691.32	3.3375e-06	1.7578e-06	371.73	262.22	3.9661e-06	3.4748e-06	142.03	54.607	103.27	56.746	6.4896e-06	29.67	0.0016759	0.0020511	0.00057408	680.48	2.2093e-05	2.2897e-05	376	259.3	2.2264e-05	2.3033e-05	149.08	57.256	103.7	56.429	2.2767e-05	30.506	214.081	-33.323	-47.458	-71.686	180.242	75.371	-73.088	-66.487	25.413	222.560	-70.203	-66.077	-62.210	-58.208	126.964	-63.202	-8191	255	
35556.004	1	1	0	0	0.10782	0.13739	0.25118	0.31965	0.11392	0.23927	0.22586	0.19392	0.093455	0.15176	0.16532	0.22279	0.14414	0.51118	0.01075	0.19718	-0.2375	-1.4312	-0.69375	-0.84167	-1.2854	-0.63125	-1.2	-1.35	-0.74167	-1.4271	-0.67292	-0.82292	-1.4583	-0.34375	-1.1667	-1.0854	215.791	24.660	261.798	-83.672	153.349	83.841	263.173	203.033	-71.791	238.991	-57.905	-72.140	260.532	-40.707	-7.400	180.649	7.1471e-05	0.00068071	0.0001702	693.04	1.7356e-06	6.2798e-06	372.15	264.09	2.0447e-06	6.1291e-06	143.01	55.636	103.33	56.841	4.2766e-06	30.124	0.0016796	0.0020695	0.0005839	683.97	2.1901e-05	2.3009e-05	379.6	260.91	2.2237e-05	2.3462e-05	150.4	57.83	104.08	56.684	2.3048e-05	30.865	158.568	-60.236	-26.363	-71.465	80.733	105.392	-73.399	-66.165	-57.661	45.929	-69.762	-65.556	-61.942	-58.217	33.372	-62.613	-8191	255	
35556.102	1	1	0	0	0.14256	0.18835	0.1052	0.15155	0.30146	0.38137	0.2886	0.16253	0.06246	0.17574	0.25981	0.24334	0.25935	0.45622	0.19246	0.042659	-0.097917	-1.3667	-0.66667	-0.8	-1.5333	-0.53333	-1.2542	-1.2625	-0.4875	-1.3396	-0.98542	-0.6625	-1.5792	-0.68125	-0.99167	-1.3937	60.636	79.741	98.759	129.051	80.143	102.185	245.321	245.005	3.873	260.958	-44.620	83.405	216.240	-38.623	108.076	128.053	7.8387e-05	0.0011059	0.0001487	694.69	3.4639e-07	9.6508e-06	373.08	263.25	3.8282e-06	1.0502e-05	144.02	55.956	103.52	56.514	3.1651e-06	30.239	0.0017234	0.0021796	0.00060243	684.95	2.2944e-05	2.4045e-05	380.62	261.03	2.323e-05	2.4319e-05	151.4	58.273	104.54	56.657	2.4202e-05	31.065	202.101	7.928	246.821	-71.832	174.311	98.012	-73.874	-66.388	149.773	116.961	-69.466	-65.935	-62.136	-58.393	251.264	-63.490	-8191	255	
35556.199	1	1	0	0	0.30674	0.19845	0.058979	0.1067	0.13126	0.094003	0.15634	0.075397	0.080607	0.20299	0.16691	0.073558	0.23331	0.091156	0.13074	0.056577	-0.010417	-1.1542	-0.825	-0.66875	-1.4208	-0.80417	-1.125	-1.3604	-0.49792	-1.1729	-0.9125	-0.76458	-1.5375	-0.71875	-0.825	-1.2958	-9.369	-70.373	198.399	204.742	244.456	200.673	264.414	-77.519	208.589	257.081	-32.492	209.480	235.371	242.679	-2.205	128.941	6.3755e-05	0.0012983	8.1441e-05	694.64	5.0504e-06	9.8071e-06	372.31	264.28	2.9293e-06	4.5666e-06	145.28	55.885	103.96	56.893	2.1838e-06	29.972	0.0017891	0.0022366	0.00062457	686.5	2.3401e-05	2.4895e-05	380.53	261.53	2.3891e-05	2.5066e-05	151.84	58.188	104.6	56.76	2.3915e-05	30.997	187.904	22.991	58.770	-71.722	-34.110	191.074	-73.789	-66.135	-41.194	206.709	-69.701	-66.395	-61.859	-58.921	96.675	-63.523	-8191	255	
35556.293	1	1	0	0	0.14222	0.097775	0.11324	0.34632	0.23065	0.2059	0.40939	0.38007	0.08686	0.16137	0.21073	0.12695	0.071096	0.28082	0.23068	0.037132	0.08125	-0.9625	-0.825	-0.6875	-1.3687	-0.82083	-0.54792	-1.4625	-0.50417	-1.0333	-1.1875	-0.4625	-1.3062	-0.74167	-0.63958	-1.4813	137.751	163.655	167.009	176.569	4.546	155.522	176.372	243.400	221.548	138.365	268.908	39.242	-56.377	271.099	84.629	56.201	4.7766e-05	0.0012817	0.00018928	693.07	7.0766e-06	3.3266e-06	374.25	262.98	2.2347e-06	2.746e-06	143.95	55.556	103.42	57.463	5.7744e-06	30.432	0.0017799	0.0022066	0.00061649	682.81	2.3542e-05	2.4351e-05	380.87	261.11	2.2938e-05	2.4044e-05	150.92	58.328	104.26	57.015	2.3207e-05	31.16	272.849	0.601	-35.708	-72.384	30.588	45.091	-74.228	-67.116	118.755	213.194	-71.161	-66.716	-62.406	-58.906	53.776	-63.517	-8191	255	
35556.414	1	1	0	0	0.18218	0.23417	0.16966	0.095954	0.25961	0.15622	0.25426	0.28282	0.31759	0.059962	0.2134	0.23399	0.09038	0.020533	0.38271	0.33614	-0.079167	-0.97292	-1.0438	-0.53333	-1.3563	-0.76042	-0.72917	-1.4229	-0.39167	-0.86667	-1.0625	-0.46667	-1.3417	-0.94167	-0.4	-1.3458	-56.043	108.792	77.913	233.985	56.922	133.380	198.493	161.714	-63.732	0.686	70.346	-17.052	-65.241	220.309	93.268	-24.216	0.00013614	0.00076259	1.5564e-05	697.92	7.3862e-06	1.0309e-06	373.38	263.81	1.8076e-06	9.9647e-06	145.35	55.969	103.96	57.094	5.4236e-06	30.45	0.001733	0.0021439	0.00059539	686.32	2.2617e-05	2.3808e-05	380.87	261.55	2.3038e-05	2.391e-05	152.13	58.42	104.71	56.796	2.3248e-05	31.231	224.428	45.242	42.894	-72.173	-24.682	177.022	-73.895	-66.778	18.403	168.014	-70.418	-66.637	-62.330	-58.475	9.900	-64.082	-8191	255	
35556.508	1	1	0	0	0.11937	0.071172	0.15717	0.27206	0.12311	0.11673	0.3428	0.30894	0.074664	0.34238	0.28891	0.18417	0.16991	0.21053	0.30707	0.23275	-0.16458	-0.8875	-1.3708	-0.44375	-1.1375	-1.0917	-0.4375	-1.5104	-0.59583	-0.93125	-1.2354	-0.60625	-1.1021	-1.3417	-0.64167	-1.5375	-25.957	-61.905	195.318	208.223	183.523	223.821	223.734	-81.346	47.230	8.220	244.737	-63.332	-36.604	232.356	-18.425	157.486	0.00012149	0.00052354	0.00018461	695.46	6.6088e-06	1.1142e-05	373.87	262.58	3.1259e-06	6.1042e-06	145.74	55.754	103.27	56.591	3.5369e-06	30.116	0.0017239	0.0021227	0.00060059	685.64	2.2765e-05	2.3527e-05	381.48	261.08	2.2811e-05	2.3594e-05	152.06	58.193	103.83	56.252	2.2573e-05	30.816	197.264	51.528	79.418	-72.095	113.240	18.337	-74.090	-66.685	104.751	-0.517	-70.088	-66.742	-62.395	-58.604	152.368	-63.589	-8191	255	
35556.605	1	1	0	0	0.12276	0.045957	0.19193	0.23337	0.37928	0.25024	0.22235	0.16982	0.032568	0.14509	0.1307	0.075309	0.12049	0.23891	0.14395	0.29089	-0.36458	-0.71458	-1.1833	-0.51042	-1.1958	-1.0917	-0.77708	-1.4562	-0.75833	-0.59792	-1.4208	-0.52292	-1.0729	-1.025	-0.41458	-1.3708	31.753	178.642	4.331	199.120	-24.218	26.566	156.686	-81.500	110.418	15.738	68.631	150.526	-82.583	266.771	-41.976	-29.277	0.00016799	0.00055432	0.00016856	694.8	6.3351e-06	6.6398e-06	376.01	260.5	4.409e-06	2.9269e-06	142.67	54.748	102.67	56.413	1.0457e-05	29.795	0.0016945	0.0020975	0.00057358	685.69	2.1847e-05	2.2746e-05	380.41	259.6	2.1969e-05	2.2837e-05	149.96	57.322	103.08	55.959	2.1989e-05	30.483	178.812	-46.289	-35.133	-71.785	151.962	137.658	-73.914	-66.184	205.041	216.355	-70.030	-66.732	-62.592	-58.961	86.230	-63.808	-8191	255	
35556.680	1	1	0	0	0.24591	0.14459	0.078042	0.17427	0.080501	0.15118	0.16292	0.13006	0.28545	0.32018	0.34425	0.12604	0.10244	0.36017	0.17263	0.086178	-0.3625	-0.64167	-1.4271	-0.37917	-0.64167	-1.2458	-0.56875	-1.2812	-0.82292	-0.27917	-1.4312	-0.625	-1.0021	-1.375	-0.41667	-1.2667	57.216	81.654	-3.434	-57.384	-15.292	-24.543	10.830	213.367	55.738	152.540	-63.228	-82.859	-32.821	212.744	170.700	192.799	9.5334e-05	0.00027728	0.00012489	692.91	6.0404e-06	8.3089e-06	366.97	261.09	4.6735e-06	1.6908e-06	142.15	55.506	101.68	55.782	3.3428e-06	29.954	0.0016322	0.0020008	0.00055483	681.39	2.1336e-05	2.2299e-05	375.59	258.35	2.147e-05	2.2051e-05	148.84	57.353	102.59	55.696	2.1471e-05	30.47	-73.628	102.839	186.922	-72.244	112.066	10.329	-74.364	-66.767	-1.905	2.387	-70.138	-66.522	-62.179	-58.725	143.368	-63.188	-8191	255	
35556.797	1	1	0	0	0.22251	0.054561	0.18514	0.21353	0.020162	0.21178	0.23653	0.2691	0.10775	0.15457	0.14931	0.20897	0.22853	0.19212	0.18546	0.085169	-0.4875	-0.38125	-1.0938	-0.61042	-0.73958	-1.3937	-0.49375	-1.2979	-1.2188	-0.54167	-1.2896	-0.71042	-0.74583	-1.3958	-0.63958	-1.2125	237.791	126.745	-18.852	210.543	198.352	178.210	156.679	-76.873	-62.442	252.553	198.352	100.609	258.683	237.797	152.680	120.098	0.00013226	0.0014942	0.00020716	692.07	6.4988e-06	9.8884e-06	369.26	261.74	5.1316e-06	3.0042e-06	142.96	54.587	102.31	56	8.073e-06	29.741	0.0015964	0.0019776	0.00054647	679.72	2.1058e-05	2.1656e-05	375.32	258.92	2.0921e-05	2.1868e-05	148.93	57.042	102.78	55.703	2.1611e-05	30.334	206.224	35.449	-40.835	-72.062	238.531	90.256	-74.048	-65.816	64.726	94.648	-70.071	-66.577	-62.373	-58.791	-72.513	-63.610	-8191	255	
35556.895	1	1	0	0	0.28139	0.098022	0.15723	0.18807	0.22072	0.12248	0.073014	0.16743	0.10524	0.21545	0.024278	0.32279	0.23659	0.21417	0.086562	0.25263	-0.81458	-0.41875	-1.3375	-0.91875	-0.76042	-1.3125	-0.67708	-1.2479	-1.4125	-0.575	-1.3625	-0.74583	-0.65625	-1.6396	-0.575	-0.93958	164.530	116.536	267.628	230.234	259.935	212.968	154.079	227.702	75.397	191.600	201.197	83.962	262.033	262.806	177.661	-60.983	0.00014691	0.00032271	0.00011596	692.76	4.717e-06	2.0774e-06	368.92	259.96	3.8173e-06	1.4853e-06	141.51	54.486	102.54	55.689	6.2166e-06	29.57	0.0015965	0.0019619	0.00054967	680.51	2.1145e-05	2.1714e-05	374.79	257.7	2.1205e-05	2.1897e-05	147.97	56.927	102.34	55.415	2.1822e-05	30.305	192.746	145.600	229.534	-72.317	95.286	-70.545	-74.239	-66.544	-24.090	-12.573	-70.019	-66.360	-62.323	-58.332	118.970	-63.156	-8191	255	
35556.988	1	1	0	0	0.10207	0.30725	0.15968	0.49165	0.25042	0.15283	0.033836	0.23948	0.1761	0.080562	0.21652	0.28683	0.20702	0.16981	0.1042	0.19185	-0.97083	-0.64167	-1.2042	-0.98333	-0.58958	-1.3021	-0.72708	-0.97708	-1.4021	-0.38542	-1.1104	-1.0688	-0.63125	-1.3917	-0.76458	-0.95417	10.573	37.345	-46.474	-79.386	134.934	163.320	-48.426	201.874	-67.679	58.941	65.958	235.508	187.457	218.013	191.685	121.943	0.00011856	0.00076313	0.00013872	684.57	5.3954e-06	1.041e-06	363.34	259.09	4.8373e-06	2.3706e-06	142.5	54.971	101.81	55.249	5.18e-06	29.45	0.001621	0.0019934	0.00056832	675.95	2.165e-05	2.2373e-05	372.77	256.68	2.1481e-05	2.2474e-05	148.78	56.974	102.12	55.199	2.2148e-05	30.296	228.848	1.145	17.518	-72.452	104.211	59.309	-74.203	-66.625	7.617	120.075	-70.289	-66.120	-62.441	-58.448	18.640	-63.340	-8191	255	
35557.086	1	1	0	0	0.078165	0.32692	0.11375	0.17989	0.091282	0.25287	0.2565	0.40352	0.1692	0.20648	0.097735	0.22096	0.16683	0.21366	0.12377	0.15242	-1	-0.36875	-1.0229	-1.0229	-0.55208	-1.2812	-0.87708	-0.84375	-1.5104	-0.45	-0.9875	-1.3021	-0.57083	-1.4708	-0.79583	-0.41458	-72.631	113.611	34.423	150.735	-64.823	122.901	-58.819	213.367	236.381	139.886	200.974	199.533	-50.191	250.714	141.732	275.370	7.3227e-05	0.001063	0.00013798	688.98	2.3207e-06	1.7355e-06	359.19	257.89	5.9224e-06	7.5402e-07	140.15	53.621	100.29	54.591	5.6649e-06	29.092	0.0016389	0.0020189	0.0005688	675.53	2.1549e-05	2.2687e-05	369.37	255.66	2.1744e-05	2.2653e-05	146.69	56.062	101.02	54.581	2.2466e-05	29.751	230.603	-0.285	61.462	-72.091	191.796	30.783	-73.764	-66.120	99.643	28.220	-69.714	-66.567	-62.304	-58.465	144.681	-63.462	-8191	255	
35557.207	1	1	0	0	0.12642	0.33892	0.21122	0.29023	0.13109	0.41368	0.11672	0.062663	0.084652	0.27875	0.11719	0.12955	0.19295	0.12514	0.14016	0.2453	-1.2125	-0.45833	-1.0604	-1.2396	-0.28542	-1.3021	-0.75208	-0.6375	-1.2979	-0.39583	-0.79375	-1.3083	-0.49583	-1.2042	-0.92292	-0.51458	-26.118	-50.660	-42.979	245.315	199.028	-33.935	65.633	-42.152	-51.399	48.087	273.773	225.225	226.216	-54.138	-37.005	-11.058	8.1936e-05	0.00090954	0.00015667	680.52	9.0649e-06	9.236e-06	361.54	254.92	4.6425e-06	5.1549e-06	138.6	53.392	100.06	54.489	4.8512e-06	28.529	0.0016723	0.0020594	0.00057298	670.89	2.2025e-05	2.27e-05	367.09	253.45	2.1668e-05	2.2717e-05	145.88	55.448	100.51	54.209	2.2264e-05	29.345	212.823	9.479	-21.294	-72.187	83.602	113.721	-74.195	-66.262	-49.995	208.947	-69.773	-66.137	-62.132	-58.446	43.702	-62.939	-8191	255	
35557.277	1	1	0	0	0.18217	0.097957	0.17546	0.14741	0.3169	0.22419	0.14312	0.15692	0.16649	0.18784	0.1554	0.064763	0.30061	0.10734	0.099721	0.18732	-1.0958	-0.46875	-0.75208	-1.4562	-0.50417	-1.0167	-0.96875	-0.51458	-1.3729	-0.81042	-0.7	-1.3438	-0.6125	-1.2167	-0.93333	-0.56458	-1.765	92.459	-9.048	115.518	74.891	37.711	272.715	95.764	206.891	202.107	-79.199	192.475	274.012	22.007	-26.973	-40.858	7.1776e-05	0.00038419	0.0001111	676.95	1.8155e-06	2.9162e-06	359.99	255.38	3.9912e-06	7.4246e-06	137.88	53.348	99.323	54.408	1.516e-06	28.533	0.0016749	0.0020621	0.00057036	668.33	2.2136e-05	2.3026e-05	365.6	253.14	2.2036e-05	2.2856e-05	145.09	55.602	100.23	54.107	2.253e-05	29.401	171.125	-58.107	56.197	-71.690	106.290	127.278	-73.876	-66.623	271.626	-9.488	-70.079	-66.532	-62.324	-58.148	14.886	-63.195	-8191	255	
35557.375	1	1	0	0	0.36328	0.051268	0.14134	0.37817	0.055991	0.13566	0.14875	0.087259	0.12038	0.25451	0.25429	0.19018	0.23008	0.15187	0.19833	0.080241	-1.0604	-0.71667	-0.52708	-1.4375	-0.39792	-1.0312	-1.1333	-0.59167	-1.3188	-0.74167	-0.52917	-1.4375	-0.57917	-0.95417	-1.2354	-0.60833	77.225	172.386	-39.488	274.879	228.814	-33.622	-76.897	197.207	243.126	113.746	124.277	193.917	170.019	-66.815	-26.888	6.035	6.3191e-05	0.0011651	0.00035151	675.7	5.4069e-06	1.4533e-06	357.71	254.18	1.565e-06	1.1579e-06	138.78	52.877	98.871	54.312	3.85e-06	28.744	0.0016872	0.0020914	0.00057964	666.85	2.2131e-05	2.3037e-05	366.12	252.01	2.2196e-05	2.3074e-05	145.22	55.495	99.975	54.066	2.2203e-05	29.46	167.510	-71.894	-44.559	-71.803	156.294	50.789	-73.865	-66.332	57.551	-56.422	-69.890	-66.279	-61.838	-58.081	131.095	-63.015	-8191	255	
35557.496	1	1	0	0	0.083359	0.22237	0.12912	0.28949	0.12014	0.089041	0.34388	0.22245	0.23342	0.10557	0.23978	0.17468	0.18534	0.22002	0.25305	0.014343	-0.82917	-0.9125	-0.46042	-1.6063	-0.68958	-0.92292	-1.2458	-0.52708	-1.2625	-1.05	-0.52708	-1.5646	-0.61042	-1.0854	-1.2625	-0.69375	18.420	-51.381	45.583	237.014	-33.970	72.507	-50.064	269.856	196.652	21.506	-42.159	30.752	-10.629	226.536	189.256	30.399	4.3323e-05	0.00027493	0.0002087	682.17	2.2971e-06	3.2598e-06	360.72	255.86	1.7777e-06	2.7122e-06	138.94	53.038	99.599	54.21	3.6446e-06	28.765	0.0016763	0.002051	0.00057426	668.75	2.1724e-05	2.266e-05	366.54	252.97	2.1834e-05	2.2783e-05	145.61	55.512	100.02	53.983	2.224e-05	29.38	192.177	43.795	98.990	-72.009	47.928	-42.474	-73.516	-66.084	91.588	148.286	-69.931	-66.162	-61.893	-58.075	128.322	-63.189	-8191	255	
35557.590	1	1	0	0	0.33219	0.27455	0.072785	0.21199	0.21285	0.38051	0.091485	0.25515	0.21207	0.01841	0.079771	0.15673	0.21144	0.093554	0.29962	0.27572	-0.74167	-1.1375	-0.67083	-1.3958	-0.66667	-0.83958	-1.3937	-0.575	-1.2563	-1.3375	-0.60208	-1.3937	-0.92917	-0.85625	-1.5542	-0.46875	-62.388	231.644	58.671	229.372	225.806	245.619	44.623	254.478	16.646	123.179	38.723	231.328	197.907	232.584	117.936	259.935	6.6744e-05	0.00088866	0.00013222	678.71	4.4273e-06	1.2274e-06	356.5	253.6	4.2675e-06	4.6459e-06	136.02	52.544	99.027	53.949	8.0719e-06	28.056	0.00168	0.0020753	0.00057272	667.21	2.2214e-05	2.288e-05	362.91	251.12	2.1918e-05	2.3282e-05	143.38	54.704	99.39	53.69	2.2359e-05	28.965	239.373	-49.535	27.186	-71.626	-73.065	259.487	-73.504	-66.142	274.671	27.669	-69.754	-65.898	-61.722	-57.752	-13.459	-62.905	-8191	255	
35557.688	1	1	0	0	0.20392	0.17818	0.18386	0.33405	0.11949	0.11084	0.20105	0.27952	0.10348	0.11231	0.22184	0.16957	0.24233	0.51284	0.091817	0.16593	-0.67292	-1.2229	-0.27708	-1.4729	-0.91042	-0.63125	-1.4125	-0.675	-0.98333	-1.1958	-0.44375	-1.1979	-0.97917	-0.70208	-1.3	-0.73125	-22.352	76.757	27.038	-47.107	23.992	97.115	245.980	-80.821	-78.152	23.498	47.510	241.821	-54.526	-82.172	192.617	-31.584	7.9969e-05	0.00098329	0.00021127	672.21	5.2007e-06	5.1132e-06	350.46	251.68	5.5899e-06	1.6446e-06	137.03	52.111	98.137	53.555	2.3085e-06	27.744	0.0017095	0.0020759	0.00058411	663.25	2.2164e-05	2.3149e-05	359.99	249.71	2.2504e-05	2.3424e-05	143.45	54.713	99.04	53.309	2.3406e-05	28.823	184.773	17.757	69.573	-72.327	5.401	-17.062	-74.349	-66.570	62.510	267.256	-70.716	-67.131	-62.688	-58.960	232.125	-63.737	-8191	255	
35557.805	1	1	0	0	0.10228	0.28234	0.15537	0.21938	0.11556	0.3756	0.17247	0.2204	0.13177	0.18985	0.24753	0.11327	0.11481	0.31311	0.25101	0.23796	-0.60417	-1.2396	-0.29375	-1.3208	-1.0938	-0.43333	-1.4667	-0.71875	-0.85417	-1.3937	-0.54375	-1.1583	-1.1708	-0.67083	-1.2437	-0.94583	265.109	87.805	-9.350	-64.091	-63.729	252.889	130.457	84.239	119.157	-15.348	155.836	185.992	119.639	238.751	234.235	-22.030	4.7203e-05	0.00019289	4.31e-05	669.34	1.9811e-06	3.1168e-06	352.74	249.52	2.6103e-06	3.4532e-06	135.49	52.176	98.587	53.605	3.9317e-06	28.173	0.0017171	0.0021433	0.00060395	663.66	2.2793e-05	2.4238e-05	360.55	249.18	2.3159e-05	2.4122e-05	143.61	55.037	99.332	53.456	2.3726e-05	29.067	236.854	-49.835	120.791	-72.095	119.646	-3.873	-74.728	-67.223	-12.081	6.790	-70.175	-66.644	-62.436	-58.787	224.405	-64.029	-8191	255	
35557.902	1	1	0	0	0.19692	0.12915	0.062345	0.060142	0.33987	0.31744	0.13639	0.28995	0.27227	0.08836	0.14181	0.11424	0.057605	0.20665	0.068305	0.12586	-0.48542	-1.25	-0.49583	-1.2104	-1.1021	-0.27083	-1.2375	-0.825	-0.625	-1.3458	-0.64167	-1.0688	-1.2062	-0.57708	-1.1542	-0.73125	232.404	87.899	67.982	144.751	22.355	126.098	231.764	227.977	250.814	196.433	159.118	-7.589	-55.564	-7.644	82.212	158.499	7.9136e-05	0.00065024	0.00023319	669.75	8.479e-06	6.2812e-06	354.2	251.5	2.2738e-06	6.1268e-06	136.72	52.503	97.667	53.562	7.0019e-06	28.266	0.0017774	0.0022008	0.00062816	663.77	2.3615e-05	2.4369e-05	364.49	250.37	2.3824e-05	2.4685e-05	144.94	55.302	99.331	53.479	2.4283e-05	29.219	213.513	24.311	73.948	-72.648	68.980	155.391	-74.398	-67.429	-18.822	261.936	-70.797	-67.247	-63.281	-59.262	-81.428	-64.035	-8191	255	
35557.973	1	1	0	0	0.21396	0.094077	0.023009	0.21263	0.19917	0.12937	0.1442	0.2199	0.16616	0.44993	0.17557	0.23196	0.17622	0.28729	0.30385	0.19443	-0.13333	-1.425	-0.42292	-0.84792	-1.225	-0.23542	-1.2667	-1.0604	-0.575	-1.2125	-0.45417	-0.71667	-1.375	-0.51458	-1.225	-0.96042	274.368	72.321	147.132	253.504	-52.013	66.270	259.294	235.806	89.570	48.118	47.581	79.668	147.955	220.495	-81.005	83.798	5.555e-05	0.00085453	0.00015229	676.25	7.8162e-06	3.4664e-07	359.43	250.63	7.1839e-06	6.4249e-06	136.11	52.229	97.895	53.285	6.2349e-06	28.128	0.0018054	0.0022663	0.00062681	667.15	2.3901e-05	2.5374e-05	365.53	250.56	2.4044e-05	2.5157e-05	144.12	55.264	99.038	53.337	2.4501e-05	28.926	233.174	162.079	-72.419	-72.585	59.995	-45.338	-74.853	-67.596	92.830	139.580	-70.547	-67.082	-62.970	-59.263	146.942	-64.354	-8191	255	
35558.094	1	1	0	0	0.29235	0.04438	0.084483	0.12457	0.17113	0.16979	0.32023	0.22824	0.17874	0.18299	0.18982	0.090218	0.18778	0.28657	0.39182	0.13895	0.039583	-1.4125	-0.6375	-0.7	-1.1812	-0.5	-1.2458	-1.1542	-0.41042	-1.3167	-0.79167	-0.6125	-1.5312	-0.60208	-0.90208	-1.1979	-20.786	135.549	241.405	51.900	90.926	250.275	121.980	26.908	77.849	226.963	163.806	-56.006	236.880	216.264	-1.664	259.766	8.8449e-05	0.00074618	8.7581e-05	669.35	4.3298e-06	7.8589e-06	351.35	250.33	2.8387e-06	4.8003e-06	135.47	51.476	98.195	53.17	6.3277e-06	27.886	0.0018409	0.0022665	0.00063637	663.42	2.4297e-05	2.5466e-05	361.86	249.62	2.4506e-05	2.5334e-05	143.7	54.757	99.064	53.211	2.4847e-05	28.996	243.864	-57.028	92.308	-72.829	162.228	34.837	-74.530	-67.090	250.984	202.465	-70.732	-67.367	-63.219	-59.387	-8.326	-64.806	-8191	255	
35558.191	1	1	0	0	0.1225	0.25166	0.13749	0.10585	0.17175	0.037635	0.25318	0.31464	0.047014	0.10547	0.17234	0.12739	0.23865	0.25643	0.20941	0.12857	-0.035417	-1.2771	-0.87083	-0.69167	-1.2979	-0.5125	-1.0042	-1.2792	-0.34167	-1.4146	-0.81875	-0.38333	-1.3604	-0.68125	-0.83125	-1.4083	36.511	158.045	220.426	72.448	228.866	3.089	-78.097	211.889	22.226	67.738	272.170	-71.279	-18.311	204.242	255.313	53.547	6.466e-05	0.00049162	4.7984e-05	670.28	7.5766e-07	1.0529e-05	350.2	251.75	2.1692e-06	2.6477e-06	135.15	52.157	98.623	53.541	3.5827e-06	28.009	0.00184	0.0022959	0.00063296	662.93	2.4265e-05	2.5443e-05	360.92	250.18	2.4404e-05	2.5637e-05	143.59	55.122	99.608	53.476	2.4777e-05	29.074	153.038	69.312	-50.203	-72.819	47.941	-37.874	-74.748	-67.353	98.096	3.515	-71.145	-67.324	-62.926	-59.306	15.150	-63.949	-8191	255	
35558.285	1	1	0	0	0.0079448	0.22812	0.19892	0.12805	0.15033	0.20116	0.25691	0.31505	0.12806	0.39399	0.15772	0.094041	0.22	0.13586	0.049127	0.19138	0.18542	-1.2812	-0.80208	-0.37917	-1.2188	-0.43333	-0.82292	-1.3833	-0.59167	-1.1187	-1.2208	-0.33333	-1.4021	-0.82917	-0.81875	-1.4229	24.573	-13.976	271.701	242.381	97.695	267.274	115.890	-78.444	102.932	259.158	200.286	87.080	62.502	-20.754	65.024	268.386	6.6657e-05	0.001309	0.00015725	669.68	3.5197e-06	1.003e-05	351.41	251.56	5.1978e-06	3.4538e-07	136.1	52.339	98.478	53.82	9.1176e-06	28.317	0.0018468	0.0022929	0.00063618	663	2.4271e-05	2.5234e-05	362.82	250.48	2.4233e-05	2.5444e-05	145.23	55.371	99.686	53.737	2.4695e-05	29.391	241.836	-54.053	-60.169	-72.859	166.558	119.790	-74.712	-67.088	264.146	128.216	-70.801	-67.188	-63.022	-59.140	82.851	-64.100	-8191	255	
35558.383	1	1	0	0	0.12854	0.10851	0.11968	0.17068	0.20053	0.22238	0.26782	0.30198	0.2357	0.10455	0.066949	0.26191	0.059688	0.13042	0.39486	0.22725	-0.23542	-1.0271	-1.2146	-0.58958	-1.2229	-0.80833	-0.90417	-1.475	-0.37292	-1.0667	-1.2333	-0.43958	-1.2792	-1.0854	-0.59583	-1.4292	-77.032	200.743	24.276	236.580	32.421	256.368	-37.243	204.164	111.835	92.926	-67.006	105.437	-80.653	222.489	73.238	187.973	8.9649e-05	0.00051585	3.4058e-05	667.32	2.1317e-06	5.5119e-06	354.11	253.33	1.7701e-06	5.1405e-06	137.46	52.416	99.124	53.856	3.7932e-06	28.524	0.0018601	0.0023182	0.00063981	663.94	2.4229e-05	2.5227e-05	364.65	251.76	2.4173e-05	2.53e-05	145.45	55.604	100.16	53.811	2.4625e-05	29.442	185.281	-73.120	100.481	-72.608	-50.664	-48.685	-74.165	-67.230	210.773	24.738	-70.941	-67.124	-63.228	-59.306	48.271	-64.059	-8191	255	
35558.480	1	1	0	0	0.074311	0.11958	0.18686	0.13713	0.13334	0.18382	0.044476	0.26451	0.38635	0.16387	0.40346	0.17936	0.34366	0.16678	0.18194	0.055566	-0.04375	-0.82708	-1.175	-0.57083	-1.2875	-0.90417	-0.4625	-1.4792	-0.65208	-0.92917	-1.2021	-0.41875	-1.2292	-0.8625	-0.52917	-1.4021	64.875	-46.468	103.557	211.217	-66.276	241.534	222.334	212.337	-15.281	149.890	163.574	179.936	220.925	-12.847	-25.226	152.885	8.4359e-05	0.00021031	0.00014425	670.84	4.5943e-06	2.6271e-06	354.46	252.21	1.9845e-06	4.0765e-06	136.53	52.485	99.236	53.929	3.2499e-06	28.038	0.0018634	0.0023108	0.0006436	665.99	2.4227e-05	2.5379e-05	364.22	251.54	2.4345e-05	2.5427e-05	145.18	55.376	100.07	53.829	2.4407e-05	29.261	237.562	-76.750	-4.469	-72.635	103.549	101.456	-74.551	-67.173	224.988	51.361	-70.882	-67.345	-62.747	-59.250	195.758	-63.794	-8191	255	
35558.574	1	1	0	0	0.14747	0.1852	0.043627	0.14394	0.21399	0.23836	0.13054	0.143	0.14787	0.16787	0.07176	0.2409	0.29947	0.14506	0.28968	0.060745	-0.10833	-0.55833	-1.4354	-0.5875	-1.0688	-1.0458	-0.60625	-1.4062	-0.74375	-0.48333	-1.3708	-0.38958	-1.2375	-1.1562	-0.53125	-1.3917	54.586	205.955	269.637	-67.840	262.391	197.280	-13.825	-4.830	-8.355	113.383	-21.451	152.423	-68.540	224.585	-57.107	113.665	0.00012185	0.0010211	0.00025906	670.65	5.4239e-06	2.7493e-06	355.56	252	5.1735e-06	5.5337e-06	135.14	52.315	98.864	53.76	8.6902e-07	28.271	0.0018725	0.00225	0.00062799	662.65	2.4235e-05	2.4819e-05	363.04	250.96	2.4048e-05	2.4764e-05	144.07	55.297	99.862	53.767	2.3922e-05	29.244	214.166	107.839	-4.271	-72.995	114.264	111.383	-74.347	-67.032	242.829	-7.956	-71.203	-66.717	-62.502	-59.079	145.047	-63.688	-8191	255	
35558.672	1	1	0	0	0.20016	0.12953	0.33728	0.40676	0.14406	0.12802	0.17048	0.23113	0.23626	0.028346	0.35602	0.064721	0.23958	0.064026	0.12174	0.10937	-0.29375	-0.53542	-1.2958	-0.73542	-1.0708	-1.2396	-0.29583	-1.3479	-0.79583	-0.6	-1.5	-0.49167	-1.1938	-1.4042	-0.41042	-1.3417	158.652	34.968	38.537	194.066	264.457	-71.891	-81.394	-49.034	85.153	19.722	180.620	129.734	250.706	55.580	53.181	213.584	0.00010187	0.00079027	0.00027602	670.04	4.5045e-06	5.0258e-06	354.72	251.79	3.647e-06	2.718e-06	137.53	53.307	98.915	53.409	1.2412e-06	28.163	0.0018032	0.002213	0.00061802	662.84	2.3242e-05	2.4001e-05	363.1	250.68	2.3613e-05	2.425e-05	144.95	55.523	99.687	53.587	2.3602e-05	29.274	170.676	-65.430	-30.502	-72.363	129.847	6.974	-74.813	-67.027	117.171	35.978	-70.640	-67.015	-63.112	-59.519	128.502	-63.867	-8191	255	
35558.770	1	1	0	0	0.16594	0.34837	0.17694	0.091561	0.15872	0.072824	0.23154	0.062392	0.1795	0.38515	0.18281	0.17971	0.29044	0.33831	0.24701	0.12206	-0.57917	-0.49792	-1.2833	-0.48125	-0.73125	-1.4146	-0.73125	-1.1313	-0.97292	-0.58958	-1.2938	-0.80417	-0.83125	-1.3021	-0.4375	-1.2188	60.050	76.693	148.627	215.750	189.726	-46.523	-72.954	3.031	217.820	51.709	158.690	134.406	219.442	262.298	-4.426	160.317	4.6284e-05	0.001202	0.00014243	671.26	7.4316e-06	8.4058e-06	354.94	251.74	3.5657e-06	9.627e-06	138.45	53.369	99.238	53.972	3.3591e-06	28.686	0.0017634	0.0021612	0.00060586	663.12	2.3129e-05	2.3956e-05	363.7	251.18	2.2958e-05	2.3732e-05	145.55	55.69	100.05	53.85	2.3365e-05	29.467	243.351	-47.731	-24.303	-72.746	32.848	69.762	-74.172	-66.918	246.855	102.308	-70.536	-67.463	-62.819	-59.252	18.412	-64.082	-8191	255	
35558.887	1	1	0	0	0.44131	0.12273	0.2675	0.13396	0.083329	0.098963	0.077652	0.24982	0.04922	0.10289	0.036815	0.1038	0.23983	0.078739	0.22213	0.34988	-0.72917	-0.44167	-1.3958	-0.82292	-0.59167	-1.3146	-0.43542	-1.0292	-1.2375	-0.43542	-1.375	-0.7125	-0.74167	-1.5562	-0.46458	-1.1458	77.746	248.224	10.345	133.774	257.505	39.460	221.386	197.025	186.480	174.896	55.809	6.906	210.439	-3.814	252.952	86.620	0.00010909	0.00086067	5.9586e-05	671.69	8.8192e-07	3.9585e-06	358.32	254.42	4.8305e-06	7.8381e-06	137.61	53.248	98.37	53.836	1.2814e-06	28.177	0.0017207	0.0021346	0.00059632	663.96	2.3091e-05	2.3598e-05	366.57	252.99	2.2768e-05	2.3804e-05	145.39	55.691	99.784	53.673	2.3343e-05	29.244	175.647	26.199	105.883	-72.611	232.896	266.736	-74.539	-67.167	-12.349	39.879	-70.611	-66.814	-62.917	-59.048	195.686	-63.941	-8191	255	
35558.984	1	1	0	0	0.10056	0.19547	0.18378	0.25803	0.22568	0.24715	0.24993	0.16719	0.0084354	0.12645	0.089379	0.051771	0.2566	0.2037	0.10287	0.23221	-0.79583	-0.40417	-1.2333	-0.9375	-0.38333	-1.2021	-0.57083	-1.0479	-1.1063	-0.45417	-1.1021	-0.87917	-0.55208	-1.5271	-0.6	-0.91875	143.395	-50.576	-59.591	185.265	164.715	92.085	272.074	-81.015	105.140	-61.506	30.453	257.553	250.117	-82.484	12.896	62.552	0.00015253	0.00041835	0.00017033	674.76	1.6682e-06	4.0698e-06	354.67	252.3	2.7473e-06	4.3247e-06	137.36	52.819	98.952	53.849	5.0899e-06	28.27	0.0017166	0.0021371	0.00058949	664.73	2.2525e-05	2.344e-05	363.72	251.05	2.2628e-05	2.3319e-05	144.49	55.249	99.69	53.732	2.2835e-05	29.192	209.050	-79.969	152.454	-72.367	43.150	153.385	-74.298	-66.991	-41.261	88.031	-70.071	-67.039	-62.314	-58.723	76.651	-63.544	-8191	255	
35559.078	1	1	0	0	0.071498	0.25089	0.063596	0.10702	0.22292	0.18421	0.095026	0.19539	0.13197	0.090008	0.21549	0.099379	0.12053	0.058289	0.12519	0.23461	-0.8875	-0.57083	-1.3167	-1.2021	-0.50833	-1.4729	-0.7875	-0.73333	-1.225	-0.48958	-1.1542	-0.93333	-0.375	-1.4625	-0.87292	-0.73333	246.012	234.379	58.703	155.170	-79.526	112.890	29.300	244.264	70.587	-3.583	60.741	103.483	-70.586	235.706	-38.998	233.843	2.4098e-05	0.00041047	0.00012915	676.32	3.0022e-06	2.4211e-06	356.1	253.18	6.4219e-06	6.1513e-06	137.67	52.989	99.749	54.141	6.6727e-06	28.643	0.0016818	0.0020682	0.00058943	664.62	2.2061e-05	2.2789e-05	364.6	251.34	2.2254e-05	2.3041e-05	144.59	55.465	99.987	53.831	2.2527e-05	29.247	-31.992	37.607	99.450	-72.693	150.014	98.164	-74.632	-66.893	34.088	109.675	-70.371	-67.531	-62.718	-58.883	157.967	-63.885	-8191	255	
35559.176	1	1	0	0	0.2568	0.15868	0.15797	0.35289	0.1122	0.30954	0.15971	0.082299	0.12	0.41438	0.18272	0.22423	0.25647	0.12853	0.12417	0.31577	-0.94167	-0.4375	-1.025	-1.2625	-0.33125	-1.2583	-0.76458	-0.61875	-1.3625	-0.57083	-1.0187	-1.2708	-0.43958	-1.3062	-0.81042	-0.64583	164.552	143.342	46.566	-35.744	148.790	-70.370	18.783	-37.034	90.707	191.439	180.146	219.632	237.144	179.295	218.434	217.084	0.00010019	0.000416	7.7531e-05	672.45	6.7098e-06	4.299e-06	360.95	253.2	7.2797e-06	7.3726e-06	140.19	53.268	99.5	54.059	4.1518e-06	28.787	0.0016633	0.0020652	0.00057677	667.27	2.1729e-05	2.2601e-05	366.71	252.15	2.1614e-05	2.2789e-05	145.92	55.728	100.08	53.814	2.2346e-05	29.423	162.559	208.721	239.196	-72.516	113.711	65.419	-74.478	-66.900	-54.983	-50.530	-70.644	-67.250	-62.501	-58.982	51.007	-64.187	-8191	255	
35559.270	1	1	0	0	0.043362	0.019318	0.20701	0.18834	0.28904	0.15584	0.084605	0.1935	0.093494	0.15059	0.12646	0.087882	0.12335	0.1218	0.14174	0.18088	-0.99583	-0.44375	-0.89792	-1.275	-0.54167	-1.2958	-1.0396	-0.50625	-1.3708	-0.69583	-0.9	-1.3208	-0.66667	-1.2062	-1.0708	-0.45208	-45.729	172.788	-67.012	65.267	39.658	224.231	61.033	118.256	-63.674	-75.370	269.156	100.994	-62.571	246.717	-13.178	223.707	0.00011531	0.00055177	0.00016487	676.69	1.9841e-06	2.1764e-06	363.04	254.66	5.0987e-06	5.583e-06	139.14	53.972	99.655	54.327	2.1728e-06	28.816	0.0016801	0.002072	0.00057937	667.56	2.2073e-05	2.2831e-05	369.46	252.21	2.1791e-05	2.3124e-05	146.85	56.053	100.36	54.08	2.2576e-05	29.658	197.568	101.205	56.016	-72.538	264.118	83.481	-74.461	-67.041	106.127	238.649	-70.467	-67.254	-62.702	-58.864	87.563	-63.825	-8191	255	
35559.367	1	1	0	0	0.23773	0.18555	0.10106	0.26602	0.17151	0.043595	0.19879	0.23758	0.14638	0.29111	0.15128	0.23562	0.09646	0.076678	0.3482	0.024558	-0.85417	-0.46458	-0.47917	-1.4688	-0.42292	-1.1354	-1.1104	-0.51458	-1.2292	-0.7875	-0.6375	-1.6187	-0.5125	-1.3521	-1.2042	-0.46667	102.180	-11.228	80.445	10.665	17.899	-34.184	24.543	259.282	211.195	-65.045	79.721	223.746	47.383	0.315	65.281	5.277	6.7417e-05	0.00018848	0.00020706	682.04	4.4945e-06	7.2318e-06	361.13	255.59	1.4946e-06	6.1198e-06	139.05	53.374	100.08	54.444	2.0776e-06	28.789	0.0016844	0.0020888	0.00058444	673.76	2.2457e-05	2.3398e-05	369.71	253.66	2.244e-05	2.345e-05	146.61	56.02	100.61	54.262	2.2952e-05	29.588	206.260	168.917	-83.414	-72.344	45.308	44.632	-74.732	-66.627	-69.859	64.220	-70.758	-66.684	-62.540	-58.791	251.577	-63.731	-8191	255	
35559.488	1	1	0	0	0.11879	0.11498	0.20299	0.085158	0.1273	0.30044	0.050086	0.072809	0.2242	0.23818	0.13206	0.081304	0.098847	0.2232	0.31045	0.20479	-0.98958	-0.74375	-0.57083	-1.4229	-0.40208	-0.88125	-1.025	-0.42083	-1.2437	-0.75417	-0.48125	-1.1	-0.62917	-1.0583	-1.1729	-0.30625	5.511	-67.669	16.116	-67.204	-36.639	-64.540	-54.716	-71.708	60.007	63.364	-59.011	25.039	100.621	-84.310	78.327	128.378	7.8241e-05	0.00049163	7.8789e-05	679.17	3.2489e-06	5.7018e-06	359.23	253.8	3.2224e-06	3.7764e-06	140.1	53.672	99.618	54.567	1.8539e-06	28.847	0.0017173	0.0021264	0.00059457	670.63	2.2629e-05	2.369e-05	367.69	253.08	2.2638e-05	2.361e-05	146.5	56.257	100.34	54.372	2.2835e-05	29.7	219.998	-84.321	-71.363	-72.206	71.187	52.502	-74.288	-66.880	93.312	-47.103	-70.201	-66.347	-62.610	-59.013	115.753	-64.128	-8191	255	
35559.586	1	1	0	0	0.082705	0.22436	0.30165	0.27288	0.18171	0.053492	0.11867	0.093663	0.12935	0.032681	0.06051	0.15407	0.22894	0.11212	0.092697	0.13371	-0.72917	-0.95417	-0.3375	-1.3479	-0.64167	-0.82292	-1.125	-0.42708	-1.3208	-0.83542	-0.46042	-1.5021	-0.62708	-0.83125	-1.2396	-0.57917	93.228	224.557	-24.864	191.308	271.650	243.712	-78.281	-73.011	262.542	228.497	245.166	89.684	63.846	254.844	152.704	196.331	0.00010967	0.00086479	0.00026127	677.52	4.4044e-06	4.2116e-06	360.78	254.07	2.4665e-06	4.3301e-06	140.09	53.805	100.13	54.254	4.2461e-06	28.836	0.00172	0.0021175	0.00059185	670.49	2.2744e-05	2.3601e-05	369.87	252.81	2.2675e-05	2.3746e-05	146.95	56.346	100.5	54.159	2.2948e-05	29.692	236.030	-69.359	-27.502	-72.163	101.450	126.277	-73.930	-66.767	78.782	-6.082	-70.827	-66.753	-62.775	-58.667	136.185	-63.619	-8191	255	
35559.680	1	1	0	0	0.34792	0.18883	0.1476	0.22827	0.12742	0.059603	0.090165	0.27136	0.2477	0.15938	0.33137	0.15872	0.17897	0.29112	0.19772	0.4381	-0.56667	-1.0875	-0.39583	-1.4	-0.875	-0.59792	-1.4292	-0.59167	-1	-1.1271	-0.68125	-1.2104	-0.91875	-0.5875	-1.3417	-0.5375	104.771	26.461	132.159	213.819	-7.455	148.955	150.166	244.470	223.621	-28.389	-15.833	-83.608	178.743	246.099	183.809	230.366	8.9145e-05	0.00087878	0.00016352	679.42	2.8726e-06	2.4847e-06	363.17	255.52	6.1226e-06	6.6601e-06	140.07	53.733	100.23	54.367	2.9383e-06	29.019	0.0017296	0.0021342	0.00058876	671.39	2.2735e-05	2.3839e-05	370.61	253.52	2.2683e-05	2.3399e-05	147.25	56.306	100.7	54.155	2.2941e-05	29.752	213.901	-13.703	-73.719	-72.473	-20.009	-43.601	-74.291	-66.853	53.336	118.558	-70.064	-66.944	-62.441	-58.633	-55.186	-63.810	-8191	255	
35559.773	1	1	0	0	0.19005	0.07118	0.22285	0.25797	0.20237	0.11514	0.21713	0.27424	0.1251	0.21772	0.065924	0.21277	0.41207	0.13771	0.10469	0.11774	-0.71875	-1.2083	-0.38542	-1.3521	-0.81667	-0.41458	-1.3167	-0.66667	-1.0063	-1.3062	-0.39167	-1.2229	-1.1	-0.65417	-1.5354	-0.91042	-60.387	-41.882	89.387	243.461	49.083	36.510	-79.184	-12.999	136.019	61.084	59.980	156.580	262.869	264.935	80.352	183.651	4.9124e-05	0.00043151	0.00013493	680.97	3.3295e-06	1.1011e-05	364.92	256.02	6.3347e-06	6.7823e-06	140.72	54.231	100.02	54.331	2.9948e-06	29.084	0.0017163	0.0021112	0.00059043	671.46	2.2481e-05	2.3326e-05	371.83	253.39	2.261e-05	2.2904e-05	147.41	56.618	100.64	54.077	2.2798e-05	29.787	274.073	-29.800	-17.594	-72.218	16.026	56.210	-74.378	-66.791	153.995	118.352	-70.432	-66.735	-62.391	-58.513	121.015	-63.728	-8191	255	
35559.871	1	1	0	0	0.2817	0.11981	0.077385	0.075073	0.095211	0.053835	0.18512	0.28709	0.36967	0.13148	0.073747	0.28634	0.079987	0.083617	0.075298	0.0863	-0.45	-1.2958	-0.32083	-1.2687	-1.0938	-0.37917	-1.4292	-0.63542	-0.76667	-1.3833	-0.6375	-1.1521	-1.2667	-0.60833	-1.1562	-0.86458	176.383	158.539	231.858	140.872	260.458	172.761	222.952	-77.405	-46.156	167.864	258.761	185.595	185.787	234.237	144.190	174.414	9.93e-05	0.0003091	0.0001938	683.04	6.094e-06	9.6294e-06	362.45	254.79	3.2724e-06	7.7639e-06	137.94	53.224	99.322	54.018	5.1646e-06	28.791	0.0017072	0.0020716	0.00058552	673.04	2.2533e-05	2.3155e-05	369.4	253.15	2.2101e-05	2.2826e-05	145.86	55.781	100.18	53.769	2.2449e-05	29.512	246.785	-2.904	-74.949	-72.348	131.328	214.715	-74.306	-66.782	198.712	24.199	-70.248	-66.769	-62.523	-58.689	-10.717	-63.792	-8191	255	
#DATA ENDS
