BOXY.EXE: ISS Imagent and Oximeter Data Acquisition Program Version 0.80
Ascii Record File

#ACQ INFORMATION
2  Detector Channels 
16  External MUX Channels 
1  Auxiliary Channels 
5000  Waveform (CCF) Frequency (Hz)
1  Waveforms Skipped 
30  Waveforms Averaged 
1  Cycles Averaged 
16  Acquisitions per Waveform 
10.0806  Updata Rate (Hz) 

#FILE INFORMATION
TRUE -- External MUX Channel results are PARSED.
FALSE -- AC DC and Phase are NOT grouped.
TRUE -- Companion Program Settings File CREATED.
FALSE -- AC data not excluded
FALSE -- DC data not excluded
FALSE -- Phase data not excluded
FALSE -- Auxillary Chn. data not excluded
Tab delimiters

#CALIBRATION STATE
TRUE -- Waveform Calibration Values APPLIED.


#AUX CALIBRATION VALUES
Val Type	aux-1	

Term	1.0000e+00	
Factor	0.0000e+00	


#WF CALIBRATION VALUES
A = Detector Channel
Val Type	A-AC1	A-AC2	A-AC3	A-AC4	A-AC5	A-AC6	A-AC7	A-AC8	A-AC9	A-AC10	A-AC11	A-AC12	A-AC13	A-AC14	A-AC15	A-AC16	A-DC1	A-DC2	A-DC3	A-DC4	A-DC5	A-DC6	A-DC7	A-DC8	A-DC9	A-DC10	A-DC11	A-DC12	A-DC13	A-DC14	A-DC15	A-DC16	A-Ph1	A-Ph2	A-Ph3	A-Ph4	A-Ph5	A-Ph6	A-Ph7	A-Ph8	A-Ph9	A-Ph10	A-Ph11	A-Ph12	A-Ph13	A-Ph14	A-Ph15	A-Ph16	

Term	0.00000e+00	0.00000e+00	0.00000e+00	0.00000e+00	0.00000e+00	0.00000e+00	0.00000e+00	0.00000e+00	0.00000e+00	0.00000e+00	0.00000e+00	0.00000e+00	0.00000e+00	0.00000e+00	0.00000e+00	0.00000e+00	0.00000e+00	0.00000e+00	0.00000e+00	0.00000e+00	0.00000e+00	0.00000e+00	0.00000e+00	0.00000e+00	0.00000e+00	0.00000e+00	0.00000e+00	0.00000e+00	0.00000e+00	0.00000e+00	0.00000e+00	0.00000e+00	0.00000e+00	0.00000e+00	0.00000e+00	0.00000e+00	0.00000e+00	0.00000e+00	0.00000e+00	0.00000e+00	0.00000e+00	0.00000e+00	0.00000e+00	0.00000e+00	0.00000e+00	0.00000e+00	0.00000e+00	0.00000e+00	
Factor	1.00000e+00	1.00000e+00	1.00000e+00	1.00000e+00	1.00000e+00	1.00000e+00	1.00000e+00	1.00000e+00	1.00000e+00	1.00000e+00	1.00000e+00	1.00000e+00	1.00000e+00	1.00000e+00	1.00000e+00	1.00000e+00	1.00000e+00	1.00000e+00	1.00000e+00	1.00000e+00	1.00000e+00	1.00000e+00	1.00000e+00	1.00000e+00	1.00000e+00	1.00000e+00	1.00000e+00	1.00000e+00	1.00000e+00	1.00000e+00	1.00000e+00	1.00000e+00	X	X	X	X	X	X	X	X	X	X	X	X	X	X	X	X	

B = Detector Channel
Val Type	B-AC1	B-AC2	B-AC3	B-AC4	B-AC5	B-AC6	B-AC7	B-AC8	B-AC9	B-AC10	B-AC11	B-AC12	B-AC13	B-AC14	B-AC15	B-AC16	B-DC1	B-DC2	B-DC3	B-DC4	B-DC5	B-DC6	B-DC7	B-DC8	B-DC9	B-DC10	B-DC11	B-DC12	B-DC13	B-DC14	B-DC15	B-DC16	B-Ph1	B-Ph2	B-Ph3	B-Ph4	B-Ph5	B-Ph6	B-Ph7	B-Ph8	B-Ph9	B-Ph10	B-Ph11	B-Ph12	B-Ph13	B-Ph14	B-Ph15	B-Ph16	

Term	0.00000e+00	0.00000e+00	0.00000e+00	0.00000e+00	0.00000e+00	0.00000e+00	0.00000e+00	0.00000e+00	0.00000e+00	0.00000e+00	0.00000e+00	0.00000e+00	0.00000e+00	0.00000e+00	0.00000e+00	0.00000e+00	0.00000e+00	0.00000e+00	0.00000e+00	0.00000e+00	0.00000e+00	0.00000e+00	0.00000e+00	0.00000e+00	0.00000e+00	0.00000e+00	0.00000e+00	0.00000e+00	0.00000e+00	0.00000e+00	0.00000e+00	0.00000e+00	-2.13723e+02	-1.41593e+02	-1.27316e+02	-1.82794e+02	-7.62647e+01	-6.59945e+01	-1.59761e+02	-1.62015e+02	-7.53054e+01	-7.44318e+01	-1.73616e+02	-1.70170e+02	-1.81260e+02	-1.77206e+02	-7.31111e+01	-1.49760e+02	
Factor	4.16295e-05	1.17231e-04	3.50628e-05	1.64734e-01	1.28751e-06	1.54204e-06	1.47184e-01	4.12149e-02	1.81911e-06	1.33572e-06	9.52221e-02	2.38390e-02	3.04876e-02	7.01546e-03	1.41733e-06	9.91543e-03	5.25627e-06	6.12416e-06	1.70953e-06	9.15001e-02	6.56472e-08	6.77175e-08	7.64599e-02	2.29259e-02	6.50200e-08	6.78082e-08	5.11528e-02	1.28320e-02	1.70617e-02	3.94400e-03	6.63377e-08	5.38573e-03	X	X	X	X	X	X	X	X	X	X	X	X	X	X	X	X	



#DISTANCE SETTINGS
A = Detector Channel
A-1	A-2	A-3	A-4	A-5	A-6	A-7	A-8	A-9	A-10	A-11	A-12	A-13	A-14	A-15	A-16	

2.5000e+00	3.0000e+00	2.5000e+00	3.0000e+00	2.0000e+00	3.0000e+00	1.5000e+00	3.0000e+00	3.0000e+00	3.0000e+00	3.0000e+00	3.0000e+00	3.0000e+00	3.0000e+00	1.5000e+00	3.0000e+00	

B = Detector Channel
B-1	B-2	B-3	B-4	B-5	B-6	B-7	B-8	B-9	B-10	B-11	B-12	B-13	B-14	B-15	B-16	

1.0000e+01	1.0000e+01	1.0000e+01	1.4400e+00	1.0000e+01	1.0000e+01	1.5100e+00	1.9400e+00	1.0000e+01	1.0000e+01	1.9900e+00	2.4900e+00	2.4100e+00	2.9000e+00	1.0000e+01	2.9800e+00	




#DATA BEGINS
time	group	step	mark	flag	A-AC1	A-AC2	A-AC3	A-AC4	A-AC5	A-AC6	A-AC7	A-AC8	A-AC9	A-AC10	A-AC11	A-AC12	A-AC13	A-AC14	A-AC15	A-AC16	A-DC1	A-DC2	A-DC3	A-DC4	A-DC5	A-DC6	A-DC7	A-DC8	A-DC9	A-DC10	A-DC11	A-DC12	A-DC13	A-DC14	A-DC15	A-DC16	A-Ph1	A-Ph2	A-Ph3	A-Ph4	A-Ph5	A-Ph6	A-Ph7	A-Ph8	A-Ph9	A-Ph10	A-Ph11	A-Ph12	A-Ph13	A-Ph14	A-Ph15	A-Ph16	B-AC1	B-AC2	B-AC3	B-AC4	B-AC5	B-AC6	B-AC7	B-AC8	B-AC9	B-AC10	B-AC11	B-AC12	B-AC13	B-AC14	B-AC15	B-AC16	B-DC1	B-DC2	B-DC3	B-DC4	B-DC5	B-DC6	B-DC7	B-DC8	B-DC9	B-DC10	B-DC11	B-DC12	B-DC13	B-DC14	B-DC15	B-DC16	B-Ph1	B-Ph2	B-Ph3	B-Ph4	B-Ph5	B-Ph6	B-Ph7	B-Ph8	B-Ph9	B-Ph10	B-Ph11	B-Ph12	B-Ph13	B-Ph14	B-Ph15	B-Ph16	aux-1	digaux	

2250.676	1	1	0	768	0.12316	0.2648	0.32918	0.13495	0.0786	0.035648	0.016912	0.14491	0.31893	0.10337	0.25602	0.2143	0.11619	0.12526	0.23206	0.16444	-0.84375	-1.5917	-1.8396	-0.92708	-1.8146	-1.5125	-1.1437	-1.95	-1.3292	-1.1021	-1.9188	-0.89375	-1.7	-1.6708	-0.96875	-2.0146	21.847	-15.261	-19.114	124.419	-67.330	72.910	142.422	97.705	-73.162	44.254	48.640	223.511	156.885	21.138	-49.151	102.350	9.8757e-05	0.00051276	0.00015819	165.35	9.8319e-06	7.8511e-06	271.85	56.696	6.0073e-06	1.3057e-05	105.49	47.123	24.207	10.216	5.0594e-06	20.587	0.0032346	0.0037228	0.0010508	217.44	4.0625e-05	4.1233e-05	315.24	70.399	3.9383e-05	4.0887e-05	136.33	54.404	34.363	12.563	3.9764e-05	24.017	145.812	-93.343	-76.153	-111.392	-27.838	207.669	-111.650	-105.001	141.656	76.382	-108.277	-103.437	-103.000	-98.237	133.591	-100.434	-8191	255	
2250.772	1	1	0	0	0.19581	0.061579	0.27705	0.071694	0.2272	0.17462	0.12199	0.30082	0.24714	0.13313	0.15215	0.052356	0.19015	0.10408	0.33049	0.13525	-0.87917	-1.3042	-1.875	-1.1354	-1.4979	-1.6313	-1.0271	-2.125	-1.3854	-1.2313	-1.9688	-1.1104	-1.6458	-1.7062	-0.97083	-1.7792	52.941	104.546	2.421	-3.172	-116.146	-17.509	-111.988	59.892	99.700	64.048	-20.142	139.306	69.012	-2.832	55.029	92.845	0.00037969	0.00075557	0.0002378	163.8	1.2848e-05	2.7914e-06	268.12	56.972	2.5051e-06	5.5027e-06	106.7	46.833	24.714	10.321	8.8362e-06	20.826	0.0032189	0.0037088	0.0010499	216.26	4.0102e-05	4.1023e-05	313.65	70.305	3.872e-05	4.0571e-05	137.05	54.633	34.405	12.619	3.9674e-05	24.141	105.917	128.146	70.740	-110.885	89.533	-96.729	-111.699	-104.718	182.132	122.921	-106.656	-103.753	-102.824	-97.438	-30.525	-99.367	-8191	255	
2250.868	1	1	0	0	0.10124	0.20043	0.044729	0.19193	0.13605	0.20935	0.074125	0.11492	0.20733	0.086038	0.21449	0.17628	0.19942	0.38316	0.37243	0.064055	-1.0292	-1.2854	-1.9396	-1.0833	-1.2938	-1.8521	-1.1042	-1.7521	-1.3458	-1.0375	-1.8625	-1.2229	-1.3042	-1.8937	-1.2229	-1.7563	45.234	55.710	-13.425	-62.077	65.876	206.083	185.020	84.014	40.753	154.266	99.581	44.649	-68.183	172.470	173.111	236.659	0.00050564	0.0010178	0.00013637	163.75	3.3241e-06	7.6383e-06	274.8	57.105	8.9397e-06	7.5263e-06	108.44	48.083	24.513	10.269	8.2508e-06	20.893	0.0031406	0.0036552	0.0010324	216.79	3.9204e-05	4.0345e-05	316.38	70.799	3.8778e-05	4.0144e-05	138.14	55.068	34.363	12.611	3.9693e-05	24.228	119.889	-63.964	232.591	-110.611	24.396	-121.686	-111.339	-105.145	12.669	-81.468	-106.403	-103.297	-102.591	-98.440	85.714	-99.590	-8191	255	
2250.964	1	1	0	0	0.15697	0.067006	0.1973	0.25745	0.1095	0.14722	0.30625	0.32606	0.071078	0.14027	0.20701	0.041062	0.16221	0.21145	0.17041	0.33602	-1.0917	-0.99583	-1.9562	-1.1104	-1.3813	-1.9958	-1.0812	-1.6896	-1.6354	-0.97292	-2.025	-1.2146	-1.1833	-2.0042	-1.1313	-1.6979	66.644	63.402	-57.279	-73.838	-7.868	50.326	135.997	232.253	125.214	222.821	-103.964	84.481	26.382	-12.582	-15.858	161.362	0.00025405	0.000308	0.00015053	167.72	7.6753e-06	9.4212e-06	275.23	57.008	2.1251e-05	3.2987e-06	108.2	47.407	24.439	10.443	5.0367e-06	20.91	0.0031886	0.0036764	0.0010403	218.15	3.9537e-05	4.0979e-05	317.95	71	3.9621e-05	4.081e-05	138.6	55.139	34.346	12.743	3.9835e-05	24.333	111.354	-78.686	147.926	-111.740	210.072	-98.398	-111.266	-105.543	75.240	69.470	-106.623	-103.135	-102.124	-97.998	99.462	-99.790	-8191	255	
2251.061	1	1	0	0	0.077563	0.11083	0.22006	0.039127	0.15323	0.18821	0.13314	0.15569	0.21429	0.18235	0.17515	0.096499	0.14743	0.20907	0.21718	0.063824	-1.3125	-1.0729	-1.7188	-1.3083	-1.2771	-1.8958	-1.1229	-1.6167	-1.9188	-1.125	-1.8	-1.4333	-1.1604	-2.1208	-1.1917	-1.45	-96.277	132.557	-56.958	29.952	48.168	161.871	130.047	130.321	65.605	118.024	5.682	46.623	-105.436	-115.981	-114.134	-110.949	0.00047721	0.00041252	0.00010224	165.7	4.6184e-06	1.2426e-05	274.97	57.136	2.7208e-06	1.1873e-05	106.49	46.843	24.274	10.188	5.856e-06	20.604	0.0031783	0.0036917	0.0010506	217.59	4.037e-05	4.1625e-05	316.68	70.791	3.954e-05	4.1291e-05	136.87	54.413	34.142	12.651	4.0178e-05	23.906	125.370	37.953	-96.343	-110.435	-56.401	152.929	-111.090	-104.748	66.656	165.835	-106.800	-103.796	-103.218	-98.090	77.240	-99.500	-8191	255	
2251.157	1	1	0	0	0.3873	0.18026	0.10476	0.12143	0.13716	0.22271	0.17223	0.13755	0.14946	0.20139	0.18833	0.11629	0.11518	0.17446	0.2172	0.16103	-1.4604	-1.0208	-1.7833	-1.6437	-1.3125	-1.9792	-1.1979	-1.5417	-1.9833	-1.1979	-1.7208	-1.6812	-1.2667	-1.8563	-1.2042	-1.2396	104.174	206.459	14.996	-65.297	-87.093	76.157	72.992	151.512	192.657	-65.730	-87.427	48.087	-95.681	18.963	172.421	140.136	0.00028599	0.00057173	0.00022199	162.1	1.602e-06	1.2107e-05	272.65	57.027	6.2609e-06	6.2648e-06	108.66	47.263	24.204	10.3	7.0443e-06	20.812	0.0032191	0.0036928	0.0010464	216.85	3.9703e-05	4.1352e-05	315.75	70.331	3.9729e-05	4.0826e-05	137.8	54.527	34.167	12.627	3.9638e-05	23.993	91.970	5.344	6.689	-111.013	124.428	-12.224	-111.455	-105.381	-68.199	193.186	-106.841	-103.057	-102.312	-97.860	181.278	-100.527	-8191	255	
2251.276	1	1	0	0	0.047781	0.2188	0.036173	0.054462	0.11849	0.13342	0.039901	0.16861	0.093409	0.30242	0.2367	0.27025	0.08667	0.087111	0.26884	0.09258	-1.3917	-1.0812	-1.5292	-1.7896	-0.98542	-1.8438	-1.3271	-1.2354	-1.8958	-1.1354	-1.7563	-1.7625	-0.89167	-1.9042	-1.2833	-1.2896	228.561	-78.589	161.795	155.949	-30.072	-101.640	199.744	80.483	-46.210	143.439	-52.169	27.239	-20.323	35.146	65.706	6.729	0.00054344	0.00024418	0.00019263	167.44	3.905e-06	3.7635e-06	273.17	57.325	5.6052e-07	9.9435e-06	108.78	47.612	24.562	10.393	3.8383e-06	21.113	0.0032303	0.0036622	0.0010347	218.13	3.957e-05	4.1457e-05	316.85	71.012	3.9421e-05	4.0545e-05	137.99	54.82	34.44	12.769	3.9315e-05	24.279	113.936	-104.873	-35.963	-111.691	123.011	-69.647	-111.512	-105.238	-76.855	-101.442	-106.406	-103.657	-101.670	-97.290	92.647	-100.549	-8191	255	
2251.372	1	1	0	0	0.26537	0.35734	0.10057	0.18186	0.48193	0.063065	0.22223	0.35427	0.29461	0.0041812	0.14008	0.29725	0.046104	0.29339	0.051868	0.15368	-1.5771	-1.0104	-1.3563	-1.5292	-0.84792	-1.7833	-1.4667	-1.0708	-1.8062	-1.0604	-1.725	-1.6417	-0.9625	-1.8042	-1.5208	-0.975	81.095	-107.960	-36.842	43.317	162.568	63.254	88.484	-37.857	116.403	-65.943	114.816	-0.766	211.405	146.007	205.949	-9.490	0.00056031	0.001029	0.00011813	166.81	4.4891e-06	1.7162e-05	276.97	59.046	1.1119e-05	1.3627e-05	110.34	47.874	24.643	10.233	3.2993e-06	20.91	0.0032147	0.0036783	0.001034	219.45	3.8929e-05	4.0992e-05	319.98	71.308	3.9408e-05	4.0577e-05	138.79	55.288	34.342	12.642	3.9775e-05	24.243	120.902	124.507	2.273	-110.338	51.522	183.132	-110.887	-104.774	127.028	32.002	-107.285	-103.227	-101.965	-97.551	-60.890	-99.558	-8191	255	
2251.468	1	1	0	0	0.21652	0.017149	0.26861	0.21447	0.11278	0.23073	0.2631	0.33675	0.15508	0.062093	0.11499	0.20362	0.10812	0.25619	0.26178	0.030774	-1.6479	-1.1792	-1.2271	-1.8104	-1.0917	-1.7	-1.8375	-0.9875	-1.9208	-1.2437	-1.3708	-1.8667	-0.95625	-1.4	-1.6125	-1.0875	4.310	48.329	223.280	-106.973	128.715	189.715	228.573	110.397	13.051	213.200	122.472	167.544	118.174	-14.301	-95.921	-61.634	0.00053331	0.0014612	0.00021077	167.02	2.7263e-06	8.2872e-06	276.79	57.618	9.3699e-06	5.2827e-06	108.87	47.421	24.06	10.238	1.2003e-05	20.712	0.0032294	0.0036572	0.0010255	219.61	3.9394e-05	4.0994e-05	319.27	71.201	3.9705e-05	4.0349e-05	137.96	55.071	34.214	12.648	4.01e-05	23.995	119.697	-40.830	-71.424	-110.710	36.317	17.709	-111.584	-104.420	124.064	-60.852	-107.538	-103.559	-103.034	-97.396	-80.944	-100.361	-8191	255	
2251.564	1	1	0	0	0.17828	0.36435	0.12086	0.33663	0.061821	0.07684	0.21844	0.2664	0.096623	0.08818	0.11863	0.13473	0.096173	0.043356	0.30283	0.062782	-1.3125	-1.2	-1.2188	-1.8604	-0.90208	-1.6646	-1.6875	-0.93958	-1.7854	-1.4	-1.1271	-2.1729	-1.05	-1.6292	-1.9125	-1.1229	5.167	224.086	-9.273	171.775	116.104	-111.933	-115.619	-96.912	8.582	28.379	132.375	-89.464	47.585	-79.287	55.787	175.179	0.00037735	0.00057931	0.0002565	166.22	2.6343e-06	9.4599e-06	271.39	57.206	6.9981e-06	2.2599e-06	107.1	46.714	23.378	10.182	1.9044e-06	20.275	0.0033044	0.0037051	0.0010471	219.69	4.0011e-05	4.1381e-05	316.1	70.335	3.99e-05	4.0861e-05	137.1	54.145	34.04	12.467	4.0491e-05	23.562	113.949	166.742	-50.235	-111.243	207.729	16.344	-111.021	-104.832	187.061	-87.839	-107.221	-103.344	-102.577	-97.096	-45.190	-100.357	-8191	255	
2251.660	1	1	0	0	0.10131	0.050199	0.13669	0.25839	0.17836	0.095646	0.16215	0.33155	0.091081	0.077268	0.20843	0.31788	0.094447	0.14772	0.16686	0.33759	-1.3479	-1.375	-0.92708	-1.9062	-0.99375	-1.55	-1.7479	-0.95208	-1.8042	-1.3687	-0.95417	-1.9646	-1.1396	-1.0542	-1.7625	-1.0562	111.685	-111.239	171.202	203.353	62.692	84.767	157.094	27.661	128.611	-75.892	60.200	-105.183	50.327	79.972	69.587	-122.323	0.00028411	0.00010157	0.0001716	164.1	2.602e-06	3.3836e-06	271.15	56.181	1.3295e-05	1.3188e-05	106.44	46.458	23.74	10.003	1.1252e-05	20.212	0.0032575	0.0037002	0.0010317	218.74	3.9189e-05	4.1303e-05	314.68	69.985	3.9705e-05	4.0895e-05	135.99	54.071	33.904	12.389	4.0642e-05	23.587	178.724	-80.332	-8.615	-110.623	-7.199	24.210	-111.464	-105.705	23.113	97.463	-106.997	-103.549	-103.691	-97.323	-94.461	-100.155	-8191	255	
2251.756	1	1	0	0	0.31818	0.10824	0.2302	0.39682	0.081724	0.32456	0.35112	0.088078	0.15048	0.037905	0.021834	0.090214	0.095328	0.1466	0.080937	0.33616	-1.3083	-1.7021	-0.93333	-1.7437	-1.2875	-1.2771	-1.9979	-0.87083	-1.5208	-1.4688	-0.90208	-1.825	-1.1292	-1.1938	-1.7313	-1.1562	-9.119	211.856	215.014	-120.949	2.682	153.466	112.574	-32.361	8.280	116.401	-111.345	-84.643	-64.200	-71.102	157.498	215.228	6.9316e-05	0.00049222	0.00014863	164.86	1.0207e-05	8.3139e-06	272.22	56.771	3.7738e-06	5.8631e-06	107.1	46.978	23.811	10.124	6.4282e-06	20.445	0.0032198	0.0037082	0.0010267	218.48	3.9603e-05	4.1044e-05	314.52	70.03	3.9512e-05	4.1287e-05	136.03	54.544	34.025	12.516	4.0355e-05	23.824	201.253	154.703	49.767	-110.952	101.293	-89.657	-111.441	-105.219	-66.382	163.165	-106.779	-102.949	-102.321	-97.709	102.373	-99.942	-8191	255	
2251.877	1	1	0	0	0.11599	0.12278	0.11909	0.065759	0.15721	0.1664	0.19338	0.081496	0.12038	0.10487	0.072473	0.05555	0.19812	0.10747	0.060526	0.18067	-1.0229	-1.7938	-1.1125	-1.825	-1.4937	-1.1104	-2.0958	-0.95417	-1.25	-1.6667	-1.05	-1.8813	-1.3583	-1.1792	-1.9917	-1.1021	-37.244	194.396	78.898	71.033	211.662	228.600	37.683	34.792	132.103	23.174	-120.743	-21.061	231.323	200.447	149.050	120.217	0.00053603	6.4564e-05	3.4164e-05	165.94	9.6076e-06	7.0572e-06	273.41	56.884	4.694e-06	6.5191e-06	106.96	46.997	23.822	10.123	9.0515e-06	20.875	0.0032649	0.0036891	0.0010339	218.74	3.9455e-05	4.092e-05	317.54	70.578	3.9492e-05	4.1578e-05	137.08	54.585	33.95	12.528	4.0388e-05	24.008	68.796	167.346	-5.660	-110.363	-100.074	204.546	-111.151	-105.469	64.240	-54.736	-106.769	-103.544	-101.984	-97.522	104.477	-100.203	-8191	255	
2251.973	1	1	0	0	0.19832	0.17138	0.1804	0.13588	0.25704	0.17325	0.13587	0.19195	0.2307	0.10776	0.21723	0.22248	0.1851	0.31852	0.12188	0.21397	-0.98125	-1.7833	-1.0771	-1.7062	-1.5042	-0.97083	-1.95	-1.1854	-1.2646	-1.75	-0.9875	-1.7167	-1.6562	-0.8125	-1.8354	-1.2646	-45.905	-36.719	155.368	76.911	39.377	155.960	128.303	226.963	-95.747	-95.871	-41.624	28.579	159.696	193.804	204.574	149.414	0.00011589	0.00078468	0.00016909	163.43	5.7389e-06	9.7923e-06	271.42	57.234	1.2954e-05	9.4151e-06	108.01	47.148	24.004	10.046	6.0735e-06	20.724	0.0032196	0.00371	0.0010172	217.39	3.9662e-05	4.0299e-05	314.88	70.222	3.944e-05	4.0902e-05	136.96	54.652	34.011	12.506	4.0691e-05	23.949	86.104	71.482	-65.547	-111.129	-68.038	51.030	-111.219	-104.907	70.707	-18.492	-107.181	-103.328	-102.774	-97.984	205.815	-100.076	-8191	255	
2252.069	1	1	0	0	0.17403	0.11657	0.2395	0.087229	0.21113	0.11601	0.17366	0.16767	0.092573	0.045283	0.14542	0.36346	0.23214	0.053955	0.26654	0.021333	-0.74167	-1.9521	-0.99375	-1.7417	-1.7146	-1.1458	-1.9562	-1.3667	-1.2583	-1.9271	-1.0083	-1.5167	-1.7042	-1.0604	-1.7062	-1.2396	150.376	104.250	212.374	86.916	91.607	112.504	140.385	-2.642	-34.437	119.019	86.001	-11.602	35.151	78.192	214.003	235.198	0.00029692	0.00067717	6.8904e-05	165.29	9.9025e-06	1.3875e-05	268.9	56.284	9.6448e-06	5.2808e-06	106.21	46.249	23.904	10.052	6.7137e-06	20.207	0.0032032	0.0037724	0.0010289	217.05	4.0054e-05	4.0887e-05	313.17	69.948	3.928e-05	4.1549e-05	135.6	53.853	34.021	12.415	4.0055e-05	23.552	37.268	64.416	181.033	-110.183	-10.770	182.648	-111.291	-104.692	127.312	201.712	-107.311	-103.988	-103.296	-97.300	68.453	-99.836	-8191	255	
2252.164	1	1	0	0	0.20264	0.20085	0.047613	0.20454	0.1338	0.071187	0.20317	0.098776	0.3495	0.11041	0.1356	0.19237	0.14209	0.14858	0.066322	0.12724	-0.88542	-1.8979	-1.0292	-1.4042	-1.7687	-1.1437	-1.7958	-1.575	-0.96875	-2.05	-1.1875	-1.5167	-1.8	-1.0333	-1.8396	-1.575	216.231	-66.083	-7.091	31.880	-122.244	184.392	150.577	-64.331	158.138	163.473	172.857	-120.397	186.694	28.381	-61.758	-32.983	0.00046995	0.00082859	0.00022345	163.02	4.1745e-06	7.2701e-06	269.08	56.82	2.1945e-06	4.407e-06	106.32	46.381	23.828	10.169	7.4334e-06	20.353	0.0031905	0.0037421	0.0010068	215.29	3.9083e-05	3.9669e-05	311.67	69.676	3.8914e-05	4.0936e-05	135.5	53.811	33.947	12.439	3.9792e-05	23.601	108.804	-76.675	213.297	-110.945	-90.364	-57.269	-111.410	-105.335	-3.437	56.270	-106.468	-103.250	-103.030	-98.170	91.270	-100.396	-8191	255	
2252.237	1	1	0	0	0.21443	0.3494	0.16236	0.23645	0.17275	0.087029	0.085439	0.2379	0.26443	0.17032	0.14556	0.2008	0.25468	0.086181	0.10599	0.27593	-0.72083	-1.8396	-1.1271	-1.5812	-1.9104	-1.1667	-1.8021	-1.5354	-1.2146	-2.0312	-1.2729	-1.3958	-1.8646	-1.1917	-1.5063	-1.6	-96.483	-43.129	115.368	-11.755	114.810	230.377	-50.142	147.812	144.211	163.441	207.721	166.551	133.327	49.814	157.274	110.322	0.00046052	0.00086663	0.00025438	164.97	3.9374e-06	1.0754e-05	273.28	57.307	3.1127e-06	2.2766e-06	107.77	47.196	24.402	10.356	2.563e-06	20.966	0.0031199	0.0036317	0.00099699	216.54	3.8799e-05	3.9487e-05	314.74	70.195	3.8041e-05	3.9882e-05	137.03	54.489	34.28	12.664	3.9379e-05	24.241	109.489	-84.503	-30.375	-109.890	190.392	79.698	-111.687	-105.621	-24.091	139.605	-107.669	-103.513	-102.447	-98.136	117.995	-100.071	-8191	255	
2252.356	1	1	0	0	0.16272	0.3365	0.23216	0.12948	0.064418	0.11076	0.22578	0.05751	0.19477	0.23997	0.07229	0.34684	0.26249	0.16938	0.11272	0.097303	-0.51875	-1.8708	-1.2938	-1.2625	-1.8521	-1.1562	-1.6917	-1.8563	-1.0771	-1.8083	-1.3917	-0.99792	-1.9583	-1.1375	-1.5688	-1.9375	235.536	217.542	-122.355	-103.779	-4.973	178.593	149.259	135.172	-19.376	-19.969	-96.629	163.597	48.409	-34.426	228.979	30.267	0.000362	0.00079203	0.00020355	165.5	1.2292e-05	3.2006e-06	276.1	58.582	1.0309e-05	1.8656e-06	110.81	47.869	25.044	10.389	3.2777e-06	21.301	0.0031063	0.0036541	0.00099579	217.62	3.8746e-05	3.9654e-05	319.28	71.573	3.8296e-05	4.026e-05	138.97	55.451	34.717	12.744	3.8839e-05	24.515	143.341	-87.192	-41.922	-110.885	-71.403	-58.836	-111.406	-105.629	5.946	29.226	-107.487	-103.118	-103.248	-97.928	8.180	-100.358	-8191	255	
2252.452	1	1	0	0	0.12238	0.19576	0.27498	0.18047	0.19318	0.13816	0.093793	0.34072	0.30381	0.15136	0.21	0.32461	0.12258	0.12344	0.26512	0.088634	-0.57917	-1.7542	-1.3146	-1.0187	-1.8833	-1.2563	-1.4875	-1.7896	-0.92292	-1.8521	-1.5063	-1.1604	-1.8479	-1.3062	-1.375	-1.9562	213.159	95.934	57.792	-8.435	-30.231	47.682	41.647	70.746	106.888	141.411	207.533	41.702	-71.514	-57.068	-4.755	-97.845	0.00045577	0.00033697	0.00011275	166.19	7.354e-06	8.638e-07	278.54	58.237	6.3641e-06	8.1628e-06	109.02	47.746	24.56	10.449	2.4563e-06	20.931	0.0031207	0.0036594	0.0010114	219.07	3.9376e-05	3.9734e-05	320.78	71.38	3.7979e-05	3.9985e-05	137.68	55.219	34.486	12.675	3.8864e-05	24.186	121.099	-62.059	-69.557	-110.916	177.592	36.878	-111.141	-106.004	-116.340	52.580	-107.030	-103.464	-102.614	-98.389	-122.810	-100.163	-8191	255	
2252.548	1	1	0	0	0.23953	0.1294	0.2347	0.11849	0.072461	0.16681	0.21413	0.096197	0.093726	0.12032	0.11135	0.34268	0.37501	0.11937	0.18779	0.26611	-0.76875	-1.6271	-1.6	-1.0042	-1.9229	-1.1896	-1.2938	-1.8271	-0.97917	-1.6646	-1.7396	-1.0792	-1.6833	-1.3833	-1.2417	-1.7833	125.333	-62.179	147.938	-87.125	201.933	21.287	59.825	198.428	-96.032	8.785	69.765	10.925	166.592	173.916	-107.076	224.093	0.00039647	0.00038465	6.6407e-05	166.44	4.4761e-06	7.0392e-06	276.49	58.021	4.6317e-06	4.8597e-06	106.09	47.149	24.153	10.365	1.3798e-05	20.503	0.0030823	0.0036156	0.00099523	218.39	3.9285e-05	3.986e-05	317.27	70.975	3.8232e-05	4.045e-05	136.32	54.528	34.145	12.607	3.9304e-05	23.855	159.323	-30.936	-112.494	-110.333	76.747	1.880	-110.826	-105.418	80.613	8.651	-107.473	-103.403	-102.659	-98.047	-5.185	-100.016	-8191	255	
2252.644	1	1	0	0	0.29387	0.16156	0.14359	0.063614	0.17184	0.24642	0.29648	0.22709	0.16612	0.10801	0.20148	0.138	0.15803	0.10546	0.409	0.27545	-0.54167	-1.6646	-1.5833	-1.1	-1.825	-1.3062	-1.1875	-1.9479	-1.0187	-1.4937	-1.6792	-1.0208	-1.8583	-1.5083	-1.1271	-2.0438	90.218	130.220	131.260	196.222	26.496	101.504	-72.478	-94.896	68.623	-116.954	75.665	6.826	203.435	103.324	9.186	202.726	0.0002337	0.0007509	0.00010301	166.8	6.8182e-06	2.0133e-06	271.26	57.528	1.6455e-05	1.2603e-05	107.65	47.035	24.542	10.282	8.1082e-06	20.618	0.0030848	0.0036664	0.0010138	217.05	3.9154e-05	3.9811e-05	314.83	70.755	3.7557e-05	4.021e-05	136.54	54.247	34.228	12.534	3.8604e-05	23.896	138.820	32.457	160.830	-110.745	-56.140	-29.296	-111.246	-105.249	191.054	122.609	-107.640	-103.261	-102.143	-97.769	-72.972	-100.206	-8191	255	
2252.765	1	1	0	0	0.07041	0.35469	0.060165	0.17394	0.065813	0.058928	0.1065	0.13847	0.22162	0.10182	0.26677	0.22342	0.16421	0.2426	0.10173	0.24815	-0.76042	-1.4104	-1.6729	-1.0146	-1.7625	-1.475	-1.1104	-1.8188	-1.4	-1.4458	-2.1458	-1.05	-1.7687	-1.6417	-1.1167	-1.9333	115.476	186.729	-28.541	234.115	213.061	115.114	142.603	123.399	-119.822	32.708	172.584	-33.847	6.713	-75.083	103.521	-91.230	0.00029189	0.0011488	9.8217e-05	165.78	7.8616e-06	8.7493e-06	274.55	57.508	7.0088e-06	4.1999e-06	107.33	47.349	24.562	10.28	4.6836e-06	20.732	0.0030319	0.0036028	0.0010015	215.14	3.8293e-05	3.9105e-05	314.62	70.418	3.6839e-05	3.9305e-05	136.03	54.377	34.034	12.565	3.7733e-05	23.908	91.035	75.754	-57.360	-110.714	-95.823	32.477	-111.311	-104.690	-38.998	214.935	-107.142	-102.692	-101.973	-97.378	162.456	-99.838	-8191	255	
2252.837	1	1	0	0	0.18698	0.32004	0.10557	0.29111	0.070331	0.11177	0.22522	0.09522	0.094849	0.30351	0.23839	0.18318	0.2323	0.19036	0.19268	0.20347	-0.825	-1.2104	-1.7	-0.88542	-1.6	-1.7667	-1.0146	-1.9	-1.1125	-1.1562	-1.9729	-1.1938	-1.5729	-1.5854	-1.1187	-1.8563	-97.569	46.622	84.832	-23.841	79.826	-39.326	183.338	-9.080	-24.208	-20.880	211.636	174.553	-118.713	85.329	24.003	-91.825	0.00035863	0.00080954	9.8537e-05	165.95	5.0807e-06	2.0494e-06	274.7	57.557	9.6664e-06	6.4049e-06	108.94	47.753	24.278	10.259	4.2023e-06	20.912	0.0030063	0.0034942	0.0009844	214.7	3.7484e-05	3.8283e-05	315.46	70.427	3.6677e-05	3.8558e-05	136.21	54.533	33.81	12.518	3.7318e-05	23.92	143.482	-88.054	1.231	-110.489	40.491	30.335	-111.341	-105.305	91.484	-51.423	-106.730	-103.460	-101.884	-97.118	147.407	-99.894	-8191	255	
2252.957	1	1	0	0	0.15646	0.1297	0.10243	0.084687	0.1629	0.17337	0.11622	0.13156	0.10354	0.27754	0.15183	0.062615	0.21006	0.14646	0.047158	0.24008	-0.87708	-1.3062	-1.8458	-1.0333	-1.5312	-1.6812	-1.0146	-1.7542	-1.3354	-0.98125	-1.9438	-1.1167	-1.4021	-1.7188	-1.0542	-1.9854	94.042	155.806	10.592	-16.523	-97.039	-40.753	30.694	189.754	28.572	46.297	97.056	-14.371	-29.472	105.214	-71.782	-44.526	0.0004644	0.00027752	7.0003e-05	166.03	4.7757e-06	6.6324e-06	280.07	57.733	4.5348e-06	5.4996e-06	107.62	47.288	24.707	10.284	6.6052e-06	20.65	0.0030226	0.0034703	0.00097699	215.24	3.726e-05	3.905e-05	317.63	70.67	3.7056e-05	3.9165e-05	136.94	54.487	34.109	12.58	3.8199e-05	23.807	59.789	29.749	-47.958	-110.428	90.035	123.287	-111.414	-105.040	8.936	29.115	-106.429	-103.581	-102.298	-97.718	-82.331	-100.469	-8191	255	
2253.053	1	1	0	0	0.12135	0.15387	0.060499	0.23545	0.24274	0.26022	0.38947	0.39136	0.27068	0.12801	0.1908	0.098415	0.27429	0.29867	0.11207	0.11673	-1.3125	-1.2521	-1.8542	-1.2042	-1.5438	-1.8062	-1.0917	-1.8083	-1.5229	-0.98125	-1.8354	-1.2417	-1.3604	-1.9667	-1.0688	-1.675	82.415	-7.844	100.617	-29.690	37.108	220.156	88.231	-104.924	149.496	99.718	82.803	150.200	-36.726	181.672	235.186	-95.859	0.00049271	0.0011809	0.00010444	167.82	2.1842e-06	3.0202e-06	278.71	57.714	2.2202e-05	1.5694e-05	105.85	46.705	24.323	10.067	6.3613e-06	20.452	0.0030995	0.0035619	0.0010064	218.97	3.8008e-05	3.9701e-05	317.7	70.764	3.7863e-05	3.9413e-05	135.46	54.04	33.95	12.444	3.8331e-05	23.562	91.493	-31.246	141.105	-110.815	-44.526	173.974	-111.416	-104.393	-1.571	67.619	-107.896	-103.359	-103.103	-97.616	203.661	-100.623	-8191	255	
2253.150	1	1	0	0	0.17334	0.3225	0.37366	0.03068	0.24748	0.14896	0.17601	0.26744	0.12384	0.11611	0.1072	0.17227	0.057931	0.078033	0.19205	0.21818	-1.4104	-0.96458	-1.825	-1.4417	-1.2938	-1.9229	-1.0375	-1.5542	-1.6	-1.0896	-1.9021	-1.4292	-1.3083	-1.8771	-1.1396	-1.625	202.950	222.897	-89.362	47.577	0.322	163.927	-118.572	16.377	-38.833	-35.029	194.502	168.617	12.071	-24.521	153.041	193.901	0.00028387	0.0010842	8.0724e-05	164.94	1.0176e-05	6.0623e-06	270.46	57.664	4.8417e-06	1.9654e-06	107.17	46.76	24.128	10.225	9.8479e-06	20.338	0.0031254	0.0036077	0.0010084	217.95	3.8794e-05	3.9518e-05	316.16	70.813	3.8274e-05	3.9491e-05	136.14	53.983	33.829	12.459	3.8611e-05	23.529	118.217	-23.343	230.151	-110.839	202.144	75.761	-111.626	-105.750	152.136	104.347	-107.831	-103.863	-102.809	-98.207	71.976	-100.089	-8191	255	
2253.246	1	1	0	0	0.12017	0.046991	0.058139	0.067746	0.29048	0.22169	0.34998	0.071587	0.17187	0.49111	0.23405	0.18772	0.23943	0.038773	0.082529	0.15943	-1.2938	-0.96875	-1.9979	-1.4292	-1.1104	-1.9417	-1.1771	-1.4875	-1.7062	-1.0063	-1.7625	-1.4688	-1.1854	-2.0083	-1.2646	-1.3687	-104.131	26.866	173.137	-35.355	190.349	-77.574	-87.816	236.225	134.967	195.588	206.554	-119.118	120.817	135.082	88.982	217.152	0.00030065	0.00049722	0.00028837	165.75	4.1303e-07	6.3459e-06	274.33	57.655	8.5165e-06	3.1415e-06	108.16	46.661	24.183	10.274	1.2955e-05	20.494	0.0031068	0.0035445	0.0010074	217.33	3.841e-05	3.9932e-05	315.48	70.664	3.8024e-05	3.9274e-05	136.35	54.157	33.807	12.524	3.8337e-05	23.659	109.725	-61.194	-48.222	-110.819	89.611	71.712	-111.283	-105.138	3.046	97.520	-107.814	-103.576	-102.337	-97.794	47.745	-100.026	-8191	255	
2253.365	1	1	0	0	0.10319	0.13002	0.10934	0.16686	0.12306	0.3236	0.058358	0.029921	0.052622	0.16638	0.15284	0.15361	0.12906	0.098969	0.11886	0.027247	-1.3271	-1.0354	-1.8813	-1.5438	-1.1833	-2.0667	-1.4167	-1.3708	-1.9438	-1.1521	-1.6292	-1.7896	-1.2375	-2.0042	-1.3937	-1.3813	166.978	-101.889	230.955	85.290	59.326	127.481	180.713	203.182	61.330	68.266	-79.666	28.526	-25.679	9.618	-112.494	-94.181	0.00031128	0.00044735	0.0003148	166.45	6.9017e-06	1.0846e-05	276.15	57.511	1.1617e-05	3.2105e-06	107.25	47.277	23.964	10.085	8.5415e-06	20.48	0.0030862	0.0034922	0.00099903	216.64	3.787e-05	3.9398e-05	316.88	70.526	3.8159e-05	3.8664e-05	136.45	54.361	33.894	12.376	3.8299e-05	23.629	96.257	-20.207	-62.142	-111.002	-15.695	35.805	-111.420	-105.173	235.801	190.162	-107.296	-103.265	-102.618	-97.722	-70.447	-100.354	-8191	255	
2253.461	1	1	0	0	0.070143	0.25085	0.24234	0.28986	0.14639	0.30088	0.10512	0.063421	0.068252	0.12855	0.19168	0.25689	0.20092	0.099975	0.21853	0.38804	-1.55	-1.2042	-1.6021	-1.6875	-1.1667	-1.9458	-1.7	-1.0875	-1.8729	-1.1688	-1.5375	-1.8958	-1.2271	-1.9417	-1.4875	-1.2771	109.112	126.453	-40.848	104.682	55.633	-86.032	68.055	223.885	198.590	-20.775	166.626	-63.568	9.942	-50.121	68.090	111.841	0.0004966	0.00019301	0.00023577	169.06	4.7334e-06	4.1891e-06	275.64	57.425	4.5875e-06	6.5838e-06	107.55	46.969	24.105	10.183	1.2308e-05	20.39	0.0031018	0.003534	0.0010154	219.25	3.7856e-05	3.9884e-05	317.64	70.555	3.839e-05	3.9339e-05	136.97	54.232	33.929	12.509	3.9413e-05	23.607	118.798	-118.757	-98.000	-111.054	223.272	-65.165	-110.879	-105.806	196.975	37.897	-107.788	-103.584	-102.903	-97.084	-41.263	-100.139	-8191	255	
2253.532	1	1	0	0	0.095382	0.10449	0.16638	0.14243	0.23892	0.22877	0.11845	0.17098	0.15459	0.10324	0.24664	0.30984	0.19636	0.20693	0.092218	0.34376	-1.5542	-1.2229	-1.4917	-1.9333	-0.88958	-1.9625	-1.4292	-1.2083	-2.0042	-1.0646	-1.4271	-1.9604	-1.0354	-1.7687	-1.575	-1.2042	179.427	171.332	0.175	-8.623	70.623	179.049	-17.545	95.267	76.598	-53.737	196.311	143.356	-120.299	95.856	-112.846	-101.321	0.00058813	0.00075621	4.2578e-05	166.78	7.3402e-06	7.7072e-06	273.99	56.966	6.3097e-06	2.4077e-06	107.52	45.929	23.766	9.9783	3.4682e-06	20.006	0.0031548	0.0036194	0.0010227	218.79	3.8553e-05	4.0893e-05	314.54	70.102	3.8902e-05	4.0115e-05	136.03	53.438	33.73	12.317	3.9067e-05	23.203	127.883	2.570	197.544	-110.880	5.204	46.990	-111.802	-104.805	230.012	197.062	-107.214	-103.011	-102.731	-97.811	212.238	-99.623	-8191	255	
2253.653	1	1	0	0	0.16001	0.10278	0.068203	0.29037	0.14705	0.15627	0.063453	0.26816	0.13858	0.18347	0.048842	0.17614	0.32215	0.27283	0.032103	0.17833	-1.5604	-1.3167	-1.3292	-2.0687	-0.97917	-1.7854	-1.8083	-0.97917	-2.0729	-1.4188	-1.3146	-2.0542	-1.1333	-1.8146	-1.7458	-1.0375	-3.380	-0.178	-83.999	211.168	64.885	17.297	-14.883	-109.165	158.310	-64.682	-77.416	13.509	215.433	-24.098	136.452	-117.650	0.00033669	0.00022647	0.00031755	164.54	2.6536e-06	1.2252e-05	269.77	56.879	4.1626e-06	5.7919e-06	106.75	46.082	24.276	10.079	8.0528e-06	20.176	0.0031966	0.0036094	0.0010144	216.86	3.8519e-05	4.0028e-05	313.33	69.875	3.8512e-05	4.015e-05	135.41	53.625	33.835	12.413	3.8839e-05	23.338	105.082	117.519	0.516	-110.433	12.684	213.518	-111.169	-105.151	82.683	15.453	-107.051	-103.498	-102.230	-97.915	-22.280	-100.279	-8191	255	
2253.749	1	1	0	0	0.27706	0.059498	0.096525	0.16433	0.18974	0.13576	0.44192	0.33032	0.11124	0.29721	0.094801	0.19573	0.23018	0.16753	0.26234	0.17559	-1.4167	-1.4937	-1.2875	-1.9479	-1.1896	-1.8	-1.8479	-1.0583	-2.0938	-1.6292	-1.2333	-1.8917	-1.3917	-1.5688	-1.9813	-1.0375	32.329	181.750	-95.561	212.826	119.058	206.982	220.403	131.057	50.460	-6.008	184.793	154.884	153.868	92.037	197.224	-120.736	0.00027941	0.00017792	0.00020983	164.3	3.0815e-06	4.59e-06	273.91	57.451	1.0454e-05	7.3967e-06	105.91	46.787	24.041	10.153	5.4358e-06	20.491	0.0031286	0.0035738	0.0009916	216.43	3.7897e-05	3.9992e-05	314.45	69.988	3.7932e-05	3.9674e-05	135.27	54.049	33.844	12.432	3.8591e-05	23.455	116.669	15.360	18.399	-110.644	-29.956	124.628	-111.513	-105.654	76.029	63.539	-106.772	-103.022	-102.382	-97.596	19.721	-100.505	-8191	255	
2253.845	1	1	0	0	0.052061	0.10216	0.068109	0.19713	0.12121	0.11326	0.12645	0.21793	0.2824	0.13114	0.1345	0.15906	0.23014	0.10359	0.25926	0.11857	-1.4208	-1.6479	-1.1938	-2.0083	-1.1104	-1.4062	-2.0667	-1.075	-1.6833	-1.5187	-1.1771	-1.9896	-1.325	-1.3708	-1.9771	-1.2062	-26.154	16.767	112.939	168.472	-48.374	-2.000	-19.069	-52.952	54.761	51.383	-30.715	195.661	24.379	-44.835	53.536	110.319	0.00045486	0.00023004	0.00014986	163.35	1.913e-06	5.628e-06	273.17	57.624	8.0681e-06	8.2888e-06	107.01	46.995	24.071	9.9959	1.3261e-05	20.503	0.0031108	0.003541	0.0009871	216.47	3.7962e-05	3.9725e-05	315.89	70.077	3.8075e-05	3.9194e-05	135.13	54.095	33.722	12.354	3.8464e-05	23.498	133.335	11.883	-92.050	-111.458	97.645	68.723	-111.472	-105.298	-13.431	222.858	-107.076	-102.892	-103.333	-97.712	43.661	-100.295	-8191	255	
2253.942	1	1	0	0	0.17515	0.21076	0.16723	0.10405	0.24052	0.054274	0.16267	0.10546	0.34042	0.33199	0.14697	0.014191	0.079482	0.15625	0.13915	0.16981	-1.4396	-1.7208	-1.1292	-1.9167	-1.1688	-1.4292	-2.0604	-1.25	-1.6938	-1.8625	-1.1	-2.0417	-1.6437	-1.0979	-1.9271	-1.2042	123.585	-11.299	192.075	-75.159	22.833	116.744	-11.258	94.102	-8.471	160.932	126.291	119.232	-78.536	-15.418	-8.936	-5.447	0.00034322	0.00028068	0.00022171	163.98	3.0443e-06	5.4345e-06	272.52	56.401	7.4775e-06	3.1864e-06	107.49	46.614	24.319	10.01	9.8692e-06	20.081	0.0031179	0.003538	0.00097262	216.35	3.7975e-05	3.9263e-05	313.67	69.891	3.8026e-05	3.9274e-05	135.02	53.75	33.657	12.296	3.8459e-05	23.146	138.598	221.139	178.636	-109.971	-86.900	22.153	-111.050	-105.058	4.543	-45.167	-106.883	-102.696	-102.498	-97.707	45.634	-100.277	-8191	255	
2254.060	1	1	0	0	0.28691	0.25411	0.34882	0.27207	0.050398	0.21603	0.20541	0.11371	0.11663	0.10984	0.32007	0.056685	0.10372	0.14173	0.23479	0.18061	-1.1417	-1.7333	-1.0104	-1.8979	-1.6667	-1.0854	-2.0979	-1.4396	-1.4583	-1.9646	-1.1875	-1.7146	-1.5187	-1.1646	-1.8396	-1.3167	-88.146	89.027	54.185	-93.331	47.079	228.095	-74.751	154.556	214.481	105.725	-117.907	-119.838	113.025	-62.369	50.651	218.509	0.00067217	0.00021491	0.00025854	166.19	9.7174e-06	4.7396e-06	270	56.278	6.1479e-06	4.5656e-06	105.36	45.987	23.748	9.9373	9.6034e-06	19.948	0.0031377	0.0035468	0.00097148	216.29	3.7782e-05	3.9107e-05	311.03	69.293	3.8469e-05	3.9247e-05	133.38	53.361	33.404	12.206	3.8902e-05	23.011	161.272	155.838	65.161	-109.328	129.258	44.823	-111.055	-105.097	-97.455	-14.532	-106.649	-102.866	-103.119	-97.984	39.957	-99.590	-8191	255	
2254.134	1	1	0	0	0.18317	0.25537	0.20914	0.20235	0.20887	0.29686	0.19695	0.17233	0.18262	0.064285	0.28794	0.23784	0.16689	0.073525	0.17246	0.22686	-0.87917	-1.9333	-1.1187	-1.7729	-1.5938	-1.1104	-2.0896	-1.4896	-1.3104	-1.975	-1.0625	-1.7083	-1.4854	-1.1042	-1.8729	-1.6521	88.989	41.668	92.854	-115.787	204.196	133.226	205.360	-18.478	166.463	-109.314	207.079	-65.012	48.082	-88.502	-54.809	219.803	0.00030637	0.00029068	0.00010781	164.19	3.7582e-06	1.0622e-05	270.62	57.233	1.248e-05	1.7528e-06	106.1	46.349	24.099	10.163	1.1909e-05	20.295	0.0031277	0.0035558	0.0009804	215.71	3.8302e-05	3.9244e-05	312.52	69.554	3.776e-05	3.9503e-05	134.53	53.581	33.616	12.372	3.8926e-05	23.439	140.200	-66.489	57.748	-110.869	34.121	28.993	-111.564	-105.506	27.558	-83.509	-106.945	-102.807	-101.684	-98.167	16.539	-99.870	-8191	255	
2254.230	1	1	0	0	0.068981	0.10207	0.095348	0.27003	0.12284	0.071079	0.18139	0.26861	0.18339	0.21226	0.39522	0.17802	0.1184	0.079664	0.25156	0.27902	-0.81458	-1.8917	-1.1458	-1.5667	-1.6583	-0.975	-1.9271	-1.2708	-1.1875	-1.8312	-1.2375	-1.6104	-1.8563	-0.88542	-1.8438	-1.3021	59.415	104.871	-38.140	232.988	-42.000	-122.050	-7.382	-114.189	-57.384	-45.876	223.128	212.149	159.794	60.457	173.375	149.549	0.00040812	0.00049259	0.00021135	166.4	6.6987e-06	5.3635e-06	277.21	57.311	1.4571e-05	8.2802e-06	106.88	46.742	23.932	10.109	4.0221e-06	20.197	0.0031159	0.0035855	0.00098893	216.87	3.8132e-05	3.9156e-05	315.44	69.997	3.7549e-05	3.9441e-05	134.79	53.967	33.752	12.393	3.8851e-05	23.376	137.899	54.241	113.240	-110.375	-7.854	-7.557	-111.262	-105.488	-106.051	50.772	-107.061	-103.029	-102.798	-97.335	0.699	-99.890	-8191	255	
2254.326	1	1	0	0	0.08047	0.06357	0.11843	0.064311	0.11577	0.13358	0.18099	0.1635	0.25919	0.12433	0.11913	0.14198	0.27511	0.074923	0.25371	0.19428	-0.64792	-1.8979	-0.99792	-1.3	-1.7854	-1.1313	-1.9104	-1.4937	-1.275	-1.9	-1.2583	-1.5792	-2.0771	-0.99167	-1.4229	-1.4625	164.591	-10.336	181.798	78.429	186.288	160.584	74.503	186.375	-41.792	0.297	144.511	138.680	151.411	112.172	39.970	156.251	0.00053104	0.00037623	8.4686e-05	165.67	5.0033e-06	3.2316e-06	273.65	57.113	8.0564e-06	7.0051e-06	106.81	46.64	24.352	10.054	1.1672e-05	20.205	0.0030514	0.0035758	0.00099203	217.37	3.809e-05	3.9122e-05	316.37	69.857	3.7615e-05	3.9769e-05	135.19	53.766	34.012	12.273	3.8855e-05	23.388	105.336	17.296	12.217	-110.113	-37.346	-54.333	-111.224	-104.810	221.375	-5.952	-106.729	-102.685	-101.752	-97.638	-108.400	-99.675	-8191	255	
2254.445	1	1	0	0	0.12756	0.17099	0.13838	0.31192	0.21495	0.23074	0.16247	0.17096	0.21604	0.34124	0.11833	0.14313	0.16596	0.076727	0.12344	0.084313	-0.58333	-1.9146	-1.1354	-1.1104	-1.8563	-0.8625	-1.725	-1.575	-0.86875	-1.7625	-1.1604	-1.1208	-1.9562	-1.1229	-1.5562	-1.5812	12.517	157.814	-115.280	-122.600	36.501	-29.907	-90.153	62.060	-73.040	-84.705	-26.673	-113.305	147.072	78.635	66.663	14.827	0.00029833	0.00075461	0.00018073	165.28	2.9626e-06	1.8842e-06	272.94	56.94	1.1776e-05	5.0429e-06	105.3	45.968	23.946	9.9455	5.4693e-06	19.881	0.0030659	0.0035667	0.00098683	216.25	3.8433e-05	3.8809e-05	315.42	69.802	3.7482e-05	3.9481e-05	133.71	53.495	33.559	12.246	3.8881e-05	23.058	97.511	-71.545	119.512	-110.712	-69.444	45.208	-110.954	-105.066	-116.405	93.952	-108.129	-103.088	-102.615	-97.402	48.477	-100.443	-8191	255	
2254.541	1	1	0	0	0.11652	0.19296	0.26483	0.28961	0.14596	0.15037	0.17082	0.17918	0.098049	0.20133	0.14063	0.39298	0.23254	0.2891	0.048349	0.25674	-0.48333	-1.7437	-1.3854	-1.0604	-1.7	-1.1229	-1.5167	-1.7521	-0.95	-1.9958	-1.2979	-0.94583	-1.8854	-1.0854	-1.5	-1.9188	165.134	128.536	34.413	224.532	-94.251	64.723	221.770	-52.148	-83.394	183.730	105.896	-50.249	-103.378	-66.361	138.823	-42.415	0.00023948	0.00045528	0.00022561	165.72	7.3296e-06	1.6983e-06	270.94	56.402	1.6129e-05	3.3245e-06	104.6	45.801	23.595	9.8641	1.0718e-05	19.65	0.0030696	0.0036081	0.0009895	215.29	3.8535e-05	3.9281e-05	312.62	69.281	3.7067e-05	3.9928e-05	133.19	52.832	33.349	12.136	3.8911e-05	22.892	148.711	-68.201	234.685	-110.512	93.814	53.679	-111.727	-105.340	21.857	-8.990	-106.958	-103.221	-102.772	-98.249	34.424	-99.977	-8191	255	
2254.637	1	1	0	0	0.25503	0.020116	0.29242	0.17952	0.21622	0.03738	0.11927	0.25406	0.061448	0.11612	0.30525	0.14626	0.071569	0.10939	0.02311	0.19683	-0.625	-1.6458	-1.5521	-1.05	-1.9125	-0.88542	-1.6	-1.8729	-0.96875	-1.7417	-1.6437	-1.1875	-1.8979	-1.2125	-1.2083	-2.0917	-2.295	84.218	-16.639	143.953	-37.634	93.379	0.542	-104.264	-99.178	-114.411	36.632	206.285	25.132	-26.362	118.347	125.092	0.00033916	0.00052724	0.00012014	164.17	5.5084e-06	1.0199e-05	271.08	57.101	6.9723e-06	1.0689e-06	106.61	46.714	24.135	10.141	1.0203e-05	20.207	0.0030149	0.0035356	0.00098222	214.73	3.8039e-05	3.8541e-05	312.84	69.609	3.7441e-05	3.931e-05	135.07	53.504	33.823	12.387	3.8212e-05	23.382	173.237	202.099	33.780	-110.566	129.963	-66.633	-110.827	-105.552	-37.891	-78.847	-107.031	-103.671	-102.855	-97.798	60.364	-99.936	-8191	255	
2254.733	1	1	0	0	0.089265	0.20838	0.048112	0.087963	0.11077	0.23264	0.36643	0.032387	0.17848	0.2425	0.1415	0.17972	0.099206	0.17019	0.092582	0.086425	-0.575	-1.65	-1.6938	-1.0458	-1.9188	-1.2333	-1.2125	-1.8813	-1.0583	-1.5438	-1.7833	-0.99792	-1.6833	-1.4375	-1.1292	-2.0354	123.616	-46.990	233.139	-5.048	-43.966	-50.534	168.617	15.440	-47.772	-25.044	-78.435	142.863	223.655	-4.820	-70.104	45.323	0.00029289	0.00097589	0.00014552	166.56	8.033e-06	4.3156e-06	274.97	57.527	5.2254e-06	5.4825e-06	108.06	46.635	24.228	10.121	9.0835e-06	20.376	0.0030637	0.0035859	0.00098754	217.14	3.8079e-05	3.8754e-05	316.59	70.316	3.7274e-05	3.9374e-05	135.92	53.84	34.043	12.43	3.7894e-05	23.53	109.610	-93.408	202.610	-110.775	195.910	29.333	-111.028	-104.549	-26.548	-8.448	-107.256	-102.904	-101.806	-97.656	-67.169	-100.363	-8191	255	
2254.830	1	1	0	0	0.12215	0.19874	0.16866	0.16857	0.057247	0.097092	0.054188	0.31107	0.17829	0.18818	0.25782	0.066675	0.12013	0.23991	0.13277	0.15472	-0.74792	-1.4333	-1.9729	-1.025	-1.6875	-1.3646	-1.1417	-1.9104	-1.2917	-1.5021	-1.8875	-1.0063	-1.9104	-1.3146	-1.0083	-1.95	-39.592	20.559	43.865	-85.173	123.435	163.989	-57.706	143.161	-17.957	-9.641	-69.724	62.370	-89.502	48.731	-116.553	-98.808	0.00045238	0.00018955	0.0001195	166.26	5.6964e-06	6.6539e-06	275.44	57.425	1.5345e-05	1.453e-06	108.59	46.443	24.328	10.145	1.127e-05	20.117	0.0030307	0.0035626	0.00098509	217.72	3.8238e-05	3.8727e-05	317.19	70.142	3.7247e-05	3.9437e-05	135.42	53.883	33.894	12.354	3.7771e-05	23.354	137.800	11.590	-93.709	-110.528	-32.300	-63.010	-111.471	-105.754	215.134	-75.389	-107.789	-104.144	-102.439	-97.757	6.375	-100.371	-8191	255	
2254.926	1	1	0	0	0.21821	0.073628	0.063019	0.1781	0.22974	0.10756	0.22699	0.062349	0.16684	0.1328	0.19432	0.32969	0.085263	0.18873	0.1333	0.24918	-0.7125	-1.5167	-1.65	-1.05	-1.6042	-1.5458	-0.85625	-1.9021	-1.2083	-1.2083	-1.8479	-0.97292	-1.6958	-1.6542	-1.1917	-1.9708	109.383	129.229	116.059	-4.535	81.399	-96.004	199.099	-19.317	-104.026	135.969	155.265	-103.840	54.753	-100.216	50.491	97.180	0.00031932	0.00042516	0.00029746	165.42	6.5542e-06	8.2293e-06	272.48	57.919	6.592e-06	2.3392e-06	105.65	45.773	23.732	9.9308	1.785e-05	19.595	0.0030608	0.0035797	0.00098309	215.65	3.8375e-05	3.9164e-05	314.91	70.223	3.7682e-05	3.9415e-05	134.6	53.311	33.707	12.254	3.7971e-05	22.924	44.882	184.121	31.288	-110.858	-15.053	28.289	-111.313	-104.517	70.056	-99.774	-107.153	-104.054	-102.541	-97.411	1.839	-100.066	-8191	255	
2255.046	1	1	0	0	0.079312	0.11554	0.25134	0.12284	0.15164	0.18592	0.04475	0.12657	0.21514	0.1592	0.39853	0.13952	0.33439	0.059304	0.15432	0.093578	-0.98542	-1.2021	-1.9417	-1.3271	-1.4625	-1.8521	-0.8875	-1.8792	-1.2833	-1.0333	-1.8813	-0.99375	-1.675	-1.7812	-0.95417	-1.9292	187.491	219.967	133.755	-112.141	107.491	58.267	130.408	233.929	225.699	152.147	-7.368	75.061	-22.370	-6.465	60.851	157.668	0.00024716	0.00024001	0.00031904	165.84	2.3953e-06	1.3015e-05	271.98	56.533	9.0743e-06	3.4585e-07	105.63	45.664	23.792	9.8517	8.9845e-06	19.585	0.0030526	0.0035104	0.00099139	215.03	3.8151e-05	3.922e-05	311.94	69.498	3.7255e-05	3.8743e-05	133.73	52.961	33.582	12.117	3.7949e-05	22.846	87.117	87.228	-27.632	-110.805	228.352	55.280	-111.005	-105.527	24.723	182.809	-107.011	-103.455	-102.502	-98.023	145.041	-100.002	-8191	255	
2255.143	1	1	0	0	0.013815	0.025564	0.11643	0.21655	0.21811	0.1192	0.14098	0.23098	0.10057	0.31725	0.26257	0.13694	0.064995	0.20049	0.21444	0.18491	-0.86458	-1.1354	-1.8375	-1.2188	-1.5479	-1.6271	-0.97083	-1.8458	-1.4354	-1.1104	-1.9958	-1.2458	-1.3833	-1.8729	-0.93958	-1.8375	22.169	82.660	163.160	172.499	-90.930	201.812	205.533	2.597	0.031	194.917	196.815	230.894	23.778	49.008	121.290	126.542	0.00031259	0.00023376	0.00019717	166.82	4.1007e-06	1.3578e-05	272.45	57.18	9.3198e-06	3.0433e-06	105.4	46.173	24.147	10.016	2.1784e-06	19.92	0.0030381	0.0034989	0.00098677	215.16	3.7936e-05	3.8547e-05	312.42	69.705	3.7308e-05	3.8416e-05	134.33	53.301	33.739	12.321	3.7903e-05	23.22	89.660	-86.488	-102.372	-111.181	230.043	199.489	-111.293	-105.104	116.052	-11.495	-106.431	-103.911	-102.179	-97.621	72.330	-99.843	-8191	255	
2255.237	1	1	0	0	0.065402	0.17221	0.12974	0.28542	0.21391	0.089634	0.31341	0.2115	0.27874	0.27433	0.1261	0.067427	0.18318	0.34711	0.057023	0.2681	-1.2563	-1.0021	-2	-1.1021	-1.35	-1.7458	-0.92083	-1.6437	-1.6313	-1.1854	-1.9271	-1.4542	-1.1833	-2.0229	-0.99167	-1.6562	-28.199	-88.391	-111.517	5.924	95.826	230.143	205.694	71.541	152.593	120.711	109.590	29.555	115.983	117.563	-48.047	80.114	0.00050148	0.00044776	0.00016374	164.66	8.163e-06	4.3556e-06	273.26	57.216	6.7443e-06	5.0327e-07	107.48	46.489	24.049	10.103	3.7991e-06	20.279	0.003039	0.0034577	0.00099047	215.32	3.7723e-05	3.8731e-05	314.94	70.257	3.7472e-05	3.825e-05	135.94	53.846	33.799	12.343	3.7953e-05	23.403	124.867	74.293	38.228	-110.459	-27.298	91.502	-111.120	-105.125	45.737	-45.874	-106.650	-103.070	-101.664	-97.966	47.201	-99.887	-8191	255	
2255.358	1	1	0	0	0.14259	0.25331	0.18649	0.014514	0.25518	0.09535	0.15345	0.28552	0.14607	0.20796	0.15907	0.17653	0.024718	0.13593	0.32017	0.07023	-1.1771	-1.0042	-1.8021	-1.2542	-1.3312	-2.0021	-1.1688	-1.4479	-1.8062	-0.90417	-1.6729	-1.425	-1.225	-1.975	-1.1875	-1.5833	-0.045	54.315	220.754	-114.082	130.583	159.871	-10.387	232.067	20.501	-48.436	20.890	6.951	-59.719	-54.118	-55.202	100.727	0.00034866	0.00071529	4.255e-05	168.11	3.5657e-06	3.3632e-06	272.56	57.154	1.8513e-06	7.8489e-06	106.65	46.218	23.865	10.082	1.0076e-05	19.962	0.0030389	0.0034118	0.00099507	215.44	3.7317e-05	3.8811e-05	315.51	69.91	3.7025e-05	3.8347e-05	135.62	53.633	33.613	12.301	3.789e-05	23.241	181.348	-102.872	46.305	-110.685	-50.338	106.113	-112.197	-105.700	101.551	-1.342	-107.245	-103.681	-102.427	-98.241	218.372	-100.708	-8191	255	
2255.429	1	1	0	0	0.11451	0.1171	0.17171	0.37697	0.28917	0.21676	0.12971	0.14247	0.23821	0.2456	0.10234	0.20301	0.25006	0.18399	0.097851	0.14924	-1.3896	-0.9125	-1.5896	-1.6104	-1.175	-2.0104	-1.2563	-1.3917	-1.8854	-0.95	-1.8104	-1.5792	-1.1667	-1.7229	-1.1646	-1.2375	135.431	-113.018	62.756	105.482	47.951	3.810	223.591	-80.474	145.573	-40.830	135.960	195.434	194.390	208.466	3.865	-94.192	0.00014915	0.00041068	0.00026051	166.59	3.6584e-06	4.7422e-06	272.11	57.161	9.7373e-06	3.6417e-06	105.3	46.137	23.884	9.9658	7.1669e-06	20.011	0.0030506	0.0034788	0.00098551	215.79	3.73e-05	3.9455e-05	313.6	69.687	3.736e-05	3.8336e-05	134.53	53.167	33.447	12.227	3.7866e-05	22.97	190.205	-93.474	63.730	-110.571	15.163	-37.383	-111.546	-106.106	96.123	133.233	-107.370	-103.982	-102.889	-98.369	-87.152	-100.313	-8191	255	
2255.525	1	1	0	0	0.13962	0.096098	0.23817	0.19471	0.097432	0.1549	0.15221	0.27782	0.074151	0.36019	0.045494	0.11744	0.14462	0.15836	0.19971	0.10132	-1.3271	-1.1292	-1.625	-1.5771	-1.0146	-1.8792	-1.475	-1.1938	-2.1146	-1.1333	-1.5958	-1.5312	-0.86667	-1.9167	-1.3312	-1.1167	-103.188	-63.439	221.301	229.909	12.822	68.174	21.151	223.389	82.144	43.311	-28.061	-30.336	145.584	166.228	73.559	179.124	0.00034827	0.00060628	2.9125e-05	165.4	1.2011e-05	1.3303e-05	272.47	56.411	9.5181e-06	1.2537e-06	105.9	46.123	23.794	9.9273	1.3896e-06	19.752	0.0030539	0.0034705	0.00098893	214.75	3.7332e-05	3.9108e-05	313.21	69.328	3.7549e-05	3.8866e-05	134.01	52.934	33.208	12.199	3.8034e-05	22.835	131.573	-34.654	-85.264	-111.321	-105.219	-72.438	-112.485	-105.916	-101.812	-15.409	-107.595	-103.728	-103.346	-98.586	109.045	-100.418	-8191	255	
2255.622	1	1	0	0	0.067646	0.25066	0.10764	0.050637	0.19587	0.074144	0.23491	0.070113	0.12338	0.14014	0.171	0.33522	0.15773	0.098095	0.10631	0.071321	-1.5812	-0.975	-1.3333	-1.6625	-0.92708	-1.8458	-1.4979	-1.0542	-1.8188	-1.2125	-1.55	-1.6958	-1.0583	-1.7354	-1.4083	-1.0771	3.041	-2.004	-46.771	-86.319	-118.255	53.267	28.451	110.668	129.592	45.420	11.483	-76.642	7.667	202.188	-72.029	62.671	0.00010561	0.00062829	0.00018916	164.64	7.4412e-06	1.3281e-05	271.05	56.919	1.0154e-05	7.6879e-06	104.13	46.118	23.535	9.8427	4.9901e-06	19.854	0.0031045	0.0034915	0.00098387	213.26	3.7433e-05	3.9003e-05	310.29	68.933	3.7203e-05	3.8529e-05	133.17	52.969	33.248	12.112	3.7452e-05	22.802	93.983	-6.924	-32.019	-110.795	-18.516	-6.183	-111.729	-105.560	-79.394	48.870	-106.782	-103.360	-103.745	-97.445	-120.016	-99.963	-8191	255	
2255.742	1	1	0	0	0.19376	0.17666	0.3495	0.15272	0.23981	0.094769	0.10806	0.073645	0.212	0.032968	0.040894	0.15509	0.38955	0.19643	0.26629	0.30027	-1.45	-1.2062	-1.3208	-1.8229	-1.0042	-1.8813	-1.7021	-0.94583	-1.9229	-1.2708	-1.475	-1.8958	-0.87708	-1.7125	-1.5354	-1.1146	-51.052	-67.090	-108.471	-57.214	127.384	1.137	-70.027	-27.117	220.608	-7.837	-18.528	-40.141	143.713	203.779	133.068	-83.643	0.00035445	0.00048584	0.0001735	163.26	6.1026e-06	4.7076e-06	270.7	55.574	7.8155e-06	1.4297e-05	105.6	45.705	23.44	9.723	7.0505e-06	19.588	0.0030359	0.0034786	0.0009676	214.13	3.6904e-05	3.839e-05	310.92	68.522	3.7264e-05	3.8415e-05	133.52	52.797	32.945	12.007	3.6939e-05	22.658	57.519	-42.743	134.828	-111.082	189.520	137.091	-111.084	-105.439	146.783	54.059	-107.906	-103.148	-103.448	-97.762	23.952	-100.281	-8191	255	
2255.838	1	1	0	0	0.085504	0.22377	0.12162	0.28434	0.10857	0.037995	0.16225	0.044319	0.25976	0.38584	0.30277	0.34176	0.19651	0.13032	0.084083	0.29108	-1.3542	-1.3813	-1.2646	-1.8917	-1.125	-1.5646	-2.0292	-0.94375	-1.7437	-1.4417	-1.275	-1.8958	-1.1542	-1.4875	-1.7958	-1.0292	-73.122	-83.018	-30.082	219.318	-50.620	-59.955	-113.222	-17.439	3.030	-17.176	165.830	-106.802	-4.346	-98.439	-4.475	114.171	0.00032369	0.00037122	0.00012014	163.6	1.4073e-05	1.146e-05	270.95	56.778	3.0577e-06	8.4049e-06	105.74	46.124	23.675	9.8956	2.0422e-06	19.677	0.003043	0.0034296	0.00096131	213.66	3.6991e-05	3.8395e-05	312.07	68.992	3.7634e-05	3.7936e-05	133.44	53.001	33.209	12.072	3.7781e-05	22.74	102.894	203.844	-26.883	-110.313	31.558	176.804	-112.271	-105.446	141.051	75.277	-107.402	-103.684	-102.864	-98.006	-21.111	-100.135	-8191	255	
2255.934	1	1	0	0	0.18653	0.33337	0.10819	0.13165	0.24033	0.10383	0.043459	0.19973	0.16974	0.17023	0.17107	0.27328	0.27586	0.11326	0.05222	0.23688	-1.5208	-1.2417	-1.0792	-1.7271	-1.1979	-1.7271	-1.8917	-1.0479	-1.6854	-1.5042	-0.83542	-1.6333	-1.2958	-1.1854	-1.8417	-1.0396	66.782	109.535	165.370	-14.645	144.962	227.577	-77.774	73.473	115.629	130.072	198.783	-98.701	111.725	-101.077	152.578	69.299	0.00017627	0.00077319	8.8721e-05	164.61	4.5589e-06	8.973e-06	270.17	56.364	1.0033e-05	9.4166e-06	104.91	45.662	23.744	9.8364	2.2291e-06	19.509	0.0030347	0.0034767	0.00095912	213.99	3.6943e-05	3.8604e-05	310.86	68.692	3.7568e-05	3.7923e-05	131.95	52.634	33.114	12.072	3.7349e-05	22.554	100.145	-96.610	180.709	-111.048	-95.558	111.481	-111.266	-105.657	37.379	-96.444	-107.710	-103.612	-102.796	-98.373	-116.520	-100.734	-8191	255	
2256.006	1	1	0	0	0.22128	0.014572	0.15878	0.092304	0.13845	0.32319	0.25554	0.12213	0.20221	0.21471	0.30442	0.1322	0.12946	0.040944	0.30107	0.21177	-1.2542	-1.5187	-1.0875	-1.8729	-1.1792	-1.3271	-1.9542	-1.0042	-1.6958	-1.5438	-0.93333	-1.725	-1.1521	-1.1333	-1.9354	-1.1167	-67.329	198.723	-61.693	-72.161	179.614	138.569	142.776	76.650	-81.862	-34.156	161.445	17.973	108.064	-87.133	47.258	90.226	0.0005332	0.00070235	0.00016375	163.62	9.1543e-06	7.1366e-06	267.65	56.446	1.7504e-05	3.6497e-06	104.27	45.286	23.465	9.8568	6.1684e-06	19.565	0.0030256	0.0034667	0.00096035	213.91	3.7207e-05	3.8562e-05	310	68.888	3.7025e-05	3.8184e-05	132.48	52.684	33.144	12.032	3.8057e-05	22.688	81.517	185.782	-21.263	-110.971	111.800	-122.617	-111.528	-105.375	-27.914	123.377	-107.006	-103.832	-102.948	-98.323	139.352	-100.464	-8191	255	
2256.127	1	1	0	0	0.22718	0.10067	0.070925	0.12265	0.10723	0.040003	0.25184	0.12829	0.29256	0.40702	0.22685	0.32845	0.13757	0.06332	0.11777	0.16434	-1.1917	-1.7167	-1.0042	-2.0792	-1.2938	-1.0208	-1.9937	-0.91042	-1.5917	-1.6271	-1.0896	-1.7833	-1.4438	-1.0312	-1.925	-1.2021	43.823	-48.873	12.996	209.215	71.682	163.301	-87.341	162.773	-49.841	135.257	195.566	169.225	-53.631	50.498	211.732	-52.779	0.0003772	0.00013423	0.00010898	165.72	1.388e-05	5.9707e-06	272.77	56.319	1.2472e-05	1.2728e-05	104.94	46.412	23.908	9.909	5.0225e-06	19.955	0.0030259	0.0034483	0.0009615	215.31	3.7169e-05	3.7905e-05	312.19	69.083	3.723e-05	3.8131e-05	133.03	53.192	33.293	12.161	3.8125e-05	23.024	109.429	212.665	16.195	-110.862	-35.388	-67.868	-111.678	-105.771	-87.685	-14.572	-107.299	-103.713	-103.729	-98.414	-8.713	-99.999	-8191	255	
2256.223	1	1	0	0	0.22232	0.22596	0.14939	0.096335	0.21951	0.28171	0.24155	0.25018	0.36132	0.33524	0.12771	0.30074	0.073613	0.41846	0.18952	0.15233	-1.0458	-1.7271	-0.90625	-1.7896	-1.4771	-1.1354	-2.0875	-1.1917	-1.5375	-2.0146	-1.0042	-1.5521	-1.6792	-1.125	-1.7938	-1.1167	60.411	155.553	141.687	-106.520	-30.995	159.734	-82.961	-6.681	-104.577	147.500	125.436	203.970	-81.162	134.060	157.868	181.347	0.00056701	0.00023791	0.00011678	165.09	4.9555e-06	4.0527e-07	270.02	56.964	8.9518e-07	8.7361e-06	106.23	45.917	23.839	9.7834	6.5989e-06	19.867	0.0030297	0.0034569	0.00096756	215.07	3.6736e-05	3.8155e-05	312.69	69.264	3.6511e-05	3.865e-05	134.09	53.297	33.415	12.123	3.8395e-05	22.858	151.117	155.530	-47.416	-111.207	-89.629	40.074	-111.421	-105.989	-111.873	121.182	-106.908	-103.433	-103.126	-98.209	-16.707	-100.640	-8191	255	
2256.319	1	1	0	0	0.10676	0.24056	0.1388	0.085447	0.11777	0.19139	0.15554	0.24063	0.1667	0.25801	0.10225	0.10122	0.09451	0.10664	0.2237	0.15029	-0.77083	-1.9771	-1.0833	-1.6646	-1.7083	-0.99375	-1.8896	-1.2687	-1.1688	-1.9542	-1.0063	-1.5562	-1.7271	-0.98542	-1.8813	-1.4083	165.374	102.656	-103.458	109.763	177.502	37.300	206.916	153.740	196.383	58.265	186.136	-42.786	216.806	-30.072	1.446	15.200	0.00058696	0.00058269	0.00022986	163.54	6.8317e-06	1.1854e-05	272.73	56.817	4.3942e-06	6.4294e-06	107.16	46.097	23.927	9.9223	4.3096e-06	19.732	0.0030181	0.0034942	0.00097051	214.89	3.7152e-05	3.834e-05	313.1	69.163	3.6955e-05	3.9017e-05	133.8	53.136	33.333	12.08	3.8041e-05	22.68	165.480	-54.323	-122.316	-111.247	50.960	7.637	-111.431	-105.140	-73.762	87.525	-107.076	-103.457	-102.907	-98.297	215.960	-100.087	-8191	255	
2256.438	1	1	0	0	0.41746	0.15156	0.25316	0.066732	0.2661	0.24798	0.11784	0.095924	0.17014	0.09896	0.075443	0.099752	0.11606	0.18465	0.13805	0.24739	-0.86875	-1.8521	-1.1396	-1.4438	-1.5875	-0.97083	-1.8312	-1.5625	-1.1187	-2.0375	-1.2229	-1.4813	-1.8896	-1.0208	-1.6187	-1.5729	214.720	1.950	-83.858	-34.999	-85.605	51.390	213.159	-93.975	-42.414	-56.854	-120.287	88.767	-13.193	116.307	85.375	40.505	0.00037966	0.00070357	7.305e-05	164.72	6.3445e-06	4.5989e-06	269.79	56.121	8.7775e-06	3.9283e-06	104.3	45.647	23.375	9.8094	1.0381e-05	19.21	0.0030232	0.0035293	0.0009633	214.08	3.7253e-05	3.8094e-05	311.61	68.918	3.6768e-05	3.8895e-05	132.52	52.605	33.036	12.025	3.8334e-05	22.447	176.117	60.407	-33.254	-110.457	-99.882	-40.330	-111.505	-105.307	-31.408	19.572	-107.249	-103.091	-102.760	-98.253	-9.879	-100.316	-8191	255	
2256.534	1	1	0	0	0.15994	0.16042	0.34828	0.36132	0.14968	0.16439	0.12086	0.12478	0.12487	0.12765	0.21792	0.17831	0.10966	0.12805	0.26479	0.19588	-0.78542	-1.6729	-1.1812	-1.4104	-1.9229	-1.3271	-1.875	-1.7417	-1.0208	-2.0375	-1.4625	-1.225	-2.0187	-1.1208	-1.4542	-1.8042	-74.223	158.347	-114.456	-92.655	231.843	-119.221	145.564	179.339	39.465	65.828	71.584	-90.302	25.164	52.939	196.105	1.379	0.0002216	0.00055236	0.00010593	162.99	6.0873e-06	5.4159e-06	268.39	56.844	1.0914e-05	1.0203e-05	104.46	45.33	23.328	9.8241	7.3698e-06	19.524	0.0030406	0.0035504	0.00096897	213.68	3.8012e-05	3.8361e-05	311.06	69.115	3.684e-05	3.9014e-05	132.71	52.583	33.137	12.051	3.7969e-05	22.66	82.220	-0.098	137.430	-110.945	-45.369	221.825	-111.205	-105.971	163.693	-15.824	-107.093	-103.460	-102.365	-97.722	206.026	-100.083	-8191	255	
2256.630	1	1	0	0	0.21814	0.31215	0.3254	0.094997	0.18036	0.038946	0.29193	0.14063	0.40681	0.23862	0.13176	0.20245	0.11843	0.14803	0.074602	0.07941	-0.5625	-1.6104	-1.4292	-1.2646	-1.7646	-1.2146	-1.5812	-1.8458	-1.1854	-1.7563	-1.4438	-1.0479	-1.8792	-1.0479	-1.3604	-1.6354	71.275	120.095	85.694	104.299	130.925	-114.949	144.024	55.526	164.706	129.290	218.047	173.415	225.211	13.988	-123.428	-28.177	0.00043713	0.00054987	0.00018194	163.34	8.8029e-06	7.7613e-06	268.87	56.811	7.8944e-06	9.641e-06	106.01	45.747	24.016	9.8258	8.4756e-06	19.444	0.0029869	0.003536	0.00096193	213.92	3.7803e-05	3.8428e-05	311.82	69.391	3.6884e-05	3.8649e-05	133.17	52.744	33.538	12.075	3.7535e-05	22.639	78.879	225.447	-65.940	-111.077	125.695	-103.989	-112.140	-105.454	-0.971	222.802	-106.251	-103.566	-101.921	-97.565	53.386	-100.425	-8191	255	
2256.726	1	1	0	0	0.069313	0.13673	0.11025	0.19689	0.17689	0.23083	0.039078	0.20814	0.15261	0.16762	0.42241	0.33783	0.062899	0.11615	0.10899	0.23526	-0.57292	-1.85	-1.4021	-1.2354	-2.0583	-0.93958	-1.6625	-1.7521	-0.92708	-1.7437	-1.5688	-1.0396	-1.8937	-1.2896	-1.2833	-1.8521	-101.680	18.339	208.714	155.821	170.882	155.756	113.774	89.399	79.439	33.480	182.627	144.211	130.515	-73.766	-112.914	173.824	0.00042639	0.00028743	8.1306e-05	165.9	1.067e-05	1.9361e-06	269.94	56.089	1.3654e-05	1.0751e-05	106.24	45.904	24.036	9.826	5.4086e-06	19.588	0.0029902	0.0034908	0.00095845	213.68	3.7543e-05	3.8419e-05	312.2	69.097	3.6686e-05	3.8546e-05	133.06	52.991	33.504	11.983	3.7251e-05	22.725	125.678	-65.271	-9.495	-111.103	19.869	210.706	-111.093	-105.446	-52.305	3.233	-107.311	-103.325	-102.510	-98.318	49.396	-100.450	-8191	255	
2256.823	1	1	0	0	0.26801	0.073576	0.24223	0.18166	0.17961	0.29908	0.094496	0.1359	0.2232	0.14947	0.10994	0.26003	0.027649	0.2619	0.1647	0.13428	-0.59375	-1.6854	-1.6125	-0.96042	-1.7646	-1.2104	-1.2812	-2.0479	-1.0312	-1.7771	-1.6458	-1	-1.8396	-1.2875	-0.92708	-1.7271	126.776	-10.920	86.003	75.276	-88.437	71.753	-73.948	181.555	109.383	-92.365	195.714	167.316	47.086	108.969	-14.756	225.528	0.00039985	0.00072799	5.7784e-05	163.33	6.9324e-06	2.8508e-06	271.72	57.044	2.464e-06	5.553e-06	105.55	45.685	23.771	9.8045	1.7228e-05	19.563	0.0030085	0.003507	0.0009727	212.51	3.729e-05	3.8279e-05	311.45	69.363	3.6334e-05	3.9283e-05	133.75	52.733	33.372	12.051	3.7666e-05	22.674	113.068	-1.886	158.766	-110.387	-73.834	104.648	-111.484	-105.399	99.918	182.136	-107.090	-103.358	-102.212	-98.636	14.459	-99.839	-8191	255	
2256.919	1	1	0	0	0.057901	0.099283	0.10081	0.066838	0.26628	0.19529	0.3029	0.36671	0.067591	0.055185	0.091735	0.35111	0.14102	0.10095	0.12847	0.19596	-0.60625	-1.6063	-1.6562	-1.0187	-1.6979	-1.4396	-1.1333	-1.9479	-1.1979	-1.5771	-1.7604	-1.1021	-1.7792	-1.3854	-1.0958	-2.0292	-72.505	230.460	-31.284	206.360	112.659	43.583	-13.511	85.485	-100.677	54.968	44.178	-55.039	127.335	149.543	227.853	112.585	0.00022617	0.00063793	0.00016582	163.41	3.2722e-06	1.205e-05	268.58	56.299	7.7653e-06	5.8889e-06	103.67	45.16	23.453	9.6385	5.4898e-06	18.838	0.0030317	0.0034924	0.00097487	212.14	3.7412e-05	3.8018e-05	309.49	68.675	3.6714e-05	3.8684e-05	131.15	52.19	33.063	11.851	3.6854e-05	22.087	48.827	-24.713	-83.109	-110.329	70.842	98.519	-111.716	-105.157	-29.575	-118.417	-107.878	-103.462	-102.421	-97.831	67.036	-100.727	-8191	255	
2257.039	1	1	0	0	0.11382	0.072136	0.017463	0.3964	0.067909	0.23787	0.24348	0.26751	0.24094	0.22383	0.095749	0.1783	0.14799	0.24361	0.071827	0.15091	-0.75208	-1.6021	-1.7958	-0.99375	-1.8188	-1.5688	-1.1875	-1.8333	-1.2313	-1.3646	-2.05	-1.0354	-1.7667	-1.7021	-1.1375	-1.9458	-68.750	169.930	194.738	-49.573	211.977	76.254	146.573	-38.412	226.168	174.192	24.909	-60.319	162.509	137.139	158.749	-22.606	0.00049885	0.00096171	0.00015054	161.09	8.1792e-06	3.786e-06	268.72	55.512	6.0438e-06	6.1619e-06	104.78	45.167	23.912	9.6268	5.4721e-06	19.168	0.0029718	0.0034591	0.00096591	210.55	3.7385e-05	3.7914e-05	307.51	68.481	3.624e-05	3.7809e-05	131.63	52.077	32.977	11.888	3.688e-05	22.345	114.244	111.341	28.345	-110.418	80.423	216.706	-111.388	-105.183	46.110	212.813	-107.324	-103.320	-102.361	-98.562	-88.502	-100.673	-8191	255	
2257.134	1	1	0	0	0.19948	0.071583	0.15497	0.025292	0.13862	0.28966	0.074758	0.34397	0.38824	0.2559	0.10577	0.17153	0.23703	0.13209	0.073407	0.22103	-0.83125	-1.0729	-1.8625	-0.91875	-1.7125	-1.5417	-1.0979	-1.9625	-1.2792	-1.2583	-1.875	-1.1208	-1.55	-1.7708	-1.0375	-1.7146	0.805	22.021	-116.714	68.555	-30.373	-55.521	89.450	188.003	10.296	229.504	56.787	-106.385	-3.756	-37.410	-56.451	-115.523	0.00056759	0.00030237	0.00021353	163.02	1.1269e-05	4.91e-06	268.15	56.571	5.2624e-06	7.0703e-06	106.01	45.988	24.217	10.095	6.613e-06	19.843	0.0029563	0.0034113	0.00097068	212.11	3.7067e-05	3.8316e-05	310	69.331	3.6671e-05	3.8185e-05	133.15	53	33.55	12.258	3.7363e-05	23.028	137.571	114.907	200.902	-111.336	67.089	-75.588	-111.331	-105.559	5.994	105.503	-107.333	-103.721	-103.233	-97.984	-39.994	-99.807	-8191	255	
2257.230	1	1	0	0	0.085355	0.20055	0.1985	0.10283	0.21878	0.20584	0.13706	0.060152	0.089782	0.17569	0.092528	0.17025	0.17936	0.26414	0.20969	0.081148	-1.1167	-1.0833	-1.8354	-1.1437	-1.5375	-1.8021	-0.975	-1.7417	-1.5083	-1.0417	-1.9188	-1.15	-1.2479	-1.9021	-0.92292	-1.7687	-6.644	80.219	-81.231	58.057	166.093	-102.222	216.365	160.654	173.531	5.731	-11.815	128.476	207.719	188.882	-76.155	13.227	0.00011133	0.00033526	0.00017919	165.17	2.9008e-06	2.6552e-06	271.19	57.05	3.2426e-06	3.7495e-06	106.16	45.838	23.87	9.9052	1.4068e-05	19.764	0.0030063	0.0034292	0.00096998	213.9	3.7079e-05	3.8137e-05	312.13	69.643	3.6254e-05	3.7429e-05	134.04	52.914	33.094	12.119	3.6782e-05	22.712	166.687	-44.060	170.943	-109.923	47.333	139.125	-111.780	-105.120	-115.057	-36.782	-106.922	-103.888	-102.348	-97.671	-2.178	-100.338	-8191	255	
2257.303	1	1	0	0	0.19417	0.13488	0.21934	0.12479	0.32657	0.3097	0.053801	0.086588	0.11706	0.1197	0.10777	0.16031	0.10181	0.028985	0.24592	0.13268	-1.2958	-1.0208	-1.8771	-1.275	-1.175	-1.8292	-0.88958	-1.6437	-1.4479	-1.1396	-1.6771	-1.1562	-1.175	-1.7208	-0.89375	-1.6104	184.663	145.299	2.647	-19.014	-48.223	76.925	137.736	-95.864	-64.032	-69.193	133.475	155.061	45.111	68.087	51.240	-106.262	0.00024816	0.00048993	0.00013032	163.31	4.4036e-06	3.0667e-06	269.18	56.743	2.3733e-05	3.068e-06	105.73	45.702	23.475	9.6285	2.5852e-06	19.4	0.0029876	0.0034253	0.00096336	212.79	3.704e-05	3.8275e-05	310.58	68.975	3.6356e-05	3.7911e-05	133.05	52.513	32.99	11.939	3.7079e-05	22.455	106.134	-48.873	134.487	-111.487	34.517	59.488	-111.383	-105.414	-2.179	56.110	-107.120	-103.038	-102.649	-97.887	-55.947	-100.122	-8191	255	
2257.422	1	1	0	0	0.2959	0.25871	0.12102	0.1746	0.077714	0.12229	0.1168	0.17506	0.15036	0.33722	0.21452	0.1967	0.13793	0.15349	0.18746	0.13555	-1.1167	-0.96458	-1.7021	-1.2417	-1.1083	-1.7229	-0.96875	-1.4937	-1.7042	-0.975	-1.7437	-1.3542	-1.0167	-1.9208	-1.0688	-1.4396	163.811	-70.433	-43.627	65.203	-65.659	-84.032	220.589	235.857	74.483	-87.148	136.381	10.070	66.446	41.170	79.588	20.636	0.00018364	0.001169	0.0001139	162.71	8.4207e-06	1.0032e-05	265.35	56.445	9.0056e-06	9.7283e-06	104.92	45.238	23.63	9.7831	6.4927e-06	19.315	0.0029803	0.0034314	0.00097355	210.66	3.7045e-05	3.8499e-05	306.41	68.511	3.6916e-05	3.7653e-05	131.57	52.183	32.885	11.898	3.7145e-05	22.152	85.605	223.202	177.153	-111.415	172.035	-18.436	-111.633	-105.415	150.792	95.729	-107.181	-103.532	-102.113	-97.941	-1.201	-99.647	-8191	255	
2257.518	1	1	0	0	0.32796	0.27181	0.13966	0.27665	0.27195	0.1216	0.12812	0.34193	0.23696	0.078852	0.16798	0.18469	0.18121	0.27458	0.17297	0.062242	-1.1875	-0.90417	-1.7104	-1.3625	-1.1063	-1.9146	-1.2354	-1.2437	-1.7354	-0.73125	-1.8125	-1.7979	-0.95625	-1.9542	-1.1354	-1.2708	142.345	-6.783	-13.626	-4.039	166.656	85.718	-65.106	-39.321	125.023	48.048	-77.950	47.165	147.507	-117.484	99.494	-122.162	0.00038918	0.00061705	0.00030555	160.68	2.2401e-06	1.1237e-06	269.8	55.384	5.4257e-06	4.1062e-06	104.01	45.455	23.198	9.7567	1.2442e-05	19.213	0.0030023	0.0034289	0.00096238	210.45	3.6524e-05	3.8333e-05	307.98	68.212	3.6083e-05	3.7716e-05	131.68	52.317	32.66	11.936	3.6492e-05	22.265	166.632	103.102	-41.690	-111.121	87.481	209.891	-111.079	-104.623	38.330	65.969	-106.714	-103.404	-102.896	-98.059	24.856	-100.080	-8191	255	
2257.615	1	1	0	0	0.11362	0.05333	0.13435	0.10568	0.22055	0.084995	0.098316	0.16077	0.07778	0.14295	0.081317	0.22234	0.17121	0.23829	0.051504	0.069179	-1.5729	-0.95417	-1.6271	-1.6896	-1.0583	-2	-1.35	-1.1104	-1.9292	-1.1208	-1.525	-1.7125	-0.825	-1.8479	-1.2708	-1.4729	-50.107	19.313	65.110	93.767	190.999	-71.510	222.253	184.052	94.123	-47.893	135.901	94.591	126.144	33.333	98.110	2.862	0.00042119	0.00042828	0.00018915	162.48	9.7591e-06	1.7298e-05	269.32	56.363	8.2119e-06	2.6191e-06	106.21	45.784	23.395	9.8101	3.0039e-07	19.417	0.002966	0.0033631	0.00095801	212.9	3.6615e-05	3.8122e-05	309.26	68.476	3.6664e-05	3.734e-05	132.58	52.493	32.867	12.012	3.6934e-05	22.439	102.187	-2.584	-40.682	-109.987	40.472	61.362	-112.099	-105.043	20.075	97.038	-106.517	-103.835	-102.060	-98.079	196.167	-100.237	-8191	255	
2257.711	1	1	0	0	0.10694	0.19233	0.10561	0.092779	0.28009	0.13571	0.004704	0.12157	0.11828	0.28158	0.24518	0.099207	0.19292	0.16431	0.14945	0.16422	-1.275	-1.0063	-1.5562	-1.6875	-0.975	-2	-1.3875	-1.0938	-1.7437	-1.1	-1.5042	-1.7271	-1.0187	-1.7771	-1.3979	-1.0583	-60.005	73.360	151.161	176.005	82.983	181.677	1.071	-120.905	-78.155	133.498	167.495	199.703	-21.647	81.176	129.787	-112.903	0.00042979	0.00062013	6.3255e-05	162.81	1.652e-06	3.7036e-07	267.97	55.87	2.8566e-06	2.932e-06	104.6	46.021	23.589	9.6775	7.5858e-06	19.25	0.0029797	0.003407	0.00095687	211.37	3.6485e-05	3.8054e-05	308.8	68.456	3.6891e-05	3.7383e-05	132.16	52.622	32.978	11.912	3.6788e-05	22.398	62.442	115.712	137.895	-110.419	103.541	47.843	-111.375	-104.978	98.719	-52.044	-107.223	-103.210	-102.599	-97.467	55.672	-99.994	-8191	255	
2257.807	1	1	0	0	0.1904	0.40072	0.17929	0.0062244	0.24235	0.20083	0.30932	0.15795	0.14968	0.027127	0.35634	0.27322	0.10001	0.17135	0.22328	0.31087	-1.5333	-1.0312	-1.2979	-1.9062	-1.1	-1.9021	-1.5417	-1.0167	-1.7687	-1.2333	-1.2875	-1.7563	-1.1083	-1.5542	-1.6688	-0.89792	159.861	-11.682	128.659	-79.044	115.593	154.771	79.620	-15.512	72.979	-7.643	152.577	-31.556	6.711	-122.165	-40.448	151.775	0.00043099	0.0012426	8.8048e-05	161.92	4.8814e-06	7.9171e-06	272.96	56.234	2.6695e-06	5.0164e-06	105.79	44.936	23.276	9.679	4.7589e-06	19.14	0.0030229	0.0034206	0.00094764	212.23	3.6712e-05	3.8339e-05	310.14	68.422	3.6601e-05	3.7621e-05	132.27	52.193	32.726	11.92	3.6935e-05	22.197	143.329	229.687	57.822	-111.412	231.837	147.237	-112.268	-105.435	-17.250	102.381	-106.646	-103.542	-102.033	-98.008	-5.369	-99.737	-8191	255	
2257.903	1	1	0	0	0.065184	0.052918	0.2638	0.3212	0.10227	0.091904	0.2639	0.30482	0.062723	0.060175	0.30098	0.3098	0.1267	0.13161	0.12194	0.10649	-1.5083	-1.1792	-1.1646	-1.775	-1.0771	-1.6938	-1.7938	-0.90625	-1.8458	-1.3208	-1.1542	-1.9083	-1.2375	-1.6167	-1.8583	-1.2229	-110.201	68.846	-119.222	49.073	231.556	156.518	174.187	216.159	42.395	25.490	-24.603	212.143	170.204	210.323	166.507	145.790	5.0969e-05	0.00071646	9.1825e-05	162.76	6.7574e-06	3.7135e-06	269.37	55.791	6.5666e-06	1.6187e-06	103.92	45.048	23.514	9.7867	1.2168e-05	19.294	0.0029883	0.0033934	0.0009656	212.39	3.6903e-05	3.8197e-05	307.27	68.051	3.6955e-05	3.7816e-05	131.24	52.181	32.768	11.956	3.725e-05	22.321	113.836	85.145	-48.861	-110.475	207.392	-28.571	-111.007	-105.217	-86.160	-26.443	-106.737	-102.950	-101.614	-97.700	49.459	-100.108	-8191	255	
2257.999	1	1	0	0	0.26156	0.17728	0.18108	0.12311	0.12656	0.11148	0.19881	0.2629	0.28567	0.058542	0.14276	0.10968	0.08693	0.050374	0.29157	0.24931	-1.4271	-1.2583	-1.0125	-1.8604	-1.0042	-1.4625	-1.7792	-1	-1.7479	-1.2354	-0.9125	-1.8625	-1.0417	-1.3458	-1.8625	-1.1896	-56.519	-117.321	210.684	105.829	23.902	119.510	112.521	-104.898	25.318	2.733	-25.911	-76.532	-36.418	146.638	91.625	74.902	0.00033574	0.00077646	7.5385e-05	160.41	4.0184e-06	1.2239e-05	265.7	56.465	1.9552e-05	8.9546e-06	105.8	45.685	23.605	9.9758	9.422e-06	19.735	0.0029918	0.0033845	0.00095772	212.04	3.6242e-05	3.8142e-05	307.33	68.32	3.654e-05	3.8048e-05	131.82	52.514	32.971	12.075	3.7314e-05	22.588	119.198	-32.600	-108.164	-110.780	-33.095	-120.806	-111.035	-105.054	1.308	18.864	-107.346	-103.183	-102.176	-97.767	149.628	-99.712	-8191	255	
2258.120	1	1	0	0	0.28086	0.14216	0.080437	0.21201	0.48518	0.18124	0.1637	0.16743	0.17332	0.0084927	0.19818	0.10134	0.098708	0.30296	0.084599	0.16991	-1.3646	-1.4917	-1.0396	-2.0521	-1.2729	-1.3208	-1.8229	-1.0292	-1.6354	-1.7938	-1.1375	-1.8458	-1.3583	-1.2563	-1.8792	-1.1333	-1.706	-15.366	168.509	230.631	33.639	62.094	212.748	71.812	83.447	34.170	39.534	204.763	-15.928	-95.507	80.221	211.354	0.00025049	0.00031626	9.5294e-05	162.47	4.0823e-06	7.2967e-06	270.04	56.747	7.3283e-06	7.9865e-06	105.58	45.651	23.849	9.8772	2.3379e-06	19.737	0.0029985	0.0034027	0.00094906	213.23	3.6117e-05	3.7772e-05	310.33	69.097	3.6522e-05	3.7858e-05	132.85	52.739	33.176	12.142	3.7222e-05	22.723	123.224	-103.432	122.170	-110.833	-50.692	223.270	-110.875	-105.547	-34.111	-46.936	-107.769	-103.433	-102.596	-98.016	-33.176	-100.486	-8191	255	
2258.216	1	1	0	0	0.12752	0.14336	0.11666	0.12468	0.19909	0.23406	0.20127	0.28604	0.20106	0.12605	0.18918	0.1521	0.14976	0.096285	0.1406	0.1964	-1.4458	-1.6042	-0.85417	-1.8021	-1.2542	-1.0021	-1.7542	-1.0771	-1.4083	-1.7563	-0.90625	-1.9188	-1.4625	-1.2354	-1.8354	-1.1979	230.636	32.949	23.519	107.055	95.047	128.571	191.958	65.642	183.281	181.754	117.796	-92.242	221.645	-61.425	43.684	-114.977	0.00034156	0.00030429	0.00019505	167.39	3.2294e-06	6.5377e-06	267.66	57.283	1.3873e-05	6.4875e-06	106.24	45.528	23.994	9.9706	5.1957e-06	19.557	0.0030132	0.0034375	0.00095285	214.31	3.663e-05	3.7917e-05	310.62	69.069	3.658e-05	3.8048e-05	132.83	52.816	33.07	12.138	3.7483e-05	22.569	72.985	66.143	-43.549	-111.437	-113.662	198.083	-111.801	-105.836	12.964	-48.065	-107.995	-104.027	-103.481	-98.499	-64.332	-100.072	-8191	255	
2258.310	1	1	0	0	0.22722	0.03536	0.30428	0.14055	0.16434	0.10856	0.15673	0.029718	0.16295	0.19426	0.26626	0.21592	0.23148	0.16577	0.085873	0.25233	-1.1646	-1.8062	-1.0063	-1.75	-1.4271	-0.92917	-1.8354	-1.2188	-1.4417	-1.8229	-0.9875	-1.7854	-1.5729	-1.0667	-1.9083	-1.1708	176.384	204.674	163.610	178.205	6.499	-120.003	63.890	150.543	31.248	7.128	152.287	192.304	207.726	-121.112	22.947	213.279	0.00053688	0.00056227	0.00010917	163.94	8.7551e-06	1.1923e-05	267.55	56.873	1.3508e-06	4.874e-06	103.72	45.775	23.688	9.8741	6.5465e-06	19.494	0.0029905	0.0034481	0.00094939	213.09	3.6744e-05	3.8093e-05	309.83	68.995	3.6758e-05	3.8602e-05	132.29	52.591	33.204	12.106	3.7587e-05	22.478	129.448	38.370	-22.475	-110.797	-22.297	-78.189	-111.588	-105.881	-117.317	223.234	-107.319	-103.596	-102.452	-97.962	33.638	-100.998	-8191	255	
2258.408	1	1	0	0	0.30342	0.043857	0.27091	0.17195	0.10951	0.1136	0.12805	0.22855	0.11383	0.12461	0.068097	0.13174	0.14659	0.24592	0.34977	0.067763	-0.89375	-1.8042	-0.9125	-1.6396	-1.725	-1.0562	-1.8813	-0.86667	-1.3292	-1.7812	-1.075	-1.5271	-1.5562	-1.0875	-1.9604	-1.3792	-96.817	51.033	171.696	120.746	148.084	179.891	160.721	131.121	-110.801	122.816	166.220	221.813	83.517	-63.041	-82.668	180.726	0.00035851	0.00086424	8.5212e-05	163.36	1.766e-07	2.6756e-06	271.16	57.172	6.3218e-06	2.3405e-06	104.43	45.193	24.25	9.9095	6.2718e-06	19.522	0.0029936	0.0034457	0.00094457	213.29	3.7103e-05	3.7538e-05	309.55	68.973	3.6406e-05	3.8252e-05	131.87	52.476	33.203	12.063	3.7621e-05	22.544	122.433	36.738	-14.650	-110.727	-29.886	-107.524	-112.073	-104.980	134.866	141.781	-107.775	-103.964	-102.651	-98.249	-4.452	-99.680	-8191	255	
2258.527	1	1	0	0	0.028433	0.042918	0.19299	0.18801	0.13019	0.32342	0.29667	0.23475	0.07431	0.13306	0.089063	0.21022	0.044546	0.12441	0.12424	0.13804	-0.66458	-1.8708	-1.1979	-1.6667	-1.8167	-0.91458	-1.8167	-1.3542	-1.0167	-1.9479	-1.1063	-1.6875	-1.9542	-0.86042	-1.8896	-1.4583	147.378	6.190	209.220	-89.748	22.680	-80.942	144.508	-57.236	119.004	175.351	156.618	-75.337	224.940	159.405	-112.705	10.604	0.00042475	0.00027001	0.00014905	163.25	4.7865e-06	1.8598e-05	268.39	56.145	9.4356e-06	6.2839e-06	105.49	45.833	23.915	10.173	7.262e-06	19.841	0.0029759	0.0034302	0.00094744	212.67	3.6662e-05	3.7329e-05	309.86	68.82	3.6493e-05	3.8294e-05	132.62	52.83	33.475	12.239	3.7421e-05	22.869	153.372	190.786	231.475	-111.647	-0.017	46.881	-111.531	-105.907	57.528	165.620	-107.468	-103.877	-102.851	-98.493	-11.039	-100.377	-8191	255	
2258.599	1	1	0	0	0.26133	0.067937	0.097909	0.14566	0.11749	0.088487	0.1192	0.28311	0.16642	0.31105	0.31914	0.12927	0.22727	0.05141	0.095103	0.050933	-0.65625	-2.0146	-1.1542	-1.4729	-1.9312	-0.8875	-1.6833	-1.6646	-1.1354	-1.8833	-1.0625	-1.2833	-1.9208	-0.99167	-1.625	-1.6896	-33.169	-12.108	92.883	178.524	-65.591	172.966	44.201	21.246	47.067	236.309	203.847	205.317	-54.197	148.185	-24.568	192.555	0.0002373	0.00069289	0.00010514	164.21	6.9458e-06	4.2477e-06	267.58	56.775	1.1674e-05	3.2649e-06	107.37	45.963	23.571	9.9883	1.5121e-05	19.774	0.0029829	0.0034544	0.00095925	213.08	3.7045e-05	3.7413e-05	310.12	69.686	3.6436e-05	3.8785e-05	133.82	52.995	33.426	12.202	3.7075e-05	22.867	123.421	112.238	-109.902	-110.347	-9.422	24.094	-111.614	-105.640	-16.450	-66.173	-106.830	-103.931	-102.838	-98.343	68.251	-100.566	-8191	255	
2258.719	1	1	0	0	0.23557	0.14312	0.12539	0.132	0.17716	0.28629	0.24344	0.13871	0.15451	0.16781	0.1855	0.18229	0.27045	0.29662	0.18654	0.077886	-0.58125	-1.9	-1.3521	-1.1583	-1.9458	-1.0667	-1.6083	-1.7812	-0.83125	-1.7396	-1.2708	-1.0812	-1.8917	-1.1979	-1.4854	-1.9438	-102.744	231.847	-52.023	226.941	-53.451	-60.868	125.548	-17.314	-55.811	55.904	86.471	-81.026	87.556	194.152	89.570	-93.747	0.0004069	0.00075518	1.9232e-05	163.87	2.4074e-06	7.5983e-06	270.85	56.683	1.7819e-06	1.1199e-05	105.94	45.963	23.95	9.9279	9.5875e-06	19.562	0.0029898	0.0034815	0.00095967	213.13	3.7536e-05	3.7486e-05	311.62	69.456	3.6318e-05	3.8565e-05	133.27	53.079	33.284	12.15	3.7606e-05	22.818	125.436	-93.523	205.578	-110.614	-13.614	49.950	-111.764	-105.599	113.041	-14.076	-107.592	-103.468	-101.996	-98.292	93.164	-99.941	-8191	255	
2258.816	1	1	0	0	0.32924	0.19389	0.19737	0.21519	0.28119	0.12161	0.15148	0.31678	0.17467	0.1743	0.011129	0.042112	0.085756	0.15476	0.24167	0.13668	-0.61042	-1.8479	-1.3438	-1.1167	-1.9917	-1.1021	-1.3458	-1.625	-1.025	-1.9542	-1.4104	-1.0104	-2.0312	-1.1583	-1.4104	-1.8771	187.155	-16.907	127.824	102.132	218.348	-53.499	-30.898	85.756	84.958	163.485	-111.228	-59.772	-105.858	-19.537	13.053	-117.082	0.00029254	0.00046137	3.5581e-05	163.94	6.414e-06	6.866e-06	266.07	56.273	9.6145e-06	6.8065e-06	104.67	45.303	23.624	9.761	4.8762e-06	19.32	0.0029603	0.003472	0.00096099	213.2	3.7686e-05	3.7942e-05	309.38	68.902	3.6248e-05	3.8579e-05	131.82	52.357	33.264	12.02	3.8106e-05	22.365	81.392	165.265	146.796	-111.274	53.351	126.906	-111.113	-105.357	80.411	8.658	-107.644	-103.491	-101.871	-97.904	-32.965	-100.158	-8191	255	
2258.912	1	1	0	0	0.25125	0.10375	0.1263	0.20681	0.24329	0.053	0.34377	0.17859	0.30716	0.019924	0.16484	0.083775	0.32365	0.33616	0.31431	0.20259	-0.55625	-1.5958	-1.5417	-1.1104	-2.1	-1.3271	-1.2208	-1.8375	-1.0875	-1.65	-1.5396	-1.0625	-1.9646	-1.55	-1.4604	-2.0438	93.283	123.533	-45.780	148.482	-33.762	22.487	115.598	213.955	128.058	17.916	121.820	175.718	-109.387	196.701	55.602	176.826	0.00033664	0.00064129	8.3828e-05	163.53	5.7328e-06	1.5501e-05	269.39	56.358	8.969e-06	6.3973e-06	103.57	45.133	23.491	9.7535	5.4278e-06	19.042	0.0029587	0.0034656	0.00095986	211.97	3.6661e-05	3.7291e-05	307.54	68.338	3.5849e-05	3.7667e-05	131.37	52.116	32.901	11.934	3.6537e-05	22.114	124.567	75.630	127.757	-110.609	-71.965	129.100	-111.042	-105.141	-11.563	-8.445	-107.125	-103.249	-103.187	-97.253	12.775	-100.514	-8191	255	
2259.008	1	1	0	0	0.093581	0.20327	0.098084	0.28115	0.25231	0.10512	0.19475	0.14782	0.2236	0.070621	0.063572	0.075137	0.087873	0.32338	0.11507	0.19792	-0.77708	-1.65	-1.5042	-1.1562	-1.8958	-1.4021	-1.2875	-1.7729	-0.81042	-1.525	-1.7146	-1.0812	-1.7875	-1.4729	-1.2687	-1.9979	121.288	55.879	201.644	-19.749	187.230	216.423	109.060	195.910	84.214	44.105	102.766	-100.840	70.435	138.334	-121.760	61.044	0.00048572	0.0002997	0.0002861	162.45	4.4154e-06	9.0035e-06	267.85	57.281	1.1952e-05	3.8046e-06	106.29	46.111	23.767	9.8501	7.8331e-06	19.878	0.0028862	0.003393	0.00094	211.68	3.6292e-05	3.7535e-05	308.86	69.274	3.5851e-05	3.7637e-05	133.09	52.794	33.233	12.174	3.6785e-05	22.856	133.016	-114.351	-7.128	-111.113	50.156	-2.523	-111.489	-105.465	-40.833	-55.881	-106.297	-103.689	-103.036	-98.165	1.258	-100.659	-8191	255	
2259.104	1	1	0	0	0.15617	0.058301	0.21658	0.13485	0.23838	0.046272	0.24298	0.43498	0.11643	0.06922	0.13788	0.1151	0.21269	0.087422	0.037241	0.2313	-0.83333	-1.4083	-1.9042	-0.97917	-1.7229	-1.4792	-1.125	-1.8	-1.1333	-1.3667	-2.0187	-0.81042	-1.8021	-1.7896	-0.98958	-1.8563	49.436	36.834	116.914	210.952	58.599	80.108	197.593	-87.983	-97.833	-42.703	61.252	-81.469	151.222	29.634	-44.734	13.276	0.00011445	0.00014787	0.00014235	164.41	1.4976e-06	4.2659e-06	271.03	56.915	1.6338e-05	6.7362e-06	107.14	45.707	24.138	9.9269	7.0385e-06	19.781	0.0028856	0.0033818	0.00094792	213.48	3.6318e-05	3.7324e-05	310.67	69.623	3.5674e-05	3.7784e-05	134.06	52.835	33.455	12.112	3.6462e-05	22.739	129.785	126.754	47.746	-110.299	215.349	-106.826	-110.683	-105.870	-11.417	-78.810	-106.668	-103.295	-101.519	-98.092	141.034	-100.391	-8191	255	
2259.200	1	1	0	0	0.21465	0.13282	0.2237	0.34462	0.047143	0.11712	0.081139	0.24032	0.12294	0.16816	0.049796	0.10349	0.14391	0.15843	0.13331	0.037917	-0.725	-1.4625	-1.8875	-0.87083	-1.6875	-1.6958	-1.0792	-1.7958	-1.2958	-1.1458	-1.8708	-1.1958	-1.6479	-1.6854	-1.0854	-1.9333	-37.451	34.793	49.708	163.254	-33.767	7.109	186.569	184.759	102.423	80.157	-56.240	-41.298	232.844	140.790	148.983	-75.878	0.00049513	0.0010665	0.00020924	163.77	2.4389e-06	3.037e-06	273.94	58.079	1.3903e-05	8.8816e-06	106.37	46.045	23.614	9.7547	7.6271e-06	19.247	0.0029291	0.0034036	0.00094871	212.1	3.6545e-05	3.7361e-05	311.98	69.642	3.5349e-05	3.7151e-05	133.17	52.618	33.062	11.973	3.6193e-05	22.322	124.497	0.269	42.585	-110.757	93.950	34.184	-111.446	-104.997	-6.244	6.751	-106.823	-103.173	-102.860	-97.576	-89.400	-99.558	-8191	255	
2259.296	1	1	0	0	0.12209	0.38553	0.32862	0.17163	0.30715	0.16391	0.32375	0.11389	0.028618	0.1892	0.18714	0.064668	0.18076	0.17632	0.11	0.21881	-0.97292	-1.2146	-1.7771	-0.83958	-1.25	-1.8771	-0.9625	-1.775	-1.4312	-1.1688	-2.0167	-1.1063	-1.4562	-1.9146	-1.0938	-1.8188	95.257	-79.374	-56.793	87.575	91.260	120.022	216.938	236.412	235.524	10.355	148.220	-109.216	-88.200	62.329	-93.645	-94.246	0.00041453	0.00052711	0.00017111	164.07	5.0017e-06	7.7735e-06	267.32	56.083	5.3206e-06	1.4509e-05	103.49	45.156	23.657	9.6808	1.3259e-06	19.01	0.0029523	0.0034535	0.00095367	212.3	3.6495e-05	3.7936e-05	307.32	68.824	3.5906e-05	3.7404e-05	131.88	52.049	33.042	11.877	3.6499e-05	22.026	105.256	217.721	-77.864	-110.445	36.810	-36.865	-111.004	-105.244	2.084	-34.299	-107.009	-103.762	-102.950	-97.516	116.727	-100.414	-8191	255	
2259.391	1	1	0	0	0.17696	0.17596	0.016847	0.12133	0.040201	0.27047	0.21649	0.17519	0.24433	0.048828	0.21808	0.19813	0.10442	0.030139	0.24736	0.18051	-1.2042	-1.1437	-2.1542	-1.2729	-1.4167	-1.7104	-0.99167	-1.7437	-1.6771	-0.99792	-2.0042	-1.1958	-1.4562	-1.9813	-0.92708	-1.7958	100.093	-80.216	225.982	110.562	201.854	-89.088	129.948	194.089	124.638	-77.719	85.011	-82.853	-100.721	-3.940	167.734	10.368	0.000553	0.00067482	0.00022679	165.12	5.1478e-06	1.2099e-05	267.38	56.24	1.2786e-05	7.658e-06	104.06	44.32	23.791	9.6853	2.182e-06	19.124	0.0029443	0.0033887	0.00094907	212.04	3.6467e-05	3.796e-05	307.45	68.602	3.5799e-05	3.7174e-05	131.16	51.74	32.765	11.859	3.6025e-05	22.057	121.409	-18.426	-69.775	-111.102	163.441	4.325	-111.103	-105.218	14.470	88.085	-106.560	-103.359	-103.077	-97.514	93.037	-99.934	-8191	255	
2259.489	1	1	0	0	0.26344	0.063048	0.15069	0.12229	0.1568	0.33417	0.37507	0.18838	0.18274	0.11451	0.30819	0.26647	0.38697	0.27047	0.043856	0.10257	-1.4083	-0.91458	-1.8833	-1.1375	-1.2625	-1.8375	-1.175	-1.6167	-1.6542	-1.0625	-1.7292	-1.2229	-1.1458	-1.8771	-0.93333	-1.4521	48.385	148.981	173.142	75.330	65.195	205.164	226.264	-94.713	109.328	-121.255	31.798	108.518	161.026	32.262	226.512	145.143	0.00046063	0.0009562	0.00029956	164.43	3.8947e-06	8.477e-06	271.01	56.919	5.5668e-06	6.2314e-06	104.87	45.004	24.3	9.9649	8.71e-06	19.517	0.0029277	0.0033496	0.00094598	211.69	3.616e-05	3.7618e-05	308.94	69.286	3.6006e-05	3.7434e-05	132.6	52.283	33.166	12.105	3.6619e-05	22.573	51.316	-17.519	151.962	-110.515	124.836	-0.875	-111.391	-105.345	-77.729	-67.364	-107.536	-103.450	-102.826	-97.832	34.525	-100.309	-8191	255	
2259.607	1	1	0	0	0.15391	0.42594	0.27526	0.28908	0.26901	0.073598	0.2095	0.24222	0.27813	0.084088	0.037435	0.16982	0.11112	0.13052	0.17203	0.47065	-1.4146	-1.0875	-1.8687	-1.3583	-0.99583	-1.8708	-1.2792	-1.6292	-1.7563	-0.97708	-1.7875	-1.5187	-1.0083	-1.9958	-1.1042	-1.3875	-103.423	178.204	60.535	80.560	-76.468	47.390	187.343	114.309	1.999	139.708	79.013	93.832	135.178	1.381	10.835	-80.881	0.00032007	0.00067643	4.7068e-05	165.09	4.7668e-06	3.4695e-06	271.66	56.139	1.6741e-05	4.5146e-06	106.96	46.094	23.839	9.8793	5.7286e-06	19.291	0.0029588	0.003371	0.00095784	212.73	3.6466e-05	3.7675e-05	309.5	68.878	3.6475e-05	3.7129e-05	133.15	52.792	32.975	12.023	3.6544e-05	22.369	104.052	152.946	201.337	-111.231	155.539	44.001	-110.387	-105.016	-61.685	25.420	-106.829	-103.798	-101.409	-97.428	205.745	-99.807	-8191	255	
2259.704	1	1	0	0	0.24314	0.19639	0.033444	0.2882	0.091832	0.086117	0.34313	0.25491	0.15472	0.28519	0.058204	0.24825	0.19315	0.33739	0.21969	0.46497	-1.4354	-1.0312	-1.7812	-1.5	-0.94167	-1.8229	-1.2938	-1.3813	-1.9771	-1.0646	-1.7313	-1.7229	-1.0688	-1.9333	-1.4167	-1.5625	142.088	8.997	-30.012	-90.580	-71.443	-116.206	106.921	59.644	-77.001	203.429	-52.632	81.111	129.187	128.201	172.454	175.676	0.00048586	0.00065412	0.00023266	165.25	1.1077e-05	7.749e-06	269.43	56.515	6.7079e-06	5.5844e-06	104.85	45.577	23.649	9.7675	5.0254e-06	19.218	0.0029359	0.0033446	0.00095913	213.07	3.6224e-05	3.7751e-05	308.56	68.837	3.6416e-05	3.7366e-05	132.7	52.504	32.88	11.996	3.6514e-05	22.251	144.883	-72.899	179.710	-110.401	105.239	226.992	-111.700	-105.443	5.437	100.582	-106.464	-103.576	-103.462	-97.608	231.616	-99.739	-8191	255	
2259.800	1	1	0	0	0.22786	0.20816	0.10623	0.09899	0.11792	0.32678	0.066286	0.1451	0.14056	0.13948	0.1124	0.2829	0.056559	0.16321	0.08748	0.16378	-1.4062	-0.99375	-1.5271	-1.6271	-0.95625	-1.6417	-1.3875	-1.3125	-1.8687	-1.0604	-1.6375	-1.7938	-0.87708	-1.9979	-1.4042	-0.94583	76.206	62.639	138.692	-10.231	108.386	146.602	48.861	126.898	-12.084	-58.197	122.872	115.483	183.130	169.218	137.172	-115.544	0.00012362	0.00088781	0.00014397	164.86	4.6647e-06	1.1075e-05	271.01	56.219	1.928e-05	3.5211e-06	104.27	44.865	23.806	9.785	2.4163e-06	19.008	0.0029887	0.0033674	0.00095039	211.87	3.6302e-05	3.7788e-05	307.63	68.64	3.6339e-05	3.7189e-05	131.47	51.991	32.969	11.971	3.7189e-05	22.073	154.671	94.090	153.365	-110.493	-53.621	-36.363	-111.913	-105.116	-107.366	-122.965	-106.545	-103.476	-102.567	-97.838	223.795	-99.501	-8191	255	
2259.896	1	1	0	0	0.095296	0.09966	0.10897	0.10211	0.20794	0.17226	0.078227	0.13063	0.030172	0.082052	0.041906	0.19985	0.21935	0.092476	0.14507	0.1381	-1.6458	-1.075	-1.5146	-1.9104	-1.1021	-1.8646	-1.7313	-1.0896	-1.9375	-0.90833	-1.3813	-2.0187	-0.94792	-1.8396	-1.5542	-1.0979	183.277	78.028	-10.179	120.645	151.759	162.872	235.870	71.814	64.536	38.633	234.149	-52.166	39.259	-49.637	184.328	23.491	0.00036118	0.0002447	8.3726e-05	159.96	6.6137e-06	6.9448e-06	267.54	56.661	5.9714e-06	5.488e-06	103.72	44.819	23.777	9.912	4.3599e-06	19.073	0.0030059	0.003438	0.00095985	211.29	3.6421e-05	3.7873e-05	306.6	68.653	3.6906e-05	3.7801e-05	131.96	51.965	32.877	11.923	3.7079e-05	22.069	113.328	98.544	-40.792	-110.365	124.585	44.896	-111.454	-104.827	-2.478	96.481	-106.503	-103.061	-102.470	-97.918	-26.264	-99.969	-8191	255	
2259.992	1	1	0	0	0.20942	0.2761	0.29473	0.17792	0.16509	0.42865	0.13363	0.11779	0.30925	0.06788	0.11723	0.35478	0.18621	0.042255	0.23848	0.30805	-1.5396	-1.1562	-1.2896	-1.9458	-1.0375	-1.8167	-1.7646	-0.87083	-1.9083	-1.4188	-1.2979	-1.85	-1.1729	-1.6375	-1.6583	-1.1083	216.642	-86.035	99.665	-99.446	-104.808	10.802	41.735	-71.353	47.585	5.051	-108.644	177.141	126.745	-97.781	15.689	83.682	7.2097e-05	0.0010128	0.00024103	163.65	3.9384e-06	9.4158e-06	268.19	56.845	7.4932e-06	1.3919e-06	105.51	45.822	23.623	9.7803	2.3069e-06	19.333	0.0029913	0.0034403	0.00095566	212.9	3.6533e-05	3.8628e-05	310.13	69.032	3.6873e-05	3.7731e-05	132.79	52.579	33.262	12.039	3.7024e-05	22.28	123.841	51.130	-101.181	-110.607	82.138	-93.579	-111.315	-104.993	-35.905	125.648	-107.073	-103.311	-102.759	-97.399	3.455	-99.841	-8191	255	
2260.088	1	1	0	0	0.053055	0.25357	0.1097	0.05503	0.1279	0.40135	0.09383	0.15019	0.089692	0.066816	0.15919	0.14703	0.17664	0.071905	0.13364	0.17098	-1.4167	-1.2375	-1.2708	-2.0583	-1.0125	-1.6104	-1.7292	-0.925	-1.6833	-1.6083	-1.2188	-1.8625	-1.1521	-1.4083	-1.8083	-1.0396	188.446	86.632	201.490	56.711	-10.299	189.537	137.872	211.522	164.889	236.855	21.687	-22.808	178.175	-101.392	136.260	226.098	6.8217e-05	0.00034407	0.00018291	165.16	1.4729e-05	9.0974e-06	270.49	57.094	6.9634e-06	1.0216e-05	105.78	45.177	23.44	9.7399	4.8451e-06	18.837	0.0029715	0.0034029	0.00094857	213.75	3.6354e-05	3.7913e-05	309.64	68.708	3.646e-05	3.7332e-05	132.65	52.241	32.746	11.805	3.6479e-05	21.882	126.131	81.616	-0.494	-109.875	58.949	49.678	-110.686	-104.377	-74.946	82.191	-106.839	-102.990	-101.971	-97.344	154.943	-99.687	-8191	255	
2260.209	1	1	0	0	0.30755	0.25588	0.22743	0.097489	0.22925	0.15498	0.23003	0.15656	0.13447	0.1193	0.34492	0.28434	0.15919	0.17784	0.2758	0.17818	-1.5146	-1.4333	-0.99583	-1.9542	-1.1792	-1.3979	-1.7667	-1.0354	-1.8729	-1.6125	-1.1854	-1.8625	-1.1812	-1.1542	-1.9208	-0.99167	129.418	53.498	-115.349	-87.613	189.080	79.978	-71.464	157.843	24.115	103.973	129.872	95.256	-78.977	211.457	222.148	180.148	0.00023507	0.0006601	0.00018394	162.07	3.4888e-06	2.4006e-06	268.92	56.195	7.5591e-06	4.6723e-06	104.82	45.039	23.679	9.6272	1.1006e-05	19.024	0.00295	0.0033354	0.00092195	211.67	3.5568e-05	3.7166e-05	308.43	68.187	3.6324e-05	3.734e-05	131.21	51.976	32.752	11.766	3.6292e-05	21.971	170.668	-110.616	-35.394	-110.385	-33.666	4.351	-111.325	-104.769	224.175	14.072	-106.705	-103.183	-102.449	-96.987	-44.069	-99.865	-8191	255	
2260.303	1	1	0	0	0.33669	0.38632	0.22874	0.18001	0.14097	0.090818	0.30124	0.17658	0.065846	0.1354	0.15806	0.089591	0.061592	0.016485	0.25609	0.19362	-1.2563	-1.6396	-1.175	-1.9229	-1.1042	-1.3146	-2.0604	-1.0938	-1.525	-1.6167	-1.1083	-1.8167	-1.2792	-1.1812	-1.9208	-0.89375	-1.483	-100.458	31.489	40.312	-26.514	129.533	49.874	-24.496	-39.276	-66.905	44.253	191.420	14.289	102.284	-45.526	166.153	0.00042225	0.0002334	0.00020133	163.76	1.4158e-06	8.4129e-06	266.82	56.581	2.5484e-06	7.0993e-06	104.01	44.665	23.402	9.7002	6.8891e-06	18.909	0.002948	0.0033463	0.00092777	211.61	3.5803e-05	3.7062e-05	306.05	67.984	3.5987e-05	3.7577e-05	130.94	51.792	32.635	11.809	3.684e-05	21.866	75.723	-24.832	-52.109	-110.635	-44.128	114.418	-111.481	-105.222	-53.848	-30.728	-106.980	-103.013	-102.350	-97.521	173.346	-99.983	-8191	255	
2260.399	1	1	0	0	0.10557	0.34416	0.16419	0.12373	0.12531	0.057089	0.13233	0.059367	0.12914	0.17542	0.12726	0.074459	0.05443	0.16766	0.19826	0.07035	-1.1354	-1.6917	-0.96458	-1.6792	-1.4604	-1.1333	-1.9917	-1.0583	-1.4625	-1.9292	-1.1	-1.5417	-1.4646	-0.96042	-1.7479	-1.3042	164.591	28.089	-89.904	43.221	142.256	8.454	-17.704	137.119	136.051	-33.506	-0.350	95.874	-74.178	-80.941	44.373	-15.256	0.00039149	0.00018152	6.9325e-05	162.13	7.9835e-06	9.6081e-06	266.88	56.487	1.5056e-05	5.5438e-06	104.02	45.187	23.807	9.7944	6.3213e-06	19.213	0.0029259	0.003364	0.00092015	210.11	3.6139e-05	3.7017e-05	305.73	68.271	3.5945e-05	3.7063e-05	130.78	51.748	32.816	11.906	3.6569e-05	22.134	110.560	84.972	22.030	-109.754	63.196	71.524	-110.998	-104.350	71.993	-57.795	-107.355	-103.252	-102.453	-97.546	31.692	-99.958	-8191	255	
2260.496	1	1	0	0	0.13614	0.12693	0.28403	0.28052	0.15919	0.058681	0.19165	0.1097	0.12422	0.03722	0.1688	0.10528	0.2501	0.14483	0.15378	0.060068	-1.0042	-1.9521	-1.0042	-1.6604	-1.4646	-0.97292	-1.8271	-1.1625	-1.3687	-1.8312	-1.2333	-1.7542	-1.6292	-0.96042	-1.7833	-1.1479	200.327	-31.230	110.949	209.867	95.984	12.243	48.998	-109.543	127.864	-97.355	-111.283	209.202	0.341	53.881	-34.038	201.746	0.00041758	0.0005793	0.00028909	164.4	9.9515e-06	7.3259e-06	268.94	56.11	6.9961e-06	6.0968e-06	106.28	45.561	23.782	9.8323	7.0107e-06	19.374	0.002912	0.0033697	0.00093079	212.26	3.5967e-05	3.6749e-05	309.28	68.638	3.6053e-05	3.7629e-05	131.87	52.354	32.985	11.981	3.6616e-05	22.371	114.486	-46.018	234.228	-110.864	17.945	98.310	-111.515	-105.345	-6.582	-83.253	-107.323	-102.938	-102.503	-97.503	171.552	-100.058	-8191	255	
#DATA ENDS
