BOXY.EXE: ISS Imagent and Oximeter Data Acquisition Program Version 0.80
Ascii Record File

#ACQ INFORMATION
2  Detector Channels 
16  External MUX Channels 
1  Auxiliary Channels 
5000  Waveform (CCF) Frequency (Hz)
1  Waveforms Skipped 
30  Waveforms Averaged 
1  Cycles Averaged 
16  Acquisitions per Waveform 
10.0806  Updata Rate (Hz) 

#FILE INFORMATION
TRUE -- External MUX Channel results are PARSED.
FALSE -- AC DC and Phase are NOT grouped.
TRUE -- Companion Program Settings File CREATED.
FALSE -- AC data not excluded
FALSE -- DC data not excluded
FALSE -- Phase data not excluded
FALSE -- Auxillary Chn. data not excluded
Tab delimiters

#CALIBRATION STATE
TRUE -- Waveform Calibration Values APPLIED.


#AUX CALIBRATION VALUES
Val Type	aux-1	

Term	1.0000e+00	
Factor	0.0000e+00	


#WF CALIBRATION VALUES
A = Detector Channel
Val Type	A-AC1	A-AC2	A-AC3	A-AC4	A-AC5	A-AC6	A-AC7	A-AC8	A-AC9	A-AC10	A-AC11	A-AC12	A-AC13	A-AC14	A-AC15	A-AC16	A-DC1	A-DC2	A-DC3	A-DC4	A-DC5	A-DC6	A-DC7	A-DC8	A-DC9	A-DC10	A-DC11	A-DC12	A-DC13	A-DC14	A-DC15	A-DC16	A-Ph1	A-Ph2	A-Ph3	A-Ph4	A-Ph5	A-Ph6	A-Ph7	A-Ph8	A-Ph9	A-Ph10	A-Ph11	A-Ph12	A-Ph13	A-Ph14	A-Ph15	A-Ph16	

Term	0.00000e+00	0.00000e+00	0.00000e+00	0.00000e+00	0.00000e+00	0.00000e+00	0.00000e+00	0.00000e+00	0.00000e+00	0.00000e+00	0.00000e+00	0.00000e+00	0.00000e+00	0.00000e+00	0.00000e+00	0.00000e+00	0.00000e+00	0.00000e+00	0.00000e+00	0.00000e+00	0.00000e+00	0.00000e+00	0.00000e+00	0.00000e+00	0.00000e+00	0.00000e+00	0.00000e+00	0.00000e+00	0.00000e+00	0.00000e+00	0.00000e+00	0.00000e+00	0.00000e+00	0.00000e+00	0.00000e+00	0.00000e+00	0.00000e+00	0.00000e+00	0.00000e+00	0.00000e+00	0.00000e+00	0.00000e+00	0.00000e+00	0.00000e+00	0.00000e+00	0.00000e+00	0.00000e+00	0.00000e+00	
Factor	1.00000e+00	1.00000e+00	1.00000e+00	1.00000e+00	1.00000e+00	1.00000e+00	1.00000e+00	1.00000e+00	1.00000e+00	1.00000e+00	1.00000e+00	1.00000e+00	1.00000e+00	1.00000e+00	1.00000e+00	1.00000e+00	1.00000e+00	1.00000e+00	1.00000e+00	1.00000e+00	1.00000e+00	1.00000e+00	1.00000e+00	1.00000e+00	1.00000e+00	1.00000e+00	1.00000e+00	1.00000e+00	1.00000e+00	1.00000e+00	1.00000e+00	1.00000e+00	X	X	X	X	X	X	X	X	X	X	X	X	X	X	X	X	

B = Detector Channel
Val Type	B-AC1	B-AC2	B-AC3	B-AC4	B-AC5	B-AC6	B-AC7	B-AC8	B-AC9	B-AC10	B-AC11	B-AC12	B-AC13	B-AC14	B-AC15	B-AC16	B-DC1	B-DC2	B-DC3	B-DC4	B-DC5	B-DC6	B-DC7	B-DC8	B-DC9	B-DC10	B-DC11	B-DC12	B-DC13	B-DC14	B-DC15	B-DC16	B-Ph1	B-Ph2	B-Ph3	B-Ph4	B-Ph5	B-Ph6	B-Ph7	B-Ph8	B-Ph9	B-Ph10	B-Ph11	B-Ph12	B-Ph13	B-Ph14	B-Ph15	B-Ph16	

Term	0.00000e+00	0.00000e+00	0.00000e+00	0.00000e+00	0.00000e+00	0.00000e+00	0.00000e+00	0.00000e+00	0.00000e+00	0.00000e+00	0.00000e+00	0.00000e+00	0.00000e+00	0.00000e+00	0.00000e+00	0.00000e+00	0.00000e+00	0.00000e+00	0.00000e+00	0.00000e+00	0.00000e+00	0.00000e+00	0.00000e+00	0.00000e+00	0.00000e+00	0.00000e+00	0.00000e+00	0.00000e+00	0.00000e+00	0.00000e+00	0.00000e+00	0.00000e+00	-2.13723e+02	-1.41593e+02	-1.27316e+02	-1.82794e+02	-7.62647e+01	-6.59945e+01	-1.59761e+02	-1.62015e+02	-7.53054e+01	-7.44318e+01	-1.73616e+02	-1.70170e+02	-1.81260e+02	-1.77206e+02	-7.31111e+01	-1.49760e+02	
Factor	4.16295e-05	1.17231e-04	3.50628e-05	1.64734e-01	1.28751e-06	1.54204e-06	1.47184e-01	4.12149e-02	1.81911e-06	1.33572e-06	9.52221e-02	2.38390e-02	3.04876e-02	7.01546e-03	1.41733e-06	9.91543e-03	5.25627e-06	6.12416e-06	1.70953e-06	9.15001e-02	6.56472e-08	6.77175e-08	7.64599e-02	2.29259e-02	6.50200e-08	6.78082e-08	5.11528e-02	1.28320e-02	1.70617e-02	3.94400e-03	6.63377e-08	5.38573e-03	X	X	X	X	X	X	X	X	X	X	X	X	X	X	X	X	



#DISTANCE SETTINGS
A = Detector Channel
A-1	A-2	A-3	A-4	A-5	A-6	A-7	A-8	A-9	A-10	A-11	A-12	A-13	A-14	A-15	A-16	

2.5000e+00	3.0000e+00	2.5000e+00	3.0000e+00	2.0000e+00	3.0000e+00	1.5000e+00	3.0000e+00	3.0000e+00	3.0000e+00	3.0000e+00	3.0000e+00	3.0000e+00	3.0000e+00	1.5000e+00	3.0000e+00	

B = Detector Channel
B-1	B-2	B-3	B-4	B-5	B-6	B-7	B-8	B-9	B-10	B-11	B-12	B-13	B-14	B-15	B-16	

1.0000e+01	1.0000e+01	1.0000e+01	1.4400e+00	1.0000e+01	1.0000e+01	1.5100e+00	1.9400e+00	1.0000e+01	1.0000e+01	1.9900e+00	2.4900e+00	2.4100e+00	2.9000e+00	1.0000e+01	2.9800e+00	




#DATA BEGINS
time	group	step	mark	flag	A-AC1	A-AC2	A-AC3	A-AC4	A-AC5	A-AC6	A-AC7	A-AC8	A-AC9	A-AC10	A-AC11	A-AC12	A-AC13	A-AC14	A-AC15	A-AC16	A-DC1	A-DC2	A-DC3	A-DC4	A-DC5	A-DC6	A-DC7	A-DC8	A-DC9	A-DC10	A-DC11	A-DC12	A-DC13	A-DC14	A-DC15	A-DC16	A-Ph1	A-Ph2	A-Ph3	A-Ph4	A-Ph5	A-Ph6	A-Ph7	A-Ph8	A-Ph9	A-Ph10	A-Ph11	A-Ph12	A-Ph13	A-Ph14	A-Ph15	A-Ph16	B-AC1	B-AC2	B-AC3	B-AC4	B-AC5	B-AC6	B-AC7	B-AC8	B-AC9	B-AC10	B-AC11	B-AC12	B-AC13	B-AC14	B-AC15	B-AC16	B-DC1	B-DC2	B-DC3	B-DC4	B-DC5	B-DC6	B-DC7	B-DC8	B-DC9	B-DC10	B-DC11	B-DC12	B-DC13	B-DC14	B-DC15	B-DC16	B-Ph1	B-Ph2	B-Ph3	B-Ph4	B-Ph5	B-Ph6	B-Ph7	B-Ph8	B-Ph9	B-Ph10	B-Ph11	B-Ph12	B-Ph13	B-Ph14	B-Ph15	B-Ph16	aux-1	digaux	

1902.201	1	1	0	768	0.095698	0.16734	0.14208	0.37851	0.28889	0.23532	0.12571	0.18153	0.14142	0.17615	0.23017	0.18041	0.15899	0.2913	0.038936	0.29476	-1.775	-1.5646	-2.3187	-1.9188	-1.675	-2.4208	-1.7062	-2.0812	-2.0583	-1.4125	-2.3021	-1.8396	-1.6562	-2.3854	-1.7792	-1.9438	-58.070	272.427	-30.295	227.676	100.999	86.645	-78.748	27.648	-52.534	14.416	130.761	183.067	-21.508	-65.219	80.349	256.917	0.00059946	0.0023639	0.00067139	373.31	1.5145e-05	2.9509e-05	718.91	103.43	3.3401e-05	1.4171e-05	189.19	62.601	35.862	12.653	9.8871e-06	23.717	0.057107	0.066629	0.018886	1385.6	0.00072612	0.00075428	1584.5	365.8	0.00073763	0.00076973	787.29	215.36	239.47	60.606	0.00080036	91.035	61.041	70.955	-29.386	-70.974	143.095	65.690	-72.857	-66.629	246.489	7.011	-68.740	-63.766	-63.115	-57.579	154.119	-59.767	-8191	255	
1902.297	1	1	0	0	0.19661	0.15843	0.21953	0.2853	0.071348	0.28996	0.14038	0.066713	0.12409	0.41271	0.19975	0.12342	0.20835	0.095603	0.02722	0.20747	-1.7146	-1.4896	-2.3688	-1.9771	-1.7833	-2.4354	-1.8625	-2.1167	-2.2271	-1.5708	-2.3146	-2.0896	-1.7958	-2.3688	-1.5229	-1.7563	162.483	-50.253	42.590	111.482	209.264	126.191	179.496	247.547	-32.931	168.577	13.053	208.082	218.281	-48.999	26.165	248.409	0.0011689	0.0023381	0.00091604	407.52	3.0683e-05	3.0756e-05	756.3	108.79	2.5062e-05	1.7044e-05	197.27	63.908	36.177	12.052	1.6821e-05	22.976	0.064832	0.07523	0.021221	1540.3	0.00080783	0.00083709	1711.9	391.54	0.00078913	0.00081823	826.29	221.62	244.04	61.076	0.00081546	91.03	-55.408	147.862	18.974	-72.283	-50.158	121.740	-72.790	-66.309	265.260	157.213	-69.591	-64.781	-63.959	-57.283	157.164	-59.157	-8191	255	
1902.394	1	1	0	0	0.098852	0.11915	0.12438	0.16425	0.12247	0.076826	0.25301	0.2295	0.18961	0.061474	0.20608	0.11944	0.22278	0.28264	0.28746	0.10906	-1.9833	-1.3312	-2.1354	-2.2833	-1.5854	-2.6104	-1.8021	-2.0042	-2.3438	-1.6938	-2.2396	-1.9771	-1.6208	-2.6	-1.6542	-1.8	-14.375	48.434	198.637	105.965	-80.108	268.835	202.184	202.772	3.073	120.054	164.317	8.403	178.043	272.849	52.415	-39.305	0.00028761	0.0011073	0.0008414	449.44	2.0691e-05	2.8968e-06	799.96	115.64	3.8965e-05	1.8132e-05	207.61	65.083	36.166	11.665	2.1898e-05	22.252	0.065329	0.075251	0.021272	1599.3	0.00081586	0.00085371	1793	412.09	0.00083726	0.00087262	882.07	234.02	259.44	63.976	0.00086886	94.323	88.071	101.729	91.689	-72.094	-26.682	199.673	-72.999	-66.760	98.481	-49.500	-68.535	-65.114	-64.301	-58.305	229.420	-60.004	-8191	255	
1902.490	1	1	0	0	0.13912	0.18518	0.14668	0.30098	0.18333	0.073363	0.18587	0.1241	0.016705	0.044996	0.2271	0.03197	0.22516	0.28433	0.037526	0.090427	-2.0229	-1.4271	-2.0292	-2.275	-1.5771	-2.3812	-1.9604	-1.6917	-2.3833	-1.5792	-2.1292	-2.025	-1.3833	-2.3937	-1.9104	-1.7104	256.692	118.053	23.141	193.969	125.823	57.590	-40.003	169.546	89.706	19.177	234.237	99.705	244.960	121.434	24.892	94.195	0.00038851	0.0038932	0.00077882	490.91	2.2242e-05	2.3964e-05	805.87	118.52	6.069e-05	4.9705e-05	205.35	62.249	37.472	11.247	7.392e-06	21.68	0.069634	0.080474	0.022746	1713.4	0.00086521	0.00090083	1843	427.37	0.00086834	0.00089955	900	238.24	267.86	66.046	0.00091599	97.263	170.843	-18.144	211.138	-71.616	54.930	61.632	-72.874	-67.355	36.472	201.191	-69.278	-65.013	-62.990	-56.738	32.248	-60.408	-8191	255	
1902.586	1	1	0	0	0.2145	0.12252	0.24507	0.30297	0.39498	0.11543	0.16011	0.15707	0.18074	0.11601	0.17812	0.22795	0.22617	0.33369	0.14762	0.16004	-2.0542	-1.6021	-1.9542	-2.2229	-1.3646	-2.3146	-2.0896	-1.7062	-2.4604	-1.775	-2.1854	-2.4417	-1.7917	-2.2687	-2.0479	-1.6333	21.573	178.899	191.620	192.057	-5.800	-26.366	227.379	146.195	235.353	226.020	-26.281	-71.804	173.774	-54.541	-30.764	-28.247	0.0010888	0.0010444	0.00043008	481.19	1.3328e-05	2.7627e-05	762.46	110.46	2.5067e-05	5.8914e-06	191.5	59.585	35.42	10.383	1.0779e-05	19.201	0.074022	0.086265	0.024498	1805.8	0.0009371	0.00098157	1892.3	446.05	0.00094563	0.00098429	945.72	249.82	286.43	69.729	0.00099225	100.47	216.854	170.500	8.982	-72.028	102.620	81.084	-73.467	-67.165	180.085	143.941	-70.510	-65.313	-63.042	-57.808	239.810	-60.334	-8191	255	
1902.682	1	1	0	0	0.19557	0.18238	0.072131	0.03315	0.16771	0.24167	0.22023	0.20037	0.10857	0.13744	0.10768	0.33356	0.13313	0.1715	0.11837	0.28467	-2.1792	-1.6479	-1.9	-2.4667	-1.5417	-2.1937	-2.2438	-1.45	-2.4042	-1.85	-1.9958	-2.4667	-1.8125	-2.1188	-2.3542	-1.65	-69.098	120.743	-80.742	-78.487	226.294	226.199	264.051	263.031	-14.876	102.287	42.678	193.309	123.390	197.561	52.094	265.193	0.0012809	0.0023286	0.0006119	474.21	2.7779e-05	2.3155e-05	749.21	111.3	6.0014e-05	4.1392e-06	184.94	57.702	33.461	9.9085	8.8801e-05	18.51	0.078981	0.091655	0.02571	1866.3	0.00097728	0.0010237	1926.7	457.11	0.00097984	0.0010244	967.74	253.9	292.1	70.63	0.0010127	101.45	40.953	-68.454	-34.379	-71.731	210.524	-4.601	-73.256	-68.329	-32.125	170.062	-70.469	-65.171	-64.157	-58.254	79.316	-62.132	-8191	255	
1902.801	1	1	0	0	0.070866	0.070766	0.10001	0.12423	0.080044	0.2884	0.083363	0.1565	0.16916	0.16424	0.18063	0.27271	0.3446	0.082599	0.11267	0.10853	-2.0771	-1.8917	-1.9146	-2.6146	-1.6313	-2.1188	-2.5104	-1.5896	-2.3396	-2.1437	-1.925	-2.4854	-1.6375	-2.0062	-2.3771	-1.7104	-32.637	-71.925	0.637	242.219	178.278	13.309	129.845	-43.532	69.370	251.016	-27.037	-79.387	-59.952	48.139	-21.582	195.267	0.0006241	0.0015968	0.0018659	478.2	9.899e-06	3.6739e-05	744.42	108.27	4.5979e-05	2.8463e-05	179.74	55.889	33.462	9.8932	5.0745e-05	18.262	0.081113	0.094593	0.026502	1920.8	0.0010177	0.0010656	1974.2	470.66	0.001025	0.0010663	994.96	261.3	304.18	73.338	0.0010631	105.01	133.534	76.770	21.474	-72.959	265.009	-84.169	-73.380	-67.928	78.070	91.278	-69.883	-66.163	-63.689	-59.288	1.716	-61.986	-8191	255	
1902.897	1	1	0	0	0.1571	0.26939	0.071815	0.1965	0.085121	0.029105	0.059618	0.10901	0.060448	0.10828	0.12749	0.16932	0.39611	0.16581	0.19785	0.47418	-2.0563	-1.9708	-1.5417	-2.5125	-1.9542	-2.0938	-2.6188	-1.6417	-2.3958	-2.2958	-1.7437	-2.5854	-1.7292	-2.0729	-2.4271	-1.6354	259.314	97.384	119.908	125.642	200.395	121.072	97.191	110.171	-76.818	234.315	251.723	171.014	220.007	240.305	234.361	-53.563	0.0017156	0.0031563	0.00044044	478.9	1.469e-05	6.5114e-05	735.63	107.87	2.9843e-05	2.6948e-05	178.01	56.821	33.664	10.059	2.362e-05	18.016	0.085213	0.099278	0.027778	1988.6	0.0010705	0.001115	2015.2	484	0.0010655	0.0011065	1013.5	267.86	312.09	74.927	0.001083	106.6	25.914	102.070	122.018	-72.908	254.419	26.670	-73.896	-68.281	89.118	211.591	-71.302	-65.836	-64.750	-58.636	178.682	-60.729	-8191	255	
1902.993	1	1	0	0	0.33179	0.1814	0.050505	0.11795	0.044865	0.11555	0.1831	0.18966	0.11116	0.24531	0.027876	0.19397	0.1742	0.054209	0.19907	0.11003	-1.8521	-2.2292	-1.6396	-2.5021	-1.7812	-2.0083	-2.7562	-1.6125	-2.4458	-2.1479	-1.8125	-2.4437	-1.9562	-1.875	-2.3833	-1.5521	-77.730	221.472	-8.432	151.823	150.379	7.531	125.621	-55.634	-11.288	191.268	22.037	168.619	193.698	33.858	210.026	160.862	0.0011743	0.0025731	0.0012599	479.64	2.4137e-05	8.6591e-06	741.66	109.7	5.2959e-05	2.0241e-05	182.16	56.784	34.117	10.474	1.4997e-05	19.082	0.085907	0.099336	0.027499	1964.5	0.0010447	0.0010746	1963.6	467.7	0.0010076	0.0010369	955.4	251.67	288.48	68.704	0.00096255	96.476	109.211	-55.174	221.800	-72.203	190.244	225.575	-73.953	-68.564	14.717	256.336	-70.260	-65.668	-64.968	-58.429	163.946	-60.785	-8191	255	
1903.089	1	1	0	0	0.059604	0.06066	0.030203	0.043677	0.23528	0.39789	0.037619	0.13285	0.31498	0.066884	0.15134	0.23654	0.1131	0.081624	0.026275	0.22548	-1.8	-2.2396	-1.5646	-2.4479	-1.9708	-1.5208	-2.5979	-1.6063	-2.1604	-2.5104	-1.4625	-2.1792	-1.9771	-1.8604	-2.3187	-1.6583	240.636	112.499	163.386	97.155	95.143	269.950	-64.092	-47.293	147.925	-2.878	193.017	-15.505	30.814	147.755	244.015	219.937	0.00093929	0.0025153	0.00029373	480.46	5.0361e-05	1.2215e-05	739.88	112.17	1.941e-05	1.1707e-05	184.21	58.299	35.32	11.075	1.6368e-05	20.164	0.073925	0.084182	0.022938	1711.5	0.00085791	0.0008727	1737.1	403.01	0.0008173	0.00085038	821.53	221.06	248.46	60.392	0.00082024	86.965	23.084	143.589	271.889	-72.091	218.631	97.417	-73.597	-68.245	-60.704	30.472	-70.453	-65.304	-63.539	-58.002	-68.614	-61.468	-8191	255	
1903.186	1	1	0	0	0.2404	0.17783	0.14155	0.19053	0.22058	0.09487	0.12845	0.20878	0.20911	0.28845	0.25599	0.2318	0.14426	0.07928	0.15818	0.14395	-1.6667	-2.2104	-1.3958	-2.2542	-1.8563	-1.2271	-2.5104	-1.7729	-1.7542	-2.3167	-1.5521	-2.4708	-2.1542	-1.7833	-2.1813	-1.7188	138.537	207.894	57.109	199.893	133.396	-83.605	216.699	17.117	243.343	214.107	220.609	140.826	14.154	86.509	-61.713	218.477	0.00089621	0.0026808	0.00099814	478.23	1.9284e-05	4.3664e-05	733.29	113.52	5.7047e-06	2.4516e-05	185.4	58.352	35.369	11.248	1.8405e-05	20.604	0.064007	0.073411	0.020084	1561.3	0.00074994	0.0007585	1604.5	366.49	0.00070383	0.00072431	725.4	195.43	214.09	52.302	0.00068257	76.296	219.835	235.388	273.999	-71.768	272.244	217.156	-74.096	-67.180	205.610	-82.531	-69.281	-66.162	-64.605	-59.286	-78.088	-61.058	-8191	255	
1903.282	1	1	0	0	0.069413	0.16325	0.21928	0.17107	0.13548	0.23237	0.39126	0.087612	0.11896	0.12911	0.055996	0.056823	0.13828	0.14812	0.26169	0.16482	-1.4667	-2.425	-1.6896	-2.0979	-2.2438	-1.6875	-2.4521	-1.8188	-1.6042	-2.4396	-1.6833	-2.1542	-2.3792	-1.5167	-2.2792	-2.1437	31.833	-15.666	182.324	271.156	5.872	128.687	140.335	172.728	98.124	83.782	-40.908	-40.447	127.072	211.263	268.861	195.908	0.00071305	0.0015578	0.00016718	482.77	9.676e-06	5.4823e-05	737.44	112.03	1.951e-05	2.6225e-05	184.4	59.042	35.788	11.491	1.2905e-05	20.775	0.053466	0.062095	0.017264	1421.1	0.0006669	0.00068385	1537.9	352.13	0.00067258	0.00070607	720.89	195.92	215.71	53.249	0.00070102	78.459	203.948	266.714	192.831	-72.285	-12.295	192.721	-73.429	-67.650	-5.277	9.869	-69.906	-64.929	-64.327	-57.720	-5.141	-60.965	-8191	255	
1903.402	1	1	0	0	0.031732	0.082657	0.1221	0.1168	0.058513	0.13827	0.040334	0.12252	0.12145	0.28536	0.19618	0.049247	0.10921	0.071713	0.23206	0.16952	-1.375	-2.4	-1.6708	-2.0667	-2.2625	-1.6333	-2.4292	-1.85	-1.6958	-2.3271	-1.5979	-2.1312	-2.475	-1.8146	-2.1458	-2.1604	159.397	171.436	198.489	-42.319	-70.537	24.434	138.303	62.878	90.869	-37.122	4.559	156.496	87.476	-25.053	-63.003	150.414	0.00052217	0.0025491	0.00011243	475.3	1.8498e-05	2.9538e-05	734.52	113.51	4.5337e-05	2.3336e-05	184.77	59.619	36.373	11.703	1.9434e-05	21.19	0.055233	0.06488	0.017986	1460.5	0.00068966	0.00070745	1564.8	356.92	0.00067928	0.00071058	721.58	195.47	213.51	52.584	0.0006867	77.478	149.568	71.853	59.780	-72.698	-36.656	157.199	-73.114	-67.357	17.413	115.906	-69.754	-65.000	-63.085	-58.852	256.848	-60.770	-8191	255	
1903.498	1	1	0	0	0.20564	0.098131	0.15599	0.17038	0.03165	0.13409	0.1928	0.18705	0.075498	0.14241	0.26184	0.2023	0.1528	0.1154	0.10685	0.049014	-1.1646	-2.525	-1.6313	-1.9583	-2.3438	-1.5438	-2.3063	-2.1479	-1.4208	-2.4208	-1.8896	-1.6458	-2.4458	-1.5938	-2.2083	-2.2521	-65.376	21.291	146.995	-67.475	211.850	117.473	242.916	181.801	195.341	-9.381	-13.349	255.885	199.383	-22.829	93.986	249.545	0.0010835	0.0022316	0.00050367	479.05	2.6445e-05	9.4796e-06	733.46	115.2	3.2655e-05	3.2679e-05	186.99	60.368	36.182	12.108	2.1015e-06	21.971	0.053768	0.063079	0.017485	1425.8	0.00066734	0.00068379	1528.7	348.21	0.00064844	0.00067994	699.43	189.04	204.95	50.767	0.00064386	74.498	247.260	212.912	173.875	-71.511	-84.315	-3.457	-73.629	-67.173	218.026	14.066	-69.128	-65.322	-63.113	-58.088	41.140	-59.472	-8191	255	
1903.593	1	1	0	0	0.48598	0.1378	0.078793	0.34103	0.099686	0.052502	0.11191	0.24657	0.057641	0.061244	0.26275	0.28849	0.11061	0.30335	0.16951	0.13465	-1.1271	-2.4583	-1.9104	-1.9937	-2.5083	-1.6437	-2.2146	-2.3125	-1.4354	-2.2313	-1.8687	-1.7375	-2.4437	-1.7104	-1.8937	-2.2771	189.562	112.444	209.520	232.481	99.039	174.888	234.186	242.819	16.559	-21.127	122.787	180.958	246.634	-54.734	256.417	144.812	0.00064338	0.0017429	0.00030243	474.45	1.611e-05	4.4014e-05	735.3	115.76	2.8591e-05	1.0828e-05	190.16	61.52	36.934	12.71	2.5957e-05	23.482	0.049791	0.05864	0.016135	1345.2	0.00061088	0.00062467	1455.5	327.49	0.00058697	0.00061934	654.65	178.88	192.03	48.646	0.0005971	72.13	112.829	5.518	-14.554	-71.397	99.007	250.268	-72.935	-67.196	170.170	2.632	-69.400	-65.093	-63.590	-58.748	142.619	-60.606	-8191	255	
1903.689	1	1	0	0	0.13908	0.09645	0.081362	0.35714	0.29745	0.2751	0.18049	0.18375	0.26366	0.16588	0.37976	0.042987	0.27284	0.13363	0.047693	0.13003	-0.97708	-2.0187	-2.0292	-1.6458	-2.4104	-1.575	-2.1417	-2.3771	-1.4312	-2.1333	-1.9021	-1.5979	-2.3646	-1.6667	-1.7375	-2.2687	-57.648	51.921	251.382	233.067	143.636	227.264	221.718	119.107	149.655	-28.791	137.327	73.310	261.532	195.554	163.431	123.204	0.00067179	0.0023082	0.00027691	478.33	5.6877e-06	3.8038e-05	736.45	116.65	2.4449e-05	3.9401e-05	192.71	63.948	38.729	13.16	1.3743e-05	24.056	0.046858	0.055363	0.015331	1303.9	0.00059214	0.00060947	1442.3	326.24	0.00058236	0.00061767	658.44	181.24	194.72	49.366	0.00060551	73.96	81.197	-74.651	200.257	-71.627	157.633	50.150	-72.786	-66.779	150.464	138.650	-69.842	-65.653	-61.892	-58.127	62.296	-60.458	-8191	255	
1903.762	1	1	0	0	0.23814	0.28241	0.17274	0.20984	0.31342	0.23721	0.26048	0.38415	0.064791	0.17046	0.09444	0.14026	0.25162	0.18614	0.19839	0.081039	-1.0083	-2.275	-2.0875	-1.6479	-2.2917	-1.7083	-2.0563	-2.4708	-1.4708	-2.3833	-2.2771	-1.5812	-2.4292	-1.8083	-1.7188	-2.4396	269.845	155.685	60.361	205.366	239.201	86.664	-68.177	178.889	220.193	-44.703	152.484	-53.457	55.646	84.653	110.603	184.024	0.0006972	0.0030092	0.0007215	474.63	2.7278e-05	1.4896e-05	741.66	116.69	1.8543e-05	1.7144e-05	192.54	65.298	38.479	12.91	2.1277e-05	23.892	0.048133	0.05685	0.015846	1328.5	0.0006129	0.00063132	1476.1	336.4	0.00061339	0.00065192	688.95	189.4	205.57	51.853	0.00064418	77.568	100.675	-6.161	-77.702	-71.468	48.866	43.983	-73.137	-67.178	153.255	84.600	-69.264	-64.319	-61.990	-57.491	84.722	-60.674	-8191	255	
1903.881	1	1	0	0	0.27348	0.054143	0.2089	0.031811	0.21989	0.08775	0.34437	0.30429	0.12675	0.16126	0.26334	0.078944	0.14076	0.040766	0.1625	0.2968	-1.1375	-2.0396	-2.1354	-1.3833	-2.2958	-1.8083	-1.8229	-2.3688	-1.6562	-2.0062	-2.3375	-1.6229	-2.3521	-2.1063	-1.3417	-2.5312	192.033	20.872	61.456	172.254	5.181	7.320	243.293	198.934	180.848	185.265	103.905	-41.533	38.416	-72.784	27.997	193.336	0.00040476	0.0034314	0.00026318	476.34	3.0791e-05	2.3657e-05	742.51	117.31	3.3137e-05	1.3234e-05	191.98	62.982	37.569	12.375	5.275e-05	22.01	0.051385	0.060473	0.016851	1387.2	0.0006556	0.00067358	1519.1	350.38	0.00065099	0.00068784	714.08	193.9	213.25	52.963	0.00067483	78.579	63.437	-58.289	268.382	-72.146	58.904	17.101	-73.101	-67.229	182.469	-24.227	-70.135	-65.577	-63.077	-59.421	-15.224	-62.122	-8191	255	
1903.977	1	1	0	0	0.31748	0.25751	0.23749	0.047013	0.1485	0.15984	0.45488	0.22163	0.11349	0.31492	0.11371	0.25555	0.23011	0.12337	0.057965	0.12253	-1.1042	-1.9375	-2.2438	-1.6583	-2.3812	-2.1063	-1.8104	-2.5396	-1.6042	-1.9271	-2.3771	-1.5063	-2.2375	-2.0938	-1.5375	-2.5938	123.646	-53.855	-8.441	141.313	54.952	94.676	211.388	-73.323	74.771	141.833	2.569	-24.382	-55.810	251.955	90.496	47.378	0.0013694	0.0037368	0.00095745	471.43	2.3885e-05	1.4507e-05	741.8	115.04	3.3905e-05	3.5577e-05	192.14	61.137	36.309	11.725	4.5315e-05	21.378	0.0539	0.06316	0.017599	1426.1	0.0006862	0.00070686	1552.8	360.52	0.00068434	0.00071965	738.84	198.97	221.08	54.23	0.00070664	80.407	162.300	219.524	53.495	-72.567	-0.424	159.173	-73.478	-67.749	22.283	93.868	-69.472	-65.742	-63.025	-59.466	81.963	-60.633	-8191	255	
1904.074	1	1	0	0	0.18749	0.24438	0.24971	0.14565	0.064157	0.08145	0.37212	0.16316	0.18807	0.09924	0.12578	0.10271	0.28032	0.069995	0.35942	0.23677	-1.4021	-1.8188	-2.3375	-1.8458	-2.2021	-2.2667	-1.5542	-2.4271	-1.8229	-1.7104	-2.2583	-1.675	-2.0625	-2.1562	-1.4333	-2.4292	222.317	198.410	238.930	229.473	221.524	92.384	224.959	206.949	-50.098	-7.895	24.656	62.017	-81.250	-56.531	181.362	251.295	0.00079535	0.0017892	0.00075431	473.59	1.1197e-05	2.3727e-05	735.34	115.2	9.3655e-06	2.4376e-05	190.88	60.121	36.378	11.107	3.6493e-05	20.597	0.056495	0.066144	0.018517	1474.5	0.00071941	0.0007384	1588.2	372.93	0.0007166	0.00075179	767.24	206.38	231.25	56.338	0.00075593	84.029	-47.239	273.043	98.512	-71.812	-64.482	39.205	-73.800	-68.637	230.068	-25.153	-69.389	-66.422	-65.383	-58.452	186.198	-60.341	-8191	255	
1904.170	1	1	0	0	0.32276	0.30848	0.20778	0.28943	0.09317	0.35484	0.365	0.3594	0.23058	0.14787	0.18931	0.036333	0.11172	0.23347	0.25508	0.20168	-1.5187	-1.5875	-2.2604	-1.5854	-1.9542	-2.3771	-1.525	-2.1937	-1.9688	-1.6313	-2.4917	-1.9042	-1.9833	-2.3708	-1.4937	-2.175	157.181	84.943	-48.208	-45.010	261.188	199.616	171.943	202.156	234.764	245.728	140.455	-10.138	-23.655	-72.824	21.881	220.245	0.00054149	0.0019369	0.00063233	460.18	2.9383e-05	3.2068e-05	733.04	111.39	6.9607e-05	1.1825e-05	186.84	58.776	35.523	11.032	3.7638e-05	20.373	0.060986	0.070882	0.020046	1546.1	0.00077437	0.00079748	1649	390.06	0.00077123	0.00080221	801.11	213.7	240.38	58.329	0.00078489	86.172	77.115	43.290	107.401	-72.508	46.944	216.829	-73.951	-68.629	205.625	251.394	-70.902	-66.213	-63.980	-58.335	153.768	-60.543	-8191	255	
1904.290	1	1	0	0	0.29531	0.14679	0.19782	0.29528	0.31883	0.20172	0.20098	0.25887	0.029963	0.1901	0.015318	0.21174	0.26135	0.15737	0.25089	0.13071	-1.6208	-1.475	-2.2979	-1.7292	-1.8104	-2.3271	-1.6396	-2.1708	-2.0292	-1.5583	-2.3563	-1.8479	-1.9	-2.3375	-1.5021	-2.2	127.907	-46.434	103.703	151.275	-76.410	-13.305	-41.018	175.648	258.433	247.274	94.072	-41.304	-62.182	39.084	145.894	60.025	0.0010937	0.0019429	0.00045692	461.89	1.9232e-05	8.0704e-06	727.35	114.23	3.255e-05	2.5338e-05	187.71	60.702	35.779	11.556	3.5109e-05	21.972	0.06271	0.072894	0.020648	1574.3	0.0007978	0.00082734	1682.1	399.42	0.00079333	0.00082149	816.05	216.75	240.99	58.771	0.00077479	85.781	189.818	61.015	145.483	-72.449	269.926	180.177	-74.051	-67.913	139.842	170.466	-69.670	-65.802	-64.943	-59.660	-5.013	-60.642	-8191	255	
1904.362	1	1	0	0	0.052386	0.27654	0.15391	0.35023	0.23777	0.21542	0.12806	0.14289	0.24122	0.10811	0.15474	0.066727	0.26335	0.25977	0.22029	0.070928	-1.6562	-1.4521	-2.3458	-1.7833	-1.6417	-2.5021	-1.6333	-2.0396	-2.3271	-1.4042	-2.3583	-1.8729	-1.7708	-2.4479	-1.4146	-2.0646	95.676	77.230	171.240	90.960	-45.201	-45.954	240.935	205.787	69.459	-29.576	254.969	181.248	167.931	236.861	21.253	-49.891	0.00034123	0.0034551	0.00077609	454.89	2.8974e-05	2.8141e-05	721.66	112.58	4.6123e-05	9.5862e-06	190.64	63.423	37.53	12.861	3.0745e-05	24.211	0.060321	0.069319	0.019435	1487.1	0.00072201	0.00074691	1576.6	369.22	0.00071245	0.00074256	761.49	206.46	225.85	56.893	0.0007244	84.209	170.586	10.680	83.030	-72.851	2.391	250.735	-73.468	-67.348	80.141	-83.500	-69.982	-65.333	-63.303	-56.980	59.242	-59.560	-8191	255	
1904.483	1	1	0	0	0.2159	0.11802	0.14287	0.1474	0.23107	0.064641	0.17892	0.12226	0.050747	0.22856	0.090677	0.26457	0.20557	0.081753	0.081291	0.061977	-1.7604	-1.5979	-2.3729	-1.8354	-1.5021	-2.3167	-1.7437	-1.9667	-2.4375	-1.2958	-2.1521	-2.0812	-1.4354	-2.5167	-1.5083	-1.9062	170.823	97.742	189.884	39.674	27.124	85.257	215.087	183.432	236.109	231.337	264.941	-45.490	-33.303	-81.678	19.320	19.985	0.0002851	0.00061002	0.0004776	458.59	4.7637e-05	1.6871e-05	729.08	115.87	3.502e-05	5.1146e-05	195.34	66.73	39.795	14.018	2.8614e-05	26.534	0.057033	0.066217	0.018733	1459.4	0.00070365	0.00073006	1558.2	361.79	0.00068533	0.00071212	742.4	202.9	219	56.231	0.00069223	83.206	262.755	126.959	-48.781	-72.008	138.561	-30.197	-73.361	-67.270	85.859	240.462	-69.252	-64.883	-64.184	-58.190	78.735	-61.088	-8191	255	
1904.579	1	1	0	0	0.3277	0.025908	0.3173	0.18502	0.26886	0.13508	0.04585	0.24614	0.049889	0.34211	0.22586	0.38895	0.043067	0.20326	0.15519	0.2557	-1.9167	-1.3604	-2.0854	-1.95	-1.4479	-2.3375	-1.6458	-1.6021	-2.2896	-1.5688	-2.1104	-2.1063	-1.3729	-2.2292	-1.6354	-1.7792	249.966	-70.253	254.894	7.183	68.690	152.805	142.285	207.585	157.236	249.438	118.370	209.418	-29.754	73.182	53.371	179.398	0.00041503	0.0019051	0.00025214	461.11	1.4828e-05	2.7295e-05	740	117.92	6.2468e-05	2.0905e-05	203.08	70.104	41.16	15.238	3.4222e-05	27.782	0.054805	0.06349	0.017911	1421.6	0.00067869	0.00070836	1550	359.2	0.0006743	0.00070375	743.57	205.76	219.8	57.397	0.00069839	86.104	122.909	29.446	-46.202	-71.749	154.663	151.946	-73.715	-66.821	202.182	216.405	-69.564	-65.874	-63.012	-59.139	-7.904	-61.227	-8191	255	
1904.673	1	1	0	0	0.053246	0.28978	0.22153	0.15312	0.085354	0.094304	0.073938	0.13827	0.2976	0.19148	0.15426	0.13226	0.1562	0.10693	0.13667	0.11467	-1.95	-1.5292	-2.0458	-2.3625	-1.3708	-2.1042	-1.8563	-1.6292	-2.4688	-1.55	-1.9958	-2.3	-1.5583	-2.2771	-1.8604	-1.6313	258.519	178.694	120.004	199.632	-55.876	142.913	-7.382	189.067	207.176	177.928	-10.689	236.971	234.842	-78.090	251.833	117.845	0.0011472	0.0014033	0.00071443	449.37	1.0875e-05	2.1848e-05	723.16	119.11	2.8667e-05	1.923e-05	210.87	76.404	43.665	16.758	5.0712e-06	30.673	0.056508	0.066532	0.018916	1481.2	0.0007408	0.00077939	1626	386.51	0.00075383	0.00077817	802.36	224.56	236.92	61.913	0.00073449	91.017	70.035	103.250	70.395	-72.261	-17.778	169.957	-73.237	-67.431	16.106	45.751	-69.777	-66.685	-63.600	-59.525	176.088	-61.883	-8191	255	
1904.771	1	1	0	0	0.20653	0.031348	0.29308	0.091339	0.19145	0.34242	0.1046	0.080362	0.51735	0.093114	0.21548	0.19843	0.29198	0.21086	0.18029	0.23891	-2.0458	-1.8521	-2.0333	-2.4792	-1.5104	-2.1437	-2.0271	-1.7042	-2.3875	-1.625	-1.8604	-2.3167	-1.3917	-2.3208	-1.9708	-1.6313	-3.342	-51.957	218.908	-7.046	-43.176	27.770	166.005	138.323	269.425	-26.261	224.134	-77.800	133.741	-35.826	99.835	29.303	0.0006017	0.001316	0.00047764	425.94	2.6032e-05	3.6508e-05	721.7	117.97	1.7983e-05	4.3169e-06	212.5	76.554	44.226	16.234	2.0887e-05	29.28	0.057669	0.066332	0.018497	1418.1	0.00070289	0.0007288	1548.9	362.95	0.00069346	0.00071818	760.28	215.98	226.51	59.045	0.0007058	87.639	270.514	222.328	255.789	-71.887	269.015	191.552	-72.492	-67.566	228.295	181.031	-69.394	-65.913	-64.107	-59.050	130.821	-62.097	-8191	255	
1904.890	1	1	0	0	0.080106	0.19064	0.1226	0.09117	0.12294	0.29985	0.12993	0.061809	0.13205	0.10629	0.27724	0.38049	0.15129	0.2925	0.088171	0.19046	-2.075	-1.5792	-1.7563	-2.35	-1.4271	-2.1646	-2.1521	-1.475	-2.3937	-1.6542	-1.8062	-2.4083	-1.4792	-2.1562	-2.2833	-1.5146	190.426	265.223	271.319	35.188	20.088	-46.766	144.155	110.003	64.959	-82.671	-73.349	139.133	102.119	253.290	124.075	18.372	0.00099827	0.00073833	0.0004548	439.43	2.6068e-05	2.6758e-05	739.64	119.21	1.0877e-05	1.269e-05	211.8	75.822	43.424	15.704	1.5113e-05	28.936	0.05616	0.064843	0.017997	1416.5	0.00068545	0.00071206	1549.6	358.06	0.00067081	0.00069263	734.54	207.78	214.27	55.541	0.00065145	82.796	232.903	140.006	169.422	-72.607	69.866	197.848	-73.492	-67.560	30.576	247.800	-70.429	-66.388	-62.793	-58.994	-16.854	-61.552	-8191	255	
1904.986	1	1	0	0	0.23811	0.19684	0.15661	0.28607	0.15404	0.23054	0.27421	0.079446	0.16336	0.27338	0.11223	0.14751	0.15503	0.13915	0.10811	0.14309	-2.0354	-1.7333	-1.5021	-2.4792	-1.5562	-1.7437	-2.4313	-1.4979	-2.1688	-1.925	-1.5	-2.4917	-1.5917	-1.9104	-2.3563	-1.5542	-16.744	-50.384	-24.745	-60.496	39.740	81.683	180.336	106.022	-74.997	-51.265	181.794	264.472	63.657	271.018	-75.904	241.870	0.0017657	0.0019028	0.00046301	427.57	2.121e-05	4.0885e-05	732.52	116.52	3.1331e-05	1.1375e-05	211.2	75.631	44.029	15.338	4.1657e-05	28.043	0.051603	0.059443	0.016543	1332.6	0.00063696	0.00066127	1492.9	342.9	0.00064036	0.00066432	718.21	206.41	214	55.343	0.00066557	83.489	136.336	146.060	247.121	-72.276	77.978	205.555	-72.851	-67.418	9.519	91.552	-69.823	-65.685	-64.351	-60.119	238.374	-61.923	-8191	255	
1905.058	1	1	0	0	0.053921	0.13764	0.18655	0.055458	0.11539	0.18803	0.2126	0.19474	0.25807	0.12642	0.068163	0.037929	0.089714	0.24939	0.11855	0.12145	-1.9271	-1.8646	-1.5625	-2.3729	-1.6375	-1.9458	-2.4458	-1.4937	-2.2229	-2.0167	-1.5271	-2.4229	-2.0167	-1.7979	-2.3646	-1.75	184.668	28.947	182.749	-79.622	-65.906	222.759	-77.580	118.112	106.087	273.225	194.340	53.806	23.858	8.894	226.251	227.987	0.00050275	0.0013138	0.00015983	435.65	1.3623e-05	3.8276e-05	733.92	116.32	6.5039e-06	6.6625e-06	207.84	75.107	42.002	15.363	4.3792e-05	28.12	0.053305	0.061654	0.017238	1377.6	0.00066543	0.0006868	1526.7	350.54	0.0006573	0.00067989	727.86	207.78	214.81	55.441	0.00066873	83.517	125.713	-37.725	149.541	-72.352	165.598	259.118	-73.036	-67.957	104.913	75.755	-70.155	-65.806	-64.630	-59.466	211.575	-61.595	-8191	255	
1905.178	1	1	0	0	0.060024	0.16303	0.351	0.066201	0.26469	0.14842	0.19013	0.075243	0.14045	0.076488	0.087467	0.19094	0.19107	0.072166	0.14141	0.17248	-1.8062	-2.125	-1.4646	-2.5271	-1.8708	-1.7125	-2.5729	-1.7125	-2.1229	-2.4208	-1.5063	-2.4396	-1.7479	-1.5312	-2.3771	-1.6396	267.322	27.665	-43.916	166.495	-44.385	-40.667	-34.124	257.274	256.407	3.172	215.802	238.362	53.527	73.984	-11.568	63.478	0.0001607	0.0012068	0.00037962	431.09	2.324e-05	8.3672e-06	728.45	116.11	2.3759e-05	2.2671e-05	211.27	75.444	42.105	14.914	3.9976e-05	27.601	0.053239	0.061947	0.017358	1384.4	0.00067304	0.00069848	1548.2	357.88	0.00068239	0.0007112	754.11	214.24	223.63	56.982	0.00070565	85.202	251.485	236.944	132.428	-71.392	24.181	185.893	-73.396	-67.485	255.539	-77.209	-70.134	-65.905	-65.549	-60.124	-3.616	-61.901	-8191	255	
1905.275	1	1	0	0	0.13031	0.25007	0.28831	0.49059	0.23593	0.21549	0.096106	0.26642	0.02592	0.11159	0.14906	0.11127	0.16162	0.17067	0.15271	0.16609	-1.6604	-2.1354	-1.3021	-2.3792	-1.8729	-1.6938	-2.4354	-1.8542	-1.9396	-2.3083	-1.75	-2.2667	-1.9354	-1.5688	-2.3146	-1.9562	-0.129	185.526	-66.194	-22.068	54.485	-23.158	-52.636	-38.116	-75.529	107.376	214.085	138.940	144.572	39.246	128.134	266.306	0.00029271	0.0028045	0.00070035	430.56	1.0461e-05	3.8747e-05	734.5	116.4	8.4435e-06	1.7485e-05	212.96	76.489	43.444	14.95	2.8733e-05	27.944	0.055402	0.064281	0.01784	1402.7	0.00067981	0.00070471	1559.9	360.6	0.00068671	0.00072403	768.23	220.08	232.69	59.802	0.00075475	90.3	162.946	188.200	57.658	-71.274	-66.878	-13.995	-73.566	-67.653	161.859	263.625	-70.107	-66.003	-63.509	-60.180	99.691	-61.929	-8191	255	
1905.371	1	1	0	0	0.21086	0.078005	0.24044	0.28589	0.084941	0.1434	0.19871	0.1299	0.04446	0.27834	0.13266	0.12622	0.03374	0.10353	0.2011	0.27137	-1.55	-2.35	-1.4104	-2.2313	-1.9854	-1.7646	-2.5875	-1.8167	-1.7938	-2.4333	-1.5146	-2.3187	-2.0875	-1.6708	-2.3917	-1.775	30.764	80.924	-28.712	185.626	181.494	232.754	-37.595	227.890	148.028	155.199	-28.905	188.522	225.273	91.532	186.229	117.095	0.00041396	0.0012888	0.00056105	443.23	2.2609e-05	3.7943e-05	758.71	120.78	3.7237e-05	1.4766e-05	219.68	79.971	44.909	15.363	1.7882e-05	28.827	0.060065	0.070392	0.019514	1503	0.00074706	0.00077057	1656.6	383.88	0.00074087	0.00077761	810.25	230.04	240.76	60.947	0.00076572	91.461	-71.455	128.344	174.662	-71.767	-46.418	188.042	-72.797	-67.448	81.038	148.210	-69.779	-66.691	-64.314	-60.119	-52.413	-61.765	-8191	255	
1905.467	1	1	0	0	0.25097	0.24265	0.23596	0.22822	0.11891	0.20825	0.08723	0.23125	0.085303	0.074565	0.38394	0.26214	0.20309	0.080225	0.01992	0.13732	-1.2812	-2.4521	-1.4479	-2.2729	-2.025	-1.4875	-2.5042	-1.8375	-1.7062	-2.4458	-1.6771	-2.2042	-2.2833	-1.6479	-2.1229	-1.8521	159.365	-78.572	140.791	196.214	191.671	136.807	192.666	106.058	-78.458	170.412	253.813	-81.589	177.612	8.436	103.846	-56.515	0.0010121	0.0056126	0.00053719	441.82	2.012e-05	3.269e-05	767.86	121.77	4.5638e-05	2.7987e-05	224.51	81.735	45.194	15.417	2.6474e-05	28.959	0.059912	0.069938	0.019341	1497.3	0.00074466	0.00077028	1672.3	388.55	0.00074546	0.00078795	820.69	232.42	243.16	61.339	0.00076677	91.813	77.463	-0.575	-50.510	-71.479	250.881	-44.433	-73.424	-68.340	165.355	177.525	-70.030	-66.206	-63.556	-60.455	-54.694	-62.544	-8191	255	
1905.586	1	1	0	0	0.18529	0.076336	0.11274	0.099513	0.1337	0.11325	0.082818	0.16702	0.27691	0.16888	0.038343	0.059764	0.10071	0.1462	0.25095	0.15325	-1.5167	-2.4292	-1.5875	-2.1396	-2.175	-1.5604	-2.4437	-1.8312	-1.5	-2.4542	-1.775	-2.0021	-2.3792	-1.4729	-2.3208	-2.0167	235.171	62.653	-33.988	139.372	224.749	0.128	74.929	-64.270	-84.260	-6.578	138.629	111.135	18.666	182.221	192.275	172.003	0.00034015	0.0037363	0.00085093	443.67	6.1747e-06	1.864e-05	754.96	121.62	1.0933e-05	2.9545e-06	218.11	80.466	44.746	15.498	2.9767e-05	29.09	0.060221	0.070306	0.019323	1484.8	0.00073629	0.00075583	1636.1	377.48	0.00072043	0.00076048	794.9	225.73	236.7	59.844	0.0007422	89.702	-8.950	212.291	180.444	-71.911	201.583	224.143	-73.289	-68.441	175.731	17.180	-69.648	-66.014	-65.686	-60.872	87.795	-62.989	-8191	255	
1905.659	1	1	0	0	0.081097	0.18255	0.16528	0.12857	0.13904	0.14775	0.12379	0.37344	0.24805	0.16284	0.085627	0.086549	0.1813	0.14302	0.088488	0.11865	-1.2	-2.5563	-1.6521	-1.8062	-2.2729	-1.6771	-2.3167	-2.0958	-1.4208	-2.4562	-1.8354	-1.8854	-2.1937	-1.5417	-2.2479	-2.2771	134.950	-27.828	118.202	228.062	104.672	9.581	200.860	200.493	-14.464	221.177	28.140	229.397	182.685	152.998	-1.797	144.007	0.00066156	0.0015761	0.00047894	434.8	4.3253e-05	1.2495e-05	751.17	119.73	2.7403e-05	1.9812e-05	216.09	79.975	44.637	15.221	1.2947e-05	28.902	0.058303	0.068503	0.018978	1470.4	0.00074145	0.00076173	1643.2	382.5	0.00073669	0.00078181	806.74	229.16	241.99	60.951	0.00076212	91.607	220.176	211.239	152.023	-71.926	228.868	77.415	-72.936	-67.730	-84.405	-61.803	-70.052	-66.872	-64.494	-60.528	206.394	-62.796	-8191	255	
1905.754	1	1	0	0	0.11511	0.12457	0.05625	0.0079772	0.09399	0.14801	0.38483	0.15169	0.34339	0.28833	0.21752	0.18008	0.16408	0.12815	0.11149	0.17104	-1.1021	-2.4479	-1.7542	-1.6333	-2.4062	-1.5708	-2.2104	-2.3021	-1.6271	-2.4292	-1.8312	-1.7125	-2.4646	-1.7167	-2.0583	-2.4313	121.009	210.047	116.128	232.274	141.455	-51.368	264.308	118.686	210.665	6.372	254.597	268.511	73.449	118.497	122.592	187.085	0.0010092	0.0036082	0.00087931	434.14	1.4691e-06	2.3158e-05	761.55	119.36	3.7277e-05	3.9922e-05	220.23	79.629	42.856	14.919	1.2819e-05	28.541	0.059784	0.070519	0.019384	1483.6	0.0007498	0.0007642	1642.8	379.84	0.00072644	0.00076693	792.87	224.95	236.49	59.2	0.00073677	89.35	205.735	26.097	127.284	-72.359	-72.076	-34.905	-73.317	-67.439	249.656	197.315	-70.099	-66.736	-64.639	-60.329	-74.227	-61.994	-8191	255	
1905.851	1	1	0	0	0.18227	0.24503	0.3522	0.38895	0.06688	0.12803	0.046178	0.18374	0.086431	0.15268	0.27911	0.28894	0.11534	0.15888	0.20648	0.069299	-1.1833	-2.3542	-2.0187	-1.5729	-2.4125	-1.7167	-1.9208	-2.35	-1.3875	-2.2667	-2.1042	-1.6083	-2.4292	-1.9021	-1.8062	-2.3875	191.104	-25.008	44.878	250.757	208.657	101.084	191.811	5.571	-67.878	45.516	264.933	57.499	55.591	-56.695	179.984	235.850	0.00015852	0.0018581	0.00037515	439.79	1.9545e-05	2.9929e-05	766.9	118.43	6.628e-05	1.3986e-05	216.02	80.212	43.439	15.011	5.0494e-05	28.424	0.057863	0.067875	0.018669	1442.4	0.00071851	0.00072795	1610.2	369.81	0.00069623	0.00073264	773.13	219.4	229.02	57.38	0.00070327	87.04	219.901	-35.570	129.945	-72.573	188.951	14.212	-72.701	-68.020	112.321	-9.388	-69.780	-66.365	-64.942	-59.173	-5.132	-62.133	-8191	255	
1905.970	1	1	0	0	0.31049	0.16582	0.05746	0.30233	0.14686	0.1665	0.049955	0.27493	0.1034	0.15686	0.13179	0.228	0.11616	0.27451	0.09507	0.18301	-1.1167	-2.2875	-2.0667	-1.5375	-2.475	-2.0021	-2.0396	-2.5229	-1.6021	-2.1875	-2.2917	-1.4875	-2.1625	-1.8542	-1.5542	-2.5625	209.491	71.298	188.627	240.710	234.403	38.177	248.023	239.434	49.950	226.378	214.287	-5.642	35.210	157.610	147.056	-57.921	0.00093002	0.0031233	0.00058316	430.12	1.5889e-05	3.371e-05	757.03	116.07	2.4159e-05	3.1846e-05	216.09	78.952	43.935	15.096	1.5992e-05	28.812	0.055328	0.064935	0.018023	1406	0.00069751	0.00070825	1577.5	362.57	0.00067916	0.00071584	758.35	215.36	225.79	56.995	0.00069882	86.963	107.107	3.931	246.204	-71.727	91.033	-72.682	-73.319	-67.576	94.816	-54.843	-69.808	-66.000	-64.144	-59.325	99.501	-61.428	-8191	255	
1906.067	1	1	0	0	0.3027	0.065302	0.19353	0.20321	0.10393	0.36508	0.15769	0.16991	0.079891	0.13592	0.28127	0.39576	0.095086	0.24066	0.18054	0.26602	-1.2938	-2.025	-2.1729	-1.4375	-2.2354	-1.7354	-1.8917	-2.5979	-1.4958	-2.0083	-2.3083	-1.6042	-2.1604	-1.9875	-1.4688	-2.5625	157.740	2.702	259.052	-80.386	48.418	100.559	228.435	166.671	187.446	-46.652	114.837	-82.703	111.653	152.047	-56.578	229.327	0.00065354	0.0034794	0.0008197	425.61	8.1279e-06	3.009e-05	740.36	114.24	1.1251e-05	1.6386e-05	215.24	78.827	44.631	15.46	2.2183e-05	30.194	0.055233	0.064896	0.018081	1397.5	0.00069216	0.0007033	1556.6	356.14	0.00065989	0.00068724	731.66	206.96	213.31	54.633	0.00064578	84.112	-24.191	-53.490	99.803	-72.475	240.436	187.769	-72.900	-68.336	-9.470	131.335	-69.630	-65.703	-64.164	-59.466	124.206	-61.656	-8191	255	
1906.163	1	1	0	0	0.071463	0.31396	0.12985	0.10239	0.12735	0.14894	0.2201	0.0549	0.069025	0.10413	0.19222	0.22935	0.10976	0.17972	0.31149	0.066021	-1.3667	-1.8229	-2.1667	-1.7021	-2.25	-2.0271	-1.7646	-2.3812	-1.6833	-1.8854	-2.4271	-1.5896	-2.1333	-2.0563	-1.5521	-2.3312	-12.693	244.212	199.558	234.780	-79.631	101.947	226.314	105.678	193.659	-41.255	254.235	234.307	-47.448	-44.618	219.460	243.829	0.00049325	0.0018051	0.0006951	425.96	1.6974e-05	3.9658e-05	740.52	114.76	1.9916e-05	1.9778e-05	215.56	79.8	44.824	16.083	5.211e-05	31.197	0.051049	0.059783	0.016706	1320.8	0.00064159	0.00065683	1502.2	342.49	0.00062816	0.00065754	719.47	206.65	212.38	54.887	0.00063935	84.824	150.235	178.764	37.982	-71.668	211.408	3.486	-73.005	-67.085	273.527	189.866	-70.145	-65.330	-64.194	-58.919	-43.908	-61.628	-8191	255	
1906.259	1	1	0	0	0.30545	0.26391	0.38101	0.14465	0.24037	0.064489	0.27102	0.27374	0.26297	0.13765	0.10052	0.31499	0.11016	0.11149	0.13568	0.25505	-1.3729	-1.7583	-2.4521	-1.5146	-2.0917	-2.3417	-1.6396	-2.325	-1.8958	-1.6083	-2.5438	-1.5208	-2.1354	-2.3312	-1.5146	-2.2646	7.463	138.000	241.617	-26.290	271.736	190.908	-72.292	-74.207	41.692	-34.262	94.668	225.592	142.195	187.307	179.533	129.565	0.00056318	0.001337	0.00078921	440.12	2.2546e-05	3.7853e-05	755.69	118.41	2.8033e-05	4.5441e-06	223.45	82.688	45.946	16.539	3.2388e-05	32.062	0.050305	0.058803	0.016516	1309.9	0.00062903	0.00064772	1494	339.89	0.00061351	0.00064283	714.28	206.18	209.42	54.6	0.00062603	84.864	151.338	65.291	256.818	-71.639	95.486	165.397	-72.952	-67.082	139.355	20.785	-69.363	-65.437	-63.670	-58.951	128.338	-61.226	-8191	255	
1906.355	1	1	0	0	0.23952	0.044548	0.23152	0.066348	0.1663	0.17645	0.27867	0.21791	0.1566	0.18516	0.21762	0.21323	0.097917	0.20507	0.40214	0.11199	-1.6063	-1.5625	-2.4833	-1.6229	-1.9562	-2.3229	-1.5708	-2.2542	-2.1271	-1.5104	-2.5479	-1.7229	-1.975	-2.3521	-1.6146	-2.2979	227.342	-17.950	-24.053	220.999	246.512	157.053	262.045	-15.789	47.578	191.968	134.784	230.310	101.201	110.375	261.311	229.452	0.0006832	0.0017153	0.00052431	436.91	8.0861e-06	2.601e-05	761.59	120.18	2.0445e-05	1.0925e-05	223.59	82.886	46.751	16.636	1.9797e-05	32.186	0.049608	0.058105	0.016392	1310.6	0.00062949	0.00065573	1513.1	345.67	0.00063101	0.00066374	736.99	211.55	216.44	56.444	0.0006518	86.918	-28.215	240.900	103.348	-71.876	67.303	231.517	-73.218	-67.674	101.656	170.103	-69.353	-65.782	-63.314	-58.615	97.118	-62.002	-8191	255	
1906.451	1	1	0	0	0.1665	0.13671	0.11293	0.074323	0.3486	0.18089	0.27237	0.10392	0.27936	0.11765	0.2846	0.079519	0.11824	0.31455	0.17434	0.26724	-1.7979	-1.7854	-2.3083	-1.6063	-1.7083	-2.2229	-1.7708	-2.2667	-2.0479	-1.4271	-2.5833	-1.9875	-1.8104	-2.4292	-1.6375	-2.25	137.945	-17.360	80.782	264.303	95.246	111.345	160.140	237.741	-3.399	-73.167	227.647	44.164	64.428	168.286	150.382	233.269	0.00085991	0.0043534	0.00081721	435.25	3.4949e-05	3.5364e-05	756.34	118.47	1.5149e-05	2.6687e-05	223.01	82.7	46.106	16.284	3.0829e-05	31.783	0.051845	0.060461	0.017075	1345.9	0.00065046	0.00067662	1535.3	352.13	0.00065083	0.00067842	749.06	213.57	218.84	56.754	0.00065981	86.854	133.333	30.286	-40.809	-72.675	123.407	-65.044	-72.968	-67.611	161.602	-34.420	-69.825	-65.391	-63.789	-59.206	144.495	-60.993	-8191	255	
1906.572	1	1	0	0	0.045069	0.155	0.14233	0.046501	0.10611	0.11105	0.20034	0.022211	0.11734	0.21711	0.17642	0.2189	0.094619	0.16889	0.16479	0.18776	-1.6375	-1.6479	-2.3854	-1.875	-1.4937	-2.4375	-1.6375	-2.1396	-2.2479	-1.4292	-2.4146	-2.1104	-1.6083	-2.3521	-1.4479	-1.8333	238.195	150.414	-69.763	130.278	2.418	50.981	197.642	43.245	151.150	271.514	244.419	137.201	118.350	-51.874	152.980	208.012	0.00049742	0.0012218	0.00037701	430.55	2.0709e-05	4.6077e-05	757.33	120.32	3.2489e-05	4.4242e-06	225.75	82.376	46.618	16.305	4.5806e-05	31.828	0.052568	0.060772	0.017149	1348	0.00065326	0.00068124	1540.9	351.86	0.00065069	0.00067269	744.2	213.17	217.22	56.506	0.0006546	86.714	67.280	187.832	233.765	-71.886	111.216	50.942	-73.142	-67.698	-70.138	62.573	-69.726	-65.414	-63.870	-59.040	-32.014	-61.569	-8191	255	
1906.666	1	1	0	0	0.25568	0.10032	0.16214	0.26165	0.19177	0.23949	0.073325	0.12511	0.13588	0.048798	0.060647	0.11183	0.055825	0.24488	0.20767	0.22279	-1.9562	-1.6542	-2.3125	-1.9937	-1.6875	-2.5104	-1.9208	-2.1146	-2.3792	-1.5938	-2.4167	-2.3125	-1.5396	-2.4208	-1.7938	-1.9458	77.960	45.060	189.939	-72.875	214.034	253.974	181.137	178.424	230.090	36.106	240.181	164.220	-47.605	199.863	156.683	-73.775	0.0014443	0.00063413	0.00021345	438.02	7.9848e-06	2.0952e-05	773.42	119.79	2.8074e-05	3.4189e-05	226.74	84.507	45.359	16.477	3.7166e-05	32.281	0.052404	0.060386	0.01708	1352.3	0.00064912	0.00067767	1545.8	352.23	0.00065102	0.0006728	745.56	214.24	216.48	56.492	0.00065439	86.886	76.088	265.923	242.611	-72.147	205.911	6.720	-73.085	-67.363	17.336	130.461	-69.163	-65.648	-63.519	-58.308	137.469	-60.740	-8191	255	
1906.762	1	1	0	0	0.14009	0.23198	0.22251	0.362	0.27397	0.030836	0.15806	0.27226	0.15295	0.10845	0.1759	0.099165	0.11448	0.1661	0.27639	0.27947	-1.8729	-1.6042	-2.3104	-2.2521	-1.5646	-2.5083	-1.725	-1.9229	-2.1896	-1.5958	-2.1479	-2.2417	-1.6417	-2.3042	-1.9937	-1.9229	12.241	-7.871	162.933	207.803	99.406	-17.476	182.330	253.582	-54.495	232.916	239.272	138.416	196.383	-23.794	120.157	185.732	0.00043528	0.0016316	0.0013008	439.84	1.9306e-05	1.9856e-05	779.84	120.21	3.1901e-05	3.0801e-05	228.2	83.611	44.978	16.103	2.7323e-05	31.369	0.052344	0.060204	0.016908	1352.6	0.00064387	0.00067124	1541.4	346.89	0.00063758	0.00065465	732.17	211.02	211.46	55.123	0.00064048	84.58	140.304	170.439	-52.775	-71.494	30.722	121.890	-72.576	-66.813	255.837	263.045	-68.995	-65.444	-63.558	-58.343	139.673	-60.709	-8191	255	
1906.883	1	1	0	0	0.12962	0.29948	0.14483	0.15398	0.11803	0.040771	0.10246	0.25051	0.078016	0.098267	0.14322	0.27856	0.17922	0.10893	0.12475	0.27597	-1.95	-1.5729	-2.0167	-2.2083	-1.7417	-2.3417	-1.8292	-1.8125	-2.5125	-1.6375	-2.0583	-2.5354	-1.5604	-2.1854	-1.9792	-1.8521	-81.816	114.255	-72.313	-80.686	-3.281	172.349	231.081	216.860	272.727	21.709	86.199	225.472	-61.137	256.902	181.187	161.990	0.0012485	0.0024918	0.00036084	436.95	9.6926e-06	2.2679e-05	769.39	118.38	4.3818e-05	1.2062e-05	221.07	82.628	44.634	15.699	2.0219e-05	30.714	0.051324	0.058936	0.016613	1334.6	0.00062927	0.00065528	1522.1	341.14	0.0006248	0.00064154	717.37	206.68	207.05	53.943	0.00062848	82.765	198.514	253.747	264.529	-71.346	2.947	139.834	-73.206	-67.153	182.457	6.843	-69.591	-65.629	-64.733	-59.131	139.005	-61.025	-8191	255	
1906.955	1	1	0	0	0.082995	0.1906	0.1747	0.18309	0.056298	0.14204	0.032251	0.031058	0.28888	0.10707	0.26748	0.10949	0.26292	0.27974	0.25494	0.10148	-1.9083	-1.7146	-1.9708	-2.5125	-1.5083	-2.2354	-2.3	-1.6292	-2.4062	-1.6167	-1.8708	-2.4688	-1.7062	-2.2833	-2.1312	-1.4958	12.708	49.855	-38.089	189.618	215.177	173.374	222.121	187.908	236.160	265.313	256.591	81.574	197.445	7.754	-58.135	188.452	0.00052594	0.00063261	0.00074401	431.74	3.2774e-05	4.9373e-05	773.81	118.78	3.9465e-05	1.3326e-05	222.36	80.805	45.592	16.085	4.9935e-05	30.876	0.050252	0.057577	0.01623	1310.5	0.00061502	0.00064226	1506.4	335.37	0.00061088	0.00062994	705.06	203.57	202.77	52.889	0.00061367	81.204	93.165	247.354	-65.355	-71.874	131.519	44.037	-73.090	-66.963	78.517	259.728	-69.447	-65.626	-64.294	-58.822	254.157	-60.692	-8191	255	
1907.051	1	1	0	0	0.18629	0.11007	0.36033	0.077272	0.18192	0.25796	0.21408	0.18075	0.055637	0.215	0.20655	0.075419	0.16844	0.083681	0.17109	0.26956	-2.0667	-1.7979	-1.6167	-2.4521	-1.4229	-2.1167	-2.4479	-1.3937	-2.4167	-1.7333	-1.8125	-2.3271	-1.7896	-2.0917	-2.0604	-1.5292	222.591	225.401	-42.532	16.664	200.176	132.226	204.712	178.539	255.601	85.042	236.899	167.827	202.906	270.865	208.475	-36.154	0.00061367	0.0018057	0.00023503	433.65	2.7472e-05	3.5723e-05	767.65	118.3	4.0572e-05	2.7703e-05	223.71	82.001	44.176	15.89	2.5079e-05	30.71	0.04876	0.056186	0.015749	1288.7	0.00059627	0.00062197	1489.1	328.52	0.00058992	0.00060907	688.37	199.93	196.52	51.439	0.00058843	79.203	-80.264	144.427	102.787	-72.306	-80.241	206.553	-72.970	-67.299	269.073	202.736	-68.462	-65.255	-64.011	-58.403	222.432	-60.978	-8191	255	
1907.147	1	1	0	0	0.24397	0.13261	0.23288	0.40238	0.080264	0.19631	0.23049	0.12	0.067419	0.18991	0.20097	0.27316	0.16864	0.041172	0.05325	0.46858	-1.9729	-1.6854	-1.7021	-2.2708	-1.6125	-2.05	-2.3958	-1.4083	-2.3417	-1.8479	-1.6187	-2.4229	-1.5708	-1.8854	-2.1937	-1.5417	57.169	204.776	153.036	238.800	-81.359	271.866	76.046	-43.052	28.930	-1.646	4.124	212.646	202.885	115.114	43.794	203.928	0.00072438	0.0017672	0.00069941	437.94	1.9724e-05	2.0278e-05	772.97	118.4	7.2815e-06	1.3751e-05	226.43	83.054	45.284	15.885	1.4084e-05	31.752	0.046709	0.053711	0.014992	1249.8	0.00056731	0.00059008	1452.1	318.5	0.00056403	0.00058121	668.39	195.71	190.59	50.133	0.00056426	77.879	88.861	56.015	-68.722	-71.989	-61.252	106.635	-73.012	-67.168	236.566	30.499	-69.217	-65.565	-63.933	-58.552	200.681	-61.487	-8191	255	
1907.268	1	1	0	0	0.14089	0.1761	0.076315	0.33615	0.14841	0.19418	0.30144	0.21365	0.15968	0.11519	0.40498	0.14126	0.025805	0.23019	0.20006	0.22266	-1.7896	-1.9542	-1.5333	-2.3292	-1.5271	-1.8354	-2.3917	-1.5396	-2.1104	-2.1083	-1.6667	-2.4417	-1.5667	-1.7875	-2.4062	-1.6729	104.926	-13.565	95.672	-73.080	239.394	128.269	162.057	12.261	102.273	-82.232	192.432	-83.473	-45.078	254.614	75.308	86.695	0.00071308	0.00022766	0.00040361	433.55	1.5869e-05	1.6147e-05	777.01	118.73	1.55e-05	2.0128e-05	224.79	82.308	44.913	15.973	4.1268e-05	31.373	0.044563	0.051563	0.014288	1214.2	0.00054468	0.00056579	1425.6	309.57	0.00054176	0.00056138	646.71	190.74	185.27	48.739	0.00054021	75.36	216.070	-12.248	20.074	-71.706	123.173	-68.969	-72.819	-67.304	43.716	237.494	-68.821	-65.847	-63.191	-57.636	97.615	-60.772	-8191	255	
1907.364	1	1	0	0	0.14906	0.1186	0.16653	0.20158	0.18511	0.20916	0.1946	0.11201	0.22121	0.064418	0.20564	0.079694	0.14942	0.1853	0.063425	0.28424	-1.7854	-2.0083	-1.4125	-2.4375	-1.7479	-1.6833	-2.4208	-1.5083	-2.1271	-2.2917	-1.5271	-2.3667	-1.7667	-1.5854	-2.4896	-1.6708	194.102	155.068	109.248	196.672	-62.294	-52.998	219.436	46.680	-68.194	-72.359	181.643	-76.362	60.842	194.115	240.728	231.614	0.00019696	0.0024603	0.00070187	434.47	2.3012e-05	5.0918e-05	768.85	117.83	6.7506e-05	2.6349e-05	223.79	82.205	44.403	15.874	1.2823e-05	30.765	0.042561	0.04929	0.013666	1182.9	0.00052659	0.00054393	1399.8	301.52	0.00051689	0.00053497	627.35	184.97	178.53	46.926	0.00051899	73.302	-21.357	15.611	-24.286	-71.991	157.723	17.086	-73.050	-67.020	172.364	32.577	-69.500	-65.390	-63.476	-58.707	-13.869	-60.805	-8191	255	
1907.460	1	1	0	0	0.45444	0.25412	0.23248	0.21755	0.13781	0.18969	0.33787	0.20969	0.035571	0.15744	0.30738	0.22161	0.11978	0.26466	0.15145	0.21214	-1.6792	-2.2958	-1.225	-2.3354	-1.8792	-1.7146	-2.3625	-1.7	-1.9896	-2.175	-1.5583	-2.3563	-1.9917	-1.5708	-2.0354	-1.6042	255.414	211.525	203.245	236.620	-0.807	2.328	181.872	133.854	271.389	186.887	190.001	-76.969	-38.398	194.452	167.279	-80.727	0.00027651	0.0010411	0.00048136	435.06	1.5536e-05	2.3554e-05	771.71	117.68	2.2444e-05	2.8714e-05	225.08	80.924	43.207	14.747	2.711e-05	28.883	0.041227	0.048076	0.013355	1163.9	0.00051746	0.00053378	1398.5	301.74	0.00052057	0.00054549	637.57	187.67	183.74	47.39	0.00055246	74.322	90.424	199.626	187.035	-71.818	-31.272	146.898	-72.865	-67.042	175.373	78.323	-70.157	-65.667	-64.365	-57.872	128.077	-61.004	-8191	255	
1907.531	1	1	0	0	0.13202	0.045477	0.1126	0.1922	0.15309	0.19216	0.38749	0.22385	0.37557	0.34244	0.32862	0.21252	0.12734	0.10257	0.049386	0.083868	-1.35	-2.2708	-1.6063	-2.2229	-1.9625	-1.5604	-2.4083	-1.9542	-1.7375	-2.4792	-1.7104	-2.0396	-2.2021	-1.3708	-2.1875	-1.8563	-50.347	136.812	264.761	113.795	-84.823	268.480	221.159	34.027	161.793	-25.004	110.016	8.188	122.846	149.708	-52.332	229.425	0.00025871	0.0017285	0.00045435	436.72	1.618e-05	2.2501e-05	793.68	118.92	3.306e-05	2.6837e-05	227.12	80.61	42.936	13.99	2.8307e-05	27.975	0.043946	0.051433	0.014233	1216.1	0.00055408	0.00057287	1462.8	317.51	0.00056054	0.00058922	673.93	195.36	193.29	48.822	0.00058756	76.38	217.967	-11.223	48.137	-71.845	191.880	61.960	-72.310	-67.255	153.032	17.204	-69.654	-65.663	-64.130	-58.377	244.382	-60.071	-8191	255	
1907.652	1	1	0	0	0.29115	0.1122	0.13824	0.18329	0.10653	0.15124	0.16742	0.27087	0.30936	0.1874	0.03228	0.14249	0.1925	0.1884	0.29495	0.32578	-1.2896	-2.3917	-1.6354	-1.8937	-2.2417	-1.3937	-2.3729	-1.9354	-1.775	-2.4896	-1.5187	-2.0271	-2.1917	-1.4104	-2.2208	-1.9625	148.671	18.659	168.750	1.602	242.375	93.933	37.389	237.401	-72.361	223.287	-77.976	142.105	-61.286	-28.714	130.767	144.024	0.00044339	0.0020711	0.00011129	438	3.2156e-06	2.2413e-05	792.98	119.7	5.9954e-05	8.1332e-06	228.85	80.88	42.957	13.943	2.4429e-05	27.755	0.046531	0.054719	0.015105	1267.7	0.00058809	0.00060296	1500.9	328.72	0.0005837	0.00061601	697.32	201.33	202.49	51.114	0.00063231	80.01	-23.149	150.487	229.660	-72.085	-64.507	12.397	-73.085	-67.281	34.509	65.612	-70.029	-65.692	-64.121	-59.463	-36.106	-60.860	-8191	255	
1907.747	1	1	0	0	0.096279	0.066275	0.127	0.086075	0.12508	0.0308	0.1873	0.11031	0.079835	0.16093	0.19913	0.22275	0.054472	0.14996	0.088737	0.1054	-1.2292	-2.4688	-1.575	-1.8813	-2.3917	-1.3229	-2.3375	-1.9312	-1.4021	-2.25	-1.8104	-1.7792	-2.3	-1.5229	-1.9	-2.05	39.898	238.091	-41.663	228.597	45.540	16.616	188.343	196.275	231.814	131.676	118.912	228.441	222.921	-4.516	267.449	268.215	0.00075344	0.0021949	0.00014754	447.78	5.5553e-06	3.3864e-05	802.06	122.97	4.9525e-05	1.7347e-05	228.03	80.973	43.232	13.802	4.4535e-05	27.202	0.050497	0.059662	0.016544	1355.8	0.00064497	0.00066172	1572.7	352.86	0.00063879	0.00067167	737.23	209.17	211.62	52.459	0.00065014	80.623	34.944	105.244	-18.920	-71.493	-34.114	81.117	-73.309	-67.326	-49.584	157.471	-69.941	-66.148	-64.262	-59.547	223.193	-61.674	-8191	255	
1907.844	1	1	0	0	0.15793	0.10024	0.18115	0.059647	0.17137	0.14174	0.037605	0.21826	0.17475	0.13475	0.1882	0.1393	0.40306	0.17925	0.29295	0.27255	-1.1604	-2.2708	-1.625	-1.825	-2.2646	-1.4188	-2.3292	-2.2042	-1.4708	-2.3208	-1.8604	-1.7396	-2.3229	-1.5063	-1.9813	-2.1208	105.769	-34.785	-71.431	-47.611	109.272	-59.603	246.581	225.055	8.336	-75.911	210.032	-73.910	-75.549	20.185	11.495	162.720	0.00080952	0.0042429	0.00098242	454.78	2.2669e-05	4.3266e-05	798.47	125.8	4.9995e-05	4.2157e-05	233.17	81.645	43.566	13.842	1.9963e-05	27.644	0.050585	0.059085	0.016214	1325.1	0.00061895	0.00062835	1537	342.12	0.0006043	0.0006385	718.49	205.13	208.66	52.193	0.00064804	81.501	146.273	-85.718	252.558	-71.236	228.536	76.497	-72.675	-68.054	27.503	244.623	-69.817	-65.479	-64.517	-58.679	-54.317	-61.647	-8191	255	
1907.963	1	1	0	0	0.17416	0.084767	0.14516	0.33656	0.21703	0.21422	0.16922	0.17753	0.033877	0.12897	0.23326	0.14664	0.092641	0.30423	0.233	0.1628	-1.1875	-2.3937	-1.7917	-1.7458	-2.3854	-1.6167	-2.1521	-2.1292	-1.3438	-2.1604	-1.7896	-1.5854	-2.3	-1.5479	-1.725	-2.3646	8.190	50.603	1.084	-55.273	53.340	-76.773	228.309	88.259	165.900	224.566	212.504	237.581	4.433	41.916	86.319	-74.410	0.00068597	0.0015979	0.00064127	447.1	2.6408e-05	3.9448e-07	800.05	124.49	3.1016e-05	7.194e-06	233.11	81.165	42.744	13.941	1.2785e-05	28.55	0.051589	0.061292	0.017108	1382.4	0.00066836	0.00068512	1608.4	362.65	0.00065696	0.00069254	753.54	210.67	213.05	52.664	0.00064189	81.107	148.523	181.620	178.434	-71.757	167.766	268.019	-72.669	-67.313	248.204	243.521	-69.529	-66.011	-64.049	-58.673	-6.179	-61.137	-8191	255	
1908.059	1	1	0	0	0.093153	0.20698	0.073838	0.12972	0.18224	0.08579	0.12528	0.12339	0.12094	0.22657	0.22588	0.12865	0.25362	0.23368	0.15471	0.25426	-0.97708	-1.9688	-2.0958	-1.5521	-2.4167	-1.7104	-1.9854	-2.3417	-1.475	-2.0604	-2.025	-1.5229	-2.0812	-1.7833	-1.8646	-2.3875	102.822	112.554	86.095	237.572	249.707	233.259	265.650	244.882	124.063	-35.883	266.097	-60.160	12.660	128.548	162.789	185.803	0.0002141	0.0015833	0.00025189	458.69	3.1923e-05	2.6743e-05	807.91	126.8	3.2263e-05	1.5316e-05	239.03	83.775	43.636	14.282	2.9104e-05	28.403	0.049433	0.058086	0.016051	1319.5	0.0006144	0.00062909	1541.8	344.84	0.00060441	0.00064235	729.7	208.16	210.43	53.067	0.00064829	82.41	220.594	249.132	209.467	-71.498	39.937	-66.627	-72.665	-67.212	-69.179	60.073	-69.231	-65.468	-64.146	-58.750	260.602	-61.813	-8191	255	
1908.156	1	1	0	0	0.10267	0.2251	0.034614	0.056745	0.10374	0.053472	0.16634	0.10648	0.15727	0.18624	0.10144	0.15464	0.14498	0.16068	0.21952	0.23847	-1.1417	-1.9958	-2.1	-1.6812	-2.4083	-1.6833	-1.7979	-2.5042	-1.4417	-2.0146	-2.325	-1.5812	-2.1354	-1.9354	-1.4542	-2.2875	-77.671	-35.043	-29.950	-85.060	234.183	218.986	162.714	-22.622	54.917	-83.309	192.045	-14.231	142.104	60.754	71.545	123.617	0.0011737	0.0020785	0.00028418	447.38	3.2917e-05	4.5424e-06	797.23	124.75	2.9769e-05	1.2844e-05	233.68	82.284	44.018	14.27	8.4748e-06	28.786	0.05126	0.060593	0.016821	1348.9	0.00063776	0.00065036	1543.9	344.42	0.00060043	0.00062972	710.23	200.12	201.25	50.918	0.00060848	79.829	98.421	-10.878	241.000	-71.673	167.340	50.609	-72.617	-67.310	11.284	28.132	-68.931	-65.514	-63.409	-59.438	187.883	-60.957	-8191	255	
1908.252	1	1	0	0	0.10637	0.023993	0.022333	0.21506	0.21505	0.17032	0.14802	0.20881	0.28195	0.19457	0.064422	0.39115	0.15313	0.18879	0.11985	0.12317	-1.1875	-2.0354	-2.3458	-1.5479	-2.4646	-1.8875	-1.65	-2.4688	-1.7437	-2.0542	-2.3063	-1.3125	-2.3167	-1.9896	-1.5771	-2.45	251.003	72.684	-49.934	270.937	123.271	86.079	149.521	-76.989	125.082	249.116	161.790	255.283	182.944	40.467	234.304	162.920	0.00042671	0.0024437	0.001211	447.19	7.159e-06	2.8843e-05	791.48	123.24	4.0849e-05	4.4982e-05	227.44	80.861	43.109	13.802	1.3403e-05	27.607	0.048919	0.05806	0.016249	1324.8	0.00063428	0.00065581	1549.8	351.1	0.00063824	0.0006739	744.89	209.16	215.83	53.769	0.00065885	82.524	135.201	-62.894	-50.617	-71.856	56.423	141.898	-72.894	-67.838	214.907	22.114	-70.010	-65.555	-63.986	-58.948	142.280	-61.641	-8191	255	
1908.348	1	1	0	0	0.2893	0.1207	0.10987	0.15094	0.046579	0.16467	0.2643	0.1272	0.11029	0.071677	0.18396	0.10145	0.30691	0.38519	0.19666	0.20513	-1.4188	-1.7437	-2.1813	-1.5312	-2.1104	-2.0833	-1.6063	-2.3208	-1.8375	-1.7833	-2.4125	-1.6583	-1.9896	-2.0542	-1.4562	-2.4083	-82.459	-13.869	197.603	269.782	136.445	238.125	221.525	262.839	-50.215	209.452	219.473	110.820	143.431	217.117	-54.063	252.581	0.00069289	0.0024896	0.00024617	445.97	1.4811e-05	6.2567e-05	784.05	122.02	1.2285e-05	2.4996e-05	227.43	79.967	42.572	13.896	1.1988e-05	27.525	0.052122	0.060944	0.017028	1353.6	0.00065497	0.00067274	1560.3	354.9	0.00064924	0.00068206	751.84	211.32	218.32	54.745	0.00067513	84.283	-70.873	269.813	31.392	-72.172	-21.119	110.894	-72.457	-67.112	129.243	132.550	-69.923	-65.976	-63.703	-59.194	241.211	-61.272	-8191	255	
1908.444	1	1	0	0	0.23307	0.098538	0.11709	0.14663	0.14502	0.26924	0.26633	0.29751	0.018156	0.080034	0.24599	0.27814	0.16511	0.13996	0.22868	0.11466	-1.3875	-1.7104	-2.3708	-1.5438	-1.8396	-2.05	-1.6437	-2.2646	-1.7167	-1.5542	-2.2854	-1.4792	-1.8062	-2.2958	-1.4562	-2.2125	265.488	120.156	27.198	140.477	164.123	52.718	87.531	-51.407	164.390	218.889	23.936	228.663	191.714	267.776	-35.919	215.476	0.0012015	0.0031142	0.00025958	444.83	2.2396e-05	1.707e-05	783.56	122.96	4.372e-05	1.8319e-05	230.01	80.813	42.498	14.094	3.2995e-05	28.202	0.053972	0.062823	0.017638	1387.4	0.00067767	0.00069638	1588.9	362.23	0.00066598	0.00069709	762.54	214.58	220.88	55.419	0.00067964	85.045	11.759	257.714	253.536	-71.374	-1.371	97.999	-72.450	-67.221	-45.716	-79.156	-69.103	-65.550	-63.503	-59.691	211.120	-61.375	-8191	255	
1908.565	1	1	0	0	0.41252	0.051228	0.23645	0.15747	0.2794	0.24639	0.15459	0.11284	0.28969	0.15476	0.01103	0.23521	0.17091	0.088868	0.2003	0.17652	-1.6271	-1.525	-2.35	-1.8937	-1.9042	-2.3312	-1.7417	-2.4021	-1.8708	-1.5667	-2.475	-1.7062	-1.9125	-2.2917	-1.475	-2.1958	124.552	40.360	270.282	44.720	149.096	146.540	211.002	-65.312	71.686	7.837	-0.906	242.769	185.545	-49.837	-69.350	-82.564	0.00029934	0.0014575	0.00029678	440.21	1.5261e-05	4.6105e-05	785.1	122.15	2.3331e-05	3.1092e-05	228.1	79.166	42.815	13.829	4.2814e-05	27.895	0.054184	0.06274	0.017582	1382.9	0.00066919	0.00068707	1571.3	358.87	0.00066073	0.00068706	755.53	212.22	218.18	54.911	0.000674	84.214	-63.551	-62.089	-25.989	-71.219	180.580	-9.730	-72.654	-67.586	59.606	2.619	-69.655	-65.899	-63.727	-58.507	28.388	-61.147	-8191	255	
1908.659	1	1	0	0	0.2058	0.32958	0.18482	0.076075	0.14302	0.19388	0.2788	0.09929	0.14462	0.097879	0.14971	0.28051	0.30683	0.14049	0.085672	0.23455	-1.4417	-1.3979	-2.1354	-1.8208	-1.7167	-2.4792	-1.5375	-2.175	-2.3146	-1.5792	-2.3792	-1.8833	-1.7396	-2.3271	-1.5063	-2.1917	-72.389	198.815	113.315	76.158	188.081	-63.789	220.744	222.078	178.968	107.820	120.753	174.131	47.033	139.820	204.774	238.404	0.0004467	0.0033377	0.00045999	435.52	1.2372e-05	3.3585e-05	772.12	118.29	4.0753e-05	1.111e-05	219.16	77.544	42.413	14.001	2.521e-05	27.646	0.053649	0.06215	0.017457	1372.6	0.0006668	0.0006886	1561.3	355.75	0.00065864	0.00068325	748.63	210.25	216.14	54.57	0.00066845	83.364	122.723	37.670	239.697	-71.494	161.663	76.683	-72.982	-66.987	-68.098	-66.704	-68.845	-65.402	-62.571	-60.022	252.057	-60.935	-8191	255	
1908.755	1	1	0	0	0.16447	0.033174	0.10691	0.19046	0.091792	0.076647	0.057461	0.054835	0.1371	0.19076	0.085264	0.078093	0.20181	0.030612	0.027378	0.33113	-1.6292	-1.6021	-2.4125	-2.0312	-1.7104	-2.4437	-1.7458	-1.8	-2.2792	-1.5125	-2.4333	-1.7833	-1.6063	-2.4542	-1.6396	-1.8417	167.132	110.817	195.106	206.240	33.621	57.328	274.642	199.092	197.777	20.357	212.079	83.728	250.880	202.311	79.578	147.452	0.0011042	0.00076832	0.00024897	429.86	1.1204e-05	3.7444e-05	765.2	117.19	5.723e-05	2.5742e-05	220.27	77.549	42.085	13.773	1.8058e-05	27.369	0.053441	0.061664	0.017393	1366.5	0.00065936	0.0006814	1547.5	349.64	0.00064761	0.00067166	738.4	207.7	211.71	53.579	0.00065015	81.32	91.727	14.275	-56.548	-71.408	29.373	24.705	-72.431	-66.479	-15.368	161.122	-69.612	-65.332	-63.054	-58.581	242.790	-60.280	-8191	255	
1908.827	1	1	0	0	0.07689	0.23168	0.070865	0.1225	0.22317	0.026939	0.11755	0.12501	0.1434	0.3284	0.11379	0.012324	0.23147	0.19809	0.049536	0.38755	-2.0375	-1.2708	-2.2771	-2.0854	-1.5792	-2.3229	-1.9958	-1.9104	-2.3104	-1.6229	-2.2313	-2.2229	-1.5875	-2.425	-1.7354	-1.7729	39.433	233.355	23.800	187.319	-34.938	161.381	185.612	6.451	60.389	20.893	269.910	182.739	258.700	84.528	173.402	196.340	0.00054526	0.0023977	0.00066273	431.17	3.4334e-05	2.8022e-05	764.97	115.14	1.4681e-05	1.9322e-05	219.13	77.374	41.909	14.144	1.0317e-05	28.442	0.051455	0.05926	0.016711	1323.5	0.00062965	0.00065339	1516.3	339.84	0.00062673	0.0006486	719.35	203.61	204.88	52.527	0.00063003	80.689	-65.484	-14.172	219.600	-71.193	-20.550	-43.715	-72.724	-66.798	47.831	4.622	-68.609	-64.743	-63.100	-58.156	104.072	-60.716	-8191	255	
1908.948	1	1	0	0	0.067072	0.091092	0.12413	0.16484	0.10367	0.055388	0.22951	0.37704	0.19748	0.12761	0.22745	0.11379	0.32819	0.065457	0.17069	0.21836	-2	-1.5542	-2.0292	-2.3042	-1.6125	-2.3021	-1.8917	-1.9417	-2.4437	-1.525	-2.1042	-2.4771	-1.5208	-2.4521	-1.9583	-1.6542	44.879	275.595	167.136	273.528	100.615	69.910	239.638	170.040	136.019	262.540	202.678	-76.795	166.899	132.717	191.572	1.260	0.00034879	0.0023106	0.00091827	433.12	1.061e-05	2.7856e-05	767.13	116.25	4.3691e-05	1.4641e-05	220.91	77.319	41.374	13.758	1.7774e-05	27.103	0.049727	0.057509	0.016259	1305.6	0.00061855	0.00065147	1523.2	341.05	0.00063594	0.00066483	733.53	207.35	211.32	54.085	0.00066582	82.125	152.600	77.557	18.231	-71.585	79.357	-63.385	-72.968	-66.238	-14.027	-19.281	-69.848	-65.752	-63.955	-57.614	269.463	-60.911	-8191	255	
1909.044	1	1	0	0	0.23652	0.12589	0.19916	0.20891	0.15866	0.077267	0.47876	0.096235	0.12498	0.14535	0.1454	0.11751	0.24678	0.10818	0.20742	0.092947	-1.9521	-1.6396	-2.1292	-2.4375	-1.4479	-2.3354	-1.9625	-1.8625	-2.5021	-1.5688	-2.1437	-2.4292	-1.5208	-2.3271	-1.9688	-1.575	3.688	79.160	-7.523	217.423	72.638	205.807	200.515	48.512	236.638	231.493	254.574	65.449	233.723	66.603	198.109	-59.243	0.00044785	0.0031576	0.00065287	421.11	1.3879e-05	1.149e-05	752.72	114.05	6.0388e-05	5.7277e-05	213.23	73.672	39.813	13.317	5.178e-05	26.058	0.052792	0.060997	0.01714	1350	0.00064935	0.00067999	1537.8	345.1	0.00065388	0.00068067	734.68	206.05	211.66	53.748	0.00066408	80.386	-17.512	77.493	84.189	-72.004	-32.378	-78.503	-72.971	-67.292	93.740	187.314	-69.098	-65.932	-63.377	-58.138	123.366	-60.604	-8191	255	
1909.140	1	1	0	0	0.22873	0.12732	0.19015	0.23313	0.099033	0.071833	0.038981	0.097317	0.29647	0.1289	0.23007	0.10466	0.25224	0.23893	0.24887	0.027098	-2.075	-1.6063	-1.875	-2.4188	-1.5187	-2.3104	-2.1604	-1.6354	-2.3208	-1.6562	-1.8604	-2.4729	-1.6354	-2.1521	-2.1437	-1.5063	116.782	-57.372	137.663	275.433	234.426	275.092	166.561	242.889	93.278	110.020	191.641	266.877	104.992	-65.087	238.890	224.900	0.00052967	0.0020788	0.00043941	425.22	3.1191e-05	2.7636e-05	747.95	110.4	1.0007e-05	3.1072e-05	205.97	72.264	39.518	12.842	2.5235e-05	25.112	0.052834	0.061065	0.017075	1342.7	0.00064709	0.00067789	1523.7	339.82	0.00064996	0.00067266	719.68	202.05	208.67	52.685	0.00066034	79.223	20.047	0.249	-2.456	-71.812	156.022	6.998	-72.965	-66.384	248.957	8.133	-70.153	-65.817	-62.934	-58.093	274.785	-60.615	-8191	255	
1909.236	1	1	0	0	0.18549	0.1245	0.095132	0.13933	0.15534	0.18878	0.34626	0.024647	0.18184	0.036844	0.37845	0.25304	0.18469	0.18824	0.22189	0.11367	-2.1562	-1.7104	-1.7583	-2.2604	-1.6313	-2.0854	-2.3417	-1.5417	-2.3104	-1.8563	-1.9312	-2.3146	-1.5583	-1.9813	-2.3646	-1.4646	26.211	-39.273	-28.668	-0.872	45.611	104.946	165.319	-2.898	252.896	225.749	129.807	257.539	96.088	251.138	-67.566	60.481	0.00058578	0.0035761	0.00015738	419.63	3.3806e-05	2.2705e-05	736.26	108.47	5.0023e-05	1.1207e-05	197.52	70.428	37.134	12.501	2.7047e-05	24.798	0.052874	0.060962	0.016997	1336.2	0.0006486	0.00067179	1509.1	332.86	0.00063926	0.00065967	697.98	195.6	201.81	50.759	0.00063175	76.13	96.788	164.994	168.934	-72.027	193.541	232.287	-73.355	-67.694	89.636	-55.029	-69.635	-65.652	-63.577	-57.894	-77.269	-60.747	-8191	255	
1909.332	1	1	0	0	0.077948	0.15404	0.023559	0.2526	0.099354	0.19056	0.23205	0.077538	0.13787	0.059803	0.21979	0.16914	0.38486	0.23759	0.076767	0.33619	-1.9271	-1.85	-1.7687	-2.5083	-1.5021	-2.0812	-2.4188	-1.7125	-2.2083	-1.9396	-1.5167	-2.1937	-1.6146	-1.7625	-2.1875	-1.6396	-42.918	190.173	9.726	253.189	115.818	273.958	204.790	239.765	237.404	-51.810	229.678	71.436	260.660	252.673	17.791	234.837	0.00076761	0.00017839	0.00067329	412.54	4.0899e-05	3.1442e-05	730.45	106.17	3.7167e-05	1.0264e-05	197.01	69.618	37.505	12.419	4.342e-05	24.658	0.050011	0.057542	0.015961	1277.7	0.00060944	0.0006316	1457	318.32	0.00060248	0.00062273	667.47	189.37	193.33	48.805	0.0006036	74.123	101.699	254.752	4.920	-72.174	222.340	39.713	-73.157	-66.742	38.293	70.178	-70.247	-65.688	-64.830	-58.053	173.441	-61.492	-8191	255	
1909.428	1	1	0	0	0.092152	0.23146	0.33547	0.31673	0.20103	0.17261	0.092892	0.1617	0.17437	0.14415	0.19599	0.29945	0.29367	0.17218	0.087053	0.10135	-1.7958	-2.0062	-1.5125	-2.4146	-1.5417	-1.7313	-2.4646	-1.5917	-2.0146	-1.9875	-1.5625	-2.3708	-1.5542	-1.6521	-2.3896	-1.6521	157.623	229.410	215.247	69.973	156.017	-65.729	230.560	-16.347	229.138	260.062	-18.574	-60.664	6.775	234.977	251.115	221.945	0.00052575	0.0019342	0.00043844	405.97	5.3186e-06	2.4913e-05	720.97	104.28	1.0355e-05	6.5771e-06	192.96	67.071	36.765	12.037	1.199e-05	23.703	0.04816	0.055753	0.015499	1256.3	0.00059988	0.0006217	1443	315.62	0.00060319	0.00062498	664.13	187.29	192.65	48.356	0.0006008	73.097	166.427	173.546	-58.788	-72.110	-25.060	18.718	-73.473	-67.890	67.669	143.011	-70.400	-66.396	-64.517	-58.328	14.183	-61.140	-8191	255	
1909.524	1	1	0	0	0.17246	0.057436	0.30293	0.20299	0.1413	0.18458	0.14262	0.01605	0.33479	0.071841	0.0562	0.27033	0.1849	0.13585	0.083617	0.23762	-1.6542	-2.2708	-1.3125	-2.4021	-1.7771	-1.6437	-2.2396	-1.5208	-2.1188	-2.2062	-1.5479	-2.2833	-1.8979	-1.7104	-2.4042	-1.8292	142.668	216.743	242.080	187.589	197.830	255.033	226.604	44.779	147.125	258.992	59.217	-25.531	131.370	181.625	223.800	-79.161	0.00037158	0.0008192	0.000618	395.74	1.7141e-05	2.9523e-05	708.44	101.66	1.6997e-05	1.6711e-05	184.86	65.843	35.589	11.995	2.2613e-05	23.718	0.047696	0.05513	0.015307	1235.2	0.00058578	0.00060287	1403.4	306.69	0.00057886	0.00060131	638.71	182.08	187.22	47.157	0.00058982	71.625	72.144	90.622	-26.809	-71.677	243.319	104.771	-73.947	-67.654	106.144	196.850	-70.412	-64.945	-64.573	-58.980	-33.743	-60.361	-8191	255	
1909.645	1	1	0	0	0.047813	0.22273	0.14982	0.16539	0.15331	0.12263	0.16132	0.35159	0.061468	0.17472	0.19946	0.12058	0.16565	0.26326	0.20728	0.27759	-1.4875	-2.2604	-1.5354	-2.0729	-1.9562	-1.5854	-2.4521	-1.7167	-1.8396	-2.2938	-1.4979	-2.1937	-2.0958	-1.4708	-2.3792	-1.8854	-62.336	195.934	165.986	203.718	176.043	151.698	217.537	152.788	238.009	246.204	-80.931	84.680	-44.899	271.944	-8.839	261.440	0.00063913	0.003366	0.00066865	399.26	8.1051e-06	2.7629e-05	699.17	98.914	4.4211e-05	2.3822e-05	183.37	65.524	35.518	12.33	2.3277e-05	23.684	0.046572	0.054005	0.014951	1211.5	0.00057458	0.00059161	1393.9	302.4	0.00057214	0.00059733	637.18	181.33	186.74	47.109	0.00059088	72.022	107.442	178.410	60.780	-72.394	175.406	-29.295	-73.436	-67.979	174.586	127.804	-70.560	-65.952	-65.230	-57.722	105.736	-61.262	-8191	255	
1909.739	1	1	0	0	0.12769	0.22398	0.12382	0.1656	0.17195	0.14383	0.49049	0.14753	0.14191	0.10838	0.10675	0.30801	0.050597	0.16729	0.052102	0.20915	-1.4271	-2.2167	-1.5729	-2.05	-2.0875	-1.375	-2.4854	-1.8208	-1.7333	-2.0938	-1.5833	-2.2042	-2.0521	-1.4688	-2.4062	-1.85	98.844	37.365	217.770	-58.088	24.016	139.522	243.283	124.850	236.189	11.750	112.879	258.996	132.312	64.968	242.971	257.795	0.00086316	0.0015025	0.0010499	400.14	1.6891e-05	1.3221e-05	707.58	100.8	4.853e-05	7.4859e-06	184.17	66.588	36.397	12.501	9.4381e-06	23.591	0.046616	0.05457	0.015183	1222.8	0.00058414	0.00060083	1411.5	308.65	0.00058464	0.00061422	650.08	185.28	191.29	48.303	0.000606	73.514	-17.516	-14.222	41.394	-71.936	2.555	-25.024	-73.339	-67.637	23.942	124.099	-70.447	-66.659	-65.351	-57.831	266.266	-61.209	-8191	255	
1909.836	1	1	0	0	0.053328	0.2288	0.30364	0.14599	0.21083	0.25548	0.19407	0.19917	0.17594	0.057071	0.095775	0.10557	0.11714	0.16874	0.099703	0.23683	-1.3354	-2.5062	-1.5688	-1.9083	-1.9271	-1.525	-2.3354	-1.9333	-1.6896	-2.1937	-1.6187	-1.9667	-2.3542	-1.3	-2.3292	-2.1271	-53.564	-42.931	-64.432	-38.154	-5.068	-50.461	203.897	182.004	259.694	134.725	212.443	-34.926	39.781	252.585	269.831	126.827	0.001229	0.00032652	0.00021374	398.15	1.6171e-05	2.1493e-05	707.36	100.57	7.5319e-06	2.2157e-05	181.95	65.937	35.455	12.251	1.1866e-05	23.708	0.047245	0.05551	0.015345	1230.3	0.00058842	0.00060163	1407.9	307.03	0.00057589	0.00061057	644.22	183.17	190.11	48.059	0.0006035	73.084	71.339	-44.272	60.617	-71.946	-10.768	60.679	-73.744	-68.225	-20.461	-15.801	-70.275	-66.162	-64.148	-59.476	26.761	-61.022	-8191	255	
1909.932	1	1	0	0	0.17053	0.23573	0.32862	0.23115	0.064246	0.16524	0.25024	0.18879	0.32991	0.17515	0.10074	0.13928	0.17276	0.1408	0.26268	0.25556	-0.99375	-2.3271	-1.7333	-1.9479	-2.375	-1.5708	-2.3937	-2.1021	-1.3583	-2.2979	-1.7958	-1.7042	-2.3896	-1.5458	-2.0229	-2.0667	-39.359	236.807	-59.244	203.917	50.594	49.548	177.772	221.857	30.273	-78.702	253.484	50.811	195.719	252.895	266.914	14.274	0.00048898	0.0047063	0.00024603	393.72	3.3653e-05	1.5485e-05	696.17	100.63	2.6339e-05	2.7953e-05	183.67	65.531	36.308	12.635	3.7268e-05	24.112	0.04745	0.056164	0.015538	1239.9	0.00060229	0.00061857	1417.3	312.82	0.00059274	0.00062868	657.31	186.23	195.44	49.468	0.00062223	74.948	98.329	-63.752	264.755	-71.906	136.377	151.084	-73.717	-67.800	97.383	67.851	-70.886	-66.658	-64.442	-59.925	171.388	-61.958	-8191	255	
1910.052	1	1	0	0	0.097904	0.1507	0.064987	0.46743	0.29826	0.22858	0.25255	0.087906	0.13858	0.17045	0.22958	0.086617	0.12296	0.081346	0.17859	0.10732	-1.275	-2.4729	-1.7771	-1.8417	-2.2896	-1.5812	-2.2562	-2.2271	-1.5167	-2.2917	-1.8958	-1.7458	-2.3708	-1.5458	-2.0104	-2.3333	269.928	61.119	-22.152	251.972	112.353	-70.297	227.115	242.445	201.728	199.118	180.681	85.491	186.023	68.324	138.206	4.106	0.00083176	0.0023596	9.087e-05	397.22	1.3066e-05	7.6184e-06	693.73	100.63	3.5614e-05	3.3548e-05	184.23	65.997	36.696	12.564	5.8873e-05	23.792	0.049065	0.058097	0.01614	1268.2	0.00062471	0.00064065	1443.1	320.71	0.00061539	0.00065534	678.92	191.34	202.98	50.918	0.00064308	76.894	84.749	179.865	161.664	-72.484	55.680	57.602	-73.580	-68.182	-75.835	96.668	-70.863	-67.079	-63.807	-58.148	185.447	-61.251	-8191	255	
1910.124	1	1	0	0	0.033274	0.28177	0.32244	0.075094	0.1762	0.12505	0.32962	0.046675	0.34945	0.22312	0.086346	0.3995	0.064026	0.10996	0.37327	0.082834	-1.2125	-2.4313	-1.7563	-1.6521	-2.2854	-1.7208	-2.0333	-2.3312	-1.5646	-2.1458	-1.9438	-1.7458	-2.2458	-1.6625	-1.8771	-2.3167	68.359	229.520	32.939	-68.815	28.340	-17.452	150.613	258.666	-7.712	171.960	-58.594	273.590	5.730	52.027	178.501	178.054	0.00066148	0.0028452	0.00069668	397.58	3.1233e-05	4.0126e-05	703.01	102.41	3.0764e-05	2.6458e-05	188.82	67.235	37.055	12.529	3.5348e-05	24.596	0.05066	0.059688	0.016488	1281.6	0.00063444	0.00064883	1456	324.81	0.00062426	0.00066273	688.9	193.57	206.18	51.686	0.00065437	78.737	34.584	-84.082	103.537	-71.867	-75.437	210.105	-73.324	-68.143	228.442	65.292	-70.565	-66.272	-64.672	-59.528	220.495	-61.388	-8191	255	
1910.245	1	1	0	0	0.11288	0.15005	0.087399	0.076576	0.064118	0.23965	0.21181	0.21156	0.064022	0.17576	0.25574	0.06541	0.28813	0.27731	0.096885	0.32354	-1.1625	-2.1104	-2.0729	-1.5771	-2.1896	-1.7646	-1.9188	-2.4125	-1.5271	-2.1479	-2.1333	-1.6292	-2.45	-1.6313	-1.6417	-2.4479	-32.131	224.093	151.825	162.145	98.923	115.809	216.099	251.887	63.856	206.235	182.910	26.776	96.744	110.842	32.535	-60.365	0.0003605	0.00075557	0.00058487	404.69	6.4947e-06	4.2633e-05	704.12	103.13	2.5199e-05	1.8514e-05	190.29	67.8	37.093	12.647	2.962e-05	24.315	0.052027	0.061558	0.017095	1321.8	0.00066584	0.00068146	1494.3	337.14	0.00065029	0.00068357	704.49	196.72	208.68	52.1	0.0006545	78.786	46.781	136.927	225.881	-73.189	238.077	28.946	-73.339	-68.174	87.897	48.684	-69.715	-66.972	-64.663	-58.103	59.222	-62.129	-8191	255	
1910.341	1	1	0	0	0.16996	0.17557	0.26936	0.21404	0.082252	0.083979	0.22828	0.38663	0.15224	0.074543	0.094641	0.25385	0.22233	0.13156	0.15469	0.22537	-1.1146	-2.2396	-2.1125	-1.5771	-2.4188	-1.8062	-1.8583	-2.3979	-1.4229	-2.0792	-2.3542	-1.5	-2.2938	-1.9333	-1.5208	-2.3542	-77.092	157.394	77.195	207.179	250.429	241.761	170.017	214.762	158.153	270.868	238.885	-56.254	112.976	16.466	164.324	202.786	0.00040472	0.0017148	0.00076953	405.77	2.4773e-05	2.6072e-05	703.66	101.51	4.1164e-05	1.4577e-05	187.9	67.013	35.982	12.759	1.1884e-05	24.272	0.051927	0.061182	0.016946	1315.2	0.00065917	0.00067241	1477.3	333.12	0.00064231	0.00067726	699.87	196.18	208.57	52.288	0.00065461	78.991	252.814	-72.863	47.913	-71.937	139.566	123.307	-73.671	-67.754	235.626	31.713	-70.647	-66.873	-64.780	-59.577	-5.820	-61.809	-8191	255	
1910.437	1	1	0	0	0.14895	0.1669	0.25859	0.0042608	0.26191	0.14081	0.21894	0.12225	0.047044	0.38159	0.1379	0.092503	0.10075	0.19747	0.113	0.24653	-1.425	-2.0792	-2.2333	-1.4271	-2.2687	-2.1646	-1.5292	-2.4	-1.8104	-1.9375	-2.3479	-1.5958	-2.2125	-1.9333	-1.4188	-2.4062	229.261	74.938	133.651	44.745	18.224	96.297	173.863	193.382	252.909	-30.740	-58.008	130.512	101.512	-67.877	67.929	103.478	4.1219e-05	0.00017723	0.00048168	397.72	2.0189e-05	2.5182e-05	699.68	101.63	4.0942e-05	8.1368e-06	187.3	67	36.957	13.058	2.0441e-05	25.121	0.051999	0.060692	0.016882	1301	0.000648	0.00066049	1457.7	329.22	0.00062858	0.00065726	688.19	193.06	204.31	51.377	0.00063582	77.97	269.961	254.596	107.201	-72.014	-60.727	-14.321	-73.347	-68.351	113.327	7.720	-70.606	-66.037	-65.019	-58.733	72.919	-61.935	-8191	255	
1910.533	1	1	0	0	0.12421	0.21596	0.17764	0.18779	0.36433	0.27263	0.093806	0.13631	0.075435	0.138	0.21298	0.14628	0.13246	0.077929	0.18167	0.057427	-1.2083	-1.8375	-2.3396	-1.4229	-2.2646	-2.0667	-1.7458	-2.4083	-1.7583	-1.7146	-2.4375	-1.6208	-2.1937	-2.1937	-1.5688	-2.3667	-18.512	155.036	-67.430	232.327	0.038	73.676	166.084	248.982	226.189	193.834	149.550	55.012	165.757	259.228	-83.237	259.806	0.00082708	0.0019612	0.00088221	397.88	2.6108e-05	1.6217e-05	704.63	101.91	2.5609e-05	2.5476e-05	189.66	69.356	38.091	13.388	2.826e-05	25.546	0.050369	0.058537	0.016372	1270.1	0.00062451	0.00063466	1434.3	320.89	0.00060127	0.00062709	668.98	188.4	195.91	49.763	0.00060065	76.026	-13.050	3.727	163.335	-71.619	257.288	49.306	-73.220	-67.280	201.908	128.066	-69.878	-66.811	-63.377	-58.506	-74.680	-60.886	-8191	255	
1910.652	1	1	0	0	0.2778	0.25233	0.28409	0.41953	0.19031	0.22891	0.21307	0.044237	0.073143	0.13703	0.099751	0.1638	0.14469	0.35909	0.24258	0.15275	-1.4104	-1.4021	-2.3333	-1.5292	-2.0083	-2.1146	-1.7292	-2.25	-1.7604	-1.7375	-2.2542	-1.7437	-1.9583	-2.2875	-1.4521	-2.425	268.505	9.681	51.662	217.714	-85.657	105.664	249.646	-29.611	145.658	-3.940	147.012	270.611	-0.055	247.041	47.864	-45.292	0.00018664	0.0023634	0.0010727	396.68	4.2511e-05	1.3526e-05	712.12	104.87	2.3788e-05	2.487e-05	194.76	71.475	39.192	13.652	8.8457e-06	26.923	0.047434	0.055217	0.015535	1229.3	0.00059241	0.00060795	1414.6	315.23	0.00058346	0.00060736	665.3	188.88	194	49.654	0.00059139	76.628	157.051	-68.900	140.862	-72.661	122.070	31.870	-73.244	-67.740	-54.732	73.354	-70.114	-65.819	-63.839	-58.636	256.865	-61.042	-8191	255	
1910.724	1	1	0	0	0.086748	0.22649	0.08416	0.31432	0.15856	0.10637	0.3253	0.15051	0.088083	0.19335	0.22987	0.33809	0.2919	0.25975	0.11342	0.2085	-1.4333	-1.5958	-2.2021	-1.725	-1.8667	-2.4354	-1.6833	-2.2854	-2.0729	-1.6042	-2.2646	-1.6792	-1.8083	-2.3583	-1.4958	-2.0896	-44.609	38.148	43.555	149.012	257.816	224.898	217.052	99.161	248.818	36.066	-9.867	186.967	-74.341	-32.756	40.993	246.967	0.00061735	0.002403	0.00051218	410.11	6.2673e-06	2.0847e-05	722.04	107.66	4.2607e-05	1.4316e-05	201.34	72.976	40.665	14.143	3.7316e-05	27.293	0.047081	0.054649	0.015446	1231.7	0.0005871	0.00060804	1419.6	316.8	0.00057873	0.00060247	665.04	189.1	192.8	49.671	0.00058511	76.068	80.209	157.004	-49.448	-72.303	107.044	268.769	-73.485	-67.521	109.399	117.938	-69.575	-65.917	-64.281	-58.002	40.906	-61.105	-8191	255	
1910.820	1	1	0	0	0.1489	0.15393	0.076367	0.11207	0.16616	0.10234	0.26025	0.4124	0.14803	0.46345	0.12864	0.1557	0.29037	0.30048	0.052963	0.14935	-1.5646	-1.6146	-2.1833	-1.8417	-1.6417	-2.5479	-1.6104	-2.2438	-2.2146	-1.5896	-2.2708	-1.8333	-1.7104	-2.2083	-1.4583	-1.9542	235.259	153.169	-28.052	218.758	-35.347	146.691	193.598	226.145	237.980	73.590	188.004	182.534	124.264	233.634	15.662	6.352	0.00081423	0.001432	0.00027443	407.04	1.8641e-05	3.1051e-05	723.09	108	2.7958e-05	1.892e-05	199.71	73.73	41.085	14.119	1.2437e-05	27.986	0.046319	0.053633	0.015195	1220	0.00057406	0.00059837	1407.6	312.96	0.00056905	0.00059355	660.64	188.44	191.99	49.801	0.00058171	76.501	99.754	71.797	197.734	-71.942	148.791	102.002	-73.352	-68.065	266.764	186.844	-69.806	-65.182	-63.495	-58.045	271.045	-60.731	-8191	255	
1910.916	1	1	0	0	0.19547	0.24097	0.1363	0.23532	0.031399	0.13951	0.13713	0.094029	0.2111	0.16214	0.091645	0.035216	0.052097	0.11848	0.078344	0.25668	-1.8583	-1.375	-2.4646	-1.9292	-1.5187	-2.2687	-1.7583	-1.9958	-2.3729	-1.5063	-2.3292	-1.8	-1.7062	-2.5667	-1.5854	-1.9604	208.830	15.348	66.226	175.012	37.487	14.792	25.772	241.820	102.495	249.256	49.848	88.055	175.445	221.601	48.875	56.423	0.00078173	0.00066614	0.00012596	406.42	3.0377e-05	2.2647e-05	727.3	108.45	3.1988e-05	2.004e-06	203.83	73.744	41.231	14.313	1.4536e-05	28.233	0.046502	0.053971	0.015265	1223.2	0.00057503	0.00059984	1411	313.29	0.0005723	0.00059292	660.13	188.33	190.66	49.666	0.00057415	76.238	114.776	-62.328	258.332	-71.945	4.101	-11.507	-73.730	-68.177	82.622	212.734	-69.811	-66.072	-63.163	-57.902	264.696	-60.334	-8191	255	
1911.014	1	1	0	0	0.04285	0.15093	0.27871	0.096002	0.33159	0.19387	0.4917	0.046508	0.14098	0.1053	0.29958	0.1035	0.19747	0.09941	0.034078	0.03687	-1.8417	-1.4833	-2.0542	-2.0687	-1.4979	-2.25	-1.8583	-1.8417	-2.5229	-1.4021	-2.2687	-2.225	-1.6437	-2.3875	-1.7125	-1.9042	250.530	15.939	160.238	163.800	271.148	-34.179	240.032	161.291	251.104	188.660	210.759	-48.281	194.957	-21.038	-5.542	217.624	0.0011111	0.0018184	0.0012709	406.47	3.9035e-06	1.139e-05	715.58	107.38	2.8092e-05	3.1449e-05	202.19	75.761	40.965	14.6	1.5314e-05	28.967	0.045766	0.052768	0.014895	1199.7	0.00056121	0.00058422	1381.5	304.18	0.00055111	0.00056828	638.36	184.48	183.87	48.337	0.00055122	74.84	128.191	-6.483	229.791	-72.097	-56.610	34.870	-72.955	-67.412	-58.656	27.883	-69.790	-65.540	-63.416	-58.336	161.204	-60.903	-8191	255	
1911.133	1	1	0	0	0.041557	0.23464	0.10488	0.13339	0.15775	0.10191	0.14883	0.26798	0.023698	0.31678	0.10227	0.22746	0.18962	0.16398	0.20777	0.19016	-1.9104	-1.5667	-1.975	-2.2646	-1.575	-2.5479	-1.8104	-1.7563	-2.3354	-1.6979	-2.0146	-2.2479	-1.4896	-2.425	-1.8208	-1.6667	36.961	198.589	144.706	-61.365	93.801	29.356	242.690	-79.627	40.953	86.156	-18.779	153.958	-63.355	83.197	-23.958	83.215	0.0008381	0.0011786	0.00049469	404.62	2.3963e-05	2.8092e-05	724.85	107.86	5.3655e-06	3.2494e-05	204.4	74.753	40.928	14.344	3.6766e-05	28.254	0.044287	0.051123	0.014529	1185.1	0.00055794	0.00058565	1392.6	307.69	0.00056816	0.00058912	659.28	190.29	191.81	50.117	0.00058501	76.943	75.962	-23.643	95.315	-71.951	129.400	123.587	-73.510	-67.172	145.879	109.662	-69.039	-66.051	-62.307	-58.344	-67.408	-60.264	-8191	255	
1911.229	1	1	0	0	0.24176	0.1639	0.21199	0.15997	0.20007	0.062227	0.25501	0.072529	0.15185	0.18333	0.12683	0.094288	0.16321	0.25037	0.22958	0.35008	-2.1021	-1.4833	-2.1458	-2.2771	-1.5646	-2.2729	-1.9917	-1.5667	-2.35	-1.7042	-1.8417	-2.4375	-1.6771	-2.25	-1.8937	-1.5979	168.647	61.027	211.735	137.317	165.592	182.078	181.986	136.023	119.315	16.747	168.754	227.485	126.563	91.505	83.704	196.389	0.0012982	0.0035945	0.00064367	401.45	1.4909e-05	5.7313e-05	718.69	107.52	2.2034e-05	1.966e-05	200.84	74.686	41.113	14.218	1.9515e-05	28.182	0.046926	0.054059	0.015149	1222	0.00057631	0.00060208	1402.9	311.32	0.00057703	0.00059418	658.87	190	191.01	49.78	0.00058478	76.59	-25.594	-82.153	-21.636	-71.359	89.158	11.395	-73.194	-68.001	193.716	-31.113	-69.840	-65.564	-61.951	-58.532	259.448	-60.331	-8191	255	
1911.325	1	1	0	0	0.07194	0.051062	0.22367	0.026177	0.40684	0.30968	0.21245	0.063665	0.039581	0.23495	0.2087	0.069252	0.12768	0.17994	0.11748	0.19616	-2.05	-1.8667	-1.7167	-2.5333	-1.4667	-2.1833	-2.1896	-1.6083	-2.3854	-1.7563	-1.7354	-2.325	-1.6354	-2.3604	-2.0292	-1.5354	40.768	44.107	-81.069	99.858	16.776	194.149	76.642	-0.847	268.887	105.947	-76.301	-62.012	219.345	164.631	-7.711	-60.980	0.00014218	0.0037195	8.7046e-05	403.86	2.7301e-05	2.2253e-05	708.73	108.74	3.2622e-05	3.0993e-05	204.72	74.123	40.039	13.958	8.4972e-06	27.634	0.047101	0.054259	0.015283	1235.2	0.00058747	0.00061533	1423.6	319.97	0.00060237	0.00062375	681.89	196.31	199.13	51.249	0.00061954	78.506	75.443	262.528	-17.008	-72.673	-39.456	48.303	-73.279	-68.221	220.910	-69.106	-69.572	-65.574	-62.160	-58.421	35.799	-60.173	-8191	255	
1911.421	1	1	0	0	0.24189	0.027912	0.21313	0.13157	0.1378	0.10121	0.18208	0.08383	0.17753	0.16448	0.074852	0.12047	0.11761	0.21897	0.14215	0.12291	-1.9354	-1.8125	-1.6542	-2.3958	-1.5208	-2.0125	-2.3312	-1.525	-2.1979	-1.8583	-1.6917	-2.475	-1.7042	-2.0917	-2.5208	-1.7062	-84.191	-35.034	29.143	-76.268	116.772	15.589	239.644	27.392	141.219	-44.781	-64.033	253.500	197.727	-2.100	133.346	-2.031	0.00064929	0.0028914	0.00011768	408.14	2.3622e-05	4.5217e-06	724.87	108.83	5.2224e-05	1.4648e-05	202.85	73.863	39.895	13.951	1.8249e-05	27.41	0.0498	0.057282	0.016006	1282.8	0.00061298	0.0006352	1452.9	324.22	0.00060897	0.00062544	679.16	195.15	196.58	50.42	0.00060597	77.28	218.432	173.504	-1.082	-71.534	109.954	126.027	-73.534	-67.191	231.328	59.628	-70.139	-65.158	-64.440	-58.397	-25.813	-60.643	-8191	255	
1911.517	1	1	0	0	0.11492	0.11597	0.030325	0.091954	0.30265	0.069853	0.079699	0.10888	0.085016	0.13299	0.17133	0.27587	0.1702	0.28046	0.23827	0.068987	-1.8958	-2.1125	-1.5646	-2.2292	-1.5292	-1.8458	-2.4625	-1.4688	-2.2812	-2.1167	-1.2917	-2.5187	-1.6854	-1.7396	-2.0958	-1.7042	79.764	44.472	-71.220	211.739	95.806	-34.886	101.505	187.590	-40.083	-63.481	245.784	181.669	160.809	90.536	228.578	237.606	0.00094127	0.0026393	0.00050635	410.5	9.7395e-06	4.9985e-05	721.68	108.2	3.6532e-05	2.1021e-05	203.76	75.121	41.61	14.027	4.0207e-05	27.542	0.048209	0.055532	0.015518	1258	0.00059599	0.00061939	1443.1	321.21	0.000602	0.00062244	679.05	195.96	196.97	50.467	0.00060941	77.53	-26.166	199.215	65.956	-71.591	140.291	48.906	-73.187	-67.319	-53.554	125.609	-69.114	-65.653	-62.888	-57.158	27.502	-60.608	-8191	255	
1911.614	1	1	0	0	0.12297	0.032642	0.092297	0.19792	0.23175	0.14009	0.32755	0.1501	0.05923	0.13185	0.18115	0.27771	0.26833	0.29291	0.23997	0.23067	-1.9	-2.1458	-1.4417	-2.3792	-1.8417	-1.5417	-2.3604	-1.3937	-2.0771	-2.0438	-1.5479	-2.4062	-1.9042	-1.6063	-2.5125	-1.6333	245.382	60.022	180.105	-48.831	51.987	100.479	151.492	230.517	49.101	230.064	236.542	222.896	8.424	246.963	162.674	70.845	0.00077141	0.0048725	0.00015431	408.3	3.9317e-05	9.39e-06	721.11	110.26	1.6429e-05	8.5272e-06	206.85	74.405	40.747	13.991	1.9808e-05	27.712	0.04799	0.055607	0.015515	1256	0.00059229	0.00061363	1430.6	318.01	0.00058588	0.00060988	667.62	192.17	193.11	49.512	0.00059353	76.216	192.745	-18.242	218.722	-72.231	-66.529	-71.596	-73.039	-67.107	247.109	227.824	-69.568	-65.519	-64.188	-57.050	-17.430	-60.612	-8191	255	
1911.734	1	1	0	0	0.26954	0.029408	0.10072	0.36884	0.31007	0.20373	0.18577	0.13988	0.11621	0.17041	0.26278	0.12961	0.0075961	0.31721	0.25936	0.10225	-1.7667	-2.1562	-1.5042	-2.2625	-1.7417	-1.4958	-2.3021	-1.4979	-2.0958	-2.1937	-1.5	-2.55	-1.9979	-1.6063	-2.2708	-1.8813	13.987	154.873	-29.130	-48.386	7.531	239.928	135.782	-49.556	176.146	-36.478	237.799	231.971	17.243	248.428	11.778	164.606	0.00075466	0.0036513	0.00096238	415.06	4.1692e-05	1.9654e-05	713.08	108.13	1.2455e-05	1.241e-05	201.52	73.993	40.635	14.17	2.9975e-05	28.246	0.046757	0.054699	0.015212	1239.4	0.00058601	0.00060702	1416.3	315.49	0.00058166	0.00060709	662.22	190.85	192.09	49.441	0.00058917	76.152	202.197	-45.433	-71.681	-71.396	266.234	-45.392	-73.399	-67.437	223.401	66.120	-70.082	-65.302	-63.051	-58.037	235.579	-60.657	-8191	255	
1911.829	1	1	0	0	0.057188	0.25948	0.034483	0.19701	0.18293	0.050075	0.18672	0.05693	0.18943	0.14472	0.20942	0.21696	0.39948	0.057303	0.21029	0.1308	-1.5312	-2.275	-1.4417	-2.1104	-1.8604	-1.5771	-2.3146	-1.7542	-1.6063	-2.475	-1.5271	-2.0354	-2.2896	-1.4792	-2.3292	-1.8979	-47.550	-42.178	112.976	-62.047	271.080	18.426	193.429	175.035	38.535	226.475	37.931	-20.975	271.344	-16.743	108.969	47.459	0.00054413	0.0026569	0.00019829	408.11	3.0812e-05	4.9726e-06	710.4	110.84	2.6118e-05	1.4009e-05	208.35	74.869	41.08	15.066	2.7467e-05	29.873	0.045955	0.053547	0.014712	1208.2	0.00056434	0.00058272	1386.3	310.89	0.00056471	0.0005943	656.29	190.16	192.21	50.111	0.00058847	78.206	8.750	154.011	116.734	-71.581	112.214	168.753	-73.746	-67.690	58.448	184.602	-69.515	-65.012	-62.695	-57.537	-36.126	-60.869	-8191	255	
1911.925	1	1	0	0	0.13506	0.19327	0.32134	0.097343	0.040119	0.16114	0.26293	0.21193	0.085185	0.21141	0.11915	0.25804	0.14163	0.19049	0.11142	0.13345	-1.3937	-2.3708	-1.5646	-2.0792	-2.1	-1.4083	-2.3937	-1.7167	-1.5812	-2.4458	-1.5729	-1.9813	-2.1833	-1.4854	-2.2458	-2.0396	-57.995	176.569	83.669	225.742	155.964	185.432	237.451	-79.912	-5.876	92.763	129.571	183.703	248.294	-77.798	37.214	246.894	0.00095466	0.0040396	0.00043202	408	9.8097e-06	1.2352e-05	699.5	111.05	2.1556e-05	1.0896e-05	210.25	75.72	41.388	15.818	4.3608e-05	31.924	0.046387	0.054542	0.015128	1235	0.00058937	0.00060942	1417.4	321.03	0.00059157	0.00062267	676.71	195.55	198.55	52.079	0.00060519	81.555	158.606	6.131	263.836	-72.183	145.061	-38.426	-73.438	-67.358	189.196	68.501	-69.581	-65.510	-64.012	-58.103	77.359	-60.598	-8191	255	
1912.021	1	1	0	0	0.16014	0.084892	0.16654	0.089375	0.14398	0.10536	0.21479	0.046185	0.23505	0.31618	0.32339	0.27084	0.22349	0.12813	0.11982	0.36431	-1.1583	-2.3187	-1.5354	-1.9896	-2.2229	-1.7104	-2.4729	-2.0833	-1.4917	-2.3833	-1.6562	-1.9146	-2.3396	-1.4396	-2.3521	-2.1458	59.185	115.201	143.047	208.441	168.292	114.793	121.099	-67.489	119.935	273.597	199.114	-77.971	220.480	-53.843	97.542	116.091	0.00079193	0.0018327	0.00080841	418.13	2.7404e-05	3.9393e-05	713.66	117.35	2.8242e-05	2.3061e-05	217.47	80.041	43.812	16.809	1.7456e-05	33.036	0.047375	0.055455	0.015239	1243	0.00058759	0.00060227	1421	323.46	0.00057593	0.00060667	671.12	195.29	196.14	52.057	0.00058765	81.886	-81.181	-20.550	-20.822	-72.615	-56.317	168.437	-72.955	-67.385	57.148	-78.069	-69.402	-65.228	-63.168	-58.460	156.903	-61.634	-8191	255	
#DATA ENDS
