BOXY.EXE: ISS Imagent and Oximeter Data Acquisition Program Version 0.80
Ascii Record File

#ACQ INFORMATION
2  Detector Channels 
16  External MUX Channels 
1  Auxiliary Channels 
5000  Waveform (CCF) Frequency (Hz)
1  Waveforms Skipped 
30  Waveforms Averaged 
1  Cycles Averaged 
16  Acquisitions per Waveform 
10.0806  Updata Rate (Hz) 

#FILE INFORMATION
TRUE -- External MUX Channel results are PARSED.
FALSE -- AC DC and Phase are NOT grouped.
TRUE -- Companion Program Settings File CREATED.
FALSE -- AC data not excluded
FALSE -- DC data not excluded
FALSE -- Phase data not excluded
FALSE -- Auxillary Chn. data not excluded
Tab delimiters

#CALIBRATION STATE
TRUE -- Waveform Calibration Values APPLIED.


#AUX CALIBRATION VALUES
Val Type	aux-1	

Term	1.0000e+00	
Factor	0.0000e+00	


#WF CALIBRATION VALUES
A = Detector Channel
Val Type	A-AC1	A-AC2	A-AC3	A-AC4	A-AC5	A-AC6	A-AC7	A-AC8	A-AC9	A-AC10	A-AC11	A-AC12	A-AC13	A-AC14	A-AC15	A-AC16	A-DC1	A-DC2	A-DC3	A-DC4	A-DC5	A-DC6	A-DC7	A-DC8	A-DC9	A-DC10	A-DC11	A-DC12	A-DC13	A-DC14	A-DC15	A-DC16	A-Ph1	A-Ph2	A-Ph3	A-Ph4	A-Ph5	A-Ph6	A-Ph7	A-Ph8	A-Ph9	A-Ph10	A-Ph11	A-Ph12	A-Ph13	A-Ph14	A-Ph15	A-Ph16	

Term	0.00000e+00	0.00000e+00	0.00000e+00	0.00000e+00	0.00000e+00	0.00000e+00	0.00000e+00	0.00000e+00	0.00000e+00	0.00000e+00	0.00000e+00	0.00000e+00	0.00000e+00	0.00000e+00	0.00000e+00	0.00000e+00	0.00000e+00	0.00000e+00	0.00000e+00	0.00000e+00	0.00000e+00	0.00000e+00	0.00000e+00	0.00000e+00	0.00000e+00	0.00000e+00	0.00000e+00	0.00000e+00	0.00000e+00	0.00000e+00	0.00000e+00	0.00000e+00	0.00000e+00	0.00000e+00	0.00000e+00	0.00000e+00	0.00000e+00	0.00000e+00	0.00000e+00	0.00000e+00	0.00000e+00	0.00000e+00	0.00000e+00	0.00000e+00	0.00000e+00	0.00000e+00	0.00000e+00	0.00000e+00	
Factor	1.00000e+00	1.00000e+00	1.00000e+00	1.00000e+00	1.00000e+00	1.00000e+00	1.00000e+00	1.00000e+00	1.00000e+00	1.00000e+00	1.00000e+00	1.00000e+00	1.00000e+00	1.00000e+00	1.00000e+00	1.00000e+00	1.00000e+00	1.00000e+00	1.00000e+00	1.00000e+00	1.00000e+00	1.00000e+00	1.00000e+00	1.00000e+00	1.00000e+00	1.00000e+00	1.00000e+00	1.00000e+00	1.00000e+00	1.00000e+00	1.00000e+00	1.00000e+00	X	X	X	X	X	X	X	X	X	X	X	X	X	X	X	X	

B = Detector Channel
Val Type	B-AC1	B-AC2	B-AC3	B-AC4	B-AC5	B-AC6	B-AC7	B-AC8	B-AC9	B-AC10	B-AC11	B-AC12	B-AC13	B-AC14	B-AC15	B-AC16	B-DC1	B-DC2	B-DC3	B-DC4	B-DC5	B-DC6	B-DC7	B-DC8	B-DC9	B-DC10	B-DC11	B-DC12	B-DC13	B-DC14	B-DC15	B-DC16	B-Ph1	B-Ph2	B-Ph3	B-Ph4	B-Ph5	B-Ph6	B-Ph7	B-Ph8	B-Ph9	B-Ph10	B-Ph11	B-Ph12	B-Ph13	B-Ph14	B-Ph15	B-Ph16	

Term	0.00000e+00	0.00000e+00	0.00000e+00	0.00000e+00	0.00000e+00	0.00000e+00	0.00000e+00	0.00000e+00	0.00000e+00	0.00000e+00	0.00000e+00	0.00000e+00	0.00000e+00	0.00000e+00	0.00000e+00	0.00000e+00	0.00000e+00	0.00000e+00	0.00000e+00	0.00000e+00	0.00000e+00	0.00000e+00	0.00000e+00	0.00000e+00	0.00000e+00	0.00000e+00	0.00000e+00	0.00000e+00	0.00000e+00	0.00000e+00	0.00000e+00	0.00000e+00	-2.13723e+02	-1.41593e+02	-1.27316e+02	-1.82794e+02	-7.62647e+01	-6.59945e+01	-1.59761e+02	-1.62015e+02	-7.53054e+01	-7.44318e+01	-1.73616e+02	-1.70170e+02	-1.81260e+02	-1.77206e+02	-7.31111e+01	-1.49760e+02	
Factor	4.16295e-05	1.17231e-04	3.50628e-05	1.64734e-01	1.28751e-06	1.54204e-06	1.47184e-01	4.12149e-02	1.81911e-06	1.33572e-06	9.52221e-02	2.38390e-02	3.04876e-02	7.01546e-03	1.41733e-06	9.91543e-03	5.25627e-06	6.12416e-06	1.70953e-06	9.15001e-02	6.56472e-08	6.77175e-08	7.64599e-02	2.29259e-02	6.50200e-08	6.78082e-08	5.11528e-02	1.28320e-02	1.70617e-02	3.94400e-03	6.63377e-08	5.38573e-03	X	X	X	X	X	X	X	X	X	X	X	X	X	X	X	X	



#DISTANCE SETTINGS
A = Detector Channel
A-1	A-2	A-3	A-4	A-5	A-6	A-7	A-8	A-9	A-10	A-11	A-12	A-13	A-14	A-15	A-16	

2.5000e+00	3.0000e+00	2.5000e+00	3.0000e+00	2.0000e+00	3.0000e+00	1.5000e+00	3.0000e+00	3.0000e+00	3.0000e+00	3.0000e+00	3.0000e+00	3.0000e+00	3.0000e+00	1.5000e+00	3.0000e+00	

B = Detector Channel
B-1	B-2	B-3	B-4	B-5	B-6	B-7	B-8	B-9	B-10	B-11	B-12	B-13	B-14	B-15	B-16	

1.0000e+01	1.0000e+01	1.0000e+01	1.4400e+00	1.0000e+01	1.0000e+01	1.5100e+00	1.9400e+00	1.0000e+01	1.0000e+01	1.9900e+00	2.4900e+00	2.4100e+00	2.9000e+00	1.0000e+01	2.9800e+00	




#DATA BEGINS
time	group	step	mark	flag	A-AC1	A-AC2	A-AC3	A-AC4	A-AC5	A-AC6	A-AC7	A-AC8	A-AC9	A-AC10	A-AC11	A-AC12	A-AC13	A-AC14	A-AC15	A-AC16	A-DC1	A-DC2	A-DC3	A-DC4	A-DC5	A-DC6	A-DC7	A-DC8	A-DC9	A-DC10	A-DC11	A-DC12	A-DC13	A-DC14	A-DC15	A-DC16	A-Ph1	A-Ph2	A-Ph3	A-Ph4	A-Ph5	A-Ph6	A-Ph7	A-Ph8	A-Ph9	A-Ph10	A-Ph11	A-Ph12	A-Ph13	A-Ph14	A-Ph15	A-Ph16	B-AC1	B-AC2	B-AC3	B-AC4	B-AC5	B-AC6	B-AC7	B-AC8	B-AC9	B-AC10	B-AC11	B-AC12	B-AC13	B-AC14	B-AC15	B-AC16	B-DC1	B-DC2	B-DC3	B-DC4	B-DC5	B-DC6	B-DC7	B-DC8	B-DC9	B-DC10	B-DC11	B-DC12	B-DC13	B-DC14	B-DC15	B-DC16	B-Ph1	B-Ph2	B-Ph3	B-Ph4	B-Ph5	B-Ph6	B-Ph7	B-Ph8	B-Ph9	B-Ph10	B-Ph11	B-Ph12	B-Ph13	B-Ph14	B-Ph15	B-Ph16	aux-1	digaux	

2288.682	1	1	0	256	0.24252	0.18086	0.12626	0.21498	0.089052	0.11919	0.13843	0.27664	0.2057	0.17349	0.15906	0.25492	0.025215	0.12815	0.099598	0.25234	-1.4604	-0.7375	-1.7083	-1.3833	-1.0521	-1.9021	-1.2563	-1.2313	-1.8312	-1.0625	-1.5375	-1.6125	-0.98958	-1.7792	-1.1292	-1.1354	204.868	217.418	42.551	211.519	-88.062	4.785	53.345	26.822	-111.047	-122.069	-60.450	121.668	-12.567	111.280	-27.110	220.752	0.00044967	0.0007786	0.00014286	126.2	5.2215e-06	7.9438e-06	208.67	50.489	7.1e-06	8.262e-06	100.22	43.862	21.805	9.6378	7.385e-06	21.166	0.0024947	0.0028196	0.00081187	165.13	3.0365e-05	3.2208e-05	242.23	60.475	3.1121e-05	3.2253e-05	123.47	50.545	29.96	11.597	3.2794e-05	23.853	111.744	-108.551	75.674	-110.993	24.511	36.099	-111.411	-104.329	74.948	21.575	-106.698	-103.703	-102.717	-97.354	-34.102	-100.497	-8191	255	
2288.778	1	1	0	0	0.29122	0.10456	0.28301	0.14038	0.10513	0.003629	0.34186	0.35148	0.14008	0.11999	0.085073	0.18055	0.24799	0.19189	0.11987	0.33723	-1.4813	-0.95208	-1.3875	-1.6542	-1.0625	-1.8625	-1.3375	-1.0875	-1.8708	-0.98125	-1.5187	-1.6958	-1.1229	-1.7292	-1.375	-1.2896	-114.172	-91.890	109.370	-107.653	-78.187	204.873	196.952	-47.902	234.659	175.937	-113.713	-3.916	183.885	194.091	86.292	62.093	0.00044524	0.00038667	0.00013011	119.28	9.0267e-06	6.8999e-06	205.61	49.04	1.2648e-05	2.8111e-06	97.709	44.221	21.612	9.4982	3.8142e-06	21.003	0.0026631	0.0030058	0.00085439	164.88	3.211e-05	3.3867e-05	241.73	59.885	3.2154e-05	3.3103e-05	122.43	50.171	29.904	11.462	3.2074e-05	23.612	126.602	216.875	233.926	-110.787	67.802	83.265	-111.512	-104.308	0.315	-96.665	-107.610	-103.602	-102.201	-98.018	-7.546	-99.954	-8191	255	
2288.874	1	1	0	0	0.03596	0.1706	0.047231	0.1215	0.065354	0.34038	0.1511	0.22917	0.075797	0.19167	0.27502	0.27182	0.20515	0.23864	0.060195	0.32627	-1.5104	-1.2917	-1.1854	-1.6292	-0.87708	-1.7542	-1.6333	-0.975	-1.8292	-1.0542	-1.2	-1.8229	-0.9	-1.5688	-1.5	-1.15	-65.494	182.758	-108.830	221.440	-34.882	102.987	118.301	109.821	225.558	76.782	-48.732	119.011	47.292	-114.694	-15.680	-21.450	0.00019019	0.00028554	9.8561e-05	120.39	9.4347e-06	9.4813e-06	203.62	49.064	1.0125e-05	6.0336e-06	98.57	44.03	21.564	9.5732	1.382e-06	21.223	0.0025868	0.0029451	0.00082269	163.58	3.1188e-05	3.3179e-05	239.9	59.337	3.1521e-05	3.254e-05	121.94	50.179	29.621	11.472	3.2106e-05	23.845	115.172	203.113	183.217	-109.761	13.140	226.501	-111.755	-104.484	-78.682	0.753	-107.612	-103.349	-102.303	-97.218	-105.386	-100.094	-8191	255	
2288.970	1	1	0	0	0.14535	0.043433	0.010208	0.082658	0.11514	0.14179	0.16289	0.17621	0.021184	0.095549	0.43526	0.049755	0.19584	0.2278	0.24201	0.25291	-1.425	-0.96042	-1.1729	-1.7542	-0.94375	-1.4958	-1.7042	-1.1437	-1.8312	-1.4229	-1.2958	-1.7917	-1.025	-1.4292	-1.6562	-0.95	192.842	-71.593	149.278	44.165	162.173	29.377	-9.005	102.548	50.500	236.312	-96.145	-5.674	127.660	-74.827	22.056	-93.937	0.00037589	0.00057762	0.00012382	119.69	2.6876e-06	1.2195e-05	207.05	49.062	1.312e-05	7.5045e-06	97.758	44.555	21.739	9.591	8.9646e-06	21.674	0.0025991	0.0029769	0.00083163	163.87	3.2018e-05	3.4901e-05	243.36	60.154	3.4347e-05	3.5601e-05	124.38	51.422	30.858	11.826	3.6938e-05	24.618	138.597	-65.671	15.580	-108.983	20.384	-58.469	-111.127	-104.469	-46.654	-48.876	-106.836	-103.546	-102.835	-97.556	99.941	-100.096	-8191	255	
2289.066	1	1	0	0	0.044308	0.10461	0.058128	0.19378	0.14063	0.21046	0.17883	0.091027	0.30005	0.060503	0.28891	0.37744	0.054383	0.066854	0.10543	0.21206	-1.45	-1.2521	-1.0479	-1.8979	-1.2604	-1.4708	-1.7667	-0.93125	-1.8125	-1.4229	-0.98125	-1.9688	-0.96875	-1.35	-1.6896	-0.90833	101.469	-62.926	144.772	-93.944	-104.123	59.514	-29.289	-40.586	-29.812	-5.110	32.158	157.561	-97.432	20.237	230.609	156.485	0.00035047	0.00026886	0.00021391	121.16	3.4557e-06	2.2367e-06	206.44	48.544	6.0069e-06	1.2696e-05	100.29	45.11	21.777	9.5687	6.8233e-06	21.552	0.0030548	0.0034631	0.00097338	171.42	3.7288e-05	3.9061e-05	249.09	61.743	3.8006e-05	3.9509e-05	128.27	52.267	31.702	11.954	3.992e-05	24.934	103.942	57.177	71.846	-110.202	-82.491	50.456	-110.923	-104.217	39.018	12.508	-106.896	-103.765	-102.038	-97.750	117.582	-100.173	-8191	255	
2289.162	1	1	0	0	0.25927	0.15904	0.13101	0.067617	0.15813	0.080037	0.13495	0.22295	0.16374	0.2506	0.16912	0.063062	0.1875	0.08487	0.015106	0.33033	-1.2521	-1.4562	-0.76042	-2.0333	-1.0229	-1.2521	-1.8083	-0.97708	-1.7167	-1.6479	-1.1688	-1.8229	-1.3292	-1.2354	-1.7375	-0.95	163.753	-107.176	198.291	103.148	78.114	109.916	117.773	-76.440	186.527	170.202	-59.542	8.661	102.878	84.211	151.613	174.527	0.00040164	0.00055829	9.0904e-05	120.24	1.2704e-06	8.4076e-06	204.96	47.954	1.1322e-05	6.1164e-06	97.623	44.479	21.52	9.5026	1.3029e-05	21.154	0.003277	0.0038053	0.0010621	175.92	4.0905e-05	4.2695e-05	250.57	61.884	4.0364e-05	4.1092e-05	127.98	52.21	31.76	11.913	4.0342e-05	24.544	125.306	35.624	-23.533	-110.219	-114.545	178.971	-112.016	-104.752	-8.756	-8.929	-106.824	-103.680	-102.260	-97.664	224.727	-100.287	-8191	255	
2289.283	1	1	0	0	0.26303	0.1775	0.25275	0.1876	0.12151	0.27949	0.18068	0.031725	0.16775	0.22418	0.23003	0.025587	0.055257	0.25656	0.2699	0.10061	-1.2313	-1.6333	-0.82083	-1.6271	-1.2875	-1.15	-1.8188	-0.98333	-1.375	-1.5458	-0.84583	-1.6229	-1.1292	-1.0354	-1.7458	-0.94375	-35.493	151.999	-66.141	222.657	54.221	-65.471	-75.902	33.873	140.872	-69.755	153.076	-10.135	54.404	-90.366	9.373	-121.945	0.00026709	0.00049368	0.00012221	119.47	7.9131e-06	1.1811e-05	200.75	47.506	7.9099e-06	5.8227e-06	97.082	44.755	21.697	9.5002	1.0771e-05	21.645	0.0033114	0.0037799	0.0010441	174.46	4.0865e-05	4.2017e-05	246.93	61.309	4.1134e-05	4.2559e-05	128.52	52.532	32.236	12.023	4.2437e-05	25.043	101.205	-79.980	14.559	-110.045	85.140	-12.510	-110.929	-104.468	162.552	138.452	-107.063	-103.175	-102.322	-97.633	-81.069	-100.346	-8191	255	
2289.377	1	1	0	0	0.059281	0.16372	0.24881	0.19026	0.28584	0.15262	0.11863	0.093007	0.20137	0.32919	0.12052	0.082039	0.14589	0.3347	0.26579	0.092682	-0.90417	-1.6042	-0.89375	-1.8146	-1.45	-1.0917	-1.8062	-0.99792	-1.2646	-1.55	-1.0417	-1.6938	-1.4792	-1.0417	-1.8438	-1.275	-77.594	51.286	233.163	57.547	115.355	223.671	-33.575	128.742	148.615	-45.791	153.506	107.066	149.282	159.520	68.025	222.130	0.00043502	0.00053392	0.00030648	116.33	7.2926e-06	3.0493e-06	198.55	47.003	6.886e-06	1.0646e-05	98.514	44.769	21.203	9.6968	7.007e-06	22.082	0.0033693	0.003851	0.0010816	173.33	4.1846e-05	4.3019e-05	246.62	61.302	4.2559e-05	4.4644e-05	129.99	53.357	32.636	12.282	4.4098e-05	25.723	109.753	212.836	9.101	-109.988	-86.634	-17.169	-111.640	-104.273	101.547	115.499	-107.178	-103.281	-101.791	-97.915	8.416	-100.406	-8191	255	
2289.473	1	1	0	0	0.10966	0.13761	0.23267	0.051869	0.25666	0.32538	0.21781	0.099277	0.11198	0.26823	0.23708	0.094644	0.23581	0.22682	0.097696	0.248	-0.71667	-1.7	-0.98958	-1.7188	-1.7896	-1.2354	-1.8167	-1.2958	-1.0604	-2.0687	-1.1125	-1.5125	-1.45	-0.74583	-1.7625	-1.3292	152.891	-111.575	60.370	89.351	45.453	-109.782	116.952	220.623	109.159	230.931	231.322	166.861	90.000	77.556	32.766	187.522	0.00054348	0.00051016	0.00024924	114.56	5.2412e-06	9.2049e-06	196.93	46.559	1.5615e-05	5.0804e-06	94.834	44.849	21.16	9.6359	3.5257e-06	21.942	0.0034885	0.0040464	0.0011025	172.9	4.2873e-05	4.3556e-05	244.66	60.836	4.1667e-05	4.3958e-05	127.53	52.967	31.799	12.016	4.1083e-05	25.342	110.717	218.823	80.184	-110.598	219.046	117.320	-110.770	-105.135	33.732	54.686	-107.564	-103.548	-101.528	-96.929	138.238	-100.582	-8191	255	
2289.570	1	1	0	0	0.18526	0.22289	0.11273	0.068948	0.1694	0.13733	0.19841	0.23921	0.031343	0.28651	0.065107	0.052405	0.23559	0.064498	0.14119	0.16898	-0.71667	-1.7812	-1.0354	-1.4521	-1.5167	-0.86667	-1.7792	-1.2854	-1.0562	-1.7375	-1.0625	-1.4937	-1.5896	-1.0833	-1.9771	-1.3813	-19.234	69.838	98.537	92.351	-49.863	146.423	159.860	178.713	16.851	-69.053	201.625	162.232	101.928	-69.447	-85.571	220.626	0.0001808	0.0005698	9.0701e-05	112.39	2.3897e-06	6.9421e-06	199.79	46.452	8.7107e-06	8.2348e-06	97.019	45.122	21.064	9.4949	5.7983e-06	21.902	0.0031985	0.0037106	0.0010126	165.4	3.8033e-05	3.8459e-05	239.41	58.632	3.5721e-05	3.7267e-05	123.86	51.764	29.972	11.501	3.4283e-05	24.679	83.923	-21.119	-119.606	-110.203	97.653	66.386	-110.853	-104.570	-80.414	194.633	-106.696	-103.229	-102.553	-97.050	-8.074	-100.249	-8191	255	
2289.666	1	1	0	0	0.067912	0.24592	0.21091	0.1143	0.35126	0.27264	0.058713	0.25184	0.3423	0.1173	0.1785	0.045581	0.073329	0.30092	0.20915	0.15326	-0.52292	-1.7167	-1.05	-1.0792	-1.6729	-0.875	-1.6125	-1.6	-0.96667	-1.7667	-1.0208	-1.1875	-1.8	-0.9625	-1.6083	-1.4875	52.107	-114.361	190.851	-87.924	-39.239	119.900	212.947	-45.961	-100.039	29.447	-48.916	-54.880	-34.206	57.196	36.779	29.767	0.00026241	0.00082977	0.00020513	112.27	2.2753e-06	5.792e-06	199.97	47.824	1.1889e-05	5.1046e-06	100.62	45.569	21.744	9.6497	3.9321e-06	21.864	0.0026293	0.0030365	0.00082066	154.49	3.0669e-05	3.1002e-05	232.69	57.387	2.8191e-05	2.9089e-05	120.41	50.715	28.426	11.19	2.5598e-05	24.101	93.567	122.560	163.793	-109.891	9.950	148.806	-110.865	-103.959	96.117	10.986	-107.677	-103.062	-101.786	-97.577	139.508	-100.443	-8191	255	
2289.762	1	1	0	0	0.2654	0.1873	0.14595	0.34145	0.17171	0.13626	0.13825	0.2479	0.23661	0.24019	0.072242	0.080903	0.14774	0.12793	0.1391	0.042143	-0.52292	-1.7313	-1.2667	-1.0083	-1.7229	-1.2146	-1.5417	-1.65	-0.92083	-1.6542	-1.2833	-1.0625	-1.9875	-0.92708	-1.3188	-1.6917	69.904	36.851	157.341	165.156	190.409	47.814	100.663	-62.318	95.139	-54.786	112.896	236.935	61.561	-76.092	-78.138	37.987	0.00043173	0.00048112	0.00017025	118.81	1.7287e-06	5.0168e-06	213.07	50.592	7.189e-06	4.5437e-06	105.52	47.053	22.408	9.8114	2.6246e-06	22.783	0.0019673	0.0022633	0.00061142	147.97	2.3341e-05	2.361e-05	234.88	57.936	2.1936e-05	2.2933e-05	120.68	51.022	28.044	11.214	2.2437e-05	24.452	103.352	4.305	95.100	-110.880	-30.515	224.826	-110.856	-104.776	-65.366	-21.513	-107.666	-103.423	-102.455	-97.516	68.418	-100.218	-8191	255	
2289.858	1	1	0	0	0.21484	0.30852	0.10975	0.20744	0.25281	0.10818	0.28211	0.20637	0.16726	0.11245	0.075695	0.22203	0.11185	0.20752	0.12635	0.068084	-0.6125	-1.6875	-1.2604	-0.92917	-1.8021	-1.1396	-1.35	-1.6313	-1.1333	-1.7271	-1.475	-0.95417	-1.8188	-1.0729	-1.3062	-1.7812	112.555	143.293	-90.913	46.138	-106.038	-60.057	104.634	-10.720	5.131	-58.142	-23.676	68.598	119.965	-89.059	-5.193	135.993	0.00046505	4.3897e-05	5.8464e-05	115.64	1.0462e-05	7.104e-06	211.23	51.008	6.6185e-06	5.7424e-06	106.17	47.373	22.613	10.086	1.4643e-06	23.11	0.0017942	0.0021088	0.00057803	146.68	2.2452e-05	2.2638e-05	236.19	58.319	2.1293e-05	2.2769e-05	122.26	51.491	28.105	11.322	2.0924e-05	24.781	121.488	194.980	-47.111	-109.476	-87.940	-63.217	-110.928	-104.288	217.099	-39.079	-107.819	-103.726	-101.845	-97.689	175.077	-100.452	-8191	255	
2289.979	1	1	0	0	0.36613	0.17451	0.052961	0.18926	0.070203	0.21429	0.25898	0.17643	0.17167	0.39423	0.15227	0.12931	0.27605	0.078901	0.20968	0.2192	-0.60833	-1.5438	-1.6437	-0.96667	-1.725	-1.0792	-1.1583	-1.9188	-1.0604	-1.6771	-1.625	-0.95208	-1.8979	-1.2188	-1.1229	-2.0583	37.410	-119.841	85.422	223.888	26.052	95.724	99.950	61.870	40.927	-46.088	194.015	56.974	206.957	-119.357	48.754	-75.644	0.00057123	0.00048083	3.5915e-05	123.24	3.2256e-06	6.3506e-06	221.84	53.219	5.2874e-06	4.358e-06	110.65	48.239	23.217	10.06	1.6858e-06	23.001	0.0016538	0.0018767	0.00051429	147.41	1.9843e-05	2.0235e-05	242.29	59.354	1.8994e-05	2.0013e-05	124.09	51.785	27.865	11.235	1.8532e-05	24.668	123.275	11.578	121.370	-109.780	62.691	66.940	-111.238	-104.237	7.159	-102.891	-107.100	-103.408	-101.842	-97.480	45.734	-100.361	-8191	255	
2290.075	1	1	0	0	0.22509	0.22351	0.17943	0.13154	0.14639	0.17035	0.17132	0.064359	0.1914	0.070039	0.14566	0.19157	0.22429	0.22343	0.12776	0.17365	-0.52917	-1.4083	-1.6271	-0.90208	-1.7854	-1.3979	-0.95208	-1.6187	-1.1792	-1.3125	-1.725	-1.2104	-1.7375	-1.45	-1.1125	-1.7625	-28.525	125.459	195.813	-114.851	9.811	38.465	-87.004	-102.489	134.029	110.378	-112.646	-77.212	-66.668	56.580	14.563	-121.309	0.00034421	0.00063616	6.3258e-05	124.75	6.5124e-06	4.1349e-06	226.23	53.909	5.0285e-06	4.0063e-06	108.51	47.808	22.778	10.175	3.9562e-06	22.78	0.0014928	0.0017321	0.00047076	148	1.8481e-05	1.9116e-05	243.54	59.803	1.8411e-05	1.9566e-05	122.49	51.239	27.837	11.257	1.9576e-05	24.443	137.105	-53.241	26.679	-109.114	15.734	38.059	-110.973	-104.204	-30.829	-51.868	-107.233	-103.495	-102.533	-97.717	6.333	-100.490	-8191	255	
2290.169	1	1	0	0	0.063384	0.14689	0.029684	0.3326	0.159	0.20921	0.10696	0.034653	0.18802	0.08098	0.13027	0.19279	0.30341	0.14823	0.16437	0.25523	-0.66042	-1.1979	-1.6833	-0.71042	-1.7479	-1.6313	-0.95625	-1.8229	-1.2062	-1.0979	-1.7833	-1.1313	-1.5271	-1.6354	-0.72083	-1.9708	-22.098	190.797	121.663	161.268	221.651	149.239	160.996	210.890	74.375	139.405	-2.778	51.727	164.715	11.105	173.130	179.461	0.00026638	0.00036508	0.00016577	124.98	3.3277e-06	7.4928e-06	215.27	51.657	5.7885e-06	4.1134e-06	106.25	46.486	22.666	9.8818	2.7074e-06	22.36	0.001602	0.0018587	0.00051314	149.62	2.0304e-05	2.1119e-05	237.29	59.095	2.0852e-05	2.2043e-05	122.09	50.707	28.13	11.174	2.1114e-05	24.173	117.621	104.804	1.634	-110.544	75.965	58.719	-110.604	-104.627	-19.018	10.072	-107.024	-102.873	-101.159	-97.130	46.935	-100.241	-8191	255	
2290.265	1	1	0	0	0.19103	0.20657	0.058722	0.057317	0.20786	0.12491	0.27179	0.1973	0.26965	0.30034	0.14204	0.1653	0.26791	0.027982	0.086598	0.31643	-0.59792	-1.0229	-1.7625	-0.86042	-1.4583	-1.5812	-0.875	-1.8312	-1.1708	-1.0396	-1.7042	-0.91667	-1.3312	-1.7479	-0.70625	-1.7896	-1.803	105.161	138.976	-40.871	-55.276	-20.955	190.813	25.933	60.582	222.347	180.714	223.454	183.132	33.154	171.266	189.618	0.00020473	0.0004142	8.8864e-05	122.19	4.5225e-06	6.5508e-06	214.23	51.978	4.8981e-06	4.5097e-06	104.26	46.628	22.997	9.798	7.2012e-06	22.298	0.0016723	0.001958	0.00054277	149.92	2.2004e-05	2.3067e-05	238.86	59.723	2.3169e-05	2.4567e-05	121.9	50.813	28.711	11.254	2.348e-05	24.258	137.171	22.314	-81.119	-109.381	141.311	69.972	-111.226	-104.363	-63.046	68.801	-106.821	-103.362	-101.508	-97.459	107.339	-100.158	-8191	255	
2290.362	1	1	0	0	0.20586	0.18011	0.2516	0.0061504	0.33657	0.20415	0.14333	0.17635	0.10554	0.17857	0.27464	0.26715	0.18669	0.11957	0.1224	0.077025	-0.83333	-0.8375	-1.7354	-0.83125	-1.2167	-1.625	-0.99583	-1.6479	-1.2625	-0.875	-1.9354	-1.1854	-1.3208	-1.7938	-0.97083	-1.7	48.030	195.040	54.105	-70.871	-94.779	-62.946	155.614	-75.018	60.757	-57.309	198.398	-79.331	100.871	33.527	-13.002	67.123	0.00027703	8.2265e-05	7.4107e-05	122.03	2.9421e-06	3.2684e-06	216.83	52.236	5.3767e-06	3.7172e-06	104.04	46.187	22.413	9.843	3.9599e-06	21.768	0.0018746	0.0020998	0.00059924	153.52	2.2978e-05	2.3814e-05	240.59	59.824	2.3308e-05	2.4107e-05	122.5	50.567	28.657	11.262	2.4982e-05	23.918	129.757	44.166	-23.091	-108.746	156.298	198.004	-110.937	-104.556	219.399	41.228	-106.600	-103.662	-101.749	-98.104	36.160	-99.867	-8191	255	
2290.458	1	1	0	0	0.11623	0.18248	0.17136	0.36638	0.18688	0.18258	0.41992	0.10562	0.17146	0.17981	0.14937	0.22709	0.309	0.22931	0.13141	0.29552	-0.99375	-0.95208	-1.6521	-1.1083	-1.1896	-1.7125	-0.77292	-1.5521	-1.6063	-0.89583	-1.8854	-1.3083	-1.2	-1.7479	-0.9125	-1.5458	186.120	59.042	202.166	120.131	71.874	83.935	101.742	138.334	-47.932	-16.265	36.608	171.861	162.612	155.735	-107.469	182.414	3.8139e-05	0.00083602	0.00010855	125.42	2.4783e-06	6.1027e-06	217.78	51.562	1.8516e-06	1.0292e-05	104.39	45.659	22.456	9.6918	4.1132e-06	21.523	0.0020434	0.0023257	0.00066629	157.45	2.5153e-05	2.5782e-05	242.82	60.148	2.4865e-05	2.5526e-05	122.6	50.302	29.055	11.291	2.6019e-05	23.709	-65.553	4.424	187.756	-109.264	30.995	13.856	-110.898	-103.837	113.164	49.093	-107.005	-103.408	-101.829	-97.011	235.436	-100.185	-8191	255	
2290.554	1	1	0	0	0.023216	0.11043	0.12613	0.059755	0.073562	0.23424	0.11185	0.028293	0.23807	0.22657	0.099012	0.071947	0.1032	0.099646	0.13694	0.26678	-1.0854	-0.79792	-1.8104	-1.1292	-1.0417	-1.8146	-0.95833	-1.4667	-1.6812	-1.0688	-1.8042	-1.4271	-0.77083	-1.5896	-1.0562	-1.3312	138.706	-64.227	155.586	-43.947	71.677	35.418	157.224	215.336	129.373	202.802	-86.046	63.615	89.814	148.078	-61.589	160.657	0.00024155	0.0004558	0.00010299	129.74	3.3001e-06	5.5486e-06	215.59	52.031	1.0179e-05	3.8273e-06	100.72	44.5	22.444	9.5448	8.2961e-06	20.477	0.0021836	0.0025221	0.00071734	165.18	2.7495e-05	2.9021e-05	244.44	61.446	2.8509e-05	2.93e-05	122.93	50.107	29.825	11.381	3.0748e-05	23.212	149.543	-14.992	-47.999	-110.016	-18.867	-107.131	-111.233	-104.257	224.042	103.071	-106.484	-103.617	-101.609	-97.433	236.743	-99.344	-8191	255	
2290.650	1	1	0	0	0.23172	0.11753	0.24504	0.044961	0.1463	0.2566	0.12946	0.13258	0.098321	0.18555	0.23646	0.15653	0.058727	0.41062	0.23892	0.07591	-1.3604	-0.67083	-1.4646	-1.3667	-1.0208	-1.8417	-1.1875	-1.2167	-1.7563	-0.93958	-1.6854	-1.3917	-0.925	-1.6979	-1.1271	-1.1854	-14.348	99.740	12.737	-14.516	-25.579	49.126	155.558	178.638	166.248	219.638	188.264	88.262	-95.993	158.325	108.832	38.865	0.00026373	0.00052538	0.00016606	127.94	3.5898e-06	6.6127e-06	209.44	50.768	1.3526e-05	4.3381e-06	98.594	42.917	21.686	9.2039	3.1962e-06	19.731	0.0025324	0.0029118	0.00083758	171.09	3.2738e-05	3.4717e-05	246.49	62.973	3.5855e-05	3.7326e-05	126.91	50.034	31.803	11.691	4.1004e-05	23.103	149.148	-4.879	15.285	-109.152	102.239	-82.774	-110.916	-104.062	46.844	8.321	-107.419	-103.500	-101.289	-97.248	-74.591	-99.516	-8191	255	
2290.771	1	1	0	0	0.3579	0.099375	0.071735	0.26124	0.043374	0.029427	0.25309	0.17926	0.13354	0.11671	0.13586	0.16247	0.25486	0.1335	0.079013	0.094046	-1.3583	-1.0375	-1.6	-1.4583	-1.0354	-1.7521	-1.3208	-1.1125	-1.5312	-1.1562	-1.4208	-1.6354	-0.83542	-1.575	-1.3083	-1.1854	34.217	-39.623	81.164	146.450	2.909	190.596	160.233	-101.225	-38.499	208.476	126.311	202.413	-79.553	107.587	186.483	21.629	0.00027828	0.00086745	0.00019677	128.93	1.142e-05	2.0728e-06	211.44	51.745	1.7891e-05	2.4775e-06	100.08	43.496	22.256	9.7124	1.5193e-05	20.578	0.0034535	0.0040085	0.0011565	189.09	4.5196e-05	4.8423e-05	262.22	68.254	4.8556e-05	5.0377e-05	138.52	53.262	35.527	12.842	5.2291e-05	24.858	136.546	-92.640	-17.022	-110.375	6.945	197.701	-111.074	-104.685	83.629	-4.922	-106.285	-103.010	-102.459	-96.800	192.220	-99.903	-8191	255	
2290.867	1	1	0	0	0.10789	0.15331	0.11878	0.16633	0.091032	0.037337	0.1127	0.11149	0.083449	0.025978	0.38566	0.11514	0.1975	0.14684	0.18511	0.27574	-1.3125	-0.7125	-1.4688	-1.4813	-0.81875	-1.6417	-1.3458	-1.025	-1.775	-0.99167	-1.3438	-1.8188	-1.0229	-1.7479	-1.4604	-1.0771	105.065	227.176	163.743	114.385	71.606	-82.561	148.703	9.986	64.528	170.453	34.041	119.461	-4.788	-3.241	-61.294	213.675	0.00031476	0.00048718	0.00045095	133.77	1.5407e-06	4.3819e-06	219.54	54.394	3.8494e-06	8.2458e-06	104.3	45.182	23.07	10.023	6.0242e-06	20.955	0.004327	0.0049849	0.0014098	208.51	5.443e-05	5.7126e-05	280.08	73.394	5.5725e-05	5.7305e-05	146.77	55.878	37.902	13.428	5.797e-05	25.672	147.858	-54.394	-108.761	-110.450	43.944	146.437	-111.269	-104.088	14.484	-16.507	-107.196	-103.483	-101.849	-96.629	228.273	-100.006	-8191	255	
2290.963	1	1	0	0	0.14099	0.22114	0.20691	0.1012	0.10108	0.25727	0.32607	0.20327	0.060398	0.091605	0.10638	0.16735	0.23184	0.11285	0.086476	0.028433	-1.3917	-1.1083	-1.0812	-1.8604	-0.7625	-1.6063	-1.5354	-0.75	-1.6	-1.0083	-1.0208	-1.9146	-0.75417	-1.5625	-1.5271	-0.72292	157.756	18.983	-114.933	-3.558	65.313	116.055	-111.272	197.428	60.403	22.667	-67.625	109.526	222.233	-36.719	30.034	74.046	0.00027413	0.000915	0.00015346	139.7	5.7985e-06	5.0569e-06	222.97	56.787	1.1193e-05	6.7533e-06	104.88	45.355	23.762	10.146	1.5859e-05	20.817	0.0047102	0.005444	0.0015296	221.4	5.9064e-05	6.2035e-05	291.32	77	6.1007e-05	6.2448e-05	150.78	57.151	39.352	13.966	6.1588e-05	25.88	105.795	29.095	135.030	-110.023	-99.326	-0.717	-111.386	-104.801	94.107	166.521	-105.935	-103.705	-101.097	-97.426	80.774	-100.296	-8191	255	
2291.059	1	1	0	0	0.26566	0.25431	0.25543	0.048556	0.25449	0.10762	0.089126	0.35084	0.016918	0.055486	0.14216	0.089059	0.10453	0.2034	0.10128	0.25438	-1.425	-1.1625	-0.98125	-1.6688	-0.99792	-1.3542	-1.5896	-0.99375	-1.8104	-1.3854	-0.9875	-1.9604	-1.1187	-1.4833	-1.65	-1.0938	30.945	134.879	125.478	215.289	114.575	-36.461	-16.604	166.780	20.950	144.390	155.881	61.800	-66.124	108.712	103.912	128.004	0.00029975	0.00083791	0.00014418	142.77	3.1585e-06	1.9275e-05	226.3	56.961	1.7394e-05	6.6336e-06	104.17	44.404	24.136	10.161	1.7029e-05	20.541	0.0049849	0.0057049	0.0015925	226.27	6.0413e-05	6.2838e-05	292.19	77.164	6.0741e-05	6.2426e-05	149.4	56.317	39.663	13.816	6.2002e-05	25.595	124.028	7.826	-46.019	-110.161	171.685	93.526	-110.996	-104.282	-102.830	146.779	-107.371	-102.743	-101.620	-96.504	15.521	-100.149	-8191	255	
2291.155	1	1	0	0	0.3248	0.18588	0.22866	0.22346	0.11649	0.18964	0.16688	0.32323	0.18376	0.1108	0.26712	0.26372	0.090899	0.08337	0.20169	0.075656	-1.5271	-1.3583	-0.98125	-2.0229	-1.0812	-1.375	-1.9979	-1.0896	-1.6229	-1.4125	-1.0667	-1.7354	-1.1667	-1.2125	-1.6708	-0.90208	34.292	93.016	170.251	-49.563	-106.122	183.285	51.651	152.063	158.179	30.374	-106.846	38.927	-41.187	55.960	47.623	-38.650	0.00031224	0.0011078	0.00043722	141.76	4.2127e-06	1.159e-05	223.65	56.851	8.3693e-06	5.1206e-06	104.34	44.93	23.666	10.337	1.0622e-05	20.868	0.0049743	0.0056697	0.0015745	226.16	6.09e-05	6.2742e-05	292.28	77.37	5.9904e-05	6.2126e-05	149.82	56.43	39.229	13.827	6.0538e-05	25.677	107.692	42.038	45.895	-109.931	75.524	142.084	-111.321	-104.148	129.244	1.516	-106.763	-103.810	-101.263	-96.614	110.257	-99.614	-8191	255	
2291.251	1	1	0	0	0.06893	0.15898	0.098796	0.092016	0.23293	0.14402	0.38516	0.1763	0.14313	0.19396	0.12778	0.040933	0.12794	0.083633	0.13446	0.29083	-1.1458	-1.3354	-0.75833	-1.7188	-1.1313	-1.3021	-1.8771	-0.98958	-1.5021	-1.7437	-0.96875	-1.7208	-1.3396	-1.1417	-1.9375	-1.0708	96.519	180.791	-38.866	171.146	68.531	32.280	111.670	-70.169	-62.332	73.914	132.127	204.840	122.272	-90.754	54.870	192.108	0.00054568	0.00075942	9.055e-05	140.84	6.6224e-06	7.509e-06	224.39	57.551	1.4593e-06	1.194e-05	105.36	45.306	24	10.395	7.7109e-06	21.407	0.0048803	0.0054993	0.0015379	223.45	5.8862e-05	6.0905e-05	291.37	77.243	5.8403e-05	6.0679e-05	149.61	56.777	39.066	13.86	5.8847e-05	26.238	176.701	108.331	22.043	-110.027	123.551	-105.623	-110.565	-104.655	7.084	-57.136	-106.199	-103.134	-101.726	-97.079	-61.488	-99.846	-8191	255	
2291.370	1	1	0	0	0.1188	0.22664	0.10896	0.18769	0.38533	0.13299	0.11552	0.097098	0.22447	0.13941	0.50807	0.057505	0.080433	0.09354	0.17241	0.14951	-0.99583	-1.6604	-0.86667	-1.6729	-1.2333	-1.1271	-1.6938	-1.1479	-1.3146	-1.8	-0.96458	-1.8312	-1.3771	-1.0292	-1.8062	-1.1604	-111.868	-86.388	221.127	-52.180	155.993	198.806	-105.920	178.218	-41.396	72.547	219.260	-8.143	-15.402	86.685	125.494	85.102	7.9858e-05	0.0004099	6.4746e-05	141.69	6.3294e-06	6.859e-06	224.58	56.855	1.7143e-05	8.9064e-06	106.13	46.197	23.913	10.248	1.0615e-05	21.896	0.0046464	0.0053301	0.0014568	218.13	5.5562e-05	5.685e-05	285.34	75.196	5.4229e-05	5.6288e-05	147.22	56.633	37.815	13.571	5.5532e-05	26.424	62.510	70.296	177.215	-110.943	205.677	-7.125	-111.098	-104.311	131.703	206.119	-105.922	-102.811	-103.096	-97.063	69.921	-99.708	-8191	255	
2291.466	1	1	0	0	0.25417	0.25956	0.22086	0.075006	0.23517	0.12629	0.19711	0.2622	0.029541	0.29842	0.04859	0.099822	0.15249	0.050869	0.09101	0.1071	-1.1917	-1.7583	-0.87917	-1.8104	-1.4479	-0.92708	-1.8458	-1.3687	-1.1313	-1.6771	-1.0979	-1.6354	-1.6125	-1.0187	-1.7958	-1.2708	181.377	13.667	-4.288	-105.016	51.027	2.087	109.275	-112.975	-52.650	217.990	171.262	122.301	-121.612	124.061	164.543	99.097	0.00038516	0.0014712	3.334e-05	136.83	2.412e-06	1.0617e-05	221.02	54.951	1.0793e-05	3.5165e-06	106.85	46.073	23.253	10.067	5.9142e-06	21.759	0.0043589	0.0050142	0.0013681	207.86	5.2308e-05	5.3065e-05	278.16	72.392	4.9785e-05	5.1779e-05	142.75	55.608	35.853	13.008	4.9904e-05	25.631	140.314	52.365	52.963	-109.784	-75.888	104.285	-111.210	-104.077	-19.974	-68.031	-107.278	-102.805	-100.992	-96.298	-60.944	-99.995	-8191	255	
2291.563	1	1	0	0	0.31479	0.15002	0.10037	0.18579	0.10583	0.050571	0.20569	0.16108	0.10135	0.17055	0.17797	0.32246	0.14058	0.38035	0.19127	0.22817	-0.675	-1.6	-1.0292	-1.4312	-1.4833	-1.025	-1.7958	-1.4521	-1.05	-1.7583	-1.1625	-1.3792	-1.5646	-0.93542	-1.5146	-1.4062	-119.922	180.199	183.771	208.452	56.257	219.697	156.633	-22.561	20.773	15.352	226.270	-51.452	215.245	193.573	220.275	-76.245	0.00035785	0.00050036	0.00010264	133.36	3.93e-06	2.3813e-06	219.16	53.986	9.9269e-06	4.9922e-06	105.93	45.875	22.799	9.9485	1.141e-05	22.237	0.003904	0.0045029	0.0012301	197.26	4.7064e-05	4.8126e-05	272.48	69.406	4.6255e-05	4.8135e-05	140.12	54.902	34.553	12.713	4.593e-05	25.861	117.612	72.429	-89.764	-109.476	148.300	63.497	-110.816	-103.931	52.229	226.951	-107.255	-102.835	-102.020	-96.853	140.705	-99.841	-8191	255	
2291.634	1	1	0	0	0.3228	0.21243	0.13785	0.082676	0.22981	0.17303	0.20142	0.16374	0.24409	0.059817	0.13377	0.12059	0.23953	0.22225	0.04673	0.16666	-0.69792	-1.7729	-0.97708	-1.2396	-1.7167	-0.96667	-1.6896	-1.4625	-0.80833	-1.7271	-1.1875	-1.3479	-1.7021	-1.025	-1.6917	-1.4312	77.795	-42.020	115.856	25.863	117.849	24.604	234.819	169.143	-74.682	236.309	55.136	168.442	-83.908	138.639	-99.763	234.583	0.00048168	0.00034312	0.00016914	130.28	6.7243e-06	7.7848e-06	222.68	53.233	1.0281e-05	4.4006e-06	105.63	46.724	22.614	9.9839	4.1145e-06	22.202	0.0036118	0.0041935	0.001147	189.72	4.3057e-05	4.3514e-05	269.13	67.339	4.085e-05	4.2913e-05	136.64	54.124	33.082	12.317	4.0233e-05	25.484	177.659	-0.968	215.012	-109.380	234.730	-9.546	-110.626	-104.196	107.523	-38.640	-106.899	-103.141	-101.758	-96.984	-111.895	-99.940	-8191	255	
2291.755	1	1	0	0	0.1193	0.20265	0.24027	0.10233	0.42086	0.38421	0.29163	0.045472	0.098851	0.18911	0.098417	0.3944	0.044809	0.19131	0.2344	0.053101	-0.47292	-1.8042	-1.2021	-1.2229	-1.875	-1.2604	-1.3708	-1.6479	-0.975	-1.8104	-1.3333	-1.2375	-1.6979	-0.98958	-1.5208	-1.675	139.045	22.139	230.239	-89.736	-21.644	79.556	206.577	227.054	96.058	32.120	-101.700	142.534	-41.772	-43.849	-54.956	140.807	0.00035882	0.00041066	0.00017229	126.17	4.8525e-06	1.862e-05	218.71	52.314	4.9742e-06	1.9678e-06	105.65	46.179	21.887	9.6579	7.2763e-06	22.167	0.0031639	0.0036986	0.0010046	177.14	3.8435e-05	3.9191e-05	260.45	65.285	3.7909e-05	4.0421e-05	134.99	53.464	32.296	12.004	4.0576e-05	25.428	103.548	106.979	211.884	-109.466	-27.881	-68.090	-110.643	-104.986	87.756	-78.541	-106.763	-103.117	-101.437	-97.148	-92.943	-99.759	-8191	255	
2291.851	1	1	0	0	0.20519	0.12346	0.24784	0.24356	0.25686	0.099107	0.045231	0.14891	0.16999	0.16969	0.27295	0.23859	0.07565	0.10098	0.20876	0.28379	-0.48333	-1.7417	-1.0812	-1.0812	-1.8021	-0.93958	-1.2875	-1.5521	-0.90208	-1.6021	-1.5	-1.0979	-1.8792	-1.0354	-1.3458	-1.7292	191.975	24.334	148.360	-27.464	167.420	-107.925	-56.372	88.292	187.161	224.906	189.810	-45.449	125.386	-99.658	45.947	163.039	0.00022132	0.00053678	0.00034009	119.49	5.2695e-06	9.3653e-06	213.05	51.036	1.0855e-05	1.2271e-05	104.45	45.132	21.791	9.3921	2.1681e-06	21.255	0.0032563	0.0038245	0.0010507	175.59	4.1493e-05	4.2608e-05	258.32	64.933	4.0798e-05	4.2993e-05	134.91	53.199	32.634	11.868	4.232e-05	24.713	122.390	-45.331	-45.322	-109.361	17.717	7.422	-110.033	-103.760	-38.649	62.613	-106.763	-103.092	-101.982	-97.110	161.712	-100.183	-8191	255	
2291.947	1	1	0	0	0.24334	0.087895	0.4396	0.35455	0.25428	0.12994	0.010018	0.19366	0.28178	0.14466	0.17031	0.22697	0.17826	0.17704	0.11659	0.18764	-0.5	-1.7208	-1.2938	-1.2104	-1.7437	-1.0604	-1.4833	-1.7687	-0.92917	-1.6229	-1.5187	-0.825	-1.7563	-1.0708	-1.1938	-1.7958	9.580	61.588	181.888	81.397	230.558	-69.405	-121.784	84.768	132.543	155.090	-77.584	148.345	11.804	187.211	-104.141	193.720	0.00055228	0.00086328	0.00023783	121.31	5.433e-06	9.369e-06	209.86	51.257	2.1594e-05	9.4934e-06	103.61	45.268	21.884	9.4085	9.4145e-06	21.381	0.0033969	0.0039513	0.0011024	178.2	4.2609e-05	4.39e-05	258.52	65.826	4.2382e-05	4.4726e-05	136.42	53.311	33.321	12.034	4.4668e-05	24.991	66.973	178.923	232.093	-110.270	20.526	150.309	-110.982	-104.648	-78.341	17.837	-106.725	-102.817	-102.647	-97.004	50.490	-100.074	-8191	255	
2292.043	1	1	0	0	0.13358	0.0016387	0.095459	0.23985	0.19597	0.19467	0.053289	0.14112	0.11659	0.17804	0.2554	0.20541	0.11456	0.18698	0.054681	0.40917	-0.41042	-1.6792	-1.3521	-0.84583	-1.7729	-1.2979	-1.1833	-1.8271	-0.88125	-1.5771	-1.6229	-1	-1.8458	-1.4	-0.90417	-1.9917	32.557	180.000	179.074	131.927	120.485	-65.045	-108.975	141.131	203.375	14.725	142.893	-75.928	85.838	59.330	45.068	140.901	0.00015998	0.00025045	0.00019727	122.28	9.5232e-07	1.1673e-05	213.11	51.935	3.6254e-06	6.7281e-06	103.99	45.44	22.213	9.5607	6.7659e-06	21.697	0.0036076	0.004271	0.0011834	184.13	4.6977e-05	4.8056e-05	265.04	67.795	4.6967e-05	5.0164e-05	140.64	54.818	34.923	12.49	5.0105e-05	25.782	113.348	2.954	-6.966	-111.143	-81.165	-103.523	-111.449	-104.373	-34.639	80.339	-107.628	-103.254	-102.002	-97.153	40.067	-100.837	-8191	255	
2292.162	1	1	0	0	0.10082	0.061141	0.24562	0.28301	0.023454	0.28598	0.30367	0.1914	0.15412	0.17789	0.18976	0.053814	0.15435	0.16157	0.079595	0.36479	-0.84583	-1.2958	-1.6896	-0.86667	-1.8271	-1.4583	-1.0083	-1.6917	-1.2375	-1.3229	-1.825	-1.1104	-1.6375	-1.2146	-0.76042	-1.8333	54.738	116.096	214.253	143.044	79.490	108.841	-26.003	-86.433	89.178	-49.130	-76.756	-22.284	184.353	-85.028	24.734	177.058	0.00025782	0.00084588	0.00013982	124.15	9.0046e-06	2.2877e-06	213.79	51.399	6.4154e-06	1.6694e-06	105.19	46.045	21.877	9.6781	5.8709e-06	22.137	0.0040776	0.0048071	0.0013439	193.89	5.3538e-05	5.4964e-05	272.72	70.253	5.4296e-05	5.7348e-05	147.2	56.973	36.967	13.062	5.7802e-05	26.93	128.419	-62.796	53.837	-109.403	-68.461	50.483	-111.381	-104.772	31.609	-5.046	-107.471	-103.485	-101.910	-96.907	-84.109	-100.404	-8191	255	
2292.236	1	1	0	0	0.22819	0.060819	0.1179	0.12223	0.22646	0.24635	0.18036	0.12926	0.055053	0.097993	0.41714	0.11295	0.018588	0.27965	0.09945	0.098096	-0.66042	-1.1417	-1.7292	-0.78958	-1.4542	-1.5792	-0.82292	-1.8563	-1.4042	-1.1104	-1.7	-1.0312	-1.5875	-1.5604	-0.81667	-1.8188	187.620	120.845	215.963	-15.947	186.785	-14.790	157.827	137.094	140.802	106.735	170.406	211.286	3.971	61.259	-62.935	-52.235	0.00030703	0.00069109	0.00014562	120.92	5.017e-06	4.1779e-06	209.38	50.1	9.5738e-06	7.1837e-06	105.29	47.761	23.117	10.291	4.9503e-06	22.97	0.0046512	0.0054639	0.0015394	201.25	6.0303e-05	6.2092e-05	277.29	71.962	6.1177e-05	6.3781e-05	152.8	59.922	39.328	14.087	6.4528e-05	28.497	139.559	-39.094	-105.969	-110.108	173.391	-101.985	-111.191	-104.504	15.903	233.713	-107.026	-103.312	-102.284	-97.827	-3.667	-100.643	-8191	255	
2292.332	1	1	0	0	0.30455	0.23643	0.15897	0.2064	0.12086	0.10655	0.18406	0.18936	0.38203	0.33307	0.40153	0.02531	0.28074	0.42256	0.2323	0.095121	-0.76875	-0.98958	-1.6896	-0.98958	-1.2208	-1.6083	-0.89792	-1.7542	-1.4958	-1.0146	-1.6875	-0.92917	-1.2979	-1.7292	-0.92292	-1.8563	228.779	108.826	231.346	80.314	-122.362	79.884	41.230	21.102	216.474	30.170	135.127	7.043	82.557	79.475	66.256	36.409	0.00017379	0.0018722	5.9498e-05	123.66	7.6419e-06	1.0836e-05	210.79	52.918	1.5473e-05	7.5454e-06	106.92	48.437	23.867	10.882	6.4399e-06	24.055	0.0052041	0.0060658	0.0017225	213.28	6.6594e-05	6.8598e-05	285.65	76.325	6.6626e-05	6.9936e-05	159.07	61.777	41.565	15.048	6.967e-05	29.805	131.949	-11.097	120.879	-110.946	153.598	-3.162	-110.062	-104.511	-18.092	45.059	-107.429	-103.520	-101.934	-97.261	-28.840	-100.215	-8191	255	
2292.451	1	1	0	0	0.24979	0.25417	0.11804	0.22128	0.10978	0.14769	0.22121	0.30301	0.27132	0.081724	0.10008	0.38601	0.11313	0.058294	0.073294	0.068693	-1.1375	-1.1542	-1.9688	-1.1938	-1.2354	-1.6375	-0.92708	-1.6479	-1.5938	-1.0312	-1.8833	-1.3188	-1.2021	-1.8396	-1.0396	-1.6063	-24.848	145.679	-70.766	135.949	178.229	-33.796	69.530	193.924	205.577	-86.062	-84.237	152.769	124.778	135.006	-99.245	-104.878	0.00050483	0.00048947	0.00018044	127.76	6.8555e-06	1.7561e-05	214.49	55.15	7.7078e-06	8.0549e-06	107.57	49.043	24.141	11.621	6.3268e-06	24.887	0.0056151	0.0065218	0.0018494	224.44	7.0587e-05	7.4065e-05	293.9	79.918	7.1671e-05	7.501e-05	163.84	63.439	43.566	16.128	7.643e-05	31.097	96.827	211.628	49.730	-110.865	77.305	-111.475	-110.705	-104.574	3.433	6.131	-107.352	-103.194	-102.013	-97.275	115.948	-100.599	-8191	255	
2292.547	1	1	0	0	0.38428	0.16286	0.22842	0.34578	0.28737	0.16466	0.072736	0.2826	0.06813	0.19817	0.11649	0.11531	0.24109	0.11353	0.22746	0.33968	-1.1271	-0.95417	-1.7563	-1.1313	-1.4646	-2.0771	-1.0125	-1.4188	-1.6292	-0.96458	-1.9083	-1.2083	-1.1042	-1.8208	-0.91667	-1.5438	15.300	-0.903	5.034	-55.957	83.867	-1.207	157.033	101.795	102.938	58.515	-108.682	13.510	-33.321	-53.592	-64.272	203.741	4.6567e-05	0.00077291	0.00045459	125.51	9.9182e-06	9.2171e-06	207.27	54.153	8.7211e-06	1.1378e-05	102.79	48.182	23.782	11.52	1.0962e-05	24.719	0.0061325	0.0070894	0.0020109	231.17	7.6697e-05	8.0441e-05	295.6	80.556	7.7118e-05	7.9992e-05	164.3	62.89	43.932	16.352	7.8989e-05	31.312	224.039	-27.893	-63.280	-108.992	7.003	139.882	-110.786	-104.317	92.084	-9.357	-106.584	-103.225	-101.955	-97.078	222.729	-100.018	-8191	255	
2292.643	1	1	0	0	0.19022	0.11237	0.073664	0.097507	0.43103	0.14465	0.064074	0.15268	0.14781	0.12546	0.071573	0.039151	0.1249	0.058333	0.038166	0.030342	-1.525	-0.96667	-1.5833	-1.3771	-1.025	-1.7625	-1.1771	-1.3896	-1.7958	-0.89583	-1.6396	-1.5938	-1.1833	-1.8708	-1.0688	-1.3292	15.992	95.001	-35.095	65.493	118.019	236.507	148.097	-94.145	143.400	142.451	236.956	193.398	217.957	-88.745	168.577	53.646	2.7262e-05	0.00040947	0.0003937	120.14	9.924e-06	8.6106e-06	200.28	52.483	1.614e-05	1.6151e-05	98.964	46.494	22.522	11.334	1.6714e-05	24.266	0.0063431	0.0073562	0.0020807	229.73	7.8918e-05	8.2684e-05	291.21	79.249	7.9463e-05	8.2416e-05	160.5	61.752	43.526	16.201	8.0341e-05	30.778	105.257	-35.893	-102.348	-109.917	-6.380	-99.417	-110.600	-103.784	-91.600	235.603	-106.914	-103.066	-99.785	-97.493	12.771	-100.295	-8191	255	
2292.764	1	1	0	0	0.052204	0.052008	0.17697	0.23529	0.23911	0.15996	0.19343	0.2345	0.12575	0.29054	0.072249	0.34728	0.17207	0.22165	0.1649	0.30703	-1.4771	-1.0042	-1.5063	-1.4271	-0.98958	-1.9479	-1.2458	-1.3604	-1.8875	-0.9375	-1.5271	-1.5542	-1.0021	-1.9458	-1.1688	-1.225	-31.614	103.604	8.908	124.101	103.021	2.480	-120.046	-13.711	-69.350	206.970	118.538	-56.010	8.939	-63.051	-2.698	182.932	0.00032776	0.0014834	0.00018845	115.16	8.2058e-06	1.284e-05	192.31	49.902	1.549e-05	1.1784e-05	97.92	45.488	22.584	11.213	1.6361e-05	24.011	0.0064266	0.0073904	0.002085	225.45	7.9275e-05	8.2851e-05	283.79	77.315	7.9364e-05	8.1557e-05	158.25	60.566	42.625	15.975	7.8122e-05	30.384	83.455	216.679	-63.089	-109.372	-0.217	59.025	-111.048	-104.039	-50.633	164.991	-107.539	-103.220	-101.700	-97.292	162.159	-99.962	-8191	255	
2292.835	1	1	0	0	0.2318	0.12578	0.089566	0.09196	0.28822	0.21363	0.42248	0.077986	0.14186	0.16154	0.16211	0.10366	0.17906	0.099547	0.19044	0.25763	-1.3042	-1.0521	-1.6042	-1.4583	-0.91875	-1.9188	-1.3396	-1.175	-1.5396	-1.0292	-1.525	-1.6646	-0.74167	-1.8396	-1.5333	-1.1146	-1.132	221.297	128.635	199.522	-11.424	-19.890	-104.980	-62.346	148.216	-43.356	101.638	-53.643	-29.273	-79.145	180.333	180.174	0.00019412	0.00071067	0.00028285	113.69	1.6975e-05	9.3477e-06	190.1	50.067	1.0549e-05	1.1927e-05	98.787	46.003	22.489	11.482	2.4604e-05	24.539	0.0062443	0.0071502	0.0020095	220.04	7.6386e-05	7.9338e-05	276.9	75.921	7.6201e-05	7.7961e-05	156.75	60.533	42.1	16.068	7.5568e-05	30.698	-36.625	175.454	32.950	-110.716	-66.966	6.832	-110.609	-104.159	-100.252	-78.718	-106.968	-103.157	-101.861	-97.441	12.723	-100.010	-8191	255	
2292.931	1	1	0	0	0.2967	0.12418	0.21282	0.060873	0.14753	0.11461	0.28363	0.27492	0.1331	0.13545	0.13034	0.3212	0.081386	0.15428	0.1619	0.24064	-1.375	-0.99792	-1.2188	-1.6063	-0.84167	-1.65	-1.4958	-1.0229	-1.6646	-1.1938	-1.3396	-2.025	-1.1104	-1.6667	-1.4146	-0.98333	36.352	222.048	74.516	4.944	90.302	-99.931	203.853	108.564	-119.043	100.417	211.398	-121.490	201.717	69.258	234.463	-105.611	0.00050656	0.0022419	0.00011418	114.24	3.8793e-06	1.7476e-05	194.76	51.504	1.0471e-05	1.0765e-05	104.13	48.653	24.12	11.879	2.0505e-05	25.522	0.0060219	0.0067854	0.0019067	214.11	7.0949e-05	7.2974e-05	272.83	74.751	6.6487e-05	6.723e-05	151.71	60.621	39.394	15.475	5.7724e-05	30.202	127.969	-20.725	194.235	-108.038	226.029	-121.663	-111.680	-104.438	-78.832	-54.061	-106.508	-103.075	-100.772	-97.610	-19.632	-100.240	-8191	255	
2293.052	1	1	0	0	0.17982	0.13686	0.12439	0.29985	0.22086	0.28335	0.036177	0.039817	0.095877	0.28104	0.28201	0.18143	0.22773	0.14658	0.078783	0.31728	-1.4083	-1.2479	-1.3271	-1.9229	-0.85	-1.5396	-1.4875	-0.80625	-1.8	-1.2667	-1.1917	-1.85	-1.0083	-1.3854	-1.7437	-0.86042	217.470	-105.073	85.321	73.586	132.936	65.579	-76.499	-39.496	14.469	183.765	185.231	191.612	16.930	206.232	95.070	221.732	0.00020716	0.00045298	0.00027553	122.64	9.5809e-06	5.3897e-06	206.31	51.013	1.5929e-05	3.7685e-06	104.89	49.286	24	11.059	4.3155e-06	24.203	0.0043989	0.0049018	0.001345	192.01	4.9359e-05	5.1114e-05	260.6	67.245	4.7276e-05	4.85e-05	140.93	58.464	35.607	13.743	4.6686e-05	28.069	-114.101	120.101	50.633	-109.348	-9.326	193.475	-111.028	-104.152	-9.319	-38.458	-107.219	-103.201	-101.637	-97.125	66.395	-99.734	-8191	255	
2293.148	1	1	0	0	0.15102	0.022979	0.43783	0.15971	0.17713	0.42894	0.26136	0.28485	0.091196	0.094268	0.05724	0.2441	0.050418	0.086319	0.082366	0.087422	-1.3625	-1.2021	-1.0562	-1.8958	-1.1292	-1.4604	-1.925	-0.87917	-1.7604	-1.1333	-0.975	-1.8833	-1.1875	-1.4375	-1.7333	-0.98542	89.855	0.593	-85.806	22.493	14.905	28.214	172.251	-109.790	20.548	93.219	-0.040	-60.118	5.671	68.745	183.516	-91.079	0.0006084	0.0007923	0.00026425	118.57	8.2457e-06	1.0771e-06	208.99	50.371	1.4465e-05	1.304e-05	105.27	49.188	22.951	10.53	1.6663e-05	23.487	0.0037884	0.0041854	0.0011615	178.84	4.375e-05	4.4836e-05	254.59	64.582	4.2255e-05	4.3113e-05	136.21	56.891	33.594	12.989	4.1689e-05	26.884	121.789	-107.011	232.758	-110.463	-59.971	-94.402	-110.879	-104.659	59.816	232.004	-106.824	-103.443	-101.531	-97.900	104.513	-100.608	-8191	255	
2293.243	1	1	0	0	0.10523	0.26716	0.29874	0.11742	0.13282	0.34783	0.26366	0.18759	0.27355	0.064689	0.18459	0.040184	0.058192	0.16223	0.18508	0.23308	-1.2229	-1.3479	-1.2354	-1.6896	-1.2437	-1.1063	-1.8937	-0.84792	-1.6958	-1.5146	-1.0208	-1.8396	-1.2333	-1.3208	-1.8792	-1.1104	138.489	-71.024	116.160	4.355	192.493	101.631	4.129	-91.786	115.256	-87.079	176.994	147.195	140.558	87.450	193.993	-108.107	0.00066433	0.00033882	0.00031464	114.1	2.6015e-06	1.2026e-05	200.54	50.325	1.4262e-05	7.0071e-06	104.94	48.207	22.738	10.101	8.7895e-06	22.846	0.00331	0.0037963	0.0010561	169.86	3.9764e-05	4.1729e-05	247.59	63.298	3.9797e-05	4.0926e-05	133.86	55.678	32.731	12.534	4.0745e-05	26.158	123.041	149.604	25.647	-109.928	170.379	-1.551	-110.578	-104.775	86.642	-47.238	-106.490	-103.558	-102.400	-97.340	125.391	-100.047	-8191	255	
2293.363	1	1	0	0	0.30539	0.083695	0.043859	0.2503	0.10437	0.025024	0.22699	0.061931	0.14705	0.21563	0.2007	0.12039	0.19172	0.13306	0.082931	0.12044	-1.3	-1.6854	-0.83958	-1.7896	-1.1562	-1.225	-1.8271	-1.0438	-1.4083	-1.8125	-1.1958	-1.875	-1.3396	-1.2333	-1.775	-1.0667	-30.592	41.060	-9.923	102.192	11.582	151.049	108.137	217.915	-33.714	-38.190	68.721	152.289	-102.687	-112.287	138.486	-86.430	0.00027398	0.00050875	0.00026692	113.92	3.8183e-06	2.6769e-06	204.31	49.88	1.6965e-05	5.4342e-06	105.17	48.427	22.829	10.284	7.6913e-06	23.256	0.0032091	0.0036503	0.0010144	168.68	3.8647e-05	4.0471e-05	247.81	63.354	3.8649e-05	4.0288e-05	134.92	55.605	32.725	12.632	3.9769e-05	26.576	163.492	-112.374	-108.362	-109.624	12.802	158.770	-111.083	-104.628	-35.982	73.827	-107.124	-103.521	-103.033	-97.017	193.167	-99.907	-8191	255	
2293.459	1	1	0	0	0.44702	0.26416	0.2224	0.19685	0.1779	0.21542	0.26936	0.12746	0.29426	0.13786	0.32586	0.36977	0.20931	0.24522	0.1457	0.22532	-0.90833	-1.825	-0.92708	-1.7604	-1.5604	-0.90417	-1.975	-1.1583	-1.2771	-1.6604	-0.85625	-1.7208	-1.6833	-1.0854	-1.7313	-1.1604	-62.975	64.906	20.889	232.266	36.712	-63.515	170.058	153.328	233.334	56.136	-65.105	-34.974	230.478	-73.186	-65.556	-118.498	0.00047271	8.9334e-05	0.00010514	116.04	2.2054e-06	7.7204e-07	206.63	51.274	6.136e-06	6.3551e-06	107.45	48.929	22.871	10.333	1.0438e-05	23.537	0.0031504	0.0036282	0.0010072	169.15	3.8223e-05	3.9632e-05	250.08	64.317	3.8141e-05	4.0672e-05	136.32	56.351	33.119	12.753	4.0187e-05	26.835	122.672	-84.118	104.639	-109.642	111.101	139.194	-110.660	-104.689	90.409	50.511	-108.645	-104.157	-101.858	-97.393	4.285	-100.917	-8191	255	
2293.531	1	1	0	0	0.12246	0.11674	0.23813	0.020236	0.11677	0.17103	0.079673	0.14063	0.1889	0.10938	0.01876	0.19197	0.1341	0.44923	0.13641	0.028668	-0.63125	-1.7292	-0.91042	-1.8104	-1.6187	-0.90833	-1.8271	-1.0667	-1.1	-1.7396	-1.0396	-1.6542	-1.7542	-1.1	-1.7771	-1.4646	1.102	-17.009	10.698	110.683	-88.515	-64.738	80.250	104.971	-22.488	67.163	5.696	142.879	198.666	-73.176	174.829	13.567	0.00040619	0.00034573	0.00025007	117.09	5.825e-06	9.0993e-06	208.84	50.807	7.0465e-06	4.2101e-06	107.83	48.82	23.074	10.428	3.7164e-06	23.533	0.0031918	0.0037086	0.0010193	170.67	3.9555e-05	4.066e-05	252.38	64.545	3.9511e-05	4.1734e-05	136.73	56.346	33.372	12.798	4.0846e-05	26.81	115.979	-108.471	3.586	-110.082	2.050	-62.140	-111.442	-104.860	202.988	191.022	-108.091	-103.741	-103.036	-97.660	39.152	-100.671	-8191	255	
2293.627	1	1	0	0	0.084264	0.16025	0.30474	0.169	0.13921	0.14488	0.20383	0.05048	0.23901	0.17843	0.16901	0.22037	0.14326	0.3027	0.23331	0.34554	-0.8125	-1.7875	-1.05	-1.5354	-1.8687	-0.83333	-1.8042	-1.4625	-1.0917	-1.8521	-1.0063	-1.5167	-1.7604	-0.97917	-1.6458	-1.4833	173.508	56.556	66.445	-20.806	149.271	212.222	201.206	107.361	178.764	-122.593	50.536	65.794	128.441	223.433	-121.974	149.752	0.00049327	0.00073928	3.845e-05	115.05	5.2181e-06	9.0899e-06	207.62	51.552	1.1923e-05	7.349e-06	105.58	48.419	23.253	10.338	4.6413e-06	23.551	0.0032607	0.003801	0.0010497	171.5	4.0739e-05	4.1341e-05	251.36	64.619	4.0088e-05	4.2019e-05	135.79	56.05	33.499	12.768	4.123e-05	26.776	114.890	69.392	198.840	-109.714	113.131	129.804	-111.840	-104.810	20.738	-18.233	-107.527	-104.220	-102.269	-97.904	161.553	-101.104	-8191	255	
2293.723	1	1	0	0	0.047428	0.36061	0.26817	0.15508	0.044173	0.34053	0.13214	0.20908	0.19312	0.089121	0.17578	0.030416	0.1005	0.025174	0.22971	0.29145	-0.65208	-1.75	-1.1812	-1.325	-1.8354	-1.0063	-1.6146	-1.5083	-0.9375	-1.7521	-1.1562	-1.0312	-1.7938	-0.95625	-1.4854	-1.5875	-41.824	-76.442	136.656	-84.125	118.637	73.792	51.992	60.904	-120.119	159.857	60.368	72.923	122.614	219.925	73.101	182.812	0.00061147	0.00064817	0.00018934	118.08	6.9765e-06	1.2328e-05	208.54	50.861	1.0627e-05	5.7476e-07	106.78	48.213	23.354	10.469	1.0418e-05	24.007	0.0033024	0.0038521	0.0010594	173.07	4.1403e-05	4.2079e-05	253.89	65.078	4.0831e-05	4.3674e-05	137.56	56.484	34.305	13.019	4.2511e-05	27.32	110.199	74.856	129.285	-110.414	71.714	89.826	-110.940	-104.744	65.675	185.164	-108.173	-104.148	-101.910	-98.337	-40.653	-101.136	-8191	255	
2293.844	1	1	0	0	0.14457	0.23494	0.31706	0.22086	0.16555	0.14949	0.23636	0.2293	0.34132	0.084375	0.21595	0.26436	0.28726	0.046866	0.063657	0.083809	-0.49792	-1.7375	-1.1	-1.0688	-1.7604	-0.9625	-1.5208	-1.7188	-0.84792	-1.9854	-1.2833	-1.1083	-1.6646	-1.0792	-1.4208	-1.625	101.895	-42.801	-12.974	155.542	111.526	24.845	-22.822	211.143	139.707	182.777	-106.461	-95.570	8.871	72.124	98.910	116.519	0.00046142	0.0004188	0.0003348	117.49	1.7644e-05	6.6686e-06	206.46	51.352	1.3878e-05	3.9245e-06	105.07	49.115	23.489	10.755	6.9495e-06	24.095	0.0033755	0.0039257	0.0010797	175.11	4.2304e-05	4.2976e-05	255.73	65.677	4.1566e-05	4.4033e-05	138.06	57.134	34.489	13.215	4.303e-05	27.782	135.353	8.482	75.167	-111.048	44.056	-81.255	-110.944	-104.083	-43.059	74.903	-107.337	-103.398	-102.128	-97.645	-102.955	-100.983	-8191	255	
2293.940	1	1	0	0	0.32603	0.36329	0.13256	0.12037	0.099677	0.19353	0.029824	0.2217	0.12751	0.18121	0.44465	0.066532	0.26809	0.091244	0.08559	0.24305	-0.69167	-1.4396	-1.4062	-0.94583	-1.9271	-1.1958	-1.2292	-1.775	-1.0396	-1.7396	-1.4833	-1.075	-1.8937	-1.0604	-1.1313	-1.8021	-69.940	181.449	143.731	-90.594	-21.363	133.747	-71.591	183.381	219.876	-95.269	-55.129	-100.293	113.664	183.784	-101.766	222.025	0.00014539	0.00083235	6.5431e-05	118.91	1.04e-05	8.8155e-06	209.64	51.92	9.5724e-06	8.6449e-06	106.34	48.886	23.422	10.686	5.7391e-06	24.105	0.0034393	0.0040107	0.0011037	175.74	4.2528e-05	4.3259e-05	256.26	65.922	4.1374e-05	4.3914e-05	138.56	57.157	34.426	13.139	4.2161e-05	27.566	59.220	154.067	-56.434	-110.371	36.809	-51.249	-111.042	-104.174	79.719	52.480	-107.854	-103.788	-102.113	-98.325	-37.447	-101.026	-8191	255	
2294.036	1	1	0	0	0.037314	0.11611	0.23273	0.19495	0.09067	0.14799	0.22129	0.072883	0.1469	0.20505	0.11777	0.26177	0.13167	0.29679	0.15085	0.14823	-0.55417	-1.4896	-1.5	-0.92083	-1.7188	-1.0708	-1.1771	-1.9562	-0.99167	-1.6333	-1.5438	-0.9125	-1.725	-1.375	-1.0625	-1.6938	53.277	-68.578	57.466	56.250	166.128	146.614	14.659	77.044	20.368	35.576	184.466	34.657	24.043	211.771	-87.045	189.978	7.6216e-05	0.0011037	0.00016397	117.93	6.338e-06	6.0661e-06	208.26	50.767	1.0458e-05	4.3829e-06	104.8	48.715	23.42	10.605	3.8267e-06	24.087	0.0033783	0.0039394	0.0010844	175.87	4.2394e-05	4.2809e-05	254.97	65.728	4.1338e-05	4.3582e-05	137.43	56.725	34.396	13.135	4.2242e-05	27.393	-5.920	224.830	111.959	-110.798	158.947	159.654	-111.404	-105.044	-45.967	20.393	-107.373	-103.758	-101.589	-98.108	-95.671	-101.310	-8191	255	
2294.132	1	1	0	0	0.20474	0.23203	0.013382	0.090327	0.058599	0.23126	0.32057	0.070445	0.26649	0.14385	0.40154	0.22783	0.21532	0.21383	0.073129	0.096152	-0.50625	-1.4083	-1.5208	-1.1375	-1.7167	-1.4688	-0.975	-1.6708	-0.93542	-1.4458	-1.6792	-0.88958	-1.6437	-1.55	-0.74375	-1.7583	171.664	-88.180	-39.985	-57.085	186.505	59.315	166.367	160.412	-20.939	141.326	133.132	-66.757	133.447	-114.799	28.988	92.706	0.00056709	0.00010392	0.00033528	120.9	4.4739e-06	4.1738e-06	210.88	50.152	1.2739e-05	4.8347e-06	104.93	48.042	23.688	10.634	9.995e-06	23.819	0.0033472	0.0038863	0.0010791	176.41	4.1963e-05	4.2797e-05	254.46	65.19	4.0876e-05	4.3245e-05	136.46	56.387	34.312	13.164	4.2156e-05	27.337	98.036	26.175	-78.956	-110.074	16.255	117.980	-111.085	-104.876	-24.483	127.940	-107.796	-103.370	-102.523	-97.925	94.896	-100.858	-8191	255	
2294.229	1	1	0	0	0.17816	0.10743	0.037882	0.14593	0.27087	0.17761	0.045383	0.1442	0.3652	0.25728	0.10873	0.40309	0.1779	0.21723	0.2395	0.11719	-0.40208	-1.2687	-1.7396	-0.75208	-1.5167	-1.7062	-0.90208	-1.5208	-1.3583	-1.2708	-1.6146	-0.93333	-1.6417	-1.6125	-1.0146	-1.8146	-27.240	95.169	218.630	-50.709	183.714	-54.965	60.873	-51.449	224.109	-17.388	-14.154	100.492	163.706	147.062	1.052	175.684	0.00037686	0.00092928	0.00027622	121.4	8.5448e-07	2.2651e-06	209.82	51.034	1.2958e-05	7.2524e-07	106.36	48.748	23.603	10.976	1.6594e-06	24.235	0.0033401	0.0039071	0.0010915	176.68	4.1637e-05	4.2424e-05	255.41	65.385	4.0311e-05	4.2451e-05	136.77	56.542	34.198	13.273	4.1045e-05	27.574	153.387	8.801	-41.480	-110.407	65.771	22.180	-111.432	-104.588	-38.538	-80.463	-107.459	-103.386	-102.790	-97.881	-85.390	-100.590	-8191	255	
2294.325	1	1	0	0	0.15336	0.12449	0.10542	0.13223	0.031094	0.11116	0.068729	0.14002	0.2181	0.064864	0.12017	0.063266	0.43706	0.16262	0.24114	0.037619	-0.66875	-1.1104	-1.7042	-0.88958	-1.7104	-1.6354	-1.0667	-1.8146	-1.1875	-0.98542	-1.8458	-1.0917	-1.3167	-1.5083	-1.0146	-1.7854	144.902	153.615	30.168	38.464	-43.883	-50.577	181.514	-120.047	136.291	-24.374	167.646	-67.272	-118.520	-108.629	175.537	216.815	0.00041503	0.00073249	0.00037308	123.29	4.0782e-06	6.5605e-06	211.74	52.674	2.1117e-05	8.7364e-06	105.46	49.118	23.769	10.838	6.7551e-06	24.715	0.0032485	0.0037641	0.0010592	177.7	4.0492e-05	4.1606e-05	256.72	66.229	3.9741e-05	4.1865e-05	137.42	56.912	34.268	13.36	4.1066e-05	28.041	161.076	-15.137	61.622	-110.476	150.264	185.840	-111.724	-104.885	214.095	29.002	-107.388	-103.999	-102.338	-97.542	64.051	-100.996	-8191	255	
2294.444	1	1	0	0	0.11995	0.11692	0.092368	0.095405	0.067586	0.17798	0.045319	0.18984	0.27165	0.19684	0.18146	0.449	0.12862	0.17837	0.027088	0.15999	-0.83958	-0.80833	-1.7563	-1.0458	-1.3167	-1.6042	-0.97917	-1.6938	-1.6187	-1.1729	-1.8958	-1.1562	-1.1187	-1.7729	-0.86875	-1.6917	156.786	-119.898	-80.545	175.716	27.672	131.846	198.569	114.670	-109.309	134.846	-56.834	101.438	73.828	-119.337	167.569	-73.546	0.00030435	0.00082177	3.8346e-05	121.75	1.2092e-05	1.0434e-05	215.84	52.193	1.2431e-05	8.668e-06	106.46	48.988	24.071	10.745	4.4855e-06	23.948	0.0032948	0.0038232	0.0010744	178.29	4.1251e-05	4.255e-05	258.24	66.133	4.0664e-05	4.1531e-05	137	56.45	34.237	13.161	4.0746e-05	27.198	109.127	5.378	212.847	-110.649	-82.427	42.252	-111.175	-104.556	-42.813	1.640	-108.063	-103.799	-102.269	-98.541	72.851	-101.063	-8191	255	
2294.540	1	1	0	0	0.13434	0.13392	0.27643	0.17787	0.16215	0.13285	0.2922	0.095177	0.24861	0.11097	0.16293	0.16098	0.081776	0.10344	0.16598	0.17207	-0.95625	-0.80208	-1.6708	-1.2729	-1.2604	-1.8167	-1.0333	-1.5229	-1.6125	-0.93542	-1.6729	-1.2229	-1.2521	-1.9125	-1.1958	-1.6167	22.839	-91.608	-17.386	55.323	96.875	61.920	175.811	41.078	139.530	58.352	34.445	230.733	-18.304	35.567	138.988	82.017	0.00040189	0.00087448	0.00026402	122.36	5.2812e-06	8.3095e-06	207.66	50.947	7.1393e-06	6.2792e-06	104.18	47.809	23.432	10.539	9.3644e-06	23.316	0.0032468	0.003768	0.0010555	176.29	4.0745e-05	4.2215e-05	252.92	65.111	4.0078e-05	4.1885e-05	135.01	55.622	33.925	12.979	4.0915e-05	26.793	96.200	-111.744	-104.756	-109.966	31.120	-1.139	-111.943	-104.402	70.830	49.566	-107.327	-103.551	-102.411	-98.046	123.065	-100.458	-8191	255	
2294.636	1	1	0	0	0.20388	0.10217	0.081491	0.30816	0.15691	0.26756	0.15341	0.092577	0.049077	0.47637	0.089619	0.27394	0.12822	0.19935	0.21854	0.10166	-1.2458	-0.95625	-1.7729	-1.3604	-1.0625	-1.7437	-1.1771	-1.5479	-1.8833	-0.67708	-1.7563	-1.3083	-1.05	-1.7521	-1.2083	-1.5479	-111.946	224.041	113.071	167.456	-36.163	198.443	9.678	233.524	-4.279	-6.807	-105.518	124.635	-118.091	125.058	67.086	88.159	0.00031912	0.0003587	0.00020293	123.94	1.1489e-06	4.9622e-06	210.49	51.976	3.0437e-06	4.9578e-06	104.77	48.931	23.89	10.754	4.2365e-06	24.146	0.0032583	0.003723	0.0010472	177.12	4.0191e-05	4.1787e-05	253.82	65.492	3.9942e-05	4.1401e-05	134.75	56.155	33.969	13.211	4.0727e-05	27.423	112.379	37.071	135.891	-110.887	-23.676	158.942	-111.647	-104.304	181.721	-30.917	-107.784	-104.031	-102.697	-97.997	-59.121	-100.601	-8191	255	
2294.732	1	1	0	0	0.066127	0.080371	0.1996	0.094899	0.19712	0.23481	0.19823	0.23602	0.038366	0.31048	0.092506	0.07034	0.082807	0.19096	0.12595	0.18988	-1.2833	-0.96667	-1.8667	-1.4375	-0.95208	-1.6979	-1.3375	-1.1667	-1.7604	-1.0312	-1.6896	-1.5771	-0.92083	-1.7354	-1.2583	-1.2021	100.813	122.467	40.358	-25.504	-63.870	115.822	33.182	194.141	-13.824	71.768	49.873	-68.817	-80.051	-80.755	-63.025	154.907	0.00037645	0.00063198	0.00018009	123	6.6527e-06	1.8142e-06	211.7	52.305	1.1372e-05	1.0656e-05	106.05	48.676	24.397	10.865	1.1312e-05	24.205	0.0032533	0.0037019	0.0010615	179.08	4.0282e-05	4.1854e-05	255.66	65.821	4.0029e-05	4.0745e-05	135.78	56.247	33.978	13.332	3.9848e-05	27.561	117.438	192.319	-45.660	-110.444	-68.229	157.116	-111.934	-104.914	-21.984	37.189	-107.139	-103.379	-101.648	-97.505	-119.828	-100.270	-8191	255	
2294.828	1	1	0	0	0.2295	0.29006	0.072282	0.10279	0.344	0.16426	0.22092	0.081439	0.27922	0.079853	0.06919	0.12338	0.012531	0.22594	0.22878	0.26253	-1.5688	-0.94583	-1.4521	-1.5708	-0.96875	-1.8146	-1.2375	-1.2	-1.7083	-1.0812	-1.4375	-1.6167	-0.8625	-1.7708	-1.4188	-1.0021	-114.649	-84.938	-86.339	105.658	-37.503	-23.549	228.401	131.633	65.822	-65.349	-112.752	-11.279	222.318	235.059	-114.430	198.275	0.00042402	0.00044756	0.00012632	124.48	2.7817e-06	1.7003e-06	212.65	51.461	5.8349e-06	3.5717e-06	103.1	48.384	23.513	10.841	1.6721e-05	23.67	0.003247	0.0036683	0.0010357	177.42	3.9176e-05	4.0711e-05	256.08	65.133	3.8998e-05	4.0195e-05	133.6	55.725	33.533	13.113	3.8975e-05	26.904	142.573	11.224	-30.261	-110.274	182.608	9.858	-111.398	-105.155	144.212	19.486	-107.090	-104.161	-102.737	-97.571	-87.751	-100.666	-8191	255	
2294.924	1	1	0	0	0.15297	0.32661	0.11281	0.11232	0.16745	0.10073	0.18546	0.37194	0.098528	0.13002	0.13847	0.14958	0.29479	0.10397	0.13996	0.30412	-1.4813	-1.0271	-1.3042	-1.7563	-1.0083	-1.9354	-1.5854	-1.0021	-1.7979	-1.1333	-1.3167	-1.8	-0.89792	-1.7687	-1.3958	-1.1208	63.330	-56.158	65.785	-3.597	1.057	-51.505	205.294	203.511	231.359	-112.812	-50.954	-58.817	-33.363	-109.390	58.421	154.639	0.00032056	0.0009185	0.0001442	124.69	9.2475e-06	4.2143e-06	207.81	51.277	5.8307e-06	7.3618e-06	103.29	47.61	23.099	10.548	8.7964e-06	23.031	0.003166	0.0036135	0.0010098	176.82	3.8317e-05	3.9984e-05	252.09	64.35	3.8286e-05	3.904e-05	132.34	55.104	33.172	12.902	3.8663e-05	26.423	152.233	3.689	2.511	-109.162	-30.408	-69.979	-111.331	-104.894	158.118	15.406	-106.763	-103.896	-102.217	-97.633	-7.885	-100.461	-8191	255	
2295.020	1	1	0	0	0.39419	0.11005	0.18712	0.094667	0.089027	0.29485	0.27863	0.24314	0.11285	0.12658	0.3411	0.11509	0.084564	0.14571	0.23409	0.34373	-1.4625	-1.2313	-1.2646	-1.9521	-1.1896	-1.7042	-1.5271	-0.78958	-1.7604	-1.2	-1.1437	-2.1146	-0.99167	-1.6479	-1.6354	-0.89583	229.929	177.833	9.761	-13.015	171.997	-67.495	28.384	198.326	151.410	228.589	-84.020	176.386	171.777	113.062	10.370	187.771	0.00030784	0.000279	0.00010838	122.8	3.9508e-06	7.575e-06	209.18	51.06	4.985e-06	5.4652e-06	103.4	47.261	23.285	10.603	8.3743e-06	23.479	0.003138	0.0035478	0.00099495	175.87	3.7683e-05	3.9153e-05	251.39	63.945	3.7473e-05	3.9058e-05	131.6	54.632	32.805	12.873	3.7702e-05	26.423	116.246	231.811	-94.797	-109.677	-97.315	-84.111	-111.203	-103.919	24.524	161.876	-107.877	-103.306	-101.630	-97.081	186.652	-100.448	-8191	255	
2295.141	1	1	0	0	0.1749	0.31535	0.18356	0.11581	0.25095	0.10354	0.28904	0.089927	0.27015	0.27545	0.16679	0.12488	0.26924	0.11326	0.099094	0.065616	-1.375	-1.2062	-1.1437	-2.0125	-1.0042	-1.4833	-1.5333	-0.96042	-1.875	-1.4333	-1.1292	-1.9667	-1.1104	-1.4521	-1.6542	-0.86042	104.575	-68.166	171.225	211.311	-95.851	208.579	185.912	93.666	231.264	4.075	87.637	156.977	56.848	117.008	-18.986	16.462	0.00020479	0.00028938	6.6647e-05	128.09	4.9877e-06	6.3858e-07	209.77	51.909	2.9274e-06	3.0912e-06	104.38	48.446	23.745	10.719	7.2004e-06	23.833	0.0030406	0.0034271	0.00096448	176.04	3.6747e-05	3.8508e-05	252.01	64.394	3.7117e-05	3.8229e-05	131.76	55.178	33.107	13	3.7473e-05	26.778	151.653	167.151	-40.284	-109.834	-30.883	70.997	-111.423	-105.051	17.547	233.975	-107.302	-103.993	-101.998	-97.251	-11.793	-100.716	-8191	255	
2295.235	1	1	0	0	0.15617	0.29123	0.19795	0.30475	0.11637	0.46346	0.19959	0.20039	0.16825	0.22663	0.092697	0.13713	0.10485	0.234	0.23984	0.13135	-1.4083	-1.475	-0.91875	-1.8604	-1.2292	-1.3979	-1.7896	-0.94792	-1.3792	-1.6833	-1.0375	-1.8521	-1.2771	-1.3	-1.9208	-1.0688	-71.916	100.885	50.918	113.384	-88.461	203.512	169.005	174.284	52.936	137.271	-6.445	-94.656	-10.113	5.872	60.622	208.329	0.0006413	0.00048995	0.00038745	126.68	5.4758e-06	7.6453e-06	212.08	52.397	5.1519e-06	4.451e-06	103.67	47.62	23.595	10.732	8.4644e-06	23.194	0.0030037	0.0034419	0.0009542	175.68	3.6216e-05	3.7751e-05	253.16	64.259	3.6456e-05	3.8023e-05	131.22	54.66	32.883	12.82	3.7122e-05	26.318	128.974	178.209	42.176	-110.169	118.364	-118.914	-111.158	-104.522	226.189	-26.370	-107.147	-103.719	-102.435	-97.461	8.564	-100.781	-8191	255	
2295.332	1	1	0	0	0.20952	0.15459	0.17386	0.35557	0.26876	0.16249	0.076961	0.28011	0.21797	0.055407	0.13626	0.069294	0.13981	0.12267	0.037041	0.12552	-1.2708	-1.7083	-0.95625	-1.6875	-1.2687	-1.2062	-2.0375	-0.94167	-1.6604	-1.625	-0.99167	-1.6479	-1.2188	-1.0479	-1.6354	-1.1396	110.080	111.172	89.185	-76.508	151.999	-79.005	100.476	148.722	80.147	231.527	-113.871	-117.573	154.719	-20.285	119.586	82.315	0.00039852	0.00017033	0.00022093	124.77	4.2903e-06	1.6235e-06	211.66	52.08	3.9262e-06	6.7412e-06	102.9	47.474	23.403	10.55	1.294e-05	22.649	0.0029806	0.0033989	0.00094899	175.47	3.6078e-05	3.7387e-05	252.14	63.993	3.6087e-05	3.7633e-05	129.93	54.344	32.616	12.695	3.7177e-05	25.758	105.774	104.957	-68.327	-109.849	48.189	114.774	-111.295	-104.704	28.081	5.482	-107.457	-103.060	-101.996	-97.432	-42.585	-100.832	-8191	255	
2295.405	1	1	0	0	0.12471	0.11193	0.27694	0.26279	0.20442	0.13362	0.17008	0.23535	0.2127	0.13791	0.24129	0.12821	0.1331	0.17948	0.13859	0.31522	-1.0354	-1.7521	-0.84375	-1.7229	-1.3312	-0.90417	-1.8208	-1.0708	-1.2938	-1.7292	-0.84583	-1.775	-1.5771	-1.05	-1.8229	-1.2354	155.895	137.211	-31.850	88.401	125.602	70.086	182.771	174.957	108.975	-31.722	-47.005	-36.019	30.163	48.070	84.211	19.207	0.00042634	0.00072606	9.6497e-05	126.14	1.6461e-06	1.0957e-05	211.54	51.924	1.1539e-05	6.3323e-06	101.48	46.986	23.365	10.646	7.4515e-06	23.002	0.0029786	0.0034269	0.00093909	175.54	3.6237e-05	3.7364e-05	251.67	64.312	3.6659e-05	3.8069e-05	129.56	54.152	32.849	12.844	3.7666e-05	26.087	129.150	230.274	191.068	-109.834	-2.936	-29.904	-111.380	-104.687	3.810	220.188	-107.303	-103.656	-101.936	-97.656	134.360	-101.346	-8191	255	
2295.524	1	1	0	0	0.32493	0.065111	0.21384	0.15411	0.4025	0.092475	0.19949	0.023501	0.17738	0.047909	0.25216	0.28123	0.20141	0.10171	0.14745	0.22325	-0.73958	-1.8292	-1.0021	-1.6708	-1.6021	-0.9375	-1.8521	-1.175	-1.0875	-1.8833	-0.9375	-1.6938	-1.575	-0.91458	-1.9688	-1.1021	181.718	-23.392	208.871	-95.960	140.475	103.418	52.648	141.070	113.978	218.384	212.067	120.578	205.781	-39.606	88.867	161.095	0.00042157	0.0005874	8.3107e-05	125.96	8.1547e-06	5.9823e-06	212.1	52.393	7.1986e-06	4.7135e-06	104.32	47.55	23.974	10.707	1.0489e-05	23.419	0.0030145	0.0034754	0.00096368	177.64	3.7501e-05	3.8708e-05	253.72	65.083	3.7192e-05	3.8971e-05	132.24	54.933	33.377	12.975	3.8106e-05	26.521	140.161	-109.088	118.823	-109.943	-102.931	43.113	-111.417	-104.820	-42.535	101.659	-107.204	-103.393	-101.512	-97.241	172.558	-100.928	-8191	255	
2295.620	1	1	0	0	0.18289	0.45597	0.085151	0.066608	0.22231	0.12559	0.10823	0.14524	0.3678	0.22308	0.081678	0.076067	0.16185	0.23149	0.058039	0.19845	-0.62083	-1.875	-1.0479	-1.4438	-1.5833	-1.0229	-1.675	-1.3708	-0.99792	-1.9375	-1.0562	-1.4083	-1.7479	-1.0396	-1.8333	-1.4042	-33.210	2.325	-55.494	62.249	161.980	-111.563	127.220	151.852	125.047	149.893	168.177	133.138	-36.968	-6.047	165.624	62.958	0.00050213	0.00029413	0.00032041	128.81	2.8008e-06	1.3341e-05	214.46	53.328	8.4028e-06	2.8361e-06	105.5	47.589	23.573	10.594	4.602e-06	23.27	0.0030286	0.0035409	0.00097099	179.54	3.7376e-05	3.8412e-05	256.92	65.793	3.7295e-05	3.8892e-05	132.32	54.786	33.274	12.891	3.8303e-05	26.253	156.934	-115.999	-6.527	-109.580	80.636	30.382	-111.232	-104.453	216.673	-23.331	-107.428	-103.731	-102.000	-97.212	5.044	-100.724	-8191	255	
2295.716	1	1	0	0	0.12389	0.075067	0.18832	0.1657	0.10328	0.15515	0.18633	0.13702	0.12444	0.12948	0.19019	0.12481	0.022597	0.19214	0.040314	0.25719	-0.51458	-1.8312	-0.93958	-1.2771	-1.5604	-1.0229	-1.4417	-1.5354	-0.93333	-1.9521	-1.1604	-1.2125	-1.8292	-1.0833	-1.7812	-1.5375	170.968	-94.470	213.298	20.818	6.504	91.662	-97.474	134.194	36.358	228.307	236.744	100.830	131.611	-56.593	-85.393	105.101	0.00021328	0.00033101	0.00010497	129.36	4.7933e-06	5.8914e-06	215.05	53.192	2.5956e-05	3.604e-06	103.06	46.656	23.958	10.561	3.6879e-06	22.735	0.0030767	0.003534	0.00097014	181.5	3.8074e-05	3.9037e-05	258.11	65.774	3.773e-05	3.9215e-05	131.69	54.294	33.467	12.833	3.9045e-05	25.923	165.668	-96.328	217.529	-109.610	-18.156	-74.049	-110.739	-104.156	98.461	237.102	-107.386	-103.503	-102.207	-97.661	-66.962	-100.394	-8191	255	
2295.812	1	1	0	0	0.35056	0.23225	0.27087	0.18969	0.11771	0.29578	0.05328	0.19219	0.18611	0.056715	0.25119	0.37896	0.10455	0.084404	0.05737	0.28482	-0.45208	-1.8042	-1.1146	-1.1437	-1.7938	-1.0542	-1.7021	-1.6854	-0.98333	-1.9375	-1.3521	-1.1583	-1.9042	-0.9	-1.4958	-1.6833	-106.262	-23.892	154.068	210.661	198.800	134.511	162.584	20.016	-33.011	51.456	27.016	70.232	43.353	213.890	138.284	171.986	0.00037826	0.00060473	0.00038111	132.8	7.7057e-06	8.322e-06	216.72	53.649	7.5964e-06	5.0873e-06	104.78	46.588	23.724	10.62	4.3104e-06	22.85	0.0031179	0.0035933	0.00099346	182.3	3.8477e-05	3.857e-05	258.04	66.368	3.7486e-05	3.9582e-05	132.53	54.238	33.412	12.886	3.899e-05	25.988	119.695	-54.989	81.295	-110.014	166.441	121.641	-111.252	-105.252	159.330	-122.439	-106.979	-103.317	-102.195	-97.227	16.399	-100.775	-8191	255	
2295.933	1	1	0	0	0.14993	0.13647	0.16413	0.024581	0.10848	0.40465	0.13312	0.088765	0.19478	0.26075	0.29589	0.089272	0.16634	0.1818	0.17153	0.12438	-0.63125	-1.3521	-1.3208	-0.92917	-1.7375	-1.1021	-1.3625	-1.7896	-0.69583	-1.5625	-1.3125	-1.1542	-1.7125	-1.0833	-1.3458	-1.6208	-116.286	-72.532	46.353	-16.019	21.103	237.263	142.965	-24.685	51.318	170.957	-1.585	234.783	175.007	64.544	185.075	113.751	0.00060437	0.00038522	0.00010642	133.1	9.1533e-06	5.0544e-06	214.55	53.683	1.2237e-05	5.1984e-06	104.63	47.196	23.938	10.715	2.1563e-05	23.109	0.0030988	0.0035655	0.00099449	184.72	3.9128e-05	3.9589e-05	258.95	67.079	3.8688e-05	4.0574e-05	133.39	54.696	34.258	13.117	4.0522e-05	26.377	127.888	-75.071	126.318	-109.188	173.365	-46.702	-111.265	-104.503	134.922	-30.513	-106.582	-103.306	-101.888	-96.759	11.130	-100.752	-8191	255	
2296.005	1	1	0	0	0.10897	0.032042	0.14352	0.13663	0.085772	0.25111	0.13944	0.1732	0.23997	0.21891	0.060693	0.13517	0.12002	0.22781	0.1523	0.21703	-0.36667	-1.575	-1.4375	-0.93958	-1.95	-1.1625	-1.2646	-1.8292	-0.98542	-1.6542	-1.7313	-1.0792	-1.5896	-1.0729	-1.1083	-1.9021	223.304	-0.865	140.177	64.738	23.161	43.140	-38.042	122.768	-104.212	-44.127	48.853	163.518	54.749	208.450	117.081	-21.978	0.00015296	0.00064974	0.00016784	129.98	2.8303e-06	1.0316e-05	215.69	53.877	1.659e-05	1.1468e-05	104.47	47.564	24.147	10.772	9.2906e-06	23.156	0.003197	0.0037694	0.0010472	185.22	4.0159e-05	4.0958e-05	262.25	67.66	3.915e-05	4.1495e-05	134.19	54.873	34.433	13.146	4.0791e-05	26.523	177.373	190.412	-13.400	-109.510	172.603	176.425	-110.954	-104.785	176.081	205.634	-106.837	-103.361	-101.979	-97.388	9.400	-101.189	-8191	255	
2296.125	1	1	0	0	0.084793	0.16036	0.10598	0.13626	0.34251	0.16818	0.051977	0.13811	0.20367	0.23361	0.13389	0.039117	0.26443	0.10368	0.17095	0.3287	-0.5875	-1.6521	-1.5562	-1.0333	-1.6458	-1.2062	-1.0021	-1.7604	-0.96458	-1.55	-1.5583	-0.85	-1.6396	-1.3771	-0.88542	-1.7646	220.061	61.439	110.919	-67.279	28.033	141.404	232.484	178.385	121.020	237.140	-5.802	234.153	-57.693	117.174	126.364	160.694	0.00060523	0.001176	0.00012501	137.43	6.0352e-06	5.6489e-06	215.28	53.492	1.2854e-05	8.016e-06	104.26	47.088	23.742	10.848	4.0615e-06	23.013	0.003271	0.0037795	0.0010616	188.51	4.0927e-05	4.1855e-05	262.11	67.835	3.9495e-05	4.1905e-05	135.32	55.068	34.17	13.199	4.0646e-05	26.314	128.751	-62.924	43.224	-109.539	-39.658	52.046	-111.254	-104.238	-111.278	-27.867	-107.037	-103.670	-102.235	-97.051	-61.701	-100.466	-8191	255	
2296.221	1	1	0	0	0.18971	0.084054	0.31018	0.16368	0.13921	0.23309	0.042077	0.17479	0.2283	0.10161	0.067046	0.069114	0.14188	0.30457	0.1137	0.26661	-0.59167	-1.4646	-1.5521	-0.91458	-1.6792	-1.2812	-1.0896	-1.8438	-1.1	-1.1125	-1.7437	-0.95208	-1.6396	-1.5375	-1.1208	-1.8188	-72.307	145.569	173.380	187.907	165.751	222.095	194.080	157.879	27.576	-95.916	70.346	235.597	170.557	-85.819	-112.368	74.194	0.00053012	0.00081223	0.00015776	133.04	1.2189e-05	5.5401e-06	214.68	54.371	2.2133e-05	8.6694e-06	103.46	46.317	23.72	10.664	8.5798e-06	22.624	0.0032368	0.0037546	0.0010409	187.6	4.0538e-05	4.1614e-05	259.9	68.044	4.0269e-05	4.2347e-05	134.18	54.475	34.563	13.123	4.1983e-05	26.085	108.610	-39.802	226.340	-109.768	-85.682	-109.225	-111.125	-104.305	-43.657	58.659	-107.125	-103.301	-102.114	-97.149	41.888	-100.049	-8191	255	
2296.316	1	1	0	0	0.34903	0.27183	0.24157	0.14207	0.21992	0.21801	0.038619	0.25612	0.15386	0.15319	0.096502	0.23343	0.19012	0.13528	0.18271	0.20425	-0.78125	-1.0792	-1.7958	-0.64792	-1.6458	-1.4333	-1.1375	-1.8375	-1.2208	-1.2542	-1.8875	-0.85	-1.4625	-1.5562	-1.0167	-1.8625	126.746	-35.506	26.511	79.036	209.184	-64.945	-0.942	185.216	-10.545	-3.175	82.839	98.554	70.398	128.880	-99.044	158.718	0.0006152	0.00035105	9.4454e-05	133.27	8.7698e-06	4.1931e-06	215.63	53.885	3.0687e-06	5.7912e-06	102.62	46.504	24.004	10.79	2.846e-06	22.725	0.0033578	0.0039167	0.0010823	188.57	4.147e-05	4.2261e-05	260.71	68.186	4.0859e-05	4.2627e-05	134.53	54.651	34.619	13.23	4.2107e-05	26.282	124.925	-118.135	4.810	-109.946	-24.257	-108.726	-111.479	-104.510	93.297	-85.313	-107.096	-103.403	-101.948	-97.513	36.460	-100.311	-8191	255	
2296.414	1	1	0	0	0.19901	0.2284	0.26	0.16876	0.18876	0.16383	0.10311	0.23485	0.23296	0.16893	0.11737	0.036569	0.29894	0.10555	0.073073	0.20582	-0.88958	-1.0979	-1.6792	-1.1458	-1.4021	-1.6333	-0.92708	-1.7479	-1.5271	-0.94375	-1.8729	-0.87083	-1.4375	-1.9125	-0.81667	-1.9	-92.194	-90.926	151.139	202.665	187.766	183.024	106.767	208.456	35.801	17.287	-31.358	-67.188	131.092	82.450	85.755	129.457	0.0002577	0.0010452	0.00016738	134.09	4.154e-06	2.643e-06	212.66	54.672	1.1411e-05	8.2047e-06	103.04	47.248	24.14	10.916	1.9728e-05	23.248	0.0034364	0.0039621	0.0010998	190.77	4.2761e-05	4.4309e-05	261.4	69.028	4.1944e-05	4.351e-05	135.66	55.199	35.063	13.453	4.2405e-05	26.682	109.490	106.777	189.266	-109.357	-55.747	37.947	-111.205	-104.576	210.801	212.980	-107.060	-103.500	-102.057	-97.431	87.525	-100.569	-8191	255	
2296.533	1	1	0	0	0.20052	0.043089	0.20003	0.3313	0.22309	0.17842	0.20546	0.050201	0.29189	0.4492	0.23465	0.0715	0.21453	0.13848	0.14146	0.12168	-1.1125	-0.89167	-1.7354	-1.0042	-1.3021	-1.8146	-0.88958	-1.7104	-1.4875	-0.93333	-1.6917	-1.0312	-1.3625	-1.7771	-0.90833	-1.5333	59.360	-114.111	99.223	209.744	-69.349	113.917	183.572	216.437	109.497	229.844	-0.871	170.619	23.150	121.301	17.059	-111.134	0.00061257	0.00059017	0.0001664	136.59	3.5392e-06	7.034e-06	212.68	55.198	8.8599e-06	5.7907e-06	105.24	47.531	24.048	10.948	5.6034e-06	23.496	0.0034008	0.003917	0.0011108	192.74	4.2193e-05	4.302e-05	262.89	69.438	4.2008e-05	4.3411e-05	136.85	55.451	35.199	13.565	4.3634e-05	27.063	114.536	-16.876	234.547	-109.070	174.138	-120.054	-111.575	-104.436	100.918	-41.205	-106.398	-103.277	-101.399	-97.573	49.456	-100.195	-8191	255	
2296.629	1	1	0	0	0.12534	0.037222	0.10366	0.20019	0.058898	0.13372	0.19725	0.10154	0.20563	0.16673	0.18061	0.26778	0.11025	0.30124	0.036799	0.28431	-1.0604	-0.79375	-1.8729	-1.1688	-1.1917	-1.8188	-0.96875	-1.4083	-1.6229	-0.82708	-1.8771	-1.4729	-1.1333	-1.8417	-1.1479	-1.4062	180.979	209.385	-34.957	111.967	115.991	192.145	-50.976	52.733	181.328	-59.009	82.191	-88.515	-94.524	224.103	107.106	228.417	0.00017103	0.00054166	0.00010952	135.69	3.4666e-06	1.6501e-05	213.39	55.296	1.9205e-06	1.234e-05	104.92	46.37	24.049	10.717	6.1819e-06	22.635	0.0035382	0.0040525	0.0011499	194.42	4.4031e-05	4.5922e-05	262.11	69.852	4.3784e-05	4.5305e-05	137.08	55.074	35.261	13.449	4.4579e-05	26.352	126.942	-1.229	216.514	-110.172	137.264	-50.186	-110.757	-104.427	215.867	74.178	-106.745	-103.626	-101.919	-97.738	60.363	-100.409	-8191	255	
2296.700	1	1	0	0	0.21462	0.20119	0.32994	0.17466	0.31476	0.17816	0.080388	0.22376	0.16461	0.10095	0.23354	0.08527	0.10016	0.16647	0.11238	0.050849	-1.2042	-0.82292	-1.7062	-1.2333	-1.1021	-1.6375	-1.0979	-1.325	-1.4646	-0.72917	-1.625	-1.4438	-0.8625	-1.7854	-1.2229	-1.1562	200.704	-30.902	122.720	120.200	123.834	-75.038	-81.616	222.897	132.192	-121.455	166.360	43.068	-119.167	148.675	74.339	-15.466	0.00034519	0.00033851	0.00024058	134.49	1.1335e-05	6.7847e-06	213.3	55.036	1.0414e-05	3.6257e-06	102.01	46.944	24.049	10.739	2.065e-06	22.461	0.0035691	0.0040726	0.0011731	194.11	4.4378e-05	4.6168e-05	260.07	69.552	4.4273e-05	4.542e-05	136.22	54.599	35.29	13.39	4.5297e-05	26.175	109.295	-99.650	-64.645	-109.536	232.082	-60.392	-110.831	-104.471	77.284	-76.430	-106.390	-103.939	-102.590	-97.356	203.196	-100.613	-8191	255	
2296.821	1	1	0	0	0.11535	0.15205	0.17554	0.12115	0.2173	0.066215	0.049213	0.24402	0.30344	0.16453	0.17062	0.059795	0.12811	0.34408	0.086931	0.070405	-1.3042	-0.85833	-1.55	-1.4521	-0.68958	-1.8083	-1.2396	-1.0812	-1.9083	-0.825	-1.5354	-1.6167	-0.94792	-1.4333	-1.2437	-1.0354	-14.850	-81.481	203.441	180.205	149.588	-70.837	-116.057	217.934	103.526	10.110	214.792	173.321	35.025	232.882	231.414	230.024	0.00061712	0.00052428	0.00016244	134.63	7.3329e-06	1.0678e-05	209.44	54.939	6.0689e-06	8.257e-06	103.9	46.422	24.272	10.926	6.6283e-07	22.964	0.0036276	0.0041244	0.0011711	196.12	4.4439e-05	4.652e-05	260.86	69.805	4.4197e-05	4.5924e-05	137.06	55.031	35.329	13.592	4.4222e-05	26.696	149.979	213.547	217.657	-109.277	-21.362	222.201	-110.902	-104.237	202.354	156.340	-106.429	-103.274	-101.314	-96.609	123.137	-100.783	-8191	255	
2296.917	1	1	0	0	0.26048	0.112	0.15987	0.25519	0.26191	0.099915	0.055108	0.14728	0.14419	0.094802	0.12232	0.05852	0.077241	0.023725	0.192	0.17067	-1.5438	-1.0375	-1.5312	-1.5917	-0.86458	-1.7292	-1.4896	-1.1021	-1.6333	-1.2062	-1.5521	-1.7417	-0.77083	-1.7229	-1.1708	-0.9875	191.281	-119.190	87.773	115.336	-81.752	-3.376	140.123	68.279	218.689	-7.150	-5.826	146.515	-12.268	-6.462	222.205	232.059	0.00027527	0.00050751	0.00029656	136.63	6.0287e-06	1.0321e-05	217.41	55.577	9.935e-07	5.4683e-06	105.62	47.692	24.577	10.977	5.0508e-06	23.365	0.0035528	0.0040555	0.0011491	195.61	4.3252e-05	4.5475e-05	262.87	70.387	4.4104e-05	4.5349e-05	137.84	55.671	35.595	13.695	4.4499e-05	26.94	127.488	171.986	1.478	-110.169	7.415	165.629	-110.571	-103.947	-12.334	14.889	-106.664	-103.279	-102.082	-97.782	-17.231	-99.696	-8191	255	
2297.013	1	1	0	0	0.30369	0.20252	0.081182	0.076577	0.4223	0.22427	0.11711	0.13318	0.089123	0.089461	0.1924	0.10849	0.16817	0.12761	0.24233	0.18921	-1.4708	-1.0271	-1.2167	-1.7563	-0.81667	-1.625	-1.4354	-0.93333	-1.6833	-1.1854	-1.2896	-1.8937	-0.78125	-1.5938	-1.5854	-0.9375	139.958	-81.374	39.278	-40.342	220.401	35.270	145.913	150.435	96.616	133.061	226.883	179.369	178.236	109.014	-6.255	63.495	0.0002604	0.00052089	0.00035002	137.55	8.0677e-06	1.8758e-05	217.94	55.533	9.6096e-06	9.7302e-06	104.52	46.953	24.265	10.77	7.3052e-06	22.918	0.0035441	0.0040536	0.0011409	196.18	4.2902e-05	4.4911e-05	264.23	69.789	4.2959e-05	4.4097e-05	136.22	54.988	35.118	13.453	4.3314e-05	26.338	123.713	186.875	-29.761	-110.533	134.339	-44.120	-111.501	-103.778	133.628	44.989	-106.663	-103.285	-101.501	-97.643	-7.474	-100.664	-8191	255	
2297.110	1	1	0	0	0.32484	0.039706	0.29595	0.1422	0.15579	0.12885	0.26918	0.32817	0.2494	0.24758	0.15928	0.23204	0.24422	0.19354	0.24703	0.2568	-1.4167	-1.2979	-1.125	-1.8729	-0.98958	-1.4979	-1.5562	-0.98958	-1.7	-1.2083	-1.1625	-1.9042	-1.1125	-1.5542	-1.6875	-0.99583	-20.689	-14.254	-15.720	20.648	-109.938	-97.103	-84.094	-13.438	27.567	199.958	205.281	58.099	-41.935	-78.002	137.675	118.765	0.00069132	0.00041969	0.00014944	137.96	6.7294e-06	1.2207e-06	215.48	55.112	1.0466e-05	6.6833e-06	103.07	46.881	24.225	10.824	9.9233e-06	22.42	0.0034931	0.0039499	0.0011073	195.12	4.2548e-05	4.4128e-05	261.82	69.705	4.2329e-05	4.357e-05	135.14	54.443	35.287	13.395	4.2499e-05	25.935	103.785	-21.396	33.431	-109.389	63.434	-67.906	-111.361	-103.909	-18.483	175.070	-107.008	-103.863	-102.216	-97.179	179.294	-99.705	-8191	255	
2297.228	1	1	0	0	0.077421	0.13389	0.13231	0.26134	0.16526	0.062334	0.095319	0.23231	0.12206	0.11487	0.14932	0.22371	0.049843	0.13865	0.28652	0.27611	-1.5354	-1.2917	-0.96458	-1.7896	-0.88958	-1.3438	-1.8083	-0.76458	-1.5292	-1.4188	-0.99583	-1.8062	-1.0521	-1.2938	-1.6396	-1.025	-111.656	225.531	134.526	-55.373	-8.865	-51.821	4.171	17.228	2.298	-61.389	139.076	8.383	-54.335	185.450	-90.094	108.952	0.00024348	0.00072224	0.00022475	138.66	1.3428e-05	9.7406e-06	213.36	55.277	1.4529e-05	1.9628e-05	102.26	46.452	24.134	10.718	4.2334e-06	22.4	0.0034407	0.0039624	0.0011027	194.94	4.2171e-05	4.4322e-05	261.09	69.768	4.2591e-05	4.4313e-05	135.41	54.531	35.073	13.312	4.3316e-05	25.922	98.523	231.004	209.208	-109.867	198.709	-59.552	-111.212	-103.821	-79.349	186.417	-106.005	-103.131	-101.822	-97.726	-16.435	-100.115	-8191	255	
2297.302	1	1	0	0	0.2733	0.21351	0.18634	0.30433	0.11699	0.086288	0.13817	0.17235	0.057251	0.32381	0.30157	0.072828	0.16404	0.29867	0.27787	0.27052	-1.3292	-1.4292	-0.99792	-1.7062	-1.1938	-1.2271	-1.8813	-0.93333	-1.65	-1.65	-1.0438	-1.8229	-1.2375	-0.97708	-1.8729	-1.2042	61.500	-43.979	13.134	-89.591	-63.288	-39.546	193.730	112.724	231.783	94.004	151.914	164.411	232.312	209.453	190.060	-53.556	0.00037604	0.00095904	0.00011913	137.45	5.2084e-06	1.0331e-05	212.95	55.43	3.6807e-06	2.0593e-06	103.12	46.718	23.945	10.74	9.0367e-06	22.756	0.0034696	0.0039651	0.0011013	195.27	4.2e-05	4.3944e-05	262.76	70.027	4.2414e-05	4.3791e-05	135.6	54.809	35.015	13.384	4.249e-05	26.218	109.765	-80.807	45.285	-109.626	41.630	39.765	-110.925	-104.100	28.889	220.387	-107.209	-102.628	-102.027	-97.205	85.386	-100.478	-8191	255	
2297.396	1	1	0	0	0.1359	0.099762	0.19876	0.092319	0.23353	0.15402	0.14234	0.12609	0.16231	0.21172	0.039357	0.064335	0.020039	0.16703	0.12037	0.15099	-1.2604	-1.55	-0.75208	-1.7833	-1.3854	-1.1104	-1.8	-1.0396	-1.4771	-1.6479	-1.1375	-1.8583	-1.3979	-1.1	-1.7771	-1.1458	135.790	82.736	92.310	148.776	94.491	46.203	150.238	-92.601	215.055	44.577	148.833	224.405	17.256	19.078	63.009	-106.386	0.00024581	0.00053497	0.00034278	138.24	1.3753e-05	4.7649e-06	219.08	55.429	2.1851e-05	1.4492e-05	105.22	46.583	24.348	11.033	9.9207e-06	23.158	0.0034113	0.003917	0.00108	194.77	4.1578e-05	4.2976e-05	264.88	69.913	4.0885e-05	4.2646e-05	136.01	54.768	35.023	13.45	4.2142e-05	26.578	86.941	-55.901	9.231	-109.299	138.168	-52.137	-110.691	-104.034	59.782	3.675	-106.615	-103.172	-102.198	-96.609	-5.174	-100.176	-8191	255	
2297.494	1	1	0	0	0.076674	0.24758	0.09669	0.041923	0.039853	0.17556	0.25052	0.25274	0.16363	0.24074	0.25412	0.14751	0.091583	0.18812	0.071578	0.16203	-1.0979	-1.725	-0.9875	-1.7167	-1.3062	-1.0625	-1.8813	-1.175	-1.4292	-1.7792	-0.91875	-1.6208	-1.5438	-1.0021	-1.8292	-1.4021	64.935	-13.054	192.815	213.783	-107.979	-22.827	203.699	215.339	112.840	131.817	-116.917	106.826	95.272	-42.063	-99.380	144.609	0.00052407	0.0001008	0.00011505	140.69	2.7559e-06	8.2475e-06	219.85	56.938	8.7556e-06	8.1971e-06	105.26	46.676	24.795	10.918	6.2165e-06	22.499	0.0033522	0.0038483	0.0010658	197.18	4.1731e-05	4.2555e-05	264.28	70.409	4.0408e-05	4.2537e-05	135.72	54.747	35.045	13.365	4.1508e-05	25.925	65.760	-34.605	-19.920	-109.253	135.926	104.528	-110.923	-103.825	-66.504	16.597	-106.757	-103.197	-101.936	-97.042	59.308	-100.096	-8191	255	
2297.613	1	1	0	0	0.28988	0.18721	0.12632	0.092779	0.25236	0.022959	0.20517	0.040813	0.14814	0.20253	0.19249	0.15043	0.041435	0.19829	0.12147	0.093734	-0.67708	-1.7437	-0.98125	-1.5479	-1.5688	-1.0187	-1.6875	-1.2604	-1.1625	-1.8479	-0.98542	-1.6	-1.5354	-1.0396	-1.7563	-1.2583	113.722	26.101	-116.894	-14.417	-50.627	172.555	-0.867	-108.533	-62.770	65.704	210.702	-96.318	-91.611	-108.518	-52.597	52.053	0.00016512	0.00099701	0.00017838	141.03	3.6625e-06	6.7857e-06	220.23	56.402	4.6677e-06	3.1903e-06	104.15	46.124	24.4	10.793	3.1716e-06	22.51	0.003273	0.0037802	0.0010429	195.38	4.0665e-05	4.1554e-05	262.53	69.709	4.0144e-05	4.1895e-05	134.6	54.327	34.909	13.218	4.1226e-05	25.935	58.387	-85.627	-35.489	-108.926	11.452	85.343	-110.343	-104.249	-23.207	184.946	-106.867	-102.797	-101.252	-96.811	-16.300	-100.264	-8191	255	
2297.709	1	1	0	0	0.088286	0.16722	0.36542	0.12676	0.27969	0.040708	0.021926	0.17605	0.19453	0.27267	0.22633	0.19426	0.057318	0.22574	0.3664	0.16973	-0.8375	-1.7354	-0.87083	-1.1646	-1.6792	-0.83125	-1.7854	-1.1875	-0.96042	-1.8042	-1.2854	-1.4292	-1.7896	-0.85	-1.4625	-1.4771	145.413	97.447	-89.990	-103.096	-96.119	27.948	197.966	191.588	67.824	0.464	68.872	-116.373	154.722	-7.883	59.318	124.027	0.00062756	0.00064477	6.2256e-05	139.61	5.7933e-06	6.6458e-06	218.69	56.521	1.3375e-05	6.4442e-06	102.38	46.601	24.383	10.96	4.9444e-06	22.808	0.0032742	0.0037849	0.0010543	194.26	4.0863e-05	4.1833e-05	262.46	69.903	4.0252e-05	4.2784e-05	134.18	54.358	34.915	13.311	4.1775e-05	26.203	123.870	187.254	-80.021	-110.720	-1.982	128.533	-110.964	-104.420	32.265	-41.230	-106.178	-103.368	-101.429	-96.692	50.098	-100.441	-8191	255	
2297.805	1	1	0	0	0.041284	0.14427	0.17635	0.30507	0.29192	0.2405	0.16841	0.44115	0.18364	0.19954	0.47787	0.045655	0.24933	0.13485	0.30271	0.33405	-0.51042	-1.7125	-1.0562	-1.2563	-1.7313	-1.0604	-1.65	-1.5021	-0.75625	-1.7771	-1.1437	-0.90417	-1.7458	-0.97708	-1.2625	-1.4438	123.702	57.115	-116.186	-71.342	90.616	227.938	169.806	-92.010	121.667	226.916	-20.193	150.080	99.224	219.043	213.395	223.613	0.00024723	0.00066413	0.00012143	140.08	8.6901e-06	5.7894e-06	217.82	56.158	4.2165e-06	8.0433e-06	103.94	46.541	24.218	10.792	3.4571e-06	22.76	0.0033228	0.0038668	0.001069	196.07	4.1481e-05	4.2127e-05	264.02	70.141	4.0236e-05	4.2638e-05	135.8	54.533	35.018	13.299	4.2197e-05	26.16	103.366	-79.860	200.524	-109.675	24.701	-99.035	-111.100	-103.676	49.536	154.003	-106.901	-102.601	-101.125	-96.977	35.835	-99.879	-8191	255	
2297.926	1	1	0	0	0.20131	0.10186	0.19011	0.13198	0.30538	0.20955	0.051762	0.052452	0.1214	0.16539	0.12306	0.20562	0.10537	0.10951	0.048231	0.071434	-0.60417	-1.8167	-1.2292	-0.82708	-1.7479	-0.88542	-1.4937	-1.7292	-0.83958	-1.8021	-1.5208	-0.88333	-1.7479	-1.0417	-1.3646	-1.7333	139.989	135.948	-116.854	159.502	45.601	64.336	23.532	-116.052	203.056	-75.593	144.387	160.239	223.447	85.020	193.514	136.885	0.00069012	0.00044212	3.9959e-05	137.46	8.5732e-06	1.0768e-05	218.17	55.372	6.8015e-06	4.2644e-06	104.25	46.966	24.665	10.765	4.4449e-06	22.84	0.0033071	0.0038795	0.0010691	193.43	4.1361e-05	4.2118e-05	264.05	69.821	4.0325e-05	4.2877e-05	135.01	54.557	34.863	13.228	4.1802e-05	26.094	116.221	10.316	75.482	-109.730	-35.671	211.534	-110.309	-103.802	-121.474	212.262	-107.092	-102.985	-101.516	-97.659	-108.343	-99.985	-8191	255	
2297.998	1	1	0	0	0.30693	0.26653	0.15358	0.070342	0.23735	0.15659	0.13082	0.23822	0.11039	0.19826	0.17806	0.11656	0.081681	0.093929	0.14064	0.40205	-0.48958	-1.5396	-1.5458	-1.0771	-1.8271	-1.2271	-1.1021	-1.8687	-0.70625	-1.6313	-1.6729	-0.95	-1.8271	-1.1479	-1.1104	-1.9062	-44.405	-33.688	-20.684	50.242	204.205	189.357	-104.409	-83.052	64.747	4.644	174.947	211.225	227.927	-109.126	36.947	-121.115	0.00034565	0.00025118	0.00022009	139.85	1.3736e-05	1.7102e-05	217.55	55.583	1.4063e-05	5.5933e-06	102.9	45.871	24.496	10.829	4.6917e-06	22.265	0.0032945	0.0039117	0.0010773	194.12	4.1886e-05	4.2457e-05	263.2	69.995	4.0696e-05	4.3127e-05	134.37	53.888	34.819	13.259	4.1315e-05	25.687	98.249	65.468	80.834	-109.784	-84.836	5.589	-110.648	-104.410	14.398	-56.294	-106.956	-102.140	-100.800	-97.352	-31.664	-99.350	-8191	255	
2298.094	1	1	0	0	0.1124	0.29848	0.20476	0.10276	0.072078	0.16343	0.22044	0.11267	0.058929	0.13499	0.040979	0.10538	0.16963	0.038991	0.23404	0.25283	-0.60417	-1.4979	-1.5938	-1.1333	-1.7917	-1.1833	-1.1729	-1.8146	-0.89167	-1.4021	-1.6854	-1.0354	-1.8521	-1.1292	-1.1313	-1.8521	161.744	-87.083	105.822	151.312	34.961	57.401	119.902	235.868	-92.037	-43.596	236.756	-109.322	-61.489	77.400	-100.783	230.195	0.00051434	0.00078896	0.00012837	137.62	6.6267e-06	5.8551e-06	213.86	55.954	4.5286e-06	1.4381e-06	103.74	46.445	24.242	10.722	1.6659e-06	22.445	0.003293	0.0038774	0.0010615	192.41	4.1604e-05	4.1961e-05	260.06	69.58	4.0446e-05	4.325e-05	134.12	53.888	34.735	13.16	4.124e-05	25.738	147.599	-65.883	183.211	-109.158	100.900	-32.246	-110.515	-104.142	55.421	197.118	-106.464	-102.940	-101.549	-97.027	-114.219	-100.169	-8191	255	
2298.214	1	1	0	0	0.28051	0.18471	0.071896	0.2926	0.2526	0.19276	0.080173	0.10327	0.1483	0.29734	0.25177	0.16898	0.097353	0.089369	0.10234	0.15896	-0.44167	-1.4083	-1.6458	-0.82917	-1.7917	-1.2375	-1.0333	-1.8813	-1.0917	-1.2313	-1.725	-0.99167	-1.5229	-1.4521	-0.92292	-1.8125	-35.408	150.653	47.581	159.160	-40.473	78.479	223.822	-107.958	-52.813	75.112	-108.212	145.297	160.857	0.759	206.120	38.577	0.00060061	0.00055126	0.00011852	136.52	2.8989e-06	1.3616e-06	216.6	56.286	1.2002e-05	4.7918e-06	105.15	46.668	24.274	10.885	8.2412e-06	23.062	0.0032968	0.0038671	0.0010669	192.8	4.1486e-05	4.2425e-05	262.88	70.232	4.0397e-05	4.2842e-05	135.12	54.358	35.132	13.355	4.1108e-05	26.396	145.972	-16.030	217.126	-109.877	126.060	-111.111	-110.347	-103.979	52.104	44.177	-106.352	-102.788	-100.833	-97.383	133.519	-99.823	-8191	255	
2298.309	1	1	0	0	0.17385	0.082507	0.183	0.12938	0.31248	0.063807	0.18829	0.23596	0.28481	0.13942	0.18078	0.14164	0.061488	0.26607	0.15136	0.23363	-0.79792	-1.2292	-1.5021	-0.80625	-1.5625	-1.5917	-0.83125	-1.7854	-1.2812	-1.2188	-1.825	-0.97708	-1.5083	-1.6417	-0.93333	-1.7812	205.113	200.719	-38.575	110.911	154.369	111.103	-21.368	191.926	182.995	-115.740	218.437	50.940	-106.255	185.199	120.455	134.656	0.00041832	0.0010141	8.8474e-05	137.77	1.249e-05	4.2662e-06	215.36	56.733	1.2135e-05	1.6044e-06	104.65	46.614	24.458	10.963	1.0046e-05	22.967	0.0033072	0.0038339	0.0010744	194.08	4.1627e-05	4.2616e-05	262.49	70.545	4.0789e-05	4.2998e-05	135.65	54.65	35.066	13.395	4.1354e-05	26.438	104.249	2.449	159.265	-109.159	181.592	93.912	-110.811	-103.784	55.339	-32.760	-106.831	-102.565	-100.984	-96.739	6.329	-99.497	-8191	255	
2298.405	1	1	0	0	0.097595	0.10046	0.1075	0.19753	0.19754	0.25111	0.17537	0.087175	0.17727	0.21449	0.16774	0.19262	0.22294	0.074687	0.21027	0.3052	-0.95	-1.0354	-1.8875	-0.99583	-1.2958	-1.4604	-1.0167	-1.7021	-1.0979	-1.1208	-1.9	-1.1063	-1.3792	-1.6562	-0.8375	-1.7271	6.479	-26.616	39.080	207.581	44.660	116.391	-116.766	215.864	160.638	49.115	-119.838	229.132	64.427	30.987	226.702	191.336	0.00059071	0.00019388	0.00023335	139.6	8.5918e-06	4.6309e-06	215.68	56.081	2.8015e-06	4.6022e-06	104.1	46.807	24.372	10.879	1.4356e-05	22.727	0.0033417	0.0038682	0.0010807	195.36	4.1508e-05	4.2487e-05	263.15	70.141	4.0701e-05	4.2341e-05	135.66	54.636	34.921	13.371	4.1558e-05	26.23	117.723	197.632	86.212	-109.537	122.565	136.133	-110.759	-103.743	124.975	7.899	-106.632	-103.244	-101.436	-96.430	-72.304	-99.570	-8191	255	
2298.503	1	1	0	0	0.067914	0.29181	0.19762	0.14562	0.16817	0.10774	0.046049	0.12271	0.060318	0.19124	0.22582	0.20157	0.39203	0.2731	0.043753	0.28575	-0.84167	-0.95208	-1.7062	-1.2958	-1.175	-1.7812	-1.0333	-1.7229	-1.5208	-0.96667	-1.7563	-1.25	-1.3104	-1.8583	-0.775	-1.5979	41.128	43.839	151.790	146.091	-17.785	235.969	24.334	-110.971	6.043	116.202	101.215	-30.995	118.314	-96.536	-47.440	-46.987	0.00031742	0.00076553	0.0003718	139.43	2.8468e-06	6.9489e-06	215.89	55.388	1.1285e-05	3.9984e-06	102.85	46.054	24.373	10.919	1.3063e-05	22.45	0.0033376	0.0037915	0.0010692	194.52	4.1154e-05	4.2368e-05	261.3	69.762	3.9915e-05	4.1318e-05	133.6	53.997	34.47	13.239	4.0237e-05	25.749	208.100	-86.672	170.797	-109.176	-119.753	66.340	-110.046	-103.530	19.308	-70.058	-106.579	-102.429	-101.037	-96.542	-83.204	-99.312	-8191	255	
#DATA ENDS
