BOXY.EXE: ISS Imagent and Oximeter Data Acquisition Program Version 0.80
Ascii Record File

#ACQ INFORMATION
2  Detector Channels 
16  External MUX Channels 
1  Auxiliary Channels 
5000  Waveform (CCF) Frequency (Hz)
1  Waveforms Skipped 
30  Waveforms Averaged 
1  Cycles Averaged 
16  Acquisitions per Waveform 
10.0806  Updata Rate (Hz) 

#FILE INFORMATION
TRUE -- External MUX Channel results are PARSED.
FALSE -- AC DC and Phase are NOT grouped.
TRUE -- Companion Program Settings File CREATED.
FALSE -- AC data not excluded
FALSE -- DC data not excluded
FALSE -- Phase data not excluded
FALSE -- Auxillary Chn. data not excluded
Tab delimiters

#CALIBRATION STATE
TRUE -- Waveform Calibration Values APPLIED.


#AUX CALIBRATION VALUES
Val Type	aux-1	

Term	1.0000e+00	
Factor	0.0000e+00	


#WF CALIBRATION VALUES
A = Detector Channel
Val Type	A-AC1	A-AC2	A-AC3	A-AC4	A-AC5	A-AC6	A-AC7	A-AC8	A-AC9	A-AC10	A-AC11	A-AC12	A-AC13	A-AC14	A-AC15	A-AC16	A-DC1	A-DC2	A-DC3	A-DC4	A-DC5	A-DC6	A-DC7	A-DC8	A-DC9	A-DC10	A-DC11	A-DC12	A-DC13	A-DC14	A-DC15	A-DC16	A-Ph1	A-Ph2	A-Ph3	A-Ph4	A-Ph5	A-Ph6	A-Ph7	A-Ph8	A-Ph9	A-Ph10	A-Ph11	A-Ph12	A-Ph13	A-Ph14	A-Ph15	A-Ph16	

Term	0.00000e+00	0.00000e+00	0.00000e+00	0.00000e+00	0.00000e+00	0.00000e+00	0.00000e+00	0.00000e+00	0.00000e+00	0.00000e+00	0.00000e+00	0.00000e+00	0.00000e+00	0.00000e+00	0.00000e+00	0.00000e+00	0.00000e+00	0.00000e+00	0.00000e+00	0.00000e+00	0.00000e+00	0.00000e+00	0.00000e+00	0.00000e+00	0.00000e+00	0.00000e+00	0.00000e+00	0.00000e+00	0.00000e+00	0.00000e+00	0.00000e+00	0.00000e+00	0.00000e+00	0.00000e+00	0.00000e+00	0.00000e+00	0.00000e+00	0.00000e+00	0.00000e+00	0.00000e+00	0.00000e+00	0.00000e+00	0.00000e+00	0.00000e+00	0.00000e+00	0.00000e+00	0.00000e+00	0.00000e+00	
Factor	1.00000e+00	1.00000e+00	1.00000e+00	1.00000e+00	1.00000e+00	1.00000e+00	1.00000e+00	1.00000e+00	1.00000e+00	1.00000e+00	1.00000e+00	1.00000e+00	1.00000e+00	1.00000e+00	1.00000e+00	1.00000e+00	1.00000e+00	1.00000e+00	1.00000e+00	1.00000e+00	1.00000e+00	1.00000e+00	1.00000e+00	1.00000e+00	1.00000e+00	1.00000e+00	1.00000e+00	1.00000e+00	1.00000e+00	1.00000e+00	1.00000e+00	1.00000e+00	X	X	X	X	X	X	X	X	X	X	X	X	X	X	X	X	

B = Detector Channel
Val Type	B-AC1	B-AC2	B-AC3	B-AC4	B-AC5	B-AC6	B-AC7	B-AC8	B-AC9	B-AC10	B-AC11	B-AC12	B-AC13	B-AC14	B-AC15	B-AC16	B-DC1	B-DC2	B-DC3	B-DC4	B-DC5	B-DC6	B-DC7	B-DC8	B-DC9	B-DC10	B-DC11	B-DC12	B-DC13	B-DC14	B-DC15	B-DC16	B-Ph1	B-Ph2	B-Ph3	B-Ph4	B-Ph5	B-Ph6	B-Ph7	B-Ph8	B-Ph9	B-Ph10	B-Ph11	B-Ph12	B-Ph13	B-Ph14	B-Ph15	B-Ph16	

Term	0.00000e+00	0.00000e+00	0.00000e+00	0.00000e+00	0.00000e+00	0.00000e+00	0.00000e+00	0.00000e+00	0.00000e+00	0.00000e+00	0.00000e+00	0.00000e+00	0.00000e+00	0.00000e+00	0.00000e+00	0.00000e+00	0.00000e+00	0.00000e+00	0.00000e+00	0.00000e+00	0.00000e+00	0.00000e+00	0.00000e+00	0.00000e+00	0.00000e+00	0.00000e+00	0.00000e+00	0.00000e+00	0.00000e+00	0.00000e+00	0.00000e+00	0.00000e+00	-2.13723e+02	-1.41593e+02	-1.27316e+02	-1.82794e+02	-7.62647e+01	-6.59945e+01	-1.59761e+02	-1.62015e+02	-7.53054e+01	-7.44318e+01	-1.73616e+02	-1.70170e+02	-1.81260e+02	-1.77206e+02	-7.31111e+01	-1.49760e+02	
Factor	4.16295e-05	1.17231e-04	3.50628e-05	1.64734e-01	1.28751e-06	1.54204e-06	1.47184e-01	4.12149e-02	1.81911e-06	1.33572e-06	9.52221e-02	2.38390e-02	3.04876e-02	7.01546e-03	1.41733e-06	9.91543e-03	5.25627e-06	6.12416e-06	1.70953e-06	9.15001e-02	6.56472e-08	6.77175e-08	7.64599e-02	2.29259e-02	6.50200e-08	6.78082e-08	5.11528e-02	1.28320e-02	1.70617e-02	3.94400e-03	6.63377e-08	5.38573e-03	X	X	X	X	X	X	X	X	X	X	X	X	X	X	X	X	



#DISTANCE SETTINGS
A = Detector Channel
A-1	A-2	A-3	A-4	A-5	A-6	A-7	A-8	A-9	A-10	A-11	A-12	A-13	A-14	A-15	A-16	

2.5000e+00	3.0000e+00	2.5000e+00	3.0000e+00	2.0000e+00	3.0000e+00	1.5000e+00	3.0000e+00	3.0000e+00	3.0000e+00	3.0000e+00	3.0000e+00	3.0000e+00	3.0000e+00	1.5000e+00	3.0000e+00	

B = Detector Channel
B-1	B-2	B-3	B-4	B-5	B-6	B-7	B-8	B-9	B-10	B-11	B-12	B-13	B-14	B-15	B-16	

1.0000e+01	1.0000e+01	1.0000e+01	1.4400e+00	1.0000e+01	1.0000e+01	1.5100e+00	1.9400e+00	1.0000e+01	1.0000e+01	1.9900e+00	2.4900e+00	2.4100e+00	2.9000e+00	1.0000e+01	2.9800e+00	




#DATA BEGINS
time	group	step	mark	flag	A-AC1	A-AC2	A-AC3	A-AC4	A-AC5	A-AC6	A-AC7	A-AC8	A-AC9	A-AC10	A-AC11	A-AC12	A-AC13	A-AC14	A-AC15	A-AC16	A-DC1	A-DC2	A-DC3	A-DC4	A-DC5	A-DC6	A-DC7	A-DC8	A-DC9	A-DC10	A-DC11	A-DC12	A-DC13	A-DC14	A-DC15	A-DC16	A-Ph1	A-Ph2	A-Ph3	A-Ph4	A-Ph5	A-Ph6	A-Ph7	A-Ph8	A-Ph9	A-Ph10	A-Ph11	A-Ph12	A-Ph13	A-Ph14	A-Ph15	A-Ph16	B-AC1	B-AC2	B-AC3	B-AC4	B-AC5	B-AC6	B-AC7	B-AC8	B-AC9	B-AC10	B-AC11	B-AC12	B-AC13	B-AC14	B-AC15	B-AC16	B-DC1	B-DC2	B-DC3	B-DC4	B-DC5	B-DC6	B-DC7	B-DC8	B-DC9	B-DC10	B-DC11	B-DC12	B-DC13	B-DC14	B-DC15	B-DC16	B-Ph1	B-Ph2	B-Ph3	B-Ph4	B-Ph5	B-Ph6	B-Ph7	B-Ph8	B-Ph9	B-Ph10	B-Ph11	B-Ph12	B-Ph13	B-Ph14	B-Ph15	B-Ph16	aux-1	digaux	

2269.139	1	1	0	256	0.13007	0.072834	0.20338	0.093701	0.11535	0.090136	0.21787	0.19391	0.24114	0.20796	0.29243	0.10627	0.34847	0.29092	0.13758	0.16316	-0.6	-1.775	-1.1208	-1.2604	-1.9312	-1.0021	-1.7979	-1.4312	-1.0333	-1.6562	-1.2854	-1.3021	-1.7583	-1.075	-1.6729	-1.6125	156.272	65.109	235.974	227.519	42.567	117.160	131.792	-121.506	114.548	212.537	148.975	46.026	67.819	136.665	88.940	-64.940	0.00063292	0.00089455	8.6438e-05	151.31	1.3243e-06	7.4495e-06	247.12	56.929	6.7749e-06	6.9429e-06	109.79	47.943	25.594	11.377	3.0122e-06	21.726	0.0029521	0.0034456	0.00094973	201.98	3.6769e-05	3.7659e-05	288.35	69.668	3.6397e-05	3.812e-05	137.11	54.569	35.095	13.661	3.735e-05	24.891	116.418	-16.864	-52.405	-110.009	43.277	-121.065	-111.165	-104.820	-51.890	-95.562	-107.140	-103.085	-102.472	-97.551	11.287	-100.518	-8191	255	
2269.235	1	1	0	0	0.27851	0.24711	0.25657	0.019066	0.31968	0.17896	0.22989	0.2833	0.075854	0.038533	0.36454	0.029803	0.12749	0.16618	0.17686	0.15976	-0.475	-1.9229	-1.2958	-1.125	-1.9583	-1.0875	-1.7062	-1.8771	-0.78542	-1.8792	-1.35	-1.0604	-1.8333	-1.0375	-1.4312	-1.7938	-83.652	109.539	50.951	-91.889	110.052	-11.022	131.737	206.153	188.408	-2.893	110.946	194.366	-101.872	97.116	219.631	170.014	0.00055273	7.4204e-05	0.00018039	152.18	4.4869e-06	6.4431e-06	248.61	57.224	5.6115e-06	6.8025e-06	110.41	47.678	25.776	11.484	5.2111e-07	21.873	0.0029527	0.0034293	0.00094271	202.03	3.7123e-05	3.7256e-05	289.16	69.942	3.5586e-05	3.8162e-05	136.82	54.776	34.978	13.626	3.6948e-05	24.954	132.156	221.154	214.150	-110.249	72.854	-86.583	-111.197	-104.827	22.926	0.463	-106.670	-103.922	-102.553	-97.379	-104.191	-100.345	-8191	255	
2269.331	1	1	0	0	0.13125	0.091397	0.19645	0.004133	0.15546	0.10212	0.21673	0.19415	0.094579	0.21191	0.13688	0.19999	0.13368	0.35846	0.2864	0.15262	-0.64167	-1.7208	-1.5	-1.1021	-1.7854	-0.97083	-1.4146	-1.775	-1.0854	-1.7771	-1.6958	-1.0875	-2.0187	-1.3292	-1.3667	-1.8312	161.913	151.847	-92.399	72.558	56.389	-32.571	-73.833	-57.163	138.719	-7.293	29.985	-64.512	-30.651	139.880	-117.999	209.099	0.00043919	0.00020149	0.00011107	154.02	4.6227e-06	5.0409e-06	250.39	57.43	1.0639e-05	7.9371e-06	109.58	47.683	25.802	11.407	1.0782e-05	21.587	0.0029576	0.0034571	0.00094343	203.36	3.7092e-05	3.7241e-05	290.06	69.962	3.5804e-05	3.763e-05	136.84	54.563	35.052	13.628	3.6947e-05	24.651	118.613	-86.042	227.117	-110.117	78.665	34.888	-111.116	-104.471	-63.905	184.609	-107.559	-102.946	-102.070	-97.551	-119.859	-100.402	-8191	255	
2269.427	1	1	0	0	0.24614	0.25743	0.1673	0.068588	0.24376	0.364	0.15521	0.019881	0.28372	0.29379	0.10028	0.071282	0.24505	0.10553	0.18233	0.12095	-0.63542	-1.6854	-1.5333	-1.0438	-1.7729	-1.0917	-1.4125	-1.8583	-1.0187	-1.6146	-1.525	-1.1458	-1.9542	-1.1729	-1.3854	-1.7479	-100.786	-55.281	42.283	31.288	67.814	139.660	7.340	72.474	0.332	16.143	160.226	176.829	-113.662	-6.540	144.693	169.843	0.00043182	0.0011676	0.00017421	153.72	1.4093e-05	8.0121e-06	244.3	56.486	8.7977e-06	7.3807e-06	108.16	46.578	24.88	11.077	1.3649e-05	21.059	0.0029921	0.003455	0.00094991	202.88	3.7289e-05	3.8014e-05	286.14	69.577	3.6194e-05	3.7997e-05	135.74	53.897	34.967	13.445	3.6723e-05	24.242	137.427	-23.494	-26.231	-109.770	179.605	57.705	-110.850	-104.259	217.162	-8.547	-107.339	-103.413	-101.508	-97.025	-66.454	-100.223	-8191	255	
2269.523	1	1	0	0	0.15886	0.042311	0.13514	0.24869	0.35558	0.27637	0.017995	0.18107	0.2679	0.32002	0.19992	0.063773	0.14133	0.13513	0.12146	0.14827	-0.69583	-1.6979	-1.7146	-1.1375	-1.7896	-1.2771	-1.2667	-2.1104	-0.95833	-1.5833	-1.8542	-1.0875	-2.0604	-1.4875	-0.94792	-1.9146	228.697	-7.629	-98.823	166.342	-121.538	114.697	-28.277	138.307	198.496	47.662	214.254	185.537	-72.774	-113.112	106.162	64.424	0.00047423	0.00094434	0.0002826	151.78	7.7416e-06	3.959e-06	246.94	57.268	5.1169e-06	5.338e-06	107.92	47.135	25.641	11.285	6.6742e-06	21.316	0.0029299	0.0033841	0.00094707	201.57	3.6351e-05	3.6632e-05	286.04	69.58	3.5632e-05	3.7532e-05	135.63	54.152	34.85	13.481	3.6671e-05	24.378	121.623	-84.916	6.995	-110.038	67.740	-42.551	-110.745	-104.647	112.184	175.281	-107.367	-103.173	-101.027	-97.233	-66.488	-99.664	-8191	255	
2269.619	1	1	0	0	0.10787	0.31396	0.31299	0.21925	0.28623	0.19389	0.28419	0.097991	0.25971	0.27561	0.11627	0.06823	0.17801	0.15019	0.23279	0.10378	-0.67708	-1.3021	-1.7	-0.9375	-1.6646	-1.5729	-1.0583	-1.7479	-1.1125	-1.3604	-1.8021	-0.97917	-1.6125	-1.6229	-0.82708	-1.9271	176.880	236.493	87.208	75.883	-38.836	224.855	37.939	32.930	-55.586	87.284	188.655	144.571	-33.964	-68.863	175.326	117.718	0.00041927	0.0010272	5.1415e-05	154.07	4.4494e-06	1.1784e-05	249.09	58.549	1.3833e-05	9.1771e-06	110.58	47.901	25.928	11.353	7.9016e-06	21.652	0.0029197	0.0033909	0.00094264	202.68	3.6219e-05	3.685e-05	287.69	70.157	3.5705e-05	3.7308e-05	137.13	54.494	35.15	13.584	3.5945e-05	24.745	119.406	-100.143	-41.577	-110.109	86.623	2.827	-110.795	-104.092	-52.794	-8.740	-106.546	-103.196	-101.440	-97.209	-88.240	-99.764	-8191	255	
2269.715	1	1	0	0	0.19404	0.09906	0.17201	0.16237	0.11052	0.15109	0.039877	0.041044	0.15682	0.15638	0.10766	0.30817	0.11476	0.21244	0.16999	0.13346	-0.84375	-1.2792	-1.8729	-1.0708	-1.6063	-1.6	-0.92083	-1.825	-1.3542	-1.0792	-1.7062	-1.1938	-1.6604	-1.7146	-1.1208	-1.9979	56.478	62.508	216.607	71.553	130.395	196.240	110.310	-97.102	76.079	53.849	104.910	-104.020	-89.926	74.615	13.487	173.232	0.00041674	0.00031578	0.00010265	154.67	5.938e-06	6.0829e-06	251.35	57.781	8.8368e-06	2.4149e-06	111.49	47.758	25.868	11.353	5.601e-06	21.595	0.00287	0.0033252	0.00094192	201.7	3.5691e-05	3.6007e-05	288.6	70.015	3.481e-05	3.6395e-05	137.55	54.82	34.912	13.522	3.5267e-05	24.737	130.341	161.084	127.490	-109.686	204.680	64.280	-111.192	-103.966	-44.206	-86.253	-107.105	-103.130	-100.895	-96.907	10.768	-99.802	-8191	255	
2269.834	1	1	0	0	0.11268	0.29446	0.15223	0.25689	0.23256	0.34917	0.1876	0.30632	0.22509	0.076065	0.17849	0.1799	0.29013	0.077612	0.14033	0.25122	-1.0229	-1.2208	-1.8583	-1.1729	-1.4312	-1.8417	-1.1625	-1.8958	-1.5063	-0.89375	-1.8896	-1.0417	-1.3083	-1.8521	-1.1	-1.8312	-117.185	230.886	68.387	206.414	-66.224	-7.979	-48.370	123.503	0.847	62.132	-10.861	207.239	-71.181	74.995	-89.407	208.229	0.00053496	0.00063036	0.00014424	154.81	2.9735e-06	5.349e-06	251.77	57.624	5.9932e-06	2.8726e-06	110.39	48.546	25.806	11.536	1.5457e-06	21.542	0.0028171	0.0032621	0.00092235	201.93	3.5408e-05	3.6186e-05	289.7	70.043	3.4668e-05	3.6577e-05	137.61	54.963	35.072	13.619	3.548e-05	24.536	134.280	-97.908	-0.820	-110.524	7.651	160.574	-111.236	-104.341	-1.198	-17.199	-107.189	-103.319	-102.131	-97.436	22.447	-99.286	-8191	255	
2269.930	1	1	0	0	0.13393	0.21483	0.38574	0.028613	0.23411	0.23863	0.19769	0.23168	0.12485	0.19069	0.10883	0.11115	0.0055235	0.16009	0.070487	0.10422	-0.93958	-1.0042	-1.9625	-1.2021	-1.3958	-1.8813	-0.8875	-1.5417	-1.4521	-1.0812	-1.8458	-1.3917	-1.325	-1.9208	-0.88333	-1.7604	-64.546	33.859	110.881	129.259	54.636	214.507	195.205	222.630	95.357	-69.854	222.473	-55.772	237.726	196.427	210.881	224.704	0.00033713	0.00025419	0.00013393	153.42	5.4813e-06	5.5823e-06	246.53	57.516	1.0798e-05	5.1096e-07	108.67	47.32	25.628	11.144	1.8867e-06	21.141	0.0028966	0.0033092	0.00094285	202.74	3.6014e-05	3.7223e-05	286.52	69.769	3.5493e-05	3.6765e-05	136.17	54.145	34.668	13.453	3.6014e-05	24.211	106.194	-32.984	121.223	-110.323	21.176	143.047	-110.748	-104.256	138.742	227.077	-107.178	-103.270	-101.452	-97.384	-75.292	-99.601	-8191	255	
2270.004	1	1	0	0	0.063233	0.19105	0.11554	0.0442	0.17545	0.14671	0.23666	0.16948	0.19751	0.24527	0.025312	0.15973	0.3375	0.090204	0.19315	0.19161	-1.1854	-0.81875	-1.8354	-1.2208	-1.3792	-1.8625	-0.96042	-1.3604	-1.6375	-0.91667	-1.9271	-1.2563	-1.0646	-1.8062	-0.90625	-1.5333	153.014	143.725	35.582	-109.877	-99.521	131.617	16.028	181.910	-14.364	-101.390	18.793	169.575	-44.442	213.656	91.584	200.097	0.00036087	0.00045623	0.00015652	153.54	4.2106e-06	6.6833e-06	246.16	56.81	5.4243e-06	7.3999e-06	109.32	47.487	25.273	11.24	4.6535e-06	21.385	0.0028657	0.0033137	0.00093608	201	3.5632e-05	3.7039e-05	285.96	69.296	3.5455e-05	3.6744e-05	135.48	54.092	34.565	13.429	3.6289e-05	24.403	108.620	41.909	-34.613	-110.638	-17.293	49.244	-110.696	-104.198	-6.875	0.922	-106.700	-103.426	-101.588	-97.058	-5.432	-99.534	-8191	255	
2270.123	1	1	0	0	0.31491	0.44401	0.18993	0.18095	0.20322	0.2669	0.13787	0.20707	0.20789	0.12895	0.1684	0.095206	0.39385	0.14273	0.22795	0.093759	-1.1896	-0.81458	-1.9021	-1.5	-1.1021	-1.8396	-1.1646	-1.4354	-1.9396	-1.0083	-1.7896	-1.6604	-1.0396	-1.9104	-1.4188	-1.2458	128.623	0.941	88.953	24.486	178.613	153.215	35.579	26.043	37.248	-100.670	109.206	182.274	75.168	213.117	-45.319	7.263	0.00031659	0.00064298	0.00022602	153.48	9.6527e-06	1.1716e-05	250.79	57.602	3.8739e-06	4.2244e-06	111.6	47.758	25.942	11.455	4.3872e-06	21.849	0.002912	0.0032864	0.0009391	201.06	3.582e-05	3.7324e-05	287.8	69.831	3.5262e-05	3.6512e-05	137.31	54.717	34.929	13.65	3.5479e-05	24.728	91.416	-13.689	-96.786	-109.741	217.038	27.783	-110.822	-103.982	-84.463	-42.079	-107.008	-103.665	-101.234	-97.536	227.151	-100.180	-8191	255	
2270.219	1	1	0	0	0.099861	0.21603	0.14773	0.20486	0.25367	0.19583	0.15241	0.23729	0.16669	0.17716	0.16018	0.09419	0.050018	0.14597	0.29297	0.22231	-1.5292	-1.1	-1.6187	-1.5542	-1.0771	-1.8396	-1.1458	-1.3563	-1.8937	-1.0063	-1.6229	-1.7333	-0.94375	-1.8375	-1.4562	-1.4625	-87.233	9.113	88.704	219.165	-102.056	-74.945	90.721	-81.493	187.339	141.678	121.971	-104.593	8.690	37.686	175.787	-47.564	0.00027766	0.00014521	0.00021317	154.68	4.8407e-06	3.515e-07	252.56	57.504	1.0035e-05	6.8605e-06	110.86	48.033	26.117	11.414	8.8713e-06	21.922	0.0028748	0.0032426	0.00092182	202.76	3.4869e-05	3.6532e-05	289.53	69.741	3.5088e-05	3.577e-05	138.17	55.124	34.906	13.603	3.5269e-05	24.726	124.851	99.989	-105.015	-109.719	60.590	34.437	-111.242	-104.632	-44.692	193.528	-107.454	-103.245	-101.873	-97.335	-86.128	-100.316	-8191	255	
2270.315	1	1	0	0	0.25107	0.19124	0.16774	0.13299	0.14488	0.26197	0.20341	0.2391	0.2817	0.10992	0.18573	0.38885	0.16446	0.36004	0.17548	0.10913	-1.5063	-1.1792	-1.5542	-1.7104	-0.92708	-1.7563	-1.3979	-1.2188	-1.8771	-1.3354	-1.4542	-1.8958	-1.1396	-1.8292	-1.4	-1.1812	-55.216	-65.712	115.096	224.976	-55.478	18.997	-116.075	208.139	120.925	77.614	121.521	-74.595	-36.254	206.683	13.537	-74.157	0.00052291	0.00057988	2.1152e-05	154.21	4.9738e-06	8.9921e-06	250.11	57.853	3.5357e-06	5.4184e-06	111.12	48.034	25.558	11.344	9.4831e-06	21.402	0.0028604	0.0032678	0.00091268	201.99	3.4599e-05	3.6532e-05	289.6	69.764	3.5146e-05	3.613e-05	137.28	54.714	34.715	13.526	3.5433e-05	24.426	114.028	-5.879	167.710	-110.503	80.114	191.187	-110.961	-104.007	-88.219	-110.360	-107.257	-103.500	-101.100	-97.137	-112.899	-99.964	-8191	255	
2270.436	1	1	0	0	0.081556	0.25235	0.29909	0.063029	0.071841	0.22182	0.21281	0.090518	0.11135	0.1052	0.011068	0.082129	0.27814	0.21602	0.042435	0.37619	-1.4562	-1.2875	-1.4521	-1.9729	-1.0312	-1.8854	-1.4646	-1.0208	-2.0271	-1.2104	-1.6313	-1.9917	-1.1479	-1.7792	-1.6917	-1.2396	-20.705	78.599	171.466	168.922	-98.602	33.757	232.867	226.109	225.413	-104.455	-36.143	98.354	69.729	211.670	138.880	133.485	0.00058766	0.00038596	0.00014906	153.63	8.5525e-06	1.0472e-05	250.53	56.75	8.4572e-06	8.392e-06	109.42	47.558	25.492	11.436	8.8554e-06	21.176	0.0029199	0.0032834	0.00092249	202.93	3.554e-05	3.709e-05	288.1	69.129	3.4906e-05	3.6262e-05	135.35	54.244	34.49	13.465	3.5251e-05	24.201	108.687	226.739	-10.793	-110.205	-22.974	115.162	-110.593	-104.331	-78.901	10.080	-106.526	-103.434	-103.185	-97.228	-73.529	-99.859	-8191	255	
2270.532	1	1	0	0	0.16796	0.20281	0.036558	0.23186	0.18681	0.13899	0.20751	0.23757	0.20559	0.19594	0.21337	0.19047	0.10932	0.17438	0.32901	0.1891	-1.5167	-1.2167	-1.2854	-2.0875	-0.95417	-1.6833	-1.6104	-1.0208	-1.9146	-1.3104	-1.3854	-1.9708	-1.3125	-1.7812	-1.675	-1.0875	158.681	-91.679	155.723	-113.076	41.417	-101.535	138.932	183.801	198.499	192.855	-111.382	28.857	-50.984	119.253	106.664	48.465	0.0003433	0.00075545	0.00025801	154.91	5.6941e-06	8.7385e-06	246.35	58.079	1.5794e-05	1.3192e-05	109.19	47.727	25.915	11.377	1.1749e-05	21.53	0.0028687	0.003251	0.0009088	201.11	3.4484e-05	3.6065e-05	286.15	69.463	3.4735e-05	3.5496e-05	135.35	54.444	34.521	13.455	3.4955e-05	24.344	109.275	-93.391	-26.467	-110.760	174.710	0.662	-110.566	-103.979	72.286	126.158	-106.928	-102.964	-101.113	-97.258	3.937	-99.684	-8191	255	
2270.604	1	1	0	0	0.1576	0.23154	0.072065	0.15941	0.08133	0.12863	0.11302	0.2624	0.19256	0.10113	0.067126	0.10098	0.1468	0.026879	0.16702	0.072646	-1.4375	-1.5167	-1.3021	-1.7917	-1.025	-1.4813	-1.7354	-0.95417	-1.7417	-1.5708	-1.3042	-2.0479	-1.3208	-1.5812	-1.9438	-1.0208	-55.905	-100.286	2.413	-49.451	231.690	-119.481	204.888	-81.822	-82.740	126.410	50.746	230.745	215.278	189.348	140.597	139.884	0.00050918	0.00047498	0.00018405	156.37	6.6793e-06	1.1123e-05	249.62	57.969	3.7605e-06	2.0765e-06	109.92	48.386	25.959	11.357	3.7184e-06	21.502	0.0027866	0.0031456	0.00088299	201.96	3.4162e-05	3.5094e-05	288.06	69.761	3.4145e-05	3.5459e-05	136.45	55.038	34.64	13.586	3.4512e-05	24.568	124.882	229.859	-85.371	-109.578	57.661	-83.157	-111.298	-103.773	8.125	51.821	-106.913	-103.148	-101.635	-97.061	-113.541	-100.230	-8191	255	
2270.724	1	1	0	0	0.054373	0.14034	0.058464	0.088982	0.17911	0.19623	0.049925	0.16202	0.053305	0.14231	0.21939	0.13101	0.38541	0.23723	0.13518	0.42902	-1.4729	-1.6896	-1.0792	-2.0021	-1.225	-1.4937	-1.8542	-1.0667	-1.7375	-1.5354	-1.0458	-1.9438	-1.1	-1.2104	-1.8708	-1.0271	-80.357	159.462	92.146	38.699	6.546	95.212	138.583	91.947	196.215	-86.367	135.067	174.407	13.017	-84.950	47.290	235.862	0.00033385	0.00051169	0.00018928	155.89	3.2119e-06	8.2408e-06	250.66	58.685	8.823e-06	4.6476e-06	110.61	48.231	26.13	11.363	7.4148e-06	21.459	0.0027863	0.0031809	0.00088216	202.64	3.376e-05	3.5365e-05	289.66	69.878	3.3651e-05	3.5057e-05	136.89	54.824	34.519	13.495	3.4526e-05	24.492	123.565	127.827	-2.360	-109.997	-90.543	64.143	-111.476	-104.768	19.113	150.784	-106.982	-103.474	-101.895	-97.221	61.425	-99.522	-8191	255	
2270.819	1	1	0	0	0.12742	0.095307	0.071462	0.073472	0.28836	0.069159	0.038638	0.13276	0.2215	0.14757	0.088671	0.11099	0.29951	0.13938	0.064742	0.22012	-1.2437	-1.4917	-1.0042	-1.7917	-1.3167	-1.1792	-1.8479	-0.92083	-1.7125	-1.85	-1.1833	-1.7146	-1.5104	-1.1688	-1.775	-1.1604	52.393	83.141	189.360	86.196	119.754	-45.600	-75.359	-14.822	123.880	120.652	204.230	214.801	196.202	-68.930	-18.373	199.754	0.00032654	0.00065287	0.00025728	157.63	2.2828e-06	7.1009e-06	252.18	58.854	3.9243e-06	3.7853e-06	110.09	47.884	25.99	11.37	8.4863e-06	21.225	0.0027479	0.0031544	0.0008797	201.55	3.3216e-05	3.476e-05	290.17	69.866	3.3231e-05	3.5022e-05	135.83	54.623	34.592	13.425	3.4717e-05	24.202	84.546	-116.636	-99.700	-110.382	-112.342	58.140	-111.457	-104.253	147.610	-33.307	-107.877	-103.043	-101.394	-97.297	178.272	-100.298	-8191	255	
2270.915	1	1	0	0	0.12116	0.13737	0.19235	0.069097	0.28459	0.24949	0.11632	0.10671	0.0764	0.10914	0.11491	0.35658	0.1008	0.20416	0.065819	0.11302	-1.15	-1.7313	-1.0167	-1.775	-1.4708	-1.1063	-2.1437	-1.1208	-1.4646	-1.7792	-1.0063	-2.0229	-1.6063	-1.2042	-1.9167	-1.225	30.505	3.862	-57.742	-4.332	85.470	109.172	-119.824	131.243	204.965	168.612	139.623	79.309	-0.195	108.323	-10.734	56.988	0.00029809	0.00073008	0.00026447	157.44	7.8343e-06	1.118e-05	247.7	56.411	1.2971e-05	3.0269e-06	108.44	47.405	25.31	11.096	6.38e-06	20.9	0.0027611	0.0031354	0.00087716	201.27	3.3888e-05	3.5002e-05	286.05	68.933	3.3455e-05	3.5283e-05	133.49	53.84	34.018	13.168	3.442e-05	23.798	79.822	36.311	-59.018	-110.617	6.480	164.757	-110.864	-104.782	105.565	51.357	-107.422	-103.267	-101.637	-97.179	87.717	-99.726	-8191	255	
2271.011	1	1	0	0	0.16592	0.28438	0.19036	0.2164	0.11534	0.11535	0.10854	0.12384	0.11055	0.17254	0.080601	0.25785	0.16269	0.061118	0.14586	0.14796	-1.1292	-1.9208	-1.1854	-1.6042	-1.6896	-1.2146	-1.9854	-1.3729	-1.2792	-1.9312	-1.25	-1.7667	-1.8021	-1.0292	-1.6875	-1.6063	152.030	-113.036	205.619	-22.788	78.795	124.475	-49.147	165.501	17.767	-56.119	187.446	-84.347	151.547	21.881	-112.729	33.417	0.00026257	0.00010648	2.8227e-05	154.98	1.7526e-06	7.1644e-06	246.16	56.942	6.8794e-06	2.3427e-06	109.81	46.834	25.675	11.198	5.9126e-06	20.849	0.0027514	0.0031709	0.00086617	199.7	3.3307e-05	3.4299e-05	285.04	68.538	3.3197e-05	3.5014e-05	133.37	53.513	34.135	13.214	3.4152e-05	23.853	53.762	-10.924	-115.079	-109.906	-19.046	74.480	-111.167	-104.887	19.503	90.846	-106.355	-103.121	-102.165	-97.661	-47.864	-100.251	-8191	255	
2271.131	1	1	0	0	0.21208	0.19833	0.16148	0.26993	0.15645	0.13894	0.15462	0.27917	0.17024	0.32183	0.16574	0.1706	0.11925	0.22299	0.10645	0.34455	-0.85417	-1.7771	-0.80833	-1.5833	-1.9458	-0.97083	-1.7938	-1.4188	-1.1292	-1.8083	-1.1354	-1.3937	-1.7479	-0.91458	-1.7333	-1.6917	-20.145	4.921	97.076	204.576	68.775	-42.800	225.302	11.098	57.224	-16.722	146.974	135.871	232.051	-114.134	81.792	195.287	0.0004046	0.00043554	0.00012467	155.33	4.6899e-06	3.5414e-06	249.06	57.861	3.8857e-06	2.4656e-06	109.17	47.543	25.798	11.226	2.8604e-06	21.461	0.0027437	0.0031767	0.00085823	199.69	3.3124e-05	3.3906e-05	285.2	68.852	3.3018e-05	3.4707e-05	134.06	54.156	34.2	13.282	3.3775e-05	24.192	102.383	-24.556	184.214	-109.869	77.188	31.220	-111.134	-104.739	133.643	-88.588	-107.253	-103.362	-102.524	-97.116	177.106	-100.367	-8191	255	
2271.228	1	1	0	0	0.027816	0.032115	0.13392	0.093955	0.23529	0.24214	0.22677	0.22157	0.16184	0.12734	0.0070531	0.28665	0.20856	0.24988	0.11205	0.15118	-0.7125	-1.8396	-1.2125	-1.5625	-1.8208	-0.93542	-1.8083	-1.5542	-1.0271	-1.9062	-1.2563	-1.3708	-1.9167	-0.91875	-1.6042	-1.7979	-55.803	100.821	169.408	159.061	176.939	94.450	111.476	207.942	-118.498	84.532	173.731	113.236	175.263	122.523	-58.886	203.695	0.00037243	0.0004741	5.2539e-05	152.22	1.6737e-06	9.1273e-06	245.88	58.099	1.3734e-05	4.329e-06	109.26	47.837	25.635	11.164	7.69e-06	21.282	0.0026709	0.0031076	0.00085754	198.94	3.3377e-05	3.3818e-05	285.13	68.694	3.2475e-05	3.4282e-05	135.12	53.96	33.919	13.193	3.2847e-05	24.044	142.559	123.500	167.956	-110.713	152.670	45.761	-111.029	-104.661	50.427	69.779	-106.845	-103.107	-101.385	-97.531	174.745	-100.079	-8191	255	
2271.299	1	1	0	0	0.13742	0.13304	0.027702	0.13438	0.032626	0.23331	0.15379	0.15087	0.054464	0.10999	0.14689	0.26067	0.11357	0.14483	0.14011	0.15739	-0.5	-1.825	-1.2792	-1.2667	-1.9396	-0.82083	-1.6875	-1.6708	-1.0438	-1.7771	-1.5938	-1.1542	-1.875	-1.2042	-1.3396	-1.7479	135.721	151.167	-119.099	-88.687	-36.577	179.117	20.425	178.672	159.329	219.379	121.895	-55.931	164.221	-8.679	114.449	38.939	0.00044336	0.00052048	0.00024827	155.12	1.2138e-05	2.8952e-06	249.91	57.938	5.84e-06	1.0111e-05	109.9	47.37	26.155	11.125	9.0618e-06	21.117	0.0026359	0.0030838	0.00085239	197.59	3.2665e-05	3.2934e-05	285.21	68.694	3.2569e-05	3.3816e-05	133.69	53.78	34.17	13.168	3.3621e-05	23.874	81.275	-20.122	8.942	-110.336	76.154	-22.500	-110.801	-104.796	-3.906	-37.576	-106.997	-103.486	-101.861	-97.389	-73.718	-99.518	-8191	255	
2271.395	1	1	0	0	0.22807	0.12512	0.25092	0.064511	0.23607	0.3652	0.15631	0.29362	0.16528	0.15558	0.29241	0.19257	0.14892	0.090749	0.023738	0.14702	-0.36458	-1.7417	-1.4417	-0.93958	-1.7917	-0.85208	-1.4875	-1.8667	-0.96875	-1.8958	-1.5208	-1.0021	-1.9104	-1.225	-1.5333	-1.7812	45.027	-93.544	50.589	68.936	180.287	232.803	-91.420	-36.133	51.673	10.148	-114.811	-104.505	201.843	-115.769	12.103	4.244	0.00051234	0.00076286	0.00029584	155.55	3.1086e-06	3.192e-06	248.16	57.173	9.1085e-06	5.9201e-06	108.74	47.259	25.358	11.163	5.9378e-06	20.921	0.002675	0.0031089	0.00085102	199.11	3.3262e-05	3.3751e-05	283.7	68.659	3.2417e-05	3.4311e-05	133.37	53.643	34.022	13.16	3.3378e-05	23.77	124.299	-0.062	185.261	-109.624	11.669	-8.622	-110.656	-104.123	63.407	153.631	-107.744	-103.376	-101.953	-97.429	75.969	-100.187	-8191	255	
2271.516	1	1	0	0	0.071916	0.12965	0.14011	0.1159	0.31274	0.060454	0.21405	0.1009	0.11628	0.17957	0.072732	0.17898	0.022978	0.22424	0.29102	0.10681	-0.51875	-1.7188	-1.6146	-1.0042	-1.7938	-1.3792	-1.3021	-1.8646	-0.95833	-1.7771	-1.7333	-1.0312	-1.8813	-1.5354	-1.3625	-1.9583	147.219	75.556	-49.085	135.953	13.704	210.128	194.531	109.776	96.022	-45.738	-102.059	118.308	21.967	188.504	-70.977	28.951	0.00055599	0.00027962	0.00016456	157.56	2.9083e-06	6.783e-06	248.72	57.845	1.2318e-05	6.1611e-06	109.52	47.412	25.926	11.293	9.0537e-06	21.307	0.0026327	0.0030454	0.00084326	199.26	3.2827e-05	3.3408e-05	284.51	68.874	3.1806e-05	3.3488e-05	134.1	53.746	34.277	13.299	3.2739e-05	24.007	132.286	227.381	204.189	-109.586	149.229	181.318	-110.618	-104.694	183.873	-12.685	-106.882	-103.111	-102.240	-97.411	-20.400	-100.160	-8191	255	
2271.612	1	1	0	0	0.26832	0.21068	0.13775	0.035569	0.14546	0.25199	0.037716	0.22952	0.1816	0.20515	0.06207	0.31468	0.086807	0.11196	0.18826	0.21721	-0.86458	-1.6625	-1.8687	-1.0083	-1.7208	-1.4917	-1.25	-2.0583	-1.2708	-1.7375	-1.9333	-1.2542	-1.9896	-1.3917	-1.1104	-1.9854	17.977	-64.057	199.959	116.406	92.740	121.664	130.478	-111.536	-49.658	161.935	152.778	235.045	89.829	142.002	-120.386	200.380	0.00025495	0.00168	0.00020891	153.87	6.5208e-06	7.2292e-06	253.99	58.464	7.1295e-06	9.201e-06	111.4	48.326	26.207	11.351	7.0182e-06	21.551	0.0025932	0.0030299	0.00084089	199.13	3.2636e-05	3.3392e-05	288.38	69.552	3.1574e-05	3.3261e-05	135.38	54.38	34.51	13.365	3.2388e-05	24.306	129.649	16.704	-26.821	-109.684	104.043	-40.462	-110.857	-104.214	32.360	52.623	-107.514	-103.369	-101.089	-98.015	-23.692	-100.499	-8191	255	
2271.707	1	1	0	0	0.21261	0.12035	0.13043	0.18003	0.12054	0.075398	0.094211	0.16105	0.29998	0.25403	0.24521	0.11999	0.19142	0.24663	0.31335	0.2439	-0.89583	-1.5292	-1.7854	-1.2292	-1.8292	-1.6396	-1.1437	-2.0312	-1.3521	-1.5812	-2.05	-1.4062	-1.6229	-1.6583	-1.2458	-2.1396	235.847	-24.186	236.861	100.304	6.184	107.681	-59.589	168.935	212.169	64.956	-60.823	106.188	86.985	-20.622	-50.751	217.006	0.00034371	0.00018101	0.00031948	158.56	3.0608e-06	4.2277e-06	256.41	58.652	6.3009e-06	2.6032e-06	112.07	48.354	26.115	11.344	7.7277e-06	21.688	0.0025973	0.0029846	0.00082814	200.22	3.2108e-05	3.2838e-05	290.7	69.752	3.1213e-05	3.2841e-05	136.19	54.558	34.215	13.308	3.2022e-05	24.337	115.078	237.666	-41.713	-110.650	-6.551	-18.720	-110.607	-104.065	61.669	173.321	-106.746	-103.208	-101.527	-97.157	-33.379	-99.750	-8191	255	
2271.805	1	1	0	0	0.12951	0.050177	0.18645	0.21046	0.08586	0.2898	0.3176	0.14733	0.20216	0.087103	0.1576	0.16756	0.043158	0.093168	0.1998	0.041554	-0.95625	-1.4708	-1.9625	-1.1917	-1.8479	-1.8792	-1.1938	-1.9396	-1.6167	-1.4229	-1.9688	-1.2979	-1.7667	-1.7542	-1.2833	-2.0021	186.385	-92.208	113.698	223.462	115.889	-105.762	94.063	-12.552	232.051	2.944	96.435	185.459	-54.876	170.856	166.261	-31.654	0.00032779	0.00049666	0.00026918	161.26	4.6704e-06	1.1457e-05	253.03	58.669	7.5384e-06	8.34e-06	109.89	47.6	26.074	11.354	1.2343e-05	21.196	0.0025743	0.0029717	0.00083384	200.66	3.1916e-05	3.2976e-05	288.58	69.69	3.1805e-05	3.3441e-05	134.74	53.985	34.274	13.288	3.2422e-05	23.912	105.450	-24.850	-36.404	-109.699	99.154	139.305	-110.693	-104.247	213.493	10.203	-107.148	-102.964	-101.654	-97.461	86.430	-99.881	-8191	255	
2271.899	1	1	0	0	0.25427	0.19802	0.046614	0.124	0.063232	0.10342	0.10131	0.20622	0.26546	0.29618	0.26964	0.19554	0.22222	0.1444	0.080806	0.06075	-0.94792	-1.075	-1.9021	-1.1125	-1.5083	-1.7229	-0.96875	-1.8771	-1.4458	-1.2792	-2.1604	-1.4292	-1.5604	-1.8479	-0.84583	-1.8833	146.974	87.519	7.026	74.411	-101.714	49.480	187.252	140.132	190.445	132.767	-17.867	126.950	90.849	176.977	19.909	97.976	0.00031374	0.00014752	0.00025801	159.02	3.9904e-06	4.0864e-06	249.87	58.491	1.5741e-05	7.9396e-06	108.28	47.135	25.448	11.156	3.0255e-06	21.008	0.0026451	0.0030335	0.00085121	200.14	3.2652e-05	3.4021e-05	284.87	69.299	3.2619e-05	3.4022e-05	133.35	53.304	33.749	13.138	3.2957e-05	23.69	156.961	44.218	-80.183	-110.355	83.329	86.407	-110.966	-104.691	101.717	112.434	-106.595	-103.081	-100.938	-97.310	-87.391	-99.851	-8191	255	
2271.995	1	1	0	0	0.14104	0.11791	0.21307	0.28427	0.15239	0.12154	0.16843	0.14921	0.22352	0.088133	0.092372	0.095035	0.20238	0.267	0.11418	0.22367	-1.1812	-1.0917	-2.0208	-1.2354	-1.4958	-1.8563	-1.1521	-1.8333	-1.6146	-1.0292	-2.0979	-1.4021	-1.2333	-1.8271	-1.1313	-1.85	176.325	-100.860	75.714	-66.579	44.171	124.719	14.318	-121.379	3.734	-87.764	64.915	42.587	184.688	197.230	-90.247	-46.498	0.00028461	0.00050157	0.00011742	156.34	4.8377e-06	1.1442e-06	248.03	57.861	5.2348e-06	4.4106e-06	108.76	46.557	25.417	11.235	5.3201e-06	21.002	0.0026177	0.0030015	0.00085029	198.66	3.2371e-05	3.3805e-05	284.15	68.977	3.1899e-05	3.3312e-05	133.22	53.256	33.785	13.249	3.2258e-05	23.811	146.405	-16.157	22.089	-109.327	101.117	9.555	-110.792	-104.348	27.307	60.882	-106.702	-103.729	-101.508	-97.196	-91.121	-99.689	-8191	255	
2272.116	1	1	0	0	0.27779	0.14021	0.17296	0.19157	0.075296	0.21223	0.046716	0.10103	0.20585	0.21734	0.1864	0.15927	0.17672	0.20527	0.15814	0.18392	-1.2396	-0.98958	-1.8833	-1.5354	-1.3333	-2.0521	-1.0938	-1.5458	-1.8708	-1.3333	-1.7958	-1.4937	-1.2812	-1.8896	-1.1021	-1.5792	88.100	114.772	89.961	-62.967	-24.369	208.303	70.307	13.615	22.379	-117.444	90.372	8.055	138.649	184.858	-0.082	199.290	0.00030121	0.00041484	0.00011982	157.15	7.8427e-06	1.3058e-05	250.98	58.09	1.0271e-05	1.6371e-06	110.49	47.461	25.763	11.329	6.6736e-06	21.275	0.0026264	0.0030062	0.0008491	199.89	3.2792e-05	3.3976e-05	285.35	69.132	3.2203e-05	3.2903e-05	134.5	53.713	34.061	13.278	3.1671e-05	23.992	133.825	47.319	-16.501	-109.745	-100.756	11.305	-111.504	-103.956	39.411	-114.189	-106.295	-102.876	-101.622	-97.227	-83.933	-100.103	-8191	255	
2272.212	1	1	0	0	0.21641	0.12952	0.19802	0.12333	0.15418	0.122	0.18031	0.17988	0.081537	0.30101	0.090685	0.27707	0.092107	0.088577	0.2328	0.1837	-1.4542	-0.98542	-1.7125	-1.5854	-1.2333	-1.8708	-1.2542	-1.3312	-1.8396	-1.0125	-1.7667	-1.7021	-1.0292	-1.8771	-1.1292	-1.4042	221.546	147.776	73.632	-78.571	199.637	44.500	219.155	135.105	147.825	139.042	187.806	213.677	-10.670	13.009	79.412	199.316	0.00016474	0.00048581	7.7178e-05	156.81	1.0807e-05	5.6676e-06	252.65	58.495	1.2575e-05	1.6564e-06	111.08	47.509	25.735	11.28	9.4251e-06	21.261	0.0025585	0.0029583	0.00082569	199.38	3.1704e-05	3.2844e-05	287.33	69.202	3.1327e-05	3.2168e-05	134.78	53.784	33.741	13.182	3.1685e-05	23.958	110.183	-32.177	66.603	-110.173	-65.978	113.220	-110.357	-104.305	-24.792	-61.042	-106.282	-103.262	-101.218	-97.103	110.311	-99.799	-8191	255	
2272.308	1	1	0	0	0.29415	0.1222	0.18179	0.11515	0.27388	0.22205	0.31563	0.11104	0.15974	0.073915	0.29775	0.15519	0.11078	0.21308	0.047198	0.24943	-1.5771	-1.0042	-1.5583	-1.6208	-1.1396	-1.9188	-1.2938	-1.4062	-2.0958	-1.2583	-1.6917	-1.7729	-1.2083	-1.8771	-1.4104	-1.3104	231.634	-86.927	237.359	151.009	-6.720	81.768	84.875	33.547	171.115	61.005	-30.854	-80.866	-0.281	155.828	39.442	-14.602	0.00034112	0.00067263	0.00022252	156.36	2.7156e-06	1.2508e-05	249.3	58.074	5.1004e-06	5.9848e-06	109.71	46.783	25.69	11.222	1.3243e-06	20.795	0.0025568	0.0029426	0.00082813	199.13	3.164e-05	3.2196e-05	285.63	68.834	3.1657e-05	3.263e-05	133.82	53.462	33.705	13.153	3.2249e-05	23.512	136.825	96.046	126.670	-109.963	132.198	33.236	-111.250	-103.763	174.593	-100.703	-107.119	-103.067	-101.965	-97.376	103.034	-100.031	-8191	255	
2272.404	1	1	0	0	0.20181	0.27072	0.083235	0.20687	0.11421	0.34301	0.065329	0.25755	0.14121	0.35895	0.066803	0.047793	0.19499	0.12508	0.30303	0.31437	-1.5917	-1.0729	-1.3604	-1.7812	-0.69583	-1.9271	-1.3188	-1.3542	-1.9	-1.3833	-1.4875	-1.7563	-1.125	-1.8792	-1.6625	-1.0917	186.892	-17.331	40.095	32.051	-83.868	24.282	41.721	-43.690	35.595	120.719	-28.450	-63.693	-4.774	-94.115	209.996	28.627	0.00052712	0.00010579	0.0001087	154.34	4.2647e-06	8.1394e-06	246.38	57.43	5.607e-06	3.4194e-06	108.43	46.55	25.296	11.037	6.7884e-06	20.69	0.0026195	0.0029805	0.00085216	198.58	3.2182e-05	3.3063e-05	282.46	68.262	3.1755e-05	3.2563e-05	132.68	52.846	33.338	13.013	3.2046e-05	23.373	126.444	-102.669	198.333	-110.540	153.205	40.975	-111.234	-104.115	165.301	72.832	-106.341	-103.357	-101.349	-96.894	130.712	-99.268	-8191	255	
2272.525	1	1	0	0	0.27269	0.14411	0.24844	0.28976	0.054646	0.29945	0.33587	0.040153	0.061205	0.16512	0.13975	0.12292	0.2177	0.020184	0.069566	0.090462	-1.4667	-1.2542	-1.3854	-1.8438	-1.0562	-1.8083	-1.8792	-1.0896	-2.0062	-1.3396	-1.5187	-2.0042	-1.2687	-1.9062	-1.7896	-1.0333	232.021	233.369	-31.650	44.306	-15.387	13.028	-62.082	-120.045	217.224	11.496	191.760	62.835	78.524	118.811	7.249	193.426	0.00042309	0.000687	5.3443e-05	153.13	2.5747e-06	6.1181e-06	245.57	57.681	5.1622e-06	5.403e-06	108.83	47.204	25.42	11.207	4.9803e-06	21.042	0.0025792	0.0029396	0.00081904	197.55	3.1074e-05	3.2808e-05	282.62	68.27	3.1202e-05	3.2133e-05	132.64	53.086	33.251	13.111	3.1411e-05	23.497	109.893	-62.285	95.868	-110.823	101.718	70.733	-111.125	-104.911	-66.225	98.717	-106.933	-103.656	-102.457	-97.226	82.659	-100.058	-8191	255	
2272.596	1	1	0	0	0.051705	0.2038	0.19204	0.28597	0.030603	0.27763	0.1604	0.30053	0.18338	0.12316	0.10913	0.33824	0.094842	0.12184	0.11062	0.13779	-1.6146	-1.3125	-1.1979	-2.0271	-1.1	-1.7375	-1.8312	-1.1146	-1.9937	-1.3979	-1.3271	-2.0333	-1.1646	-1.6	-1.7771	-1.0375	88.528	178.691	179.220	92.793	164.625	8.866	-41.569	-99.621	-39.821	16.009	202.488	24.182	-47.690	223.381	-95.233	211.126	0.00049815	0.00060781	3.3914e-05	156.88	7.2365e-06	8.133e-06	247.94	58.259	1.2183e-05	2.1761e-06	110.39	47.71	25.399	11.165	1.6076e-06	21.198	0.002548	0.0028592	0.0008089	198.01	3.0775e-05	3.2299e-05	283.25	68.577	3.096e-05	3.2129e-05	133.3	53.386	33.51	13.162	3.1734e-05	23.621	105.392	195.260	37.020	-109.988	-77.857	199.351	-111.340	-104.167	-8.656	128.859	-106.910	-103.500	-102.110	-97.071	-28.512	-100.217	-8191	255	
2272.693	1	1	0	0	0.088898	0.25201	0.18172	0.04057	0.16856	0.092326	0.23469	0.049531	0.14157	0.20678	0.23631	0.32916	0.14309	0.21146	0.09881	0.049057	-1.3333	-1.3208	-1.3417	-1.9125	-1.1917	-1.525	-1.7792	-1.0063	-1.7167	-1.5042	-1.1333	-1.9792	-1.2021	-1.2667	-2.0229	-1.0354	23.178	-32.741	109.516	159.703	169.013	-35.404	-36.190	231.950	112.208	46.793	217.962	231.613	-25.279	-24.841	-103.072	-40.459	0.0003442	7.2319e-05	0.00021734	155.22	7.8386e-06	1.761e-05	250.79	57.742	5.7957e-06	7.9964e-06	109.9	47.799	25.72	11.062	8.6846e-06	21.266	0.00255	0.0028872	0.00081038	197.99	3.1108e-05	3.2581e-05	284.89	68.549	3.1219e-05	3.2199e-05	133.33	53.571	33.515	13.096	3.1312e-05	23.675	116.765	-77.673	57.107	-110.200	3.989	84.352	-111.026	-104.631	-71.933	-2.517	-106.904	-103.654	-101.024	-97.222	188.234	-99.850	-8191	255	
2272.811	1	1	0	0	0.086991	0.2098	0.26699	0.17204	0.18979	0.24467	0.27972	0.21195	0.19255	0.11783	0.1984	0.069025	0.16923	0.16756	0.086447	0.3125	-1.4604	-1.525	-1.2333	-2.2021	-1.2021	-1.3937	-2.0604	-0.96042	-1.6729	-1.7417	-1.0292	-2.1146	-1.4896	-1.2875	-2.0542	-1.1583	182.852	-71.180	14.800	93.907	63.285	53.842	199.101	-101.380	191.145	-30.298	-119.584	-67.761	137.020	232.573	214.516	136.535	0.0005945	0.00076512	0.00017015	157.38	3.2968e-06	1.0408e-05	248.51	58.557	1.1147e-05	7.7124e-06	109.78	47	25.245	11.239	8.0412e-06	20.684	0.0025472	0.0028871	0.00080891	198.5	3.1223e-05	3.2693e-05	286.02	68.864	3.1698e-05	3.3016e-05	133.39	53.248	33.651	13.14	3.2349e-05	23.491	112.075	144.767	-96.541	-110.608	99.213	21.178	-110.795	-104.580	-95.039	-116.616	-107.383	-103.755	-102.031	-97.041	96.397	-99.868	-8191	255	
2272.908	1	1	0	0	0.25815	0.08595	0.3312	0.047163	0.1625	0.27799	0.22723	0.05425	0.13419	0.041051	0.21534	0.15155	0.18591	0.21821	0.21676	0.12566	-1.2583	-1.6437	-1.0042	-2.0417	-1.4708	-1.1708	-2.0208	-1.1292	-1.6792	-1.8979	-0.85208	-1.8646	-1.4458	-1.1229	-1.9312	-1.2	124.295	161.353	87.240	168.482	84.907	172.001	-121.755	-92.025	-122.458	-98.659	82.449	108.468	67.462	215.747	13.631	-48.289	0.00026519	0.00059226	0.0002021	157.5	1.3588e-06	1.0757e-05	248.43	58.105	2.0876e-05	7.5259e-07	106.98	46.282	25.535	11.099	4.5726e-06	20.427	0.0026396	0.002976	0.00082109	198.56	3.1796e-05	3.2852e-05	283.65	68.349	3.175e-05	3.2911e-05	131.15	52.721	33.473	13	3.2167e-05	23.247	105.363	-43.018	-53.156	-109.745	21.322	-103.153	-111.002	-104.615	37.275	-86.565	-106.465	-103.567	-101.648	-97.315	-21.294	-99.897	-8191	255	
2273.004	1	1	0	0	0.093266	0.16541	0.16323	0.24981	0.16394	0.2043	0.040587	0.096839	0.15639	0.21732	0.18704	0.022547	0.39486	0.10511	0.18006	0.077028	-1.0542	-1.8312	-1.0958	-1.7708	-1.5479	-1.2313	-1.9625	-1.0708	-1.4208	-1.8604	-1.0646	-1.6271	-1.3917	-1.0854	-2.075	-1.2771	-3.267	-2.378	-2.485	137.617	177.552	91.782	202.382	161.899	-64.293	104.121	-72.359	-63.723	3.825	23.795	24.181	156.206	0.00063783	0.00091352	9.8051e-05	155.03	7.2336e-06	6.3552e-06	244.43	57.464	6.6842e-06	4.3317e-06	107.82	46.666	25.239	11.177	2.761e-06	20.776	0.002594	0.0029845	0.00081284	197.33	3.1629e-05	3.2424e-05	281.87	68.321	3.1415e-05	3.2597e-05	131.91	53.076	33.486	13.087	3.2074e-05	23.536	142.253	-89.199	235.147	-109.611	38.735	-115.815	-111.198	-105.035	-79.760	-41.468	-106.657	-103.542	-102.100	-97.840	-97.210	-100.361	-8191	255	
2273.100	1	1	0	0	0.11147	0.21523	0.12205	0.13434	0.24758	0.12428	0.3235	0.037508	0.10924	0.12168	0.053591	0.26572	0.085163	0.30154	0.22108	0.026549	-1.0771	-1.9083	-1.3	-1.6917	-1.4833	-1.1729	-1.8687	-1.2812	-1.1063	-1.9167	-1.0083	-1.7042	-1.7563	-1.0292	-1.9854	-1.3125	91.456	192.587	-118.443	-120.023	-81.521	-8.926	67.789	-42.360	64.311	224.623	13.785	-16.175	199.616	189.340	215.116	172.773	0.00046848	0.00021851	0.00026402	156.31	5.5351e-06	4.0037e-06	250.08	57.779	8.0595e-06	6.0628e-06	108.73	47.263	25.725	11.171	1.845e-06	21.024	0.0025877	0.00293	0.00081367	198.7	3.1546e-05	3.2208e-05	283.88	68.792	3.1118e-05	3.2837e-05	132.65	53.259	33.791	13.081	3.2139e-05	23.605	92.581	49.692	-26.910	-110.100	149.809	-77.434	-111.036	-104.486	-25.410	-45.811	-107.230	-102.740	-101.770	-97.795	-119.014	-99.769	-8191	255	
2273.196	1	1	0	0	0.28212	0.19463	0.092881	0.26371	0.13946	0.19586	0.29559	0.10735	0.18718	0.19083	0.22125	0.19653	0.1709	0.25842	0.19108	0.24809	-0.82708	-1.9667	-1.3062	-1.6417	-1.7979	-1.1271	-1.8708	-1.6208	-1.2938	-1.9208	-1.5208	-1.3792	-2.0042	-1.0375	-1.95	-1.5479	149.536	130.735	130.460	-117.115	-87.469	203.454	71.571	113.172	-31.437	214.332	-41.090	-79.784	-100.731	-75.671	33.737	165.133	7.2549e-05	0.00088939	0.00010701	157.24	9.3989e-06	8.387e-06	250.71	57.874	4.305e-06	3.9796e-06	109.52	47.106	25.285	11.126	8.1308e-06	20.885	0.0025552	0.0029621	0.00080625	199.08	3.1645e-05	3.1793e-05	284.97	68.691	3.1121e-05	3.2751e-05	133.64	53.358	33.437	13.008	3.2207e-05	23.717	162.533	-54.226	-26.338	-110.294	83.881	80.947	-110.790	-104.579	-38.413	93.297	-106.902	-102.908	-101.375	-97.539	0.734	-99.864	-8191	255	
2273.292	1	1	0	0	0.16402	0.17527	0.090076	0.21214	0.16571	0.21959	0.30194	0.05793	0.11539	0.14325	0.18922	0.15088	0.21824	0.18143	0.070465	0.058536	-0.8	-1.9646	-1.2062	-1.4083	-1.7812	-0.95417	-1.8229	-1.6771	-1.0417	-1.8396	-1.2542	-1.1667	-1.9521	-1.0333	-1.7125	-1.5875	-119.005	149.204	-105.271	88.994	72.135	-67.954	216.176	17.932	-49.859	-120.573	65.617	-68.827	-98.022	140.800	-26.901	101.130	0.00053515	0.00032722	0.0001674	156.32	8.3863e-06	1.9105e-06	250.7	57.93	4.6582e-06	5.8544e-06	107.57	46.856	25.399	11.054	4.5867e-06	20.724	0.0025358	0.0029609	0.00081744	198.94	3.1986e-05	3.2144e-05	284.3	68.197	3.1067e-05	3.319e-05	132.43	53.211	33.627	13.002	3.3024e-05	23.337	129.124	28.343	-107.104	-110.572	-36.755	-61.528	-110.242	-104.511	39.466	26.385	-106.761	-102.704	-101.880	-97.203	-46.017	-99.809	-8191	255	
2273.388	1	1	0	0	0.077673	0.018679	0.2564	0.2026	0.057139	0.40359	0.15632	0.13552	0.18341	0.2238	0.11423	0.26957	0.40731	0.0083566	0.14601	0.038149	-0.8125	-1.9688	-1.5042	-1.2708	-1.9979	-1.1604	-1.7521	-1.7333	-1.0667	-2.1167	-1.3979	-1.1229	-1.8875	-1.225	-1.4896	-1.8229	123.849	-113.999	128.362	17.723	-67.180	-98.571	163.274	12.298	90.367	109.587	-0.884	-52.947	220.434	-44.716	92.172	23.438	0.00028961	0.00042855	0.00019159	154.53	3.7879e-06	7.1995e-07	249.89	57.321	6.5612e-06	6.1221e-06	107.48	46.658	25.3	10.995	5.4154e-06	20.592	0.0025799	0.0029749	0.00082607	196.86	3.2118e-05	3.2563e-05	282.15	67.878	3.0884e-05	3.2707e-05	130.92	52.48	33.317	12.861	3.1993e-05	23.184	139.097	-12.958	-61.209	-110.823	119.631	235.142	-111.140	-104.499	-30.644	40.603	-107.174	-103.391	-101.629	-97.635	60.909	-100.107	-8191	255	
2273.485	1	1	0	0	0.29326	0.12727	0.34612	0.21954	0.082148	0.10484	0.036933	0.33744	0.019194	0.044243	0.048387	0.099354	0.085839	0.33892	0.18493	0.24765	-0.5625	-1.8438	-1.3833	-1.1562	-1.7667	-1.3563	-1.5229	-1.8646	-1.0542	-1.6479	-1.4937	-1.0063	-1.7896	-1.1979	-1.3667	-1.9229	61.367	-1.283	88.256	217.839	142.831	94.531	35.961	201.805	10.535	183.522	-47.564	98.586	174.222	175.084	-41.136	106.126	0.00050168	0.00057858	0.00011038	155.77	4.7959e-06	3.5699e-06	247.32	56.803	7.4255e-07	1.0513e-05	108.32	47.327	25.582	11.1	2.861e-06	20.884	0.0025286	0.002951	0.00080737	197.19	3.1163e-05	3.1976e-05	282.05	67.912	3.0468e-05	3.2434e-05	131.69	52.817	33.453	12.974	3.1732e-05	23.41	116.812	66.434	29.386	-109.991	146.425	55.947	-111.100	-104.607	-83.109	17.077	-107.374	-103.622	-102.617	-97.213	-76.658	-99.936	-8191	255	
2273.605	1	1	0	0	0.039076	0.023274	0.097096	0.054591	0.17611	0.20799	0.1083	0.35616	0.20866	0.11723	0.090283	0.32286	0.21226	0.12822	0.2519	0.071711	-0.60417	-1.5479	-1.5187	-0.95625	-1.7958	-1.1417	-1.4312	-1.9646	-1.1208	-1.6604	-1.7792	-1.0479	-1.8979	-1.2479	-1.2104	-1.9208	20.672	-120.494	156.692	59.995	-119.329	154.139	111.527	176.526	-35.394	-117.698	222.608	225.109	185.497	167.759	146.760	52.910	0.00040739	0.00027395	0.00010188	155.86	7.5686e-06	8.219e-06	250.62	57.89	3.8315e-06	4.4214e-06	109.38	47.528	25.76	11.129	1.3029e-05	20.574	0.0025133	0.0029631	0.00081672	197.67	3.1703e-05	3.1627e-05	284.23	68.647	3.0834e-05	3.252e-05	133.35	53.17	33.774	13.029	3.1713e-05	23.51	102.558	38.117	168.009	-109.900	-4.592	-2.642	-111.240	-105.178	57.460	-43.818	-107.381	-103.468	-101.558	-97.250	27.329	-99.817	-8191	255	
2273.700	1	1	0	0	0.2862	0.16003	0.15975	0.14053	0.1613	0.24137	0.21895	0.24478	0.12735	0.089283	0.040431	0.058881	0.023202	0.16976	0.10501	0.1973	-0.69792	-1.5604	-1.6104	-1.0917	-1.9604	-1.4146	-1.1625	-1.9917	-1.1562	-1.6938	-1.7792	-0.93958	-1.9146	-1.4729	-1.0542	-2.0479	202.371	161.706	228.166	144.811	152.007	92.514	-79.192	-113.112	130.614	-22.412	75.131	-1.214	7.684	-63.187	74.126	4.006	0.00044724	0.00040433	9.0692e-05	156.62	5.9956e-06	7.3295e-06	247.75	57.806	9.0206e-06	1.4702e-05	108.66	46.583	25.364	10.885	8.8161e-06	20.787	0.0025457	0.0029792	0.00083398	198.28	3.1678e-05	3.2513e-05	282.76	68.258	3.081e-05	3.2901e-05	132.59	52.812	33.459	12.881	3.1645e-05	23.254	112.311	-67.979	149.384	-110.487	82.251	50.273	-111.096	-104.136	-53.445	13.141	-107.401	-103.593	-101.515	-97.511	-21.970	-99.947	-8191	255	
2273.797	1	1	0	0	0.18198	0.1761	0.19614	0.24092	0.36533	0.13319	0.090911	0.15224	0.067789	0.25458	0.28532	0.04715	0.031016	0.031606	0.24383	0.18397	-0.7875	-1.3708	-1.5792	-1.0312	-1.8062	-1.6688	-1.1021	-2.0938	-1.175	-1.1646	-2.0187	-1.1479	-1.6208	-1.5333	-1.1229	-1.9542	35.255	182.315	136.230	152.162	109.789	61.996	79.714	-40.843	115.991	73.849	168.085	191.253	-111.640	124.264	74.511	183.279	0.00031856	0.00068049	9.9213e-05	156.05	8.9064e-06	7.8225e-06	247.23	56.974	8.4968e-06	2.9266e-06	107.4	46.024	25.161	10.749	6.3173e-06	20.045	0.0025226	0.0029307	0.0008168	197.22	3.1429e-05	3.2386e-05	282.48	67.8	3.1116e-05	3.2844e-05	130.98	52.087	33.229	12.686	3.1904e-05	22.798	140.877	97.281	213.413	-109.990	97.257	-6.945	-111.053	-104.181	0.055	183.761	-106.979	-103.376	-101.653	-97.134	-109.438	-99.709	-8191	255	
2273.894	1	1	0	0	0.095005	0.096635	0.081222	0.26925	0.15324	0.12977	0.15866	0.21667	0.27158	0.15894	0.28365	0.12702	0.075986	0.20237	0.38235	0.15883	-0.925	-1.2437	-1.8583	-1.0688	-1.6083	-1.6833	-1.0438	-2.0021	-1.4708	-1.2875	-1.9438	-1.0708	-1.5438	-1.9146	-1.0896	-1.7292	128.022	111.474	118.493	65.459	206.419	198.963	8.096	172.030	165.140	-85.841	12.361	174.413	-85.898	-57.481	204.723	158.913	0.00027642	0.00044856	0.0001901	153.43	2.1269e-06	8.305e-06	243.61	56.178	8.0251e-06	2.5449e-06	104.42	45.314	24.529	10.655	1.8329e-06	19.853	0.002592	0.0029414	0.00082397	195.31	3.1817e-05	3.2694e-05	278.3	67.399	3.1353e-05	3.2948e-05	129.54	51.509	32.763	12.567	3.1976e-05	22.575	133.576	-66.490	-48.651	-110.043	-118.549	-0.807	-111.354	-103.940	22.966	148.326	-106.592	-103.667	-100.810	-97.547	183.517	-99.907	-8191	255	
2273.988	1	1	0	0	0.25107	0.17115	0.21679	0.22758	0.15845	0.17656	0.23799	0.22256	0.059197	0.16751	0.24864	0.09612	0.33389	0.066334	0.093052	0.052873	-1.2188	-1.0833	-1.8396	-1.1604	-1.4271	-1.5688	-0.91458	-1.95	-1.5438	-1.1896	-1.9146	-1.1875	-1.3854	-1.9333	-1.2146	-1.8167	115.013	-78.614	-83.652	163.306	71.812	-87.207	108.737	131.379	172.827	-100.707	-41.685	-54.247	-10.408	34.389	-1.960	222.857	0.00053244	0.00040559	0.00014799	153.6	4.6468e-06	5.3669e-06	242.06	55.488	9.9793e-06	6.644e-06	105.52	45.616	24.872	10.767	3.3015e-06	20.119	0.0025652	0.0029328	0.00083234	196.31	3.1749e-05	3.2381e-05	277.15	66.943	3.1215e-05	3.232e-05	129.6	51.738	32.87	12.643	3.1106e-05	22.688	133.186	213.303	28.801	-109.919	-33.259	151.321	-110.651	-104.842	207.230	68.750	-106.196	-103.632	-102.120	-97.765	111.557	-99.778	-8191	255	
2274.084	1	1	0	0	0.092759	0.26699	0.20531	0.054361	0.26898	0.39321	0.023681	0.31027	0.091754	0.096556	0.11584	0.17497	0.27626	0.22385	0.21985	0.28848	-1.3625	-1.0792	-1.95	-1.2604	-1.2875	-1.8958	-1.05	-1.7146	-1.6917	-1.1375	-1.7854	-1.375	-1.25	-1.7687	-1.0625	-1.8625	121.309	217.856	119.348	-4.673	-84.808	136.571	-85.676	54.857	-2.078	93.816	-38.598	43.336	199.173	97.994	166.071	219.610	0.0001835	0.00014199	0.0003153	155.21	1.8977e-06	4.0266e-06	247.28	56.732	6.8182e-06	8.356e-06	107.53	45.821	25.304	10.875	5.007e-06	20.079	0.0025264	0.0028645	0.00081729	195.55	3.0975e-05	3.2171e-05	280.04	67.364	3.1143e-05	3.1936e-05	130.91	51.86	32.957	12.729	3.1302e-05	22.756	145.400	224.647	-119.717	-110.763	156.555	-76.090	-111.119	-104.496	103.268	69.902	-106.965	-103.167	-101.818	-97.383	202.434	-99.956	-8191	255	
2274.205	1	1	0	0	0.27825	0.19773	0.1665	0.087424	0.25888	0.13901	0.13737	0.10548	0.17109	0.19222	0.18461	0.10852	0.12065	0.189	0.19309	0.16504	-1.2771	-0.80625	-1.9604	-1.4562	-1.2417	-2.1375	-1.275	-1.6688	-1.8521	-1.1104	-2.1208	-1.4979	-1.2313	-1.7875	-1.05	-1.5187	204.782	-42.866	169.754	228.106	-110.869	108.720	207.067	216.757	-86.576	233.474	120.242	191.448	93.257	208.087	56.385	-50.114	0.00044509	0.00035049	0.00015285	154.96	3.8172e-06	6.3321e-06	245.04	56.629	8.5979e-07	7.8464e-06	107.37	46.368	25.045	10.695	4.1101e-06	20.107	0.0025019	0.0028728	0.00081862	195.04	3.0908e-05	3.2003e-05	279.28	67.151	3.0499e-05	3.1961e-05	130.33	52.111	32.919	12.593	3.1662e-05	22.745	119.475	174.325	18.492	-110.390	24.617	-10.496	-110.951	-103.929	9.870	-37.553	-107.331	-103.241	-101.695	-97.554	-15.979	-99.699	-8191	255	
2274.301	1	1	0	0	0.23839	0.14261	0.31048	0.25684	0.019651	0.17223	0.30322	0.19193	0.18895	0.1909	0.16238	0.081433	0.084758	0.15777	0.344	0.075049	-1.5312	-0.95208	-1.7188	-1.5063	-1.1208	-1.7667	-1.1896	-1.3958	-1.9396	-1.1021	-1.8021	-1.5604	-1.1812	-1.9667	-1.4271	-1.4083	101.575	-72.807	-65.404	77.229	202.844	7.680	77.425	-70.948	-50.234	-115.719	-67.998	-94.963	20.200	45.053	22.244	28.708	0.00030347	0.00039182	9.033e-05	153.36	2.1837e-06	4.7137e-06	242.98	56.757	1.1203e-05	6.8264e-06	105.54	45.86	24.987	10.618	5.9497e-06	19.792	0.0025496	0.0028909	0.00083263	196.08	3.1164e-05	3.26e-05	279.27	67.22	3.1043e-05	3.2117e-05	129.96	51.822	32.946	12.588	3.1803e-05	22.567	146.600	4.041	-59.450	-110.338	62.879	68.035	-110.104	-103.795	23.497	-80.117	-106.924	-103.295	-101.604	-96.658	-39.051	-99.778	-8191	255	
2274.397	1	1	0	0	0.11315	0.24703	0.28422	0.087778	0.10762	0.061565	0.23433	0.11528	0.15999	0.12907	0.0056271	0.2569	0.2424	0.21899	0.40098	0.2592	-1.4583	-1.0438	-1.6021	-1.7167	-1.1271	-1.9813	-1.2208	-1.3813	-2.1021	-1.1167	-1.6583	-1.775	-0.97708	-1.8792	-1.4813	-1.4021	160.592	146.929	70.082	201.652	76.365	170.070	182.471	57.607	-78.076	-17.649	10.611	169.737	208.725	173.132	194.989	210.561	0.00029235	0.0004487	6.9897e-05	155.42	7.9819e-06	1.3739e-06	242.17	55.863	1.1782e-05	4.6007e-06	105.43	45.78	25.061	10.74	3.8964e-06	19.899	0.0025671	0.0029077	0.00082986	195.62	3.1085e-05	3.2808e-05	276.95	66.753	3.1353e-05	3.2321e-05	128.98	51.496	32.875	12.599	3.1698e-05	22.545	150.688	-119.665	8.719	-109.740	27.028	-38.097	-110.581	-103.779	-8.145	-98.419	-106.621	-103.516	-101.932	-97.217	-38.299	-99.482	-8191	255	
2274.469	1	1	0	0	0.15097	0.16338	0.30663	0.16803	0.19299	0.1971	0.24873	0.16221	0.20028	0.23412	0.31276	0.18944	0.06528	0.15368	0.12149	0.069727	-1.6437	-1.0833	-1.6375	-1.975	-1.1521	-1.7708	-1.5333	-1.3292	-1.8312	-1.1979	-1.5271	-1.9354	-1.1208	-1.8604	-1.6625	-1.3104	130.172	119.065	-77.639	66.752	-37.730	55.315	-5.207	157.144	2.876	79.583	14.579	196.680	-62.420	-118.055	85.135	234.246	0.00049641	0.00072581	9.356e-05	153.36	4.1034e-06	1.2174e-05	242.73	56.748	5.5394e-06	4.5248e-06	106.2	45.666	25.042	10.707	6.3587e-06	20.064	0.0025657	0.0029442	0.00082382	195.98	3.1466e-05	3.2867e-05	277.09	67.187	3.1817e-05	3.26e-05	129.69	51.698	32.821	12.703	3.1877e-05	22.662	103.471	-119.485	63.084	-109.777	80.520	64.430	-110.938	-103.970	17.262	-16.532	-106.457	-103.117	-101.851	-96.788	146.171	-99.825	-8191	255	
2274.589	1	1	0	0	0.059602	0.10661	0.21854	0.11629	0.15216	0.22857	0.077291	0.46634	0.20423	0.091714	0.25754	0.12728	0.082439	0.13328	0.11329	0.12752	-1.5917	-1.2917	-1.3292	-1.8292	-1.2479	-1.7896	-1.8667	-1.1187	-1.9458	-1.1208	-1.2521	-1.8229	-1.0708	-1.6896	-1.6812	-1.2083	119.629	162.785	67.885	16.215	112.984	-99.472	227.344	114.184	169.272	33.928	95.967	181.851	40.729	-68.825	-105.274	12.823	0.00049066	0.00035344	0.00011616	153.57	6.2121e-06	1.2171e-05	242.63	56.585	1.0005e-05	2.8629e-06	106.6	46.112	25.151	10.79	6.285e-06	20.061	0.0025688	0.002955	0.00082169	195.98	3.1461e-05	3.3334e-05	278.99	67.427	3.2044e-05	3.3032e-05	130.35	52.206	33.18	12.759	3.2449e-05	22.781	188.909	-32.417	-50.564	-110.811	22.384	113.091	-111.575	-104.797	-25.698	62.829	-106.648	-102.550	-101.783	-96.745	15.162	-99.365	-8191	255	
2274.684	1	1	0	0	0.34178	0.23542	0.068749	0.19249	0.29	0.1222	0.16704	0.33207	0.12399	0.12588	0.080091	0.061038	0.12024	0.18481	0.044042	0.15519	-1.6125	-1.3667	-1.3312	-1.9875	-1.2062	-1.8292	-1.7958	-1.0583	-1.7917	-1.525	-1.2062	-2.0021	-1.2729	-1.3833	-1.7604	-0.9375	60.591	66.841	51.516	138.255	170.698	147.545	62.342	136.905	153.729	-92.478	-67.157	153.779	131.064	198.188	139.492	93.229	0.00023552	0.00089878	8.1326e-05	153.45	9.9045e-06	7.6015e-06	242.18	56.989	5.8081e-06	1.0939e-05	106.02	45.875	24.655	10.59	1.7335e-06	20.01	0.0025991	0.0029632	0.00083484	196.75	3.1818e-05	3.3146e-05	279.03	67.114	3.1979e-05	3.2671e-05	130.54	52.27	32.999	12.645	3.2185e-05	22.851	105.984	207.051	115.596	-109.858	33.342	45.483	-111.251	-103.670	-55.991	-50.708	-107.027	-103.316	-102.150	-97.733	-23.198	-100.345	-8191	255	
2274.780	1	1	0	0	0.25563	0.14591	0.12891	0.23176	0.17429	0.25021	0.083253	0.16464	0.19437	0.27719	0.13737	0.31557	0.27671	0.25426	0.26395	0.10572	-1.5625	-1.3729	-1.1125	-1.9	-1.3271	-1.4229	-1.9375	-0.99375	-1.8479	-1.7417	-1.0292	-1.9521	-1.2292	-1.4354	-1.8563	-1.1521	-69.056	75.981	134.586	-82.461	-30.052	-121.783	-63.601	194.364	-1.989	51.370	122.124	169.014	211.575	103.534	60.415	26.859	0.00020594	0.00061308	0.0002171	153.71	2.2464e-06	7.9354e-06	241.95	56.802	5.6793e-06	4.2468e-06	106.72	45.896	24.309	10.691	8.9266e-06	20.07	0.002634	0.0030166	0.00083052	197.53	3.2471e-05	3.3485e-05	279.12	67.254	3.2787e-05	3.3618e-05	130.29	52.126	33.067	12.704	3.3307e-05	22.732	88.359	38.470	-20.944	-111.291	204.770	41.232	-111.218	-103.892	18.113	75.381	-107.342	-103.592	-101.844	-97.679	0.982	-100.030	-8191	255	
2274.878	1	1	0	0	0.039371	0.20415	0.072799	0.10965	0.048185	0.20401	0.072119	0.14332	0.28581	0.049536	0.26936	0.13356	0.13026	0.24032	0.10935	0.14598	-1.2479	-1.4333	-1.1812	-1.9479	-1.0917	-1.2687	-1.9104	-1.2292	-1.65	-1.5812	-0.97083	-1.9312	-1.1667	-1.325	-1.9208	-1.2146	-5.121	7.950	35.877	227.609	-95.329	212.692	-94.697	57.296	80.356	226.492	166.847	48.164	108.636	202.298	-26.131	2.591	0.00037122	0.00077634	6.7733e-05	152.31	7.5702e-06	9.8008e-06	241.71	55.204	6.4731e-06	9.531e-06	105.59	45.735	24.643	10.638	1.4345e-05	19.779	0.002694	0.0030647	0.00085063	198.01	3.3081e-05	3.3803e-05	277.39	66.834	3.3157e-05	3.4284e-05	129.75	51.694	32.87	12.605	3.336e-05	22.491	79.390	191.100	-116.031	-109.846	15.758	73.063	-111.142	-104.822	81.418	231.083	-106.912	-103.661	-102.930	-97.906	-27.952	-100.062	-8191	255	
2274.997	1	1	0	0	0.243	0.088086	0.15308	0.15896	0.17593	0.25317	0.28353	0.2644	0.077064	0.22655	0.16957	0.36791	0.1356	0.1218	0.11348	0.18086	-1.2792	-1.7437	-1.1604	-1.6562	-1.4104	-1.3771	-1.9583	-1.1875	-1.3896	-1.8729	-0.97708	-1.8729	-1.6042	-1.1958	-1.9458	-1.3708	-52.417	-47.388	58.968	-94.694	110.351	56.672	213.401	126.672	-120.679	48.921	235.778	-117.585	180.489	145.900	-121.944	172.969	0.00041652	0.00017513	0.00020379	152.84	3.7338e-06	7.2522e-06	239.37	55.965	6.825e-06	2.8855e-06	104.49	45.367	24.847	10.698	5.3109e-06	19.953	0.0027029	0.0030882	0.00086473	197.81	3.3328e-05	3.3788e-05	277.63	67.126	3.276e-05	3.3877e-05	129.33	51.818	33.195	12.648	3.3653e-05	22.782	120.572	-92.404	54.580	-109.914	-3.273	-111.461	-111.685	-105.266	-4.653	-87.996	-107.459	-103.478	-103.145	-97.965	169.797	-99.665	-8191	255	
2275.068	1	1	0	0	0.094915	0.20314	0.25332	0.19405	0.2539	0.17903	0.10848	0.13674	0.23165	0.15034	0.14531	0.34608	0.22044	0.097689	0.13736	0.13398	-1.0812	-1.9646	-1.1146	-1.8667	-1.5604	-1.2125	-2.0667	-1.2771	-1.4167	-2.1188	-1.1521	-1.6583	-1.7646	-1.0729	-1.7146	-1.3604	20.422	53.287	-47.386	87.536	-56.630	-7.453	173.902	145.332	192.666	-36.967	90.771	209.240	208.575	-95.324	-83.452	78.194	0.00037514	0.0013077	0.00017075	152.69	2.6477e-06	8.6803e-06	242.33	56.528	4.438e-06	6.2851e-06	104.13	46.207	25.06	10.615	6.7079e-06	19.989	0.0026723	0.0031129	0.00085061	197.6	3.2921e-05	3.3737e-05	279.24	67.571	3.2823e-05	3.385e-05	130.04	52.234	33.261	12.733	3.3911e-05	22.85	91.805	-41.596	12.840	-109.962	46.474	14.305	-111.209	-104.810	212.614	4.354	-106.521	-103.072	-101.731	-97.418	111.680	-100.646	-8191	255	
2275.165	1	1	0	0	0.081428	0.11515	0.22394	0.17815	0.21705	0.14437	0.10445	0.30665	0.11288	0.27583	0.16261	0.24137	0.24139	0.1068	0.21389	0.26094	-1.025	-1.9771	-1.1187	-1.6375	-1.8438	-1.0438	-2.125	-1.5854	-1.2146	-2.0271	-1.2208	-1.5417	-1.6521	-0.92917	-1.8104	-1.5625	-51.542	-2.783	-53.845	96.931	-80.606	110.498	-68.099	120.225	236.306	105.323	231.973	58.838	73.614	-10.079	225.765	107.167	0.00021792	0.00026183	0.0002083	152.46	7.7381e-06	3.5398e-06	241.62	55.978	1.6401e-05	9.6389e-06	106.88	45.829	24.898	10.661	5.8122e-06	20.027	0.002664	0.0030999	0.00085696	197.82	3.2914e-05	3.3867e-05	279.2	67.305	3.2666e-05	3.4356e-05	130.91	52.209	33.214	12.663	3.3657e-05	22.872	167.358	-22.387	60.254	-110.690	-0.410	-16.450	-111.576	-104.326	130.773	122.631	-107.300	-103.017	-101.507	-97.955	-13.076	-100.124	-8191	255	
2275.285	1	1	0	0	0.15673	0.21687	0.12473	0.22827	0.21586	0.099773	0.3069	0.31392	0.19787	0.26782	0.089033	0.17953	0.30481	0.18397	0.10793	0.050485	-0.65208	-1.8458	-1.0333	-1.5187	-1.7646	-1.025	-1.7729	-1.4208	-1.2208	-1.8125	-1.1896	-1.5771	-1.7979	-1.0438	-1.8833	-1.5125	91.100	-109.103	-96.620	-51.976	178.494	134.301	142.655	124.222	-35.576	-65.807	43.875	116.571	129.302	156.795	-32.990	127.579	0.000452	0.00051425	0.00018588	153.17	4.8075e-06	6.7521e-06	241.3	56.459	5.3021e-06	4.4112e-06	106.02	45.705	24.189	10.689	2.3945e-06	19.852	0.0026363	0.0030783	0.00084947	197.13	3.305e-05	3.3757e-05	278.21	67.164	3.2263e-05	3.413e-05	130.03	51.919	32.983	12.647	3.345e-05	22.694	130.073	46.317	15.376	-110.657	159.439	188.835	-111.175	-104.386	38.153	-18.454	-106.714	-103.073	-101.642	-97.207	-38.955	-100.163	-8191	255	
2275.381	1	1	0	0	0.078076	0.096834	0.054114	0.091133	0.18338	0.1836	0.38003	0.096812	0.26067	0.14376	0.23601	0.17856	0.10138	0.15948	0.16901	0.074059	-0.71875	-1.8271	-1.2708	-1.2458	-1.8333	-1.075	-1.5792	-1.5333	-1.0104	-1.975	-1.3583	-1.3104	-1.8542	-0.99375	-1.4146	-1.7958	182.476	-121.491	36.746	233.753	208.996	159.195	111.285	196.000	-82.567	147.606	61.647	123.421	166.559	123.094	216.914	126.577	0.00045748	0.00015708	0.00028771	151.98	9.5874e-06	8.814e-06	242.3	55.827	5.4985e-06	2.4855e-06	104.75	45.262	24.376	10.559	8.9603e-06	19.833	0.0026521	0.0030729	0.00085671	195.35	3.3066e-05	3.3545e-05	276.61	66.764	3.2075e-05	3.4334e-05	129.2	51.479	32.98	12.552	3.2926e-05	22.532	98.530	35.143	218.042	-110.550	85.991	-45.565	-110.626	-105.189	150.891	11.635	-106.661	-103.923	-101.429	-97.258	19.761	-100.163	-8191	255	
2275.477	1	1	0	0	0.16847	0.1634	0.21285	0.32167	0.23785	0.21575	0.17366	0.18369	0.11141	0.12541	0.038394	0.35658	0.11878	0.1131	0.15542	0.13945	-0.73542	-1.8583	-1.4833	-1.1917	-2.1646	-1.2021	-1.6667	-1.7687	-1.2	-1.8229	-1.6	-1.0833	-1.9937	-1.2521	-1.45	-1.8625	-81.179	159.080	-14.835	-30.818	-57.621	220.202	-20.116	-48.267	-68.372	-97.818	128.666	-8.270	33.668	22.325	223.334	89.763	0.00054258	0.00023967	0.00015968	152.43	1.3797e-06	5.7475e-06	241.54	55.643	7.1537e-06	3.5756e-06	104.16	45.706	24.813	10.803	8.6077e-06	19.889	0.0026079	0.0030502	0.00083644	195.39	3.2411e-05	3.3294e-05	276.91	66.743	3.1449e-05	3.3918e-05	128.63	51.857	33.008	12.678	3.2906e-05	22.72	113.713	194.708	-53.396	-110.242	120.463	48.851	-111.346	-104.476	34.289	43.581	-107.140	-102.370	-101.125	-97.666	57.651	-100.354	-8191	255	
2275.598	1	1	0	0	0.36579	0.10654	0.13264	0.094135	0.22087	0.20466	0.11047	0.19022	0.099738	0.27497	0.24863	0.17865	0.093055	0.053441	0.21977	0.18203	-0.62708	-1.8104	-1.4479	-1.0667	-2.0792	-1.3104	-1.5646	-1.9729	-1.1771	-1.8813	-1.6646	-1.0583	-1.8854	-1.3167	-1.1979	-1.8896	112.134	116.227	163.859	-63.058	-17.930	11.552	180.612	158.701	-54.704	228.809	20.805	167.377	173.060	41.967	-29.772	-117.467	0.00023681	8.2162e-05	0.00013437	152.19	2.3341e-06	1.2908e-05	243.47	55.939	1.123e-05	1.5818e-06	105.93	45.776	24.89	10.879	4.3501e-06	20.268	0.0026088	0.0030479	0.00083117	194.88	3.2515e-05	3.321e-05	278.82	67.213	3.1698e-05	3.3775e-05	130.43	52.2	33.325	12.777	3.2565e-05	22.977	157.977	-83.705	205.239	-110.340	-82.378	-62.670	-111.041	-104.436	-12.682	-28.961	-106.706	-103.282	-101.721	-97.097	-36.549	-100.090	-8191	255	
2275.694	1	1	0	0	0.21042	0.24641	0.25988	0.19623	0.17408	0.1778	0.21106	0.2137	0.20076	0.3455	0.24456	0.24369	0.14067	0.29715	0.17376	0.11244	-0.62708	-1.7333	-1.7938	-1.0146	-1.9542	-1.2812	-1.1542	-1.8125	-1.0333	-1.7729	-1.8958	-1.0042	-1.8875	-1.4542	-1.2729	-1.9292	27.830	-109.817	68.892	32.665	80.808	223.583	216.010	157.631	101.873	121.059	-71.498	-72.205	-109.989	149.010	49.133	60.676	0.00024673	0.00073854	0.00022557	150.68	4.7632e-06	9.7118e-06	245.07	56.409	5.8773e-06	5.2376e-06	105.53	45.982	24.87	10.745	1.0127e-05	20.145	0.0026014	0.0030298	0.00082729	196.51	3.2355e-05	3.3415e-05	279.37	67.374	3.1761e-05	3.3779e-05	130.51	52.144	33.239	12.679	3.305e-05	22.888	119.250	-103.418	-70.023	-110.310	98.589	125.346	-110.957	-104.201	190.940	17.282	-106.729	-102.742	-100.823	-96.808	5.057	-99.557	-8191	255	
2275.766	1	1	0	0	0.086486	0.25175	0.17986	0.091514	0.073363	0.16876	0.17287	0.14462	0.10888	0.12869	0.094103	0.14024	0.092159	0.19176	0.08275	0.054377	-0.63125	-1.4438	-1.8771	-0.9125	-1.9458	-1.575	-1.0292	-2.0229	-1.3354	-1.5396	-1.8687	-1.2479	-1.7375	-1.4937	-1.1562	-1.8854	209.262	34.675	87.429	-115.430	218.771	146.880	230.959	-54.493	54.900	119.892	-76.813	71.682	103.617	207.126	-12.325	106.586	0.00036997	0.00037257	0.00022268	154.27	5.9715e-06	6.2799e-06	241.85	55.691	3.7609e-06	8.4655e-06	106.42	45.95	24.634	10.559	6.6527e-06	20.001	0.002687	0.0030799	0.00086013	197.11	3.324e-05	3.3966e-05	278.28	67.168	3.2383e-05	3.4193e-05	130.25	51.945	33.12	12.679	3.334e-05	22.76	144.708	-53.678	58.765	-110.585	9.120	143.385	-110.138	-105.012	-77.948	225.017	-106.655	-103.115	-102.082	-97.549	73.668	-99.788	-8191	255	
2275.885	1	1	0	0	0.21182	0.31872	0.38033	0.17091	0.088478	0.037672	0.26453	0.21627	0.19113	0.032262	0.18609	0.23723	0.027935	0.28836	0.21615	0.05967	-0.78333	-1.4667	-1.975	-1.2313	-1.5812	-1.525	-1.0958	-1.9292	-1.4125	-1.2917	-1.8875	-1.1917	-1.7083	-1.75	-0.98333	-2.1271	227.757	-97.581	141.968	154.422	-77.550	231.848	-110.919	219.116	227.389	127.242	62.528	167.203	102.588	-91.251	231.396	-26.499	0.00035561	0.00099352	0.00018585	149.5	6.2117e-06	5.0054e-06	241.81	55.414	3.0689e-06	1.114e-06	104.06	44.617	24.361	10.496	1.1138e-05	19.74	0.0026843	0.0031155	0.00087633	195.08	3.3684e-05	3.3962e-05	276.96	66.663	3.2473e-05	3.4134e-05	128.71	51.178	32.774	12.498	3.2925e-05	22.371	107.378	-74.889	111.889	-110.102	134.866	103.959	-111.104	-104.158	-51.133	-78.165	-105.965	-102.892	-102.045	-97.284	-96.068	-99.585	-8191	255	
2275.981	1	1	0	0	0.33857	0.19324	0.12182	0.15238	0.19585	0.14447	0.25485	0.11633	0.24289	0.19086	0.03578	0.32772	0.193	0.066788	0.083961	0.086231	-0.88542	-1.2542	-1.975	-1.0187	-1.5458	-1.6729	-1.0583	-1.8542	-1.3521	-1.1604	-1.9729	-1.05	-1.4271	-2.0208	-1.2021	-1.9417	-19.541	-85.793	189.782	-98.437	-57.365	-83.264	171.607	100.502	-100.858	188.912	-62.928	-76.180	130.831	219.864	117.853	205.304	0.00038995	0.0002675	0.0001892	151.64	6.9866e-06	3.835e-06	239.3	56.125	5.7592e-06	9.3491e-06	105.38	45.388	24.462	10.662	4.522e-06	19.962	0.0026318	0.0030059	0.00085261	193.45	3.2692e-05	3.3065e-05	275.31	66.864	3.1949e-05	3.3243e-05	129.84	51.591	32.971	12.646	3.2601e-05	22.794	139.597	108.195	23.161	-109.303	97.388	-100.367	-110.467	-104.293	-59.762	-106.359	-107.014	-102.972	-100.897	-96.588	75.429	-99.889	-8191	255	
2276.077	1	1	0	0	0.40663	0.12109	0.30736	0.13602	0.077394	0.18549	0.3514	0.41594	0.21743	0.22079	0.19813	0.099267	0.11774	0.16982	0.26673	0.23938	-1.0542	-1.0479	-1.9521	-0.85833	-1.3354	-2.0563	-1.1063	-1.7396	-1.5333	-0.99792	-2.0542	-1.4167	-1.4208	-2.0167	-1.0312	-1.6688	204.409	85.832	210.956	99.385	-51.599	-119.373	203.938	78.907	-95.119	101.855	-28.498	21.689	-91.312	25.132	43.168	-120.987	0.00059409	0.00032237	0.00024966	154.97	7.791e-06	5.8572e-06	244.48	56.506	2.6145e-06	1.377e-05	106.66	45.873	24.837	10.922	4.3804e-06	20.067	0.0026033	0.0029948	0.00085707	196.67	3.2648e-05	3.3695e-05	279.52	67.558	3.2104e-05	3.3353e-05	131.22	52.345	33.189	12.869	3.2755e-05	23.019	122.108	10.213	4.499	-109.931	52.717	-79.534	-110.314	-103.606	54.755	-30.503	-106.563	-103.170	-101.145	-96.781	110.817	-99.251	-8191	255	
2276.173	1	1	0	0	0.17587	0.20531	0.40848	0.097555	0.090582	0.281	0.15622	0.14757	0.12363	0.25314	0.14493	0.15464	0.17546	0.20822	0.40685	0.031171	-1.2563	-0.9375	-2.0563	-1.2729	-1.1917	-2.0354	-1.2271	-1.8146	-1.7875	-1.0583	-1.9583	-1.3792	-1.2979	-1.9667	-1.2146	-1.7938	206.336	-101.969	123.721	139.288	-63.148	130.617	-39.180	-109.401	44.576	32.486	155.054	176.429	7.314	212.234	235.836	43.383	0.00045017	0.00053355	0.00010709	152.63	9.0514e-06	4.7136e-06	244.03	56.039	1.3691e-05	7.611e-06	106.15	45.861	25.563	10.716	4.051e-06	20.338	0.002652	0.0030448	0.00086283	196.49	3.2611e-05	3.404e-05	280.16	67.144	3.2428e-05	3.3655e-05	131.01	52.31	33.296	12.733	3.3026e-05	23.1	117.755	-83.092	-2.959	-109.868	27.886	-113.545	-110.745	-104.029	171.541	140.109	-107.573	-103.924	-100.803	-97.473	-21.490	-99.630	-8191	255	
2276.294	1	1	0	0	0.19324	0.099104	0.076822	0.1321	0.12787	0.21278	0.22366	0.27204	0.10557	0.20577	0.030032	0.089693	0.15633	0.062168	0.099703	0.15493	-1.5271	-1.4104	-1.7396	-1.4833	-1.0458	-2.1375	-1.2208	-1.4875	-1.8396	-1.1	-2	-1.6083	-1.2729	-2.0438	-1.2354	-1.4083	41.684	-24.100	-34.218	83.361	62.419	14.332	63.031	-95.135	-94.422	-59.594	82.770	52.021	-84.583	235.090	-14.880	87.113	6.611e-05	0.00032831	8.3814e-05	153.02	5.2978e-06	3.3834e-06	241.88	55.8	6.7418e-06	5.8536e-06	106.37	45.647	24.478	10.778	6.9588e-06	19.957	0.0026918	0.0030828	0.00087331	196.41	3.3036e-05	3.4423e-05	278.83	67.232	3.3186e-05	3.4234e-05	130.89	52.1	32.981	12.741	3.4081e-05	22.808	132.650	53.192	138.101	-109.510	-96.119	-29.649	-110.982	-104.634	-89.235	116.888	-106.996	-102.967	-101.235	-97.100	-56.383	-99.766	-8191	255	
2276.366	1	1	0	0	0.26175	0.098206	0.27827	0.17369	0.17236	0.24259	0.16667	0.33265	0.34018	0.2141	0.084598	0.42355	0.095008	0.22878	0.13882	0.27295	-1.45	-1.1437	-1.7437	-1.7667	-1.0958	-1.9625	-1.3333	-1.3813	-1.8833	-1.1354	-1.7	-1.75	-0.94792	-1.8083	-1.2583	-1.2917	201.733	41.473	-9.739	-19.515	-113.643	134.371	93.306	214.625	29.997	109.694	57.145	173.519	46.083	186.330	178.047	72.944	0.0004848	0.00053749	0.00020068	151.73	5.7864e-06	4.4761e-06	242.17	55.381	8.4183e-06	7.4334e-06	104.55	45.215	24.551	10.577	4.7523e-06	19.751	0.0026954	0.0031484	0.00088003	195.79	3.3325e-05	3.4939e-05	277.56	66.669	3.2844e-05	3.42e-05	129.77	51.49	32.87	12.599	3.321e-05	22.629	141.972	-55.012	32.218	-110.345	141.754	111.448	-111.030	-103.857	5.512	234.627	-106.131	-102.868	-101.978	-96.698	182.711	-99.469	-8191	255	
2276.462	1	1	0	0	0.026154	0.18373	0.1026	0.10315	0.18845	0.26117	0.30557	0.34844	0.28276	0.051478	0.039438	0.16208	0.073519	0.26585	0.14247	0.30887	-1.5063	-1.1562	-1.7188	-1.7708	-0.82083	-1.9667	-1.4854	-1.2167	-2.0042	-1.1208	-1.6833	-1.8146	-1.0479	-1.85	-1.575	-1.3604	-87.155	-56.723	190.956	162.962	28.150	173.247	221.313	160.996	-93.861	-90.641	-109.951	133.701	88.835	208.927	161.295	68.430	0.00052288	0.00038775	5.4696e-05	149.87	5.8643e-06	6.1114e-06	240.11	55.821	4.098e-06	5.717e-06	104.99	45.641	24.689	10.718	6.9062e-07	20.179	0.0027058	0.0030463	0.000862	195.36	3.2539e-05	3.4547e-05	276.91	66.763	3.3058e-05	3.3668e-05	130.14	51.969	33.081	12.769	3.3248e-05	22.975	93.634	229.693	224.596	-109.565	174.140	226.448	-110.944	-103.858	-110.202	-115.995	-106.307	-103.371	-101.042	-96.972	101.143	-99.865	-8191	255	
2276.558	1	1	0	0	0.28567	0.14388	0.14234	0.11781	0.09421	0.26479	0.12508	0.049918	0.27043	0.28716	0.062954	0.039626	0.048314	0.053553	0.2031	0.14964	-1.6792	-1.2625	-1.4729	-1.8646	-0.93333	-1.9896	-1.7	-1.175	-1.9667	-1.3292	-1.3438	-1.875	-0.99583	-1.6396	-1.6542	-1.2542	-120.236	11.333	10.981	166.593	-30.280	198.821	-58.169	0.892	166.231	96.512	187.054	136.729	126.232	-63.365	93.149	149.160	0.00033399	0.00022752	0.00019081	150.36	5.6615e-06	2.8232e-06	243.51	56.274	7.3707e-06	1.194e-05	106.75	46.176	25.092	10.938	1.3675e-06	20.61	0.0026936	0.0030536	0.00085692	196	3.2932e-05	3.4549e-05	279.92	67.723	3.3067e-05	3.4255e-05	131.86	52.653	33.338	12.932	3.3474e-05	23.417	98.529	-120.472	-120.589	-110.553	141.021	75.350	-110.587	-103.751	51.711	115.267	-107.100	-103.311	-101.253	-97.174	72.317	-99.984	-8191	255	
2276.677	1	1	0	0	0.47966	0.097543	0.10873	0.12604	0.056535	0.14312	0.16532	0.27821	0.10069	0.043686	0.053577	0.030959	0.095383	0.067503	0.04483	0.096186	-1.5583	-1.4062	-1.2771	-1.8458	-0.89792	-1.65	-1.7917	-0.90625	-1.9	-1.2354	-1.45	-1.925	-0.9125	-1.5187	-1.6333	-1.1583	-100.867	-3.748	134.813	186.191	169.205	27.512	-93.444	226.484	118.566	70.869	48.201	-108.486	155.078	-89.984	-92.231	155.464	0.0003541	0.00040635	7.7721e-05	152.87	7.3904e-06	6.0258e-06	245.87	56.178	1.128e-05	6.5172e-06	108.8	46.314	24.751	10.754	7.4993e-06	20.547	0.0027263	0.0031054	0.00086803	198.47	3.3201e-05	3.4518e-05	281.3	67.532	3.3106e-05	3.3941e-05	132.15	52.736	33.382	12.815	3.3374e-05	23.305	171.707	-111.039	92.346	-110.522	7.601	1.396	-110.572	-103.691	83.682	96.407	-107.093	-102.971	-100.818	-97.171	-83.081	-99.022	-8191	255	
2276.773	1	1	0	0	0.18156	0.28342	0.24195	0.21514	0.10893	0.094874	0.24336	0.16577	0.13489	0.16235	0.24487	0.12255	0.19434	0.084136	0.050491	0.28754	-1.5833	-1.3875	-1	-1.7583	-1.0458	-1.5688	-1.9562	-0.99167	-1.9125	-1.5063	-1.075	-1.95	-1.0583	-1.4917	-1.9312	-0.75833	138.159	-35.567	236.332	118.322	39.928	184.324	-111.383	62.914	115.934	148.660	120.497	238.022	2.082	212.186	134.059	180.768	0.00035827	0.00050452	0.00025785	150.37	5.2798e-06	8.3848e-06	243.56	56.283	7.8046e-06	1.7874e-06	107.32	45.59	24.502	10.715	7.4724e-06	20.204	0.0027136	0.0030907	0.00085579	197.32	3.3028e-05	3.4358e-05	281.21	67.524	3.3418e-05	3.4305e-05	131.77	52.428	33.202	12.755	3.4275e-05	23.055	91.499	-52.274	-20.999	-109.839	20.801	-85.800	-110.505	-103.610	220.555	43.031	-106.348	-102.796	-101.582	-96.505	29.095	-99.420	-8191	255	
2276.869	1	1	0	0	0.19684	0.31375	0.068619	0.11628	0.20554	0.242	0.37082	0.13893	0.145	0.16653	0.23692	0.096995	0.17781	0.16014	0.19297	0.076021	-1.3833	-1.5229	-0.96667	-1.875	-1.2833	-1.2938	-1.9937	-0.88542	-1.8813	-1.7021	-1.1792	-2.0833	-1.4729	-1.1896	-1.9917	-1.1187	95.740	85.886	211.217	171.418	119.498	17.626	200.763	50.815	-67.520	-38.245	36.496	175.381	46.793	-56.485	139.315	97.279	0.00029365	0.00076737	0.00019564	151.19	5.5387e-06	3.1778e-06	241.03	55.202	4.8443e-06	5.1964e-06	105.85	45.431	24.423	10.559	4.5361e-06	19.969	0.0027727	0.0031473	0.0008655	196.63	3.3361e-05	3.4744e-05	279.21	66.888	3.3678e-05	3.4637e-05	130.35	51.992	32.808	12.589	3.3881e-05	22.711	157.579	94.110	-16.638	-110.216	58.097	113.213	-109.940	-103.502	151.939	226.070	-105.442	-102.283	-101.082	-96.827	67.247	-98.566	-8191	255	
2276.965	1	1	0	0	0.18215	0.060635	0.089879	0.19814	0.057567	0.15224	0.29097	0.21507	0.23307	0.08261	0.19432	0.15551	0.30543	0.1137	0.11495	0.20448	-1.2313	-1.6854	-1.225	-2.0354	-1.4583	-1.2896	-2.0438	-1.2563	-1.6042	-1.7896	-1.0604	-2.0271	-1.4771	-1.3854	-1.9583	-1.2125	112.424	-71.634	79.091	18.064	102.210	171.417	173.930	140.092	201.484	124.244	-49.937	19.328	136.847	-90.195	167.170	77.882	0.00039566	0.00091021	0.00012884	150.1	3.4153e-06	7.8044e-06	244.29	55.917	6.8389e-06	5.1394e-06	105.62	45.991	24.409	10.663	8.4589e-06	20.192	0.0027141	0.0030649	0.00086182	195.58	3.3097e-05	3.4008e-05	279.27	66.675	3.2622e-05	3.3718e-05	129.89	52.016	32.711	12.625	3.3612e-05	22.908	117.471	230.472	110.714	-109.681	-2.995	46.923	-110.251	-103.409	6.122	-102.680	-105.981	-102.634	-101.449	-95.995	61.947	-99.134	-8191	255	
2277.061	1	1	0	0	0.13648	0.11794	0.019143	0.065261	0.14619	0.12693	0.10994	0.12274	0.21145	0.22954	0.075398	0.11771	0.13224	0.13072	0.076095	0.029288	-1.0542	-1.7125	-0.93125	-1.7646	-1.4583	-1.0271	-1.8792	-1.3563	-1.3333	-1.7625	-1	-1.9771	-1.7437	-1.1229	-1.9688	-1.3625	193.633	49.903	-30.633	200.575	209.795	161.394	76.311	225.987	-50.979	27.102	-12.619	-67.321	102.268	59.330	201.039	1.557	0.00033941	0.00067523	0.00018424	149.47	5.9148e-06	7.6726e-06	244.15	56.073	7.9001e-06	8.6442e-06	107.06	45.925	24.961	10.852	6.0612e-06	20.306	0.0026404	0.0030221	0.00084645	196.21	3.2579e-05	3.3542e-05	280.19	67.118	3.2324e-05	3.3624e-05	131.88	52.558	33.196	12.801	3.3252e-05	23.175	114.264	192.785	-74.700	-109.229	182.421	15.936	-110.021	-103.329	217.874	114.558	-105.916	-102.326	-101.695	-96.923	171.396	-99.776	-8191	255	
2277.157	1	1	0	0	0.16266	0.19873	0.15997	0.16342	0.29312	0.32365	0.13319	0.0609	0.046021	0.10808	0.15372	0.1561	0.24035	0.083223	0.11581	0.22445	-1.0521	-1.9042	-0.9625	-1.7687	-1.65	-1.1562	-1.9125	-1.3625	-1.5312	-1.9229	-1.1583	-1.7125	-1.7062	-1.0854	-1.9	-1.5229	-6.354	217.480	184.627	-73.373	-82.151	144.223	69.015	151.844	-3.453	192.160	41.658	190.377	162.658	77.422	58.179	155.283	0.00020865	0.00092543	0.000229	153.64	4.9795e-06	2.8495e-06	248.8	56.767	6.8599e-06	6.7983e-06	108.52	46.221	24.609	10.728	1.4596e-06	20.346	0.0026242	0.0029963	0.00083653	195.97	3.2192e-05	3.3203e-05	282.59	67.201	3.1426e-05	3.3125e-05	131.77	52.678	32.889	12.649	3.2778e-05	23.143	57.503	-69.716	-24.083	-110.039	113.629	207.184	-110.382	-104.038	34.124	-40.270	-106.306	-102.534	-101.402	-96.868	168.973	-99.496	-8191	255	
2277.278	1	1	0	0	0.24369	0.10804	0.24677	0.27611	0.24229	0.29574	0.11284	0.05538	0.39715	0.21378	0.091419	0.04422	0.18192	0.11494	0.076934	0.049	-1.0292	-1.9396	-1.075	-1.7333	-1.8083	-1.1479	-1.8687	-1.5021	-1.1729	-2.0958	-1.2833	-1.65	-1.8104	-0.99375	-1.9167	-1.6521	46.064	99.355	44.480	228.657	69.734	34.036	-50.096	72.135	42.891	196.942	134.581	235.482	51.846	-75.041	171.215	235.675	0.00034399	0.00068712	7.8014e-05	152.82	1.1301e-05	9.0294e-06	247.04	56.099	7.2923e-06	1.3795e-05	107.59	46.883	24.69	10.746	7.2497e-06	20.333	0.0025761	0.0030195	0.00082774	196.01	3.1993e-05	3.2734e-05	282.97	66.989	3.1333e-05	3.3129e-05	131.11	52.822	32.937	12.657	3.2522e-05	23.041	95.996	53.654	123.922	-110.112	30.156	93.077	-111.123	-104.505	-14.886	90.643	-106.678	-102.531	-101.925	-96.567	232.788	-99.554	-8191	255	
2277.374	1	1	0	0	0.16912	0.13367	0.15933	0.20241	0.32078	0.10472	0.27659	0.1912	0.32386	0.11934	0.18838	0.050565	0.14152	0.12856	0.23222	0.23829	-0.75208	-1.9854	-1.1458	-1.4542	-1.8729	-1.1396	-2.0208	-1.4833	-1.1479	-2.0938	-1.1771	-1.525	-1.9979	-1.05	-1.8458	-1.8563	-108.599	98.046	-63.659	35.796	118.551	193.265	189.489	-35.705	147.906	153.678	65.038	126.388	69.622	-80.569	5.940	227.257	0.00029059	0.00034952	0.00017659	153.28	8.6823e-06	7.2391e-06	245.16	56.526	5.8792e-06	8.0205e-06	106.65	45.759	24.436	10.609	1.0696e-05	20.079	0.0025927	0.0030173	0.00082969	195.7	3.1999e-05	3.3137e-05	281.37	66.948	3.1594e-05	3.3435e-05	130.54	52.062	32.826	12.567	3.2587e-05	22.793	104.615	45.581	-75.690	-109.643	-47.482	-8.607	-110.714	-104.542	-39.662	-41.825	-105.918	-102.189	-100.465	-96.708	-108.292	-99.798	-8191	255	
2277.470	1	1	0	0	0.32903	0.16686	0.18018	0.10675	0.12466	0.24584	0.095902	0.19753	0.1221	0.23295	0.11577	0.19387	0.07931	0.21756	0.21326	0.11822	-0.77083	-1.8042	-1.1792	-1.2208	-1.8917	-0.97083	-1.6083	-1.8188	-0.77917	-1.875	-1.3479	-1.2833	-1.9729	-1.2042	-1.4146	-1.825	-40.360	71.089	226.844	148.282	55.887	83.262	-76.009	108.977	-37.233	9.774	172.635	-119.748	-69.924	235.846	-63.298	187.555	0.0003317	0.00092243	9.419e-05	149.88	2.4224e-06	8.793e-06	245.4	56.306	7.3962e-06	6.7651e-06	106.51	46.018	24.538	10.792	7.4029e-06	20.189	0.0025545	0.0029767	0.0008267	194.76	3.201e-05	3.2401e-05	280.21	66.687	3.0996e-05	3.2907e-05	129.68	52.011	32.825	12.602	3.1918e-05	22.958	75.366	-121.773	30.450	-109.929	63.680	93.481	-111.432	-104.921	0.973	120.061	-106.742	-104.064	-102.252	-97.847	37.874	-100.094	-8191	255	
2277.567	1	1	0	0	0.0829	0.12112	0.047892	0.17777	0.1689	0.047091	0.018195	0.19169	0.17494	0.26008	0.096469	0.14714	0.14866	0.10458	0.35271	0.078657	-0.65625	-1.9208	-1.4521	-1.0167	-2.0021	-1.1542	-1.425	-1.8771	-0.99792	-1.8375	-1.4396	-1.1688	-1.9062	-1.3333	-1.4167	-1.7021	-71.713	-57.253	73.700	134.692	33.317	-33.445	50.002	-120.033	118.075	91.484	150.453	172.435	126.530	-43.393	-70.420	87.811	0.00037786	0.00085486	0.00010879	153.13	2.9661e-06	5.1661e-06	245.96	57.056	9.5305e-06	3.7333e-06	108.17	46.533	24.848	10.72	3.4186e-06	20.617	0.0025505	0.0029632	0.00081261	195.39	3.1737e-05	3.2689e-05	280.64	67.191	3.1157e-05	3.287e-05	131.46	52.67	32.917	12.669	3.2182e-05	23.181	116.949	177.725	-94.339	-111.487	115.877	156.588	-111.268	-105.337	-103.903	70.113	-107.421	-103.688	-102.866	-98.220	-80.663	-100.768	-8191	255	
2277.663	1	1	0	0	0.24953	0.10869	0.13587	0.16029	0.17667	0.22373	0.19819	0.17885	0.22356	0.22921	0.057752	0.15326	0.26416	0.19813	0.038088	0.024035	-0.63958	-1.6542	-1.6646	-1.0917	-2.1208	-1.3917	-1.2771	-2	-1.1146	-1.8396	-1.5396	-1.0438	-1.8521	-1.4104	-1.1542	-1.9125	-31.440	28.804	57.854	169.044	-75.575	5.244	178.627	-88.167	44.052	108.124	31.856	211.061	223.978	18.591	-97.117	90.680	0.00046207	0.00041819	0.00022132	151.95	7.1476e-06	6.7408e-06	245.47	55.998	5.9789e-06	5.7867e-06	107.86	46.889	24.988	10.549	6.7255e-06	19.956	0.0025683	0.0029578	0.00081607	195.49	3.1676e-05	3.2101e-05	281.32	67.061	3.1346e-05	3.2516e-05	131.6	52.545	32.859	12.501	3.1766e-05	22.956	150.608	-13.341	-62.840	-111.196	51.907	-45.877	-111.035	-104.815	100.185	28.649	-107.811	-103.282	-101.726	-97.715	213.661	-99.846	-8191	255	
2277.757	1	1	0	0	0.1278	0.056593	0.05099	0.19048	0.37467	0.048313	0.23145	0.30338	0.28034	0.21339	0.22228	0.1433	0.049291	0.098246	0.15454	0.3263	-0.51667	-1.6437	-1.7729	-1.0417	-1.6771	-1.325	-1.2104	-1.8458	-1.0333	-1.5521	-1.8104	-1.0146	-1.7458	-1.5354	-1.0229	-2.1771	1.563	91.993	2.370	20.408	87.509	119.897	124.144	231.786	167.584	48.987	-29.565	193.773	77.774	-3.677	-102.404	180.436	0.00016474	0.00046877	0.00014972	152.23	6.933e-06	3.0361e-06	247.26	56.257	1.4766e-05	4.6009e-06	106.66	46.227	24.481	10.556	5.3264e-06	19.955	0.0024937	0.0029087	0.00080543	194.32	3.1366e-05	3.1668e-05	280.8	66.94	3.0264e-05	3.1839e-05	130.19	52.187	32.608	12.436	3.1434e-05	22.664	134.577	212.292	-121.453	-110.673	91.979	-56.565	-111.890	-105.230	92.800	210.835	-107.276	-103.958	-102.300	-97.925	-107.005	-100.540	-8191	255	
2277.853	1	1	0	0	0.22514	0.21584	0.088452	0.11916	0.022207	0.059923	0.10369	0.22294	0.39599	0.43759	0.26794	0.16657	0.13598	0.031515	0.11845	0.13161	-0.86667	-1.5562	-1.875	-0.96042	-1.8	-1.5688	-1.175	-1.9229	-1.0104	-1.25	-1.9188	-1.0187	-1.7583	-1.6833	-1.0292	-1.9771	90.397	143.865	-21.373	-114.805	-90.361	165.305	48.463	213.896	30.888	125.322	-116.049	-75.453	174.622	-34.729	43.551	0.984	0.00032543	0.00042272	0.00017336	152.1	5.0751e-06	1.5855e-05	242.49	55.422	1.4276e-05	2.7651e-06	104.91	45.429	24.162	10.427	1.2829e-05	19.89	0.0025053	0.0029565	0.0008176	193.69	3.1684e-05	3.2297e-05	278.92	66.305	3.1354e-05	3.2805e-05	129.32	51.599	32.397	12.372	3.1477e-05	22.551	114.172	-70.731	-66.531	-110.636	93.684	49.793	-112.085	-105.485	-6.479	64.582	-107.030	-103.494	-103.146	-97.907	-27.316	-100.539	-8191	255	
2277.974	1	1	0	0	0.12113	0.18476	0.2347	0.289	0.10604	0.18092	0.17935	0.098733	0.30089	0.045694	0.091602	0.18122	0.064903	0.1499	0.052195	0.24108	-0.775	-1.2687	-1.8396	-1.0833	-1.5667	-1.7875	-0.97083	-1.7875	-1.2208	-1.2333	-2.0917	-0.90417	-1.75	-1.7042	-1.0688	-1.975	19.737	-121.905	48.484	55.735	-76.473	60.566	164.606	-18.819	-113.725	-121.990	7.209	149.247	97.070	95.655	6.472	172.008	0.00059082	0.00097327	0.0003019	150.16	6.9703e-06	8.9316e-07	245.21	54.928	4.0386e-06	3.8658e-06	106.62	45.826	24.549	10.44	9.2363e-06	19.951	0.0025247	0.0028888	0.00081917	192.94	3.0985e-05	3.1889e-05	278.79	65.952	3.0631e-05	3.2097e-05	129.22	51.723	32.52	12.362	3.1044e-05	22.624	110.164	-80.136	-12.485	-110.901	169.819	101.479	-111.730	-104.384	213.371	-68.214	-108.044	-103.973	-102.598	-98.145	14.716	-100.726	-8191	255	
2278.070	1	1	0	0	0.049972	0.24827	0.34024	0.17001	0.11398	0.051283	0.086558	0.11522	0.19317	0.095061	0.19333	0.15449	0.13677	0.17479	0.25391	0.10319	-1.05	-1.2604	-2.0563	-1.1729	-1.5729	-1.6958	-1.1104	-1.7604	-1.4625	-0.875	-1.9354	-1.1792	-1.2958	-1.8021	-1.0042	-1.8458	223.553	214.993	9.619	138.654	44.436	223.264	143.657	122.138	229.138	-5.973	-46.648	38.610	136.145	-118.303	23.983	-106.788	0.00034032	0.00058611	0.00013277	151.77	5.0239e-06	5.8888e-06	241.83	56.15	1.2221e-06	5.2298e-06	107.44	46.155	24.581	10.57	1.0022e-05	20.091	0.0024681	0.0028698	0.00080426	192.32	3.0685e-05	3.2247e-05	279.7	66.729	3.0262e-05	3.1896e-05	129.86	52.045	32.514	12.49	3.063e-05	22.746	128.897	-116.719	-69.833	-110.585	-91.529	-48.143	-111.773	-104.488	-58.496	-0.297	-108.047	-104.325	-102.238	-97.661	68.537	-100.557	-8191	255	
2278.166	1	1	0	0	0.24516	0.20192	0.18101	0.26061	0.13481	0.19061	0.064216	0.18296	0.19637	0.16981	0.14092	0.12648	0.20544	0.12894	0.11026	0.084945	-1.0708	-1.0625	-1.8563	-1.0688	-1.4542	-1.8813	-1.0312	-1.7396	-1.6083	-1.1375	-1.8958	-1.25	-1.3	-1.9333	-1.0083	-1.6521	-79.372	156.723	-121.148	128.452	206.897	213.046	52.052	236.950	-76.065	229.888	13.044	168.017	22.812	-100.604	-36.905	-92.455	0.00040284	0.00090404	4.2323e-05	153.12	4.1416e-06	6.5612e-06	247.07	56.482	8.6126e-06	1.1773e-05	108.15	46.178	24.869	10.499	5.5603e-06	20.07	0.002495	0.0028307	0.00080762	193.32	3.0458e-05	3.159e-05	280.76	66.526	3.0194e-05	3.096e-05	130.45	52.228	32.363	12.378	3.0701e-05	22.64	116.278	-85.595	-34.286	-110.943	10.266	179.708	-111.197	-104.921	-66.661	70.831	-107.511	-104.135	-102.278	-97.860	45.746	-100.440	-8191	255	
2278.238	1	1	0	0	0.21137	0.16577	0.23951	0.18527	0.18047	0.072166	0.10158	0.14699	0.16713	0.13934	0.15874	0.14209	0.18922	0.11802	0.094877	0.17739	-1.3958	-1.1396	-1.6125	-1.4542	-1.2437	-2.0979	-1.1542	-1.5167	-1.8083	-1.1208	-2.0187	-1.375	-1.1708	-1.9292	-1.2854	-1.5083	-78.500	131.471	160.832	-23.838	-102.145	198.892	-69.976	48.030	-108.812	89.125	3.053	-19.843	182.666	-57.940	-28.055	106.626	7.3995e-05	0.00063664	0.00013299	152.51	7.6485e-06	2.7118e-06	250.7	56.23	9.0903e-06	1.2457e-05	106.97	46.153	24.622	10.467	8.3777e-06	19.876	0.0024653	0.0028004	0.00079856	193.08	3.0237e-05	3.1947e-05	281.75	66.513	3.0268e-05	3.1245e-05	131.01	52.223	32.469	12.417	3.1225e-05	22.722	216.069	17.857	212.904	-111.637	24.945	140.248	-111.858	-104.577	-71.093	-57.367	-107.674	-103.913	-102.041	-98.645	78.560	-100.140	-8191	255	
2278.358	1	1	0	0	0.099965	0.17286	0.17372	0.11545	0.018322	0.15574	0.19499	0.28799	0.26664	0.43351	0.049871	0.28975	0.26815	0.076749	0.030067	0.16712	-1.5917	-1.1833	-1.9708	-1.4875	-1.1646	-1.9333	-1.3917	-1.5938	-1.7979	-0.95	-1.8	-1.4979	-1.15	-2.0229	-1.0042	-1.4646	-120.547	158.739	93.370	-115.913	-115.218	-8.935	78.496	125.583	218.550	182.131	137.074	133.043	158.411	35.733	-52.788	157.632	0.00014958	0.00051686	4.1946e-05	150.77	1.5546e-07	9.2186e-06	243.79	55.004	6.9586e-06	1.0844e-05	104.32	45.42	24.053	10.326	1.3064e-06	19.682	0.0025316	0.0028965	0.00082171	193.79	3.1206e-05	3.2809e-05	278.62	66.046	3.145e-05	3.2908e-05	129.1	51.581	32.423	12.255	3.1732e-05	22.422	30.627	47.287	117.955	-110.624	-116.998	-117.644	-111.780	-104.308	-25.649	23.980	-107.773	-104.318	-102.103	-97.651	-89.800	-100.395	-8191	255	
2278.455	1	1	0	0	0.12976	0.24199	0.1728	0.26634	0.15885	0.10004	0.043345	0.21891	0.093438	0.23086	0.23431	0.14914	0.22299	0.13758	0.18347	0.078999	-1.4896	-1.0146	-1.7521	-1.55	-1.1812	-1.9125	-1.3146	-1.2125	-1.8729	-1.1	-1.8687	-1.8125	-1.2833	-1.8458	-1.2125	-1.2792	128.854	33.914	-123.005	231.261	-15.283	76.105	225.832	181.826	-40.790	130.852	178.980	155.511	-32.937	84.578	93.858	81.199	0.00025587	0.00042583	0.00011753	151.08	1.3249e-06	8.3228e-07	245.16	55.224	4.7378e-07	3.0199e-06	106.14	45.828	24.442	10.422	7.5345e-06	19.942	0.0026086	0.0029189	0.00083212	192.18	3.1198e-05	3.2965e-05	277.8	65.86	3.0903e-05	3.1771e-05	128.9	51.728	32.131	12.323	3.0485e-05	22.55	127.156	124.453	87.088	-111.199	93.129	83.626	-111.976	-105.229	-28.037	27.112	-107.240	-104.214	-102.634	-98.000	226.322	-100.224	-8191	255	
2278.551	1	1	0	0	0.081964	0.071499	0.1691	0.015912	0.11117	0.29462	0.17894	0.10253	0.056745	0.16342	0.093892	0.11596	0.1134	0.11637	0.10391	0.083615	-1.7208	-1.0021	-1.4937	-1.6021	-1.0458	-1.8104	-1.6208	-1.1458	-1.8229	-1.2188	-1.4833	-1.8083	-1.0958	-1.8292	-1.625	-1.2625	199.805	103.995	-38.743	-13.265	178.932	53.025	217.507	90.958	-93.095	213.473	201.584	-115.158	130.970	207.742	85.269	223.321	0.00029164	7.4762e-05	9.3566e-05	152.3	2.8324e-06	4.4539e-06	246.71	56.367	1.3819e-05	6.9862e-06	108.7	46.313	25.059	10.745	6.9863e-06	20.416	0.002466	0.0028136	0.00078734	193.72	3.0114e-05	3.123e-05	280.79	66.759	2.9954e-05	3.1261e-05	131.19	52.598	32.713	12.612	3.0508e-05	23.062	77.533	-95.908	-31.613	-109.994	-70.209	-109.725	-111.498	-105.257	-44.074	46.163	-107.968	-103.940	-102.396	-98.166	129.240	-100.064	-8191	255	
2278.647	1	1	0	0	0.019325	0.088204	0.1957	0.1301	0.17272	0.10283	0.30961	0.11891	0.167	0.14445	0.14548	0.10307	0.077197	0.27916	0.091627	0.12022	-1.5833	-1.1292	-1.3979	-1.9104	-1.0438	-1.95	-1.5312	-1.1979	-1.9271	-1.2979	-1.4229	-2.0125	-1.1125	-1.85	-1.5167	-1.2583	87.477	-41.992	-110.994	143.665	-41.138	13.187	-70.126	55.603	197.294	140.252	149.572	223.859	84.262	218.163	211.866	55.590	0.00049808	0.00045228	0.00012286	153.82	6.5114e-06	2.6143e-06	250.22	56.455	1.2606e-05	3.4475e-06	108.79	46.922	24.719	10.607	4.9652e-06	20.456	0.0024999	0.0028389	0.00079568	195.26	3.0251e-05	3.1627e-05	284.18	67.014	3.0854e-05	3.1282e-05	131.73	52.819	32.618	12.544	3.1069e-05	23.001	126.116	193.817	33.595	-111.191	-58.082	169.176	-110.719	-104.653	27.309	-113.503	-106.509	-103.872	-101.355	-97.838	110.916	-100.187	-8191	255	
2278.768	1	1	0	0	0.051177	0.063407	0.15408	0.17514	0.18027	0.072778	0.048901	0.1724	0.27207	0.16352	0.12736	0.24199	0.069512	0.24019	0.21842	0.11698	-1.7417	-1.4104	-1.3167	-2.0521	-1.0208	-1.775	-1.6396	-1.1479	-1.7542	-1.3958	-1.2417	-1.8937	-1.0854	-1.6375	-1.8521	-1.0979	42.810	-88.362	72.273	22.627	158.484	111.139	-75.180	-20.903	117.155	167.367	215.270	82.579	219.913	145.986	155.307	54.445	0.00034489	0.00020726	0.00025739	153.02	1.4216e-06	1.2958e-05	247.89	56.4	3.8009e-06	6.8376e-06	109.25	46.469	24.588	10.617	7.9785e-06	20.234	0.0025535	0.0028754	0.00080838	196.4	3.1157e-05	3.251e-05	283.62	66.9	3.1381e-05	3.238e-05	132.04	52.595	32.708	12.512	3.2185e-05	22.934	116.432	-19.829	214.717	-110.157	144.799	-42.709	-111.070	-104.867	183.018	209.978	-107.877	-103.857	-102.599	-97.362	49.482	-100.916	-8191	255	
2278.862	1	1	0	0	0.10082	0.054094	0.16865	0.13033	0.20841	0.40236	0.20212	0.19604	0.073924	0.22659	0.077351	0.26335	0.17028	0.057785	0.1373	0.12223	-1.3833	-1.4896	-1.1979	-1.9562	-1.15	-1.4521	-1.8875	-1.0292	-1.8708	-1.6417	-1.2146	-2.1063	-1.1458	-1.4417	-2.0083	-0.94167	-104.921	172.198	106.128	96.267	27.535	141.895	221.867	-120.786	234.171	187.380	38.395	-89.591	-112.496	-68.058	28.492	102.909	0.00012856	0.00099423	0.0001324	150.45	5.5967e-06	8.7052e-06	244.68	55.077	9.0489e-06	8.5394e-06	106.4	45.723	24.338	10.33	1.6904e-06	19.862	0.0026108	0.0029535	0.00084206	195.22	3.1848e-05	3.3506e-05	280.3	66.342	3.2476e-05	3.3587e-05	130.84	52.149	32.658	12.388	3.3098e-05	22.602	144.290	-38.733	13.890	-111.426	-111.055	76.034	-111.252	-105.641	-24.252	37.613	-107.473	-104.102	-102.228	-97.563	211.931	-100.802	-8191	255	
2278.958	1	1	0	0	0.20074	0.32836	0.041133	0.10037	0.27961	0.22725	0.19942	0.19353	0.11297	0.13355	0.11975	0.063851	0.37396	0.10863	0.34582	0.13961	-1.4042	-1.5917	-1.1083	-1.9188	-1.225	-1.3604	-1.7396	-1.1396	-1.675	-1.5438	-0.94583	-1.8125	-1.0646	-1.3833	-1.8917	-1.0708	57.248	78.870	59.351	-90.821	179.314	223.720	-80.779	-42.957	-97.501	-48.796	-22.620	-75.202	4.464	64.841	132.817	77.493	0.00049254	0.00084822	0.00011413	150.84	1.2305e-05	5.5033e-06	244.09	54.887	1.1308e-05	4.3668e-06	105.17	45.632	24.12	10.295	5.2648e-06	19.819	0.0026708	0.0030135	0.00084339	194.84	3.2262e-05	3.3482e-05	280.6	65.928	3.1903e-05	3.3422e-05	129.19	51.716	32.31	12.306	3.2254e-05	22.491	124.674	98.633	-41.227	-111.135	-60.481	229.950	-111.234	-104.825	120.493	17.684	-107.027	-103.767	-102.241	-97.539	-73.146	-100.901	-8191	255	
#DATA ENDS
