BOXY.EXE: ISS Imagent and Oximeter Data Acquisition Program Version 0.80
Ascii Record File

#ACQ INFORMATION
2  Detector Channels 
16  External MUX Channels 
1  Auxiliary Channels 
5000  Waveform (CCF) Frequency (Hz)
1  Waveforms Skipped 
30  Waveforms Averaged 
1  Cycles Averaged 
16  Acquisitions per Waveform 
10.0806  Updata Rate (Hz) 

#FILE INFORMATION
TRUE -- External MUX Channel results are PARSED.
FALSE -- AC DC and Phase are NOT grouped.
TRUE -- Companion Program Settings File CREATED.
FALSE -- AC data not excluded
FALSE -- DC data not excluded
FALSE -- Phase data not excluded
FALSE -- Auxillary Chn. data not excluded
Tab delimiters

#CALIBRATION STATE
TRUE -- Waveform Calibration Values APPLIED.


#AUX CALIBRATION VALUES
Val Type	aux-1	

Term	1.0000e+00	
Factor	0.0000e+00	


#WF CALIBRATION VALUES
A = Detector Channel
Val Type	A-AC1	A-AC2	A-AC3	A-AC4	A-AC5	A-AC6	A-AC7	A-AC8	A-AC9	A-AC10	A-AC11	A-AC12	A-AC13	A-AC14	A-AC15	A-AC16	A-DC1	A-DC2	A-DC3	A-DC4	A-DC5	A-DC6	A-DC7	A-DC8	A-DC9	A-DC10	A-DC11	A-DC12	A-DC13	A-DC14	A-DC15	A-DC16	A-Ph1	A-Ph2	A-Ph3	A-Ph4	A-Ph5	A-Ph6	A-Ph7	A-Ph8	A-Ph9	A-Ph10	A-Ph11	A-Ph12	A-Ph13	A-Ph14	A-Ph15	A-Ph16	

Term	0.00000e+00	0.00000e+00	0.00000e+00	0.00000e+00	0.00000e+00	0.00000e+00	0.00000e+00	0.00000e+00	0.00000e+00	0.00000e+00	0.00000e+00	0.00000e+00	0.00000e+00	0.00000e+00	0.00000e+00	0.00000e+00	0.00000e+00	0.00000e+00	0.00000e+00	0.00000e+00	0.00000e+00	0.00000e+00	0.00000e+00	0.00000e+00	0.00000e+00	0.00000e+00	0.00000e+00	0.00000e+00	0.00000e+00	0.00000e+00	0.00000e+00	0.00000e+00	0.00000e+00	0.00000e+00	0.00000e+00	0.00000e+00	0.00000e+00	0.00000e+00	0.00000e+00	0.00000e+00	0.00000e+00	0.00000e+00	0.00000e+00	0.00000e+00	0.00000e+00	0.00000e+00	0.00000e+00	0.00000e+00	
Factor	1.00000e+00	1.00000e+00	1.00000e+00	1.00000e+00	1.00000e+00	1.00000e+00	1.00000e+00	1.00000e+00	1.00000e+00	1.00000e+00	1.00000e+00	1.00000e+00	1.00000e+00	1.00000e+00	1.00000e+00	1.00000e+00	1.00000e+00	1.00000e+00	1.00000e+00	1.00000e+00	1.00000e+00	1.00000e+00	1.00000e+00	1.00000e+00	1.00000e+00	1.00000e+00	1.00000e+00	1.00000e+00	1.00000e+00	1.00000e+00	1.00000e+00	1.00000e+00	X	X	X	X	X	X	X	X	X	X	X	X	X	X	X	X	

B = Detector Channel
Val Type	B-AC1	B-AC2	B-AC3	B-AC4	B-AC5	B-AC6	B-AC7	B-AC8	B-AC9	B-AC10	B-AC11	B-AC12	B-AC13	B-AC14	B-AC15	B-AC16	B-DC1	B-DC2	B-DC3	B-DC4	B-DC5	B-DC6	B-DC7	B-DC8	B-DC9	B-DC10	B-DC11	B-DC12	B-DC13	B-DC14	B-DC15	B-DC16	B-Ph1	B-Ph2	B-Ph3	B-Ph4	B-Ph5	B-Ph6	B-Ph7	B-Ph8	B-Ph9	B-Ph10	B-Ph11	B-Ph12	B-Ph13	B-Ph14	B-Ph15	B-Ph16	

Term	0.00000e+00	0.00000e+00	0.00000e+00	0.00000e+00	0.00000e+00	0.00000e+00	0.00000e+00	0.00000e+00	0.00000e+00	0.00000e+00	0.00000e+00	0.00000e+00	0.00000e+00	0.00000e+00	0.00000e+00	0.00000e+00	0.00000e+00	0.00000e+00	0.00000e+00	0.00000e+00	0.00000e+00	0.00000e+00	0.00000e+00	0.00000e+00	0.00000e+00	0.00000e+00	0.00000e+00	0.00000e+00	0.00000e+00	0.00000e+00	0.00000e+00	0.00000e+00	8.11284e+01	-1.20153e+02	-1.26350e+02	-1.81567e+02	-8.84902e+01	-8.40959e+01	-1.56561e+02	-1.62015e+02	-9.69263e+01	-8.38922e+01	-1.71055e+02	-1.71474e+02	-1.84436e+02	-1.76931e+02	-7.91405e+01	-1.49939e+02	
Factor	6.50912e-05	1.46992e-04	3.41674e-05	2.12455e-01	1.30598e-06	1.78741e-06	1.67938e-01	5.12696e-02	2.14687e-06	1.52923e-06	8.73862e-02	3.30830e-02	4.09064e-02	9.26272e-03	1.52222e-06	1.33558e-02	1.62652e-06	1.68806e-06	4.69002e-07	1.07451e-01	1.84094e-08	1.85136e-08	8.01808e-02	2.60849e-02	1.83594e-08	1.85120e-08	4.27707e-02	1.61030e-02	2.01847e-02	4.70032e-03	1.84195e-08	6.52597e-03	X	X	X	X	X	X	X	X	X	X	X	X	X	X	X	X	



#DISTANCE SETTINGS
A = Detector Channel
A-1	A-2	A-3	A-4	A-5	A-6	A-7	A-8	A-9	A-10	A-11	A-12	A-13	A-14	A-15	A-16	

2.5000e+00	3.0000e+00	2.5000e+00	3.0000e+00	2.0000e+00	3.0000e+00	1.5000e+00	3.0000e+00	3.0000e+00	3.0000e+00	3.0000e+00	3.0000e+00	3.0000e+00	3.0000e+00	1.5000e+00	3.0000e+00	

B = Detector Channel
B-1	B-2	B-3	B-4	B-5	B-6	B-7	B-8	B-9	B-10	B-11	B-12	B-13	B-14	B-15	B-16	

1.0000e+01	1.0000e+01	1.0000e+01	1.4400e+00	1.0000e+01	1.0000e+01	1.5100e+00	1.9400e+00	1.0000e+01	1.0000e+01	1.9900e+00	2.4900e+00	2.4100e+00	2.9000e+00	1.0000e+01	2.9800e+00	




#DATA BEGINS
time	group	step	mark	flag	A-AC1	A-AC2	A-AC3	A-AC4	A-AC5	A-AC6	A-AC7	A-AC8	A-AC9	A-AC10	A-AC11	A-AC12	A-AC13	A-AC14	A-AC15	A-AC16	A-DC1	A-DC2	A-DC3	A-DC4	A-DC5	A-DC6	A-DC7	A-DC8	A-DC9	A-DC10	A-DC11	A-DC12	A-DC13	A-DC14	A-DC15	A-DC16	A-Ph1	A-Ph2	A-Ph3	A-Ph4	A-Ph5	A-Ph6	A-Ph7	A-Ph8	A-Ph9	A-Ph10	A-Ph11	A-Ph12	A-Ph13	A-Ph14	A-Ph15	A-Ph16	B-AC1	B-AC2	B-AC3	B-AC4	B-AC5	B-AC6	B-AC7	B-AC8	B-AC9	B-AC10	B-AC11	B-AC12	B-AC13	B-AC14	B-AC15	B-AC16	B-DC1	B-DC2	B-DC3	B-DC4	B-DC5	B-DC6	B-DC7	B-DC8	B-DC9	B-DC10	B-DC11	B-DC12	B-DC13	B-DC14	B-DC15	B-DC16	B-Ph1	B-Ph2	B-Ph3	B-Ph4	B-Ph5	B-Ph6	B-Ph7	B-Ph8	B-Ph9	B-Ph10	B-Ph11	B-Ph12	B-Ph13	B-Ph14	B-Ph15	B-Ph16	aux-1	digaux	

1044.447	1	1	0	256	0.088488	0.20119	0.0068542	0.18279	0.18262	0.23033	0.28233	0.17684	0.080547	0.11112	0.13975	0.22712	0.24303	0.13221	0.16854	0.081441	-2.4708	-2.7271	-2.9854	-2.8646	-2.9542	-2.8729	-2.7979	-3.1542	-2.9167	-2.8167	-3.1271	-2.6083	-2.9354	-3.0438	-2.4688	-3.0896	60.196	44.887	159.580	-81.486	-95.026	107.113	162.509	226.615	10.714	14.402	40.009	229.264	191.531	-85.425	89.388	-64.600	0.00081609	0.00071698	0.00010515	1291.7	3.6868e-07	2.1012e-06	1203.2	371.43	1.6597e-05	2.323e-05	394.22	139.57	130.92	52.639	1.4252e-05	62.788	0.0014764	0.0015113	0.00042321	1272.4	1.6654e-05	1.649e-05	1172	363.35	1.6106e-05	1.6459e-05	396.32	139.49	134.4	52.441	1.5967e-05	62.509	43.387	17.793	86.134	-95.887	224.301	23.073	-97.323	-90.145	7.484	-74.829	-91.982	-87.403	-85.255	-79.186	44.130	-83.200	-8191	255	
1044.543	1	1	0	0	0.35451	0.05331	0.070119	0.28774	0.035367	0.080092	0.11375	0.3159	0.12419	0.10037	0.28273	0.1923	0.13442	0.19814	0.22311	0.23124	-2.2958	-2.6813	-2.9979	-2.7333	-2.5458	-3.0062	-2.725	-3.0563	-2.7333	-2.7458	-3.0812	-2.5812	-2.9104	-2.9042	-2.5104	-2.9604	-81.269	-19.617	-0.026	234.352	-39.125	152.410	194.188	-85.044	247.264	13.254	-106.075	234.317	249.864	-88.438	73.207	175.047	0.0011916	0.00085664	0.00036056	1305.6	4.5754e-06	1.513e-05	1203.5	369.88	4.2198e-06	1.3145e-05	394.86	139.99	130.49	52.813	1.0184e-05	63.418	0.0014345	0.0014822	0.00041997	1272.7	1.6324e-05	1.6296e-05	1169	361.94	1.6025e-05	1.6415e-05	395.69	139.92	134.66	52.745	1.6148e-05	63.194	9.351	12.197	-72.999	-96.028	40.313	56.614	-97.383	-90.288	-104.987	107.948	-91.737	-87.057	-85.388	-79.169	-44.964	-82.984	-8191	255	
1044.664	1	1	0	0	0.13984	0.14318	0.11449	0.21458	0.093958	0.17265	0.22173	0.11004	0.025696	0.32158	0.17817	0.30264	0.14663	0.072298	0.11335	0.16583	-2.475	-2.5979	-3.0333	-2.9292	-2.8229	-3.0417	-2.7917	-3.0458	-2.85	-2.5104	-3.1937	-2.6104	-2.7021	-3.0563	-2.5042	-2.9208	75.372	9.470	234.335	211.895	-37.121	58.635	-73.869	214.993	91.441	-66.725	-35.678	-33.784	218.683	187.750	-47.303	67.268	0.0006438	0.0014266	0.00035698	1299.3	3.1027e-06	3.4258e-06	1210.2	371.05	6.9641e-06	1.5781e-05	398.17	141.8	132.77	53.788	4.549e-06	64.125	0.0014463	0.001486	0.00042246	1271.7	1.6316e-05	1.6567e-05	1172.6	363.84	1.63e-05	1.648e-05	399.27	142.13	136.05	53.469	1.6342e-05	64.102	35.582	-105.612	10.806	-95.883	-70.325	-35.343	-97.671	-90.055	-26.699	-64.946	-92.086	-87.215	-85.246	-79.400	-95.666	-83.000	-8191	255	
1044.760	1	1	0	0	0.13057	0.11535	0.39785	0.2066	0.090435	0.021178	0.3519	0.21574	0.28603	0.23947	0.28137	0.28344	0.17887	0.228	0.30859	0.1043	-2.3979	-2.5854	-3.0146	-2.7687	-2.7083	-3.225	-2.6604	-2.9688	-2.9167	-2.5083	-3.1167	-3	-2.6542	-3.0896	-2.7917	-3.0667	243.060	-29.678	129.003	204.277	140.010	84.164	183.281	146.528	175.892	73.770	236.612	235.988	-24.189	247.034	33.585	-106.532	0.0011173	0.0010889	0.00039888	1310.6	1.3965e-05	5.0167e-06	1220	378.85	1.2924e-05	7.7479e-06	402.04	141.22	134.79	53.77	1.189e-05	63.223	0.0014754	0.0015062	0.00042887	1280.5	1.6588e-05	1.6866e-05	1182.7	368.68	1.6423e-05	1.6839e-05	402.57	142.22	137.34	53.646	1.6725e-05	63.606	42.967	-96.947	-39.114	-95.869	89.691	206.674	-97.051	-90.107	122.814	88.010	-91.952	-87.256	-85.420	-79.616	44.261	-82.954	-8191	255	
1044.856	1	1	0	0	0.2245	0.090605	0.20847	0.21896	0.24027	0.2118	0.10053	0.18356	0.19166	0.18749	0.19532	0.34801	0.12621	0.15127	0.21801	0.30902	-2.5563	-2.5687	-2.875	-2.9	-2.6063	-2.9833	-2.8729	-3.0042	-2.9708	-2.5917	-2.9708	-2.8167	-2.6292	-3.1167	-2.7292	-2.975	51.940	-87.970	-99.373	219.651	183.397	59.521	17.641	173.386	131.307	220.075	235.549	-85.842	-104.749	196.437	71.156	213.640	0.00064797	0.0010407	0.0003636	1311.3	3.2046e-06	1.016e-05	1216.5	375.57	7.0864e-06	1.7684e-05	402.62	141.13	134.68	53.488	4.2203e-06	63.163	0.001504	0.0015359	0.00043658	1282.2	1.6831e-05	1.7031e-05	1183.3	368.71	1.6931e-05	1.6974e-05	404	142.16	138.47	53.346	1.718e-05	63.239	62.042	42.882	232.430	-95.761	82.649	-33.759	-97.346	-90.072	101.245	243.839	-92.097	-87.253	-85.265	-79.292	-56.564	-83.054	-8191	255	
1044.975	1	1	0	0	0.17509	0.1845	0.040416	0.27125	0.069999	0.27252	0.4126	0.15259	0.16561	0.10143	0.10756	0.23274	0.13555	0.28419	0.25547	0.42758	-2.4875	-2.5208	-2.8812	-2.9708	-2.55	-2.9354	-2.9354	-2.9437	-3.0167	-2.7958	-2.975	-2.9458	-2.6833	-3.1833	-2.9021	-2.7896	-96.484	221.143	245.451	225.354	115.140	177.937	198.802	166.592	-61.609	54.770	242.378	130.235	-45.920	-61.892	234.537	207.143	0.00093825	0.00048209	0.00055307	1322.4	8.7198e-06	1.9736e-05	1221.8	379.78	1.5368e-05	1.1707e-05	403.66	142.06	135.16	53.336	1.1812e-05	62.547	0.0015794	0.0015866	0.00045089	1298.1	1.7387e-05	1.7887e-05	1187.7	372.89	1.7706e-05	1.7674e-05	407.84	143.67	139.54	53.493	1.7586e-05	63.215	44.692	-17.269	-45.669	-95.958	29.014	-100.322	-97.345	-90.227	166.192	-35.274	-91.821	-87.382	-85.618	-79.610	-11.051	-82.844	-8191	255	
1045.046	1	1	0	0	0.18074	0.044269	0.23431	0.1077	0.18757	0.23171	0.14793	0.45932	0.1851	0.07581	0.12316	0.13388	0.37942	0.20736	0.21785	0.32804	-2.6521	-2.5792	-2.7792	-2.9604	-2.5875	-2.8833	-2.8833	-2.9417	-2.9833	-2.6312	-2.6875	-3.0479	-2.4521	-2.8708	-2.7604	-2.8646	80.569	-10.550	164.346	-34.842	-26.823	101.709	233.573	208.494	249.324	-87.370	236.839	202.997	200.434	-19.058	177.277	-79.169	0.00068126	0.0014146	0.0003166	1332.9	9.087e-06	1.8089e-05	1238.6	390.06	7.8372e-06	1.64e-05	408.93	143.68	135.23	53.87	5.0297e-06	63.387	0.0016327	0.0016496	0.0004698	1317.4	1.8275e-05	1.8939e-05	1209.1	380.9	1.8873e-05	1.8412e-05	414.8	146.6	141.71	54.094	1.8359e-05	63.823	12.591	-44.423	24.066	-95.781	-101.589	6.701	-97.443	-90.092	40.380	57.883	-91.770	-87.694	-85.606	-79.455	30.370	-83.065	-8191	255	
1045.144	1	1	0	0	0.11348	0.22911	0.060654	0.19998	0.35069	0.15002	0.147	0.43715	0.19775	0.12077	0.14041	0.11647	0.095432	0.21385	0.37729	0.096025	-2.7208	-2.7417	-2.7125	-3.0208	-2.6604	-2.8854	-3.0333	-2.675	-2.9813	-2.7687	-2.9333	-2.8854	-2.6646	-3.0479	-2.8729	-2.8271	149.942	-63.784	209.266	125.575	154.112	171.112	199.901	159.974	145.386	43.640	152.694	70.236	-99.349	203.306	163.410	-101.637	0.0012066	0.00038167	0.0001213	1325.4	2.4394e-06	1.6276e-05	1230.6	385.19	8.4512e-06	9.4228e-06	409.84	144.37	138.7	53.677	2.637e-07	63.307	0.0016781	0.0016799	0.00047138	1307.8	1.8327e-05	1.8719e-05	1201.8	379.56	1.8912e-05	1.8416e-05	415.17	147.05	143.18	54.261	1.8538e-05	63.916	56.551	47.243	113.630	-96.013	-18.388	10.488	-97.268	-89.977	-69.944	-13.494	-92.082	-87.112	-85.322	-79.153	222.946	-83.126	-8191	255	
1045.263	1	1	0	0	0.1884	0.11838	0.09355	0.11643	0.041006	0.090538	0.082348	0.2502	0.070568	0.18935	0.069402	0.22404	0.24757	0.12661	0.12246	0.2985	-2.75	-2.7125	-2.8208	-3.0812	-2.5625	-2.8271	-3.0229	-2.7646	-2.9021	-2.85	-2.7521	-3.1146	-2.5271	-2.9896	-2.9896	-2.625	112.629	-48.031	-70.950	-79.368	195.608	240.676	218.571	-101.574	217.202	-8.139	120.977	-97.778	217.705	-21.151	28.414	174.292	0.00082347	0.0012143	0.00013376	1342	1.0725e-05	5.2142e-06	1240.3	390.61	6.5132e-06	1.7285e-06	414.54	146.34	140.04	54.663	9.5247e-06	64.19	0.0017074	0.001695	0.00047528	1327.4	1.8361e-05	1.8932e-05	1212.4	384.2	1.8845e-05	1.8466e-05	418.75	148.56	145.6	54.853	1.8626e-05	64.697	-2.675	-35.328	-100.716	-95.948	60.699	115.868	-97.383	-90.112	67.236	-2.863	-92.359	-87.225	-86.060	-79.701	135.129	-83.228	-8191	255	
1045.359	1	1	0	0	0.19606	0.20354	0.1604	0.27608	0.2841	0.14796	0.37233	0.11981	0.15712	0.3211	0.19701	0.21832	0.11648	0.39989	0.14331	0.19382	-2.625	-2.8208	-2.6479	-3.1479	-2.7375	-2.8708	-2.9396	-2.5208	-3.0417	-2.7833	-2.6583	-3.0896	-2.8292	-2.725	-2.9625	-2.5375	96.933	-71.596	-16.143	219.185	155.693	-45.780	199.213	205.654	131.790	9.743	150.990	149.215	14.329	215.319	210.853	137.860	0.00098349	0.00096697	0.0002044	1359.6	6.9605e-06	2.0255e-05	1254.8	396.46	1.568e-05	1.3621e-05	419.4	149.07	144.05	54.842	2.0118e-05	63.744	0.0017147	0.001716	0.00048502	1349.7	1.9244e-05	1.9657e-05	1232.1	391.18	1.9983e-05	1.9732e-05	426.79	152.4	149.13	55.33	2.0228e-05	64.805	32.950	-0.461	-40.589	-96.143	51.520	10.506	-97.234	-90.279	-68.890	-28.903	-91.938	-87.466	-85.994	-79.205	38.079	-83.191	-8191	255	
1045.455	1	1	0	0	0.20043	0.15903	0.24254	0.21746	0.15968	0.055923	0.313	0.21921	0.10776	0.22389	0.18767	0.043577	0.24052	0.063334	0.20588	0.062617	-2.4042	-2.7687	-2.6813	-3.0708	-2.5938	-2.7146	-3.2292	-2.7938	-2.8021	-2.8833	-2.4896	-3.025	-2.6125	-2.9313	-3.0083	-2.6604	50.131	105.191	33.632	248.615	177.177	150.783	239.951	207.452	206.165	38.644	190.643	-58.746	217.654	35.663	-39.485	223.137	0.00093365	0.00093575	0.00049745	1367.4	1.554e-05	1.3667e-05	1261.2	399.56	1.8308e-05	3.3963e-06	426.61	150.21	146.09	55.021	5.6869e-06	63.022	0.0018316	0.0018519	0.00051867	1363.7	2.0463e-05	2.0727e-05	1246.1	395.65	2.124e-05	2.1326e-05	434.06	155.38	151.95	55.641	2.1899e-05	64.889	26.356	-0.089	31.253	-96.136	-34.670	16.614	-97.450	-90.046	51.990	-36.625	-92.190	-87.615	-85.601	-79.692	-16.075	-83.089	-8191	255	
1045.576	1	1	0	0	0.21535	0.068779	0.16868	0.237	0.12408	0.14915	0.20449	0.19456	0.14871	0.097038	0.10358	0.20337	0.21758	0.053913	0.095198	0.17323	-2.55	-2.725	-2.5438	-2.9396	-2.775	-2.7271	-3.0833	-2.7479	-2.6667	-2.8896	-2.5125	-3.0104	-2.625	-2.8125	-3.0125	-2.675	55.616	120.845	122.547	-100.243	16.646	11.872	201.128	239.819	141.452	100.635	-69.968	176.863	-57.005	-2.836	141.766	-50.545	0.0009526	0.0021226	0.00019342	1354.5	1.134e-05	1.1672e-05	1254.2	398.22	1.3002e-05	1.012e-05	424.82	151.71	145.07	53.51	1.3704e-05	61.41	0.0019163	0.001967	0.00054158	1355.1	2.1273e-05	2.1379e-05	1244.9	394.52	2.1586e-05	2.182e-05	436.75	156.26	152.89	54.828	2.2392e-05	63.496	37.770	-28.732	-39.347	-96.275	-42.579	29.653	-97.287	-90.019	93.791	-14.527	-91.678	-87.667	-85.900	-79.169	40.104	-82.894	-8191	255	
1045.648	1	1	0	0	0.13636	0.22734	0.07778	0.024986	0.099766	0.19617	0.12816	0.33042	0.19161	0.24438	0.21598	0.037396	0.18913	0.28377	0.20504	0.10933	-2.1937	-2.9104	-2.3438	-3.0979	-2.925	-2.4896	-3.2062	-2.9083	-2.7667	-3.1083	-2.6167	-2.9479	-2.9479	-2.7229	-2.7667	-2.6792	102.855	82.878	30.962	184.436	48.471	-6.590	227.751	190.922	207.548	120.634	-102.213	151.328	200.950	-70.133	76.639	251.137	0.00023696	0.00077586	0.00024021	1371.3	1.3069e-05	1.9594e-05	1266.8	399.26	6.3509e-06	1.4248e-05	424.98	151.17	143.89	52.691	4.8756e-06	59.419	0.0019869	0.0020496	0.00056908	1375.5	2.1972e-05	2.2184e-05	1251.2	397.11	2.2071e-05	2.2555e-05	437.12	156.63	152.51	53.78	2.2597e-05	61.731	-85.252	-38.405	46.268	-96.109	150.558	102.299	-97.556	-90.287	50.557	243.918	-91.991	-88.011	-85.803	-79.221	205.403	-83.274	-8191	255	
1045.744	1	1	0	0	0.28006	0.20881	0.10264	0.14794	0.24194	0.23019	0.25501	0.31474	0.19171	0.18101	0.15732	0.16328	0.16661	0.19606	0.10163	0.1023	-2.2562	-3.0167	-2.4375	-2.9688	-2.7792	-2.5458	-3.0854	-2.7167	-2.5208	-3.0042	-2.6937	-3.0917	-3.0625	-2.5812	-2.8917	-2.9083	45.434	114.216	72.014	249.603	240.910	46.139	187.289	-105.797	225.243	-78.426	217.630	-72.890	148.339	-103.215	98.135	98.017	0.00062915	0.0016621	0.00030829	1379.5	1.0809e-05	2.8511e-05	1267.5	402.54	1.7746e-05	1.3245e-05	425.87	150.45	142.62	51.396	1.2865e-05	58.541	0.0019842	0.0020435	0.00056047	1379	2.1963e-05	2.1788e-05	1258.9	398.04	2.136e-05	2.1896e-05	435.74	154.93	150.95	52.613	2.1447e-05	60.457	34.077	-65.472	53.511	-95.986	226.690	84.635	-97.330	-89.956	-37.028	155.512	-91.886	-87.873	-85.929	-79.432	-85.631	-83.215	-8191	255	
1045.840	1	1	0	0	0.1245	0.25233	0.16107	0.16715	0.1503	0.19092	0.087774	0.20488	0.1912	0.18418	0.01582	0.20225	0.30495	0.3312	0.0707	0.19286	-2.0292	-3.0583	-2.5375	-2.95	-2.6896	-2.4938	-3.2896	-2.8729	-2.6396	-2.7771	-2.6979	-2.9125	-3.0187	-2.65	-2.9917	-2.9875	148.519	230.936	104.137	-23.377	-14.090	224.816	181.954	204.940	-89.871	-65.992	-64.222	-87.004	234.339	-39.350	-25.816	140.108	0.00055186	0.00098914	0.00016056	1382.9	9.6028e-06	1.6059e-05	1265.6	396.53	8.2547e-07	1.8886e-05	422.22	149.21	141.24	50.162	2.935e-06	57.046	0.0018641	0.0019453	0.00052795	1369.7	2.0972e-05	2.0883e-05	1249.9	393.23	2.0663e-05	2.1458e-05	431.03	153.53	149.58	51.35	2.1339e-05	59.2	-0.955	29.295	55.089	-96.187	54.938	-35.943	-97.672	-90.293	249.113	60.572	-92.252	-87.727	-86.114	-79.770	-96.446	-82.843	-8191	255	
1045.959	1	1	0	0	0.13844	0.085274	0.24411	0.24433	0.14678	0.17835	0.10727	0.13868	0.09835	0.0049891	0.091863	0.18471	0.10317	0.11746	0.078008	0.2639	-2.1396	-3.1063	-2.7417	-2.6208	-2.9542	-2.475	-2.9833	-2.9917	-2.6917	-2.9583	-2.7062	-2.8583	-3.1646	-2.5708	-2.8167	-2.9062	113.908	-34.415	-40.551	-85.501	-91.720	-93.140	127.094	171.206	-55.421	187.494	-36.306	135.495	-7.731	243.661	119.419	229.493	0.00042509	0.00073352	0.0004403	1369.8	2.2754e-06	2.1779e-05	1257.5	393.06	1.4293e-05	9.5874e-06	413.58	146.34	138.19	49.332	5.6793e-06	56.128	0.0018488	0.0019469	0.00052246	1364.4	2.1036e-05	2.0918e-05	1239.9	388.4	2.1066e-05	2.1527e-05	424.69	151.29	147.07	50.461	2.1607e-05	58.418	70.287	-80.555	-18.499	-95.939	21.840	26.467	-97.396	-90.323	89.724	-95.961	-92.313	-87.660	-85.630	-79.710	-76.272	-83.093	-8191	255	
1046.055	1	1	0	0	0.07635	0.038371	0.32137	0.027526	0.24538	0.23709	0.13738	0.21714	0.19379	0.12706	0.073285	0.26118	0.18582	0.050547	0.11897	0.19238	-1.9062	-2.9562	-2.7083	-2.9354	-2.9958	-2.6146	-3.0479	-2.9688	-2.4562	-3.1583	-2.8479	-2.6917	-3.1646	-2.8125	-2.6292	-3.2125	212.296	190.643	223.781	-9.758	88.915	7.654	187.246	229.682	-28.396	171.340	59.291	203.619	231.741	107.080	-68.126	146.972	0.0016499	0.0011846	0.000294	1386.6	1.1158e-05	1.4272e-05	1263.2	392.12	2.2557e-05	1.8191e-05	415.25	148.93	141.57	49.402	7.948e-06	56.102	0.0019344	0.0020361	0.00055207	1381.8	2.2279e-05	2.1947e-05	1250.9	391.13	2.1843e-05	2.2702e-05	428.32	152.77	149.93	50.955	2.2125e-05	58.772	51.129	175.739	-56.521	-96.071	46.463	-4.097	-97.321	-90.407	-32.409	6.500	-92.235	-87.599	-85.811	-79.175	38.845	-83.204	-8191	255	
1046.151	1	1	0	0	0.051315	0.37275	0.15729	0.294	0.18079	0.047237	0.28051	0.16818	0.21906	0.33388	0.42187	0.15037	0.0068587	0.10024	0.14277	0.13081	-2.0958	-2.8875	-2.7917	-2.7458	-2.9083	-2.8375	-3.1333	-3.1479	-2.6562	-2.9917	-3.0458	-2.6375	-3.025	-2.7812	-2.7062	-3.1292	110.893	123.134	163.723	126.213	190.235	195.322	202.108	-74.544	193.057	-7.619	159.446	-73.508	0.562	-25.465	-76.798	49.190	0.00093683	0.00048087	0.0004214	1390.6	1.3977e-05	9.5505e-06	1269.1	396.56	6.8912e-06	1.4533e-05	421.07	150.37	144.7	50.752	8.7506e-06	56.717	0.0019393	0.0020348	0.00055767	1384.5	2.2321e-05	2.1752e-05	1256	395.48	2.1984e-05	2.2728e-05	433.71	155.63	154.19	52.133	2.2797e-05	59.454	62.119	174.587	91.336	-96.331	68.775	78.227	-97.494	-90.319	2.518	113.310	-92.429	-87.698	-85.750	-79.703	-31.594	-83.340	-8191	255	
1046.247	1	1	0	0	0.22687	0.11671	0.19083	0.11414	0.050084	0.23246	0.016338	0.16278	0.13638	0.21009	0.042693	0.053199	0.29424	0.14713	0.20519	0.33551	-2.1	-2.6708	-2.6771	-2.6104	-2.8729	-2.7479	-2.9458	-3.1479	-2.4292	-2.9917	-3.0771	-2.6417	-2.9062	-2.9458	-2.7188	-2.9958	54.639	235.917	-85.217	123.223	140.982	120.949	95.515	-92.989	122.790	117.062	211.197	243.589	20.016	136.355	21.429	242.729	0.0013815	0.0011317	3.344e-05	1400.7	1.8232e-05	6.786e-06	1299.1	408.03	3.0743e-05	1.6333e-05	433.68	155.64	151.32	52.717	1.8218e-05	57.571	0.0020243	0.0021373	0.00059972	1411.1	2.4784e-05	2.4801e-05	1295.7	410.36	2.6875e-05	2.8357e-05	459.54	167.39	168.18	56.121	3.1832e-05	64.328	19.178	134.333	169.928	-96.051	52.222	70.905	-96.962	-90.730	-92.234	9.295	-91.846	-87.485	-85.756	-80.280	73.222	-83.942	-8191	255	
1046.344	1	1	0	0	0.09889	0.055693	0.096245	0.26656	0.091962	0.33644	0.26738	0.06034	0.13152	0.028873	0.14979	0.18705	0.073144	0.27424	0.21562	0.31453	-2.3146	-2.8375	-2.7812	-2.7896	-2.9813	-2.8792	-2.8667	-3.1562	-2.4938	-2.8979	-3.0187	-2.6813	-2.8875	-2.775	-2.6417	-3.2	203.048	-31.692	245.371	180.118	91.817	77.955	228.625	137.694	186.449	-90.180	88.206	242.190	248.637	213.001	-89.303	124.100	0.0011339	0.0013199	0.00029442	1450.5	2.2455e-05	1.0413e-05	1328.4	421.45	2.1815e-05	1.0138e-05	443.84	160.39	156.54	56.692	1.7096e-05	60.724	0.0030132	0.0032424	0.00092865	1528.4	3.7985e-05	3.8146e-05	1386.2	440.83	3.7986e-05	3.8216e-05	489.35	178.53	181.72	61.899	4.005e-05	70.388	92.367	70.672	56.391	-96.420	-95.660	-67.404	-97.399	-90.619	63.757	-55.483	-92.487	-88.132	-86.390	-80.633	36.151	-84.833	-8191	255	
1046.440	1	1	0	0	0.13145	0.25913	0.2448	0.024476	0.048316	0.15456	0.16457	0.19954	0.16705	0.13813	0.27072	0.28797	0.24099	0.21598	0.02994	0.15933	-2.2458	-2.5458	-2.8917	-2.7271	-2.9104	-2.8083	-2.7417	-3.2583	-2.5938	-2.7458	-3.0938	-2.6208	-2.9896	-3.1083	-2.6958	-2.975	-9.849	-86.572	56.278	70.163	-44.883	209.453	130.699	229.918	-58.075	110.711	129.432	209.561	3.204	238.814	54.142	66.103	0.00031791	0.0021808	0.00055556	1439.6	5.7192e-06	9.9017e-06	1336.4	431.88	1.1013e-05	2.9968e-05	458.89	170.32	168.84	61.641	1.1919e-05	66.224	0.0038797	0.0042475	0.0012357	1597.5	5.1163e-05	5.216e-05	1461.1	473.95	5.5266e-05	5.6671e-05	551.54	205.14	214.32	71.735	5.9943e-05	82.627	90.198	242.736	24.740	-95.925	-81.215	108.639	-97.471	-90.899	148.019	13.327	-92.561	-88.655	-86.643	-81.520	230.794	-87.247	-8191	255	
1046.536	1	1	0	0	0.21149	0.31561	0.095804	0.26261	0.057312	0.20591	0.12998	0.20134	0.076324	0.17124	0.28933	0.19118	0.1819	0.21634	0.134	0.018223	-2.2562	-2.75	-3.0042	-2.6396	-2.7021	-3.0646	-2.7521	-3.0875	-2.7229	-2.5333	-3.1583	-2.7646	-3.1021	-2.9708	-2.5292	-3.0958	149.694	55.176	189.376	250.815	243.721	35.018	-60.658	188.895	227.174	32.512	225.285	22.428	-76.589	249.876	-58.905	156.956	0.0015603	0.001629	0.00052417	1434.4	3.3036e-05	1.481e-05	1339.6	437.8	2.6284e-05	2.4915e-05	452.48	166.79	166.32	59.957	1.0231e-05	63.666	0.0054273	0.0057113	0.0016242	1675.1	6.5402e-05	6.5327e-05	1508.5	490.63	6.1002e-05	5.8636e-05	546.59	199.62	204.66	67.828	4.7928e-05	74.718	30.369	179.382	3.992	-96.363	10.340	-107.268	-97.639	-90.909	201.439	17.713	-92.657	-88.540	-86.678	-81.687	65.197	-86.774	-8191	255	
1046.656	1	1	0	0	0.15661	0.070098	0.049011	0.093114	0.12583	0.22644	0.25682	0.20331	0.035726	0.15187	0.21189	0.25777	0.26583	0.13725	0.096658	0.22599	-2.4313	-2.7396	-3.0208	-2.95	-2.675	-3.0271	-2.5438	-3.0354	-2.5521	-2.5979	-3.1896	-2.825	-2.8021	-3.0708	-2.5604	-3.0021	-16.128	92.564	13.043	103.812	-28.814	-29.017	205.830	181.889	30.442	27.912	-22.769	-93.193	199.266	73.200	171.516	-92.692	0.00096688	0.0017423	0.00013412	1425	9.5426e-06	2.0546e-05	1328	424.66	2.2219e-05	1.0392e-05	447.64	161.46	159.72	57.409	1.074e-05	58.831	0.0039276	0.0039188	0.0010719	1530.8	3.9226e-05	3.9019e-05	1378.7	442.33	3.6851e-05	3.6966e-05	492.35	178.91	183.82	62.178	3.8823e-05	67.546	21.799	-32.784	244.982	-96.006	150.310	235.198	-97.472	-90.472	100.839	6.683	-92.869	-88.031	-86.116	-81.097	-14.275	-85.517	-8191	255	
1046.753	1	1	0	0	0.15092	0.1587	0.11507	0.22531	0.25285	0.11952	0.071801	0.11758	0.12432	0.22006	0.15151	0.3757	0.11907	0.086143	0.11939	0.04361	-2.375	-2.55	-2.9104	-2.8667	-2.6896	-3.0667	-2.8833	-3.0708	-2.9354	-2.55	-3.1354	-2.9125	-2.6271	-3.0917	-2.6479	-2.95	-1.985	-22.295	213.137	204.345	-88.710	-37.759	152.385	10.965	195.921	208.843	90.927	177.105	213.430	111.667	188.496	79.454	0.0010735	0.00053814	0.00034246	1429.7	4.3329e-06	1.8239e-05	1322.1	420.84	2.8938e-05	2.5894e-06	437.58	156.64	156.75	54.638	7.6352e-06	54.64	0.0034815	0.0034863	0.00096122	1508.6	3.558e-05	3.5387e-05	1358.1	433.07	3.2785e-05	3.2263e-05	474.83	170.7	175.53	58.697	3.3854e-05	62.031	74.088	38.098	57.379	-96.034	238.246	164.659	-97.634	-90.633	-89.089	-56.399	-92.281	-88.473	-86.186	-80.464	199.747	-84.841	-8191	255	
1046.847	1	1	0	0	0.068902	0.068576	0.24334	0.12681	0.15176	0.081386	0.015137	0.32406	0.0884	0.36176	0.16046	0.23744	0.17885	0.1286	0.17496	0.19576	-2.425	-2.3688	-3.0271	-2.8042	-2.5604	-3.1396	-2.5563	-2.8542	-2.9979	-2.6	-3.1771	-2.9188	-2.6021	-3.1854	-2.7021	-2.9458	213.324	-33.691	-30.925	244.829	84.305	213.566	168.693	205.432	224.607	-11.795	143.637	164.821	182.782	90.899	-16.920	141.258	0.00098547	0.0018928	5.501e-05	1416.3	1.5862e-05	1.4303e-05	1320.5	418.88	3.0956e-05	6.2343e-06	437.22	157.1	155.83	54.353	4.3944e-06	52.671	0.0031491	0.0033176	0.00095156	1509.6	3.8811e-05	4.0642e-05	1379.6	441.28	3.9868e-05	3.9031e-05	485.89	174.41	178.1	58.761	3.4315e-05	59.901	0.101	-32.457	159.620	-95.877	-50.944	115.012	-97.631	-90.490	239.407	92.339	-92.433	-88.354	-86.022	-80.710	83.527	-84.775	-8191	255	
1046.945	1	1	0	0	0.052122	0.25672	0.30864	0.045298	0.12814	0.20801	0.40943	0.10332	0.12654	0.09023	0.19948	0.28379	0.070787	0.25873	0.090461	0.19965	-2.5208	-2.4125	-3.1146	-2.875	-2.5479	-2.9396	-2.9146	-2.9104	-2.9938	-2.5229	-3.0563	-3.0875	-2.8104	-3.2313	-2.7062	-2.6646	117.435	224.237	181.642	-36.987	179.208	91.741	157.826	219.335	74.102	66.446	184.548	210.714	-45.164	-94.548	36.725	179.108	0.001475	0.0023076	0.00028513	1413.6	8.37e-06	9.8695e-06	1306.9	420.91	3.2277e-05	1.7676e-05	438.13	156.78	157.12	54.696	1.5575e-05	53.463	0.0030309	0.0030832	0.00086344	1483.6	3.3972e-05	3.5257e-05	1350.2	434.34	3.5683e-05	3.6174e-05	483.97	174.42	180.86	59.537	3.642e-05	61.311	62.072	-51.934	-29.854	-96.014	231.811	59.508	-97.585	-90.498	-10.683	32.920	-92.751	-88.354	-86.714	-80.655	-76.451	-84.895	-8191	255	
1047.039	1	1	0	0	0.027501	0.050867	0.17447	0.16056	0.18068	0.087608	0.075695	0.30671	0.012831	0.30626	0.33039	0.29337	0.18507	0.17994	0.12961	0.11925	-2.6021	-2.5208	-2.7854	-2.9458	-2.6208	-2.9583	-2.8875	-2.7604	-3.0833	-2.6333	-2.9646	-2.9813	-2.6167	-3.1042	-2.6792	-2.6188	108.422	-102.495	-42.301	-96.933	190.585	-34.131	29.860	217.610	160.765	136.851	206.306	235.551	225.262	210.996	50.761	85.400	0.00092024	0.0018591	0.00019607	1406.9	6.6404e-06	1.1958e-05	1317	419	2.0975e-05	9.3692e-06	444.29	157.63	157.37	54.676	6.0191e-06	54.144	0.0031955	0.0032036	0.00088884	1481.4	3.3826e-05	3.4801e-05	1348.8	432.79	3.4689e-05	3.5001e-05	482.67	173.68	179.02	59.856	3.6924e-05	62.618	65.741	100.503	-69.630	-96.043	163.495	-6.323	-97.688	-90.288	240.268	104.971	-92.514	-88.254	-86.286	-80.704	107.185	-84.874	-8191	255	
1047.135	1	1	0	0	0.1697	0.35874	0.16383	0.20602	0.23775	0.083833	0.20019	0.187	0.23205	0.10397	0.31179	0.22137	0.10825	0.30203	0.1677	0.21641	-2.5625	-2.6167	-2.7583	-2.9938	-2.6167	-3	-3.1604	-2.8812	-3.0771	-2.6417	-2.8208	-3.125	-2.4917	-2.9813	-2.9146	-2.6083	-38.033	242.296	-27.409	204.190	64.061	-74.922	190.378	-94.407	14.021	229.997	194.378	132.415	218.338	-102.087	23.370	160.917	0.00077158	0.001122	0.0004594	1410.5	2.0343e-05	2.6944e-05	1320.2	421.41	3.0823e-05	8.1226e-06	444.69	158.73	157.79	55.149	1.5278e-05	53.107	0.0034097	0.0035156	0.00099077	1513.4	3.8873e-05	3.9493e-05	1371.8	440.14	3.806e-05	3.7691e-05	487.44	175.88	179.92	59.917	3.6158e-05	60.916	89.647	-31.869	-74.180	-95.928	-69.668	-91.444	-97.210	-90.312	-17.507	86.089	-92.353	-87.789	-86.103	-80.660	-37.094	-84.139	-8191	255	
1047.256	1	1	0	0	0.18122	0.32457	0.11763	0.27855	0.26299	0.21569	0.085275	0.2396	0.24232	0.13562	0.25037	0.33211	0.048886	0.17427	0.10225	0.3137	-2.525	-2.9417	-2.5833	-3.1708	-2.4792	-2.9042	-3.2958	-2.7208	-2.9271	-2.6646	-2.9042	-3.0021	-2.8167	-3.0125	-2.9979	-2.8917	-22.489	112.504	10.382	184.596	-27.211	47.417	18.777	152.828	130.909	-86.819	215.191	202.161	-99.839	-1.370	157.215	234.009	0.00053909	0.00095669	0.00049656	1413.4	1.9427e-05	1.1795e-05	1314.8	422.53	2.5483e-05	1.8134e-05	441.72	156.16	157.09	54.629	1.4647e-05	52.39	0.0032029	0.0032351	0.00089866	1487.9	3.5196e-05	3.6092e-05	1359.4	437.53	3.7153e-05	3.7294e-05	486.6	174.41	178.65	59.078	3.4938e-05	59.762	79.731	-23.203	-42.423	-95.798	227.650	151.450	-97.383	-90.352	111.766	48.378	-92.138	-87.956	-86.168	-80.753	-79.346	-84.172	-8191	255	
1047.352	1	1	0	0	0.21414	0.058539	0.048547	0.34693	0.12818	0.13612	0.3193	0.12514	0.31172	0.19919	0.31384	0.1164	0.11724	0.19259	0.098239	0.047234	-2.6354	-2.8208	-2.5583	-3.2146	-2.7708	-2.9146	-3.0458	-2.6354	-2.8958	-2.9042	-2.6771	-2.9354	-2.7562	-2.7042	-2.9958	-2.7333	9.116	236.042	30.476	226.947	0.464	-8.195	125.299	234.870	35.533	216.347	-38.132	-54.593	127.684	244.264	97.978	-15.947	0.0010882	0.001057	0.00021028	1417.5	1.4852e-05	1.8571e-05	1313.1	421.01	2.2344e-05	1.1185e-05	437.13	154.13	156.65	53.331	5.569e-06	52.01	0.003004	0.0029681	0.00080785	1467.2	3.068e-05	3.0415e-05	1330.1	426.17	2.9717e-05	2.997e-05	466.89	167.02	172.01	56.56	3.1222e-05	58.123	65.566	-64.893	81.459	-95.870	185.158	-38.924	-97.426	-90.462	-91.065	69.370	-92.084	-87.965	-86.429	-80.174	27.057	-84.037	-8191	255	
1047.448	1	1	0	0	0.094178	0.13746	0.20136	0.29093	0.047181	0.18675	0.054379	0.40208	0.096796	0.25407	0.2027	0.054511	0.056854	0.22024	0.24701	0.098668	-2.5896	-2.7125	-2.4875	-2.9958	-2.625	-2.6333	-3.0812	-2.65	-2.9708	-2.9854	-2.7438	-3.0125	-2.6771	-2.8875	-2.9813	-2.7896	181.032	91.371	-18.547	-97.404	-100.291	195.658	209.786	213.815	-105.192	79.373	-42.740	239.004	211.607	138.465	101.240	165.096	0.0013357	0.002595	0.00032204	1410.8	1.3409e-05	6.9744e-06	1321.9	422.62	1.7322e-05	7.229e-06	441.46	154.03	155.23	52.416	9.7838e-06	50.738	0.0027923	0.0028854	0.00079235	1465.5	3.0238e-05	2.9648e-05	1335.4	426.41	2.8899e-05	2.8793e-05	463.66	164.57	168.3	55.151	2.8172e-05	55.923	42.552	-7.053	192.710	-96.073	-37.701	102.291	-97.445	-90.378	88.960	-101.241	-92.421	-87.766	-85.996	-80.330	78.662	-83.290	-8191	255	
1047.545	1	1	0	0	0.059638	0.2023	0.11413	0.23902	0.040811	0.19472	0.23264	0.46106	0.17469	0.27447	0.11378	0.27031	0.18035	0.17888	0.084446	0.094177	-2.275	-2.9333	-2.5458	-3.1437	-2.8479	-2.5604	-3.4625	-2.7062	-2.9417	-2.9688	-2.5521	-2.9521	-2.825	-2.775	-3.0583	-2.7375	-52.256	86.701	223.262	-106.353	-48.218	202.069	196.668	210.922	249.723	114.754	216.279	176.986	-100.973	-79.198	79.619	-79.473	0.0013528	0.0016406	0.00010945	1421.6	8.1909e-06	1.9699e-05	1323.5	422.06	3.0791e-05	1.2688e-05	441.46	153.24	155.26	52.42	1.5189e-05	50.136	0.0024975	0.002611	0.00072349	1454.7	2.9072e-05	2.9235e-05	1338.4	427.66	2.9312e-05	2.9483e-05	467.06	164.18	168.09	55.11	2.7438e-05	54.79	87.012	20.634	54.432	-95.902	-68.247	-49.088	-97.366	-90.744	-76.190	218.086	-92.263	-87.853	-85.844	-80.438	-28.921	-83.105	-8191	255	
1047.616	1	1	0	0	0.14189	0.019218	0.19654	0.19475	0.14224	0.3297	0.17533	0.18117	0.014423	0.12656	0.14755	0.11817	0.19953	0.11402	0.18657	0.095625	-2.4167	-2.7979	-2.4042	-3.1479	-2.6146	-2.5229	-3.1854	-2.5979	-2.7604	-3.0521	-2.7062	-2.9062	-2.7208	-2.85	-3.1813	-2.7208	135.055	-29.164	103.108	214.722	-68.052	237.422	209.921	185.025	9.108	-10.401	136.726	-98.470	109.560	141.820	101.156	4.726	0.00038031	0.00096292	0.0003336	1407.7	1.035e-05	1.7574e-05	1311.4	417.38	1.0562e-05	1.4365e-05	440.16	153.1	155.27	53.071	1.1965e-05	50.079	0.0023588	0.0024452	0.00066803	1428.4	2.6617e-05	2.6557e-05	1315.7	420.42	2.6811e-05	2.7496e-05	461.47	162.66	167.22	55.214	2.7398e-05	54.929	-33.759	97.246	61.911	-96.071	44.152	58.132	-97.487	-90.439	-46.810	5.727	-92.658	-87.625	-85.682	-80.548	43.448	-83.232	-8191	255	
1047.737	1	1	0	0	0.028421	0.24549	0.074841	0.21461	0.14271	0.27252	0.22591	0.28773	0.13353	0.26921	0.25739	0.12479	0.061589	0.19354	0.064096	0.24617	-2.2542	-2.9562	-2.3479	-2.9083	-2.6396	-2.5792	-3.2313	-2.5917	-2.8521	-2.9333	-2.6396	-2.7917	-2.8937	-2.8479	-2.9354	-2.7875	181.858	1.077	175.694	-30.985	59.202	77.651	131.500	208.982	-53.524	79.965	229.189	239.673	155.963	234.352	52.832	202.448	0.00032026	0.001444	0.0002275	1393.2	8.1841e-06	9.846e-06	1308.3	418.55	4.9035e-06	8.8771e-06	441.37	152.42	154.3	53.295	2.1135e-06	50.071	0.0023655	0.0024551	0.00066123	1419.1	2.5574e-05	2.5285e-05	1306.1	417.89	2.4486e-05	2.5129e-05	456.19	160.62	164.29	55.021	2.4902e-05	54.163	128.412	243.183	-49.383	-95.622	-30.952	-70.690	-97.320	-90.194	13.838	139.862	-92.184	-87.857	-85.650	-79.993	173.839	-82.969	-8191	255	
1047.833	1	1	0	0	0.09365	0.10812	0.10011	0.27809	0.013748	0.15162	0.092688	0.18	0.14223	0.12732	0.2379	0.14977	0.069213	0.35033	0.26626	0.42971	-2.2562	-2.8771	-2.5771	-2.9062	-2.9	-2.5938	-3.125	-2.7833	-2.7375	-2.975	-2.8542	-2.6771	-2.8875	-2.7417	-2.8042	-2.8854	127.040	-88.479	30.820	-96.935	-73.428	-53.779	211.298	234.676	-78.884	-40.435	126.881	33.149	41.082	-22.074	-17.097	-75.586	0.0011721	0.0015424	0.00012883	1399	1.8834e-05	3.575e-05	1310	418.15	1.9051e-05	1.3028e-05	445.84	154.21	153.67	53.593	1.3122e-05	50.429	0.0021671	0.0022994	0.00062177	1414	2.4972e-05	2.4668e-05	1306.8	418.92	2.4529e-05	2.5084e-05	458.45	160.73	163.91	54.988	2.4631e-05	54.241	-0.263	47.516	-44.552	-95.938	-92.895	-3.517	-97.516	-90.419	-64.028	86.658	-92.231	-87.494	-85.814	-80.026	167.333	-82.549	-8191	255	
1047.929	1	1	0	0	0.084142	0.24237	0.047835	0.33673	0.16437	0.2074	0.3902	0.17059	0.10811	0.12555	0.38056	0.094568	0.29591	0.12027	0.21281	0.27922	-2.2167	-2.9188	-2.7917	-2.9083	-2.95	-2.5458	-3.0062	-2.9396	-2.7292	-3.1813	-2.9104	-2.8479	-3.0417	-2.6937	-2.6875	-2.9729	-40.163	181.899	119.569	222.785	160.279	-10.933	196.757	139.686	48.167	40.470	251.171	226.216	-6.526	213.625	91.504	168.224	0.00068996	0.0012787	0.0002375	1398.2	4.5662e-06	3.5908e-05	1313	419.98	1.852e-05	1.1736e-05	443.41	154.88	153.78	53.5	2.0178e-05	49.528	0.0021497	0.0022585	0.0006196	1412.4	2.455e-05	2.4409e-05	1308.5	418.86	2.4175e-05	2.4965e-05	459.72	161.14	164.63	55.121	2.439e-05	53.998	102.024	52.076	-21.413	-96.052	32.575	51.282	-97.147	-90.290	117.855	71.284	-92.662	-87.417	-86.276	-80.054	-61.801	-82.764	-8191	255	
1048.025	1	1	0	0	0.09828	0.078599	0.15572	0.20786	0.14699	0.080653	0.1739	0.42558	0.14599	0.11589	0.15303	0.39677	0.16357	0.23469	0.11247	0.1348	-2.1521	-2.9167	-2.7375	-2.9542	-3.0521	-2.6333	-2.9583	-3.0833	-2.5792	-3.0583	-2.9729	-2.8667	-3.0729	-2.6437	-3.0292	-3.2125	47.902	205.284	206.785	178.957	92.722	133.211	190.192	183.239	4.079	42.321	173.452	245.606	119.393	215.261	45.812	212.267	0.00097609	0.00097722	0.00036215	1398	9.4805e-06	9.9779e-06	1313.2	418.17	1.2613e-05	1.5445e-05	442.47	154.56	153.63	53.254	2.2291e-05	49.83	0.0021359	0.0022457	0.00061498	1406.9	2.4303e-05	2.3987e-05	1302.7	416.85	2.3818e-05	2.4493e-05	456.73	160.03	163.65	54.815	2.4054e-05	53.985	-13.584	-105.049	-56.331	-96.112	79.143	195.271	-97.428	-90.267	0.799	142.639	-92.770	-87.575	-86.110	-80.087	31.654	-83.092	-8191	255	
1048.144	1	1	0	0	0.10624	0.12913	0.12812	0.073255	0.12319	0.16929	0.53925	0.031436	0.26639	0.10776	0.088182	0.12847	0.25042	0.065267	0.18712	0.18278	-2.0708	-3.025	-2.6396	-2.7354	-3.0083	-2.7667	-2.9583	-2.9667	-2.5208	-3.0208	-2.9958	-2.7542	-3.0104	-2.8646	-2.8479	-3.0479	241.280	41.132	-32.472	3.239	199.617	-38.327	180.021	-45.036	167.420	109.795	-76.797	199.220	208.735	144.731	61.656	220.426	0.0011022	0.00053542	0.00019994	1396.7	9.2136e-06	1.168e-05	1310.6	418.9	4.0637e-06	8.3099e-06	441.47	152.9	153.06	53.113	1.2609e-05	50.278	0.0021291	0.0022214	0.00061378	1407.2	2.4191e-05	2.407e-05	1303.2	417.95	2.3779e-05	2.4338e-05	457.57	159.32	163.29	54.865	2.409e-05	54.256	92.932	136.517	39.047	-95.671	-87.846	218.712	-97.233	-90.193	-99.704	133.127	-92.248	-87.823	-85.375	-80.281	-40.896	-82.396	-8191	255	
1048.218	1	1	0	0	0.206	0.070457	0.1763	0.20762	0.14585	0.088176	0.2676	0.25902	0.073744	0.19224	0.34926	0.16076	0.025714	0.063702	0.37871	0.35065	-2.1312	-2.7938	-2.85	-2.6917	-3.0917	-2.6979	-2.8438	-3.0729	-2.5333	-3.0479	-3.0104	-2.5396	-3.0771	-2.8063	-2.6229	-3.0938	37.409	-106.463	144.552	225.598	124.100	59.426	218.090	216.963	132.285	-102.041	160.294	-82.171	63.141	182.696	227.842	180.231	0.00020011	0.001162	0.00040928	1401.2	4.8752e-06	1.4514e-05	1319.2	421.53	6.4423e-06	2.4978e-05	445.38	154.11	155.12	53.924	1.2107e-06	50.83	0.0021383	0.0022322	0.00062294	1415.1	2.454e-05	2.4719e-05	1310.6	421.12	2.4181e-05	2.4945e-05	461.77	161.34	166.33	55.778	2.5407e-05	55.368	115.708	-46.053	-12.966	-95.849	49.719	-4.287	-97.527	-90.062	142.841	117.300	-92.325	-87.897	-85.800	-80.292	-20.534	-82.818	-8191	255	
1048.336	1	1	0	0	0.16403	0.39625	0.028249	0.22595	0.26886	0.23128	0.028332	0.15659	0.068613	0.21964	0.2736	0.24471	0.17842	0.19539	0.16377	0.24823	-2.1021	-2.8917	-2.7667	-2.7021	-2.9292	-2.7521	-2.8063	-3.0833	-2.4854	-2.8583	-3.0021	-2.5354	-2.875	-2.9354	-2.7438	-3.2167	8.850	-69.767	227.188	149.620	-81.179	67.553	48.361	207.180	154.941	71.387	240.919	145.087	-57.233	-81.019	134.224	-77.583	0.00040919	0.0023062	0.00012366	1416.3	1.8839e-05	2.3981e-05	1321.7	423.3	2.9103e-05	1.4128e-05	447.22	154.65	155.64	53.633	2.3063e-05	50.448	0.0022732	0.0023425	0.00066381	1429.6	2.6035e-05	2.587e-05	1321.3	423.67	2.5703e-05	2.5871e-05	465.07	162.61	166.66	55.649	2.5671e-05	55.19	47.894	-38.014	-101.881	-95.891	134.819	53.805	-97.354	-90.341	74.641	4.893	-92.410	-87.859	-86.085	-80.354	-7.415	-82.568	-8191	255	
1048.433	1	1	0	0	0.079622	0.26035	0.2416	0.26043	0.21482	0.26329	0.11488	0.19322	0.387	0.034825	0.25351	0.063632	0.32114	0.0086711	0.15237	0.3025	-2.0687	-2.8042	-3.0354	-2.5667	-3.0625	-2.9688	-2.8479	-3.1188	-2.6979	-2.85	-2.9542	-2.6271	-2.9708	-2.8667	-2.5146	-3.0896	-14.190	197.362	245.590	-108.064	20.810	-61.028	237.561	190.447	247.167	29.108	142.806	212.199	-77.426	243.102	246.114	221.439	0.0007165	0.0015291	0.00039575	1406.1	7.1607e-06	1.7588e-05	1320	422.84	1.731e-05	1.8146e-05	445.27	154.44	154.66	53.689	1.853e-05	50.278	0.0023227	0.0023904	0.00067976	1429.9	2.645e-05	2.676e-05	1317.5	424.75	2.5969e-05	2.6003e-05	463.68	162.1	166.27	55.713	2.5506e-05	54.903	52.001	53.651	-48.707	-95.933	61.184	127.689	-97.641	-90.245	204.944	203.070	-92.057	-87.688	-85.921	-80.130	37.454	-82.811	-8191	255	
1048.529	1	1	0	0	0.16331	0.098838	0.17799	0.17217	0.035556	0.098356	0.39959	0.26975	0.09268	0.15468	0.11439	0.31358	0.06352	0.077856	0.074466	0.12714	-2.5458	-2.7542	-2.9042	-2.8063	-2.9292	-2.9167	-2.7833	-3.2354	-2.9437	-2.8417	-3.0167	-2.9125	-2.9667	-2.9979	-2.5104	-3.0104	-14.541	-29.979	-51.983	226.305	50.156	17.715	239.558	220.076	11.383	165.538	136.795	-80.352	230.016	-94.364	20.666	214.122	0.00038124	0.00094839	0.000199	1413	9.3478e-06	1.1246e-05	1323.9	424.56	4.9243e-05	5.9136e-06	446.05	155.34	155.99	53.692	1.2121e-05	50.29	0.0022764	0.0023102	0.00066033	1428.1	2.5559e-05	2.5841e-05	1320.5	425.07	2.542e-05	2.5722e-05	465.02	162.99	167.31	55.89	2.5612e-05	55.125	2.271	20.906	106.169	-95.832	105.409	35.016	-97.664	-90.490	151.318	34.695	-92.462	-87.925	-86.227	-80.044	72.081	-82.477	-8191	255	
1048.625	1	1	0	0	0.21016	0.10368	0.21308	0.18904	0.062124	0.20905	0.29074	0.10126	0.058552	0.025517	0.25373	0.20085	0.19555	0.1125	0.069563	0.035142	-2.35	-2.7687	-2.9542	-2.6917	-2.9208	-2.95	-2.8	-3.0583	-2.7833	-2.7625	-3.1396	-2.6417	-3.0021	-3.0167	-2.6604	-2.9792	-11.290	81.183	107.551	157.329	-64.381	-3.969	187.088	-91.109	-2.657	171.655	222.818	146.246	171.038	234.331	62.671	-101.477	0.00079272	0.001229	0.00036126	1410.8	3.9921e-06	1.6711e-05	1320.6	422.83	2.0096e-05	1.2431e-05	447.25	154.14	155.48	53.797	7.8997e-06	50.908	0.0022999	0.0023164	0.0006522	1425.5	2.4801e-05	2.4993e-05	1314.2	421.33	2.4106e-05	2.3685e-05	460.12	160.65	164.07	55.521	2.3613e-05	54.795	37.520	109.051	-83.404	-96.109	12.263	95.021	-97.419	-90.120	24.348	68.701	-92.128	-87.691	-85.711	-79.788	20.684	-82.644	-8191	255	
1048.746	1	1	0	0	0.096542	0.35051	0.11553	0.1837	0.057313	0.14767	0.3092	0.40924	0.17695	0.26161	0.030673	0.16582	0.26919	0.27396	0.12162	0.18536	-2.5625	-2.5	-3.0229	-2.8542	-2.6833	-2.9833	-2.9208	-3.1667	-2.8083	-2.825	-3.1583	-2.7729	-2.8521	-3.1646	-2.6146	-2.9021	172.582	-86.604	-69.753	-90.784	26.529	132.957	150.686	207.676	226.443	-9.832	236.744	198.353	137.567	-101.681	210.686	176.611	0.0012004	0.00075458	0.00024947	1428.6	7.0438e-06	2.4567e-05	1327.8	424.49	1.4706e-05	1.1786e-05	448.26	154.64	154.84	53.778	8.6845e-06	50.936	0.0021503	0.0022028	0.00062627	1433.5	2.4441e-05	2.487e-05	1320.2	422.76	2.4306e-05	2.3792e-05	461.85	160.83	163.25	55.28	2.2982e-05	54.462	84.169	38.766	-73.969	-95.925	210.408	119.405	-97.410	-90.287	-54.039	58.281	-92.274	-87.732	-85.775	-80.255	238.439	-82.481	-8191	255	
1048.817	1	1	0	0	0.13535	0.17121	0.099868	0.045486	0.31778	0.11036	0.042982	0.15828	0.2361	0.20106	0.32098	0.11361	0.021509	0.39178	0.1559	0.099516	-2.5208	-2.575	-2.8646	-2.9479	-2.5896	-3.2583	-2.9375	-3.0833	-2.9542	-2.6521	-3.1104	-2.9208	-2.8042	-3.0687	-2.6312	-2.9667	-29.138	36.673	109.424	14.309	7.015	96.685	224.977	232.874	168.655	-59.319	196.696	18.151	-96.700	207.541	233.579	-23.202	0.0012185	0.0018296	0.00019342	1414.7	6.391e-06	1.2738e-05	1328.8	425.09	1.2585e-05	2.0448e-05	447.7	153.68	155.33	53.587	1.4506e-05	50.475	0.0020823	0.002104	0.00059656	1421.3	2.3267e-05	2.3894e-05	1315.8	422.32	2.4185e-05	2.3791e-05	461.11	160.74	164.56	55.342	2.4034e-05	54.47	62.211	34.589	163.710	-96.105	-4.654	242.578	-97.497	-90.422	155.946	152.836	-92.216	-87.352	-86.219	-80.143	88.100	-82.689	-8191	255	
1048.913	1	1	0	0	0.3689	0.11373	0.086302	0.32196	0.17042	0.068369	0.23639	0.36203	0.28562	0.1834	0.16553	0.35259	0.21535	0.25884	0.14255	0.08958	-2.4562	-2.5	-3.0667	-2.8187	-2.7292	-3.2458	-2.8812	-3.1208	-2.9646	-2.6771	-3.025	-2.8083	-2.8688	-3.2646	-2.8417	-2.725	240.954	-99.631	206.854	215.641	-16.822	84.459	207.887	138.649	148.584	-102.376	-105.020	-99.563	225.975	225.052	-51.730	192.038	0.00075894	0.000412	0.0004548	1411.9	7.4179e-06	3.5971e-06	1318.1	422.2	1.3859e-05	1.13e-05	443.7	153.49	156.64	53.72	1.5426e-05	50.856	0.0021443	0.0021475	0.00060355	1421.3	2.3276e-05	2.3748e-05	1311.4	419.81	2.348e-05	2.2971e-05	457.03	159.2	163.46	54.882	2.322e-05	54.544	15.001	83.561	-11.578	-95.712	87.834	177.156	-97.446	-90.270	-104.065	91.659	-92.478	-87.837	-85.968	-80.334	-104.765	-82.337	-8191	255	
1049.034	1	1	0	0	0.27756	0.18655	0.073807	0.081115	0.1964	0.029781	0.056069	0.4026	0.040722	0.25299	0.04778	0.28914	0.17599	0.098869	0.096986	0.1881	-2.6771	-2.475	-2.775	-3.1229	-2.6146	-3.1	-2.9896	-2.7854	-3.0563	-2.7083	-2.85	-3.0125	-2.7687	-3.1146	-3.0187	-2.875	69.802	103.582	146.564	13.248	16.079	-69.240	187.618	214.900	-93.900	245.737	89.832	228.737	190.786	216.145	-76.542	-31.100	6.0976e-05	0.00069333	0.00060571	1412.6	8.7479e-06	3.2659e-06	1331.1	424.8	5.3885e-06	9.7596e-06	445.18	153.8	155.41	53.356	4.3636e-06	51.091	0.0021084	0.0021505	0.0006046	1425.3	2.3336e-05	2.3812e-05	1317.2	422.04	2.3127e-05	2.3191e-05	456.72	158.54	162.28	54.68	2.2667e-05	54.338	63.523	-105.718	-46.681	-95.746	222.442	192.933	-97.279	-90.220	-87.367	74.692	-92.640	-87.899	-85.969	-79.887	172.255	-82.759	-8191	255	
1049.128	1	1	0	0	0.35598	0.026181	0.13835	0.1502	0.18225	0.16857	0.05007	0.27243	0.14032	0.24921	0.14187	0.14622	0.18308	0.2977	0.43631	0.35433	-2.6042	-2.5917	-2.6896	-3.0396	-2.2667	-3.0271	-2.9333	-2.7542	-3.0542	-2.7521	-3.0667	-3.0438	-2.5875	-2.9979	-2.6396	-2.7708	42.194	229.853	206.651	244.075	40.571	95.926	-52.526	117.213	32.344	173.529	-72.678	185.104	-52.119	239.121	-71.188	210.026	0.0005512	0.001269	0.00027019	1424.2	1.1404e-05	2.0591e-06	1333.8	427.15	1.4112e-05	2.7806e-05	446.65	153.06	155.13	53.272	3.2663e-06	50.38	0.0020207	0.0020796	0.00057659	1420.5	2.2788e-05	2.3096e-05	1314.9	421.71	2.3179e-05	2.3123e-05	456.67	159.01	162.74	54.521	2.3023e-05	53.722	57.649	73.534	12.999	-95.971	60.583	5.764	-97.534	-90.503	230.182	38.706	-92.087	-87.855	-85.714	-79.722	145.504	-82.791	-8191	255	
1049.225	1	1	0	0	0.12967	0.15941	0.26049	0.23364	0.339	0.1206	0.22155	0.20796	0.11944	0.16169	0.25042	0.089374	0.1008	0.10163	0.13345	0.14685	-2.6729	-2.6167	-2.8729	-3.1354	-2.5375	-2.8729	-3.0375	-2.8083	-2.8521	-2.7104	-3.0167	-3.1521	-2.6125	-3.1521	-3.0333	-2.7271	-105.857	-23.643	233.624	206.473	-107.279	-18.661	211.952	221.411	-94.907	37.374	-100.855	60.650	247.962	-86.414	170.355	117.956	0.00098018	0.00083416	2.9554e-05	1420.6	2.3029e-06	1.4775e-05	1324.3	420.87	9.3198e-06	9.8404e-06	442.39	152.15	153.42	53.135	4.971e-06	50.2	0.0020182	0.0020572	0.00056245	1418.1	2.1735e-05	2.2255e-05	1300.5	416.58	2.2145e-05	2.2225e-05	450.69	156.79	161.31	54.237	2.2761e-05	53.547	44.950	60.362	-70.850	-96.044	-88.446	213.611	-97.541	-90.431	222.387	83.097	-92.535	-88.009	-85.737	-80.359	-2.420	-82.748	-8191	255	
1049.321	1	1	0	0	0.20979	0.20165	0.094051	0.18716	0.04892	0.10319	0.12769	0.079497	0.018785	0.17842	0.21795	0.23638	0.12383	0.10628	0.12652	0.1203	-2.625	-2.7479	-2.6458	-3.1729	-2.5875	-3.0083	-3.0604	-2.6958	-2.8833	-2.7542	-2.8479	-3.1604	-2.5708	-3.0438	-2.7396	-2.6479	65.157	138.239	-78.705	193.185	-31.530	-29.576	231.131	-59.920	-43.977	-10.448	112.683	131.479	27.546	-100.362	31.048	126.470	0.00095433	0.00075923	0.00025409	1419.1	1.4429e-05	1.067e-05	1312.3	420.21	1.4054e-05	1.0244e-05	439.16	151.02	152.93	53.155	5.7557e-06	49.836	0.0020168	0.0021136	0.00057195	1420.5	2.2478e-05	2.2521e-05	1299.4	416.75	2.2097e-05	2.2428e-05	449.48	156.03	160.93	54.115	2.2428e-05	53.277	80.408	49.511	3.024	-95.935	-31.333	-3.844	-97.477	-90.377	-39.909	-63.437	-92.256	-87.756	-85.756	-79.743	216.837	-82.773	-8191	255	
1049.441	1	1	0	0	0.028334	0.25762	0.22686	0.26311	0.12521	0.079829	0.094259	0.10973	0.16067	0.38965	0.18617	0.32411	0.039205	0.12411	0.029002	0.12881	-2.6396	-2.6292	-2.6771	-3.1125	-2.4208	-2.75	-3.0854	-2.6479	-3.0521	-2.8021	-2.8042	-3.0438	-2.7875	-2.8042	-3.1875	-2.6875	138.566	124.446	135.188	-104.432	90.570	55.021	108.797	-99.330	-94.513	138.603	160.337	247.247	13.489	163.408	-57.780	-14.296	0.00052321	0.0012901	0.00035633	1408.2	9.4405e-06	5.1809e-06	1315.1	421.41	3.8382e-05	1.6802e-05	441.52	152.28	154.42	53.123	1.2282e-05	50.456	0.0019768	0.0020707	0.00056572	1412.2	2.2831e-05	2.2956e-05	1303.8	419.64	2.3249e-05	2.4081e-05	454.9	158.52	163.76	54.637	2.4225e-05	54.254	11.285	105.216	-31.050	-95.815	56.617	47.152	-97.404	-90.181	-47.733	24.319	-92.275	-87.489	-86.164	-80.548	128.315	-82.678	-8191	255	
1049.513	1	1	0	0	0.15199	0.051862	0.14882	0.17181	0.17476	0.076268	0.13878	0.23988	0.22745	0.10121	0.13792	0.14127	0.097709	0.15708	0.30655	0.32896	-2.5083	-2.7938	-2.4708	-3.0312	-2.5917	-2.9479	-3.1708	-2.7333	-2.9333	-2.8812	-2.7396	-3.0625	-2.6396	-2.8396	-3.1417	-2.5646	251.002	45.320	92.412	228.950	110.237	-94.262	169.871	218.412	134.729	110.127	159.030	207.491	-81.481	192.376	101.997	189.419	0.00035121	0.0013898	0.00032645	1415.6	1.0535e-05	1.0971e-05	1318.6	420.16	3.9442e-05	2.2649e-05	442.13	150.79	153.84	53.277	1.7052e-05	50.126	0.0021232	0.0021929	0.00059808	1423.3	2.3477e-05	2.3033e-05	1305.1	418.56	2.2871e-05	2.3421e-05	451.91	157.69	163.13	54.527	2.3862e-05	53.821	38.221	224.361	155.156	-96.096	145.407	239.780	-97.602	-90.643	-67.598	70.741	-92.329	-88.014	-85.761	-80.097	-28.914	-82.953	-8191	255	
1049.609	1	1	0	0	0.11213	0.16685	0.32748	0.21075	0.29177	0.2204	0.36231	0.21687	0.21589	0.19251	0.19647	0.079539	0.20119	0.087967	0.36797	0.14863	-2.4833	-3.1146	-2.625	-3.0375	-2.8063	-2.7542	-3.0104	-2.8375	-2.9208	-3.0625	-2.6104	-2.9729	-2.75	-2.575	-3.0354	-2.7771	-37.312	72.354	-72.458	-94.026	164.581	116.735	153.525	173.092	12.865	120.232	-106.369	243.283	-95.739	243.817	155.619	-63.841	0.00066844	0.00053526	0.00033305	1415.8	1.056e-05	1.0459e-06	1312.3	422.29	1.638e-05	1.9023e-05	439.77	151.72	154.43	52.619	3.4344e-06	49.68	0.0021264	0.0022112	0.00060948	1421.4	2.4003e-05	2.3838e-05	1301	419.84	2.347e-05	2.4027e-05	452.26	157.63	163.63	54.256	2.3884e-05	53.86	42.590	15.348	151.397	-96.035	234.859	59.240	-97.446	-90.254	42.057	65.133	-93.069	-87.898	-86.338	-79.937	212.172	-83.088	-8191	255	
1049.705	1	1	0	0	0.087163	0.13215	0.15636	0.2199	0.29829	0.0024428	0.41605	0.3224	0.11465	0.15383	0.31854	0.28367	0.25531	0.13804	0.11494	0.16589	-2.5146	-2.6875	-2.7208	-3.2354	-2.8063	-2.7354	-3.2208	-2.7208	-2.8229	-3.1771	-2.6646	-3.0708	-2.9771	-2.7125	-3.0896	-2.6667	-22.020	-10.209	208.322	209.344	181.664	-20.116	170.449	192.221	-24.771	244.252	159.787	234.072	247.344	-82.512	43.593	181.328	0.00063428	0.0010289	4.0013e-05	1417.6	1.0929e-05	5.1907e-06	1308.4	422.9	1.2708e-05	4.6088e-06	437.27	152.76	155.23	52.988	1.1389e-05	49.831	0.0021319	0.0022394	0.00062161	1428.4	2.5033e-05	2.5042e-05	1310	423.01	2.5204e-05	2.5544e-05	456.56	160.09	166.29	54.792	2.497e-05	54.311	28.382	-22.070	163.287	-96.087	-17.012	-49.592	-97.659	-90.487	158.649	-87.775	-92.204	-87.854	-85.982	-80.590	13.466	-83.628	-8191	255	
1049.826	1	1	0	0	0.15113	0.18152	0.22908	0.19043	0.2568	0.12167	0.20711	0.2365	0.12071	0.073315	0.30354	0.05138	0.023099	0.10746	0.14486	0.22323	-2.3646	-2.8708	-2.4646	-3.1146	-2.8688	-2.4917	-3.3521	-3.0604	-2.7083	-3.1083	-2.7229	-2.9396	-2.9437	-2.6542	-2.8063	-2.8729	1.203	-36.582	11.681	-28.759	88.665	214.433	202.111	80.885	122.310	143.555	204.904	98.488	-57.925	198.427	45.728	-95.542	0.0012107	0.00069876	0.00035321	1418.8	1.1422e-05	2.525e-05	1316.9	421.61	6.144e-06	3.5091e-05	437.29	154.16	156.16	53.399	8.8855e-06	50.498	0.0021954	0.0022673	0.00063099	1423.2	2.4784e-05	2.4524e-05	1309.4	422.03	2.4234e-05	2.4973e-05	457.5	161.33	167.05	55.239	2.5694e-05	55.468	66.093	239.852	65.775	-95.914	81.636	140.744	-97.646	-90.230	240.194	-89.094	-92.174	-87.872	-86.024	-80.561	3.760	-83.423	-8191	255	
1049.920	1	1	0	0	0.084473	0.15838	0.10465	0.36226	0.22897	0.1068	0.36049	0.25593	0.1272	0.12834	0.022554	0.22821	0.098863	0.14077	0.16912	0.11613	-2.2417	-2.8896	-2.5875	-2.8833	-3.05	-2.5396	-3.0417	-2.7979	-2.6542	-3.025	-2.5979	-2.9208	-2.7938	-2.7208	-2.8812	-2.8833	96.473	149.661	-62.075	-102.071	231.233	15.195	189.398	178.230	-12.048	210.563	57.393	207.707	226.293	-89.680	131.877	222.897	0.00036404	0.0012037	0.0001697	1418.7	3.9823e-06	1.4168e-05	1313	423.62	2.3076e-05	8.3214e-06	442.02	153.91	155.27	53.138	4.2495e-06	49.906	0.0023217	0.0024192	0.00068071	1443.7	2.6508e-05	2.5977e-05	1315	424.83	2.5181e-05	2.5456e-05	459.14	160.28	165.64	54.985	2.4628e-05	54.59	48.588	76.915	172.950	-95.813	151.343	11.793	-97.326	-90.346	-47.979	102.426	-92.385	-88.152	-85.450	-80.394	138.389	-83.124	-8191	255	
1050.018	1	1	0	0	0.05258	0.29543	0.17591	0.16106	0.24254	0.35337	0.22381	0.16628	0.15445	0.34308	0.31528	0.19342	0.30076	0.30934	0.13816	0.14345	-2.2146	-2.9771	-2.6729	-2.7167	-2.9396	-2.5479	-2.9771	-3.0229	-2.3812	-2.9625	-2.9417	-2.8375	-2.9604	-2.7792	-2.8979	-2.8979	135.089	109.437	5.136	169.764	109.245	-31.925	-107.475	231.044	202.159	110.027	-61.054	-93.774	225.474	161.079	128.217	131.260	0.0013496	0.00069135	0.00018183	1412.1	1.1367e-05	5.2773e-06	1313.8	423.36	1.3632e-05	9.0192e-06	441.68	152.57	155.82	53.306	8.5129e-06	49.858	0.0021701	0.0022522	0.00063728	1427	2.4983e-05	2.5149e-05	1309.6	423.35	2.4924e-05	2.5434e-05	459.4	160.2	166.18	54.878	2.4554e-05	54.241	32.215	5.004	-88.948	-96.008	141.920	13.514	-97.525	-90.590	250.268	82.520	-92.460	-88.142	-86.252	-80.321	88.220	-83.541	-8191	255	
1050.114	1	1	0	0	0.1677	0.087344	0.31567	0.22907	0.20877	0.22353	0.091001	0.41025	0.094607	0.22594	0.27483	0.18996	0.21381	0.0288	0.10836	0.12676	-2.0563	-3.0417	-2.625	-2.9229	-3.125	-2.4917	-2.9188	-3.0062	-2.4188	-2.8312	-2.8479	-2.6396	-3.0896	-2.7833	-2.7958	-3.0479	162.816	-67.604	124.498	209.972	-70.096	-68.879	171.735	236.941	229.557	-54.521	233.757	172.363	-78.910	53.499	169.063	209.159	0.00098568	0.00090575	0.0003033	1413.4	1.1509e-05	3.0289e-05	1315.7	422.09	1.6571e-05	2.348e-06	442.27	152.75	155.47	53.205	8.4625e-06	50.791	0.0021229	0.0021948	0.00060933	1418.8	2.349e-05	2.3739e-05	1300.7	419.94	2.3382e-05	2.397e-05	456.71	159.52	165.51	55.025	2.4946e-05	55.191	72.490	207.450	123.742	-95.760	63.980	-30.613	-97.589	-90.346	-7.743	-24.441	-92.231	-87.772	-86.632	-80.592	-70.145	-83.418	-8191	255	
1050.209	1	1	0	0	0.17328	0.33067	0.063373	0.3178	0.18316	0.10016	0.16531	0.17638	0.22654	0.041427	0.41238	0.089454	0.24901	0.048321	0.10872	0.17677	-2.0833	-2.9542	-2.5875	-2.8063	-2.8667	-2.6354	-2.9958	-3.0458	-2.5312	-2.9458	-3.0208	-2.7	-2.9458	-2.6104	-2.8271	-3.1375	-64.622	101.450	110.307	127.059	206.897	-12.697	44.416	203.081	187.202	28.172	195.891	246.264	213.397	226.939	-38.371	248.197	0.00097509	0.0025309	0.00024667	1422.1	1.8945e-05	3.3152e-05	1316.6	425.49	8.5321e-06	1.4587e-05	441.25	153.45	155.4	53.366	7.676e-06	50.563	0.0022677	0.0023666	0.00065798	1436.8	2.5313e-05	2.5461e-05	1314	422.92	2.4218e-05	2.3762e-05	456.06	159.23	163.56	54.748	2.2618e-05	54.097	-4.378	41.655	139.176	-95.876	-2.262	-58.585	-97.275	-90.459	159.002	65.833	-92.915	-88.110	-85.787	-80.245	-4.933	-82.988	-8191	255	
1050.305	1	1	0	0	0.13438	0.12706	0.077313	0.19321	0.062591	0.073183	0.17633	0.2031	0.072932	0.19921	0.08322	0.098823	0.18021	0.38486	0.24752	0.16237	-2.2083	-2.8771	-2.8417	-2.5229	-3.0208	-2.9833	-2.8563	-3.125	-2.6771	-2.975	-3.0229	-2.6458	-3.1125	-2.8521	-2.5375	-2.9771	110.200	155.272	41.863	206.049	243.301	77.708	-45.586	-70.818	59.245	-33.809	23.772	-47.421	-45.086	-103.333	-74.431	193.839	0.00098461	0.0017567	0.00018205	1425.5	9.514e-06	5.6446e-06	1326.4	427.59	2.4563e-05	1.4186e-05	448.07	154.28	157.1	53.904	5.1596e-06	50.914	0.0020351	0.0020947	0.00059242	1427.2	2.324e-05	2.3937e-05	1315.9	424.4	2.4469e-05	2.4812e-05	462.84	161.72	166.34	55.349	2.4095e-05	54.758	22.532	-31.044	-59.244	-96.057	-23.114	145.328	-97.431	-90.467	-22.618	77.902	-92.284	-88.064	-85.879	-80.552	-61.278	-83.520	-8191	255	
1050.426	1	1	0	0	0.18054	0.094515	0.077271	0.042033	0.19964	0.25116	0.27234	0.35392	0.13703	0.11215	0.12801	0.07241	0.33611	0.12292	0.14952	0.17608	-2.2875	-2.7604	-3.0292	-2.6646	-2.9062	-2.6312	-2.9979	-3.1021	-2.7042	-2.8583	-3.0708	-2.6	-3.0354	-3.0958	-2.5563	-3.1271	178.544	4.794	136.460	172.931	56.797	189.208	169.550	235.121	115.546	69.134	174.819	122.947	-71.640	-28.315	124.379	241.732	0.0002359	0.00085503	0.00035362	1421.1	1.6861e-05	2.5172e-05	1323.2	424.86	2.7903e-05	9.8305e-06	442.42	153.93	157.28	53.704	3.0896e-06	50.539	0.0021439	0.0021774	0.00060509	1426.8	2.3285e-05	2.3651e-05	1304.1	420.41	2.3412e-05	2.3038e-05	456.41	159.78	165.05	55.169	2.3812e-05	54.694	221.826	34.033	-64.003	-95.868	0.884	219.873	-97.360	-90.396	56.956	-23.754	-92.462	-88.234	-86.051	-80.578	150.127	-83.204	-8191	255	
1050.522	1	1	0	0	0.13984	0.082624	0.14874	0.0855	0.15773	0.21565	0.21363	0.21977	0.19616	0.12732	0.32536	0.20738	0.017429	0.095308	0.02065	0.044694	-2.2021	-2.6521	-3.1021	-2.7667	-3.0104	-2.95	-2.6521	-3.1792	-2.6896	-2.8812	-3.2042	-2.6542	-2.9521	-2.9813	-2.5687	-3.1063	12.491	195.739	226.381	-86.841	-46.191	172.325	195.041	146.613	224.732	69.197	237.739	216.304	116.055	-47.988	223.616	-43.966	0.0011695	0.0021402	0.00039704	1420.3	9.5409e-06	1.3992e-05	1325	427.35	6.6203e-06	2.2214e-05	445.85	153	157.83	53.846	1.5704e-05	51.164	0.0022164	0.0022675	0.0006434	1444	2.5689e-05	2.6222e-05	1321.7	426.83	2.5527e-05	2.4983e-05	461.22	161.23	166.52	55.635	2.4549e-05	55.077	62.058	-16.278	9.996	-95.700	-38.027	-28.894	-97.401	-90.710	-63.434	-12.461	-91.795	-87.960	-86.159	-80.460	93.030	-83.094	-8191	255	
1050.618	1	1	0	0	0.16016	0.21326	0.27723	0.080221	0.21186	0.12862	0.12673	0.24023	0.2077	0.12397	0.13942	0.14798	0.20367	0.12147	0.1974	0.074289	-2.3896	-2.6125	-2.9417	-2.8292	-2.9646	-2.9667	-2.8063	-3.2687	-2.6292	-2.7167	-3.2792	-2.6375	-2.8646	-3.1792	-2.5479	-3.0438	-96.234	20.799	68.290	-9.854	147.739	83.855	226.143	146.169	24.342	201.309	147.711	174.897	173.409	-65.076	71.547	74.910	0.0010677	0.00051459	0.0001632	1419.8	1.9716e-05	8.3918e-06	1321.3	430.42	1.2179e-05	2.569e-05	448	154.69	157.91	54.082	1.728e-05	51.66	0.0022178	0.0022576	0.00062453	1437.5	2.4752e-05	2.5418e-05	1322.7	428.18	2.5884e-05	2.5644e-05	465.66	163.88	168.99	56.01	2.5612e-05	55.706	62.758	-1.162	124.602	-95.816	34.866	-89.557	-97.445	-90.543	163.569	-21.718	-92.540	-88.168	-85.991	-80.611	7.570	-82.811	-8191	255	
1050.739	1	1	0	0	0.34442	0.11029	0.21684	0.20525	0.127	0.085229	0.32063	0.045324	0.0080183	0.10219	0.1861	0.069916	0.19397	0.1821	0.1004	0.070246	-2.3729	-2.5104	-2.8729	-2.825	-2.8521	-2.9396	-2.6854	-3.0625	-2.7021	-2.6146	-3.0812	-2.7125	-2.8021	-2.85	-2.6354	-2.8396	144.289	60.935	219.185	187.948	-28.654	79.931	173.072	177.252	139.578	174.546	247.636	134.605	8.157	224.636	69.093	-14.805	0.0013652	0.0012954	0.00018447	1429.5	1.4063e-05	8.4793e-06	1331.1	423.44	1.7574e-05	4.7221e-06	445.33	153.28	154.92	53.984	2.6328e-05	50.773	0.0022518	0.0022459	0.00061521	1433.8	2.3284e-05	2.3196e-05	1313	421.08	2.2436e-05	2.2101e-05	456.84	158.69	161.68	54.831	2.1916e-05	53.885	52.810	-56.296	97.811	-96.124	69.978	249.715	-97.674	-90.104	48.434	6.873	-92.066	-87.768	-85.942	-80.179	29.962	-82.153	-8191	255	
1050.810	1	1	0	0	0.12552	0.12806	0.24332	0.24709	0.2417	0.078516	0.24471	0.27662	0.27575	0.243	0.20322	0.20269	0.23535	0.099054	0.20346	0.37836	-2.3563	-2.5312	-3.0625	-2.7979	-2.6521	-2.9813	-3.0083	-3.0604	-2.9292	-2.525	-3.0854	-2.7979	-2.7375	-3.175	-2.6167	-2.9	83.252	13.149	-74.713	-104.795	-94.396	67.254	188.678	-85.359	-75.759	125.047	204.730	-70.000	-104.878	151.643	90.723	-16.849	0.00069913	0.0010005	0.00021699	1426.5	8.7355e-06	1.2377e-05	1327	426.03	2.5314e-05	2.0007e-05	444.16	152.24	156.07	53.764	1.6991e-05	50.899	0.0019817	0.0020089	0.00056263	1423.9	2.2364e-05	2.296e-05	1313.7	423.04	2.3021e-05	2.2987e-05	455.63	158.06	162.19	54.725	2.2422e-05	53.969	21.577	99.204	32.400	-95.864	67.793	12.130	-97.193	-90.545	-42.100	5.783	-92.365	-87.870	-86.164	-80.116	37.881	-82.247	-8191	255	
1050.906	1	1	0	0	0.18621	0.14334	0.20044	0.29262	0.12855	0.073279	0.18321	0.36838	0.10528	0.23938	0.11137	0.28107	0.28283	0.21056	0.082209	0.11941	-2.6271	-2.7271	-2.8604	-2.8021	-2.7542	-3.2792	-2.9708	-2.8771	-2.9562	-2.6813	-3.1	-2.9896	-2.5417	-3.0708	-2.8187	-2.8417	38.175	-4.577	-101.526	197.245	3.809	160.251	163.821	246.006	-66.965	246.957	223.539	208.953	185.966	-31.267	143.285	198.482	0.00029819	0.0005158	0.00045793	1419.8	7.3143e-06	1.0559e-05	1326.7	422.92	1.5858e-05	3.31e-06	446.83	152.93	155.21	53.799	2.5809e-06	51.001	0.0019935	0.0020319	0.00056747	1420.7	2.2173e-05	2.2572e-05	1310.1	421.16	2.2738e-05	2.2934e-05	457.23	159.41	163.95	55.092	2.3725e-05	54.658	62.043	36.250	198.856	-95.898	159.863	59.359	-97.372	-90.409	23.072	-6.025	-92.238	-88.358	-85.804	-79.942	-43.606	-82.946	-8191	255	
1051.001	1	1	0	0	0.33297	0.1849	0.32351	0.2466	0.1477	0.20232	0.077894	0.20954	0.019027	0.12971	0.15275	0.084217	0.23806	0.21222	0.21388	0.10175	-2.3563	-2.3396	-2.9333	-2.9688	-2.6104	-3.2396	-2.8104	-2.9708	-3	-2.6375	-3.1979	-3.1104	-2.65	-3.1458	-2.75	-2.7146	-83.430	-62.340	225.226	218.366	143.688	39.075	87.126	142.033	179.059	12.604	162.471	154.488	62.790	56.094	157.385	42.058	0.00068687	0.0014582	0.00018265	1428.2	2.0314e-05	7.278e-06	1323	425.33	3.1302e-06	1.5229e-05	448.57	153.18	155.66	53.873	1.6085e-05	50.901	0.0020874	0.0021501	0.00058852	1427.3	2.2807e-05	2.2869e-05	1310.7	421.7	2.2126e-05	2.2506e-05	456.16	158.77	162.45	55.099	2.2821e-05	54.546	-15.837	42.275	43.400	-95.968	122.464	-74.695	-97.536	-90.268	26.339	-5.254	-92.198	-87.883	-85.569	-80.128	-58.516	-82.542	-8191	255	
1051.121	1	1	0	0	0.16885	0.11772	0.12693	0.30782	0.18014	0.15412	0.07403	0.32325	0.17245	0.24266	0.14994	0.18858	0.085651	0.07355	0.20228	0.016783	-2.6	-2.7313	-2.9062	-3.0812	-2.6125	-2.9771	-2.85	-2.6625	-2.9771	-2.6146	-2.9375	-3.0521	-2.7	-2.9167	-2.8042	-2.8458	-105.240	53.640	203.021	-102.586	159.721	205.609	155.558	206.574	-78.268	148.303	156.724	176.173	246.043	-104.765	211.712	192.506	0.00079505	0.0026922	0.00037957	1424.8	4.4193e-06	8.0328e-06	1339.3	426.7	2.0061e-05	1.5869e-05	449.85	154.24	156.19	53.721	1.6247e-05	50.782	0.0020214	0.0021257	0.00059192	1431.2	2.3724e-05	2.3957e-05	1326.7	425.45	2.386e-05	2.4312e-05	461.86	160.91	164.62	55.172	2.3676e-05	54.327	65.458	232.340	-37.828	-96.131	53.392	-84.510	-97.576	-90.446	185.407	133.699	-92.294	-87.943	-86.293	-80.201	33.107	-82.558	-8191	255	
1051.218	1	1	0	0	0.12519	0.3699	0.14581	0.43003	0.1158	0.084255	0.22742	0.2453	0.23329	0.34242	0.13738	0.12574	0.082903	0.056564	0.046765	0.14326	-2.5583	-2.6	-2.7771	-3.1188	-2.5271	-3.0458	-3.075	-2.7812	-3.0417	-2.5604	-2.8646	-3.175	-2.6625	-3.0583	-2.9354	-2.6917	81.265	206.945	61.502	184.272	102.292	-68.190	168.018	153.744	225.951	-26.281	235.644	224.686	107.179	174.119	-51.447	177.428	0.00086189	0.00073734	0.00043005	1407.7	2.222e-06	6.826e-06	1317.8	422.89	3.4489e-05	1.037e-05	444.87	152.73	155.31	53.673	9.9035e-06	50.841	0.0020747	0.0021373	0.00059144	1419	2.3168e-05	2.3166e-05	1308.1	419.87	2.2961e-05	2.3667e-05	456.71	158.64	163.9	55.205	2.4319e-05	54.698	53.597	146.258	28.252	-95.896	-34.469	1.307	-97.683	-90.477	32.275	88.263	-92.402	-87.678	-86.064	-80.399	-79.581	-82.765	-8191	255	
1051.314	1	1	0	0	0.0099633	0.16905	0.16975	0.061364	0.12032	0.16712	0.23765	0.19487	0.19789	0.019787	0.12353	0.091405	0.072771	0.19223	0.19613	0.13674	-2.4979	-2.675	-2.8229	-3.2917	-2.7417	-3.0167	-2.9729	-2.5771	-3.2917	-2.9458	-2.8	-2.9479	-2.6646	-2.9229	-2.7396	-2.5979	117.709	241.796	-15.890	231.848	73.441	251.061	194.088	221.532	185.415	50.789	161.350	121.411	166.876	244.385	186.575	-97.100	0.00064095	0.00097237	0.00010415	1413.7	1.1986e-05	1.0637e-05	1329.9	423.61	2.5414e-06	1.3945e-05	443.84	151.73	153.79	53.333	7.4446e-06	50.223	0.0021472	0.0022212	0.00059972	1423.2	2.3409e-05	2.304e-05	1310.1	420.44	2.2259e-05	2.2723e-05	452.69	156.61	161.57	54.505	2.2032e-05	53.59	-6.737	156.741	68.459	-96.070	-42.298	22.786	-97.165	-90.244	96.750	192.564	-92.350	-88.070	-85.774	-80.237	-39.364	-82.943	-8191	255	
1051.385	1	1	0	0	0.3168	0.034703	0.17934	0.20283	0.1792	0.18654	0.42766	0.31741	0.14921	0.15248	0.073514	0.20095	0.34655	0.14404	0.28865	0.12335	-2.4479	-2.5938	-2.6688	-3.2417	-2.5187	-2.7729	-3.1521	-2.6083	-2.9542	-3.0062	-2.7104	-3.125	-2.6875	-2.9917	-2.9958	-2.7042	-20.639	37.129	-19.262	219.058	74.088	237.585	213.627	197.866	59.622	95.632	78.832	-90.343	176.638	-79.185	17.599	251.514	0.00041542	0.001262	0.00043995	1412.2	1.2875e-05	7.4362e-06	1326.8	425.64	2.1408e-05	2.3783e-05	443.86	153.74	155.08	53.607	8.8928e-06	50.865	0.0019602	0.0020628	0.00055793	1417.5	2.2678e-05	2.2532e-05	1313.6	421.81	2.3124e-05	2.4046e-05	458.05	159.65	164.81	55.145	2.3287e-05	54.776	78.180	39.468	-74.858	-95.967	154.498	57.634	-97.442	-90.472	-22.568	112.416	-92.297	-88.006	-85.718	-79.883	145.903	-82.784	-8191	255	
1051.506	1	1	0	0	0.086186	0.11945	0.072902	0.10541	0.067449	0.1144	0.091386	0.30389	0.075073	0.04995	0.15341	0.084692	0.065868	0.12201	0.21886	0.35645	-2.3937	-2.7833	-2.5729	-3.1479	-2.8042	-2.9437	-3.3438	-2.8521	-2.9167	-2.7875	-2.7417	-3.1833	-2.8875	-2.8563	-3.1063	-2.6896	183.841	45.335	46.747	151.629	196.269	-48.462	-55.023	211.018	189.647	148.473	215.231	-95.287	206.057	81.578	101.462	195.670	0.000408	0.0011845	0.00031166	1423.3	1.1766e-05	2.1238e-05	1329.9	426.62	3.0013e-05	3.9074e-06	446.05	154.58	155.84	53.552	1.1207e-05	50.922	0.0020608	0.0021394	0.00057874	1427.5	2.3137e-05	2.2827e-05	1317.5	423.28	2.3065e-05	2.3576e-05	459.09	160.5	165.37	55.13	2.3713e-05	54.894	37.117	61.994	226.882	-95.628	96.005	-7.723	-97.363	-90.305	81.868	165.313	-92.441	-88.285	-85.970	-80.314	90.719	-82.908	-8191	255	
1051.602	1	1	0	0	0.1309	0.062977	0.2538	0.41809	0.29396	0.11552	0.1787	0.37493	0.14355	0.21335	0.2362	0.083779	0.092432	0.098156	0.118	0.17788	-2.5208	-2.6542	-2.4271	-3.0583	-2.7583	-2.8917	-3.2333	-2.8083	-2.7583	-2.7917	-2.7771	-2.9313	-2.8521	-2.8	-3.025	-2.5458	-60.727	108.694	-73.626	210.286	-74.028	180.250	170.527	208.900	126.077	230.194	-85.555	133.792	-80.719	222.900	138.770	189.103	0.00039362	0.00052364	0.00012026	1422.5	1.3974e-05	6.8748e-06	1334	425.02	9.0566e-06	1.5442e-05	445.27	154.25	156.62	53.624	2.7958e-06	50.738	0.0020901	0.0021567	0.00059487	1429.7	2.3355e-05	2.3095e-05	1315.6	422.3	2.3187e-05	2.3564e-05	457.34	159.75	165.38	55.11	2.402e-05	54.883	30.875	-8.768	123.933	-95.960	-12.462	118.769	-97.444	-90.458	155.780	9.993	-92.515	-87.983	-86.143	-80.193	114.890	-82.959	-8191	255	
1051.698	1	1	0	0	0.099467	0.14904	0.21209	0.05975	0.13403	0.34921	0.21956	0.37676	0.042488	0.012491	0.1043	0.20205	0.10375	0.192	0.17175	0.2583	-2.4437	-3.0396	-2.4229	-3.0542	-2.8958	-2.7021	-3.2667	-2.9125	-2.6688	-3.1167	-2.7417	-3.0125	-2.8521	-2.8042	-3.075	-2.8625	9.632	176.621	12.849	211.869	-85.188	-3.149	175.063	-105.426	88.154	135.166	-65.370	-98.448	113.034	232.524	143.232	194.127	0.00080811	0.00291	0.00014292	1431.2	7.4745e-06	7.7419e-06	1321.3	427.9	2.9451e-05	3.1674e-06	445.36	153.5	157.04	53.292	8.3999e-06	50.689	0.0021536	0.0022294	0.0006271	1441.9	2.4967e-05	2.434e-05	1316.5	425.6	2.3788e-05	2.4013e-05	458.21	159.96	164.94	54.867	2.3098e-05	54.39	41.709	-56.316	7.047	-95.943	-106.587	127.298	-97.028	-90.215	-59.296	-65.109	-91.932	-87.898	-85.814	-80.268	129.370	-82.958	-8191	255	
1051.819	1	1	0	0	0.22403	0.18038	0.13756	0.12573	0.36922	0.35822	0.22115	0.24504	0.22321	0.093939	0.13352	0.14627	0.2639	0.13744	0.30456	0.051032	-2.2104	-2.9208	-2.7188	-2.9792	-2.6667	-2.6167	-3.1771	-2.7875	-2.6958	-3.15	-2.9167	-2.825	-3.0042	-2.7438	-2.8917	-2.8917	-55.517	102.065	27.947	-92.490	238.061	112.604	226.290	186.301	-85.700	80.521	248.467	1.402	225.869	233.014	173.859	243.985	0.0015177	0.00092765	0.00025518	1418.6	1.1506e-05	1.3899e-05	1323.7	428.98	1.4907e-05	2.1156e-05	444.55	152.66	155.8	53.091	7.4095e-06	50.551	0.0020542	0.0021404	0.00059864	1431.3	2.3844e-05	2.3854e-05	1317.2	425.39	2.4054e-05	2.4291e-05	459.89	160.35	165.43	54.657	2.339e-05	54.225	68.947	30.820	50.625	-95.890	107.743	109.810	-97.262	-90.451	76.490	-34.144	-92.411	-87.972	-85.853	-80.457	131.800	-82.807	-8191	255	
1051.915	1	1	0	0	0.19566	0.13383	0.15932	0.1176	0.30679	0.17182	0.25935	0.38729	0.22976	0.18081	0.24658	0.037258	0.037168	0.39988	0.14665	0.075017	-2.4437	-2.9333	-2.5125	-3.0396	-2.8792	-2.55	-3.2708	-3.0563	-2.6042	-3.0729	-2.8063	-2.8583	-2.9146	-2.7188	-2.9646	-3.0062	67.889	151.166	-7.510	-90.823	227.774	71.308	173.131	245.003	70.521	-91.996	116.228	13.963	-8.055	214.407	-66.538	25.080	0.0010306	0.00059847	0.00026802	1426	4.6984e-06	9.3279e-06	1328.3	423.62	2.7011e-05	1.6388e-06	441.23	153.04	156	52.876	8.7091e-06	50.557	0.0020278	0.0020716	0.00057797	1422.4	2.2149e-05	2.2313e-05	1303.6	419.7	2.156e-05	2.1916e-05	451.36	157.85	162.89	54.11	2.2519e-05	54.185	60.390	-45.961	8.691	-95.752	238.838	56.750	-97.332	-90.501	1.112	249.276	-92.417	-87.967	-85.884	-80.101	143.942	-83.112	-8191	255	
1051.987	1	1	0	0	0.12564	0.076107	0.18035	0.37308	0.14995	0.12643	0.1327	0.16942	0.15628	0.15734	0.22289	0.11352	0.089128	0.09888	0.29512	0.18737	-2.1625	-3.0229	-2.5583	-2.9938	-2.9958	-2.6917	-3.1875	-3.0771	-2.6354	-3.1333	-2.7188	-2.9083	-3.1188	-2.7375	-3	-2.9313	-26.383	25.038	19.024	219.142	-57.703	-92.535	-95.284	174.726	-57.422	-54.619	199.867	192.982	136.947	-38.170	249.246	5.729	0.00080874	0.00065452	0.00031073	1433	6.2379e-06	2.0897e-05	1320.3	422.99	1.6848e-05	8.7681e-06	437.05	150.37	154.71	51.919	7.5955e-06	49.609	0.0020579	0.0021369	0.00061279	1434.6	2.3498e-05	2.3864e-05	1305.6	420.48	2.2584e-05	2.261e-05	449.32	156.25	161.45	53.196	2.1717e-05	52.849	-3.183	139.062	17.813	-96.129	247.030	21.825	-97.474	-90.455	-66.738	72.922	-92.384	-87.960	-86.319	-80.412	-38.321	-83.130	-8191	255	
1052.106	1	1	0	0	0.30069	0.28117	0.020293	0.2696	0.11302	0.19482	0.38623	0.050444	0.27253	0.063643	0.34609	0.24675	0.21512	0.21609	0.1204	0.12052	-2.0667	-2.8771	-2.7771	-2.9542	-2.9938	-2.7646	-3.1146	-2.975	-2.7875	-3.2021	-2.9688	-2.8688	-3.2292	-2.7938	-2.8292	-3.0646	-62.202	-79.919	-35.697	229.100	230.672	-49.752	167.870	25.427	-2.221	195.018	184.124	99.996	171.490	225.351	203.572	119.672	0.00024164	0.0014575	0.00033525	1417.4	4.1874e-06	3.2269e-05	1312.9	422.07	3.5645e-06	1.7716e-05	439.48	152.93	155.43	52.318	2.1783e-05	50.316	0.0019389	0.0019958	0.00056831	1412.5	2.2081e-05	2.2856e-05	1299.5	418.05	2.292e-05	2.3461e-05	452.43	158.99	164.52	54.433	2.4813e-05	54.634	21.427	74.786	63.830	-96.011	66.024	-23.381	-97.434	-90.443	-67.694	-1.553	-92.366	-88.237	-86.474	-80.539	11.132	-83.105	-8191	255	
1052.202	1	1	0	0	0.10834	0.15217	0.077926	0.14319	0.19655	0.18646	0.16602	0.17089	0.082067	0.12035	0.13572	0.10102	0.15374	0.19482	0.15538	0.11863	-2.2062	-2.9104	-2.8292	-2.8937	-3.1396	-2.6479	-3.0687	-3.1708	-2.6083	-2.9125	-2.9562	-2.7375	-3.1604	-2.8792	-2.7708	-3.1188	-63.937	161.263	121.452	-26.153	18.037	172.154	-107.987	204.998	199.691	27.465	121.174	-48.238	176.540	224.191	129.760	-11.934	0.00085578	0.0011622	0.00068507	1427.7	1.2129e-05	1.3663e-05	1308.3	423.45	1.1193e-05	7.6148e-06	441.54	152.48	155.31	52.796	2.1035e-05	50.469	0.0021998	0.0022234	0.00062545	1430	2.3448e-05	2.4069e-05	1301.4	420.14	2.3496e-05	2.3563e-05	452.77	159.01	164.4	54.503	2.4412e-05	55.008	8.086	-81.987	-46.891	-96.184	175.218	249.778	-97.491	-90.340	100.462	20.614	-92.855	-88.027	-86.278	-80.561	53.464	-83.569	-8191	255	
1052.298	1	1	0	0	0.097409	0.078926	0.15075	0.066583	0.13488	0.17854	0.26586	0.3053	0.2124	0.18228	0.175	0.24505	0.217	0.19078	0.15072	0.18977	-2	-2.8792	-2.925	-2.7021	-3.0312	-2.6896	-2.9521	-3.1292	-2.7313	-2.9208	-2.9458	-2.6271	-3.0646	-2.7021	-2.7687	-3.3063	-92.766	46.525	52.565	-64.996	-81.717	-37.584	243.264	227.315	-10.798	110.254	-102.196	215.442	-90.151	-81.254	157.499	179.439	0.00061444	0.0011372	0.00049133	1433	7.0935e-06	1.9669e-05	1319	427.4	6.3605e-06	2.1942e-05	441.98	153.72	156.57	52.422	1.7051e-06	50.121	0.0022683	0.0023229	0.00065764	1447.6	2.6099e-05	2.6895e-05	1318.5	426.62	2.5727e-05	2.5225e-05	457.7	159.93	165.26	54.041	2.3056e-05	53.63	60.193	5.098	-11.174	-95.893	53.598	13.259	-97.470	-90.187	167.251	-9.000	-92.415	-87.817	-86.013	-80.273	70.624	-83.821	-8191	255	
1052.419	1	1	0	0	0.22802	0.095544	0.12203	0.088389	0.040999	0.16449	0.056238	0.095147	0.097242	0.14409	0.029994	0.24911	0.074342	0.11146	0.26493	0.049243	-2.15	-2.8083	-2.8708	-2.7083	-2.9833	-2.8042	-2.7542	-3.2958	-2.6292	-2.8771	-3.2271	-2.6521	-3.1063	-2.8104	-2.7583	-3.1542	-2.063	152.588	153.164	-92.278	160.099	-87.183	109.415	222.827	-4.111	96.468	244.825	240.652	-78.169	162.904	235.577	179.643	0.00088125	0.0019524	0.00010277	1411.5	1.2989e-05	1.0323e-05	1310.3	423.98	2.4841e-05	1.4202e-06	435.75	152.32	154.69	52.139	9.2658e-06	50.028	0.0020649	0.0020742	0.00058073	1416.6	2.2533e-05	2.3232e-05	1295.6	418.76	2.3589e-05	2.3726e-05	450.38	159.35	164.07	54.055	2.4002e-05	54.038	39.405	33.839	-28.864	-95.924	19.365	-1.628	-97.528	-90.731	6.654	-49.487	-92.273	-88.274	-86.105	-80.542	143.326	-83.542	-8191	255	
1052.515	1	1	0	0	0.25489	0.10679	0.093072	0.10604	0.2139	0.13122	0.11563	0.25418	0.092766	0.15873	0.16112	0.36252	0.11115	0.056343	0.21943	0.054238	-2.1083	-2.9146	-3.0187	-2.8479	-3.0583	-2.8021	-2.6792	-3.1521	-2.6333	-2.8646	-2.9896	-2.7188	-3.1146	-2.9271	-2.6604	-3.1854	-65.614	-63.055	213.935	221.509	-10.934	-73.442	4.187	-63.697	73.624	126.295	-22.284	-96.468	52.983	180.364	97.115	250.544	0.00017971	0.0011799	0.00010981	1415.9	1.2701e-05	1.1708e-05	1301.2	421.33	1.5941e-05	1.8528e-05	437.21	151.86	156.2	52.413	2.4209e-05	50.423	0.0021517	0.0021471	0.00059557	1421.3	2.2867e-05	2.2898e-05	1291.5	417.43	2.2398e-05	2.2352e-05	447.86	157.58	162.64	53.972	2.2789e-05	53.732	58.410	107.694	49.103	-95.830	-26.481	125.621	-97.447	-90.568	193.494	154.287	-92.324	-88.020	-85.650	-80.129	14.231	-83.248	-8191	255	
1052.611	1	1	0	0	0.098703	0.037894	0.097395	0.25784	0.18016	0.10868	0.2646	0.15344	0.095055	0.09431	0.26207	0.10709	0.12917	0.28093	0.079479	0.25687	-2.3688	-2.6396	-3.0812	-2.8375	-2.9188	-2.8812	-2.7917	-3.1542	-2.7604	-2.7896	-3.1125	-2.8146	-2.9521	-2.95	-2.6375	-3.1771	182.080	140.748	22.719	-96.086	117.314	-43.683	250.697	217.464	250.336	120.239	228.921	179.749	201.411	193.120	51.902	-92.298	0.0011696	0.0013368	0.00032244	1427.8	1.229e-05	4.3525e-06	1317.5	423.71	1.6581e-05	1.0513e-05	437.65	151.53	155.15	52.602	1.2815e-05	49.584	0.0021159	0.0021463	0.00060753	1438.3	2.4494e-05	2.4656e-05	1306	421.68	2.3581e-05	2.2668e-05	447.95	156.42	161.25	53.346	2.1342e-05	52.556	40.474	-50.813	41.567	-95.800	84.300	-98.818	-97.409	-90.419	16.004	139.102	-92.324	-87.718	-85.897	-80.267	17.278	-82.713	-8191	255	
1052.682	1	1	0	0	0.088217	0.096742	0.04578	0.35537	0.033824	0.16345	0.20331	0.23329	0.04706	0.1368	0.23184	0.1083	0.1456	0.1402	0.14803	0.08189	-2.3729	-2.6021	-2.8812	-2.8438	-2.8063	-3.0333	-2.8125	-3.1854	-2.8312	-2.6875	-3.0771	-2.5958	-2.8896	-2.9292	-2.5604	-3.1271	170.425	98.554	191.738	221.042	243.666	-17.649	182.649	251.063	44.035	116.679	141.938	226.458	240.284	181.562	-95.377	240.073	0.0010353	0.00096058	0.00058033	1418.7	5.924e-06	1.0532e-06	1316.5	422.64	3.7009e-05	1.2715e-05	440.23	151.47	153.37	52.574	4.9591e-06	49.624	0.0019145	0.0019063	0.0005323	1408.4	2.0744e-05	2.1058e-05	1296.2	416.32	2.1555e-05	2.1623e-05	449.01	155.98	159.62	53.356	2.083e-05	52.628	52.730	26.924	6.929	-96.206	180.209	195.014	-97.379	-90.297	174.240	-90.686	-92.573	-88.210	-85.759	-80.046	214.335	-82.784	-8191	255	
1052.803	1	1	0	0	0.17457	0.127	0.19108	0.034506	0.042358	0.28869	0.35336	0.15075	0.12538	0.31929	0.18308	0.28672	0.33804	0.24609	0.18546	0.25288	-2.325	-2.5771	-3.0958	-2.6979	-2.8792	-2.9458	-2.5062	-3.0667	-2.8688	-2.5042	-3.175	-2.875	-2.9292	-3.1333	-2.6625	-2.8958	46.302	68.641	202.632	-24.856	18.645	133.814	88.392	192.032	-26.587	-37.837	-9.630	200.871	-81.878	234.149	74.049	178.588	0.00067582	0.00065199	6.2951e-05	1419.6	1.3568e-05	8.3633e-06	1312.3	426.23	1.3031e-05	1.2726e-05	441.74	152.91	154.94	52.794	1.9795e-05	50.248	0.0018666	0.0019048	0.00053254	1417.7	2.1954e-05	2.2452e-05	1307.9	423.11	2.3674e-05	2.4073e-05	455.69	159.58	164.73	54.498	2.4896e-05	54.512	117.022	222.633	98.672	-96.132	224.604	-84.760	-97.389	-90.378	-31.491	66.747	-92.259	-87.917	-85.550	-80.136	-40.583	-83.093	-8191	255	
1052.898	1	1	0	0	0.22049	0.13847	0.024967	0.21196	0.18587	0.20657	0.19997	0.2945	0.11815	0.17959	0.09564	0.13167	0.27492	0.23479	0.1615	0.17932	-2.3125	-2.5979	-2.8438	-2.8375	-2.6562	-3.2062	-2.8438	-2.9271	-2.9042	-2.5396	-2.8667	-2.8396	-2.6896	-3.1708	-2.4875	-2.8875	-99.340	187.505	-50.804	153.088	-33.960	76.811	234.259	-95.317	-56.475	-75.342	-27.764	191.164	206.594	-40.092	-97.204	211.815	0.00063113	0.00044229	0.00039462	1429.2	1.8261e-05	1.4899e-05	1320.9	422.3	5.6547e-06	9.6637e-06	437.4	148.43	152.2	52.73	8.8959e-06	50.137	0.0022084	0.0022521	0.0006078	1432	2.2723e-05	2.223e-05	1299.9	415.75	2.0948e-05	2.1079e-05	443.67	153.2	157.11	53.348	2.0168e-05	52.405	13.904	63.699	11.769	-95.739	46.489	-59.073	-97.761	-90.622	224.964	-8.456	-92.377	-87.786	-85.966	-79.996	2.707	-82.342	-8191	255	
1052.994	1	1	0	0	0.18643	0.22551	0.19788	0.13896	0.18757	0.039139	0.24929	0.3793	0.1236	0.26182	0.13367	0.085659	0.21911	0.088672	0.020221	0.1602	-2.7188	-2.4333	-2.9729	-2.9813	-2.7458	-2.9562	-2.7646	-2.8604	-3.0917	-2.6083	-3.2021	-2.9396	-2.6458	-3.1813	-2.6312	-2.8854	239.282	-16.674	247.162	-30.011	38.091	37.829	242.718	229.162	-8.295	95.007	215.129	212.017	154.431	205.876	208.612	155.335	0.00073114	0.00089527	0.00021818	1404.4	9.5227e-06	8.0282e-06	1315.7	420.58	4.3231e-06	7.9114e-06	439.29	150.61	152.09	52.768	9.0428e-06	50.425	0.0017506	0.0018233	0.0005007	1396.8	1.9927e-05	2.0038e-05	1295.9	414.23	2.0498e-05	2.1254e-05	446.66	154.1	157.84	53.606	2.0633e-05	52.779	96.521	-28.066	-30.015	-96.040	6.090	-94.170	-97.120	-90.187	-104.936	108.538	-92.629	-87.589	-85.877	-80.236	115.204	-82.164	-8191	255	
1053.090	1	1	0	0	0.11038	0.033859	0.19987	0.28624	0.10084	0.2291	0.33907	0.17407	0.10405	0.084311	0.11354	0.21977	0.22082	0.14282	0.26746	0.12164	-2.6	-2.5083	-2.7458	-2.9604	-2.6958	-2.8708	-2.8875	-2.7708	-2.9875	-2.5583	-2.9688	-2.9604	-2.55	-3.1063	-2.7	-2.8646	18.603	185.164	173.184	179.488	-88.797	-35.949	207.409	236.856	156.359	-56.856	239.474	224.983	-96.412	229.362	-74.022	103.025	0.00082363	0.00082505	0.00029539	1403.3	3.2468e-06	1.5273e-05	1316.9	418.1	2.6511e-06	5.3589e-06	441.68	150.05	152.8	53.55	8.588e-06	50.842	0.0017517	0.0018423	0.00049293	1387.6	1.9465e-05	1.9239e-05	1287.8	409.02	1.8921e-05	1.9554e-05	444.08	152.61	156.93	53.979	1.9891e-05	53.151	8.196	70.822	205.833	-95.971	200.238	31.555	-97.313	-90.046	86.482	58.047	-92.562	-87.699	-85.808	-79.897	75.006	-82.085	-8191	255	
1053.186	1	1	0	0	0.13145	0.13675	0.057918	0.39123	0.13068	0.24639	0.30209	0.2301	0.17596	0.080106	0.25336	0.14368	0.27104	0.15493	0.13996	0.11166	-2.7208	-2.5292	-2.7729	-2.8833	-2.5792	-2.9271	-2.9458	-2.7792	-2.8979	-2.5417	-2.8375	-2.7917	-2.4562	-2.9125	-2.8104	-2.5521	126.606	125.367	250.173	230.425	242.394	136.626	109.380	230.094	189.202	174.993	-69.952	174.231	215.292	167.793	21.438	248.237	0.00020123	0.00084783	0.0002563	1420.2	9.593e-06	1.0825e-05	1317.7	421.32	2.6695e-05	3.9045e-06	440.99	150.62	152.04	53.809	1.1722e-05	49.972	0.0017638	0.0018763	0.00051321	1408.3	2.0615e-05	2.0364e-05	1293.1	413.04	1.9736e-05	2.0212e-05	444.02	153.08	156.91	54.074	1.9758e-05	52.53	-82.863	7.933	-85.418	-95.903	191.761	-86.558	-97.655	-90.190	78.733	200.109	-92.440	-87.781	-85.493	-79.905	-16.681	-82.567	-8191	255	
1053.282	1	1	0	0	0.16757	0.33172	0.092246	0.18819	0.18882	0.081227	0.096213	0.17474	0.14786	0.17521	0.16335	0.31016	0.37049	0.07924	0.23871	0.084635	-2.4021	-2.4604	-2.7792	-3.1021	-2.5563	-3.0479	-3.0917	-2.7583	-3.0042	-2.8354	-2.7792	-3.2021	-2.5458	-3.0438	-2.9208	-2.5958	76.508	43.358	112.817	178.610	157.298	95.413	194.245	214.530	192.269	146.303	-94.761	142.890	-88.536	-8.826	189.002	-95.192	0.00069378	0.0018399	0.00052759	1406.6	1.8034e-05	1.0609e-05	1326.8	422.02	2.775e-06	1.0114e-05	443.91	151.58	154.11	53.795	7.1635e-06	49.832	0.0017306	0.0018445	0.00049826	1391.1	2.0054e-05	1.9928e-05	1294.5	415	2.0189e-05	2.0928e-05	450.2	155.82	159.71	54.571	2.0525e-05	52.703	-1.881	85.370	-69.554	-95.966	25.405	48.292	-97.209	-90.252	203.899	144.822	-92.462	-87.757	-85.330	-80.197	168.218	-82.186	-8191	255	
1053.378	1	1	0	0	0.25029	0.13273	0.15344	0.31022	0.078276	0.3526	0.30986	0.18385	0.097885	0.15603	0.18613	0.059053	0.27724	0.061229	0.1498	0.04973	-2.5146	-2.9542	-2.6979	-3.0438	-2.6	-2.9625	-3.0812	-2.6917	-2.8604	-2.6667	-2.6104	-3.1937	-2.6021	-2.8833	-2.9104	-2.5042	91.965	-72.128	22.968	218.289	-69.036	239.893	173.975	215.515	5.691	114.812	210.150	247.269	228.303	213.221	38.986	239.640	0.00057017	0.0012308	0.00025785	1402.2	1.5439e-05	8.9301e-06	1312.9	418.81	5.6377e-06	6.4861e-06	441.35	151.24	154.03	53.32	6.2325e-06	50.059	0.0018054	0.0018856	0.00051223	1392	2.0323e-05	2.0075e-05	1289.7	412.17	1.9971e-05	2.0272e-05	445.95	154.62	158.9	54.013	2.0534e-05	52.833	75.258	-12.070	-51.598	-95.889	91.321	128.833	-97.291	-90.332	2.676	-70.270	-92.255	-87.748	-86.058	-79.884	165.632	-82.267	-8191	255	
1053.499	1	1	0	0	0.09783	0.12198	0.19639	0.21361	0.27385	0.21562	0.15235	0.28253	0.19847	0.23638	0.09581	0.2476	0.22184	0.1903	0.21697	0.15582	-2.5938	-2.4854	-2.5375	-3.15	-2.6562	-2.825	-3.0604	-2.7792	-2.9	-2.7667	-2.8187	-2.9979	-2.7021	-2.7333	-2.9521	-2.5229	37.397	178.696	167.489	-93.884	196.284	-106.022	211.057	171.977	9.744	166.372	211.974	246.967	-10.353	-12.695	249.183	11.936	0.0011424	0.0021714	0.00018462	1414.3	8.1193e-06	1.1152e-05	1316.3	418.07	1.1284e-05	6.9597e-06	444.32	151.86	153.41	53.23	1.6431e-05	49.678	0.0018452	0.0019213	0.0005312	1401.6	2.1215e-05	2.089e-05	1292.9	413.68	2.0408e-05	2.0871e-05	449.29	154.94	158.32	53.907	2.0057e-05	52.22	75.108	-4.731	52.612	-96.020	-20.744	-23.119	-97.505	-90.153	-85.854	193.947	-92.323	-87.821	-86.229	-79.797	18.330	-82.061	-8191	255	
1053.595	1	1	0	0	0.19842	0.045382	0.20543	0.20166	0.19056	0.12328	0.22239	0.14107	0.15522	0.084535	0.25306	0.13925	0.25064	0.17666	0.25799	0.34319	-2.2687	-2.8896	-2.5708	-3.025	-2.6396	-2.5875	-3.0667	-2.5292	-2.9188	-2.9375	-2.7708	-3.1021	-2.6583	-2.9208	-2.9917	-2.6542	45.902	235.420	35.155	225.576	156.184	-28.016	189.173	-87.005	-12.447	202.846	155.610	139.748	-92.803	204.372	80.001	221.761	0.00053211	0.00037726	0.0001866	1399.7	9.3717e-06	1.5772e-05	1313.7	417.25	9.6371e-06	1.6222e-05	439.95	149.69	151.4	53.07	2.0061e-06	49.355	0.0017799	0.001813	0.00051136	1385.3	2.0111e-05	2.0012e-05	1289.9	411.34	2.0198e-05	2.0269e-05	445.23	153.42	156.82	53.697	1.9777e-05	52.047	42.683	247.733	32.308	-95.894	41.772	9.059	-97.510	-90.315	-56.470	-53.043	-92.665	-87.724	-85.710	-80.001	221.711	-82.154	-8191	255	
1053.691	1	1	0	0	0.14447	0.18935	0.18862	0.045312	0.062695	0.21117	0.2577	0.26878	0.11507	0.2029	0.081215	0.022323	0.14623	0.12739	0.22202	0.22363	-2.3021	-2.7917	-2.4521	-3.1562	-2.7917	-2.6896	-3.2625	-2.7917	-2.9104	-2.8896	-2.6917	-3.1667	-2.8479	-2.7771	-2.9917	-2.6708	235.070	-41.917	-82.408	222.170	-3.327	-44.882	119.813	-61.490	-82.919	139.879	69.823	207.914	179.635	-66.510	182.271	149.916	0.00090239	0.000621	0.00032439	1389.4	1.1971e-05	1.1489e-05	1305.5	415.18	2.6111e-06	8.7469e-06	438.69	150.49	150.99	53.67	2.219e-05	49.574	0.0017847	0.0018188	0.0005142	1378.6	2.0173e-05	2.0152e-05	1281.3	408.64	2.0135e-05	2.0388e-05	446.62	154.69	158.62	54.447	2.1355e-05	52.991	47.643	-29.936	-74.260	-95.830	77.610	-58.259	-97.388	-90.231	-43.735	170.915	-92.418	-87.729	-85.609	-79.922	18.799	-82.349	-8191	255	
1053.787	1	1	0	0	0.19934	0.20178	0.10153	0.19424	0.34442	0.16321	0.39564	0.29146	0.2546	0.07543	0.26309	0.36355	0.11292	0.090224	0.11444	0.30035	-2.4021	-2.8896	-2.6562	-3.0854	-2.7479	-2.775	-3.3521	-2.6375	-2.7417	-2.9792	-2.6042	-2.9854	-2.7521	-2.5	-3.1708	-2.8271	-59.740	-83.049	-59.570	249.968	110.664	96.946	-64.321	181.330	238.384	180.793	184.622	221.139	-71.557	195.651	241.722	235.070	0.00064675	0.0012942	1.9746e-05	1400.3	7.5593e-06	1.9308e-05	1312.9	419.15	1.1108e-05	2.0958e-05	442.81	151.2	152.22	53.759	1.7339e-05	50.239	0.0019508	0.0020011	0.0005694	1402	2.1975e-05	2.2179e-05	1298.6	414.45	2.1468e-05	2.1574e-05	452.12	156.03	158.78	54.716	2.0888e-05	53.278	58.857	4.134	-64.080	-95.830	213.304	58.127	-97.458	-90.118	35.705	-13.678	-91.997	-87.840	-85.621	-79.724	-6.094	-82.145	-8191	255	
1053.908	1	1	0	0	0.36056	0.067841	0.14582	0.32209	0.11896	0.32468	0.25051	0.046753	0.13535	0.042132	0.16557	0.15823	0.15559	0.17369	0.10921	0.21816	-2.1708	-2.8312	-2.4229	-3.0271	-3.0458	-2.6417	-3.2729	-2.95	-2.7042	-3.1375	-2.5854	-3.0521	-2.9979	-2.6104	-2.9979	-2.8229	-51.637	123.579	41.082	166.101	111.582	-87.489	160.576	199.216	184.449	124.902	-79.022	-7.616	-95.375	223.347	-2.844	154.106	0.00085057	0.00089531	0.0001455	1398.6	8.5182e-07	1.0664e-05	1315.8	419.49	2.2466e-05	1.8726e-05	444.69	152.03	154.12	53.775	8.2681e-06	50.27	0.0018944	0.0019369	0.0005539	1388.8	2.1309e-05	2.1683e-05	1299.8	415.02	2.1693e-05	2.1729e-05	454.97	157.13	159.9	54.863	2.1409e-05	53.241	18.228	-18.879	-9.849	-95.715	93.976	177.924	-97.390	-90.048	6.874	224.094	-91.695	-87.113	-85.775	-79.802	83.611	-81.950	-8191	255	
1053.980	1	1	0	0	0.1172	0.30958	0.15376	0.20942	0.14474	0.22762	0.11184	0.26216	0.33194	0.10475	0.071143	0.15322	0.16928	0.17581	0.05961	0.017618	-2.2042	-3.0604	-2.5812	-2.9875	-2.9021	-2.6562	-3.1646	-3.0208	-2.6688	-3.0042	-2.8667	-2.7771	-3.0438	-2.6271	-2.8458	-2.8292	223.054	-32.306	114.665	245.240	-52.441	229.252	200.574	164.155	2.039	48.386	-85.455	178.425	207.480	216.309	174.483	61.198	0.0011717	0.0012414	0.00027637	1404	9.1428e-06	1.0452e-05	1304.8	419.45	2.6176e-05	1.2773e-05	439.85	152.05	152.69	53.713	3.1586e-06	50.068	0.0018938	0.0019213	0.00054524	1392.4	2.0794e-05	2.1387e-05	1290.5	413.01	2.113e-05	2.1061e-05	450.57	156.22	159.25	54.725	2.1663e-05	53.158	65.583	-95.337	238.826	-95.631	-44.942	105.995	-97.640	-90.338	72.249	5.996	-92.305	-87.953	-85.605	-79.847	-85.071	-82.261	-8191	255	
1054.099	1	1	0	0	0.42675	0.088522	0.19519	0.13469	0.10746	0.15523	0.2258	0.29295	0.034376	0.05321	0.11175	0.072376	0.12516	0.12394	0.41219	0.21033	-2.2958	-3.0563	-2.5896	-2.7958	-3.1	-2.5125	-3.0812	-2.925	-2.5083	-3.0542	-2.8271	-2.6104	-2.9958	-2.5542	-2.7792	-3.1271	-93.512	193.089	-37.036	176.297	-98.083	97.079	173.059	169.899	123.920	-78.790	-79.628	149.079	194.102	163.423	-20.642	134.916	0.00078957	0.0020958	0.00028578	1402.1	1.9163e-05	1.1217e-05	1317.3	420.04	2.2114e-06	6.1538e-06	442.52	152.84	152.57	53.54	1.2301e-05	49.75	0.0019898	0.0020362	0.00057211	1405.8	2.2058e-05	2.252e-05	1301.6	415.6	2.2056e-05	2.1878e-05	452.98	157.31	159.89	54.878	2.187e-05	53.323	74.510	228.970	10.260	-95.562	96.214	-88.418	-97.616	-90.231	33.880	135.002	-91.896	-87.700	-86.154	-79.960	237.743	-82.216	-8191	255	
1054.195	1	1	0	0	0.21703	0.16466	0.047796	0.23725	0.072919	0.088142	0.077807	0.31641	0.13433	0.14655	0.15171	0.26296	0.12207	0.21081	0.35586	0.13512	-2.3396	-2.975	-2.7208	-2.8187	-3.075	-2.7229	-3.0812	-3.1333	-2.4083	-3.1833	-2.8854	-2.6437	-3.0729	-2.7146	-2.6375	-2.9667	208.802	-84.387	-29.170	-108.229	-0.318	4.318	-42.625	190.476	224.411	241.861	-17.036	212.816	239.917	214.883	-71.532	-45.198	0.00072022	0.0013979	0.00036978	1404.9	2.0536e-05	3.6518e-06	1321.7	422.78	1.7706e-05	6.653e-06	446.98	153.91	156.03	53.937	1.4358e-05	50.034	0.0020128	0.0020449	0.00058558	1406.1	2.2755e-05	2.383e-05	1311.3	420.04	2.3928e-05	2.389e-05	462.29	160.66	164.48	55.643	2.3514e-05	54.057	95.469	36.906	41.713	-96.025	-41.845	211.087	-97.954	-90.333	-54.766	39.076	-92.280	-87.471	-85.613	-79.851	81.938	-82.038	-8191	255	
1054.291	1	1	0	0	0.090084	0.10045	0.19554	0.36836	0.27261	0.28202	0.15096	0.13692	0.11913	0.14312	0.44951	0.2142	0.19968	0.21217	0.14476	0.20163	-1.9458	-2.9979	-2.7271	-2.5292	-2.9458	-2.6979	-2.8771	-3.0542	-2.6708	-2.7583	-2.8792	-2.6979	-2.9938	-2.6813	-2.7125	-2.9208	5.851	185.751	-97.851	185.032	-69.028	213.948	136.933	-93.902	47.607	115.062	210.045	-8.428	239.526	208.848	139.462	-12.603	0.00045057	0.00052482	0.00022704	1415.6	1.128e-05	2.4729e-05	1325.6	423.56	2.0678e-06	1.1028e-05	448.53	154.42	155.78	53.866	5.9823e-06	49.669	0.002139	0.0021462	0.00060999	1418.8	2.3133e-05	2.3967e-05	1314	420.25	2.3807e-05	2.3117e-05	461.39	160.81	164.43	55.573	2.3641e-05	53.937	31.019	-87.875	-7.159	-95.928	-44.044	-74.604	-97.255	-90.125	-7.657	103.038	-92.252	-87.662	-85.929	-80.131	74.660	-82.340	-8191	255	
#DATA ENDS
