BOXY.EXE: ISS Imagent and Oximeter Data Acquisition Program Version 0.80
Ascii Record File

#ACQ INFORMATION
2  Detector Channels 
16  External MUX Channels 
1  Auxiliary Channels 
5000  Waveform (CCF) Frequency (Hz)
1  Waveforms Skipped 
30  Waveforms Averaged 
1  Cycles Averaged 
16  Acquisitions per Waveform 
10.0806  Updata Rate (Hz) 

#FILE INFORMATION
TRUE -- External MUX Channel results are PARSED.
FALSE -- AC DC and Phase are NOT grouped.
TRUE -- Companion Program Settings File CREATED.
FALSE -- AC data not excluded
FALSE -- DC data not excluded
FALSE -- Phase data not excluded
FALSE -- Auxillary Chn. data not excluded
Tab delimiters

#CALIBRATION STATE
TRUE -- Waveform Calibration Values APPLIED.


#AUX CALIBRATION VALUES
Val Type	aux-1	

Term	1.0000e+00	
Factor	0.0000e+00	


#WF CALIBRATION VALUES
A = Detector Channel
Val Type	A-AC1	A-AC2	A-AC3	A-AC4	A-AC5	A-AC6	A-AC7	A-AC8	A-AC9	A-AC10	A-AC11	A-AC12	A-AC13	A-AC14	A-AC15	A-AC16	A-DC1	A-DC2	A-DC3	A-DC4	A-DC5	A-DC6	A-DC7	A-DC8	A-DC9	A-DC10	A-DC11	A-DC12	A-DC13	A-DC14	A-DC15	A-DC16	A-Ph1	A-Ph2	A-Ph3	A-Ph4	A-Ph5	A-Ph6	A-Ph7	A-Ph8	A-Ph9	A-Ph10	A-Ph11	A-Ph12	A-Ph13	A-Ph14	A-Ph15	A-Ph16	

Term	0.00000e+00	0.00000e+00	0.00000e+00	0.00000e+00	0.00000e+00	0.00000e+00	0.00000e+00	0.00000e+00	0.00000e+00	0.00000e+00	0.00000e+00	0.00000e+00	0.00000e+00	0.00000e+00	0.00000e+00	0.00000e+00	0.00000e+00	0.00000e+00	0.00000e+00	0.00000e+00	0.00000e+00	0.00000e+00	0.00000e+00	0.00000e+00	0.00000e+00	0.00000e+00	0.00000e+00	0.00000e+00	0.00000e+00	0.00000e+00	0.00000e+00	0.00000e+00	0.00000e+00	0.00000e+00	0.00000e+00	0.00000e+00	0.00000e+00	0.00000e+00	0.00000e+00	0.00000e+00	0.00000e+00	0.00000e+00	0.00000e+00	0.00000e+00	0.00000e+00	0.00000e+00	0.00000e+00	0.00000e+00	
Factor	1.00000e+00	1.00000e+00	1.00000e+00	1.00000e+00	1.00000e+00	1.00000e+00	1.00000e+00	1.00000e+00	1.00000e+00	1.00000e+00	1.00000e+00	1.00000e+00	1.00000e+00	1.00000e+00	1.00000e+00	1.00000e+00	1.00000e+00	1.00000e+00	1.00000e+00	1.00000e+00	1.00000e+00	1.00000e+00	1.00000e+00	1.00000e+00	1.00000e+00	1.00000e+00	1.00000e+00	1.00000e+00	1.00000e+00	1.00000e+00	1.00000e+00	1.00000e+00	X	X	X	X	X	X	X	X	X	X	X	X	X	X	X	X	

B = Detector Channel
Val Type	B-AC1	B-AC2	B-AC3	B-AC4	B-AC5	B-AC6	B-AC7	B-AC8	B-AC9	B-AC10	B-AC11	B-AC12	B-AC13	B-AC14	B-AC15	B-AC16	B-DC1	B-DC2	B-DC3	B-DC4	B-DC5	B-DC6	B-DC7	B-DC8	B-DC9	B-DC10	B-DC11	B-DC12	B-DC13	B-DC14	B-DC15	B-DC16	B-Ph1	B-Ph2	B-Ph3	B-Ph4	B-Ph5	B-Ph6	B-Ph7	B-Ph8	B-Ph9	B-Ph10	B-Ph11	B-Ph12	B-Ph13	B-Ph14	B-Ph15	B-Ph16	

Term	0.00000e+00	0.00000e+00	0.00000e+00	0.00000e+00	0.00000e+00	0.00000e+00	0.00000e+00	0.00000e+00	0.00000e+00	0.00000e+00	0.00000e+00	0.00000e+00	0.00000e+00	0.00000e+00	0.00000e+00	0.00000e+00	0.00000e+00	0.00000e+00	0.00000e+00	0.00000e+00	0.00000e+00	0.00000e+00	0.00000e+00	0.00000e+00	0.00000e+00	0.00000e+00	0.00000e+00	0.00000e+00	0.00000e+00	0.00000e+00	0.00000e+00	0.00000e+00	8.11284e+01	-1.20153e+02	-1.26350e+02	-1.81567e+02	-8.84902e+01	-8.40959e+01	-1.56561e+02	-1.62015e+02	-9.69263e+01	-8.38922e+01	-1.71055e+02	-1.71474e+02	-1.84436e+02	-1.76931e+02	-7.91405e+01	-1.49939e+02	
Factor	6.50912e-05	1.46992e-04	3.41674e-05	2.12455e-01	1.30598e-06	1.78741e-06	1.67938e-01	5.12696e-02	2.14687e-06	1.52923e-06	8.73862e-02	3.30830e-02	4.09064e-02	9.26272e-03	1.52222e-06	1.33558e-02	1.62652e-06	1.68806e-06	4.69002e-07	1.07451e-01	1.84094e-08	1.85136e-08	8.01808e-02	2.60849e-02	1.83594e-08	1.85120e-08	4.27707e-02	1.61030e-02	2.01847e-02	4.70032e-03	1.84195e-08	6.52597e-03	X	X	X	X	X	X	X	X	X	X	X	X	X	X	X	X	



#DISTANCE SETTINGS
A = Detector Channel
A-1	A-2	A-3	A-4	A-5	A-6	A-7	A-8	A-9	A-10	A-11	A-12	A-13	A-14	A-15	A-16	

2.5000e+00	3.0000e+00	2.5000e+00	3.0000e+00	2.0000e+00	3.0000e+00	1.5000e+00	3.0000e+00	3.0000e+00	3.0000e+00	3.0000e+00	3.0000e+00	3.0000e+00	3.0000e+00	1.5000e+00	3.0000e+00	

B = Detector Channel
B-1	B-2	B-3	B-4	B-5	B-6	B-7	B-8	B-9	B-10	B-11	B-12	B-13	B-14	B-15	B-16	

1.0000e+01	1.0000e+01	1.0000e+01	1.4400e+00	1.0000e+01	1.0000e+01	1.5100e+00	1.9400e+00	1.0000e+01	1.0000e+01	1.9900e+00	2.4900e+00	2.4100e+00	2.9000e+00	1.0000e+01	2.9800e+00	




#DATA BEGINS
time	group	step	mark	flag	A-AC1	A-AC2	A-AC3	A-AC4	A-AC5	A-AC6	A-AC7	A-AC8	A-AC9	A-AC10	A-AC11	A-AC12	A-AC13	A-AC14	A-AC15	A-AC16	A-DC1	A-DC2	A-DC3	A-DC4	A-DC5	A-DC6	A-DC7	A-DC8	A-DC9	A-DC10	A-DC11	A-DC12	A-DC13	A-DC14	A-DC15	A-DC16	A-Ph1	A-Ph2	A-Ph3	A-Ph4	A-Ph5	A-Ph6	A-Ph7	A-Ph8	A-Ph9	A-Ph10	A-Ph11	A-Ph12	A-Ph13	A-Ph14	A-Ph15	A-Ph16	B-AC1	B-AC2	B-AC3	B-AC4	B-AC5	B-AC6	B-AC7	B-AC8	B-AC9	B-AC10	B-AC11	B-AC12	B-AC13	B-AC14	B-AC15	B-AC16	B-DC1	B-DC2	B-DC3	B-DC4	B-DC5	B-DC6	B-DC7	B-DC8	B-DC9	B-DC10	B-DC11	B-DC12	B-DC13	B-DC14	B-DC15	B-DC16	B-Ph1	B-Ph2	B-Ph3	B-Ph4	B-Ph5	B-Ph6	B-Ph7	B-Ph8	B-Ph9	B-Ph10	B-Ph11	B-Ph12	B-Ph13	B-Ph14	B-Ph15	B-Ph16	aux-1	digaux	

726.962	1	1	0	256	0.084188	0.23303	0.23481	0.091321	0.24468	0.11632	0.33035	0.35469	0.21182	0.16248	0.05972	0.30483	0.19262	0.14334	0.12937	0.12025	-2.2333	-3.1479	-2.9625	-3.0125	-3.1229	-2.7792	-3.1375	-3.1292	-2.7583	-3.1167	-2.9042	-2.7562	-3.1708	-3.0729	-2.9021	-3.2833	316.796	372.470	193.017	438.554	437.367	232.390	364.062	404.124	332.072	296.191	388.660	461.809	461.865	465.127	245.778	214.496	0.0020836	0.00036139	0.00010278	1337.6	7.4027e-06	8.2855e-06	1348.5	370.83	1.444e-05	3.8615e-06	420.68	144.01	126.3	42.183	6.102e-06	51.825	0.00057261	0.00056466	0.0001558	1370	6.1874e-06	6.1293e-06	1378.2	380.31	6.1767e-06	6.1861e-06	433.29	146.87	129.09	43.707	6.2549e-06	53.774	391.495	261.065	325.973	148.656	243.011	318.082	148.034	152.868	253.268	311.252	152.471	156.874	157.374	162.041	252.708	160.964	-8191	255	
727.083	1	1	0	0	0.13514	0.11142	0.085745	0.076791	0.16938	0.023517	0.10314	0.19047	0.059724	0.31461	0.21362	0.14507	0.16919	0.21648	0.17474	0.043829	-2.3063	-3.0312	-2.9271	-3.0333	-3.2708	-2.7167	-3.1937	-3.2521	-2.6521	-3.0729	-3.1833	-2.9167	-3.2396	-3.0167	-2.7812	-3.225	384.898	324.314	414.782	148.270	193.886	313.043	324.753	490.822	305.962	298.521	424.498	434.958	341.780	156.236	462.922	374.154	0.0020734	0.00023624	0.00011314	1332.5	6.4374e-06	7.7743e-06	1348.7	370.15	1.4936e-05	9.2872e-06	421.53	143.4	126.58	42.102	4.2631e-06	51.356	0.00058055	0.00057013	0.00015879	1369.3	6.287e-06	6.3295e-06	1379.5	380.27	6.3324e-06	6.3253e-06	434.02	146.89	129.25	43.675	6.3263e-06	53.585	393.774	272.041	215.859	148.657	264.499	269.485	148.301	153.168	236.072	315.074	152.699	156.869	156.854	162.104	322.952	161.029	-8191	255	
727.179	1	1	0	0	0.0659	0.046041	0.18234	0.18835	0.2221	0.041834	0.40591	0.12792	0.26721	0.11013	0.077375	0.14039	0.083852	0.14937	0.15457	0.080562	-2.3104	-2.9333	-3.0104	-2.8458	-3.3312	-2.7542	-2.9271	-3.325	-2.8271	-3.1875	-3.0438	-2.8146	-3.3438	-2.8521	-2.8646	-3.0979	157.678	174.142	413.220	465.424	178.858	304.877	428.171	479.542	193.012	393.075	185.599	429.298	398.607	494.525	306.190	194.310	0.0020356	0.00039112	9.5547e-05	1346.8	4.9009e-06	3.5982e-06	1354.5	371.82	9.504e-06	8.7354e-06	422.57	144.55	127.66	42.135	6.8689e-06	51.845	0.0005961	0.00057939	0.00016056	1376.2	6.3299e-06	6.2879e-06	1387.7	381.49	6.2908e-06	6.3341e-06	435.04	147.26	129.65	43.81	6.3127e-06	53.72	398.321	237.291	416.523	148.664	308.931	264.936	148.286	153.093	248.942	270.861	152.311	156.613	156.914	162.039	241.135	161.253	-8191	255	
727.273	1	1	0	0	0.097393	0.029401	0.20332	0.1851	0.037156	0.12992	0.12567	0.29773	0.35618	0.11357	0.17775	0.40751	0.31951	0.25118	0.1615	0.12409	-2.2812	-2.8667	-2.975	-2.7417	-3.0271	-3.1146	-2.7687	-3.4062	-2.8958	-2.925	-3.3438	-2.7062	-3.0271	-2.9917	-2.725	-3.4604	454.255	188.236	142.754	404.377	219.451	470.707	235.453	492.993	479.803	357.251	417.485	482.714	436.576	450.994	296.783	328.785	0.0020335	0.00074268	9.9366e-05	1347.3	5.1264e-06	2.9826e-06	1355.5	373.04	1.3454e-05	4.4572e-06	423.1	143.42	127.25	42.093	2.8333e-06	51.817	0.00059065	0.00057517	0.0001602	1378.3	6.252e-06	6.2707e-06	1386.3	382.03	6.3307e-06	6.3001e-06	435.63	146.88	129.57	43.77	6.3547e-06	53.715	398.280	249.843	227.102	148.439	222.811	325.507	148.215	152.989	237.286	275.693	152.315	156.651	157.090	162.171	335.036	160.884	-8191	255	
727.370	1	1	0	0	0.057966	0.15074	0.21848	0.078404	0.25204	0.12807	0.29934	0.13668	0.18926	0.093929	0.34142	0.025894	0.33866	0.14473	0.09848	0.098471	-2.3104	-2.9583	-3.1937	-2.8479	-3.1271	-3.0229	-3.0104	-3.3229	-2.8438	-2.7146	-3.2854	-2.8146	-3.0604	-3.0708	-2.5875	-3.2292	176.993	189.384	444.930	388.044	475.078	144.229	160.569	376.332	345.224	494.568	387.863	271.436	473.500	485.082	293.702	471.407	0.0018705	0.00065328	5.5594e-05	1345.2	8.5047e-06	1.1623e-05	1357.7	372.02	1.036e-05	2.325e-06	422.44	143.61	126.13	42.025	1.8529e-06	51.604	0.00059044	0.00058003	0.00016144	1379.2	6.3554e-06	6.3678e-06	1386.9	381.69	6.3482e-06	6.3868e-06	435.13	147.01	129.51	43.763	6.4237e-06	53.729	404.149	263.129	467.795	148.525	235.893	261.289	148.268	152.956	242.036	318.860	152.552	156.704	157.147	161.907	461.391	160.927	-8191	255	
727.490	1	1	0	0	0.19189	0.30691	0.26441	0.17127	0.12815	0.21793	0.35598	0.12471	0.052396	0.17039	0.17943	0.095382	0.10966	0.29827	0.14913	0.10569	-2.45	-2.8083	-3.1729	-3.025	-3.0271	-3.0354	-2.8917	-3.1792	-2.8833	-2.9042	-3.2125	-2.85	-2.8333	-3.2542	-2.7125	-3.1646	449.146	314.695	267.560	154.996	196.449	345.306	423.615	449.204	239.523	355.173	482.966	239.833	469.478	419.409	458.673	323.310	0.0021057	0.00042603	6.5782e-05	1345.1	3.9467e-06	6.6318e-06	1357.4	372.64	9.7523e-06	1.4272e-06	423.81	143.78	126.34	42.133	1.0206e-05	51.796	0.00059897	0.00058517	0.00016194	1380.3	6.4122e-06	6.3924e-06	1388.6	382.48	6.4028e-06	6.4599e-06	436.09	147.23	129.71	43.779	6.435e-06	53.743	395.383	160.041	237.179	148.465	265.799	164.150	147.852	152.934	217.712	146.737	152.525	156.862	156.939	161.792	240.689	160.847	-8191	255	
727.562	1	1	0	0	0.069651	0.32454	0.052845	0.405	0.33568	0.28006	0.17338	0.10774	0.024795	0.10267	0.33875	0.13942	0.080137	0.16988	0.17678	0.21968	-2.4771	-2.725	-3.1792	-2.9313	-2.8646	-3.1917	-2.8812	-3.1271	-3.0062	-2.7354	-3.3083	-2.7042	-3.1583	-3.3167	-2.85	-3.3	326.606	379.850	427.162	151.532	335.242	456.192	463.110	342.525	251.758	356.463	161.892	247.882	194.034	457.011	248.905	149.248	0.0020719	0.00058812	3.6683e-05	1348.5	1.0399e-05	1.003e-05	1359.7	373.2	8.6149e-06	3.1172e-06	423.14	143.54	126.83	42.222	4.0526e-06	51.518	0.00059569	0.00057766	0.00016024	1380.8	6.3356e-06	6.341e-06	1389.6	382.78	6.2973e-06	6.3458e-06	435.6	147.01	129.77	43.814	6.4092e-06	53.749	391.967	299.356	308.994	148.664	309.409	240.944	148.190	153.078	255.094	287.891	152.323	156.528	157.291	161.834	300.277	161.086	-8191	255	
727.658	1	1	0	0	0.18693	0.13125	0.11111	0.066919	0.20222	0.11468	0.074691	0.12165	0.10097	0.15702	0.22235	0.22486	0.2612	0.19773	0.42737	0.097923	-2.6458	-2.6375	-3.1521	-2.9104	-2.825	-3.0708	-2.9062	-3.2396	-2.9313	-2.7729	-3.3083	-2.9542	-2.8438	-3.2625	-2.7375	-3.0875	168.755	424.530	219.428	186.315	213.855	170.902	197.651	451.932	286.821	399.607	185.364	172.533	300.876	441.903	316.835	466.189	0.0018929	0.00010817	0.00020848	1348.6	5.5217e-06	3.7815e-06	1361.7	374.05	1.707e-05	3.4898e-06	422.5	143.65	126.38	42.175	9.6877e-06	51.697	0.0005982	0.0005898	0.0001625	1386.3	6.5027e-06	6.4548e-06	1393	382.52	6.4713e-06	6.5318e-06	435.75	147.3	129.64	43.808	6.5693e-06	53.825	394.941	270.070	183.871	148.651	226.374	293.549	148.028	153.133	241.017	301.452	152.454	156.707	157.302	162.116	317.022	160.754	-8191	255	
727.754	1	1	0	0	0.035733	0.29237	0.02356	0.29519	0.19521	0.3102	0.15542	0.31494	0.15277	0.039334	0.25842	0.24772	0.097493	0.18874	0.40245	0.14214	-2.6	-2.8667	-3.1979	-3.0812	-2.8063	-3.2729	-2.8812	-3.3312	-2.9125	-2.6125	-3.3917	-3.1417	-2.8042	-3.2583	-2.6875	-3.0896	385.844	289.047	263.956	460.877	487.912	164.176	454.707	455.818	420.478	410.667	440.005	465.567	429.474	139.591	348.425	160.857	0.0021447	0.00022347	3.3101e-05	1348	3.6054e-06	3.3931e-06	1367.8	374.14	9.8958e-06	2.5048e-06	421.77	143.55	127.64	42.223	1.0306e-05	51.561	0.00061286	0.00059587	0.00016474	1388.3	6.5475e-06	6.4791e-06	1397.4	384.01	6.5349e-06	6.5088e-06	437.15	147.56	130.21	43.816	6.6159e-06	53.811	393.916	306.876	295.225	148.589	254.947	328.551	147.920	153.098	216.246	206.886	152.257	156.779	156.952	161.939	268.732	161.042	-8191	255	
727.875	1	1	0	0	0.087405	0.21275	0.18896	0.26407	0.15201	0.1878	0.26049	0.31271	0.20439	0.14032	0.058955	0.13822	0.0063397	0.23408	0.048202	0.15145	-2.5333	-2.6708	-3.1063	-3.2146	-2.7562	-3.2375	-3.0833	-3.0333	-3.2667	-2.6667	-3.1625	-3.1458	-2.7333	-3.3187	-2.7146	-2.9521	204.693	413.950	338.336	398.150	222.530	290.557	420.553	441.609	452.346	199.565	323.988	151.327	409.657	456.023	146.666	462.830	0.0019916	0.00044973	7.1146e-05	1354.6	1.2601e-06	8.0735e-06	1376.1	373.48	1.2671e-05	5.3636e-06	424.87	144.41	127.81	42.197	4.452e-06	51.394	0.00061399	0.00060623	0.00016795	1394.6	6.5982e-06	6.6196e-06	1406.7	384.48	6.6154e-06	6.6396e-06	439.17	148	130.57	43.931	6.6852e-06	53.974	403.636	365.279	311.294	148.488	182.200	142.412	148.089	153.015	253.005	263.920	152.308	156.587	157.052	161.991	273.981	161.162	-8191	255	
727.971	1	1	0	0	0.0572	0.14802	0.20576	0.37556	0.032174	0.097211	0.091576	0.14014	0.13291	0.22252	0.17766	0.17809	0.11155	0.12739	0.15426	0.18161	-2.8833	-2.8125	-3.0229	-3.2729	-2.7833	-3.1646	-3.1042	-2.8854	-3.175	-2.8396	-2.9083	-3.3604	-2.7354	-3.1937	-3.0396	-2.8042	348.291	137.229	369.270	389.618	227.355	412.588	468.812	465.287	487.878	357.180	282.068	461.431	135.750	137.993	356.993	386.762	0.0020666	0.00022166	0.00020517	1366.6	4.4131e-06	6.8522e-06	1372.1	374.61	2.0287e-05	3.7664e-06	422.15	144.25	126.94	41.924	4.8925e-06	51.487	0.00062561	0.00060884	0.00016957	1399.9	6.7621e-06	6.7972e-06	1405.5	384.43	6.7304e-06	6.81e-06	438.03	147.96	130.55	43.861	6.7722e-06	53.778	397.888	250.074	216.802	148.548	311.513	225.303	148.064	152.964	226.259	216.358	152.320	156.775	156.783	161.954	186.223	160.892	-8191	255	
728.067	1	1	0	0	0.27809	0.11083	0.12536	0.27866	0.22574	0.049334	0.25101	0.30577	0.10889	0.10304	0.19523	0.15029	0.23492	0.36449	0.18475	0.23605	-2.7208	-2.8292	-2.9771	-3.1688	-2.6667	-3.2062	-3.1125	-3.0396	-2.9479	-2.7562	-2.975	-3.1688	-2.8917	-3.2687	-2.9583	-2.9188	375.263	199.919	421.615	465.578	489.900	434.716	393.487	474.684	377.077	440.957	348.868	385.922	473.668	481.820	211.510	369.011	0.0019498	0.0011007	0.00018675	1363.7	5.2092e-06	2.3463e-06	1360	368.58	1.0339e-05	5.2106e-06	418.36	142.37	125.07	41.224	5.5049e-06	50.721	0.00063742	0.00063061	0.00017583	1399.6	6.9186e-06	6.8999e-06	1402.1	382.19	6.9373e-06	6.9266e-06	434.03	146.39	129.19	43.341	7.0558e-06	53.429	403.614	226.277	299.046	148.412	287.605	348.545	147.958	152.983	227.873	326.557	152.438	156.728	156.984	161.825	254.901	160.933	-8191	255	
728.163	1	1	0	0	0.18021	0.018074	0.054696	0.025502	0.29912	0.10625	0.31937	0.23584	0.06533	0.16351	0.14091	0.2372	0.10806	0.10611	0.18336	0.05917	-2.7646	-2.8479	-2.9104	-3.2625	-2.5938	-2.9938	-3.1542	-2.7292	-3.1542	-3.0625	-3.0896	-3.1	-2.9208	-3.0875	-3.0417	-2.9042	392.842	217.070	291.665	415.646	210.179	315.986	135.666	346.396	249.220	492.400	451.212	445.290	392.771	169.506	171.290	363.305	0.0020887	0.00054329	0.0001116	1347.5	9.8364e-06	1.4818e-06	1356.1	370.27	9.1522e-06	7.2305e-06	418.39	141.1	124.93	41.302	6.0905e-06	50.846	0.00065198	0.0006443	0.00017883	1388.4	7.0641e-06	7.0289e-06	1393.7	380.82	7.0946e-06	6.971e-06	432.19	145.41	128.51	43.077	6.9706e-06	53.261	394.563	266.654	191.061	148.492	361.159	267.214	148.052	152.977	276.587	264.182	152.623	157.042	156.986	162.320	282.599	160.981	-8191	255	
728.259	1	1	0	0	0.09718	0.22025	0.17065	0.10426	0.15546	0.13405	0.15515	0.20505	0.20265	0.10122	0.20747	0.27326	0.1413	0.12273	0.1006	0.12111	-2.7313	-2.8	-2.825	-3.3187	-2.6021	-3.0708	-3.2167	-2.7792	-3.1375	-2.9479	-2.8583	-3.2062	-2.8271	-3.0792	-3.0604	-2.6917	229.919	136.155	253.160	239.930	445.641	354.506	382.974	435.051	322.534	342.773	435.763	140.246	148.222	409.637	192.867	384.182	0.0021147	0.00070157	0.00014739	1342.9	4.7117e-06	6.3066e-06	1350	367.78	1.3434e-05	8.6899e-06	416.66	140.78	124.52	41.037	6.3739e-06	50.917	0.0006461	0.00063522	0.00017485	1383.3	6.8957e-06	6.9267e-06	1385.4	378.99	6.8212e-06	6.915e-06	431.42	144.7	127.85	42.871	6.8456e-06	53.166	396.012	173.440	260.248	148.737	237.391	246.199	148.001	153.102	223.502	184.235	152.252	156.615	156.838	162.319	235.542	161.226	-8191	255	
728.354	1	1	0	0	0.17952	0.033226	0.061508	0.17823	0.20175	0.12594	0.29703	0.05058	0.2024	0.29267	0.090417	0.074385	0.294	0.3272	0.2463	0.21078	-2.7542	-2.9875	-2.7083	-3.2812	-2.8167	-2.9083	-3.3042	-2.7771	-3.0854	-3.0083	-2.9771	-3.4479	-2.9479	-2.8417	-3.0792	-2.8438	437.580	154.596	281.136	442.989	231.806	442.924	452.730	456.320	374.526	434.140	492.352	329.899	174.645	411.498	357.737	360.427	0.0019475	0.00011372	0.00015079	1332.2	4.069e-06	3.7342e-06	1342.2	367.71	1.127e-05	8.4847e-06	415.48	141.03	124.3	40.876	7.1621e-06	50.923	0.00063964	0.00062752	0.00017354	1373	6.9007e-06	6.9049e-06	1375.9	378.25	6.852e-06	6.8763e-06	429.97	144.33	127.71	42.834	6.8755e-06	53.081	398.750	360.415	282.570	148.513	207.723	275.047	148.232	153.001	246.463	265.150	152.454	156.969	157.297	161.878	231.748	161.152	-8191	255	
728.452	1	1	0	0	0.027977	0.099676	0.23326	0.10169	0.19156	0.22009	0.15329	0.29364	0.21033	0.2148	0.24739	0.10192	0.20538	0.33526	0.16681	0.30534	-2.6729	-3.1167	-2.9104	-3.1854	-2.8688	-2.8417	-3.3104	-2.9354	-2.9542	-3.0708	-2.9833	-3.2771	-2.8833	-2.9313	-3.2729	-2.8146	251.325	421.107	370.810	214.877	366.422	307.881	444.992	400.952	230.113	266.350	163.138	364.087	353.416	145.740	272.025	371.463	0.0020846	0.0004274	0.00020903	1331.6	5.9814e-06	3.191e-06	1334.9	366.87	9.8741e-06	1.1455e-05	414.54	139.96	123.94	40.959	8.7568e-06	50.895	0.00064141	0.00063328	0.0001767	1369	6.9603e-06	6.8797e-06	1374.5	377.55	6.9633e-06	6.8663e-06	428.69	144.09	127.38	42.759	6.8889e-06	52.974	399.637	286.691	233.844	148.662	322.212	143.098	148.219	153.138	206.237	255.798	152.399	156.802	157.115	162.193	269.164	160.856	-8191	255	
728.571	1	1	0	0	0.16148	0.18442	0.19138	0.40944	0.13703	0.073261	0.27273	0.23575	0.2143	0.19276	0.1911	0.35885	0.18783	0.18031	0.13845	0.11605	-2.6312	-3.2375	-2.7667	-3.1792	-2.9229	-3.075	-3.175	-3.075	-2.8583	-3.0875	-3.0104	-3.1104	-3.0583	-2.9375	-3.1958	-2.875	298.610	485.046	307.673	451.107	139.982	163.888	436.102	187.633	290.030	319.578	143.957	420.664	485.912	245.144	182.451	302.220	0.0018057	0.00094448	0.00014859	1329.3	2.7778e-06	6.6178e-06	1334.9	365.59	3.3424e-06	8.7933e-06	414.73	140	123.59	40.882	5.7087e-06	50.659	0.00064003	0.00062909	0.00017503	1366	6.9028e-06	6.8165e-06	1371.8	376.62	6.9426e-06	6.8305e-06	429.3	144.19	127.24	42.656	6.8885e-06	52.984	400.257	269.800	256.124	148.619	275.086	204.979	148.005	153.222	180.986	268.007	152.447	156.951	157.228	162.082	324.763	161.188	-8191	255	
728.667	1	1	0	0	0.20953	0.12382	0.081128	0.26259	0.1068	0.25115	0.10412	0.054095	0.090092	0.11409	0.20518	0.29292	0.14023	0.15529	0.1304	0.038145	-2.4062	-3.2	-2.7667	-3.2438	-2.9292	-2.6167	-3.3146	-3.1396	-3.0062	-3.0646	-2.9917	-3.0938	-2.9	-2.8604	-3.1396	-3.0979	431.420	445.401	254.605	137.700	255.809	307.715	415.065	291.408	492.530	263.988	458.347	459.475	168.747	182.297	314.027	339.796	0.0017611	0.001193	0.0001216	1325.7	6.2228e-06	4.8323e-06	1334.2	366.47	9.2706e-06	7.7959e-06	415.44	140.31	123.41	40.841	6.9651e-06	50.657	0.00064285	0.00062998	0.0001752	1362.6	6.8705e-06	6.8572e-06	1368.8	376.8	6.847e-06	6.8395e-06	428.88	144.19	127.04	42.657	6.8702e-06	52.935	393.798	192.217	235.755	148.604	252.459	414.781	148.114	153.094	267.357	182.757	152.195	156.853	156.923	162.039	262.078	161.190	-8191	255	
728.763	1	1	0	0	0.13643	0.058522	0.14522	0.24102	0.20956	0.16008	0.31097	0.12531	0.17448	0.14158	0.1623	0.1032	0.017292	0.10619	0.10009	0.27127	-2.3083	-3.1833	-2.9083	-3.0563	-2.9938	-2.7417	-3.3958	-3.0438	-2.8792	-3.1479	-2.8125	-3.0208	-3.0542	-2.7375	-3.125	-3.0354	483.009	260.377	474.814	477.008	478.686	341.068	408.924	404.795	326.380	160.540	351.571	395.293	338.889	164.540	259.150	445.185	0.0018772	0.00013717	0.00012034	1328.5	9.0786e-06	7.2751e-06	1338.6	366.01	1.1734e-05	6.3927e-06	413.23	140.22	123.92	40.658	1.3602e-06	50.822	0.00064621	0.00062718	0.00017581	1362.9	6.832e-06	6.8659e-06	1370	376.79	6.8298e-06	6.8296e-06	428.54	143.92	127.43	42.543	6.8442e-06	53.078	396.820	256.946	313.579	148.654	240.489	234.069	148.357	153.228	227.625	226.546	152.319	156.779	156.990	161.987	265.712	161.196	-8191	255	
728.859	1	1	0	0	0.068729	0.088747	0.12002	0.19621	0.044921	0.087119	0.2232	0.16745	0.16909	0.22117	0.023991	0.10873	0.091282	0.1056	0.11093	0.22052	-2.4271	-3.0687	-2.7229	-3.0875	-3.0875	-2.6854	-3.3521	-3.0187	-2.7687	-3.3521	-2.9854	-3.0896	-3.4667	-2.5875	-3.1562	-3.075	142.745	398.537	260.003	191.801	362.881	353.388	473.959	432.524	308.121	278.486	163.090	245.069	379.509	411.433	469.999	470.511	0.0022486	0.00070546	0.00012174	1321.9	3.9345e-06	1.0498e-05	1334	365.19	1.1091e-05	6.5226e-06	414.87	140.16	124.09	40.719	8.0291e-06	50.877	0.00063469	0.00062785	0.00017259	1362	6.8444e-06	6.8663e-06	1368.9	376.53	6.8298e-06	6.8133e-06	428.98	143.83	127.41	42.62	6.8213e-06	53.016	398.942	222.374	221.442	148.632	240.193	310.125	148.202	153.173	246.842	243.253	152.369	156.771	157.267	162.122	284.241	161.124	-8191	255	
728.955	1	1	0	0	0.066302	0.13678	0.18552	0.24933	0.17792	0.15482	0.063118	0.3114	0.21836	0.12128	0.23798	0.060705	0.15994	0.23026	0.08357	0.25497	-2.2917	-3.2021	-2.9604	-2.9208	-3.1104	-2.8583	-3.3229	-3.1396	-2.625	-3.3688	-3.0917	-2.9771	-3.0792	-2.75	-3.0792	-2.9938	219.560	447.668	474.777	430.321	370.597	392.755	357.859	454.205	346.007	464.302	454.822	281.993	397.708	471.321	461.679	237.477	0.0020415	0.00098987	0.00015356	1325.6	4.4309e-06	7.7124e-06	1331.4	365.28	1.1059e-05	7.3305e-06	414.69	140.83	124.03	40.857	7.3411e-06	50.922	0.00063333	0.00061991	0.00017332	1362.1	6.8623e-06	6.8604e-06	1367.5	376.54	6.8845e-06	6.8545e-06	428.3	144.03	127.43	42.651	6.8281e-06	53.016	394.204	254.877	177.668	148.940	277.018	249.746	148.269	152.886	248.455	243.684	152.720	156.879	157.260	162.190	271.928	160.995	-8191	255	
729.051	1	1	0	0	0.097872	0.17907	0.099893	0.088808	0.15097	0.19147	0.25008	0.25599	0.33297	0.19462	0.15299	0.16762	0.21914	0.38762	0.18554	0.28291	-2.2479	-2.9729	-2.8271	-2.9792	-3.0792	-2.7938	-3.3979	-3.1583	-2.5708	-3.2083	-3.0563	-2.8479	-3.2208	-2.8833	-3.1625	-3.0979	213.137	318.609	203.342	379.478	151.454	407.196	487.362	139.978	432.564	295.954	471.232	178.382	389.137	437.902	166.728	189.149	0.0020625	0.00068516	9.7706e-05	1328.9	3.2564e-06	9.6926e-06	1333.6	365.11	5.2525e-06	7.3286e-06	414.06	140.3	124.84	40.833	5.124e-06	50.757	0.00064171	0.00062556	0.00017487	1362.6	6.8882e-06	6.9044e-06	1365.8	376.73	6.8874e-06	6.8954e-06	428.5	143.95	127.52	42.635	6.9565e-06	53.024	401.187	236.441	253.266	148.658	259.190	187.327	148.038	153.184	167.788	392.228	152.386	157.068	157.145	162.091	250.290	161.411	-8191	255	
729.172	1	1	0	0	0.2245	0.29836	0.10598	0.31678	0.14223	0.097878	0.24244	0.41252	0.088032	0.055229	0.051595	0.25223	0.14563	0.19035	0.050158	0.33637	-2.2167	-3.0021	-3.0021	-2.9562	-3.1854	-2.8021	-3.1208	-3.2896	-2.7375	-3.2562	-2.9521	-2.8125	-3.275	-2.8292	-3	-3.2625	243.368	281.545	233.557	437.428	161.495	300.065	421.441	453.665	320.988	301.595	324.428	181.772	470.877	342.049	302.017	476.433	0.0017963	0.00042292	0.00018005	1318	7.9804e-06	5.5948e-06	1335.6	366.03	1.2458e-05	5.4497e-06	413.53	139.86	123.73	40.955	2.6084e-06	50.665	0.00065126	0.0006367	0.00017833	1358.8	7.0126e-06	7.0124e-06	1368.9	376.6	7.0464e-06	7.0126e-06	429.25	143.92	127.63	42.684	7.0732e-06	53.008	400.026	260.344	251.679	148.638	284.469	240.550	148.239	153.154	188.498	436.576	152.256	157.048	157.209	162.153	147.930	160.895	-8191	255	
729.266	1	1	0	0	0.16887	0.12243	0.19551	0.29356	0.15382	0.086543	0.29763	0.25355	0.13765	0.10052	0.21975	0.1171	0.32369	0.34376	0.29412	0.20926	-2.2667	-2.9125	-2.925	-2.7875	-3.2687	-2.875	-3.1708	-3.2438	-2.8896	-3.0396	-3.2479	-2.8854	-3.2313	-2.8854	-2.9542	-3.1937	437.647	215.219	159.141	138.812	420.837	349.286	394.026	478.075	393.527	291.888	247.513	435.241	152.866	463.612	278.162	400.880	0.0019355	0.00039019	3.3457e-05	1322.7	8.6749e-06	9.6366e-06	1330.1	366.22	6.1256e-06	7.7552e-06	415.85	140.17	123.64	40.744	6.3029e-06	50.681	0.00065769	0.00064543	0.00017981	1360.3	6.9994e-06	7.0963e-06	1365	376.8	7.0003e-06	7.0392e-06	430	143.86	127.29	42.599	6.9629e-06	53.077	399.517	192.891	220.415	148.534	254.732	251.457	148.140	153.023	214.134	233.971	152.434	157.033	157.120	162.358	253.615	161.208	-8191	255	
729.362	1	1	0	0	0.1058	0.042344	0.092562	0.15987	0.4205	0.17442	0.11916	0.1564	0.36938	0.17264	0.12538	0.25846	0.060548	0.12909	0.13936	0.045869	-2.4375	-2.9958	-3.2812	-2.8	-3.1	-2.9437	-2.9292	-3.2083	-2.725	-3.0812	-3.2792	-2.9458	-3.125	-2.8958	-2.8167	-3.3312	352.791	291.076	338.866	456.980	411.593	488.859	168.235	470.426	439.786	267.314	436.471	475.075	157.251	274.237	260.883	376.901	0.0020297	0.00048765	0.00012394	1326.6	1.8306e-06	1.0044e-05	1331	364.92	1.2852e-05	3.7388e-06	415.87	139.98	123.67	40.604	4.9994e-06	50.879	0.00064595	0.00062775	0.00017547	1360.1	6.9559e-06	6.8993e-06	1366.4	376.55	6.9499e-06	6.9408e-06	428.87	143.96	127.1	42.612	6.9895e-06	53.023	401.420	199.032	181.567	148.718	300.532	231.815	148.191	153.298	245.977	335.408	152.438	157.171	157.034	162.185	323.489	161.098	-8191	255	
729.434	1	1	0	0	0.1567	0.16219	0.10979	0.11515	0.15079	0.21223	0.29389	0.34697	0.13778	0.28155	0.11417	0.1648	0.23087	0.15407	0.17969	0.072884	-2.3479	-2.9979	-3.1729	-2.9292	-3.0687	-2.9708	-2.9208	-3.2646	-2.9708	-2.9417	-3.2729	-2.8187	-3.0271	-3.0604	-2.7771	-3.2958	136.398	419.079	181.015	160.411	297.282	183.511	385.149	471.109	333.760	440.801	439.106	485.268	487.904	391.071	462.749	183.029	0.0018831	0.00052426	9.6929e-05	1317	3.1581e-06	5.3668e-06	1334.4	366.69	6.9067e-06	1.0176e-05	413.96	139.15	124.08	40.812	6.2694e-06	50.55	0.00065269	0.00064109	0.00017747	1360	6.9988e-06	7.0539e-06	1366.9	377.08	7.0778e-06	7.0785e-06	429.27	143.61	127.24	42.653	6.9983e-06	52.979	397.328	271.166	270.492	148.630	295.384	247.027	148.266	153.327	261.038	279.500	152.459	156.983	156.859	162.102	258.666	161.217	-8191	255	
729.532	1	1	0	0	0.25079	0.40431	0.13812	0.16374	0.25374	0.092407	0.13579	0.153	0.23731	0.25593	0.20315	0.17437	0.26828	0.19423	0.20872	0.21687	-2.3958	-2.8958	-3.0354	-2.9083	-2.9479	-2.9437	-2.8521	-3.2479	-2.875	-2.8438	-3.3458	-2.8417	-2.9271	-3.1896	-2.8292	-3.2062	190.518	205.858	347.978	456.189	206.390	400.868	476.902	455.197	390.102	354.421	177.834	217.172	240.022	187.613	373.187	416.376	0.0018321	0.00088991	0.00023585	1322.4	3.8559e-06	2.0953e-06	1329.4	366.63	1.4474e-05	8.0024e-06	415.31	139.6	124.09	40.653	2.3537e-06	50.756	0.00066101	0.00064055	0.00017955	1360.7	7.0319e-06	7.0807e-06	1366.5	377	7.0776e-06	7.1211e-06	429.22	143.72	127.3	42.582	6.9909e-06	53.092	394.337	205.099	239.749	148.465	259.984	253.526	148.081	153.111	250.276	217.074	152.395	156.978	157.053	162.143	239.667	161.105	-8191	255	
729.651	1	1	0	0	0.14006	0.049223	0.11831	0.10083	0.047484	0.23994	0.55598	0.033939	0.21309	0.33506	0.30981	0.14941	0.14217	0.26771	0.078022	0.26982	-2.5958	-2.8583	-3.1646	-3.0104	-2.9896	-3.2021	-2.9708	-3.2146	-2.9771	-2.7438	-3.2542	-2.9729	-3.0333	-3.0854	-2.6521	-3.1833	435.036	248.361	298.756	138.757	438.386	331.563	488.552	355.894	441.594	455.540	139.204	419.173	143.560	445.824	142.194	431.904	0.0021119	0.00060048	0.00010876	1321.5	2.3689e-06	2.7377e-06	1333.8	366.51	4.6098e-06	2.3048e-06	413.99	139.93	124.07	40.631	1.1667e-05	50.867	0.00064726	0.00063665	0.0001765	1356.7	6.9235e-06	7.026e-06	1365.5	376.81	7.0747e-06	7.0405e-06	427.95	143.84	127.31	42.539	6.9876e-06	53.049	392.878	137.446	221.075	148.481	323.386	296.106	148.353	153.337	309.280	318.328	152.451	156.862	157.256	162.041	288.077	161.041	-8191	255	
729.747	1	1	0	0	0.094398	0.19925	0.35452	0.13799	0.18994	0.10723	0.17306	0.074463	0.19811	0.2079	0.17439	0.20055	0.21902	0.32436	0.093869	0.076865	-2.55	-2.6229	-3.1208	-2.95	-3.0083	-3.1625	-2.85	-3.2458	-3.0708	-2.8125	-3.4771	-3.0375	-2.8021	-3.275	-2.8187	-3.0062	218.378	158.001	398.078	158.887	474.249	431.482	279.208	248.118	306.145	476.507	402.754	151.869	463.941	455.358	418.202	373.313	0.0017939	0.00040575	0.00026419	1317.4	7.6161e-06	5.163e-06	1326.8	365.55	8.3071e-06	2.2451e-06	415.28	139.96	123.39	40.818	6.7776e-06	51.015	0.00065484	0.00064686	0.00017843	1357.4	7.0101e-06	7.0069e-06	1363.3	376.29	7.0749e-06	7.0685e-06	429.09	143.74	127.11	42.619	7.0597e-06	53.081	395.050	193.519	169.906	148.583	278.070	233.190	147.980	153.281	287.881	361.179	152.583	156.951	156.958	161.977	235.715	160.867	-8191	255	
729.843	1	1	0	0	0.31664	0.19891	0.22092	0.25122	0.17889	0.27932	0.13131	0.23675	0.14668	0.24854	0.22537	0.04553	0.49868	0.0097981	0.036619	0.36963	-2.6146	-2.5896	-3.2604	-3.1396	-2.9167	-3.1854	-2.9021	-3.2	-3.0667	-2.8125	-3.1208	-3.0708	-2.95	-3.2396	-2.8438	-3.1688	193.301	316.433	477.250	418.533	411.118	420.514	412.489	364.778	486.231	463.665	143.151	421.351	453.219	331.094	456.157	433.799	0.0022606	0.00020244	0.000105	1327.1	7.918e-06	7.7514e-06	1332.3	366.51	1.2644e-05	2.7776e-06	415.68	139.49	123.29	40.626	3.89e-06	50.721	0.0006599	0.00064468	0.00017862	1360.8	7.01e-06	6.9718e-06	1363.9	376.8	6.9265e-06	6.9195e-06	428.68	143.85	127.14	42.516	6.827e-06	53.058	397.221	353.984	204.675	148.626	305.001	236.057	148.147	153.008	235.042	325.756	152.778	156.954	156.982	162.354	236.390	161.199	-8191	255	
729.964	1	1	0	0	0.24521	0.13889	0.24803	0.22102	0.17204	0.071472	0.2573	0.10919	0.081272	0.12248	0.23164	0.10247	0.20592	0.16307	0.32252	0.13068	-2.6896	-2.7083	-3.1125	-3.1125	-2.6583	-3.1479	-2.8937	-3.0583	-3.0146	-2.7146	-3.2771	-2.9979	-2.875	-3.2708	-2.775	-3.05	217.090	346.136	453.347	465.810	471.110	479.505	484.167	157.523	315.660	424.017	146.160	489.671	492.126	477.705	451.222	479.117	0.0019436	0.00024596	0.00010042	1325.4	4.0538e-06	3.3017e-06	1330	365.51	1.8017e-05	1.8694e-06	412.84	139.49	123.35	40.809	4.9295e-06	50.783	0.00064172	0.00062439	0.00017473	1357.2	6.9144e-06	6.8669e-06	1362.8	376.35	6.7945e-06	6.9105e-06	427.72	143.77	126.92	42.558	6.8975e-06	52.989	392.725	237.366	155.543	148.558	272.509	295.023	148.417	153.234	262.722	320.896	152.381	157.066	156.997	162.147	190.964	160.972	-8191	255	
730.036	1	1	0	0	0.10648	0.23547	0.1327	0.023033	0.16976	0.096449	0.3193	0.17324	0.11942	0.084405	0.36229	0.081625	0.096019	0.19751	0.099072	0.45785	-2.6604	-2.625	-3.0062	-3.2104	-2.7896	-3.2417	-2.9521	-3.0396	-3.0938	-2.8937	-3.0708	-3.0479	-2.8625	-3.1896	-2.8458	-2.9458	229.716	237.790	410.029	369.709	367.946	322.331	467.029	446.529	143.520	272.049	417.753	171.906	458.908	189.515	455.180	438.203	0.0019433	0.00082818	0.00013212	1319	3.6826e-06	8.1309e-06	1326.8	365.38	1.4787e-05	3.5882e-06	414.86	140.19	123.12	40.69	6.0702e-06	50.529	0.00064574	0.00064347	0.00017722	1355.6	6.9842e-06	6.9971e-06	1361.9	375.75	6.9953e-06	7.0368e-06	428.51	143.66	126.94	42.499	6.9454e-06	52.875	392.687	254.225	204.971	148.658	275.587	265.918	148.281	153.374	268.547	294.790	152.428	156.972	157.073	162.130	248.002	161.209	-8191	255	
730.132	1	1	0	0	0.076072	0.34613	0.011766	0.22848	0.17979	0.1092	0.21906	0.46812	0.30045	0.07137	0.22991	0.42282	0.046387	0.0543	0.10763	0.14796	-2.5771	-2.8104	-2.9854	-3.3	-2.9396	-3.0875	-3.1271	-2.9125	-3.3771	-2.8937	-3.0667	-3.2562	-2.95	-3.3479	-3.0792	-3.0104	186.666	466.703	266.782	464.385	305.974	137.968	458.881	423.951	135.362	356.549	143.323	488.696	302.808	470.823	279.367	379.593	0.0019696	0.00066947	1.7136e-05	1315.9	1.5892e-06	7.6589e-06	1321.6	366.44	8.8618e-06	2.3181e-06	414.6	139.82	123.64	40.714	7.799e-06	50.383	0.00064938	0.00064158	0.00017617	1355.2	6.9326e-06	6.9388e-06	1359.4	376.15	6.9374e-06	6.9451e-06	428.54	143.66	126.97	42.506	6.9207e-06	52.883	399.150	282.523	280.176	148.673	227.183	258.760	148.367	153.033	238.809	319.649	152.411	156.691	156.992	162.113	298.251	161.161	-8191	255	
730.252	1	1	0	0	0.24561	0.058026	0.081145	0.2444	0.083232	0.14631	0.045315	0.14406	0.13346	0.06564	0.18835	0.2005	0.23312	0.039974	0.087082	0.14446	-2.7375	-2.5625	-2.9229	-3.2521	-2.6979	-3.0521	-3.1604	-2.95	-3.0792	-2.8646	-3.0312	-3.1333	-2.7313	-2.975	-3.025	-2.7354	429.096	252.685	362.044	448.743	235.656	199.836	223.034	489.663	338.716	367.810	474.485	178.982	429.469	184.009	402.306	311.519	0.0019466	0.00041641	0.00014722	1319.5	7.8079e-06	1.641e-06	1328.6	364.97	1.589e-05	2.6726e-06	413.23	139.77	123.34	40.721	4.5162e-06	50.694	0.00064303	0.0006338	0.00017584	1352.6	6.9486e-06	6.9063e-06	1358.1	376.02	6.904e-06	6.8972e-06	427.4	143.51	126.78	42.509	6.9035e-06	52.925	401.041	241.864	159.876	148.728	238.177	466.867	148.129	153.292	299.901	293.549	152.641	156.986	157.197	162.334	275.776	161.194	-8191	255	
730.347	1	1	0	0	0.26444	0.05038	0.12184	0.062835	0.060218	0.12693	0.11974	0.21204	0.13715	0.091541	0.05116	0.053357	0.12026	0.12292	0.18726	0.068445	-2.7458	-2.7375	-2.9958	-3.3563	-2.8583	-3.0958	-3.2917	-2.8625	-3.2229	-2.9813	-3	-3.3083	-2.8667	-2.9583	-3.2062	-2.8771	318.950	303.924	167.074	340.872	447.693	152.149	357.486	416.847	314.934	212.339	397.218	235.121	186.502	434.748	434.509	371.177	0.0021405	0.00058054	6.0154e-05	1314.9	5.6148e-06	5.3822e-06	1323.9	365.38	6.6187e-06	5.3906e-06	415.45	140.69	123.71	40.706	4.5627e-06	50.655	0.00064469	0.00063506	0.00017675	1352.1	6.9486e-06	6.9558e-06	1357.9	375.82	6.9943e-06	6.9703e-06	428.37	143.97	127.15	42.441	6.9593e-06	52.968	395.865	240.013	203.783	148.694	195.275	286.963	148.338	153.192	250.085	295.724	152.488	157.141	157.030	161.935	282.887	161.186	-8191	255	
730.443	1	1	0	0	0.23267	0.13867	0.36873	0.18993	0.12863	0.069924	0.22072	0.24247	0.19213	0.099982	0.1273	0.2239	0.077571	0.17974	0.1768	0.10453	-2.7042	-2.8396	-2.6937	-3.3875	-2.8458	-3.0854	-3.3146	-2.8438	-3.1021	-3.0271	-2.7854	-3.2604	-2.8146	-2.9833	-3.2021	-2.8854	156.903	278.228	429.934	146.852	189.567	314.489	447.080	148.534	252.120	299.072	434.950	461.587	144.444	220.377	253.396	212.491	0.0020845	0.0002081	1.8095e-05	1311.2	2.7708e-06	1.0838e-05	1328.8	366.68	1.5098e-05	6.5694e-06	415.06	140.47	123.87	40.739	3.6009e-06	50.575	0.00064981	0.00063717	0.00017696	1349.1	6.928e-06	6.8895e-06	1358.5	376.08	6.8902e-06	6.8781e-06	428.26	143.88	127.13	42.496	6.9354e-06	52.962	393.774	211.671	356.634	148.811	241.782	237.270	148.364	153.336	241.710	254.916	152.553	156.954	157.257	162.226	296.458	161.063	-8191	255	
730.563	1	1	0	0	0.27314	0.12517	0.24011	0.071207	0.23329	0.080963	0.3129	0.10062	0.084101	0.16185	0.19401	0.18065	0.20293	0.12177	0.10595	0.086135	-2.6208	-2.9771	-2.7333	-3.5271	-2.8583	-2.8833	-3.2313	-2.8646	-2.9979	-3.1417	-2.6896	-3.1875	-2.8688	-2.9125	-3.2292	-2.7729	454.937	242.484	493.392	235.862	485.156	161.410	410.577	415.824	205.926	435.040	478.687	419.643	361.922	268.233	476.635	461.036	0.0017214	0.00047945	0.00019592	1317.9	4.6471e-07	4.2245e-06	1322.5	365.99	8.8752e-06	4.4789e-06	414.02	139.72	123.1	40.64	3.3117e-06	50.593	0.00064389	0.00063153	0.00017563	1351.7	6.9597e-06	6.9387e-06	1355.5	375.42	6.9344e-06	6.9167e-06	427.14	143.5	126.86	42.498	6.9262e-06	52.856	393.002	135.504	277.509	148.682	393.425	261.740	148.253	153.281	232.278	313.870	152.454	156.877	157.032	162.200	207.306	161.075	-8191	255	
730.660	1	1	0	0	0.27691	0.16069	0.12694	0.06738	0.12612	0.13572	0.12274	0.092479	0.07674	0.20512	0.067946	0.10554	0.18335	0.26632	0.13868	0.19402	-2.4917	-3.0167	-2.7583	-3.4125	-2.9229	-2.7375	-3.3583	-2.9042	-3.0854	-2.9646	-2.9188	-3.2458	-3.0542	-2.9625	-3.1896	-2.775	142.791	415.557	345.849	153.844	180.224	456.164	449.031	137.879	382.829	414.757	136.761	378.653	418.996	485.405	421.916	410.335	0.0021717	0.00061422	9.5925e-05	1314.2	4.9386e-06	6.4745e-06	1326.4	366.21	6.2457e-06	3.5677e-06	413.7	139.99	123.61	40.593	6.0483e-06	50.784	0.00064537	0.00063929	0.0001778	1352.2	6.9948e-06	6.961e-06	1356.8	375.51	6.9318e-06	7.0115e-06	427.13	143.51	126.83	42.474	6.9664e-06	52.951	392.866	225.589	302.425	148.835	237.253	223.924	148.138	153.315	248.426	279.607	152.604	156.873	156.814	162.190	210.230	160.979	-8191	255	
730.731	1	1	0	0	0.15466	0.091173	0.13159	0.20644	0.18425	0.31873	0.37033	0.24236	0.1337	0.12913	0.078244	0.073744	0.088676	0.13711	0.18145	0.16668	-2.4646	-2.9708	-2.6271	-3.2271	-3.0667	-2.9354	-3.4146	-2.9813	-2.8292	-3.1896	-2.8521	-2.9604	-2.9792	-2.8917	-3.1	-2.8875	414.352	299.790	363.165	465.528	259.816	261.603	431.729	402.874	176.529	399.870	265.009	299.511	150.715	190.640	177.663	140.629	0.0018981	0.00034603	8.5822e-05	1311.9	6.5537e-06	2.6259e-06	1320.1	365.41	1.0622e-05	3.0445e-06	413.63	139.64	123.03	40.509	5.5274e-06	50.54	0.00064166	0.00063266	0.00017636	1351	6.9766e-06	6.8975e-06	1356.1	375.37	6.8965e-06	6.9208e-06	427.04	143.48	126.84	42.402	6.8974e-06	52.808	395.011	159.403	185.789	148.562	307.319	274.316	148.235	153.328	226.006	206.260	152.438	156.909	157.266	162.269	311.754	161.196	-8191	255	
730.827	1	1	0	0	0.12463	0.091375	0.12242	0.27935	0.17143	0.32152	0.16876	0.24994	0.28739	0.19695	0.082132	0.25204	0.052785	0.075925	0.33225	0.30222	-2.3646	-3.0271	-2.8271	-3.2812	-3.0958	-2.7708	-3.3542	-3.1688	-2.7354	-3.1104	-2.9208	-3.0396	-3.0729	-2.7396	-3.025	-2.9958	135.418	322.642	215.789	459.311	409.131	326.875	462.506	147.643	332.789	406.207	327.757	492.216	383.842	251.881	246.715	473.998	0.0018844	0.00034342	9.9761e-05	1303.7	5.4263e-06	2.1754e-06	1319.8	363.94	4.9819e-06	2.6889e-06	412.11	139.53	123.57	40.56	5.0306e-06	50.776	0.00064193	0.00063779	0.00017724	1347.3	6.9742e-06	6.9538e-06	1355.7	375.3	6.901e-06	6.8978e-06	427.66	143.37	126.94	42.413	6.9784e-06	52.907	385.270	238.455	208.907	148.584	260.467	216.857	148.130	153.241	239.725	305.989	152.472	157.143	157.102	162.002	250.703	161.091	-8191	255	
730.948	1	1	0	0	0.10281	0.10864	0.24215	0.075859	0.075473	0.070769	0.17633	0.16683	0.15966	0.093925	0.33815	0.21541	0.30052	0.29517	0.26094	0.15919	-2.3521	-3.0187	-2.4542	-3.1188	-3.0062	-2.7625	-3.4271	-3.1417	-2.7812	-3.0771	-2.9854	-3.0792	-2.9854	-2.7375	-3.1833	-3.0146	214.109	370.822	320.993	424.680	494.556	138.808	367.024	422.837	244.656	232.172	406.604	461.756	460.152	150.706	381.836	493.336	0.0024002	0.00049448	7.8928e-05	1308.4	1.3126e-05	4.0854e-06	1322.2	363.77	2.7114e-06	3.8773e-06	412.33	139.11	123.04	40.564	5.344e-06	50.581	0.00064496	0.00062901	0.000176	1347.6	6.9656e-06	6.9507e-06	1356.5	375.28	6.9206e-06	6.9392e-06	427.16	143.15	126.84	42.373	6.8841e-06	52.855	400.058	243.795	225.731	148.677	253.963	195.023	148.185	153.256	222.800	186.835	152.521	156.948	157.065	161.827	340.447	161.348	-8191	255	
731.044	1	1	0	0	0.146	0.25847	0.10458	0.042549	0.20491	0.071814	0.39267	0.33432	0.15329	0.16188	0.25496	0.3165	0.10875	0.21883	0.14652	0.12879	-2.4771	-3.2271	-2.8125	-3.1667	-3.0958	-2.7854	-3.1604	-3.0271	-2.7396	-3.0375	-3.0833	-2.9562	-3.0812	-2.9396	-3.0021	-3.2208	322.585	251.188	202.701	379.157	177.557	397.086	404.598	454.419	367.037	477.260	135.526	464.967	167.072	495.359	239.370	382.869	0.0018688	0.00070091	0.00018501	1306.9	6.3867e-06	2.6994e-06	1321.4	364.39	9.0311e-06	5.1822e-06	413.47	139.55	123.88	40.701	7.0839e-06	50.672	0.00064678	0.00062975	0.00017532	1347.6	6.9784e-06	6.882e-06	1355.2	374.88	6.9081e-06	6.948e-06	427.1	143.42	126.96	42.368	6.8723e-06	52.781	397.250	279.291	220.250	148.442	249.695	284.521	148.344	153.365	280.472	217.471	152.522	156.929	157.085	162.169	261.473	161.070	-8191	255	
731.140	1	1	0	0	0.057329	0.22651	0.25386	0.16531	0.29224	0.094087	0.21138	0.20043	0.16174	0.26179	0.21962	0.046664	0.32526	0.19816	0.11093	0.20762	-2.3521	-3.2188	-2.75	-2.9562	-3.0875	-2.6958	-3.0354	-3.1708	-2.8958	-3.2208	-2.9104	-2.9667	-3.2604	-2.7104	-2.9667	-3.1688	287.360	199.648	140.396	386.743	250.894	227.783	440.346	440.724	178.729	353.391	291.983	420.565	412.959	472.039	165.056	437.903	0.0021806	0.00064606	0.00014919	1311.7	1.081e-05	7.7537e-06	1323.8	364.77	8.0353e-06	5.7126e-06	409.2	139.53	123.92	40.623	3.2327e-06	50.32	0.00064618	0.00063359	0.00017592	1350	6.9633e-06	6.9296e-06	1358.2	375.29	6.9143e-06	6.9435e-06	426.17	143.59	126.99	42.448	6.9047e-06	52.756	394.648	244.847	236.317	148.735	240.738	313.198	148.192	153.084	219.543	234.984	152.612	157.175	157.271	162.024	242.354	161.365	-8191	255	
731.235	1	1	0	0	0.19997	0.23937	0.16365	0.025809	0.14315	0.10758	0.21345	0.21875	0.076564	0.09969	0.21154	0.16672	0.2148	0.22887	0.090455	0.15901	-2.4437	-2.9583	-2.9875	-2.9813	-3.1417	-2.9521	-3.2271	-3.3167	-2.8083	-3.175	-3.1708	-3.0917	-3.1604	-2.6979	-2.9125	-3.3625	494.828	433.472	219.294	316.897	217.240	438.576	434.816	360.853	303.576	418.796	488.251	414.510	416.953	420.017	408.257	474.421	0.0019707	0.00087077	6.2658e-05	1312.1	3.924e-06	2.5031e-06	1324.4	363.56	1.088e-05	8.8206e-06	412.74	139.12	123.38	40.779	1.2592e-05	50.842	0.00064325	0.00063796	0.00017536	1350.6	6.9405e-06	7.0082e-06	1355.9	374.81	6.9316e-06	6.9876e-06	426.99	143.42	126.92	42.45	6.9109e-06	52.969	399.338	282.139	188.375	148.616	272.009	280.317	148.049	153.290	260.055	302.936	152.741	157.161	157.104	162.059	244.590	161.148	-8191	255	
731.331	1	1	0	0	0.062116	0.14215	0.3076	0.071283	0.13144	0.24961	0.28922	0.21046	0.18696	0.20703	0.16991	0.26242	0.070294	0.36157	0.26302	0.17957	-2.2958	-3.0583	-2.9458	-2.9833	-3.1167	-2.9708	-3.0104	-3.1667	-2.75	-3.0375	-3.2188	-2.8646	-3.3063	-3	-2.925	-3.2896	247.033	468.984	272.736	183.766	202.933	223.068	461.568	463.016	459.415	304.943	149.514	406.299	410.220	453.575	168.665	485.086	0.0019199	0.00089679	0.00013032	1312	1.8405e-06	6.4611e-06	1321	364.69	1.7749e-05	6.1087e-06	412.78	139.21	122.82	40.653	1.6385e-06	50.542	0.00064238	0.00063609	0.00017662	1350.4	6.9355e-06	6.9604e-06	1356.8	375.66	6.9157e-06	6.9572e-06	427.62	143.57	126.81	42.504	6.9877e-06	52.948	392.743	149.546	213.133	148.686	327.000	243.906	148.468	153.105	191.445	285.976	152.380	157.145	157.032	162.141	238.621	161.207	-8191	255	
731.427	1	1	0	0	0.24915	0.14954	0.1683	0.49193	0.11772	0.33162	0.04077	0.27651	0.21941	0.17677	0.25752	0.13859	0.17464	0.2773	0.11498	0.14999	-2.3458	-3.1417	-2.9188	-2.9021	-3.1	-3.0917	-3.0438	-3.3583	-2.9437	-3.0396	-3.2542	-2.8417	-3.15	-3.0604	-2.7917	-3.3771	332.942	358.595	233.713	416.693	197.269	358.184	471.773	408.061	223.429	348.927	435.890	431.802	271.784	454.938	402.588	424.967	0.0021337	9.58e-05	0.00013308	1307.6	1.7736e-06	1.2554e-05	1322.4	363.71	1.5866e-05	1.0544e-05	413.72	139.45	123.3	40.802	4.0654e-06	50.492	0.00065513	0.00063702	0.00017778	1350.6	7.008e-06	7.0294e-06	1358.4	375.42	7.0015e-06	6.9867e-06	427.6	143.59	126.91	42.515	6.9436e-06	52.923	395.661	402.862	224.787	148.793	266.626	267.246	148.376	153.319	251.475	293.336	152.505	156.885	157.403	162.228	249.837	161.024	-8191	255	
731.525	1	1	0	0	0.2765	0.13652	0.14686	0.37897	0.18719	0.18883	0.24773	0.18198	0.043187	0.1998	0.25006	0.071058	0.027828	0.18927	0.28002	0.30999	-2.2375	-2.9458	-3.075	-2.9271	-3.1333	-3.1937	-2.9479	-3.3187	-2.8375	-2.9813	-3.2438	-2.8979	-3.1521	-3.0396	-2.7396	-3.1125	368.751	254.205	207.775	493.019	144.055	337.430	464.675	352.529	410.691	479.379	156.265	492.018	144.670	441.119	179.904	412.227	0.0021011	0.00072278	0.000183	1308.2	8.9061e-06	9.0469e-06	1321.6	363.64	9.6243e-06	1.956e-06	413.6	139.23	122.92	40.516	6.9333e-06	50.657	0.00064575	0.00064165	0.00017948	1348.3	7.0131e-06	7.0674e-06	1355.4	375.41	7.087e-06	7.0934e-06	427.53	143.46	126.83	42.431	7.1763e-06	52.997	397.956	191.787	228.569	148.504	271.686	326.540	148.240	153.379	214.789	365.611	152.310	156.834	157.469	162.236	211.366	161.195	-8191	255	
731.644	1	1	0	0	0.079519	0.14459	0.15184	0.22108	0.17322	0.27437	0.19273	0.20681	0.089195	0.27524	0.21541	0.02173	0.090115	0.19015	0.17685	0.27104	-2.3563	-2.8854	-3.0479	-2.9375	-3.2042	-2.9854	-2.9292	-3.2417	-2.6833	-3.0271	-3.2854	-2.7083	-2.9958	-3.1646	-2.4083	-3.1729	292.998	218.626	494.990	441.547	294.016	441.722	377.528	454.949	462.290	487.595	419.291	367.632	474.579	442.163	427.976	419.456	0.0021261	0.00080881	0.00012963	1306.2	4.7745e-06	1.0631e-05	1319.7	364.41	6.3011e-06	4.3642e-06	413.23	138.98	123.69	40.573	1.0313e-05	50.523	0.00066368	0.00065294	0.00018049	1348.9	7.1539e-06	7.1344e-06	1355.1	375.45	7.0606e-06	7.1004e-06	427.29	143.52	126.99	42.431	7.0601e-06	52.941	398.957	223.000	296.223	148.763	254.343	313.766	148.352	153.194	256.464	260.528	152.304	156.825	157.086	162.015	254.363	161.234	-8191	255	
731.740	1	1	0	0	0.1606	0.031308	0.10461	0.18744	0.032603	0.2704	0.27314	0.22794	0.19167	0.13907	0.1047	0.21032	0.19834	0.14177	0.11728	0.20087	-2.4	-2.8604	-3.025	-2.9375	-2.9896	-3.1813	-2.9313	-3.2438	-2.8354	-2.8771	-3.3688	-2.7313	-3.1646	-3.3792	-2.6437	-3.2146	405.793	406.504	328.752	401.917	167.858	494.386	428.144	306.724	356.731	387.436	274.192	378.077	407.916	364.457	251.500	450.837	0.0020307	0.00035471	2.9779e-05	1307.5	4.1152e-06	9.5465e-06	1321.9	365.83	1.3995e-05	3.4986e-06	412.6	139.6	123.67	40.635	4.9601e-06	50.436	0.0006541	0.0006435	0.0001779	1348.2	7.0805e-06	7.02e-06	1356.6	375.71	7.0201e-06	6.9572e-06	427.75	143.54	127.04	42.513	6.9641e-06	52.924	406.281	231.182	326.646	148.812	334.685	300.528	148.237	153.209	266.757	285.647	152.580	157.130	157.176	162.390	328.797	161.122	-8191	255	
731.836	1	1	0	0	0.091951	0.19822	0.21575	0.29938	0.16909	0.17757	0.38491	0.18085	0.25419	0.19301	0.17825	0.19017	0.072865	0.14994	0.17577	0.13527	-2.3438	-2.5854	-3.1479	-2.9833	-2.9417	-3.1813	-2.8563	-3.3229	-3.1521	-2.6208	-3.3354	-2.9229	-2.9667	-3.1896	-2.5312	-3.2271	405.487	141.349	172.294	480.439	193.912	223.614	472.847	467.115	248.328	387.294	166.460	471.484	302.812	414.824	358.489	475.102	0.0021998	0.00086398	0.00014677	1306.1	4.6335e-06	1.2645e-06	1319.2	364.9	1.7796e-05	7.3125e-06	413.94	139.76	123.64	40.827	3.3085e-07	50.695	0.00065071	0.00064203	0.00017769	1346.3	6.988e-06	6.9942e-06	1355.9	375.39	7.0073e-06	7.0223e-06	427.44	143.73	126.98	42.514	7.0461e-06	53.04	394.522	289.242	222.892	148.787	189.933	258.879	148.231	153.450	231.228	279.670	152.475	157.009	156.947	162.106	293.733	161.016	-8191	255	
731.932	1	1	0	0	0.25004	0.15459	0.18137	0.11417	0.098059	0.1592	0.34524	0.25287	0.22808	0.14429	0.14558	0.18428	0.13363	0.15652	0.15891	0.35956	-2.6021	-2.6708	-3.1167	-3.0792	-2.7875	-3.2396	-2.8458	-3.2438	-3.0125	-2.8688	-3.2542	-3.0208	-2.8479	-3.3479	-2.7729	-3.0396	157.281	444.425	487.381	410.130	302.151	233.427	437.196	431.922	375.389	326.655	210.291	380.298	418.921	440.422	308.892	480.187	0.0021294	0.00094624	7.1382e-05	1311.2	5.3756e-06	4.8806e-06	1323.3	364.07	8.0607e-06	5.9459e-06	413.05	139.47	123.6	40.705	5.238e-06	50.689	0.00065419	0.00064646	0.00017975	1350.4	7.1306e-06	7.1087e-06	1358.5	375.74	7.1651e-06	7.1445e-06	427.98	143.52	127.55	42.393	7.1264e-06	52.97	396.799	184.575	250.142	148.668	284.717	230.680	148.329	153.099	238.648	294.570	152.694	156.875	156.900	162.006	354.245	160.893	-8191	255	
732.027	1	1	0	0	0.2662	0.032319	0.14055	0.27082	0.12267	0.11918	0.43883	0.34466	0.049555	0.23491	0.19205	0.17537	0.14997	0.058161	0.11156	0.096779	-2.6021	-2.8125	-3.0812	-3.0146	-2.7646	-3.1125	-2.8917	-3.2583	-3.15	-2.8812	-3.1937	-2.9	-2.7271	-3.2938	-2.7062	-2.8896	412.334	486.975	358.699	443.620	247.018	458.880	419.915	446.793	451.388	481.287	482.125	147.616	486.453	153.877	374.630	255.779	0.002011	9.5639e-05	0.00020234	1310.4	5.3622e-06	1.0327e-05	1324.6	363.33	5.6618e-06	1.7175e-06	411.85	139.46	123.56	40.641	4.3312e-06	50.598	0.00066379	0.00065517	0.00018151	1352	7.1658e-06	7.0986e-06	1359.5	375.79	7.0922e-06	7.1285e-06	428.31	143.85	127.25	42.47	7.1264e-06	53.013	388.257	373.384	262.420	148.691	301.897	234.405	148.139	153.105	234.892	482.266	152.649	157.149	157.264	162.273	309.787	161.146	-8191	255	
732.123	1	1	0	0	0.062084	0.10012	0.21103	0.13807	0.04129	0.037295	0.063349	0.17163	0.073266	0.29937	0.3622	0.17252	0.087419	0.15374	0.13246	0.11852	-2.6292	-2.6854	-3.0021	-3.0396	-2.8312	-3.0583	-3.0167	-2.9875	-3.2021	-2.7562	-3.0667	-3.1688	-2.7042	-3.2875	-2.7417	-2.9813	278.651	488.837	153.220	433.594	267.754	198.759	345.417	414.536	458.038	439.497	470.161	447.593	385.893	457.986	205.341	484.101	0.0021926	0.00044532	0.00016931	1311.8	8.4963e-06	7.0993e-06	1322.6	364.89	1.149e-05	3.1085e-07	414.75	139.59	123.26	40.679	2.3622e-06	50.919	0.00066665	0.00065683	0.00018242	1352.5	7.2007e-06	7.2402e-06	1359.9	376.29	7.2967e-06	7.2586e-06	428.99	143.86	127.37	42.572	7.3089e-06	53.192	402.348	231.915	244.018	148.763	240.674	228.258	148.180	152.955	228.640	197.737	152.647	156.928	157.238	162.088	341.133	161.038	-8191	255	
732.243	1	1	0	0	0.15623	0.041736	0.19528	0.35709	0.033666	0.13706	0.19215	0.19163	0.21583	0.28632	0.23401	0.19797	0.065463	0.194	0.08262	0.36272	-2.6354	-2.7542	-2.9688	-3.1688	-2.6125	-3.0833	-3.0917	-3.0187	-3.0521	-2.7354	-3.1	-3.1271	-2.8917	-3.2667	-2.9292	-2.8604	485.398	172.405	170.574	489.351	426.175	136.791	445.642	481.633	257.884	373.360	437.135	400.728	453.100	480.814	303.383	336.454	0.0019343	0.00037557	9.1088e-05	1314.9	3.7512e-06	2.262e-06	1326.5	364.71	6.9986e-06	7.8118e-06	413.88	139.29	124.18	40.537	1.2591e-05	50.574	0.00067732	0.00066662	0.00018554	1356.2	7.2814e-06	7.2539e-06	1361.2	376.37	7.2982e-06	7.3258e-06	429.38	143.82	127.81	42.547	7.3988e-06	53.128	412.219	225.084	212.189	148.421	254.245	172.782	148.064	153.266	213.179	270.302	152.514	156.688	157.128	162.189	228.108	160.994	-8191	255	
732.340	1	1	0	0	0.19124	0.28371	0.34502	0.043978	0.20151	0.11233	0.52337	0.26416	0.071712	0.053785	0.28787	0.052912	0.3093	0.2578	0.21313	0.32991	-2.75	-2.6896	-2.9271	-3.1188	-2.6583	-3.075	-3.1354	-2.9667	-3.2021	-2.7687	-3.15	-3.0812	-2.6667	-3.1625	-2.825	-2.9354	254.164	432.047	365.703	163.862	412.194	278.724	458.789	455.189	159.648	184.194	349.392	152.390	138.549	178.833	237.604	474.331	0.0020266	0.00094203	0.00012416	1314.5	5.9631e-06	2.5049e-06	1319.7	366.44	1.4065e-05	2.499e-06	413.01	139.63	123.73	40.706	2.9003e-06	50.703	0.00067493	0.00067087	0.00018564	1356.3	7.2849e-06	7.3373e-06	1362.2	376.72	7.3644e-06	7.3168e-06	428.9	143.9	127.46	42.584	7.3076e-06	53.064	401.580	254.722	162.809	148.671	214.401	385.284	148.160	153.194	238.877	271.845	152.389	157.118	156.833	162.604	163.179	160.798	-8191	255	
732.436	1	1	0	0	0.13078	0.19508	0.041288	0.169	0.16875	0.032479	0.1268	0.45019	0.037011	0.091513	0.22656	0.20238	0.24358	0.21503	0.10871	0.28899	-2.8021	-2.7917	-2.7854	-3.2208	-2.825	-3.1292	-3.1562	-2.8583	-3.0646	-3.0646	-3.0563	-3.1792	-2.875	-2.8229	-3.0312	-2.7583	413.904	142.626	405.866	414.752	221.212	217.165	159.611	447.916	194.933	378.911	281.867	472.611	387.133	199.199	163.648	181.118	0.001776	0.0005967	7.6607e-05	1314.9	3.9537e-06	1.052e-05	1323.4	365.77	2.1514e-06	5.487e-06	413.96	139.63	123.32	40.823	8.9272e-06	50.481	0.00067927	0.00067019	0.00018635	1356.6	7.3174e-06	7.3579e-06	1362.6	377.1	7.2356e-06	7.3545e-06	429.3	143.84	127.63	42.621	7.3038e-06	53.089	397.490	277.198	246.401	148.463	302.811	300.132	148.092	153.181	202.954	327.877	152.538	156.914	157.512	162.313	250.631	161.222	-8191	255	
732.532	1	1	0	0	0.17836	0.07538	0.22352	0.21647	0.20587	0.12852	0.15286	0.15251	0.052099	0.15849	0.16977	0.11342	0.16649	0.21487	0.14565	0.28197	-2.7146	-2.9604	-2.825	-3.4667	-2.6917	-2.9521	-3.0979	-2.7854	-3.1063	-2.7188	-2.9646	-3.3563	-2.7667	-3.1875	-3.2062	-2.575	193.644	240.941	408.726	172.011	257.096	466.504	461.769	163.732	338.062	425.903	401.992	137.906	174.362	415.030	389.250	158.149	0.0019532	0.0010302	0.00026741	1313.3	3.3833e-06	5.6185e-06	1325.5	365.51	1.4774e-05	6.3975e-06	413.15	139.83	124.58	40.703	1.1554e-05	50.854	0.00067865	0.00067065	0.00018531	1354.8	7.2484e-06	7.3021e-06	1363.7	376.6	7.288e-06	7.2731e-06	429.1	144.01	127.73	42.602	7.2957e-06	53.166	394.569	217.911	181.785	148.641	239.409	290.433	148.207	153.114	266.131	336.001	152.640	156.908	157.073	161.891	310.950	161.194	-8191	255	
732.628	1	1	0	0	0.23978	0.052692	0.18038	0.34213	0.1672	0.2909	0.19339	0.29875	0.21187	0.24729	0.26473	0.19986	0.20597	0.272	0.40059	0.148	-2.6729	-2.8104	-2.7146	-3.2229	-2.9479	-2.9062	-3.1625	-2.7562	-2.9437	-3.0208	-2.7521	-3.2479	-2.8187	-2.8958	-3.2125	-2.7667	140.378	344.329	310.870	442.730	209.290	349.857	463.364	451.671	348.248	176.367	429.273	345.498	466.085	435.245	242.317	233.560	0.0019485	0.00060392	0.00011691	1318	5.2012e-06	5.2421e-06	1324.1	364.91	1.0268e-05	3.1239e-06	414.82	140.48	124.56	40.67	1.0182e-06	50.573	0.00067599	0.00066924	0.00018525	1357.2	7.2136e-06	7.2271e-06	1363.6	377.26	7.2101e-06	7.2714e-06	429.24	144.14	128.04	42.602	7.1962e-06	53.12	398.030	271.758	178.124	148.707	196.720	349.772	148.363	153.213	199.231	173.961	152.410	156.713	157.027	162.251	231.585	161.103	-8191	255	
732.724	1	1	0	0	0.11109	0.05872	0.22124	0.12763	0.10231	0.081262	0.29089	0.14271	0.22964	0.14214	0.18783	0.031952	0.058484	0.067278	0.091834	0.31415	-2.6667	-2.8479	-2.4625	-3.3354	-2.85	-2.9688	-3.2667	-2.9208	-2.8875	-3.0438	-2.9167	-3.2146	-2.8396	-2.8917	-3.0833	-2.8646	293.424	158.667	472.141	435.960	219.812	146.255	415.501	463.641	488.880	261.949	151.353	187.831	161.361	402.751	342.039	408.195	0.001679	0.0012229	0.00026151	1317.2	3.158e-06	3.202e-06	1326.4	367.5	1.022e-05	6.8337e-06	413.71	140.14	123.79	40.778	5.6442e-06	50.894	0.00067012	0.00065779	0.00018283	1356.7	7.1817e-06	7.1317e-06	1362.9	377.48	7.1638e-06	7.1931e-06	429.73	144.26	127.76	42.643	7.1594e-06	53.222	395.304	230.215	249.527	148.743	179.237	208.103	148.232	153.021	222.802	260.601	152.599	156.919	157.167	162.260	305.647	161.080	-8191	255	
732.819	1	1	0	0	0.15721	0.2738	0.16888	0.1031	0.12642	0.099496	0.34394	0.092501	0.18915	0.13858	0.10304	0.12907	0.038791	0.17485	0.11916	0.1554	-2.3438	-3.2313	-2.6958	-3.0854	-2.8375	-2.6583	-3.2542	-2.9229	-2.9583	-3.0167	-2.8375	-3.0708	-2.9729	-2.8146	-3.2542	-3.0104	161.115	163.747	412.465	144.568	238.929	160.748	461.242	144.352	170.068	381.254	436.279	191.949	148.616	143.970	370.956	358.921	0.0020095	0.00078658	0.00014956	1319.4	8.4048e-06	3.9458e-06	1327.5	365.94	1.371e-05	3.1177e-06	413.83	139.84	124.3	40.813	9.0605e-06	50.905	0.00066662	0.00065953	0.00018074	1356.3	7.2387e-06	7.1867e-06	1363.9	377.19	7.1008e-06	7.2319e-06	429.1	144	127.7	42.627	7.1439e-06	53.18	398.841	222.292	216.473	148.738	254.008	301.430	148.218	153.257	259.159	449.579	152.881	157.010	156.894	162.165	251.924	161.137	-8191	255	
732.915	1	1	0	0	0.11686	0.10743	0.19205	0.27195	0.23484	0.085263	0.12256	0.32516	0.026875	0.17671	0.20756	0.058143	0.14992	0.15853	0.22534	0.28109	-2.4667	-3.0417	-2.6813	-3.025	-3.0229	-2.5792	-3.2896	-2.8771	-2.9375	-3.0917	-2.7958	-3.0396	-3.1	-2.65	-3.0312	-2.9333	311.594	269.956	441.305	447.871	162.788	298.618	475.039	453.973	221.740	411.880	487.743	184.478	438.820	477.825	431.447	436.654	0.0019914	0.00057113	0.00012524	1316.6	3.2887e-06	6.6507e-06	1324	366.89	2.4302e-05	9.3881e-06	415.77	140.14	124.18	40.712	5.1745e-06	50.529	0.00066669	0.00066171	0.00018255	1355.1	7.212e-06	7.1851e-06	1363	377.01	7.1861e-06	7.1657e-06	429.38	144.12	127.67	42.597	7.1823e-06	53.039	394.302	203.039	214.472	148.442	322.948	246.365	148.139	153.135	247.721	259.851	152.560	156.888	156.876	162.114	197.266	161.114	-8191	255	
733.035	1	1	0	0	0.19575	0.1975	0.29399	0.18421	0.20721	0.1839	0.3902	0.34369	0.16152	0.1818	0.17978	0.31402	0.0563	0.28281	0.061979	0.1622	-2.5938	-2.9979	-2.7375	-2.9688	-2.9271	-2.6521	-3.1688	-2.8917	-2.9146	-3.1292	-2.9917	-3.1562	-3.0875	-2.8458	-3.1208	-3.0917	415.490	330.697	232.272	188.029	494.708	332.171	406.858	459.292	480.596	173.093	493.438	173.722	409.438	149.739	148.187	264.710	0.0020974	0.0004123	0.00016032	1316.9	6.2211e-06	1.0318e-05	1329.3	365.51	8.5925e-06	4.226e-06	413.2	140.39	124.52	40.466	9.7757e-06	50.856	0.00066732	0.00065839	0.00018328	1357.1	7.1375e-06	7.2078e-06	1363.3	376.65	7.0995e-06	7.1545e-06	428.93	144.28	127.77	42.563	7.0895e-06	53.172	391.143	248.665	227.706	148.929	245.781	247.195	148.152	153.324	175.675	248.480	152.414	156.868	156.953	162.052	282.583	161.271	-8191	255	
733.132	1	1	0	0	0.22541	0.081903	0.18436	0.11566	0.19778	0.08086	0.28198	0.33139	0.41562	0.10017	0.22334	0.16103	0.14506	0.27686	0.081309	0.11443	-2.3208	-3.1458	-2.7146	-3.0125	-3.0271	-2.65	-3.2667	-3.0792	-2.8187	-3.2875	-2.9417	-3.0104	-3.2125	-2.7375	-3.0917	-3.0521	424.293	196.946	453.849	164.765	236.986	418.002	442.487	409.365	363.814	493.588	392.207	190.313	482.848	468.159	307.875	461.986	0.0019416	0.0001968	0.00012083	1318	2.7409e-06	6.2583e-06	1327.7	365.61	1.1177e-05	1.5549e-06	413.53	139.95	123.85	40.595	2.8993e-06	50.514	0.00066436	0.0006593	0.00018335	1357.7	7.1723e-06	7.173e-06	1363.9	376.66	7.1921e-06	7.2353e-06	429.06	144.23	127.64	42.538	7.1805e-06	53.082	400.585	226.134	156.769	148.654	310.675	296.355	148.142	152.991	240.803	320.942	152.336	156.917	157.097	162.086	469.146	161.190	-8191	255	
733.203	1	1	0	0	0.17339	0.16546	0.26742	0.030867	0.17398	0.17192	0.11662	0.11755	0.077121	0.13923	0.086231	0.055461	0.12235	0.12667	0.24242	0.23016	-2.2917	-3.0896	-2.7771	-2.9417	-3.0354	-2.7313	-3.0458	-3.1208	-2.6312	-3.1583	-2.7042	-2.7417	-3.1458	-2.8	-2.9333	-3.0208	434.474	205.927	232.749	430.331	297.865	434.797	460.872	430.224	363.954	458.286	207.252	163.557	141.342	491.805	365.784	458.503	0.0019863	0.00026951	3.7937e-05	1318.3	1.0197e-05	7.9206e-06	1323.9	366.03	1.1939e-05	4.2095e-06	414.1	139.48	123.48	40.826	4.1793e-06	50.55	0.00066506	0.00066084	0.00018326	1355.8	7.2266e-06	7.2948e-06	1364.9	377.06	7.1851e-06	7.1907e-06	428.76	143.82	127.46	42.659	7.2138e-06	53.135	395.280	258.370	339.931	148.568	250.853	379.910	148.157	153.125	222.465	269.017	152.603	156.906	157.301	162.116	418.953	160.905	-8191	255	
733.324	1	1	0	0	0.11491	0.12193	0.23899	0.022649	0.12554	0.29275	0.23674	0.076628	0.021278	0.34209	0.22129	0.19512	0.036335	0.15689	0.19047	0.17074	-2.1917	-3.1063	-2.7687	-3.0062	-3.05	-2.525	-3.1	-3.0792	-2.7313	-3.0833	-3.1125	-2.8271	-3.1188	-2.7292	-2.9562	-3.1604	205.078	320.062	163.782	152.758	236.674	153.342	394.472	145.890	487.721	428.671	450.493	155.978	215.468	234.248	182.570	143.196	0.001769	0.00039375	6.7499e-05	1317.1	6.5942e-06	1.2851e-05	1322.6	366.28	2.4611e-05	1.0083e-05	413.44	139.93	123.5	40.563	2.4564e-06	50.674	0.00066799	0.00065325	0.00018326	1356.2	7.1764e-06	7.2368e-06	1361.9	376.95	7.1401e-06	7.1299e-06	428.85	144.19	127.78	42.6	7.1859e-06	53.093	393.062	215.210	235.837	148.582	278.768	244.847	148.121	153.054	221.338	262.942	152.735	156.995	157.167	162.370	238.409	161.168	-8191	255	
733.420	1	1	0	0	0.068972	0.2346	0.22141	0.1233	0.026173	0.19141	0.27222	0.075105	0.028912	0.15355	0.10275	0.18628	0.32743	0.10145	0.11459	0.334	-2.4104	-3.0187	-2.9313	-2.8917	-3.2271	-2.8292	-3.0854	-3.3208	-2.6688	-3.05	-3.1771	-2.9604	-3.3708	-2.8458	-2.9771	-3.1063	458.824	248.164	359.785	478.949	271.114	396.013	472.098	454.064	379.559	310.262	269.844	476.687	446.914	397.975	181.614	430.875	0.0021685	0.00077422	0.00020169	1319.8	6.7077e-06	8.7069e-06	1325.2	365.93	1.8811e-05	5.1912e-06	413.18	139.78	124.46	40.619	6.6943e-06	50.786	0.00066986	0.00065612	0.00018272	1356.3	7.1344e-06	7.1502e-06	1362.3	377.23	7.2272e-06	7.2691e-06	429.12	144.26	127.57	42.615	7.1975e-06	53.193	396.836	211.235	274.911	148.553	273.975	259.107	148.309	153.102	250.118	159.989	152.497	156.930	156.643	162.521	288.194	161.147	-8191	255	
733.516	1	1	0	0	0.25363	0.28146	0.19083	0.3156	0.13387	0.080092	0.11319	0.19436	0.15483	0.17621	0.25867	0.27728	0.12358	0.14307	0.21325	0.13785	-2.0938	-2.9833	-2.9437	-2.9188	-3.15	-2.9604	-3.1458	-3.4021	-2.7083	-2.9417	-3.0187	-2.7979	-3.2396	-2.9271	-2.925	-3.2729	362.389	438.408	258.671	470.733	177.704	325.354	371.362	345.211	246.071	185.546	428.306	444.880	381.690	399.934	271.396	379.034	0.0018553	0.00055461	6.6092e-05	1320.8	4.3022e-06	4.4293e-06	1325.4	367.44	1.4764e-05	4.5716e-06	415.39	140.1	124.3	40.818	5.1866e-06	50.938	0.00067232	0.00065721	0.00018351	1358.6	7.1979e-06	7.1857e-06	1363.2	377.46	7.1804e-06	7.1632e-06	429.3	144.15	127.79	42.587	7.2699e-06	53.183	400.077	255.387	165.029	148.575	232.407	343.246	148.004	153.325	260.149	306.744	152.572	156.812	157.214	162.077	287.707	161.263	-8191	255	
733.612	1	1	0	0	0.28831	0.23541	0.11528	0.27572	0.22641	0.073838	0.21779	0.16584	0.084596	0.063019	0.048798	0.095457	0.12627	0.1635	0.27993	0.18391	-2.3125	-2.9354	-2.8104	-2.75	-2.9333	-2.9542	-2.825	-3.3563	-2.7042	-2.9729	-3.1312	-2.7271	-2.9375	-3.0375	-2.6333	-3.2604	307.997	250.583	277.157	421.805	147.967	237.089	489.030	472.989	461.010	138.306	389.822	348.000	189.673	475.281	178.488	169.167	0.0021878	0.00093046	0.00011048	1320.2	4.2245e-06	9.3268e-06	1324.5	365.37	8.9493e-06	7.4697e-06	414.96	140.41	123.87	40.523	6.4957e-06	50.535	0.00067335	0.0006614	0.00018387	1357.1	7.2303e-06	7.2332e-06	1363.3	376.71	7.2563e-06	7.2055e-06	429.45	144.4	127.72	42.596	7.2164e-06	52.998	401.847	262.815	200.724	148.656	209.036	241.350	148.131	153.267	243.271	292.398	152.549	156.909	157.211	162.156	258.942	161.059	-8191	255	
733.733	1	1	0	0	0.18678	0.080646	0.15014	0.1683	0.24934	0.074711	0.40166	0.11188	0.071103	0.29006	0.082863	0.11166	0.20516	0.093084	0.1052	0.11446	-2.3167	-2.9125	-3.0396	-2.8458	-2.9562	-2.8542	-2.8479	-3.3167	-2.7854	-2.7958	-3.2542	-2.7354	-3.0521	-3.1167	-2.8646	-3.3146	441.795	479.733	151.500	388.164	201.004	426.111	460.357	406.557	428.676	298.417	415.384	417.809	276.346	435.177	346.672	485.284	0.0019588	0.00063282	0.00017762	1314.6	2.7344e-06	5.7618e-06	1325.1	365.53	9.9558e-06	6.8891e-06	413.58	140.23	123.84	40.686	1.4536e-05	50.941	0.00067174	0.00065918	0.00018325	1356.4	7.2597e-06	7.2312e-06	1364.5	376.9	7.1666e-06	7.1649e-06	429.71	144.57	127.72	42.612	7.1617e-06	53.255	393.421	191.317	207.209	148.392	199.218	289.138	148.217	153.022	278.138	250.244	152.639	157.003	157.180	162.196	244.266	160.782	-8191	255	
733.827	1	1	0	0	0.36524	0.15989	0.23778	0.16255	0.17592	0.2219	0.11992	0.16943	0.15307	0.20312	0.27255	0.34682	0.26781	0.31822	0.28307	0.2178	-2.4958	-2.7229	-3.0875	-2.7687	-2.9208	-3.0938	-2.8146	-3.2771	-2.8333	-2.8521	-3.2417	-3.0479	-2.9708	-3.0479	-2.85	-3.1083	251.978	173.280	186.430	150.927	281.968	451.460	392.513	432.591	361.836	345.861	480.932	454.599	420.632	330.884	413.008	426.368	0.0020746	0.00072226	0.00017121	1320	3.1407e-06	2.236e-06	1327.5	366.36	9.4945e-06	8.3423e-06	412.84	139.8	124.1	40.639	1.9726e-06	50.88	0.00066519	0.00066245	0.00018497	1360.4	7.242e-06	7.1814e-06	1365.4	377.68	7.1836e-06	7.2676e-06	429.15	144.28	127.94	42.62	7.2767e-06	53.217	399.965	275.870	260.408	148.874	328.506	342.770	148.128	153.115	215.781	227.316	152.395	156.745	157.452	162.015	144.696	161.049	-8191	255	
733.923	1	1	0	0	0.36576	0.17581	0.20431	0.21165	0.10433	0.072895	0.35817	0.24982	0.23522	0.066436	0.17245	0.22918	0.11948	0.178	0.069766	0.23063	-2.425	-2.8833	-3.275	-2.8063	-2.9021	-3.05	-2.6229	-3.2125	-2.925	-2.7354	-3.2479	-2.8917	-2.8792	-3.1813	-2.6042	-3.2854	316.458	307.507	240.247	350.904	283.893	296.321	139.449	475.410	234.397	152.692	147.758	387.523	301.017	407.002	340.234	483.627	0.002069	0.00073658	0.00013805	1315.5	7.6271e-06	5.8141e-06	1327.7	365.13	1.6577e-05	8.7708e-06	412.26	140.07	123.82	40.769	8.2582e-06	50.558	0.00067683	0.00066793	0.00018501	1360.3	7.3204e-06	7.2248e-06	1365	377.13	7.2587e-06	7.2917e-06	429.06	144.26	127.84	42.671	7.3034e-06	53.182	398.828	264.013	243.464	148.608	225.958	299.012	148.049	153.167	252.341	311.248	152.489	156.747	157.240	162.081	236.203	160.949	-8191	255	
734.020	1	1	0	0	0.057076	0.10338	0.0079108	0.13334	0.15408	0.24387	0.097811	0.27149	0.28828	0.15898	0.054676	0.20996	0.17368	0.30132	0.087391	0.039442	-2.5021	-2.8479	-3.0333	-2.8396	-2.8208	-3.0417	-2.7417	-3.0792	-3.0438	-2.7646	-3.1646	-2.8917	-2.9083	-3.1229	-2.9021	-2.9437	380.388	210.112	259.371	486.203	372.677	315.537	382.397	443.025	462.980	163.413	476.031	169.597	493.903	152.253	214.665	384.958	0.0021487	0.00087074	0.00015309	1317.4	9.3792e-06	8.3913e-06	1330.5	365.58	1.0616e-05	6.049e-06	413.81	139.45	123.93	40.839	6.122e-06	50.963	0.0006757	0.00066671	0.00018574	1359.9	7.2936e-06	7.2743e-06	1367	376.95	7.3547e-06	7.3166e-06	429.14	143.91	128.01	42.66	7.3087e-06	53.246	396.125	228.647	261.143	148.606	292.528	206.913	147.906	153.070	257.943	256.731	152.579	157.135	157.000	162.011	175.333	160.951	-8191	255	
734.116	1	1	0	0	0.084229	0.038857	0.075527	0.36093	0.066446	0.099448	0.33911	0.077844	0.11117	0.13076	0.33611	0.1702	0.26795	0.26866	0.10885	0.32052	-2.7062	-2.7	-2.9542	-3.0542	-2.7625	-3.2854	-3.0083	-3.0771	-3.0625	-2.7062	-3.15	-2.9542	-2.8583	-3.2938	-2.6688	-3.1167	461.894	353.441	241.023	420.527	249.511	399.748	451.455	418.329	384.643	457.709	422.548	377.997	258.563	444.101	258.900	457.423	0.002201	0.00056994	0.00013685	1317.4	3.707e-06	5.747e-06	1323.5	365.85	1.03e-05	6.4931e-06	414.22	140.05	124.58	40.594	6.9607e-06	50.669	0.00068123	0.00067298	0.0001852	1359.9	7.3293e-06	7.3509e-06	1364.4	376.98	7.3172e-06	7.321e-06	428.95	144.35	127.88	42.56	7.2914e-06	53.276	394.389	225.051	226.211	148.771	261.451	269.584	148.225	153.181	205.912	285.542	152.682	157.112	157.227	162.137	287.211	160.810	-8191	255	
734.212	1	1	0	0	0.061521	0.17857	0.11	0.24735	0.34128	0.19208	0.22833	0.24072	0.12946	0.12563	0.22401	0.16799	0.24454	0.14561	0.36955	0.078625	-2.875	-2.4333	-3.075	-3.0375	-2.7021	-3.2188	-2.9062	-2.9646	-3.0458	-2.5896	-3.0333	-3.1396	-2.5896	-3.3438	-2.8021	-2.9271	451.641	309.929	269.441	459.106	382.096	245.301	407.226	412.388	277.946	429.764	474.981	416.360	484.608	339.222	362.096	165.805	0.0018562	0.00037519	4.57e-05	1317	1.0275e-05	3.3091e-06	1325.3	366.24	1.919e-05	1.1439e-05	414.5	139.33	123.55	40.681	5.5192e-06	50.789	0.00068284	0.00066703	0.00018658	1359.3	7.3195e-06	7.3478e-06	1365.2	377.38	7.3278e-06	7.3504e-06	429.87	144.25	128	42.668	7.3923e-06	53.169	396.235	201.455	325.151	148.705	236.462	320.739	148.289	153.344	249.798	303.467	152.225	156.566	157.209	162.112	256.584	160.945	-8191	255	
734.333	1	1	0	0	0.20855	0.15277	0.1778	0.19709	0.1825	0.24675	0.27118	0.13258	0.11672	0.049457	0.13296	0.28651	0.095723	0.21681	0.21794	0.29377	-2.7146	-2.675	-2.8229	-3.1	-2.9333	-3.0271	-3.1312	-2.7917	-3.1979	-2.625	-2.9792	-3.1458	-2.8937	-3.2271	-2.9958	-2.8396	291.005	418.132	402.295	457.940	217.987	242.313	464.865	218.936	438.271	381.681	359.674	479.278	413.344	414.927	225.492	404.798	0.0020207	0.00087987	0.00017379	1316.2	2.7782e-06	5.2578e-06	1328	366.31	9.05e-06	1.0083e-05	414.15	140.16	124.38	40.834	4.166e-06	50.785	0.00068395	0.00067283	0.00018738	1358.5	7.37e-06	7.3828e-06	1367	377.33	7.3381e-06	7.3663e-06	429.89	144.51	128.08	42.67	7.3172e-06	53.221	391.328	221.094	232.238	148.791	235.175	329.698	148.281	153.349	267.217	279.195	152.376	156.627	157.263	161.937	303.042	161.192	-8191	255	
734.429	1	1	0	0	0.2399	0.2326	0.055622	0.13805	0.26311	0.076454	0.11158	0.093829	0.14487	0.21826	0.35448	0.32777	0.097007	0.10023	0.051252	0.1919	-2.6333	-2.675	-3.1021	-3.0687	-2.6813	-3.2438	-3.1292	-2.9583	-3.1729	-2.8125	-3.0021	-3.1396	-2.7458	-3.1583	-2.8771	-2.8833	302.805	450.171	204.287	212.273	251.534	180.366	360.228	296.033	230.964	326.932	393.854	480.826	483.392	361.175	177.802	418.508	0.0019479	0.00028493	7.1784e-05	1319.1	8.7988e-06	9.5524e-06	1331	365.14	1.4474e-05	8.5311e-06	414.77	139.89	123.49	40.884	6.4982e-06	51.013	0.0006813	0.0006668	0.00018594	1361.3	7.357e-06	7.3644e-06	1368.6	377.14	7.3137e-06	7.3425e-06	429.9	144.47	127.84	42.742	7.3382e-06	53.296	399.631	227.538	244.338	148.657	253.888	245.318	148.111	153.403	244.873	246.890	152.310	156.989	157.021	161.811	232.405	161.129	-8191	255	
734.500	1	1	0	0	0.13407	0.19374	0.22253	0.35238	0.23351	0.25615	0.23245	0.088298	0.030272	0.096051	0.3051	0.19327	0.31567	0.331	0.26241	0.26009	-2.7792	-2.675	-2.9271	-3.1604	-2.5792	-3	-3.1354	-2.8333	-3.0812	-2.9833	-2.9292	-3.2458	-2.8667	-3.225	-2.9958	-2.9333	473.876	296.000	495.316	466.993	442.003	268.246	476.674	390.964	325.735	243.319	156.853	471.757	465.561	210.108	144.470	456.604	0.0021373	0.00023786	0.00019482	1322.8	4.1858e-06	8.8406e-06	1338.4	366.83	2.2723e-06	4.6653e-06	416.48	140.88	124.38	40.581	8.2012e-06	50.666	0.00067901	0.00067269	0.00018699	1362.9	7.2814e-06	7.3348e-06	1370.4	377.96	7.2859e-06	7.3003e-06	430.23	144.69	128.2	42.629	7.244e-06	53.306	399.191	386.721	213.880	148.725	210.046	349.011	148.358	153.450	456.087	268.663	152.432	156.778	156.908	162.000	209.088	160.962	-8191	255	
734.597	1	1	0	0	0.23912	0.057278	0.12595	0.089639	0.20903	0.18208	0.32818	0.1755	0.023472	0.12511	0.11949	0.30056	0.21044	0.12522	0.23584	0.16715	-2.7583	-2.7146	-2.8021	-3.0792	-2.8125	-2.9958	-3.1312	-2.7771	-3.2062	-3.0146	-2.9604	-3.2417	-2.6271	-3.0896	-3.1646	-2.7708	160.446	179.282	269.473	287.929	439.617	471.832	428.236	366.405	295.038	139.282	380.224	488.586	490.171	482.578	379.607	447.088	0.0018867	0.00060666	0.00017997	1319.1	5.2249e-06	2.6008e-06	1331.7	365.49	1.2302e-05	4.6574e-06	415.78	139.81	124.2	40.764	4.4625e-06	50.782	0.00067605	0.00066178	0.00018459	1362.8	7.3365e-06	7.2451e-06	1371.7	377.82	7.2085e-06	7.3687e-06	430.58	144.64	128.3	42.738	7.3826e-06	53.322	391.959	212.085	225.759	148.567	317.815	416.444	147.916	153.048	234.900	315.751	152.457	157.061	157.066	162.292	239.894	161.466	-8191	255	
734.715	1	1	0	0	0.21895	0.17166	0.17732	0.38255	0.059425	0.24479	0.44903	0.084428	0.050113	0.17868	0.14246	0.076978	0.14771	0.091718	0.062627	0.29019	-2.5958	-2.8187	-2.6167	-3.2292	-2.5417	-2.9979	-3.2875	-2.8688	-3.0333	-3.0438	-2.8521	-3.2417	-2.7562	-3.0521	-2.9958	-2.5792	483.214	188.161	434.279	481.064	372.578	290.445	433.276	478.938	154.932	466.849	392.680	142.863	487.420	224.799	331.125	482.427	0.0020846	0.00044761	0.00016497	1323.7	8.7595e-06	6.2646e-06	1336.6	367.01	9.3865e-06	3.4702e-06	413.53	140.52	123.88	40.952	5.5645e-06	50.821	0.00068416	0.00067268	0.00018732	1365.2	7.3745e-06	7.4219e-06	1372.7	379.05	7.3253e-06	7.3561e-06	430.58	144.94	128.35	42.771	7.3808e-06	53.305	397.252	288.522	218.591	148.652	271.404	318.342	148.142	153.242	242.238	218.671	152.349	156.845	157.414	162.043	229.779	161.094	-8191	255	
734.812	1	1	0	0	0.19003	0.2604	0.34694	0.2278	0.095359	0.17815	0.22826	0.27176	0.18964	0.15915	0.17338	0.16302	0.32906	0.16807	0.024905	0.046674	-2.5896	-3.025	-2.7104	-3.1479	-2.875	-2.9333	-3.3417	-2.9083	-2.7438	-3.0021	-2.8563	-3.4437	-2.9375	-3.0271	-3.2833	-2.9188	371.687	168.872	135.735	453.571	379.800	453.886	471.137	426.557	358.939	372.830	456.389	451.348	390.977	167.440	148.615	456.448	0.0023015	0.00062708	0.00012666	1326.4	1.1625e-06	7.1316e-06	1339.5	366.56	9.4295e-06	7.0985e-06	411.64	140.69	123.84	40.728	3.6157e-06	50.631	0.00068661	0.00067613	0.00018601	1366.7	7.3537e-06	7.3179e-06	1373.2	378.64	7.2938e-06	7.361e-06	430.74	145.07	128.41	42.807	7.3998e-06	53.388	401.903	194.981	413.662	148.499	345.469	304.437	148.168	153.113	290.893	181.285	152.285	157.057	156.898	162.058	267.799	161.332	-8191	255	
734.908	1	1	0	0	0.17768	0.082928	0.23041	0.07127	0.079292	0.072931	0.25021	0.46277	0.16834	0.11429	0.12015	0.093703	0.31404	0.13241	0.28511	0.18553	-2.6188	-2.8604	-2.6646	-3.1271	-2.9833	-2.8042	-3.3688	-2.8604	-3.1521	-3.1208	-2.9375	-3.3042	-3.1188	-2.9125	-3.1646	-2.9625	494.575	487.011	207.206	369.426	344.780	180.197	420.953	443.222	272.688	451.255	371.694	463.126	470.448	457.365	320.161	362.597	0.0021493	0.00055024	0.00021658	1328.1	5.5597e-06	6.4029e-06	1334.5	366.68	7.2358e-06	4.8214e-06	413.29	140.52	124.36	40.702	4.1597e-06	50.72	0.00068277	0.00067975	0.00018889	1370	7.436e-06	7.4198e-06	1375.3	378.92	7.4228e-06	7.507e-06	431.19	145.28	128.64	42.889	7.4286e-06	53.431	396.804	247.159	150.666	148.728	224.539	235.129	148.165	153.109	235.961	338.828	152.342	156.892	157.037	161.960	231.734	161.061	-8191	255	
735.004	1	1	0	0	0.34286	0.12545	0.18833	0.30064	0.11148	0.15514	0.28547	0.24166	0.25751	0.12436	0.06479	0.11038	0.20044	0.10319	0.1998	0.23519	-2.525	-3.2188	-2.6792	-3.3292	-2.8667	-2.8708	-3.3354	-2.9896	-3.0604	-3.0458	-2.9479	-3.3833	-2.9521	-2.7625	-3.225	-2.9896	211.240	452.578	233.223	436.101	483.709	144.765	429.133	154.846	185.969	226.642	166.050	483.176	474.422	169.052	155.788	421.186	0.0018718	0.0004877	9.0468e-05	1324.3	6.4062e-06	3.2754e-06	1335	367.15	1.8644e-05	1.1556e-06	415.03	140.91	124.55	40.806	7.1921e-06	51.167	0.00069033	0.00067732	0.00018938	1368.3	7.4446e-06	7.4113e-06	1374.9	379.55	7.3921e-06	7.4334e-06	431.62	145.27	128.71	42.897	7.3151e-06	53.431	394.392	171.799	218.876	148.729	229.976	323.336	148.130	152.968	263.993	241.985	152.670	156.869	156.809	162.117	287.235	160.941	-8191	255	
735.124	1	1	0	0	0.27315	0.1259	0.28104	0.034134	0.11787	0.2928	0.10898	0.15509	0.11833	0.28492	0.33445	0.13553	0.14304	0.11093	0.11681	0.14453	-2.5625	-3.0583	-2.7083	-3.1375	-2.9604	-2.7604	-3.35	-3.1083	-2.9479	-3.3187	-2.9542	-3.0854	-3.0646	-2.8583	-3.2646	-2.9583	334.550	379.596	454.388	411.753	268.759	155.590	442.371	223.419	454.106	239.397	135.565	358.076	176.838	356.304	204.505	442.171	0.0020597	0.00090425	0.00015909	1325.5	3.7251e-06	9.0916e-06	1334.2	368.11	1.3499e-05	3.9325e-06	417.11	141.21	124.85	40.872	9.7498e-06	50.913	0.00068234	0.00067056	0.00018367	1367.6	7.2884e-06	7.2672e-06	1375.5	379.43	7.2447e-06	7.2243e-06	432.52	145.42	128.66	42.867	7.2405e-06	53.436	385.983	272.445	232.707	148.496	208.659	243.921	148.074	153.109	252.459	347.394	152.476	156.886	156.918	162.171	238.282	160.961	-8191	255	
735.196	1	1	0	0	0.28625	0.092779	0.39732	0.10285	0.13854	0.21585	0.25931	0.10647	0.14405	0.099002	0.13868	0.29576	0.14395	0.15169	0.11362	0.2218	-2.4604	-3.2625	-2.6979	-3.0521	-3.0646	-2.7458	-3.3333	-3.0604	-2.9208	-3.1292	-2.9104	-3.0812	-3.1625	-2.8104	-3.225	-3.0979	428.913	404.062	268.157	140.536	264.018	176.917	432.349	402.320	214.235	488.775	492.324	442.534	238.011	462.202	213.702	137.807	0.001948	0.00040841	0.00022138	1326.5	3.9964e-06	1.0203e-05	1337.8	369.2	1.8082e-05	5.4734e-06	416.23	141.11	124.84	41.05	3.1941e-06	50.823	0.00067507	0.00066421	0.00018319	1371.2	7.214e-06	7.2126e-06	1378.8	380.8	7.2244e-06	7.2572e-06	432.33	145.69	129	43.008	7.2774e-06	53.413	400.488	252.314	206.282	148.553	298.822	290.858	148.092	152.979	248.365	296.257	152.426	157.033	157.092	162.174	314.152	160.897	-8191	255	
735.292	1	1	0	0	0.14252	0.14131	0.22146	0.062082	0.084267	0.16587	0.12052	0.32945	0.067436	0.081457	0.22711	0.35637	0.27689	0.22233	0.20698	0.12652	-2.4375	-3.2792	-2.7708	-3.1146	-3.0812	-2.7396	-3.2125	-3.0646	-2.7562	-3.1813	-3.0021	-2.9625	-3.3104	-2.9771	-2.9292	-3.1646	425.221	379.445	190.098	408.725	342.552	469.360	412.771	468.641	366.027	460.553	415.916	142.281	437.556	374.833	465.105	385.636	0.002081	0.00075253	2.724e-05	1328.1	1.2849e-06	3.2069e-07	1336.8	369.47	1.0923e-05	3.051e-06	417.58	141.28	124.62	41.079	3.9889e-06	51.075	0.00067801	0.00066496	0.00018464	1370.8	7.2987e-06	7.3246e-06	1377.5	380.26	7.2694e-06	7.2634e-06	431.97	145.99	128.96	43.033	7.2207e-06	53.456	395.017	221.796	420.963	148.595	270.790	319.871	148.080	153.040	243.205	407.366	152.367	156.777	157.082	162.081	214.697	161.010	-8191	255	
735.413	1	1	0	0	0.088771	0.10412	0.10244	0.11493	0.23323	0.12567	0.16546	0.3646	0.079973	0.047044	0.25005	0.16773	0.11318	0.10721	0.035644	0.092122	-2.2958	-3.0458	-2.6917	-2.8875	-3.1896	-2.8	-3.2687	-3.2521	-2.8187	-3.1458	-2.8688	-3.0896	-3.2479	-2.8063	-3.0125	-3.2333	420.045	483.728	209.825	374.571	307.597	370.259	485.908	456.026	171.589	290.996	397.165	416.239	294.509	233.173	297.384	362.925	0.0020265	0.00016759	0.00015292	1327.8	4.5798e-06	1.5676e-05	1336.8	369.46	7.6359e-06	7.8905e-06	416.23	141.19	125.18	40.973	6.5722e-07	51.005	0.00067445	0.00066667	0.00018363	1371.1	7.2564e-06	7.2857e-06	1375.9	380.69	7.2872e-06	7.1475e-06	432.02	145.8	128.84	42.925	7.2723e-06	53.494	398.973	251.357	250.310	148.705	318.988	257.843	148.135	153.215	288.662	277.068	152.522	157.035	157.126	162.132	305.739	160.929	-8191	255	
735.509	1	1	0	0	0.2049	0.1676	0.10871	0.082855	0.16657	0.22436	0.17812	0.36867	0.19531	0.23648	0.25996	0.062313	0.12821	0.32943	0.12361	0.20135	-2.2083	-3.2125	-2.8	-2.85	-3.3771	-2.9479	-3.3521	-3.2833	-2.7104	-3.1333	-3.1125	-2.8542	-3.2396	-2.8688	-2.9417	-3.1771	191.990	396.352	253.644	201.105	494.913	310.511	458.189	454.298	374.211	416.265	451.154	186.577	142.552	461.622	228.937	452.516	0.0022136	0.00031659	4.5009e-05	1332.6	4.0283e-06	3.3461e-06	1341.1	369.89	1.3209e-05	5.4889e-06	417.18	141.18	124.66	41.172	7.3531e-06	51.491	0.00067525	0.00066202	0.00018348	1371.3	7.2674e-06	7.2764e-06	1375.7	380.46	7.2575e-06	7.3353e-06	432.64	145.69	128.85	43.048	7.2773e-06	53.601	396.143	187.655	220.709	148.735	212.385	306.352	148.242	153.269	229.090	295.842	152.368	157.035	156.993	162.027	264.734	161.064	-8191	255	
735.605	1	1	0	0	0.21544	0.15064	0.19157	0.25604	0.043593	0.34375	0.28841	0.11671	0.078348	0.047224	0.4086	0.18348	0.052921	0.20519	0.16525	0.060882	-2.3125	-3.0687	-3.075	-2.8792	-3.1771	-2.6729	-3.0625	-3.2083	-2.625	-3.1042	-3.2375	-2.7562	-3.0979	-2.975	-2.9708	-3.3979	324.595	325.013	446.709	192.092	257.110	381.478	477.812	473.654	452.253	247.175	466.464	153.317	380.235	451.437	475.309	403.844	0.0019729	0.0010528	0.00018102	1336.4	2.8526e-06	6.9792e-06	1345.3	369.97	1.129e-05	7.0311e-06	416.54	141.54	125.38	41.202	4.5217e-06	50.977	0.00067703	0.00066555	0.00018561	1375.3	7.3196e-06	7.298e-06	1380.8	380.89	7.2599e-06	7.2691e-06	432.4	145.9	129.13	43.054	7.2266e-06	53.548	402.990	223.501	208.811	148.615	382.865	276.314	148.306	153.137	266.931	265.879	152.687	156.697	156.794	161.938	278.916	161.159	-8191	255	
735.724	1	1	0	0	0.10048	0.16128	0.086965	0.20262	0.19452	0.33411	0.30686	0.32689	0.22751	0.24453	0.31552	0.33937	0.1119	0.11525	0.16186	0.18312	-2.2104	-2.8667	-3.0271	-2.8479	-3.1042	-3	-3.0729	-3.4125	-2.6479	-2.9875	-3.1312	-2.5771	-3.175	-3.0396	-2.9375	-3.2958	327.754	235.416	227.243	483.564	368.087	196.695	417.840	426.298	194.549	474.801	473.281	467.930	198.847	182.073	449.298	425.511	0.0019309	0.00016381	0.00013133	1332.7	8.7209e-06	6.5738e-06	1341.6	368.05	1.0726e-05	8.4531e-06	414.25	140.94	125.42	41.166	1.2788e-05	51.034	0.00067302	0.00066065	0.00018431	1372	7.2805e-06	7.2668e-06	1380.5	380.33	7.2774e-06	7.2596e-06	431.97	145.56	129.06	43.064	7.2313e-06	53.502	395.022	207.458	237.995	148.627	245.120	278.877	148.021	153.045	229.175	242.789	152.455	157.082	156.973	162.068	256.326	160.868	-8191	255	
735.796	1	1	0	0	0.20902	0.21111	0.19131	0.27015	0.22615	0.15338	0.15249	0.19093	0.24693	0.1407	0.31332	0.1409	0.039311	0.24668	0.066603	0.15161	-2.2729	-2.9854	-3.075	-2.9125	-3.1875	-2.9792	-2.9313	-3.2687	-2.8354	-2.9729	-3.125	-2.9167	-3.0833	-3.2771	-2.7917	-3.3167	445.151	174.060	280.919	433.570	250.196	200.308	150.086	429.301	325.979	252.615	414.103	239.521	365.289	407.242	375.823	494.696	0.0020854	0.00074428	0.00031519	1334.2	6.7997e-06	6.1306e-06	1338.8	369.75	1.2589e-05	2.5094e-06	419.85	141.78	125.85	40.972	8.5093e-06	51.138	0.00067066	0.00066038	0.00018485	1372.9	7.2201e-06	7.2382e-06	1379.9	380.88	7.3017e-06	7.234e-06	433.15	145.95	129.34	42.951	7.2668e-06	53.449	398.006	196.497	208.073	148.640	254.024	285.089	148.153	153.004	335.865	151.936	152.469	156.878	156.776	161.968	241.673	161.202	-8191	255	
735.892	1	1	0	0	0.16076	0.27394	0.13838	0.19955	0.23966	0.18978	0.15676	0.36939	0.1304	0.042268	0.11702	0.23389	0.11781	0.0096189	0.4082	0.29729	-2.5083	-2.8167	-3.0563	-2.7687	-3.0563	-3.0333	-2.9437	-3.3312	-2.8104	-2.8646	-3.2771	-2.8646	-3.0521	-3.1	-2.675	-3.2771	169.531	176.706	448.105	159.013	485.486	433.411	346.640	419.365	270.710	290.532	368.648	136.768	493.428	279.397	335.497	406.637	0.0020626	0.00073556	0.00010295	1335.9	5.9323e-06	1.0258e-05	1342.5	369.37	1.1066e-05	1.4513e-06	416.18	141.32	125.47	41.21	5.3484e-06	50.814	0.00067265	0.00066283	0.00018298	1376.4	7.2429e-06	7.268e-06	1379.7	380.57	7.23e-06	7.2695e-06	432.58	145.87	129.34	43.033	7.1911e-06	53.401	401.657	188.820	200.391	148.713	252.864	294.670	148.341	152.998	203.315	370.788	152.490	156.793	157.082	161.840	273.024	161.005	-8191	255	
735.988	1	1	0	0	0.179	0.09261	0.21608	0.24852	0.16321	0.054937	0.18476	0.12207	0.25755	0.18398	0.23135	0.16998	0.26209	0.065391	0.099164	0.14743	-2.5771	-2.7979	-3.1521	-2.8917	-2.9729	-3.1646	-3.0062	-3.2354	-2.9479	-2.8812	-3.3937	-2.9792	-3.2	-3.1646	-2.7917	-3.2229	444.958	407.015	426.268	445.171	360.423	208.755	491.465	461.409	265.339	404.342	354.371	150.013	427.924	456.949	299.792	237.544	0.0018868	0.00077181	0.00014621	1325.9	6.84e-06	4.4906e-06	1339.4	369	3.493e-06	8.0788e-06	416.59	141.05	125.02	40.9	2.1655e-06	50.95	0.0006721	0.00066206	0.0001837	1371.3	7.1788e-06	7.2383e-06	1377.3	381.25	7.2376e-06	7.2094e-06	432.7	145.59	129.1	42.895	7.217e-06	53.514	401.485	152.873	234.286	148.488	274.977	429.829	148.191	153.339	263.698	218.868	152.396	156.793	156.997	161.987	237.526	161.110	-8191	255	
736.109	1	1	0	0	0.048461	0.078585	0.14951	0.28244	0.067896	0.055877	0.15159	0.26245	0.17734	0.11857	0.14527	0.33552	0.15797	0.20165	0.089821	0.14558	-2.5708	-2.8125	-3.25	-2.9042	-2.8667	-3.1208	-2.875	-3.1625	-2.8958	-2.6542	-3.2458	-2.95	-3.0208	-3.2875	-2.7	-3.2979	482.460	163.849	232.747	418.758	261.735	391.703	389.423	451.947	187.750	319.762	423.762	443.493	195.074	494.586	270.928	181.960	0.0019535	0.00060971	0.00017191	1331	1.0855e-05	4.5176e-06	1339.9	369.74	6.079e-06	8.7009e-06	417.77	141.79	126.04	41.3	5.5803e-06	51.142	0.00067821	0.00066847	0.0001835	1372.7	7.3208e-06	7.2816e-06	1378.5	380.87	7.29e-06	7.3012e-06	433.19	145.86	129.72	43.094	7.3053e-06	53.583	395.703	224.440	236.889	148.789	234.124	310.447	148.113	153.266	271.009	287.315	152.324	156.861	157.168	162.106	391.831	160.923	-8191	255	
736.205	1	1	0	0	0.33113	0.13206	0.26038	0.050201	0.079129	0.28799	0.052891	0.36189	0.060817	0.076276	0.25368	0.31805	0.024333	0.31099	0.13154	0.18861	-2.5687	-2.7333	-3.2271	-3.0125	-3.0396	-3.1875	-2.9583	-3.2208	-3.125	-2.7146	-3.1854	-2.9042	-2.8458	-3.4667	-2.7771	-3.0792	148.592	241.186	443.912	230.446	210.815	475.851	446.120	150.786	253.530	425.479	418.829	478.337	441.096	185.083	320.199	451.754	0.0019631	0.0012545	0.00012695	1334.4	7.8228e-06	1.0514e-05	1343.5	370.19	3.7171e-06	5.0632e-06	417.13	140.99	125.24	41.214	6.4836e-06	51.225	0.00067205	0.00066384	0.00018316	1374.6	7.1763e-06	7.3129e-06	1379.9	381.12	7.14e-06	7.1879e-06	432.99	145.65	129.11	43.022	7.1325e-06	53.531	396.736	231.253	218.917	148.698	274.737	311.410	148.150	153.157	236.336	242.535	152.396	156.669	157.085	162.092	277.285	161.097	-8191	255	
736.301	1	1	0	0	0.43656	0.093533	0.16817	0.10544	0.22675	0.13174	0.083922	0.19849	0.079386	0.12586	0.15583	0.082263	0.23782	0.19833	0.044376	0.10989	-2.8354	-2.8042	-3.0875	-3.1396	-2.6604	-3.0854	-2.9708	-3.175	-3.2792	-2.7333	-3.3104	-3.1021	-2.8667	-3.4	-3	-2.9667	310.877	219.613	336.041	409.553	430.675	391.155	410.134	459.269	324.769	182.134	316.954	148.341	446.742	353.408	344.143	140.619	0.001907	0.00070436	8.1e-05	1329.2	3.906e-06	8.6696e-06	1338.2	369.28	1.2612e-05	7.4058e-06	416.99	141.34	125.74	40.871	2.3615e-06	51.091	0.00065234	0.00064645	0.0001792	1368.4	7.0517e-06	7.1006e-06	1374.8	380.07	7.0985e-06	7.1421e-06	432.26	145.43	129.27	42.916	7.2359e-06	53.471	399.660	209.333	194.160	148.682	251.047	274.855	148.365	153.084	254.879	261.760	152.409	156.719	156.881	162.079	308.821	161.075	-8191	255	
736.373	1	1	0	0	0.075133	0.15898	0.098139	0.38581	0.19853	0.10875	0.18039	0.31061	0.12876	0.24077	0.11416	0.12138	0.029777	0.2068	0.15803	0.12439	-2.4958	-2.6688	-3.0375	-3.1604	-2.8333	-3.1875	-3.0292	-3.1792	-3.0646	-2.9729	-3.2958	-3.1625	-2.9604	-3.2646	-2.8583	-3.0542	224.450	494.699	180.778	469.820	215.339	148.933	439.529	444.373	235.519	290.790	329.954	280.235	415.757	141.003	389.725	458.237	0.0020698	0.0007971	0.00019403	1323.6	7.0354e-06	8.636e-06	1342.3	368.9	1.5912e-05	7.8127e-06	417.19	141.83	125.7	41.071	9.0329e-06	51.017	0.00067351	0.00067108	0.00018498	1369.5	7.2798e-06	7.2641e-06	1379.1	380.35	7.3136e-06	7.3185e-06	433.31	145.93	129.3	43.003	7.2147e-06	53.57	394.617	258.920	198.244	148.602	244.426	268.389	148.236	153.146	244.281	248.792	152.329	157.073	156.850	162.234	246.970	160.922	-8191	255	
736.493	1	1	0	0	0.12245	0.14799	0.2381	0.34172	0.074781	0.13544	0.3532	0.35956	0.27755	0.16358	0.21314	0.15788	0.21362	0.27949	0.072213	0.29424	-2.7625	-2.7229	-2.925	-3.2646	-2.5958	-3.1167	-3.2771	-3.0479	-3.2042	-2.8021	-3.275	-3.0396	-2.6771	-3.2854	-2.9708	-2.9188	396.930	193.229	163.988	466.414	400.032	188.725	478.893	441.828	217.347	297.951	405.741	135.504	213.957	475.208	145.624	392.552	0.0021078	0.00045115	0.00012437	1327.3	3.658e-06	1.2875e-05	1342	369.25	5.3229e-06	5.0016e-06	418.49	142.02	124.57	41.022	5.5386e-06	51.005	0.00066803	0.00065528	0.00018276	1372.7	7.1415e-06	7.1813e-06	1379.5	380.8	7.0864e-06	7.1029e-06	433.04	145.95	129.02	42.948	7.1487e-06	53.489	387.358	263.374	178.386	148.528	257.594	270.938	148.229	153.152	340.101	193.510	152.392	156.770	157.306	162.233	248.798	161.171	-8191	255	
736.589	1	1	0	0	0.15498	0.094878	0.24109	0.26384	0.0568	0.070951	0.22123	0.37124	0.14843	0.16015	0.12031	0.072651	0.2894	0.18524	0.27469	0.14304	-2.7458	-2.7833	-2.9479	-3.3146	-2.6188	-3.0625	-3.0917	-3.1229	-3.3438	-2.7875	-3.0708	-3.1542	-2.725	-3.1417	-3.1854	-2.9625	423.720	332.508	379.067	432.761	394.276	453.101	491.201	475.609	402.302	302.603	160.096	198.104	157.620	414.854	170.497	474.006	0.0019134	0.00051355	6.0877e-05	1333.1	7.9381e-06	6.0143e-06	1340.8	371.33	8.8631e-06	4.9695e-06	417.49	141.34	125.66	41.393	5.1484e-06	50.953	0.00066482	0.00066131	0.00018256	1375.4	7.2324e-06	7.16e-06	1380.5	381.5	7.2157e-06	7.2092e-06	432.76	145.85	129.36	43.128	7.1944e-06	53.441	395.904	229.447	232.445	148.625	219.102	341.620	148.209	153.035	202.728	299.006	152.478	157.174	157.424	162.072	383.585	161.148	-8191	255	
736.686	1	1	0	0	0.096822	0.17144	0.10445	0.19396	0.14233	0.12722	0.13664	0.19758	0.15229	0.061695	0.16641	0.26026	0.10238	0.10303	0.17243	0.22053	-2.8521	-2.9021	-3.0583	-3.25	-2.9271	-3.1042	-3.3542	-2.9833	-3.2479	-2.8854	-2.9562	-3.3854	-2.6167	-3.1937	-3.0896	-2.8958	453.631	255.130	337.305	449.877	241.991	280.318	430.583	353.844	229.701	182.679	424.808	153.567	232.620	327.072	222.885	420.149	0.0021706	0.0006405	0.00012344	1333.2	4.1821e-06	2.8232e-06	1342.3	369.08	1.0118e-05	2.2143e-06	417.7	141.51	126.17	41.234	6.5637e-06	50.994	0.00067276	0.00066133	0.00018332	1375	7.1826e-06	7.2045e-06	1381.4	380.58	7.1949e-06	7.1613e-06	432.97	145.9	129.58	43.117	7.2013e-06	53.478	396.384	325.947	149.478	148.623	208.243	160.409	148.070	153.171	255.005	412.828	152.366	156.979	157.004	162.063	252.938	161.184	-8191	255	
736.804	1	1	0	0	0.13224	0.18453	0.12224	0.10213	0.16804	0.18045	0.17486	0.25719	0.16545	0.042603	0.18523	0.21363	0.084408	0.3765	0.11439	0.10657	-2.5354	-2.9188	-2.7708	-3.3875	-2.8917	-3.0458	-3.3792	-2.9375	-3.1083	-2.9333	-2.8042	-3.3521	-2.8667	-3.0687	-3.2708	-2.9729	300.227	385.319	344.147	480.425	283.789	347.500	423.091	441.031	480.177	309.134	389.344	169.534	327.452	462.013	184.718	237.376	0.0022563	0.00029699	0.00023433	1342.7	6.7855e-06	6.8314e-06	1346.7	368.85	1.1853e-05	4.6e-06	419.79	141.75	126.23	41.19	8.5921e-06	51.253	0.00066919	0.00065666	0.00018564	1378.7	7.2858e-06	7.2061e-06	1384.9	381.08	7.1843e-06	7.2551e-06	433.93	146.36	129.73	43.115	7.2792e-06	53.633	399.799	158.296	267.735	148.618	263.170	241.298	148.187	153.111	214.493	290.098	152.396	156.812	157.020	162.237	177.902	161.081	-8191	255	
#DATA ENDS
