BOXY.EXE: ISS Imagent and Oximeter Data Acquisition Program Version 0.80
Ascii Record File

#ACQ INFORMATION
2  Detector Channels 
16  External MUX Channels 
1  Auxiliary Channels 
5000  Waveform (CCF) Frequency (Hz)
1  Waveforms Skipped 
30  Waveforms Averaged 
1  Cycles Averaged 
16  Acquisitions per Waveform 
10.0806  Updata Rate (Hz) 

#FILE INFORMATION
TRUE -- External MUX Channel results are PARSED.
FALSE -- AC DC and Phase are NOT grouped.
TRUE -- Companion Program Settings File CREATED.
FALSE -- AC data not excluded
FALSE -- DC data not excluded
FALSE -- Phase data not excluded
FALSE -- Auxillary Chn. data not excluded
Tab delimiters

#CALIBRATION STATE
TRUE -- Waveform Calibration Values APPLIED.


#AUX CALIBRATION VALUES
Val Type	aux-1	

Term	1.0000e+00	
Factor	0.0000e+00	


#WF CALIBRATION VALUES
A = Detector Channel
Val Type	A-AC1	A-AC2	A-AC3	A-AC4	A-AC5	A-AC6	A-AC7	A-AC8	A-AC9	A-AC10	A-AC11	A-AC12	A-AC13	A-AC14	A-AC15	A-AC16	A-DC1	A-DC2	A-DC3	A-DC4	A-DC5	A-DC6	A-DC7	A-DC8	A-DC9	A-DC10	A-DC11	A-DC12	A-DC13	A-DC14	A-DC15	A-DC16	A-Ph1	A-Ph2	A-Ph3	A-Ph4	A-Ph5	A-Ph6	A-Ph7	A-Ph8	A-Ph9	A-Ph10	A-Ph11	A-Ph12	A-Ph13	A-Ph14	A-Ph15	A-Ph16	

Term	0.00000e+00	0.00000e+00	0.00000e+00	0.00000e+00	0.00000e+00	0.00000e+00	0.00000e+00	0.00000e+00	0.00000e+00	0.00000e+00	0.00000e+00	0.00000e+00	0.00000e+00	0.00000e+00	0.00000e+00	0.00000e+00	0.00000e+00	0.00000e+00	0.00000e+00	0.00000e+00	0.00000e+00	0.00000e+00	0.00000e+00	0.00000e+00	0.00000e+00	0.00000e+00	0.00000e+00	0.00000e+00	0.00000e+00	0.00000e+00	0.00000e+00	0.00000e+00	0.00000e+00	0.00000e+00	0.00000e+00	0.00000e+00	0.00000e+00	0.00000e+00	0.00000e+00	0.00000e+00	0.00000e+00	0.00000e+00	0.00000e+00	0.00000e+00	0.00000e+00	0.00000e+00	0.00000e+00	0.00000e+00	
Factor	1.00000e+00	1.00000e+00	1.00000e+00	1.00000e+00	1.00000e+00	1.00000e+00	1.00000e+00	1.00000e+00	1.00000e+00	1.00000e+00	1.00000e+00	1.00000e+00	1.00000e+00	1.00000e+00	1.00000e+00	1.00000e+00	1.00000e+00	1.00000e+00	1.00000e+00	1.00000e+00	1.00000e+00	1.00000e+00	1.00000e+00	1.00000e+00	1.00000e+00	1.00000e+00	1.00000e+00	1.00000e+00	1.00000e+00	1.00000e+00	1.00000e+00	1.00000e+00	X	X	X	X	X	X	X	X	X	X	X	X	X	X	X	X	

B = Detector Channel
Val Type	B-AC1	B-AC2	B-AC3	B-AC4	B-AC5	B-AC6	B-AC7	B-AC8	B-AC9	B-AC10	B-AC11	B-AC12	B-AC13	B-AC14	B-AC15	B-AC16	B-DC1	B-DC2	B-DC3	B-DC4	B-DC5	B-DC6	B-DC7	B-DC8	B-DC9	B-DC10	B-DC11	B-DC12	B-DC13	B-DC14	B-DC15	B-DC16	B-Ph1	B-Ph2	B-Ph3	B-Ph4	B-Ph5	B-Ph6	B-Ph7	B-Ph8	B-Ph9	B-Ph10	B-Ph11	B-Ph12	B-Ph13	B-Ph14	B-Ph15	B-Ph16	

Term	0.00000e+00	0.00000e+00	0.00000e+00	0.00000e+00	0.00000e+00	0.00000e+00	0.00000e+00	0.00000e+00	0.00000e+00	0.00000e+00	0.00000e+00	0.00000e+00	0.00000e+00	0.00000e+00	0.00000e+00	0.00000e+00	0.00000e+00	0.00000e+00	0.00000e+00	0.00000e+00	0.00000e+00	0.00000e+00	0.00000e+00	0.00000e+00	0.00000e+00	0.00000e+00	0.00000e+00	0.00000e+00	0.00000e+00	0.00000e+00	0.00000e+00	0.00000e+00	8.11284e+01	-1.20153e+02	-1.26350e+02	-1.81567e+02	-8.84902e+01	-8.40959e+01	-1.56561e+02	-1.62015e+02	-9.69263e+01	-8.38922e+01	-1.71055e+02	-1.71474e+02	-1.84436e+02	-1.76931e+02	-7.91405e+01	-1.49939e+02	
Factor	6.50912e-05	1.46992e-04	3.41674e-05	2.12455e-01	1.30598e-06	1.78741e-06	1.67938e-01	5.12696e-02	2.14687e-06	1.52923e-06	8.73862e-02	3.30830e-02	4.09064e-02	9.26272e-03	1.52222e-06	1.33558e-02	1.62652e-06	1.68806e-06	4.69002e-07	1.07451e-01	1.84094e-08	1.85136e-08	8.01808e-02	2.60849e-02	1.83594e-08	1.85120e-08	4.27707e-02	1.61030e-02	2.01847e-02	4.70032e-03	1.84195e-08	6.52597e-03	X	X	X	X	X	X	X	X	X	X	X	X	X	X	X	X	



#DISTANCE SETTINGS
A = Detector Channel
A-1	A-2	A-3	A-4	A-5	A-6	A-7	A-8	A-9	A-10	A-11	A-12	A-13	A-14	A-15	A-16	

2.5000e+00	3.0000e+00	2.5000e+00	3.0000e+00	2.0000e+00	3.0000e+00	1.5000e+00	3.0000e+00	3.0000e+00	3.0000e+00	3.0000e+00	3.0000e+00	3.0000e+00	3.0000e+00	1.5000e+00	3.0000e+00	

B = Detector Channel
B-1	B-2	B-3	B-4	B-5	B-6	B-7	B-8	B-9	B-10	B-11	B-12	B-13	B-14	B-15	B-16	

1.0000e+01	1.0000e+01	1.0000e+01	1.4400e+00	1.0000e+01	1.0000e+01	1.5100e+00	1.9400e+00	1.0000e+01	1.0000e+01	1.9900e+00	2.4900e+00	2.4100e+00	2.9000e+00	1.0000e+01	2.9800e+00	




#DATA BEGINS
time	group	step	mark	flag	A-AC1	A-AC2	A-AC3	A-AC4	A-AC5	A-AC6	A-AC7	A-AC8	A-AC9	A-AC10	A-AC11	A-AC12	A-AC13	A-AC14	A-AC15	A-AC16	A-DC1	A-DC2	A-DC3	A-DC4	A-DC5	A-DC6	A-DC7	A-DC8	A-DC9	A-DC10	A-DC11	A-DC12	A-DC13	A-DC14	A-DC15	A-DC16	A-Ph1	A-Ph2	A-Ph3	A-Ph4	A-Ph5	A-Ph6	A-Ph7	A-Ph8	A-Ph9	A-Ph10	A-Ph11	A-Ph12	A-Ph13	A-Ph14	A-Ph15	A-Ph16	B-AC1	B-AC2	B-AC3	B-AC4	B-AC5	B-AC6	B-AC7	B-AC8	B-AC9	B-AC10	B-AC11	B-AC12	B-AC13	B-AC14	B-AC15	B-AC16	B-DC1	B-DC2	B-DC3	B-DC4	B-DC5	B-DC6	B-DC7	B-DC8	B-DC9	B-DC10	B-DC11	B-DC12	B-DC13	B-DC14	B-DC15	B-DC16	B-Ph1	B-Ph2	B-Ph3	B-Ph4	B-Ph5	B-Ph6	B-Ph7	B-Ph8	B-Ph9	B-Ph10	B-Ph11	B-Ph12	B-Ph13	B-Ph14	B-Ph15	B-Ph16	aux-1	digaux	

662.475	1	1	0	768	0.07246	0.14977	0.045184	0.018965	0.12677	0.072153	0.24217	0.20482	0.26433	0.072134	0.16289	0.040013	0.073931	0.050504	0.15136	0.079695	-2.6813	-2.9521	-2.7	-3.1771	-3.0479	-2.8187	-3.1875	-2.7646	-2.9771	-3.2271	-2.8521	-3.1521	-2.7792	-2.6354	-3.1917	-2.8271	478.819	467.697	423.250	463.302	273.417	317.415	411.111	460.215	146.900	210.825	454.197	280.060	182.940	339.674	290.407	302.798	0.0010345	0.00041477	0.00013515	1140.8	1.8504e-06	7.6772e-06	1245	236.53	4.9556e-06	2.1491e-06	298.27	84.602	67.17	18.972	4.5091e-06	26.26	0.00028566	0.00028002	7.8273e-05	1122.5	3.1332e-06	3.1682e-06	1223.3	234.66	3.2687e-06	3.3066e-06	297.84	84.331	67.214	19.487	3.3166e-06	27.011	408.856	166.899	238.814	150.163	142.461	306.007	149.967	157.691	251.607	343.065	157.472	164.182	164.129	171.706	309.326	170.923	-8191	255	
662.571	1	1	0	0	0.23036	0.18865	0.37088	0.38309	0.31052	0.19545	0.21659	0.28495	0.12214	0.19872	0.14702	0.24281	0.15815	0.059135	0.0191	0.24167	-2.6188	-3.1208	-2.7042	-3.2438	-3.0708	-2.6792	-3.2687	-3.0187	-3.025	-3.2333	-2.8271	-3.1042	-3.0187	-2.8083	-3.0708	-2.7875	145.932	218.117	381.541	488.951	363.578	365.192	404.691	491.319	498.070	341.374	497.102	219.074	175.494	175.767	423.265	228.981	0.00094988	0.00024354	8.7996e-05	1142	9.3203e-07	1.8414e-06	1241.6	236.77	6.1253e-06	4.464e-07	300.81	84.568	67.515	18.952	3.5035e-06	26.149	0.00030993	0.00030305	8.4924e-05	1128	3.3435e-06	3.3107e-06	1225.6	235.49	3.3077e-06	3.1958e-06	298.98	84.418	67.207	19.43	3.1591e-06	26.853	408.615	211.037	205.026	150.174	216.900	375.168	150.048	157.386	322.378	406.142	157.360	164.221	164.016	171.568	313.298	170.977	-8191	255	
662.666	1	1	0	0	0.086731	0.30284	0.22966	0.25458	0.1542	0.15169	0.23218	0.32018	0.2434	0.1513	0.14503	0.2564	0.19213	0.17927	0.084127	0.24867	-2.5563	-3.0875	-2.6396	-3.1417	-3.0563	-2.5771	-3.3625	-2.975	-2.8646	-3.2208	-2.8125	-2.9396	-3.0042	-2.6833	-3.1229	-2.8667	445.849	287.546	187.161	476.642	385.120	299.029	423.135	429.884	242.474	393.571	455.174	470.314	425.326	430.258	373.888	470.130	0.00087997	5.3071e-05	6.6253e-05	1154.2	3.9091e-07	3.0804e-06	1244.9	236.41	5.4166e-06	1.9138e-06	300.08	84.846	67.585	18.86	4.5619e-06	26.208	0.00029185	0.00028438	7.8612e-05	1130.3	3.0782e-06	3.0752e-06	1226.2	235	3.0378e-06	3.0344e-06	298.47	84.454	66.96	19.367	3.1026e-06	26.88	390.915	188.859	254.313	150.305	468.416	143.484	149.863	157.755	275.455	283.288	157.501	163.914	164.502	171.600	253.548	170.662	-8191	255	
662.764	1	1	0	0	0.066146	0.17729	0.115	0.22568	0.2174	0.080071	0.12685	0.33316	0.15026	0.1417	0.35515	0.31069	0.29336	0.11448	0.1266	0.12273	-2.4458	-3.0833	-2.6958	-3.2	-2.9146	-2.7667	-3.1667	-3.1521	-2.9021	-3.1063	-3.0042	-3.0979	-3.2438	-2.7146	-3.0354	-3.1729	289.545	177.491	375.358	470.290	250.360	299.275	436.635	450.001	310.826	403.203	410.577	419.663	442.951	397.239	248.860	486.304	0.0010363	9.7847e-05	0.00012008	1152.6	1.3145e-06	1.8025e-06	1249.9	236.66	8.1095e-06	1.9928e-06	300.3	84.555	67.158	18.986	2.3958e-06	26.377	0.00028894	0.00028246	7.8042e-05	1131.3	3.0756e-06	3.0803e-06	1229.3	235	3.0576e-06	3.0831e-06	298.33	84.461	66.981	19.424	3.1346e-06	27.01	402.813	283.481	224.835	150.244	212.292	300.245	150.145	157.721	281.830	307.004	157.421	164.144	163.967	171.525	249.491	170.723	-8191	255	
662.858	1	1	0	0	0.26247	0.2159	0.068459	0.090119	0.15036	0.17095	0.11136	0.21772	0.080639	0.1678	0.27328	0.23322	0.13851	0.08746	0.24843	0.20109	-2.2958	-3.0062	-2.8208	-3.0229	-3.0271	-2.7375	-3.325	-3.1583	-2.7562	-3.1708	-2.9188	-2.8458	-3.2375	-2.85	-3.0729	-3.0792	155.234	234.922	356.651	359.174	386.326	484.396	462.825	443.287	409.253	460.102	156.237	484.815	186.030	441.259	228.945	453.433	0.0010046	0.00046219	3.6947e-05	1149	2.8741e-06	5.8973e-06	1247.1	236.72	6.5883e-06	7.5859e-06	299.67	85.468	66.975	19.033	2.4174e-06	26.492	0.00029529	0.00029107	8.0225e-05	1132.2	3.1452e-06	3.1081e-06	1228.8	235.25	3.0957e-06	3.1173e-06	298.47	84.661	67.031	19.43	3.0316e-06	26.914	400.772	152.109	196.523	150.257	203.543	287.330	149.923	157.663	274.471	268.660	157.500	164.103	163.707	171.773	228.692	171.218	-8191	255	
662.954	1	1	0	0	0.063984	0.11393	0.21805	0.09816	0.10729	0.30492	0.1484	0.27924	0.35197	0.077374	0.10079	0.044743	0.14608	0.18405	0.3724	0.1307	-2.3958	-2.9375	-2.9188	-2.9437	-3.0229	-2.7896	-3.1271	-3.1292	-2.6813	-3.0938	-2.9333	-2.6854	-3.1917	-2.8125	-2.9437	-3.0083	479.547	421.539	339.043	412.773	447.008	190.957	372.413	496.781	237.645	166.224	479.135	493.587	158.186	178.761	380.968	208.666	0.0011011	0.00043005	5.9956e-05	1146	8.8281e-06	5.9985e-06	1245.9	238.05	6.4233e-06	5.8251e-06	300.5	84.96	67.58	19.186	5.8368e-06	26.271	0.00028819	0.0002816	7.7643e-05	1129.8	3.0953e-06	3.082e-06	1226.5	235.19	3.0667e-06	3.0792e-06	298.46	84.607	67.209	19.5	3.1075e-06	26.913	401.888	168.869	256.351	150.137	247.975	343.441	150.089	157.890	250.251	265.345	157.223	164.249	164.345	171.539	233.557	170.983	-8191	255	
663.075	1	1	0	0	0.16075	0.17039	0.27138	0.4204	0.15135	0.07648	0.31938	0.11367	0.15691	0.11879	0.18491	0.21878	0.28702	0.19036	0.039689	0.1183	-2.0854	-2.875	-2.9583	-2.9417	-2.9625	-2.8667	-3.0375	-3.2208	-2.7521	-3.1458	-2.9938	-2.5292	-2.975	-2.7958	-2.8292	-3.1604	404.041	411.127	146.183	183.053	393.835	180.352	372.104	169.667	296.584	432.774	336.304	158.589	194.607	266.683	239.573	260.249	0.0011579	0.00047765	7.9783e-05	1149.6	3.1249e-06	8.1768e-06	1249.3	238.37	1.9162e-06	1.8718e-06	300.32	84.845	67.361	18.889	5.2813e-06	26.329	0.00029281	0.00028594	7.702e-05	1131.2	3.0414e-06	2.9905e-06	1228.3	236.05	2.8982e-06	2.8588e-06	298.27	84.392	66.889	19.343	2.7924e-06	26.827	396.319	198.732	221.481	150.114	310.906	299.114	150.018	157.682	258.554	212.780	157.238	164.086	164.577	171.823	288.711	171.319	-8191	255	
663.171	1	1	0	0	0.22751	0.156	0.17646	0.27601	0.16421	0.19148	0.033451	0.23358	0.056967	0.19191	0.16048	0.23459	0.091748	0.094065	0.11085	0.062053	-2.3292	-2.9875	-3.0375	-2.85	-3.05	-2.7042	-3.1104	-3.3125	-2.6479	-3.0771	-3.0938	-2.7625	-3.0938	-3.0146	-2.5521	-3.0062	150.217	428.548	457.100	334.267	489.552	203.599	163.761	441.329	212.934	202.841	201.020	488.469	412.187	497.218	349.901	208.698	0.0010017	2.2357e-05	0.00014921	1149.5	4.7746e-06	2.8728e-06	1249.8	237.54	7.5365e-06	3.3715e-06	299.29	84.962	67.161	19.023	3.2567e-06	26.309	0.00026013	0.00025251	6.8941e-05	1129.2	2.7106e-06	2.6872e-06	1226.4	235.24	2.6505e-06	2.5956e-06	297.33	84.036	66.322	19.33	2.5731e-06	26.703	400.373	473.917	233.407	150.183	257.979	200.094	150.022	157.609	178.487	273.540	157.199	164.227	163.843	171.321	305.765	170.927	-8191	255	
663.267	1	1	0	0	0.21142	0.12193	0.20946	0.070524	0.066957	0.09628	0.24273	0.072413	0.066716	0.14474	0.15814	0.049304	0.18989	0.19773	0.092971	0.13493	-2.3917	-2.8042	-2.9688	-2.7188	-3.0167	-2.8708	-2.9583	-3.2646	-2.7979	-2.9833	-3.1479	-2.5938	-3.1583	-3.0854	-2.8583	-3.1771	257.422	294.590	346.560	154.435	158.918	403.934	496.068	495.763	450.344	464.161	463.729	402.831	251.467	477.799	466.530	147.050	0.00097079	0.00057504	2.535e-05	1150.5	5.1556e-06	1.1795e-05	1246	237.13	5.8378e-06	3.0368e-06	301.27	85.292	67.999	19.095	4.3291e-06	26.192	0.00024351	0.00023148	6.4771e-05	1126.1	2.5077e-06	2.5199e-06	1224.1	234.24	2.5315e-06	2.5619e-06	296.86	84.13	66.722	19.355	2.5009e-06	26.607	403.302	223.874	418.749	150.236	267.977	227.529	150.085	157.731	247.589	257.993	157.368	163.875	164.364	171.817	285.214	170.962	-8191	255	
663.363	1	1	0	0	0.067126	0.033557	0.2517	0.15026	0.17116	0.04108	0.22794	0.1192	0.36082	0.18641	0.34256	0.12337	0.16723	0.14189	0.15898	0.13221	-2.5146	-2.8146	-3.1188	-2.7229	-3.0812	-2.7917	-2.9479	-3.3333	-2.9062	-2.8646	-3.2	-2.8583	-3.1104	-2.9604	-2.8458	-3.2083	249.735	446.914	391.899	481.875	218.623	384.321	495.785	315.149	315.801	292.470	205.180	481.566	467.564	406.853	287.672	163.016	0.0010869	0.00054782	9.8379e-05	1145.2	5.0848e-06	2.5182e-06	1246.2	236.24	1.2691e-06	3.15e-06	299.83	85.116	67.78	18.988	7.0595e-06	26.311	0.00023832	0.00022857	6.3347e-05	1124.3	2.5384e-06	2.4813e-06	1222.2	233.65	2.4664e-06	2.4522e-06	296.52	83.687	66.288	19.253	2.4124e-06	26.578	405.422	237.990	242.498	150.497	294.468	200.793	150.293	157.702	257.621	301.286	157.565	164.100	164.362	171.207	299.598	170.934	-8191	255	
663.459	1	1	0	0	0.3128	0.16563	0.21386	0.28678	0.28753	0.13471	0.14568	0.083513	0.064575	0.17163	0.21396	0.11239	0.15756	0.20137	0.092773	0.24632	-2.3521	-2.7458	-3.1312	-2.9375	-3.0833	-3.1354	-2.7375	-3.2438	-2.8896	-2.8208	-3.3021	-2.8917	-2.8708	-3.1792	-2.6562	-2.9667	317.894	236.065	294.712	341.848	426.924	272.224	413.613	289.302	364.195	314.024	426.260	398.871	420.744	453.085	326.773	413.205	0.0010504	0.00047274	7.7702e-05	1144.5	7.3779e-06	3.3609e-06	1233.6	235.31	8.0332e-06	5.5138e-06	298.77	84.358	67.041	18.814	2.7757e-06	25.978	0.00022554	0.00021474	5.7015e-05	1119.6	2.2763e-06	2.2411e-06	1213.9	232.88	2.2733e-06	2.2822e-06	295.23	83.222	65.971	19.165	2.3978e-06	26.436	401.571	160.477	289.387	150.321	274.763	239.277	150.192	158.049	222.156	213.016	157.040	164.072	164.255	171.442	304.455	170.742	-8191	255	
663.555	1	1	0	0	0.20268	0.068037	0.17473	0.26663	0.13394	0.07403	0.48102	0.11355	0.10386	0.1796	0.023435	0.18414	0.31024	0.4017	0.043892	0.36577	-2.5333	-2.7438	-3.3042	-3.0271	-2.9417	-3	-2.9	-3.1375	-2.9021	-2.8375	-3.3708	-2.8229	-2.8688	-3.2208	-2.7979	-3.1542	458.425	196.361	310.451	483.966	167.656	389.384	439.671	401.237	152.124	173.696	229.712	461.051	440.360	490.309	150.336	459.995	0.00097211	0.00015717	4.9712e-05	1136.7	4.7408e-06	2.23e-06	1239.6	235.62	7.2478e-06	1.8813e-06	298.56	84.363	67.242	19.013	6.6159e-07	26.365	0.00022592	0.00021814	6.0534e-05	1117.2	2.4669e-06	2.4756e-06	1216.6	233.12	2.5651e-06	2.5352e-06	295.24	83.525	66.304	19.25	2.4522e-06	26.552	405.688	327.011	256.242	150.188	275.145	358.088	150.160	157.850	260.581	208.113	157.632	164.061	164.008	171.951	227.237	171.042	-8191	255	
663.674	1	1	0	0	0.20728	0.1236	0.26164	0.23704	0.17351	0.16011	0.24457	0.11893	0.091802	0.018551	0.20058	0.2569	0.24274	0.11156	0.17856	0.070399	-2.5875	-2.85	-3.225	-3.0917	-2.9208	-3.2396	-2.9604	-3.1917	-2.9	-2.7229	-3.1708	-2.8812	-2.8708	-3.1188	-2.8646	-3.0292	294.357	460.531	173.094	168.707	476.269	208.896	468.461	486.229	159.771	400.422	389.173	435.950	305.055	223.077	399.587	430.128	0.0010297	0.00032363	0.00010531	1142.4	2.4239e-06	2.6405e-06	1240.2	236.07	3.7018e-06	1.8497e-06	298.81	84.515	67.307	18.948	2.4316e-06	26.325	0.00023728	0.00022614	6.1409e-05	1122.9	2.4382e-06	2.3793e-06	1217.7	233.64	2.4196e-06	2.4229e-06	294.93	83.503	66.071	19.211	2.3188e-06	26.431	385.883	338.328	244.425	150.220	292.260	251.471	149.989	157.672	259.896	270.339	157.545	163.906	164.202	171.837	255.836	171.238	-8191	255	
663.771	1	1	0	0	0.062813	0.12316	0.18509	0.30698	0.10748	0.28437	0.13182	0.046083	0.16717	0.0083665	0.13233	0.074382	0.23444	0.15151	0.16335	0.21363	-2.7104	-2.6646	-3.15	-3.1333	-2.8854	-3.3542	-2.8438	-2.9896	-3.0333	-2.6562	-3.0812	-3.1271	-2.7396	-3.3729	-2.6146	-2.9	359.871	452.308	369.429	450.811	164.843	472.066	331.536	437.393	289.381	258.638	452.765	185.503	196.092	216.172	228.092	443.014	0.0011869	0.00017425	0.00016793	1147	1.0754e-06	4.7193e-06	1242.2	236.16	4.6411e-06	5.0323e-06	299.03	84.315	66.807	19.099	3.0824e-06	26.121	0.00022266	0.00021195	5.9291e-05	1121.2	2.3736e-06	2.3277e-06	1217.5	233.24	2.319e-06	2.3259e-06	295.12	83.515	66.116	19.277	2.3099e-06	26.499	405.636	306.147	260.504	150.436	335.145	278.587	150.063	157.730	263.266	264.687	157.542	164.081	164.240	171.645	222.340	171.485	-8191	255	
663.867	1	1	0	0	0.04874	0.14251	0.23794	0.27127	0.21669	0.025475	0.18776	0.09069	0.20667	0.14498	0.16387	0.1519	0.16489	0.11213	0.24478	0.12371	-2.7896	-2.6167	-2.9167	-3.0792	-2.7083	-3.3063	-3.1083	-3.0062	-3.0104	-2.8604	-3.1271	-3.0146	-2.8958	-3.1521	-2.9	-2.7708	429.628	286.576	424.052	275.767	412.298	407.983	441.260	276.984	268.463	433.617	447.163	471.084	194.177	444.263	225.103	432.371	0.00097924	0.00041318	7.7597e-05	1143	1.4781e-06	3.408e-06	1241.6	235.88	1.1619e-05	2.3552e-06	299.45	84.127	67.332	19.014	6.907e-06	26.088	0.00022564	0.0002115	5.8586e-05	1120.9	2.377e-06	2.346e-06	1218	232.75	2.3886e-06	2.3902e-06	295.7	83.551	66.318	19.226	2.4277e-06	26.545	395.405	252.389	274.064	150.302	180.402	352.982	150.079	157.712	228.771	381.290	157.275	163.793	164.425	171.844	263.345	170.814	-8191	255	
663.963	1	1	0	0	0.19474	0.16207	0.19193	0.13828	0.037117	0.045862	0.26159	0.26961	0.12817	0.33726	0.30795	0.11659	0.040062	0.13035	0.027101	0.15901	-2.8125	-2.7562	-3.0375	-3.0938	-2.8208	-3.3438	-3.0187	-3.0354	-3.0333	-2.6458	-3.0771	-3.2271	-2.7792	-3.2896	-2.9625	-3.0417	372.174	361.530	215.555	420.129	193.346	202.183	484.542	434.718	185.965	494.912	179.197	487.587	421.898	494.990	293.599	245.108	0.00094079	0.00015809	0.00012538	1143.5	3.1675e-06	8.1156e-07	1244.6	235.96	5.8216e-06	5.1605e-06	298.11	84.462	67.695	19.004	7.5548e-06	26.095	0.00023879	0.00022872	6.3616e-05	1120.8	2.4971e-06	2.4783e-06	1221.1	233.55	2.4827e-06	2.4548e-06	295.59	83.536	66.247	19.236	2.328e-06	26.512	406.032	418.177	247.826	150.299	250.688	203.369	150.047	157.865	266.490	300.489	157.647	163.814	163.877	171.425	305.847	170.539	-8191	255	
664.034	1	1	0	0	0.36452	0.10047	0.27099	0.16504	0.20744	0.14441	0.21108	0.33482	0.15936	0.20202	0.2829	0.029393	0.26515	0.1172	0.26356	0.12369	-2.7896	-2.6354	-2.9688	-3.2396	-2.9333	-3.2292	-3.2875	-2.9875	-3.2146	-2.8583	-3.0187	-3.2062	-2.8146	-3.2313	-3.0667	-2.9146	145.608	462.256	459.784	417.616	209.760	484.593	451.015	450.437	417.739	209.331	472.877	282.884	442.567	191.668	232.882	435.551	0.0010337	0.00018217	3.8287e-05	1148.2	2.9228e-06	3.7341e-06	1244.5	237.49	8.4773e-06	2.0437e-06	298.58	84.536	66.734	18.87	5.0283e-06	25.865	0.00022272	0.00021258	5.7552e-05	1122.9	2.2837e-06	2.242e-06	1220.3	233.65	2.2075e-06	2.2231e-06	294.75	83.448	66.012	19.185	2.1895e-06	26.425	394.730	300.681	487.139	150.308	288.782	310.036	150.068	157.910	230.944	226.118	157.335	164.128	164.123	171.715	302.035	170.796	-8191	255	
664.155	1	1	0	0	0.303	0.09644	0.17892	0.15236	0.14156	0.17399	0.30284	0.16742	0.19405	0.10919	0.23972	0.16649	0.20256	0.18148	0.098307	0.15807	-2.7667	-2.7271	-2.7125	-3.1375	-2.7375	-3.0458	-3.1083	-2.9042	-3.1875	-2.8583	-3.0667	-3.2292	-2.7354	-3.0042	-3.075	-2.7521	268.766	225.101	475.062	433.614	164.794	240.790	472.565	427.235	408.674	320.556	438.454	215.457	170.632	421.972	239.874	380.161	0.0012128	0.00032474	0.0001617	1142.4	2.2928e-07	1.8726e-06	1244.3	237.15	4.9648e-06	7.2442e-06	298.31	84.443	66.933	18.809	2.4054e-06	26.146	0.00021469	0.00020715	5.721e-05	1119	2.3083e-06	2.3039e-06	1219.9	232.86	2.3251e-06	2.3428e-06	295.09	83.565	65.773	19.144	2.349e-06	26.483	406.540	176.999	265.753	150.102	153.114	183.248	149.983	157.908	224.446	259.143	157.251	163.803	163.618	171.800	362.841	171.043	-8191	255	
664.251	1	1	0	0	0.059182	0.043817	0.09328	0.11846	0.044703	0.18533	0.31388	0.10177	0.13913	0.14639	0.19203	0.06547	0.25579	0.036955	0.35741	0.029644	-2.6896	-2.7854	-2.7313	-3.3229	-2.7146	-2.8958	-3.2812	-2.8917	-3.0021	-3.0125	-3	-3.3458	-2.7042	-2.8771	-3.0229	-2.75	152.830	447.683	406.846	484.453	234.107	442.826	406.299	161.308	197.130	291.227	413.386	416.215	251.797	349.637	376.180	473.428	0.0010541	0.00046973	0.00013421	1140.9	2.21e-06	4.9785e-06	1240.4	234.98	6.041e-06	3.3143e-06	297.89	83.397	66.907	18.917	5.7352e-06	26.251	0.00022111	0.00021268	5.9462e-05	1121.9	2.3789e-06	2.3663e-06	1219.3	232.85	2.4178e-06	2.4604e-06	294.89	83.199	66.152	19.241	2.5074e-06	26.588	396.959	316.691	237.296	150.332	253.031	245.592	149.839	157.703	240.893	249.117	157.361	164.042	164.546	171.890	279.514	171.043	-8191	255	
664.347	1	1	0	0	0.19815	0.13902	0.070375	0.20738	0.29454	0.067098	0.20296	0.077309	0.31498	0.24901	0.096861	0.2473	0.1302	0.22799	0.054155	0.090586	-2.7083	-2.9688	-2.7333	-3.1875	-2.7479	-3.0979	-3.3271	-2.6625	-2.925	-2.9229	-2.8396	-3.2687	-2.8438	-2.8083	-3.1646	-2.7146	346.308	344.441	407.200	399.793	492.824	422.599	400.026	267.505	376.884	488.362	173.478	232.817	446.649	488.566	281.333	237.825	0.00097376	0.00013763	0.00011381	1141.6	1.2836e-06	4.3427e-06	1245.7	235.56	6.9679e-06	2.6405e-06	298.42	84.453	66.964	18.955	3.1949e-06	26.362	0.00023863	0.00022699	6.4262e-05	1121.9	2.486e-06	2.5063e-06	1222.9	233.15	2.445e-06	2.489e-06	295.8	83.505	66.188	19.266	2.4597e-06	26.623	391.382	314.014	257.853	150.178	499.275	281.195	149.974	157.594	211.874	224.513	157.467	163.886	164.631	171.861	418.256	171.066	-8191	255	
664.444	1	1	0	0	0.25288	0.052765	0.15082	0.063425	0.095963	0.02578	0.33225	0.25367	0.21582	0.27126	0.090934	0.12813	0.1754	0.14866	0.13502	0.18109	-2.6125	-2.8854	-2.6708	-3.2396	-2.7271	-2.9625	-3.2562	-2.9521	-2.8792	-3.1792	-2.7854	-3.1708	-2.8479	-2.875	-3.2	-2.6958	264.306	445.227	162.184	407.350	337.457	179.342	450.776	434.697	200.939	207.074	367.560	341.438	489.336	229.597	247.856	256.461	0.00097539	0.0003161	4.105e-05	1144.1	5.124e-06	5.524e-06	1241.8	236.33	5.6252e-06	3.9266e-06	299.5	84.273	67.814	18.826	5.1239e-06	26.24	0.00023595	0.0002287	6.2631e-05	1121.9	2.4624e-06	2.4459e-06	1220.7	233.58	2.5059e-06	2.4675e-06	295.55	83.562	66.429	19.179	2.4328e-06	26.556	403.946	214.093	248.924	150.378	243.792	218.142	150.251	157.854	241.291	311.465	157.456	164.196	163.834	171.808	317.249	171.371	-8191	255	
664.562	1	1	0	0	0.13764	0.033575	0.15148	0.30469	0.3247	0.23919	0.25799	0.096278	0.15348	0.066097	0.15785	0.11893	0.037709	0.18821	0.16659	0.14204	-2.6375	-3.0271	-2.6104	-3.35	-3.0417	-2.7083	-3.2396	-2.9417	-2.9396	-3.1667	-2.8438	-3.1979	-3.05	-2.7188	-3.0938	-2.7833	316.290	213.402	383.283	445.754	242.511	317.907	448.446	365.441	432.797	237.158	366.190	356.927	483.637	320.346	273.130	185.689	0.0010499	0.00042344	9.9348e-05	1149.1	3.2166e-06	2.0115e-06	1244.6	235.49	7.5677e-06	2.623e-06	298.76	84.392	67.083	18.962	4.7061e-06	25.967	0.00023107	0.00022074	6.1412e-05	1124	2.4206e-06	2.4347e-06	1221.7	232.85	2.4291e-06	2.4123e-06	295.43	83.423	66.042	19.279	2.4334e-06	26.463	397.810	224.877	213.497	150.168	188.844	201.492	149.900	157.875	258.162	205.779	157.619	164.116	163.928	171.728	270.763	171.153	-8191	255	
664.636	1	1	0	0	0.12463	0.3295	0.10955	0.17266	0.11844	0.21901	0.24332	0.18586	0.11581	0.22934	0.3002	0.11699	0.13078	0.14397	0.35739	0.15021	-2.5104	-3.1104	-2.8729	-3.175	-2.975	-2.8208	-3.3438	-2.925	-2.9938	-3.225	-2.9979	-3.2604	-3.1396	-2.8792	-3.1708	-3.0708	445.806	308.867	371.421	467.252	288.614	357.342	147.917	453.178	252.500	337.380	492.146	467.050	305.872	336.583	272.055	319.318	0.0011941	0.00041311	0.000195	1143.8	2.5471e-06	3.9494e-06	1241.3	234.74	7.9413e-06	4.6341e-06	298.1	84.889	66.482	18.967	5.3722e-06	26.447	0.00023202	0.00021925	6.0307e-05	1123.2	2.4366e-06	2.4016e-06	1220.6	232.9	2.4497e-06	2.3665e-06	295.4	83.427	65.847	19.281	2.2804e-06	26.48	396.174	202.963	244.612	150.186	153.305	250.711	150.390	157.551	265.444	410.734	157.290	163.888	164.451	171.635	268.171	170.850	-8191	255	
664.756	1	1	0	0	0.11876	0.19671	0.20941	0.15451	0.10519	0.14997	0.18285	0.11946	0.080149	0.21745	0.18882	0.07156	0.17005	0.2347	0.28238	0.15009	-2.5083	-3.1792	-2.9	-2.9188	-3.3104	-2.8125	-3.4688	-3.1146	-2.8479	-3.2208	-2.8625	-2.8729	-3.2062	-2.7083	-3.25	-2.9771	280.683	469.072	325.243	413.360	381.355	332.459	370.868	180.796	229.143	495.027	486.699	251.770	157.709	446.767	167.869	147.553	0.0010455	0.00059309	0.00012363	1143.6	4.4455e-06	5.0971e-06	1240.6	236.13	6.9943e-06	2.2593e-06	299	84.281	67.296	18.95	1.5731e-06	26.117	0.00022307	0.00020907	5.8682e-05	1120.6	2.2965e-06	2.3149e-06	1220.3	233.45	2.3233e-06	2.2876e-06	295.55	83.475	66.071	19.284	2.3375e-06	26.434	398.140	281.765	213.698	150.366	247.329	315.296	150.001	157.566	255.242	273.342	157.275	164.035	164.087	171.679	286.540	171.334	-8191	255	
664.851	1	1	0	0	0.04939	0.16519	0.23089	0.36215	0.16674	0.26209	0.35543	0.24645	0.13284	0.005815	0.16471	0.22452	0.13677	0.20949	0.26868	0.33384	-2.3875	-3.0646	-2.7292	-2.9354	-3.0146	-2.9313	-3.3979	-3.1667	-2.8771	-3.2354	-2.9208	-2.9313	-3.1479	-2.7687	-3.025	-3.0938	317.306	437.980	177.798	480.213	293.878	340.409	422.371	372.644	252.144	284.298	231.577	316.162	492.894	468.581	354.681	460.864	0.0011173	0.00050969	2.9134e-05	1144.9	1.7308e-06	5.4415e-06	1240.1	235.13	3.0619e-06	3.7181e-06	298.09	84.32	66.695	18.782	3.5181e-06	26.083	0.00022798	0.0002216	6.0199e-05	1123	2.4094e-06	2.3776e-06	1220.5	232.81	2.4062e-06	2.4122e-06	294.85	83.523	66.142	19.268	2.4445e-06	26.494	402.416	280.578	269.658	150.301	159.144	250.232	150.003	157.608	297.397	252.863	157.220	163.831	164.179	171.814	312.859	170.982	-8191	255	
664.947	1	1	0	0	0.12705	0.26345	0.24404	0.12427	0.15725	0.07479	0.25496	0.10155	0.050606	0.020923	0.24794	0.20075	0.2223	0.051069	0.20193	0.23951	-2.3354	-3.1729	-2.7896	-3.0667	-3.0729	-2.7354	-3.3958	-3.1562	-2.6354	-3.2375	-3	-2.9521	-3.2542	-2.6646	-3.0208	-3.0271	300.819	326.694	372.440	183.412	464.273	150.320	432.044	367.965	192.526	262.840	422.433	179.471	379.836	401.068	202.699	222.082	0.0012555	0.00037677	0.00013969	1141.4	5.7867e-06	1.2374e-06	1239.3	234.81	7.0145e-06	6.2483e-06	295.88	84.468	67.306	19.008	5.7275e-06	26.186	0.00023644	0.00022664	6.3692e-05	1123.3	2.5114e-06	2.506e-06	1221	233.38	2.5736e-06	2.5073e-06	295.37	83.731	66.386	19.328	2.5157e-06	26.557	397.105	206.093	185.551	150.215	287.428	282.036	149.949	157.454	244.351	330.822	157.292	163.938	163.934	172.244	297.767	170.770	-8191	255	
665.043	1	1	0	0	0.15448	0.20125	0.07781	0.12744	0.01267	0.022977	0.14818	0.15775	0.308	0.36967	0.094004	0.22546	0.15074	0.25366	0.1024	0.095222	-2.35	-3.1292	-2.8708	-2.9604	-3.1896	-2.9292	-3.1479	-3.1708	-2.7521	-3.0979	-3.0312	-2.8146	-3.1104	-2.9521	-2.9917	-3.1271	164.740	344.730	306.787	412.045	314.601	315.027	383.802	357.733	307.003	244.428	452.837	440.318	455.209	199.220	296.061	387.112	0.00081778	0.00037412	9.2728e-05	1147.6	5.3921e-06	3.878e-06	1242.8	234.46	9.0543e-06	1.2483e-06	298.57	84.112	67.656	19.072	4.4038e-06	26.121	0.0002413	0.0002302	6.3564e-05	1125.1	2.514e-06	2.5043e-06	1221.9	233.68	2.5622e-06	2.5478e-06	296.66	83.862	66.597	19.397	2.6394e-06	26.609	396.357	203.770	201.161	150.251	304.121	302.225	150.086	157.468	245.499	370.962	156.969	164.108	163.633	171.541	274.819	170.981	-8191	255	
665.164	1	1	0	0	0.20072	0.090137	0.20013	0.096997	0.16109	0.14093	0.11167	0.39808	0.12731	0.15649	0.11008	0.21923	0.051863	0.21699	0.16384	0.08006	-2.3438	-3.0875	-3.0083	-2.9583	-3.0646	-3.0854	-3.0625	-3.2833	-2.7083	-3.0812	-3.0938	-2.9458	-3.0542	-2.9208	-2.9167	-3.2625	167.791	393.977	360.052	433.481	340.847	189.149	369.725	454.717	352.922	404.258	343.792	344.732	375.888	371.012	415.220	375.550	0.00082528	0.00046171	0.0001197	1146.2	6.044e-06	5.5117e-06	1239.9	234.23	8.8945e-06	4.3552e-06	296.54	84.221	67.022	19.025	8.0004e-07	25.893	0.00024614	0.00023754	6.5018e-05	1125.9	2.56e-06	2.5873e-06	1222.8	233.72	2.5532e-06	2.569e-06	296.23	83.811	66.318	19.353	2.5611e-06	26.591	410.790	220.282	232.272	150.189	229.469	297.105	149.840	157.848	234.896	320.620	157.121	163.671	164.559	171.861	256.736	171.293	-8191	255	
665.260	1	1	0	0	0.095421	0.26838	0.059112	0.53015	0.054605	0.048656	0.26011	0.020814	0.17921	0.041252	0.23526	0.17421	0.17356	0.15307	0.16426	0.19493	-2.4062	-2.9208	-3.0833	-2.9833	-3.1417	-3.1667	-2.9062	-3.1688	-2.8292	-2.9938	-3.1604	-2.6937	-3.1188	-2.8292	-2.5396	-3.075	232.860	374.463	240.909	462.892	234.091	463.544	429.398	363.712	140.115	277.001	487.406	325.451	199.561	378.838	325.788	163.967	0.0010032	0.00051122	9.9581e-05	1140.7	1.7255e-06	4.0456e-06	1234.9	235.31	1.0479e-06	4.1054e-06	298.59	83.976	67.184	19.04	3.4856e-06	26.032	0.0002455	0.00023347	6.578e-05	1125.5	2.5948e-06	2.6051e-06	1221.4	233.84	2.6124e-06	2.5604e-06	296.48	83.801	66.351	19.372	2.5645e-06	26.605	401.876	304.644	232.181	150.371	243.861	259.554	149.842	157.335	468.331	372.133	157.212	163.987	163.971	171.519	199.839	171.099	-8191	255	
665.332	1	1	0	0	0.12152	0.23734	0.13416	0.25529	0.12162	0.37199	0.083461	0.26112	0.084811	0.046676	0.1137	0.34439	0.080496	0.058069	0.19967	0.07862	-2.2792	-2.8563	-3.1083	-2.7771	-3.0833	-2.9979	-2.9146	-3.3208	-2.9021	-2.9229	-3.1646	-2.8083	-3.2146	-3.0979	-2.8937	-3.2562	265.539	331.385	161.741	423.690	181.509	176.507	495.031	442.019	239.098	299.668	244.387	467.989	205.527	149.764	448.743	490.941	0.0011258	0.00044261	0.00018612	1139.3	6.2386e-06	8.023e-06	1243.7	235.94	5.0556e-06	4.0221e-06	298.2	84.476	66.928	19.025	4.0873e-06	26.085	0.00024241	0.00023072	6.5057e-05	1124.2	2.5947e-06	2.5938e-06	1225.8	234.22	2.5907e-06	2.6006e-06	296.2	84.082	66.362	19.375	2.5003e-06	26.615	396.602	230.053	226.251	150.139	225.200	251.959	149.951	157.493	279.308	252.920	157.533	164.047	164.190	171.826	286.219	171.318	-8191	255	
665.452	1	1	0	0	0.23072	0.072155	0.13072	0.17432	0.068952	0.10232	0.34072	0.01377	0.087801	0.18958	0.026913	0.10846	0.16524	0.24874	0.1209	0.035552	-2.4458	-2.8417	-3.3875	-2.6813	-3.0583	-3.1167	-2.7979	-3.4146	-2.7083	-2.8958	-3.175	-2.7375	-3.0208	-3.0375	-2.8458	-3.0396	296.821	445.275	474.324	183.121	290.469	149.946	418.555	442.389	173.730	299.943	436.782	369.953	217.024	498.236	463.829	419.695	0.0010308	0.00027274	8.1312e-05	1147.8	4.254e-06	5.0299e-06	1243.7	236.05	1.3254e-06	3.8246e-06	299.86	84.389	66.993	18.945	6.009e-06	26.168	0.0002408	0.00023108	6.3797e-05	1126.5	2.5369e-06	2.5787e-06	1224	234.02	2.6549e-06	2.6338e-06	297.14	83.914	66.563	19.403	2.6212e-06	26.558	399.910	253.298	252.892	150.404	225.208	307.296	150.341	157.778	264.541	227.008	157.658	163.891	164.095	171.904	235.551	171.161	-8191	255	
665.547	1	1	0	0	0.13032	0.070279	0.22288	0.18	0.16013	0.088554	0.12875	0.19304	0.069062	0.2491	0.20218	0.028009	0.14244	0.097299	0.1162	0.046261	-2.4771	-2.8063	-3.2958	-2.9521	-2.9917	-3.2	-2.8271	-3.1646	-2.8875	-2.8937	-3.4042	-2.9333	-2.9667	-3.0958	-2.8792	-3.1708	342.608	422.979	300.784	408.928	337.872	308.873	476.625	172.337	366.054	386.981	412.444	417.799	158.930	391.220	452.385	171.851	0.0010493	0.00069627	8.1685e-05	1144.1	2.6339e-06	5.0045e-06	1244.2	235.86	5.495e-06	6.5776e-07	299.32	85.14	66.882	19.061	6.4748e-06	26.119	0.00024707	0.0002394	6.5526e-05	1126.9	2.5663e-06	2.6013e-06	1224.3	234.51	2.5673e-06	2.6113e-06	296.58	84.399	66.372	19.412	2.5985e-06	26.65	396.927	209.722	290.769	150.028	282.930	262.313	149.816	157.700	216.231	268.979	157.477	164.115	164.127	172.059	288.614	170.649	-8191	255	
665.643	1	1	0	0	0.26492	0.20059	0.2491	0.22271	0.050488	0.12822	0.16327	0.12511	0.054402	0.14666	0.024585	0.080557	0.20375	0.1632	0.096154	0.025411	-2.65	-2.8417	-3.2917	-2.9771	-2.975	-3.2167	-2.9708	-3.1437	-3.0208	-2.6979	-3.1771	-2.8896	-2.9938	-3.2542	-2.8271	-3.1562	226.517	487.728	353.236	436.683	143.032	321.890	174.099	427.295	399.594	491.918	453.059	458.193	171.180	373.807	459.791	285.619	0.0011258	0.00050533	9.5328e-05	1145	5.2866e-06	4.7223e-06	1245.1	237.31	7.5378e-06	3.514e-06	299.86	84.731	67.003	19.038	4.6832e-06	25.988	0.00024496	0.00023978	6.5796e-05	1126.9	2.6119e-06	2.5964e-06	1225.5	234.77	2.5547e-06	2.532e-06	297.17	84.006	66.392	19.439	2.5567e-06	26.579	396.124	211.900	208.172	150.343	261.097	340.537	150.032	157.646	216.953	302.231	156.987	163.920	164.352	171.059	259.835	170.882	-8191	255	
665.739	1	1	0	0	0.16107	0.10468	0.18199	0.09839	0.22235	0.13318	0.2003	0.2439	0.052594	0.39182	0.23424	0.25115	0.056994	0.042099	0.14231	0.31214	-2.6542	-2.6229	-3.0917	-2.9979	-2.8542	-3.275	-2.9521	-3.0792	-3.1583	-2.925	-3.1646	-2.9562	-2.9125	-3.1854	-2.9583	-2.9646	160.217	491.476	321.358	174.722	388.209	215.171	405.208	464.302	207.315	487.845	491.890	455.316	357.188	468.494	278.493	158.823	0.0010468	0.00017629	3.4471e-05	1147.8	2.3757e-06	3.8506e-06	1243.2	236.56	1.3959e-06	2.3525e-06	300	85.484	67.004	19.233	2.2742e-06	26.096	0.00024807	0.00023488	6.5849e-05	1127.3	2.5714e-06	2.5747e-06	1226	234.67	2.5536e-06	2.5226e-06	296.62	84.095	66.469	19.474	2.5353e-06	26.611	400.104	360.272	239.415	150.098	334.410	222.945	149.946	157.422	209.024	241.022	156.931	163.925	164.415	171.173	290.706	171.351	-8191	255	
665.860	1	1	0	0	0.097648	0.16607	0.18694	0.1641	0.16869	0.2216	0.088367	0.24557	0.091265	0.084549	0.18044	0.15245	0.11492	0.12263	0.32488	0.14959	-2.6333	-2.6208	-3.2021	-3.0042	-2.9375	-3.2875	-3.1063	-2.9833	-3.2042	-2.8187	-3.1396	-3.0146	-2.8417	-3.1958	-2.875	-2.9708	399.648	235.848	478.463	432.998	347.721	280.989	234.008	176.856	379.411	460.515	191.230	344.233	393.030	189.598	253.907	241.922	0.0010355	0.0004749	9.1332e-05	1146.2	2.4424e-06	1.0129e-06	1242.8	236.3	9.7878e-06	5.2264e-06	298.63	84.496	66.93	18.942	5.1553e-06	26.202	0.0002397	0.00023025	6.4045e-05	1128.5	2.5541e-06	2.5322e-06	1224.9	234.24	2.5711e-06	2.5623e-06	296.74	83.94	66.534	19.369	2.5724e-06	26.602	405.069	256.491	226.190	150.181	288.513	200.409	149.910	157.912	253.559	305.149	157.463	163.789	164.467	171.959	351.868	170.580	-8191	255	
665.931	1	1	0	0	0.052154	0.23022	0.18115	0.24133	0.11686	0.051074	0.20873	0.443	0.19615	0.1737	0.17504	0.21074	0.11688	0.17321	0.082506	0.039279	-2.7208	-2.7958	-2.9833	-3.025	-2.6875	-3.1167	-2.9771	-3.0146	-3.1437	-2.85	-3.1917	-3.0833	-2.9437	-3.1667	-2.8937	-2.8833	404.717	153.968	207.990	404.191	250.160	320.110	471.452	445.498	175.751	193.505	431.318	327.048	162.369	420.576	362.553	492.421	0.0010292	0.00081787	0.00016007	1142.8	1.03e-06	2.656e-06	1240.3	235.11	5.5781e-06	3.2652e-06	298.76	84.668	66.723	19.044	4.2718e-06	26.188	0.00024329	0.00023776	6.6457e-05	1125.5	2.6128e-06	2.6251e-06	1224.8	234.16	2.5988e-06	2.64e-06	296.92	84.195	66.489	19.44	2.6239e-06	26.663	409.318	207.818	294.182	150.181	290.129	379.775	149.840	157.817	249.567	351.635	157.229	164.064	164.355	171.655	326.882	170.729	-8191	255	
666.027	1	1	0	0	0.24101	0.26098	0.28204	0.098449	0.2397	0.16297	0.21575	0.074317	0.10012	0.12029	0.088961	0.060367	0.25149	0.3705	0.20681	0.20548	-2.6396	-2.7625	-3.0771	-3.1479	-2.7375	-3.1333	-3.0375	-2.9917	-3.1458	-2.7708	-3.0021	-3.2479	-2.7604	-3.0458	-2.8583	-2.7979	385.121	154.313	392.792	419.224	447.582	374.852	424.387	414.026	160.224	465.722	150.143	332.083	490.868	153.072	220.481	400.437	0.00081382	0.00031568	0.00011857	1147.2	3.3524e-06	3.3153e-06	1241.1	235.65	1.2514e-05	1.3385e-06	297.58	84.366	68.047	19.174	5.7668e-06	25.989	0.0002521	0.00023855	6.65e-05	1128.2	2.6797e-06	2.6494e-06	1226.4	234.39	2.6999e-06	2.7642e-06	296.74	84.091	66.969	19.489	2.676e-06	26.561	412.404	204.586	235.470	150.152	305.924	280.232	149.814	157.810	242.999	388.738	157.218	163.823	164.011	171.671	347.018	170.903	-8191	255	
666.124	1	1	0	0	0.32858	0.08038	0.04085	0.14801	0.099566	0.15444	0.40931	0.11045	0.22617	0.12427	0.1172	0.15068	0.16031	0.15649	0.21986	0.042014	-2.7958	-2.7812	-2.8042	-3.3646	-2.5979	-3.1354	-3.1813	-2.9271	-3.1125	-3.0229	-3.0333	-3.3063	-2.7708	-3.0625	-3.1021	-2.9125	199.706	215.983	298.877	308.099	160.352	156.389	454.045	414.859	272.612	483.776	400.802	404.751	437.454	182.509	186.618	157.347	0.0011408	0.00015166	4.1714e-05	1144.9	4.9179e-06	3.3074e-06	1235.1	234.8	7.4246e-06	2.1406e-06	296.89	83.908	67.581	18.903	4.659e-06	26.162	0.0002516	0.00024454	6.6765e-05	1129.3	2.6601e-06	2.6253e-06	1224.4	234.21	2.5935e-06	2.6191e-06	296.54	83.879	66.828	19.408	2.6445e-06	26.729	399.651	223.464	287.484	150.226	273.742	359.592	149.985	157.537	228.632	146.487	157.294	163.633	163.789	171.720	279.089	170.925	-8191	255	
666.244	1	1	0	0	0.12142	0.13144	0.13232	0.27687	0.092804	0.0598	0.23962	0.1524	0.25876	0.11443	0.081506	0.23851	0.16091	0.048641	0.1349	0.17387	-2.6729	-2.8688	-2.8187	-3.3063	-2.6813	-3.2042	-3.1271	-2.9083	-3.1208	-3.0438	-2.9854	-3.3917	-2.8937	-3.0812	-3.2979	-2.7188	140.355	496.960	253.686	425.419	338.009	458.811	141.557	410.150	344.300	217.752	182.451	463.273	481.307	206.163	479.505	252.679	0.0010524	0.00049403	5.5278e-05	1150	2.1167e-06	4.1218e-06	1243.8	236.01	6.5021e-06	5.313e-06	296.34	84.685	66.734	18.946	4.1632e-06	25.83	0.00024943	0.00023844	6.6994e-05	1129.4	2.6643e-06	2.6466e-06	1227.3	234.37	2.6519e-06	2.6758e-06	296.78	84.094	66.412	19.405	2.6781e-06	26.606	396.068	257.340	245.547	149.965	251.701	291.074	149.698	157.774	252.679	293.006	156.939	163.429	164.058	171.528	168.556	170.535	-8191	255	
666.340	1	1	0	0	0.13211	0.039492	0.14341	0.28106	0.14456	0.13641	0.46978	0.18239	0.28609	0.1958	0.0654	0.083385	0.25185	0.26712	0.23816	0.30031	-2.8417	-2.9917	-2.6813	-3.2583	-2.7771	-3.2125	-3.3646	-2.75	-3.0833	-2.8937	-2.9292	-3.1521	-2.9542	-2.875	-3.2083	-2.6979	259.820	337.967	420.601	434.444	233.202	276.764	404.184	434.056	212.905	412.382	397.035	494.993	219.238	140.969	391.269	164.137	0.0009484	0.00046239	0.00010768	1144.6	1.1211e-06	2.6913e-06	1236.1	235.44	7.7949e-06	1.4801e-06	296.82	83.546	66.533	18.772	2.5431e-06	25.846	0.00025457	0.00024369	6.7142e-05	1129.1	2.6943e-06	2.6354e-06	1223.3	234.47	2.6392e-06	2.6449e-06	296.61	83.762	66.338	19.353	2.5869e-06	26.578	392.686	261.273	222.326	149.959	241.500	314.535	149.991	157.477	222.173	299.757	157.202	163.924	163.873	171.431	248.789	170.740	-8191	255	
666.437	1	1	0	0	0.055435	0.20648	0.067858	0.1842	0.36549	0.091121	0.20364	0.25351	0.14101	0.17066	0.061278	0.066371	0.03555	0.087914	0.31748	0.26683	-2.5021	-3.1688	-2.6292	-3.1083	-2.7042	-2.8875	-3.2375	-2.75	-2.9854	-3.0208	-2.7583	-3.1083	-2.9875	-2.7833	-2.9958	-2.8688	160.774	402.081	275.306	460.221	151.693	453.654	438.618	444.468	316.164	491.819	242.218	144.475	207.855	330.445	497.838	410.074	0.0011111	0.00030191	6.6157e-05	1134.7	4.1109e-06	5.165e-06	1231.7	232.56	8.3427e-06	9.7974e-07	294.26	83.491	65.799	18.783	2.2035e-06	25.497	0.00024379	0.00023638	6.5001e-05	1128.7	2.6008e-06	2.5694e-06	1223	233.82	2.6047e-06	2.5635e-06	295.84	83.752	66.158	19.371	2.5316e-06	26.504	406.932	242.520	243.502	149.983	225.147	353.884	149.707	157.420	258.309	300.116	156.944	163.497	164.068	171.296	216.825	170.892	-8191	255	
666.533	1	1	0	0	0.21612	0.095687	0.048466	0.017489	0.25765	0.077593	0.40711	0.099962	0.11243	0.081078	0.14948	0.2141	0.056586	0.1525	0.25813	0.061086	-2.5062	-3.0042	-2.7125	-3.3521	-2.9604	-2.7271	-3.1979	-2.8833	-3.1063	-3.025	-2.8688	-3.2146	-2.9458	-2.6896	-3.0812	-2.7083	291.027	192.904	191.907	311.410	473.039	439.914	452.384	281.276	349.601	443.126	352.856	139.784	425.498	442.900	447.327	416.399	0.0013413	0.00014954	7.8698e-05	1133.7	6.5935e-06	1.4108e-06	1220.3	232.41	6.9233e-06	3.4316e-06	294.15	83.485	66.54	18.723	4.7212e-06	25.914	0.00024255	0.00023167	6.456e-05	1126.9	2.5684e-06	2.5669e-06	1220.9	233.7	2.5433e-06	2.5368e-06	296.06	83.659	66.424	19.309	2.5205e-06	26.528	402.482	175.783	181.606	149.957	290.502	472.390	149.600	157.188	299.370	297.305	156.964	163.438	163.934	171.528	299.503	170.734	-8191	255	
666.629	1	1	0	0	0.12305	0.25555	0.24937	0.043473	0.12988	0.11784	0.25522	0.23064	0.21941	0.26337	0.13828	0.087735	0.10222	0.23559	0.30022	0.03427	-2.4333	-2.9979	-2.7042	-3.2333	-3.1396	-2.8583	-3.3292	-3.0354	-2.7313	-3.1521	-2.7708	-3.0521	-3.0833	-2.7333	-3.3271	-2.9667	256.836	336.540	403.381	147.504	477.704	266.311	424.796	417.538	305.014	169.633	295.989	179.977	177.971	407.438	193.264	364.693	0.0010893	0.00072442	0.00018799	1134.9	3.6257e-06	7.1227e-06	1223.3	233.29	6.8257e-06	5.7026e-06	294.64	83.166	66.589	18.704	4.6655e-06	25.826	0.00023782	0.00022372	6.3623e-05	1127.8	2.5058e-06	2.4955e-06	1222.6	233.89	2.49e-06	2.4894e-06	295.95	83.675	66.256	19.29	2.4885e-06	26.525	403.804	237.035	197.778	149.995	229.050	210.168	149.778	157.330	249.654	198.012	156.749	163.768	163.407	171.803	324.682	170.242	-8191	255	
666.725	1	1	0	0	0.099299	0.12985	0.22004	0.14087	0.063539	0.11233	0.16359	0.30096	0.025945	0.13926	0.091249	0.054257	0.12178	0.094451	0.13141	0.12647	-2.3271	-3.0208	-2.7146	-3.0687	-3.1188	-2.8187	-3.2167	-2.9688	-2.9062	-3.1	-2.9583	-3.0208	-2.9104	-2.8646	-3.2354	-2.9083	266.783	406.326	357.690	356.098	142.297	467.188	251.208	456.494	193.017	162.120	164.766	441.131	161.308	496.908	359.365	352.384	0.0011249	0.00035119	0.00010885	1140.6	2.9162e-06	1.8549e-06	1229.9	232.85	6.9339e-06	5.9045e-06	295.95	83.275	66.51	19.008	3.3468e-06	25.976	0.00023711	0.00022465	6.2555e-05	1128	2.5246e-06	2.4675e-06	1224.2	233.5	2.474e-06	2.4767e-06	296.49	83.421	66.292	19.394	2.4399e-06	26.603	394.156	216.963	263.987	150.001	225.749	298.017	149.760	157.274	258.757	262.343	157.043	163.835	163.786	171.248	217.849	170.988	-8191	255	
666.844	1	1	0	0	0.092773	0.076436	0.14528	0.30898	0.12189	0.19968	0.11135	0.15042	0.16833	0.11959	0.20297	0.022852	0.30775	0.12018	0.056013	0.26667	-2.4062	-3.2479	-2.4979	-3.2438	-3.1729	-2.7042	-3.2104	-2.8625	-2.8187	-3.0958	-2.7771	-2.95	-3.1979	-2.6625	-3.0146	-3.0042	174.964	445.385	328.716	191.125	451.513	200.702	399.137	417.447	343.052	240.363	379.924	187.558	303.817	437.203	220.645	176.392	0.0011015	0.00026817	4.3675e-05	1135.6	1.1581e-06	4.4415e-06	1227.5	233.7	8.9364e-06	2.4466e-06	295.71	83.871	66.192	18.929	1.8453e-06	26.083	0.00022842	0.00022283	6.0609e-05	1125.7	2.375e-06	2.367e-06	1222.5	233.7	2.3749e-06	2.3251e-06	295.67	83.651	65.979	19.323	2.3532e-06	26.507	400.659	265.100	205.725	149.984	284.207	441.631	149.835	157.483	277.213	184.506	157.065	163.921	163.664	171.502	220.763	170.381	-8191	255	
666.940	1	1	0	0	0.053575	0.22783	0.20549	0.32307	0.13557	0.18767	0.17643	0.35095	0.26135	0.24617	0.050997	0.03259	0.13375	0.23553	0.16593	0.043342	-2.2875	-3.1104	-2.8563	-2.9979	-3.1417	-2.8083	-3.1729	-2.9354	-2.825	-3.0979	-2.8979	-2.8187	-3.1771	-2.7812	-3.0438	-3.0375	231.158	205.332	234.142	436.447	432.775	394.888	457.339	170.051	210.336	338.058	351.878	346.048	427.915	435.589	403.792	442.495	0.00089745	0.00036245	2.0604e-05	1140.4	6.9031e-06	4.1423e-06	1227.9	234.29	8.5049e-06	2.4451e-06	296.35	83.336	66.856	18.905	7.001e-06	26.054	0.00022472	0.00021636	6.064e-05	1125.8	2.4213e-06	2.4141e-06	1223.2	233.55	2.4607e-06	2.4458e-06	296.11	83.722	66.349	19.34	2.4854e-06	26.581	394.878	331.167	336.637	150.253	312.238	171.876	149.960	157.533	254.276	210.182	157.116	163.369	164.251	171.185	264.438	170.747	-8191	255	
667.036	1	1	0	0	0.30982	0.059736	0.11386	0.22833	0.071096	0.1336	0.15005	0.36774	0.11194	0.13148	0.12524	0.060084	0.019713	0.087161	0.040262	0.30284	-2.0646	-3.2667	-2.8521	-2.9167	-3.2104	-2.6646	-3.1021	-3.1167	-2.8312	-2.9104	-3.0625	-2.8812	-3.1521	-2.8208	-2.9604	-3.0438	185.095	143.996	297.227	428.624	228.434	414.837	337.447	249.592	405.842	260.242	201.819	352.050	169.700	217.039	333.776	384.575	0.00094964	0.00016706	9.3876e-05	1138.2	2.2495e-06	6.5295e-07	1232.7	234.86	2.9759e-06	3.4426e-06	295.88	84.052	66.022	18.793	7.6056e-06	25.879	0.00023464	0.00022913	6.1846e-05	1124.7	2.4512e-06	2.4141e-06	1221	233.54	2.4253e-06	2.3914e-06	295.47	83.644	66.061	19.306	2.3521e-06	26.511	394.660	188.693	284.801	149.908	257.699	333.810	149.911	157.372	352.451	280.333	157.067	163.628	163.627	171.042	245.582	170.603	-8191	255	
667.157	1	1	0	0	0.0558	0.29409	0.22717	0.072389	0.24729	0.16062	0.2479	0.268	0.28519	0.04518	0.21233	0.10666	0.088109	0.36202	0.064589	0.31062	-2.3708	-3.0479	-2.8708	-3.0125	-3.075	-2.7083	-3.0792	-3.0375	-2.5812	-3.0646	-2.7938	-2.8146	-3.1625	-2.7875	-2.9688	-3.2313	399.090	445.295	365.442	431.010	191.426	200.765	416.457	195.522	215.069	499.035	447.172	368.378	383.549	143.428	402.683	382.830	0.0011885	0.00046575	2.7383e-05	1139.4	2.8865e-06	6.381e-06	1235.8	235.93	6.5593e-06	4.5947e-06	297.17	85.012	66.434	18.871	4.5954e-06	25.913	0.00022926	0.00021909	6.1009e-05	1123.4	2.4477e-06	2.4332e-06	1222.8	234.05	2.4789e-06	2.4538e-06	296.1	83.862	66.166	19.346	2.4921e-06	26.546	398.687	221.896	151.921	150.443	233.997	285.841	150.051	157.531	217.192	371.916	156.851	163.849	163.561	171.548	184.911	170.936	-8191	255	
667.228	1	1	0	0	0.28607	0.069606	0.082268	0.20091	0.03083	0.074395	0.17428	0.33122	0.16314	0.14699	0.050403	0.17224	0.069625	0.26852	0.17958	0.18232	-2.2729	-2.9417	-3.0021	-2.8812	-3.3271	-2.825	-3.2562	-3.2271	-2.7583	-2.9188	-3.0604	-2.7	-3.025	-2.7958	-2.7583	-3.1875	242.789	490.659	221.988	446.092	406.314	389.925	479.996	448.724	433.478	458.960	468.549	162.129	210.702	453.904	319.037	326.892	0.00091328	0.00030221	4.1576e-05	1134.6	3.1234e-07	5.2985e-06	1226.2	235.32	1.3071e-05	2.0671e-06	296.47	84.009	66.415	18.94	2.0459e-06	25.994	0.00023542	0.00022497	6.2622e-05	1122.9	2.4431e-06	2.4198e-06	1220.6	233.76	2.4793e-06	2.4575e-06	296	83.782	66.135	19.375	2.4745e-06	26.593	399.617	208.426	237.872	150.144	334.049	352.862	149.700	157.675	260.249	329.224	157.088	163.860	163.895	171.828	349.353	171.287	-8191	255	
667.325	1	1	0	0	0.19111	0.19742	0.039907	0.1459	0.10925	0.15815	0.099933	0.25386	0.1761	0.046409	0.095261	0.28084	0.018556	0.29607	0.17498	0.10608	-2.1854	-2.9938	-3.0458	-2.8083	-3.1854	-2.9021	-2.9938	-3.1708	-2.7062	-3.0104	-2.9771	-2.775	-2.9458	-2.9188	-2.7625	-3.2438	309.861	265.576	387.459	371.108	477.069	264.810	451.905	475.451	494.000	291.461	445.291	416.449	156.295	230.636	148.721	422.654	0.00091168	0.00061779	9.2705e-05	1138	2.9961e-06	2.8963e-06	1231.2	235.47	1.2389e-05	1.976e-06	297.14	83.958	66.791	18.764	5.5115e-06	25.952	0.00023989	0.00022553	6.3556e-05	1124.1	2.4949e-06	2.4955e-06	1221.7	234.15	2.4889e-06	2.5093e-06	296.05	83.919	66.231	19.373	2.5373e-06	26.577	387.367	226.249	229.279	150.002	262.827	302.598	149.820	157.515	281.383	176.455	157.131	163.780	163.773	171.254	259.195	170.745	-8191	255	
667.421	1	1	0	0	0.10541	0.24815	0.22451	0.22296	0.12931	0.2832	0.28661	0.11257	0.080269	0.25849	0.18005	0.24847	0.08509	0.16683	0.067374	0.070689	-2.4167	-2.8396	-2.9562	-2.5146	-3.1521	-2.8979	-3.0271	-3.4167	-2.6042	-2.8063	-3.1208	-2.6458	-2.9771	-3.0417	-2.6521	-3.1646	313.878	471.804	271.470	144.657	167.256	352.835	429.572	421.672	495.086	166.753	482.384	241.847	229.038	172.113	377.399	360.983	0.0011396	0.0003624	7.5251e-05	1136.9	5.5696e-06	2.1468e-06	1233.9	234.33	6.9515e-06	5.6049e-07	295.94	83.468	65.717	19.047	1.1281e-06	26.216	0.000241	0.00023639	6.5833e-05	1123.5	2.5613e-06	2.5819e-06	1221.7	233.68	2.528e-06	2.4614e-06	295.89	83.574	66.035	19.361	2.5028e-06	26.676	401.027	249.125	218.398	150.131	249.168	375.810	149.850	157.395	248.433	225.159	157.097	164.096	163.799	171.340	468.938	170.965	-8191	255	
667.540	1	1	0	0	0.13055	0.16262	0.22359	0.10167	0.054496	0.16082	0.12187	0.12471	0.23032	0.16839	0.27061	0.086214	0.11132	0.20357	0.029612	0.23042	-2.4521	-2.7729	-2.9583	-2.9688	-3.0625	-3.2646	-2.8812	-2.9083	-2.8521	-2.9	-3.2833	-2.7875	-2.9062	-3.0833	-2.6521	-3.1104	169.688	194.051	477.555	180.006	232.231	157.931	263.827	446.814	333.966	468.978	142.199	422.319	241.040	187.997	419.707	374.443	0.00091389	5.5549e-05	4.4264e-05	1136.8	1.7285e-06	9.7425e-07	1231.6	234.86	8.9279e-06	4.442e-06	297.73	84.006	66.621	18.847	7.1281e-06	26.058	0.0002365	0.00022105	6.1857e-05	1123.8	2.4765e-06	2.4238e-06	1219.9	233.96	2.4514e-06	2.4071e-06	296.07	83.604	66.117	19.316	2.4312e-06	26.5	393.077	214.908	170.199	149.877	228.188	316.583	150.070	157.280	228.649	291.856	157.311	163.868	163.749	171.851	323.098	170.412	-8191	255	
667.636	1	1	0	0	0.23155	0.11922	0.11611	0.19302	0.071063	0.18405	0.25289	0.10588	0.23704	0.18549	0.12437	0.19853	0.12143	0.11632	0.13562	0.16451	-2.3646	-2.7188	-3.2125	-2.8042	-2.875	-3.0521	-3.0875	-3.1167	-2.8708	-2.8	-3.1417	-2.6604	-2.8375	-3.2479	-2.6875	-3.1333	205.796	321.967	397.463	441.169	181.785	189.126	428.707	242.287	439.753	216.598	470.966	171.864	155.365	246.305	438.027	329.443	0.0011072	0.00021667	7.4309e-05	1140.6	2.972e-06	1.5149e-06	1237.7	235.1	4.0713e-06	3.5889e-06	297.34	84.538	67.039	19.108	3.2782e-06	26.182	0.00023001	0.00021675	6.1266e-05	1123.2	2.4477e-06	2.3812e-06	1221.4	233.87	2.385e-06	2.3751e-06	295.92	83.761	66.271	19.365	2.3357e-06	26.521	399.666	193.451	222.676	149.598	257.661	220.905	149.966	157.606	189.395	298.310	157.481	163.778	164.387	171.797	239.263	171.002	-8191	255	
667.732	1	1	0	0	0.15517	0.171	0.23309	0.26343	0.11701	0.41167	0.26091	0.14683	0.14123	0.06626	0.18857	0.15849	0.073976	0.13233	0.13751	0.16226	-2.5458	-2.6667	-2.9771	-2.9792	-2.7208	-3.0667	-2.6958	-3.0708	-3.2042	-2.8792	-3.3	-2.8729	-2.8979	-3.0479	-2.4875	-3.1479	252.126	168.194	210.903	449.795	309.542	230.878	416.183	443.433	164.011	469.694	471.544	259.281	267.199	266.585	324.542	477.987	0.00082147	0.00025862	5.1086e-05	1140.4	2.4723e-06	4.0295e-06	1230	234.85	1.0528e-05	3.2826e-06	297.02	84.753	66.129	18.768	2.6882e-06	25.949	0.00022205	0.0002172	6.0501e-05	1123	2.3628e-06	2.342e-06	1218.3	233.56	2.3857e-06	2.3861e-06	295.68	83.784	66.027	19.293	2.4156e-06	26.534	401.092	206.340	227.203	149.949	303.563	305.418	149.895	157.563	271.084	248.305	157.060	163.512	164.141	171.546	280.094	170.183	-8191	255	
667.805	1	1	0	0	0.21945	0.29881	0.13023	0.024734	0.22759	0.1505	0.23818	0.14466	0.19311	0.19656	0.17972	0.16654	0.2221	0.095954	0.068493	0.25469	-2.6146	-2.5875	-3.1542	-3.1854	-2.8563	-3.2562	-3.0021	-3.2625	-3.1375	-2.6063	-3.2938	-2.9083	-2.7375	-3.2292	-2.7417	-2.9625	288.132	267.465	300.446	295.131	163.163	439.670	427.316	451.957	251.848	147.128	340.383	332.482	213.918	294.598	372.932	191.420	0.000897	0.00060253	9.7911e-05	1132.4	9.939e-07	4.6891e-06	1222.1	233.95	6.4325e-06	4.2236e-06	294.79	83.894	66.199	18.9	3.9338e-06	25.757	0.00022765	0.00022252	5.9967e-05	1120	2.4091e-06	2.3823e-06	1216	233.8	2.3711e-06	2.3609e-06	295.12	83.396	65.943	19.282	2.3251e-06	26.412	398.537	205.753	218.893	149.963	391.095	337.361	149.761	157.496	261.364	259.286	157.234	163.738	164.164	171.599	341.978	170.552	-8191	255	
667.924	1	1	0	0	0.065925	0.14136	0.11435	0.25304	0.16569	0.27786	0.39786	0.073319	0.034483	0.15713	0.17994	0.041942	0.17587	0.28957	0.18287	0.088887	-2.6458	-2.5187	-2.9854	-3.125	-2.775	-3.0646	-3.0125	-2.9188	-3.15	-2.6208	-3.1604	-2.8979	-2.6979	-3.0896	-2.675	-2.9125	387.279	490.806	247.114	197.955	296.479	474.821	471.450	228.399	169.358	306.203	472.564	447.083	405.096	165.025	406.060	176.929	0.001074	0.0002996	2.4692e-05	1132.1	2.2231e-06	3.5245e-06	1227.8	236.56	8.4697e-06	2.9354e-06	293.48	83.841	66.847	18.86	6.0447e-06	25.729	0.00022194	0.00021579	5.9844e-05	1118.6	2.3759e-06	2.3129e-06	1215.6	233.92	2.3387e-06	2.3427e-06	294.57	83.434	66.098	19.303	2.398e-06	26.491	403.884	239.184	259.061	150.031	289.379	283.036	149.666	157.407	245.757	260.880	157.009	163.612	164.100	171.494	285.695	171.053	-8191	255	
668.020	1	1	0	0	0.13565	0.061859	0.10919	0.33958	0.11987	0.10042	0.14609	0.18083	0.17928	0.32537	0.17445	0.10347	0.076107	0.036043	0.14258	0.18286	-2.5062	-2.6646	-2.9708	-3.0771	-2.7896	-3.1375	-3.1833	-2.9333	-2.8979	-2.5938	-2.9104	-3.1292	-2.6021	-3.1646	-2.9479	-2.8604	435.113	325.771	488.535	424.229	474.907	212.869	384.031	411.375	204.859	141.094	142.476	467.822	480.966	347.099	191.706	467.568	0.0010693	0.00058888	5.4417e-05	1135.5	3.2507e-06	4.3877e-06	1223.7	234.04	9.3815e-06	6.0323e-06	295.41	83.623	66.407	18.967	5.1454e-06	25.868	0.00022916	0.00022056	6.124e-05	1118.8	2.4238e-06	2.4103e-06	1216.5	233.36	2.4029e-06	2.4386e-06	295.15	83.451	66.079	19.379	2.4403e-06	26.534	400.281	215.476	254.178	149.940	231.435	318.703	149.673	157.548	272.671	289.884	157.224	163.886	164.256	171.567	275.921	171.335	-8191	255	
668.117	1	1	0	0	0.11439	0.040078	0.17707	0.099494	0.14016	0.24152	0.18975	0.27583	0.095289	0.06604	0.20249	0.12155	0.19809	0.15832	0.20351	0.069473	-2.7375	-2.6604	-2.9208	-3.2438	-2.7604	-2.8688	-3.0854	-2.9542	-3.0729	-2.8917	-3.025	-3.2271	-2.6333	-3.075	-2.9667	-2.6354	214.455	182.638	314.282	142.449	290.594	174.648	434.357	436.383	497.404	313.280	365.911	284.108	175.289	181.346	185.834	153.535	0.0011802	0.00057838	0.00012918	1136.1	6.5676e-06	3.1742e-06	1226.4	235.61	1.0011e-05	4.7995e-06	295.84	83.688	66.4	18.836	5.4913e-06	25.817	0.00023147	0.00021997	6.1618e-05	1121.9	2.4572e-06	2.4663e-06	1217.4	233.9	2.4266e-06	2.4401e-06	296.08	83.602	66.079	19.316	2.4291e-06	26.487	396.962	259.264	241.876	149.958	241.038	223.761	150.023	157.682	232.663	279.318	156.986	163.956	163.702	171.638	277.635	170.626	-8191	255	
668.237	1	1	0	0	0.074242	0.24674	0.051519	0.15943	0.13128	0.19356	0.32762	0.15421	0.14988	0.099601	0.093154	0.26401	0.24037	0.17831	0.10201	0.15686	-2.8708	-2.9354	-2.8396	-3.125	-2.75	-3.0042	-3.075	-2.7646	-3.1479	-2.7396	-2.9792	-3.1437	-2.6042	-3	-2.8729	-2.6917	495.119	306.896	361.241	374.041	208.232	159.123	498.410	387.338	160.104	443.728	169.915	147.671	308.573	481.349	342.380	299.122	0.0011156	0.00022596	8.193e-05	1134.3	7.1844e-06	3.484e-06	1223	234.03	3.4732e-06	4.5809e-06	294.46	83.66	66.757	18.857	1.8558e-06	25.953	0.00022974	0.00022246	6.1492e-05	1123.2	2.5e-06	2.5004e-06	1217.4	233.22	2.4833e-06	2.4588e-06	295.7	83.626	66.325	19.342	2.4496e-06	26.548	407.506	288.190	413.678	150.066	232.494	167.943	149.909	157.574	231.219	343.392	157.119	163.871	164.326	172.269	250.637	171.129	-8191	255	
668.333	1	1	0	0	0.17061	0.074887	0.163	0.295	0.031295	0.10608	0.12943	0.15889	0.086617	0.044046	0.14939	0.20614	0.29301	0.017487	0.044715	0.12235	-2.6188	-2.9042	-2.5792	-3.4104	-2.9417	-3.0542	-3.1875	-2.7083	-3.0438	-2.5812	-2.8563	-3.1917	-2.6875	-2.9979	-3.0375	-2.7646	441.367	240.144	410.458	445.400	381.358	223.435	443.237	436.326	367.510	319.661	468.226	165.352	399.259	384.049	208.513	467.043	0.0010956	0.00020799	9.8044e-05	1133.2	2.7849e-06	5.2894e-06	1229	233.22	7.4833e-06	2.786e-06	294.72	83.851	66.362	18.905	6.6461e-06	25.68	0.00023997	0.00022997	6.3275e-05	1124.1	2.558e-06	2.5648e-06	1220.4	233.12	2.612e-06	2.5836e-06	295.78	83.84	66.289	19.357	2.6078e-06	26.533	402.243	250.801	281.063	149.916	273.930	350.280	149.789	157.775	285.810	305.842	157.500	163.579	163.623	172.035	273.078	170.740	-8191	255	
668.429	1	1	0	0	0.19427	0.037463	0.27441	0.412	0.24468	0.09131	0.12324	0.244	0.1546	0.049406	0.15833	0.08431	0.33132	0.074942	0.22073	0.13605	-2.5417	-2.7354	-2.5375	-3.1458	-2.8104	-2.9729	-3.2146	-2.6792	-3.0875	-2.9625	-2.8125	-3.1458	-2.7792	-2.8917	-2.9125	-2.6146	396.744	285.707	310.157	477.403	147.965	206.197	477.586	432.519	380.159	211.760	181.114	458.940	464.452	469.618	172.670	248.837	0.00099416	0.00025192	4.2238e-05	1133.2	2.2635e-06	5.2272e-06	1230.2	234.21	9.2162e-06	3.9838e-06	296.44	83.835	66.981	18.776	2.0479e-06	25.946	0.0002491	0.00023595	6.5897e-05	1124.7	2.6933e-06	2.6751e-06	1222.1	233.78	2.6559e-06	2.6038e-06	296.17	83.709	66.386	19.347	2.5252e-06	26.553	393.073	246.277	164.446	149.990	259.048	278.119	150.105	157.558	229.667	315.539	157.139	164.068	163.444	171.019	399.664	170.821	-8191	255	
668.526	1	1	0	0	0.20264	0.16144	0.19677	0.071452	0.17304	0.16035	0.099811	0.12234	0.16874	0.026226	0.08274	0.31753	0.24606	0.065558	0.11477	0.17926	-2.5542	-3.0354	-2.5375	-3.2083	-2.8375	-2.9104	-3.3937	-2.6333	-3	-3.0625	-2.7542	-3.2958	-2.8833	-2.7896	-3.0542	-3.05	161.488	450.173	343.745	166.575	406.061	406.550	462.430	411.881	407.648	250.754	224.544	205.070	418.652	363.029	401.472	323.027	0.0010107	0.00023242	0.00011658	1133.9	4.4624e-06	5.0773e-07	1228.4	233.89	1.4876e-06	4.9599e-06	296.07	83.793	66.676	18.712	2.1952e-06	25.766	0.00023931	0.00023048	6.4827e-05	1125.1	2.53e-06	2.528e-06	1221.3	233.51	2.4941e-06	2.4808e-06	295.7	83.765	66.308	19.267	2.425e-06	26.498	392.971	221.141	208.748	149.986	220.003	392.325	149.713	157.687	223.639	265.220	157.441	163.467	164.301	171.904	250.350	171.019	-8191	255	
668.620	1	1	0	0	0.16189	0.34676	0.22502	0.44375	0.27857	0.082155	0.23706	0.22783	0.22627	0.25014	0.22127	0.32603	0.19501	0.15986	0.26643	0.37223	-2.5583	-3.0479	-2.5042	-3.2271	-2.7708	-2.6833	-3.2	-2.7271	-2.9625	-2.9813	-2.4542	-3.0375	-2.9333	-2.6917	-3.2396	-2.6792	319.100	295.980	468.423	434.799	205.596	235.182	391.055	141.208	139.826	250.684	469.243	180.330	430.362	482.375	261.880	256.170	0.0011253	0.00072615	5.7377e-05	1129.5	5.6236e-06	2.8959e-06	1232.5	234.5	6.1923e-06	3.5532e-06	295.63	83.881	66.647	18.907	4.6894e-06	25.659	0.00023471	0.0002211	6.2884e-05	1124.8	2.4515e-06	2.4381e-06	1222	234.11	2.44e-06	2.4512e-06	295.26	83.829	66.498	19.349	2.4585e-06	26.461	405.786	344.774	201.689	150.237	259.394	263.750	149.751	157.336	262.703	224.973	156.985	163.753	163.858	171.472	276.836	170.654	-8191	255	
668.716	1	1	0	0	0.098355	0.20225	0.18471	0.18805	0.018515	0.092768	0.20863	0.10106	0.1012	0.19927	0.12298	0.10271	0.11656	0.15252	0.3666	0.12832	-2.4521	-3.0083	-2.5146	-3.175	-2.9708	-2.7479	-3.1896	-2.9479	-2.8812	-3.3	-2.8208	-3.1437	-2.9646	-2.8146	-3.1479	-2.8104	172.064	226.195	471.872	481.988	184.927	264.543	413.088	404.025	310.104	497.221	201.151	187.209	427.277	458.629	266.506	299.001	0.001115	0.00054741	3.5697e-05	1130.9	3.6823e-06	1.4288e-06	1227.2	233.98	5.9976e-06	1.2901e-06	296.18	84.359	66.193	18.768	6.0621e-06	25.816	0.00023146	0.00022208	6.2821e-05	1124.9	2.4802e-06	2.5016e-06	1221.7	233.73	2.4997e-06	2.506e-06	295.39	83.897	66.175	19.296	2.5296e-06	26.584	401.105	235.227	161.255	149.980	218.787	313.252	149.882	157.345	312.098	254.901	157.478	163.604	164.071	171.414	279.532	170.669	-8191	255	
668.837	1	1	0	0	0.11446	0.095112	0.15794	0.19615	0.081149	0.23045	0.11191	0.041967	0.23057	0.071982	0.13088	0.15678	0.075545	0.34625	0.29576	0.15258	-2.3438	-3.1854	-2.5458	-3.0062	-2.9396	-2.6271	-3.3229	-2.9917	-2.8458	-3.0479	-2.8208	-3.0333	-3.0729	-2.5042	-2.9375	-3.0438	295.081	246.195	369.788	417.418	209.581	413.807	303.546	383.666	419.140	217.435	457.894	445.720	468.434	480.491	494.953	425.403	0.0012069	0.00033432	5.4289e-05	1137.1	4.3081e-06	8.33e-06	1231.5	233.81	8.0008e-06	3.9065e-06	294.92	83.008	66.534	19.019	2.6402e-06	25.844	0.00024067	0.0002289	6.3174e-05	1125.7	2.5076e-06	2.5066e-06	1223.7	233.78	2.5069e-06	2.4901e-06	295.91	83.502	66.24	19.371	2.5196e-06	26.539	401.912	262.215	198.393	150.239	254.938	229.571	149.820	157.575	240.980	269.743	156.819	163.828	163.831	171.358	351.761	170.786	-8191	255	
668.933	1	1	0	0	0.23274	0.092542	0.23415	0.11173	0.18112	0.23431	0.26156	0.33453	0.11248	0.20775	0.23551	0.05943	0.14508	0.23383	0.17089	0.15338	-2.2812	-3.1333	-2.6333	-2.6854	-2.9146	-2.6146	-3.1875	-2.85	-2.7042	-3.1729	-2.7625	-2.8354	-2.9938	-2.5604	-2.8271	-2.8854	446.610	179.638	276.438	173.104	315.426	342.311	450.678	398.043	150.561	392.037	422.955	213.358	155.792	148.277	433.952	357.100	0.0011131	0.00019477	4.7313e-05	1135.4	8.5411e-07	3.3239e-06	1240.5	236.02	1.2221e-05	2.2057e-06	298.77	84.473	67.025	18.9	1.8122e-06	25.897	0.00023765	0.00022736	6.2993e-05	1126.8	2.516e-06	2.5011e-06	1225.8	234.19	2.4583e-06	2.4764e-06	295.98	83.925	66.333	19.359	2.4369e-06	26.498	401.063	357.688	289.641	149.861	300.807	245.368	150.124	157.445	271.125	275.948	157.154	163.318	164.378	171.446	282.889	170.825	-8191	255	
669.029	1	1	0	0	0.088828	0.040109	0.27329	0.23113	0.12432	0.19807	0.20404	0.26596	0.079298	0.14298	0.35477	0.13011	0.1136	0.2647	0.16766	0.030879	-2.3646	-3.1125	-2.6229	-3.0354	-3.1792	-2.6896	-3.1688	-2.8979	-2.575	-3.0708	-2.8083	-2.7604	-2.9479	-2.7708	-2.6375	-2.9542	334.968	441.615	327.306	172.588	323.788	250.055	478.847	431.603	487.790	429.393	158.120	481.945	144.153	203.600	336.224	374.813	0.0010808	0.00024007	0.00011564	1138.7	1.72e-06	5.1921e-06	1234.4	234.33	1.4962e-06	9.388e-07	295.9	83.763	66.352	18.901	4.0753e-06	26.094	0.00023092	0.00021835	6.2378e-05	1124.8	2.4303e-06	2.4124e-06	1224.8	234.06	2.4405e-06	2.3538e-06	295.5	83.639	66.185	19.359	2.3179e-06	26.538	403.035	196.141	188.705	149.963	284.884	257.927	150.012	157.486	216.557	212.724	157.112	163.905	164.225	171.626	253.827	170.843	-8191	255	
669.101	1	1	0	0	0.14764	0.055869	0.14481	0.15447	0.14749	0.19731	0.27049	0.13212	0.22924	0.099394	0.17221	0.08606	0.19584	0.26234	0.10136	0.15888	-2.2062	-3.1396	-2.9375	-2.7708	-3.1688	-2.6708	-3.1167	-3.1063	-2.5354	-2.8458	-3.0208	-2.7875	-3.0938	-2.7521	-2.9375	-3.0292	211.479	164.174	230.548	193.569	469.891	206.939	140.821	443.283	213.480	410.492	403.904	276.365	484.982	379.914	363.650	150.318	0.0010062	0.00084443	1.9579e-05	1135	4.5231e-06	3.449e-06	1234.7	234.38	3.6769e-06	4.7798e-06	296.58	84.305	66.203	18.865	3.1172e-06	25.957	0.00022228	0.00021183	5.9266e-05	1124	2.3249e-06	2.2869e-06	1223	233.41	2.327e-06	2.2668e-06	295.51	83.622	65.924	19.325	2.2776e-06	26.417	402.072	275.437	188.237	150.291	240.242	263.848	149.819	157.330	230.457	349.068	157.168	163.975	164.282	171.250	311.874	170.976	-8191	255	
669.221	1	1	0	0	0.1104	0.23961	0.086507	0.27063	0.0679	0.10925	0.15442	0.26526	0.26665	0.2381	0.16935	0.15918	0.1483	0.095163	0.1813	0.12991	-2.3	-3.1	-2.9167	-2.8667	-3.175	-2.8083	-3.1188	-3.2167	-2.7396	-2.9833	-2.9938	-2.6542	-3.0417	-2.8917	-2.5708	-3.0458	367.898	375.819	207.976	472.629	190.239	279.593	170.451	483.640	429.601	443.752	217.752	492.687	302.091	375.194	320.466	368.921	0.00093865	0.00037433	0.00010259	1140.2	2.3094e-06	3.5742e-06	1235.6	234.4	4.153e-06	4.0944e-06	294.49	84.148	66.513	18.84	1.359e-06	25.905	0.00021694	0.00020662	5.8224e-05	1125.8	2.312e-06	2.2995e-06	1223.3	233.54	2.3127e-06	2.2628e-06	294.87	83.497	66.037	19.292	2.2483e-06	26.48	409.746	180.624	258.346	150.033	289.364	337.047	149.660	157.364	298.140	335.614	157.368	163.679	164.600	171.090	378.701	170.540	-8191	255	
669.318	1	1	0	0	0.27781	0.22636	0.13775	0.24268	0.15122	0.14575	0.17922	0.1064	0.038692	0.29092	0.07555	0.3166	0.12895	0.13261	0.20029	0.0095257	-2.0854	-2.9271	-3.0375	-2.7438	-3.2583	-2.8667	-2.8625	-3.2021	-2.8625	-3.1646	-3.2479	-2.7083	-3.1271	-2.9729	-2.8167	-3.1437	445.505	144.705	430.485	460.714	376.983	475.584	452.784	420.803	244.233	492.333	388.345	415.428	188.537	168.798	338.839	423.201	0.00090662	0.00053582	4.1832e-05	1131.7	3.4828e-06	3.5758e-06	1234	233.4	8.9014e-06	4.4697e-06	297.07	83.594	66.643	18.838	3.2528e-06	25.864	0.00021927	0.00020858	5.6525e-05	1124.1	2.2476e-06	2.2413e-06	1222.9	233.18	2.2521e-06	2.2041e-06	295.5	83.317	65.921	19.288	2.2271e-06	26.427	400.695	286.171	282.077	150.073	286.782	337.216	149.977	157.392	260.298	286.982	157.145	163.716	164.152	171.601	330.152	170.810	-8191	255	
669.414	1	1	0	0	0.32029	0.23508	0.069334	0.137	0.042292	0.24755	0.45529	0.18685	0.14811	0.10746	0.15661	0.28142	0.13591	0.15892	0.18783	0.18284	-2.2104	-2.9271	-2.9437	-2.9333	-3.0271	-3.025	-2.8563	-3.1521	-2.6771	-2.6979	-3.0521	-2.6771	-2.9542	-2.8604	-2.6562	-3.2229	199.078	223.446	410.870	411.674	249.071	290.144	370.174	460.103	161.638	292.952	457.526	397.228	167.754	323.973	156.920	331.547	0.00099964	0.00011829	8.293e-05	1137.8	3.7424e-06	4.4896e-06	1231.3	233.92	9.1134e-06	2.2645e-06	297.25	84.333	66.991	18.956	4.19e-06	25.98	0.00021676	0.00020625	5.6397e-05	1121.6	2.2651e-06	2.2376e-06	1221.8	232.89	2.2231e-06	2.2337e-06	295.51	83.599	66.12	19.286	2.2651e-06	26.468	394.425	388.307	236.759	149.949	262.350	264.390	149.788	157.618	235.128	356.098	157.038	163.798	164.125	171.268	345.809	170.434	-8191	255	
669.510	1	1	0	0	0.14859	0.15523	0.044332	0.15209	0.026349	0.22902	0.15933	0.19441	0.19323	0.077859	0.038288	0.29736	0.094934	0.2082	0.11291	0.065463	-2.4979	-2.8125	-2.9521	-2.5708	-3.2271	-2.95	-2.8042	-3.0938	-2.7479	-2.775	-3.1146	-2.8167	-2.9458	-2.9521	-2.5854	-3.0771	447.634	414.789	269.789	455.137	402.089	239.384	404.168	496.580	462.878	233.937	460.638	384.504	339.106	154.184	358.049	237.829	0.00098841	0.00010831	8.9737e-05	1136.6	3.9065e-06	1.1172e-06	1226.5	233.7	4.2361e-06	3.678e-06	294.3	83.805	66.113	18.714	7.6137e-06	25.748	0.00021722	0.00020771	5.7216e-05	1125.6	2.2977e-06	2.2958e-06	1219.1	233.37	2.276e-06	2.3344e-06	294.9	83.63	65.839	19.292	2.3e-06	26.462	398.569	325.567	222.299	150.022	280.756	248.461	149.645	157.723	285.405	327.355	156.963	163.332	163.898	171.285	247.255	170.976	-8191	255	
669.606	1	1	0	0	0.12925	0.064994	0.10201	0.14972	0.075278	0.14754	0.27052	0.29184	0.1851	0.13905	0.087784	0.086842	0.14869	0.16296	0.047246	0.1542	-2.4854	-2.675	-2.8375	-2.7375	-2.8187	-2.9771	-2.7604	-3.1896	-2.775	-2.8854	-3.1813	-2.8292	-2.9042	-3.075	-2.6146	-3.0542	480.579	350.888	192.371	453.765	386.855	145.846	390.668	147.311	268.654	438.547	152.327	483.709	226.808	170.939	336.508	140.377	0.00099075	0.00014481	4.7573e-05	1134.3	4.5866e-06	4.1172e-06	1229.3	233.77	4.725e-06	4.8903e-06	296.57	84.055	66.043	18.718	4.3054e-06	25.75	0.00022212	0.00021003	5.9089e-05	1124.2	2.3808e-06	2.2949e-06	1221.7	233.9	2.4054e-06	2.3528e-06	295.41	83.636	66.008	19.29	2.3612e-06	26.499	394.662	217.323	192.290	149.938	210.475	350.682	149.799	157.580	238.584	317.627	156.886	163.809	164.147	170.867	243.524	170.527	-8191	255	
669.702	1	1	0	0	0.087687	0.10485	0.14972	0.066439	0.14879	0.17863	0.095983	0.15333	0.1051	0.071952	0.034444	0.27413	0.19416	0.19391	0.0039515	0.20255	-2.5042	-2.9188	-2.825	-2.9271	-2.8187	-2.9562	-2.775	-3.0312	-2.8354	-2.5938	-3.2812	-2.8854	-2.8458	-2.9896	-2.7896	-2.9146	465.226	464.894	181.677	458.286	474.053	269.328	306.971	272.271	268.188	234.649	434.107	310.152	337.066	383.660	494.460	145.119	0.0010988	0.00037655	0.00013161	1136.5	4.649e-06	4.2358e-06	1234.2	233.73	1.4274e-06	1.5873e-06	294.52	84.302	66.127	18.821	6.2315e-06	25.706	0.00022319	0.00021155	5.9352e-05	1124.7	2.3603e-06	2.3631e-06	1222.4	233.22	2.3004e-06	2.3073e-06	294.99	83.652	65.955	19.314	2.3207e-06	26.429	400.694	285.441	269.798	149.948	280.369	225.107	149.889	157.317	283.380	298.622	157.008	163.816	164.215	171.664	252.247	171.015	-8191	255	
669.798	1	1	0	0	0.11799	0.31821	0.24017	0.14466	0.20754	0.090726	0.36053	0.1501	0.35557	0.24035	0.22835	0.090002	0.13151	0.1223	0.18312	0.021828	-2.4458	-2.4604	-2.9938	-2.9062	-2.7646	-3.1792	-2.8771	-2.7354	-2.8479	-2.6521	-3.1125	-2.8875	-2.7042	-3.0479	-2.6625	-2.9083	479.039	283.289	438.497	144.600	497.196	294.605	473.558	458.441	211.146	449.467	455.084	411.166	219.449	223.706	475.781	350.092	0.0011675	0.00040679	6.1954e-05	1130.8	2.4935e-06	6.7595e-06	1225.5	234.34	1.0565e-05	4.3442e-06	296.19	84.037	66.144	18.772	2.6764e-06	25.887	0.00022287	0.00021182	5.8104e-05	1123.5	2.327e-06	2.3078e-06	1218.5	233.61	2.3446e-06	2.2958e-06	295.3	83.694	65.981	19.261	2.2737e-06	26.443	400.573	234.452	233.274	150.164	294.579	300.096	149.817	157.341	209.907	215.310	157.180	163.650	164.468	171.583	307.239	170.589	-8191	255	
669.917	1	1	0	0	0.43758	0.18275	0.14769	0.32126	0.081416	0.092899	0.26907	0.38932	0.17539	0.05344	0.18704	0.012434	0.090669	0.0031982	0.029567	0.38937	-2.4771	-2.4792	-2.8937	-2.8979	-2.7271	-3.0104	-2.7542	-2.9062	-3.0354	-2.5958	-3.2083	-2.8708	-2.5042	-3.1271	-2.6458	-2.7417	275.098	466.920	294.012	423.429	264.424	250.221	450.637	406.630	339.681	196.611	471.394	453.815	458.016	172.978	191.241	295.945	0.0010334	0.00057653	6.8443e-05	1134.7	6.3353e-07	4.0469e-06	1229.6	233.52	5.0273e-06	3.9328e-06	294.39	83.637	67.489	18.794	2.5695e-07	25.669	0.00022132	0.00021041	5.7963e-05	1122.1	2.2928e-06	2.2653e-06	1221.3	233.04	2.2318e-06	2.2657e-06	294.24	83.402	66.196	19.237	2.2949e-06	26.425	397.701	249.427	164.250	149.969	279.659	301.767	149.682	157.314	214.276	279.412	157.009	163.552	164.171	171.567	475.398	171.124	-8191	255	
670.013	1	1	0	0	0.21765	0.25617	0.076524	0.21016	0.21759	0.21542	0.34563	0.23316	0.23049	0.15267	0.22914	0.34456	0.21224	0.024826	0.10567	0.20414	-2.6146	-2.6979	-2.8667	-2.9958	-2.7583	-3.0083	-2.9458	-2.9458	-2.9833	-2.7021	-3.0375	-2.9521	-2.4813	-3.1688	-2.7812	-2.6396	165.257	394.762	395.422	447.676	178.049	233.657	471.168	409.129	359.538	437.887	163.220	424.961	422.693	341.479	364.529	145.884	0.0012287	0.00019125	3.8252e-05	1133	2.685e-06	5.1086e-06	1229.2	233.86	1.1792e-05	3.4957e-06	294.78	83.342	66.062	18.898	4.5611e-06	25.76	0.00021895	0.00020826	5.763e-05	1121.8	2.2498e-06	2.2638e-06	1219.6	233.13	2.2553e-06	2.2504e-06	294.64	83.285	65.922	19.3	2.3003e-06	26.389	397.032	233.183	240.051	150.142	267.020	324.155	149.676	157.453	210.941	297.428	157.166	163.791	163.708	171.343	300.146	170.312	-8191	255	
670.109	1	1	0	0	0.098673	0.20521	0.16751	0.08192	0.32995	0.11224	0.33699	0.28099	0.020726	0.11342	0.16094	0.010668	0.083789	0.14734	0.21316	0.062129	-2.6562	-2.6917	-3.1312	-3.1479	-2.7354	-3.1771	-2.9479	-2.7354	-3.0854	-2.75	-3.0854	-3.0167	-2.575	-3.2	-2.6188	-2.7562	480.947	425.600	405.279	185.259	262.693	189.969	433.082	409.736	141.980	483.258	183.916	307.133	406.303	204.600	221.228	379.897	0.0010251	0.00020426	6.4828e-05	1135.3	2.6185e-06	4.7264e-06	1231.9	234.01	4.3806e-06	3.2836e-06	293.44	83.964	66.825	18.843	3.2624e-06	25.962	0.00021897	0.00020745	5.7876e-05	1122.6	2.312e-06	2.2643e-06	1221	233.49	2.3119e-06	2.3332e-06	294.33	83.412	66.118	19.295	2.2844e-06	26.473	399.301	220.843	178.880	149.866	193.521	427.878	149.789	157.476	229.469	290.864	157.343	163.495	163.855	171.307	285.835	170.944	-8191	255	
670.206	1	1	0	0	0.19559	0.13302	0.066787	0.20844	0.11374	0.17969	0.13506	0.098574	0.23572	0.19941	0.064478	0.25076	0.13586	0.12264	0.1929	0.1923	-2.8083	-2.7125	-2.8354	-3.2542	-2.7313	-3.0125	-3.1542	-2.875	-2.8979	-2.7875	-3.0729	-3.2292	-2.7438	-3.1333	-2.6875	-2.7958	393.440	209.377	295.725	172.018	144.372	250.335	458.443	458.414	145.147	239.480	326.742	458.810	318.911	449.858	171.055	410.565	0.0011021	0.00033807	6.6772e-05	1128	1.5931e-06	2.0015e-06	1227.2	233.84	6.7491e-06	1.3356e-06	294.42	83.515	66.539	18.863	6.9291e-06	25.884	0.00021496	0.00020407	5.6499e-05	1119.3	2.2843e-06	2.2224e-06	1218.3	233.31	2.2252e-06	2.2457e-06	294.37	83.203	65.96	19.255	2.2143e-06	26.426	401.601	201.788	346.488	150.093	237.213	310.427	149.894	157.789	246.576	365.714	157.090	164.026	163.686	171.788	248.070	170.735	-8191	255	
670.326	1	1	0	0	0.19282	0.15255	0.20788	0.1193	0.28294	0.097044	0.1931	0.21884	0.074924	0.3128	0.05058	0.10932	0.11535	0.18959	0.13881	0.11999	-2.4938	-2.7458	-2.7313	-2.9958	-2.5521	-2.95	-3.1125	-2.7458	-3.0292	-2.7792	-2.9938	-3.0625	-2.5583	-2.8646	-3.0292	-2.6917	181.689	237.755	360.345	227.313	460.946	174.664	401.515	340.999	447.243	472.142	344.147	220.019	366.383	200.038	490.016	140.494	0.0010974	0.00025764	2.5696e-05	1127.8	3.2831e-06	4.3701e-06	1224.2	233.88	6.8698e-06	3.5201e-06	295.21	83.83	66.595	18.748	3.9879e-06	25.883	0.00020984	0.00020186	5.7008e-05	1120.6	2.2209e-06	2.2017e-06	1217.7	232.93	2.2069e-06	2.202e-06	295.01	83.35	65.88	19.259	2.1778e-06	26.365	398.474	281.391	481.742	149.764	262.549	433.718	149.649	157.558	247.558	402.404	157.383	163.812	163.678	171.979	363.914	170.916	-8191	255	
670.398	1	1	0	0	0.11709	0.080733	0.076137	0.28051	0.039228	0.029762	0.098371	0.32091	0.18467	0.13978	0.18221	0.11441	0.029745	0.048353	0.22751	0.037697	-2.6021	-2.9083	-2.7687	-3.2542	-2.7646	-2.8979	-3.2271	-2.6688	-2.9875	-2.8958	-2.7521	-3.2292	-2.6958	-2.8979	-2.9646	-2.7562	263.638	256.884	420.854	474.939	152.314	380.661	466.136	437.388	150.180	377.563	226.826	417.187	151.024	262.996	140.665	387.948	0.0010436	0.00036069	0.00013361	1131.9	8.6466e-07	5.0049e-06	1228	234.98	6.4144e-06	3.1145e-06	294.53	83.343	66.055	18.788	3.4078e-06	25.736	0.00021325	0.00020515	5.6618e-05	1119	2.212e-06	2.1764e-06	1217.1	233.29	2.2262e-06	2.234e-06	294.2	83.162	65.751	19.259	2.2115e-06	26.367	397.247	315.321	270.407	149.976	269.206	267.713	149.812	157.520	236.601	140.140	157.201	163.697	164.023	171.735	328.470	170.742	-8191	255	
670.494	1	1	0	0	0.18568	0.14919	0.075048	0.24205	0.21722	0.097179	0.064554	0.31588	0.17685	0.15931	0.2448	0.043416	0.24141	0.17519	0.20453	0.22534	-2.4667	-2.9188	-2.7938	-3.3167	-2.8083	-2.85	-3.275	-2.7646	-3.0667	-2.9854	-2.7792	-3.1542	-2.8833	-2.9667	-3.1771	-2.8083	478.797	260.131	360.498	181.437	163.253	271.805	437.262	160.125	439.883	316.078	490.225	218.702	480.323	262.984	250.340	451.288	0.00093953	0.00028846	0.00011924	1128.4	2.0189e-06	1.2357e-06	1225.4	233.49	8.7818e-06	5.4337e-06	294.62	83.122	67.221	18.768	1.9281e-06	25.797	0.00021273	0.00020381	5.6227e-05	1120.5	2.2569e-06	2.2117e-06	1218.6	232.78	2.2188e-06	2.1941e-06	294.16	83.077	65.898	19.27	2.1378e-06	26.359	412.063	149.816	223.360	149.954	224.926	331.300	149.683	157.273	262.172	295.433	156.962	163.716	164.250	171.592	333.020	170.595	-8191	255	
670.613	1	1	0	0	0.26881	0.17025	0.1369	0.18231	0.13687	0.069284	0.29626	0.073572	0.052762	0.19503	0.16977	0.17931	0.18587	0.3004	0.23194	0.15595	-2.6562	-2.8979	-2.4667	-3.1979	-2.7271	-2.8958	-3.3292	-2.5958	-2.9062	-3.0292	-2.7125	-3.1979	-2.7917	-2.7562	-3.1063	-2.7854	260.073	428.215	359.051	199.858	293.631	271.505	468.371	469.467	365.869	277.396	450.711	350.378	234.692	439.333	401.876	256.270	0.0010933	0.00047905	0.00011358	1126.7	3.698e-06	4.1192e-06	1221.8	233.09	6.0065e-06	3.4701e-06	294.79	83.417	66.01	18.786	5.5001e-06	25.856	0.00021227	0.00020145	5.4826e-05	1119.5	2.2196e-06	2.13e-06	1213.8	232.98	2.2075e-06	2.1348e-06	294.49	83.162	65.732	19.227	2.1112e-06	26.392	397.394	222.816	237.578	150.260	197.881	309.617	149.895	157.710	202.548	321.703	157.260	163.876	163.996	171.583	224.465	170.646	-8191	255	
670.709	1	1	0	0	0.10174	0.10712	0.11783	0.31198	0.30135	0.1012	0.33461	0.43771	0.23701	0.21874	0.14405	0.11648	0.16724	0.30819	0.072797	0.13356	-2.5417	-2.8312	-2.5875	-3.0917	-2.8667	-2.6396	-3.0812	-2.8083	-2.8917	-3.0646	-2.6292	-2.9917	-2.7687	-2.7208	-3.1104	-2.7313	287.799	464.916	145.460	476.635	375.410	330.266	402.970	395.220	242.961	205.264	218.468	199.292	433.890	493.447	255.808	204.509	0.00095795	0.00031054	6.0774e-05	1128.1	5.5206e-06	4.559e-06	1221.4	233.65	8.4915e-06	2.4557e-06	295.82	83.318	66.136	18.855	2.7686e-06	25.787	0.00020434	0.00019426	5.4662e-05	1118.5	2.1586e-06	2.1444e-06	1215.3	233.1	2.1496e-06	2.1445e-06	294.36	83.072	65.693	19.201	2.145e-06	26.358	401.542	229.367	483.984	150.158	298.126	346.750	149.921	157.576	235.343	418.427	157.361	164.209	164.250	171.831	292.141	170.561	-8191	255	
670.805	1	1	0	0	0.14192	0.21285	0.10636	0.15391	0.32966	0.20682	0.16614	0.099984	0.038182	0.15525	0.060557	0.15274	0.083146	0.15203	0.048564	0.17398	-2.2083	-2.9437	-2.6	-3.075	-2.8979	-2.6396	-3.3542	-2.8667	-2.8375	-3.1792	-2.7271	-3.1479	-2.9854	-2.7333	-3	-2.8979	228.561	165.580	141.869	415.456	425.302	433.389	445.622	360.731	140.199	490.071	385.995	338.154	164.842	486.543	334.585	489.894	0.00084952	0.00023273	9.3242e-05	1134.4	2.7703e-06	6.275e-06	1220.7	232.51	3.7357e-06	6.3012e-07	292.8	83.078	66.466	18.811	3.9755e-06	25.841	0.00020558	0.00019426	5.4377e-05	1118.9	2.1409e-06	2.1549e-06	1215.8	231.99	2.1231e-06	2.0905e-06	293.66	82.961	65.876	19.176	2.1037e-06	26.331	403.981	235.269	257.804	149.963	251.116	280.471	149.978	157.660	210.691	259.753	157.118	163.843	163.902	171.276	302.355	170.738	-8191	255	
670.926	1	1	0	0	0.06525	0.29444	0.10512	0.22519	0.15224	0.23811	0.22487	0.19692	0.25551	0.011723	0.043509	0.29628	0.13119	0.082721	0.11809	0.10746	-2.1083	-3.075	-2.7042	-3.0458	-2.8979	-2.7562	-3.1646	-3.0083	-2.675	-3.1417	-2.9625	-2.7812	-3.05	-2.6625	-2.8521	-2.8646	188.825	496.539	254.063	153.461	333.579	219.103	381.467	442.935	441.067	437.205	165.324	474.058	182.638	460.836	365.951	466.124	0.00097528	0.0004184	2.0672e-05	1130.1	4.1327e-06	3.6103e-06	1223.2	233.83	8.5762e-06	6.7227e-06	295.8	83.558	66.414	18.677	1.1617e-06	25.708	0.00020419	0.0001858	5.2085e-05	1118.5	2.0382e-06	2.0514e-06	1213.5	232.55	2.0852e-06	2.0607e-06	293.75	83.222	65.619	19.164	2.0479e-06	26.254	408.291	188.158	255.783	149.957	255.472	383.705	149.852	157.816	233.792	282.991	156.896	163.767	163.941	171.684	308.507	170.898	-8191	255	
670.998	1	1	0	0	0.21206	0.10745	0.43575	0.065427	0.17852	0.047464	0.084659	0.25759	0.1779	0.11987	0.30664	0.18656	0.27834	0.21041	0.16688	0.11841	-2.3854	-3.025	-2.6125	-2.8208	-2.9938	-2.5875	-3.3333	-2.9667	-2.8	-3.1437	-2.7896	-2.9625	-3.125	-2.5771	-2.8042	-2.8896	495.001	495.796	395.426	383.716	443.484	165.393	209.947	379.913	186.245	443.127	464.628	287.002	455.338	152.769	170.815	222.142	0.00090989	0.00037016	0.00016194	1127.9	3.8234e-06	3.7851e-06	1224.2	232.45	3.0837e-06	6.3534e-06	294.11	83.553	66.171	18.872	6.1485e-06	25.669	0.00019985	0.00018754	5.1507e-05	1116	2.0609e-06	2.0542e-06	1213.5	231.88	2.0624e-06	2.0289e-06	293.61	83.042	65.562	19.212	2.051e-06	26.236	410.892	467.956	211.336	150.092	245.216	282.072	150.022	157.521	447.121	252.981	157.056	164.060	163.689	171.214	267.284	170.646	-8191	255	
671.094	1	1	0	0	0.16039	0.013174	0.045491	0.083085	0.083041	0.17085	0.13142	0.04601	0.097127	0.24939	0.15197	0.26772	0.094152	0.07432	0.25221	0.19387	-2.2292	-3.0854	-2.6625	-2.9875	-3.1167	-2.7229	-2.9688	-3.0812	-2.6979	-3.2292	-3.0104	-2.7729	-3.0312	-2.6729	-2.9167	-3.1396	219.556	226.926	319.572	477.234	290.094	496.932	331.632	216.880	468.365	378.492	389.541	290.085	240.889	208.120	439.887	420.756	0.00095197	0.00021391	2.7006e-05	1128.7	3.7886e-06	5.1601e-06	1224	233.33	5.6784e-06	5.338e-06	293.14	83.542	66.082	18.808	1.1625e-06	25.593	0.00019462	0.00018638	5.1121e-05	1116.7	2.0625e-06	2.0505e-06	1212.5	232.4	2.0647e-06	2.0517e-06	293.17	82.988	65.482	19.2	2.0456e-06	26.16	400.351	158.209	296.571	149.986	308.441	264.355	150.096	157.588	273.653	326.665	157.176	164.193	164.105	171.498	218.992	170.770	-8191	255	
671.190	1	1	0	0	0.12871	0.077895	0.11905	0.46465	0.19696	0.11726	0.077932	0.19078	0.18798	0.22125	0.1309	0.2446	0.15756	0.047451	0.08032	0.16636	-1.9333	-3.0938	-2.8604	-2.7667	-3.1562	-2.6625	-3.1562	-3.1375	-2.4313	-3.0792	-2.8146	-2.5979	-3.0521	-2.6375	-2.825	-2.9583	182.168	316.538	343.977	433.210	266.741	186.934	331.303	460.258	230.672	212.233	419.529	478.023	455.066	452.828	181.259	486.697	0.001129	0.00048243	9.4254e-05	1126.6	1.7566e-06	7.895e-06	1225.7	233.16	9.5536e-06	6.3234e-06	294.09	83.847	66.308	18.857	5.74e-06	25.743	0.00019707	0.00018554	5.284e-05	1115	2.0324e-06	2.0765e-06	1212.2	232.23	2.0786e-06	2.0581e-06	292.63	83.192	65.574	19.211	2.0662e-06	26.315	396.786	225.508	230.108	149.850	236.385	362.010	150.169	157.575	240.754	242.699	157.462	164.046	163.989	172.012	257.622	170.481	-8191	255	
671.286	1	1	0	0	0.35775	0.20543	0.096671	0.24432	0.1487	0.23008	0.16349	0.1195	0.13115	0.15045	0.078872	0.26844	0.068621	0.31248	0.12375	0.10414	-2.2125	-2.7333	-2.8896	-2.7458	-2.9354	-2.8021	-2.9521	-3.0708	-2.6021	-3.0062	-2.9771	-2.6875	-3.1604	-2.6646	-2.7271	-3.1583	369.272	457.991	419.012	147.087	218.356	178.292	430.017	480.884	353.841	472.846	406.816	411.891	425.863	219.063	433.677	418.525	0.00099243	0.00041958	9.4128e-05	1134.1	3.2608e-06	2.4253e-06	1226.6	234.41	5.2044e-06	1.2884e-06	296	83.141	66.508	18.876	2.8502e-06	25.872	0.00019965	0.00019113	5.2828e-05	1116	2.087e-06	2.0703e-06	1214.9	232.19	2.146e-06	2.0843e-06	293.82	83.073	65.538	19.175	2.1291e-06	26.365	396.510	209.611	266.091	150.344	294.699	337.508	150.045	157.502	276.350	261.075	157.259	163.850	163.735	171.739	271.440	171.062	-8191	255	
671.407	1	1	0	0	0.27044	0.091661	0.14041	0.21135	0.11044	0.15496	0.13195	0.34195	0.14171	0.084956	0.075216	0.35355	0.10162	0.21	0.28306	0.11129	-2.1333	-2.8792	-2.8229	-2.6937	-3.0708	-2.5417	-2.8854	-3.1979	-2.7271	-2.9333	-3.1042	-2.6625	-3.0583	-2.7917	-2.7833	-3.0958	228.890	159.293	372.906	438.076	472.210	463.059	452.440	465.651	340.861	149.156	255.289	423.404	439.409	205.568	446.385	340.987	0.001141	0.00063821	4.2964e-05	1127.7	2.9698e-06	4.5663e-06	1228.9	232.36	4.157e-06	1.6036e-06	294.69	82.946	65.551	18.773	3.3337e-06	25.754	0.00020578	0.00019716	5.4751e-05	1115.9	2.1837e-06	2.1532e-06	1214.7	232.12	2.1634e-06	2.1005e-06	294.34	83.072	65.531	19.198	2.1434e-06	26.359	398.215	226.904	267.025	149.924	271.285	226.841	149.898	157.732	265.938	179.321	157.020	163.985	163.427	171.590	440.472	170.752	-8191	255	
671.503	1	1	0	0	0.13836	0.10121	0.13491	0.036562	0.09579	0.053545	0.17072	0.014056	0.1163	0.032754	0.11936	0.077435	0.11635	0.17015	0.11264	0.35786	-2.2354	-2.8646	-2.9604	-2.5604	-2.9917	-2.9208	-2.8146	-3.1354	-2.7438	-2.7	-3.1333	-2.5458	-2.8792	-3.0187	-2.4875	-3.0979	155.655	280.587	456.261	492.255	163.123	497.864	447.234	145.166	408.351	196.592	477.083	240.107	191.750	215.851	359.703	436.758	0.0011555	0.00017496	3.9926e-05	1126.6	2.1836e-06	3.8339e-06	1224.3	232.1	4.4533e-06	5.4314e-06	294.76	83.725	66.264	18.667	6.235e-06	25.709	0.00020535	0.00019414	5.3223e-05	1115.8	2.118e-06	2.1185e-06	1213.4	231.75	2.1539e-06	2.1035e-06	293.43	83.021	65.613	19.177	2.1357e-06	26.257	397.847	417.216	196.116	150.088	333.910	226.644	149.904	157.628	334.511	207.740	157.439	163.889	163.880	171.476	292.664	170.655	-8191	255	
671.599	1	1	0	0	0.21324	0.07065	0.10814	0.3505	0.041025	0.092379	0.13241	0.18063	0.13581	0.10651	0.16031	0.20495	0.088943	0.12061	0.084306	0.11114	-2.3917	-2.7354	-2.9542	-2.6792	-3.0625	-2.9896	-2.9562	-3.1396	-2.8917	-2.9083	-3.0812	-2.7708	-3.0646	-3.1604	-2.8125	-3.1583	439.852	355.946	189.610	448.009	393.019	338.107	469.687	359.237	398.752	401.538	385.746	465.630	416.388	480.507	469.537	323.193	0.00097988	0.00013443	5.8755e-05	1126.8	3.1874e-06	2.0249e-06	1217.5	234.06	5.473e-06	4.4156e-06	294.58	83.065	65.858	18.793	4.9261e-06	25.818	0.00020154	0.00019362	5.3285e-05	1115.6	2.1306e-06	2.1162e-06	1210.6	232.03	2.1286e-06	2.1079e-06	293.87	82.882	65.466	19.129	2.0953e-06	26.298	411.354	233.827	235.957	150.265	277.374	246.755	149.936	157.437	212.015	244.093	157.233	163.602	163.753	171.461	229.239	170.948	-8191	255	
671.693	1	1	0	0	0.15661	0.25651	0.17408	0.11093	0.31963	0.14191	0.25679	0.066486	0.18717	0.16462	0.29041	0.062589	0.26572	0.1207	0.068316	0.13487	-2.5229	-2.8354	-3.0083	-2.9062	-2.8771	-3.1896	-3.0125	-3.1208	-2.95	-2.7	-3.0896	-2.7938	-2.9042	-2.9542	-2.6083	-3.0187	404.740	369.376	228.206	474.570	439.759	327.223	483.180	398.062	285.639	407.207	443.423	388.062	178.251	166.006	392.745	452.088	0.0010289	0.00062172	0.00013419	1124	2.9785e-06	1.9428e-06	1221.6	231.85	5.9297e-06	1.969e-06	293.96	83.506	66.389	18.77	1.01e-05	25.714	0.00020434	0.00019449	5.2123e-05	1116	2.0859e-06	2.0508e-06	1213.1	231.49	2.079e-06	2.0668e-06	293.24	82.915	65.725	19.149	2.0483e-06	26.255	398.266	233.698	263.876	150.114	222.559	389.911	149.867	157.443	304.342	246.831	157.111	163.712	163.733	171.500	249.623	170.415	-8191	255	
671.789	1	1	0	0	0.19202	0.18657	0.096399	0.13749	0.18054	0.14855	0.21993	0.072247	0.14715	0.085777	0.13649	0.25936	0.27064	0.042143	0.069086	0.28452	-2.5521	-2.7354	-3.1146	-2.7979	-2.8125	-3.1354	-2.7583	-3.1854	-2.9313	-2.6458	-3.2313	-2.775	-2.7562	-3.2062	-2.4917	-2.9479	316.835	475.700	396.267	483.758	267.761	458.169	471.370	363.764	346.039	250.003	458.713	469.355	453.124	375.217	459.398	438.458	0.00099144	0.00028422	8.8817e-05	1125.4	4.4666e-06	3.7544e-07	1220	233.69	5.0347e-06	5.3994e-06	294.03	82.757	66.599	18.724	4.2206e-06	25.627	0.00019474	0.00018656	5.2434e-05	1116	2.0561e-06	2.0181e-06	1212.4	232.08	2.0798e-06	2.1131e-06	293.4	82.76	65.479	19.146	2.0463e-06	26.233	389.042	247.447	237.945	150.266	296.972	428.070	150.049	157.552	303.471	274.122	157.277	163.643	163.822	171.316	230.628	171.176	-8191	255	
671.887	1	1	0	0	0.18662	0.10428	0.27346	0.11385	0.31844	0.065364	0.14961	0.32098	0.14398	0.083513	0.38844	0.064152	0.08622	0.22872	0.29514	0.27663	-2.4521	-2.6417	-3.0646	-2.8167	-2.7021	-2.9833	-2.8979	-3.0271	-2.8292	-2.6896	-3.1625	-2.8958	-2.5021	-3.2208	-2.7104	-2.9125	496.478	293.654	253.408	474.028	215.347	378.355	470.323	405.768	405.892	382.534	440.627	333.412	242.260	469.928	173.054	222.394	0.001065	0.00019401	7.7745e-05	1125.2	3.3945e-06	6.6783e-06	1224.5	233.21	8.115e-06	5.3597e-06	294.1	83.04	66.456	18.71	1.414e-06	25.651	0.00020133	0.00018902	5.147e-05	1114.1	2.0766e-06	1.9458e-06	1212.7	232.02	2.0178e-06	1.9941e-06	292.91	82.749	65.37	19.081	1.9623e-06	26.215	391.214	476.473	299.702	150.119	199.269	316.585	149.888	157.512	293.421	261.110	157.131	163.925	163.712	171.800	232.655	170.762	-8191	255	
672.006	1	1	0	0	0.22515	0.14295	0.12622	0.30509	0.082553	0.20557	0.079814	0.1719	0.13131	0.016911	0.19294	0.12467	0.059498	0.32729	0.16345	0.089282	-2.4437	-2.6417	-2.9688	-2.8979	-2.5938	-3.1271	-2.7333	-2.8458	-2.9813	-2.4708	-3.275	-2.9333	-2.7146	-3.1312	-2.6854	-2.9437	460.577	427.518	311.178	472.030	411.134	199.461	434.743	456.884	473.520	191.526	489.478	165.213	438.389	466.590	242.195	315.637	0.0010604	0.00059523	3.7205e-05	1128.3	1.6954e-06	4.4278e-06	1219.5	234.05	1.087e-05	1.2587e-06	293.5	83.093	66.29	18.798	2.7217e-06	25.734	0.00018849	0.000179	4.9383e-05	1113.9	1.9736e-06	1.972e-06	1211.1	232.19	1.9729e-06	2.0206e-06	292.92	82.674	65.29	19.102	1.9555e-06	26.2	398.835	194.021	176.268	150.175	280.339	254.538	149.950	157.821	243.425	301.389	157.207	163.777	164.021	171.628	288.404	170.487	-8191	255	
672.102	1	1	0	0	0.15144	0.062331	0.26698	0.19341	0.15387	0.15076	0.33765	0.37871	0.24828	0.24006	0.16641	0.32188	0.12946	0.13061	0.14132	0.1713	-2.5979	-2.6583	-2.9646	-3.0667	-2.6271	-3.2812	-2.8229	-2.7708	-2.9167	-2.7292	-3.0812	-2.8917	-2.6896	-3.1	-2.8042	-2.9083	329.347	187.649	401.314	437.268	454.188	420.819	450.571	402.458	438.909	280.669	418.894	453.995	153.184	472.400	254.817	139.508	0.0011121	0.0004214	0.00015675	1130.9	2.8279e-06	5.9587e-06	1218.5	232.46	2.9029e-06	3.7883e-06	294.27	83.25	65.971	18.908	6.9946e-06	25.753	0.000191	0.00018152	4.9775e-05	1115.4	2.0511e-06	1.9517e-06	1209.8	231.93	1.9865e-06	2.0256e-06	292.54	82.703	65.161	19.199	1.986e-06	26.164	398.412	223.229	166.780	150.203	307.599	273.370	149.957	157.469	214.150	241.192	157.272	163.871	164.094	171.623	276.653	171.112	-8191	255	
672.199	1	1	0	0	0.22825	0.081	0.13773	0.20008	0.33191	0.10742	0.13024	0.18688	0.095489	0.18201	0.10569	0.060903	0.27568	0.063958	0.16187	0.2748	-2.6417	-2.6229	-2.7771	-3.0896	-2.7771	-3.1083	-2.9396	-2.7729	-3.1312	-2.5958	-3.0229	-3.0229	-2.6292	-3.0042	-2.9292	-2.7854	208.433	192.863	381.797	456.682	323.242	268.600	348.986	475.459	159.152	194.817	337.164	261.283	451.957	279.928	255.882	475.722	0.0010035	0.00023808	8.4754e-05	1128	5.1461e-06	3.1678e-06	1218.4	233.14	6.8981e-06	2.6175e-06	293.12	83.219	66.71	18.638	6.3612e-06	25.82	0.00019072	0.00017932	5.1057e-05	1112.7	2.0445e-06	1.9888e-06	1209.6	231.6	2.0295e-06	1.9811e-06	292.27	82.691	65.454	19.132	1.958e-06	26.208	401.567	165.398	259.488	149.972	243.977	401.146	149.825	157.453	209.174	201.879	157.111	163.810	164.006	171.643	250.541	170.905	-8191	255	
672.295	1	1	0	0	0.10283	0.094411	0.20875	0.16102	0.33658	0.099449	0.27733	0.28933	0.27273	0.090819	0.16644	0.16232	0.15825	0.091324	0.15091	0.085445	-2.6125	-2.7646	-2.8563	-3.2042	-2.6896	-3.1646	-3.1292	-2.7062	-3.1583	-2.8729	-2.8771	-3.2438	-2.6479	-3.1083	-2.9688	-2.7625	165.177	444.128	261.888	175.900	251.185	320.795	394.027	146.590	229.783	493.612	324.202	467.376	388.430	253.696	416.548	290.585	0.00085535	0.00026702	4.4544e-05	1130.4	1.8472e-06	2.3779e-06	1218.7	234.04	1.1612e-05	3.1283e-06	296.01	83.666	66.074	18.783	2.125e-06	25.782	0.00019316	0.00017897	5.0615e-05	1115.5	2.029e-06	2.0473e-06	1211.4	231.9	2.0668e-06	2.0476e-06	293.21	82.763	65.235	19.162	2.0827e-06	26.176	395.006	304.583	240.942	150.110	279.148	264.895	149.832	157.596	273.778	167.146	157.070	164.403	163.708	171.607	454.141	170.651	-8191	255	
#DATA ENDS
