BOXY.EXE: ISS Imagent and Oximeter Data Acquisition Program Version 0.80
Ascii Record File

#ACQ INFORMATION
2  Detector Channels 
16  External MUX Channels 
1  Auxiliary Channels 
5000  Waveform (CCF) Frequency (Hz)
1  Waveforms Skipped 
30  Waveforms Averaged 
1  Cycles Averaged 
16  Acquisitions per Waveform 
10.0806  Updata Rate (Hz) 

#FILE INFORMATION
TRUE -- External MUX Channel results are PARSED.
FALSE -- AC DC and Phase are NOT grouped.
TRUE -- Companion Program Settings File CREATED.
FALSE -- AC data not excluded
FALSE -- DC data not excluded
FALSE -- Phase data not excluded
FALSE -- Auxillary Chn. data not excluded
Tab delimiters

#CALIBRATION STATE
TRUE -- Waveform Calibration Values APPLIED.


#AUX CALIBRATION VALUES
Val Type	aux-1	

Term	1.0000e+00	
Factor	0.0000e+00	


#WF CALIBRATION VALUES
A = Detector Channel
Val Type	A-AC1	A-AC2	A-AC3	A-AC4	A-AC5	A-AC6	A-AC7	A-AC8	A-AC9	A-AC10	A-AC11	A-AC12	A-AC13	A-AC14	A-AC15	A-AC16	A-DC1	A-DC2	A-DC3	A-DC4	A-DC5	A-DC6	A-DC7	A-DC8	A-DC9	A-DC10	A-DC11	A-DC12	A-DC13	A-DC14	A-DC15	A-DC16	A-Ph1	A-Ph2	A-Ph3	A-Ph4	A-Ph5	A-Ph6	A-Ph7	A-Ph8	A-Ph9	A-Ph10	A-Ph11	A-Ph12	A-Ph13	A-Ph14	A-Ph15	A-Ph16	

Term	0.00000e+00	0.00000e+00	0.00000e+00	0.00000e+00	0.00000e+00	0.00000e+00	0.00000e+00	0.00000e+00	0.00000e+00	0.00000e+00	0.00000e+00	0.00000e+00	0.00000e+00	0.00000e+00	0.00000e+00	0.00000e+00	0.00000e+00	0.00000e+00	0.00000e+00	0.00000e+00	0.00000e+00	0.00000e+00	0.00000e+00	0.00000e+00	0.00000e+00	0.00000e+00	0.00000e+00	0.00000e+00	0.00000e+00	0.00000e+00	0.00000e+00	0.00000e+00	0.00000e+00	0.00000e+00	0.00000e+00	0.00000e+00	0.00000e+00	0.00000e+00	0.00000e+00	0.00000e+00	0.00000e+00	0.00000e+00	0.00000e+00	0.00000e+00	0.00000e+00	0.00000e+00	0.00000e+00	0.00000e+00	
Factor	1.00000e+00	1.00000e+00	1.00000e+00	1.00000e+00	1.00000e+00	1.00000e+00	1.00000e+00	1.00000e+00	1.00000e+00	1.00000e+00	1.00000e+00	1.00000e+00	1.00000e+00	1.00000e+00	1.00000e+00	1.00000e+00	1.00000e+00	1.00000e+00	1.00000e+00	1.00000e+00	1.00000e+00	1.00000e+00	1.00000e+00	1.00000e+00	1.00000e+00	1.00000e+00	1.00000e+00	1.00000e+00	1.00000e+00	1.00000e+00	1.00000e+00	1.00000e+00	X	X	X	X	X	X	X	X	X	X	X	X	X	X	X	X	

B = Detector Channel
Val Type	B-AC1	B-AC2	B-AC3	B-AC4	B-AC5	B-AC6	B-AC7	B-AC8	B-AC9	B-AC10	B-AC11	B-AC12	B-AC13	B-AC14	B-AC15	B-AC16	B-DC1	B-DC2	B-DC3	B-DC4	B-DC5	B-DC6	B-DC7	B-DC8	B-DC9	B-DC10	B-DC11	B-DC12	B-DC13	B-DC14	B-DC15	B-DC16	B-Ph1	B-Ph2	B-Ph3	B-Ph4	B-Ph5	B-Ph6	B-Ph7	B-Ph8	B-Ph9	B-Ph10	B-Ph11	B-Ph12	B-Ph13	B-Ph14	B-Ph15	B-Ph16	

Term	0.00000e+00	0.00000e+00	0.00000e+00	0.00000e+00	0.00000e+00	0.00000e+00	0.00000e+00	0.00000e+00	0.00000e+00	0.00000e+00	0.00000e+00	0.00000e+00	0.00000e+00	0.00000e+00	0.00000e+00	0.00000e+00	0.00000e+00	0.00000e+00	0.00000e+00	0.00000e+00	0.00000e+00	0.00000e+00	0.00000e+00	0.00000e+00	0.00000e+00	0.00000e+00	0.00000e+00	0.00000e+00	0.00000e+00	0.00000e+00	0.00000e+00	0.00000e+00	8.11284e+01	-1.20153e+02	-1.26350e+02	-1.81567e+02	-8.84902e+01	-8.40959e+01	-1.56561e+02	-1.62015e+02	-9.69263e+01	-8.38922e+01	-1.71055e+02	-1.71474e+02	-1.84436e+02	-1.76931e+02	-7.91405e+01	-1.49939e+02	
Factor	6.50912e-05	1.46992e-04	3.41674e-05	2.12455e-01	1.30598e-06	1.78741e-06	1.67938e-01	5.12696e-02	2.14687e-06	1.52923e-06	8.73862e-02	3.30830e-02	4.09064e-02	9.26272e-03	1.52222e-06	1.33558e-02	1.62652e-06	1.68806e-06	4.69002e-07	1.07451e-01	1.84094e-08	1.85136e-08	8.01808e-02	2.60849e-02	1.83594e-08	1.85120e-08	4.27707e-02	1.61030e-02	2.01847e-02	4.70032e-03	1.84195e-08	6.52597e-03	X	X	X	X	X	X	X	X	X	X	X	X	X	X	X	X	



#DISTANCE SETTINGS
A = Detector Channel
A-1	A-2	A-3	A-4	A-5	A-6	A-7	A-8	A-9	A-10	A-11	A-12	A-13	A-14	A-15	A-16	

2.5000e+00	3.0000e+00	2.5000e+00	3.0000e+00	2.0000e+00	3.0000e+00	1.5000e+00	3.0000e+00	3.0000e+00	3.0000e+00	3.0000e+00	3.0000e+00	3.0000e+00	3.0000e+00	1.5000e+00	3.0000e+00	

B = Detector Channel
B-1	B-2	B-3	B-4	B-5	B-6	B-7	B-8	B-9	B-10	B-11	B-12	B-13	B-14	B-15	B-16	

1.0000e+01	1.0000e+01	1.0000e+01	1.4400e+00	1.0000e+01	1.0000e+01	1.5100e+00	1.9400e+00	1.0000e+01	1.0000e+01	1.9900e+00	2.4900e+00	2.4100e+00	2.9000e+00	1.0000e+01	2.9800e+00	




#DATA BEGINS
time	group	step	mark	flag	A-AC1	A-AC2	A-AC3	A-AC4	A-AC5	A-AC6	A-AC7	A-AC8	A-AC9	A-AC10	A-AC11	A-AC12	A-AC13	A-AC14	A-AC15	A-AC16	A-DC1	A-DC2	A-DC3	A-DC4	A-DC5	A-DC6	A-DC7	A-DC8	A-DC9	A-DC10	A-DC11	A-DC12	A-DC13	A-DC14	A-DC15	A-DC16	A-Ph1	A-Ph2	A-Ph3	A-Ph4	A-Ph5	A-Ph6	A-Ph7	A-Ph8	A-Ph9	A-Ph10	A-Ph11	A-Ph12	A-Ph13	A-Ph14	A-Ph15	A-Ph16	B-AC1	B-AC2	B-AC3	B-AC4	B-AC5	B-AC6	B-AC7	B-AC8	B-AC9	B-AC10	B-AC11	B-AC12	B-AC13	B-AC14	B-AC15	B-AC16	B-DC1	B-DC2	B-DC3	B-DC4	B-DC5	B-DC6	B-DC7	B-DC8	B-DC9	B-DC10	B-DC11	B-DC12	B-DC13	B-DC14	B-DC15	B-DC16	B-Ph1	B-Ph2	B-Ph3	B-Ph4	B-Ph5	B-Ph6	B-Ph7	B-Ph8	B-Ph9	B-Ph10	B-Ph11	B-Ph12	B-Ph13	B-Ph14	B-Ph15	B-Ph16	aux-1	digaux	

1027.881	1	1	0	256	0.12532	0.34906	0.083233	0.077268	0.14747	0.31177	0.38553	0.19282	0.18327	0.037921	0.22618	0.15944	0.17041	0.25898	0.2331	0.091103	-2.0708	-2.8875	-2.9479	-2.7313	-3.0604	-2.9688	-2.8396	-3.1188	-2.5792	-2.9667	-2.9521	-2.6937	-3.0187	-2.7375	-2.6063	-3.1729	236.025	-75.765	175.443	121.968	179.080	97.703	-81.781	210.764	221.837	-5.886	164.466	234.603	-51.576	138.507	225.752	156.623	0.00040983	0.00066191	0.00015049	993.27	6.3442e-06	6.0056e-06	893.78	303.6	6.5404e-06	1.468e-05	412.02	156.18	112.69	43.295	6.8775e-06	67.803	0.0011066	0.0011444	0.00031829	968.25	1.2589e-05	1.2387e-05	869.03	296.01	1.1863e-05	1.224e-05	399.7	151.95	113.92	42.587	1.2087e-05	65.549	86.980	-32.833	-105.964	-95.129	-61.962	-10.083	-96.096	-88.666	6.366	-10.594	-90.948	-85.877	-84.047	-77.345	-8.539	-81.708	-8191	255	
1027.977	1	1	0	0	0.19872	0.050292	0.12675	0.33972	0.16528	0.14055	0.066529	0.12836	0.21842	0.19489	0.074242	0.25266	0.11248	0.25589	0.24827	0.098741	-2.2396	-2.8021	-2.9333	-2.7104	-3.1167	-2.9521	-2.7917	-3.1	-2.5229	-2.8667	-2.9375	-2.6729	-3.1104	-2.9562	-2.6437	-3.0917	-20.801	102.173	-67.113	243.551	248.295	-19.065	113.412	-105.165	-15.344	91.617	-104.738	245.046	219.403	115.854	-103.845	166.896	0.00091511	0.00063497	0.0002259	981.83	1.0485e-05	1.1726e-05	891.48	302.85	1.3425e-05	7.0503e-06	406.44	154.88	112.24	42.832	2.8406e-06	66.833	0.0010744	0.0011122	0.00031218	957.96	1.2136e-05	1.2153e-05	861.92	294.75	1.1706e-05	1.1964e-05	395.71	150.3	113.09	42.301	1.1707e-05	64.724	15.685	35.989	-36.519	-94.995	114.527	107.060	-96.335	-88.928	149.151	-47.023	-90.770	-85.917	-83.775	-77.404	148.469	-81.836	-8191	255	
1028.098	1	1	0	0	0.16266	0.090264	0.3538	0.24908	0.17257	0.11402	0.059232	0.20356	0.088559	0.086835	0.11159	0.23007	0.14526	0.10712	0.0079071	0.41194	-2.0938	-2.8604	-2.9604	-2.7167	-2.8937	-2.6958	-2.7917	-3.0292	-2.5896	-2.8292	-2.975	-2.7229	-2.9542	-2.8833	-2.7938	-3.1917	-5.083	199.071	96.938	169.768	54.229	192.128	211.426	135.502	64.472	249.356	-24.675	221.511	239.092	190.418	164.799	172.624	0.0014466	0.00090806	0.00026738	973.64	2.996e-06	1.2374e-05	886.43	304.34	6.3159e-06	7.8104e-06	406.19	155.53	112.32	43.09	4.7188e-06	66.371	0.0010576	0.0010784	0.00030832	950.15	1.1645e-05	1.1879e-05	863.72	294.23	1.1496e-05	1.1534e-05	394.99	150.14	112.6	42.129	1.1322e-05	64.587	45.397	46.953	-80.099	-94.975	209.570	-58.474	-96.071	-88.633	116.236	116.704	-90.693	-85.722	-83.935	-77.596	25.430	-81.616	-8191	255	
1028.194	1	1	0	0	0.13728	0.19659	0.050714	0.19686	0.10053	0.22917	0.1933	0.2069	0.076282	0.38843	0.065848	0.1754	0.053087	0.25886	0.21164	0.13016	-2.2771	-2.5625	-2.925	-2.6542	-2.8333	-2.8417	-2.7333	-3.0458	-2.5833	-2.8125	-3.2562	-2.6104	-2.825	-2.9646	-2.5333	-2.9229	58.053	-41.371	115.285	80.918	-33.361	-38.440	199.805	235.368	-21.441	51.901	-40.312	-88.597	-84.569	-102.025	122.238	108.718	0.0008636	0.00095944	0.00044577	974.8	6.0342e-06	1.2529e-05	894.93	302.86	2.164e-05	1.1772e-05	404.79	153.03	112.82	42.099	8.415e-06	65.847	0.0010333	0.0010529	0.0003015	948.32	1.1466e-05	1.1906e-05	869.61	294.05	1.1478e-05	1.1442e-05	395.3	149.21	112.57	41.879	1.15e-05	64.325	49.353	-21.908	37.440	-94.953	231.253	86.757	-96.160	-89.054	70.659	37.810	-91.138	-86.040	-84.584	-77.688	101.972	-81.896	-8191	255	
1028.290	1	1	0	0	0.11792	0.2696	0.14563	0.22546	0.066812	0.18673	0.23253	0.21396	0.17397	0.038405	0.40383	0.33518	0.19676	0.29353	0.10196	0.16998	-2.525	-2.7333	-2.9062	-2.7271	-2.7042	-2.8937	-2.5792	-3.125	-2.7354	-2.6854	-3.275	-2.7854	-2.7188	-2.9583	-2.6312	-3.0042	194.896	1.667	34.807	234.693	-33.474	-58.840	124.583	206.013	21.062	150.861	206.298	-100.608	-44.774	202.011	44.843	194.391	0.0011505	0.0019129	0.00018336	979	4.5418e-07	5.8232e-06	914.14	302.29	8.8544e-06	1.3775e-05	408.11	153.72	111.6	42.566	6.8377e-06	66.435	0.0010458	0.0010355	0.00030422	957.01	1.1468e-05	1.1948e-05	887.86	294.93	1.169e-05	1.154e-05	399.09	149.86	112.57	42.199	1.1364e-05	64.852	75.913	38.700	-92.061	-94.991	-33.052	39.629	-96.631	-88.703	-58.977	-37.597	-90.963	-86.080	-83.868	-77.788	-31.214	-81.756	-8191	255	
1028.386	1	1	0	0	0.077449	0.16245	0.1969	0.1205	0.23058	0.10213	0.052888	0.16287	0.28088	0.096278	0.065847	0.16973	0.29732	0.19624	0.040236	0.17426	-2.3063	-2.45	-2.9437	-2.75	-2.8375	-2.9646	-2.5917	-2.8896	-2.9583	-2.4625	-3.0812	-2.7938	-2.675	-3.1417	-2.7562	-3	-71.901	201.647	-37.890	-100.207	92.491	182.362	-63.155	248.983	160.370	-69.548	-39.256	183.795	-85.156	221.287	-62.824	-103.492	0.0012573	0.00054761	0.00012364	986.69	5.1892e-06	2.379e-06	923.08	308.2	6.4132e-06	1.0797e-05	416.2	156.62	112.9	43.234	8.1115e-06	67.2	0.001073	0.0010645	0.00030027	963.41	1.1534e-05	1.1971e-05	893.45	299.54	1.1755e-05	1.1311e-05	404.32	152.78	114.02	42.907	1.1252e-05	65.559	39.356	93.556	106.591	-95.425	30.251	-7.783	-96.121	-88.923	47.511	27.032	-91.177	-85.792	-84.328	-77.413	57.150	-81.831	-8191	255	
1028.505	1	1	0	0	0.11866	0.18089	0.011351	0.22476	0.062261	0.1679	0.13087	0.24975	0.059304	0.11409	0.25392	0.27135	0.14676	0.10151	0.080822	0.1721	-2.4021	-2.4542	-2.9	-2.7479	-2.6958	-3.175	-2.7667	-2.8187	-2.9292	-2.8104	-3.0687	-2.8833	-2.6437	-3.0625	-2.5896	-2.8958	-18.810	126.949	166.803	9.491	118.098	15.776	-92.581	-47.033	121.296	-105.018	138.353	192.168	-73.280	-78.994	249.496	-63.186	0.0011868	0.0015606	0.00020744	988.72	5.5154e-06	1.7866e-05	926.04	307.8	1.3238e-05	9.5117e-06	415.62	158	113.47	43.558	1.2924e-05	67.691	0.0010637	0.0010322	0.00029574	966.76	1.1333e-05	1.1806e-05	900.3	299.74	1.1742e-05	1.1207e-05	406.37	153.52	114.5	43.066	1.1259e-05	65.938	63.246	-11.059	17.539	-95.248	-49.788	51.721	-96.623	-89.185	211.091	-52.271	-90.943	-86.658	-84.293	-77.762	252.101	-81.919	-8191	255	
1028.577	1	1	0	0	0.13913	0.1158	0.13932	0.069753	0.28676	0.189	0.11473	0.17865	0.043444	0.15975	0.21304	0.22019	0.17826	0.16576	0.30078	0.21779	-2.4708	-2.6	-2.9479	-3.0208	-2.4938	-3.0021	-2.8042	-2.7938	-3.0687	-2.6688	-3.0917	-2.9979	-2.6375	-2.9854	-2.7521	-2.9354	108.821	107.043	-63.667	219.477	-9.900	-31.867	168.770	172.023	47.857	-27.161	144.411	205.942	227.618	239.586	237.511	126.185	0.0010298	0.00079291	0.0001544	994.93	1.2407e-05	1.3625e-06	931.37	311.27	2.2413e-05	9.958e-06	420.45	158.4	114.88	43.941	5.5571e-06	68.303	0.0010645	0.0010249	0.00028756	970.35	1.1272e-05	1.1711e-05	905.07	301.83	1.1769e-05	1.1263e-05	408.68	154.39	115.19	43.434	1.1456e-05	66.468	41.258	-49.033	170.694	-95.310	-5.762	144.827	-96.628	-88.883	8.004	35.776	-90.851	-85.725	-84.088	-77.769	-95.349	-82.029	-8191	255	
1028.673	1	1	0	0	0.39234	0.12816	0.16724	0.1834	0.017143	0.21287	0.12798	0.080738	0.26765	0.18582	0.18554	0.21804	0.26822	0.24573	0.22017	0.2308	-2.4979	-2.2938	-2.7208	-2.8458	-2.5542	-2.9458	-2.7167	-2.8	-3.0187	-2.7167	-3.0458	-2.9771	-2.5625	-2.9292	-2.7812	-2.7687	110.615	56.924	46.656	165.669	123.407	100.775	159.673	-41.553	0.786	-34.514	207.090	185.206	-33.696	175.751	152.972	-61.372	0.0013441	0.00040719	0.00018445	992.06	4.5619e-06	5.6502e-06	943.98	313.86	1.4033e-05	1.0994e-05	425.2	159.37	116.19	44.496	1.0042e-05	68.704	0.0010701	0.001033	0.00029348	971.86	1.1338e-05	1.1647e-05	918.32	304.89	1.1767e-05	1.1287e-05	412.75	155.59	116.46	43.786	1.161e-05	66.622	43.474	8.482	94.104	-95.484	-15.478	115.435	-96.021	-89.052	-40.835	-25.362	-90.963	-86.191	-84.717	-78.006	19.657	-82.242	-8191	255	
1028.769	1	1	0	0	0.21486	0.1961	0.084366	0.11458	0.27641	0.079941	0.07354	0.23894	0.19482	0.13388	0.14145	0.10433	0.19346	0.065724	0.15892	0.18181	-2.5771	-2.65	-2.9104	-3.0521	-2.525	-3.1729	-2.6833	-2.8979	-3.1792	-2.6458	-2.9292	-3.0792	-2.6562	-3.0542	-2.8333	-2.8729	161.076	-61.014	-32.743	165.493	157.785	80.876	124.468	198.586	-52.774	-4.769	157.801	-87.145	208.317	228.480	137.734	196.953	0.00040933	0.0012569	3.288e-05	997.01	8.3469e-06	3.911e-06	939.35	310.84	1.1791e-05	1.252e-05	420.64	158.24	115.42	44.143	9.8927e-06	68.268	0.0010756	0.0010435	0.00029078	969.75	1.1333e-05	1.1683e-05	911.95	302.21	1.1707e-05	1.1404e-05	409.53	154.77	115.91	43.433	1.1593e-05	66.087	23.697	5.211	93.075	-95.091	36.981	125.330	-96.320	-88.656	55.803	-17.983	-91.076	-86.295	-84.043	-77.981	164.621	-81.778	-8191	255	
1028.890	1	1	0	0	0.10146	0.14003	0.15731	0.092483	0.016624	0.14015	0.29921	0.11674	0.25886	0.020845	0.14343	0.30179	0.2586	0.16014	0.18665	0.10331	-2.6021	-2.6125	-2.8479	-2.8896	-2.7271	-3.1813	-2.9	-2.7833	-3.2375	-2.6396	-2.9458	-3.1354	-2.775	-3.1354	-2.7771	-2.7021	-18.365	142.349	159.885	86.596	-92.452	72.366	177.890	175.797	34.256	114.962	238.115	238.515	-97.436	125.394	22.419	-27.162	0.00012203	0.00080213	0.00024418	994.8	1.4305e-05	9.6534e-06	943.25	311.99	1.2044e-05	4.0624e-06	419.02	158.16	115.56	43.767	1.0323e-05	68.397	0.0010398	0.00105	0.00028893	970.74	1.1305e-05	1.1535e-05	912.31	301.58	1.1535e-05	1.1531e-05	407.57	154.14	115.35	43.18	1.1805e-05	66.17	-19.481	-5.502	250.146	-95.423	-57.974	26.946	-96.302	-88.899	159.706	-24.214	-90.746	-86.105	-83.921	-77.712	31.545	-81.977	-8191	255	
1028.986	1	1	0	0	0.156	0.080567	0.013303	0.13325	0.18764	0.10499	0.13279	0.27397	0.16822	0.11688	0.35083	0.072425	0.081664	0.11183	0.22759	0.088347	-2.6771	-2.8854	-2.7062	-3.1875	-2.8375	-2.9021	-3.0083	-2.7354	-2.8979	-2.6771	-2.7917	-2.9792	-2.525	-2.8146	-3.0396	-2.6479	238.011	198.749	-12.774	249.807	144.907	174.041	146.533	222.839	-39.828	-25.898	244.448	-99.990	249.751	-88.722	173.889	-89.788	0.00074031	0.00073526	2.5255e-05	993.8	1.9578e-06	6.3817e-06	954.01	315.79	1.7982e-05	1.2514e-05	427.25	160.95	116.61	44.652	3.6427e-06	69.289	0.0010523	0.0010511	0.00029387	974.47	1.1394e-05	1.1577e-05	924.21	306.19	1.1478e-05	1.1759e-05	414.21	156.8	116.97	44.032	1.2073e-05	67.208	37.828	-55.341	-55.299	-95.226	125.064	187.290	-96.621	-88.622	-24.918	253.057	-91.107	-86.018	-84.163	-77.286	106.080	-81.721	-8191	255	
1029.082	1	1	0	0	0.33133	0.23562	0.23043	0.32495	0.12554	0.20532	0.189	0.061239	0.25008	0.15712	0.26211	0.15509	0.092975	0.15372	0.18855	0.22418	-2.425	-2.8354	-2.7021	-3.0396	-2.5104	-2.925	-3.1896	-2.6646	-2.975	-2.8625	-2.6479	-2.8438	-2.7125	-2.8896	-2.9188	-2.7229	-90.180	246.276	170.982	198.497	53.938	72.595	223.870	-56.679	99.968	81.700	233.303	227.219	182.071	-102.742	129.942	251.179	0.0011153	0.00028411	0.00020224	1001.2	1.3439e-05	1.848e-05	957.31	317.55	9.0254e-06	4.8333e-06	429.33	163.92	118.59	45.617	3.8269e-06	70.839	0.0010689	0.0010823	0.00029828	980.37	1.1794e-05	1.1837e-05	929.87	307.15	1.1685e-05	1.2023e-05	419.35	158.75	118.37	44.603	1.2163e-05	68.25	75.601	-73.099	95.743	-95.137	30.865	76.018	-96.387	-88.849	0.961	75.218	-90.893	-86.357	-83.663	-77.552	78.338	-81.897	-8191	255	
1029.178	1	1	0	0	0.18624	0.2297	0.31161	0.095911	0.042289	0.24702	0.10653	0.25864	0.32348	0.21442	0.13412	0.22226	0.15381	0.11508	0.22084	0.30253	-2.5125	-2.9208	-2.4396	-3.2083	-2.7667	-2.6042	-3.1625	-2.8042	-2.7938	-2.9	-2.7625	-2.9542	-2.7875	-2.8396	-3.1292	-2.7729	43.470	108.688	-103.191	-104.935	214.140	81.199	211.657	225.620	180.220	221.655	70.217	179.957	201.969	170.428	70.452	207.113	0.00084853	0.00045248	0.00037097	1018.7	6.2841e-06	8.293e-06	967.58	322.06	9.4985e-06	1.9028e-05	434.47	165.69	119.65	45.648	8.307e-06	70.609	0.0010759	0.0011054	0.00029963	986.82	1.1821e-05	1.1755e-05	932.5	309.9	1.182e-05	1.2173e-05	419.11	159.33	118.94	44.694	1.2087e-05	68.194	65.185	125.368	-9.703	-95.071	133.755	117.009	-95.947	-88.075	121.376	40.634	-90.597	-85.759	-84.085	-77.323	-46.478	-81.469	-8191	255	
1029.274	1	1	0	0	0.12816	0.20278	0.059976	0.26388	0.13084	0.24119	0.023086	0.16233	0.093168	0.27574	0.26463	0.16995	0.14795	0.23374	0.085305	0.22045	-2.4938	-2.9146	-2.5167	-3.0167	-2.8125	-2.775	-3.1625	-2.6375	-3.0438	-3.0917	-2.6271	-2.9229	-2.9375	-2.8604	-2.9854	-2.7375	155.500	36.874	11.992	-42.027	48.673	-59.975	-27.257	197.642	-35.935	-6.664	200.129	67.836	29.510	74.219	157.589	241.125	0.00095993	0.00064911	0.00014349	1023.6	7.1103e-06	1.082e-05	971.42	322.73	2.4097e-06	6.5065e-06	436.24	166.68	119.7	46.109	3.3201e-06	70.81	0.0010696	0.0011176	0.00029966	988.9	1.2055e-05	1.1864e-05	933.56	310.97	1.1869e-05	1.2315e-05	419.98	159.67	119.66	44.805	1.2062e-05	68.2	32.629	118.687	-66.293	-94.835	-31.120	-27.411	-96.074	-88.424	124.183	137.373	-90.609	-85.956	-84.019	-77.593	19.301	-81.826	-8191	255	
1029.370	1	1	0	0	0.22706	0.047296	0.17992	0.20756	0.041043	0.1788	0.21393	0.15518	0.040947	0.34535	0.079252	0.14315	0.083783	0.20542	0.071537	0.19812	-2.3417	-2.9667	-2.5604	-3.0521	-2.7125	-2.4792	-3.1667	-2.7479	-2.7542	-2.9562	-2.6375	-2.9437	-2.9062	-2.6604	-2.9437	-2.7875	-90.280	243.529	195.903	243.227	6.814	-80.250	-104.582	242.422	223.212	-34.414	-25.415	250.200	75.996	169.375	178.510	-53.411	0.0009762	0.0016986	0.000242	1019.5	1.0971e-05	1.1325e-05	972.51	321.98	1.9807e-05	9.3939e-06	437.79	165.36	119.64	46.03	6.4867e-07	71.492	0.0010671	0.0011159	0.0003012	986.68	1.2144e-05	1.1801e-05	938.23	310.23	1.1654e-05	1.2261e-05	422.16	159.9	119.91	44.902	1.1936e-05	68.659	54.062	-82.666	-49.191	-94.739	66.866	76.579	-95.975	-88.444	159.709	17.415	-90.557	-86.104	-83.894	-77.566	123.030	-81.786	-8191	255	
1029.467	1	1	0	0	0.36112	0.10905	0.31323	0.028248	0.22355	0.067117	0.10172	0.18755	0.1085	0.038525	0.071534	0.24421	0.1395	0.022603	0.088921	0.23441	-2.2854	-2.8229	-2.5938	-3.0229	-3.0208	-2.5854	-3.1417	-2.6833	-2.7542	-2.9958	-2.6708	-2.8333	-3.0187	-2.6813	-2.9396	-2.8812	-10.809	-13.026	195.929	38.279	85.382	15.896	60.937	-62.055	199.539	185.753	194.066	166.939	237.515	61.827	109.881	235.902	0.00093188	0.0011154	0.00017418	1016.9	4.6292e-06	8.1145e-06	976.53	322.59	1.3224e-05	1.263e-05	436.78	166.16	119.63	45.888	9.8513e-06	70.83	0.0010719	0.0011182	0.00030128	986.13	1.2267e-05	1.1758e-05	940.17	310.29	1.1709e-05	1.2293e-05	422.17	160.01	119.65	44.656	1.1799e-05	68.492	47.115	188.805	-17.994	-94.923	-56.085	141.968	-96.254	-88.575	-35.823	92.719	-90.859	-86.041	-84.135	-77.260	9.396	-81.491	-8191	255	
1029.585	1	1	0	0	0.26735	0.051678	0.092695	0.18661	0.12885	0.08537	0.11936	0.35132	0.13862	0.40367	0.24507	0.2821	0.22152	0.15218	0.15905	0.088444	-2.2167	-3.0167	-2.5125	-2.9938	-2.8875	-2.5	-3.0104	-2.9625	-2.5354	-3.0854	-2.6833	-2.9771	-3.0354	-2.5583	-2.6896	-2.8208	54.969	215.298	5.177	134.532	249.400	220.152	123.315	175.772	155.266	3.438	165.112	218.972	252.738	-57.445	-51.410	179.518	0.00092364	0.00091799	0.00014517	1024.9	4.0478e-06	1.335e-05	973.36	320.66	1.0896e-05	7.484e-06	433.95	164.31	118.09	45.332	5.5984e-06	70.115	0.0010577	0.0011046	0.00029844	987.37	1.2064e-05	1.1673e-05	935.51	308.73	1.1551e-05	1.1884e-05	417.64	158.2	117.87	44.214	1.1611e-05	67.484	61.861	-16.249	228.739	-94.768	36.743	-65.833	-96.226	-88.674	25.172	31.027	-90.511	-85.741	-84.045	-77.647	-71.235	-81.709	-8191	255	
1029.682	1	1	0	0	0.13551	0.064065	0.21725	0.14968	0.2394	0.22774	0.20953	0.14517	0.118	0.27456	0.22501	0.32038	0.17628	0.14477	0.093422	0.097739	-2.0625	-2.9729	-2.4625	-2.925	-3.0604	-2.6083	-2.9708	-2.9625	-2.6562	-2.9396	-2.7625	-2.775	-3.0042	-2.6188	-2.7271	-2.9354	211.901	49.795	58.141	202.565	251.634	165.575	163.471	232.565	-86.353	171.165	20.533	199.500	-88.984	107.060	26.195	182.303	0.00061535	0.0013181	0.00016374	1008.4	7.2684e-06	1.4607e-06	966.23	319.21	1.749e-05	4.8074e-06	431.34	162.91	118.06	44.984	7.4875e-06	69.343	0.0010357	0.0010693	0.00029966	978.15	1.1886e-05	1.1609e-05	926.65	307.21	1.1349e-05	1.1615e-05	415.4	156.87	117.79	43.921	1.1515e-05	67.064	57.172	19.128	-70.298	-94.675	37.054	-34.890	-95.950	-88.908	-80.320	-87.829	-90.904	-85.946	-84.125	-77.285	108.750	-81.474	-8191	255	
1029.778	1	1	0	0	0.17975	0.16892	0.064053	0.26665	0.12725	0.14105	0.084399	0.11834	0.049211	0.18538	0.1938	0.11635	0.16898	0.19658	0.08899	0.17331	-2.0042	-2.975	-2.6312	-2.6271	-3.0646	-2.575	-2.9375	-2.9292	-2.4625	-2.9979	-2.8854	-2.7438	-3.0625	-2.7167	-2.8583	-3.0333	-33.603	42.216	25.674	226.069	-1.471	157.025	-64.602	126.866	250.845	-57.058	212.256	146.769	-91.097	-69.512	141.808	55.744	0.0014639	0.00023465	0.00011265	1018	1.8013e-06	8.4204e-06	965.54	317.02	6.8095e-06	1.8078e-05	432.03	163.82	118.67	45.311	5.5376e-06	70.36	0.0010218	0.0010607	0.0002959	978.14	1.1738e-05	1.1484e-05	925.7	306.1	1.14e-05	1.1509e-05	417.02	157.55	117.65	44.141	1.1529e-05	67.99	34.558	149.325	-101.999	-94.837	138.361	-0.789	-95.815	-88.509	-58.211	80.537	-90.811	-85.937	-83.726	-77.486	-41.786	-81.757	-8191	255	
1029.874	1	1	0	0	0.11668	0.26657	0.24624	0.11526	0.065329	0.26339	0.33669	0.34598	0.17623	0.16316	0.1486	0.19812	0.1184	0.18804	0.14197	0.18771	-1.9604	-2.8187	-2.7292	-2.7667	-3.0958	-2.6396	-2.8312	-2.95	-2.6042	-2.7542	-2.8458	-2.6271	-3.0896	-2.65	-2.65	-2.9396	-72.275	-67.912	162.751	232.723	168.120	-103.811	220.030	197.369	191.111	-97.326	244.126	19.486	25.397	172.237	103.189	194.228	0.0010347	0.00085267	0.00026147	1016.1	9.0632e-06	8.3573e-06	972.23	321.26	1.3944e-05	2.8263e-06	433.41	166	120.05	45.86	1.4782e-05	71.237	0.0010293	0.0010507	0.00030104	979.51	1.1814e-05	1.1774e-05	932.35	309.14	1.1504e-05	1.1701e-05	420.23	159.34	118.98	44.769	1.1715e-05	68.621	57.814	-11.590	16.403	-95.009	23.112	-9.917	-95.952	-88.325	-89.988	96.114	-90.847	-85.970	-84.017	-77.478	50.774	-81.500	-8191	255	
1029.970	1	1	0	0	0.17504	0.016057	0.14472	0.080872	0.22967	0.28839	0.14194	0.35625	0.21576	0.16214	0.10967	0.20456	0.26523	0.1435	0.17297	0.10544	-2.0563	-3.0167	-2.6625	-2.6729	-3.0271	-2.7083	-2.8604	-3.1854	-2.5604	-2.9146	-3.1333	-2.8187	-3.0917	-2.7333	-2.7188	-3.0292	158.020	14.286	163.675	-10.420	224.234	96.616	223.325	227.372	-86.437	-41.700	87.217	39.842	-91.611	45.817	-89.491	-98.316	0.00075716	0.00013716	0.00033486	1025.3	4.8773e-06	1.2569e-05	971.6	324.71	1.3717e-05	4.6827e-06	442.01	167.62	120.95	46.573	1.3665e-05	70.964	0.0010568	0.0010736	0.00031097	986.48	1.1796e-05	1.1914e-05	935.26	312.03	1.149e-05	1.1504e-05	425.04	160.98	119.83	45.114	1.1502e-05	68.522	50.858	-35.682	-43.742	-95.024	5.630	202.767	-96.032	-88.638	83.347	28.951	-91.018	-85.526	-84.222	-77.456	29.787	-81.764	-8191	255	
1030.066	1	1	0	0	0.22686	0.14739	0.11573	0.24479	0.30459	0.18059	0.14938	0.1021	0.14834	0.17457	0.22346	0.22179	0.20013	0.20506	0.1253	0.27045	-2.1688	-2.8083	-2.9313	-2.4771	-2.9083	-2.7958	-2.8417	-3.2667	-2.6125	-2.9188	-3.1229	-2.8354	-2.9417	-2.8438	-2.6063	-3.2125	-102.748	197.548	-81.413	237.881	-95.497	197.869	236.857	108.502	9.857	135.765	236.934	-97.037	219.126	-78.551	-86.926	-84.698	0.00028482	0.00077177	6.864e-05	1004.4	2.3076e-06	4.8363e-06	962.73	321.02	1.0788e-05	1.0387e-05	433.51	164.26	119.7	45.505	4.7487e-06	70.817	0.0010335	0.0010464	0.00030221	977.86	1.147e-05	1.1722e-05	929.33	308.87	1.1453e-05	1.1357e-05	420.16	158.66	119.08	44.659	1.1321e-05	68.523	76.963	85.538	69.053	-94.842	-42.154	69.810	-96.211	-89.145	-65.689	158.601	-91.072	-85.933	-84.540	-77.875	27.180	-82.079	-8191	255	
1030.187	1	1	0	0	0.14209	0.33368	0.25311	0.10634	0.10592	0.11023	0.23524	0.26788	0.17456	0.11463	0.10491	0.16966	0.28473	0.26781	0.072408	0.33892	-2.25	-2.6917	-2.9938	-2.5083	-2.8521	-2.9854	-2.8625	-3.0167	-2.7208	-2.7	-3.1646	-2.7188	-2.8458	-3.0542	-2.7104	-2.9938	1.341	151.615	221.373	203.312	55.863	141.192	142.653	237.703	12.400	200.408	214.830	-91.074	225.298	-80.944	118.171	196.466	0.0014896	0.00068946	0.00029044	1003	5.6701e-06	1.322e-05	962.47	318.23	4.8229e-06	1.18e-05	435.07	164.66	119.37	45.446	5.8047e-06	70.644	0.0010435	0.0010461	0.00029999	979.89	1.1422e-05	1.1919e-05	930.87	309.29	1.1661e-05	1.155e-05	420.83	159.63	119.16	44.869	1.152e-05	68.546	30.712	-47.360	90.885	-94.951	57.876	-35.917	-96.524	-88.710	238.164	52.982	-91.122	-86.294	-84.169	-78.152	30.792	-81.900	-8191	255	
1030.283	1	1	0	0	0.13946	0.21576	0.12879	0.16018	0.16573	0.19445	0.041512	0.29945	0.15267	0.13345	0.18147	0.09977	0.33142	0.055126	0.20469	0.35511	-2.2708	-2.5938	-2.8479	-2.7938	-2.8583	-2.8479	-2.7646	-2.9188	-2.9042	-2.5354	-3.0979	-2.6688	-2.8208	-3.1229	-2.5958	-3.0687	7.003	150.497	45.925	251.695	-70.503	161.633	171.516	189.931	-32.930	187.730	103.212	159.646	-26.517	152.176	-7.160	153.576	0.00080467	0.0011577	0.00011619	1020.5	4.5136e-06	7.4173e-06	970.74	324.95	1.2309e-05	5.4745e-06	440.34	167.18	121.99	46.45	1.2207e-05	72.669	0.0010801	0.0010571	0.00030189	989.64	1.157e-05	1.2151e-05	938.72	313.38	1.1935e-05	1.1731e-05	426.76	162.59	121.29	45.665	1.1653e-05	69.918	59.493	25.749	248.212	-94.760	209.392	-46.797	-96.464	-88.975	6.659	-32.553	-90.959	-86.344	-84.467	-77.936	31.075	-81.808	-8191	255	
1030.377	1	1	0	0	0.36284	0.1509	0.15539	0.18393	0.21328	0.1323	0.17432	0.27752	0.063525	0.1539	0.14711	0.204	0.18222	0.22285	0.072127	0.26725	-2.1208	-2.5187	-3.0146	-2.5667	-2.7958	-2.9958	-2.7583	-3.1688	-2.9271	-2.65	-3.0458	-2.8583	-2.6271	-3.1792	-2.5521	-2.9646	246.330	-49.321	218.556	216.750	-63.661	113.712	-102.013	181.245	132.586	22.222	-96.803	230.380	232.214	222.583	-89.445	154.093	0.001135	0.0011941	0.00013622	1024.5	6.205e-06	2.9697e-05	967.96	325.35	1.5056e-05	5.193e-06	441.56	168.67	121.82	47.273	6.8141e-06	72.404	0.0010989	0.0010754	0.00030664	992.94	1.1811e-05	1.2349e-05	939.33	315.42	1.224e-05	1.1727e-05	429.22	163.61	121.99	46.28	1.1763e-05	70.187	21.782	-49.435	-1.302	-95.273	-28.281	35.305	-96.408	-89.061	-65.724	26.968	-91.038	-86.422	-84.391	-77.979	64.251	-81.996	-8191	255	
1030.451	1	1	0	0	0.23728	0.15546	0.069069	0.03701	0.13447	0.12601	0.28164	0.26893	0.059245	0.17514	0.28782	0.12161	0.5076	0.13894	0.14174	0.014501	-2.4542	-2.7292	-2.8958	-2.9104	-2.7792	-3.1021	-2.8312	-3.0417	-2.8646	-2.6188	-3.1771	-2.7896	-2.6771	-3.0396	-2.6396	-2.9396	-96.612	173.109	11.649	83.273	-80.326	-20.007	-88.777	-94.985	252.649	99.417	224.085	-102.003	232.256	-34.788	-28.197	117.335	0.0011429	0.00019501	0.00013829	1009.3	7.7533e-06	5.8136e-06	967.2	325.17	9.9072e-06	8.6356e-06	439.56	167.7	121.25	46.675	2.333e-05	71.556	0.0010866	0.0010591	0.00030421	987.82	1.1647e-05	1.1966e-05	937.89	315.13	1.1855e-05	1.1701e-05	426.74	162.97	121.58	45.918	1.1428e-05	69.648	31.742	-94.356	1.629	-95.383	-31.834	-68.042	-96.342	-88.634	-36.670	23.425	-91.109	-86.415	-84.372	-78.031	68.417	-81.873	-8191	255	
1030.570	1	1	0	0	0.19553	0.23628	0.2623	0.18863	0.075847	0.14202	0.12076	0.15615	0.25516	0.17332	0.3849	0.10566	0.087879	0.43562	0.12434	0.10869	-2.5104	-2.6063	-2.9396	-2.8917	-2.6458	-3.075	-2.6437	-2.8312	-2.7979	-2.3937	-2.9917	-2.8792	-2.5479	-3.175	-2.6396	-2.7979	-90.397	56.598	-29.192	249.229	244.588	-96.704	207.224	-98.300	37.020	3.806	228.594	-81.400	205.662	-43.587	141.150	-104.915	0.0010029	0.00065705	8.5082e-05	1015.4	1.5187e-05	1.2285e-05	974.87	329.82	6.4077e-06	1.2968e-05	445.15	169.74	123.22	47.131	1.7559e-05	72.519	0.0010456	0.0010521	0.00029492	992.89	1.1547e-05	1.1735e-05	944.17	318.12	1.1428e-05	1.152e-05	431.85	164.2	122.56	46.244	1.1554e-05	70.231	50.553	-91.168	40.019	-95.385	54.499	92.807	-96.197	-88.900	142.962	65.625	-90.896	-86.590	-84.229	-78.042	-51.986	-82.198	-8191	255	
1030.666	1	1	0	0	0.066162	0.04076	0.12963	0.30856	0.14026	0.15877	0.24222	0.39042	0.040959	0.1227	0.19286	0.070638	0.22298	0.21611	0.34836	0.19485	-2.5896	-2.5062	-2.8729	-2.9313	-2.6063	-3.0021	-2.8542	-2.8229	-2.8167	-2.6104	-3.0208	-2.9938	-2.7042	-3.1958	-2.6208	-2.7062	26.234	162.005	235.717	-99.601	199.031	203.611	209.058	222.637	193.290	-49.799	58.968	226.289	-90.699	173.815	173.664	210.560	0.00094574	0.0012925	0.00027878	1022.4	3.142e-06	8.26e-06	978.49	327.61	1.2189e-05	4.4378e-06	445.02	171.48	122.47	47.632	3.6118e-06	73.18	0.0010537	0.001055	0.00029445	994.48	1.1498e-05	1.1681e-05	946.28	317.68	1.1794e-05	1.1575e-05	431.8	165.76	123.18	46.681	1.1589e-05	70.91	38.309	-11.339	31.905	-95.346	59.404	142.491	-96.529	-89.294	150.223	-34.792	-91.103	-86.453	-84.414	-78.284	-22.590	-81.956	-8191	255	
1030.762	1	1	0	0	0.13123	0.22267	0.12589	0.080095	0.066331	0.20356	0.40467	0.30211	0.13429	0.12098	0.33462	0.2027	0.14018	0.087352	0.13998	0.12557	-2.6875	-2.55	-2.8083	-2.8667	-2.5062	-2.8625	-2.8375	-2.8438	-3.0542	-2.675	-2.8333	-3.0646	-2.4813	-3.1375	-2.7729	-2.8146	40.027	-57.991	130.952	200.401	55.433	195.023	189.780	227.108	-30.763	1.398	185.333	-100.046	15.622	-49.695	182.711	-49.511	0.00071715	0.0010179	0.00023508	1016.2	6.1081e-06	1.7012e-05	982.11	329.08	1.3262e-05	1.062e-05	444.22	169.63	122.92	47.258	4.349e-06	73.039	0.0010702	0.0010653	0.00029854	995.26	1.1537e-05	1.1557e-05	950.03	318.23	1.1596e-05	1.1461e-05	430.97	164.75	122.67	46.402	1.1578e-05	70.34	70.318	-10.962	-40.700	-95.030	51.370	151.244	-96.490	-88.830	-55.000	84.777	-91.144	-86.414	-84.395	-77.737	-96.939	-82.132	-8191	255	
1030.858	1	1	0	0	0.32501	0.13333	0.075498	0.21029	0.093047	0.1708	0.18627	0.30688	0.10314	0.086711	0.34673	0.10176	0.11662	0.17825	0.1431	0.20258	-2.6667	-2.6937	-2.675	-2.9062	-2.4313	-2.9938	-3.1229	-2.7313	-3.0229	-2.6813	-2.8667	-3.1167	-2.6979	-2.8812	-2.9021	-2.7292	70.360	165.640	7.676	181.625	145.237	147.263	107.628	202.827	90.983	-88.852	-98.576	20.618	253.011	191.827	16.142	-91.624	0.00083218	0.00072917	0.00041748	1021.1	5.2214e-06	4.0872e-06	977.66	329.03	1.23e-05	1.4524e-05	444.71	170.07	122.43	47.523	4.126e-06	72.599	0.0010498	0.0010629	0.00029595	997.94	1.1403e-05	1.1474e-05	947.33	319.45	1.1569e-05	1.1624e-05	431.81	164.87	123	46.569	1.1588e-05	70.344	53.671	-83.510	60.071	-95.064	-20.070	204.824	-96.665	-88.804	63.773	35.559	-90.777	-86.247	-84.887	-78.384	-11.097	-82.177	-8191	255	
1030.979	1	1	0	0	0.13181	0.076642	0.16707	0.21369	0.071911	0.1493	0.11349	0.30599	0.034563	0.10788	0.22808	0.11479	0.17255	0.12784	0.12586	0.41432	-2.5875	-2.6125	-2.4479	-3.0687	-2.7021	-2.7	-2.8688	-2.7625	-2.9562	-2.7042	-2.9458	-3.0458	-2.5458	-2.9208	-2.9833	-2.95	-48.717	240.527	240.042	-99.698	24.893	-40.191	-61.468	181.631	-60.910	72.121	188.132	235.338	146.103	30.054	-34.581	207.577	0.0012559	0.0011813	0.00048222	1022	4.4587e-06	1.782e-05	976.69	328.68	6.2896e-06	1.0858e-05	444.23	170.18	124.07	47.682	7.5663e-06	73.048	0.0010385	0.0010548	0.00028932	995.54	1.1392e-05	1.1403e-05	944.22	318.37	1.1452e-05	1.1438e-05	431.22	165.25	123.38	46.694	1.1432e-05	70.677	43.590	-3.943	40.907	-95.285	-75.901	14.579	-96.338	-88.963	145.034	18.992	-90.928	-86.590	-83.944	-78.078	17.086	-82.031	-8191	255	
1031.050	1	1	0	0	0.2168	0.018109	0.14003	0.15791	0.11225	0.019723	0.2524	0.25113	0.12128	0.076211	0.24281	0.16236	0.20108	0.15598	0.17667	0.18594	-2.5292	-2.7896	-2.6396	-3.175	-2.6	-2.8958	-3.1437	-2.7479	-3.0979	-2.8104	-2.8458	-3.1562	-2.7271	-2.8833	-2.9479	-2.7	55.532	24.878	-34.586	-41.980	86.328	-90.142	-71.675	160.443	-97.503	168.662	194.206	-24.814	211.767	-78.986	-43.932	188.296	0.00091443	0.00096038	2.5678e-05	1020.6	1.3559e-05	9.1227e-06	974.91	328.42	7.9656e-06	1.0199e-05	444.18	170.05	123.06	47.209	5.5737e-06	72.67	0.0010174	0.00104	0.00028397	993.73	1.1195e-05	1.1079e-05	944.63	318.14	1.1227e-05	1.1436e-05	431	164.37	122.29	46.225	1.128e-05	70.238	93.819	-37.324	-50.676	-95.138	-6.059	-47.721	-96.376	-89.062	186.873	223.610	-91.093	-86.709	-84.285	-77.835	-34.693	-81.996	-8191	255	
1031.147	1	1	0	0	0.31492	0.070644	0.14436	0.16628	0.077977	0.14732	0.098946	0.2317	0.1385	0.25473	0.051787	0.14579	0.065873	0.12473	0.076521	0.19351	-2.6104	-2.8167	-2.5771	-3.1229	-2.8292	-2.8063	-3.2083	-2.6354	-3.0104	-2.9875	-2.7396	-3.1771	-2.8604	-2.7542	-3.05	-2.7292	108.591	210.240	5.448	-19.528	-37.391	92.583	225.762	188.025	-46.182	108.850	115.673	-92.871	26.542	252.871	-2.549	-30.851	0.00090682	0.00050838	0.00013135	1022.7	8.5496e-06	3.6288e-06	971.8	331.02	5.9251e-06	8.3957e-06	445.49	167.47	122.42	46.815	1.2903e-05	71.735	0.0010062	0.0010335	0.00027569	994.99	1.1051e-05	1.1072e-05	941.62	318.42	1.0915e-05	1.0973e-05	428.36	162.09	121.43	45.782	1.1082e-05	69.231	38.683	224.295	12.778	-95.196	194.131	161.817	-96.143	-89.030	-76.907	87.003	-91.259	-86.708	-84.681	-77.905	121.854	-82.006	-8191	255	
1031.267	1	1	0	0	0.2115	0.26911	0.094797	0.41072	0.06383	0.31309	0.11401	0.31352	0.17538	0.081487	0.04879	0.20567	0.06007	0.18587	0.045551	0.31659	-2.6188	-2.9125	-2.6562	-3.0563	-2.7875	-2.6688	-3.1875	-2.7729	-2.7792	-2.9417	-2.8104	-3.1188	-2.8354	-2.8063	-3.1479	-2.8021	249.983	-41.061	175.746	-77.137	119.660	-41.907	132.973	86.985	10.377	191.946	-104.257	191.179	105.952	-63.415	50.659	150.135	0.0010449	0.00038965	0.00019829	1008.2	7.7553e-06	1.183e-05	961.24	326.37	1.291e-05	4.91e-06	441.37	168.73	123.65	47.274	1.027e-05	72.351	0.00097791	0.0010217	0.00027475	983.66	1.0987e-05	1.0844e-05	932.06	316.29	1.0802e-05	1.1121e-05	426.03	162.66	122.04	45.954	1.1025e-05	69.593	32.466	-48.570	-27.562	-95.395	-13.786	80.398	-96.461	-89.049	8.953	28.497	-91.247	-86.452	-84.482	-78.119	109.169	-82.162	-8191	255	
1031.363	1	1	0	0	0.085397	0.12351	0.082234	0.16272	0.15737	0.05939	0.35909	0.14673	0.18842	0.17421	0.30109	0.16594	0.15116	0.15075	0.15451	0.1587	-2.3229	-2.9958	-2.5333	-3.0312	-2.8167	-2.775	-3.2875	-2.9229	-2.7771	-2.8229	-2.6813	-2.9688	-2.8521	-2.675	-3.0521	-2.7604	8.661	-13.006	-96.138	159.673	-19.314	191.163	202.328	120.904	162.914	-70.583	165.959	240.556	-4.171	155.151	206.462	76.986	0.0008828	0.00053915	0.00027898	1019.1	6.3574e-06	1.4884e-05	974.05	329.53	1.0282e-05	3.2636e-06	441.98	169.48	122.75	47.095	6.2783e-06	72.498	0.00098463	0.0010267	0.00027519	985.53	1.1027e-05	1.0932e-05	935.81	317.68	1.0858e-05	1.1146e-05	427.75	162.97	122.33	45.835	1.0975e-05	69.786	45.635	-5.451	22.049	-95.188	39.776	180.727	-96.792	-88.883	-80.623	54.234	-91.100	-86.298	-84.390	-77.753	11.335	-81.987	-8191	255	
1031.460	1	1	0	0	0.30429	0.19698	0.066613	0.4799	0.12603	0.30646	0.11242	0.232	0.10347	0.21771	0.10888	0.20696	0.089482	0.11917	0.19123	0.25345	-2.4896	-2.9021	-2.7125	-3.0354	-2.8458	-2.6188	-3.1229	-2.8937	-2.7229	-3.0292	-2.6063	-2.9688	-2.9062	-2.6208	-2.9479	-2.7646	6.328	251.623	-0.722	235.030	249.555	-67.886	-86.224	207.407	53.124	34.079	174.696	241.196	-9.264	210.581	73.858	194.092	0.0013729	0.00076857	0.00027125	1018.1	8.9209e-06	1.0148e-05	978.74	332.98	9.7492e-07	6.9663e-06	448.83	170.51	124.7	47.145	7.1472e-06	73.192	0.00098269	0.0010128	0.0002752	990.39	1.107e-05	1.0944e-05	939.75	319.63	1.0891e-05	1.1022e-05	429.24	163.52	122.44	45.956	1.1021e-05	70.059	19.145	37.028	-18.773	-95.115	221.011	147.550	-96.564	-88.811	66.856	101.941	-90.742	-86.067	-84.469	-77.963	-49.008	-81.856	-8191	255	
1031.578	1	1	0	0	0.079438	0.18362	0.19646	0.17135	0.25077	0.033674	0.18911	0.085409	0.11933	0.08633	0.22408	0.14895	0.15331	0.27253	0.24233	0.13636	-2.2583	-2.9125	-2.4917	-2.9458	-2.8958	-2.6042	-3.0292	-3.1312	-2.8354	-3.2188	-2.8417	-3.0375	-2.9062	-2.525	-2.975	-2.9458	-90.276	-42.087	129.904	-81.994	90.578	71.210	216.341	84.313	69.454	6.397	-104.371	-18.310	-100.983	-96.533	52.432	226.135	0.00066653	0.00083309	0.00025731	1022.4	1.0981e-05	1.2872e-05	972.54	329.75	1.9417e-05	6.1547e-06	445.45	168.93	123.68	46.747	1.2427e-05	72.386	0.00098612	0.0010101	0.00027689	988.89	1.1036e-05	1.0783e-05	937.37	318.38	1.0748e-05	1.0986e-05	428.24	162.67	122.13	45.655	1.0791e-05	69.378	18.410	36.389	109.748	-94.977	6.194	-26.089	-96.364	-88.881	82.903	32.167	-91.146	-86.156	-84.563	-78.004	-36.220	-81.779	-8191	255	
1031.675	1	1	0	0	0.02502	0.075699	0.060478	0.10174	0.11774	0.24351	0.19619	0.36444	0.16606	0.012076	0.043468	0.19032	0.13243	0.060241	0.021741	0.045165	-2.0375	-2.9708	-2.6229	-2.9625	-2.9854	-2.5812	-3.1188	-2.9271	-2.7188	-3.0729	-2.8563	-2.8	-3.1813	-2.4875	-2.9062	-2.9271	67.805	83.683	147.120	173.059	42.892	74.904	162.791	178.309	13.154	249.740	-45.381	152.594	-24.018	212.713	116.537	-19.910	0.0010175	0.0014715	4.1074e-05	1014.5	1.0763e-05	2.6252e-06	961.51	328.63	1.7209e-05	5.0756e-06	440.35	167.24	122.81	46.749	6.7653e-06	71.994	0.00098471	0.0010063	0.00027976	981.83	1.1075e-05	1.0944e-05	926.51	316.41	1.075e-05	1.1079e-05	424.33	161.02	121.44	45.656	1.0981e-05	69.326	53.462	2.384	-41.950	-94.844	16.207	187.484	-96.428	-88.594	-57.469	87.666	-91.189	-86.077	-84.574	-78.136	26.313	-81.730	-8191	255	
1031.746	1	1	0	0	0.068108	0.14817	0.19797	0.093141	0.20381	0.076729	0.11451	0.34995	0.17513	0.23311	0.14366	0.12102	0.073216	0.10966	0.10853	0.094522	-2.1771	-3.0771	-2.5083	-2.8333	-3.075	-2.6188	-3.0187	-3.0104	-2.6208	-3.0104	-2.8458	-2.7833	-3.0604	-2.6667	-2.8396	-2.9	-76.013	34.348	73.890	77.014	-90.627	58.469	127.069	180.570	6.065	61.042	-46.712	-9.559	121.611	-10.543	65.292	-79.213	0.00054448	0.0010986	0.00030846	1018.9	1.0056e-05	8.2258e-06	968.55	330.65	5.4218e-06	1.2053e-05	444.2	167.81	123.3	47.094	6.9937e-06	72.054	0.00099586	0.0010093	0.00028246	985.25	1.1041e-05	1.1e-05	935.6	318.01	1.1006e-05	1.1143e-05	428.61	162.66	121.97	45.869	1.1038e-05	69.683	82.355	-4.384	-78.923	-94.946	43.457	68.850	-96.067	-88.837	69.475	4.508	-90.787	-86.130	-84.450	-78.009	224.545	-81.941	-8191	255	
1031.867	1	1	0	0	0.20679	0.21018	0.15568	0.054544	0.074449	0.15523	0.17213	0.31795	0.25633	0.12868	0.03031	0.19704	0.13393	0.074828	0.17524	0.30901	-1.9604	-3.05	-2.7188	-2.7271	-2.9083	-2.7229	-2.95	-3.0042	-2.5187	-2.9646	-2.6917	-2.825	-3.2229	-2.8438	-2.9167	-3.0896	4.665	-53.552	90.122	161.548	-75.804	4.312	-88.063	237.824	198.308	249.197	137.895	231.908	-43.021	249.720	120.775	172.635	0.0012086	0.00015387	8.84e-05	1016.6	8.8464e-06	1.1364e-05	975	332.84	2.6171e-05	1.1285e-05	444.7	169.36	122.7	47.192	6.1444e-06	72.548	0.0010088	0.0010144	0.00028527	984.85	1.1106e-05	1.1129e-05	935.45	318.97	1.1002e-05	1.1123e-05	429.39	163.04	122.1	46.082	1.0904e-05	69.987	52.718	108.478	110.336	-95.333	57.443	94.632	-96.313	-89.033	-7.476	47.409	-91.074	-86.254	-84.232	-77.838	-28.938	-82.220	-8191	255	
1031.963	1	1	0	0	0.10965	0.23406	0.05707	0.1485	0.22113	0.072693	0.04806	0.17095	0.16566	0.027419	0.037729	0.12034	0.11658	0.16801	0.20965	0.25737	-2.1771	-2.8604	-2.8604	-2.6042	-2.9333	-2.7292	-2.85	-3.225	-2.6	-2.9708	-3.0625	-2.7771	-3.0229	-2.7271	-2.6958	-3.1875	-50.188	98.101	-51.260	171.767	204.621	96.267	251.404	215.092	-34.831	54.230	102.851	243.303	112.040	179.342	-21.822	226.273	0.0010519	0.0009842	9.7781e-05	1023.9	6.4053e-06	1.167e-05	967.49	330.34	1.3095e-05	7.1351e-06	441.38	168.08	122.14	46.681	1.0652e-05	71.49	0.00099598	0.00099918	0.00028107	989.6	1.0971e-05	1.1041e-05	936.33	318.07	1.0833e-05	1.0866e-05	426.6	161.73	121.27	45.552	1.0719e-05	68.853	55.155	54.165	96.406	-95.102	-5.687	2.183	-96.382	-88.556	91.425	115.680	-90.938	-86.233	-84.203	-77.826	1.830	-81.806	-8191	255	
1032.059	1	1	0	0	0.14482	0.089664	0.23385	0.093309	0.097037	0.040283	0.19432	0.14048	0.45424	0.25471	0.35204	0.34548	0.090624	0.10539	0.35816	0.19995	-2.1833	-2.6312	-3.1833	-2.4688	-3.0458	-2.7729	-2.7229	-3.1625	-2.6542	-2.8646	-3.0687	-2.6437	-3.1333	-2.7792	-2.4604	-3.2583	193.371	-95.005	-52.195	247.812	170.610	248.803	198.383	200.720	-65.201	-105.787	-100.346	215.235	28.116	-77.969	119.924	132.749	0.0015045	0.0007181	0.00017642	1007	1.2623e-05	1.5534e-05	966.29	326.74	1.3588e-05	6.2066e-06	438.55	167.03	121.97	46.489	1.0683e-05	71.482	0.00097324	0.00098541	0.00027615	977.83	1.0663e-05	1.1016e-05	926.92	315.16	1.0747e-05	1.0758e-05	422.06	160.22	120.5	45.272	1.0727e-05	68.409	19.837	-87.820	-10.537	-95.297	21.352	62.353	-95.842	-88.679	-61.534	25.262	-91.170	-86.047	-84.075	-77.620	-17.547	-81.763	-8191	255	
1032.155	1	1	0	0	0.18118	0.10568	0.2028	0.17447	0.18059	0.22379	0.08664	0.21678	0.25864	0.30204	0.13958	0.23976	0.17105	0.10008	0.30331	0.1735	-2.1958	-2.6813	-2.8229	-2.4771	-2.8937	-2.9271	-2.8167	-3.1292	-2.7521	-2.8208	-3.0438	-2.6437	-3.0729	-3.0208	-2.6521	-3.3729	251.601	108.135	241.517	-82.120	187.949	227.623	249.829	242.122	9.109	63.111	206.070	206.854	205.203	181.565	247.189	124.304	0.0010289	0.0016114	0.00042821	1006.7	2.5134e-06	1.1385e-05	960.82	329.01	4.2547e-06	5.0217e-06	443.76	168.38	122.2	47.314	5.5491e-06	72.493	0.00097691	0.00098638	0.00027635	974.82	1.0725e-05	1.0876e-05	924.36	316.42	1.0845e-05	1.0772e-05	425.74	161.59	121.28	45.981	1.0728e-05	69.56	63.243	-33.970	101.637	-94.992	34.496	-24.154	-96.320	-88.784	214.994	60.316	-90.644	-86.006	-84.258	-77.950	-86.455	-81.908	-8191	255	
1032.274	1	1	0	0	0.083475	0.20526	0.154	0.31891	0.095487	0.12883	0.27412	0.17911	0.24918	0.19763	0.13972	0.031469	0.034026	0.22245	0.29042	0.062894	-2.2854	-2.8812	-3.0583	-2.8958	-2.8167	-3.1	-2.7	-3.075	-2.8563	-2.7667	-3.3063	-2.5917	-2.9542	-2.9896	-2.4979	-3.1375	-66.369	21.285	-87.966	211.028	152.874	-5.744	194.092	167.594	-12.279	12.218	246.917	200.257	28.549	-79.960	221.098	76.344	0.00086103	0.00094735	7.283e-05	1015.5	9.5861e-06	8.1909e-06	964.62	332.22	9.2953e-06	5.1001e-07	444	170.29	123.87	47.26	1.2627e-05	72.287	0.00099179	0.0010043	0.00027864	982.95	1.0832e-05	1.1025e-05	929.57	317.86	1.0958e-05	1.0828e-05	426.57	162.39	121.83	45.9	1.085e-05	69.769	59.696	39.868	0.568	-95.009	130.037	40.927	-96.359	-88.833	244.570	-90.199	-91.217	-85.901	-84.424	-77.940	-29.747	-81.962	-8191	255	
1032.348	1	1	0	0	0.20929	0.15912	0.056097	0.0286	0.37093	0.24353	0.013775	0.12186	0.061361	0.20614	0.076057	0.24161	0.14093	0.3334	0.14994	0.26991	-2.475	-2.7896	-3.0938	-2.9021	-2.9667	-3.1208	-2.7854	-3.1146	-2.9104	-2.7083	-3.1396	-2.8333	-2.7604	-3.0187	-2.6312	-3.0187	6.273	147.787	113.009	215.571	-95.890	199.410	191.201	208.181	77.425	184.863	89.714	223.033	-29.001	-99.948	210.032	132.396	0.00088406	0.00068196	0.00028157	1015.2	8.0279e-06	9.0934e-06	976.61	330.23	1.1855e-05	5.421e-06	443.69	168.23	122.43	46.762	7.2584e-06	71.611	0.00099046	0.00099279	0.00027562	985.52	1.0871e-05	1.1081e-05	934.89	318.06	1.094e-05	1.0784e-05	426.44	161.77	121.19	45.595	1.0796e-05	68.939	32.790	-44.446	57.244	-95.171	-31.272	4.553	-95.942	-88.758	196.432	-46.880	-90.963	-86.215	-84.333	-77.914	-88.277	-82.096	-8191	255	
1032.444	1	1	0	0	0.059279	0.27186	0.25053	0.14873	0.11806	0.16733	0.15238	0.3287	0.1882	0.1177	0.30612	0.22527	0.13835	0.082074	0.18457	0.08098	-2.4646	-2.5542	-2.9208	-2.8854	-2.9542	-3.1708	-2.7521	-2.9896	-2.9375	-2.8542	-3.1229	-2.9125	-2.8875	-3.3167	-2.5521	-3.1125	14.088	-18.231	130.768	155.230	107.140	154.550	-50.695	-51.805	-64.702	6.526	151.513	204.274	-65.051	-64.486	-94.699	222.785	0.0010133	0.00063989	3.5994e-05	1015.5	1.1062e-05	5.1964e-06	964.79	330.79	1.1466e-05	7.1078e-06	445.52	168.38	124.79	47.491	1.402e-05	72.578	0.00099404	0.00099102	0.00027411	980.2	1.0784e-05	1.1089e-05	928.04	316.81	1.091e-05	1.0889e-05	427.16	162.1	122.42	46.224	1.0886e-05	69.599	41.055	72.712	-83.963	-95.109	10.824	201.798	-96.104	-88.744	123.253	18.793	-90.810	-86.081	-84.167	-78.208	-11.776	-81.964	-8191	255	
1032.540	1	1	0	0	0.029202	0.22202	0.10601	0.081657	0.079011	0.23153	0.19529	0.01798	0.067543	0.33411	0.12227	0.20927	0.25082	0.14709	0.12886	0.19056	-2.5563	-2.2833	-2.925	-2.9021	-2.7229	-3.0687	-2.9062	-2.9062	-3.0917	-2.6188	-3.1	-2.8937	-2.6083	-3.1125	-2.7146	-2.8917	1.968	245.861	-42.702	50.124	-71.083	114.083	161.298	189.489	234.304	209.961	181.128	211.743	-101.185	40.928	78.558	-69.011	0.0011533	0.0018832	0.00023642	1017.4	5.0353e-06	3.9772e-06	973.9	331.76	1.0891e-05	3.8373e-06	448.09	170.29	124.21	47.891	1.0462e-05	72.978	0.0010187	0.0010064	0.00028188	985.88	1.104e-05	1.1083e-05	935.11	318.53	1.1164e-05	1.1101e-05	430.32	163.87	122.95	46.487	1.1182e-05	70.102	61.326	11.145	-102.530	-94.992	3.385	34.094	-96.170	-88.868	-26.098	46.397	-90.907	-86.085	-84.520	-77.819	134.377	-81.927	-8191	255	
1032.659	1	1	0	0	0.10858	0.20823	0.29826	0.22929	0.042277	0.16634	0.099546	0.32292	0.18952	0.14253	0.27579	0.078734	0.15775	0.28598	0.15229	0.18593	-2.6708	-2.5396	-2.9208	-2.7687	-2.5438	-3.0438	-2.8521	-2.9396	-2.9854	-2.6063	-3.0604	-2.8688	-2.6958	-3.175	-2.8021	-2.9542	-58.887	-79.475	23.305	231.184	136.577	139.140	215.551	225.276	62.506	-79.368	216.434	241.216	-86.043	234.255	101.215	250.340	0.0014248	0.0018325	0.00013442	1018.7	5.1031e-06	7.0881e-06	984.56	334.21	6.7283e-06	1.4064e-05	446.7	168.55	124.48	47.331	7.9648e-06	72.279	0.0010094	0.0010174	0.00028394	988.61	1.113e-05	1.1183e-05	942.89	320.38	1.124e-05	1.1165e-05	429.86	163.08	122.61	46.085	1.1187e-05	69.842	36.726	0.046	-46.046	-94.928	241.565	48.712	-96.334	-88.951	-53.719	2.611	-90.869	-86.187	-84.268	-78.058	42.329	-82.161	-8191	255	
1032.755	1	1	0	0	0.16081	0.10257	0.36794	0.19734	0.080107	0.12826	0.16575	0.14605	0.20886	0.30126	0.22097	0.06053	0.20834	0.10049	0.24203	0.20918	-2.6021	-2.5354	-2.8521	-3.0604	-2.5104	-2.8896	-3.1021	-2.8396	-3.1688	-2.6312	-3	-3	-2.7062	-3.1854	-2.8896	-2.8458	-42.044	179.154	173.674	227.780	-86.532	195.623	35.853	195.609	-73.385	178.037	137.143	28.884	215.145	17.546	-25.805	162.122	0.0012332	0.0011414	0.00016846	1014.3	1.0757e-05	1.6596e-05	974.3	329.95	2.4246e-05	5.5916e-06	444.88	169.87	123.2	47.436	7.7837e-06	72.227	0.0010117	0.0010191	0.0002827	986.23	1.1078e-05	1.1105e-05	938.36	318.09	1.113e-05	1.1123e-05	429.44	163.32	122.29	46.322	1.118e-05	69.661	53.067	15.869	155.019	-95.155	117.178	0.006	-96.187	-88.756	-49.933	-31.971	-90.819	-86.343	-84.414	-77.903	17.007	-81.626	-8191	255	
1032.851	1	1	0	0	0.060946	0.070167	0.21228	0.18211	0.071074	0.2432	0.067033	0.069068	0.30901	0.0077041	0.27429	0.10783	0.15626	0.32838	0.17064	0.17915	-2.7417	-2.6583	-2.9062	-3.125	-2.5625	-2.9083	-2.8771	-2.9229	-3.0542	-2.7313	-2.9542	-3.1125	-2.8187	-3.0458	-2.6854	-2.7958	116.672	-99.329	-60.215	92.635	66.315	-100.891	114.606	80.811	-26.993	113.721	194.817	-94.071	218.356	235.386	-81.556	-69.057	0.0009586	0.00066284	0.00033941	1013.6	7.7026e-06	1.0128e-05	961.28	329.12	9.8612e-06	1.7306e-06	444.98	168.71	123.3	47.08	1.4226e-05	72.296	0.0010208	0.0010178	0.00028479	985.18	1.1077e-05	1.1265e-05	932.2	317.65	1.1189e-05	1.1264e-05	427.46	162.7	122.53	46.105	1.1373e-05	69.513	19.814	242.293	59.512	-95.258	30.208	-48.015	-96.110	-89.056	2.888	87.926	-91.141	-86.430	-84.471	-77.850	48.995	-81.939	-8191	255	
1032.947	1	1	0	0	0.20906	0.10345	0.17421	0.2684	0.18874	0.16173	0.18191	0.22611	0.18577	0.18017	0.045613	0.15486	0.073659	0.24787	0.14185	0.11996	-2.5167	-2.65	-2.6458	-3.1063	-2.6896	-3.0563	-2.7083	-2.6458	-3.0771	-2.6417	-2.9146	-3.0187	-2.5938	-2.9708	-2.9125	-2.6625	-42.597	46.964	156.855	193.449	241.284	34.474	230.429	149.180	69.372	153.034	-88.909	176.485	176.833	242.602	221.353	-81.955	0.0011904	0.0010278	8.1039e-05	1016	4.7842e-06	4.9416e-06	971.46	330.47	1.4171e-05	1.0082e-05	440.98	169.18	124.08	47.2	9.0103e-06	72.23	0.001038	0.0010214	0.0002852	986.09	1.1315e-05	1.1292e-05	939.1	319.2	1.1115e-05	1.1318e-05	428.25	162.95	122.43	46.151	1.1306e-05	69.817	64.853	-53.512	-43.665	-95.354	-43.528	76.386	-96.397	-88.788	4.620	87.129	-91.417	-86.406	-84.552	-78.050	33.726	-82.010	-8191	255	
1033.043	1	1	0	0	0.028251	0.081001	0.15979	0.10856	0.10967	0.039205	0.17367	0.39711	0.22336	0.052979	0.050538	0.18683	0.26246	0.17685	0.17924	0.12452	-2.7458	-2.7146	-2.7208	-3.0771	-2.7521	-2.9083	-3.1042	-2.6188	-2.9771	-2.7854	-2.9917	-3.0875	-2.8396	-2.8229	-2.9562	-2.8417	49.930	101.586	180.285	205.031	-98.868	179.373	93.646	223.058	101.420	-16.681	-44.864	191.386	217.455	-30.123	-41.640	141.308	0.00064434	0.0017788	0.00043396	1019.9	4.7724e-06	2.0931e-05	982.62	333.48	3.378e-06	9.8471e-06	450.18	170.79	124.64	47.91	4.7636e-06	73.433	0.0010155	0.0010337	0.00028746	988.97	1.131e-05	1.1425e-05	943.49	320.5	1.125e-05	1.14e-05	433.14	165.28	123.89	46.799	1.1416e-05	70.83	77.362	-24.925	29.070	-95.237	35.323	241.413	-96.317	-88.914	15.406	-8.438	-91.241	-86.513	-84.640	-78.053	-64.589	-81.885	-8191	255	
1033.140	1	1	0	0	0.30129	0.16223	0.18925	0.21324	0.19017	0.084533	0.20255	0.1104	0.11672	0.14102	0.24917	0.30482	0.13208	0.35468	0.26452	0.12333	-2.5604	-2.6792	-2.7104	-3.1292	-2.5938	-2.8396	-3.075	-2.6333	-2.8646	-2.95	-2.8271	-3.2021	-2.5292	-2.8542	-2.9854	-2.6958	146.760	160.774	60.412	207.640	-64.311	103.320	-47.733	161.977	-104.757	213.111	242.822	227.792	140.723	-86.722	80.914	76.275	0.00084328	0.00077092	0.00029295	1027.8	5.5079e-06	8.3685e-06	987.29	333.81	8.6009e-06	1.0949e-05	449.72	169.93	124.68	47.719	5.4396e-06	72.698	0.0010268	0.0010485	0.00028798	996.59	1.1423e-05	1.1428e-05	953.5	322.23	1.1306e-05	1.1404e-05	433.29	164.79	123.57	46.575	1.1311e-05	70.307	57.024	37.100	-47.869	-94.922	54.161	20.972	-96.148	-89.044	73.216	-12.855	-90.996	-86.298	-84.724	-77.896	36.785	-82.112	-8191	255	
1033.260	1	1	0	0	0.039114	0.16775	0.2113	0.23418	0.27066	0.32916	0.11479	0.063778	0.14701	0.21902	0.11834	0.13637	0.19989	0.26352	0.20248	0.22688	-2.3375	-2.9229	-2.6229	-3.1562	-2.825	-2.8104	-3.2188	-2.8667	-2.8292	-2.8271	-2.7333	-3.1229	-2.9229	-2.7396	-3.0458	-2.7208	67.773	191.461	153.231	226.182	101.868	-100.358	195.912	-44.875	96.411	26.724	125.900	196.635	16.335	213.389	6.877	197.679	0.001817	0.00053078	0.00017674	1019.8	8.1084e-06	1.6274e-05	981.53	335.38	6.7464e-06	4.7622e-06	446.45	170.14	124.91	47.957	9.4582e-06	72.426	0.0010257	0.0010469	0.00028752	992.72	1.1376e-05	1.129e-05	944.68	321.88	1.1167e-05	1.1568e-05	430.67	163.65	123.49	46.57	1.1264e-05	69.755	42.099	-22.542	6.116	-95.214	119.701	56.831	-96.372	-88.702	64.113	51.326	-91.259	-86.397	-84.315	-78.001	240.172	-82.114	-8191	255	
1033.356	1	1	0	0	0.18934	0.11018	0.33181	0.1377	0.081787	0.205	0.12292	0.13437	0.20396	0.23172	0.082142	0.11112	0.15415	0.11611	0.083353	0.20364	-2.5917	-2.7042	-2.6229	-2.9688	-2.9458	-2.7188	-3.0708	-2.8438	-2.7854	-3.1042	-2.7146	-3.2771	-2.9437	-2.8083	-3.1479	-2.9062	35.635	125.860	208.638	186.896	223.093	161.295	-87.935	140.271	206.905	116.314	59.031	-33.102	154.560	-28.039	221.793	204.608	0.0011318	0.0003645	0.0001548	1021.1	1.0978e-05	6.2151e-06	979.19	331.8	1.3265e-05	8.3379e-06	445.49	170.12	122.96	47.351	1.3599e-05	72.91	0.0010144	0.0010455	0.00028944	987.67	1.1361e-05	1.1192e-05	941.62	320.21	1.1199e-05	1.1332e-05	430.13	163.32	123.04	46.404	1.1178e-05	69.944	39.102	21.716	-23.765	-95.330	29.994	28.856	-96.493	-88.881	-19.934	15.804	-91.117	-85.892	-84.529	-77.917	90.674	-81.900	-8191	255	
1033.451	1	1	0	0	0.2621	0.03207	0.12322	0.13046	0.1522	0.17197	0.039956	0.30065	0.13417	0.1232	0.47028	0.26742	0.20212	0.12282	0.14486	0.17062	-2.2667	-2.9396	-2.5917	-3.0625	-2.725	-2.7125	-3.2062	-2.5896	-2.7979	-3.0042	-2.7458	-3.1333	-2.9917	-2.7062	-2.9667	-2.7646	15.279	8.130	46.092	142.855	57.943	-77.957	128.833	196.053	246.906	225.167	237.371	-8.516	168.315	12.741	43.709	174.706	0.00066225	0.0013873	0.0001722	1024.2	2.9181e-06	8.4296e-06	976.27	332.99	1.4389e-05	5.6539e-06	446.7	169.69	123.92	47.599	3.1848e-06	72.523	0.0010088	0.0010468	0.00028676	989.53	1.1335e-05	1.1266e-05	942.4	320.56	1.1179e-05	1.1405e-05	430.85	163.77	123.1	46.451	1.1157e-05	70.224	33.422	-79.279	-29.834	-95.480	3.442	210.415	-96.142	-88.744	-61.603	-39.376	-90.931	-86.494	-84.092	-77.839	88.342	-82.183	-8191	255	
1033.547	1	1	0	0	0.19829	0.097552	0.1231	0.081783	0.15983	0.2278	0.23339	0.18006	0.13638	0.087864	0.23994	0.17101	0.13315	0.14099	0.26212	0.19171	-2.5042	-3.0333	-2.7125	-2.9521	-2.7271	-2.5292	-3.2271	-2.9771	-2.5563	-2.9958	-2.6792	-3.1771	-3.0438	-2.5312	-2.8708	-2.8063	79.382	130.138	112.407	60.076	31.256	155.664	143.248	171.578	173.203	39.581	213.502	-61.237	238.370	236.007	-9.420	191.783	0.00096046	0.00020889	0.00028806	1026.1	7.2096e-06	1.9832e-05	987.55	333.79	2.0032e-05	1.4297e-05	447.54	170.16	124.22	47.772	2.1211e-06	72.485	0.0010217	0.0010409	0.00028722	996.33	1.1318e-05	1.134e-05	948.16	321.6	1.1276e-05	1.1424e-05	432.49	164.26	123.7	46.818	1.1175e-05	70.294	41.870	75.576	4.518	-94.792	-3.152	19.417	-96.245	-88.921	81.874	-24.030	-90.880	-86.169	-84.060	-78.031	175.389	-82.015	-8191	255	
1033.643	1	1	0	0	0.12173	0.12583	0.040795	0.15737	0.18893	0.15707	0.15765	0.20085	0.16983	0.20261	0.1589	0.32708	0.17784	0.027185	0.23604	0.15669	-2.2229	-2.9771	-2.5729	-2.8438	-2.8708	-2.6	-3.0708	-3.0271	-2.5687	-3.0521	-2.9854	-2.7333	-2.9521	-2.7771	-2.9917	-2.9667	-34.393	41.861	-46.425	204.083	0.652	186.276	-99.468	142.361	105.323	-36.256	-88.257	186.420	-29.475	-69.492	21.706	68.844	0.00075441	0.00083473	0.0001193	1018.6	3.3462e-06	3.5401e-06	971.42	335.05	9.424e-06	2.9185e-06	446.24	170.85	125.16	48.468	9.9334e-06	73.161	0.0010303	0.0010392	0.00028556	990.81	1.1345e-05	1.1431e-05	942.63	323.23	1.1377e-05	1.1467e-05	433.68	165.43	124.86	47.297	1.1445e-05	70.732	44.746	202.655	92.914	-94.993	-24.089	37.089	-96.440	-89.029	223.537	-68.389	-91.152	-86.656	-84.458	-78.050	4.566	-82.098	-8191	255	
1033.739	1	1	0	0	0.14197	0.13668	0.088553	0.17878	0.097622	0.085349	0.087013	0.20152	0.068339	0.052001	0.14277	0.30668	0.05141	0.26114	0.07407	0.18538	-2.3375	-2.9979	-2.55	-2.7896	-2.9104	-2.4542	-3.0792	-2.9854	-2.5438	-2.9646	-2.6583	-2.7271	-2.9583	-2.6083	-2.7646	-2.8583	21.058	-100.402	100.462	-105.070	83.169	133.007	156.931	253.330	220.672	250.538	219.966	222.852	51.459	-88.279	21.012	-21.959	0.0010041	0.00069086	0.00022338	1024.6	4.3809e-06	6.2585e-06	980.16	335.79	9.7915e-06	3.2469e-06	451.39	171.49	125.71	48.462	3.5909e-06	73.68	0.0010434	0.0010485	0.00029132	994.37	1.1506e-05	1.1473e-05	946.51	323.8	1.1298e-05	1.1326e-05	435.03	165.66	124.88	47.298	1.1241e-05	70.968	63.516	-102.627	-53.402	-94.563	5.779	-15.498	-96.027	-88.591	-97.343	-0.335	-91.276	-86.113	-84.486	-78.017	-1.996	-82.190	-8191	255	
1033.835	1	1	0	0	0.075626	0.30214	0.0049225	0.13773	0.2835	0.14374	0.097832	0.10363	0.064641	0.11453	0.24134	0.042086	0.16604	0.14081	0.10906	0.1002	-2.0646	-3.1521	-2.8208	-2.85	-3.0312	-2.6792	-2.9729	-3.0812	-2.5521	-3.0646	-2.8292	-2.8021	-3.0833	-2.6146	-2.8292	-3.1375	21.828	35.913	106.622	174.961	-102.484	55.599	174.272	222.902	-45.786	132.556	202.993	97.064	215.688	210.979	201.142	186.697	0.00064072	0.00044551	0.00042719	1025.3	6.0482e-06	2.0857e-05	988.45	335.05	1.7662e-05	1.2108e-05	450.02	171.26	125.41	48.515	8.236e-06	73.064	0.001022	0.0010366	0.00028756	997.58	1.1226e-05	1.1395e-05	953.55	323.63	1.121e-05	1.1178e-05	435	165.62	124.23	47.017	1.1094e-05	70.667	64.283	203.624	-76.852	-94.702	26.338	38.709	-96.497	-88.550	-49.168	-41.612	-91.107	-86.331	-84.357	-77.773	-67.289	-82.303	-8191	255	
1033.931	1	1	0	0	0.14471	0.22485	0.069765	0.095754	0.12509	0.0368	0.1007	0.14924	0.091818	0.11284	0.30409	0.069955	0.20568	0.52898	0.022296	0.45828	-2.1667	-2.825	-2.8396	-2.8417	-2.9271	-2.7542	-2.9667	-3.1333	-2.6667	-2.9042	-3.0438	-2.7458	-3.1167	-2.8146	-2.8583	-2.9625	133.813	-20.485	13.243	31.128	131.980	104.633	151.354	219.968	116.848	136.324	200.514	-43.553	212.878	208.590	94.458	199.332	0.00096762	0.00046889	0.00020538	1030.5	2.5833e-06	4.6354e-07	983.44	334.28	3.8407e-06	1.143e-05	449.1	169.25	124.92	47.577	1.7517e-05	72.227	0.0010207	0.001009	0.00029	994.56	1.1216e-05	1.1413e-05	950.95	322.2	1.1106e-05	1.1112e-05	432.11	163.27	123.05	46.401	1.1007e-05	69.547	57.255	-49.070	-78.431	-94.703	84.658	124.440	-96.182	-88.906	197.627	19.744	-91.093	-86.351	-85.073	-78.104	58.863	-82.079	-8191	255	
1034.052	1	1	0	0	0.1183	0.1248	0.1965	0.3042	0.22466	0.22123	0.23414	0.28482	0.1884	0.31987	0.38226	0.15381	0.13055	0.19719	0.30954	0.20839	-2.1917	-2.8396	-2.7021	-2.65	-2.9208	-2.7375	-2.7354	-3.15	-2.5604	-2.6562	-3.0167	-2.65	-2.9062	-2.7625	-2.425	-3.2125	75.860	103.746	-23.114	239.016	-89.898	-1.901	-0.560	183.035	213.684	153.214	211.045	-77.072	198.860	229.739	-66.880	-80.937	0.00076721	0.00071224	0.000354	1007.4	6.8117e-06	1.2892e-05	970.32	328.63	1.5028e-05	1.3584e-05	437.89	166.95	122.87	46.839	1.2229e-05	71.233	0.00099676	0.0010009	0.00028026	981.38	1.0809e-05	1.115e-05	935.94	317.39	1.0969e-05	1.1002e-05	424.18	161.18	121.62	45.942	1.0869e-05	68.991	61.093	1.156	10.408	-94.838	97.958	28.115	-96.193	-89.033	-42.968	142.800	-90.987	-86.285	-85.071	-78.126	-25.321	-81.670	-8191	255	
1034.148	1	1	0	0	0.25122	0.13819	0.097957	0.20509	0.17089	0.046276	0.27609	0.040151	0.2582	0.18024	0.092958	0.20637	0.2749	0.1023	0.23643	0.18376	-2.1229	-2.8792	-2.9146	-2.7583	-3.0292	-2.7354	-2.8542	-3.1417	-2.4938	-2.8354	-3.0375	-2.6542	-2.9146	-2.8063	-2.7167	-3.1583	-6.236	94.535	-98.196	211.349	45.260	229.411	164.582	-61.957	10.920	-12.760	144.600	227.686	55.341	-50.107	-52.128	154.204	0.00078546	0.0010949	0.00012601	1014.6	4.3481e-06	1.0896e-05	979.12	332.8	1.2518e-05	6.9354e-06	442.65	169.2	125.22	47.577	3.0155e-06	72.107	0.0010023	0.00099617	0.00027764	987.9	1.0949e-05	1.1194e-05	941.27	319.85	1.1111e-05	1.1066e-05	428.4	162.95	123.47	46.514	1.111e-05	69.701	53.207	-15.409	105.815	-94.804	10.326	35.748	-96.482	-89.138	9.637	99.362	-91.076	-86.148	-84.013	-77.989	-14.345	-82.401	-8191	255	
1034.220	1	1	0	0	0.21508	0.16706	0.075602	0.46213	0.14353	0.13625	0.3255	0.23346	0.17003	0.15878	0.061906	0.19696	0.066236	0.31314	0.083694	0.27074	-2.4271	-2.7646	-3.0312	-2.4708	-2.9354	-3.0083	-2.5854	-3.0646	-2.8271	-2.65	-3.0812	-2.7646	-2.8208	-3.1042	-2.5083	-3.1854	-19.953	235.822	91.200	237.823	-92.696	226.720	222.286	-73.205	150.414	45.193	-81.804	-96.159	-93.301	-75.359	38.355	150.460	0.0010554	0.00081619	0.00016266	1023.1	4.9788e-06	1.3842e-06	983.45	335.76	6.6209e-06	1.6841e-05	447.89	170.21	124.91	48.351	1.1579e-05	73.013	0.0010145	0.00099976	0.00028114	992.63	1.0975e-05	1.132e-05	948.49	323.32	1.1178e-05	1.1149e-05	433.84	164.42	124.13	47.124	1.1153e-05	70.558	24.107	-95.783	-47.006	-94.959	-13.331	153.942	-96.373	-88.594	178.054	113.562	-91.281	-86.238	-84.608	-78.008	6.842	-81.915	-8191	255	
1034.341	1	1	0	0	0.14006	0.17681	0.23041	0.14445	0.1855	0.086539	0.13068	0.053212	0.22297	0.11323	0.26236	0.30588	0.12953	0.11638	0.073946	0.28345	-2.2729	-2.4625	-2.9375	-2.6833	-2.9021	-2.8833	-2.75	-3.0479	-2.7188	-2.8208	-3.1354	-2.7625	-2.9083	-3.05	-2.4938	-2.9125	69.385	-51.287	45.790	246.176	-69.180	226.240	178.965	-89.787	-85.582	-52.063	145.741	-97.100	185.224	221.514	240.760	-92.351	0.0014026	0.00033567	0.00023289	1021.7	1.0197e-05	1.0256e-05	988.04	335.87	9.8405e-06	1.2346e-05	448.44	169.96	124.95	47.778	2.9797e-06	72.024	0.001023	0.0010176	0.00028194	994.4	1.1023e-05	1.1257e-05	954.8	323.13	1.099e-05	1.1045e-05	433.15	163.74	123.75	46.597	1.0935e-05	69.589	40.230	-11.060	-9.085	-95.021	7.083	64.175	-96.549	-88.888	88.127	-33.482	-91.514	-86.432	-84.428	-78.057	-84.711	-81.888	-8191	255	
1034.437	1	1	0	0	0.12594	0.20194	0.0072195	0.054844	0.042114	0.27063	0.26892	0.28457	0.23879	0.144	0.20737	0.35165	0.19469	0.15293	0.20262	0.27315	-2.2	-2.5792	-2.85	-2.8229	-2.7833	-3.0271	-2.8083	-3.1875	-2.8021	-2.5771	-3.1833	-2.6333	-2.775	-2.9208	-2.5896	-3.0312	19.206	217.244	-28.048	-35.785	119.800	-8.382	5.746	198.478	222.719	251.284	179.830	206.728	18.310	114.551	104.520	155.891	0.00093383	0.0013826	0.00012352	1020.5	7.8582e-06	8.6662e-06	981.82	332.65	1.5156e-05	7.5809e-06	445.17	169.33	125.06	47.521	1.7944e-05	71.616	0.0010063	0.0009954	0.00028061	987.35	1.0977e-05	1.1112e-05	945.86	320.39	1.1033e-05	1.1088e-05	428.75	162.66	123.45	46.462	1.1053e-05	69.344	38.447	-27.045	-101.408	-95.422	-31.472	65.348	-96.351	-89.191	62.542	83.651	-90.869	-86.326	-84.625	-77.875	78.223	-81.813	-8191	255	
1034.531	1	1	0	0	0.13012	0.14151	0.2031	0.10848	0.13985	0.35272	0.10975	0.073369	0.29453	0.1477	0.036926	0.049503	0.2664	0.27786	0.052591	0.047067	-2.3375	-2.5854	-2.925	-2.8187	-2.5896	-3.0667	-2.8458	-2.8875	-2.9292	-2.6708	-3.0375	-2.7875	-2.5667	-3.0146	-2.4938	-2.9458	3.290	126.195	211.590	184.883	-40.957	148.900	-80.080	122.453	-91.533	-58.431	-65.495	-59.279	209.812	230.496	234.436	204.326	0.00054812	0.00060492	7.7461e-05	1016.9	1.2715e-05	1.3014e-05	978.49	333.12	5.0356e-06	2.6734e-06	442.9	169.15	124.86	47.975	9.3999e-06	72.301	0.0010058	0.0010163	0.00027862	986.46	1.0961e-05	1.1011e-05	944.18	321.14	1.1017e-05	1.0967e-05	428.25	163.18	123.47	46.625	1.0941e-05	69.608	51.886	-66.601	60.678	-95.221	21.789	38.572	-96.416	-88.855	186.373	-85.258	-91.415	-86.428	-84.640	-78.030	12.097	-82.033	-8191	255	
1034.629	1	1	0	0	0.1999	0.20876	0.12884	0.25213	0.10885	0.099166	0.027381	0.22192	0.12313	0.060853	0.15726	0.052544	0.20905	0.23855	0.23912	0.10937	-2.5208	-2.4542	-2.8979	-2.8438	-2.6292	-2.9833	-2.625	-2.8479	-2.8042	-2.6604	-3.0479	-2.7771	-2.6104	-3.1937	-2.6375	-2.8667	-42.424	37.386	-42.651	157.835	-72.872	162.963	85.623	-54.246	250.397	131.403	224.999	-38.878	213.853	222.001	163.596	192.702	0.0010419	0.0013775	0.00034466	1015.4	1.0057e-05	1.326e-05	983.14	331.41	7.6031e-06	1.1531e-05	441.76	168.28	124.38	47.582	3.1546e-06	72.137	0.00099421	0.00099933	0.00027396	985.66	1.0735e-05	1.0947e-05	945.63	320.43	1.091e-05	1.1042e-05	427.91	162.44	122.74	46.256	1.0857e-05	69.378	40.987	-26.328	63.787	-95.337	101.750	-45.864	-96.231	-88.807	-42.239	-64.104	-91.089	-86.235	-84.647	-77.802	194.007	-82.129	-8191	255	
1034.748	1	1	0	0	0.22603	0.086092	0.13323	0.19197	0.39643	0.34075	0.19957	0.30562	0.27448	0.08208	0.25687	0.14102	0.18374	0.20006	0.2352	0.046651	-2.6125	-2.4437	-2.8854	-2.8958	-2.5333	-3.025	-2.6958	-2.7604	-3.05	-2.5687	-2.9542	-2.9229	-2.6875	-3.1604	-2.825	-2.7896	137.596	-41.749	67.750	-76.568	210.226	-103.615	218.643	239.319	-72.716	-84.854	212.264	190.293	250.661	248.390	229.794	243.139	0.00096366	0.00044175	0.00025802	1023.3	6.3239e-06	1.6077e-05	985.47	333.21	2.3107e-05	1.031e-05	442.38	169.05	124.23	47.069	5.1558e-06	71.377	0.00098872	0.00099426	0.00027444	988.39	1.0837e-05	1.0774e-05	950.37	321.36	1.0872e-05	1.1129e-05	427.09	162.16	122.73	45.996	1.0897e-05	68.785	53.306	-32.079	-56.270	-95.499	-89.670	21.391	-96.443	-88.737	-51.944	49.621	-90.877	-86.325	-84.474	-77.798	99.537	-81.834	-8191	255	
1034.844	1	1	0	0	0.11052	0.12053	0.067234	0.059175	0.23224	0.11567	0.12784	0.053618	0.25984	0.028151	0.15549	0.059949	0.34229	0.21248	0.26163	0.34154	-2.5292	-2.6208	-2.7375	-3.0583	-2.6813	-3.0979	-2.8396	-2.8667	-2.9146	-2.7146	-2.9229	-3.0563	-2.5271	-3.1896	-2.7625	-2.8979	-48.131	79.814	143.545	116.486	116.120	4.932	-78.810	82.694	241.393	227.156	164.499	192.433	205.878	220.807	198.226	168.346	0.0011257	0.00069154	0.00012553	1020.5	5.3766e-06	9.0787e-06	980.9	333.7	8.0404e-06	1.7623e-05	444.29	169.08	124.81	47.751	6.8496e-06	72.459	0.00098008	0.0010022	0.00027659	985.48	1.0942e-05	1.077e-05	944.11	320.59	1.0954e-05	1.1099e-05	429.96	162.67	123.52	46.537	1.1056e-05	69.378	47.606	-40.598	-83.711	-94.925	109.357	32.596	-96.431	-89.004	-13.104	26.354	-91.142	-86.282	-84.323	-78.229	-33.982	-82.115	-8191	255	
1034.940	1	1	0	0	0.12659	0.11272	0.14191	0.16231	0.22682	0.11097	0.24929	0.09277	0.054493	0.24705	0.1871	0.04789	0.02423	0.079176	0.17861	0.1127	-2.6021	-2.5833	-2.8521	-3.0708	-2.4646	-3.0146	-2.9688	-2.7458	-3.1813	-2.6188	-2.8187	-2.9979	-2.5146	-3.15	-2.9062	-2.7646	118.768	122.106	136.727	27.368	251.710	119.010	169.893	224.531	171.605	210.332	-100.433	-29.318	182.544	133.592	248.140	158.055	0.00068025	0.00040891	0.00032974	1013.5	4.1119e-06	1.1092e-05	984.38	331.92	1.4424e-05	7.5344e-06	443.17	167.24	123.42	47.185	8.8759e-06	71.609	0.00098744	0.0010192	0.00027827	985.33	1.1007e-05	1.1003e-05	947.99	318.8	1.0926e-05	1.1062e-05	426.54	161.15	122.19	46.046	1.0928e-05	68.875	44.308	29.265	-64.546	-94.605	6.079	36.887	-96.186	-88.794	77.435	232.105	-91.042	-86.168	-84.671	-77.793	135.491	-81.875	-8191	255	
1035.036	1	1	0	0	0.12179	0.1586	0.16568	0.33762	0.13884	0.2987	0.2898	0.22514	0.027087	0.044235	0.14966	0.076424	0.34344	0.1868	0.3275	0.27949	-2.6312	-2.725	-2.8896	-3.0771	-2.5708	-2.9417	-3.0979	-2.9229	-3.1104	-2.6437	-2.7521	-3.0687	-2.7146	-2.9583	-2.8	-2.5729	-62.028	-20.098	160.988	228.165	44.494	18.786	215.068	-89.627	50.833	-22.519	90.292	112.736	227.550	242.575	-91.380	182.109	0.0014373	0.00039549	9.7951e-05	1017.1	1.4429e-05	7.7541e-06	990.67	334.36	2.1918e-05	8.8444e-06	446.93	169.71	123.78	47.741	1.2709e-05	72.239	0.00098829	0.0010123	0.00027818	988.26	1.1038e-05	1.0842e-05	953.04	321.07	1.0971e-05	1.1116e-05	430.24	163	123.06	46.523	1.1091e-05	69.638	58.413	-48.727	-82.923	-95.192	36.916	10.164	-96.538	-89.093	18.840	-61.262	-91.047	-86.439	-84.571	-78.259	20.205	-81.956	-8191	255	
1035.132	1	1	0	0	0.05036	0.13211	0.065702	0.11101	0.18248	0.216	0.28042	0.42225	0.075124	0.12843	0.095307	0.17203	0.28139	0.15617	0.12847	0.31773	-2.55	-2.775	-2.5729	-3.1562	-2.6583	-2.7396	-3.0708	-2.5979	-2.8792	-2.9271	-2.7104	-3.1188	-2.5938	-2.7229	-2.9375	-2.4396	85.313	215.952	180.214	205.516	8.352	-68.371	175.574	144.599	45.015	-34.026	80.565	184.394	20.206	-84.618	162.274	194.245	0.00095823	0.0012973	1.5173e-05	1025.1	8.745e-06	7.6357e-06	995.39	335.17	1.5094e-05	1.9341e-05	451.49	170.79	125.31	47.902	8.1426e-06	72.871	0.0010033	0.0010351	0.00028291	993.95	1.1303e-05	1.109e-05	961.01	323.11	1.1054e-05	1.1273e-05	435.34	164.67	124.59	47.176	1.1208e-05	70.306	51.579	-17.610	10.874	-94.682	67.435	-39.740	-96.317	-88.775	213.974	52.742	-91.167	-86.455	-84.682	-78.152	-1.433	-82.091	-8191	255	
1035.229	1	1	0	0	0.098183	0.089668	0.16912	0.16918	0.26112	0.17475	0.11855	0.093663	0.07747	0.079743	0.33826	0.052048	0.22757	0.12222	0.15838	0.22896	-2.5583	-2.8187	-2.3458	-2.9854	-2.5729	-2.7562	-2.9271	-2.5792	-2.725	-2.9125	-2.625	-3.0896	-2.75	-2.7062	-3.2042	-2.6271	88.164	-51.887	58.649	11.703	-20.018	-57.014	152.130	146.977	240.439	-79.186	178.979	146.688	223.722	174.479	-14.900	98.779	0.00066989	9.418e-05	0.0002727	1024.4	7.6889e-06	1.2163e-05	990.44	334.33	1.3992e-05	1.7062e-05	446.02	170.1	125.17	47.774	7.1018e-06	71.733	0.0010084	0.001032	0.00028903	996.09	1.1172e-05	1.1108e-05	960.25	323.28	1.106e-05	1.1287e-05	431.47	163.28	123.84	46.761	1.1185e-05	69.447	34.382	51.347	-42.958	-95.266	78.938	-87.136	-96.456	-89.117	62.625	45.753	-91.165	-86.135	-84.559	-77.907	-67.484	-82.161	-8191	255	
1035.349	1	1	0	0	0.15339	0.17986	0.016712	0.17411	0.1752	0.31645	0.17998	0.19999	0.14541	0.14347	0.26442	0.032811	0.057037	0.046938	0.2698	0.088726	-2.5146	-2.7729	-2.5812	-2.9854	-2.9188	-2.6042	-3.1063	-2.5854	-2.8812	-2.9375	-2.6146	-2.975	-2.6813	-2.7479	-3.0125	-2.5479	100.744	232.772	46.720	-78.827	208.074	-6.290	186.744	-102.484	138.455	149.361	197.608	96.943	-92.409	-6.268	230.610	-80.850	0.0010597	0.0003408	0.00012958	1029.3	1.2834e-05	8.9636e-06	989.26	336.25	6.6593e-06	1.9058e-05	446.06	170.36	125.39	47.913	1.2211e-05	71.481	0.00099591	0.0010241	0.00028209	995.03	1.1132e-05	1.12e-05	956.38	324.5	1.1005e-05	1.1209e-05	433.42	163.79	124.42	46.906	1.1115e-05	69.437	24.277	-1.885	-34.746	-95.386	86.307	85.068	-96.557	-88.614	182.591	105.915	-90.702	-86.342	-84.655	-78.023	57.669	-81.862	-8191	255	
1035.444	1	1	0	0	0.054082	0.05647	0.12047	0.21375	0.22687	0.044787	0.087144	0.079709	0.15165	0.19623	0.070629	0.12979	0.02523	0.12326	0.038647	0.13987	-2.3979	-2.9354	-2.4708	-2.9917	-2.6437	-2.7167	-3.1437	-2.8187	-2.8563	-2.9583	-2.7208	-2.9417	-2.9021	-2.5896	-2.8417	-2.7333	103.968	-33.866	235.058	82.774	51.155	181.668	168.307	163.347	-99.742	24.384	160.841	-40.639	-84.451	172.549	10.954	153.947	0.0013981	0.00057474	0.00045443	1022.8	1.1711e-05	1.6338e-05	993.04	337.45	1.4486e-05	1.1058e-06	451.6	171.05	126.35	48.393	3.0182e-06	73.147	0.0010096	0.0010239	0.00028618	991.24	1.1236e-05	1.1153e-05	956.11	324.38	1.107e-05	1.1276e-05	434.61	164.46	125.05	47.314	1.1266e-05	70.557	50.124	6.474	26.424	-95.462	17.217	48.782	-96.423	-89.110	7.381	-78.100	-91.071	-86.455	-84.645	-78.162	110.177	-81.947	-8191	255	
1035.517	1	1	0	0	0.11133	0.29997	0.27323	0.10308	0.18652	0.19203	0.3435	0.33756	0.16901	0.098691	0.12863	0.20326	0.10949	0.16747	0.15997	0.18212	-2.1	-2.8438	-2.6375	-2.9542	-2.8208	-2.5542	-3.0229	-2.8833	-2.8875	-3.0354	-2.7042	-3.075	-3.0396	-2.5521	-3.0125	-2.8438	126.023	19.629	88.731	-30.277	186.007	240.642	195.433	218.067	212.938	192.699	209.877	181.680	79.508	240.817	-94.931	218.216	0.0012886	0.0011287	0.00040258	1032.1	4.7209e-06	1.3188e-05	1005.1	336.11	8.1727e-06	8.7522e-06	449.13	171.33	126.38	48.088	1.3942e-05	72.405	0.0010256	0.001039	0.00028974	1002.2	1.1396e-05	1.1471e-05	966.3	325.89	1.124e-05	1.127e-05	436.3	164.95	125.04	47.098	1.119e-05	69.936	39.572	-23.322	-47.325	-95.156	18.458	-12.939	-96.324	-89.116	-42.112	66.327	-91.050	-86.224	-84.212	-77.954	39.651	-81.891	-8191	255	
1035.611	1	1	0	0	0.16526	0.1541	0.27055	0.32829	0.021481	0.10596	0.18795	0.26024	0.18381	0.20785	0.42663	0.067206	0.17513	0.058133	0.2129	0.046704	-2.1437	-2.8271	-2.6458	-2.8812	-2.8958	-2.5729	-3.0938	-2.8979	-2.6875	-3.2	-2.7646	-2.8979	-3.0896	-2.6854	-2.9896	-2.8438	155.915	-46.911	-21.907	-71.453	103.244	127.641	183.633	176.596	217.264	223.197	237.912	18.552	34.002	-15.552	-88.640	-103.705	0.00071855	0.0012313	0.00013966	1022.6	7.8884e-06	5.2149e-06	990.58	338.33	3.729e-06	1.8647e-05	447.95	170.9	125.6	48.13	1.6544e-07	71.709	0.0010162	0.0010244	0.00028722	996.45	1.1392e-05	1.1361e-05	957.13	325.76	1.1254e-05	1.1282e-05	433.7	164.29	124.32	47.108	1.113e-05	69.474	41.204	49.261	-35.701	-95.386	-6.776	25.517	-96.369	-89.186	-27.488	67.845	-91.095	-86.312	-84.555	-78.068	44.070	-82.085	-8191	255	
1035.732	1	1	0	0	0.18738	0.12851	0.20224	0.10776	0.097056	0.16396	0.12941	0.073648	0.14068	0.16581	0.27035	0.214	0.2331	0.064232	0.15006	0.11697	-2.1	-3.0771	-2.65	-2.8667	-2.8833	-2.5396	-3.1	-2.9938	-2.6188	-2.8542	-2.7687	-2.8604	-2.8875	-2.6667	-2.7542	-2.9896	-86.766	127.195	211.666	-98.916	89.066	177.600	231.646	194.299	141.323	-17.161	129.479	206.819	-97.725	-73.861	-64.122	189.651	0.00096461	0.00080015	0.00044946	1025.4	8.4264e-06	1.1753e-05	992.14	336.49	1.5592e-05	9.1108e-06	447.53	169.8	125.32	48.331	1.1456e-05	72.632	0.0010258	0.0010232	0.000285	996.04	1.1277e-05	1.1273e-05	955.55	324.05	1.111e-05	1.1208e-05	432.94	163.53	124.41	47.296	1.1115e-05	69.996	67.087	241.562	4.802	-95.279	-36.262	-29.420	-96.341	-89.140	73.678	-35.588	-91.447	-86.397	-84.661	-77.759	65.949	-82.475	-8191	255	
1035.828	1	1	0	0	0.041014	0.17991	0.094289	0.095839	0.12067	0.28089	0.45808	0.29416	0.12289	0.24323	0.32892	0.11603	0.19869	0.37276	0.11219	0.11656	-2.1375	-2.9708	-2.4938	-2.725	-2.9437	-2.6375	-2.8063	-2.9542	-2.5417	-2.9333	-2.8375	-2.6104	-3.0563	-2.9396	-2.8375	-2.9229	101.847	237.983	-36.656	13.233	96.073	211.072	189.166	211.920	212.501	33.037	212.549	-83.157	68.282	-67.019	110.807	109.091	0.00086594	0.0016525	0.00015625	1032.1	9.122e-06	4.4483e-06	995.52	338.1	5.5417e-06	7.1899e-06	449.17	169.81	126.35	48.267	6.3683e-06	72.499	0.0010302	0.0010215	0.00028777	1000.5	1.1263e-05	1.1401e-05	958.68	325.62	1.1248e-05	1.114e-05	433.06	164.52	124.73	47.122	1.1102e-05	69.855	19.414	-39.155	-59.029	-95.000	-16.015	-99.008	-96.576	-89.074	42.218	45.405	-90.998	-86.267	-84.856	-78.328	227.639	-81.906	-8191	255	
1035.924	1	1	0	0	0.20741	0.32957	0.030103	0.071599	0.13419	0.08988	0.24926	0.066911	0.22636	0.26213	0.21434	0.17084	0.14858	0.2611	0.19774	0.053183	-2.0563	-2.8479	-2.8	-2.7458	-3.0333	-2.6542	-2.8479	-3.0292	-2.5792	-2.7812	-2.9021	-2.8	-3.0542	-2.8271	-2.7333	-2.9667	117.741	-59.396	184.122	210.620	47.164	-81.943	199.425	133.021	96.976	-83.404	129.437	156.934	-104.765	5.600	127.975	241.186	0.001668	0.00019511	0.00012515	1023.1	6.368e-06	2.8173e-05	989.64	339.57	9.8847e-06	9.3748e-06	452.14	170.5	126.22	48.123	5.8465e-06	72.145	0.0010249	0.0010062	0.00028638	994.89	1.1187e-05	1.1198e-05	957.11	326.09	1.1264e-05	1.1041e-05	435.81	164.71	124.63	47.083	1.0964e-05	69.612	24.519	155.848	24.240	-95.075	102.115	33.067	-96.136	-89.009	194.811	-19.565	-91.133	-86.571	-84.624	-77.936	41.588	-81.980	-8191	255	
1036.021	1	1	0	0	0.16313	0.17812	0.20562	0.29058	0.037019	0.13641	0.12977	0.11512	0.040441	0.19012	0.101	0.12589	0.14431	0.2388	0.11883	0.11544	-2.0125	-2.7396	-2.8271	-2.6896	-3.0229	-2.9271	-2.7771	-3.1979	-2.55	-2.9688	-3.3438	-2.6729	-3.0458	-2.7854	-2.7062	-3.225	228.128	74.982	247.043	186.411	26.244	177.228	165.320	-85.660	-56.542	-21.852	164.378	182.986	249.036	236.827	200.654	81.853	0.00079864	0.00044554	0.00029366	1016.9	3.1966e-06	1.3464e-05	987.27	335.84	1.5864e-05	1.0168e-05	444.26	167.94	125.95	48.325	6.9208e-06	72.091	0.0010079	0.00099695	0.00028139	991.42	1.1e-05	1.1059e-05	947.46	323.46	1.106e-05	1.0883e-05	429.36	162.91	124.1	46.798	1.093e-05	69.213	64.397	-58.347	-37.821	-95.131	110.317	231.482	-96.733	-88.971	68.936	141.185	-91.333	-86.342	-84.687	-78.091	77.818	-81.908	-8191	255	
1036.117	1	1	0	0	0.077848	0.11518	0.24729	0.32882	0.01865	0.090536	0.3143	0.21479	0.04225	0.20731	0.22181	0.12296	0.40348	0.035314	0.086464	0.28838	-1.9646	-2.7125	-2.975	-2.5417	-2.9625	-2.7667	-2.7146	-3.1521	-2.5646	-2.7292	-2.9625	-2.4917	-2.7917	-2.9188	-2.8021	-3.2208	16.059	131.727	34.857	61.710	33.005	-5.117	189.234	204.688	121.543	-9.286	-104.491	214.124	-97.744	-34.699	94.412	154.425	0.0012616	0.00068344	0.00052189	1020.9	4.3523e-06	4.793e-06	993.55	337.06	4.9015e-06	8.1312e-06	448.02	168.23	126.15	48.241	1.1126e-05	71.907	0.0010035	0.00099571	0.00027709	995.11	1.0907e-05	1.0924e-05	953.1	324.91	1.0946e-05	1.0797e-05	431.77	162.99	124.21	47.011	1.0919e-05	69.23	48.746	38.412	-29.962	-95.149	-61.761	3.750	-96.681	-89.044	79.578	198.809	-91.117	-86.107	-84.567	-78.125	-21.021	-82.226	-8191	255	
1036.213	1	1	0	0	0.17262	0.25341	0.17154	0.14434	0.099874	0.12166	0.24191	0.29149	0.28899	0.16274	0.49198	0.1505	0.11308	0.21582	0.12704	0.16945	-2.1854	-2.8146	-2.7979	-2.5479	-2.8667	-2.7708	-2.7333	-3.0958	-2.6333	-2.8396	-2.9667	-2.7333	-2.8854	-3.0292	-2.4229	-3.1167	180.059	212.423	-21.860	114.887	69.686	71.645	218.080	198.730	33.400	43.995	221.495	240.030	209.152	161.600	27.382	179.074	0.00088751	0.00031849	0.00054393	1027.7	7.6567e-06	2.1616e-05	1002.6	337.09	1.7035e-05	6.0818e-06	446.83	170.53	125.66	48.277	4.6976e-06	72.076	0.00098361	0.00098193	0.00027584	994.5	1.0651e-05	1.0918e-05	957.19	324.62	1.0809e-05	1.0772e-05	433.14	163.54	124.04	46.824	1.0839e-05	69.466	42.083	-16.877	-1.398	-95.396	24.071	56.223	-96.466	-88.725	24.473	125.459	-91.310	-86.495	-84.395	-78.091	107.051	-82.051	-8191	255	
1036.309	1	1	0	0	0.085763	0.034583	0.11423	0.21237	0.084044	0.1103	0.44971	0.24685	0.36359	0.069109	0.18899	0.26301	0.095207	0.25137	0.077017	0.076455	-2.3354	-2.5812	-2.8333	-2.6396	-2.8292	-2.825	-2.5104	-3.2062	-2.7542	-2.6708	-3.1958	-2.6771	-2.9354	-3.0896	-2.5979	-3.2271	199.223	-25.762	98.723	10.310	-104.409	51.376	222.637	176.387	203.394	97.086	216.244	230.502	186.441	-76.066	236.619	238.001	0.00091769	0.00019572	0.00021532	1021.6	2.3996e-06	1.1603e-05	996.71	337.77	1.544e-05	3.7351e-06	449.26	168.88	125.57	48.073	4.0984e-06	72.048	0.00095687	0.00098398	0.00027152	990.17	1.0586e-05	1.0714e-05	958.23	323.82	1.064e-05	1.0785e-05	431.61	162.77	123.5	46.675	1.0676e-05	69.254	53.271	96.057	18.103	-95.057	127.862	64.171	-96.283	-88.762	-34.701	-7.590	-91.464	-86.486	-84.240	-78.160	79.508	-81.872	-8191	255	
1036.430	1	1	0	0	0.21016	0.14216	0.16786	0.020617	0.17999	0.13967	0.28035	0.39027	0.060388	0.081998	0.22088	0.16412	0.028214	0.17141	0.2034	0.32234	-2.2771	-2.6937	-3.0521	-2.5708	-2.8354	-3.0396	-2.6042	-3.1271	-2.8167	-2.4688	-3.1979	-2.8479	-3	-2.9021	-2.5667	-2.8833	82.056	-1.683	37.733	-81.513	138.787	244.068	196.170	-93.610	5.553	250.858	53.240	234.979	-63.466	196.904	58.839	215.055	0.00042982	0.00093109	0.0001892	1023.9	8.0912e-06	9.0872e-06	981.05	334.63	1.4036e-05	1.0071e-05	442.83	168.12	125.42	47.686	2.1219e-06	71.108	0.00095932	0.00097833	0.00026897	987.62	1.0514e-05	1.0647e-05	943.72	320.78	1.0483e-05	1.0605e-05	425.23	160.95	122.6	46.353	1.0494e-05	68.408	12.950	21.381	20.498	-95.055	65.465	109.556	-96.548	-88.812	-38.054	-89.098	-91.153	-86.323	-84.261	-78.010	180.502	-82.270	-8191	255	
1036.524	1	1	0	0	0.053924	0.14462	0.04878	0.24081	0.27448	0.1041	0.12674	0.064462	0.049383	0.16496	0.26267	0.081126	0.19774	0.10716	0.17076	0.24579	-2.275	-2.4	-3.025	-2.6875	-2.6833	-2.9313	-2.8063	-3.1063	-2.8729	-2.575	-3.1875	-2.6813	-2.7604	-3.1917	-2.5125	-2.9208	-12.570	178.284	141.309	218.869	-63.918	61.755	184.648	57.252	80.963	193.716	30.193	248.914	145.760	183.397	41.565	214.779	0.00079115	0.00055484	0.00017333	1018.9	2.7955e-06	4.6164e-06	974.3	333.31	1.4058e-05	7.6645e-06	440.41	167.25	126.05	47.452	9.9838e-06	71.519	0.00093318	0.00096158	0.00026294	982.54	1.0346e-05	1.0353e-05	938.84	319.75	1.0247e-05	1.0508e-05	424.91	161.07	123.29	46.301	1.0403e-05	68.485	74.064	6.246	28.755	-95.172	53.757	223.188	-96.500	-89.087	22.838	34.558	-91.109	-86.482	-84.115	-78.111	32.490	-82.149	-8191	255	
1036.620	1	1	0	0	0.045909	0.27399	0.088228	0.27505	0.26814	0.17093	0.27006	0.19974	0.16299	0.12668	0.1256	0.37187	0.13581	0.10649	0.14517	0.19557	-2.5625	-2.5312	-3.0042	-2.7646	-2.6354	-2.975	-2.8417	-3.1437	-2.9271	-2.5	-3.1417	-2.8729	-2.7792	-3.1688	-2.8625	-3.0021	183.767	26.457	99.122	-53.825	41.703	-78.749	-106.022	143.997	93.441	32.243	-94.546	-101.108	133.142	177.858	47.222	137.666	0.0012986	0.00092544	0.00027199	1011.7	2.4547e-06	5.9222e-06	977.55	331.88	1.9388e-05	1.0001e-05	436.49	165.87	123.4	47.126	8.8553e-06	70.937	0.00093331	0.0009539	0.00025766	979.44	1.04e-05	1.0301e-05	935.95	318.73	1.0234e-05	1.0494e-05	421.62	160.09	121.7	45.946	1.0339e-05	68.318	30.444	-76.847	-9.066	-95.211	83.132	-14.851	-96.556	-88.884	95.258	58.532	-91.212	-86.480	-84.626	-77.817	-20.138	-81.790	-8191	255	
1036.741	1	1	0	0	0.18029	0.17941	0.35813	0.23324	0.052786	0.048896	0.22891	0.20742	0.13559	0.1404	0.085967	0.11115	0.10699	0.38387	0.30214	0.18012	-2.5771	-2.65	-2.925	-2.8271	-2.5667	-3.1688	-2.7354	-3.0333	-3.0187	-2.6833	-2.8417	-2.8396	-2.6188	-3.0438	-2.7271	-2.9167	68.505	143.477	43.674	169.820	-91.220	-89.457	161.254	245.356	70.616	-54.693	160.097	10.295	-58.341	214.041	236.452	210.447	0.00076415	0.00086611	0.00042012	1014.6	3.9871e-06	1.5182e-05	971.29	331.35	4.8176e-06	2.439e-06	439.49	167.02	123.96	47.592	1.7845e-05	70.961	0.00093396	0.00096289	0.00025852	980.3	1.0408e-05	1.0325e-05	938.18	319.03	1.0283e-05	1.0508e-05	422.74	160.72	122.32	46.276	1.0397e-05	68.475	55.750	-76.738	-54.387	-95.128	24.433	35.552	-96.706	-88.705	199.312	186.017	-91.034	-86.428	-84.465	-78.107	-20.914	-82.078	-8191	255	
1036.812	1	1	0	0	0.091947	0.073241	0.3143	0.17717	0.23926	0.088463	0.23058	0.23412	0.12618	0.046737	0.44426	0.18784	0.093312	0.12347	0.2221	0.42585	-2.5521	-2.6708	-2.7438	-3.0083	-2.6833	-3.1208	-2.7812	-2.8396	-3.0229	-2.6021	-2.8708	-2.9437	-2.725	-3.1813	-2.8792	-2.65	56.391	9.984	181.824	167.074	210.684	62.442	215.007	212.102	-22.221	-5.711	174.950	199.688	230.238	-22.279	68.707	209.197	0.00096492	0.00096505	0.00012239	1011.6	1.0161e-05	8.2746e-06	967.45	329.49	2.1024e-05	9.0023e-06	435.31	165.74	123.13	47.246	3.4659e-06	70.594	0.00093342	0.00095581	0.00026084	977.3	1.0412e-05	1.0261e-05	931.01	317.58	1.033e-05	1.0527e-05	420.11	159.18	121.67	45.905	1.0538e-05	67.878	67.690	79.175	6.473	-95.335	52.224	-73.321	-96.274	-88.791	73.346	-74.582	-91.240	-86.397	-84.448	-78.057	-41.432	-82.226	-8191	255	
1036.909	1	1	0	0	0.16715	0.1403	0.108	0.19451	0.28418	0.0737	0.31277	0.25391	0.23162	0.25766	0.22444	0.11352	0.36171	0.099147	0.14214	0.070718	-2.6125	-2.5917	-2.8979	-3.1625	-2.4979	-2.9354	-2.9437	-2.7438	-3.1437	-2.8479	-2.9396	-3.1417	-2.5062	-3.0229	-2.8979	-2.7729	123.857	238.858	-51.013	224.686	-22.992	163.581	189.802	224.796	-103.192	93.615	220.060	211.811	150.195	-37.449	-39.592	156.225	0.001043	0.00084049	0.00019129	1005.1	1.8358e-06	2.1996e-06	967.26	331.42	1.3447e-05	1.4801e-05	435.5	165.01	123.66	46.772	3.748e-06	70.44	0.00095079	0.00097301	0.00026479	974.3	1.0556e-05	1.0311e-05	931.84	317.4	1.0325e-05	1.0517e-05	419.34	158.48	121.86	45.76	1.0361e-05	67.578	28.301	-25.844	-4.924	-95.195	-10.800	32.378	-96.418	-89.070	-88.182	-9.328	-91.434	-86.533	-84.600	-78.148	36.188	-82.163	-8191	255	
1037.029	1	1	0	0	0.058563	0.09428	0.020295	0.085178	0.28985	0.12204	0.44016	0.15752	0.18549	0.16025	0.18258	0.3196	0.11857	0.12805	0.23768	0.11325	-2.6417	-2.6458	-2.725	-3.0417	-2.6167	-2.9375	-2.8688	-2.7417	-2.9875	-2.6396	-2.9146	-3.2625	-2.6875	-2.8333	-2.8312	-2.8604	153.516	75.984	114.771	206.019	-38.914	-3.492	200.314	-104.358	41.701	140.573	191.286	253.086	-36.619	-55.401	18.505	-64.185	0.00078849	0.0011963	5.9435e-05	1012.7	8.3819e-06	5.628e-06	967.65	329.39	1.9278e-05	4.602e-06	434.07	164	123.34	46.954	4.2066e-06	70.122	0.00093065	0.00094886	0.00026101	975.05	1.0287e-05	1.0071e-05	931.64	317.06	9.9945e-06	1.0353e-05	417.73	157.93	120.81	45.379	1.0234e-05	67.314	19.742	23.249	87.232	-95.193	1.458	143.836	-96.350	-88.851	42.628	38.495	-90.783	-86.711	-84.348	-78.118	169.455	-81.872	-8191	255	
1037.125	1	1	0	0	0.12571	0.29159	0.062044	0.11581	0.14809	0.21055	0.14146	0.24419	0.081391	0.28916	0.39117	0.33754	0.27599	0.062264	0.04347	0.19596	-2.5396	-2.6813	-2.5958	-3.1958	-2.6542	-2.9625	-3.0875	-2.6688	-2.95	-2.7917	-2.8312	-3.0646	-2.7812	-2.9375	-2.8187	-2.6875	115.048	-61.279	119.529	155.121	9.047	45.550	183.820	199.781	246.806	148.032	182.770	194.322	217.559	215.601	-72.092	-90.304	0.00063457	0.0012473	0.00040743	1004	5.0395e-06	8.5687e-06	965.11	327.7	4.1453e-06	6.2867e-06	431.45	162.54	121.36	46.286	7.6132e-06	69.601	0.00092109	0.00093627	0.0002568	973.68	1.031e-05	1.0035e-05	925.79	314.77	9.9013e-06	1.0274e-05	415.21	156.71	119.61	44.968	1.0041e-05	66.785	55.166	-1.151	-56.268	-95.168	54.577	4.569	-96.448	-88.914	237.064	195.199	-90.821	-86.579	-84.299	-77.900	-20.196	-81.885	-8191	255	
1037.222	1	1	0	0	0.18347	0.10394	0.13582	0.30259	0.16798	0.17294	0.28358	0.1434	0.18033	0.098309	0.11647	0.094537	0.26595	0.26318	0.15989	0.16776	-2.575	-2.8604	-2.5625	-3.2313	-2.6229	-2.8729	-3.0667	-2.6854	-3.0292	-2.875	-2.7812	-3.0563	-2.6917	-2.8125	-2.925	-2.675	109.782	-75.631	171.034	-88.545	198.790	44.090	142.649	212.614	55.467	211.107	-101.040	228.560	37.170	176.255	-60.932	185.921	0.0011432	0.00062252	0.00034189	1003.3	4.4871e-06	9.8692e-06	953.13	327.96	1.5454e-05	1.4987e-05	429.76	163.35	122.07	46.434	4.4907e-06	69.584	0.00091348	0.000923	0.00025957	967.77	1.0219e-05	1.018e-05	917.91	315.21	1.0063e-05	1.0171e-05	414.03	156.74	120.04	45.296	1.0015e-05	66.802	43.666	241.100	4.044	-94.940	130.790	72.303	-96.359	-89.012	-102.412	59.327	-91.074	-86.550	-84.301	-77.950	188.345	-81.955	-8191	255	
1037.318	1	1	0	0	0.16542	0.087715	0.063409	0.069599	0.22709	0.051457	0.064055	0.34333	0.038999	0.13241	0.084378	0.0081963	0.11491	0.23477	0.15998	0.22332	-2.5333	-2.9229	-2.4875	-3.1042	-2.6604	-2.7438	-3.1021	-2.4583	-3.1312	-2.7875	-2.7604	-3.1979	-2.9313	-2.9375	-3.0375	-2.8563	120.186	174.004	157.459	220.785	195.501	161.179	186.453	218.943	67.395	201.306	-49.052	-45.392	129.437	208.059	-23.309	-106.619	0.00096242	0.00088398	8.5495e-05	1008.8	7.8929e-06	2.3642e-06	957.45	329.15	1.8217e-05	1.1589e-05	432.72	163.28	123.17	46.596	1.0427e-05	69.633	0.00090754	0.00092408	0.0002633	972.05	1.0248e-05	1.03e-05	919.59	316.85	1.0064e-05	1.0104e-05	415.49	157.13	121.07	45.446	1.006e-05	66.944	31.905	25.304	-53.340	-95.384	50.446	-102.920	-96.234	-88.873	-57.559	105.051	-91.140	-86.212	-84.340	-77.852	-25.974	-82.224	-8191	255	
1037.414	1	1	0	0	0.05469	0.20696	0.15277	0.18055	0.079054	0.26022	0.15034	0.17463	0.070487	0.18584	0.11711	0.16761	0.024684	0.20089	0.053228	0.05728	-2.5062	-3.0208	-2.6958	-3.1188	-2.75	-2.6396	-3.1729	-2.7229	-2.6833	-2.8688	-2.725	-2.975	-2.8667	-2.7604	-3.0417	-2.7458	-86.526	135.420	11.833	161.694	133.616	67.773	-18.793	214.411	101.978	-24.994	174.241	-83.934	205.191	-87.504	-48.363	-103.699	0.0010275	0.00037274	0.00017193	1002.6	6.3525e-06	9.998e-06	956.16	329.79	8.5909e-06	1.0864e-05	433.86	165.28	123.25	47.22	7.7564e-06	69.885	0.00091454	0.00092634	0.00025983	969.68	1.0051e-05	1.0257e-05	920.27	317.41	1.0194e-05	1.0231e-05	417.83	158.01	121.04	45.755	1.0329e-05	67.56	52.092	151.973	-64.465	-95.020	1.710	15.566	-96.653	-89.236	85.181	19.113	-91.095	-86.513	-84.342	-77.957	166.794	-82.113	-8191	255	
1037.508	1	1	0	0	0.28972	0.1348	0.30686	0.16434	0.16049	0.070925	0.063933	0.31511	0.32623	0.31491	0.03312	0.19498	0.15482	0.16159	0.21295	0.17476	-2.1896	-3.0104	-2.5146	-3.0583	-2.8479	-2.5021	-3.2667	-2.6958	-2.6521	-2.8187	-2.6813	-2.9375	-2.8292	-2.8187	-3.0187	-2.8771	-105.956	244.352	194.068	-83.940	-41.737	-38.851	130.339	252.899	-36.670	54.375	252.377	-55.282	216.943	239.494	97.892	-24.386	0.00095795	0.00098037	0.00033757	1008.2	2.9834e-06	1.5732e-06	971.6	334.8	8.3584e-06	8.8722e-06	437.28	166.51	124.71	47.411	1.2817e-05	70.197	0.00094727	0.00094641	0.00026795	976.02	1.0555e-05	1.0698e-05	932.7	320.99	1.0493e-05	1.0421e-05	422.58	159.93	122.83	46.237	1.041e-05	67.759	50.217	-29.285	-14.758	-95.145	-29.139	25.484	-96.715	-88.494	56.045	15.013	-91.316	-86.551	-84.175	-77.823	17.184	-82.140	-8191	255	
1037.604	1	1	0	0	0.14404	0.26881	0.18468	0.3978	0.14516	0.12336	0.26103	0.16243	0.13281	0.24617	0.18641	0.15328	0.18085	0.17423	0.087813	0.12331	-2.3583	-3.0292	-2.4833	-2.7833	-3.0083	-2.6917	-3.1854	-2.7208	-2.6146	-2.9479	-2.8125	-2.7667	-2.675	-2.6979	-2.8854	-2.8042	20.165	158.430	6.783	215.394	149.553	139.417	-81.961	195.109	122.285	170.278	224.002	-68.211	197.996	230.274	178.281	-101.929	0.00089914	0.00054655	0.00022467	1010.2	2.1427e-06	6.4048e-06	962.9	332.83	8.133e-06	1.4456e-06	435.73	163.45	122.92	46.92	2.7518e-06	69.62	0.00095742	0.00094624	0.00026752	977.73	1.034e-05	1.0589e-05	925.76	319.79	1.0559e-05	1.0273e-05	418.76	157.48	121.07	45.491	1.0013e-05	66.68	61.907	17.581	67.037	-95.199	214.526	121.399	-96.484	-89.137	-9.030	246.308	-91.203	-86.484	-84.594	-77.888	-14.769	-82.011	-8191	255	
1037.702	1	1	0	0	0.253	0.20198	0.14632	0.091798	0.18821	0.15673	0.059799	0.2064	0.058331	0.10373	0.16727	0.29617	0.16595	0.088021	0.073166	0.26748	-2.2917	-2.9396	-2.625	-2.9167	-2.9938	-2.5958	-3.0812	-2.9854	-2.8479	-3.0687	-2.7229	-2.9437	-3.0667	-2.7125	-2.9604	-3.0521	27.214	120.939	194.306	139.225	41.765	-41.971	225.822	159.304	197.743	-45.338	157.729	204.326	-48.223	166.684	144.438	222.583	0.0011813	0.0010744	0.00010034	1008.5	9.8532e-06	6.5652e-06	953.18	328.4	1.0274e-05	1.6069e-05	427.33	161.9	121.74	45.912	1.2862e-05	68.736	0.0009384	0.00092811	0.00026364	969.78	1.0013e-05	1.049e-05	915.35	315.54	1.0308e-05	1.0035e-05	411.85	155.56	119.7	44.881	1.0002e-05	66.028	72.483	-53.089	25.764	-94.952	80.721	9.906	-96.358	-88.742	-23.324	23.956	-91.474	-86.381	-84.342	-77.702	17.314	-81.980	-8191	255	
#DATA ENDS
