BOXY.EXE: ISS Imagent and Oximeter Data Acquisition Program Version 0.80
Ascii Record File

#ACQ INFORMATION
2  Detector Channels 
16  External MUX Channels 
1  Auxiliary Channels 
5000  Waveform (CCF) Frequency (Hz)
1  Waveforms Skipped 
30  Waveforms Averaged 
1  Cycles Averaged 
16  Acquisitions per Waveform 
10.0806  Updata Rate (Hz) 

#FILE INFORMATION
TRUE -- External MUX Channel results are PARSED.
FALSE -- AC DC and Phase are NOT grouped.
TRUE -- Companion Program Settings File CREATED.
FALSE -- AC data not excluded
FALSE -- DC data not excluded
FALSE -- Phase data not excluded
FALSE -- Auxillary Chn. data not excluded
Tab delimiters

#CALIBRATION STATE
TRUE -- Waveform Calibration Values APPLIED.


#AUX CALIBRATION VALUES
Val Type	aux-1	

Term	1.0000e+00	
Factor	0.0000e+00	


#WF CALIBRATION VALUES
A = Detector Channel
Val Type	A-AC1	A-AC2	A-AC3	A-AC4	A-AC5	A-AC6	A-AC7	A-AC8	A-AC9	A-AC10	A-AC11	A-AC12	A-AC13	A-AC14	A-AC15	A-AC16	A-DC1	A-DC2	A-DC3	A-DC4	A-DC5	A-DC6	A-DC7	A-DC8	A-DC9	A-DC10	A-DC11	A-DC12	A-DC13	A-DC14	A-DC15	A-DC16	A-Ph1	A-Ph2	A-Ph3	A-Ph4	A-Ph5	A-Ph6	A-Ph7	A-Ph8	A-Ph9	A-Ph10	A-Ph11	A-Ph12	A-Ph13	A-Ph14	A-Ph15	A-Ph16	

Term	0.00000e+00	0.00000e+00	0.00000e+00	0.00000e+00	0.00000e+00	0.00000e+00	0.00000e+00	0.00000e+00	0.00000e+00	0.00000e+00	0.00000e+00	0.00000e+00	0.00000e+00	0.00000e+00	0.00000e+00	0.00000e+00	0.00000e+00	0.00000e+00	0.00000e+00	0.00000e+00	0.00000e+00	0.00000e+00	0.00000e+00	0.00000e+00	0.00000e+00	0.00000e+00	0.00000e+00	0.00000e+00	0.00000e+00	0.00000e+00	0.00000e+00	0.00000e+00	0.00000e+00	0.00000e+00	0.00000e+00	0.00000e+00	0.00000e+00	0.00000e+00	0.00000e+00	0.00000e+00	0.00000e+00	0.00000e+00	0.00000e+00	0.00000e+00	0.00000e+00	0.00000e+00	0.00000e+00	0.00000e+00	
Factor	1.00000e+00	1.00000e+00	1.00000e+00	1.00000e+00	1.00000e+00	1.00000e+00	1.00000e+00	1.00000e+00	1.00000e+00	1.00000e+00	1.00000e+00	1.00000e+00	1.00000e+00	1.00000e+00	1.00000e+00	1.00000e+00	1.00000e+00	1.00000e+00	1.00000e+00	1.00000e+00	1.00000e+00	1.00000e+00	1.00000e+00	1.00000e+00	1.00000e+00	1.00000e+00	1.00000e+00	1.00000e+00	1.00000e+00	1.00000e+00	1.00000e+00	1.00000e+00	X	X	X	X	X	X	X	X	X	X	X	X	X	X	X	X	

B = Detector Channel
Val Type	B-AC1	B-AC2	B-AC3	B-AC4	B-AC5	B-AC6	B-AC7	B-AC8	B-AC9	B-AC10	B-AC11	B-AC12	B-AC13	B-AC14	B-AC15	B-AC16	B-DC1	B-DC2	B-DC3	B-DC4	B-DC5	B-DC6	B-DC7	B-DC8	B-DC9	B-DC10	B-DC11	B-DC12	B-DC13	B-DC14	B-DC15	B-DC16	B-Ph1	B-Ph2	B-Ph3	B-Ph4	B-Ph5	B-Ph6	B-Ph7	B-Ph8	B-Ph9	B-Ph10	B-Ph11	B-Ph12	B-Ph13	B-Ph14	B-Ph15	B-Ph16	

Term	0.00000e+00	0.00000e+00	0.00000e+00	0.00000e+00	0.00000e+00	0.00000e+00	0.00000e+00	0.00000e+00	0.00000e+00	0.00000e+00	0.00000e+00	0.00000e+00	0.00000e+00	0.00000e+00	0.00000e+00	0.00000e+00	0.00000e+00	0.00000e+00	0.00000e+00	0.00000e+00	0.00000e+00	0.00000e+00	0.00000e+00	0.00000e+00	0.00000e+00	0.00000e+00	0.00000e+00	0.00000e+00	0.00000e+00	0.00000e+00	0.00000e+00	0.00000e+00	-8.38749e+01	-1.27561e+02	-1.29383e+02	-1.82058e+02	-6.19891e+01	-7.14628e+01	-1.55747e+02	-1.62015e+02	-5.82974e+01	-6.86231e+01	-1.71238e+02	-1.71237e+02	-1.82061e+02	-1.77401e+02	-5.37240e+01	-1.50384e+02	
Factor	1.42709e-05	1.38839e-04	3.86687e-05	4.05436e-01	1.18614e-06	1.51150e-06	1.47071e-01	4.85511e-02	1.02166e-06	1.47325e-06	7.65610e-02	2.53067e-02	2.09732e-02	7.51348e-03	1.33112e-06	1.08675e-02	6.93059e-06	9.99898e-06	2.78233e-06	2.11537e-01	1.08082e-07	1.11375e-07	7.28781e-02	2.56159e-02	1.03966e-07	1.10888e-07	3.90711e-02	1.30328e-02	1.12180e-02	3.99480e-03	1.06624e-07	5.59534e-03	X	X	X	X	X	X	X	X	X	X	X	X	X	X	X	X	



#DISTANCE SETTINGS
A = Detector Channel
A-1	A-2	A-3	A-4	A-5	A-6	A-7	A-8	A-9	A-10	A-11	A-12	A-13	A-14	A-15	A-16	

2.5000e+00	3.0000e+00	2.5000e+00	3.0000e+00	2.0000e+00	3.0000e+00	1.5000e+00	3.0000e+00	3.0000e+00	3.0000e+00	3.0000e+00	3.0000e+00	3.0000e+00	3.0000e+00	1.5000e+00	3.0000e+00	

B = Detector Channel
B-1	B-2	B-3	B-4	B-5	B-6	B-7	B-8	B-9	B-10	B-11	B-12	B-13	B-14	B-15	B-16	

1.0000e+01	1.0000e+01	1.0000e+01	1.4400e+00	1.0000e+01	1.0000e+01	1.5100e+00	1.9400e+00	1.0000e+01	1.0000e+01	1.9900e+00	2.4900e+00	2.4100e+00	2.9000e+00	1.0000e+01	2.9800e+00	




#DATA BEGINS
time	group	step	mark	flag	A-AC1	A-AC2	A-AC3	A-AC4	A-AC5	A-AC6	A-AC7	A-AC8	A-AC9	A-AC10	A-AC11	A-AC12	A-AC13	A-AC14	A-AC15	A-AC16	A-DC1	A-DC2	A-DC3	A-DC4	A-DC5	A-DC6	A-DC7	A-DC8	A-DC9	A-DC10	A-DC11	A-DC12	A-DC13	A-DC14	A-DC15	A-DC16	A-Ph1	A-Ph2	A-Ph3	A-Ph4	A-Ph5	A-Ph6	A-Ph7	A-Ph8	A-Ph9	A-Ph10	A-Ph11	A-Ph12	A-Ph13	A-Ph14	A-Ph15	A-Ph16	B-AC1	B-AC2	B-AC3	B-AC4	B-AC5	B-AC6	B-AC7	B-AC8	B-AC9	B-AC10	B-AC11	B-AC12	B-AC13	B-AC14	B-AC15	B-AC16	B-DC1	B-DC2	B-DC3	B-DC4	B-DC5	B-DC6	B-DC7	B-DC8	B-DC9	B-DC10	B-DC11	B-DC12	B-DC13	B-DC14	B-DC15	B-DC16	B-Ph1	B-Ph2	B-Ph3	B-Ph4	B-Ph5	B-Ph6	B-Ph7	B-Ph8	B-Ph9	B-Ph10	B-Ph11	B-Ph12	B-Ph13	B-Ph14	B-Ph15	B-Ph16	aux-1	digaux	

26325.189	1	1	0	256	0.35041	0.22982	0.14905	0.01623	0.29629	0.17458	0.13715	0.057685	0.19629	0.28159	0.35518	0.059305	0.1946	0.30938	0.20635	0.12683	-2.4417	-2.475	-2.8292	-2.8875	-2.4771	-2.8438	-2.9271	-2.8083	-2.8542	-2.6167	-2.825	-2.9292	-2.6292	-3.0083	-2.9437	-2.6729	11.107	10.939	285.460	170.036	175.535	288.597	218.757	216.161	249.520	227.032	270.640	293.756	318.923	-3.848	248.015	216.144	0.00020244	0.0012166	0.00032356	650.74	1.2423e-05	2.1828e-05	1040.6	154.64	8.3091e-06	9.4606e-06	340.62	119.72	48.639	19.654	1.1455e-05	57.205	0.012601	0.018003	0.005086	975.24	0.00019411	0.00020052	1096.3	189.5	0.00018478	0.00019532	389.69	136.36	65.265	25.301	0.00018797	63.491	220.120	308.512	132.909	-23.001	142.429	254.183	-22.979	-18.144	178.623	297.174	-18.258	-13.552	-13.539	-9.098	228.475	-9.264	-8191	255	
26325.264	1	1	0	0	0.095225	0.096385	0.11133	0.22071	0.20804	0.21707	0.25746	0.066781	0.14214	0.08537	0.081756	0.15657	0.23005	0.20215	0.20578	0.23088	-2.6333	-2.675	-2.7708	-2.9521	-2.7979	-2.9458	-2.8688	-2.6833	-2.875	-2.6354	-2.7833	-3.0792	-2.6521	-2.8646	-2.7958	-2.8792	25.719	155.063	-30.514	188.066	178.826	37.136	277.238	-12.799	192.009	39.907	33.948	317.666	308.951	279.188	281.548	226.512	0.00026062	0.001477	0.00044575	653.72	9.0564e-06	1.083e-05	1047.2	156.08	6.4271e-06	9.816e-07	345	121.61	48.864	19.771	1.8643e-05	57.643	0.012272	0.017614	0.0049087	966.31	0.00018884	0.00020054	1097.6	189.78	0.00017989	0.00018969	388.55	136.49	65.046	25.395	0.00018192	64.136	169.272	113.727	193.251	-24.149	109.179	64.469	-22.913	-18.179	235.627	152.317	-18.398	-13.316	-12.972	-8.926	25.951	-8.926	-8191	255	
26325.359	1	1	0	0	0.1083	0.02616	0.052704	0.077841	0.078748	0.060495	0.37843	0.11929	0.10545	0.11694	0.10743	0.23779	0.062134	0.12604	0.082094	0.19527	-2.425	-2.7292	-2.75	-2.9896	-2.7812	-2.9604	-2.8625	-2.6667	-2.8708	-2.7021	-2.7562	-2.975	-2.6125	-2.8271	-2.8354	-2.7188	121.864	53.285	265.227	-7.419	20.394	106.729	269.253	299.123	169.747	56.825	302.255	-13.032	72.028	84.525	78.297	235.749	0.00022071	0.0013057	0.00021035	655.2	1.1298e-05	1.317e-05	1049.8	155.3	1.3418e-05	1.7172e-05	345.25	120.86	49.152	19.925	9.7568e-06	57.667	0.011901	0.017005	0.0047765	952.82	0.0001812	0.00018861	1094.3	186.03	0.00016856	0.00017987	384.99	134.63	63.38	24.791	0.00016525	62.605	170.665	170.031	162.384	-23.222	127.858	100.861	-23.083	-18.352	259.661	-15.736	-18.159	-12.860	-13.472	-8.594	283.460	-9.056	-8191	255	
26325.479	1	1	0	0	0.1746	0.21824	0.22446	0.072799	0.13776	0.27827	0.16089	0.30905	0.20127	0.21028	0.22941	0.20344	0.39709	0.40972	0.10407	0.453	-2.4875	-2.7042	-2.7188	-2.9729	-2.6875	-2.8104	-2.9583	-2.9208	-2.925	-2.8792	-2.7646	-3.0563	-2.5687	-2.8625	-2.9292	-2.6271	71.780	96.498	115.381	-19.263	147.507	194.302	253.196	222.642	43.869	233.420	211.543	-33.905	231.913	254.339	180.334	286.088	0.00022403	0.00081557	0.00068476	639.11	9.0551e-07	9.5441e-06	1031.7	152.54	1.2532e-05	8.1959e-06	338.37	119.73	48.135	19.473	8.4398e-06	56.571	0.010817	0.015443	0.0043304	914.4	0.00016536	0.00017615	1067.2	181.26	0.00015971	0.00017026	375.6	132.39	62.459	24.431	0.00016567	61.784	215.917	150.533	99.501	-23.666	154.815	227.439	-23.229	-18.149	101.208	262.394	-18.013	-13.233	-13.418	-9.198	158.521	-9.158	-8191	255	
26325.574	1	1	0	0	0.030324	0.054788	0.11244	0.21538	0.19289	0.094444	0.24674	0.062433	0.19067	0.39934	0.11103	0.1588	0.18081	0.15679	0.19685	0.056976	-2.425	-2.7479	-2.6396	-2.7479	-2.7042	-2.9771	-2.9708	-2.5271	-2.8958	-2.7646	-2.7896	-3.0125	-2.8042	-2.6583	-2.8542	-2.8667	0.098	-20.672	293.013	-34.101	73.564	320.280	271.943	111.332	56.794	-18.965	240.762	25.265	274.267	132.559	-34.463	-22.215	0.00021452	0.00078792	0.00017556	636.76	8.9907e-06	7.7223e-06	1030.9	153.2	5.9274e-06	1.2974e-05	339.1	119.74	48.645	19.754	5.764e-06	57.46	0.011219	0.015699	0.00438	917.27	0.00016938	0.00017689	1070	182.65	0.00016444	0.00017521	379.54	133.8	63.407	24.809	0.00017021	62.696	186.340	101.527	102.044	-24.341	140.385	-14.300	-22.829	-17.721	26.323	117.175	-18.343	-13.245	-12.934	-8.775	321.249	-8.873	-8191	255	
26325.670	1	1	0	0	0.16619	0.17727	0.10233	0.095721	0.27182	0.11471	0.30595	0.11201	0.15928	0.025421	0.17072	0.35284	0.19721	0.1314	0.10875	0.12393	-2.4062	-3.0687	-2.5958	-3.025	-2.5896	-2.5417	-3.0563	-2.6979	-2.7854	-2.9896	-2.6875	-2.9042	-2.7687	-2.7167	-2.8542	-2.6875	72.372	213.593	166.368	-6.712	125.427	-16.207	283.197	127.827	69.689	-7.815	1.965	246.341	302.859	319.866	-20.382	288.266	0.00012265	0.00044495	1.1313e-05	638.87	1.0009e-05	1.5616e-05	1032.9	153.44	9.542e-06	1.7796e-05	341.13	120.62	48.297	19.706	7.6667e-06	57.681	0.011344	0.016058	0.0044685	926.87	0.00017293	0.00018412	1076	183.71	0.00016638	0.00017626	378.8	134.1	63.354	24.878	0.00016829	62.861	176.057	289.942	147.282	-24.128	116.382	178.904	-22.955	-18.322	80.031	89.048	-18.112	-13.201	-13.707	-8.883	143.001	-9.036	-8191	255	
26325.766	1	1	0	0	0.011837	0.12994	0.17389	0.20124	0.14778	0.19995	0.16674	0.23112	0.16698	0.12809	0.13864	0.10662	0.2124	0.30146	0.13255	0.19991	-2.3646	-2.7167	-2.5146	-2.9521	-2.65	-2.7062	-3.1125	-2.6854	-2.7625	-2.95	-2.7875	-2.8646	-2.7562	-2.7458	-2.9479	-2.8458	83.570	197.010	251.997	215.657	213.039	245.356	258.768	252.251	243.649	84.059	192.925	202.259	44.171	-3.564	148.969	289.231	0.0001328	0.00044871	0.00023245	634.75	9.0275e-06	7.5811e-06	1039	155.29	1.4282e-05	5.5622e-06	342.88	121.99	49.37	20.073	8.0145e-06	57.927	0.011426	0.015877	0.0044224	924.2	0.00017256	0.00018003	1079.8	184.88	0.00016532	0.00017643	381.07	136.12	63.892	25.204	0.00016938	63.401	192.215	-12.826	195.062	-23.978	118.803	66.245	-22.784	-18.548	92.813	-22.107	-18.018	-12.908	-13.362	-8.590	29.059	-8.504	-8191	255	
26325.887	1	1	0	0	0.18092	0.16792	0.36086	0.20406	0.15051	0.24657	0.26353	0.062257	0.042636	0.1181	0.16493	0.072919	0.039689	0.18223	0.27674	0.2342	-2.4875	-2.9771	-2.5792	-2.8187	-2.9604	-2.5062	-3.0167	-2.675	-2.7854	-2.775	-2.7396	-3.0312	-2.8708	-2.65	-3.0208	-3.0062	122.796	239.947	56.009	57.158	76.507	-17.918	234.285	212.321	-14.443	136.101	314.323	267.773	121.040	-23.507	235.217	223.301	0.00028097	0.0028424	0.00030527	635.8	1.5261e-05	9.2553e-06	1031.1	155.1	4.757e-06	1.1047e-05	339.17	121	48.229	19.861	6.8421e-06	57.261	0.011203	0.015819	0.0044012	925.25	0.00017302	0.00018256	1076.5	184.63	0.00016649	0.00017861	380.01	135.47	63.95	25.018	0.00017309	62.84	201.397	123.990	39.277	-23.316	153.242	56.061	-22.881	-18.278	2.945	55.684	-18.156	-13.057	-13.227	-8.975	31.472	-8.801	-8191	255	
26325.959	1	1	0	0	0.091158	0.30663	0.22695	0.34771	0.15159	0.21802	0.23865	0.12561	0.2143	0.072997	0.30705	0.2354	0.12292	0.11871	0.081758	0.23987	-2.3396	-2.7708	-2.4771	-2.6146	-3.0125	-2.75	-2.9479	-2.7083	-2.8375	-3.0563	-2.5521	-2.8312	-2.9062	-2.75	-2.9979	-2.7042	113.483	128.336	162.402	315.437	277.859	281.872	245.198	176.649	149.420	180.567	285.035	248.919	289.319	306.734	134.314	211.455	0.00026905	0.0001419	0.00037924	628.95	1.7867e-05	6.6008e-06	1030.2	153.67	5.4818e-06	4.1668e-06	340.58	119.67	48.706	19.761	1.6847e-05	57.227	0.011697	0.016353	0.0045029	930.52	0.00017589	0.00018134	1073.1	184.67	0.00016911	0.00018164	379.74	135.16	63.991	24.997	0.00017488	63.029	179.395	41.574	3.513	-23.826	153.062	179.926	-23.002	-18.478	152.571	109.155	-18.248	-12.943	-13.439	-8.662	107.641	-8.711	-8191	255	
26326.078	1	1	0	0	0.28297	0.19241	0.15542	0.086851	0.10584	0.10085	0.21459	0.21384	0.13476	0.25216	0.2034	0.23396	0.15492	0.034929	0.04592	0.14966	-2.1688	-2.8292	-2.6771	-2.7417	-2.875	-2.6562	-3.0563	-2.8187	-2.4313	-2.9583	-2.7792	-2.7021	-3.0104	-2.7	-2.9958	-2.9604	149.362	254.457	-4.698	323.744	187.115	-5.018	259.163	239.409	-33.252	124.690	298.794	220.393	285.677	9.116	95.538	-16.516	0.00024282	0.00091615	0.00035534	624.68	1.0324e-05	1.1938e-05	1027.5	153.58	1.1759e-05	1.3939e-05	340.2	120.69	48.127	19.863	1.0337e-05	57.708	0.011484	0.016319	0.0045292	925.25	0.00017466	0.00018021	1075.2	184.72	0.00016786	0.00017993	379.73	135.25	63.923	25.002	0.0001733	63.009	209.709	83.870	97.498	-23.550	219.791	32.669	-23.155	-18.271	25.587	102.883	-18.383	-12.841	-13.076	-9.564	146.132	-9.018	-8191	255	
26326.176	1	1	0	0	0.22001	0.13353	0.067708	0.22492	0.085259	0.19277	0.24694	0.087349	0.15896	0.12255	0.13884	0.38745	0.28908	0.17405	0.13084	0.13928	-2.1042	-2.8646	-2.7188	-2.6896	-2.9583	-2.6354	-3.1208	-2.9875	-2.55	-3.0479	-2.8396	-2.7812	-3.0292	-2.6521	-2.8688	-3.0896	285.600	136.159	14.308	267.427	79.317	192.948	216.424	246.268	58.439	258.487	22.401	247.849	225.849	5.028	244.045	190.494	0.00018559	0.00092997	0.00068242	636.41	3.291e-06	1.662e-05	1025.4	154.12	1.4935e-05	4.5775e-06	339.71	121.02	48.892	20.01	6.2259e-06	57.463	0.011548	0.016204	0.0045087	927.5	0.00017541	0.00018026	1076.5	185.03	0.00016808	0.00018068	382.14	136.17	64.196	25.161	0.00017376	63.302	177.475	186.685	318.844	-23.263	136.263	145.461	-22.839	-18.221	109.469	85.088	-18.735	-12.927	-13.233	-8.721	218.762	-9.037	-8191	255	
26326.270	1	1	0	0	0.11187	0.068466	0.14735	0.15326	0.13359	0.24798	0.1747	0.18057	0.13118	0.26126	0.14214	0.15525	0.29859	0.24354	0.084556	0.038808	-2.1854	-2.7521	-2.5458	-2.7771	-2.9479	-2.6979	-3.0104	-2.9208	-2.6958	-3.0042	-2.9354	-2.7979	-2.8688	-2.725	-2.8979	-3.0708	44.017	85.567	83.245	262.471	60.506	181.973	149.560	252.077	237.050	31.193	257.787	303.225	274.663	-34.276	227.136	291.002	0.00023447	0.00066771	0.00032236	637.15	1.4951e-05	5.958e-06	1033.6	154.68	1.403e-05	7.5724e-06	340.75	120.46	48.795	19.898	3.8938e-06	57.018	0.011416	0.016359	0.0045412	930.29	0.00017524	0.00018143	1080.6	185.78	0.00016848	0.00018173	381.65	135.48	64.278	25.074	0.00017373	62.882	190.372	232.410	178.392	-23.470	189.196	142.761	-22.705	-18.614	155.604	121.087	-18.064	-13.254	-13.528	-8.859	16.383	-8.834	-8191	255	
26326.365	1	1	0	0	0.031295	0.30635	0.055949	0.26818	0.13147	0.24988	0.063404	0.16445	0.11874	0.15899	0.17441	0.1019	0.043036	0.3486	0.036667	0.13195	-2.0438	-2.7729	-2.8583	-2.5125	-2.8354	-2.6458	-2.7938	-3.1125	-2.5979	-2.9625	-2.9479	-2.7521	-2.7917	-2.6521	-2.7854	-3.1937	249.146	90.291	49.942	118.634	245.102	317.784	56.513	279.357	276.930	308.241	248.971	198.952	137.811	-14.064	-4.513	209.501	0.00014995	0.0009126	0.00025366	638.41	6.8382e-06	1.7483e-05	1024.1	152.83	5.8142e-06	1.0309e-05	335.22	120	48.207	19.641	4.3189e-06	56.8	0.011434	0.016755	0.0045437	924.29	0.00017598	0.00017991	1069.4	183.87	0.00016802	0.0001807	377.38	134.49	63.873	24.911	0.00017551	62.661	134.503	203.775	312.782	-23.450	-26.546	147.945	-22.827	-18.556	214.519	113.610	-18.036	-12.962	-13.677	-9.386	118.890	-9.187	-8191	255	
26326.486	1	1	0	0	0.31163	0.10448	0.071416	0.31655	0.16272	0.19421	0.14977	0.29646	0.028305	0.17482	0.27483	0.15298	0.15181	0.095285	0.10166	0.22711	-2.1854	-2.85	-2.925	-2.7188	-2.9188	-2.9125	-2.9458	-2.7458	-2.5625	-2.7687	-2.8771	-2.7562	-2.8021	-2.9083	-2.7042	-3.1104	217.984	-31.455	288.438	142.017	121.929	131.942	289.401	0.117	232.225	-29.202	290.192	227.337	57.887	135.000	154.964	249.282	0.00022355	0.0011986	0.00036968	637.27	7.414e-06	2.2364e-05	1021.4	152.32	1.3675e-05	1.8409e-05	341.13	119.69	48.894	19.815	1.4362e-05	57.61	0.011431	0.016577	0.0045835	925.98	0.00017846	0.0001831	1072.6	184.4	0.00017117	0.00018362	380.16	135.12	64.511	25.225	0.00017638	63.498	224.939	106.924	90.491	-23.747	174.141	173.178	-22.884	-18.068	18.221	83.588	-18.422	-13.301	-13.505	-8.755	98.458	-9.155	-8191	255	
26326.559	1	1	0	0	0.028138	0.10447	0.3289	0.31044	0.11709	0.27103	0.1458	0.070532	0.032735	0.37381	0.098057	0.35502	0.04977	0.23527	0.16172	0.15728	-2.2812	-2.8583	-2.8187	-2.4417	-2.8896	-2.7687	-2.6646	-3.0354	-2.6854	-2.7646	-2.9333	-2.7104	-3.0021	-2.8542	-2.7	-3.1354	229.882	181.899	320.988	43.230	292.867	41.289	197.057	276.953	302.975	200.398	272.226	299.054	56.213	-5.640	258.877	-0.143	0.00028623	0.0014205	0.00024171	634.26	1.2348e-05	1.9781e-05	1027.9	152.7	5.3011e-06	7.9949e-06	339.2	120.14	48.659	20.05	1.7248e-05	58.302	0.01149	0.017045	0.0046254	933.86	0.00018027	0.0001844	1075.5	185.67	0.00017235	0.00018515	382.47	135.49	65.22	25.407	0.00017678	64.05	233.519	311.722	50.144	-23.758	22.997	182.870	-22.836	-18.133	105.185	58.788	-17.880	-13.029	-13.425	-8.917	68.840	-9.065	-8191	255	
26326.654	1	1	0	0	0.14457	0.11841	0.034878	0.12704	0.12555	0.2017	0.0932	0.19994	0.020169	0.086255	0.21879	0.18809	0.36427	0.18115	0.088849	0.061759	-2.1521	-2.6083	-2.7562	-2.5854	-2.8208	-2.7833	-2.8729	-2.7542	-2.7146	-2.675	-3.0333	-2.5146	-2.7	-2.6792	-2.475	-2.9708	83.777	157.381	65.869	85.606	52.253	73.837	296.399	-10.539	118.123	45.067	320.627	317.362	247.244	215.266	119.183	-7.818	0.00014528	0.0013378	0.0001724	633.29	8.0714e-06	6.9244e-06	1029.7	156.43	2.3879e-05	1.5836e-05	341.64	121.96	49.837	20.171	5.0167e-06	58.628	0.01158	0.016819	0.004613	934.44	0.00018109	0.00018328	1083	187.55	0.00017264	0.0001848	383.27	136.84	65.625	25.618	0.00017626	64.51	208.530	284.068	267.967	-23.919	110.921	66.124	-23.186	-17.846	161.507	241.335	-18.435	-13.066	-13.036	-8.826	167.046	-8.845	-8191	255	
26326.752	1	1	0	0	0.088561	0.14469	0.19063	0.2022	0.27509	0.091259	0.16446	0.30648	0.52418	0.030453	0.090456	0.40446	0.1068	0.14476	0.12896	0.071565	-2.2458	-2.5687	-2.8396	-2.5625	-2.8708	-3.0187	-2.7354	-2.9313	-2.6458	-2.6188	-3.0417	-2.875	-2.8208	-2.9208	-2.7021	-3.0333	172.208	305.158	103.262	33.151	-23.710	75.602	256.170	67.664	165.054	268.779	200.122	277.822	321.724	284.828	127.140	226.640	0.00020295	0.00087905	0.00022806	629.91	6.6323e-06	3.3267e-06	1028.1	152.86	7.4645e-06	1.4895e-05	340	121.04	48.755	19.773	1.4654e-05	57.958	0.01153	0.017086	0.0046597	938.54	0.00018056	0.00018553	1077.6	186.17	0.00017356	0.00018382	382.12	135.81	65.221	25.4	0.00017658	63.841	162.991	-32.945	131.257	-23.494	272.664	79.202	-23.136	-18.273	196.003	184.353	-18.710	-13.478	-13.052	-8.932	56.306	-8.832	-8191	255	
26326.848	1	1	0	0	0.24934	0.24849	0.11711	0.18448	0.36045	0.10135	0.17223	0.13479	0.20666	0.31867	0.28451	0.41556	0.28913	0.10081	0.13366	0.20842	-2.25	-2.5792	-2.9854	-2.6437	-2.9042	-2.9688	-2.7958	-2.8979	-2.8125	-2.4854	-2.9271	-2.6042	-2.6896	-3.0312	-2.6167	-2.8854	229.027	228.928	264.199	313.871	228.283	-31.534	87.547	11.611	224.883	173.587	294.621	262.256	316.685	-12.406	107.944	234.313	0.00036556	0.0020584	0.00022852	632.95	1.2948e-05	2.5188e-05	1026.2	153.24	2.3938e-06	6.3311e-06	343.1	120.56	49.141	20.164	1.3516e-05	58.23	0.011648	0.016845	0.0046499	937.15	0.00018043	0.00018521	1072.3	187.12	0.00017097	0.00018215	382.21	135.4	64.932	25.385	0.00017511	63.933	162.062	21.739	-35.245	-23.679	199.184	-18.723	-22.830	-18.142	95.570	110.719	-18.479	-13.230	-13.384	-8.874	293.590	-8.833	-8191	255	
26326.967	1	1	0	0	0.239	0.13089	0.25995	0.088684	0.23894	0.22668	0.25296	0.15619	0.17308	0.17042	0.29168	0.16954	0.26512	0.1972	0.31095	0.16325	-2.4708	-2.5208	-2.8854	-2.7146	-2.5396	-3.0229	-2.7917	-3.0042	-2.7667	-2.7521	-2.9708	-2.7771	-2.6729	-2.9813	-2.6021	-2.8104	72.785	193.519	20.749	86.971	38.768	149.664	285.175	253.645	128.878	282.631	-26.061	242.065	96.823	-1.581	217.735	230.717	0.00019295	0.0013239	0.00066199	634.14	2.8648e-06	2.1427e-05	1027.4	155.65	1.5124e-05	2.1443e-05	340.26	121.29	49.482	20.294	1.8712e-05	58.408	0.011549	0.016807	0.0046541	936.27	0.00018077	0.00018548	1078	187.49	0.00017194	0.00018443	383.15	136.04	65.747	25.617	0.00017578	64.167	203.803	23.441	296.541	-23.492	203.726	46.609	-22.986	-18.349	187.505	91.774	-18.228	-13.280	-13.285	-8.718	127.502	-9.182	-8191	255	
26327.064	1	1	0	0	0.10288	0.027106	0.16971	0.11151	0.15576	0.13485	0.2046	0.246	0.19623	0.10726	0.20567	0.15096	0.14082	0.13971	0.18105	0.07291	-2.3958	-2.5396	-3.0812	-2.6833	-2.8	-2.95	-2.7292	-2.8125	-2.8479	-2.4792	-2.9104	-2.9979	-2.8458	-2.975	-2.8208	-2.9771	282.442	53.955	273.113	248.439	218.147	50.708	1.578	240.335	155.504	184.220	237.616	8.618	1.815	265.145	314.737	208.825	0.00013344	0.0014645	0.00022707	638.01	7.49e-06	1.2863e-05	1033.5	155.01	1.2773e-05	1.8376e-05	343.42	121.51	49.519	20.248	8.7793e-06	58.626	0.011632	0.016682	0.0046859	940.87	0.00018016	0.00018733	1081.1	188.97	0.0001745	0.00018641	385.12	136.81	65.669	25.87	0.00017883	64.554	188.168	78.997	127.872	-23.837	205.647	313.377	-22.937	-17.757	185.845	86.368	-18.057	-12.991	-13.989	-8.928	322.340	-8.853	-8191	255	
26327.160	1	1	0	0	0.032667	0.15925	0.092292	0.12492	0.14472	0.069981	0.31178	0.36569	0.27305	0.14255	0.28508	0.24974	0.074704	0.13133	0.11969	0.28245	-2.5042	-2.4813	-2.9271	-2.8958	-2.7167	-3.0354	-2.8167	-2.6125	-2.9292	-2.5396	-2.9979	-2.9333	-2.6063	-3.0708	-2.925	-2.9521	19.036	263.857	306.258	-35.771	35.150	77.909	284.342	309.761	234.835	182.951	284.953	276.194	45.592	-1.012	240.074	199.212	8.5348e-05	0.0017433	0.00019916	634.25	5.711e-06	9.827e-06	1035	155.51	1.2973e-05	2.3913e-05	341.95	121.61	49.117	20.059	8.4108e-06	57.557	0.011755	0.016823	0.0048404	943.82	0.0001813	0.00018806	1083.3	188.72	0.0001744	0.00018495	383.07	135.95	65.165	25.444	0.00017879	63.378	215.244	18.539	26.929	-23.633	107.767	64.008	-22.912	-17.848	201.086	182.516	-18.108	-13.042	-14.245	-8.775	129.585	-8.987	-8191	255	
26327.256	1	1	0	0	0.12348	0.19364	0.29065	0.17858	0.27192	0.12519	0.41453	0.21518	0.14634	0.058885	0.28335	0.03572	0.18343	0.32435	0.24239	0.090424	-2.4625	-2.5229	-2.8479	-2.8	-2.5354	-3.0312	-2.9458	-2.6146	-3.0875	-2.7	-2.85	-2.9062	-2.6042	-3.2188	-2.7208	-2.8292	251.198	184.641	-35.354	40.073	292.889	180.898	308.104	229.519	265.903	209.730	256.046	121.593	305.457	207.673	317.674	-32.159	0.00022334	0.0027713	8.7726e-05	629.8	4.6428e-06	1.5081e-05	1023.2	152.96	4.5479e-06	2.279e-05	338.64	118.88	48.926	19.904	1.221e-05	57.179	0.011639	0.016628	0.0047148	933.4	0.00017944	0.00018727	1072.9	186.84	0.00017366	0.0001851	380.34	134.62	64.487	25.393	0.00017811	63.034	180.059	322.684	317.031	-23.579	254.191	156.114	-22.951	-18.076	1.738	111.631	-18.299	-13.181	-13.377	-8.827	253.742	-8.990	-8191	255	
26327.350	1	1	0	0	0.24065	0.19824	0.43419	0.29014	0.072947	0.11163	0.22163	0.20143	0.25602	0.1274	0.1531	0.27582	0.24961	0.18274	0.13229	0.092794	-2.6271	-2.65	-2.5	-2.8146	-2.5604	-3.0104	-2.9479	-2.7188	-2.8167	-2.7021	-2.9229	-3.0708	-2.6167	-2.9083	-2.7938	-2.6437	219.798	-9.734	109.589	310.714	147.523	189.423	278.665	183.928	48.660	266.312	-18.170	17.383	-18.539	254.660	172.866	-8.369	0.00021432	0.0017502	4.1872e-05	645.1	9.9294e-06	9.4265e-06	1024.1	153.2	7.1191e-06	1.6809e-05	337.29	120.44	49.373	19.887	7.1262e-06	57.38	0.011755	0.016642	0.0047652	941.66	0.00018064	0.00018722	1075.2	186.23	0.00017391	0.00018449	380.44	135.5	64.76	25.598	0.00017831	63.393	198.905	89.570	297.445	-23.949	61.511	-31.173	-22.994	-18.178	14.609	258.969	-18.148	-13.356	-13.219	-9.070	217.202	-9.119	-8191	255	
26327.447	1	1	0	0	0.48966	0.21131	0.039329	0.10357	0.071966	0.016857	0.31839	0.1589	0.11392	0.081314	0.039948	0.10516	0.26806	0.257	0.23517	0.072106	-2.4583	-2.6979	-2.6708	-2.8812	-2.7792	-2.8187	-2.9292	-2.6271	-3.0292	-2.6729	-2.8021	-3.0687	-2.6083	-2.8542	-2.8271	-2.6458	272.433	201.287	37.869	30.897	60.826	120.600	224.988	0.070	226.304	265.949	314.914	231.614	-30.838	238.767	73.800	124.959	0.0001904	0.00089975	0.00059441	639.02	5.7065e-06	1.7786e-05	1030.5	154.19	1.336e-05	1.4558e-06	340.93	120.46	48.574	19.932	9.315e-06	57.751	0.011658	0.016762	0.0047091	945.69	0.00018067	0.00018711	1077.8	187.61	0.00017537	0.00018568	382.21	135.78	64.981	25.573	0.00017773	63.771	171.510	164.135	-19.440	-23.911	49.856	46.013	-23.019	-18.432	262.431	43.651	-18.067	-13.222	-13.063	-9.176	71.878	-8.832	-8191	255	
26327.566	1	1	0	0	0.12756	0.017344	0.44389	0.15261	0.31539	0.15024	0.166	0.13498	0.19798	0.063584	0.16791	0.21449	0.096959	0.035566	0.33449	0.16454	-2.425	-2.7083	-2.7792	-2.8729	-2.6292	-2.8208	-3.2146	-2.7542	-3.0271	-2.8	-2.7687	-3.0771	-2.6229	-2.7604	-2.8667	-2.6979	296.986	204.567	-23.993	43.356	-25.815	44.452	232.236	24.460	246.972	30.006	190.689	-6.800	164.769	258.366	70.414	185.387	0.00027785	0.0021992	0.0003504	639.58	6.5806e-06	1.6891e-05	1030.3	155.49	6.7973e-06	3.0154e-05	342.03	120.94	49.21	20.221	9.0081e-06	57.691	0.011713	0.016746	0.0047937	941.32	0.00018092	0.00018612	1080	187.33	0.00017508	0.00018379	383.6	136.12	65.072	25.692	0.00017737	63.573	164.877	-20.181	34.621	-23.575	27.948	297.483	-22.700	-18.286	226.100	146.807	-18.473	-13.189	-13.540	-8.739	29.242	-9.379	-8191	255	
26327.662	1	1	0	0	0.085956	0.1569	0.14414	0.14406	0.078309	0.10061	0.080854	0.14642	0.13765	0.19555	0.31704	0.29007	0.12394	0.20407	0.2197	0.25861	-2.4729	-2.6937	-2.7792	-2.9146	-2.8	-2.7562	-2.9938	-2.7417	-2.7313	-2.6625	-2.825	-3.0479	-2.5229	-2.9354	-2.9583	-2.7917	-10.917	5.842	19.360	80.850	247.331	277.207	267.604	53.475	17.437	54.365	-33.012	285.439	119.339	18.591	-27.174	272.125	0.00023183	0.0016231	0.00025909	634.32	8.6986e-06	2.3381e-05	1023	154.21	1.5273e-05	2.4684e-06	336.95	118.99	48.392	19.93	2.0646e-05	56.748	0.011587	0.016547	0.0046717	938.68	0.00017972	0.00018493	1070.3	185.55	0.00017787	0.00018415	378.4	134.24	64.205	25.224	0.00017689	62.695	214.637	178.853	-2.046	-22.991	266.674	113.648	-23.122	-18.502	172.967	227.834	-18.372	-13.250	-13.988	-8.848	15.620	-9.509	-8191	255	
26327.760	1	1	0	0	0.053473	0.11217	0.14947	0.12977	0.1195	0.17592	0.16309	0.25942	0.040187	0.032342	0.35089	0.32382	0.02056	0.12016	0.072644	0.22549	-2.4542	-2.7458	-2.725	-3.0083	-2.9313	-2.6854	-3.0542	-2.7042	-2.8854	-2.9333	-2.7938	-2.9313	-2.525	-2.5979	-2.9313	-2.7042	-7.103	225.021	303.739	55.809	237.859	221.346	257.998	-3.054	102.426	120.367	166.852	44.403	234.058	283.314	-7.254	-31.132	0.00013674	0.0016446	0.00021917	634.54	2.6605e-06	2.1792e-05	1021.8	153.65	1.9257e-06	9.964e-06	338.75	119.24	48.705	19.683	1.2623e-05	56.97	0.011597	0.016562	0.0046915	936.32	0.00017871	0.00018352	1067.7	184.53	0.00017315	0.00018247	378.96	134.05	63.99	25.227	0.00017485	62.734	172.070	63.149	36.834	-23.255	-34.224	99.915	-23.142	-18.034	-2.929	61.576	-18.011	-13.549	-13.027	-8.763	198.391	-9.137	-8191	255	
26327.855	1	1	0	0	0.096914	0.23678	0.10081	0.1287	0.28577	0.27432	0.15433	0.097591	0.099628	0.24325	0.029224	0.082037	0.1616	0.13202	0.154	0.19985	-2.3833	-2.8354	-2.5	-2.925	-2.9292	-2.7875	-3.1333	-2.6625	-2.7625	-2.8417	-2.4583	-3.0125	-2.6875	-2.55	-2.8667	-2.6396	128.542	83.652	239.058	286.895	300.304	132.312	32.085	78.789	-36.135	230.050	75.088	-29.129	-35.766	113.406	312.227	286.674	0.00010268	0.00175	0.00048248	635.33	7.6335e-06	1.7078e-05	1020	152.99	1.551e-05	2.293e-05	338.59	119.66	48.182	19.895	6.0688e-06	57.614	0.011446	0.016388	0.0045598	933.01	0.00017645	0.00018198	1071.6	185.2	0.00017561	0.00018294	379.54	134.44	63.879	25.299	0.00017539	63.147	154.829	54.744	73.482	-23.557	241.970	101.075	-22.804	-18.645	270.049	38.181	-18.286	-13.200	-13.220	-9.058	145.004	-9.144	-8191	255	
26327.951	1	1	0	0	0.21726	0.16749	0.054485	0.097723	0.28613	0.080512	0.39958	0.1542	0.22217	0.13444	0.051163	0.31152	0.25572	0.16664	0.093599	0.30586	-2.1979	-2.7812	-2.5854	-2.8812	-2.6875	-2.6292	-3.2188	-2.6167	-2.7687	-3.0979	-2.6417	-3.0708	-2.8292	-2.7083	-2.9333	-2.7417	-21.141	321.919	134.757	266.930	25.780	268.264	272.902	226.420	192.523	189.315	318.465	238.955	119.836	225.331	148.985	236.521	0.00011591	0.0019761	0.00044751	640.02	1.0017e-05	8.3382e-06	1028.9	154.92	7.9178e-06	6.5745e-06	337.34	121.11	49.02	20.159	4.2956e-06	58.441	0.011435	0.016347	0.0045729	944.32	0.00017709	0.00018178	1077.5	185.57	0.00017262	0.00018192	381.15	135.93	64.601	25.569	0.00017703	63.801	182.512	218.280	107.018	-24.311	103.871	109.741	-22.917	-18.625	126.351	-9.423	-18.263	-13.214	-13.259	-8.746	171.184	-9.229	-8191	255	
26328.049	1	1	0	0	0.14396	0.16297	0.21446	0.18208	0.30234	0.16465	0.35842	0.10836	0.19382	0.10598	0.22076	0.1008	0.11034	0.079237	0.28848	0.35323	-2.3479	-2.9271	-2.5458	-2.8646	-2.7583	-2.7083	-2.9688	-2.6729	-2.9271	-2.7917	-2.7104	-2.8667	-2.8688	-2.7375	-2.8521	-2.8042	90.042	130.036	11.906	228.339	160.696	213.188	262.268	205.306	6.444	197.688	-30.062	270.987	201.203	312.178	167.811	172.141	0.00043094	0.00064277	0.00022714	646.28	8.6066e-06	1.3331e-05	1030	153.49	8.7815e-06	4.8651e-06	337.37	119.64	48.9	20.167	1.4726e-05	57.14	0.011459	0.016535	0.0045817	943.24	0.00017876	0.00018254	1076.2	185.61	0.0001761	0.00018398	379.04	134.71	64.232	25.353	0.00017769	62.996	209.874	52.969	154.804	-22.908	62.067	22.405	-23.360	-17.948	93.332	-16.364	-18.211	-13.028	-13.571	-8.744	120.920	-9.146	-8191	255	
26328.145	1	1	0	0	0.13971	0.19515	0.11125	0.14584	0.17615	0.19268	0.21366	0.19311	0.048415	0.26774	0.19081	0.24451	0.023963	0.14703	0.15154	0.23241	-2.125	-2.8708	-2.625	-2.7458	-2.9979	-2.6458	-3.1625	-2.8979	-2.6229	-2.9146	-2.7583	-2.6937	-2.8729	-2.6813	-2.8792	-2.825	-23.896	63.723	141.890	-23.355	87.052	257.245	208.669	5.011	38.804	22.261	21.430	274.510	246.135	188.185	323.051	241.036	7.5173e-05	0.0012511	0.0002124	640.69	1.16e-05	3.378e-06	1022.3	152.54	4.0803e-06	3.475e-06	337.05	120.05	49.108	19.787	2.1851e-05	56.862	0.011549	0.016632	0.0046041	945.75	0.00017964	0.00018376	1067.2	184.44	0.00017242	0.00018407	377.7	134.64	64.134	25.153	0.00018163	62.881	244.324	119.633	-17.805	-24.193	91.383	290.490	-23.273	-18.130	192.338	64.767	-18.464	-13.406	-13.497	-8.810	81.440	-8.887	-8191	255	
26328.264	1	1	0	0	0.23512	0.20201	0.067251	0.049974	0.09856	0.06045	0.14069	0.19317	0.11376	0.1866	0.15219	0.089113	0.13821	0.067266	0.10045	0.22078	-2.2438	-2.7188	-2.3875	-2.7333	-3.0396	-2.6625	-3.05	-2.8042	-2.6229	-2.8542	-2.8937	-2.7812	-2.8958	-2.5583	-2.7729	-2.975	6.915	300.505	208.147	244.099	110.684	83.467	286.453	47.123	117.032	210.048	-30.043	-20.695	242.766	36.384	285.319	292.824	0.00016648	0.00080529	0.00016815	627.84	1.7196e-05	5.2887e-06	1028.2	153.76	1.4489e-05	1.4968e-05	337.7	120.25	48.79	20.097	1.1925e-05	57.645	0.01152	0.016714	0.004577	936.22	0.00017956	0.00018572	1073.1	185.91	0.0001766	0.0001875	380.63	135.61	64.865	25.469	0.00018154	63.595	169.429	-8.698	200.270	-23.554	5.434	15.889	-23.250	-18.322	141.036	77.133	-18.291	-12.647	-12.971	-9.029	109.093	-9.262	-8191	255	
26328.359	1	1	0	0	0.35177	0.092123	0.063527	0.097715	0.30912	0.11522	0.34043	0.15175	0.14437	0.16022	0.082371	0.17994	0.10141	0.052451	0.25005	0.06273	-2.25	-2.8563	-2.7354	-2.5667	-2.8625	-2.6667	-2.9958	-2.9125	-2.6875	-2.9938	-2.9583	-2.7167	-2.9437	-2.6708	-2.8417	-2.8792	-26.141	169.178	93.420	88.723	281.486	148.226	286.820	253.558	209.752	246.546	-35.798	254.075	216.439	204.425	135.589	24.610	0.00032093	0.00074134	0.00059263	631.77	9.2325e-06	7.0492e-06	1029.7	155.05	1.104e-05	1.1477e-05	341.2	120.99	49.613	20.345	1.7348e-05	58.676	0.011797	0.016771	0.0046924	951.57	0.00018266	0.00018808	1078	187.52	0.00017495	0.0001894	383.57	136.62	65.681	25.859	0.00018642	64.613	177.133	77.913	48.962	-24.024	228.395	149.072	-22.825	-18.414	7.966	175.954	-18.203	-13.363	-13.484	-8.626	278.645	-9.343	-8191	255	
26328.432	1	1	0	0	0.091274	0.072214	0.31691	0.16628	0.056596	0.020619	0.42565	0.12709	0.080365	0.21966	0.086517	0.13513	0.18697	0.30375	0.34141	0.24254	-2.2292	-2.9167	-2.8208	-2.6562	-2.8896	-2.8021	-2.7854	-2.9188	-2.6146	-2.8229	-2.7833	-2.7479	-2.8854	-2.6792	-2.8125	-2.9562	321.221	105.276	144.340	318.366	-36.615	110.637	276.442	-10.015	192.274	297.301	306.688	299.237	-15.978	-4.845	-7.643	280.099	0.00019578	0.0012396	0.00039063	638.03	1.2536e-05	2.0478e-05	1031.2	156.39	1.0104e-05	9.7231e-06	343.14	123.05	50.153	20.24	1.0135e-05	58.389	0.01184	0.016975	0.0046898	952.84	0.00018433	0.00018765	1083.5	189.05	0.00017442	0.00019193	386.42	137.41	65.597	25.742	0.00018205	64.246	171.307	97.040	107.505	-23.716	203.034	82.105	-22.730	-18.730	233.982	223.585	-18.396	-13.282	-13.177	-8.888	-0.264	-9.176	-8191	255	
26328.529	1	1	0	0	0.040049	0.032753	0.091317	0.081739	0.077327	0.20982	0.26378	0.11018	0.26928	0.19101	0.12189	0.30925	0.25007	0.11241	0.04364	0.14719	-2.0375	-2.9375	-2.6188	-2.575	-3.0021	-2.8312	-2.8187	-3.0917	-2.675	-2.7521	-2.975	-2.4667	-2.8563	-2.725	-2.7646	-3.0438	86.299	282.238	234.310	210.536	145.721	118.314	263.642	189.503	305.244	167.944	108.657	247.040	302.585	306.057	167.587	234.000	0.00018579	0.0012948	7.2631e-05	630.75	1.3639e-05	1.2417e-05	1021.6	154.64	6.7186e-06	2.968e-05	338.15	119.88	48.535	19.934	1.0284e-05	56.899	0.011749	0.016964	0.0047131	947.87	0.00018777	0.00019205	1077.2	189.76	0.00018586	0.00020383	387	137.19	67.159	26.28	0.0002094	64.543	228.391	288.281	3.404	-23.409	126.916	25.706	-23.206	-17.919	171.701	224.013	-18.322	-12.945	-13.026	-9.171	86.415	-8.864	-8191	255	
26328.646	1	1	0	0	0.2578	0.061115	0.052514	0.35382	0.28507	0.15748	0.23722	0.14033	0.031408	0.11566	0.16872	0.22997	0.15928	0.053279	0.29526	0.091763	-2.1958	-2.8146	-2.8271	-2.5354	-2.85	-2.7396	-2.7812	-3.125	-2.6437	-2.6583	-3.0354	-2.7313	-2.8625	-2.9313	-2.5917	-3.1437	182.239	9.596	26.200	24.553	316.802	8.651	229.606	263.892	72.542	-13.576	-3.181	308.904	83.727	19.724	274.377	132.610	0.00014101	0.0013663	0.00082504	629.08	1.064e-05	1.0909e-05	1004.7	151.62	1.1132e-05	5.5811e-06	332.11	117.4	48.037	19.673	1.8316e-05	56.597	0.013469	0.01944	0.005467	997.61	0.00021803	0.00022262	1085.7	192.36	0.00020964	0.00023224	391.03	138.04	68.572	26.706	0.00022574	64.992	215.590	98.147	155.197	-23.463	28.931	289.570	-22.981	-18.275	158.562	288.125	-18.068	-13.222	-13.388	-9.213	101.375	-9.204	-8191	255	
26328.744	1	1	0	0	0.28992	0.075531	0.14667	0.072497	0.14389	0.07005	0.042039	0.12808	0.074821	0.10558	0.30541	0.052154	0.027481	0.12966	0.17939	0.12891	-2.3604	-2.8375	-2.8083	-2.5396	-3.0479	-2.7625	-2.7792	-3.0312	-2.6104	-2.6458	-2.9938	-2.5729	-3.0083	-2.8708	-2.6083	-3.0729	180.222	278.454	56.563	247.882	218.232	168.529	272.874	294.282	98.922	184.152	323.675	312.339	195.294	64.863	135.247	65.749	0.00015431	0.0023885	0.00055449	629.95	3.1357e-06	4.4573e-06	1012.2	150.29	1.1313e-05	7.7139e-06	332.28	117.93	48.002	19.698	1.0675e-05	56.727	0.014608	0.021082	0.00587	1027.5	0.00023251	0.00023406	1097	195.41	0.00021814	0.00023593	393.18	139.18	68.944	26.867	0.00022865	65.403	151.950	77.448	76.815	-23.422	152.302	92.915	-22.947	-18.292	81.855	130.750	-18.029	-13.088	-13.131	-8.680	125.769	-8.949	-8191	255	
26328.840	1	1	0	0	0.16072	0.12649	0.29723	0.13841	0.032508	0.25274	0.25831	0.010581	0.030612	0.25059	0.16235	0.21355	0.059432	0.12176	0.52404	0.18418	-2.2854	-2.6729	-2.8521	-2.7208	-3.0563	-2.9854	-2.7896	-2.9062	-2.7729	-2.5771	-2.9771	-2.6042	-2.7604	-2.8771	-2.525	-2.9562	13.719	57.511	25.025	308.286	216.042	166.639	269.053	71.189	-21.829	322.215	306.026	317.732	-17.522	261.984	204.548	273.921	0.00014234	0.0024286	0.00051583	629.95	1.0389e-05	1.1882e-05	1017.7	151.51	3.643e-06	9.7023e-06	330.73	118.36	47.964	19.79	2.6408e-05	56.643	0.014804	0.021252	0.0059501	1029	0.00023057	0.0002364	1098.2	195.83	0.00022024	0.00024013	394.7	139.56	69.007	27.001	0.0002247	65.471	223.027	88.394	179.135	-24.521	133.230	111.618	-22.838	-18.376	-32.884	252.320	-18.313	-13.233	-13.579	-9.409	204.847	-9.452	-8191	255	
26328.961	1	1	0	0	0.37084	0.28181	0.045794	0.16992	0.14542	0.046457	0.14942	0.12793	0.22414	0.15149	0.1771	0.28734	0.31945	0.13179	0.037819	0.22171	-2.3125	-2.6896	-3.0167	-2.5812	-2.625	-2.9938	-2.6271	-2.9958	-2.6833	-2.7333	-2.9208	-2.8208	-2.8	-2.8833	-2.6083	-3.1312	-4.975	298.513	285.437	319.778	137.919	82.967	307.786	208.186	-33.362	207.636	88.911	283.328	-29.884	224.420	123.353	91.606	0.0001395	0.00027212	0.00065726	631.86	1.7467e-05	1.2021e-05	1012.9	149.55	8.4792e-06	1.8905e-06	328.05	115.94	47.786	19.408	2.0094e-05	55.246	0.014726	0.021098	0.0059029	1024.3	0.00023224	0.00023416	1091.1	193.82	0.00021743	0.00023386	389.68	137.46	68.343	26.624	0.00022652	64.402	198.104	33.022	-12.189	-24.310	132.189	158.395	-23.103	-18.267	217.810	100.358	-18.173	-13.129	-12.721	-8.816	-22.518	-8.851	-8191	255	
26329.057	1	1	0	0	0.12851	0.1355	0.15349	0.014919	0.095506	0.10521	0.33313	0.25419	0.39169	0.12591	0.25695	0.21822	0.12747	0.097479	0.054676	0.13878	-2.3604	-2.6708	-2.8625	-2.6937	-2.8	-2.8604	-2.7792	-2.7354	-2.9229	-2.725	-2.9458	-2.8375	-2.6333	-2.9646	-2.7438	-2.95	108.535	79.808	241.016	202.998	162.710	87.915	296.668	243.777	318.880	297.644	270.762	68.476	25.230	33.461	141.402	4.971	0.00022417	0.00050338	0.00073853	625.39	6.2619e-06	1.9492e-05	1005.5	151.5	1.9116e-05	1.6073e-05	335.6	116.84	48.3	19.433	4.1704e-06	56.189	0.014843	0.021322	0.0059547	1024.5	0.00023473	0.0002414	1093.1	196.31	0.00022891	0.00024936	399.61	140.57	71.057	27.711	0.00025215	66.256	145.391	272.727	150.978	-23.883	281.966	48.775	-22.869	-18.263	99.548	-31.556	-18.143	-13.016	-13.265	-9.212	118.761	-9.586	-8191	255	
26329.129	1	1	0	0	0.15365	0.089531	0.084953	0.041563	0.098157	0.21006	0.29659	0.071364	0.20571	0.13322	0.036566	0.079437	0.13221	0.22556	0.17893	0.18034	-2.6125	-2.6833	-2.9958	-2.7062	-2.575	-2.9875	-2.7812	-2.6458	-3.0396	-2.6458	-2.8208	-3.0375	-2.5354	-3.0125	-2.6729	-2.8312	230.728	203.629	-8.278	303.819	134.849	114.009	283.172	106.755	240.808	299.287	19.675	307.792	130.673	269.079	181.228	-35.937	0.00025314	0.00094007	0.00020125	633.45	1.9439e-05	2.5971e-05	1018.3	151.87	1.2599e-05	7.9038e-06	333.47	118.54	47.86	19.721	1.6329e-05	56.145	0.016694	0.024182	0.0067498	1093.5	0.00026825	0.00027253	1121.6	204.63	0.00025577	0.00027337	408.31	143.91	73.286	28.45	0.00026927	67.449	221.975	60.618	306.859	-24.229	197.654	167.028	-23.137	-18.586	128.499	164.804	-18.664	-13.456	-13.528	-8.895	136.543	-9.213	-8191	255	
26329.248	1	1	0	0	0.30426	0.12313	0.13124	0.22306	0.086115	0.11668	0.35	0.054714	0.23311	0.039717	0.28226	0.17293	0.19837	0.28759	0.22235	0.21538	-2.6875	-2.7042	-2.8292	-2.7604	-2.5354	-3.0187	-2.8167	-2.8375	-2.8229	-2.5979	-2.9292	-2.8042	-2.7375	-2.9896	-2.6	-2.8646	220.045	159.739	145.682	302.236	321.722	251.257	267.067	171.505	248.573	40.223	295.914	202.619	172.567	301.101	-8.795	236.598	0.00034734	0.0014332	0.00028574	629.32	1.2599e-05	1.9895e-05	1013.3	151.67	4.6147e-06	4.6169e-06	333.87	118.56	48.607	19.686	1.7872e-05	56.834	0.017672	0.025551	0.0071392	1121.2	0.00027734	0.00028487	1130.4	207.5	0.00026583	0.00028334	414.5	145.67	74.86	28.941	0.00028147	68.424	225.609	26.027	68.230	-23.380	168.086	137.657	-22.993	-17.755	222.864	87.036	-18.669	-13.042	-13.552	-9.041	95.044	-9.003	-8191	255	
26329.344	1	1	0	0	0.15367	0.08099	0.13143	0.15823	0.27469	0.15324	0.28749	0.039346	0.14019	0.1585	0.052091	0.034316	0.17288	0.26363	0.3519	0.16091	-2.45	-2.6562	-2.9125	-3.025	-2.6917	-2.9458	-2.8937	-2.6771	-2.9021	-2.7188	-2.9396	-2.9833	-2.5458	-3.1271	-2.6333	-2.775	152.069	137.327	73.885	41.288	240.290	99.609	237.198	141.775	244.890	229.892	243.964	181.040	-25.609	272.716	292.144	268.862	0.00012298	0.00078575	0.00035109	635.36	1.1997e-05	2.9193e-05	1020.7	153.01	1.3568e-05	1.7891e-05	333.75	118.27	47.938	19.534	1.8598e-05	56.122	0.018667	0.02677	0.0075152	1157.2	0.0002931	0.00030043	1147.6	211.55	0.00027659	0.00029212	416.71	146.05	74.767	28.881	0.00027812	67.659	161.519	-19.734	158.922	-23.950	116.641	210.750	-23.108	-18.344	291.282	189.033	-18.450	-13.374	-13.989	-8.863	13.303	-9.302	-8191	255	
26329.439	1	1	0	0	0.33782	0.17358	0.21982	0.075814	0.084053	0.28976	0.069149	0.12575	0.24309	0.13557	0.18015	0.3119	0.17806	0.0544	0.096031	0.11234	-2.3854	-2.4542	-2.6854	-2.9125	-2.4979	-2.8667	-2.7125	-2.6375	-2.9396	-2.7292	-2.9729	-2.9125	-2.425	-2.7062	-2.8542	-2.7583	53.100	-24.159	-22.169	310.391	295.905	206.627	21.354	55.027	175.067	166.858	-36.400	318.243	-27.139	240.511	104.872	295.324	0.00040564	0.00021381	0.00032077	636.27	1.1659e-05	2.8897e-05	1010.2	150.41	8.4149e-06	3.9359e-06	327.68	116.15	47.563	19.128	3.5726e-05	55.252	0.018269	0.026038	0.0072506	1126.7	0.00027859	0.00028558	1120.3	204.48	0.00025624	0.00026865	402.37	141.01	71.123	27.353	0.00025046	65.296	172.104	321.322	283.717	-23.332	152.629	150.732	-23.046	-18.488	99.627	-32.843	-18.521	-13.446	-13.353	-9.148	190.316	-9.249	-8191	255	
26329.561	1	1	0	0	0.12142	0.097747	0.14764	0.05473	0.20016	0.35922	0.33387	0.16295	0.070107	0.19563	0.043776	0.14838	0.05058	0.23019	0.32094	0.2692	-2.6021	-2.7146	-2.7646	-3.0812	-2.7875	-3.0167	-3.0375	-2.6562	-2.8542	-2.7396	-2.7125	-3.1083	-2.6854	-2.7896	-2.8104	-2.7313	89.899	266.519	-5.701	90.841	3.530	227.271	259.726	183.650	89.494	66.113	32.620	311.861	240.197	300.378	311.379	214.679	0.0002765	0.00056282	0.00026787	624.76	2.201e-05	3.4763e-05	1009.3	149.77	7.0443e-06	5.5133e-06	326.48	116.14	47.156	18.967	1.1165e-05	54.736	0.016384	0.02357	0.0065562	1075.3	0.00025317	0.00026446	1104	198.78	0.00024068	0.00025383	395.72	139.02	69.986	26.868	0.00024235	64.346	165.539	-4.337	169.916	-24.270	55.111	199.656	-23.107	-18.517	78.542	294.819	-18.305	-13.222	-13.084	-8.847	208.929	-8.800	-8191	255	
26329.656	1	1	0	0	0.09888	0.3237	0.036458	0.40138	0.039395	0.11217	0.15588	0.10114	0.17306	0.13008	0.16818	0.19342	0.15903	0.052777	0.14111	0.03744	-2.35	-2.7625	-2.7146	-2.8208	-2.5875	-2.9042	-3.025	-2.6688	-2.9104	-2.825	-2.6646	-2.9813	-2.6125	-2.8229	-2.9604	-2.7271	82.919	31.943	154.505	169.536	239.412	190.353	169.437	313.228	296.364	268.002	218.909	278.069	224.380	108.371	55.451	77.926	9.2375e-05	0.0014048	0.0004337	633.99	2.0879e-06	6.5189e-06	1005.4	149.91	6.6495e-06	1.817e-05	324.83	115.02	47.053	18.994	6.1836e-06	55.008	0.016095	0.022849	0.0063853	1068.3	0.00024935	0.00026093	1105.3	200.07	0.00024185	0.00025673	398.98	138.96	69.926	26.926	0.00024239	64.336	112.491	-25.805	283.559	-23.547	70.157	44.668	-23.129	-17.879	159.807	317.086	-18.130	-13.273	-13.166	-9.309	145.823	-9.157	-8191	255	
26329.729	1	1	0	0	0.17589	0.45132	0.20362	0.061869	0.22077	0.081572	0.13575	0.40347	0.1149	0.26977	0.29517	0.17235	0.22609	0.203	0.11462	0.34663	-2.3688	-2.8063	-2.5417	-3.1104	-2.6583	-2.8896	-3.0479	-2.5667	-2.8146	-2.7792	-2.6667	-2.8937	-2.6042	-2.8146	-2.9062	-2.8771	98.613	276.383	93.896	125.060	-11.110	183.733	292.484	270.809	245.735	235.996	293.312	169.338	303.595	294.298	84.560	320.219	0.00030583	0.00131	0.00031835	617.78	6.6364e-06	4.0147e-05	1002.3	151.01	8.9283e-06	2.3892e-05	331.35	116.37	47.763	19.341	1.71e-05	55.464	0.015763	0.022396	0.0062005	1052.7	0.00024265	0.00025886	1104	199.06	0.00023689	0.00025336	399.78	140.2	70.394	27.274	0.0002448	64.996	185.817	108.729	213.575	-23.760	92.946	257.905	-22.842	-17.917	163.759	-9.790	-18.430	-13.183	-13.670	-8.976	16.681	-9.223	-8191	255	
26329.824	1	1	0	0	0.065882	0.095515	0.30729	0.18537	0.12593	0.24584	0.047947	0.18521	0.083148	0.085871	0.30941	0.10229	0.035541	0.12225	0.13273	0.34909	-2.3937	-2.9208	-2.5	-2.9646	-2.6229	-2.6937	-3.2104	-2.6583	-2.7771	-2.9354	-2.5604	-2.9167	-2.7458	-2.7021	-2.9958	-2.7146	9.580	-7.616	-13.606	227.188	154.906	75.473	234.764	210.638	180.839	291.873	272.754	224.712	47.105	51.024	274.611	261.535	0.0001648	0.0014686	0.00059699	624.33	2.4585e-05	1.17e-05	999.65	150.12	1.059e-05	4.9586e-06	325.66	114.94	47.135	18.941	1.4403e-05	54.651	0.016199	0.023064	0.0063875	1067	0.00024676	0.00025805	1099.3	198.31	0.00023687	0.00025329	394.78	138.56	69.563	26.833	0.00023855	63.921	134.261	5.887	-0.668	-24.711	177.955	-26.927	-23.067	-18.317	132.286	250.653	-18.285	-13.684	-14.171	-8.941	56.513	-9.338	-8191	255	
26329.945	1	1	0	0	0.19717	0.040302	0.0076074	0.25028	0.094038	0.13419	0.10105	0.25924	0.031785	0.24493	0.29085	0.14817	0.17588	0.35889	0.062511	0.16681	-2.4125	-2.9208	-2.6833	-2.8958	-2.7313	-2.8771	-3.1937	-2.7333	-2.7333	-2.8146	-2.6	-3.0958	-2.925	-2.7333	-3.0687	-2.7687	204.809	32.246	136.645	317.464	255.598	184.253	246.938	316.469	210.707	246.839	279.808	316.222	270.775	-16.325	155.914	268.170	0.00012145	0.0015984	0.00033506	626.62	3.0724e-06	2.3423e-06	997.42	148.89	7.5077e-06	1.3699e-05	326.34	115.58	47.519	19.162	9.0381e-06	54.933	0.015431	0.021817	0.0060299	1025	0.00023078	0.00024266	1086.8	194.2	0.00022359	0.00023953	390.55	137.6	69.068	26.553	0.00023056	63.755	188.490	43.832	131.269	-24.642	236.355	257.758	-22.748	-19.049	256.646	142.692	-18.435	-13.279	-13.194	-8.912	167.333	-9.168	-8191	255	
26330.041	1	1	0	0	0.21694	0.12511	0.17424	0.22332	0.0093391	0.017554	0.057824	0.23379	0.12592	0.29878	0.16694	0.05557	0.15873	0.2118	0.074765	0.11287	-2.15	-2.8604	-2.7208	-3.0125	-2.9417	-2.7354	-2.8667	-2.6562	-2.7292	-3.0646	-2.8583	-2.9229	-2.9458	-2.7646	-3.1667	-2.9521	-4.278	204.910	120.766	234.780	198.747	269.956	322.587	270.102	68.441	252.508	290.426	139.118	122.977	304.747	299.698	-16.597	0.00019268	0.00089501	0.00019376	628.01	9.4231e-06	1.407e-05	1001.7	150.57	1.4658e-05	3.8894e-06	327.57	117.09	47.06	19.083	5.9846e-06	55.247	0.015198	0.021389	0.0059299	1027.6	0.00023035	0.00023881	1090.6	194.84	0.00022262	0.00023802	390.52	138.56	68.825	26.647	0.00023197	64.042	161.484	306.789	104.921	-23.831	219.961	180.848	-23.003	-18.033	232.817	-8.431	-18.331	-13.404	-13.507	-8.664	286.827	-9.093	-8191	255	
26330.137	1	1	0	0	0.082437	0.29465	0.16223	0.35318	0.29541	0.23532	0.2629	0.04843	0.24062	0.078835	0.046585	0.13957	0.096306	0.21597	0.095973	0.2569	-2.0812	-3.0187	-2.6417	-2.9667	-2.8042	-2.7458	-3.0729	-2.75	-2.725	-3.0667	-2.7917	-2.9688	-2.9813	-2.7729	-2.7625	-2.85	317.284	38.767	312.744	-10.289	73.642	9.132	193.057	187.222	144.885	203.609	257.620	18.754	295.074	215.553	264.241	307.324	0.00022194	0.00086232	0.00046654	620.99	1.5593e-05	2.3755e-05	1004.7	151.62	6.1089e-06	1.58e-05	334	117.29	47.955	19.222	1.3355e-05	55.585	0.015112	0.021678	0.0059628	1031.8	0.00023217	0.0002418	1096.7	196.27	0.00022372	0.00023964	393.17	138.89	69.104	26.752	0.00023188	64.532	184.955	35.526	71.764	-22.930	214.732	73.896	-22.988	-18.305	285.413	-28.913	-18.050	-13.319	-13.314	-9.145	108.467	-8.756	-8191	255	
26330.232	1	1	0	0	0.049767	0.096915	0.24532	0.077195	0.14951	0.20738	0.18442	0.26162	0.15952	0.22037	0.10229	0.18109	0.15195	0.092748	0.28077	0.19022	-2.1667	-2.9979	-2.7708	-2.8021	-2.9292	-2.7146	-3.1167	-2.8458	-2.6625	-3.0208	-2.8438	-2.8333	-3.0333	-2.6708	-2.8812	-3.0021	231.163	52.148	141.480	122.109	-28.533	58.837	263.844	280.180	117.889	37.811	136.366	168.951	9.461	315.965	233.408	189.795	0.00026737	0.0017472	0.00028106	630.72	2.4668e-05	1.4021e-05	1003.1	152.28	9.1948e-06	2.7925e-05	330.04	115.69	46.936	19.179	9.816e-06	54.82	0.015451	0.021792	0.0060071	1039.8	0.00023596	0.0002418	1095.6	196.68	0.00022511	0.00024154	391.73	138.05	68.905	26.656	0.0002292	63.736	168.947	-22.301	16.758	-23.361	175.269	98.778	-23.094	-18.087	215.667	118.904	-18.351	-13.095	-13.792	-8.958	160.224	-9.392	-8191	255	
26330.328	1	1	0	0	0.053847	0.13065	0.21982	0.17901	0.27237	0.1247	0.014205	0.099392	0.07235	0.36977	0.42979	0.2647	0.01324	0.17125	0.07185	0.24778	-2.0938	-2.8625	-2.8458	-2.7313	-2.9792	-2.6208	-3.1063	-2.8063	-2.5687	-3.0542	-2.8	-2.9021	-2.9958	-2.7771	-2.9542	-3.025	6.294	2.324	280.214	321.713	310.358	37.124	6.167	292.944	317.391	76.973	291.755	232.983	247.162	294.458	36.528	301.056	0.00030626	0.0014443	0.0007588	618.27	2.1723e-05	1.2616e-05	999.29	149.57	4.8355e-06	1.0542e-05	325.6	115.6	47.536	19.084	1.1306e-05	54.917	0.015217	0.021749	0.006036	1035.6	0.0002353	0.00024106	1090.8	194.78	0.00022418	0.00023879	389.32	137.36	68.39	26.447	0.00022912	63.687	166.952	191.640	78.058	-23.574	172.697	148.992	-22.883	-18.044	8.225	60.364	-18.609	-13.461	-13.143	-9.416	-27.907	-9.523	-8191	255	
26330.424	1	1	0	0	0.28304	0.20755	0.12011	0.1691	0.15757	0.15056	0.2356	0.21995	0.10726	0.20449	0.22733	0.43176	0.05527	0.14091	0.10191	0.33653	-2.2146	-2.875	-2.5792	-2.8063	-2.7792	-2.7667	-2.8937	-2.8708	-2.5417	-2.925	-2.8792	-2.7604	-3.0042	-2.6521	-2.5729	-2.9354	301.621	7.924	61.507	219.895	96.770	160.609	247.088	224.431	120.571	223.762	-12.910	313.971	298.709	86.095	63.412	300.954	0.00028164	0.0015372	0.00024762	617.57	1.344e-05	1.2197e-05	1002.2	149.64	4.9246e-06	1.4837e-05	326.55	114.95	47.561	19.198	2.0385e-05	54.941	0.015073	0.022027	0.0060072	1034	0.00023512	0.00024004	1089.9	194.61	0.00022257	0.00023759	388.8	137.29	68.663	26.493	0.00022657	63.674	174.551	136.917	4.519	-23.891	124.865	280.606	-22.922	-18.630	226.650	173.108	-18.093	-13.138	-13.503	-8.938	216.167	-9.227	-8191	255	
26330.521	1	1	0	0	0.11822	0.062155	0.28601	0.11548	0.17625	0.048253	0.18116	0.11833	0.15942	0.056951	0.2978	0.22733	0.31659	0.36578	0.2104	0.37568	-2.0833	-2.8854	-2.6937	-2.6083	-2.8688	-2.6979	-2.8063	-3.0167	-2.5812	-2.8604	-2.9667	-2.6458	-2.9958	-2.6479	-2.6646	-2.9167	62.938	81.224	237.014	281.000	33.696	275.789	293.536	271.728	196.791	-15.562	240.982	268.123	242.137	26.455	225.285	287.649	0.00024587	0.0013907	0.00078562	628.6	1.4634e-05	3.2979e-05	1005.6	150.66	1.9957e-05	2.0956e-05	329.02	116.28	47.62	19.215	1.783e-05	55.647	0.014842	0.021662	0.0059317	1028.6	0.00023101	0.00023817	1096.4	195.47	0.00022197	0.00023762	391.37	138.21	68.88	26.664	0.00022901	64.429	175.763	44.682	56.787	-23.577	69.882	316.307	-22.933	-18.212	107.082	82.139	-18.617	-13.343	-13.186	-8.921	32.022	-9.209	-8191	255	
26330.641	1	1	0	0	0.20303	0.0463	0.1636	0.10799	0.12218	0.093378	0.24252	0.18989	0.1952	0.14554	0.070689	0.23289	0.091621	0.25605	0.22813	0.036479	-2.1583	-2.7833	-2.7583	-2.5563	-2.8167	-2.6979	-2.8479	-2.9458	-2.6625	-2.8187	-2.8812	-2.6083	-2.8333	-2.8521	-2.7104	-3.0396	32.415	-8.001	28.191	230.736	217.049	4.600	230.065	192.201	84.192	196.054	163.946	148.260	246.883	232.847	259.305	254.122	0.00014726	0.00095235	0.00034896	637.19	2.0768e-05	1.4069e-05	1007.7	152.1	7.9349e-06	2.3136e-05	331.36	115.98	48.002	19.327	1.7549e-05	55.065	0.014973	0.022032	0.0060193	1037	0.00023481	0.00024148	1096.6	197.33	0.00022506	0.00024155	394.41	138.53	70.013	26.85	0.00023469	64.328	221.425	80.867	155.807	-24.013	82.750	2.037	-22.874	-18.539	115.933	275.884	-18.241	-13.431	-13.438	-8.791	145.332	-9.242	-8191	255	
26330.734	1	1	0	0	0.15841	0.10587	0.31778	0.094484	0.10681	0.14475	0.15609	0.16489	0.21188	0.37891	0.25825	0.15218	0.16635	0.11339	0.25121	0.40171	-2.2396	-2.7417	-2.7292	-2.5646	-2.9542	-2.9083	-2.6813	-2.9792	-2.7208	-2.7687	-2.8125	-2.5458	-2.8292	-2.8583	-2.5938	-2.9646	155.854	46.975	43.545	167.307	288.116	314.405	230.629	59.578	65.867	63.098	312.979	261.848	273.006	323.371	114.098	260.202	0.00023991	0.00059437	0.00066863	619.8	1.5657e-05	1.4131e-05	1001.9	150.18	5.7819e-06	2.8949e-05	325.13	114.25	46.836	18.818	9.6619e-06	54.286	0.015255	0.022147	0.0061865	1041.8	0.0002396	0.00024599	1095.3	196.1	0.00022918	0.00024359	389.3	136.57	69.091	26.616	0.0002355	63.535	224.713	125.128	299.938	-23.461	153.530	162.841	-22.937	-18.430	179.905	172.967	-18.494	-13.846	-13.656	-8.762	225.108	-9.434	-8191	255	
26330.830	1	1	0	0	0.13104	0.18229	0.32304	0.13439	0.25558	0.15142	0.063479	0.087422	0.11661	0.25409	0.23333	0.10521	0.25076	0.13834	0.22498	0.33304	-2.425	-2.4875	-2.8792	-2.6625	-2.8875	-2.7604	-2.9583	-2.8875	-2.7229	-2.7583	-2.7833	-2.7792	-2.7417	-2.9229	-2.5062	-2.9896	-29.704	293.346	178.853	-21.786	251.316	161.227	234.040	185.143	293.361	43.666	280.343	223.306	277.523	153.965	126.916	261.992	3.2474e-05	0.00097849	0.00047949	624.21	1.1625e-05	1.4699e-05	998.79	149.44	1.0208e-05	1.1812e-05	328.64	112.96	47.106	18.874	1.7634e-05	54.304	0.015397	0.022557	0.0061584	1042.8	0.00023835	0.00024538	1092.6	196.51	0.00022748	0.00024539	391.34	136.33	69.585	26.598	0.00023532	63.457	-24.362	289.244	107.167	-24.386	165.931	281.093	-23.190	-18.257	87.733	33.701	-18.142	-13.023	-13.587	-9.196	0.072	-9.184	-8191	255	
26330.930	1	1	0	0	0.15684	0.23819	0.16914	0.32268	0.27166	0.18255	0.24641	0.33923	0.3174	0.14831	0.1839	0.16106	0.27818	0.17145	0.32469	0.06044	-2.4979	-2.65	-2.8042	-2.7062	-2.6917	-3.05	-2.7854	-2.9958	-2.8125	-2.5542	-3.0708	-2.7146	-2.7438	-2.9	-2.7417	-2.9104	272.128	188.022	237.933	148.593	6.346	35.800	115.796	291.015	34.813	258.202	286.001	66.870	160.229	312.903	74.892	317.200	0.00030119	0.0014318	0.00053883	629.54	1.4212e-05	1.3144e-05	1002.4	150.8	1.0016e-05	7.4569e-06	329.23	114.93	47.806	19.079	8.1176e-06	54.736	0.015406	0.022398	0.006189	1044.7	0.00023881	0.00024767	1094.9	197.46	0.00022911	0.00024428	392.05	137.53	69.591	26.78	0.00023581	64.109	142.686	198.708	50.258	-23.517	43.189	200.641	-23.168	-17.817	188.993	300.181	-18.271	-13.107	-13.898	-9.180	47.213	-9.199	-8191	255	
26331.023	1	1	0	0	0.19594	0.051297	0.1599	0.12776	0.091839	0.28957	0.16093	0.12411	0.15571	0.18389	0.20924	0.074524	0.019288	0.23801	0.22009	0.31881	-2.5167	-2.5396	-3.0542	-2.8021	-2.6896	-2.8958	-2.7021	-2.8583	-2.8042	-2.6917	-2.8375	-2.8042	-2.7938	-2.9125	-2.5917	-3.0187	110.204	177.449	310.782	282.267	10.996	86.305	167.223	252.348	37.553	91.094	-21.289	184.494	66.508	41.721	119.531	250.938	0.00017717	0.0025031	0.00040923	632.48	8.8334e-06	1.5166e-05	1003.9	151.52	8.5793e-06	7.2044e-06	331.29	115.5	47.393	19.297	2.9923e-05	55.512	0.015419	0.022733	0.0062893	1051.4	0.00024173	0.00024958	1097.3	199.15	0.00023049	0.00024667	395.35	138.62	70.227	26.95	0.00023416	64.376	206.248	97.376	190.600	-23.199	272.284	129.088	-22.860	-18.499	104.856	164.785	-18.482	-13.381	-14.005	-8.959	190.921	-9.286	-8191	255	
26331.119	1	1	0	0	0.057959	0.19806	0.17139	0.0604	0.20851	0.15276	0.25073	0.34975	0.1593	0.31813	0.14349	0.21536	0.19375	0.2532	0.064083	0.079282	-2.2188	-2.6104	-2.9771	-2.6771	-2.5729	-3.0292	-2.7667	-2.7687	-2.7833	-2.7479	-2.9729	-2.8	-2.6417	-3.0229	-2.6646	-2.8958	208.578	166.005	268.419	187.246	220.413	261.514	270.241	285.734	210.643	229.653	32.472	16.341	11.679	299.750	197.104	-2.635	0.00024044	0.0016015	0.00046995	618	1.1275e-05	1.7785e-05	1004.6	150.72	4.6294e-06	1.642e-05	329.26	114.48	46.92	19.003	2.2661e-05	54.645	0.015338	0.022238	0.006185	1047.5	0.00024019	0.0002474	1095.6	198.72	0.00023063	0.00024609	393.48	137.47	69.7	26.786	0.00023745	63.715	152.518	-1.589	204.781	-24.081	213.045	145.473	-23.039	-18.618	117.669	112.462	-18.461	-13.664	-13.915	-8.890	1.045	-9.361	-8191	255	
26331.240	1	1	0	0	0.30863	0.3757	0.16479	0.11698	0.12807	0.23236	0.087339	0.15621	0.2737	0.1943	0.14536	0.24795	0.18551	0.10805	0.22228	0.29667	-2.3667	-2.4792	-2.9375	-2.675	-2.6917	-2.9083	-2.9458	-2.8708	-3.0396	-2.6479	-2.925	-2.9646	-2.8	-2.9354	-2.6604	-3.0354	271.563	-29.172	112.093	169.950	134.760	174.058	294.357	246.430	6.599	133.360	269.474	-26.062	210.126	323.029	273.128	297.491	0.00017404	0.0012021	0.0002929	627.17	9.7476e-06	1.0073e-06	998.72	150.23	9.6688e-06	1.2495e-05	326.14	114.76	46.424	18.94	2.9056e-05	54.311	0.015562	0.022222	0.0062815	1045.2	0.00023972	0.00024879	1089.2	196.63	0.00023044	0.00024552	391.39	137.27	69.552	26.692	0.00023622	63.659	128.866	306.174	62.255	-23.658	34.143	241.244	-23.287	-18.195	51.100	276.941	-18.035	-13.294	-13.830	-8.644	195.238	-9.206	-8191	255	
26331.336	1	1	0	0	0.1176	0.35569	0.075256	0.14295	0.15757	0.032437	0.036908	0.25122	0.044922	0.30724	0.089877	0.18229	0.25952	0.066718	0.16737	0.15595	-2.5438	-2.7292	-2.9313	-2.8563	-2.6604	-2.9667	-2.8688	-2.8542	-2.8646	-2.6208	-2.9729	-2.8667	-2.5771	-2.7083	-2.6354	-2.6833	3.700	87.050	11.277	292.794	159.523	-10.910	72.329	307.539	287.766	38.358	269.943	301.617	104.227	235.086	271.840	5.475	9.4517e-05	0.00085548	0.00028747	622.68	1.0602e-05	2.9204e-06	1002.4	149.58	1.1206e-05	1.0636e-05	326.41	115.18	47.704	19.168	1.6379e-05	55.011	0.015538	0.022181	0.0061931	1040.5	0.00023611	0.00024626	1089.7	197.08	0.00022979	0.00024341	391.34	137.41	69.43	26.774	0.00023803	64.136	159.036	128.874	109.787	-23.950	150.448	-1.812	-22.782	-17.705	82.816	161.648	-18.740	-13.481	-13.408	-8.664	47.417	-8.959	-8191	255	
26331.432	1	1	0	0	0.25319	0.27168	0.13999	0.076443	0.18126	0.033509	0.18869	0.12648	0.11219	0.36299	0.29766	0.090288	0.10808	0.12577	0.2183	0.42845	-2.5521	-2.3896	-2.7	-2.8396	-2.5417	-2.9437	-2.7125	-2.775	-2.9021	-2.6833	-2.8812	-2.9437	-2.6917	-3.1312	-2.7583	-2.8271	82.428	12.581	172.875	231.581	58.252	78.528	243.501	282.114	257.279	-9.681	258.700	254.447	108.951	122.791	191.024	232.405	0.00015905	0.00089506	0.00056916	631.3	4.8478e-06	4.0713e-06	1010.7	150.25	1.286e-05	2.3342e-05	326.75	115.9	48.02	19.217	1.9548e-05	55.247	0.01558	0.02234	0.0063224	1051.2	0.00023942	0.00024934	1097.3	197.65	0.00023179	0.0002461	394.14	138.46	70.03	27.198	0.00023871	64.644	116.473	184.227	86.208	-23.950	249.195	318.791	-23.096	-18.447	133.027	141.739	-18.629	-13.405	-13.598	-9.188	219.714	-9.804	-8191	255	
26331.527	1	1	0	0	0.12241	0.11602	0.23697	0.090151	0.13557	0.05132	0.115	0.081701	0.080789	0.27139	0.081016	0.16846	0.047464	0.2269	0.045676	0.2136	-2.4167	-2.6521	-2.7562	-2.8479	-2.6146	-2.8979	-3.0021	-2.5771	-3.0438	-2.775	-2.7417	-3.1125	-2.5604	-2.7875	-2.6167	-2.7313	36.360	38.041	265.380	92.840	85.447	58.332	251.051	219.938	64.204	176.440	294.862	258.910	158.269	111.152	39.056	292.668	0.00029677	0.0030384	0.00018252	628.41	1.2439e-05	2.7302e-05	1007.4	151.61	6.0514e-06	1.8165e-06	329.42	115.39	47.203	19.204	7.5703e-06	54.952	0.015697	0.022472	0.0063847	1063.1	0.00024419	0.00025338	1105.7	200.89	0.00023467	0.00025104	396.54	138.77	69.899	27.207	0.00024277	64.21	202.850	86.363	239.418	-23.471	117.497	79.815	-22.887	-18.802	76.059	300.271	-18.104	-13.494	-13.880	-9.184	129.095	-9.179	-8191	255	
26331.600	1	1	0	0	0.12959	0.19327	0.22451	0.096333	0.10646	0.16751	0.22844	0.16266	0.16344	0.18302	0.10986	0.13016	0.25662	0.24062	0.067906	0.19304	-2.4333	-2.7396	-2.7208	-2.8896	-2.5625	-3.0312	-2.8104	-2.6146	-3.0396	-2.8917	-2.8521	-2.8312	-2.7396	-2.7167	-2.7917	-2.8229	282.182	239.058	96.184	91.001	161.676	207.096	291.469	258.026	194.996	87.641	304.318	237.637	43.890	158.544	72.661	270.894	0.0001502	0.0021583	0.00037194	626.8	5.9891e-06	5.5316e-06	1002.2	150.44	1.4159e-05	1.2413e-05	323.33	113.86	47.209	19.106	1.6571e-05	54.194	0.015843	0.022514	0.0064432	1054.5	0.00024367	0.00025162	1094.3	198.25	0.00023451	0.00025014	390.92	137.28	69.58	27.054	0.00024307	63.638	172.416	132.211	278.136	-23.948	-20.834	81.748	-23.323	-18.604	-23.139	174.841	-18.214	-13.408	-13.241	-9.213	155.363	-9.055	-8191	255	
26331.721	1	1	0	0	0.17217	0.17719	0.089837	0.1233	0.27067	0.049671	0.31609	0.33021	0.25662	0.12855	0.027121	0.10199	0.20642	0.18713	0.10468	0.29534	-2.5229	-2.6521	-2.5312	-2.9562	-2.6688	-3.0021	-3.0354	-2.7479	-2.9833	-2.9708	-2.75	-3.0917	-2.7562	-2.9396	-2.9021	-2.8417	49.677	241.530	273.505	5.270	75.541	13.405	261.187	318.496	150.301	55.672	298.470	301.521	54.587	-15.157	215.968	285.792	0.00024367	0.00042044	0.00017197	621.98	2.0244e-06	4.7971e-06	999.73	149.95	6.406e-06	1.1297e-05	328.46	113.31	46.647	18.63	1.2824e-05	53.919	0.015826	0.02257	0.0063465	1049.8	0.00024104	0.00024708	1091.9	195.51	0.00022841	0.00023909	387.11	134.98	67.501	26.024	0.00022393	62.17	189.087	49.759	304.253	-23.797	209.396	124.437	-22.952	-18.428	42.815	127.749	-18.398	-13.339	-13.300	-8.924	173.236	-9.348	-8191	255	
26331.814	1	1	0	0	0.10744	0.17421	0.13688	0.18829	0.18999	0.41435	0.31582	0.084241	0.25331	0.25524	0.23122	0.13934	0.35037	0.089798	0.073382	0.19687	-2.575	-2.8229	-2.6979	-2.9708	-2.7875	-2.7792	-3.0687	-2.7229	-2.8688	-3.0083	-2.6521	-3.1167	-2.7292	-2.8646	-2.8021	-2.6354	-15.980	82.627	321.320	-26.823	211.368	295.227	258.643	228.662	269.756	193.031	-27.624	-25.463	219.196	300.632	323.623	-7.567	0.00012452	0.0001639	0.00020839	624.34	8.3167e-06	1.8773e-05	988.39	149.08	1.7807e-05	1.5006e-05	323.58	113.31	46.345	18.442	1.6063e-05	53.154	0.014556	0.020815	0.0058774	1007.5	0.00022142	0.00022825	1070.8	189.63	0.0002118	0.0002235	379.88	132.5	66.037	25.489	0.00021452	61.282	257.876	-8.702	46.912	-23.438	135.388	194.826	-22.947	-18.169	291.398	190.437	-18.746	-13.166	-13.113	-8.938	134.923	-9.081	-8191	255	
26331.910	1	1	0	0	0.35744	0.066133	0.096563	0.051781	0.14601	0.11164	0.21972	0.10423	0.16645	0.33507	0.061471	0.27666	0.12865	0.048064	0.14775	0.15498	-2.3875	-2.6479	-2.5792	-2.9354	-2.85	-2.7833	-3.1875	-2.6104	-2.9562	-3.0479	-2.975	-3.0333	-2.6917	-2.4896	-3	-2.8	-13.204	118.930	20.157	151.561	181.416	271.522	168.618	-24.616	48.642	12.743	220.873	292.780	266.320	236.007	130.879	179.814	0.00015439	0.0019643	0.00017332	621.81	9.9806e-06	1.369e-05	998.33	148.71	5.2993e-06	1.5684e-05	325.57	113.43	46.38	18.772	1.6487e-05	53.415	0.014193	0.020303	0.0056657	1004.8	0.00022025	0.00022621	1077	190.64	0.00021458	0.00022452	380.79	133.55	66.4	25.683	0.00021576	61.646	196.952	269.191	208.363	-23.784	189.709	40.059	-22.962	-18.164	63.259	27.894	-18.184	-12.887	-13.591	-8.849	178.375	-9.236	-8191	255	
26332.010	1	1	0	0	0.18805	0.14336	0.082307	0.1222	0.069088	0.16423	0.04105	0.22988	0.089276	0.16018	0.1201	0.35485	0.24785	0.23032	0.11954	0.2373	-2.2708	-2.8021	-2.5021	-2.775	-2.9354	-2.7333	-3.0542	-2.8063	-2.8417	-2.9562	-2.8917	-2.9021	-2.7458	-2.5896	-2.8187	-2.7521	10.151	-31.027	198.703	224.096	287.076	-1.435	-25.133	-5.251	65.085	-3.612	276.992	311.708	274.842	280.639	28.930	-31.776	0.00016543	0.00010304	0.00022886	625.64	1.0044e-05	1.9827e-05	996.18	147.95	1.0571e-05	1.0903e-05	321.03	112.4	46.479	18.672	9.4631e-06	52.944	0.014204	0.020519	0.0056831	1019.8	0.00022332	0.00023064	1076.8	191.17	0.00021848	0.00023113	381.03	133.3	67.246	25.895	0.00022644	61.647	154.170	256.295	241.983	-23.498	255.971	129.113	-23.272	-18.221	27.388	101.152	-18.603	-13.640	-13.450	-9.621	161.424	-9.535	-8191	255	
26332.129	1	1	0	0	0.066589	0.17389	0.049155	0.22227	0.24157	0.24054	0.198	0.12093	0.26437	0.28871	0.31316	0.23825	0.05878	0.2806	0.12553	0.21663	-2.2146	-2.8875	-2.6083	-2.7542	-2.7479	-2.55	-3.0375	-2.7	-2.8083	-2.9958	-2.5	-3.0375	-2.8667	-2.675	-2.8979	-2.7687	198.716	15.883	233.010	231.148	114.176	75.724	-24.398	209.572	11.112	186.136	275.932	-22.523	125.743	95.377	-13.913	-23.880	0.00028634	0.00099735	0.00049163	627.6	1.506e-05	3.216e-05	998.25	148.17	5.5187e-06	1.3861e-05	321.67	112.9	46.038	18.701	7.1667e-06	53.155	0.01476	0.021261	0.005917	1029.6	0.00023046	0.00023736	1081.9	192.96	0.00022489	0.0002357	383.13	134.21	67.48	25.924	0.00022779	61.906	164.134	108.694	220.680	-22.894	67.875	165.162	-23.241	-18.205	90.867	51.861	-18.330	-13.489	-13.370	-9.584	35.387	-9.583	-8191	255	
26332.225	1	1	0	0	0.17381	0.098111	0.066745	0.11425	0.15819	0.11356	0.27373	0.25989	0.1708	0.12053	0.16958	0.06039	0.35867	0.18769	0.027256	0.14522	-2.3229	-2.7896	-2.6146	-2.6688	-2.8104	-2.5521	-3.0375	-2.7208	-2.6542	-3.0042	-2.7667	-2.7667	-2.8646	-2.4229	-2.8708	-2.7604	109.361	206.119	79.401	284.833	82.298	209.362	253.990	219.767	122.937	211.528	258.739	311.198	2.722	192.101	317.184	163.861	0.000298	0.0023766	0.00027633	628.63	5.2655e-06	2.4674e-06	999.71	149.91	1.0567e-05	2.1475e-05	323.39	112.78	46.536	18.807	9.2168e-06	53.653	0.014862	0.02135	0.0059548	1039.4	0.00023014	0.00023722	1084.3	193.74	0.00022454	0.00023676	385.38	134.56	67.76	26.015	0.00023173	62.205	125.932	120.962	199.097	-23.538	181.247	178.668	-22.861	-18.560	140.024	24.539	-18.401	-13.595	-13.442	-8.991	6.151	-9.577	-8191	255	
26332.320	1	1	0	0	0.40665	0.090448	0.15002	0.26645	0.090363	0.07477	0.2959	0.19267	0.17406	0.17318	0.11091	0.27354	0.18266	0.087507	0.17173	0.22327	-2.1042	-2.8042	-2.6229	-2.9271	-2.6604	-2.6375	-2.9896	-2.7583	-2.5542	-2.9958	-2.8021	-2.7604	-2.9771	-2.6354	-2.9708	-3.0042	-31.144	176.950	120.559	78.135	194.826	34.811	290.061	213.037	-3.784	145.522	282.143	316.484	234.289	151.861	72.311	267.159	9.7104e-05	0.00072214	0.00028382	627.37	1.2274e-05	1.9087e-05	1000.3	149.63	3.7247e-06	6.009e-06	325.22	114.25	46.348	18.754	1.3653e-05	54.001	0.014874	0.021419	0.0059332	1034.4	0.0002318	0.00023846	1086.9	194.65	0.00022648	0.00023851	386.98	135.48	68.019	26.139	0.00022982	62.525	127.625	138.945	83.869	-23.650	145.267	108.348	-22.913	-18.831	86.883	227.150	-18.699	-13.409	-13.532	-9.787	182.884	-9.365	-8191	255	
26332.418	1	1	0	0	0.25148	0.088993	0.23289	0.17482	0.29275	0.28618	0.11932	0.23887	0.18277	0.067395	0.20546	0.20065	0.20752	0.18345	0.16548	0.30605	-2.05	-2.6792	-2.5187	-2.7208	-2.8667	-2.7625	-2.8063	-2.9375	-2.5792	-2.9542	-2.8229	-2.7646	-2.9875	-2.7375	-2.6667	-2.8563	128.534	253.056	162.702	127.407	228.024	116.229	-1.778	241.626	281.485	250.792	271.372	-21.310	300.706	291.833	-8.065	239.924	0.00022263	0.00066728	8.9263e-05	633.36	1.4963e-05	1.5722e-05	1000.2	150.4	1.0645e-05	9.7164e-06	324.94	113.68	46.931	18.855	1.0238e-05	53.398	0.014843	0.021277	0.0058865	1035.8	0.00022903	0.00023495	1087.1	194.15	0.00022163	0.00023802	386.43	135.06	68.142	26.081	0.00023284	62.145	162.068	28.657	150.559	-23.809	210.693	146.853	-23.094	-18.994	233.053	240.756	-18.534	-13.283	-13.805	-9.268	219.156	-9.298	-8191	255	
26332.514	1	1	0	0	0.15548	0.23607	0.28725	0.11764	0.086128	0.12778	0.30807	0.21444	0.10592	0.25834	0.065672	0.14302	0.098239	0.098553	0.17075	0.21834	-2.2125	-2.9667	-2.7083	-2.5042	-2.9167	-2.7479	-2.9188	-2.8604	-2.5563	-2.7542	-2.9042	-2.6625	-2.9292	-2.5167	-2.6396	-2.9229	96.459	118.564	-14.960	111.407	172.964	320.357	278.290	161.751	93.442	112.223	146.233	244.978	293.437	120.236	142.845	308.103	0.00026681	0.0017739	0.00053322	629.17	2.2264e-06	6.8333e-06	997.78	149.4	1.2293e-05	1.766e-05	321.46	112.77	46.918	18.721	1.5863e-05	53.796	0.014773	0.021305	0.0058589	1024.6	0.00022742	0.0002316	1077.6	192.84	0.00021434	0.00023606	381.21	133.62	67.209	25.825	0.00022365	61.865	164.721	147.448	39.607	-23.747	11.145	74.259	-23.172	-18.470	70.388	188.687	-18.630	-13.392	-13.733	-9.159	63.374	-9.402	-8191	255	
26332.609	1	1	0	0	0.26633	0.24328	0.08721	0.10448	0.13479	0.16714	0.13149	0.15176	0.080929	0.22617	0.0078103	0.24068	0.134	0.072003	0.13319	0.11308	-2.0917	-2.9479	-2.6875	-2.6854	-2.8292	-2.5417	-2.8438	-2.8458	-2.5812	-2.8708	-2.9167	-2.5417	-3.0375	-2.8729	-2.6583	-3.0271	263.086	298.458	64.211	262.879	136.488	210.480	192.219	286.790	246.074	-23.147	266.688	249.434	100.953	151.849	277.482	277.530	0.0001818	0.00051052	0.00026247	626.58	8.6446e-06	2.4253e-05	997.84	150.68	5.9977e-06	1.7379e-05	324.34	114.05	47.474	19.003	2.1175e-05	53.973	0.014417	0.020777	0.0057756	1024.3	0.00022444	0.00022912	1078.9	192.6	0.00021095	0.00022866	381.57	133.68	67.113	25.764	0.00021938	62.025	194.382	130.863	163.020	-24.013	248.939	10.106	-23.115	-18.389	119.403	264.833	-18.560	-13.633	-13.833	-9.294	118.860	-9.484	-8191	255	
26332.729	1	1	0	0	0.14532	0.21327	0.14328	0.10941	0.1334	0.086853	0.17504	0.1892	0.2507	0.17433	0.22051	0.26873	0.14292	0.30399	0.057467	0.19152	-2.1667	-2.5312	-2.8583	-2.7333	-2.8208	-2.7979	-2.9458	-2.9271	-2.6021	-2.8708	-3.0146	-2.7604	-2.8646	-2.6417	-2.5896	-2.9125	114.628	52.806	157.812	241.432	300.025	132.969	-31.584	281.948	102.053	74.909	-19.964	280.623	172.021	305.583	285.166	-23.661	0.00029152	0.0025961	0.00039939	631.67	1.3535e-05	1.7649e-05	1006.3	152.19	1.1323e-05	1.3985e-05	328.88	114.42	47.236	19.096	8.7237e-06	53.944	0.014083	0.020188	0.0056198	1008.3	0.00021726	0.00022214	1079.1	191.93	0.00020607	0.00022496	382.18	133.57	66.408	25.716	0.00021266	62.039	162.738	314.156	148.217	-24.001	277.019	262.957	-23.262	-18.718	115.746	200.687	-18.325	-13.553	-13.619	-8.364	122.094	-9.313	-8191	255	
26332.824	1	1	0	0	0.084598	0.16193	0.14947	0.14308	0.35584	0.015897	0.32295	0.26075	0.27612	0.11616	0.29272	0.17783	0.36123	0.018398	0.099539	0.25654	-2.3396	-2.7792	-2.8958	-2.7625	-2.9292	-2.6729	-2.6729	-2.9104	-2.6958	-2.8521	-2.9396	-2.6104	-2.7979	-2.725	-2.4875	-3.025	143.667	240.114	140.516	274.118	218.969	24.281	31.290	212.437	216.219	245.668	310.816	252.175	319.623	117.048	218.186	284.852	0.00016813	0.0021362	0.0003465	630.29	1.5265e-05	1.4032e-06	1010.9	153.07	1.6939e-05	1.4242e-05	328.87	116.07	47.401	19.312	2.6233e-05	54.353	0.013741	0.01977	0.0054821	997.65	0.00021778	0.00021802	1081.4	191.7	0.00020096	0.00021575	381.38	133.93	66.279	25.714	0.00020964	62.176	213.951	296.669	138.956	-24.250	257.042	15.280	-23.328	-18.613	104.815	28.965	-18.314	-13.274	-14.019	-9.267	112.391	-9.690	-8191	255	
26332.920	1	1	0	0	0.058912	0.055061	0.11981	0.11598	0.13754	0.10031	0.26805	0.22033	0.14621	0.10091	0.21304	0.097447	0.22972	0.063389	0.16321	0.12075	-2.2208	-2.6896	-3.0396	-2.675	-2.7896	-2.9375	-2.7812	-2.8417	-2.6667	-2.75	-3.1229	-2.6896	-2.6125	-2.7938	-2.5187	-3.0771	140.498	18.152	278.717	37.713	220.717	188.017	266.341	196.986	93.737	217.197	279.899	236.069	308.156	67.109	217.654	256.561	0.00023439	0.0010821	0.000443	631.95	1.2798e-05	3.8304e-06	1001.3	151.44	6.2296e-06	1.5615e-05	323.98	114.79	47.272	19.115	1.39e-05	54.368	0.013301	0.019083	0.0053447	985.68	0.0002092	0.00021293	1072.8	190.42	0.00019837	0.00021725	378.73	133.18	66.005	25.618	0.00020527	61.946	198.134	104.668	-31.153	-22.993	156.572	127.257	-23.272	-18.337	296.430	225.207	-18.927	-13.363	-13.293	-9.201	96.496	-9.634	-8191	255	
26333.016	1	1	0	0	0.19512	0.069992	0.14455	0.14575	0.23005	0.25932	0.19289	0.17185	0.098158	0.14136	0.10156	0.2341	0.30149	0.16961	0.23449	0.32875	-2.0812	-2.7083	-2.85	-2.6562	-2.7542	-2.9292	-2.7604	-3.0354	-2.6562	-2.5292	-3.1375	-2.7188	-2.9042	-3.0208	-2.5542	-2.8396	204.035	127.543	322.808	263.981	263.295	306.472	296.855	298.586	311.296	52.116	242.590	293.411	315.995	182.215	235.744	249.793	9.5745e-05	0.0010568	0.0002344	635.33	4.7565e-06	7.0279e-06	1009.8	153.14	1.3636e-05	1.5639e-05	328.56	115.94	47.616	19.328	9.6963e-06	55.069	0.013409	0.019291	0.005403	993.32	0.00021457	0.00021601	1079.2	192.55	0.00020376	0.00021873	383.4	134.5	67.007	25.994	0.00021066	62.973	190.274	260.383	183.739	-23.168	239.432	218.517	-23.092	-18.442	124.163	284.585	-18.406	-13.506	-13.605	-8.702	94.971	-9.425	-8191	255	
26333.111	1	1	0	0	0.16002	0.090483	0.18555	0.1989	0.2545	0.21865	0.081062	0.07876	0.046505	0.13738	0.15917	0.26766	0.13407	0.37152	0.096023	0.24304	-2.4542	-2.7083	-2.8333	-2.8	-2.7792	-2.725	-2.675	-2.8146	-2.7812	-2.4729	-3.1042	-2.8	-2.7542	-2.925	-2.6167	-3.2146	41.969	149.273	36.000	319.692	159.321	50.283	-5.169	19.205	96.334	284.872	250.015	277.191	-4.211	172.174	122.829	277.150	0.00028514	0.00037745	0.00017872	641.05	7.2038e-06	1.0485e-05	1009.2	154.51	7.4326e-06	2.099e-05	331.82	115.23	48.638	19.614	9.7229e-06	55.509	0.013747	0.019757	0.0055302	1009.1	0.00021631	0.00022091	1083.6	193.66	0.00020563	0.00022333	386.32	135.12	67.692	26.235	0.00021129	63.457	197.058	126.076	293.225	-23.981	262.490	-31.195	-22.991	-18.151	162.801	-12.397	-18.292	-13.523	-13.725	-9.109	106.637	-9.362	-8191	255	
26333.207	1	1	0	0	0.10778	0.18952	0.25172	0.28494	0.14359	0.050051	0.18564	0.30994	0.13913	0.1975	0.063792	0.16895	0.28081	0.11995	0.044147	0.17506	-2.3958	-2.6771	-3.0417	-2.6458	-2.7396	-2.9	-3.0292	-2.9229	-2.8604	-2.4479	-3.0604	-2.9833	-2.7896	-2.9729	-2.6604	-2.7708	175.382	171.751	43.977	38.629	148.405	267.612	-27.825	296.616	209.154	258.833	164.911	262.856	121.674	58.686	231.094	318.472	0.00016081	0.0016389	0.00011396	651.12	1.033e-05	3.9974e-06	1014.6	153.82	5.9175e-06	9.2427e-06	331.84	116.98	48.957	19.843	6.3178e-06	55.84	0.013792	0.019782	0.0055346	1013.1	0.00021961	0.00022065	1090.3	194.44	0.00020583	0.00021909	387.57	136.11	68.157	26.458	0.00021141	63.904	220.100	128.194	214.240	-23.541	261.447	236.339	-23.259	-18.313	176.014	128.079	-18.381	-13.285	-13.879	-9.149	173.189	-8.933	-8191	255	
26333.305	1	1	0	0	0.425	0.18942	0.34441	0.17047	0.058882	0.1119	0.051023	0.27858	0.21462	0.20161	0.23869	0.14333	0.14888	0.18495	0.071805	0.069217	-2.4146	-2.3958	-2.8292	-2.6625	-2.5146	-2.9604	-2.8958	-2.6813	-2.8167	-2.5646	-3	-2.7896	-2.4396	-2.8917	-2.6875	-2.9833	181.738	-6.601	31.223	162.275	0.276	273.319	226.542	-32.595	168.228	303.694	66.038	228.713	66.701	245.064	-29.967	-12.347	0.00018115	0.0015406	0.00023952	652.51	5.7684e-06	2.5397e-05	1019.6	153.97	9.5872e-06	1.0639e-05	330.43	115.8	48.757	19.392	5.1375e-06	55.047	0.013805	0.019902	0.0055582	1011.2	0.00021566	0.00022059	1088.6	193.37	0.00020323	0.00021735	386.46	134.89	67.495	26.089	0.00020879	62.935	235.487	142.221	91.988	-24.196	124.706	132.239	-23.176	-18.577	310.059	253.277	-18.751	-13.617	-13.916	-9.251	6.155	-9.611	-8191	255	
26333.426	1	1	0	0	0.34965	0.1377	0.23996	0.050279	0.018943	0.055462	0.18927	0.21627	0.041473	0.058386	0.34866	0.12196	0.2625	0.24594	0.18867	0.086972	-2.4229	-2.5104	-2.8333	-2.7396	-2.5271	-2.9146	-2.7521	-2.6708	-2.7771	-2.5708	-2.8708	-2.8104	-2.7708	-2.925	-2.625	-2.8042	180.927	51.773	4.476	299.220	167.984	147.056	302.017	311.395	290.284	43.845	289.183	305.016	19.820	170.719	196.373	50.285	0.00036918	0.001256	0.00066947	635.32	9.4042e-06	2.7112e-05	1011.4	154.19	1.9542e-05	2.6684e-05	331.89	115.27	47.869	19.479	1.9531e-05	55.382	0.013674	0.019576	0.0054672	1002.4	0.0002163	0.00021834	1082	192.32	0.00020268	0.00021541	384.45	134.6	67.237	26.105	0.00020809	63.406	147.054	81.889	49.010	-24.443	64.639	61.341	-23.181	-18.136	157.384	138.107	-19.031	-13.279	-13.626	-9.245	156.220	-9.420	-8191	255	
26333.496	1	1	0	0	0.25047	0.058721	0.048047	0.088176	0.16175	0.062551	0.10692	0.2669	0.23788	0.16234	0.23923	0.1762	0.25781	0.1421	0.43888	0.15087	-2.5021	-2.4583	-2.8438	-2.8896	-2.5833	-3.0083	-3.0583	-2.6083	-2.875	-2.6375	-2.9333	-2.9792	-2.5833	-2.9146	-2.7333	-2.6188	76.794	134.036	33.746	284.962	237.927	-19.608	285.217	24.126	91.924	187.468	-12.248	10.799	280.672	293.380	186.738	258.920	0.00019549	0.0015595	0.00032502	640.79	1.2819e-05	8.4929e-06	1006.9	154.88	8.5467e-06	1.2376e-05	331	117.31	48.668	19.652	6.366e-06	55.653	0.013544	0.019462	0.0054221	997.45	0.00020927	0.00021771	1083.1	192.85	0.00020208	0.00021439	385.29	135.37	67.375	26.187	0.00020712	63.354	172.255	143.547	319.936	-24.206	110.014	189.281	-23.031	-18.508	59.443	124.752	-18.711	-13.751	-13.579	-9.504	242.395	-9.118	-8191	255	
26333.594	1	1	0	0	0.27552	0.14374	0.20668	0.05804	0.27019	0.16375	0.043246	0.35282	0.14911	0.2128	0.32141	0.11284	0.15839	0.34953	0.04994	0.22325	-2.6271	-2.7542	-2.7167	-2.7833	-2.6896	-2.9875	-3.1688	-2.5833	-3.0333	-2.6708	-2.7313	-3.1542	-2.5563	-2.975	-2.8688	-2.7521	228.973	91.222	276.983	22.717	255.724	108.918	213.335	43.915	62.032	173.434	266.299	183.639	-2.536	185.166	230.436	302.907	0.00013296	0.0016893	0.00024415	643.49	1.0338e-05	3.2652e-05	1020.6	155.25	1.8686e-05	6.7593e-06	333.13	117.68	48.648	19.836	8.6634e-06	56.184	0.013651	0.019315	0.0053969	1004.1	0.00020843	0.00021975	1089.5	193.3	0.00020054	0.00021277	386.42	135.64	67.478	26.192	0.00020521	63.763	195.975	73.196	115.945	-23.496	92.226	248.466	-23.284	-18.631	32.143	47.522	-18.367	-13.484	-13.221	-8.500	97.893	-9.299	-8191	255	
26333.689	1	1	0	0	0.11629	0.1986	0.17103	0.14847	0.18901	0.41656	0.032428	0.25363	0.09984	0.21692	0.28493	0.39696	0.16912	0.09877	0.10811	0.26613	-2.5333	-2.8896	-2.8146	-2.9542	-2.6813	-2.8458	-3.1333	-2.6375	-2.8792	-2.7604	-2.8271	-3.1375	-2.5312	-2.8646	-2.8479	-2.6	232.688	168.752	-12.883	77.654	-3.876	112.599	229.245	290.045	126.152	292.569	230.198	289.160	273.339	288.108	318.950	308.473	4.5065e-05	0.00082231	0.00033824	652.41	9.2592e-06	1.2793e-05	1018.8	155.25	3.6873e-06	1.6991e-05	333.82	117.38	49.063	19.773	4.6983e-06	56.087	0.01341	0.01923	0.0053657	1004.2	0.00020761	0.00021774	1090.9	194.17	0.00020028	0.00021314	388.37	135.65	67.417	26.225	0.0002059	63.348	145.418	-29.289	131.700	-23.977	210.771	42.941	-22.975	-18.094	153.574	133.919	-18.369	-13.317	-13.811	-9.279	76.199	-9.083	-8191	255	
26333.809	1	1	0	0	0.072413	0.14328	0.02418	0.36833	0.081931	0.11857	0.31047	0.14695	0.14941	0.10283	0.052075	0.16891	0.33082	0.098193	0.1295	0.13006	-2.575	-2.6479	-2.5875	-2.9333	-2.6188	-2.775	-3.0896	-2.6437	-2.9646	-2.7812	-2.7542	-2.9562	-2.6375	-2.7021	-3.0854	-2.5958	244.212	30.556	79.486	91.586	-4.872	-22.399	192.101	310.734	134.206	103.265	277.735	247.901	237.924	246.380	231.281	276.339	0.00031331	0.0020873	0.00017986	640.42	4.1268e-06	1.6298e-05	1009.4	153.77	7.3426e-06	4.5915e-06	330.53	115.32	48.462	19.555	2.1577e-05	55.407	0.013574	0.019322	0.0053948	1001.3	0.00020879	0.00022026	1079.8	192.49	0.00020118	0.00021445	383.82	134.54	67.039	26.071	0.00020568	62.968	197.536	48.653	241.332	-24.107	78.343	121.991	-23.117	-18.320	224.980	143.975	-18.495	-13.508	-13.686	-9.588	271.680	-9.480	-8191	255	
26333.904	1	1	0	0	0.043795	0.16158	0.018061	0.075687	0.071723	0.018176	0.11408	0.207	0.30392	0.17113	0.25098	0.22391	0.12165	0.20198	0.018026	0.21604	-2.4479	-2.6625	-2.5208	-2.9021	-2.7479	-2.7333	-3.2021	-2.6021	-2.7687	-2.9125	-2.675	-2.8958	-2.7792	-2.6417	-2.9229	-2.8229	154.510	48.084	220.177	20.423	281.672	294.380	-21.642	189.132	111.708	84.443	141.081	-33.326	58.017	259.927	-9.205	311.285	0.00031192	0.0012667	0.0003475	633.48	3.6381e-06	1.2513e-05	1014	153.65	1.2996e-05	1.5508e-05	332.27	115.54	48.465	19.554	1.9264e-05	55.809	0.013888	0.019287	0.0053619	998.33	0.00020762	0.00021779	1082.2	192.85	0.00020113	0.00021519	384.93	134.82	67.084	26.144	0.00020787	63.078	163.981	125.131	-20.671	-23.917	114.501	-10.003	-23.359	-18.411	53.494	152.527	-18.466	-13.517	-14.080	-9.038	76.367	-9.149	-8191	255	
26334.000	1	1	0	0	0.1182	0.20481	0.29429	0.20016	0.14972	0.16757	0.12496	0.099022	0.085832	0.16767	0.25008	0.13056	0.064727	0.1692	0.16765	0.14255	-2.2271	-2.6333	-2.5021	-2.8187	-2.7521	-2.6833	-3.1375	-2.6458	-2.9479	-2.8187	-2.5771	-2.975	-2.6646	-2.7646	-3.0187	-2.7687	212.473	269.133	80.682	241.623	136.934	223.413	220.977	315.074	222.668	120.633	315.787	116.110	237.882	223.468	-26.406	3.067	0.00010403	0.0021323	0.00039703	649.77	1.1243e-05	1.4636e-05	1012.6	153.98	3.3787e-06	1.1667e-05	330.95	116.48	48.754	19.459	1.12e-05	55.969	0.013595	0.019299	0.0053738	1002.8	0.00020882	0.00022001	1086.6	192.79	0.00020029	0.00021532	384.19	135.36	67.773	26.166	0.00021054	63.478	224.643	69.804	213.164	-23.538	162.645	85.570	-23.026	-18.051	97.126	-12.688	-18.817	-13.625	-13.788	-9.223	184.808	-9.373	-8191	255	
26334.121	1	1	0	0	0.1307	0.17541	0.2297	0.061714	0.11212	0.10763	0.03566	0.24908	0.15273	0.023752	0.215	0.11155	0.059297	0.29342	0.047223	0.067734	-2.2771	-3.0396	-2.725	-2.9042	-2.6729	-2.6458	-3.0917	-2.6417	-2.7	-2.7479	-2.6542	-2.9	-2.6479	-2.5583	-3.125	-2.6271	101.347	-22.396	306.501	101.957	60.943	25.987	49.268	57.469	313.851	71.698	289.932	213.155	311.878	41.774	71.455	280.390	7.1652e-05	0.0019405	0.00029704	643.15	1.1742e-05	1.893e-05	1016	154.15	5.9336e-06	1.545e-05	331.35	116.86	48.878	19.764	1.6886e-05	55.853	0.01401	0.019475	0.0054518	1007.8	0.00021036	0.00021847	1086.8	193.63	0.00020188	0.00021626	386.04	136.55	67.877	26.436	0.00020923	63.678	66.709	-18.257	94.994	-23.690	89.819	211.987	-23.284	-18.787	121.643	109.093	-18.558	-13.391	-13.522	-8.722	124.027	-9.415	-8191	255	
26334.193	1	1	0	0	0.29054	0.11568	0.20496	0.12577	0.18864	0.266	0.074296	0.12804	0.13912	0.20148	0.012644	0.13176	0.12437	0.25291	0.14054	0.092865	-2.2458	-2.8896	-2.4729	-2.8604	-2.6479	-2.4437	-3.1083	-2.7042	-2.5792	-2.8917	-2.7167	-2.875	-2.6896	-2.6104	-2.8792	-2.7667	213.074	212.662	282.568	69.743	190.261	282.803	70.949	194.654	206.651	2.454	242.534	296.891	256.680	4.990	283.672	248.426	0.00044538	0.0023868	0.00052685	652.02	3.4171e-06	3.1837e-05	1019.5	155.6	9.6692e-06	1.2337e-05	329.98	114.67	48.165	19.585	5.5801e-06	54.763	0.013811	0.019676	0.0054559	1012.9	0.00021201	0.00022239	1089	193.68	0.00020382	0.00021814	382.85	134.05	67.047	26.056	0.00021139	62.576	201.219	112.246	177.583	-24.176	-10.877	113.038	-23.083	-18.880	208.401	214.243	-18.609	-13.471	-13.612	-8.962	321.096	-9.719	-8191	255	
26334.289	1	1	0	0	0.056294	0.26722	0.16089	0.22253	0.26143	0.04683	0.44444	0.138	0.14377	0.09952	0.21677	0.29153	0.31925	0.083633	0.21276	0.22859	-2.2708	-2.9104	-2.5542	-2.7687	-2.8146	-2.6146	-3.1708	-2.8104	-2.575	-2.7125	-2.775	-2.7833	-2.8583	-2.6562	-2.7812	-2.7938	212.578	70.523	233.460	287.272	173.361	300.024	286.460	256.382	108.596	91.239	287.286	-6.386	293.322	207.272	87.011	186.267	0.00026726	0.0020036	0.00014368	636.72	1.5722e-05	1.1043e-05	1011.6	153.55	6.3835e-06	2.8765e-05	329.59	115.33	48.105	19.372	1.976e-05	54.625	0.014057	0.019739	0.0054694	1005.9	0.00021065	0.00021881	1085.2	192.52	0.00020286	0.00021694	382.37	134.62	67.111	25.977	0.00020892	62.362	167.581	109.914	85.181	-24.146	182.998	239.205	-22.972	-18.832	253.997	195.233	-18.876	-13.380	-13.581	-8.967	127.860	-9.698	-8191	255	
26334.408	1	1	0	0	0.23471	0.17692	0.11466	0.050067	0.12903	0.16515	0.14789	0.17383	0.10915	0.20918	0.076481	0.14893	0.1245	0.10214	0.23208	0.12092	-2.0042	-2.8	-2.6562	-2.65	-2.8937	-2.7229	-2.9458	-2.9229	-2.4396	-2.8667	-2.7271	-2.675	-2.925	-2.6708	-2.7208	-3.0396	51.657	123.008	-11.248	-3.312	230.190	237.546	221.154	113.486	163.254	71.993	71.994	16.973	165.332	126.319	138.240	319.809	0.00024044	0.0021732	0.00063712	640.95	1.6226e-05	8.8364e-06	1015.7	152.91	1.2937e-05	2.8628e-06	328.42	114.49	48.279	19.446	1.9237e-05	55.052	0.013674	0.019625	0.0054305	1006.5	0.00021322	0.00021849	1091.9	193.27	0.00020483	0.00021974	383.62	134.21	67.423	26.112	0.00021157	62.848	230.006	7.753	82.069	-23.090	169.196	242.077	-22.963	-18.357	166.225	301.379	-18.572	-13.454	-12.890	-8.866	117.982	-9.551	-8191	255	
26334.506	1	1	0	0	0.29637	0.077994	0.12429	0.21211	0.21067	0.2072	0.43399	0.065664	0.16974	0.19476	0.22264	0.20312	0.11039	0.2539	0.16162	0.14704	-2.0854	-2.7542	-2.6667	-2.6979	-2.8479	-2.6125	-2.9437	-2.8604	-2.4979	-3.1063	-2.9104	-2.6917	-3.0438	-2.5687	-2.9708	-2.9417	95.858	173.533	79.180	-32.509	-15.405	124.159	322.241	287.581	197.057	-7.141	-35.629	226.372	232.996	87.114	136.454	316.346	0.00013224	0.0028217	0.00067894	643.25	9.7095e-06	2.6972e-05	1023.9	152.37	2.4342e-05	1.3038e-05	329.91	116.28	48.234	19.552	1.641e-05	55.812	0.013949	0.019968	0.0055003	1012.9	0.00021394	0.00022004	1094.7	193.5	0.0002024	0.00021849	384.86	135.74	67.63	26.144	0.00020683	63.287	143.623	163.792	28.885	-23.603	40.329	138.102	-23.274	-18.293	211.742	233.265	-18.473	-13.500	-13.779	-9.475	97.640	-9.581	-8191	255	
26334.602	1	1	0	0	0.12572	0.11348	0.087047	0.21769	0.031048	0.27299	0.12309	0.25121	0.33471	0.11421	0.20786	0.086023	0.29894	0.059609	0.37991	0.20111	-2.1229	-2.9646	-2.7521	-2.5938	-3.0604	-2.6917	-2.9771	-2.9292	-2.6729	-3.0708	-2.8812	-2.6229	-2.9854	-2.7521	-2.6646	-3.0542	74.695	147.398	292.705	178.452	154.011	107.399	171.402	282.327	204.705	140.419	57.089	277.729	15.886	209.618	225.409	294.518	0.00012277	0.0023294	0.00020472	646.3	1.5092e-05	1.2533e-05	1023	155	1.7846e-05	1.9821e-05	332.38	116.07	48.28	19.692	1.6245e-05	55.679	0.013644	0.019764	0.0054415	1012.1	0.00021263	0.00021835	1098.6	194.72	0.00020372	0.00021957	385.44	135.3	67.691	26.171	0.00020718	62.992	249.497	206.155	58.564	-23.877	104.030	83.987	-23.048	-18.266	128.255	58.222	-18.458	-13.541	-14.374	-9.829	267.151	-9.166	-8191	255	
26334.721	1	1	0	0	0.18901	0.07491	0.20302	0.29852	0.17655	0.15486	0.26016	0.25248	0.19562	0.41285	0.37724	0.24456	0.17328	0.16857	0.14076	0.20451	-1.9792	-2.7229	-3.0354	-2.5896	-3.1125	-2.6625	-2.7854	-2.8771	-2.7771	-3.1458	-2.8167	-2.6562	-2.9021	-2.6562	-2.825	-3.0812	299.937	255.776	221.114	124.034	198.465	261.258	262.868	-7.256	85.066	153.334	59.796	132.989	-20.105	-34.899	97.240	-32.919	0.00018684	0.00099773	0.00030859	643.05	3.5693e-06	2.1649e-05	1013.9	154.17	9.0841e-06	8.8958e-06	327.42	115.4	48.235	19.628	4.0063e-06	55.001	0.013503	0.020013	0.0054237	1003.6	0.00021323	0.00021794	1085	193.12	0.00020258	0.00021709	381.9	134.6	67.458	26.055	0.00020709	62.704	179.818	172.695	3.265	-23.809	197.571	17.680	-23.363	-18.723	181.432	133.541	-18.346	-13.711	-13.223	-9.491	115.799	-9.345	-8191	255	
26334.795	1	1	0	0	0.086979	0.075375	0.079504	0.25049	0.16869	0.061226	0.15814	0.065165	0.36404	0.077598	0.17426	0.034646	0.14936	0.094688	0.21568	0.19997	-2.3333	-2.7646	-2.8042	-2.6146	-2.9188	-2.7812	-2.775	-2.9354	-2.5729	-2.9313	-2.8896	-2.5812	-3.0604	-2.7	-2.4146	-3.2479	50.439	-5.269	157.545	77.485	32.183	-27.606	306.941	19.546	134.146	58.953	203.497	5.486	-26.324	105.574	161.295	310.971	0.00026854	0.00059802	0.00068087	635.03	9.6542e-06	3.6014e-05	1020.3	154.36	5.9693e-06	1.1179e-05	329.05	116.17	48.538	19.7	6.153e-06	55.628	0.013667	0.019735	0.005419	1003.2	0.00021157	0.00021664	1089.5	193.88	0.00020255	0.00021592	383.59	134.66	67.62	26.172	0.00020785	63.181	193.901	25.492	67.254	-24.064	98.251	104.601	-22.982	-18.031	6.869	25.076	-18.476	-13.357	-13.926	-8.875	238.825	-9.673	-8191	255	
26334.889	1	1	0	0	0.18328	0.13799	0.32504	0.16009	0.15791	0.12955	0.11798	0.14261	0.21014	0.23033	0.37155	0.26462	0.090821	0.22605	0.11692	0.3832	-2.2771	-2.6521	-2.7417	-2.6125	-2.8458	-2.8292	-2.7479	-2.9333	-2.6229	-2.7083	-2.9125	-2.7687	-2.6896	-2.85	-2.5	-2.9958	145.653	177.561	35.799	17.818	266.702	292.740	217.882	207.040	178.319	63.572	278.971	279.953	77.444	247.674	262.786	289.227	0.00019441	0.0011644	0.00023253	635.07	1.0497e-05	2.2468e-05	1022.6	154.25	5.9614e-06	1.5237e-05	330.77	115.18	48.919	19.642	1.4094e-05	55.755	0.01358	0.020018	0.0054414	1004	0.00021089	0.00021696	1089.7	193.85	0.0002034	0.00021706	385.62	135.03	68.322	26.317	0.00020951	63.515	176.960	237.937	36.548	-24.175	54.058	128.883	-23.419	-18.351	56.249	105.070	-18.385	-13.783	-13.102	-8.928	108.952	-9.295	-8191	255	
26334.984	1	1	0	0	0.2006	0.16846	0.18686	0.33356	0.14764	0.26049	0.22971	0.24737	0.23634	0.14739	0.15862	0.17733	0.11255	0.15562	0.11236	0.37124	-2.3083	-2.7458	-2.7667	-2.5708	-2.9042	-2.8792	-2.7979	-3.0354	-2.8271	-2.6646	-2.9521	-2.5042	-2.8708	-3.05	-2.8021	-2.9354	318.500	139.528	284.423	156.234	255.471	237.141	227.935	253.403	155.676	34.932	37.424	76.038	288.710	213.464	53.633	288.901	0.00021334	0.0024389	0.00028695	649.4	1.0032e-05	3.0812e-05	1017.8	154.77	1.3889e-05	8.6598e-06	331.62	117.72	49.085	19.953	7.2122e-07	56.196	0.013644	0.019674	0.0054498	1010.5	0.00021077	0.00021694	1092	195.08	0.0002049	0.00021737	387.8	136.26	68.706	26.551	0.00021047	63.774	121.406	185.404	95.798	-23.426	19.545	106.567	-23.188	-18.391	55.373	-16.934	-18.684	-13.689	-13.366	-9.656	119.537	-9.294	-8191	255	
#DATA ENDS
