BOXY.EXE: ISS Imagent and Oximeter Data Acquisition Program Version 0.80
Ascii Record File

#ACQ INFORMATION
2  Detector Channels 
16  External MUX Channels 
1  Auxiliary Channels 
5000  Waveform (CCF) Frequency (Hz)
1  Waveforms Skipped 
30  Waveforms Averaged 
1  Cycles Averaged 
16  Acquisitions per Waveform 
10.0806  Updata Rate (Hz) 

#FILE INFORMATION
TRUE -- External MUX Channel results are PARSED.
FALSE -- AC DC and Phase are NOT grouped.
TRUE -- Companion Program Settings File CREATED.
FALSE -- AC data not excluded
FALSE -- DC data not excluded
FALSE -- Phase data not excluded
FALSE -- Auxillary Chn. data not excluded
Tab delimiters

#CALIBRATION STATE
TRUE -- Waveform Calibration Values APPLIED.


#AUX CALIBRATION VALUES
Val Type	aux-1	

Term	1.0000e+00	
Factor	0.0000e+00	


#WF CALIBRATION VALUES
A = Detector Channel
Val Type	A-AC1	A-AC2	A-AC3	A-AC4	A-AC5	A-AC6	A-AC7	A-AC8	A-AC9	A-AC10	A-AC11	A-AC12	A-AC13	A-AC14	A-AC15	A-AC16	A-DC1	A-DC2	A-DC3	A-DC4	A-DC5	A-DC6	A-DC7	A-DC8	A-DC9	A-DC10	A-DC11	A-DC12	A-DC13	A-DC14	A-DC15	A-DC16	A-Ph1	A-Ph2	A-Ph3	A-Ph4	A-Ph5	A-Ph6	A-Ph7	A-Ph8	A-Ph9	A-Ph10	A-Ph11	A-Ph12	A-Ph13	A-Ph14	A-Ph15	A-Ph16	

Term	0.00000e+00	0.00000e+00	0.00000e+00	0.00000e+00	0.00000e+00	0.00000e+00	0.00000e+00	0.00000e+00	0.00000e+00	0.00000e+00	0.00000e+00	0.00000e+00	0.00000e+00	0.00000e+00	0.00000e+00	0.00000e+00	0.00000e+00	0.00000e+00	0.00000e+00	0.00000e+00	0.00000e+00	0.00000e+00	0.00000e+00	0.00000e+00	0.00000e+00	0.00000e+00	0.00000e+00	0.00000e+00	0.00000e+00	0.00000e+00	0.00000e+00	0.00000e+00	0.00000e+00	0.00000e+00	0.00000e+00	0.00000e+00	0.00000e+00	0.00000e+00	0.00000e+00	0.00000e+00	0.00000e+00	0.00000e+00	0.00000e+00	0.00000e+00	0.00000e+00	0.00000e+00	0.00000e+00	0.00000e+00	
Factor	1.00000e+00	1.00000e+00	1.00000e+00	1.00000e+00	1.00000e+00	1.00000e+00	1.00000e+00	1.00000e+00	1.00000e+00	1.00000e+00	1.00000e+00	1.00000e+00	1.00000e+00	1.00000e+00	1.00000e+00	1.00000e+00	1.00000e+00	1.00000e+00	1.00000e+00	1.00000e+00	1.00000e+00	1.00000e+00	1.00000e+00	1.00000e+00	1.00000e+00	1.00000e+00	1.00000e+00	1.00000e+00	1.00000e+00	1.00000e+00	1.00000e+00	1.00000e+00	X	X	X	X	X	X	X	X	X	X	X	X	X	X	X	X	

B = Detector Channel
Val Type	B-AC1	B-AC2	B-AC3	B-AC4	B-AC5	B-AC6	B-AC7	B-AC8	B-AC9	B-AC10	B-AC11	B-AC12	B-AC13	B-AC14	B-AC15	B-AC16	B-DC1	B-DC2	B-DC3	B-DC4	B-DC5	B-DC6	B-DC7	B-DC8	B-DC9	B-DC10	B-DC11	B-DC12	B-DC13	B-DC14	B-DC15	B-DC16	B-Ph1	B-Ph2	B-Ph3	B-Ph4	B-Ph5	B-Ph6	B-Ph7	B-Ph8	B-Ph9	B-Ph10	B-Ph11	B-Ph12	B-Ph13	B-Ph14	B-Ph15	B-Ph16	

Term	0.00000e+00	0.00000e+00	0.00000e+00	0.00000e+00	0.00000e+00	0.00000e+00	0.00000e+00	0.00000e+00	0.00000e+00	0.00000e+00	0.00000e+00	0.00000e+00	0.00000e+00	0.00000e+00	0.00000e+00	0.00000e+00	0.00000e+00	0.00000e+00	0.00000e+00	0.00000e+00	0.00000e+00	0.00000e+00	0.00000e+00	0.00000e+00	0.00000e+00	0.00000e+00	0.00000e+00	0.00000e+00	0.00000e+00	0.00000e+00	0.00000e+00	0.00000e+00	-6.15763e+01	-1.30411e+02	-1.24549e+02	-1.82143e+02	-5.62854e+01	-6.13144e+01	-1.55749e+02	-1.62015e+02	-4.36545e+01	-5.84641e+01	-1.71172e+02	-1.71176e+02	-1.81653e+02	-1.77264e+02	-5.75505e+01	-1.50260e+02	
Factor	1.84335e-05	1.52056e-04	4.43642e-05	4.71444e-01	1.63633e-06	1.83727e-06	1.70005e-01	5.70259e-02	1.24874e-06	1.86029e-06	9.06459e-02	2.89522e-02	2.44098e-02	8.74298e-03	1.46882e-06	1.28138e-02	7.07437e-06	9.43660e-06	2.63415e-06	2.38107e-01	1.02249e-07	1.04931e-07	8.15064e-02	2.91262e-02	9.98385e-08	1.04856e-07	4.47650e-02	1.44068e-02	1.26248e-02	4.50497e-03	1.02288e-07	6.38331e-03	X	X	X	X	X	X	X	X	X	X	X	X	X	X	X	X	



#DISTANCE SETTINGS
A = Detector Channel
A-1	A-2	A-3	A-4	A-5	A-6	A-7	A-8	A-9	A-10	A-11	A-12	A-13	A-14	A-15	A-16	

2.5000e+00	3.0000e+00	2.5000e+00	3.0000e+00	2.0000e+00	3.0000e+00	1.5000e+00	3.0000e+00	3.0000e+00	3.0000e+00	3.0000e+00	3.0000e+00	3.0000e+00	3.0000e+00	1.5000e+00	3.0000e+00	

B = Detector Channel
B-1	B-2	B-3	B-4	B-5	B-6	B-7	B-8	B-9	B-10	B-11	B-12	B-13	B-14	B-15	B-16	

1.0000e+01	1.0000e+01	1.0000e+01	1.4400e+00	1.0000e+01	1.0000e+01	1.5100e+00	1.9400e+00	1.0000e+01	1.0000e+01	1.9900e+00	2.4900e+00	2.4100e+00	2.9000e+00	1.0000e+01	2.9800e+00	




#DATA BEGINS
time	group	step	mark	flag	A-AC1	A-AC2	A-AC3	A-AC4	A-AC5	A-AC6	A-AC7	A-AC8	A-AC9	A-AC10	A-AC11	A-AC12	A-AC13	A-AC14	A-AC15	A-AC16	A-DC1	A-DC2	A-DC3	A-DC4	A-DC5	A-DC6	A-DC7	A-DC8	A-DC9	A-DC10	A-DC11	A-DC12	A-DC13	A-DC14	A-DC15	A-DC16	A-Ph1	A-Ph2	A-Ph3	A-Ph4	A-Ph5	A-Ph6	A-Ph7	A-Ph8	A-Ph9	A-Ph10	A-Ph11	A-Ph12	A-Ph13	A-Ph14	A-Ph15	A-Ph16	B-AC1	B-AC2	B-AC3	B-AC4	B-AC5	B-AC6	B-AC7	B-AC8	B-AC9	B-AC10	B-AC11	B-AC12	B-AC13	B-AC14	B-AC15	B-AC16	B-DC1	B-DC2	B-DC3	B-DC4	B-DC5	B-DC6	B-DC7	B-DC8	B-DC9	B-DC10	B-DC11	B-DC12	B-DC13	B-DC14	B-DC15	B-DC16	B-Ph1	B-Ph2	B-Ph3	B-Ph4	B-Ph5	B-Ph6	B-Ph7	B-Ph8	B-Ph9	B-Ph10	B-Ph11	B-Ph12	B-Ph13	B-Ph14	B-Ph15	B-Ph16	aux-1	digaux	

18468.785	1	1	0	768	0.13572	0.14623	0.04816	0.20429	0.22217	0.1767	0.16581	0.26088	0.12472	0.1934	0.1329	0.23526	0.096262	0.11984	0.15414	0.10973	-2.3729	-2.7104	-2.9021	-2.5438	-2.8438	-2.7729	-2.7292	-2.8646	-2.5771	-2.5292	-3.1167	-2.9458	-2.7792	-3.0083	-2.6917	-2.8729	265.272	389.603	226.380	519.277	335.457	327.389	534.291	294.559	398.712	321.558	450.896	509.039	480.709	188.825	399.283	418.839	0.00075487	0.00069415	0.00042064	806.65	4.895e-06	6.7361e-06	1340.7	220.41	8.0644e-06	4.3953e-06	515.57	224.63	75.383	28.204	1.8886e-05	79.301	0.001659	0.0019802	0.0005495	768.85	2.1925e-05	2.2417e-05	1187.5	197.55	2.1485e-05	2.3833e-05	460.43	200.69	68.533	25.618	3.2571e-05	71.344	274.327	272.219	238.568	193.161	307.532	267.116	193.657	197.214	328.321	310.160	197.943	201.965	200.828	204.717	252.763	205.547	-8191	255	
18468.881	1	1	0	0	0.14448	0.25755	0.032999	0.16714	0.071358	0.11961	0.17998	0.22999	0.27409	0.19318	0.047306	0.037606	0.15772	0.1114	0.05245	0.25088	-2.3396	-2.4896	-3.0187	-2.5896	-2.7521	-2.8187	-2.8167	-2.9167	-2.8563	-2.825	-2.9562	-2.9375	-2.9	-3.0167	-2.7062	-2.9667	395.591	268.493	303.399	252.647	524.658	456.349	434.594	181.159	278.669	232.421	474.360	310.664	314.443	451.850	485.131	477.451	0.00064686	0.00057209	0.00030936	806.76	3.0827e-06	1.3068e-05	1335.5	221.31	3.8524e-06	1.0008e-05	514.85	224.03	75.411	28.466	4.1286e-06	79.677	0.0016926	0.0019454	0.00056972	750.36	2.1969e-05	2.222e-05	1188.3	198.53	2.1601e-05	3.4016e-05	460.31	200.77	68.759	25.923	2.4513e-05	71.549	273.840	211.126	291.568	192.960	248.148	402.372	193.789	197.634	360.451	429.406	197.951	202.155	201.110	204.588	326.978	205.454	-8191	255	
18468.979	1	1	0	0	0.27567	0.18892	0.098504	0.064606	0.047159	0.1467	0.1924	0.15488	0.080712	0.26269	0.092556	0.18952	0.27154	0.33362	0.16412	0.21662	-2.3583	-2.4417	-2.9896	-2.8125	-2.8479	-2.9688	-2.9	-2.7687	-2.8917	-2.4625	-2.9979	-2.7979	-2.7	-3.1937	-2.6167	-3.0062	392.668	459.953	495.485	496.156	306.122	413.413	480.246	434.676	453.883	330.509	471.028	531.600	521.140	216.114	515.973	469.379	0.00070507	0.0009585	9.8722e-05	802.48	1.938e-05	6.8575e-06	1336.8	218.4	1.6068e-06	1.3612e-06	510.89	222.09	75.28	28.286	3.2072e-06	79.374	0.001739	0.0020837	0.00058395	753.67	2.528e-05	2.221e-05	1183	196.5	2.1297e-05	2.4277e-05	458.18	199.54	68.443	25.703	3.2261e-05	71.508	269.953	241.012	279.670	193.131	338.711	299.002	193.659	197.604	401.191	517.469	198.409	202.208	201.210	204.504	254.420	205.471	-8191	255	
18469.074	1	1	0	0	0.15196	0.24972	0.28947	0.061802	0.14751	0.12892	0.39205	0.13069	0.32844	0.13922	0.090654	0.38598	0.1467	0.21756	0.048243	0.054181	-2.3896	-2.5604	-2.9208	-2.5917	-2.6042	-3.0062	-2.7438	-2.8083	-2.9583	-2.6521	-2.9271	-2.7875	-2.5708	-2.9958	-2.6021	-2.8292	195.867	370.019	452.170	239.774	315.212	202.509	486.842	244.761	457.779	464.521	501.361	211.180	195.944	197.947	387.708	303.084	0.00067891	0.00062363	0.00017629	804.59	1.9042e-06	1.0989e-05	1333.9	221.3	3.372e-06	2.7626e-05	512.78	221.73	74.828	27.722	7.0334e-06	78.736	0.0016699	0.0019303	0.00056533	741.5	2.3496e-05	2.2206e-05	1185.4	197.98	2.0514e-05	3.1924e-05	459.58	199.24	67.672	25.232	2.3711e-05	70.567	273.664	257.680	297.928	192.291	409.879	325.072	193.567	197.612	386.058	474.656	197.998	202.368	201.219	204.592	340.751	205.761	-8191	255	
18469.170	1	1	0	0	0.17087	0.20973	0.061629	0.027029	0.15224	0.26891	0.21428	0.12929	0.21102	0.17007	0.033853	0.074104	0.21473	0.091728	0.11826	0.25908	-2.6771	-2.7917	-2.7521	-2.7938	-2.4208	-2.8937	-2.725	-2.6271	-2.9292	-2.7146	-3.0458	-2.8917	-2.4062	-3.0125	-2.7167	-2.7875	369.875	294.949	215.927	455.862	512.451	245.579	191.373	513.523	332.754	530.506	291.931	466.608	238.935	453.462	401.948	490.024	0.00066141	0.00042404	0.00024332	797.12	1.6795e-05	4.8254e-06	1331.9	216.25	8.8971e-06	8.8928e-06	506.92	218.61	72.647	27.682	1.5167e-05	77.724	0.001652	0.001939	0.00055959	737.65	3.1169e-05	2.1882e-05	1180.2	194.38	2.0856e-05	2.4272e-05	452.9	196.08	66.387	25.068	2.673e-05	69.996	277.343	277.028	265.599	192.675	373.172	293.396	193.806	197.630	300.256	446.446	197.908	202.372	200.538	204.526	374.930	205.545	-8191	255	
18469.266	1	1	0	0	0.22612	0.10223	0.052223	0.31621	0.072836	0.20698	0.078672	0.27249	0.084878	0.21392	0.35064	0.38519	0.14491	0.35205	0.076739	0.11466	-2.6875	-2.6417	-2.7021	-2.6958	-2.6042	-2.9146	-2.7479	-2.8021	-3.0167	-2.5542	-2.8542	-2.9938	-2.5542	-3.0208	-2.9188	-2.7229	416.032	530.736	494.602	185.880	350.349	273.264	328.425	354.019	369.709	226.793	473.993	465.785	524.570	216.931	224.238	469.450	0.00067801	0.00050872	0.00022504	793.91	1.0346e-05	1.1015e-05	1322.7	214.73	7.5893e-06	5.6908e-06	500.55	216.55	72.071	26.962	5.8176e-06	75.876	0.0017054	0.0019295	0.00056863	731.54	2.391e-05	2.2577e-05	1170.3	192.26	2.1202e-05	3.3219e-05	446.56	193.96	65.34	24.648	2.1199e-05	68.784	270.032	285.616	249.202	192.197	364.846	326.547	193.721	197.436	279.742	198.250	197.918	202.075	201.214	204.160	344.319	205.951	-8191	255	
18469.387	1	1	0	0	0.20197	0.30969	0.16613	0.21674	0.081761	0.13771	0.28195	0.16532	0.30373	0.2173	0.24724	0.19876	0.23645	0.07297	0.019249	0.10102	-2.5417	-2.5438	-2.7271	-2.7917	-2.4979	-2.9021	-2.9917	-2.7458	-2.9792	-2.6562	-2.7687	-3.1792	-2.5667	-2.8937	-2.8312	-2.6854	536.750	441.992	312.544	379.434	230.629	462.614	464.395	462.711	318.451	450.851	521.584	513.264	445.541	499.783	330.561	189.540	0.00078204	0.0005093	0.00016049	790.08	1.3445e-05	4.459e-06	1309.9	209.55	4.821e-06	3.6266e-06	489.84	210.72	70.086	26.311	5.7937e-06	75.317	0.0016956	0.0020057	0.00056498	727.4	3.1705e-05	2.2659e-05	1159.5	188.17	2.1078e-05	2.4082e-05	438.29	189.19	63.583	23.949	2.0734e-05	68.242	275.896	304.787	285.557	192.553	344.075	462.059	193.275	197.212	305.552	415.146	198.306	202.360	201.349	204.293	334.648	205.850	-8191	255	
18469.482	1	1	0	0	0.25896	0.13755	0.38916	0.14594	0.26845	0.32434	0.25709	0.044865	0.17684	0.064094	0.25445	0.15129	0.15047	0.28672	0.17627	0.27824	-2.5917	-2.6208	-2.5521	-2.8021	-2.5	-2.9354	-2.9188	-2.5229	-3.075	-2.7062	-2.8646	-3.1604	-2.5479	-2.8125	-2.8375	-2.5604	501.339	312.428	443.793	462.723	247.830	478.162	473.972	299.395	514.098	341.445	498.556	364.984	452.608	458.159	418.945	460.766	0.00071644	0.0010634	0.00021916	773.61	1.03e-05	9.4041e-06	1304.4	206.3	2.8352e-06	1.1159e-05	488.37	208.19	68.891	25.805	5.5639e-06	74.898	0.0016513	0.0019504	0.0005458	719.36	2.3905e-05	2.231e-05	1152.7	185.59	2.1318e-05	2.6668e-05	436.84	186.87	62.509	23.624	2.1834e-05	67.502	267.566	269.784	258.471	192.398	377.033	271.115	193.405	197.825	315.473	442.337	198.120	202.273	201.115	204.500	264.110	205.359	-8191	255	
18469.576	1	1	0	0	0.069572	0.29956	0.059203	0.25526	0.039723	0.1171	0.43733	0.14537	0.056339	0.12606	0.27277	0.20337	0.11159	0.24686	0.014198	0.18333	-2.5771	-2.6646	-2.9708	-3.0167	-2.6458	-2.7542	-3.0563	-2.6125	-2.8958	-2.7896	-2.725	-3.1458	-2.5958	-2.8187	-2.9083	-2.7313	399.953	194.981	252.538	391.644	452.269	288.707	466.656	285.337	506.710	432.915	471.300	500.700	489.244	437.592	398.617	514.818	0.00072636	0.00078846	0.00017837	769.79	1.7094e-05	7.3802e-06	1289.7	202.71	2.4445e-06	8.3084e-06	477.79	203.55	66.58	25.455	7.3272e-06	74.124	0.0017406	0.0020262	0.00056263	717	3.2707e-05	2.3247e-05	1139.8	182.43	2.2532e-05	2.2969e-05	426.95	182.97	60.773	23.309	2.2433e-05	67.253	262.651	284.266	223.318	192.684	363.063	346.803	193.934	197.525	309.232	376.545	198.075	202.080	201.247	204.879	358.918	205.304	-8191	255	
18469.674	1	1	0	0	0.093102	0.36691	0.23028	0.25271	0.15887	0.01799	0.33031	0.12121	0.33593	0.077404	0.32195	0.24976	0.058001	0.076591	0.094564	0.13295	-2.4479	-2.6208	-2.6417	-2.9167	-2.6729	-2.6083	-2.9562	-2.6396	-2.9375	-2.8208	-2.5854	-3.0458	-2.6396	-2.7542	-3.0542	-2.6667	403.018	481.481	189.341	497.522	529.823	252.116	474.294	210.764	491.248	433.147	276.442	444.017	263.095	254.459	303.614	359.869	0.00076345	0.00022433	0.00033823	755.12	2.7137e-05	3.9659e-06	1264.3	199.59	8.7456e-06	8.1694e-06	467.4	202.17	65.219	25.777	7.6385e-06	74.827	0.0017845	0.0020515	0.00057362	709.22	2.4756e-05	2.3635e-05	1125.2	180.04	2.2573e-05	2.2758e-05	424.95	181.83	60.088	23.506	2.2571e-05	67.281	265.418	359.973	287.383	192.391	369.219	386.297	193.685	197.554	340.756	293.427	198.651	202.152	201.065	204.999	295.355	205.555	-8191	255	
18469.770	1	1	0	0	0.34327	0.31395	0.19878	0.15645	0.2195	0.15234	0.18434	0.43433	0.14812	0.1558	0.093925	0.090064	0.074566	0.081411	0.28719	0.16825	-2.3479	-2.7021	-2.5	-2.8583	-2.5646	-2.7792	-3.1125	-2.7979	-2.6333	-2.8667	-2.6	-2.9729	-2.8958	-2.7583	-2.8292	-2.6021	303.569	399.159	296.906	522.977	365.759	290.702	466.014	193.226	482.648	196.350	472.291	517.779	227.791	415.992	287.614	394.061	0.0005782	0.00057715	0.00025184	760.19	1.4549e-05	6.632e-06	1268	198.18	3.7432e-06	1.7935e-05	471.48	203.12	65.914	25.723	8.8377e-06	74.982	0.0018082	0.0020991	0.00057098	709.65	2.7126e-05	2.8545e-05	1120.4	179.51	2.3412e-05	2.3028e-05	422.3	181.9	60.53	23.735	2.3664e-05	68.15	254.982	243.385	238.749	192.952	400.137	336.056	193.779	197.793	346.904	316.737	198.297	202.309	201.306	204.912	333.350	205.985	-8191	255	
18469.865	1	1	0	0	0.12956	0.25362	0.19916	0.2414	0.1877	0.26273	0.27366	0.14481	0.15615	0.084256	0.11005	0.21752	0.14046	0.33891	0.091529	0.14443	-2.4104	-2.7875	-2.575	-2.8396	-2.7229	-2.5583	-2.8542	-2.6937	-2.7625	-2.8104	-2.5563	-2.975	-2.7771	-2.5938	-2.7604	-2.7562	497.597	307.791	189.342	196.957	295.131	342.450	380.519	413.497	336.722	399.613	404.166	489.767	396.567	534.727	287.303	474.691	0.00068105	0.00062035	0.00018739	762.95	6.2681e-06	1.6608e-05	1254.6	202.25	9.185e-06	9.6613e-06	476.26	207.11	67.708	26.799	6.172e-06	76.431	0.0018367	0.0021588	0.00059913	708.82	2.3556e-05	2.7151e-05	1117.5	181.99	2.4137e-05	2.4842e-05	430.48	185.62	62.121	24.434	2.5931e-05	69.296	266.767	233.575	215.825	192.267	306.320	393.157	193.823	197.834	391.142	326.182	198.277	202.446	201.446	204.688	216.979	206.108	-8191	255	
18469.986	1	1	0	0	0.0235	0.22066	0.38776	0.22667	0.15662	0.082767	0.14795	0.23473	0.13156	0.16791	0.04435	0.32579	0.16133	0.086826	0.39828	0.1312	-2.2083	-2.8729	-2.4542	-2.7917	-2.725	-2.5604	-2.9167	-2.6542	-2.5958	-2.9188	-2.7687	-3.0229	-2.7687	-2.4958	-2.8208	-2.7562	487.069	370.814	416.567	216.269	514.313	439.290	463.630	527.827	270.509	184.151	478.514	190.930	430.829	421.714	451.392	369.292	0.00079305	0.0015629	0.00016288	753.28	7.1368e-06	1.7868e-05	1244.8	201.24	3.1285e-06	1.3315e-05	477.08	207.71	68.573	27.297	6.959e-06	77.533	0.0019379	0.0022979	0.00065308	708.76	2.4619e-05	3.549e-05	1111.7	182.32	2.4386e-05	2.5924e-05	428	187.05	62.849	24.902	2.676e-05	69.856	274.740	256.788	243.521	192.909	317.243	409.573	193.696	197.437	455.263	350.822	198.081	202.107	201.160	204.905	509.552	205.791	-8191	255	
18470.082	1	1	0	0	0.2536	0.12634	0.098583	0.04933	0.22189	0.24256	0.099975	0.19452	0.17523	0.091778	0.088213	0.22668	0.17679	0.10605	0.19658	0.59111	-2.0417	-2.8438	-2.4625	-2.7521	-2.8604	-2.4333	-2.9958	-2.5729	-2.7042	-2.7313	-2.5646	-2.8521	-2.925	-2.4521	-2.8604	-2.8521	279.114	316.578	215.599	471.155	457.660	241.503	487.917	213.358	423.481	487.842	436.732	529.393	528.743	206.001	528.649	447.319	0.00073283	0.00066081	6.5974e-05	742.78	6.8576e-06	1.4642e-05	1236.9	196.01	3.3049e-06	1.4771e-05	466.69	203.99	66.599	27.201	1.3443e-05	77.954	0.0023372	0.0023995	0.00067187	703.5	2.6479e-05	2.94e-05	1096.1	179.21	2.6151e-05	2.7856e-05	423.81	183.46	61.539	24.929	2.8585e-05	70.362	265.544	281.751	211.949	192.083	268.085	377.153	193.600	197.673	340.452	347.372	198.200	202.601	201.361	204.466	327.627	205.623	-8191	255	
18470.180	1	1	0	0	0.055151	0.068065	0.37491	0.10438	0.011671	0.1772	0.39537	0.13639	0.10376	0.12279	0.11072	0.080895	0.13149	0.050061	0.088532	0.33642	-2.1458	-3.0542	-2.5854	-2.7125	-2.7667	-2.5729	-3.0125	-2.7625	-2.6021	-3.0229	-2.7938	-2.8042	-2.95	-2.5583	-2.7167	-2.9188	242.911	423.896	405.313	443.633	274.558	350.515	457.817	304.465	341.048	441.291	510.701	507.106	248.756	188.819	296.612	478.815	0.00068998	0.00034429	0.00013132	750.48	1.0141e-06	1.74e-05	1232	201.31	9.9452e-06	1.3316e-05	472.81	208.97	69.281	28.175	2.1352e-06	80.266	0.0023049	0.0026505	0.00074456	712.8	2.8943e-05	4.0071e-05	1096.2	183.54	2.9152e-05	3.1511e-05	428.81	188.25	64.142	26.064	3.0814e-05	72.269	264.042	220.987	270.672	193.182	521.550	416.696	193.397	197.789	319.386	397.065	198.245	202.425	201.481	203.858	302.075	205.358	-8191	255	
18470.275	1	1	0	0	0.12331	0.11225	0.14403	0.1167	0.16349	0.16285	0.36803	0.12911	0.40948	0.15218	0.22193	0.13517	0.16736	0.1864	0.2966	0.29961	-1.9937	-2.7354	-2.6833	-2.8208	-2.8854	-2.5438	-2.975	-2.8292	-2.45	-2.9771	-2.6312	-2.8708	-3.0833	-2.5167	-2.8229	-2.9979	253.986	537.986	491.037	196.518	457.691	290.005	532.339	204.579	284.663	467.910	524.820	514.547	403.834	354.492	461.998	525.853	0.00094428	0.00062049	0.00014165	747.85	1.0445e-05	1.353e-05	1234.5	206.03	1.1948e-05	2.3149e-06	479.67	212.11	70.793	28.559	5.9888e-06	79.863	0.0028873	0.0027749	0.00075589	715.45	2.8873e-05	3.1238e-05	1106.4	186.52	2.6807e-05	2.8961e-05	434.4	191.67	65.182	26.133	2.7073e-05	72.338	280.119	240.343	263.796	192.041	354.345	375.690	193.662	197.337	314.600	179.467	198.315	202.036	201.516	204.269	299.873	205.347	-8191	255	
18470.346	1	1	0	0	0.015244	0.017429	0.30247	0.039548	0.1378	0.13885	0.28776	0.14884	0.21899	0.037883	0.19927	0.081608	0.30985	0.28638	0.1168	0.17364	-2.0438	-2.9625	-2.6437	-2.6604	-2.775	-2.6896	-3.0021	-2.8979	-2.6875	-2.8021	-2.9292	-2.6375	-2.8187	-2.6229	-2.6896	-2.8875	373.370	480.151	199.890	427.792	440.451	206.080	474.488	199.397	410.232	265.604	190.427	521.898	525.779	193.132	285.482	502.770	0.00081171	0.00033438	0.00028896	768.82	7.5721e-06	2.0864e-05	1290	208.76	2.273e-06	1.3355e-05	496.86	215.66	71.936	27.986	5.8521e-06	78.355	0.0021225	0.0024497	0.00064959	722.81	2.4466e-05	3.5345e-05	1140.9	188.91	2.2174e-05	2.38e-05	441.66	194.03	65.692	25.446	2.2936e-05	70.638	268.835	247.069	338.174	192.299	528.955	431.060	193.535	197.668	491.350	312.013	198.155	202.328	200.752	204.615	358.561	205.607	-8191	255	
18470.465	1	1	0	0	0.22105	0.3049	0.20134	0.23545	0.1586	0.20132	0.24059	0.16726	0.18588	0.24647	0.10332	0.10646	0.29858	0.1652	0.16804	0.16119	-2.1479	-2.8083	-2.6146	-2.6604	-2.8625	-2.5917	-2.9875	-3.0146	-2.4938	-2.8917	-2.7938	-2.6167	-2.9896	-2.45	-2.6937	-2.8771	243.413	367.407	516.741	478.362	403.034	449.089	465.992	237.105	461.044	433.311	423.461	190.877	488.290	533.312	411.948	533.736	0.00071537	0.00072234	0.00031661	786.34	2.4952e-06	5.8129e-06	1323	215.56	5.7145e-06	5.7825e-06	503.39	219.48	74.725	28.255	9.4079e-06	79.414	0.0024354	0.002088	0.00057629	728.48	2.25e-05	2.4806e-05	1169.4	193.96	2.1049e-05	2.2594e-05	449.99	198.52	67.732	25.823	2.1653e-05	71.747	278.491	517.141	255.946	192.449	487.220	259.111	193.867	197.365	322.611	319.480	198.155	202.152	200.871	204.594	321.787	205.400	-8191	255	
18470.562	1	1	0	0	0.14473	0.2967	0.13655	0.11212	0.080668	0.24196	0.22205	0.11474	0.24439	0.22136	0.23009	0.17703	0.18741	0.028878	0.15766	0.072241	-2.1562	-2.8792	-2.7417	-2.3167	-2.9104	-2.5583	-2.8833	-2.7708	-2.5625	-2.6771	-2.8271	-2.7438	-2.6521	-2.5875	-2.6396	-3.125	234.616	276.370	382.551	221.213	520.798	460.200	503.705	468.485	472.681	298.384	522.089	512.171	472.398	437.206	326.107	215.588	0.00073692	0.00089695	0.00023384	795.12	6.3236e-06	3.1433e-05	1328.5	215.95	1.0593e-05	4.5233e-06	502.64	221.04	74.648	29.095	1.059e-05	81.255	0.0019004	0.002038	0.00056518	737.23	2.2753e-05	2.6122e-05	1182.4	195.4	2.222e-05	2.4002e-05	451.13	198.87	68.027	26.559	2.3015e-05	73.303	276.673	339.460	219.141	192.944	429.218	399.840	193.629	197.536	393.904	394.872	198.179	202.366	201.080	204.514	325.029	205.275	-8191	255	
18470.658	1	1	0	0	0.17147	0.26412	0.13416	0.10247	0.016567	0.16419	0.45184	0.14584	0.042944	0.15139	0.20783	0.27371	0.24991	0.054555	0.060005	0.19857	-1.9604	-2.6188	-2.6646	-2.5125	-2.9104	-2.5646	-2.6854	-2.9417	-2.5333	-2.7958	-2.7729	-2.7458	-2.6792	-2.85	-2.6458	-2.9958	527.655	481.212	190.993	353.140	365.503	526.534	440.144	187.759	236.825	297.222	515.226	458.164	383.772	483.143	480.422	191.174	0.00076605	0.0007024	0.00040581	790.8	6.2642e-06	7.0165e-06	1321.8	215.44	3.9962e-06	1.1495e-05	498.17	219.31	72.706	28.956	5.0659e-06	80.757	0.0025479	0.002182	0.00060964	737.48	2.4267e-05	2.4747e-05	1173.5	194.25	2.3973e-05	2.4938e-05	446.61	198.07	66.667	26.337	2.3722e-05	73.075	275.624	263.764	260.125	192.166	453.770	250.505	193.677	197.149	363.776	305.950	198.367	202.215	201.401	204.211	334.509	205.750	-8191	255	
18470.756	1	1	0	0	0.3115	0.36299	0.22432	0.31987	0.10861	0.08259	0.18092	0.23597	0.24136	0.11978	0.33809	0.38352	0.21518	0.064949	0.18269	0.19209	-2.1437	-2.7208	-2.7771	-2.4458	-2.7687	-2.5812	-2.8354	-2.7083	-2.5938	-2.8229	-2.9437	-2.6125	-2.7021	-2.875	-2.35	-3.2188	535.483	313.290	345.662	297.487	242.261	255.877	430.235	469.071	366.151	327.964	500.354	488.294	231.064	524.327	194.951	507.626	0.00063855	0.0008481	0.00035023	784.33	2.4418e-06	5.3669e-06	1308.6	213.57	8.887e-06	1.3881e-05	493.94	218.16	72.348	28.524	1.1778e-05	80.304	0.0020258	0.0022421	0.00062169	734.93	2.424e-05	2.4765e-05	1170.5	192.29	2.3921e-05	2.4376e-05	443.2	195.3	66.623	26.044	2.4375e-05	72.251	268.526	232.214	281.357	192.204	416.960	351.658	193.381	197.635	369.147	354.469	198.039	202.381	200.950	204.407	372.504	205.588	-8191	255	
18470.873	1	1	0	0	0.14729	0.14165	0.16844	0.26632	0.14616	0.28006	0.17896	0.070226	0.15693	0.14432	0.02224	0.28131	0.051136	0.26621	0.22308	0.064372	-2.325	-2.6271	-2.9021	-2.4188	-2.75	-2.8729	-2.7292	-2.8667	-2.6937	-2.6792	-2.9958	-2.7042	-2.7625	-2.8271	-2.5958	-2.9396	198.965	525.846	435.911	188.110	182.027	315.365	217.988	507.486	235.890	213.426	389.371	532.306	233.716	537.479	244.146	300.366	0.00070806	0.0012633	7.207e-05	784.11	7.4933e-06	1.0306e-05	1309.3	212.38	4.8232e-06	8.2154e-06	492.45	216.37	73.543	28.641	6.3688e-06	80.565	0.0020355	0.0029001	0.00061898	732.8	2.4566e-05	2.4452e-05	1161.3	191.71	2.3013e-05	2.421e-05	442.08	196.71	66.823	26.112	2.3435e-05	72.517	286.935	245.797	190.871	192.655	278.615	335.953	193.578	197.692	295.139	429.378	198.086	202.571	200.960	204.679	357.446	205.456	-8191	255	
18470.945	1	1	0	0	0.12889	0.22962	0.1577	0.095713	0.14226	0.19883	0.048014	0.099739	0.083392	0.02861	0.23858	0.25308	0.16108	0.11223	0.18619	0.17339	-2.2292	-2.3917	-2.8917	-2.5146	-2.6312	-2.8167	-2.5708	-2.9062	-2.5417	-2.6104	-3.1	-2.8125	-2.7479	-2.9083	-2.4833	-2.8458	275.277	431.891	515.153	241.777	304.610	218.336	451.121	237.340	501.368	185.989	474.494	476.078	402.498	474.620	517.493	421.827	0.00071098	0.0014586	0.0001622	793.35	4.6575e-06	7.5325e-06	1307.5	214.36	7.3017e-06	9.211e-06	499.64	219.62	72.785	28.9	5.6509e-06	81.229	0.0018168	0.0024062	0.00060996	737.23	2.3419e-05	2.401e-05	1172.1	193.19	2.2233e-05	2.3252e-05	446.78	196.8	66.605	26.33	2.2825e-05	73.242	270.645	260.500	359.177	192.873	388.229	451.595	193.726	197.571	298.094	265.788	197.914	202.465	200.940	204.289	423.627	205.337	-8191	255	
18471.066	1	1	0	0	0.23061	0.17124	0.035977	0.10049	0.11729	0.24845	0.24814	0.18593	0.15515	0.096919	0.23421	0.17177	0.18448	0.11931	0.19171	0.43209	-2.3417	-2.5667	-2.9271	-2.625	-2.65	-2.8292	-2.8083	-2.9437	-2.8208	-2.5875	-2.8458	-2.8438	-2.7458	-3.1	-2.7208	-2.9021	268.454	253.417	480.924	243.131	183.225	368.126	481.201	525.699	387.316	503.313	186.815	485.872	486.136	244.536	393.341	465.791	0.00062069	0.0022472	0.00032371	796.15	2.5416e-06	1.7497e-05	1332	215.53	2.9538e-06	1.2089e-05	504.99	221.53	74.418	29.167	5.2626e-06	81.974	0.0017836	0.0031269	0.00060476	738.95	2.3275e-05	2.3737e-05	1179.3	195.29	2.2704e-05	2.3091e-05	451.4	199.15	68.693	26.589	2.2664e-05	73.648	269.677	276.663	251.467	192.055	217.614	328.209	193.659	197.511	340.697	229.177	198.207	202.223	200.817	204.582	311.298	205.641	-8191	255	
18471.162	1	1	0	0	0.12714	0.11041	0.22093	0.058634	0.23307	0.11987	0.27558	0.32816	0.18464	0.15826	0.11699	0.11228	0.19883	0.36779	0.13889	0.1324	-2.3333	-2.5271	-2.7188	-2.8104	-2.5312	-2.6729	-2.7104	-2.6833	-2.9958	-2.5542	-3.0917	-2.8083	-2.725	-2.8438	-2.5729	-2.9417	274.597	508.117	216.368	365.655	449.319	330.389	449.151	285.007	234.913	330.384	450.383	526.123	190.890	182.196	257.702	472.451	0.00075439	0.0010873	0.00018246	802.02	3.4586e-06	4.4082e-06	1331.7	217.22	5.5828e-06	1.3527e-05	510.26	222.56	74.875	29.123	5.6129e-06	80.909	0.0017853	0.0022909	0.00059941	740.99	2.2646e-05	2.3075e-05	1189	195.83	2.1888e-05	2.223e-05	454.68	199.92	68.548	26.497	2.2483e-05	73.077	267.087	223.919	313.223	192.697	427.354	526.601	193.714	196.893	276.175	325.983	198.265	202.175	201.043	204.484	299.989	205.583	-8191	255	
18471.260	1	1	0	0	0.33617	0.1123	0.30585	0.02379	0.10579	0.26712	0.081747	0.12347	0.067707	0.15364	0.1862	0.34489	0.10004	0.27036	0.27787	0.16356	-2.2812	-2.3896	-2.9437	-2.7771	-2.625	-2.8625	-2.7521	-2.825	-2.7979	-2.7229	-2.9688	-2.7792	-2.5208	-2.8354	-2.5708	-2.8208	365.516	201.045	316.700	302.390	411.309	287.335	199.948	439.796	488.865	420.733	181.010	455.446	343.790	269.752	403.854	507.957	0.00069221	0.0020798	0.00026268	801.56	1.1007e-05	9.3607e-06	1334.2	220.66	3.5799e-06	2.7088e-07	516.49	227.33	77.103	29.956	4.4795e-06	82.337	0.0017936	0.0030468	0.00059757	744.84	2.1962e-05	2.3429e-05	1183.4	198.63	2.1761e-05	2.2547e-05	459.4	202.94	71.157	27.09	2.1658e-05	74.121	278.604	276.939	276.316	192.282	368.912	325.048	193.572	197.168	322.641	408.489	198.182	202.217	201.143	204.671	256.185	205.604	-8191	255	
18471.355	1	1	0	0	0.10654	0.3992	0.015498	0.087926	0.21015	0.03964	0.12804	0.081905	0.12429	0.21802	0.03202	0.25635	0.048426	0.25457	0.023486	0.42617	-2.5333	-2.4667	-2.9042	-2.7167	-2.5646	-3.1104	-2.8229	-2.6063	-3.0146	-2.6396	-2.8583	-2.9917	-2.5438	-2.875	-2.5771	-2.7562	247.590	369.915	537.319	348.774	246.445	520.277	365.804	245.033	275.736	194.424	263.998	465.182	460.747	180.498	379.025	503.851	0.00070299	0.00071926	0.00012163	810.52	6.2452e-06	2.1674e-06	1348.8	224.45	9.3787e-06	1.5228e-05	518.37	229.45	78.131	30.027	7.838e-06	83.167	0.0017146	0.0022624	0.00057696	750.82	2.1875e-05	2.2881e-05	1196.7	204.11	2.235e-05	2.2987e-05	464.18	204.96	71.209	27.333	2.2582e-05	74.781	269.941	211.460	292.619	192.065	321.033	389.365	193.746	197.365	322.022	293.218	198.421	202.318	200.857	204.290	357.798	205.372	-8191	255	
18471.477	1	1	0	0	0.24946	0.32367	0.15896	0.15445	0.11067	0.085635	0.24868	0.16577	0.082882	0.12309	0.16964	0.15548	0.13761	0.082625	0.1227	0.51151	-2.5146	-2.3958	-2.9042	-2.8833	-2.7125	-2.8	-2.9083	-2.7271	-2.7979	-2.6292	-2.7208	-2.8729	-2.4979	-2.8729	-2.6167	-2.7333	353.394	252.217	365.612	186.649	395.889	521.699	481.044	482.583	336.053	497.546	483.996	493.085	496.650	371.930	206.403	474.163	0.00073132	0.0020828	0.00016276	809.66	2.0668e-05	8.1453e-06	1350.5	223.69	1.0344e-05	6.0824e-06	513.18	227.88	77.423	29.809	2.3185e-06	82.825	0.0018002	0.0030949	0.00059375	751.24	2.2313e-05	2.4185e-05	1197.3	202.49	2.3226e-05	2.35e-05	460.9	204.02	71.516	27.22	2.3161e-05	74.529	265.511	302.986	368.230	193.040	376.841	371.870	193.671	197.352	372.137	384.092	197.945	202.287	200.941	204.092	483.768	205.390	-8191	255	
18471.570	1	1	0	0	0.13183	0.1087	0.27789	0.18679	0.20435	0.18597	0.20912	0.32537	0.22449	0.25921	0.066818	0.21026	0.17296	0.27864	0.25893	0.095998	-2.4188	-2.6104	-2.7083	-2.9062	-2.6542	-2.8375	-2.8875	-2.7438	-2.6917	-2.6188	-2.8021	-2.9521	-2.6854	-3.0333	-2.6958	-2.6813	351.269	417.861	329.125	490.988	466.965	266.466	443.184	479.624	180.757	526.396	436.720	519.334	246.053	465.615	475.158	391.871	0.00071165	0.0012475	3.8435e-05	811.91	3.5029e-06	9.9042e-06	1328.3	217.8	5.8485e-06	1.165e-05	505.67	223.24	75.218	29.422	4.3901e-06	81.611	0.0018341	0.0023865	0.00062567	750.67	2.3277e-05	2.4399e-05	1182.3	199.9	2.3479e-05	2.3902e-05	453.24	200.58	68.811	26.777	2.3896e-05	73.649	262.166	287.297	507.019	192.310	313.051	356.459	193.342	197.632	308.057	219.894	198.044	202.287	200.998	204.146	369.133	205.465	-8191	255	
18471.645	1	1	0	0	0.24835	0.029555	0.23285	0.11773	0.20813	0.018381	0.37343	0.047507	0.063918	0.10566	0.15248	0.21072	0.22252	0.15896	0.10876	0.1741	-2.3063	-2.4729	-2.4938	-2.9042	-2.3292	-2.8208	-2.9021	-2.875	-2.7771	-2.7292	-2.7125	-3.0833	-2.6229	-2.8021	-2.9458	-2.6625	413.567	277.006	206.713	398.563	210.056	362.655	483.169	408.627	510.959	206.615	528.046	186.452	185.244	186.418	289.552	423.488	0.00077306	0.0015842	0.00015117	798.79	8.6065e-06	7.1449e-06	1323.6	218.89	6.5709e-06	8.7637e-06	506.56	223.73	75.627	29.679	7.7524e-06	82.304	0.0018748	0.0022682	0.00082183	743.51	2.3171e-05	2.4158e-05	1172.2	197	2.3041e-05	2.3222e-05	453.49	200.54	70.157	26.954	2.2748e-05	73.972	267.710	314.507	247.986	192.715	333.769	342.332	193.743	197.291	366.511	334.277	197.949	202.056	201.157	204.654	286.209	205.462	-8191	255	
18471.762	1	1	0	0	0.11893	0.16291	0.38863	0.085559	0.27115	0.24082	0.14732	0.22647	0.086508	0.15182	0.12696	0.23159	0.14354	0.49607	0.16462	0.19897	-2.4188	-2.6333	-2.5563	-2.8979	-2.5729	-2.7083	-2.9	-2.6083	-3.0438	-2.7062	-2.8312	-3.0667	-2.8187	-2.7896	-2.8167	-2.7958	414.356	320.161	383.827	455.431	192.823	217.825	492.482	449.738	324.433	454.784	183.860	197.176	287.261	190.164	308.065	521.136	0.00076626	0.00030722	0.00011743	791.43	1.0781e-05	9.9908e-06	1341.1	222.4	1.0829e-05	5.1734e-06	512.79	225.11	76.937	29.832	1.3134e-05	81.803	0.001797	0.0021039	0.00064257	743.03	2.2513e-05	2.3103e-05	1187.4	202.94	2.2412e-05	2.2654e-05	461.23	202.77	70.314	27.115	2.2848e-05	73.659	268.714	384.191	357.848	192.635	353.414	384.200	193.508	197.580	369.024	344.871	197.902	202.258	200.686	204.327	316.536	205.935	-8191	255	
18471.859	1	1	0	0	0.083475	0.20916	0.17364	0.14946	0.085205	0.36752	0.43392	0.13214	0.062785	0.27375	0.20702	0.28182	0.11804	0.10068	0.11044	0.36221	-2.3292	-2.6354	-2.425	-2.8417	-2.4771	-2.7271	-2.8979	-2.6896	-2.7854	-2.65	-2.6729	-2.9542	-2.7021	-2.7875	-2.9958	-2.4875	309.905	273.994	344.581	486.295	384.747	223.359	454.183	397.259	318.929	254.494	486.428	503.174	344.108	538.822	181.440	481.794	0.00082456	0.00049236	0.00043904	811.36	1.0129e-05	1.0462e-05	1353.4	224.94	4.337e-06	4.9799e-06	515.73	228.6	77.391	29.965	4.9758e-06	81.873	0.0017665	0.0020692	0.00085643	755.15	2.2217e-05	2.3199e-05	1198.1	203.01	2.1847e-05	2.2295e-05	463.14	204.45	70.759	27.421	2.2647e-05	73.576	267.925	222.244	292.141	192.570	324.584	367.082	193.651	197.540	376.452	219.645	197.947	202.176	200.893	204.392	276.922	205.565	-8191	255	
18471.955	1	1	0	0	0.319	0.27545	0.19438	0.19918	0.26443	0.22953	0.09651	0.063673	0.15404	0.24082	0.15627	0.25544	0.11192	0.55306	0.20285	0.19114	-2.2687	-2.6167	-2.4	-2.7646	-2.6125	-2.875	-3.0062	-2.6312	-2.7479	-2.7417	-2.6063	-3.0271	-2.75	-2.6271	-2.8271	-2.7062	467.659	346.386	395.602	181.525	423.005	408.626	525.517	478.886	317.199	475.659	415.940	496.968	182.867	498.161	349.686	466.880	0.00078845	0.00017181	0.0002356	809.23	7.1426e-06	9.5895e-06	1348.1	222.6	2.92e-06	1.0943e-05	512.95	227.92	76.697	29.328	5.3591e-06	81.719	0.0017858	0.0020604	0.00064045	749.71	2.2591e-05	2.2617e-05	1195.4	203.66	2.2096e-05	2.3534e-05	460.29	203.36	69.72	26.793	2.2658e-05	73.231	271.614	349.265	297.022	192.735	285.930	409.841	193.716	197.212	351.385	360.182	198.122	201.855	201.284	204.467	364.070	205.760	-8191	255	
18472.051	1	1	0	0	0.11309	0.070451	0.15434	0.046608	0.1298	0.1405	0.51324	0.1845	0.26245	0.11538	0.30056	0.18244	0.13412	0.12831	0.11659	0.14004	-2.3021	-2.7188	-2.4896	-2.9292	-2.7375	-2.5896	-2.9437	-2.6042	-2.6354	-2.8958	-2.5458	-2.9062	-2.8479	-2.5292	-2.8937	-2.7	370.974	180.297	504.055	449.678	503.014	341.381	454.997	505.534	361.549	301.855	454.873	498.074	208.366	325.845	296.080	431.445	0.00072709	0.00062385	0.00051312	807.35	3.7766e-06	1.4827e-06	1336.4	220.66	2.4657e-06	8.6673e-06	509.13	222.77	75.821	29.065	4.4414e-06	79.752	0.0017454	0.002112	0.00083467	749.76	2.216e-05	2.2409e-05	1182.2	198.78	2.2674e-05	2.3037e-05	455.48	200.43	68.889	26.798	2.2913e-05	72.03	270.226	272.110	323.623	192.010	374.239	391.323	193.376	197.763	259.411	316.585	197.942	202.144	201.273	204.438	298.720	205.363	-8191	255	
18472.172	1	1	0	0	0.16776	0.14687	0.14629	0.065911	0.1863	0.064199	0.32123	0.1087	0.033744	0.21068	0.16688	0.31788	0.089493	0.22423	0.10852	0.38084	-2.2646	-2.7271	-2.5542	-2.7083	-2.7	-2.3937	-2.9917	-2.7917	-2.6521	-2.8229	-2.675	-2.7625	-2.9562	-2.4313	-2.85	-2.75	390.348	489.353	419.742	418.506	317.491	322.283	462.822	467.324	426.385	183.000	379.499	522.496	192.113	535.207	200.330	500.751	0.00076877	0.0012726	0.00032496	802.27	3.8602e-06	1.5559e-05	1327	219.07	8.8323e-06	6.5279e-06	502.87	220.77	75.385	28.654	1.056e-05	78.974	0.001732	0.0021235	0.00063973	744.71	2.2765e-05	2.3237e-05	1177.4	196.07	3.077e-05	2.3164e-05	451.97	198.14	68.027	26.028	2.3258e-05	71.322	267.967	258.392	315.171	192.140	290.995	294.001	193.555	197.526	273.455	368.684	198.150	202.279	201.120	204.550	343.800	205.463	-8191	255	
18472.242	1	1	0	0	0.18106	0.12719	0.075301	0.076595	0.089438	0.30629	0.060438	0.16813	0.15809	0.29181	0.28071	0.12854	0.097916	0.11931	0.099566	0.24388	-2.2354	-2.9229	-2.4813	-2.5646	-2.6896	-2.5479	-3.1104	-2.7375	-2.4792	-2.9333	-2.6813	-2.6604	-2.9396	-2.5375	-2.825	-2.7687	494.129	290.948	183.115	410.431	191.136	188.204	474.553	483.430	457.878	226.537	429.129	493.596	308.789	289.233	476.053	477.162	0.00075173	0.00070943	0.00074968	799.49	5.333e-06	1.1775e-05	1317.5	217.31	1.4453e-06	1.2047e-05	499.14	219.94	73.551	28.376	6.8655e-06	79.035	0.0017819	0.0021444	0.00084074	738.29	2.2823e-05	2.3037e-05	1166.4	194.62	2.4903e-05	2.406e-05	447.66	196.69	67.212	26.223	2.328e-05	71.042	272.067	209.904	360.025	192.272	339.474	264.422	193.631	196.950	488.486	311.532	197.859	202.280	200.828	204.451	442.064	205.459	-8191	255	
18472.340	1	1	0	0	0.14411	0.22981	0.18018	0.19287	0.17161	0.26909	0.25234	0.020753	0.079106	0.22756	0.43237	0.20184	0.29009	0.2456	0.25789	0.26902	-2.1708	-2.8271	-2.7188	-2.6	-2.8583	-2.4896	-2.8125	-2.7792	-2.6271	-2.8625	-2.8312	-2.8854	-2.9167	-2.4333	-2.8333	-3.0542	445.593	239.727	497.560	196.448	432.721	406.353	433.320	356.501	343.249	277.472	476.209	229.197	368.198	449.023	310.952	455.114	0.00070134	0.0011763	0.00025437	789.16	7.3328e-06	7.905e-06	1307.4	214.61	5.4356e-06	6.9009e-06	500.94	217.08	73.305	27.782	6.7394e-06	77.582	0.0017554	0.0021317	0.00062666	737.33	2.2593e-05	2.2863e-05	1162.6	192.99	3.1254e-05	2.3843e-05	445.86	195.16	66.624	25.527	2.3049e-05	69.957	267.473	235.790	267.292	192.585	342.097	346.378	193.713	197.134	252.214	467.088	197.809	202.005	200.422	204.632	420.736	205.224	-8191	255	
18472.436	1	1	0	0	0.13338	0.25481	0.18815	0.15169	0.27959	0.10032	0.18721	0.27052	0.12998	0.085462	0.090457	0.11849	0.11024	0.14256	0.09791	0.16841	-2.05	-2.7438	-2.4688	-2.7083	-2.8771	-2.5479	-2.9271	-2.7562	-2.4813	-2.8854	-2.7979	-2.7521	-2.8792	-2.625	-2.7208	-3.0125	502.164	538.720	457.570	268.189	461.006	412.372	452.719	234.067	327.179	391.508	524.031	502.810	484.826	443.287	431.947	460.471	0.00065088	0.0012472	7.2963e-05	774.49	4.6695e-06	8.204e-06	1297.6	213.43	3.2813e-06	3.9493e-06	493.97	216.53	72.475	27.925	1.45e-06	77.271	0.0016998	0.0021255	0.00056762	744.39	2.2394e-05	2.2803e-05	1153.2	190.96	2.4115e-05	2.2938e-05	441.72	193.91	66.208	25.743	2.2953e-05	69.752	272.443	278.693	247.515	192.218	195.590	315.896	193.595	197.456	234.168	303.655	198.183	202.169	200.643	204.299	309.363	205.461	-8191	255	
18472.555	1	1	0	0	0.043905	0.30386	0.16641	0.23568	0.011491	0.051714	0.22496	0.42362	0.067333	0.22263	0.26443	0.28304	0.091452	0.35516	0.20464	0.23648	-1.9062	-2.7917	-2.5333	-2.6667	-2.8604	-2.5667	-2.85	-2.7292	-2.4146	-2.8167	-2.6208	-2.6792	-2.8167	-2.5104	-2.6688	-3.0292	304.530	351.426	528.770	222.753	528.712	244.813	512.512	467.291	460.775	242.446	409.712	472.168	182.802	539.285	198.749	519.537	0.00049935	0.0018155	0.00010055	787.16	1.7887e-06	8.3594e-06	1300.1	213.39	9.3231e-06	8.2924e-06	494.31	217.5	73.417	27.659	1.1225e-05	78.141	0.0016538	0.0020879	0.00057511	733.63	2.2619e-05	2.2966e-05	1151.4	191.18	3.1632e-05	2.3045e-05	443.46	194.95	66.603	25.369	2.3134e-05	70.235	267.373	277.284	265.593	192.087	328.563	347.123	193.461	197.426	199.712	425.256	197.969	202.075	200.529	204.286	352.834	205.570	-8191	255	
18472.650	1	1	0	0	0.20931	0.13283	0.08787	0.21658	0.27833	0.0804	0.11537	0.23265	0.16845	0.21936	0.13138	0.23441	0.27672	0.11406	0.091148	0.23834	-2.0563	-2.5812	-2.6688	-2.6146	-2.8875	-2.5417	-2.7083	-2.7812	-2.2917	-2.6896	-2.7229	-2.4229	-2.9979	-2.7729	-2.7604	-3.0396	439.883	361.513	422.689	410.487	296.375	287.309	205.323	468.070	288.177	334.236	377.007	531.519	401.585	479.451	455.495	448.512	0.00069543	0.00072542	9.8085e-05	784.45	9.2749e-06	8.3125e-06	1307.8	214.64	5.3969e-06	1.1584e-05	498.86	220.72	74.694	28.287	1.2107e-05	79.358	0.0017004	0.0021177	0.00057287	754.85	2.2521e-05	2.2675e-05	1158.3	193.51	2.3894e-05	2.3246e-05	446.32	197.32	68.026	25.842	3.2031e-05	71.137	258.272	297.984	373.445	193.034	386.349	313.708	193.890	197.259	384.487	363.462	198.082	202.157	201.056	204.419	295.347	205.371	-8191	255	
18472.746	1	1	0	0	0.29387	0.21962	0.054522	0.26988	0.21427	0.12895	0.16094	0.27876	0.27679	0.1995	0.11877	0.37125	0.24106	0.18252	0.26704	0.12691	-2.2042	-2.6354	-2.6667	-2.5687	-2.7313	-2.5958	-2.7687	-2.6562	-2.5146	-2.7396	-2.7812	-2.6729	-2.9146	-2.6021	-2.5208	-2.9708	395.286	519.948	528.751	286.716	333.843	384.065	498.708	411.383	200.160	409.655	230.503	523.135	478.818	516.061	369.297	427.384	0.00072944	0.00062034	0.00022341	785.73	6.9056e-06	1.426e-05	1326.7	217.31	1.6783e-05	1.0755e-05	503.45	222.48	74.112	28.272	5.5973e-06	78.342	0.0016829	0.0020543	0.00056178	736.41	2.2251e-05	2.2183e-05	1172.1	195.03	3.0438e-05	2.2224e-05	450.91	198.37	68.015	25.783	2.3584e-05	70.643	274.496	319.568	243.000	192.447	370.131	276.486	193.515	197.797	272.402	391.505	198.212	202.082	200.939	204.525	333.096	205.496	-8191	255	
18472.844	1	1	0	0	0.097156	0.059459	0.063367	0.12697	0.044846	0.117	0.05736	0.22484	0.10807	0.24263	0.35886	0.23162	0.20103	0.17503	0.1127	0.35125	-2.15	-2.5917	-2.8896	-2.6083	-2.9062	-2.7521	-2.7833	-2.8583	-2.65	-2.7479	-2.9271	-2.7958	-2.9396	-2.7979	-2.4146	-2.9646	496.842	531.086	356.916	456.070	200.286	374.567	228.746	488.678	311.310	246.030	204.128	197.247	471.333	216.875	371.788	503.644	0.00074269	0.00061129	0.00011671	795.57	1.2688e-06	8.8947e-06	1324.6	218.77	3.4157e-06	7.6749e-06	504.15	221.38	75.561	28.259	1.1414e-05	78.547	0.0016608	0.0020102	0.00055169	759.35	2.1635e-05	2.1634e-05	1172.6	195.85	2.1548e-05	2.2599e-05	450.69	198.13	68.624	25.776	3.134e-05	70.726	269.597	521.974	309.147	193.159	221.574	533.873	193.780	197.256	297.857	255.838	197.848	202.123	201.060	204.562	354.264	205.721	-8191	255	
18472.939	1	1	0	0	0.1203	0.093423	0.086445	0.14849	0.1913	0.25294	0.26202	0.016519	0.24111	0.13755	0.28271	0.18131	0.25191	0.13939	0.45847	0.32271	-1.9875	-2.8563	-2.8187	-2.5292	-2.8438	-2.7354	-2.8438	-2.8958	-2.6396	-2.4979	-2.9167	-2.6125	-2.775	-2.7729	-2.5333	-3.0187	395.723	510.568	271.150	191.431	212.062	326.308	442.528	349.829	337.683	393.836	349.136	233.128	533.842	221.666	203.963	516.664	0.00075608	0.0011817	0.00014429	811.13	4.3786e-06	5.77e-06	1333.9	221.67	4.7501e-06	1.386e-05	512.2	223.42	77.405	28.852	1.0045e-05	78.986	0.0016218	0.0019182	0.00053424	746.94	2.1268e-05	2.0696e-05	1183.1	198.51	2.0261e-05	3.2093e-05	457.23	200.68	69.692	26.182	2.344e-05	71.438	268.564	247.104	312.934	192.754	247.589	308.714	194.020	197.331	352.596	223.002	197.916	202.123	200.689	205.184	343.451	205.427	-8191	255	
18473.035	1	1	0	0	0.10373	0.22989	0.12967	0.20782	0.10833	0.3247	0.29387	0.25629	0.29122	0.15528	0.084075	0.25203	0.14625	0.16463	0.073403	0.27359	-2.3479	-2.5292	-2.8312	-2.5125	-2.7375	-2.8729	-2.7188	-2.7958	-2.525	-2.5354	-3.025	-2.5771	-2.8583	-2.9	-2.5604	-3.0771	512.303	425.354	241.611	324.037	306.625	273.210	477.656	381.191	195.116	358.139	330.999	528.995	490.679	237.663	339.794	196.698	0.00074237	0.00081268	0.00019307	809.16	2.9418e-06	6.1062e-06	1338.7	223.74	9.2677e-06	1.0781e-05	513.08	226.5	76.851	29.235	1.4606e-05	79.935	0.0016335	0.0019266	0.00054861	768.61	2.1619e-05	2.1395e-05	1184.9	200.39	2.0436e-05	2.3421e-05	457.57	201.75	69.846	26.376	3.1404e-05	71.9	265.290	299.075	250.008	192.638	255.649	389.065	193.709	197.201	383.843	339.987	198.382	202.127	201.291	204.306	346.235	205.735	-8191	255	
18473.156	1	1	0	0	0.10748	0.27415	0.10115	0.070558	0.10678	0.15425	0.21979	0.11226	0.17599	0.10076	0.26742	0.30498	0.051618	0.097166	0.12369	0.45013	-2.2417	-2.625	-2.9125	-2.7479	-2.5417	-2.9167	-2.8292	-2.9208	-2.8292	-2.5771	-3.1417	-2.7438	-2.6729	-3.0833	-2.475	-2.8333	282.136	502.169	345.350	389.055	307.832	462.580	529.254	429.589	496.399	418.203	505.753	189.412	401.712	424.351	366.568	457.290	0.00071227	0.0011284	0.00031279	798.95	3.3882e-06	1.1553e-05	1341.5	222.46	1.2748e-05	2.4621e-05	513.84	225.09	77.49	29.035	1.5255e-05	79.978	0.0016501	0.0019128	0.00055722	746.5	2.2585e-05	2.1941e-05	1186.9	199.87	2.0539e-05	3.2225e-05	458.35	201.62	69.985	26.341	2.3969e-05	71.93	260.686	275.128	263.931	192.333	248.996	267.204	193.691	197.393	352.955	270.943	198.163	202.298	200.785	204.926	377.610	205.673	-8191	255	
18473.252	1	1	0	0	0.050938	0.11889	0.15621	0.37631	0.21479	0.14763	0.1553	0.28905	0.06683	0.2128	0.26435	0.38294	0.21348	0.11048	0.35193	0.10469	-2.1792	-2.5854	-2.7979	-2.5583	-2.5896	-3.0375	-2.6979	-2.9813	-2.9042	-2.5792	-3.1354	-2.8667	-2.7188	-2.9083	-2.7229	-2.9792	255.100	256.909	300.008	458.124	507.723	292.948	250.279	480.072	268.931	377.178	274.923	509.284	376.007	338.758	367.276	442.096	0.00067691	0.00083657	0.00012167	797.32	6.0277e-06	1.1192e-05	1337.4	222.34	9.2459e-06	1.2362e-05	515.03	223.81	76.284	28.472	2.1248e-05	79.547	0.0016569	0.0019591	0.00055987	738.72	3.1883e-05	2.1729e-05	1182.2	198.5	2.0353e-05	2.3562e-05	456.21	200.15	69.13	26.041	3.0658e-05	71.449	261.259	309.973	334.472	192.486	432.683	321.185	193.873	197.495	384.818	346.794	197.976	202.137	200.485	204.855	373.073	205.567	-8191	255	
18473.348	1	1	0	0	0.3062	0.22311	0.030575	0.11415	0.023943	0.14339	0.10142	0.33587	0.094377	0.1145	0.25004	0.065893	0.050797	0.28302	0.041427	0.088699	-2.4292	-2.5771	-2.8646	-2.7708	-2.6396	-2.7896	-2.6875	-2.9125	-2.9292	-2.5354	-2.9062	-2.8438	-2.6667	-2.8792	-2.5604	-2.7104	502.369	475.919	243.218	528.795	360.294	203.307	527.938	472.771	472.189	538.064	504.482	490.626	474.683	210.922	407.808	301.824	0.0006783	0.00085604	0.00021938	807.19	4.5945e-06	9.1335e-06	1339.1	223.29	4.488e-06	1.6007e-05	510.1	225.53	76.559	29.054	4.7694e-06	79.545	0.0016465	0.0018876	0.00055993	742.88	2.3952e-05	2.2033e-05	1184.4	199.59	2.0921e-05	3.1984e-05	456.89	201.19	69.409	26.388	2.2587e-05	71.867	271.146	284.479	263.022	192.282	404.167	340.982	193.712	197.543	389.279	261.953	198.129	202.214	200.840	204.600	360.221	205.754	-8191	255	
18473.467	1	1	0	0	0.064141	0.12593	0.093555	0.17613	0.20272	0.096716	0.22429	0.094707	0.20168	0.10582	0.33494	0.20689	0.10689	0.29294	0.24889	0.41798	-2.35	-2.6604	-2.9521	-2.7271	-2.5354	-2.8896	-2.8063	-2.6813	-2.9458	-2.4792	-3.0271	-2.8792	-2.5333	-2.8875	-2.7479	-2.6813	295.097	273.632	348.207	374.030	496.789	385.783	474.111	381.716	425.162	396.344	483.565	181.180	318.350	538.388	294.307	446.259	0.00072352	0.00063913	0.00013677	801.46	1.087e-05	7.8078e-06	1336.8	222.99	2.9865e-06	1.1726e-05	507.54	223.32	76.184	29.074	5.876e-06	80.192	0.0017022	0.0019686	0.00056568	744.62	3.1794e-05	2.2369e-05	1184.7	199.33	2.15e-05	2.4108e-05	453.92	199.82	69.124	26.424	2.1457e-05	72.732	271.570	248.697	220.729	192.436	505.181	312.811	193.568	197.688	330.604	337.773	198.017	202.060	201.124	204.530	289.713	205.828	-8191	255	
18473.539	1	1	0	0	0.32919	0.24826	0.17087	0.064439	0.0582	0.15207	0.10179	0.19198	0.17512	0.12489	0.12508	0.15361	0.27805	0.25762	0.051674	0.23853	-2.4292	-2.6688	-2.65	-2.9333	-2.5938	-2.9208	-2.6854	-2.6333	-2.9167	-2.6312	-2.8729	-3.0062	-2.7979	-3.15	-2.7604	-2.6417	387.381	314.714	362.596	395.520	478.455	218.437	388.565	415.579	305.188	337.893	500.830	471.508	493.216	496.814	290.344	257.719	0.00080171	0.00064478	0.00018552	795.5	5.0571e-06	1.2374e-05	1323.7	217.99	7.941e-06	1.3262e-05	504.16	222.15	75.113	28.71	4.3769e-06	79.644	0.0017115	0.0020056	0.00057265	738.45	2.3954e-05	2.2848e-05	1177.2	196.93	2.1438e-05	3.2571e-05	451.82	198.62	67.995	26.107	2.1959e-05	71.55	267.246	201.107	266.670	192.606	297.844	289.022	193.750	197.467	322.692	298.259	198.074	202.232	201.456	204.689	385.956	205.617	-8191	255	
18473.635	1	1	0	0	0.24362	0.16857	0.080495	0.25056	0.24967	0.27505	0.12198	0.12179	0.068488	0.36092	0.12082	0.2025	0.25482	0.022014	0.027685	0.15926	-2.5271	-2.4229	-2.7854	-2.8292	-2.5563	-2.8792	-2.9083	-2.6104	-2.6792	-2.7292	-2.6792	-3.0187	-2.3521	-2.9229	-2.8125	-2.4479	485.289	373.898	396.081	469.364	341.852	460.616	451.753	310.325	410.572	364.602	329.047	473.567	410.121	306.024	413.601	429.965	0.00061217	0.00047284	0.00021636	790.83	1.1124e-05	7.2743e-06	1326	214.94	7.7156e-06	3.6864e-06	498.16	219.92	74.536	28.38	7.177e-06	78.606	0.001673	0.0020048	0.00056702	735.77	3.2392e-05	2.2716e-05	1173.1	194.23	2.1866e-05	2.309e-05	446.4	196.4	67.519	25.847	2.1175e-05	71.432	262.266	244.281	290.839	192.638	497.874	309.259	193.770	197.597	238.389	318.853	198.125	202.178	200.974	204.523	306.845	205.800	-8191	255	
18473.730	1	1	0	0	0.2447	0.18547	0.29908	0.2056	0.28828	0.1402	0.078892	0.31426	0.25571	0.15328	0.24447	0.45895	0.18243	0.24508	0.22748	0.2023	-2.6312	-2.5875	-2.5875	-2.9229	-2.5854	-2.9417	-2.8125	-2.6458	-2.8438	-2.8125	-2.8021	-2.8792	-2.7208	-2.7313	-2.7271	-2.7583	322.585	309.504	386.126	368.496	262.242	299.536	331.263	513.618	353.404	365.962	381.526	525.044	428.964	398.340	459.052	475.858	0.00062249	0.00016175	0.00013473	793.45	4.2056e-06	3.8626e-06	1327.5	218.92	3.3943e-06	8.1672e-06	504.36	220.05	75.517	28.737	7.4938e-06	79.227	0.0017256	0.0019984	0.00056096	739.9	2.41e-05	2.2692e-05	1175	196.57	2.1706e-05	2.2198e-05	455.4	198.11	68.459	26.217	2.1578e-05	71.433	263.651	281.906	289.625	192.683	184.949	370.527	193.555	197.254	373.908	335.093	198.045	202.118	201.207	204.479	375.544	205.762	-8191	255	
18473.852	1	1	0	0	0.21565	0.18173	0.12486	0.15792	0.33934	0.091435	0.1521	0.1945	0.15363	0.051066	0.39554	0.28625	0.32042	0.31772	0.13019	0.23005	-2.6458	-2.6417	-2.5625	-2.8667	-2.6208	-2.7146	-2.9875	-2.5625	-2.8021	-2.5479	-2.6583	-3.0229	-2.675	-2.6396	-2.8042	-2.6437	463.828	203.093	301.079	505.493	324.148	527.862	435.763	378.375	191.941	271.639	516.114	530.882	337.586	436.377	180.353	257.562	0.00067941	0.00043775	0.00026353	799.2	1.0718e-05	7.9055e-06	1325.9	221.95	9.9051e-06	5.9652e-06	508.18	221.56	75.688	28.722	7.5405e-06	79.927	0.0017424	0.002015	0.00054795	738.78	3.1324e-05	2.2819e-05	1178.2	197.8	2.1954e-05	2.229e-05	453.59	198.85	68.784	26.256	2.1621e-05	72.375	276.213	276.854	271.775	192.754	456.873	292.046	193.881	197.817	311.488	309.475	197.994	202.226	201.230	204.880	370.931	205.719	-8191	255	
18473.947	1	1	0	0	0.18799	0.24912	0.094739	0.22745	0.17181	0.12188	0.13094	0.1654	0.28201	0.27753	0.27679	0.21698	0.22254	0.28784	0.11821	0.018133	-2.5563	-2.575	-2.6063	-2.8542	-2.65	-2.6625	-3.1146	-2.4396	-2.7313	-2.7354	-2.7042	-2.9292	-2.6729	-2.8354	-3.0542	-2.7125	478.297	380.019	262.852	220.119	242.112	283.018	519.837	535.893	345.325	233.512	195.952	454.383	425.330	467.111	288.517	426.919	0.00069968	0.00094194	0.00010153	806.41	8.6335e-06	8.6276e-06	1338.8	221.12	4.5096e-06	9.8528e-06	508.87	221.7	75.413	28.324	8.5962e-07	79.033	0.0017279	0.0019456	0.00055242	745.59	2.2411e-05	2.3809e-05	1181.5	198.19	2.0987e-05	2.1316e-05	456.82	199.18	68.561	25.886	2.1416e-05	71.069	263.991	242.214	214.158	192.625	356.114	501.939	193.742	197.688	366.498	321.667	197.903	202.199	201.155	204.979	190.522	205.424	-8191	255	
18474.045	1	1	0	0	0.21084	0.21342	0.13649	0.076127	0.12796	0.20893	0.13792	0.13796	0.13667	0.11875	0.19402	0.31338	0.27789	0.082466	0.12636	0.16372	-2.4542	-2.6021	-2.5208	-2.95	-2.5812	-2.7708	-3.1292	-2.7354	-2.8271	-2.9479	-2.4729	-2.8958	-2.7458	-2.5146	-2.7812	-2.5812	487.689	387.438	308.113	436.216	363.178	368.417	452.435	516.825	343.145	510.409	472.488	535.873	493.371	356.939	469.720	432.924	0.00061905	0.00019526	0.00020639	811.33	1.1952e-05	1.2709e-05	1326.5	219.2	4.7002e-06	1.0046e-05	496.46	217.76	74.371	27.881	8.529e-06	77.295	0.0016992	0.0019504	0.00054018	744.23	2.1145e-05	3.1906e-05	1177.4	195.94	2.0736e-05	2.1142e-05	446.42	195.22	67.179	25.305	2.092e-05	69.972	266.086	295.972	255.870	192.352	314.474	517.749	193.656	197.250	351.184	355.462	197.878	202.381	201.134	204.486	333.463	205.496	-8191	255	
18474.115	1	1	0	0	0.088694	0.12222	0.21789	0.044584	0.06259	0.075252	0.20347	0.32449	0.23946	0.21156	0.047879	0.10809	0.084982	0.19585	0.10126	0.20159	-2.4104	-2.7812	-2.3917	-2.8458	-2.6208	-2.5563	-2.9292	-2.6292	-2.7438	-2.7521	-2.7562	-2.725	-2.6042	-2.5604	-2.8208	-2.8542	321.707	406.797	416.282	425.897	298.499	506.254	469.793	497.172	290.145	197.766	493.028	492.655	497.195	181.180	515.793	443.188	0.00070919	0.00058316	7.1815e-05	797.45	7.8586e-06	1.1586e-05	1326.2	218.31	5.5027e-06	3.6256e-06	497.72	216.11	73.486	27.81	1.5916e-06	76.603	0.0016258	0.0018612	0.00051264	736.82	2.0139e-05	2.3557e-05	1177.6	194.85	2.0624e-05	2.1345e-05	449.81	194.2	66.761	25.258	2.1409e-05	69.407	267.580	275.656	203.469	192.716	313.734	399.032	193.704	197.305	351.462	362.146	197.991	202.152	200.648	204.696	409.614	205.942	-8191	255	
18474.236	1	1	0	0	0.36453	0.30955	0.1446	0.14386	0.20495	0.22325	0.31803	0.10088	0.11702	0.1225	0.36264	0.33694	0.13202	0.21604	0.14723	0.2937	-2.3979	-2.8312	-2.4708	-2.7792	-3	-2.7521	-3.1542	-2.7083	-2.7083	-2.7938	-2.5812	-2.9792	-2.8083	-2.5812	-2.8625	-2.8458	211.377	255.319	534.716	236.494	237.221	496.063	467.108	490.688	245.347	189.745	443.366	224.922	520.619	194.746	374.559	524.717	0.00066554	0.0013394	0.00019229	797.67	9.0812e-06	2.2915e-05	1320.2	215.81	9.3054e-06	1.1551e-05	490.22	214.12	72.366	27.073	1.0025e-05	76.383	0.001702	0.0018949	0.00052093	739.01	2.0661e-05	3.2264e-05	1173.6	193.39	2.0889e-05	2.1133e-05	440.62	191.25	65.367	24.662	2.1335e-05	68.535	264.429	279.952	255.615	192.882	396.637	199.874	193.973	197.472	341.255	317.607	198.066	202.289	200.947	204.563	394.475	205.802	-8191	255	
18474.332	1	1	0	0	0.28399	0.20449	0.01806	0.39344	0.11821	0.30015	0.22227	0.068372	0.10408	0.059767	0.22883	0.37638	0.17683	0.095675	0.14343	0.078273	-2.1354	-2.8146	-2.3312	-2.7917	-2.7646	-2.4917	-3.025	-2.6979	-2.6333	-2.7042	-2.6417	-2.9292	-2.7583	-2.5854	-2.9188	-2.7646	375.618	449.343	282.301	208.584	525.728	347.769	518.492	197.478	361.198	351.743	417.322	520.533	380.998	186.042	242.473	341.430	0.00065461	0.00078342	0.00013491	800.06	4.3834e-06	8.712e-06	1326.7	213.8	3.0543e-06	1.1007e-05	490.38	212.74	71.758	27.195	8.4732e-06	76.328	0.002363	0.0019416	0.00052955	737.06	2.117e-05	2.4086e-05	1173.4	192.17	2.0562e-05	2.1916e-05	441.84	190.8	65.024	24.794	2.1296e-05	68.892	278.977	262.806	345.182	192.818	396.949	201.085	193.333	197.568	484.607	309.529	198.460	202.515	201.347	204.845	274.302	205.756	-8191	255	
18474.428	1	1	0	0	0.16324	0.31526	0.090866	0.1418	0.1147	0.18457	0.25944	0.24553	0.051464	0.17585	0.16757	0.24907	0.18665	0.35625	0.093533	0.01844	-2.1562	-2.8958	-2.4396	-2.8625	-2.8063	-2.5208	-2.9979	-2.6063	-2.6833	-2.8812	-2.6125	-2.7958	-2.9417	-2.6188	-2.9646	-2.8417	329.727	227.791	258.575	186.924	183.535	490.829	527.842	343.674	524.083	295.479	220.765	455.239	502.050	539.314	531.876	413.083	0.00066329	0.00066724	0.00019903	789.99	3.7929e-06	1.1307e-05	1322.2	211.78	6.0477e-06	1.3319e-05	488.37	211.36	70.987	27.06	8.4839e-06	76.102	0.0017929	0.0019235	0.00053861	732.32	2.0999e-05	3.1735e-05	1170.3	190.31	1.9962e-05	2.1622e-05	435.49	189.63	64.249	24.687	2.0578e-05	68.433	277.367	201.809	299.202	192.328	331.969	514.454	193.724	197.606	338.402	310.498	198.120	202.220	200.929	205.010	350.796	205.589	-8191	255	
18474.549	1	1	0	0	0.17463	0.093474	0.16794	0.18114	0.23712	0.14334	0.21776	0.030229	0.22484	0.037984	0.24349	0.33636	0.29043	0.039171	0.18466	0.30391	-2.1625	-2.625	-2.8208	-2.6937	-2.7125	-2.7479	-3.1417	-2.8604	-2.5167	-2.85	-2.6979	-2.6813	-2.9188	-2.6813	-2.8708	-3.0021	295.981	388.301	289.055	250.548	275.503	193.344	196.598	203.041	505.331	489.836	479.052	182.032	536.372	248.508	252.052	520.702	0.00043491	0.00069726	0.00037575	791.26	1.3882e-05	3.5509e-06	1324	211.55	2.54e-06	4.1154e-06	488.3	212.86	71.432	27.318	5.0081e-06	76.579	0.002305	0.0019127	0.00053092	730.93	2.0667e-05	2.3709e-05	1170.9	190.33	1.9772e-05	2.1593e-05	436.53	191.26	64.659	24.842	2.1109e-05	68.888	269.186	215.132	256.562	193.537	312.268	243.646	193.935	197.722	393.017	271.945	198.164	202.241	201.068	205.055	384.500	205.517	-8191	255	
18474.645	1	1	0	0	0.026495	0.13986	0.23704	0.047405	0.352	0.32249	0.31919	0.37921	0.040492	0.16883	0.29025	0.076539	0.32117	0.17949	0.1104	0.32552	-2.0833	-2.9104	-2.6229	-2.8083	-2.8708	-2.6521	-2.9729	-2.8875	-2.6479	-2.7479	-2.8375	-2.8125	-2.9396	-2.6604	-2.8104	-3.0104	501.854	258.285	410.759	363.107	288.701	274.891	452.515	509.926	379.900	343.817	530.141	513.381	292.481	474.121	538.848	430.713	0.00063147	0.00076633	0.00020746	797.17	1.2678e-05	6.9719e-06	1320.8	213.29	9.6585e-06	1.19e-05	490.01	211.31	71.546	27.39	4.0038e-06	77.19	0.0017926	0.0019379	0.00054474	734.19	2.1043e-05	2.9733e-05	1170.5	190.77	2.0157e-05	2.1896e-05	436.79	189.95	64.832	25.04	2.0987e-05	69.447	264.091	215.072	305.087	192.614	347.556	348.026	193.801	197.124	350.688	317.392	198.100	202.511	200.805	204.768	377.804	205.816	-8191	255	
18474.740	1	1	0	0	0.32286	0.090886	0.031157	0.17145	0.11315	0.053514	0.23899	0.044036	0.20173	0.22341	0.32652	0.025822	0.14758	0.35041	0.14929	0.15565	-2.2208	-2.9042	-2.6688	-2.6271	-2.7771	-2.5146	-2.8375	-2.875	-2.6042	-2.8042	-3.0375	-2.45	-2.7625	-2.6708	-2.6729	-2.9104	458.032	391.808	289.613	340.109	295.179	478.202	479.675	364.078	375.847	409.021	530.542	402.527	222.920	500.104	506.723	531.096	0.00049762	0.00095917	0.00046257	805.35	6.5658e-06	1.5161e-05	1325.2	213.73	5.1297e-06	1.359e-05	490.56	214.1	71.196	27.705	1.168e-05	77.844	0.0023594	0.001983	0.0005439	736.58	2.1389e-05	2.2094e-05	1174.4	191.95	2.0218e-05	2.2704e-05	438.21	192.26	65.039	25.172	2.131e-05	69.781	260.597	354.971	286.766	193.081	332.277	345.999	193.468	197.733	463.317	303.267	198.175	202.463	201.231	204.668	317.572	205.665	-8191	255	
18474.836	1	1	0	0	0.053407	0.075088	0.20469	0.16227	0.15679	0.1414	0.26145	0.08509	0.21317	0.16411	0.21899	0.33314	0.31298	0.19402	0.1933	0.32038	-1.9708	-2.7	-2.5958	-2.4958	-2.775	-2.6063	-2.6646	-2.875	-2.5021	-2.8521	-2.7167	-2.7208	-2.8979	-2.7146	-2.5104	-3.0271	202.666	239.486	416.440	315.707	246.516	377.493	458.754	260.595	296.073	452.732	489.867	515.236	483.655	211.024	220.755	508.246	0.00069514	0.00041969	5.3687e-05	786.65	7.3291e-06	1.1678e-05	1327.3	213.91	8.2347e-06	1.6861e-05	496.25	214.44	72.28	27.438	4.5071e-06	77.514	0.0017714	0.0020031	0.00053307	730.63	2.0995e-05	2.1492e-05	1182.7	192.17	2.0282e-05	2.1241e-05	440.05	192.32	65.618	25.003	2.0237e-05	69.236	265.184	286.037	289.580	192.955	195.180	322.385	193.806	197.101	327.165	397.307	198.442	202.127	201.533	204.769	428.911	205.686	-8191	255	
18474.932	1	1	0	0	0.12776	0.13548	0.32791	0.051228	0.22758	0.11016	0.40773	0.097317	0.15588	0.064953	0.26352	0.27567	0.29231	0.038504	0.08688	0.37964	-2.2	-2.7	-2.625	-2.3896	-2.8771	-2.6542	-2.6875	-2.9167	-2.3812	-2.5333	-2.7438	-2.5833	-2.8083	-2.5938	-2.7458	-3.0438	453.636	407.505	195.048	386.367	309.914	331.508	180.383	424.064	305.978	355.569	507.255	426.329	447.892	340.187	356.145	483.778	0.00052218	0.00044031	0.00017072	799.19	5.0198e-06	4.4327e-06	1324.8	217.62	3.6821e-06	8.1399e-06	499.87	218.54	74.733	28.065	7.9401e-06	77.558	0.0021328	0.0020461	0.00052981	737.74	2.1328e-05	2.0692e-05	1179.4	195.7	1.9704e-05	2.1174e-05	446.84	196.82	67.531	25.51	1.9827e-05	69.815	268.048	461.101	245.075	192.610	323.479	272.752	193.481	197.486	353.841	354.327	198.025	202.391	201.168	205.070	297.870	205.863	-8191	255	
18475.027	1	1	0	0	0.15568	0.18029	0.027558	0.16663	0.19318	0.19217	0.11025	0.10881	0.20935	0.1189	0.21332	0.029906	0.16769	0.21188	0.31806	0.2351	-1.9438	-2.6771	-2.7833	-2.5167	-2.6688	-2.6854	-2.6375	-2.7812	-2.5333	-2.775	-2.6854	-2.7292	-2.7792	-2.8563	-2.3625	-2.9479	411.076	323.293	185.641	413.123	208.335	256.547	447.125	453.745	462.129	349.991	505.019	194.755	213.002	533.185	205.356	518.605	0.00063623	0.00021776	0.00024433	808.34	1.0376e-05	5.3123e-07	1344.3	220.5	8.3783e-06	6.7277e-06	503.37	219.68	74.986	28.557	9.3205e-06	78.45	0.001604	0.0020184	0.00051257	743.03	2.0614e-05	2.0275e-05	1198.6	197.8	1.9513e-05	2.0572e-05	450.12	196.84	68.14	25.768	2.0189e-05	70.554	266.936	408.016	281.999	192.715	337.079	236.160	193.478	197.623	306.577	337.795	198.145	202.163	201.154	205.064	364.521	205.689	-8191	255	
18475.148	1	1	0	0	0.091435	0.19069	0.1501	0.27489	0.31535	0.15929	0.32512	0.20789	0.11412	0.15756	0.43987	0.32485	0.1794	0.18396	0.16269	0.241	-2.2854	-2.5042	-2.7854	-2.4833	-2.6833	-2.7646	-2.4958	-2.9479	-2.4708	-2.6542	-3.0625	-2.5812	-2.7146	-2.8104	-2.5792	-2.9479	180.683	400.795	512.338	288.152	393.247	341.608	452.230	200.372	226.430	200.465	488.191	501.948	502.055	459.111	438.489	416.773	0.00067418	0.0016861	0.00028156	806.77	5.9481e-06	1.1868e-05	1344	222.97	4.8693e-06	7.2069e-06	509.66	221.97	75.607	28.616	5.2222e-06	79.112	0.0015808	0.002852	0.00052391	744.13	2.048e-05	2.0976e-05	1193.4	199.76	1.9706e-05	2.0822e-05	452.77	199.33	68.822	25.965	1.9849e-05	71.139	266.246	367.006	216.442	192.685	400.315	349.144	193.718	197.274	319.983	283.756	197.977	202.391	201.221	204.738	440.255	205.571	-8191	255	
18475.244	1	1	0	0	0.049806	0.1146	0.22619	0.14805	0.12935	0.12988	0.28078	0.25873	0.17649	0.27268	0.10237	0.27473	0.21523	0.16919	0.27084	0.20643	-2.2188	-2.6354	-2.9437	-2.4583	-2.7125	-2.9354	-2.8292	-2.7979	-2.5521	-2.5542	-2.9562	-2.6188	-2.7271	-2.8833	-2.5354	-2.8563	245.621	360.721	454.603	465.146	439.430	487.695	521.018	192.987	446.491	400.840	466.926	487.192	190.357	482.601	336.188	496.192	0.00069349	0.00084485	0.00024159	807.38	3.1154e-06	1.7322e-05	1339.1	220.25	1.332e-05	4.5674e-06	498.18	219.21	74.813	28.296	3.7385e-06	78.006	0.0016152	0.0021111	0.00054275	743.72	2.0532e-05	2.1323e-05	1193.1	196.73	2.0557e-05	2.1376e-05	447.11	195.68	67.881	25.692	2.0956e-05	70.015	266.886	299.902	212.886	192.504	224.108	367.245	193.496	197.526	358.711	298.720	197.870	202.413	201.385	204.652	354.340	205.708	-8191	255	
18475.342	1	1	0	0	0.15425	0.031884	0.26869	0.053908	0.18227	0.096721	0.16958	0.084596	0.026523	0.21768	0.04929	0.31149	0.20943	0.17061	0.14807	0.24771	-2.2417	-2.5417	-2.85	-2.5083	-2.6063	-2.9021	-2.7333	-2.8187	-2.6354	-2.3375	-2.75	-2.5542	-2.5604	-2.85	-2.4896	-2.8208	337.911	363.497	491.509	439.240	364.584	403.862	508.930	463.236	409.430	191.378	412.940	520.552	521.515	523.361	516.851	506.420	0.00069775	0.002185	0.00018537	796.85	1.3792e-05	7.1205e-06	1325.1	215.2	2.236e-06	2.3827e-06	494.87	216.9	73.803	27.93	8.9813e-06	76.694	0.0016099	0.0028729	0.00055522	735.53	2.1129e-05	2.1561e-05	1175.5	193.93	2.1016e-05	2.1351e-05	442.42	193.71	68.016	25.356	2.1427e-05	69.29	268.049	378.063	210.085	193.121	364.871	393.253	193.514	197.688	315.424	445.155	198.003	202.012	201.430	204.310	325.127	205.508	-8191	255	
18475.412	1	1	0	0	0.11129	0.19716	0.18845	0.19374	0.19551	0.23491	0.11292	0.16411	0.17709	0.078621	0.22769	0.33865	0.11641	0.14184	0.055937	0.17859	-2.2375	-2.4854	-2.8271	-2.5083	-2.65	-2.9396	-2.6229	-2.7896	-2.7917	-2.4083	-2.7521	-2.8917	-2.5333	-2.8667	-2.525	-2.8292	333.007	422.798	336.049	481.410	507.983	441.775	494.907	534.717	494.758	512.544	514.477	274.490	383.300	456.541	245.191	239.372	0.00061019	0.00022199	0.00025587	795.52	2.8039e-06	1.2896e-05	1314.5	214.13	1.3556e-05	9.5448e-06	492.52	214.11	72.184	27.588	3.9435e-06	76.255	0.0016457	0.0021987	0.0005792	733.89	2.1355e-05	2.2733e-05	1171.3	193.64	2.1191e-05	2.1484e-05	438.59	191.76	66.007	25.091	2.1102e-05	68.857	262.654	250.617	320.368	192.534	378.398	389.861	193.696	197.822	346.034	395.558	198.337	202.312	201.221	204.728	335.418	205.348	-8191	255	
18475.531	1	1	0	0	0.23768	0.22777	0.2772	0.030579	0.12539	0.033998	0.11718	0.25088	0.1834	0.29124	0.19873	0.23141	0.21865	0.12013	0.13591	0.040271	-2.2979	-2.525	-2.8667	-2.7396	-2.7375	-2.9958	-2.6854	-2.7979	-2.8708	-2.5146	-2.8833	-2.9333	-2.3979	-2.8792	-2.4104	-2.5563	467.119	250.767	486.780	243.837	495.626	232.752	232.622	523.368	474.071	533.549	185.059	494.206	229.144	469.652	301.437	183.284	0.00062869	0.0010769	0.00016846	787.43	1.4494e-05	4.7868e-06	1310	212.19	7.3204e-06	2.1415e-06	487.19	211.68	71.333	27.234	1.0743e-05	75.841	0.0016661	0.0028979	0.00055915	730.08	2.1317e-05	2.2393e-05	1160.2	191.92	2.1022e-05	2.17e-05	434.43	190.08	66.311	24.838	2.0841e-05	68.104	264.885	379.559	256.867	192.372	350.965	350.784	193.602	197.794	358.953	348.842	198.511	201.973	201.854	204.602	354.185	205.603	-8191	255	
18475.629	1	1	0	0	0.056167	0.022441	0.19746	0.25685	0.36465	0.053052	0.075551	0.094123	0.075275	0.11128	0.22306	0.25737	0.066361	0.3024	0.0063597	0.34799	-2.3958	-2.35	-2.8208	-2.5708	-2.4813	-2.8271	-2.7146	-2.6562	-2.6042	-2.5479	-2.7354	-2.8854	-2.5521	-2.825	-2.6333	-2.7042	298.421	363.524	353.679	200.570	329.838	531.637	440.776	501.741	367.698	538.744	455.719	184.805	449.470	522.295	222.784	493.550	0.00065289	0.00098961	0.00016095	786.45	3.7597e-06	7.8122e-06	1307.6	210.65	4.2921e-06	1.0086e-05	482.98	209.3	71.192	26.547	1.6503e-06	74.141	0.0016324	0.0021303	0.00055048	727.79	2.0348e-05	2.2071e-05	1156.4	192.3	2.0943e-05	2.1123e-05	432.26	187.38	64.6	24.129	2.0497e-05	66.575	260.858	280.209	327.336	191.909	242.166	370.463	193.566	197.361	319.882	305.677	198.191	202.280	201.214	204.568	247.469	205.585	-8191	255	
18475.725	1	1	0	0	0.04761	0.1713	0.11356	0.15433	0.17165	0.33882	0.27022	0.19204	0.12105	0.18662	0.082479	0.23702	0.086601	0.21024	0.16292	0.27179	-2.3583	-2.675	-2.6646	-2.7333	-2.4833	-2.7167	-2.8875	-2.4688	-3.0229	-2.675	-2.8438	-2.9	-2.6208	-2.8375	-2.7667	-2.5896	248.125	359.248	190.350	202.478	370.945	450.349	425.034	481.013	342.430	424.413	416.374	529.844	245.523	464.403	184.319	505.643	0.00068051	0.0026635	0.00024396	785.38	6.8025e-06	6.8038e-06	1300.1	208.02	7.8494e-06	1.3779e-05	479.5	208.09	70.512	26.495	5.3753e-06	74.08	0.001597	0.0024023	0.00060371	721.98	2.0027e-05	2.1351e-05	1149.3	188.22	2.0208e-05	2.0558e-05	428.81	186.27	65.242	24.226	2.0203e-05	66.588	266.553	333.252	185.541	192.491	343.453	369.548	193.532	197.109	349.228	254.167	198.127	202.504	201.288	204.469	353.700	205.404	-8191	255	
18475.820	1	1	0	0	0.0097933	0.15395	0.082825	0.19082	0.13036	0.17656	0.23409	0.16303	0.11021	0.17905	0.16982	0.14473	0.17013	0.052895	0.077773	0.16926	-2.1646	-2.6042	-2.5667	-2.9	-2.5563	-2.7604	-2.9188	-2.5271	-2.8875	-2.5938	-2.7125	-2.9958	-2.625	-2.6375	-2.675	-2.4146	185.744	466.218	415.297	450.673	519.812	302.237	456.514	452.960	348.293	432.171	381.941	184.214	499.594	438.603	363.909	432.300	0.00064665	0.00049332	0.00015035	778.41	1.0785e-05	1.4029e-05	1294.4	209.28	7.4136e-06	9.3442e-06	477.96	208.99	70.599	26.66	5.1285e-06	74.671	0.0016392	0.0019031	0.00059213	719.91	1.9988e-05	2.1082e-05	1146.2	190.87	2.0407e-05	2.07e-05	429.16	186.62	64.391	24.332	2.0307e-05	67.164	276.733	525.790	329.543	192.693	316.007	328.162	193.569	197.549	345.047	398.252	197.958	202.137	201.315	204.834	370.048	205.434	-8191	255	
18475.941	1	1	0	0	0.038094	0.095087	0.089178	0.27433	0.1615	0.1989	0.2549	0.17	0.14844	0.17726	0.16355	0.05007	0.256	0.16497	0.19297	0.27158	-2.4875	-2.6375	-2.6375	-2.8604	-2.5042	-2.7479	-2.8667	-2.4167	-2.8208	-2.6188	-2.7833	-3.0521	-2.4875	-2.7042	-2.7729	-2.6958	221.730	460.679	257.921	459.415	191.587	434.763	489.810	221.300	190.873	342.868	251.600	467.409	352.359	183.012	225.251	194.738	0.00070993	0.00053573	0.00052966	787.23	4.6391e-08	5.191e-06	1289	211.62	2.0804e-06	5.9878e-06	484.38	209.68	71.553	27.03	3.1334e-06	75.117	0.001632	0.0018857	0.00079419	723.58	2.008e-05	2.1933e-05	1147.9	190.4	2.1042e-05	2.1201e-05	431.18	187.62	65.411	24.712	2.0934e-05	67.416	269.901	287.135	451.604	192.224	521.341	301.322	193.505	197.762	336.425	283.593	198.440	202.128	201.489	204.965	440.510	205.383	-8191	255	
18476.012	1	1	0	0	0.20323	0.069065	0.070946	0.15852	0.17624	0.051564	0.43917	0.23453	0.087513	0.11918	0.12961	0.21005	0.36359	0.12575	0.30751	0.098728	-2.3542	-2.5625	-2.5021	-2.7875	-2.5938	-2.6312	-2.95	-2.5875	-2.7146	-2.5792	-2.5208	-3.0729	-2.4792	-2.5563	-2.7792	-2.6063	512.788	298.529	523.346	457.995	474.977	535.964	509.532	463.783	181.605	368.714	482.750	532.137	449.597	197.628	230.841	350.403	0.0007313	0.00084584	5.047e-05	786.49	6.9816e-06	7.6713e-06	1303.1	211.68	5.2374e-06	1.4474e-05	480.52	208.41	71.136	26.79	5.0717e-06	74.413	0.0016582	0.0018931	0.00058846	727.47	2.0178e-05	2.1173e-05	1152.1	192.91	2.0615e-05	2.1103e-05	430.9	187.19	64.405	24.493	2.0546e-05	66.919	266.651	253.673	460.275	192.094	329.469	376.648	193.759	197.368	346.594	341.748	198.021	202.102	201.572	205.000	369.340	205.409	-8191	255	
18476.107	1	1	0	0	0.17162	0.08621	0.13261	0.18353	0.065468	0.065961	0.14156	0.26674	0.15969	0.1681	0.26503	0.17622	0.13687	0.17554	0.13686	0.14351	-2.2646	-2.4333	-2.475	-2.7896	-2.4208	-2.5938	-2.825	-2.5021	-2.8937	-2.625	-2.6833	-2.8854	-2.7438	-2.7	-2.8583	-2.5187	334.809	445.896	411.229	269.984	485.729	290.022	451.120	405.525	233.557	229.104	527.905	434.556	472.509	183.965	330.436	483.993	0.00076586	0.00056436	0.00042814	779.81	2.3668e-06	4.014e-06	1306.7	213.27	3.4233e-06	5.9537e-06	484.25	210.5	71.844	27.184	9.2869e-06	75.071	0.0016391	0.0018648	0.0007815	726.07	2.0246e-05	2.0633e-05	1157.3	191.65	2.0241e-05	2.055e-05	432.69	188.82	65.001	25.077	2.0326e-05	67.406	271.443	311.902	487.220	192.383	431.826	350.683	193.666	197.604	365.828	340.030	198.031	202.154	201.434	204.909	354.984	205.820	-8191	255	
18476.229	1	1	0	0	0.25642	0.082069	0.24948	0.27701	0.071925	0.022937	0.16085	0.46475	0.26388	0.11113	0.18642	0.1862	0.033288	0.092611	0.28575	0.21451	-2.2271	-2.7021	-2.6729	-2.8458	-2.4875	-2.4583	-2.9354	-2.5687	-2.7792	-2.7562	-2.5979	-2.7979	-2.6375	-2.6146	-2.7812	-2.5708	449.689	464.713	532.188	465.795	518.700	469.852	362.112	458.260	288.607	377.485	186.363	452.778	388.325	517.361	320.313	464.720	0.00070405	0.00095825	0.00029738	791.07	4.0968e-06	5.0039e-06	1311.9	215.44	7.2904e-06	7.0122e-06	483.52	212.6	71.926	27.398	1.035e-05	75.671	0.0015992	0.0018566	0.00058414	730.47	1.9929e-05	2.0623e-05	1162.1	193.48	2.3687e-05	2.0652e-05	434.35	189.63	65.505	24.978	2.0382e-05	67.839	274.670	276.155	208.696	193.204	205.613	416.912	193.523	197.268	261.400	347.530	197.984	202.217	201.257	204.104	285.985	205.813	-8191	255	
18476.324	1	1	0	0	0.21771	0.03439	0.13136	0.10082	0.1088	0.090311	0.036806	0.15932	0.099224	0.056688	0.12354	0.20706	0.11265	0.17047	0.083159	0.082025	-2.1271	-2.8458	-2.4979	-2.7854	-2.6958	-2.575	-2.7979	-2.5271	-2.5563	-2.6542	-2.4958	-2.7875	-2.7417	-2.575	-2.6771	-2.5333	443.101	410.443	189.388	470.039	372.811	410.167	503.917	513.143	270.254	480.544	483.175	482.827	228.279	445.565	305.892	419.440	0.00071499	0.00067409	0.00043015	796.52	1.1751e-05	9.9245e-06	1321.2	215.09	5.3792e-06	5.6069e-06	486.15	212.58	72.319	27.537	5.5116e-06	75.822	0.0015985	0.001869	0.00078127	734.13	2.0088e-05	2.036e-05	1169.2	193.31	2.2793e-05	2.0793e-05	436.48	190.91	65.723	25.446	2.0806e-05	68.189	271.479	338.160	488.683	192.247	284.344	334.378	193.650	197.560	349.262	358.034	198.061	202.420	200.997	205.204	354.033	205.557	-8191	255	
18476.422	1	1	0	0	0.35122	0.11365	0.20329	0.26614	0.16145	0.25256	0.10306	0.088137	0.17254	0.14303	0.29585	0.31485	0.2619	0.30143	0.071604	0.12271	-2.0896	-2.8271	-2.2542	-2.675	-2.5917	-2.5271	-2.925	-2.5729	-2.5125	-2.8354	-2.5625	-2.7521	-2.7208	-2.4854	-2.6604	-2.6417	346.900	503.839	325.592	483.587	436.800	271.095	532.484	338.089	345.726	193.662	500.517	488.614	400.776	210.801	473.966	456.240	0.00061886	0.00068477	0.00015943	800.51	4.9069e-06	6.5245e-06	1330.6	215.94	2.1099e-05	3.5826e-06	487.61	211.23	71.954	27.18	7.1528e-06	74.94	0.0015677	0.0018602	0.00058627	737.03	2.0187e-05	2.0438e-05	1171.7	192.59	3.0301e-05	2.071e-05	434.99	189.39	65.073	24.851	2.1216e-05	67.558	264.875	291.509	284.206	192.506	303.210	276.415	193.813	197.589	318.147	258.923	198.095	202.299	201.295	204.576	249.941	205.396	-8191	255	
18476.518	1	1	0	0	0.14964	0.14834	0.18734	0.24339	0.17004	0.15631	0.28332	0.1849	0.10538	0.34139	0.17775	0.12931	0.25978	0.22875	0.096648	0.19159	-2.1312	-2.7854	-2.475	-2.6854	-2.7583	-2.5312	-3.0062	-2.7854	-2.5125	-2.9604	-2.6146	-2.7687	-2.8812	-2.5354	-2.7188	-2.8521	396.380	492.571	243.146	445.924	347.285	431.567	454.458	463.191	193.771	482.110	383.384	525.076	199.684	530.182	253.403	501.788	0.00071601	0.0010202	0.00051663	795.58	1.9146e-06	7.7763e-06	1312.1	212.73	1.1623e-05	6.7457e-06	482.38	210.1	71.662	27.125	8.0785e-06	75.208	0.001607	0.0019214	0.00063705	744.98	2.0879e-05	2.0455e-05	1162.8	191.15	2.2372e-05	2.169e-05	431.51	188.26	64.942	25.166	2.1522e-05	67.53	272.862	224.205	375.030	191.420	419.982	346.908	193.433	197.245	282.668	243.446	198.334	202.131	201.227	205.027	294.588	205.910	-8191	255	
18476.637	1	1	0	0	0.062505	0.18245	0.12213	0.014749	0.050048	0.26133	0.34403	0.058698	0.054237	0.32242	0.096577	0.13665	0.09212	0.17452	0.2469	0.31529	-2.0542	-2.8083	-2.4396	-2.3937	-2.8896	-2.4813	-2.8667	-2.6229	-2.5417	-2.6792	-2.6833	-2.5979	-2.7208	-2.4292	-2.7583	-2.7604	410.641	188.626	508.028	490.540	243.727	501.048	486.711	472.066	207.049	236.254	304.525	506.916	240.230	536.242	381.681	422.749	0.00065402	0.001122	0.00012173	795.11	6.9873e-06	1.5838e-05	1310.5	213.14	1.276e-05	3.7876e-06	487.07	212.68	72.043	27.311	5.2166e-06	75.845	0.0015851	0.001926	0.00051909	740.82	2.0606e-05	2.1121e-05	1164.4	191.64	3.0228e-05	2.1652e-05	434.71	189.84	65.592	25.057	2.0825e-05	68.018	274.815	235.714	270.100	192.686	334.709	280.295	193.472	197.867	297.618	283.972	198.273	202.194	201.384	204.969	335.232	205.596	-8191	255	
18476.707	1	1	0	0	0.12405	0.14668	0.084089	0.1697	0.0252	0.10291	0.21917	0.281	0.19187	0.13481	0.26317	0.37659	0.21472	0.12888	0.12666	0.16879	-2.0938	-2.8729	-2.4771	-2.5542	-2.875	-2.5875	-2.875	-2.8625	-2.4458	-2.7938	-2.7292	-2.6333	-2.7167	-2.5854	-2.6896	-2.6729	291.736	438.357	184.114	459.103	319.747	199.365	502.555	477.189	443.595	379.154	496.835	519.616	227.700	210.561	314.766	219.232	0.00060036	0.00083177	0.0003551	790.69	5.0344e-06	1.0081e-05	1312.9	214.26	9.2812e-06	1.1515e-05	486.8	211.82	72.608	27.429	2.7822e-06	75.855	0.0015642	0.0019608	0.00052969	759.75	2.1316e-05	2.1614e-05	1166.8	192.9	2.3037e-05	2.1765e-05	435.32	189.73	65.694	25.14	2.631e-05	68.172	269.338	250.615	287.021	192.334	450.610	339.658	193.796	197.690	312.195	373.152	198.630	202.141	200.986	205.243	345.507	205.766	-8191	255	
18476.828	1	1	0	0	0.25324	0.24754	0.10828	0.19864	0.17029	0.1662	0.078794	0.30704	0.18976	0.18011	0.21749	0.21255	0.25509	0.19806	0.074869	0.19346	-1.9292	-2.7979	-2.5292	-2.5875	-2.6979	-2.6271	-2.9333	-2.8604	-2.4604	-2.7375	-2.8771	-2.6854	-2.8125	-2.5375	-2.7438	-2.8125	418.221	221.944	181.481	310.797	280.409	520.354	217.527	526.670	308.739	231.278	424.143	448.055	201.405	234.750	526.771	385.885	0.00076221	0.00080181	0.00013802	797.75	5.4973e-06	6.5362e-06	1317.8	214.12	1.5591e-05	6.96e-06	483.94	212.68	71.433	27.478	4.5603e-06	75.589	0.0016343	0.0020147	0.00054559	742.64	2.1226e-05	2.136e-05	1167.6	192.53	3.1119e-05	2.2437e-05	432.47	189.33	65.056	24.919	2.439e-05	67.95	260.117	246.071	241.486	192.446	462.222	434.079	193.639	197.331	321.962	360.042	197.810	202.061	201.308	204.784	379.410	205.695	-8191	255	
18476.926	1	1	0	0	0.15419	0.15046	0.12791	0.37232	0.14389	0.18679	0.4044	0.19748	0.27116	0.23656	0.21778	0.23557	0.031662	0.25249	0.17204	0.079434	-1.9208	-2.8187	-2.5812	-2.4688	-2.8854	-2.6354	-2.6312	-2.9	-2.4313	-2.6437	-2.7417	-2.5667	-2.8208	-2.6813	-2.6104	-3	424.536	247.629	305.594	252.855	503.458	369.767	512.661	359.753	520.535	252.462	457.194	520.455	267.200	438.184	375.241	382.568	0.00072571	0.00076025	0.00026669	796.05	3.8181e-06	2.0168e-06	1310.2	208.89	8.8626e-06	3.7942e-06	481.4	208.24	71.037	27.201	6.6624e-06	75.376	0.001618	0.0020519	0.00055198	756.99	2.1842e-05	2.1678e-05	1155.6	189.06	2.3452e-05	2.2603e-05	429.57	187.1	64.714	24.815	3.1912e-05	67.919	269.183	306.916	263.240	192.125	226.709	448.578	193.639	197.038	322.928	316.596	198.148	202.181	201.331	205.379	454.670	205.703	-8191	255	
18477.021	1	1	0	0	0.21654	0.20913	0.15889	0.20601	0.02399	0.18769	0.17098	0.12365	0.23196	0.33141	0.29751	0.21963	0.16059	0.20858	0.13802	0.2368	-2.075	-2.7229	-2.6312	-2.5458	-2.8104	-2.6021	-2.7583	-2.8021	-2.4042	-2.5771	-2.8542	-2.525	-2.7479	-2.7125	-2.4938	-3.0479	499.299	420.298	289.211	198.604	330.452	374.514	477.285	499.569	273.560	339.902	495.915	425.345	282.319	182.140	329.784	456.990	0.00071435	0.0006578	7.5774e-05	787.86	4.1304e-06	9.1813e-06	1308.9	213.53	1.5518e-05	7.9188e-06	481.13	210.14	71.462	27.346	6.1197e-06	75.559	0.0016402	0.0019997	0.00054489	736.84	2.1772e-05	2.2176e-05	1159	191.24	2.4674e-05	2.7373e-05	430.91	188.34	65.311	24.858	2.4301e-05	68.126	266.861	290.774	378.226	193.333	406.754	282.247	193.687	197.626	347.063	305.733	197.999	202.238	201.966	204.562	378.079	205.644	-8191	255	
18477.117	1	1	0	0	0.20479	0.035328	0.11835	0.14438	0.10426	0.32657	0.17499	0.13704	0.051193	0.088576	0.24418	0.08261	0.34843	0.33722	0.27643	0.302	-2.05	-2.6333	-2.7375	-2.5208	-2.6813	-2.5104	-2.5771	-2.8333	-2.5563	-2.5708	-2.8375	-2.5458	-2.8917	-2.6896	-2.4104	-3.0333	205.283	398.989	252.899	507.590	530.429	221.900	525.894	422.558	193.256	438.825	494.893	214.496	502.195	503.182	413.077	481.984	0.00058149	0.00038886	0.00042895	798.3	5.7977e-06	5.9547e-06	1313.9	212.97	9.3368e-06	1.4878e-05	483.14	210.46	71.907	27.395	2.1458e-05	75.83	0.0016765	0.0020006	0.00056166	758.23	2.2196e-05	2.1963e-05	1162.4	191.77	2.105e-05	2.5734e-05	432.97	188.97	65.412	25.093	3.1877e-05	68.647	262.176	328.635	311.931	192.333	254.236	422.993	193.654	197.588	270.941	359.590	198.039	202.432	201.311	204.166	452.663	205.399	-8191	255	
18477.238	1	1	0	0	0.093298	0.31612	0.16464	0.22657	0.16053	0.024875	0.15398	0.13365	0.037267	0.10039	0.18945	0.23003	0.010982	0.2545	0.51272	0.2277	-2.05	-2.575	-2.8396	-2.3833	-2.7104	-2.7188	-2.7812	-2.8646	-2.725	-2.5896	-2.8208	-2.6146	-2.9437	-2.7562	-2.4833	-3.0021	392.694	208.391	533.011	273.747	300.660	350.180	456.574	393.693	279.551	286.667	477.467	193.537	308.067	459.181	378.988	188.710	0.000687	0.00083673	0.00032696	797.54	6.2073e-06	6.626e-06	1306.7	211.68	6.8649e-06	3.2225e-05	481.63	209.72	70.54	27.238	8.5057e-06	76.038	0.0016869	0.0020007	0.00056914	742.2	2.2344e-05	2.274e-05	1159.1	190.91	2.0859e-05	3.3088e-05	431.29	187.97	64.559	24.953	2.4231e-05	68.382	270.697	304.463	305.837	191.859	298.329	228.346	193.727	197.684	363.609	326.102	197.829	202.210	201.864	205.054	366.125	205.533	-8191	255	
18477.309	1	1	0	0	0.25629	0.15833	0.19296	0.16931	0.16761	0.022354	0.098333	0.1735	0.098079	0.17682	0.13269	0.021627	0.17052	0.21844	0.25383	0.252	-2.2875	-2.4958	-2.7979	-2.4458	-2.625	-2.9125	-2.3583	-2.8604	-2.6146	-2.5896	-2.8875	-2.5646	-2.675	-2.8792	-2.6479	-2.8958	478.278	350.866	298.911	535.123	273.848	506.968	381.142	179.655	222.871	248.151	479.353	503.502	460.059	196.991	212.957	194.465	0.00064542	0.00057307	0.00027887	785.61	1.4099e-05	5.9663e-06	1301.9	210.69	9.609e-06	1.6394e-05	477.56	208.71	71.234	27.345	8.0712e-06	75.363	0.0016664	0.0020003	0.00058683	735.32	2.823e-05	2.2804e-05	1152.2	189.51	2.1707e-05	2.4647e-05	427.84	186.97	64.613	24.956	3.1944e-05	68.015	265.584	270.969	340.136	192.070	269.094	373.056	193.570	197.266	330.564	345.282	198.365	202.148	201.431	204.957	454.712	205.795	-8191	255	
18477.406	1	1	0	0	0.11128	0.31399	0.15181	0.26411	0.07047	0.034472	0.47074	0.18817	0.055892	0.10028	0.16081	0.1546	0.1716	0.23842	0.10249	0.092781	-2.2729	-2.3333	-2.8917	-2.5479	-2.775	-2.7188	-2.6333	-2.8438	-2.9167	-2.4458	-3.2083	-2.8438	-2.5875	-2.9146	-2.6125	-2.8417	57.438	-58.575	-147.743	-109.969	49.894	-142.615	120.358	61.851	54.815	33.492	52.112	85.144	-140.015	152.805	151.025	96.205	0.00068984	0.00055123	0.00016986	786.04	8.0452e-06	9.9143e-06	1297.5	210.85	2.7229e-06	2.3922e-05	477.71	208.25	70.189	27.49	8.236e-06	75.488	0.0017037	0.00201	0.00058199	730.04	2.4904e-05	2.3112e-05	1152.3	189.32	2.1831e-05	3.3609e-05	427.92	187.1	64.193	25.091	2.4521e-05	68.213	-91.503	-114.825	-133.762	-167.403	22.926	-8.680	-166.619	-161.937	-131.693	-19.069	-161.482	-157.704	-158.616	-155.179	17.534	-154.313	-8191	255	
18477.502	1	1	0	0	0.1406	0.28326	0.023918	0.068272	0.29643	0.22489	0.23631	0.16365	0.2665	0.18467	0.06787	0.33875	0.094869	0.21502	0.22895	0.22359	-2.2854	-2.6771	-2.7896	-2.6813	-2.4708	-2.9938	-2.6167	-2.9313	-2.8104	-2.7229	-2.8542	-2.7958	-2.5062	-2.9542	-2.5833	-2.9354	324.871	343.122	384.696	535.259	381.053	417.355	425.929	425.342	211.661	493.648	339.415	470.974	529.981	466.914	460.377	480.868	0.00067028	0.00038212	0.00011898	786.57	2.7437e-05	9.718e-06	1302.1	209.63	3.7924e-06	1.1901e-05	477.34	207.97	70.938	27.435	1.2862e-05	76.138	0.0017271	0.0020369	0.00059175	729.35	3.3028e-05	2.3046e-05	1154.5	189.52	2.2132e-05	2.5327e-05	427.35	187.13	64.659	25.047	2.5478e-05	68.913	263.072	539.346	274.055	192.223	246.200	387.756	193.566	197.523	341.845	344.440	198.086	202.258	201.435	205.138	408.178	205.760	-8191	255	
18477.598	1	1	0	0	0.19315	0.18673	0.036068	0.32732	0.23469	0.28907	0.20602	0.22235	0.19759	0.092793	0.38721	0.13762	0.22921	0.037161	0.07821	0.31611	-2.2396	-2.45	-2.6771	-2.4625	-2.3854	-2.7729	-2.7729	-2.6979	-2.75	-2.5771	-2.9021	-2.8771	-2.7854	-2.8667	-2.5229	-2.7833	447.101	488.002	485.409	308.307	408.791	339.736	522.913	204.928	440.018	500.954	196.265	483.234	484.409	213.900	354.687	442.219	0.00065223	0.00089941	9.6932e-05	784.6	8.9675e-06	2.4103e-06	1300.4	210.36	5.4766e-06	2.5055e-05	472.9	207	69.418	27.028	4.0033e-06	74.879	0.0016957	0.0020438	0.00060723	730.24	2.5123e-05	2.2956e-05	1152.4	189.57	2.2476e-05	3.3668e-05	424.74	185.5	63.338	24.746	2.2035e-05	67.647	270.304	256.802	341.446	193.294	284.244	402.286	193.702	197.524	382.583	340.526	198.112	202.529	201.676	204.573	277.528	205.743	-8191	255	
18477.717	1	1	0	0	0.077289	0.31881	0.26588	0.14975	0.047148	0.17942	0.13934	0.20761	0.22849	0.32925	0.24595	0.14892	0.25881	0.23193	0.13724	0.046061	-2.4042	-2.3896	-2.6375	-2.9354	-2.5146	-2.9229	-2.7208	-2.7042	-2.8604	-2.5312	-2.8479	-2.9188	-2.6625	-2.9958	-2.4792	-2.7875	253.385	424.450	526.312	261.207	529.052	316.945	396.644	396.285	354.516	454.644	518.795	494.665	417.854	478.368	390.079	187.206	0.00063891	0.00035444	0.00011891	781.14	1.8347e-05	1.3685e-05	1288.3	208.43	7.1118e-06	5.2088e-06	470.69	204.44	68.198	26.672	3.789e-06	74.302	0.0017159	0.0020091	0.00058521	729.14	3.2417e-05	2.3194e-05	1147.1	187.2	2.2354e-05	2.5007e-05	421.93	183.21	62.695	24.423	2.2754e-05	67.747	265.398	286.842	184.935	192.329	287.684	307.993	193.725	197.887	287.059	288.276	198.360	202.193	201.009	204.425	228.680	205.697	-8191	255	
18477.812	1	1	0	0	0.16413	0.18357	0.14674	0.15335	0.11897	0.38897	0.22871	0.037561	0.12654	0.13685	0.0789	0.16946	0.44379	0.10214	0.077837	0.21788	-2.3604	-2.4792	-2.7042	-2.7125	-2.3708	-2.8292	-2.6833	-2.5687	-2.9521	-2.5458	-2.8875	-2.9375	-2.6875	-2.9125	-2.6708	-2.5687	265.468	192.086	293.063	409.847	290.021	505.507	198.910	539.231	523.037	376.603	332.323	191.129	505.857	418.841	260.149	517.957	0.00064077	0.00069705	0.00012773	777.13	9.2888e-06	1.3441e-05	1284.3	206.46	1.522e-05	2.4989e-05	467.67	204.72	68.576	26.823	4.5765e-06	74.75	0.0017659	0.0020699	0.00059814	727.8	2.497e-05	2.4378e-05	1143.6	186.66	2.3271e-05	2.5399e-05	423.76	183.44	62.667	24.588	2.3459e-05	67.506	264.848	196.432	203.952	192.811	302.533	311.360	193.478	197.494	341.671	370.921	198.345	202.504	201.643	204.449	504.830	205.580	-8191	255	
18477.908	1	1	0	0	0.10544	0.35142	0.12788	0.18448	0.039618	0.18073	0.33572	0.36496	0.21022	0.21404	0.46949	0.24978	0.37575	0.24558	0.13449	0.10492	-2.225	-2.4917	-2.5646	-2.6708	-2.4708	-2.7417	-2.8458	-2.6937	-2.9458	-2.6208	-2.7313	-2.9833	-2.6667	-2.6458	-2.4813	-2.5625	440.182	529.712	380.044	213.870	452.807	321.805	495.619	518.540	368.713	231.750	511.706	493.148	537.301	514.071	281.737	405.960	0.00064706	0.0014363	3.1566e-05	785.84	1.7218e-05	1.7082e-05	1283.8	206.17	3.094e-06	1.4263e-05	464.68	202.66	67.849	26.888	5.4913e-06	74.47	0.0018335	0.0021456	0.00064065	732.88	3.4124e-05	2.5121e-05	1141.1	186.57	2.4037e-05	2.4443e-05	420.32	182.34	62.379	24.616	2.4549e-05	68.348	270.768	251.502	450.364	192.332	280.915	397.332	193.515	197.473	289.206	315.905	198.477	202.409	201.413	205.115	265.652	205.578	-8191	255	
18478.006	1	1	0	0	0.18725	0.21752	0.10026	0.078472	0.061227	0.1076	0.087485	0.061009	0.18792	0.23152	0.3672	0.45955	0.18713	0.28961	0.17376	0.2365	-2.4792	-2.5312	-2.7521	-2.8125	-2.6396	-2.6854	-2.8563	-2.4562	-2.8375	-2.7146	-2.8	-2.9833	-2.3646	-2.6333	-2.6667	-2.5792	385.529	441.640	338.833	387.689	336.672	409.944	477.715	208.344	401.999	343.110	496.230	196.648	381.690	426.683	397.869	241.245	0.00066881	0.0010319	0.00033347	781.61	2.8849e-06	2.5458e-05	1282.9	205.82	4.0304e-06	9.7828e-06	465.85	202.88	67.717	27.034	1.4468e-05	74.69	0.0018899	0.0022491	0.00063485	730.24	2.6529e-05	2.6536e-05	1136.7	185.89	2.4326e-05	2.5431e-05	421.84	181.78	62.158	24.643	2.5256e-05	67.757	263.590	317.811	278.980	192.339	202.386	306.995	193.791	197.410	326.986	233.082	198.570	202.786	201.240	204.900	302.888	205.801	-8191	255	
18478.102	1	1	0	0	0.15416	0.1828	0.12745	0.33542	0.057061	0.12086	0.27015	0.13663	0.30396	0.098417	0.17018	0.15308	0.12942	0.14354	0.17139	0.28072	-2.2958	-2.5583	-2.6917	-2.8896	-2.6146	-2.8021	-2.9146	-2.4917	-3.0271	-2.6437	-2.4688	-2.7854	-2.5563	-2.625	-2.6688	-2.4938	277.449	524.468	346.303	449.235	311.383	191.413	465.795	386.474	380.288	408.617	441.621	484.008	289.266	199.468	229.587	521.345	0.00057571	0.00057692	6.4052e-05	776.53	1.0468e-05	1.4922e-05	1267.1	203.17	5.6978e-06	1.5433e-05	458.21	199.28	66.707	26.4	5.0089e-06	73.715	0.0019224	0.0023013	0.0006411	727.49	2.6713e-05	3.3403e-05	1129.1	183.51	2.5143e-05	2.5565e-05	413.42	179.55	61.196	24.218	2.5183e-05	67.262	267.615	379.183	285.730	191.809	327.907	280.838	193.435	197.886	334.505	326.528	198.313	202.363	201.483	204.715	323.175	205.584	-8191	255	
18478.197	1	1	0	0	0.22603	0.19471	0.18139	0.20305	0.15593	0.3333	0.14987	0.3168	0.089194	0.084411	0.12391	0.32823	0.2386	0.17539	0.13349	0.10965	-2.3167	-2.5687	-2.575	-2.8937	-2.6354	-2.5292	-2.9562	-2.4688	-2.7958	-2.8146	-2.3833	-2.8479	-2.5854	-2.5229	-2.7062	-2.6667	328.378	302.977	448.425	481.308	489.300	280.181	201.172	520.735	224.643	258.544	380.325	514.855	476.258	324.554	484.544	293.693	0.00068572	0.00078663	0.00043024	766	6.238e-06	7.8575e-06	1267.7	202.58	6.175e-06	3.2589e-06	459.06	200.52	66.76	26.364	5.3167e-06	73.793	0.0019532	0.0023267	0.00063187	722.49	2.4908e-05	2.864e-05	1126.7	183.3	2.5108e-05	2.5608e-05	417.3	180.05	61.362	24.314	2.5355e-05	66.956	269.732	234.809	283.643	192.269	336.197	360.185	193.569	197.684	318.747	269.268	198.343	202.415	201.815	204.742	369.951	205.704	-8191	255	
18478.318	1	1	0	0	0.14609	0.20657	0.19476	0.18557	0.04678	0.1229	0.17266	0.22618	0.066068	0.16646	0.24816	0.095579	0.10023	0.083547	0.043376	0.40363	-2.4	-2.7458	-2.575	-2.7938	-2.7042	-2.7646	-3.0125	-2.6312	-2.8937	-2.7792	-2.5042	-2.9979	-2.6354	-2.475	-2.9562	-2.75	501.314	410.249	406.609	309.578	206.560	386.815	435.264	223.738	272.394	430.598	198.429	312.874	391.908	481.474	422.189	456.752	0.00070879	0.00112	0.00030056	767.32	6.5242e-06	3.1071e-05	1273.4	203.64	4.2226e-06	1.1472e-05	462.15	201.03	68.159	26.733	6.9735e-06	73.58	0.0019468	0.002203	0.00062319	722.05	2.4026e-05	3.578e-05	1129.1	184.31	2.4316e-05	2.4702e-05	414.92	180.68	62.121	24.499	2.4678e-05	66.991	270.547	285.568	251.409	192.519	476.302	291.861	193.600	197.397	414.142	318.709	198.515	202.475	201.462	204.899	293.466	205.594	-8191	255	
18478.414	1	1	0	0	0.062969	0.04499	0.11336	0.11955	0.043544	0.10959	0.25921	0.23253	0.091386	0.1511	0.32142	0.2015	0.12987	0.35242	0.1766	0.34878	-2.2562	-2.7875	-2.3833	-2.7792	-2.6813	-2.6292	-2.9167	-2.7208	-2.775	-2.7667	-2.5729	-2.8729	-2.5938	-2.3417	-2.8812	-2.6896	505.173	347.194	533.523	202.980	330.314	431.545	466.189	426.988	254.841	189.710	482.049	418.674	444.315	423.381	396.487	481.635	0.00083283	0.001116	0.00038558	767.78	7.0934e-06	5.1869e-06	1279.2	203.8	8.1642e-06	9.1236e-06	461.14	198.86	67.292	26.154	2.8332e-06	73.702	0.00239	0.0022105	0.00061111	722.55	2.373e-05	2.6943e-05	1132.9	184.01	2.3899e-05	2.3964e-05	418.13	179.7	61.537	24.106	2.409e-05	66.518	257.249	255.891	295.165	192.402	245.617	447.608	193.368	197.440	360.763	291.993	198.220	202.418	201.346	204.856	247.239	205.569	-8191	255	
18478.510	1	1	0	0	0.023734	0.21039	0.2528	0.085125	0.036218	0.14097	0.22592	0.209	0.17576	0.18486	0.29871	0.10894	0.22978	0.11621	0.13325	0.26032	-2.0646	-2.75	-2.3208	-2.7521	-2.6708	-2.4521	-3.075	-2.4896	-2.7375	-2.6958	-2.4938	-2.8917	-2.7	-2.3417	-2.7375	-2.7271	514.437	395.913	208.898	368.585	254.640	307.487	497.911	451.473	440.927	525.440	448.381	237.339	452.159	343.702	491.753	422.111	0.00054369	0.00057262	0.00034088	770.67	9.3572e-06	5.4792e-06	1269.6	201.1	2.3099e-06	7.0667e-06	461.02	199.24	66.751	25.962	7.3528e-06	73.028	0.0020168	0.0021948	0.00059822	722.15	2.3955e-05	3.3847e-05	1126.5	181.95	2.2863e-05	2.4196e-05	412.14	179.04	61.086	23.828	2.4548e-05	65.767	269.051	519.594	202.024	192.796	322.999	294.890	193.409	197.633	403.771	187.161	198.231	202.301	201.527	204.778	312.997	205.621	-8191	255	
18478.605	1	1	0	0	0.11186	0.15631	0.21383	0.1115	0.15033	0.070958	0.24815	0.15402	0.12229	0.10483	0.11086	0.33619	0.28534	0.17615	0.3392	0.30313	-2.1063	-2.7229	-2.5438	-2.6063	-2.7708	-2.4917	-2.9479	-2.6458	-2.5479	-2.8875	-2.5417	-2.8479	-2.8208	-2.5771	-2.8812	-2.7875	270.332	462.292	372.027	386.497	436.840	491.206	508.662	453.912	437.540	209.995	528.341	504.862	460.036	438.972	359.915	533.174	0.00057613	0.00049826	0.00027359	769.05	1.1454e-05	1.5116e-05	1258	199.6	9.3397e-06	6.242e-06	455.05	198.98	66.744	26.277	5.1268e-06	72.992	0.0024868	0.0022284	0.00060234	717.71	2.4219e-05	2.6658e-05	1120.4	181.12	2.3566e-05	2.47e-05	409.35	179.68	61.153	24.031	2.4883e-05	66.031	240.847	259.145	274.751	192.703	391.415	370.248	193.526	197.907	317.840	274.369	198.233	202.606	201.429	204.869	224.075	205.394	-8191	255	
#DATA ENDS
