BOXY.EXE: ISS Imagent and Oximeter Data Acquisition Program Version 0.80
Ascii Record File

#ACQ INFORMATION
2  Detector Channels 
16  External MUX Channels 
1  Auxiliary Channels 
5000  Waveform (CCF) Frequency (Hz)
1  Waveforms Skipped 
30  Waveforms Averaged 
1  Cycles Averaged 
16  Acquisitions per Waveform 
10.0806  Updata Rate (Hz) 

#FILE INFORMATION
TRUE -- External MUX Channel results are PARSED.
FALSE -- AC DC and Phase are NOT grouped.
TRUE -- Companion Program Settings File CREATED.
FALSE -- AC data not excluded
FALSE -- DC data not excluded
FALSE -- Phase data not excluded
FALSE -- Auxillary Chn. data not excluded
Tab delimiters

#CALIBRATION STATE
TRUE -- Waveform Calibration Values APPLIED.


#AUX CALIBRATION VALUES
Val Type	aux-1	

Term	1.0000e+00	
Factor	0.0000e+00	


#WF CALIBRATION VALUES
A = Detector Channel
Val Type	A-AC1	A-AC2	A-AC3	A-AC4	A-AC5	A-AC6	A-AC7	A-AC8	A-AC9	A-AC10	A-AC11	A-AC12	A-AC13	A-AC14	A-AC15	A-AC16	A-DC1	A-DC2	A-DC3	A-DC4	A-DC5	A-DC6	A-DC7	A-DC8	A-DC9	A-DC10	A-DC11	A-DC12	A-DC13	A-DC14	A-DC15	A-DC16	A-Ph1	A-Ph2	A-Ph3	A-Ph4	A-Ph5	A-Ph6	A-Ph7	A-Ph8	A-Ph9	A-Ph10	A-Ph11	A-Ph12	A-Ph13	A-Ph14	A-Ph15	A-Ph16	

Term	0.00000e+00	0.00000e+00	0.00000e+00	0.00000e+00	0.00000e+00	0.00000e+00	0.00000e+00	0.00000e+00	0.00000e+00	0.00000e+00	0.00000e+00	0.00000e+00	0.00000e+00	0.00000e+00	0.00000e+00	0.00000e+00	0.00000e+00	0.00000e+00	0.00000e+00	0.00000e+00	0.00000e+00	0.00000e+00	0.00000e+00	0.00000e+00	0.00000e+00	0.00000e+00	0.00000e+00	0.00000e+00	0.00000e+00	0.00000e+00	0.00000e+00	0.00000e+00	0.00000e+00	0.00000e+00	0.00000e+00	0.00000e+00	0.00000e+00	0.00000e+00	0.00000e+00	0.00000e+00	0.00000e+00	0.00000e+00	0.00000e+00	0.00000e+00	0.00000e+00	0.00000e+00	0.00000e+00	0.00000e+00	
Factor	1.00000e+00	1.00000e+00	1.00000e+00	1.00000e+00	1.00000e+00	1.00000e+00	1.00000e+00	1.00000e+00	1.00000e+00	1.00000e+00	1.00000e+00	1.00000e+00	1.00000e+00	1.00000e+00	1.00000e+00	1.00000e+00	1.00000e+00	1.00000e+00	1.00000e+00	1.00000e+00	1.00000e+00	1.00000e+00	1.00000e+00	1.00000e+00	1.00000e+00	1.00000e+00	1.00000e+00	1.00000e+00	1.00000e+00	1.00000e+00	1.00000e+00	1.00000e+00	X	X	X	X	X	X	X	X	X	X	X	X	X	X	X	X	

B = Detector Channel
Val Type	B-AC1	B-AC2	B-AC3	B-AC4	B-AC5	B-AC6	B-AC7	B-AC8	B-AC9	B-AC10	B-AC11	B-AC12	B-AC13	B-AC14	B-AC15	B-AC16	B-DC1	B-DC2	B-DC3	B-DC4	B-DC5	B-DC6	B-DC7	B-DC8	B-DC9	B-DC10	B-DC11	B-DC12	B-DC13	B-DC14	B-DC15	B-DC16	B-Ph1	B-Ph2	B-Ph3	B-Ph4	B-Ph5	B-Ph6	B-Ph7	B-Ph8	B-Ph9	B-Ph10	B-Ph11	B-Ph12	B-Ph13	B-Ph14	B-Ph15	B-Ph16	

Term	0.00000e+00	0.00000e+00	0.00000e+00	0.00000e+00	0.00000e+00	0.00000e+00	0.00000e+00	0.00000e+00	0.00000e+00	0.00000e+00	0.00000e+00	0.00000e+00	0.00000e+00	0.00000e+00	0.00000e+00	0.00000e+00	0.00000e+00	0.00000e+00	0.00000e+00	0.00000e+00	0.00000e+00	0.00000e+00	0.00000e+00	0.00000e+00	0.00000e+00	0.00000e+00	0.00000e+00	0.00000e+00	0.00000e+00	0.00000e+00	0.00000e+00	0.00000e+00	-1.65095e+02	-1.36760e+02	-1.28228e+02	-1.79802e+02	-7.58801e+01	-8.06562e+01	-1.58085e+02	-1.62015e+02	-8.34201e+01	-6.02352e+01	-1.69977e+02	-1.71992e+02	-1.83057e+02	-1.76155e+02	-6.30896e+01	-1.48803e+02	
Factor	2.68855e-05	1.33963e-04	4.06587e-05	1.73064e-01	1.18092e-06	1.38058e-06	1.79830e-01	6.39379e-02	1.39152e-06	1.46583e-06	8.33553e-02	3.13931e-02	2.72019e-02	8.97484e-03	1.12261e-06	1.30680e-02	1.59552e-06	1.68252e-06	4.69401e-07	8.55044e-02	1.82819e-08	1.84544e-08	8.38191e-02	3.15264e-02	1.83315e-08	1.84551e-08	3.98753e-02	1.49757e-02	1.33735e-02	4.44832e-03	1.83795e-08	6.25309e-03	X	X	X	X	X	X	X	X	X	X	X	X	X	X	X	X	



#DISTANCE SETTINGS
A = Detector Channel
A-1	A-2	A-3	A-4	A-5	A-6	A-7	A-8	A-9	A-10	A-11	A-12	A-13	A-14	A-15	A-16	

2.5000e+00	3.0000e+00	2.5000e+00	3.0000e+00	2.0000e+00	3.0000e+00	1.5000e+00	3.0000e+00	3.0000e+00	3.0000e+00	3.0000e+00	3.0000e+00	3.0000e+00	3.0000e+00	1.5000e+00	3.0000e+00	

B = Detector Channel
B-1	B-2	B-3	B-4	B-5	B-6	B-7	B-8	B-9	B-10	B-11	B-12	B-13	B-14	B-15	B-16	

1.0000e+01	1.0000e+01	1.0000e+01	1.4400e+00	1.0000e+01	1.0000e+01	1.5100e+00	1.9400e+00	1.0000e+01	1.0000e+01	1.9900e+00	2.4900e+00	2.4100e+00	2.9000e+00	1.0000e+01	2.9800e+00	




#DATA BEGINS
time	group	step	mark	flag	A-AC1	A-AC2	A-AC3	A-AC4	A-AC5	A-AC6	A-AC7	A-AC8	A-AC9	A-AC10	A-AC11	A-AC12	A-AC13	A-AC14	A-AC15	A-AC16	A-DC1	A-DC2	A-DC3	A-DC4	A-DC5	A-DC6	A-DC7	A-DC8	A-DC9	A-DC10	A-DC11	A-DC12	A-DC13	A-DC14	A-DC15	A-DC16	A-Ph1	A-Ph2	A-Ph3	A-Ph4	A-Ph5	A-Ph6	A-Ph7	A-Ph8	A-Ph9	A-Ph10	A-Ph11	A-Ph12	A-Ph13	A-Ph14	A-Ph15	A-Ph16	B-AC1	B-AC2	B-AC3	B-AC4	B-AC5	B-AC6	B-AC7	B-AC8	B-AC9	B-AC10	B-AC11	B-AC12	B-AC13	B-AC14	B-AC15	B-AC16	B-DC1	B-DC2	B-DC3	B-DC4	B-DC5	B-DC6	B-DC7	B-DC8	B-DC9	B-DC10	B-DC11	B-DC12	B-DC13	B-DC14	B-DC15	B-DC16	B-Ph1	B-Ph2	B-Ph3	B-Ph4	B-Ph5	B-Ph6	B-Ph7	B-Ph8	B-Ph9	B-Ph10	B-Ph11	B-Ph12	B-Ph13	B-Ph14	B-Ph15	B-Ph16	aux-1	digaux	

3513.214	1	1	0	512	0.10122	0.14777	0.089232	0.21549	0.11558	0.42661	0.070811	0.059065	0.076615	0.35539	0.12479	0.13234	0.19796	0.37254	0.075345	0.032657	-2.9958	-3.0104	-2.9	-3.5938	-2.9479	-3.2042	-3.3771	-2.9	-3.2354	-3.2667	-3.0521	-3.4938	-3.1979	-3.2146	-3.2729	-3.0604	265.972	290.395	173.927	281.500	62.810	80.046	315.076	302.256	294.961	84.089	20.153	323.483	276.937	-0.735	155.144	88.039	0.00049958	0.00029665	0.0001465	584.07	4.4159e-06	4.3404e-06	700.13	231.6	5.6992e-06	3.0905e-06	344.8	148.39	94.93	46.872	3.5258e-06	82.79	0.00014407	0.00012107	3.1581e-05	581.83	1.2696e-06	1.3052e-06	699.25	230.43	1.3035e-06	1.2906e-06	341.69	147.52	94.727	46.841	1.2711e-06	82.327	108.190	64.373	59.810	-15.648	126.176	113.534	-16.166	-10.292	134.769	114.271	-11.660	-7.673	-6.865	-2.137	135.624	-4.101	-8191	255	
3513.310	1	1	0	0	0.20576	0.10759	0.057145	0.33203	0.13449	0.10201	0.22616	0.04675	0.071134	0.13923	0.12583	0.079118	0.092942	0.23787	0.11238	0.055031	-2.7167	-3.25	-2.9708	-3.4917	-3.0646	-3.0062	-3.3792	-2.9458	-3.3521	-3.3167	-2.9896	-3.4917	-3.1479	-3.1958	-3.35	-3.1	79.500	300.534	119.018	272.472	292.954	204.997	65.640	239.199	66.792	27.114	-25.459	304.493	297.583	298.666	63.309	202.644	0.00048753	0.00048715	9.7953e-05	586.85	4.619e-06	4.4811e-06	704.02	231.84	5.3801e-06	2.4503e-06	344.9	149.19	95.109	46.809	2.4131e-06	83.595	0.00014819	0.00011866	3.1562e-05	583.28	1.3113e-06	1.27e-06	701.91	231.23	1.3299e-06	1.2879e-06	342.28	148.28	94.898	46.927	1.2691e-06	82.957	107.512	52.285	42.925	-15.426	112.345	84.980	-16.408	-10.400	115.407	87.349	-11.748	-7.712	-6.831	-2.174	125.738	-4.109	-8191	255	
3513.431	1	1	0	0	0.17337	0.092149	0.1382	0.10924	0.14304	0.094279	0.12695	0.28405	0.26991	0.25994	0.048289	0.10024	0.2417	0.10013	0.086414	0.14368	-2.9083	-3.0563	-2.8521	-3.3875	-3.0896	-2.9896	-3.3979	-2.8937	-3.1417	-3.2042	-3.0563	-3.2188	-3.275	-3.0187	-3.3417	-3.2167	301.974	128.477	195.836	44.673	-7.028	130.353	234.240	325.264	-7.218	183.544	58.891	232.080	299.152	89.645	173.828	59.001	0.0005122	0.00029053	0.00014185	584.1	5.1763e-06	4.6785e-06	704.89	230.75	4.3967e-06	3.3247e-06	344.63	148.86	95.565	47.022	3.0554e-06	84.027	0.00015283	0.00012056	3.2516e-05	583.98	1.4161e-06	1.3725e-06	703.55	231.29	1.4486e-06	1.359e-06	343.31	149.03	95.158	47.096	1.3535e-06	83.403	108.208	87.342	54.029	-15.640	107.215	109.344	-16.310	-10.128	107.530	145.846	-11.698	-7.578	-6.884	-2.210	134.037	-3.880	-8191	255	
3513.527	1	1	0	0	0.18158	0.11534	0.33576	0.091627	0.21853	0.20125	0.1633	0.036306	0.088667	0.1136	0.082046	0.22112	0.18943	0.17373	0.13887	0.24215	-2.7667	-3.2396	-3.0292	-3.3729	-3.0729	-2.775	-3.4708	-2.9938	-2.9729	-3.3208	-3.0833	-3.225	-3.325	-3.1521	-3.4375	-3.1771	188.536	205.952	157.324	251.761	11.732	300.342	3.599	3.645	205.288	106.927	-11.987	39.561	311.577	-18.690	117.619	-11.816	0.00044991	0.00039528	0.00011307	585.17	2.7159e-06	3.1185e-06	700.52	231.3	3.1506e-06	5.3809e-06	343.61	148.31	94.796	46.637	2.8114e-06	82.782	0.00015982	0.00012714	3.3992e-05	583.57	1.448e-06	1.3739e-06	701.16	231.09	1.4454e-06	1.3542e-06	341.89	148.13	94.721	46.646	1.3693e-06	82.339	99.970	35.974	30.089	-15.788	152.866	105.021	-16.551	-10.394	86.232	109.299	-11.791	-7.710	-7.138	-2.181	109.917	-4.237	-8191	255	
3513.623	1	1	0	0	0.21549	0.14122	0.074035	0.15751	0.040044	0.086317	0.10779	0.40936	0.27826	0.13357	0.31269	0.13318	0.18496	0.27854	0.090112	0.36991	-2.8271	-3.2438	-3.0208	-3.4542	-3.1042	-3.1125	-3.6063	-3.1708	-2.9604	-3.3646	-3.1583	-3.45	-3.4125	-3.1104	-3.4938	-3.2375	-26.177	5.016	118.267	176.530	9.276	322.944	177.001	177.162	226.921	-3.739	-25.791	315.877	46.121	322.417	205.972	265.623	0.00047121	0.00055501	0.00016302	583.13	1.2076e-06	4.8544e-06	699.53	231.36	4.1199e-06	4.9119e-06	342.84	147.75	94.726	46.604	1.828e-06	82.678	0.00015733	0.00012451	3.4526e-05	583.12	1.4102e-06	1.3626e-06	700.35	230.7	1.42e-06	1.3312e-06	341.5	147.58	94.683	46.566	1.4014e-06	82.182	110.168	33.681	64.783	-15.793	90.370	103.870	-16.326	-10.426	109.633	126.624	-11.696	-7.602	-6.944	-2.380	124.546	-4.163	-8191	255	
3513.744	1	1	0	0	0.18763	0.030046	0.18906	0.019393	0.13921	0.078709	0.16942	0.29235	0.21578	0.18503	0.045966	0.1352	0.23064	0.19327	0.20492	0.071889	-2.5062	-3.3521	-3.1417	-3.2729	-3.3646	-3.0917	-3.5271	-3.2167	-3.0333	-3.4188	-2.8771	-3.4833	-3.3438	-2.8208	-3.4688	-3.2917	307.570	-2.725	306.056	229.728	325.696	41.995	320.029	284.646	76.010	244.944	52.058	318.207	-18.348	7.873	160.333	187.863	0.00049786	0.00055766	0.00018627	584.7	2.0317e-06	4.6654e-06	702.85	232.36	5.6491e-06	2.0186e-06	344.85	149.17	94.81	46.709	3.7847e-06	83.291	0.00015277	0.00012032	3.5098e-05	584.89	1.4042e-06	1.3516e-06	702.17	231.22	1.401e-06	1.3403e-06	342.85	148.49	94.656	46.678	1.4454e-06	82.765	108.044	50.374	83.712	-15.650	135.293	96.220	-16.226	-10.444	88.280	121.027	-11.634	-7.823	-6.806	-2.247	152.138	-4.190	-8191	255	
3513.838	1	1	0	0	0.20976	0.44153	0.1247	0.039634	0.15444	0.11287	0.12385	0.05622	0.076271	0.07199	0.22487	0.1791	0.18577	0.23506	0.24917	0.13881	-2.6167	-3.2687	-2.8708	-3.1521	-3.3208	-2.9354	-3.4646	-3.1979	-3.0292	-3.4417	-3.175	-3.0062	-3.5875	-3	-3.4333	-3.4396	40.870	23.809	106.080	60.298	247.156	238.697	302.117	143.242	-13.393	36.125	244.084	290.125	277.825	305.170	99.487	57.139	0.00046988	0.00035314	0.00014361	586.82	4.5051e-06	2.7298e-06	706.05	231.65	4.8419e-06	3.9793e-06	345.88	149.17	95.369	46.951	3.2096e-06	83.738	0.0001531	0.00012115	3.6927e-05	585.5	1.3816e-06	1.3581e-06	704.92	231.38	1.3618e-06	1.3168e-06	344.05	149.16	94.883	46.871	1.4606e-06	83.192	108.553	65.285	72.707	-15.647	68.674	106.187	-16.366	-10.479	50.458	127.363	-11.583	-7.682	-7.000	-2.183	141.680	-4.280	-8191	255	
3513.912	1	1	0	0	0.32014	0.1735	0.046502	0.17382	0.11335	0.1283	0.1536	0.13128	0.18078	0.1474	0.088123	0.14702	0.25442	0.19734	0.058669	0.21365	-2.6896	-3.2125	-3.2062	-3.1625	-3.5125	-3.0521	-3.3187	-3.2687	-3.0333	-3.3521	-3.1312	-3.1292	-3.6875	-3.0271	-3.2708	-3.4188	226.126	251.358	8.922	20.419	93.274	183.467	245.988	87.512	119.123	5.467	172.332	273.955	65.189	-13.657	22.042	313.421	0.00049817	0.00036094	0.00012241	583.18	3.8605e-06	4.9377e-06	698.57	229.52	2.7096e-06	4.5765e-06	343.45	148.43	94.407	46.402	3.2819e-06	82.564	0.00014939	0.00012041	3.7219e-05	583.51	1.3207e-06	1.2976e-06	700.86	229.86	1.331e-06	1.3383e-06	340.95	147.69	94.19	46.376	1.492e-06	81.999	109.938	35.705	89.115	-15.603	112.176	117.701	-16.228	-10.339	70.579	105.772	-11.853	-7.811	-7.048	-2.262	111.196	-4.179	-8191	255	
3514.031	1	1	0	0	0.24208	0.040182	0.28307	0.3065	0.26282	0.21189	0.26356	0.11666	0.12588	0.17456	0.26464	0.15198	0.16397	0.11156	0.034911	0.081865	-2.6167	-3.3583	-3.125	-3.0354	-3.5792	-3.05	-3.3438	-3.4375	-2.9396	-3.3125	-3.4646	-3.2208	-3.4583	-3.0521	-3.3937	-3.4479	98.258	257.639	170.732	13.199	230.061	280.991	-19.621	-11.351	-27.178	114.518	43.670	275.374	-17.063	295.825	242.640	123.052	0.00051285	0.00034781	0.00014753	579.37	2.7678e-06	3.9641e-06	699.22	229.64	4.5629e-06	3.0121e-06	343.36	147.6	94.288	46.132	2.2607e-06	82.422	0.00014694	0.00012374	3.617e-05	579.92	1.3181e-06	1.3882e-06	699.84	229.41	1.347e-06	1.3837e-06	340.73	146.93	93.761	46.229	1.453e-06	81.863	108.921	71.691	48.165	-15.813	89.856	124.920	-16.302	-10.309	112.856	140.087	-11.917	-7.642	-7.073	-2.094	142.072	-4.378	-8191	255	
3514.127	1	1	0	0	0.060331	0.15965	0.18994	0.36245	0.37078	0.084061	0.24823	0.12762	0.0894	0.081242	0.18117	0.058677	0.23743	0.17419	0.17376	0.093401	-2.5333	-3.3375	-3.1937	-2.9896	-3.4583	-3.0938	-3.2542	-3.4229	-2.9062	-3.2792	-3.2625	-3.0646	-3.4583	-3.2667	-3.0375	-3.475	148.921	197.899	327.077	308.469	74.885	178.418	245.920	199.202	33.889	273.464	14.399	255.739	3.948	-18.809	184.642	312.683	0.00049868	0.00052067	0.00017774	578.8	3.7395e-06	4.0443e-06	698.7	228.89	3.3699e-06	7.0307e-06	345.65	148.23	94.673	46.453	2.3834e-06	83.104	0.00014774	0.00013198	3.6227e-05	580.27	1.3468e-06	1.4493e-06	699.72	228.93	1.3596e-06	1.4658e-06	342.23	147.89	94.097	46.469	1.4671e-06	82.747	108.265	27.295	34.924	-15.603	135.311	111.133	-16.289	-10.514	144.646	122.735	-11.742	-7.719	-7.113	-2.241	177.036	-4.211	-8191	255	
3514.223	1	1	0	0	0.15035	0.08696	0.10698	0.059827	0.12654	0.025589	0.20332	0.13024	0.11973	0.15004	0.1076	0.20773	0.33789	0.15535	0.44842	0.28268	-2.8604	-3.2271	-3.2875	-2.9313	-3.3229	-2.9792	-3.2396	-3.3396	-2.8812	-3.0646	-3.6354	-2.9354	-3.4333	-3.2354	-2.9875	-3.5062	262.418	133.824	156.548	-6.687	37.959	106.346	195.929	219.289	177.170	195.115	196.141	320.576	266.388	322.277	143.446	254.133	0.00050774	0.00028132	9.3391e-05	577.69	3.9162e-06	4.071e-06	700.78	229.7	2.9304e-06	4.8915e-06	343.73	148.73	94.029	46.496	4.1063e-06	83.232	0.00015269	0.00013559	3.6376e-05	580.22	1.4071e-06	1.5308e-06	702.11	229.46	1.4425e-06	1.5199e-06	341.36	147.89	94.026	46.442	1.4918e-06	82.456	111.449	15.732	82.011	-15.629	114.185	98.492	-16.524	-10.313	117.928	120.663	-11.650	-7.774	-6.641	-2.351	148.685	-4.134	-8191	255	
3514.319	1	1	0	0	0.14462	0.28084	0.053182	0.19524	0.17025	0.16822	0.22075	0.21463	0.16669	0.12178	0.16824	0.34141	0.13433	0.088263	0.082103	0.26024	-2.5354	-2.9646	-3.3812	-2.9875	-3.5292	-3.1333	-3.0021	-3.5229	-2.9375	-3.2854	-3.3542	-2.9833	-3.2562	-3.2833	-3.0583	-3.4854	280.620	296.684	226.651	275.598	249.271	155.305	291.404	214.420	55.009	197.065	280.169	-28.090	-27.582	49.631	137.057	292.701	0.00054405	0.00025032	0.00010005	579.2	3.4216e-06	3.1993e-06	696.97	228.69	5.4287e-06	6.2376e-06	342.68	146.3	93.197	45.693	3.0407e-06	81.535	0.0001647	0.00014336	3.7113e-05	580.12	1.5303e-06	1.5823e-06	697.75	228.17	1.5981e-06	1.5929e-06	339.02	146.07	93.22	45.693	1.5654e-06	81.03	106.215	52.477	42.348	-15.989	147.467	103.082	-16.647	-10.205	141.719	130.182	-11.496	-7.666	-6.826	-2.325	140.492	-4.265	-8191	255	
3514.440	1	1	0	0	0.032386	0.14165	0.22685	0.23472	0.03024	0.2125	0.16769	0.18729	0.16875	0.29747	0.080946	0.10016	0.029498	0.33954	0.16524	0.39561	-2.5521	-3.1125	-3.4688	-2.85	-3.2479	-3.3354	-3.075	-3.5729	-2.825	-3.275	-3.3667	-3.0958	-3.2229	-3.5104	-2.9521	-3.5729	124.352	169.827	25.391	322.464	218.199	111.738	-9.171	142.380	2.711	313.897	163.525	294.232	250.900	313.972	119.206	297.460	0.0005045	0.00037459	0.00015164	574.84	4.4197e-06	5.1199e-06	699.42	227.92	5.8919e-06	2.6676e-06	341.32	146.84	93.527	45.78	3.9512e-06	81.596	0.00017469	0.00014825	3.8227e-05	576.91	1.6487e-06	1.6042e-06	697.78	227.56	1.7353e-06	1.6442e-06	338.41	146.26	93.305	45.789	1.5776e-06	81.302	110.207	85.807	37.726	-15.826	102.208	82.505	-16.429	-10.108	143.816	95.071	-11.581	-7.923	-6.732	-2.493	132.405	-4.113	-8191	255	
3514.511	1	1	0	0	0.34567	0.017553	0.14114	0.26627	0.09044	0.11358	0.020728	0.08557	0.14753	0.23633	0.17722	0.18207	0.1918	0.18473	0.19248	0.01342	-2.5792	-2.95	-3.4896	-2.9417	-3.2562	-3.3646	-3.0104	-3.3604	-3.1021	-3.1854	-3.4292	-3.0125	-3.2104	-3.2958	-2.9458	-3.2854	-16.184	184.868	-0.715	-5.097	105.790	305.229	4.753	-22.399	59.907	290.076	285.361	240.083	-25.031	19.102	185.773	134.703	0.00047364	0.00051446	0.00011774	576.76	4.8493e-06	5.7573e-06	697.4	228.68	2.7634e-06	3.1366e-06	341.61	146.81	93.343	45.681	1.8429e-06	82.339	0.00018457	0.0001523	3.9351e-05	577.26	1.7649e-06	1.6258e-06	696.68	228.07	1.7793e-06	1.6348e-06	339.2	146.81	93.109	45.773	1.6072e-06	81.826	109.844	55.533	65.972	-15.755	101.596	113.878	-16.293	-10.190	147.125	127.860	-11.924	-7.677	-7.040	-2.269	134.499	-3.977	-8191	255	
3514.608	1	1	0	0	0.18052	0.29559	0.12961	0.054816	0.13208	0.28421	0.16662	0.31868	0.17162	0.12116	0.20465	0.19676	0.16115	0.091151	0.097569	0.029225	-2.6792	-2.9375	-3.4396	-3.0521	-3.2229	-3.3729	-2.9271	-3.3063	-3.2083	-3.2333	-3.5375	-3.1958	-3.1521	-3.4917	-3.0375	-3.6229	322.542	3.844	231.991	102.782	34.149	112.844	176.332	286.857	151.738	-26.957	294.708	-6.412	153.317	227.978	41.480	322.422	0.00045513	0.00051273	0.00013708	576.91	1.4135e-06	4.8596e-06	697.65	227.26	7.6638e-07	3.6613e-06	339.96	145.98	92.921	45.478	4.111e-06	81.184	0.00018647	0.00015117	3.9614e-05	578.67	1.7941e-06	1.6321e-06	697.83	227.61	1.7591e-06	1.6581e-06	338.39	146.29	92.9	45.533	1.6619e-06	81.064	114.667	35.048	75.203	-15.762	118.429	108.914	-16.419	-10.536	92.980	116.201	-11.835	-7.700	-7.028	-2.182	112.163	-4.133	-8191	255	
3514.704	1	1	0	0	0.12574	0.14467	0.13282	0.36028	0.081251	0.085534	0.15376	0.12149	0.21571	0.087151	0.072998	0.30558	0.25399	0.232	0.093538	0.099629	-2.8542	-3.1583	-3.4	-3.1625	-3.275	-3.4458	-3.0104	-3.3479	-3.2583	-3.1625	-3.6125	-3.1604	-3.1042	-3.5875	-2.9104	-3.3438	140.538	52.691	46.625	323.351	263.251	309.270	300.235	293.152	233.826	299.532	59.706	-25.625	291.193	247.516	247.922	291.584	0.00049774	0.00063998	0.00010686	574.04	5.2164e-06	4.4208e-06	691.86	227.17	4.9085e-06	5.7452e-06	339.77	145.69	92.916	45.331	5.013e-06	81.249	0.00018381	0.00015369	4.1211e-05	576.23	1.7624e-06	1.6195e-06	694.47	227.04	1.7385e-06	1.6382e-06	337.52	145.65	92.777	45.335	1.7696e-06	80.869	113.210	26.929	76.909	-15.673	122.634	77.922	-16.486	-10.410	122.629	141.584	-11.649	-7.742	-7.090	-2.305	137.754	-4.168	-8191	255	
3514.823	1	1	0	0	0.018014	0.091354	0.11068	0.1653	0.07666	0.080249	0.096836	0.28486	0.15646	0.22085	0.2268	0.19184	0.019615	0.26927	0.058545	0.14313	-2.9188	-3.0104	-3.4062	-3.0625	-2.9375	-3.6021	-3.2458	-3.4375	-3.4604	-3.0042	-3.4833	-3.3125	-3.2292	-3.6604	-3.0167	-3.2938	319.310	197.230	19.071	316.740	164.643	124.359	-17.601	282.533	329.512	-3.782	320.279	318.156	181.568	263.408	113.003	326.644	0.00049784	0.00034477	0.00017903	573.71	2.606e-06	4.0879e-06	692.35	226.37	4.1548e-06	6.5132e-06	338.12	146.09	92.624	45.458	4.9648e-06	82.05	0.0001789	0.00014971	4.3959e-05	575.38	1.7194e-06	1.5961e-06	695.12	227.15	1.7082e-06	1.6294e-06	337.95	146.09	92.706	45.454	1.8251e-06	81.398	108.475	84.771	93.788	-15.727	150.618	103.110	-16.443	-10.560	80.129	136.547	-11.717	-7.494	-6.775	-2.113	167.209	-4.127	-8191	255	
3514.919	1	1	0	0	0.077115	0.10912	0.3387	0.14284	0.17136	0.26091	0.094354	0.28272	0.17645	0.12799	0.16842	0.16224	0.19163	0.1216	0.12515	0.30236	-3.0667	-2.8667	-3.4083	-3.4437	-3.0646	-3.5125	-3.0708	-3.4896	-3.5375	-2.8729	-3.4646	-3.4583	-3.2042	-3.5812	-3.1417	-3.2562	197.843	312.580	40.417	-25.348	172.086	8.733	257.591	306.733	275.651	106.917	295.932	181.870	36.223	119.334	309.589	275.591	0.00046399	0.00034708	0.00017972	574.04	5.1358e-06	3.2596e-06	695.41	227.93	3.6277e-06	4.7547e-06	342.69	147.27	92.965	45.79	2.7384e-06	82.12	0.00017846	0.00014979	4.6027e-05	576.15	1.7108e-06	1.6059e-06	697.8	228.23	1.6773e-06	1.6581e-06	341.44	147.23	93.185	45.86	1.9158e-06	81.911	101.274	49.701	49.667	-15.570	126.774	88.993	-16.378	-10.287	75.068	110.258	-11.609	-7.609	-6.890	-2.165	141.958	-4.250	-8191	255	
3515.015	1	1	0	0	0.20784	0.066448	0.069224	0.12153	0.098951	0.082103	0.09457	0.19214	0.14894	0.092031	0.19533	0.14752	0.096316	0.18011	0.026767	0.24755	-3.0875	-2.9813	-3.3708	-3.375	-2.8854	-3.3854	-3.05	-3.1104	-3.5271	-3.0542	-3.3604	-3.5833	-2.9021	-3.5458	-3.2708	-3.3063	243.372	29.573	309.914	24.275	-12.972	114.141	295.076	302.330	122.186	283.094	115.466	241.279	307.541	173.409	287.130	286.741	0.00047193	0.00049234	0.00010991	570.93	1.4794e-06	1.6554e-06	695.46	228.55	4.4432e-06	5.5292e-06	341.36	146.57	93.075	45.757	4.2357e-06	81.572	0.00017458	0.00015364	4.7632e-05	573.35	1.6688e-06	1.6621e-06	697.05	228.1	1.6653e-06	1.7329e-06	340.35	146.59	93.018	45.76	1.9119e-06	81.219	104.197	10.479	49.453	-16.032	88.504	116.906	-16.399	-10.640	94.466	102.580	-11.650	-7.583	-6.988	-2.143	115.086	-4.249	-8191	255	
3515.111	1	1	0	0	0.047809	0.16937	0.11618	0.16173	0.0778	0.14406	0.046312	0.063611	0.016171	0.35755	0.20776	0.28344	0.26856	0.34997	0.11375	0.18419	-2.9479	-2.9833	-3.2917	-3.2542	-3.0917	-3.4562	-3.4375	-3.2396	-3.5187	-3.1146	-3.4375	-3.4458	-2.9958	-3.4	-3.3667	-3.2854	127.117	225.543	-1.212	314.209	118.196	39.009	-13.460	298.250	289.516	180.464	320.758	267.580	170.956	268.822	187.375	288.764	0.0005122	0.00035218	3.8348e-05	570.48	2.4003e-06	5.0093e-06	689.2	227.47	4.4752e-06	7.5106e-06	341.83	146.34	92.866	45.492	3.9487e-06	81.57	0.00017395	0.00016209	4.772e-05	572.05	1.6414e-06	1.753e-06	693.88	227.34	1.5889e-06	1.8021e-06	339.74	146.51	92.74	45.716	1.8694e-06	81.271	109.377	29.193	19.260	-15.687	96.090	120.521	-16.211	-10.342	121.494	130.082	-11.742	-7.638	-7.080	-2.364	129.725	-4.283	-8191	255	
3515.207	1	1	0	0	0.081676	0.21015	0.11033	0.16869	0.092891	0.19646	0.11181	0.022604	0.15798	0.059016	0.18982	0.067644	0.16209	0.11957	0.1987	0.035894	-3.1229	-2.9021	-2.9437	-3.5021	-2.9125	-3.5271	-3.4854	-3.0833	-3.5083	-3.2542	-3.2417	-3.5125	-2.9833	-3.3104	-3.3771	-3.1854	228.555	79.380	77.226	103.329	255.493	227.364	192.800	323.310	185.263	274.167	131.364	172.384	37.838	-22.443	24.724	177.376	0.00051341	0.00060238	0.00012088	573.15	2.0643e-06	4.3091e-06	691.09	227.73	7.9308e-07	3.2126e-06	342.79	147.42	93.091	45.677	3.1576e-06	82.642	0.00017099	0.00016703	4.6522e-05	573.4	1.6832e-06	1.8556e-06	696.13	227.88	1.6608e-06	1.8728e-06	340.95	147.26	93.306	45.939	1.7652e-06	82.115	115.098	51.847	70.459	-15.718	111.536	134.186	-16.190	-10.213	129.198	140.002	-11.404	-7.754	-6.990	-2.353	140.870	-4.307	-8191	255	
3515.303	1	1	0	0	0.21731	0.27785	0.096814	0.15479	0.21842	0.29825	0.12062	0.18969	0.12106	0.076621	0.28754	0.16853	0.076451	0.23421	0.31185	0.12097	-3.0979	-3.0583	-3.1271	-3.6646	-2.9521	-3.3521	-3.4354	-2.9042	-3.3937	-3.4125	-3.2708	-3.6771	-3.1875	-3.3875	-3.5729	-3.0833	-0.682	52.040	5.606	271.959	81.860	103.799	183.280	253.953	274.893	274.270	284.594	306.916	78.438	269.868	30.572	307.688	0.00049439	0.00032102	0.0001406	576.42	3.6339e-06	3.8609e-06	698	229.1	3.5338e-06	5.7883e-06	346.1	147.95	93.618	45.874	2.8132e-06	82.886	0.00017656	0.0001741	4.5121e-05	575.57	1.7158e-06	1.8944e-06	699.92	229.05	1.7135e-06	1.8852e-06	342.8	147.92	93.706	46.044	1.7441e-06	82.356	109.307	70.405	67.202	-15.777	139.639	54.133	-16.218	-10.418	129.796	114.448	-11.347	-7.616	-6.851	-2.333	141.216	-4.212	-8191	255	
3515.424	1	1	0	0	0.033194	0.15762	0.11127	0.021095	0.13829	0.25933	0.17682	0.24754	0.031668	0.15937	0.064553	0.15519	0.12431	0.23521	0.2321	0.26687	-3.125	-3.1125	-2.9354	-3.5854	-2.8396	-3.2687	-3.4062	-3.1229	-3.2604	-3.1813	-3.1771	-3.4583	-3.1146	-3.2333	-3.3271	-3.0604	-18.205	97.164	187.142	184.992	20.744	293.837	291.615	198.799	67.400	14.184	185.894	261.429	-24.060	301.076	136.020	266.650	0.00048914	0.00059487	0.00015607	572.3	2.6173e-06	5.607e-06	696.55	227.76	2.7055e-06	5.1422e-06	340.53	146.76	92.928	45.456	4.0107e-06	81.805	0.00018529	0.00017203	4.4545e-05	574.44	1.8262e-06	1.8569e-06	696.85	227.52	1.8232e-06	1.8608e-06	339.91	146.46	92.955	45.609	1.7212e-06	81.325	111.602	70.128	85.484	-15.889	148.435	114.829	-16.403	-10.381	139.577	160.493	-11.767	-7.498	-6.649	-2.340	124.680	-4.187	-8191	255	
3515.520	1	1	0	0	0.26187	0.21876	0.052227	0.090454	0.25433	0.276	0.096272	0.3083	0.11419	0.084767	0.087978	0.34571	0.12371	0.17224	0.23634	0.55277	-2.9708	-3.3563	-2.9729	-3.5	-3.0938	-3.1042	-3.5042	-3.0083	-3.2979	-3.4021	-3.2104	-3.6083	-3.3021	-3.2708	-3.4562	-3.1354	316.327	301.744	190.982	2.082	12.771	240.256	273.929	295.854	60.178	8.532	161.684	218.616	5.264	35.409	130.053	246.967	0.00047946	0.00046008	0.00018392	572.67	5.5524e-06	3.3827e-06	696.61	226.61	4.6958e-06	3.7816e-06	341.45	146.49	92.934	45.568	4.864e-06	82.03	0.00019262	0.00016497	4.3612e-05	572.77	1.8972e-06	1.8096e-06	695.5	227.1	1.8531e-06	1.76e-06	339.95	146.51	92.941	45.616	1.6711e-06	81.436	105.492	90.057	51.897	-15.770	140.509	102.043	-16.445	-10.324	73.551	124.953	-11.745	-7.504	-7.297	-2.294	138.391	-4.161	-8191	255	
3515.616	1	1	0	0	0.12951	0.17521	0.18817	0.22783	0.07363	0.14745	0.3006	0.24376	0.24858	0.11932	0.23492	0.13624	0.13266	0.24245	0.24583	0.1603	-3.0021	-3.2646	-2.7938	-3.6083	-3.2958	-2.9896	-3.6312	-3.1729	-3.3417	-3.3208	-3.0521	-3.4708	-3.3083	-3.1042	-3.5687	-3.1208	280.993	64.253	327.127	131.089	-7.251	298.756	-21.213	282.502	268.184	284.130	288.946	62.967	323.155	307.032	45.284	263.677	0.00046456	0.00061521	0.00013799	570.37	3.609e-06	4.2487e-06	698.22	227.35	5.3999e-06	3.5284e-06	343.97	147.95	92.97	45.806	4.309e-06	82.65	0.00019531	0.00015924	4.1862e-05	572.94	1.853e-06	1.7227e-06	696.89	227.56	1.8582e-06	1.6843e-06	341.31	147.57	93.261	45.856	1.6064e-06	82.164	106.815	41.580	30.639	-16.019	93.506	93.196	-16.278	-10.345	121.013	120.120	-11.611	-7.625	-6.723	-2.067	153.056	-3.953	-8191	255	
3515.712	1	1	0	0	0.050862	0.14946	0.27535	0.24384	0.22176	0.20747	0.10767	0.15278	0.27673	0.10554	0.058994	0.17586	0.14875	0.14994	0.31953	0.093544	-2.7938	-3.45	-2.975	-3.2938	-3.2271	-3.1667	-3.4146	-3.2771	-3.2604	-3.3792	-3.1292	-3.3958	-3.2188	-3.0458	-3.4958	-3.2938	172.383	15.856	309.253	196.743	262.381	73.277	249.548	14.586	-9.034	202.623	230.292	302.333	276.135	300.618	131.035	284.293	0.00053846	0.00041873	0.00013	572.86	3.1987e-06	4.2348e-06	698.72	227.82	5.1826e-06	7.3138e-06	342.57	148.06	92.841	45.675	3.4915e-06	82.403	0.00019095	0.00015222	4.1403e-05	575.73	1.792e-06	1.7071e-06	699.67	228.38	1.8043e-06	1.6448e-06	341.56	148.11	93.067	45.797	1.6223e-06	81.975	112.389	44.004	61.740	-15.800	113.439	69.813	-16.488	-10.328	100.813	135.536	-11.842	-7.824	-6.955	-2.399	151.737	-4.094	-8191	255	
3515.809	1	1	0	0	0.29769	0.11759	0.32212	0.2686	0.17734	0.20527	0.18467	0.166	0.40493	0.059958	0.22679	0.22052	0.12917	0.15435	0.092547	0.25585	-2.8792	-3.1979	-3.0542	-3.3688	-3.3979	-2.9854	-3.6271	-3.3083	-3.1208	-3.4813	-3.2854	-3.2271	-3.2375	-3.1375	-3.3604	-3.1437	1.809	223.085	35.984	255.668	-1.722	65.721	277.567	286.849	59.541	203.837	224.880	10.944	312.093	321.160	30.716	258.310	0.00053712	0.00048113	6.7483e-05	572.12	4.7366e-06	2.8077e-06	693.59	226.5	4.9631e-06	4.5667e-06	339.04	147.12	92.507	45.39	4.2271e-06	81.595	0.00018867	0.0001478	4.1831e-05	575.81	1.7448e-06	1.646e-06	695.64	227.25	1.7461e-06	1.5953e-06	339	146.86	92.709	45.436	1.6763e-06	81.253	109.543	40.930	59.474	-15.764	97.574	111.932	-16.511	-10.490	129.633	157.354	-11.691	-7.849	-6.995	-2.386	149.596	-4.183	-8191	255	
3515.903	1	1	0	0	0.083873	0.094588	0.24952	0.11148	0.11931	0.25876	0.24602	0.11353	0.22122	0.098223	0.093198	0.10379	0.080697	0.15072	0.23637	0.087668	-2.6354	-3.3312	-3.0104	-3.3854	-3.2417	-2.925	-3.5083	-3.1792	-3.0208	-3.3979	-3.0896	-3.1937	-3.5438	-3.0583	-3.5	-3.2	207.572	200.354	-28.184	-7.226	237.512	151.558	235.793	311.130	190.177	-6.268	140.516	269.951	33.601	1.438	55.198	141.834	0.0004915	0.00041567	0.00017244	574.25	3.891e-06	6.2944e-06	694.27	226.19	4.602e-06	4.7779e-06	342.43	147.28	93.102	45.454	1.7473e-06	81.964	0.00018111	0.00014491	4.3755e-05	576.39	1.651e-06	1.6056e-06	697.44	227.71	1.6609e-06	1.5771e-06	340.88	147.37	93.112	45.573	1.7649e-06	81.637	114.714	43.995	59.981	-15.960	89.034	117.789	-16.324	-10.378	97.570	129.813	-11.734	-7.467	-6.918	-2.429	138.279	-4.182	-8191	255	
3515.999	1	1	0	0	0.15653	0.16868	0.15385	0.024974	0.16337	0.091399	0.092709	0.13224	0.19257	0.15453	0.23256	0.27174	0.097595	0.25752	0.12996	0.15793	-2.4125	-3.5333	-3.0208	-3.2687	-3.35	-3.0542	-3.4229	-3.2313	-2.8375	-3.3667	-3.15	-3.1854	-3.5917	-3.1937	-3.2562	-3.2854	-0.819	266.177	270.086	157.739	75.566	34.506	234.955	315.417	224.051	309.894	34.533	208.022	311.835	268.565	245.666	286.023	0.00049747	0.00046749	0.00019774	573.54	3.1578e-06	3.991e-06	697.89	227.33	3.2279e-06	6.3911e-06	343.22	147.81	93.27	45.654	2.6825e-06	82.682	0.00017693	0.00014581	4.588e-05	575.03	1.63e-06	1.5926e-06	700.25	228.41	1.6714e-06	1.6037e-06	342.65	148.02	93.118	45.851	1.87e-06	82.437	104.486	40.334	90.414	-15.705	124.315	108.704	-16.390	-10.604	96.105	112.412	-11.868	-7.747	-6.863	-2.400	125.345	-4.183	-8191	255	
3516.120	1	1	0	0	0.1198	0.20308	0.17784	0.35269	0.21	0.11819	0.18558	0.19149	0.074278	0.16428	0.25824	0.18017	0.20852	0.16061	0.10492	0.15451	-2.7354	-3.3708	-3.1979	-3.1937	-3.3146	-2.9667	-3.6042	-3.3792	-2.8208	-3.2625	-3.4604	-3.1604	-3.4062	-3.1354	-3.3229	-3.5833	162.139	0.565	29.160	88.071	143.480	73.505	181.972	212.191	41.370	226.869	-1.534	253.374	330.415	311.640	62.188	161.736	0.00047681	0.00042685	7.3214e-05	573.08	1.2161e-06	1.8868e-06	696.01	227.96	3.3778e-06	5.749e-06	344.02	147.25	92.949	45.694	4.9654e-06	82.312	0.00017518	0.00015064	4.7182e-05	575.03	1.6219e-06	1.6781e-06	699.86	227.92	1.6467e-06	1.6734e-06	342.2	147.49	92.884	45.636	1.8486e-06	81.738	104.982	83.026	56.208	-15.749	193.358	128.574	-16.497	-10.491	90.792	116.277	-11.706	-7.544	-7.054	-2.155	134.331	-4.050	-8191	255	
3516.216	1	1	0	0	0.050947	0.13568	0.049083	0.14892	0.20466	0.073579	0.038224	0.11731	0.28678	0.083508	0.28512	0.18812	0.12122	0.20567	0.051738	0.21298	-2.3312	-3.4604	-3.0979	-3.05	-3.7438	-3.1854	-3.3625	-3.475	-2.9792	-3.3958	-3.1979	-3.1729	-3.4104	-3.3312	-3.1229	-3.5042	254.659	54.417	297.135	294.414	91.472	157.045	169.503	175.071	-14.534	48.189	278.085	274.346	75.482	312.325	181.782	268.860	0.00049748	0.00059572	0.00012755	570.62	3.4464e-06	1.8994e-06	696.81	227.04	4.6399e-06	2.4892e-06	342.54	146.74	92.666	45.456	2.3006e-06	81.956	0.00017405	0.00015705	4.6665e-05	572.35	1.6006e-06	1.7492e-06	697.97	227.27	1.6269e-06	1.7725e-06	340.81	146.87	92.747	45.59	1.809e-06	81.47	109.699	47.562	54.925	-15.698	158.566	153.472	-16.251	-10.332	108.010	138.377	-11.903	-7.591	-6.890	-2.208	120.433	-4.136	-8191	255	
3516.312	1	1	0	0	0.45042	0.18886	0.13	0.071578	0.12338	0.064326	0.21199	0.2659	0.18929	0.1278	0.36417	0.041116	0.17984	0.15408	0.24559	0.1402	-2.6354	-3.3187	-3.2521	-3.2583	-3.3208	-3.0479	-3.4188	-3.4833	-2.8896	-3.4208	-3.4583	-3.1917	-3.525	-3.2604	-3.2479	-3.4979	184.579	43.322	198.450	-5.347	270.069	216.743	233.751	331.193	49.385	274.495	317.449	78.801	15.084	118.749	257.127	259.636	0.00048524	0.00058758	0.00011507	573.06	1.9623e-06	3.3509e-06	697.81	227.14	5.8948e-06	4.259e-06	343.47	147.61	93.462	45.593	1.4478e-06	82.028	0.00016995	0.00016185	4.4745e-05	572.8	1.5547e-06	1.783e-06	698.9	227.14	1.6223e-06	1.7658e-06	341.44	147.58	93	45.664	1.687e-06	81.846	106.762	51.958	36.308	-15.496	143.322	109.810	-16.464	-10.427	120.267	164.775	-11.809	-7.630	-7.174	-2.070	147.428	-4.017	-8191	255	
3516.384	1	1	0	0	0.094819	0.099401	0.040597	0.083045	0.29708	0.11493	0.19625	0.14123	0.21538	0.14549	0.087647	0.18791	0.20103	0.10198	0.26574	0.17375	-2.6729	-3.1063	-3.2917	-2.9104	-3.3521	-3.2104	-2.9979	-3.5083	-3.0042	-3.2458	-3.3479	-2.8563	-3.3063	-3.1042	-2.9792	-3.6021	115.261	182.500	322.657	284.510	189.691	320.219	253.010	20.311	228.415	19.197	130.459	325.703	253.729	15.704	88.626	9.240	0.0005209	0.00055473	9.0651e-05	575.8	2.2924e-06	2.3366e-06	699.51	226.42	3.1027e-06	5.1946e-06	344.72	148.53	92.894	45.872	3.1378e-06	82.914	0.00017205	0.00015983	4.1107e-05	573.48	1.5527e-06	1.698e-06	700.41	227.07	1.6043e-06	1.6705e-06	342.86	148.21	93.052	45.855	1.5668e-06	82.49	106.940	62.399	34.553	-15.613	136.490	126.873	-16.142	-10.505	124.002	134.206	-11.678	-7.755	-6.866	-2.491	128.096	-4.216	-8191	255	
3516.504	1	1	0	0	0.17225	0.32678	0.010063	0.17956	0.094635	0.081705	0.15318	0.046747	0.14821	0.16791	0.07945	0.27791	0.15505	0.19495	0.17836	0.047219	-2.6146	-3.3604	-3.2458	-2.8438	-3.4167	-3.2562	-3.1396	-3.3833	-3.2167	-3.2812	-3.6562	-3.0271	-3.4688	-3.2917	-2.9813	-3.75	112.032	-11.153	149.003	14.918	49.684	297.562	178.248	210.876	61.171	-19.980	48.463	324.314	274.705	57.476	191.391	283.090	0.00052436	0.00055024	0.00013173	573.28	2.9641e-06	3.872e-06	696.05	226.86	5.5692e-06	2.9314e-06	342.99	147.24	93.047	45.449	4.1988e-06	82.038	0.00016916	0.00015027	3.7617e-05	572.82	1.5628e-06	1.5524e-06	697.77	226.68	1.5525e-06	1.5427e-06	340.64	147.16	92.85	45.428	1.4418e-06	81.406	112.036	49.804	83.635	-15.580	136.707	108.577	-16.327	-10.574	117.966	114.179	-11.734	-7.750	-7.138	-2.239	132.728	-4.115	-8191	255	
3516.600	1	1	0	0	0.20595	0.18	0.15588	0.383	0.11318	0.080478	0.083944	0.31558	0.095661	0.2107	0.1628	0.40758	0.22261	0.1982	0.29321	0.19699	-2.6875	-3.0729	-3.2188	-3.0125	-3.2854	-3.3	-3.1125	-3.5583	-3.0375	-3.2125	-3.5417	-3.1688	-3.2375	-3.3271	-3.0042	-3.5479	163.072	37.286	119.545	315.458	72.235	-24.537	108.193	302.746	147.545	-5.688	266.119	297.829	161.429	23.418	328.692	295.383	0.00050259	0.00041004	0.00016281	572.01	4.0842e-06	2.785e-06	693.09	226.62	4.0802e-06	3.7455e-06	340.87	146.79	92.668	45.18	2.6547e-06	82.266	0.00016609	0.00013471	3.4527e-05	572.03	1.4666e-06	1.4022e-06	695.83	226.11	1.485e-06	1.3893e-06	338.96	146.77	92.637	45.253	1.3668e-06	81.433	110.773	46.023	55.052	-15.740	152.188	103.211	-16.548	-10.536	71.696	122.092	-11.857	-7.711	-6.811	-2.190	134.211	-4.250	-8191	255	
3516.697	1	1	0	0	0.26932	0.071412	0.28649	0.14997	0.042631	0.19696	0.29798	0.074701	0.19254	0.14646	0.023534	0.1921	0.10275	0.17889	0.27591	0.52325	-2.7229	-2.8896	-3.4333	-3.025	-3.3063	-3.3771	-3.1021	-3.3688	-3.3146	-3.0375	-3.725	-3.2208	-3.2646	-3.5438	-3.0708	-3.5312	194.630	61.032	154.052	225.356	145.289	51.076	-14.660	-21.452	15.028	140.267	228.886	220.476	271.672	12.051	239.040	246.673	0.00050606	0.0004992	0.00014569	572.44	3.9583e-06	5.4872e-06	696.98	226.64	5.0033e-06	3.5453e-06	342.71	147.72	92.842	45.342	2.9324e-06	82.475	0.00016451	0.00012915	3.3601e-05	571.85	1.4913e-06	1.3707e-06	697.19	226.17	1.4725e-06	1.3577e-06	340.1	147.22	92.606	45.372	1.3164e-06	81.924	108.127	35.429	57.701	-15.754	114.799	98.754	-16.145	-10.381	84.823	113.216	-11.694	-7.618	-6.959	-2.206	111.044	-4.304	-8191	255	
3516.793	1	1	0	0	0.11459	0.39278	0.20027	0.040186	0.27033	0.091734	0.44998	0.2825	0.037743	0.17834	0.095486	0.10115	0.1556	0.097485	0.18357	0.32844	-2.8083	-3.1833	-3.3646	-3.3146	-3.2313	-3.4958	-3.1667	-3.4104	-3.2521	-3.2479	-3.6625	-3.2271	-3.3583	-3.5729	-3.0396	-3.3917	271.483	-8.818	13.043	47.965	288.316	15.080	204.701	301.972	242.955	262.000	322.433	-7.987	72.663	64.233	186.310	326.773	0.00049746	0.00017838	0.00016712	570.67	2.6308e-06	1.5469e-06	698.41	226.95	3.5049e-06	5.2527e-06	343.4	147.69	93.029	45.499	3.7352e-06	82.891	0.00015848	0.00012159	3.1202e-05	571.71	1.3532e-06	1.2516e-06	698.41	226.47	1.3554e-06	1.2639e-06	341.29	147.85	92.583	45.44	1.2589e-06	82.101	110.180	47.177	61.896	-15.853	100.228	85.313	-16.459	-10.513	114.821	135.607	-11.666	-7.556	-7.086	-2.313	170.694	-4.304	-8191	255	
3516.912	1	1	0	0	0.29676	0.19219	0.34478	0.045122	0.058208	0.16917	0.10123	0.058008	0.36647	0.15644	0.1103	0.19602	0.24212	0.18973	0.15176	0.37926	-2.8375	-2.7792	-3.3083	-3.1729	-3.3021	-3.3563	-3.1271	-3.1125	-3.4396	-3.0208	-3.5396	-3.2417	-3.2646	-3.4479	-3.1042	-3.3125	76.268	43.206	61.383	310.626	173.294	64.699	195.114	94.918	288.430	134.259	328.095	325.287	-8.886	239.582	49.921	252.378	0.0005004	0.00043486	0.00010077	567.48	2.5997e-06	3.899e-06	696.97	225.7	4.2494e-06	4.6248e-06	340.61	146.7	92.278	45.075	2.6514e-06	81.645	0.00014536	0.00011445	3.0924e-05	568.64	1.3464e-06	1.2277e-06	695.1	225.17	1.3529e-06	1.3075e-06	339.17	146.29	91.898	45.021	1.4146e-06	81.043	111.783	71.280	85.581	-15.903	73.009	121.567	-16.441	-10.256	83.462	130.268	-11.559	-7.873	-6.775	-2.273	133.951	-4.173	-8191	255	
3517.008	1	1	0	0	0.24608	0.20849	0.28342	0.14317	0.079341	0.43181	0.12623	0.062989	0.11751	0.20934	0.16222	0.20171	0.50979	0.26456	0.16749	0.22171	-2.9104	-3.0396	-3.3333	-3.1729	-3.0771	-3.4771	-3.1146	-3.1625	-3.4292	-2.8854	-3.45	-3.4	-2.9688	-3.6813	-3.0687	-3.4479	227.171	107.972	-7.299	-21.120	39.726	111.117	161.177	228.680	-6.170	209.651	264.780	-23.052	-26.650	324.921	270.642	284.227	0.00041878	0.00049212	0.00017168	568.97	2.4875e-06	2.9859e-06	697.25	226.01	4.2547e-06	5.9635e-06	341.16	146.79	92.015	45.09	4.224e-06	81.737	0.00015165	0.00012257	3.6004e-05	568.66	1.4181e-06	1.3195e-06	694.56	225.62	1.4614e-06	1.4029e-06	339.38	146.55	91.997	45.084	1.597e-06	81.335	106.667	37.011	62.887	-15.906	110.304	110.586	-16.301	-10.448	142.953	145.346	-11.728	-7.515	-6.621	-2.123	144.776	-4.026	-8191	255	
3517.104	1	1	0	0	0.34366	0.13297	0.3009	0.29145	0.24581	0.19799	0.18716	0.10263	0.13376	0.12836	0.24225	0.10767	0.2158	0.17361	0.1491	0.10877	-2.9688	-3.0062	-3.4833	-3.2375	-3.1333	-3.3688	-3.0917	-3.3083	-3.2812	-3.0375	-3.3146	-3.0729	-3.1521	-3.3625	-3.15	-3.2562	81.452	49.473	60.980	311.509	277.489	128.365	228.364	276.615	2.082	96.809	-13.159	167.226	324.437	208.743	64.418	219.667	0.00049466	0.00049563	0.00018712	567.22	3.5221e-06	5.3362e-06	695.84	225.81	5.1332e-06	5.0775e-06	342.6	147.66	92.076	45.219	4.0546e-06	82.223	0.00016131	0.0001326	4.1352e-05	569.38	1.5481e-06	1.4379e-06	696.66	225.98	1.5562e-06	1.5265e-06	341.26	147.43	92.226	45.236	1.7666e-06	81.765	110.719	36.467	66.492	-15.866	104.092	81.633	-16.312	-10.444	113.339	99.052	-11.684	-7.510	-6.978	-2.234	121.001	-4.027	-8191	255	
3517.200	1	1	0	0	0.085175	0.07079	0.29495	0.23667	0.10989	0.097377	0.4237	0.27587	0.13364	0.055478	0.32806	0.13574	0.10097	0.18601	0.17642	0.073509	-2.9708	-2.9917	-3.3521	-3.2479	-3.0542	-3.5542	-3.2625	-3.0708	-3.4146	-3.1521	-3.3167	-3.4062	-3.0333	-3.5542	-3.2729	-3.1437	311.570	253.027	295.483	214.469	-9.568	228.023	329.670	267.334	164.285	-15.461	292.763	240.775	-10.433	-10.834	-8.824	-11.867	0.00051631	0.00027867	0.00022002	566.23	2.6649e-06	2.7575e-06	691.97	225.32	1.8496e-06	7.4998e-06	341.62	147.64	92.381	45.229	4.3638e-06	81.572	0.00016871	0.00014738	4.5984e-05	569.09	1.6053e-06	1.5969e-06	696.06	225.86	1.5725e-06	1.6813e-06	340.79	147.27	92.246	45.256	1.8482e-06	81.38	111.163	65.644	77.246	-15.955	108.363	67.314	-16.137	-10.559	89.847	110.553	-11.474	-7.709	-7.018	-2.226	145.729	-3.924	-8191	255	
3517.296	1	1	0	0	0.062222	0.18395	0.22873	0.18506	0.21776	0.045592	0.20297	0.28462	0.1132	0.10821	0.15745	0.29322	0.20221	0.21603	0.14979	0.21053	-2.8792	-3.1229	-3.1896	-3.4458	-2.9833	-3.5146	-3.2646	-3.0104	-3.3604	-3.1208	-3.3063	-3.7062	-3.0458	-3.6625	-3.1896	-3.3563	211.408	127.902	-11.133	306.815	288.809	283.910	305.881	254.006	142.204	206.432	289.743	252.853	78.712	20.442	143.867	229.750	0.00046568	0.00073833	0.00012233	569.22	3.9353e-06	4.1957e-06	693.51	224.37	4.8714e-06	4.2638e-06	341.1	145.89	91.46	44.963	2.9478e-06	81.483	0.00016862	0.00016092	4.7706e-05	568.71	1.6406e-06	1.754e-06	693.95	225.2	1.6185e-06	1.7839e-06	339.84	146.18	91.883	45.116	1.8627e-06	80.973	111.303	34.686	39.878	-15.944	123.807	97.642	-16.496	-10.371	100.665	157.238	-11.883	-7.811	-6.996	-2.202	121.321	-4.072	-8191	255	
3517.392	1	1	0	0	0.1249	0.052505	0.12237	0.17432	0.15331	0.16705	0.13318	0.15805	0.048266	0.19066	0.22537	0.15672	0.14598	0.14069	0.14838	0.27684	-2.9333	-3.0604	-2.9875	-3.2146	-2.9646	-3.3688	-3.3646	-3.3542	-3.5125	-3.0812	-3.2479	-3.5833	-3.1562	-3.4188	-3.1854	-3.3563	223.863	323.188	262.080	315.726	218.907	270.795	190.692	199.934	263.342	226.163	317.100	306.138	148.706	312.676	257.897	288.677	0.00052161	0.00022809	0.00019793	566.12	5.6406e-06	4.5622e-06	688.66	225.34	4.5144e-06	3.9664e-06	341.44	147	92.175	45.215	2.068e-06	81.966	0.00017422	0.00017266	4.7494e-05	567.56	1.691e-06	1.9085e-06	693.55	225.48	1.6624e-06	1.9338e-06	340.38	146.87	92.169	45.296	1.8372e-06	81.41	102.768	65.430	36.371	-15.744	111.667	116.592	-16.278	-10.155	92.267	113.746	-11.673	-7.701	-6.968	-2.331	126.396	-4.243	-8191	255	
3517.513	1	1	0	0	0.40667	0.12143	0.2409	0.14466	0.10514	0.063451	0.098889	0.13199	0.11081	0.071695	0.15968	0.22836	0.14622	0.26015	0.15159	0.33424	-2.6042	-3.1229	-3.1167	-3.4917	-2.9667	-3.3021	-3.3104	-3.0229	-3.35	-3.3854	-3.1188	-3.5146	-3.0729	-3.3458	-3.3958	-2.9583	196.744	221.058	208.241	293.539	201.895	78.744	282.718	240.833	260.903	303.622	256.891	255.723	-0.838	308.031	133.605	286.298	0.00055989	0.00051681	7.2723e-05	563.73	3.5254e-06	3.8244e-06	690.43	225.01	3.1159e-06	4.4967e-06	344.26	147.14	91.948	45.319	5.583e-06	82.292	0.00018246	0.000181	4.6606e-05	565.59	1.7795e-06	1.9821e-06	693.15	225.6	1.7956e-06	1.9697e-06	341.63	146.92	92.056	45.409	1.7858e-06	81.734	107.913	26.972	60.920	-15.903	105.963	87.176	-16.655	-10.265	95.326	163.620	-11.818	-7.894	-6.836	-2.299	106.762	-4.219	-8191	255	
3517.609	1	1	0	0	0.094159	0.22665	0.060148	0.21096	0.10543	0.16772	0.195	0.26669	0.19841	0.18807	0.057226	0.010619	0.21733	0.05493	0.18025	0.092448	-2.9917	-3.1021	-3.0146	-3.6188	-2.9938	-3.3583	-3.6208	-3.175	-3.3875	-3.3083	-2.9417	-3.6562	-3.1625	-3.2521	-3.5208	-3.2562	-27.028	283.880	321.812	309.040	156.617	115.467	299.707	28.589	212.235	310.248	-11.603	125.513	277.266	43.097	10.598	176.174	0.0005325	0.00032422	0.00019629	564.23	3.8662e-06	2.576e-06	689.51	223.7	1.0396e-06	5.5131e-06	342.37	146.51	91.537	45.095	2.0118e-06	81.708	0.00019201	0.00017876	4.5349e-05	564.06	1.8928e-06	1.9077e-06	690.86	224.44	1.8808e-06	1.8882e-06	340.04	146.46	91.751	45.217	1.7261e-06	81.221	107.653	47.784	47.361	-15.954	132.493	79.301	-16.310	-10.437	82.630	103.357	-11.707	-7.583	-6.974	-2.056	111.752	-4.063	-8191	255	
3517.681	1	1	0	0	0.27076	0.12726	0.10945	0.046813	0.11152	0.17414	0.12726	0.15654	0.2527	0.2081	0.13544	0.12622	0.24194	0.15278	0.27111	0.08827	-2.9521	-3.4208	-3.0854	-3.6104	-3.0125	-3.0125	-3.625	-3.175	-3.3104	-3.4604	-3.1146	-3.6937	-3.1354	-3.2604	-3.5687	-3.2417	295.296	262.296	276.472	296.080	165.489	278.252	260.047	107.707	-22.084	178.274	186.422	318.054	331.000	13.633	159.990	-19.923	0.00048823	0.00045034	0.00012807	563.09	3.0184e-06	4.0603e-06	688.45	224.37	5.9403e-06	4.5259e-06	339.27	146.25	91.435	44.927	2.3033e-06	81.138	0.00019991	0.00017102	4.4619e-05	562.85	1.9484e-06	1.8463e-06	689.95	224.24	1.9543e-06	1.8016e-06	338.17	145.94	91.76	45.091	1.6856e-06	80.804	109.436	21.056	46.299	-15.803	88.726	102.008	-16.313	-10.287	114.189	88.203	-11.647	-7.602	-7.029	-2.227	146.454	-4.326	-8191	255	
3517.800	1	1	0	0	0.13038	0.060159	0.13953	0.25903	0.048315	0.10027	0.060359	0.21559	0.039305	0.25671	0.054376	0.20972	0.11017	0.21051	0.22588	0.089433	-3.0104	-3.0917	-3.0187	-3.4938	-3.2833	-3.0792	-3.7062	-3.1479	-3.2729	-3.4083	-3.0854	-3.4854	-3.2875	-3.0021	-3.5146	-3.2167	285.204	260.178	42.650	215.412	3.790	-1.316	156.454	317.479	114.348	315.969	242.635	9.185	260.241	178.792	25.455	67.235	0.00048698	0.00054168	0.00014273	561.04	4.6489e-06	5.2419e-06	687.88	224.81	3.3832e-06	5.7325e-06	340.54	146.25	91.543	45.132	3.8754e-06	81.513	0.00020508	0.00016512	4.3931e-05	562.85	1.9881e-06	1.8004e-06	689.68	224.72	1.9903e-06	1.7498e-06	339.4	146.33	91.8	45.115	1.7166e-06	81.201	107.945	29.340	61.028	-16.016	128.568	106.068	-16.451	-10.255	115.047	124.258	-11.754	-7.714	-6.964	-2.219	165.892	-4.325	-8191	255	
3517.896	1	1	0	0	0.035213	0.27478	0.248	0.061325	0.1558	0.25342	0.28287	0.018957	0.17263	0.24914	0.027396	0.015887	0.047845	0.21584	0.12677	0.10582	-2.8729	-3.3	-2.9021	-3.5062	-3.1771	-3.0438	-3.3479	-3.2292	-3.1937	-3.4271	-3.0312	-3.4167	-3.3125	-3.2229	-3.4667	-3.3292	35.175	74.202	43.089	42.058	258.406	233.082	289.733	160.343	165.341	205.509	114.826	265.586	252.746	312.803	187.634	324.650	0.00052167	0.00048556	8.0346e-05	563.36	3.6258e-06	3.5987e-06	690.88	223.73	4.0715e-06	3.4577e-06	341.66	146.96	91.446	44.971	5.1091e-06	81.712	0.00020358	0.00016428	4.416e-05	565.04	1.9536e-06	1.8187e-06	690.93	225	1.9782e-06	1.7447e-06	340.04	147.13	91.805	45.099	1.7439e-06	81.549	103.885	70.778	48.981	-15.592	104.019	52.427	-16.480	-10.552	123.103	125.977	-11.942	-7.547	-7.206	-2.230	144.452	-4.200	-8191	255	
3517.992	1	1	0	0	0.19837	0.17622	0.1624	0.26229	0.19933	0.14897	0.020165	0.15933	0.22851	0.021746	0.17864	0.12532	0.078183	0.11755	0.1077	0.18185	-2.8125	-3.5958	-2.8792	-3.4292	-3.1625	-2.8812	-3.4771	-3.3	-3.1021	-3.5125	-3.3125	-3.2812	-3.4375	-3.0833	-3.4396	-3.4875	118.508	174.034	287.620	312.501	300.437	330.211	293.167	286.963	79.515	284.248	61.559	269.968	310.082	256.439	280.525	222.968	0.00052613	0.00045288	9.7139e-05	562.58	4.4096e-06	4.498e-06	691.56	224.5	1.1779e-06	5.357e-06	341.85	146.2	91.123	44.852	3.5171e-06	81.02	0.00020201	0.00016289	4.5474e-05	565.39	1.9028e-06	1.8158e-06	691.13	224.93	1.9103e-06	1.7331e-06	339.19	146.36	91.343	44.891	1.8479e-06	80.72	112.418	51.797	54.146	-15.995	91.291	84.953	-16.328	-10.544	243.982	145.312	-11.691	-7.713	-7.068	-2.319	151.446	-4.265	-8191	255	
3518.088	1	1	0	0	0.14772	0.23441	0.23256	0.075614	0.16763	0.02726	0.32811	0.13855	0.37319	0.058623	0.3522	0.24943	0.21318	0.27558	0.12661	0.17706	-2.775	-3.225	-2.9458	-3.3292	-3.3208	-3.1167	-3.5042	-3.3396	-3.0083	-3.4021	-3.1042	-3.1917	-3.2833	-3.1792	-3.3354	-3.4583	278.616	161.577	34.402	259.793	229.342	199.265	189.439	40.066	255.397	319.470	261.677	313.870	246.045	305.324	136.590	223.438	0.0004916	0.0003333	9.9791e-05	560.8	2.9621e-06	5.0221e-06	687.05	222.53	2.1126e-06	6.0125e-06	338.74	145.62	91.059	44.625	3.0114e-06	80.734	0.000195	0.00015935	4.8178e-05	564.11	1.8398e-06	1.7682e-06	689.41	223.53	1.8895e-06	1.6986e-06	338.18	145.84	91.23	44.668	2.0187e-06	80.613	109.472	61.177	64.912	-15.860	93.221	123.263	-16.692	-10.304	87.129	130.575	-11.774	-7.634	-6.853	-2.230	128.905	-4.271	-8191	255	
3518.209	1	1	0	0	0.23404	0.11543	0.24449	0.14144	0.18478	0.083983	0.1775	0.064506	0.15666	0.33055	0.12241	0.17922	0.14495	0.11838	0.18849	0.14697	-2.4396	-3.4896	-3.025	-3.2354	-3.4292	-2.9188	-3.4958	-3.0667	-3.0729	-3.3292	-3.1813	-3.3229	-3.4854	-3.0854	-3.2792	-3.3563	246.604	24.491	57.217	275.874	303.612	297.052	298.310	305.993	130.600	285.392	62.550	12.039	251.565	276.458	239.594	289.581	0.00048503	0.00046317	0.00013232	565.19	2.6847e-06	2.7097e-06	688.27	222.53	3.5179e-06	2.6888e-06	338.79	145.65	90.921	44.742	1.2568e-06	81.274	0.00019582	0.00016226	5.2722e-05	566.22	1.8564e-06	1.8573e-06	693.08	223.61	1.8904e-06	1.8011e-06	338.89	146.16	91.088	44.807	2.1637e-06	81.002	110.797	76.009	70.434	-15.961	131.908	120.045	-16.340	-10.544	92.978	112.079	-11.671	-7.667	-7.004	-2.276	141.873	-4.276	-8191	255	
3518.305	1	1	0	0	0.12524	0.072203	0.25104	0.057028	0.055254	0.045568	0.023691	0.21386	0.12532	0.12898	0.21414	0.2867	0.10939	0.15442	0.31057	0.22184	-2.5875	-3.2333	-2.9542	-3.0458	-3.1312	-2.9938	-3.25	-3.2438	-3.0833	-3.1917	-3.1146	-3.1042	-3.4167	-3.0812	-3.3875	-3.2833	80.990	175.931	194.912	204.427	291.323	241.916	248.780	-26.639	-19.821	286.073	252.553	309.836	308.899	173.565	302.614	270.745	0.00045093	0.00036621	0.00018901	564.88	4.742e-06	6.4539e-06	693.24	223.96	6.3933e-06	2.7805e-06	339.64	146.27	91.086	44.8	2.5008e-06	81.843	0.00019579	0.00016857	5.4351e-05	566.12	1.8467e-06	1.9446e-06	694.85	224.01	1.9144e-06	1.9346e-06	339.87	146.86	91.372	44.924	2.1259e-06	81.46	111.248	43.327	51.234	-15.706	100.482	117.037	-16.331	-10.078	112.727	113.110	-11.660	-7.595	-7.056	-2.304	115.473	-4.161	-8191	255	
3518.377	1	1	0	0	0.24672	0.15472	0.093821	0.2533	0.094869	0.14404	0.29022	0.058631	0.14503	0.05197	0.20299	0.23506	0.14346	0.17529	0.23821	0.11345	-2.6458	-3.4479	-3.3667	-2.9271	-3.4125	-3.0625	-3.5521	-3.4562	-2.9062	-3.475	-3.2833	-3.1354	-3.4792	-3.0854	-3.1917	-3.6396	270.959	299.036	119.039	-28.117	249.954	33.701	255.629	279.491	223.916	158.757	248.515	276.945	58.734	232.027	7.338	223.227	0.00046291	0.00067759	0.00012442	563.73	4.5884e-06	3.8458e-06	690.01	222.83	3.7155e-06	5.4313e-06	337.27	145.76	90.909	44.398	2.6302e-06	80.69	0.00019433	0.00018237	5.3891e-05	566.73	1.7995e-06	2.0509e-06	692.42	223.18	1.8355e-06	2.0138e-06	337.99	145.43	90.926	44.597	2.1004e-06	80.278	111.257	44.950	41.331	-15.740	132.530	123.203	-16.539	-10.477	91.006	153.862	-11.754	-7.722	-6.999	-2.257	102.366	-4.281	-8191	255	
3518.473	1	1	0	0	0.15349	0.25804	0.14783	0.22986	0.13898	0.13911	0.05433	0.20582	0.15041	0.058268	0.14569	0.21555	0.24267	0.2885	0.16392	0.20559	-2.4458	-3.2396	-3.0771	-3.1229	-3.3125	-2.9021	-3.1917	-3.2458	-3.0271	-3.3542	-3.3583	-3.025	-3.4062	-3.2583	-3.0667	-3.5542	143.108	267.853	228.513	246.161	315.160	67.362	18.201	169.007	256.457	47.298	285.793	244.035	295.531	-24.861	112.020	264.672	0.00048632	0.00015227	0.00016605	561.61	4.2501e-06	6.8605e-06	688.6	220.96	3.1e-06	5.7203e-06	337.29	144.54	90.632	44.438	2.4662e-06	80.797	0.00019212	0.00018785	5.1167e-05	563.93	1.8083e-06	2.0994e-06	691.23	222.22	1.8604e-06	2.1093e-06	337.38	145.2	90.709	44.588	1.9774e-06	80.377	110.371	124.942	47.777	-16.075	114.014	123.317	-16.428	-10.447	125.271	148.026	-11.777	-7.592	-7.048	-2.460	109.679	-4.027	-8191	255	
3518.593	1	1	0	0	0.08045	0.21184	0.054286	0.047159	0.080217	0.10558	0.11366	0.0426	0.1252	0.11245	0.14661	0.25896	0.16958	0.085759	0.015811	0.16939	-2.5208	-3.2917	-3.2021	-2.975	-3.3812	-3.0146	-3.1792	-3.4375	-3.0542	-3.2917	-3.4521	-3.1063	-3.3667	-3.2417	-3.0771	-3.7875	327.912	307.605	172.842	286.876	52.896	295.858	186.513	299.287	213.669	167.924	269.912	294.064	30.913	303.288	164.737	-25.642	0.0004669	0.00034872	7.7853e-05	561.8	5.8238e-06	6.9041e-06	687.14	222.32	5.0046e-06	4.6411e-06	340.28	146.32	90.896	44.963	2.0389e-06	81.909	0.00019535	0.00019046	4.8452e-05	564.01	1.8722e-06	2.0962e-06	692.94	223.19	1.9045e-06	2.0561e-06	339.49	146.41	91.318	44.98	1.9039e-06	81.303	110.234	11.123	80.363	-15.936	127.766	115.291	-16.270	-10.591	121.452	100.317	-11.663	-7.814	-7.062	-2.372	92.550	-4.226	-8191	255	
3518.690	1	1	0	0	0.18056	0.25922	0.095346	0.21458	0.065975	0.15737	0.30089	0.36749	0.019046	0.26687	0.13344	0.41653	0.24514	0.20599	0.19958	0.24073	-2.5396	-3.3042	-3.2792	-2.9896	-3.6458	-3.0812	-3.2562	-3.4167	-3.0021	-3.3042	-3.5125	-3.15	-3.3812	-3.4313	-3.0187	-3.5896	122.834	195.755	263.642	281.647	226.201	-1.985	244.663	270.069	116.529	244.064	-17.419	279.514	-14.351	330.731	260.521	-19.943	0.00047603	0.00053297	0.00023472	565.13	3.7155e-06	5.8391e-06	688.13	222.59	3.1626e-06	2.6555e-06	340.72	146.56	90.67	44.593	2.7467e-06	81.278	0.00020069	0.00018628	4.6046e-05	564.83	1.9246e-06	1.9299e-06	691.94	222.87	1.9309e-06	1.9124e-06	339.35	146.52	91.125	44.795	1.7809e-06	80.9	109.242	61.707	51.139	-15.698	111.290	104.370	-16.424	-10.425	110.669	149.480	-11.808	-7.651	-7.172	-2.385	109.719	-4.182	-8191	255	
3518.786	1	1	0	0	0.12181	0.096722	0.19941	0.24994	0.057122	0.27217	0.17199	0.29934	0.09373	0.070287	0.25432	0.14173	0.049413	0.03694	0.26341	0.211	-2.675	-3.1354	-3.3396	-3.0729	-3.2708	-3.2854	-2.9375	-3.3563	-3.3187	-3.1333	-3.4021	-3.0812	-3.2938	-3.4021	-2.9208	-3.4292	287.744	174.013	45.413	171.222	52.600	166.037	74.712	239.673	201.003	135.905	246.757	123.539	163.915	-6.658	-2.674	302.417	0.00045754	0.0002885	0.00015405	560.84	9.1838e-07	3.2939e-06	685.86	221.79	5.7762e-06	6.2039e-06	337.57	145.33	90.584	44.521	3.0675e-06	80.571	0.00019793	0.00017128	4.3347e-05	561.58	1.9081e-06	1.8048e-06	688.51	222.05	1.9494e-06	1.801e-06	336.49	145.14	90.841	44.534	1.6702e-06	80.414	104.372	37.471	32.630	-15.861	107.872	135.769	-16.404	-10.387	112.512	115.073	-11.685	-7.760	-7.048	-2.369	92.159	-4.320	-8191	255	
3518.905	1	1	0	0	0.36841	0.16752	0.15068	0.26112	0.15548	0.050845	0.23047	0.24298	0.087058	0.19079	0.25383	0.089597	0.13383	0.12929	0.29932	0.10479	-2.8375	-3.0896	-3.2708	-3.0563	-3.2042	-3.3729	-3.2125	-3.3083	-3.3312	-2.9688	-3.5104	-3.1958	-3.2979	-3.6021	-3.0625	-3.5896	177.543	248.386	80.376	246.284	265.257	-25.213	221.134	314.239	250.964	104.834	278.535	150.896	-6.065	73.816	317.377	143.639	0.00044198	2.3211e-05	0.00011146	561.09	5.4437e-06	5.0811e-06	684.77	221.6	4.1816e-06	3.4554e-06	339.14	145.87	90.803	44.65	1.9689e-06	81.012	0.00019669	0.00015553	4.0445e-05	561.39	1.8588e-06	1.6684e-06	687.46	222.54	1.8186e-06	1.6733e-06	337.45	145.81	90.972	44.709	1.5772e-06	80.803	103.870	86.034	75.805	-15.828	104.709	93.094	-16.289	-10.359	93.242	146.328	-11.864	-7.716	-6.999	-2.613	159.730	-4.337	-8191	255	
3518.976	1	1	0	0	0.036643	0.15934	0.30867	0.22496	0.072414	0.12495	0.22897	0.027637	0.12605	0.23501	0.062837	0.26577	0.14968	0.2369	0.050065	0.21454	-2.7792	-2.8792	-3.5833	-3.1625	-3.275	-3.5167	-2.9583	-3.3333	-3.1437	-2.9708	-3.4042	-3.3083	-3.0396	-3.5563	-2.8854	-3.6125	267.877	183.451	120.807	89.095	169.837	102.776	281.245	317.289	55.229	62.726	321.815	286.647	18.188	275.103	274.485	270.325	0.00047077	0.0006606	0.00012693	560.56	3.0921e-06	3.6531e-06	691.67	222.32	2.7838e-06	4.0492e-06	339.92	146.35	91.032	44.791	3.4942e-06	81.74	0.00018805	0.00015054	3.886e-05	561.89	1.7493e-06	1.56e-06	690.9	222.93	1.7275e-06	1.6042e-06	337.67	146.33	90.928	44.742	1.593e-06	81.326	110.304	39.845	30.147	-15.791	78.606	90.008	-16.431	-10.699	79.925	113.384	-11.640	-7.684	-6.911	-2.391	157.167	-3.941	-8191	255	
3519.074	1	1	0	0	0.21374	0.14618	0.077851	0.29492	0.20138	0.07877	0.060758	0.09933	0.0048849	0.16896	0.13981	0.085908	0.17854	0.30214	0.18706	0.12645	-2.8187	-2.9167	-3.3271	-3.0708	-3.1937	-3.4542	-3.0438	-3.45	-3.55	-2.9667	-3.5438	-3.3521	-3.1854	-3.6479	-3.0458	-3.5396	119.379	182.035	43.811	-16.178	17.634	46.513	67.849	-24.088	91.454	303.000	251.571	43.438	11.063	329.230	127.133	292.046	0.00043212	0.00044889	0.00010127	556.84	4.8421e-06	5.2019e-06	688.35	221.87	4.2759e-06	4.1727e-06	338.74	145.79	90.367	44.603	4.1158e-06	80.993	0.00017662	0.00014379	3.8966e-05	560.48	1.6601e-06	1.5052e-06	688.81	222.36	1.6323e-06	1.5247e-06	337.13	145.69	90.492	44.548	1.6151e-06	80.719	102.387	56.530	49.522	-15.546	128.985	109.230	-16.382	-10.494	100.812	134.766	-11.627	-7.828	-6.985	-2.347	134.697	-4.169	-8191	255	
3519.193	1	1	0	0	0.15088	0.1391	0.15728	0.28177	0.085955	0.34226	0.21623	0.10806	0.13236	0.19196	0.21994	0.22504	0.17572	0.12102	0.11878	0.19204	-3.0583	-2.7812	-3.3979	-3.3625	-2.95	-3.5938	-3.1167	-3.4417	-3.2854	-3.0479	-3.6063	-3.2542	-3.1562	-3.5771	-3.0417	-3.3208	139.738	158.021	48.418	256.709	207.942	67.363	105.558	288.607	182.568	306.774	271.750	-5.477	322.932	161.429	96.706	206.131	0.00045429	0.00026611	0.00011075	558.55	5.101e-06	2.674e-06	684.48	222.38	2.6399e-06	5.0352e-06	337.57	145.58	90.176	44.183	1.6495e-06	80.798	0.00016882	0.00013861	4.0626e-05	559.06	1.6082e-06	1.4617e-06	687.35	222.03	1.5757e-06	1.4889e-06	336.39	145.07	90.295	44.372	1.6818e-06	80.473	106.622	33.132	47.857	-15.737	105.388	114.506	-16.288	-10.669	121.702	117.413	-11.604	-7.728	-6.820	-2.373	138.253	-4.238	-8191	255	
3519.289	1	1	0	0	0.11694	0.12262	0.24006	0.26128	0.16335	0.16374	0.047759	0.20581	0.034077	0.23474	0.28474	0.13165	0.12637	0.096188	0.12807	0.10789	-2.7938	-2.975	-3.3208	-3.3271	-2.9333	-3.5792	-3.1479	-3.2104	-3.2812	-3.0792	-3.5292	-3.3187	-3.0833	-3.6958	-3.0875	-3.3104	82.828	53.964	104.078	-14.025	48.254	260.988	-26.282	304.043	32.900	316.905	266.971	17.818	325.317	229.513	320.954	314.279	0.00050399	0.00043046	0.00015222	553.59	2.7567e-06	3.0659e-06	684.28	221.81	2.7575e-06	4.5098e-06	337.94	145.04	90.147	44.451	3.6999e-06	81.181	0.0001651	0.00013667	4.2881e-05	556.55	1.5669e-06	1.4574e-06	686.2	221.49	1.5319e-06	1.4837e-06	336.65	145.11	90.288	44.43	1.7358e-06	80.738	110.123	80.209	65.397	-15.770	92.216	148.852	-16.333	-10.479	114.012	125.077	-11.843	-7.689	-7.130	-2.422	133.608	-4.242	-8191	255	
3519.385	1	1	0	0	0.038101	0.044289	0.28506	0.075199	0.052053	0.13684	0.14456	0.062275	0.26676	0.24786	0.065258	0.070541	0.15024	0.31852	0.080688	0.22597	-2.8896	-2.8937	-3.2438	-3.3667	-3	-3.4062	-3.0875	-3.1021	-3.4917	-3.1021	-3.4521	-3.4875	-2.9229	-3.6729	-3.125	-3.0938	249.721	60.661	167.116	16.420	181.123	119.255	313.849	66.671	184.806	-22.841	271.065	320.897	285.164	325.410	81.269	289.133	0.00051898	0.00048178	0.00021226	556.74	5.6996e-06	3.3322e-06	686.88	221.17	4.3587e-06	6.0864e-06	338.72	145.57	90.064	44.736	4.6731e-06	81.473	0.00016183	0.00014223	4.3777e-05	556.54	1.5059e-06	1.5328e-06	687.32	220.87	1.501e-06	1.5584e-06	337.85	145.65	90.212	44.607	1.7271e-06	81.032	106.417	33.290	63.209	-15.880	117.171	123.591	-16.350	-10.441	73.549	138.585	-11.795	-7.514	-7.035	-2.233	131.535	-4.354	-8191	255	
3519.506	1	1	0	0	0.19084	0.10766	0.19086	0.030419	0.16206	0.15658	0.1927	0.19352	0.17006	0.18982	0.29468	0.18015	0.28902	0.27928	0.32414	0.1246	-3.15	-2.8833	-2.9542	-3.4979	-2.975	-3.2313	-3.3479	-3.2292	-3.6937	-3.2188	-3.2833	-3.3292	-3.0292	-3.4479	-3.1083	-3.3021	107.304	32.364	152.392	179.568	-24.528	308.723	-16.259	250.919	241.114	154.564	299.016	318.072	211.026	287.994	53.818	280.972	0.00046632	0.00050708	9.7601e-05	553	3.8532e-06	5.3438e-06	683.81	220.96	5.9603e-06	3.4648e-06	338.36	144.54	89.921	44.384	2.1567e-06	80.749	0.00015966	0.00014734	4.2229e-05	556.18	1.461e-06	1.6007e-06	684.98	221.05	1.422e-06	1.6196e-06	336.47	144.8	89.934	44.448	1.6305e-06	80.303	103.962	45.887	85.664	-15.908	128.171	121.899	-16.356	-10.489	95.390	124.943	-11.748	-7.752	-7.157	-2.281	76.443	-4.116	-8191	255	
3519.578	1	1	0	0	0.079998	0.029489	0.090953	0.16332	0.19661	0.090824	0.23776	0.23599	0.078878	0.12297	0.019661	0.15339	0.10348	0.14334	0.26783	0.23586	-2.9667	-3.2354	-3.2812	-3.3708	-3.0187	-3.3812	-3.4375	-3.0167	-3.5396	-3.2583	-3.3187	-3.6229	-3.2417	-3.2562	-3.2	-3.1083	229.655	260.957	249.935	20.897	126.098	238.580	315.987	86.707	170.905	303.391	110.202	256.883	15.131	8.584	207.629	265.436	0.00050323	0.00038781	8.6626e-05	553.23	4.0414e-06	5.526e-06	679.34	220.65	4.8548e-06	4.8757e-06	335.67	144.2	90.068	44.375	3.4121e-06	80.412	0.00015633	0.00015142	4.1042e-05	554.54	1.4686e-06	1.6521e-06	682.35	219.96	1.456e-06	1.6446e-06	334.4	144.14	89.717	44.322	1.5244e-06	80.004	104.217	73.387	75.715	-15.747	96.369	92.704	-16.434	-10.111	123.114	87.458	-11.840	-8.027	-7.022	-2.159	147.470	-4.157	-8191	255	
3519.674	1	1	0	0	0.22595	0.12847	0.21017	0.1543	0.13587	0.071104	0.16714	0.26414	0.073257	0.027884	0.21066	0.38323	0.070016	0.13855	0.046649	0.14195	-2.9875	-3.2958	-3.2188	-3.5687	-2.8875	-3.4437	-3.3417	-3.0938	-3.5854	-3.2479	-3.3604	-3.6208	-2.9188	-3.3563	-3.3667	-3.2021	80.809	281.571	-20.806	161.653	160.717	258.449	174.530	51.602	149.231	51.964	251.769	305.908	271.331	188.184	173.579	131.170	0.00049215	0.00054357	0.00016595	554.43	3.6513e-06	5.2106e-06	682.47	219.91	4.6493e-06	4.7646e-06	338.12	144.81	89.154	44.254	3.1309e-06	80.851	0.00015816	0.00014784	3.8562e-05	553.63	1.4809e-06	1.6236e-06	683.35	219.84	1.4772e-06	1.585e-06	335.42	144.6	89.538	44.33	1.4612e-06	80.337	109.827	33.054	39.682	-15.721	128.611	96.317	-16.394	-10.413	121.402	122.459	-11.917	-7.623	-6.968	-2.255	91.251	-4.124	-8191	255	
3519.770	1	1	0	0	0.16005	0.23079	0.23772	0.27466	0.10143	0.23263	0.046922	0.14531	0.19894	0.12211	0.30828	0.28064	0.12903	0.11264	0.042632	0.2803	-3.0625	-3.1896	-3.1	-3.6125	-3.0687	-3.1167	-3.4562	-2.7333	-3.4583	-3.3625	-3.1271	-3.7083	-3.1146	-3.4229	-3.475	-3.0563	-11.217	18.694	156.216	310.151	194.461	38.443	285.186	103.586	173.157	327.524	255.598	195.705	250.705	259.428	-6.514	221.404	0.00049109	0.00027989	0.00012392	555.85	2.0559e-06	5.0316e-06	684.32	220.98	1.8916e-06	3.4418e-06	337.08	145.11	89.474	44.363	1.2098e-06	80.998	0.00016312	0.00014413	3.6979e-05	553.3	1.5259e-06	1.5356e-06	683.57	220.24	1.5475e-06	1.5165e-06	336.63	144.87	89.769	44.32	1.3584e-06	80.44	111.458	-2.729	34.433	-15.933	108.812	110.686	-16.337	-10.737	67.014	104.972	-11.607	-7.629	-7.199	-2.206	151.423	-4.253	-8191	255	
3519.866	1	1	0	0	0.14653	0.027945	0.06026	0.19164	0.064011	0.11779	0.010061	0.094613	0.046329	0.059153	0.16686	0.32916	0.068506	0.13315	0.25307	0.16826	-2.9	-3.4271	-3.1083	-3.4458	-3.1125	-2.9917	-3.5229	-3.3042	-3.1437	-3.3104	-3.2271	-3.4354	-3.2208	-3.1979	-3.5604	-3.1229	83.850	209.685	330.293	78.557	220.730	299.142	290.820	151.328	218.194	66.617	9.803	189.796	92.650	195.032	95.312	302.360	0.00049323	0.00044812	0.00020724	553.15	5.4883e-06	4.8489e-06	678.8	218.74	5.5259e-06	4.5463e-06	335.94	143.61	89.408	43.949	2.7867e-06	79.705	0.0001616	0.0001326	3.4244e-05	551.58	1.5086e-06	1.4246e-06	679.99	218.58	1.4879e-06	1.3612e-06	333.15	143.38	89.051	43.895	1.2467e-06	79.266	108.168	30.380	74.822	-15.699	122.881	125.452	-16.259	-10.437	85.444	91.284	-11.731	-7.811	-7.128	-2.303	151.141	-4.380	-8191	255	
3519.985	1	1	0	0	0.10892	0.18873	0.20788	0.1433	0.099875	0.18012	0.089743	0.22906	0.10344	0.11768	0.098313	0.18845	0.30686	0.15572	0.2136	0.46679	-3.0167	-3.4146	-3.0833	-3.3479	-3.1771	-3.0542	-3.45	-3.3438	-3.3	-3.3312	-3.0354	-3.5979	-3.1937	-3.0417	-3.5167	-3.1125	98.579	72.105	132.492	218.017	252.469	249.778	171.725	294.075	38.125	43.291	85.469	48.361	322.134	235.769	139.653	277.158	0.00041876	0.0003559	0.00012547	552.09	4.1326e-06	2.7372e-06	680.17	218.08	2.4819e-06	3.7049e-06	334.88	143.17	88.73	43.687	3.1181e-06	79.869	0.00015301	0.00011744	3.1231e-05	549.65	1.381e-06	1.2775e-06	678.4	217.82	1.3874e-06	1.2455e-06	331.95	142.86	88.65	43.68	1.1578e-06	79.298	108.363	57.785	33.883	-15.682	93.711	112.860	-16.380	-10.533	111.925	125.615	-11.569	-7.670	-7.036	-2.399	133.786	-4.323	-8191	255	
3520.081	1	1	0	0	0.090656	0.045909	0.011173	0.23356	0.1578	0.06283	0.093537	0.14616	0.12956	0.17232	0.23743	0.18501	0.18882	0.28358	0.1496	0.1316	-2.825	-3.2687	-2.9062	-3.5333	-3.1375	-3.0438	-3.5625	-3.0771	-3.3021	-3.4604	-2.9292	-3.4208	-3.1771	-3	-3.3979	-3.1042	14.035	96.123	241.867	276.404	110.520	217.293	15.017	265.872	242.165	189.796	307.031	292.996	322.902	311.407	0.864	286.771	0.00047316	0.00043705	0.0001605	547.32	3.606e-06	4.9321e-06	677.1	218.3	3.9738e-06	4.7129e-06	332.13	143.87	88.632	43.722	2.7812e-06	80.084	0.00014358	0.00010811	2.9125e-05	547.8	1.2459e-06	1.1726e-06	676.42	217	1.2403e-06	1.0912e-06	330.76	143.26	88.454	43.659	1.1144e-06	79.552	108.793	76.227	84.205	-15.942	134.028	122.034	-16.375	-10.695	101.351	132.812	-11.643	-7.641	-6.877	-2.135	133.112	-4.100	-8191	255	
3520.177	1	1	0	0	0.21129	0.096497	0.25181	0.39667	0.16665	0.13005	0.068145	0.20005	0.16439	0.01832	0.11026	0.15609	0.086289	0.34292	0.19614	0.23868	-2.8167	-3.2938	-2.8021	-3.3333	-3.3625	-3.0812	-3.5708	-3.0771	-3.0521	-3.4437	-3.1667	-3.2062	-3.3896	-3.1688	-3.4729	-3.2896	202.136	74.424	24.778	303.310	174.159	322.825	128.615	273.805	162.747	285.802	182.636	233.329	44.160	278.218	195.040	212.345	0.00048029	0.00036439	0.00014387	548.21	5.7604e-06	2.9441e-06	678.91	216.94	3.351e-06	3.2057e-06	334.74	143.55	88.62	43.655	2.3146e-06	79.726	0.00013382	9.7961e-05	2.8418e-05	547.19	1.1384e-06	1.0634e-06	676.13	216.61	1.1002e-06	1.0445e-06	331.63	142.9	88.174	43.575	1.1633e-06	79.277	107.729	48.574	69.328	-15.743	107.736	114.517	-16.250	-10.476	138.069	107.702	-11.867	-7.749	-6.895	-2.321	127.838	-4.166	-8191	255	
3520.273	1	1	0	0	0.23167	0.16897	0.079632	0.21477	0.17093	0.16614	0.39115	0.28195	0.04277	0.14333	0.28661	0.17437	0.12328	0.30197	0.099203	0.10496	-2.6917	-3.5896	-3.0312	-3.4313	-3.4542	-2.8583	-3.4854	-3.3333	-3.0208	-3.5396	-3.2146	-3.3688	-3.4938	-2.9479	-3.4771	-3.175	219.126	304.114	263.968	321.761	183.814	24.084	317.268	9.528	-24.731	120.907	275.976	295.493	214.282	296.082	244.448	311.059	0.00047719	0.00049213	0.00012339	549.46	3.6099e-06	5.4209e-06	673.04	215.78	4.2242e-06	4.794e-06	331.13	141.44	88.227	43.548	2.8806e-06	79.118	0.00013273	0.00010015	3.064e-05	546.38	1.1914e-06	1.1238e-06	672.21	215.65	1.2153e-06	1.1131e-06	328.48	141.46	87.861	43.404	1.2773e-06	78.525	112.259	53.705	37.916	-15.558	119.006	133.990	-16.348	-10.485	117.468	146.206	-11.682	-7.599	-6.905	-2.197	112.492	-4.482	-8191	255	
3520.370	1	1	0	0	0.049868	0.12467	0.096394	0.20967	0.13548	0.09384	0.14774	0.15881	0.37879	0.22985	0.14696	0.12897	0.25355	0.28353	0.094974	0.28472	-2.7542	-3.3917	-3.0625	-3.3458	-3.4167	-3.2333	-3.4458	-3.3854	-3.0271	-3.5729	-3.0417	-3.2792	-3.6354	-3.2604	-3.325	-3.5479	154.866	264.928	174.412	303.374	122.043	254.648	32.847	308.700	329.487	208.545	302.524	133.048	316.428	319.722	281.139	315.615	0.00045223	0.00054276	0.00012513	546.84	1.8936e-06	3.1592e-06	675.08	216.65	2.2948e-06	4.9669e-06	329.63	141.94	88.244	43.397	3.1174e-06	78.954	0.00013527	0.00010637	3.2651e-05	544.89	1.1755e-06	1.135e-06	673.81	215.68	1.1358e-06	1.0895e-06	328.08	141.47	87.6	43.232	1.2342e-06	78.381	109.711	74.008	69.152	-15.817	103.956	83.336	-16.601	-10.399	76.312	120.367	-11.786	-7.821	-7.266	-2.415	109.581	-4.268	-8191	255	
3520.466	1	1	0	0	0.1755	0.2229	0.26577	0.14851	0.059378	0.0277	0.04996	0.24622	0.03661	0.036214	0.25396	0.20815	0.33088	0.3366	0.018797	0.23767	-2.5479	-3.4771	-3.225	-3.2208	-3.5312	-3.0167	-3.5292	-3.4042	-2.9792	-3.4562	-3.3604	-3.3958	-3.5	-3.0375	-3.2313	-3.5187	31.888	85.247	144.115	290.339	168.169	209.149	189.911	215.522	26.513	38.718	0.645	174.337	319.323	316.965	274.818	313.642	0.00047087	0.00038002	0.00013325	545.37	3.9836e-06	3.4453e-06	674.73	216.47	2.915e-06	5.618e-06	331.84	142.29	88.044	43.391	3.9506e-06	79.242	0.00012996	0.00010434	3.1889e-05	545.94	1.1458e-06	1.1862e-06	674.82	216.07	1.2062e-06	1.2293e-06	329.41	141.94	87.845	43.354	1.4078e-06	78.691	105.349	42.109	64.978	-15.688	121.840	123.933	-16.183	-10.573	114.352	136.469	-11.753	-7.847	-6.967	-2.174	127.206	-4.155	-8191	255	
3520.586	1	1	0	0	0.3116	0.11451	0.16003	0.010154	0.081784	0.18609	0.20104	0.032738	0.16156	0.15767	0.37616	0.1953	0.087555	0.16635	0.19169	0.19461	-2.4854	-3.2083	-3.1125	-3.1521	-3.2812	-3.1083	-3.2833	-3.5312	-2.9437	-3.4292	-3.3396	-3.0292	-3.4271	-3.0958	-3.3042	-3.7479	-27.787	252.326	5.202	310.553	18.394	243.478	211.288	176.157	309.655	90.971	-8.721	92.083	-22.997	274.994	-26.621	303.281	0.00045118	0.00040395	7.9153e-05	546.73	1.7825e-06	4.8401e-06	675.21	217.14	3.9731e-06	6.0331e-06	332.44	142.46	88.104	43.129	2.7938e-06	78.954	0.00014066	0.00012166	3.5492e-05	547.12	1.2473e-06	1.3819e-06	675.57	216.49	1.3435e-06	1.4886e-06	329.95	142.07	87.969	43.325	1.626e-06	78.463	106.333	37.584	72.363	-15.891	117.419	96.359	-16.730	-10.567	118.205	128.680	-11.688	-7.452	-7.184	-2.304	99.140	-4.488	-8191	255	
3520.682	1	1	0	0	0.11657	0.29201	0.19463	0.2112	0.11554	0.16887	0.20276	0.20582	0.14418	0.073334	0.060543	0.42179	0.16067	0.29463	0.21197	0.32914	-2.6542	-3.2542	-3.2896	-3.0646	-3.4917	-3.0458	-3.3042	-3.5625	-3.1375	-3.3	-3.4104	-3.1312	-3.6667	-3.275	-3.1396	-3.7771	306.902	86.471	70.032	46.985	127.547	218.092	277.931	-20.341	212.098	331.059	208.128	263.131	232.527	-12.395	138.639	319.337	0.00045736	0.00044707	0.0001289	546.74	3.1156e-06	4.8339e-06	667.11	215.2	3.47e-06	4.6597e-06	327.36	140.55	87.419	43.091	2.6646e-06	78.1	0.00015776	0.00015189	4.0224e-05	546.2	1.4808e-06	1.6714e-06	671.67	215.25	1.5266e-06	1.6741e-06	326.63	140.51	87.561	43.12	1.5952e-06	77.797	106.378	34.596	53.540	-16.027	114.395	118.846	-16.295	-10.498	135.609	112.292	-11.859	-7.860	-7.148	-2.492	121.625	-4.384	-8191	255	
3520.777	1	1	0	0	0.09965	0.084795	0.14084	0.12965	0.04385	0.20235	0.16108	0.092924	0.15671	0.042052	0.22322	0.37627	0.16103	0.061252	0.22114	0.077413	-2.9	-3.3438	-3.2604	-3.2062	-3.5458	-3.1667	-3.2271	-3.5271	-3.05	-3.2875	-3.45	-2.9896	-3.4229	-3.3229	-3.225	-3.5583	297.732	283.281	300.760	239.214	307.715	327.381	159.618	251.534	-18.667	135.174	26.639	280.885	104.459	29.311	49.432	6.923	0.00044834	0.00053122	0.00010143	544.07	4.4658e-06	3.4828e-06	668.82	215.37	6.5671e-06	3.8135e-06	329.01	140.87	87.224	43.092	1.8678e-06	78.661	0.00016539	0.00015453	4.055e-05	545.22	1.5812e-06	1.7059e-06	671.63	214.87	1.6173e-06	1.7074e-06	327.43	140.95	87.549	43.123	1.5884e-06	78.092	105.872	55.286	36.854	-16.029	113.137	77.761	-16.341	-10.550	100.881	110.600	-11.859	-8.044	-7.224	-2.348	186.659	-4.367	-8191	255	
3520.875	1	1	0	0	0.1782	0.13839	0.1251	0.36349	0.14794	0.14721	0.16268	0.22556	0.19027	0.33473	0.1438	0.12885	0.19663	0.38378	0.10731	0.12245	-2.6917	-3.1604	-3.3583	-3.1104	-3.4042	-3.2854	-3.1542	-3.4979	-3.1396	-3.4062	-3.4333	-3.0417	-3.3333	-3.45	-3.1458	-3.7229	92.211	129.409	184.417	330.344	121.270	201.049	296.428	265.749	226.906	-23.600	48.838	145.630	281.531	266.881	185.358	240.747	0.00047746	0.00060244	0.00017326	546.41	3.4224e-06	2.5721e-06	672.22	215.42	2.0007e-06	2.2734e-06	331.17	141.44	88.131	43.293	2.707e-06	78.971	0.00017351	0.00015632	3.9697e-05	546.13	1.6776e-06	1.6585e-06	673.59	215.29	1.6952e-06	1.6653e-06	329.45	141.56	88.168	43.314	1.553e-06	78.563	111.454	60.434	44.497	-15.928	124.264	115.721	-16.416	-10.457	107.792	113.897	-11.984	-7.737	-6.999	-2.236	161.488	-4.190	-8191	255	
3520.969	1	1	0	0	0.14799	0.17477	0.23019	0.19861	0.14715	0.061168	0.17341	0.28681	0.049897	0.04675	0.24886	0.040926	0.30039	0.12284	0.30273	0.33361	-2.7208	-3.1188	-3.5125	-2.9958	-3.3354	-3.3771	-3.1437	-3.65	-3.3875	-3.0438	-3.4583	-3.4146	-3.3771	-3.5062	-3.1042	-3.4229	304.042	139.110	263.229	-7.202	285.660	231.426	-8.183	281.693	36.373	327.221	170.378	180.868	311.455	232.854	80.712	282.977	0.0004683	0.00044744	7.6202e-05	546.49	1.5069e-06	5.7924e-06	672.98	214.78	1.5337e-06	1.9577e-06	327.99	140.65	87.431	43.146	3.3917e-06	78.064	0.00018085	0.00014869	3.9193e-05	548.62	1.7306e-06	1.6269e-06	674.3	215.61	1.7097e-06	1.6074e-06	327.14	140.89	87.718	43.094	1.5082e-06	77.668	112.492	46.939	31.022	-15.766	102.888	119.373	-16.241	-10.329	172.651	134.083	-11.878	-7.586	-7.184	-2.266	140.938	-4.465	-8191	255	
3521.065	1	1	0	0	0.27152	0.099758	0.28323	0.10042	0.19378	0.24038	0.1492	0.18067	0.16693	0.3204	0.16601	0.23865	0.077825	0.40973	0.0024321	0.11979	-2.8771	-2.8896	-3.325	-3.0896	-3.1813	-3.6146	-3.0833	-3.5896	-3.1146	-2.9938	-3.5583	-3.075	-3.3104	-3.6021	-2.8937	-3.4583	-25.666	227.089	261.007	306.563	52.095	269.806	303.338	216.003	-13.120	127.020	319.082	255.966	278.858	-9.350	14.655	237.106	0.00050289	0.00042484	8.0509e-05	544.32	4.3825e-06	7.0013e-06	671.38	214.49	1.7752e-06	4.6846e-06	328.82	140.26	87.503	42.784	1.1329e-06	78.248	0.00018197	0.0001423	3.7842e-05	545.9	1.6873e-06	1.5423e-06	670.81	214.54	1.6765e-06	1.512e-06	326.1	140.3	87.569	42.892	1.5075e-06	77.547	107.724	76.120	79.939	-15.588	89.298	76.499	-16.495	-10.538	82.706	98.773	-12.039	-7.820	-7.070	-2.417	195.023	-4.435	-8191	255	
3521.186	1	1	0	0	0.077431	0.11208	0.11362	0.21233	0.15038	0.16922	0.17583	0.2339	0.17335	0.13858	0.16892	0.25511	0.25758	0.17123	0.10396	0.083417	-2.8854	-3.1979	-3.4354	-3.0938	-3.2667	-3.4042	-3.0229	-3.3292	-3.3312	-3.0812	-3.6562	-3.0812	-3.3083	-3.6625	-3.0917	-3.3646	24.798	264.367	172.297	18.943	297.261	205.611	283.062	331.476	33.189	314.253	241.605	-26.542	-4.335	300.491	73.391	273.477	0.00048686	0.00032655	8.1671e-05	544.46	2.4624e-06	4.0977e-06	671.03	215.45	2.7292e-06	5.6687e-06	329.18	141.51	88.113	43.124	1.5616e-06	78.728	0.00017572	0.00013901	3.6715e-05	545.91	1.6117e-06	1.5002e-06	671.73	215.45	1.6096e-06	1.4907e-06	327.93	141.4	87.938	43.228	1.4923e-06	78.234	102.254	32.952	57.240	-15.886	146.482	82.925	-16.516	-10.411	100.477	125.737	-11.734	-7.785	-7.087	-2.350	93.490	-4.427	-8191	255	
3521.282	1	1	0	0	0.0085882	0.12134	0.1361	0.093662	0.38762	0.095772	0.089533	0.22384	0.10102	0.11706	0.17984	0.049759	0.30497	0.14979	0.10357	0.30235	-2.8792	-3.0104	-3.3708	-3.2125	-3.1542	-3.5021	-3.1708	-3.6354	-3.4042	-2.9938	-3.4417	-3.3688	-3.0958	-3.5875	-3.0021	-3.3125	35.114	1.482	271.310	-26.803	166.876	209.778	251.308	302.353	20.013	181.479	251.366	322.171	-24.750	322.342	259.328	-25.962	0.00045455	0.00021314	0.00010843	545.74	4.4396e-06	4.7132e-06	673.25	215.83	5.4914e-06	3.7999e-06	331.12	142.1	88.333	43.337	6.1774e-06	79.088	0.00016329	0.00013572	3.6921e-05	548.28	1.5623e-06	1.4286e-06	675.56	216.25	1.5431e-06	1.4223e-06	329.79	142.14	88.239	43.323	1.5473e-06	78.687	104.750	52.300	93.457	-16.013	101.414	100.872	-16.489	-10.410	104.224	134.649	-12.006	-7.669	-7.125	-2.393	163.141	-4.449	-8191	255	
3521.378	1	1	0	0	0.18942	0.087744	0.32	0.089334	0.091374	0.058993	0.21698	0.20258	0.026762	0.079441	0.22932	0.13774	0.053836	0.19482	0.25628	0.16593	-3.0375	-2.9833	-3.3667	-3.3104	-2.8771	-3.5396	-3.2208	-3.1875	-3.5083	-2.8438	-3.6458	-3.3167	-3.0896	-3.4833	-3.1479	-3.2083	-4.418	57.791	126.699	136.951	282.655	118.791	327.982	-5.151	99.050	254.061	320.730	79.491	51.171	283.450	271.334	297.517	0.00043158	0.0003416	0.00010271	547.53	3.3287e-06	4.3778e-06	676.62	215.92	3.4219e-06	1.8617e-06	327.74	140.69	87.789	42.933	3.2498e-06	78.165	0.00016114	0.00012779	3.8248e-05	548.08	1.4725e-06	1.3927e-06	675.33	215.7	1.4795e-06	1.3952e-06	326.85	140.6	87.722	42.99	1.5494e-06	77.683	110.182	38.188	43.682	-15.807	131.254	122.199	-16.525	-10.429	100.176	151.977	-11.955	-7.973	-7.221	-2.115	132.122	-4.549	-8191	255	
3521.474	1	1	0	0	0.049603	0.14216	0.087761	0.094247	0.2808	0.24111	0.15335	0.13711	0.16168	0.15916	0.33873	0.13295	0.15061	0.085693	0.15052	0.22536	-3.1125	-2.8833	-3.1771	-3.3042	-3.1292	-3.5521	-3.0854	-3.3063	-3.6021	-3.0167	-3.5021	-3.2021	-3.15	-3.6979	-3.275	-3.1167	-16.788	119.796	33.305	249.646	305.697	99.823	272.921	231.019	75.991	43.425	300.957	273.132	311.622	325.964	163.066	239.281	0.00043633	0.00059636	0.00013864	547.02	3.1367e-06	1.4856e-06	669.4	215.7	5.6346e-06	3.1433e-06	330.36	140.59	87.904	43.016	4.711e-06	78.309	0.00015532	0.00012656	3.9326e-05	546.9	1.4029e-06	1.3471e-06	672.78	215.22	1.4161e-06	1.3518e-06	327.5	140.58	87.62	43.04	1.5698e-06	77.866	111.191	41.064	47.703	-15.914	62.401	112.670	-16.752	-10.599	133.607	152.460	-12.067	-7.874	-6.952	-2.484	74.917	-4.363	-8191	255	
3521.546	1	1	0	0	0.35456	0.29116	0.30698	0.16336	0.076204	0.17788	0.077401	0.26834	0.13743	0.30948	0.080865	0.21053	0.17907	0.076822	0.18517	0.12055	-3.0125	-3.0375	-3.3042	-3.3771	-2.9833	-3.5062	-3.175	-3.2958	-3.625	-3.0771	-3.4792	-3.3646	-3.2146	-3.5417	-3.275	-3.2375	63.810	150.166	192.627	278.338	220.865	138.667	64.317	-23.536	108.248	260.561	318.571	307.243	194.644	234.272	-2.338	215.481	0.00044437	0.00041337	0.00013963	545.59	2.5067e-06	5.3098e-06	676.74	216.2	3.0984e-06	4.1938e-06	330.7	142.22	88.231	43.201	3.1493e-06	78.882	0.00014991	0.00012992	4.0069e-05	546.92	1.3629e-06	1.3887e-06	676.17	216.06	1.3653e-06	1.4161e-06	329.26	141.67	88.025	43.339	1.5634e-06	78.439	108.663	42.407	10.668	-16.025	96.561	115.117	-16.460	-10.387	115.537	128.333	-11.751	-7.764	-6.973	-2.299	155.210	-4.265	-8191	255	
3521.667	1	1	0	0	0.25801	0.20553	0.19791	0.27262	0.24409	0.17084	0.096442	0.1183	0.097835	0.28757	0.28293	0.3155	0.11307	0.32993	0.10424	0.1302	-3.1	-3.0854	-3.2438	-3.6125	-2.9333	-3.4167	-3.3833	-3.2896	-3.5187	-3.1083	-3.2062	-3.6813	-3.0187	-3.425	-3.3042	-3.2917	124.543	71.394	328.666	288.705	-20.114	203.600	264.789	48.893	251.047	138.332	-0.413	-25.879	140.395	-26.605	98.643	302.896	0.00046165	0.0003056	0.00017423	547.13	5.4543e-06	5.5573e-06	672.89	216.16	3.8059e-06	3.5076e-06	331.64	142.43	88.028	43.389	4.7085e-06	79.24	0.00014734	0.00013326	3.7955e-05	546.7	1.3315e-06	1.4773e-06	676.09	216.33	1.3372e-06	1.4745e-06	329.83	142.28	88.031	43.393	1.482e-06	78.549	107.724	36.438	53.051	-15.795	144.539	76.697	-16.628	-10.338	121.080	167.626	-11.728	-7.853	-6.803	-2.401	115.935	-4.378	-8191	255	
3521.763	1	1	0	0	0.29545	0.41846	0.17497	0.29944	0.059209	0.15742	0.24157	0.18729	0.10305	0.18242	0.23528	0.19313	0.10311	0.13032	0.10305	0.13428	-2.9417	-3.0375	-3.2167	-3.2792	-3.1021	-3.4292	-3.3812	-3.1771	-3.4958	-3.0979	-3.3979	-3.6521	-3.1333	-3.4292	-3.1458	-3.1875	297.792	274.115	122.849	10.743	140.600	113.899	246.083	-21.885	70.065	293.439	-19.519	279.446	-6.713	281.103	-23.773	310.716	0.00045408	0.00027929	8.9917e-05	547.28	4.3976e-06	2.2696e-06	673.51	216.53	3.8781e-06	3.097e-06	329.71	141.15	87.992	43.402	3.2397e-06	78.321	0.00014734	0.00013487	3.6804e-05	546.71	1.3464e-06	1.483e-06	674.82	215.51	1.3474e-06	1.4986e-06	327.59	141.05	88.136	43.295	1.4149e-06	77.787	107.691	65.393	36.536	-15.690	113.756	134.344	-16.416	-10.504	98.194	123.896	-11.803	-7.726	-7.082	-2.302	149.707	-4.276	-8191	255	
3521.859	1	1	0	0	0.049765	0.21101	0.17324	0.21994	0.056885	0.079008	0.076013	0.14393	0.094531	0.35438	0.15051	0.097361	0.10491	0.084008	0.1877	0.062097	-3.0396	-3.2375	-3.1458	-3.625	-2.9708	-3.2771	-3.4437	-3.1292	-3.2417	-3.3708	-3.2354	-3.5042	-3.2438	-3.3229	-3.4354	-3.1125	261.238	20.364	275.843	-5.774	327.874	163.521	87.254	230.680	146.603	144.850	280.009	-23.881	311.905	241.590	-10.205	233.559	0.00046503	0.00037662	0.00014481	547.59	9.5726e-07	4.2701e-06	676.09	218.28	2.1374e-06	3.1443e-06	328.1	142.18	88.738	43.306	2.5983e-06	78.585	0.00014986	0.00013827	3.5723e-05	547.24	1.3991e-06	1.4707e-06	676.15	216.58	1.3989e-06	1.4791e-06	327.8	141.36	88.364	43.256	1.3813e-06	78.07	109.839	39.710	49.308	-15.688	159.113	97.453	-16.501	-10.559	103.131	134.142	-11.937	-7.975	-7.013	-2.517	135.760	-4.445	-8191	255	
3521.955	1	1	0	0	0.050181	0.1068	0.16958	0.07367	0.11843	0.10083	0.08551	0.048733	0.10271	0.28155	0.14342	0.006178	0.17206	0.096611	0.13727	0.1365	-2.8958	-3.1333	-2.9521	-3.5354	-3.1917	-3.2708	-3.2271	-2.9917	-3.3604	-3.2562	-3.0938	-3.6292	-3.0354	-3.2438	-3.3479	-3.1167	119.596	217.539	155.438	313.493	256.939	147.611	-13.600	161.870	80.923	154.775	-9.591	16.490	187.842	240.042	121.675	243.045	0.00050606	0.00036085	0.00019132	547.88	2.273e-06	4.2793e-06	677.37	216.76	2.3418e-06	6.5604e-06	333.11	142.31	88.555	43.548	2.934e-06	79.114	0.00015825	0.00013568	3.4778e-05	548.31	1.4555e-06	1.4436e-06	677.14	216.42	1.4559e-06	1.4391e-06	329.51	141.87	88.324	43.413	1.333e-06	78.623	107.018	56.289	27.634	-15.811	115.725	105.627	-16.525	-10.559	119.779	108.155	-11.956	-7.692	-7.097	-2.236	112.150	-4.336	-8191	255	
3522.074	1	1	0	0	0.14622	0.15255	0.074025	0.13263	0.04383	0.15234	0.20871	0.15096	0.19064	0.051796	0.19408	0.11703	0.15102	0.13578	0.29127	0.065282	-2.9583	-3.2417	-2.9667	-3.7229	-3.2229	-3.2938	-3.7396	-3.1125	-3.3854	-3.4125	-3.0938	-3.5604	-3.3521	-3.2792	-3.3917	-3.15	271.470	-8.709	196.231	222.145	63.589	143.331	233.307	-8.263	303.865	69.992	238.177	61.669	212.594	185.595	290.094	282.774	0.0004848	0.00035409	9.435e-05	547.34	4.3355e-06	2.6195e-06	674.52	216.94	2.5691e-06	3.704e-06	331.48	141.95	88.488	43.483	3.7427e-06	78.906	0.00015916	0.00012966	3.3786e-05	547.9	1.5059e-06	1.4021e-06	675.47	216.56	1.4957e-06	1.3604e-06	329.15	141.76	88.354	43.44	1.2982e-06	78.412	113.043	50.087	56.987	-15.919	125.249	84.491	-16.124	-10.519	108.494	138.319	-11.873	-7.932	-6.978	-2.143	123.859	-4.327	-8191	255	
3522.147	1	1	0	0	0.090691	0.10571	0.16156	0.11903	0.055041	0.12068	0.25845	0.1408	0.12823	0.044126	0.16617	0.25078	0.18045	0.27112	0.1629	0.32951	-2.8875	-3.3125	-3.0479	-3.4146	-3.1896	-3.2042	-3.3833	-3	-3.2313	-3.2604	-3.2917	-3.6208	-3.2833	-3.25	-3.4417	-3.0062	135.092	35.014	49.400	275.949	11.650	94.244	177.880	-4.498	222.706	108.836	-12.504	-16.226	314.627	248.384	139.641	262.048	0.000487	0.00042052	0.00012244	547.03	2.487e-06	5.0094e-06	674.16	215.32	4.8816e-06	4.3064e-06	329.59	140.86	87.958	43.135	3.5046e-06	78.048	0.00015854	0.00012476	3.31e-05	546.9	1.4553e-06	1.3461e-06	673.51	215.35	1.458e-06	1.342e-06	327	140.61	87.921	43.13	1.3137e-06	77.781	105.723	64.952	54.589	-15.833	130.565	134.295	-16.320	-10.619	110.150	132.191	-12.013	-7.923	-7.008	-2.401	123.879	-4.426	-8191	255	
3522.266	1	1	0	0	0.17042	0.11812	0.093975	0.33718	0.35854	0.030795	0.26548	0.12944	0.37054	0.083131	0.079977	0.092256	0.35401	0.27241	0.40192	0.26519	-2.8354	-3.3083	-3.1104	-3.2583	-3.2687	-2.8958	-3.4771	-3.2417	-3.0563	-3.5021	-3.0771	-3.4833	-3.4938	-2.9437	-3.4458	-3.4188	328.205	38.388	235.682	301.401	220.998	-6.203	280.637	192.243	54.018	232.797	260.657	223.878	-1.567	313.775	149.380	178.631	0.0004929	0.00046589	0.00010354	549.29	4.9079e-06	4.498e-06	672.86	216.8	4.7775e-06	2.8963e-06	330.85	141.68	88.112	43.292	2.6985e-06	78.954	0.00015543	0.0001213	3.2445e-05	547.44	1.4102e-06	1.301e-06	674.15	216.49	1.4288e-06	1.3182e-06	328.39	141.21	87.983	43.212	1.3365e-06	78.245	108.276	45.336	61.556	-15.774	123.613	107.488	-16.303	-10.317	109.939	163.665	-12.020	-7.749	-7.069	-2.272	140.348	-4.411	-8191	255	
3522.362	1	1	0	0	0.057679	0.12713	0.071586	0.26031	0.25088	0.19549	0.16198	0.21971	0.22281	0.12616	0.027864	0.16464	0.10416	0.085408	0.20209	0.26637	-2.6083	-3.4271	-2.9958	-3.3417	-3.3229	-2.8875	-3.5083	-3.2938	-3.1417	-3.6167	-3.2062	-3.3958	-3.3417	-3.0542	-3.4792	-3.4542	221.452	284.270	283.813	216.735	-14.453	75.708	302.031	-21.851	51.710	131.968	168.365	-11.756	250.464	-11.084	72.466	-13.317	0.00044834	0.00047215	0.0001383	546.57	4.2441e-06	3.6528e-06	676.25	216.65	3.965e-06	4.5772e-06	331.84	142.1	88.478	43.498	2.579e-06	79.108	0.00015325	0.00011893	3.4074e-05	548.05	1.3924e-06	1.3097e-06	676.19	216.85	1.3822e-06	1.293e-06	329.99	142.09	88.387	43.509	1.3946e-06	78.774	109.656	53.218	66.678	-15.865	111.533	104.548	-16.336	-10.426	101.544	106.957	-11.922	-8.139	-7.060	-2.320	140.120	-4.556	-8191	255	
3522.459	1	1	0	0	0.12361	0.035283	0.28918	0.13322	0.10349	0.079237	0.091982	0.048273	0.16779	0.1117	0.18977	0.082948	0.32875	0.20516	0.11942	0.17188	-2.6063	-3.5563	-3.1813	-3.1813	-3.1813	-3.0667	-3.4271	-3.2833	-3.1667	-3.5563	-3.1729	-3.4729	-3.4896	-2.925	-3.4083	-3.3937	10.488	-13.509	290.971	212.146	294.322	291.237	26.356	312.061	-11.856	156.615	249.878	232.958	303.836	293.469	149.292	285.775	0.00045518	0.00048291	0.00016955	545.94	3.381e-06	3.0446e-06	678.97	216.23	3.6068e-06	3.6341e-06	330.85	141.81	88.479	43.16	3.9267e-06	78.362	0.00015028	0.00011923	3.5205e-05	548.19	1.3503e-06	1.2677e-06	676.5	216.33	1.3664e-06	1.2668e-06	328.46	141.36	87.873	43.237	1.4357e-06	77.892	105.604	61.995	51.605	-15.770	124.545	95.724	-16.514	-10.314	133.018	104.674	-11.700	-7.795	-7.030	-2.405	169.090	-4.372	-8191	255	
3522.555	1	1	0	0	0.08563	0.07948	0.071598	0.24495	0.060954	0.22362	0.066756	0.13443	0.1317	0.16388	0.076723	0.12827	0.16995	0.37516	0.081423	0.32868	-2.4062	-3.4875	-3.0354	-3.2188	-3.3979	-3.0187	-3.4521	-3.3083	-2.8979	-3.5292	-3.1917	-3.3438	-3.6125	-3.0604	-3.35	-3.4375	104.040	92.372	28.247	-4.187	168.636	242.585	235.037	4.843	242.296	132.692	288.183	-3.340	-0.243	255.462	237.954	301.117	0.00045859	0.00041018	0.0001024	544.94	4.4384e-06	6.4358e-06	669.95	216	1.6555e-06	3.5438e-06	328.49	140.22	87.652	43.143	2.1193e-06	78.177	0.00014619	0.00011678	3.6637e-05	544.26	1.309e-06	1.3006e-06	671.11	215.28	1.3291e-06	1.2879e-06	326.49	140.31	87.402	43.098	1.483e-06	77.653	104.248	47.665	52.348	-15.801	105.525	92.590	-16.264	-10.344	132.064	118.023	-11.759	-7.886	-7.155	-2.422	145.022	-4.376	-8191	255	
3522.675	1	1	0	0	0.17035	0.07903	0.12594	0.045754	0.059931	0.019145	0.074133	0.058561	0.094787	0.040639	0.13071	0.077531	0.12262	0.22639	0.076156	0.080399	-2.6583	-3.4083	-3.1	-3.0479	-3.5979	-3.1521	-3.2833	-3.3167	-3.0271	-3.4375	-3.3729	-3.2792	-3.6104	-3.0479	-3.3812	-3.6229	217.828	76.726	71.828	284.624	47.252	131.841	330.035	282.114	-20.743	75.103	4.333	279.522	35.380	318.914	315.408	242.447	0.00043302	0.00029932	0.00011205	540.76	3.5293e-06	4.7506e-06	669.81	216.18	2.7599e-06	3.967e-06	329.78	141.67	87.538	43.249	1.6892e-06	78.676	0.00014358	0.00011894	3.6739e-05	542.47	1.281e-06	1.3642e-06	672.27	215.57	1.3051e-06	1.3594e-06	328.07	140.99	87.617	43.277	1.4874e-06	78.152	111.579	72.555	77.509	-15.786	97.995	128.177	-16.453	-10.305	98.711	135.937	-11.749	-7.870	-6.912	-2.285	98.691	-4.305	-8191	255	
3522.747	1	1	0	0	0.12925	0.047844	0.30631	0.11869	0.1873	0.013221	0.092983	0.30947	0.19857	0.2517	0.093573	0.25904	0.18484	0.101	0.17197	0.14853	-2.4667	-3.1833	-3.0646	-3.0104	-3.3667	-3.2438	-3.3896	-3.5	-2.9646	-3.4792	-3.2771	-3.4062	-3.5667	-3.2583	-3.4	-3.5646	305.994	98.142	253.215	226.271	41.889	-15.324	261.534	306.359	162.816	287.367	320.257	319.843	235.105	205.910	-3.711	291.630	0.00049666	0.00042983	0.00014516	543.63	2.749e-06	3.316e-06	671.95	216.32	5.0143e-06	4.7514e-06	331.79	141.8	88.183	43.428	2.5711e-06	78.85	0.00014538	0.00013019	3.774e-05	543.7	1.2764e-06	1.4255e-06	674.66	215.64	1.3142e-06	1.4646e-06	329.76	141.5	87.935	43.412	1.442e-06	78.42	109.189	40.789	71.003	-15.687	113.952	87.926	-16.539	-10.526	131.125	132.566	-11.969	-7.685	-7.070	-2.360	132.921	-4.271	-8191	255	
3522.843	1	1	0	0	0.11352	0.24419	0.045025	0.13243	0.25842	0.15828	0.048545	0.10142	0.2086	0.13006	0.27034	0.1853	0.17413	0.23802	0.2542	0.27535	-2.6312	-3.3646	-3.2333	-3.0708	-3.5021	-3.2208	-3.2396	-3.3979	-3.075	-3.5208	-3.3354	-3.1312	-3.4813	-3.2521	-3.225	-3.55	254.354	313.947	187.101	24.721	285.106	0.126	327.655	327.270	114.221	76.641	-11.751	234.779	309.980	245.273	6.353	256.635	0.00047442	0.00045511	0.00011435	546.99	3.3171e-06	5.393e-06	671.22	216.19	6.5582e-06	3.3877e-06	330.85	140.9	87.668	43.138	2.9303e-06	77.988	0.00014631	0.00013384	3.6494e-05	545.44	1.3136e-06	1.4823e-06	671.79	215.67	1.3354e-06	1.4748e-06	326.99	140.37	87.542	43.136	1.3953e-06	77.471	108.258	75.115	68.613	-15.844	136.265	72.461	-16.386	-10.740	107.958	107.809	-12.048	-7.821	-7.048	-2.293	165.341	-4.397	-8191	255	
3522.962	1	1	0	0	0.2837	0.06749	0.12407	0.38761	0.078892	0.13806	0.19102	0.043929	0.19656	0.17949	0.10369	0.11375	0.25887	0.060951	0.25884	0.274	-2.4313	-3.2812	-3.2854	-3.3396	-3.4437	-3.15	-3.0208	-3.4979	-3.1354	-3.4042	-3.5229	-3.0771	-3.3896	-3.1396	-3.1813	-3.625	255.054	301.982	39.455	281.963	-5.471	192.968	254.020	109.126	163.537	293.799	67.959	0.691	114.051	242.696	187.522	262.914	0.00049763	0.00038406	0.00010978	544.33	2.5294e-06	3.1525e-06	671.68	215.62	3.4472e-06	2.9422e-06	328.65	140.46	88.082	43.105	3.0585e-06	77.945	0.00014791	0.00013329	3.4765e-05	542.78	1.392e-06	1.4481e-06	669.83	214.64	1.3995e-06	1.4614e-06	326.24	140.31	87.728	43.108	1.3585e-06	77.471	108.547	35.478	63.642	-15.931	119.156	114.644	-16.302	-10.447	113.725	113.523	-11.666	-7.905	-7.201	-2.393	145.023	-4.420	-8191	255	
3523.058	1	1	0	0	0.1966	0.040863	0.17816	0.052726	0.30805	0.33068	0.3852	0.15499	0.20553	0.2071	0.3592	0.28502	0.056458	0.051056	0.25341	0.25351	-2.6167	-3.2396	-3.3417	-2.9292	-3.2854	-3.2708	-3.0104	-3.5604	-3.1167	-3.1125	-3.5292	-2.9354	-3.4042	-3.4062	-2.9688	-3.6167	227.498	44.753	287.267	32.183	330.076	32.971	272.084	-9.668	269.212	-9.180	237.434	255.232	148.820	140.536	32.767	289.708	0.00048848	0.00075136	0.00015941	543.39	4.4531e-06	4.9059e-06	672.01	214.51	3.7821e-06	2.1921e-06	329.42	140.92	88.188	43.045	4.4155e-06	78.405	0.00015616	0.00013328	3.3809e-05	543.24	1.4527e-06	1.4332e-06	670.69	214.54	1.4782e-06	1.4319e-06	327.4	140.42	87.849	43.174	1.3404e-06	77.697	107.901	65.610	67.889	-15.834	132.207	104.498	-16.503	-10.387	122.425	115.398	-11.851	-7.964	-7.023	-2.253	151.007	-4.423	-8191	255	
#DATA ENDS
