BOXY.EXE: ISS Imagent and Oximeter Data Acquisition Program Version 0.80
Ascii Record File

#ACQ INFORMATION
2  Detector Channels 
16  External MUX Channels 
1  Auxiliary Channels 
5000  Waveform (CCF) Frequency (Hz)
1  Waveforms Skipped 
30  Waveforms Averaged 
1  Cycles Averaged 
16  Acquisitions per Waveform 
10.0806  Updata Rate (Hz) 

#FILE INFORMATION
TRUE -- External MUX Channel results are PARSED.
FALSE -- AC DC and Phase are NOT grouped.
TRUE -- Companion Program Settings File CREATED.
FALSE -- AC data not excluded
FALSE -- DC data not excluded
FALSE -- Phase data not excluded
FALSE -- Auxillary Chn. data not excluded
Tab delimiters

#CALIBRATION STATE
TRUE -- Waveform Calibration Values APPLIED.


#AUX CALIBRATION VALUES
Val Type	aux-1	

Term	1.0000e+00	
Factor	0.0000e+00	


#WF CALIBRATION VALUES
A = Detector Channel
Val Type	A-AC1	A-AC2	A-AC3	A-AC4	A-AC5	A-AC6	A-AC7	A-AC8	A-AC9	A-AC10	A-AC11	A-AC12	A-AC13	A-AC14	A-AC15	A-AC16	A-DC1	A-DC2	A-DC3	A-DC4	A-DC5	A-DC6	A-DC7	A-DC8	A-DC9	A-DC10	A-DC11	A-DC12	A-DC13	A-DC14	A-DC15	A-DC16	A-Ph1	A-Ph2	A-Ph3	A-Ph4	A-Ph5	A-Ph6	A-Ph7	A-Ph8	A-Ph9	A-Ph10	A-Ph11	A-Ph12	A-Ph13	A-Ph14	A-Ph15	A-Ph16	

Term	0.00000e+00	0.00000e+00	0.00000e+00	0.00000e+00	0.00000e+00	0.00000e+00	0.00000e+00	0.00000e+00	0.00000e+00	0.00000e+00	0.00000e+00	0.00000e+00	0.00000e+00	0.00000e+00	0.00000e+00	0.00000e+00	0.00000e+00	0.00000e+00	0.00000e+00	0.00000e+00	0.00000e+00	0.00000e+00	0.00000e+00	0.00000e+00	0.00000e+00	0.00000e+00	0.00000e+00	0.00000e+00	0.00000e+00	0.00000e+00	0.00000e+00	0.00000e+00	0.00000e+00	0.00000e+00	0.00000e+00	0.00000e+00	0.00000e+00	0.00000e+00	0.00000e+00	0.00000e+00	0.00000e+00	0.00000e+00	0.00000e+00	0.00000e+00	0.00000e+00	0.00000e+00	0.00000e+00	0.00000e+00	
Factor	1.00000e+00	1.00000e+00	1.00000e+00	1.00000e+00	1.00000e+00	1.00000e+00	1.00000e+00	1.00000e+00	1.00000e+00	1.00000e+00	1.00000e+00	1.00000e+00	1.00000e+00	1.00000e+00	1.00000e+00	1.00000e+00	1.00000e+00	1.00000e+00	1.00000e+00	1.00000e+00	1.00000e+00	1.00000e+00	1.00000e+00	1.00000e+00	1.00000e+00	1.00000e+00	1.00000e+00	1.00000e+00	1.00000e+00	1.00000e+00	1.00000e+00	1.00000e+00	X	X	X	X	X	X	X	X	X	X	X	X	X	X	X	X	

B = Detector Channel
Val Type	B-AC1	B-AC2	B-AC3	B-AC4	B-AC5	B-AC6	B-AC7	B-AC8	B-AC9	B-AC10	B-AC11	B-AC12	B-AC13	B-AC14	B-AC15	B-AC16	B-DC1	B-DC2	B-DC3	B-DC4	B-DC5	B-DC6	B-DC7	B-DC8	B-DC9	B-DC10	B-DC11	B-DC12	B-DC13	B-DC14	B-DC15	B-DC16	B-Ph1	B-Ph2	B-Ph3	B-Ph4	B-Ph5	B-Ph6	B-Ph7	B-Ph8	B-Ph9	B-Ph10	B-Ph11	B-Ph12	B-Ph13	B-Ph14	B-Ph15	B-Ph16	

Term	0.00000e+00	0.00000e+00	0.00000e+00	0.00000e+00	0.00000e+00	0.00000e+00	0.00000e+00	0.00000e+00	0.00000e+00	0.00000e+00	0.00000e+00	0.00000e+00	0.00000e+00	0.00000e+00	0.00000e+00	0.00000e+00	0.00000e+00	0.00000e+00	0.00000e+00	0.00000e+00	0.00000e+00	0.00000e+00	0.00000e+00	0.00000e+00	0.00000e+00	0.00000e+00	0.00000e+00	0.00000e+00	0.00000e+00	0.00000e+00	0.00000e+00	0.00000e+00	-6.15763e+01	-1.30411e+02	-1.24549e+02	-1.82143e+02	-5.62854e+01	-6.13144e+01	-1.55749e+02	-1.62015e+02	-4.36545e+01	-5.84641e+01	-1.71172e+02	-1.71176e+02	-1.81653e+02	-1.77264e+02	-5.75505e+01	-1.50260e+02	
Factor	1.84335e-05	1.52056e-04	4.43642e-05	4.71444e-01	1.63633e-06	1.83727e-06	1.70005e-01	5.70259e-02	1.24874e-06	1.86029e-06	9.06459e-02	2.89522e-02	2.44098e-02	8.74298e-03	1.46882e-06	1.28138e-02	7.07437e-06	9.43660e-06	2.63415e-06	2.38107e-01	1.02249e-07	1.04931e-07	8.15064e-02	2.91262e-02	9.98385e-08	1.04856e-07	4.47650e-02	1.44068e-02	1.26248e-02	4.50497e-03	1.02288e-07	6.38331e-03	X	X	X	X	X	X	X	X	X	X	X	X	X	X	X	X	



#DISTANCE SETTINGS
A = Detector Channel
A-1	A-2	A-3	A-4	A-5	A-6	A-7	A-8	A-9	A-10	A-11	A-12	A-13	A-14	A-15	A-16	

2.5000e+00	3.0000e+00	2.5000e+00	3.0000e+00	2.0000e+00	3.0000e+00	1.5000e+00	3.0000e+00	3.0000e+00	3.0000e+00	3.0000e+00	3.0000e+00	3.0000e+00	3.0000e+00	1.5000e+00	3.0000e+00	

B = Detector Channel
B-1	B-2	B-3	B-4	B-5	B-6	B-7	B-8	B-9	B-10	B-11	B-12	B-13	B-14	B-15	B-16	

1.0000e+01	1.0000e+01	1.0000e+01	1.4400e+00	1.0000e+01	1.0000e+01	1.5100e+00	1.9400e+00	1.0000e+01	1.0000e+01	1.9900e+00	2.4900e+00	2.4100e+00	2.9000e+00	1.0000e+01	2.9800e+00	




#DATA BEGINS
time	group	step	mark	flag	A-AC1	A-AC2	A-AC3	A-AC4	A-AC5	A-AC6	A-AC7	A-AC8	A-AC9	A-AC10	A-AC11	A-AC12	A-AC13	A-AC14	A-AC15	A-AC16	A-DC1	A-DC2	A-DC3	A-DC4	A-DC5	A-DC6	A-DC7	A-DC8	A-DC9	A-DC10	A-DC11	A-DC12	A-DC13	A-DC14	A-DC15	A-DC16	A-Ph1	A-Ph2	A-Ph3	A-Ph4	A-Ph5	A-Ph6	A-Ph7	A-Ph8	A-Ph9	A-Ph10	A-Ph11	A-Ph12	A-Ph13	A-Ph14	A-Ph15	A-Ph16	B-AC1	B-AC2	B-AC3	B-AC4	B-AC5	B-AC6	B-AC7	B-AC8	B-AC9	B-AC10	B-AC11	B-AC12	B-AC13	B-AC14	B-AC15	B-AC16	B-DC1	B-DC2	B-DC3	B-DC4	B-DC5	B-DC6	B-DC7	B-DC8	B-DC9	B-DC10	B-DC11	B-DC12	B-DC13	B-DC14	B-DC15	B-DC16	B-Ph1	B-Ph2	B-Ph3	B-Ph4	B-Ph5	B-Ph6	B-Ph7	B-Ph8	B-Ph9	B-Ph10	B-Ph11	B-Ph12	B-Ph13	B-Ph14	B-Ph15	B-Ph16	aux-1	digaux	

18102.471	1	1	0	256	0.050572	0.25168	0.060003	0.17391	0.18819	0.066585	0.27447	0.13859	0.20774	0.11273	0.14049	0.16541	0.081	0.22332	0.22782	0.15634	-2.5521	-2.5938	-2.6937	-2.7188	-2.5687	-2.7417	-2.9208	-2.4688	-2.9521	-2.6625	-2.8229	-2.8937	-2.4708	-2.8021	-2.7104	-2.7625	446.165	368.460	247.743	220.795	314.784	258.122	455.230	475.353	258.171	431.346	302.297	157.721	411.122	326.749	216.569	149.729	0.00030258	0.0002505	8.8776e-05	1168.6	2.7218e-06	3.8778e-06	1231.2	245.34	2.9747e-06	2.0903e-06	304.75	84.632	66.162	19.142	3.7218e-06	26.98	0.00023683	0.00021433	6.1288e-05	1149	2.4086e-06	2.3325e-06	1214.1	243.08	2.4371e-06	2.4095e-06	302.89	84.578	66.285	19.256	2.4391e-06	27.271	261.280	227.599	226.567	159.713	328.127	299.290	159.779	167.320	298.443	290.996	166.761	173.454	173.838	180.647	305.031	180.456	-8191	255	
18102.592	1	1	0	0	0.22424	0.053709	0.1629	0.17067	0.18447	0.045765	0.018927	0.075333	0.15128	0.21519	0.33876	0.1383	0.16897	0.22409	0.17266	0.17129	-2.5604	-2.6396	-2.675	-2.9938	-2.475	-2.9229	-3.0187	-2.6458	-2.85	-2.5896	-2.9708	-3.0083	-2.6271	-2.9625	-2.7438	-2.6792	421.246	485.836	293.583	408.451	491.450	153.512	307.397	390.110	450.229	260.919	441.353	449.253	191.083	480.201	174.194	505.058	0.0002887	0.00036768	5.6209e-05	1177.9	2.617e-06	2.2998e-06	1236	246.3	2.6603e-06	5.187e-06	304.67	84.512	66.323	19.112	3.3556e-06	26.854	0.00024517	0.00024203	6.3692e-05	1154	2.5684e-06	2.6683e-06	1218.1	243.8	2.727e-06	2.6581e-06	303.84	84.511	66.42	19.345	2.8651e-06	27.259	262.336	238.233	226.077	160.205	317.189	287.151	160.015	167.237	313.865	298.046	166.553	173.486	173.775	180.587	297.979	180.509	-8191	255	
18102.688	1	1	0	0	0.18468	0.074641	0.2505	0.076654	0.26054	0.13892	0.2192	0.16803	0.081248	0.054952	0.091476	0.15937	0.09554	0.054079	0.18824	0.14873	-2.2854	-2.5604	-2.7188	-2.9188	-2.5563	-2.6375	-3.0625	-2.6917	-3.025	-2.7313	-2.6146	-2.9625	-2.675	-2.8438	-2.6625	-2.6208	404.686	351.377	434.591	393.702	264.711	209.624	468.799	350.449	272.212	362.052	243.950	496.372	197.961	392.654	486.267	159.068	0.00028363	0.00031012	9.639e-05	1182.2	4.1793e-06	3.5664e-06	1238.1	246.23	3.0275e-06	2.7367e-06	305.63	84.343	66.103	19.276	1.002e-06	26.791	0.00027161	0.00025202	7.1012e-05	1160.6	2.9092e-06	2.8775e-06	1223.6	243.86	2.959e-06	2.9504e-06	303.53	84.225	66.228	19.27	3.0699e-06	27.137	257.971	231.246	240.232	160.166	279.476	319.945	159.876	167.101	316.531	312.376	166.684	173.585	174.059	180.936	239.986	180.022	-8191	255	
18102.760	1	1	0	0	0.13926	0.16179	0.10593	0.1949	0.07206	0.17094	0.32103	0.31675	0.10453	0.18117	0.31082	0.18703	0.20131	0.11578	0.13503	0.13647	-2.3187	-2.6688	-2.4125	-2.8333	-2.5938	-2.8667	-2.8396	-2.7271	-2.8854	-2.7417	-2.5438	-2.9292	-2.7854	-2.5583	-2.8208	-2.4896	207.080	388.800	240.002	265.008	237.134	370.891	451.253	448.787	440.797	285.828	447.646	429.728	151.889	450.769	287.896	420.341	0.00029595	0.00043822	4.1409e-05	1191.2	4.1276e-06	3.5446e-06	1247.8	245.84	2.9087e-06	2.6251e-06	305.68	83.67	66.249	18.903	1.0063e-06	26.728	0.00028539	0.00026822	7.8942e-05	1166.7	3.0543e-06	3.0074e-06	1229.1	243.72	3.1861e-06	3.1199e-06	303.47	83.861	66.237	19.169	3.1017e-06	27.088	255.734	233.363	231.615	159.749	289.528	303.300	160.050	167.087	333.969	299.799	166.637	173.299	173.645	180.466	241.444	180.466	-8191	255	
18102.879	1	1	0	0	0.20703	0.14031	0.40309	0.19747	0.040756	0.0672	0.15397	0.29925	0.064745	0.14871	0.23059	0.087996	0.027479	0.13431	0.25672	0.20101	-2.4688	-2.8563	-2.5062	-2.9938	-2.4437	-2.6979	-3.05	-2.4938	-2.775	-2.7708	-2.6292	-3.0708	-2.6292	-2.8625	-3.0125	-2.6542	195.610	363.421	193.408	473.941	179.370	376.701	420.869	248.017	270.566	297.365	178.223	365.780	194.908	497.504	317.482	488.607	0.00029062	0.00036489	0.00012535	1184.8	3.2764e-06	3.2684e-06	1245.4	243.31	3.0596e-06	3.0869e-06	300.56	83.374	66.177	18.907	3.9613e-06	26.505	0.00029306	0.00029831	8.2251e-05	1166.3	3.3644e-06	3.3252e-06	1229.1	242.25	3.4471e-06	3.3469e-06	301.05	83.74	66.122	19.157	3.4665e-06	26.918	258.357	233.886	238.410	160.077	302.040	351.341	160.080	167.075	290.080	332.468	167.048	173.177	173.858	180.839	317.190	179.953	-8191	255	
18102.975	1	1	0	0	0.18037	0.10744	0.21083	0.21503	0.41174	0.24462	0.30054	0.25178	0.082659	0.10334	0.22248	0.086063	0.15987	0.17023	0.15218	0.24007	-2.4042	-2.6479	-2.45	-3.0417	-2.6354	-2.4833	-3.0021	-2.6646	-2.6771	-2.6875	-2.65	-2.9104	-2.8167	-2.5542	-3.0146	-2.6813	499.950	321.554	224.638	387.806	346.572	224.718	369.965	504.172	501.353	194.484	446.645	414.524	308.174	201.582	268.253	198.760	0.00031262	0.00034485	0.00015154	1182.8	1.7257e-06	4.3815e-06	1247.2	245.22	3.6388e-06	3.7043e-06	303.39	84.254	66.399	18.911	4.7774e-06	26.676	0.00030891	0.00031554	8.9128e-05	1165	3.5346e-06	3.4782e-06	1229.8	242.33	3.5104e-06	3.4998e-06	302.37	84.001	66.078	19.146	3.4801e-06	26.982	261.912	249.113	237.488	159.845	315.180	306.090	160.032	167.151	327.189	298.101	166.870	173.452	173.549	180.851	328.510	180.103	-8191	255	
18103.070	1	1	0	0	0.041937	0.16242	0.12627	0.42516	0.40447	0.20466	0.16634	0.31072	0.24044	0.14572	0.26517	0.038084	0.17685	0.14911	0.19542	0.41809	-2.3937	-2.9479	-2.3521	-2.9125	-2.6083	-2.6292	-3.0417	-2.7333	-2.7188	-2.9229	-2.5104	-2.9062	-2.6937	-2.425	-2.9583	-2.6604	499.802	209.919	436.883	494.149	341.863	163.881	441.666	457.274	452.060	451.635	399.391	162.268	457.568	311.073	319.492	413.961	0.00028507	0.00024656	4.0367e-05	1186	2.9445e-06	4.9325e-06	1248	245.06	2.2946e-06	2.597e-06	303.05	83.313	66.01	18.846	2.3339e-06	26.492	0.00031407	0.00030944	8.5873e-05	1170.5	3.4349e-06	3.3252e-06	1230.2	242.19	3.3417e-06	3.1262e-06	301.12	83.621	66.03	19.074	3.2331e-06	26.902	259.285	227.945	232.875	160.120	312.411	305.692	159.992	167.246	308.277	297.724	166.638	173.404	174.171	180.592	287.611	180.130	-8191	255	
18103.166	1	1	0	0	0.18382	0.29967	0.074278	0.15721	0.34342	0.038636	0.12075	0.11632	0.06082	0.18878	0.26069	0.16295	0.15299	0.069838	0.31834	0.14381	-2.1958	-2.8	-2.6625	-2.9	-2.6167	-2.35	-3.1708	-2.6854	-2.7458	-2.9104	-2.4813	-2.8021	-2.8417	-2.5042	-3.0708	-2.8792	185.713	341.147	374.140	158.689	469.252	228.058	447.281	441.116	443.844	405.385	476.912	318.009	296.327	296.589	269.001	415.753	0.00027605	0.00031951	0.00012242	1188.3	4.4299e-06	1.9652e-06	1248.4	243.81	3.8866e-06	3.0829e-06	303.41	83.396	66.013	18.9	3.3386e-06	26.614	0.00030284	0.00029841	8.2295e-05	1165.5	3.2737e-06	3.2445e-06	1231.2	241.65	3.3795e-06	3.3689e-06	301.88	83.878	66.179	19.175	3.393e-06	27.024	263.665	209.906	273.174	160.316	310.611	313.861	160.005	167.133	329.310	380.958	166.701	173.323	173.677	180.568	304.507	180.311	-8191	255	
18103.287	1	1	0	0	0.090738	0.10317	0.1056	0.13149	0.18563	0.14283	0.094352	0.22139	0.17295	0.35864	0.11119	0.20503	0.18134	0.094665	0.12176	0.087819	-2.1896	-2.7896	-2.5771	-2.8729	-2.8917	-2.6562	-3.0563	-2.7229	-2.6958	-3.0208	-2.7667	-2.6875	-2.9604	-2.3354	-2.8458	-2.7208	151.203	444.309	413.021	348.911	380.963	333.249	409.158	470.056	318.259	285.809	209.077	409.380	154.277	177.218	259.451	163.054	0.00030592	0.00028089	0.00016293	1189.5	4.2529e-06	4.7153e-06	1243.7	244.19	3.5778e-06	3.6087e-06	301.93	83.658	66.11	18.936	2.7004e-06	26.611	0.00031252	0.00031636	8.5945e-05	1170.2	3.4488e-06	3.407e-06	1230.5	242.4	3.4453e-06	3.3809e-06	301.14	83.979	66.04	19.149	3.3644e-06	26.99	256.167	210.701	264.103	159.917	300.704	310.708	159.974	166.923	318.177	323.855	166.592	173.511	174.073	180.764	320.358	180.301	-8191	255	
18103.383	1	1	0	0	0.054658	0.15514	0.11122	0.29268	0.15928	0.14973	0.11361	0.19397	0.20238	0.092113	0.077159	0.26077	0.1003	0.32529	0.14203	0.1266	-1.925	-2.875	-2.5062	-2.8396	-2.9729	-2.5625	-3.2021	-2.7938	-2.4375	-2.7875	-2.5792	-2.7646	-2.9729	-2.6604	-2.8021	-2.8125	390.000	224.456	489.415	371.849	235.001	221.264	403.847	173.892	404.758	476.539	391.216	175.360	162.122	438.800	282.986	351.088	0.00030149	0.00026407	8.5291e-05	1178.8	3.6882e-06	1.5669e-06	1237.4	243.6	3.1053e-06	3.7844e-06	302.27	83.283	65.614	18.836	4.9578e-06	26.652	0.00029334	0.00029888	8.4666e-05	1159.7	3.3129e-06	3.3202e-06	1221.7	241.16	3.3415e-06	3.3073e-06	300.17	83.652	65.872	19.147	3.3749e-06	27.039	260.368	219.598	224.682	159.965	293.920	281.327	159.959	167.211	363.135	312.756	166.811	173.755	173.787	181.020	316.245	180.040	-8191	255	
18103.455	1	1	0	0	0.25252	0.38766	0.23705	0.20523	0.14322	0.2084	0.27999	0.20139	0.13948	0.21701	0.25277	0.21977	0.19105	0.34897	0.084905	0.29682	-2.2604	-2.8708	-2.6437	-2.9021	-2.9521	-2.7479	-2.9604	-2.7125	-2.3896	-3.0104	-2.75	-2.5667	-2.9854	-2.5917	-2.7271	-2.8979	296.615	487.635	288.476	424.043	415.192	262.163	448.717	409.520	189.322	506.436	199.763	324.852	209.213	482.165	504.114	473.104	0.00030203	0.00035515	6.3473e-05	1181.4	2.8796e-06	4.365e-06	1239.6	243.98	3.2293e-06	4.7364e-06	300.45	83.083	65.37	18.932	1.4997e-06	26.849	0.00031211	0.00030822	8.4704e-05	1162.5	3.5453e-06	3.5018e-06	1224.4	241.25	3.6071e-06	3.503e-06	299.74	83.507	65.833	19.138	3.5617e-06	27.033	266.123	271.543	207.777	159.748	315.257	296.648	160.065	167.259	316.542	292.572	166.489	173.249	173.966	180.846	286.703	180.491	-8191	255	
18103.551	1	1	0	0	0.15574	0.21385	0.082702	0.079692	0.10225	0.42415	0.23676	0.24205	0.30965	0.15594	0.22123	0.15169	0.05997	0.19323	0.08065	0.23602	-2.0896	-2.8438	-2.7021	-2.7292	-2.825	-2.3979	-2.9729	-2.825	-2.5333	-2.8771	-2.8208	-2.7646	-2.825	-2.3937	-2.5458	-2.8667	176.269	218.348	301.589	397.238	322.667	278.608	151.081	432.216	416.147	282.770	462.550	417.651	505.830	461.240	320.264	217.276	0.000278	0.00034232	5.7148e-05	1182.5	3.5703e-06	2.3162e-06	1242	243.09	3.928e-06	2.3267e-06	303.4	83.516	65.816	18.831	2.5933e-06	26.718	0.00032838	0.00031703	9.2086e-05	1161.5	3.5723e-06	3.5943e-06	1226.4	241.29	3.7069e-06	3.6606e-06	301.38	83.753	66.039	19.147	3.7772e-06	27.103	267.973	261.094	261.267	159.965	316.598	326.824	159.868	167.237	298.274	292.701	166.952	173.525	173.646	180.694	330.797	180.231	-8191	255	
18103.672	1	1	0	0	0.23584	0.17616	0.2707	0.10748	0.12895	0.12005	0.38064	0.16524	0.13259	0.2584	0.082583	0.29487	0.11657	0.1708	0.13882	0.15808	-2.1333	-2.7646	-2.6813	-2.6292	-3.0396	-2.55	-2.8979	-2.9333	-2.5812	-2.9521	-2.8312	-2.5708	-2.8083	-2.7021	-2.6188	-2.8917	206.931	174.311	154.048	400.194	465.812	156.314	432.159	374.195	405.081	316.851	457.845	189.634	157.258	479.613	411.193	454.283	0.00030464	0.00017114	0.00013513	1185.2	4.3317e-06	5.5462e-06	1245.1	242.56	4.9727e-06	2.5936e-06	303.17	83.73	66.079	19.115	3.2308e-06	26.475	0.00033416	0.00034872	9.6454e-05	1165.2	3.7491e-06	3.7714e-06	1229.3	241.39	3.8769e-06	3.6413e-06	301.6	83.83	66.134	19.296	3.761e-06	27.005	260.186	268.049	211.723	159.769	277.740	295.796	159.907	167.490	309.303	314.909	166.620	173.240	173.754	180.733	321.931	179.878	-8191	255	
18103.768	1	1	0	0	0.13156	0.21717	0.16127	0.048143	0.21667	0.27982	0.18591	0.02098	0.11593	0.17515	0.14261	0.038637	0.27567	0.020001	0.23915	0.18721	-2.1604	-2.6146	-2.8208	-2.5438	-2.9708	-2.6125	-2.7458	-2.9708	-2.6979	-2.8563	-2.7917	-2.5938	-2.8292	-2.7792	-2.4604	-2.8167	483.142	314.198	217.120	173.969	220.627	237.181	495.089	216.640	264.629	234.682	294.799	201.167	504.010	480.330	404.035	161.851	0.00027075	0.00031382	0.00010892	1183.7	3.0516e-06	4.3607e-06	1243.3	244.18	2.6308e-06	3.2232e-06	302.23	84.107	66.138	18.987	3.6923e-06	26.73	0.00033303	0.00033891	9.472e-05	1167.3	3.6633e-06	3.6302e-06	1228	242.03	3.6487e-06	3.5535e-06	301.53	84.179	66.23	19.256	3.4927e-06	27.166	259.034	216.263	228.938	160.103	328.396	312.722	159.948	167.272	320.089	312.785	166.754	173.263	173.599	180.492	290.227	180.260	-8191	255	
18103.863	1	1	0	0	0.21988	0.25508	0.17503	0.16078	0.27919	0.2992	0.43097	0.22871	0.12477	0.031673	0.18347	0.10449	0.14474	0.12784	0.1898	0.041519	-2.3271	-2.6771	-2.9167	-2.3979	-2.7771	-2.6125	-2.7167	-2.8021	-2.7396	-2.7104	-2.9521	-2.7687	-2.8125	-2.8208	-2.5542	-2.8021	196.986	198.181	467.768	426.706	308.397	336.056	443.741	393.860	242.799	364.329	485.456	455.140	172.202	393.077	226.287	391.960	0.00029452	0.00040981	8.8808e-05	1191.6	2.346e-06	1.709e-06	1248	244.5	2.2619e-06	4.734e-06	303.66	84.154	66.626	19.172	3.1929e-06	26.982	0.00031216	0.00032324	8.7898e-05	1168.4	3.5227e-06	3.5414e-06	1230.4	242.42	3.5135e-06	3.5928e-06	301.97	84.394	66.459	19.355	3.5764e-06	27.303	257.607	247.304	228.036	159.881	329.729	295.536	160.235	167.199	290.976	333.560	166.650	173.333	174.146	180.712	296.650	180.507	-8191	255	
18103.961	1	1	0	0	0.17162	0.077761	0.12003	0.2223	0.10437	0.053996	0.30417	0.11739	0.19877	0.14871	0.28513	0.13566	0.09755	0.086519	0.05791	0.11586	-2.3063	-2.7021	-2.7854	-2.5458	-2.6813	-2.8937	-2.4979	-3.0396	-2.6688	-2.6792	-2.9813	-2.6417	-2.8979	-2.9313	-2.4167	-2.9417	433.707	223.326	167.745	329.005	237.571	493.812	418.173	474.328	427.475	199.467	450.722	173.258	156.331	500.139	234.280	325.578	0.00025719	0.00024804	0.00012782	1183.2	3.5757e-06	4.0422e-06	1244.5	244.37	4.8624e-06	5.3921e-06	303.88	84.318	65.769	19.004	7.7314e-07	26.847	0.00030713	0.00032067	8.8458e-05	1168.4	3.586e-06	3.57e-06	1229.9	242.62	3.6541e-06	3.6201e-06	302.36	84.371	66.388	19.285	3.6399e-06	27.25	264.779	231.960	238.684	160.067	311.153	326.858	159.933	167.311	315.817	285.298	166.676	173.218	174.038	180.578	319.586	180.000	-8191	255	
18104.055	1	1	0	0	0.12893	0.21642	0.11627	0.22029	0.18453	0.13372	0.20992	0.27968	0.068039	0.146	0.17238	0.49484	0.24372	0.19582	0.14494	0.25518	-2.2438	-2.6875	-2.9521	-2.6771	-2.6021	-2.7896	-2.7542	-2.6271	-2.8458	-2.5771	-2.7958	-2.45	-2.7708	-2.6583	-2.5375	-2.9208	449.533	384.804	434.058	410.881	194.361	264.114	480.888	487.262	187.147	420.866	248.035	290.249	236.657	220.305	369.269	367.368	0.00028954	0.00034584	4.4202e-05	1184.2	1.9875e-06	2.5975e-06	1240.1	244.77	3.3002e-06	5.4047e-06	304.62	83.941	66.256	19.125	3.4558e-06	26.809	0.0003256	0.00033193	9.3408e-05	1164.4	3.6652e-06	3.5882e-06	1226.5	242.89	3.6539e-06	3.6354e-06	302.28	84.053	66.383	19.298	3.7312e-06	27.266	263.193	204.774	260.943	159.819	330.022	268.440	159.976	167.058	315.736	304.407	166.543	173.668	173.768	181.022	339.604	180.000	-8191	255	
18104.150	1	1	0	0	0.28256	0.099619	0.25929	0.18666	0.10893	0.075748	0.072857	0.17352	0.097029	0.13807	0.26595	0.11429	0.13285	0.089096	0.19276	0.068118	-2.4708	-2.4583	-2.9208	-2.625	-2.7167	-2.9104	-2.5187	-2.8979	-2.7771	-2.6937	-2.8312	-2.6583	-2.6188	-2.7854	-2.5229	-2.8792	171.395	167.608	169.363	468.196	465.743	429.697	341.804	358.341	149.620	306.855	181.204	449.989	211.184	317.534	268.666	378.831	0.00025398	0.00046547	5.1919e-05	1177.7	2.8243e-06	2.0273e-06	1246	245.4	2.7596e-06	5.2057e-06	303.3	84.196	66.031	19.053	2.9615e-06	26.821	0.00031973	0.00032725	9.0521e-05	1160.3	3.55e-06	3.5469e-06	1228.9	242.95	3.6807e-06	3.6064e-06	302.09	84.249	66.286	19.325	3.4985e-06	27.241	258.397	210.459	293.498	159.874	249.909	324.420	160.160	167.102	325.626	312.696	166.619	173.822	173.874	180.713	301.818	180.185	-8191	255	
18104.271	1	1	0	0	0.099157	0.18212	0.15131	0.15098	0.17102	0.11247	0.32423	0.10295	0.079506	0.065437	0.26329	0.14504	0.32586	0.3043	0.1276	0.15946	-2.4479	-2.5604	-2.65	-2.8208	-2.5729	-2.8688	-2.7333	-2.9042	-2.825	-2.4792	-2.9104	-2.6229	-2.6104	-2.7479	-2.4792	-2.8354	171.412	481.697	305.306	437.978	398.876	298.758	438.861	207.891	439.700	295.152	480.898	478.715	259.251	195.480	469.597	196.337	0.00028266	0.00027622	0.00011815	1179.4	4.2009e-06	3.2969e-06	1242.9	243.66	4.8191e-06	2.2279e-06	304.72	83.967	66.009	19.039	2.6638e-06	26.822	0.00030993	0.00032303	8.7558e-05	1161	3.5721e-06	3.4284e-06	1224.4	241.58	3.4534e-06	3.4292e-06	301.93	84.053	66.139	19.269	3.387e-06	27.256	265.377	211.812	236.378	160.178	279.459	305.415	159.947	167.267	303.033	336.370	167.028	173.501	173.818	180.675	307.728	180.282	-8191	255	
18104.367	1	1	0	0	0.27603	0.13809	0.0074764	0.12293	0.18651	0.34535	0.35356	0.25173	0.23047	0.20861	0.14219	0.20686	0.3231	0.089481	0.1384	0.07121	-2.4229	-2.5312	-2.9896	-2.5979	-2.4958	-2.9479	-2.7604	-2.6729	-2.4521	-2.4458	-2.9104	-2.6979	-2.6542	-2.6708	-2.6229	-2.9125	453.048	486.066	296.342	376.340	237.368	310.297	452.564	489.663	335.697	415.131	416.697	474.040	224.739	289.456	253.219	248.294	0.00029439	0.00055408	4.9387e-05	1172.4	3.5298e-06	3.1249e-06	1239.1	244.4	3.8968e-06	5.0859e-06	303.13	83.715	66.104	19.112	4.212e-06	27.004	0.00030912	0.00031278	8.6993e-05	1157.2	3.5069e-06	3.4664e-06	1220.7	241.99	3.4035e-06	3.3999e-06	301.52	83.837	66.123	19.286	3.3606e-06	27.295	261.328	219.297	209.322	159.849	285.710	280.245	160.130	167.128	279.527	322.250	167.017	173.456	173.805	180.829	315.926	180.208	-8191	255	
18104.463	1	1	0	0	0.19472	0.20179	0.18511	0.064976	0.16883	0.21723	0.25961	0.30941	0.035897	0.047404	0.23595	0.015083	0.102	0.038334	0.14503	0.30321	-2.3271	-2.5104	-2.8312	-2.7167	-2.5333	-2.875	-2.8667	-2.875	-2.9104	-2.5563	-2.975	-2.8646	-2.4208	-2.875	-2.6208	-2.6354	331.607	499.819	336.450	339.148	483.374	356.329	466.804	174.743	302.715	456.818	458.653	177.453	464.480	382.650	385.851	396.832	0.00029354	0.00036958	9.4891e-05	1173.8	3.7895e-06	2.8521e-06	1238.3	243.96	3.3767e-06	3.2133e-06	303.47	83.951	66.387	19.115	4.5652e-06	27.067	0.00030247	0.00030482	8.3525e-05	1154.7	3.3538e-06	3.2996e-06	1221	241.9	3.4053e-06	3.3204e-06	301.68	84.191	66.377	19.378	3.3821e-06	27.332	260.234	243.402	231.021	159.616	266.810	306.216	160.014	167.105	305.358	320.564	166.742	173.654	174.040	180.896	314.217	180.508	-8191	255	
18104.561	1	1	0	0	0.052085	0.19246	0.11015	0.23884	0.13015	0.14612	0.23259	0.019368	0.073264	0.15017	0.23887	0.13614	0.1502	0.13079	0.10027	0.16773	-2.7479	-2.7354	-2.5229	-2.8354	-2.425	-3.1021	-2.8104	-2.6521	-2.8146	-2.5479	-2.7604	-2.8875	-2.6167	-2.9167	-2.7917	-2.6813	304.586	187.040	455.189	165.125	368.625	446.165	456.549	500.328	179.494	352.511	419.922	408.290	328.293	198.370	251.149	297.593	0.00028908	0.00021171	5.222e-05	1175.9	2.1064e-06	3.2981e-06	1236.3	244.25	3.7718e-06	3.9664e-06	302.61	84.201	66.219	19.094	2.3839e-06	26.937	0.00031248	0.0003118	8.6702e-05	1157.4	3.4537e-06	3.353e-06	1222.8	242.65	3.424e-06	3.3466e-06	301.63	84.198	66.266	19.362	3.3836e-06	27.337	263.759	229.688	251.347	160.085	273.526	289.488	159.880	167.098	294.374	287.845	166.819	173.419	173.996	180.730	299.117	180.034	-8191	255	
18104.680	1	1	0	0	0.029466	0.24207	0.058011	0.091651	0.13351	0.30317	0.33036	0.12791	0.044337	0.15486	0.1873	0.095346	0.31554	0.25904	0.099508	0.21722	-2.3292	-2.4083	-2.5771	-2.8146	-2.5438	-2.8937	-2.8521	-2.6042	-2.7354	-2.5458	-2.7875	-2.7375	-2.4562	-2.5646	-2.75	-2.5438	421.598	464.501	189.691	420.720	505.861	179.444	460.877	482.231	311.570	390.874	385.500	202.849	152.251	399.253	212.849	424.821	0.00026597	0.00041976	4.9538e-05	1183.3	3.0143e-06	2.8328e-06	1238.1	245.25	3.2071e-06	6.0411e-06	303.92	83.762	66.496	18.987	1.9754e-06	26.854	0.00030852	0.00030665	8.325e-05	1159.9	3.3455e-06	3.4002e-06	1219.8	243.12	3.4053e-06	3.3661e-06	301.76	84.025	66.213	19.278	3.3921e-06	27.249	260.371	243.090	234.857	159.652	306.509	322.194	160.069	167.359	327.913	322.680	166.612	173.474	174.174	181.154	316.904	180.221	-8191	255	
18104.752	1	1	0	0	0.12803	0.11315	0.17738	0.117	0.10106	0.14757	0.13164	0.045244	0.26004	0.18782	0.2449	0.11086	0.23876	0.22394	0.1159	0.14137	-2.4958	-2.5854	-2.4854	-2.875	-2.5312	-2.8583	-2.9271	-2.5042	-2.8563	-2.7146	-2.8417	-3.0542	-2.4417	-2.9021	-2.8125	-2.6271	237.873	215.942	317.551	312.969	176.587	196.715	209.223	173.351	403.320	187.299	438.602	308.539	189.653	315.341	261.178	469.191	0.00029375	0.00011748	7.9235e-05	1170.1	3.8354e-06	1.3783e-06	1238.1	243.56	3.2495e-06	3.7888e-06	303.45	83.666	65.941	18.985	2.3079e-06	26.891	0.00031264	0.00030586	8.5314e-05	1153.6	3.4801e-06	3.3567e-06	1216.1	242.16	3.3864e-06	3.3377e-06	302.13	84.01	66.009	19.247	3.1639e-06	27.241	262.192	268.097	232.004	160.151	300.370	336.352	159.931	167.207	321.490	315.110	166.923	173.345	173.784	180.471	251.969	179.870	-8191	255	
18104.848	1	1	0	0	0.14768	0.30295	0.15969	0.23391	0.21837	0.17343	0.27474	0.1001	0.14553	0.12177	0.44912	0.2273	0.083016	0.36052	0.051595	0.2082	-2.1854	-2.5875	-2.6292	-2.9042	-2.5521	-2.7729	-2.9458	-2.5271	-2.9417	-2.6813	-2.6937	-2.9125	-2.5312	-2.8167	-2.8854	-2.7	185.338	278.401	455.765	178.933	471.099	371.811	483.766	445.667	265.847	362.487	497.495	497.055	366.837	461.803	334.215	237.994	0.00028375	0.00029576	8.7711e-05	1172.4	3.2563e-06	4.48e-06	1233	243.59	2.5448e-06	2.0751e-06	301.35	84.133	66.149	19.029	1.2669e-06	26.801	0.00029202	0.0002959	8.2987e-05	1151	3.3525e-06	3.4266e-06	1213.7	241.96	3.3367e-06	3.3364e-06	300.77	84.085	66.129	19.281	3.4026e-06	27.188	260.946	222.733	245.389	159.912	332.003	349.705	159.941	167.129	341.712	283.614	166.803	173.382	173.872	181.266	385.033	180.127	-8191	255	
18104.943	1	1	0	0	0.36626	0.14034	0.075108	0.14715	0.13975	0.18521	0.18793	0.10732	0.27925	0.12558	0.23282	0.36039	0.23921	0.080534	0.14385	0.20247	-2.5354	-2.8208	-2.675	-2.9625	-2.6333	-2.6729	-3.1458	-2.6083	-3.0583	-2.6854	-2.5396	-2.9729	-2.65	-2.5854	-2.9917	-2.6375	373.746	339.415	366.793	184.330	360.687	233.271	394.148	438.228	215.442	472.023	196.499	429.434	458.162	437.371	218.607	371.934	0.00027997	0.00034806	0.00010896	1165.7	3.8423e-06	4.2261e-06	1234.2	244.38	1.1792e-06	3.2952e-06	301.88	84.009	65.787	19.145	3.3712e-06	26.833	0.00031037	0.00030936	8.8173e-05	1151.1	3.348e-06	3.478e-06	1214.9	242.86	3.2803e-06	3.3211e-06	301.05	84.137	65.942	19.225	3.1946e-06	27.137	264.061	216.494	248.827	160.405	331.539	302.712	160.034	167.188	355.379	280.970	166.625	173.586	173.849	180.599	326.651	180.062	-8191	255	
18105.062	1	1	0	0	0.064457	0.11227	0.15892	0.18691	0.19304	0.17367	0.22352	0.13579	0.084673	0.24939	0.34248	0.1099	0.11677	0.40092	0.2632	0.14404	-2.4208	-2.7438	-2.4667	-2.8521	-2.6188	-2.7958	-3.1	-2.6542	-2.7125	-2.9583	-2.5792	-2.9354	-2.6625	-2.5417	-3.05	-2.6813	321.246	440.552	301.366	239.740	334.076	313.295	423.525	317.717	206.285	267.161	474.472	248.989	469.537	446.313	215.422	370.451	0.00032082	0.00029684	0.00011319	1166.4	2.8787e-06	4.1066e-06	1224.9	242.76	2.9634e-06	2.5002e-06	302.22	83.247	66.053	18.996	1.507e-06	26.874	0.00029954	0.00029092	8.1357e-05	1142.5	3.1194e-06	3.1842e-06	1206.6	241.1	3.1306e-06	3.1894e-06	300.74	83.659	66.071	19.267	3.2214e-06	27.176	260.602	253.786	239.561	160.217	284.795	324.492	160.112	167.271	302.709	305.903	166.657	173.587	173.793	180.820	310.968	180.143	-8191	255	
18105.158	1	1	0	0	0.19867	0.21609	0.064838	0.1911	0.061356	0.23742	0.42072	0.11832	0.060681	0.18694	0.20584	0.30166	0.091061	0.25717	0.090116	0.022158	-2.2875	-2.7687	-2.5521	-2.7896	-2.7125	-2.6146	-2.8417	-2.6	-2.6521	-2.7771	-2.5604	-2.8146	-2.7167	-2.3625	-2.9417	-2.6771	229.846	199.512	249.769	177.167	260.947	334.059	432.971	420.639	450.131	257.702	469.584	209.025	213.739	215.956	453.763	154.077	0.00028716	0.00031901	4.9659e-05	1164.1	9.8934e-07	3.7865e-06	1231	243.82	3.944e-06	4.7774e-06	302.32	83.885	66.212	19.094	3.0897e-06	26.974	0.00030013	0.00029645	8.4957e-05	1145.1	3.3199e-06	3.2885e-06	1214.5	242.14	3.4544e-06	3.2874e-06	300.81	83.986	66.201	19.323	3.3469e-06	27.266	262.026	220.015	170.759	160.410	212.055	291.444	160.072	167.054	303.936	303.230	166.854	173.592	173.975	180.923	327.639	179.845	-8191	255	
18105.256	1	1	0	0	0.063721	0.38027	0.15998	0.16045	0.28906	0.27567	0.23377	0.087768	0.20742	0.18116	0.25485	0.10194	0.11712	0.068185	0.16459	0.43059	-2.4021	-2.9021	-2.4917	-2.8208	-2.6708	-2.65	-3.0875	-2.7646	-2.5667	-3.0271	-2.6813	-2.8917	-2.825	-2.4021	-2.9042	-2.6958	192.657	233.149	202.263	392.291	284.588	245.328	411.684	215.244	197.842	494.072	467.256	500.824	420.023	303.701	241.011	205.147	0.00030701	0.00027921	0.00011989	1165.7	3.4228e-06	2.9896e-06	1224.1	244.81	1.6336e-06	5.8305e-06	302.53	83.636	65.725	18.789	1.8565e-06	26.662	0.00030013	0.00029047	8.3788e-05	1147.4	3.3367e-06	3.2688e-06	1209.9	241.62	3.2762e-06	3.3366e-06	301.01	83.744	65.887	19.176	3.3005e-06	27.071	257.254	206.178	238.600	160.219	318.461	310.707	159.828	167.208	315.351	319.984	166.479	173.813	173.912	180.531	355.187	180.234	-8191	255	
18105.352	1	1	0	0	0.20205	0.19876	0.12068	0.1992	0.13344	0.11858	0.082065	0.099142	0.11269	0.10458	0.02124	0.11847	0.051531	0.07292	0.29602	0.36519	-2.2104	-2.8271	-2.4396	-2.7438	-2.8792	-2.6271	-2.9813	-2.8	-2.6188	-3.075	-2.7125	-2.8771	-2.7792	-2.3125	-2.9062	-2.6937	251.174	168.839	316.194	413.592	299.089	183.256	450.124	322.097	365.077	408.066	242.392	501.352	280.594	329.342	262.987	492.385	0.00029366	0.00028094	6.8311e-05	1163.8	3.6651e-06	3.9092e-06	1224.7	242.95	2.3357e-06	4.6701e-06	301.61	82.583	65.456	18.93	1.5406e-06	26.824	0.00030978	0.00030276	8.9512e-05	1148.2	3.4126e-06	3.4282e-06	1209.8	241.62	3.6264e-06	3.5511e-06	301.21	83.663	65.801	19.159	3.7872e-06	27.104	262.103	232.121	248.931	160.415	320.729	338.469	159.893	167.315	291.548	316.001	166.504	173.207	173.862	180.314	292.989	180.014	-8191	255	
18105.447	1	1	0	0	0.026393	0.30579	0.037201	0.18861	0.13128	0.28165	0.17675	0.15916	0.3181	0.18642	0.090605	0.060917	0.10252	0.36865	0.18673	0.19537	-1.9417	-2.6562	-2.4042	-2.6583	-2.8396	-2.5229	-2.8083	-2.9708	-2.6562	-2.8875	-2.6188	-2.5938	-2.8396	-2.6167	-2.7521	-2.5792	508.098	340.966	220.388	457.644	232.022	480.657	454.012	452.963	395.422	320.544	425.193	464.267	176.714	487.014	505.736	467.486	0.00028676	0.00039241	0.00012278	1165.1	2.308e-06	2.4321e-06	1232	243.98	3.3399e-06	3.9126e-06	304.88	83.585	66.132	18.833	2.3771e-06	26.781	0.00032639	0.00033085	9.6015e-05	1151.3	3.6982e-06	3.6625e-06	1218.3	242.42	3.6183e-06	3.7021e-06	302.64	84.023	66.267	19.234	3.6768e-06	27.196	261.994	242.414	281.447	159.815	267.082	297.746	160.308	167.173	272.885	319.488	166.274	173.483	174.050	180.812	283.944	179.413	-8191	255	
18105.545	1	1	0	0	0.15489	0.03455	0.18901	0.10618	0.049811	0.33724	0.2297	0.16746	0.15714	0.21005	0.19979	0.2367	0.15804	0.26372	0.26899	0.074671	-2.0542	-2.9667	-2.7583	-2.5187	-2.8	-2.5604	-2.9729	-2.8208	-2.4604	-2.9208	-2.7042	-2.8583	-3.0125	-2.4833	-2.7167	-3.0125	508.077	284.245	360.619	456.008	206.835	151.479	153.220	322.628	399.454	153.871	213.491	150.647	410.856	184.829	226.208	472.623	0.00026828	0.00036362	0.0001302	1167.3	2.3127e-06	6.261e-06	1233.2	243.2	3.9292e-06	2.1318e-06	301.94	83.427	66.395	19.061	2.6459e-06	26.725	0.00031759	0.00031381	8.8826e-05	1153.3	3.4673e-06	3.4533e-06	1218	242.41	3.4891e-06	3.4541e-06	301.84	83.845	66.219	19.296	3.4288e-06	27.211	263.071	233.194	250.362	159.966	305.679	299.173	160.086	167.162	285.101	342.851	166.822	173.563	173.723	180.919	295.896	179.984	-8191	255	
18105.641	1	1	0	0	0.097474	0.20013	0.14915	0.053468	0.14974	0.15214	0.22917	0.1373	0.10397	0.24591	0.066515	0.085474	0.1324	0.10535	0.22081	0.32951	-2.1083	-2.7521	-2.6479	-2.5938	-2.9062	-2.5229	-2.85	-2.9958	-2.4562	-2.8187	-2.6792	-2.5125	-2.8417	-2.5979	-2.7167	-2.8854	385.605	255.950	494.210	432.600	449.177	405.081	151.134	455.306	200.631	302.091	345.359	505.065	498.845	209.986	400.695	490.304	0.0003051	0.00034138	8.9719e-05	1168	3.6435e-06	3.2933e-06	1234.1	243.55	3.5042e-06	3.0658e-06	302.43	83.952	66.462	19.034	2.8897e-06	26.746	0.0003183	0.00031351	8.6927e-05	1151.4	3.4956e-06	3.3409e-06	1216.2	242.18	3.3922e-06	3.33e-06	302.14	83.968	66.205	19.272	3.3584e-06	27.231	259.774	239.441	220.232	160.119	280.455	292.716	159.984	167.241	294.587	268.474	166.740	173.754	173.759	180.517	319.198	179.922	-8191	255	
18105.762	1	1	0	0	0.26734	0.21264	0.17493	0.092621	0.12372	0.11262	0.16377	0.044391	0.13391	0.27107	0.19473	0.28554	0.16475	0.19635	0.078207	0.18555	-2.025	-2.6667	-2.7083	-2.3896	-2.9188	-2.6167	-2.7917	-2.9375	-2.5687	-2.9813	-2.8229	-2.5812	-2.9667	-2.6458	-2.5708	-2.8063	321.656	465.329	427.991	193.172	352.624	431.014	326.481	406.013	366.558	376.890	466.910	164.089	231.817	187.852	451.758	373.639	0.0002932	0.00019466	0.00013963	1174.3	4.5332e-06	5.6074e-06	1234.2	243.22	6.0027e-06	1.9401e-06	304.43	83.578	66.256	19.062	4.764e-06	26.815	0.00030697	0.00030698	8.4562e-05	1151.5	3.4234e-06	3.3801e-06	1214.2	242.44	3.5137e-06	3.4104e-06	302.06	84.086	66.267	19.244	3.5854e-06	27.257	263.638	198.296	238.367	159.917	291.035	300.410	160.110	167.174	308.226	329.874	166.627	173.673	173.986	180.750	314.077	180.323	-8191	255	
18105.857	1	1	0	0	0.16836	0.075522	0.24805	0.25464	0.087126	0.16707	0.19266	0.23482	0.081992	0.21192	0.15971	0.13564	0.23566	0.21022	0.056885	0.15294	-2.1042	-2.75	-2.675	-2.5583	-2.8708	-2.7125	-2.8542	-2.8063	-2.5354	-2.7375	-2.9396	-2.6667	-2.8292	-2.6792	-2.7542	-2.9188	448.606	489.985	165.544	443.493	261.910	483.433	457.122	388.485	457.466	265.436	502.927	426.811	477.783	389.894	285.947	263.572	0.00030327	0.00046712	7.3141e-05	1169.7	3.2065e-06	2.6518e-06	1232.6	245.04	2.3188e-06	3.1807e-06	302.73	83.817	66.096	18.816	4.3668e-06	26.884	0.00032791	0.00032462	9.1932e-05	1152.4	3.7212e-06	3.4878e-06	1215.3	242.74	3.6566e-06	3.607e-06	301.59	84.058	66.152	19.17	3.6504e-06	27.149	257.995	257.530	274.948	160.124	308.191	309.410	159.934	167.099	314.837	270.803	166.994	173.335	173.414	180.904	291.907	180.233	-8191	255	
18105.953	1	1	0	0	0.30094	0.11366	0.29684	0.19	0.098009	0.060598	0.1955	0.12818	0.18293	0.10123	0.14374	0.17847	0.28013	0.034656	0.025867	0.19734	-1.9521	-2.7479	-2.8083	-2.6	-2.8812	-2.7229	-2.7229	-2.8563	-2.5583	-2.6417	-2.8396	-2.6708	-2.8063	-2.8063	-2.5	-2.8229	177.586	460.980	429.795	456.779	202.690	182.192	233.753	393.573	250.197	229.412	194.930	474.463	286.317	241.667	442.598	450.057	0.00030661	0.0002008	6.6775e-05	1173.1	3.2773e-06	4.7046e-06	1233	243.57	2.9563e-06	2.3298e-06	303.05	83.69	65.976	19.043	4.7133e-06	26.825	0.0003261	0.00033767	9.2354e-05	1153	3.7572e-06	3.6702e-06	1215.2	242.01	3.6897e-06	3.5778e-06	301.91	83.88	65.965	19.261	3.7397e-06	27.168	261.322	266.469	219.195	160.034	338.156	316.854	159.955	167.214	320.515	329.920	166.608	173.522	173.948	180.627	305.865	180.216	-8191	255	
18106.047	1	1	0	0	0.17943	0.26121	0.093056	0.094	0.086488	0.303	0.18229	0.20557	0.12619	0.23238	0.14891	0.45121	0.15646	0.27462	0.1966	0.14118	-2.0333	-2.6875	-2.8083	-2.5583	-2.7792	-2.8271	-2.7104	-2.9417	-2.7146	-2.7021	-2.7958	-2.4813	-2.6437	-2.7854	-2.6021	-2.9562	462.060	227.161	443.090	309.325	352.805	178.466	391.513	184.874	415.365	294.247	407.120	433.697	320.700	168.174	304.798	288.565	0.00027938	0.00028803	0.00014912	1168.6	3.515e-06	7.2341e-06	1231.5	244.25	3.3666e-06	4.0608e-06	302.42	84.346	66.378	18.944	3.5065e-06	26.818	0.00032045	0.00034622	9.4473e-05	1152.5	3.6626e-06	3.6041e-06	1215.2	242.91	3.7227e-06	3.6418e-06	301.79	84.099	66.21	19.317	3.6792e-06	27.178	259.876	211.682	249.691	159.969	300.061	291.468	160.213	167.097	311.851	300.750	166.636	173.115	173.900	180.712	326.608	179.910	-8191	255	
18106.143	1	1	0	0	0.107	0.17016	0.24676	0.124	0.1037	0.27585	0.16219	0.2922	0.15119	0.054849	0.26437	0.21558	0.3101	0.090734	0.094927	0.023478	-2.1771	-2.65	-2.6583	-2.4979	-2.7875	-2.8125	-2.6708	-2.8146	-2.7458	-2.6562	-2.9062	-2.6437	-2.6396	-2.9188	-2.5667	-2.8271	453.551	286.263	244.758	390.194	501.425	456.218	433.899	384.746	371.345	196.593	468.844	507.394	430.975	406.530	237.734	403.382	0.00030062	0.00019258	0.00013399	1169.9	4.1651e-06	4.667e-06	1235.4	244.6	2.2919e-06	3.4219e-06	304.42	84.172	66.175	18.944	4.8479e-06	26.701	0.00032884	0.00033769	9.495e-05	1151.2	3.8239e-06	3.7397e-06	1217.8	242.8	3.835e-06	3.6896e-06	302.35	84.1	66.169	19.279	3.7546e-06	27.196	259.457	215.198	247.741	160.229	303.066	322.358	160.096	167.189	293.333	298.956	166.461	173.351	173.653	180.702	318.674	180.038	-8191	255	
18106.240	1	1	0	0	0.093832	0.029852	0.072623	0.12829	0.13446	0.17295	0.078836	0.33012	0.11302	0.1637	0.11785	0.23943	0.17079	0.084434	0.14544	0.11016	-2.2542	-2.4896	-2.9188	-2.3417	-2.725	-2.9229	-2.7229	-2.8625	-2.7687	-2.7479	-2.8771	-2.6792	-2.8417	-2.95	-2.7854	-2.9792	167.858	280.445	350.704	500.966	265.959	434.742	169.471	407.169	426.516	344.057	314.009	233.440	355.792	303.050	268.559	447.884	0.00028095	0.00038621	5.8058e-05	1177.2	4.3158e-06	3.9492e-06	1232	243.79	4.3589e-06	2.2133e-06	303.56	84.086	65.899	19.053	1.6441e-06	26.685	0.00032865	0.00034451	9.1663e-05	1155.7	3.7517e-06	3.7038e-06	1215.3	242.52	3.71e-06	3.5754e-06	302.57	84.051	66.025	19.241	3.5255e-06	27.076	262.201	226.502	194.168	160.293	331.737	282.456	160.133	167.261	321.327	337.609	166.828	173.664	173.761	180.706	260.336	180.071	-8191	255	
18106.359	1	1	0	0	0.098786	0.23889	0.18623	0.23036	0.09299	0.21157	0.29416	0.30733	0.14023	0.1568	0.080714	0.11881	0.14555	0.12696	0.0496	0.1729	-2.6021	-2.4604	-2.8917	-2.7938	-2.7292	-2.6854	-2.6333	-2.9125	-3.0042	-2.65	-3.0312	-2.6292	-2.6625	-3.0792	-2.6479	-2.9083	182.737	485.026	423.920	465.078	446.407	392.132	319.717	474.156	381.829	238.071	500.606	284.688	336.490	417.322	160.124	223.620	0.00030217	0.00056251	0.00010652	1169.7	2.7527e-06	5.0196e-06	1228.5	245.01	3.5939e-06	3.6062e-06	303.45	83.674	65.991	18.869	2.4311e-06	26.674	0.00032017	0.0003336	9.2168e-05	1148.7	3.5625e-06	3.5536e-06	1212.5	242.43	3.4677e-06	3.5869e-06	301.37	83.712	65.966	19.122	3.4381e-06	27.09	260.760	248.138	218.914	159.760	297.130	322.248	160.224	167.292	298.152	318.729	166.828	173.157	173.498	180.708	325.978	180.239	-8191	255	
18106.455	1	1	0	0	0.0049247	0.030227	0.24604	0.22416	0.13774	0.15212	0.14083	0.20108	0.19736	0.1792	0.26252	0.26625	0.22883	0.20824	0.12112	0.12689	-2.4146	-2.6146	-2.6896	-2.8021	-2.5646	-3.0229	-2.7917	-2.8417	-2.9375	-2.6542	-2.8771	-2.8875	-2.7021	-2.9146	-2.6833	-2.7021	328.969	174.369	268.456	394.005	232.330	349.661	409.191	457.854	285.533	251.283	312.826	504.936	191.651	197.502	283.487	327.781	0.00029695	0.00025712	6.4705e-05	1168.1	4.0234e-06	4.5436e-06	1224.8	243.45	2.5458e-06	2.7471e-06	301.87	83.688	65.903	18.902	5.2135e-06	26.504	0.00031037	0.0003106	8.7887e-05	1145	3.4396e-06	3.4172e-06	1208.7	241.37	3.4457e-06	3.3748e-06	300.44	83.665	65.64	19.135	3.267e-06	26.976	262.503	296.921	227.896	160.102	267.878	314.518	160.136	167.231	317.694	252.769	166.974	173.546	174.060	180.841	287.297	180.239	-8191	255	
18106.553	1	1	0	0	0.15757	0.039524	0.27614	0.39686	0.032939	0.056164	0.097868	0.19896	0.15035	0.17789	0.15216	0.23272	0.15891	0.1169	0.20999	0.16333	-2.325	-2.6125	-2.9542	-2.7729	-2.6208	-2.8688	-2.7708	-2.8333	-3.025	-2.55	-2.9354	-2.7667	-2.5479	-2.9125	-2.6688	-2.6104	258.768	289.518	279.283	374.264	440.099	341.983	489.329	484.112	159.657	218.316	447.890	474.103	400.795	453.165	411.548	261.979	0.00029414	0.00037934	3.956e-05	1163.1	4.3948e-06	1.9688e-06	1215	241.86	2.5772e-06	2.3514e-06	303.08	83.238	65.467	18.812	4.0769e-06	26.448	0.0002995	0.00030441	8.2965e-05	1140.8	3.3139e-06	3.4124e-06	1200.6	240.14	3.302e-06	3.2883e-06	300.12	83.408	65.437	19.051	3.2815e-06	26.867	253.635	219.459	240.977	160.195	288.317	291.026	159.909	167.200	322.739	366.226	166.832	173.517	173.641	180.845	295.459	179.888	-8191	255	
18106.623	1	1	0	0	0.043841	0.20619	0.22304	0.043045	0.37078	0.14799	0.12598	0.19661	0.11685	0.11507	0.028792	0.1561	0.36111	0.26262	0.11272	0.12404	-2.4708	-2.5187	-2.8312	-3.0312	-2.5833	-3.0729	-2.9083	-2.7	-3.0542	-2.5687	-2.8312	-2.8292	-2.3854	-2.9292	-2.7042	-2.6396	456.873	389.011	439.380	504.975	420.207	239.800	424.450	459.848	218.042	228.616	241.075	418.391	487.900	421.402	384.191	424.585	0.00027289	0.00023965	0.00012323	1153.4	3.8653e-06	3.0389e-06	1217.5	240.82	1.2783e-06	5.957e-06	300.65	83.081	65.08	18.847	1.5802e-06	26.452	0.00029799	0.00029377	8.4869e-05	1135.7	3.269e-06	3.3169e-06	1200.3	239.73	3.3111e-06	3.2949e-06	298.69	83.165	65.192	19.054	3.2979e-06	26.866	264.251	306.029	238.243	160.178	336.210	318.625	160.025	167.211	354.585	332.311	166.965	173.517	173.778	180.610	297.158	179.841	-8191	255	
18106.744	1	1	0	0	0.17549	0.22599	0.087567	0.056124	0.072339	0.35611	0.11018	0.019395	0.1448	0.13312	0.091043	0.14405	0.2117	0.33901	0.17049	0.16035	-2.6458	-2.4729	-2.7646	-2.9604	-2.6021	-2.7	-2.9708	-2.6896	-2.9875	-2.6521	-2.7854	-2.9875	-2.6896	-2.875	-2.7792	-2.7438	231.413	451.014	347.240	381.845	255.707	395.493	449.011	471.021	239.830	393.310	282.899	477.057	461.227	452.650	395.515	175.384	0.00025547	0.00011423	5.0205e-05	1152.8	3.3441e-06	2.403e-06	1212.5	241.5	3.0212e-06	4.0852e-06	300.21	82.597	65.084	18.694	3.3308e-06	26.46	0.00029314	0.00029863	8.3788e-05	1132.5	3.4019e-06	3.3466e-06	1195.9	239.04	3.4819e-06	3.3462e-06	299.12	83.041	65.218	18.98	3.4036e-06	26.878	260.055	212.541	234.108	160.006	316.713	339.010	160.105	167.255	315.282	302.278	166.898	173.735	173.993	180.671	273.966	180.592	-8191	255	
18106.842	1	1	0	0	0.087876	0.3161	0.24511	0.29118	0.081811	0.16962	0.18758	0.32972	0.089038	0.18999	0.15825	0.21755	0.30767	0.091897	0.013207	0.1298	-2.4792	-2.6854	-2.5604	-3.0271	-2.6354	-2.8521	-2.9292	-2.5625	-2.7875	-2.6979	-2.6542	-2.8875	-2.5958	-2.8021	-2.8708	-2.6896	227.423	405.142	241.581	407.944	431.561	486.116	455.696	160.137	445.394	385.673	246.030	170.254	237.257	222.995	366.568	427.839	0.00029802	0.0002853	5.0105e-05	1148.3	4.8418e-06	1.7386e-06	1214.2	241.11	4.6854e-06	4.022e-06	300.97	83.055	65.514	18.867	4.5277e-06	26.545	0.0003108	0.00031839	8.6279e-05	1133.8	3.4846e-06	3.4568e-06	1200.2	239.51	3.481e-06	3.4552e-06	298.7	83.381	65.527	19.053	3.4251e-06	26.924	263.348	247.186	205.247	160.214	311.856	261.189	159.975	167.146	301.415	304.387	166.594	173.718	173.825	180.657	307.069	179.848	-8191	255	
18106.938	1	1	0	0	0.31628	0.29552	0.19192	0.096285	0.28923	0.059556	0.24319	0.20131	0.074576	0.13442	0.29015	0.20123	0.10055	0.14273	0.28431	0.21512	-2.3104	-2.7	-2.5292	-2.9458	-2.6521	-2.8812	-2.9021	-2.7125	-2.7375	-2.8708	-2.6437	-3.0438	-2.6688	-2.7271	-2.75	-2.7958	495.907	394.649	386.299	315.433	397.850	486.706	469.317	217.136	496.381	227.562	400.974	437.914	181.438	190.620	254.330	425.564	0.00029357	0.00029829	7.8873e-05	1155.2	2.5425e-06	5.1293e-06	1219.8	241.44	1.9012e-06	2.8124e-06	300.43	82.967	65.181	18.886	4.1108e-06	26.491	0.00030614	0.00029395	8.6225e-05	1136.8	3.3097e-06	3.2465e-06	1202.8	239.77	3.4236e-06	3.2116e-06	299.16	83.267	65.483	19.123	3.2504e-06	26.931	263.406	233.082	256.536	160.109	304.458	326.973	160.188	167.043	299.566	312.584	166.909	173.479	173.843	180.625	302.830	180.214	-8191	255	
18107.033	1	1	0	0	0.14133	0.28983	0.1311	0.14827	0.076519	0.22792	0.16633	0.10057	0.26179	0.1733	0.14266	0.24468	0.0736	0.1452	0.21786	0.20916	-2.4875	-2.7083	-2.5062	-2.725	-2.7125	-2.8458	-2.9229	-2.5917	-2.675	-2.7271	-2.725	-2.9479	-2.8187	-2.5875	-2.8854	-2.6521	264.410	480.826	372.523	258.797	261.773	335.160	452.774	489.028	328.586	255.491	305.375	226.322	173.005	477.514	212.346	455.376	0.00028267	0.00039263	0.00012869	1156.8	2.6791e-06	2.5306e-06	1222.2	240.97	3.3137e-06	2.7531e-06	301.94	83.196	65.535	18.897	2.694e-06	26.441	0.0002939	0.00030229	8.2284e-05	1139.6	3.3212e-06	3.175e-06	1201.7	239.52	3.2514e-06	3.1566e-06	299.26	83.311	65.609	19.15	3.1976e-06	26.93	261.917	258.858	241.472	160.393	336.659	306.068	160.117	167.248	319.048	315.215	166.919	173.401	174.096	180.824	315.201	180.149	-8191	255	
18107.152	1	1	0	0	0.059937	0.098417	0.12912	0.13536	0.15652	0.031106	0.71964	0.13607	0.070407	0.14621	0.12857	0.084313	0.12775	0.16432	0.32632	0.10693	-2.2125	-2.8604	-2.4667	-2.95	-2.6771	-2.7104	-2.9938	-2.6292	-2.7354	-2.8583	-2.5312	-2.9271	-2.5521	-2.5125	-2.8979	-2.5687	462.857	264.959	169.555	206.428	392.862	369.174	438.261	197.455	225.278	313.745	408.844	484.408	221.796	158.078	500.597	378.478	0.00028549	0.00016701	8.7642e-05	1160.9	2.8687e-06	2.9639e-06	1213.4	241.82	2.4251e-06	1.6444e-06	301.72	82.964	65.576	18.973	4.3823e-06	26.646	0.00029463	0.00029397	7.9837e-05	1138.6	3.0984e-06	3.1919e-06	1200.1	240.02	3.1522e-06	3.1077e-06	299	83.394	65.616	19.18	3.2182e-06	27.107	259.880	242.959	217.909	159.943	323.960	281.421	160.133	167.196	334.201	324.580	166.913	173.499	173.905	180.817	298.285	180.360	-8191	255	
18107.225	1	1	0	0	0.14208	0.068675	0.13529	0.3162	0.15759	0.19203	0.26418	0.32672	0.19245	0.21462	0.32153	0.14401	0.092373	0.13607	0.1903	0.29845	-2.1583	-2.8604	-2.4708	-2.8208	-2.775	-2.4375	-3.0125	-2.7208	-2.575	-2.8417	-2.7354	-2.8333	-2.7896	-2.3833	-2.7667	-2.4792	343.723	336.469	365.986	457.321	422.495	258.049	394.466	472.250	364.725	291.918	328.052	236.126	191.628	198.655	413.215	444.850	0.00031039	0.00040632	8.9902e-05	1162.4	3.4552e-06	3.9285e-06	1218.8	241.93	2.5316e-06	5.7143e-06	302.01	83.777	65.718	19.059	4.0343e-06	26.743	0.00029566	0.00028512	7.92e-05	1138.5	3.0549e-06	3.1254e-06	1201.5	240.23	3.1048e-06	3.0812e-06	299.51	83.815	65.718	19.182	3.0333e-06	27.064	263.139	225.401	248.989	160.026	295.667	285.847	160.281	167.120	311.417	329.360	166.786	173.621	173.896	180.767	317.670	180.236	-8191	255	
18107.320	1	1	0	0	0.29988	0.26814	0.08812	0.21854	0.17831	0.30127	0.29528	0.43334	0.12437	0.16406	0.15673	0.060005	0.062463	0.1072	0.069082	0.29598	-2.1312	-2.8042	-2.3958	-2.9875	-2.8958	-2.5854	-3.0187	-2.7104	-2.4146	-2.9333	-2.6458	-2.8229	-2.9417	-2.4042	-2.7583	-2.6583	489.208	160.828	218.537	430.476	397.729	189.477	451.344	470.255	326.827	374.811	199.247	468.707	212.709	196.534	197.616	355.663	0.00028442	0.00029111	7.3471e-05	1155.7	4.036e-06	1.3433e-06	1213.7	241.32	3.6277e-06	3.2276e-06	301.61	83.197	65.482	19.059	8.8967e-07	26.431	0.00028639	0.00027236	7.7439e-05	1135.3	3.0408e-06	3.0393e-06	1197.3	239.96	3.1266e-06	3.0869e-06	298.8	83.386	65.622	19.179	3.0375e-06	26.989	265.428	246.174	229.725	160.294	320.066	347.390	159.912	167.105	286.411	310.532	166.403	173.175	173.722	181.042	316.518	180.257	-8191	255	
18107.441	1	1	0	0	0.39981	0.24173	0.19211	0.40782	0.083674	0.09632	0.28466	0.050891	0.30724	0.023765	0.28522	0.086111	0.19993	0.24228	0.022975	0.21196	-2.1417	-2.9458	-2.2854	-2.8021	-2.7667	-2.4979	-2.9896	-2.8208	-2.6104	-2.8146	-2.7667	-2.6188	-2.7562	-2.7583	-2.9333	-2.6937	267.464	204.475	343.280	159.946	446.845	252.928	428.670	397.813	323.113	423.864	465.287	383.486	471.036	174.856	159.330	186.402	0.00030165	0.00031457	7.4531e-05	1149.6	3.0521e-06	2.971e-06	1216	241.73	2.9886e-06	5.5802e-06	301.18	83.659	65.21	19.003	4.0425e-06	26.513	0.00029874	0.00027586	7.8267e-05	1132.8	3.0413e-06	3.0622e-06	1196.8	240.23	3.079e-06	2.9425e-06	299.07	83.594	65.522	19.159	3.0077e-06	26.993	262.422	244.320	229.426	160.485	327.473	333.848	160.369	167.336	298.836	311.050	166.601	173.147	173.572	180.658	297.030	180.045	-8191	255	
18107.537	1	1	0	0	0.085484	0.20416	0.17264	0.2647	0.053857	0.18461	0.10621	0.2898	0.25928	0.026359	0.13851	0.098167	0.12339	0.25318	0.10747	0.26966	-2.175	-2.7625	-2.5625	-2.7708	-3.0146	-2.5479	-3.0583	-2.8604	-2.5396	-2.8438	-2.7792	-2.6063	-2.8958	-2.3688	-2.8792	-2.6917	180.756	186.921	402.847	481.016	334.976	406.463	475.502	487.060	483.219	429.462	186.189	418.796	239.758	278.894	320.664	285.340	0.000292	0.0003998	6.8187e-05	1157.4	3.1637e-06	3.651e-06	1204.5	242.07	5.0865e-06	3.8436e-06	300.62	82.996	65.346	18.881	1.9547e-06	26.487	0.0002811	0.0002654	7.565e-05	1131.9	2.9463e-06	3.0445e-06	1192.7	239.61	2.9519e-06	2.8748e-06	299.02	83.293	65.37	19.144	2.9031e-06	27.056	260.353	225.408	234.936	160.055	256.946	303.107	160.245	167.420	287.230	288.744	166.901	173.452	173.918	180.480	291.406	180.182	-8191	255	
18107.633	1	1	0	0	0.37817	0.16031	0.15327	0.25531	0.15361	0.021975	0.18397	0.022491	0.2007	0.12353	0.086891	0.20997	0.096038	0.23718	0.041386	0.17435	-2.0854	-2.7417	-2.575	-2.5021	-3.1042	-2.6354	-2.8688	-2.7521	-2.5917	-2.8354	-2.8396	-2.5729	-2.8333	-2.7438	-2.8708	-2.8521	457.520	377.864	484.326	430.208	171.920	286.443	164.241	422.415	384.172	215.392	430.099	402.708	423.125	460.021	218.203	470.832	0.00029392	0.0003693	0.00015387	1155.2	5.23e-06	3.0475e-06	1212.4	241.26	4.6589e-06	3.5622e-06	301.67	83.168	65.417	18.872	2.4314e-06	26.763	0.00027503	0.00026495	7.2214e-05	1128.5	2.9524e-06	2.9195e-06	1192.9	239.47	2.9669e-06	2.8964e-06	299.16	83.353	65.467	19.11	2.9152e-06	27.016	261.378	240.413	225.022	160.334	298.163	318.561	160.029	167.397	316.985	301.954	167.014	173.364	174.078	180.759	305.974	180.020	-8191	255	
18107.754	1	1	0	0	0.071455	0.12876	0.078313	0.15597	0.034059	0.22586	0.065022	0.10425	0.082301	0.14334	0.19285	0.079562	0.094557	0.2211	0.15337	0.20069	-2.0292	-2.8375	-2.7	-2.6333	-3.0396	-2.5417	-2.9625	-2.8125	-2.6479	-2.9125	-2.8104	-2.4354	-2.9604	-2.6604	-2.8021	-3.0604	399.937	296.060	302.180	325.770	414.772	196.680	307.592	315.064	262.470	210.825	386.378	416.159	409.026	359.716	321.336	283.213	0.00031551	0.00031503	7.0436e-05	1138.8	2.0798e-06	3.2434e-06	1207.2	241.33	4.5867e-06	4.6847e-06	300.55	83.109	65.725	18.899	2.4446e-06	26.777	0.00028517	0.00026295	7.1665e-05	1125.4	2.8261e-06	2.8309e-06	1192.3	239.47	2.8163e-06	2.8453e-06	298.94	83.345	65.388	19.105	2.8476e-06	26.971	259.128	216.755	239.233	160.329	257.673	337.954	160.110	167.307	300.061	308.353	166.885	173.476	173.792	180.762	303.589	180.075	-8191	255	
18107.848	1	1	0	0	0.12817	0.30873	0.28705	0.24134	0.26832	0.23345	0.1221	0.27069	0.22285	0.23582	0.26442	0.11593	0.1746	0.13638	0.1083	0.21536	-2.2979	-2.7938	-2.6771	-2.5062	-2.8563	-2.6417	-2.6688	-2.9875	-2.5479	-2.8458	-2.7083	-2.6208	-2.8542	-2.7979	-2.6958	-2.8708	448.072	236.269	369.846	333.821	349.914	455.763	338.998	489.185	346.438	324.814	444.414	402.508	261.223	456.399	489.340	250.377	0.00029487	0.00029959	0.00010571	1151.6	1.6263e-06	3.3016e-06	1207.4	240.96	4.0062e-06	4.9047e-06	301.62	82.777	65.449	18.835	2.2845e-06	26.767	0.00027288	0.00025787	7.2165e-05	1127.4	2.8715e-06	2.9118e-06	1189.7	238.75	2.846e-06	2.8877e-06	298.84	83.205	65.51	19.099	2.8967e-06	26.99	259.956	248.211	226.331	160.056	288.219	275.790	160.211	167.174	317.675	293.751	167.037	173.527	174.177	180.848	277.383	180.226	-8191	255	
18107.922	1	1	0	0	0.064914	0.15206	0.016876	0.17747	0.02133	0.23456	0.1014	0.19154	0.11489	0.14585	0.24723	0.091676	0.24995	0.095814	0.090727	0.020685	-2.1646	-2.7208	-2.8521	-2.5438	-2.9583	-2.5292	-2.6333	-3.0646	-2.575	-2.8708	-2.7438	-2.6063	-2.8854	-2.7292	-2.5021	-2.9417	303.955	222.413	478.037	451.020	380.811	192.762	316.320	204.863	463.643	441.663	341.769	270.547	191.471	174.160	254.041	356.835	0.00028874	0.00038394	5.1106e-05	1145.3	4.3757e-06	4.6971e-06	1207.1	241.74	2.5312e-06	1.315e-06	299.5	83.217	65.369	18.789	2.6257e-06	26.499	0.00027434	0.00026047	7.245e-05	1127	2.89e-06	2.8775e-06	1190.9	239.38	2.9991e-06	2.9956e-06	298.59	83.326	65.491	19.072	2.9265e-06	26.918	257.985	249.477	293.022	160.021	338.684	310.470	159.939	167.527	330.273	302.162	166.704	173.432	174.069	180.645	311.341	180.421	-8191	255	
18108.039	1	1	0	0	0.13948	0.078224	0.2094	0.090106	0.14012	0.035516	0.29158	0.33656	0.1546	0.24586	0.047421	0.17996	0.30031	0.34477	0.22236	0.24497	-2.1	-2.7354	-2.7896	-2.6063	-2.8396	-2.5917	-2.6792	-3.0396	-2.5125	-2.5583	-2.9625	-2.55	-2.8667	-2.8187	-2.7042	-2.95	466.122	233.044	353.157	391.368	354.332	318.732	398.783	461.892	434.339	176.090	436.345	484.868	210.747	489.428	216.937	174.477	0.00028276	0.00012919	3.9051e-05	1148.3	4.2214e-06	5.485e-06	1209.7	241.06	2.3983e-06	2.0648e-06	301.86	83.188	65.036	18.768	1.5272e-06	26.651	0.00027758	0.00027944	7.385e-05	1128.2	2.8711e-06	3.0441e-06	1191.5	239.5	3.0284e-06	2.9661e-06	298.31	83.282	65.211	19.038	3.0578e-06	27.062	257.350	280.965	220.574	160.140	319.964	330.714	159.869	167.288	330.655	320.218	166.745	173.837	173.850	180.521	306.906	180.393	-8191	255	
18108.137	1	1	0	0	0.044576	0.20881	0.23237	0.34544	0.082972	0.062347	0.17857	0.13949	0.054677	0.097308	0.062405	0.043651	0.090173	0.11985	0.14023	0.38644	-2.1292	-2.6583	-2.8646	-2.5292	-2.6667	-2.8354	-2.5646	-2.9437	-2.7438	-2.6813	-2.9	-2.6521	-2.8271	-2.85	-2.4208	-2.9604	172.719	253.042	319.673	306.598	331.258	254.251	461.841	181.294	359.154	373.406	202.553	408.076	302.147	285.331	321.840	459.131	0.00029	0.00038203	8.4394e-05	1142.7	4.452e-06	4.0483e-07	1208.1	241.04	3.1619e-06	1.8579e-06	299.36	83.291	65.292	18.777	2.2733e-06	26.437	0.00028302	0.00027571	7.5831e-05	1125.1	2.9418e-06	2.9407e-06	1191	239.8	3.0617e-06	2.9178e-06	298.54	83.361	65.249	19.021	2.853e-06	26.892	263.040	228.823	257.076	160.550	307.543	286.664	160.058	167.478	279.915	339.190	166.990	173.800	174.010	180.821	289.774	180.032	-8191	255	
18108.232	1	1	0	0	0.075065	0.14445	0.17925	0.21611	0.01769	0.17946	0.091751	0.1402	0.038624	0.22764	0.087108	0.11017	0.13544	0.16069	0.15637	0.054644	-2.2313	-2.6958	-2.9646	-2.6021	-2.8063	-2.875	-2.8375	-2.9958	-2.5896	-2.6021	-2.8542	-2.7458	-2.7812	-3.0042	-2.2208	-2.6625	430.179	259.624	445.698	187.623	457.128	480.519	422.255	432.844	252.645	306.642	457.493	446.785	313.702	457.235	451.178	332.531	0.0003029	0.00041938	0.00011151	1149.7	3.1429e-06	3.0339e-06	1212	241.64	3.2884e-06	3.998e-06	299.12	82.607	65.643	18.805	2.6409e-06	26.466	0.00027279	0.0002735	7.1407e-05	1125.9	2.8248e-06	2.8329e-06	1192	239.29	2.8843e-06	2.7972e-06	298.42	83.329	65.367	19.056	2.7993e-06	26.914	258.889	225.948	234.639	159.981	302.094	333.751	160.088	167.112	308.627	277.448	166.863	173.316	173.652	181.208	287.713	180.135	-8191	255	
18108.328	1	1	0	0	0.19748	0.07718	0.26083	0.28515	0.052905	0.22963	0.09031	0.1561	0.10328	0.15458	0.10259	0.17021	0.21644	0.073737	0.16274	0.13464	-2.3458	-2.55	-2.6646	-2.6042	-2.7208	-2.8667	-2.7875	-2.8521	-2.6813	-2.4167	-2.95	-2.3896	-2.5312	-2.8021	-2.55	-2.6979	235.986	296.837	354.006	491.178	436.837	240.594	437.996	155.709	279.936	361.452	401.352	248.246	398.733	429.915	495.414	493.165	0.00029798	0.00028433	7.4194e-05	1139.1	4.412e-06	3.9123e-06	1204.9	241.25	3.3506e-06	3.2012e-06	297.9	82.913	65.226	18.805	2.2068e-06	26.868	0.00026137	0.00024993	6.8795e-05	1119.9	2.7562e-06	2.7979e-06	1188	239.63	2.8464e-06	2.6614e-06	297.29	83.187	65.16	19.033	2.814e-06	27.024	261.535	204.419	238.389	160.280	289.682	310.880	159.981	167.284	309.339	326.732	166.647	173.405	173.892	180.707	344.299	180.340	-8191	255	
18108.449	1	1	0	0	0.18944	0.17114	0.074509	0.20621	0.29858	0.14465	0.26378	0.10333	0.1358	0.17831	0.22575	0.28707	0.19938	0.054121	0.18107	0.20609	-2.2542	-2.3979	-2.7854	-2.6271	-2.6479	-2.8229	-2.7667	-2.8375	-2.7812	-2.35	-2.975	-2.5604	-2.5854	-2.8354	-2.5208	-2.8521	291.454	377.628	305.897	411.252	185.462	422.503	171.246	200.294	280.847	498.842	477.199	507.830	463.614	492.902	436.649	179.086	0.00027041	0.0002201	0.00011757	1143.1	4.1044e-06	5.7321e-06	1207.9	241.94	3.0469e-06	4.1224e-06	299.16	83.34	65.278	18.937	2.8503e-06	26.493	0.00025898	0.00024875	6.9026e-05	1123.9	2.765e-06	2.7214e-06	1189.2	239.2	2.8306e-06	2.7385e-06	298.54	83.279	65.23	19.053	2.6942e-06	26.887	259.242	220.303	224.062	159.940	313.109	296.643	160.093	167.214	330.572	342.494	166.700	173.435	174.058	180.945	295.840	179.999	-8191	255	
18108.521	1	1	0	0	0.3142	0.15592	0.096712	0.18507	0.072425	0.22894	0.21493	0.043832	0.10225	0.33841	0.09554	0.29281	0.30545	0.097116	0.21871	0.082891	-2.4292	-2.65	-2.8479	-2.5583	-2.5333	-2.9042	-2.4917	-2.8771	-2.7854	-2.4208	-2.9583	-2.5438	-2.6375	-2.7938	-2.6167	-2.6979	372.016	306.818	192.527	462.686	261.118	374.471	410.144	451.766	479.941	445.431	456.183	484.393	262.579	284.338	413.943	223.213	0.00027424	0.00020608	9.8356e-05	1136	3.5782e-06	3.359e-06	1204.8	240.43	2.3074e-06	2.4783e-06	299.21	83.168	65.018	18.745	1.2326e-06	26.72	0.00026747	0.00025536	7.0206e-05	1122.2	2.8417e-06	2.573e-06	1188.4	238.74	2.753e-06	2.6127e-06	297.89	83.144	65.156	18.998	2.638e-06	26.915	260.447	209.318	246.266	160.015	318.338	303.701	160.061	167.118	334.839	314.216	166.774	173.385	173.894	181.079	341.337	180.214	-8191	255	
18108.617	1	1	0	0	0.24389	0.18436	0.088195	0.25578	0.14303	0.32786	0.19126	0.15695	0.052253	0.14981	0.22419	0.11236	0.2782	0.36309	0.069762	0.020618	-2.2771	-2.3937	-2.7375	-2.7896	-2.7021	-3.0083	-2.8417	-2.7667	-2.8667	-2.4417	-2.9271	-2.95	-2.5396	-2.775	-2.5208	-2.6312	328.510	326.773	162.541	156.706	373.948	234.105	496.549	222.351	412.694	172.805	384.018	250.765	436.006	387.564	171.525	488.559	0.00029094	0.00029237	7.4285e-05	1131.9	2.0675e-06	4.303e-06	1196.2	239.27	2.4905e-06	4.7808e-06	297.22	82.55	65.201	18.557	2.417e-06	26.348	0.00025266	0.00023794	6.3889e-05	1115.6	2.5194e-06	2.4033e-06	1178	237.42	2.5091e-06	2.4038e-06	295.09	82.606	64.777	18.888	2.4001e-06	26.665	259.019	232.307	245.656	160.158	277.316	296.295	160.309	166.971	292.929	320.388	166.762	173.796	174.004	181.008	296.601	180.753	-8191	255	
18108.713	1	1	0	0	0.22374	0.051356	0.20445	0.25315	0.18239	0.31679	0.25691	0.072831	0.3029	0.080058	0.21582	0.10189	0.30773	0.24074	0.23515	0.20922	-2.325	-2.5625	-2.7729	-2.875	-2.3917	-2.9292	-2.6583	-2.7042	-3.0604	-2.6188	-2.8917	-2.8979	-2.5292	-2.7	-2.6771	-2.5479	345.341	493.890	430.255	175.682	384.742	292.571	437.215	225.029	282.672	405.782	407.962	390.258	464.699	440.805	307.123	353.152	0.00027628	0.00029695	2.8647e-05	1121	3.5867e-06	3.7844e-06	1185.1	237.25	3.2333e-06	6.3231e-06	295.46	82.059	64.668	18.637	3.1867e-06	26.449	0.0002451	0.0002215	6.2545e-05	1103.6	2.5087e-06	2.5258e-06	1168.4	236.07	2.6266e-06	2.5746e-06	295.25	82.355	64.533	18.865	2.5312e-06	26.73	259.676	210.466	229.778	160.258	309.484	302.923	160.335	167.336	324.442	321.938	166.916	173.359	173.642	180.784	303.591	180.219	-8191	255	
18108.834	1	1	0	0	0.077485	0.15484	0.22596	0.067398	0.12213	0.22318	0.16533	0.12244	0.18689	0.19496	0.18054	0.1357	0.083677	0.033998	0.070097	0.36712	-2.3958	-2.475	-2.5708	-2.8833	-2.4813	-2.8146	-2.8125	-2.6854	-2.7479	-2.7417	-2.75	-2.8354	-2.6771	-2.75	-2.7542	-2.5167	500.489	227.985	414.080	298.354	261.312	419.496	417.994	501.456	365.301	175.215	455.219	442.509	272.743	227.851	470.600	451.344	0.0002779	0.00038222	7.1381e-05	1126	1.87e-06	2.8397e-06	1190.1	238.2	2.9671e-06	5.3061e-06	296.52	81.928	64.531	18.545	2.8128e-06	26.197	0.00025163	0.00023511	6.5799e-05	1105.5	2.536e-06	2.6088e-06	1173.2	236.57	2.5646e-06	2.6269e-06	295.47	82.382	64.541	18.833	2.4828e-06	26.666	262.251	243.132	245.700	159.899	326.677	341.320	160.184	167.610	311.278	315.637	166.738	173.488	173.715	180.732	329.966	180.294	-8191	255	
18108.930	1	1	0	0	0.029687	0.28431	0.026971	0.31984	0.24723	0.09019	0.14196	0.25076	0.31564	0.23359	0.13508	0.098626	0.14073	0.12	0.076864	0.083993	-2.6167	-2.4167	-2.6188	-2.9604	-2.6354	-2.6688	-2.8667	-2.6896	-2.9229	-2.7979	-2.7812	-2.9146	-2.6917	-2.85	-2.7479	-2.5083	483.969	452.540	332.038	198.507	160.104	474.165	468.393	184.537	354.078	493.390	187.494	416.821	378.306	349.869	403.742	327.246	0.0002831	0.000242	0.00011563	1132.5	2.6579e-06	4.2648e-06	1185.2	238.38	3.1778e-06	5.3824e-06	296.16	82.083	64.77	18.629	1.7231e-06	26.465	0.00025087	0.00023027	6.4597e-05	1109.2	2.6333e-06	2.5266e-06	1171.3	236.81	2.6607e-06	2.6478e-06	295.73	82.429	64.633	18.848	2.7004e-06	26.69	257.730	226.484	217.404	160.171	279.873	314.871	160.279	167.528	283.433	297.167	166.543	173.649	173.917	180.926	332.591	180.065	-8191	255	
18109.023	1	1	0	0	0.1847	0.13678	0.16052	0.045487	0.044697	0.15857	0.38756	0.16856	0.17601	0.0086098	0.15412	0.15085	0.14198	0.074315	0.096545	0.21183	-2.4646	-2.7292	-2.5854	-2.8542	-2.5979	-2.6896	-3.0479	-2.6458	-2.9333	-2.7458	-2.6333	-2.7812	-2.7479	-2.7917	-2.8771	-2.7271	182.675	204.322	291.000	165.260	159.632	253.310	395.007	382.822	453.762	492.515	447.862	408.074	488.324	155.066	316.347	357.208	0.0002945	0.00035066	7.5837e-05	1132.9	2.3915e-06	2.7736e-06	1191.4	238.05	3.5472e-06	3.5295e-06	297.62	82.607	64.44	18.612	2.2436e-06	26.522	0.00025372	0.00024616	6.6584e-05	1111.1	2.69e-06	2.6602e-06	1173.8	236.74	2.7329e-06	2.5233e-06	296.17	82.638	64.556	18.878	2.6452e-06	26.751	260.617	228.257	221.245	159.931	287.464	292.557	160.183	167.166	328.099	317.718	166.687	173.489	174.021	180.543	293.737	180.043	-8191	255	
18109.121	1	1	0	0	0.39357	0.16208	0.40418	0.055755	0.41468	0.23567	0.12785	0.016466	0.17216	0.15072	0.34062	0.25489	0.11698	0.13149	0.16406	0.30535	-2.4729	-2.8167	-2.6396	-2.9	-2.6396	-2.8458	-3.1437	-2.7833	-2.8354	-2.9	-2.7562	-3.0333	-2.5896	-2.825	-2.8833	-2.5458	441.671	432.496	337.026	162.552	203.049	213.019	506.124	442.575	431.824	225.017	421.783	220.085	159.896	204.618	270.436	434.289	0.00030248	0.00048276	8.7763e-05	1131.3	1.6227e-06	3.53e-06	1188.5	239.72	3.4264e-06	4.1297e-06	298.41	82.624	64.841	18.683	4.0057e-06	26.488	0.00026206	0.00024069	6.5453e-05	1109	2.5794e-06	2.6307e-06	1174.4	237.11	2.6299e-06	2.645e-06	296.04	82.772	64.71	18.917	2.6164e-06	26.766	263.643	212.961	251.561	160.271	318.879	295.338	160.101	167.383	328.891	306.228	166.654	173.283	174.249	180.861	299.999	180.569	-8191	255	
18109.217	1	1	0	0	0.15104	0.12354	0.038077	0.044576	0.20102	0.20251	0.31935	0.1546	0.047078	0.060831	0.064547	0.12352	0.041311	0.1394	0.17292	0.12202	-2.4437	-2.9062	-2.7458	-2.9854	-2.7354	-2.6583	-3.0667	-2.6063	-2.7875	-2.8438	-2.5021	-3.0021	-2.7	-2.6375	-2.9688	-2.7542	184.240	462.367	479.902	417.752	485.427	168.599	380.691	403.904	286.636	252.355	444.918	315.260	361.507	483.633	403.073	483.736	0.00028851	0.00021816	0.00010951	1127.8	3.616e-06	5.2654e-06	1192.5	240.49	2.2308e-06	1.3571e-06	297.47	81.871	64.824	18.672	3.0007e-06	26.447	0.00025418	0.00023316	6.7401e-05	1109.6	2.8329e-06	2.5787e-06	1174.9	237.23	2.7204e-06	2.664e-06	295.99	82.471	64.893	18.896	2.6503e-06	26.797	262.110	221.141	280.422	160.115	302.160	319.976	160.059	167.285	289.123	365.766	166.751	173.537	174.065	180.618	317.556	180.248	-8191	255	
18109.312	1	1	0	0	0.1418	0.21807	0.19352	0.12221	0.055571	0.25974	0.18475	0.44664	0.15973	0.2467	0.079018	0.070576	0.12226	0.38455	0.10571	0.11718	-2.3271	-2.9667	-2.6292	-2.9062	-2.7167	-2.5583	-2.9396	-2.5896	-2.75	-2.9375	-2.6208	-2.7021	-2.8271	-2.4875	-2.9167	-2.6188	426.710	308.657	204.389	382.658	467.945	347.357	413.141	404.765	392.917	498.320	315.174	466.614	208.519	311.475	503.886	357.006	0.00025591	0.00022612	0.00013739	1135.8	4.229e-06	2.2041e-06	1194.4	238.95	1.8087e-06	5.3436e-06	298.15	82.133	64.64	18.77	2.718e-06	26.447	0.00025345	0.00023617	6.5744e-05	1110.6	2.6493e-06	2.7122e-06	1176.5	237.19	2.6786e-06	2.6183e-06	295.6	82.541	64.845	18.968	2.5644e-06	26.762	264.834	210.465	231.053	159.915	308.668	270.277	160.307	167.288	302.421	296.300	166.583	173.588	174.089	180.979	291.572	180.037	-8191	255	
18109.434	1	1	0	0	0.052245	0.091307	0.19465	0.30822	0.11477	0.076775	0.35711	0.497	0.19149	0.30265	0.21683	0.19032	0.10144	0.25494	0.10766	0.080702	-2.3208	-2.6562	-2.3625	-2.8563	-2.9479	-2.6021	-2.9813	-2.7896	-2.825	-2.7562	-2.7271	-2.8646	-2.7167	-2.4938	-2.7958	-2.6875	444.638	187.517	487.452	482.585	327.262	380.760	467.895	403.438	177.761	509.029	459.888	325.863	183.769	445.932	244.236	159.861	0.00029619	0.00022701	6.5465e-05	1125.4	1.5675e-06	2.7173e-06	1187.5	239.36	3.2417e-06	3.2861e-06	297.25	82.955	64.754	18.808	2.3482e-06	26.324	0.00025994	0.00023485	6.5909e-05	1109.9	2.5975e-06	2.5295e-06	1173.9	237.18	2.6222e-06	2.5679e-06	295.88	82.771	64.742	18.936	2.6243e-06	26.767	259.079	220.600	250.636	160.018	216.011	310.471	160.302	167.513	306.508	306.530	166.912	173.441	174.201	180.805	294.496	180.307	-8191	255	
18109.529	1	1	0	0	0.19261	0.066672	0.19351	0.084092	0.038213	0.26242	0.13831	0.10037	0.3349	0.092119	0.12487	0.092124	0.19724	0.25902	0.29971	0.057115	-2.275	-2.8708	-2.6229	-2.75	-2.8229	-2.5646	-3.0979	-2.6979	-2.6625	-2.8333	-2.7229	-2.8083	-2.8833	-2.5104	-2.9375	-2.8708	279.563	218.704	420.453	345.623	311.106	478.753	309.049	161.030	504.818	168.974	487.486	485.804	428.639	199.913	265.085	447.742	0.00026536	0.00033952	8.118e-05	1123.1	3.9879e-06	1.9085e-06	1187	238.7	3.8199e-06	3.6075e-06	298.88	82.61	64.779	18.931	2.7447e-06	26.435	0.00024896	0.00022813	6.4334e-05	1108.9	2.5517e-06	2.4814e-06	1173.1	236.93	2.7516e-06	2.5674e-06	296.37	82.756	64.965	18.983	2.6461e-06	26.796	260.362	206.343	254.170	160.419	288.806	291.379	160.013	167.483	294.223	312.042	166.839	173.715	173.781	180.579	326.545	180.463	-8191	255	
18109.627	1	1	0	0	0.25012	0.32806	0.049112	0.085139	0.073925	0.2547	0.25297	0.1811	0.2089	0.13498	0.27254	0.081534	0.28651	0.23054	0.15397	0.15928	-1.9979	-2.8604	-2.6271	-2.8187	-2.9542	-2.75	-3.0875	-2.7792	-2.6208	-2.9042	-2.7062	-2.8646	-2.9542	-2.6125	-2.8354	-2.7729	475.276	196.792	424.696	324.673	413.213	156.620	448.556	490.493	279.972	384.260	270.494	216.635	262.795	338.963	489.593	172.192	0.00031986	0.00039767	9.8338e-05	1138.8	2.6483e-06	3.4912e-06	1194	239.43	3.1499e-06	4.4207e-06	298.31	82.77	64.773	18.941	2.4232e-06	26.661	0.00026047	0.00023222	6.5535e-05	1111.5	2.6399e-06	2.5395e-06	1175.5	237.16	2.6755e-06	2.579e-06	296.59	82.904	64.86	19.032	2.6299e-06	26.881	261.619	259.366	240.237	159.976	276.953	257.908	160.051	167.376	308.704	294.288	166.876	173.568	173.763	180.593	306.046	180.252	-8191	255	
18109.723	1	1	0	0	0.3061	0.042248	0.19374	0.29857	0.27602	0.19489	0.2529	0.2672	0.10845	0.26721	0.10456	0.20396	0.13306	0.1969	0.12735	0.14297	-2.1979	-2.8458	-2.5729	-2.5958	-3.0167	-2.6	-2.9604	-2.9708	-2.4125	-2.9271	-2.7771	-2.7208	-2.9333	-2.6479	-2.7833	-2.8625	193.592	309.030	420.063	463.588	406.357	471.424	427.196	487.049	262.556	403.710	506.778	443.394	466.981	251.473	402.100	424.922	0.00027326	0.00027829	3.0748e-05	1132.5	3.8994e-06	2.1999e-06	1190.7	238.67	3.9423e-06	2.1132e-06	297.63	83.134	65.37	18.836	2.5331e-06	26.504	0.00024959	0.00024054	6.6359e-05	1114.7	2.5654e-06	2.6351e-06	1176.6	237.41	2.6738e-06	2.5478e-06	296.31	83.204	65.075	19.065	2.5252e-06	26.933	262.514	186.866	212.910	160.339	326.945	317.295	160.347	167.202	299.551	312.608	166.633	173.532	174.079	180.731	275.339	180.203	-8191	255	
18109.818	1	1	0	0	0.18399	0.21123	0.2168	0.25245	0.063983	0.02089	0.29956	0.24246	0.041928	0.26437	0.075818	0.21507	0.088888	0.093936	0.23006	0.20353	-2.0479	-2.825	-2.6771	-2.7104	-2.8937	-2.5542	-2.8958	-2.9333	-2.6437	-2.9229	-2.7458	-2.6792	-2.7458	-2.5375	-2.6542	-2.8812	295.513	191.777	369.438	161.483	503.782	286.416	439.142	420.341	467.290	508.774	186.449	249.108	278.850	197.057	495.659	151.209	0.00028509	0.00042229	0.00015443	1127.2	2.2636e-06	2.249e-06	1194.4	241.01	3.4422e-06	3.4183e-06	297.84	82.483	65.131	18.861	3.1763e-06	26.514	0.00024336	0.00022105	6.3724e-05	1111.5	2.5607e-06	2.4681e-06	1179.4	238.53	2.5455e-06	2.5104e-06	296.93	83.02	64.942	19.023	2.5751e-06	26.782	264.324	230.316	254.562	160.281	297.941	283.943	160.053	167.203	290.373	311.517	167.004	173.737	173.579	180.933	293.092	180.191	-8191	255	
18109.914	1	1	0	0	0.22994	0.15438	0.28625	0.15782	0.13289	0.052121	0.22285	0.038493	0.18195	0.22084	0.062078	0.16083	0.20689	0.28288	0.16233	0.21817	-2.1979	-2.8083	-2.8708	-2.5167	-2.9021	-2.6042	-2.85	-2.9896	-2.7062	-2.9354	-3.0292	-2.5375	-3.0292	-2.7229	-2.7333	-3.0625	189.831	508.042	459.012	440.075	466.295	164.360	419.246	281.707	333.643	322.554	494.569	329.336	193.915	181.318	181.374	233.133	0.0002975	0.00036821	5.3368e-05	1131.1	4.2526e-06	3.8147e-06	1201.2	240.37	2.535e-06	3.8625e-06	299.72	82.738	65.114	18.79	2.3849e-06	26.522	0.00025416	0.00023336	6.3082e-05	1113.3	2.6544e-06	2.672e-06	1179.1	238.35	2.7431e-06	2.6301e-06	297.77	82.954	65.04	19.003	2.7159e-06	26.891	265.425	250.712	246.220	160.405	316.204	319.135	160.323	167.374	309.830	319.232	166.530	173.533	173.632	180.790	299.595	179.774	-8191	255	
18110.010	1	1	0	0	0.36208	0.16732	0.27961	0.17263	0.16597	0.12143	0.26249	0.16223	0.081444	0.13408	0.18707	0.10715	0.082266	0.078844	0.3095	0.20439	-2.1875	-2.7875	-2.875	-2.5875	-2.8958	-2.6604	-2.7625	-2.9667	-2.5729	-2.8729	-2.9604	-2.6917	-2.9437	-2.8458	-2.6937	-2.8	404.624	491.179	432.293	504.045	179.864	300.442	414.442	314.329	265.845	482.880	194.796	166.338	157.052	266.889	418.079	400.214	0.00029243	0.00020799	0.00010893	1128	3.7782e-06	1.017e-06	1198.7	240.91	2.7444e-06	4.2237e-06	298.5	82.995	65.33	18.816	2.2974e-06	26.596	0.00026442	0.00024187	6.7418e-05	1114.6	2.7211e-06	2.5972e-06	1180.5	239.03	2.623e-06	2.6096e-06	296.88	82.862	65.112	18.998	2.6659e-06	26.922	260.871	248.705	236.503	160.163	295.045	295.231	160.199	167.340	300.347	326.735	166.858	173.308	173.600	180.295	274.810	179.827	-8191	255	
18110.105	1	1	0	0	0.069883	0.27889	0.24173	0.28681	0.098566	0.15947	0.18765	0.241	0.1896	0.12053	0.16756	0.099194	0.051552	0.067265	0.15117	0.25508	-2.2188	-2.6875	-2.8	-2.5958	-2.8563	-2.7417	-2.8208	-3.0563	-2.6354	-2.7521	-2.8292	-2.5729	-2.8125	-2.8771	-2.6	-3.1688	352.989	313.979	363.006	351.130	153.555	359.887	494.306	157.898	479.303	418.133	464.426	292.043	226.846	302.794	224.037	490.372	0.00030204	0.00027455	0.000128	1134.1	3.8737e-06	9.2386e-07	1199.1	241.93	4.04e-06	3.5366e-06	297.84	82.504	64.843	18.792	2.6954e-06	26.543	0.0002628	0.00024004	6.4164e-05	1114.8	2.7262e-06	2.7393e-06	1181.5	239.03	2.6518e-06	2.6664e-06	296.79	82.929	64.978	18.962	2.6648e-06	26.862	261.996	240.541	248.629	160.143	322.398	264.339	159.816	167.486	345.368	333.607	166.522	173.417	173.770	180.415	281.985	180.286	-8191	255	
18110.225	1	1	0	0	0.070881	0.081071	0.20448	0.2195	0.10017	0.1291	0.19584	0.20087	0.13665	0.11373	0.15275	0.16993	0.27421	0.060764	0.19086	0.16206	-2.325	-2.5896	-2.9667	-2.7125	-2.9792	-2.8229	-2.7188	-2.9188	-2.6917	-2.5979	-2.9813	-2.575	-2.7208	-2.6604	-2.5396	-2.95	463.129	473.918	356.251	470.365	226.644	181.216	465.087	269.322	325.970	278.232	408.911	489.135	488.477	412.677	279.967	149.886	0.0002867	0.00053092	7.7685e-05	1142.6	3.0695e-06	3.1217e-06	1201.3	241.41	2.8421e-06	2.3473e-06	298.01	83.342	65.121	18.717	2.6096e-06	26.307	0.00025549	0.00024685	6.6589e-05	1116.2	2.7488e-06	2.5968e-06	1183.2	238.8	2.7279e-06	2.761e-06	297.41	83.205	65.152	18.978	2.7108e-06	26.798	260.012	250.556	256.009	160.253	304.231	322.906	160.083	167.371	310.084	366.106	166.870	173.802	174.119	180.590	324.384	180.292	-8191	255	
18110.322	1	1	0	0	0.23721	0.12632	0.087216	0.067891	0.35102	0.12149	0.21824	0.10812	0.1547	0.28114	0.19218	0.19474	0.10069	0.15954	0.37406	0.048004	-2.3479	-2.6937	-2.8646	-2.5375	-2.7083	-3	-2.6458	-2.9917	-2.7875	-2.6292	-3.0958	-2.75	-3.0583	-3.1729	-2.475	-2.9562	485.901	352.751	325.647	411.907	234.073	287.525	444.668	487.317	416.459	298.266	165.386	397.016	403.032	158.874	485.832	450.947	0.00029311	0.00017428	0.00012905	1142.6	1.9634e-06	2.4676e-06	1200.1	242.38	4.2612e-06	1.9059e-06	298.99	83.355	65.473	18.993	4.4593e-06	26.654	0.00026451	0.00024451	6.7846e-05	1116.4	2.7628e-06	2.7756e-06	1183	239.67	2.7963e-06	2.6826e-06	298.1	83.262	65.369	19.142	2.7049e-06	27.007	266.662	264.017	231.221	160.224	306.568	319.640	160.227	167.023	315.570	284.009	167.060	173.635	174.050	180.729	308.269	180.034	-8191	255	
18110.393	1	1	0	0	0.20979	0.26312	0.1484	0.282	0.10166	0.16357	0.32939	0.077222	0.17551	0.027323	0.19986	0.16351	0.048839	0.10762	0.15425	0.30742	-2.2792	-2.5375	-2.9771	-2.7771	-2.7396	-3.0271	-2.8021	-2.7146	-2.8042	-2.6875	-3.1396	-2.7271	-2.7833	-3.0687	-2.7875	-2.9083	328.313	377.661	277.451	439.976	309.180	254.530	479.753	507.089	263.236	190.194	381.338	406.364	160.750	489.755	344.955	365.057	0.00027623	0.00028266	7.4396e-05	1140.9	4.2397e-06	4.5701e-06	1206.2	240.94	3.311e-06	1.7678e-06	299.43	83.505	65.144	19.025	1.6138e-06	26.519	0.00025197	0.00024394	6.7275e-05	1123.8	2.7473e-06	2.5913e-06	1185.8	239.59	2.8304e-06	2.766e-06	298.26	83.451	65.175	19.097	2.8843e-06	26.971	265.715	224.432	212.474	159.984	323.468	277.176	160.045	167.180	311.197	308.368	166.367	173.746	173.710	180.804	231.067	180.222	-8191	255	
18110.514	1	1	0	0	0.12677	0.13226	0.11214	0.39686	0.21216	0.24224	0.14554	0.3199	0.024255	0.063372	0.20753	0.21731	0.1248	0.19706	0.22817	0.19281	-2.4729	-2.4521	-2.9146	-2.6437	-2.6521	-2.9583	-2.725	-2.8667	-2.7958	-2.4229	-2.9667	-2.6896	-2.6917	-2.8417	-2.5771	-2.8042	356.957	462.638	331.022	487.813	200.643	495.674	195.728	490.855	455.021	288.158	157.312	227.409	428.886	170.307	369.449	415.171	0.00027929	0.00035516	0.00013724	1143.2	3.6783e-06	3.9997e-06	1207.5	241.41	3.539e-06	3.2977e-06	300.52	82.768	64.969	18.844	1.823e-06	26.401	0.00026965	0.00026818	7.2895e-05	1126.3	2.9852e-06	2.8532e-06	1192.1	240.03	2.9346e-06	2.9135e-06	298.68	83.144	65.321	19.136	2.9957e-06	26.922	262.714	239.786	225.721	160.073	309.415	315.087	159.929	167.160	336.405	334.435	167.081	173.505	173.796	180.853	333.205	180.192	-8191	255	
18110.609	1	1	0	0	0.046596	0.2301	0.31386	0.087912	0.18636	0.17356	0.32787	0.34984	0.065131	0.04721	0.17473	0.27612	0.090348	0.32869	0.1771	0.037367	-2.5396	-2.5187	-2.8625	-2.8	-2.3937	-2.9354	-2.7583	-2.9562	-2.9479	-2.6437	-2.9083	-2.7292	-2.675	-2.9062	-2.5042	-2.9646	242.710	183.418	201.838	304.544	502.215	464.645	393.464	432.833	457.393	386.679	476.303	175.064	436.313	436.541	400.629	330.766	0.00029578	0.00043073	4.4784e-05	1142	3.3848e-06	5.3757e-06	1209.4	242.08	4.1263e-06	2.2676e-06	300.64	82.717	64.943	18.913	2.7421e-06	26.773	0.00027653	0.00027427	7.2785e-05	1126.1	2.8922e-06	2.8539e-06	1192.3	240.08	2.9561e-06	2.9189e-06	298.82	83.197	65.316	19.086	3.0313e-06	27.008	263.208	229.837	232.736	160.219	331.409	298.904	160.108	167.403	319.211	328.190	166.874	173.570	173.819	180.808	340.046	180.162	-8191	255	
18110.705	1	1	0	0	0.28641	0.23315	0.073212	0.18076	0.094577	0.20665	0.25576	0.2843	0.29833	0.33191	0.22594	0.062798	0.03927	0.15713	0.15609	0.14678	-2.5875	-2.5583	-3	-2.7083	-2.6146	-3.0104	-2.7521	-2.8708	-2.9271	-2.6063	-3.1188	-2.9188	-2.5812	-2.8979	-2.6854	-2.6125	457.783	336.514	334.304	173.415	325.643	186.806	474.629	193.574	200.426	420.571	241.363	491.438	305.874	189.207	460.538	221.314	0.0002959	0.00024246	7.2832e-05	1144.3	3.5428e-06	3.3217e-06	1212.6	242.92	3.4438e-06	2.914e-06	301.29	83.565	65.323	18.961	5.5962e-06	26.735	0.00027566	0.00027268	7.3954e-05	1126.1	3.0521e-06	2.9663e-06	1192.2	240.9	3.0114e-06	3.0266e-06	299.74	83.607	65.583	19.139	3.1083e-06	27.035	262.289	232.569	222.309	160.063	299.939	324.098	159.851	167.174	317.557	301.806	166.600	173.460	173.689	180.376	310.464	180.443	-8191	255	
18110.803	1	1	0	0	0.1618	0.086214	0.0862	0.12114	0.22567	0.076463	0.14992	0.30409	0.21456	0.2381	0.25855	0.31367	0.15424	0.07794	0.09014	0.21132	-2.3583	-2.375	-2.7479	-2.8521	-2.5792	-2.8042	-2.9333	-2.6771	-2.8792	-2.7	-2.6271	-2.8812	-2.5458	-2.8563	-2.7604	-2.7	227.856	247.717	163.041	354.355	348.241	407.770	285.700	481.363	175.577	281.733	316.701	188.352	161.256	210.007	269.006	269.875	0.00032234	0.00020264	8.4827e-05	1147.2	3.5508e-06	3.0071e-06	1211.6	243.08	2.9856e-06	3.4418e-06	303.33	83.236	65.608	19.003	2.9254e-06	26.715	0.00028928	0.00028565	8.0835e-05	1128.5	3.198e-06	3.0981e-06	1195.5	241.22	3.2088e-06	3.1872e-06	300.96	83.543	65.666	19.212	3.2583e-06	27.078	262.351	228.827	207.549	160.223	289.768	332.456	160.037	167.295	292.163	293.259	166.966	173.738	173.754	180.807	337.701	180.616	-8191	255	
18110.924	1	1	0	0	0.11269	0.12518	0.16741	0.14038	0.044526	0.097456	0.22644	0.26641	0.17409	0.19754	0.24163	0.070179	0.1676	0.13599	0.26209	0.11364	-2.65	-2.4062	-2.8458	-2.7833	-2.7333	-2.8833	-3.1479	-2.5812	-2.8979	-2.7354	-2.7833	-2.9896	-2.6208	-2.7292	-2.8854	-2.5104	305.072	380.818	329.648	311.065	389.614	404.681	476.291	499.093	175.873	271.572	412.159	282.436	183.872	392.248	291.936	338.805	0.00029049	0.00046361	0.00013114	1163.3	4.1549e-06	3.0604e-06	1214.5	244.07	5.0456e-06	3.058e-06	302.41	83.816	65.731	19.035	2.9945e-06	26.553	0.00029919	0.0003052	8.2229e-05	1137.4	3.3197e-06	3.2594e-06	1200.9	242.04	3.2641e-06	3.3709e-06	300.64	83.757	65.792	19.229	3.231e-06	27.135	258.621	264.094	256.931	159.617	314.221	333.995	160.252	167.096	331.462	341.032	166.740	173.622	173.738	180.824	325.245	180.191	-8191	255	
18111.018	1	1	0	0	0.12463	0.015882	0.030964	0.16025	0.13659	0.16618	0.10663	0.16365	0.3461	0.090698	0.27183	0.15831	0.1864	0.1036	0.19265	0.038644	-2.65	-2.6604	-2.5417	-3.2104	-2.6	-2.7292	-3.075	-2.7021	-3.0021	-2.725	-2.7667	-3.0458	-2.6667	-2.7896	-2.8271	-2.5521	170.237	270.279	357.627	159.843	258.864	150.996	367.020	446.533	474.819	268.162	415.220	410.020	347.266	387.912	223.482	239.265	0.00029176	0.00024192	4.6729e-05	1160	2.9534e-06	3.7201e-06	1218.9	244.19	2.7156e-06	7.8842e-07	302.72	83.603	65.919	18.931	2.4219e-06	26.617	0.00030085	0.0002922	8.4562e-05	1138.4	3.3107e-06	3.3204e-06	1201.7	242.09	3.2861e-06	3.1824e-06	301.29	83.811	65.835	19.194	3.2851e-06	27.118	260.302	253.934	265.944	160.133	288.202	325.920	160.044	167.131	282.579	299.803	166.837	173.346	173.871	180.776	315.884	179.994	-8191	255	
18111.113	1	1	0	0	0.17143	0.048836	0.1044	0.18531	0.25784	0.067932	0.27939	0.33268	0.33506	0.066015	0.12522	0.22913	0.087773	0.21687	0.038925	0.12467	-2.4188	-2.6833	-2.6521	-2.875	-2.6521	-2.8146	-2.8208	-2.4938	-2.85	-2.5833	-2.5146	-2.8979	-2.5667	-2.7104	-2.9104	-2.5604	346.774	371.627	445.650	443.485	198.076	281.684	411.061	470.096	153.710	165.726	423.997	390.559	444.495	397.662	167.818	241.964	0.00027995	0.00030727	0.00010156	1160.2	2.9181e-06	4.9715e-06	1217.4	243.66	4.3829e-06	3.9223e-06	303.75	83.552	65.458	18.943	8.5118e-07	26.706	0.00029961	0.00029788	7.8953e-05	1138.6	3.1804e-06	3.1239e-06	1203.2	241.99	3.1859e-06	3.0675e-06	301.64	83.721	65.687	19.159	3.0844e-06	27.06	257.461	262.526	256.932	160.006	333.854	312.209	160.171	167.367	272.566	342.117	166.955	173.713	173.946	180.819	292.481	180.205	-8191	255	
18111.211	1	1	0	0	0.072959	0.28941	0.14363	0.13695	0.10387	0.12718	0.044343	0.21364	0.25555	0.18093	0.12237	0.10965	0.045563	0.13863	0.10231	0.13399	-2.3979	-2.8125	-2.5	-2.925	-2.4938	-2.7729	-2.9958	-2.7104	-2.95	-2.7083	-2.7396	-3.0417	-2.6833	-2.55	-3.1083	-2.4583	417.414	225.533	491.226	174.697	238.905	154.540	347.082	503.085	338.124	325.537	402.993	215.453	327.628	465.045	509.161	484.464	0.00027255	0.00021427	2.4695e-05	1154.6	2.4174e-06	6.2617e-06	1219.1	243.06	3.2855e-06	2.7872e-06	303.2	83.593	65.525	18.941	1.756e-06	26.844	0.00028212	0.00028158	8.2465e-05	1138.6	3.0856e-06	3.0659e-06	1200.4	241.46	3.1187e-06	3.0596e-06	300.9	83.85	65.749	19.204	2.987e-06	27.192	260.045	256.353	248.457	159.790	314.309	314.845	160.132	167.177	300.624	327.356	166.912	173.759	173.523	180.616	291.687	180.194	-8191	255	
18111.307	1	1	0	0	0.10953	0.1589	0.072274	0.057664	0.25585	0.164	0.36228	0.063743	0.18193	0.0861	0.021914	0.14711	0.05801	0.11246	0.11991	0.055314	-2.3812	-2.7188	-2.5104	-3.0229	-2.7854	-2.775	-2.9729	-2.5625	-2.7104	-2.7896	-2.7292	-2.8646	-2.6708	-2.5896	-2.7542	-2.5958	326.657	164.182	208.497	298.626	481.553	393.011	454.589	478.072	358.589	466.177	206.774	475.114	450.467	164.256	356.844	349.059	0.00027087	0.00035081	0.0001318	1151.3	5.1075e-06	4.721e-06	1219.9	243.76	2.3549e-06	4.0636e-06	302.33	83.663	66.256	18.904	2.9053e-06	26.538	0.00028572	0.00027213	7.6637e-05	1139.1	3.0085e-06	2.999e-06	1203.2	241.74	3.0451e-06	2.9257e-06	301.36	83.896	65.939	19.187	3.0454e-06	27.076	264.080	221.869	265.646	159.999	301.054	306.895	160.193	167.238	310.301	323.874	166.897	173.506	173.681	180.740	311.615	180.309	-8191	255	
18111.402	1	1	0	0	0.33237	0.14288	0.11234	0.10723	0.18917	0.38152	0.36872	0.077889	0.1211	0.15704	0.23788	0.24837	0.16799	0.15028	0.18849	0.18488	-2.1104	-2.6708	-2.5312	-2.8312	-2.6708	-2.7146	-2.8792	-2.7833	-2.6708	-2.8583	-2.4833	-2.9333	-2.8854	-2.5875	-2.8146	-2.6063	486.740	354.353	435.799	504.877	344.842	216.730	430.736	196.440	262.212	317.158	460.891	278.288	494.496	281.831	448.807	415.925	0.00032376	0.00039535	8.4612e-05	1159.5	2.2662e-06	1.7287e-06	1219.6	244.14	2.4751e-06	3.3868e-06	304.4	83.944	65.85	18.972	4.1112e-06	26.729	0.00028557	0.00026989	7.8756e-05	1135.6	2.9614e-06	2.9704e-06	1202.5	242.27	2.9509e-06	3.06e-06	301.39	83.883	65.838	19.192	3.0337e-06	27.133	260.777	240.497	258.970	160.041	309.592	280.820	160.105	167.284	329.224	327.428	166.669	173.463	174.065	180.526	265.967	180.444	-8191	255	
18111.523	1	1	0	0	0.16145	0.18328	0.15575	0.064883	0.14544	0.16876	0.21646	0.18706	0.10752	0.10718	0.12875	0.41796	0.31935	0.069958	0.17666	0.23454	-2.2417	-2.8229	-2.5854	-2.8312	-2.7396	-2.4396	-3.0062	-2.6833	-2.5417	-2.8812	-2.5208	-2.7458	-2.8646	-2.5187	-2.8542	-2.55	246.821	225.002	330.886	177.776	285.857	328.589	410.999	419.054	266.984	180.705	508.873	455.968	469.896	355.800	190.630	475.741	0.00029653	0.00030432	9.0517e-05	1160.2	3.7807e-06	2.123e-06	1222.5	244.28	2.1778e-06	3.344e-06	301.76	83.298	65.723	19.059	5.0583e-07	26.8	0.00028	0.00027523	7.8064e-05	1135.6	3.0304e-06	3.0351e-06	1201.5	241.89	3.2059e-06	3.0039e-06	300.84	83.924	65.825	19.222	3.1502e-06	27.091	262.575	206.278	225.715	159.952	329.473	331.663	160.109	167.110	296.227	302.181	166.507	173.312	173.730	180.576	230.455	180.179	-8191	255	
18111.619	1	1	0	0	0.154	0.19352	0.057102	0.116	0.20375	0.043762	0.14145	0.29705	0.4274	0.15579	0.15074	0.12162	0.19969	0.053932	0.14028	0.064447	-2.2083	-2.95	-2.5646	-2.65	-2.7729	-2.7687	-3.0479	-2.8333	-2.5917	-2.9729	-2.6833	-2.7271	-3.0083	-2.5021	-2.8417	-2.9083	228.269	337.094	397.829	502.301	176.201	319.627	158.475	173.216	505.466	468.307	324.028	459.228	470.986	357.607	487.523	276.933	0.00030601	0.00025173	0.00010041	1155.6	4.0891e-06	4.4691e-06	1219.2	244.35	3.4814e-06	3.1446e-06	303.2	83.211	66.159	18.996	3.4109e-06	26.682	0.00029242	0.00029143	8.0106e-05	1138.5	3.0879e-06	3.1459e-06	1203.2	242.07	3.2183e-06	3.2518e-06	301.23	83.594	65.9	19.163	3.1622e-06	27.058	264.492	264.157	237.719	160.393	355.641	306.489	160.130	166.931	296.984	301.993	166.830	173.593	173.900	180.728	297.056	180.350	-8191	255	
18111.689	1	1	0	0	0.06088	0.14892	0.20811	0.20372	0.16947	0.099473	0.15439	0.24497	0.15073	0.18362	0.19393	0.3002	0.14925	0.07862	0.23213	0.12673	-2.1312	-2.8458	-2.6708	-2.8063	-2.9333	-2.6604	-3.0146	-2.7458	-2.6292	-2.875	-2.65	-2.8521	-2.9896	-2.6312	-2.7292	-2.7958	153.211	428.919	179.096	464.643	187.771	435.916	429.311	420.493	209.013	462.157	215.042	181.436	477.074	181.658	162.164	363.591	0.0002901	0.000373	0.00010619	1157.2	2.1408e-06	2.03e-06	1221.4	243.98	2.4552e-06	4.7127e-06	302.94	83.277	65.552	18.863	2.758e-06	26.714	0.00029154	0.00028506	8.061e-05	1137.8	3.1486e-06	2.9988e-06	1205.4	242.36	3.038e-06	3.0978e-06	301.27	83.579	65.81	19.167	3.0584e-06	27.138	260.792	217.151	245.064	160.310	343.884	260.711	160.243	166.944	308.429	319.209	166.715	173.464	174.196	180.600	307.076	179.754	-8191	255	
18111.787	1	1	0	0	0.17436	0.21242	0.078195	0.30339	0.16682	0.14786	0.21013	0.20969	0.092808	0.036054	0.11585	0.2054	0.22766	0.086239	0.12129	0.13634	-2.2375	-2.9333	-2.675	-2.7292	-2.9208	-2.5542	-3.0917	-2.9292	-2.5521	-2.9042	-2.7125	-2.7313	-3.025	-2.6458	-2.8021	-2.8667	212.011	484.959	282.445	492.530	199.465	161.003	414.694	424.147	278.862	331.159	320.118	174.406	498.574	326.365	300.653	476.291	0.00029283	0.00024189	0.00013002	1159.9	9.361e-07	4.1302e-06	1214.8	243.99	2.1128e-06	3.3843e-06	302.38	83.779	65.952	19.091	3.8288e-06	26.587	0.00028411	0.00026356	7.7285e-05	1137.2	2.9426e-06	2.9302e-06	1203.2	241.85	2.98e-06	2.9851e-06	301.48	83.978	65.942	19.248	3.0262e-06	27.119	264.448	253.892	223.403	159.889	274.170	332.820	159.933	167.096	342.611	291.748	166.793	173.639	173.770	180.750	333.258	180.182	-8191	255	
18111.906	1	1	0	0	0.18883	0.28063	0.093376	0.16441	0.14654	0.16293	0.090778	0.14622	0.18573	0.24115	0.15361	0.1867	0.22647	0.048184	0.052581	0.14557	-2.1146	-2.9938	-2.7833	-2.5792	-2.9146	-2.4458	-2.8937	-2.7229	-2.4854	-2.8958	-2.8667	-2.5729	-2.7188	-2.675	-2.8375	-3.1396	445.923	225.133	341.635	158.607	432.731	385.296	255.590	272.805	353.543	406.378	393.816	416.139	491.644	199.663	396.201	353.090	0.00031382	0.00029469	5.1531e-05	1161.5	3.1991e-06	2.6772e-06	1222.7	243.52	9.4989e-07	4.0483e-06	304.21	83.425	65.883	19.035	4.8397e-06	26.693	0.00028222	0.00026082	7.3476e-05	1139.7	2.9495e-06	2.9647e-06	1205.3	241.81	3.0524e-06	2.9412e-06	301.55	83.848	65.94	19.24	3.0405e-06	27.075	259.294	284.627	254.212	160.065	298.037	316.862	160.119	167.367	335.083	292.890	166.669	173.278	173.854	181.056	319.327	180.227	-8191	255	
18112.002	1	1	0	0	0.050481	0.23057	0.15828	0.31152	0.22767	0.2223	0.17127	0.21889	0.20502	0.13113	0.1878	0.089286	0.31923	0.23492	0.16606	0.28196	-2.0979	-2.7854	-2.8042	-2.475	-2.8604	-2.8104	-2.9688	-2.8042	-2.45	-2.8333	-2.7375	-2.6354	-2.9771	-2.5958	-2.6937	-2.9729	246.777	379.507	257.404	150.570	249.170	468.380	314.262	419.466	242.168	180.402	344.534	227.992	454.388	270.761	268.585	434.123	0.00029847	0.00027882	8.2442e-05	1156.5	3.3525e-06	3.1632e-06	1219.8	244.52	3.6819e-06	2.5955e-06	301.68	83.123	65.539	18.936	2.9493e-06	26.654	0.00027611	0.00026753	7.2664e-05	1140.3	2.9475e-06	2.9407e-06	1202.6	241.82	2.9427e-06	2.8619e-06	301.09	83.618	65.809	19.157	2.8059e-06	27.09	261.134	230.343	250.841	160.272	327.706	334.503	159.976	167.058	307.868	283.226	166.675	173.570	173.569	181.175	361.831	180.219	-8191	255	
18112.098	1	1	0	0	0.11615	0.042382	0.19221	0.032636	0.44245	0.22853	0.23533	0.19415	0.093308	0.11451	0.36772	0.13121	0.077577	0.17331	0.13363	0.1456	-2.1708	-2.5812	-2.6646	-2.5896	-2.7687	-2.7583	-2.7771	-2.8625	-2.5312	-2.7188	-2.7917	-2.5833	-3.0187	-2.7021	-2.6688	-2.9854	412.291	472.629	202.083	254.027	234.846	274.432	446.268	210.367	299.596	300.392	397.002	462.221	353.507	445.927	282.800	155.460	0.00028519	0.00033889	0.00014455	1154.3	2.5991e-06	2.9983e-06	1218.1	243.97	3.7469e-06	4.1274e-06	301.73	83.851	66.079	18.965	2.3984e-06	26.824	0.00027594	0.00027071	7.1682e-05	1132.3	2.8189e-06	2.8338e-06	1201	241.43	2.9005e-06	2.7979e-06	300.29	83.888	65.731	19.23	2.8044e-06	27.153	262.478	252.657	213.402	160.228	276.672	323.554	159.986	167.168	331.483	323.092	166.657	173.505	173.849	180.706	310.433	180.006	-8191	255	
18112.195	1	1	0	0	0.14367	0.045267	0.13073	0.11148	0.075855	0.052803	0.16986	0.28091	0.17882	0.13169	0.10758	0.16917	0.068154	0.39401	0.080387	0.042608	-2.1583	-2.6771	-3.0312	-2.6063	-2.7938	-2.6312	-2.85	-2.8937	-2.6354	-2.6562	-2.7271	-2.5708	-2.8833	-2.475	-2.5854	-2.9729	421.333	350.561	284.695	321.721	331.929	363.431	185.973	472.729	340.192	344.739	266.386	196.811	223.006	363.672	451.385	270.857	0.00030177	0.00039291	0.00010464	1156.6	3.3422e-06	2.0801e-06	1214.9	242.7	4.569e-06	2.9017e-06	302.2	83.31	65.608	19.013	3.2269e-06	26.716	0.00026664	0.00025907	7.1698e-05	1134.7	2.798e-06	2.7081e-06	1198.4	240.79	2.8537e-06	2.7267e-06	300.25	83.402	65.606	19.156	2.8719e-06	27.118	263.779	248.949	243.564	160.253	347.201	300.193	159.812	167.188	310.202	340.155	166.649	173.386	174.062	180.412	326.600	180.215	-8191	255	
18112.289	1	1	0	0	0.1386	0.17214	0.28553	0.18894	0.04293	0.2676	0.16947	0.038256	0.098464	0.35536	0.13113	0.17776	0.11304	0.30563	0.24878	0.16496	-2.0062	-2.6083	-2.825	-2.6146	-2.9	-2.7021	-2.8292	-3	-2.6521	-2.5958	-3.0604	-2.65	-2.9646	-2.8667	-2.5604	-3.0333	281.983	293.429	490.714	158.789	344.295	222.012	426.119	286.834	495.841	374.067	461.887	507.949	161.935	447.563	311.625	458.192	0.000289	0.00031167	7.0196e-05	1157.6	3.6444e-06	2.9636e-06	1211.4	243.1	3.6196e-06	3.2739e-06	302.06	83.342	65.899	18.938	4.0143e-06	26.774	0.00027062	0.0002647	7.0645e-05	1135.3	2.8527e-06	2.8025e-06	1196.8	241.03	2.9382e-06	2.7717e-06	300.71	83.388	65.74	19.172	2.8297e-06	27.078	255.430	249.633	254.977	160.401	306.283	294.215	160.322	166.962	306.158	322.466	166.846	173.418	174.195	180.707	320.168	180.306	-8191	255	
#DATA ENDS
