BOXY.EXE: ISS Imagent and Oximeter Data Acquisition Program Version 0.80
Ascii Record File

#ACQ INFORMATION
2  Detector Channels 
16  External MUX Channels 
1  Auxiliary Channels 
5000  Waveform (CCF) Frequency (Hz)
1  Waveforms Skipped 
30  Waveforms Averaged 
1  Cycles Averaged 
16  Acquisitions per Waveform 
10.0806  Updata Rate (Hz) 

#FILE INFORMATION
TRUE -- External MUX Channel results are PARSED.
FALSE -- AC DC and Phase are NOT grouped.
TRUE -- Companion Program Settings File CREATED.
FALSE -- AC data not excluded
FALSE -- DC data not excluded
FALSE -- Phase data not excluded
FALSE -- Auxillary Chn. data not excluded
Tab delimiters

#CALIBRATION STATE
TRUE -- Waveform Calibration Values APPLIED.


#AUX CALIBRATION VALUES
Val Type	aux-1	

Term	1.0000e+00	
Factor	0.0000e+00	


#WF CALIBRATION VALUES
A = Detector Channel
Val Type	A-AC1	A-AC2	A-AC3	A-AC4	A-AC5	A-AC6	A-AC7	A-AC8	A-AC9	A-AC10	A-AC11	A-AC12	A-AC13	A-AC14	A-AC15	A-AC16	A-DC1	A-DC2	A-DC3	A-DC4	A-DC5	A-DC6	A-DC7	A-DC8	A-DC9	A-DC10	A-DC11	A-DC12	A-DC13	A-DC14	A-DC15	A-DC16	A-Ph1	A-Ph2	A-Ph3	A-Ph4	A-Ph5	A-Ph6	A-Ph7	A-Ph8	A-Ph9	A-Ph10	A-Ph11	A-Ph12	A-Ph13	A-Ph14	A-Ph15	A-Ph16	

Term	0.00000e+00	0.00000e+00	0.00000e+00	0.00000e+00	0.00000e+00	0.00000e+00	0.00000e+00	0.00000e+00	0.00000e+00	0.00000e+00	0.00000e+00	0.00000e+00	0.00000e+00	0.00000e+00	0.00000e+00	0.00000e+00	0.00000e+00	0.00000e+00	0.00000e+00	0.00000e+00	0.00000e+00	0.00000e+00	0.00000e+00	0.00000e+00	0.00000e+00	0.00000e+00	0.00000e+00	0.00000e+00	0.00000e+00	0.00000e+00	0.00000e+00	0.00000e+00	0.00000e+00	0.00000e+00	0.00000e+00	0.00000e+00	0.00000e+00	0.00000e+00	0.00000e+00	0.00000e+00	0.00000e+00	0.00000e+00	0.00000e+00	0.00000e+00	0.00000e+00	0.00000e+00	0.00000e+00	0.00000e+00	
Factor	1.00000e+00	1.00000e+00	1.00000e+00	1.00000e+00	1.00000e+00	1.00000e+00	1.00000e+00	1.00000e+00	1.00000e+00	1.00000e+00	1.00000e+00	1.00000e+00	1.00000e+00	1.00000e+00	1.00000e+00	1.00000e+00	1.00000e+00	1.00000e+00	1.00000e+00	1.00000e+00	1.00000e+00	1.00000e+00	1.00000e+00	1.00000e+00	1.00000e+00	1.00000e+00	1.00000e+00	1.00000e+00	1.00000e+00	1.00000e+00	1.00000e+00	1.00000e+00	X	X	X	X	X	X	X	X	X	X	X	X	X	X	X	X	

B = Detector Channel
Val Type	B-AC1	B-AC2	B-AC3	B-AC4	B-AC5	B-AC6	B-AC7	B-AC8	B-AC9	B-AC10	B-AC11	B-AC12	B-AC13	B-AC14	B-AC15	B-AC16	B-DC1	B-DC2	B-DC3	B-DC4	B-DC5	B-DC6	B-DC7	B-DC8	B-DC9	B-DC10	B-DC11	B-DC12	B-DC13	B-DC14	B-DC15	B-DC16	B-Ph1	B-Ph2	B-Ph3	B-Ph4	B-Ph5	B-Ph6	B-Ph7	B-Ph8	B-Ph9	B-Ph10	B-Ph11	B-Ph12	B-Ph13	B-Ph14	B-Ph15	B-Ph16	

Term	0.00000e+00	0.00000e+00	0.00000e+00	0.00000e+00	0.00000e+00	0.00000e+00	0.00000e+00	0.00000e+00	0.00000e+00	0.00000e+00	0.00000e+00	0.00000e+00	0.00000e+00	0.00000e+00	0.00000e+00	0.00000e+00	0.00000e+00	0.00000e+00	0.00000e+00	0.00000e+00	0.00000e+00	0.00000e+00	0.00000e+00	0.00000e+00	0.00000e+00	0.00000e+00	0.00000e+00	0.00000e+00	0.00000e+00	0.00000e+00	0.00000e+00	0.00000e+00	-8.38749e+01	-1.27561e+02	-1.29383e+02	-1.82058e+02	-6.19891e+01	-7.14628e+01	-1.55747e+02	-1.62015e+02	-5.82974e+01	-6.86231e+01	-1.71238e+02	-1.71237e+02	-1.82061e+02	-1.77401e+02	-5.37240e+01	-1.50384e+02	
Factor	1.42709e-05	1.38839e-04	3.86687e-05	4.05436e-01	1.18614e-06	1.51150e-06	1.47071e-01	4.85511e-02	1.02166e-06	1.47325e-06	7.65610e-02	2.53067e-02	2.09732e-02	7.51348e-03	1.33112e-06	1.08675e-02	6.93059e-06	9.99898e-06	2.78233e-06	2.11537e-01	1.08082e-07	1.11375e-07	7.28781e-02	2.56159e-02	1.03966e-07	1.10888e-07	3.90711e-02	1.30328e-02	1.12180e-02	3.99480e-03	1.06624e-07	5.59534e-03	X	X	X	X	X	X	X	X	X	X	X	X	X	X	X	X	



#DISTANCE SETTINGS
A = Detector Channel
A-1	A-2	A-3	A-4	A-5	A-6	A-7	A-8	A-9	A-10	A-11	A-12	A-13	A-14	A-15	A-16	

2.5000e+00	3.0000e+00	2.5000e+00	3.0000e+00	2.0000e+00	3.0000e+00	1.5000e+00	3.0000e+00	3.0000e+00	3.0000e+00	3.0000e+00	3.0000e+00	3.0000e+00	3.0000e+00	1.5000e+00	3.0000e+00	

B = Detector Channel
B-1	B-2	B-3	B-4	B-5	B-6	B-7	B-8	B-9	B-10	B-11	B-12	B-13	B-14	B-15	B-16	

1.0000e+01	1.0000e+01	1.0000e+01	1.4400e+00	1.0000e+01	1.0000e+01	1.5100e+00	1.9400e+00	1.0000e+01	1.0000e+01	1.9900e+00	2.4900e+00	2.4100e+00	2.9000e+00	1.0000e+01	2.9800e+00	




#DATA BEGINS
time	group	step	mark	flag	A-AC1	A-AC2	A-AC3	A-AC4	A-AC5	A-AC6	A-AC7	A-AC8	A-AC9	A-AC10	A-AC11	A-AC12	A-AC13	A-AC14	A-AC15	A-AC16	A-DC1	A-DC2	A-DC3	A-DC4	A-DC5	A-DC6	A-DC7	A-DC8	A-DC9	A-DC10	A-DC11	A-DC12	A-DC13	A-DC14	A-DC15	A-DC16	A-Ph1	A-Ph2	A-Ph3	A-Ph4	A-Ph5	A-Ph6	A-Ph7	A-Ph8	A-Ph9	A-Ph10	A-Ph11	A-Ph12	A-Ph13	A-Ph14	A-Ph15	A-Ph16	B-AC1	B-AC2	B-AC3	B-AC4	B-AC5	B-AC6	B-AC7	B-AC8	B-AC9	B-AC10	B-AC11	B-AC12	B-AC13	B-AC14	B-AC15	B-AC16	B-DC1	B-DC2	B-DC3	B-DC4	B-DC5	B-DC6	B-DC7	B-DC8	B-DC9	B-DC10	B-DC11	B-DC12	B-DC13	B-DC14	B-DC15	B-DC16	B-Ph1	B-Ph2	B-Ph3	B-Ph4	B-Ph5	B-Ph6	B-Ph7	B-Ph8	B-Ph9	B-Ph10	B-Ph11	B-Ph12	B-Ph13	B-Ph14	B-Ph15	B-Ph16	aux-1	digaux	

25894.607	1	1	0	256	0.097294	0.18851	0.092568	0.48042	0.048479	0.14993	0.10361	0.2697	0.067657	0.1283	0.33205	0.26471	0.11133	0.26764	0.37258	0.27967	-2.3563	-2.3812	-2.7438	-2.6146	-2.2188	-2.6708	-2.8667	-2.6729	-2.7917	-2.3312	-2.8667	-2.8375	-2.5146	-3.0312	-2.6937	-2.8021	377.831	321.714	280.540	495.803	253.046	370.096	424.733	428.663	283.030	193.426	476.824	437.171	325.247	504.663	181.082	490.715	0.00054962	0.00048129	0.00011993	1512.8	5.8718e-06	5.2532e-06	1499.4	401.12	6.0772e-06	6.1385e-06	454.82	150.31	130.69	44.848	5.0944e-06	55.007	0.00064957	0.0006762	0.00019236	1536.7	7.2937e-06	7.5333e-06	1521.5	408.82	7.2607e-06	7.4136e-06	463.02	153.28	133.88	46.161	7.5277e-06	56.812	236.529	233.354	247.838	163.425	297.447	288.335	163.014	167.669	287.781	304.260	167.334	171.445	171.999	176.613	303.676	176.116	-8191	255	
25894.729	1	1	0	0	0.1848	0.15106	0.35368	0.24316	0.37047	0.23461	0.37132	0.34129	0.10246	0.10217	0.15324	0.29014	0.29005	0.1964	0.32618	0.33993	-2.5042	-2.3396	-2.4604	-2.8312	-2.5	-2.7271	-2.8854	-2.7979	-2.8667	-2.4437	-2.7229	-3.0187	-2.425	-2.7375	-2.5833	-2.3104	368.904	330.870	299.339	237.720	485.696	471.806	473.284	452.310	323.997	386.161	496.364	428.973	470.471	176.707	161.499	199.916	0.00054015	0.00076745	0.00010249	1514.4	3.9918e-06	5.5964e-06	1506.6	401.95	4.929e-06	9.5734e-06	455.94	149.84	131.62	45.149	5.365e-06	55.122	0.0006669	0.0006947	0.00019139	1539.9	7.604e-06	7.8586e-06	1526.3	409.03	7.5527e-06	7.8132e-06	464.04	153.13	134.46	46.345	7.8937e-06	56.785	236.917	238.222	249.887	163.173	314.627	308.588	163.204	167.684	293.335	306.798	167.294	171.558	172.080	176.511	295.805	175.886	-8191	255	
25894.822	1	1	0	0	0.19443	0.1108	0.39876	0.055317	0.20345	0.09827	0.15935	0.1079	0.11491	0.11297	0.20684	0.19951	0.39151	0.26732	0.28543	0.20069	-2.5104	-2.3875	-2.4854	-2.775	-2.4021	-2.5583	-2.9771	-2.6583	-2.6333	-2.6188	-2.6833	-2.7188	-2.6708	-2.7188	-2.8187	-2.5396	220.217	304.657	497.628	489.395	426.746	367.929	438.406	269.541	387.988	244.799	500.051	169.423	483.442	503.457	208.920	352.231	0.00055377	0.00044853	0.00014325	1513.7	4.9488e-06	5.5495e-06	1508.8	401.76	3.0491e-06	8.4006e-06	455.58	150.34	130.61	44.859	4.4857e-06	55.181	0.00066957	0.00071651	0.00019734	1539.5	7.8321e-06	8.0053e-06	1527.8	409.62	7.8421e-06	7.9962e-06	463.78	153.35	134.02	46.182	8.0888e-06	56.772	236.050	221.004	264.727	162.904	307.116	292.557	163.038	167.506	295.675	314.567	167.340	171.341	171.898	176.599	305.566	176.098	-8191	255	
25894.922	1	1	0	0	0.084597	0.17236	0.031248	0.15199	0.028378	0.24866	0.20959	0.33454	0.30528	0.24738	0.04736	0.070828	0.22687	0.33019	0.13233	0.12909	-2.3458	-2.3896	-2.2917	-3.0146	-2.4667	-2.6562	-2.9354	-2.7292	-2.5687	-2.5396	-2.5438	-2.7938	-2.5417	-2.6063	-2.5979	-2.4292	413.319	434.941	374.774	419.386	273.345	434.052	411.310	489.758	393.556	359.104	242.773	448.733	426.372	474.947	342.845	449.967	0.00056649	0.00046195	0.00018126	1519.1	6.1194e-06	7.3631e-06	1500.8	401.58	6.0812e-06	7.3874e-06	453.95	149.41	131.44	44.799	7.1581e-06	55.154	0.0007212	0.00075257	0.00021363	1544.5	8.3757e-06	8.7167e-06	1529.2	409.93	8.4596e-06	8.4083e-06	464.1	153.05	134.38	46.164	8.264e-06	56.818	238.124	219.003	241.978	163.341	304.877	299.585	163.018	167.678	270.449	276.805	167.419	171.438	171.766	176.578	314.513	175.883	-8191	255	
25895.018	1	1	0	0	0.18154	0.15072	0.30359	0.20383	0.093679	0.042296	0.26153	0.43361	0.15982	0.18161	0.29373	0.093449	0.13085	0.32995	0.2741	0.27462	-2.1937	-2.5563	-2.3708	-2.9979	-2.3063	-2.4646	-3.1625	-2.7042	-2.7687	-2.6792	-2.5396	-2.7812	-2.4688	-2.6208	-2.9292	-2.6937	207.429	325.745	215.034	166.602	269.988	441.663	447.211	423.773	170.959	482.856	447.865	458.536	433.568	452.630	453.769	468.504	0.00052996	0.00060787	0.00019624	1524.2	4.0106e-06	6.8072e-06	1511.7	402.29	6.8299e-06	4.5025e-06	456.46	149.32	132	44.975	4.0893e-06	55.158	0.00071323	0.00075317	0.00021038	1547.6	8.2836e-06	8.5575e-06	1532.4	410.13	8.0087e-06	8.1912e-06	465.2	153.34	134.55	46.226	7.9359e-06	56.884	235.148	227.939	263.825	163.406	300.165	299.381	163.034	167.602	288.833	310.909	167.067	171.685	172.139	176.632	321.981	175.859	-8191	255	
25895.111	1	1	0	0	0.38951	0.14671	0.13299	0.095867	0.080834	0.16678	0.28934	0.27719	0.18207	0.14218	0.22952	0.082134	0.40275	0.14288	0.061766	0.095002	-2.2979	-2.6646	-2.3688	-2.8229	-2.575	-2.4333	-2.9188	-2.7146	-2.5979	-2.8708	-2.6667	-2.9167	-2.7208	-2.425	-2.6833	-2.7083	254.527	196.434	228.272	364.288	322.107	443.937	458.747	182.753	248.997	285.731	165.506	507.514	456.591	429.043	439.252	182.449	0.00054977	0.00058929	0.0002057	1524.5	4.67e-06	6.8857e-06	1505.9	402.92	4.7999e-06	5.4817e-06	456.68	149.57	130.99	45.138	5.2566e-06	55.177	0.00070051	0.00073763	0.00020713	1548.9	8.1199e-06	8.1559e-06	1532.5	410.56	8.1711e-06	8.2988e-06	464.72	153.55	134.28	46.364	8.0952e-06	56.805	234.263	230.508	239.409	163.232	274.162	302.623	163.077	167.484	282.664	314.717	166.944	171.484	172.112	176.642	281.763	176.020	-8191	255	
25895.207	1	1	0	0	0.23515	0.13074	0.17108	0.15125	0.15033	0.1194	0.24325	0.20876	0.11162	0.017455	0.064274	0.12688	0.27565	0.35392	0.15103	0.053918	-2.2104	-2.6292	-2.2979	-2.7958	-2.5271	-2.5833	-2.9771	-2.6937	-2.6542	-2.6667	-2.4625	-2.6667	-2.6667	-2.4062	-2.6937	-2.7687	308.040	314.679	331.041	413.806	398.052	440.731	449.965	501.134	208.613	230.005	291.957	296.210	473.415	487.746	408.682	485.221	0.00052393	0.00054848	8.9794e-05	1523.6	4.0038e-06	6.4315e-06	1505	403.88	6.7593e-06	5.0359e-06	455.95	150.41	131.49	45.21	7.0394e-06	55.132	0.00069696	0.00073465	0.00020592	1549.6	7.9258e-06	8.0665e-06	1531.2	410.84	7.9112e-06	7.8467e-06	464.79	153.67	134.53	46.381	7.874e-06	56.877	238.511	219.720	278.825	163.165	273.710	276.073	163.118	167.621	296.919	297.522	167.166	171.353	171.940	176.472	292.245	176.005	-8191	255	
25895.328	1	1	0	0	0.18446	0.14057	0.11051	0.32456	0.12611	0.26349	0.42546	0.25535	0.098152	0.1536	0.21258	0.12777	0.46027	0.33709	0.27249	0.18238	-2.0875	-2.8104	-2.3542	-2.6375	-2.6292	-2.5229	-2.8812	-2.8521	-2.5104	-2.8417	-2.7667	-2.6646	-2.6562	-2.375	-2.5875	-2.6688	478.037	176.481	317.747	394.070	191.148	298.561	461.931	476.112	326.635	180.163	460.150	436.736	466.113	499.685	463.131	414.758	0.00052379	0.00072717	0.00014142	1532.2	6.7978e-06	6.766e-06	1506.8	403.4	5.8396e-06	6.4958e-06	455.51	150.09	131.93	45.012	5.0546e-06	55.561	0.00066729	0.00070018	0.00019356	1548.7	7.7666e-06	7.8382e-06	1528.6	410.84	7.6898e-06	7.834e-06	464.33	153.55	134.73	46.224	7.7742e-06	56.914	238.865	240.794	255.989	163.283	294.167	287.705	163.064	167.642	298.391	299.609	167.228	171.594	172.152	176.696	299.332	175.931	-8191	255	
25895.424	1	1	0	0	0.27065	0.23738	0.20806	0.28503	0.095476	0.13668	0.23305	0.075571	0.1193	0.30569	0.056533	0.13982	0.19464	0.28163	0.087599	0.34932	-2.0187	-2.7104	-2.4646	-2.6188	-2.8812	-2.4771	-2.9917	-2.7917	-2.3125	-2.9042	-2.6188	-2.7042	-3.0375	-2.6896	-2.7229	-2.7562	251.819	211.261	430.529	478.778	363.785	321.945	460.322	400.632	244.525	471.699	392.343	174.242	428.407	427.706	178.839	450.499	0.00054495	0.00061927	0.00016221	1517	4.9074e-06	4.2412e-06	1506	403.21	4.9625e-06	6.1554e-06	454.97	149.89	131.05	44.818	4.3035e-06	55.438	0.00066672	0.00069564	0.00019417	1539.8	7.5579e-06	7.3647e-06	1528.5	410.01	7.6229e-06	7.6457e-06	463.97	153.54	134.47	46.22	7.724e-06	56.951	236.461	228.242	267.676	163.323	315.765	289.027	162.959	167.748	304.955	287.919	167.182	171.491	171.886	176.588	297.769	175.824	-8191	255	
25895.496	1	1	0	0	0.068481	0.14001	0.26043	0.25696	0.18519	0.20644	0.24546	0.19878	0.17915	0.11796	0.26909	0.22887	0.14827	0.10851	0.13636	0.16307	-2.0042	-2.7271	-2.5396	-2.6375	-2.5667	-2.4729	-3.0438	-2.8146	-2.3729	-2.7354	-2.5167	-2.7438	-3.0167	-2.4688	-2.5667	-2.7188	162.601	271.359	260.864	478.590	150.380	380.587	440.990	464.963	328.920	226.694	460.352	485.420	454.205	489.778	208.865	422.254	0.00054814	0.00060979	0.00013019	1522	5.5103e-06	5.0514e-06	1503.8	403.55	3.9426e-06	5.768e-06	454.4	148.71	131.25	44.918	6.0719e-06	55.075	0.0006628	0.0006966	0.000192	1541.5	7.4354e-06	7.5299e-06	1526.3	410.23	7.3036e-06	7.5831e-06	463.83	153.17	134.29	46.24	7.5205e-06	56.776	239.881	246.639	227.783	163.096	276.241	279.176	162.974	167.408	273.684	314.006	167.358	171.538	171.914	176.414	281.600	175.746	-8191	255	
25895.592	1	1	0	0	0.10434	0.10984	0.16894	0.071406	0.23623	0.23462	0.2514	0.33675	0.27161	0.12276	0.10904	0.27262	0.039689	0.044602	0.06599	0.19247	-1.8917	-2.7833	-2.4208	-2.5062	-2.8875	-2.4667	-2.8021	-2.9104	-2.4146	-2.8792	-2.6833	-2.7271	-2.8875	-2.4958	-2.7167	-2.8292	197.525	244.133	446.437	388.122	198.971	303.017	417.004	428.537	309.774	333.042	395.784	444.195	165.373	507.040	168.250	449.887	0.00052551	0.00062975	0.00012892	1520.2	1.7693e-06	3.8038e-06	1501.7	403.63	7.1325e-06	5.6428e-06	454.69	149.4	130.67	45.061	6.5799e-06	55.106	0.00065533	0.00068101	0.00018724	1540.6	7.3633e-06	7.2382e-06	1522.5	409.55	7.199e-06	7.2701e-06	463.4	153.24	134.06	46.19	6.9872e-06	56.795	236.167	240.686	234.139	163.184	305.665	286.318	163.023	167.718	288.466	287.212	167.249	171.537	172.195	176.557	280.129	175.874	-8191	255	
25895.688	1	1	0	0	0.10626	0.18512	0.14497	0.1319	0.11374	0.39471	0.23386	0.1246	0.07682	0.1923	0.26958	0.30342	0.10736	0.23284	0.11142	0.29093	-2.0333	-2.7833	-2.5	-2.5667	-2.8146	-2.5104	-2.7792	-2.9562	-2.4958	-2.8688	-2.6875	-2.6521	-2.8854	-2.7167	-2.6646	-2.7708	217.798	254.722	258.193	476.077	332.537	498.703	454.346	199.049	301.855	188.134	192.278	200.640	478.598	152.952	212.923	443.058	0.00055218	0.00066191	0.00014069	1514.7	5.8488e-06	4.4715e-06	1496.2	401.86	4.6411e-06	4.4846e-06	453.97	148.97	131	44.964	6.3919e-06	55.157	0.00063831	0.00065048	0.00017761	1533.7	7.2147e-06	7.3431e-06	1518.7	409.05	7.2982e-06	7.6739e-06	463.03	153.05	134.15	46.179	7.7211e-06	56.694	237.008	217.785	266.599	163.401	315.209	259.181	162.871	167.543	285.052	307.879	167.175	171.693	172.080	176.817	292.627	175.968	-8191	255	
25895.809	1	1	0	0	0.087702	0.10239	0.13549	0.15848	0.11681	0.28966	0.27423	0.21431	0.1561	0.12735	0.15504	0.19918	0.16602	0.17711	0.2098	0.24936	-1.9417	-2.5438	-2.7	-2.6125	-2.775	-2.5229	-2.8333	-2.9646	-2.5458	-2.7208	-2.6958	-2.4167	-2.7687	-2.6562	-2.4792	-2.8229	273.502	216.180	334.166	472.297	177.780	349.617	420.355	437.350	315.599	375.295	441.055	481.063	150.665	465.857	431.154	508.386	0.00053871	0.00050045	0.00013092	1510.5	5.2038e-06	6.4946e-06	1498.5	400.1	5.9317e-06	6.4781e-06	457.4	149.6	131.13	44.958	5.8918e-06	55.129	0.00067212	0.00070778	0.00019087	1534.6	7.5997e-06	7.5851e-06	1519.9	408.72	7.5152e-06	7.5921e-06	464.22	153.05	134.27	46.265	7.6969e-06	56.797	238.357	248.065	239.203	163.322	288.324	304.948	163.106	167.562	294.315	293.365	167.004	171.379	172.077	176.492	314.115	175.764	-8191	255	
25895.902	1	1	0	0	0.1943	0.11892	0.15435	0.092181	0.15366	0.044509	0.36678	0.14121	0.095856	0.14924	0.14396	0.258	0.11312	0.26454	0.11841	0.26002	-1.8958	-2.6917	-2.6604	-2.5625	-2.8167	-2.5458	-2.6729	-2.9896	-2.5021	-2.6063	-2.9062	-2.5958	-2.8979	-2.7167	-2.2604	-2.9458	433.510	289.850	263.549	420.400	485.538	367.967	473.331	474.186	173.603	505.896	483.519	454.741	494.912	163.311	365.022	459.796	0.00054989	0.00040907	0.00020169	1516.6	5.0199e-06	6.062e-06	1498.7	401.51	5.3367e-06	4.5715e-06	454.16	148.65	130.55	44.819	3.2842e-06	54.966	0.00066604	0.00071264	0.00019575	1538.9	7.7583e-06	7.7088e-06	1523	409.3	7.5161e-06	7.6557e-06	463.26	152.73	133.83	46.168	7.4741e-06	56.67	239.272	244.564	241.753	162.944	287.844	309.358	162.858	167.537	279.602	305.288	167.265	171.570	171.944	176.513	339.696	175.648	-8191	255	
25896.002	1	1	0	0	0.22082	0.068946	0.16617	0.12281	0.27089	0.17301	0.28498	0.099754	0.068938	0.27685	0.18555	0.18722	0.17809	0.16883	0.18699	0.26662	-2.25	-2.6896	-2.6958	-2.5875	-2.7646	-2.6521	-2.9	-2.9	-2.5687	-2.4729	-2.8438	-2.5604	-2.8583	-2.8854	-2.5292	-2.9375	410.991	317.198	244.196	163.497	221.912	487.421	499.601	480.410	241.939	367.845	180.671	155.512	372.180	366.361	295.970	415.835	0.00054429	0.00043922	0.00016972	1512.9	3.194e-06	5.9191e-06	1496	401.45	7.1311e-06	5.9074e-06	452.65	148.6	130.49	44.777	7.1645e-06	55.003	0.00065908	0.00068626	0.00018643	1535.4	7.4649e-06	7.4862e-06	1518.5	408.69	7.3777e-06	7.2916e-06	462.27	152.53	133.57	46.035	7.2937e-06	56.533	237.799	240.233	240.226	163.074	286.812	309.648	163.128	167.737	294.105	315.967	167.202	171.484	171.971	176.560	319.340	175.975	-8191	255	
25896.119	1	1	0	0	0.20821	0.16334	0.10813	0.38073	0.023628	0.13581	0.28515	0.35688	0.0083739	0.084548	0.13977	0.21767	0.215	0.09057	0.075261	0.11471	-1.9417	-2.4146	-2.725	-2.4833	-2.5604	-2.5875	-2.7062	-2.9437	-2.5271	-2.5104	-2.9667	-2.5833	-2.8625	-2.8646	-2.5625	-2.9375	154.725	279.067	253.910	504.069	311.360	381.232	459.245	449.921	455.633	427.168	502.903	505.226	459.193	405.177	226.346	456.022	0.00054113	0.00075221	0.00020508	1499.7	5.014e-06	3.2597e-06	1492.8	399.69	4.6893e-06	4.8701e-06	452.87	148.61	130.03	44.61	5.1187e-06	54.765	0.00065114	0.00068289	0.00018883	1526.3	7.4779e-06	7.6663e-06	1512.5	407.22	7.6138e-06	7.5706e-06	461.78	152.26	133.23	45.833	7.6816e-06	56.378	236.417	249.019	256.614	163.166	308.617	291.405	162.965	167.743	286.856	315.154	167.190	171.335	171.941	176.739	311.887	175.680	-8191	255	
25896.191	1	1	0	0	0.16488	0.058353	0.20031	0.23512	0.28815	0.204	0.17413	0.28041	0.18476	0.20249	0.15782	0.17319	0.19438	0.2594	0.1667	0.16728	-2.3521	-2.5062	-2.7229	-2.4854	-2.6646	-2.675	-2.6937	-2.8583	-2.55	-2.5854	-2.9625	-2.6063	-2.8187	-3.0312	-2.4104	-2.8458	361.970	245.899	435.127	481.262	340.555	363.785	337.397	452.622	424.290	347.058	429.854	220.313	455.324	488.717	341.174	189.673	0.00057462	0.00051297	0.00027685	1510.9	3.1909e-06	4.4662e-06	1490.4	400.85	3.823e-06	5.3624e-06	453.12	149.15	129.5	44.818	5.403e-06	54.751	0.0006779	0.00072618	0.00019927	1532.7	7.7706e-06	7.9656e-06	1514.4	407.86	7.6727e-06	7.8384e-06	462.01	152.67	133.07	45.921	7.7185e-06	56.362	238.018	240.165	241.658	163.152	274.474	285.437	162.953	167.500	320.130	284.285	167.259	171.456	172.146	176.806	291.575	175.814	-8191	255	
25896.287	1	1	0	0	0.097755	0.23064	0.07945	0.11115	0.22008	0.21345	0.17682	0.22831	0.37621	0.071245	0.30723	0.083956	0.2728	0.25277	0.11692	0.012201	-2.0062	-2.3646	-2.7604	-2.4313	-2.5729	-2.9083	-2.6875	-2.9354	-2.6625	-2.5625	-2.8958	-2.6125	-2.6958	-2.875	-2.4479	-2.6958	243.004	168.640	433.809	506.560	379.968	289.790	377.423	428.243	185.946	508.132	503.193	456.747	262.237	484.842	313.257	212.653	0.00057219	0.00066298	0.00012963	1499.5	4.7002e-06	4.736e-06	1484.5	397.54	5.359e-06	4.424e-06	449.14	147.29	128.59	44.097	6.7786e-06	54.383	0.00067185	0.00067039	0.00019227	1524.3	7.2881e-06	7.1087e-06	1503.6	404.8	7.2326e-06	7.0123e-06	456.98	150.8	131.67	45.337	7.136e-06	55.789	237.443	268.424	235.288	163.107	280.257	295.021	162.982	167.971	301.589	297.458	167.324	171.664	172.243	176.895	315.070	176.092	-8191	255	
25896.408	1	1	0	0	0.21641	0.039664	0.11597	0.26989	0.11984	0.22102	0.29816	0.25169	0.081378	0.10169	0.15574	0.19077	0.1417	0.22572	0.042143	0.060882	-2.2854	-2.4104	-2.6729	-2.5625	-2.3771	-2.9125	-2.7625	-2.7792	-2.725	-2.5	-2.8292	-2.6562	-2.7042	-2.875	-2.6771	-2.5771	243.025	490.051	247.444	453.333	496.624	207.541	473.733	439.710	499.454	370.827	486.861	482.451	416.578	473.903	159.542	485.840	0.00056128	0.00054793	0.00017678	1485.2	5.4623e-06	5.9413e-06	1475.6	394.77	6.4123e-06	5.7461e-06	448.18	146.59	128.46	43.844	7.2542e-06	53.999	0.00063487	0.0006592	0.00019196	1509.7	7.4955e-06	7.6658e-06	1496.3	402.67	7.6311e-06	7.9382e-06	457.01	150.24	131.51	45.182	7.8737e-06	55.704	236.803	218.477	245.937	163.241	296.625	286.847	163.075	167.854	288.415	286.863	167.240	171.345	172.070	176.507	310.112	175.941	-8191	255	
25896.506	1	1	0	0	0.22039	0.095351	0.092824	0.1308	0.22352	0.4564	0.16473	0.14895	0.2022	0.11263	0.10752	0.14201	0.27903	0.44823	0.12978	0.11422	-2.4208	-2.45	-2.7146	-2.7125	-2.6333	-2.7	-2.7188	-2.8625	-2.9083	-2.5563	-2.95	-2.7479	-2.5312	-2.9375	-2.5083	-2.6979	413.079	218.723	453.229	197.360	279.988	219.307	466.239	497.894	497.738	347.906	433.934	251.264	491.634	499.358	399.944	508.076	0.00056546	0.00031515	0.00013217	1490.3	5.3872e-06	6.6916e-06	1480.8	396.15	5.4672e-06	6.2547e-06	448.08	146.92	128.52	43.871	6.5701e-06	53.933	0.00068922	0.0007268	0.00020852	1517.3	7.9879e-06	8.1737e-06	1502.3	403.66	7.9677e-06	8.1983e-06	457.57	150.3	131.56	45.219	7.8931e-06	55.615	237.335	241.408	274.790	163.231	298.422	310.845	163.116	167.639	308.849	312.056	167.084	171.422	171.932	176.686	276.538	175.677	-8191	255	
25896.602	1	1	0	0	0.19731	0.23807	0.10487	0.18606	0.12489	0.12247	0.27141	0.2257	0.097741	0.10299	0.073473	0.093984	0.22471	0.36494	0.17032	0.1435	-2.2958	-2.3583	-2.6167	-2.6979	-2.3854	-2.8312	-2.7729	-2.8292	-2.7792	-2.5812	-2.65	-2.7146	-2.6813	-2.8271	-2.5979	-2.6521	383.481	291.194	261.176	407.292	271.253	212.166	415.572	155.304	327.796	425.785	457.173	412.661	386.605	182.376	154.340	213.485	0.0005486	0.0006173	0.00018074	1489.3	6.029e-06	5.1294e-06	1475	393.77	5.1776e-06	5.5042e-06	446.6	146.56	127.88	43.677	7.5819e-06	53.905	0.00068204	0.00072949	0.00020226	1512.3	7.7817e-06	8.0194e-06	1495.1	401.89	7.794e-06	8.1339e-06	456.03	150.16	131.01	44.951	8.1534e-06	55.445	237.918	230.306	248.930	163.216	333.704	302.770	163.119	167.763	294.480	292.294	167.301	171.306	172.165	176.703	295.738	175.810	-8191	255	
25896.721	1	1	0	0	0.22918	0.056945	0.10855	0.13952	0.22591	0.076776	0.35663	0.17054	0.064032	0.09714	0.052943	0.22516	0.15947	0.29242	0.1726	0.11755	-2.3354	-2.375	-2.6396	-2.8417	-2.6042	-2.6188	-3.0042	-2.5375	-2.9021	-2.5125	-2.7792	-2.9375	-2.7292	-2.7417	-2.6896	-2.6042	276.369	366.296	332.705	206.165	297.226	248.372	420.220	428.770	193.685	224.668	469.601	485.172	331.601	413.927	270.817	247.343	0.00052194	0.00046957	0.00016043	1481.7	5.6559e-06	4.6973e-06	1473.4	394.32	5.3319e-06	4.0157e-06	445.01	145.77	127.78	43.674	6.5645e-06	53.765	0.00069228	0.00074776	0.00020969	1508.8	8.2136e-06	8.4898e-06	1494.2	401.94	8.2233e-06	8.3681e-06	454.88	149.6	130.66	44.864	8.3889e-06	55.43	239.334	228.666	261.317	163.268	317.035	314.616	163.160	167.748	314.312	304.594	167.130	171.407	172.044	176.613	324.574	175.902	-8191	255	
25896.793	1	1	0	0	0.11936	0.046156	0.10931	0.21853	0.16057	0.17643	0.18597	0.50705	0.12194	0.067536	0.25381	0.29926	0.23999	0.21426	0.31367	0.23429	-2.3625	-2.2708	-2.7417	-2.9396	-2.4042	-2.8125	-2.8375	-2.4542	-2.8812	-2.4354	-2.7417	-2.9875	-2.6437	-2.9313	-2.7896	-2.6188	212.562	278.054	439.707	187.161	321.975	437.324	470.868	466.238	395.036	285.453	493.824	487.125	471.958	471.690	311.274	167.389	0.00049538	0.00046416	0.00011179	1490.2	4.3394e-06	7.955e-06	1466.8	393.48	4.4323e-06	3.7383e-06	444.75	145.6	126.89	43.407	7.4224e-06	53.51	0.00069857	0.00075992	0.00021411	1507.4	8.357e-06	8.3858e-06	1490.7	400.85	8.3513e-06	8.4266e-06	454.27	149.39	130.07	44.693	8.3204e-06	55.248	235.606	272.671	228.718	163.115	309.902	321.299	163.158	167.666	261.085	289.259	167.203	171.792	172.030	176.730	304.696	176.143	-8191	255	
25896.889	1	1	0	0	0.13046	0.013013	0.13388	0.20917	0.25464	0.1244	0.36965	0.46764	0.13901	0.17425	0.10371	0.16151	0.23441	0.18605	0.37967	0.10428	-2.45	-2.4938	-2.3708	-2.7708	-2.325	-2.6562	-2.9	-2.5792	-2.7708	-2.5646	-2.7104	-2.8688	-2.8021	-2.7687	-2.6958	-2.5938	190.104	204.218	410.294	480.472	164.051	389.824	456.821	434.075	356.863	165.757	345.608	464.366	351.353	497.400	377.909	424.945	0.00053852	0.00023064	0.00017977	1478.6	3.7038e-06	3.7648e-06	1467.2	393.02	3.9951e-06	5.8163e-06	444.2	145.14	126.51	43.471	7.7698e-06	53.652	0.00073206	0.00077721	0.00021233	1507.8	8.5214e-06	8.564e-06	1489.5	400.89	8.4882e-06	8.3702e-06	454.51	149.19	129.99	44.706	8.5357e-06	55.238	238.409	260.161	238.732	163.449	297.943	301.161	163.086	167.801	284.919	304.467	167.477	171.534	171.873	176.699	310.818	176.021	-8191	255	
25896.984	1	1	0	0	0.2404	0.091134	0.11755	0.43405	0.049699	0.13969	0.20264	0.40942	0.052564	0.036067	0.21941	0.06317	0.045972	0.069582	0.19204	0.28206	-2.4021	-2.4437	-2.4792	-2.7146	-2.5229	-2.5542	-2.9479	-2.5646	-2.7562	-2.4958	-2.7354	-2.6958	-2.5604	-2.6188	-2.8604	-2.55	168.207	483.256	445.326	463.785	382.339	169.470	449.951	485.670	311.626	216.252	447.529	341.338	175.011	493.528	161.701	452.520	0.00055318	0.00045765	0.0002185	1480.4	5.1113e-06	3.8046e-06	1472.9	392.6	5.7544e-06	6.1133e-06	448.26	145.39	126.89	43.115	5.8602e-06	53.514	0.00072809	0.00077927	0.00022127	1505.7	8.7479e-06	9.0875e-06	1493	400.67	8.9972e-06	9.1829e-06	455.6	149.47	130.06	44.613	9.3132e-06	55.283	237.429	214.718	252.270	162.940	311.319	292.782	163.005	167.735	291.133	326.634	167.005	171.575	172.197	176.741	288.921	176.015	-8191	255	
25897.104	1	1	0	0	0.27896	0.1732	0.076123	0.12946	0.15925	0.072865	0.29289	0.29647	0.16291	0.080546	0.079093	0.22472	0.0845	0.16853	0.18761	0.10891	-2.1958	-2.5687	-2.4708	-2.8167	-2.6271	-2.5333	-3.0604	-2.6833	-2.6625	-2.9	-2.4688	-2.7896	-2.7083	-2.7208	-2.8396	-2.5708	332.178	479.430	164.591	178.507	213.626	284.931	447.595	412.993	355.741	459.927	168.728	483.995	473.994	490.137	412.316	183.122	0.00055272	0.00055095	0.00013098	1497.6	4.018e-06	4.894e-06	1474.5	393.53	3.7427e-06	6.6695e-06	446.71	145.47	127.24	43.434	4.4105e-06	53.766	0.00076391	0.00085391	0.00023472	1517.6	9.1622e-06	9.1708e-06	1495.4	401.75	9.0741e-06	9.3497e-06	455.18	149.21	130.27	44.681	9.1914e-06	55.364	236.882	285.290	249.665	163.198	283.992	311.131	162.963	167.800	283.824	294.534	167.010	171.582	172.249	176.635	303.653	175.778	-8191	255	
25897.199	1	1	0	0	0.15253	0.039533	0.10467	0.25981	0.10999	0.23183	0.18718	0.2389	0.16611	0.22567	0.34375	0.31139	0.23185	0.12077	0.14637	0.042288	-2.1854	-2.6083	-2.5125	-2.9083	-2.6792	-2.5312	-3.1937	-2.4417	-2.8125	-2.7979	-2.6521	-2.8438	-2.6146	-2.5917	-2.6146	-2.6312	391.858	285.369	366.631	504.519	384.054	262.302	471.963	432.082	154.399	255.820	478.577	464.978	467.584	197.749	219.484	454.944	0.00052664	0.00090403	0.00020357	1489.3	3.7248e-06	6.1565e-06	1476.4	393.17	5.8874e-06	5.0009e-06	446.36	145.32	127.04	43.379	1.8163e-06	53.518	0.00076645	0.00084096	0.00023712	1513.2	9.2261e-06	9.3142e-06	1496.5	401.19	8.9922e-06	9.2725e-06	455.73	149.3	130.1	44.626	9.4971e-06	55.291	235.811	255.824	234.943	163.390	261.371	314.759	162.923	167.641	283.771	317.646	166.917	171.355	172.040	176.712	300.607	176.099	-8191	255	
25897.297	1	1	0	0	0.10646	0.26361	0.21055	0.061035	0.25388	0.12013	0.33133	0.18478	0.005137	0.10401	0.081147	0.1466	0.30374	0.19771	0.2405	0.19517	-2.3292	-2.8125	-2.4333	-2.9333	-2.5646	-2.4854	-3.075	-2.6833	-2.7354	-2.7021	-2.5042	-2.8583	-2.6354	-2.5812	-2.8063	-2.7188	152.833	465.110	225.465	344.297	470.896	244.566	440.046	451.099	356.171	444.016	195.113	382.034	312.723	498.524	418.674	434.969	0.00054349	0.00046391	0.00020977	1483.9	3.7627e-06	7.1645e-06	1478	393.57	4.2225e-06	3.6522e-06	446.73	145.63	126.88	43.423	7.1262e-06	53.87	0.00078949	0.00085441	0.00024336	1512.3	9.5387e-06	9.8585e-06	1498.4	401.92	9.5978e-06	9.8207e-06	455.95	149.44	130.4	44.685	9.7328e-06	55.484	237.588	217.843	240.931	163.245	328.679	279.950	163.081	167.643	298.200	300.216	167.396	171.561	172.048	176.589	285.329	175.925	-8191	255	
25897.367	1	1	0	0	0.27739	0.093291	0.21317	0.23702	0.093733	0.11116	0.10685	0.22292	0.17475	0.071406	0.23661	0.11195	0.10377	0.22898	0.064599	0.10577	-2.0438	-2.6604	-2.3792	-2.7833	-2.6375	-2.6396	-2.8812	-2.7708	-2.4979	-3.05	-2.4979	-2.7229	-2.7188	-2.5062	-2.8021	-2.6354	438.049	343.425	236.251	208.728	252.253	435.239	488.282	438.377	258.482	506.248	405.043	405.932	473.170	494.217	390.982	440.978	0.00054327	0.00068636	9.6499e-05	1496.8	4.6889e-06	8.1856e-06	1482.8	394.72	5.7306e-06	6.7564e-06	447.48	146.34	127.07	43.397	8.1929e-06	53.617	0.00079168	0.00089789	0.0002424	1520	9.7215e-06	9.8163e-06	1502.9	402.49	9.5205e-06	9.7186e-06	457.39	149.98	130.34	44.687	9.7434e-06	55.404	236.467	256.093	251.523	163.346	300.147	282.262	163.065	167.761	278.698	271.075	167.206	171.670	171.989	176.601	318.724	175.819	-8191	255	
25897.488	1	1	0	0	0.38182	0.18798	0.2399	0.012113	0.098025	0.23731	0.23174	0.15915	0.087894	0.15161	0.067794	0.1835	0.17452	0.17612	0.15971	0.14881	-2.1312	-2.7896	-2.4813	-2.7438	-2.7208	-2.5	-2.9583	-2.6896	-2.5312	-2.7271	-2.5146	-2.6312	-3.0729	-2.4271	-2.85	-2.7417	367.080	419.342	484.263	430.035	482.006	389.850	432.913	480.128	362.812	475.639	179.085	202.497	384.418	261.149	413.777	465.680	0.00052316	0.00046266	0.0001002	1493.7	3.7424e-06	4.7531e-06	1474.5	394.9	4.5172e-06	6.797e-06	448	145.79	127.69	43.335	5.7946e-06	53.793	0.00078563	0.00089668	0.00024396	1519.5	9.3119e-06	9.5276e-06	1500	402.55	9.2391e-06	9.6694e-06	456.53	149.56	130.48	44.611	9.5833e-06	55.455	234.972	243.768	252.991	163.158	302.374	320.244	163.075	167.840	293.059	336.983	167.267	171.647	172.111	176.585	264.127	175.918	-8191	255	
25897.586	1	1	0	0	0.3034	0.21826	0.23026	0.039991	0.076538	0.3003	0.17765	0.34196	0.15823	0.033964	0.23467	0.10462	0.55788	0.15433	0.025884	0.11633	-2.0708	-2.9104	-2.3771	-2.6396	-2.7958	-2.5146	-2.9458	-2.8417	-2.5479	-2.8208	-2.7583	-2.5521	-2.8583	-2.6271	-2.4667	-2.7771	159.588	344.705	422.007	374.378	232.248	391.638	462.855	450.818	179.156	361.490	160.830	459.334	466.616	252.851	398.858	498.232	0.00053022	0.0008288	0.00014196	1501.3	2.6759e-06	5.3095e-06	1478.5	394.54	4.1167e-06	3.2686e-06	446.88	146.11	127.11	43.442	6.4531e-06	53.949	0.00078675	0.00088835	0.00024715	1522.5	9.7898e-06	9.781e-06	1501.5	402.78	9.5863e-06	9.7868e-06	457.82	149.88	130.64	44.651	9.775e-06	55.609	235.208	255.942	248.152	163.332	274.511	322.053	163.139	167.779	315.554	272.090	167.202	171.575	172.092	176.606	314.662	175.940	-8191	255	
25897.682	1	1	0	0	0.16506	0.12527	0.24912	0.12066	0.36355	0.039812	0.35312	0.23244	0.21053	0.15442	0.28018	0.14633	0.090189	0.15497	0.1554	0.14792	-2.0667	-2.7708	-2.5854	-2.4729	-2.6896	-2.2188	-2.7313	-2.7271	-2.2938	-2.6354	-2.7438	-2.7062	-2.9437	-2.5521	-2.7875	-2.9604	305.472	347.532	435.454	402.900	242.308	251.020	153.792	426.631	314.101	253.868	485.910	153.794	185.172	162.835	268.924	426.726	0.00055271	0.00070411	0.00013781	1497.8	4.2001e-06	5.8287e-06	1481.3	396.21	4.7523e-06	5.7572e-06	449.51	145.65	127.48	43.454	6.148e-06	53.911	0.000802	0.00091634	0.0002535	1522.7	1.0088e-05	1.0155e-05	1509.5	403.76	9.916e-06	1.0333e-05	458.71	149.96	130.97	44.74	1.0366e-05	55.699	234.881	228.688	241.709	163.428	276.135	275.263	163.212	167.664	297.373	307.327	167.296	171.363	171.862	176.766	314.954	175.935	-8191	255	
25897.803	1	1	0	0	0.13436	0.2623	0.35113	0.17846	0.28764	0.18835	0.077025	0.19249	0.2107	0.13395	0.24523	0.19679	0.13844	0.21081	0.02518	0.1294	-1.8854	-2.5812	-2.5146	-2.5271	-2.6771	-2.5417	-3.0396	-2.8604	-2.5583	-2.7562	-2.6188	-2.3646	-2.925	-2.7167	-2.55	-2.8167	166.313	402.257	235.864	490.515	354.632	364.528	365.611	477.197	225.363	438.163	418.677	445.283	385.107	446.012	278.918	459.168	0.00051054	0.00069119	0.00015428	1496.3	2.2469e-06	6.317e-06	1486.3	397.28	3.4194e-06	4.1176e-06	448.24	146.3	127.58	43.552	3.1841e-06	54.039	0.00084007	0.00098344	0.00026361	1528	1.0291e-05	1.0561e-05	1511.9	405.29	1.0118e-05	1.0486e-05	459.61	150.31	131.15	44.895	1.0364e-05	55.733	237.639	228.861	241.295	163.061	318.866	286.134	163.064	167.683	294.885	268.406	167.114	171.217	171.890	176.583	310.293	175.739	-8191	255	
25897.896	1	1	0	0	0.20488	0.048106	0.17123	0.10712	0.09843	0.28698	0.20027	0.18852	0.21139	0.10654	0.19471	0.16396	0.13297	0.35077	0.12122	0.30705	-2.0646	-2.8063	-2.7417	-2.4958	-2.8021	-2.5854	-2.8875	-2.9646	-2.5104	-2.6854	-2.8229	-2.5687	-2.8604	-2.8104	-2.5812	-2.5333	213.074	504.651	311.815	270.537	398.484	318.731	438.272	468.517	376.599	286.728	478.785	499.414	440.581	487.636	487.235	456.102	0.00052239	0.00060104	0.00018129	1504.1	3.2172e-06	7.8496e-06	1493.6	396.89	4.5027e-06	4.4489e-06	449.7	146.15	127.81	43.68	7.3814e-06	53.723	0.00083886	0.00096709	0.00026753	1533.4	1.0213e-05	1.0574e-05	1514.4	405.55	1.0131e-05	1.0571e-05	459.73	150.34	131.45	44.894	1.0358e-05	55.712	241.247	240.604	246.163	163.224	251.912	265.394	163.049	167.680	283.847	322.953	167.379	171.673	172.118	176.682	315.820	175.830	-8191	255	
25897.992	1	1	0	0	0.27623	0.22476	0.19073	0.16378	0.052016	0.1328	0.41089	0.20779	0.15827	0.083091	0.24297	0.11369	0.1424	0.045856	0.17336	0.13461	-1.9521	-2.55	-2.6729	-2.3771	-2.7062	-2.5958	-2.8187	-3.0229	-2.4083	-2.6792	-2.9458	-2.4604	-2.725	-2.6792	-2.45	-2.8458	490.011	233.418	291.393	308.075	365.241	509.379	466.193	482.790	400.777	388.413	506.253	476.749	486.119	231.248	422.288	400.441	0.00055318	0.00054806	0.0001167	1509.2	5.4646e-06	6.9655e-06	1491.7	396.66	6.0778e-06	6.7175e-06	450.05	146.49	127.98	43.639	4.3621e-06	54.243	0.00084328	0.00094957	0.00026511	1534.6	1.0651e-05	1.095e-05	1515.7	405.22	1.0475e-05	1.0835e-05	460.58	150.64	131.47	44.919	1.0845e-05	55.883	235.709	262.177	246.199	162.876	297.408	293.832	163.019	167.732	291.640	277.732	167.137	171.400	171.791	176.740	304.263	175.954	-8191	255	
25898.088	1	1	0	0	0.17969	0.074029	0.35587	0.20013	0.031158	0.022964	0.18909	0.41099	0.41025	0.13812	0.14772	0.097388	0.19474	0.14482	0.15054	0.25058	-2.0229	-2.5854	-2.5875	-2.5125	-2.6729	-2.6104	-2.8229	-2.8292	-2.4458	-2.5604	-2.9583	-2.4771	-2.8625	-2.8208	-2.4125	-3.1229	386.692	435.635	397.127	462.439	206.266	168.067	451.509	504.940	188.833	242.743	466.425	156.379	285.414	439.764	314.374	461.587	0.00053746	0.0004512	0.0002776	1510.4	5.3132e-06	7.3179e-06	1495.1	399.78	6.1237e-06	6.0236e-06	451.64	146.96	127.91	43.709	5.1834e-06	54.376	0.00087728	0.0010128	0.00027868	1539.7	1.0948e-05	1.0974e-05	1519.4	407.43	1.0664e-05	1.0989e-05	461.52	150.96	131.44	44.991	1.0832e-05	55.868	235.042	260.494	241.118	162.909	317.200	285.213	163.094	167.736	313.860	326.807	167.305	171.744	171.959	176.450	282.825	176.036	-8191	255	
25898.186	1	1	0	0	0.40746	0.14819	0.11553	0.18434	0.24095	0.15377	0.28455	0.14959	0.22603	0.13084	0.20081	0.1093	0.3699	0.16556	0.050895	0.15177	-2.2271	-2.4479	-2.6542	-2.5917	-2.6583	-2.7896	-2.6583	-2.8896	-2.7313	-2.5375	-2.9229	-2.6	-2.7708	-2.7062	-2.3563	-2.925	328.272	290.387	450.372	508.424	181.532	364.534	432.120	192.767	225.956	187.903	160.788	305.625	390.681	490.727	297.183	208.646	0.00054362	0.00065085	9.5575e-05	1514.3	6.3667e-06	5.3636e-06	1496	400.15	5.3379e-06	4.0264e-06	453.21	147.22	128.09	43.824	7.707e-06	53.901	0.00085952	0.00099304	0.00027111	1539.6	1.0848e-05	1.0893e-05	1521.5	407.8	1.1018e-05	1.1298e-05	462.5	151.25	131.9	45.167	1.1268e-05	55.955	239.963	264.921	232.657	163.124	320.776	331.402	163.046	167.635	281.352	302.315	167.235	171.600	171.891	176.640	307.884	176.046	-8191	255	
25898.281	1	1	0	0	0.15791	0.21418	0.10855	0.081249	0.30844	0.022514	0.2271	0.20998	0.036393	0.3324	0.25093	0.31356	0.21134	0.042634	0.10498	0.19931	-2.0771	-2.5417	-2.9729	-2.625	-2.4375	-2.5271	-2.6021	-2.8312	-2.6417	-2.4667	-2.9479	-2.375	-2.7479	-2.9437	-2.3042	-2.8042	176.285	349.935	479.665	475.714	164.408	348.663	442.948	441.936	164.853	433.400	162.138	485.064	499.125	452.283	289.271	208.241	0.00054595	0.00055129	0.00020753	1517	6.9666e-06	3.0849e-06	1505.4	400.09	7.214e-06	2.2536e-06	450.73	147.54	128.74	43.633	8.0037e-06	54.262	0.00090903	0.001048	0.0003	1546.7	1.1681e-05	1.1903e-05	1528.2	408.26	1.1549e-05	1.1784e-05	463.27	151.4	132.1	45.13	1.1725e-05	56.189	236.657	258.687	221.584	163.204	286.111	381.562	163.119	167.540	299.854	345.088	167.469	171.550	171.961	176.483	315.916	175.766	-8191	255	
25898.400	1	1	0	0	0.0043774	0.20153	0.18124	0.17343	0.090281	0.14802	0.24741	0.50277	0.14276	0.1292	0.32738	0.14504	0.1263	0.14405	0.045091	0.081288	-2.0812	-2.3021	-2.75	-2.5208	-2.6937	-2.7958	-2.7333	-2.7667	-2.625	-2.3563	-2.7167	-2.4375	-2.5396	-2.825	-2.4542	-2.9813	309.740	404.168	371.233	426.516	322.951	495.105	449.726	466.708	266.611	273.942	485.318	472.682	185.788	497.765	274.503	407.334	0.00053358	0.00059726	0.00024485	1529.3	5.0346e-06	6.2057e-06	1509.5	401.77	3.7537e-06	7.9512e-06	456.37	147.7	129.29	43.624	4.0214e-06	54.199	0.00093531	0.0010815	0.00030916	1555.2	1.195e-05	1.1978e-05	1535.8	410.69	1.1849e-05	1.1919e-05	466.22	151.68	132.65	45.156	1.1375e-05	56.119	235.634	253.472	252.280	162.914	274.599	339.732	162.971	167.320	320.304	303.890	167.256	171.444	171.844	176.281	262.022	175.692	-8191	255	
25898.498	1	1	0	131072	0.24467	0.06682	0.20482	0.20914	0.10175	0.20347	0.19221	0.18286	0.070885	0.15235	0.058648	0.14092	0.13894	0.11506	0.3613	0.26476	-2.2083	-2.3375	-2.7896	-2.7188	-2.6688	-2.9667	-2.7417	-2.7687	-2.75	-2.4708	-2.8917	-2.6583	-2.4354	-3.0771	-2.5271	-2.8125	368.976	487.936	150.755	464.168	399.584	301.679	478.669	396.561	505.988	176.950	429.302	282.876	454.323	485.086	222.607	455.356	0.00053629	0.00023626	0.00018738	1521.6	2.7934e-06	5.5042e-06	1510.4	401.42	5.7748e-06	3.1963e-06	456.44	147.49	128.86	43.887	4.9694e-06	54.399	0.00090776	0.0010196	0.00028915	1553.8	1.1206e-05	1.1275e-05	1532.1	409.62	1.0801e-05	1.1344e-05	464.56	151.36	132.27	45.233	1.1053e-05	56.197	238.669	232.675	255.526	163.240	315.435	303.228	163.066	167.753	282.777	312.781	167.184	171.643	172.018	176.639	262.989	175.833	-8191	255	
25898.594	1	1	0	0	0.17612	0.12043	0.14324	0.20591	0.092722	0.22142	0.29208	0.072223	0.19537	0.16863	0.18841	0.23931	0.18873	0.22873	0.055919	0.22123	-2.075	-2.2854	-2.7146	-2.6437	-2.5187	-2.5917	-2.6125	-2.6	-2.6125	-2.5542	-2.8063	-2.5542	-2.4396	-2.875	-2.5333	-2.6771	268.965	235.276	308.795	179.045	334.790	503.026	432.777	164.483	314.767	360.349	468.344	454.189	467.385	480.903	166.354	193.365	0.00055685	0.00070539	0.00013065	1518.2	3.1687e-06	4.277e-06	1510.9	399.89	6.3056e-06	2.7422e-06	454.42	147.88	128.17	43.666	9.3829e-06	54.376	0.00089454	0.0010068	0.00028157	1552.8	1.1034e-05	1.1304e-05	1534.1	408.96	1.0894e-05	1.1129e-05	463.46	151.57	132.06	45.05	1.115e-05	56.027	238.527	227.340	225.490	163.107	289.176	290.433	163.078	167.688	268.295	336.635	167.210	171.569	172.024	176.836	291.198	175.823	-8191	255	
25898.664	1	1	0	0	0.15911	0.034911	0.10793	0.21201	0.10901	0.1087	0.34377	0.48611	0.033401	0.12046	0.13581	0.091792	0.24066	0.19612	0.321	0.28598	-2.3583	-2.2313	-2.8	-2.6813	-2.3521	-2.7188	-2.7708	-2.8187	-2.8458	-2.4083	-2.8292	-2.6979	-2.6167	-3.0312	-2.5792	-2.7417	157.243	385.662	245.725	301.660	381.174	152.862	417.011	456.563	397.140	238.848	401.801	494.243	165.589	383.947	182.074	450.683	0.00054092	0.00070378	0.00019202	1511.6	4.8963e-06	7.7388e-06	1509.6	401.96	4.9015e-06	6.7959e-06	454.98	146.83	128.46	44.018	7.2691e-06	54.308	0.0008961	0.0010284	0.00028091	1549.3	1.11e-05	1.1382e-05	1530.9	409.23	1.0887e-05	1.1056e-05	464.61	151.22	132.27	45.184	1.0781e-05	56.088	235.530	236.285	245.434	163.221	299.107	284.519	162.976	167.702	292.123	288.795	167.237	171.677	172.025	176.646	298.674	175.531	-8191	255	
25898.785	1	1	0	0	0.13275	0.1182	0.16993	0.056351	0.17194	0.38984	0.11814	0.28295	0.28419	0.29763	0.34465	0.28064	0.31774	0.25198	0.28867	0.36995	-2.2708	-2.4	-2.5312	-2.6792	-2.3979	-2.8604	-2.725	-2.5854	-2.6146	-2.5021	-2.6375	-2.8417	-2.5687	-2.9833	-2.6104	-2.4938	228.953	275.506	236.044	447.215	301.874	377.297	168.747	441.686	464.643	381.468	444.374	497.493	453.554	468.567	441.318	447.881	0.00052091	0.0006535	0.00015824	1522.2	4.1017e-06	4.3631e-06	1492.2	399.85	6.0933e-06	6.1198e-06	450.16	146.03	127.81	43.383	5.2417e-06	54.157	0.0008481	0.00094307	0.00026221	1549.3	9.9032e-06	1.0113e-05	1519.9	406.86	9.4196e-06	9.5262e-06	459.39	149.97	131.09	44.76	9.619e-06	55.69	239.021	210.376	238.281	163.265	268.481	307.417	163.171	167.878	289.899	285.323	167.341	171.737	172.351	176.799	306.314	175.710	-8191	255	
25898.883	1	1	0	0	0.33109	0.15272	0.16236	0.2758	0.11694	0.077034	0.19398	0.13517	0.147	0.10127	0.22864	0.19789	0.24513	0.36133	0.16355	0.16366	-2.3792	-2.3312	-2.6375	-2.9021	-2.4396	-2.6167	-2.9313	-2.5563	-2.7562	-2.4583	-2.7521	-2.8833	-2.4875	-2.9083	-2.6188	-2.7167	167.151	326.117	234.366	180.999	224.388	336.625	188.848	429.832	279.169	337.272	257.911	438.510	476.793	439.159	269.673	235.732	0.00056067	0.00057454	0.0001373	1507.3	6.335e-06	6.5244e-06	1495.5	398.19	3.6536e-06	6.2346e-06	451.76	146.02	128.3	43.449	6.2915e-06	54.368	0.00078658	0.00088556	0.00024996	1537	9.7503e-06	1.0056e-05	1519.2	406.06	9.8339e-06	1.0054e-05	461.61	150.07	131.76	44.908	1.0047e-05	55.922	236.716	238.424	253.035	163.424	316.372	290.227	163.033	167.679	317.214	283.695	167.364	171.480	171.944	176.786	313.482	175.952	-8191	255	
25898.977	1	1	0	0	0.44553	0.17991	0.066458	0.21952	0.18965	0.22504	0.211	0.037408	0.093732	0.2389	0.25776	0.068602	0.22854	0.27633	0.16157	0.36517	-2.3125	-2.5042	-2.3583	-2.9167	-2.4708	-2.7875	-2.7104	-2.6375	-2.7896	-2.7042	-2.6146	-2.8896	-2.5167	-2.7938	-2.4542	-2.7062	236.475	380.096	490.703	502.175	369.919	344.282	460.785	393.471	202.426	228.599	157.671	283.701	383.263	169.633	190.882	491.649	0.00054767	0.00082611	0.00021326	1523.1	4.0915e-06	7.7759e-06	1498.4	399.34	6.3974e-06	2.2946e-06	451.41	146.97	127.76	43.615	7.6369e-06	54.223	0.00081063	0.00091841	0.00025246	1544.2	9.7346e-06	9.7982e-06	1522.5	406.89	9.4984e-06	9.6812e-06	460.83	150.46	131.26	44.907	9.3491e-06	55.871	236.806	229.134	249.560	163.261	304.601	278.473	163.095	167.658	306.391	316.972	167.224	171.333	171.905	176.550	299.127	175.900	-8191	255	
25899.072	1	1	0	0	0.051793	0.11889	0.17275	0.17451	0.040383	0.27512	0.44071	0.35456	0.013658	0.13493	0.02842	0.35277	0.10913	0.26314	0.14163	0.15397	-2.2854	-2.5646	-2.3708	-2.7896	-2.5312	-2.6896	-2.9104	-2.6667	-2.7604	-2.5812	-2.725	-2.8604	-2.6813	-2.5854	-2.8521	-2.7292	397.971	180.223	157.973	308.086	263.537	452.104	454.668	459.699	386.542	465.306	390.526	485.088	169.681	490.861	413.583	150.705	0.00053368	0.00042265	0.00016913	1511.9	3.7858e-06	7.8443e-06	1493.4	399.02	5.6961e-06	5.6194e-06	449.53	146.96	128.19	43.537	3.85e-06	54.14	0.00077695	0.00084556	0.00023387	1536.4	9.3576e-06	9.5372e-06	1517.3	406.54	9.2903e-06	9.4294e-06	460.54	150.33	131.55	44.8	9.5304e-06	55.763	236.936	264.280	218.991	163.131	305.822	290.413	162.986	167.592	292.117	273.497	167.271	171.620	172.133	176.738	359.407	175.898	-8191	255	
25899.193	1	1	0	0	0.34781	0.18539	0.17388	0.041929	0.20101	0.013046	0.19049	0.34246	0.1481	0.25368	0.17294	0.087594	0.13242	0.12309	0.086836	0.4446	-2.3375	-2.5229	-2.3417	-2.7771	-2.3854	-2.5708	-2.9354	-2.6333	-2.7521	-2.7625	-2.4792	-2.8917	-2.5812	-2.6958	-2.775	-2.5167	360.607	357.230	404.844	158.026	390.025	272.417	416.149	484.419	470.920	357.032	456.895	409.382	468.191	382.670	463.112	470.934	0.00052155	0.00045122	0.00019579	1509.8	5.2299e-06	7.0806e-06	1496.6	397.55	7.3628e-06	4.989e-06	450.95	147.36	128.61	43.596	8.2461e-06	54.161	0.00079234	0.00088081	0.00024554	1538.3	9.9073e-06	9.9323e-06	1522.4	406.46	9.7763e-06	1.0039e-05	460.7	150.9	131.73	44.929	9.6981e-06	55.888	239.385	231.195	240.109	163.056	288.074	302.713	163.246	167.828	275.861	296.615	167.121	171.503	172.089	176.641	296.752	176.030	-8191	255	
25899.289	1	1	0	0	0.1046	0.2304	0.16871	0.096731	0.090883	0.20917	0.38914	0.26137	0.26731	0.20753	0.22899	0.35133	0.12347	0.25031	0.049871	0.083788	-2.1063	-2.6104	-2.3146	-2.6833	-2.6813	-2.5312	-3.0625	-2.5458	-2.8083	-2.6792	-2.5583	-2.6042	-2.6271	-2.6	-2.6458	-2.5271	456.853	257.836	261.741	477.886	436.871	367.615	486.755	490.328	214.646	157.986	444.842	481.276	443.305	508.150	151.511	167.251	0.00051877	0.0004256	0.0002073	1507.7	4.5595e-06	2.4508e-06	1503.8	399.39	6.0424e-06	3.4211e-06	452.17	146.72	128.34	43.686	8.023e-06	54.252	0.00080119	0.00089174	0.000251	1540.7	9.729e-06	9.962e-06	1522.9	407.07	9.6381e-06	9.9298e-06	461.72	150.46	131.52	44.985	9.9089e-06	55.966	238.269	235.489	243.848	163.086	313.342	306.823	163.017	167.639	303.599	242.873	167.446	171.616	172.134	176.557	311.812	176.045	-8191	255	
25899.361	1	1	0	0	0.094304	0.077694	0.10483	0.18411	0.13603	0.29953	0.32268	0.32941	0.055531	0.11139	0.28129	0.25646	0.20959	0.17623	0.12205	0.17742	-2.3729	-2.7583	-2.4792	-2.8438	-2.5438	-2.4646	-3.1375	-2.5667	-2.6562	-2.7167	-2.5417	-2.7125	-2.6646	-2.725	-2.6625	-2.5146	477.871	366.390	275.624	430.592	352.310	444.232	441.799	486.901	325.941	433.503	493.664	160.524	506.759	152.122	416.768	421.474	0.00054767	0.00057895	0.00019789	1516	3.7299e-06	5.3963e-06	1499.2	399.35	8.3376e-06	3.9237e-06	451.07	146.87	128.38	43.577	5.8795e-06	54.208	0.000818	0.0008947	0.00024941	1542.8	9.6844e-06	9.914e-06	1522.5	407.07	9.6812e-06	9.8432e-06	461.43	150.66	131.77	44.924	1.0153e-05	55.916	234.669	239.768	242.275	163.253	299.034	324.415	162.997	167.605	291.731	296.640	167.169	171.473	172.116	176.456	294.263	176.074	-8191	255	
25899.482	1	1	0	0	0.10449	0.062784	0.2684	0.11352	0.26352	0.20152	0.34446	0.29441	0.1645	0.17573	0.054291	0.052064	0.15251	0.18762	0.089692	0.098254	-2.0729	-2.6583	-2.3021	-2.9979	-2.5292	-2.2896	-2.9604	-2.5583	-2.5375	-2.6625	-2.5333	-2.6937	-2.6813	-2.4562	-2.6479	-2.8937	373.108	451.565	340.820	461.009	367.003	343.670	448.726	457.868	357.912	469.696	186.925	205.572	394.693	202.208	368.500	406.875	0.00053267	0.00059086	0.0001779	1516.4	3.6208e-06	5.8725e-06	1503.3	400.13	8.0816e-06	6.0214e-06	450.77	147.04	128.79	43.7	5.8321e-06	53.96	0.00081843	0.00092524	0.00026259	1544.4	1.0097e-05	1.0255e-05	1526.9	407.37	9.9909e-06	1.0174e-05	461.84	151.05	131.93	44.963	9.7901e-06	55.906	237.501	208.261	266.051	163.293	283.062	280.622	162.982	167.601	304.721	300.998	167.114	171.427	172.055	176.506	297.331	175.882	-8191	255	
25899.578	1	1	0	0	0.27304	0.26352	0.20224	0.222	0.2237	0.12053	0.086166	0.23955	0.16763	0.14912	0.050504	0.11568	0.19337	0.34955	0.14365	0.026157	-2.2438	-2.8146	-2.625	-2.7771	-2.7792	-2.5667	-2.8812	-2.7229	-2.4479	-2.8771	-2.625	-2.7896	-2.8063	-2.4792	-2.7396	-2.6521	275.719	262.359	477.981	189.493	320.624	317.192	454.943	436.436	166.100	392.135	400.474	297.065	176.165	485.906	161.593	176.217	0.00053903	0.00056505	0.00015047	1522.2	6.892e-06	4.9325e-06	1501.2	399.55	7.4731e-06	8.9117e-06	451.9	147.12	129.45	43.662	6.8701e-06	54.328	0.00079729	0.00088803	0.0002441	1544.3	9.8413e-06	9.7594e-06	1524.5	407.21	9.524e-06	9.7588e-06	461.65	150.65	131.98	44.937	9.4773e-06	55.927	240.900	229.837	259.384	163.027	275.031	318.893	162.909	167.700	296.387	256.558	166.955	171.599	171.913	176.548	313.593	175.817	-8191	255	
25899.674	1	1	0	0	0.21229	0.029864	0.096459	0.24154	0.20274	0.072265	0.32804	0.072175	0.18689	0.11504	0.30622	0.39867	0.20657	0.31524	0.16319	0.18117	-1.9646	-2.7333	-2.3563	-2.5	-2.6875	-2.3646	-3.0458	-2.8271	-2.3646	-2.9021	-2.575	-2.5354	-2.8688	-2.55	-2.7979	-2.7333	211.872	388.926	486.005	252.684	171.411	157.820	493.631	478.473	367.292	386.317	438.974	393.302	443.200	473.472	245.907	503.504	0.00057176	0.00057001	0.00017583	1518.5	5.2564e-06	3.4465e-06	1494.8	398.88	5.749e-06	3.1677e-06	451.71	147.18	128.52	43.666	3.8826e-06	53.915	0.00078798	0.0008902	0.00024514	1542.3	9.6767e-06	9.8604e-06	1523.2	406.9	9.6756e-06	9.9349e-06	461.3	150.7	131.8	44.998	9.9262e-06	55.837	237.419	252.873	222.574	163.310	329.831	295.576	163.118	167.674	304.895	304.529	167.071	171.342	171.874	176.852	333.844	175.691	-8191	255	
25899.770	1	1	0	0	0.10995	0.20054	0.032654	0.17602	0.073921	0.037184	0.25395	0.1955	0.23633	0.20652	0.11962	0.19682	0.10955	0.12602	0.18005	0.24923	-1.9896	-2.7438	-2.3937	-2.6854	-2.9062	-2.7542	-2.9875	-2.6917	-2.55	-2.5792	-2.6875	-2.675	-2.9917	-2.5604	-2.5604	-2.8229	482.168	401.074	440.130	170.529	208.402	156.899	436.170	418.766	342.657	289.330	355.514	401.533	442.044	416.336	266.618	188.529	0.00056339	0.00056856	0.00012947	1517.4	4.2274e-06	4.6032e-06	1506.1	399.5	8.1911e-06	4.2698e-06	454.35	147.07	128.45	43.492	8.4996e-06	54.358	0.00081831	0.0009373	0.00025513	1542.7	9.9366e-06	1.0323e-05	1528.2	407.79	1.006e-05	1.0391e-05	463.07	150.9	131.79	44.966	1.0117e-05	56.002	235.065	259.361	264.699	163.209	307.866	290.414	163.066	167.584	293.033	301.222	167.121	171.509	171.958	176.637	317.602	175.992	-8191	255	
25899.891	1	1	0	0	0.086436	0.15243	0.11322	0.16808	0.10231	0.17651	0.06175	0.19839	0.28847	0.042642	0.29872	0.15301	0.37126	0.23601	0.026293	0.058938	-2.1354	-2.8729	-2.5917	-2.6292	-2.8542	-2.5958	-2.9729	-2.9813	-2.6312	-2.6479	-2.7625	-2.7	-2.9354	-2.7083	-2.5375	-2.8875	254.178	468.978	310.327	253.254	295.799	188.594	363.998	475.577	504.930	509.456	399.341	402.780	468.478	432.241	390.139	159.276	0.00051734	0.00058725	0.00015965	1526	6.7728e-06	9.1421e-06	1501	398.83	5.5978e-06	5.0065e-06	453.23	147.28	128.5	43.521	4.9976e-06	54.235	0.00082715	0.00095419	0.00026298	1549.8	1.0213e-05	1.0333e-05	1527.4	407.59	1.0085e-05	1.0524e-05	462.63	150.95	132.03	44.947	1.0456e-05	56.015	237.065	218.486	234.723	163.253	289.592	321.182	163.006	167.514	285.127	284.120	167.174	171.374	172.008	176.496	309.726	175.682	-8191	255	
25899.963	1	1	0	0	0.22478	0.13264	0.092649	0.26425	0.22728	0.032561	0.066269	0.2601	0.22557	0.073876	0.19945	0.065959	0.35435	0.18275	0.22806	0.35708	-2.0625	-2.8146	-2.55	-2.4437	-2.8375	-2.5167	-2.8229	-2.9583	-2.4813	-2.825	-2.7771	-2.5833	-2.9688	-2.6063	-2.575	-3.0917	326.625	372.213	369.147	385.846	359.419	452.559	469.295	423.009	222.008	252.881	171.654	295.489	431.408	439.748	264.038	442.774	0.00051225	0.00032629	0.00010822	1512.8	5.4066e-06	9.8663e-06	1501.2	400.25	5.7547e-06	5.7721e-06	451.71	146.59	128.18	43.597	8.0392e-06	54.383	0.00083043	0.00097032	0.00025731	1545.8	1.0386e-05	1.0367e-05	1526.8	407.98	1.0236e-05	1.0526e-05	462.06	150.84	131.79	44.962	1.0088e-05	56.008	236.341	227.896	249.594	163.335	276.639	289.329	163.183	167.634	299.148	292.387	167.212	171.472	171.779	176.555	321.321	175.696	-8191	255	
25900.080	1	1	0	0	0.23498	0.24632	0.089003	0.25607	0.27266	0.19741	0.27159	0.23475	0.23179	0.22977	0.22633	0.16246	0.14241	0.073733	0.19369	0.3026	-2.1292	-2.8167	-2.6875	-2.4583	-2.7958	-2.5979	-2.7729	-2.8563	-2.6354	-2.7438	-2.6625	-2.5187	-2.9771	-2.525	-2.4958	-2.9688	262.505	447.891	282.686	493.702	290.084	151.610	420.151	422.449	182.257	470.216	450.288	475.876	469.215	467.816	204.391	487.837	0.00053694	0.00079891	0.00014611	1521.2	6.0654e-06	2.5348e-06	1504	399.33	7.9627e-06	3.9899e-06	454.46	147.16	128.45	43.539	5.6532e-06	54.127	0.00083854	0.0009458	0.00026105	1546	1.0389e-05	1.0324e-05	1525.1	407.73	1.0198e-05	1.0596e-05	462.94	150.92	131.88	44.915	9.9767e-06	55.945	236.095	249.882	259.974	163.129	277.536	222.315	163.171	167.860	307.490	295.216	167.370	171.586	171.997	176.662	284.567	175.839	-8191	255	
25900.178	1	1	0	0	0.16205	0.19223	0.095606	0.14519	0.097874	0.25865	0.43128	0.46189	0.13307	0.13477	0.12395	0.32229	0.16356	0.089325	0.24352	0.2415	-1.9604	-2.5854	-2.8083	-2.6083	-2.6521	-2.6188	-2.6271	-3.0042	-2.6542	-2.7396	-2.9146	-2.5625	-2.925	-2.8354	-2.45	-2.9396	190.037	212.886	196.074	250.767	352.502	155.499	483.116	461.023	237.488	298.542	394.146	496.784	423.004	249.766	266.841	500.854	0.00050719	0.00033726	0.00015313	1511.7	7.3191e-06	4.3676e-06	1498.1	398.7	2.4669e-06	7.9304e-06	454.39	146.88	128.95	43.574	8.3784e-06	54.357	0.00081807	0.00094236	0.00025331	1540.3	1.0128e-05	1.028e-05	1526.2	407.67	9.9255e-06	1.0215e-05	462.79	151.01	131.92	44.975	1.0084e-05	55.934	237.978	267.866	238.553	162.825	321.462	307.884	162.975	167.785	303.096	294.324	167.318	171.601	172.003	176.867	306.824	176.170	-8191	255	
25900.273	1	1	0	0	0.16351	0.2198	0.2846	0.21149	0.14094	0.073954	0.031417	0.27165	0.20304	0.3308	0.15033	0.060019	0.23836	0.1842	0.022879	0.23475	-2.0146	-2.5167	-2.9083	-2.6917	-2.5312	-2.8396	-2.5042	-3.05	-2.5604	-2.4542	-2.7854	-2.5229	-2.8063	-2.8125	-2.5812	-2.9	155.489	447.841	174.572	412.895	390.675	238.101	395.440	384.219	373.162	347.333	229.585	413.653	491.084	488.771	157.604	381.745	0.00053011	0.00043805	0.00012626	1511	4.276e-06	5.6146e-06	1502.4	399.77	6.5167e-06	3.706e-06	452.05	146.94	127.8	43.742	6.1118e-06	54.369	0.00080325	0.0009127	0.00025755	1539.3	1.0045e-05	1.021e-05	1523.7	407.87	9.9686e-06	1.0174e-05	462.14	150.63	131.75	44.962	1.0219e-05	56.003	238.128	212.801	259.385	163.261	268.729	315.106	163.021	167.588	284.430	336.398	167.186	171.609	172.212	176.568	272.903	175.947	-8191	255	
25900.369	1	1	0	0	0.038414	0.15029	0.10747	0.36437	0.15294	0.03945	0.19422	0.271	0.2379	0.15324	0.074686	0.22485	0.31222	0.21309	0.22533	0.1429	-2.1625	-2.3896	-2.8271	-2.5979	-2.5917	-2.7188	-2.7646	-2.8833	-2.5187	-2.6042	-2.9458	-2.5667	-2.4625	-2.9229	-2.4604	-2.8417	497.083	310.806	323.122	417.989	347.239	487.717	487.380	167.452	172.976	393.439	276.778	497.133	470.154	466.254	481.867	467.856	0.00053465	0.0005334	0.00019984	1512.8	4.5491e-06	3.0815e-06	1502.3	400.71	6.4614e-06	3.9641e-06	451.96	147.11	128.7	43.579	3.8875e-06	54.237	0.00083503	0.0009564	0.00026252	1540.8	1.0529e-05	1.0488e-05	1524.3	407.92	1.0121e-05	1.0206e-05	462.11	151.02	131.96	44.981	1.014e-05	55.945	239.296	247.250	233.520	163.542	309.925	286.119	163.047	167.657	286.380	305.785	167.169	171.526	172.193	176.647	295.357	175.887	-8191	255	
25900.490	1	1	0	0	0.22247	0.13767	0.15902	0.25873	0.2303	0.10962	0.23064	0.34035	0.17893	0.098826	0.02547	0.21992	0.056325	0.38295	0.19194	0.15268	-2.1542	-2.5979	-2.7708	-2.5479	-2.5375	-2.7417	-2.6875	-2.9313	-2.6083	-2.5979	-2.7687	-2.6958	-2.6271	-2.8187	-2.5458	-2.75	325.453	507.341	189.063	214.152	390.085	434.588	503.092	476.415	356.224	285.400	447.384	432.021	260.969	483.860	263.244	196.101	0.00051896	0.00066104	0.00018455	1521.1	6.5705e-06	5.8741e-06	1500.8	400.22	5.0646e-06	6.8557e-06	451.99	146.01	128.48	43.721	5.688e-06	54.159	0.00084425	0.00096063	0.00026505	1544.3	1.0391e-05	1.0443e-05	1527.4	408.07	9.9106e-06	1.034e-05	461.86	150.71	131.79	44.968	1.0169e-05	56.032	236.107	257.538	242.499	163.240	304.032	290.414	163.088	167.793	247.143	312.033	167.318	171.385	171.953	176.688	296.903	175.931	-8191	255	
25900.562	1	1	0	0	0.074682	0.16827	0.11873	0.24631	0.11373	0.079417	0.25263	0.085596	0.29035	0.086182	0.012627	0.108	0.15115	0.13004	0.19863	0.3431	-2.475	-2.4375	-2.8917	-2.4979	-2.4125	-2.85	-2.9229	-2.7646	-2.7	-2.4708	-2.8625	-2.7479	-2.5229	-3.1146	-2.6188	-2.7021	335.826	199.244	218.413	175.773	153.823	324.116	415.174	505.400	191.216	322.521	346.402	494.843	478.204	392.304	397.348	425.610	0.00051637	0.00055169	0.00012215	1518.9	4.6058e-06	5.9756e-06	1498.2	400.81	4.7808e-06	7.7103e-06	453.95	146.88	128.59	43.752	7.5757e-06	54.118	0.00081216	0.00091766	0.00026352	1546.2	1.0206e-05	1.0416e-05	1524.3	407.74	1.0104e-05	1.0194e-05	462.69	150.95	131.72	44.98	1.0122e-05	55.902	237.817	223.238	267.305	163.299	290.384	298.876	163.035	167.411	299.070	304.441	167.252	171.484	172.020	176.872	290.583	176.086	-8191	255	
25900.658	1	1	0	0	0.30729	0.17779	0.07627	0.30301	0.2461	0.097345	0.29465	0.17408	0.03429	0.092121	0.25799	0.087599	0.26056	0.2363	0.075445	0.115	-2.3542	-2.6521	-2.8063	-2.6146	-2.4688	-2.8438	-2.7833	-2.7292	-2.7542	-2.4771	-3.0146	-2.7812	-2.4896	-2.9625	-2.6292	-2.7438	480.887	237.607	439.233	384.594	268.692	372.270	446.695	460.945	300.795	214.337	493.448	353.625	154.239	473.071	489.328	219.388	0.0005708	0.00035143	0.00015127	1517.3	4.9119e-06	5.0328e-06	1504	399.67	6.0796e-06	1.5743e-06	452.34	146.6	128.65	43.662	3.0035e-06	54.053	0.00083212	0.00095809	0.00026804	1544.3	1.0247e-05	1.0418e-05	1527.2	408.22	1.0005e-05	1.0175e-05	462.31	151.1	131.92	44.921	1.0254e-05	55.961	236.592	240.672	291.964	162.829	292.758	306.231	162.936	167.934	303.528	255.979	167.305	171.437	172.020	176.697	262.381	175.905	-8191	255	
25900.754	1	1	0	0	0.12535	0.11027	0.096757	0.19334	0.11734	0.23166	0.11994	0.07964	0.085781	0.33035	0.3783	0.095357	0.18406	0.23102	0.11133	0.083142	-2.3146	-2.4604	-2.725	-2.7646	-2.4542	-2.8917	-2.8458	-2.7188	-2.9521	-2.4437	-2.7292	-2.825	-2.4729	-2.9833	-2.5354	-2.8063	386.422	493.987	481.300	335.522	488.698	244.624	446.002	467.986	425.764	288.856	473.946	488.534	496.868	227.295	178.509	389.381	0.00052472	0.00042596	0.00019433	1518.2	3.4362e-06	3.4276e-06	1502.4	401.34	6.1459e-06	1.0391e-05	452.3	147.36	128.48	43.473	7.5267e-06	54.29	0.00082214	0.00093313	0.00025913	1546.8	1.008e-05	1.0539e-05	1526	408.07	1.0176e-05	1.0418e-05	461.73	150.94	131.85	44.877	1.0268e-05	56.024	239.932	217.991	246.155	163.110	295.499	350.733	163.004	167.648	283.561	316.072	167.445	171.488	171.870	176.752	327.206	176.023	-8191	255	
25900.873	1	1	0	0	0.035769	0.016693	0.13775	0.26309	0.21517	0.051357	0.38854	0.03451	0.15507	0.23062	0.33499	0.12894	0.075229	0.32013	0.24195	0.15761	-2.4083	-2.4875	-2.6562	-2.85	-2.4313	-2.8896	-2.9188	-2.4458	-2.7938	-2.6375	-2.9	-2.9875	-2.4062	-2.7771	-2.7125	-2.8708	435.818	277.231	457.793	503.941	196.605	484.393	458.664	504.565	488.203	334.678	493.592	489.647	476.533	473.998	496.267	469.263	0.00055445	0.00054285	7.1208e-05	1514.3	6.6903e-06	8.2426e-06	1503.8	399.84	3.8845e-06	6.8322e-06	451.79	147.15	128.39	43.617	5.6259e-06	54.299	0.00085002	0.00098473	0.00027251	1545.2	1.0344e-05	1.0608e-05	1525.6	407.85	1.035e-05	1.0526e-05	462.59	151.12	131.98	44.961	1.0581e-05	55.946	234.380	261.885	240.659	163.257	304.107	297.911	162.925	167.626	294.562	324.587	167.234	171.329	171.960	176.517	277.594	175.992	-8191	255	
25900.969	1	1	0	0	0.12318	0.18703	0.15766	0.12768	0.2993	0.19701	0.31391	0.418	0.20677	0.17082	0.095808	0.089014	0.49758	0.35145	0.19551	0.060136	-2.4646	-2.5417	-2.5354	-3.0167	-2.525	-2.7958	-2.9917	-2.675	-2.8375	-2.5312	-2.6208	-3.0167	-2.6917	-2.7313	-2.7375	-2.6437	214.213	172.348	502.139	248.713	425.256	360.361	483.335	437.395	419.702	163.567	461.570	368.136	499.331	474.320	268.186	155.955	0.0005358	0.00056729	0.00010063	1522.6	4.5252e-06	6.9135e-06	1498.8	400.97	5.1952e-06	5.7551e-06	453.73	147	128.17	43.738	8.9405e-06	53.917	0.00085347	0.00094228	0.00026363	1549.2	1.0391e-05	1.0487e-05	1525.1	408.27	1.0227e-05	1.0387e-05	463.07	151.1	131.67	45.079	1.0368e-05	55.87	238.036	226.880	198.273	163.194	282.801	265.503	162.762	167.640	294.974	320.753	167.462	171.492	171.690	176.573	300.236	175.904	-8191	255	
25901.066	1	1	0	0	0.19016	0.1827	0.22206	0.05073	0.28667	0.10058	0.1442	0.18609	0.20937	0.078705	0.094058	0.36569	0.22912	0.30187	0.23978	0.18599	-2.3854	-2.6521	-2.6271	-2.9208	-2.5854	-2.7083	-2.8187	-2.4688	-2.75	-2.7042	-2.7583	-2.8208	-2.7229	-2.9729	-2.7542	-2.7229	150.537	184.837	262.560	473.117	263.858	198.775	433.457	176.658	400.976	347.359	425.494	189.167	496.896	499.203	363.030	419.511	0.00052073	0.00028385	0.00017549	1518.6	2.9672e-06	5.542e-06	1503.1	400.65	6.1815e-06	4.0308e-06	453.77	147.16	128.04	43.539	4.7122e-06	54.034	0.00085531	0.00096398	0.00026487	1546.2	1.0309e-05	1.0569e-05	1524.8	408.08	9.9719e-06	1.0024e-05	462.63	150.65	131.57	44.877	1.0016e-05	55.897	237.438	256.907	257.400	163.064	238.193	274.411	162.938	167.649	289.436	313.563	166.956	171.430	172.005	176.689	275.184	175.899	-8191	255	
25901.164	1	1	0	0	0.23984	0.14569	0.17452	0.18056	0.17253	0.16154	0.2393	0.38662	0.35009	0.12079	0.068775	0.27096	0.21895	0.26107	0.2792	0.083276	-2.3625	-2.5604	-2.3958	-2.8458	-2.5125	-2.5687	-2.8833	-2.5521	-2.7875	-2.725	-2.6	-2.7854	-2.6417	-2.7729	-2.65	-2.4208	161.087	289.596	379.813	437.850	478.674	307.267	399.068	472.279	179.137	418.739	381.019	466.762	440.469	494.248	205.533	372.082	0.00056875	0.00047974	0.00015145	1518	4.2688e-06	5.8889e-06	1503.1	400.8	3.6139e-06	7.1457e-06	454.75	146.57	128.78	43.632	5.4699e-06	54.299	0.00081732	0.00093757	0.00025711	1542.5	1.0022e-05	1.0451e-05	1526.6	407.84	1.0099e-05	1.0133e-05	463.21	150.78	131.74	44.999	9.8967e-06	55.924	236.424	264.058	230.955	163.260	327.728	295.186	163.094	167.700	313.964	311.253	167.326	171.659	171.984	176.705	321.499	175.997	-8191	255	
25901.258	1	1	0	0	0.2171	0.03624	0.13931	0.051394	0.14304	0.18886	0.29919	0.28746	0.35921	0.19037	0.16203	0.32706	0.25397	0.33364	0.072736	0.38075	-2.3479	-2.6208	-2.4396	-2.725	-2.5646	-2.7625	-3.0958	-2.6292	-2.7562	-2.7979	-2.6375	-2.8396	-2.6021	-2.7125	-2.8438	-2.4958	347.195	464.834	245.414	184.620	225.231	314.343	461.082	485.024	355.828	210.122	349.092	474.116	478.671	464.028	349.544	189.676	0.00054444	0.00050347	8.6291e-05	1509.9	3.6445e-06	8.0158e-06	1503.4	400.12	5.1495e-06	5.6851e-06	452.87	146.73	128.17	43.622	4.946e-06	53.99	0.00081182	0.00090557	0.00025823	1542.6	9.8289e-06	9.9922e-06	1525.1	407.62	9.8237e-06	1.0059e-05	462.59	150.57	131.64	44.926	9.5675e-06	55.918	233.015	241.889	272.855	163.170	313.184	275.242	162.961	167.745	253.554	267.428	167.229	171.586	172.188	176.827	315.105	175.823	-8191	255	
25901.354	1	1	0	0	0.17512	0.11515	0.097264	0.04112	0.36646	0.057413	0.39057	0.21406	0.25781	0.17407	0.088273	0.27199	0.23592	0.24638	0.21498	0.30679	-2.2854	-2.725	-2.5021	-2.5979	-2.4729	-2.7854	-3.1188	-2.6521	-2.5417	-2.7646	-2.5062	-2.9188	-2.6479	-2.5875	-3.1104	-2.5354	418.046	244.588	382.426	480.754	415.796	339.309	437.456	424.826	382.817	462.491	421.243	464.666	465.637	436.603	372.167	414.416	0.00051433	0.00042918	0.00013002	1512.3	5.5272e-06	8.7936e-06	1500.9	397.98	5.2216e-06	7.4997e-06	453.48	147.29	128.28	43.695	5.4536e-06	54.043	0.00080112	0.00089655	0.00025035	1541.9	9.7562e-06	9.9265e-06	1522.3	407.19	9.791e-06	9.8736e-06	461.83	151.09	131.78	44.877	9.8145e-06	55.826	237.038	246.774	254.034	162.972	321.744	309.356	162.858	167.877	266.949	306.614	167.248	171.493	171.979	176.679	299.389	175.766	-8191	255	
25901.449	1	1	0	0	0.097506	0.13975	0.024079	0.14895	0.18031	0.14852	0.31462	0.19449	0.07099	0.093595	0.23735	0.2107	0.28683	0.27968	0.16464	0.44038	-2.1083	-2.7771	-2.3479	-2.7812	-2.6188	-2.6125	-3.0521	-2.4875	-2.5229	-2.8542	-2.45	-2.8729	-2.8083	-2.4333	-2.8917	-2.5833	244.012	199.405	464.838	486.553	300.520	163.298	443.216	151.334	282.313	414.858	423.466	366.806	181.762	170.057	397.827	428.973	0.0005515	0.00024951	8.3403e-05	1516.9	2.3812e-06	6.2773e-06	1502.2	400.04	5.3586e-06	3.9379e-06	453.06	146.57	129.01	43.638	9.3009e-06	54.173	0.00081598	0.00090253	0.00024811	1543.7	9.8388e-06	1.014e-05	1524.7	407.32	9.8959e-06	1.0075e-05	462.07	151.04	132	44.906	9.6208e-06	55.933	234.570	235.215	262.514	163.053	294.461	321.818	163.065	167.714	312.557	349.869	167.074	171.493	171.943	176.749	310.443	175.747	-8191	255	
25901.570	1	1	0	0	0.18268	0.13226	0.074468	0.13808	0.078871	0.45258	0.09748	0.23765	0.079397	0.13402	0.32922	0.17826	0.2129	0.34771	0.063903	0.061747	-2.1167	-2.6104	-2.3333	-2.825	-2.6	-2.4688	-2.9604	-2.9125	-2.5354	-2.6729	-2.5938	-2.7354	-2.8521	-2.55	-2.9354	-2.7125	261.433	230.875	491.505	490.843	479.434	453.608	508.356	503.035	295.366	217.375	486.267	172.137	159.504	474.540	206.473	406.799	0.00047425	0.00050586	0.00017098	1518.9	5.3774e-06	3.9746e-06	1510.2	399.25	5.8056e-06	8.3394e-06	453.15	147.18	128.1	43.528	5.7423e-06	54.136	0.00079972	0.0008841	0.00024953	1546.8	9.8587e-06	9.9574e-06	1527.7	407.44	9.6541e-06	9.8413e-06	461.91	151.06	131.74	44.948	9.8285e-06	55.996	232.287	258.856	262.078	163.233	298.784	287.594	162.911	167.642	264.413	275.857	167.382	171.441	172.081	176.587	294.964	175.924	-8191	255	
25901.668	1	1	0	0	0.093994	0.24606	0.050324	0.16815	0.10486	0.21634	0.32002	0.28462	0.17701	0.27691	0.21098	0.11257	0.4208	0.31159	0.042168	0.40768	-2.1458	-2.7125	-2.5354	-2.7104	-2.6479	-2.4146	-3.1813	-2.8146	-2.5833	-2.9146	-2.65	-2.6854	-2.8083	-2.6042	-2.6292	-2.7313	288.014	244.385	331.590	354.193	231.355	496.411	447.818	428.097	348.607	254.554	169.974	163.815	485.170	431.114	205.500	411.352	0.00053461	0.0003874	0.00013854	1514.4	5.89e-06	7.5614e-06	1503.5	399.32	5.0562e-06	5.2113e-06	453.57	147.07	129.01	43.717	4.5691e-06	54.217	0.00080574	0.0009032	0.00025271	1545.4	9.8755e-06	1.0082e-05	1526.4	407.72	9.7579e-06	9.8425e-06	462.43	151.08	131.89	45.023	9.6657e-06	55.89	238.167	212.345	252.999	163.340	272.735	315.229	163.005	167.564	281.140	295.800	167.324	171.492	172.214	176.471	355.139	175.707	-8191	255	
25901.764	1	1	0	0	0.033355	0.12586	0.11242	0.29727	0.1166	0.2115	0.18013	0.34476	0.096671	0.27003	0.19512	0.19381	0.30635	0.48146	0.071548	0.36534	-2.1458	-2.6646	-2.3792	-2.6437	-2.8229	-2.5146	-2.9833	-2.7375	-2.4208	-2.6271	-2.5417	-2.5812	-2.8542	-2.6042	-2.8292	-2.7583	175.800	322.204	496.527	475.087	191.008	393.433	406.271	470.891	204.407	378.611	474.694	446.591	157.854	456.430	473.470	441.502	0.00051851	0.00047313	0.00015914	1512	4.9065e-06	5.8301e-06	1500.7	399.57	4.1187e-06	4.47e-06	454.2	147.75	128.33	43.568	5.312e-06	54.12	0.0007978	0.00088497	0.00024816	1543.6	9.7801e-06	9.7936e-06	1525.6	407.4	9.5996e-06	9.9862e-06	462.82	151.2	131.83	44.948	9.7561e-06	55.881	236.798	259.634	241.415	163.197	299.230	313.368	162.930	167.554	289.044	336.568	167.072	171.461	172.086	176.861	325.258	175.998	-8191	255	
25901.859	1	1	0	0	0.1191	0.03502	0.092622	0.074336	0.18458	0.10958	0.11988	0.2732	0.086114	0.18178	0.2162	0.17566	0.35307	0.051217	0.31763	0.27672	-1.9917	-2.7812	-2.4375	-2.5271	-2.7729	-2.4021	-2.8708	-3.1896	-2.4333	-2.825	-2.6042	-2.5792	-2.8458	-2.5583	-2.6979	-2.7833	325.045	476.519	264.814	431.274	337.915	417.486	474.484	503.718	240.108	372.789	504.911	431.425	501.920	169.909	169.239	463.471	0.00055177	0.00038686	0.00015833	1522.3	6.1819e-06	6.2501e-06	1503.9	400.01	5.9296e-06	3.073e-06	451.15	147.07	128.05	43.776	6.1228e-06	54.119	0.00080269	0.00090328	0.00025113	1542.4	9.8949e-06	1.0083e-05	1525.5	407.03	9.8328e-06	1.0095e-05	461.25	150.97	131.84	45.04	9.9653e-06	55.883	236.286	254.740	239.697	163.292	291.807	285.547	163.141	167.553	294.964	302.799	167.169	171.657	171.778	176.736	292.539	175.899	-8191	255	
25901.955	1	1	0	0	0.15694	0.23597	0.14569	0.047334	0.048801	0.10409	0.066124	0.28887	0.14905	0.094536	0.35913	0.19679	0.24305	0.27439	0.12974	0.17269	-2.0438	-2.6792	-2.5292	-2.6271	-2.9146	-2.5708	-2.9917	-2.9	-2.4917	-2.8583	-2.7271	-2.7854	-2.8875	-2.6292	-2.7708	-2.8583	436.202	343.529	177.587	478.956	460.742	211.323	165.643	377.023	412.915	292.157	402.167	494.349	421.939	203.782	252.040	467.303	0.00053808	0.00050553	0.00014285	1517.8	5.7605e-06	6.434e-06	1503.6	400.87	7.2366e-06	4.4111e-06	450.76	146.68	128.92	43.753	8.0091e-06	54.328	0.00080796	0.00092034	0.0002516	1546.2	9.7981e-06	9.9815e-06	1526	407.75	9.582e-06	1.0248e-05	461.65	150.98	131.9	44.995	9.9924e-06	55.954	241.435	189.826	220.644	162.849	304.922	261.842	163.011	167.724	289.094	292.883	167.366	171.572	171.967	176.609	332.137	175.753	-8191	255	
25902.051	1	1	0	0	0.13221	0.35631	0.090644	0.11213	0.11575	0.046574	0.27984	0.22385	0.13508	0.069516	0.19037	0.3898	0.14745	0.45338	0.18201	0.10887	-1.9125	-2.6625	-2.6104	-2.5979	-2.7104	-2.55	-2.9688	-2.9042	-2.5771	-2.8083	-2.7479	-2.4833	-2.925	-2.5229	-2.4646	-2.7958	218.645	462.728	374.946	487.365	199.969	310.458	497.453	457.882	461.766	349.126	478.292	164.924	460.013	441.974	206.875	330.071	0.0005623	0.00051797	0.00014424	1518.3	3.3108e-06	8.914e-06	1503.6	398.43	5.857e-06	3.5501e-06	453.62	146.5	128.8	43.566	5.7225e-06	54.16	0.00081008	0.00091653	0.00024884	1544.2	1.0004e-05	1.0084e-05	1525.8	407.51	9.7263e-06	1.027e-05	462.69	150.71	131.91	44.902	9.9582e-06	55.952	237.939	237.835	275.449	162.970	299.809	314.133	163.022	167.618	290.904	304.929	167.038	171.406	171.872	176.566	312.023	175.645	-8191	255	
25902.170	1	1	0	0	0.10738	0.15756	0.13225	0.14209	0.12415	0.11645	0.29263	0.19305	0.23356	0.047198	0.14997	0.24475	0.082816	0.19074	0.2774	0.11594	-1.9208	-2.6333	-2.5	-2.3979	-2.8063	-2.4313	-2.6771	-2.85	-2.6479	-2.6625	-2.9208	-2.5896	-2.9083	-2.7333	-2.5646	-3.0146	206.616	426.846	194.068	461.657	232.823	390.876	382.914	431.310	366.339	333.622	469.390	420.777	227.858	255.862	367.880	314.881	0.00047958	0.00059424	0.00014766	1521.5	5.5567e-06	2.8464e-06	1500.3	399.3	4.3278e-06	3.9022e-06	452.43	146.73	128.84	43.551	5.0714e-06	54.354	0.00081076	0.00093015	0.00025468	1547	1.0011e-05	1.0184e-05	1526.8	407.4	9.7769e-06	1.0057e-05	462.69	150.81	131.95	44.946	9.8356e-06	55.937	236.023	238.833	246.603	163.173	305.193	416.602	163.051	167.748	306.759	309.994	166.946	171.421	172.186	176.553	337.717	175.773	-8191	255	
25902.268	1	1	0	0	0.087952	0.06336	0.064407	0.24336	0.1679	0.023648	0.43362	0.083699	0.23245	0.19851	0.083493	0.087727	0.20792	0.15241	0.059992	0.094086	-2.0479	-2.5458	-2.7583	-2.5458	-2.5542	-2.7729	-2.7125	-3.0229	-2.4771	-2.4083	-2.7792	-2.4354	-2.8625	-2.7208	-2.3729	-2.9188	327.702	187.757	445.646	166.676	181.079	196.860	449.943	361.508	490.630	292.382	397.004	215.651	467.662	154.281	214.061	450.011	0.00054918	0.00058641	0.00014208	1515.8	3.2689e-06	2.2935e-06	1503.1	401.17	5.5346e-06	4.374e-06	455.93	148.2	129.18	43.664	4.6593e-06	54.101	0.00080325	0.00091936	0.00025649	1544.6	1.0032e-05	1.0092e-05	1525.1	407.67	9.8512e-06	1.0096e-05	463.81	151.35	132.15	44.948	9.5779e-06	55.966	240.789	276.971	202.091	163.043	298.936	312.583	162.956	167.658	293.152	327.210	166.908	171.384	172.003	176.480	310.918	175.800	-8191	255	
25902.363	1	1	0	0	0.22136	0.12832	0.21863	0.16662	0.28081	0.11499	0.29996	0.19796	0.10394	0.15801	0.20892	0.22768	0.13718	0.13093	0.1051	0.24513	-2.0958	-2.5958	-2.8021	-2.4729	-2.7625	-2.7375	-2.6771	-2.8708	-2.4917	-2.6042	-2.8312	-2.4917	-2.5396	-2.6729	-2.4708	-2.7479	233.111	446.643	212.761	389.307	263.567	168.794	429.702	401.240	361.100	378.684	447.989	499.471	409.561	492.042	465.850	333.587	0.00054792	0.00044583	0.00019519	1510.5	3.7965e-06	6.2661e-06	1507	400.87	5.4218e-06	3.9274e-06	453.5	147.46	128.25	43.833	8.4947e-06	54.343	0.00081222	0.00090347	0.00025571	1544.3	9.8008e-06	1.0002e-05	1527.9	408.19	9.8878e-06	1.0051e-05	462.72	151.08	131.82	45.078	1.0021e-05	56.035	233.746	210.129	235.945	163.338	311.502	294.194	163.093	167.572	300.897	314.878	167.028	171.646	171.956	176.693	308.236	175.867	-8191	255	
25902.459	1	1	0	0	0.063391	0.11041	0.065015	0.25442	0.092902	0.11923	0.18064	0.2614	0.23395	0.24088	0.30969	0.098849	0.40908	0.16363	0.096216	0.37451	-2.1667	-2.4479	-2.7729	-2.5083	-2.5833	-2.7729	-2.6437	-2.7792	-2.5167	-2.6979	-2.8812	-2.6708	-2.7458	-2.8729	-2.4646	-2.8354	163.711	308.040	341.257	173.704	186.645	185.708	392.799	460.585	408.264	270.082	508.455	153.244	506.651	445.415	380.872	474.553	0.00051228	0.00056349	0.00016985	1524	7.6235e-06	4.1342e-06	1501.2	400.17	4.9494e-06	6.1047e-06	454.11	147.45	128.45	43.801	4.7232e-06	54.081	0.00080341	0.00090699	0.00025548	1548.6	1.0254e-05	1.0164e-05	1529.2	408.24	9.892e-06	1.0078e-05	463.17	151.35	132.23	45.054	1.0131e-05	55.822	237.711	244.509	237.470	163.009	289.914	276.023	162.977	167.718	291.957	313.560	167.238	171.442	172.174	176.732	288.284	175.852	-8191	255	
25902.555	1	1	0	0	0.070927	0.04998	0.12371	0.087418	0.32808	0.4874	0.27482	0.26483	0.16043	0.25572	0.16452	0.17478	0.24029	0.099304	0.14674	0.16548	-2.1833	-2.3937	-2.8583	-2.5187	-2.7562	-2.6042	-2.7062	-2.9542	-2.7	-2.4167	-3.0062	-2.7208	-2.7542	-2.8479	-2.4875	-2.7208	217.102	417.056	437.960	432.819	299.087	396.180	481.667	458.739	248.984	250.416	441.357	478.722	461.090	201.420	438.629	450.352	0.00057585	0.00039466	0.00020553	1521.6	4.8757e-06	8.7368e-06	1504.7	399.95	4.9283e-06	6.5925e-06	455.61	148.06	128.74	43.669	9.434e-06	54.459	0.00084732	0.00094334	0.00026106	1551.2	1.043e-05	1.0819e-05	1533.4	408.98	1.0561e-05	1.092e-05	464.58	151.62	132.28	45.1	1.0856e-05	56.117	235.399	197.826	227.212	163.172	323.658	279.413	163.085	167.715	286.097	325.740	167.183	171.278	171.990	176.662	296.663	175.894	-8191	255	
25902.650	1	1	0	131072	0.1374	0.1551	0.14168	0.09937	0.096319	0.10628	0.37838	0.33724	0.17275	0.041859	0.047302	0.17972	0.093599	0.17032	0.16427	0.1087	-2.3063	-2.2833	-2.7938	-2.5917	-2.4354	-2.7188	-2.7625	-2.9146	-2.625	-2.5375	-2.9583	-2.7812	-2.6375	-2.9271	-2.3146	-2.8063	393.280	425.947	318.601	329.978	244.084	374.997	486.091	482.195	239.083	341.290	400.568	365.011	350.568	484.719	199.188	226.390	0.00053567	0.00037075	0.00017388	1535.4	1.4671e-06	4.4587e-06	1521.8	402.94	6.85e-06	4.762e-06	456.16	148.31	129.63	43.97	8.128e-06	54.421	0.00086869	0.00097598	0.0002766	1561.6	1.0982e-05	1.0988e-05	1545.4	410.89	1.0837e-05	1.1223e-05	466.57	152.47	133.14	45.419	1.1458e-05	56.25	233.103	179.847	229.025	163.003	304.968	302.061	163.058	167.677	281.124	271.785	167.308	171.317	171.955	176.589	318.554	175.687	-8191	255	
25902.746	1	1	0	131072	0.19369	0.040988	0.24256	0.055374	0.15161	0.085433	0.36948	0.27466	0.18264	0.16655	0.24256	0.35444	0.17422	0.19134	0.30451	0.32149	-2.3896	-2.4562	-2.6896	-2.6729	-2.5167	-2.8312	-2.6854	-2.8292	-2.6875	-2.3583	-2.8979	-2.7375	-2.5	-2.8312	-2.3771	-2.7417	397.560	302.976	445.009	442.596	373.316	313.648	442.990	457.383	287.037	167.529	203.703	179.393	205.515	469.775	359.538	468.684	0.00054133	0.00058765	0.00015067	1549.4	6.0723e-06	7.875e-06	1537.6	405.39	4.5695e-06	2.9264e-06	458.98	149.22	131.38	44.325	5.4499e-06	54.591	0.00092564	0.0010572	0.0003026	1583.8	1.1628e-05	1.1739e-05	1563.8	414.02	1.1646e-05	1.1742e-05	469.7	153.36	134.66	45.795	1.166e-05	56.372	238.830	249.307	224.853	163.131	298.782	307.524	162.960	167.543	309.430	310.220	167.011	171.337	171.997	176.586	329.127	175.792	-8191	255	
25902.844	1	1	0	131072	0.19419	0.035346	0.04789	0.34024	0.13972	0.20432	0.091454	0.38761	0.068265	0.1999	0.11098	0.02594	0.25786	0.13503	0.16356	0.21469	-2.2771	-2.3042	-2.8187	-2.7562	-2.4833	-2.9688	-2.6417	-2.7	-2.8021	-2.4667	-2.8604	-2.7646	-2.4938	-2.9167	-2.3583	-2.5583	327.705	303.667	232.138	441.779	272.625	217.962	441.703	461.774	161.829	201.681	382.108	424.730	489.984	420.535	456.918	383.245	0.00053539	0.00074065	0.00011305	1564.4	7.1274e-06	5.4345e-06	1544.6	407.5	7.0278e-06	7.531e-06	461.29	149.08	131.16	44.684	3.775e-06	54.694	0.00091722	0.0010643	0.00030465	1594	1.1753e-05	1.2037e-05	1572	416.47	1.1547e-05	1.1768e-05	471.91	153.74	134.79	46.02	1.1926e-05	56.629	238.150	227.340	241.071	162.974	318.457	255.179	163.012	167.563	309.240	313.795	167.037	171.385	171.949	176.368	306.001	175.524	-8191	255	
25902.963	1	1	0	131072	0.055424	0.16073	0.18662	0.095473	0.23998	0.10006	0.22069	0.3818	0.062086	0.27213	0.26603	0.16915	0.19454	0.28377	0.11558	0.049005	-2.1625	-2.5	-2.5312	-2.8063	-2.6688	-2.7583	-2.7687	-2.6167	-3.0312	-2.3958	-2.7167	-2.7083	-2.5542	-2.7438	-2.575	-2.6333	154.929	232.298	281.729	217.737	261.962	218.866	398.260	488.174	273.995	216.065	474.564	412.803	394.448	452.552	326.187	200.543	0.00056504	0.00065063	8.4866e-05	1568.6	2.4847e-06	7.0078e-06	1554	409.62	5.3586e-06	5.9053e-06	464.25	150.76	132.68	44.955	7.7611e-06	55.348	0.00094447	0.001116	0.0003145	1602.1	1.191e-05	1.2585e-05	1579.4	418.23	1.2315e-05	1.3097e-05	475.52	155.29	136.43	46.436	1.3439e-05	57.153	238.207	213.093	216.074	162.802	311.042	281.882	162.861	167.639	293.815	305.904	167.232	171.307	172.007	176.055	329.384	175.710	-8191	255	
25903.059	1	1	0	131072	0.2013	0.012019	0.17401	0.18738	0.17329	0.19235	0.23637	0.5063	0.13493	0.29187	0.21203	0.12738	0.096187	0.22143	0.068539	0.20065	-2.3271	-2.4417	-2.5042	-2.8708	-2.5104	-2.8063	-3.0312	-2.7	-2.8958	-2.6833	-2.8937	-2.9688	-2.6354	-2.9042	-2.7562	-2.3875	450.688	430.024	306.771	206.826	161.914	218.478	470.154	484.806	155.544	241.577	207.458	404.543	183.476	503.578	235.328	344.584	0.00053632	0.0003932	0.00021492	1594.5	6.3736e-06	1.6938e-06	1566.1	417.2	7.2613e-06	8.1087e-06	468.67	153.24	134.78	45.795	4.7178e-06	56.013	0.0010582	0.0012821	0.00035504	1629.2	1.354e-05	1.4299e-05	1606.2	426.08	1.401e-05	1.4412e-05	482.19	157.53	138.57	47.172	1.4325e-05	57.85	237.126	229.081	223.905	163.222	295.891	339.623	162.957	167.577	293.184	311.195	166.995	171.492	171.899	176.816	279.735	175.464	-8191	255	
25903.133	1	1	0	131072	0.18351	0.24383	0.13055	0.24431	0.18822	0.22053	0.21335	0.2084	0.071083	0.15835	0.13874	0.16747	0.3217	0.18336	0.1926	0.11802	-2.1979	-2.5	-2.6458	-2.7	-2.3521	-2.5625	-2.8125	-2.6104	-2.7458	-2.5104	-2.6667	-2.8979	-2.4208	-2.7687	-2.6792	-2.4917	219.037	431.641	341.898	497.814	376.107	326.171	438.803	424.436	179.010	292.147	267.441	351.284	419.573	406.693	377.684	378.175	0.00055105	0.00058447	4.1322e-05	1618.5	5.8654e-06	6.0512e-06	1567.8	418.82	6.1214e-06	3.0279e-06	474.56	154.22	135.88	46.02	4.0759e-06	56.224	0.0011304	0.0013706	0.00038039	1654.8	1.4734e-05	1.5389e-05	1621.4	428.83	1.4608e-05	1.5229e-05	486.72	158.83	139.63	47.557	1.4812e-05	58.138	235.317	256.051	234.098	163.147	302.054	299.387	162.781	167.441	299.944	355.216	167.054	171.245	171.718	176.342	301.121	175.544	-8191	255	
25903.252	1	1	0	131072	0.25629	0.10008	0.24654	0.11105	0.28234	0.14809	0.23347	0.1315	0.043616	0.085674	0.14283	0.1281	0.098228	0.10271	0.089726	0.067057	-2.35	-2.5583	-2.2875	-2.7396	-2.6292	-2.7375	-3.1271	-2.6208	-2.7396	-2.6312	-2.5583	-2.875	-2.6458	-2.5771	-2.6083	-2.4229	409.197	190.513	161.005	480.898	418.083	374.757	449.612	487.407	427.905	166.806	420.077	470.370	392.110	159.933	431.113	152.837	0.00054617	0.0002972	0.00016007	1622.9	4.8595e-06	2.112e-06	1567.2	422.93	5.6363e-06	7.6993e-06	476.18	154.62	136.29	46.326	6.501e-06	56.217	0.0011601	0.0013888	0.00039067	1663	1.5132e-05	1.5365e-05	1629.5	432.06	1.4821e-05	1.5595e-05	488.16	159.42	140.45	47.738	1.5219e-05	58.401	238.540	257.218	256.823	162.981	295.881	394.214	162.850	167.490	291.951	300.421	167.093	171.495	172.060	176.355	313.244	175.661	-8191	255	
25903.348	1	1	0	131072	0.33539	0.18968	0.29036	0.29937	0.21482	0.16476	0.20515	0.23776	0.024549	0.15138	0.3466	0.079854	0.06418	0.041865	0.023401	0.29828	-2.2938	-2.4729	-2.4396	-2.7771	-2.5563	-2.6063	-2.9771	-2.5771	-2.8958	-2.6208	-2.4292	-2.9604	-2.5062	-2.7417	-2.7229	-2.4333	239.757	360.364	378.220	173.311	443.334	457.166	490.581	408.233	444.539	178.649	459.225	366.663	492.581	489.890	503.976	182.693	0.00059155	0.00046088	0.00018922	1633.4	4.6436e-06	7.9983e-06	1570.4	424.42	6.6153e-06	4.6808e-06	477.22	154.94	136.38	46.08	4.465e-06	56.367	0.0011665	0.0013848	0.00039491	1670.4	1.5171e-05	1.5607e-05	1632.3	432.87	1.496e-05	1.5502e-05	489.12	159.88	140.57	47.707	1.5002e-05	58.454	236.370	260.813	218.858	163.044	294.239	307.460	162.891	167.505	252.490	295.695	167.166	171.128	171.642	176.453	318.751	175.794	-8191	255	
25903.443	1	1	0	131072	0.12347	0.21008	0.18456	0.17794	0.11419	0.034749	0.19244	0.24569	0.072087	0.063177	0.35064	0.18691	0.108	0.16782	0.070698	0.1685	-2.3688	-2.4458	-2.3625	-2.8146	-2.5396	-2.7042	-2.9	-2.4708	-2.5896	-2.6271	-2.4458	-2.85	-2.7125	-2.7	-2.75	-2.6854	241.246	465.041	321.049	502.752	289.457	485.092	483.641	450.106	466.559	151.741	479.495	504.362	457.673	394.800	294.892	388.272	0.00054789	0.00085608	0.00014226	1634.8	5.8169e-06	5.2939e-06	1570.6	422.59	6.1085e-06	7.4137e-06	478.57	155.06	136.66	46.208	7.3311e-06	56.57	0.0011682	0.0014047	0.00038099	1674.8	1.4964e-05	1.5161e-05	1635.1	432.52	1.478e-05	1.513e-05	489.55	159.97	140.74	47.786	1.4838e-05	58.486	237.818	233.658	245.955	163.000	306.081	312.955	162.717	167.310	287.515	313.145	167.182	171.413	171.722	176.383	321.058	175.674	-8191	255	
25903.564	1	1	0	131072	0.050885	0.12087	0.24	0.27411	0.13349	0.19445	0.21716	0.44867	0.29448	0.24911	0.19694	0.20778	0.22669	0.2041	0.20492	0.32567	-2.2938	-2.6437	-2.425	-2.8271	-2.5375	-2.6	-3.0521	-2.6583	-2.7333	-2.875	-2.3688	-2.8375	-2.8229	-2.5229	-2.85	-2.8604	284.275	206.034	466.717	172.589	250.101	221.458	495.592	473.716	427.959	277.992	501.403	494.608	433.755	497.223	506.394	438.566	0.00055241	0.00055158	0.00012457	1641.8	4.9095e-06	8.6689e-06	1570.4	424.85	5.6121e-06	1.9263e-06	475.37	155.43	136.71	46.121	5.5624e-06	56.303	0.0011565	0.0013699	0.00037673	1674.2	1.5073e-05	1.4859e-05	1632.1	433.85	1.4227e-05	1.5071e-05	488.24	159.81	140.44	47.698	1.4277e-05	58.389	236.173	238.283	244.132	162.980	284.841	289.240	162.845	167.549	301.156	244.779	167.060	171.118	171.687	176.532	304.370	175.759	-8191	255	
25903.660	1	1	0	131072	0.05858	0.055047	0.070241	0.036176	0.10953	0.18769	0.28145	0.34545	0.1447	0.20919	0.17763	0.042116	0.32983	0.13966	0.12212	0.25108	-2.15	-2.7333	-2.4521	-2.7354	-2.675	-2.3958	-2.9792	-2.625	-2.5646	-2.8854	-2.6958	-2.8875	-2.725	-2.6708	-2.7958	-2.7562	362.974	410.403	411.596	329.509	317.379	151.620	360.757	452.374	169.670	356.983	449.740	437.200	402.197	486.282	265.064	501.156	0.00056606	0.00080423	0.00016801	1631.9	3.0151e-06	8.0721e-06	1570.2	423.16	6.2391e-06	2.8457e-06	476.1	154.9	136.44	46.125	6.9323e-06	56.239	0.0010889	0.0013005	0.0003653	1669.9	1.397e-05	1.4148e-05	1633.6	431.98	1.3689e-05	1.4303e-05	488.57	159.59	140.26	47.643	1.3832e-05	58.296	238.536	227.518	245.581	162.986	343.697	280.207	162.967	167.612	311.968	258.093	167.062	171.341	171.691	176.486	271.943	175.940	-8191	255	
25903.732	1	1	0	131072	0.46991	0.1294	0.099988	0.12601	0.13557	0.11889	0.29379	0.21839	0.17854	0.2448	0.34638	0.24319	0.20255	0.33034	0.26207	0.22686	-2.0563	-2.6854	-2.3875	-2.6146	-2.8354	-2.575	-3.1042	-2.6604	-2.5146	-2.6958	-2.6521	-2.7104	-2.6521	-2.4771	-2.7271	-2.6146	450.630	217.513	357.270	156.799	315.607	458.584	503.154	479.323	184.671	215.718	179.251	453.732	495.879	183.097	311.304	441.526	0.00056038	0.00078934	0.00015747	1629.8	4.4773e-06	7.8578e-06	1571.7	422.87	5.1262e-06	7.7345e-06	476.47	155.64	135.94	46.01	8.7325e-06	56.411	0.0010502	0.0012665	0.0003499	1666.7	1.366e-05	1.3807e-05	1629.2	432.1	1.3107e-05	1.3832e-05	487.14	159.8	140.11	47.662	1.3331e-05	58.387	236.625	218.032	251.024	162.946	319.607	311.240	162.885	167.357	303.962	317.393	166.765	171.193	171.894	176.452	322.334	176.017	-8191	255	
25903.852	1	1	0	131072	0.10256	0.27916	0.092269	0.055656	0.20195	0.21789	0.21998	0.25453	0.055254	0.28151	0.17439	0.15575	0.22368	0.25107	0.066931	0.21752	-1.8708	-2.7583	-2.2708	-2.7479	-2.6479	-2.4729	-2.9813	-2.7	-2.5125	-2.8521	-2.7729	-2.7833	-2.8354	-2.7083	-2.6125	-2.8417	220.154	505.897	341.650	455.879	500.810	288.832	479.117	497.891	221.979	402.435	489.166	184.360	457.640	159.374	164.337	444.538	0.00056812	0.00044003	0.00013628	1636.3	3.4931e-06	3.4751e-06	1569.5	423.08	7.1529e-06	5.5914e-06	475.8	155.38	136.52	46.176	6.043e-06	56.39	0.0010469	0.0012502	0.00034666	1667.2	1.3479e-05	1.4067e-05	1630.1	430.93	1.3109e-05	1.4191e-05	487.85	159.8	140.25	47.634	1.3654e-05	58.365	238.887	209.194	227.439	163.090	343.600	284.840	162.770	167.363	295.152	285.286	167.042	171.284	171.588	176.308	307.467	175.740	-8191	255	
25903.947	1	1	0	131072	0.044557	0.030458	0.33214	0.24082	0.26726	0.093119	0.3092	0.34893	0.10326	0.39855	0.42492	0.3928	0.0058695	0.10197	0.17129	0.2687	-2.0958	-2.7271	-2.5354	-2.6417	-2.8354	-2.3458	-2.9292	-2.8792	-2.4604	-2.8083	-2.6437	-2.7292	-2.9188	-2.4542	-2.6063	-2.7833	272.917	440.091	458.756	509.101	458.260	164.218	455.778	494.498	254.136	447.868	458.768	149.886	481.199	313.439	215.020	433.220	0.00058039	0.00039965	0.00018168	1632.3	5.465e-06	4.8458e-06	1570.4	424.09	5.4163e-06	6.9975e-06	475.16	154.85	136.52	45.982	7.2715e-06	56.681	0.0010543	0.0012687	0.0003525	1665.6	1.386e-05	1.413e-05	1629.3	431.79	1.3276e-05	1.3881e-05	487.36	159.49	140.16	47.606	1.3774e-05	58.36	234.522	230.545	248.887	163.055	325.382	324.024	162.871	167.483	288.533	296.873	167.092	171.334	171.857	176.464	294.425	175.579	-8191	255	
25904.043	1	1	0	131072	0.2697	0.1918	0.27453	0.084211	0.072515	0.25035	0.29807	0.177	0.35269	0.25724	0.27016	0.38691	0.044763	0.15226	0.16717	0.16362	-1.8833	-2.7271	-2.5292	-2.5875	-2.7625	-2.5958	-2.9062	-2.9604	-2.5146	-2.6479	-2.7396	-2.525	-2.9625	-2.7104	-2.6292	-2.725	379.159	362.202	208.414	439.268	225.602	341.055	443.141	420.175	283.109	366.234	495.990	488.020	482.192	475.773	368.919	231.850	0.00057019	0.00068778	0.00017239	1636.1	3.4704e-06	7.1329e-06	1570.6	422.88	5.7015e-06	3.6883e-06	476.96	154.88	136.65	46.13	6.3777e-06	56.273	0.001052	0.0012661	0.00035461	1667	1.3796e-05	1.382e-05	1627.5	431.69	1.3162e-05	1.3607e-05	487.61	159.34	140.21	47.618	1.3294e-05	58.268	237.718	233.853	219.208	162.822	325.226	306.477	163.092	167.598	286.915	245.347	166.948	171.374	171.840	176.559	315.699	175.940	-8191	255	
25904.139	1	1	0	131072	0.28379	0.26304	0.094547	0.18438	0.2391	0.075029	0.18039	0.4919	0.086868	0.12935	0.10913	0.21236	0.15122	0.33422	0.10608	0.55344	-1.9521	-2.8208	-2.6688	-2.6104	-2.7938	-2.5479	-2.7938	-2.9417	-2.3458	-2.7354	-2.7854	-2.5375	-2.9458	-2.6521	-2.4771	-3.0312	191.353	326.856	260.515	150.213	202.339	249.958	423.369	450.391	352.172	340.119	401.199	398.224	219.276	505.924	324.759	440.320	0.00057968	0.00081068	0.00014268	1624.5	4.4561e-06	5.5567e-06	1569	423.14	5.391e-06	6.3364e-06	474.99	154.76	135.62	46.057	5.4569e-06	56.426	0.001052	0.0012463	0.00033835	1661.7	1.3426e-05	1.3613e-05	1626.7	431.47	1.286e-05	1.3572e-05	487.04	159.21	139.89	47.555	1.3059e-05	58.341	235.512	244.719	239.473	162.986	310.764	280.467	162.809	167.503	320.545	287.696	167.016	171.414	171.930	176.351	317.622	175.841	-8191	255	
25904.234	1	1	0	131072	0.16236	0.072112	0.20091	0.13128	0.22623	0.42125	0.20737	0.25093	0.071496	0.33263	0.16256	0.057097	0.047864	0.28597	0.15745	0.26729	-1.9792	-2.6188	-2.6771	-2.2625	-2.6396	-2.5563	-2.7167	-2.9479	-2.525	-2.5146	-2.8708	-2.5125	-2.8792	-2.6792	-2.6625	-2.9229	193.333	351.628	419.755	437.776	442.730	243.683	489.598	160.985	493.819	425.441	438.755	418.173	305.031	440.108	378.553	157.169	0.00057125	0.00048212	0.00015421	1630.6	3.4059e-06	7.8181e-06	1569.1	422.06	5.2684e-06	2.8718e-06	475.72	154.58	135.98	46.119	4.6239e-06	56.289	0.0010251	0.0012302	0.00033632	1663.4	1.3465e-05	1.3556e-05	1627.9	431.29	1.3202e-05	1.3541e-05	487.25	159.54	139.99	47.608	1.3179e-05	58.228	239.932	265.072	256.049	163.006	250.974	296.516	162.986	167.358	318.286	255.711	167.044	171.330	171.808	176.481	282.271	175.870	-8191	255	
25904.355	1	1	0	131072	0.033296	0.047367	0.13168	0.27651	0.13663	0.2862	0.2196	0.40692	0.22856	0.21165	0.3269	0.27038	0.24684	0.33054	0.30004	0.11516	-1.8438	-2.5979	-2.5458	-2.3792	-2.675	-2.3937	-2.8896	-3.0375	-2.5792	-2.6854	-2.8521	-2.6083	-2.7833	-2.75	-2.5563	-2.925	294.211	508.552	257.406	469.907	451.577	342.457	428.040	456.199	441.811	265.092	195.517	474.109	476.268	496.540	309.164	395.116	0.00054768	0.00077148	0.00021671	1629.2	4.3386e-06	7.1563e-06	1571.6	422.88	8.9265e-06	7.8776e-06	475.88	155.15	136.42	46.155	8.8942e-06	56.372	0.0010461	0.0012608	0.00034998	1667.3	1.3523e-05	1.3829e-05	1631.2	431.6	1.3494e-05	1.4008e-05	488.04	159.68	140.54	47.726	1.3721e-05	58.397	240.651	223.610	236.689	163.040	300.470	324.496	162.771	167.441	307.287	311.569	166.977	171.543	171.458	176.521	280.457	175.670	-8191	255	
25904.428	1	1	0	131072	0.21246	0.051395	0.22733	0.25982	0.24336	0.24178	0.38707	0.20665	0.10352	0.10597	0.19211	0.25711	0.16073	0.28409	0.1097	0.096338	-2.0896	-2.5375	-2.7542	-2.4833	-2.5521	-2.6312	-2.75	-3.0021	-2.7542	-2.4979	-2.9313	-2.6646	-2.8667	-2.8208	-2.4167	-2.6854	169.868	299.506	353.228	441.404	297.281	336.359	461.188	452.212	367.428	377.216	152.417	477.662	475.084	487.980	470.095	456.862	0.00055203	0.00049764	0.00018903	1634.6	3.4369e-06	3.7624e-06	1570	423.23	4.9343e-06	5.7266e-06	475.84	154.75	136.32	46.09	5.2019e-06	56.426	0.0010712	0.0012638	0.00035283	1668.2	1.3711e-05	1.3528e-05	1633.1	432.34	1.3197e-05	1.3676e-05	487.81	159.67	140.32	47.674	1.3383e-05	58.45	237.250	215.113	240.647	162.908	314.960	253.277	162.746	167.447	286.009	324.818	166.850	171.388	171.779	176.436	315.200	175.756	-8191	255	
#DATA ENDS
