BOXY.EXE: ISS Imagent and Oximeter Data Acquisition Program Version 0.80
Ascii Record File

#ACQ INFORMATION
2  Detector Channels 
16  External MUX Channels 
1  Auxiliary Channels 
5000  Waveform (CCF) Frequency (Hz)
1  Waveforms Skipped 
30  Waveforms Averaged 
1  Cycles Averaged 
16  Acquisitions per Waveform 
10.0806  Updata Rate (Hz) 

#FILE INFORMATION
TRUE -- External MUX Channel results are PARSED.
FALSE -- AC DC and Phase are NOT grouped.
TRUE -- Companion Program Settings File CREATED.
FALSE -- AC data not excluded
FALSE -- DC data not excluded
FALSE -- Phase data not excluded
FALSE -- Auxillary Chn. data not excluded
Tab delimiters

#CALIBRATION STATE
TRUE -- Waveform Calibration Values APPLIED.


#AUX CALIBRATION VALUES
Val Type	aux-1	

Term	1.0000e+00	
Factor	0.0000e+00	


#WF CALIBRATION VALUES
A = Detector Channel
Val Type	A-AC1	A-AC2	A-AC3	A-AC4	A-AC5	A-AC6	A-AC7	A-AC8	A-AC9	A-AC10	A-AC11	A-AC12	A-AC13	A-AC14	A-AC15	A-AC16	A-DC1	A-DC2	A-DC3	A-DC4	A-DC5	A-DC6	A-DC7	A-DC8	A-DC9	A-DC10	A-DC11	A-DC12	A-DC13	A-DC14	A-DC15	A-DC16	A-Ph1	A-Ph2	A-Ph3	A-Ph4	A-Ph5	A-Ph6	A-Ph7	A-Ph8	A-Ph9	A-Ph10	A-Ph11	A-Ph12	A-Ph13	A-Ph14	A-Ph15	A-Ph16	

Term	0.00000e+00	0.00000e+00	0.00000e+00	0.00000e+00	0.00000e+00	0.00000e+00	0.00000e+00	0.00000e+00	0.00000e+00	0.00000e+00	0.00000e+00	0.00000e+00	0.00000e+00	0.00000e+00	0.00000e+00	0.00000e+00	0.00000e+00	0.00000e+00	0.00000e+00	0.00000e+00	0.00000e+00	0.00000e+00	0.00000e+00	0.00000e+00	0.00000e+00	0.00000e+00	0.00000e+00	0.00000e+00	0.00000e+00	0.00000e+00	0.00000e+00	0.00000e+00	0.00000e+00	0.00000e+00	0.00000e+00	0.00000e+00	0.00000e+00	0.00000e+00	0.00000e+00	0.00000e+00	0.00000e+00	0.00000e+00	0.00000e+00	0.00000e+00	0.00000e+00	0.00000e+00	0.00000e+00	0.00000e+00	
Factor	1.00000e+00	1.00000e+00	1.00000e+00	1.00000e+00	1.00000e+00	1.00000e+00	1.00000e+00	1.00000e+00	1.00000e+00	1.00000e+00	1.00000e+00	1.00000e+00	1.00000e+00	1.00000e+00	1.00000e+00	1.00000e+00	1.00000e+00	1.00000e+00	1.00000e+00	1.00000e+00	1.00000e+00	1.00000e+00	1.00000e+00	1.00000e+00	1.00000e+00	1.00000e+00	1.00000e+00	1.00000e+00	1.00000e+00	1.00000e+00	1.00000e+00	1.00000e+00	X	X	X	X	X	X	X	X	X	X	X	X	X	X	X	X	

B = Detector Channel
Val Type	B-AC1	B-AC2	B-AC3	B-AC4	B-AC5	B-AC6	B-AC7	B-AC8	B-AC9	B-AC10	B-AC11	B-AC12	B-AC13	B-AC14	B-AC15	B-AC16	B-DC1	B-DC2	B-DC3	B-DC4	B-DC5	B-DC6	B-DC7	B-DC8	B-DC9	B-DC10	B-DC11	B-DC12	B-DC13	B-DC14	B-DC15	B-DC16	B-Ph1	B-Ph2	B-Ph3	B-Ph4	B-Ph5	B-Ph6	B-Ph7	B-Ph8	B-Ph9	B-Ph10	B-Ph11	B-Ph12	B-Ph13	B-Ph14	B-Ph15	B-Ph16	

Term	0.00000e+00	0.00000e+00	0.00000e+00	0.00000e+00	0.00000e+00	0.00000e+00	0.00000e+00	0.00000e+00	0.00000e+00	0.00000e+00	0.00000e+00	0.00000e+00	0.00000e+00	0.00000e+00	0.00000e+00	0.00000e+00	0.00000e+00	0.00000e+00	0.00000e+00	0.00000e+00	0.00000e+00	0.00000e+00	0.00000e+00	0.00000e+00	0.00000e+00	0.00000e+00	0.00000e+00	0.00000e+00	0.00000e+00	0.00000e+00	0.00000e+00	0.00000e+00	-6.15763e+01	-1.30411e+02	-1.24549e+02	-1.82143e+02	-5.62854e+01	-6.13144e+01	-1.55749e+02	-1.62015e+02	-4.36545e+01	-5.84641e+01	-1.71172e+02	-1.71176e+02	-1.81653e+02	-1.77264e+02	-5.75505e+01	-1.50260e+02	
Factor	1.84335e-05	1.52056e-04	4.43642e-05	4.71444e-01	1.63633e-06	1.83727e-06	1.70005e-01	5.70259e-02	1.24874e-06	1.86029e-06	9.06459e-02	2.89522e-02	2.44098e-02	8.74298e-03	1.46882e-06	1.28138e-02	7.07437e-06	9.43660e-06	2.63415e-06	2.38107e-01	1.02249e-07	1.04931e-07	8.15064e-02	2.91262e-02	9.98385e-08	1.04856e-07	4.47650e-02	1.44068e-02	1.26248e-02	4.50497e-03	1.02288e-07	6.38331e-03	X	X	X	X	X	X	X	X	X	X	X	X	X	X	X	X	



#DISTANCE SETTINGS
A = Detector Channel
A-1	A-2	A-3	A-4	A-5	A-6	A-7	A-8	A-9	A-10	A-11	A-12	A-13	A-14	A-15	A-16	

2.5000e+00	3.0000e+00	2.5000e+00	3.0000e+00	2.0000e+00	3.0000e+00	1.5000e+00	3.0000e+00	3.0000e+00	3.0000e+00	3.0000e+00	3.0000e+00	3.0000e+00	3.0000e+00	1.5000e+00	3.0000e+00	

B = Detector Channel
B-1	B-2	B-3	B-4	B-5	B-6	B-7	B-8	B-9	B-10	B-11	B-12	B-13	B-14	B-15	B-16	

1.0000e+01	1.0000e+01	1.0000e+01	1.4400e+00	1.0000e+01	1.0000e+01	1.5100e+00	1.9400e+00	1.0000e+01	1.0000e+01	1.9900e+00	2.4900e+00	2.4100e+00	2.9000e+00	1.0000e+01	2.9800e+00	




#DATA BEGINS
time	group	step	mark	flag	A-AC1	A-AC2	A-AC3	A-AC4	A-AC5	A-AC6	A-AC7	A-AC8	A-AC9	A-AC10	A-AC11	A-AC12	A-AC13	A-AC14	A-AC15	A-AC16	A-DC1	A-DC2	A-DC3	A-DC4	A-DC5	A-DC6	A-DC7	A-DC8	A-DC9	A-DC10	A-DC11	A-DC12	A-DC13	A-DC14	A-DC15	A-DC16	A-Ph1	A-Ph2	A-Ph3	A-Ph4	A-Ph5	A-Ph6	A-Ph7	A-Ph8	A-Ph9	A-Ph10	A-Ph11	A-Ph12	A-Ph13	A-Ph14	A-Ph15	A-Ph16	B-AC1	B-AC2	B-AC3	B-AC4	B-AC5	B-AC6	B-AC7	B-AC8	B-AC9	B-AC10	B-AC11	B-AC12	B-AC13	B-AC14	B-AC15	B-AC16	B-DC1	B-DC2	B-DC3	B-DC4	B-DC5	B-DC6	B-DC7	B-DC8	B-DC9	B-DC10	B-DC11	B-DC12	B-DC13	B-DC14	B-DC15	B-DC16	B-Ph1	B-Ph2	B-Ph3	B-Ph4	B-Ph5	B-Ph6	B-Ph7	B-Ph8	B-Ph9	B-Ph10	B-Ph11	B-Ph12	B-Ph13	B-Ph14	B-Ph15	B-Ph16	aux-1	digaux	

18170.428	1	1	0	768	0.27461	0.021524	0.13194	0.22832	0.080157	0.028867	0.33544	0.14905	0.15784	0.16306	0.096005	0.29718	0.13678	0.065367	0.15124	0.24359	-2.2438	-2.5896	-2.8104	-2.5021	-2.8417	-2.8354	-2.6458	-2.9583	-2.6854	-2.4604	-3.0021	-2.6229	-2.7417	-2.7396	-2.4958	-2.9833	373.438	67.023	165.782	405.412	95.597	345.906	381.081	54.628	77.795	290.898	233.284	305.868	361.115	247.719	316.617	178.118	0.00027257	0.0002842	6.8956e-05	1291.4	3.1437e-06	2.1277e-06	1364.7	271.24	3.9379e-06	3.9669e-06	334.17	91.459	72.462	21.079	2.8409e-06	29.35	0.0003154	0.00031742	8.9654e-05	1268	3.5359e-06	3.3982e-06	1337.7	269.34	3.303e-06	3.2783e-06	331.51	91.498	72.567	21.231	3.2751e-06	29.554	230.663	147.630	161.669	63.712	195.642	283.423	63.964	70.996	209.434	200.539	70.660	77.653	77.715	83.958	205.982	83.606	-8191	255	
18170.523	1	1	0	0	0.16643	0.18132	0.23018	0.032127	0.071973	0.28721	0.20714	0.027833	0.35739	0.16646	0.21373	0.076296	0.047777	0.23652	0.32842	0.29584	-2.3396	-2.425	-2.7542	-2.6146	-2.7417	-2.8438	-2.8208	-3.0812	-2.8542	-2.6646	-3.0917	-2.625	-2.6729	-3.0146	-2.3812	-2.6979	94.795	374.458	335.053	296.011	134.794	296.424	53.932	387.825	411.711	113.249	334.759	135.095	100.785	237.534	380.919	55.069	0.00027971	0.0003739	4.2985e-05	1284.9	3.9935e-06	4.4158e-06	1353.1	268.8	3.0937e-06	4.5872e-06	330.77	90.085	71.748	20.686	2.4439e-06	29.031	0.00028791	0.00028823	7.9848e-05	1262.4	3.0019e-06	3.0192e-06	1328.6	267.11	2.975e-06	2.9344e-06	328.3	90.508	71.708	20.967	2.8246e-06	29.304	229.221	129.848	92.825	63.944	212.238	226.840	64.039	71.195	229.771	245.409	70.660	77.263	78.559	84.032	211.898	83.460	-8191	255	
18170.619	1	1	0	0	0.14312	0.18363	0.14434	0.046475	0.29306	0.23245	0.23181	0.10368	0.079132	0.15413	0.060273	0.11833	0.14171	0.14538	0.14988	0.1283	-2.2854	-2.4208	-2.7667	-2.6229	-2.6667	-2.8833	-2.7708	-2.7687	-2.8729	-2.3729	-3	-2.6458	-2.6875	-3.125	-2.7125	-2.8146	126.840	216.113	56.188	283.106	403.590	144.829	409.780	353.834	305.008	79.235	91.647	385.899	137.269	305.658	99.016	329.215	0.00024423	0.00038936	0.00010208	1291.3	4.2862e-06	2.6304e-06	1346.8	266.75	3.0055e-06	3.5225e-06	329.99	90.236	71.393	20.645	3.0185e-06	28.934	0.00027291	0.0002528	7.3065e-05	1259.6	2.8502e-06	2.7791e-06	1324.3	265.58	2.7006e-06	2.7645e-06	327.62	90.622	71.603	20.947	2.7726e-06	29.361	228.282	138.704	150.478	63.778	203.028	201.376	64.132	71.426	232.510	213.144	70.847	77.867	77.556	83.850	211.539	83.722	-8191	255	
18170.717	1	1	0	0	0.23744	0.11698	0.06314	0.035833	0.097739	0.09551	0.24621	0.043507	0.15636	0.069702	0.20425	0.16713	0.13871	0.19715	0.083827	0.19171	-2.2646	-2.5812	-2.7896	-2.6292	-2.4417	-2.8958	-2.7604	-2.6708	-2.7979	-2.7271	-3.0187	-2.7687	-2.6271	-2.9125	-2.6813	-2.675	172.547	54.052	168.533	319.467	295.013	368.721	324.696	63.597	393.245	291.423	378.219	67.937	144.395	322.859	124.527	103.488	0.000255	0.00036066	6.7786e-05	1275.3	5.4889e-06	2.644e-06	1342.8	267.02	4.4409e-06	3.0217e-06	328.27	89.737	70.742	20.551	3.0818e-06	28.552	0.00026738	0.00025384	7.1912e-05	1253.9	2.781e-06	2.684e-06	1319.2	264.46	2.793e-06	2.6832e-06	325.73	89.564	70.738	20.688	2.7315e-06	28.96	228.247	145.182	164.940	63.908	214.031	211.774	64.170	71.136	244.256	231.667	70.757	77.741	78.216	83.966	219.721	83.912	-8191	255	
18170.812	1	1	0	0	0.10735	0.22447	0.084977	0.15795	0.099051	0.19919	0.099869	0.16843	0.1677	0.26908	0.012708	0.021868	0.11174	0.12372	0.30004	0.11622	-2.5896	-2.3917	-2.7562	-2.7292	-2.4646	-2.8104	-2.7521	-2.7521	-2.8708	-2.6562	-2.8542	-2.7479	-2.6	-2.8729	-2.5333	-2.6937	217.282	403.639	67.997	332.325	374.970	340.392	355.488	303.809	133.910	210.496	305.785	382.885	195.002	390.635	388.294	327.059	0.00026138	0.00023987	8.6931e-05	1258.2	3.2382e-06	5.1464e-06	1320.6	263.91	2.7109e-06	4.1367e-06	324.19	88.42	69.846	20.156	6.2767e-06	28.618	0.00025258	0.00023749	6.6858e-05	1232.6	2.7901e-06	2.6329e-06	1299.4	260.72	2.6156e-06	2.5218e-06	321.18	88.567	69.803	20.426	2.6073e-06	28.733	224.255	142.661	168.150	64.253	200.760	219.554	64.230	71.241	206.470	180.518	70.816	77.869	78.064	84.258	231.640	83.981	-8191	255	
18170.908	1	1	0	0	0.18216	0.21796	0.25889	0.079034	0.12278	0.092863	0.49231	0.12139	0.023663	0.15542	0.21246	0.21763	0.14717	0.18457	0.34227	0.16782	-2.3458	-2.5333	-2.8146	-2.7542	-2.475	-2.8646	-2.8812	-2.675	-3.0021	-2.5667	-2.7667	-2.9583	-2.55	-2.8563	-2.7625	-2.7667	120.494	339.044	314.636	301.873	270.518	290.622	352.697	245.037	186.774	374.448	349.425	103.852	387.074	344.257	295.730	153.967	0.00025061	0.00032855	9.4679e-05	1246.1	1.8858e-06	3.8921e-06	1311.1	259.28	2.2123e-06	5.7832e-06	321.14	87.679	69.537	20.185	4.0684e-06	28.327	0.00023961	0.00022502	6.3763e-05	1221.2	2.5675e-06	2.6156e-06	1288.9	258.03	2.5371e-06	2.5532e-06	319.42	88.079	69.445	20.375	2.5148e-06	28.56	232.859	134.156	172.552	63.941	225.123	198.833	64.104	71.277	232.232	220.057	70.663	77.739	78.120	83.886	214.374	84.164	-8191	255	
18171.027	1	1	0	0	0.17324	0.20423	0.040287	0.17564	0.347	0.15098	0.20263	0.23	0.11359	0.02592	0.14531	0.027588	0.081634	0.23638	0.20088	0.081646	-2.4479	-2.5333	-2.575	-2.9042	-2.7479	-2.8688	-3.0375	-2.6562	-2.875	-2.6896	-2.8625	-3.0479	-2.4667	-2.9646	-2.775	-2.675	136.099	141.566	109.385	72.262	313.270	68.156	286.578	362.602	394.686	224.925	144.549	84.742	129.485	288.661	268.328	322.229	0.00023376	0.00039016	6.9274e-05	1240	2.8781e-06	3.9893e-06	1310.8	259.89	2.3974e-06	3.6964e-06	322.06	87.729	69.069	20.327	4.2671e-06	28.289	0.00023696	0.0002336	6.5431e-05	1219	2.494e-06	2.5133e-06	1286.1	257.71	2.4533e-06	2.4835e-06	319.07	87.937	69.41	20.439	2.6518e-06	28.532	225.878	152.968	153.387	64.233	217.090	220.641	64.147	71.500	246.955	238.223	70.613	77.664	78.346	84.538	232.134	83.882	-8191	255	
18171.123	1	1	0	0	0.10778	0.11194	0.031582	0.017841	0.028824	0.019933	0.31676	0.1707	0.14334	0.052294	0.21484	0.13258	0.22058	0.12637	0.14712	0.17514	-2.5375	-2.6521	-2.7167	-2.9646	-2.3937	-2.9021	-2.8563	-2.7458	-2.7521	-2.7271	-2.5438	-3.0104	-2.6562	-2.8458	-2.8083	-2.6292	400.167	408.489	343.975	366.910	263.476	254.731	377.876	140.523	238.730	218.021	380.998	409.993	405.693	298.980	135.179	357.823	0.00023414	0.00015839	5.8084e-05	1248.4	4.3438e-06	5.1782e-06	1313.2	259.78	3.2577e-06	2.5088e-06	322.16	87.953	69.645	20.236	3.9726e-06	28.57	0.00025528	0.00024567	7.065e-05	1225.2	2.7496e-06	2.6696e-06	1289.8	258.54	2.7221e-06	2.6227e-06	319.98	88.251	69.797	20.414	2.7677e-06	28.662	230.601	123.467	156.002	64.052	200.564	198.196	64.154	71.279	222.337	190.326	70.715	78.048	78.159	84.344	199.937	83.692	-8191	255	
18171.221	1	1	0	0	0.1426	0.31496	0.18129	0.3289	0.37469	0.18986	0.21983	0.17717	0.25849	0.05109	0.20686	0.16876	0.27872	0.045335	0.17163	0.029481	-2.6417	-2.4479	-2.7729	-2.8625	-2.6813	-2.8958	-2.9854	-2.6833	-2.8125	-2.5625	-2.6083	-3	-2.5771	-2.6625	-2.9167	-2.5771	362.247	121.490	310.192	402.041	126.099	102.636	354.640	377.838	401.876	342.513	124.523	319.275	193.113	347.536	192.453	232.404	0.00026034	0.00029536	8.0282e-05	1256.1	3.3387e-06	3.0018e-06	1317.4	261.23	3.6625e-06	2.8719e-06	324.05	88.246	69.869	20.208	3.8137e-06	28.362	0.00025774	0.00025194	7.014e-05	1226.9	2.8016e-06	2.6882e-06	1290.7	259.05	2.8385e-06	2.7326e-06	320.99	88.322	69.78	20.413	2.8879e-06	28.654	226.894	122.745	145.975	63.889	231.851	230.995	64.327	71.456	246.430	230.574	70.626	77.811	78.123	84.274	228.154	84.047	-8191	255	
18171.316	1	1	0	0	0.11059	0.1459	0.28448	0.26098	0.08151	0.14015	0.39574	0.29336	0.080778	0.2008	0.20963	0.33275	0.022174	0.10403	0.090741	0.30376	-2.3125	-2.6937	-2.5208	-2.9771	-2.6479	-2.5583	-3.1521	-2.55	-2.7521	-2.8333	-2.5917	-3.0271	-2.6396	-2.7687	-2.7167	-2.6917	105.074	66.024	166.488	402.050	396.889	367.028	327.419	321.565	235.819	86.666	243.070	369.392	241.038	99.115	149.980	390.390	0.00024023	0.000366	8.1328e-05	1257.1	3.8197e-06	5.9272e-06	1319.5	263.25	5.0321e-06	1.3348e-06	325.12	88.874	69.988	20.446	3.2405e-06	28.412	0.0002671	0.00025384	7.4887e-05	1229.3	2.9889e-06	2.8926e-06	1298.3	260.27	2.9916e-06	2.9512e-06	321.76	88.649	70.053	20.574	3.0258e-06	28.708	228.592	132.657	138.532	64.254	205.356	239.922	64.280	71.239	220.202	230.126	70.788	78.054	77.971	84.057	229.802	83.887	-8191	255	
18171.412	1	1	0	0	0.086071	0.067053	0.078854	0.23411	0.18358	0.21304	0.40287	0.11229	0.099506	0.18245	0.053121	0.26449	0.30975	0.079156	0.12876	0.04986	-2.4625	-2.7458	-2.3833	-2.7438	-2.5604	-2.8083	-2.8812	-2.725	-2.7167	-2.8792	-2.5083	-2.9708	-2.9375	-2.6833	-3.1854	-2.7375	255.983	174.746	265.472	342.589	146.331	271.322	364.812	270.543	98.885	213.136	223.008	356.453	55.163	60.237	410.166	190.408	0.00025442	0.00040317	7.5013e-05	1253.1	2.2713e-06	2.6667e-06	1316.6	261.79	2.6901e-06	4.8413e-06	323.35	88.906	69.908	20	4.0315e-06	28.334	0.00028224	0.00026358	7.4064e-05	1231.2	2.8657e-06	2.9431e-06	1296.2	260.06	3.027e-06	2.9478e-06	320.89	88.468	69.923	20.36	3.0126e-06	28.588	230.589	130.477	164.809	63.902	245.162	230.221	64.222	70.968	217.877	205.518	70.794	78.068	78.145	84.205	216.053	83.875	-8191	255	
18171.508	1	1	0	0	0.25866	0.16472	0.12787	0.19254	0.11707	0.21586	0.31339	0.1153	0.33659	0.23806	0.15356	0.22362	0.13643	0.10188	0.14903	0.43565	-2.4375	-2.9688	-2.4437	-2.7938	-2.5917	-2.4938	-3.125	-2.5771	-2.7708	-2.7646	-2.6521	-2.875	-2.6854	-2.4875	-3.0458	-2.6771	319.098	84.710	280.463	305.624	190.797	333.302	382.218	397.946	69.113	60.359	83.549	74.216	261.249	91.913	244.253	90.274	0.00025616	7.9783e-05	6.6871e-05	1250.3	3.9718e-06	1.811e-06	1312.3	261.26	3.4534e-06	2.7847e-06	322.84	88.328	69.655	20.006	9.8458e-07	28.279	0.00028063	0.00026761	7.1204e-05	1225.9	3.069e-06	2.9324e-06	1293.2	259.15	3.1566e-06	2.846e-06	320.64	88.338	69.762	20.275	2.9612e-06	28.47	225.076	129.213	143.279	63.980	251.890	221.810	64.266	71.357	219.685	179.624	70.488	78.112	78.260	84.441	238.680	83.958	-8191	255	
18171.629	1	1	0	0	0.20947	0.20204	0.055855	0.23929	0.16926	0.29407	0.085373	0.082332	0.1333	0.028419	0.19426	0.033409	0.13872	0.13938	0.29606	0.09608	-2.1854	-2.7687	-2.425	-2.8438	-2.8229	-2.6208	-3.2083	-2.6542	-2.5792	-2.7396	-2.5125	-2.8792	-2.8958	-2.4229	-2.7729	-2.6271	58.946	250.259	201.401	67.055	368.512	104.684	390.613	90.755	383.168	270.640	82.687	363.087	180.266	58.693	142.808	386.227	0.00025629	0.0003435	0.00013308	1255	4.8645e-06	4.8651e-06	1314.2	260.28	2.0656e-06	3.5405e-06	321.15	87.983	69.567	20.008	3.3287e-06	28.218	0.00027823	0.00026857	7.4607e-05	1230.1	2.9533e-06	2.8705e-06	1293.9	258.7	2.966e-06	2.9366e-06	320.13	88.032	69.572	20.27	2.8219e-06	28.458	228.427	121.624	149.789	63.878	204.680	190.183	64.213	71.392	224.716	221.271	70.674	78.143	78.316	84.314	194.642	83.790	-8191	255	
18171.725	1	1	0	0	0.14245	0.22657	0.073622	0.11438	0.15334	0.1289	0.12566	0.12585	0.077874	0.22004	0.097525	0.11725	0.2722	0.11408	0.037131	0.026536	-2.2979	-3.0417	-2.5187	-2.8187	-2.8146	-2.675	-3.0521	-2.5542	-2.5354	-2.8438	-2.5646	-2.7146	-2.7917	-2.7292	-2.7625	-2.8479	208.037	310.618	334.671	162.796	75.341	297.592	377.713	62.818	210.179	235.141	397.293	402.977	260.139	147.299	282.589	334.720	0.00023395	0.00043763	9.7031e-05	1247.8	5.1589e-06	4.1325e-06	1313.6	259.44	2.3013e-06	3.6988e-06	321.19	87.621	69.539	19.921	2.814e-06	28.174	0.00026228	0.00026043	7.1435e-05	1224	2.8061e-06	2.8261e-06	1289.5	257.86	2.8323e-06	2.8427e-06	318.86	87.785	69.483	20.183	2.8176e-06	28.413	233.642	151.688	159.725	64.151	222.813	213.933	64.328	71.279	214.163	218.362	70.643	78.046	78.158	84.454	232.312	83.836	-8191	255	
18171.818	1	1	0	0	0.20443	0.083968	0.17257	0.17058	0.14162	0.089654	0.26476	0.17216	0.24732	0.19433	0.48038	0.19176	0.15992	0.20389	0.1461	0.027542	-2.1479	-2.9021	-2.5625	-2.7229	-2.8375	-2.5875	-3.1312	-2.8542	-2.5458	-2.9771	-2.6083	-2.7417	-2.7021	-2.5812	-2.6708	-2.7083	343.466	85.669	155.247	290.392	321.256	93.785	332.343	405.520	167.437	313.300	270.433	334.491	112.598	327.737	262.491	197.371	0.00024122	0.00042613	8.4439e-05	1252.5	2.5458e-06	2.2903e-06	1313.9	259.17	3.1779e-06	2.7958e-06	321.4	87.461	69.731	19.992	4.4685e-06	28.136	0.00026536	0.00025609	7.0222e-05	1222.1	2.8389e-06	2.7203e-06	1290.5	257.49	2.985e-06	2.9523e-06	318.75	87.892	69.527	20.243	2.8828e-06	28.487	227.992	161.631	150.253	64.163	233.419	145.486	64.476	71.354	231.162	219.202	70.936	77.981	77.903	84.173	211.411	83.858	-8191	255	
18171.914	1	1	0	0	0.13525	0.35285	0.28649	0.24064	0.14497	0.48758	0.033082	0.16396	0.25163	0.049204	0.37208	0.20599	0.1171	0.25474	0.15357	0.2745	-2.1042	-2.9062	-2.7521	-2.6917	-2.8771	-2.6583	-2.9521	-2.7062	-2.6354	-2.9562	-2.8104	-2.6333	-2.7458	-2.4646	-2.8521	-2.8292	198.650	308.383	343.778	108.104	246.078	232.688	249.956	109.149	192.252	249.277	79.853	307.961	179.544	371.184	275.385	387.098	0.00025162	0.00030782	0.00012439	1248.1	4.8423e-06	2.7996e-06	1308.5	261.01	2.1481e-06	4.8901e-06	322.1	87.873	69.583	20.131	1.7019e-06	28.273	0.00027984	0.00026829	7.4245e-05	1224.2	2.9938e-06	2.9258e-06	1288.7	258.91	2.9086e-06	3.0655e-06	318.82	87.839	69.48	20.282	2.8562e-06	28.44	227.117	134.709	145.267	64.033	202.288	229.455	64.326	71.290	227.161	223.755	70.756	78.024	78.339	84.341	234.506	83.694	-8191	255	
18171.988	1	1	0	0	0.087245	0.23435	0.073061	0.021472	0.12381	0.12686	0.35388	0.10981	0.096052	0.084649	0.11967	0.033881	0.38102	0.24951	0.24573	0.23165	-2.0208	-2.8729	-2.65	-2.5292	-2.775	-2.5333	-2.8729	-2.8042	-2.5792	-2.9083	-2.6479	-2.6646	-2.9083	-2.5958	-2.7562	-2.875	355.993	301.166	139.505	372.800	256.085	316.833	409.911	56.242	363.968	347.369	366.062	362.941	394.871	201.582	125.899	352.767	0.00024652	0.00037391	7.4413e-05	1246.4	3.041e-06	1.863e-06	1311.8	260.99	1.9865e-06	4.871e-06	323.96	87.945	69.544	20.068	3.6203e-06	28.12	0.00027681	0.00026656	7.3537e-05	1224.8	2.9607e-06	2.8849e-06	1291.4	258.33	2.965e-06	2.9283e-06	319.98	87.842	69.491	20.253	3.0373e-06	28.481	222.777	162.115	160.989	64.236	232.797	229.796	64.111	71.209	241.577	201.879	70.697	77.904	78.115	84.033	220.864	83.754	-8191	255	
18172.107	1	1	0	0	0.14869	0.15614	0.067722	0.17163	0.11328	0.059735	0.31966	0.15337	0.059709	0.25435	0.29328	0.0070797	0.1817	0.35979	0.14431	0.18457	-1.9604	-2.775	-2.6063	-2.6979	-2.7	-2.5292	-2.7104	-3.075	-2.4792	-2.8312	-2.7562	-2.6146	-2.9417	-2.7646	-2.5958	-2.8208	157.010	147.546	68.613	351.464	310.196	375.509	352.944	60.072	104.737	326.760	354.934	110.602	62.955	53.832	244.998	129.700	0.00024744	0.00040867	9.0126e-05	1243.4	3.2522e-06	3.7133e-06	1311.4	260.23	3.1264e-06	4.035e-06	321.55	87.352	69.407	19.919	3.345e-06	28.289	0.00028081	0.00027185	7.7581e-05	1219.3	3.0393e-06	3.0476e-06	1291.6	258.23	2.9954e-06	2.9145e-06	319.15	87.72	69.617	20.2	2.9849e-06	28.484	230.850	136.753	119.553	63.893	233.256	211.167	64.502	71.148	227.669	219.227	70.833	77.913	78.001	84.202	238.789	83.865	-8191	255	
18172.203	1	1	0	0	0.15692	0.25374	0.1668	0.52268	0.078797	0.11273	0.15179	0.19421	0.18133	0.25469	0.24704	0.19792	0.19703	0.12414	0.11289	0.10637	-2.1604	-2.7896	-2.8104	-2.6229	-2.8021	-2.55	-2.9229	-2.9333	-2.5104	-2.9313	-2.8458	-2.6042	-2.9792	-2.8375	-2.5271	-2.9	255.769	235.641	281.271	361.497	387.110	134.440	347.307	371.509	335.135	312.851	376.413	381.712	376.310	392.692	347.091	221.568	0.0002417	0.00015856	6.9403e-05	1245.7	4.3656e-06	2.9012e-06	1312.4	261.5	2.3012e-06	3.1931e-06	321.71	87.829	69.014	19.942	3.5409e-06	28.106	0.00026706	0.00026867	7.2763e-05	1222.3	3.0553e-06	2.8972e-06	1288.3	258.17	3.0286e-06	2.9362e-06	318.97	87.778	69.161	20.161	2.9523e-06	28.434	222.211	120.243	178.863	63.933	222.948	221.100	64.271	71.258	208.969	202.334	70.867	78.025	77.931	84.173	229.443	83.904	-8191	255	
18172.301	1	1	0	0	0.1603	0.12217	0.1607	0.07829	0.26681	0.10373	0.063421	0.13113	0.1426	0.23616	0.2639	0.15906	0.20506	0.22814	0.099007	0.092142	-2.2167	-2.7542	-2.6229	-2.65	-2.7167	-2.7021	-2.7229	-2.8583	-2.5854	-2.7313	-2.9188	-2.6583	-2.9354	-2.8604	-2.6354	-2.8125	202.124	274.535	87.706	402.730	282.184	199.963	385.721	309.646	286.663	396.503	385.618	369.713	295.549	300.928	379.021	298.603	0.00023944	0.00026687	0.00013374	1244.1	2.3592e-06	3.7455e-06	1308.5	259.63	3.467e-06	1.5529e-06	320.09	87.245	69.415	20.053	3.3492e-06	27.972	0.00026719	0.00026348	7.2768e-05	1219	2.9512e-06	2.8233e-06	1285.6	257.29	2.9548e-06	2.9707e-06	318.16	87.576	69.355	20.234	2.9989e-06	28.326	224.661	111.303	139.610	63.948	216.104	241.683	64.251	70.965	234.392	262.487	70.851	77.950	78.227	84.304	214.272	83.900	-8191	255	
18172.422	1	1	0	0	0.18346	0.10307	0.16441	0.15425	0.094667	0.16829	0.060026	0.41393	0.39966	0.19686	0.24832	0.077015	0.44673	0.05959	0.094332	0.1489	-2.1542	-2.6375	-2.7687	-2.6562	-2.8417	-2.9417	-2.7	-2.9896	-2.6146	-2.5333	-2.9542	-2.8	-2.9229	-2.8312	-2.5521	-2.8125	73.099	282.169	103.588	353.654	394.342	335.751	225.900	404.508	176.213	80.521	325.097	60.226	60.469	303.492	330.106	277.513	0.0002622	0.00041969	7.7901e-05	1246.9	3.5786e-06	4.4961e-06	1311.9	259.59	4.6524e-06	3.4839e-06	321.14	87.376	69.522	19.897	2.6712e-06	27.977	0.00026409	0.00027466	7.0749e-05	1222.1	3.0076e-06	2.8742e-06	1289	257.94	2.9425e-06	2.9165e-06	318.52	87.752	69.433	20.174	2.9071e-06	28.347	231.312	112.255	98.627	64.082	179.298	205.979	64.190	71.326	243.235	255.685	70.628	77.825	77.793	84.521	242.685	83.918	-8191	255	
18172.518	1	1	0	0	0.052593	0.25366	0.21815	0.061466	0.063634	0.2305	0.14983	0.10502	0.18004	0.097171	0.13533	0.25676	0.1322	0.0393	0.20122	0.20498	-2.1646	-2.5312	-2.8896	-2.2958	-2.8646	-2.8208	-2.6667	-2.7646	-2.5667	-2.5812	-2.9021	-2.6729	-2.7125	-2.7438	-2.5083	-2.7208	225.539	370.430	139.625	193.407	116.203	122.587	170.119	355.235	186.778	168.363	401.767	205.519	333.236	255.259	209.342	225.587	0.00023726	0.00034992	0.0001372	1245.3	2.0258e-06	1.7798e-06	1311.2	257.82	2.4131e-06	5.1717e-06	320.11	87.081	69.069	19.874	3.9404e-06	28.213	0.0002624	0.00026244	7.3202e-05	1220.1	2.8427e-06	2.8421e-06	1285.1	257.27	2.8751e-06	2.9135e-06	318.33	87.359	69.112	20.201	2.9284e-06	28.46	234.642	126.065	134.195	64.056	229.018	255.360	64.449	71.153	246.818	228.615	70.903	78.057	78.392	84.292	230.885	84.002	-8191	255	
18172.588	1	1	0	0	0.23733	0.2495	0.17194	0.066823	0.044751	0.10193	0.14879	0.49104	0.079729	0.29682	0.13652	0.18679	0.17092	0.19753	0.12546	0.16175	-2.1333	-2.4542	-2.8958	-2.5479	-2.575	-2.7229	-2.5833	-2.7729	-2.7729	-2.6354	-2.9208	-2.5896	-2.6875	-2.7917	-2.4979	-2.9458	62.800	116.152	280.781	69.553	77.064	413.163	301.920	347.340	401.814	232.261	395.932	68.567	394.540	309.326	295.279	245.077	0.0002405	0.00034996	9.9226e-05	1244.3	2.884e-06	3.1011e-06	1305.5	258.85	5.3128e-06	3.4082e-06	320.83	87.877	69.113	19.852	4.2847e-06	27.859	0.0002758	0.00027313	7.6248e-05	1218.4	3.1337e-06	2.9715e-06	1283.7	257.71	3.1331e-06	3.0246e-06	318.43	87.723	69.278	20.141	3.062e-06	28.303	228.475	117.376	130.274	63.487	214.275	177.415	64.308	71.494	229.094	217.375	70.729	78.102	78.055	84.345	244.489	83.702	-8191	255	
18172.709	1	1	0	0	0.20022	0.10404	0.24138	0.29575	0.17476	0.14738	0.018868	0.16894	0.11662	0.18704	0.29713	0.16929	0.037904	0.11644	0.093787	0.048843	-2.4	-2.4604	-2.8521	-2.6333	-2.6167	-2.9125	-2.6792	-2.9021	-2.6604	-2.4562	-2.9771	-2.4938	-2.7146	-2.8646	-2.4167	-2.6979	298.801	354.039	103.613	315.365	187.038	368.591	107.622	287.999	335.302	103.249	169.811	278.008	311.776	400.478	152.113	344.587	0.0002418	0.00031105	8.7217e-05	1241.2	4.7287e-06	1.71e-06	1305.2	259.85	3.5203e-06	3.8743e-06	319.75	87.719	69.393	19.807	2.5274e-06	27.872	0.00027901	0.00027722	8.0265e-05	1215.8	3.0981e-06	2.9988e-06	1281.7	257.3	3.0829e-06	2.8776e-06	317.8	87.578	69.191	20.128	2.9043e-06	28.29	231.515	128.793	147.831	64.046	222.035	194.112	64.313	71.265	232.953	237.344	70.919	78.165	77.990	84.429	238.628	83.806	-8191	255	
18172.805	1	1	0	0	0.12902	0.056646	0.034699	0.21393	0.01981	0.14692	0.099366	0.12841	0.1002	0.10668	0.050636	0.1416	0.10189	0.12217	0.12549	0.13457	-2.4854	-2.45	-2.5875	-2.8333	-2.7021	-3.0521	-2.7	-2.7583	-2.7146	-2.5354	-2.8583	-2.5979	-2.5812	-2.9958	-2.6188	-2.6104	196.485	167.748	275.330	352.477	79.503	120.182	407.741	288.500	289.672	247.747	363.721	209.110	291.184	384.191	56.622	237.572	0.00023135	0.00023124	7.8958e-05	1240	3.4624e-06	4.9105e-06	1305.8	258.59	2.257e-06	1.6212e-06	321	87.657	69.631	19.899	3.7287e-06	28.03	0.00027086	0.00025872	7.273e-05	1217.8	2.9339e-06	3.0408e-06	1285	257.28	2.8932e-06	2.8774e-06	318.33	87.622	69.333	20.172	2.9932e-06	28.395	232.482	124.701	188.667	63.852	213.078	209.936	64.230	71.362	188.983	256.648	70.453	78.168	78.160	84.280	213.295	84.025	-8191	255	
18172.900	1	1	0	0	0.083698	0.022344	0.13779	0.19813	0.22379	0.14051	0.12922	0.13408	0.14234	0.098942	0.27699	0.20544	0.35719	0.17679	0.32559	0.15449	-2.4167	-2.5208	-2.7354	-2.9	-2.625	-2.7833	-2.7521	-2.75	-2.8125	-2.5104	-2.9333	-2.7729	-2.3896	-3.0042	-2.6271	-2.6771	267.414	255.496	133.676	389.909	146.475	289.654	282.181	283.004	177.280	315.604	346.607	128.191	395.153	154.842	302.724	53.399	0.0002246	0.00033413	7.0766e-05	1243.2	4.3597e-06	4.862e-06	1312.4	260.72	3.3537e-06	3.1995e-06	321.58	87.361	68.889	19.915	3.0347e-06	28.259	0.00026747	0.00026894	7.7812e-05	1220.5	2.946e-06	2.9173e-06	1286.4	257.82	3.0309e-06	3.0919e-06	318.19	87.632	69.293	20.191	3.0141e-06	28.402	230.146	154.804	128.222	64.140	216.812	212.913	64.215	71.272	210.191	208.743	70.700	77.939	77.948	84.282	210.095	83.892	-8191	255	
18173.020	1	1	0	0	0.1735	0.2374	0.20911	0.15361	0.1933	0.16242	0.15804	0.1552	0.13729	0.14551	0.3095	0.16087	0.22975	0.22448	0.047791	0.18981	-2.4792	-2.65	-2.725	-2.9104	-2.5583	-2.9333	-2.675	-2.6375	-2.7646	-2.4146	-2.7625	-2.9313	-2.3917	-2.7167	-2.7292	-2.675	296.567	191.955	370.714	332.278	133.107	68.738	369.973	341.604	65.303	76.360	399.756	277.020	291.745	365.688	352.404	274.390	0.0002608	0.00051833	9.0449e-05	1252.1	3.8697e-06	2.4769e-06	1306.6	259.27	4.0272e-06	3.6997e-06	320.7	87.574	69.295	20.06	2.4099e-06	28.076	0.00027776	0.0002737	7.5095e-05	1220.9	3.0185e-06	3.0395e-06	1285.4	257.4	3.0253e-06	3.0554e-06	317.93	87.66	69.265	20.234	3.0028e-06	28.351	218.920	131.152	131.164	64.256	213.636	237.462	64.303	71.255	252.973	212.476	70.718	77.966	77.937	84.297	252.019	84.159	-8191	255	
18173.115	1	1	0	0	0.051789	0.13684	0.082297	0.15717	0.26951	0.16841	0.208	0.096707	0.1312	0.18247	0.35883	0.088628	0.13797	0.24088	0.10137	0.2212	-2.4542	-2.6708	-2.6937	-2.8729	-2.4042	-2.8396	-2.7812	-2.7125	-3.0375	-2.6958	-2.8104	-3.0708	-2.5021	-3.0646	-2.6958	-2.5917	143.369	139.580	390.897	174.643	208.048	394.377	290.592	389.918	182.812	203.140	370.205	369.717	373.800	66.128	220.234	364.566	0.00025698	0.00029552	0.0001386	1242.6	4.3319e-06	3.2175e-06	1308.7	260.52	3.7763e-06	4.6888e-06	320.89	87.076	69.195	19.93	1.9329e-06	28.253	0.0002688	0.0002794	7.5682e-05	1220.2	3.0087e-06	3.097e-06	1286.7	257.87	3.0748e-06	3.1164e-06	318.71	87.658	69.463	20.209	2.98e-06	28.468	233.226	143.826	150.735	63.943	184.131	216.001	64.177	71.284	260.410	199.039	70.765	77.729	77.978	84.407	209.138	83.971	-8191	255	
18173.213	1	1	0	0	0.078398	0.17943	0.10966	0.23389	0.18029	0.26426	0.19893	0.16939	0.10364	0.1022	0.067087	0.19673	0.06511	0.22063	0.1658	0.22218	-2.5042	-2.4479	-2.6271	-2.7354	-2.5271	-2.8375	-2.8542	-2.6646	-2.9042	-2.6729	-2.6125	-2.9813	-2.7917	-2.7417	-2.7958	-2.4646	220.279	81.237	62.389	352.191	170.217	365.150	353.881	55.270	359.518	179.166	89.923	250.892	112.305	399.103	316.021	310.113	0.00026488	0.00020204	6.098e-05	1248.6	5.5802e-06	5.2942e-06	1306.5	258.06	3.0882e-06	3.486e-06	321.9	87.273	68.833	19.872	4.1786e-06	28.034	0.00027811	0.00028099	7.7021e-05	1220	3.0281e-06	3.1322e-06	1285.4	257.21	3.1137e-06	3.124e-06	319.03	87.622	69.298	20.183	3.1315e-06	28.353	229.215	158.802	152.172	64.070	218.920	209.680	64.530	71.197	247.151	221.592	70.688	78.236	78.263	84.356	203.577	83.959	-8191	255	
18173.283	1	1	0	0	0.1031	0.14283	0.31576	0.053558	0.18612	0.10621	0.19029	0.33678	0.25638	0.10377	0.10832	0.044815	0.27079	0.20179	0.11955	0.10023	-2.4646	-2.6333	-2.6104	-2.8167	-2.5917	-2.7708	-2.9875	-2.5125	-2.75	-2.6708	-2.6521	-3.0729	-2.6042	-2.7229	-2.7812	-2.6083	391.384	288.490	236.652	249.574	316.021	311.044	330.558	280.591	168.239	226.810	240.002	137.757	397.443	339.581	224.314	106.026	0.0002503	0.00047842	8.3825e-05	1243	4.5484e-06	2.8106e-06	1307.8	259.3	3.6237e-06	3.4801e-06	322.42	87.556	68.97	20.023	1.3696e-06	28.079	0.00028356	0.00028548	7.684e-05	1218.6	3.0389e-06	3.0297e-06	1285.8	257.56	3.162e-06	2.9554e-06	319.08	87.712	69.229	20.236	2.8954e-06	28.377	225.203	93.025	156.483	64.002	231.184	160.629	64.258	71.283	238.599	228.586	70.863	77.970	78.367	84.536	221.784	83.752	-8191	255	
18173.404	1	1	0	0	0.09455	0.47036	0.19188	0.24783	0.16814	0.043856	0.099558	0.10614	0.10592	0.16513	0.24103	0.041764	0.25465	0.09957	0.12868	0.25743	-2.5271	-2.4854	-2.4792	-2.9396	-2.6437	-2.7875	-3.1542	-2.5583	-2.8458	-2.7687	-2.6542	-2.7479	-2.5563	-2.6188	-2.8417	-2.4792	189.109	340.194	321.780	126.204	360.001	148.238	140.932	381.465	403.436	150.177	157.397	262.303	61.125	326.154	333.513	412.167	0.0002667	0.00039005	0.00014676	1244.3	2.1312e-06	2.9743e-06	1310.2	259.29	2.6646e-06	4.6328e-06	321.11	87.595	69.299	20.116	3.7271e-06	28.164	0.00027157	0.0002775	7.6539e-05	1221	3.2027e-06	3.0404e-06	1286.4	257.43	3.2011e-06	3.0692e-06	318.75	87.919	69.395	20.282	3.0136e-06	28.378	227.631	118.020	135.238	64.092	234.697	224.597	64.310	71.369	238.221	202.822	70.733	78.033	77.662	84.489	235.999	83.858	-8191	255	
18173.502	1	1	0	0	0.025932	0.17243	0.15544	0.28539	0.11255	0.29847	0.12154	0.26342	0.12557	0.075607	0.25794	0.11307	0.17128	0.18039	0.21742	0.053722	-2.2687	-2.6229	-2.3125	-2.9125	-2.6688	-2.7167	-2.9167	-2.6917	-2.6104	-2.7396	-2.6583	-2.9792	-2.8229	-2.55	-2.8063	-2.6208	147.797	117.253	244.469	81.682	390.428	328.248	373.978	379.589	139.193	403.333	352.763	360.665	287.435	403.979	139.087	377.523	0.00025603	0.00038924	8.5632e-05	1249.9	4.1818e-06	3.7198e-06	1308.6	260.12	4.1611e-06	2.2038e-06	322.39	87.401	69.242	20.107	2.4099e-06	27.947	0.000282	0.00027317	7.5809e-05	1221.9	3.0178e-06	3.0544e-06	1285.3	257.47	3.0702e-06	2.9283e-06	318.47	87.775	69.357	20.239	2.964e-06	28.354	231.314	129.281	157.032	64.251	233.428	212.992	64.000	71.324	234.089	191.785	70.720	77.649	77.892	84.507	214.691	83.829	-8191	255	
18173.598	1	1	0	0	0.14112	0.32774	0.15784	0.12658	0.16217	0.11429	0.32716	0.11589	0.11595	0.25262	0.1155	0.16327	0.025683	0.11402	0.13708	0.063746	-2.1979	-2.8271	-2.3312	-2.95	-2.575	-2.5521	-2.9958	-2.5729	-2.5167	-2.8312	-2.5375	-2.7729	-2.7667	-2.6521	-2.8354	-2.6354	298.539	102.648	352.598	326.896	163.022	296.963	306.540	67.831	110.357	110.124	391.413	94.782	234.166	75.836	73.439	395.535	0.00026273	0.0003368	9.2901e-05	1240	4.0728e-06	3.6435e-06	1307.6	258.67	3.3657e-06	5.5929e-06	319.75	87.797	69.365	20.098	3.2477e-06	28.176	0.00027594	0.00026523	7.3592e-05	1216.7	2.9554e-06	3.0176e-06	1283.7	256.93	3.1087e-06	2.9111e-06	317.75	87.878	69.358	20.278	2.9593e-06	28.476	223.083	150.386	141.474	63.795	199.315	210.356	64.337	71.406	260.279	201.523	70.807	77.619	77.957	84.018	214.938	83.900	-8191	255	
18173.693	1	1	0	0	0.1666	0.10709	0.26987	0.13408	0.092364	0.17735	0.076071	0.12953	0.018181	0.13187	0.23635	0.082461	0.21142	0.1365	0.22825	0.16151	-2.2167	-2.7208	-2.3604	-2.7354	-2.7458	-2.3979	-3.0583	-2.575	-2.7562	-2.775	-2.6583	-2.7896	-2.8104	-2.2208	-2.8979	-2.7646	291.258	264.037	346.427	358.145	361.434	351.212	101.743	355.068	293.174	395.962	117.540	110.338	189.182	279.792	160.099	354.099	0.00024621	0.00023447	8.3801e-05	1246.1	2.9624e-06	4.2145e-06	1309	259.68	4.1195e-06	4.1949e-06	320.88	87.668	69.902	20.005	5.289e-06	28.414	0.00028125	0.00027769	7.5875e-05	1220.1	3.0909e-06	3.0502e-06	1287.6	257.93	3.058e-06	2.9984e-06	318.51	87.982	69.577	20.331	3.0077e-06	28.541	226.465	185.582	154.592	63.916	223.225	191.323	64.391	71.190	229.968	224.860	70.765	77.765	77.855	83.953	227.590	84.101	-8191	255	
18173.812	1	1	0	0	0.12589	0.1223	0.30917	0.19591	0.028615	0.098109	0.2348	0.11411	0.1569	0.036489	0.083973	0.20114	0.13732	0.21037	0.22931	0.18721	-2.1854	-2.7583	-2.3812	-2.6167	-2.6063	-2.5375	-2.8979	-2.7	-2.75	-2.9667	-2.725	-2.8104	-2.8771	-2.5854	-2.9083	-2.7792	343.825	320.922	378.950	394.531	386.771	60.185	320.891	99.758	58.999	368.966	351.623	263.183	134.635	335.199	151.321	299.149	0.00026759	0.00025841	8.266e-05	1242.4	4.1814e-06	5.1076e-06	1311.7	259.26	2.7099e-06	5.0497e-06	322.18	87.81	69.811	20.185	2.5307e-06	28.251	0.00027838	0.00026354	7.5062e-05	1222.7	3.0174e-06	2.8913e-06	1289.2	258.21	2.9916e-06	2.9416e-06	319.82	88.006	69.579	20.355	3.055e-06	28.543	231.111	157.061	169.477	63.862	221.598	202.691	64.443	71.256	255.385	259.884	70.732	78.065	78.074	83.891	229.066	83.833	-8191	255	
18173.887	1	1	0	0	0.044221	0.042362	0.086586	0.12489	0.16462	0.039054	0.14706	0.1896	0.19188	0.27072	0.18451	0.27288	0.19897	0.26033	0.010926	0.04125	-2.3125	-2.7438	-2.525	-2.6813	-2.7104	-2.4813	-2.9854	-2.8312	-2.4958	-3.0625	-2.8417	-2.6458	-2.7708	-2.5104	-2.7229	-2.55	182.013	88.402	135.955	252.848	412.331	185.613	380.332	280.062	99.219	56.930	155.964	60.481	381.348	349.492	176.289	65.834	0.00025355	0.0003443	9.4009e-05	1251.3	3.4238e-06	2.5077e-06	1312.1	260.65	3.146e-06	2.1258e-06	321.1	87.874	69.248	20.123	3.206e-06	28.003	0.0002679	0.00027291	7.4278e-05	1222.9	2.9671e-06	2.9656e-06	1287.5	258.13	3.0309e-06	2.9421e-06	318.5	87.976	69.358	20.286	2.9736e-06	28.48	228.087	127.803	129.936	64.202	227.116	258.444	64.142	71.043	226.318	199.237	70.692	77.733	78.227	84.347	243.698	84.261	-8191	255	
18173.982	1	1	0	0	0.13585	0.24524	0.1125	0.2519	0.18701	0.13892	0.20711	0.20767	0.28016	0.13179	0.21007	0.089488	0.17121	0.026149	0.08303	0.1391	-2.0917	-2.8125	-2.4458	-2.5292	-2.7958	-2.6146	-2.8458	-2.7646	-2.3646	-2.825	-2.5958	-2.4854	-2.9833	-2.5917	-2.5229	-2.7979	54.226	171.590	384.124	291.517	204.501	390.143	76.222	327.787	56.163	166.381	72.288	372.576	379.295	107.974	159.793	306.604	0.00028807	0.00020058	0.00010551	1239.7	2.9854e-06	2.8554e-06	1310.2	259.68	3.1207e-06	3.9949e-06	321.38	88.066	69.303	20.125	3.0804e-06	28.23	0.00028045	0.00027209	7.4431e-05	1218.2	2.9761e-06	3.0423e-06	1286.8	257.75	2.9864e-06	3.0371e-06	319.25	88.006	69.576	20.353	2.9757e-06	28.475	227.514	141.376	113.496	64.345	167.661	293.479	64.209	71.417	241.833	218.800	70.595	77.954	77.976	84.691	239.291	84.075	-8191	255	
18174.102	1	1	0	0	0.14267	0.21415	0.13046	0.12235	0.025621	0.10236	0.19651	0.15362	0.2583	0.30951	0.24676	0.018826	0.25265	0.12751	0.1531	0.19707	-2.0187	-2.6562	-2.6229	-2.6437	-2.9583	-2.5917	-2.9125	-2.7896	-2.4104	-2.65	-2.8708	-2.4896	-2.7708	-2.5125	-2.5229	-2.975	57.743	411.391	90.745	392.956	177.344	317.908	364.164	253.713	171.310	363.089	320.497	312.811	75.419	56.820	202.396	296.496	0.00022854	0.00035187	0.00012437	1242.8	4.1579e-06	3.5046e-06	1316.1	260.75	4.4515e-06	5.1196e-06	324.46	88.441	70.084	20.342	2.066e-06	28.594	0.00026203	0.00026155	7.5051e-05	1221.2	2.8964e-06	2.9514e-06	1292.8	258.59	3.0056e-06	3.0552e-06	320.66	88.395	69.969	20.519	3.0629e-06	28.738	229.372	127.052	135.557	64.160	220.596	280.843	64.288	71.408	220.902	242.249	70.667	78.015	78.090	84.453	221.822	83.787	-8191	255	
18174.197	1	1	0	0	0.12301	0.080393	0.30381	0.075368	0.19608	0.12142	0.20714	0.15101	0.066109	0.1472	0.16948	0.17012	0.11415	0.14668	0.024274	0.19487	-2.0292	-2.6854	-2.7625	-2.5687	-2.8771	-2.7229	-2.875	-2.9354	-2.5979	-2.6396	-2.7521	-2.7938	-2.7417	-2.6417	-2.5375	-3.0062	270.925	333.640	370.132	184.040	264.043	129.731	332.617	366.895	93.571	298.152	359.751	410.014	312.735	61.410	338.817	136.691	0.00024619	0.00043165	0.00010459	1246.2	3.252e-06	4.3926e-06	1321.6	261.44	3.4315e-06	5.1189e-06	324.95	87.902	69.759	20.318	2.3458e-06	28.514	0.00027821	0.00028349	7.7526e-05	1228.3	3.1486e-06	3.1989e-06	1297	259.62	3.2822e-06	3.2379e-06	321.07	88.612	69.914	20.498	3.1758e-06	28.758	230.821	154.386	145.017	64.448	215.657	209.934	64.196	71.320	261.370	219.074	70.864	77.859	77.896	84.032	223.983	83.951	-8191	255	
18174.293	1	1	0	0	0.33219	0.11998	0.13359	0.18382	0.1443	0.19581	0.096027	0.10977	0.16887	0.27089	0.088544	0.19458	0.2179	0.23124	0.24002	0.15762	-2.1417	-2.8521	-2.7542	-2.4813	-2.7771	-2.7396	-2.8646	-2.9417	-2.4417	-2.6646	-2.6688	-2.5896	-2.8792	-2.7375	-2.6167	-2.9437	94.935	326.843	389.207	388.585	223.356	88.548	231.142	374.033	389.672	297.348	226.880	404.588	116.214	372.217	287.938	148.770	0.00026544	0.00029419	0.00010021	1249.3	3.0169e-06	2.0892e-06	1313.9	262.29	3.4132e-06	1.8681e-06	324.11	87.8	70.066	20.178	5.0476e-06	28.438	0.00029313	0.00029179	8.1093e-05	1226.2	3.1508e-06	3.2203e-06	1293.9	259.83	3.3317e-06	3.2859e-06	320.57	88.493	70.213	20.464	3.2527e-06	28.714	224.281	126.457	125.783	64.239	249.574	201.008	64.288	71.250	243.321	221.792	70.686	77.927	78.191	84.073	214.937	83.969	-8191	255	
18174.389	1	1	0	0	0.15629	0.16089	0.22377	0.16928	0.10788	0.19774	0.26836	0.16018	0.2106	0.090566	0.12411	0.17481	0.33589	0.13392	0.14959	0.3986	-2.2396	-2.5271	-2.7375	-2.5062	-2.7188	-2.5896	-2.8438	-2.8667	-2.5104	-2.7458	-3.0479	-2.6146	-2.7604	-2.7542	-2.4688	-2.8458	82.406	79.367	320.292	366.924	139.224	151.485	346.690	209.141	353.704	279.162	208.858	378.045	390.846	309.115	74.641	363.609	0.00025154	0.00028107	6.9896e-05	1247.7	2.2295e-06	8.2863e-07	1321.7	261.57	4.0419e-06	2.7846e-06	322.73	87.947	70.155	20.228	3.5268e-06	28.425	0.00030009	0.00030012	8.2416e-05	1228.8	3.3678e-06	3.2367e-06	1296.8	259.98	3.2822e-06	3.0814e-06	321.2	88.405	70.116	20.418	3.0667e-06	28.675	225.448	129.173	175.358	64.222	206.176	374.742	64.337	71.249	221.895	205.791	70.748	77.804	77.905	84.497	244.680	83.480	-8191	255	
18174.484	1	1	0	0	0.1805	0.09345	0.38043	0.26002	0.1731	0.081607	0.082565	0.36932	0.24892	0.049167	0.26768	0.14146	0.10147	0.14258	0.046866	0.11544	-2.0896	-2.3187	-2.8083	-2.6583	-2.7667	-2.6417	-2.5312	-2.8646	-2.7	-2.6125	-2.9479	-2.7646	-2.6458	-2.5167	-2.4958	-2.8146	105.832	354.839	252.427	57.032	275.770	146.893	385.736	367.322	369.171	197.505	193.776	399.769	370.330	151.021	67.414	65.676	0.00024203	0.00032848	6.9367e-05	1250	1.6014e-06	2.6675e-06	1316.6	260.57	3.472e-06	1.5479e-06	322.3	87.731	70.028	20.161	2.8369e-06	28.298	0.00028308	0.00028143	8.1324e-05	1227	3.112e-06	3.1177e-06	1293.1	259.24	3.1994e-06	3.2031e-06	320.47	88.2	69.937	20.436	3.1127e-06	28.616	225.699	153.982	175.987	64.053	180.322	191.220	64.286	71.223	235.078	215.290	70.755	77.992	77.782	84.359	223.051	84.007	-8191	255	
18174.580	1	1	0	0	0.35722	0.23578	0.11983	0.018283	0.21136	0.13646	0.30071	0.27703	0.2624	0.11809	0.18415	0.20629	0.19876	0.11291	0.15201	0.054922	-2.3521	-2.6542	-2.7583	-2.4542	-2.5687	-2.7687	-2.5438	-2.7125	-2.5958	-2.6771	-2.9479	-2.4854	-2.6937	-2.75	-2.5083	-2.825	224.750	263.714	174.145	224.962	396.004	231.225	370.327	376.632	189.658	56.877	323.582	281.594	84.346	218.666	264.148	200.081	0.00024017	0.00052751	9.2909e-05	1249.4	2.271e-06	2.012e-06	1318.5	260.3	3.7055e-06	1.8743e-06	323.09	88.077	69	20.097	4.2491e-06	28.211	0.0002823	0.00028229	7.712e-05	1224.7	3.1197e-06	2.9698e-06	1291.9	258.61	3.0586e-06	3.0006e-06	319.75	87.998	69.445	20.343	2.9384e-06	28.505	233.835	142.140	163.633	64.127	211.381	269.524	64.159	71.019	222.525	189.299	70.653	78.129	77.972	84.116	246.214	83.625	-8191	255	
18174.701	1	1	0	0	0.18744	0.36438	0.081794	0.16261	0.030138	0.10839	0.13366	0.057749	0.091338	0.11153	0.079841	0.056275	0.2213	0.076478	0.34826	0.18702	-2.2708	-2.3063	-2.6333	-2.5646	-2.6021	-2.8625	-2.6396	-2.7229	-2.7812	-2.6542	-2.8083	-2.7687	-2.7271	-2.9646	-2.5479	-2.6958	193.026	356.052	120.695	354.649	82.765	105.955	107.145	302.522	261.578	384.207	309.068	369.740	163.007	344.453	300.849	170.435	0.00022969	0.00036711	0.00013138	1240.9	3.8731e-06	3.6198e-06	1306.3	258.87	3.7929e-06	4.2726e-06	320.48	87.348	69.259	20.059	4.0252e-06	28.227	0.00027126	0.00026863	7.5353e-05	1217.4	2.9258e-06	2.9328e-06	1283.3	257.4	3.032e-06	2.8969e-06	318.11	87.622	69.291	20.219	2.9001e-06	28.372	227.168	135.958	153.467	64.207	214.731	157.997	64.268	71.313	210.878	231.953	70.698	77.755	78.191	84.368	224.056	83.996	-8191	255	
18174.799	1	1	0	0	0.28725	0.28835	0.10174	0.010257	0.094113	0.40208	0.22586	0.032546	0.18439	0.1897	0.038943	0.10993	0.17137	0.24487	0.1525	0.05825	-2.4167	-2.3625	-2.7854	-2.4146	-2.5458	-2.6021	-2.4917	-2.6958	-2.7292	-2.5292	-2.9229	-2.5833	-2.4688	-2.7646	-2.4958	-2.8688	122.223	121.177	212.806	411.092	321.936	349.100	400.039	217.262	408.185	56.376	81.350	299.575	145.325	386.927	230.176	143.543	0.00024176	0.00031788	9.0012e-05	1239	2.8531e-06	1.5024e-06	1307.3	258.46	2.7952e-06	3.9254e-06	321.35	87.103	69.399	19.894	4.1166e-06	28.128	0.00026125	0.00025671	7.2225e-05	1213.6	2.9201e-06	2.8598e-06	1281.2	256.95	2.8504e-06	2.8053e-06	318.16	87.662	69.255	20.212	2.7888e-06	28.419	221.783	136.239	139.759	64.217	233.549	273.064	64.254	71.200	255.977	223.492	70.707	78.133	78.308	84.530	224.290	84.114	-8191	255	
18174.893	1	1	0	0	0.11025	0.10536	0.085942	0.090955	0.10376	0.21911	0.087314	0.1394	0.21217	0.060893	0.10276	0.15026	0.23989	0.061264	0.099425	0.040794	-2.2583	-2.4083	-2.8229	-2.575	-2.5771	-2.9	-2.7854	-2.7812	-2.8375	-2.375	-2.8563	-2.675	-2.5771	-2.7812	-2.5729	-2.6813	82.293	202.752	235.321	345.101	404.884	319.319	331.394	67.016	354.613	388.524	350.414	90.851	349.724	146.011	310.433	313.385	0.00024482	0.00046627	7.4587e-05	1242.2	3.8017e-06	2.2688e-06	1299.6	258.12	3.6517e-06	3.6743e-06	319.8	87.148	68.907	19.802	3.3333e-06	28.064	0.00025894	0.00025182	7.2307e-05	1215.9	2.8202e-06	2.7352e-06	1279.2	256	2.7826e-06	2.6723e-06	316.5	87.334	68.895	20.061	2.6674e-06	28.299	226.700	132.776	173.282	64.226	204.503	208.469	64.136	71.300	265.979	215.472	70.399	78.135	78.264	84.527	231.019	84.248	-8191	255	
18174.988	1	1	0	0	0.076671	0.16791	0.15405	0.1221	0.23521	0.36861	0.090107	0.18255	0.20611	0.08851	0.32503	0.20359	0.21442	0.095726	0.10629	0.21148	-2.4333	-2.4458	-2.8271	-2.6833	-2.5104	-2.7833	-2.6896	-2.7354	-2.8042	-2.6312	-2.8667	-2.7146	-2.4479	-2.7188	-2.7271	-2.6542	335.846	292.719	174.571	54.021	114.591	116.233	141.380	350.463	340.388	112.071	325.636	369.320	324.723	58.926	151.891	386.708	0.00025726	0.00032158	7.6137e-05	1233.6	2.7099e-06	5.0234e-06	1297.6	255.9	2.3335e-06	2.4016e-06	317.07	86.996	68.156	19.788	2.5286e-06	27.936	0.00025217	0.00024429	6.5832e-05	1205.9	2.6363e-06	2.5835e-06	1272.3	254.58	2.6143e-06	2.6072e-06	315.3	86.933	68.37	19.975	2.5591e-06	28.159	228.533	150.528	173.261	64.026	229.606	232.729	64.423	71.464	267.952	189.657	70.629	78.114	78.350	84.802	214.389	84.039	-8191	255	
18175.109	1	1	0	0	0.20231	0.14223	0.093716	0.11086	0.095712	0.26155	0.079082	0.26368	0.15162	0.0085922	0.39382	0.19253	0.059003	0.29038	0.18349	0.18281	-2.3146	-2.4917	-2.7354	-2.7875	-2.5083	-2.8125	-2.8688	-2.5333	-2.7458	-2.6167	-2.7208	-2.7792	-2.4146	-2.7083	-2.5833	-2.6354	297.921	394.123	366.345	355.671	63.342	171.569	335.233	369.059	101.632	329.002	377.014	262.645	369.004	363.274	327.624	122.375	0.00024944	0.00043607	9.4072e-05	1217.3	4.3335e-06	3.6359e-06	1292.9	255.51	4.3012e-06	3.4245e-06	317.92	86.678	68.063	19.686	1.9808e-06	27.67	0.00024382	0.00023102	6.3785e-05	1197.9	2.55e-06	2.4753e-06	1268.6	253.37	2.5771e-06	2.486e-06	314.44	86.544	68.159	19.882	2.3729e-06	27.999	225.174	134.421	159.338	63.962	246.141	240.757	64.343	71.476	220.179	208.286	70.828	77.999	78.381	84.567	236.703	84.180	-8191	255	
18175.182	1	1	0	0	0.01604	0.39566	0.068109	0.23059	0.16436	0.12787	0.20623	0.25885	0.38562	0.26831	0.2298	0.0993	0.15192	0.11473	0.20945	0.054475	-2.425	-2.5271	-2.6396	-2.7542	-2.4896	-2.7667	-2.8854	-2.5	-2.8479	-2.5583	-2.7042	-2.7125	-2.3521	-2.7875	-2.9021	-2.3625	55.322	210.709	234.739	397.674	385.869	233.165	363.741	88.018	83.435	293.617	116.890	101.948	234.131	280.075	231.953	133.526	0.00026485	0.00035084	4.3668e-05	1214.8	3.2663e-06	3.8656e-06	1281.5	253.79	3.0965e-06	2.6741e-06	315.03	86.178	67.973	19.785	2.1475e-06	27.661	0.00023152	0.00023104	6.1859e-05	1191.2	2.5251e-06	2.5656e-06	1262.2	252.01	2.4966e-06	2.4938e-06	312.64	86.324	68.105	19.914	2.5063e-06	27.932	229.211	140.120	157.298	64.100	208.248	225.326	64.262	71.564	228.105	198.183	70.773	77.983	78.537	84.473	224.212	84.162	-8191	255	
18175.277	1	1	0	0	0.20079	0.17821	0.041095	0.13668	0.12406	0.078545	0.20467	0.10612	0.20332	0.28211	0.11841	0.29457	0.37345	0.36994	0.25264	0.33096	-2.5	-2.4542	-2.6312	-2.8292	-2.5312	-2.7938	-2.9437	-2.6083	-2.7292	-2.6417	-2.5458	-2.9854	-2.4938	-2.6292	-2.8708	-2.4896	221.962	90.881	187.274	57.749	91.634	207.539	332.916	215.997	387.430	272.071	318.025	387.787	368.023	286.859	258.832	157.042	0.00026491	0.00023707	0.00010089	1213	4.355e-06	6.3502e-06	1282.4	255.06	3.5058e-06	2.2824e-06	315.53	86.221	68.574	19.688	3.5971e-06	27.694	0.00023777	0.00021567	5.9356e-05	1193.3	2.4141e-06	2.4215e-06	1260	252.35	2.5218e-06	2.373e-06	313.09	86.319	68.194	19.839	2.3379e-06	27.954	231.583	134.298	142.099	64.466	221.585	240.073	64.252	71.405	242.522	255.792	70.900	78.286	78.239	84.476	231.909	84.206	-8191	255	
18175.373	1	1	0	0	0.11196	0.1415	0.12274	0.10554	0.053007	0.21005	0.048846	0.11448	0.31625	0.14779	0.10251	0.052265	0.073455	0.21371	0.093863	0.2129	-2.4167	-2.6521	-2.425	-3.0271	-2.6333	-2.7583	-3.0021	-2.5917	-2.8229	-2.6583	-2.5396	-3.0375	-2.65	-2.7104	-2.8125	-2.4875	63.245	91.668	371.809	396.433	198.081	227.568	370.021	353.374	201.600	99.970	392.730	350.550	284.004	79.882	179.952	56.920	0.0002429	0.00030962	6.468e-05	1211.2	3.7232e-06	2.5047e-06	1276.4	252.83	3.7061e-06	3.2522e-06	313.97	85.681	67.879	19.493	4.5097e-06	27.738	0.00022715	0.00021256	5.8489e-05	1187.6	2.3577e-06	2.2392e-06	1254.8	251.05	2.3635e-06	2.1657e-06	310.59	85.679	67.567	19.726	2.2118e-06	27.897	230.056	154.778	152.892	64.222	190.274	193.067	64.561	71.345	235.572	228.085	70.644	78.001	78.306	84.693	238.061	84.242	-8191	255	
18175.494	1	1	0	0	0.1367	0.089739	0.08991	0.23721	0.21005	0.15881	0.3552	0.21906	0.24773	0.28854	0.18461	0.17306	0.1406	0.1422	0.22195	0.46211	-2.3937	-2.7042	-2.475	-2.9479	-2.4792	-2.5229	-2.9479	-2.7354	-2.8875	-2.625	-2.5854	-3.0229	-2.4646	-2.3688	-2.8937	-2.4792	170.652	255.276	98.297	410.979	334.154	140.921	319.422	390.981	286.052	71.550	290.169	149.392	179.089	59.956	158.720	338.241	0.00025193	0.00028256	8.5583e-05	1201.3	3.1944e-06	1.9852e-06	1267.2	251.17	3.3873e-06	3.3255e-06	310.74	85.476	67.31	19.371	4.1188e-06	27.307	0.00021385	0.00019416	5.5367e-05	1178.7	2.0667e-06	2.1117e-06	1243.3	248.66	2.1513e-06	1.9842e-06	308.37	85.327	67.13	19.556	2.1005e-06	27.655	230.084	116.458	151.165	64.368	242.272	226.538	64.244	71.536	215.984	192.044	71.074	78.056	78.173	84.953	249.577	83.950	-8191	255	
18175.590	1	1	0	0	0.073067	0.068124	0.12702	0.04909	0.055226	0.10094	0.39393	0.079927	0.14633	0.11386	0.22961	0.074715	0.12895	0.21762	0.21448	0.22057	-2.3604	-2.9896	-2.5229	-2.8167	-2.6354	-2.575	-2.9979	-2.4729	-2.5083	-2.7125	-2.4646	-2.8979	-2.8688	-2.6521	-2.7729	-2.5833	269.446	66.788	158.964	378.082	185.807	237.541	328.606	137.919	320.264	293.073	395.740	298.952	131.540	307.290	155.186	397.872	0.00025089	0.00032141	0.00011864	1193.1	3.1804e-06	4.9609e-06	1257.8	250.48	4.4548e-06	2.6554e-06	311	84.924	66.629	19.512	2.9659e-06	27.711	0.00021513	0.00019337	5.3814e-05	1170.6	2.1932e-06	2.0188e-06	1237.7	248	2.1561e-06	2.1342e-06	307.58	85.102	66.823	19.645	2.1572e-06	27.773	224.911	133.431	174.310	64.214	221.860	201.160	64.430	71.285	238.898	191.522	71.071	77.852	78.318	84.262	199.755	83.770	-8191	255	
18175.686	1	1	0	0	0.26991	0.15891	0.055935	0.12044	0.26036	0.065293	0.29642	0.065428	0.29118	0.10127	0.067719	0.19615	0.034575	0.072978	0.16322	0.051634	-2.175	-2.7125	-2.3917	-2.7771	-2.5833	-2.6875	-3	-2.7167	-2.5771	-2.925	-2.5563	-2.8083	-2.7417	-2.7	-2.7292	-2.6896	381.780	338.224	69.044	229.994	364.323	283.504	409.223	196.934	116.905	54.048	389.674	349.485	62.747	204.922	311.906	162.608	0.00023404	0.00041596	0.00010081	1204.8	2.6594e-06	4.3583e-06	1263.8	251.03	1.1573e-06	2.9371e-06	311.99	85.48	67.277	19.624	3.5883e-06	27.415	0.00021401	0.00019225	5.2063e-05	1173.4	2.2077e-06	2.0907e-06	1239.5	248.68	2.1605e-06	2.1054e-06	308.67	85.248	67.039	19.701	2.2633e-06	27.732	227.658	165.109	165.511	64.050	197.869	202.451	64.230	71.541	256.705	240.597	70.892	78.349	78.327	84.508	231.986	84.427	-8191	255	
18175.781	1	1	0	0	0.15586	0.19597	0.1802	0.1532	0.14105	0.16809	0.33255	0.089253	0.14293	0.29194	0.23698	0.23262	0.075002	0.065198	0.31389	0.19836	-2.2354	-2.7333	-2.475	-2.8417	-2.6542	-2.4896	-2.9125	-2.4729	-2.7333	-2.7854	-2.5521	-2.8458	-2.6646	-2.525	-2.7292	-2.6146	305.679	322.406	406.407	238.249	173.947	351.749	330.592	201.314	402.965	341.815	274.290	62.438	331.001	69.956	156.530	286.339	0.00025198	0.00028541	3.6273e-05	1205.7	2.969e-06	2.9541e-06	1263.8	250.5	2.9694e-06	3.4836e-06	311.1	84.581	67.226	19.4	2.9523e-06	27.424	0.000223	0.00019852	5.4258e-05	1175.7	2.2335e-06	2.1896e-06	1243.9	249.15	2.2886e-06	2.1548e-06	309.22	85.399	67.163	19.688	2.1297e-06	27.737	226.581	140.108	130.190	64.278	219.914	222.296	64.516	71.464	242.033	213.517	70.965	78.210	78.301	84.708	191.744	84.297	-8191	255	
18175.879	1	1	0	0	0.18527	0.22027	0.22365	0.27878	0.20184	0.29818	0.1577	0.21794	0.13205	0.22871	0.28249	0.19052	0.15399	0.15371	0.040027	0.34626	-1.9021	-2.7542	-2.5563	-2.875	-2.675	-2.4958	-2.9583	-2.775	-2.4562	-3.0167	-2.6562	-2.9	-2.9813	-2.4417	-2.7625	-2.7812	409.961	74.921	214.501	334.950	243.630	279.837	122.078	356.952	291.827	203.508	329.527	369.667	339.478	375.307	175.518	386.841	0.00022475	0.00018407	0.00010534	1197.9	3.8139e-06	3.4929e-06	1255.7	250.87	2.5126e-06	3.4344e-06	309.31	85.322	67.288	19.481	4.5051e-06	27.491	0.00020833	0.00019351	5.3248e-05	1172.5	2.1415e-06	2.1668e-06	1239.3	248.26	2.1212e-06	2.0975e-06	307.84	85.504	67.218	19.715	2.128e-06	27.817	224.202	132.179	145.506	63.940	205.447	205.012	64.472	71.513	240.706	196.376	70.661	78.093	78.331	84.582	214.697	84.220	-8191	255	
18175.973	1	1	0	0	0.071534	0.082261	0.21033	0.25603	0.1356	0.20967	0.060015	0.19434	0.19291	0.29424	0.21514	0.16343	0.14555	0.073135	0.18008	0.29539	-2.1792	-2.9104	-2.6167	-2.8292	-2.775	-2.4813	-2.9688	-2.8063	-2.3646	-2.9167	-2.6813	-2.6542	-2.9375	-2.3354	-2.6188	-2.6604	333.256	319.651	342.252	403.364	276.322	353.133	163.497	359.499	174.060	389.788	76.672	245.586	337.620	248.367	243.835	383.790	0.00025252	0.00043546	0.00011604	1191.7	4.0926e-06	2.3508e-06	1261.9	250.27	1.5832e-06	3.491e-06	311.88	85.378	66.91	19.565	1.5305e-06	27.628	0.00021502	0.00019048	5.3073e-05	1170.8	2.0286e-06	2.0916e-06	1238.6	247.97	2.0762e-06	1.996e-06	308.66	85.558	67.003	19.712	2.1144e-06	27.82	231.331	158.363	154.409	64.134	222.565	249.393	64.416	71.508	220.349	227.140	71.003	78.486	78.538	84.698	222.036	84.159	-8191	255	
18176.070	1	1	0	0	0.25347	0.23618	0.070809	0.18481	0.16257	0.054764	0.25627	0.058237	0.10188	0.15568	0.12813	0.34802	0.080363	0.083084	0.18426	0.053294	-1.9979	-2.6896	-2.4646	-2.6312	-2.9271	-2.6083	-2.8292	-2.9792	-2.3688	-2.7604	-2.725	-2.5979	-2.9792	-2.4792	-2.5458	-2.8042	291.995	166.137	110.720	365.650	79.598	400.638	347.030	380.193	123.251	169.846	271.252	274.040	173.835	68.744	345.297	231.974	0.00023644	0.00030949	8.7787e-05	1197	4.4585e-06	3.0708e-06	1260.6	250.67	2.4852e-06	3.4372e-06	310.21	85.507	66.691	19.554	1.9992e-06	27.634	0.00019992	0.00018087	5.169e-05	1169.4	1.9909e-06	1.9841e-06	1236.6	248.2	2.0617e-06	1.9077e-06	307.82	85.222	66.832	19.666	1.9592e-06	27.744	225.307	157.387	208.381	63.830	209.505	198.850	64.247	71.400	249.711	214.782	71.204	78.309	78.346	84.653	205.321	84.212	-8191	255	
18176.189	1	1	0	0	0.085806	0.26481	0.16284	0.27282	0.066206	0.16264	0.23842	0.38623	0.31647	0.41667	0.16983	0.15071	0.12502	0.41215	0.09681	0.11123	-2.0458	-2.725	-2.6604	-2.5833	-2.8396	-2.4917	-2.8042	-2.8667	-2.425	-2.7562	-2.7083	-2.3937	-3.0458	-2.5958	-2.4188	-2.8021	224.315	148.750	406.701	326.612	308.712	354.638	318.556	413.241	77.110	164.890	372.099	403.727	272.178	73.414	164.522	302.588	0.00021704	0.00034495	0.00010794	1188.4	3.566e-06	1.8092e-06	1257.1	251.72	3.2152e-06	2.8798e-06	309.94	85.323	67.176	19.449	3.2987e-06	27.559	0.00019749	0.00018195	4.8907e-05	1166.3	2.0339e-06	1.9441e-06	1234.8	248.16	2.1093e-06	2.0606e-06	307.7	85.17	67.089	19.632	2.1365e-06	27.742	229.006	153.652	138.194	64.248	217.325	246.617	64.413	71.770	245.071	196.679	70.749	78.321	78.563	84.630	231.752	84.145	-8191	255	
18176.285	1	1	0	0	0.14097	0.14454	0.20971	0.10495	0.022248	0.099233	0.33467	0.18324	0.024379	0.28558	0.094845	0.094708	0.30462	0.15663	0.23673	0.18376	-2.3458	-2.5896	-2.7417	-2.5979	-2.8688	-2.7667	-2.7292	-2.9938	-2.6833	-2.8396	-2.7521	-2.5146	-2.7917	-2.5687	-2.6417	-2.8187	345.726	278.381	107.113	98.719	145.203	374.079	354.369	360.520	126.482	273.135	220.873	356.986	111.295	141.898	55.292	303.740	0.00024775	0.00034239	7.5762e-05	1197.5	3.112e-06	3.3437e-06	1259.5	250.27	2.8917e-06	3.2603e-06	311.51	85.526	67.435	19.52	2.7345e-06	27.452	0.00020681	0.00018826	5.1602e-05	1170.6	2.0659e-06	1.9508e-06	1235.1	247.88	2.142e-06	2.0261e-06	308.17	85.52	67.3	19.689	2.1237e-06	27.766	228.696	136.251	161.984	64.029	244.772	224.329	64.514	71.556	226.257	225.053	70.921	77.794	78.110	84.488	203.231	84.164	-8191	255	
18176.383	1	1	0	0	0.12217	0.2615	0.067938	0.06047	0.15061	0.14626	0.41069	0.28885	0.18495	0.08173	0.1565	0.051996	0.27665	0.23399	0.15109	0.28399	-1.975	-2.65	-2.6833	-2.6562	-2.9979	-2.7021	-2.6625	-2.8896	-2.4896	-2.5896	-2.8187	-2.6771	-2.975	-2.7083	-2.5854	-3.0479	101.458	177.831	218.239	303.384	145.241	304.700	361.265	270.188	212.775	374.842	150.864	65.282	409.250	367.299	379.923	384.175	0.00026155	0.00041035	0.00011623	1197.7	4.2765e-06	1.9319e-06	1257.4	249.77	2.5005e-06	2.2533e-06	312.46	85.661	67.521	19.478	1.8316e-06	27.523	0.00021347	0.00018686	5.1514e-05	1170.8	2.1161e-06	2.0271e-06	1237.7	248.02	2.0633e-06	2.0078e-06	308.05	85.469	67.226	19.684	1.9835e-06	27.72	227.816	158.376	144.538	64.211	220.813	156.638	64.224	71.302	266.589	227.723	70.553	78.188	78.504	84.465	235.007	83.982	-8191	255	
18176.479	1	1	0	0	0.057702	0.22849	0.24284	0.06073	0.12141	0.12125	0.26738	0.073612	0.08423	0.25614	0.050503	0.045736	0.18371	0.12757	0.29998	0.11651	-2.0771	-2.6271	-2.7188	-2.3063	-2.8083	-2.675	-2.6458	-2.9083	-2.6604	-2.5083	-2.9167	-2.6042	-2.8125	-2.7604	-2.4396	-2.9125	295.231	180.399	196.594	205.125	386.763	391.605	293.933	269.871	238.253	221.867	200.101	103.627	91.527	132.698	125.158	101.483	0.00024687	9.9719e-05	6.7846e-05	1197.8	3.0466e-06	3.7058e-06	1261.7	250.71	3.0138e-06	3.134e-06	313.6	84.834	67.024	19.489	2.1111e-06	27.582	0.00020734	0.00019229	4.8677e-05	1168.7	2.0763e-06	1.9073e-06	1238.6	248.25	2.0411e-06	1.9837e-06	308.5	85.152	67.105	19.692	1.9974e-06	27.787	226.076	155.124	126.455	64.102	183.942	240.961	64.367	71.517	213.012	234.893	71.078	78.066	78.545	84.553	203.853	84.067	-8191	255	
18176.574	1	1	0	0	0.11614	0.21276	0.14314	0.096397	0.10939	0.18152	0.20459	0.24966	0.11767	0.1264	0.33449	0.22086	0.050627	0.1458	0.19213	0.12095	-2.2104	-2.6688	-2.7542	-2.4271	-2.6188	-2.7	-2.8104	-2.9146	-2.4583	-2.6937	-2.9	-2.5729	-2.7167	-2.8979	-2.5	-2.9896	85.546	280.749	231.720	350.873	152.808	241.331	391.057	372.881	190.774	345.370	398.797	260.457	217.890	66.480	341.218	216.372	0.0002677	0.00029735	8.8885e-05	1191.2	3.6937e-06	2.9266e-06	1258.1	251.4	2.5144e-06	3.3421e-06	311.53	85.01	67.341	19.467	3.7212e-06	27.637	0.00020933	0.00018207	5.0888e-05	1168.3	2.0384e-06	1.9672e-06	1237	248.47	1.9922e-06	1.9901e-06	307.3	85.302	67.082	19.678	2.0355e-06	27.731	231.079	183.003	177.697	64.436	208.319	210.473	64.572	71.553	241.630	228.133	71.185	78.274	78.537	84.986	227.785	84.036	-8191	255	
18176.670	1	1	0	0	0.22148	0.055759	0.27662	0.10904	0.12794	0.0090709	0.37024	0.059475	0.29116	0.071307	0.25474	0.21979	0.11883	0.14994	0.099993	0.12084	-2.4354	-2.5021	-2.8271	-2.5875	-2.7125	-2.7562	-2.5938	-2.7792	-2.675	-2.5771	-2.9417	-2.4917	-2.525	-2.8688	-2.4708	-2.7375	88.394	270.455	142.667	348.083	381.451	164.947	323.575	77.427	70.956	141.919	363.909	77.079	163.809	85.313	395.903	61.262	0.0002311	0.00028857	7.9521e-05	1194	3.2774e-06	2.4138e-06	1257.7	251.06	3.0978e-06	2.6999e-06	312.04	85.417	67.418	19.674	3.3758e-06	27.574	0.00019819	0.00018614	4.9681e-05	1167.1	1.9953e-06	1.9224e-06	1233.7	247.82	2.0199e-06	1.9547e-06	308.08	85.218	67.203	19.762	2.0924e-06	27.803	232.122	143.934	143.002	64.271	216.203	190.907	64.454	71.768	254.961	236.018	70.977	78.127	78.276	84.677	229.393	84.093	-8191	255	
18176.791	1	1	0	0	0.032092	0.28815	0.24553	0.21328	0.12481	0.26272	0.31177	0.023392	0.034708	0.18756	0.19923	0.38013	0.20335	0.36386	0.23556	0.35684	-2.1979	-2.4479	-2.65	-2.5062	-2.6792	-2.8792	-2.7667	-2.7458	-2.6125	-2.5958	-2.7875	-2.6354	-2.4083	-2.9229	-2.4896	-2.75	143.963	384.115	329.802	307.503	221.780	145.622	370.256	150.135	276.314	274.375	309.139	307.052	313.189	175.979	197.788	257.918	0.00021213	0.00012798	9.868e-05	1196.6	4.1926e-06	3.5055e-06	1256.8	249.99	3.7411e-06	2.8745e-06	313.49	85.226	67.042	19.507	2.9209e-06	27.534	0.00020191	0.00017749	4.8567e-05	1171	2.0441e-06	1.9688e-06	1235.7	248.22	2.127e-06	2.1e-06	309.1	85.324	67.05	19.697	2.3645e-06	27.814	228.074	138.317	129.939	63.928	213.013	206.669	64.264	71.352	235.692	224.327	70.879	78.015	78.144	84.567	225.478	84.293	-8191	255	
18176.885	1	1	0	0	0.11161	0.11747	0.15523	0.11661	0.07789	0.17497	0.021594	0.1512	0.11035	0.11799	0.12852	0.2477	0.16538	0.06617	0.092541	0.3276	-2.3271	-2.4021	-2.7521	-2.5854	-2.3542	-2.9833	-2.7896	-2.5917	-2.7646	-2.5396	-2.8417	-2.8	-2.5687	-2.5667	-2.6917	-2.65	395.772	136.569	305.044	344.335	353.601	195.594	247.804	305.550	165.505	385.329	190.605	367.265	129.118	276.097	202.162	295.760	0.00022128	0.00027645	0.0001578	1192.1	2.5739e-06	4.9215e-06	1265.2	250.87	3.0235e-06	2.0695e-06	313.8	85.186	67.717	19.71	2.6595e-06	27.503	0.00021872	0.00021252	5.9691e-05	1173.7	2.2842e-06	2.294e-06	1244.2	249.17	2.2936e-06	2.2275e-06	309.36	85.613	67.424	19.788	2.1457e-06	27.799	229.281	128.269	157.450	64.064	193.589	219.393	64.175	71.415	233.998	219.811	70.975	78.279	78.098	84.645	195.596	84.240	-8191	255	
18176.982	1	1	0	0	0.27336	0.048575	0.15113	0.31051	0.26098	0.2167	0.089218	0.14147	0.22011	0.19204	0.2257	0.18853	0.13422	0.063395	0.45855	0.10697	-2.5042	-2.2208	-2.7792	-2.6021	-2.3542	-2.8438	-2.6625	-2.75	-2.825	-2.3833	-2.7542	-2.6875	-2.5104	-2.975	-2.5312	-2.6917	120.356	331.121	345.747	135.733	98.285	57.912	131.866	362.169	226.812	316.743	318.353	327.028	202.293	400.179	259.427	311.251	0.00027658	0.00013028	3.1721e-05	1201.3	3.2062e-06	2.0874e-06	1262.8	249.86	3.7361e-06	5.1501e-06	311.47	85.426	67.54	19.635	3.441e-06	27.528	0.00021847	0.00018209	5.1712e-05	1175.7	2.1979e-06	2.047e-06	1240.7	248.33	2.1178e-06	1.9861e-06	308.11	85.27	67.09	19.647	2.1016e-06	27.758	224.364	194.225	156.297	64.534	224.734	194.209	64.464	71.381	250.698	202.009	70.749	78.177	78.449	84.661	213.073	84.266	-8191	255	
18177.055	1	1	0	0	0.17907	0.20157	0.10092	0.24213	0.21383	0.080245	0.1744	0.18023	0.08009	0.13894	0.13916	0.20962	0.23039	0.32427	0.080597	0.1371	-2.5396	-2.4104	-2.6813	-2.7562	-2.5271	-2.7583	-2.9188	-2.6417	-2.8354	-2.525	-2.7417	-2.6604	-2.4354	-2.9125	-2.5854	-2.6729	243.705	281.814	285.634	349.181	180.810	363.688	380.816	346.770	227.068	59.424	161.663	306.257	373.961	93.862	210.306	316.865	0.00025288	0.00042686	0.00011097	1194.4	6.4559e-06	3.3766e-06	1256.2	249.56	3.9876e-06	1.9836e-06	310.95	85.556	67.103	19.435	3.5874e-06	27.553	0.00021749	0.00018338	5.2145e-05	1165.7	2.1753e-06	2.0564e-06	1236.4	248.02	2.0531e-06	2.0353e-06	307.9	85.373	67.182	19.667	2.0481e-06	27.787	228.994	158.359	148.328	64.140	225.500	214.670	64.348	71.472	223.245	186.340	70.819	78.138	78.391	84.637	228.249	84.171	-8191	255	
18177.150	1	1	0	0	0.030662	0.23418	0.096749	0.16263	0.077828	0.10749	0.15031	0.071705	0.055485	0.1274	0.067573	0.13429	0.16775	0.095639	0.11538	0.11074	-2.4833	-2.3542	-2.5604	-2.8021	-2.5187	-2.7875	-2.7729	-2.6667	-2.9104	-2.4354	-2.6375	-2.8792	-2.5438	-2.8333	-2.6063	-2.3583	115.268	275.816	147.934	63.649	342.995	399.478	329.491	409.442	397.782	295.759	144.029	74.203	380.631	165.171	133.191	341.557	0.00025575	0.00046388	0.00010238	1194.8	4.7827e-06	5.2724e-06	1264.1	250.37	2.7749e-06	2.4517e-06	311.06	85.774	67.246	19.545	2.9231e-06	27.633	0.00021681	0.00019371	5.4582e-05	1173.3	2.2335e-06	2.1928e-06	1241.4	248.87	2.1923e-06	2.2157e-06	308.42	85.566	67.222	19.745	2.1566e-06	27.862	227.945	151.847	149.416	64.528	224.656	207.580	64.396	71.455	250.232	210.901	70.626	78.146	78.265	84.560	193.186	83.840	-8191	255	
18177.270	1	1	0	0	0.14695	0.15931	0.13045	0.20837	0.22603	0.12742	0.1438	0.16502	0.27009	0.10738	0.16569	0.067857	0.32678	0.063993	0.033597	0.17219	-2.4167	-2.5875	-2.5354	-2.9146	-2.4604	-2.6479	-2.7125	-2.5958	-2.7875	-2.5521	-2.5438	-3.0125	-2.3854	-2.8292	-2.6729	-2.5458	112.392	335.195	373.795	287.426	107.288	245.037	335.829	380.026	92.591	404.995	321.948	95.834	408.334	262.106	146.807	366.911	0.00025384	0.00026207	8.042e-05	1189.9	2.7776e-06	1.5727e-06	1269.7	250.43	3.3474e-06	2.8519e-06	311.24	85.466	67.361	19.667	3.4157e-06	27.724	0.00022004	0.00019325	5.5652e-05	1173.1	2.1624e-06	2.1913e-06	1245	249.01	2.2788e-06	2.2194e-06	309.36	85.765	67.406	19.758	2.2929e-06	27.876	227.996	115.305	128.621	64.284	197.929	181.273	64.444	71.561	236.452	200.993	70.908	77.998	78.309	84.581	225.076	83.732	-8191	255	
18177.365	1	1	0	0	0.25191	0.14374	0.17901	0.16464	0.090495	0.1468	0.1589	0.21627	0.10895	0.17539	0.3461	0.13085	0.14121	0.065719	0.14438	0.24243	-2.3812	-2.4979	-2.4229	-2.9854	-2.7083	-2.7771	-2.8	-2.3021	-2.95	-2.6625	-2.4729	-2.8042	-2.5958	-2.7979	-2.8354	-2.5271	79.774	185.988	268.206	56.211	106.442	167.011	372.727	72.854	271.077	355.700	384.973	102.555	249.486	297.946	297.524	354.656	0.00022171	0.00019751	0.00010039	1206.2	2.6004e-06	4.6436e-06	1266.3	252.06	3.7768e-06	4.1206e-06	312.81	85.772	67.42	19.52	3.2485e-06	27.713	0.00022656	0.00020082	5.7787e-05	1179.6	2.3443e-06	2.3797e-06	1245.8	250.11	2.4032e-06	2.2142e-06	309.98	85.833	67.537	19.79	2.368e-06	27.92	226.430	192.282	160.535	64.342	203.727	194.925	64.352	71.313	231.641	222.757	71.078	78.119	78.327	84.441	200.461	84.106	-8191	255	
18177.463	1	1	0	0	0.19426	0.10133	0.0091943	0.034916	0.059585	0.10625	0.22768	0.27438	0.11875	0.14509	0.19922	0.072394	0.17218	0.26614	0.17883	0.11662	-2.4229	-2.5979	-2.3896	-2.8708	-2.4458	-2.6562	-3.1542	-2.55	-2.65	-2.6167	-2.55	-2.7979	-2.6208	-2.4875	-2.775	-2.7125	333.174	377.067	281.026	108.488	105.148	189.305	308.770	408.321	209.732	107.863	356.754	191.724	345.531	401.138	86.676	148.624	0.00025039	0.00023045	8.1275e-05	1203.8	3.4416e-06	2.6728e-06	1270.9	251.79	2.8029e-06	1.404e-07	311.84	85.814	67.578	19.593	3.4215e-06	27.571	0.00023304	0.00020833	6.0459e-05	1183	2.441e-06	2.3686e-06	1249.7	250.44	2.5794e-06	2.4106e-06	310.21	85.795	67.698	19.814	2.5237e-06	27.919	230.762	146.752	158.548	64.109	228.387	235.275	64.473	71.478	228.098	117.420	70.790	78.094	78.239	84.405	233.154	84.168	-8191	255	
18177.582	1	1	0	0	0.13032	0.17545	0.14957	0.1234	0.21209	0.078173	0.36447	0.087229	0.1399	0.20288	0.20616	0.22868	0.15272	0.11469	0.24118	0.043113	-2.325	-2.5438	-2.3083	-2.7687	-2.5583	-2.6958	-2.9125	-2.6104	-2.725	-2.4833	-2.4604	-2.775	-2.6375	-2.6292	-2.6958	-2.5396	340.296	218.144	104.092	77.508	120.729	315.378	334.611	370.075	123.077	128.138	408.875	277.525	290.715	250.699	278.980	351.200	0.00024287	0.00034005	7.8151e-05	1206.2	3.564e-06	3.7069e-06	1271.9	252.38	2.8541e-06	4.4629e-06	313.69	85.8	67.465	19.579	3.4701e-06	27.591	0.00023989	0.00021543	6.3077e-05	1183.5	2.4484e-06	2.355e-06	1250.5	251.17	2.4261e-06	2.4058e-06	310.99	85.925	67.564	19.803	2.2808e-06	27.905	227.306	141.808	156.489	64.206	187.898	224.642	64.361	71.281	248.799	204.400	70.760	77.807	78.209	84.643	208.010	84.076	-8191	255	
18177.654	1	1	0	0	0.18567	0.13896	0.16266	0.097085	0.15152	0.41775	0.27618	0.38296	0.5074	0.23678	0.040515	0.099289	0.15676	0.32452	0.19942	0.090897	-2.4562	-2.5458	-2.3042	-2.7125	-2.7167	-2.425	-2.9625	-2.4792	-2.7917	-2.6833	-2.3146	-2.6063	-2.7521	-2.6521	-2.7542	-2.4938	169.108	192.306	138.769	116.200	253.416	331.553	356.345	370.046	80.133	322.269	286.001	403.854	89.820	221.637	351.718	265.307	0.00021905	0.00029519	6.6688e-05	1213	3.4187e-06	2.0122e-06	1269.2	252.18	3.7218e-06	4.8888e-06	314.76	86.028	67.743	19.543	2.7165e-06	27.605	0.00022765	0.0001998	5.8083e-05	1182.9	2.258e-06	2.2947e-06	1249	250.56	2.3395e-06	2.2092e-06	311.04	85.896	67.675	19.798	2.2024e-06	27.857	227.841	98.977	141.655	64.123	231.516	242.282	64.257	71.755	248.612	214.594	70.951	77.931	78.338	84.235	241.371	83.754	-8191	255	
18177.752	1	1	0	0	0.085078	0.084281	0.10756	0.22176	0.015118	0.087414	0.28746	0.044957	0.27108	0.19278	0.1683	0.16268	0.090943	0.13662	0.11337	0.0591	-2.2	-2.7896	-2.5292	-2.7125	-2.7729	-2.5167	-2.9479	-2.6833	-2.5917	-2.9125	-2.4146	-2.7313	-2.9583	-2.4	-2.9021	-2.6188	197.863	109.330	176.263	97.320	265.862	214.803	337.162	231.316	198.728	293.835	361.648	100.798	136.256	99.954	185.632	122.872	0.00024718	0.000184	9.5077e-05	1208.3	3.355e-06	2.2706e-06	1274.9	251.67	2.266e-06	3.9057e-06	312.83	85.747	67.741	19.556	2.9156e-06	27.523	0.00022693	0.00019917	5.6354e-05	1184.2	2.2397e-06	2.2363e-06	1249	250.51	2.2767e-06	2.2367e-06	310.88	85.79	67.546	19.784	2.3072e-06	27.901	223.047	182.149	115.324	64.108	203.926	237.207	64.499	71.374	219.573	216.522	71.070	78.050	78.447	84.443	213.117	84.318	-8191	255	
18177.871	1	1	0	0	0.12546	0.1355	0.047605	0.21932	0.15837	0.055592	0.10278	0.16536	0.15065	0.1324	0.41462	0.079754	0.13657	0.23351	0.15821	0.25127	-1.9979	-2.9562	-2.4354	-2.8104	-2.9083	-2.4437	-2.8688	-2.7979	-2.4646	-2.7354	-2.7229	-2.8937	-2.6521	-2.4437	-2.6542	-2.7042	402.106	262.060	242.470	346.831	235.458	235.471	390.590	355.770	68.232	413.227	353.436	61.615	330.608	300.197	160.468	284.683	0.00023542	0.00049074	9.9965e-05	1208.7	3.0966e-06	4.539e-06	1269.6	252.2	4.8181e-06	4.0847e-06	310.52	85.71	67.51	19.592	4.1371e-06	27.658	0.00022224	0.00020517	5.8906e-05	1179.9	2.271e-06	2.2993e-06	1248.5	250.09	2.4138e-06	2.1854e-06	310.49	85.719	67.575	19.77	2.2207e-06	27.905	232.171	139.789	148.808	64.303	226.745	198.394	64.408	71.420	251.268	251.406	70.635	78.013	78.292	84.451	233.911	83.956	-8191	255	
18177.967	1	1	0	0	0.1917	0.25966	0.1376	0.12703	0.11331	0.20085	0.24944	0.080187	0.066927	0.13336	0.067769	0.48825	0.37272	0.081983	0.017817	0.13498	-2.2917	-2.7646	-2.2917	-2.625	-2.8854	-2.5208	-2.8625	-2.7625	-2.2938	-2.8563	-2.4813	-2.5729	-2.85	-2.4708	-2.5208	-2.8146	293.256	234.152	412.726	109.886	129.798	323.150	302.364	292.571	279.409	211.969	71.664	369.132	77.442	206.524	324.882	318.827	0.00023572	0.00043304	0.00013868	1204.5	3.4081e-06	2.3984e-06	1275.6	253.32	2.9494e-06	2.2012e-06	313.49	85.978	67.622	19.657	2.025e-06	27.781	0.00022415	0.00020139	5.8171e-05	1182.5	2.4041e-06	2.3708e-06	1249.4	251.08	2.4086e-06	2.2551e-06	310.2	85.982	67.57	19.843	2.4027e-06	27.971	227.766	123.232	157.570	64.136	216.610	188.923	64.651	71.366	254.483	242.029	71.029	78.184	78.305	84.196	250.252	84.350	-8191	255	
18178.064	1	1	0	0	0.1528	0.16485	0.11619	0.12993	0.060304	0.20091	0.24663	0.1536	0.10227	0.053732	0.18506	0.36281	0.040774	0.24695	0.026501	0.2524	-1.9104	-2.7104	-2.4854	-2.525	-2.7438	-2.5146	-2.8375	-2.625	-2.4625	-2.6521	-2.8563	-2.5833	-2.875	-2.4792	-2.6417	-2.7729	244.376	166.325	103.820	87.231	295.519	133.366	339.063	301.553	82.049	133.949	386.657	390.758	115.854	151.938	246.540	276.336	0.00026603	0.00038046	0.00010667	1207	3.6919e-06	3.192e-06	1275.8	252.72	4.1666e-06	2.751e-06	314.03	85.945	67.964	19.677	4.8225e-06	27.599	0.0002387	0.00022583	6.2095e-05	1182.2	2.3882e-06	2.3577e-06	1251.5	250.57	2.4483e-06	2.2824e-06	311.25	85.964	67.813	19.86	2.4021e-06	27.895	226.172	140.560	142.848	64.103	240.307	205.668	64.529	71.333	227.156	214.151	71.099	78.164	78.403	84.281	220.170	84.073	-8191	255	
18178.184	1	1	0	0	0.22387	0.12152	0.38409	0.18474	0.23098	0.15855	0.13767	0.35755	0.21545	0.097614	0.10076	0.2596	0.089027	0.24946	0.034906	0.075536	-1.9146	-2.8458	-2.6917	-2.5896	-2.9292	-2.5312	-2.8688	-2.8229	-2.5312	-2.8667	-2.5729	-2.4875	-2.8354	-2.5833	-2.5146	-2.7729	390.768	269.207	232.044	305.005	58.251	368.472	406.522	380.234	313.397	57.995	75.517	86.471	244.100	410.644	338.288	311.020	0.00022618	0.00043358	6.7681e-05	1209.6	3.5127e-06	3.2688e-06	1274.6	252.42	3.8678e-06	2.169e-06	311.91	85.336	67.931	19.615	1.622e-06	27.692	0.00022673	0.00021545	5.4582e-05	1182.6	2.2953e-06	2.2599e-06	1251.1	250.6	2.3181e-06	2.1338e-06	309.87	85.793	67.781	19.86	2.252e-06	27.898	227.373	137.283	109.849	64.552	225.887	191.626	64.442	71.415	222.519	243.599	70.924	78.161	78.445	84.146	184.115	84.086	-8191	255	
18178.279	1	1	0	0	0.25696	0.14846	0.17195	0.086774	0.099383	0.096893	0.075183	0.049599	0.25294	0.23333	0.19489	0.033459	0.20684	0.26652	0.33042	0.12044	-2.0417	-2.6625	-2.5312	-2.4125	-2.7417	-2.5896	-2.8333	-2.9042	-2.3125	-2.7729	-2.6375	-2.5479	-2.8979	-2.6625	-2.6042	-2.8625	354.533	353.529	202.506	108.646	104.631	295.578	56.868	324.639	232.496	110.022	322.008	312.632	398.539	88.497	196.331	326.056	0.00024541	0.00014645	0.0001244	1203.4	3.8603e-06	3.2725e-06	1268.4	251.18	1.8704e-06	4.747e-06	313.42	86.248	67.599	19.613	2.9887e-06	27.609	0.00021998	0.00020139	5.479e-05	1179	2.2069e-06	2.1463e-06	1245.3	249.56	2.1694e-06	2.0792e-06	310.35	85.959	67.509	19.819	2.0914e-06	27.905	229.090	123.860	144.442	63.859	253.459	221.055	64.313	71.565	244.728	211.928	70.609	77.896	78.261	84.329	206.702	84.038	-8191	255	
18178.350	1	1	0	0	0.14286	0.12513	0.35224	0.12133	0.17105	0.32893	0.075847	0.4049	0.12326	0.26104	0.14383	0.098359	0.073299	0.19006	0.17314	0.17367	-1.9417	-2.6896	-2.6104	-2.3667	-2.8063	-2.6667	-2.5583	-2.8292	-2.3771	-2.5896	-2.6917	-2.4083	-2.75	-2.6042	-2.5604	-2.9813	111.330	178.205	274.142	397.070	281.474	205.289	181.589	389.338	245.066	399.886	83.717	348.035	85.405	86.437	241.347	221.676	0.00025924	0.00021536	0.00011116	1197.3	3.1933e-06	3.5009e-06	1261.5	252.24	3.88e-06	2.7205e-06	312.02	85.778	67.484	19.61	1.6417e-06	27.609	0.00021527	0.00018828	5.1295e-05	1174	2.1517e-06	2.1008e-06	1240.6	249.38	2.1193e-06	2.0956e-06	309.1	85.719	67.305	19.812	2.1595e-06	27.892	229.082	127.135	162.918	64.462	193.266	183.122	64.559	71.626	241.469	235.520	70.961	78.008	78.150	84.476	202.878	84.056	-8191	255	
18178.447	1	1	0	0	0.026149	0.12984	0.027381	0.17433	0.20442	0.02053	0.17592	0.23977	0.20015	0.19417	0.18282	0.12046	0.30795	0.16201	0.14326	0.14554	-1.9625	-2.7042	-2.6417	-2.6	-2.7333	-2.6354	-2.6646	-2.8396	-2.3688	-2.7604	-2.7188	-2.4854	-2.6792	-2.5333	-2.5021	-2.9354	395.101	185.444	87.396	185.214	410.505	312.751	365.111	54.725	108.026	172.625	404.471	88.112	358.482	110.914	318.775	268.040	0.00023293	9.1067e-05	9.7403e-05	1193.9	3.786e-06	3.3983e-06	1256.2	251.2	3.2828e-06	1.4296e-06	312.12	85.661	67.881	19.5	3.2061e-06	27.622	0.00021061	0.00019687	5.3034e-05	1170.7	2.2537e-06	2.0291e-06	1238.4	249.24	2.2237e-06	2.1142e-06	308.99	85.899	67.43	19.754	2.0918e-06	27.904	229.577	87.808	129.078	64.254	203.090	186.027	64.333	71.462	236.886	206.069	70.847	77.992	78.128	84.611	204.757	84.315	-8191	255	
18178.566	1	1	0	0	0.12166	0.17251	0.1921	0.19976	0.063004	0.15678	0.31449	0.14221	0.15991	0.28183	0.13697	0.066298	0.23514	0.24744	0.17767	0.21737	-2.1604	-2.6667	-2.7167	-2.4271	-2.8229	-2.6542	-2.5083	-2.8604	-2.4562	-2.6562	-2.6979	-2.375	-2.6625	-2.8187	-2.3438	-2.875	365.612	272.913	302.007	321.126	298.781	131.206	368.586	335.398	135.566	278.131	371.187	305.947	358.367	149.357	157.787	240.398	0.00024506	0.00039128	8.5893e-05	1198.4	4.2979e-06	2.511e-06	1257.9	251.57	2.0658e-06	3.9405e-06	311.19	85.392	67.672	19.585	1.6158e-06	27.616	0.00021169	0.00019095	5.1646e-05	1171.8	2.1481e-06	1.9799e-06	1238.8	248.98	2.1299e-06	2.082e-06	309.03	85.677	67.432	19.744	2.0091e-06	27.86	227.750	131.406	134.707	64.166	250.796	157.495	64.364	71.367	220.979	219.998	71.076	78.138	78.081	84.587	177.440	84.260	-8191	255	
18178.662	1	1	0	0	0.091721	0.19319	0.14009	0.15561	0.13999	0.1833	0.11887	0.23049	0.13216	0.10343	0.21256	0.1104	0.30734	0.3024	0.38101	0.17763	-2.0771	-2.4292	-2.85	-2.4042	-2.6542	-2.5375	-2.575	-2.7313	-2.5312	-2.4875	-2.8604	-2.6083	-2.6792	-2.7313	-2.5125	-2.675	283.275	324.441	196.540	117.116	397.396	326.233	67.264	319.826	185.606	66.306	394.162	123.471	393.550	85.450	244.696	354.321	0.00022323	0.0002096	8.8652e-05	1195.4	4.5018e-06	3.7719e-06	1263.4	250.96	2.1094e-06	2.1295e-06	311.38	85.339	67.268	19.564	3.2085e-06	27.567	0.00019894	0.00018983	4.9758e-05	1168.9	2.1059e-06	2.0724e-06	1236.8	248.72	2.17e-06	2.0836e-06	308.22	85.494	67.386	19.753	2.0805e-06	27.811	226.944	146.816	148.197	64.151	223.841	236.643	64.404	71.521	214.815	247.093	70.833	77.968	78.255	84.295	241.107	83.956	-8191	255	
18178.760	1	1	0	0	0.29321	0.031176	0.10137	0.38719	0.17248	0.14503	0.17156	0.20472	0.2158	0.090299	0.21577	0.023257	0.39478	0.27623	0.11716	0.14592	-2.1146	-2.5896	-2.7708	-2.4854	-2.4583	-2.7146	-2.7062	-2.7375	-2.5125	-2.3625	-2.8833	-2.4417	-2.7042	-2.8583	-2.375	-2.6479	118.285	365.275	130.695	312.018	336.112	221.645	359.899	54.919	290.817	122.304	349.475	84.857	77.409	404.610	286.217	311.897	0.00024945	0.00025283	9.326e-05	1191.9	1.6028e-06	3.7746e-06	1257.7	250.94	3.2276e-06	4.9701e-06	311.14	85.335	67.195	19.671	2.0806e-06	27.633	0.0002136	0.00018665	5.2787e-05	1169.4	2.1193e-06	1.9981e-06	1237.4	248.64	2.1365e-06	1.9992e-06	308.18	85.488	67.353	19.762	2.1027e-06	27.901	226.533	176.063	137.786	64.297	240.603	224.801	64.499	71.514	250.692	217.484	70.610	77.981	78.147	84.713	220.173	83.995	-8191	255	
18178.855	1	1	0	0	0.22085	0.083504	0.14324	0.24713	0.21073	0.38967	0.23849	0.34559	0.088226	0.32345	0.46162	0.18461	0.16102	0.19031	0.14408	0.21144	-2.2021	-2.4854	-2.5375	-2.6021	-2.475	-2.9583	-2.7771	-2.7083	-2.9313	-2.4792	-2.8438	-2.7604	-2.5167	-2.9188	-2.4792	-2.5583	263.674	170.883	379.516	268.462	188.848	323.837	380.083	399.443	68.381	152.630	393.690	253.534	143.132	70.088	153.736	81.534	0.00025665	0.00022023	0.00010647	1188.8	4.1215e-06	1.4738e-06	1262	251.11	2.6294e-06	3.1595e-06	311.96	84.926	67.535	19.606	3.6825e-06	27.522	0.00021116	0.00019245	5.1756e-05	1168.4	2.1261e-06	2.0859e-06	1238.8	248.49	2.2318e-06	2.1235e-06	308.95	85.351	67.421	19.782	2.2669e-06	27.8	228.203	103.937	158.717	64.093	239.930	241.251	64.506	71.672	248.590	218.435	70.589	77.970	78.377	84.765	216.065	84.240	-8191	255	
18178.949	1	1	0	0	0.071413	0.11908	0.11731	0.19207	0.093181	0.30142	0.15778	0.099916	0.1355	0.18178	0.21049	0.22911	0.041796	0.21544	0.11	0.088858	-2.2292	-2.4125	-2.7062	-2.6104	-2.55	-2.6125	-2.5833	-2.7062	-2.7271	-2.3833	-2.6375	-2.6833	-2.6167	-2.8271	-2.6063	-2.5938	326.394	110.332	238.424	70.770	339.878	403.171	302.933	287.835	348.221	231.526	339.863	361.286	115.877	66.663	368.855	297.197	0.00023322	0.00026714	5.1016e-05	1202.3	3.2898e-06	4.0178e-06	1268.6	250.77	3.212e-06	4.9008e-06	311.44	85.856	67.666	19.677	4.1041e-06	27.682	0.00021174	0.00019003	5.4499e-05	1173.2	2.1651e-06	2.1423e-06	1242.4	249.1	2.3308e-06	2.0766e-06	309.11	85.853	67.516	19.826	2.1866e-06	27.9	227.451	161.880	152.285	64.335	223.095	234.850	64.420	71.340	223.191	225.931	70.819	78.260	78.396	84.737	244.806	83.680	-8191	255	
18179.047	1	1	0	0	0.29566	0.19226	0.20955	0.12024	0.090643	0.25663	0.39883	0.076882	0.16893	0.37116	0.15989	0.12824	0.18456	0.14265	0.12353	0.29415	-2.3854	-2.3854	-2.7375	-2.5542	-2.3917	-2.8875	-2.7708	-2.5062	-2.7479	-2.5396	-2.7667	-2.6063	-2.5687	-2.8729	-2.6208	-2.5708	351.240	398.405	150.625	400.287	298.188	60.962	323.913	77.281	206.901	313.732	377.406	393.736	67.738	63.154	123.682	337.790	0.0002197	0.00028771	8.8656e-05	1196.1	2.5493e-06	2.7412e-06	1265.5	251.89	2.6058e-06	3.2833e-06	311.11	85.336	67.247	19.513	2.9774e-06	27.499	0.00021631	0.00019076	5.4785e-05	1171.1	2.1459e-06	2.2016e-06	1243.1	249.4	2.288e-06	2.2157e-06	309.49	85.597	67.214	19.71	2.196e-06	27.791	227.838	103.140	159.086	63.859	221.980	216.220	64.339	71.409	227.935	209.270	71.007	78.061	78.087	84.498	209.026	84.363	-8191	255	
18179.145	1	1	0	0	0.18937	0.10349	0.27981	0.069348	0.22717	0.087506	0.37055	0.18041	0.058884	0.29742	0.022673	0.12436	0.15682	0.12755	0.25181	0.22644	-2.3167	-2.3729	-2.7812	-2.7854	-2.4542	-2.9167	-2.7375	-2.6	-2.6396	-2.5146	-2.5271	-2.8187	-2.3625	-2.7604	-2.6396	-2.4479	355.678	216.358	203.140	337.161	351.447	400.800	355.463	386.610	273.249	76.102	234.179	366.845	89.177	114.644	390.697	85.964	0.00025676	0.00035643	6.0438e-05	1190.2	5.2353e-06	4.1225e-06	1262.7	250.11	3.3888e-06	3.543e-06	311.58	84.991	66.951	19.343	2.9338e-06	27.338	0.00021276	0.00019689	5.4044e-05	1168.9	2.1293e-06	2.0816e-06	1239.2	248.5	2.194e-06	2.198e-06	308.64	85.379	67.1	19.598	2.1549e-06	27.683	226.322	119.180	155.756	64.513	230.934	189.584	64.374	71.498	238.230	231.644	70.838	77.993	78.513	84.725	216.249	84.155	-8191	255	
18179.264	1	1	0	0	0.086427	0.21046	0.29001	0.047619	0.089748	0.15469	0.39411	0.32624	0.17303	0.27936	0.17416	0.23169	0.29728	0.22467	0.14586	0.11538	-2.275	-2.5167	-2.6771	-2.7854	-2.3979	-2.7167	-2.8438	-2.45	-2.7812	-2.65	-2.55	-2.8208	-2.4167	-2.7188	-2.7125	-2.5458	228.973	202.627	284.953	315.684	240.082	125.417	282.025	365.710	393.780	71.728	61.981	383.219	128.062	379.203	404.726	120.070	0.00025389	0.00024087	9.5765e-05	1187.2	3.4465e-06	3.5314e-06	1257.3	250.19	1.9527e-06	3.6745e-06	310.93	84.726	66.732	19.281	2.9645e-06	27.309	0.00021981	0.00019726	5.3594e-05	1169.5	2.12e-06	2.0011e-06	1237.6	248.23	2.1459e-06	2.0729e-06	308.53	85.113	66.805	19.549	2.1691e-06	27.633	232.636	150.071	132.843	64.048	229.770	232.448	64.490	71.344	243.870	212.127	70.742	78.345	78.321	84.735	237.056	84.505	-8191	255	
18179.359	1	1	0	0	0.050188	0.018338	0.119	0.18528	0.19114	0.079674	0.18577	0.11085	0.23094	0.15368	0.19296	0.21179	0.032925	0.098547	0.1952	0.18792	-2.3187	-2.5021	-2.3271	-2.8792	-2.5375	-2.8125	-2.9042	-2.4292	-2.9667	-2.5979	-2.6021	-2.6937	-2.3417	-2.6333	-2.7896	-2.4771	280.005	244.083	105.847	183.525	340.057	326.227	354.367	365.549	144.709	214.712	349.464	54.157	214.546	336.343	219.792	66.344	0.00024483	0.00024917	3.5443e-05	1191.8	3.6592e-06	4.26e-06	1254.9	249.46	3.4682e-06	4.9521e-06	310.07	84.823	66.536	19.071	3.4903e-06	27.379	0.00021294	0.00019597	5.2568e-05	1169.4	2.1242e-06	2.1843e-06	1235.7	247.39	2.2208e-06	2.1323e-06	306.97	85.055	66.538	19.409	2.1093e-06	27.541	228.318	117.108	180.795	64.332	227.377	210.524	64.368	71.450	267.109	176.795	70.867	78.325	78.456	84.759	218.228	84.380	-8191	255	
18179.455	1	1	0	0	0.23829	0.14606	0.251	0.069901	0.21567	0.094498	0.17658	0.17658	0.17733	0.099457	0.24178	0.13773	0.18411	0.066305	0.033966	0.052424	-2.2958	-2.5854	-2.5729	-2.8729	-2.4479	-2.6833	-2.9667	-2.5854	-2.8979	-2.5875	-2.7479	-2.9375	-2.5563	-2.7562	-2.6437	-2.6729	223.538	326.344	392.026	411.201	247.241	389.277	365.402	117.639	268.039	239.785	90.929	103.078	373.972	303.177	309.854	385.265	0.00023396	0.00018153	9.8799e-05	1193	2.8983e-06	3.779e-06	1252	248.11	3.5567e-06	3.3377e-06	308.07	84.752	66.861	19.346	3.0439e-06	27.34	0.00021039	0.00018828	5.2601e-05	1165.7	2.1317e-06	2.0311e-06	1232.9	246.93	2.1665e-06	1.9553e-06	306.46	84.352	66.639	19.469	2.0379e-06	27.455	233.086	117.829	122.000	63.990	226.165	227.204	64.429	71.534	233.668	212.020	70.729	78.477	78.563	84.612	231.965	84.559	-8191	255	
18179.551	1	1	0	0	0.30747	0.31013	0.16704	0.30779	0.11281	0.13856	0.33929	0.0058142	0.0817	0.032409	0.27344	0.070613	0.38595	0.13737	0.27768	0.39385	-2.2104	-2.4833	-2.5438	-2.7938	-2.6896	-2.5896	-3.0729	-2.6312	-2.6625	-2.6521	-2.4604	-2.8729	-2.6729	-2.5333	-2.8625	-2.5146	356.796	296.617	353.607	321.472	144.010	156.927	335.404	245.620	294.700	259.061	410.869	394.464	393.856	90.589	403.799	176.442	0.00024242	0.00021454	0.00010669	1181.3	2.3655e-06	3.9148e-06	1247	248.88	3.1557e-06	4.7165e-06	309.52	84.343	66.658	19.353	2.1836e-06	27.191	0.00020788	0.00017737	5.1015e-05	1161.2	2.0465e-06	1.9712e-06	1225.9	246.09	2.1062e-06	2.0255e-06	305.57	84.325	66.343	19.447	1.9831e-06	27.455	225.266	154.236	139.238	64.393	199.313	230.285	64.427	71.578	267.743	196.632	70.813	77.866	78.492	84.511	201.356	84.398	-8191	255	
18179.648	1	1	0	0	0.1579	0.091556	0.069149	0.25163	0.096008	0.073547	0.30127	0.034604	0.11053	0.24758	0.28165	0.067304	0.096827	0.19649	0.049731	0.24406	-2.1854	-2.6896	-2.5146	-2.8375	-2.575	-2.7104	-2.7854	-2.6542	-2.7854	-2.6771	-2.6125	-2.75	-2.6708	-2.5458	-2.8229	-2.5375	205.863	359.018	137.335	330.769	273.663	157.662	323.812	180.408	231.042	64.924	373.794	347.863	357.211	351.024	65.352	296.309	0.00022045	0.00032211	5.6646e-05	1180.7	2.8517e-06	1.3391e-06	1241.8	246.4	2.6224e-06	4.2466e-06	306.11	84.118	66.314	19.111	2.9951e-06	27.18	0.00020641	0.00017548	4.9753e-05	1154.2	1.9941e-06	1.9598e-06	1222.2	244.81	1.9897e-06	1.9154e-06	304.28	84.174	66.216	19.353	1.8994e-06	27.431	230.195	157.105	124.613	64.117	229.089	245.408	64.581	71.519	226.742	223.400	71.119	78.075	78.715	84.845	206.609	84.342	-8191	255	
18179.744	1	1	0	0	0.15428	0.13397	0.17753	0.17959	0.17438	0.30419	0.17077	0.10603	0.073335	0.015766	0.32759	0.086202	0.20956	0.17185	0.136	0.12825	-2.2458	-2.7083	-2.4146	-2.725	-2.65	-2.525	-3.1208	-2.7812	-2.6417	-2.8271	-2.7167	-2.8375	-2.6688	-2.4979	-2.6958	-2.5625	202.404	396.763	374.447	329.798	58.389	71.455	331.487	280.713	127.875	155.448	330.000	184.142	60.285	67.554	138.636	81.634	0.00024692	0.00024	0.00011214	1176.4	4.4141e-06	3.6173e-06	1251.1	246.76	2.3534e-06	3.2134e-06	308.21	84.172	66.177	19.222	2.3908e-06	27.148	0.00020359	0.00017544	4.8704e-05	1153.2	1.964e-06	1.9532e-06	1223.9	245.07	2.0585e-06	1.9639e-06	304.62	84.243	66.189	19.388	1.9181e-06	27.439	228.898	161.909	169.538	64.090	233.993	216.375	64.390	71.522	253.792	205.648	71.013	78.349	78.600	84.787	229.243	84.289	-8191	255	
18179.863	1	1	0	0	0.082028	0.10499	0.13521	0.34196	0.033498	0.10247	0.089519	0.17863	0.19388	0.18729	0.079767	0.1409	0.10429	0.25965	0.11312	0.3077	-2.2146	-2.6792	-2.3771	-2.7042	-2.7625	-2.5062	-2.9708	-2.625	-2.4542	-2.8896	-2.5625	-2.8021	-2.5312	-2.3854	-2.7375	-2.6458	250.489	309.831	133.607	399.646	159.170	208.426	80.287	336.181	303.593	330.442	112.249	330.904	71.803	67.447	190.171	392.614	0.00023656	0.00032273	7.0862e-05	1179.7	4.8715e-06	4.9399e-06	1236.2	246.89	3.3754e-06	3.0402e-06	306.23	84.343	65.957	19.183	3.9756e-06	27.002	0.00020187	0.00017289	4.8787e-05	1152	1.96e-06	1.9377e-06	1217.7	244.6	2.0265e-06	1.9047e-06	303.94	84.126	66.006	19.342	2.017e-06	27.361	226.391	161.044	153.880	63.938	199.082	206.628	64.495	71.478	235.186	197.704	71.108	78.094	78.385	85.159	212.266	84.384	-8191	255	
18179.961	1	1	0	0	0.07063	0.14245	0.22709	0.060434	0.10565	0.29686	0.25944	0.24926	0.02904	0.13887	0.26974	0.055947	0.12966	0.087795	0.066539	0.15097	-2.1083	-2.7812	-2.3271	-2.6083	-2.6958	-2.4729	-2.8396	-2.7667	-2.4625	-2.8792	-2.4521	-2.775	-2.8833	-2.5042	-2.6813	-2.7167	220.008	345.521	126.160	364.948	301.123	200.998	278.535	409.241	332.886	126.758	394.910	342.685	343.300	337.728	75.077	79.037	0.00023248	0.00043112	7.6213e-05	1175.5	3.0698e-06	2.6228e-06	1240.1	246.53	3.5223e-06	4.5589e-06	306.35	84.312	66.352	19.112	3.2788e-06	27.193	0.00019583	0.00017013	4.8995e-05	1151.4	1.9366e-06	1.805e-06	1216.8	244.59	1.9891e-06	1.9409e-06	304	84.123	66.235	19.306	1.9066e-06	27.333	226.766	140.797	121.253	64.417	216.773	224.967	64.643	71.488	239.193	226.470	70.805	78.211	78.363	84.827	207.370	84.337	-8191	255	
18180.055	1	1	0	0	0.1605	0.23051	0.14404	0.24058	0.19187	0.15719	0.34469	0.023943	0.22938	0.084643	0.36917	0.32085	0.052402	0.12517	0.19168	0.18797	-2.0458	-2.7708	-2.375	-2.7021	-2.6813	-2.3896	-3	-2.675	-2.6	-2.8271	-2.4625	-2.5417	-2.8729	-2.7188	-2.6958	-2.7938	286.440	179.025	118.088	326.548	237.395	96.099	357.143	248.788	377.543	170.458	370.300	355.199	289.746	412.675	299.517	391.780	0.00026744	0.00039172	6.4605e-05	1178.5	2.5541e-06	3.5715e-06	1237.7	245.91	2.941e-06	5.2476e-06	306.69	84.021	65.972	19.157	3.2552e-06	27.108	0.00020312	0.00016807	4.8342e-05	1149.9	1.8867e-06	1.8874e-06	1215.5	244.22	1.9839e-06	1.8732e-06	303.83	84.016	66.003	19.346	1.9629e-06	27.383	223.497	156.246	193.120	64.092	212.822	223.123	64.373	71.596	247.830	224.241	70.857	78.487	78.316	84.783	243.004	84.515	-8191	255	
18180.150	1	1	0	0	0.32696	0.18941	0.18534	0.14317	0.11491	0.28365	0.4106	0.15997	0.053239	0.19996	0.2211	0.31776	0.11717	0.12148	0.0725	0.31867	-2.0729	-2.8417	-2.4458	-2.5292	-2.7625	-2.4437	-2.7	-2.75	-2.5521	-2.8125	-2.7792	-2.8083	-2.9167	-2.7188	-2.6437	-2.7146	365.368	129.912	107.382	329.523	240.792	154.141	396.053	66.558	343.555	168.315	350.591	387.356	226.359	89.907	244.621	371.997	0.00024644	0.00031137	7.471e-05	1175.9	1.6461e-06	3.8576e-06	1239.6	246.45	3.7018e-06	3.4783e-06	305.61	84.114	66.278	19.219	1.7593e-06	27.285	0.00019256	0.00017202	4.7464e-05	1149.1	1.892e-06	1.8704e-06	1214.6	244.2	1.9036e-06	1.8953e-06	303.47	84.257	66.176	19.391	1.9443e-06	27.429	228.820	127.122	159.362	63.987	240.349	190.554	64.471	71.621	242.638	215.174	70.973	78.437	77.966	84.425	205.285	84.503	-8191	255	
18180.246	1	1	0	0	0.16255	0.054115	0.11657	0.28568	0.24435	0.18181	0.11909	0.30402	0.30948	0.10047	0.037121	0.19109	0.16737	0.22452	0.26179	0.33792	-1.9125	-2.6479	-2.5646	-2.5604	-2.8063	-2.4042	-2.9	-2.8542	-2.7271	-2.8312	-2.6312	-2.5167	-2.7104	-2.5083	-2.4458	-2.7958	140.875	236.285	54.910	399.567	156.128	74.792	335.860	167.396	151.313	280.540	287.561	393.820	264.929	396.918	95.458	236.284	0.00022094	0.00032069	8.1999e-05	1171.6	3.8192e-06	3.2517e-06	1241.6	245.95	2.6167e-06	3.3583e-06	305.92	83.878	65.978	19.231	3.0323e-06	27.133	0.00019851	0.00017006	4.6817e-05	1148.1	1.8841e-06	1.8665e-06	1217.5	243.82	2.024e-06	1.7967e-06	303.57	84.12	66.134	19.368	1.8606e-06	27.377	230.672	127.565	174.246	64.115	226.962	242.660	64.300	71.575	240.071	179.267	70.728	78.225	78.404	85.103	227.022	84.443	-8191	255	
#DATA ENDS
