BOXY.EXE: ISS Imagent and Oximeter Data Acquisition Program Version 0.80
Ascii Record File

#ACQ INFORMATION
2  Detector Channels 
16  External MUX Channels 
1  Auxiliary Channels 
5000  Waveform (CCF) Frequency (Hz)
1  Waveforms Skipped 
30  Waveforms Averaged 
1  Cycles Averaged 
16  Acquisitions per Waveform 
10.0806  Updata Rate (Hz) 

#FILE INFORMATION
TRUE -- External MUX Channel results are PARSED.
FALSE -- AC DC and Phase are NOT grouped.
TRUE -- Companion Program Settings File CREATED.
FALSE -- AC data not excluded
FALSE -- DC data not excluded
FALSE -- Phase data not excluded
FALSE -- Auxillary Chn. data not excluded
Tab delimiters

#CALIBRATION STATE
TRUE -- Waveform Calibration Values APPLIED.


#AUX CALIBRATION VALUES
Val Type	aux-1	

Term	1.0000e+00	
Factor	0.0000e+00	


#WF CALIBRATION VALUES
A = Detector Channel
Val Type	A-AC1	A-AC2	A-AC3	A-AC4	A-AC5	A-AC6	A-AC7	A-AC8	A-AC9	A-AC10	A-AC11	A-AC12	A-AC13	A-AC14	A-AC15	A-AC16	A-DC1	A-DC2	A-DC3	A-DC4	A-DC5	A-DC6	A-DC7	A-DC8	A-DC9	A-DC10	A-DC11	A-DC12	A-DC13	A-DC14	A-DC15	A-DC16	A-Ph1	A-Ph2	A-Ph3	A-Ph4	A-Ph5	A-Ph6	A-Ph7	A-Ph8	A-Ph9	A-Ph10	A-Ph11	A-Ph12	A-Ph13	A-Ph14	A-Ph15	A-Ph16	

Term	0.00000e+00	0.00000e+00	0.00000e+00	0.00000e+00	0.00000e+00	0.00000e+00	0.00000e+00	0.00000e+00	0.00000e+00	0.00000e+00	0.00000e+00	0.00000e+00	0.00000e+00	0.00000e+00	0.00000e+00	0.00000e+00	0.00000e+00	0.00000e+00	0.00000e+00	0.00000e+00	0.00000e+00	0.00000e+00	0.00000e+00	0.00000e+00	0.00000e+00	0.00000e+00	0.00000e+00	0.00000e+00	0.00000e+00	0.00000e+00	0.00000e+00	0.00000e+00	0.00000e+00	0.00000e+00	0.00000e+00	0.00000e+00	0.00000e+00	0.00000e+00	0.00000e+00	0.00000e+00	0.00000e+00	0.00000e+00	0.00000e+00	0.00000e+00	0.00000e+00	0.00000e+00	0.00000e+00	0.00000e+00	
Factor	1.00000e+00	1.00000e+00	1.00000e+00	1.00000e+00	1.00000e+00	1.00000e+00	1.00000e+00	1.00000e+00	1.00000e+00	1.00000e+00	1.00000e+00	1.00000e+00	1.00000e+00	1.00000e+00	1.00000e+00	1.00000e+00	1.00000e+00	1.00000e+00	1.00000e+00	1.00000e+00	1.00000e+00	1.00000e+00	1.00000e+00	1.00000e+00	1.00000e+00	1.00000e+00	1.00000e+00	1.00000e+00	1.00000e+00	1.00000e+00	1.00000e+00	1.00000e+00	X	X	X	X	X	X	X	X	X	X	X	X	X	X	X	X	

B = Detector Channel
Val Type	B-AC1	B-AC2	B-AC3	B-AC4	B-AC5	B-AC6	B-AC7	B-AC8	B-AC9	B-AC10	B-AC11	B-AC12	B-AC13	B-AC14	B-AC15	B-AC16	B-DC1	B-DC2	B-DC3	B-DC4	B-DC5	B-DC6	B-DC7	B-DC8	B-DC9	B-DC10	B-DC11	B-DC12	B-DC13	B-DC14	B-DC15	B-DC16	B-Ph1	B-Ph2	B-Ph3	B-Ph4	B-Ph5	B-Ph6	B-Ph7	B-Ph8	B-Ph9	B-Ph10	B-Ph11	B-Ph12	B-Ph13	B-Ph14	B-Ph15	B-Ph16	

Term	0.00000e+00	0.00000e+00	0.00000e+00	0.00000e+00	0.00000e+00	0.00000e+00	0.00000e+00	0.00000e+00	0.00000e+00	0.00000e+00	0.00000e+00	0.00000e+00	0.00000e+00	0.00000e+00	0.00000e+00	0.00000e+00	0.00000e+00	0.00000e+00	0.00000e+00	0.00000e+00	0.00000e+00	0.00000e+00	0.00000e+00	0.00000e+00	0.00000e+00	0.00000e+00	0.00000e+00	0.00000e+00	0.00000e+00	0.00000e+00	0.00000e+00	0.00000e+00	-8.38749e+01	-1.27561e+02	-1.29383e+02	-1.82058e+02	-6.19891e+01	-7.14628e+01	-1.55747e+02	-1.62015e+02	-5.82974e+01	-6.86231e+01	-1.71238e+02	-1.71237e+02	-1.82061e+02	-1.77401e+02	-5.37240e+01	-1.50384e+02	
Factor	1.42709e-05	1.38839e-04	3.86687e-05	4.05436e-01	1.18614e-06	1.51150e-06	1.47071e-01	4.85511e-02	1.02166e-06	1.47325e-06	7.65610e-02	2.53067e-02	2.09732e-02	7.51348e-03	1.33112e-06	1.08675e-02	6.93059e-06	9.99898e-06	2.78233e-06	2.11537e-01	1.08082e-07	1.11375e-07	7.28781e-02	2.56159e-02	1.03966e-07	1.10888e-07	3.90711e-02	1.30328e-02	1.12180e-02	3.99480e-03	1.06624e-07	5.59534e-03	X	X	X	X	X	X	X	X	X	X	X	X	X	X	X	X	



#DISTANCE SETTINGS
A = Detector Channel
A-1	A-2	A-3	A-4	A-5	A-6	A-7	A-8	A-9	A-10	A-11	A-12	A-13	A-14	A-15	A-16	

2.5000e+00	3.0000e+00	2.5000e+00	3.0000e+00	2.0000e+00	3.0000e+00	1.5000e+00	3.0000e+00	3.0000e+00	3.0000e+00	3.0000e+00	3.0000e+00	3.0000e+00	3.0000e+00	1.5000e+00	3.0000e+00	

B = Detector Channel
B-1	B-2	B-3	B-4	B-5	B-6	B-7	B-8	B-9	B-10	B-11	B-12	B-13	B-14	B-15	B-16	

1.0000e+01	1.0000e+01	1.0000e+01	1.4400e+00	1.0000e+01	1.0000e+01	1.5100e+00	1.9400e+00	1.0000e+01	1.0000e+01	1.9900e+00	2.4900e+00	2.4100e+00	2.9000e+00	1.0000e+01	2.9800e+00	




#DATA BEGINS
time	group	step	mark	flag	A-AC1	A-AC2	A-AC3	A-AC4	A-AC5	A-AC6	A-AC7	A-AC8	A-AC9	A-AC10	A-AC11	A-AC12	A-AC13	A-AC14	A-AC15	A-AC16	A-DC1	A-DC2	A-DC3	A-DC4	A-DC5	A-DC6	A-DC7	A-DC8	A-DC9	A-DC10	A-DC11	A-DC12	A-DC13	A-DC14	A-DC15	A-DC16	A-Ph1	A-Ph2	A-Ph3	A-Ph4	A-Ph5	A-Ph6	A-Ph7	A-Ph8	A-Ph9	A-Ph10	A-Ph11	A-Ph12	A-Ph13	A-Ph14	A-Ph15	A-Ph16	B-AC1	B-AC2	B-AC3	B-AC4	B-AC5	B-AC6	B-AC7	B-AC8	B-AC9	B-AC10	B-AC11	B-AC12	B-AC13	B-AC14	B-AC15	B-AC16	B-DC1	B-DC2	B-DC3	B-DC4	B-DC5	B-DC6	B-DC7	B-DC8	B-DC9	B-DC10	B-DC11	B-DC12	B-DC13	B-DC14	B-DC15	B-DC16	B-Ph1	B-Ph2	B-Ph3	B-Ph4	B-Ph5	B-Ph6	B-Ph7	B-Ph8	B-Ph9	B-Ph10	B-Ph11	B-Ph12	B-Ph13	B-Ph14	B-Ph15	B-Ph16	aux-1	digaux	

25821.574	1	1	0	256	0.22355	0.2143	0.15145	0.12492	0.31248	0.20246	0.20483	0.38335	0.11287	0.1241	0.12899	0.43138	0.088671	0.23911	0.074189	0.097116	-2.1125	-2.7854	-2.7583	-2.7542	-2.9938	-2.5	-2.725	-2.8875	-2.4104	-2.9333	-2.8292	-2.5438	-3.0646	-2.5104	-2.6208	-2.8937	347.325	232.509	413.770	489.217	351.175	298.761	433.776	447.982	237.147	312.981	281.743	441.521	379.750	448.363	276.816	433.380	0.00026471	0.00034299	9.187e-05	1140.3	4.5663e-06	5.6672e-06	1184.4	232.36	4.1365e-06	5.6591e-07	291.39	82.845	64.7	18.311	3.0923e-06	26.162	0.00058776	0.00071464	0.00019766	1128	7.8332e-06	7.951e-06	1176.8	231.65	7.5581e-06	7.9749e-06	291.86	83.351	65.022	18.657	7.6898e-06	26.866	236.076	223.518	281.860	165.237	357.452	321.489	165.316	172.481	283.159	246.130	171.878	178.401	179.128	186.380	326.348	185.832	-8191	255	
25821.693	1	1	0	0	0.15689	0.15863	0.16656	0.044103	0.22193	0.17957	0.30579	0.063742	0.17436	0.32596	0.18877	0.33027	0.19977	0.15505	0.13633	0.10244	-2.1646	-2.7042	-2.675	-2.5812	-2.8083	-2.6458	-2.8688	-3.1083	-2.4917	-2.8833	-3.0563	-2.5729	-2.6521	-2.7271	-2.6792	-2.9333	319.237	463.894	349.951	375.655	509.099	461.214	473.951	343.405	351.261	289.352	439.863	467.203	428.695	270.688	219.317	401.651	0.00022152	0.00049573	8.69e-05	1134.5	3.649e-06	1.6523e-06	1191.1	234.02	5.1849e-06	2.4331e-06	291.77	82.229	64.887	18.344	4.8987e-06	26.321	0.00058402	0.00071668	0.00020057	1126.6	7.9332e-06	7.8969e-06	1178.2	232.43	7.4728e-06	7.9308e-06	292.6	83.103	64.998	18.624	7.7502e-06	26.925	240.485	241.002	272.802	164.868	301.925	299.985	165.299	172.267	293.379	291.512	172.161	178.775	179.036	186.055	314.815	185.910	-8191	255	
25821.789	1	1	0	0	0.27183	0.059939	0.098803	0.015875	0.12828	0.17392	0.29859	0.38159	0.088699	0.13072	0.23473	0.24596	0.15502	0.19558	0.12345	0.068369	-2.2396	-2.7687	-2.7021	-2.6312	-2.8021	-2.8604	-2.7062	-2.9313	-2.7438	-2.7396	-2.9625	-2.5042	-2.8542	-2.7562	-2.5896	-2.9479	259.869	352.264	464.994	288.973	329.009	302.036	439.239	442.620	201.455	329.505	231.901	167.372	359.586	490.073	406.512	461.963	0.00025013	0.00049563	9.5851e-05	1140.2	4.1765e-06	1.3709e-06	1194.4	232.99	3.4478e-06	4.1955e-06	292.28	82.527	64.574	18.254	2.7752e-06	26.177	0.00058607	0.00071214	0.00019789	1126.8	8.035e-06	8.1136e-06	1180.4	232.4	7.7752e-06	8.102e-06	293	83.313	65.019	18.669	7.7316e-06	26.925	244.542	221.474	313.103	165.078	332.503	266.178	165.259	172.295	324.947	287.997	171.981	178.572	178.916	186.072	353.935	185.367	-8191	255	
25821.861	1	1	0	0	0.14052	0.14023	0.26163	0.12472	0.14717	0.15596	0.073428	0.1407	0.2233	0.33486	0.1131	0.16846	0.20958	0.21435	0.24604	0.060209	-2.2604	-2.5604	-2.7583	-2.6042	-2.9854	-2.7375	-2.6562	-2.8187	-2.65	-2.5542	-2.9792	-2.4854	-2.7396	-2.7792	-2.5708	-3.0542	239.156	438.722	232.313	364.310	308.764	293.063	354.947	445.976	476.009	423.746	465.991	168.476	165.756	200.280	312.756	214.152	0.0002327	8.485e-05	5.2033e-05	1132.6	2.4348e-06	2.4617e-06	1191.2	232.97	4.4003e-06	4.003e-06	293.67	82.374	64.581	18.145	2.2948e-06	26.267	0.00058309	0.00072518	0.00020239	1125.4	7.8375e-06	7.9199e-06	1176.9	232.13	7.5867e-06	7.8194e-06	292.68	83.319	64.945	18.601	7.7973e-06	26.949	235.281	337.364	198.585	165.167	336.542	331.785	165.361	172.121	299.038	282.103	172.215	178.700	179.259	186.011	295.627	185.872	-8191	255	
25821.957	1	1	0	0	0.1268	0.14619	0.17285	0.058947	0.29165	0.10974	0.33187	0.22904	0.13772	0.20149	0.19997	0.31525	0.31572	0.097561	0.23086	0.12507	-2.3271	-2.7438	-2.8271	-2.6125	-2.7875	-2.8979	-2.875	-2.9271	-2.6813	-2.6229	-2.9	-2.7333	-2.6875	-2.85	-2.525	-2.9521	426.434	370.561	155.316	164.060	512.199	388.721	493.427	416.901	222.708	161.535	246.397	437.990	167.856	198.794	499.793	292.398	0.00022931	0.00024839	0.00016712	1135	3.7607e-06	3.025e-06	1188.8	232.58	3.4935e-06	2.6228e-06	292.07	81.847	64.764	18.332	3.551e-06	26.496	0.00058266	0.00071736	0.00020081	1128.6	8.0845e-06	8.0394e-06	1178.3	231.91	7.7076e-06	7.7876e-06	292.61	83.166	65.047	18.673	7.7778e-06	26.955	232.438	303.337	221.860	165.019	276.577	351.457	165.321	172.438	298.053	366.082	172.421	178.720	179.144	186.173	321.402	185.916	-8191	255	
25822.076	1	1	0	0	0.046329	0.097226	0.19547	0.11385	0.121	0.30381	0.176	0.21229	0.35355	0.21347	0.10668	0.1589	0.063764	0.28514	0.11235	0.035993	-2.2375	-2.6542	-2.8563	-2.6458	-2.725	-2.8417	-2.8771	-3.0396	-2.7729	-2.6271	-3.0417	-2.5229	-2.6	-2.8792	-2.5583	-2.8292	334.229	487.297	410.004	222.481	389.917	192.210	158.916	387.773	261.525	455.552	178.776	198.813	182.158	429.621	406.957	512.667	0.00020655	0.00040966	0.00013841	1135.4	3.065e-06	4.1371e-06	1188.3	232.24	2.7802e-06	3.6861e-06	291.77	82.118	64.265	18.32	5.1158e-06	26.378	0.000581	0.0007083	0.00019762	1126.3	7.9737e-06	7.8373e-06	1177.4	232.2	7.7269e-06	7.7079e-06	292.67	83.163	64.964	18.633	7.6012e-06	26.912	248.186	222.268	251.850	165.186	276.854	301.566	165.287	172.408	305.086	286.782	171.962	178.914	178.926	185.810	293.793	185.874	-8191	255	
25822.174	1	1	0	0	0.17666	0.1677	0.15038	0.24392	0.17715	0.20496	0.037349	0.1689	0.16923	0.13428	0.28398	0.11696	0.20431	0.053217	0.1584	0.28302	-2.2646	-2.45	-2.9	-2.5438	-2.4083	-2.8021	-2.675	-2.7417	-2.675	-2.5687	-2.9104	-2.6312	-2.625	-2.8646	-2.4167	-2.775	252.592	330.951	212.955	197.433	377.126	345.477	471.920	474.278	461.508	214.806	358.695	184.724	396.650	388.516	171.540	177.066	0.00024099	0.00040241	0.00012058	1135.3	3.1917e-06	4.8798e-06	1191.7	233.71	2.4752e-06	3.4e-06	289.74	81.516	64.262	18.191	5.1516e-06	26.365	0.00057706	0.00068926	0.00019388	1126.1	7.6459e-06	7.7988e-06	1178.4	232.39	7.4895e-06	7.8139e-06	291.78	83.075	64.954	18.593	7.5416e-06	26.942	238.688	260.997	222.372	164.957	307.133	286.720	165.346	172.533	315.221	279.316	171.932	178.577	178.782	186.471	219.616	185.645	-8191	255	
25822.270	1	1	0	0	0.17153	0.30095	0.17714	0.086481	0.06689	0.19082	0.24475	0.24435	0.13928	0.20746	0.34269	0.11688	0.10359	0.022525	0.065228	0.22908	-2.2354	-2.5062	-2.7979	-2.8167	-2.7167	-2.7938	-2.7042	-2.7792	-2.6958	-2.5708	-2.9604	-2.8333	-2.5917	-3.0312	-2.7938	-2.6604	459.813	433.595	299.625	192.560	196.626	342.798	432.777	446.456	489.227	329.032	182.382	503.971	496.597	305.902	291.039	211.971	0.0002552	0.00054016	4.6043e-05	1132	5.0173e-06	3.2182e-06	1188.9	232.44	4.3092e-06	1.1831e-06	292.12	82.243	64.288	18.454	3.555e-06	26.364	0.00056037	0.00067741	0.00019493	1125.3	7.5009e-06	7.8166e-06	1176.3	232.46	7.5315e-06	7.8765e-06	291.72	83.154	64.901	18.665	7.3984e-06	26.91	246.439	232.074	272.755	165.430	301.031	312.217	165.211	172.360	336.925	254.122	172.009	178.331	179.246	185.910	305.622	185.771	-8191	255	
25822.391	1	1	0	0	0.13494	0.12834	0.17832	0.18011	0.061662	0.071073	0.27631	0.13289	0.33148	0.090431	0.2651	0.16744	0.16422	0.40026	0.17283	0.029482	-2.2875	-2.4583	-2.8292	-2.7521	-2.6437	-2.9	-2.8646	-2.6771	-2.9375	-2.5083	-2.9292	-2.9625	-2.5687	-2.9521	-2.65	-2.8708	380.864	389.560	362.696	224.357	458.838	230.871	459.105	485.890	344.563	218.523	509.502	202.054	472.782	513.770	464.220	430.903	0.00028472	0.0004713	8.1055e-05	1131.4	2.8572e-06	2.1497e-06	1187.6	231.68	1.6991e-06	5.5776e-06	292.78	82.401	64.264	18.307	4.0576e-06	26.312	0.00058028	0.00070518	0.00019726	1124.8	7.7373e-06	7.7271e-06	1175.9	231.59	7.5022e-06	7.6168e-06	292.96	83.27	64.954	18.592	7.5572e-06	26.901	235.227	224.018	256.556	165.385	334.507	291.490	165.345	172.760	327.202	264.796	172.270	178.694	178.955	186.017	276.547	185.535	-8191	255	
25822.463	1	1	0	0	0.22555	0.078454	0.057299	0.33798	0.11722	0.11776	0.37193	0.28129	0.24082	0.15578	0.099289	0.13881	0.19024	0.18238	0.11616	0.095609	-2.4792	-2.5146	-2.7917	-2.7188	-2.7333	-3.0438	-2.7354	-2.5979	-2.8292	-2.4354	-2.8187	-2.9667	-2.5229	-2.9125	-2.8625	-2.6083	200.381	337.050	434.869	435.762	243.668	169.950	449.561	426.414	199.065	508.964	196.553	245.636	240.121	460.844	316.834	417.431	0.00026983	0.00027707	3.7015e-05	1135.2	2.4303e-06	4.3809e-06	1186.9	232.4	5.1298e-06	4.5823e-06	290.81	82.129	64.385	18.307	1.5617e-06	26.27	0.00056499	0.00068595	0.00019824	1123.5	7.4126e-06	7.8742e-06	1175.8	231.93	7.4648e-06	7.6293e-06	291.48	83.157	64.921	18.615	7.5154e-06	26.943	243.927	267.530	253.440	165.154	286.368	285.348	165.403	172.506	302.580	350.912	172.189	178.558	179.118	186.402	315.520	185.306	-8191	255	
25822.559	1	1	0	0	0.093867	0.12073	0.19461	0.17484	0.40264	0.36407	0.31564	0.1638	0.066777	0.34081	0.21566	0.018882	0.14195	0.17233	0.10555	0.22301	-2.3917	-2.6625	-2.5958	-2.8708	-2.45	-3.0062	-2.9979	-2.7042	-2.9	-2.5646	-2.8417	-2.8312	-2.4979	-2.7188	-2.6146	-2.7167	336.401	338.935	199.451	439.881	479.116	378.724	473.965	505.799	339.381	375.052	215.300	241.678	402.637	399.334	386.456	419.332	0.00025761	0.00042575	3.6264e-05	1133.7	3.6077e-06	3.0302e-06	1185.3	232.04	3.1518e-06	4.1766e-06	290.95	82.614	64.405	18.317	1.8278e-06	26.443	0.00056428	0.00070182	0.00018904	1121.6	7.4754e-06	7.931e-06	1175.4	231.2	7.4128e-06	7.7321e-06	291.42	83.237	64.946	18.633	7.8333e-06	26.941	242.612	255.013	314.744	165.560	302.842	230.054	165.235	172.695	302.579	307.811	172.148	178.664	178.812	186.262	263.037	185.329	-8191	255	
25822.680	1	1	0	0	0.25356	0.11779	0.12279	0.21292	0.13876	0.26491	0.23016	0.23718	0.16984	0.18522	0.21097	0.32378	0.026623	0.33602	0.10487	0.084983	-2.3187	-2.5521	-2.5729	-2.8125	-2.4729	-3.0292	-2.9083	-2.4437	-2.9417	-2.725	-2.7729	-2.8958	-2.5729	-2.95	-2.7458	-2.55	437.669	440.531	381.954	276.539	454.085	200.503	441.238	410.133	210.505	166.403	431.293	158.405	383.824	470.303	331.481	498.743	0.00024434	0.0003105	3.8654e-05	1137.3	4.3009e-06	1.7514e-06	1186.4	232.82	3.2658e-06	5.9201e-06	291.68	82.606	64.17	18.2	4.8482e-06	26.187	0.00057215	0.00071049	0.0001965	1123.3	7.6407e-06	7.6651e-06	1174.7	231.29	7.4737e-06	7.7116e-06	292.24	83.214	64.881	18.589	7.4379e-06	26.85	248.840	241.574	177.525	165.246	345.714	265.941	165.341	172.478	308.071	342.283	171.959	178.580	178.798	186.521	308.873	185.671	-8191	255	
25822.773	1	1	0	0	0.20926	0.42198	0.22946	0.17043	0.085725	0.11444	0.1083	0.021715	0.10608	0.11169	0.13822	0.25058	0.021969	0.046365	0.091508	0.14667	-2.2625	-2.6625	-2.4583	-3.1354	-2.5771	-2.8375	-2.925	-2.6	-2.9	-2.7208	-2.5563	-2.9667	-2.5625	-2.9062	-2.775	-2.5375	425.781	455.679	300.638	433.665	264.670	430.970	162.186	458.833	352.490	386.364	287.639	332.168	232.988	481.505	316.062	470.394	0.00026734	0.00028054	0.0001127	1134	1.9725e-06	1.6189e-06	1189.2	232.74	3.6484e-06	6.0171e-06	293.1	81.979	63.929	18.199	2.5651e-06	26.525	0.00058084	0.00071205	0.00019462	1121.1	7.6975e-06	8.0262e-06	1176.1	231.45	7.3405e-06	7.6621e-06	292.24	83.141	64.692	18.603	7.6625e-06	26.959	242.776	259.910	217.906	165.534	302.964	373.468	165.197	172.614	266.300	328.757	171.739	178.478	179.080	186.195	328.935	185.566	-8191	255	
25822.869	1	1	0	0	0.18419	0.35154	0.17743	0.14906	0.44159	0.31666	0.15187	0.17949	0.063946	0.16519	0.27036	0.060903	0.11701	0.15204	0.12933	0.24789	-2.2521	-2.5229	-2.7062	-3.0125	-2.675	-2.7625	-3.0604	-2.5729	-2.9042	-2.7479	-2.7438	-2.9	-2.6312	-2.6125	-2.8083	-2.6292	378.644	301.135	416.498	452.917	213.387	263.124	218.641	331.497	431.344	425.712	450.838	181.823	352.883	488.968	259.048	481.205	0.00024043	0.00041453	6.1091e-05	1130.9	3.1911e-06	3.856e-06	1190.6	232.85	3.6281e-06	1.9128e-06	292.46	82.167	63.883	18.235	4.46e-06	26.437	0.00056962	0.00070062	0.00019744	1122.4	7.5874e-06	7.7545e-06	1175.1	231.51	7.504e-06	7.8298e-06	292.41	83.06	64.683	18.634	7.6281e-06	26.945	237.264	244.009	504.211	165.768	265.718	277.635	165.333	172.646	300.290	358.257	172.132	178.468	179.166	186.162	365.405	185.404	-8191	255	
25822.990	1	1	0	0	0.076328	0.23491	0.24074	0.051348	0.17583	0.37036	0.063858	0.059337	0.010828	0.22387	0.13122	0.084158	0.1586	0.274	0.11755	0.072143	-2.4	-2.9562	-2.5208	-3.1208	-2.5958	-2.6229	-2.9938	-2.6646	-2.9313	-3.0667	-2.7646	-3.0354	-2.8396	-2.6354	-3.0563	-2.6333	426.996	490.057	238.362	280.036	203.881	464.865	438.769	308.613	444.602	165.378	329.555	215.440	449.776	371.896	275.026	504.335	0.00022515	0.00026166	9.5299e-05	1132.5	4.0636e-06	8.1271e-08	1189.9	232.86	6.2167e-07	3.0824e-06	291.57	81.909	64.652	18.336	1.8083e-06	26.277	0.00058634	0.00070468	0.00019726	1121.1	7.7522e-06	7.6853e-06	1175.8	231.62	7.4784e-06	7.928e-06	292.16	82.897	64.823	18.616	7.5243e-06	26.883	238.770	217.418	283.561	165.069	312.139	328.578	165.405	172.428	242.497	345.082	172.315	178.875	178.734	186.522	298.270	185.431	-8191	255	
25823.086	1	1	0	0	0.056019	0.17431	0.22562	0.23409	0.021234	0.28358	0.063636	0.16122	0.29545	0.16393	0.19642	0.10008	0.32479	0.04246	0.1222	0.27204	-2.3479	-2.8667	-2.5083	-2.85	-2.7771	-2.7125	-3.1854	-2.7188	-2.8125	-2.8917	-2.8729	-3.075	-2.7125	-2.5896	-2.8583	-2.6375	407.664	362.561	394.483	436.923	458.326	420.042	413.512	494.303	447.335	249.019	498.204	352.703	202.118	405.965	254.522	458.670	0.00024531	0.0005097	3.3801e-05	1136.8	5.7563e-06	1.6582e-06	1190.3	233.74	3.8032e-06	3.769e-06	290.76	82.252	64.178	18.246	2.6548e-06	26.115	0.00058988	0.00069528	0.00019631	1124	7.684e-06	7.8612e-06	1174.4	232.08	7.447e-06	7.7432e-06	291.48	82.961	64.874	18.577	7.6618e-06	26.818	242.873	277.356	222.356	165.427	333.261	259.660	165.411	172.356	298.137	317.571	172.215	178.832	179.261	185.977	300.736	185.769	-8191	255	
25823.158	1	1	0	0	0.21488	0.17379	0.082776	0.073116	0.079725	0.14148	0.066252	0.2733	0.22393	0.23536	0.020702	0.20635	0.26586	0.25088	0.20259	0.12122	-2.2792	-2.7875	-2.6042	-2.6646	-2.7875	-2.6625	-2.9625	-2.7083	-2.6688	-2.7458	-2.6417	-2.8688	-2.7979	-2.55	-2.9875	-2.7188	225.062	493.682	185.827	169.482	252.364	403.018	476.285	512.164	247.967	196.589	221.086	436.297	176.692	179.845	269.950	403.168	0.00023674	0.0004444	0.00011739	1136.8	8.0152e-07	4.2743e-06	1185.7	232.47	2.4074e-06	2.7064e-06	290.89	82.064	63.965	18.18	1.0126e-06	26.215	0.00057281	0.00071122	0.00019555	1124.4	7.6767e-06	7.7798e-06	1172.5	231.17	7.3991e-06	7.7095e-06	291.05	83.026	64.719	18.563	7.4917e-06	26.871	240.294	245.774	288.192	165.276	283.421	331.736	165.436	172.454	305.034	302.385	172.202	178.837	179.048	186.324	158.614	185.514	-8191	255	
25823.254	1	1	0	0	0.10308	0.11206	0.13031	0.084365	0.12246	0.37276	0.11769	0.32546	0.25005	0.16419	0.13565	0.1899	0.25362	0.17322	0.21639	0.14509	-2.3729	-2.9	-2.6146	-2.7875	-2.7104	-2.5479	-3.1042	-2.7646	-2.7167	-3.0333	-2.5958	-3.0979	-2.9479	-2.4229	-2.7833	-2.8104	482.010	305.870	312.901	503.095	331.073	462.104	466.875	486.816	273.152	348.700	460.976	477.990	505.870	367.117	204.149	383.547	0.00024048	0.00040524	9.805e-05	1130.8	4.0163e-06	5.1699e-06	1184.3	231.41	1.6489e-06	4.5829e-07	291.04	82.285	64.217	18.27	2.2796e-06	26.408	0.00056718	0.00069024	0.00019312	1120.9	7.6855e-06	7.819e-06	1171.9	230.88	7.4925e-06	7.5154e-06	291.91	82.983	64.711	18.65	7.4963e-06	26.879	242.716	282.436	312.191	165.254	268.423	280.897	165.384	172.284	307.132	455.508	172.015	178.759	178.876	186.466	299.604	185.288	-8191	255	
25823.350	1	1	0	0	0.035867	0.19359	0.14421	0.08267	0.12531	0.44562	0.25597	0.18153	0.097493	0.12079	0.1925	0.16157	0.32974	0.093597	0.13411	0.031693	-2.0979	-2.6708	-2.6083	-2.7812	-2.6437	-2.5542	-2.8583	-2.8771	-2.55	-2.8104	-2.6292	-2.6813	-2.7604	-2.4562	-2.8021	-2.7812	333.996	182.203	194.555	485.388	494.358	179.099	449.639	447.863	403.210	161.343	459.371	499.395	489.596	368.259	214.935	274.842	0.00025244	0.00034516	7.6236e-05	1135.7	3.7452e-06	3.8674e-06	1182.6	231.49	8.3362e-07	3.9898e-06	290.17	82.471	64.178	18.169	2.6659e-06	26.402	0.00056145	0.00069393	0.00019306	1122.1	7.5752e-06	7.7619e-06	1171	231.17	7.6595e-06	7.6055e-06	290.76	83.09	64.797	18.53	7.4961e-06	26.845	242.160	279.964	264.823	165.415	374.582	345.441	165.362	172.254	255.450	296.868	172.229	178.409	178.858	185.953	323.559	185.714	-8191	255	
25823.471	1	1	0	0	0.16055	0.2337	0.18237	0.14934	0.23596	0.16742	0.048442	0.10221	0.1049	0.37393	0.33466	0.14236	0.15227	0.17902	0.0051015	0.15639	-2.0375	-2.95	-2.5792	-2.6458	-2.8	-2.5167	-3.0563	-2.9792	-2.3729	-3.0125	-2.6896	-2.5542	-2.8438	-2.5458	-2.8187	-2.9146	498.395	230.520	467.283	200.339	488.621	269.671	471.849	163.251	348.042	454.558	483.906	183.392	505.861	490.231	158.178	417.790	0.00023614	0.00041296	0.00010398	1129	2.7294e-06	3.9416e-06	1182.4	231.66	2.7802e-06	3.9352e-06	291.15	81.992	64.004	18.221	7.0294e-06	26.15	0.00056939	0.00068893	0.00019617	1120	7.5407e-06	7.7995e-06	1169.2	230.75	7.4321e-06	7.6074e-06	291.12	82.976	64.537	18.573	7.6421e-06	26.835	238.778	226.036	223.157	165.843	268.372	280.397	165.447	172.385	320.607	329.474	172.144	178.646	178.926	186.427	304.466	185.538	-8191	255	
25823.566	1	1	0	0	0.017823	0.16626	0.14533	0.14677	0.16638	0.11643	0.40376	0.24185	0.10269	0.039351	0.14844	0.15617	0.16165	0.061009	0.12275	0.27706	-2.0062	-2.9125	-2.85	-2.6	-3.0542	-2.5312	-3.0104	-2.7792	-2.6167	-2.8917	-2.7542	-2.65	-2.9521	-2.5271	-2.7146	-2.9292	359.171	304.518	196.586	174.779	396.239	297.154	464.339	457.560	274.447	483.710	366.226	463.089	430.406	359.378	155.545	473.142	0.00028308	0.00045543	1.8804e-05	1126.3	1.89e-06	3.631e-06	1183.1	231.71	1.8048e-06	3.7134e-06	290.16	82.344	64.186	18.179	1.6905e-06	26.165	0.00056663	0.00068674	0.00019347	1115.5	7.4336e-06	7.486e-06	1169.3	230.73	7.4141e-06	7.4912e-06	290.96	82.826	64.682	18.56	7.3875e-06	26.769	241.143	230.691	261.634	165.528	259.046	284.344	165.463	172.559	349.426	310.480	171.893	178.563	179.023	186.049	400.162	185.744	-8191	255	
25823.662	1	1	0	0	0.10871	0.096578	0.23409	0.22639	0.089	0.11935	0.44358	0.41536	0.13081	0.17206	0.036019	0.038014	0.090531	0.25206	0.020728	0.18596	-2.1792	-2.8104	-2.7229	-2.625	-2.8479	-2.7354	-2.7896	-2.9479	-2.4604	-2.7271	-2.5458	-2.5812	-2.9688	-2.6167	-2.5625	-2.8937	418.051	415.552	482.178	396.863	331.160	455.943	513.058	155.725	435.678	451.850	187.599	211.034	187.101	203.534	207.720	487.540	0.00024283	0.00025913	0.00016221	1118.3	3.171e-06	2.1896e-06	1179.9	231.17	2.9018e-06	3.2755e-06	289.99	81.868	63.603	17.997	4.2291e-06	26.052	0.00057172	0.00069595	0.00019207	1113.2	7.4653e-06	7.6076e-06	1168.5	230.58	7.1317e-06	7.5108e-06	290.52	82.734	64.305	18.479	7.2511e-06	26.744	238.488	276.968	245.512	165.098	309.234	277.968	165.390	172.572	306.781	259.686	172.061	178.577	178.787	185.967	319.587	185.850	-8191	255	
25823.760	1	1	0	0	0.11022	0.11497	0.074935	0.18983	0.26806	0.11197	0.10716	0.14485	0.094066	0.018193	0.15126	0.30647	0.03357	0.19762	0.15259	0.25529	-2.1	-2.875	-2.6542	-2.3792	-2.9458	-2.6667	-2.9542	-2.8646	-2.5271	-2.8125	-2.8625	-2.6208	-2.8771	-2.725	-2.5521	-2.8646	236.329	240.914	368.496	214.212	378.074	283.915	465.942	483.127	194.173	251.142	411.763	227.140	274.407	229.676	350.757	454.183	0.00023528	0.00023253	0.00013043	1131.5	1.4121e-06	2.0189e-06	1179.1	231.02	3.0339e-06	4.0133e-06	289.94	81.629	64.242	18.122	5.155e-06	26.356	0.00054765	0.00067889	0.00018877	1113.4	7.2514e-06	7.4886e-06	1166.5	230.1	7.0368e-06	7.3297e-06	289.99	82.493	64.672	18.47	7.1993e-06	26.84	240.824	300.949	282.563	164.850	242.053	289.474	165.410	172.362	276.858	293.234	172.464	178.787	179.010	186.149	301.506	185.376	-8191	255	
25823.854	1	1	0	0	0.16293	0.059641	0.077028	0.22277	0.20582	0.21753	0.1793	0.23683	0.23652	0.19072	0.39748	0.15111	0.19085	0.20019	0.046286	0.2201	-2.1854	-2.8208	-2.9458	-2.8187	-2.9729	-2.6896	-2.7417	-2.9104	-2.5604	-2.875	-2.8625	-2.6875	-2.9604	-2.8958	-2.4979	-2.9188	264.184	206.290	249.896	164.130	202.476	166.697	464.704	327.350	249.525	386.663	496.362	377.945	421.028	507.555	311.122	440.867	0.00027412	0.00064245	0.00011085	1119.6	1.2819e-06	3.8762e-06	1174.5	230.49	2.9184e-06	2.6389e-06	290.2	81.482	63.442	18.211	1.2921e-06	26.156	0.00055463	0.00068074	0.00018272	1111.8	7.3027e-06	7.3011e-06	1164.3	229.76	7.2007e-06	7.4997e-06	290.14	82.55	64.251	18.443	7.1736e-06	26.678	238.923	269.673	182.861	165.255	299.636	305.388	165.371	172.380	273.400	311.181	172.147	178.663	178.951	186.028	299.210	186.217	-8191	255	
25823.951	1	1	0	0	0.17109	0.15081	0.15698	0.24939	0.081201	0.081405	0.11943	0.15265	0.11649	0.067193	0.15052	0.064344	0.23069	0.28518	0.084292	0.21863	-2.2021	-2.6042	-2.8271	-2.5604	-2.7896	-2.8146	-2.7146	-2.8896	-2.6104	-2.5854	-2.8104	-2.5187	-2.6458	-2.7396	-2.4875	-2.8167	308.420	178.720	264.069	262.754	156.631	501.049	353.588	487.273	499.570	454.465	308.721	360.315	206.480	478.471	451.554	433.642	0.00022827	0.00027683	0.00012813	1119.7	1.7722e-06	3.7756e-06	1180.2	230.72	8.7246e-07	3.7973e-06	290	81.451	63.571	18.254	1.5096e-06	26.037	0.00055108	0.00066843	0.00018046	1111.8	7.3385e-06	7.2974e-06	1164.6	229.81	7.0151e-06	7.3315e-06	289.39	82.444	64.227	18.469	6.9099e-06	26.698	244.611	243.841	248.040	165.522	255.822	281.993	165.407	172.444	265.637	290.109	172.060	178.714	179.365	186.159	399.011	185.509	-8191	255	
25824.070	1	1	0	0	0.19719	0.16893	0.050717	0.26517	0.13554	0.34405	0.20315	0.24997	0.40418	0.14269	0.2162	0.22938	0.095268	0.042463	0.22646	0.22261	-2.1979	-2.5667	-2.7521	-2.6104	-2.7521	-2.7458	-2.6521	-2.8812	-2.5771	-2.5542	-3.05	-2.65	-2.7958	-2.8312	-2.55	-2.925	447.028	507.579	343.196	160.134	351.405	460.335	404.273	432.545	483.719	469.432	381.422	171.104	507.095	269.640	297.065	420.115	0.00023085	0.00034571	8.5926e-05	1121.2	4.9741e-06	4.2651e-06	1177.7	231.58	2.8538e-06	5.1378e-06	288.98	82.034	64.028	18.176	5.12e-07	26.025	0.00053065	0.00066297	0.0001849	1109.8	7.3036e-06	7.406e-06	1162.7	229.89	7.0996e-06	7.4182e-06	290.33	82.578	64.388	18.49	7.1089e-06	26.694	251.880	262.344	274.488	165.872	320.409	301.183	165.163	172.644	253.936	319.704	172.334	178.702	178.995	186.302	210.556	185.443	-8191	255	
25824.166	1	1	0	0	0.16111	0.17294	0.13703	0.3038	0.087967	0.13918	0.37808	0.13597	0.059192	0.13938	0.11013	0.28557	0.28057	0.046036	0.032847	0.16517	-2.3646	-2.6	-2.6771	-2.5792	-2.7687	-2.775	-2.6646	-2.8563	-2.7271	-2.5312	-3.0958	-2.7125	-2.6458	-2.9188	-2.6542	-2.8958	291.902	430.564	342.189	204.497	215.641	170.594	452.918	172.751	415.819	256.272	217.794	454.208	449.456	312.749	428.062	286.869	0.00024372	0.00046633	0.00010905	1118.8	2.7977e-06	5.3818e-06	1178.5	230.59	2.4521e-06	1.8881e-06	288.42	81.696	63.881	18.054	2.8731e-06	26.061	0.00054492	0.00066158	0.00018234	1107.8	7.3084e-06	7.4053e-06	1162.7	229.55	7.0411e-06	7.2978e-06	289.24	82.481	64.465	18.45	7.1738e-06	26.686	238.328	245.750	261.764	165.612	315.025	289.462	165.386	172.652	247.174	249.641	172.337	178.853	179.186	186.457	370.874	186.000	-8191	255	
25824.264	1	1	0	0	0.13202	0.11033	0.16456	0.12345	0.07089	0.22906	0.32728	0.15046	0.19643	0.11703	0.28913	0.042759	0.11692	0.28555	0.21644	0.22829	-2.3708	-2.5625	-2.8771	-2.6854	-2.5208	-2.9604	-2.8271	-2.9979	-2.7646	-2.7167	-2.8458	-2.7479	-2.6417	-3.0542	-2.7042	-2.9021	345.380	358.990	323.909	448.575	408.487	217.989	497.138	163.209	411.213	395.330	159.624	289.140	417.610	387.177	229.200	395.426	0.0002284	0.00024433	0.00018533	1114.4	1.3882e-06	5.6097e-06	1172.6	230.58	2.7242e-06	3.385e-06	289.23	81.557	64.178	18.093	7.2402e-07	26.164	0.00054418	0.00067145	0.00018472	1106.2	7.4268e-06	7.3159e-06	1161.3	230.08	7.0351e-06	7.2606e-06	289.4	82.55	64.562	18.441	7.0707e-06	26.697	235.467	178.934	235.678	165.135	269.643	293.497	165.495	172.520	314.320	364.605	172.031	178.942	178.718	186.015	289.023	186.038	-8191	255	
25824.359	1	1	0	0	0.078391	0.096041	0.25579	0.29742	0.24741	0.34765	0.047617	0.20277	0.16841	0.13337	0.07326	0.096862	0.1677	0.24509	0.16814	0.19662	-2.3583	-2.5583	-3.0604	-2.6854	-2.5542	-2.8479	-2.7438	-2.8542	-2.8833	-2.5271	-2.8542	-2.9958	-2.6083	-2.6979	-2.6188	-2.6958	172.049	182.707	407.186	440.799	248.315	394.560	161.457	446.298	284.435	162.477	427.263	333.860	369.822	381.030	190.637	461.415	0.00028379	0.00076977	0.00011073	1123.8	1.2218e-06	2.0095e-06	1176.5	230.33	3.1805e-06	8.3165e-07	289.39	82.029	63.867	18.18	3.9886e-06	26.183	0.00054435	0.00065727	0.00018536	1111.5	7.2356e-06	7.4048e-06	1163.4	229.81	7.1035e-06	7.3304e-06	289.44	82.569	64.412	18.471	7.1185e-06	26.746	243.415	231.837	260.738	165.474	373.838	292.874	165.537	172.703	323.583	252.185	172.108	178.692	178.687	186.165	311.056	185.960	-8191	255	
25824.455	1	1	0	0	0.064927	0.1515	0.22096	0.13001	0.038117	0.31135	0.27194	0.25127	0.17342	0.080568	0.055043	0.1414	0.079766	0.19999	0.29999	0.26165	-2.4042	-2.6375	-2.7438	-2.7125	-2.3646	-2.8771	-2.6667	-2.7562	-2.8625	-2.5083	-2.9188	-2.6833	-2.6417	-3.0229	-2.6729	-2.6896	478.061	174.662	308.704	186.461	512.080	512.619	423.396	457.599	191.508	284.118	180.010	416.620	455.660	397.838	262.736	351.381	0.00026014	0.00040518	3.8793e-05	1121.8	4.6925e-06	4.0578e-06	1172.6	229.48	3.7546e-06	5.38e-06	287.08	81.57	63.365	18.112	5.9023e-06	26.152	0.00054671	0.00068437	0.00018372	1109.3	7.4077e-06	7.4018e-06	1163	229.74	6.9885e-06	7.3181e-06	289.62	82.333	64.16	18.486	7.1283e-06	26.721	231.419	250.365	260.168	165.212	307.468	362.702	165.537	172.495	306.826	336.860	172.069	179.008	179.279	186.419	330.037	185.665	-8191	255	
25824.551	1	1	0	0	0.052829	0.10322	0.004233	0.19231	0.046622	0.10386	0.414	0.14841	0.15371	0.092548	0.23813	0.17385	0.12368	0.065677	0.16032	0.063856	-2.4437	-2.4562	-2.5958	-2.8125	-2.4458	-2.8063	-2.9104	-2.925	-2.8708	-2.65	-2.6354	-2.7833	-2.6208	-2.9854	-2.8375	-2.7396	201.557	457.073	346.587	236.478	422.727	419.041	398.967	447.917	499.447	208.121	439.851	194.738	195.252	375.829	291.862	255.622	0.0002613	4.4629e-05	0.00015379	1121.5	1.8789e-06	2.6018e-06	1168.1	231.86	7.9515e-07	2.615e-06	291.32	81.518	64.163	18.142	5.5618e-06	26.02	0.000547	0.00066443	0.00018122	1111	7.2712e-06	7.5136e-06	1161.5	230.33	6.8356e-06	7.3237e-06	289.91	82.479	64.488	18.494	7.1509e-06	26.621	240.676	268.653	226.827	165.022	318.882	309.150	165.501	172.311	261.445	336.282	172.015	178.338	178.738	186.519	298.555	185.595	-8191	255	
25824.646	1	1	0	0	0.12731	0.30889	0.21729	0.19973	0.17656	0.2546	0.15309	0.089727	0.18484	0.10843	0.042366	0.092192	0.10833	0.18789	0.11457	0.18231	-2.5917	-2.6354	-2.5896	-2.9292	-2.6229	-3	-3.0917	-2.5375	-2.8833	-2.6813	-2.9562	-2.8438	-2.5646	-2.85	-2.7292	-2.625	156.311	277.345	188.630	508.644	176.814	271.953	466.215	501.488	482.282	403.157	379.294	486.946	179.757	225.675	247.827	423.152	0.00026288	0.00057295	0.00019374	1117.5	1.2997e-06	4.7445e-06	1177.5	229.8	4.138e-06	3.0935e-06	289.72	82.095	64.03	18.211	3.5114e-06	26.119	0.00054373	0.00065395	0.00018476	1109.8	7.4214e-06	7.5412e-06	1162.5	229.73	7.1345e-06	7.3551e-06	290.26	82.779	64.361	18.462	7.2671e-06	26.706	236.394	249.385	232.095	165.511	341.157	290.700	165.301	172.356	311.484	328.394	172.189	178.374	178.593	186.224	391.668	185.615	-8191	255	
25824.768	1	1	0	0	0.087287	0.13635	0.051257	0.26019	0.3178	0.078338	0.037501	0.19802	0.10849	0.065815	0.37619	0.16504	0.15626	0.12769	0.086905	0.1941	-2.3729	-2.6042	-2.7083	-2.9	-2.6229	-2.8312	-2.9396	-2.525	-3.1167	-2.6375	-2.75	-2.8812	-2.6479	-2.9625	-2.6833	-2.5333	428.369	261.983	176.053	511.448	208.898	448.528	412.255	397.494	507.268	463.091	501.537	463.121	370.366	266.662	195.691	489.317	0.00025684	0.00032931	0.00013008	1123.2	3.9346e-06	2.3008e-06	1172	231.18	4.003e-07	2.4596e-06	289.8	81.467	64.141	18.122	4.157e-06	26.124	0.00054571	0.00066004	0.00018313	1111.1	7.1904e-06	7.3906e-06	1161.9	229.81	7.2181e-06	7.4163e-06	289.43	82.514	64.369	18.476	6.9996e-06	26.694	238.635	264.805	222.823	165.448	342.480	237.379	165.381	172.433	167.776	271.487	172.131	178.781	179.056	185.907	344.194	185.149	-8191	255	
25824.861	1	1	0	0	0.21593	0.15135	0.089552	0.055297	0.28246	0.19962	0.25709	0.1595	0.13597	0.031767	0.1931	0.23675	0.13383	0.27499	0.25168	0.20837	-2.4271	-2.6271	-2.6917	-2.9042	-2.7375	-2.8854	-3.0229	-2.4375	-2.9417	-2.7146	-2.7167	-2.9583	-2.6437	-2.6854	-2.8146	-2.725	435.550	505.775	377.108	450.963	330.593	470.877	421.594	439.386	397.692	218.108	190.045	378.008	511.301	394.557	305.245	329.450	0.00020987	0.00042613	2.7415e-05	1114.4	3.4897e-06	2.4292e-06	1174.4	231.15	2.0919e-06	2.2451e-06	289.26	81.594	63.771	18.054	1.6568e-06	26.087	0.00055401	0.00066791	0.00018378	1105.4	7.0379e-06	7.4252e-06	1161.8	229.85	7.0541e-06	7.2121e-06	289.27	82.558	64.232	18.438	7.0616e-06	26.748	236.828	214.643	242.407	165.407	297.905	222.945	165.337	172.286	305.167	306.171	172.041	178.884	178.899	186.198	306.771	185.537	-8191	255	
25824.957	1	1	0	0	0.11313	0.074608	0.23506	0.17386	0.033487	0.014828	0.26238	0.28762	0.12408	0.10582	0.26054	0.084939	0.23347	0.06652	0.17344	0.1833	-2.4958	-2.6771	-2.4083	-2.8438	-2.5896	-2.6937	-3.0667	-2.5604	-2.8354	-2.7146	-2.5771	-2.9417	-2.5229	-2.725	-2.8417	-2.6604	227.564	499.944	463.630	488.940	368.033	207.595	438.659	444.454	460.972	493.230	453.085	319.234	459.643	440.689	450.727	430.078	0.00024106	0.00043709	9.0072e-05	1123.3	2.2067e-06	4.1827e-06	1174.8	230.34	2.3779e-06	5.5007e-06	288.75	81.653	63.619	18.208	4.2164e-06	26.179	0.00053881	0.00065872	0.00018167	1108.8	7.0634e-06	7.4312e-06	1162.3	229.49	6.9974e-06	7.2745e-06	289.11	82.561	64.279	18.536	7.0359e-06	26.742	248.225	220.510	290.729	165.643	283.125	288.279	165.365	172.471	273.574	298.050	172.279	178.440	179.053	186.220	298.642	185.922	-8191	255	
25825.031	1	1	0	0	0.12445	0.14542	0.28512	0.15421	0.28291	0.19993	0.24935	0.2916	0.14709	0.22118	0.040278	0.26669	0.1763	0.16453	0.13581	0.078794	-2.3563	-2.7	-2.5396	-2.8937	-2.7	-2.7667	-2.9062	-2.7729	-2.6771	-2.8396	-2.5375	-2.8792	-2.7417	-2.4604	-2.8354	-2.6667	475.489	370.853	248.060	198.468	354.872	302.856	440.364	373.092	434.568	236.013	481.642	493.579	157.243	266.333	469.562	199.237	0.00028381	0.00040019	8.7396e-05	1119.2	2.3093e-06	4.0789e-06	1171.4	230.32	2.0892e-06	2.7227e-06	290.32	81.744	63.683	18.224	3.7968e-06	26.047	0.00054134	0.00066533	0.00018228	1110.9	7.2016e-06	7.3589e-06	1160.7	229.84	6.9813e-06	7.2893e-06	289.9	82.485	64.454	18.513	6.9239e-06	26.668	242.788	247.148	243.504	165.163	326.681	309.188	165.343	172.543	287.323	287.180	172.093	178.779	179.022	186.086	348.629	185.722	-8191	255	
25825.150	1	1	0	0	0.32541	0.19681	0.16422	0.2263	0.14058	0.10521	0.13829	0.22719	0.135	0.035041	0.089034	0.2505	0.25371	0.17689	0.10436	0.13537	-2.2938	-2.8271	-2.5354	-2.6833	-2.5458	-2.3854	-3.1167	-2.6833	-2.6333	-2.8917	-2.55	-2.7625	-2.8312	-2.5042	-2.7625	-2.575	320.991	498.096	504.688	404.705	296.474	351.798	417.242	374.026	450.607	390.791	401.148	210.441	403.037	474.294	411.551	506.034	0.00026246	0.00041051	0.00016603	1116.6	2.7937e-06	7.4581e-07	1174.7	229.92	3.1864e-06	2.2945e-06	290.06	81.494	64.114	18.135	5.6989e-07	26.135	0.00054528	0.00064339	0.00018426	1106.1	7.1149e-06	7.1505e-06	1162.7	229.78	6.9335e-06	7.1909e-06	289.23	82.495	64.354	18.448	7.0114e-06	26.691	246.067	275.960	264.553	165.314	284.888	276.565	165.362	172.430	315.967	416.790	172.132	178.910	178.834	185.815	455.804	185.766	-8191	255	
25825.246	1	1	0	0	0.07707	0.063598	0.16427	0.12	0.21783	0.20195	0.16937	0.42091	0.21221	0.22436	0.19458	0.061722	0.21321	0.092734	0.14839	0.45805	-2.1396	-2.85	-2.4667	-2.925	-2.7042	-2.4437	-3.0396	-2.8021	-2.625	-2.7313	-2.6875	-2.7917	-2.9583	-2.6292	-2.7646	-2.6854	194.842	326.435	326.977	178.152	430.366	366.968	411.313	171.508	396.898	161.507	346.534	351.651	309.271	466.992	447.106	505.660	0.00022314	0.00046688	4.2231e-05	1115.7	3.1203e-06	5.0863e-06	1171.7	229.1	2.9805e-06	3.252e-06	290.18	81.922	63.68	18.228	5.7746e-06	26.214	0.0005296	0.00065156	0.00018249	1106.3	7.1996e-06	7.1992e-06	1161.3	228.93	6.9211e-06	7.0811e-06	289.91	82.493	64.231	18.5	6.9779e-06	26.715	229.783	243.794	264.380	165.255	290.825	325.278	165.406	172.569	270.270	292.601	172.140	178.832	178.959	186.362	297.141	185.670	-8191	255	
25825.344	1	1	0	0	0.1465	0.083582	0.10808	0.16904	0.1462	0.14476	0.26664	0.10977	0.20292	0.22146	0.24281	0.0902	0.11249	0.22892	0.11339	0.038414	-2.075	-2.8146	-2.4688	-2.775	-2.7	-2.575	-3.0146	-2.8854	-2.6729	-2.9396	-2.6604	-2.8042	-2.9354	-2.5208	-2.8708	-2.9042	397.703	415.706	290.044	436.963	468.772	267.907	385.643	478.645	499.823	240.942	476.986	160.450	356.398	294.452	165.604	440.821	0.00025209	0.00035278	0.00012851	1121.3	4.9531e-06	1.6963e-06	1171.9	230.12	2.4929e-06	2.7097e-06	289.96	81.683	63.423	18.224	4.2458e-06	26.123	0.00053877	0.00066791	0.0001756	1108.5	7.0006e-06	7.2489e-06	1159.4	229.66	6.8247e-06	7.0908e-06	289.48	82.417	64.147	18.517	7.0445e-06	26.685	243.522	249.730	277.156	165.512	308.365	286.407	165.290	172.398	304.069	337.627	172.139	178.861	178.988	186.264	319.385	185.501	-8191	255	
25825.439	1	1	0	0	0.18187	0.26383	0.1875	0.10157	0.14503	0.11887	0.14466	0.1143	0.21272	0.12909	0.28651	0.13257	0.061126	0.2672	0.067771	0.04207	-2.3354	-2.9688	-2.4083	-2.7104	-2.7188	-2.4	-3.0333	-2.9313	-2.6646	-2.8208	-2.6979	-2.6312	-2.8	-2.6229	-2.7792	-2.8021	231.710	318.064	508.050	450.035	161.164	166.755	511.057	366.676	395.967	169.054	328.460	504.450	327.054	397.717	201.983	250.284	0.00025824	0.00016918	0.00012499	1114.9	4.2187e-06	2.2572e-06	1172	231.16	1.6848e-06	2.0288e-06	289.16	82.035	64.099	18.337	3.6498e-06	26.093	0.00053854	0.00064741	0.00018203	1107.8	7.0303e-06	7.1802e-06	1161	229.73	6.9757e-06	7.0714e-06	289.54	82.662	64.306	18.529	6.9992e-06	26.708	243.917	282.207	228.648	165.410	283.354	376.517	165.517	172.439	318.855	338.831	172.429	178.613	179.031	185.930	295.601	185.410	-8191	255	
25825.561	1	1	0	0	0.31636	0.27474	0.17514	0.099884	0.16648	0.095964	0.22247	0.23082	0.13001	0.077163	0.13065	0.49171	0.22144	0.10412	0.22913	0.015472	-1.9958	-2.7188	-2.5979	-2.6146	-2.9771	-2.6562	-3.0146	-2.8958	-2.5083	-2.9104	-2.8167	-2.6021	-2.9646	-2.5062	-2.7604	-2.7313	508.467	254.005	508.188	481.236	325.459	481.285	469.741	406.402	469.013	358.690	451.803	467.840	155.452	231.276	294.963	282.081	0.00025512	0.00046627	7.6634e-05	1118.5	2.5418e-06	4.3089e-06	1174.5	230.46	2.9764e-06	2.1583e-06	290.15	82.31	63.824	18.258	4.3804e-06	26.105	0.00054483	0.00064362	0.00017956	1109.1	7.2802e-06	7.1723e-06	1160.6	229.39	6.7964e-06	7.1835e-06	289.4	82.542	64.316	18.477	7.1078e-06	26.688	245.999	255.755	254.963	165.655	302.720	267.823	165.330	172.696	300.048	293.056	172.106	178.855	178.705	186.430	322.491	185.393	-8191	255	
25825.631	1	1	0	0	0.073618	0.24106	0.28861	0.20908	0.38817	0.13885	0.089154	0.051274	0.036257	0.12435	0.26335	0.070996	0.23025	0.080964	0.1311	0.066396	-2.1125	-2.8521	-2.5708	-2.6583	-2.9042	-2.4146	-3.0604	-2.8979	-2.4354	-2.8104	-2.75	-2.6396	-2.9458	-2.65	-2.6125	-2.9917	162.336	232.630	208.987	477.867	395.214	176.159	205.846	167.059	412.500	428.766	508.983	296.922	498.990	337.092	456.653	465.558	0.00027646	0.00023346	7.8026e-05	1121.7	2.5385e-06	3.3505e-06	1175.5	229.71	2.9453e-06	1.7054e-06	287.81	81.817	63.811	18.182	4.8085e-06	26.159	0.00053199	0.00064375	0.00017963	1108.9	6.9967e-06	7.0934e-06	1161.2	229.13	6.9042e-06	7.2696e-06	288.41	82.473	64.274	18.49	6.9763e-06	26.683	243.932	208.170	247.754	165.122	295.536	299.356	165.144	172.573	328.700	254.064	171.985	178.816	179.426	185.872	323.741	185.699	-8191	255	
25825.752	1	1	0	0	0.21018	0.18094	0.14183	0.08823	0.18918	0.03947	0.089003	0.14494	0.17442	0.24707	0.1071	0.15093	0.2798	0.208	0.1436	0.13027	-2.1396	-2.7438	-2.6208	-2.5208	-2.8917	-2.6875	-2.9188	-2.6625	-2.4542	-2.9	-2.7771	-2.5667	-2.8771	-2.5125	-2.6146	-2.9188	287.491	196.184	241.358	373.834	218.087	217.821	468.255	472.973	426.887	186.446	309.128	507.486	286.444	347.302	353.902	453.548	0.00027575	0.00036413	0.00010401	1113.1	2.4264e-06	2.5388e-06	1170.7	230.4	2.3296e-06	3.3242e-06	289.66	81.4	63.967	18.117	3.1267e-06	26.223	0.00052641	0.00064877	0.00017998	1106.9	7.0084e-06	7.1261e-06	1159.9	229.51	6.9514e-06	7.0326e-06	288.91	82.355	64.402	18.449	6.9585e-06	26.658	237.308	259.692	232.979	165.098	357.800	301.234	165.538	172.591	298.697	257.026	172.276	178.913	179.035	186.223	339.903	185.662	-8191	255	
25825.848	1	1	0	0	0.31178	0.18569	0.25653	0.13948	0.15262	0.15958	0.096807	0.11699	0.088651	0.088304	0.14159	0.24084	0.1951	0.081016	0.041277	0.082849	-2.1833	-2.6167	-2.7812	-2.4437	-2.7687	-2.7042	-2.7604	-2.9396	-2.6417	-2.7833	-2.75	-2.5771	-2.9917	-2.7562	-2.5375	-2.8604	168.540	213.728	494.872	331.058	282.735	210.225	469.216	511.421	227.684	496.558	165.838	175.680	162.667	416.480	490.126	448.914	0.0002722	0.00049647	2.3527e-05	1121	3.8534e-06	4.5048e-06	1173.9	229.88	4.2473e-06	4.0408e-06	288.39	81.994	63.821	18.18	4.9214e-06	26.144	0.00053192	0.00064648	0.00017611	1107.6	7.0319e-06	7.2995e-06	1158.3	229.23	6.7797e-06	7.1093e-06	288.8	82.512	64.404	18.469	6.8846e-06	26.704	242.472	274.661	268.531	165.359	326.718	295.953	165.296	172.330	255.891	370.877	172.252	178.675	179.291	186.300	344.015	185.582	-8191	255	
25825.943	1	1	0	0	0.13256	0.10004	0.1693	0.12923	0.1638	0.31333	0.31905	0.30324	0.033666	0.052814	0.18918	0.079444	0.14654	0.19791	0.048528	0.14415	-2.0958	-2.7521	-2.775	-2.625	-2.7896	-2.6167	-2.8229	-3.0187	-2.6375	-2.5938	-2.8104	-2.6063	-2.8771	-2.8104	-2.4854	-2.9042	381.776	189.802	266.843	428.355	270.538	301.507	482.991	476.781	243.962	190.523	184.439	381.418	164.888	375.706	258.896	313.749	0.00024286	0.00038874	0.00017116	1116.3	2.6974e-06	3.7871e-06	1169.4	229.69	3.14e-06	4.0862e-06	288.35	81.417	63.836	17.925	2.4782e-06	26.21	0.00053403	0.00064545	0.00017802	1105.8	6.9749e-06	7.1141e-06	1158.7	229.2	6.9686e-06	7.0772e-06	288.7	82.342	64.399	18.444	6.8764e-06	26.649	245.577	214.716	262.409	165.340	244.039	259.759	165.450	172.340	300.975	281.828	171.938	178.656	178.590	185.800	309.809	185.914	-8191	255	
25826.039	1	1	0	0	0.29757	0.13534	0.19779	0.24949	0.056358	0.081752	0.088727	0.20008	0.10986	0.067173	0.18457	0.27237	0.12081	0.25254	0.19161	0.036267	-2.0979	-2.6354	-2.8	-2.3812	-2.6396	-2.6771	-2.6167	-3.075	-2.6167	-2.4979	-2.925	-2.5667	-2.7708	-2.6229	-2.3208	-2.7771	419.299	498.990	321.245	477.014	289.287	239.901	196.151	471.588	244.658	221.734	496.656	467.062	314.315	412.019	341.839	201.545	0.00026359	0.00011983	7.5717e-05	1115.7	2.7725e-06	1.3949e-06	1174.4	230.28	5.6729e-06	4.3119e-06	290.65	81.474	63.772	18.084	5.9211e-06	26.051	0.00054479	0.00065739	0.00017823	1108.5	7.065e-06	7.1586e-06	1159.6	229.34	6.9608e-06	7.2913e-06	289.48	82.469	64.441	18.476	6.9594e-06	26.71	243.408	270.438	217.998	165.136	298.595	313.611	165.360	172.685	294.747	288.540	172.368	178.772	179.112	186.171	306.898	185.290	-8191	255	
25826.158	1	1	0	0	0.22173	0.1727	0.2381	0.13658	0.045179	0.15403	0.26551	0.41593	0.17492	0.15272	0.01677	0.28864	0.16148	0.37347	0.22555	0.26848	-2.1688	-2.5938	-3.0292	-2.4604	-2.8937	-2.9	-2.7167	-2.9688	-2.8937	-2.5646	-3.025	-2.5812	-2.825	-2.7729	-2.4125	-2.6833	169.050	389.320	342.835	201.716	276.252	303.142	512.668	476.935	203.440	271.044	246.275	236.544	478.532	479.046	484.239	393.258	0.00022173	0.00019982	8.4752e-05	1118	1.762e-06	3.5772e-06	1175.9	230.85	4.513e-06	3.9236e-06	289.87	81.794	63.822	18.105	3.6049e-06	26.003	0.0005362	0.00064673	0.0001827	1108.5	7.1649e-06	7.2612e-06	1162.7	229.64	6.9358e-06	7.1384e-06	288.99	82.233	64.415	18.453	6.8466e-06	26.717	241.302	227.553	185.886	165.603	309.726	298.041	165.669	172.440	266.196	269.939	172.262	178.987	179.095	186.156	310.473	185.775	-8191	255	
25826.256	1	1	0	0	0.30423	0.19222	0.27055	0.18792	0.10217	0.23663	0.45321	0.1043	0.024829	0.23781	0.046926	0.22503	0.16404	0.094834	0.11971	0.16872	-2.275	-2.5917	-2.7667	-2.5792	-2.4938	-2.8146	-2.5187	-2.8729	-2.6312	-2.6708	-2.8354	-2.6375	-2.6646	-2.9229	-2.5646	-2.8292	193.509	510.973	460.267	204.693	305.717	197.754	435.104	512.923	396.713	233.305	484.290	476.175	212.117	349.272	224.293	238.071	0.000287	0.00047366	0.00010187	1126.3	1.5529e-06	3.8109e-06	1167.1	229.63	3.0789e-06	4.8872e-06	290.41	81.223	63.867	18.275	4.6976e-06	26.207	0.00054474	0.00065379	0.00018225	1107.7	7.06e-06	7.2862e-06	1158.9	229.48	6.8135e-06	7.3068e-06	289.6	82.222	64.382	18.544	7.0083e-06	26.757	242.029	219.286	297.518	165.341	314.241	275.074	165.299	172.470	287.854	315.854	172.122	179.088	179.186	186.314	322.926	185.326	-8191	255	
25826.326	1	1	0	0	0.11095	0.082467	0.11829	0.079363	0.12913	0.20497	0.37785	0.063788	0.11693	0.20385	0.12943	0.28015	0.082502	0.041151	0.10113	0.05504	-2.3625	-2.3583	-2.7438	-2.7167	-2.5417	-2.8667	-2.7833	-2.9229	-2.7313	-2.575	-2.9938	-2.6604	-2.5208	-2.8292	-2.4521	-2.7687	326.470	329.594	423.394	284.257	354.928	507.210	447.470	471.626	309.167	403.402	499.149	223.579	155.292	195.392	180.492	419.759	0.00028606	0.0005921	0.00015068	1111	8.7912e-07	1.5418e-06	1172.7	230.67	3.4874e-06	1.4066e-06	288.04	81.725	64.186	18.197	2.5887e-06	26.151	0.00054485	0.00065902	0.00018306	1105.5	7.139e-06	7.2162e-06	1160.2	229.67	6.9562e-06	7.1352e-06	289.27	82.364	64.514	18.456	6.9337e-06	26.749	239.624	221.361	241.886	165.218	321.640	320.362	165.548	172.470	319.465	268.591	172.503	178.617	179.311	185.972	271.200	185.590	-8191	255	
25826.447	1	1	0	0	0.17475	0.29921	0.10185	0.087698	0.29407	0.13654	0.224	0.42438	0.15807	0.24126	0.10522	0.21952	0.072541	0.20848	0.0048813	0.073712	-2.3146	-2.2854	-2.7229	-2.6271	-2.6021	-2.7583	-2.7	-2.6188	-2.95	-2.3333	-2.8854	-2.7062	-2.4583	-2.6417	-2.65	-2.5542	231.989	155.750	172.941	421.776	167.059	455.005	445.553	456.124	511.979	508.192	484.838	509.714	402.709	445.512	407.025	227.183	0.00021847	0.00029352	7.8005e-05	1124.6	2.163e-06	6.3186e-06	1169.1	230.79	1.9035e-06	2.8494e-06	288.91	81.917	64.108	18.128	2.1363e-06	26.157	0.00053341	0.00066206	0.00017807	1109	7.099e-06	7.193e-06	1157.9	229.23	7.0489e-06	7.0823e-06	288.8	82.431	64.309	18.462	7.0056e-06	26.625	244.193	285.454	258.365	165.308	390.706	262.108	165.409	172.128	302.882	256.303	171.954	178.910	179.144	186.239	309.450	185.615	-8191	255	
25826.545	1	1	0	0	0.16576	0.14659	0.14553	0.17661	0.31098	0.17113	0.14029	0.19638	0.038721	0.10988	0.077765	0.28753	0.16568	0.040424	0.2128	0.27895	-2.2604	-2.3688	-2.6937	-2.7458	-2.6104	-2.8771	-2.7812	-2.7104	-2.75	-2.4667	-2.8042	-2.8937	-2.6354	-2.8708	-2.5771	-2.6437	240.717	251.083	351.472	508.045	512.211	430.572	378.377	435.308	508.538	311.053	494.125	178.209	368.462	457.974	419.740	419.550	0.00025239	0.00031392	4.4514e-05	1112.5	3.8822e-06	5.2828e-06	1168.7	229.56	3.7238e-06	6.7001e-06	290.28	81.138	63.994	18.198	3.544e-06	25.909	0.00053442	0.00066314	0.00018106	1103.8	7.1422e-06	7.3298e-06	1158	229.45	7.1319e-06	7.1895e-06	289.53	82.282	64.443	18.493	7.0156e-06	26.723	244.162	231.806	230.458	165.805	391.052	296.511	165.430	172.441	291.650	326.472	172.076	178.877	179.185	186.371	245.538	185.737	-8191	255	
25826.641	1	1	0	0	0.15787	0.14477	0.1653	0.091917	0.1269	0.28436	0.16661	0.30879	0.37544	0.18004	0.076558	0.040264	0.13374	0.15638	0.065085	0.065033	-2.3417	-2.6063	-2.6917	-2.85	-2.7146	-2.9437	-2.7667	-2.7042	-2.8937	-2.5146	-2.725	-2.8104	-2.6958	-2.9458	-2.6833	-2.6562	467.236	296.109	260.814	498.451	210.705	434.994	414.829	392.385	347.972	261.220	330.664	318.263	175.611	504.267	508.061	367.950	0.00025144	0.00039993	9.7428e-05	1125.4	1.7746e-06	2.7881e-06	1171.9	230.06	4.6459e-06	4.4413e-06	287.93	81.177	63.879	18.091	3.6279e-06	26.065	0.00053576	0.00064556	0.00018262	1109.1	7.2183e-06	7.2025e-06	1158.4	229.26	7.0842e-06	6.997e-06	288.78	82.302	64.224	18.439	6.903e-06	26.692	241.849	258.072	255.218	165.185	332.407	299.710	165.416	172.375	299.643	306.777	172.053	178.862	178.580	186.576	368.210	185.448	-8191	255	
25826.736	1	1	0	0	0.15276	0.0076489	0.17497	0.18683	0.024529	0.27181	0.15548	0.25731	0.33395	0.21019	0.21432	0.055949	0.044521	0.049809	0.24583	0.1257	-2.4146	-2.5396	-2.5917	-2.7979	-2.55	-2.8208	-2.7979	-2.6083	-2.7938	-2.4333	-2.6604	-3.0021	-2.3583	-2.7667	-2.7896	-2.6104	254.778	403.109	194.169	373.169	413.613	228.044	440.619	509.144	435.501	349.579	464.487	236.592	362.437	240.273	339.013	176.728	0.00026612	0.00027682	0.00010618	1113.6	4.0366e-06	1.9176e-06	1168.4	230.79	2.909e-06	4.946e-06	287.83	81.453	63.706	18.107	3.2648e-06	26.081	0.00053269	0.0006477	0.00018683	1105.2	7.1884e-06	7.2479e-06	1157.5	229.49	7.0028e-06	7.3292e-06	288.79	82.234	64.234	18.443	7.0694e-06	26.666	235.169	269.666	275.281	165.781	298.840	409.984	165.373	172.644	290.236	315.760	172.202	178.424	179.304	186.095	343.274	185.313	-8191	255	
25826.855	1	1	0	0	0.24502	0.10284	0.34601	0.31144	0.41691	0.33597	0.26529	0.15323	0.14403	0.14092	0.22095	0.28336	0.14503	0.19118	0.051524	0.1446	-2.4417	-2.5708	-2.4542	-2.8625	-2.45	-2.8312	-2.8271	-2.5896	-2.9437	-2.7583	-2.6667	-2.8875	-2.6333	-2.6375	-2.8563	-2.7687	208.203	246.394	295.649	401.863	475.956	287.194	438.041	502.726	208.661	469.483	393.272	439.837	383.872	369.623	281.715	495.890	0.00022612	0.00047745	0.00014306	1121.6	1.2281e-06	3.4203e-06	1167.8	229.47	2.4521e-06	2.4e-06	290.45	81.797	64.409	18.103	3.5337e-06	26.243	0.00053163	0.00065812	0.0001802	1107.1	6.8961e-06	7.3756e-06	1158.9	229.13	6.8455e-06	7.3944e-06	289.35	82.364	64.412	18.426	7.0923e-06	26.715	239.705	284.483	254.014	165.212	361.029	290.321	165.365	172.784	292.966	275.621	172.187	178.617	178.931	186.595	342.457	185.708	-8191	255	
25826.928	1	1	0	0	0.074601	0.18564	0.20188	0.068298	0.018148	0.13187	0.29296	0.36503	0.34398	0.10974	0.31538	0.020738	0.16628	0.11664	0.19891	0.15215	-2.3833	-2.7354	-2.5042	-2.8354	-2.4167	-2.7354	-2.8583	-2.6813	-2.7812	-2.5812	-2.625	-2.8271	-2.6479	-2.6958	-2.8125	-2.7354	261.704	174.140	486.102	181.556	384.631	251.187	450.293	456.688	395.228	377.383	224.343	478.754	461.013	364.717	455.299	404.256	0.00027156	0.00029372	4.8991e-05	1116	4.0352e-06	5.9432e-06	1171.4	230.71	2.4115e-06	3.4711e-06	287.77	81.399	64.001	18.026	1.4996e-06	26.297	0.0005434	0.00066579	0.00018034	1104.9	7.1435e-06	7.3343e-06	1159	229.26	7.0892e-06	6.9954e-06	288.69	82.327	64.343	18.445	7.059e-06	26.763	243.005	303.856	237.807	165.557	310.719	280.296	165.330	172.517	331.651	287.717	171.893	178.637	179.173	186.219	335.424	185.456	-8191	255	
25827.023	1	1	0	0	0.30971	0.15138	0.11763	0.24289	0.057908	0.26829	0.17043	0.22966	0.13347	0.21393	0.069812	0.1203	0.13028	0.2301	0.12114	0.26055	-2.4292	-2.6583	-2.3354	-2.85	-2.5208	-2.4562	-3.0083	-2.525	-2.6792	-2.6542	-2.5687	-2.9396	-2.6104	-2.7938	-2.8604	-2.5062	346.189	175.934	171.471	438.356	414.839	300.674	451.587	496.619	171.801	447.735	414.749	354.798	165.809	405.392	443.798	444.322	0.00023421	0.00042372	0.0001689	1117.9	4.8542e-06	3.379e-06	1173.7	229.87	4.1983e-06	4.9026e-06	289.31	81.519	64.156	18.185	4.9364e-06	26.168	0.00054887	0.00063998	0.00018085	1105.1	7.1701e-06	7.2535e-06	1158.4	229.17	6.8912e-06	7.0123e-06	289.11	82.336	64.35	18.459	6.8302e-06	26.727	243.142	233.273	252.180	165.612	286.451	296.848	165.461	172.283	264.205	305.714	172.469	178.292	179.532	186.499	280.664	185.452	-8191	255	
25827.121	1	1	0	0	0.20507	0.34855	0.18922	0.15599	0.19254	0.30999	0.050249	0.17891	0.15606	0.21805	0.1214	0.24853	0.15939	0.1674	0.19614	0.14698	-2.4208	-2.5458	-2.5938	-2.9146	-2.7313	-2.5729	-3.0542	-2.8563	-2.7417	-2.7854	-2.5521	-2.9479	-2.9062	-2.525	-2.8417	-2.5333	368.238	230.973	251.886	487.643	328.348	304.413	236.681	413.611	222.667	428.912	469.916	184.748	482.342	221.528	436.464	462.792	0.00026036	0.00037498	7.78e-05	1117	6.2094e-06	4.3836e-06	1174.7	230.25	4.1857e-06	4.1879e-06	289.13	82.023	63.788	18.095	2.8613e-06	26.129	0.00054239	0.00064991	0.00018288	1102.7	6.9526e-06	7.1867e-06	1160.2	229.32	6.8414e-06	7.1179e-06	288.71	82.46	64.284	18.435	6.7027e-06	26.702	237.276	282.812	274.241	165.097	290.302	283.347	165.451	172.507	297.180	272.934	172.038	178.592	178.859	186.231	324.039	185.298	-8191	255	
25827.240	1	1	0	0	0.21167	0.10842	0.31508	0.094306	0.30254	0.0047042	0.31331	0.14285	0.080388	0.14506	0.085773	0.18601	0.19324	0.2204	0.18622	0.091673	-2.2833	-2.5646	-2.3583	-2.8792	-2.6937	-2.5687	-3.0375	-2.8042	-2.6583	-2.9042	-2.775	-2.7062	-2.7667	-2.4354	-2.8438	-2.8021	486.788	505.758	359.841	277.516	159.233	491.011	403.402	498.511	466.097	387.561	185.839	447.712	157.447	224.917	283.479	159.491	0.00027028	0.00052655	4.9597e-05	1117.6	2.919e-06	2.3447e-06	1170.8	230.72	3.6946e-06	2.2731e-06	290.03	80.795	63.892	18.058	8.6192e-07	26.016	0.00053534	0.00065514	0.00017439	1104.6	6.8553e-06	7.1245e-06	1158.3	229.49	6.9027e-06	6.8587e-06	289.21	82.063	64.309	18.415	6.8975e-06	26.715	233.779	223.555	202.134	165.876	326.444	320.684	165.384	172.475	319.520	284.482	172.059	178.796	178.838	186.044	229.683	185.576	-8191	255	
25827.336	1	1	0	0	0.19135	0.15994	0.22688	0.26931	0.13352	0.22246	0.098093	0.027889	0.19527	0.080309	0.13566	0.15495	0.23003	0.11414	0.065427	0.24927	-2.3271	-2.9854	-2.675	-2.7521	-2.7188	-2.5771	-2.8354	-2.6833	-2.6583	-2.9188	-2.55	-2.8667	-2.9083	-2.5854	-2.7083	-2.6417	478.826	477.526	496.600	169.009	277.235	300.871	245.525	360.270	489.566	355.033	388.612	197.388	420.371	246.309	400.992	403.091	0.00025358	0.00028123	6.599e-05	1115	4.0757e-06	4.2659e-06	1166.3	229.87	3.9714e-06	2.5014e-06	290.14	81.433	63.766	18.076	1.4239e-06	26.062	0.00053715	0.00062933	0.00017691	1102.4	6.9067e-06	7.0171e-06	1155	229.07	6.7953e-06	6.9975e-06	288.99	82.171	64.209	18.439	6.953e-06	26.586	240.171	287.342	223.748	165.361	278.295	281.575	165.054	172.460	312.597	278.726	172.147	178.673	178.993	186.432	308.713	185.306	-8191	255	
25827.432	1	1	0	0	0.1374	0.030695	0.044468	0.10862	0.1726	0.30183	0.29516	0.18821	0.092285	0.070194	0.18672	0.04699	0.06042	0.3401	0.29815	0.17081	-2.0917	-2.7938	-2.6083	-2.8771	-2.6208	-2.4562	-2.9917	-2.7333	-2.5292	-2.8833	-2.7771	-2.8187	-2.7188	-2.7062	-2.6625	-2.7313	320.233	170.036	500.280	440.726	234.033	292.918	406.507	471.115	508.203	463.611	323.508	197.121	316.780	488.470	285.981	449.129	0.00023203	0.00047375	0.00010318	1108.9	3.8863e-06	3.8435e-06	1168.4	228.87	5.487e-07	4.3849e-06	288.23	82.115	64.011	18.026	3.5579e-06	26.016	0.00053223	0.00065004	0.00017682	1101.6	6.9846e-06	6.9275e-06	1156.9	228.68	6.7361e-06	6.9568e-06	288.38	82.305	64.247	18.39	6.861e-06	26.57	239.900	238.539	253.678	165.374	313.386	313.864	165.325	172.634	332.301	334.825	172.333	178.793	179.113	186.180	312.991	185.755	-8191	255	
25827.527	1	1	0	0	0.24713	0.20147	0.12897	0.16944	0.039999	0.21727	0.060665	0.27273	0.36819	0.14893	0.20031	0.10366	0.19087	0.24129	0.10323	0.25498	-2.3208	-2.8063	-2.7146	-2.5146	-2.8792	-2.3625	-2.8354	-2.7792	-2.5167	-2.8583	-2.7583	-2.4542	-2.9208	-2.5458	-2.875	-2.8688	400.303	426.239	270.665	331.512	259.778	496.043	503.903	400.526	297.948	163.143	455.902	409.330	165.602	211.048	212.578	353.923	0.00026214	0.00026966	8.6098e-05	1106.1	2.5236e-06	6.9223e-06	1170.1	229.83	4.0381e-06	1.7136e-06	290.03	81.525	63.503	18.188	3.0531e-06	26.175	0.00052613	0.00063704	0.00017777	1101.2	7.0699e-06	7.1287e-06	1156	228.93	6.6339e-06	7.0582e-06	289.44	82.23	64.052	18.439	6.8317e-06	26.698	240.873	233.856	210.034	165.314	345.907	297.673	165.313	172.675	301.418	264.679	172.106	178.938	179.204	185.969	276.162	185.441	-8191	255	
25827.623	1	1	0	0	0.085719	0.14902	0.28849	0.13915	0.14275	0.15745	0.2734	0.16689	0.26044	0.19009	0.15602	0.14565	0.13568	0.12966	0.1377	0.015716	-2.1708	-2.9479	-2.6396	-2.7125	-2.875	-2.3917	-2.9583	-3.0708	-2.3333	-2.8229	-2.7375	-2.7604	-2.8063	-2.6604	-2.7146	-2.8083	504.679	424.868	229.204	501.818	348.628	439.070	464.717	159.501	257.889	510.095	249.933	487.296	459.358	221.878	470.034	196.977	0.00024837	0.00012549	9.3428e-05	1114.9	3.3602e-06	4.4125e-06	1163.7	228.82	3.6173e-06	2.9725e-06	287.01	81.415	63.607	18.056	4.5712e-06	26.217	0.00052002	0.00065368	0.00017551	1102.4	6.9263e-06	7.2273e-06	1154.7	228.55	6.859e-06	7.137e-06	287.99	82.278	64.129	18.433	7.0963e-06	26.722	240.427	228.659	280.360	165.566	304.543	253.798	165.332	172.501	295.059	332.582	172.391	178.957	179.110	186.020	271.973	185.697	-8191	255	
25827.721	1	1	0	0	0.089693	0.082245	0.24079	0.098565	0.19038	0.21331	0.065903	0.066847	0.15077	0.14238	0.075034	0.20884	0.077874	0.20712	0.088486	0.096282	-2.1104	-2.8875	-2.5333	-2.5312	-2.9146	-2.6083	-3.0042	-2.7292	-2.5938	-2.8438	-2.8021	-2.4813	-2.9625	-2.6167	-2.4917	-2.7542	381.162	470.186	507.698	201.680	340.997	486.606	249.414	452.263	200.378	320.148	189.710	304.038	374.313	280.236	250.484	279.420	0.00028347	0.00047085	3.6762e-05	1108.8	3.6009e-06	2.5696e-06	1169.5	229.24	9.9634e-07	3.9545e-06	288.37	81.539	63.991	18.047	3.5995e-06	26.127	0.00052716	0.00064762	0.00017405	1102.7	6.8758e-06	7.038e-06	1156.8	228.77	6.7065e-06	7.0557e-06	288.18	82.277	64.264	18.394	6.875e-06	26.662	242.662	249.265	508.110	165.355	308.584	404.123	165.415	172.344	269.270	281.342	172.102	178.904	178.906	186.260	357.335	185.559	-8191	255	
25827.842	1	1	0	0	0.13644	0.15891	0.20511	0.18104	0.0075933	0.032706	0.27576	0.15961	0.1916	0.06457	0.25572	0.14517	0.20997	0.16443	0.14924	0.19989	-2.1562	-2.7062	-2.8146	-2.6937	-2.8229	-2.7333	-2.8438	-3.0333	-2.4271	-2.8667	-2.8563	-2.5938	-2.8688	-2.6604	-2.6	-2.8146	509.872	169.250	360.691	324.687	279.340	512.597	447.830	365.660	266.559	287.181	483.910	334.638	473.420	295.334	378.958	191.264	0.0002336	0.00044513	9.5498e-05	1115.1	3.3358e-06	4.969e-06	1168.4	229.13	4.858e-06	1.8093e-06	286.69	81.887	63.722	18.13	2.1294e-06	26.163	0.00051841	0.00063271	0.00018027	1103.4	6.8936e-06	6.8976e-06	1155.6	228.5	6.7344e-06	6.9494e-06	287.46	82.295	64.104	18.385	6.7178e-06	26.614	242.180	286.063	205.312	165.603	332.281	341.377	165.484	172.411	295.076	347.517	172.150	178.797	178.933	186.194	344.647	185.480	-8191	255	
25827.936	1	1	0	0	0.22213	0.171	0.17941	0.28688	0.2374	0.13094	0.24235	0.21294	0.032955	0.11337	0.12781	0.16669	0.36087	0.090258	0.13975	0.082703	-2.1667	-2.7604	-2.8187	-2.5417	-2.7313	-2.5438	-2.7354	-2.7833	-2.4938	-2.7208	-2.8875	-2.6792	-2.7812	-2.7812	-2.7417	-2.8896	206.285	241.718	167.577	340.573	367.763	412.620	440.161	162.862	276.436	350.932	165.406	227.540	224.866	505.510	447.694	163.859	0.0002476	0.00035035	0.00016551	1110.9	5.9906e-07	3.275e-06	1167	229.1	4.0767e-06	3.7465e-06	287.35	81.119	63.585	18.173	1.1034e-06	26.059	0.00052932	0.00064129	0.00017632	1100.2	6.9821e-06	6.9465e-06	1155.1	228.5	6.7504e-06	7.0753e-06	288.43	82.223	64.049	18.443	6.6815e-06	26.6	244.192	294.909	280.749	165.426	425.875	300.101	165.465	172.575	315.483	285.836	171.721	178.796	178.920	185.962	325.876	185.367	-8191	255	
25828.031	1	1	0	0	0.11813	0.17177	0.13788	0.19571	0.29241	0.25377	0.085893	0.19124	0.1517	0.24365	0.14029	0.2919	0.12531	0.2678	0.045183	0.18271	-2.0438	-2.4917	-2.8167	-2.6604	-2.8125	-2.775	-2.6188	-2.9188	-2.55	-2.5271	-2.8708	-2.5917	-2.7875	-2.7479	-2.5958	-2.8667	449.359	246.781	187.237	497.683	350.963	295.479	270.826	451.437	263.618	176.388	346.968	465.400	397.496	206.167	491.564	337.736	0.00024298	0.00019917	8.4724e-05	1111.4	3.5016e-06	4.6927e-06	1164.4	229.46	2.2805e-06	3.6562e-06	289.44	80.825	63.399	17.918	3.9803e-06	26.108	0.00053181	0.00063602	0.0001748	1101	7.0057e-06	7.1519e-06	1153.3	228.46	6.6205e-06	7.1093e-06	288.52	81.997	64.034	18.362	6.6547e-06	26.619	239.091	211.427	252.913	165.481	307.803	284.181	165.507	172.161	269.093	306.151	171.966	178.621	179.057	185.990	332.392	186.003	-8191	255	
25828.152	1	1	0	0	0.10547	0.15232	0.10666	0.19964	0.16979	0.14616	0.32931	0.18401	0.031932	0.19977	0.088513	0.19078	0.30139	0.028162	0.040253	0.17319	-2.2396	-2.6688	-2.9688	-2.6542	-2.7208	-2.5833	-2.6833	-2.8917	-2.7313	-2.7583	-3.0875	-2.6167	-2.7917	-2.8104	-2.5125	-2.9604	477.767	252.991	299.391	363.194	444.593	212.045	418.186	504.693	190.363	226.460	292.661	474.574	514.034	280.389	200.984	407.364	0.00026843	0.00028807	3.2034e-05	1107.1	2.813e-06	5.5926e-06	1163.9	228.92	1.9685e-06	6.5407e-06	287.04	81.909	63.869	18.075	3.8186e-06	26.216	0.00052303	0.00064016	0.00017347	1098.1	6.8704e-06	7.0043e-06	1154.6	228.31	6.8837e-06	7.119e-06	288.07	82.359	64.132	18.412	6.9063e-06	26.644	243.672	224.938	165.186	165.666	271.669	268.997	165.207	172.375	314.419	340.809	172.280	178.485	179.037	186.331	235.439	185.787	-8191	255	
25828.225	1	1	0	0	0.10716	0.093336	0.26505	0.26296	0.25224	0.37523	0.17385	0.067784	0.13639	0.13125	0.20876	0.17101	0.4292	0.084308	0.04472	0.059349	-2.3354	-2.7104	-2.9104	-2.6562	-2.7583	-2.7417	-2.7	-2.9792	-2.6771	-2.4938	-2.9042	-2.6688	-2.7458	-3.0125	-2.4521	-2.6604	457.513	185.816	386.158	403.663	202.329	385.847	501.746	499.342	234.349	483.579	192.304	198.997	182.503	468.768	170.196	178.211	0.00026412	1.452e-05	9.6193e-05	1113.9	2.4148e-06	2.4704e-06	1168.3	228.3	3.0912e-06	5.6236e-06	288.65	81.479	63.539	18.08	2.0083e-06	26.167	0.00052862	0.00062954	0.00017357	1098.7	6.8197e-06	7.1294e-06	1152.8	228.01	6.8176e-06	7.0141e-06	288.78	82.258	64.039	18.372	6.6718e-06	26.607	235.675	373.911	222.461	165.243	344.933	346.756	165.371	172.496	291.077	288.835	171.924	178.577	178.803	186.109	277.264	185.516	-8191	255	
25828.320	1	1	0	0	0.44976	0.084836	0.19623	0.11937	0.22565	0.24826	0.041443	0.30784	0.21793	0.11976	0.28337	0.26512	0.064119	0.12838	0.046082	0.19172	-2.2167	-2.6375	-2.5729	-2.6167	-2.6188	-2.8021	-2.6792	-2.7542	-2.6854	-2.3396	-2.9813	-2.6729	-2.7104	-2.9292	-2.6396	-2.7146	310.165	311.020	422.729	199.481	363.413	297.462	492.161	255.655	455.456	257.963	505.911	498.810	242.004	444.845	211.610	173.506	0.0002421	0.00064535	6.4168e-05	1115.9	3.7198e-06	5.4063e-06	1166.2	229.59	3.7752e-06	1.3857e-06	287.2	81.188	63.444	18.115	4.3282e-06	26.08	0.00052066	0.00063227	0.00017186	1103.9	6.8267e-06	6.8649e-06	1153.9	228.56	6.5624e-06	6.7653e-06	288.04	82.111	64.042	18.397	6.776e-06	26.55	236.457	256.080	246.352	165.477	347.560	341.166	165.240	172.778	311.130	314.737	172.210	178.666	178.962	185.862	308.098	185.502	-8191	255	
25828.416	1	1	0	0	0.14552	0.20465	0.12995	0.24909	0.0447	0.12167	0.27203	0.19805	0.1597	0.2024	0.32597	0.13547	0.28148	0.025042	0.030168	0.17536	-2.3042	-2.5729	-2.9354	-2.7708	-2.5438	-3.0354	-2.7792	-2.8833	-2.7917	-2.5812	-2.8312	-2.7125	-2.5146	-2.8083	-2.5333	-2.7167	422.095	390.448	342.107	481.376	496.448	158.828	411.991	455.771	443.390	263.884	434.900	280.252	435.646	275.938	309.692	475.999	0.00025557	0.00039027	5.9987e-05	1109.1	1.7436e-06	4.3171e-06	1166.5	228.91	3.1459e-06	4.3519e-06	287.53	81.122	63.619	17.99	2.5907e-06	26.19	0.00051688	0.00061154	0.00016849	1098.9	6.7812e-06	6.8189e-06	1152.9	228.43	6.7715e-06	6.7554e-06	288.24	82.049	64.052	18.368	6.6849e-06	26.648	238.714	224.465	248.734	165.394	309.405	276.342	165.487	172.632	317.786	341.379	172.533	178.752	178.844	186.480	272.659	185.242	-8191	255	
25828.537	1	1	0	0	0.10686	0.25986	0.042109	0.20118	0.076581	0.11636	0.21504	0.28168	0.20307	0.15709	0.13836	0.19784	0.094526	0.11332	0.15724	0.17192	-2.4479	-2.5083	-2.7396	-2.5625	-2.3958	-2.9938	-2.7958	-2.6583	-2.9583	-2.5604	-2.6375	-2.4833	-2.5521	-2.7958	-2.7771	-2.6688	207.750	346.527	183.216	480.068	171.364	277.534	441.863	461.816	502.744	374.850	235.017	174.802	486.078	452.894	471.973	466.607	0.00024048	0.00043128	8.7965e-05	1115.5	3.9908e-06	4.4955e-06	1167	229.25	2.382e-06	4.6314e-06	288.9	81.694	63.644	18.033	1.6628e-06	26.29	0.00050957	0.00060104	0.00017428	1101.2	6.5894e-06	6.7925e-06	1153.1	228.29	6.528e-06	6.897e-06	287.52	82.182	64.147	18.418	6.7533e-06	26.642	241.134	239.687	256.293	165.210	331.908	331.367	165.284	172.601	293.924	312.661	172.462	178.773	179.551	186.275	335.061	185.900	-8191	255	
25828.633	1	1	0	0	0.31431	0.27834	0.12133	0.14197	0.12771	0.15317	0.03693	0.068619	0.040974	0.24369	0.20495	0.10833	0.21114	0.2012	0.15224	0.24692	-2.3937	-2.4875	-2.5625	-2.7583	-2.4771	-2.9437	-2.7604	-2.7188	-2.8292	-2.6188	-2.8	-2.6917	-2.5812	-2.7562	-2.6958	-2.5938	308.586	201.336	229.370	363.662	226.972	374.150	507.703	446.478	408.845	415.153	448.346	355.152	196.464	448.177	232.644	396.762	0.00026722	0.00047619	6.8849e-05	1108.2	3.9363e-06	1.8779e-06	1163	228.6	3.0025e-06	3.5022e-06	286.74	81.088	63.427	18.114	2.3606e-06	26.199	0.0005134	0.00062846	0.00017211	1095.6	6.7443e-06	6.8632e-06	1150.7	228.02	6.6519e-06	6.788e-06	287.59	82.098	64.011	18.426	6.6285e-06	26.622	239.151	255.393	290.696	165.569	287.269	260.654	165.390	172.463	290.543	293.164	172.375	178.733	179.523	186.114	353.858	185.299	-8191	255	
25828.729	1	1	0	0	0.026675	0.13914	0.19227	0.2425	0.25376	0.39411	0.40854	0.037701	0.099094	0.11887	0.11327	0.28809	0.32678	0.11578	0.15199	0.11696	-2.3104	-2.6083	-2.7354	-2.8542	-2.5771	-2.9833	-2.7854	-2.4854	-3.0396	-2.6813	-2.7542	-3.0125	-2.5708	-2.8625	-2.8458	-2.5792	327.644	216.036	283.674	156.158	384.308	458.818	477.955	210.311	236.674	369.433	203.903	159.597	182.496	427.631	219.562	489.811	0.00026872	0.00057818	8.9372e-05	1102.9	1.0891e-06	2.2847e-06	1162.7	228.93	2.398e-06	3.0333e-06	287.56	81.107	63.269	18.11	4.3994e-06	26.026	0.00050933	0.00062612	0.00017492	1094	6.6673e-06	6.7908e-06	1151	227.71	6.633e-06	6.9116e-06	287.37	82.016	63.928	18.375	6.5627e-06	26.525	239.355	266.032	238.738	165.385	326.605	293.951	165.306	172.600	266.009	275.605	172.315	178.639	178.846	186.490	289.432	185.670	-8191	255	
25828.801	1	1	0	0	0.23434	0.19407	0.16882	0.20948	0.025015	0.14011	0.10752	0.20109	0.11039	0.068181	0.11723	0.19103	0.097296	0.1335	0.07788	0.15097	-2.4062	-2.4813	-2.5667	-2.8417	-2.3292	-2.725	-2.9062	-2.5479	-2.8792	-2.5979	-2.6688	-2.8792	-2.4792	-2.9083	-2.7812	-2.725	426.483	182.832	257.759	330.905	406.196	511.879	423.681	469.756	414.009	467.388	174.261	170.454	252.607	464.065	326.690	495.132	0.00024081	0.00041164	0.00020273	1103	2.7877e-06	2.8655e-06	1165.2	228.61	2.9047e-06	1.1594e-06	288.62	81.597	62.968	17.924	2.8435e-06	25.973	0.00050395	0.00061748	0.00017457	1097.4	6.6329e-06	6.8558e-06	1150.7	227.48	6.6993e-06	6.7662e-06	288.03	82.083	63.837	18.358	6.8468e-06	26.51	242.776	247.393	228.893	165.559	296.503	279.393	165.266	172.570	293.006	361.700	172.415	178.517	179.007	186.058	335.233	185.191	-8191	255	
25828.920	1	1	0	0	0.095296	0.16104	0.091031	0.093172	0.18508	0.47669	0.15884	0.28156	0.059925	0.22649	0.1851	0.061263	0.12014	0.21383	0.14997	0.10872	-2.525	-2.4271	-2.4021	-2.8771	-2.6688	-2.7479	-2.7562	-2.6479	-2.8438	-2.7812	-2.7208	-2.9854	-2.5625	-2.7458	-2.8125	-2.5354	275.149	272.018	374.548	487.972	421.602	511.241	508.289	431.986	268.421	457.863	362.825	352.370	414.797	203.784	243.394	331.273	0.00027671	0.00037237	8.5868e-05	1108.7	3.4221e-06	4.6459e-06	1159.9	227.93	4.963e-06	4.9587e-06	286.5	81.426	63.411	18.003	2.6807e-06	26.001	0.00051497	0.0006041	0.00016822	1097	6.6493e-06	6.9342e-06	1147.3	227.96	6.6787e-06	6.8991e-06	287.58	82.103	63.896	18.38	6.6489e-06	26.581	238.627	223.214	234.146	165.233	330.102	290.566	165.490	172.660	301.159	320.194	172.265	178.728	178.943	186.254	328.825	185.386	-8191	255	
25829.016	1	1	0	0	0.11877	0.15122	0.12529	0.17722	0.017893	0.30376	0.20992	0.38609	0.18373	0.3877	0.32125	0.14586	0.29679	0.17136	0.056535	0.02914	-2.6375	-2.6562	-2.4958	-2.9146	-2.6042	-2.6688	-3.0792	-2.6146	-2.7646	-2.7792	-2.5687	-3.0062	-2.6813	-2.5312	-2.8292	-2.8354	201.133	180.158	194.713	356.183	204.707	413.336	475.602	444.574	513.942	386.570	451.678	482.292	457.653	442.067	457.981	337.029	0.00025798	0.00036196	0.00011343	1105.3	4.13e-06	1.048e-06	1163.6	228.04	4.5969e-06	3.5279e-06	287.57	81.654	63.806	18.118	3.8148e-06	26.141	0.00050523	0.00061498	0.00017137	1095	6.8335e-06	6.9533e-06	1149.9	227.67	6.5785e-06	6.6447e-06	287.59	82.123	64.001	18.379	6.65e-06	26.61	240.946	248.358	294.403	165.172	354.058	296.112	165.459	172.478	316.393	324.770	172.218	178.499	178.830	186.387	404.727	185.224	-8191	255	
25829.111	1	1	0	0	0.14304	0.13055	0.31227	0.17733	0.077173	0.18631	0.013957	0.16525	0.1969	0.033664	0.18449	0.19645	0.065854	0.11995	0.13122	0.11549	-2.2188	-2.5708	-2.5062	-2.9167	-2.6458	-2.7646	-3.0521	-2.5292	-2.8417	-2.8896	-2.5896	-2.9417	-2.7396	-2.5354	-2.8896	-2.6854	478.410	251.946	328.805	353.126	391.497	334.693	313.717	449.672	362.076	176.751	232.779	438.905	394.290	197.279	436.458	217.687	0.00027345	7.6429e-05	3.2408e-05	1109.6	2.4508e-06	2.5683e-06	1158.9	228.39	2.1273e-06	2.5385e-06	287.07	81.685	63.199	17.996	3.1709e-06	25.923	0.00052044	0.00061669	0.00017242	1095.2	6.5869e-06	6.5966e-06	1148.1	227.79	6.4691e-06	6.6323e-06	287.03	82.129	63.832	18.371	6.461e-06	26.606	245.461	309.918	195.557	165.257	330.981	407.463	165.382	172.407	304.217	279.027	172.495	178.747	178.664	186.534	326.717	185.458	-8191	255	
25829.232	1	1	0	0	0.34255	0.070861	0.22659	0.21896	0.030801	0.055225	0.13374	0.21587	0.21338	0.13138	0.14758	0.046601	0.20412	0.2591	0.26558	0.2189	-2.3167	-2.8396	-2.4125	-2.8146	-2.7062	-2.6083	-3.05	-2.7292	-2.7125	-2.725	-2.6042	-2.8125	-2.75	-2.4146	-2.95	-2.7188	290.322	371.117	379.505	163.141	173.985	335.989	505.556	484.972	425.193	437.877	502.590	332.120	194.997	440.556	483.922	413.335	0.00025962	0.0005048	0.00011161	1103.2	4.9914e-06	3.3567e-06	1158.5	228.1	4.757e-06	4.3302e-06	288.19	81.194	63.542	18.192	3.5464e-06	26.006	0.00050885	0.00060746	0.00016802	1094	6.7304e-06	6.7045e-06	1146.9	227.57	6.3872e-06	6.4668e-06	288.02	81.997	63.822	18.395	6.429e-06	26.588	237.200	261.737	252.796	165.188	335.473	215.316	165.506	172.585	286.896	280.818	172.518	178.908	179.299	185.855	287.844	185.941	-8191	255	
25829.328	1	1	0	0	0.17303	0.23882	0.11001	0.17967	0.17741	0.17844	0.1471	0.090909	0.26745	0.13108	0.41189	0.15747	0.13701	0.24715	0.02354	0.18397	-2.1708	-2.7646	-2.5292	-2.8833	-2.7729	-2.5458	-3.0333	-2.8458	-2.4583	-2.8542	-2.725	-2.8042	-2.8042	-2.6042	-2.8312	-2.5396	316.940	330.849	260.249	200.177	471.752	507.956	407.828	455.899	241.363	463.230	449.824	442.346	316.240	375.640	201.021	486.159	0.00025323	0.0002215	0.00012536	1103	4.2842e-06	3.1277e-06	1161.7	228.83	3.8612e-06	1.3842e-06	287.19	81.311	63.38	17.914	2.0504e-06	26.105	0.00049939	0.00059054	0.0001683	1092.3	6.5261e-06	6.7038e-06	1147.1	227.66	6.3954e-06	6.6789e-06	286.93	81.838	63.861	18.352	6.6356e-06	26.609	242.247	193.696	232.970	165.682	290.545	345.131	165.327	172.485	308.914	498.466	172.145	178.457	179.332	186.010	320.100	185.590	-8191	255	
25829.426	1	1	0	0	0.10828	0.22601	0.1882	0.13405	0.35038	0.33626	0.43397	0.11383	0.35146	0.26432	0.13292	0.048222	0.29702	0.40954	0.26967	0.11253	-2.2708	-2.9208	-2.4	-2.875	-2.7208	-2.5563	-2.8604	-2.6979	-2.5521	-2.9042	-2.7771	-2.6792	-2.8812	-2.4042	-2.9292	-2.8208	452.483	186.863	196.536	207.627	207.962	309.918	446.097	439.320	369.313	229.037	396.585	232.419	486.940	446.164	363.181	463.274	0.00022709	0.00046548	6.8836e-05	1102.4	1.5746e-06	5.8867e-06	1154.9	228.19	7.8256e-07	3.9877e-06	286.34	80.624	63.544	18.055	2.8773e-06	26.132	0.00050756	0.00059646	0.00017221	1094.6	6.425e-06	6.5099e-06	1146.5	227.41	6.5648e-06	6.7424e-06	286.79	81.632	63.854	18.396	6.556e-06	26.609	239.055	221.747	180.780	165.265	315.286	273.188	165.281	172.560	313.380	298.049	172.395	178.674	178.924	186.262	281.311	185.424	-8191	255	
25829.521	1	1	0	0	0.15212	0.040202	0.27069	0.30702	0.13869	0.32553	0.091938	0.085669	0.1509	0.067375	0.23077	0.36985	0.18388	0.14203	0.079985	0.19701	-2.2958	-2.8292	-2.6479	-2.675	-2.85	-2.6417	-2.9125	-2.8312	-2.7021	-2.8271	-2.5917	-2.6729	-2.7542	-2.5812	-2.9313	-2.7438	189.755	192.425	222.961	200.580	165.750	334.183	412.265	257.987	320.815	312.689	384.067	441.707	478.830	223.326	228.441	493.382	0.00025576	4.0755e-05	8.6704e-05	1101.9	2.8258e-06	2.5065e-06	1159.9	227.33	2.7005e-06	2.4933e-06	286.8	81.093	63.577	17.863	3.4106e-06	26.175	0.00049297	0.00061081	0.00016783	1094.3	6.6124e-06	6.7899e-06	1148	227.01	6.4654e-06	6.6149e-06	286.33	81.878	63.944	18.294	6.5409e-06	26.624	241.839	272.589	212.706	165.068	325.905	345.206	165.587	172.479	278.056	355.007	172.135	178.426	179.222	186.404	285.674	185.477	-8191	255	
25829.617	1	1	0	0	0.11352	0.16983	0.28765	0.32992	0.10092	0.26929	0.46816	0.41966	0.060049	0.21768	0.10295	0.093422	0.024416	0.096688	0.11727	0.17006	-2.2625	-2.875	-2.4729	-2.6229	-2.7604	-2.6042	-2.7292	-2.825	-2.4521	-2.9125	-2.5938	-2.7458	-2.9021	-2.5396	-2.6792	-2.8083	305.109	489.535	281.139	168.637	367.683	363.147	434.757	179.642	348.807	413.236	406.658	322.710	425.550	503.543	170.370	446.100	0.00025745	0.00027904	1.756e-05	1103.5	4.8965e-06	4.921e-06	1157	227.61	3.8794e-06	3.2817e-06	285.64	81.226	63.649	18.062	3.6742e-06	25.965	0.00049676	0.00060246	0.00016517	1094.9	6.4187e-06	6.8289e-06	1147.1	227.12	6.3456e-06	6.6951e-06	286.38	81.883	63.925	18.347	6.495e-06	26.524	241.248	225.871	161.438	165.144	317.638	301.517	164.987	172.381	325.603	319.395	172.369	179.020	178.651	186.001	346.779	185.327	-8191	255	
25829.713	1	1	0	0	0.29066	0.26447	0.14908	0.18086	0.085967	0.10757	0.33934	0.23546	0.15846	0.21491	0.19931	0.30844	0.12438	0.3114	0.34623	0.40108	-1.9167	-2.925	-2.4917	-2.5854	-2.8333	-2.5375	-2.8042	-2.8063	-2.4875	-2.7438	-2.7562	-2.4813	-2.8729	-2.55	-2.5708	-2.9	189.955	268.440	385.488	255.534	382.102	266.454	446.277	416.812	171.264	237.745	426.101	507.095	425.976	453.614	338.794	495.112	0.00024734	0.00039383	9.6341e-05	1104.6	3.1957e-06	3.9671e-06	1158.5	227.67	2.585e-06	4.8196e-06	286.26	81.075	63.134	17.912	1.99e-06	25.949	0.00050287	0.00059696	0.00016667	1093.4	6.4601e-06	6.7131e-06	1145.7	227.44	6.2865e-06	6.7984e-06	286.91	81.696	63.687	18.329	6.3988e-06	26.509	238.816	245.620	269.794	165.425	301.346	291.692	165.476	172.203	328.327	253.730	172.005	178.981	179.104	186.246	345.254	185.585	-8191	255	
25829.834	1	1	0	0	0.034552	0.17787	0.1663	0.1819	0.24005	0.18843	0.093915	0.26675	0.25355	0.24069	0.043922	0.15033	0.11994	0.083634	0.050192	0.098334	-2.0333	-2.6979	-2.525	-2.5771	-2.6021	-2.625	-2.4938	-2.7396	-2.3479	-2.9104	-2.8229	-2.6333	-2.7042	-2.775	-2.7042	-2.8354	280.409	407.058	479.299	416.262	379.339	370.891	488.814	464.906	315.252	247.475	327.514	407.849	481.063	182.206	485.063	298.959	0.00023792	0.00016649	8.9783e-05	1096.7	1.7255e-06	6.2608e-06	1158.1	227.55	1.6365e-06	3.3575e-06	286.28	80.868	63.369	17.983	4.3657e-06	25.697	0.00049399	0.00060871	0.00016659	1087.5	6.5358e-06	6.6737e-06	1145.7	227.23	6.2625e-06	6.5556e-06	286.65	81.768	63.849	18.348	6.3503e-06	26.465	251.578	263.402	258.842	165.193	331.646	315.165	165.338	172.576	269.693	294.536	172.137	178.496	179.165	186.266	303.739	185.680	-8191	255	
25829.928	1	1	0	0	0.35761	0.16836	0.34925	0.27926	0.12811	0.15574	0.49363	0.13818	0.18597	0.12923	0.087449	0.28333	0.18863	0.091159	0.16717	0.11454	-2.0646	-2.7646	-2.6521	-2.4188	-2.7938	-2.5458	-2.6604	-3.0521	-2.5563	-2.5812	-2.7708	-2.5104	-2.7792	-2.6417	-2.5312	-2.725	328.927	227.483	471.278	304.013	415.390	268.101	440.237	410.801	332.121	371.006	238.615	460.314	496.354	182.690	490.297	240.268	0.00025751	0.00036713	9.2374e-05	1098.6	2.8275e-06	3.2351e-06	1158.8	227.76	3.0884e-06	2.4674e-06	287.9	80.747	63.552	18.042	3.2535e-06	26.015	0.00048631	0.00060802	0.00016421	1089.4	6.5394e-06	6.5867e-06	1146.6	227.28	6.5306e-06	6.6159e-06	287.09	81.663	63.927	18.341	6.2928e-06	26.517	244.087	231.462	248.622	165.264	308.053	305.219	165.558	172.579	313.723	294.298	172.220	178.625	179.142	185.997	311.322	185.280	-8191	255	
25830.025	1	1	0	0	0.068243	0.027729	0.15362	0.17109	0.09351	0.25684	0.25837	0.22693	0.052476	0.19767	0.088629	0.18366	0.32808	0.081976	0.16308	0.14413	-2.0417	-2.7375	-2.8667	-2.5729	-2.6396	-2.7625	-2.6562	-2.8937	-2.5917	-2.7792	-2.9729	-2.6312	-2.8542	-2.9313	-2.4771	-2.8083	471.043	340.815	319.147	436.910	492.863	212.281	397.819	507.634	442.448	173.131	161.293	502.172	408.588	371.538	490.809	229.410	0.00027742	0.00036887	0.00011914	1110.3	2.5162e-06	2.9966e-06	1157.5	227.87	3.7851e-06	4.3144e-06	286.64	81.327	63.458	17.915	2.7436e-06	26.147	0.00050104	0.00060017	0.0001584	1091.8	6.7166e-06	6.4976e-06	1145.5	227.26	6.3097e-06	6.6334e-06	286.27	81.958	63.808	18.334	6.5147e-06	26.524	239.399	289.820	289.645	165.445	303.044	335.159	165.565	172.544	298.801	277.498	172.279	179.032	179.099	186.633	364.826	185.704	-8191	255	
25830.096	1	1	0	0	0.27582	0.12509	0.18861	0.096463	0.090715	0.19432	0.34956	0.12328	0.078433	0.088387	0.24329	0.32719	0.049373	0.20817	0.28831	0.33205	-2.0771	-2.4354	-2.8292	-2.4667	-2.7458	-2.6167	-2.7396	-2.9271	-2.7292	-2.575	-2.925	-2.6312	-2.7667	-2.7917	-2.4979	-2.7438	279.769	202.445	239.844	311.406	508.484	254.881	445.870	470.454	211.909	445.560	162.549	448.002	500.458	293.033	322.428	479.197	0.00023616	0.00042043	6.4677e-05	1104.3	2.7768e-06	5.4231e-06	1150.9	226.98	3.4059e-06	3.7199e-06	287.81	81.348	63.176	18.007	5.6331e-06	25.977	0.00049108	0.0005929	0.00016089	1090.2	6.5698e-06	6.4646e-06	1143.3	226.98	6.338e-06	6.5211e-06	286.77	81.841	63.647	18.375	6.3037e-06	26.531	238.539	245.283	258.488	165.520	381.189	302.034	165.542	172.431	280.703	358.149	172.381	178.710	179.347	186.018	316.961	185.645	-8191	255	
25830.217	1	1	0	0	0.017544	0.15749	0.15727	0.11146	0.3198	0.27921	0.11425	0.1949	0.060486	0.21099	0.291	0.05091	0.2375	0.23123	0.1123	0.11092	-2.3229	-2.4188	-2.8708	-2.5521	-2.5312	-2.9	-2.5708	-2.7458	-2.5667	-2.6083	-2.9333	-2.6562	-2.7625	-2.8	-2.5104	-2.7875	237.259	187.594	366.064	355.042	415.556	406.960	401.776	168.375	263.256	513.980	467.779	168.699	452.757	434.663	196.671	157.766	0.0002954	0.00020752	7.2595e-05	1095.6	2.4167e-06	2.2193e-06	1153.2	228.12	2.8632e-06	3.9293e-06	285.72	80.874	63.567	17.991	3.5735e-06	25.971	0.00050458	0.00060083	0.0001655	1088.5	6.4545e-06	6.5303e-06	1142.3	227.07	6.4754e-06	6.5315e-06	285.81	81.712	63.848	18.306	6.5547e-06	26.566	237.684	247.743	279.258	165.305	331.190	279.294	165.449	172.436	262.750	247.278	172.345	178.482	178.872	186.307	297.250	185.462	-8191	255	
25830.312	1	1	0	0	0.21264	0.16068	0.22276	0.27032	0.17301	0.13022	0.40067	0.052647	0.17493	0.28461	0.12075	0.042762	0.16063	0.24765	0.10002	0.019626	-2.25	-2.4375	-2.9167	-2.5875	-2.7562	-2.8521	-2.5583	-2.7938	-2.7146	-2.4604	-3.0625	-2.6562	-2.7083	-2.8333	-2.4083	-2.7979	351.842	383.578	365.463	486.393	376.953	222.390	477.666	500.468	431.823	245.205	251.312	418.542	413.906	494.770	491.160	403.672	0.00027452	0.00032574	8.6792e-05	1103.2	2.8258e-06	2.1508e-06	1162.9	227.69	3.34e-06	1.1391e-06	286.77	80.947	62.978	18.09	4.2801e-06	25.874	0.00049777	0.00058152	0.00016507	1091.7	6.3681e-06	6.521e-06	1146.1	227.08	6.3073e-06	6.5588e-06	286.37	81.764	63.707	18.336	6.4412e-06	26.535	236.139	245.166	242.106	165.357	332.144	320.603	165.229	172.613	284.083	345.390	172.554	178.770	179.182	186.178	315.141	185.251	-8191	255	
25830.408	1	1	0	0	0.13812	0.20882	0.028949	0.15581	0.1062	0.21385	0.28961	0.063966	0.15654	0.28209	0.25966	0.18046	0.11557	0.27189	0.17844	0.11759	-2.3708	-2.6396	-2.7875	-2.6437	-2.6104	-2.8271	-2.8396	-2.7812	-2.7271	-2.475	-2.8563	-2.6458	-2.6104	-2.8083	-2.3729	-2.6729	236.197	243.677	220.968	507.611	413.718	262.834	485.008	448.044	412.795	168.267	482.091	320.402	189.429	503.451	511.018	171.745	0.00023389	5.0274e-05	0.00010868	1096.9	3.5995e-06	3.4968e-06	1160.4	228.51	2.0397e-06	2.696e-06	287.9	80.673	63.508	18.023	2.5437e-06	25.809	0.0004907	0.00060015	0.00016394	1087.4	6.4122e-06	6.5398e-06	1145.6	227.32	6.1723e-06	6.477e-06	286.81	81.729	63.782	18.361	6.1766e-06	26.467	243.703	450.663	251.162	165.554	267.970	271.066	165.323	172.565	329.122	287.372	172.271	178.781	178.907	186.471	303.460	185.294	-8191	255	
25830.506	1	1	0	0	0.15237	0.087451	0.078482	0.062361	0.10839	0.28479	0.18438	0.28192	0.045177	0.099956	0.14246	0.12996	0.1606	0.15857	0.21731	0.3679	-2.4104	-2.5333	-2.8646	-2.6813	-2.6188	-2.8833	-2.8	-2.6708	-2.7271	-2.4521	-2.925	-2.8667	-2.525	-2.9333	-2.5375	-2.5792	251.303	195.970	259.116	174.412	209.023	265.436	431.230	505.996	382.886	459.005	164.037	279.686	448.657	169.795	312.264	479.647	0.00022056	0.00023113	9.2887e-05	1100	3.2604e-06	2.179e-06	1153.9	228.51	4.6246e-07	2.0925e-06	288.56	81.33	63.34	18.072	3.6869e-06	25.938	0.00049906	0.00060206	0.00016011	1090.4	6.5513e-06	6.5764e-06	1143.3	226.96	6.2731e-06	6.2869e-06	287.47	81.962	63.831	18.33	6.4012e-06	26.486	239.944	252.149	257.683	165.416	305.687	404.436	165.451	172.798	224.361	297.174	172.390	178.773	179.206	186.373	259.193	185.795	-8191	255	
25830.602	1	1	0	0	0.18949	0.31871	0.053668	0.13364	0.067612	0.15279	0.32992	0.15343	0.063453	0.058854	0.18366	0.21274	0.10035	0.26418	0.20567	0.14524	-2.3604	-2.3917	-2.8521	-2.8292	-2.4458	-2.9042	-2.7562	-2.625	-2.8812	-2.5479	-2.7958	-2.6937	-2.5229	-2.6833	-2.5979	-2.5104	479.618	244.851	380.821	212.349	202.453	402.617	441.370	178.600	405.824	263.446	436.495	462.530	208.561	450.113	347.516	203.448	0.0002534	0.00037113	7.2964e-05	1103.6	3.4232e-06	5.0438e-07	1157.9	228.39	1.9125e-06	1.8759e-06	287.36	80.708	63.047	18.091	4.9038e-06	26.172	0.00049958	0.00060573	0.0001665	1088.7	6.4863e-06	6.5744e-06	1143.9	227.24	6.2932e-06	6.4126e-06	286.07	81.8	63.628	18.365	6.2937e-06	26.535	243.210	306.872	274.366	165.172	327.245	430.364	165.431	172.473	293.985	381.972	172.071	178.604	178.918	186.424	317.370	185.944	-8191	255	
25830.697	1	1	0	0	0.072386	0.046011	0.17833	0.10386	0.060027	0.12728	0.3517	0.25561	0.12014	0.16932	0.12401	0.25488	0.12175	0.10161	0.10128	0.1212	-2.5	-2.4667	-2.8396	-2.8312	-2.3896	-2.6479	-2.8271	-2.6542	-2.9313	-2.5896	-2.8	-2.8729	-2.4417	-2.6771	-2.7542	-2.6208	400.636	331.848	197.548	203.361	177.658	389.286	435.800	422.243	214.922	311.631	205.987	228.424	444.223	198.798	438.451	162.340	0.00026326	0.00022672	0.00017982	1108.7	2.7425e-06	1.1187e-06	1156.2	227.57	1.7757e-06	3.3688e-06	288.93	81.541	63.532	18.075	8.8324e-07	26.161	0.00050127	0.00058046	0.00016718	1091.6	6.4313e-06	6.5737e-06	1144.7	226.97	6.4199e-06	6.6454e-06	286.68	81.766	63.788	18.354	6.4512e-06	26.542	236.447	268.853	254.854	165.298	304.779	369.740	165.375	172.396	309.952	307.904	172.170	178.593	179.041	186.039	196.320	185.574	-8191	255	
25830.795	1	1	0	0	0.11915	0.067623	0.1439	0.12809	0.17059	0.17705	0.15893	0.24348	0.095832	0.20111	0.32975	0.18572	0.21656	0.17983	0.11828	0.18215	-2.5375	-2.4813	-2.725	-2.8396	-2.3958	-2.7104	-2.7583	-2.5708	-2.7687	-2.5042	-2.6979	-2.9146	-2.5187	-2.7021	-2.7521	-2.7333	322.837	167.034	188.221	473.165	217.929	384.986	470.360	502.658	463.514	287.479	482.834	168.861	479.162	186.111	467.872	372.533	0.00025098	0.0007015	9.5732e-05	1103.9	2.2061e-06	2.7881e-06	1157.5	228.52	4.4737e-06	3.5542e-06	284.84	80.9	63.363	18.12	3.4606e-06	25.931	0.00049668	0.00060844	0.00016399	1088.3	6.3633e-06	6.602e-06	1144.3	227.14	6.3019e-06	6.4731e-06	286.03	81.692	63.833	18.417	6.3348e-06	26.468	238.784	286.441	296.608	165.200	323.836	328.091	165.372	172.693	302.089	304.809	172.381	178.927	179.296	186.085	266.620	185.907	-8191	255	
25830.914	1	1	0	0	0.08633	0.25726	0.10771	0.033467	0.1452	0.15502	0.23253	0.17307	0.41341	0.10059	0.34842	0.20469	0.17766	0.44967	0.23065	0.13584	-2.4271	-2.5958	-2.4562	-2.9479	-2.5	-2.6104	-2.9854	-2.7938	-2.9062	-2.7042	-2.6583	-2.8271	-2.6354	-2.7417	-2.6229	-2.5104	300.257	367.965	288.351	335.255	206.096	430.930	452.904	436.665	464.729	163.659	476.717	240.677	162.890	400.919	341.640	407.924	0.00024389	0.0003087	0.00010584	1095	1.8353e-06	1.7607e-06	1157.9	228.37	3.0754e-06	4.0261e-07	289	80.773	62.889	18.06	5.5233e-06	26.024	0.00049536	0.00059027	0.0001609	1087.2	6.5554e-06	6.5096e-06	1144.3	227.21	6.3237e-06	6.4689e-06	287.05	81.726	63.623	18.364	6.311e-06	26.523	245.973	178.003	248.862	165.620	317.241	303.406	165.551	172.492	252.714	257.668	172.464	179.070	178.920	186.027	315.277	185.668	-8191	255	
25831.012	1	1	0	0	0.28845	0.1913	0.12058	0.29336	0.17206	0.22413	0.28666	0.17432	0.11187	0.20108	0.29115	0.081949	0.046416	0.28236	0.37963	0.17918	-2.4354	-2.7396	-2.5563	-3.0229	-2.55	-2.8208	-3.0125	-2.6042	-2.7938	-2.6312	-2.6042	-2.7771	-2.6271	-2.5958	-2.6813	-2.6354	383.771	264.120	276.248	319.677	252.632	168.249	459.631	470.929	434.216	364.614	394.076	164.196	259.150	424.734	227.794	428.624	0.00025147	0.00015909	9.6369e-05	1091.2	2.3463e-06	3.8743e-06	1157.9	227.53	3.5232e-06	1.4983e-06	288.48	80.912	63.435	18.077	3.7591e-06	26.022	0.00049951	0.00059702	0.00016874	1087.3	6.4926e-06	6.5454e-06	1144.1	226.96	6.3575e-06	6.5431e-06	286.6	81.753	63.812	18.381	6.3339e-06	26.525	238.201	253.639	214.867	165.515	244.202	304.562	165.683	172.789	317.394	368.261	172.064	178.524	178.980	186.042	278.672	185.489	-8191	255	
25831.105	1	1	0	0	0.24521	0.10449	0.19008	0.16174	0.19669	0.071101	0.33955	0.23552	0.079745	0.11734	0.22284	0.22969	0.14722	0.3009	0.17486	0.094738	-2.3646	-2.6229	-2.3396	-2.9813	-2.6208	-2.5687	-3.0687	-2.7271	-2.7708	-2.9104	-2.7229	-2.9958	-2.6583	-2.6604	-2.65	-2.6979	445.408	227.736	494.170	454.799	362.584	232.044	451.628	460.213	334.462	347.145	506.580	218.806	429.576	189.244	398.143	248.611	0.00024228	0.00020962	6.8918e-05	1106.3	3.7154e-06	3.5431e-06	1158.3	227.05	2.0364e-06	3.0541e-06	287.51	80.559	63.414	18.108	4.2492e-06	25.898	0.00050235	0.00059886	0.00016791	1089.1	6.5763e-06	6.5082e-06	1144.2	226.64	6.3227e-06	6.498e-06	286.01	81.732	63.802	18.366	6.3124e-06	26.473	241.051	272.725	247.870	165.279	320.538	359.786	165.430	172.690	320.611	284.135	172.240	178.498	178.747	185.957	300.049	186.121	-8191	255	
25831.201	1	1	0	0	0.25609	0.11994	0.18907	0.057828	0.10331	0.1279	0.18816	0.13188	0.088035	0.17513	0.45495	0.15431	0.13263	0.23271	0.057448	0.13325	-2.4667	-2.7458	-2.6312	-2.9125	-2.7667	-2.675	-3.0062	-2.8	-2.7792	-2.8083	-2.5042	-2.8292	-2.6542	-2.5375	-2.9062	-2.6562	498.980	439.479	240.537	237.961	273.271	513.726	395.230	484.010	466.811	241.560	500.455	445.452	430.846	162.659	466.517	180.594	0.00022964	0.00027893	5.9797e-05	1104.1	2.8e-06	3.6127e-06	1150.9	228.85	1.9446e-06	2.2017e-06	287.99	80.985	63.167	18.119	5.1238e-06	25.994	0.00049635	0.00058806	0.00016371	1091.4	6.4962e-06	6.5688e-06	1142	227.25	6.3879e-06	6.5895e-06	286.69	81.888	63.747	18.395	6.3361e-06	26.525	242.023	214.948	335.287	165.546	300.054	281.627	165.534	172.463	274.191	280.713	172.038	178.450	179.214	186.576	336.474	185.671	-8191	255	
25831.322	1	1	0	0	0.2804	0.10885	0.14516	0.23476	0.32239	0.10441	0.25409	0.32543	0.23564	0.1573	0.035685	0.16101	0.19316	0.11612	0.13901	0.35811	-2.2687	-2.7438	-2.5125	-2.9792	-2.7687	-2.3563	-3.0312	-2.7167	-2.6146	-2.875	-2.6167	-2.8167	-2.7083	-2.5583	-2.6917	-2.7458	510.341	245.202	360.317	459.200	234.243	503.439	436.852	451.629	511.457	251.698	248.697	262.251	469.715	336.814	317.375	451.226	0.00025499	0.000262	8.6938e-05	1105.8	1.0944e-06	2.7162e-06	1152.1	228.6	3.0851e-06	1.1359e-06	285.31	81.09	63.203	18.171	3.6654e-06	25.9	0.00049532	0.00059273	0.00016688	1088.5	6.434e-06	6.6096e-06	1141.3	227.03	6.3237e-06	6.5357e-06	286.45	81.751	63.895	18.391	6.5783e-06	26.482	242.411	318.081	269.960	165.251	305.455	302.539	165.531	172.863	309.922	299.653	172.223	178.616	179.244	186.453	256.357	186.146	-8191	255	
25831.393	1	1	0	0	0.049893	0.26433	0.25413	0.1954	0.25619	0.23013	0.16952	0.12148	0.13175	0.055058	0.20224	0.15865	0.089208	0.13419	0.18313	0.064148	-2.2333	-2.6813	-2.5271	-2.8458	-2.8125	-2.4854	-3.0979	-2.7062	-2.7396	-2.7479	-2.4875	-2.7625	-2.8125	-2.6771	-2.6958	-2.5271	338.700	199.042	173.914	370.883	392.192	298.101	497.133	203.748	459.404	426.048	495.763	423.731	155.802	239.674	361.452	190.456	0.00027309	0.0005929	5.8511e-05	1103.3	1.0554e-06	9.6435e-07	1155	227.94	3.5254e-06	3.3562e-06	286.8	80.949	62.836	18.073	1.7916e-06	26.041	0.00050801	0.00060096	0.00016565	1089.2	6.5104e-06	6.3379e-06	1142.1	226.94	6.3114e-06	6.6105e-06	286.61	81.725	63.635	18.363	6.397e-06	26.55	239.831	262.438	269.979	165.375	348.005	345.257	165.465	172.399	322.765	286.237	172.261	178.894	178.918	185.932	302.497	185.362	-8191	255	
#DATA ENDS
