BOXY.EXE: ISS Imagent and Oximeter Data Acquisition Program Version 0.80
Ascii Record File

#ACQ INFORMATION
2  Detector Channels 
16  External MUX Channels 
1  Auxiliary Channels 
5000  Waveform (CCF) Frequency (Hz)
1  Waveforms Skipped 
30  Waveforms Averaged 
1  Cycles Averaged 
16  Acquisitions per Waveform 
10.0806  Updata Rate (Hz) 

#FILE INFORMATION
TRUE -- External MUX Channel results are PARSED.
FALSE -- AC DC and Phase are NOT grouped.
TRUE -- Companion Program Settings File CREATED.
FALSE -- AC data not excluded
FALSE -- DC data not excluded
FALSE -- Phase data not excluded
FALSE -- Auxillary Chn. data not excluded
Tab delimiters

#CALIBRATION STATE
TRUE -- Waveform Calibration Values APPLIED.


#AUX CALIBRATION VALUES
Val Type	aux-1	

Term	1.0000e+00	
Factor	0.0000e+00	


#WF CALIBRATION VALUES
A = Detector Channel
Val Type	A-AC1	A-AC2	A-AC3	A-AC4	A-AC5	A-AC6	A-AC7	A-AC8	A-AC9	A-AC10	A-AC11	A-AC12	A-AC13	A-AC14	A-AC15	A-AC16	A-DC1	A-DC2	A-DC3	A-DC4	A-DC5	A-DC6	A-DC7	A-DC8	A-DC9	A-DC10	A-DC11	A-DC12	A-DC13	A-DC14	A-DC15	A-DC16	A-Ph1	A-Ph2	A-Ph3	A-Ph4	A-Ph5	A-Ph6	A-Ph7	A-Ph8	A-Ph9	A-Ph10	A-Ph11	A-Ph12	A-Ph13	A-Ph14	A-Ph15	A-Ph16	

Term	0.00000e+00	0.00000e+00	0.00000e+00	0.00000e+00	0.00000e+00	0.00000e+00	0.00000e+00	0.00000e+00	0.00000e+00	0.00000e+00	0.00000e+00	0.00000e+00	0.00000e+00	0.00000e+00	0.00000e+00	0.00000e+00	0.00000e+00	0.00000e+00	0.00000e+00	0.00000e+00	0.00000e+00	0.00000e+00	0.00000e+00	0.00000e+00	0.00000e+00	0.00000e+00	0.00000e+00	0.00000e+00	0.00000e+00	0.00000e+00	0.00000e+00	0.00000e+00	0.00000e+00	0.00000e+00	0.00000e+00	0.00000e+00	0.00000e+00	0.00000e+00	0.00000e+00	0.00000e+00	0.00000e+00	0.00000e+00	0.00000e+00	0.00000e+00	0.00000e+00	0.00000e+00	0.00000e+00	0.00000e+00	
Factor	1.00000e+00	1.00000e+00	1.00000e+00	1.00000e+00	1.00000e+00	1.00000e+00	1.00000e+00	1.00000e+00	1.00000e+00	1.00000e+00	1.00000e+00	1.00000e+00	1.00000e+00	1.00000e+00	1.00000e+00	1.00000e+00	1.00000e+00	1.00000e+00	1.00000e+00	1.00000e+00	1.00000e+00	1.00000e+00	1.00000e+00	1.00000e+00	1.00000e+00	1.00000e+00	1.00000e+00	1.00000e+00	1.00000e+00	1.00000e+00	1.00000e+00	1.00000e+00	X	X	X	X	X	X	X	X	X	X	X	X	X	X	X	X	

B = Detector Channel
Val Type	B-AC1	B-AC2	B-AC3	B-AC4	B-AC5	B-AC6	B-AC7	B-AC8	B-AC9	B-AC10	B-AC11	B-AC12	B-AC13	B-AC14	B-AC15	B-AC16	B-DC1	B-DC2	B-DC3	B-DC4	B-DC5	B-DC6	B-DC7	B-DC8	B-DC9	B-DC10	B-DC11	B-DC12	B-DC13	B-DC14	B-DC15	B-DC16	B-Ph1	B-Ph2	B-Ph3	B-Ph4	B-Ph5	B-Ph6	B-Ph7	B-Ph8	B-Ph9	B-Ph10	B-Ph11	B-Ph12	B-Ph13	B-Ph14	B-Ph15	B-Ph16	

Term	0.00000e+00	0.00000e+00	0.00000e+00	0.00000e+00	0.00000e+00	0.00000e+00	0.00000e+00	0.00000e+00	0.00000e+00	0.00000e+00	0.00000e+00	0.00000e+00	0.00000e+00	0.00000e+00	0.00000e+00	0.00000e+00	0.00000e+00	0.00000e+00	0.00000e+00	0.00000e+00	0.00000e+00	0.00000e+00	0.00000e+00	0.00000e+00	0.00000e+00	0.00000e+00	0.00000e+00	0.00000e+00	0.00000e+00	0.00000e+00	0.00000e+00	0.00000e+00	-2.28318e+02	-1.28261e+02	-1.22557e+02	-1.79784e+02	-6.98370e+01	-5.69121e+01	-1.58204e+02	-1.62015e+02	-8.96925e+01	-7.94603e+01	-1.70039e+02	-1.72048e+02	-1.82281e+02	-1.76085e+02	-7.57894e+01	-1.48903e+02	
Factor	4.44743e-05	1.16669e-04	3.11420e-05	1.50107e-01	1.44705e-06	1.30124e-06	1.55391e-01	5.73555e-02	1.61794e-06	1.31520e-06	7.33951e-02	2.70137e-02	2.41607e-02	7.75268e-03	1.42893e-06	1.11630e-02	1.56745e-06	1.64600e-06	4.64896e-07	7.58927e-02	1.78137e-08	1.80026e-08	7.42071e-02	2.88859e-02	1.77144e-08	1.80151e-08	3.60562e-02	1.31780e-02	1.21309e-02	3.93631e-03	1.80715e-08	5.48598e-03	X	X	X	X	X	X	X	X	X	X	X	X	X	X	X	X	



#DISTANCE SETTINGS
A = Detector Channel
A-1	A-2	A-3	A-4	A-5	A-6	A-7	A-8	A-9	A-10	A-11	A-12	A-13	A-14	A-15	A-16	

2.5000e+00	3.0000e+00	2.5000e+00	3.0000e+00	2.0000e+00	3.0000e+00	1.5000e+00	3.0000e+00	3.0000e+00	3.0000e+00	3.0000e+00	3.0000e+00	3.0000e+00	3.0000e+00	1.5000e+00	3.0000e+00	

B = Detector Channel
B-1	B-2	B-3	B-4	B-5	B-6	B-7	B-8	B-9	B-10	B-11	B-12	B-13	B-14	B-15	B-16	

1.0000e+01	1.0000e+01	1.0000e+01	1.4400e+00	1.0000e+01	1.0000e+01	1.5100e+00	1.9400e+00	1.0000e+01	1.0000e+01	1.9900e+00	2.4900e+00	2.4100e+00	2.9000e+00	1.0000e+01	2.9800e+00	




#DATA BEGINS
time	group	step	mark	flag	A-AC1	A-AC2	A-AC3	A-AC4	A-AC5	A-AC6	A-AC7	A-AC8	A-AC9	A-AC10	A-AC11	A-AC12	A-AC13	A-AC14	A-AC15	A-AC16	A-DC1	A-DC2	A-DC3	A-DC4	A-DC5	A-DC6	A-DC7	A-DC8	A-DC9	A-DC10	A-DC11	A-DC12	A-DC13	A-DC14	A-DC15	A-DC16	A-Ph1	A-Ph2	A-Ph3	A-Ph4	A-Ph5	A-Ph6	A-Ph7	A-Ph8	A-Ph9	A-Ph10	A-Ph11	A-Ph12	A-Ph13	A-Ph14	A-Ph15	A-Ph16	B-AC1	B-AC2	B-AC3	B-AC4	B-AC5	B-AC6	B-AC7	B-AC8	B-AC9	B-AC10	B-AC11	B-AC12	B-AC13	B-AC14	B-AC15	B-AC16	B-DC1	B-DC2	B-DC3	B-DC4	B-DC5	B-DC6	B-DC7	B-DC8	B-DC9	B-DC10	B-DC11	B-DC12	B-DC13	B-DC14	B-DC15	B-DC16	B-Ph1	B-Ph2	B-Ph3	B-Ph4	B-Ph5	B-Ph6	B-Ph7	B-Ph8	B-Ph9	B-Ph10	B-Ph11	B-Ph12	B-Ph13	B-Ph14	B-Ph15	B-Ph16	aux-1	digaux	

7213.596	1	1	0	512	0.16829	0.087792	0.10888	0.10315	0.072856	0.1374	0.14066	0.32271	0.1057	0.15014	0.26615	0.1919	0.17252	0.5065	0.18854	0.23708	-2.6021	-3.15	-2.9292	-3.3312	-3.0375	-2.9062	-3.375	-3.2167	-3.0104	-3.1958	-2.9938	-3.225	-3.1979	-2.9417	-3.2375	-3.3729	147.195	289.246	172.136	175.502	234.960	283.752	255.647	272.702	25.399	296.820	299.614	281.495	44.810	288.796	103.816	264.766	0.00053606	0.00061868	0.00021694	343.83	1.0787e-05	1.0813e-05	546.4	134.19	7.0779e-06	4.0984e-06	277.95	133.07	60.287	27.65	1.2073e-05	71.015	0.0015507	0.0014786	0.00042187	415.27	1.7035e-05	1.6303e-05	608.56	161.24	1.6941e-05	1.6099e-05	306.28	144.25	70.583	30.781	1.7244e-05	75.76	40.845	77.057	162.775	-39.338	73.734	49.989	-38.692	-34.344	72.959	162.600	-34.899	-31.158	-31.316	-26.465	159.354	-27.968	-8191	255	
7213.692	1	1	0	0	0.055983	0.20877	0.070009	0.19816	0.082591	0.18785	0.18213	0.2529	0.30642	0.063806	0.2509	0.25327	0.17525	0.11034	0.070501	0.31654	-2.6646	-3.1979	-2.975	-3.2375	-3.3542	-2.8917	-3.3333	-3.0687	-2.8833	-3.2458	-3.1479	-3.2042	-3.1542	-2.9875	-3.2521	-3.3063	292.957	152.610	248.957	233.266	-15.004	135.219	230.335	291.606	66.421	248.334	268.561	54.583	30.175	55.875	160.956	262.363	0.0004411	0.00083371	0.00021641	343.69	4.9342e-06	3.8274e-06	547.54	133.85	1.0436e-05	8.6123e-06	276.84	133.65	60.352	27.56	8.6185e-06	71.34	0.0015202	0.0014589	0.00045689	416.98	1.6898e-05	1.6187e-05	616.04	161.27	1.7013e-05	1.6271e-05	310.2	144.84	70.942	30.869	1.928e-05	75.992	54.922	5.587	140.150	-39.307	114.476	48.756	-38.820	-34.430	137.285	-31.609	-34.546	-30.914	-31.131	-26.664	151.518	-27.675	-8191	255	
7213.764	1	1	0	0	0.20497	0.20277	0.16906	0.17185	0.10417	0.11781	0.13527	0.12159	0.28965	0.078803	0.18511	0.041686	0.078602	0.22235	0.19554	0.39016	-2.7021	-3.2229	-3.1083	-3.0187	-3.3458	-2.8333	-3.3063	-3.2938	-2.8396	-3.3958	-3.2208	-3.0792	-3.2729	-2.9479	-3.2896	-3.3167	155.064	138.308	-6.155	291.923	289.811	202.532	231.280	135.136	203.284	82.490	250.642	5.601	117.485	144.002	290.499	236.046	0.00084705	8.7809e-05	6.2507e-05	343.52	1.1365e-05	5.3761e-06	550.03	134.53	5.4644e-06	1.276e-05	277.35	133.12	60.598	27.442	5.0382e-06	71.115	0.001565	0.0015354	0.00050887	417.69	1.7432e-05	1.7307e-05	625.68	161.38	1.7357e-05	1.7377e-05	313.09	144.82	71.079	30.961	2.0376e-05	75.614	73.415	246.154	112.173	-39.541	85.344	196.712	-38.740	-34.203	187.025	191.981	-34.727	-30.884	-30.892	-26.585	121.370	-27.944	-8191	255	
7213.883	1	1	0	0	0.067263	0.21708	0.056731	0.10505	0.048891	0.14752	0.1706	0.27421	0.061332	0.2149	0.19579	0.034875	0.099954	0.074779	0.039752	0.26799	-2.575	-3.2167	-2.8	-3.0083	-3.2313	-2.8875	-3.2229	-3.2083	-2.6312	-3.3604	-3.1542	-3.2208	-3.3354	-2.8292	-3.2542	-3.3542	9.193	73.689	-2.617	277.780	250.556	250.141	290.337	252.128	14.215	262.491	-19.746	121.636	206.918	88.147	-44.255	221.222	0.00054998	0.00041683	0.00032546	343.99	2.9957e-06	7.9468e-06	551.17	133.82	7.389e-06	1.0836e-05	277.93	132.88	60.38	27.557	1.0247e-05	71.093	0.0015495	0.0016183	0.00052585	414.15	1.6874e-05	1.8042e-05	624.55	159.49	1.6715e-05	1.8001e-05	311.38	143.82	70.404	31.133	1.9419e-05	75.231	51.414	80.731	-50.609	-39.223	48.933	234.794	-38.763	-34.278	33.469	171.569	-34.918	-31.282	-30.874	-26.578	232.397	-27.903	-8191	255	
7213.979	1	1	0	0	0.17889	0.038571	0.19538	0.20111	0.035333	0.14854	0.071458	0.21898	0.17159	0.18378	0.23881	0.12238	0.12396	0.30479	0.070267	0.2863	-2.2854	-3.175	-2.9688	-2.9146	-3.2729	-2.8146	-3.2792	-3.3083	-2.725	-3.225	-3.2396	-3.2708	-3.3708	-3.1875	-3.175	-3.3729	245.209	285.520	74.260	-34.296	294.774	248.351	-6.759	51.648	300.591	-48.402	185.439	44.700	253.308	-38.063	74.147	282.408	0.00034451	4.3567e-05	6.2008e-05	346.03	2.76e-06	6.5797e-06	551.7	133.1	4.0787e-06	6.9886e-06	278.17	134.12	60.454	27.608	3.1211e-06	71.597	0.0014664	0.0016799	0.00049864	410.79	1.6343e-05	1.884e-05	620.95	158.58	1.6346e-05	1.8984e-05	310.24	144.25	70.563	31.487	1.8754e-05	75.631	69.110	174.707	50.976	-39.002	219.201	149.653	-38.890	-34.155	236.505	116.798	-35.216	-31.108	-30.843	-26.576	299.137	-28.028	-8191	255	
7214.075	1	1	0	0	0.05903	0.24542	0.26648	0.18643	0.20618	0.056193	0.23302	0.19066	0.04204	0.16572	0.2388	0.16147	0.14465	0.093914	0.2763	0.27774	-2.5521	-3.2771	-3.1729	-3.2542	-3.2875	-3.2	-3.1354	-3.3792	-3.025	-3.025	-3.2792	-3.0083	-3.2479	-3.1042	-3.0438	-3.4583	288.615	-11.521	10.322	-44.615	149.550	296.179	-12.849	-6.038	20.953	28.674	-8.948	28.918	294.447	-31.938	35.542	262.831	0.00059803	0.00054132	0.0001513	345.54	8.1756e-06	7.5328e-06	554.72	134.3	2.2039e-06	9.516e-06	278.48	134.65	61.04	27.784	7.0156e-06	71.744	0.0014916	0.0017764	0.00048235	411.11	1.6826e-05	1.986e-05	621.92	159.18	1.7179e-05	2.0043e-05	310.73	144.98	71.749	31.808	1.8373e-05	75.789	67.341	77.984	17.272	-39.884	175.949	233.441	-38.751	-34.448	119.129	201.200	-34.815	-31.104	-30.855	-26.579	21.471	-27.968	-8191	255	
7214.171	1	1	0	0	0.079883	0.1867	0.11068	0.23226	0.087015	0.15446	0.15366	0.052919	0.083492	0.19724	0.28234	0.19419	0.18946	0.068961	0.21994	0.09334	-2.6083	-2.9896	-3.2896	-3.0375	-3.2521	-3.0521	-2.9792	-3.15	-2.8688	-3.0563	-3.2979	-2.9521	-3.2708	-3.3688	-2.9417	-3.6437	90.910	-48.275	1.982	14.777	232.393	59.077	80.287	-5.510	55.947	120.780	262.443	-43.162	165.143	177.138	203.289	298.069	0.00082722	0.00054168	0.00031243	344.33	7.8279e-06	1.1031e-05	554.19	134.27	7.9729e-06	1.1005e-05	279.2	134.71	60.815	27.669	1.7617e-05	71.183	0.0016024	0.0018435	0.00047606	410.38	1.8342e-05	2.0422e-05	622.27	158.97	1.8837e-05	2.0582e-05	310.7	145.17	73.088	31.855	1.8643e-05	75.696	58.654	29.725	53.871	-39.488	216.002	24.372	-39.038	-34.035	119.051	307.280	-35.130	-31.189	-30.593	-26.820	213.855	-27.800	-8191	255	
7214.292	1	1	0	0	0.10583	0.14866	0.25638	0.17401	0.1236	0.16552	0.054275	0.18766	0.10237	0.21423	0.19051	0.18421	0.1998	0.26432	0.16278	0.016166	-2.6375	-3.05	-3.2313	-3.1042	-3.2125	-3.1188	-3.0062	-3.3771	-2.9896	-3.0854	-3.3479	-2.8083	-3.1792	-3.2854	-2.7687	-3.3187	-11.729	-15.496	-49.413	265.772	149.376	81.434	151.693	273.017	173.624	171.106	231.173	-13.848	6.412	171.646	267.569	126.624	0.0010656	0.00020784	5.078e-05	344.43	4.4757e-06	4.76e-06	550.93	133.67	9.1899e-06	1.1995e-05	279.68	135.1	61.315	27.93	1.0933e-05	71.675	0.0017789	0.0018588	0.00047657	411.44	1.9822e-05	2.001e-05	618.76	159.53	2.0202e-05	2.0185e-05	310.29	145.45	74.168	31.806	1.8469e-05	75.933	59.585	237.334	147.696	-39.510	258.717	75.902	-39.285	-34.389	180.377	54.096	-35.070	-31.081	-30.690	-26.650	61.730	-27.891	-8191	255	
7214.364	1	1	0	0	0.2791	0.05962	0.18376	0.48251	0.08191	0.31905	0.060142	0.065125	0.14773	0.051775	0.23296	0.45724	0.19215	0.11926	0.17325	0.11486	-2.7854	-3.2104	-3.2396	-2.9208	-3.3833	-3.05	-3.1521	-3.4479	-3.0583	-2.9729	-3.5104	-3.0521	-3.1604	-3.0333	-2.8979	-3.5083	283.136	67.562	180.030	181.157	116.415	195.568	293.294	-7.731	248.143	246.098	280.212	-11.791	282.463	73.118	276.739	233.243	0.00078578	0.0010479	0.00014271	343.9	8.244e-06	6.9375e-06	553.6	134.12	7.5636e-06	9.8286e-06	278.51	134.52	61.568	27.909	1.9414e-06	71.801	0.0018655	0.0018108	0.00046962	416.37	2.0813e-05	1.9513e-05	619.38	161.29	2.0854e-05	1.9508e-05	309.48	146.35	74.457	31.733	1.8012e-05	76.577	32.567	291.225	111.300	-39.047	169.011	76.633	-38.972	-34.496	123.641	59.334	-35.131	-31.096	-30.754	-26.826	23.205	-27.804	-8191	255	
7214.460	1	1	0	0	0.066027	0.093321	0.080198	0.10529	0.07314	0.24488	0.09965	0.1476	0.4234	0.11842	0.1805	0.067962	0.073311	0.2208	0.099848	0.2189	-2.7313	-3.0917	-3.2479	-3.1271	-3.2687	-3.1333	-3.0854	-3.1979	-3.1854	-3.1292	-3.2229	-3.0667	-3.0521	-3.2979	-2.8667	-3.3438	106.863	223.663	47.549	293.518	-8.145	169.493	-20.997	156.561	145.331	294.370	290.318	201.484	97.194	118.376	190.442	-38.568	0.00031474	0.00058917	0.00021494	342.98	3.3906e-07	1.0423e-07	551.88	133.53	1.7589e-05	1.1736e-05	278.23	134.31	61.172	27.881	7.2084e-06	71.893	0.0018589	0.0017367	0.00045411	420.04	2.0517e-05	1.866e-05	616.71	162.77	2.0065e-05	1.8515e-05	307.49	146.53	73.414	31.513	1.7258e-05	76.773	67.531	72.258	34.190	-39.199	164.461	83.087	-39.039	-34.008	31.079	-24.889	-34.914	-31.007	-30.990	-26.990	247.177	-27.764	-8191	255	
7214.580	1	1	0	0	0.12121	0.18429	0.17469	0.35779	0.11796	0.14814	0.26112	0.18021	0.23605	0.14021	0.20377	0.12996	0.06936	0.080739	0.20232	0.28554	-2.8271	-2.9	-3.2521	-3.1083	-3.1083	-3.4667	-3.05	-3.3333	-3.1	-2.7521	-3.3333	-3.0187	-2.9021	-3.4667	-2.825	-3.4521	132.624	105.741	158.211	-26.385	88.093	125.052	280.724	261.961	-31.245	33.543	58.104	288.461	128.731	164.634	88.797	294.571	0.00049083	0.00069736	0.00010881	342.69	8.6968e-06	5.7812e-06	547.78	134.38	7.7503e-06	3.3217e-06	277.72	133.58	60.712	27.864	4.093e-06	71.456	0.0017429	0.0016311	0.00043671	420.89	1.8826e-05	1.725e-05	610.64	162.76	1.8304e-05	1.7167e-05	306.34	145.55	71.979	31.126	1.6939e-05	76.272	20.105	299.185	33.428	-39.019	62.339	51.600	-38.753	-34.367	5.677	36.720	-35.180	-31.070	-31.082	-26.518	181.030	-28.002	-8191	255	
7214.677	1	1	0	0	0.029247	0.18278	0.1334	0.17129	0.59505	0.13536	0.11065	0.10598	0.12924	0.29768	0.11103	0.10054	0.2321	0.12541	0.25811	0.31822	-2.7438	-2.8146	-3.3167	-3.1125	-2.9813	-3.4771	-3.1854	-3.0229	-3.1208	-2.9125	-3.3396	-3.1292	-2.9292	-3.4417	-3.1604	-3.3187	-31.247	180.991	142.852	190.477	159.703	202.283	-25.332	244.640	87.652	301.114	304.314	247.943	265.767	196.343	303.448	-46.821	0.00046902	0.00065671	0.00016217	345.12	7.8355e-06	6.1465e-06	544.51	134.76	7.7309e-06	5.8647e-06	276.84	132.68	60.808	27.834	1.1397e-05	71.857	0.0015903	0.0015265	0.00043675	418.04	1.7442e-05	1.6138e-05	608.07	162.05	1.6703e-05	1.5953e-05	305.39	144.47	70.871	30.937	1.7084e-05	76.098	56.194	25.714	123.528	-39.157	87.849	71.785	-38.723	-33.923	23.699	106.218	-35.001	-31.096	-31.150	-26.735	181.765	-27.965	-8191	255	
7214.773	1	1	0	0	0.063873	0.22266	0.080482	0.10954	0.16783	0.34232	0.24634	0.27439	0.080915	0.07878	0.21305	0.19475	0.26831	0.079691	0.2202	0.15336	-2.8438	-2.8625	-3.1958	-3.1833	-3.0458	-3.1417	-3.2354	-3.2042	-3.1937	-2.8458	-3.1854	-3.3667	-2.9562	-3.3521	-3.1083	-3.1125	80.592	-51.220	200.028	19.829	-6.218	96.879	242.677	252.358	-15.513	38.620	236.618	282.293	-40.517	99.338	298.492	285.092	0.00063127	0.0010757	0.0001466	342.44	7.6822e-06	5.2214e-06	546.44	135.51	1.4669e-05	6.6164e-06	276.36	133.15	60.71	27.922	8.0462e-06	71.549	0.001461	0.0014173	0.00044265	412.36	1.6289e-05	1.5292e-05	610.56	160.86	1.5987e-05	1.5475e-05	307.57	143.8	70.56	30.974	1.8092e-05	75.991	69.572	36.181	190.948	-39.128	42.845	46.937	-38.852	-34.066	75.268	252.291	-34.703	-31.163	-30.518	-26.558	192.660	-27.788	-8191	255	
7214.869	1	1	0	0	0.31435	0.20188	0.26152	0.22609	0.0091275	0.089501	0.26232	0.21856	0.13708	0.031116	0.066434	0.21837	0.091958	0.087153	0.18328	0.0659	-2.8104	-2.8625	-3.0729	-3.2604	-3.0667	-3.2833	-3.1063	-3.2396	-3.2938	-2.8271	-3.3042	-3.15	-3.2188	-3.5042	-3.1167	-3.2438	74.856	37.788	54.063	-9.436	10.660	-50.384	218.904	170.090	131.510	242.174	-17.607	-31.555	125.753	-41.235	291.640	134.403	0.00061261	0.00076148	9.0052e-05	343.28	6.0028e-06	1.0893e-05	547.81	134.81	1.0087e-05	2.8033e-06	279.1	133.22	60.421	27.776	9.0618e-06	71.519	0.0014396	0.0014359	0.00047027	410.99	1.6018e-05	1.5722e-05	616.73	159.55	1.5734e-05	1.6097e-05	310.6	143.51	70.178	31.042	1.8754e-05	75.617	73.044	8.895	111.672	-39.626	18.816	221.658	-38.507	-34.328	155.898	78.413	-34.821	-31.094	-30.694	-26.574	103.920	-27.838	-8191	255	
7214.963	1	1	0	0	0.10902	0.038022	0.15787	0.20735	0.1586	0.096326	0.13153	0.18244	0.18795	0.1467	0.12721	0.25461	0.06575	0.13145	0.083826	0.306	-2.9146	-2.8812	-3.1708	-3.2875	-3.0958	-3.3812	-3.2854	-3.0438	-3.3292	-3.0583	-3.3375	-3.3125	-3.1042	-3.4583	-3.0208	-3.1979	-51.981	186.870	159.082	261.961	-34.795	41.910	-36.309	241.126	133.920	57.322	-14.344	305.233	125.541	221.175	289.217	306.735	0.00050452	0.00024818	0.00021352	342.52	1.3036e-06	9.7936e-06	548.69	134.42	1.4191e-05	6.2613e-06	276.8	133.4	60.62	27.766	9.2854e-06	71.194	0.0014251	0.0015229	0.00047964	407.83	1.5728e-05	1.6796e-05	616.62	158.48	1.5461e-05	1.7421e-05	309.68	143.2	70.325	31.324	1.8779e-05	75.222	63.010	227.711	18.181	-39.594	235.771	298.624	-38.895	-34.468	-7.445	146.430	-34.834	-31.049	-31.002	-26.585	90.770	-28.086	-8191	255	
7215.059	1	1	0	0	0.31454	0.31265	0.17355	0.27426	0.10303	0.011174	0.39131	0.12004	0.13439	0.025078	0.10877	0.30269	0.10143	0.13507	0.11033	0.25826	-3.0896	-3	-3.2271	-3.2938	-3.0771	-3.375	-3.3854	-3.1521	-3.2771	-3.1646	-3.0521	-3.4521	-2.9333	-3.1562	-3.2146	-3.2146	102.781	216.072	248.144	39.699	-7.499	53.435	270.716	1.658	-38.013	77.140	197.996	51.106	306.968	-40.854	-48.351	294.636	0.00078138	0.00027479	0.00013005	344.49	8.6774e-06	4.7314e-06	550.96	134.19	4.4876e-06	8.9254e-06	280.96	133.89	60.895	27.856	1.2139e-05	71.721	0.0014065	0.0016514	0.00047748	406.7	1.5858e-05	1.8244e-05	616.04	158.58	1.5773e-05	1.8764e-05	309.95	143.67	70.721	31.646	1.8276e-05	75.489	42.307	46.753	30.059	-39.226	157.551	138.744	-38.960	-34.239	178.133	293.293	-34.974	-31.110	-30.812	-26.699	31.973	-27.872	-8191	255	
7215.180	1	1	0	0	0.19645	0.11286	0.022533	0.16449	0.18428	0.36277	0.095998	0.084842	0.11551	0.2393	0.13514	0.24976	0.10711	0.41779	0.062565	0.083069	-2.8688	-3.0938	-3.1063	-3.0042	-2.9958	-3.2979	-3.0042	-3.0646	-3.3937	-3.1646	-3.1208	-3.4104	-3.05	-3.3125	-3.2958	-3.0583	220.950	86.624	-11.547	275.682	171.165	-17.190	106.692	225.569	103.103	100.258	-49.118	282.708	225.547	248.575	197.146	226.775	0.0010179	0.00063513	0.00031438	344.27	5.5306e-06	1.0466e-05	552.48	134.19	6.9886e-06	1.919e-06	278.43	134.87	61.117	27.956	1.1505e-05	71.662	0.0014703	0.0017779	0.00047497	408.81	1.716e-05	1.9886e-05	619.01	159.71	1.7276e-05	2.0266e-05	310.43	144.83	72.149	32.07	1.8606e-05	76.041	65.352	114.808	-30.122	-39.277	156.689	159.594	-38.872	-34.386	157.617	-25.687	-34.806	-31.068	-31.003	-27.140	117.544	-27.998	-8191	255	
7215.276	1	1	0	0	0.13496	0.17213	0.31406	0.13836	0.13712	0.12669	0.34056	0.23732	0.094438	0.19015	0.27105	0.22982	0.038431	0.10395	0.21	0.23582	-2.9437	-3.2188	-3.0438	-3.4979	-3	-3.3083	-3.3854	-2.9938	-3.4792	-3.0062	-3.2042	-3.4896	-2.7646	-3.3729	-3.2229	-3.0479	212.897	22.096	290.493	283.170	115.934	96.412	304.297	199.622	135.624	52.295	304.636	261.386	128.767	124.421	297.828	261.052	0.00084071	0.00054717	9.5151e-05	343.39	1.5897e-05	4.5536e-06	552.11	134.29	1.546e-05	8.3288e-06	279.66	135.12	61.159	27.918	1.9521e-05	71.238	0.0016428	0.0018812	0.0004822	410.32	1.8972e-05	2.0643e-05	619.26	159.64	1.9318e-05	2.0661e-05	311.15	145.47	73.769	31.985	1.8799e-05	75.606	57.538	-30.944	279.256	-39.221	147.880	118.552	-38.988	-34.574	121.169	155.520	-34.914	-31.420	-31.152	-26.871	39.731	-28.083	-8191	255	
7215.372	1	1	0	0	0.22862	0.15007	0.11956	0.20309	0.094526	0.14449	0.34681	0.28378	0.1699	0.1145	0.081137	0.27076	0.27163	0.21334	0.17511	0.1649	-2.9	-2.9625	-3.0208	-3.425	-3.0687	-3.3187	-3.5042	-2.8896	-3.2771	-3.0208	-3.2833	-3.3937	-3.1042	-3.0938	-3.3292	-3.1896	287.887	-28.812	186.159	254.873	55.731	24.540	227.011	200.471	148.974	289.960	31.493	-51.783	32.796	-25.297	-45.117	272.263	0.0010016	0.0010069	0.00017262	342.72	3.8304e-06	8.975e-06	551.03	134.26	3.6976e-06	6.7548e-06	278.91	134.08	60.92	27.736	1.1351e-05	71.055	0.0018119	0.0018862	0.00048946	412.37	2.0728e-05	2.053e-05	618.88	160.66	2.0847e-05	2.0456e-05	310.23	145.44	74.256	31.736	1.8495e-05	75.555	59.120	275.877	102.070	-39.560	147.149	167.722	-39.229	-34.173	178.874	53.726	-35.004	-31.582	-30.868	-26.742	100.307	-28.148	-8191	255	
7215.468	1	1	0	0	0.11111	0.26729	0.07336	0.11847	0.17623	0.12861	0.069529	0.081808	0.11901	0.22659	0.14506	0.29438	0.14185	0.17928	0.073735	0.13277	-2.8625	-3.0333	-2.9292	-3.1562	-3.0438	-3.1875	-3.2833	-3.0604	-3.1937	-3.2667	-2.9917	-3.4854	-3.0896	-3.0333	-3.4896	-2.9292	105.206	-16.964	213.874	237.395	176.877	287.173	160.186	274.009	215.274	246.784	271.732	286.304	45.746	247.049	117.176	191.225	0.00104	0.00046103	9.0591e-05	341.6	1.3229e-05	6.6413e-06	548.51	133.49	1.1012e-05	4.1792e-06	277.96	134.87	61.562	27.785	8.5072e-06	71.009	0.0018763	0.0018013	0.00047331	414.32	2.1184e-05	1.9584e-05	616.16	161.49	2.1173e-05	1.9585e-05	309.12	146.8	74.71	31.624	1.8318e-05	76.162	49.756	-40.062	-16.771	-39.446	180.116	24.387	-39.233	-34.257	0.111	78.285	-35.207	-31.172	-31.187	-27.229	34.925	-27.885	-8191	255	
7215.589	1	1	0	0	0.15348	0.22654	0.3241	0.049605	0.15647	0.14163	0.14466	0.10188	0.08411	0.076088	0.2001	0.28241	0.11589	0.087753	0.08256	0.29146	-2.9188	-3.2208	-2.975	-3.2667	-3.2229	-3.1146	-3.3792	-2.8104	-3.3042	-3.2562	-2.9021	-3.5396	-3.1312	-2.9313	-3.1604	-3.15	229.499	148.786	86.824	271.597	165.977	272.819	145.347	263.037	248.359	50.772	283.954	256.034	256.363	256.243	189.534	203.402	0.00087363	0.00038612	9.7377e-05	342.85	1.7464e-05	6.0417e-06	551.65	133.42	4.3273e-06	4.8644e-06	277.79	134.51	61.016	27.645	7.9412e-06	70.774	0.0019092	0.0017796	0.00047179	421.62	2.1029e-05	1.9298e-05	617.14	163.8	2.0623e-05	1.9034e-05	308.74	147.67	73.879	31.45	1.8166e-05	76.288	70.343	291.144	-29.925	-39.719	42.386	57.991	-39.114	-34.127	13.602	-17.847	-34.968	-31.227	-30.881	-26.880	121.790	-28.166	-8191	255	
7215.661	1	1	0	0	0.053492	0.083963	0.18729	0.031918	0.30551	0.11527	0.2304	0.040723	0.17956	0.2416	0.049863	0.10643	0.090948	0.098347	0.042218	0.14523	-2.7167	-3.4688	-2.8417	-3.3083	-3.2833	-2.8792	-3.5354	-2.9313	-3.0375	-3.3146	-3.1354	-3.4417	-3.2333	-2.9583	-3.1375	-3.1792	-50.818	55.034	-10.213	41.374	106.680	43.451	235.976	98.554	2.060	204.907	215.788	249.871	247.191	289.635	137.581	267.700	0.00048904	0.00054381	3.6847e-05	342.62	1.3592e-05	8.5883e-06	548.53	132.49	6.0363e-06	9.209e-06	276.23	134.49	60.695	27.402	4.2176e-06	70.512	0.0018307	0.0017304	0.00047783	426.47	2.0397e-05	1.8992e-05	617.09	165.14	1.9957e-05	1.8757e-05	309.5	147.39	72.994	31.134	1.8981e-05	75.954	62.362	49.262	165.820	-39.133	51.798	113.332	-39.167	-34.190	43.148	80.884	-34.671	-31.195	-31.477	-27.109	-36.712	-28.344	-8191	255	
7215.757	1	1	0	0	0.08377	0.25829	0.22409	0.13009	0.34548	0.072412	0.15835	0.05404	0.13704	0.073697	0.066308	0.34092	0.2543	0.21771	0.35309	0.050689	-2.6875	-3.3917	-2.9167	-3.1271	-3.1312	-3.1104	-3.4354	-3.1896	-3.1104	-3.2979	-3.0583	-3.4771	-3.2229	-3.1125	-3.0708	-3.1813	-18.088	201.439	258.569	57.071	-24.257	215.016	-49.371	59.079	28.422	259.752	-50.732	276.629	286.203	245.152	27.364	213.006	0.00070476	0.00047233	0.00015522	340.79	1.3224e-05	1.0077e-05	549.72	132.61	5.924e-06	8.2115e-06	276.77	133.9	60.547	27.435	1.1969e-05	70.168	0.0017489	0.0016939	0.00050169	426.8	1.9586e-05	1.845e-05	620.38	165.04	1.9224e-05	1.8181e-05	310.73	146.73	72.156	30.928	2.0199e-05	75.472	50.941	61.330	113.318	-39.189	81.177	47.248	-39.082	-34.199	64.877	86.588	-35.042	-31.207	-31.203	-26.905	178.297	-28.093	-8191	255	
7215.853	1	1	0	0	0.072327	0.10848	0.16868	0.27151	0.10117	0.044153	0.23153	0.31358	0.38253	0.011063	0.32375	0.4327	0.1614	0.025583	0.087048	0.14608	-2.6562	-3.3896	-2.95	-3.2833	-3.1542	-2.8896	-3.3333	-2.95	-2.8604	-3.3417	-3.0042	-3.4229	-3.3208	-3.0563	-3.2062	-3.2396	80.065	168.373	194.102	-43.090	262.393	86.584	-38.072	0.047	3.364	124.646	262.859	256.950	191.424	66.618	296.801	185.753	0.00068	0.00070804	0.00022685	341.63	8.9522e-06	4.3705e-06	545.24	132.63	8.5072e-06	4.3145e-06	274.19	133.07	60.376	27.21	7.2463e-06	69.866	0.0016987	0.0016492	0.00053194	423.04	1.8828e-05	1.8203e-05	623.7	163.05	1.8716e-05	1.7905e-05	311.51	145.91	71.578	30.745	2.0746e-05	74.934	51.462	156.363	136.612	-39.582	116.382	36.644	-39.108	-34.279	23.072	230.549	-34.951	-31.248	-31.106	-26.889	183.295	-28.257	-8191	255	
7215.972	1	1	0	0	0.17541	0.28229	0.22676	0.090913	0.096032	0.056643	0.14372	0.11055	0.22645	0.087947	0.16238	0.31537	0.26507	0.18384	0.17019	0.024802	-2.6479	-3.1917	-2.8646	-3.3521	-3.2458	-3.0062	-3.3604	-3.175	-3.0208	-3.3458	-3.1667	-3.0146	-3.4354	-2.8937	-3.1708	-3.4062	188.421	40.705	8.687	176.747	137.120	174.346	-24.349	136.506	292.429	-47.248	-5.379	192.652	-10.220	273.305	-42.975	226.942	0.00055957	0.00067211	0.00023547	340.37	6.9227e-06	1.1429e-05	546.41	131.95	3.145e-06	3.2577e-06	274.44	133.66	60.136	27.065	1.3345e-05	69.538	0.0016168	0.001633	0.00053684	415.83	1.7731e-05	1.7928e-05	623.99	159.64	1.7508e-05	1.7855e-05	310.65	144.34	70.716	30.66	2.0718e-05	74.313	50.280	48.018	27.015	-39.726	-36.714	202.428	-38.879	-34.084	196.723	247.221	-35.388	-31.339	-31.245	-26.924	123.023	-28.149	-8191	255	
7216.068	1	1	0	0	0.11949	0.20937	0.18425	0.30754	0.052642	0.12839	0.30248	0.09761	0.12075	0.23384	0.09924	0.28919	0.33127	0.16114	0.26885	0.17776	-2.5792	-3.1083	-3.0479	-3.1646	-3.3792	-2.8021	-3.4208	-3.0875	-2.7708	-3.4979	-3.2792	-3.0563	-3.3688	-2.9583	-3.0833	-3.3208	172.585	38.632	-24.047	211.823	-46.258	288.574	268.836	132.850	60.910	187.360	62.858	298.458	-36.534	246.352	251.224	157.035	0.00046348	0.00076768	0.00012093	340.45	4.4333e-06	1.1705e-05	547.67	132.58	1.3536e-05	1.3832e-05	274.59	132.77	59.915	26.843	7.7529e-06	69.237	0.0015611	0.0016923	0.00053114	411.31	1.715e-05	1.8992e-05	622.38	158.86	1.7086e-05	1.9306e-05	309.96	143.5	70.369	30.852	2.0367e-05	73.662	68.863	155.068	-0.655	-39.434	120.946	183.772	-39.084	-34.492	284.214	159.438	-35.086	-31.296	-30.900	-26.909	124.820	-28.117	-8191	255	
7216.164	1	1	0	0	0.086344	0.18831	0.11538	0.21752	0.2652	0.23924	0.075575	0.058363	0.029041	0.14532	0.22876	0.12847	0.075144	0.16428	0.045808	0.14019	-2.6417	-3.3354	-3.1188	-2.9792	-3.475	-3.1396	-3.2333	-3.3542	-2.9396	-3.3604	-3.0167	-3.1562	-3.5542	-2.9396	-3.1937	-3.5167	252.181	196.075	5.544	0.938	47.950	123.056	260.551	-49.539	75.837	147.028	304.532	111.392	141.465	234.104	302.898	237.147	0.00097211	0.00039558	0.00033333	341.61	8.3005e-06	2.2416e-06	545.38	131.04	6.3968e-06	5.057e-06	275.98	133.02	60.316	27.064	1.5411e-05	69.363	0.0015478	0.0018315	0.00052228	411.28	1.7403e-05	2.0469e-05	620.98	157.94	1.7607e-05	2.0925e-05	309.01	143.98	71.08	31.262	2.0009e-05	73.97	39.469	178.368	25.095	-39.392	169.838	75.270	-39.221	-34.502	116.718	125.521	-34.919	-31.213	-30.917	-26.763	16.436	-28.368	-8191	255	
7216.260	1	1	0	0	0.14411	0.17676	0.065137	0.14245	0.22258	0.36004	0.22303	0.1384	0.067946	0.10793	0.15413	0.047674	0.10971	0.13349	0.1808	0.28397	-2.5938	-3.1521	-3.1125	-2.9375	-3.2792	-3.0042	-3.2042	-3.2917	-3.0667	-3.3583	-3.1708	-2.9833	-3.2771	-3.1479	-2.9583	-3.3729	95.129	288.259	2.277	217.741	193.964	19.064	192.531	-22.952	119.610	108.994	134.527	196.247	280.263	214.899	2.373	230.440	0.00065787	0.00040759	0.000243	338.11	1.0495e-05	1.5921e-05	547.23	132.52	6.5169e-06	1.0713e-05	274.31	132.59	60.107	27	2.439e-06	69.741	0.0016367	0.0019395	0.00050826	409.72	1.8171e-05	2.1176e-05	618.21	157.5	1.8406e-05	2.1002e-05	306.99	143.51	71.557	31.141	1.857e-05	73.748	49.467	112.764	18.121	-39.601	142.819	111.739	-39.183	-34.290	109.030	142.462	-35.279	-31.178	-30.830	-26.993	51.320	-28.030	-8191	255	
7216.357	1	1	0	0	0.12695	0.071561	0.0090158	0.1099	0.14741	0.067325	0.31829	0.29498	0.074985	0.14862	0.05052	0.07839	0.20231	0.29729	0.27329	0.097402	-2.5292	-2.9938	-3.1792	-2.8229	-3.1792	-3.0458	-3.1229	-3.1958	-2.9667	-2.9417	-3.2812	-2.9062	-3.2667	-3.0542	-2.8312	-3.5062	206.549	-17.279	182.113	188.461	92.978	193.432	233.601	272.290	131.233	237.790	9.788	195.496	141.162	-24.104	211.996	93.924	0.0010054	0.00064445	9.9887e-05	340.66	1.2794e-05	6.5282e-06	546.49	131.99	1.4738e-05	1.4661e-05	274.2	133.17	60.516	26.952	1.8645e-05	69.572	0.0016465	0.0018282	0.00046617	404.37	1.8464e-05	1.9711e-05	612.38	155.83	1.8815e-05	1.9874e-05	305.32	143.28	72.399	30.92	1.8174e-05	73.767	66.783	237.269	194.652	-39.503	196.297	31.990	-39.185	-34.564	173.826	92.778	-35.303	-31.357	-31.071	-27.029	25.857	-27.936	-8191	255	
7216.453	1	1	0	0	0.01373	0.23426	0.12371	0.20466	0.068419	0.061682	0.094009	0.089961	0.097902	0.10547	0.34111	0.15967	0.16514	0.25111	0.25542	0.033987	-2.4667	-3.1479	-3.2062	-2.9354	-3.0917	-3.2938	-2.8812	-3.3104	-3.1688	-3.0417	-3.3646	-2.8854	-3.3125	-3.125	-2.9188	-3.3292	-50.309	198.965	105.038	246.420	296.760	204.884	93.530	217.054	130.310	280.421	238.253	-7.247	266.491	204.639	177.563	242.193	0.0011796	0.0011022	0.00019544	338.99	9.514e-06	6.9081e-06	546.11	132.05	4.0485e-06	1.2507e-05	275.36	132.25	60.339	27.115	9.6252e-06	69.431	0.0017632	0.0017806	0.00046176	406.03	2.0022e-05	1.9518e-05	612.62	156.87	2.0222e-05	1.9505e-05	304.81	143.59	73.031	30.968	1.8104e-05	73.998	61.393	43.737	-47.055	-39.547	250.164	102.923	-39.032	-34.059	111.352	7.071	-34.895	-31.490	-31.081	-27.017	27.542	-28.190	-8191	255	
7216.549	1	1	0	0	0.23614	0.20119	0.2703	0.0084164	0.20497	0.20105	0.05067	0.080212	0.084462	0.167	0.12531	0.092945	0.20318	0.13305	0.15877	0.18876	-2.6417	-2.8458	-3.4771	-3.0187	-3.3833	-3.0979	-2.9458	-3.3854	-3.1021	-3.0438	-3.4271	-2.9646	-3.3333	-3.2313	-2.7667	-3.4188	34.522	-43.789	-41.722	-32.162	132.550	109.680	88.214	22.151	261.603	-26.148	219.144	230.206	272.664	254.104	-34.773	230.525	0.00066464	0.00069517	0.00019392	339.39	9.6756e-06	4.1633e-06	549.88	130.97	9.2431e-06	7.9994e-06	275.04	133.62	60.677	27.04	5.0192e-06	69.894	0.0018686	0.0017701	0.00046414	412.69	2.1033e-05	1.9364e-05	613.85	159.31	2.0933e-05	1.9285e-05	304.96	145.21	73.594	30.91	1.7991e-05	74.866	52.275	307.177	9.358	-39.232	97.433	-22.556	-38.958	-34.379	198.930	30.760	-35.120	-31.313	-30.845	-26.701	196.108	-28.035	-8191	255	
7216.669	1	1	0	0	0.17861	0.13837	0.093915	0.085085	0.1659	0.20449	0.082976	0.076224	0.23703	0.15956	0.33586	0.25425	0.092276	0.31816	0.20575	0.3602	-2.8271	-2.9458	-3.4021	-2.9688	-3.1896	-3.0479	-3.0021	-3.4042	-3.1667	-2.8771	-3.4333	-3.0333	-3.2479	-3.5896	-2.8271	-3.5896	21.387	14.119	139.156	302.475	284.067	244.651	152.878	276.974	237.805	98.928	47.534	307.065	286.792	252.050	36.884	297.192	0.00029888	0.00065808	0.00013538	339.76	1.1757e-05	2.9563e-06	548.05	131.42	1.1948e-05	1.1197e-05	275.18	133.05	60.497	27.19	3.0205e-06	69.795	0.0018478	0.0017395	0.00045512	418.39	2.0421e-05	1.8652e-05	611.85	160.59	1.9865e-05	1.8496e-05	304.22	145.66	72.608	30.72	1.7363e-05	74.9	50.527	-41.910	90.648	-39.181	24.487	31.792	-38.981	-34.283	25.958	63.703	-35.013	-31.212	-31.036	-27.005	116.013	-28.161	-8191	255	
7216.764	1	1	0	0	0.23968	0.028508	0.036247	0.039616	0.38873	0.32183	0.11904	0.042947	0.092716	0.13526	0.11263	0.063255	0.10087	0.14501	0.08511	0.15085	-2.7604	-3.0438	-3.3083	-3.1125	-2.9437	-3.2792	-2.9542	-3.275	-3.0792	-3.0583	-3.3708	-2.8667	-3.3125	-3.2792	-2.8729	-3.35	181.602	243.683	24.003	179.621	39.437	77.388	240.650	180.669	148.921	-28.706	229.259	294.321	260.996	97.413	-6.264	296.254	0.00043073	0.00063492	0.00037419	340.96	4.6025e-06	1.2281e-05	545.27	130.64	1.6643e-06	6.2641e-06	272.57	133.36	60.497	26.938	5.7596e-06	69.542	0.0017016	0.0016112	0.00044038	417.02	1.8633e-05	1.7284e-05	609.02	160.61	1.8264e-05	1.7407e-05	303.36	145.59	71.84	30.419	1.8195e-05	74.875	57.491	-15.285	60.682	-39.288	88.926	80.817	-39.093	-34.644	15.024	24.479	-35.006	-31.237	-31.168	-26.636	-9.531	-28.234	-8191	255	
7216.862	1	1	0	0	0.14732	0.19217	0.096211	0.32715	0.086694	0.05722	0.088229	0.08808	0.22134	0.13775	0.013549	0.053184	0.33881	0.14133	0.087659	0.18332	-2.6229	-2.9125	-3.1979	-3.2188	-3.025	-3.5333	-2.9458	-3.1708	-3.0146	-2.9313	-3.3479	-3.0604	-3.0208	-3.3479	-2.9604	-3.275	276.996	179.239	-31.841	-46.681	81.131	161.508	-50.825	234.437	65.954	176.088	274.056	49.694	147.445	227.740	257.070	231.277	0.00046354	0.0010377	0.00010331	339.45	7.8224e-06	8.0418e-06	548.53	130.61	1.0625e-05	7.6179e-06	273.55	132.4	60.301	27.013	9.6255e-06	69.779	0.0016543	0.0016035	0.00047571	420.93	1.8668e-05	1.7466e-05	617.59	161.55	1.8334e-05	1.7631e-05	307.08	145.37	71.561	30.482	1.9935e-05	74.814	45.211	9.837	150.218	-39.766	100.294	152.067	-39.104	-34.218	27.956	92.523	-35.010	-31.101	-30.992	-26.896	179.278	-28.168	-8191	255	
7216.958	1	1	0	0	0.19262	0.19373	0.040892	0.38086	0.10679	0.15181	0.12819	0.05004	0.055129	0.034468	0.081604	0.071045	0.14545	0.066864	0.028975	0.075029	-2.8312	-2.7958	-3.375	-3.0479	-2.95	-3.3312	-2.8771	-3.1937	-3.2167	-2.7896	-3.2458	-3.3396	-2.9188	-3.3	-3.1396	-3.0458	254.461	132.840	193.246	-15.580	245.704	261.942	157.344	60.877	161.939	226.251	-48.640	205.269	35.527	-37.079	216.393	208.798	0.0001377	0.00049494	3.8939e-05	342.26	9.092e-06	1.195e-05	550.5	132.48	4.8253e-06	1.1119e-05	273.13	133.25	60.394	27.22	8.1243e-06	69.996	0.00164	0.0016158	0.00051768	420.63	1.8635e-05	1.764e-05	624.48	161.42	1.8151e-05	1.8033e-05	309.92	145.46	71.896	30.745	2.1128e-05	74.868	44.486	21.678	16.017	-39.371	229.361	128.964	-39.279	-34.250	66.926	122.614	-35.266	-31.432	-30.939	-27.000	130.733	-28.200	-8191	255	
7217.052	1	1	0	0	0.12143	0.11244	0.20948	0.23426	0.22044	0.061682	0.30268	0.19143	0.11088	0.13376	0.060323	0.3091	0.12558	0.016163	0.2106	0.19907	-2.8458	-2.8917	-3.3125	-2.9958	-2.9958	-3.1625	-3.2313	-2.9854	-3.4271	-2.825	-3.1604	-3.4458	-2.8688	-3.2979	-3.0292	-3.4313	95.108	-11.272	138.368	221.703	31.014	177.958	282.884	283.597	185.606	63.754	152.370	279.816	-4.254	26.662	-11.704	266.236	0.00055269	0.00054635	0.0002502	341.5	5.1905e-06	1.0311e-05	546.71	131.64	8.2343e-06	2.5108e-06	275.87	133.8	60.95	27.213	1.2634e-05	69.888	0.001633	0.0016827	0.0005493	417.72	1.8193e-05	1.847e-05	627.46	160.66	1.7844e-05	1.8977e-05	312.87	145.22	71.876	31.05	2.1358e-05	74.681	38.038	49.476	288.634	-39.767	93.738	159.127	-39.115	-34.566	52.158	76.080	-35.231	-31.487	-31.209	-26.517	178.759	-28.187	-8191	255	
7217.149	1	1	0	0	0.048991	0.15588	0.089316	0.17994	0.084164	0.30479	0.15252	0.10089	0.19338	0.23033	0.14452	0.19969	0.060259	0.10076	0.27993	0.29449	-2.8271	-2.6917	-3.2771	-3.2687	-2.8771	-3.3875	-3.0396	-3.0771	-3.5583	-2.8833	-3.3042	-3.2854	-2.7792	-3.3812	-3.1021	-3.0146	218.332	19.037	277.284	285.003	194.060	126.670	219.930	57.068	172.237	74.153	217.873	247.767	162.812	-51.784	296.175	219.514	0.00069755	0.00032588	0.00021102	341.69	4.3355e-06	4.6367e-06	548.09	131.75	5.6504e-06	4.3203e-06	274.85	133.61	59.986	27.228	1.1979e-05	69.793	0.001607	0.0017819	0.00054735	414.35	1.7832e-05	1.972e-05	626.46	160.15	1.7524e-05	2.0364e-05	310.75	144.86	71.43	31.323	2.1061e-05	74.379	40.464	144.149	9.852	-39.215	70.636	229.538	-38.966	-34.130	52.326	202.399	-35.427	-31.494	-31.112	-26.827	42.363	-28.230	-8191	255	
7217.269	1	1	0	0	0.1613	0.23063	0.20108	0.087934	0.43092	0.038811	0.11791	0.25495	0.20763	0.12054	0.2412	0.055164	0.15826	0.12963	0.2652	0.2399	-3.175	-2.9146	-2.9917	-3.3167	-2.9667	-3.05	-3.0271	-3.0125	-3.3125	-3.05	-3.1333	-3.4938	-2.8792	-3.0083	-3.0604	-3.1583	192.993	301.646	26.855	17.065	-11.179	69.027	298.600	16.903	280.697	159.770	306.361	55.217	-51.519	-46.822	27.718	218.852	0.00081379	0.00069263	0.00028038	339.84	3.2421e-06	9.9324e-06	547.76	131.43	1.4066e-05	4.9655e-06	275.04	132.94	60.524	27.367	7.6212e-06	70.122	0.0016032	0.0019234	0.00053665	413.53	1.8286e-05	2.1086e-05	624.41	159.63	1.8028e-05	2.1523e-05	309.85	144.46	71.995	31.667	2.0181e-05	74.43	45.484	100.862	-1.214	-39.401	211.517	185.811	-38.926	-34.420	198.687	92.813	-35.006	-31.463	-31.039	-26.842	7.261	-28.158	-8191	255	
7217.365	1	1	0	0	0.033818	0.12331	0.033551	0.13844	0.1448	0.23148	0.18981	0.25762	0.048856	0.17111	0.070304	0.1227	0.23912	0.15555	0.12573	0.25291	-2.8521	-3.0125	-3.0583	-3.4125	-2.9708	-3.2	-3.2792	-2.8604	-3.3208	-3.2021	-3.2229	-3.2354	-2.9125	-3.0812	-3.0812	-2.9646	42.835	-20.720	118.816	90.927	87.620	284.897	242.693	249.930	72.323	245.441	294.291	303.596	-26.270	230.284	282.150	146.499	0.00082529	0.00047686	0.00048795	341.56	7.5442e-06	4.9329e-06	549.38	132.46	1.2935e-05	8.3868e-06	275.82	133.55	60.354	27.507	1.3874e-05	69.963	0.0016587	0.0019968	0.00051736	412.85	1.9105e-05	2.1998e-05	621.73	159.88	1.9287e-05	2.1896e-05	309.64	144.53	72.956	31.786	1.9883e-05	74.593	55.499	139.135	51.276	-39.430	132.213	233.430	-39.333	-34.411	154.359	102.743	-35.064	-31.452	-31.102	-27.145	60.922	-28.177	-8191	255	
7217.461	1	1	0	0	0.22087	0.051232	0.1394	0.096529	0.048316	0.11418	0.21995	0.10842	0.17463	0.12141	0.060374	0.23902	0.075308	0.069568	0.18551	0.17768	-3.025	-2.9771	-2.7729	-3.3021	-2.9708	-3.1083	-3.1583	-2.7417	-3.4229	-3.0292	-3.0792	-3.4271	-2.9625	-3.1688	-3.4417	-3.0854	13.472	288.288	-17.844	187.171	114.118	304.605	96.330	166.640	197.431	122.029	90.710	290.375	60.286	-16.578	306.836	261.881	0.0011328	0.00075166	0.00011971	341.21	1.0004e-05	7.1306e-06	549.68	132.37	1.4576e-05	1.1248e-05	274.71	132.94	60.016	27.47	6.237e-06	69.973	0.0017977	0.0019871	0.00050683	410.68	2.0535e-05	2.1436e-05	618.84	158.79	2.0415e-05	2.1117e-05	308.47	143.88	73.372	31.481	1.8949e-05	74.402	43.400	-39.708	181.380	-39.341	194.880	134.108	-39.226	-34.279	158.771	19.377	-35.151	-31.457	-30.662	-26.878	48.881	-27.927	-8191	255	
7217.533	1	1	0	0	0.29986	0.13185	0.19124	0.041799	0.092014	0.067097	0.077158	0.27111	0.054874	0.25235	0.10639	0.21497	0.18342	0.14356	0.22838	0.34959	-2.6625	-2.9083	-2.9208	-3.3563	-2.9	-3.0792	-3.4583	-2.9104	-3.1813	-2.9229	-3.1625	-3.4354	-2.9	-2.975	-3.4042	-3.3083	82.669	147.923	295.713	-27.250	222.521	99.028	-35.519	191.834	150.170	157.694	280.063	207.764	280.005	114.621	-8.644	253.516	0.00094111	0.0012538	0.00026051	338.62	9.1487e-06	1.3174e-05	546.07	131.71	1.6433e-05	6.6663e-06	273.35	132.69	59.852	27.413	1.0496e-05	69.71	0.001882	0.0018811	0.00049454	411.06	2.1401e-05	2.0515e-05	615.33	159.25	2.1091e-05	1.9945e-05	305.94	143.4	73.218	31.224	1.789e-05	74.109	56.771	12.829	50.383	-39.440	158.906	116.710	-38.873	-34.327	149.588	32.966	-35.487	-31.248	-30.882	-26.803	35.007	-28.039	-8191	255	
7217.654	1	1	0	0	0.22942	0.074516	0.10534	0.28029	0.090094	0.057617	0.17734	0.14487	0.1558	0.19018	0.13746	0.13506	0.27803	0.11643	0.17396	0.19028	-2.8729	-2.9625	-2.8812	-3.3312	-3.3063	-3.2729	-3.6604	-2.9083	-3.1063	-3.1396	-3.0917	-3.3875	-3.2271	-3.0062	-3.2917	-3.0229	93.239	289.017	31.506	193.179	-27.130	89.411	246.901	23.640	94.988	266.583	121.541	241.196	226.118	297.626	113.642	252.909	0.00056153	0.000811	0.00038142	340.16	5.1378e-06	8.8618e-06	541.05	131.73	4.1557e-06	1.3938e-05	274.02	131.89	60.64	27.465	2.2065e-06	69.96	0.0018203	0.0017155	0.00045401	411.23	2.0217e-05	1.8501e-05	606.44	159.4	1.9974e-05	1.826e-05	302.77	143.79	72.762	31.066	1.7008e-05	74.691	56.084	36.939	22.271	-39.123	222.953	47.127	-39.128	-34.466	23.190	39.021	-35.183	-31.265	-30.863	-26.734	269.656	-27.966	-8191	255	
7217.750	1	1	0	0	0.28295	0.049412	0.031565	0.22904	0.16221	0.046659	0.24227	0.18294	0.16243	0.17358	0.33613	0.18544	0.13591	0.10597	0.12162	0.14071	-2.8917	-3.2521	-2.8708	-3.2	-3.0708	-3.0042	-3.5458	-2.9146	-3.1146	-3.1771	-3.1958	-3.5125	-3.0917	-2.9375	-3.1833	-3.1104	206.137	-37.327	71.740	185.361	64.395	236.936	249.646	205.801	16.025	176.950	70.333	287.504	74.327	3.755	19.238	-18.857	0.00067987	0.00022046	3.8885e-05	340.78	8.3175e-06	2.9831e-06	543.16	131.67	1.0748e-05	1.5779e-06	273.08	133.09	60.322	27.439	1.5774e-05	69.956	0.0017599	0.0016487	0.00043859	415.94	1.9404e-05	1.7909e-05	605.11	160.66	1.9101e-05	1.7701e-05	302.65	144.34	72.009	30.936	1.7261e-05	75.103	47.707	-8.145	245.093	-39.129	27.394	18.264	-38.863	-34.138	50.295	139.906	-34.964	-31.428	-30.761	-26.768	163.184	-28.122	-8191	255	
7217.846	1	1	0	0	0.20782	0.049717	0.12946	0.19846	0.025917	0.015615	0.21667	0.12511	0.26209	0.36104	0.07288	0.10113	0.21434	0.12891	0.18325	0.16145	-2.6396	-3.25	-2.8833	-3.2708	-3.05	-2.9958	-3.3396	-2.9375	-2.9917	-3.3312	-2.9354	-3.25	-3.3187	-2.9667	-3.1417	-3.2667	296.821	41.858	106.478	-30.232	-33.207	-25.805	147.972	174.899	270.114	212.481	3.022	117.423	296.515	-49.993	38.127	-31.685	0.00059677	0.0011983	0.00017898	340.48	5.2442e-06	1.5913e-05	546.64	132.77	3.9617e-06	2.7868e-06	273.33	131.81	60.234	27.384	8.8159e-06	69.975	0.0016998	0.0016143	0.00045408	419.98	1.8885e-05	1.7759e-05	610.13	162.35	1.8634e-05	1.7468e-05	304.76	144.89	71.63	30.796	1.8356e-05	75.015	61.866	1.409	120.440	-39.296	42.539	40.074	-39.026	-34.368	55.853	23.225	-34.920	-31.043	-31.102	-26.582	146.080	-27.944	-8191	255	
7217.942	1	1	0	0	0.35128	0.17861	0.23442	0.24276	0.025504	0.10222	0.067798	0.012171	0.31079	0.21832	0.13863	0.19833	0.10069	0.20469	0.092631	0.18748	-2.5875	-3.3417	-3.0125	-3.0875	-3.1917	-2.9813	-3.25	-3.0104	-3.0917	-3.4125	-2.8479	-3.175	-3.1125	-3.0979	-3.2375	-3.0771	277.119	156.220	-11.949	231.936	179.446	82.815	205.260	158.727	245.031	-13.308	202.988	-31.497	66.021	269.311	305.830	265.549	0.00053471	0.00087285	0.00013121	341.23	4.3319e-06	4.8924e-06	545.11	132.45	7.8055e-06	1.6806e-06	273.85	132.51	60.576	27.645	1.2643e-05	70.001	0.001652	0.0015808	0.00048343	419.99	1.82e-05	1.7417e-05	615.03	162.43	1.8173e-05	1.7097e-05	307.7	144.7	71.385	30.916	1.9579e-05	74.782	36.110	34.908	47.853	-39.292	96.533	154.208	-39.254	-34.437	43.816	19.276	-35.275	-31.256	-31.232	-26.854	146.302	-28.126	-8191	255	
7218.061	1	1	0	0	0.099207	0.13789	0.14268	0.12661	0.022118	0.025295	0.16254	0.16863	0.14219	0.10625	0.18359	0.032416	0.27601	0.24582	0.28445	0.14244	-2.5896	-3.1333	-3.0708	-3.2333	-3.1104	-2.8063	-3.2646	-3.1979	-3.0417	-3.2313	-3.1312	-3.1271	-3.1271	-2.8646	-3.2833	-3.2062	94.809	246.449	-26.348	-16.760	256.814	124.600	191.073	22.904	104.364	-48.112	296.248	-33.549	19.048	255.079	81.623	178.848	0.00083914	0.00045106	0.00019735	340.48	8.3807e-06	3.6638e-06	543.98	132.69	6.7849e-06	2.7255e-06	274.48	132.83	60.764	27.572	4.4225e-06	70.198	0.0016173	0.0015651	0.00051399	417.67	1.7837e-05	1.7376e-05	620.17	161.26	1.7913e-05	1.733e-05	310.63	144.44	71.29	31.09	2.0572e-05	74.926	25.040	0.843	145.576	-39.393	101.196	304.063	-38.973	-34.427	304.547	129.782	-35.139	-31.227	-30.901	-26.328	61.275	-28.186	-8191	255	
7218.133	1	1	0	0	0.15446	0.033589	0.30629	0.14353	0.34663	0.098162	0.2432	0.26958	0.12251	0.0739	0.19512	0.17808	0.13235	0.54162	0.20522	0.25416	-2.5917	-3.2417	-2.8958	-3.0125	-3.1833	-2.8187	-3.2708	-3.2667	-2.85	-3.2021	-2.9625	-3.0375	-3.3542	-2.9708	-3.1708	-3.1896	28.073	250.583	-42.899	176.573	166.718	158.466	299.726	244.117	211.764	-48.655	225.146	273.051	-1.790	-17.904	-21.012	-24.058	0.00053205	0.00025955	0.00015326	342.75	1.0093e-05	1.0755e-05	544.04	133.1	1.7699e-06	5.9882e-06	274.56	132.51	60.244	27.49	1.5918e-05	70.24	0.0016033	0.0016356	0.00053845	415.54	1.7515e-05	1.831e-05	623	160.18	1.754e-05	1.8368e-05	310.97	144.15	70.983	31.302	2.0902e-05	74.678	73.555	89.373	111.421	-39.721	161.170	204.171	-39.012	-34.260	155.183	151.983	-35.053	-31.289	-31.481	-26.619	102.835	-28.225	-8191	255	
7218.229	1	1	0	0	0.078622	0.14907	0.10423	0.18434	0.14172	0.26679	0.19713	0.12322	0.22309	0.17377	0.22093	0.13374	0.12385	0.14229	0.10169	0.23859	-2.5812	-3.3958	-2.875	-2.9021	-3	-3.025	-3.0625	-3.2687	-2.8917	-3.1458	-3.1729	-3.2229	-3.425	-2.8271	-3.1063	-3.4708	176.785	1.082	269.417	205.378	209.394	265.119	133.498	-32.269	291.853	245.001	260.948	224.108	34.652	-52.243	-32.836	261.898	0.00074356	0.00048855	0.00018255	340.68	5.8217e-06	7.543e-06	545.94	132.88	4.3552e-06	1.1187e-05	274.45	132.62	60.23	27.37	1.1414e-05	69.796	0.0015761	0.0017688	0.00053812	414.1	1.7489e-05	1.9986e-05	622.99	160.03	1.7753e-05	2.0191e-05	310.14	143.95	71.217	31.542	2.0831e-05	74.249	48.364	173.291	-28.657	-39.370	212.184	169.235	-38.737	-34.327	265.194	191.607	-34.851	-31.275	-31.134	-26.656	8.878	-28.266	-8191	255	
7218.350	1	1	0	0	0.10361	0.29583	0.059247	0.15561	0.30259	0.046591	0.1161	0.11313	0.39321	0.22154	0.11262	0.27446	0.27039	0.15216	0.12979	0.28804	-2.5687	-3.0708	-2.8312	-2.9562	-3.2188	-3.1333	-3.0687	-3.3104	-2.8292	-3.3375	-3.2479	-2.9271	-3.2146	-3.1312	-2.8896	-3.1937	301.846	205.498	-25.581	149.261	-26.108	153.516	-1.231	59.498	101.151	285.139	241.268	-20.251	13.172	284.938	-3.306	267.367	0.00064224	0.0015736	0.00016396	343.99	3.8091e-06	7.2369e-06	544.67	133.19	6.324e-06	1.3988e-06	273.48	132.43	60.115	27.352	7.3378e-06	69.928	0.0016193	0.0019325	0.00053241	415.46	1.8087e-05	2.1333e-05	622.15	160.14	1.8386e-05	2.1512e-05	309.06	143.7	71.583	31.839	2.019e-05	74.253	47.952	78.880	110.703	-39.406	77.340	130.006	-38.958	-34.133	200.943	154.130	-35.016	-31.570	-31.134	-26.856	-11.290	-28.147	-8191	255	
7218.446	1	1	0	0	0.35859	0.023525	0.21276	0.30866	0.11545	0.098291	0.13174	0.097044	0.12281	0.13508	0.17295	0.12139	0.14962	0.080089	0.11049	0.26419	-2.3521	-3.0438	-3.1292	-3.0875	-3.3187	-3.0146	-3.2792	-3.3292	-2.8125	-3.1875	-3.4271	-2.9437	-3.3021	-3.1708	-2.8688	-3.6021	137.847	-11.485	0.285	250.374	173.526	55.793	226.260	217.327	7.282	210.587	-28.180	-52.225	-16.130	44.605	39.844	253.747	0.00089294	0.00056093	2.9594e-05	339.74	5.8836e-06	3.7179e-06	547.41	133	1.367e-05	1.0417e-05	274.88	132.19	59.673	27.451	4.0177e-06	69.839	0.0016873	0.0019821	0.00051126	410.85	1.89e-05	2.1588e-05	618.33	159.16	1.9301e-05	2.1579e-05	307.31	142.99	72.374	31.694	1.9612e-05	74.109	65.071	69.171	91.172	-39.245	202.220	71.179	-39.006	-34.278	162.023	0.770	-35.249	-31.254	-30.891	-26.888	40.949	-28.086	-8191	255	
7218.542	1	1	0	0	0.27371	0.20065	0.35448	0.18383	0.13179	0.065884	0.27419	0.20895	0.25334	0.032517	0.10507	0.32275	0.099173	0.26207	0.1863	0.065346	-2.5521	-3.1813	-3.2833	-2.825	-3.2021	-2.9833	-2.9437	-3.2188	-2.9458	-3.1625	-3.2729	-2.9292	-3.4146	-3.2062	-2.7979	-3.4333	241.393	7.674	282.049	301.656	36.364	55.781	-37.706	230.280	159.662	230.092	252.276	268.624	81.796	-29.339	197.841	138.690	0.0010472	0.00091826	0.00010045	338.19	1.6951e-05	1.0098e-05	545.9	131.87	6.492e-06	1.088e-05	272.92	131.24	59.83	27.35	1.2239e-05	69.309	0.0018055	0.0019477	0.0005007	410.43	2.0353e-05	2.0968e-05	614.98	158.09	2.0594e-05	2.1081e-05	305.55	142.47	73.075	31.492	1.9603e-05	73.884	55.633	-46.479	28.934	-39.592	175.395	101.756	-38.973	-34.676	104.148	87.066	-34.948	-31.312	-30.811	-26.580	-13.774	-28.162	-8191	255	
7218.662	1	1	0	0	0.09686	0.097668	0.12477	0.22619	0.2904	0.18349	0.18661	0.16751	0.12633	0.27201	0.077115	0.24432	0.17869	0.15553	0.18439	0.20099	-2.4417	-2.9458	-3.2313	-2.9229	-3.1292	-3.1688	-2.975	-3.3833	-3.1792	-2.9417	-3.4167	-2.9437	-3.1521	-3.1375	-2.8958	-3.6479	-14.068	195.259	134.583	23.752	-27.013	285.480	183.361	224.952	235.172	61.411	287.674	268.840	99.588	236.062	289.450	204.764	0.00092488	0.00066129	0.00015252	339.94	1.0431e-05	1.1037e-05	545	130.89	8.0517e-06	1.1918e-05	273	131.21	60.166	27.263	1.2176e-05	68.958	0.0019326	0.0019182	0.00049551	413.44	2.1692e-05	2.0772e-05	615.51	159.51	2.1872e-05	2.0615e-05	305.19	143.21	73.641	31.296	1.951e-05	73.934	49.117	1.241	293.484	-39.425	42.102	113.763	-38.964	-34.249	61.322	68.493	-34.933	-31.383	-30.864	-26.755	116.436	-28.143	-8191	255	
7218.759	1	1	0	0	0.14213	0.26088	0.07651	0.19972	0.27794	0.17368	0.10675	0.094212	0.043489	0.14654	0.2483	0.20171	0.24308	0.11249	0.057262	0.16881	-2.7687	-2.9021	-3.1688	-3.1667	-3.0729	-3.3312	-3.1333	-3.2188	-3.1063	-2.8604	-3.4062	-3.1333	-3.2083	-3.1896	-3.0312	-3.4583	152.376	-9.295	263.695	24.104	107.264	268.395	-27.694	231.485	-35.970	263.866	305.657	256.284	56.355	68.533	248.112	-48.632	0.00071276	0.0010712	0.00026909	339.22	1.2714e-05	1.0571e-06	543.91	131.21	5.4054e-06	3.5636e-06	273.48	131.45	59.949	27.379	5.1859e-06	69.089	0.0020053	0.0019065	0.00049771	420.25	2.2493e-05	2.0607e-05	616.19	162.96	2.2444e-05	2.0746e-05	305.29	145.19	74.311	31.408	1.9758e-05	74.891	43.158	-3.968	-2.053	-39.087	17.094	-32.614	-38.932	-34.344	160.783	19.256	-35.408	-31.437	-31.205	-26.835	120.268	-28.038	-8191	255	
7218.830	1	1	0	0	0.14815	0.25709	0.090055	0.1842	0.020499	0.12958	0.32518	0.10718	0.096031	0.19516	0.071641	0.091103	0.055473	0.39396	0.031076	0.056746	-2.7083	-3.0896	-3.3708	-2.7729	-3.1375	-3.2521	-2.9542	-3.4771	-2.9083	-2.8937	-3.3312	-3.0771	-3.2188	-3.1625	-2.8646	-3.4333	238.768	279.036	227.454	18.001	173.901	-40.210	299.568	-0.950	300.600	105.554	211.563	258.891	150.944	-12.881	189.964	302.516	0.00097366	0.00071424	0.00018187	337.65	8.2445e-06	6.2728e-06	543.52	131.54	7.5876e-06	4.0254e-06	273.31	132.22	60.238	27.228	2.8246e-06	68.836	0.0019938	0.0018889	0.00049822	426.46	2.2049e-05	2.0294e-05	615.7	165.18	2.17e-05	2.0273e-05	306	146.4	73.622	31.231	1.9788e-05	75.04	51.357	28.371	306.402	-39.248	114.805	230.642	-38.972	-34.394	121.679	83.609	-34.940	-31.444	-31.065	-26.939	180.635	-28.237	-8191	255	
7218.926	1	1	0	0	0.092826	0.17342	0.20477	0.19346	0.087731	0.16215	0.1212	0.022888	0.14604	0.14683	0.087918	0.043894	0.081787	0.14241	0.23778	0.22282	-2.5042	-2.7542	-3.1479	-3.1	-3.0312	-3.5083	-2.8292	-3.1042	-3.0438	-2.8771	-3.1458	-3.175	-3.0229	-3.3688	-2.65	-3.3146	295.243	246.575	51.779	239.843	76.908	305.139	210.245	72.479	-42.644	-9.589	276.488	205.612	190.549	213.301	-28.170	243.407	0.00058363	0.00017851	0.00016492	340.52	3.2665e-06	1.5761e-05	542.49	131.93	8.0608e-06	1.9707e-06	272.25	132.18	60.117	27.099	6.0234e-06	69.176	0.0018922	0.0018339	0.00051381	430.48	2.1241e-05	1.9899e-05	619.33	166.38	2.1018e-05	2.0181e-05	308.6	146.95	73.392	31.045	2.1263e-05	75.097	45.348	86.773	35.605	-39.460	29.372	101.360	-39.135	-34.536	89.796	30.134	-35.185	-31.402	-31.143	-27.059	220.023	-28.003	-8191	255	
7219.045	1	1	0	0	0.13102	0.074427	0.26063	0.12815	0.091132	0.17102	0.096266	0.28811	0.11237	0.12799	0.31585	0.065285	0.18402	0.16799	0.055178	0.10365	-2.7125	-2.7125	-3.3521	-3.0583	-3.1146	-3.1188	-3.1146	-3.2313	-3.0687	-3.0083	-3.5042	-3.0979	-3.1188	-3.3125	-2.8458	-3.4188	-28.561	205.230	55.063	256.199	256.263	260.449	209.705	66.475	10.466	234.567	289.926	298.592	-23.420	176.836	135.177	253.038	0.00040409	0.00057213	0.00027993	339.71	1.1158e-05	6.1551e-06	543.77	131.99	7.8666e-06	2.7857e-06	272.48	132.45	59.746	27.049	1.486e-05	69.289	0.0018556	0.0018227	0.00055149	430.2	2.1073e-05	1.9636e-05	626.3	165.73	2.0522e-05	2.0001e-05	311.71	146.44	73.162	31.048	2.2975e-05	75	33.841	-30.921	87.514	-39.001	109.600	189.206	-39.024	-34.403	-6.237	212.483	-35.095	-31.461	-30.995	-26.741	136.917	-28.444	-8191	255	
7219.141	1	1	0	0	0.25958	0.15885	0.31505	0.067726	0.16458	0.1029	0.19886	0.026606	0.076073	0.12799	0.062335	0.1762	0.022589	0.12472	0.08583	0.22257	-2.7188	-2.6813	-3.3917	-3.0938	-3.0875	-3.5271	-3.0729	-3.3333	-3.1375	-3.0958	-3.2146	-3.1604	-2.9833	-3.1604	-2.9604	-3.2896	119.102	42.114	37.338	100.640	21.906	274.975	253.494	94.349	121.402	68.966	252.505	8.427	231.942	-49.873	174.762	297.540	0.00042083	0.00090645	9.0332e-05	340.13	6.9241e-06	5.6851e-06	541.84	132.36	1.5761e-05	5.0217e-06	273.88	132.52	60.416	27.02	6.1538e-06	69.189	0.001859	0.0018471	0.00060171	429.38	2.1009e-05	2.0315e-05	633.97	165.68	2.0689e-05	2.0763e-05	315.59	146.72	73.668	31.381	2.4382e-05	74.879	12.819	30.249	161.919	-39.494	37.177	144.393	-38.947	-34.566	48.144	256.259	-35.124	-31.236	-31.041	-26.741	53.944	-28.391	-8191	255	
7219.238	1	1	0	0	0.23496	0.14121	0.12543	0.049482	0.082766	0.21376	0.17227	0.42821	0.23868	0.12982	0.1495	0.034856	0.26355	0.11169	0.098122	0.17718	-2.8229	-2.9667	-3.2625	-3.1229	-2.9417	-3.25	-3.1896	-2.9646	-3.5167	-3.0417	-3.0917	-3.35	-3.0062	-3.1	-3.2604	-3.025	-16.680	162.417	194.296	206.091	208.333	203.498	119.046	259.533	99.180	78.613	24.510	104.258	295.395	108.656	25.142	289.669	0.0006929	0.00073514	0.00016854	337.94	1.1861e-05	1.791e-05	548.11	131.28	9.1016e-06	5.9668e-06	274.95	133.05	60.299	27.265	1.286e-05	69.561	0.0018298	0.0019465	0.00062378	425.02	2.0657e-05	2.1387e-05	636.26	164.06	2.006e-05	2.2006e-05	315.97	146.45	73.07	31.733	2.3995e-05	74.853	48.783	162.915	134.334	-39.428	62.921	241.308	-39.339	-34.569	0.461	172.159	-35.062	-31.515	-31.085	-26.679	-10.825	-28.235	-8191	255	
7219.358	1	1	0	0	0.14265	0.22601	0.22242	0.15091	0.17765	0.22958	0.0985	0.18032	0.23662	0.03952	0.078416	0.18474	0.20901	0.11228	0.27076	0.079752	-3.0208	-2.7854	-3.1042	-3.2729	-2.6125	-3.2938	-3.0604	-2.9979	-3.4625	-2.8042	-3.2708	-3.3104	-2.7313	-3.3333	-3.1437	-2.9813	-1.761	-45.563	197.859	105.783	66.711	174.188	-34.134	1.433	90.416	147.690	-48.477	238.603	253.283	188.874	88.547	250.893	0.00052956	0.00074032	0.00039235	338.25	1.3212e-06	1.4049e-05	546.87	132	6.7599e-06	8.7992e-06	273.71	133.18	60.073	27.268	1.4114e-05	68.984	0.0017894	0.0020825	0.00061517	422.33	2.0258e-05	2.2978e-05	635.56	163.57	2.0041e-05	2.3542e-05	314.75	146.59	73.299	32.072	2.3567e-05	74.532	51.958	136.035	38.497	-39.421	155.942	195.662	-39.144	-34.341	104.229	89.146	-35.329	-31.496	-31.192	-26.916	48.003	-28.349	-8191	255	
7219.430	1	1	0	0	0.12049	0.14344	0.24376	0.124	0.19239	0.22245	0.13034	0.165	0.15852	0.10331	0.022483	0.061457	0.33009	0.32608	0.23226	0.28257	-2.9979	-2.775	-2.9813	-3.4083	-2.8771	-3.2	-3.2125	-2.7208	-3.4896	-3.0563	-3.0083	-3.4208	-2.8875	-3.2229	-3.1917	-2.9083	228.486	281.696	31.281	178.426	-35.040	260.488	185.090	28.811	40.475	95.905	-13.803	255.374	241.539	-44.083	115.745	290.079	0.00067789	0.00043773	0.00010119	339.14	6.9533e-06	3.9956e-06	546.14	130.97	5.002e-06	8.4392e-06	272.37	133.81	60.761	27.295	3.9529e-06	69.161	0.0018335	0.0022203	0.00060337	421.45	2.087e-05	2.4245e-05	631.66	162.74	2.0671e-05	2.4417e-05	313.27	146.01	73.943	32.285	2.2402e-05	74.405	43.653	151.859	37.715	-39.422	172.765	51.619	-38.869	-34.561	103.248	16.365	-35.249	-31.257	-30.970	-26.717	1.038	-28.175	-8191	255	
7219.526	1	1	0	0	0.34435	0.092562	0.053099	0.20243	0.13735	0.14907	0.15857	0.24228	0.31076	0.23632	0.1637	0.076487	0.19832	0.15905	0.060074	0.1519	-2.7396	-2.9583	-3.0333	-3.4479	-3.0146	-3.3229	-3.1021	-2.8667	-3.3187	-3.0542	-2.9667	-3.5	-2.8896	-3.3812	-3.0104	-3.1542	97.956	177.890	-43.286	289.524	-52.390	216.305	281.651	248.607	122.156	104.435	167.105	224.582	267.911	276.393	289.001	210.094	0.0010152	0.0007349	9.4934e-05	341.05	1.9265e-05	3.9998e-06	546.66	131.13	1.8953e-05	4.1162e-06	273.19	133.84	60.627	27.467	9.4973e-06	69.448	0.001894	0.0022274	0.00057284	419.35	2.1676e-05	2.4136e-05	627.09	161.66	2.1731e-05	2.3914e-05	312.09	145.82	74.929	32.268	2.1511e-05	74.527	47.762	46.303	182.483	-39.503	174.613	78.451	-39.057	-34.520	152.795	57.446	-35.195	-31.400	-30.909	-27.109	109.038	-28.258	-8191	255	
7219.622	1	1	0	0	0.26888	0.06428	0.24461	0.16942	0.17142	0.1432	0.13231	0.083014	0.11251	0.16555	0.069717	0.22421	0.18973	0.22959	0.17595	0.1293	-2.75	-3.1	-2.9521	-3.2625	-3.0167	-3.075	-3.3271	-2.8583	-3.2417	-3.2271	-3.0667	-3.4521	-3.0479	-3.0542	-3.1042	-3.1188	254.713	283.367	258.157	174.066	101.275	220.713	-49.385	274.593	262.932	135.376	233.180	273.543	270.982	233.637	301.579	-14.320	0.00089491	0.0010939	0.00011817	339.11	1.0959e-05	7.5015e-06	543.3	131.18	2.1801e-05	1.7954e-05	274.68	133.2	60.727	27.429	3.6821e-06	69.22	0.0020108	0.0021415	0.00055374	416.9	2.2849e-05	2.3082e-05	624.48	161.3	2.2845e-05	2.3033e-05	311.44	145.87	75.619	32.072	2.1119e-05	74.46	55.823	3.693	270.111	-39.260	181.187	16.850	-38.717	-34.477	85.280	54.737	-35.077	-31.467	-31.229	-27.123	38.505	-28.419	-8191	255	
7219.743	1	1	0	0	0.2413	0.16269	0.19592	0.092906	0.16833	0.11349	0.17801	0.053568	0.051267	0.1851	0.093423	0.05332	0.075987	0.29802	0.12399	0.16971	-2.975	-2.9271	-2.7604	-3.4271	-3.125	-3.1958	-3.0958	-3.025	-3.2896	-3.1979	-2.8854	-3.2896	-3.2417	-3.2417	-3.2188	-3.0687	-20.927	76.375	207.361	290.444	-16.868	236.116	282.930	185.773	247.946	291.812	113.810	223.741	-12.953	215.381	139.180	11.719	0.00089527	0.0012242	5.5642e-05	339.44	1.2255e-05	1.3503e-05	547.28	130.75	1.1718e-05	1.4871e-05	273.34	133.06	60.44	27.305	6.1621e-06	69.158	0.0021069	0.0020632	0.00054502	419.19	2.3719e-05	2.2353e-05	623.08	162.66	2.3709e-05	2.2031e-05	309.9	146.36	75.797	31.755	2.0629e-05	74.782	32.984	-2.704	29.460	-39.380	130.401	53.148	-39.325	-34.674	247.514	13.393	-35.062	-31.423	-31.071	-26.758	-37.050	-28.199	-8191	255	
7219.837	1	1	0	0	0.24713	0.16907	0.13892	0.14456	0.22035	0.26679	0.2823	0.16955	0.21179	0.19266	0.20746	0.18258	0.1679	0.15347	0.2713	0.17053	-2.9875	-3.3896	-2.8063	-3.2313	-3.1375	-3.1937	-3.4021	-3.1	-3.1625	-3.1167	-2.9104	-3.4896	-3.1771	-2.9708	-3.4854	-3.0438	70.687	270.858	252.488	-17.018	218.630	118.180	240.259	-38.806	-6.136	289.637	226.802	303.616	224.104	285.639	203.349	128.025	0.0003688	0.00085377	0.00012258	338.58	1.0168e-05	7.6267e-06	546.09	131.36	6.0191e-06	9.5478e-06	274.26	133.44	60.947	27.354	4.7809e-06	69.353	0.0021456	0.002012	0.00053822	426.67	2.3987e-05	2.2025e-05	621.85	165.43	2.3638e-05	2.1757e-05	309.75	147.84	75.79	31.811	2.0476e-05	75.542	70.738	-46.383	-13.786	-38.878	50.126	75.712	-38.928	-34.387	29.244	30.408	-35.085	-31.417	-30.770	-26.838	251.243	-28.138	-8191	255	
7219.933	1	1	0	0	0.10443	0.28713	0.011277	0.15344	0.13535	0.06963	0.057215	0.014716	0.18865	0.2351	0.12992	0.35124	0.21549	0.040753	0.053534	0.21161	-2.6625	-3.3354	-2.875	-3.3292	-3.2479	-3.0854	-3.4042	-2.8771	-3.0563	-3.3625	-2.9188	-3.1417	-3.1833	-3.0708	-3.3083	-3	-28.964	250.204	-22.315	294.634	293.390	236.834	229.784	-11.052	220.721	82.270	41.644	33.980	271.289	-46.467	302.479	187.395	0.00058752	0.00097348	0.00019758	338.82	1.3764e-05	5.3435e-06	545.76	131.44	8.9748e-06	7.1067e-06	273.93	133.11	60.717	27.517	1.7527e-05	69.584	0.0020861	0.0019661	0.00053267	432.66	2.3153e-05	2.1556e-05	622.35	167.69	2.2644e-05	2.1047e-05	310.02	148.26	74.591	31.711	2.0705e-05	75.744	68.316	50.030	49.312	-39.182	48.352	-19.070	-39.130	-34.669	32.074	67.315	-35.121	-31.462	-31.388	-26.770	111.455	-28.355	-8191	255	
7220.031	1	1	0	0	0.27842	0.096421	0.17791	0.14342	0.24742	0.099042	0.10827	0.22566	0.039253	0.21328	0.27225	0.12371	0.27791	0.28027	0.16741	0.054766	-2.4521	-3.4583	-2.85	-3.2458	-3.2833	-2.9729	-3.2687	-2.8208	-2.9771	-3.3646	-3.0042	-3.2646	-3.1771	-2.8	-3.4229	-3.0438	-2.508	-40.467	17.167	296.788	225.880	272.040	274.523	-3.872	144.107	147.608	287.941	39.339	-52.007	24.197	147.002	11.157	0.00067211	0.00071682	0.00016484	338.82	3.7215e-06	3.9447e-06	548.67	131.37	8.0443e-06	7.5314e-06	272.05	133.19	60.894	27.411	1.9265e-05	69.505	0.0019729	0.0018793	0.00054394	433.22	2.173e-05	2.0535e-05	626.38	167.33	2.1474e-05	2.0122e-05	311.08	148.1	73.919	31.489	2.1772e-05	75.489	60.735	41.788	188.181	-39.923	-37.481	76.831	-39.147	-34.317	78.169	-14.719	-35.005	-31.441	-30.990	-26.987	200.286	-28.200	-8191	255	
7220.126	1	1	0	0	0.074714	0.15835	0.074063	0.11966	0.17281	0.19762	0.097354	0.010558	0.25001	0.20814	0.33318	0.22491	0.044352	0.31309	0.18516	0.046662	-2.6063	-3.4729	-2.9708	-3.2125	-3.0708	-3.1083	-3.3375	-3.075	-2.9625	-3.2313	-3.1292	-3.1604	-3.1312	-2.8583	-3.05	-3.1042	235.956	148.216	18.957	27.476	146.838	167.571	201.681	280.918	300.554	152.641	235.530	280.005	29.997	7.651	0.390	248.239	0.00070717	0.00093657	5.7747e-05	336.58	3.8464e-06	1.1315e-05	542.92	132.12	7.093e-06	5.2668e-06	272.97	132.09	60.453	27.627	1.1228e-05	69.113	0.0018913	0.0018084	0.00056843	429.48	2.0618e-05	1.9683e-05	627.15	165.27	2.0414e-05	1.9321e-05	312.34	146.47	73.035	31.43	2.2481e-05	74.918	43.423	-43.028	-6.412	-39.068	-15.695	113.527	-39.324	-34.412	-45.201	245.195	-35.122	-31.244	-31.046	-26.851	124.201	-28.321	-8191	255	
7220.222	1	1	0	0	0.10975	0.24654	0.23475	0.18792	0.20253	0.19269	0.047882	0.19103	0.19248	0.014835	0.26216	0.097545	0.23062	0.11441	0.18046	0.25615	-2.4021	-3.0896	-2.9542	-3.1646	-3.2021	-2.9417	-3.2042	-3.05	-2.8333	-3.3854	-2.9417	-3.1229	-3.3167	-2.9896	-3.0625	-3.1979	248.344	157.074	274.604	210.454	94.582	265.682	171.840	299.126	106.393	-47.411	241.314	259.320	191.745	28.440	-25.945	249.957	0.0008954	0.00052343	0.00018976	339.84	1.7008e-06	5.97e-06	542.88	132.7	1.2421e-05	2.9675e-06	273.61	132.9	60.112	27.705	1.2394e-05	69.686	0.0018102	0.0017678	0.00058907	425.77	2.0048e-05	1.9877e-05	631.55	164.65	2.005e-05	2.0058e-05	314.9	146.34	72.979	31.795	2.3531e-05	75.085	60.650	208.225	264.012	-39.162	93.934	216.939	-39.131	-34.685	71.724	201.694	-34.800	-31.598	-30.951	-26.747	78.129	-28.152	-8191	255	
7220.342	1	1	0	0	0.26011	0.16403	0.10666	0.22058	0.20854	0.21714	0.052235	0.1326	0.23402	0.23375	0.22544	0.16167	0.2844	0.17086	0.066402	0.095485	-2.5354	-3.075	-2.825	-3.1542	-3.0542	-2.8937	-3.2771	-3.2188	-2.9062	-3.2292	-3.1167	-3.2646	-3.2938	-3.1125	-3.1958	-3.2438	69.987	49.933	128.584	241.302	-6.766	13.269	-7.397	234.395	298.022	-15.491	178.489	265.300	248.870	7.649	184.500	-36.166	0.00048515	0.00022618	4.2955e-05	339.48	7.5576e-06	8.5432e-06	546.38	132.02	1.0941e-05	1.143e-05	272.64	132.6	60.178	27.565	9.0685e-06	69.81	0.0017971	0.0018957	0.00060843	424.01	1.9706e-05	2.1237e-05	634.33	163.38	1.9707e-05	2.1531e-05	314.6	145.94	72.676	32.111	2.3406e-05	75.209	58.830	123.015	-35.243	-39.530	22.426	267.395	-38.902	-34.490	13.880	176.087	-35.330	-31.146	-31.215	-26.768	57.640	-28.219	-8191	255	
7220.439	1	1	0	0	0.030479	0.14759	0.22425	0.15853	0.081226	0.13068	0.20392	0.27348	0.15064	0.10555	0.33089	0.13859	0.36509	0.5171	0.040722	0.026481	-2.5125	-3.3896	-2.9	-2.8625	-3.5167	-3.0167	-3.2354	-3.2083	-2.9521	-3.4042	-3.1312	-2.8854	-3.3833	-3.0375	-3.2417	-3.3729	-2.531	235.654	18.869	66.159	147.957	14.574	219.691	262.896	118.364	190.708	200.839	200.110	248.749	294.746	33.804	257.186	0.00078977	0.0007812	0.00017877	339.98	7.8028e-06	1.2646e-05	547.41	131.62	7.2381e-06	3.5896e-06	273.35	133.06	60.866	27.624	1.0967e-05	69.887	0.0017882	0.0020673	0.00060313	423.46	1.9927e-05	2.3097e-05	634.16	163.16	2.0022e-05	2.3271e-05	314.29	146.25	73.072	32.498	2.3014e-05	75.012	58.502	135.188	20.194	-39.496	194.416	189.826	-39.166	-33.923	238.436	206.902	-35.358	-31.311	-30.834	-26.687	47.384	-28.302	-8191	255	
7220.535	1	1	0	0	0.34852	0.26825	0.057137	0.1054	0.11821	0.058263	0.078276	0.1231	0.1505	0.020606	0.10791	0.28212	0.22337	0.088237	0.18598	0.20466	-2.6521	-3.1542	-3.125	-3.0729	-3.2917	-3.0083	-3.2396	-3.4458	-2.9479	-3.2479	-3.1188	-3.0979	-3.3792	-3.1479	-2.9896	-3.5896	306.778	298.112	85.288	265.249	32.875	113.124	200.339	257.269	-24.288	164.760	175.983	245.351	71.565	247.957	92.935	158.814	0.00057991	0.00052583	3.2126e-05	340.75	3.1041e-06	5.071e-06	547.3	132.48	9.3377e-06	2.9277e-06	273.55	132.47	60.784	27.711	7.8196e-06	69.978	0.0018308	0.002186	0.00058895	423.2	2.0644e-05	2.4247e-05	630.72	162.75	2.0847e-05	2.4136e-05	312.29	145.75	73.858	32.593	2.2097e-05	74.974	40.111	70.610	51.126	-39.760	172.298	89.317	-38.933	-34.708	249.120	-43.400	-35.136	-31.280	-30.952	-26.967	-51.081	-28.184	-8191	255	
7220.631	1	1	0	0	0.062902	0.1648	0.12044	0.27361	0.1747	0.14061	0.20648	0.16708	0.21697	0.066025	0.19603	0.16413	0.15221	0.20319	0.15185	0.067905	-2.5792	-3.2062	-2.9792	-3.1312	-3.4042	-2.9938	-2.9958	-3.4125	-3.1333	-3.3521	-3.2292	-2.9146	-3.1667	-3.2313	-2.9958	-3.3833	185.817	66.303	170.023	11.262	246.386	-36.209	189.893	307.159	100.557	169.926	213.666	259.389	-9.912	-14.165	-30.919	300.485	0.00096399	0.00034811	0.00024057	339.44	1.3406e-05	1.1313e-05	546.62	132.71	1.393e-05	1.4456e-06	274.18	133.22	61.057	27.917	2.1215e-05	70.132	0.0019226	0.0022068	0.00056138	419.92	2.1765e-05	2.4058e-05	629.36	162.39	2.2266e-05	2.3838e-05	311.9	146.12	75.477	32.677	2.178e-05	75.104	44.286	19.283	-26.347	-39.442	136.737	88.638	-38.876	-34.224	146.234	171.277	-35.170	-31.406	-31.026	-26.698	73.619	-28.205	-8191	255	
7220.727	1	1	0	0	0.11385	0.12733	0.15453	0.30284	0.087598	0.027533	0.046667	0.28946	0.072797	0.11601	0.18446	0.22383	0.29668	0.13796	0.21693	0.063429	-2.7188	-3.2313	-3.1958	-2.8625	-3.2188	-3.3292	-2.925	-3.3063	-3.1271	-3.1417	-3.3187	-2.8979	-3.2271	-3.2375	-2.7729	-3.3229	128.225	248.806	102.734	259.527	94.217	282.182	125.726	-18.323	264.171	-39.777	195.461	-15.572	-34.396	-21.168	137.103	188.643	0.0010584	0.00084837	0.00018507	340.66	6.9527e-06	1.1743e-05	546.68	131.84	1.3753e-05	7.0457e-06	274.41	133.85	60.932	27.86	8.804e-06	70.204	0.0020692	0.0021594	0.00055471	421.29	2.3408e-05	2.3477e-05	626.7	162.88	2.3736e-05	2.3286e-05	312.1	147.09	76.331	32.491	2.1436e-05	75.532	52.030	-0.870	19.972	-39.702	139.626	27.721	-38.998	-33.966	139.490	-23.942	-34.997	-31.198	-30.777	-27.014	67.665	-28.094	-8191	255	
7220.823	1	1	0	0	0.38758	0.19738	0.08771	0.10901	0.073402	0.21495	0.038638	0.15415	0.20338	0.17924	0.1264	0.26258	0.04243	0.11622	0.10548	0.082478	-2.7625	-3.1208	-3.1708	-2.9792	-3.2146	-2.9396	-2.8875	-3.4729	-3.1354	-3.0312	-3.2771	-3.0812	-3.2479	-3.2917	-2.7604	-3.5979	197.778	224.357	224.924	261.218	154.049	296.828	160.810	74.048	88.106	164.442	99.703	307.785	196.730	237.475	75.167	209.831	0.00066753	0.0010594	0.00023797	339.16	2.3195e-06	1.4923e-05	547.47	133.54	4.2114e-06	1.1637e-05	274.9	133.91	61.212	28.094	1.5082e-05	70.463	0.0021555	0.0020757	0.0005399	423.87	2.4098e-05	2.2369e-05	625.46	164.84	2.4102e-05	2.2294e-05	310.55	147.59	76.456	32.334	2.0758e-05	75.925	66.351	24.457	4.731	-39.180	32.236	67.277	-39.162	-34.114	4.832	59.313	-35.069	-31.316	-30.973	-26.888	51.494	-28.089	-8191	255	
7220.918	1	1	0	0	0.047324	0.1843	0.1474	0.21874	0.042254	0.082291	0.24847	0.10869	0.23274	0.18404	0.13374	0.31432	0.25919	0.20559	0.17792	0.084079	-2.6542	-2.7375	-3.3104	-2.9021	-2.9896	-3.1667	-3.0146	-3.3563	-2.9688	-3.1167	-3.3604	-3.2729	-3.0042	-3.2542	-2.9125	-3.3979	100.816	-40.692	103.209	0.023	145.156	224.708	141.597	-42.834	154.835	172.866	137.432	232.635	223.265	-45.058	-36.766	-14.584	0.00019041	0.00043723	0.00018197	338.6	1.0081e-05	3.7368e-06	544.74	133.82	1.0499e-05	3.5852e-06	274.67	133.57	61.09	28.049	1.3256e-05	70.443	0.0021189	0.0019882	0.00051825	427.58	2.3274e-05	2.115e-05	619.88	165.85	2.2667e-05	2.0996e-05	308.38	147.84	75.339	32.136	1.9886e-05	76.284	39.961	61.596	297.912	-39.274	26.213	109.864	-39.213	-34.279	90.136	96.766	-35.131	-31.290	-30.985	-26.717	77.872	-28.125	-8191	255	
7221.014	1	1	0	0	0.013997	0.22725	0.23282	0.17048	0.15375	0.031456	0.072069	0.054602	0.22545	0.16388	0.060737	0.084579	0.061935	0.21362	0.11759	0.26272	-2.8208	-2.9583	-3.3563	-3.0479	-2.9833	-3.325	-3.05	-3.0521	-3.1479	-3.0375	-3.1708	-3.0542	-3.1833	-3.5083	-2.7646	-3.4104	29.617	144.460	79.554	157.175	305.966	181.047	-42.567	117.193	-39.909	44.714	-9.728	203.254	242.142	218.819	-15.510	240.217	0.00077315	0.00048991	0.00023241	340.56	7.966e-06	1.2177e-05	546.17	132.15	1.5243e-05	9.5505e-06	273.52	132.89	61.166	28.148	1.5029e-05	70.464	0.0019796	0.0018897	0.00050607	430.04	2.1712e-05	2.0015e-05	618.01	166.46	2.1017e-05	1.9993e-05	308.45	147.59	74.047	31.952	2.0121e-05	76.314	49.063	284.421	58.589	-39.451	48.902	114.856	-38.895	-34.118	17.013	71.345	-34.848	-31.152	-30.642	-26.941	179.966	-28.178	-8191	255	
7221.134	1	1	0	0	0.24645	0.26997	0.163	0.23058	0.080297	0.063122	0.15062	0.25237	0.17587	0.060897	0.18524	0.29234	0.33299	0.057507	0.23925	0.46454	-2.7208	-2.85	-3.3312	-2.8438	-3.1583	-3.2938	-3.0062	-3.0812	-3.1396	-3.0458	-3.25	-3.1833	-2.9688	-3.3708	-2.8979	-3.2875	101.145	184.990	-42.505	203.102	-36.201	7.104	163.255	262.720	146.152	224.194	256.995	275.917	242.751	63.734	8.639	266.599	0.00039729	0.0017517	0.00024237	341.23	2.4073e-06	5.9397e-06	544.45	133.06	1.3825e-05	1.5654e-05	275.33	133.68	60.86	27.989	8.9228e-06	70.222	0.0018564	0.0018005	0.0005176	429.85	2.0623e-05	1.9147e-05	622.25	166.46	2.0203e-05	1.9397e-05	311.21	147.58	73.589	31.78	2.1541e-05	76.28	42.626	28.011	145.607	-39.429	229.852	74.089	-38.871	-33.859	69.304	51.641	-34.914	-31.522	-30.669	-26.749	184.982	-27.986	-8191	255	
7221.231	1	1	0	0	0.075677	0.0056649	0.030788	0.088539	0.097336	0.12766	0.17793	0.075311	0.15189	0.1454	0.17202	0.1039	0.19439	0.0072918	0.17558	0.36135	-2.8729	-2.9646	-3.1229	-3.0854	-3.0167	-3.4042	-3.0167	-3.2875	-3.1396	-2.8604	-3.2417	-3.2	-2.8729	-3.3458	-3.075	-3.3167	-23.117	217.331	105.205	59.544	78.449	229.394	232.096	-26.689	142.620	23.407	41.110	-22.200	292.428	-13.671	7.747	261.972	0.00046725	0.00045475	0.00023423	340.25	9.9618e-06	5.2998e-06	542.03	133.87	6.4351e-06	1.2721e-05	274.14	133.08	60.401	27.849	1.48e-05	70.048	0.0017945	0.0017729	0.00055928	427.92	2.0434e-05	1.9173e-05	628.19	166.18	2.0064e-05	1.964e-05	314.38	147.2	73.56	31.748	2.3074e-05	75.867	66.606	-36.585	118.528	-39.585	89.562	108.979	-38.978	-34.251	48.515	175.450	-35.181	-31.167	-30.496	-26.809	186.618	-28.095	-8191	255	
7221.302	1	1	0	0	0.14098	0.13977	0.12747	0.074018	0.050707	0.20661	0.039887	0.21439	0.069945	0.17579	0.22337	0.039156	0.1922	0.17345	0.10085	0.19354	-2.8312	-2.8312	-3.1896	-3.1333	-2.7917	-3.3063	-3.0812	-3.2583	-3.2333	-2.925	-3.3375	-3.4062	-3.0792	-3.2438	-2.8333	-3.2562	46.271	71.112	115.226	128.754	220.880	55.872	102.419	156.476	74.407	86.887	-32.216	-46.221	188.514	0.414	20.376	276.549	0.00061794	0.00055267	0.00033594	341.54	6.6215e-06	8.2449e-06	544.2	133.83	1.1843e-05	1.242e-05	275.68	133.22	60.92	27.85	1.3597e-05	70.161	0.0018106	0.0018575	0.00060538	427.05	2.0544e-05	2.0407e-05	635.44	165.82	2.0072e-05	2.0865e-05	316.87	146.63	73.56	32.091	2.4331e-05	75.659	45.476	73.392	139.666	-39.749	111.071	181.716	-38.912	-34.407	-20.921	150.897	-34.917	-31.392	-30.868	-26.612	55.696	-28.184	-8191	255	
7221.423	1	1	0	0	0.12949	0.16717	0.13355	0.29804	0.25741	0.17722	0.22956	0.16379	0.13843	0.078356	0.20027	0.20946	0.29309	0.35345	0.11836	0.20784	-2.8625	-3.0438	-3.1875	-3.2833	-2.9771	-3.3458	-3.1042	-2.9437	-3.2667	-2.9125	-3.2896	-3.1396	-2.8396	-3.4646	-2.8667	-2.9146	-5.924	137.657	29.399	279.466	110.700	203.977	274.700	-19.812	51.784	-48.517	224.009	291.296	228.833	290.938	40.962	243.849	0.0003107	0.00086412	0.00030911	342.69	6.7173e-06	7.0453e-06	542.75	131.65	5.3683e-06	1.1375e-05	273.1	131.93	60.259	27.738	1.2729e-05	69.983	0.0018212	0.0020233	0.00063123	426.05	2.0555e-05	2.2267e-05	635.5	164.48	1.9837e-05	2.2531e-05	315.1	145.43	72.933	32.28	2.3376e-05	75.186	54.011	157.921	38.384	-39.498	129.783	184.161	-38.930	-34.310	64.037	195.317	-34.853	-31.291	-31.140	-26.657	96.950	-28.059	-8191	255	
7221.519	1	1	0	0	0.18356	0.11275	0.21278	0.086962	0.15752	0.20365	0.059207	0.10285	0.1965	0.19519	0.14155	0.15965	0.015934	0.13115	0.19319	0.24854	-3.0271	-2.9479	-3.1458	-3.1667	-3.1146	-3.4854	-3.0938	-2.9375	-3.3583	-2.9625	-3.0812	-3.5083	-2.9313	-3.3667	-3.275	-2.9	51.274	73.572	210.596	-6.846	46.562	294.356	298.836	297.584	104.052	89.392	247.007	293.678	201.747	252.415	218.725	180.655	0.00052943	0.0019235	0.00016421	339.72	6.3675e-06	1.4249e-05	543.72	132.19	1.0837e-05	3.0812e-06	271.67	132.13	60.378	27.522	1.1258e-05	69.659	0.0017569	0.0020874	0.00059519	420.06	1.9869e-05	2.2969e-05	629.42	162.52	1.9524e-05	2.3265e-05	312.22	144.66	72.816	32.311	2.2169e-05	74.684	68.251	110.796	25.827	-39.213	271.820	206.562	-38.825	-34.149	219.087	183.997	-35.035	-31.506	-30.677	-26.736	46.476	-28.016	-8191	255	
7221.615	1	1	0	0	0.15782	0.10412	0.14107	0.20344	0.18239	0.059812	0.20555	0.072127	0.35157	0.24105	0.206	0.3366	0.067311	0.17696	0.15031	0.34422	-3.1083	-3.0167	-3.2188	-3.1063	-2.8771	-3.3292	-3.2083	-2.7687	-3.3063	-3.0187	-3.225	-3.4667	-2.9583	-3.3292	-3.2708	-2.9417	65.800	25.365	135.865	242.779	-25.651	182.515	203.405	209.152	230.711	120.540	305.524	189.055	216.267	226.367	-19.291	223.081	0.00086948	0.00036472	0.00036193	339.75	1.1199e-05	1.6236e-05	542.81	130.97	5.1833e-06	6.7366e-06	271.61	131.44	59.662	27.474	3.4322e-06	68.83	0.0017831	0.0021456	0.0005669	416.7	2.0416e-05	2.3505e-05	624.29	161.45	2.0498e-05	2.3848e-05	310.11	143.65	73.566	32.293	2.1492e-05	74.127	36.367	59.102	-9.681	-39.405	180.700	149.567	-39.324	-34.236	15.139	52.205	-35.226	-31.225	-31.030	-26.810	109.451	-28.183	-8191	255	
7221.711	1	1	0	0	0.10419	0.32546	0.059923	0.098582	0.11818	0.20828	0.17643	0.19889	0.1023	0.17428	0.082685	0.097314	0.088081	0.20396	0.092696	0.16837	-2.9208	-3.0292	-2.9542	-3.2458	-3.0979	-3.2833	-3.1375	-2.7146	-3.2625	-3.2146	-3.1813	-3.4521	-2.9792	-2.9729	-3.1167	-3.1708	12.161	212.200	-13.063	158.808	160.805	300.524	5.280	245.087	-11.245	295.431	94.734	117.946	188.679	114.461	219.977	276.590	0.00062438	0.00049166	0.00014728	338.08	6.5803e-06	4.0805e-06	543.03	131.08	1.0337e-05	1.5324e-05	270.86	131.75	59.362	27.659	1.1438e-05	69.208	0.0019243	0.0021673	0.00055978	416.89	2.2314e-05	2.3836e-05	623.07	161.13	2.222e-05	2.3525e-05	308.83	143.45	74.216	32.23	2.1102e-05	74.212	21.589	81.025	267.949	-39.265	-48.481	301.377	-38.945	-34.070	154.667	-9.790	-35.213	-31.067	-30.876	-26.675	-5.035	-28.054	-8191	255	
7221.832	1	1	0	0	0.17281	0.18841	0.17039	0.20408	0.073616	0.09951	0.060373	0.07746	0.09946	0.094264	0.20364	0.29598	0.19443	0.17246	0.17608	0.10579	-2.9271	-3.1521	-2.9479	-3.2292	-2.8937	-3.0354	-3.4167	-2.9708	-3.1021	-3.125	-3.0417	-3.5187	-3.2708	-3.1021	-3.3104	-2.9167	304.854	133.767	65.786	-16.352	100.665	4.338	180.640	4.467	112.333	292.522	303.549	272.232	146.403	218.433	168.799	159.357	0.00085213	0.00099405	0.00018358	337.99	1.5156e-05	1.2804e-05	543.12	130.72	1.194e-05	2.9398e-06	271.83	130.42	59.872	27.449	8.1045e-06	68.8	0.0020555	0.0020947	0.00054528	415.83	2.3327e-05	2.27e-05	618.89	160.99	2.3163e-05	2.2293e-05	307.57	143.17	74.478	31.801	2.0395e-05	74.273	46.539	24.114	123.134	-39.094	237.492	82.161	-39.197	-34.707	226.747	6.884	-35.276	-30.923	-31.065	-27.119	-17.140	-28.021	-8191	255	
7221.926	1	1	0	0	0.071251	0.11669	0.10936	0.11136	0.20258	0.2503	0.13115	0.26156	0.086724	0.13472	0.21418	0.11117	0.13292	0.33128	0.26501	0.27097	-2.8417	-3.2729	-2.9188	-3.1958	-3.0146	-3.0083	-3.3396	-3.0104	-3.0729	-3.1979	-2.9917	-3.4979	-2.9333	-2.9708	-3.1875	-3.0896	188.358	167.663	116.057	167.857	26.413	287.432	250.986	228.108	198.577	145.885	281.398	164.054	-51.270	-45.417	220.859	260.661	0.00077341	0.00033676	0.00019925	337.26	4.1227e-06	1.8622e-05	542.93	130.33	1.1164e-05	1.139e-05	270.63	130.29	59.929	27.258	4.0389e-06	68.502	0.0020955	0.0019972	0.0005269	419.47	2.3549e-05	2.1737e-05	616.54	162.48	2.3217e-05	2.1508e-05	306.05	144.15	74.403	31.519	1.9833e-05	74.302	77.109	-38.685	29.863	-39.208	27.683	9.397	-39.245	-34.265	92.913	38.734	-34.960	-31.225	-30.866	-26.518	29.824	-28.012	-8191	255	
7222.022	1	1	0	0	0.13875	0.24152	0.088605	0.085302	0.14567	0.23131	0.13592	0.097729	0.16489	0.2121	0.35338	0.14171	0.24126	0.16096	0.12034	0.27988	-2.6292	-3.2125	-2.9062	-3.1063	-3.1271	-2.9958	-3.3792	-2.7792	-3.0042	-3.3125	-2.9562	-3.3479	-3.1479	-3.0417	-3.1792	-3.1063	-48.850	74.626	26.831	246.061	223.484	250.492	-37.266	202.968	246.931	-32.153	-49.807	-21.330	276.788	297.986	176.379	274.398	0.00048079	0.0015352	0.00015938	336.83	8.4433e-06	6.8751e-06	540.64	130.22	9.3217e-06	2.8017e-06	269.91	130.13	59.5	27.24	8.6036e-06	68.556	0.0020569	0.0019227	0.00051597	425.02	2.2894e-05	2.1042e-05	614.28	164.52	2.2528e-05	2.0907e-05	304.7	144.64	73.488	31.383	1.9841e-05	74.605	50.111	64.459	106.852	-39.013	83.609	106.971	-38.902	-33.948	127.082	100.213	-34.928	-31.042	-30.974	-26.778	89.658	-28.076	-8191	255	
7222.119	1	1	0	0	0.10243	0.01114	0.11359	0.086021	0.17195	0.14899	0.12524	0.26891	0.067765	0.098454	0.26608	0.097652	0.23816	0.03255	0.11106	0.16516	-2.925	-3.3708	-2.7375	-3.275	-3.2125	-3.15	-3.5083	-2.9813	-2.9708	-3.4062	-2.9417	-3.3771	-3.2146	-2.8771	-3.275	-3.1792	88.587	160.762	293.878	-41.551	30.891	1.257	226.141	-29.950	271.231	112.610	213.843	-40.656	-44.265	233.175	298.058	267.398	0.00081962	0.00035578	5.011e-05	335.45	1.3685e-05	6.2291e-06	539.59	130.44	6.7551e-06	9.5323e-06	270.07	130.19	59.534	27.287	2.4757e-06	69.108	0.0019757	0.0018682	0.00051862	427.27	2.1731e-05	2.0564e-05	613.97	165.27	2.1641e-05	2.0396e-05	306.72	145.42	73.035	31.384	2.1109e-05	75.166	35.117	87.932	19.486	-39.472	27.239	81.549	-38.989	-33.986	56.814	57.112	-34.928	-31.100	-31.198	-26.845	137.636	-28.202	-8191	255	
7222.215	1	1	0	0	0.16353	0.04011	0.13756	0.1226	0.085162	0.11305	0.05828	0.2801	0.036678	0.069626	0.10806	0.099065	0.083667	0.26594	0.25095	0.16356	-2.8396	-3.2417	-2.8542	-3.2604	-3.1542	-2.9146	-3.3854	-3.1021	-2.9813	-3.3333	-3.2292	-3.3792	-3.2646	-2.8729	-3.1354	-3.1813	-24.862	257.384	154.816	200.689	288.654	66.817	34.430	-24.047	159.689	114.621	69.613	243.559	5.870	-24.664	160.915	32.630	0.000665	0.001235	0.00017267	336.95	1.0825e-05	8.0542e-06	539.36	130.62	1.2218e-05	1.0511e-05	270.36	129.76	59.097	27.117	1.0724e-05	68.714	0.0019397	0.0018575	0.00056109	431.3	2.1232e-05	2.0094e-05	620.18	164.97	2.069e-05	1.9607e-05	308.31	144.39	71.924	31.053	2.187e-05	74.49	67.144	17.188	114.955	-39.372	17.867	43.070	-39.133	-34.265	5.147	114.976	-35.078	-31.086	-31.109	-26.858	102.926	-27.986	-8191	255	
7222.311	1	1	0	0	0.11687	0.08191	0.42979	0.16673	0.17228	0.17554	0.24151	0.21182	0.047993	0.088622	0.27835	0.23727	0.139	0.18683	0.10911	0.2503	-2.4604	-3.2125	-2.9	-3.0625	-3.0938	-2.8937	-3.3063	-3.0979	-3.1625	-3.3063	-2.9313	-3.4104	-3.2	-3	-3.3896	-3.1625	7.354	257.734	261.190	229.107	246.013	51.436	-50.245	243.363	273.816	-46.647	284.705	273.625	190.817	-8.823	278.538	225.374	0.00074406	0.0010751	3.5113e-05	335.12	1.3996e-05	5.4085e-06	539.87	130.49	1.2429e-05	1.2552e-05	269.51	130.06	58.802	27.052	8.8364e-06	68.387	0.0018276	0.0017706	0.00057346	423.77	2.015e-05	1.9515e-05	623.36	163.03	1.987e-05	1.9377e-05	309.72	143.26	71.362	31.021	2.2522e-05	73.905	51.859	65.506	191.271	-39.409	69.756	247.275	-38.980	-34.358	76.150	169.465	-34.981	-31.505	-30.726	-26.616	154.215	-28.042	-8191	255	
7222.432	1	1	0	0	0.1486	0.13183	0.16281	0.1947	0.15235	0.14472	0.3037	0.25037	0.12517	0.34414	0.28387	0.13048	0.27425	0.24901	0.13193	0.26823	-2.3312	-3.3667	-2.9958	-2.9479	-3.5292	-3.0729	-3.3104	-3.3292	-2.7875	-3.4437	-3.3104	-3.025	-3.3479	-3.1688	-3.175	-3.2104	132.258	279.627	286.030	-18.738	73.716	174.288	282.315	256.701	293.603	204.644	242.635	118.235	-50.774	-23.340	207.399	263.678	0.00071964	0.00086772	0.00019816	335.29	1.2168e-05	3.2971e-06	538.5	129.36	5.0778e-06	8.3354e-06	268.58	128.36	59.408	27.18	1.5393e-05	68.457	0.0017658	0.0017799	0.00058697	417.86	1.9209e-05	1.9738e-05	623.13	160.19	1.9025e-05	1.9731e-05	309.03	141.54	70.766	31.268	2.2349e-05	73.65	58.897	84.149	106.498	-39.612	41.714	239.637	-38.909	-34.349	-8.544	179.854	-35.099	-31.148	-31.289	-26.602	-3.573	-28.083	-8191	255	
7222.528	1	1	0	0	0.022273	0.13283	0.2059	0.11129	0.266	0.2075	0.38023	0.14926	0.15077	0.1464	0.090617	0.021198	0.22515	0.12749	0.058381	0.24146	-2.4875	-3.4708	-3.1646	-2.9833	-3.4521	-2.7875	-3.2979	-3.2875	-2.7167	-3.4458	-3.1792	-3.0979	-3.3333	-2.9854	-3.4688	-3.3729	140.489	235.464	-31.228	224.810	53.686	28.011	32.849	248.639	-17.877	-20.903	277.381	199.300	-45.249	-37.189	-25.173	182.499	0.00072235	0.00083561	0.00029577	333.4	1.0516e-05	4.4479e-06	541.05	130.95	1.0763e-05	2.0697e-05	269.63	129.48	59.032	27.18	1.269e-05	69.226	0.0016939	0.001867	0.0005763	412.92	1.8404e-05	2.0718e-05	620.89	159.73	1.8448e-05	2.0988e-05	308.19	141.43	70.247	31.609	2.1367e-05	73.896	31.926	151.945	29.452	-39.381	50.170	150.217	-38.965	-34.163	87.020	177.538	-34.719	-31.106	-30.559	-26.509	134.625	-28.096	-8191	255	
7222.599	1	1	0	0	0.1264	0.11448	0.063216	0.29691	0.075547	0.10247	0.14144	0.15233	0.17157	0.25138	0.047372	0.051956	0.22635	0.17019	0.20464	0.089625	-2.6479	-3.2333	-3.075	-2.9667	-3.1021	-2.9917	-3.2542	-3.3937	-3.0604	-3.175	-3.2354	-2.9771	-3.4188	-3.1042	-3.0979	-3.5292	216.685	291.454	169.159	212.623	272.516	252.209	199.265	241.150	10.235	205.801	91.293	227.899	-49.920	211.574	197.930	-25.552	0.00080556	0.0005156	0.00015444	335.42	7.3051e-06	3.354e-06	538.05	131.15	1.8552e-06	5.8526e-06	272.14	129.28	59.141	27.368	1.1265e-05	69.135	0.0016437	0.0019415	0.00053999	409.58	1.7994e-05	2.1266e-05	615.54	158.51	1.833e-05	2.1415e-05	306.13	141.04	70.633	31.78	2.0433e-05	73.741	66.922	114.362	16.379	-39.612	86.243	127.709	-39.138	-34.011	229.102	48.629	-34.699	-30.966	-30.380	-26.610	50.279	-27.831	-8191	255	
7222.695	1	1	0	0	0.42973	0.092625	0.17246	0.14508	0.11006	0.38772	0.31777	0.10984	0.15867	0.22194	0.2082	0.33317	0.3195	0.38794	0.25831	0.18594	-2.6312	-3.0771	-2.9938	-2.9979	-3.3542	-2.8167	-3.3542	-3.3688	-2.8896	-3.4979	-3.2396	-2.8896	-3.3229	-3.0938	-2.9625	-3.3083	-6.221	-39.544	-33.444	251.001	160.641	-5.484	289.195	-29.970	116.559	143.404	98.091	287.948	298.858	262.970	146.297	221.472	0.0012507	0.00054973	7.7183e-05	336.25	1.1429e-05	6.6826e-06	539.44	131	1.2539e-05	1.0644e-05	271.24	129.01	59.189	27.596	1.3213e-05	68.478	0.0017053	0.0019973	0.00052256	409.11	1.9249e-05	2.2119e-05	613.29	158.26	1.9736e-05	2.2155e-05	305.29	140.75	71.47	31.832	2.013e-05	73.221	69.749	75.846	307.520	-39.540	194.068	74.952	-38.923	-34.045	164.752	53.215	-35.249	-30.848	-30.571	-26.856	41.789	-27.892	-8191	255	
7222.814	1	1	0	0	0.20898	0.12652	0.25302	0.05657	0.20749	0.13865	0.15612	0.19879	0.13737	0.29513	0.22603	0.079411	0.17418	0.29947	0.1247	0.16159	-2.5208	-3.0979	-3.0438	-2.9667	-3.2938	-3.0208	-3.0521	-3.3167	-2.8771	-3.225	-3.3021	-2.9417	-3.3958	-3.1396	-2.8271	-3.4813	6.968	215.365	172.487	161.067	176.116	8.371	-20.065	-32.467	-0.130	278.744	298.963	164.907	11.417	230.587	256.977	87.144	0.00084408	0.00077359	1.9006e-05	336.44	1.0772e-05	7.2704e-06	535.23	131.5	1.3248e-05	6.5966e-06	269.32	128.9	59.184	27.251	9.9259e-06	69.044	0.0018254	0.0019848	0.00050915	406.91	2.0375e-05	2.1404e-05	609.49	157.41	2.0635e-05	2.1321e-05	302.68	140.48	72.259	31.605	1.9441e-05	73.449	46.966	12.367	69.526	-39.464	205.826	98.192	-39.274	-34.288	203.747	52.967	-34.878	-30.987	-30.441	-26.482	81.026	-27.668	-8191	255	
7222.911	1	1	0	0	0.17569	0.097977	0.068334	0.16265	0.095767	0.048267	0.31423	0.44036	0.18789	0.13907	0.061609	0.083338	0.24463	0.27248	0.013017	0.22308	-2.5604	-3.0062	-3.2292	-2.8021	-3.2583	-2.9667	-3.1354	-3.325	-3.0667	-3.1458	-3.2125	-3.0604	-3.2583	-3.15	-2.8604	-3.4	108.519	30.684	48.765	25.179	130.035	-43.336	270.124	249.205	-26.536	216.819	60.527	164.893	-16.023	118.153	265.850	226.297	0.0010593	0.00064473	0.00018678	334.65	1.008e-05	1.7031e-05	537.02	130.67	1.1327e-05	8.0593e-06	270.67	129.26	59.387	27.32	1.2493e-05	69	0.0018994	0.0019104	0.00049436	407.92	2.147e-05	2.0669e-05	610.74	158.29	2.1711e-05	2.0631e-05	302.73	141.43	73.136	31.471	1.9189e-05	73.993	41.257	25.635	-14.319	-39.002	183.985	104.156	-39.025	-34.179	110.148	46.957	-35.003	-31.312	-30.549	-26.472	14.138	-27.765	-8191	255	
7223.007	1	1	0	0	0.14052	0.15366	0.19207	0.14082	0.19329	0.14129	0.078565	0.11386	0.27321	0.17118	0.15735	0.12016	0.16793	0.079214	0.14262	0.10649	-2.6917	-3.0021	-3.0812	-3.0958	-3.2625	-3.0021	-3.1583	-3.2313	-3.0625	-3.2146	-3.5417	-3.0271	-3.2917	-3.2146	-2.8312	-3.4021	283.010	303.578	54.035	7.859	117.407	201.204	285.031	1.264	217.584	118.289	285.135	299.045	262.555	187.628	-34.806	300.197	0.00074707	0.00067815	0.00032274	335.95	1.3822e-05	1.3919e-05	536.36	130.84	3.542e-06	8.0387e-06	269.97	129.3	59.548	27.309	6.6524e-06	69.158	0.0019678	0.00186	0.00048943	414.93	2.2301e-05	2.0428e-05	610.44	160.98	2.2213e-05	2.0637e-05	303.24	143.09	73.488	31.498	1.9661e-05	74.839	26.686	41.749	-8.463	-39.084	85.725	61.182	-39.014	-33.879	179.238	46.021	-35.100	-30.868	-30.475	-26.709	-39.992	-28.108	-8191	255	
7223.103	1	1	0	0	0.13006	0.27316	0.20795	0.22783	0.070188	0.10714	0.077739	0.12951	0.15271	0.23048	0.2674	0.055076	0.137	0.30165	0.1062	0.40811	-2.6292	-2.9021	-3.2667	-3.0375	-3.2687	-3.2375	-2.775	-3.3292	-3.1937	-2.9813	-3.2667	-2.9521	-3.2833	-3.2687	-2.7833	-3.2021	130.044	65.589	197.357	276.503	273.393	100.947	154.532	1.175	174.731	290.663	246.094	192.482	4.587	117.196	305.417	255.180	0.00051353	0.00022809	0.0002335	336.58	7.4049e-06	4.3911e-06	538.28	129.63	9.6356e-06	8.9564e-06	270.68	129.56	59.101	27.347	6.7155e-06	69.208	0.0020014	0.0019059	0.00050292	424.99	2.251e-05	2.0567e-05	613.14	163.71	2.2152e-05	2.0571e-05	303.78	143.93	72.802	31.36	1.9732e-05	74.974	29.664	-42.565	11.566	-39.114	56.616	49.270	-38.866	-34.138	-0.585	87.363	-34.808	-30.961	-30.829	-26.771	206.509	-28.075	-8191	255	
7223.223	1	1	0	0	0.28065	0.26766	0.033749	0.22392	0.079149	0.20584	0.090676	0.17389	0.12379	0.31397	0.063301	0.40055	0.10845	0.23457	0.3122	0.27294	-2.3521	-2.8708	-3.275	-3.2062	-3.2146	-3.1625	-2.8583	-3.2375	-3.2917	-2.9	-3.3979	-2.9771	-3.0646	-3.45	-2.8542	-3.3146	237.269	137.073	270.666	232.052	-32.096	280.017	13.985	25.085	-11.928	-18.536	4.582	280.757	238.647	272.594	-2.353	227.609	0.00024403	0.00072796	0.00023532	337.49	1.7003e-05	1.5163e-05	541.64	130.62	1.2404e-05	1.0879e-05	269.07	129.74	59.122	27.474	1.0123e-05	69.268	0.0019106	0.0018489	0.0005097	426.89	2.1473e-05	2.0029e-05	615.88	165.14	2.1052e-05	2.0142e-05	305.44	144.21	72.252	31.363	2.0798e-05	75.104	62.259	173.699	192.632	-39.350	41.601	80.652	-38.966	-34.098	61.214	22.979	-35.005	-31.018	-30.500	-26.784	162.024	-27.840	-8191	255	
7223.295	1	1	0	0	0.089557	0.1995	0.14089	0.38245	0.12622	0.12963	0.1489	0.087479	0.14333	0.24147	0.16945	0.27994	0.14821	0.14647	0.012194	0.055485	-2.7271	-2.95	-3.3937	-2.9833	-2.8396	-3.3271	-3.1	-3.0938	-3.1583	-2.9458	-3.4583	-3.2062	-2.9313	-3.4833	-3.0563	-3.1604	-6.243	12.278	126.482	-47.782	-36.760	-41.756	284.695	158.466	273.501	290.562	267.237	247.951	243.476	248.873	198.238	176.976	0.00064809	0.00089596	0.00017105	334.19	6.3181e-06	1.0425e-05	539.31	130.3	1.1488e-05	8.6256e-06	269.38	129.42	59.312	27.494	1.5736e-05	69.263	0.0018306	0.0017882	0.00053723	424.05	2.043e-05	1.9183e-05	618.27	163.69	2.0002e-05	1.9116e-05	307.51	143.42	71.604	31.16	2.1595e-05	74.814	57.448	-38.414	75.319	-39.291	299.027	125.036	-38.884	-33.867	36.626	71.805	-34.915	-31.103	-31.251	-26.389	173.807	-27.772	-8191	255	
7223.391	1	1	0	0	0.041535	0.19073	0.26055	0.16584	0.031069	0.04044	0.034485	0.28606	0.079634	0.16373	0.093599	0.27477	0.22652	0.24151	0.19315	0.1719	-2.9188	-2.8688	-3.1229	-3.0792	-3.0917	-3.3438	-2.8833	-3.2313	-3.25	-2.8667	-3.4458	-3.0542	-3.0375	-3.2562	-2.8229	-3.1312	18.273	308.049	60.069	274.134	134.644	-19.401	193.416	249.204	294.299	198.547	180.517	227.860	288.348	171.799	-40.891	-13.327	0.00036103	0.00060736	0.00014543	337.66	1.4864e-05	6.252e-06	541.84	130.24	1.1811e-05	7.183e-06	269.24	129.31	59.023	27.275	7.0128e-06	69.305	0.0017423	0.0017228	0.00055713	419.61	1.9602e-05	1.8852e-05	623.71	162.04	1.9379e-05	1.9317e-05	309.1	142.68	71.2	31.176	2.2819e-05	74.463	27.240	121.339	116.168	-39.708	125.086	168.447	-38.555	-33.846	31.229	227.298	-34.696	-31.367	-31.029	-26.564	144.103	-27.966	-8191	255	
#DATA ENDS
