BOXY.EXE: ISS Imagent and Oximeter Data Acquisition Program Version 0.80
Ascii Record File

#ACQ INFORMATION
2  Detector Channels 
16  External MUX Channels 
1  Auxiliary Channels 
5000  Waveform (CCF) Frequency (Hz)
1  Waveforms Skipped 
30  Waveforms Averaged 
1  Cycles Averaged 
16  Acquisitions per Waveform 
10.0806  Updata Rate (Hz) 

#FILE INFORMATION
TRUE -- External MUX Channel results are PARSED.
FALSE -- AC DC and Phase are NOT grouped.
TRUE -- Companion Program Settings File CREATED.
FALSE -- AC data not excluded
FALSE -- DC data not excluded
FALSE -- Phase data not excluded
FALSE -- Auxillary Chn. data not excluded
Tab delimiters

#CALIBRATION STATE
TRUE -- Waveform Calibration Values APPLIED.


#AUX CALIBRATION VALUES
Val Type	aux-1	

Term	1.0000e+00	
Factor	0.0000e+00	


#WF CALIBRATION VALUES
A = Detector Channel
Val Type	A-AC1	A-AC2	A-AC3	A-AC4	A-AC5	A-AC6	A-AC7	A-AC8	A-AC9	A-AC10	A-AC11	A-AC12	A-AC13	A-AC14	A-AC15	A-AC16	A-DC1	A-DC2	A-DC3	A-DC4	A-DC5	A-DC6	A-DC7	A-DC8	A-DC9	A-DC10	A-DC11	A-DC12	A-DC13	A-DC14	A-DC15	A-DC16	A-Ph1	A-Ph2	A-Ph3	A-Ph4	A-Ph5	A-Ph6	A-Ph7	A-Ph8	A-Ph9	A-Ph10	A-Ph11	A-Ph12	A-Ph13	A-Ph14	A-Ph15	A-Ph16	

Term	0.00000e+00	0.00000e+00	0.00000e+00	0.00000e+00	0.00000e+00	0.00000e+00	0.00000e+00	0.00000e+00	0.00000e+00	0.00000e+00	0.00000e+00	0.00000e+00	0.00000e+00	0.00000e+00	0.00000e+00	0.00000e+00	0.00000e+00	0.00000e+00	0.00000e+00	0.00000e+00	0.00000e+00	0.00000e+00	0.00000e+00	0.00000e+00	0.00000e+00	0.00000e+00	0.00000e+00	0.00000e+00	0.00000e+00	0.00000e+00	0.00000e+00	0.00000e+00	0.00000e+00	0.00000e+00	0.00000e+00	0.00000e+00	0.00000e+00	0.00000e+00	0.00000e+00	0.00000e+00	0.00000e+00	0.00000e+00	0.00000e+00	0.00000e+00	0.00000e+00	0.00000e+00	0.00000e+00	0.00000e+00	
Factor	1.00000e+00	1.00000e+00	1.00000e+00	1.00000e+00	1.00000e+00	1.00000e+00	1.00000e+00	1.00000e+00	1.00000e+00	1.00000e+00	1.00000e+00	1.00000e+00	1.00000e+00	1.00000e+00	1.00000e+00	1.00000e+00	1.00000e+00	1.00000e+00	1.00000e+00	1.00000e+00	1.00000e+00	1.00000e+00	1.00000e+00	1.00000e+00	1.00000e+00	1.00000e+00	1.00000e+00	1.00000e+00	1.00000e+00	1.00000e+00	1.00000e+00	1.00000e+00	X	X	X	X	X	X	X	X	X	X	X	X	X	X	X	X	

B = Detector Channel
Val Type	B-AC1	B-AC2	B-AC3	B-AC4	B-AC5	B-AC6	B-AC7	B-AC8	B-AC9	B-AC10	B-AC11	B-AC12	B-AC13	B-AC14	B-AC15	B-AC16	B-DC1	B-DC2	B-DC3	B-DC4	B-DC5	B-DC6	B-DC7	B-DC8	B-DC9	B-DC10	B-DC11	B-DC12	B-DC13	B-DC14	B-DC15	B-DC16	B-Ph1	B-Ph2	B-Ph3	B-Ph4	B-Ph5	B-Ph6	B-Ph7	B-Ph8	B-Ph9	B-Ph10	B-Ph11	B-Ph12	B-Ph13	B-Ph14	B-Ph15	B-Ph16	

Term	0.00000e+00	0.00000e+00	0.00000e+00	0.00000e+00	0.00000e+00	0.00000e+00	0.00000e+00	0.00000e+00	0.00000e+00	0.00000e+00	0.00000e+00	0.00000e+00	0.00000e+00	0.00000e+00	0.00000e+00	0.00000e+00	0.00000e+00	0.00000e+00	0.00000e+00	0.00000e+00	0.00000e+00	0.00000e+00	0.00000e+00	0.00000e+00	0.00000e+00	0.00000e+00	0.00000e+00	0.00000e+00	0.00000e+00	0.00000e+00	0.00000e+00	0.00000e+00	-1.89518e+02	-1.23593e+02	-1.25496e+02	-1.81679e+02	-7.61103e+01	-6.24902e+01	-1.55738e+02	-1.62015e+02	-8.38926e+01	-6.66045e+01	-1.71022e+02	-1.71488e+02	-1.82271e+02	-1.77129e+02	-7.76859e+01	-1.50166e+02	
Factor	3.40093e-05	1.64242e-04	4.24187e-05	4.50345e-01	1.35262e-06	1.43726e-06	1.64758e-01	5.55694e-02	1.59219e-06	1.39930e-06	8.73404e-02	2.91543e-02	2.39755e-02	8.51859e-03	1.51915e-06	1.23768e-02	5.84871e-06	6.87391e-06	1.90808e-06	2.31325e-01	7.49402e-08	7.54082e-08	8.06156e-02	2.88414e-02	7.34411e-08	7.61242e-08	4.39244e-02	1.47014e-02	1.25749e-02	4.46564e-03	7.38727e-08	6.28510e-03	X	X	X	X	X	X	X	X	X	X	X	X	X	X	X	X	



#DISTANCE SETTINGS
A = Detector Channel
A-1	A-2	A-3	A-4	A-5	A-6	A-7	A-8	A-9	A-10	A-11	A-12	A-13	A-14	A-15	A-16	

2.5000e+00	3.0000e+00	2.5000e+00	3.0000e+00	2.0000e+00	3.0000e+00	1.5000e+00	3.0000e+00	3.0000e+00	3.0000e+00	3.0000e+00	3.0000e+00	3.0000e+00	3.0000e+00	1.5000e+00	3.0000e+00	

B = Detector Channel
B-1	B-2	B-3	B-4	B-5	B-6	B-7	B-8	B-9	B-10	B-11	B-12	B-13	B-14	B-15	B-16	

1.0000e+01	1.0000e+01	1.0000e+01	1.4400e+00	1.0000e+01	1.0000e+01	1.5100e+00	1.9400e+00	1.0000e+01	1.0000e+01	1.9900e+00	2.4900e+00	2.4100e+00	2.9000e+00	1.0000e+01	2.9800e+00	




#DATA BEGINS
time	group	step	mark	flag	A-AC1	A-AC2	A-AC3	A-AC4	A-AC5	A-AC6	A-AC7	A-AC8	A-AC9	A-AC10	A-AC11	A-AC12	A-AC13	A-AC14	A-AC15	A-AC16	A-DC1	A-DC2	A-DC3	A-DC4	A-DC5	A-DC6	A-DC7	A-DC8	A-DC9	A-DC10	A-DC11	A-DC12	A-DC13	A-DC14	A-DC15	A-DC16	A-Ph1	A-Ph2	A-Ph3	A-Ph4	A-Ph5	A-Ph6	A-Ph7	A-Ph8	A-Ph9	A-Ph10	A-Ph11	A-Ph12	A-Ph13	A-Ph14	A-Ph15	A-Ph16	B-AC1	B-AC2	B-AC3	B-AC4	B-AC5	B-AC6	B-AC7	B-AC8	B-AC9	B-AC10	B-AC11	B-AC12	B-AC13	B-AC14	B-AC15	B-AC16	B-DC1	B-DC2	B-DC3	B-DC4	B-DC5	B-DC6	B-DC7	B-DC8	B-DC9	B-DC10	B-DC11	B-DC12	B-DC13	B-DC14	B-DC15	B-DC16	B-Ph1	B-Ph2	B-Ph3	B-Ph4	B-Ph5	B-Ph6	B-Ph7	B-Ph8	B-Ph9	B-Ph10	B-Ph11	B-Ph12	B-Ph13	B-Ph14	B-Ph15	B-Ph16	aux-1	digaux	

32854.125	1	1	0	256	0.21798	0.23018	0.10652	0.15863	0.018524	0.18333	0.1417	0.27465	0.0049516	0.086811	0.1007	0.11081	0.036975	0.24578	0.13826	0.12068	-1.9813	-2.7687	-2.6771	-2.5146	-2.9125	-2.4583	-2.6896	-2.8667	-2.3333	-2.5458	-2.5812	-2.5771	-2.8312	-2.4458	-2.5854	-3.0563	283.226	279.328	169.615	308.066	166.045	155.943	332.886	42.074	120.877	55.571	34.090	341.364	30.571	377.139	253.910	134.263	0.00039441	0.00049329	8.6683e-05	1239.4	2.7432e-06	2.5254e-06	1301.7	252.58	2.7347e-06	2.1546e-06	313.01	87.728	69.124	20	2.7031e-06	27.885	0.00021071	0.0001863	5.0278e-05	1211.4	2.1079e-06	1.9922e-06	1278.9	249.9	2.0466e-06	1.9924e-06	310.36	87.517	68.743	20.055	2.0852e-06	28.247	78.605	113.059	107.676	31.157	150.188	172.965	31.276	38.378	176.361	102.443	38.041	44.846	45.144	52.157	183.004	51.295	-8191	255	
32854.246	1	1	0	0	0.11445	0.39691	0.092659	0.13612	0.050753	0.20917	0.28064	0.054917	0.17946	0.16	0.031951	0.39105	0.11567	0.12338	0.19285	0.12684	-2.0375	-2.825	-2.8125	-2.5417	-2.9313	-2.7042	-2.7438	-2.9104	-2.6458	-2.7042	-2.8937	-2.4917	-2.7375	-2.6854	-2.6125	-2.825	173.391	41.033	132.827	100.398	21.530	376.794	296.688	379.483	278.716	134.858	34.276	30.285	357.294	225.919	239.608	310.877	0.00035652	0.00011693	5.5356e-05	1234.5	3.7904e-06	3.3807e-06	1300.2	253	2.1903e-06	2.6881e-06	314.61	87.923	69.073	19.881	3.217e-06	28.022	0.00020453	0.00018651	5.2798e-05	1209.1	1.995e-06	1.9711e-06	1278.9	250.34	1.9877e-06	2.0209e-06	311.08	87.719	68.734	20.01	1.9556e-06	28.327	87.180	168.801	102.125	31.274	165.346	158.811	31.402	38.152	151.348	185.742	38.128	44.831	44.967	51.610	150.865	51.305	-8191	255	
32854.316	1	1	0	0	0.19335	0.19295	0.11314	0.050602	0.18806	0.20705	0.16898	0.13018	0.22077	0.16606	0.23676	0.12655	0.23542	0.092671	0.078933	0.22668	-2.0708	-2.5646	-2.8021	-2.5854	-2.7812	-2.6729	-2.65	-2.9292	-2.6	-2.5604	-2.9	-2.5292	-2.7083	-2.6458	-2.5667	-2.7938	42.966	265.447	375.794	98.722	361.864	176.818	317.678	357.935	147.876	378.043	300.109	45.218	77.560	373.326	281.536	85.376	0.00037568	0.00044548	8.819e-05	1233.3	1.866e-06	2.9542e-06	1298.2	252.64	5.3971e-06	3.0949e-06	314.99	86.975	69.127	19.898	2.4678e-06	27.947	0.00020949	0.0001858	5.0131e-05	1208.7	2.0941e-06	1.9751e-06	1278.5	250.17	2.152e-06	1.8972e-06	311.15	87.595	68.887	20.046	1.9879e-06	28.324	86.193	113.626	108.412	31.408	193.955	238.076	31.253	38.434	172.930	157.191	38.108	44.754	45.000	51.823	181.620	51.578	-8191	255	
32854.414	1	1	0	0	0.1392	0.43717	0.052674	0.25889	0.027629	0.19365	0.19291	0.18702	0.30401	0.26973	0.34853	0.044011	0.083142	0.19726	0.17152	0.045855	-2.2021	-2.7458	-2.8208	-2.5354	-2.5917	-2.7604	-2.45	-2.6917	-2.5938	-2.4729	-2.8542	-2.5458	-2.6104	-2.7771	-2.5875	-2.8521	292.537	79.853	24.324	65.665	138.340	250.218	300.384	278.361	91.235	138.729	50.958	372.980	241.680	264.298	108.526	175.930	0.0003902	0.00023318	0.00011216	1234.1	2.2604e-06	3.9822e-06	1298.7	253.82	3.7446e-06	2.5775e-06	314.39	88.105	68.701	19.822	3.0865e-06	28.047	0.00021003	0.00019044	5.12e-05	1210.1	2.0471e-06	1.9381e-06	1280.4	250.3	2.0668e-06	2.0638e-06	311.51	87.614	68.677	19.985	2.0655e-06	28.27	86.678	71.037	111.572	31.233	113.178	210.587	31.112	38.463	169.132	166.668	37.879	44.892	44.769	51.822	185.490	51.385	-8191	255	
32854.531	1	1	0	0	0.038318	0.052984	0.049509	0.12598	0.2698	0.12828	0.33476	0.4127	0.18938	0.053142	0.043655	0.037784	0.068322	0.20245	0.051218	0.25782	-2.1833	-2.625	-2.7729	-2.4938	-2.5729	-2.7521	-2.5438	-2.8187	-2.4958	-2.5625	-2.7854	-2.575	-2.6229	-2.7646	-2.3937	-2.8854	301.903	43.174	118.658	326.837	237.876	145.497	96.080	291.561	127.707	155.030	62.092	79.523	375.406	324.199	60.046	366.965	0.00038729	0.00036179	0.00010625	1237.4	1.9124e-06	2.4115e-06	1299.8	252.51	4.2575e-06	2.8001e-06	313.53	87.8	69.009	19.804	3.7788e-06	27.912	0.00020193	0.00017888	5.2202e-05	1212.3	2.0635e-06	1.9672e-06	1277.8	250.11	2.086e-06	1.9554e-06	310.94	87.443	68.768	20.006	2.0004e-06	28.278	83.217	99.237	113.435	31.294	153.494	203.310	31.219	38.420	148.312	153.192	37.959	45.086	45.126	51.965	173.009	51.937	-8191	255	
32854.629	1	1	0	0	0.23631	0.09131	0.16464	0.18866	0.12147	0.19071	0.36308	0.24257	0.076942	0.11939	0.2508	0.098701	0.16958	0.16423	0.14742	0.074459	-2.1667	-2.4562	-2.4437	-2.6146	-2.6104	-2.6958	-2.6437	-2.8604	-2.5917	-2.3375	-2.6958	-2.5146	-2.7604	-2.7687	-2.4396	-2.6521	238.369	154.560	305.180	358.265	263.483	295.375	326.696	341.637	206.246	275.459	309.061	379.312	133.562	88.129	32.572	152.601	0.00034145	0.00045056	9.8534e-05	1235	2.6816e-06	6.6654e-07	1301.7	252.16	3.7354e-06	3.5584e-06	313.67	87.237	68.853	19.819	1.532e-06	27.984	0.00020728	0.0001862	5.2818e-05	1209.8	2.1182e-06	2.0337e-06	1279.4	250.64	2.1182e-06	1.9926e-06	311.35	87.553	68.805	19.948	2.062e-06	28.28	86.783	101.050	107.332	31.468	185.054	136.567	31.266	38.346	185.815	175.111	37.790	44.801	45.007	51.550	221.588	51.229	-8191	255	
32854.727	1	1	0	0	0.10165	0.12039	0.078087	0.15037	0.17855	0.18515	0.082423	0.13931	0.16912	0.04537	0.16792	0.16866	0.18528	0.16243	0.15264	0.0979	-2.2562	-2.4062	-2.7313	-2.8125	-2.5646	-2.8854	-2.5667	-2.675	-2.8375	-2.475	-2.9208	-2.7562	-2.4875	-2.925	-2.4375	-2.825	87.126	297.284	36.220	150.882	60.067	63.783	327.825	339.838	148.835	331.727	322.135	77.919	35.491	163.575	68.442	241.880	0.00033525	0.00021279	0.00011967	1231.9	2.3664e-06	3.4299e-06	1301.9	251.77	3.1255e-06	4.6903e-06	313.31	87.726	68.824	19.749	4.2925e-06	27.97	0.00021325	0.00018157	5.4508e-05	1210.9	2.0757e-06	2.0368e-06	1278.4	249.74	2.0908e-06	1.9762e-06	310.46	87.487	68.771	20.016	2.0309e-06	28.315	88.240	141.235	100.961	31.254	178.539	178.428	31.233	38.247	149.079	156.236	38.020	44.923	45.214	51.878	171.579	51.172	-8191	255	
32854.820	1	1	0	0	0.14093	0.18567	0.23312	0.17387	0.084914	0.06731	0.32986	0.061908	0.025713	0.15513	0.12984	0.19793	0.1676	0.17712	0.085423	0.040295	-2.2583	-2.3125	-2.9	-2.6729	-2.4625	-2.6875	-2.5729	-2.8375	-2.7146	-2.5354	-2.8583	-2.8667	-2.5667	-2.8083	-2.6625	-2.8667	290.141	335.130	269.762	347.213	298.175	64.817	33.939	117.260	299.198	91.283	269.820	305.475	49.044	124.347	52.147	92.735	0.00038493	0.00047045	4.9405e-05	1240.9	2.4548e-06	1.2185e-06	1302.8	252.92	3.6107e-06	2.9898e-06	313.4	87.419	69.23	19.812	4.3529e-06	27.926	0.00021717	0.00017613	5.2448e-05	1210.9	2.0573e-06	1.9956e-06	1279.1	250.48	2.0489e-06	2.0517e-06	311.12	87.477	68.791	19.97	2.0634e-06	28.316	90.711	109.643	106.821	31.704	129.722	164.901	31.125	38.373	180.631	149.603	37.884	44.518	44.919	51.772	161.016	51.279	-8191	255	
32854.941	1	1	0	0	0.14846	0.055666	0.22837	0.10302	0.30331	0.17981	0.34104	0.19156	0.076199	0.075262	0.17993	0.14853	0.10231	0.13914	0.047782	0.22506	-2.3417	-2.45	-2.7604	-2.6271	-2.4896	-2.9625	-2.8	-2.5958	-2.7333	-2.5312	-2.6542	-2.6542	-2.4792	-2.8125	-2.5083	-2.2875	311.520	144.501	188.185	228.432	173.634	123.996	312.870	42.400	283.423	201.018	331.875	143.826	172.456	231.452	170.576	283.117	0.00040718	0.00031972	9.0654e-05	1237.7	3.2078e-06	3.6267e-06	1300.6	251.78	4.7355e-06	9.2459e-07	314.86	87.478	68.625	19.864	3.2966e-06	28.092	0.00021624	0.0001867	5.3486e-05	1211.2	2.0529e-06	2.0211e-06	1280.1	250.2	2.1075e-06	2.072e-06	311.68	87.696	68.699	20.073	2.0033e-06	28.332	88.778	104.061	112.255	31.195	190.593	168.006	31.443	38.289	153.956	134.952	38.200	44.457	45.158	51.755	208.069	51.819	-8191	255	
32855.016	1	1	0	0	0.26489	0.26755	0.2526	0.16576	0.12506	0.1555	0.3146	0.10175	0.032295	0.29253	0.15835	0.13296	0.1791	0.080214	0.089421	0.12094	-2.1063	-2.325	-2.6479	-2.6667	-2.4771	-2.8479	-2.5958	-2.5792	-2.8729	-2.55	-2.7604	-2.7188	-2.5667	-2.7542	-2.6083	-2.5917	115.741	341.585	314.441	250.556	63.311	56.441	351.397	122.283	374.775	53.287	327.648	179.082	59.681	353.111	94.001	325.473	0.0003663	0.00025736	5.2881e-05	1240.6	4.2185e-06	1.692e-06	1295.5	253.02	2.9526e-06	3.4021e-06	313.48	87.516	68.839	19.893	2.2469e-06	28.238	0.00021701	0.00018253	5.1761e-05	1213.3	2.1027e-06	2.0121e-06	1278.7	250.37	2.1605e-06	2.0542e-06	311.13	87.522	68.658	20.058	1.9676e-06	28.341	87.985	133.625	67.998	31.486	162.364	189.933	31.392	38.613	130.548	160.874	38.028	44.619	44.952	52.264	199.436	51.249	-8191	255	
32855.109	1	1	0	0	0.055935	0.1579	0.2544	0.08325	0.1423	0.17779	0.1223	0.29866	0.12502	0.23874	0.045691	0.15514	0.13329	0.22012	0.087712	0.10721	-2.3646	-2.4437	-2.525	-2.8396	-2.55	-2.7417	-2.7875	-2.6312	-3.0312	-2.7292	-2.7562	-2.95	-2.6937	-2.7646	-2.5812	-2.6625	302.425	316.254	94.150	357.047	147.052	376.689	111.307	361.102	131.718	85.631	138.829	376.836	34.328	165.854	112.025	168.673	0.0004436	0.00022133	5.0369e-05	1241.7	2.7167e-06	1.7411e-06	1304.4	252.91	1.8653e-06	3.7493e-06	314.07	88.177	69.109	19.969	2.498e-06	28.009	0.00021741	0.00017995	5.1586e-05	1212.9	2.0226e-06	2.1328e-06	1281.9	250.35	2.0661e-06	2.0284e-06	311.69	87.919	68.898	20.059	2.0898e-06	28.308	88.090	131.608	123.556	31.330	156.377	206.662	31.293	38.396	180.342	179.074	37.832	44.642	45.123	52.318	147.039	51.763	-8191	255	
32855.207	1	1	0	0	0.18211	0.25169	0.23981	0.19373	0.21142	0.25982	0.41186	0.079281	0.30624	0.11823	0.076323	0.13927	0.19507	0.25405	0.24216	0.30729	-2.5354	-2.6042	-2.5854	-2.9458	-2.6312	-2.7438	-2.9333	-2.6562	-2.7625	-2.7625	-2.7208	-3.0083	-2.7229	-2.7458	-2.6146	-2.6854	110.606	309.110	320.727	146.348	160.267	280.631	316.151	359.766	337.125	320.547	67.489	128.487	368.111	311.049	144.477	286.597	0.00034032	0.00037504	6.6835e-05	1235.7	2.9103e-06	2.1785e-06	1295.2	253.67	3.0765e-06	3.2223e-06	313.64	87.781	68.946	19.966	3.2346e-06	28.149	0.00021646	0.00018452	5.2242e-05	1213.8	2.1203e-06	2.1256e-06	1281.7	250.88	2.2061e-06	2.0596e-06	311.44	87.694	68.823	20.044	2.068e-06	28.29	80.761	133.206	142.045	31.117	153.727	243.627	31.101	38.255	178.768	157.457	38.282	44.724	44.995	51.969	156.326	51.367	-8191	255	
32855.324	1	1	0	0	0.14334	0.19798	0.16894	0.11862	0.1227	0.20803	0.27373	0.3707	0.13021	0.25571	0.11119	0.23615	0.27419	0.24446	0.11053	0.11351	-2.4	-2.8083	-2.5958	-2.9875	-2.5667	-2.8438	-3.0083	-2.6562	-2.7229	-2.7438	-2.6021	-2.7979	-2.4542	-2.8625	-2.7292	-2.4771	263.828	160.999	237.150	353.965	91.062	226.904	283.643	364.186	66.896	376.691	264.428	349.968	341.010	53.986	198.667	357.773	0.00038921	0.00037899	0.00010335	1237.2	4.1251e-06	1.3259e-06	1300.3	252.41	4.6976e-06	3.0143e-06	314.44	87.468	68.969	19.874	3.3801e-06	27.905	0.00021666	0.00018714	5.2325e-05	1213	2.078e-06	2.0668e-06	1281.2	250.55	2.1448e-06	2.016e-06	312.08	87.656	68.893	20.047	2.0706e-06	28.309	78.596	144.600	150.803	31.223	195.154	257.644	31.290	38.283	188.953	171.044	38.001	44.947	45.255	52.010	181.383	51.560	-8191	255	
32855.422	1	1	0	0	0.39306	0.26421	0.053204	0.12056	0.18463	0.28781	0.20218	0.15311	0.16495	0.1739	0.035308	0.24163	0.29028	0.15162	0.19987	0.30297	-2.3396	-2.5646	-2.2875	-2.8479	-2.4833	-2.5312	-2.9396	-2.6625	-2.6979	-2.8333	-2.5687	-2.8771	-2.7417	-2.6542	-2.8271	-2.5521	362.490	348.118	83.916	302.729	68.656	196.100	34.353	321.590	319.409	329.224	173.085	199.955	178.081	121.037	42.109	56.666	0.00039529	0.00029991	6.3533e-05	1241.5	1.7203e-06	1.0661e-06	1299.4	252.79	3.7069e-06	2.6773e-06	313.21	87.843	69.002	19.842	3.7861e-06	28.1	0.00022198	0.00019309	5.0516e-05	1213.6	2.0701e-06	2.0794e-06	1282	250.76	2.1543e-06	2.1726e-06	311.34	87.654	68.93	20.055	2.1254e-06	28.372	82.556	119.098	135.971	31.159	160.764	125.577	31.406	38.515	162.904	156.091	37.997	44.940	45.191	52.244	149.161	51.679	-8191	255	
32855.520	1	1	0	0	0.2837	0.087364	0.15345	0.11718	0.083354	0.10745	0.23061	0.11983	0.011539	0.16213	0.1744	0.358	0.067001	0.12357	0.19006	0.20487	-2.1646	-2.6021	-2.4104	-2.775	-2.7667	-2.8042	-3.0062	-2.6688	-2.8396	-2.7313	-2.6229	-2.7833	-2.9042	-2.6479	-2.7333	-2.7042	180.379	288.564	29.252	158.730	267.557	337.648	377.146	60.971	162.667	175.510	284.290	240.808	67.037	340.162	61.684	365.152	0.00037222	0.0002846	9.383e-05	1249.6	1.2655e-06	3.9376e-06	1299.2	254.27	3.3102e-06	1.8258e-06	314.79	87.786	69.005	19.814	2.817e-06	27.906	0.00022243	0.00019286	5.1653e-05	1219.7	2.0367e-06	2.0213e-06	1281.8	251.17	2.245e-06	2.0853e-06	311.75	87.564	69.046	20.037	2.1548e-06	28.335	90.444	149.640	101.829	30.967	174.141	199.592	31.401	38.180	177.536	171.937	37.926	44.578	45.134	52.000	153.182	51.602	-8191	255	
32855.613	1	1	0	0	0.20403	0.04367	0.087031	0.25483	0.14399	0.26572	0.11617	0.10331	0.098817	0.1625	0.1507	0.20142	0.12142	0.1076	0.084949	0.13106	-2.2521	-2.7729	-2.6125	-2.7	-2.8187	-2.4521	-3.0625	-2.7354	-2.5958	-2.7292	-2.5042	-2.7396	-2.7417	-2.5333	-2.8021	-2.6625	118.046	132.745	150.416	337.393	230.141	258.818	302.832	258.789	361.443	52.796	51.150	216.948	351.531	85.649	189.936	236.700	0.00039484	0.00053537	7.4925e-05	1235.3	3.5897e-06	2.8375e-06	1299.8	254.22	4.3285e-06	3.9291e-06	314.61	87.471	69.23	19.866	3.06e-06	28.09	0.00022695	0.00019055	5.4154e-05	1215.7	2.1715e-06	2.0228e-06	1282	251.34	2.1494e-06	2.0852e-06	311.85	87.618	69.155	20.097	2.2246e-06	28.411	83.649	133.172	126.028	31.535	155.680	167.187	31.129	38.059	168.197	168.403	37.780	44.929	45.103	52.128	207.724	51.475	-8191	255	
32855.711	1	1	0	0	0.054473	0.2034	0.16472	0.12939	0.22916	0.11048	0.32667	0.17818	0.20042	0.25637	0.042032	0.044021	0.41658	0.034134	0.15692	0.038651	-2.0896	-2.7354	-2.3125	-2.8333	-2.6437	-2.5875	-2.8646	-2.7208	-2.6208	-3.0292	-2.5938	-2.6875	-2.8	-2.5729	-2.8542	-2.6604	301.008	183.809	81.819	360.273	269.707	72.287	353.990	333.746	283.709	56.560	329.116	314.403	360.989	99.859	274.430	182.849	0.00035366	0.00032813	9.2277e-05	1239.2	2.0751e-06	2.4321e-06	1305.6	253.22	3.5796e-06	2.3532e-06	313.66	87.843	69.325	19.798	2.6705e-06	27.985	0.00021416	0.00019943	5.2898e-05	1217.1	2.1075e-06	2.0557e-06	1285.9	250.99	2.1607e-06	2.0286e-06	312.59	87.819	69.144	20.025	2.1412e-06	28.311	87.828	114.011	101.797	31.294	190.367	176.356	31.154	38.198	212.757	152.843	38.399	44.851	45.069	51.981	173.297	51.258	-8191	255	
32855.805	1	1	0	0	0.068593	0.13896	0.20438	0.17967	0.10481	0.11979	0.45636	0.24675	0.022491	0.034429	0.19858	0.29748	0.11425	0.090188	0.11037	0.21753	-2.1917	-2.6875	-2.6208	-2.7458	-2.7479	-2.475	-3.0438	-2.7146	-2.3417	-2.8146	-2.8979	-2.7979	-2.9979	-2.1937	-2.8229	-2.7208	347.680	210.254	248.859	355.747	129.740	156.509	323.759	272.711	208.076	180.997	351.485	162.479	81.785	57.004	167.940	184.383	0.00035354	0.00031518	9.3646e-05	1248.1	3.6807e-06	4.5422e-06	1305.6	254.67	5.1292e-06	2.2587e-06	315.14	87.971	69.152	19.889	4.557e-06	27.958	0.00021638	0.0001929	5.3995e-05	1218.5	2.098e-06	2.1141e-06	1286.9	251.83	2.2475e-06	2.1602e-06	312.12	87.849	69.051	20.041	2.1631e-06	28.306	92.402	106.971	146.251	31.826	168.910	205.138	31.216	38.409	161.265	180.639	38.175	44.692	44.823	51.695	161.434	51.212	-8191	255	
32855.926	1	1	0	0	0.14815	0.048542	0.16555	0.15288	0.24774	0.23631	0.26867	0.25493	0.29109	0.15347	0.093698	0.22992	0.24478	0.13147	0.21948	0.16439	-2.2229	-2.7625	-2.5021	-2.7396	-3	-2.6021	-2.9354	-2.7417	-2.6437	-3.0417	-2.6896	-2.5896	-2.8854	-2.4542	-2.9229	-2.7292	80.339	124.587	320.456	379.021	109.681	82.660	344.707	357.492	374.819	116.221	367.125	346.636	342.512	30.811	315.788	276.486	0.00038062	0.00046602	0.00014004	1245.4	2.1705e-06	2.427e-06	1301.1	254.46	3.4423e-06	1.0828e-06	315.92	88.254	69.364	19.817	2.9141e-06	28.091	0.00021311	0.00019717	5.2913e-05	1219.9	2.1364e-06	1.9845e-06	1284.6	251.63	2.0992e-06	2.0801e-06	312.67	87.891	69.123	20.058	2.1386e-06	28.404	87.851	136.137	106.708	31.223	196.280	165.517	31.202	38.267	183.211	175.453	38.067	44.606	45.009	51.899	171.846	51.225	-8191	255	
32856.020	1	1	0	0	0.11932	0.19724	0.19146	0.36534	0.070279	0.39807	0.38226	0.21437	0.17947	0.078661	0.06727	0.14042	0.12763	0.11027	0.18335	0.097061	-1.9542	-2.875	-2.4729	-2.5792	-2.85	-2.6896	-2.7854	-2.8792	-2.5312	-2.6854	-2.6875	-2.7083	-2.9604	-2.5771	-2.5812	-2.9896	122.871	356.065	223.410	23.177	139.707	33.317	342.759	24.515	21.350	213.107	85.930	41.592	366.734	139.677	281.452	294.160	0.00039961	0.00038637	5.4425e-05	1246.1	3.3927e-06	1.6694e-06	1305.4	253.47	4.3444e-06	3.2025e-06	315.41	87.964	68.707	19.92	1.945e-06	27.959	0.00021499	0.00019728	5.2496e-05	1217.5	2.0566e-06	2.031e-06	1286.4	251.61	2.1344e-06	2.0292e-06	312.47	87.748	68.997	20.099	2.1191e-06	28.34	85.134	119.126	112.812	31.290	177.933	192.633	31.328	38.476	148.000	176.416	38.036	44.560	45.044	52.164	145.552	51.674	-8191	255	
32856.117	1	1	0	0	0.15534	0.086119	0.18682	0.092705	0.22861	0.0086621	0.35662	0.15203	0.25992	0.21561	0.21176	0.20406	0.21189	0.068357	0.090841	0.43321	-2.1479	-2.9104	-2.7708	-2.675	-2.6708	-2.6604	-2.8083	-3.0625	-2.4792	-2.8583	-2.8833	-2.6208	-2.8417	-2.7021	-2.6229	-2.8271	222.857	182.907	310.508	271.427	88.501	356.889	339.995	352.322	263.181	98.603	358.684	60.430	263.719	271.293	41.289	49.212	0.00036639	0.0002221	0.00012359	1250.4	2.6371e-06	2.4977e-06	1304.1	253.33	1.1435e-06	3.0637e-06	316.07	87.725	69.272	19.842	6.3395e-07	28.264	0.00021531	0.00018673	5.1963e-05	1219.8	2.1091e-06	2.0142e-06	1282.8	251.43	2.1244e-06	2.0896e-06	312.65	87.771	69.216	20.083	2.1342e-06	28.43	95.188	58.411	163.344	31.336	201.484	159.319	31.208	38.534	154.277	122.008	37.955	44.534	44.746	51.865	99.863	51.463	-8191	255	
32856.238	1	1	0	0	0.30016	0.16913	0.31188	0.20188	0.14405	0.21709	0.15487	0.18089	0.093731	0.14558	0.22916	0.087114	0.052492	0.13364	0.17738	0.15851	-1.9688	-2.675	-2.6063	-2.4646	-2.9354	-2.7208	-2.7229	-2.9938	-2.5354	-2.8333	-2.8187	-2.6042	-2.8958	-2.7771	-2.5229	-3.0792	343.571	270.572	165.107	300.552	206.755	146.908	294.092	367.060	350.539	288.128	358.488	211.611	25.825	333.886	362.126	38.079	0.00038622	0.00035166	8.6898e-05	1243.6	3.581e-06	2.6669e-06	1302.2	252.47	3.0371e-06	3.7655e-06	315.92	88.202	69.645	19.862	5.0591e-06	28.04	0.00020829	0.00019011	5.2007e-05	1220.6	2.2246e-06	2.0454e-06	1285.1	251.2	2.1264e-06	2.0114e-06	313.13	87.862	69.123	20.077	2.0506e-06	28.391	88.021	119.195	109.448	31.046	202.791	175.930	31.071	38.286	194.867	178.723	37.968	44.617	44.895	51.976	182.898	51.259	-8191	255	
32856.309	1	1	0	0	0.19284	0.15856	0.30363	0.19689	0.13225	0.11196	0.15894	0.27349	0.25576	0.32397	0.23305	0.17818	0.10324	0.12771	0.10191	0.24092	-2.0542	-2.7521	-2.6979	-2.5083	-2.7938	-2.7354	-2.625	-2.8792	-2.675	-2.6375	-2.7396	-2.7125	-3.0604	-2.6917	-2.6396	-3.0167	182.916	129.019	212.686	104.550	129.870	280.065	331.545	40.965	74.879	57.653	280.445	35.415	43.067	72.987	184.207	39.242	0.00033796	0.00032967	7.9879e-05	1237.1	2.6588e-06	2.2294e-06	1296.9	254.31	2.1689e-06	2.5156e-06	312.57	87.5	69.058	19.92	3.3799e-06	28.106	0.00021577	0.00018826	5.3247e-05	1217.1	2.0641e-06	2.015e-06	1282.2	251.53	2.0694e-06	2.0577e-06	311.66	87.701	69.101	20.029	1.9964e-06	28.404	91.061	112.728	139.019	31.366	139.277	171.839	31.358	38.316	221.861	144.436	38.306	44.795	45.203	51.973	153.842	51.691	-8191	255	
32856.406	1	1	0	0	0.23031	0.21169	0.17211	0.30855	0.057028	0.24024	0.008021	0.13701	0.44569	0.073801	0.14603	0.27937	0.14528	0.30699	0.094922	0.13501	-2.2667	-2.6667	-2.7313	-2.5917	-2.975	-2.7687	-2.7604	-2.9125	-2.6833	-2.6354	-2.9021	-2.4521	-2.8604	-2.7167	-2.5667	-2.7854	339.834	243.826	123.884	363.158	135.907	92.605	233.838	352.170	23.655	135.975	257.358	69.798	98.419	33.266	354.473	76.831	0.00039116	0.00027583	0.00013389	1240.1	2.1373e-06	2.3073e-06	1301.6	253.71	4.815e-06	1.7012e-06	315.18	88.056	69.294	19.806	4.3037e-06	28.063	0.00021632	0.00018706	5.1689e-05	1215.1	2.1616e-06	2.0855e-06	1283.9	251.06	2.1376e-06	2.1155e-06	312.2	87.909	69.068	20.055	2.0532e-06	28.41	86.117	142.998	101.452	31.257	128.442	134.243	31.245	38.277	165.521	164.652	38.092	44.743	44.970	51.694	182.733	51.244	-8191	255	
32856.504	1	1	0	0	0.079704	0.13404	0.12022	0.18936	0.14425	0.15638	0.39311	0.053312	0.047194	0.082127	0.049563	0.41281	0.35935	0.14538	0.090302	0.046998	-2.3104	-2.6312	-2.8458	-2.4271	-2.625	-2.6771	-2.7292	-2.8042	-2.7271	-2.5625	-2.8812	-2.4875	-2.6979	-2.5417	-2.5021	-2.9417	292.123	230.995	364.583	94.804	24.402	253.328	311.134	88.483	62.439	378.583	273.247	329.440	369.620	50.361	60.973	45.167	0.00037326	0.00029851	7.3022e-05	1244.7	3.1099e-06	4.0627e-06	1305.3	251.88	3.4547e-06	2.8383e-06	315.72	87.52	69.371	19.919	3.7191e-06	27.933	0.00020367	0.0001859	5.0083e-05	1217.3	2.137e-06	1.9774e-06	1286.6	250.79	2.1254e-06	2.0279e-06	311.96	87.627	68.982	20.049	2.0475e-06	28.324	84.332	130.511	132.970	31.528	172.311	186.256	31.340	38.529	171.239	152.791	38.303	44.869	45.021	51.695	150.950	51.285	-8191	255	
32856.621	1	1	0	0	0.07693	0.11664	0.10422	0.048958	0.15433	0.14637	0.11972	0.054633	0.13352	0.15808	0.14749	0.093699	0.11681	0.30969	0.37691	0.11553	-2.1	-2.6208	-2.7979	-2.5563	-2.5792	-2.6875	-2.6583	-2.7687	-2.6792	-2.6271	-2.9958	-2.5146	-2.7479	-2.7833	-2.4437	-2.9	318.016	278.879	73.413	45.768	127.963	84.826	306.871	324.994	69.563	231.614	344.197	218.257	363.448	251.317	334.583	315.357	0.00039448	0.00035422	8.0989e-05	1246.3	3.2705e-06	1.8317e-06	1303.2	253.67	3.1663e-06	1.183e-06	313.62	88.049	68.937	19.842	1.8503e-06	27.936	0.00020801	0.00018412	5.2409e-05	1215.9	2.0788e-06	1.993e-06	1283.2	251.31	2.0669e-06	1.9642e-06	312.43	87.736	68.891	20.038	1.9552e-06	28.363	88.074	105.032	120.852	31.350	170.548	168.391	31.301	38.444	193.237	213.050	38.388	44.629	45.292	52.144	210.108	51.309	-8191	255	
32856.719	1	1	0	0	0.26187	0.1026	0.18037	0.29012	0.042043	0.13255	0.19884	0.11912	0.06743	0.23493	0.086545	0.046828	0.085536	0.080639	0.087521	0.01847	-2.1167	-2.2646	-2.6542	-2.5354	-2.5979	-2.6625	-2.6979	-2.775	-2.6167	-2.4917	-2.7792	-2.5708	-2.725	-2.7646	-2.3771	-2.7812	64.152	113.864	76.164	35.724	73.338	142.455	291.640	258.296	245.199	171.086	41.245	67.213	327.450	269.895	368.119	55.719	0.00037196	0.00015355	8.7633e-05	1246.4	3.1413e-06	3.1558e-06	1299.3	253.9	4.0728e-06	4.1787e-06	313.08	87.798	69.24	19.879	3.29e-06	28.035	0.00020328	0.00018012	5.0031e-05	1215.9	1.994e-06	2.0385e-06	1281.4	250.93	2.0781e-06	1.9375e-06	311.49	87.67	69.199	20.049	1.9618e-06	28.294	87.959	109.871	133.758	31.022	165.848	158.715	31.346	38.429	204.931	181.718	38.140	44.819	45.139	51.992	157.700	51.788	-8191	255	
32856.812	1	1	0	0	0.16071	0.097769	0.081698	0.07228	0.11037	0.19146	0.22216	0.21158	0.074851	0.081302	0.29655	0.25241	0.46092	0.040611	0.13621	0.1282	-2.1792	-2.2938	-2.8083	-2.6583	-2.7479	-2.8438	-2.875	-2.6583	-2.9854	-2.6854	-2.6792	-2.7542	-2.5875	-2.8646	-2.4958	-2.6375	46.506	122.494	26.081	56.622	42.947	51.634	262.258	327.601	370.666	199.806	333.432	369.841	285.166	175.410	131.818	91.663	0.00034408	0.00043474	3.7339e-05	1232	3.0067e-06	2.2307e-06	1301.3	253.5	3.0356e-06	2.3082e-06	314.58	87.589	68.866	19.815	4.1512e-06	28.194	0.00020701	0.0001874	5.0441e-05	1213.1	2.068e-06	1.9528e-06	1283.1	250.99	1.9898e-06	1.9186e-06	312	87.46	68.842	20.006	1.9344e-06	28.354	89.861	126.296	40.520	31.071	160.696	175.224	31.379	38.351	199.978	176.562	38.313	44.369	45.097	52.372	163.712	51.244	-8191	255	
32856.887	1	1	0	0	0.14113	0.1156	0.059581	0.11834	0.25916	0.2977	0.22828	0.29699	0.19	0.067151	0.36787	0.14453	0.20562	0.090232	0.28852	0.090988	-2.3875	-2.2687	-2.8021	-2.5646	-2.4521	-2.7792	-2.8708	-2.5792	-2.6521	-2.35	-2.7687	-2.7	-2.6708	-2.8146	-2.6146	-2.6979	369.695	303.641	100.445	184.647	251.281	228.575	361.165	337.910	223.583	193.015	375.688	312.157	156.051	43.015	366.216	124.599	0.00036647	8.0888e-05	7.332e-05	1232.7	2.7679e-06	2.6881e-06	1304.4	251.8	2.0001e-06	3.6432e-06	315.97	87.644	69.127	19.828	3.5775e-06	27.948	0.00020901	0.00018096	4.9519e-05	1213.7	2.0082e-06	2.0068e-06	1284	250.76	2.0727e-06	1.9516e-06	312.53	87.758	68.804	20.026	1.9465e-06	28.349	91.335	112.628	101.237	31.297	153.440	182.680	31.167	38.215	167.539	159.541	38.200	44.762	44.734	52.299	202.131	51.123	-8191	255	
32857.004	1	1	0	0	0.27823	0.069439	0.040803	0.29204	0.17849	0.070091	0.17781	0.157	0.12641	0.10369	0.13286	0.22202	0.14832	0.15548	0.11509	0.059503	-2.55	-2.3354	-2.6146	-2.7938	-2.4229	-2.8229	-2.7438	-2.7812	-2.8333	-2.4396	-2.8187	-2.9583	-2.5938	-2.7938	-2.7917	-2.4667	104.793	162.899	32.639	81.767	262.471	353.128	324.924	61.461	64.049	336.660	129.853	90.912	39.716	116.750	55.424	162.622	0.00036736	0.00032303	0.00011572	1240	3.1553e-06	3.4811e-06	1300.3	254.72	6.4018e-06	1.1654e-06	313.35	87.141	69.138	19.753	3.2965e-06	28.071	0.00020457	0.00017922	5.2365e-05	1215.1	1.9527e-06	2.0107e-06	1280.6	251.54	2.0466e-06	1.9546e-06	311.93	87.397	68.987	20.031	2.0206e-06	28.369	85.689	77.843	127.002	31.515	171.203	150.045	31.284	38.550	159.007	177.760	38.335	44.627	45.047	52.015	152.226	51.460	-8191	255	
32857.102	1	1	0	0	0.086895	0.3725	0.10915	0.3773	0.14283	0.35465	0.11401	0.12348	0.11816	0.14807	0.16429	0.091225	0.24202	0.29229	0.052692	0.074047	-2.3646	-2.6125	-2.3812	-2.8708	-2.5187	-2.7667	-2.8042	-2.7146	-2.8917	-2.4417	-2.6542	-2.8063	-2.4667	-2.8833	-2.6813	-2.2521	235.667	168.301	83.151	26.091	47.950	347.162	310.797	300.423	271.205	271.361	325.956	334.818	90.755	293.756	317.036	311.892	0.00038831	0.00028541	0.00010839	1240.2	2.8768e-06	2.8068e-06	1298.4	252.19	3.2244e-06	2.8509e-06	313.77	87.508	69.15	19.675	5.4901e-06	27.921	0.00021431	0.00018466	5.1367e-05	1213.3	1.9588e-06	1.9853e-06	1280.6	250.36	2.1217e-06	1.8953e-06	312.01	87.66	69.01	19.972	1.9418e-06	28.277	80.915	118.680	110.160	31.428	175.557	194.844	30.971	38.468	160.535	170.564	37.923	44.594	44.914	51.893	197.191	51.670	-8191	255	
32857.199	1	1	0	0	0.086953	0.12767	0.10291	0.20245	0.12569	0.17609	0.16917	0.20132	0.13252	0.26262	0.056304	0.055536	0.19644	0.17524	0.19293	0.20333	-2.4938	-2.4104	-2.6375	-2.7479	-2.5438	-2.9604	-2.8417	-2.5771	-2.8583	-2.5812	-2.6729	-2.7479	-2.6333	-2.8333	-2.6729	-2.4104	353.150	96.822	177.015	307.048	22.180	306.716	301.057	84.859	264.434	306.803	326.269	352.836	67.824	293.418	374.271	38.595	0.00034576	0.00019347	0.00010578	1242.3	2.5556e-06	2.9958e-06	1299.3	253.19	3.9064e-06	2.8432e-06	315.35	87.384	69.519	19.824	3.4005e-06	28.061	0.00020885	0.00017683	5.1749e-05	1214.1	1.9322e-06	2.0093e-06	1280	251.02	2.1607e-06	1.9616e-06	312.6	87.49	69.053	20.001	1.9863e-06	28.331	88.469	90.521	129.565	31.355	195.493	155.601	31.282	38.154	162.227	142.752	37.959	44.597	44.965	52.153	177.061	51.316	-8191	255	
32857.316	1	1	0	0	0.13714	0.253	0.15788	0.23143	0.14328	0.091756	0.30516	0.15217	0.17908	0.20015	0.20792	0.23772	0.42002	0.14773	0.081199	0.16013	-2.2271	-2.5062	-2.4792	-2.7354	-2.5667	-2.6354	-2.7479	-2.4708	-2.8521	-2.6417	-2.6354	-2.975	-2.625	-2.6646	-2.8417	-2.45	376.578	121.168	253.548	328.508	161.660	289.071	319.875	64.813	148.853	274.655	48.707	224.115	321.638	29.033	140.689	380.334	0.00032394	0.00014931	0.0001072	1248.6	4.7377e-06	3.9241e-06	1301.6	252.89	5.1743e-06	9.5143e-07	316.5	87.52	69.465	19.764	1.701e-06	28.236	0.00021089	0.00018094	5.0171e-05	1216.2	2.0292e-06	2.1133e-06	1281.7	250.67	2.0583e-06	2.003e-06	312.24	87.614	69.049	19.99	2.0084e-06	28.342	92.734	83.835	100.113	31.212	164.617	166.175	31.258	38.471	171.535	166.042	37.886	44.908	44.878	51.763	190.198	51.363	-8191	255	
32857.414	1	1	0	0	0.047691	0.38852	0.23057	0.050801	0.10551	0.080758	0.16721	0.37492	0.28809	0.1959	0.25364	0.16412	0.25536	0.13492	0.077947	0.19608	-2.4188	-2.7354	-2.4896	-2.8958	-2.5667	-2.4979	-3.0146	-2.5146	-2.7104	-2.6521	-2.5	-2.9188	-2.6104	-2.6813	-2.6396	-2.4396	217.295	110.994	327.983	272.720	198.980	283.086	364.431	333.989	135.966	21.561	276.349	345.934	43.087	45.498	108.485	53.482	0.00039523	0.00036307	0.00011398	1250.5	3.568e-06	3.1268e-06	1300.1	252.48	3.7009e-06	3.1425e-06	314.82	87.411	69.226	19.804	4.3701e-06	27.867	0.00021579	0.00018936	5.1121e-05	1217.7	2.0648e-06	1.9993e-06	1282.2	250.57	2.1509e-06	2.0523e-06	312.2	87.417	68.953	20.009	1.9672e-06	28.275	83.764	110.590	125.488	31.250	160.799	162.519	31.255	38.244	180.961	150.176	37.903	44.710	44.851	52.247	170.545	51.451	-8191	255	
32857.484	1	1	0	0	0.10003	0.12135	0.1292	0.11358	0.20922	0.24942	0.31262	0.17306	0.10503	0.10494	0.11092	0.21678	0.082514	0.10312	0.12103	0.19622	-2.2229	-2.7167	-2.4479	-2.9125	-2.6333	-2.6312	-2.9938	-2.5042	-2.7917	-2.7229	-2.575	-2.8958	-2.5938	-2.5146	-2.6833	-2.5146	329.051	260.478	30.614	161.154	74.830	94.165	301.808	268.772	88.637	200.275	279.946	323.788	270.042	106.318	46.542	240.291	0.00037102	0.00013049	7.5044e-05	1243.6	3.4909e-06	2.3252e-06	1302.1	252.01	2.5836e-06	2.4949e-06	314.67	87.973	69.322	19.777	3.5621e-06	28.256	0.00020869	0.000175	4.9264e-05	1217	2.052e-06	1.9939e-06	1281.6	250.46	2.1015e-06	1.9851e-06	311.71	87.55	68.941	20.024	2.0734e-06	28.361	92.028	98.177	149.769	31.392	186.688	175.354	31.125	38.320	191.655	162.549	38.177	44.815	44.816	52.245	159.854	51.525	-8191	255	
32857.605	1	1	0	0	0.32398	0.33671	0.16648	0.12034	0.33587	0.067233	0.12431	0.095422	0.15715	0.18483	0.10141	0.12255	0.13592	0.28754	0.22807	0.20437	-2.2	-2.7188	-2.3812	-2.9437	-2.6208	-2.3937	-3.0771	-2.4813	-2.7125	-2.7938	-2.6437	-2.9333	-2.6917	-2.6896	-2.8396	-2.625	86.728	176.435	59.829	341.782	193.629	266.868	295.410	255.234	35.079	79.117	152.764	311.379	324.494	34.690	250.105	105.690	0.00033314	0.00041486	8.6541e-05	1241.4	4.0424e-06	3.9172e-06	1299.7	252.82	3.6771e-06	2.9019e-06	315.18	87.539	69.146	19.874	2.4196e-06	28.124	0.00020696	0.00018429	5.0978e-05	1213.8	2.0673e-06	1.9528e-06	1279.9	250.82	2.0655e-06	2.0316e-06	311.93	87.535	68.944	20.071	1.9773e-06	28.383	80.795	138.640	102.172	31.480	179.360	188.913	31.102	38.536	194.759	188.598	37.909	44.501	44.957	51.718	188.852	51.452	-8191	255	
32857.699	1	1	0	0	0.26821	0.24431	0.22895	0.17579	0.28034	0.082621	0.0066121	0.273	0.12278	0.03792	0.12341	0.23969	0.1919	0.093553	0.21556	0.12274	-2.1854	-2.8125	-2.4917	-2.8208	-2.5833	-2.6146	-2.9229	-2.5729	-2.8083	-2.9333	-2.5792	-2.7458	-2.7292	-2.4437	-2.9083	-2.575	268.716	301.513	288.580	218.961	89.802	312.937	346.253	322.353	190.267	81.761	365.664	364.373	371.819	214.974	367.820	293.710	0.00039128	0.00055512	0.00012176	1241.9	3.041e-06	1.5381e-06	1298.2	253.19	4.2841e-06	4.9863e-06	314.87	88.205	69.345	19.777	4.2211e-06	27.995	0.00020606	0.00017577	4.9324e-05	1213.9	2.0457e-06	1.9108e-06	1279.2	250.73	2.0453e-06	1.9567e-06	311.82	87.551	68.899	20.005	2.0557e-06	28.285	85.947	117.239	101.922	31.498	200.287	153.330	31.271	38.479	180.570	168.544	38.368	44.663	44.912	51.842	186.580	51.307	-8191	255	
32857.797	1	1	0	0	0.17864	0.21181	0.12075	0.25376	0.20946	0.25192	0.23399	0.17003	0.1687	0.23932	0.2863	0.1631	0.088801	0.26157	0.072966	0.16045	-2.0875	-2.7292	-2.4375	-2.8042	-2.7479	-2.5729	-2.9083	-2.6354	-2.5062	-2.8229	-2.6125	-2.8	-2.5958	-2.525	-2.6604	-2.7396	128.638	304.971	356.981	268.475	111.426	356.119	348.919	287.340	199.714	306.204	346.227	357.516	32.485	339.852	326.486	33.834	0.00039417	0.00028696	7.0949e-05	1240.3	3.3766e-06	3.8465e-06	1301.8	253.39	2.0576e-06	1.4203e-06	313.24	86.928	69.01	19.759	2.3251e-06	27.955	0.00021297	0.00017679	5.0457e-05	1212.9	1.9989e-06	2.0821e-06	1279.9	250.75	2.0489e-06	2.0696e-06	311.66	87.442	68.89	19.998	2.0253e-06	28.267	85.193	144.243	121.751	31.059	174.817	177.608	31.306	38.309	154.688	178.877	37.951	45.073	44.811	51.736	182.605	52.008	-8191	255	
32857.918	1	1	0	0	0.23339	0.18405	0.068554	0.025127	0.15604	0.191	0.32487	0.12228	0.069119	0.10866	0.23658	0.10408	0.18204	0.29978	0.24402	0.19791	-2.0521	-2.9021	-2.5042	-2.7521	-2.6771	-2.4104	-3.1292	-2.6125	-2.5563	-2.7917	-2.6875	-2.7188	-2.8771	-2.4604	-2.5687	-2.6729	324.711	96.260	240.725	51.801	30.544	50.169	334.448	338.760	339.089	293.248	372.212	272.441	56.953	48.946	302.557	327.489	0.00038749	0.0005012	6.3935e-05	1242	3.492e-06	2.1375e-06	1291.1	252.24	3.1564e-06	3.4999e-06	314.56	86.968	69.172	19.771	3.4063e-06	28.119	0.00021228	0.00019201	5.1677e-05	1211.9	1.9656e-06	1.9474e-06	1278.7	250.53	2.1235e-06	2.0471e-06	311.58	87.277	68.907	20.004	2.0663e-06	28.319	84.936	127.837	144.308	31.266	184.329	212.208	31.478	38.358	134.646	190.053	38.014	45.056	45.041	52.064	159.203	51.527	-8191	255	
32858.016	1	1	0	0	0.22135	0.054163	0.1667	0.28289	0.1726	0.037361	0.091526	0.15019	0.12894	0.16034	0.3883	0.014804	0.11073	0.076094	0.24785	0.17741	-1.9958	-2.8	-2.4396	-2.4437	-2.7354	-2.4875	-2.8063	-2.5958	-2.4229	-2.8438	-2.8375	-2.5979	-2.9	-2.4458	-2.5583	-2.5583	42.894	151.102	260.651	260.880	331.815	110.130	264.760	364.909	190.350	148.245	33.171	83.970	96.739	129.274	254.008	230.521	0.00038727	0.00042267	8.9174e-05	1239.3	2.9187e-06	2.9119e-06	1302.9	253.44	3.6699e-06	3.1547e-06	315.66	87.534	69.305	19.899	2.2854e-06	27.773	0.0002083	0.00019001	5.0167e-05	1213	2.0534e-06	2.0095e-06	1280.2	251.11	2.0995e-06	2.099e-06	311.7	87.506	69.002	20.034	2.0112e-06	28.268	87.466	122.355	152.892	31.660	164.842	149.983	31.292	38.174	186.319	161.747	38.187	44.655	44.937	51.830	131.601	51.631	-8191	255	
32858.109	1	1	0	0	0.1195	0.023748	0.091743	0.29522	0.30677	0.31913	0.17252	0.016066	0.214	0.14056	0.12917	0.12538	0.12657	0.34169	0.19559	0.11904	-1.9979	-2.7604	-2.5292	-2.5104	-2.8542	-2.4583	-2.85	-2.7188	-2.3417	-2.8563	-2.5583	-2.5354	-2.7875	-2.6688	-2.5229	-2.8375	42.507	57.237	366.639	211.231	272.414	232.554	328.300	96.733	29.271	43.745	302.230	234.854	370.733	236.386	237.795	368.582	0.00037505	0.00051991	9.0943e-05	1234	1.9381e-06	3.2229e-06	1299.3	253.02	3.675e-06	3.1516e-06	314.08	86.997	68.766	19.722	3.8076e-06	28.041	0.00020529	0.00018561	5.0846e-05	1211	2.0965e-06	1.9501e-06	1281.2	250.47	2.058e-06	2.0885e-06	311.94	87.523	68.77	20.022	2.0612e-06	28.327	89.300	130.630	85.497	30.877	187.006	196.247	31.385	38.572	155.159	168.197	37.858	44.908	45.094	52.000	152.623	51.265	-8191	255	
32858.184	1	1	0	0	0.16813	0.14713	0.27476	0.29825	0.13457	0.13802	0.11711	0.3069	0.2371	0.22768	0.13134	0.063979	0.070883	0.38128	0.14872	0.043711	-1.9104	-2.7	-2.5458	-2.4604	-2.6583	-2.3896	-2.8104	-2.9042	-2.3208	-2.5604	-2.5521	-2.6063	-2.7771	-2.5062	-2.5729	-2.8292	43.740	230.398	258.634	57.718	194.933	193.368	372.862	335.517	242.884	72.002	312.363	22.055	92.468	63.081	313.604	370.280	0.00030526	0.00010142	0.0001595	1238.1	1.3277e-06	2.5958e-06	1297.5	252.63	4.375e-06	2.119e-06	313.85	87.197	69.088	19.762	2.5774e-06	27.853	0.00020073	0.00018552	4.9431e-05	1213.7	2.0407e-06	1.9944e-06	1280.2	250.47	1.9867e-06	1.9946e-06	312.29	87.33	68.984	19.985	2.0555e-06	28.335	81.997	101.582	85.388	31.096	170.956	180.326	31.214	38.351	146.671	215.898	37.940	44.879	44.840	51.884	157.258	51.028	-8191	255	
32858.277	1	1	0	0	0.17983	0.18417	0.23529	0.16772	0.13627	0.32648	0.096116	0.10023	0.27029	0.11482	0.17198	0.14208	0.16893	0.24197	0.13889	0.21336	-1.9354	-2.6562	-2.55	-2.4813	-2.8667	-2.6396	-2.6208	-2.7896	-2.4	-2.7167	-2.9083	-2.5521	-2.8563	-2.6104	-2.4854	-2.9813	349.479	318.584	162.629	326.235	267.117	307.723	40.137	159.851	333.402	172.101	238.487	364.086	96.374	271.862	41.207	366.483	0.00038694	0.00026064	8.8227e-05	1238.9	2.9083e-06	2.1185e-06	1297	252.64	1.6911e-06	5.3822e-06	313.76	87.564	69.251	19.821	1.8063e-06	27.916	0.00021864	0.00018362	5.1856e-05	1213.3	2.0527e-06	2.0326e-06	1279.6	250.49	2.0762e-06	2.062e-06	312.12	87.504	68.95	19.99	2.0929e-06	28.172	80.064	74.794	96.003	31.151	143.919	144.721	31.232	38.469	162.670	182.917	38.051	44.718	45.024	51.940	169.261	51.412	-8191	255	
32858.398	1	1	0	0	0.11249	0.134	0.28929	0.24786	0.13414	0.2266	0.17836	0.10397	0.1822	0.26014	0.2857	0.11789	0.39351	0.16487	0.23666	0.1114	-2.0167	-2.6063	-2.5312	-2.3021	-2.6271	-2.5958	-2.7188	-2.9188	-2.4979	-2.7021	-2.9792	-2.6271	-2.7083	-2.6833	-2.6437	-2.8875	203.616	184.690	89.662	350.399	143.437	202.222	328.144	250.095	241.463	64.980	298.022	241.844	329.908	304.574	213.339	134.312	0.00036043	0.00021404	0.00010534	1242.5	1.7818e-06	2.0559e-06	1302.3	253.78	2.8835e-06	3.2879e-06	312.17	87.482	68.933	19.863	3.0501e-06	27.977	0.00020905	0.00019367	5.153e-05	1217.3	2.0991e-06	1.9834e-06	1281.7	251.41	2.0553e-06	2.1158e-06	310.88	87.603	68.882	20.069	2.034e-06	28.306	86.535	107.518	118.040	31.487	150.733	163.099	31.606	38.224	212.854	177.130	38.046	44.944	45.090	51.638	162.079	50.993	-8191	255	
32858.496	1	1	0	0	0.10188	0.16251	0.14114	0.0365	0.17419	0.27686	0.37216	0.23857	0.19276	0.16997	0.26337	0.23622	0.044879	0.2819	0.077297	0.21666	-2.1125	-2.5625	-2.7708	-2.4125	-2.6917	-2.5958	-2.4854	-2.9375	-2.4208	-2.6021	-2.8771	-2.5521	-2.6229	-2.7292	-2.3604	-2.8438	174.904	203.834	81.063	295.703	276.309	177.275	360.909	244.841	239.796	73.673	42.187	220.951	362.278	370.908	333.801	122.372	0.00034586	0.00054213	0.00012375	1245.4	2.5831e-06	2.3483e-06	1297.4	252.76	4.1057e-06	1.263e-06	314.19	87.592	69.071	19.8	1.7567e-06	28.039	0.00020897	0.00018524	5.3534e-05	1218.2	2.142e-06	2.0327e-06	1279.4	250.43	2.114e-06	2.0029e-06	311.64	87.67	68.866	20.005	2.0215e-06	28.32	80.425	113.087	67.546	31.317	143.720	172.929	31.112	38.327	168.870	161.934	38.081	44.875	44.709	52.016	157.511	51.627	-8191	255	
32858.590	1	1	0	0	0.1095	0.13735	0.13558	0.21096	0.11409	0.1174	0.35834	0.11958	0.14956	0.15276	0.19433	0.17519	0.12289	0.19091	0.088023	0.050339	-2.275	-2.6042	-2.8771	-2.5875	-2.6917	-2.725	-2.7646	-2.9125	-2.6542	-2.4729	-2.9562	-2.5542	-2.7667	-2.7938	-2.4521	-2.9688	69.206	55.047	170.201	100.589	42.807	276.065	318.159	337.418	133.383	212.487	126.985	234.028	45.433	173.709	98.600	362.827	0.00038643	0.00044316	7.367e-05	1239.5	2.1586e-06	2.7367e-06	1298.1	253.14	3.1107e-06	4.2052e-06	314.48	87.538	68.673	19.993	3.9155e-06	27.941	0.00020897	0.00018943	5.0071e-05	1215.2	2.0715e-06	2.0533e-06	1281.5	251.05	2.1278e-06	2.091e-06	311.69	87.491	68.688	20.032	2.0103e-06	28.249	79.310	67.474	65.709	31.167	161.901	194.993	31.168	38.531	158.793	175.536	38.473	44.397	44.770	52.145	158.488	51.185	-8191	255	
32858.688	1	1	0	0	0.18604	0.13053	0.1035	0.15901	0.047373	0.0096258	0.24832	0.23509	0.1286	0.06821	0.087494	0.17528	0.1016	0.17629	0.23203	0.22646	-2.3146	-2.4813	-2.7479	-2.4729	-2.8167	-2.8438	-2.7812	-2.6937	-2.7354	-2.6208	-2.7271	-2.6521	-2.5667	-2.7771	-2.4771	-2.9479	218.258	195.937	282.937	267.604	178.859	52.609	335.130	323.225	49.342	100.655	299.859	353.284	44.222	342.931	151.461	102.889	0.00034023	0.00029286	5.8444e-05	1227.5	2.8676e-06	1.8762e-06	1295.1	251.76	3.495e-06	3.5305e-06	313.58	87.445	69.486	19.791	2.8514e-06	27.851	0.00020419	0.00018017	5.0974e-05	1210.1	2.1079e-06	2.0296e-06	1280.5	250.52	2.0351e-06	1.9551e-06	311.35	87.567	69.058	20.022	2.0432e-06	28.27	89.547	124.055	113.352	31.405	179.442	174.823	31.102	38.377	175.958	181.927	37.871	44.809	45.174	51.764	189.784	51.187	-8191	255	
32858.781	1	1	0	0	0.19187	0.23434	0.058146	0.024414	0.26864	0.13085	0.31778	0.22557	0.012591	0.04627	0.26305	0.20612	0.049103	0.12747	0.086027	0.21782	-2.2333	-2.4458	-2.6937	-2.5271	-2.5271	-2.85	-2.6771	-2.8479	-2.7542	-2.5917	-2.9167	-2.6	-2.5687	-2.6188	-2.4062	-2.7292	280.535	61.435	61.837	73.843	246.405	351.159	339.445	338.918	353.808	172.115	377.643	294.693	348.525	127.373	112.389	283.213	0.00038722	0.00041605	0.00013264	1241.7	4.1562e-06	2.2861e-06	1298.5	252.03	1.5466e-06	3.4047e-06	314.14	87.518	68.874	19.684	2.7176e-06	27.907	0.00020863	0.00018839	5.1427e-05	1215.9	2.015e-06	1.9862e-06	1280.7	250.45	2.0642e-06	2.0255e-06	311.89	87.412	68.765	19.934	2.0317e-06	28.272	82.385	110.951	105.413	31.294	176.815	154.630	31.235	38.452	154.364	158.776	38.013	44.533	45.025	52.082	150.509	51.404	-8191	255	
32858.879	1	1	0	0	0.056218	0.09261	0.17462	0.1685	0.14723	0.29527	0.16036	0.059719	0.05743	0.076133	0.074624	0.094441	0.21148	0.14509	0.04302	0.22182	-2.2354	-2.2396	-2.7375	-2.5687	-2.4417	-2.9	-2.7708	-2.7542	-2.7521	-2.6792	-2.7812	-2.6188	-2.5292	-2.8271	-2.4917	-2.4958	32.899	322.154	85.614	259.634	275.558	349.620	300.895	313.143	28.901	296.367	355.685	343.055	95.794	367.086	274.548	287.761	0.00038423	0.00042611	0.00010048	1242.7	2.9743e-06	1.1557e-06	1299	252.87	3.0234e-06	4.0169e-06	314.14	87.138	68.998	19.777	4.5901e-06	27.886	0.00020333	0.0001824	4.9845e-05	1215.7	1.9811e-06	2.0002e-06	1280.3	250.58	2.0498e-06	1.9275e-06	311.74	87.413	68.775	19.989	2.0297e-06	28.286	86.196	102.396	109.222	31.365	143.803	184.375	31.374	38.590	241.363	190.342	38.029	44.557	44.886	51.871	160.801	51.205	-8191	255	
32858.996	1	1	0	0	0.24363	0.11602	0.19248	0.13102	0.2076	0.26884	0.18147	0.09669	0.16831	0.10713	0.18835	0.23598	0.069547	0.29573	0.075707	0.23476	-2.3521	-2.4042	-2.8208	-2.7146	-2.4479	-2.5979	-2.6688	-2.6937	-2.9062	-2.5146	-2.7917	-2.625	-2.5917	-2.8021	-2.6375	-2.7125	205.898	361.300	178.214	35.199	236.672	127.286	291.742	316.718	117.471	365.551	275.576	308.440	374.090	74.479	159.111	252.622	0.00040231	0.00021024	0.00011977	1243.9	2.6042e-06	1.0396e-06	1297.4	252.01	5.2168e-06	3.7508e-06	315.98	86.718	69.086	19.901	2.8837e-06	27.951	0.00019986	0.00018	5.0827e-05	1216.5	1.9107e-06	1.9738e-06	1280.3	250.4	2.1174e-06	1.9404e-06	312.54	87.316	68.96	20.024	2.0724e-06	28.268	80.601	116.055	132.172	31.425	132.556	257.324	31.359	38.309	194.018	173.531	37.890	44.594	44.930	51.662	159.156	51.398	-8191	255	
32859.094	1	1	0	0	0.37672	0.2215	0.10342	0.12104	0.19115	0.11885	0.2952	0.24079	0.25008	0.16306	0.14005	0.133	0.23163	0.11187	0.078065	0.30236	-2.3	-2.4042	-2.4854	-2.6146	-2.5292	-2.7708	-2.5938	-2.6729	-2.7438	-2.575	-2.6688	-2.7583	-2.6292	-2.675	-2.4667	-2.7396	162.997	76.860	297.747	231.319	161.508	261.236	263.747	153.195	217.460	222.061	135.908	23.646	305.904	353.240	128.873	298.886	0.00036465	0.00030219	0.00012351	1240.1	3.585e-06	3.1494e-06	1298.5	253.08	3.6192e-06	3.6702e-06	313.57	87.674	69.01	19.834	4.4528e-06	27.961	0.00020434	0.00018107	5.0902e-05	1215	1.9931e-06	1.9064e-06	1281.3	250.89	2.0816e-06	1.9677e-06	311.8	87.577	68.939	20.029	1.8288e-06	28.36	86.286	123.113	89.544	31.215	168.275	149.308	31.294	38.312	169.990	187.630	38.190	44.827	45.051	51.946	140.120	51.823	-8191	255	
32859.191	1	1	0	0	0.22966	0.15983	0.065003	0.30342	0.28461	0.23853	0.27482	0.10211	0.39614	0.27618	0.2107	0.0093544	0.16773	0.27613	0.12244	0.050382	-2.3479	-2.7042	-2.6604	-2.8833	-2.3333	-2.7146	-2.65	-2.7896	-2.9521	-2.4667	-2.6729	-2.8271	-2.6437	-2.7917	-2.8708	-2.475	175.520	132.156	20.482	314.738	161.116	148.111	341.878	259.744	132.409	322.042	326.664	256.298	330.481	256.406	218.470	39.743	0.00037874	0.00026523	9.2931e-05	1246.1	1.8871e-06	3.2849e-06	1299	252.8	2.902e-06	2.5744e-06	314.47	87.098	69.281	19.808	2.629e-06	27.974	0.0002092	0.00018236	4.8294e-05	1213	1.9739e-06	1.9432e-06	1280.5	250.56	2.0661e-06	1.908e-06	311.59	87.543	69.033	20.007	1.9662e-06	28.306	83.565	120.534	120.624	31.262	146.143	179.918	31.024	38.181	151.860	133.705	37.868	44.490	45.236	51.933	153.920	51.338	-8191	255	
32859.285	1	1	0	0	0.074416	0.1687	0.065279	0.14581	0.23451	0.19521	0.27152	0.22933	0.22041	0.1369	0.073628	0.26682	0.17564	0.17825	0.31328	0.10506	-2.3667	-2.4521	-2.6562	-2.9396	-2.5479	-2.6312	-2.9167	-2.4833	-2.7667	-2.6063	-2.4708	-2.8021	-2.6479	-2.7542	-2.7812	-2.5292	108.305	159.719	202.381	339.473	89.004	127.698	353.830	350.272	364.720	148.025	139.579	378.058	243.063	59.092	38.828	280.571	0.00033847	0.00034563	0.00014073	1232.2	4.4865e-06	2.9826e-06	1297.1	252.45	3.6091e-06	2.8721e-06	314.15	87.415	68.775	19.829	1.296e-06	28.232	0.00020285	0.00017819	5.0679e-05	1215	2.0538e-06	2.0379e-06	1279.3	250.23	2.1429e-06	1.9174e-06	311.41	87.173	68.806	20.019	2.0283e-06	28.332	92.489	140.164	120.659	31.242	168.259	187.463	31.123	38.160	182.278	167.672	38.116	44.297	44.900	52.027	140.689	51.831	-8191	255	
32859.406	1	1	0	0	0.14669	0.31257	0.1887	0.1032	0.44918	0.34526	0.10468	0.21913	0.028164	0.19084	0.076887	0.12786	0.28916	0.39573	0.18932	0.22885	-2.3021	-2.5729	-2.5062	-2.8354	-2.4604	-2.6063	-2.8917	-2.4042	-2.7021	-2.4792	-2.7229	-2.925	-2.5146	-2.6458	-2.9562	-2.5875	328.353	143.165	52.067	85.874	129.725	240.162	340.323	23.032	277.776	47.865	235.775	333.432	22.911	149.811	202.238	40.443	0.00034268	0.00055017	9.8548e-05	1233	2.8978e-06	3.0593e-06	1307.6	252.69	4.0465e-06	3.0014e-06	312.31	87.733	68.967	19.884	3.6223e-06	28.086	0.00021007	0.00017951	4.9137e-05	1212.3	2.041e-06	1.984e-06	1280.8	250.65	2.0937e-06	1.9684e-06	311.51	87.632	68.759	20.054	1.9969e-06	28.361	87.035	142.083	97.973	31.318	170.417	161.778	31.256	38.274	153.913	140.414	38.092	45.005	44.675	51.909	179.160	51.354	-8191	255	
32859.480	1	1	0	0	0.16073	0.20389	0.18801	0.15276	0.21058	0.28236	0.18762	0.16818	0.19838	0.25695	0.057928	0.38053	0.25824	0.057174	0.28231	0.11751	-2.2667	-2.55	-2.3979	-2.7188	-2.5708	-2.5312	-2.9667	-2.5438	-2.7625	-2.7875	-2.6583	-2.9271	-2.3854	-2.7229	-2.9479	-2.5396	120.170	226.079	205.119	58.016	335.572	47.237	285.300	315.840	217.236	84.064	63.655	21.734	333.737	332.282	338.861	276.012	0.00041874	0.00053144	0.00010531	1243.2	2.9613e-06	3.7529e-06	1302.3	252.61	2.3824e-06	3.3282e-06	313.69	88.021	68.733	19.881	1.9487e-06	28.097	0.00021301	0.00017791	5.0071e-05	1214.8	2.0249e-06	2.0319e-06	1280.3	250.72	2.0824e-06	2.0025e-06	311.42	87.663	68.78	20.049	1.993e-06	28.389	83.750	130.245	102.493	31.336	186.786	165.653	31.265	38.535	210.666	192.641	37.921	44.557	44.883	51.938	162.953	51.536	-8191	255	
32859.598	1	1	0	0	0.11197	0.39291	0.18283	0.18362	0.13172	0.28668	0.3137	0.20419	0.15273	0.098745	0.42123	0.029571	0.38985	0.038	0.23395	0.18129	-2.4854	-2.6458	-2.4646	-2.7188	-2.6917	-2.5854	-2.9562	-2.6375	-2.7104	-2.6063	-2.3812	-2.725	-2.6771	-2.4354	-2.9854	-2.5563	244.315	312.604	128.846	358.219	62.938	348.999	266.698	191.178	75.899	369.748	336.953	233.154	378.691	266.960	163.356	338.526	0.00032723	0.00023661	8.2149e-05	1242.6	2.143e-06	3.4989e-06	1297.8	253.02	5.3314e-06	3.3898e-06	312.62	87.445	68.958	19.772	3.4176e-06	27.962	0.00020992	0.00018194	4.891e-05	1215.5	2.004e-06	1.9355e-06	1280.4	250.41	1.997e-06	1.9507e-06	310.85	87.482	68.913	19.991	2.0604e-06	28.273	79.149	147.306	105.708	31.113	176.081	174.387	31.255	38.331	191.351	201.063	38.153	44.766	44.681	52.246	180.499	51.394	-8191	255	
32859.695	1	1	0	0	0.33599	0.18803	0.24106	0.2387	0.20242	0.10124	0.31737	0.23584	0.35284	0.13072	0.17966	0.11943	0.097457	0.11102	0.24125	0.083169	-2.1708	-2.7313	-2.3667	-2.8604	-2.6813	-2.5146	-2.8604	-2.5896	-2.7458	-2.8375	-2.55	-2.7188	-2.7354	-2.5021	-2.7521	-2.65	303.008	90.131	367.452	363.529	202.675	372.822	296.803	309.031	365.334	170.293	261.651	146.158	263.085	144.785	278.018	294.454	0.0003741	0.00052871	0.0001137	1239.6	5.4694e-06	2.2159e-06	1299.5	252.82	2.6288e-06	3.3372e-06	314.45	87.089	68.857	19.782	2.5155e-06	27.959	0.00021481	0.00018108	4.9376e-05	1214.2	2.0548e-06	1.8819e-06	1280.2	250.9	2.127e-06	2.0019e-06	311.78	87.454	68.87	19.975	2.0332e-06	28.279	87.909	123.211	102.183	31.157	182.958	135.444	31.262	38.478	177.454	183.048	37.893	44.795	45.310	51.718	113.595	51.006	-8191	255	
32859.789	1	1	0	0	0.054986	0.041625	0.071856	0.29876	0.11353	0.16779	0.2466	0.11708	0.22969	0.11057	0.010467	0.12718	0.062516	0.099958	0.19339	0.19826	-2.1937	-2.9437	-2.4875	-2.7687	-2.6188	-2.3958	-2.9896	-2.4667	-2.5458	-2.6125	-2.7458	-2.7229	-2.7271	-2.4125	-2.5833	-2.7021	153.564	332.560	357.041	300.784	297.867	307.992	326.277	275.467	190.102	163.668	88.971	304.635	100.572	205.451	42.990	314.411	0.00031307	0.00037612	6.3105e-05	1235.4	2.2529e-06	4.3173e-06	1301.5	252.86	4.2288e-06	4.5258e-06	313.19	87.294	69.259	19.875	3.9367e-06	27.891	0.000207	0.00018592	5.2937e-05	1215	2.0407e-06	2.0195e-06	1280.6	250.69	2.0596e-06	2.0325e-06	311.4	87.291	68.854	20.065	2.0841e-06	28.295	86.362	130.620	146.231	31.246	168.071	211.210	31.240	38.292	170.042	178.844	38.059	44.618	45.067	51.991	187.209	51.491	-8191	255	
32859.887	1	1	0	0	0.18506	0.096302	0.14638	0.2576	0.20854	0.26188	0.14635	0.17394	0.05075	0.12444	0.33806	0.1512	0.15251	0.12223	0.22956	0.14675	-2.1521	-2.6937	-2.5875	-2.6437	-2.6792	-2.5542	-3.0458	-2.6125	-2.4125	-2.8125	-2.6104	-2.6917	-2.8167	-2.3479	-2.7958	-2.6229	72.080	94.039	86.367	271.607	365.141	358.376	349.664	337.444	20.813	206.477	330.365	159.630	28.869	377.490	203.957	266.553	0.00042228	0.00039773	7.4209e-05	1237.6	4.0108e-06	2.6209e-06	1300.1	251.73	4.58e-06	1.2343e-06	315.01	86.819	68.73	19.799	4.0019e-06	27.99	0.00020931	0.00019042	4.9662e-05	1215.3	2.0084e-06	1.9589e-06	1281.2	250.29	2.0671e-06	2.0024e-06	311.78	87.365	68.818	20.006	2.0118e-06	28.266	83.229	103.162	79.799	31.714	186.039	211.109	31.515	38.295	189.376	139.309	37.746	44.777	44.678	51.991	152.033	51.697	-8191	255	
32859.984	1	1	0	0	0.14594	0.32885	0.21264	0.19292	0.17394	0.30131	0.35386	0.11306	0.17078	0.12503	0.20675	0.3539	0.037532	0.29394	0.16601	0.31185	-2.1083	-2.6708	-2.3729	-2.5667	-2.7667	-2.3187	-2.9417	-2.55	-2.5042	-2.975	-2.5771	-2.7333	-2.9042	-2.5542	-2.775	-2.7854	145.628	261.352	114.867	316.658	306.695	243.691	359.992	332.724	310.274	163.439	243.750	368.967	104.924	327.837	294.046	308.573	0.00034387	0.00044964	5.9047e-05	1247.9	2.8243e-06	2.4567e-06	1299.9	253.14	4.5746e-06	3.6562e-06	314.36	87.585	68.67	19.733	2.0565e-06	27.953	0.00020349	0.0001802	5.0465e-05	1216.7	1.9761e-06	1.8615e-06	1280.3	250.78	2.0017e-06	2.0343e-06	311.19	87.382	68.843	19.929	2.0273e-06	28.222	87.693	95.688	144.646	31.009	167.264	157.220	31.352	38.437	169.781	182.613	38.060	44.496	44.532	52.168	238.251	51.507	-8191	255	
32860.078	1	1	0	0	0.24631	0.071133	0.12836	0.14198	0.016991	0.18655	0.37792	0.25717	0.19081	0.24833	0.29204	0.0060567	0.095538	0.17646	0.056236	0.071155	-1.9979	-2.8479	-2.675	-2.5271	-2.8875	-2.6188	-2.9646	-2.7667	-2.3917	-2.8229	-2.7062	-2.6208	-2.8417	-2.4313	-2.6646	-2.7604	195.250	79.001	64.504	260.985	105.847	96.309	331.183	238.510	67.436	200.247	265.065	205.166	305.213	374.899	166.496	36.776	0.00029903	0.00032248	9.3745e-05	1233.9	2.7852e-06	1.4041e-06	1297.8	251	2.784e-06	7.9215e-07	313.62	87.476	69.224	19.829	2.2769e-06	28.002	0.00020395	0.00018539	5.0485e-05	1214.7	1.9731e-06	1.9768e-06	1280.9	250.31	2.0362e-06	2.0443e-06	311.48	87.366	69.086	19.959	1.9615e-06	28.32	77.310	97.259	109.545	31.275	218.600	244.333	31.269	38.468	149.100	142.486	38.139	44.663	45.005	52.029	165.224	51.344	-8191	255	
32860.176	1	1	0	0	0.29788	0.12199	0.17152	0.25989	0.15185	0.05894	0.29444	0.31445	0.054771	0.085557	0.095534	0.1346	0.055338	0.06333	0.12932	0.12017	-2.025	-2.6917	-2.4667	-2.5229	-2.8771	-2.6896	-2.6792	-2.8667	-2.4083	-2.8063	-2.6937	-2.5542	-2.7042	-2.7771	-2.6437	-2.7583	214.734	195.987	80.128	306.961	27.534	150.898	283.094	277.899	99.584	345.136	134.253	288.389	323.940	251.479	359.904	292.854	0.00038379	0.00012924	0.00011332	1238.3	3.3052e-06	2.4926e-06	1298.2	252.77	3.3095e-06	2.3233e-06	313.85	87.778	68.403	19.896	2.6715e-06	27.931	0.00020797	0.0001808	5.019e-05	1213.9	2.0768e-06	1.9154e-06	1281	250.82	2.0495e-06	2.017e-06	311.33	87.607	68.57	20.027	1.9926e-06	28.24	85.823	115.689	95.813	31.059	177.168	169.508	31.323	38.373	169.848	171.464	37.936	44.967	44.866	51.689	172.655	51.970	-8191	255	
32860.270	1	1	0	0	0.2378	0.19867	0.10845	0.10938	0.11433	0.050669	0.30413	0.25352	0.13425	0.16634	0.22097	0.1505	0.15036	0.18662	0.04958	0.13947	-2.2208	-2.6542	-2.7292	-2.3	-2.9479	-2.6292	-2.7896	-2.8979	-2.4	-2.5521	-2.7646	-2.4375	-2.6667	-2.5625	-2.7313	-2.8646	32.916	344.622	293.971	23.235	173.130	180.608	208.707	268.100	98.308	301.006	287.444	73.678	366.428	367.539	97.366	29.545	0.00036874	0.0002038	7.7475e-05	1236.6	3.7582e-06	2.4772e-06	1301.2	251.99	3.0475e-06	2.9474e-06	312.98	87.021	68.74	19.801	2.362e-06	27.863	0.00019947	0.00018296	4.9761e-05	1211.1	1.9453e-06	1.8324e-06	1281	250.4	1.9592e-06	1.909e-06	310.91	87.161	68.707	19.963	1.9273e-06	28.184	84.846	149.248	136.141	31.523	185.767	189.573	31.215	38.492	175.636	192.610	38.259	44.688	45.498	51.859	168.266	51.379	-8191	255	
32860.367	1	1	0	0	0.12894	0.16971	0.06701	0.17423	0.11957	0.22487	0.34397	0.16757	0.30037	0.24446	0.20423	0.12963	0.096778	0.16745	0.22406	0.092838	-2.1375	-2.6708	-2.7521	-2.5208	-2.7208	-2.7167	-2.6708	-2.9104	-2.5458	-2.8563	-2.8479	-2.5792	-2.9104	-2.8771	-2.3	-2.7771	308.893	201.839	113.395	272.557	67.115	315.334	330.211	268.174	134.747	226.261	29.980	356.976	286.043	184.169	139.568	217.581	0.00038302	0.00017109	6.2183e-05	1229.5	1.4185e-06	3.0536e-06	1294.6	251.41	2.7809e-06	2.6008e-06	313.96	88.042	68.717	19.763	3.4353e-06	27.779	0.00019715	0.00017299	4.8012e-05	1206.5	1.9789e-06	1.8986e-06	1275.9	249.99	2.0219e-06	1.9968e-06	310.85	87.389	68.636	19.903	1.8477e-06	28.153	88.298	58.446	144.548	31.215	154.026	171.237	31.174	38.229	134.801	168.369	38.219	44.977	44.765	52.024	139.356	51.348	-8191	255	
32860.484	1	1	0	0	0.15015	0.15254	0.061796	0.073129	0.10977	0.085459	0.27826	0.26959	0.10196	0.089752	0.16519	0.30286	0.11938	0.11159	0.3591	0.16286	-1.9813	-2.6896	-2.8021	-2.5896	-2.6104	-2.7062	-2.5667	-2.8833	-2.5625	-2.5667	-2.9688	-2.7021	-2.6979	-2.7313	-2.5938	-2.8021	77.641	332.449	219.280	129.691	357.975	39.954	273.436	316.879	286.283	358.700	64.608	35.150	300.707	87.855	123.658	130.047	0.00036123	0.00038117	8.9876e-05	1234.7	2.512e-06	3.2838e-06	1290.7	252.91	5.2208e-06	4.3909e-06	313.19	87.371	69.063	19.755	2.8467e-06	28.153	0.00020724	0.0001805	4.8799e-05	1208.1	2.0651e-06	1.9138e-06	1273.9	250.2	1.9693e-06	2.003e-06	310.72	87.386	68.636	19.926	1.9042e-06	28.224	85.710	111.331	110.114	31.374	147.735	149.813	31.236	38.465	160.754	184.887	37.843	44.769	44.868	51.776	156.958	51.535	-8191	255	
32860.582	1	1	0	0	0.3694	0.15414	0.11166	0.18543	0.14918	0.077866	0.30809	0.076896	0.212	0.14377	0.27368	0.14486	0.17745	0.28576	0.065205	0.036669	-2.1333	-2.6708	-2.7604	-2.6104	-2.7417	-2.5479	-2.75	-2.9875	-2.4833	-2.6146	-2.8792	-2.4813	-2.5896	-2.5771	-2.3312	-2.8563	279.570	130.483	51.612	334.245	53.494	288.905	329.610	142.857	131.650	342.481	323.876	337.740	348.530	360.609	249.765	205.207	0.00039797	0.00038621	3.3228e-05	1243.5	2.3282e-06	2.6381e-06	1294.6	252.64	4.0542e-06	2.2388e-06	312.73	87.305	68.426	19.672	2.6472e-06	27.935	0.00020379	0.00018001	5.0644e-05	1213.2	2.0256e-06	1.8964e-06	1275.4	249.95	1.9932e-06	1.8849e-06	310.68	87.387	68.592	19.926	1.9976e-06	28.192	82.189	104.297	134.970	31.335	160.687	154.163	31.108	38.272	150.744	174.638	37.822	44.830	45.055	51.873	139.032	51.586	-8191	255	
32860.680	1	1	0	0	0.13041	0.2747	0.19945	0.26299	0.24454	0.086067	0.26986	0.36382	0.14315	0.17579	0.19551	0.077109	0.15887	0.28981	0.1233	0.10829	-2.0687	-2.5896	-2.8812	-2.5125	-2.6833	-2.7167	-2.6042	-2.7729	-2.5042	-2.4688	-2.8854	-2.3792	-2.6312	-2.6479	-2.3708	-2.8229	270.727	211.308	20.762	376.727	257.687	231.746	315.182	263.081	285.045	317.642	22.871	295.270	103.515	315.387	183.639	67.163	0.00036146	0.00036351	9.7735e-05	1239.1	2.8572e-06	4.6337e-06	1293.1	252.4	4.5287e-06	1.7379e-06	312.26	86.997	68.808	19.696	1.3345e-06	27.873	0.00020066	0.00017842	5.095e-05	1210.3	2.1032e-06	1.8844e-06	1277.9	250.14	1.9748e-06	1.9816e-06	310.39	87.222	68.5	19.9	1.9272e-06	28.26	90.446	116.052	116.148	31.719	159.561	178.380	31.338	38.318	191.530	175.077	38.040	44.801	45.261	51.885	175.259	51.435	-8191	255	
32860.773	1	1	0	0	0.29593	0.24065	0.20452	0.18699	0.33728	0.4274	0.29572	0.13579	0.088093	0.026506	0.10594	0.15178	0.16339	0.060365	0.30577	0.028716	-2.2708	-2.4646	-2.5771	-2.4062	-2.6917	-2.8021	-2.7271	-2.6042	-2.7167	-2.6042	-2.9146	-2.6542	-2.5667	-2.975	-2.5812	-2.8521	88.459	31.547	25.617	325.481	374.845	328.855	351.290	234.683	125.583	156.449	296.942	275.699	225.044	220.566	144.020	367.771	0.00037897	0.00041623	0.00011795	1230.7	3.249e-06	2.6267e-06	1291.6	252.22	2.4955e-06	3.3331e-06	312.22	87.388	68.82	19.721	2.3807e-06	27.885	0.00020216	0.00017493	5.2671e-05	1208.7	2.0506e-06	1.957e-06	1276.6	250.02	2.1325e-06	1.9867e-06	310.39	87.264	68.851	19.947	1.9504e-06	28.193	89.270	135.304	98.555	31.427	175.670	167.458	31.358	37.855	180.988	152.285	38.319	44.416	44.969	51.781	111.498	51.201	-8191	255	
32860.871	1	1	0	0	0.13294	0.15683	0.065775	0.11573	0.25337	0.06049	0.26273	0.12868	0.049536	0.19385	0.21686	0.12245	0.11134	0.21507	0.1127	0.19994	-2.2313	-2.4396	-2.9083	-2.7313	-2.4083	-2.9229	-2.6625	-2.75	-2.5625	-2.6042	-2.7729	-2.6896	-2.5417	-2.9813	-2.3521	-2.6333	278.247	189.509	64.304	264.906	70.581	129.905	289.817	236.007	149.183	363.894	335.461	306.371	57.332	332.188	215.339	75.332	0.00041298	0.00031064	0.00014024	1240.2	3.3312e-06	5.7141e-06	1296.6	253.06	2.9698e-06	3.1397e-06	312.55	87.606	69.036	19.854	3.213e-06	27.915	0.00020856	0.00017667	5.1152e-05	1212.3	2.0292e-06	2.058e-06	1277.4	250.6	2.1185e-06	2.0271e-06	310.39	87.355	68.839	20.018	1.9802e-06	28.232	85.639	115.738	142.486	31.439	208.663	190.923	31.162	38.388	185.946	148.591	37.842	45.109	44.998	51.480	152.208	51.569	-8191	255	
32860.969	1	1	0	0	0.20101	0.30829	0.11953	0.090439	0.16053	0.19972	0.19457	0.24327	0.12377	0.052837	0.18891	0.14768	0.13296	0.038208	0.46192	0.21183	-2.3979	-2.4688	-2.6875	-2.7667	-2.4729	-2.6833	-2.6521	-2.6417	-2.6	-2.4417	-2.8125	-2.5875	-2.3271	-2.8083	-2.6146	-2.5417	241.236	270.887	156.045	210.851	299.481	357.121	340.256	357.318	101.403	119.829	311.512	344.303	229.574	271.784	39.016	262.846	0.00037365	0.00031079	8.3949e-05	1240	1.374e-06	2.9508e-06	1299.8	252.65	3.9371e-06	2.4464e-06	315.23	86.819	69.088	19.63	2.8919e-06	28.006	0.00021166	0.00018263	5.2269e-05	1212.1	2.0353e-06	2.0074e-06	1278.8	249.94	2.0161e-06	1.9275e-06	311.26	87.112	68.817	19.894	1.9492e-06	28.236	81.560	115.186	90.641	31.275	136.082	212.725	31.167	38.452	181.842	148.787	37.935	44.738	45.026	51.946	193.804	51.236	-8191	255	
32861.086	1	1	0	0	0.28462	0.10813	0.19445	0.11693	0.22129	0.16873	0.083999	0.29369	0.1198	0.20858	0.15947	0.10448	0.33776	0.13958	0.076763	0.25667	-2.4333	-2.4083	-2.6875	-2.6354	-2.4583	-2.8917	-2.6813	-2.6312	-2.725	-2.5958	-2.75	-2.775	-2.5563	-2.7792	-2.75	-2.5125	106.658	111.635	106.222	186.869	221.185	204.316	248.071	279.557	165.516	119.794	74.768	341.884	27.258	367.375	115.804	301.856	0.00038909	0.00021663	0.00014398	1238.9	2.0929e-06	2.7157e-06	1296.3	252.04	2.8808e-06	1.3069e-06	313.37	87.332	68.902	19.799	4.3872e-06	27.881	0.000206	0.0001766	4.8084e-05	1210.7	1.9291e-06	1.9001e-06	1277	249.99	2.0417e-06	1.8782e-06	310.74	87.314	68.646	19.96	1.9527e-06	28.237	88.835	76.709	132.915	31.137	185.813	186.813	31.091	38.340	129.158	140.325	38.218	44.700	45.107	52.137	171.923	51.418	-8191	255	
32861.184	1	1	0	0	0.24183	0.069976	0.08288	0.12139	0.089809	0.15909	0.25891	0.026711	0.17853	0.081257	0.20129	0.1052	0.15758	0.1255	0.13389	0.070516	-2.3521	-2.6417	-2.5021	-2.8	-2.4375	-2.7583	-2.6	-2.7083	-2.7188	-2.5417	-2.7979	-2.8479	-2.5021	-2.75	-2.5938	-2.6625	35.598	42.471	102.019	114.277	352.643	95.796	271.947	348.822	241.416	126.194	99.586	282.933	112.502	278.925	97.783	244.556	0.00040396	0.00032609	9.1532e-05	1234.8	2.8405e-06	2.2719e-06	1297.7	251.65	4.1188e-06	1.8917e-06	313.32	86.993	69.123	19.864	3.3358e-06	27.884	0.00020931	0.00018035	4.9558e-05	1212	1.968e-06	1.9781e-06	1278.1	249.84	1.9699e-06	1.8982e-06	310.87	87.242	68.786	19.987	1.9236e-06	28.185	82.974	81.621	127.628	31.252	185.980	223.945	31.049	38.466	156.035	196.880	37.824	44.408	45.148	52.001	170.588	51.248	-8191	255	
32861.281	1	1	0	0	0.25046	0.12492	0.20718	0.24761	0.095497	0.20185	0.040171	0.29213	0.32544	0.15268	0.29585	0.27201	0.3977	0.15177	0.099913	0.099389	-2.4896	-2.6271	-2.6792	-2.8167	-2.4542	-2.5146	-2.6688	-2.375	-2.7938	-2.6312	-2.6875	-2.7646	-2.4417	-2.5792	-2.6937	-2.3667	89.886	309.216	253.581	334.426	124.195	67.811	247.186	279.519	273.798	174.579	91.043	312.373	327.148	95.796	117.134	370.636	0.0003602	0.00035439	6.6136e-05	1233.9	2.5524e-06	2.2936e-06	1299.5	251.79	4.5712e-06	2.3134e-06	314.08	87.367	68.815	19.782	2.6743e-06	27.982	0.00020797	0.00018393	4.9395e-05	1211	1.9833e-06	2.031e-06	1277.7	250.05	2.0469e-06	1.971e-06	310.66	87.29	68.623	19.945	2.04e-06	28.138	86.502	127.721	128.506	30.972	147.126	187.896	31.241	38.367	159.304	185.189	37.986	44.912	45.053	52.019	192.015	51.240	-8191	255	
32861.375	1	1	0	0	0.022802	0.21136	0.093408	0.15255	0.11287	0.16981	0.038713	0.35001	0.16992	0.097833	0.36466	0.14312	0.13524	0.25492	0.15764	0.215	-2.3708	-2.4938	-2.4042	-2.9292	-2.5687	-2.7958	-2.9833	-2.8042	-3.0479	-2.85	-2.7125	-3.0563	-2.6021	-2.6167	-2.8417	-2.7979	147.101	275.754	152.327	95.567	238.457	216.917	124.381	361.864	56.613	31.988	330.738	325.351	340.974	332.457	362.115	59.475	0.00035782	0.00034171	0.00012818	1239.1	3.655e-06	2.1555e-06	1294	252.84	1.4303e-06	1.8436e-06	313.3	86.83	68.808	19.718	1.6105e-06	27.999	0.00020438	0.00017826	5.0493e-05	1211.5	1.9325e-06	1.9751e-06	1276.1	250.52	2.1119e-06	1.9577e-06	310.83	87.304	68.667	19.996	2.0606e-06	28.216	86.094	96.840	118.369	31.138	168.255	165.876	31.320	38.536	202.970	137.829	38.251	44.529	45.214	52.006	159.903	51.444	-8191	255	
32861.473	1	1	0	0	0.026152	0.33025	0.22296	0.1641	0.10868	0.21032	0.13606	0.17985	0.24158	0.17228	0.055235	0.1778	0.28456	0.11482	0.23032	0.23673	-2.425	-2.825	-2.4875	-3.1063	-2.7438	-2.7417	-3.0958	-2.6167	-2.8229	-2.8521	-2.7875	-3.0812	-2.8104	-2.9375	-3.0458	-2.825	236.852	263.358	191.274	296.840	294.239	375.627	75.566	331.875	40.030	236.119	26.085	44.860	354.546	270.975	263.001	319.708	0.00038564	0.00038583	0.00010951	1238.4	3.1771e-06	2.7014e-06	1292.9	251.9	4.8778e-06	1.5274e-06	314.09	86.701	68.884	19.779	1.97e-06	28.03	0.00021088	0.00018459	5.314e-05	1209.5	2.0535e-06	2.0299e-06	1275.7	249.94	2.1538e-06	2.0983e-06	310.87	87.143	68.655	19.932	2.0196e-06	28.203	85.979	124.524	127.407	31.301	181.220	171.501	31.034	38.373	177.422	197.124	38.234	44.947	45.023	52.301	189.354	51.232	-8191	255	
32861.566	1	1	0	0	0.051952	0.10335	0.26676	0.15479	0.21766	0.12416	0.26159	0.19797	0.10608	0.12716	0.10129	0.081271	0.10797	0.15063	0.097503	0.15213	-2.6937	-2.8229	-2.525	-3.0896	-2.6396	-2.7042	-3.1167	-2.7771	-2.8646	-2.9521	-2.725	-3.075	-2.7333	-2.7562	-2.9875	-2.9437	230.855	21.793	185.498	355.466	94.396	336.830	326.961	328.977	91.820	105.471	281.930	104.018	294.744	78.780	195.630	208.593	0.00040879	0.00036804	7.918e-05	1239.1	2.2131e-06	3.6348e-06	1295.9	252.01	5.0343e-06	6.5627e-07	313.82	87.813	68.781	19.835	2.7395e-06	27.776	0.0002144	0.00018456	5.0031e-05	1210.1	1.9947e-06	1.9512e-06	1276.7	249.7	2.0525e-06	1.948e-06	311.75	87.46	68.691	19.956	2.0506e-06	28.224	88.528	115.990	88.930	31.099	138.695	194.337	31.314	38.550	189.100	164.709	38.200	44.843	44.954	51.676	156.235	51.331	-8191	255	
32861.664	1	1	0	0	0.033462	0.20401	0.14593	0.33228	0.27948	0.16772	0.20383	0.096109	0.093448	0.43415	0.22874	0.17446	0.085022	0.069477	0.15691	0.091939	-2.5146	-2.9479	-2.5	-2.8937	-2.7604	-2.7604	-3.2417	-2.6771	-2.9396	-2.6958	-2.8771	-2.9333	-2.8792	-2.95	-2.8792	-2.8021	187.104	243.967	20.479	328.013	244.968	188.194	315.092	148.988	56.532	184.206	365.201	309.687	182.956	338.850	54.976	326.743	0.00033179	0.00039242	0.00011471	1236.7	2.0495e-06	1.9151e-06	1295.8	251.79	3.785e-06	1.4251e-06	314.16	87.639	69.096	19.865	1.9989e-06	27.759	0.00020366	0.00018585	5.1343e-05	1214.1	2.0387e-06	2.0279e-06	1277.5	249.64	2.0948e-06	1.9927e-06	310.86	87.372	68.785	19.992	2.0036e-06	28.152	90.650	98.391	153.326	31.404	167.318	152.083	31.162	38.052	190.786	197.370	37.861	44.480	45.247	51.780	186.168	51.351	-8191	255	
32861.781	1	1	0	0	0.11173	0.22446	0.10203	0.16869	0.31497	0.29904	0.19158	0.3242	0.14712	0.10436	0.20592	0.1712	0.20624	0.19978	0.2643	0.025114	-2.2229	-2.8833	-2.6146	-3.0021	-2.6813	-2.6729	-3.0771	-2.7917	-2.7375	-3.0417	-2.6937	-2.9396	-2.9854	-2.5542	-2.9062	-2.6875	252.357	247.922	40.437	281.487	112.026	141.168	355.331	301.973	299.184	353.477	374.702	133.160	374.896	353.458	128.467	256.293	0.00028754	0.000412	9.1887e-05	1238.6	2.8211e-06	2.3596e-06	1298	253.12	4.4376e-06	2.2469e-06	312.99	87.228	68.915	19.776	2.3095e-06	27.996	0.00020445	0.00018545	4.9809e-05	1211.4	1.9666e-06	1.9807e-06	1276.5	249.69	2.0983e-06	1.9723e-06	310.94	87.318	68.812	19.95	2.0047e-06	28.257	87.923	101.163	107.689	31.541	130.649	182.537	31.347	38.310	191.403	169.727	38.061	44.819	44.995	51.873	196.036	51.255	-8191	255	
32861.879	1	1	0	0	0.31009	0.12181	0.15555	0.15332	0.10854	0.078247	0.19212	0.058481	0.04735	0.075667	0.11648	0.18099	0.14301	0.36784	0.18641	0.27739	-2.275	-2.9333	-2.7938	-2.9625	-2.8792	-2.6708	-3.1229	-2.8583	-2.8042	-3.0375	-2.7292	-3.2375	-2.8333	-2.625	-2.925	-2.8583	348.439	92.857	240.715	319.414	59.802	287.870	315.656	113.058	95.418	330.129	177.520	287.725	82.356	48.158	288.949	376.520	0.00039485	0.00018055	0.00010433	1227.5	1.0037e-06	4.0974e-06	1294.6	252	1.6211e-06	2.0222e-06	312.67	87.573	68.885	19.732	3.6103e-06	27.79	0.00021526	0.00018237	4.9252e-05	1208.9	2.1036e-06	1.9436e-06	1276.8	249.98	2.0733e-06	2.0293e-06	310.77	87.449	68.797	19.878	2.0931e-06	28.207	82.360	135.045	103.411	31.486	227.921	204.331	31.298	38.462	117.960	182.185	38.497	45.026	45.050	52.008	152.631	51.549	-8191	255	
32861.949	1	1	0	0	0.23157	0.23247	0.14831	0.10348	0.033931	0.086579	0.17409	0.24553	0.082024	0.21948	0.27819	0.12959	0.22478	0.095394	0.33027	0.17409	-2.2542	-2.9917	-2.6104	-2.9167	-2.8958	-2.75	-2.9333	-2.8667	-2.7062	-3.1729	-2.9229	-2.8292	-3.0083	-2.6958	-3.0146	-2.9938	94.284	63.302	325.959	66.333	351.155	208.642	362.608	329.942	115.131	247.308	81.304	341.642	24.067	105.629	359.098	271.817	0.0003561	0.00044859	8.6875e-05	1230.9	2.1111e-06	2.7437e-06	1295.4	252.39	3.7042e-06	3.4193e-06	314.33	87.292	69.458	19.728	4.0488e-06	28.068	0.0002112	0.00018688	5.1737e-05	1211.3	2.014e-06	1.965e-06	1277.4	250.13	2.1244e-06	2.0626e-06	311.82	87.332	68.956	19.922	2.1192e-06	28.232	89.734	111.214	133.517	31.411	160.571	179.458	31.298	38.157	167.192	156.404	38.023	44.564	44.791	51.770	169.766	51.318	-8191	255	
32862.047	1	1	0	0	0.064834	0.23222	0.21774	0.25788	0.05832	0.12751	0.078686	0.064254	0.11957	0.051019	0.25124	0.29224	0.32606	0.10948	0.046566	0.24512	-2.2604	-2.9313	-2.6396	-2.8417	-2.9083	-2.5563	-3.1521	-2.9	-2.7229	-3.1688	-2.8354	-2.7771	-3	-2.6917	-2.9479	-2.9562	134.277	277.597	25.568	365.958	84.683	139.623	151.501	157.539	328.676	23.909	66.305	233.325	60.611	342.158	168.061	226.271	0.00031547	0.00040616	0.00013208	1236.6	3.2928e-06	1.786e-06	1294.5	252.4	3.0227e-06	2.558e-06	315.68	87.389	68.858	19.827	2.4253e-06	28.052	0.00020798	0.00018761	4.9387e-05	1209.9	2.094e-06	1.9061e-06	1276.9	250.11	2.0342e-06	2.0354e-06	311.38	87.371	68.768	19.982	1.9966e-06	28.274	80.783	123.152	115.266	31.424	147.323	194.726	31.094	38.202	167.710	178.769	38.076	44.833	44.982	51.691	178.095	51.331	-8191	255	
32862.168	1	1	0	0	0.25374	0.083458	0.12549	0.21318	0.28085	0.21448	0.095671	0.10823	0.11627	0.35357	0.1946	0.20253	0.29776	0.16983	0.061084	0.078903	-2.1562	-2.7958	-2.8042	-2.6958	-2.9583	-2.5	-2.7604	-2.8542	-2.7604	-2.9833	-2.825	-2.7083	-2.9604	-2.8021	-2.85	-2.9625	78.779	183.392	139.038	259.762	164.701	305.485	259.883	317.784	218.036	142.504	379.958	301.233	323.180	137.704	220.373	100.697	0.00038294	0.0003775	8.6445e-05	1225.9	2.4786e-06	3.5008e-06	1294.6	253.01	5.4809e-06	2.3775e-06	313.53	87.531	69.262	19.643	1.5217e-06	27.899	0.00021093	0.00018177	5.1256e-05	1208	2.0481e-06	2.0011e-06	1277.2	250.52	2.0671e-06	2.0652e-06	310.81	87.378	68.784	19.938	1.9689e-06	28.226	87.331	92.599	137.077	31.085	205.417	144.849	31.398	38.623	157.604	166.096	38.284	44.543	44.936	51.746	137.406	51.484	-8191	255	
32862.266	1	1	0	0	0.084851	0.24219	0.10585	0.15719	0.14541	0.15376	0.2049	0.037453	0.25379	0.33859	0.15839	0.2539	0.13752	0.070546	0.26863	0.32669	-2.2583	-2.9917	-2.9125	-2.7104	-2.8896	-2.8042	-2.9271	-2.9667	-2.7	-2.8604	-2.95	-2.65	-3.1354	-2.7271	-2.825	-2.9688	225.854	66.431	54.367	349.294	158.462	371.073	291.553	101.084	135.267	74.874	352.245	286.246	64.892	166.939	278.485	30.470	0.00036347	0.00035255	5.9477e-05	1234.4	3.5305e-06	2.4763e-06	1291.4	252.84	2.9331e-06	1.942e-06	313.5	87.641	69.111	19.693	2.3074e-06	27.797	0.00020296	0.0001894	4.9042e-05	1209	1.9943e-06	1.9069e-06	1277.6	250.35	2.0236e-06	1.9524e-06	310.46	87.551	68.732	19.901	1.9487e-06	28.155	87.210	124.997	101.537	31.134	180.344	168.811	31.392	38.335	209.866	189.840	37.755	44.669	45.073	51.972	158.290	51.126	-8191	255	
32862.359	1	1	0	0	0.11374	0.11264	0.11788	0.40206	0.18231	0.095598	0.26942	0.27991	0.25319	0.27898	0.042716	0.20011	0.13766	0.098412	0.18787	0.044269	-2.0354	-3.0083	-2.9333	-2.9604	-2.8542	-2.6	-2.75	-2.8708	-2.5938	-2.7208	-3.0146	-2.7271	-2.6729	-2.7208	-2.7354	-2.975	288.353	206.117	311.730	330.069	180.889	171.319	325.744	330.141	160.721	135.984	36.998	114.231	344.209	113.546	303.109	167.820	0.00039671	0.00041273	9.9754e-05	1238.5	2.3437e-06	2.4196e-06	1291.2	253.69	3.9648e-06	3.3661e-06	312.94	87.112	69.031	19.768	2.851e-06	27.807	0.00021153	0.00019324	5.0707e-05	1212.1	2.1434e-06	2.0318e-06	1275.9	250.39	2.0669e-06	2.0814e-06	310.76	87.256	68.907	19.949	2.0109e-06	28.219	83.267	119.991	134.493	31.272	176.739	156.755	31.440	38.550	158.545	163.583	38.025	44.508	44.865	51.761	174.946	51.021	-8191	255	
32862.480	1	1	0	0	0.26747	0.25632	0.13717	0.17628	0.13766	0.2195	0.5869	0.21338	0.050608	0.059203	0.1384	0.26733	0.35585	0.053026	0.23816	0.28137	-2.2271	-2.7396	-2.9125	-2.6896	-2.9417	-2.7875	-2.8312	-3.1583	-2.8083	-2.75	-2.8979	-2.7875	-3.0333	-2.85	-2.7896	-3.0667	122.132	62.490	173.850	358.552	63.440	88.586	329.775	361.339	350.433	149.361	211.574	29.072	304.672	371.847	193.158	21.575	0.00040967	0.00022023	5.1748e-05	1238.5	2.9081e-06	3.4497e-06	1294.2	252.04	2.8701e-06	1.5636e-06	313.68	87.498	69.055	19.866	2.3778e-06	28.136	0.0002155	0.00018872	4.9845e-05	1212.6	2.1538e-06	1.9988e-06	1276.9	250.02	2.0843e-06	2.0246e-06	311.42	87.285	68.655	20.014	2.0872e-06	28.21	90.554	104.870	112.729	31.182	174.166	184.666	31.395	38.187	178.665	230.369	37.894	44.950	45.058	52.024	186.598	51.397	-8191	255	
32862.574	1	1	0	0	0.27685	0.16086	0.21149	0.12488	0.24686	0.03214	0.088682	0.33008	0.19448	0.22373	0.25193	0.18519	0.084854	0.033504	0.23836	0.1043	-2.2833	-2.7604	-2.8729	-2.525	-2.9104	-2.9729	-2.9688	-2.7938	-2.8312	-2.75	-3.2146	-2.8083	-2.9458	-3.0583	-2.8042	-2.9917	332.639	102.583	82.344	23.966	162.189	122.124	266.252	220.831	185.705	363.496	179.184	273.344	70.393	243.664	119.094	342.076	0.00034235	0.00025931	8.1875e-05	1229.6	1.7252e-06	2.7238e-06	1294.4	252.85	2.8056e-06	3.8416e-06	313.6	87.472	69.177	19.721	1.9022e-06	27.866	0.00021333	0.00019035	5.322e-05	1208.1	2.163e-06	2.0445e-06	1277.3	250.24	2.0986e-06	2.0749e-06	310.9	87.299	68.842	19.923	2.068e-06	28.259	85.618	105.708	93.662	31.399	183.285	156.124	31.227	38.485	180.270	135.234	38.280	44.482	45.252	51.757	173.640	51.234	-8191	255	
32862.648	1	1	0	0	0.19113	0.10787	0.26052	0.025304	0.026166	0.2685	0.079475	0.17925	0.16493	0.11957	0.24515	0.18601	0.25083	0.11837	0.056667	0.085122	-2.3396	-2.6771	-2.9479	-2.6771	-2.9729	-2.9437	-2.9354	-2.7708	-2.9375	-2.8604	-3.1021	-2.75	-2.9167	-2.9417	-2.6833	-3.0083	35.152	193.689	188.658	371.073	220.858	100.620	222.464	249.225	238.271	228.179	270.708	275.223	41.046	291.169	41.603	59.662	0.00038916	0.00036997	7.8535e-05	1246.8	2.3449e-06	6.276e-06	1297.5	251.71	2.6839e-06	2.8958e-06	312.07	86.757	68.781	19.76	2.5676e-06	27.924	0.00020689	0.00019674	5.3037e-05	1214.8	2.1502e-06	2.063e-06	1278.4	250.41	2.1047e-06	2.0614e-06	311.07	87.14	68.799	19.945	2.1157e-06	28.268	89.426	169.578	116.311	31.180	161.518	163.102	31.207	38.210	212.435	163.263	38.047	44.813	44.902	51.950	128.262	51.070	-8191	255	
32862.766	1	1	0	0	0.12527	0.12909	0.16389	0.20238	0.27304	0.13752	0.52768	0.27697	0.27992	0.15536	0.22469	0.12783	0.099287	0.10741	0.023777	0.089901	-2.5083	-2.675	-2.9688	-2.7125	-2.8979	-2.9417	-2.9062	-3.0646	-2.7625	-2.6771	-2.8833	-2.8979	-2.7479	-2.8542	-2.6958	-2.9875	43.256	267.336	260.113	325.679	102.149	356.342	329.617	301.778	96.168	59.636	354.729	236.067	243.519	341.248	95.827	313.677	0.00037674	0.00050833	9.6788e-05	1241.5	2.0028e-06	3.1933e-06	1298.1	252.35	2.1058e-06	1.5116e-06	311.86	87.224	68.968	19.757	7.8024e-07	28.149	0.00022123	0.00018932	5.5525e-05	1212.2	2.1221e-06	2.0846e-06	1279.1	250.45	2.1385e-06	2.122e-06	309.93	87.337	68.856	19.989	2.0257e-06	28.294	91.010	129.361	95.762	31.366	188.445	197.933	31.129	38.568	187.873	206.864	37.765	44.631	45.037	52.279	191.035	51.141	-8191	255	
32862.863	1	1	0	0	0.11098	0.2479	0.2201	0.27743	0.04232	0.11778	0.14482	0.24577	0.31239	0.18812	0.23682	0.23806	0.099	0.13192	0.18564	0.068606	-2.4875	-2.7875	-2.8458	-2.6	-2.7812	-2.9167	-2.8833	-3.0125	-2.7625	-2.7104	-2.9292	-2.9375	-2.7833	-2.9979	-2.7333	-3.0646	59.943	130.102	222.345	85.009	199.850	163.906	356.705	357.023	76.992	377.517	368.650	317.693	242.487	372.124	234.385	206.705	0.00039229	0.00026752	6.7436e-05	1225.9	3.7795e-06	4.89e-06	1297.2	252.25	4.5155e-06	4.1523e-06	312.3	87.919	69.001	19.757	8.1052e-07	27.878	0.0002159	0.00018968	5.339e-05	1210.8	2.1511e-06	2.181e-06	1277.6	250.04	2.2513e-06	2.0692e-06	311	87.491	68.67	19.934	2.0081e-06	28.185	83.155	58.968	121.893	31.233	170.048	153.583	31.295	38.314	173.509	167.381	37.817	44.660	45.226	52.093	190.627	51.275	-8191	255	
32862.961	1	1	0	0	0.13957	0.21307	0.22248	0.38042	0.15675	0.18861	0.24232	0.08398	0.32113	0.16899	0.20597	0.18983	0.1647	0.035508	0.12871	0.31627	-2.4875	-2.5646	-2.8042	-2.8021	-2.6333	-2.8708	-2.6	-3.0146	-2.9396	-2.6542	-3.0021	-2.8625	-2.6063	-2.9521	-2.7583	-2.8521	42.688	327.487	88.280	342.865	45.789	253.163	357.690	280.768	333.589	331.196	72.415	45.527	286.631	291.950	305.400	287.485	0.00041945	0.00022778	9.7235e-05	1234	1.1493e-06	3.5205e-06	1295.5	252.6	5.8024e-06	4.7341e-06	313.35	87.237	69.043	19.724	3.458e-06	27.816	0.00022476	0.00019266	5.407e-05	1211.5	2.1862e-06	2.1465e-06	1275.8	250.53	2.2061e-06	2.1205e-06	311.38	87.367	68.833	19.907	2.1054e-06	28.231	84.585	100.404	127.228	31.187	152.896	185.652	31.198	38.552	194.394	167.733	37.889	44.537	44.930	52.082	192.767	51.177	-8191	255	
32863.078	1	1	0	0	0.051157	0.21031	0.098582	0.23239	0.22945	0.23528	0.084087	0.10539	0.2605	0.29486	0.28595	0.14764	0.14334	0.060963	0.18945	0.26796	-2.2396	-2.5125	-2.85	-3.0229	-2.6437	-2.925	-2.7958	-2.9604	-2.7979	-2.6188	-3.0042	-2.8146	-2.7333	-3.1021	-2.6854	-2.9417	182.816	284.931	111.257	53.409	26.407	333.344	298.277	294.966	128.515	300.609	365.044	57.731	99.670	156.062	311.082	27.422	0.00039871	0.00051795	6.8912e-05	1239.2	3.2349e-06	2.9695e-06	1295.3	252.05	3.6239e-06	1.8015e-06	312.01	86.817	69.179	19.733	3.8446e-06	28.01	0.00022491	0.00019138	5.4754e-05	1211.5	2.128e-06	2.1482e-06	1276.9	250.23	2.1651e-06	2.1795e-06	310.83	87.105	68.725	19.933	2.1097e-06	28.266	88.458	117.601	80.656	31.042	160.184	195.761	31.062	38.485	156.649	165.268	38.146	44.905	44.904	52.074	148.972	51.406	-8191	255	
32863.176	1	1	0	0	0.1187	0.14408	0.25644	0.20131	0.38083	0.26407	0.082399	0.30828	0.12451	0.1854	0.1171	0.13761	0.23494	0.05967	0.2517	0.11255	-2.4104	-2.6688	-2.8625	-2.9229	-2.7083	-3.025	-2.7271	-2.7062	-2.8396	-2.8146	-2.9562	-2.7229	-2.6125	-2.8146	-2.6	-2.7792	71.517	280.293	278.273	53.040	299.121	191.077	87.554	298.112	233.513	148.134	253.874	339.337	364.233	92.795	317.093	168.596	0.00037655	0.00011598	5.2422e-05	1235.3	2.6804e-06	4.4531e-06	1289.2	253.85	4.8698e-06	1.602e-06	313.73	87.102	68.849	19.916	4.3007e-06	27.939	0.00022302	0.00019254	5.4019e-05	1210.5	2.1281e-06	2.1424e-06	1276.8	250.68	2.2393e-06	2.0471e-06	311.29	87.177	68.74	20.031	2.0584e-06	28.263	84.850	125.018	137.358	31.281	193.652	183.942	31.418	38.178	170.364	180.236	38.048	44.923	45.116	51.980	218.214	51.147	-8191	255	
32863.246	1	1	0	0	0.061531	0.12453	0.20319	0.12654	0.13474	0.18086	0.40709	0.25699	0.1567	0.12242	0.10975	0.16562	0.10366	0.3071	0.26174	0.09904	-2.575	-2.7833	-2.8312	-3.0333	-2.5687	-2.8417	-2.8167	-2.7104	-2.9021	-2.7125	-2.8396	-2.9146	-2.5667	-2.9542	-2.8729	-2.6083	176.774	197.956	104.233	209.700	31.387	379.888	291.103	25.992	290.340	246.819	238.570	21.184	320.676	106.803	137.284	163.203	0.00035541	0.00023422	0.00011283	1235.9	4.0501e-06	2.1607e-06	1298.2	252.17	3.0988e-06	3.588e-06	314.06	87.02	68.787	19.842	2.956e-06	27.996	0.00021249	0.00018953	5.4416e-05	1211.9	2.0465e-06	2.1413e-06	1279.6	249.82	2.2684e-06	2.1632e-06	311.28	87.231	68.717	19.965	2.1446e-06	28.261	94.972	103.468	82.110	31.342	168.467	165.443	31.386	38.461	189.593	161.228	37.959	44.975	44.983	51.845	181.357	51.304	-8191	255	
32863.344	1	1	0	0	0.0836	0.25738	0.15197	0.17643	0.30217	0.092185	0.058562	0.23151	0.11094	0.17763	0.18107	0.1987	0.37077	0.080984	0.31291	0.10581	-2.3854	-2.6021	-2.6167	-3.0833	-2.625	-2.7708	-3.0417	-2.5812	-3.0125	-2.6917	-2.8854	-3.0354	-2.7854	-3.0938	-3.0104	-2.6729	65.151	246.995	124.505	72.458	74.457	333.791	359.673	321.198	233.016	137.569	275.003	36.598	23.792	282.750	145.853	107.631	0.00035866	0.00035948	9.4721e-05	1233.9	4.2819e-06	1.4676e-06	1296.3	251.22	1.9172e-06	2.0618e-06	315.05	87.011	68.498	19.783	2.1719e-06	27.901	0.00021099	0.0001887	5.4416e-05	1210.6	2.1556e-06	2.0921e-06	1277.9	250.27	2.1807e-06	2.2212e-06	311.87	87.401	68.748	19.993	2.0257e-06	28.282	95.386	126.828	116.963	31.589	143.355	143.509	31.301	38.143	176.046	131.262	37.819	44.918	45.057	52.003	182.795	51.624	-8191	255	
32863.465	1	1	0	0	0.29287	0.071715	0.18363	0.10505	0.16364	0.21967	0.35217	0.19456	0.38025	0.15815	0.09756	0.22769	0.15381	0.076828	0.28065	0.20604	-2.5271	-2.6479	-2.5979	-3.2229	-2.6937	-2.9396	-2.9625	-2.6188	-2.9667	-2.8438	-2.5667	-3.1312	-2.7458	-2.9875	-2.7833	-2.5687	20.991	335.871	58.048	278.549	318.118	69.116	311.005	28.705	193.763	315.430	370.438	374.741	45.336	252.034	313.769	374.300	0.00040656	0.00031568	8.108e-05	1240.1	1.9639e-06	2.6416e-06	1294	251.77	6.5892e-06	2.155e-06	312.94	87.374	68.863	19.788	4.255e-06	27.953	0.00022218	0.00018842	5.2826e-05	1211	2.098e-06	2.1631e-06	1276.4	250.21	2.2236e-06	2.1413e-06	311	87.493	68.789	20.015	2.0427e-06	28.283	81.402	118.069	110.806	31.300	188.430	222.447	31.274	38.393	157.105	228.938	37.986	44.553	44.947	52.001	193.796	51.297	-8191	255	
32863.559	1	1	0	0	0.19419	0.29859	0.1782	0.12912	0.23439	0.13139	0.2339	0.26413	0.28641	0.05891	0.26666	0.41241	0.19693	0.20687	0.30115	0.13742	-2.6292	-2.8417	-2.6625	-3.1521	-2.7687	-2.8792	-3.1771	-2.6	-2.8604	-2.875	-2.6375	-3.0458	-2.6625	-2.7	-2.8812	-2.7438	224.082	104.344	345.684	205.994	106.721	151.466	256.783	314.735	138.140	179.244	105.760	191.077	162.054	377.254	136.672	333.161	0.0003988	0.00033906	8.0348e-05	1235.9	3.7741e-06	2.91e-06	1291.4	251.85	3.3186e-06	3.3088e-06	313.44	88.209	69.155	19.845	1.9057e-06	27.908	0.00021899	0.00019709	5.4066e-05	1212.2	2.1079e-06	2.1204e-06	1276.9	250.48	2.2519e-06	2.0776e-06	311.52	87.757	68.843	19.986	2.1217e-06	28.268	86.959	174.328	101.024	31.367	197.141	193.827	31.190	38.176	151.376	172.299	38.138	44.687	45.130	51.657	234.667	51.314	-8191	255	
32863.656	1	1	0	0	0.16132	0.25695	0.17538	0.25158	0.21468	0.10765	0.48193	0.02605	0.22421	0.088797	0.2115	0.13958	0.063112	0.12237	0.15831	0.1553	-2.4583	-2.925	-2.7271	-2.9313	-2.6958	-2.5979	-3.2562	-2.7042	-2.9292	-3.0104	-2.8021	-2.9771	-2.6813	-2.7875	-2.9875	-2.6875	158.844	150.097	90.362	321.640	244.760	89.131	313.808	120.938	208.698	166.009	237.176	129.650	211.863	348.501	86.700	39.332	0.00034396	0.00028958	0.00010471	1232.7	2.4371e-06	2.8694e-06	1303.9	252.44	4.9095e-06	3.5096e-06	314.01	87.817	68.914	19.89	2.7329e-06	27.941	0.00021827	0.00019138	5.2357e-05	1210.3	2.1189e-06	2.1084e-06	1280.9	250.09	2.2289e-06	2.0998e-06	311.31	87.498	68.775	20.003	2.0586e-06	28.251	86.312	112.610	118.672	31.360	147.396	181.817	31.204	38.357	157.045	173.702	38.295	45.056	44.998	52.004	167.590	51.632	-8191	255	
32863.754	1	1	0	0	0.10806	0.11573	0.02594	0.23591	0.089331	0.13491	0.25984	0.11359	0.18531	0.034257	0.14459	0.21304	0.051032	0.014694	0.30001	0.037834	-2.4021	-3.1604	-2.6271	-2.9896	-2.6437	-2.6312	-3.1417	-2.825	-2.775	-2.8146	-2.6333	-2.8604	-2.8563	-2.7667	-2.9979	-2.7875	123.171	196.732	117.746	373.533	175.415	85.285	339.778	374.711	253.904	307.151	324.272	329.404	133.684	210.693	145.101	152.287	0.00040408	0.00018359	0.00010077	1236.7	2.619e-06	2.1216e-06	1298	251.67	4.7642e-06	1.6391e-06	314	87.168	68.707	19.737	3.9336e-06	28.024	0.00021919	0.00018986	5.1888e-05	1211.1	2.2235e-06	1.9372e-06	1280.6	250.43	2.2162e-06	2.167e-06	311.12	87.227	68.764	19.953	2.0826e-06	28.332	87.006	131.552	152.591	31.427	166.436	163.838	31.126	38.690	174.503	159.540	38.084	44.660	45.099	52.247	156.314	51.361	-8191	255	
32863.848	1	1	0	0	0.12949	0.19664	0.11434	0.26794	0.15607	0.1206	0.092376	0.1211	0.056129	0.017393	0.078108	0.18438	0.089123	0.038854	0.15101	0.2593	-2.4562	-2.8958	-2.6229	-2.9042	-2.9792	-2.5479	-3.25	-2.6771	-2.7021	-3.1063	-2.6625	-2.8958	-2.8125	-2.5917	-2.9958	-2.8146	37.270	279.444	299.850	103.099	257.305	67.788	347.018	349.611	218.076	248.054	86.756	326.040	313.062	348.813	165.706	105.679	0.00035489	0.00035134	0.00017622	1239.8	3.5268e-06	3.9552e-06	1298.1	252.13	4.0269e-06	3.856e-06	314.47	87.347	69.364	19.762	3.0531e-06	27.875	0.0002217	0.00018794	5.2989e-05	1213.2	2.2652e-06	2.1031e-06	1278.5	250.6	2.1647e-06	2.1407e-06	311.1	87.4	68.852	19.975	2.1615e-06	28.16	97.990	151.423	116.582	31.179	196.675	171.267	31.165	38.273	180.645	216.187	38.206	44.736	44.961	51.470	210.094	51.106	-8191	255	
32863.945	1	1	0	0	0.081125	0.051914	0.1856	0.058017	0.088217	0.17265	0.26145	0.19387	0.12386	0.26247	0.18427	0.046465	0.19725	0.071251	0.078925	0.13548	-2.2562	-2.95	-2.5958	-2.7271	-2.8771	-2.7125	-3.2	-2.8021	-2.9375	-2.875	-2.6312	-2.8667	-2.9479	-2.7167	-3.0729	-2.9958	29.432	307.987	266.135	126.987	332.427	90.324	307.159	313.565	144.741	316.064	290.800	121.099	70.292	49.005	171.359	377.748	0.00037689	0.00038209	0.0001164	1238.6	4.0075e-06	3.8125e-06	1293.5	253.21	2.4826e-06	2.8232e-06	314.15	87.773	68.992	19.782	4.4507e-06	27.954	0.00021024	0.00019605	5.3041e-05	1211.1	2.1525e-06	2.0145e-06	1278.7	250.44	2.1904e-06	2.2139e-06	311.66	87.596	68.828	19.968	2.1749e-06	28.27	89.256	128.554	133.518	31.420	182.162	151.765	31.200	38.321	191.999	187.047	37.641	44.503	45.290	51.957	167.536	51.267	-8191	255	
#DATA ENDS
