BOXY.EXE: ISS Imagent and Oximeter Data Acquisition Program Version 0.80
Ascii Record File

#ACQ INFORMATION
2  Detector Channels 
16  External MUX Channels 
1  Auxiliary Channels 
5000  Waveform (CCF) Frequency (Hz)
1  Waveforms Skipped 
30  Waveforms Averaged 
1  Cycles Averaged 
16  Acquisitions per Waveform 
10.0806  Updata Rate (Hz) 

#FILE INFORMATION
TRUE -- External MUX Channel results are PARSED.
FALSE -- AC DC and Phase are NOT grouped.
TRUE -- Companion Program Settings File CREATED.
FALSE -- AC data not excluded
FALSE -- DC data not excluded
FALSE -- Phase data not excluded
FALSE -- Auxillary Chn. data not excluded
Tab delimiters

#CALIBRATION STATE
TRUE -- Waveform Calibration Values APPLIED.


#AUX CALIBRATION VALUES
Val Type	aux-1	

Term	1.0000e+00	
Factor	0.0000e+00	


#WF CALIBRATION VALUES
A = Detector Channel
Val Type	A-AC1	A-AC2	A-AC3	A-AC4	A-AC5	A-AC6	A-AC7	A-AC8	A-AC9	A-AC10	A-AC11	A-AC12	A-AC13	A-AC14	A-AC15	A-AC16	A-DC1	A-DC2	A-DC3	A-DC4	A-DC5	A-DC6	A-DC7	A-DC8	A-DC9	A-DC10	A-DC11	A-DC12	A-DC13	A-DC14	A-DC15	A-DC16	A-Ph1	A-Ph2	A-Ph3	A-Ph4	A-Ph5	A-Ph6	A-Ph7	A-Ph8	A-Ph9	A-Ph10	A-Ph11	A-Ph12	A-Ph13	A-Ph14	A-Ph15	A-Ph16	

Term	0.00000e+00	0.00000e+00	0.00000e+00	0.00000e+00	0.00000e+00	0.00000e+00	0.00000e+00	0.00000e+00	0.00000e+00	0.00000e+00	0.00000e+00	0.00000e+00	0.00000e+00	0.00000e+00	0.00000e+00	0.00000e+00	0.00000e+00	0.00000e+00	0.00000e+00	0.00000e+00	0.00000e+00	0.00000e+00	0.00000e+00	0.00000e+00	0.00000e+00	0.00000e+00	0.00000e+00	0.00000e+00	0.00000e+00	0.00000e+00	0.00000e+00	0.00000e+00	0.00000e+00	0.00000e+00	0.00000e+00	0.00000e+00	0.00000e+00	0.00000e+00	0.00000e+00	0.00000e+00	0.00000e+00	0.00000e+00	0.00000e+00	0.00000e+00	0.00000e+00	0.00000e+00	0.00000e+00	0.00000e+00	
Factor	1.00000e+00	1.00000e+00	1.00000e+00	1.00000e+00	1.00000e+00	1.00000e+00	1.00000e+00	1.00000e+00	1.00000e+00	1.00000e+00	1.00000e+00	1.00000e+00	1.00000e+00	1.00000e+00	1.00000e+00	1.00000e+00	1.00000e+00	1.00000e+00	1.00000e+00	1.00000e+00	1.00000e+00	1.00000e+00	1.00000e+00	1.00000e+00	1.00000e+00	1.00000e+00	1.00000e+00	1.00000e+00	1.00000e+00	1.00000e+00	1.00000e+00	1.00000e+00	X	X	X	X	X	X	X	X	X	X	X	X	X	X	X	X	

B = Detector Channel
Val Type	B-AC1	B-AC2	B-AC3	B-AC4	B-AC5	B-AC6	B-AC7	B-AC8	B-AC9	B-AC10	B-AC11	B-AC12	B-AC13	B-AC14	B-AC15	B-AC16	B-DC1	B-DC2	B-DC3	B-DC4	B-DC5	B-DC6	B-DC7	B-DC8	B-DC9	B-DC10	B-DC11	B-DC12	B-DC13	B-DC14	B-DC15	B-DC16	B-Ph1	B-Ph2	B-Ph3	B-Ph4	B-Ph5	B-Ph6	B-Ph7	B-Ph8	B-Ph9	B-Ph10	B-Ph11	B-Ph12	B-Ph13	B-Ph14	B-Ph15	B-Ph16	

Term	0.00000e+00	0.00000e+00	0.00000e+00	0.00000e+00	0.00000e+00	0.00000e+00	0.00000e+00	0.00000e+00	0.00000e+00	0.00000e+00	0.00000e+00	0.00000e+00	0.00000e+00	0.00000e+00	0.00000e+00	0.00000e+00	0.00000e+00	0.00000e+00	0.00000e+00	0.00000e+00	0.00000e+00	0.00000e+00	0.00000e+00	0.00000e+00	0.00000e+00	0.00000e+00	0.00000e+00	0.00000e+00	0.00000e+00	0.00000e+00	0.00000e+00	0.00000e+00	-1.65095e+02	-1.36760e+02	-1.28228e+02	-1.79802e+02	-7.58801e+01	-8.06562e+01	-1.58085e+02	-1.62015e+02	-8.34201e+01	-6.02352e+01	-1.69977e+02	-1.71992e+02	-1.83057e+02	-1.76155e+02	-6.30896e+01	-1.48803e+02	
Factor	2.68855e-05	1.33963e-04	4.06587e-05	1.73064e-01	1.18092e-06	1.38058e-06	1.79830e-01	6.39379e-02	1.39152e-06	1.46583e-06	8.33553e-02	3.13931e-02	2.72019e-02	8.97484e-03	1.12261e-06	1.30680e-02	1.59552e-06	1.68252e-06	4.69401e-07	8.55044e-02	1.82819e-08	1.84544e-08	8.38191e-02	3.15264e-02	1.83315e-08	1.84551e-08	3.98753e-02	1.49757e-02	1.33735e-02	4.44832e-03	1.83795e-08	6.25309e-03	X	X	X	X	X	X	X	X	X	X	X	X	X	X	X	X	



#DISTANCE SETTINGS
A = Detector Channel
A-1	A-2	A-3	A-4	A-5	A-6	A-7	A-8	A-9	A-10	A-11	A-12	A-13	A-14	A-15	A-16	

2.5000e+00	3.0000e+00	2.5000e+00	3.0000e+00	2.0000e+00	3.0000e+00	1.5000e+00	3.0000e+00	3.0000e+00	3.0000e+00	3.0000e+00	3.0000e+00	3.0000e+00	3.0000e+00	1.5000e+00	3.0000e+00	

B = Detector Channel
B-1	B-2	B-3	B-4	B-5	B-6	B-7	B-8	B-9	B-10	B-11	B-12	B-13	B-14	B-15	B-16	

1.0000e+01	1.0000e+01	1.0000e+01	1.4400e+00	1.0000e+01	1.0000e+01	1.5100e+00	1.9400e+00	1.0000e+01	1.0000e+01	1.9900e+00	2.4900e+00	2.4100e+00	2.9000e+00	1.0000e+01	2.9800e+00	




#DATA BEGINS
time	group	step	mark	flag	A-AC1	A-AC2	A-AC3	A-AC4	A-AC5	A-AC6	A-AC7	A-AC8	A-AC9	A-AC10	A-AC11	A-AC12	A-AC13	A-AC14	A-AC15	A-AC16	A-DC1	A-DC2	A-DC3	A-DC4	A-DC5	A-DC6	A-DC7	A-DC8	A-DC9	A-DC10	A-DC11	A-DC12	A-DC13	A-DC14	A-DC15	A-DC16	A-Ph1	A-Ph2	A-Ph3	A-Ph4	A-Ph5	A-Ph6	A-Ph7	A-Ph8	A-Ph9	A-Ph10	A-Ph11	A-Ph12	A-Ph13	A-Ph14	A-Ph15	A-Ph16	B-AC1	B-AC2	B-AC3	B-AC4	B-AC5	B-AC6	B-AC7	B-AC8	B-AC9	B-AC10	B-AC11	B-AC12	B-AC13	B-AC14	B-AC15	B-AC16	B-DC1	B-DC2	B-DC3	B-DC4	B-DC5	B-DC6	B-DC7	B-DC8	B-DC9	B-DC10	B-DC11	B-DC12	B-DC13	B-DC14	B-DC15	B-DC16	B-Ph1	B-Ph2	B-Ph3	B-Ph4	B-Ph5	B-Ph6	B-Ph7	B-Ph8	B-Ph9	B-Ph10	B-Ph11	B-Ph12	B-Ph13	B-Ph14	B-Ph15	B-Ph16	aux-1	digaux	

1211.554	1	1	0	768	0.13752	0.050764	0.045262	0.1864	0.082981	0.11214	0.10146	0.17662	0.13668	0.33321	0.083779	0.17246	0.045932	0.26091	0.030498	0.15578	-3.2938	-3.8521	-3.875	-3.8	-4.0563	-3.8875	-3.7313	-4.0729	-3.7208	-3.6729	-3.9542	-3.6292	-3.7479	-3.5312	-3.2833	-3.9938	255.690	71.293	-15.231	270.082	45.991	122.944	230.071	237.850	40.215	2.698	16.012	261.274	15.985	289.195	286.563	288.335	0.00030454	0.00042853	0.00014163	1349.4	1.6822e-06	2.9462e-06	1345.6	366.52	6.0912e-06	6.1693e-06	418.55	139.93	121.69	42.19	4.3854e-06	52.274	0.00035053	0.00033833	8.5161e-05	1348.1	3.7675e-06	3.5619e-06	1347.7	366.52	3.749e-06	3.553e-06	418.12	141.28	122.9	42.637	3.3801e-06	52.649	106.824	23.227	60.965	-42.435	98.008	65.979	-42.554	-37.998	104.583	116.069	-38.493	-34.177	-33.824	-28.939	108.316	-29.833	-8191	255	
1211.650	1	1	0	0	0.092166	0.089065	0.12766	0.37272	0.2063	0.045985	0.1067	0.1361	0.082456	0.14328	0.35809	0.21387	0.28956	0.37148	0.21898	0.18211	-3.4146	-3.5854	-3.7958	-3.6646	-3.8333	-3.8917	-3.5708	-4.0125	-3.4188	-3.475	-3.8458	-3.3521	-4.0271	-3.7771	-3.5271	-3.9021	157.109	235.280	69.490	289.538	9.263	166.503	17.217	260.034	-41.080	173.122	260.084	-53.287	215.250	246.862	130.353	200.500	0.00026273	0.00043914	5.4758e-05	1345.3	4.7308e-06	5.3733e-06	1346.8	363.56	3.7358e-06	3.8358e-06	415.26	138.71	120.7	42.022	3.4939e-06	52	0.00034893	0.00032094	8.2135e-05	1347.5	3.8134e-06	3.518e-06	1346.3	365.32	3.7874e-06	3.5751e-06	415.86	140.45	121.74	42.313	3.4574e-06	52.395	95.069	40.223	22.685	-42.470	-33.525	40.366	-42.485	-37.971	23.203	150.771	-38.421	-33.940	-33.661	-28.996	136.929	-29.602	-8191	255	
1211.746	1	1	0	0	0.10347	0.15879	0.2098	0.1254	0.033425	0.086245	0.26509	0.15843	0.19787	0.15649	0.36506	0.051167	0.37736	0.1764	0.035438	0.41632	-3.025	-3.5896	-3.9292	-3.6542	-3.9813	-3.8229	-3.5812	-3.8146	-3.6021	-3.4625	-3.8833	-3.5667	-3.5583	-4.0521	-3.3604	-3.7438	79.994	33.694	-44.348	214.838	-40.988	229.111	224.048	233.705	267.423	40.829	251.825	215.994	-11.117	275.491	123.964	-53.055	0.00021329	0.00013768	6.0391e-05	1336.7	2.4809e-06	6.4877e-06	1336	361.39	2.2352e-06	1.8056e-06	417.23	138.97	121.15	41.872	5.211e-06	51.889	0.00035951	0.00034147	8.7518e-05	1341.7	4.1366e-06	3.8108e-06	1343.8	364.61	4.371e-06	4.2714e-06	417.96	141.33	122.5	42.477	4.5996e-06	53.04	107.355	49.504	-6.017	-42.573	104.161	108.449	-42.593	-38.009	83.033	76.583	-38.460	-34.297	-33.800	-28.834	151.437	-29.750	-8191	255	
1211.843	1	1	0	0	0.15626	0.1118	0.20319	0.25865	0.18835	0.071944	0.27184	0.1028	0.19167	0.15608	0.27343	0.16921	0.11558	0.17718	0.23614	0.029954	-3.3729	-3.5708	-3.8312	-3.5875	-3.8187	-3.75	-3.5312	-3.8625	-3.6521	-3.4562	-3.8063	-3.6167	-3.7271	-3.8625	-3.225	-3.8521	51.525	-1.924	96.627	275.029	254.580	123.861	271.779	-9.595	287.131	87.408	-28.840	265.684	5.949	-18.925	143.785	1.145	0.00027682	0.00025931	0.00018859	1359.2	3.6301e-06	4.9399e-06	1358.1	365.9	2.2708e-06	8.0324e-06	418.09	139.13	121.73	42.015	4.1043e-06	52.173	0.00045751	0.00045118	0.00012519	1373.2	5.4921e-06	5.0743e-06	1373.3	371.47	5.7228e-06	5.5794e-06	424.56	143.27	124.15	42.991	6.369e-06	53.644	105.215	-6.203	23.532	-42.498	106.458	107.076	-42.552	-38.145	51.920	112.205	-38.482	-34.219	-33.818	-28.886	137.077	-29.888	-8191	255	
1211.939	1	1	0	0	0.090518	0.05478	0.096767	0.30721	0.13777	0.0080028	0.30058	0.062824	0.20225	0.30788	0.42206	0.50746	0.13863	0.12121	0.11692	0.15083	-3.1083	-3.3271	-3.7979	-3.5812	-3.5875	-3.9396	-3.6833	-3.925	-3.7521	-3.3917	-3.9313	-3.7583	-3.5542	-4.0125	-3.3042	-3.8354	72.056	196.251	292.900	231.712	149.002	-18.361	237.408	287.611	54.559	-7.824	285.545	263.343	-54.107	200.196	268.829	296.209	0.00013746	0.00035228	0.00030626	1375.8	5.7103e-06	5.0511e-06	1369.5	367.57	5.3341e-06	6.804e-06	422	138.81	121.7	42.156	4.2925e-06	52.265	0.00055784	0.00054974	0.00016381	1391.4	6.3773e-06	5.7935e-06	1390.1	374.84	6.1518e-06	6.0054e-06	428.76	143.28	124.47	43.159	6.6961e-06	53.62	107.160	269.335	56.418	-42.475	136.195	100.898	-42.464	-37.875	46.369	153.896	-38.497	-34.385	-33.566	-29.201	249.399	-29.688	-8191	255	
1212.035	1	1	0	0	0.23975	0.059882	0.24317	0.14989	0.13939	0.40488	0.33934	0.21476	0.22986	0.18824	0.040066	0.27002	0.14769	0.12255	0.21536	0.15982	-3.5062	-3.4062	-3.7354	-3.7771	-3.575	-3.6979	-3.5521	-3.8542	-3.6833	-3.6	-3.9625	-3.6292	-3.625	-4.1021	-3.5042	-3.7917	225.010	11.579	263.610	266.512	249.256	182.936	271.960	245.165	12.931	50.628	249.582	245.088	294.174	-55.554	245.706	238.338	0.00022417	0.00044549	9.8141e-05	1376.8	2.3787e-06	6.1232e-06	1365	367.02	3.4376e-06	3.7399e-06	420.13	140	121.23	42.155	5.6303e-06	51.924	0.00054045	0.00053709	0.00017031	1388.9	6.0069e-06	5.7188e-06	1387.1	373.25	5.722e-06	5.8187e-06	427.54	142.94	124.03	43.017	6.2462e-06	53.329	94.554	12.806	-49.692	-42.664	78.811	84.194	-42.553	-37.755	77.247	98.360	-38.400	-34.144	-33.566	-29.105	95.801	-29.548	-8191	255	
1212.154	1	1	0	0	0.11478	0.21444	0.081401	0.054673	0.10472	0.34539	0.24884	0.14585	0.11219	0.067577	0.16012	0.33888	0.081464	0.1304	0.058037	0.12251	-3.5979	-3.4458	-3.7958	-3.8812	-3.5187	-3.8896	-3.6896	-3.9229	-4.2521	-3.5812	-4.0229	-3.8083	-3.6417	-4.1875	-3.8417	-3.7938	40.270	85.860	96.900	227.051	228.986	214.645	219.230	209.788	21.887	287.122	251.944	-48.459	33.151	220.518	8.836	132.815	0.00020453	0.00021099	0.0002167	1371.8	4.5184e-06	5.0791e-06	1363.9	366.91	5.5848e-06	3.3006e-06	419.28	140.24	121.24	42.202	4.8531e-06	51.679	0.00047326	0.00049948	0.00015123	1381.8	5.039e-06	5.2095e-06	1380	371.13	4.7162e-06	5.249e-06	425.19	142.11	123.19	42.87	5.4191e-06	52.878	119.877	134.259	48.061	-42.336	134.759	126.722	-42.515	-37.868	89.856	88.794	-38.187	-34.247	-33.521	-28.876	70.992	-29.715	-8191	255	
1212.250	1	1	0	0	0.13187	0.12482	0.055835	0.18818	0.15723	0.046655	0.1428	0.23117	0.07771	0.10308	0.2924	0.14887	0.22917	0.27833	0.14754	0.1285	-3.8667	-3.7188	-3.7146	-4.2104	-3.5646	-3.8479	-4.0312	-3.5208	-4	-3.5729	-3.7458	-3.8854	-3.6104	-4.1375	-3.9354	-3.7271	167.811	89.835	249.833	234.168	101.615	30.175	216.603	288.386	215.681	-6.359	252.275	263.771	190.781	-45.988	92.702	291.030	0.00028187	0.00026229	0.00013737	1365.5	5.9434e-06	6.3262e-06	1358.3	365.3	3.1094e-06	2.6935e-06	419.64	139.19	121.21	42.304	4.8899e-06	52.071	0.00042154	0.00048268	0.00013642	1373.1	4.6914e-06	5.2181e-06	1372.1	370.04	4.5344e-06	5.2607e-06	423.13	141.49	122.84	42.866	5.01e-06	52.835	103.180	74.296	48.471	-42.496	78.348	110.144	-42.593	-38.125	127.659	135.138	-38.295	-34.070	-33.371	-29.171	111.978	-29.511	-8191	255	
1212.346	1	1	0	0	0.072579	0.16321	0.013082	0.24379	0.11346	0.086476	0.12516	0.30424	0.13228	0.18533	0.1513	0.19345	0.18634	0.26149	0.1353	0.1308	-3.6958	-3.65	-3.8271	-4.1083	-3.6	-3.7917	-3.6188	-3.5354	-3.775	-3.35	-3.7583	-3.8708	-3.6562	-3.8375	-3.8792	-3.6333	-19.756	264.207	279.487	241.840	181.938	18.501	113.926	251.059	110.190	-19.142	259.233	16.218	262.406	293.041	-25.102	-7.062	0.000263	0.00035719	0.00018019	1365.4	1.6917e-06	6.2144e-06	1357.2	363.74	5.5882e-06	6.4677e-06	418.28	139.44	120.93	42.076	1.4658e-06	51.994	0.00041914	0.0004799	0.00012812	1369.7	4.6311e-06	5.2527e-06	1370.2	368.78	4.655e-06	5.2557e-06	421.82	141.25	122.86	42.865	4.7464e-06	52.765	110.146	18.114	5.723	-42.790	189.073	67.598	-42.488	-37.826	148.534	179.494	-38.154	-34.243	-33.664	-28.882	79.900	-29.661	-8191	255	
1212.442	1	1	0	0	0.2354	0.1131	0.11834	0.11947	0.12139	0.21131	0.13903	0.21725	0.24842	0.071564	0.070755	0.050369	0.15593	0.20486	0.12479	0.18639	-3.5271	-3.55	-3.5083	-3.8292	-3.2792	-3.8708	-3.8875	-3.4542	-3.8521	-3.7167	-3.7062	-3.9583	-3.5667	-3.7875	-3.8167	-3.4542	84.839	229.955	155.208	267.209	211.222	210.349	36.454	280.692	63.425	56.792	174.460	148.450	270.446	282.566	59.639	277.238	0.00029914	0.00028821	0.00010066	1364.5	1.6189e-06	5.2899e-06	1359.2	365.88	4.4841e-06	3.488e-06	418.54	139.16	121.56	42.221	3.3309e-06	52.078	0.00043666	0.00047464	0.00012255	1370.1	4.9541e-06	5.1858e-06	1369.7	368.88	4.8902e-06	5.0393e-06	420.81	141.04	123	42.851	4.482e-06	52.721	126.097	48.807	-1.776	-42.518	125.768	73.659	-42.476	-37.975	244.711	85.000	-38.312	-34.137	-33.625	-28.892	134.386	-29.705	-8191	255	
1212.538	1	1	0	0	0.081269	0.11025	0.11414	0.14434	0.24132	0.21965	0.14792	0.21875	0.21453	0.23055	0.16199	0.054193	0.066451	0.19337	0.13434	0.23465	-3.6292	-3.6396	-3.4542	-4.0396	-3.4042	-3.3979	-3.925	-3.3646	-3.7125	-3.65	-3.3917	-3.9396	-3.6854	-3.7604	-3.6354	-3.6583	208.484	52.720	297.433	243.321	42.740	167.744	148.603	272.823	-34.478	187.766	242.601	240.053	239.542	285.205	71.356	244.677	0.0003032	0.000547	0.00012917	1364.1	2.4916e-06	4.1129e-06	1356.4	363.54	3.1743e-06	3.1878e-06	418.84	138.74	120.73	42.078	2.0988e-06	51.824	0.00043755	0.00043083	0.00011375	1368.4	4.8025e-06	4.71e-06	1364.9	367.42	4.8652e-06	4.577e-06	420.84	140.96	122.89	42.677	4.1936e-06	52.667	101.826	4.999	-0.756	-42.584	157.011	41.576	-42.452	-37.920	139.930	120.066	-38.173	-34.188	-33.690	-28.939	157.712	-29.508	-8191	255	
1212.635	1	1	0	0	0.23512	0.11946	0.038452	0.34803	0.044016	0.081168	0.19765	0.12988	0.23392	0.096459	0.33035	0.24408	0.10647	0.20154	0.40248	0.38195	-3.4854	-3.7188	-3.4479	-3.8104	-3.5312	-3.6729	-3.875	-3.5083	-3.9042	-3.6979	-3.55	-3.8396	-3.6562	-3.5458	-3.9104	-3.5479	68.576	31.772	81.849	297.161	23.966	134.824	231.085	236.547	296.948	300.735	278.187	258.841	49.140	-47.887	-10.503	176.267	0.00018077	0.00031972	0.00011993	1362.8	2.0394e-06	4.7833e-06	1358.4	365.55	5.8014e-06	4.4696e-06	418.74	138.52	121.07	41.9	2.9012e-06	51.991	0.00044556	0.00040838	0.00011095	1367.8	4.9457e-06	4.5813e-06	1363.4	368.59	5.0178e-06	4.5469e-06	420.2	141.14	122.85	42.607	4.305e-06	52.887	110.789	47.225	45.606	-42.556	63.903	103.241	-42.578	-37.785	139.755	104.047	-38.396	-34.106	-33.692	-28.919	117.393	-29.507	-8191	255	
1212.731	1	1	0	0	0.16507	0.12575	0.051442	0.29696	0.089475	0.065656	0.069913	0.10687	0.086457	0.19404	0.23796	0.10278	0.16983	0.0058557	0.20073	0.10289	-3.4542	-3.6833	-3.4583	-4.2	-3.4437	-3.4083	-3.9229	-3.4938	-3.6937	-3.7313	-3.5812	-3.8333	-3.775	-3.6771	-3.8104	-3.525	-37.419	84.768	-54.392	282.654	275.217	-14.502	174.451	236.261	-31.345	18.361	235.947	28.673	165.508	227.060	88.294	192.223	0.00024654	0.00027411	0.00011212	1362.6	4.4952e-06	2.9218e-06	1356.2	364.13	4.9283e-06	3.6807e-06	418.12	138.71	120.95	41.82	2.119e-06	51.942	0.00046192	0.00042278	0.00011426	1369.9	5.0693e-06	4.7793e-06	1365.2	368.4	5.1606e-06	4.7445e-06	420.45	141.67	122.76	42.637	4.6021e-06	52.934	123.542	27.135	50.824	-42.652	68.650	114.706	-42.571	-37.766	36.561	122.708	-38.332	-33.920	-33.690	-29.113	189.970	-29.642	-8191	255	
1212.850	1	1	0	0	0.037661	0.042123	0.077588	0.38938	0.1104	0.11553	0.13278	0.078568	0.097979	0.23304	0.021722	0.039024	0.14399	0.074104	0.12247	0.29952	-3.4292	-3.7771	-3.3521	-3.95	-3.6437	-3.4188	-3.8625	-3.6604	-3.6146	-3.8521	-3.6354	-3.8	-3.7854	-3.5708	-3.9688	-3.7021	48.527	4.922	49.887	256.518	210.490	219.942	-47.583	270.649	51.059	173.748	-15.967	-21.631	283.456	278.522	35.966	221.050	0.00033721	0.00019349	0.00017704	1365.5	3.6688e-06	2.2653e-06	1357.5	366.56	1.0595e-05	2.971e-06	417.09	138.4	121.29	42.075	6.0134e-06	51.936	0.00047097	0.00042918	0.00012106	1373.3	5.1112e-06	4.8453e-06	1371.1	369.93	5.1657e-06	4.717e-06	421.33	141.77	122.88	42.704	4.9133e-06	53.026	111.161	282.651	95.695	-42.388	103.879	63.057	-42.470	-37.999	51.942	61.700	-38.349	-34.046	-33.681	-28.930	173.579	-29.956	-8191	255	
1212.946	1	1	0	0	0.10409	0.15869	0.22175	0.11106	0.12689	0.085704	0.19405	0.019423	0.13285	0.1504	0.20314	0.20924	0.079908	0.14387	0.19893	0.070662	-3.1354	-3.8937	-3.475	-3.9437	-3.5917	-3.2562	-4.1042	-3.6854	-3.5292	-3.9729	-3.7062	-3.8229	-3.925	-3.5333	-3.8792	-3.7667	220.481	51.186	142.418	79.168	207.722	295.848	224.895	10.723	300.322	91.212	285.364	282.065	-50.395	274.297	292.616	196.327	0.00018105	0.00063183	9.6422e-05	1363.5	3.9549e-06	3.1546e-06	1359.2	364.41	2.5671e-06	1.5734e-06	418.65	138.97	120.55	41.905	4.3369e-06	52.228	0.00046168	0.0004273	0.00013006	1373.7	4.984e-06	4.7739e-06	1371	369.25	5.0483e-06	4.5879e-06	422.52	141.74	122.61	42.582	5.3009e-06	53.092	112.933	16.399	118.737	-42.485	97.724	67.677	-42.529	-37.876	87.752	149.385	-38.471	-33.917	-33.636	-28.991	121.374	-29.359	-8191	255	
1213.042	1	1	0	0	0.15153	0.20149	0.099102	0.12557	0.12065	0.16886	0.18816	0.061601	0.20808	0.23334	0.27596	0.21958	0.18155	0.24849	0.08429	0.20233	-3.2479	-3.9896	-3.575	-3.8833	-3.6458	-3.5021	-3.9208	-3.7708	-3.625	-4.0771	-3.7604	-3.9354	-4.0167	-3.65	-3.7729	-3.5958	30.832	276.542	-42.183	187.445	43.714	160.699	196.032	275.924	221.739	-32.864	240.980	278.371	-0.678	219.738	86.815	228.243	0.00023999	0.00032183	0.00013935	1365.2	3.9692e-06	2.0425e-06	1357.6	365.49	5.5345e-06	1.2644e-06	416.54	138.56	120.63	41.81	2.5392e-06	52.084	0.0004617	0.00043135	0.00014029	1375.6	4.994e-06	4.9084e-06	1373.3	369.98	5.1953e-06	4.9031e-06	422.86	141.65	122.64	42.659	5.8483e-06	53.096	118.593	-17.334	49.319	-42.592	81.218	157.006	-42.647	-37.876	60.884	164.656	-38.313	-34.149	-33.430	-28.910	170.177	-29.660	-8191	255	
1213.115	1	1	0	0	0.16041	0.30768	0.089635	0.37817	0.28506	0.063054	0.082607	0.28024	0.16801	0.14228	0.17358	0.1715	0.098657	0.13564	0.053855	0.47599	-3.0479	-3.6833	-3.5812	-3.8063	-3.6979	-3.3875	-3.8021	-3.7167	-3.3875	-3.9917	-3.7458	-3.625	-3.9896	-3.4083	-3.8208	-3.8875	-52.414	223.270	270.786	232.250	246.785	45.852	177.807	174.471	262.536	24.574	248.983	188.118	245.949	235.339	90.172	280.180	0.0002056	0.00011633	0.0001212	1366.7	2.9583e-06	6.4303e-06	1364.7	365.28	3.4409e-06	4.4942e-06	420.25	139.26	121.23	42.069	4.3028e-06	51.878	0.00047286	0.00046897	0.00015021	1378.5	5.0443e-06	5.3585e-06	1379.8	370.12	5.1633e-06	5.3329e-06	424.49	142.17	122.83	42.948	5.8432e-06	53.008	97.628	-38.001	32.505	-42.687	178.630	109.197	-42.510	-37.869	75.158	299.257	-38.531	-33.865	-33.790	-28.755	71.185	-29.711	-8191	255	
1213.234	1	1	0	0	0.32003	0.1417	0.10346	0.27353	0.12995	0.084609	0.11376	0.15692	0.20913	0.1698	0.16904	0.27878	0.13162	0.050769	0.15481	0.21265	-3.0062	-3.8958	-3.5167	-3.6771	-3.8146	-3.5771	-3.9271	-3.8375	-3.2229	-3.7667	-3.7854	-3.5771	-3.9646	-3.6604	-3.5375	-3.8646	28.542	143.316	262.778	288.899	294.364	121.036	291.648	3.935	137.936	121.349	269.149	226.193	282.507	-30.430	-50.991	140.785	0.00022005	0.00019159	0.00020812	1368.3	4.9637e-06	1.7328e-06	1365.1	366.98	9.0724e-07	7.2895e-06	419.35	138.82	121.36	42.112	2.3998e-06	52.118	0.00046415	0.00050504	0.00014806	1380	4.9682e-06	5.7033e-06	1380.8	370.4	5.1973e-06	5.7575e-06	424.2	142.12	123.15	43.072	5.7833e-06	53.054	106.795	152.375	9.162	-42.562	102.739	67.077	-42.532	-37.934	112.797	166.160	-38.414	-34.103	-33.811	-29.043	116.282	-29.636	-8191	255	
1213.330	1	1	0	0	0.11542	0.23856	0.025427	0.18428	0.02876	0.036118	0.27616	0.091662	0.089841	0.2206	0.20902	0.16779	0.11372	0.19682	0.10839	0.23569	-3.1042	-3.7625	-3.6958	-3.5833	-3.95	-3.6583	-3.8688	-3.775	-3.3458	-3.8708	-3.55	-3.5396	-3.9271	-3.5167	-3.5479	-3.7604	78.425	5.374	201.642	303.334	106.918	5.267	-32.053	-35.825	284.217	87.957	236.270	258.179	-52.979	-31.667	203.355	266.277	0.00033712	0.00043923	0.00015764	1375.8	3.4943e-06	3.5475e-06	1367.1	367.42	1.612e-06	2.158e-06	418.49	139.19	121.67	42.259	2.3568e-06	52.282	0.00047505	0.00053906	0.00014538	1382.3	5.1519e-06	6.0354e-06	1382.8	371.31	5.3703e-06	6.0726e-06	424.27	142.03	123.77	43.131	5.6646e-06	53.127	114.784	51.956	12.750	-42.441	131.098	171.093	-42.578	-37.916	115.332	296.320	-38.222	-34.183	-33.467	-28.868	91.521	-29.639	-8191	255	
1213.426	1	1	0	0	0.17692	0.064037	0.26588	0.33669	0.0094123	0.14425	0.31111	0.013278	0.1297	0.15269	0.1441	0.09654	0.30451	0.2306	0.067245	0.048841	-2.9667	-3.7854	-3.5271	-3.6292	-3.7583	-3.625	-3.5729	-4.0875	-3.4729	-3.7833	-4.0625	-3.4	-3.9562	-3.7917	-3.4896	-3.9313	-26.553	126.615	183.304	264.625	-32.323	25.210	251.219	132.036	-23.212	284.396	45.656	135.419	237.505	287.098	265.027	-40.948	0.00032574	0.0005116	0.0001309	1373.4	5.4372e-06	8.3247e-06	1369	367.28	3.2767e-06	6.0227e-06	419.33	139.91	121.35	42.193	2.4497e-06	52.354	0.0005112	0.00056559	0.00014476	1382.4	5.6911e-06	6.2255e-06	1384.7	371.38	5.9307e-06	6.2453e-06	424.72	142.51	124.22	43.22	5.7225e-06	53.253	114.934	-14.775	46.943	-42.309	163.691	68.877	-42.482	-37.975	160.165	127.070	-38.335	-34.163	-33.680	-29.043	191.846	-29.662	-8191	255	
1213.547	1	1	0	0	0.056119	0.078421	0.053721	0.21354	0.0029471	0.18676	0.27776	0.093721	0.21242	0.14179	0.045515	0.27035	0.21487	0.11647	0.12805	0.11521	-3.0375	-3.5583	-3.9417	-3.7562	-3.8479	-3.6	-3.5208	-3.9229	-3.5187	-3.6688	-3.8729	-3.6167	-3.8854	-3.7083	-3.5458	-3.9437	153.573	112.036	-34.689	258.604	133.650	49.469	249.298	230.292	125.480	154.676	-7.832	253.508	254.105	255.441	122.686	272.911	0.00025393	0.00032594	0.00017698	1377.7	1.9737e-06	5.6577e-06	1376.5	367.31	1.1521e-06	2.6729e-06	419.88	140.27	121.59	42.329	1.866e-06	52.441	0.00053895	0.00055235	0.00013864	1386.4	5.9429e-06	5.9114e-06	1386.6	371.65	5.9752e-06	5.8066e-06	425.19	142.75	124.51	43.245	5.4012e-06	53.36	117.368	-52.382	-1.784	-42.451	154.547	95.034	-42.468	-37.955	303.288	57.350	-38.302	-34.199	-33.472	-28.987	240.953	-29.770	-8191	255	
1213.643	1	1	0	0	0.12797	0.15402	0.11131	0.31703	0.093876	0.10138	0.32802	0.19771	0.13772	0.13686	0.075733	0.2391	0.13946	0.099465	0.12288	0.05111	-3.2333	-3.6708	-3.7792	-3.7271	-3.8917	-3.6875	-3.5792	-4.0354	-3.6542	-3.6708	-3.9875	-3.5938	-3.75	-3.7708	-3.4271	-4.0125	-12.411	178.290	-3.995	221.553	230.299	22.491	-54.400	284.068	86.862	282.887	92.541	-12.040	277.885	45.117	169.234	237.169	0.0001904	0.00045376	9.4098e-05	1379.6	6.0123e-06	3.5174e-06	1372.4	368.78	3.8745e-06	1.3412e-05	421.97	139.89	122.17	42.4	2.7868e-06	52.324	0.0005415	0.00052343	0.00013411	1391.1	6.0372e-06	5.6279e-06	1386.7	372.93	6.1221e-06	5.6973e-06	425.42	143.15	124.84	43.268	5.3221e-06	53.521	108.543	-35.849	9.412	-42.518	105.695	39.869	-42.636	-37.989	54.215	115.004	-38.299	-34.258	-33.493	-29.072	153.434	-29.636	-8191	255	
1213.715	1	1	0	0	0.046592	0.074757	0.070506	0.14236	0.16036	0.084141	0.31313	0.16393	0.20522	0.22282	0.076342	0.19418	0.015021	0.10118	0.19457	0.2303	-3.2562	-3.6229	-3.7062	-3.6688	-3.7229	-3.7646	-3.6167	-3.9958	-3.7646	-3.8125	-4.0792	-3.6292	-3.8063	-3.7354	-3.3792	-3.95	286.824	-5.505	129.065	-8.181	-5.168	56.712	175.668	264.598	267.136	269.060	-25.525	3.990	-16.111	268.483	88.912	197.173	0.00023769	0.00074702	0.00011738	1381.5	1.8476e-06	3.2198e-06	1374.9	367.88	1.5178e-06	5.2352e-06	421.33	140.53	122.33	42.474	3.8568e-06	52.613	0.00054287	0.00051428	0.00013134	1392.5	5.9517e-06	5.445e-06	1387	373.57	5.831e-06	5.5238e-06	425.35	143.58	124.73	43.258	5.2143e-06	53.723	99.148	-0.577	-7.167	-42.576	77.821	77.666	-42.665	-37.804	59.500	100.496	-38.385	-34.297	-33.807	-29.081	113.079	-29.751	-8191	255	
1213.836	1	1	0	0	0.11973	0.11627	0.075882	0.07681	0.12692	0.12584	0.075305	0.085584	0.14874	0.30979	0.089473	0.072915	0.1277	0.058374	0.036053	0.037195	-3.2708	-3.4375	-3.7292	-3.5917	-3.7958	-3.8958	-3.7188	-4.1312	-3.6833	-3.6021	-3.8917	-3.6625	-3.5312	-3.6146	-3.4104	-3.7479	128.657	277.435	82.864	160.511	124.769	67.731	143.907	103.966	23.403	191.236	284.963	-32.852	295.143	180.130	205.218	208.205	0.00018534	0.0006596	0.00019719	1377.3	4.3361e-06	3.8217e-06	1376.3	368.69	2.7474e-06	4.9276e-06	421.85	139.39	121.74	42.452	1.5157e-06	52.511	0.00051831	0.00050102	0.00013192	1392.5	5.8743e-06	5.3337e-06	1388.3	374.18	5.7483e-06	5.5665e-06	425.27	143.56	124.56	43.22	5.5481e-06	53.786	102.059	-4.917	31.107	-42.433	130.666	45.264	-42.524	-37.926	116.515	112.776	-38.397	-34.391	-33.371	-29.089	128.630	-29.637	-8191	255	
1213.932	1	1	0	0	0.038145	0.083537	0.22754	0.13234	0.13566	0.11978	0.1312	0.096072	0.32231	0.21762	0.09857	0.15831	0.083655	0.25483	0.044941	0.27613	-3.2104	-3.4854	-3.6604	-3.7896	-3.5021	-3.9	-3.6646	-4.0229	-3.7396	-3.3646	-3.75	-3.5417	-3.625	-3.9583	-3.3792	-3.725	104.182	-15.775	208.391	288.856	148.716	238.645	260.651	192.296	35.175	26.251	284.116	107.978	256.102	253.853	115.629	202.609	0.00021883	0.00047229	8.1642e-05	1378.1	2.3664e-06	3.5922e-06	1372.5	368.66	5.6948e-06	3.3827e-06	418.39	140.25	122.59	42.402	3.4872e-06	52.28	0.00050637	0.00049631	0.00014127	1393.8	5.655e-06	5.1465e-06	1388.1	374.43	5.5551e-06	5.3867e-06	425.87	143.61	124.79	43.136	5.8683e-06	53.699	118.466	31.173	12.821	-42.508	133.817	87.150	-42.494	-37.895	140.799	71.457	-38.506	-34.104	-33.798	-28.949	135.206	-29.727	-8191	255	
1214.026	1	1	0	0	0.22102	0.22431	0.44417	0.20952	0.24792	0.10442	0.11738	0.2489	0.11758	0.30956	0.03505	0.10539	0.30973	0.30688	0.19028	0.24589	-3.3625	-3.4167	-3.8479	-3.6896	-3.6104	-3.8812	-3.575	-3.8375	-3.625	-3.4042	-3.925	-3.6458	-3.325	-3.8375	-3.3792	-3.5938	141.476	95.632	61.677	243.079	81.954	198.459	145.222	269.199	38.846	-22.025	-20.323	7.637	-31.807	264.978	64.369	193.973	0.00023057	0.00060444	7.7128e-05	1380.9	1.3209e-06	5.2427e-06	1376.1	368.33	2.71e-06	4.6456e-06	421.68	141.01	122.2	42.433	3.7405e-06	52.517	0.00049649	0.00048944	0.00015136	1393.1	5.7093e-06	5.2661e-06	1393.3	374.7	5.5744e-06	5.5158e-06	428.5	144.02	124.84	43.278	6.2775e-06	53.74	126.410	17.480	16.481	-42.302	77.626	82.188	-42.583	-38.007	48.203	127.847	-38.491	-34.409	-33.736	-29.004	33.664	-29.812	-8191	255	
1214.147	1	1	0	0	0.26878	0.11271	0.19728	0.34942	0.12594	0.29636	0.21076	0.12082	0.1213	0.19717	0.15323	0.043865	0.28742	0.20938	0.14601	0.13835	-3.3625	-3.3667	-3.5563	-3.8125	-3.4583	-3.9417	-3.7271	-3.7687	-3.7917	-3.3146	-3.675	-3.5979	-3.325	-3.7771	-3.3771	-3.6542	81.061	222.424	270.462	-25.885	-15.004	222.333	302.099	270.300	-33.214	0.558	295.079	28.637	251.864	-47.394	229.261	-4.965	0.00022185	0.00017851	0.0001201	1379.7	2.5387e-06	4.5223e-06	1374.2	369.54	3.7473e-06	5.127e-06	421.85	140.03	122.51	42.406	6.642e-06	52.597	0.00049926	0.00051535	0.00016179	1393.1	5.7155e-06	5.6819e-06	1394.3	375.02	5.5705e-06	5.9573e-06	428.66	143.68	124.76	43.395	6.3946e-06	53.741	110.876	96.746	69.582	-42.432	87.551	176.091	-42.663	-37.979	65.769	153.203	-38.589	-34.244	-33.701	-29.214	42.410	-29.495	-8191	255	
1214.243	1	1	0	0	0.074662	0.027522	0.25861	0.26805	0.091557	0.16999	0.083872	0.21039	0.14071	0.067881	0.081416	0.24474	0.11587	0.12087	0.18569	0.2223	-3.3625	-3.2833	-3.7229	-3.8583	-3.3479	-3.7208	-3.9104	-3.6875	-3.8958	-3.3479	-3.7333	-3.9583	-3.5625	-3.9021	-3.575	-3.6729	206.656	185.225	189.959	282.839	-41.461	70.769	192.814	263.034	48.218	235.152	9.323	13.979	292.155	13.620	130.420	202.795	0.00026475	0.00075177	0.00026139	1388.1	3.0474e-06	4.4431e-06	1378.1	369.78	3.2154e-06	8.1606e-06	422.57	140.94	122.75	42.738	5.7482e-06	52.576	0.00049142	0.00053981	0.00015879	1396.6	5.4346e-06	5.8859e-06	1395.5	374.62	5.1741e-06	5.9221e-06	428.26	143.6	124.68	43.514	5.8682e-06	53.59	111.705	41.712	-5.634	-42.473	189.878	165.626	-42.444	-38.135	43.798	119.903	-38.397	-34.369	-33.649	-28.962	113.829	-29.501	-8191	255	
1214.339	1	1	0	0	0.13459	0.049829	0.13254	0.21799	0.14345	0.12206	0.14341	0.14606	0.074598	0.072382	0.074625	0.23615	0.22897	0.08836	0.13091	0.21217	-3.5729	-3.5896	-3.5854	-4.0104	-3.4604	-3.9375	-3.775	-3.5187	-3.8646	-3.6896	-3.7812	-3.7667	-3.5729	-3.8958	-3.6958	-3.4875	-22.034	301.834	198.707	250.611	251.700	211.791	239.658	184.296	278.218	138.630	-24.734	-5.095	249.234	41.999	130.357	173.934	0.00022343	0.00047427	0.0002387	1377.6	2.8025e-06	5.0536e-06	1378.3	368.25	2.418e-06	8.7643e-06	420.43	140.04	122.59	42.457	3.9218e-06	52.365	0.00046585	0.00054626	0.00014738	1390.2	5.2181e-06	5.8371e-06	1392.3	373.11	5.0609e-06	5.9206e-06	426.55	142.86	124.4	43.373	5.541e-06	53.318	128.217	19.916	-12.960	-42.527	117.671	154.831	-42.553	-37.872	-7.401	99.194	-38.424	-34.288	-33.649	-28.884	124.698	-29.654	-8191	255	
1214.411	1	1	0	0	0.13175	0.24378	0.2302	0.19834	0.11876	0.26419	0.15161	0.34315	0.1309	0.10291	0.18898	0.097222	0.20599	0.26314	0.16761	0.183	-3.4458	-3.4896	-3.4583	-4.0271	-3.4833	-3.7687	-4.0146	-3.4125	-3.7792	-3.4604	-3.6896	-3.8271	-3.6729	-3.7271	-3.7854	-3.4458	28.687	71.509	41.052	-46.221	51.080	-11.604	259.215	254.601	-33.635	125.566	228.105	-23.998	209.540	250.037	104.869	196.947	0.00034267	0.00053947	0.00019073	1380	3.3857e-06	2.6615e-06	1375	368.51	4.4847e-06	3.5966e-06	420.57	140.07	122	42.201	3.5363e-06	52.225	0.00047433	0.00054388	0.00013914	1387.5	5.3919e-06	5.8704e-06	1389.6	372.61	5.3331e-06	5.8702e-06	426.15	142.63	124.26	43.232	5.2726e-06	53.256	109.380	26.253	-1.250	-42.423	123.241	95.736	-42.589	-37.891	137.060	151.859	-38.481	-34.201	-33.754	-29.177	146.607	-29.734	-8191	255	
1214.531	1	1	0	0	0.10396	0.019259	0.031393	0.28256	0.11196	0.26023	0.17225	0.17073	0.10484	0.047465	0.35102	0.18645	0.16769	0.21122	0.19512	0.19574	-3.3667	-3.5917	-3.5208	-4.2146	-3.5021	-3.8271	-3.8958	-3.4062	-3.8458	-3.6813	-3.5438	-3.7167	-3.5667	-3.7062	-3.6958	-3.5083	169.029	176.118	116.698	302.870	275.649	-9.102	206.106	176.374	49.488	210.672	258.782	301.631	265.205	283.261	229.727	279.024	0.00028628	0.00016378	0.000252	1378.8	1.4476e-06	3.5244e-06	1371.8	368.54	2.8845e-06	8.9441e-06	420.71	140.31	121.65	42.314	5.824e-06	52.344	0.00049758	0.00052214	0.00013707	1385.1	5.7016e-06	5.7515e-06	1384.7	371.85	5.5901e-06	5.6324e-06	424.9	142.7	124.41	43.182	5.0219e-06	53.224	102.100	-33.753	46.416	-42.625	239.705	55.099	-42.527	-38.037	72.062	108.276	-38.242	-34.087	-33.716	-28.927	74.745	-29.515	-8191	255	
1214.627	1	1	0	0	0.031072	0.11401	0.23111	0.25201	0.22473	0.098821	0.19801	0.03702	0.04987	0.10461	0.098647	0.17035	0.072765	0.20375	0.18658	0.24962	-3.4646	-3.5271	-3.575	-4.1792	-3.7	-3.5854	-3.9458	-3.6125	-3.7812	-3.5312	-3.4917	-3.7667	-3.5958	-3.6229	-4.0146	-3.3542	71.397	-41.361	210.171	-51.423	275.687	288.192	207.424	41.467	285.812	296.292	262.783	250.230	2.066	236.855	211.555	274.508	0.00023251	0.00033939	9.1798e-05	1380.5	4.3103e-06	5.6522e-06	1370	365.45	1.8925e-06	4.6609e-06	420.99	140.08	121.71	42.206	6.4908e-06	52.399	0.00050967	0.00048916	0.0001301	1385.7	5.6389e-06	5.3006e-06	1381.3	370.97	5.5731e-06	5.1124e-06	424.13	142.54	124.1	43.081	4.8106e-06	53.268	123.108	22.649	9.521	-42.413	55.616	40.095	-42.518	-37.904	114.946	85.858	-38.459	-34.134	-33.567	-28.830	42.051	-29.624	-8191	255	
1214.724	1	1	0	0	0.040769	0.15586	0.085028	0.15669	0.06053	0.15718	0.26838	0.2582	0.13925	0.1624	0.19045	0.26534	0.17248	0.054441	0.16159	0.23161	-3.3083	-3.8292	-3.4375	-4.1125	-3.6937	-3.7313	-4.2229	-3.5542	-3.8125	-3.7229	-3.5625	-4.0188	-3.7167	-3.7958	-3.8292	-3.6896	182.658	4.179	259.688	288.120	122.374	210.136	233.405	220.581	279.311	-6.445	243.402	277.917	48.120	6.797	-54.228	-18.796	0.00024499	0.00046016	0.00012907	1376	2.2592e-06	5.761e-06	1374.7	367.96	3.6977e-06	4.2513e-06	420.9	139.56	121.91	42.347	2.3358e-06	52.092	0.00050083	0.00046304	0.0001229	1385.7	5.474e-06	5.1448e-06	1381.6	371.85	5.5613e-06	5.057e-06	423.97	142.46	124.12	43.119	4.7488e-06	53.392	123.260	-15.147	12.185	-42.536	141.524	59.781	-42.475	-37.748	55.541	40.493	-38.587	-34.167	-33.403	-29.146	92.017	-29.714	-8191	255	
1214.820	1	1	0	0	0.25511	0.21486	0.033825	0.11733	0.11386	0.1282	0.27778	0.1715	0.041608	0.16645	0.21769	0.17789	0.23736	0.12877	0.067742	0.21583	-3.2271	-3.6917	-3.7042	-3.9854	-3.6229	-3.4208	-4.0354	-3.6229	-3.7521	-3.8312	-3.6	-3.7667	-3.7417	-3.5458	-3.8271	-3.5042	-4.748	201.792	-50.523	291.589	103.292	190.882	-46.921	-28.541	7.980	32.050	182.777	239.725	16.906	234.588	147.207	192.128	0.00022703	0.00071395	0.00015578	1380	3.0774e-06	7.1173e-06	1368.4	367.4	4.8823e-06	4.3471e-06	419.5	140.1	121.99	42.267	4.0787e-06	52.221	0.00050664	0.00045893	0.0001261	1390.4	5.4768e-06	5.1705e-06	1382.5	372.64	5.5283e-06	5.0122e-06	423.89	143.16	124.16	43.031	4.9472e-06	53.399	99.359	32.055	32.101	-42.440	93.166	42.757	-42.566	-38.016	67.556	97.576	-38.584	-34.024	-33.688	-28.947	139.389	-29.681	-8191	255	
1214.939	1	1	0	0	0.16543	0.28807	0.20361	0.44461	0.15363	0.18078	0.30245	0.096952	0.12449	0.0332	0.094151	0.14047	0.2408	0.27986	0.096264	0.012369	-3.1562	-3.7896	-3.5583	-4.0375	-3.4938	-3.5563	-3.9104	-3.5438	-3.5208	-3.5542	-3.4958	-3.8937	-3.6396	-3.6437	-3.7708	-3.6125	39.962	129.092	164.209	243.440	252.100	148.696	179.285	242.902	227.017	-51.266	-44.010	289.683	183.260	269.190	116.804	137.625	0.00025928	0.00055274	5.8111e-05	1377.4	4.8761e-06	7.8191e-06	1369.7	366.98	4.9795e-06	6.2941e-06	420.45	140.25	121.64	42.42	3.0918e-06	52.339	0.00048562	0.00044687	0.00012979	1390.6	5.2432e-06	5.0033e-06	1383.5	372.45	5.2973e-06	4.8103e-06	425.34	143.14	123.81	43.033	5.2894e-06	53.368	92.670	15.565	186.311	-42.357	124.244	67.379	-42.362	-38.004	109.112	80.184	-38.358	-34.225	-33.691	-29.136	9.024	-29.685	-8191	255	
1215.012	1	1	0	0	0.2569	0.15682	0.16745	0.11298	0.068837	0.12149	0.22238	0.22014	0.13968	0.24255	0.24985	0.21033	0.098618	0.11212	0.1779	0.18167	-3.1708	-3.7562	-3.3333	-3.775	-3.8312	-3.4417	-4.0521	-3.6396	-3.4542	-3.7687	-3.5187	-3.675	-3.65	-3.4813	-3.6208	-3.7208	212.346	144.482	-47.093	-31.148	-26.333	298.356	229.358	-39.097	201.629	125.963	262.384	252.842	-17.341	288.047	145.850	275.743	0.00025383	0.00047627	8.6028e-05	1374.2	5.9512e-06	5.5674e-06	1371.2	366.96	3.4009e-06	4.0259e-06	421.62	139.75	121.85	42.229	4.092e-06	52.417	0.00048414	0.00044417	0.00013986	1389.9	5.1934e-06	5.0486e-06	1387.4	372.77	5.3057e-06	4.9024e-06	426.42	142.93	123.84	43.009	5.714e-06	53.345	106.960	82.602	60.428	-42.509	85.922	73.520	-42.599	-37.901	17.149	89.481	-38.631	-33.863	-33.713	-28.729	143.552	-29.836	-8191	255	
1215.108	1	1	0	0	0.20295	0.13692	0.15249	0.049672	0.15405	0.1201	0.30951	0.19404	0.10268	0.23871	0.13354	0.12872	0.21246	0.23998	0.16197	0.16509	-3.0646	-3.8375	-3.6042	-3.7875	-3.6708	-3.2792	-3.975	-3.6604	-3.45	-3.8396	-3.5896	-3.6312	-3.9813	-3.4646	-3.8	-3.7812	224.569	113.479	198.942	-27.761	11.829	81.965	271.866	148.258	35.293	95.353	-15.662	-40.179	37.824	-51.304	-22.600	225.280	0.00025492	0.00051986	7.6876e-05	1378	8.4871e-07	3.02e-06	1371	368.68	2.6124e-06	7.4372e-06	419.53	139.8	121.75	42.182	2.6535e-06	52.189	0.0004777	0.00045529	0.00014829	1390.7	5.0757e-06	5.2133e-06	1389.1	373.03	5.2296e-06	5.137e-06	425.98	142.97	123.75	43.011	5.8734e-06	53.247	119.675	106.209	103.745	-42.451	60.493	137.278	-42.590	-37.869	134.271	142.173	-38.432	-34.111	-33.810	-28.843	145.907	-29.580	-8191	255	
1215.227	1	1	0	0	0.15615	0.071271	0.11415	0.27864	0.19227	0.088759	0.23268	0.14502	0.18154	0.1054	0.20773	0.091927	0.37262	0.18361	0.061622	0.17618	-2.9583	-3.875	-3.575	-3.675	-3.7854	-3.5146	-3.9833	-3.9708	-3.4437	-3.8812	-3.7292	-3.6625	-3.9646	-3.6917	-3.7938	-4.0375	234.465	139.974	264.410	301.030	119.868	127.572	269.449	236.640	19.547	235.289	112.023	161.693	247.091	281.534	-45.374	-20.280	0.0001794	0.00017605	6.5359e-05	1377.3	5.9991e-06	6.2171e-06	1376.9	367.36	7.6796e-07	1.1414e-06	420.8	139.99	121.87	42.297	3.4417e-06	52.3	0.00046975	0.00048587	0.00014988	1387.5	4.9754e-06	5.5419e-06	1388.8	371.68	5.1561e-06	5.4678e-06	425.84	142.88	123.68	43.097	5.7e-06	53.193	99.256	159.199	-21.220	-42.407	75.773	108.183	-42.586	-37.979	-15.989	3.945	-38.456	-34.223	-33.606	-29.036	95.153	-29.761	-8191	255	
1215.323	1	1	0	0	0.13224	0.047628	0.18852	0.19453	0.18969	0.068817	0.19044	0.4264	0.19007	0.085673	0.1508	0.23158	0.23272	0.12937	0.082557	0.33331	-3.1979	-3.8708	-3.6625	-3.7	-3.9354	-3.4354	-3.7104	-3.9042	-3.55	-3.7229	-3.8542	-3.5125	-4.0188	-3.5604	-3.6042	-4.0333	83.085	167.572	35.456	288.943	287.406	-40.963	250.110	227.139	177.399	12.094	287.351	-45.203	-22.838	-54.267	120.285	-18.700	0.00023547	0.00042332	0.00015598	1372	5.8883e-06	5.9214e-06	1370.8	366.39	1.3415e-06	5.3601e-06	420.88	139.5	122	42.152	2.6304e-06	52.168	0.00045189	0.00050809	0.00014163	1386.2	4.8515e-06	5.6885e-06	1386.4	371.48	4.989e-06	5.6607e-06	424.55	142.44	123.7	43.123	5.4853e-06	53.08	114.072	73.728	36.928	-42.526	140.112	110.310	-42.477	-37.996	86.586	101.048	-38.350	-34.156	-33.560	-29.074	49.127	-29.576	-8191	255	
1215.419	1	1	0	0	0.11149	0.21268	0.24339	0.047662	0.10112	0.078655	0.077175	0.27773	0.090697	0.26676	0.14858	0.15462	0.065764	0.1448	0.14103	0.16858	-3.1437	-3.7521	-3.7687	-3.7	-3.8167	-3.625	-3.7375	-3.9	-3.6	-3.5229	-3.925	-3.6188	-3.8917	-3.6771	-3.7042	-3.9646	270.464	249.906	129.003	230.401	193.441	266.544	172.749	281.677	211.856	-40.322	284.214	179.188	-3.828	256.465	253.952	293.641	0.00028775	0.00069504	0.00027379	1374.2	4.532e-06	1.2322e-06	1372.6	367.01	1.436e-06	7.0562e-06	420	140.22	121.62	42.167	2.8525e-06	52.05	0.00046496	0.00052235	0.00013564	1385	5.0589e-06	5.7496e-06	1384.6	370.55	5.2647e-06	5.6687e-06	424.76	142.38	123.84	43.112	5.3504e-06	53.045	105.515	0.341	44.629	-42.522	60.336	82.216	-42.518	-37.990	96.481	105.773	-38.347	-34.299	-33.566	-29.095	124.448	-29.521	-8191	255	
1215.516	1	1	0	0	0.21178	0.052171	0.12711	0.35023	0.21838	0.13684	0.30743	0.10084	0.2482	0.24124	0.28912	0.097121	0.21644	0.30719	0.18104	0.18687	-3.0812	-3.6771	-3.5625	-3.5604	-3.8521	-3.525	-3.8125	-4.0521	-3.4208	-3.8021	-3.8354	-3.6063	-3.8042	-3.6917	-3.5458	-3.9771	133.686	104.113	83.774	277.198	-45.565	-36.255	215.310	260.836	-20.536	50.202	10.764	9.484	293.434	245.045	169.997	266.379	0.00032123	0.00058293	0.00019698	1380.6	1.8199e-06	5.7754e-06	1375.7	367.34	3.5602e-06	7.7199e-06	421.16	139.71	121.7	42.166	1.0754e-06	52.178	0.00049064	0.0005249	0.000133	1384.4	5.4646e-06	5.7343e-06	1386.5	370.85	5.5899e-06	5.666e-06	424	142.39	124.06	43.161	5.3028e-06	53.141	112.195	-14.080	36.256	-42.617	160.486	145.591	-42.419	-37.959	195.201	59.031	-38.325	-34.153	-33.546	-29.077	83.325	-29.585	-8191	255	
1215.612	1	1	0	0	0.13944	0.12517	0.10383	0.20193	0.073457	0.17946	0.3561	0.069543	0.1699	0.057089	0.28366	0.20018	0.31032	0.12897	0.16561	0.28845	-3.1854	-3.5958	-3.7146	-3.4979	-3.7542	-3.7104	-3.6333	-3.9313	-3.5792	-3.6312	-3.9437	-3.4646	-3.8167	-3.8521	-3.6437	-3.8354	205.961	4.709	89.882	249.629	131.015	183.803	237.017	242.577	-7.146	172.638	266.693	219.612	280.647	55.084	135.476	252.979	0.00034649	0.00076629	0.00018332	1377.8	3.4725e-06	3.7857e-06	1372.7	367.76	1.9139e-06	4.7502e-06	420.57	140.29	121.75	42.299	4.2154e-06	52.285	0.00051497	0.00051098	0.00012905	1387.7	5.6498e-06	5.3405e-06	1383.5	370.97	5.6691e-06	5.3616e-06	424.05	142.63	124.05	43.042	5.0383e-06	53.155	108.061	43.506	36.906	-42.557	32.094	68.777	-42.786	-37.925	0.749	133.927	-38.253	-34.133	-33.619	-29.002	109.073	-29.666	-8191	255	
1215.708	1	1	0	0	0.25483	0.085861	0.17679	0.12107	0.078724	0.35602	0.43857	0.15013	0.14552	0.036192	0.1223	0.10032	0.28765	0.22351	0.037015	0.26566	-2.9896	-3.4875	-3.5812	-3.5875	-3.7062	-3.7271	-3.4854	-3.9708	-3.3229	-3.4688	-3.8729	-3.4042	-3.8542	-3.6458	-3.4188	-3.8625	269.889	213.602	96.375	278.922	111.795	-25.613	252.485	248.934	57.315	105.851	279.574	214.389	265.873	253.331	-7.678	229.056	0.00029117	0.00037002	0.00021138	1381	4.1988e-06	3.3344e-06	1371.1	366.39	5.0074e-06	2.287e-06	421.27	138.98	122.18	42.315	4.604e-06	52.278	0.00051258	0.00048247	0.00012347	1386.8	5.6711e-06	5.1983e-06	1383.7	371.04	5.6372e-06	5.2649e-06	423.71	142.44	124.15	42.969	4.9633e-06	53.265	77.545	39.704	43.870	-42.449	47.700	99.293	-42.624	-38.082	130.787	144.015	-38.431	-34.202	-33.569	-28.755	4.742	-29.571	-8191	255	
1215.828	1	1	0	0	0.031927	0.14739	0.11267	0.13128	0.1678	0.14788	0.32721	0.21347	0.10366	0.13406	0.083967	0.32956	0.16615	0.21851	0.17167	0.17026	-3.2729	-3.4833	-3.8833	-3.5062	-3.7021	-3.6375	-3.5729	-3.9583	-3.3896	-3.525	-3.9875	-3.5542	-3.8229	-3.9104	-3.5812	-3.8417	-15.740	-7.088	-9.203	252.015	215.583	-41.245	228.009	291.229	64.405	28.954	-23.272	219.755	248.039	265.844	279.869	186.346	0.00023769	0.00023699	0.00016975	1376.9	1.7221e-06	4.1602e-06	1370.8	367.49	1.9281e-06	9.6564e-07	419.58	139.96	121.61	42.224	2.1589e-06	52.143	0.00050446	0.00048179	0.00012213	1388.2	5.5909e-06	5.0806e-06	1381.4	372.17	5.4798e-06	5.1933e-06	423.51	142.76	123.82	42.914	5.0651e-06	53.309	122.400	19.445	55.643	-42.530	20.898	58.057	-42.415	-37.980	-11.855	168.208	-38.197	-34.286	-33.757	-28.826	140.081	-29.781	-8191	255	
1215.925	1	1	0	0	0.2863	0.21319	0.12087	0.36794	0.10044	0.21412	0.17414	0.083328	0.10841	0.061748	0.082456	0.19403	0.12651	0.17456	0.092906	0.26886	-3.225	-3.4208	-3.8646	-3.925	-3.6604	-3.8729	-3.6937	-3.7708	-3.6667	-3.475	-4.0563	-3.6542	-3.8583	-4.0458	-3.3458	-3.8021	-39.508	297.089	250.778	241.584	9.464	7.115	295.842	-32.744	104.708	0.587	102.947	-34.038	-19.217	271.829	69.298	46.156	0.00032198	0.00029949	0.00017554	1372.4	4.2571e-06	6.3281e-06	1371.8	367.53	3.3946e-06	5.2783e-06	419.69	139.95	121.61	42.052	9.5493e-07	52.097	0.00048647	0.00047249	0.00012672	1386.4	5.3791e-06	4.9271e-06	1383	372.54	5.2762e-06	5.0096e-06	423.83	142.68	123.67	42.87	5.2572e-06	53.295	110.461	19.454	86.435	-42.481	110.910	41.286	-42.531	-38.116	11.118	108.744	-38.342	-34.174	-33.740	-28.783	153.053	-29.678	-8191	255	
1216.019	1	1	0	0	0.19045	0.16262	0.051803	0.1778	0.15228	0.16065	0.24318	0.17827	0.12201	0.17831	0.27799	0.21632	0.26579	0.067508	0.28469	0.20332	-3.2938	-3.4708	-3.8688	-3.7104	-3.575	-3.9437	-3.6292	-3.7667	-3.8708	-3.4396	-4.0167	-4.0083	-3.775	-3.9479	-3.4979	-3.7687	155.640	44.788	130.278	-40.405	-13.094	273.697	239.964	205.702	183.714	215.909	263.379	-35.709	18.791	253.942	178.725	225.301	0.00025449	0.00055656	0.00011609	1377.4	1.1684e-06	7.1211e-06	1368.3	366.44	1.9647e-06	5.8884e-06	419.42	139.28	121.82	42.172	2.7853e-06	52.269	0.00047436	0.00045368	0.00013462	1388.3	5.2457e-06	4.8463e-06	1385	372.01	5.1362e-06	5.0052e-06	425	142.66	123.8	42.854	5.5953e-06	53.283	110.608	50.194	277.623	-42.468	66.054	82.202	-42.581	-37.932	109.505	88.949	-38.287	-33.994	-33.780	-28.940	122.133	-29.342	-8191	255	
1216.115	1	1	0	0	0.20068	0.1052	0.21085	0.057274	0.11585	0.091095	0.1891	0.21168	0.10709	0.068639	0.21308	0.16913	0.34356	0.17025	0.072438	0.17735	-3.2625	-3.3542	-3.7604	-3.8042	-3.3937	-3.6146	-3.6417	-3.8979	-3.9437	-3.5687	-3.6729	-3.6833	-3.5854	-3.85	-3.5771	-3.7021	262.077	73.992	31.020	206.005	298.413	87.423	229.582	271.029	92.448	-55.315	290.974	158.107	-46.551	298.272	124.645	179.106	0.0002193	0.00031308	0.00013594	1372.5	4.7997e-06	1.8107e-06	1372.5	366.37	7.424e-07	5.5437e-06	420	139.86	121.59	42.1	1.6942e-06	52.131	0.00045865	0.00045397	0.00014183	1386.4	5.0604e-06	4.7882e-06	1385	370.75	4.9316e-06	4.9711e-06	424.78	142.34	123.37	42.817	5.584e-06	53.115	94.971	225.459	43.883	-42.350	98.324	97.492	-42.615	-37.762	72.149	79.688	-38.379	-34.087	-33.724	-29.099	125.483	-29.449	-8191	255	
1216.236	1	1	0	0	0.082646	0.11516	0.14786	0.44459	0.090287	0.10693	0.22712	0.037337	0.2505	0.023642	0.20783	0.24875	0.17014	0.10372	0.16896	0.12053	-3.5583	-3.3583	-3.6521	-3.8625	-3.5104	-3.8271	-3.8125	-3.65	-3.7667	-3.5917	-4.0042	-3.8208	-3.3521	-3.6896	-3.45	-3.4667	0.205	83.897	123.498	274.883	104.103	213.855	253.595	2.096	51.686	173.108	270.212	-9.880	270.094	95.447	162.740	250.961	0.00029137	0.00022187	0.00018117	1369.6	3.7006e-06	1.2314e-06	1368.2	366.51	1.0309e-06	4.005e-06	420.35	138.98	121.66	42.141	1.605e-06	52.101	0.00043212	0.00045835	0.00014094	1380.4	4.8404e-06	4.9657e-06	1380.6	370.73	4.6791e-06	5.0708e-06	424.69	141.83	123.15	42.911	5.428e-06	53.053	123.517	-2.851	104.267	-42.615	195.682	121.133	-42.395	-37.807	82.438	67.480	-38.452	-34.384	-33.567	-28.808	74.140	-29.610	-8191	255	
1216.307	1	1	0	0	0.16045	0.28351	0.056023	0.13016	0.11838	0.16636	0.4154	0.17646	0.085698	0.11022	0.26067	0.26681	0.30597	0.083761	0.2222	0.11588	-3.3812	-3.3979	-3.7583	-3.7562	-3.5229	-3.9354	-3.6583	-3.6021	-3.8229	-3.6146	-3.7188	-3.8125	-3.2667	-3.8521	-3.7896	-3.525	48.889	132.938	173.827	252.948	171.152	12.184	289.993	250.511	76.658	-50.557	273.217	256.433	279.547	284.500	85.178	286.776	0.00024427	0.00056528	0.00010698	1371.7	2.183e-06	6.8429e-06	1370.5	367.45	3.4679e-06	2.7404e-06	421.75	139.49	121.32	42.178	5.4732e-06	52.187	0.00042008	0.00048138	0.00013724	1380.2	4.7398e-06	5.2177e-06	1381.5	370.31	4.6551e-06	5.376e-06	424.2	141.99	123.08	42.939	5.2376e-06	53.044	110.596	134.238	15.465	-42.517	109.405	119.971	-42.511	-37.941	39.104	48.528	-38.368	-33.962	-33.774	-29.148	82.417	-29.702	-8191	255	
1216.404	1	1	0	0	0.15839	0.13277	0.23345	0.36632	0.1528	0.16812	0.3671	0.1991	0.20737	0.21613	0.21376	0.33847	0.15195	0.28781	0.12502	0.14286	-3.3604	-3.4792	-3.6396	-3.8937	-3.4729	-3.6542	-3.7417	-3.6333	-3.7646	-3.4979	-3.8521	-3.8812	-3.3771	-4.1125	-3.5958	-3.5667	69.459	176.664	97.275	255.904	22.254	0.727	254.392	287.532	218.629	96.309	285.479	299.737	78.834	243.360	264.168	223.534	0.00023562	0.00039166	0.00016262	1375.2	3.9053e-06	3.0285e-06	1369.2	366.84	3.4896e-06	6.0086e-06	419.42	139.58	121.61	42.092	2.3499e-06	52.283	0.00042695	0.00050082	0.0001336	1380.3	4.8799e-06	5.5166e-06	1381.2	370.38	4.9077e-06	5.521e-06	423.28	141.96	123.43	42.979	5.0584e-06	52.933	99.243	58.134	38.706	-42.377	179.832	122.921	-42.569	-37.943	158.443	139.880	-38.324	-34.195	-33.686	-28.987	97.004	-29.757	-8191	255	
1216.500	1	1	0	0	0.30401	0.34111	0.12983	0.10553	0.16029	0.087815	0.15059	0.27165	0.052765	0.12657	0.14214	0.23847	0.28448	0.2404	0.29433	0.073676	-3.3896	-3.5979	-3.525	-3.8083	-3.3792	-3.7104	-3.9	-3.3917	-3.9708	-3.7	-3.7083	-4.1083	-3.5792	-3.7125	-3.7333	-3.625	-38.969	30.387	-37.233	259.138	46.730	164.885	159.074	252.272	216.102	86.644	184.208	245.532	301.638	-53.311	-41.288	196.518	0.00032197	0.00069243	6.7917e-05	1376.3	3.0993e-06	6.8202e-06	1367.9	367.31	7.419e-06	5.9046e-06	419.94	139.58	121.75	42.111	5.0255e-06	52.072	0.00045733	0.00050661	0.0001307	1381.6	5.2054e-06	5.5493e-06	1380	370.61	5.2186e-06	5.5077e-06	424.08	141.82	123.68	43.021	4.9631e-06	52.938	130.284	32.546	90.924	-42.499	152.993	69.446	-42.578	-37.902	107.737	94.436	-38.269	-34.262	-33.672	-28.976	155.916	-29.547	-8191	255	
1216.620	1	1	0	0	0.23046	0.10724	0.05903	0.12391	0.093894	0.16718	0.17309	0.12523	0.11023	0.10159	0.16063	0.16662	0.16674	0.20846	0.11452	0.052639	-3.5479	-3.8187	-3.7333	-4.0938	-3.475	-3.95	-3.8542	-3.4042	-3.7646	-3.6979	-3.5542	-3.8479	-3.5	-3.6667	-3.8604	-3.45	271.011	224.305	277.479	-13.244	277.361	191.994	260.128	293.732	133.917	-46.072	0.059	270.855	197.253	298.127	-33.780	274.347	0.00026391	0.00061877	0.00011374	1376.3	4.2895e-06	4.5919e-06	1370.3	367.08	3.333e-06	6.8161e-06	420.51	139.59	121.6	42.045	2.8028e-06	51.795	0.00047811	0.00048622	0.00012827	1383.1	5.438e-06	5.3356e-06	1380.7	370.51	5.5021e-06	5.2393e-06	424.36	141.91	123.87	42.93	4.8354e-06	53.04	112.970	35.330	3.186	-42.445	132.161	46.185	-42.552	-37.883	181.531	78.005	-38.278	-33.848	-33.723	-28.985	225.467	-29.353	-8191	255	
1216.717	1	1	0	0	0.11502	0.30691	0.1942	0.28126	0.25649	0.19246	0.030531	0.11371	0.095195	0.11894	0.23537	0.14248	0.048132	0.03905	0.15118	0.17367	-3.3896	-3.7708	-3.3667	-3.9979	-3.5333	-3.8937	-4.0833	-3.7104	-3.8438	-3.7083	-3.6562	-3.8125	-3.7771	-3.4667	-3.8896	-3.5104	64.232	205.751	11.171	293.241	143.457	244.775	38.784	216.928	68.909	62.404	207.258	-50.023	216.249	-24.512	-17.023	-50.751	0.00027573	0.00046803	0.00013328	1375.9	2.396e-06	4.6322e-06	1368.3	366.45	5.5373e-06	5.2808e-06	419.38	139.62	121.51	42.149	3.4036e-06	52.119	0.00050576	0.00047507	0.00012762	1383.9	5.6425e-06	5.2338e-06	1380.1	370.74	5.624e-06	5.129e-06	423.28	142.33	123.96	42.967	4.7448e-06	53.124	99.547	26.213	6.325	-42.487	19.666	152.279	-42.430	-37.884	59.946	53.086	-38.352	-34.315	-33.780	-28.994	111.059	-29.557	-8191	255	
1216.813	1	1	0	0	0.07595	0.07398	0.048716	0.32302	0.020035	0.10247	0.22838	0.086379	0.1996	0.12417	0.31461	0.1363	0.12911	0.070998	0.20701	0.10184	-3.3896	-3.7333	-3.2417	-4.0458	-3.6021	-3.575	-3.95	-3.5792	-3.5896	-3.7604	-3.4292	-3.8937	-3.7042	-3.6688	-3.7146	-3.5938	297.014	7.900	85.379	247.760	162.219	74.294	276.934	215.458	67.298	184.926	-7.633	-40.469	289.375	201.384	91.289	46.372	0.00022213	0.00057658	0.0001281	1374.5	3.8615e-06	2.8892e-06	1373.2	368.66	2.7565e-06	8.3934e-06	419.65	139.44	121.54	42.217	4.2728e-06	51.997	0.00050538	0.00046097	0.0001251	1385.8	5.5448e-06	5.1876e-06	1381.4	372.36	5.5095e-06	5.0536e-06	422.78	142.34	123.75	42.919	4.7833e-06	53.223	102.710	24.728	20.049	-42.371	94.555	50.568	-42.580	-37.937	55.777	93.057	-38.276	-34.260	-33.676	-29.100	192.935	-29.483	-8191	255	
1216.909	1	1	0	0	0.16377	0.14483	0.12755	0.11203	0.33073	0.24281	0.16751	0.28712	0.041341	0.085329	0.20974	0.10666	0.063052	0.21282	0.051726	0.15111	-3.3542	-3.6271	-3.4104	-3.9208	-3.5792	-3.4958	-4.0146	-3.5771	-3.575	-3.8396	-3.6854	-3.8688	-3.7458	-3.4729	-3.9167	-3.7938	-32.087	82.160	266.718	230.114	83.829	160.712	258.790	238.220	27.144	247.852	278.900	214.859	106.256	247.978	281.224	199.139	0.00023939	0.00030454	0.00021758	1376.5	5.2599e-06	7.1805e-06	1372.2	366.65	1.7428e-06	4.135e-06	419.75	139.58	121.44	42.185	5.4998e-06	51.949	0.00049285	0.00045151	0.0001259	1388.7	5.3213e-06	5.1306e-06	1382.5	371.77	5.4351e-06	4.9291e-06	423.51	142.82	123.46	42.889	5.0656e-06	53.227	112.817	55.508	46.078	-42.513	111.270	75.366	-42.533	-38.058	103.345	106.586	-38.442	-34.182	-33.778	-28.984	125.182	-29.728	-8191	255	
1217.005	1	1	0	0	0.067483	0.109	0.20875	0.1715	0.037229	0.12495	0.11305	0.25444	0.15499	0.13741	0.37677	0.016858	0.14226	0.34364	0.28496	0.13762	-3.2146	-3.8875	-3.45	-3.8854	-3.6917	-3.4896	-4.1583	-3.5125	-3.4458	-3.7208	-3.4813	-3.8979	-3.6667	-3.6083	-3.8875	-3.6792	260.561	260.413	25.223	255.997	83.937	171.059	-5.191	-52.824	273.177	263.516	237.926	277.908	249.101	260.140	276.846	230.440	0.00027223	0.00086766	0.00013447	1375.7	4.8866e-06	4.0984e-06	1366.6	367.15	3.331e-06	2.7556e-06	420.53	139.7	121.8	42.194	3.5324e-06	52.017	0.00048084	0.00044099	0.00013555	1387.4	5.1857e-06	4.9666e-06	1382.5	371.98	5.2935e-06	4.83e-06	424.82	142.74	123.66	42.87	5.4087e-06	53.123	110.133	40.096	65.339	-42.523	85.210	85.390	-42.632	-38.017	101.052	94.266	-38.318	-34.210	-33.532	-28.931	168.068	-29.752	-8191	255	
1217.099	1	1	0	0	0.1946	0.24315	0.11664	0.30258	0.065675	0.016104	0.12907	0.16117	0.15626	0.16384	0.18738	0.33558	0.17684	0.28725	0.026643	0.11067	-3.0458	-4.0417	-3.3896	-3.7708	-3.8042	-3.5104	-3.8688	-3.7958	-3.4562	-3.7896	-3.6271	-3.8146	-3.8812	-3.5542	-3.7896	-3.625	-6.631	187.157	143.468	247.116	250.286	217.325	302.726	-55.488	288.024	50.749	248.580	244.357	-40.362	297.644	264.412	188.990	0.00024681	0.00050468	6.2937e-05	1376.1	4.2355e-06	5.2014e-06	1368.7	368.26	4.3878e-06	5.2456e-06	420.86	139.4	121.13	42.146	4.7017e-06	52.222	0.00047165	0.00043366	0.0001408	1387.1	5.0236e-06	4.8929e-06	1384.8	371.44	5.131e-06	4.7611e-06	425.3	142.51	123.28	42.904	5.6434e-06	53.211	124.717	12.724	93.928	-42.577	124.254	94.303	-42.658	-37.940	11.854	138.269	-38.366	-33.992	-33.340	-28.841	81.233	-29.689	-8191	255	
1217.197	1	1	0	0	0.17992	0.17705	0.25831	0.13976	0.17656	0.13057	0.13366	0.061592	0.10321	0.25573	0.27695	0.38461	0.13364	0.31371	0.15864	0.16373	-3.0021	-3.6583	-3.4479	-3.8208	-3.6583	-3.4521	-4.0083	-3.8104	-3.5104	-3.8417	-3.4771	-3.7083	-3.8667	-3.575	-3.6458	-3.9583	225.290	300.273	-44.181	246.347	-41.520	247.898	0.324	215.968	-35.664	35.655	234.013	243.022	143.270	268.946	62.429	121.286	0.0001561	0.00041167	7.1689e-05	1377.7	6.1894e-06	1.0561e-06	1367.4	368.3	7.6253e-06	4.591e-06	422.12	139.53	121.45	42.171	3.7404e-06	52.145	0.0004591	0.00045187	0.00014453	1387.4	4.9123e-06	5.1201e-06	1384.9	371.41	5.0178e-06	5.0599e-06	425.38	142.32	123.14	42.969	5.6532e-06	53.133	113.632	35.812	84.537	-42.520	107.902	202.201	-42.440	-37.777	56.998	151.182	-38.244	-34.513	-33.735	-28.682	99.318	-29.484	-8191	255	
1217.316	1	1	0	0	0.32804	0.11334	0.15327	0.42464	0.076876	0.20915	0.062191	0.38319	0.11447	0.06287	0.19737	0.16215	0.24955	0.20495	0.18445	0.10697	-2.9021	-3.7687	-3.5917	-3.7271	-3.9062	-3.3479	-3.9667	-3.8812	-3.3604	-3.7562	-3.7646	-3.5125	-3.8792	-3.6583	-3.8875	-3.7687	299.114	158.400	115.625	269.146	87.671	209.636	265.281	293.311	230.634	264.111	233.587	-21.676	269.485	275.099	8.438	206.105	0.00024719	0.00065211	0.00033202	1377	4.8833e-06	3.7342e-06	1376.1	366.91	4.7405e-06	4.6765e-06	420.12	139.95	121.23	42.34	3.9093e-06	52.116	0.00044933	0.00047794	0.00014395	1386.7	4.7968e-06	5.4636e-06	1387.4	370.74	4.9523e-06	5.4661e-06	425.25	142.45	123.31	43.114	5.5667e-06	53.055	109.474	63.254	27.103	-42.508	132.661	47.562	-42.518	-37.821	79.502	117.911	-38.390	-34.140	-33.793	-28.920	92.869	-29.714	-8191	255	
1217.412	1	1	0	0	0.13663	0.097875	0.32896	0.38711	0.13367	0.077836	0.1793	0.17477	0.19934	0.12187	0.10754	0.054061	0.041538	0.15534	0.23732	0.12464	-3.2333	-4.0188	-3.75	-3.6833	-3.8354	-3.4917	-3.9125	-3.9646	-3.4917	-3.7771	-3.8	-3.5062	-3.9229	-3.7417	-3.6021	-3.925	249.726	118.463	10.724	262.813	-33.683	58.275	207.429	297.449	-14.896	32.177	216.062	242.842	42.335	-15.383	132.918	182.464	0.00026279	0.00030633	0.00016316	1379.1	3.7299e-06	4.6583e-06	1371.2	366.05	2.1754e-06	3.5896e-06	419.15	139.51	121.52	42.095	3.855e-06	52.027	0.0004537	0.00051547	0.00013909	1386	4.8987e-06	5.6898e-06	1386	370.44	5.0716e-06	5.6694e-06	424.43	142.27	123.42	43.04	5.3507e-06	52.962	109.456	17.446	30.655	-42.385	120.576	59.031	-42.628	-37.948	88.886	92.734	-38.380	-34.206	-33.486	-28.909	24.288	-29.738	-8191	255	
1217.508	1	1	0	0	0.087684	0.067034	0.1247	0.080275	0.088003	0.11429	0.1815	0.24849	0.12813	0.21115	0.34092	0.19413	0.08365	0.20477	0.14549	0.20313	-3.1458	-3.9729	-3.8667	-3.5542	-3.8875	-3.6562	-3.6667	-3.7104	-3.4542	-3.7833	-3.6562	-3.4771	-3.8417	-3.7292	-3.4646	-3.925	95.045	276.113	241.380	252.311	208.992	56.928	241.809	273.513	151.845	101.830	300.840	3.919	233.641	269.083	157.806	237.951	0.00032181	0.00061665	0.00022284	1377	2.1776e-06	2.3563e-06	1370.2	367.4	3.8156e-06	2.2895e-06	420.28	139.71	121.58	42.184	2.6994e-06	52.182	0.00047273	0.00053006	0.00013418	1384.6	5.1927e-06	5.7541e-06	1385.6	370.3	5.3958e-06	5.7691e-06	424.18	142.03	123.81	43.06	5.4004e-06	52.937	100.300	40.706	25.701	-42.588	132.205	192.095	-42.607	-38.019	134.787	296.623	-38.442	-34.154	-33.691	-28.856	82.383	-29.604	-8191	255	
1217.605	1	1	0	0	0.11057	0.24299	0.054506	0.17193	0.10406	0.36225	0.41342	0.26091	0.16672	0.17433	0.14685	0.10521	0.26037	0.18115	0.075894	0.32859	-3.1583	-3.8917	-3.5458	-3.475	-3.9979	-3.5625	-3.5958	-3.9021	-3.4271	-3.6667	-3.9813	-3.5208	-3.8563	-3.6292	-3.525	-3.8937	9.159	83.990	196.507	275.782	180.459	38.101	212.566	299.206	149.550	126.773	-6.357	292.989	59.943	163.404	252.437	196.121	0.00016069	0.0006045	0.00029442	1377.7	3.5528e-06	5.6691e-06	1375.7	368.44	4.5546e-06	1.7201e-06	420.26	139.65	121.79	42.359	4.5452e-06	52.058	0.00050803	0.00052145	0.00013068	1385.9	5.5694e-06	5.6162e-06	1385.3	370.77	5.6735e-06	5.6702e-06	423.84	142.11	124.02	43.111	5.2223e-06	53.053	124.925	26.172	34.280	-42.303	191.515	64.771	-42.469	-38.020	111.091	61.417	-38.318	-34.090	-33.454	-28.779	63.703	-29.526	-8191	255	
1217.701	1	1	0	0	0.15977	0.087616	0.1537	0.2869	0.084277	0.038502	0.27191	0.12446	0.27872	0.091418	0.35381	0.056161	0.20917	0.41487	0.11474	0.1216	-3.3563	-3.7562	-3.6437	-3.5729	-3.7917	-3.5208	-3.4729	-3.9375	-3.5854	-3.6063	-3.9	-3.5875	-3.6625	-3.8604	-3.6167	-3.975	46.313	26.549	246.819	249.837	228.867	216.124	227.989	-54.200	217.433	28.066	271.558	85.872	303.486	-39.914	0.986	242.131	0.000347	0.00045255	0.00018739	1375.1	6.0297e-06	4.3096e-06	1367.9	367.97	3.9649e-06	1.5739e-06	420.72	139.48	121.34	42.168	5.1813e-06	52.187	0.00052032	0.00050441	0.00012698	1386.4	5.7524e-06	5.3323e-06	1382.7	371.41	5.7556e-06	5.4088e-06	423.49	142.41	123.96	42.944	5.0877e-06	53.132	105.563	7.355	-49.821	-42.399	129.547	35.527	-42.528	-37.855	94.908	90.257	-38.454	-34.076	-33.615	-28.892	95.001	-29.799	-8191	255	
1217.797	1	1	0	0	0.18598	0.085526	0.25852	0.3463	0.011769	0.14451	0.2797	0.26938	0.091305	0.24944	0.2847	0.15855	0.06999	0.39993	0.066179	0.38387	-3.1625	-3.6292	-3.8771	-3.5583	-3.7458	-3.7854	-3.4896	-3.9479	-3.4396	-3.6708	-3.8312	-3.4083	-3.6792	-3.8792	-3.5167	-3.8625	107.702	175.688	286.411	285.253	188.695	69.581	240.287	236.610	-39.409	-30.808	246.771	-19.416	155.747	-18.000	160.659	240.131	0.00027183	0.00025842	7.5982e-05	1379	1.8323e-06	1.6345e-06	1370.5	367.28	1.11e-06	3.0073e-06	419.33	139.83	121.36	42.196	4.5217e-06	52.149	0.00052239	0.00048974	0.00012505	1389.2	5.7937e-06	5.2493e-06	1383.4	371.89	5.7022e-06	5.3547e-06	422.83	142.9	123.95	42.939	5.0114e-06	53.223	113.362	77.322	25.269	-42.511	49.636	-16.233	-42.591	-37.882	105.201	52.292	-38.296	-34.048	-33.627	-28.931	56.201	-29.496	-8191	255	
1217.918	1	1	0	0	0.062575	0.075062	0.084172	0.27741	0.18185	0.16752	0.19492	0.1632	0.12035	0.067613	0.037608	0.20741	0.037612	0.34927	0.1288	0.06917	-3.2042	-3.2604	-3.7667	-3.6437	-3.6854	-3.6437	-3.5333	-3.8521	-3.8104	-3.3521	-3.8396	-3.3792	-3.8604	-3.8854	-3.5042	-3.9125	200.317	17.653	59.806	274.066	222.297	102.616	279.765	222.959	31.423	197.944	201.507	110.390	294.976	-13.180	-34.647	-49.944	0.00018096	0.00052384	0.00010866	1376.7	2.233e-06	8.2477e-06	1371.9	367.12	1.5145e-06	6.9255e-06	419.68	139.2	121.57	42.172	3.7065e-06	52.003	0.00050131	0.00047808	0.00012382	1388.1	5.5073e-06	5.0701e-06	1382.8	371.98	5.4969e-06	5.1435e-06	423.51	142.7	123.6	42.851	5.183e-06	53.356	112.175	65.554	34.340	-42.537	61.336	60.646	-42.795	-37.819	1.539	122.571	-38.296	-34.078	-33.538	-28.970	170.646	-29.765	-8191	255	
1218.012	1	1	0	0	0.15239	0.044506	0.18481	0.18388	0.18933	0.087086	0.061838	0.17749	0.25594	0.030625	0.06953	0.30061	0.034063	0.28209	0.25343	0.18456	-3.3333	-3.4	-3.9229	-3.7583	-3.6229	-3.9125	-3.6896	-3.8896	-3.5583	-3.3833	-4.2792	-3.7667	-3.7167	-4.0917	-3.625	-3.825	19.686	133.891	20.523	288.876	211.219	291.778	260.493	19.063	110.961	62.629	72.789	272.805	189.574	244.477	61.987	266.970	0.00027291	0.00035629	8.6707e-05	1381.4	3.6432e-06	4.7912e-06	1370.1	368.04	4.08e-06	9.4534e-06	418.51	139.37	121.05	42.165	4.5337e-06	51.93	0.00048258	0.00046922	0.00013104	1390.1	5.397e-06	4.9221e-06	1384.2	372.54	5.2591e-06	5.0394e-06	424.12	142.61	123.55	42.859	5.4807e-06	53.148	116.451	-44.713	-8.782	-42.501	98.025	61.275	-42.552	-38.006	127.099	119.690	-38.286	-34.245	-33.485	-28.992	126.716	-29.662	-8191	255	
1218.108	1	1	0	0	0.21509	0.18872	0.17584	0.30082	0.10954	0.24625	0.19096	0.28224	0.30679	0.16786	0.16189	0.05899	0.080753	0.139	0.0603	0.26242	-3.4979	-3.4521	-3.8479	-3.6896	-3.5875	-4.0167	-3.9042	-3.7375	-3.7208	-3.7938	-4.1542	-3.925	-3.7667	-4.1542	-3.6417	-4.0792	56.042	38.001	281.977	-51.862	-49.752	261.214	243.084	206.972	280.355	192.948	284.147	256.263	172.868	290.656	-1.614	192.202	0.00016849	0.00043904	0.0001858	1381.3	1.4676e-06	2.9635e-06	1377.4	366.68	1.8668e-06	3.2142e-06	420.5	140.06	121.5	42.189	3.6217e-06	52.177	0.00047052	0.00045798	0.00014061	1390.3	5.2747e-06	4.8403e-06	1387.8	371.5	5.1205e-06	5.0004e-06	425.32	142.66	123.42	42.828	5.7709e-06	53.176	107.449	73.393	-44.897	-42.428	47.157	19.800	-42.453	-37.794	13.892	45.673	-38.159	-34.331	-33.502	-29.129	176.432	-29.667	-8191	255	
1218.180	1	1	0	0	0.26011	0.11841	0.064525	0.24269	0.043604	0.11442	0.12843	0.12147	0.15543	0.098389	0.13446	0.07646	0.047873	0.15723	0.22743	0.26981	-3.6979	-3.5458	-3.8854	-3.8312	-3.4208	-3.9146	-3.7729	-3.8375	-3.875	-3.6208	-4.0208	-3.9729	-3.6396	-4.2458	-3.8312	-3.7042	298.952	-4.995	80.922	256.366	97.100	74.563	188.511	-15.025	-44.638	296.862	219.217	-48.330	189.613	33.352	242.393	241.324	0.00023981	0.00032184	9.6851e-05	1378.6	4.7873e-06	2.5314e-06	1372.9	365.57	4.1908e-06	2.9399e-06	419.87	139.82	121.97	42.133	5.9977e-06	52.172	0.00045978	0.00046459	0.00014638	1387.3	5.2092e-06	5.0215e-06	1387.7	371.27	4.9966e-06	5.2558e-06	425.22	142.31	123.49	42.929	5.8136e-06	53.214	113.744	160.316	207.712	-42.401	90.298	34.702	-42.386	-37.906	43.130	125.876	-38.387	-34.182	-33.863	-28.865	79.361	-29.743	-8191	255	
1218.278	1	1	0	0	0.090761	0.12354	0.059445	0.2297	0.20569	0.13768	0.29786	0.062	0.28304	0.14718	0.055363	0.18057	0.29445	0.096537	0.11081	0.15733	-3.3812	-3.4958	-3.6458	-3.8271	-3.6229	-3.8083	-3.6083	-3.4958	-3.9	-3.5104	-3.8667	-3.9	-3.4625	-4.2854	-3.5979	-3.6854	276.911	207.908	129.930	284.667	12.509	127.204	280.282	147.285	229.691	24.936	-47.452	187.745	273.491	172.410	228.883	-27.613	0.00024671	0.00048449	0.00023141	1377	3.2017e-06	5.4608e-06	1368.1	366.36	5.8278e-06	6.6334e-06	420.79	139.33	121.22	42.073	9.6385e-07	51.999	0.00045587	0.00049906	0.00014877	1387.6	5.1172e-06	5.4321e-06	1384.5	371.58	5.01e-06	5.6645e-06	425.23	142	123.3	43.011	5.7109e-06	53.103	109.669	17.092	11.875	-42.447	82.363	183.407	-42.626	-37.813	59.032	132.329	-38.217	-34.105	-33.739	-28.803	34.040	-29.752	-8191	255	
1218.397	1	1	0	0	0.080339	0.13909	0.11792	0.13267	0.058897	0.23863	0.26933	0.14888	0.1054	0.12512	0.11489	0.14867	0.18869	0.099587	0.08083	0.27762	-3.5021	-3.375	-3.6208	-3.6979	-3.5062	-3.7667	-3.75	-3.8021	-3.9104	-3.5333	-3.7979	-4.0729	-3.6125	-4.0188	-3.7083	-3.6396	183.808	80.203	268.133	236.219	128.953	35.655	222.847	163.516	240.768	11.130	237.622	248.101	234.882	-51.311	17.262	241.577	0.00027479	0.00040148	0.00019131	1372.1	3.3664e-06	4.3057e-06	1377.1	365.64	3.9056e-07	6.628e-06	419.63	139.03	121.17	42.089	3.0031e-06	52.347	0.00045608	0.00052377	0.00014688	1385.7	5.091e-06	5.7896e-06	1388	371.17	5.0379e-06	5.8536e-06	424.77	142.02	123.42	43.033	5.5132e-06	53.19	120.007	-18.627	41.239	-42.428	86.161	59.303	-42.507	-37.953	208.582	141.268	-38.485	-34.049	-33.564	-28.927	27.090	-29.494	-8191	255	
1218.493	1	1	0	0	0.094672	0.14645	0.10083	0.12433	0.10425	0.17562	0.47609	0.14277	0.25009	0.23085	0.3125	0.12831	0.13982	0.19607	0.16771	0.19038	-3.4896	-3.4542	-3.6271	-4.1083	-3.3021	-3.7792	-3.9979	-3.5625	-3.8708	-3.6854	-3.6542	-3.8292	-3.6667	-3.9375	-3.6542	-3.2833	219.040	211.217	50.124	263.404	207.914	252.813	221.328	-47.623	222.419	2.415	266.245	242.650	261.309	-42.402	204.694	143.777	0.00023965	8.7756e-05	0.00020789	1379.1	4.1749e-06	7.5731e-06	1372.4	366.91	3.0219e-06	7.3046e-07	419.47	139.16	122.16	42.166	1.6202e-06	52.274	0.00046518	0.00053899	0.00014005	1386.5	5.3632e-06	5.8862e-06	1385.4	370.99	5.2433e-06	5.8483e-06	424.53	141.95	123.81	43.077	5.3088e-06	53.128	110.647	-33.371	-16.726	-42.462	122.241	69.300	-42.540	-38.059	157.182	82.812	-38.362	-33.737	-33.500	-29.095	117.502	-29.561	-8191	255	
1218.589	1	1	0	0	0.18619	0.098446	0.12674	0.21127	0.1209	0.2008	0.020619	0.27833	0.23273	0.15957	0.099443	0.3879	0.10751	0.22871	0.26546	0.26171	-3.4521	-3.5833	-3.5667	-3.8688	-3.3542	-3.8438	-3.8167	-3.5542	-3.6479	-3.7708	-3.6354	-4.0771	-3.625	-3.8854	-3.9021	-3.5	74.208	153.535	215.569	-16.586	228.186	-20.223	103.333	187.858	262.291	-46.765	300.662	259.306	-41.217	293.415	299.520	260.326	0.00025714	0.00051003	0.00020458	1374.7	3.7448e-06	1.5573e-06	1377.1	366.56	3.2588e-06	5.7757e-06	419.1	139.77	121.46	42.148	2.4965e-06	52.167	0.00048821	0.00052551	0.00013556	1383.8	5.5509e-06	5.7346e-06	1385.7	370.65	5.5496e-06	5.6449e-06	424.26	142.17	123.87	43.05	5.0983e-06	53.05	122.467	24.636	8.130	-42.402	119.453	63.036	-42.531	-38.113	105.261	92.224	-38.249	-34.162	-33.686	-28.923	73.914	-29.439	-8191	255	
1218.709	1	1	0	0	0.32916	0.13441	0.10923	0.19957	0.14598	0.12025	0.20019	0.16787	0.03483	0.12171	0.33515	0.24769	0.15098	0.14937	0.12473	0.26883	-3.3812	-3.7375	-3.4042	-4.1062	-3.5875	-3.7146	-3.9833	-3.6875	-3.8812	-3.9375	-3.8271	-3.9313	-3.575	-3.8812	-3.775	-3.6521	215.858	67.384	157.203	-24.196	152.027	106.744	261.677	-31.036	300.520	-3.731	276.237	-20.668	11.767	194.517	161.910	262.353	0.00033529	0.00047282	0.00011665	1379.3	2.1617e-06	1.3792e-06	1374	365.53	4.6194e-06	5.8531e-06	420.32	139.1	121.47	42.254	4.4603e-06	52.165	0.00051216	0.00050073	0.0001324	1385	5.753e-06	5.4636e-06	1382.8	370.28	5.7619e-06	5.3404e-06	424.23	142.12	123.92	43.009	5.0277e-06	53.135	111.169	-2.201	-32.032	-42.598	62.519	132.115	-42.312	-38.021	150.154	114.189	-38.288	-34.307	-33.702	-28.948	162.740	-29.519	-8191	255	
1218.781	1	1	0	0	0.12877	0.19125	0.10526	0.1829	0.06782	0.25444	0.14669	0.16444	0.11587	0.39311	0.26176	0.10526	0.11907	0.27809	0.20594	0.082344	-3.4375	-3.6	-3.4896	-3.9792	-3.7104	-3.5938	-4.1625	-3.6917	-3.8042	-3.6771	-3.5625	-4.025	-3.7875	-3.7687	-3.6979	-3.625	137.278	116.521	211.923	147.902	-51.876	-41.738	242.270	266.069	262.846	46.739	271.736	89.545	111.097	237.115	116.411	217.357	0.00021451	0.00030657	0.00013398	1379.3	5.7494e-06	4.4171e-06	1368.3	364.18	8.5919e-07	3.7431e-06	420.62	139.86	121.59	42.327	2.3539e-06	52.159	0.00052226	0.00048873	0.00013038	1385.7	5.7811e-06	5.3907e-06	1380.6	370.8	5.7376e-06	5.2429e-06	423.87	142.54	123.97	43.047	4.9671e-06	53.233	150.336	3.230	66.787	-42.503	144.974	29.208	-42.689	-38.048	12.338	124.579	-38.375	-34.147	-33.660	-28.725	48.316	-29.498	-8191	255	
1218.877	1	1	0	0	0.16233	0.1611	0.14591	0.37412	0.28299	0.2428	0.16371	0.19712	0.21351	0.18711	0.15011	0.20026	0.16984	0.46907	0.20402	0.21523	-3.4354	-3.7958	-3.6646	-4.0354	-3.6229	-3.5687	-4	-3.7292	-3.7146	-4.0146	-3.7812	-4.1062	-3.775	-3.4083	-3.8396	-3.6417	301.580	69.069	-35.831	249.751	288.629	130.824	221.390	282.709	135.172	129.039	233.685	283.473	-35.201	233.186	121.302	247.475	0.00021698	0.00074312	0.00011387	1375.6	5.1552e-06	1.9352e-06	1372.9	365.13	3.2919e-06	1.5133e-06	420.8	139.15	121.09	42.013	3.1468e-06	52.11	0.00051522	0.00047153	0.00012864	1386.9	5.5627e-06	5.2372e-06	1381.5	371.21	5.5131e-06	5.0747e-06	423.75	142.39	123.48	42.86	4.9163e-06	53.267	83.078	71.627	19.251	-42.464	42.238	43.252	-42.765	-37.912	-32.321	-2.568	-38.463	-34.075	-33.647	-28.731	188.953	-29.802	-8191	255	
1218.998	1	1	0	0	0.099264	0.060079	0.12026	0.21758	0.2269	0.12722	0.24204	0.23714	0.1126	0.13306	0.13257	0.084939	0.052426	0.17627	0.15211	0.25092	-3.2562	-3.7021	-3.4396	-3.7729	-3.5375	-3.4958	-4.0917	-3.6625	-3.7083	-3.8292	-3.7104	-3.7333	-3.7125	-3.5417	-3.8979	-3.4854	280.608	232.741	-22.333	276.880	-7.399	242.988	-42.853	283.434	186.549	164.637	-17.737	291.425	72.010	225.929	142.644	275.116	0.0002328	0.00067321	5.9863e-05	1378.9	3.9686e-06	7.6738e-06	1366.2	365.59	1.9288e-06	2.4652e-06	420.73	139.89	121.21	42.085	3.8374e-06	52.17	0.00048712	0.00045054	0.00012919	1387.7	5.2563e-06	5.0612e-06	1380.4	371.84	5.3017e-06	4.8466e-06	423.83	142.63	123.44	42.815	5.2645e-06	53.244	112.291	20.761	96.999	-42.359	86.204	34.186	-42.525	-37.951	83.018	73.550	-38.392	-34.136	-33.673	-29.059	193.342	-29.533	-8191	255	
1219.092	1	1	0	0	0.22962	0.21481	0.10109	0.30798	0.16543	0.15364	0.25535	0.15217	0.11053	0.045839	0.35045	0.28916	0.17086	0.1485	0.16256	0.25376	-3.2083	-3.8958	-3.5458	-3.8708	-3.6813	-3.4875	-3.9917	-3.6646	-3.45	-3.8875	-3.7604	-3.7896	-3.8	-3.475	-3.7271	-3.7729	280.516	21.227	149.570	291.036	-23.599	262.930	243.151	-46.758	289.831	155.880	230.867	261.004	276.874	-20.457	244.058	280.388	0.00023702	0.00021711	5.1519e-05	1377.6	5.156e-06	4.0641e-06	1371.6	365.6	5.1303e-06	2.8477e-06	419.67	139.54	121.56	42.042	4.7791e-06	52.101	0.00048266	0.00044376	0.0001392	1387.4	5.1593e-06	5.0639e-06	1383.6	371.41	5.2964e-06	4.8488e-06	424.44	142.71	123.43	42.864	5.6543e-06	53.189	102.370	23.923	95.714	-42.575	50.089	77.058	-42.437	-37.853	84.468	62.147	-38.430	-34.094	-33.646	-29.077	143.077	-29.496	-8191	255	
1219.188	1	1	0	0	0.079312	0.13422	0.15828	0.23702	0.23123	0.12343	0.24577	0.15758	0.15418	0.04703	0.24328	0.2051	0.25691	0.15798	0.043509	0.19981	-3.125	-4.0062	-3.6208	-3.7583	-3.7625	-3.4542	-4.0125	-3.6604	-3.5792	-3.9813	-3.8	-3.7562	-3.7146	-3.4583	-3.7542	-3.8417	61.784	188.987	199.543	267.649	228.801	166.291	-24.772	-30.551	134.306	303.797	243.187	-39.486	-52.491	290.636	277.428	276.722	0.0002383	0.00074583	7.9809e-05	1374.8	2.94e-06	6.3685e-06	1370.2	366.61	2.7153e-06	3.0345e-06	420.02	139.78	121.26	42.15	5.1026e-06	52.103	0.00047555	0.00044517	0.00014595	1386.3	5.0893e-06	5.0648e-06	1384.2	371.32	5.1672e-06	5.0341e-06	425.51	142.47	123.25	42.922	5.8264e-06	53.128	119.690	13.379	89.608	-42.544	177.129	85.070	-42.446	-37.873	106.098	180.364	-38.134	-34.355	-33.464	-29.001	119.236	-29.964	-8191	255	
1219.309	1	1	0	0	0.055497	0.0047719	0.44331	0.28892	0.12572	0.042321	0.22893	0.17784	0.11281	0.19419	0.13949	0.14832	0.17056	0.24559	0.21653	0.21996	-3.0833	-3.8333	-3.625	-3.7438	-3.6917	-3.4562	-4.0479	-3.8438	-3.2646	-3.9208	-3.5938	-3.7729	-3.7146	-3.4562	-3.7146	-3.6688	232.420	128.547	33.726	244.305	157.464	262.021	202.947	275.432	112.702	239.250	264.526	248.889	254.221	299.916	299.517	283.812	0.00018875	0.00026558	0.00019558	1376.9	3.0212e-06	2.8037e-06	1372.4	366.88	2.3325e-06	6.7277e-06	420.21	139.29	121.45	41.953	3.4076e-06	52.178	0.0004669	0.0004729	0.00014877	1386.6	4.9136e-06	5.3284e-06	1387	370.81	5.0457e-06	5.2946e-06	425.52	142.24	123.29	43	5.7221e-06	53.065	106.904	54.999	42.697	-42.488	57.326	159.616	-42.655	-37.792	22.726	129.937	-38.280	-34.247	-33.624	-28.769	125.221	-29.489	-8191	255	
1219.405	1	1	0	0	0.10562	0.077313	0.30415	0.31756	0.14087	0.18387	0.15493	0.3693	0.12248	0.10164	0.176	0.202	0.15967	0.25358	0.10671	0.11819	-2.9333	-3.8521	-3.4	-3.4833	-3.7771	-3.3937	-3.9896	-3.9625	-3.5292	-3.9042	-3.7667	-3.4854	-3.9771	-3.6562	-3.6083	-4.0021	113.177	169.824	56.162	260.815	-50.149	281.037	215.414	264.149	-19.080	88.586	239.084	273.685	232.250	24.295	153.017	260.115	0.00019119	0.00043878	0.00019978	1371.9	1.9688e-06	5.8164e-06	1372.9	367.37	7.1377e-06	2.6294e-06	419.62	139.02	121.62	42.204	3.4549e-06	52.121	0.00045767	0.00050424	0.00014401	1384.8	4.9009e-06	5.6279e-06	1385.4	370.65	5.0089e-06	5.6292e-06	424.81	142.08	123.35	43.121	5.5274e-06	53.001	120.944	106.994	59.223	-42.449	29.187	109.887	-42.441	-38.128	158.482	122.816	-38.329	-34.203	-33.876	-28.905	82.379	-29.587	-8191	255	
1219.477	1	1	0	0	0.031478	0.16978	0.21112	0.10503	0.16507	0.1158	0.18769	0.24613	0.14165	0.1374	0.33311	0.20485	0.15867	0.36046	0.19968	0.063852	-2.9021	-3.7583	-3.8104	-3.6229	-3.9333	-3.4833	-4.0229	-3.8125	-3.475	-3.8083	-3.8042	-3.5854	-3.8833	-3.6708	-3.6271	-3.9396	109.695	71.748	12.630	3.843	179.164	275.516	206.525	237.990	122.489	11.475	189.341	-18.069	246.725	272.978	73.765	252.765	0.0002305	0.00046049	0.00026328	1376.8	6.1901e-06	7.1409e-06	1375.3	365.95	4.1759e-06	3.477e-06	420.6	139.46	121.6	42.107	4.9766e-06	52.171	0.00046295	0.00052735	0.00013784	1385	5.0197e-06	5.7691e-06	1384.3	370.4	5.2565e-06	5.8102e-06	424.04	142.25	123.45	43.033	5.4199e-06	53.007	108.003	-24.733	24.766	-42.435	172.164	43.448	-42.605	-37.936	179.472	118.893	-38.406	-34.066	-33.646	-29.015	78.068	-29.507	-8191	255	
1219.573	1	1	0	0	0.058152	0.19146	0.17447	0.40392	0.14838	0.20937	0.35551	0.24429	0.20377	0.015679	0.25401	0.16393	0.088876	0.20308	0.056452	0.071401	-3.1479	-3.7833	-3.9042	-3.6625	-4.0167	-3.6646	-3.6896	-4.0604	-3.5583	-3.7104	-3.875	-3.5062	-4.1021	-3.8187	-3.5875	-3.9604	65.177	-24.519	106.443	288.640	239.788	8.933	243.172	251.296	289.261	4.147	213.884	31.820	-34.657	-19.789	278.453	141.296	0.00016903	0.00076655	0.00015683	1379.3	4.1555e-06	5.0748e-06	1370.8	368.04	4.07e-06	6.4847e-06	421.4	139.91	122.4	42.261	2.5444e-06	52.24	0.0004849	0.00052738	0.00013439	1385.9	5.3768e-06	5.6866e-06	1384.5	371.03	5.5829e-06	5.7004e-06	424.51	142.23	124.18	43.067	5.2599e-06	52.987	127.109	11.343	-6.034	-42.625	168.453	52.565	-42.485	-37.970	132.985	104.745	-38.533	-34.203	-33.487	-28.881	165.284	-29.768	-8191	255	
1219.694	1	1	0	0	0.10918	0.24645	0.22156	0.29488	0.21623	0.37642	0.10996	0.28079	0.19109	0.17431	0.26686	0.17943	0.18933	0.30436	0.09522	0.22877	-2.9979	-3.6521	-3.7771	-3.5417	-3.8792	-3.7271	-3.8167	-4.0479	-3.55	-3.6625	-3.9604	-3.4958	-4.1729	-3.8312	-3.3625	-4.1125	34.696	25.277	194.953	-40.991	-27.349	181.143	287.063	146.975	116.052	210.158	229.832	152.947	-24.239	-20.757	13.858	-4.207	0.00032266	0.00036043	0.00022026	1372	1.1355e-06	7.5968e-06	1371.7	365.92	1.0367e-06	4.4408e-06	420.74	139.99	121.71	42.035	3.2813e-07	52.11	0.00051409	0.00051811	0.00013141	1386.3	5.757e-06	5.5424e-06	1383.5	370.49	5.8198e-06	5.5605e-06	424.35	142.27	124	43.006	5.1718e-06	53.033	112.083	34.326	33.138	-42.418	130.437	34.735	-42.655	-37.850	75.494	98.877	-38.380	-34.240	-33.679	-29.004	29.181	-29.662	-8191	255	
1219.790	1	1	0	0	0.08805	0.055696	0.09967	0.28806	0.1172	0.016942	0.32695	0.35528	0.16499	0.12717	0.16595	0.046134	0.29248	0.14922	0.15157	0.34026	-3.0833	-3.5917	-3.7667	-3.7083	-3.7625	-3.8104	-3.6146	-3.7917	-3.6104	-3.6437	-3.7812	-3.4562	-3.8729	-3.7271	-3.2729	-3.9938	-46.782	204.555	-28.763	254.320	-54.153	153.554	277.027	250.259	299.330	141.635	216.155	20.532	-37.587	293.365	127.033	210.138	0.00014894	0.00048519	0.00020442	1377.7	5.0372e-06	6.8718e-06	1375.4	366.69	2.3963e-06	4.3385e-06	421.99	140	121.59	42.143	7.2012e-06	52.246	0.0005194	0.00049652	0.00012644	1387.4	5.8028e-06	5.2702e-06	1384.4	371.44	5.7522e-06	5.4121e-06	424.08	142.87	124.05	42.982	5.0182e-06	53.202	120.758	23.662	16.815	-42.429	60.785	34.558	-42.438	-37.963	14.421	78.823	-38.210	-33.976	-33.641	-28.984	79.215	-29.437	-8191	255	
1219.886	1	1	0	0	0.16983	0.18276	0.05152	0.23525	0.055336	0.066876	0.21763	0.059762	0.12704	0.070804	0.16389	0.1562	0.16274	0.083001	0.057692	0.44906	-3.1146	-3.6708	-3.7354	-3.625	-3.6896	-3.6771	-3.4292	-3.8292	-3.6771	-3.3979	-3.9229	-3.4813	-3.5938	-3.6479	-3.3583	-3.8521	68.438	-12.689	-48.248	297.616	209.040	200.322	202.197	130.768	-55.185	84.854	211.919	-54.082	234.014	280.614	215.957	261.060	0.00026756	0.00056831	0.00012743	1375.6	5.3056e-06	3.3217e-06	1380.1	366.76	5.2271e-06	1.6889e-06	418.1	139.59	121.85	42.2	1.1148e-06	52.358	0.00050928	0.00048657	0.00012355	1388.9	5.6441e-06	5.1335e-06	1386.1	372.44	5.5292e-06	5.2331e-06	423.36	142.72	124.06	42.975	5.0136e-06	53.37	101.067	20.590	64.773	-42.510	86.002	79.376	-42.714	-37.911	81.062	249.892	-38.353	-34.165	-33.720	-29.038	82.614	-29.825	-8191	255	
1219.982	1	1	0	0	0.21199	0.01859	0.21008	0.42424	0.056869	0.11456	0.18323	0.23658	0.25328	0.017727	0.17528	0.36302	0.13667	0.19099	0.28856	0.17149	-3.0896	-3.3646	-3.7125	-3.6625	-3.4729	-3.875	-3.7	-3.8271	-3.4646	-3.4042	-3.9104	-3.5938	-3.4021	-3.7542	-3.3958	-3.8083	-53.950	97.698	30.792	287.921	278.161	44.618	244.477	240.268	4.385	302.687	227.580	-46.802	106.777	36.279	-44.468	199.279	0.00020297	0.00061415	0.00010714	1380.8	2.4219e-06	7.3211e-06	1373.8	367.54	1.9726e-06	6.244e-06	420.48	139.53	122.07	42.164	1.8043e-06	51.9	0.00049457	0.00047967	0.00012833	1390.1	5.5746e-06	5.0641e-06	1384.8	372.51	5.464e-06	5.2255e-06	424.93	142.97	124.04	42.939	5.4245e-06	53.335	110.503	-10.013	11.333	-42.551	63.573	84.206	-42.724	-37.899	40.942	101.536	-38.289	-34.207	-33.727	-29.150	79.833	-29.789	-8191	255	
1220.077	1	1	0	0	0.1472	0.17118	0.11886	0.30927	0.13053	0.27813	0.25081	0.12862	0.067605	0.10791	0.14586	0.19906	0.23357	0.13175	0.14874	0.1173	-3.3208	-3.3229	-3.6625	-3.6646	-3.6167	-3.5271	-3.6958	-3.7646	-3.6292	-3.2417	-3.7854	-3.4188	-3.4333	-4.0458	-3.4104	-3.6875	286.095	224.525	159.090	287.057	54.922	116.414	247.883	168.838	138.261	69.979	39.400	246.538	-32.396	212.592	40.211	-21.639	0.00030849	0.00020619	0.00017934	1380.8	1.4663e-06	3.1552e-06	1374	368.13	5.523e-06	7.458e-06	420.08	139.78	121.88	42.149	3.6092e-06	51.962	0.00048944	0.00047852	0.00013703	1392.4	5.4912e-06	5.022e-06	1388.4	373.07	5.3436e-06	5.1786e-06	425.25	142.89	123.94	42.864	5.7613e-06	53.311	118.717	73.486	65.241	-42.450	178.205	79.348	-42.656	-37.951	-13.169	93.141	-38.449	-34.055	-33.338	-28.973	102.437	-29.731	-8191	255	
1220.173	1	1	0	0	0.12197	0.36193	0.14569	0.29576	0.088442	0.090894	0.44479	0.043782	0.10042	0.1008	0.10035	0.36339	0.31764	0.17335	0.15946	0.19136	-3.4458	-3.4396	-3.7083	-3.9688	-3.6396	-3.8979	-3.7562	-3.725	-3.6896	-3.3417	-3.7604	-3.6042	-3.4792	-3.9813	-3.425	-3.8333	140.585	112.696	270.118	141.762	225.320	174.587	266.130	240.955	120.849	-0.079	232.110	238.359	-24.454	211.876	119.531	11.729	0.00023413	0.00080015	9.4743e-05	1380.9	1.9387e-06	2.4869e-06	1376.4	366.31	1.7238e-06	6.5584e-06	421.17	139.86	121.67	42.152	1.9093e-06	52.062	0.00048497	0.0004779	0.00014779	1392	5.4997e-06	5.1034e-06	1391.3	372.62	5.3318e-06	5.406e-06	426.69	142.89	123.83	43.004	6.2178e-06	53.397	95.384	102.474	45.748	-42.483	47.400	139.538	-42.526	-37.894	197.747	177.518	-38.548	-34.157	-33.615	-29.019	73.767	-29.521	-8191	255	
1220.271	1	1	0	0	0.18936	0.27027	0.24991	0.18841	0.080012	0.16085	0.22646	0.21985	0.20257	0.11588	0.22775	0.19917	0.1604	0.20971	0.12101	0.12434	-3.3896	-3.4021	-3.675	-3.9146	-3.6125	-3.8167	-3.725	-3.5542	-3.7979	-3.5271	-3.9208	-3.5625	-3.4958	-4.0146	-3.7375	-3.5938	-36.932	258.540	198.861	211.436	238.113	220.202	230.892	251.783	145.200	-1.717	265.592	241.309	218.413	293.138	36.261	125.815	0.00024144	0.00017616	0.00019399	1380.5	1.5404e-06	7.9311e-06	1374.9	366.58	2.3932e-06	3.2165e-06	419.8	139.57	121.21	42.019	5.841e-06	52.145	0.00049207	0.00051358	0.0001611	1390.6	5.5336e-06	5.6035e-06	1391.5	372.76	5.3827e-06	5.8574e-06	426.76	142.52	123.59	43.015	6.3219e-06	53.291	109.188	-9.517	21.758	-42.533	176.851	68.377	-42.656	-37.893	-53.771	143.981	-38.367	-34.197	-33.773	-29.061	102.988	-29.709	-8191	255	
1220.389	1	1	0	0	0.07648	0.070242	0.18801	0.10046	0.23513	0.20778	0.17014	0.21711	0.097259	0.046238	0.22991	0.052101	0.15028	0.18651	0.25842	0.067749	-3.5375	-3.5083	-3.6417	-3.9271	-3.4771	-4.0479	-3.9646	-3.6583	-3.8812	-3.2646	-3.8917	-3.9667	-3.5625	-3.8312	-3.5167	-3.8042	90.175	-51.717	-36.827	205.233	122.203	193.415	122.524	229.325	-36.469	97.876	256.634	-31.455	-22.126	-51.662	64.982	16.359	0.00015575	0.00055762	0.00015807	1379.8	4.0484e-06	8.1318e-06	1371.6	366.36	5.2048e-06	3.364e-06	419.91	139.46	121.69	42.087	2.6862e-06	52.095	0.00048602	0.00055081	0.00016066	1391	5.5552e-06	6.038e-06	1390	372.09	5.3553e-06	6.195e-06	426.19	142.57	123.72	43.149	6.0939e-06	53.274	125.884	48.023	39.104	-42.488	85.016	114.802	-42.551	-37.957	-14.635	148.308	-38.277	-34.089	-33.717	-28.837	86.710	-29.515	-8191	255	
1220.486	1	1	0	0	0.11254	0.15099	0.075813	0.14297	0.046499	0.3925	0.19452	0.055727	0.054036	0.12712	0.12874	0.33466	0.19327	0.048954	0.09906	0.51822	-3.6417	-3.4729	-3.8208	-3.8729	-3.2708	-3.7083	-3.7396	-3.55	-3.9271	-3.4896	-3.7854	-3.8354	-3.5167	-4	-3.8208	-3.4708	118.806	75.350	-7.711	269.008	122.777	129.166	292.053	-34.482	63.019	186.976	-18.958	256.698	184.473	-36.741	301.678	288.999	0.00029037	0.00040664	0.00014688	1379.3	6.0028e-06	3.8113e-06	1373.3	367.72	6.5003e-06	5.5318e-06	419.62	139.35	121.3	42.105	3.8207e-06	52.105	0.0004895	0.00057604	0.00015475	1388.2	5.592e-06	6.3101e-06	1388.5	372.37	5.5157e-06	6.3095e-06	425.47	142.56	124.03	43.125	5.815e-06	53.154	120.932	27.368	65.355	-42.448	103.857	30.928	-42.601	-37.923	164.716	88.733	-38.457	-34.242	-33.779	-28.788	99.482	-29.703	-8191	255	
1220.582	1	1	0	0	0.13381	0.10478	0.10062	0.25441	0.16755	0.053375	0.10636	0.27798	0.23051	0.1723	0.20015	0.16616	0.15483	0.091329	0.077245	0.16525	-3.4854	-3.5917	-3.7062	-3.8604	-3.5167	-3.7667	-3.7667	-3.4688	-3.8625	-3.5792	-3.6396	-3.8292	-3.4375	-3.7146	-3.8417	-3.5062	1.869	18.436	165.331	275.252	143.330	199.833	-9.375	237.984	298.620	239.116	-29.523	234.363	22.817	269.367	25.577	-53.856	0.00022623	0.00051967	0.00020906	1377.2	5.3764e-06	3.4438e-06	1372	368.05	3.5017e-06	3.6044e-06	420.36	139.44	121.73	42.144	2.4997e-06	52.281	0.00050761	0.00056659	0.00014884	1386.1	5.7632e-06	6.2062e-06	1386.1	371.9	5.689e-06	6.1478e-06	425.57	142.28	124.08	43.119	5.522e-06	53.117	101.656	2.278	0.618	-42.528	135.811	57.224	-42.584	-37.937	86.937	150.846	-38.331	-34.087	-33.631	-28.754	111.362	-29.640	-8191	255	
1220.678	1	1	0	0	0.21659	0.098138	0.050379	0.26908	0.34247	0.06399	0.15037	0.14592	0.1954	0.15353	0.056993	0.074711	0.29678	0.33201	0.2578	0.11156	-3.5771	-3.6729	-3.6583	-4.0687	-3.3417	-3.7083	-3.7938	-3.6	-3.8146	-3.6458	-3.5563	-4.0021	-3.4958	-3.7604	-3.7562	-3.5917	193.534	239.168	90.346	271.172	-15.083	-33.080	227.912	262.527	55.626	198.128	227.927	81.924	268.577	28.488	194.546	174.760	0.00033048	0.00035282	0.00013013	1376.1	4.6964e-06	1.0072e-06	1373.9	366.8	7.0148e-06	3.6628e-06	419.3	139.26	121.28	42.147	2.7803e-06	52.076	0.00052961	0.0005428	0.00014285	1385.9	5.9735e-06	5.9769e-06	1384.7	371.42	5.9913e-06	5.8189e-06	424.47	142.17	124.18	43.014	5.3597e-06	53.126	116.330	20.131	-30.276	-42.531	128.077	125.954	-42.702	-37.911	167.859	108.765	-38.382	-34.349	-33.540	-29.104	73.568	-29.718	-8191	255	
1220.774	1	1	0	0	0.14797	0.091214	0.048684	0.35652	0.10083	0.20318	0.10625	0.184	0.18547	0.26471	0.19142	0.12916	0.25178	0.2247	0.10337	0.14912	-3.3771	-3.7479	-3.5438	-4.0188	-3.4229	-3.6354	-3.9708	-3.3667	-3.8125	-3.7396	-3.4646	-3.8688	-3.4417	-3.6542	-3.8917	-3.5938	-18.394	188.332	176.097	219.968	158.394	263.925	277.229	289.674	-15.803	30.865	244.732	155.677	293.720	-10.834	28.603	179.698	0.00026164	0.00052026	0.00011486	1376.8	5.9363e-06	3.2262e-06	1373.2	367.16	7.46e-07	6.9352e-06	421.11	139.1	121.21	42.107	2.6119e-06	51.946	0.00054872	0.00052654	0.000139	1388.2	6.1065e-06	5.734e-06	1384.9	371.81	6.0926e-06	5.5758e-06	424.38	142.39	124.17	43.041	5.2225e-06	53.218	119.233	47.817	12.534	-42.374	126.845	65.339	-42.549	-37.867	149.191	41.264	-38.083	-34.024	-33.515	-28.944	131.565	-29.508	-8191	255	
1220.870	1	1	0	0	0.19625	0.13902	0.11723	0.24263	0.15323	0.14746	0.17257	0.27965	0.10156	0.2892	0.18547	0.11843	0.078433	0.10008	0.099662	0.10986	-3.4833	-3.4646	-3.4062	-3.9104	-3.5104	-3.5854	-3.9271	-3.4583	-3.6562	-3.6875	-3.5646	-4.0083	-3.8104	-3.5521	-4.0229	-3.7104	4.091	68.282	-54.609	227.638	170.303	56.933	265.410	244.747	0.845	282.557	289.920	298.162	140.652	59.225	205.282	100.918	0.00022032	0.00053432	0.00012425	1376.5	4.9007e-06	4.8487e-06	1371.1	366.25	1.8224e-06	9.67e-07	420.93	139.25	121.41	42.153	4.7189e-06	52.209	0.00055269	0.00049974	0.00013735	1389.3	6.0123e-06	5.6675e-06	1384.3	372.29	5.9967e-06	5.4726e-06	424.57	142.74	123.98	43.047	5.1251e-06	53.359	110.581	-19.577	18.854	-42.438	110.376	27.982	-42.403	-37.839	137.703	213.781	-38.420	-34.084	-33.558	-28.785	72.211	-29.368	-8191	255	
1220.991	1	1	0	0	0.26358	0.08255	0.09532	0.32829	0.14719	0.092414	0.090618	0.10929	0.17021	0.15631	0.35556	0.22426	0.32829	0.091445	0.12414	0.11005	-3.2604	-3.7438	-3.2771	-3.9813	-3.7313	-3.4208	-4.2125	-3.7146	-3.7208	-4.0271	-3.7708	-3.9083	-3.675	-3.7083	-3.9375	-3.5583	264.384	87.037	-21.706	281.741	100.241	10.956	249.205	104.694	-48.667	230.210	240.354	-47.897	-35.836	104.484	40.113	-9.698	0.00028603	3.8842e-05	7.0491e-05	1381	5.307e-06	9.1457e-06	1369.1	367.14	5.4791e-06	4.1469e-06	419.66	139.81	121.52	42.248	1.0634e-05	52.152	0.00053431	0.00048823	0.00013683	1393.6	5.7892e-06	5.5298e-06	1384	372.84	5.8832e-06	5.2944e-06	424.52	142.94	123.89	43.014	5.432e-06	53.482	114.995	-2.322	40.327	-42.460	137.164	90.966	-42.469	-37.940	39.011	124.149	-38.462	-34.243	-33.348	-28.927	100.932	-29.653	-8191	255	
1221.087	1	1	0	0	0.053749	0.21101	0.30384	0.35934	0.027043	0.037842	0.22616	0.26713	0.1842	0.10657	0.16253	0.013435	0.28045	0.16288	0.24058	0.17752	-3.2521	-3.8167	-3.3833	-3.8979	-3.5271	-3.4188	-3.9271	-3.8063	-3.5521	-3.9979	-3.6854	-4.1167	-4.0354	-3.675	-3.9917	-3.9125	-55.604	-15.536	102.297	280.721	50.785	8.066	278.920	256.956	-9.481	213.870	205.540	257.649	274.706	-15.712	282.834	176.216	0.00027065	0.00037357	3.2331e-05	1377.1	2.9198e-06	6.1641e-06	1378.7	367.66	4.425e-06	6.5482e-06	419.52	139.78	121.71	42.274	7.4744e-06	52.12	0.00051847	0.00048112	0.00014289	1393.2	5.5669e-06	5.3757e-06	1389.9	373	5.6832e-06	5.1834e-06	425.66	143.22	123.97	43.032	5.7553e-06	53.339	99.433	32.233	36.754	-42.401	13.278	79.445	-42.655	-37.825	57.448	88.239	-38.278	-34.045	-33.581	-28.866	155.355	-29.800	-8191	255	
1221.181	1	1	0	0	0.028755	0.033426	0.14184	0.20391	0.23522	0.077006	0.16896	0.39444	0.10077	0.21491	0.15159	0.090718	0.2572	0.10849	0.14583	0.23321	-3.3688	-3.8063	-3.4833	-3.8125	-3.7208	-3.4646	-3.8917	-3.8229	-3.4021	-3.9875	-3.7417	-3.9062	-3.9104	-3.5187	-3.9271	-3.7042	248.857	-18.399	123.187	255.780	110.332	283.214	-38.018	249.458	59.940	247.426	189.700	208.591	288.158	-29.998	38.350	243.410	0.00028197	0.00047341	0.00023723	1381	2.1075e-06	6.3472e-06	1374.2	367.76	6.3182e-06	2.1712e-06	420.58	139.33	121.38	42.003	3.766e-06	52.064	0.00050847	0.00046702	0.00015189	1393.9	5.4286e-06	5.2985e-06	1390.3	373.13	5.5813e-06	5.1826e-06	426.53	142.88	123.81	42.914	6.0784e-06	53.293	117.635	43.085	44.328	-42.448	125.157	103.292	-42.486	-37.946	65.509	103.722	-38.218	-34.102	-33.657	-28.890	112.997	-29.365	-8191	255	
1221.278	1	1	0	0	0.19973	0.33505	0.047673	0.15851	0.073987	0.19794	0.27584	0.19179	0.19646	0.19319	0.12937	0.15607	0.18811	0.23069	0.21464	0.16566	-2.9813	-3.8187	-3.3937	-3.7229	-3.7979	-3.3479	-3.9604	-3.8375	-3.4375	-3.9167	-3.7562	-3.6896	-4.0875	-3.7958	-3.7583	-3.5958	88.163	245.466	-21.452	273.511	-19.639	234.092	291.381	202.446	282.823	17.388	-8.774	4.783	-45.797	295.046	-51.054	249.523	0.00015952	0.00034466	0.00014648	1380.4	4.1955e-06	4.0672e-06	1378.5	367.32	2.9837e-06	7.2066e-06	420.07	139.74	121.32	42.048	4.5992e-06	52.031	0.00050522	0.00048638	0.0001575	1391.4	5.2994e-06	5.4895e-06	1390.7	372.75	5.4703e-06	5.3984e-06	426.57	142.96	123.49	43.043	6.1466e-06	53.22	98.070	31.248	8.798	-42.421	77.053	56.985	-42.617	-37.969	116.034	162.552	-38.442	-34.195	-33.517	-28.921	201.673	-29.710	-8191	255	
1221.374	1	1	0	0	0.28925	0.084637	0.13203	0.15923	0.17276	0.043391	0.094829	0.30666	0.17788	0.18682	0.16165	0.093509	0.21025	0.18706	0.16666	0.18087	-3.1312	-3.8104	-3.4417	-3.8625	-3.8646	-3.4458	-3.8021	-3.8271	-3.2854	-3.8625	-3.875	-3.6417	-3.8229	-3.4313	-3.6583	-3.7583	219.514	2.032	34.082	290.425	264.640	179.385	165.124	274.726	25.749	243.141	97.744	95.870	269.445	48.606	-22.675	-1.190	0.00021806	0.0002038	0.00025492	1380.7	1.5956e-06	4.5694e-06	1377.4	367.47	1.2016e-06	1.6504e-06	421.2	139.61	121.21	42.073	3.6488e-06	52.215	0.00048673	0.00050779	0.00015447	1391.3	5.1052e-06	5.7297e-06	1390.8	372.02	5.2497e-06	5.6915e-06	426.06	142.66	123.35	43.113	5.8685e-06	53.119	100.081	29.012	36.182	-42.422	4.169	88.569	-42.679	-37.953	130.158	45.456	-38.389	-34.147	-33.493	-28.706	145.079	-29.801	-8191	255	
#DATA ENDS
