BOXY.EXE: ISS Imagent and Oximeter Data Acquisition Program Version 0.80
Ascii Record File

#ACQ INFORMATION
2  Detector Channels 
16  External MUX Channels 
1  Auxiliary Channels 
5000  Waveform (CCF) Frequency (Hz)
1  Waveforms Skipped 
30  Waveforms Averaged 
1  Cycles Averaged 
16  Acquisitions per Waveform 
10.0806  Updata Rate (Hz) 

#FILE INFORMATION
TRUE -- External MUX Channel results are PARSED.
FALSE -- AC DC and Phase are NOT grouped.
TRUE -- Companion Program Settings File CREATED.
FALSE -- AC data not excluded
FALSE -- DC data not excluded
FALSE -- Phase data not excluded
FALSE -- Auxillary Chn. data not excluded
Tab delimiters

#CALIBRATION STATE
TRUE -- Waveform Calibration Values APPLIED.


#AUX CALIBRATION VALUES
Val Type	aux-1	

Term	1.0000e+00	
Factor	0.0000e+00	


#WF CALIBRATION VALUES
A = Detector Channel
Val Type	A-AC1	A-AC2	A-AC3	A-AC4	A-AC5	A-AC6	A-AC7	A-AC8	A-AC9	A-AC10	A-AC11	A-AC12	A-AC13	A-AC14	A-AC15	A-AC16	A-DC1	A-DC2	A-DC3	A-DC4	A-DC5	A-DC6	A-DC7	A-DC8	A-DC9	A-DC10	A-DC11	A-DC12	A-DC13	A-DC14	A-DC15	A-DC16	A-Ph1	A-Ph2	A-Ph3	A-Ph4	A-Ph5	A-Ph6	A-Ph7	A-Ph8	A-Ph9	A-Ph10	A-Ph11	A-Ph12	A-Ph13	A-Ph14	A-Ph15	A-Ph16	

Term	0.00000e+00	0.00000e+00	0.00000e+00	0.00000e+00	0.00000e+00	0.00000e+00	0.00000e+00	0.00000e+00	0.00000e+00	0.00000e+00	0.00000e+00	0.00000e+00	0.00000e+00	0.00000e+00	0.00000e+00	0.00000e+00	0.00000e+00	0.00000e+00	0.00000e+00	0.00000e+00	0.00000e+00	0.00000e+00	0.00000e+00	0.00000e+00	0.00000e+00	0.00000e+00	0.00000e+00	0.00000e+00	0.00000e+00	0.00000e+00	0.00000e+00	0.00000e+00	0.00000e+00	0.00000e+00	0.00000e+00	0.00000e+00	0.00000e+00	0.00000e+00	0.00000e+00	0.00000e+00	0.00000e+00	0.00000e+00	0.00000e+00	0.00000e+00	0.00000e+00	0.00000e+00	0.00000e+00	0.00000e+00	
Factor	1.00000e+00	1.00000e+00	1.00000e+00	1.00000e+00	1.00000e+00	1.00000e+00	1.00000e+00	1.00000e+00	1.00000e+00	1.00000e+00	1.00000e+00	1.00000e+00	1.00000e+00	1.00000e+00	1.00000e+00	1.00000e+00	1.00000e+00	1.00000e+00	1.00000e+00	1.00000e+00	1.00000e+00	1.00000e+00	1.00000e+00	1.00000e+00	1.00000e+00	1.00000e+00	1.00000e+00	1.00000e+00	1.00000e+00	1.00000e+00	1.00000e+00	1.00000e+00	X	X	X	X	X	X	X	X	X	X	X	X	X	X	X	X	

B = Detector Channel
Val Type	B-AC1	B-AC2	B-AC3	B-AC4	B-AC5	B-AC6	B-AC7	B-AC8	B-AC9	B-AC10	B-AC11	B-AC12	B-AC13	B-AC14	B-AC15	B-AC16	B-DC1	B-DC2	B-DC3	B-DC4	B-DC5	B-DC6	B-DC7	B-DC8	B-DC9	B-DC10	B-DC11	B-DC12	B-DC13	B-DC14	B-DC15	B-DC16	B-Ph1	B-Ph2	B-Ph3	B-Ph4	B-Ph5	B-Ph6	B-Ph7	B-Ph8	B-Ph9	B-Ph10	B-Ph11	B-Ph12	B-Ph13	B-Ph14	B-Ph15	B-Ph16	

Term	0.00000e+00	0.00000e+00	0.00000e+00	0.00000e+00	0.00000e+00	0.00000e+00	0.00000e+00	0.00000e+00	0.00000e+00	0.00000e+00	0.00000e+00	0.00000e+00	0.00000e+00	0.00000e+00	0.00000e+00	0.00000e+00	0.00000e+00	0.00000e+00	0.00000e+00	0.00000e+00	0.00000e+00	0.00000e+00	0.00000e+00	0.00000e+00	0.00000e+00	0.00000e+00	0.00000e+00	0.00000e+00	0.00000e+00	0.00000e+00	0.00000e+00	0.00000e+00	-8.38749e+01	-1.27561e+02	-1.29383e+02	-1.82058e+02	-6.19891e+01	-7.14628e+01	-1.55747e+02	-1.62015e+02	-5.82974e+01	-6.86231e+01	-1.71238e+02	-1.71237e+02	-1.82061e+02	-1.77401e+02	-5.37240e+01	-1.50384e+02	
Factor	1.42709e-05	1.38839e-04	3.86687e-05	4.05436e-01	1.18614e-06	1.51150e-06	1.47071e-01	4.85511e-02	1.02166e-06	1.47325e-06	7.65610e-02	2.53067e-02	2.09732e-02	7.51348e-03	1.33112e-06	1.08675e-02	6.93059e-06	9.99898e-06	2.78233e-06	2.11537e-01	1.08082e-07	1.11375e-07	7.28781e-02	2.56159e-02	1.03966e-07	1.10888e-07	3.90711e-02	1.30328e-02	1.12180e-02	3.99480e-03	1.06624e-07	5.59534e-03	X	X	X	X	X	X	X	X	X	X	X	X	X	X	X	X	



#DISTANCE SETTINGS
A = Detector Channel
A-1	A-2	A-3	A-4	A-5	A-6	A-7	A-8	A-9	A-10	A-11	A-12	A-13	A-14	A-15	A-16	

2.5000e+00	3.0000e+00	2.5000e+00	3.0000e+00	2.0000e+00	3.0000e+00	1.5000e+00	3.0000e+00	3.0000e+00	3.0000e+00	3.0000e+00	3.0000e+00	3.0000e+00	3.0000e+00	1.5000e+00	3.0000e+00	

B = Detector Channel
B-1	B-2	B-3	B-4	B-5	B-6	B-7	B-8	B-9	B-10	B-11	B-12	B-13	B-14	B-15	B-16	

1.0000e+01	1.0000e+01	1.0000e+01	1.4400e+00	1.0000e+01	1.0000e+01	1.5100e+00	1.9400e+00	1.0000e+01	1.0000e+01	1.9900e+00	2.4900e+00	2.4100e+00	2.9000e+00	1.0000e+01	2.9800e+00	




#DATA BEGINS
time	group	step	mark	flag	A-AC1	A-AC2	A-AC3	A-AC4	A-AC5	A-AC6	A-AC7	A-AC8	A-AC9	A-AC10	A-AC11	A-AC12	A-AC13	A-AC14	A-AC15	A-AC16	A-DC1	A-DC2	A-DC3	A-DC4	A-DC5	A-DC6	A-DC7	A-DC8	A-DC9	A-DC10	A-DC11	A-DC12	A-DC13	A-DC14	A-DC15	A-DC16	A-Ph1	A-Ph2	A-Ph3	A-Ph4	A-Ph5	A-Ph6	A-Ph7	A-Ph8	A-Ph9	A-Ph10	A-Ph11	A-Ph12	A-Ph13	A-Ph14	A-Ph15	A-Ph16	B-AC1	B-AC2	B-AC3	B-AC4	B-AC5	B-AC6	B-AC7	B-AC8	B-AC9	B-AC10	B-AC11	B-AC12	B-AC13	B-AC14	B-AC15	B-AC16	B-DC1	B-DC2	B-DC3	B-DC4	B-DC5	B-DC6	B-DC7	B-DC8	B-DC9	B-DC10	B-DC11	B-DC12	B-DC13	B-DC14	B-DC15	B-DC16	B-Ph1	B-Ph2	B-Ph3	B-Ph4	B-Ph5	B-Ph6	B-Ph7	B-Ph8	B-Ph9	B-Ph10	B-Ph11	B-Ph12	B-Ph13	B-Ph14	B-Ph15	B-Ph16	aux-1	digaux	

26310.498	1	1	0	256	0.10439	0.055129	0.18017	0.13951	0.24236	0.22115	0.28476	0.079625	0.12816	0.036355	0.17352	0.25195	0.055264	0.20713	0.33387	0.15045	-2.4042	-2.6562	-2.7938	-2.7687	-2.6604	-3.1146	-2.825	-2.6708	-2.9208	-2.5729	-2.8937	-2.8521	-2.6104	-3.1042	-2.6271	-2.9021	181.175	169.839	134.028	99.195	313.109	301.491	257.117	270.004	252.031	315.340	206.528	304.025	-30.398	-32.602	172.026	288.693	0.00028034	0.0014451	0.00013777	655.1	1.399e-05	5.6139e-06	1031.4	156.81	4.8436e-06	2.942e-05	344.54	120.64	49.212	18.523	5.7936e-06	55.263	0.022449	0.032143	0.0090034	1290.4	0.0003456	0.00035787	1197.7	229.05	0.00033679	0.00035903	448.59	156.66	83.32	30.515	0.00034751	70.05	165.607	62.232	15.586	-23.685	94.093	279.453	-23.231	-18.315	-32.269	226.970	-18.245	-13.156	-13.561	-8.713	254.352	-9.430	-8191	255	
26310.594	1	1	0	0	0.20005	0.11004	0.079975	0.22272	0.29906	0.24652	0.34843	0.07055	0.12128	0.17945	0.25869	0.26245	0.21835	0.17361	0.16395	0.0099384	-2.5021	-2.6083	-2.9125	-3.05	-2.7042	-2.9917	-2.9354	-2.8083	-2.8979	-2.6937	-3	-3.0521	-2.5979	-3.0583	-2.7562	-2.8438	-31.760	-28.108	20.740	31.692	281.748	67.090	276.839	134.069	214.603	52.939	-22.143	312.484	53.685	95.393	90.054	2.431	0.00015049	0.00028587	0.00081312	658.74	1.607e-05	2.0897e-05	1024.9	155.28	9.3331e-06	3.1435e-05	344.38	120.39	49.306	18.537	3.6477e-06	55.03	0.022825	0.032773	0.0091979	1307.6	0.00035782	0.00037025	1197.5	232.18	0.00034715	0.0003687	452.71	157.5	84.011	30.889	0.00035529	70.22	141.490	-35.054	141.231	-23.671	185.766	107.193	-23.047	-18.669	69.225	-19.013	-18.603	-13.542	-14.344	-8.979	0.920	-9.247	-8191	255	
26310.689	1	1	0	0	0.21493	0.10415	0.13548	0.06912	0.093524	0.14316	0.22742	0.084543	0.11454	0.14341	0.18674	0.22226	0.19702	0.064583	0.1336	0.15706	-2.4688	-2.65	-2.8521	-2.9833	-2.6021	-2.9542	-2.875	-2.7771	-2.8	-2.6833	-2.7562	-2.9667	-2.5604	-2.9417	-2.8417	-2.7104	180.137	14.959	230.393	265.494	296.381	163.271	297.728	198.779	89.856	60.077	284.236	-35.169	216.430	180.241	31.047	259.441	3.3577e-05	0.0024191	0.00038685	663.81	1.0184e-05	8.2562e-06	1026.5	157.17	2.0219e-06	1.2548e-05	346.63	121.84	50.456	18.87	1.4785e-05	55.155	0.023192	0.033353	0.0094443	1316.2	0.00035998	0.00037328	1203	233.35	0.00034899	0.00037202	455.16	159.64	85.104	31.518	0.000363	71.399	299.749	225.743	-23.424	-24.013	289.871	178.552	-23.013	-18.506	230.455	137.465	-18.285	-13.184	-13.932	-9.030	144.912	-9.433	-8191	255	
26310.783	1	1	0	0	0.18472	0.18241	0.095871	0.029668	0.084919	0.008585	0.15116	0.14007	0.18884	0.14204	0.13919	0.15836	0.37645	0.3231	0.18125	0.13943	-2.575	-2.5167	-2.6542	-2.9042	-2.5958	-2.9958	-3.1604	-2.5917	-3.0354	-2.7667	-2.7896	-3.175	-2.7188	-2.8229	-2.8208	-2.7333	-24.959	29.408	316.382	231.168	276.118	115.352	236.029	274.473	64.027	-33.506	275.035	194.510	258.063	-16.494	94.712	203.374	3.034e-05	0.00056557	0.00020879	666.48	3.9018e-06	1.5071e-05	1034.7	159.89	1.7218e-05	1.6915e-05	349.06	122.29	50.488	18.777	2.2346e-05	55.697	0.023984	0.034417	0.0098065	1347.2	0.00037662	0.00038995	1217.8	239.07	0.0003618	0.0003879	463.83	161.72	86.898	31.978	0.00037342	72.136	157.205	224.999	97.426	-23.202	141.484	103.167	-23.174	-18.145	154.255	93.932	-18.426	-13.596	-12.983	-8.946	-29.164	-8.720	-8191	255	
26310.881	1	1	0	0	0.24664	0.2614	0.15246	0.21935	0.46158	0.17695	0.16982	0.12207	0.059427	0.13771	0.1566	0.16047	0.20186	0.13692	0.18059	0.14477	-2.5917	-2.8625	-2.6312	-3.025	-2.6729	-2.9104	-3.0687	-2.7042	-2.8667	-2.7208	-2.6229	-3.1125	-2.8375	-2.8937	-2.8917	-2.6521	-0.593	38.791	-35.098	226.463	-3.456	3.832	258.619	125.854	122.823	320.278	190.895	204.775	246.305	36.496	318.279	219.921	0.00029884	0.0012565	0.00055101	660.22	1.3236e-05	3.6663e-05	1032.9	160.26	1.2959e-05	1.1041e-05	346.36	122.91	50.38	18.811	4.4818e-06	55.462	0.02431	0.03471	0.009807	1347.4	0.00037222	0.00038303	1217.4	236.7	0.0003558	0.00037719	459.69	160.66	85.357	31.57	0.0003638	71.276	231.971	113.754	7.730	-23.788	193.766	322.352	-23.169	-18.227	127.948	-29.653	-18.706	-13.493	-13.381	-9.335	237.638	-9.450	-8191	255	
26310.977	1	1	0	0	0.041631	0.12325	0.25653	0.11208	0.14289	0.10364	0.057624	0.20835	0.13429	0.10604	0.28183	0.14298	0.15732	0.18851	0.14593	0.19309	-2.5875	-2.7729	-2.6271	-2.8563	-2.7333	-2.6604	-2.9708	-2.6979	-3.0479	-2.8896	-2.5896	-3.0104	-2.6	-2.7729	-2.85	-2.675	194.607	146.138	273.044	15.242	310.781	226.443	-24.246	254.904	143.226	187.700	284.330	179.882	61.522	296.658	-28.377	310.539	0.00022963	0.0015033	9.4034e-05	653.57	8.4357e-06	1.2362e-05	1021.9	155.67	9.3587e-06	1.1862e-05	341.86	120.85	48.845	18.574	1.1762e-05	54.9	0.023629	0.033818	0.0094243	1320.4	0.00036476	0.00037506	1197.7	231	0.00035114	0.00036786	451.17	157.69	83.437	30.854	0.00035196	70.313	244.030	17.849	89.366	-23.374	52.082	176.729	-23.036	-18.827	148.562	240.539	-18.105	-13.745	-13.849	-9.182	185.986	-9.404	-8191	255	
26311.098	1	1	0	0	0.1159	0.088282	0.15307	0.20899	0.29487	0.17218	0.048582	0.11805	0.11378	0.27335	0.11716	0.14676	0.16343	0.13923	0.14242	0.15091	-2.5875	-2.8396	-2.3937	-3.0271	-2.7583	-2.6708	-3.2646	-2.7042	-2.7604	-2.9229	-2.7271	-3.0333	-2.6354	-2.6792	-2.8875	-2.5354	218.994	92.354	177.691	143.358	117.882	58.965	238.703	241.420	89.756	319.431	250.641	292.542	321.354	32.203	291.288	11.271	0.00025487	0.0016265	0.00055645	642.55	1.4705e-05	3.4302e-05	1020.7	154.09	7.2695e-06	2.9587e-05	340.44	120.72	48.891	18.858	2.0251e-06	55.506	0.022931	0.032888	0.0092996	1292	0.00035369	0.00036373	1186.8	227.7	0.00033768	0.00035857	444.95	155.87	82.229	30.64	0.00034127	70.005	157.749	129.945	-6.132	-23.954	120.832	271.751	-23.245	-17.955	-34.309	247.914	-18.655	-13.323	-13.167	-8.562	-32.628	-9.419	-8191	255	
26311.193	1	1	0	0	0.2938	0.058734	0.1282	0.27375	0.080109	0.15002	0.25546	0.20432	0.070355	0.1328	0.058095	0.20414	0.23849	0.17218	0.062893	0.10778	-2.5396	-2.7396	-2.6979	-2.8125	-2.6625	-2.6542	-3.1958	-2.7562	-2.9083	-2.9417	-2.6417	-3.0896	-2.6792	-2.65	-3.0958	-2.7687	93.940	159.890	184.336	311.730	60.650	90.561	-19.089	250.728	254.920	234.505	184.359	251.042	40.078	313.978	-19.828	263.647	0.00020066	0.00059108	0.0006669	649.14	1.283e-05	1.197e-05	1019.3	155.86	1.3553e-05	1.0327e-05	343.44	121.46	49.552	18.892	2.1695e-05	55.716	0.022114	0.031851	0.008922	1280.6	0.00034481	0.00035645	1183.6	226.49	0.00033823	0.00035676	446.61	157.01	82.941	30.765	0.00034828	70.767	166.573	48.960	-21.962	-23.668	145.131	48.637	-23.303	-18.756	221.901	203.771	-18.212	-13.454	-14.114	-9.330	275.053	-8.974	-8191	255	
26311.266	1	1	0	0	0.13415	0.25662	0.1475	0.34383	0.24342	0.028498	0.41965	0.20525	0.23834	0.17286	0.093454	0.27924	0.24701	0.34266	0.086113	0.26727	-2.4188	-2.7917	-2.5687	-2.8958	-2.7833	-2.8521	-3.3104	-2.6188	-2.9042	-2.95	-2.8937	-2.9958	-2.7979	-2.5792	-2.9813	-2.8688	135.852	235.179	249.329	-30.340	112.513	241.047	271.730	241.710	186.591	62.397	301.356	270.938	-26.930	255.769	285.347	168.375	0.00014001	0.000205	0.0003861	649.84	3.6599e-05	2.6537e-05	1023.5	154.81	8.7384e-06	3.1594e-05	346.5	122.98	49.531	19.094	2.0936e-05	56.19	0.022777	0.032761	0.0091051	1304.6	0.00035546	0.0003649	1191.7	228.71	0.0003416	0.00036216	450.26	158.42	83.201	30.94	0.00034374	71.025	180.422	242.129	144.709	-23.786	69.927	120.899	-23.081	-18.548	236.596	25.133	-18.465	-13.729	-14.017	-9.222	-5.593	-9.259	-8191	255	
26311.361	1	1	0	0	0.20229	0.083664	0.17908	0.18034	0.18404	0.098162	0.22177	0.33268	0.27432	0.023786	0.28379	0.1291	0.14267	0.1196	0.12213	0.023739	-2.2833	-3.0542	-2.5729	-2.8042	-2.7875	-2.6771	-3.1208	-2.7979	-2.5271	-2.9375	-2.5729	-3.0062	-2.9708	-2.5667	-2.9396	-2.85	6.938	-10.371	227.246	216.254	250.014	318.865	232.873	262.369	267.983	101.367	250.337	20.194	197.194	220.634	208.034	255.330	0.00017169	0.00039796	0.0003811	646.58	1.9092e-05	4.2664e-05	1017.4	155.33	6.4814e-06	1.6497e-05	339.65	120.86	48.983	18.445	2.1332e-05	55.275	0.0224	0.032389	0.0089346	1282.2	0.00034788	0.00035672	1184.2	226.95	0.00033967	0.0003579	444.58	156.2	82.317	30.307	0.00034564	70.034	146.780	164.833	22.306	-23.214	-8.048	132.126	-23.207	-18.143	-35.022	31.877	-18.292	-13.291	-13.581	-8.859	223.584	-9.629	-8191	255	
26311.482	1	1	0	0	0.12047	0.072944	0.037374	0.35479	0.25406	0.12824	0.15539	0.30017	0.26552	0.26381	0.10603	0.27202	0.10907	0.22801	0.13253	0.18143	-2.1396	-3.0458	-2.6833	-2.7	-2.8958	-2.6354	-2.8896	-2.8833	-2.8854	-2.95	-2.8354	-2.9292	-2.8271	-2.8208	-2.9083	-2.9958	287.409	296.370	294.170	271.616	92.281	262.616	297.858	237.843	31.600	190.453	226.025	260.285	-24.691	-26.592	105.463	313.381	0.00023382	0.00058556	0.00025883	647.62	2.8383e-05	3.7133e-05	1007.1	152.37	1.2888e-05	1.4758e-05	341	120.46	48.875	18.799	1.7408e-05	55.593	0.022345	0.032162	0.0088647	1278.8	0.00034406	0.00035504	1173.5	223.83	0.00033067	0.00035002	440.6	154.72	81.195	30.069	0.00034031	69.941	187.900	284.647	187.249	-24.135	221.012	114.427	-22.941	-18.206	209.380	-25.398	-18.622	-13.184	-13.202	-9.090	10.225	-9.111	-8191	255	
26311.578	1	1	0	0	0.071321	0.051469	0.048967	0.048742	0.35908	0.24017	0.31363	0.032209	0.1264	0.11532	0.18481	0.24099	0.058363	0.088678	0.29103	0.11765	-2.4625	-3.0146	-2.5417	-2.7562	-3.0708	-2.5333	-3.0083	-2.9896	-2.7438	-2.7896	-2.8417	-2.7875	-2.9667	-2.6771	-2.9417	-2.9646	15.513	86.697	232.921	319.975	276.237	257.326	235.038	209.203	-1.271	230.812	285.865	216.434	200.878	137.903	23.020	211.207	0.00016148	0.001565	0.00040232	642.4	1.9395e-05	1.9681e-05	1011.4	153.54	2.242e-05	1.9297e-05	337.91	120.1	48.852	18.583	1.9073e-05	55.244	0.021988	0.031734	0.0087781	1267.2	0.00034257	0.00035287	1175.2	224.54	0.00033347	0.0003497	440.47	155.07	81.392	30.095	0.00034091	69.809	256.797	42.439	3.281	-23.133	145.568	182.326	-22.682	-18.563	171.954	91.962	-18.177	-13.679	-14.068	-9.400	28.655	-9.197	-8191	255	
26311.674	1	1	0	0	0.072214	0.14759	0.184	0.20628	0.15779	0.28748	0.25095	0.31234	0.071223	0.24159	0.065206	0.2905	0.30779	0.11414	0.22738	0.28489	-2.3063	-2.9313	-2.7896	-2.6333	-3.0396	-2.8646	-2.9896	-2.8042	-2.5958	-2.7208	-2.8021	-2.6542	-2.9917	-2.75	-2.7146	-2.9208	0.230	96.609	146.211	218.322	229.223	173.449	269.473	283.041	-6.539	283.787	109.041	251.184	289.522	42.128	128.069	313.398	0.00034484	0.002692	0.00015229	645.26	7.9037e-06	1.5349e-05	1009.5	153.04	1.0474e-05	2.6944e-05	338.88	120.82	48.484	18.663	1.7013e-05	56.049	0.021927	0.031732	0.0088687	1275.5	0.0003446	0.00035269	1174.8	224	0.00032979	0.00035218	439.78	154.97	81.511	30.203	0.00034099	70.449	198.960	299.970	176.166	-23.919	262.687	-10.661	-22.783	-18.684	284.532	202.248	-18.528	-13.608	-12.932	-8.521	275.985	-9.227	-8191	255	
26311.770	1	1	0	0	0.23276	0.17635	0.22186	0.23479	0.28396	0.022564	0.33144	0.052723	0.011909	0.069115	0.092088	0.18445	0.081943	0.010295	0.10192	0.23927	-2.275	-2.7438	-2.8104	-2.7729	-3.0771	-2.8167	-3.075	-2.8854	-2.7625	-2.8563	-2.7229	-2.6104	-3	-2.5979	-2.7313	-3.0833	141.498	301.203	174.781	306.804	127.568	142.088	276.554	8.187	157.016	-35.376	315.775	111.429	135.775	171.841	94.031	319.734	0.00027369	0.0023675	0.00082203	632.81	1.1944e-05	1.0145e-05	1006.9	152.43	1.6336e-05	2.5617e-06	337.84	120.73	49.086	18.916	4.4308e-06	56.658	0.02196	0.031779	0.0088049	1264.7	0.000342	0.00035117	1172.3	223.08	0.00032651	0.00035432	440.46	155.7	81.649	30.441	0.00033997	70.81	224.437	308.877	86.221	-23.219	219.222	111.046	-22.653	-18.585	106.488	303.187	-18.113	-13.435	-13.602	-9.865	48.967	-9.289	-8191	255	
26311.889	1	1	0	0	0.14009	0.085113	0.2011	0.24547	0.17483	0.099587	0.10112	0.088287	0.18403	0.34875	0.30431	0.11201	0.26063	0.058607	0.17648	0.36024	-2.1583	-2.6917	-2.9042	-2.5104	-2.9729	-2.6604	-2.9271	-3.0208	-2.625	-3.0312	-2.9146	-2.5708	-2.9792	-2.7292	-2.8354	-3.1958	191.803	197.684	289.267	300.729	235.946	82.236	283.299	313.184	-4.065	178.130	246.450	61.830	-22.390	81.874	103.379	284.746	0.00010311	0.0029337	0.00022798	641.76	2.4039e-05	2.1179e-05	997.65	151.78	3.8422e-06	1.7286e-05	340.78	122	49.046	19.146	2.4666e-05	56.424	0.02211	0.031993	0.0089038	1272.5	0.00034489	0.00035811	1165.2	223.74	0.00033173	0.00035922	442.93	156.57	82.074	30.759	0.00034788	71.421	198.565	113.812	157.707	-23.773	180.134	163.848	-22.877	-18.067	235.489	145.512	-18.424	-13.354	-13.535	-9.754	129.547	-9.108	-8191	255	
26311.963	1	1	0	0	0.21107	0.22328	0.19673	0.063489	0.14957	0.19232	0.35594	0.27129	0.23416	0.35205	0.14874	0.16147	0.11199	0.17132	0.13155	0.16329	-2.3563	-2.7833	-2.9646	-2.5521	-3.1521	-2.9375	-2.8187	-2.9583	-2.7771	-2.9167	-2.9583	-2.8	-3.0187	-2.9104	-2.6813	-2.9583	55.955	319.236	-33.772	66.163	122.847	211.215	273.183	286.362	42.267	233.882	181.281	223.254	-3.334	258.775	170.394	238.918	0.0003396	0.0046959	0.00062315	634.09	9.0167e-06	1.3327e-05	1005.2	153.22	1.6636e-05	2.5495e-05	337.92	121.92	49.706	19.317	1.6899e-05	57.287	0.022248	0.032133	0.0089273	1264.7	0.00034689	0.00035675	1170.4	224.54	0.00032926	0.00035832	441.96	157.24	82.472	30.908	0.00034188	72.176	175.113	275.555	211.558	-23.635	74.381	236.629	-22.785	-18.045	157.222	124.621	-18.328	-13.381	-12.683	-9.093	308.644	-9.249	-8191	255	
26312.082	1	1	0	0	0.25314	0.23191	0.18707	0.036046	0.19088	0.19728	0.17899	0.2163	0.16865	0.2617	0.11063	0.17187	0.076546	0.24648	0.17968	0.13257	-2.3438	-2.6688	-2.8167	-2.5812	-2.7521	-2.85	-2.7896	-2.9854	-2.8708	-2.7208	-3.0167	-2.7458	-2.9625	-2.7687	-2.5687	-3.1104	256.825	214.595	188.110	188.366	77.834	15.924	140.590	233.293	278.276	301.995	79.841	35.852	42.558	-6.172	13.913	268.816	0.00033169	0.0021999	0.0002313	634.52	1.4712e-05	1.4337e-05	1013.3	154.68	2.3035e-05	1.1125e-05	343.86	123.79	50.172	19.609	1.7825e-05	58.221	0.022286	0.03217	0.0089647	1271.6	0.00035498	0.0003597	1177.5	226.04	0.00033301	0.00035831	445.39	158.06	82.968	31.129	0.00034309	72.666	116.457	207.637	-4.046	-23.544	160.803	315.156	-22.674	-18.691	160.202	-34.545	-18.237	-13.310	-13.385	-9.260	83.329	-8.896	-8191	255	
26312.178	1	1	0	0	0.16049	0.23328	0.072848	0.14313	0.18452	0.093652	0.19684	0.35314	0.038109	0.33088	0.31722	0.44043	0.21307	0.27818	0.082537	0.32933	-2.2458	-2.7229	-2.9521	-2.7354	-2.9	-2.7188	-2.5375	-3.025	-2.6583	-2.7188	-3.0521	-2.9146	-2.8396	-3.0979	-2.6458	-3.0875	124.471	67.664	27.259	13.874	195.908	126.250	253.286	277.981	161.361	321.260	296.423	266.222	-11.511	44.078	147.954	222.404	0.00026171	0.0021473	0.00053459	643.47	3.1664e-06	1.9488e-05	1017.6	154.67	1.025e-05	8.0166e-07	346.03	125.17	49.623	19.946	2.7587e-05	58.286	0.022285	0.032118	0.008962	1271.9	0.00035204	0.00035851	1184.8	227.52	0.0003346	0.00036595	450.12	160.33	83.749	31.545	0.00034373	73.299	291.637	122.633	-5.182	-23.089	145.955	187.481	-22.612	-18.720	124.795	14.931	-18.131	-12.954	-13.387	-9.034	315.370	-9.187	-8191	255	
26312.273	1	1	0	0	0.11309	0.1419	0.046919	0.24596	0.33859	0.13862	0.05861	0.2006	0.14115	0.11858	0.20216	0.061998	0.33745	0.44042	0.04655	0.24624	-2.3875	-2.8646	-2.975	-2.675	-2.9792	-3.175	-2.725	-2.9417	-2.7917	-2.7479	-3.1583	-2.6146	-2.7104	-2.8333	-2.6896	-3.1	33.505	61.624	281.379	135.648	282.915	149.543	218.726	146.921	153.055	48.170	227.923	300.107	-35.747	10.828	230.593	274.904	0.00030016	0.00095942	0.00060668	636.09	9.5955e-06	1.4113e-05	1003.6	153.42	6.2698e-06	6.7261e-06	343.05	123.26	49.162	19.605	8.6639e-06	57.728	0.022432	0.032255	0.0090276	1274.4	0.00035657	0.0003627	1173.9	226.55	0.00033879	0.00036202	447.46	158.92	82.929	31.179	0.00034585	72.805	203.639	170.731	-10.684	-24.173	61.009	281.427	-22.836	-17.982	218.556	12.395	-18.217	-13.166	-12.837	-8.650	37.112	-9.008	-8191	255	
26312.369	1	1	0	0	0.10029	0.14747	0.13427	0.32621	0.12782	0.085369	0.15897	0.16765	0.12797	0.059467	0.17104	0.26529	0.15273	0.13139	0.095549	0.24458	-2.3187	-2.6667	-2.9813	-2.6813	-2.8479	-2.7979	-2.9958	-2.8625	-2.8875	-2.4521	-3.1458	-2.7625	-2.6417	-2.9562	-2.4875	-3.0083	195.024	122.497	48.655	302.512	308.673	207.041	149.731	154.126	-11.904	30.349	44.973	19.768	210.533	20.205	-9.834	-28.880	0.00039482	0.0011792	0.00023329	635.69	1.0949e-05	3.0841e-05	1003.5	151.94	9.1158e-06	5.4139e-06	337.9	121.6	49.612	19.512	1.3484e-05	57.621	0.022568	0.032406	0.0090641	1271.5	0.00035333	0.00036285	1171.7	226.4	0.00033737	0.00036302	445.98	158.01	82.849	31.124	0.00034232	72.552	210.199	165.105	162.070	-23.365	220.323	87.741	-22.838	-18.052	146.428	65.274	-18.767	-13.626	-13.582	-8.334	282.043	-9.204	-8191	255	
26312.490	1	1	0	0	0.061446	0.07546	0.13343	0.13092	0.11787	0.21626	0.18733	0.18277	0.25816	0.031239	0.087896	0.12093	0.050407	0.16155	0.1989	0.10577	-2.5021	-2.5396	-2.8729	-2.7375	-2.7625	-2.9875	-2.7917	-2.8917	-2.9562	-2.6729	-2.9521	-2.9	-2.6917	-2.9458	-2.5792	-2.9437	96.163	-26.733	178.031	282.004	114.299	13.231	231.901	160.597	249.154	254.071	-21.880	236.627	101.469	159.381	-2.353	213.641	0.00025934	0.0013562	0.00041997	641.74	1.4479e-05	1.9873e-05	1007.8	151.75	2.0311e-05	1.5305e-05	340.27	122.81	49.387	19.526	1.5896e-05	57.545	0.022306	0.031987	0.0088905	1261.2	0.00034937	0.00035445	1171.5	224.24	0.00033059	0.00035281	445.51	157.7	82.424	31.079	0.00033996	72.748	112.657	161.095	177.186	-23.804	30.812	202.705	-22.863	-18.234	-15.260	-34.390	-17.875	-13.243	-13.066	-8.574	57.667	-9.300	-8191	255	
26312.562	1	1	0	0	0.2938	0.15043	0.24042	0.26436	0.25546	0.097445	0.13054	0.12221	0.28058	0.27479	0.21542	0.052283	0.11858	0.14782	0.17123	0.3559	-2.375	-2.6083	-3.0479	-2.7604	-2.6437	-3.1	-2.8146	-2.7188	-2.8708	-2.5375	-3.0104	-2.9833	-2.7062	-2.9271	-2.7375	-2.7792	272.801	266.519	211.278	246.048	149.548	35.097	243.528	-10.925	165.725	-22.132	237.629	299.352	-24.941	170.343	0.100	278.980	0.0002508	0.0014249	0.00027126	633.9	1.7779e-05	7.0765e-06	1008.8	154.44	3.3225e-05	6.3194e-06	342.63	123.02	49.725	19.555	5.2642e-06	58.184	0.022206	0.031833	0.00891	1270.5	0.00034869	0.00035728	1177.2	225.32	0.00033167	0.00035166	447.88	157.82	82.5	31.131	0.00033841	72.714	184.735	75.656	262.060	-23.325	98.241	-25.287	-23.023	-18.336	126.539	160.839	-18.194	-13.347	-13.586	-8.284	64.336	-9.226	-8191	255	
26312.658	1	1	0	0	0.13932	0.081494	0.48037	0.12345	0.13553	0.26584	0.36859	0.14957	0.094865	0.15674	0.1198	0.37845	0.17283	0.14735	0.25915	0.092741	-2.6333	-2.425	-2.6583	-2.7292	-2.5396	-3.0542	-2.7396	-2.7271	-2.9729	-2.7188	-2.8792	-2.9354	-2.7979	-3.0687	-2.7271	-2.8583	164.356	293.453	196.525	199.012	18.651	90.294	246.968	288.328	269.583	313.281	154.969	283.367	16.555	230.655	237.003	214.407	0.00032043	0.0027412	0.00046199	639.39	2.4396e-05	2.0577e-05	1016.1	153.32	5.9936e-06	1.5064e-05	340.9	121.71	48.939	19.167	4.3682e-05	57.201	0.022015	0.031773	0.0088362	1262.5	0.00034835	0.00035666	1177.3	224.77	0.00033257	0.00035355	444.28	156.8	81.975	30.955	0.00034312	72.125	177.601	83.662	149.522	-23.000	113.597	146.010	-22.640	-18.321	290.859	95.036	-18.198	-13.351	-13.953	-9.221	113.841	-8.760	-8191	255	
26312.779	1	1	0	0	0.17016	0.083009	0.27426	0.27875	0.024852	0.18204	0.39277	0.11587	0.31034	0.076298	0.10661	0.14424	0.13833	0.18181	0.15168	0.22065	-2.6208	-2.6042	-2.6333	-2.8792	-2.7833	-2.9396	-2.8771	-3.0187	-2.9854	-2.8312	-2.8729	-2.9708	-2.6833	-2.7562	-2.7417	-2.5854	221.303	150.376	-22.221	204.398	299.372	212.531	266.924	182.415	201.018	246.296	-16.400	256.004	-6.625	292.379	225.379	277.813	0.00019183	0.0011715	0.00075597	627.95	1.0951e-05	1.3367e-05	998.77	150.62	7.0842e-06	5.6592e-06	337.51	119.87	48.373	19.084	2.77e-05	56.951	0.022587	0.032515	0.0090597	1273.7	0.00035021	0.00036494	1169.3	223.98	0.0003386	0.00036205	444.59	156.44	82.469	31.001	0.00035129	71.782	142.237	115.629	10.187	-23.006	64.057	38.982	-22.905	-17.877	-28.329	225.674	-18.214	-13.077	-12.742	-8.770	167.038	-9.096	-8191	255	
26312.873	1	1	0	0	0.32623	0.22214	0.083706	0.34262	0.072356	0.13791	0.25887	0.28837	0.13685	0.16566	0.20446	0.1248	0.20535	0.17739	0.1167	0.21765	-2.5938	-2.6417	-2.7667	-2.9667	-2.5458	-2.9896	-3.0083	-2.5062	-2.9271	-2.8771	-2.8771	-3.0875	-2.7583	-2.8896	-2.8333	-2.7854	64.094	161.774	224.754	-14.379	96.306	43.635	257.005	199.786	147.514	121.370	-22.847	-18.704	276.450	45.495	1.284	160.020	0.00033644	0.0027283	0.00016345	635.76	1.2791e-05	5.1689e-06	996.29	152.18	1.2433e-05	3.3392e-05	339.05	120.49	48.819	18.969	1.2659e-05	56.312	0.023074	0.032977	0.0092592	1290.1	0.00035998	0.00037841	1179.7	226.98	0.00034949	0.00037319	449.06	157.76	83.358	31.3	0.00035616	72.121	265.709	206.957	296.605	-23.648	146.688	259.006	-23.134	-18.013	183.800	75.482	-18.388	-13.108	-13.976	-8.874	226.751	-9.144	-8191	255	
26312.971	1	1	0	0	0.18628	0.11778	0.11127	0.16128	0.23448	0.065973	0.16324	0.19541	0.057745	0.2963	0.12199	0.269	0.17961	0.099779	0.23219	0.10843	-2.675	-2.9333	-2.7833	-2.9292	-2.8604	-2.7667	-3.1771	-2.7	-2.7583	-2.7854	-2.7729	-3.0896	-2.7062	-2.9437	-2.8229	-2.6854	105.066	-33.394	100.445	304.278	120.222	153.375	259.388	239.065	61.770	262.979	278.877	285.811	195.593	295.866	72.012	23.997	0.00016257	0.0015834	0.00021777	632.17	9.3777e-06	1.9419e-05	1008.7	151.68	2.1942e-05	2.3154e-05	339.41	120.7	49.426	19.193	1.6701e-05	57.186	0.023371	0.033309	0.0092899	1292.2	0.00036132	0.00037576	1181.3	226.89	0.00034957	0.0003704	450.51	158.38	83.611	31.425	0.00035769	72.623	173.738	38.638	44.451	-24.404	45.902	120.595	-22.776	-18.242	226.940	138.558	-18.393	-13.428	-13.258	-8.731	149.903	-9.285	-8191	255	
26313.066	1	1	0	0	0.10466	0.11695	0.16905	0.27768	0.16944	0.23986	0.32445	0.013942	0.37656	0.14382	0.18922	0.21044	0.10319	0.26749	0.33358	0.20294	-2.3396	-2.7792	-2.7188	-2.9958	-2.5979	-2.9083	-3.1646	-2.8729	-2.9458	-2.9688	-2.8375	-3.0792	-2.8021	-2.8958	-3.0229	-2.7917	70.211	128.192	310.855	128.827	207.462	100.132	233.870	-2.904	312.360	308.978	244.754	281.810	219.401	272.959	305.564	296.673	0.00018729	0.002285	0.00067768	644.65	6.4299e-06	2.3922e-05	1020	152.69	1.367e-05	1.6739e-05	339.75	121.92	48.312	19.158	9.7448e-06	56.531	0.023587	0.033699	0.0094074	1308.9	0.00036534	0.00038239	1192.1	229.32	0.00035194	0.00037476	450.58	159.12	83.824	31.407	0.00036239	72.226	167.745	19.616	68.618	-23.236	116.638	236.913	-22.584	-18.036	140.307	-28.871	-18.027	-13.219	-13.864	-8.587	179.124	-8.862	-8191	255	
26313.162	1	1	0	0	0.11086	0.13497	0.39433	0.19546	0.31141	0.15045	0.019171	0.25066	0.11407	0.13422	0.13176	0.070484	0.073699	0.22479	0.17465	0.28555	-2.6604	-2.7708	-2.6396	-3.0646	-2.6937	-2.5187	-3.2833	-2.7646	-2.8479	-2.925	-2.7083	-2.9417	-2.8292	-2.7917	-3.0896	-2.8125	-6.626	227.686	310.524	310.505	316.326	-2.508	182.069	79.847	240.214	322.970	242.817	267.669	219.030	186.426	123.480	-27.243	0.00011705	0.0002821	0.0003567	627.13	2.6676e-05	2.9601e-05	1008.5	151.52	1.7404e-05	1.3106e-05	335.22	120.23	48.066	19.122	6.5234e-06	56.295	0.023942	0.034118	0.0094778	1308.3	0.00036989	0.0003805	1183.6	228.56	0.00035462	0.00037748	448.27	158.45	83.997	31.51	0.00036512	72.187	171.995	43.397	41.368	-23.231	155.766	119.521	-22.901	-18.398	62.294	14.551	-18.290	-13.164	-13.170	-8.298	145.325	-9.382	-8191	255	
26313.258	1	1	0	0	0.27133	0.15693	0.22424	0.11207	0.15192	0.16744	0.22694	0.11801	0.03814	0.10219	0.33326	0.20679	0.043099	0.02848	0.18034	0.054043	-2.2875	-2.7958	-2.7833	-2.8979	-2.9458	-2.7	-3.0208	-2.5458	-2.8083	-2.8729	-2.7042	-3.0625	-2.8625	-2.8604	-3.0667	-2.7104	204.523	285.370	4.484	274.102	233.504	104.616	179.439	169.196	-0.014	18.729	283.356	227.963	126.966	307.542	140.381	273.527	0.00029159	0.0011647	0.00059985	628.45	2.0078e-05	1.9079e-05	1002.2	152.3	7.1559e-06	2.0706e-05	341.26	121.35	49.168	19.126	2.0435e-05	57.174	0.023958	0.034017	0.009488	1311.4	0.00036833	0.00038599	1185.1	228.75	0.00035663	0.00038166	452.83	159.99	85.069	31.827	0.00037179	73.121	232.529	313.898	46.052	-23.971	196.481	156.203	-22.983	-17.781	-15.211	21.514	-18.373	-13.092	-12.791	-8.560	167.914	-8.943	-8191	255	
26313.354	1	1	0	0	0.026922	0.041178	0.17781	0.13979	0.11015	0.1548	0.18844	0.093805	0.062943	0.20221	0.22814	0.20771	0.2394	0.22957	0.28001	0.1347	-2.2229	-2.9646	-2.6875	-2.9208	-2.7562	-2.725	-3.1333	-2.9625	-2.8229	-3.0521	-2.7833	-2.9146	-2.8583	-2.7646	-3.0354	-2.7708	5.512	62.204	228.742	9.251	157.408	12.193	296.969	-12.413	115.894	210.756	237.096	291.515	190.622	74.510	40.549	267.801	0.0004118	0.002437	0.00029915	634.73	1.03e-05	3.5627e-05	1006.8	152.16	1.0265e-05	2.7216e-05	341.59	122.39	49.259	19.109	2.0903e-05	57.401	0.024672	0.034955	0.0097604	1333.9	0.00037914	0.0003935	1196.1	232.27	0.00036431	0.0003901	456.97	162.71	86.181	32.192	0.00037712	73.696	191.386	49.271	223.871	-24.296	41.626	166.245	-23.001	-18.254	223.912	44.671	-18.270	-13.183	-13.055	-8.908	144.110	-9.176	-8191	255	
26313.473	1	1	0	0	0.047342	0.10861	0.17665	0.12935	0.21285	0.12633	0.16585	0.12272	0.28559	0.08629	0.29446	0.054178	0.076055	0.13447	0.069432	0.28528	-2.3958	-2.9813	-2.6646	-3.0146	-2.6604	-2.8729	-3.125	-2.7979	-2.5625	-3.1479	-2.6854	-2.9188	-2.9125	-2.6479	-3.1271	-2.8083	189.896	60.610	216.351	138.516	65.239	182.436	262.327	12.857	-23.940	201.982	261.694	-35.570	258.774	283.292	213.782	299.708	0.00026518	0.00050627	0.00029461	635.43	3.3536e-06	8.852e-06	1015.7	154.2	2.6327e-05	1.5983e-05	342.79	122.44	49.938	19.347	2.7791e-05	57.685	0.024602	0.035462	0.0098552	1339.7	0.00038524	0.00039805	1207.3	234.11	0.00036482	0.00039166	458.37	162.71	86.138	32.247	0.00037349	73.959	198.571	142.296	237.759	-23.615	181.532	138.183	-22.962	-18.051	118.705	233.581	-18.273	-13.323	-13.640	-8.592	191.158	-9.202	-8191	255	
26313.568	1	1	0	0	0.16173	0.18056	0.12661	0.088128	0.075212	0.13106	0.29535	0.15096	0.16583	0.068959	0.14582	0.020771	0.12212	0.12671	0.25313	0.11003	-2.2979	-2.8937	-2.7604	-2.7875	-2.8958	-2.7	-2.9562	-2.7354	-2.6375	-2.9292	-2.6521	-2.9354	-2.975	-2.4896	-2.8083	-3.0042	298.516	180.909	151.233	0.627	105.520	168.296	199.445	93.453	258.738	26.991	285.878	109.161	274.221	140.170	206.325	223.700	9.624e-05	0.0023796	0.00060492	638.03	1.6116e-05	4.136e-05	1010.6	152.39	1.95e-05	2.3197e-05	337.42	120.97	48.887	19.371	1.3826e-05	55.878	0.024719	0.035313	0.0098294	1338.2	0.00037939	0.00038811	1199.6	232.04	0.00036237	0.00038793	453.33	160.5	84.881	31.782	0.00036929	72.376	201.125	138.446	-34.685	-23.930	186.658	320.335	-22.886	-17.961	86.899	14.957	-18.667	-13.615	-13.506	-8.924	322.105	-8.973	-8191	255	
26313.666	1	1	0	0	0.19325	0.18229	0.057857	0.37116	0.2868	0.069274	0.13303	0.098332	0.025736	0.35176	0.13737	0.17966	0.11395	0.22076	0.16478	0.20377	-2.2083	-2.9604	-2.7521	-2.8292	-2.8937	-2.6771	-3.1104	-2.8625	-2.6333	-2.8083	-2.8396	-2.85	-2.9542	-2.5417	-2.8458	-3.0146	275.437	137.662	176.240	-5.645	-11.280	79.620	282.999	252.404	153.812	49.102	-32.102	25.199	161.010	322.559	260.909	296.005	0.00040439	0.0015287	0.00030521	639.2	3.5211e-06	1.2074e-05	1003	151.13	5.0646e-06	3.5293e-05	339.48	120.41	48.872	19.076	1.8741e-05	56.755	0.024177	0.034878	0.0096873	1317.8	0.0003761	0.0003875	1194.3	230.21	0.00036118	0.00038758	451.21	159.52	84.757	31.622	0.0003665	72.474	270.340	20.800	138.473	-23.389	186.827	173.254	-22.830	-18.136	217.256	60.107	-18.276	-13.244	-13.173	-8.760	207.053	-8.916	-8191	255	
26313.762	1	1	0	0	0.25407	0.025694	0.15999	0.16968	0.14086	0.15814	0.10515	0.1122	0.12214	0.090439	0.18621	0.14006	0.28559	0.2282	0.15437	0.28382	-2.2042	-2.8646	-2.775	-2.8063	-2.9417	-2.7604	-3.0542	-2.9396	-2.475	-3.0312	-2.6625	-2.7854	-3.0479	-2.7146	-2.925	-2.9458	116.656	84.569	300.996	74.416	118.403	259.460	164.299	213.845	140.350	165.843	215.248	238.269	254.947	248.423	194.187	-34.418	0.00023875	0.0006093	0.0006011	635.63	4.7283e-06	7.7419e-06	1008.3	151.57	1.8051e-05	2.5301e-05	337.5	121.99	48.513	19.174	5.4188e-06	57.072	0.02393	0.034288	0.0094956	1305.9	0.00037026	0.00038078	1187.8	229.67	0.00035741	0.00038378	452.28	160.4	85.325	31.942	0.00037097	73.445	206.340	25.082	-32.335	-23.933	216.307	162.456	-22.687	-18.100	122.178	47.395	-18.368	-13.424	-13.283	-9.101	227.969	-8.985	-8191	255	
26313.857	1	1	0	0	0.18335	0.24638	0.12823	0.12106	0.25798	0.16403	0.42467	0.15788	0.17899	0.078626	0.23226	0.10779	0.19359	0.21959	0.1303	0.07421	-2.1521	-3.0458	-2.7833	-2.7125	-2.9292	-2.7979	-2.8833	-3.1083	-2.5646	-2.9917	-2.8958	-2.8875	-2.8896	-2.7333	-2.7083	-3.0021	71.235	20.455	154.401	35.457	166.386	200.119	232.505	180.482	53.467	8.140	-24.950	67.567	312.588	204.236	118.787	165.410	0.00026242	0.00078098	0.00024714	641.82	1.0785e-05	9.762e-06	1007.1	152.81	6.7691e-06	2.7199e-05	341.54	122.33	48.791	19.582	2.1205e-06	58.472	0.02424	0.035183	0.0097672	1331.7	0.00038323	0.00039327	1202.8	234.39	0.00037173	0.00040002	461.48	163.84	87.456	32.902	0.00038667	75.368	191.707	151.094	-30.237	-23.340	135.321	262.234	-23.112	-18.346	222.818	20.594	-18.037	-13.496	-13.774	-8.563	46.755	-9.190	-8191	255	
26313.953	1	1	0	0	0.14871	0.18086	0.063992	0.33557	0.16867	0.073936	0.2755	0.27918	0.19987	0.2919	0.19947	0.23025	0.1746	0.061105	0.2025	0.026497	-2.2667	-2.8958	-2.5687	-2.7083	-2.875	-2.9375	-2.75	-3.0167	-2.7854	-2.9938	-2.8896	-2.6188	-2.9271	-2.7104	-2.7167	-3.0271	29.274	164.949	234.455	-22.353	267.564	309.349	227.781	263.842	222.102	164.073	269.459	99.773	201.888	96.035	138.565	86.190	7.7187e-05	0.00221	0.00077145	642	2.3893e-05	4.7899e-06	1015	153.44	1.1184e-05	4.6725e-06	342.58	123.78	50.339	19.674	7.8509e-06	58.165	0.025274	0.036888	0.010105	1358	0.00039491	0.00040399	1215.3	237.15	0.00037507	0.00039999	462.79	164.6	87.612	32.837	0.00038347	75.224	213.123	-23.028	117.405	-23.868	189.838	32.414	-22.847	-17.751	67.220	109.843	-18.408	-13.405	-13.410	-9.165	185.627	-9.368	-8191	255	
26314.074	1	1	0	0	0.24192	0.17106	0.07967	0.060387	0.26936	0.033709	0.16158	0.11479	0.041741	0.089935	0.082065	0.20678	0.17605	0.28809	0.060511	0.37587	-2.3083	-2.9271	-2.9375	-2.7375	-2.9208	-2.8688	-2.7104	-3.0375	-2.8104	-2.8375	-3.1875	-2.7854	-2.9146	-2.7833	-2.6813	-3.0458	38.270	10.366	274.396	39.960	117.061	75.270	319.233	34.266	140.768	175.931	1.483	322.154	-25.229	-5.047	130.397	-6.847	0.00043515	0.0019005	0.00026688	636.48	1.2065e-05	2.3142e-05	994.12	152.42	1.8168e-05	2.9327e-05	340.52	120.74	49.208	19.435	3.9415e-06	57.591	0.024934	0.036179	0.0099998	1341.1	0.00038831	0.00039781	1199.6	234.64	0.00036929	0.00039751	456.41	161.48	86.361	32.401	0.00037904	74.423	197.551	210.436	186.353	-24.382	-15.259	87.257	-22.803	-17.927	132.969	285.778	-18.485	-13.015	-13.822	-9.070	18.832	-9.216	-8191	255	
26314.172	1	1	0	0	0.10945	0.3314	0.2109	0.19132	0.0037502	0.16669	0.3106	0.086132	0.098397	0.082347	0.23613	0.24347	0.12369	0.036581	0.26439	0.26618	-2.2604	-2.6813	-3.0229	-2.7313	-2.7375	-2.8375	-2.8187	-3.0583	-2.65	-2.7104	-3.1958	-2.65	-2.9625	-2.8063	-2.7333	-3.0604	283.863	240.796	151.283	-11.566	239.022	316.669	243.313	115.950	140.457	-24.990	-21.079	-29.541	6.165	294.059	209.520	276.704	0.00017629	0.0019199	0.00033784	631.08	3.1075e-05	2.5824e-05	999.72	150.72	8.2353e-06	1.3557e-05	338.28	122.02	48.972	19.436	9.8399e-06	57.619	0.024589	0.035803	0.0098897	1331.6	0.00038248	0.00039372	1191.7	231.82	0.0003641	0.00038874	453.71	160.49	85.64	32.057	0.00037265	73.68	182.508	118.139	46.191	-22.939	-16.510	140.593	-22.906	-18.096	34.203	-0.821	-18.277	-13.058	-13.180	-9.626	213.771	-9.318	-8191	255	
26314.266	1	1	0	0	0.21106	0.26361	0.23617	0.071623	0.06316	0.09612	0.38365	0.20099	0.22847	0.10245	0.21566	0.22503	0.20624	0.11855	0.13638	0.025012	-2.3104	-2.7979	-2.8833	-2.7687	-3.1	-2.8625	-2.6375	-2.8854	-3.0229	-2.8083	-2.8688	-2.7938	-2.8333	-3.1583	-2.575	-3.1167	246.145	169.188	103.275	248.610	304.739	298.526	229.182	224.588	201.994	-8.986	316.041	145.086	291.855	303.268	42.216	-15.878	0.00053834	0.0019669	0.00044099	619.32	6.0056e-06	2.5065e-05	1004.5	150.77	2.0994e-05	4.3725e-05	340.94	120.94	48.352	19.154	2.2131e-05	57.358	0.024182	0.035193	0.0097466	1320.3	0.00037924	0.00038696	1191.2	230.66	0.00036051	0.00038617	452.35	159.98	84.533	31.81	0.00036857	73.429	215.718	158.423	154.999	-24.673	-26.313	87.777	-22.763	-18.486	201.242	54.721	-18.326	-13.274	-13.721	-9.006	153.866	-9.044	-8191	255	
26314.361	1	1	0	0	0.11012	0.13649	0.22738	0.31572	0.26498	0.18911	0.22563	0.46596	0.31313	0.10734	0.15643	0.074838	0.33096	0.098343	0.22846	0.084462	-2.4229	-2.6333	-2.8417	-2.7271	-2.7917	-2.9604	-2.7875	-2.8396	-2.875	-2.7687	-3.125	-2.7042	-2.8583	-3.15	-2.6833	-2.9646	151.921	51.483	318.508	-19.788	108.301	315.144	236.005	262.466	106.660	254.320	23.138	47.426	35.272	-22.687	133.838	253.055	9.3807e-05	0.00045957	8.0429e-05	631.34	9.2111e-06	6.3451e-06	1007.1	150.1	1.0343e-05	3.4207e-05	341.11	121.54	48.632	19.42	1.8881e-05	57.668	0.024003	0.035204	0.0097336	1313.4	0.00037661	0.00038974	1193.4	231.38	0.0003666	0.00039325	456.95	161.63	86.059	32.413	0.00037825	74.346	207.748	113.946	242.910	-23.516	78.632	142.068	-22.814	-18.080	71.981	175.993	-18.095	-13.168	-13.374	-8.877	189.420	-9.006	-8191	255	
26314.436	1	1	0	0	0.066014	0.29783	0.085945	0.22972	0.20312	0.40409	0.17662	0.11497	0.16709	0.25671	0.16656	0.2717	0.072063	0.045316	0.20724	0.088656	-2.2729	-2.5979	-3.075	-2.8729	-2.75	-2.9458	-2.6813	-2.8583	-2.975	-2.7188	-2.9792	-2.7979	-2.6979	-2.9729	-2.6354	-2.8896	63.423	307.523	10.413	259.005	300.245	279.304	288.359	112.864	93.863	179.027	234.559	-30.622	-30.570	82.565	289.637	96.729	0.00022778	0.0017478	0.00068383	637.91	1.1339e-05	3.2934e-05	998.38	149.78	5.368e-06	2.2063e-05	336.83	119.81	48.719	19.062	7.2783e-06	57.211	0.02465	0.035703	0.009935	1335.3	0.00038339	0.00039454	1189.2	232.89	0.00036686	0.00039315	453.2	159.7	85.567	32.175	0.00037732	73.537	189.869	-4.936	-13.449	-22.483	237.311	289.605	-22.636	-17.979	213.297	116.741	-18.328	-13.648	-13.343	-9.413	211.689	-9.314	-8191	255	
26314.555	1	1	0	0	0.20243	0.23835	0.13866	0.14764	0.14069	0.25581	0.2192	0.10322	0.066607	0.089064	0.094607	0.1287	0.14781	0.10306	0.1869	0.089213	-2.3167	-2.6937	-2.85	-2.75	-2.6604	-2.9042	-2.7875	-2.75	-2.9938	-2.7292	-2.9667	-2.7979	-2.8417	-3.0729	-2.6625	-2.9	107.773	28.512	229.874	187.711	137.563	-14.367	209.061	28.454	307.460	37.959	28.577	26.727	312.025	81.017	158.862	247.507	0.00029359	0.0012993	0.00043992	626.12	7.9431e-06	2.9156e-05	996.31	149.23	1.6423e-05	9.7575e-07	336.53	120.35	47.954	19.08	1.1116e-05	57.203	0.024611	0.035722	0.0099452	1330.9	0.00038373	0.00039572	1188.7	230.76	0.00036711	0.00039281	453.56	160.32	85.75	32.222	0.00037484	73.748	215.261	298.720	249.792	-23.036	300.209	36.529	-23.142	-17.992	136.400	184.690	-18.120	-13.538	-13.581	-8.721	16.624	-9.054	-8191	255	
26314.650	1	1	0	0	0.097069	0.079686	0.19272	0.10293	0.068799	0.13647	0.14366	0.35784	0.073581	0.31331	0.13047	0.13014	0.20567	0.14645	0.041144	0.36973	-2.4479	-2.5979	-3.0687	-2.7271	-2.6208	-2.9771	-2.8104	-2.7542	-2.7771	-2.5792	-3.1188	-2.775	-2.5979	-2.8083	-2.6688	-2.9	33.480	-1.250	92.029	177.529	181.057	311.667	275.986	280.448	64.817	279.461	271.424	159.644	-17.527	250.401	15.541	188.647	0.00011377	0.0012706	0.0003021	625.53	1.6815e-05	8.1325e-06	999.56	149.77	5.5072e-06	2.2021e-05	335.26	120.47	48.806	19.372	4.549e-06	57.261	0.024549	0.035497	0.0099228	1323.9	0.00038258	0.00039481	1188.3	232.44	0.00036785	0.00039064	453.31	160.49	85.654	32.202	0.0003748	73.748	100.189	143.396	265.730	-23.065	216.216	83.320	-22.603	-17.753	-15.604	40.321	-18.028	-13.314	-13.461	-8.804	319.833	-8.814	-8191	255	
26314.746	1	1	0	0	0.27942	0.22958	0.036434	0.24101	0.12459	0.15969	0.13213	0.056504	0.11224	0.15289	0.18023	0.20602	0.077152	0.051092	0.13014	0.35488	-2.6375	-2.4958	-2.7729	-2.8979	-2.7	-2.8896	-2.6229	-2.7292	-3.0021	-2.6562	-2.875	-2.8771	-2.4479	-2.875	-2.8104	-2.7167	-28.602	251.765	130.639	-10.768	57.137	60.770	251.861	251.420	42.554	121.773	235.133	254.212	130.748	-6.203	63.200	265.207	0.00048515	0.0025553	0.00063742	630.28	1.191e-05	9.9436e-06	1000	152.45	1.0945e-05	1.7457e-05	340.86	122.48	49.256	19.602	1.8668e-05	57.825	0.024476	0.03517	0.0099088	1322.6	0.00037803	0.00039306	1193.7	232.11	0.00036509	0.00039095	455.37	161.67	86.08	32.608	0.00037597	74.582	207.131	-5.452	-9.705	-23.681	181.153	62.624	-22.940	-18.196	71.203	94.505	-18.706	-13.345	-13.858	-9.309	197.766	-9.038	-8191	255	
26314.842	1	1	0	0	0.26029	0.072911	0.31251	0.09909	0.32203	0.22723	0.078276	0.074396	0.074993	0.31126	0.19687	0.32421	0.05304	0.16693	0.10253	0.12586	-2.5958	-2.6458	-2.6958	-3.1146	-2.4958	-2.9646	-3.1146	-2.7	-3.0938	-2.6813	-2.9	-3.0521	-2.6646	-2.9208	-2.8875	-2.6417	303.918	304.275	283.903	-1.023	160.917	323.886	266.788	255.870	297.850	319.457	25.889	265.604	274.289	270.684	316.186	-29.581	5.0957e-05	0.0019026	0.00054373	632.27	2.172e-05	5.3605e-06	1013.8	152.87	1.397e-05	2.1129e-05	340.69	122.36	48.876	19.43	4.6776e-06	57.745	0.024883	0.035625	0.0099647	1340.7	0.0003848	0.00039904	1203.4	235.45	0.00037213	0.00039489	457.78	161.89	86.156	32.643	0.00037936	74.353	-29.015	303.255	151.239	-23.647	75.257	59.298	-22.863	-17.878	232.336	251.107	-18.226	-13.015	-13.862	-9.133	21.958	-8.940	-8191	255	
26314.963	1	1	0	0	0.38981	0.23384	0.26289	0.2891	0.20447	0.061023	0.26863	0.34806	0.15781	0.075347	0.23342	0.15509	0.18681	0.35223	0.059813	0.077435	-2.6229	-2.7167	-2.7375	-2.9104	-2.7958	-2.9479	-2.9375	-2.6208	-2.9271	-2.8271	-2.825	-2.8937	-2.6521	-2.8646	-3.0208	-2.6188	258.291	70.511	111.775	167.995	74.854	306.051	248.292	265.641	77.528	-1.084	305.264	89.540	78.636	3.785	-20.802	195.608	0.00036602	0.0017336	0.00023062	626.17	1.4713e-05	2.4007e-05	999.48	151.7	1.5619e-05	1.7984e-05	337.77	121.66	48.716	19.264	1.3227e-05	57.383	0.024924	0.035601	0.010044	1339.3	0.00038593	0.00039691	1192.7	232.95	0.00036977	0.00039532	455.3	161.37	85.918	32.58	0.00037906	74.143	221.496	15.742	294.578	-24.240	123.737	192.299	-22.861	-18.099	285.225	288.105	-18.283	-13.388	-13.204	-9.494	232.372	-9.174	-8191	255	
26315.059	1	1	0	0	0.17302	0.17516	0.11022	0.14699	0.084109	0.099985	0.16066	0.20915	0.37518	0.038563	0.095815	0.19792	0.28651	0.14872	0.14584	0.14611	-2.6042	-2.7292	-2.7792	-2.7958	-2.5792	-2.9125	-3.0083	-2.6958	-2.7313	-2.8354	-2.7687	-3.2396	-2.7479	-2.6625	-2.9146	-2.7896	233.109	261.602	193.204	-7.484	178.216	279.810	255.696	305.004	-21.114	202.187	235.116	248.279	-32.754	302.607	149.675	245.690	0.00017599	0.0022209	7.2473e-05	622.68	1.1123e-05	1.3357e-05	1000.5	151.14	1.0384e-05	1.1042e-05	340.34	122.27	49.303	19.474	2.0707e-05	58.065	0.024761	0.035346	0.0099088	1338	0.00038407	0.00039643	1192.7	233.16	0.00037232	0.00039191	455.89	162	86.117	32.612	0.00038005	74.757	147.942	51.551	60.925	-23.334	3.658	272.643	-22.688	-18.463	220.770	180.209	-18.486	-13.136	-12.971	-9.174	162.599	-9.331	-8191	255	
26315.154	1	1	0	0	0.21991	0.1236	0.044001	0.24913	0.14434	0.13649	0.27113	0.1035	0.12026	0.088031	0.1532	0.085407	0.19223	0.042351	0.16967	0.35307	-2.4688	-2.6229	-2.6083	-2.9542	-2.6354	-2.85	-3.1146	-2.6167	-2.8812	-2.8063	-2.6646	-3.1604	-2.5729	-2.6896	-2.8896	-2.7792	184.533	102.979	280.225	304.884	-4.152	176.910	210.254	264.232	28.090	288.133	146.631	41.996	59.422	225.519	134.033	236.596	0.00027008	0.0016251	0.00053756	630.05	7.2512e-06	7.2125e-06	1008.2	151.39	3.5429e-05	1.9167e-05	339.5	123.16	49.743	19.939	1.243e-05	59.046	0.024714	0.03552	0.010031	1339.4	0.00038252	0.00039593	1198.8	232.75	0.00037042	0.00039189	457.53	163.01	86.188	32.949	0.00037854	75.419	218.239	17.884	-27.784	-23.772	305.094	69.278	-22.915	-18.425	143.402	138.471	-18.324	-13.237	-13.274	-9.281	281.561	-9.171	-8191	255	
26315.252	1	1	0	0	0.19296	0.035858	0.11213	0.089948	0.31894	0.2041	0.060472	0.069008	0.26145	0.26026	0.26125	0.05085	0.059529	0.010875	0.20687	0.32979	-2.5833	-2.8083	-2.3812	-2.9208	-2.7	-2.7167	-3.0938	-2.7458	-2.8229	-2.8708	-2.7958	-3.0542	-2.7854	-2.6792	-2.9333	-2.7062	-36.459	174.077	289.335	106.064	282.486	260.295	274.417	66.842	36.964	260.871	234.559	261.376	122.614	126.898	310.194	314.429	0.00032056	0.0021362	0.00072808	631.36	9.4369e-06	1.9144e-05	1011.8	154.24	1.0416e-05	8.3679e-06	342.53	124.71	49.83	19.893	1.3387e-05	59.474	0.024537	0.035268	0.009891	1335.9	0.00038134	0.0003924	1201.3	233.45	0.00037104	0.00038836	460.3	163.83	86.6	32.97	0.0003736	75.68	182.419	20.202	-12.241	-24.298	79.353	151.412	-22.892	-18.497	-4.185	319.217	-18.602	-13.310	-13.883	-9.311	150.107	-9.228	-8191	255	
26315.346	1	1	0	0	0.20368	0.22572	0.10878	0.16622	0.13405	0.17408	0.29926	0.22245	0.082856	0.15753	0.14295	0.15437	0.12428	0.089391	0.18249	0.22191	-2.4	-2.8604	-2.6917	-2.9208	-2.7417	-2.9042	-3.1479	-2.7729	-2.85	-3.0083	-2.5896	-3.0667	-2.9188	-2.7333	-2.9813	-2.8458	2.749	43.897	43.009	-32.072	231.602	136.946	312.987	244.279	107.410	162.135	310.458	233.919	-11.111	309.320	222.145	266.193	8.3841e-05	0.0026647	0.00023903	635.19	1.6347e-05	1.2859e-05	1002.5	151.12	1.616e-05	8.9637e-06	342.05	121.9	49.192	19.625	2.008e-05	58.655	0.024201	0.034878	0.0097518	1325.3	0.00037683	0.00038996	1192.4	230.68	0.00036425	0.00038718	453.79	161.86	85.419	32.647	0.00037353	74.789	240.006	48.678	279.595	-23.568	84.645	289.840	-22.783	-18.293	84.795	52.421	-18.473	-13.100	-13.277	-9.317	284.188	-9.287	-8191	255	
26315.443	1	1	0	0	0.06238	0.32741	0.27683	0.038765	0.081849	0.10898	0.4824	0.032377	0.14597	0.19965	0.13983	0.23121	0.038856	0.084495	0.30094	0.12329	-2.5062	-2.8063	-2.5604	-2.9708	-2.7542	-2.6917	-3.125	-2.8229	-2.8042	-2.8583	-2.8167	-2.9583	-2.8812	-2.5958	-2.9396	-3.0146	64.400	285.095	269.637	251.658	302.851	64.899	306.102	116.266	202.046	2.575	102.536	-21.136	108.716	291.981	21.564	179.317	0.00023556	0.00078149	0.00036555	623.35	1.0202e-05	3.0826e-05	1002.2	150.92	9.8171e-06	5.9599e-06	341.48	123	49.462	19.98	1.8539e-05	59.258	0.02426	0.034781	0.0096869	1319.3	0.00037422	0.0003842	1185.2	229.61	0.00036406	0.00038394	454.5	161.55	85.404	32.557	0.00036869	75.058	184.065	59.301	80.988	-23.764	88.961	93.094	-22.610	-18.183	262.656	112.524	-18.269	-13.135	-13.240	-9.538	23.512	-9.114	-8191	255	
26315.562	1	1	0	0	0.039567	0.16217	0.12882	0.31192	0.27854	0.28499	0.34824	0.10243	0.018433	0.056895	0.14374	0.27797	0.08979	0.11909	0.064126	0.071963	-2.3958	-2.9854	-2.6021	-2.8958	-2.6667	-2.5854	-3.2313	-2.7687	-2.6958	-3.2625	-2.8229	-2.975	-2.9229	-2.6063	-2.95	-3.0604	-34.916	204.797	242.788	281.808	170.695	260.369	288.817	109.093	125.272	60.365	255.797	217.352	234.615	-20.669	48.265	-26.331	0.00025298	0.0016072	0.0003765	638.04	1.6798e-05	1.3322e-05	1008	152.7	3.9557e-06	3.0108e-05	342.52	123.76	50.076	20.194	2.2951e-05	59.906	0.023991	0.034748	0.0096175	1329.8	0.00037576	0.00038845	1191.8	231.48	0.00036161	0.00038687	456.42	162.68	86.216	32.907	0.00037481	75.805	180.709	108.277	112.238	-23.015	-22.458	205.430	-22.827	-18.209	152.458	196.089	-18.058	-13.323	-13.297	-8.986	118.830	-9.268	-8191	255	
26315.658	1	1	0	0	0.25139	0.23946	0.17704	0.2064	0.28986	0.046583	0.26025	0.092503	0.16155	0.23218	0.1657	0.26925	0.11283	0.35365	0.28274	0.3713	-2.2521	-3.0854	-2.6229	-2.8521	-2.9958	-2.6917	-3.0146	-2.9083	-2.5583	-3.1021	-2.5208	-2.7896	-3.0604	-2.625	-2.9437	-3.0292	9.861	186.148	-33.147	230.117	164.571	319.433	228.433	305.619	255.873	-14.755	263.190	15.839	265.674	302.405	114.075	291.969	0.0002436	0.0029438	0.00020425	634.98	1.6307e-05	1.8602e-05	1006.6	152.31	1.1159e-05	2.0167e-05	345.3	124.7	50.446	20.23	2.2958e-05	60.408	0.024143	0.034923	0.0096558	1322.2	0.0003761	0.00038693	1196.2	232.16	0.00036529	0.000385	457.55	163.49	86.258	32.802	0.00037167	76.29	173.377	21.859	69.384	-24.235	14.307	107.185	-22.847	-17.959	34.672	8.193	-18.261	-13.535	-13.811	-9.301	252.842	-8.983	-8191	255	
26315.730	1	1	0	0	0.091939	0.081775	0.15496	0.21192	0.1842	0.10074	0.057217	0.15448	0.14789	0.30569	0.23723	0.10646	0.2744	0.20942	0.13998	0.09835	-2.0146	-2.9521	-2.6729	-2.9354	-2.9688	-2.6125	-3.0687	-2.8354	-2.625	-3.0458	-2.7438	-2.6583	-3.0917	-2.7917	-2.8521	-2.9062	79.084	271.065	252.341	-5.945	92.520	-10.075	284.044	-22.625	145.803	124.125	55.788	297.149	41.294	323.811	231.354	278.853	0.00038553	0.0015472	0.00023891	637.29	2.6972e-05	1.6574e-05	1008.7	154.51	1.6601e-05	1.1765e-05	343.24	123.53	49.806	20.077	1.5614e-05	59.208	0.023944	0.034696	0.0096165	1330.8	0.00037482	0.00038533	1194.3	232.15	0.00036277	0.00038484	455.97	162.32	85.804	32.626	0.0003752	75.378	187.886	108.292	216.071	-22.761	66.217	125.329	-22.651	-18.114	8.446	47.557	-18.602	-13.487	-13.491	-9.250	163.408	-9.044	-8191	255	
26315.852	1	1	0	0	0.1943	0.053343	0.049177	0.19553	0.15633	0.18462	0.15238	0.15728	0.15072	0.25357	0.11871	0.10861	0.082586	0.18074	0.26407	0.071793	-2.3708	-2.9146	-2.6396	-2.8354	-2.9583	-2.7146	-3.0479	-2.9625	-2.725	-3.0104	-2.8	-2.7896	-3.1208	-2.8646	-2.9146	-3.0542	-16.554	137.187	110.711	308.025	86.964	80.622	302.282	264.171	158.689	239.792	256.352	285.245	214.591	215.773	285.885	283.622	0.00014266	0.0012992	0.00047362	629.2	1.0394e-05	2.7284e-05	1001.1	152.45	1.7954e-05	9.9101e-06	341.37	123.32	49.805	20.002	4.0345e-05	58.78	0.024078	0.034749	0.0095974	1321	0.0003756	0.00038621	1186.7	231.35	0.00036284	0.00038982	454.83	162.2	85.981	32.564	0.00037293	75.196	192.423	52.385	126.807	-23.160	182.067	79.004	-22.965	-18.455	178.669	263.465	-18.507	-13.262	-13.171	-9.448	35.538	-9.136	-8191	255	
26315.947	1	1	0	0	0.18424	0.15785	0.2827	0.11623	0.14583	0.1691	0.19585	0.34115	0.1376	0.20959	0.14451	0.30952	0.39441	0.17833	0.0067186	0.31589	-2.2604	-2.7583	-2.8708	-2.8625	-2.8979	-2.6667	-2.9292	-2.875	-2.6271	-2.9375	-3.0375	-2.8708	-3.0583	-2.8083	-2.8979	-3.1708	73.039	89.313	36.311	130.044	-29.346	261.588	273.276	-35.902	221.230	132.737	8.679	-25.051	-27.869	286.500	146.588	125.709	0.00016788	0.0027293	0.00015591	629.39	2.3372e-05	2.6457e-05	1008.1	152.32	9.1625e-06	1.8982e-05	342.16	123.36	49.34	19.855	1.2704e-05	59.175	0.024305	0.035093	0.0097104	1333.2	0.00038244	0.00039097	1194.1	232.55	0.00036747	0.00039429	458.12	162.61	86.35	32.766	0.00038339	75.595	193.524	-29.814	49.166	-23.532	133.273	196.855	-22.887	-18.338	311.686	284.200	-18.282	-13.405	-13.593	-9.552	36.391	-9.367	-8191	255	
26316.043	1	1	0	0	0.1711	0.12652	0.060928	0.28001	0.099373	0.41022	0.13474	0.31006	0.21121	0.25824	0.33807	0.43064	0.12364	0.35375	0.29444	0.40127	-2.2792	-2.7521	-2.7375	-2.6979	-3.0292	-2.8708	-2.975	-2.8792	-2.6375	-2.9042	-2.8812	-2.8521	-2.9125	-2.5896	-2.7458	-2.9938	89.987	69.654	86.128	286.156	67.905	160.355	223.532	303.190	133.174	29.849	267.151	314.609	-5.941	242.425	-3.807	260.249	0.00024529	0.00058828	0.00052325	638.3	1.3652e-05	2.5433e-05	1006.7	153.49	1.2048e-05	1.9733e-05	341.88	122.31	49.149	19.718	2.7185e-05	59.319	0.02464	0.035443	0.0098997	1340.2	0.0003841	0.00039322	1196.6	233.55	0.00036355	0.00039607	457.56	162.53	86.21	32.627	0.00037826	75.481	186.996	-18.714	67.590	-23.791	10.732	147.927	-22.830	-18.159	2.444	-3.576	-18.175	-13.491	-13.227	-8.982	81.596	-9.161	-8191	255	
26316.139	1	1	0	0	0.15344	0.14893	0.12154	0.11328	0.15192	0.12834	0.18702	0.23604	0.25669	0.1271	0.24192	0.48689	0.020988	0.38478	0.10608	0.041899	-2.1	-2.8812	-2.9146	-2.7417	-3.1437	-2.6521	-2.7604	-2.9604	-2.7229	-2.6042	-3.0146	-2.6771	-3.0042	-2.8646	-2.6833	-3.1396	40.045	223.898	229.921	63.188	157.759	280.531	200.698	263.640	206.722	70.122	278.094	277.149	176.779	283.328	60.172	198.779	0.00021365	0.0025312	0.00059649	638.06	1.1776e-05	2.6342e-05	1012.1	154.3	9.6989e-06	1.6517e-05	342.5	123.31	49.518	19.797	1.0431e-05	59.002	0.024439	0.035351	0.0098073	1335	0.00038556	0.00039366	1202.9	234.53	0.00036854	0.00039801	461.24	163.34	87.052	33.055	0.00038983	75.698	-26.540	170.061	251.777	-24.033	136.387	204.907	-23.057	-18.299	87.367	-28.313	-18.306	-13.047	-13.005	-8.947	290.263	-9.085	-8191	255	
26316.258	1	1	0	0	0.15948	0.12006	0.30463	0.18185	0.17516	0.16138	0.44538	0.084436	0.22587	0.20461	0.069107	0.27107	0.049412	0.23644	0.24019	0.16914	-2.3812	-2.6188	-3.0146	-2.6292	-2.9771	-2.8125	-2.8083	-3.0771	-2.6771	-2.7604	-3.0875	-2.5667	-3.1833	-2.8458	-2.4208	-2.9667	194.638	-34.020	301.297	271.484	31.937	213.573	266.530	272.997	181.190	236.188	55.208	315.484	137.701	42.461	12.067	195.152	0.00061601	0.00077076	0.000445	639.34	7.6976e-06	1.5522e-05	1004.9	150.85	2.0832e-05	2.0652e-05	339.44	122.1	48.356	19.505	1.9473e-05	57.95	0.025013	0.03616	0.010048	1347.1	0.00039315	0.00040178	1199.4	233.52	0.00037161	0.00040454	457.33	162.19	86.324	32.662	0.00038311	74.992	149.886	229.839	61.614	-22.979	154.405	69.094	-22.961	-18.591	153.424	188.121	-18.443	-13.535	-13.103	-9.051	83.506	-8.655	-8191	255	
26316.354	1	1	0	0	0.074908	0.17948	0.15079	0.10949	0.13393	0.098253	0.16472	0.052635	0.11479	0.10341	0.2991	0.18137	0.10994	0.24493	0.10099	0.12311	-2.3688	-2.6042	-3.0104	-2.6333	-2.8896	-2.9396	-2.6188	-3.1458	-2.6833	-2.7146	-3.1188	-2.8937	-2.8625	-3.1646	-2.7479	-3.0583	114.341	188.679	49.455	310.301	-23.964	27.903	-14.957	28.945	190.595	72.293	215.969	266.060	221.520	306.617	155.474	-13.621	0.00017177	0.00072946	0.00018915	643.05	1.644e-05	1.9575e-05	1002	152.08	1.3325e-05	1.2713e-05	340.12	122.23	49.441	19.608	1.4632e-05	58.617	0.024839	0.035715	0.010051	1344.9	0.0003965	0.00040496	1201.7	235.38	0.000379	0.00040827	461.69	163.68	87.624	33.119	0.00039238	75.792	282.559	71.652	133.219	-23.787	150.110	26.463	-22.890	-18.231	162.403	90.224	-18.314	-13.151	-13.082	-9.699	237.121	-9.067	-8191	255	
26316.426	1	1	0	0	0.16837	0.14835	0.11785	0.081735	0.10116	0.10876	0.40233	0.21218	0.21078	0.067458	0.24571	0.21722	0.16515	0.093112	0.033632	0.10249	-2.5771	-2.6479	-3.0917	-2.7708	-2.9375	-3.0938	-2.7521	-3.1208	-3.0396	-2.6167	-3.1583	-2.7896	-2.8271	-3.0229	-2.6896	-3.1063	157.683	229.928	15.623	299.876	212.071	10.202	-0.120	212.134	300.636	308.237	239.316	254.154	110.371	294.167	169.212	-21.634	0.00041652	0.0029175	6.6571e-05	631.3	9.8229e-06	1.3887e-05	1005.8	152.44	1.2779e-05	2.3672e-05	340.57	122.73	49.109	19.849	1.183e-05	58.754	0.025446	0.036656	0.010313	1367.2	0.0004018	0.00041507	1209.3	237.28	0.00038798	0.00041987	464.42	164.29	88.112	33.356	0.00039401	76.253	214.624	78.321	132.924	-23.725	6.497	-17.031	-22.961	-18.320	214.301	171.907	-18.657	-14.050	-13.217	-8.698	-31.310	-9.038	-8191	255	
26316.523	1	1	0	0	0.23933	0.13179	0.057565	0.059844	0.36383	0.22018	0.11592	0.31787	0.17702	0.19091	0.30624	0.25369	0.26176	0.11572	0.10235	0.3963	-2.5979	-2.525	-2.9771	-2.7313	-2.825	-3.0979	-2.7979	-2.9479	-2.9417	-2.8646	-3.0875	-2.8771	-2.7625	-2.9042	-2.6625	-3.0729	91.947	216.930	270.340	-15.412	123.637	-23.689	281.883	318.354	-9.315	159.070	-29.720	80.674	45.808	170.890	130.686	277.238	0.00014229	0.0028293	0.00031243	636.95	1.2929e-05	3.5252e-05	1007.9	153.44	5.4268e-06	4.5973e-06	342.02	123.72	49.452	19.819	1.1199e-05	58.815	0.025722	0.036973	0.010293	1367.5	0.00040502	0.00041363	1212.2	237.9	0.0003838	0.00040821	463.13	164.17	87.569	33.331	0.00038765	76.51	240.835	119.675	285.918	-23.617	137.888	227.337	-22.983	-18.294	-11.341	233.859	-18.269	-13.533	-12.968	-8.665	169.088	-9.268	-8191	255	
26316.643	1	1	0	0	0.10594	0.094174	0.12405	0.21842	0.056092	0.094668	0.086171	0.066926	0.10694	0.11762	0.18578	0.036537	0.30245	0.16044	0.11106	0.28746	-2.3875	-2.6896	-2.9958	-2.7167	-2.8146	-3.1813	-2.9521	-2.9021	-2.7854	-2.625	-3.2188	-2.9396	-2.6167	-3.1437	-2.7708	-3.0021	113.836	22.769	60.303	-20.883	83.435	276.831	240.609	287.460	198.489	276.587	259.409	223.999	18.464	19.243	261.699	287.877	0.00041016	0.0012835	0.00030116	636.12	1.9145e-05	7.8793e-06	1008.6	152.21	8.4986e-06	3.6831e-05	339.47	122.09	48.338	19.747	5.7401e-06	57.74	0.025465	0.036437	0.010131	1360.5	0.0003973	0.00040784	1205.4	236.57	0.00038305	0.00041058	464.4	163.94	87.702	33.174	0.00039158	75.218	231.933	233.573	85.629	-23.527	290.222	249.500	-22.903	-18.093	95.334	19.589	-18.165	-13.586	-12.881	-9.398	89.377	-8.942	-8191	255	
26316.738	1	1	0	0	0.061179	0.19156	0.18223	0.14394	0.089979	0.33385	0.20774	0.21395	0.10369	0.15094	0.13111	0.37606	0.15164	0.21294	0.22276	0.19096	-2.3875	-2.4833	-2.9833	-2.7833	-2.5083	-2.8958	-2.9625	-2.7896	-3.1292	-2.7333	-2.875	-2.9229	-2.6729	-3.0917	-2.8438	-3.0563	36.135	127.770	179.203	57.942	-31.819	27.347	243.079	264.916	139.854	73.351	258.793	272.011	273.348	144.945	299.327	243.301	0.00026361	0.0017677	0.00087661	631.2	1.8041e-05	2.009e-05	1001.2	149.75	1.3304e-05	8.709e-06	339.97	121.29	48.901	19.422	7.2935e-06	57.905	0.025366	0.036541	0.010165	1349.1	0.00039756	0.00040221	1190.9	231.35	0.00037181	0.00039178	455.48	160.45	85.28	32.245	0.00037188	74.255	228.262	164.079	-4.129	-23.573	189.157	222.522	-23.197	-18.705	192.050	290.182	-18.472	-13.162	-13.273	-9.298	-30.386	-9.064	-8191	255	
26316.836	1	1	0	0	0.13725	0.18343	0.059704	0.12978	0.1608	0.042507	0.21314	0.12689	0.14735	0.26544	0.069249	0.35134	0.0046366	0.14995	0.35612	0.21605	-2.5438	-2.6167	-3.0146	-2.9479	-2.6417	-3.1521	-2.9437	-2.8792	-2.9625	-2.5833	-3.0417	-2.8833	-2.725	-3.0938	-2.8187	-2.7458	145.060	-32.396	236.374	21.435	293.811	-9.153	229.409	-13.366	261.826	-13.973	194.866	219.500	82.201	-29.238	-5.397	233.940	0.00017046	0.0009452	0.00018617	631.52	2.8463e-05	1.6924e-05	995.64	150.51	1.4e-05	7.1912e-06	336.5	121.46	48.489	19.341	2.6381e-05	58.314	0.024166	0.03449	0.0095746	1309.2	0.00037082	0.00038255	1175.8	227.88	0.00035606	0.0003788	451.97	159.82	84.603	31.98	0.00036715	74.246	179.167	278.251	194.867	-23.365	286.477	119.911	-22.590	-18.046	249.241	52.917	-18.429	-13.343	-13.766	-9.080	131.879	-9.165	-8191	255	
26316.955	1	1	0	0	0.29872	0.084347	0.22286	0.17698	0.1125	0.19684	0.31651	0.11748	0.18767	0.18603	0.19261	0.21252	0.056836	0.16937	0.070951	0.2876	-2.4562	-2.5479	-2.6729	-2.9708	-2.6188	-2.9708	-2.9125	-2.9229	-3.0208	-2.8583	-2.8646	-3.0563	-2.8542	-2.8375	-2.7271	-2.9354	100.442	317.259	109.563	246.372	-35.116	182.630	209.519	283.014	109.146	-16.416	310.547	310.643	308.787	261.798	224.481	61.739	0.00017085	0.00084756	0.00031998	627.49	3.0441e-05	2.8515e-05	998.32	150.14	1.308e-05	7.9411e-06	340.66	120.91	48.919	19.494	1.0782e-05	57.71	0.024212	0.034659	0.0097021	1318	0.00037711	0.00039465	1186.3	230.52	0.00036774	0.0003891	455.27	160.69	85.48	32.257	0.00037532	74.374	274.843	91.457	-14.350	-23.711	88.065	193.710	-23.220	-18.101	266.141	269.839	-18.581	-13.548	-13.441	-8.954	86.164	-9.020	-8191	255	
26317.027	1	1	0	0	0.024581	0.18363	0.13162	0.067972	0.12317	0.10241	0.28235	0.081994	0.10233	0.17871	0.31885	0.19706	0.12168	0.29617	0.20612	0.02514	-2.4938	-2.7042	-2.7812	-3.0792	-2.7833	-2.8583	-3.0438	-2.8	-2.8354	-2.925	-2.8979	-2.9958	-2.7646	-2.8542	-2.8438	-2.8438	179.876	-35.536	260.257	292.137	213.937	247.905	262.892	263.346	83.412	16.665	310.500	234.680	149.788	31.710	205.695	22.046	0.00015158	0.0019442	0.0010432	630.26	1.3748e-05	2.0815e-05	1003.1	152.34	3.4923e-06	2.5558e-05	337.5	119.03	48.044	18.782	8.115e-06	56.485	0.024502	0.035107	0.0097539	1321.7	0.00037583	0.00039073	1185.7	229.19	0.00035906	0.00038284	451.23	158.57	84.071	31.674	0.00037044	72.993	127.154	65.270	128.547	-23.741	305.989	197.699	-22.731	-18.293	-21.169	123.617	-18.318	-13.216	-13.475	-8.647	46.413	-9.067	-8191	255	
26317.123	1	1	0	0	0.1084	0.14656	0.10269	0.079172	0.35161	0.27395	0.17263	0.21056	0.14146	0.063921	0.13742	0.191	0.16588	0.19854	0.2882	0.05295	-2.7125	-2.7833	-2.7792	-3.0312	-2.5542	-2.7875	-2.9562	-2.6479	-2.85	-2.85	-2.7083	-2.9917	-2.6229	-2.8229	-3.1	-2.7896	170.061	296.666	75.229	130.243	139.152	269.154	-32.564	297.793	269.444	125.911	320.456	226.337	286.535	-17.220	35.892	173.222	0.00018104	0.0004301	0.00055271	628.01	2.643e-05	1.429e-05	983.43	147.84	1.0948e-05	1.0482e-05	333.11	118.38	47.979	18.814	1.4912e-05	56.546	0.02435	0.034956	0.0097955	1320.8	0.00037802	0.00039637	1175	228.27	0.00036624	0.00039084	449.75	158.59	84.76	31.79	0.00037726	73.043	250.129	224.759	120.418	-23.891	-27.922	62.827	-22.880	-18.016	125.339	170.890	-18.944	-13.684	-13.134	-9.314	255.850	-9.218	-8191	255	
26317.244	1	1	0	0	0.16365	0.028374	0.038054	0.18876	0.16691	0.13049	0.037394	0.039533	0.030895	0.047824	0.27582	0.083235	0.11265	0.14402	0.044632	0.34476	-2.4333	-2.6708	-2.6917	-3.0229	-2.5479	-2.7854	-3.1292	-2.5438	-2.9083	-2.7417	-2.8021	-3.1312	-2.5375	-2.775	-2.9813	-2.7667	308.002	259.809	130.250	74.674	7.578	122.954	-30.331	50.719	94.069	318.016	244.872	295.433	138.012	-30.484	221.171	302.878	0.0003363	0.0019971	0.00043741	617.35	2.9873e-05	3.5227e-05	981.75	147.15	2.1426e-06	7.3307e-06	327.86	119.28	47.272	18.891	2.6908e-05	55.671	0.024936	0.035441	0.009909	1325.1	0.00038239	0.00039989	1177.5	228.56	0.00037337	0.00040031	450.92	159.25	85.005	32.064	0.00038571	73.043	182.386	55.141	79.061	-23.263	-27.562	203.594	-22.966	-18.437	287.788	295.352	-18.973	-13.478	-13.953	-8.936	8.917	-9.039	-8191	255	
26317.338	1	1	0	0	0.23033	0.32064	0.17463	0.2286	0.26621	0.16465	0.39574	0.48163	0.072326	0.057944	0.16651	0.22597	0.29847	0.09063	0.34045	0.23963	-2.5771	-2.9813	-2.7687	-2.9313	-2.7667	-2.8854	-3.1063	-2.6021	-2.7917	-2.6583	-2.7604	-3.0167	-2.775	-2.7479	-3.0417	-2.7396	44.130	111.718	225.393	11.302	57.942	116.185	284.924	316.456	-29.087	231.680	61.276	200.954	-4.571	128.725	270.098	293.157	0.00014728	0.002506	0.00074496	612.33	6.5078e-06	2.2898e-05	988.73	147.09	1.2257e-05	4.1571e-05	328.34	118.8	47.176	18.591	1.1303e-05	56.816	0.025193	0.036103	0.010033	1338	0.00038756	0.00040611	1181.4	228.56	0.00036816	0.00039458	448.64	158.81	84.441	31.786	0.00037895	73.171	45.817	56.037	100.746	-23.767	305.314	243.531	-23.110	-18.210	208.150	146.728	-18.652	-13.183	-12.741	-8.331	43.288	-9.204	-8191	255	
26317.436	1	1	0	0	0.18431	0.12214	0.35652	0.22042	0.094349	0.11729	0.15	0.25972	0.077781	0.23934	0.099908	0.20379	0.10888	0.32185	0.29381	0.24197	-2.4458	-2.7729	-2.6646	-2.8458	-2.7729	-2.5604	-3.0208	-2.5542	-2.7792	-3.0417	-2.7583	-2.925	-2.5875	-2.7833	-3.0396	-2.6104	293.249	121.869	168.015	235.761	10.766	-2.299	294.420	308.715	-10.158	271.558	288.029	-9.351	89.802	294.998	254.167	312.315	0.00043862	0.0013271	0.00032822	623.59	3.611e-05	1.7717e-05	987.74	148.75	7.5544e-06	2.1404e-05	333.67	120.27	47.452	18.777	1.4897e-05	56.837	0.025248	0.035719	0.0099949	1338.4	0.00038967	0.00040422	1185.5	230.79	0.00037489	0.00040061	453.52	161.12	85.486	32.2	0.00038666	73.815	182.274	273.529	263.158	-23.623	28.030	144.662	-22.719	-18.122	60.950	189.932	-18.341	-13.205	-13.020	-9.011	150.257	-9.295	-8191	255	
26317.555	1	1	0	0	0.22294	0.21254	0.25738	0.28151	0.27594	0.20686	0.11247	0.26255	0.27929	0.1308	0.094296	0.18372	0.042807	0.086849	0.039231	0.13216	-2.4229	-2.775	-2.7167	-3.0521	-2.8896	-2.8104	-3.0583	-2.8417	-2.8896	-2.9229	-2.5875	-3.0917	-2.9813	-2.8063	-2.8417	-2.9208	132.614	127.662	5.343	77.075	207.170	250.938	194.954	257.958	322.466	7.757	229.447	262.892	307.139	249.881	244.381	284.921	0.0005144	0.00053465	0.00061184	626.74	1.1506e-05	4.4651e-06	989.01	147.82	1.1823e-05	1.4397e-05	329.23	118.56	47.367	18.546	1.7338e-05	55.755	0.025472	0.036593	0.010148	1350.4	0.0003973	0.00041504	1188.8	231.35	0.00038043	0.00040604	451.77	160.06	85.47	32.067	0.00038424	73.014	108.520	119.208	50.407	-23.427	67.581	279.783	-22.753	-17.850	141.650	30.064	-18.581	-13.302	-13.571	-9.089	117.153	-8.930	-8191	255	
26317.627	1	1	0	0	0.1283	0.11378	0.022426	0.059784	0.13095	0.20658	0.30341	0.17601	0.061953	0.17086	0.22394	0.28778	0.22571	0.35294	0.15599	0.23164	-2.4104	-2.9833	-2.6583	-2.9417	-2.8021	-2.7667	-3.1667	-2.8167	-2.7	-3.2438	-2.5833	-2.8958	-2.8792	-2.7667	-2.8771	-2.9729	-2.439	160.390	101.315	60.356	267.144	84.955	188.133	148.468	-4.218	142.800	273.253	20.565	-2.523	-16.282	258.900	309.278	0.00017228	0.00014811	0.00039964	610.76	2.3043e-06	2.2502e-05	981.54	148.73	1.3633e-05	5.973e-06	332.9	119.39	47.709	18.95	2.402e-05	56.438	0.025467	0.036102	0.009995	1329.5	0.00038981	0.00040165	1180.7	229.82	0.00037405	0.00040144	451.45	160.59	85.342	32.131	0.00038745	73.664	115.353	248.376	237.144	-23.691	107.526	126.058	-23.021	-18.471	19.821	-3.452	-18.379	-13.456	-14.050	-8.913	116.405	-9.132	-8191	255	
26317.723	1	1	0	0	0.20061	0.20607	0.062435	0.31127	0.17154	0.1857	0.060484	0.074855	0.10901	0.15792	0.15483	0.25071	0.089079	0.23417	0.27284	0.16716	-2.2396	-3.0271	-2.6833	-3.0146	-2.8917	-2.7125	-3.0083	-2.8	-2.6813	-3.0125	-2.8312	-2.7833	-2.9437	-2.5917	-2.7792	-3.0021	37.252	254.356	73.616	19.796	21.681	177.748	133.181	177.970	18.588	-17.982	247.213	191.878	312.258	233.459	214.262	315.428	0.0003285	0.0038876	0.00085871	614.7	1.4774e-05	2.4991e-05	980.96	146.43	2.2297e-06	1.5595e-06	331.98	120.55	47.734	19.034	4.6532e-06	56.908	0.025427	0.036418	0.010168	1344.3	0.00039348	0.00040546	1189.5	230.97	0.00037745	0.00040495	452.97	160.74	85.724	32.191	0.00038734	73.875	238.705	149.460	3.130	-23.862	250.429	127.376	-23.448	-18.206	105.171	-12.043	-18.422	-13.153	-14.092	-9.061	33.753	-9.121	-8191	255	
26317.818	1	1	0	0	0.099643	0.065135	0.19889	0.16066	0.149	0.25893	0.16181	0.26855	0.11842	0.008456	0.075133	0.093255	0.19825	0.35804	0.1761	0.088373	-2.2896	-2.9333	-2.7354	-2.85	-2.875	-2.6583	-3.0229	-2.9479	-2.5042	-2.8563	-2.9042	-2.7583	-3.1271	-2.8792	-2.9083	-3.0812	39.323	252.882	309.488	314.553	109.278	132.927	239.054	-21.383	65.255	66.926	302.372	250.373	310.697	-15.130	225.490	208.620	0.00023506	0.0020397	0.00010126	628.37	3.9517e-06	1.8766e-05	991.08	149.3	6.7784e-06	4.3257e-05	336.08	120.96	47.794	19.114	1.4965e-05	57.938	0.025507	0.036262	0.010031	1337.8	0.00039057	0.00040219	1191.7	230.9	0.00037304	0.00040006	453.48	161.43	85.442	32.233	0.00038069	74.382	214.848	59.386	28.587	-22.760	127.651	91.371	-22.808	-18.872	79.128	135.473	-18.314	-13.226	-13.164	-8.698	78.412	-8.808	-8191	255	
26317.914	1	1	0	0	0.064691	0.17362	0.038367	0.16029	0.30282	0.15538	0.07085	0.07029	0.32071	0.21284	0.18187	0.2939	0.14335	0.030824	0.30522	0.061826	-2.2771	-2.7667	-2.6854	-2.6229	-3	-2.7167	-3.0125	-2.9896	-2.5687	-3.0312	-2.9562	-2.725	-3.0458	-2.7562	-2.7792	-2.9688	2.848	201.394	66.351	304.639	202.985	22.110	305.001	58.658	115.422	241.734	215.572	258.373	204.388	133.757	158.898	286.701	0.00028499	0.00063678	0.00072169	633.84	3.3206e-06	5.1315e-05	994.38	149.1	7.0937e-06	2.984e-05	334.45	119.11	47.494	18.477	2.2757e-05	56.825	0.024889	0.035825	0.0099516	1335.8	0.0003852	0.00039766	1192.4	230.8	0.00036793	0.00039476	450.59	159.48	84.299	31.629	0.00037193	72.899	170.770	126.286	207.189	-23.335	19.525	315.116	-23.218	-18.421	303.472	162.548	-18.303	-13.824	-13.538	-8.659	191.190	-9.158	-8191	255	
26318.035	1	1	0	0	0.16628	0.095461	0.12756	0.16605	0.059587	0.1609	0.1235	0.083935	0.13902	0.11291	0.045331	0.17808	0.022194	0.14655	0.073894	0.27298	-2.2458	-2.9542	-2.7083	-2.6104	-3.0438	-2.7271	-2.8146	-2.9146	-2.6708	-2.8125	-2.9729	-2.7625	-3.2417	-2.8583	-2.6604	-2.9292	309.697	318.060	245.780	192.312	38.764	-15.467	294.124	307.731	272.081	276.087	51.750	92.502	205.767	119.828	68.658	311.201	0.00014491	0.00037966	0.0002258	611.91	2.7183e-05	1.2558e-05	979.38	146.02	1.8214e-05	2.2132e-05	328.18	117.69	47.127	18.64	3.8526e-05	55.424	0.024027	0.035225	0.0096474	1297.6	0.00037431	0.00038647	1170.4	225.85	0.00036379	0.00039192	446.79	158.79	84.576	31.813	0.00038367	72.894	134.936	197.831	317.551	-23.578	113.148	182.109	-23.049	-18.402	144.265	179.819	-18.017	-13.194	-14.070	-9.257	173.717	-8.745	-8191	255	
26318.133	1	1	0	0	0.18647	0.15011	0.21983	0.042995	0.20047	0.12007	0.068333	0.14395	0.080046	0.25805	0.21729	0.18928	0.14955	0.077053	0.2516	0.11744	-2.0625	-2.6979	-2.9188	-2.7313	-2.8271	-2.8396	-2.9646	-3.0896	-2.7333	-2.8458	-3.0167	-2.675	-2.975	-2.7521	-2.9167	-3.0521	112.993	-13.245	247.227	43.096	17.098	-1.523	302.318	178.312	295.396	124.695	207.302	224.889	-21.097	-5.179	-10.264	210.238	0.00036063	0.0013438	0.00021676	622.89	9.8487e-06	2.5376e-05	987.57	146.97	1.7666e-05	5.5886e-06	329.34	117.71	47.504	18.846	1.7021e-05	56.155	0.025049	0.036209	0.010087	1335.7	0.00038784	0.00040065	1184.2	228.65	0.00037174	0.00039992	450.28	158.59	85.146	32.019	0.00039052	73.428	136.287	275.298	30.813	-22.735	17.691	190.852	-22.739	-19.040	92.102	157.962	-18.263	-13.784	-13.751	-8.554	276.889	-9.095	-8191	255	
26318.227	1	1	0	0	0.069747	0.18038	0.13718	0.056399	0.16152	0.16688	0.19697	0.018149	0.18634	0.35477	0.12894	0.32019	0.20177	0.25412	0.047084	0.28543	-2.2646	-2.8146	-2.8333	-2.5771	-3.0167	-2.7917	-2.7542	-3.05	-2.6521	-2.7271	-3.0125	-2.7896	-3.0542	-2.7438	-2.6937	-3.1188	1.077	103.702	185.978	69.474	-11.250	218.986	224.081	76.288	32.087	46.244	267.141	313.728	315.324	-35.352	-19.022	319.157	0.00025094	0.0023896	0.0004279	619.5	3.9084e-06	5.9232e-06	988.42	148.22	2.0833e-05	1.7017e-05	334.31	118.16	46.831	18.913	1.5206e-05	56.843	0.025457	0.037312	0.010282	1351	0.00039886	0.00040809	1193.2	231.8	0.00037836	0.00040562	453.69	159.68	85.605	32.041	0.00038082	73.627	217.145	79.075	287.189	-23.785	-27.193	-24.731	-22.921	-18.781	129.286	95.450	-18.579	-13.544	-13.144	-9.025	3.166	-8.966	-8191	255	
26318.324	1	1	0	0	0.027367	0.12469	0.15252	0.16769	0.22325	0.11223	0.23662	0.12121	0.26581	0.1767	0.16506	0.29823	0.13746	0.22466	0.15503	0.17503	-2.2938	-2.6292	-2.8917	-2.6562	-3.0208	-3.0021	-2.875	-2.9458	-2.7979	-2.8187	-3.0792	-2.7083	-2.8167	-2.8688	-2.6188	-3.0792	11.111	49.879	-16.544	-25.231	-10.136	53.292	235.456	243.867	124.053	42.614	261.080	41.329	80.174	301.073	304.624	21.544	0.00021809	0.0014784	0.00052953	627.7	2.2642e-05	2.3799e-05	995.56	149.69	5.8866e-06	3.176e-05	336.01	120.99	48.591	19.154	8.6454e-06	57.756	0.024679	0.035796	0.0099046	1326.5	0.00038176	0.00039297	1189.2	229.53	0.0003624	0.00038768	451.55	160.66	85.179	32.151	0.0003721	74.241	191.288	104.016	-0.758	-22.990	56.960	57.481	-22.800	-18.265	187.860	34.040	-18.455	-13.060	-13.587	-9.445	204.502	-9.497	-8191	255	
26318.420	1	1	0	0	0.060827	0.23871	0.13381	0.18302	0.13423	0.17202	0.21957	0.1443	0.33273	0.30028	0.24553	0.30665	0.14242	0.1888	0.15754	0.16915	-2.3292	-2.7854	-3.0333	-2.6146	-3.0125	-2.9333	-2.6708	-2.9333	-2.8812	-2.8021	-3.1083	-2.8229	-2.8417	-2.8229	-2.5979	-3	37.407	120.949	-5.735	246.082	64.071	119.341	256.691	38.971	294.426	-24.830	317.810	270.630	313.460	63.467	232.632	205.133	0.00016184	0.0015849	0.00032525	625.64	1.2668e-05	7.5716e-06	985.21	150.47	1.9742e-05	1.3878e-05	333.29	119.67	47.837	19.385	2.2606e-05	57.182	0.024086	0.035087	0.0096105	1302.9	0.00037052	0.00038314	1170	226.43	0.00035352	0.00037536	444.81	157.24	83.694	31.503	0.00035775	72.778	169.294	101.557	16.691	-23.402	-23.463	73.271	-22.917	-18.582	117.007	215.092	-18.381	-13.113	-13.421	-9.031	174.561	-9.098	-8191	255	
26318.516	1	1	0	0	0.060807	0.23635	0.11275	0.080184	0.26629	0.19164	0.2422	0.18642	0.065053	0.23737	0.238	0.084548	0.18119	0.089669	0.1201	0.28775	-2.4771	-2.5479	-3.0021	-2.5125	-2.7729	-2.9167	-2.7208	-3.0083	-2.7354	-2.6979	-3.2062	-2.7771	-2.8521	-2.975	-2.6396	-3.1021	46.540	-22.949	298.298	271.224	149.507	101.775	166.937	-10.151	254.746	22.990	310.140	11.735	256.637	52.837	110.977	237.719	0.00031189	0.0010361	0.00022889	631.09	3.2893e-05	3.7986e-05	998.05	148.24	1.7845e-05	4.4588e-05	334.02	120.07	47.794	19.276	2.4369e-05	57.631	0.023282	0.033822	0.0093495	1282.4	0.00036142	0.00037183	1165.6	225	0.00034363	0.00036572	440.55	156.41	82.266	31.066	0.00035018	72.556	154.748	272.054	247.668	-23.440	111.732	89.099	-22.757	-18.127	149.313	69.678	-18.290	-13.450	-13.687	-8.708	306.327	-9.073	-8191	255	
26318.637	1	1	0	0	0.21334	0.22156	0.19995	0.25087	0.047303	0.063734	0.33632	0.30859	0.2403	0.33257	0.10599	0.11142	0.21793	0.18858	0.24476	0.15692	-2.4813	-2.3979	-2.9583	-2.6896	-2.6125	-3.1625	-2.7562	-2.8792	-2.7917	-2.4062	-3.0563	-2.8104	-2.7583	-3.1562	-2.7583	-2.8333	230.272	252.583	-6.584	290.867	203.753	226.967	260.373	21.819	240.357	268.347	237.065	317.812	134.499	291.816	14.775	237.117	0.000154	0.0022433	0.00043962	621.56	1.6972e-05	2.6221e-05	991.2	149.46	2.0226e-05	3.2089e-05	335.31	120.93	48.967	19.292	1.8317e-05	57.803	0.023097	0.033754	0.009295	1278.3	0.00036356	0.00037448	1169.3	226.87	0.0003529	0.00037395	446.36	158.14	83.847	31.542	0.00035615	73.28	189.430	236.896	225.416	-23.941	185.631	160.248	-22.818	-18.294	268.999	115.435	-18.335	-13.461	-13.580	-9.439	37.641	-9.124	-8191	255	
26318.732	1	1	0	0	0.30028	0.16408	0.40187	0.14486	0.085603	0.1859	0.17978	0.15532	0.092742	0.21544	0.14023	0.1189	0.10932	0.15327	0.22891	0.012571	-2.5458	-2.7083	-2.8292	-2.875	-2.6437	-2.9437	-2.8167	-2.9625	-2.9708	-2.3729	-2.9771	-2.9437	-2.7646	-3.0417	-2.7042	-2.8229	-12.887	137.509	311.396	196.081	293.302	133.638	235.720	305.153	-30.081	152.841	-23.221	225.906	-36.460	282.630	181.367	-8.588	0.00024087	0.0019951	0.00041527	623.5	1.4263e-05	1.2324e-05	997.85	150.05	4.5256e-06	1.3472e-05	338.55	122.41	48.871	19.908	2.4399e-05	59.494	0.02296	0.032881	0.009172	1272.7	0.00035181	0.00036235	1161.3	223.83	0.00033406	0.00035589	442.88	158.04	82.176	31.444	0.00033913	74.104	205.658	161.289	67.378	-23.608	93.422	220.290	-23.033	-18.741	208.812	261.814	-18.466	-13.117	-13.137	-8.873	78.698	-9.217	-8191	255	
26318.828	1	1	0	0	0.17993	0.066252	0.13434	0.21416	0.14716	0.37493	0.2325	0.32441	0.19958	0.14982	0.04159	0.16921	0.23327	0.10961	0.054125	0.24157	-2.6542	-2.4146	-2.9542	-2.8542	-2.5792	-2.9979	-2.9417	-2.7438	-2.8354	-2.6104	-2.7208	-2.8896	-2.4	-3.0729	-2.7479	-2.525	309.863	289.750	91.670	26.612	134.590	-5.123	289.586	278.600	-20.590	62.372	31.358	22.600	15.296	116.870	95.884	282.048	0.00017404	0.0032418	0.00083796	617.99	1.8566e-05	1.3263e-05	998.14	150.34	1.5302e-05	1.8108e-05	337.91	122.2	48.929	19.351	2.2235e-05	58.941	0.022316	0.032006	0.0090948	1255.2	0.00034617	0.0003583	1160.2	222.43	0.00033293	0.00035543	441.26	157.19	82.224	31.256	0.00034199	73.476	194.151	-32.730	84.233	-23.301	103.892	313.613	-23.047	-18.208	85.380	0.446	-18.394	-13.442	-13.646	-8.725	116.823	-9.306	-8191	255	
26318.924	1	1	0	0	0.050939	0.2609	0.17385	0.23227	0.15718	0.149	0.27684	0.028086	0.15364	0.059113	0.10357	0.14755	0.10527	0.29801	0.0932	0.26246	-2.6104	-2.7062	-2.6729	-2.8271	-2.6188	-3.0458	-2.8792	-2.6729	-2.9583	-2.6188	-2.8875	-2.8125	-2.6292	-3.0021	-2.8729	-2.6396	134.671	151.558	148.323	184.297	59.429	179.712	233.037	33.853	289.822	88.229	185.820	-27.143	18.096	258.082	83.019	269.054	0.00024256	0.002048	0.00038224	624.05	8.2675e-06	9.3038e-06	991.5	148.41	1.7316e-05	9.1229e-06	338.76	121.65	48.195	19.553	4.4985e-06	58.907	0.02233	0.032059	0.0090063	1250.5	0.0003434	0.00035501	1152.3	221.06	0.00032418	0.00034394	435.92	155.26	79.679	30.592	0.00032436	72.473	224.912	-17.225	238.591	-22.789	107.269	294.359	-22.880	-18.319	218.512	15.370	-18.420	-13.836	-13.397	-8.433	297.442	-9.241	-8191	255	
26319.020	1	1	0	0	0.22911	0.36857	0.15519	0.10359	0.16889	0.24883	0.23305	0.16208	0.10621	0.099923	0.086739	0.051838	0.36357	0.10236	0.22074	0.20751	-2.6188	-2.5646	-2.8417	-2.9042	-2.5917	-3.0812	-2.9917	-2.6833	-2.8312	-2.8354	-2.9521	-3	-2.4813	-2.9437	-2.8729	-2.5938	53.574	161.483	120.043	75.304	43.989	133.955	225.925	289.897	152.913	112.680	242.745	-25.548	298.925	111.565	3.121	312.062	0.00025858	0.0014517	0.00062775	625.97	1.3437e-05	2.3418e-05	988.54	149.2	4.5512e-06	8.9394e-06	338.51	122.26	49.087	19.706	2.9957e-06	58.45	0.02113	0.030046	0.0085603	1209.7	0.00032545	0.00033378	1139.4	216.48	0.00031234	0.00033056	432.33	154.61	79.444	30.611	0.00031812	72.171	172.337	-11.666	57.851	-23.663	132.402	268.175	-22.851	-18.281	173.965	162.025	-18.445	-13.296	-13.381	-9.082	74.467	-9.199	-8191	255	
26319.115	1	1	0	0	0.19867	0.32059	0.058936	0.075687	0.19574	0.17073	0.22596	0.13765	0.13859	0.25301	0.21037	0.21624	0.32905	0.26491	0.068225	0.14079	-2.4562	-2.5146	-2.7229	-2.8771	-2.6083	-2.9562	-2.8792	-2.6146	-2.8375	-2.6542	-2.6958	-3.1354	-2.725	-2.8271	-2.8521	-2.6167	174.870	56.391	72.239	78.087	262.090	23.257	249.195	219.738	218.986	170.937	20.712	318.268	-18.041	45.288	55.561	259.569	0.00020985	0.002082	0.0006784	618.28	7.2997e-06	3.1705e-05	990.01	150.22	9.9128e-06	1.9699e-05	340.63	121.92	49.158	19.547	1.0405e-05	58.92	0.020788	0.029797	0.0083778	1201.3	0.00031857	0.00033217	1139.3	216.35	0.00030479	0.00032488	430.6	154.07	78.604	30.115	0.0003086	71.897	196.186	47.465	184.782	-23.240	308.421	63.304	-22.936	-18.129	92.584	253.878	-18.308	-13.221	-12.975	-8.822	84.950	-8.902	-8191	255	
26319.236	1	1	0	0	0.2554	0.18082	0.041074	0.25365	0.049306	0.075715	0.13678	0.22623	0.097122	0.032502	0.1059	0.17575	0.045408	0.1472	0.049685	0.24594	-2.5146	-2.5229	-2.6562	-2.8917	-2.5438	-2.8896	-2.9021	-2.7729	-2.8896	-2.8396	-2.8104	-2.9771	-2.7875	-2.7354	-2.9833	-2.7938	118.474	239.696	133.724	214.177	312.922	139.350	303.646	227.308	76.203	84.637	154.756	273.835	305.433	273.495	313.678	274.644	0.000206	0.0012659	0.0001436	619.6	1.1026e-05	2.0162e-05	997.6	150.19	8.1227e-06	1.8703e-05	341.17	122.36	49.436	19.89	2.0598e-05	58.925	0.020118	0.028891	0.0082176	1188.3	0.00031337	0.00032403	1138.7	214.68	0.00030434	0.00032567	433	155.13	79.545	30.706	0.00031739	72.336	116.463	13.028	179.385	-23.542	37.382	286.929	-22.937	-18.380	179.593	190.023	-18.431	-13.800	-13.377	-8.518	125.457	-9.636	-8191	255	
26319.330	1	1	0	0	0.19983	0.12187	0.12224	0.20099	0.20791	0.16379	0.23715	0.20645	0.13221	0.17217	0.30167	0.18149	0.030066	0.21416	0.067192	0.22783	-2.2938	-2.6229	-2.6854	-2.8625	-2.5812	-2.8833	-3.1937	-2.6562	-2.9396	-2.775	-2.6396	-2.9104	-2.7875	-2.8729	-2.9271	-2.6979	281.199	138.357	203.105	150.850	285.772	195.798	293.170	309.655	296.190	100.380	201.582	191.592	48.535	278.304	282.221	319.179	0.00039163	0.0010775	0.00047231	622.21	2.2057e-05	8.6957e-06	988.81	148.96	1.4528e-05	1.8819e-05	337.31	121.09	47.753	19.287	7.4983e-06	57.458	0.020848	0.03017	0.0084071	1214	0.00032405	0.00033404	1138.3	214.96	0.00031317	0.000328	428.26	152.61	77.775	29.723	0.00030779	70.283	177.895	322.260	274.997	-23.562	103.633	307.511	-23.133	-18.304	55.277	247.026	-18.046	-13.080	-13.258	-8.816	185.588	-9.275	-8191	255	
26319.428	1	1	0	0	0.15653	0.17625	0.13411	0.28575	0.093229	0.10489	0.29086	0.10478	0.25942	0.38286	0.1778	0.19693	0.18596	0.44239	0.049725	0.22381	-2.4938	-2.6958	-2.7271	-2.9875	-2.6625	-2.5917	-3.0625	-2.5917	-2.9042	-2.8375	-2.6333	-2.8833	-2.8771	-2.8896	-2.9813	-2.8521	1.780	97.731	112.716	296.379	31.159	179.469	252.120	242.620	246.672	301.504	186.314	249.686	-32.814	36.160	151.094	287.374	0.00012608	0.0013213	0.00050816	621.24	1.4466e-06	5.3243e-05	985.92	147.22	5.6901e-06	7.4408e-06	334.11	120.31	48.14	19.21	8.7831e-06	57.741	0.019743	0.028276	0.0079313	1160.8	0.00029917	0.00030624	1115.6	206.91	0.00028437	0.0003009	417.24	149.09	75.698	29.161	0.00029483	69.833	209.402	280.111	-14.249	-23.502	158.411	74.153	-22.832	-17.903	296.262	201.331	-18.350	-13.426	-13.259	-8.806	174.261	-9.163	-8191	255	
26319.523	1	1	0	0	0.079561	0.087389	0.17057	0.082145	0.099744	0.15367	0.13976	0.17668	0.091673	0.18349	0.14782	0.25396	0.15665	0.28471	0.14352	0.25342	-2.4521	-2.9688	-2.5417	-2.9792	-2.7271	-2.7583	-3.0917	-2.7938	-2.8125	-2.9646	-2.6146	-2.9354	-2.9771	-2.7938	-3.1333	-2.8146	118.489	117.557	256.210	81.898	115.730	260.134	25.660	222.852	-0.824	123.748	27.547	196.486	29.720	213.775	156.419	255.430	0.00029611	0.0024206	0.00022161	610.48	3.1647e-05	5.4108e-06	990.31	148.79	3.7413e-06	1.4513e-05	334.53	121.03	48.038	19.327	2.2761e-05	58.621	0.019544	0.028239	0.007928	1183.3	0.00031578	0.00032716	1139.2	215.35	0.00031611	0.00033384	430.95	153.85	78.488	30.028	0.00031422	71.707	198.767	26.898	9.251	-22.853	175.650	-26.216	-23.069	-17.926	76.594	79.528	-18.136	-13.233	-13.167	-8.785	6.919	-9.038	-8191	255	
26319.598	1	1	0	0	0.07196	0.14023	0.21707	0.098021	0.23192	0.24536	0.18196	0.24226	0.14836	0.12119	0.27273	0.46283	0.099169	0.11618	0.1915	0.12744	-2.2396	-2.9188	-2.4542	-3.0229	-2.9333	-2.7292	-3.0958	-2.5812	-2.6396	-3.0292	-2.5875	-2.9208	-2.8312	-2.5458	-2.85	-2.75	91.794	205.110	324.257	240.351	143.750	95.297	-14.400	170.675	239.899	-30.674	280.960	244.803	247.913	146.756	93.902	277.077	0.00025611	0.0032598	0.00069866	624.31	2.0177e-05	3.2769e-05	994.67	148.46	1.2221e-05	8.7399e-06	338	122.66	49.145	19.73	2.8409e-05	59.835	0.020384	0.029647	0.008304	1219.5	0.00032583	0.00034061	1149.7	218.08	0.00032225	0.00034427	438.26	157.43	81.19	31.45	0.00033584	74.161	235.254	80.767	119.097	-23.648	44.996	-2.007	-23.031	-17.500	188.404	208.540	-17.982	-13.506	-13.574	-9.295	213.687	-9.274	-8191	255	
26319.717	1	1	0	0	0.23767	0.075378	0.35597	0.20977	0.21399	0.2052	0.27462	0.14587	0.042395	0.052572	0.075953	0.054299	0.28438	0.11447	0.19352	0.14698	-2.3083	-2.8479	-2.5563	-2.9813	-2.8	-2.575	-3.0875	-2.8396	-2.7542	-2.9625	-2.6042	-2.9583	-2.8333	-2.6854	-2.7562	-2.8125	203.744	-5.023	103.184	84.869	301.720	302.302	255.927	320.187	41.698	247.676	4.989	318.251	65.896	67.052	276.135	261.206	0.00031626	0.0017319	0.00062638	620.16	2.3828e-06	2.535e-05	994.59	149.99	3.6804e-06	7.4061e-06	336.56	121.78	48.805	19.672	1.3561e-05	58.826	0.021755	0.03143	0.008684	1244.5	0.00033859	0.00034757	1153.8	220.12	0.00032806	0.0003449	436.45	155.78	80.303	30.71	0.00032736	72.364	143.689	5.808	93.986	-23.278	13.939	140.231	-23.148	-18.577	44.946	174.590	-18.403	-13.556	-13.290	-8.835	-0.248	-9.625	-8191	255	
26319.812	1	1	0	0	0.10867	0.11724	0.19255	0.17216	0.28278	0.14955	0.27026	0.20625	0.24966	0.04697	0.15614	0.12291	0.17946	0.20541	0.28161	0.02778	-2.3208	-2.8958	-2.7958	-2.65	-2.8937	-2.7708	-3.0083	-2.8167	-2.5792	-3.1312	-2.7167	-2.8583	-3.0958	-2.6146	-2.8917	-2.8333	242.965	311.833	306.900	254.910	50.595	199.721	300.356	296.632	197.665	153.026	42.800	-14.751	-12.186	96.214	296.620	6.911	0.00032001	0.0019476	0.0007765	612.71	1.0141e-05	4.0497e-05	983.24	147.25	7.729e-07	2.1047e-05	333.95	120.27	47.91	19.194	1.5294e-05	57.755	0.020954	0.030151	0.0084296	1223.5	0.00032748	0.00033818	1137.8	215.54	0.00031565	0.00033516	430.4	153.73	79.314	30.266	0.00032985	71.729	158.408	53.878	279.069	-24.249	59.291	210.396	-22.575	-18.653	164.850	78.475	-18.208	-13.134	-13.645	-8.640	140.723	-8.941	-8191	255	
26319.908	1	1	0	0	0.14188	0.37169	0.074262	0.09625	0.18306	0.036801	0.19142	0.3547	0.070175	0.083522	0.085536	0.056691	0.27866	0.11704	0.20461	0.12222	-2.1292	-2.9688	-2.625	-2.7938	-2.8854	-2.5521	-3.0229	-2.925	-2.5979	-2.7646	-2.7208	-2.6771	-3	-2.8354	-3.1	-2.8854	-35.820	112.519	315.439	152.639	291.710	82.227	241.236	222.020	64.301	281.071	121.201	242.689	321.612	311.894	304.174	-17.943	0.00026062	0.0025896	0.00024441	622.52	1.5558e-05	1.5062e-05	990.58	149.36	2.0708e-05	1.1161e-05	335.16	120.33	48.238	19.066	1.8946e-05	57.476	0.021162	0.030777	0.0084771	1219.7	0.00033188	0.00034141	1145.7	217.13	0.00032096	0.00033774	432.03	153.48	79.146	30.038	0.00032364	71.017	195.552	26.134	241.817	-23.085	51.213	113.194	-22.621	-18.289	105.544	78.163	-18.082	-13.261	-14.119	-8.899	314.244	-9.388	-8191	255	
26320.004	1	1	0	0	0.045739	0.063718	0.23958	0.23632	0.23695	0.12546	0.017075	0.14523	0.064834	0.080791	0.20408	0.41995	0.37301	0.2659	0.26349	0.25552	-2.1604	-2.9375	-2.7417	-2.8042	-2.9458	-2.7938	-2.9125	-2.9708	-2.6562	-2.8958	-2.7646	-2.7375	-2.8375	-2.7687	-2.8646	-3.0812	142.537	13.738	-3.713	251.983	111.830	53.652	141.494	173.240	92.991	218.052	204.126	323.019	314.781	39.697	240.176	184.153	0.00016961	0.0029328	0.00064594	608.19	5.8946e-06	2.096e-05	992.72	146.2	1.4703e-06	1.7114e-05	334.04	119.21	47.647	18.923	9.4992e-06	57.5	0.020921	0.030213	0.0083806	1221.4	0.000328	0.00033646	1145.5	215.38	0.00031327	0.00033613	429.14	152.37	78.634	29.658	0.00032107	70.807	173.799	-25.399	25.205	-23.899	250.670	161.938	-23.033	-17.761	48.364	172.118	-18.090	-13.066	-13.253	-9.380	200.409	-8.857	-8191	255	
26320.123	1	1	0	0	0.068984	0.31848	0.30126	0.22232	0.09607	0.19302	0.29021	0.040711	0.039266	0.27659	0.11572	0.20231	0.13722	0.23727	0.13588	0.124	-2.1125	-2.7646	-2.8542	-2.7146	-2.975	-2.8333	-2.9875	-2.8438	-2.6146	-2.7375	-2.9167	-2.7729	-3.1583	-2.7604	-2.8125	-3.1792	317.100	37.416	84.506	300.696	38.650	106.021	136.977	290.882	114.375	28.026	251.974	22.329	270.685	-17.132	197.398	267.098	0.00049565	0.0015492	0.000439	621.46	1.7738e-05	2.1035e-05	994.57	149.06	5.8813e-06	1.3361e-05	334.02	119.69	48.113	19.224	4.8695e-06	56.983	0.020502	0.029633	0.0082239	1211.7	0.00032393	0.0003319	1142.5	215.74	0.0003128	0.00033916	430.06	152.78	79.081	30.032	0.00032321	70.683	184.130	70.660	133.174	-23.290	-11.756	254.162	-23.273	-18.546	256.870	280.416	-17.879	-13.121	-13.585	-9.762	88.028	-9.229	-8191	255	
26320.197	1	1	0	0	0.13956	0.096646	0.22772	0.10597	0.1224	0.15778	0.23723	0.18902	0.2351	0.17833	0.25287	0.16147	0.085321	0.20208	0.089989	0.24275	-2.0812	-2.7083	-2.7396	-2.5062	-2.9958	-2.8167	-2.7562	-2.9771	-2.7271	-2.8896	-3.0062	-2.7625	-2.8646	-2.85	-2.8625	-2.9771	144.600	17.576	-21.159	175.905	121.696	194.442	248.034	130.557	124.548	276.207	-2.853	321.877	133.411	320.478	92.869	232.480	0.00035928	0.0021025	0.00060005	620.58	6.4816e-06	1.7593e-05	984.71	147.19	1.1004e-05	2.3151e-05	333.94	118.09	46.946	18.921	2.1081e-05	56.359	0.020929	0.030278	0.0084108	1218.1	0.00032828	0.00033734	1138.4	215.38	0.00031577	0.00034243	428.97	151.54	78.789	29.809	0.00033066	70.209	184.085	118.799	59.509	-23.861	20.929	3.709	-22.843	-18.735	154.002	108.784	-18.260	-13.570	-13.470	-8.695	120.420	-9.044	-8191	255	
26320.316	1	1	0	0	0.15755	0.26121	0.19331	0.12834	0.046222	0.090544	0.25057	0.055113	0.33603	0.157	0.37508	0.20597	0.17355	0.055447	0.26277	0.17699	-2.2708	-2.7333	-2.8708	-2.6396	-3.0333	-2.6042	-2.8063	-3.0458	-2.6292	-2.65	-2.7833	-2.6771	-2.8896	-2.7625	-2.7167	-3.025	58.094	14.496	169.233	79.893	109.713	67.811	256.905	236.601	69.499	63.613	291.722	273.202	221.346	168.772	165.153	262.746	0.00046428	0.0018353	0.0002297	623.25	7.9854e-06	6.2042e-06	984.04	145.85	9.1313e-06	3.1773e-05	331.17	117.5	47.362	18.491	4.6489e-06	55.633	0.021205	0.030634	0.008497	1219.4	0.00033213	0.00033763	1139	214.83	0.0003161	0.00034377	427.99	151.08	78.389	29.403	0.00032248	69.607	191.630	309.778	49.098	-23.690	131.349	146.745	-23.094	-18.074	97.897	-23.765	-18.218	-13.041	-13.384	-9.260	146.206	-9.119	-8191	255	
#DATA ENDS
