BOXY.EXE: ISS Imagent and Oximeter Data Acquisition Program Version 0.80
Ascii Record File

#ACQ INFORMATION
2  Detector Channels 
16  External MUX Channels 
1  Auxiliary Channels 
5000  Waveform (CCF) Frequency (Hz)
1  Waveforms Skipped 
30  Waveforms Averaged 
1  Cycles Averaged 
16  Acquisitions per Waveform 
10.0806  Updata Rate (Hz) 

#FILE INFORMATION
TRUE -- External MUX Channel results are PARSED.
FALSE -- AC DC and Phase are NOT grouped.
TRUE -- Companion Program Settings File CREATED.
FALSE -- AC data not excluded
FALSE -- DC data not excluded
FALSE -- Phase data not excluded
FALSE -- Auxillary Chn. data not excluded
Tab delimiters

#CALIBRATION STATE
TRUE -- Waveform Calibration Values APPLIED.


#AUX CALIBRATION VALUES
Val Type	aux-1	

Term	1.0000e+00	
Factor	0.0000e+00	


#WF CALIBRATION VALUES
A = Detector Channel
Val Type	A-AC1	A-AC2	A-AC3	A-AC4	A-AC5	A-AC6	A-AC7	A-AC8	A-AC9	A-AC10	A-AC11	A-AC12	A-AC13	A-AC14	A-AC15	A-AC16	A-DC1	A-DC2	A-DC3	A-DC4	A-DC5	A-DC6	A-DC7	A-DC8	A-DC9	A-DC10	A-DC11	A-DC12	A-DC13	A-DC14	A-DC15	A-DC16	A-Ph1	A-Ph2	A-Ph3	A-Ph4	A-Ph5	A-Ph6	A-Ph7	A-Ph8	A-Ph9	A-Ph10	A-Ph11	A-Ph12	A-Ph13	A-Ph14	A-Ph15	A-Ph16	

Term	0.00000e+00	0.00000e+00	0.00000e+00	0.00000e+00	0.00000e+00	0.00000e+00	0.00000e+00	0.00000e+00	0.00000e+00	0.00000e+00	0.00000e+00	0.00000e+00	0.00000e+00	0.00000e+00	0.00000e+00	0.00000e+00	0.00000e+00	0.00000e+00	0.00000e+00	0.00000e+00	0.00000e+00	0.00000e+00	0.00000e+00	0.00000e+00	0.00000e+00	0.00000e+00	0.00000e+00	0.00000e+00	0.00000e+00	0.00000e+00	0.00000e+00	0.00000e+00	0.00000e+00	0.00000e+00	0.00000e+00	0.00000e+00	0.00000e+00	0.00000e+00	0.00000e+00	0.00000e+00	0.00000e+00	0.00000e+00	0.00000e+00	0.00000e+00	0.00000e+00	0.00000e+00	0.00000e+00	0.00000e+00	
Factor	1.00000e+00	1.00000e+00	1.00000e+00	1.00000e+00	1.00000e+00	1.00000e+00	1.00000e+00	1.00000e+00	1.00000e+00	1.00000e+00	1.00000e+00	1.00000e+00	1.00000e+00	1.00000e+00	1.00000e+00	1.00000e+00	1.00000e+00	1.00000e+00	1.00000e+00	1.00000e+00	1.00000e+00	1.00000e+00	1.00000e+00	1.00000e+00	1.00000e+00	1.00000e+00	1.00000e+00	1.00000e+00	1.00000e+00	1.00000e+00	1.00000e+00	1.00000e+00	X	X	X	X	X	X	X	X	X	X	X	X	X	X	X	X	

B = Detector Channel
Val Type	B-AC1	B-AC2	B-AC3	B-AC4	B-AC5	B-AC6	B-AC7	B-AC8	B-AC9	B-AC10	B-AC11	B-AC12	B-AC13	B-AC14	B-AC15	B-AC16	B-DC1	B-DC2	B-DC3	B-DC4	B-DC5	B-DC6	B-DC7	B-DC8	B-DC9	B-DC10	B-DC11	B-DC12	B-DC13	B-DC14	B-DC15	B-DC16	B-Ph1	B-Ph2	B-Ph3	B-Ph4	B-Ph5	B-Ph6	B-Ph7	B-Ph8	B-Ph9	B-Ph10	B-Ph11	B-Ph12	B-Ph13	B-Ph14	B-Ph15	B-Ph16	

Term	0.00000e+00	0.00000e+00	0.00000e+00	0.00000e+00	0.00000e+00	0.00000e+00	0.00000e+00	0.00000e+00	0.00000e+00	0.00000e+00	0.00000e+00	0.00000e+00	0.00000e+00	0.00000e+00	0.00000e+00	0.00000e+00	0.00000e+00	0.00000e+00	0.00000e+00	0.00000e+00	0.00000e+00	0.00000e+00	0.00000e+00	0.00000e+00	0.00000e+00	0.00000e+00	0.00000e+00	0.00000e+00	0.00000e+00	0.00000e+00	0.00000e+00	0.00000e+00	-2.28318e+02	-1.28261e+02	-1.22557e+02	-1.79784e+02	-6.98370e+01	-5.69121e+01	-1.58204e+02	-1.62015e+02	-8.96925e+01	-7.94603e+01	-1.70039e+02	-1.72048e+02	-1.82281e+02	-1.76085e+02	-7.57894e+01	-1.48903e+02	
Factor	4.44743e-05	1.16669e-04	3.11420e-05	1.50107e-01	1.44705e-06	1.30124e-06	1.55391e-01	5.73555e-02	1.61794e-06	1.31520e-06	7.33951e-02	2.70137e-02	2.41607e-02	7.75268e-03	1.42893e-06	1.11630e-02	1.56745e-06	1.64600e-06	4.64896e-07	7.58927e-02	1.78137e-08	1.80026e-08	7.42071e-02	2.88859e-02	1.77144e-08	1.80151e-08	3.60562e-02	1.31780e-02	1.21309e-02	3.93631e-03	1.80715e-08	5.48598e-03	X	X	X	X	X	X	X	X	X	X	X	X	X	X	X	X	



#DISTANCE SETTINGS
A = Detector Channel
A-1	A-2	A-3	A-4	A-5	A-6	A-7	A-8	A-9	A-10	A-11	A-12	A-13	A-14	A-15	A-16	

2.5000e+00	3.0000e+00	2.5000e+00	3.0000e+00	2.0000e+00	3.0000e+00	1.5000e+00	3.0000e+00	3.0000e+00	3.0000e+00	3.0000e+00	3.0000e+00	3.0000e+00	3.0000e+00	1.5000e+00	3.0000e+00	

B = Detector Channel
B-1	B-2	B-3	B-4	B-5	B-6	B-7	B-8	B-9	B-10	B-11	B-12	B-13	B-14	B-15	B-16	

1.0000e+01	1.0000e+01	1.0000e+01	1.4400e+00	1.0000e+01	1.0000e+01	1.5100e+00	1.9400e+00	1.0000e+01	1.0000e+01	1.9900e+00	2.4900e+00	2.4100e+00	2.9000e+00	1.0000e+01	2.9800e+00	




#DATA BEGINS
time	group	step	mark	flag	A-AC1	A-AC2	A-AC3	A-AC4	A-AC5	A-AC6	A-AC7	A-AC8	A-AC9	A-AC10	A-AC11	A-AC12	A-AC13	A-AC14	A-AC15	A-AC16	A-DC1	A-DC2	A-DC3	A-DC4	A-DC5	A-DC6	A-DC7	A-DC8	A-DC9	A-DC10	A-DC11	A-DC12	A-DC13	A-DC14	A-DC15	A-DC16	A-Ph1	A-Ph2	A-Ph3	A-Ph4	A-Ph5	A-Ph6	A-Ph7	A-Ph8	A-Ph9	A-Ph10	A-Ph11	A-Ph12	A-Ph13	A-Ph14	A-Ph15	A-Ph16	B-AC1	B-AC2	B-AC3	B-AC4	B-AC5	B-AC6	B-AC7	B-AC8	B-AC9	B-AC10	B-AC11	B-AC12	B-AC13	B-AC14	B-AC15	B-AC16	B-DC1	B-DC2	B-DC3	B-DC4	B-DC5	B-DC6	B-DC7	B-DC8	B-DC9	B-DC10	B-DC11	B-DC12	B-DC13	B-DC14	B-DC15	B-DC16	B-Ph1	B-Ph2	B-Ph3	B-Ph4	B-Ph5	B-Ph6	B-Ph7	B-Ph8	B-Ph9	B-Ph10	B-Ph11	B-Ph12	B-Ph13	B-Ph14	B-Ph15	B-Ph16	aux-1	digaux	

7144.029	1	1	0	512	0.16427	0.2046	0.075244	0.14688	0.097038	0.063408	0.049887	0.060857	0.19539	0.21096	0.059656	0.1919	0.059105	0.10232	0.27451	0.11692	-2.725	-2.9083	-3.3	-3.0521	-2.9604	-3.3542	-3.0208	-2.8354	-3.2646	-3.2625	-3.2854	-2.9938	-2.9021	-3.3729	-3.1375	-3.2667	186.468	-127.031	-108.241	-34.580	-49.910	184.368	159.586	-83.711	54.838	3.669	146.194	104.438	87.858	145.653	-108.968	118.303	0.0022737	0.0010748	0.00027127	404.75	3.5737e-06	3.9773e-06	638.38	174.27	2.3486e-05	3.0387e-06	310.13	157.6	79.69	36.037	4.7809e-06	86.954	0.004114	0.0041371	0.0013476	615.49	4.6664e-05	4.5381e-05	852.02	252.77	4.5498e-05	4.6192e-05	414.04	191.43	109.56	45.726	5.3483e-05	101.57	107.902	-53.188	190.796	-147.092	145.763	-110.186	-148.338	-142.687	-9.662	-130.863	-143.466	-140.104	-140.477	-135.196	148.600	-136.463	-8191	255	
7144.125	1	1	0	0	0.11084	0.084474	0.23141	0.25303	0.26276	0.24809	0.12712	0.35312	0.056643	0.040169	0.18908	0.21134	0.083972	0.15023	0.18123	0.078624	-2.7917	-2.9979	-3.2104	-3.1417	-2.8167	-3.3521	-3.2229	-2.9292	-3.3042	-2.9813	-3.2083	-3.0208	-2.8708	-3.2708	-3.1875	-3.0708	-148.261	2.236	-76.500	-109.620	53.771	62.413	163.923	185.589	-117.962	-95.924	184.662	191.426	168.077	154.593	192.253	111.710	0.0020861	0.0025334	0.00017764	405.88	1.5236e-05	2.5106e-05	636.39	173.59	1.2119e-05	2.1876e-05	312.58	157.05	79.959	36.162	1.8767e-05	87.514	0.0040134	0.0043241	0.0013853	603.8	4.5354e-05	4.7751e-05	854.14	248.88	4.4658e-05	4.921e-05	416.37	190.44	109.36	46.844	5.4274e-05	101.66	104.213	161.883	45.911	-147.588	-5.942	-120.723	-147.822	-142.777	-45.036	-87.810	-143.580	-140.106	-140.082	-135.106	38.100	-136.741	-8191	255	
7144.221	1	1	0	0	0.1754	0.11587	0.14841	0.20015	0.32255	0.18382	0.25929	0.15285	0.085876	0.1432	0.13714	0.32512	0.19329	0.13591	0.11548	0.083889	-2.8646	-2.8917	-2.9875	-3.1417	-2.9792	-3.275	-3.0604	-2.9104	-3.4042	-3.0083	-3.0938	-3.2021	-2.9604	-3.2875	-3.0396	-3.0896	36.410	-62.792	71.726	159.514	25.385	-62.740	49.065	163.646	44.466	-69.044	152.877	99.318	129.430	169.245	-63.236	124.659	0.0021757	0.002041	0.00041516	404.06	1.9075e-05	8.9029e-06	636.97	175.08	8.197e-06	1.4652e-05	311.51	157.56	80.541	36.392	2.2302e-05	87.363	0.0040249	0.0047007	0.0013864	601.95	4.5529e-05	5.1634e-05	851.64	249.1	4.4829e-05	5.2901e-05	414.14	189.88	109.9	47.704	5.214e-05	101.68	91.271	161.448	9.754	-147.842	47.336	-124.442	-147.782	-143.005	-82.460	-60.537	-143.556	-139.916	-140.249	-135.119	17.867	-136.506	-8191	255	
7144.293	1	1	0	0	0.10776	0.061973	0.16853	0.26854	0.021468	0.20357	0.17884	0.32725	0.11204	0.10461	0.018287	0.30652	0.13918	0.19782	0.048475	0.47253	-2.9771	-2.9271	-2.8917	-3.2479	-3.0354	-3.0563	-3.1792	-2.7687	-3.5604	-3.0375	-3.1188	-3.3646	-3.0083	-3.2417	-3.1271	-3.0938	-63.508	190.461	141.861	44.530	-49.050	-83.230	89.368	131.451	-98.524	141.942	35.537	-148.923	-20.547	-149.696	15.503	129.922	0.0023715	0.0014349	0.00021931	404.91	1.9683e-05	7.5468e-06	636.76	173.78	1.3933e-05	1.0591e-05	312.74	157.87	80.262	36.59	2.3914e-05	87.877	0.0040842	0.0049741	0.0013556	600.91	4.7015e-05	5.4948e-05	846.81	249.33	4.6922e-05	5.5537e-05	410.9	190.1	111.75	48.35	5.052e-05	101.7	90.942	-122.038	8.961	-147.481	-111.609	-66.230	-147.878	-143.098	-100.432	35.370	-143.297	-140.374	-140.553	-134.613	-13.672	-136.520	-8191	255	
7144.413	1	1	0	0	0.19554	0.097974	0.11685	0.37738	0.11357	0.15824	0.14	0.21336	0.16549	0.16626	0.27142	0.20864	0.044926	0.13611	0.07012	0.22959	-2.9188	-3.0583	-3.0375	-3.2854	-2.8542	-3.3292	-3.3146	-2.8625	-3.1917	-3.0667	-2.8854	-3.4729	-3.1208	-3.2208	-3.3292	-3.1708	121.280	-121.916	-142.833	51.881	6.959	-126.141	163.230	-9.582	-102.657	113.664	184.779	153.047	111.309	189.485	-131.266	164.679	0.0024156	0.00070522	0.00065231	406	1.4699e-05	2.0874e-05	638.54	174.78	4.6392e-05	8.5387e-06	312.61	158.72	80.306	36.339	1.3138e-05	87.499	0.0043261	0.0050891	0.0013094	599.39	5.0538e-05	5.6177e-05	841.5	249.08	5.0843e-05	5.6256e-05	410.54	190.6	114.73	48.357	4.9939e-05	101.6	84.620	95.182	-88.157	-147.663	-112.290	22.524	-147.917	-143.041	198.416	-78.049	-143.506	-140.117	-140.533	-134.984	-4.114	-136.510	-8191	255	
7144.510	1	1	0	0	0.22273	0.22339	0.11126	0.19118	0.30455	0.26648	0.026392	0.087705	0.23687	0.13677	0.26165	0.16987	0.077599	0.18511	0.20299	0.19177	-2.6125	-2.8292	-2.9979	-3.1854	-2.975	-3.1063	-3.2042	-2.6562	-3.1958	-3.0354	-2.9667	-3.3583	-3.0583	-3.2562	-3.3312	-3.0187	-46.267	65.247	-158.845	152.922	17.227	-106.500	-31.443	54.130	-158.749	18.211	-149.286	134.705	52.945	-54.503	-34.291	86.600	0.0028225	0.001405	0.00018654	406.94	1.7641e-05	2.4341e-05	637.08	176.17	1.3173e-05	2.1747e-05	313.14	158.63	80.503	36.686	1.2251e-05	87.682	0.0046971	0.0050376	0.0013029	600.14	5.4243e-05	5.495e-05	838.68	249.28	5.4392e-05	5.4424e-05	409.51	190.89	116.99	48.15	4.9132e-05	102.15	90.754	-72.006	-12.421	-147.789	-130.314	28.983	-147.857	-143.529	153.319	21.834	-143.676	-140.171	-140.202	-134.600	-23.389	-136.884	-8191	255	
7144.606	1	1	0	0	0.16465	0.186	0.093717	0.23302	0.20832	0.28993	0.30932	0.29837	0.1683	0.2307	0.090117	0.2392	0.011423	0.34283	0.19204	0.17185	-2.8563	-3.1958	-2.8479	-3.375	-2.9813	-2.9938	-3.0417	-2.9833	-3.1479	-3.25	-3.1104	-3.3583	-3.0938	-3.1271	-3.3125	-2.9938	188.897	88.084	79.342	53.553	66.033	33.631	70.161	169.538	78.545	59.892	170.112	175.379	-16.312	127.552	-65.685	184.263	0.0027527	0.001809	0.00026151	404.36	7.1368e-06	2.1027e-05	637.5	176.36	2.1167e-05	1.7365e-05	312.8	158.16	80.635	36.785	4.4611e-06	88.551	0.0049455	0.0048414	0.0012793	604.75	5.5864e-05	5.2633e-05	831.43	252.72	5.5746e-05	5.1948e-05	406.75	192.98	117.74	47.768	4.7864e-05	103.36	98.293	-43.995	84.533	-148.179	-119.718	89.013	-147.954	-143.174	-50.324	6.145	-143.089	-140.252	-140.145	-134.878	-1.255	-136.802	-8191	255	
7144.725	1	1	0	0	0.1568	0.1863	0.25181	0.25698	0.10914	0.11741	0.11463	0.20346	0.18162	0.22764	0.34887	0.20761	0.31723	0.13241	0.31313	0.16121	-2.7979	-3.2562	-2.8833	-3.3083	-3.0854	-3.1208	-3.2938	-3.0521	-3.2125	-3.1771	-2.9729	-3.5646	-3.2188	-3.0917	-3.4146	-3.1875	-36.834	88.812	114.640	161.646	-48.341	65.771	164.398	108.842	-149.239	50.492	-153.046	191.732	-158.407	184.467	-8.289	159.971	0.0019069	0.0015396	0.00012655	405.69	3.0179e-05	1.4352e-06	637.24	175.97	1.7719e-05	7.3462e-06	311.07	158.94	80.936	36.809	1.599e-05	88.549	0.0049577	0.0046334	0.0012412	617.63	5.5074e-05	5.0528e-05	826.94	257.46	5.4805e-05	5.0195e-05	405.13	196.21	116.85	47.646	4.7586e-05	104.56	100.667	-46.505	-110.356	-147.801	49.850	20.939	-148.139	-143.098	-17.961	-43.924	-143.790	-140.254	-140.057	-134.955	-43.555	-136.866	-8191	255	
7144.821	1	1	0	0	0.20602	0.16662	0.26364	0.2509	0.18015	0.41857	0.12227	0.18215	0.16271	0.16904	0.13497	0.40759	0.02639	0.18412	0.18177	0.442	-2.8042	-3.3146	-2.6688	-3.1417	-3.1271	-3.1479	-3.4375	-3.1021	-3.05	-3.4458	-2.9729	-3.2458	-3.3167	-3.1083	-3.2708	-3.1562	13.237	-50.961	145.852	146.987	7.986	31.534	-19.293	178.552	-42.264	132.721	174.652	100.367	157.952	95.201	86.181	131.492	0.0019869	0.0014721	0.00046974	406.07	2.9648e-05	9.7998e-06	639.23	175.83	2.8973e-05	6.036e-06	312.1	158.51	80.503	36.688	2.6704e-05	88.097	0.0048941	0.0045899	0.0012554	634.91	5.3984e-05	5.0314e-05	830.87	262.85	5.3349e-05	4.9576e-05	406.41	197.74	115.02	47.2	4.8687e-05	104.69	104.110	-73.522	-111.187	-147.755	66.214	-68.260	-148.051	-143.173	-5.396	-151.438	-143.697	-140.237	-140.066	-134.820	-142.141	-136.797	-8191	255	
7144.894	1	1	0	0	0.19817	0.08555	0.056071	0.17448	0.02202	0.30477	0.21721	0.16447	0.18309	0.086781	0.051008	0.32394	0.22208	0.22789	0.11968	0.14195	-2.6229	-3.1	-2.8604	-3.2687	-3.1437	-2.825	-3.3771	-3.0458	-2.8312	-3.2104	-3.1688	-3.4229	-3.0979	-2.9	-3.5	-3.2229	176.974	-133.369	24.742	-140.145	-104.784	-94.479	148.546	92.909	97.123	-67.322	65.793	147.083	-146.393	111.681	2.656	112.626	0.0016434	0.0014744	0.00064751	404.59	2.4976e-05	1.1032e-05	636.03	175.31	1.3115e-05	1.7457e-05	312.3	158.11	81.263	36.782	3.2791e-05	88.334	0.0046249	0.004432	0.0012834	637.04	5.1113e-05	4.832e-05	834.27	262.5	5.0235e-05	4.7735e-05	411.2	197.42	113.81	47.17	5.2086e-05	104.99	103.656	13.453	144.607	-147.767	15.505	22.075	-148.230	-143.176	-34.996	37.544	-143.613	-140.115	-140.265	-135.002	-114.327	-136.697	-8191	255	
7145.013	1	1	0	0	0.16571	0.18755	0.12341	0.072572	0.13335	0.24034	0.18408	0.17975	0.1556	0.16566	0.29914	0.13205	0.048511	0.20709	0.16358	0.31548	-2.4667	-3.4188	-3.0438	-3.1354	-3.0771	-2.9146	-3.325	-2.9729	-2.9562	-3.2667	-3.1146	-3.1229	-3.2354	-2.8729	-3.2958	-3.0396	25.189	86.743	160.096	19.449	-34.873	-129.860	145.581	145.972	-48.195	-18.101	176.945	182.453	24.200	126.278	80.827	101.559	0.0018151	0.0013217	0.00057393	403.66	8.6477e-06	1.0279e-05	636.33	174.86	2.7609e-05	3.8804e-06	311.61	159.03	81.456	36.773	8.9862e-06	88.478	0.0045604	0.0043941	0.0013872	638.11	5.0522e-05	4.8818e-05	855.74	262.78	5.0469e-05	4.8109e-05	419.99	197.46	113.7	47.259	5.6213e-05	104.73	97.214	3.329	190.657	-147.524	-23.681	23.949	-148.494	-142.609	-10.293	-120.453	-143.793	-139.997	-140.236	-134.931	-34.358	-136.721	-8191	255	
7145.109	1	1	0	0	0.24308	0.1538	0.1344	0.28317	0.21853	0.24785	0.13974	0.18644	0.058682	0.12904	0.053255	0.12603	0.15133	0.22994	0.12785	0.22847	-2.5667	-3.2146	-3.1542	-3.1375	-3.1021	-2.9083	-3.3396	-3.1104	-2.9146	-3.525	-3.0875	-3.1417	-3.4125	-2.7771	-3.2313	-3.2729	61.157	44.291	144.050	-154.966	-56.303	-86.146	-103.596	129.348	-35.325	-48.376	-35.248	110.896	103.997	84.673	-45.930	116.660	0.0022472	0.00057748	0.00020372	403.09	1.965e-05	8.6287e-06	638.47	175.02	7.3222e-06	1.6685e-05	311.79	158.96	81.351	36.943	2.2901e-05	88.244	0.0045204	0.004489	0.0014835	632.25	4.9974e-05	4.9846e-05	870.82	259.94	4.9906e-05	4.9943e-05	425.84	196.01	113.07	47.745	5.8256e-05	103.86	99.828	-77.791	145.106	-147.571	9.428	-128.079	-148.191	-142.417	-111.303	185.212	-143.666	-140.198	-140.336	-135.093	-142.768	-136.564	-8191	255	
7145.205	1	1	0	0	0.36746	0.10463	0.2307	0.37089	0.22937	0.22038	0.095441	0.27366	0.098545	0.15529	0.10179	0.20677	0.051471	0.21169	0.039556	0.2741	-2.4792	-3.2938	-3.0875	-3.1729	-3.3042	-2.8208	-3.3083	-3.2583	-2.975	-3.2542	-3.3917	-3.1021	-3.4688	-3.0021	-3.1292	-3.5396	-6.179	-159.057	102.320	89.258	-8.958	-21.788	-52.544	185.544	-44.319	-110.937	119.354	138.482	24.026	-126.952	135.403	150.862	0.001788	0.0012369	0.00016739	407.13	1.5144e-05	1.2444e-05	638.59	174.72	1.1104e-05	1.3525e-05	312.53	158	80.679	36.799	4.2096e-06	87.541	0.0044249	0.0046736	0.001499	623	4.8665e-05	5.2079e-05	870.67	255.5	4.798e-05	5.2263e-05	422.73	193.26	111.33	48.093	5.696e-05	102.59	106.479	-142.848	192.748	-147.245	37.185	-141.450	-148.007	-142.687	-12.696	139.368	-143.670	-140.200	-140.047	-135.290	-95.235	-136.729	-8191	255	
7145.326	1	1	0	0	0.021914	0.13346	0.28883	0.22118	0.13809	0.18568	0.037397	0.15657	0.069382	0.34186	0.32909	0.21574	0.13595	0.25666	0.039051	0.13431	-2.4354	-3.2375	-3.1937	-3.0104	-3.3458	-3.0042	-3.2979	-3.0854	-2.8167	-3.4083	-3	-3.1333	-3.2771	-3.1208	-3.0812	-3.4375	30.727	-2.539	-70.371	-142.912	154.637	122.662	35.760	-48.054	169.303	193.283	167.109	-130.716	147.560	-153.399	-57.571	94.534	0.0022682	0.0018592	0.000444	408.12	5.1303e-06	2.7153e-05	635.2	175.29	7.123e-06	1.9061e-05	310.43	157.93	80.51	36.459	2.0549e-05	87.575	0.0042885	0.0049468	0.0014536	615.25	4.7337e-05	5.4629e-05	858.88	252.14	4.6868e-05	5.4558e-05	416.16	191.26	110.56	48.389	5.3768e-05	101.66	95.689	156.538	-12.318	-147.745	-136.806	194.317	-148.168	-143.018	22.517	174.611	-143.313	-140.200	-140.469	-135.055	-10.070	-136.510	-8191	255	
7145.422	1	1	0	0	0.08037	0.21684	0.16903	0.19312	0.19956	0.090535	0.15844	0.12311	0.12112	0.11319	0.1497	0.31595	0.18782	0.097641	0.11981	0.21069	-2.4354	-3.2979	-3.0083	-2.8312	-3.3583	-2.9854	-3.0604	-3.2938	-2.7396	-3.325	-3.0521	-2.8479	-3.2333	-3.2229	-2.9083	-3.2229	13.546	-69.915	-69.379	-127.219	-142.911	36.886	99.710	152.465	187.928	83.376	130.027	-29.070	178.881	198.351	30.914	153.741	0.0028213	0.0012578	0.00026648	405.37	2.9707e-05	4.1653e-06	637.21	174.95	3.2099e-05	1.588e-05	312.22	157.38	80.215	36.495	1.0893e-05	87.463	0.0042563	0.0050852	0.0013702	607.65	4.7827e-05	5.6304e-05	848.01	249.76	4.8654e-05	5.6414e-05	411.33	190.41	112.05	48.624	5.1248e-05	101.26	90.525	163.908	-31.729	-147.457	-156.336	-28.430	-147.865	-142.968	-137.907	-18.500	-143.330	-139.946	-140.356	-134.612	52.989	-136.533	-8191	255	
7145.517	1	1	0	0	0.062843	0.097716	0.074703	0.41618	0.3031	0.061935	0.18385	0.22725	0.23395	0.048157	0.098781	0.09437	0.24239	0.13999	0.22129	0.16612	-2.5542	-3.1708	-2.9833	-2.9062	-3.3021	-2.9813	-2.9896	-3.4604	-3.1875	-3.0583	-3.3396	-3.0667	-3.2188	-3.2417	-3.05	-3.3146	39.450	188.510	26.632	-153.757	-149.266	-48.243	118.697	30.401	119.905	88.956	62.645	148.020	163.778	-159.937	-141.932	163.941	0.0028907	0.00094965	0.00028572	404.19	5.2287e-06	5.5672e-06	635.04	174.96	3.4077e-05	1.7158e-05	309.94	156.05	79.897	36.222	1.7895e-05	87.378	0.0044381	0.0050867	0.0012988	598.35	5.0218e-05	5.5686e-05	837.35	246.34	5.0711e-05	5.4935e-05	405.73	188	113.51	47.891	4.9563e-05	100.48	85.622	-58.276	-57.156	-147.354	-121.641	95.648	-147.794	-142.793	198.244	27.589	-143.286	-140.332	-140.260	-134.807	8.089	-136.765	-8191	255	
7145.590	1	1	0	0	0.14157	0.063961	0.11397	0.1854	0.17406	0.15318	0.090536	0.16429	0.17497	0.23062	0.35667	0.45084	0.22058	0.2386	0.16468	0.24824	-2.4729	-3.3708	-3.0354	-2.8854	-3.2167	-2.9521	-2.8563	-3.4458	-2.8688	-2.9583	-3.2417	-2.8937	-3.2667	-3.3208	-2.9771	-3.4104	169.322	167.672	71.075	17.194	-58.067	160.614	-34.488	-157.581	-71.155	155.447	170.478	-103.926	0.619	149.663	88.475	110.697	0.0024612	0.00024138	0.00037332	400.05	2.7308e-05	1.748e-05	630.77	173.37	2.3743e-05	2.227e-05	311.01	156.34	80.33	36.384	1.6363e-06	87.226	0.0046563	0.004936	0.0012664	595.92	5.329e-05	5.357e-05	830.99	246.65	5.4173e-05	5.3704e-05	404.54	189.17	116.1	47.614	4.9394e-05	100.97	86.100	-87.246	-37.585	-147.604	-151.332	-22.338	-147.922	-143.495	-156.831	10.044	-143.495	-140.344	-140.137	-134.893	41.197	-136.753	-8191	255	
7145.709	1	1	0	0	0.062513	0.062827	0.10045	0.20835	0.13804	0.16205	0.036237	0.083172	0.19534	0.081013	0.21517	0.26912	0.012099	0.018952	0.13157	0.021163	-2.6104	-3.0812	-3.1063	-2.725	-3.1958	-2.9896	-2.9917	-3.3146	-2.8937	-3.05	-3.3625	-2.7979	-3.3729	-3.0812	-2.7375	-3.5292	-131.654	13.118	-64.933	18.964	80.916	8.874	114.204	5.023	-50.524	-145.387	174.147	124.573	66.974	194.290	-135.949	109.561	0.0025941	0.0012722	0.00048379	401.3	9.9409e-06	2.1727e-05	633.89	174.26	1.2589e-05	1.7014e-05	310.22	156.14	80.393	36.476	1.0036e-05	87.524	0.004934	0.0048303	0.0012504	604.66	5.5642e-05	5.1891e-05	828.67	250.46	5.5539e-05	5.1672e-05	401.42	191.07	116.58	47.139	4.8436e-05	102.23	92.703	-29.258	42.145	-148.021	-138.110	47.861	-148.053	-143.311	-73.732	5.201	-143.773	-140.137	-139.999	-134.711	46.704	-136.826	-8191	255	
7145.805	1	1	0	0	0.36073	0.21046	0.20583	0.11755	0.25006	0.025657	0.17355	0.21979	0.36149	0.15942	0.15779	0.22083	0.15979	0.10185	0.10188	0.07981	-2.5229	-2.8458	-3.0479	-3.0625	-3.3042	-3.0812	-2.9542	-3.3667	-2.9646	-2.7833	-3.4542	-3.0458	-3.0958	-3.4417	-2.7729	-3.2083	71.154	115.087	103.794	-61.562	96.679	94.885	-140.168	188.701	48.510	111.784	166.512	-74.429	-100.261	125.336	161.813	76.909	0.001653	0.00061601	0.0001697	402.22	2.2979e-05	1.0797e-05	635.26	173.55	3.354e-05	1.1533e-05	310.38	156.91	80.893	36.494	3.3215e-06	87.515	0.0049342	0.004667	0.0012275	620.02	5.5609e-05	5.0752e-05	828.07	257.18	5.4965e-05	5.0877e-05	402.71	194.37	115.86	47.03	4.7779e-05	103.19	95.094	-43.038	-85.941	-147.769	184.163	15.015	-147.931	-142.958	40.007	-73.361	-143.373	-140.456	-140.020	-135.077	86.601	-136.685	-8191	255	
7145.901	1	1	0	0	0.018298	0.12585	0.22822	0.080713	0.24044	0.27122	0.18831	0.15894	0.19009	0.16234	0.2948	0.33331	0.167	0.12578	0.15163	0.071303	-2.7042	-2.9437	-3.15	-2.8563	-3.2125	-3.2083	-2.7812	-3.3375	-2.9854	-2.8917	-3.3396	-2.925	-2.9625	-3.5479	-2.8937	-3.3042	-59.969	79.912	-26.253	147.750	12.878	113.608	-53.939	146.237	122.529	147.994	-160.357	166.388	87.366	60.572	74.980	49.908	0.0021174	0.00011222	0.00024181	403.85	1.6446e-05	1.3097e-05	636.37	175.46	2.2763e-05	5.7082e-06	310.49	157.34	80.307	36.495	7.6826e-06	87.361	0.0047132	0.0045656	0.0012145	629.4	5.298e-05	4.8958e-05	827.42	260.78	5.2219e-05	4.9504e-05	403.06	196.23	114.23	46.675	4.9594e-05	103.78	112.036	179.297	152.542	-148.131	2.582	5.669	-148.040	-143.353	33.921	-4.689	-143.568	-140.175	-140.123	-134.886	-97.789	-136.724	-8191	255	
7145.997	1	1	0	0	0.070314	0.054135	0.14896	0.14041	0.32922	0.16969	0.12768	0.15059	0.10403	0.18346	0.25948	0.17052	0.1699	0.18172	0.10033	0.11352	-2.6688	-2.8333	-3.2458	-3.1667	-3.0812	-3.2375	-3.0687	-3.2708	-2.9458	-2.8729	-3.5708	-3.0792	-2.9021	-3.4	-2.9146	-3.3083	-31.449	-7.303	109.419	-112.540	-120.299	-41.489	128.403	46.372	45.897	180.674	137.316	-158.894	26.581	120.051	106.907	139.913	0.0017221	0.00094295	0.00052525	400.56	3.4916e-05	1.9538e-05	632.32	174.14	2.4397e-05	7.9852e-06	309.63	157.5	80.696	36.548	2.3458e-05	86.867	0.0045537	0.0044663	0.0012709	634.65	5.1157e-05	4.7958e-05	837.21	262.21	5.0842e-05	4.8989e-05	410.67	197.03	114.06	46.816	5.3793e-05	104.01	107.301	-77.620	107.575	-147.680	24.333	23.098	-148.339	-143.239	9.109	143.907	-143.934	-140.460	-140.076	-134.744	-159.668	-136.738	-8191	255	
7146.118	1	1	0	0	0.15285	0.1047	0.13418	0.34665	0.12395	0.11	0.11987	0.10568	0.14671	0.093582	0.29536	0.04291	0.26261	0.11057	0.050442	0.15032	-2.6917	-2.9354	-3.1063	-2.8354	-2.9604	-3.35	-3.0604	-3.225	-3.3146	-2.9646	-3.35	-3.2146	-3.0917	-3.3312	-3.1479	-3.2708	156.278	-60.905	-130.544	188.033	51.704	70.188	145.827	-12.801	188.382	-104.626	188.263	-144.453	-138.907	143.956	-22.925	174.388	0.0017692	0.00058009	0.00041123	403.7	2.1524e-05	1.1188e-05	634.2	174.96	2.2367e-05	6.9773e-06	309.3	158.04	80.363	36.701	2.243e-05	87.347	0.004523	0.0044946	0.0013871	637.47	5.1036e-05	4.819e-05	855.27	261.51	5.0184e-05	4.8871e-05	418.63	196.57	113.69	47.115	5.7292e-05	103.91	86.022	-115.150	173.626	-147.582	-3.717	30.734	-147.993	-142.668	27.177	47.601	-143.764	-140.351	-140.313	-134.977	-126.871	-136.665	-8191	255	
7146.190	1	1	0	0	0.041767	0.074494	0.092071	0.17855	0.21743	0.15637	0.48626	0.070578	0.089948	0.051414	0.20078	0.16831	0.22881	0.11541	0.11834	0.18719	-2.8083	-3.0104	-2.9938	-3.1104	-2.7958	-3.3812	-3.0021	-3.1771	-3.1479	-2.8125	-3.2542	-3.325	-2.8104	-3.4708	-2.8604	-3.2875	31.223	154.791	2.011	-133.402	190.958	-105.248	156.745	36.895	14.032	195.487	107.857	90.074	146.337	-17.959	99.919	116.282	0.0025569	0.00072131	0.00023707	403.46	6.0683e-06	1.8694e-05	633.08	174.99	1.8105e-05	2.01e-05	312.48	157.83	80.739	36.7	1.543e-05	87.177	0.0044742	0.0045588	0.0014774	628.09	5.039e-05	4.9505e-05	868.25	259.25	4.929e-05	5.0721e-05	424.62	194.79	113.12	47.508	5.8812e-05	102.98	91.666	-16.500	-150.579	-147.221	-11.063	-107.416	-148.262	-142.949	8.762	196.169	-143.381	-140.097	-140.288	-135.184	-19.520	-136.546	-8191	255	
7146.286	1	1	0	0	0.22935	0.11058	0.14488	0.27749	0.028872	0.080975	0.089441	0.12482	0.20153	0.23761	0.063084	0.18989	0.13351	0.017353	0.13358	0.14385	-2.9229	-3.0021	-3.0479	-3.1271	-2.975	-3.4667	-3.0812	-2.9271	-3.4417	-2.8417	-3.2917	-3.425	-3.0771	-3.4125	-2.975	-3.0333	101.986	130.577	-29.258	-2.727	193.629	141.369	50.783	-86.728	77.532	-24.571	85.877	180.591	121.730	-156.914	-159.052	-156.028	0.0021401	0.0017355	0.00035961	403.25	2.3285e-05	2.6369e-05	632.39	176.37	1.0775e-05	2.6197e-05	312.73	158.15	80.661	36.598	5.1236e-06	87.007	0.0043677	0.0047898	0.0015154	620.21	4.9825e-05	5.3183e-05	872.61	258.77	4.9386e-05	5.5219e-05	427.15	194.68	113.02	48.45	5.8645e-05	102.75	114.414	-158.263	-8.657	-147.291	-1.376	-159.498	-148.338	-142.707	-39.045	182.837	-143.488	-140.349	-140.274	-135.416	158.428	-136.635	-8191	255	
7146.406	1	1	0	0	0.015462	0.15549	0.24977	0.043377	0.17018	0.12217	0.17384	0.09275	0.15583	0.058166	0.14991	0.26422	0.14129	0.099539	0.103	0.46092	-2.9688	-2.8896	-3.125	-3.3292	-2.8917	-3.4729	-3.1	-2.975	-3.3563	-2.8354	-3.2229	-3.4437	-2.9979	-3.3646	-3.2271	-3.1646	-134.593	-15.694	-153.222	-62.104	72.795	7.006	123.900	-142.173	122.855	-69.662	101.544	-132.945	195.387	77.952	108.344	111.071	0.0023506	0.00066012	0.00065141	401.37	2.9545e-06	1.9902e-05	634.75	174.45	1.054e-05	1.021e-05	310.67	157.28	80.394	36.464	3.2696e-05	86.681	0.0043393	0.005159	0.0014907	615.79	4.9495e-05	5.662e-05	864.04	254.86	4.8714e-05	5.7475e-05	420.06	192.19	112.45	48.728	5.529e-05	101.92	96.683	182.860	-0.608	-147.837	191.217	-141.147	-147.952	-142.794	-140.408	157.732	-142.977	-140.042	-140.177	-135.157	-26.892	-136.679	-8191	255	
7146.503	1	1	0	0	0.32148	0.11649	0.11511	0.016408	0.077293	0.05528	0.22062	0.22798	0.084448	0.07761	0.36229	0.36548	0.4206	0.24261	0.17362	0.3308	-2.9437	-2.7833	-2.8854	-3.3375	-3.0104	-3.2771	-3.2104	-3.0479	-3.2062	-3.1604	-3.1229	-3.2792	-2.9542	-3.3146	-2.9229	-2.9667	158.266	-32.758	69.819	-149.309	-89.488	-52.633	-8.741	133.824	-93.019	-18.236	126.576	144.242	131.124	-159.026	-38.487	177.866	0.0023192	0.0020718	0.00063532	400.79	2.7673e-05	2.1762e-05	633.37	174.32	2.4698e-05	2.0425e-06	310	156.61	80.018	36.61	1.6299e-05	86.858	0.0043751	0.0053233	0.0014168	608.07	5.0125e-05	5.802e-05	850.38	251.91	4.9668e-05	5.7972e-05	413.06	190.71	113.39	48.868	5.2241e-05	101.41	92.011	183.671	-57.050	-147.477	-145.789	-108.793	-147.924	-143.050	187.780	-32.599	-143.181	-140.052	-140.300	-135.088	14.323	-136.496	-8191	255	
7146.597	1	1	0	0	0.094183	0.32889	0.058285	0.096964	0.081471	0.30476	0.093238	0.10354	0.29126	0.17712	0.32633	0.17647	0.26753	0.14501	0.21507	0.37635	-2.9562	-2.9521	-2.9833	-3.4354	-2.875	-3.1	-3.4646	-3.0229	-3.0146	-3.075	-2.9875	-3.25	-3.1188	-3.3167	-3.1396	-3.0146	88.385	-52.325	-130.183	146.217	-148.858	104.748	22.026	93.639	182.316	178.530	99.464	187.489	158.138	-91.980	117.098	161.088	0.0023637	0.0016966	9.9717e-05	400.12	2.2001e-05	1.5152e-05	631.68	173.94	2.8011e-05	2.7464e-05	309.71	156.37	79.859	36.252	1.928e-05	86.599	0.0045566	0.0052627	0.001352	600.35	5.2576e-05	5.7359e-05	840.67	249.57	5.2669e-05	5.6571e-05	409.16	189.22	115.09	48.195	5.0283e-05	100.71	93.703	-64.717	-58.701	-147.603	-139.588	60.086	-148.214	-143.080	-150.073	24.387	-143.469	-140.310	-140.331	-134.830	-15.908	-136.748	-8191	255	
7146.695	1	1	0	0	0.17328	0.080301	0.25208	0.20471	0.20092	0.086519	0.21749	0.029894	0.25433	0.14654	0.084701	0.083564	0.40349	0.21273	0.37895	0.32068	-2.8667	-3.0917	-2.8708	-3.3812	-3.0583	-3.0708	-3.4188	-3.025	-3.2062	-3.0375	-3.1375	-3.2438	-2.8833	-3.1604	-3.2438	-2.9188	-12.788	119.029	37.056	151.743	-157.215	-113.651	128.144	-130.278	-123.018	-60.174	165.928	124.991	165.168	170.825	176.159	162.285	0.0023574	0.0026865	0.00040799	400.89	1.0974e-05	2.4592e-05	634.26	173.9	1.6261e-05	2.8193e-05	310.9	155.99	79.884	36.187	8.5856e-06	85.948	0.0047776	0.0050097	0.0013091	596.17	5.5288e-05	5.4944e-05	833.33	248.76	5.5076e-05	5.4056e-05	406.14	189.44	116.39	47.527	4.8775e-05	100.34	77.639	-65.930	-71.036	-147.698	188.504	-60.265	-148.315	-143.154	-127.107	58.304	-143.132	-140.435	-140.572	-135.175	62.320	-136.844	-8191	255	
7146.789	1	1	0	0	0.17899	0.14112	0.25698	0.09204	0.176	0.24209	0.32429	0.099833	0.091849	0.28626	0.1222	0.30336	0.10268	0.1789	0.20059	0.32917	-2.8542	-3.1292	-3.1271	-3.2333	-3.1125	-2.9688	-3.1729	-2.6208	-3.2146	-3.2583	-2.9667	-3.325	-3.2417	-3.05	-3.1937	-3.0812	114.522	9.613	-124.871	-49.865	180.336	-73.069	58.926	-29.061	-0.373	-158.958	168.778	170.326	130.298	-104.626	-159.751	63.039	0.0021884	0.0015251	0.00040145	398.08	2.022e-05	5.3608e-06	629.25	171.81	2.1272e-05	1.2905e-05	307.7	155.12	79.428	36.1	1.9365e-06	85.943	0.0048992	0.0047123	0.0012449	596.53	5.4741e-05	5.0712e-05	816.5	248.46	5.3979e-05	4.9855e-05	397.94	188.8	114.72	46.554	4.616e-05	100.75	98.009	-43.136	-19.029	-148.075	-99.197	-31.506	-148.006	-143.189	-2.076	-0.408	-143.498	-140.525	-139.806	-134.735	31.995	-136.694	-8191	255	
7146.885	1	1	0	0	0.12145	0.077448	0.34432	0.25133	0.24099	0.12418	0.094049	0.29406	0.054772	0.14047	0.17457	0.067699	0.18099	0.3002	0.085301	0.30886	-2.8354	-3.1813	-2.8042	-3.1042	-2.9854	-3.1021	-3.4833	-2.95	-3.1333	-3.3958	-3.0042	-3.2021	-2.9354	-3.0479	-3.2354	-3.0458	112.083	-83.507	162.644	-149.835	-27.478	-92.744	-128.642	152.604	10.348	50.413	140.113	-89.853	38.531	-106.916	65.210	132.949	0.0023508	0.00059033	0.00031212	396.55	1.9171e-05	1.462e-05	625.53	173.12	1.088e-05	1.0492e-05	306.85	155.38	80.011	36.019	1.3771e-05	85.84	0.0047811	0.0044859	0.0012067	607.31	5.3265e-05	4.9265e-05	810.34	253.74	5.303e-05	4.8886e-05	397.84	191.78	114.58	46.499	4.6796e-05	101.93	99.071	-122.718	-101.495	-148.629	23.697	-61.080	-148.303	-143.106	-91.829	6.206	-143.730	-140.504	-139.759	-134.790	-147.828	-136.884	-8191	255	
7147.006	1	1	0	0	0.10357	0.0081123	0.25903	0.21895	0.16284	0.14772	0.11026	0.15158	0.071351	0.065435	0.059174	0.081202	0.10659	0.073766	0.11133	0.20153	-2.875	-3.2458	-2.7938	-3.4437	-3.1375	-2.8854	-3.5875	-3.1458	-2.975	-3.3354	-2.9396	-3.1083	-3.1688	-3.1167	-3.1437	-3.3167	174.402	-14.782	172.994	126.646	-107.777	-98.502	171.415	70.820	111.148	-95.778	8.217	156.428	190.880	123.089	-119.624	194.548	0.001827	0.0020057	0.00037038	400.28	6.8757e-06	2.0412e-05	628.39	173.57	3.0644e-05	2.2355e-05	309.17	155.26	79.805	36.004	1.7625e-05	85.895	0.0046961	0.004454	0.0012297	627.02	5.2695e-05	4.9269e-05	820.46	260.24	5.2199e-05	4.8859e-05	402.77	194.41	112.95	46.364	4.9112e-05	102.42	121.130	-25.800	185.148	-148.521	9.962	10.666	-148.136	-143.353	-0.914	-14.434	-143.494	-140.022	-140.317	-135.155	-142.041	-136.597	-8191	255	
7147.102	1	1	0	0	0.05051	0.082381	0.18695	0.22722	0.29476	0.068797	0.24397	0.21782	0.12257	0.14631	0.31442	0.30532	0.2015	0.2332	0.23578	0.12325	-2.8688	-3.4104	-2.9521	-3.1208	-3.1292	-3.1	-3.3479	-3.0083	-3.0542	-3.2625	-3.2042	-3.3958	-3.4271	-3.0271	-3.2396	-3.0875	7.770	73.002	-53.489	123.224	49.397	-140.875	-103.683	166.450	109.373	-33.849	125.674	169.993	153.565	29.392	91.722	165.240	0.0021261	0.001289	0.00035738	399.01	1.1227e-05	8.0972e-06	632.4	174.12	2.3122e-05	1.6459e-05	306.37	155.04	79.243	35.955	1.6881e-05	85.331	0.0045835	0.0043921	0.001305	634.52	5.095e-05	4.8522e-05	833.99	260.51	5.0042e-05	4.7109e-05	406.88	192.94	110.91	45.692	5.1095e-05	101.45	108.724	-72.174	169.680	-147.593	66.116	-59.378	-148.211	-143.118	-31.103	-21.336	-143.668	-140.010	-139.901	-134.769	-122.568	-136.829	-8191	255	
7147.198	1	1	0	0	0.23059	0.14348	0.093921	0.012991	0.10488	0.24793	0.070999	0.12204	0.19929	0.13603	0.092236	0.19049	0.19024	0.21601	0.049804	0.18633	-2.7708	-3.4	-2.8729	-3.1646	-3.3375	-2.8396	-3.2083	-3.2167	-2.7667	-3.3312	-3.0375	-3.0083	-3.2979	-2.8042	-3.2562	-3.2188	143.084	-135.967	84.712	-153.412	-147.594	184.533	129.260	192.920	-94.027	72.846	189.581	135.071	-160.401	179.809	-86.055	150.159	0.002242	0.0010385	0.00064052	398.07	1.1196e-05	1.0398e-05	624.08	172.05	2.3087e-05	7.4964e-06	306.59	154.05	79.095	35.739	3.099e-05	85.619	0.0043378	0.0041976	0.0013465	619.27	4.7958e-05	4.632e-05	837.33	253.88	4.7849e-05	4.5918e-05	409.6	190.45	109.74	45.649	5.3362e-05	100.8	107.610	-49.917	169.044	-147.314	26.555	4.809	-148.251	-142.916	-54.473	-18.990	-143.356	-140.029	-140.060	-135.045	-138.394	-136.791	-8191	255	
7147.294	1	1	0	0	0.24979	0.13947	0.1896	0.22822	0.10468	0.089213	0.16833	0.14683	0.20906	0.2293	0.18855	0.10555	0.042789	0.072485	0.19257	0.21037	-2.2354	-3.2979	-2.925	-2.9833	-2.9729	-2.9771	-3.3292	-3.0833	-2.8604	-3.3271	-3.2479	-3.1104	-3.4667	-2.8583	-3.2188	-3.2708	195.120	123.303	-103.331	45.525	-76.418	-27.076	4.889	7.371	16.876	180.014	163.726	-87.652	165.204	-24.035	-11.068	140.630	0.0016273	0.0019205	0.00010754	400.21	2.5159e-05	1.3543e-05	626.85	172.07	1.9124e-05	1.311e-05	308.6	154.89	79.46	36.001	2.0211e-05	86.109	0.0042009	0.0041817	0.0013877	608.88	4.6462e-05	4.6875e-05	845.16	250.17	4.6305e-05	4.7037e-05	413.37	189.43	108.93	46.343	5.4359e-05	100.34	94.695	197.112	-142.306	-147.356	27.125	-73.121	-148.023	-142.746	47.236	-106.615	-143.356	-139.814	-140.024	-135.158	-120.835	-136.358	-8191	255	
7147.415	1	1	0	0	0.18924	0.20061	0.051904	0.14131	0.13136	0.40112	0.11086	0.043379	0.13459	0.064997	0.039364	0.1072	0.08511	0.31305	0.18835	0.23705	-2.4479	-3.2854	-2.9813	-3	-3.3146	-2.6125	-3.3354	-3.175	-2.9	-3.3646	-3.1729	-3.0917	-3.1937	-3.0083	-3.1688	-3.4771	134.000	33.333	199.124	-159.300	-7.618	183.430	105.364	-81.936	95.092	24.286	85.534	-160.257	-74.339	179.893	172.799	133.712	0.0021099	0.0012459	0.00050372	401.55	1.1511e-05	2.0715e-05	625.39	173.94	2.8284e-05	1.7148e-05	309.27	155.65	79.666	36.212	1.5415e-05	85.986	0.0040986	0.0044142	0.0013981	600.92	4.5076e-05	4.9472e-05	842.32	247.21	4.4896e-05	4.962e-05	410.38	188.6	108.4	47.009	5.2357e-05	99.711	99.799	134.325	-143.514	-147.297	20.950	-144.750	-147.884	-142.649	-21.088	-131.905	-143.550	-140.144	-140.276	-135.198	23.330	-136.442	-8191	255	
7147.487	1	1	0	0	0.14762	0.1292	0.12356	0.29995	0.091626	0.14267	0.05313	0.18167	0.25253	0.078121	0.13737	0.36889	0.30941	0.29359	0.078069	0.2065	-2.4542	-3.1896	-3.0938	-3.0604	-3.4208	-2.9479	-3.3021	-3.4396	-2.8125	-3.25	-3.0187	-3.1667	-3.3146	-2.8604	-3.2104	-3.4458	-88.265	-157.603	-142.544	-121.581	174.921	89.873	-159.471	87.277	179.859	198.747	-85.400	162.566	193.485	189.439	-152.883	113.522	0.0022034	0.00098576	0.00033396	396.29	8.0643e-06	1.3703e-05	626.91	173.41	5.5838e-06	1.4495e-05	309.26	156.09	80.26	36.31	1.783e-05	85.861	0.0039562	0.0045811	0.0013154	590.03	4.3821e-05	5.1497e-05	833.75	245.43	4.4682e-05	5.2469e-05	407.25	188.03	109.25	47.772	5.0831e-05	99.371	98.782	175.801	-48.020	-147.417	21.431	-107.979	-147.953	-142.319	-30.659	-142.226	-143.396	-140.137	-140.302	-135.246	-49.070	-136.390	-8191	255	
7147.583	1	1	0	0	0.15113	0.08718	0.11594	0.12311	0.093975	0.10939	0.13312	0.22421	0.15044	0.13099	0.32234	0.14268	0.15209	0.070914	0.14701	0.2102	-2.5833	-3.1167	-2.9354	-3.0208	-3.2938	-3.1729	-3.2146	-3.0563	-2.7667	-3.3146	-3.1813	-2.7938	-3.175	-3.1667	-2.975	-3.4542	-0.296	134.966	168.639	100.535	-15.966	22.599	104.904	109.167	152.537	-30.088	150.096	161.496	-113.569	0.591	6.084	127.477	0.0023696	0.00068513	0.00035564	397.84	1.6642e-05	6.01e-06	630.92	172.99	3.7315e-05	8.6244e-06	308.85	156.15	79.811	36.565	5.5436e-06	86.433	0.0040979	0.00487	0.0012853	589.34	4.5809e-05	5.3456e-05	827.44	243.93	4.7166e-05	5.4396e-05	404.65	188.06	111.84	48.403	5.0401e-05	99.958	93.012	-137.790	-59.701	-147.463	-156.866	138.752	-148.100	-142.810	-145.600	-31.069	-143.412	-140.182	-140.253	-135.101	46.011	-136.705	-8191	255	
7147.679	1	1	0	0	0.19696	0.12376	0.058751	0.13016	0.11713	0.16679	0.097131	0.092918	0.085321	0.20999	0.16875	0.12926	0.02935	0.038145	0.17323	0.44208	-2.3771	-3.0458	-3.0062	-2.9437	-3.3875	-3.1792	-3.125	-3.2021	-2.8563	-3.3104	-3.5375	-2.775	-3.4021	-3.2229	-2.9792	-3.475	156.054	16.601	105.241	95.628	117.547	109.249	15.364	172.031	35.584	31.070	163.830	188.707	93.359	-110.460	60.259	112.935	0.002727	0.001916	0.00027159	402.87	2.9372e-05	6.1286e-06	630.06	173.55	2.3714e-05	2.6627e-05	311.16	156.71	80.367	36.934	1.3992e-05	86.748	0.0044798	0.0050683	0.0012869	594.9	5.0629e-05	5.5232e-05	831.85	246.44	5.2108e-05	5.4945e-05	407.31	189.4	115.34	48.565	5.0473e-05	100.53	86.314	-64.153	-3.466	-147.457	-126.170	70.884	-147.882	-142.982	-159.216	36.320	-143.374	-140.276	-140.251	-134.713	-38.336	-136.750	-8191	255	
7147.798	1	1	0	0	0.26048	0.14834	0.20331	0.14709	0.10529	0.2144	0.084281	0.094914	0.13756	0.15535	0.055769	0.33914	0.24789	0.34377	0.26737	0.15263	-2.4062	-3.2083	-3.2812	-2.7729	-3	-3.0042	-3.1979	-3.4729	-2.9896	-3.1562	-3.2521	-3.0958	-3.2771	-3.2896	-3.0521	-3.3958	77.094	16.874	129.598	-94.079	104.806	-2.791	105.122	28.789	-97.889	84.758	-122.545	153.743	195.771	145.641	75.314	177.874	0.0030919	0.001086	0.00026247	401.36	2.4652e-05	1.6661e-05	635.02	174.49	2.1209e-05	9.7682e-06	309.89	157.7	80.741	36.733	2.1623e-05	86.753	0.0048307	0.0050071	0.0012844	599.15	5.4933e-05	5.4137e-05	832.68	248.72	5.507e-05	5.3531e-05	404	190.63	116.91	47.944	4.8871e-05	100.67	91.029	-55.261	-63.776	-147.614	-149.051	48.384	-147.920	-143.071	183.381	78.222	-143.409	-140.252	-140.340	-135.023	24.159	-136.743	-8191	255	
7147.894	1	1	0	0	0.2685	0.11026	0.22713	0.099218	0.32687	0.037134	0.20401	0.30634	0.09225	0.16973	0.11352	0.14651	0.074625	0.26055	0.16798	0.23348	-2.4896	-3.0271	-3.3688	-3.0875	-3.1458	-3.1312	-2.8063	-3.3063	-3.1833	-3.0875	-3.4354	-3.0167	-3.2104	-3.3479	-2.7729	-3.3958	145.095	-23.160	173.225	-37.475	183.377	63.163	-133.736	180.638	-69.831	-41.594	18.531	39.832	-7.368	185.869	-42.864	168.242	0.0024075	0.0013311	0.00043221	400.25	1.1063e-05	6.8157e-06	631.28	175.6	2.1484e-05	5.4699e-06	309.16	155.76	80.929	36.648	3.64e-06	86.671	0.004908	0.0047264	0.0012209	602.71	5.4979e-05	5.0716e-05	822.8	250.88	5.4699e-05	5.0567e-05	400.03	191.52	116.09	47.161	4.74e-05	101.42	83.886	-35.734	-23.963	-148.088	-128.844	-12.870	-147.984	-143.526	-59.264	83.548	-143.658	-140.353	-139.925	-135.022	75.968	-136.577	-8191	255	
7147.990	1	1	0	0	0.19965	0.025378	0.15702	0.11371	0.041316	0.055831	0.37161	0.33005	0.16067	0.12093	0.27951	0.27731	0.087466	0.10925	0.037549	0.11943	-2.725	-2.9375	-3.1375	-2.9375	-3	-3.2021	-2.7896	-3.0729	-3.15	-3.1729	-3.2521	-2.7729	-3.1854	-3.2979	-2.8771	-3.4167	-114.042	-154.769	-65.364	130.618	123.253	121.229	55.279	-55.590	-91.029	-61.662	172.379	-135.550	85.933	-81.808	83.139	60.312	0.0019724	0.0015068	0.00019981	398.15	2.1334e-05	3.3397e-06	630.34	174.54	2.2103e-05	1.6462e-05	309.56	156.82	81.142	36.871	1.1953e-05	87.045	0.0047837	0.0045472	0.0011896	613.22	5.3536e-05	4.8785e-05	815.64	254.81	5.2379e-05	4.8693e-05	397.82	193.3	114.94	47.009	4.7001e-05	102.62	104.109	-19.784	138.532	-147.630	40.604	53.071	-148.138	-143.297	39.160	7.925	-143.642	-140.296	-139.847	-134.912	-138.761	-136.605	-8191	255	
7148.086	1	1	0	0	0.16777	0.15958	0.33163	0.056143	0.011242	0.16985	0.18921	0.056249	0.12883	0.16708	0.28253	0.38299	0.28596	0.17914	0.1679	0.36333	-2.6896	-2.9229	-3.2917	-2.8625	-3.1229	-3.3458	-2.8917	-3.2104	-2.9292	-3.0083	-3.2604	-2.9208	-3.1437	-3.4021	-2.8771	-3.3833	162.509	-127.086	159.913	113.475	-68.776	93.527	-140.517	104.123	-141.599	-9.683	-157.533	135.714	70.500	-152.384	-1.838	142.753	0.0017743	0.0007225	0.00022876	400.64	3.4843e-05	2.499e-05	632.25	175.65	2.4431e-05	2.531e-05	310.15	158.32	81.192	36.921	1.5185e-05	86.977	0.0046161	0.004461	0.0012079	624.99	5.1884e-05	4.8148e-05	823.1	260.34	5.1163e-05	4.8711e-05	403.7	196.57	114.52	47.126	4.9868e-05	103.41	106.839	-42.876	143.209	-147.705	12.420	36.420	-147.821	-142.828	-25.992	41.024	-143.509	-140.162	-140.042	-134.725	-121.052	-136.678	-8191	255	
7148.183	1	1	0	0	0.041634	0.085036	0.15572	0.023479	0.14529	0.25291	0.13601	0.065318	0.066019	0.1391	0.11737	0.36916	0.025836	0.35679	0.1561	0.37111	-2.8229	-2.7042	-3.2875	-3.0729	-3.0729	-3.1583	-3.0687	-3.175	-3.2417	-2.7854	-3.3333	-3.1688	-2.9771	-3.4146	-3.0042	-3.35	14.154	-2.211	23.668	-28.240	178.241	-60.795	-120.742	158.807	-4.666	56.085	139.786	177.970	48.554	150.543	75.906	154.189	0.0015663	0.0018062	0.00071447	400.21	1.3061e-05	2.247e-05	632.2	176.45	3.6822e-05	1.9226e-05	310.85	158.16	80.825	36.849	3.6295e-05	86.763	0.0045132	0.0044217	0.001296	633.55	5.1123e-05	4.7818e-05	842.37	263.5	5.0239e-05	4.8719e-05	412.51	196.96	113.86	46.896	5.3853e-05	103.26	109.094	3.286	144.021	-147.907	-34.320	33.584	-148.170	-142.675	-14.760	5.201	-143.539	-139.960	-140.244	-134.896	-126.908	-136.497	-8191	255	
7148.279	1	1	0	0	0.15848	0.10291	0.2248	0.099745	0.28729	0.16549	0.33953	0.31436	0.18667	0.088921	0.15256	0.25942	0.097003	0.095565	0.22776	0.25177	-2.6417	-2.9	-3.1063	-3.1208	-2.8375	-3.3333	-2.9771	-3.0104	-3.375	-2.7583	-3.2167	-3.2083	-2.8125	-3.2917	-2.9917	-3.2792	-136.885	55.987	-30.112	-65.547	51.070	-86.929	63.700	141.942	-141.184	-104.835	105.203	185.824	163.608	139.517	-141.154	180.187	0.0025056	0.00052646	0.00024797	400.01	6.0707e-06	9.4702e-06	633.91	175.11	1.385e-05	1.2907e-05	310.33	157.67	80.462	36.718	6.0537e-06	86.193	0.0044471	0.0044143	0.0013927	628.6	5.0105e-05	4.7601e-05	853.79	259.75	4.8756e-05	4.8134e-05	416.61	194.19	112.11	46.674	5.5e-05	101.72	87.162	-14.338	-121.601	-147.402	-129.207	-22.904	-147.895	-142.828	-50.755	-97.640	-143.744	-139.913	-140.230	-134.676	125.687	-136.460	-8191	255	
7148.375	1	1	0	0	0.38699	0.12809	0.13523	0.19272	0.089666	0.11844	0.2943	0.28288	0.15575	0.22354	0.20664	0.20583	0.16539	0.16572	0.15518	0.17491	-2.9354	-3.0625	-3.0604	-3.2938	-2.8333	-3.2708	-3.1021	-3.0521	-3.3438	-2.6562	-3.3167	-3.4083	-3.1208	-3.2792	-2.7938	-3.2292	-135.869	123.015	95.235	170.242	-51.994	154.940	147.157	128.275	-157.271	15.340	160.143	168.144	-103.393	119.333	66.005	151.049	0.0023452	0.0020655	0.00040217	398.35	1.6706e-05	2.1509e-05	631.13	175.56	6.3673e-06	2.3881e-05	310.51	156.84	80.608	36.696	1.755e-05	86.521	0.0042189	0.0043684	0.0014134	610.79	4.781e-05	4.7796e-05	854.27	254.15	4.645e-05	4.886e-05	417.65	191.51	110.88	47.094	5.5152e-05	101.31	113.716	194.868	191.819	-147.567	-15.549	-85.811	-148.001	-142.486	73.489	-126.576	-143.503	-140.155	-140.262	-135.428	-36.246	-136.862	-8191	255	
7148.495	1	1	0	0	0.28995	0.23176	0.084286	0.097255	0.27446	0.17587	0.15746	0.24528	0.2176	0.076838	0.10471	0.11963	0.24298	0.25289	0.16709	0.17928	-3.0667	-2.9375	-3.1521	-3.2042	-2.8521	-3.3583	-3.1104	-3.1	-3.3229	-2.8354	-3.3708	-3.475	-2.7646	-3.375	-3.1917	-2.9792	186.339	116.916	-138.481	-63.545	174.299	-142.902	61.038	165.680	-94.318	155.373	-16.571	64.240	20.028	141.738	-85.735	-17.213	0.0019591	0.0021337	0.00025445	397.93	3.3015e-06	2.2617e-05	628.21	174.33	7.3267e-06	1.2093e-05	312.6	156.33	80.748	36.767	8.7765e-06	86.676	0.0040991	0.0045806	0.0014142	602.48	4.6504e-05	5.0122e-05	847.52	250.52	4.5122e-05	5.1469e-05	415.96	190.2	110.3	47.803	5.3615e-05	101.16	108.847	160.947	37.063	-147.538	175.958	-103.370	-147.832	-142.803	185.784	189.250	-143.261	-140.097	-140.516	-135.037	4.038	-136.635	-8191	255	
7148.590	1	1	0	0	0.14374	0.063158	0.050122	0.076695	0.27152	0.21013	0.14229	0.12308	0.079817	0.15571	0.09241	0.13485	0.24949	0.13616	0.34596	0.25364	-2.9354	-2.9042	-2.9875	-3.2604	-2.7604	-3.2417	-3.2458	-3.0271	-3.2542	-2.8021	-3.2896	-3.5083	-2.8271	-3.2667	-3.2083	-2.9688	-20.583	116.273	-109.940	198.874	133.156	151.763	186.934	44.959	-139.388	-117.788	52.954	134.445	58.045	198.613	-141.978	157.154	0.0021021	0.0011355	0.00036916	399.91	2.5205e-05	3.769e-06	634.01	175.7	1.4509e-05	1.4198e-05	313.06	156.85	80.535	36.787	1.2208e-05	86.349	0.0040508	0.0048952	0.0013905	599.2	4.7052e-05	5.4215e-05	846.63	251.25	4.6328e-05	5.514e-05	413.92	189.83	111.47	48.538	5.2939e-05	100.87	93.211	123.163	-30.206	-147.343	-150.628	187.295	-147.938	-143.033	-139.630	-117.230	-143.394	-140.361	-140.395	-135.121	32.719	-136.657	-8191	255	
7148.688	1	1	0	0	0.15449	0.17846	0.26832	0.2735	0.25884	0.098145	0.16917	0.077341	0.18667	0.36819	0.018797	0.18161	0.080755	0.32234	0.15506	0.10208	-2.9688	-2.8354	-2.9458	-3.3896	-2.9938	-3.3229	-3.0979	-3.1	-3.1813	-2.9813	-3.2	-3.4062	-2.8187	-3.2354	-3.3083	-3.0354	23.276	-34.693	-106.052	138.232	100.649	99.153	-20.427	-89.507	13.266	-147.805	175.670	-66.409	189.234	180.904	48.651	101.640	0.002468	0.00082221	0.00065304	401.35	1.7075e-05	5.4279e-06	631.48	174.64	2.2014e-05	1.2163e-05	310.96	156.59	80.413	36.603	6.8766e-06	86.341	0.0043006	0.0051943	0.0013677	601.16	4.9868e-05	5.7043e-05	843.06	251.5	4.9854e-05	5.7347e-05	411.95	190.16	114.21	48.987	5.1878e-05	100.87	88.431	197.839	-30.273	-147.350	-78.345	111.147	-148.060	-142.825	188.760	-18.272	-143.499	-140.048	-140.147	-134.833	-96.544	-136.747	-8191	255	
7148.782	1	1	0	0	0.06743	0.043127	0.28319	0.18682	0.063009	0.24521	0.047007	0.16456	0.15537	0.063836	0.1728	0.19455	0.22307	0.12832	0.14259	0.30212	-2.7396	-3.0708	-3.0187	-3.125	-2.8708	-2.9833	-3.2229	-2.9104	-3.05	-3.1396	-2.8646	-3.5375	-3.0375	-2.9479	-3.0979	-3.1875	0.347	-24.442	197.885	38.264	-145.725	13.160	189.159	8.527	147.279	184.643	174.319	174.762	179.734	153.514	-15.531	132.586	0.0023803	0.001431	0.00023028	400.98	2.9412e-05	6.457e-06	631.28	174.23	2.8304e-05	1.8282e-05	311.48	157.92	80.815	36.978	3.5058e-06	86.975	0.0046419	0.0052168	0.0013493	599.22	5.3582e-05	5.6925e-05	838.01	250.29	5.3948e-05	5.648e-05	411	191.06	117.35	49.029	5.1418e-05	101.43	81.267	-37.809	-28.690	-147.828	-130.662	12.566	-148.139	-143.152	188.770	-7.578	-143.536	-140.095	-140.369	-134.814	22.068	-136.728	-8191	255	
7148.878	1	1	0	0	0.098066	0.15162	0.11424	0.29498	0.072493	0.088432	0.12525	0.16736	0.093172	0.067286	0.31369	0.16636	0.12368	0.16843	0.14642	0.20069	-2.7854	-2.9229	-2.8396	-3.1208	-3.0042	-3.0979	-3.1271	-2.8979	-3.4	-2.9854	-3.0187	-3.4125	-2.8479	-3.1958	-3.2042	-3.0771	-119.720	167.609	65.481	-77.638	163.127	-40.216	4.047	-13.169	-84.064	-122.147	188.467	103.304	-134.652	145.223	150.286	190.339	0.002782	0.0023701	0.0003798	399.73	3.4019e-06	2.9089e-05	633.85	176.06	2.2751e-05	2.0687e-05	312.21	159.24	81.666	37.128	1.5081e-05	87.021	0.0050067	0.0051327	0.0013486	605.76	5.8043e-05	5.662e-05	841.4	254.71	5.8047e-05	5.598e-05	413.76	194.48	120.46	49.116	5.2018e-05	102.72	91.444	-51.488	-28.608	-148.129	-141.599	18.692	-148.081	-143.351	-127.777	-1.007	-143.463	-140.298	-140.561	-134.879	166.256	-136.924	-8191	255	
7148.974	1	1	0	0	0.13542	0.21047	0.13281	0.14867	0.070359	0.17217	0.18084	0.32997	0.37528	0.065874	0.15274	0.32136	0.11552	0.11441	0.13122	0.31128	-2.8542	-3.1354	-2.8187	-3.3604	-2.9437	-2.9604	-3.4271	-2.8521	-3.1458	-3.0125	-3.025	-3.575	-3.0875	-2.9708	-3.2917	-3.1604	-100.509	2.744	-54.585	11.570	137.297	-154.911	104.179	-157.348	183.827	-54.973	121.665	146.496	-13.331	179.072	57.649	123.942	0.0025088	0.0012481	0.00024584	401.83	1.3597e-05	3.5082e-05	638.21	175.42	9.6596e-06	2.2065e-06	313.56	159.54	82.026	37.174	1.2058e-05	87.021	0.0053265	0.0051034	0.00137	627.78	6.1426e-05	5.6955e-05	850.61	264.85	6.1845e-05	5.7189e-05	418.72	200.37	123.01	49.484	5.3441e-05	104.61	104.505	-97.998	-144.432	-148.333	-0.858	7.582	-148.121	-143.779	-20.671	2.726	-143.523	-140.641	-140.060	-135.130	-6.079	-136.912	-8191	255	
7149.095	1	1	0	0	0.14358	0.11097	0.22202	0.23365	0.14899	0.055756	0.23286	0.27144	0.095317	0.13729	0.23402	0.27901	0.086989	0.22021	0.29932	0.31401	-2.7438	-3.0958	-2.7771	-3.3792	-3.2854	-3.1167	-3.1458	-2.8187	-2.95	-3.3833	-3.025	-3.1937	-3.0333	-3.1833	-3.2938	-3.25	-108.012	-86.957	87.795	198.128	-128.474	167.373	169.230	155.673	-89.083	-50.469	-149.982	136.891	175.445	152.775	134.850	106.963	0.0026608	0.0021665	0.00016908	400.4	3.2941e-05	7.2283e-06	640.78	175.45	3.427e-05	1.6652e-05	315.23	160.42	81.952	37.503	3.0297e-06	87.438	0.0055015	0.0052045	0.0014095	653.62	6.2121e-05	5.789e-05	857.85	273.68	6.1803e-05	5.7231e-05	421.06	204.53	122.13	49.764	5.4808e-05	106.32	103.914	-44.739	-107.683	-147.700	46.132	117.147	-148.171	-143.449	-9.304	17.081	-143.511	-140.424	-140.126	-134.978	-116.477	-136.935	-8191	255	
7149.191	1	1	0	0	0.21775	0.16504	0.11633	0.12401	0.045496	0.047297	0.13794	0.29556	0.22711	0.08111	0.013097	0.10259	0.073515	0.17001	0.30661	0.10155	-2.4229	-3.1958	-2.8479	-3.3708	-3.0208	-2.8438	-3.5521	-3.0896	-3.0375	-3.2792	-3.1604	-3.2854	-3.2792	-2.8104	-3.5583	-3.2479	60.893	-118.127	19.715	-50.101	-50.538	59.015	163.009	76.237	68.002	160.032	-101.918	79.311	91.187	145.457	165.990	97.250	0.002263	0.00070084	0.00023436	405.19	2.1392e-05	2.8029e-05	643.24	176.61	1.3638e-06	8.4855e-06	314.59	161.06	82.071	37.637	2.4119e-05	87.747	0.0053755	0.0051293	0.0014384	666.35	5.9627e-05	5.6635e-05	865.08	277.55	5.9299e-05	5.5713e-05	425.58	206.8	120.81	49.666	5.7728e-05	107.25	99.733	-4.119	161.791	-148.340	-15.898	26.195	-147.907	-143.368	130.044	-47.256	-143.720	-140.367	-140.166	-135.232	188.044	-136.883	-8191	255	
7149.287	1	1	0	0	0.073314	0.23545	0.15311	0.25916	0.13742	0.28076	0.13221	0.19652	0.092659	0.13985	0.24481	0.2177	0.2772	0.20299	0.24382	0.48239	-2.7271	-3.2396	-3.0458	-3.3063	-3.0167	-2.75	-3.3937	-3.05	-2.9917	-3.2625	-3.1354	-3.5042	-3.1875	-2.8187	-3.525	-3.275	71.756	-124.709	100.271	68.860	-75.255	25.745	33.554	93.242	-14.477	99.836	148.553	180.375	194.890	147.443	118.826	110.917	0.0020052	0.0012787	0.0007791	402.04	2.3916e-05	1.7714e-05	640.92	176.01	1.7478e-05	1.9842e-05	316.52	162.09	82.823	37.821	3.7792e-05	87.905	0.0052455	0.0050471	0.0015264	673.23	5.8042e-05	5.5849e-05	881.63	278.6	5.8133e-05	5.5371e-05	436.97	207.95	121.24	49.894	6.3497e-05	107.54	114.456	-119.425	180.744	-147.853	33.930	-68.260	-148.270	-142.872	-11.488	1.611	-143.955	-140.397	-140.243	-135.390	-132.619	-136.838	-8191	255	
7149.359	1	1	0	0	0.051624	0.078056	0.34885	0.03886	0.11824	0.25189	0.18659	0.26589	0.16256	0.18711	0.10312	0.191	0.2159	0.14405	0.16962	0.25859	-2.5	-3.375	-2.9021	-3.1104	-3.1875	-2.9604	-3.2687	-3.1104	-3.025	-3.2729	-3	-3.3625	-3.3625	-3.025	-3.2125	-3.3479	-20.788	158.089	58.566	130.042	-113.628	-133.339	82.073	160.292	91.615	132.564	138.185	188.165	162.749	146.403	131.358	11.170	0.0019765	0.00070565	9.1664e-05	405.67	1.8179e-05	2.0415e-06	643.03	177.05	7.8181e-06	3.2501e-06	314.57	162.25	82.208	37.594	1.3494e-05	87.266	0.0052819	0.0051409	0.0016719	671.96	5.8147e-05	5.6841e-05	905.21	277.3	5.8589e-05	5.6928e-05	445.05	207	120.38	50.13	6.6952e-05	106.26	96.400	20.048	185.851	-147.191	23.411	-79.607	-148.309	-142.986	-10.343	154.504	-143.549	-140.154	-140.479	-135.434	175.329	-137.024	-8191	255	
7149.455	1	1	0	0	0.12426	0.04852	0.13434	0.18747	0.15697	0.065335	0.2556	0.27131	0.2455	0.13156	0.13573	0.16195	0.048705	0.1304	0.31867	0.56287	-2.6625	-3.1292	-2.8479	-3.1688	-3.3167	-2.875	-3.5271	-3.3729	-2.7917	-3.3438	-3.0896	-3.1646	-3.3375	-2.9542	-3.2646	-3.0917	168.708	181.655	79.774	-115.574	155.884	157.870	110.815	122.355	-90.089	-134.402	-156.831	-144.903	162.817	182.066	-107.960	148.885	0.0020068	0.0011211	0.00024722	404.9	2.1067e-05	2.5614e-06	640.43	177.27	2.1845e-05	2.7893e-05	317.36	162.53	83.082	37.77	2.2982e-05	87.238	0.0052	0.005283	0.001746	664.08	5.7219e-05	5.9895e-05	916.68	273.65	5.7413e-05	5.9407e-05	448.5	205.19	119.45	50.908	6.7473e-05	105.49	102.448	159.919	-149.098	-147.005	43.521	-67.562	-148.231	-142.612	0.031	-153.086	-143.868	-140.510	-140.356	-135.575	-47.079	-137.012	-8191	255	
7149.576	1	1	0	0	0.18556	0.10461	0.2393	0.1421	0.26979	0.13985	0.20922	0.3399	0.089203	0.21684	0.20806	0.097424	0.099189	0.25731	0.20331	0.06042	-2.6479	-3.3104	-3.175	-3.1	-3.3417	-3.0187	-3.3271	-3.2833	-2.8937	-3.4417	-3.0208	-3.0729	-3.2604	-3.0875	-3.1604	-3.2687	-146.516	-104.513	-59.639	186.516	87.473	-37.793	102.863	41.790	118.189	101.363	-139.374	112.213	71.066	127.993	-18.309	-83.151	0.0018233	0.0019722	0.00021131	402.14	2.661e-06	3.3126e-05	642.33	177.38	1.7339e-05	1.855e-05	317.74	163.11	83.607	37.831	1.6257e-05	87.721	0.0050657	0.0056302	0.0017381	655.64	5.6292e-05	6.3267e-05	914.18	271.28	5.6599e-05	6.4166e-05	445.91	205.01	119.7	51.939	6.6031e-05	105.54	98.128	128.316	1.946	-147.681	-54.524	-85.354	-147.811	-142.891	-62.559	-150.486	-143.806	-140.450	-140.535	-135.436	115.323	-136.844	-8191	255	
7149.670	1	1	0	0	0.24426	0.18217	0.26598	0.12181	0.023415	0.12358	0.24439	0.12944	0.086283	0.056905	0.24055	0.28889	0.12433	0.11451	0.08168	0.17253	-2.4833	-3.3812	-2.9167	-3.0563	-3.4417	-2.7646	-3.3958	-3.3	-2.9604	-3.3771	-3.2167	-2.9521	-3.3	-3.1708	-3.1167	-3.4	-48.161	70.043	32.827	-157.830	149.145	189.103	121.052	-63.369	189.758	0.075	149.299	-159.355	-34.174	-99.116	-88.223	182.377	0.0021083	0.0010431	0.00034718	404.42	8.6811e-06	2.226e-05	641.92	178.07	1.9926e-05	1.4096e-05	318.22	162.4	82.549	37.646	1.4721e-05	87.552	0.0050911	0.0060539	0.0016985	653.47	5.709e-05	6.7367e-05	907.14	270.54	5.8083e-05	6.7983e-05	443.01	204.61	121.17	52.642	6.4553e-05	105.24	108.099	170.945	-62.204	-147.427	121.041	-150.172	-148.059	-142.944	-155.576	-134.858	-143.090	-140.219	-140.603	-135.311	-12.104	-136.886	-8191	255	
7149.768	1	1	0	0	0.19594	0.12078	0.076522	0.26109	0.12637	0.15719	0.10242	0.40592	0.20889	0.10566	0.15525	0.29756	0.14038	0.28349	0.069255	0.0908	-2.5854	-3.1542	-3.15	-2.9667	-3.1458	-3.1437	-3.0146	-3.2021	-3.1125	-3.1375	-3.1833	-3.0521	-3.3208	-3.3229	-2.975	-3.6417	-70.049	-154.888	77.620	107.428	14.859	181.853	192.698	174.678	139.475	184.638	181.164	-60.409	-102.919	141.179	192.003	-46.989	0.0021723	0.0015574	0.00074781	402.89	2.3017e-05	8.1307e-06	645.61	177.18	3.9304e-05	9.62e-06	316.67	163.57	82.92	37.939	1.2723e-05	87.627	0.0053686	0.0063497	0.0016527	651.68	6.1042e-05	7.0163e-05	902.83	269.39	6.2488e-05	7.0313e-05	439.34	204.93	124.47	52.884	6.3634e-05	105.04	92.511	196.796	-33.147	-147.658	-137.311	-79.151	-148.278	-143.481	-142.235	-14.570	-143.693	-140.679	-140.827	-135.499	-50.175	-137.036	-8191	255	
7149.887	1	1	0	0	0.3738	0.15205	0.097533	0.2547	0.20523	0.34898	0.17667	0.39273	0.10788	0.09789	0.33787	0.23913	0.13298	0.29152	0.11797	0.040082	-2.4938	-3.0583	-3.3021	-2.8396	-3.3396	-3.1917	-2.9938	-3.2583	-2.9062	-3.1167	-3.2438	-2.9938	-3.3292	-3.2021	-3.2396	-3.3708	-78.744	137.149	-140.309	-118.689	118.147	-98.567	-46.892	115.425	-21.090	165.410	171.668	164.141	166.858	108.875	-29.346	195.949	0.0030228	0.0020661	0.00014953	404.02	2.8932e-05	2.5528e-05	646.33	177.84	2.7537e-05	2.4205e-05	319.37	164.39	83.439	38.251	1.1445e-05	88.025	0.0057798	0.0063702	0.0016211	651.38	6.5826e-05	6.9292e-05	901.68	269.65	6.7403e-05	6.9346e-05	440.35	206.34	128.97	53.055	6.4149e-05	106.03	80.244	-61.446	44.942	-147.495	191.920	66.142	-148.146	-143.387	-148.120	-4.252	-143.676	-140.762	-140.617	-135.577	5.324	-137.129	-8191	255	
7149.959	1	1	0	0	0.16484	0.16565	0.15092	0.14622	0.09073	0.13798	0.184	0.19142	0.051072	0.16821	0.081788	0.32659	0.059834	0.20734	0.22734	0.23081	-2.5375	-3.0292	-3.2625	-3.0125	-3.0625	-3.1833	-2.9229	-3.3	-3.0708	-3.0687	-3.3417	-3.0958	-3.2771	-3.075	-2.9208	-3.3688	-58.480	-91.549	-151.947	59.504	-84.507	70.409	0.247	117.534	43.118	-22.124	25.128	-136.759	-48.601	-134.734	130.479	142.049	0.0029337	0.00075722	0.00049335	405.18	3.6343e-07	1.2569e-05	644.63	178.12	8.4774e-06	2.4537e-05	318.09	164.36	83.547	38.136	2.658e-05	87.73	0.0062876	0.0063697	0.0016482	667.32	7.1906e-05	6.9013e-05	908.26	277.03	7.228e-05	6.848e-05	440.3	208.87	131.24	52.416	6.3018e-05	106.95	89.580	-80.710	-43.533	-148.407	43.674	19.439	-148.025	-143.454	-46.141	-2.583	-143.909	-140.793	-140.567	-135.342	-0.862	-137.275	-8191	255	
7150.055	1	1	0	0	0.022654	0.11009	0.14277	0.19575	0.079051	0.15945	0.021245	0.19084	0.033341	0.1519	0.12757	0.29905	0.16804	0.37772	0.079258	0.11536	-2.4458	-2.9938	-3.1458	-3.0146	-3.1	-3.3521	-2.925	-3.3896	-2.9188	-2.9708	-3.3375	-3.1104	-3.2104	-3.1604	-2.9688	-3.1896	95.450	-47.845	1.874	174.430	-114.808	91.849	113.641	146.772	-3.129	-0.843	-123.623	184.755	153.345	131.574	154.523	170.203	0.0018695	0.00070415	0.00032782	400.26	1.8998e-05	1.7655e-05	645.38	177.39	2.1467e-05	2.8555e-05	321.42	163.26	83.458	37.957	7.8252e-06	87.918	0.0064156	0.0060953	0.0016014	678.76	7.2155e-05	6.6055e-05	897.01	281.45	7.0973e-05	6.5925e-05	436.71	211.26	130.11	51.767	6.1747e-05	108.06	96.415	-40.141	-51.005	-148.363	21.151	-44.324	-148.104	-143.716	124.313	-12.642	-143.775	-140.580	-140.536	-135.231	22.895	-137.276	-8191	255	
7150.175	1	1	0	0	0.090213	0.04833	0.26426	0.14785	0.14455	0.098434	0.17612	0.16954	0.093717	0.074158	0.067441	0.085999	0.20802	0.19456	0.135	0.23106	-2.5708	-2.875	-3.3333	-2.9125	-3.3542	-3.1979	-2.8438	-3.2125	-3.075	-2.9104	-3.2438	-3.2583	-3.175	-3.2479	-2.8563	-3.5312	-97.097	100.033	41.582	-136.918	-126.132	-25.189	-13.920	-126.978	-34.206	152.753	-24.583	122.753	36.546	-156.970	23.646	-144.075	0.0023854	0.0013813	0.00026429	400.14	2.059e-05	1.264e-05	642.91	178.54	2.151e-05	2.5045e-05	318.76	164.34	84.02	37.956	8.6126e-06	87.8	0.006217	0.0059362	0.0015725	692.99	6.958e-05	6.3915e-05	892.45	287.36	6.8274e-05	6.4094e-05	435.58	213.8	128.25	51.484	6.2495e-05	109.13	118.068	-107.127	-145.078	-148.162	91.185	-74.297	-148.079	-143.469	-20.666	34.014	-143.681	-140.651	-140.532	-135.271	182.618	-137.277	-8191	255	
7150.272	1	1	0	0	0.28989	0.18778	0.21689	0.13906	0.13768	0.09012	0.19414	0.037979	0.12677	0.079213	0.19749	0.10762	0.10573	0.21837	0.11843	0.37587	-2.4667	-2.7583	-3.3021	-3.1333	-2.9479	-3.1229	-2.8312	-3.1375	-3.1146	-2.6708	-3.3396	-3.0833	-3.2625	-3.2375	-2.8625	-3.2229	-87.033	37.154	178.167	108.502	-60.845	127.798	90.492	120.424	-7.981	49.580	-139.633	73.589	102.496	95.974	-91.123	132.138	0.0018411	0.0015675	0.00010377	403.69	2.2464e-05	2.8473e-05	648.08	176.68	3.943e-05	2.4165e-05	318.67	164.33	83.337	38.09	3.0686e-05	88.077	0.0059819	0.0058088	0.0016028	704.15	6.6549e-05	6.2055e-05	899.74	290.03	6.513e-05	6.2549e-05	442.04	214.65	126.52	51.219	6.5156e-05	109.76	104.506	-48.644	153.181	-147.817	-13.074	-4.045	-148.267	-143.310	20.922	31.388	-144.196	-140.479	-140.663	-135.569	-132.681	-137.030	-8191	255	
7150.368	1	1	0	0	0.16867	0.14924	0.15789	0.14738	0.22851	0.11469	0.052952	0.046808	0.33204	0.040456	0.087395	0.26411	0.28403	0.11895	0.045615	0.24585	-2.6688	-2.7542	-3.2917	-3.225	-2.9542	-3.1604	-2.9437	-3.2917	-3.1375	-2.8792	-3.4792	-3.1792	-3.0125	-3.4562	-3.0458	-3.0312	54.530	154.298	-33.618	177.017	89.750	-82.405	-125.441	-135.317	99.851	110.747	-148.059	184.519	175.317	-48.843	126.322	125.148	0.0023136	0.0017252	0.00051652	404.07	1.0208e-05	6.0472e-06	641.37	177.89	2.1343e-05	1.5064e-05	318.36	164.34	83.621	38.12	2.9985e-05	88.422	0.0057186	0.0056216	0.0016839	699.65	6.4036e-05	5.9865e-05	913.03	288.42	6.2619e-05	6.0879e-05	449.43	213.26	125.43	51.009	6.8813e-05	109.19	118.054	-78.143	165.173	-147.841	39.384	-30.450	-148.607	-142.797	-1.139	-54.222	-143.919	-140.350	-140.554	-135.565	187.292	-136.735	-8191	255	
7150.488	1	1	0	0	0.30117	0.1023	0.15226	0.16555	0.031885	0.15625	0.09858	0.079175	0.22609	0.33268	0.25302	0.27847	0.10552	0.19381	0.073963	0.28193	-2.6917	-2.8708	-3.2958	-3.0021	-2.8625	-3.1375	-2.7979	-3.2458	-3.3729	-2.8479	-3.1937	-3.2854	-3.0646	-3.3396	-2.8979	-3.2229	95.608	-71.246	-80.959	184.982	190.695	195.534	-150.815	193.088	12.707	38.335	128.232	84.521	-69.254	111.501	122.345	116.359	0.0024059	0.00054573	0.00055216	407.43	5.4178e-06	1.5071e-05	644.91	178.06	5.1852e-05	1.8819e-05	318.18	162.89	83.317	37.962	2.4465e-05	88.221	0.0055427	0.0055484	0.001779	688.94	6.2798e-05	6.0067e-05	930.91	284.98	6.1478e-05	6.1464e-05	456.62	210.62	124.31	51.183	7.1214e-05	108.04	99.505	-120.095	-148.606	-147.302	-27.474	-75.691	-148.449	-143.181	-29.575	-69.440	-143.856	-140.590	-140.420	-135.601	-83.301	-137.035	-8191	255	
7150.583	1	1	0	0	0.18729	0.17735	0.16224	0.037904	0.059484	0.094253	0.17417	0.06004	0.16992	0.12643	0.10391	0.30945	0.11003	0.24643	0.2407	0.27665	-2.7687	-2.6958	-3.0104	-3.0896	-3.1125	-3.2104	-3.0187	-2.9688	-3.3937	-2.9188	-3.0563	-3.3292	-2.9125	-3.4667	-3.1312	-3.2167	148.792	148.411	28.265	-60.998	-118.837	-156.497	183.178	-135.627	114.235	32.384	-148.904	107.430	-80.885	193.603	-41.085	171.959	0.0020778	0.0016613	0.00024455	403.26	2.1426e-05	1.4691e-05	642.15	177.71	2.5603e-05	4.4372e-06	318.39	163.76	83.015	37.809	1.3734e-05	88.269	0.0054107	0.0057219	0.0018295	674.52	6.108e-05	6.2247e-05	932.73	279.43	5.906e-05	6.3638e-05	455.28	207.89	122.23	51.723	7.0092e-05	107.12	100.473	-143.268	74.917	-147.511	32.762	-50.200	-148.073	-143.093	-7.955	-72.923	-143.772	-140.660	-140.382	-135.761	-69.175	-136.984	-8191	255	
7150.656	1	1	0	0	0.096005	0.2258	0.055646	0.17912	0.13276	0.082813	0.20594	0.1165	0.020275	0.051708	0.13347	0.24911	0.096607	0.090028	0.17648	0.37111	-2.6646	-2.8083	-3.0729	-3.2208	-2.825	-3.2479	-3.3042	-2.9396	-3.3333	-2.7604	-3.2208	-3.3625	-3.1	-3.3438	-3.0312	-3.1688	-122.562	176.588	179.218	153.489	-139.083	33.682	141.422	141.423	25.495	161.663	83.097	117.450	150.987	-157.232	-109.833	107.540	0.0017843	0.0016821	0.0003521	403.06	1.4031e-05	2.0753e-05	643.53	177.33	1.6178e-05	3.2925e-05	318.69	162.85	83.701	38.143	1.5885e-05	88.172	0.0052203	0.0060048	0.0018006	664.86	5.9523e-05	6.6068e-05	924.31	276.02	5.7938e-05	6.7335e-05	451.06	206.43	122.06	52.678	6.7484e-05	106.7	101.890	144.844	-60.741	-147.528	-19.330	-100.087	-147.879	-143.092	36.950	-133.194	-143.366	-140.417	-140.307	-135.633	49.166	-136.868	-8191	255	
7150.751	1	1	0	0	0.13215	0.12502	0.11596	0.22492	0.090179	0.13607	0.29775	0.11749	0.19454	0.084215	0.17749	0.11102	0.19663	0.30002	0.064845	0.21859	-2.7938	-2.8	-3.1729	-3.3708	-2.8542	-3.0854	-3.1	-3.05	-3.2125	-2.9104	-2.8708	-3.4313	-3.0396	-3.1937	-3.2333	-3.0292	-89.290	18.143	136.693	46.319	137.312	157.105	106.157	161.747	-23.648	127.619	144.736	183.058	113.571	157.277	-4.173	119.706	0.0029091	0.0021034	0.00058231	406.28	9.3437e-06	4.5314e-06	644.14	177.98	2.7219e-05	6.6533e-06	320.25	163.87	83.475	38.291	8.7617e-06	88.475	0.0051671	0.0062512	0.001724	657	5.9675e-05	6.9014e-05	912.89	274.46	5.935e-05	7.031e-05	447.65	206.13	123.75	53.396	6.4959e-05	106.69	87.397	105.802	-36.489	-147.538	-154.259	31.143	-147.940	-142.871	192.587	-158.084	-143.242	-140.390	-140.573	-135.426	-15.297	-136.803	-8191	255	
7150.871	1	1	0	0	0.065106	0.25309	0.10024	0.20491	0.096143	0.11877	0.32	0.18257	0.25658	0.14994	0.014959	0.2271	0.26485	0.18491	0.19139	0.38302	-2.8854	-2.7687	-2.7771	-3.3042	-2.9417	-3.2792	-3.0563	-3	-3.3146	-2.7958	-2.9854	-3.4583	-2.9813	-3.125	-3.2271	-3.025	79.559	134.290	137.821	130.560	-69.801	35.764	178.236	84.342	142.796	-40.765	-20.392	135.861	-102.675	-107.576	194.218	134.499	0.0025577	0.001776	0.0007067	403.62	1.8789e-05	6.3751e-06	643.98	179.36	3.8805e-05	1.4686e-05	319.03	163.43	83.582	37.943	1.9863e-05	88.307	0.0054234	0.0064493	0.0016764	653.73	6.3293e-05	7.0869e-05	905.61	273.21	6.3076e-05	7.0792e-05	444.29	205.41	126.18	53.191	6.3363e-05	106.05	75.434	-128.030	-39.378	-147.514	-102.994	-122.817	-147.903	-143.358	197.925	-58.159	-143.607	-140.523	-140.820	-135.374	25.436	-137.227	-8191	255	
7150.967	1	1	0	0	0.084457	0.086678	0.091981	0.0953	0.20185	0.10281	0.20376	0.46403	0.033558	0.16985	0.048204	0.13608	0.24269	0.15725	0.14672	0.13393	-2.6688	-2.8792	-3.0333	-3.2458	-2.8021	-3.3021	-3.3292	-3.0021	-3.2979	-3.05	-3.2604	-3.3958	-3.2229	-3.1437	-3.2354	-3.1312	-140.405	55.108	-62.111	197.112	45.457	122.209	121.520	145.616	162.682	-74.473	87.508	177.043	-112.203	177.981	82.125	-160.040	0.0031412	0.001361	0.00031013	403.58	1.95e-05	3.5175e-05	642.57	178	1.3251e-05	1.8419e-05	318.2	163.68	83.479	38.146	1.8565e-05	88.492	0.0058147	0.0063528	0.0016436	649.41	6.7257e-05	6.8989e-05	897.5	271.36	6.6771e-05	6.7736e-05	440.6	204.93	128.38	52.55	6.1487e-05	105.95	97.905	-22.198	16.771	-147.816	-144.656	16.968	-148.042	-143.788	-145.464	31.113	-143.701	-140.642	-140.859	-135.448	142.098	-137.053	-8191	255	
7151.064	1	1	0	0	0.052283	0.031136	0.20016	0.20076	0.051328	0.0605	0.15327	0.20575	0.27479	0.072998	0.25374	0.16052	0.090458	0.15767	0.049437	0.084236	-2.7708	-2.9208	-2.8208	-3.3896	-3.0292	-2.8125	-3.3438	-3.0312	-3.0187	-3.0042	-3.0375	-3.2812	-3.0542	-3.0479	-3.2854	-2.9875	-7.302	-64.744	156.335	-90.426	109.335	45.114	153.797	32.385	-66.974	-149.630	-23.867	-22.868	175.547	168.200	150.066	9.057	0.0026863	0.002033	0.00037356	402.83	1.6341e-05	4.8244e-05	645.06	177.33	3.8499e-06	1.245e-05	318.9	164.05	83.35	38.21	9.8153e-06	88.308	0.0059864	0.005965	0.0015645	646.66	6.7702e-05	6.4261e-05	882.66	270.87	6.7117e-05	6.3104e-05	433.94	205.79	128.13	51.591	5.8308e-05	106.52	86.560	-31.653	-82.567	-147.904	158.039	43.063	-148.312	-143.667	142.461	-29.908	-143.867	-140.841	-140.339	-135.084	35.179	-136.969	-8191	255	
7151.160	1	1	0	0	0.21687	0.12298	0.036049	0.23189	0.1792	0.19055	0.10456	0.22514	0.205	0.17762	0.31669	0.25018	0.11043	0.12244	0.12141	0.16628	-2.7687	-3.025	-2.8583	-3.4354	-3.0521	-2.7917	-3.4604	-3.0604	-3.2958	-3.0729	-2.8563	-3.4562	-3.0687	-3.1604	-3.2396	-3.0396	-132.885	-138.681	78.707	-115.361	-46.059	74.467	-117.120	-99.080	7.189	48.606	-130.453	148.312	-144.271	98.195	-105.017	-146.975	0.0019263	0.0026517	0.00031683	402.22	1.1973e-05	1.1919e-05	643.41	177.93	3.366e-05	1.8215e-05	318.14	163.64	83.28	37.948	1.0335e-05	88.194	0.0059546	0.005619	0.0015002	655.75	6.6391e-05	6.1125e-05	871.38	274.43	6.5248e-05	5.9971e-05	428.54	207.2	125.38	50.75	5.6169e-05	106.98	106.282	-73.462	-13.253	-148.135	5.579	-29.773	-147.988	-143.621	19.989	-36.708	-143.628	-140.422	-140.049	-135.130	0.019	-136.795	-8191	255	
7151.256	1	1	0	0	0.27026	0.069472	0.20053	0.16377	0.20147	0.13756	0.17863	0.15908	0.32976	0.26719	0.1171	0.30177	0.10425	0.20473	0.20289	0.2764	-2.6437	-3.3187	-2.9104	-3.2083	-3.0292	-3.0521	-3.4479	-3.0042	-3.0458	-3.1667	-3.1917	-3.475	-2.8937	-3.075	-3.4375	-2.9771	90.893	172.673	122.676	124.978	58.073	-134.077	123.610	80.389	-70.469	110.643	56.751	187.712	-45.725	121.088	-129.220	142.413	0.0028438	0.002401	0.00022745	401.62	2.6789e-05	1.2001e-05	641.24	176.72	1.7306e-05	1.0114e-05	317.27	162.01	83.55	37.737	7.9266e-06	88.027	0.0057078	0.005417	0.0014641	669.58	6.375e-05	5.9548e-05	869.33	279.64	6.2991e-05	5.8908e-05	429.32	208.91	123.8	50.262	5.7372e-05	107.72	124.221	-33.814	-152.605	-148.270	29.362	-30.118	-148.071	-143.232	-30.816	-23.658	-143.556	-140.740	-140.150	-135.363	-134.640	-136.955	-8191	255	
7151.352	1	1	0	0	0.15419	0.17605	0.13839	0.1075	0.16151	0.19078	0.21961	0.15311	0.15925	0.18953	0.18855	0.094471	0.12962	0.28783	0.089527	0.19265	-2.5375	-3.3458	-2.6021	-3.3146	-3.1667	-2.95	-3.2812	-2.925	-2.9646	-3.3542	-2.8854	-3.1667	-3.1813	-3.0292	-3.1917	-2.9729	-38.369	17.895	0.328	138.731	-102.973	133.428	91.743	140.821	92.608	11.571	135.969	117.117	78.379	136.470	-39.628	70.274	0.001935	0.001863	0.00037298	404.91	2.1809e-05	8.0792e-06	648.74	178.58	1.2619e-05	1.0746e-05	318.52	163.27	83.304	38.169	2.3889e-05	88.541	0.0054982	0.0053291	0.0015274	684.23	6.1944e-05	5.9104e-05	886.05	284.55	6.1666e-05	5.8235e-05	438.22	211.46	123.64	50.674	6.2151e-05	108.83	97.487	-69.919	179.281	-148.004	39.622	91.002	-148.599	-143.362	0.547	-32.117	-143.765	-140.467	-140.299	-135.260	-131.214	-136.836	-8191	255	
7151.448	1	1	0	0	0.25158	0.22323	0.087061	0.11684	0.18532	0.41775	0.026658	0.2723	0.051799	0.13419	0.16577	0.23942	0.32078	0.20588	0.062201	0.094245	-2.5687	-3.4771	-2.8417	-3.1417	-3.0042	-2.975	-3.225	-3.1396	-2.9896	-3.2417	-2.9021	-3.2479	-3.2771	-2.9458	-3.2292	-3.0625	184.235	-53.951	-69.871	-117.715	192.281	137.947	112.193	-136.530	51.879	-82.871	87.800	140.724	82.604	167.190	-133.100	100.637	0.0014935	0.0019382	0.00046207	404.38	1.3499e-05	3.6028e-06	647.93	179.86	1.9078e-05	8.8343e-06	318.98	163.85	83.643	38.19	1.9227e-05	88.984	0.0054533	0.0052966	0.0016526	687.27	6.0971e-05	5.8686e-05	907.3	284	6.1015e-05	5.7753e-05	448.46	211.66	123.49	51.001	6.7232e-05	108.75	113.568	-64.070	153.868	-147.482	118.440	-110.547	-148.318	-143.098	-48.140	-75.983	-143.792	-140.095	-140.619	-135.332	165.105	-136.783	-8191	255	
7151.569	1	1	0	0	0.22574	0.16435	0.16999	0.24102	0.099697	0.17272	0.17794	0.11373	0.061742	0.1118	0.22527	0.060023	0.19341	0.24906	0.1167	0.081845	-2.5042	-3.4229	-2.8167	-3.0646	-3.0687	-2.8667	-3.4854	-3.1208	-3.0333	-3.1208	-2.9688	-3.2833	-3.4083	-3.05	-3.1875	-3.3271	26.159	-87.256	-100.146	-13.196	-109.660	-52.106	35.003	-28.589	-157.967	-73.720	86.628	-64.144	146.756	150.488	10.526	103.355	0.0023046	0.00092858	0.00034764	407.06	2.3281e-05	9.5978e-06	648.41	179.95	1.8845e-05	1.7916e-05	321.22	165.42	83.606	38.351	6.6773e-06	88.71	0.0054289	0.0053591	0.0017582	680.91	6.0229e-05	6.0034e-05	927.33	282.57	6.062e-05	5.9987e-05	458.23	211.38	123.19	51.604	7.0066e-05	108	99.448	-111.798	-72.199	-147.611	40.316	-92.820	-148.169	-142.906	-74.371	-130.867	-143.612	-140.152	-140.303	-135.577	-136.529	-136.903	-8191	255	
7151.665	1	1	0	0	0.1989	0.14111	0.15884	0.13811	0.15388	0.19994	0.20603	0.075836	0.17555	0.11617	0.36855	0.076472	0.14844	0.15102	0.20582	0.38697	-2.5167	-3.3583	-2.9979	-3.0125	-3.3917	-3.0854	-3.3729	-3.3146	-2.9042	-2.9479	-2.9104	-3.0333	-3.3729	-3.0354	-3.275	-3.3771	67.895	-159.530	-145.373	-127.157	194.431	13.901	150.870	196.552	-23.558	182.532	195.147	182.798	71.460	-113.134	-102.459	129.427	0.0019374	0.0019206	0.00031386	403.61	7.4233e-06	1.4267e-05	646.82	178.87	3.9689e-05	2.1559e-05	321.41	165.72	83.807	38.442	1.561e-05	88.383	0.005345	0.0056253	0.0018194	673.85	5.953e-05	6.3775e-05	935.75	279.25	6.0014e-05	6.4651e-05	459.27	210.05	122.6	52.498	7.0324e-05	107.46	100.874	135.279	-142.671	-147.807	17.983	-139.113	-147.934	-142.751	-0.396	191.752	-143.662	-140.501	-140.343	-135.231	-26.099	-136.877	-8191	255	
7151.759	1	1	0	0	0.191	0.24323	0.20042	0.1686	0.097921	0.058726	0.10088	0.13762	0.078758	0.057341	0.079283	0.083663	0.36452	0.10619	0.25167	0.18909	-2.2938	-3.2833	-3.0146	-3.0833	-3.4188	-2.8937	-3.25	-3.325	-2.8604	-3.3104	-3.1083	-2.9562	-3.3729	-3.1125	-3.0792	-3.4125	-49.166	56.633	-3.708	198.057	23.926	55.920	185.657	86.816	-123.555	-116.378	-143.177	69.438	155.911	43.014	-34.488	107.696	0.0024988	0.0026112	0.00068357	406.96	2.0699e-05	3.3995e-05	650.15	177.85	5.8456e-06	2.0839e-05	321.97	167.19	84.009	38.787	2.3397e-05	89.216	0.0053061	0.0060913	0.0018128	670.38	5.9525e-05	6.8572e-05	931.82	278	5.9927e-05	6.9076e-05	456.21	210.79	123.35	53.814	6.8773e-05	107.7	97.061	159.143	-29.024	-147.380	-73.962	-109.193	-148.181	-142.842	-115.528	197.464	-143.522	-140.679	-140.465	-135.667	2.199	-136.919	-8191	255	
7151.857	1	1	0	0	0.12466	0.26798	0.16916	0.19475	0.17184	0.15546	0.15183	0.16197	0.15375	0.062157	0.2297	0.30701	0.28425	0.13298	0.11311	0.18158	-2.3292	-3.1625	-3.0396	-3.0333	-3.3792	-3.2313	-3.0542	-3.1396	-3.0312	-3.4125	-3.3937	-2.8083	-3.1104	-2.9667	-3.1312	-3.6521	105.964	87.752	31.391	-83.300	-134.575	96.581	-89.617	190.682	-16.528	36.607	148.780	180.059	197.321	130.707	68.332	167.091	0.0025276	0.0013968	0.00054275	404.1	4.8542e-06	2.6924e-05	647.06	179.27	1.2378e-05	1.4527e-05	322.47	167	84.859	38.791	4.8254e-05	89.367	0.0053873	0.0064275	0.0017466	665.77	6.0403e-05	7.09e-05	919.77	275.58	6.1375e-05	7.137e-05	451.04	209.96	125.59	54.351	6.6839e-05	107.6	89.881	-126.652	-23.744	-147.712	80.761	164.713	-147.898	-143.156	167.244	15.772	-143.755	-140.454	-140.788	-135.523	4.259	-136.931	-8191	255	
7151.952	1	1	0	0	0.18953	0.20747	0.21051	0.13258	0.11846	0.27448	0.23922	0.038303	0.094355	0.17585	0.34912	0.1186	0.21269	0.20018	0.36977	0.17328	-2.3542	-3.225	-3.0646	-2.6854	-3.1792	-3.0021	-3.2979	-3.4396	-2.775	-3.2146	-3.1479	-2.8354	-3.3729	-3.1854	-2.9708	-3.4354	1.006	-82.424	136.142	-116.810	113.132	-129.667	125.731	196.738	-65.428	-22.710	125.929	-33.800	-59.986	88.981	-70.222	115.634	0.0031826	0.00076883	0.00093791	405.17	3.2e-05	1.8969e-05	647.43	179.25	2.632e-05	2.1891e-05	322.22	167.55	84.459	38.819	9.1089e-06	89.491	0.0057255	0.0066084	0.0017029	662.27	6.4775e-05	7.1896e-05	913.21	273.59	6.5417e-05	7.1151e-05	447.57	209.43	128.5	54.002	6.5273e-05	107.47	90.410	-94.354	-39.913	-147.567	-139.930	59.365	-148.176	-143.140	181.415	-3.143	-143.893	-140.544	-140.729	-135.365	-84.882	-136.901	-8191	255	
7152.048	1	1	0	0	0.078036	0.088278	0.14886	0.17317	0.10633	0.11472	0.12395	0.17563	0.12021	0.1325	0.28222	0.22658	0.23443	0.12114	0.1756	0.2758	-2.6542	-3.1958	-3.1708	-2.8771	-3.15	-3.0479	-2.95	-3.2521	-3.1125	-3.3333	-3.5396	-3.025	-3.2417	-2.9708	-2.9333	-3.4833	-72.511	94.062	-144.058	101.638	-108.309	-29.798	142.350	-73.058	-43.038	-69.857	89.814	149.694	-48.014	155.452	-76.149	141.532	0.002877	0.0023829	0.00015343	405.54	1.6285e-05	2.7147e-05	648.18	179.86	3.5738e-05	3.7144e-05	321.9	165.45	84.012	38.498	3.6547e-06	89.1	0.0060403	0.0064254	0.0016501	659.92	6.8542e-05	6.944e-05	907.41	272.97	6.9102e-05	6.8966e-05	442.85	208.85	130.31	53.1	6.3696e-05	107.42	92.483	-45.663	194.939	-147.723	195.340	79.998	-147.857	-143.623	-136.880	-6.847	-143.372	-140.874	-140.589	-135.390	2.825	-136.947	-8191	255	
7152.167	1	1	0	0	0.19491	0.21116	0.28486	0.082227	0.081729	0.069684	0.1057	0.10667	0.21979	0.2202	0.0065181	0.043538	0.18765	0.1329	0.082001	0.034598	-2.3563	-3.1708	-3.2479	-2.9958	-3.3187	-3.2375	-2.9583	-3.15	-3.0875	-3.0812	-3.2604	-2.9292	-3.1333	-3.4667	-2.85	-3.3625	9.871	-35.153	174.636	172.604	157.033	-3.537	111.130	-71.679	-138.018	-80.568	37.266	-37.032	96.986	119.737	-136.855	81.874	0.0028573	0.001781	0.0004815	403.93	1.5062e-05	2.3389e-05	644.69	178.75	2.3182e-05	2.4674e-05	320.66	165.28	84.436	38.715	2.772e-05	89.29	0.0063086	0.0061856	0.0016073	666.1	7.1131e-05	6.634e-05	899.39	277.67	7.0813e-05	6.6275e-05	440.08	211.47	131.43	52.709	6.1934e-05	108.69	82.517	3.067	-12.639	-148.044	-38.995	48.904	-148.007	-143.450	-28.546	22.313	-143.361	-140.673	-140.473	-135.468	109.634	-137.029	-8191	255	
7152.263	1	1	0	0	0.23467	0.2663	0.099978	0.18789	0.31752	0.21472	0.091922	0.19873	0.11715	0.065555	0.25624	0.053617	0.17615	0.18225	0.14493	0.13508	-2.6125	-3.0042	-3.3771	-3.1063	-3.0521	-3.0875	-2.9875	-3.4583	-3.1063	-2.7917	-3.3063	-3.0354	-3.3396	-3.2333	-2.7188	-3.5187	17.648	82.094	-87.996	170.017	85.930	-63.866	148.431	86.951	-34.965	-76.254	88.240	126.222	-68.607	86.955	-80.502	24.754	0.0013855	0.001728	0.00062095	407.13	4.3128e-06	1.9218e-05	647.74	178.77	1.7691e-05	5.9176e-06	322.54	165.71	84.256	38.584	8.683e-06	89.158	0.0062528	0.0059153	0.0015578	679.77	6.9951e-05	6.3931e-05	892.58	283.36	6.8788e-05	6.4183e-05	437.68	213.84	129.77	52.052	6.0664e-05	109.74	111.038	-24.217	-22.118	-148.000	-71.814	-2.224	-148.054	-143.843	-61.862	-50.706	-143.714	-140.712	-140.256	-135.280	-142.023	-136.822	-8191	255	
7152.359	1	1	0	0	0.094695	0.14426	0.079423	0.082744	0.14843	0.038813	0.16008	0.11393	0.40035	0.063309	0.23081	0.10875	0.056731	0.093271	0.27096	0.15545	-2.5771	-2.7417	-3.2687	-2.9583	-2.8771	-3.0958	-2.8542	-3.2354	-3.0833	-2.7792	-3.4042	-2.9625	-2.8542	-3.2771	-2.8125	-3.5229	160.188	-120.926	-34.778	75.283	178.975	173.104	182.768	164.263	-130.484	36.929	-15.105	-113.913	-71.137	80.282	-58.818	139.821	0.0020269	0.0018924	7.4626e-05	406.32	2.7448e-05	2.1208e-05	643.17	179.03	2.4924e-05	2.1249e-05	321.54	166.38	84.215	38.39	2.1086e-05	89.233	0.0060134	0.0057831	0.0015493	694.15	6.7082e-05	6.2072e-05	892.57	288.29	6.5903e-05	6.2624e-05	439.53	216.12	127.89	51.769	6.3351e-05	111.12	100.410	-16.021	-72.260	-148.298	31.724	20.160	-148.272	-143.362	16.870	-47.663	-143.914	-140.662	-140.034	-135.168	-110.590	-136.951	-8191	255	
7152.455	1	1	0	0	0.10791	0.046533	0.083587	0.16871	0.090304	0.21242	0.31122	0.15198	0.21744	0.32618	0.15901	0.22395	0.30373	0.2203	0.1097	0.10321	-2.7188	-2.8042	-3.0958	-3.3	-3.0083	-3.325	-2.9417	-3.3417	-3.1417	-2.7396	-3.5438	-3.275	-2.8	-3.4896	-2.9271	-3.1875	54.128	167.894	-69.667	129.895	-105.918	126.203	162.391	152.397	81.661	-39.677	31.022	-70.429	125.868	130.760	43.867	-134.364	0.0016777	0.0015431	0.00042539	404.18	2.7774e-05	1.4657e-05	651.7	179.83	2.272e-05	9.6201e-06	321.55	166.87	84.741	38.388	2.5692e-05	89.314	0.0059066	0.0057936	0.0016568	711.95	6.684e-05	6.2869e-05	918.28	295.38	6.619e-05	6.3736e-05	453.38	218.42	128.23	51.851	6.8808e-05	111.56	117.584	-65.444	136.159	-148.033	57.401	62.174	-148.653	-143.291	-19.418	-24.925	-144.035	-140.301	-140.487	-135.404	-133.867	-137.106	-8191	255	
7152.551	1	1	0	0	0.24339	0.083463	0.19024	0.042938	0.079934	0.079136	0.13233	0.14545	0.16607	0.39353	0.23901	0.10508	0.17465	0.11248	0.31313	0.25581	-3.0854	-2.9271	-3.1146	-2.9833	-2.8917	-3.5021	-2.9042	-3.0125	-3.1312	-2.9542	-3.3563	-3.2104	-3.025	-3.3854	-3.0229	-3.3104	107.369	67.614	127.524	-141.634	193.078	-160.433	120.280	-134.788	112.879	5.809	-128.241	-63.723	179.743	-40.000	-62.380	150.718	0.0015672	0.0010601	0.00073452	406.12	1.2524e-05	2.0809e-05	648.01	179.72	3.9321e-05	5.6472e-06	323.2	166.47	84.556	38.513	4.1802e-06	89.523	0.0058528	0.0057917	0.0017978	712.12	6.6356e-05	6.2571e-05	940.66	294	6.456e-05	6.3208e-05	462.34	216.72	127.36	51.978	7.2277e-05	110.65	112.849	-60.522	167.820	-147.933	14.791	11.224	-148.614	-142.901	-48.919	188.292	-143.862	-140.473	-140.700	-135.652	-133.330	-136.892	-8191	255	
7152.647	1	1	0	0	0.14945	0.061299	0.17234	0.072687	0.33248	0.22267	0.36572	0.24871	0.16646	0.057404	0.307	0.13265	0.13381	0.14217	0.16728	0.070643	-2.6063	-2.8667	-3.0854	-3.2188	-3.075	-3.4146	-2.8063	-3.0667	-3.4292	-2.8688	-3.3646	-3.2354	-2.9333	-3.4375	-3.0646	-3.1458	130.974	188.493	-85.649	64.976	58.782	198.255	-158.714	120.903	164.769	64.474	-141.407	-99.231	-106.891	111.291	-68.966	-102.193	0.0021983	9.3549e-05	0.00027781	406.2	5.5497e-06	4.8042e-06	648.78	180.04	7.9169e-06	1.7051e-05	320.97	166.09	84.394	38.286	1.6755e-05	88.937	0.0056562	0.005727	0.0018562	693.15	6.3147e-05	6.2198e-05	943.17	285.92	6.1772e-05	6.3496e-05	464.24	212.94	124.94	52.008	7.2876e-05	109	100.655	33.207	182.511	-147.392	91.397	-157.339	-148.345	-142.777	-74.598	-111.397	-143.816	-140.582	-140.701	-135.393	-47.170	-136.935	-8191	255	
7152.744	1	1	0	0	0.051709	0.26978	0.049652	0.16236	0.10432	0.27325	0.40652	0.043204	0.23728	0.23836	0.099438	0.21605	0.099512	0.18228	0.21616	0.2072	-2.8604	-2.7896	-3.3604	-3.1146	-2.9125	-3.2021	-3.1333	-3.0062	-3.3021	-2.8854	-3.2208	-3.3187	-2.9917	-3.2792	-2.9188	-3.2042	155.345	44.531	91.870	-155.361	-95.721	85.097	96.229	-14.799	-127.940	-56.541	129.233	135.542	47.859	48.988	-53.822	161.222	0.0023752	0.0033283	0.00010644	405.67	9.8161e-06	2.0143e-05	647.45	179.7	2.5727e-05	2.6144e-05	323.73	164.72	83.598	37.852	2.2059e-05	88.839	0.0054136	0.0059303	0.0018627	676.73	6.1513e-05	6.535e-05	942.06	281.79	5.9862e-05	6.6953e-05	462.77	210.29	123.43	52.624	7.1378e-05	108.19	108.889	180.562	-150.243	-147.751	4.716	-100.739	-148.008	-143.539	-59.279	-161.275	-143.539	-140.338	-140.642	-135.503	-16.978	-136.911	-8191	255	
7152.840	1	1	0	0	0.06223	0.043397	0.10406	0.10505	0.19423	0.15763	0.23797	0.16102	0.17374	0.25432	0.15011	0.12039	0.11519	0.10716	0.10199	0.19712	-2.8458	-2.925	-3.1917	-3.2167	-2.8458	-3.3708	-3.1833	-2.9021	-3.3479	-2.9521	-3.2667	-3.5625	-3.0021	-3.2354	-3.1063	-3.3396	103.601	29.517	-11.129	188.810	-125.080	49.014	111.741	107.364	-86.536	176.874	50.716	82.435	180.584	-101.732	111.285	159.974	0.0019686	0.0020024	0.00057287	403.12	1.7931e-05	8.6118e-06	648.2	178.36	3.0782e-06	3.1473e-05	323.59	165.51	83.844	38.138	3.5327e-05	88.771	0.0053472	0.0063426	0.0018366	672	6.1344e-05	7.0438e-05	937.39	281.05	6.0931e-05	7.2033e-05	461.24	210.95	125.21	53.963	7.0582e-05	108.41	103.224	-134.440	-52.692	-147.608	-128.765	-147.396	-148.018	-142.988	193.686	170.516	-143.653	-140.622	-140.675	-135.552	22.287	-137.089	-8191	255	
7152.959	1	1	0	0	0.13872	0.17966	0.13499	0.081753	0.1144	0.084149	0.18446	0.24978	0.13483	0.11533	0.10701	0.282	0.085043	0.09834	0.24923	0.14332	-2.95	-3.075	-2.9375	-3.2333	-2.8937	-3.4417	-3.1292	-3.0958	-3.3875	-3.0333	-3.2479	-3.3896	-2.8042	-3.4083	-3.0938	-2.9375	156.747	-60.450	71.080	23.190	79.654	-63.272	133.841	21.979	197.127	-74.581	111.924	-139.431	197.255	115.229	72.094	138.317	0.00287	0.0010997	0.00048966	407.8	3.5599e-05	9.8314e-06	650.96	178.71	3.3693e-05	7.965e-06	324.32	166.37	83.154	38.25	3.3312e-05	88.855	0.0056027	0.0067909	0.0018084	672.74	6.4393e-05	7.4208e-05	930.92	280.07	6.4179e-05	7.4656e-05	456.66	210.03	127.16	54.272	6.7771e-05	107.72	78.126	-80.320	-15.899	-147.664	-154.671	75.802	-148.068	-142.886	175.603	21.510	-143.779	-140.587	-141.036	-135.473	25.765	-137.079	-8191	255	
7153.055	1	1	0	0	0.1669	0.29482	0.044567	0.30862	0.20404	0.15541	0.15821	0.30993	0.22273	0.17853	0.043173	0.1276	0.27362	0.075605	0.19544	0.15132	-2.9583	-2.7625	-3.0146	-3.5125	-2.6125	-3.2104	-3.2208	-2.9208	-3.3042	-2.9667	-3.275	-3.3979	-2.8937	-3.225	-3.0771	-3.2	100.917	140.050	58.931	161.770	165.558	-141.621	106.355	110.243	-155.123	-80.469	-156.794	-149.404	-1.417	38.088	-8.595	121.570	0.0032842	0.0024487	0.00030065	406.33	2.7203e-05	1.4338e-05	647.5	177.54	3.8212e-05	1.4677e-05	321.61	165.59	83.73	38.129	1.0024e-05	88.498	0.0058767	0.0067715	0.0017419	665.92	6.8111e-05	7.4019e-05	920.5	277.56	6.8492e-05	7.3724e-05	452.85	209.29	129.92	53.83	6.5975e-05	107.55	87.306	-32.917	-57.224	-147.909	-124.089	43.359	-148.236	-143.120	-148.102	12.366	-143.702	-140.527	-140.904	-135.286	11.617	-137.134	-8191	255	
7153.128	1	1	0	0	0.27299	0.17806	0.17601	0.18143	0.07321	0.089767	0.10115	0.1504	0.18841	0.13237	0.14187	0.017812	0.056101	0.11471	0.12756	0.25268	-2.8104	-3.1875	-2.8917	-3.2917	-2.9375	-3.1542	-3.1688	-3	-3.2396	-3.075	-3.0292	-3.5917	-2.9146	-2.9917	-3.2104	-2.8979	134.700	139.532	4.431	-83.410	129.298	-40.227	19.829	70.556	90.456	-20.448	126.714	-159.513	188.443	72.759	101.953	66.034	0.003377	0.0027084	0.00025358	403.81	2.3254e-05	7.302e-06	653.07	179.47	1.9288e-05	1.9106e-05	322.47	166.16	83.698	38.177	1.2861e-05	89.007	0.0062847	0.0066025	0.0017133	667.4	7.2532e-05	7.2428e-05	920.45	280.5	7.3909e-05	7.2468e-05	454.93	211.88	134.09	53.664	6.6518e-05	108.88	75.884	-35.374	-91.736	-147.297	-144.329	-4.793	-148.065	-143.365	163.498	30.174	-143.929	-140.892	-140.750	-135.547	-10.280	-137.364	-8191	255	
7153.247	1	1	0	0	0.11971	0.19618	0.19571	0.22427	0.31101	0.11516	0.054742	0.21698	0.087233	0.20339	0.13715	0.26259	0.17558	0.12282	0.24584	0.28272	-2.7979	-3.0917	-2.7812	-2.9979	-2.875	-3.0604	-3.3708	-2.9917	-3.2417	-3.2062	-3.0646	-3.4042	-3.0563	-2.95	-3.35	-3.2104	-101.828	71.706	-87.819	179.223	29.298	8.611	165.097	-156.681	-36.794	-147.249	99.562	97.055	147.320	133.201	-151.999	121.867	0.002146	0.0021268	0.00016892	404.82	8.4652e-06	3.6206e-05	647.71	178.36	6.0255e-06	1.5034e-05	321.45	166.31	84.019	38.304	4.7448e-06	89.372	0.0066888	0.0064948	0.0017145	681.87	7.587e-05	7.0454e-05	913.37	285.81	7.5114e-05	6.9629e-05	450.34	215	134.25	53.299	6.5128e-05	110.36	85.220	-13.756	-33.026	-148.226	42.391	27.214	-148.237	-143.938	192.622	49.154	-143.604	-140.842	-140.571	-135.818	-56.223	-137.179	-8191	255	
7153.343	1	1	0	0	0.12466	0.17039	0.073208	0.059922	0.13722	0.086426	0.13098	0.16672	0.10181	0.23326	0.17657	0.098365	0.043532	0.11106	0.2053	0.062316	-2.5917	-3.0229	-2.7229	-3.1854	-2.975	-2.8708	-3.4396	-3.0854	-3.0333	-3.1646	-2.9271	-3.4146	-3.0729	-2.925	-3.1188	-3.1792	107.272	160.323	166.366	69.844	141.869	-127.058	131.540	197.028	32.793	-73.337	-94.579	-153.550	-134.808	-108.829	4.888	-129.223	0.0017363	0.0024445	8.893e-05	402.1	4.2606e-05	8.4145e-06	651.9	179.03	3.3491e-05	2.8045e-05	324.15	166.74	84.069	38.388	2.0738e-05	89.291	0.0066626	0.0062845	0.0016793	700.11	7.4427e-05	6.8451e-05	908.42	293.14	7.3435e-05	6.7742e-05	450.07	218.38	132.51	53.09	6.4708e-05	112.12	90.259	-65.403	38.637	-148.301	38.431	-5.344	-148.096	-143.843	-45.514	-45.455	-143.585	-141.053	-140.201	-135.681	-96.824	-137.069	-8191	255	
7153.439	1	1	0	0	0.26131	0.23641	0.25536	0.077639	0.09866	0.19961	0.13966	0.12178	0.15674	0.14384	0.14833	0.14012	0.17139	0.17039	0.17038	0.13656	-2.9583	-3.2958	-2.9688	-3.1083	-3.0271	-3.0438	-3.5438	-3.1854	-2.9375	-3.0458	-2.9375	-3.2167	-3.2313	-2.7313	-3.225	-3.3125	177.026	177.492	24.133	129.894	-1.485	189.538	24.641	140.581	114.480	159.510	-158.607	-160.274	-43.770	25.960	-151.798	141.954	0.0013492	0.0023614	0.00050788	403.29	1.8473e-05	1.0204e-05	650.61	180.15	2.5657e-05	2.2242e-05	322.55	166.57	84.453	38.275	3.3255e-05	89.438	0.0064817	0.0061897	0.001705	722.23	7.2396e-05	6.7722e-05	918	300.15	7.1069e-05	6.6431e-05	454.33	221.06	130.55	52.587	6.7202e-05	112.72	125.950	-62.801	65.198	-148.144	31.796	27.144	-148.157	-143.573	6.316	17.381	-143.893	-140.612	-140.211	-135.543	-157.764	-137.112	-8191	255	
7153.560	1	1	0	0	0.13187	0.054882	0.37451	0.041656	0.052207	0.13216	0.25694	0.13209	0.11636	0.29033	0.096728	0.11556	0.15591	0.24365	0.053706	0.28371	-2.7438	-3.2604	-2.8104	-3.2708	-3.1292	-2.8917	-3.3042	-2.9021	-2.7833	-3.15	-3.0604	-3.2687	-3.2792	-3.0187	-3.1708	-3.1813	10.401	101.070	-157.248	126.786	62.374	38.454	143.332	-96.516	-71.966	58.097	99.412	177.775	90.162	-154.700	55.781	139.368	0.0020074	0.0010525	0.00029528	407.92	1.3951e-05	1.0195e-05	656.39	180.24	6.5073e-06	1.1755e-05	324.84	167.71	83.977	38.217	2.4972e-05	89.445	0.0062333	0.0060616	0.0017939	732.01	7.0446e-05	6.7387e-05	941.24	303.2	7.0376e-05	6.6379e-05	467.04	222.67	130.06	52.649	7.2943e-05	112.54	97.050	-60.516	182.452	-147.335	-5.907	33.695	-148.598	-143.339	-142.250	-32.823	-144.119	-140.486	-140.819	-135.654	-133.653	-137.017	-8191	255	
7153.656	1	1	0	0	0.020663	0.056746	0.048501	0.072193	0.30847	0.1207	0.13795	0.14258	0.011275	0.12688	0.21283	0.25648	0.20581	0.11249	0.06144	0.1416	-2.7292	-3.3354	-2.9708	-2.9688	-3.1979	-2.8854	-3.4021	-3.0854	-3.0667	-3.3146	-3.1417	-3.2458	-3.1271	-2.8854	-3.3208	-3.2104	90.979	63.482	124.362	170.478	55.797	34.773	106.344	25.692	-117.805	58.396	188.992	197.274	140.886	76.725	-44.649	101.289	0.0020326	0.0013547	0.00088938	408.65	1.7707e-05	5.3813e-06	652.13	178.69	5.7097e-06	9.204e-06	322.61	167.25	84.05	38.359	2.2496e-05	89.592	0.006137	0.0059692	0.0019161	722.54	6.8329e-05	6.611e-05	956.33	297.62	6.7763e-05	6.5219e-05	471.62	218.96	127.61	52.395	7.5007e-05	111.16	88.982	-34.377	138.984	-147.588	-65.248	-96.463	-148.177	-143.053	-72.629	174.628	-143.949	-140.497	-140.452	-136.065	190.016	-136.764	-8191	255	
7153.752	1	1	0	0	0.13882	0.32266	0.14397	0.10697	0.18707	0.06883	0.065476	0.10991	0.096555	0.17444	0.22818	0.16176	0.28828	0.18847	0.34625	0.18706	-2.4771	-3.1437	-2.9146	-3.2125	-3.3458	-3	-3.1958	-2.975	-3.0521	-3.2792	-3.1896	-3.2917	-3.5125	-2.9625	-3.0625	-3.2812	-23.344	72.418	-21.414	-92.846	32.539	81.324	99.754	169.116	186.796	102.989	-159.115	-119.200	184.435	187.454	-52.026	72.836	0.0023362	0.0035681	0.00030879	407.8	1.8132e-05	2.72e-05	651.59	180.13	3.2947e-05	2.2529e-05	323.38	166.8	84.493	38.568	1.162e-05	90.014	0.0058699	0.0059439	0.0019564	704.76	6.5644e-05	6.6925e-05	962.5	291.15	6.5628e-05	6.6881e-05	474.5	216.31	126.54	53.196	7.642e-05	110.57	94.700	169.580	171.553	-147.480	17.067	-92.250	-148.456	-143.041	22.965	-149.236	-143.841	-140.293	-140.558	-135.579	158.460	-136.732	-8191	255	
7153.848	1	1	0	0	0.1145	0.27015	0.15809	0.26966	0.20523	0.15701	0.27301	0.20775	0.45932	0.038892	0.22485	0.26606	0.27383	0.11007	0.11224	0.34079	-2.4083	-3.1458	-3.0625	-2.9208	-3.1979	-2.9167	-3.2646	-3.3542	-2.9104	-3.3208	-2.9938	-3.1021	-3.5312	-2.9792	-2.9667	-3.3854	111.777	165.198	133.240	104.387	71.651	79.428	130.116	190.693	-134.457	16.497	157.462	153.892	109.929	176.362	153.386	132.261	0.0018329	0.002203	0.00048382	406.3	1.048e-05	2.0496e-05	655.66	181.12	5.0114e-06	2.5138e-05	325.72	166.94	84.32	38.431	1.5825e-05	89.666	0.0057566	0.0062886	0.0019633	693.18	6.3807e-05	7.0437e-05	963.26	287.44	6.4028e-05	7.1119e-05	472.31	214.66	125.51	53.916	7.386e-05	109.74	80.827	172.689	-25.363	-147.703	36.014	-86.324	-148.123	-143.310	-5.379	-138.589	-143.510	-140.706	-140.931	-135.672	20.919	-137.070	-8191	255	
#DATA ENDS
