BOXY.EXE: ISS Imagent and Oximeter Data Acquisition Program Version 0.80
Ascii Record File

#ACQ INFORMATION
2  Detector Channels 
16  External MUX Channels 
1  Auxiliary Channels 
5000  Waveform (CCF) Frequency (Hz)
1  Waveforms Skipped 
30  Waveforms Averaged 
1  Cycles Averaged 
16  Acquisitions per Waveform 
10.0806  Updata Rate (Hz) 

#FILE INFORMATION
TRUE -- External MUX Channel results are PARSED.
FALSE -- AC DC and Phase are NOT grouped.
TRUE -- Companion Program Settings File CREATED.
FALSE -- AC data not excluded
FALSE -- DC data not excluded
FALSE -- Phase data not excluded
FALSE -- Auxillary Chn. data not excluded
Tab delimiters

#CALIBRATION STATE
TRUE -- Waveform Calibration Values APPLIED.


#AUX CALIBRATION VALUES
Val Type	aux-1	

Term	1.0000e+00	
Factor	0.0000e+00	


#WF CALIBRATION VALUES
A = Detector Channel
Val Type	A-AC1	A-AC2	A-AC3	A-AC4	A-AC5	A-AC6	A-AC7	A-AC8	A-AC9	A-AC10	A-AC11	A-AC12	A-AC13	A-AC14	A-AC15	A-AC16	A-DC1	A-DC2	A-DC3	A-DC4	A-DC5	A-DC6	A-DC7	A-DC8	A-DC9	A-DC10	A-DC11	A-DC12	A-DC13	A-DC14	A-DC15	A-DC16	A-Ph1	A-Ph2	A-Ph3	A-Ph4	A-Ph5	A-Ph6	A-Ph7	A-Ph8	A-Ph9	A-Ph10	A-Ph11	A-Ph12	A-Ph13	A-Ph14	A-Ph15	A-Ph16	

Term	0.00000e+00	0.00000e+00	0.00000e+00	0.00000e+00	0.00000e+00	0.00000e+00	0.00000e+00	0.00000e+00	0.00000e+00	0.00000e+00	0.00000e+00	0.00000e+00	0.00000e+00	0.00000e+00	0.00000e+00	0.00000e+00	0.00000e+00	0.00000e+00	0.00000e+00	0.00000e+00	0.00000e+00	0.00000e+00	0.00000e+00	0.00000e+00	0.00000e+00	0.00000e+00	0.00000e+00	0.00000e+00	0.00000e+00	0.00000e+00	0.00000e+00	0.00000e+00	0.00000e+00	0.00000e+00	0.00000e+00	0.00000e+00	0.00000e+00	0.00000e+00	0.00000e+00	0.00000e+00	0.00000e+00	0.00000e+00	0.00000e+00	0.00000e+00	0.00000e+00	0.00000e+00	0.00000e+00	0.00000e+00	
Factor	1.00000e+00	1.00000e+00	1.00000e+00	1.00000e+00	1.00000e+00	1.00000e+00	1.00000e+00	1.00000e+00	1.00000e+00	1.00000e+00	1.00000e+00	1.00000e+00	1.00000e+00	1.00000e+00	1.00000e+00	1.00000e+00	1.00000e+00	1.00000e+00	1.00000e+00	1.00000e+00	1.00000e+00	1.00000e+00	1.00000e+00	1.00000e+00	1.00000e+00	1.00000e+00	1.00000e+00	1.00000e+00	1.00000e+00	1.00000e+00	1.00000e+00	1.00000e+00	X	X	X	X	X	X	X	X	X	X	X	X	X	X	X	X	

B = Detector Channel
Val Type	B-AC1	B-AC2	B-AC3	B-AC4	B-AC5	B-AC6	B-AC7	B-AC8	B-AC9	B-AC10	B-AC11	B-AC12	B-AC13	B-AC14	B-AC15	B-AC16	B-DC1	B-DC2	B-DC3	B-DC4	B-DC5	B-DC6	B-DC7	B-DC8	B-DC9	B-DC10	B-DC11	B-DC12	B-DC13	B-DC14	B-DC15	B-DC16	B-Ph1	B-Ph2	B-Ph3	B-Ph4	B-Ph5	B-Ph6	B-Ph7	B-Ph8	B-Ph9	B-Ph10	B-Ph11	B-Ph12	B-Ph13	B-Ph14	B-Ph15	B-Ph16	

Term	0.00000e+00	0.00000e+00	0.00000e+00	0.00000e+00	0.00000e+00	0.00000e+00	0.00000e+00	0.00000e+00	0.00000e+00	0.00000e+00	0.00000e+00	0.00000e+00	0.00000e+00	0.00000e+00	0.00000e+00	0.00000e+00	0.00000e+00	0.00000e+00	0.00000e+00	0.00000e+00	0.00000e+00	0.00000e+00	0.00000e+00	0.00000e+00	0.00000e+00	0.00000e+00	0.00000e+00	0.00000e+00	0.00000e+00	0.00000e+00	0.00000e+00	0.00000e+00	-1.65095e+02	-1.36760e+02	-1.28228e+02	-1.79802e+02	-7.58801e+01	-8.06562e+01	-1.58085e+02	-1.62015e+02	-8.34201e+01	-6.02352e+01	-1.69977e+02	-1.71992e+02	-1.83057e+02	-1.76155e+02	-6.30896e+01	-1.48803e+02	
Factor	2.68855e-05	1.33963e-04	4.06587e-05	1.73064e-01	1.18092e-06	1.38058e-06	1.79830e-01	6.39379e-02	1.39152e-06	1.46583e-06	8.33553e-02	3.13931e-02	2.72019e-02	8.97484e-03	1.12261e-06	1.30680e-02	1.59552e-06	1.68252e-06	4.69401e-07	8.55044e-02	1.82819e-08	1.84544e-08	8.38191e-02	3.15264e-02	1.83315e-08	1.84551e-08	3.98753e-02	1.49757e-02	1.33735e-02	4.44832e-03	1.83795e-08	6.25309e-03	X	X	X	X	X	X	X	X	X	X	X	X	X	X	X	X	



#DISTANCE SETTINGS
A = Detector Channel
A-1	A-2	A-3	A-4	A-5	A-6	A-7	A-8	A-9	A-10	A-11	A-12	A-13	A-14	A-15	A-16	

2.5000e+00	3.0000e+00	2.5000e+00	3.0000e+00	2.0000e+00	3.0000e+00	1.5000e+00	3.0000e+00	3.0000e+00	3.0000e+00	3.0000e+00	3.0000e+00	3.0000e+00	3.0000e+00	1.5000e+00	3.0000e+00	

B = Detector Channel
B-1	B-2	B-3	B-4	B-5	B-6	B-7	B-8	B-9	B-10	B-11	B-12	B-13	B-14	B-15	B-16	

1.0000e+01	1.0000e+01	1.0000e+01	1.4400e+00	1.0000e+01	1.0000e+01	1.5100e+00	1.9400e+00	1.0000e+01	1.0000e+01	1.9900e+00	2.4900e+00	2.4100e+00	2.9000e+00	1.0000e+01	2.9800e+00	




#DATA BEGINS
time	group	step	mark	flag	A-AC1	A-AC2	A-AC3	A-AC4	A-AC5	A-AC6	A-AC7	A-AC8	A-AC9	A-AC10	A-AC11	A-AC12	A-AC13	A-AC14	A-AC15	A-AC16	A-DC1	A-DC2	A-DC3	A-DC4	A-DC5	A-DC6	A-DC7	A-DC8	A-DC9	A-DC10	A-DC11	A-DC12	A-DC13	A-DC14	A-DC15	A-DC16	A-Ph1	A-Ph2	A-Ph3	A-Ph4	A-Ph5	A-Ph6	A-Ph7	A-Ph8	A-Ph9	A-Ph10	A-Ph11	A-Ph12	A-Ph13	A-Ph14	A-Ph15	A-Ph16	B-AC1	B-AC2	B-AC3	B-AC4	B-AC5	B-AC6	B-AC7	B-AC8	B-AC9	B-AC10	B-AC11	B-AC12	B-AC13	B-AC14	B-AC15	B-AC16	B-DC1	B-DC2	B-DC3	B-DC4	B-DC5	B-DC6	B-DC7	B-DC8	B-DC9	B-DC10	B-DC11	B-DC12	B-DC13	B-DC14	B-DC15	B-DC16	B-Ph1	B-Ph2	B-Ph3	B-Ph4	B-Ph5	B-Ph6	B-Ph7	B-Ph8	B-Ph9	B-Ph10	B-Ph11	B-Ph12	B-Ph13	B-Ph14	B-Ph15	B-Ph16	aux-1	digaux	

2218.219	1	1	0	512	0.14486	0.12252	0.10234	0.24424	0.050225	0.19946	0.22635	0.19161	0.053753	0.23707	0.1677	0.25891	0.29949	0.16733	0.23649	0.19303	-3.0812	-3.2146	-3.5708	-3.3521	-3.3458	-3.6271	-3.4062	-3.3438	-3.5458	-3.2917	-3.625	-3.5687	-3.1688	-3.6292	-3.2271	-3.6042	154.285	275.272	0.374	251.009	266.156	33.510	277.964	153.708	196.748	105.374	244.575	260.847	252.727	286.490	316.091	247.802	0.00029102	0.00036394	8.2397e-05	521.07	2.7123e-06	2.8967e-06	742.3	149.21	2.0761e-06	4.2717e-06	265.78	104.32	52.245	24.908	1.5228e-06	54.375	4.6439e-05	2.6713e-05	7.9436e-06	483.38	3.1776e-07	2.5913e-07	687.59	138.21	2.9705e-07	2.7656e-07	245.5	96.672	48.689	23.237	3.5802e-07	50.125	108.835	54.278	47.989	-28.775	98.123	84.120	-29.104	-23.162	77.078	112.217	-23.762	-18.696	-17.466	-13.174	136.466	-15.251	-8191	255	
2218.315	1	1	0	0	0.18664	0.26802	0.10897	0.16133	0.14131	0.16539	0.26344	0.058323	0.060799	0.3136	0.22623	0.043368	0.12235	0.065917	0.20265	0.13986	-3.2292	-3.1125	-3.6333	-3.3729	-3.1729	-3.7104	-3.4958	-3.2771	-3.6458	-3.3083	-3.6458	-3.4167	-3.1958	-3.6125	-3.2771	-3.2708	269.921	85.547	-1.341	47.251	282.377	244.024	290.644	147.338	251.016	276.378	104.949	180.296	-13.885	-23.238	271.865	309.176	0.00026018	0.00026603	7.6409e-05	522.51	3.5627e-06	2.6668e-06	743.06	149.23	1.6303e-06	2.2151e-06	267.35	104.21	52.877	25.233	2.2018e-06	54.541	4.3697e-05	2.6517e-05	8.6341e-06	483.92	3.0527e-07	2.7562e-07	691.68	138.64	2.8181e-07	3.0962e-07	247.13	97.043	48.823	23.414	3.3883e-07	50.413	110.994	10.678	52.282	-29.618	110.196	84.323	-29.248	-22.978	88.888	85.647	-23.893	-18.896	-18.255	-12.807	144.726	-15.016	-8191	255	
2218.434	1	1	0	0	0.10936	0.037132	0.026288	0.21347	0.059352	0.12973	0.44626	0.10076	0.24635	0.16774	0.12701	0.18746	0.25899	0.27377	0.18056	0.11648	-3.2354	-3.2375	-3.3292	-3.5146	-3.25	-3.5771	-3.5875	-3.1604	-3.5667	-3.2417	-3.4979	-3.55	-3.0458	-3.3812	-3.3917	-3.35	26.441	257.716	132.907	217.296	313.328	31.730	238.387	60.210	190.380	242.159	262.146	227.859	144.729	309.284	152.693	216.992	0.00024634	0.00026271	9.9766e-05	519.98	1.0267e-06	1.7674e-06	746.46	151.19	2.5648e-06	3.4637e-06	270.93	105.73	53.185	25.429	1.468e-06	55.453	4.3491e-05	2.9696e-05	8.7152e-06	484.38	3.0797e-07	3.0358e-07	691.87	139.87	2.8685e-07	3.2023e-07	249.34	98.009	49.451	23.69	3.3853e-07	50.933	102.465	17.776	54.686	-29.137	110.269	86.242	-29.256	-23.007	105.366	109.172	-23.757	-18.944	-17.831	-13.079	130.580	-15.291	-8191	255	
2218.530	1	1	0	0	0.090301	0.13542	0.081016	0.15931	0.18335	0.12738	0.27886	0.17982	0.21811	0.17537	0.1156	0.052358	0.048974	0.35971	0.026084	0.1765	-3.2667	-3.2542	-3.2792	-3.35	-3.1708	-3.5625	-3.6813	-3.0083	-3.4625	-3.2417	-3.4042	-3.7583	-3.1208	-3.4813	-3.5167	-3.2833	35.538	-8.663	11.365	64.687	-10.082	42.980	157.873	132.488	46.761	33.392	217.591	174.412	147.577	-5.669	47.187	-7.944	0.00027527	0.00034004	4.2847e-05	525.5	1.4681e-06	3.4967e-06	749.99	152.25	1.7796e-06	4.4386e-06	269.97	106.26	53.561	25.712	2.5687e-06	55.18	4.5585e-05	3.1316e-05	8.4394e-06	487.17	3.1609e-07	3.3322e-07	694.44	140.77	3.3188e-07	3.5703e-07	250.18	98.264	49.568	23.863	3.2647e-07	50.948	106.999	30.945	68.271	-29.127	132.535	83.325	-29.062	-23.062	94.500	125.790	-23.860	-19.066	-17.657	-13.002	121.868	-14.879	-8191	255	
2218.626	1	1	0	0	0.27113	0.18735	0.054826	0.14688	0.055424	0.087508	0.16004	0.2859	0.096263	0.25103	0.16193	0.27632	0.097459	0.26315	0.15929	0.27065	-3.2083	-3.1729	-3.5021	-3.7646	-3.2562	-3.3375	-3.6229	-3.0979	-3.5708	-3.3	-3.2354	-3.6646	-3.2083	-3.5708	-3.4562	-3.2646	88.223	52.000	252.172	-32.314	139.540	158.325	292.781	35.341	93.626	104.370	189.543	-7.663	132.216	29.004	92.904	293.805	0.00031684	0.00029624	8.2451e-05	527.31	2.1853e-06	3.1617e-06	751.01	152.59	1.6243e-06	1.4599e-06	269.81	103.88	52.422	24.861	1.488e-06	54.036	4.8304e-05	3.1712e-05	8.0199e-06	487.64	3.2645e-07	3.376e-07	696.5	140.33	3.4089e-07	3.2058e-07	247.9	96.371	48.574	23.09	3.2168e-07	49.826	106.523	36.978	70.954	-29.041	104.790	90.648	-29.231	-23.185	117.173	120.227	-23.579	-18.844	-17.480	-12.811	130.789	-14.955	-8191	255	
2218.698	1	1	0	0	0.15693	0.2382	0.19178	0.12637	0.18056	0.17728	0.13297	0.15764	0.23055	0.27814	0.21659	0.12268	0.34911	0.050443	0.24821	0.1667	-3.1042	-3.3292	-3.3042	-3.6167	-3.2833	-3.3958	-3.5708	-3.0083	-3.5604	-3.4188	-3.2792	-3.6521	-3.2458	-3.3563	-3.5792	-3.1333	235.837	307.086	187.683	301.269	-31.371	-7.715	26.971	278.906	251.807	-25.669	-29.943	267.144	247.032	29.240	-31.625	-16.589	0.00027193	0.00033125	8.8177e-05	528.01	2.0164e-06	3.6446e-06	749.15	150.43	3.4814e-06	3.4013e-06	267.57	103.13	52.078	24.638	1.9026e-06	53.005	5.0152e-05	3.0429e-05	8.3016e-06	487.42	3.5532e-07	3.2291e-07	695.05	139.49	3.3864e-07	3.077e-07	246.5	95.788	48.321	22.865	2.9668e-07	49.041	96.619	20.171	37.248	-29.185	118.881	87.709	-29.119	-23.112	129.706	101.132	-23.527	-18.688	-18.087	-12.835	129.265	-14.614	-8191	255	
2218.819	1	1	0	0	0.11973	0.13518	0.20062	0.17033	0.048671	0.0705	0.08029	0.076696	0.093027	0.094738	0.074845	0.16397	0.23628	0.19642	0.17281	0.34042	-3.1771	-3.5208	-3.2062	-3.4188	-3.3292	-3.3104	-3.6792	-3.2896	-3.3479	-3.5521	-3.4583	-3.7083	-3.3021	-3.2917	-3.6312	-3.325	174.594	24.584	35.652	102.132	-31.666	95.778	306.960	-38.363	108.782	59.542	11.991	281.549	126.282	266.374	191.473	231.904	0.00025403	0.00026941	8.832e-05	526.92	2.3056e-06	2.5038e-06	749.73	149.23	2.8313e-06	2.2467e-06	265.88	103.1	51.608	24.332	1.555e-06	52.912	5.0083e-05	2.8217e-05	7.7813e-06	486.91	3.3399e-07	3.1176e-07	693.46	138.93	3.5743e-07	2.859e-07	245.35	95.103	48.02	22.61	2.92e-07	48.868	104.211	46.316	29.288	-29.209	139.923	75.864	-29.060	-22.904	112.377	142.257	-23.536	-18.834	-17.710	-12.572	91.396	-14.776	-8191	255	
2218.915	1	1	0	0	0.22804	0.25584	0.043669	0.20545	0.16001	0.13721	0.31451	0.095807	0.20034	0.16947	0.23217	0.038758	0.1736	0.11812	0.09221	0.020672	-2.9021	-3.4854	-3.1021	-3.6521	-3.5938	-3.2979	-3.6229	-3.5542	-3.3563	-3.5396	-3.2146	-3.5417	-3.3104	-3.2104	-3.7104	-3.2125	307.353	123.800	315.768	231.396	197.385	234.718	233.577	142.817	32.152	167.281	256.403	217.379	139.082	63.419	172.162	-36.653	0.00027735	0.00035724	5.4765e-05	526.77	3.3284e-06	1.1127e-06	747.12	150.01	1.8409e-06	2.3454e-06	265.63	103.12	51.706	24.463	3.2343e-06	52.826	4.9424e-05	2.9199e-05	7.5916e-06	486.82	3.5326e-07	2.8758e-07	693.58	139.19	3.3409e-07	2.9832e-07	245.06	95.567	48.16	22.683	2.8745e-07	48.898	107.284	27.506	42.965	-29.201	104.902	77.971	-28.871	-22.749	122.837	112.371	-23.497	-18.972	-17.987	-12.968	118.496	-14.889	-8191	255	
2219.011	1	1	0	0	0.22132	0.11886	0.13021	0.21573	0.27872	0.17726	0.23967	0.27994	0.097772	0.064381	0.20446	0.20494	0.10883	0.26684	0.20647	0.28101	-2.9729	-3.5187	-3.1479	-3.6063	-3.3979	-3.2667	-3.8312	-3.4354	-3.3021	-3.6063	-3.2625	-3.5875	-3.3771	-3.1188	-3.6479	-3.25	104.734	152.407	259.493	7.871	151.290	56.284	258.479	277.157	143.065	299.371	294.843	261.938	-32.794	143.948	153.291	46.861	0.00024982	0.00037185	0.00010002	525.24	2.3268e-06	2.6836e-06	752.35	151.48	2.6289e-06	3.2499e-06	266.81	103.74	52.392	24.634	3.334e-06	53.189	4.8384e-05	2.6423e-05	7.2894e-06	487.59	3.3349e-07	3.0088e-07	696.73	139.6	3.3944e-07	2.7206e-07	246.83	96.361	48.449	22.933	3.1314e-07	49.358	110.332	40.212	48.512	-29.275	113.571	60.530	-29.087	-23.078	107.454	106.005	-23.613	-19.191	-17.883	-12.925	110.869	-14.579	-8191	255	
2219.107	1	1	0	0	0.26534	0.34899	0.25442	0.30439	0.1073	0.11814	0.15061	0.13112	0.22671	0.1354	0.021384	0.26567	0.17954	0.18173	0.12235	0.064699	-2.8875	-3.575	-3.1021	-3.4729	-3.4854	-3.0042	-3.7188	-3.4375	-3.2062	-3.7604	-3.2229	-3.4979	-3.7521	-3.2167	-3.5479	-3.3604	-27.405	106.991	98.199	300.696	263.928	111.375	149.246	207.465	73.732	147.215	94.977	-3.598	-27.245	279.250	75.811	-29.302	0.00027139	0.00029446	8.242e-05	527.59	1.8069e-06	2.6347e-06	745.78	150.09	2.724e-06	3.4507e-06	267.34	104.27	52.555	24.794	1.5358e-06	53.422	4.7935e-05	2.5897e-05	7.9642e-06	487.19	3.1285e-07	2.7382e-07	693.46	139.72	3.1771e-07	2.5787e-07	247.07	96.539	48.765	23.096	3.4703e-07	49.5	103.778	31.796	56.088	-29.302	67.745	117.330	-29.185	-22.994	80.145	121.726	-23.606	-18.672	-17.935	-12.786	103.121	-15.004	-8191	255	
2219.226	1	1	0	0	0.06898	0.14919	0.14279	0.1641	0.12125	0.081213	0.29589	0.20333	0.21364	0.094719	0.35344	0.2919	0.31339	0.12253	0.12317	0.21712	-2.7313	-3.5021	-3.1688	-3.2354	-3.5083	-3.1437	-3.5208	-3.225	-3.3208	-3.6521	-3.2917	-3.3937	-3.4583	-3.1667	-3.5833	-3.6917	-37.348	184.202	274.675	254.035	128.439	1.916	230.135	84.691	238.475	45.834	300.039	-35.037	49.095	286.838	-40.687	-38.582	0.00025988	0.00026313	9.3385e-05	525.18	2.4066e-06	3.2944e-06	751.74	151.63	6.9691e-07	2.6744e-06	271.12	106.31	53.399	25.448	5.4093e-07	54.794	4.7846e-05	2.3759e-05	8.2351e-06	486.75	3.1033e-07	2.8174e-07	696.6	140.58	3.1419e-07	2.6475e-07	249.85	98.253	49.686	23.77	3.7291e-07	50.718	106.059	17.453	65.620	-29.183	93.707	120.403	-29.313	-23.021	82.808	122.771	-23.874	-18.847	-17.906	-12.801	138.995	-15.331	-8191	255	
2219.300	1	1	0	0	0.10038	0.19162	0.16824	0.02096	0.11271	0.16527	0.29141	0.05183	0.13839	0.19766	0.078364	0.077842	0.07323	0.20652	0.15215	0.13044	-2.7812	-3.7146	-3.3458	-3.3979	-3.7229	-3.0708	-3.6833	-3.5167	-3.2062	-3.5667	-3.3563	-3.4146	-3.5667	-3.3875	-3.575	-3.6583	221.240	283.585	168.516	141.163	225.321	64.633	191.039	87.018	223.215	-2.370	235.452	144.472	277.162	317.150	103.340	-23.203	0.00026978	0.00022207	7.236e-05	527.28	3.2909e-06	3.6923e-06	751.57	153.57	2.188e-06	2.1276e-06	273.89	108.33	55.352	26.43	2.2679e-06	56.12	4.9129e-05	2.6566e-05	8.7436e-06	489.38	2.9986e-07	2.9531e-07	697.35	142.57	3.1668e-07	3.1004e-07	252.95	100.61	51.218	24.542	3.4806e-07	52.081	110.401	24.701	18.776	-29.062	102.804	102.662	-29.338	-22.780	91.484	156.777	-23.404	-19.013	-17.971	-12.891	126.327	-14.868	-8191	255	
2219.396	1	1	0	0	0.15856	0.18598	0.034427	0.10758	0.14786	0.27821	0.1643	0.12896	0.15284	0.050847	0.11333	0.11033	0.11487	0.18956	0.034417	0.11676	-2.7854	-3.5667	-3.3604	-3.2792	-3.6875	-3.4771	-3.4292	-3.4437	-3.2125	-3.4104	-3.4979	-3.3625	-3.5792	-3.1562	-3.5812	-3.6542	194.623	8.075	-20.108	155.192	133.650	40.286	214.604	94.393	266.117	242.122	317.649	262.352	299.210	9.764	202.739	274.166	0.00030016	0.00032583	0.00011577	526.74	2.3824e-06	2.4908e-06	756.31	154.06	1.3351e-06	2.3623e-06	277.42	110.45	56.037	26.683	1.9867e-06	57.246	4.6958e-05	3.0061e-05	8.8443e-06	488.48	3.0763e-07	3.4714e-07	701.32	143.77	3.1339e-07	3.1731e-07	256.03	102.09	51.986	24.903	3.4201e-07	52.849	112.208	33.971	61.332	-29.001	109.871	123.976	-28.753	-22.986	89.423	105.753	-23.385	-18.900	-18.365	-13.137	138.537	-15.130	-8191	255	
2219.515	1	1	0	0	0.17403	0.20687	0.2539	0.20714	0.13085	0.11339	0.26458	0.14518	0.077168	0.11968	0.17285	0.2784	0.070213	0.36385	0.1466	0.17787	-2.8333	-3.6083	-3.5333	-3.2604	-3.4771	-3.5833	-3.5438	-3.5917	-3.2208	-3.4688	-3.5646	-3.1562	-3.6875	-3.3292	-3.1875	-3.8688	244.936	223.401	196.738	103.975	140.673	116.354	239.371	79.628	138.126	255.622	215.219	287.542	68.764	315.556	157.069	303.038	0.00028727	0.00027476	0.00015242	529.82	2.1735e-06	2.3706e-06	754.95	156.52	3.1558e-06	3.5696e-06	279.27	112.04	57.625	27.928	3.1175e-06	58.425	4.8969e-05	3.1344e-05	8.4062e-06	489.42	2.9929e-07	3.4544e-07	698.76	145.34	3.3444e-07	3.4622e-07	257.94	104.02	53.441	25.903	3.5982e-07	54.063	110.465	40.842	37.454	-28.905	136.452	95.561	-29.029	-22.782	118.179	154.972	-23.627	-18.968	-18.061	-13.403	130.908	-15.064	-8191	255	
2219.611	1	1	0	0	0.17352	0.11431	0.23026	0.10396	0.35294	0.35799	0.11038	0.20073	0.19864	0.24622	0.072975	0.0060587	0.1726	0.21771	0.071914	0.15675	-2.6083	-3.6562	-3.275	-3.3479	-3.4271	-3.2812	-3.3208	-3.7958	-3.2229	-3.5021	-3.5625	-3.2771	-3.6458	-3.4521	-3.325	-3.7104	91.023	24.822	224.120	279.002	-31.747	157.207	-22.410	53.162	21.709	245.199	40.761	51.817	-28.340	59.349	186.432	7.798	0.00028866	0.00035915	7.4015e-05	524.81	2.5296e-06	2.834e-06	750.48	159.1	2.8738e-06	2.7192e-06	280.98	113.66	58.865	28.739	2.5144e-06	60.036	5.2333e-05	3.2753e-05	8.0004e-06	486.55	3.4111e-07	3.5056e-07	695.81	147.37	3.5567e-07	3.4288e-07	259.35	105.34	54.672	26.718	3.4155e-07	55.322	102.432	66.071	46.175	-29.438	110.290	92.470	-28.947	-22.528	108.207	113.309	-23.495	-18.914	-17.899	-13.126	102.698	-15.257	-8191	255	
2219.707	1	1	0	0	0.054356	0.030308	0.29586	0.099642	0.13222	0.20866	0.16057	0.20802	0.02424	0.21286	0.14316	0.25842	0.11271	0.21193	0.13218	0.32043	-2.9396	-3.4062	-3.4542	-3.2208	-3.6708	-3.5208	-3.4125	-3.4292	-3.3104	-3.3688	-3.3604	-3.1021	-3.5625	-3.4313	-3.2958	-3.6625	173.050	125.211	31.777	173.562	55.489	253.533	238.292	309.782	240.539	256.031	118.049	251.133	278.249	218.922	28.910	276.343	0.00028827	0.00038149	0.00012518	525.9	2.6988e-06	3.3623e-06	753.2	159.92	2.4488e-06	4.2433e-06	283.56	114.94	60.214	29.245	1.921e-06	60.821	5.3001e-05	3.2203e-05	7.6835e-06	488.86	3.6099e-07	3.3403e-07	699.05	148.01	3.7633e-07	3.3988e-07	261.55	107.15	55.616	27.201	3.3202e-07	56.118	103.283	26.510	46.078	-28.987	109.137	62.093	-28.961	-22.943	94.933	110.909	-23.541	-19.026	-17.853	-13.371	117.957	-15.252	-8191	255	
2219.803	1	1	0	0	0.16788	0.28417	0.26833	0.21763	0.04758	0.16952	0.081082	0.046411	0.19645	0.18529	0.11314	0.20595	0.1203	0.23324	0.090804	0.13591	-2.7562	-3.2708	-3.5625	-3.1708	-3.4667	-3.4104	-3.4625	-3.7687	-3.3396	-3.35	-3.6292	-3.2708	-3.45	-3.5583	-3.2042	-3.6	102.534	239.091	261.043	257.301	27.876	144.654	291.410	77.325	-38.161	9.776	-10.697	-27.664	152.094	50.096	318.702	217.192	0.00026543	0.00034349	0.00010557	531.48	2.7103e-06	3.867e-06	752.42	162.43	3.5705e-06	3.8413e-06	289.24	118.18	61.466	30.098	1.7262e-06	61.844	5.4324e-05	3.1032e-05	7.4997e-06	489.93	3.7398e-07	3.1253e-07	701.08	150.38	3.8095e-07	3.1981e-07	266.17	109.74	56.965	27.927	3.3428e-07	57.154	106.396	58.055	33.602	-28.873	64.394	87.938	-28.890	-22.914	111.228	101.995	-23.671	-19.247	-18.042	-13.446	125.874	-15.052	-8191	255	
2219.899	1	1	0	0	0.2838	0.194	0.24568	0.054236	0.20055	0.1616	0.23235	0.21125	0.057506	0.066066	0.14196	0.28148	0.14094	0.19202	0.046769	0.3154	-2.9604	-3.2146	-3.5604	-3.1667	-3.4104	-3.3833	-3.4667	-3.5667	-3.45	-3.1875	-3.7417	-3.4479	-3.5563	-3.6792	-3.1562	-3.6854	271.443	228.414	43.923	250.697	32.413	244.395	304.472	230.724	14.211	164.062	225.956	301.764	23.721	290.742	5.851	218.138	0.00031993	0.00028539	8.3122e-05	529.09	2.8644e-06	2.3219e-06	750.99	163.27	3.3432e-06	4.2134e-06	286.44	118.92	62.272	30.337	2.1061e-06	61.892	5.4603e-05	2.922e-05	7.442e-06	489.58	3.7463e-07	3.0631e-07	701.17	151.24	3.737e-07	3.3392e-07	265.45	110.34	57.559	28.306	3.2145e-07	57.529	104.968	31.367	34.628	-28.731	104.984	61.101	-29.019	-22.942	104.187	94.065	-23.431	-19.160	-18.188	-13.300	110.157	-15.638	-8191	255	
2219.995	1	1	0	0	0.13925	0.18539	0.19057	0.21403	0.14082	0.070569	0.18854	0.28011	0.043623	0.13577	0.23977	0.23545	0.11902	0.15531	0.034965	0.21121	-3.0021	-3.0979	-3.4583	-3.3625	-3.1271	-3.575	-3.3146	-3.3521	-3.4437	-3.1896	-3.5187	-3.3646	-3.4854	-3.7167	-3.1	-3.5312	134.842	-15.343	-8.527	232.776	191.851	132.330	243.312	213.834	139.030	61.082	-29.808	315.389	312.128	286.917	227.257	287.217	0.00030504	0.0004193	0.0001234	532.48	4.4318e-06	3.3325e-06	755.88	163.38	2.9847e-06	1.9372e-06	289.06	118.79	61.735	30.005	1.4756e-06	61.706	5.3314e-05	2.9742e-05	7.4596e-06	490.99	3.5779e-07	3.0219e-07	702.07	151.29	3.3447e-07	3.1531e-07	266.29	110.07	57.298	28.044	3.4921e-07	57.222	107.260	52.663	57.514	-28.884	100.093	92.019	-28.906	-22.923	106.110	123.449	-23.720	-19.286	-18.156	-13.432	112.385	-15.193	-8191	255	
2220.116	1	1	0	0	0.065907	0.11565	0.12972	0.22882	0.12341	0.066045	0.28796	0.098811	0.041499	0.10875	0.26637	0.20076	0.026114	0.10193	0.1502	0.11777	-3.0979	-3.1708	-3.5521	-3.2771	-3.2354	-3.6833	-3.1562	-3.4	-3.5438	-3.0563	-3.5833	-3.3708	-3.2646	-3.6875	-3.3604	-3.5687	-10.844	80.883	253.400	44.171	90.875	114.066	15.437	305.961	315.507	118.201	246.053	318.167	35.127	284.797	185.042	244.041	0.00030693	0.00037038	0.00010906	531.06	2.7208e-06	3.6037e-06	765.29	160.45	1.4791e-06	3.8156e-06	287.24	118.12	61.41	29.98	2.3147e-06	62.531	5.1628e-05	2.8792e-05	8.4815e-06	490.8	3.4572e-07	2.8166e-07	706.87	150.23	3.2401e-07	3.2266e-07	265.66	109.34	56.727	27.922	3.9213e-07	57.447	103.494	15.172	46.188	-29.081	90.296	95.473	-29.048	-22.432	94.026	120.469	-23.506	-19.259	-17.695	-13.615	106.411	-15.173	-8191	255	
2220.212	1	1	0	0	0.15928	0.34545	0.12239	0.3855	0.14204	0.069335	0.10693	0.15025	0.10868	0.20934	0.11062	0.20157	0.042292	0.17048	0.165	0.13113	-3.2729	-3.125	-3.4875	-3.3729	-3.2104	-3.6167	-3.2021	-3.5312	-3.5479	-3.3667	-3.4938	-3.4938	-3.4917	-3.6833	-3.4062	-3.3875	141.314	214.314	280.770	285.282	312.233	186.970	283.144	115.124	105.057	21.699	193.862	223.647	85.962	201.452	252.597	-38.112	0.00030175	0.00036556	5.6384e-05	529.38	2.7752e-06	3.388e-06	761.98	161.27	2.461e-06	2.5064e-06	287.84	117.41	61.144	29.845	1.3432e-06	61.825	5.2369e-05	2.9738e-05	9.1123e-06	491.43	3.5337e-07	3.0381e-07	707.48	150.56	3.263e-07	3.0947e-07	265.59	109.18	56.546	27.745	3.9397e-07	56.923	102.057	40.351	47.488	-29.045	104.718	94.947	-28.978	-23.193	111.607	150.028	-23.783	-18.946	-17.402	-13.322	129.360	-15.305	-8191	255	
2220.306	1	1	0	0	0.24623	0.094754	0.23316	0.19689	0.10211	0.19767	0.080624	0.22052	0.11401	0.1356	0.13451	0.29211	0.081571	0.094885	0.34241	0.10934	-3.2062	-3.15	-3.5187	-3.3896	-3.2625	-3.6854	-3.3	-3.4771	-3.5854	-3.1667	-3.5146	-3.4938	-3.2313	-3.3667	-3.4021	-3.325	22.542	146.099	248.703	-27.208	101.189	134.508	107.398	191.702	-9.746	318.588	210.676	252.807	268.802	53.687	253.202	191.420	0.00027748	0.00031742	7.7422e-05	530.5	1.2962e-06	1.5695e-06	764.88	162.36	1.528e-06	2.8327e-06	285.55	117.49	61.219	29.78	2.4815e-06	61.215	5.2622e-05	3.119e-05	9.787e-06	492.73	3.4336e-07	3.1123e-07	707.22	150.57	3.1511e-07	3.5303e-07	264	108.75	56.609	27.743	3.9849e-07	56.651	101.937	57.236	8.599	-29.402	117.523	92.871	-29.032	-22.992	79.064	149.034	-23.670	-19.133	-17.724	-13.670	129.433	-15.528	-8191	255	
2220.403	1	1	0	0	0.1669	0.16131	0.14186	0.093931	0.17701	0.060302	0.11629	0.23237	0.092138	0.09069	0.18608	0.18663	0.21716	0.074257	0.14924	0.16025	-3.2687	-3.1542	-3.2479	-3.5125	-3.0021	-3.6312	-3.4313	-3.3896	-3.6729	-3.075	-3.5521	-3.4583	-3.1562	-3.6792	-3.3125	-3.3917	-35.088	214.162	124.285	197.588	293.275	133.015	76.516	139.702	285.143	283.984	39.283	215.943	154.216	17.285	91.673	314.252	0.00026545	0.00030233	0.00011601	534.07	2.5677e-06	2.453e-06	768.27	165.38	2.4176e-06	3.5126e-06	292.03	120.53	62.402	30.503	2.314e-06	62.494	5.0302e-05	3.3917e-05	9.8672e-06	495.71	3.3821e-07	3.6532e-07	711.9	152.86	3.5216e-07	3.8786e-07	270.13	111.41	58.121	28.456	4.0933e-07	57.902	104.503	45.625	62.079	-28.953	92.346	90.087	-28.774	-22.996	94.062	122.123	-23.556	-19.126	-17.858	-13.146	101.341	-15.211	-8191	255	
2220.523	1	1	0	0	0.15427	0.18506	0.24567	0.2288	0.20137	0.14646	0.15509	0.16201	0.089189	0.12005	0.21274	0.15096	0.15224	0.22471	0.32376	0.07711	-3.3229	-3.1042	-3.3208	-3.5854	-2.9625	-3.4708	-3.4813	-3.2625	-3.5	-3.1354	-3.2667	-3.6521	-3.1271	-3.4125	-3.4396	-3.2	157.178	144.216	13.933	293.098	277.667	-21.368	47.426	-2.701	57.374	271.053	278.311	215.734	29.379	300.758	318.247	191.007	0.00032647	0.00035184	0.00014291	538.86	2.8842e-06	4.2189e-06	775.01	165.28	3.0699e-06	3.5877e-06	293.34	120.65	62.988	30.396	1.9418e-06	62.375	5.5697e-05	3.7135e-05	1.0088e-05	499.93	3.6697e-07	4.1615e-07	716.86	153.34	3.6816e-07	3.9528e-07	270.98	111.62	58.371	28.397	3.7437e-07	57.822	103.035	52.319	39.253	-29.265	102.851	100.343	-28.947	-22.919	116.364	105.487	-23.619	-18.929	-17.950	-13.166	119.335	-15.570	-8191	255	
2220.595	1	1	0	0	0.10645	0.25018	0.073016	0.32337	0.29587	0.31129	0.21222	0.30798	0.17981	0.14457	0.067372	0.18333	0.044943	0.19828	0.22346	0.1899	-3.1458	-3.3167	-3.3021	-3.5687	-3.2729	-3.5208	-3.55	-3.3833	-3.825	-3.4833	-3.3021	-3.7979	-3.4479	-3.6292	-3.5875	-3.2354	94.126	229.015	238.028	-10.149	293.524	175.286	310.145	190.862	75.455	290.108	122.779	-28.299	149.018	310.612	316.297	220.779	0.00033252	0.00024524	5.8943e-05	542.02	2.4609e-06	6.0304e-06	775.65	162.31	4.1501e-06	1.2494e-06	289.48	117.1	61.259	29.557	2.4477e-06	60.485	5.5614e-05	3.7552e-05	9.5601e-06	501.19	3.8308e-07	3.9792e-07	718.57	151.04	3.7446e-07	3.8117e-07	266.95	108.51	56.792	27.445	3.4776e-07	55.995	109.635	26.309	54.657	-29.111	85.951	78.013	-29.229	-22.668	98.658	66.781	-23.583	-18.798	-17.847	-12.990	112.031	-15.080	-8191	255	
2220.691	1	1	0	0	0.10936	0.26133	0.15129	0.1162	0.15997	0.12747	0.27716	0.18291	0.20846	0.149	0.16749	0.2786	0.066529	0.1968	0.19213	0.1751	-3.1354	-3.3521	-3.0729	-3.65	-3.0687	-3.3417	-3.6583	-3.2125	-3.4437	-3.3771	-3.3042	-3.6917	-3.2562	-3.2083	-3.4521	-3.4	262.569	42.989	148.491	290.421	302.617	178.533	6.092	268.026	228.257	280.779	-25.256	125.956	276.417	255.066	174.621	198.897	0.0002899	0.00027103	7.9828e-05	543.53	1.7777e-06	3.671e-06	769.56	162.1	3.3095e-06	3.3172e-06	286.39	116.18	60.422	28.895	5.5243e-07	58.875	5.6628e-05	3.4457e-05	8.9597e-06	503.78	4.2132e-07	3.6336e-07	712.72	150.49	4.128e-07	3.513e-07	263.8	107.44	56.12	26.904	3.4052e-07	54.566	105.613	53.435	89.191	-29.068	99.352	91.747	-29.001	-22.843	76.753	133.575	-23.527	-18.849	-17.931	-13.086	120.432	-15.321	-8191	255	
2220.787	1	1	0	0	0.21543	0.21142	0.14978	0.3177	0.047412	0.072572	0.087224	0.28138	0.2025	0.19599	0.16464	0.038127	0.15625	0.071864	0.35556	0.10729	-3.0625	-3.5792	-3.2646	-3.6479	-3.2458	-3.1208	-3.5687	-3.125	-3.5438	-3.4417	-2.9854	-3.5417	-3.4167	-3.4354	-3.4396	-3.3021	20.316	92.403	205.332	-37.392	87.862	49.335	154.211	298.097	281.882	104.390	137.745	260.837	204.193	174.620	238.605	287.363	0.00028004	0.00053682	0.00012464	542.27	2.7962e-06	2.2619e-06	768.31	160.19	2.6141e-06	3.6892e-06	285.89	114.92	60.621	28.848	1.7451e-06	59.171	5.5484e-05	3.2718e-05	8.5861e-06	502.04	3.9649e-07	3.5206e-07	714.28	149.69	3.8817e-07	3.2466e-07	263.42	106.96	56.136	26.802	3.3125e-07	54.64	110.925	25.821	52.736	-29.162	112.001	84.185	-29.014	-23.200	75.426	137.667	-23.666	-18.689	-17.752	-12.938	126.873	-15.224	-8191	255	
2220.908	1	1	0	0	0.055531	0.1764	0.17364	0.1494	0.056835	0.094718	0.14479	0.11377	0.32787	0.072505	0.13982	0.10464	0.090137	0.02687	0.11471	0.1721	-3.2083	-3.4646	-3.0438	-3.7208	-3.4229	-3.2396	-3.7104	-3.2313	-3.3333	-3.6333	-3.2396	-3.7687	-3.6167	-3.2667	-3.6354	-3.4	235.766	308.372	242.518	229.931	-5.997	239.809	12.865	307.042	164.707	297.946	225.922	197.116	164.292	236.720	-0.217	261.784	0.00028763	0.00049787	9.7392e-05	539.24	4.4431e-06	1.7335e-06	769.34	162.82	4.2516e-06	2.9048e-06	286.01	116.15	60.467	28.688	2.0906e-06	58.944	5.5062e-05	3.0986e-05	8.4932e-06	501.82	3.9607e-07	3.3706e-07	713.81	150.45	3.9321e-07	3.5088e-07	263.69	107.4	56.103	26.751	3.3435e-07	54.564	103.248	44.079	45.504	-29.145	113.327	107.018	-29.200	-22.698	79.019	129.616	-23.704	-19.102	-18.409	-13.067	119.382	-15.125	-8191	255	
2221.004	1	1	0	0	0.064341	0.14099	0.13181	0.23916	0.12997	0.15826	0.23969	0.15814	0.084928	0.12875	0.11253	0.11674	0.16366	0.21392	0.13725	0.16342	-2.9	-3.6	-3.2271	-3.4104	-3.5396	-3.1375	-3.6875	-3.4583	-3.2792	-3.6125	-3.2604	-3.6375	-3.5146	-3.3875	-3.7042	-3.4479	221.959	297.501	177.811	200.380	-16.183	3.434	317.789	25.916	292.191	115.484	264.457	27.079	-40.765	271.999	222.014	295.670	0.00029126	0.0004183	9.8503e-05	543.67	2.4578e-06	3.546e-06	772.39	160.92	1.928e-06	4.3745e-06	283.6	114.58	59.7	28.501	2.1194e-06	58.044	5.351e-05	2.9549e-05	8.7729e-06	502.45	3.5631e-07	3.1888e-07	714.77	149.33	3.74e-07	3.1689e-07	261.86	106.49	55.606	26.445	3.7892e-07	53.845	99.860	62.475	59.478	-29.068	130.697	79.384	-28.855	-23.031	132.001	113.279	-23.534	-19.234	-17.874	-13.236	114.336	-15.425	-8191	255	
2221.100	1	1	0	0	0.26227	0.10654	0.28897	0.40517	0.12593	0.067565	0.11996	0.18867	0.20655	0.14032	0.12377	0.024805	0.14708	0.071081	0.13161	0.22884	-2.9833	-3.5896	-3.2313	-3.4562	-3.3875	-3.1208	-3.6958	-3.4604	-3.3375	-3.7083	-3.4521	-3.6333	-3.7062	-3.2687	-3.3771	-3.5833	280.819	224.435	13.894	283.887	108.307	278.591	-12.095	33.256	82.757	111.541	291.890	77.212	151.040	89.269	50.655	276.321	0.00028086	0.00026367	3.5027e-05	542.03	1.46e-06	3.197e-06	766.19	159.09	2.866e-06	3.7646e-06	280.65	111.96	58.427	27.47	2.8631e-06	56.906	5.3573e-05	2.8669e-05	8.6996e-06	501.45	3.5299e-07	3.0915e-07	710.17	147.25	3.5147e-07	2.9647e-07	258.15	103.97	54.01	25.521	3.7161e-07	52.581	110.520	42.864	40.707	-29.267	138.032	91.433	-29.257	-22.619	75.899	126.336	-23.442	-19.286	-17.777	-13.077	122.612	-15.276	-8191	255	
2221.196	1	1	0	0	0.19572	0.068631	0.1773	0.12524	0.041073	0.13145	0.22332	0.024398	0.18753	0.07736	0.035132	0.13927	0.19591	0.079868	0.28892	0.16791	-3.0104	-3.6354	-3.2458	-3.4146	-3.4979	-3.3333	-3.5938	-3.3792	-3.2188	-3.9083	-3.5104	-3.5146	-3.7792	-3.2979	-3.5521	-3.4896	16.392	41.457	30.603	238.987	121.492	258.181	-27.704	193.820	211.672	153.804	222.010	111.031	26.030	192.090	111.192	228.418	0.00025569	0.00020167	6.3552e-05	544.35	2.5546e-06	2.0897e-06	767.75	158.21	3.699e-06	3.4456e-06	281.96	112.12	57.78	27.349	3.4798e-06	56.28	5.1299e-05	2.8137e-05	8.8394e-06	502.78	3.218e-07	3.2042e-07	712.71	147.07	3.5437e-07	3.0332e-07	258.5	103.63	53.564	25.367	3.885e-07	52.155	102.748	38.340	23.710	-29.168	109.767	99.222	-29.295	-23.052	98.217	96.384	-23.953	-18.823	-17.906	-13.236	118.845	-15.482	-8191	255	
2221.291	1	1	0	0	0.051635	0.11368	0.14794	0.27322	0.071634	0.23693	0.34347	0.028916	0.19258	0.071284	0.11966	0.16308	0.060365	0.054894	0.15135	0.16277	-2.8875	-3.6917	-3.375	-3.3354	-3.6458	-3.2646	-3.5938	-3.5312	-3.3583	-3.6312	-3.6688	-3.3854	-3.7271	-3.2271	-3.575	-3.6417	182.700	24.591	106.047	302.954	270.943	83.497	242.014	309.940	231.375	49.723	207.321	-1.368	216.832	-29.861	117.345	305.916	0.00028607	0.00019032	0.000111	542.64	2.0809e-06	3.6779e-06	773.76	157.87	2.9236e-06	2.024e-06	279.76	110.38	56.615	26.627	1.7271e-06	55.247	5.0917e-05	3.0008e-05	9.0673e-06	501.78	2.9773e-07	3.521e-07	717.47	145.83	3.3027e-07	3.2496e-07	257.22	102.33	52.431	24.709	3.8861e-07	51.309	112.363	47.345	42.779	-28.933	56.129	116.612	-29.033	-22.577	95.393	121.416	-24.037	-18.897	-18.277	-13.132	114.946	-15.202	-8191	255	
2221.387	1	1	0	0	0.2846	0.21698	0.21055	0.19931	0.21058	0.36725	0.17964	0.090776	0.058124	0.20302	0.18448	0.21445	0.1708	0.072431	0.27356	0.068844	-2.8104	-3.5125	-3.4521	-3.2792	-3.6479	-3.4833	-3.2646	-3.6188	-3.2562	-3.6333	-3.4542	-3.3417	-3.6813	-3.2625	-3.3563	-3.6521	304.793	193.582	183.584	229.323	254.045	6.832	308.601	269.883	0.891	-7.417	121.436	148.920	290.581	14.179	282.340	192.902	0.00026397	0.00020433	0.00012642	542.75	3.2435e-06	2.7451e-06	775.26	156.75	2.4169e-06	4.2885e-06	277.9	109.36	56.068	26.223	1.1656e-06	54.763	4.8823e-05	3.113e-05	9.566e-06	502.5	3.0999e-07	3.4491e-07	719.39	145.49	3.3726e-07	3.5099e-07	256.33	101.27	51.952	24.268	3.715e-07	50.63	108.220	64.516	32.206	-28.927	109.597	89.637	-29.066	-23.321	111.429	131.743	-23.720	-19.009	-17.627	-13.085	117.884	-14.955	-8191	255	
2221.485	1	1	0	0	0.095279	0.14356	0.11701	0.087464	0.25629	0.23135	0.28189	0.21481	0.098875	0.20773	0.34375	0.14947	0.22175	0.19432	0.05631	0.19307	-2.7771	-3.5812	-3.3271	-3.0521	-3.7313	-3.2354	-3.5167	-3.6583	-3.2833	-3.5729	-3.6188	-3.1521	-3.5646	-3.4896	-3.475	-3.6292	139.543	117.352	150.009	313.897	88.633	135.621	-2.343	165.847	44.644	219.801	305.404	15.334	283.243	310.886	173.588	-6.373	0.00028956	0.00032116	8.3763e-05	547.16	2.4641e-06	2.3397e-06	775.89	155.93	3.8371e-06	1.7351e-06	280.21	109.41	56.256	26.292	1.5833e-06	55.544	4.968e-05	3.2735e-05	8.6546e-06	503.36	3.3505e-07	3.6094e-07	719.35	144.8	3.4532e-07	3.6845e-07	257.29	101.41	52.077	24.429	3.62e-07	51.131	108.483	35.601	73.861	-29.049	114.234	111.043	-29.174	-23.303	110.936	131.128	-23.539	-19.089	-17.477	-12.619	143.380	-14.863	-8191	255	
2221.604	1	1	0	0	0.17393	0.1723	0.14222	0.13084	0.18246	0.09298	0.068322	0.19709	0.13373	0.067595	0.073058	0.15524	0.17059	0.19626	0.19671	0.45049	-2.9313	-3.5417	-3.5458	-3.2958	-3.6792	-3.3583	-3.3667	-3.7354	-3.3563	-3.5979	-3.475	-3.1833	-3.6458	-3.3167	-3.2458	-3.9	229.571	-32.837	54.112	191.861	-5.302	187.070	173.835	306.347	172.707	67.251	-1.332	234.434	287.066	9.310	20.265	293.507	0.00023899	0.00026638	9.4603e-05	545.99	1.3571e-06	5.5876e-06	775.99	157.29	2.419e-06	3.2907e-06	281.45	109.84	56.04	26.209	2.285e-06	54.742	5.1934e-05	3.3689e-05	8.4541e-06	503.93	3.5448e-07	3.5852e-07	720.57	145.48	3.6816e-07	3.4788e-07	258.49	101.66	51.934	24.25	3.5381e-07	50.486	105.324	50.889	41.395	-29.340	77.382	117.082	-28.939	-23.006	83.987	129.157	-23.662	-18.698	-17.629	-12.961	98.519	-14.945	-8191	255	
2221.700	1	1	0	0	0.1039	0.44418	0.26806	0.071567	0.15006	0.062972	0.297	0.027642	0.28026	0.23106	0.35831	0.15001	0.27673	0.086504	0.14046	0.16966	-2.8063	-3.3917	-3.6458	-3.2188	-3.5375	-3.5229	-3.2875	-3.8396	-3.3521	-3.2729	-3.4625	-3.3375	-3.5292	-3.2896	-3.0625	-3.6229	13.844	-38.685	61.368	-34.526	102.261	168.175	231.144	180.404	185.204	268.127	318.076	11.743	-12.947	144.538	251.966	279.832	0.00026983	0.00029661	3.6279e-05	545.76	1.7957e-06	2.0889e-06	778.08	155.64	2.2238e-06	2.8426e-06	278.1	108.55	55.761	25.772	2.0361e-06	54.424	5.4264e-05	3.3079e-05	8.017e-06	504.35	3.6023e-07	3.3353e-07	721.66	144.38	3.7213e-07	3.4361e-07	256.41	100.77	51.598	24.008	3.3975e-07	50.353	109.390	56.368	52.079	-29.112	118.458	101.270	-28.778	-23.189	101.980	114.819	-23.558	-18.873	-17.961	-13.043	120.015	-15.143	-8191	255	
2221.796	1	1	0	0	0.2592	0.15108	0.29079	0.13582	0.16655	0.15555	0.13466	0.038579	0.067293	0.14502	0.1417	0.06772	0.094063	0.12314	0.22762	0.0471	-2.7812	-3.2208	-3.4521	-3.3937	-3.5438	-3.4167	-3.2604	-3.6521	-3.1667	-3.2083	-3.5667	-3.25	-3.4542	-3.425	-3.0521	-3.8521	143.601	177.352	134.581	19.401	-29.572	33.964	212.594	248.436	27.821	221.230	257.757	282.737	138.707	213.525	70.399	53.758	0.00027463	0.00023075	0.00010258	540.17	3.7475e-06	8.9398e-07	768.24	155.02	2.7593e-06	2.7255e-06	273.93	107.15	54.687	25.317	1.73e-06	53.339	5.2875e-05	3.0611e-05	7.4537e-06	501.46	3.8186e-07	3.1676e-07	714.77	143.49	3.7908e-07	3.378e-07	252.91	99.047	50.759	23.482	3.1854e-07	49.206	103.928	40.068	15.608	-29.151	97.331	132.195	-29.009	-23.031	95.394	136.652	-23.449	-18.729	-17.987	-12.829	119.848	-14.907	-8191	255	
2221.892	1	1	0	0	0.13214	0.11452	0.13373	0.1763	0.36549	0.13223	0.25314	0.1128	0.13882	0.072713	0.11807	0.062864	0.14273	0.096063	0.089778	0.07403	-2.8375	-3.2375	-3.4938	-3.175	-3.4562	-3.6875	-3.2354	-3.6604	-3.1771	-3.1792	-3.5667	-3.3583	-3.3771	-3.6792	-3.1625	-3.5146	287.539	97.340	249.880	-37.348	35.379	124.735	245.393	208.097	269.874	71.292	248.983	168.262	75.636	118.989	1.364	240.551	0.00031093	0.00044431	8.7747e-05	539.16	3.1828e-06	3.8525e-06	763.68	153.5	2.2508e-06	2.9302e-06	272.27	105.95	54.373	25.123	2.3485e-06	53.166	5.1728e-05	2.9686e-05	7.3295e-06	498.79	3.6118e-07	3.0096e-07	708.09	142.4	3.5647e-07	3.2335e-07	250.98	98.598	50.521	23.35	3.2023e-07	49.045	104.899	33.655	64.911	-29.413	121.153	101.172	-29.237	-23.072	70.443	99.672	-23.246	-19.000	-17.776	-12.903	124.992	-14.881	-8191	255	
2221.988	1	1	0	0	0.1524	0.10998	0.20005	0.12191	0.16824	0.0994	0.40644	0.023377	0.041852	0.16734	0.24992	0.26145	0.076148	0.17142	0.31619	0.35635	-3.1083	-3.0979	-3.4104	-3.3875	-3.4479	-3.6208	-3.2646	-3.5458	-3.3104	-3.2	-3.6854	-3.3229	-3.2583	-3.475	-3.125	-3.6104	224.407	24.226	224.037	279.256	248.906	90.192	270.503	186.707	307.432	176.757	237.646	277.078	198.434	307.977	256.980	263.194	0.00027901	0.00031625	8.8955e-05	537.94	2.5334e-06	4.0701e-06	766.15	154.96	2.413e-06	2.3143e-06	272.9	105.9	54.549	25.173	1.7151e-06	52.844	5.0179e-05	2.9728e-05	7.8263e-06	498.52	3.5147e-07	3.0669e-07	709.54	142.97	3.4918e-07	3.1458e-07	251.34	98.731	50.694	23.385	3.442e-07	49.01	98.525	49.811	44.875	-29.082	110.230	99.703	-29.300	-22.913	88.524	92.868	-23.771	-18.913	-18.020	-12.811	112.036	-14.970	-8191	255	
2222.084	1	1	0	0	0.18167	0.055779	0.12137	0.20346	0.20171	0.028542	0.19341	0.14285	0.030476	0.085037	0.13149	0.11642	0.072739	0.22582	0.058415	0.23093	-3.0479	-3.0771	-3.7854	-3.3896	-3.3708	-3.8063	-3.2875	-3.6437	-3.5563	-3.1792	-3.6646	-3.3521	-3.5083	-3.4542	-3.2458	-3.4125	206.610	253.746	300.372	287.256	281.690	294.196	241.109	310.217	120.749	246.067	235.493	301.076	273.369	246.822	236.070	270.195	0.00025217	0.0002239	0.00010295	538.97	1.4047e-06	4.8237e-07	761.97	154	2.7642e-06	2.8199e-06	272.28	106.13	54.834	25.034	2.6647e-06	53.102	4.8145e-05	2.8754e-05	8.0287e-06	497.71	3.4473e-07	2.8097e-07	708.32	142.52	3.3234e-07	3.097e-07	250.83	98.49	50.703	23.316	3.5465e-07	48.823	103.531	50.337	53.019	-29.352	123.335	22.988	-29.338	-23.158	88.924	118.288	-23.588	-18.802	-17.626	-12.740	114.084	-15.200	-8191	255	
2222.181	1	1	0	0	0.14554	0.065132	0.18315	0.14795	0.16844	0.16252	0.099337	0.32233	0.22137	0.3609	0.26492	0.2257	0.18547	0.11484	0.22635	0.10445	-3.1708	-3.15	-3.4479	-3.3708	-3.1292	-3.55	-3.3625	-3.3833	-3.7	-3.2104	-3.5563	-3.4833	-3.3417	-3.6917	-3.2333	-3.3646	57.117	106.018	-38.862	-14.138	74.011	317.383	130.718	217.150	273.611	-39.235	186.737	286.989	-33.594	3.325	94.579	198.276	0.00027897	0.0003875	6.7823e-05	539.14	1.7711e-06	2.2704e-06	758.52	151.42	1.8602e-06	2.463e-06	269.98	105.2	53.663	24.679	1.2713e-06	51.765	4.8028e-05	2.7684e-05	9.1866e-06	496.85	3.4016e-07	2.8447e-07	703.01	140.78	3.1652e-07	3.0935e-07	248.27	97.134	50.004	22.98	3.7678e-07	47.921	106.203	31.318	76.238	-28.963	116.156	98.998	-29.066	-23.101	106.761	103.179	-23.816	-18.976	-17.678	-13.110	142.325	-15.191	-8191	255	
2222.299	1	1	0	0	0.062239	0.10834	0.1306	0.068583	0.26622	0.1392	0.33973	0.089387	0.023014	0.092188	0.087616	0.10726	0.040801	0.042111	0.27081	0.22472	-3.1562	-2.9813	-3.1417	-3.3458	-3.1521	-3.4646	-3.3833	-3.1792	-3.6292	-3.3271	-3.5104	-3.4229	-3.1396	-3.5792	-3.1688	-3.3187	52.261	161.202	161.534	9.565	42.392	241.289	292.306	299.652	273.395	216.181	6.200	48.563	238.534	-6.562	318.566	34.751	0.00025648	0.0002437	0.00013702	538.91	2.7911e-06	3.5457e-06	759.37	152.46	1.9998e-06	2.2171e-06	269.84	105.15	53.686	24.684	2.0463e-06	52.47	4.6792e-05	3.011e-05	9.302e-06	496.98	3.3414e-07	3.1642e-07	704.52	140.86	3.0931e-07	3.3704e-07	249.33	97.702	49.982	23.002	3.71e-07	48.439	106.515	15.287	35.343	-29.193	118.326	81.241	-29.259	-23.188	122.696	111.912	-23.785	-18.846	-17.547	-12.996	118.264	-14.973	-8191	255	
2222.396	1	1	0	0	0.25152	0.067541	0.18111	0.23675	0.36384	0.10265	0.22183	0.11404	0.1007	0.1909	0.12997	0.15441	0.067786	0.24141	0.1679	0.16229	-3.1333	-3.1875	-3.3521	-3.3833	-3.2208	-3.4833	-3.4813	-3.1688	-3.6583	-3.2854	-3.4354	-3.65	-3.1708	-3.7062	-3.4333	-3.3354	123.062	107.140	99.916	160.349	206.522	286.143	309.756	276.677	77.846	181.428	105.064	-38.286	183.054	294.191	7.170	198.859	0.00030278	0.00030222	5.5322e-05	541.54	2.9721e-06	1.9141e-06	763.81	154.54	3.7606e-06	3.0941e-06	274.92	107.02	54.837	25.151	2.573e-06	53.42	4.7902e-05	3.2133e-05	8.9685e-06	499.66	3.3292e-07	3.6125e-07	711.56	143.26	3.2458e-07	3.7864e-07	252.93	99.148	50.742	23.389	3.4921e-07	49.364	105.101	39.708	32.069	-29.290	128.112	122.482	-29.363	-23.004	119.498	82.773	-23.826	-19.102	-17.922	-13.081	141.070	-15.139	-8191	255	
2222.467	1	1	0	0	0.076573	0.34483	0.10287	0.012621	0.083735	0.062466	0.091826	0.22485	0.18796	0.13229	0.11909	0.19336	0.18542	0.23211	0.11747	0.12459	-3.2521	-3.2854	-3.5792	-3.6208	-3.1562	-3.4333	-3.6479	-3.15	-3.5083	-3.4417	-3.2854	-3.7229	-3.1063	-3.6375	-3.3937	-3.1917	186.930	57.529	100.725	-40.620	106.076	219.277	304.525	246.462	169.820	255.014	280.605	-35.215	249.120	-8.364	224.485	213.803	0.00026724	0.00030458	9.1608e-05	543.05	1.2931e-06	3.728e-06	771.85	156.76	1.323e-06	1.3827e-06	275.55	108.52	55.058	25.162	1.976e-06	53.16	4.733e-05	3.4229e-05	9.1377e-06	501.95	3.4069e-07	3.6878e-07	716.52	144.45	3.4597e-07	3.6003e-07	255.15	99.989	51.218	23.456	3.4963e-07	49.213	103.685	28.677	48.115	-29.454	123.693	72.079	-29.012	-22.709	126.549	102.963	-23.618	-18.964	-17.892	-13.243	113.303	-15.176	-8191	255	
2222.565	1	1	0	0	0.24055	0.24596	0.2721	0.084397	0.2099	0.11686	0.14258	0.15195	0.051009	0.062164	0.13958	0.27955	0.34022	0.12444	0.13026	0.35849	-3.1875	-3.3167	-3.2625	-3.9062	-3.2938	-3.5312	-3.5312	-3.3104	-3.5375	-3.5646	-3.2438	-3.7417	-3.4271	-3.5042	-3.6125	-3.2292	-18.242	70.468	-10.943	191.466	246.666	171.742	245.272	241.890	313.861	116.982	277.362	-3.060	40.687	44.103	51.258	193.657	0.00028041	0.00029182	8.5114e-05	542.69	3.1416e-06	3.046e-06	766.87	154.52	2.9739e-06	3.7633e-06	274.16	106.47	55.253	24.911	2.0478e-06	52.583	5.0289e-05	3.2606e-05	8.6174e-06	501.04	3.8171e-07	3.7132e-07	711.75	143.72	3.7045e-07	3.4915e-07	253.3	98.969	51.066	23.289	3.4113e-07	48.679	102.909	51.586	53.224	-29.329	96.539	114.313	-28.983	-23.422	95.771	95.264	-23.523	-18.802	-17.696	-12.767	135.888	-14.662	-8191	255	
2222.684	1	1	0	0	0.25921	0.043528	0.11362	0.19113	0.11015	0.19356	0.30883	0.20029	0.23773	0.021464	0.12847	0.071256	0.24402	0.23014	0.15417	0.1996	-3.1833	-3.3833	-3.1375	-3.7167	-3.1708	-3.3854	-3.6479	-3.1583	-3.55	-3.5292	-3.1042	-3.4792	-3.3542	-3.4542	-3.6208	-3.3375	60.272	-22.110	57.143	107.508	115.574	289.414	-39.871	116.674	33.479	289.145	-12.174	238.918	240.989	127.429	104.492	280.421	0.00025692	0.00033521	8.5299e-05	541.18	2.853e-06	1.9228e-06	767.6	156.25	1.3389e-06	2.4052e-06	275.98	108.02	55.811	25.356	2.3511e-06	53.611	5.2074e-05	3.4159e-05	8.5656e-06	501.43	3.7459e-07	3.6125e-07	713	144.54	3.8385e-07	3.5995e-07	254.16	100.03	51.796	23.56	3.2842e-07	49.236	105.836	25.657	28.112	-29.208	126.601	70.380	-29.268	-22.841	119.556	94.940	-23.497	-18.845	-17.965	-12.644	99.538	-15.020	-8191	255	
2222.780	1	1	0	0	0.24675	0.28192	0.1586	0.29551	0.11015	0.12038	0.23035	0.099457	0.23822	0.21825	0.071608	0.06571	0.29219	0.13123	0.1582	0.24374	-3.2104	-3.3833	-3.0875	-3.7188	-3.3396	-3.3792	-3.6396	-3.1188	-3.7021	-3.4521	-3.1729	-3.8042	-3.4688	-3.2167	-3.6188	-3.1667	78.695	115.890	-41.254	284.554	209.231	173.177	271.713	78.951	209.490	44.031	52.877	128.051	303.578	194.004	177.253	201.501	0.00026414	0.00033022	6.9782e-05	543.99	3.0705e-06	2.1362e-06	768.41	156.2	3.6601e-06	3.1233e-06	276.45	108.76	56.036	25.313	2.2738e-06	53.099	5.3569e-05	3.214e-05	8.5108e-06	504.26	4.1119e-07	3.4648e-07	714.31	145.18	3.8424e-07	3.2938e-07	254.57	100.53	51.766	23.596	3.1199e-07	49.031	107.683	25.559	56.173	-29.177	102.609	91.337	-29.168	-23.317	71.412	110.073	-23.387	-18.771	-17.564	-12.806	126.566	-14.738	-8191	255	
2222.876	1	1	0	0	0.14984	0.054179	0.17636	0.15201	0.32587	0.13187	0.065453	0.19061	0.17464	0.12099	0.33493	0.11221	0.14804	0.26345	0.24411	0.035198	-2.9417	-3.6104	-3.0354	-3.5229	-3.4646	-3.3125	-3.5958	-3.2354	-3.2562	-3.5354	-3.4271	-3.625	-3.35	-2.9979	-3.4083	-3.2521	41.280	126.214	41.227	264.171	147.147	296.900	118.803	89.363	138.810	272.953	306.785	259.311	90.686	-27.297	111.104	53.201	0.00028293	0.0003746	0.00010048	546.98	2.4643e-06	3.0908e-06	768.69	157.4	4.6617e-06	2.6573e-06	275.17	108.08	55.932	25.184	2.2825e-06	52.81	5.2835e-05	2.8995e-05	8.2546e-06	505.02	3.7242e-07	3.3799e-07	715.26	145.78	3.601e-07	3.1616e-07	253.88	100.01	51.842	23.478	3.1888e-07	48.817	101.315	57.155	57.615	-29.254	98.528	108.681	-29.101	-23.097	91.026	99.649	-23.931	-19.062	-17.789	-12.757	108.207	-15.110	-8191	255	
2222.997	1	1	0	0	0.10123	0.15704	0.11469	0.034211	0.080405	0.15713	0.088525	0.1282	0.13897	0.124	0.14724	0.13742	0.12045	0.17707	0.12798	0.22302	-3.1792	-3.5938	-3.1958	-3.4646	-3.2687	-3.0917	-3.6417	-3.2812	-3.3563	-3.6979	-3.3542	-3.5729	-3.3854	-3.2125	-3.525	-3.3208	236.048	250.835	59.257	259.749	128.079	310.814	234.087	-17.832	-30.805	297.889	191.396	294.005	6.172	40.672	110.623	98.090	0.00024667	0.00028237	8.01e-05	541.74	2.4941e-06	2.6808e-06	764.64	155.93	1.3713e-06	2.1934e-06	272.65	107.51	55.964	25.41	2.4e-06	52.916	5.1123e-05	2.8676e-05	8.1725e-06	503.22	3.4564e-07	3.1649e-07	708.42	145.08	3.5113e-07	2.9347e-07	252.04	99.8	51.86	23.536	3.2934e-07	48.723	102.426	39.346	54.114	-29.224	132.316	86.565	-29.318	-22.983	86.022	139.996	-23.653	-18.868	-17.675	-12.906	130.037	-15.106	-8191	255	
2223.069	1	1	0	0	0.24084	0.061776	0.15361	0.08751	0.17351	0.1945	0.12907	0.078798	0.25649	0.18364	0.28865	0.076643	0.33189	0.159	0.13738	0.038208	-2.7771	-3.7042	-3.2583	-3.4521	-3.4042	-3.1521	-3.7812	-3.4104	-3.2167	-3.5979	-3.3125	-3.4917	-3.7021	-3.1625	-3.5438	-3.5479	120.329	-13.874	26.614	151.001	131.420	107.369	248.774	202.391	189.456	237.159	300.603	9.180	-15.955	0.065	86.389	240.827	0.00025651	0.00014693	7.2947e-05	543.37	2.1455e-06	1.6392e-06	767.42	156.05	2.1437e-06	2.5894e-06	276.85	107.78	55.889	25.544	3.1562e-06	52.924	4.9577e-05	2.6955e-05	8.7006e-06	502.38	3.29e-07	3.0592e-07	709.56	145.35	3.5773e-07	2.8321e-07	254.38	99.985	52.137	23.698	3.736e-07	48.836	105.889	19.651	57.589	-29.258	114.989	85.771	-28.983	-23.093	107.140	102.225	-23.450	-18.751	-17.824	-13.009	120.306	-15.063	-8191	255	
2223.165	1	1	0	0	0.08614	0.14876	0.21802	0.13598	0.043884	0.046348	0.18073	0.24689	0.24292	0.11178	0.23889	0.12412	0.037023	0.14496	0.23751	0.10045	-2.8417	-3.5083	-3.1792	-3.4833	-3.6646	-3.1771	-3.4875	-3.3583	-3.0771	-3.5146	-3.4125	-3.4354	-3.6083	-3.2313	-3.5042	-3.6271	102.247	262.524	203.509	187.783	246.768	269.802	2.938	296.814	293.989	107.488	243.495	-31.750	261.197	138.253	-33.552	-40.226	0.0002604	0.00018949	9.3348e-05	543.23	3.1797e-06	2.7233e-06	767	158.75	2.4085e-06	2.0789e-06	278.08	108.87	56.916	25.7	1.7473e-06	53.004	4.9508e-05	2.6784e-05	9.5709e-06	503.59	3.1228e-07	3.1334e-07	711.88	146.44	3.3398e-07	2.9847e-07	255.22	100.56	52.56	23.857	3.9187e-07	49.155	102.125	6.283	52.199	-29.368	109.780	75.426	-28.960	-23.254	70.718	128.981	-23.500	-18.982	-17.679	-13.222	90.009	-15.187	-8191	255	
2223.285	1	1	0	0	0.17295	0.17271	0.23982	0.15204	0.071121	0.14413	0.093634	0.11769	0.21987	0.18167	0.1587	0.10113	0.071356	0.11888	0.098072	0.26546	-2.8625	-3.4729	-3.2625	-3.3583	-3.6063	-3.3354	-3.4625	-3.6167	-3.2667	-3.6667	-3.3646	-3.3063	-3.6562	-3.2146	-3.4562	-3.5833	157.885	112.722	66.737	109.627	124.945	251.885	244.188	29.126	67.118	258.508	244.735	9.321	212.157	280.753	59.379	208.751	0.00027189	0.00040542	8.7027e-05	543.9	3.0838e-06	3.856e-06	771.69	158.65	1.6401e-06	2.122e-06	276.6	109.35	57.03	26.118	1.9254e-06	53.056	4.9202e-05	2.8449e-05	9.0692e-06	503.53	3.1041e-07	3.3326e-07	712.3	147.22	3.195e-07	3.1835e-07	255.25	101.18	52.887	24.145	3.6602e-07	49.02	105.380	58.252	33.549	-29.397	94.342	96.659	-29.227	-23.012	58.357	116.354	-23.668	-19.158	-17.394	-12.913	138.102	-15.066	-8191	255	
2223.380	1	1	0	0	0.18787	0.043672	0.19239	0.13637	0.20667	0.08749	0.13713	0.10586	0.13994	0.26642	0.13399	0.2122	0.19468	0.17422	0.082708	0.066931	-2.7896	-3.5708	-3.4917	-3.2917	-3.5646	-3.2833	-3.4583	-3.5812	-3.2792	-3.6083	-3.4188	-3.4271	-3.7292	-3.4604	-3.4979	-3.8604	244.043	76.636	237.160	269.981	-9.136	192.427	192.625	86.229	29.948	291.519	281.516	289.402	44.727	95.354	44.023	267.466	0.00025976	0.00044088	8.9251e-05	544.06	3.0024e-06	3.1828e-06	761.58	156.84	1.6235e-06	3.7605e-06	274.31	107.99	56.267	25.669	1.2877e-06	52.788	4.7084e-05	3.1183e-05	9.5259e-06	501.74	3.1708e-07	3.5582e-07	706.74	146.25	3.3596e-07	3.3942e-07	253.4	100.23	52.52	23.868	3.6763e-07	48.736	103.581	50.113	24.338	-28.963	99.534	109.882	-29.129	-22.856	116.569	153.111	-23.475	-18.994	-18.353	-13.029	99.586	-15.199	-8191	255	
2223.476	1	1	0	0	0.22586	0.069833	0.18541	0.17922	0.093485	0.19987	0.31847	0.22407	0.075592	0.10521	0.16479	0.15525	0.063651	0.21921	0.089703	0.10692	-2.9396	-3.5729	-3.4875	-3.2146	-3.8125	-3.2979	-3.4875	-3.6708	-3.2938	-3.4667	-3.7771	-3.2896	-3.625	-3.4604	-3.5062	-3.6437	-40.734	313.390	267.563	75.447	253.677	-33.384	260.157	-7.345	181.001	277.139	211.376	32.785	304.620	-8.984	168.457	283.952	0.00027087	0.00022708	0.00019614	542.53	2.6098e-06	3.5175e-06	762.07	158.2	3.3944e-06	2.1576e-06	275.74	108.65	56.881	25.662	2.0566e-06	53.023	4.7786e-05	3.2932e-05	8.6419e-06	501.86	3.2915e-07	3.5978e-07	706.94	146.48	3.4337e-07	3.5149e-07	254.03	100.55	52.754	23.893	3.4416e-07	49.073	96.132	35.503	37.645	-29.241	133.605	136.773	-29.138	-23.024	105.301	133.871	-23.906	-19.243	-17.801	-13.045	129.089	-15.025	-8191	255	
2223.597	1	1	0	0	0.11317	0.06979	0.14544	0.23254	0.18203	0.068458	0.16623	0.20826	0.1351	0.076829	0.13256	0.1342	0.091983	0.41062	0.30891	0.28475	-2.9938	-3.6021	-3.4437	-3.2125	-3.5271	-3.4021	-3.4271	-3.7833	-3.1271	-3.3458	-3.6729	-3.0292	-3.5938	-3.4479	-3.1854	-3.8125	-4.887	82.494	18.288	197.981	226.805	150.106	284.037	63.994	228.273	279.539	247.260	289.264	76.862	275.264	179.118	1.608	0.00024426	0.0001189	0.00010523	543.4	1.1021e-06	3.1752e-06	764.64	157.97	3.4696e-06	2.4983e-06	276.54	107.98	56.821	25.76	1.6216e-06	53.102	5.0837e-05	3.2841e-05	8.0229e-06	501.74	3.5851e-07	3.807e-07	707.51	146.25	3.6484e-07	3.5603e-07	255.11	100.43	52.567	23.916	3.4335e-07	49.066	112.574	-19.834	68.509	-29.112	86.548	128.579	-29.372	-22.797	90.108	98.264	-24.010	-19.135	-17.762	-12.840	114.935	-15.044	-8191	255	
2223.693	1	1	0	0	0.2228	0.12133	0.1404	0.35559	0.036136	0.025915	0.23077	0.15745	0.14701	0.15573	0.11063	0.32071	0.2399	0.12344	0.20282	0.28886	-2.9813	-3.2583	-3.8875	-3.2979	-3.55	-3.4	-3.2812	-3.6229	-3.275	-3.4	-3.6146	-3.35	-3.4875	-3.4917	-3.2104	-3.675	245.815	-14.114	124.277	250.501	128.590	88.403	246.227	233.817	66.342	217.857	65.539	253.977	283.210	61.899	319.133	-17.743	0.00028263	0.0002473	0.00013062	540.21	2.1491e-06	2.771e-06	757.25	156.58	1.8942e-06	4.5152e-06	271.12	105.75	55.675	24.897	4.0589e-07	51.351	5.1236e-05	3.2168e-05	7.9642e-06	499.17	3.7032e-07	3.243e-07	703.18	145.27	3.8515e-07	3.498e-07	250.66	98.505	51.538	23.113	3.203e-07	47.479	113.357	49.374	63.821	-29.125	118.692	119.694	-28.914	-22.799	131.162	147.193	-23.797	-18.873	-18.192	-12.841	40.850	-14.805	-8191	255	
2223.764	1	1	0	0	0.22597	0.06035	0.18369	0.059784	0.15787	0.13473	0.16403	0.051789	0.24417	0.15067	0.13313	0.16888	0.14553	0.19844	0.081515	0.10036	-2.925	-3.1521	-3.5354	-3.2771	-3.5292	-3.5042	-3.1958	-3.5396	-3.3438	-3.2021	-3.6792	-3.2542	-3.4896	-3.6521	-3.1375	-3.5021	29.769	45.506	0.187	255.727	-34.577	133.658	256.277	177.587	316.516	108.257	302.919	233.501	94.912	213.703	292.906	-3.236	0.00025672	0.00020339	8.2401e-05	535.53	2.9702e-06	4.2645e-06	755.2	154.08	3.1364e-06	3.1617e-06	268.94	104.21	54.623	24.435	1.5e-06	50.692	5.1927e-05	3.066e-05	7.0479e-06	495.58	3.7756e-07	3.1361e-07	697.39	142.62	3.7007e-07	3.1804e-07	247.48	96.809	50.531	22.713	3.1923e-07	47.087	99.891	33.820	30.186	-29.341	74.146	72.169	-29.550	-22.954	94.164	114.404	-23.711	-19.007	-17.619	-12.975	100.795	-15.009	-8191	255	
2223.885	1	1	0	0	0.22088	0.092631	0.18257	0.1021	0.02095	0.15515	0.16722	0.0835	0.16256	0.060271	0.19368	0.39817	0.097483	0.0471	0.06148	0.18868	-2.9875	-3.1104	-3.5104	-3.1271	-3.4833	-3.4208	-3.2625	-3.6271	-3.4229	-3.3563	-3.6917	-3.2667	-3.3271	-3.7333	-3.2667	-3.4938	62.149	104.663	74.038	10.937	304.201	143.729	280.691	-21.982	161.797	229.629	107.306	317.777	197.479	264.338	249.661	249.629	0.00024745	0.0002727	0.00010924	530.56	2.0224e-06	2.9703e-06	748.4	151.44	1.4742e-06	3.6044e-06	263.38	103.57	52.91	23.811	3.243e-06	49.767	5.0069e-05	3.0271e-05	6.9227e-06	493.58	3.6114e-07	3.0911e-07	695.18	140.4	3.5666e-07	3.2131e-07	243.26	95.836	49.044	22.079	3.2118e-07	45.841	104.683	49.430	72.212	-28.991	115.557	115.095	-29.232	-22.895	95.293	94.088	-23.937	-18.915	-17.941	-12.954	113.985	-15.251	-8191	255	
2223.981	1	1	0	0	0.057078	0.11177	0.083522	0.067989	0.078589	0.22048	0.1209	0.083439	0.066274	0.063039	0.024474	0.24912	0.18942	0.21143	0.065186	0.3122	-2.9229	-3.1521	-3.4667	-3.3021	-3.2896	-3.6729	-3.1792	-3.5438	-3.4833	-3.2667	-3.6437	-3.3021	-3.3292	-3.5625	-3.2479	-3.4396	213.296	31.018	243.183	-7.517	-34.031	90.207	234.944	11.277	-0.981	44.454	85.395	297.077	-21.571	76.856	141.560	244.813	0.00024337	0.00021608	6.3844e-05	529.29	3.1702e-06	1.7182e-06	745.7	145.68	3.3769e-06	3.3187e-06	255.55	100.47	51.013	22.839	2.0977e-06	48.386	4.9355e-05	2.8266e-05	7.5094e-06	490.24	3.4606e-07	2.8977e-07	689.97	135.28	3.5242e-07	3.0378e-07	235.49	92.929	47.353	21.249	3.3531e-07	44.566	101.159	38.245	64.754	-29.339	88.080	132.189	-29.140	-23.262	88.014	105.439	-23.671	-19.188	-17.853	-13.489	96.515	-14.992	-8191	255	
2224.077	1	1	0	0	0.24692	0.054424	0.20116	0.35982	0.15607	0.081662	0.081836	0.2519	0.25914	0.078403	0.26699	0.10401	0.08616	0.27022	0.16966	0.15882	-3.1479	-3.2854	-3.5417	-3.3292	-3.3229	-3.6917	-3.3229	-3.4042	-3.4479	-3.3438	-3.6167	-3.3583	-3.3125	-3.6042	-3.2479	-3.3312	249.600	229.007	12.902	276.782	119.879	25.868	-31.585	89.263	233.426	160.686	256.741	225.998	-34.525	239.222	7.315	309.731	0.00024212	0.00021236	0.00010506	525.55	2.7179e-06	3.1426e-06	735.62	140.17	1.4996e-06	3.7732e-06	243.45	95.371	48.658	21.651	8.5586e-07	46.405	4.5532e-05	2.6531e-05	8.3524e-06	485.5	3.2881e-07	2.8324e-07	680.55	129.78	3.0931e-07	2.8994e-07	224.49	88.77	45.033	20.201	3.5174e-07	42.707	104.976	71.706	51.257	-29.480	105.488	120.263	-29.264	-23.160	104.072	117.822	-23.830	-19.045	-17.963	-13.011	103.652	-15.264	-8191	255	
2224.173	1	1	0	0	0.070744	0.18072	0.11881	0.073373	0.13381	0.28785	0.05984	0.024062	0.070668	0.015857	0.19028	0.015127	0.21255	0.067529	0.064042	0.16005	-3.2	-2.9292	-3.1792	-3.4688	-3.3396	-3.4229	-3.1958	-3.3479	-3.5958	-3.2083	-3.5667	-3.4729	-3.1521	-3.6729	-3.3354	-3.3521	263.447	175.719	40.755	97.635	230.471	-29.242	302.860	263.558	-19.891	315.905	-40.220	177.017	-30.194	168.946	246.357	242.908	0.00022603	0.00032116	8.6533e-05	518.76	2.1402e-06	2.9037e-06	723.26	135.39	1.8096e-06	1.6075e-06	238.88	95.295	48.232	21.784	1.0134e-06	46.194	4.402e-05	2.7513e-05	8.7406e-06	480.35	3.1304e-07	2.5521e-07	670.77	125.48	2.9483e-07	2.8225e-07	220.61	88.073	44.59	20.194	3.3788e-07	42.669	100.215	27.991	52.437	-29.062	110.941	113.359	-29.181	-23.346	51.916	97.642	-23.811	-19.078	-18.083	-12.765	160.193	-15.358	-8191	255	
2224.268	1	1	0	0	0.085548	0.25234	0.097283	0.24183	0.071311	0.24028	0.11355	0.12467	0.16824	0.2688	0.1517	0.21524	0.1089	0.35209	0.19309	0.22877	-3.1458	-3.2417	-3.3458	-3.4938	-3.0396	-3.5854	-3.5729	-3.4708	-3.75	-3.2208	-3.5021	-3.6833	-3.4188	-3.7208	-3.4	-3.4375	264.308	310.396	-2.283	249.910	39.160	-25.412	299.960	295.569	128.907	108.924	22.078	265.351	185.746	187.278	145.951	259.462	0.0002165	0.00024523	6.6833e-05	520.64	9.5666e-08	3.0276e-06	719.09	132.25	2.6843e-06	2.6193e-06	235.75	95.25	47.798	21.948	1.5298e-06	47.046	4.1114e-05	2.7334e-05	8.5343e-06	479.3	2.9072e-07	2.7743e-07	668.35	122.41	2.6416e-07	2.8409e-07	217.3	88.15	44.302	20.481	3.342e-07	43.353	103.899	51.793	52.304	-29.336	312.212	61.627	-29.095	-23.495	96.927	136.095	-23.879	-18.956	-18.060	-13.075	111.019	-15.225	-8191	255	
2224.364	1	1	0	0	0.18994	0.089084	0.15434	0.1551	0.16894	0.069377	0.12054	0.049915	0.15468	0.1257	0.17705	0.2013	0.32691	0.016356	0.043362	0.028707	-3.2792	-3.4708	-3.3729	-3.6146	-3.1146	-3.6188	-3.5208	-3.2208	-3.6896	-3.3125	-3.4729	-3.8271	-3.1437	-3.3771	-3.6396	-3.2875	135.642	132.632	299.467	255.797	196.474	120.748	-32.867	114.009	213.776	183.668	129.488	290.975	301.098	192.441	17.350	162.801	0.00025198	0.00026466	9.4907e-05	514.88	2.5284e-06	3.3622e-06	718.32	133.38	3.0076e-06	1.9446e-06	237.84	96.98	48.544	22.798	1.9109e-06	47.6	3.9479e-05	2.7912e-05	7.7686e-06	476.75	2.7583e-07	3.0519e-07	665.99	122.93	2.5275e-07	3.1147e-07	217.83	89.538	45.141	21.139	2.9587e-07	44.182	107.123	40.445	42.654	-29.046	98.931	116.520	-29.510	-23.025	90.621	109.320	-23.791	-18.965	-18.544	-13.314	130.408	-15.518	-8191	255	
2224.460	1	1	0	0	0.16808	0.11865	0.12448	0.13127	0.059375	0.1203	0.07318	0.029827	0.17678	0.016164	0.16523	0.071699	0.14028	0.23496	0.048138	0.1619	-3.2729	-3.25	-3.2625	-3.7	-3.0479	-3.6063	-3.5292	-3.3563	-3.5646	-3.3375	-3.4313	-3.6979	-3.275	-3.6604	-3.55	-3.2625	-33.562	171.588	166.508	242.832	42.088	5.111	280.376	270.253	258.000	142.773	172.603	267.489	196.383	-35.149	188.330	310.026	0.00025825	0.00018699	4.786e-05	513.9	2.0164e-06	2.0472e-06	711.84	132.46	2.3242e-06	2.7026e-06	236.54	97.472	49.592	23.606	1.9492e-06	49.093	4.2863e-05	2.8925e-05	7.5212e-06	474.93	3.0378e-07	3.015e-07	658.64	122.87	2.8414e-07	3.1427e-07	216.8	90.578	46.171	21.968	2.7474e-07	45.33	95.038	45.152	90.858	-29.420	127.468	121.999	-29.200	-23.365	114.488	106.014	-23.874	-19.175	-18.527	-13.481	125.098	-15.557	-8191	255	
2224.556	1	1	0	0	0.26727	0.22159	0.084471	0.23575	0.088147	0.14388	0.05919	0.23386	0.2429	0.13331	0.25255	0.05506	0.055212	0.081184	0.22534	0.17375	-3.3167	-3.2792	-3.2042	-3.7375	-3.3042	-3.5917	-3.4667	-3.175	-3.7313	-3.5417	-3.4146	-3.6875	-3.2375	-3.6208	-3.6396	-3.3125	153.507	185.047	230.661	94.129	91.155	132.544	-21.563	270.803	40.465	47.403	-12.514	-39.755	237.094	269.812	178.843	38.317	0.00025355	0.00019791	3.6261e-05	511.78	2.178e-06	3.5851e-06	704.85	133.48	2.9695e-06	3.1567e-06	237.23	99.474	50.672	24.448	2.1759e-06	50.403	4.2863e-05	2.7453e-05	7.2386e-06	472.08	2.911e-07	2.9439e-07	652.78	123.22	3.0434e-07	2.8402e-07	219.03	91.922	47.07	22.703	2.6459e-07	46.443	112.184	10.020	75.134	-29.106	78.125	101.265	-29.098	-23.174	121.983	113.815	-23.708	-19.222	-18.083	-13.731	110.545	-15.682	-8191	255	
2224.677	1	1	0	0	0.20716	0.23459	0.17582	0.0671	0.0557	0.18586	0.088724	0.076042	0.23329	0.13132	0.10802	0.18643	0.15067	0.13673	0.020353	0.15143	-3.1708	-3.3937	-3.3438	-3.7271	-3.2292	-3.4417	-3.6917	-3.1042	-3.5583	-3.5625	-3.2438	-3.7917	-3.3333	-3.3583	-3.6	-3.2042	35.356	161.665	224.996	122.604	120.030	121.046	195.274	73.497	114.825	193.579	165.050	3.602	226.054	-17.911	207.579	268.264	0.00028886	0.00028511	8.2408e-05	507.68	2.2227e-06	2.9738e-06	703.03	134.55	1.7965e-06	2.6628e-06	238.63	101.39	52.63	25.059	2.4806e-06	51.438	4.5226e-05	2.6072e-05	6.6919e-06	471.48	3.0405e-07	2.92e-07	653.08	124.48	3.0178e-07	2.744e-07	220.19	94.066	48.54	23.297	2.6581e-07	47.309	105.037	71.184	62.844	-29.217	126.918	134.339	-29.307	-23.040	139.630	114.585	-24.021	-19.116	-18.362	-13.945	122.963	-15.802	-8191	255	
2224.773	1	1	0	0	0.083674	0.21377	0.08073	0.22287	0.06161	0.12723	0.20433	0.14242	0.14639	0.066503	0.17729	0.063157	0.18062	0.1652	0.14073	0.20752	-3.1417	-3.6125	-3.3271	-3.6833	-3.4229	-3.3104	-3.8604	-3.3354	-3.4562	-3.45	-3.1521	-3.5667	-3.5125	-3.2521	-3.7292	-3.2938	151.952	-39.703	291.567	267.891	29.250	26.877	225.709	265.562	297.184	158.158	181.465	297.311	141.895	-34.635	240.971	296.667	0.00025029	0.00042109	8.6552e-05	512.19	2.6188e-06	3.6541e-06	705.25	135.31	1.7809e-06	3.2852e-06	239.09	101.28	51.754	24.987	1.8824e-06	50.7	4.6845e-05	2.5273e-05	6.1296e-06	472.82	3.0138e-07	2.6751e-07	651.42	125.05	3.0675e-07	2.6018e-07	220.67	93.845	48.24	23.254	2.5119e-07	46.937	101.569	33.544	47.878	-29.355	117.867	85.909	-29.377	-23.047	93.218	115.966	-24.063	-19.035	-18.515	-13.628	147.931	-15.968	-8191	255	
2224.869	1	1	0	0	0.12625	0.068944	0.073503	0.21917	0.14613	0.032664	0.17718	0.13516	0.1641	0.23451	0.067207	0.15923	0.3381	0.11411	0.063553	0.19597	-2.9292	-3.5062	-3.1833	-3.375	-3.5833	-3.3875	-3.6542	-3.3375	-3.6333	-3.6604	-3.3125	-3.4854	-3.4104	-3.3021	-3.5292	-3.4708	65.781	59.534	256.169	-5.779	235.581	58.779	273.532	292.664	104.081	-10.815	7.386	274.177	233.534	-18.180	-9.129	207.146	0.00028621	0.00019487	0.0001045	509.21	2.6513e-06	2.6037e-06	696.25	134.4	3.2264e-06	2.6211e-06	239.17	99.973	52.201	24.882	1.0878e-06	50.88	4.627e-05	2.3036e-05	6.5149e-06	470.25	3.138e-07	2.6128e-07	646.83	124.93	2.8952e-07	2.2838e-07	219.85	92.734	48.145	23.177	2.5762e-07	46.945	106.043	33.649	40.052	-29.471	104.149	108.351	-29.369	-23.629	70.430	103.611	-23.888	-19.548	-18.531	-13.523	80.157	-15.579	-8191	255	
2224.965	1	1	0	0	0.12164	0.20121	0.2166	0.10225	0.13336	0.014921	0.22574	0.19871	0.23071	0.11945	0.19027	0.056898	0.21502	0.10835	0.20728	0.17211	-2.8917	-3.4562	-3.1625	-3.5271	-3.4875	-3.2625	-3.9062	-3.3125	-3.1854	-3.7562	-3.2792	-3.6625	-3.6937	-3.1208	-3.6833	-3.2979	175.661	117.515	103.983	48.049	101.054	3.079	37.662	248.349	315.177	286.314	291.188	297.701	2.291	253.799	143.419	212.372	0.00026966	0.00030321	8.8504e-05	510.31	1.5871e-06	2.9705e-06	700.92	136.89	4.0551e-06	3.2451e-06	239.99	100.86	51.906	24.998	1.7744e-06	51.137	4.5127e-05	2.2675e-05	6.6459e-06	470.46	2.7289e-07	2.6524e-07	648.4	126.68	2.9334e-07	2.2292e-07	221.58	93.315	48.037	23.24	2.6585e-07	47.107	105.410	22.224	38.528	-29.326	119.182	91.154	-29.283	-23.376	86.124	94.458	-23.989	-19.438	-18.460	-13.584	102.311	-15.793	-8191	255	
2225.062	1	1	0	0	0.31732	0.25926	0.081544	0.28513	0.13279	0.18599	0.21989	0.14904	0.11271	0.14837	0.087732	0.14029	0.19276	0.17333	0.16643	0.29054	-2.7438	-3.4188	-3.2229	-3.4729	-3.6312	-3.2333	-3.7104	-3.4917	-3.1708	-3.6292	-3.2062	-3.4458	-3.4833	-3.2667	-3.5812	-3.4688	145.985	221.118	214.904	194.787	257.368	281.768	142.671	220.166	251.331	53.534	21.588	265.234	260.694	270.268	263.508	-19.679	0.0002765	0.00024112	8.1106e-05	508.36	1.728e-06	3.0609e-06	700.29	137.59	3.0015e-06	1.5213e-06	241.95	100.16	51.722	24.921	2.3799e-06	51.221	4.3342e-05	2.1624e-05	6.9921e-06	470.26	2.713e-07	2.5179e-07	649.14	126.92	2.6145e-07	2.2504e-07	222.28	93.128	48.171	23.214	2.8595e-07	47.218	100.577	35.870	56.288	-29.363	107.758	79.155	-29.117	-23.279	73.137	142.251	-24.102	-18.823	-18.485	-13.700	129.028	-15.292	-8191	255	
2225.158	1	1	0	0	0.26504	0.23298	0.23539	0.18598	0.04585	0.18599	0.19492	0.18465	0.076307	0.18835	0.073026	0.22144	0.19218	0.078154	0.18317	0.086246	-2.7667	-3.6937	-3.2271	-3.5729	-3.5729	-3.1813	-3.6562	-3.4688	-3.15	-3.5583	-3.5167	-3.2479	-3.6042	-3.3833	-3.4813	-3.5333	147.890	172.599	218.036	219.543	220.015	31.235	138.164	300.347	149.321	125.162	149.467	145.489	297.979	282.762	12.602	108.962	0.00024305	0.00034818	8.8345e-05	508.24	2.1403e-06	2.4202e-06	702.48	137.93	2.5681e-06	4.5061e-06	241.16	100.14	52.019	24.96	9.1083e-07	50.913	4.2058e-05	2.1238e-05	7.394e-06	470.86	2.6101e-07	2.6194e-07	649.46	127.77	2.5977e-07	2.5506e-07	223.17	92.959	48.268	23.189	2.9955e-07	47.051	118.776	39.697	23.225	-29.147	103.257	104.314	-29.410	-23.255	87.565	119.943	-23.924	-19.267	-18.126	-13.522	129.156	-15.754	-8191	255	
2225.278	1	1	0	0	0.09579	0.24301	0.12384	0.12857	0.02303	0.075483	0.12607	0.031721	0.073151	0.034743	0.055121	0.12639	0.10386	0.23552	0.17053	0.32546	-2.8708	-3.5	-3.3187	-3.3083	-3.6375	-3.225	-3.6458	-3.6146	-3.0938	-3.7458	-3.3479	-3.2375	-3.6542	-3.2812	-3.4208	-3.6104	231.767	78.741	221.313	255.267	252.203	139.760	316.412	32.029	221.239	176.467	-11.668	251.164	-21.960	24.556	115.148	280.289	0.00023913	0.00015454	7.3859e-05	508.26	2.5187e-06	2.16e-06	699.58	137.85	3.4626e-06	2.3889e-06	242.23	100.69	52.042	25.029	1.9132e-06	50.811	4.1144e-05	2.2269e-05	7.6923e-06	470	2.5195e-07	2.494e-07	646.78	128.06	2.6378e-07	2.671e-07	223.15	92.9	48.206	23.203	2.9706e-07	46.999	100.496	-0.337	29.369	-29.361	80.208	111.855	-29.377	-22.710	123.620	105.699	-23.890	-19.487	-18.234	-13.785	104.123	-15.723	-8191	255	
2225.373	1	1	0	0	0.12083	0.24545	0.060763	0.4055	0.19322	0.24133	0.18854	0.23402	0.11442	0.16506	0.048912	0.23549	0.28747	0.11311	0.19352	0.24656	-2.8604	-3.6604	-3.3875	-3.475	-3.6688	-3.2854	-3.4729	-3.7208	-3.2062	-3.6542	-3.4125	-3.1917	-3.4771	-3.3292	-3.2521	-3.5646	92.937	33.281	130.847	287.591	54.558	256.688	279.216	277.540	277.502	27.309	-38.520	298.061	115.968	298.385	276.413	149.309	0.00025075	0.0003473	0.00010552	509.75	2.0386e-06	3.4159e-06	700.83	139.25	2.795e-06	2.7178e-06	245.13	100.43	52.001	25.01	2.1721e-06	50.8	4.0955e-05	2.4446e-05	7.3931e-06	470.42	2.4098e-07	2.877e-07	649.45	128.54	2.6607e-07	2.7106e-07	223.8	93.256	48.365	23.237	2.8618e-07	46.998	98.070	64.773	53.610	-29.095	93.967	88.784	-29.248	-22.894	78.780	121.310	-23.995	-19.217	-18.177	-13.755	129.980	-15.545	-8191	255	
2225.469	1	1	0	0	0.15387	0.16444	0.12797	0.065051	0.26588	0.065919	0.075981	0.34409	0.19432	0.065232	0.050579	0.33106	0.10125	0.23061	0.14316	0.22495	-2.725	-3.3312	-3.4271	-3.2979	-3.775	-3.4062	-3.5938	-3.6396	-3.2104	-3.5125	-3.5479	-3.1375	-3.6042	-3.3792	-3.2646	-3.6771	68.700	202.605	143.096	109.510	9.488	184.169	79.241	225.325	215.964	-6.205	-30.012	280.990	228.724	26.792	75.846	90.011	0.00024632	0.00035189	6.6591e-05	508.89	2.3362e-06	3.6437e-06	703.11	139	2.9083e-06	3.4321e-06	244.27	101.1	52.286	25.086	2.4931e-06	51.102	4.1852e-05	2.7078e-05	6.7721e-06	470.36	2.4818e-07	2.8351e-07	650.17	128.34	2.7704e-07	2.7394e-07	224.27	93.599	48.42	23.327	2.7531e-07	47.23	109.346	38.939	42.555	-29.061	103.352	113.556	-29.359	-23.326	110.085	115.057	-24.059	-19.340	-18.201	-13.298	113.078	-15.694	-8191	255	
2225.565	1	1	0	0	0.26982	0.076048	0.19632	0.092982	0.20816	0.12858	0.10265	0.29391	0.14805	0.23854	0.24748	0.039532	0.079732	0.046687	0.11546	0.18286	-2.7646	-3.4437	-3.3646	-3.4021	-3.7083	-3.3875	-3.6083	-3.6021	-3.2687	-3.4646	-3.5792	-3.4625	-3.5458	-3.5625	-3.25	-3.7812	-4.315	10.725	132.766	21.617	202.054	283.958	223.904	267.881	235.283	215.327	157.257	51.262	257.223	5.831	316.252	198.219	0.00025231	0.00020596	7.0808e-05	509.3	1.656e-06	1.498e-06	702.16	139.2	2.8571e-06	4.5826e-06	244.81	100.7	52.223	24.962	2.7865e-06	50.887	4.3375e-05	2.6251e-05	6.3291e-06	468.97	2.6044e-07	2.6275e-07	648.46	129.12	2.71e-07	2.7117e-07	225.37	93.445	48.394	23.257	2.7006e-07	46.901	105.997	9.322	77.386	-29.225	96.976	106.981	-28.995	-22.771	89.564	89.106	-24.241	-19.459	-18.523	-13.900	113.002	-16.068	-8191	255	
2225.661	1	1	0	0	0.061982	0.15442	0.18861	0.17672	0.088586	0.10151	0.31912	0.11798	0.18653	0.15272	0.033705	0.29674	0.26573	0.033254	0.09628	0.087145	-3.0604	-3.6688	-3.7833	-3.3438	-3.9417	-3.6854	-3.3833	-3.7375	-3.3625	-3.4979	-3.9083	-3.4062	-3.7271	-3.4667	-3.2667	-3.7938	241.136	207.541	231.137	167.021	-30.416	91.250	263.273	122.995	267.295	214.678	13.583	32.128	178.943	228.798	9.333	313.939	0.00021443	0.00022608	7.159e-05	505.62	2.0431e-06	2.6603e-06	700.1	139.83	3.0386e-06	3.0619e-06	244.74	100.36	52.355	24.907	1.4265e-06	51.016	4.4399e-05	2.4225e-05	5.7805e-06	467.79	2.8577e-07	2.4898e-07	649.23	129.71	2.7352e-07	2.5233e-07	226.24	92.936	48.428	23.155	2.4839e-07	46.964	105.941	29.536	45.749	-29.130	103.038	89.177	-29.152	-22.816	99.629	89.616	-23.489	-19.447	-18.618	-13.793	103.098	-15.693	-8191	255	
2225.757	1	1	0	0	0.18382	0.15906	0.11002	0.17898	0.15998	0.15565	0.056486	0.17708	0.14732	0.25731	0.10642	0.034479	0.11359	0.19395	0.031029	0.16316	-3.0167	-3.4729	-3.6188	-3.2833	-3.525	-3.6833	-3.2604	-3.6167	-3.5917	-3.2313	-3.7083	-3.4021	-3.4958	-3.5354	-3.3458	-3.6667	275.448	278.379	250.250	305.965	219.405	47.229	151.562	22.335	-12.158	-19.231	193.663	55.940	287.708	146.366	230.640	269.845	0.00025009	0.00023933	7.3958e-05	508.84	1.9263e-06	3.6895e-06	701.75	142.12	2.7005e-06	2.0171e-06	247.7	101.41	52.982	25.503	2.1645e-06	52.124	4.3744e-05	2.3064e-05	5.6201e-06	469.08	2.8131e-07	2.3502e-07	651.07	131.41	2.6982e-07	2.5114e-07	229.56	94.354	49.214	23.674	2.5345e-07	48.055	108.924	28.694	53.068	-29.018	127.697	105.447	-29.203	-22.757	92.390	145.737	-23.438	-19.449	-18.860	-13.485	111.627	-15.647	-8191	255	
2225.853	1	1	0	0	0.10531	0.18537	0.17486	0.29935	0.19694	0.16959	0.29189	0.11019	0.12017	0.22153	0.26125	0.1987	0.18888	0.091464	0.13707	0.15348	-3.0417	-3.3375	-3.7417	-3.4083	-3.6458	-3.5875	-3.2313	-3.7083	-3.3271	-3.3604	-3.6875	-3.3417	-3.5208	-3.8042	-3.075	-3.7958	27.620	189.296	32.659	249.360	249.931	104.997	151.397	14.625	21.218	155.721	273.437	-25.504	310.214	157.380	277.350	235.064	0.00024458	0.00031287	9.0449e-05	506.94	7.3634e-07	2.118e-06	705.14	145.19	2.6697e-06	3.2175e-06	253.94	104.57	54.404	26.544	1.7511e-06	53.711	4.2457e-05	2.1831e-05	5.5135e-06	469.76	2.5629e-07	2.2691e-07	655.67	133.97	2.6787e-07	2.3538e-07	233.57	97.166	50.576	24.553	2.6198e-07	49.619	102.543	39.871	42.199	-29.156	104.032	87.818	-29.050	-23.059	76.311	102.322	-24.125	-19.351	-18.320	-13.916	134.531	-15.547	-8191	255	
2225.950	1	1	0	0	0.25578	0.16185	0.20571	0.13931	0.10834	0.13483	0.28787	0.098462	0.079787	0.1439	0.2328	0.27893	0.35691	0.10607	0.054848	0.39167	-3.0625	-3.1521	-3.7354	-3.375	-3.4354	-3.5875	-3.3292	-3.4167	-3.7208	-3.4167	-3.8667	-3.5438	-3.4375	-3.6854	-3.2562	-3.5854	20.669	75.641	271.003	258.278	196.778	14.146	277.005	274.023	157.784	15.559	244.169	160.461	254.854	25.584	99.491	244.538	0.00026611	0.00016888	0.00010452	512.21	2.7555e-06	2.2826e-06	706.72	146.33	2.6349e-06	2.3678e-06	256.15	106.32	56.682	27.448	2.0322e-06	55.51	4.2344e-05	2.263e-05	5.3874e-06	472.91	2.5656e-07	2.1488e-07	655.09	135.58	2.3667e-07	2.2015e-07	235.47	99.072	52.407	25.506	2.6945e-07	51.252	98.534	18.393	57.440	-28.956	72.158	114.701	-29.148	-23.023	88.574	127.851	-24.002	-19.548	-18.132	-13.923	115.497	-15.789	-8191	255	
2226.070	1	1	0	0	0.10404	0.043997	0.036036	0.27715	0.090768	0.31361	0.16009	0.17832	0.073144	0.06014	0.19553	0.3151	0.10138	0.087476	0.16176	0.21344	-3.15	-3.3563	-3.6708	-3.3104	-3.3833	-3.5938	-3.3708	-3.4875	-3.5667	-3.2292	-3.6562	-3.4458	-3.5958	-3.5687	-3.4958	-3.5542	-26.232	117.109	298.898	281.760	114.644	308.644	126.896	291.240	38.795	277.072	-26.390	290.116	-26.870	64.747	-9.281	310.607	0.00025508	0.00026613	9.4478e-05	511.49	2.5748e-06	2.7986e-06	710.45	150.53	3.4028e-06	3.0489e-06	261.94	111.14	59.063	29.142	2.4941e-06	58.401	4.0323e-05	2.0316e-05	6.0993e-06	474.64	2.5122e-07	2.1292e-07	660.71	139.56	2.4369e-07	2.3749e-07	241.71	103.21	54.646	27.055	2.9246e-07	53.987	114.135	50.801	41.103	-28.967	101.329	107.309	-29.025	-22.840	80.684	127.849	-23.958	-19.539	-18.041	-14.128	133.548	-15.682	-8191	255	
2226.166	1	1	0	0	0.30969	0.073307	0.2109	0.034737	0.11741	0.24141	0.076669	0.14277	0.21255	0.030746	0.09177	0.26298	0.24788	0.29816	0.20193	0.06158	-3.0708	-3.1729	-3.7542	-3.5979	-3.2604	-3.7354	-3.3042	-3.3438	-3.6229	-3.0021	-3.6854	-3.4583	-3.1667	-3.7896	-3.3312	-3.3833	21.655	-40.318	120.210	26.098	255.645	287.152	122.634	228.182	228.755	185.870	30.267	240.673	260.756	-36.275	-21.791	303.476	0.00025259	0.00022821	8.3503e-05	516.27	2.6671e-06	3.3576e-06	716.46	155.06	3.2843e-06	4.169e-06	270.51	114.96	60.654	29.558	2.3887e-06	59.617	4.1862e-05	1.9791e-05	6.8816e-06	479.18	2.6756e-07	2.2684e-07	667.9	143.53	2.3567e-07	2.4241e-07	249.46	105.63	56.109	27.521	2.9063e-07	54.917	107.462	19.311	47.667	-29.181	97.331	106.602	-29.306	-22.874	128.719	122.035	-24.054	-19.579	-18.175	-13.476	105.904	-15.748	-8191	255	
2226.238	1	1	0	0	0.15082	0.24829	0.23533	0.21312	0.10867	0.14372	0.14522	0.12061	0.38079	0.22603	0.13029	0.17803	0.12786	0.21537	0.35503	0.17743	-3.4167	-3.1479	-3.6063	-3.3208	-3.3479	-3.6417	-3.2542	-3.2917	-3.5729	-3.2083	-3.4646	-3.675	-3.2062	-3.8333	-3.4021	-3.3417	100.553	260.747	70.049	249.935	196.587	-32.137	201.048	-22.136	214.453	199.461	47.088	262.850	141.616	255.571	179.924	194.118	0.00030385	0.00044886	0.00011203	519.91	3.5368e-06	1.9876e-06	724.81	159.74	2.4199e-06	4.375e-06	273.41	113.21	59.917	28.951	2.2816e-06	57.841	4.382e-05	2.2283e-05	6.953e-06	481.52	2.5518e-07	2.3841e-07	673.87	146.54	2.3464e-07	2.5937e-07	251.49	105.01	55.419	26.872	2.8584e-07	53.56	107.782	44.551	62.965	-28.873	105.262	91.102	-29.217	-22.889	100.914	119.427	-23.685	-19.329	-17.812	-13.549	150.466	-15.573	-8191	255	
2226.359	1	1	0	0	0.061149	0.093218	0.14594	0.372	0.22724	0.16007	0.2233	0.37409	0.10489	0.31617	0.18596	0.066827	0.10416	0.252	0.075176	0.32958	-3.2271	-3.3917	-3.5021	-3.5563	-3.2396	-3.9104	-3.5083	-3.4188	-3.9708	-3.2958	-3.4792	-3.5083	-3.0479	-3.6854	-3.4792	-3.3292	300.396	29.067	167.394	4.206	-15.552	-13.391	-32.564	257.159	247.294	40.239	84.823	219.654	283.554	255.349	298.315	259.624	0.00029288	0.00039244	7.5577e-05	514.77	3.0401e-06	3.937e-06	721.55	156.23	3.4947e-06	4.1725e-06	271.58	114.1	60.3	29.546	3.6918e-06	59.08	4.0589e-05	2.4056e-05	6.5247e-06	475.08	2.5317e-07	2.5167e-07	668.85	144.96	2.351e-07	2.6237e-07	250.69	105.28	55.902	27.445	2.8484e-07	54.465	101.490	34.949	18.516	-28.858	117.903	85.787	-28.868	-23.048	107.107	92.719	-23.959	-19.202	-17.962	-13.490	118.997	-16.084	-8191	255	
2226.453	1	1	0	0	0.17465	0.034053	0.099015	0.13008	0.25796	0.17621	0.26616	0.09811	0.07431	0.079176	0.19566	0.34207	0.12898	0.24281	0.18298	0.30401	-3.3833	-3.3667	-3.3	-3.5062	-3.3646	-3.7188	-3.5771	-3.3563	-3.6583	-3.4708	-3.4938	-3.725	-3.0979	-3.5979	-3.4792	-3.2708	160.682	290.952	28.288	232.774	283.547	270.866	262.714	226.424	135.003	303.091	243.793	270.301	177.082	245.574	217.918	279.354	0.00030805	0.00031802	7.939e-05	507.16	3.3887e-06	3.0756e-06	713.16	155.83	2.3513e-06	3.2273e-06	270.88	112.99	59.391	29.454	2.2582e-06	59.6	4.3458e-05	2.631e-05	6.6e-06	470.01	2.5381e-07	2.6398e-07	663.55	144.25	2.49e-07	2.6402e-07	249.69	104.7	55.122	27.321	2.5559e-07	54.683	109.377	54.078	51.111	-28.916	100.226	85.036	-29.191	-22.967	53.841	131.550	-23.906	-19.129	-18.220	-13.854	106.289	-15.895	-8191	255	
2226.549	1	1	0	0	0.24789	0.088469	0.32643	0.23222	0.081505	0.34728	0.033315	0.13299	0.27682	0.36736	0.055927	0.16534	0.10856	0.24919	0.077598	0.18569	-3.3083	-3.4313	-3.2125	-3.6604	-3.3354	-3.5396	-3.6063	-3.0438	-3.5396	-3.5271	-3.3771	-3.6354	-3.3167	-3.4688	-3.4021	-3.3604	-39.277	203.417	150.494	289.626	218.157	301.642	297.091	244.454	128.269	122.072	51.088	184.635	210.305	309.453	225.633	234.764	0.00027222	0.00030709	9.5263e-05	506.13	2.1674e-06	4.0315e-06	707.98	153.57	2.2894e-06	3.0394e-06	269.9	112.06	58.809	29.231	2.8969e-06	59.055	4.383e-05	2.487e-05	6.5452e-06	466.3	2.7198e-07	2.6255e-07	659.97	142.66	2.5954e-07	2.729e-07	248.79	103.64	54.547	27.145	2.6279e-07	54.517	110.721	52.504	28.015	-28.827	106.129	92.459	-28.990	-23.054	109.242	119.764	-23.598	-19.090	-18.043	-13.784	98.152	-15.699	-8191	255	
2226.645	1	1	0	0	0.10647	0.037873	0.12224	0.24818	0.10183	0.12405	0.18864	0.081865	0.15368	0.18143	0.2282	0.080465	0.17764	0.14961	0.20386	0.095418	-3.15	-3.5208	-3.1833	-3.5	-3.1979	-3.3167	-3.7458	-3.2479	-3.6792	-3.7021	-3.1958	-3.5812	-3.4396	-3.2479	-3.6896	-3.0792	-9.968	127.344	250.031	249.270	246.265	271.678	309.738	18.585	-1.153	88.596	237.308	252.800	278.547	11.504	220.381	20.428	0.00029575	0.00036031	0.00011482	503.7	2.125e-06	3.3744e-06	711.14	155.15	4.1069e-06	2.3193e-06	268.17	111.46	58.659	29.056	2.0636e-06	58.286	4.8015e-05	2.468e-05	6.2773e-06	464.46	2.8573e-07	2.704e-07	659.78	142.67	2.9033e-07	2.4741e-07	247.12	103.03	54.122	26.966	2.5073e-07	53.888	102.884	49.381	55.526	-29.100	116.143	103.389	-29.132	-22.834	128.577	136.810	-24.061	-19.232	-19.008	-13.698	116.765	-15.670	-8191	255	
2226.766	1	1	0	0	0.12321	0.20754	0.16839	0.050155	0.1201	0.057433	0.060897	0.084938	0.41438	0.02619	0.12265	0.20789	0.041537	0.17978	0.10834	0.40676	-3.2354	-3.5125	-3.1083	-3.6292	-3.0917	-3.2438	-3.6688	-3.2438	-3.3312	-3.45	-3.3063	-3.4542	-3.3708	-3.3646	-3.6292	-3.375	300.147	6.082	60.718	76.225	24.410	82.480	233.476	-15.376	22.643	-26.895	-14.259	-3.206	-13.479	261.401	-35.549	283.906	0.00028474	0.00030048	9.8311e-05	498.55	2.7834e-06	4.1034e-06	701.47	150.63	3.3688e-06	2.8775e-06	263.95	108.1	56.755	28.319	1.8096e-06	57.053	4.5512e-05	2.14e-05	5.891e-06	460.27	2.991e-07	2.534e-07	649.7	140.01	2.8131e-07	2.4999e-07	242.89	100.38	52.758	26.294	2.3782e-07	52.794	109.250	48.048	67.544	-29.081	121.976	91.492	-29.140	-22.772	89.094	112.579	-23.467	-19.551	-18.252	-13.648	141.883	-15.775	-8191	255	
2226.862	1	1	0	0	0.36531	0.16473	0.077943	0.19908	0.32172	0.27598	0.35038	0.30907	0.23068	0.22087	0.16877	0.19864	0.25281	0.15011	0.21491	0.36738	-2.9646	-3.4104	-3.0083	-3.5938	-3.2417	-3.1729	-3.5667	-3.4333	-3.325	-3.3896	-3.1542	-3.5479	-3.5604	-3.175	-3.65	-3.4375	-3.424	-21.375	224.779	41.272	151.060	-1.231	46.571	83.618	290.256	158.232	303.084	107.610	289.905	50.598	308.288	228.588	0.00028587	0.00031403	6.8145e-05	495.38	3.3128e-06	3.9064e-06	698.8	149.96	4.4095e-06	2.5523e-06	260.01	107.72	56.078	27.7	2.0565e-06	56.921	4.5256e-05	2.1757e-05	5.5331e-06	457.65	2.7499e-07	2.3068e-07	648.97	138.85	2.7936e-07	2.2488e-07	240.41	99.476	51.881	25.881	2.3997e-07	52.411	104.799	54.174	36.054	-28.897	93.791	84.255	-28.951	-22.886	91.294	125.587	-23.813	-19.418	-18.380	-13.640	121.068	-15.582	-8191	255	
2226.958	1	1	0	0	0.1569	0.076468	0.13115	0.14396	0.048379	0.16503	0.27543	0.21381	0.20595	0.10554	0.096183	0.1588	0.1753	0.09446	0.20803	0.23654	-3.1146	-3.5542	-3.2646	-3.5021	-3.3667	-3.0042	-3.7083	-3.4188	-3.2771	-3.5979	-3.2208	-3.3604	-3.5229	-3.2208	-3.6979	-3.4958	313.498	263.744	99.410	-6.172	262.101	224.818	-31.928	142.056	174.526	257.731	296.808	186.409	50.348	-39.058	218.760	283.372	0.00029844	0.00021318	7.9296e-05	492.55	1.2397e-06	2.1381e-06	702.13	149.52	1.6616e-06	2.2517e-06	261.29	106.27	55.824	27.437	2.0435e-06	55.978	4.397e-05	2.067e-05	6.2998e-06	457.82	2.6425e-07	2.4318e-07	650.46	138.89	2.6699e-07	2.3776e-07	240.92	98.72	51.545	25.516	2.6041e-07	51.647	107.813	28.300	46.171	-29.281	50.102	65.347	-28.885	-23.189	75.831	105.165	-23.652	-19.057	-18.053	-13.582	141.699	-15.685	-8191	255	
2227.054	1	1	0	0	0.25512	0.11794	0.14148	0.21586	0.25494	0.1601	0.18235	0.17574	0.13575	0.14519	0.26622	0.26601	0.12405	0.082023	0.12425	0.23872	-2.8312	-3.65	-3.3167	-3.7667	-3.7125	-3.2833	-3.6312	-3.2854	-3.2021	-3.6188	-3.3917	-3.4208	-3.5	-3.2479	-3.6125	-3.5542	118.628	26.443	23.757	159.605	289.659	243.641	-33.504	298.750	278.717	167.676	251.613	317.446	287.243	252.912	280.953	318.627	0.00028306	0.00021894	6.2456e-05	491.58	1.816e-06	3.9364e-06	701.34	149	2.9931e-06	4.5843e-06	258.89	104.01	54.69	26.526	2.4122e-06	54.505	4.4249e-05	2.039e-05	6.5716e-06	456.57	2.4345e-07	2.2718e-07	649.91	137.88	2.6436e-07	2.0658e-07	238.33	96.729	50.417	24.803	2.6191e-07	50.392	106.095	46.217	33.986	-29.001	122.618	109.711	-29.323	-23.019	88.616	87.773	-23.716	-19.176	-18.128	-13.438	140.610	-15.518	-8191	255	
2227.151	1	1	0	0	0.12185	0.080729	0.14757	0.17731	0.14493	0.055958	0.088301	0.176	0.16129	0.20596	0.17176	0.012768	0.10614	0.042305	0.25595	0.03072	-2.6417	-3.5917	-3.3729	-3.4375	-3.6312	-3.3021	-3.6729	-3.4479	-3.0229	-3.5208	-3.35	-3.2188	-3.7146	-3.1479	-3.4604	-3.5375	312.572	289.919	7.854	60.447	46.522	220.135	-8.065	-31.190	-0.492	213.106	185.394	269.911	285.606	9.756	82.960	175.809	0.00028725	0.00032974	7.6077e-05	489.67	2.3281e-06	2.9516e-06	696.31	146.93	9.7587e-07	3.3422e-06	258.77	104.27	54.385	26.846	2.2591e-06	54.8	4.3644e-05	2.0337e-05	6.8024e-06	455.06	2.4326e-07	2.2388e-07	646.36	136.4	2.6061e-07	2.3226e-07	237.74	96.6	50.5	24.954	2.8121e-07	50.628	100.984	30.880	81.731	-29.035	98.849	71.068	-29.197	-22.811	18.386	120.238	-23.793	-19.353	-17.603	-13.587	135.643	-15.690	-8191	255	
2227.247	1	1	0	0	0.029941	0.10031	0.084163	0.11679	0.10297	0.11811	0.27999	0.1721	0.034243	0.024762	0.12062	0.041271	0.13418	0.075347	0.13489	0.23185	-2.8333	-3.4604	-3.2229	-3.3229	-3.5104	-3.0604	-3.6063	-3.4938	-3.1979	-3.7667	-3.3521	-3.4875	-3.4667	-3.2375	-3.5938	-3.7125	225.392	148.785	49.555	304.476	217.356	186.643	274.417	-10.812	241.852	13.612	-0.289	226.498	-28.749	76.146	93.737	213.643	0.0002768	0.00017808	0.00011959	494.14	2.3194e-06	2.1739e-06	697.91	148.84	2.1837e-06	2.4104e-06	260.76	105.75	55.003	27.016	2.7371e-06	55.018	4.28e-05	2.222e-05	7.0254e-06	456.97	2.2037e-07	2.4371e-07	649.31	137.4	2.3071e-07	2.3269e-07	239.91	97.498	50.724	25.071	2.9135e-07	50.935	104.588	45.321	20.402	-28.928	105.074	75.934	-29.358	-22.824	71.909	103.805	-23.792	-18.991	-18.358	-13.523	104.422	-15.454	-8191	255	
2227.366	1	1	0	0	0.2145	0.21836	0.18371	0.19103	0.13252	0.084299	0.26916	0.29969	0.090219	0.092624	0.020685	0.14164	0.0733	0.16328	0.12653	0.36437	-2.8708	-3.475	-3.5667	-3.2771	-3.6083	-3.4417	-3.4833	-3.5708	-3.1896	-3.6208	-3.6104	-3.4021	-3.6646	-3.4354	-3.3563	-3.8104	75.606	250.790	98.971	-26.311	262.346	151.702	238.126	-10.362	27.546	-40.148	5.966	257.143	143.148	-7.027	159.645	289.939	0.0002816	0.0002511	0.00010058	495.82	4.0616e-06	2.9715e-06	702.7	148.99	2.2885e-06	1.4607e-06	260.53	105.16	54.489	26.833	1.8188e-06	55.001	4.1945e-05	2.3804e-05	6.819e-06	458.02	2.4559e-07	2.5705e-07	651.57	137.72	2.4591e-07	2.6133e-07	240.21	97.623	50.575	24.935	2.7558e-07	50.648	101.164	39.545	43.369	-28.828	111.059	107.296	-29.135	-23.108	65.301	110.623	-23.763	-19.346	-17.952	-13.472	120.274	-15.985	-8191	255	
2227.462	1	1	0	0	0.24113	0.067582	0.1855	0.13445	0.10764	0.10219	0.10322	0.069253	0.1425	0.040187	0.081776	0.11395	0.1298	0.31359	0.20836	0.15069	-2.7438	-3.8354	-3.3521	-3.4125	-3.6333	-3.4292	-3.3937	-3.6083	-3.1167	-3.5292	-3.6417	-3.4375	-3.7521	-3.4917	-3.2958	-3.5833	156.546	97.537	243.633	224.882	79.025	175.552	210.742	123.941	82.820	-0.714	287.276	293.385	215.261	272.811	9.407	288.694	0.00026577	0.00028946	8.2536e-05	493.58	1.7993e-06	3.38e-06	699.49	148.57	1.9402e-06	4.417e-06	260.1	104.67	54.184	26.562	2.3311e-06	54.31	4.1866e-05	2.4463e-05	6.1668e-06	457.54	2.4064e-07	2.7478e-07	650.45	137.21	2.5519e-07	2.516e-07	239.74	97.1	50.306	24.735	2.5827e-07	50.093	109.476	47.402	45.271	-28.649	98.033	72.122	-29.172	-23.460	118.463	111.028	-24.024	-19.568	-18.164	-13.847	143.905	-15.851	-8191	255	
2227.533	1	1	0	0	0.25528	0.22505	0.16049	0.032255	0.063936	0.1751	0.091821	0.24059	0.050947	0.23663	0.038711	0.082752	0.14118	0.092762	0.14338	0.2388	-2.8875	-3.4062	-3.5417	-2.9917	-3.6646	-3.4625	-3.5875	-3.6354	-3.3083	-3.2979	-3.6354	-3.2958	-3.5687	-3.4583	-3.3875	-3.7833	259.033	70.016	169.998	271.171	276.551	13.844	-3.938	104.902	192.083	32.097	184.326	6.821	302.991	94.912	185.125	-39.335	0.00026518	0.0003711	6.8471e-05	492.43	1.6968e-06	2.5935e-06	696.66	148.61	2.9044e-06	1.3816e-06	258.57	103.77	53.639	26.347	1.764e-06	53.827	4.403e-05	2.3969e-05	5.9193e-06	455.77	2.4498e-07	2.549e-07	647.13	136.86	2.9365e-07	2.4803e-07	237.66	96.192	49.827	24.49	2.5559e-07	49.759	110.303	57.027	30.217	-29.045	74.369	120.248	-29.276	-23.176	106.594	100.971	-24.010	-19.466	-18.613	-13.516	108.876	-15.629	-8191	255	
2227.630	1	1	0	0	0.40184	0.063795	0.084955	0.14667	0.065689	0.18828	0.19349	0.23215	0.037443	0.10748	0.049488	0.12902	0.24667	0.14819	0.11769	0.22182	-2.9479	-3.5375	-3.4833	-3.4	-3.5167	-3.5167	-3.3729	-3.7687	-3.2	-3.4813	-3.8563	-3.3667	-3.5125	-3.4771	-3.2458	-3.6896	204.329	56.064	190.610	58.607	129.770	102.644	238.247	229.513	264.754	109.042	-22.487	277.697	242.661	303.966	167.848	317.788	0.00027253	0.000281	6.0029e-05	494.67	3.7844e-06	2.512e-06	697.64	147.49	2.2428e-06	3.7818e-06	259.17	103.96	54.1	26.307	2.4861e-06	54.31	4.4359e-05	2.4281e-05	5.5966e-06	456.53	2.7891e-07	2.4748e-07	649.75	136.84	2.8101e-07	2.5087e-07	239.41	96.59	50.063	24.53	2.5368e-07	50.108	104.370	40.441	61.856	-28.740	104.333	111.164	-28.942	-23.216	75.014	117.217	-23.511	-19.475	-18.513	-13.579	121.940	-15.593	-8191	255	
2227.726	1	1	0	0	0.099746	0.11432	0.13607	0.2187	0.031103	0.18512	0.12782	0.18636	0.051883	0.14192	0.092071	0.035747	0.079783	0.24934	0.18272	0.18375	-2.8604	-3.3646	-3.6333	-3.3521	-3.6354	-3.5083	-3.425	-3.6792	-3.5458	-3.3312	-3.6896	-3.3438	-3.4729	-3.4958	-3.0771	-3.7104	272.947	63.462	-2.509	-2.266	247.355	-17.280	315.940	233.505	280.280	165.756	270.984	256.124	60.570	283.209	161.152	280.919	0.00028963	0.00033235	0.00010783	493.06	2.2538e-06	2.6202e-06	703.46	148.18	3.2891e-06	1.987e-06	260.34	103.65	53.354	25.868	1.0825e-06	53.391	4.3418e-05	2.446e-05	5.4724e-06	456.2	2.7423e-07	2.248e-07	652.76	136.92	2.8528e-07	2.4245e-07	240.2	96.045	49.431	24.066	2.3357e-07	49.313	109.144	17.375	31.279	-29.201	101.022	72.064	-28.891	-22.850	110.882	131.064	-23.957	-19.091	-18.835	-12.753	122.488	-15.486	-8191	255	
2227.846	1	1	0	0	0.17896	0.21868	0.11934	0.084159	0.13241	0.038379	0.22086	0.10054	0.16607	0.078585	0.10502	0.0337	0.067008	0.11846	0.039732	0.27102	-3.0792	-3.5042	-3.4417	-3.1896	-3.5042	-3.4417	-3.3646	-3.6562	-3.3042	-3.2208	-3.8354	-3.2042	-3.6521	-3.6104	-3.0958	-3.8833	161.628	37.318	-26.067	75.563	24.843	116.514	282.622	158.894	317.683	216.388	13.181	314.321	-34.037	-26.871	307.571	243.579	0.00027587	0.00034423	9.8864e-05	493.92	2.0411e-06	2.3698e-06	709.18	145.39	2.6809e-06	2.5673e-06	256.54	100.81	51.557	24.702	2.3685e-06	50.71	4.2959e-05	2.2129e-05	5.4715e-06	456.64	2.5366e-07	2.233e-07	654.56	135.26	2.6867e-07	2.3126e-07	236.75	93.35	47.796	23.015	2.4158e-07	47.104	108.251	38.163	49.897	-29.351	137.066	87.480	-28.833	-22.747	112.263	114.169	-23.598	-18.749	-17.468	-13.015	132.162	-15.191	-8191	255	
2227.943	1	1	0	0	0.18236	0.064603	0.18452	0.11335	0.1135	0.026906	0.081838	0.17439	0.20288	0.20357	0.18449	0.13164	0.1576	0.20462	0.23561	0.20883	-3.1021	-3.3771	-3.6521	-3.6	-3.4375	-3.7	-3.4729	-3.5271	-3.7021	-3.3167	-3.725	-3.2396	-3.5146	-3.4896	-3.325	-3.5833	159.354	89.116	308.901	-9.297	123.363	306.796	316.011	197.501	52.514	72.277	115.821	266.145	232.588	274.387	62.376	282.061	0.00025912	0.00032894	5.9987e-05	496.94	1.2896e-06	2.6416e-06	713.46	144.3	2.8247e-06	1.7152e-06	253.12	96.901	49.46	23.055	1.8011e-06	48.24	4.165e-05	2.1603e-05	5.5888e-06	460.46	2.6375e-07	2.0442e-07	663.64	133.52	2.4297e-07	2.1673e-07	234	89.746	45.829	21.423	2.6325e-07	44.78	105.050	46.167	60.371	-29.147	113.139	105.481	-29.453	-23.132	67.042	102.242	-23.566	-18.662	-17.502	-12.806	117.079	-14.859	-8191	255	
2228.039	1	1	0	0	0.088781	0.15938	0.22559	0.22888	0.065433	0.26119	0.12874	0.11808	0.059426	0.043171	0.23179	0.037971	0.11105	0.086899	0.25358	0.17609	-3.1688	-3.2938	-3.4625	-3.4938	-3.2521	-3.5708	-3.2292	-3.5708	-3.5312	-3.0854	-3.6771	-3.4208	-3.3458	-3.8458	-3.4125	-3.3729	245.049	305.824	-2.194	94.253	206.874	191.274	201.955	147.216	209.225	276.608	213.092	304.333	74.272	-18.418	141.423	239.507	0.00024255	0.00028685	0.00010673	511.74	2.1603e-06	1.1757e-06	727.28	144.15	3.256e-06	3.0667e-06	252.84	93.779	47.644	21.577	8.0066e-07	45.623	3.9652e-05	2.1385e-05	6.3291e-06	471.26	2.4265e-07	2.0308e-07	674.47	132.94	2.4916e-07	2.3726e-07	233.58	87.215	44.27	20	2.7918e-07	42.263	99.402	17.169	71.558	-29.239	104.809	112.205	-29.170	-23.181	99.251	135.101	-23.468	-18.683	-17.465	-12.399	88.488	-14.852	-8191	255	
#DATA ENDS
