BOXY.EXE: ISS Imagent and Oximeter Data Acquisition Program Version 0.80
Ascii Record File

#ACQ INFORMATION
2  Detector Channels 
16  External MUX Channels 
1  Auxiliary Channels 
5000  Waveform (CCF) Frequency (Hz)
1  Waveforms Skipped 
30  Waveforms Averaged 
1  Cycles Averaged 
16  Acquisitions per Waveform 
10.0806  Updata Rate (Hz) 

#FILE INFORMATION
TRUE -- External MUX Channel results are PARSED.
FALSE -- AC DC and Phase are NOT grouped.
TRUE -- Companion Program Settings File CREATED.
FALSE -- AC data not excluded
FALSE -- DC data not excluded
FALSE -- Phase data not excluded
FALSE -- Auxillary Chn. data not excluded
Tab delimiters

#CALIBRATION STATE
TRUE -- Waveform Calibration Values APPLIED.


#AUX CALIBRATION VALUES
Val Type	aux-1	

Term	1.0000e+00	
Factor	0.0000e+00	


#WF CALIBRATION VALUES
A = Detector Channel
Val Type	A-AC1	A-AC2	A-AC3	A-AC4	A-AC5	A-AC6	A-AC7	A-AC8	A-AC9	A-AC10	A-AC11	A-AC12	A-AC13	A-AC14	A-AC15	A-AC16	A-DC1	A-DC2	A-DC3	A-DC4	A-DC5	A-DC6	A-DC7	A-DC8	A-DC9	A-DC10	A-DC11	A-DC12	A-DC13	A-DC14	A-DC15	A-DC16	A-Ph1	A-Ph2	A-Ph3	A-Ph4	A-Ph5	A-Ph6	A-Ph7	A-Ph8	A-Ph9	A-Ph10	A-Ph11	A-Ph12	A-Ph13	A-Ph14	A-Ph15	A-Ph16	

Term	0.00000e+00	0.00000e+00	0.00000e+00	0.00000e+00	0.00000e+00	0.00000e+00	0.00000e+00	0.00000e+00	0.00000e+00	0.00000e+00	0.00000e+00	0.00000e+00	0.00000e+00	0.00000e+00	0.00000e+00	0.00000e+00	0.00000e+00	0.00000e+00	0.00000e+00	0.00000e+00	0.00000e+00	0.00000e+00	0.00000e+00	0.00000e+00	0.00000e+00	0.00000e+00	0.00000e+00	0.00000e+00	0.00000e+00	0.00000e+00	0.00000e+00	0.00000e+00	0.00000e+00	0.00000e+00	0.00000e+00	0.00000e+00	0.00000e+00	0.00000e+00	0.00000e+00	0.00000e+00	0.00000e+00	0.00000e+00	0.00000e+00	0.00000e+00	0.00000e+00	0.00000e+00	0.00000e+00	0.00000e+00	
Factor	1.00000e+00	1.00000e+00	1.00000e+00	1.00000e+00	1.00000e+00	1.00000e+00	1.00000e+00	1.00000e+00	1.00000e+00	1.00000e+00	1.00000e+00	1.00000e+00	1.00000e+00	1.00000e+00	1.00000e+00	1.00000e+00	1.00000e+00	1.00000e+00	1.00000e+00	1.00000e+00	1.00000e+00	1.00000e+00	1.00000e+00	1.00000e+00	1.00000e+00	1.00000e+00	1.00000e+00	1.00000e+00	1.00000e+00	1.00000e+00	1.00000e+00	1.00000e+00	X	X	X	X	X	X	X	X	X	X	X	X	X	X	X	X	

B = Detector Channel
Val Type	B-AC1	B-AC2	B-AC3	B-AC4	B-AC5	B-AC6	B-AC7	B-AC8	B-AC9	B-AC10	B-AC11	B-AC12	B-AC13	B-AC14	B-AC15	B-AC16	B-DC1	B-DC2	B-DC3	B-DC4	B-DC5	B-DC6	B-DC7	B-DC8	B-DC9	B-DC10	B-DC11	B-DC12	B-DC13	B-DC14	B-DC15	B-DC16	B-Ph1	B-Ph2	B-Ph3	B-Ph4	B-Ph5	B-Ph6	B-Ph7	B-Ph8	B-Ph9	B-Ph10	B-Ph11	B-Ph12	B-Ph13	B-Ph14	B-Ph15	B-Ph16	

Term	0.00000e+00	0.00000e+00	0.00000e+00	0.00000e+00	0.00000e+00	0.00000e+00	0.00000e+00	0.00000e+00	0.00000e+00	0.00000e+00	0.00000e+00	0.00000e+00	0.00000e+00	0.00000e+00	0.00000e+00	0.00000e+00	0.00000e+00	0.00000e+00	0.00000e+00	0.00000e+00	0.00000e+00	0.00000e+00	0.00000e+00	0.00000e+00	0.00000e+00	0.00000e+00	0.00000e+00	0.00000e+00	0.00000e+00	0.00000e+00	0.00000e+00	0.00000e+00	-8.38749e+01	-1.27561e+02	-1.29383e+02	-1.82058e+02	-6.19891e+01	-7.14628e+01	-1.55747e+02	-1.62015e+02	-5.82974e+01	-6.86231e+01	-1.71238e+02	-1.71237e+02	-1.82061e+02	-1.77401e+02	-5.37240e+01	-1.50384e+02	
Factor	1.42709e-05	1.38839e-04	3.86687e-05	4.05436e-01	1.18614e-06	1.51150e-06	1.47071e-01	4.85511e-02	1.02166e-06	1.47325e-06	7.65610e-02	2.53067e-02	2.09732e-02	7.51348e-03	1.33112e-06	1.08675e-02	6.93059e-06	9.99898e-06	2.78233e-06	2.11537e-01	1.08082e-07	1.11375e-07	7.28781e-02	2.56159e-02	1.03966e-07	1.10888e-07	3.90711e-02	1.30328e-02	1.12180e-02	3.99480e-03	1.06624e-07	5.59534e-03	X	X	X	X	X	X	X	X	X	X	X	X	X	X	X	X	



#DISTANCE SETTINGS
A = Detector Channel
A-1	A-2	A-3	A-4	A-5	A-6	A-7	A-8	A-9	A-10	A-11	A-12	A-13	A-14	A-15	A-16	

2.5000e+00	3.0000e+00	2.5000e+00	3.0000e+00	2.0000e+00	3.0000e+00	1.5000e+00	3.0000e+00	3.0000e+00	3.0000e+00	3.0000e+00	3.0000e+00	3.0000e+00	3.0000e+00	1.5000e+00	3.0000e+00	

B = Detector Channel
B-1	B-2	B-3	B-4	B-5	B-6	B-7	B-8	B-9	B-10	B-11	B-12	B-13	B-14	B-15	B-16	

1.0000e+01	1.0000e+01	1.0000e+01	1.4400e+00	1.0000e+01	1.0000e+01	1.5100e+00	1.9400e+00	1.0000e+01	1.0000e+01	1.9900e+00	2.4900e+00	2.4100e+00	2.9000e+00	1.0000e+01	2.9800e+00	




#DATA BEGINS
time	group	step	mark	flag	A-AC1	A-AC2	A-AC3	A-AC4	A-AC5	A-AC6	A-AC7	A-AC8	A-AC9	A-AC10	A-AC11	A-AC12	A-AC13	A-AC14	A-AC15	A-AC16	A-DC1	A-DC2	A-DC3	A-DC4	A-DC5	A-DC6	A-DC7	A-DC8	A-DC9	A-DC10	A-DC11	A-DC12	A-DC13	A-DC14	A-DC15	A-DC16	A-Ph1	A-Ph2	A-Ph3	A-Ph4	A-Ph5	A-Ph6	A-Ph7	A-Ph8	A-Ph9	A-Ph10	A-Ph11	A-Ph12	A-Ph13	A-Ph14	A-Ph15	A-Ph16	B-AC1	B-AC2	B-AC3	B-AC4	B-AC5	B-AC6	B-AC7	B-AC8	B-AC9	B-AC10	B-AC11	B-AC12	B-AC13	B-AC14	B-AC15	B-AC16	B-DC1	B-DC2	B-DC3	B-DC4	B-DC5	B-DC6	B-DC7	B-DC8	B-DC9	B-DC10	B-DC11	B-DC12	B-DC13	B-DC14	B-DC15	B-DC16	B-Ph1	B-Ph2	B-Ph3	B-Ph4	B-Ph5	B-Ph6	B-Ph7	B-Ph8	B-Ph9	B-Ph10	B-Ph11	B-Ph12	B-Ph13	B-Ph14	B-Ph15	B-Ph16	aux-1	digaux	

25930.729	1	1	0	768	0.30583	0.20666	0.16151	0.032565	0.16706	0.043236	0.32435	0.062224	0.21227	0.10651	0.27781	0.22533	0.089722	0.045221	0.29237	0.29328	-2.5563	-2.5896	-2.8833	-2.8958	-2.2792	-2.7167	-2.9958	-2.8396	-2.9333	-2.6188	-3.05	-2.8479	-2.7542	-2.9646	-2.6125	-2.8937	356.738	396.182	324.895	174.824	384.222	204.553	474.638	367.219	506.749	318.128	413.841	474.530	174.788	414.419	327.736	462.441	0.00050622	0.00072645	0.00010933	1394.6	5.1475e-06	3.3338e-06	1400.9	364.49	4.288e-06	6.233e-06	418.62	136.91	119.17	41.214	5.7458e-06	51.187	0.00096423	0.0011488	0.00032258	1430.6	1.2311e-05	1.274e-05	1424.3	372.11	1.2142e-05	1.2399e-05	427.04	141.21	122.41	42.629	1.2153e-05	52.875	240.355	243.823	231.320	178.670	329.219	333.275	178.599	183.469	320.370	354.490	183.037	187.360	187.994	192.685	321.240	191.683	-8191	255	
25930.824	1	1	0	0	0.039331	0.039943	0.23146	0.068161	0.29937	0.033806	0.28592	0.31865	0.18152	0.10693	0.28502	0.14011	0.28428	0.041824	0.055792	0.085111	-2.5229	-2.5354	-2.6417	-2.8208	-2.5896	-2.8958	-2.9271	-2.6271	-2.9208	-2.5292	-2.7625	-2.8896	-2.6958	-3.0792	-2.8146	-2.5375	295.870	438.142	453.450	340.088	363.662	418.853	449.743	475.097	361.027	395.468	484.096	473.130	492.255	458.739	305.216	393.481	0.00049102	0.00061722	0.00014473	1400.2	3.6993e-06	8.5605e-06	1392.6	365.29	4.9273e-06	5.4705e-06	416.95	137.61	118.93	41.164	5.2228e-06	51.457	0.000957	0.0011211	0.00031819	1428.6	1.2304e-05	1.2622e-05	1419.6	372.49	1.2077e-05	1.2411e-05	425.91	141.41	122.23	42.568	1.2128e-05	52.957	238.799	248.888	260.727	178.730	298.651	338.556	178.624	183.389	290.507	317.995	183.076	187.289	187.961	192.447	305.835	191.587	-8191	255	
25930.922	1	1	0	0	0.052296	0.22176	0.13078	0.12085	0.059547	0.12582	0.23832	0.23512	0.16887	0.011903	0.17424	0.41227	0.11779	0.082012	0.043947	0.17758	-2.6188	-2.6083	-2.4521	-2.8729	-2.5771	-2.9083	-3.1167	-2.7375	-3.0417	-2.675	-2.6958	-3.1312	-2.5438	-2.9896	-2.7229	-2.65	278.886	414.418	481.819	433.659	243.437	208.668	448.125	506.719	483.514	294.284	483.509	487.547	501.604	474.158	328.402	432.316	0.00048257	0.00041405	0.00017503	1405.4	4.7635e-06	3.8421e-06	1395.5	364.74	5.2006e-06	6.5839e-06	416	137.64	118.84	41.276	5.67e-06	51.27	0.00095327	0.0011477	0.00031386	1432.9	1.2087e-05	1.2653e-05	1424	372.32	1.1991e-05	1.2666e-05	426.45	141.44	122.45	42.601	1.2072e-05	52.973	239.624	269.499	251.713	179.010	313.212	227.876	178.637	183.705	301.927	306.624	183.121	187.247	187.812	192.345	344.934	191.903	-8191	255	
25931.018	1	1	0	0	0.11367	0.12712	0.073054	0.33812	0.085084	0.16361	0.17663	0.13543	0.05643	0.046816	0.22682	0.14306	0.11327	0.089218	0.30186	0.20933	-2.5062	-2.8979	-2.6583	-3.0208	-2.5687	-2.8604	-2.9042	-2.6937	-2.85	-2.8083	-2.7479	-2.9104	-2.725	-2.8104	-2.6792	-2.7396	346.863	167.945	392.259	453.887	244.223	316.048	428.250	256.713	307.247	267.125	423.657	464.648	507.526	245.930	455.219	166.874	0.00044274	0.00073702	0.00019303	1400.4	5.1484e-06	3.8409e-06	1402	363.12	6.4831e-06	4.1336e-06	416.26	137.07	119.01	41.245	4.8343e-06	50.998	0.00093625	0.0011179	0.00031264	1426.5	1.2308e-05	1.2644e-05	1421.8	371.93	1.189e-05	1.2453e-05	426.45	141.1	122.08	42.527	1.2013e-05	52.828	242.587	257.142	287.352	179.047	327.010	324.579	178.628	183.521	317.242	304.043	183.135	187.147	187.862	192.571	318.685	191.671	-8191	255	
25931.113	1	1	0	0	0.040732	0.15827	0.1349	0.20558	0.16697	0.17745	0.38716	0.077154	0.29987	0.23492	0.15193	0.231	0.18543	0.10834	0.27428	0.25185	-2.425	-2.6042	-2.6854	-2.9958	-2.6271	-2.7771	-3.025	-2.7667	-2.8667	-2.7354	-2.625	-2.9854	-2.7042	-2.7438	-3.0938	-2.6646	515.084	408.489	257.558	466.258	179.909	169.710	456.503	345.586	388.140	460.603	494.929	484.640	469.176	468.502	369.394	471.496	0.00047417	0.00016703	6.3491e-05	1392	5.0179e-06	7.9526e-06	1398.5	363.95	2.8716e-06	3.8563e-06	417.82	137.54	118.56	41.28	8.6468e-06	51.234	0.00093263	0.0011288	0.00031182	1425	1.2169e-05	1.2533e-05	1420.9	371.81	1.1987e-05	1.2212e-05	426.27	141.37	122.09	42.578	1.2198e-05	52.895	236.372	270.774	266.276	178.710	289.067	315.698	178.717	183.446	342.829	341.227	183.208	187.319	187.720	192.380	345.623	191.988	-8191	255	
25931.211	1	1	0	0	0.14542	0.088857	0.22776	0.23038	0.188	0.22534	0.3596	0.30011	0.15028	0.218	0.23924	0.19684	0.26014	0.37488	0.27552	0.1264	-2.4938	-2.75	-2.6104	-2.9437	-2.75	-2.8417	-3.1562	-2.6958	-2.775	-2.7458	-2.7646	-3.0125	-2.9042	-2.7021	-2.8708	-2.7583	254.721	176.669	234.601	186.362	291.420	340.691	510.331	474.405	242.762	509.464	476.539	448.006	421.663	479.915	409.682	417.442	0.00049609	0.000724	0.00025732	1407.3	2.7346e-06	3.4792e-06	1398.8	363.92	5.339e-06	7.3648e-06	416.78	137.59	119.07	41.292	4.4346e-06	50.995	0.00095886	0.0011204	0.00031349	1430.1	1.2215e-05	1.2581e-05	1422.7	372.16	1.2006e-05	1.2617e-05	426.3	141.41	122.14	42.613	1.2285e-05	52.841	241.174	280.186	253.443	179.156	314.513	319.097	178.888	183.425	293.354	308.567	183.178	187.218	187.676	192.325	347.778	191.778	-8191	255	
25931.330	1	1	0	0	0.14335	0.1447	0.10636	0.18754	0.013042	0.16894	0.25145	0.24489	0.14567	0.11556	0.27427	0.068611	0.11603	0.085663	0.20901	0.094348	-2.3438	-2.9146	-2.5312	-2.7958	-2.6792	-2.5854	-3.1021	-2.7875	-2.8292	-2.8312	-2.8146	-3.0125	-2.6312	-2.9042	-2.8854	-2.6688	510.803	374.372	415.409	446.936	524.906	216.891	485.016	496.333	488.868	447.128	500.699	523.463	376.792	393.657	219.668	185.811	0.00042315	0.00046552	0.00017724	1406	4.3261e-06	6.9086e-06	1398.1	364.66	3.8379e-06	6.0597e-06	416.42	137.07	118.54	41.25	3.4104e-06	51.176	0.00093225	0.0011451	0.00031416	1429.1	1.2254e-05	1.2498e-05	1421.8	372.4	1.2201e-05	1.2387e-05	426.36	141.29	122.09	42.559	1.2174e-05	52.851	242.632	264.899	272.892	178.761	324.903	304.967	178.916	183.444	338.502	291.030	183.092	187.325	187.901	192.416	312.719	191.780	-8191	255	
25931.426	1	1	0	0	0.16567	0.19331	0.03499	0.1685	0.23891	0.16739	0.30959	0.43112	0.34004	0.2316	0.26878	0.23177	0.28498	0.20642	0.10725	0.21493	-2.2188	-2.8083	-2.4396	-3.0604	-2.6104	-2.6083	-3.2562	-2.9292	-2.7292	-2.8937	-2.5812	-2.9354	-2.9458	-2.8146	-2.8312	-2.9083	166.553	245.039	284.141	437.025	420.783	452.345	454.179	170.350	524.353	187.911	496.120	392.246	169.332	165.930	373.700	495.038	0.00046989	0.00036093	0.00010104	1396.9	6.4149e-06	6.4902e-06	1390.7	364.06	3.2024e-06	7.6616e-06	415.7	136.87	118.61	41.222	4.9709e-06	51.184	0.00094152	0.0011237	0.00030958	1430.5	1.2221e-05	1.2577e-05	1418.7	371.7	1.1991e-05	1.2437e-05	426.4	141.2	122.33	42.566	1.236e-05	52.956	239.618	213.622	266.945	178.771	323.813	297.906	178.735	183.544	292.594	313.044	182.756	187.354	187.825	192.571	331.961	192.021	-8191	255	
25931.523	1	1	0	0	0.085448	0.22787	0.040844	0.12514	0.19744	0.26413	0.46547	0.13375	0.10474	0.30363	0.12108	0.32525	0.25964	0.14784	0.099584	0.15071	-2.4938	-2.9333	-2.3958	-2.9833	-2.7167	-2.6208	-3.1042	-2.7625	-2.7333	-2.975	-2.7188	-2.7958	-2.8458	-2.5292	-2.9083	-2.8542	447.507	249.102	335.293	169.250	245.346	287.728	462.730	477.532	364.838	203.725	307.981	516.680	481.992	179.440	466.299	525.158	0.00047649	0.00023733	0.00015426	1399.8	2.8691e-06	4.589e-06	1401.6	364.22	4.8699e-06	5.3237e-06	417.15	138.14	118.71	41.522	7.0796e-06	51.133	0.00094756	0.0011308	0.00031316	1431.5	1.2329e-05	1.2633e-05	1424.3	371.98	1.2164e-05	1.2768e-05	427.1	141.69	122.36	42.707	1.2399e-05	52.929	238.679	312.280	266.309	178.970	402.167	279.227	178.748	183.414	326.646	296.246	183.174	187.411	187.609	192.321	313.575	191.918	-8191	255	
25931.619	1	1	0	0	0.12785	0.052486	0.15747	0.18071	0.1363	0.34923	0.016118	0.21288	0.20201	0.27084	0.26015	0.25066	0.26075	0.27012	0.10949	0.17131	-2.225	-2.9083	-2.5646	-2.8458	-2.8875	-2.6458	-3.1271	-2.8354	-2.6958	-3.0125	-2.6875	-2.8396	-2.9688	-2.6354	-2.6583	-2.9104	225.037	259.001	490.527	227.521	398.564	394.309	315.925	362.068	387.384	198.991	468.153	482.695	206.656	520.482	426.545	422.353	0.00047941	0.00068447	9.3933e-05	1408.8	2.7333e-06	3.9377e-06	1401.4	364.56	4.6165e-06	3.7928e-06	416.39	137.38	119.2	41.311	8.7642e-06	51.266	0.00095233	0.0011384	0.00031179	1434.5	1.2313e-05	1.2391e-05	1425.1	372.04	1.1968e-05	1.2227e-05	426.68	141.25	122.35	42.6	1.216e-05	52.888	244.747	263.359	255.530	179.095	326.129	311.695	178.698	183.524	306.783	299.343	183.110	187.422	187.610	192.529	307.809	191.654	-8191	255	
25931.713	1	1	0	0	0.4011	0.19623	0.11811	0.11184	0.099727	0.19564	0.32273	0.20196	0.14908	0.081053	0.27758	0.24047	0.11679	0.35537	0.13173	0.24659	-2.0896	-2.9708	-2.4583	-2.7875	-3.0458	-2.6521	-3.1958	-2.7708	-2.7188	-2.8854	-2.9	-2.8729	-2.9708	-2.6813	-2.7375	-2.9292	431.266	393.454	260.538	433.317	305.129	213.502	448.514	443.703	430.769	194.956	461.729	507.110	266.219	468.200	391.526	452.031	0.00052338	0.00051312	0.00018589	1405.1	1.7773e-06	5.4134e-06	1403.2	364.84	8.4185e-06	3.9434e-06	415.3	137.35	118.48	41.482	7.3306e-06	51.103	0.00093681	0.0011297	0.00031544	1431.7	1.2375e-05	1.2446e-05	1423.1	372.25	1.1933e-05	1.2398e-05	426.58	141.41	122.09	42.623	1.2125e-05	52.924	239.840	260.244	233.328	178.604	310.783	282.445	178.774	183.510	301.658	325.142	182.975	187.387	188.050	192.444	332.026	191.945	-8191	255	
25931.809	1	1	0	0	0.34196	0.20771	0.15364	0.14644	0.1417	0.18504	0.29484	0.14877	0.33601	0.14079	0.35704	0.3299	0.1656	0.016365	0.31338	0.10753	-2.0833	-2.8104	-2.6604	-2.8104	-2.8292	-2.6083	-2.9875	-3.1729	-2.5396	-2.8354	-2.9188	-2.7667	-3.0438	-2.7458	-2.8292	-2.9354	196.343	166.563	216.767	325.995	419.629	444.933	442.309	459.732	288.789	271.835	470.814	524.529	447.709	510.645	239.342	497.617	0.00047471	0.00032758	2.9725e-05	1399.2	3.1326e-06	5.4569e-07	1400.8	364.95	4.2835e-06	3.6135e-06	416.5	137.41	119.02	41.39	5.7687e-06	51.221	0.00092575	0.0011122	0.00031249	1430.8	1.2218e-05	1.24e-05	1422.1	372.24	1.1813e-05	1.2457e-05	426.35	141.21	122.26	42.703	1.1985e-05	52.878	238.136	276.500	260.606	178.860	338.034	287.639	178.778	183.552	345.231	312.614	182.990	187.371	187.634	192.418	339.385	191.859	-8191	255	
25931.904	1	1	0	0	0.18795	0.068913	0.33947	0.083572	0.2653	0.21762	0.47153	0.09446	0.10433	0.10125	0.077434	0.10132	0.010163	0.26065	0.16305	0.073911	-2.1875	-2.8646	-2.6021	-2.6292	-3.0021	-2.5021	-2.9396	-2.9542	-2.6688	-2.8187	-2.875	-2.6375	-2.9917	-2.9188	-2.7417	-3.0458	389.638	322.446	165.853	207.338	246.357	359.359	500.000	459.738	381.505	306.713	234.728	479.587	493.375	514.198	504.911	400.768	0.00047714	0.00047999	0.00017469	1392.3	7.8014e-06	4.8141e-06	1402.5	363.25	6.4375e-06	5.1861e-06	416.19	137.52	118.85	41.398	4.8035e-06	51.305	0.00093355	0.0011359	0.00030831	1428.4	1.2177e-05	1.2092e-05	1421.7	371.76	1.1819e-05	1.2366e-05	426.23	141.29	122.15	42.69	1.2421e-05	53.071	243.031	278.927	256.882	179.016	333.576	331.680	178.916	183.721	294.620	317.124	182.925	187.221	187.887	192.331	317.875	191.831	-8191	255	
25932.025	1	1	0	0	0.18514	0.003375	0.15208	0.26537	0.13843	0.094224	0.23397	0.35957	0.089677	0.17064	0.35672	0.13183	0.09545	0.07873	0.087574	0.24158	-2.1208	-2.8271	-2.7958	-2.4833	-2.8167	-2.7062	-2.8479	-3.1167	-2.6208	-2.9208	-2.9938	-2.6604	-3.0187	-2.7979	-2.7083	-2.9771	302.636	381.596	323.585	169.298	356.359	177.089	463.482	478.826	496.807	438.714	485.835	467.974	191.474	205.655	278.013	507.343	0.00053185	0.00065436	0.00018315	1400	3.5555e-06	7.8905e-06	1399.8	363.19	4.2353e-06	2.6483e-06	417.08	137.49	119.49	41.271	7.9009e-06	51.149	0.0009436	0.0011505	0.00031365	1429.9	1.1992e-05	1.2319e-05	1421.8	371.8	1.1799e-05	1.2159e-05	427.19	141.3	122.52	42.647	1.212e-05	52.976	242.499	261.213	296.924	178.825	315.611	320.693	178.693	183.564	320.249	292.811	183.007	187.174	187.825	192.402	346.992	191.786	-8191	255	
25932.121	1	1	0	0	0.12547	0.063952	0.18518	0.25082	0.01407	0.1659	0.3586	0.085296	0.1233	0.17632	0.22387	0.090361	0.37499	0.41541	0.099099	0.17302	-2.2875	-2.6792	-2.7125	-2.4375	-2.9042	-2.6542	-2.8708	-2.8479	-2.6979	-2.7042	-3.0396	-2.5187	-3.0021	-2.7958	-2.5792	-3.0521	368.427	504.602	385.223	232.188	458.875	350.210	480.636	296.193	426.068	240.270	501.752	184.357	509.580	508.785	487.444	453.374	0.0004538	0.00055703	0.00019012	1411	3.3033e-06	5.6921e-06	1389.7	363.3	4.2323e-06	8.5905e-06	416.73	137.23	118.74	41.342	7.4993e-06	51.117	0.00092302	0.0011292	0.00030811	1432.8	1.2057e-05	1.2339e-05	1420	372.09	1.1729e-05	1.2198e-05	427.36	141.41	122.3	42.652	1.2079e-05	52.938	242.916	232.672	254.216	178.961	377.369	271.396	178.631	183.420	314.061	304.776	183.236	187.306	187.823	192.591	317.480	191.752	-8191	255	
25932.219	1	1	0	0	0.021959	0.11392	0.18746	0.22144	0.13463	0.21275	0.4862	0.23538	0.26351	0.07892	0.24157	0.11068	0.087443	0.14416	0.072914	0.23228	-2.3458	-2.6375	-2.8896	-2.7125	-2.8187	-2.8833	-2.7583	-3.0312	-2.6896	-2.625	-3.0292	-2.4729	-3.0417	-2.8917	-2.7083	-3.025	358.746	469.682	168.917	223.211	445.776	396.449	449.980	396.666	366.422	231.142	479.858	505.077	461.450	211.428	482.165	516.639	0.00048903	0.00057446	0.0002007	1402.2	5.5245e-06	5.9381e-06	1402.8	363.67	4.9954e-06	5.9581e-06	416.13	136.88	119.39	41.397	4.6644e-06	51.218	0.00093554	0.0011289	0.00031075	1430.5	1.2257e-05	1.2472e-05	1423.6	372.29	1.1855e-05	1.2565e-05	426.16	141.43	122.6	42.674	1.2133e-05	52.98	235.595	262.350	234.482	178.635	323.182	299.326	178.656	183.703	299.115	302.444	183.130	187.222	187.673	192.400	300.009	191.680	-8191	255	
25932.289	1	1	0	0	0.033406	0.0071013	0.1978	0.062121	0.21129	0.080993	0.032517	0.15759	0.21645	0.37236	0.14491	0.15627	0.10562	0.31591	0.16444	0.23163	-2.3521	-2.5312	-2.825	-2.575	-2.9437	-2.7021	-2.7979	-3.0521	-2.6688	-2.6958	-3.1167	-2.6521	-2.9583	-2.9437	-2.5167	-3	405.670	446.675	337.584	323.573	352.893	194.547	351.261	405.354	384.977	398.862	464.834	178.061	408.730	525.536	215.289	495.117	0.00051055	0.00058507	0.00019569	1399	4.1856e-06	4.515e-06	1396.4	364.78	6.5115e-06	5.2312e-06	417.9	137.53	118.91	41.315	1.9914e-06	51.288	0.00095258	0.0011317	0.00031054	1427.3	1.2193e-05	1.2228e-05	1420.9	372.56	1.1813e-05	1.2394e-05	426.75	141.39	122.26	42.657	1.2021e-05	53.035	242.438	270.257	254.706	178.975	300.990	317.268	178.817	183.606	316.072	299.583	182.769	187.309	187.976	192.630	304.193	191.771	-8191	255	
25932.410	1	1	0	0	0.18355	0.15786	0.24837	0.17968	0.13669	0.22639	0.2842	0.19457	0.20436	0.17695	0.21941	0.37664	0.087558	0.084903	0.17644	0.09594	-2.4479	-2.4729	-2.8479	-2.5062	-2.7604	-2.8688	-2.8292	-3.0771	-2.75	-2.625	-3.1562	-2.8042	-2.9	-2.8688	-2.6875	-2.9313	201.426	242.757	276.775	409.973	217.442	453.165	420.634	443.536	413.513	301.661	506.126	468.695	174.028	356.152	282.179	453.681	0.00048197	0.00029393	7.7255e-05	1408.1	4.7178e-06	6.4603e-06	1399.3	365.1	5.8751e-06	3.6411e-06	417.53	136.59	118.94	41.495	5.2031e-06	51.309	0.00093049	0.0011136	0.00030798	1433.1	1.2338e-05	1.2354e-05	1422.4	372.45	1.1913e-05	1.1997e-05	426.93	141.23	122.45	42.687	1.2106e-05	53.002	239.980	258.284	254.948	178.851	303.099	272.300	178.742	183.471	308.847	307.903	183.130	187.347	187.649	192.296	333.480	191.772	-8191	255	
25932.508	1	1	0	0	0.10272	0.12072	0.053542	0.18805	0.26113	0.024352	0.35	0.28736	0.19643	0.27162	0.30468	0.023408	0.25281	0.21726	0.1648	0.18018	-2.1646	-2.5938	-2.8833	-2.5375	-2.6625	-2.8667	-2.8521	-3.1167	-2.7188	-2.6375	-2.8708	-2.6875	-2.8958	-2.8583	-2.4062	-3.0021	428.438	277.356	179.731	397.013	408.996	271.390	491.582	485.721	199.324	472.621	433.585	428.115	208.937	461.653	457.071	407.971	0.00049699	0.00095542	0.00016489	1396.7	3.4361e-06	7.8268e-06	1397.9	365.49	5.7151e-06	2.0819e-06	416.3	137.61	119.22	41.531	5.1812e-06	51.223	0.00094832	0.0011295	0.00030771	1429.9	1.2228e-05	1.2245e-05	1422.4	372.34	1.1914e-05	1.2231e-05	426.93	141.45	122.31	42.721	1.2193e-05	52.995	242.472	254.138	249.628	178.779	294.118	292.450	178.889	183.572	309.148	327.938	183.132	187.337	187.712	192.629	337.474	191.925	-8191	255	
25932.604	1	1	0	0	0.074144	0.08948	0.14202	0.13215	0.069012	0.37093	0.32132	0.31876	0.18958	0.061243	0.43362	0.19877	0.084695	0.1576	0.17816	0.17972	-2.2958	-2.3688	-2.8396	-2.6208	-2.6	-2.8312	-2.7271	-2.9562	-2.9771	-2.7417	-3.1104	-2.9667	-2.8167	-3.1396	-2.6875	-2.7396	266.727	365.682	193.765	260.115	510.439	456.066	431.949	493.515	229.292	255.618	490.049	444.932	388.356	520.252	400.656	487.499	0.0004919	0.00071006	0.0001238	1401	5.1963e-06	4.8435e-06	1400.1	364.15	4.0683e-06	4.6149e-06	416.89	137.3	119.11	41.453	7.6763e-06	51.377	0.00093283	0.0011017	0.00031043	1429.9	1.2135e-05	1.2452e-05	1421.8	372.13	1.1526e-05	1.2087e-05	426.84	141.38	122.44	42.698	1.2106e-05	53.031	242.334	240.462	220.275	178.978	327.672	297.490	178.719	183.397	292.375	346.219	183.085	187.239	187.761	192.522	295.521	191.699	-8191	255	
25932.725	1	1	0	0	0.045319	0.13094	0.1061	0.076903	0.10454	0.043651	0.17066	0.31107	0.27257	0.16609	0.051876	0.17728	0.19168	0.017316	0.32255	0.19973	-2.4188	-2.4896	-2.65	-2.8125	-2.4917	-3.0062	-2.9979	-2.95	-2.9167	-2.5	-2.9188	-2.9813	-2.5833	-3.0875	-2.6208	-2.8917	253.481	306.069	170.337	402.890	194.092	372.740	450.073	512.696	451.682	305.946	497.363	174.990	252.892	412.840	267.812	508.879	0.00047302	0.00051141	0.00011535	1405	5.352e-06	6.2498e-06	1400.7	365.1	4.9378e-06	6.302e-06	415.83	137.72	119.32	41.519	5.9921e-06	51.485	0.00092702	0.0011301	0.00031105	1430.9	1.2057e-05	1.2187e-05	1420.7	372.78	1.1732e-05	1.2312e-05	426.12	141.56	122.53	42.664	1.1864e-05	53.052	244.621	257.805	247.843	178.814	294.514	321.591	178.756	183.570	293.074	325.754	183.176	187.126	187.728	192.441	325.448	191.725	-8191	255	
25932.818	1	1	0	0	0.066105	0.12679	0.34318	0.095802	0.18269	0.089279	0.11912	0.2042	0.19486	0.023601	0.2538	0.21759	0.213	0.091443	0.19439	0.33278	-2.5458	-2.5375	-2.6417	-2.7792	-2.575	-2.9458	-3.0229	-2.8354	-2.825	-2.5542	-2.7938	-2.8438	-2.6312	-3	-2.7125	-2.6292	474.441	436.828	359.925	333.049	332.267	484.936	454.520	393.392	370.957	347.031	444.038	494.529	434.567	509.860	196.879	373.422	0.00044873	0.00058792	0.00015096	1398.3	4.5744e-06	3.2572e-06	1391.6	365.12	5.7592e-06	6.2486e-06	415.62	137.29	118.78	41.379	5.1579e-06	51.395	0.0009126	0.0011114	0.00031175	1427.7	1.1884e-05	1.2335e-05	1420.9	372.27	1.1789e-05	1.236e-05	426.98	141.46	122.15	42.664	1.1961e-05	53.038	241.605	266.619	259.750	178.946	292.832	302.874	178.619	183.575	321.386	305.608	182.961	187.260	187.845	192.345	299.451	191.983	-8191	255	
25932.891	1	1	0	0	0.25171	0.054055	0.2001	0.073145	0.035241	0.066609	0.21041	0.17426	0.073695	0.34115	0.14947	0.14411	0.23533	0.054949	0.17181	0.22833	-2.4938	-2.5958	-2.6417	-2.8271	-2.6437	-2.9333	-2.8563	-2.65	-2.7708	-2.6229	-2.8063	-2.8875	-2.7354	-2.8438	-2.8167	-2.7917	460.406	264.767	524.941	463.083	185.558	214.794	468.984	470.810	324.472	340.979	202.788	343.115	175.468	516.024	402.314	509.112	0.00051121	0.00046457	0.00014444	1398.9	6.3437e-06	4.7969e-06	1400	364.62	6.8488e-06	4.5776e-06	415.58	137.82	118.68	41.422	6.2626e-06	51.491	0.0009413	0.0011083	0.00031427	1427.5	1.2145e-05	1.2448e-05	1422.7	372.45	1.1733e-05	1.2265e-05	426.18	141.5	122.17	42.7	1.2019e-05	53.043	243.609	258.774	257.372	178.921	297.665	302.072	178.771	183.572	295.410	305.687	182.989	187.346	187.678	192.257	335.028	191.738	-8191	255	
25933.010	1	1	0	0	0.33418	0.18672	0.13728	0.086671	0.20239	0.1341	0.39423	0.19127	0.11256	0.0058433	0.38394	0.36861	0.18084	0.23313	0.093641	0.047713	-2.3625	-2.5333	-2.6521	-3.0771	-2.5187	-3.0396	-3.0375	-2.7979	-2.9542	-2.6333	-2.7188	-2.9062	-2.6292	-2.8688	-2.8875	-2.8312	485.570	307.006	282.067	497.582	250.720	290.413	423.694	438.529	413.707	481.926	504.581	172.007	454.931	471.675	331.501	234.948	0.00048462	0.00066298	4.5424e-05	1399.3	2.8714e-06	4.1436e-06	1399.3	365.1	2.5571e-06	4.3432e-06	417.34	137.83	118.51	41.322	6.5585e-06	51.405	0.00093104	0.0011118	0.00031084	1429.3	1.2052e-05	1.27e-05	1421.6	372.71	1.2057e-05	1.248e-05	426.4	141.32	122.3	42.657	1.1926e-05	53.107	244.201	262.872	242.009	179.033	276.260	309.498	178.702	183.550	297.458	313.021	183.034	187.256	187.820	192.444	336.184	191.706	-8191	255	
25933.105	1	1	0	0	0.26892	0.26436	0.14259	0.16764	0.020341	0.13913	0.38054	0.24632	0.10016	0.10504	0.45809	0.21805	0.022578	0.12935	0.18356	0.19061	-2.5167	-2.6813	-2.6708	-2.9562	-2.6667	-2.8042	-3.0729	-2.5687	-2.7458	-2.6646	-2.6646	-2.9583	-2.75	-2.7812	-2.6937	-2.6437	332.147	431.728	226.144	364.206	376.567	289.224	481.658	499.218	429.134	193.302	481.333	466.521	499.869	167.493	299.471	437.651	0.000435	0.00063936	0.00015979	1407.4	4.1084e-06	3.2114e-06	1398.8	366.15	3.689e-06	6.6343e-06	417.72	137.13	118.88	41.581	6.8126e-06	51.192	0.00093859	0.0011073	0.00030924	1431.2	1.2132e-05	1.2405e-05	1421.6	372.9	1.2114e-05	1.2392e-05	427.16	141.19	122.56	42.736	1.2103e-05	53.015	239.702	249.666	265.420	178.753	334.140	355.347	178.680	183.506	356.656	310.528	183.168	187.518	187.741	192.499	348.886	191.772	-8191	255	
25933.203	1	1	0	0	0.077358	0.12302	0.071882	0.20457	0.066819	0.1536	0.32003	0.078074	0.030551	0.29084	0.33304	0.14001	0.19771	0.1533	0.10636	0.24569	-2.3521	-2.7083	-2.5396	-3.0271	-2.9042	-2.8438	-3.1375	-2.9917	-3.0083	-2.8458	-2.7188	-2.8937	-2.7104	-2.7479	-2.8354	-2.7542	276.264	405.655	181.151	461.723	194.235	427.778	440.702	462.840	518.161	259.307	448.651	419.907	173.157	505.599	257.914	195.831	0.00046531	0.00057138	0.00024987	1401.9	5.1135e-06	4.3733e-06	1395.1	363.36	4.7641e-06	5.7164e-06	419	137.6	118.95	41.292	4.8751e-06	51.291	0.00095948	0.0011124	0.00031333	1431.8	1.2115e-05	1.2391e-05	1421.8	371.87	1.2015e-05	1.2404e-05	427.45	141.61	122.43	42.716	1.2184e-05	53.05	244.812	236.000	283.337	178.945	277.048	375.502	178.781	183.590	302.768	280.861	182.992	187.116	187.685	192.564	280.114	191.805	-8191	255	
25933.322	1	1	0	0	0.14748	0.34138	0.179	0.28908	0.12232	0.046839	0.31919	0.10209	0.19444	0.049471	0.27954	0.043908	0.46587	0.17116	0.29686	0.26212	-2.2396	-2.6833	-2.2979	-2.9896	-2.6104	-2.7083	-3.1521	-2.6458	-3.0104	-2.7667	-2.7333	-2.9604	-2.8333	-2.7292	-3.0896	-2.75	202.238	221.036	441.615	495.854	386.387	238.216	455.086	474.077	485.707	238.307	203.331	265.241	181.632	509.434	434.700	484.106	0.00052309	0.00057869	0.00011334	1405.2	6.2453e-06	8.9091e-06	1403	364.39	3.8344e-06	4.8344e-07	418.65	137.53	119.01	41.393	8.7831e-06	51.13	0.00096637	0.0011231	0.00031282	1430.6	1.2313e-05	1.2275e-05	1424.6	372.43	1.2177e-05	1.2376e-05	427.51	141.26	122.53	42.774	1.2034e-05	53.006	236.472	248.771	259.696	178.928	316.400	319.253	178.707	183.754	292.268	486.680	182.983	187.159	187.818	192.696	303.407	191.711	-8191	255	
25933.420	1	1	0	0	0.16088	0.067543	0.1604	0.26368	0.097808	0.080607	0.51595	0.1179	0.10793	0.16662	0.28808	0.22121	0.45177	0.16822	0.21038	0.11172	-2.4729	-2.7354	-2.4646	-2.9	-2.7771	-2.5958	-3.0042	-2.9021	-2.7292	-2.8958	-2.5438	-2.9854	-2.7854	-2.7062	-2.9521	-2.6479	382.407	310.486	219.320	492.386	308.938	284.949	455.588	484.495	307.965	390.880	460.421	500.053	485.895	244.489	329.043	494.335	0.00048628	0.00075444	0.00015232	1401	5.7665e-06	6.1833e-06	1402.2	363.76	7.5238e-06	5.9924e-06	417.07	137.48	118.63	41.375	6.9551e-06	51.369	0.00094952	0.0011301	0.00031146	1430.9	1.2216e-05	1.226e-05	1423.1	372.26	1.2025e-05	1.2304e-05	426.48	141.26	122.19	42.683	1.1886e-05	53.04	239.647	263.543	274.635	178.903	324.620	333.441	178.647	183.319	286.601	315.531	183.015	187.242	187.932	192.493	308.567	191.764	-8191	255	
25933.516	1	1	0	0	0.052687	0.27517	0.28536	0.1344	0.2139	0.20608	0.41858	0.49906	0.10528	0.22728	0.061848	0.12699	0.32286	0.30346	0.20083	0.2759	-2.2875	-2.8792	-2.3854	-2.8708	-2.6417	-2.6188	-3.1375	-2.7812	-2.7062	-2.8333	-2.6229	-2.9896	-2.9104	-2.5583	-2.8396	-2.7333	473.034	322.388	508.556	204.922	406.241	262.811	417.453	483.985	421.970	284.961	512.476	206.296	169.812	470.687	387.077	466.581	0.00051557	0.00042363	0.0001688	1397.5	7.2071e-06	6.5674e-06	1396.2	364.14	2.2811e-06	4.8921e-06	415.71	137.42	118.86	41.277	4.2539e-06	51.22	0.00095018	0.0010999	0.00030596	1428.1	1.208e-05	1.2199e-05	1421.3	372.45	1.1855e-05	1.2137e-05	426.37	141.35	122.32	42.652	1.2292e-05	52.998	235.220	258.862	259.535	178.782	320.690	299.512	178.785	183.398	276.346	352.643	183.130	187.227	187.846	192.366	302.705	191.737	-8191	255	
25933.588	1	1	0	0	0.057895	0.094527	0.017885	0.1185	0.24121	0.11666	0.40585	0.30101	0.086242	0.082812	0.20678	0.24612	0.15983	0.066787	0.052472	0.34826	-2.0229	-2.9313	-2.4833	-2.6771	-2.8583	-2.4313	-2.9813	-2.7979	-2.7708	-2.8958	-2.6833	-2.7354	-2.9625	-2.5146	-2.8896	-2.6562	377.458	201.425	351.919	423.706	486.689	239.353	425.927	506.012	247.773	516.519	510.313	486.763	189.605	376.390	273.386	397.206	0.0004689	0.0008084	0.00017008	1402.3	7.0207e-06	6.6945e-07	1400.7	364.07	4.4472e-06	5.1638e-06	417.1	137.39	118.41	41.302	6.1244e-06	51.534	0.00093824	0.0011183	0.0003051	1429.4	1.2066e-05	1.2176e-05	1423.7	372.45	1.1865e-05	1.213e-05	426.81	141.49	122.07	42.677	1.1976e-05	53.163	238.961	252.399	244.682	179.031	275.454	272.318	178.743	183.467	326.991	349.009	182.831	187.266	187.951	192.461	320.477	191.597	-8191	255	
25933.705	1	1	0	0	0.14786	0.11614	0.092051	0.082919	0.052373	0.20054	0.24395	0.22007	0.058508	0.072997	0.27864	0.1615	0.12717	0.39564	0.044109	0.08662	-2.2542	-2.9062	-2.5438	-2.7667	-2.8	-2.7062	-2.9729	-2.7708	-2.5354	-2.7604	-2.8354	-2.9396	-2.9688	-2.6708	-2.7458	-2.7667	181.628	212.218	238.454	297.038	399.972	520.345	496.947	465.529	393.799	288.522	453.176	463.995	472.281	458.798	338.962	187.018	0.00048708	0.00063518	5.3085e-05	1401.9	4.8426e-06	3.2369e-06	1394.9	365.52	6.3125e-06	4.5118e-06	415.14	137.47	118.84	41.38	3.68e-06	51.386	0.00092557	0.0011088	0.00030551	1427.7	1.1988e-05	1.2103e-05	1421.5	372.92	1.1639e-05	1.2222e-05	426.3	141.27	122.38	42.664	1.1967e-05	53.107	240.084	229.121	277.340	178.916	304.281	282.582	178.777	183.583	293.892	324.383	182.872	187.398	187.968	192.468	330.166	191.997	-8191	255	
25933.803	1	1	0	0	0.19332	0.21372	0.1794	0.14238	0.025251	0.14834	0.24071	0.26307	0.11899	0.15661	0.1517	0.38139	0.12786	0.13068	0.21051	0.2814	-2.2479	-2.8271	-2.7438	-2.8292	-2.9625	-2.5792	-3.0062	-2.9208	-2.3146	-2.8104	-2.8063	-2.6583	-3.0333	-2.6208	-2.6937	-2.7396	510.032	404.603	184.812	389.901	362.352	341.806	467.197	481.759	316.107	282.510	428.505	477.534	473.957	481.671	183.324	508.215	0.00050812	0.00091279	0.00014537	1395.9	3.1788e-06	4.2799e-06	1399.2	363.62	5.492e-06	5.4588e-06	416.39	137.17	118.98	41.343	4.3049e-06	51.376	0.00092037	0.0011059	0.00030713	1429.9	1.2029e-05	1.2108e-05	1422.7	372.42	1.1773e-05	1.2191e-05	426.54	141.35	122.28	42.763	1.1818e-05	53.088	241.065	248.902	281.586	178.733	318.406	314.554	178.838	183.452	298.507	351.595	183.250	187.448	187.978	192.658	317.187	191.813	-8191	255	
25933.898	1	1	0	0	0.13524	0.10241	0.077437	0.067913	0.13887	0.067761	0.38112	0.28605	0.25314	0.049799	0.11551	0.08763	0.30796	0.54364	0.26446	0.10436	-2.1083	-2.7021	-2.7333	-2.7271	-2.7812	-2.5917	-3.0833	-2.9604	-2.5667	-2.8479	-2.9396	-2.5958	-3.0292	-2.6479	-2.6813	-2.9979	375.246	390.341	383.866	404.998	302.384	178.810	473.684	462.207	408.083	254.315	165.629	355.021	430.760	458.221	402.825	331.659	0.00050002	0.00051867	0.00015947	1401.1	4.7531e-06	6.9055e-06	1398.9	364.82	4.5402e-06	5.5224e-06	416.71	137.25	118.97	41.514	2.2535e-06	51.287	0.00092842	0.00109	0.00030952	1431.4	1.1961e-05	1.2272e-05	1423.3	372.22	1.1669e-05	1.2141e-05	426.56	141.32	122.47	42.733	1.1962e-05	53.041	244.040	256.856	264.700	178.869	297.437	329.042	178.774	183.481	274.238	383.334	183.186	187.470	187.913	192.584	332.798	191.802	-8191	255	
25933.994	1	1	0	0	0.30538	0.056581	0.081334	0.2043	0.27073	0.043357	0.3476	0.054411	0.034879	0.16885	0.18741	0.086492	0.20791	0.16591	0.16301	0.30862	-2.2958	-2.8229	-2.7458	-2.7125	-3.0729	-2.6917	-2.8625	-3.0521	-2.6063	-2.8042	-2.7625	-2.6729	-2.9938	-2.7146	-2.5958	-3	324.207	334.140	424.669	512.972	485.458	342.087	451.834	419.021	315.817	382.301	493.576	378.417	471.819	178.262	332.655	454.004	0.00050006	0.00086806	9.3484e-05	1398	4.5254e-06	4.2882e-06	1400.8	364.62	4.6697e-06	6.701e-06	417.01	137.45	119.08	41.444	5.7141e-06	51.595	0.0009208	0.0011014	0.00030525	1429.6	1.18e-05	1.2236e-05	1423.1	372.33	1.1532e-05	1.2355e-05	426.54	141.34	122.31	42.74	1.212e-05	53.223	242.355	273.644	250.714	179.146	311.951	304.243	178.731	183.450	298.433	305.836	182.922	187.279	188.038	192.285	314.605	191.736	-8191	255	
25934.115	1	1	0	0	0.1392	0.083442	0.21094	0.23681	0.26478	0.16659	0.34333	0.23109	0.26495	0.17558	0.15493	0.1085	0.3055	0.013449	0.26895	0.12442	-2.1125	-2.4771	-2.625	-2.5333	-3.0812	-2.7708	-3.0292	-3.1521	-2.7562	-2.8521	-2.7625	-2.5792	-3.075	-2.9	-2.6917	-3.0792	422.829	475.451	356.905	282.201	285.150	298.587	424.067	423.685	424.820	356.296	480.622	206.556	446.027	229.703	321.329	343.955	0.00053909	0.00041442	0.00011396	1398.2	5.6146e-06	5.8656e-06	1397.3	364.41	4.5574e-06	6.3802e-06	417.21	137.16	118.92	41.498	2.2283e-06	51.463	0.00092535	0.0010931	0.00030361	1426.8	1.1899e-05	1.1956e-05	1422.7	372.5	1.1564e-05	1.1792e-05	426.44	141.48	122.56	42.77	1.1736e-05	53.16	240.560	248.909	289.407	178.806	329.367	312.001	178.869	183.606	299.253	314.913	183.047	187.513	187.729	192.384	303.253	191.922	-8191	255	
25934.188	1	1	0	0	0.051032	0.092874	0.28872	0.33257	0.078093	0.41911	0.26124	0.32125	0.11434	0.1972	0.23146	0.31992	0.14936	0.1777	0.35164	0.040934	-2.0667	-2.6208	-2.8438	-2.5104	-3.025	-2.7313	-2.925	-3.0896	-2.6604	-2.7458	-3.0042	-2.5333	-3.0187	-2.7375	-2.5542	-2.9729	276.901	505.532	178.166	429.598	371.313	488.276	524.955	499.862	481.078	294.092	457.808	482.847	461.343	468.560	524.991	211.109	0.00050169	0.00033794	9.7681e-05	1394.5	5.3687e-06	6.5754e-06	1396.4	365.21	4.79e-06	4.6701e-06	416.94	137.34	119.56	41.549	6.9691e-06	51.529	0.00089363	0.0010701	0.00029674	1427.2	1.1868e-05	1.1827e-05	1422.8	373.03	1.1506e-05	1.1831e-05	426.63	141.25	122.78	42.782	1.1533e-05	53.15	246.509	290.211	260.949	178.563	316.640	305.177	178.839	183.507	296.886	292.044	183.235	187.582	187.839	192.433	322.739	191.853	-8191	255	
25934.283	1	1	0	0	0.11658	0.085634	0.35281	0.16512	0.14818	0.29122	0.06771	0.31758	0.096925	0.13905	0.27301	0.23082	0.31345	0.24288	0.08469	0.23687	-2.0458	-2.8146	-2.7812	-2.7146	-2.8333	-2.8771	-2.7542	-2.8708	-2.5958	-2.6521	-2.8708	-2.7417	-2.8917	-2.8542	-2.5396	-2.9271	239.877	330.560	335.643	245.802	473.991	191.162	403.175	460.331	471.810	331.812	513.649	508.864	461.447	506.059	189.919	418.314	0.00048786	0.00072744	0.00019492	1399.9	5.8359e-06	5.0414e-06	1400.4	364.38	5.1681e-06	4.2291e-06	417.77	137.17	119.08	41.425	4.1225e-06	51.652	0.00090401	0.0010747	0.00029126	1427.2	1.1572e-05	1.1623e-05	1424.8	372.73	1.1295e-05	1.2089e-05	426.62	141.48	122.54	42.751	1.1563e-05	53.232	242.052	283.675	241.544	178.823	304.153	311.430	178.985	183.611	298.767	341.227	183.151	187.190	187.975	192.553	344.373	192.119	-8191	255	
25934.404	1	1	0	0	0.082669	0.03114	0.14313	0.11557	0.065521	0.1379	0.33285	0.39185	0.045027	0.075452	0.17133	0.24449	0.14913	0.0402	0.14632	0.2282	-2.1667	-2.5125	-2.8229	-2.6646	-2.8354	-2.7771	-2.7604	-2.9229	-2.5917	-2.7167	-2.9875	-2.6708	-2.9083	-2.6646	-2.4104	-2.9042	182.056	362.713	446.820	172.545	336.164	371.592	482.368	442.280	484.562	349.816	522.649	467.615	389.718	457.058	190.702	460.619	0.00047783	0.00091946	0.00018013	1391.3	3.1779e-06	5.3342e-06	1395.8	364.45	4.7523e-06	3.6994e-06	417.86	137.02	119.32	41.624	5.6454e-06	51.558	0.00090297	0.0010592	0.00029714	1426.2	1.1524e-05	1.1742e-05	1421.5	372.54	1.135e-05	1.1581e-05	427.18	141.26	122.63	42.816	1.1566e-05	53.223	241.934	237.581	231.154	178.684	298.733	312.738	178.633	183.559	317.900	354.464	183.003	187.200	187.961	192.593	299.516	191.721	-8191	255	
25934.500	1	1	0	0	0.24523	0.091042	0.26664	0.32679	0.079408	0.22098	0.42015	0.15393	0.018987	0.12412	0.25607	0.11337	0.24756	0.32416	0.1735	0.093268	-2.2042	-2.5958	-2.75	-2.5917	-2.7875	-2.9562	-2.7062	-3.0271	-2.7396	-2.5438	-2.9437	-2.8854	-2.6917	-2.925	-2.5521	-3.0312	423.007	294.270	278.997	501.469	518.076	190.592	515.423	413.992	215.529	168.071	181.141	458.951	456.972	497.696	228.961	515.038	0.0004924	0.00046976	0.00016076	1400.5	4.0534e-06	6.7313e-06	1400.1	365.5	4.311e-06	5.2601e-06	415.55	137.25	119	41.523	1.0529e-05	51.523	0.00090134	0.0010565	0.00029695	1427.8	1.1583e-05	1.1686e-05	1422.5	372.54	1.1251e-05	1.1944e-05	426.28	141.35	122.44	42.816	1.159e-05	53.211	241.876	299.715	259.643	179.073	368.224	330.834	178.851	183.528	314.827	320.944	182.772	187.352	187.820	192.641	323.718	191.646	-8191	255	
25934.596	1	1	0	0	0.021512	0.093929	0.070275	0.1467	0.17764	0.20261	0.20128	0.083732	0.087295	0.024802	0.21637	0.19657	0.1245	0.21609	0.22158	0.15391	-2.3937	-2.4625	-2.6854	-2.5958	-2.6625	-2.9917	-2.7	-2.9333	-2.7938	-2.5333	-3.0708	-2.6521	-2.8333	-2.9833	-2.6042	-2.9417	364.469	524.538	414.177	184.324	475.213	225.073	434.916	196.279	417.937	377.245	454.999	490.389	438.256	505.749	324.742	481.159	0.00046247	0.00089757	5.6506e-05	1397.8	4.7472e-06	5.7525e-06	1404.7	365.22	5.1292e-06	1.0619e-05	416.71	136.79	118.94	41.536	1.4742e-06	51.435	0.00090343	0.0010512	0.00029562	1428.1	1.1696e-05	1.1786e-05	1424	372.92	1.1512e-05	1.1744e-05	426.09	141.11	122.36	42.812	1.1764e-05	53.135	243.836	260.689	244.146	178.902	299.350	348.290	178.985	183.527	296.780	299.559	183.173	187.368	187.724	192.397	320.995	191.795	-8191	255	
25934.691	1	1	0	0	0.28598	0.1434	0.25069	0.22788	0.26389	0.13272	0.15868	0.36722	0.19988	0.09558	0.17959	0.29798	0.39842	0.020604	0.1615	0.20282	-2.375	-2.575	-2.7417	-2.7896	-2.6833	-2.8375	-2.9271	-2.9625	-2.7687	-2.6063	-3.1125	-2.9542	-2.6542	-3.0687	-2.7208	-3.0125	205.547	273.735	480.011	511.089	221.281	216.044	484.089	460.863	357.603	295.934	171.214	514.636	506.270	456.144	281.025	221.556	0.00055292	0.00049309	0.00016573	1404	6.2715e-06	4.0135e-06	1399.6	364.82	6.8988e-06	7.9073e-06	416.19	137.51	119.35	41.572	1.0352e-05	51.563	0.00091035	0.0010648	0.00030422	1430	1.1743e-05	1.1902e-05	1422	372.53	1.1268e-05	1.1651e-05	426.6	141.43	122.56	42.851	1.1567e-05	53.186	245.358	261.717	252.406	178.729	278.716	290.853	178.805	183.692	315.538	310.960	183.166	187.441	187.935	192.483	300.232	191.729	-8191	255	
25934.785	1	1	0	0	0.16144	0.26324	0.27198	0.16642	0.087698	0.17961	0.22753	0.16966	0.066745	0.018744	0.10013	0.12854	0.23228	0.18664	0.16949	0.23606	-2.5333	-2.6042	-2.9083	-2.8937	-2.5875	-2.875	-2.875	-2.7188	-2.9354	-2.7667	-3.0479	-2.9417	-2.8	-2.95	-2.4833	-2.9771	468.922	242.853	482.462	274.333	328.970	447.234	454.254	441.080	516.883	345.533	481.832	371.836	521.596	480.014	465.646	446.278	0.00050089	0.00046061	0.00010784	1402.9	5.4102e-06	3.6969e-06	1399.9	363.89	5.0954e-06	7.0656e-06	415.63	137.22	119.16	41.275	6.2378e-06	51.296	0.00089321	0.0010467	0.00030075	1429.8	1.153e-05	1.1803e-05	1421.9	372.25	1.1315e-05	1.1575e-05	426.15	141.29	122.37	42.694	1.1778e-05	53.161	238.060	253.123	288.790	178.861	323.277	300.232	178.679	183.573	293.388	318.433	183.133	187.265	188.037	192.472	330.370	191.640	-8191	255	
25934.883	1	1	0	0	0.079986	0.25962	0.19102	0.17885	0.076421	0.12683	0.2117	0.37008	0.15927	0.13282	0.25586	0.17594	0.37774	0.1137	0.22799	0.33298	-2.4688	-2.5187	-2.8438	-2.7875	-2.5	-2.9625	-2.7792	-2.7438	-2.8708	-2.5167	-2.875	-2.9625	-2.6396	-2.9792	-2.5333	-2.7542	388.450	208.951	270.355	174.444	242.088	312.155	472.652	476.458	208.731	185.728	307.910	401.672	524.288	166.065	389.228	420.629	0.00051736	0.00057513	0.00020223	1406.3	5.3518e-06	6.5905e-06	1402.2	364.38	7.1875e-06	6.2182e-06	416.96	137.53	119.11	41.584	8.1536e-06	51.567	0.00090654	0.001053	0.00029953	1429.2	1.1545e-05	1.1821e-05	1424.6	372.25	1.1484e-05	1.1621e-05	426.16	141.32	122.4	42.779	1.1388e-05	53.24	242.767	272.828	251.446	178.675	329.011	306.645	178.863	183.482	312.057	354.112	183.253	187.484	187.946	192.456	300.824	191.584	-8191	255	
25935.004	1	1	0	0	0.15638	0.15037	0.083613	0.22168	0.0074422	0.12609	0.21055	0.28792	0.32625	0.083515	0.19091	0.16072	0.23817	0.20443	0.20527	0.029853	-2.5083	-2.65	-2.5417	-2.8833	-2.6792	-2.9208	-2.9396	-2.7417	-2.9917	-2.6896	-2.8937	-3.075	-2.5646	-2.9604	-2.7646	-2.6583	246.911	421.758	272.731	274.173	484.299	186.753	446.665	448.382	307.303	200.904	180.637	192.634	516.753	186.141	404.195	494.633	0.00046464	0.00075348	0.00026381	1398.8	5.316e-06	2.5785e-06	1399.7	364.36	3.8789e-06	4.732e-06	418.12	137.75	119.44	41.506	4.2495e-06	51.378	0.00091432	0.001061	0.00029648	1425.5	1.155e-05	1.2005e-05	1422.4	372.04	1.1337e-05	1.1638e-05	426.74	141.32	122.6	42.809	1.1301e-05	53.187	236.606	261.403	276.882	178.936	320.732	304.269	178.807	183.502	305.749	332.984	183.135	187.246	187.809	192.233	314.996	191.644	-8191	255	
25935.100	1	1	0	0	0.19802	0.055978	0.20517	0.054418	0.29339	0.21281	0.29578	0.17398	0.16938	0.13684	0.39756	0.058713	0.081882	0.069262	0.0073487	0.20613	-2.4313	-2.525	-2.5708	-2.9104	-2.4771	-2.9542	-3.0146	-2.6729	-2.8979	-2.775	-2.7396	-3.0667	-2.7208	-2.8292	-3.0125	-2.5479	405.897	412.284	218.619	361.725	500.164	256.717	479.192	507.531	294.912	279.714	438.996	516.109	410.393	378.758	506.357	167.568	0.00050691	0.00045439	0.00017467	1401.3	5.7157e-06	4.6806e-06	1401.6	364.15	5.1794e-06	1.454e-06	416.79	137.43	119.12	41.553	7.0276e-06	51.598	0.00091149	0.0010593	0.00029038	1427.4	1.1543e-05	1.1665e-05	1424.3	372.29	1.1134e-05	1.1767e-05	426.09	141.18	122.44	42.748	1.1375e-05	53.213	242.244	257.951	226.368	178.798	326.764	407.560	178.783	183.566	301.751	266.526	183.003	187.290	187.855	192.481	334.598	191.715	-8191	255	
25935.195	1	1	0	0	0.066449	0.13703	0.059607	0.12022	0.1083	0.15988	0.3104	0.29191	0.099128	0.049799	0.36937	0.18408	0.28298	0.096137	0.089379	0.087887	-2.4396	-2.4813	-2.4271	-3.0896	-2.6417	-2.7083	-3.0375	-2.5542	-2.8563	-2.8125	-2.7938	-2.9271	-2.8333	-2.8083	-2.7875	-2.6021	330.259	477.583	464.775	209.785	303.297	248.370	438.537	451.852	204.244	409.652	493.227	466.211	484.092	523.747	469.379	391.228	0.00046062	0.00088611	0.00020625	1404.9	6.8945e-06	6.7365e-06	1400.5	364.64	5.0968e-06	5.945e-06	417.5	136.65	118.73	41.573	4.9281e-06	51.529	0.00089132	0.0010468	0.00028874	1429.6	1.146e-05	1.1693e-05	1423.6	372.31	1.1077e-05	1.188e-05	426.71	141.06	122.37	42.826	1.1214e-05	53.216	238.720	245.876	256.609	179.039	331.957	349.266	178.807	183.573	283.435	305.120	183.123	187.247	187.851	192.540	315.507	191.988	-8191	255	
25935.293	1	1	0	0	0.14841	0.32299	0.10044	0.34294	0.042695	0.30311	0.2093	0.13289	0.18865	0.13784	0.16811	0.20081	0.10613	0.36969	0.11282	0.16223	-2.2729	-2.7562	-2.6354	-2.8958	-2.575	-2.6375	-3.0854	-2.5938	-2.8417	-2.7542	-2.6521	-2.7375	-2.8063	-2.7521	-2.7646	-2.6729	234.595	203.171	341.998	438.279	165.703	475.336	501.400	176.694	255.989	457.789	389.860	489.806	242.840	209.095	358.800	481.482	0.0004668	0.00041536	0.00016371	1398.7	7.3797e-07	7.0552e-06	1402.7	362.69	5.6438e-06	4.3592e-06	417.3	137.55	119.5	41.576	6.5395e-06	51.495	0.00090017	0.0010658	0.00028927	1427.7	1.13e-05	1.1791e-05	1423.4	371.75	1.126e-05	1.1532e-05	426.5	141.28	122.67	42.797	1.1342e-05	53.197	241.711	235.680	257.060	178.606	306.562	317.607	178.790	183.583	289.779	332.921	182.976	187.227	187.964	192.548	316.578	191.842	-8191	255	
25935.412	1	1	0	0	0.16108	0.17726	0.15686	0.21901	0.19597	0.082503	0.11101	0.31631	0.083367	0.27582	0.20473	0.2697	0.17965	0.27188	0.17826	0.11973	-2.5479	-2.8417	-2.4292	-3.0042	-2.6229	-2.6229	-3.2292	-2.6229	-2.8042	-2.7354	-2.7646	-2.8917	-2.6792	-2.7333	-3.0667	-2.7917	331.200	284.907	211.207	506.713	174.721	179.669	485.073	457.259	319.270	405.877	493.878	489.822	186.547	495.918	262.270	413.605	0.00049736	0.0004779	0.00010006	1397.2	5.5552e-06	6.3302e-06	1402.3	364.11	5.5529e-06	5.8096e-06	418	137.01	119.12	41.581	2.6883e-06	51.682	0.0008846	0.001071	0.00029192	1427.9	1.1479e-05	1.1799e-05	1424	371.86	1.1402e-05	1.1782e-05	426.3	141.22	122.45	42.774	1.1521e-05	53.217	241.964	259.037	262.241	178.833	318.905	300.725	178.741	183.566	289.635	304.135	183.069	187.357	187.791	192.374	326.687	191.730	-8191	255	
25935.484	1	1	0	0	0.16627	0.19631	0.058144	0.11311	0.14243	0.043447	0.2015	0.27664	0.072633	0.15892	0.31089	0.33168	0.15127	0.21515	0.054972	0.25117	-2.3458	-2.8229	-2.5083	-2.7938	-2.6937	-2.6208	-3.0104	-2.7208	-2.8042	-3.1146	-2.8312	-2.8854	-2.9083	-2.5563	-2.9333	-2.6896	386.760	494.050	412.009	396.353	248.276	335.409	436.472	194.377	385.852	458.309	457.480	487.708	523.998	245.889	303.391	370.428	0.00048972	0.00046991	0.00011613	1399.2	4.7233e-06	4.9181e-06	1397	365.96	4.3349e-06	4.2799e-06	417.45	137.28	118.98	41.51	4.2041e-06	51.435	0.00090043	0.0010352	0.00029368	1427.5	1.1399e-05	1.1443e-05	1419.4	372.48	1.1382e-05	1.1647e-05	426.7	141.44	122.29	42.739	1.1618e-05	53.107	240.785	221.739	230.384	179.081	303.828	303.773	178.645	183.630	299.435	273.196	183.253	187.399	187.930	192.290	284.234	191.776	-8191	255	
25935.580	1	1	0	0	0.12223	0.24056	0.11834	0.24494	0.11759	0.046401	0.14468	0.35631	0.13025	0.13274	0.31683	0.078985	0.12301	0.14762	0.097366	0.15058	-2.2292	-2.7375	-2.5146	-2.8271	-2.6771	-2.625	-3.0875	-2.6479	-2.4938	-2.9125	-2.5312	-2.9771	-2.8688	-2.6083	-3.0146	-2.8479	442.165	437.752	245.569	250.211	525.163	365.347	439.244	173.180	207.936	282.579	483.737	446.185	401.322	211.330	492.333	509.112	0.00046055	0.00047899	0.00016385	1395.6	4.1657e-06	2.128e-06	1400.7	363.14	7.6444e-06	8.2837e-06	415.89	137.15	119.55	41.482	4.5328e-06	51.412	0.0008857	0.0010441	0.00029565	1426.3	1.1451e-05	1.1541e-05	1421.3	371.64	1.1478e-05	1.1391e-05	425.54	140.91	122.52	42.724	1.1476e-05	53.118	244.898	257.314	245.563	179.091	320.030	325.414	178.645	183.633	321.151	287.954	183.099	187.262	187.921	192.505	312.214	191.960	-8191	255	
25935.676	1	1	0	0	0.076193	0.23438	0.31843	0.043311	0.033508	0.20413	0.30977	0.18867	0.082107	0.15466	0.27312	0.34191	0.15912	0.14172	0.14174	0.27284	-2.25	-2.8729	-2.675	-2.7667	-2.8896	-2.6667	-3.1792	-2.9583	-2.7	-2.7896	-2.6708	-2.7479	-2.9333	-2.6562	-2.7229	-2.9042	461.591	430.560	406.403	218.071	517.646	367.564	427.433	499.972	259.568	394.246	465.125	439.191	448.907	409.097	186.042	430.749	0.00049379	0.00056506	7.3365e-05	1398.3	7.2658e-06	5.4056e-06	1397.5	364.79	3.293e-06	3.1202e-06	416.83	136.69	118.93	41.303	5e-06	51.393	0.00088778	0.0010504	0.00029077	1425.3	1.1256e-05	1.1478e-05	1421.7	372.55	1.0939e-05	1.1563e-05	425.81	140.99	122.28	42.732	1.1256e-05	53.211	237.300	248.168	208.249	178.979	313.890	313.384	178.887	183.472	337.013	290.916	183.189	187.292	187.937	192.404	324.494	191.636	-8191	255	
25935.795	1	1	0	0	0.053314	0.11975	0.052001	0.086504	0.12614	0.088301	0.30916	0.037487	0.11229	0.30193	0.21085	0.29632	0.24716	0.15542	0.33543	0.31105	-2.2438	-2.85	-2.375	-2.8771	-2.9917	-2.3854	-3.075	-2.8563	-2.5583	-3.0167	-2.7188	-2.7583	-2.9292	-2.6688	-2.7583	-2.8354	478.862	353.478	197.080	261.647	485.555	199.635	469.557	416.155	420.890	509.514	490.090	473.798	168.580	208.481	220.336	505.192	0.00046755	0.00029449	5.845e-05	1399.9	2.9249e-06	9.0046e-07	1395.2	363.51	5.0446e-06	5.5631e-06	415.65	137.15	118.94	41.345	6.8644e-06	51.382	0.0008794	0.0010424	0.00029311	1425.8	1.1329e-05	1.1599e-05	1421.6	371.65	1.122e-05	1.1637e-05	425.64	141.32	122.27	42.693	1.1469e-05	53.189	242.709	273.901	226.551	178.977	391.804	242.648	178.733	183.626	316.146	351.596	183.284	187.181	187.934	192.526	325.948	191.802	-8191	255	
25935.891	1	1	0	0	0.16853	0.10339	0.23028	0.1964	0.12447	0.25204	0.2598	0.35755	0.18087	0.14724	0.14246	0.092255	0.22147	0.19405	0.085802	0.19107	-2.1708	-2.8812	-2.6854	-2.7292	-2.9417	-2.5354	-2.9958	-3.0146	-2.5417	-3.0062	-2.7292	-2.6479	-2.9562	-2.8875	-2.7646	-3.0438	203.108	436.224	415.551	338.227	283.236	284.980	481.546	458.782	354.901	371.016	426.309	264.412	505.740	214.817	428.888	380.396	0.00049193	0.00051847	0.00019563	1401.2	3.4666e-06	1.5124e-06	1396.9	365.26	5.3598e-06	4.1592e-06	415.44	137.47	118.45	41.519	2.9858e-06	51.316	0.00088755	0.0010495	0.00029526	1428.9	1.1374e-05	1.1618e-05	1422.4	372.19	1.1179e-05	1.1481e-05	425.53	141.1	122.1	42.804	1.1398e-05	53.097	242.980	271.040	269.677	178.320	314.205	285.950	178.868	183.545	318.965	312.937	183.070	187.482	187.728	192.201	351.622	191.851	-8191	255	
25935.986	1	1	0	0	0.14603	0.13847	0.073351	0.17521	0.25124	0.2368	0.064442	0.25847	0.21352	0.0305	0.18128	0.14865	0.17042	0.030042	0.051689	0.13605	-2.0854	-2.7646	-2.7	-2.5917	-2.8208	-2.6208	-3.0708	-3.1958	-2.3063	-2.8708	-2.9333	-2.8	-2.6479	-2.5979	-2.75	-2.9521	273.340	348.229	170.102	218.107	493.558	463.289	492.719	388.336	244.481	514.750	467.154	438.303	442.550	291.700	208.766	270.801	0.00048813	0.00046535	0.00020187	1395.9	5.5448e-06	8.269e-06	1396	364.06	5.9118e-06	3.4683e-06	416.23	137.46	119.37	41.674	9.9456e-06	51.224	0.00087763	0.0010486	0.00028904	1427.2	1.1328e-05	1.1659e-05	1420.1	371.99	1.1269e-05	1.1498e-05	426.02	141.2	122.43	42.78	1.1503e-05	53.072	240.759	262.989	230.674	178.887	302.404	319.604	178.877	183.432	300.134	303.851	182.920	187.335	187.958	192.264	318.823	191.841	-8191	255	
25936.084	1	1	0	0	0.24944	0.035294	0.20171	0.065602	0.1293	0.061283	0.32631	0.33863	0.2286	0.22938	0.20327	0.12989	0.17166	0.28256	0.10289	0.19008	-2.0875	-2.7521	-2.7208	-2.5042	-2.8667	-2.6354	-2.9125	-2.9854	-2.5292	-2.7208	-2.8958	-2.5583	-3.1458	-2.975	-2.7313	-3.0854	522.833	475.892	269.631	460.931	314.573	229.227	471.672	467.714	524.167	227.977	438.260	465.809	407.021	505.281	350.784	438.505	0.00052894	0.00035014	0.00014668	1398.4	7.3823e-06	3.6711e-06	1397	365.08	3.6937e-06	4.317e-06	418.17	137	118.88	41.424	3.9461e-06	51.163	0.00088232	0.0010486	0.00029214	1424.7	1.1181e-05	1.1596e-05	1420.5	371.9	1.0983e-05	1.1568e-05	426.15	140.9	122.21	42.685	1.1268e-05	53.108	236.479	249.760	271.783	178.711	327.000	335.661	178.902	183.485	329.436	327.378	182.974	187.568	187.850	192.383	342.778	191.931	-8191	255	
25936.180	1	1	0	0	0.070893	0.081982	0.21555	0.19116	0.20936	0.22205	0.1616	0.199	0.084294	0.11873	0.39493	0.42045	0.095178	0.14108	0.32675	0.25938	-2.2854	-2.6813	-2.7313	-2.6437	-2.9292	-2.6396	-3.0563	-3.1188	-2.5958	-2.75	-2.9938	-2.6333	-3.0271	-2.9458	-2.6854	-3.1042	474.901	444.124	172.134	175.881	299.572	281.526	456.794	474.317	217.851	167.962	442.044	453.480	256.099	510.983	359.362	228.887	0.00046936	0.00077058	0.00018874	1400.8	1.7305e-06	3.0174e-06	1397.1	364.69	4.1192e-06	8.0022e-06	415.54	137.15	119.03	41.557	3.9912e-06	51.44	0.00088352	0.0010364	0.00028476	1427.3	1.1208e-05	1.156e-05	1420.2	372.1	1.1059e-05	1.1232e-05	425.63	141.1	122.46	42.736	1.1249e-05	53.141	245.381	276.285	273.143	178.814	371.028	273.146	178.693	183.647	270.835	326.027	182.893	187.337	187.985	192.293	341.474	191.811	-8191	255	
25936.275	1	1	0	0	0.22116	0.25694	0.075336	0.25475	0.13381	0.21811	0.32603	0.2779	0.10553	0.10557	0.045468	0.18662	0.29423	0.23398	0.048834	0.09926	-2.2938	-2.6229	-2.775	-2.4854	-2.7958	-2.7979	-2.8396	-3.0979	-2.6063	-2.7833	-2.875	-2.6146	-2.8958	-2.775	-2.6958	-2.9625	459.599	211.886	319.169	410.745	402.040	202.802	466.979	488.492	508.502	224.616	236.668	174.064	179.205	394.864	514.226	420.640	0.00049403	0.00060215	0.00013684	1401	3.1406e-06	3.6114e-06	1399.4	365.49	3.1701e-06	5.671e-06	415.43	137.65	118.84	41.549	6.638e-06	51.503	0.00087722	0.0010534	0.00029115	1428.7	1.16e-05	1.1481e-05	1422.1	372.19	1.1124e-05	1.1375e-05	425.75	141.05	122.31	42.768	1.1349e-05	53.192	238.360	237.088	270.739	178.800	326.162	335.316	178.729	183.555	284.753	329.177	183.021	187.299	187.971	192.447	335.253	191.661	-8191	255	
25936.371	1	1	0	0	0.15356	0.13542	0.27834	0.082589	0.17353	0.14804	0.41163	0.19385	0.1441	0.093434	0.082236	0.10049	0.21875	0.22084	0.24235	0.24393	-2.2479	-2.6708	-2.8937	-2.6562	-2.8896	-2.75	-2.8146	-3.2667	-2.6333	-2.7958	-2.8771	-2.8521	-3.0083	-2.8771	-2.7188	-3.0312	258.640	521.382	490.343	377.622	425.208	486.013	480.738	441.730	211.470	331.196	453.148	440.938	523.831	460.275	457.943	453.935	0.00048852	0.00032708	8.3951e-05	1398	4.636e-06	4.3867e-06	1398	364.23	5.3823e-06	6.6727e-06	416.19	137.48	119.16	41.392	8.5845e-06	51.487	0.00088828	0.0010391	0.00029078	1427	1.134e-05	1.1605e-05	1421.5	371.81	1.1096e-05	1.1358e-05	425.12	141.06	122.25	42.701	1.117e-05	53.129	243.568	226.425	254.556	178.781	316.297	372.687	178.646	183.495	300.064	312.286	183.008	187.532	187.920	192.432	340.866	191.827	-8191	255	
25936.492	1	1	0	0	0.28452	0.1202	0.15841	0.20891	0.15987	0.2876	0.19184	0.2059	0.24165	0.32475	0.50471	0.23819	0.083733	0.11447	0.14846	0.2751	-2.2625	-2.7062	-2.8563	-2.5187	-2.875	-2.8083	-2.7229	-2.9604	-2.6312	-2.6	-2.9479	-2.8104	-2.9313	-2.8875	-2.6562	-3.0333	175.771	198.005	351.589	485.846	438.075	173.294	495.123	448.160	470.304	467.344	497.596	464.634	237.767	452.902	478.954	404.843	0.00045197	0.00047198	0.00012014	1402.4	4.6559e-06	3.2587e-06	1398.5	363.21	4.7558e-06	4.197e-06	415.49	137.34	119.07	41.485	5.9955e-06	51.329	0.00088307	0.0010423	0.00028941	1427.2	1.1188e-05	1.1353e-05	1420.3	371.38	1.1244e-05	1.1307e-05	425.58	141.08	122.33	42.719	1.1265e-05	53.166	243.506	272.114	284.785	178.803	271.416	341.768	178.730	183.560	310.257	288.283	183.188	187.467	187.940	192.514	278.158	191.758	-8191	255	
25936.590	1	1	0	0	0.27633	0.091635	0.1423	0.28601	0.4735	0.083519	0.46169	0.097529	0.31778	0.078422	0.15918	0.18954	0.26688	0.16771	0.052817	0.10301	-2.425	-2.6375	-2.85	-2.6375	-2.6125	-2.7917	-3.0354	-2.8854	-2.8042	-2.5146	-3.0167	-2.7125	-2.6604	-3.1813	-2.5479	-2.9542	447.731	244.743	289.090	314.943	323.345	216.748	456.035	166.224	477.503	314.813	514.875	503.981	169.232	413.493	352.706	455.790	0.00046074	0.00073554	4.3359e-05	1389.4	3.9752e-06	4.9092e-06	1398.7	363.37	3.4156e-06	1.7226e-06	416.7	136.83	118.44	41.548	4.225e-06	51.545	0.00088254	0.0010376	0.0002895	1420.1	1.1556e-05	1.1539e-05	1418.6	371.56	1.1347e-05	1.1345e-05	426.27	140.93	122.08	42.793	1.1276e-05	53.178	240.851	266.524	248.762	178.837	327.372	307.127	178.725	183.572	278.486	351.246	183.098	187.192	187.999	192.455	359.641	191.795	-8191	255	
25936.686	1	1	0	0	0.10033	0.30285	0.097733	0.27095	0.10351	0.024328	0.20728	0.2788	0.31285	0.18453	0.082395	0.24981	0.012459	0.32654	0.057943	0.031066	-2.3042	-2.6333	-2.9854	-2.7042	-2.5458	-3.0229	-2.9354	-3.0563	-2.7896	-2.65	-3.1312	-2.7646	-2.8042	-3.0667	-2.8063	-2.8604	452.145	262.693	504.265	389.387	266.992	349.642	489.906	405.770	240.551	205.940	172.409	177.113	366.845	500.061	519.570	219.435	0.00046556	0.00050183	0.00017675	1392.9	5.6291e-06	4.0044e-06	1397.5	362.62	6.0948e-06	4.4113e-06	416.61	136.36	118.88	41.573	7.8077e-06	51.699	0.00086755	0.0010364	0.0002869	1424.8	1.1294e-05	1.1221e-05	1419.9	371.43	1.1162e-05	1.1426e-05	425.48	140.89	122.28	42.728	1.1228e-05	53.163	241.397	276.076	209.298	178.854	324.004	280.157	178.811	183.753	325.544	355.408	182.915	187.288	187.960	192.469	316.403	191.499	-8191	255	
25936.781	1	1	0	0	0.040873	0.18218	0.2221	0.094573	0.23799	0.15278	0.36118	0.42301	0.046301	0.22859	0.32292	0.10642	0.44087	0.084863	0.1841	0.27999	-2.4521	-2.425	-2.8542	-2.5521	-2.4813	-2.8979	-2.6979	-3.0583	-2.7854	-2.7	-2.9	-2.9479	-2.6729	-2.9354	-2.5292	-2.9021	240.288	484.050	478.586	491.305	313.327	383.949	471.841	469.571	507.517	299.648	525.465	422.905	196.255	441.473	485.915	435.750	0.00047045	0.00025294	0.00015848	1395.9	5.4215e-06	4.0228e-06	1399.7	365.37	4.8679e-06	3.1072e-06	417.61	136.66	118.89	41.515	6.5533e-06	51.377	0.00090171	0.001042	0.00029511	1427	1.1296e-05	1.1632e-05	1421.6	372.5	1.143e-05	1.1725e-05	426.38	141.07	122.46	42.786	1.1584e-05	53.165	244.098	234.426	234.051	178.811	280.169	383.044	178.684	183.476	313.798	361.925	183.312	187.358	188.085	192.352	326.525	191.767	-8191	255	
25936.875	1	1	0	0	0.012567	0.11882	0.24697	0.23723	0.34831	0.18114	0.3187	0.2042	0.18767	0.17712	0.33455	0.060235	0.15564	0.49894	0.22885	0.088083	-2.3083	-2.5292	-2.8833	-2.7583	-2.6375	-2.9083	-2.8042	-2.8833	-3.05	-2.7438	-2.9708	-2.9604	-2.6833	-2.8917	-2.5875	-2.6875	479.255	234.932	348.683	407.856	365.464	507.889	460.554	367.394	486.541	183.989	480.797	235.502	275.830	479.777	474.335	202.676	0.00048486	0.00022414	0.00018834	1398.8	4.1022e-06	9.9017e-06	1402.1	364.5	5.3978e-06	6.1728e-06	418.28	137.19	119.1	41.582	1.9685e-06	51.364	0.00089745	0.0010459	0.00029359	1429.3	1.1257e-05	1.1572e-05	1423.1	371.95	1.1228e-05	1.168e-05	426.64	140.88	122.35	42.782	1.1274e-05	53.264	243.210	247.954	284.463	178.851	335.736	299.027	178.745	183.520	307.704	341.665	183.277	187.419	188.055	192.521	302.965	191.910	-8191	255	
25936.973	1	1	0	0	0.15854	0.10431	0.16366	0.044301	0.14527	0.25901	0.33513	0.27097	0.092659	0.25204	0.083942	0.25882	0.22909	0.12455	0.15108	0.26926	-2.4813	-2.6	-2.8542	-2.9167	-2.5125	-2.9313	-3.0229	-2.8375	-2.9167	-2.6646	-2.85	-3.0812	-2.5604	-3.0146	-2.7146	-2.7417	370.328	215.552	295.889	512.211	276.589	191.690	483.024	479.483	350.925	306.641	453.609	173.363	441.182	487.382	514.493	490.990	0.00051775	0.00039602	0.00016769	1400.5	6.7152e-06	2.6272e-06	1396.8	365.27	7.1409e-06	5.7394e-06	417.97	136.78	118.97	41.609	4.8318e-06	51.329	0.0008929	0.0010485	0.00029696	1428.7	1.1347e-05	1.1552e-05	1422	372.33	1.1166e-05	1.1535e-05	426.56	141.11	122.23	42.82	1.1392e-05	53.222	240.652	295.509	260.915	178.907	324.269	294.879	178.688	183.704	309.868	319.708	183.098	187.013	187.824	192.533	305.861	191.913	-8191	255	
25937.092	1	1	0	0	0.18324	0.13959	0.18571	0.082983	0.19415	0.13527	0.38517	0.33841	0.059487	0.041044	0.25959	0.24556	0.17117	0.24889	0.084711	0.019504	-2.5792	-2.5396	-2.725	-2.8937	-2.5458	-2.8771	-2.9271	-2.8146	-2.9271	-2.8458	-2.8229	-3.0187	-2.7979	-3.0417	-2.8083	-2.5312	470.618	197.706	373.973	434.643	425.057	209.657	446.941	195.526	454.344	352.678	437.752	455.744	211.165	195.572	277.554	438.816	0.00050278	0.00046471	0.0001797	1395.5	4.9391e-06	4.1644e-06	1398.2	362.29	4.5146e-06	5.8095e-06	417.28	136.73	119.05	41.45	5.4572e-06	51.6	0.00089956	0.0010511	0.00029371	1425.9	1.1349e-05	1.1824e-05	1421.7	371.7	1.1185e-05	1.1456e-05	426.37	140.79	122.38	42.799	1.1333e-05	53.322	241.944	260.014	241.312	178.619	306.490	250.646	178.685	183.552	300.709	290.938	182.934	187.261	187.799	192.381	290.946	191.884	-8191	255	
25937.188	1	1	0	0	0.15089	0.16709	0.10978	0.00503	0.21709	0.15722	0.031176	0.47413	0.41418	0.13549	0.29413	0.21977	0.23631	0.049374	0.16381	0.1672	-2.5792	-2.5917	-2.6854	-2.8937	-2.5125	-2.8937	-3.0312	-2.8542	-2.9646	-2.6583	-2.8521	-3	-2.5521	-3.0312	-2.925	-2.8042	329.576	296.933	416.526	297.216	484.123	377.625	306.375	493.886	269.659	523.298	401.429	454.189	167.827	464.256	306.983	509.864	0.00047097	5.5478e-05	0.00015583	1398.5	2.1636e-06	7.3441e-06	1397.8	365.79	5.628e-06	5.0992e-06	417.77	137.55	119.52	41.449	1.7526e-06	51.538	0.00089662	0.0010527	0.00029208	1426	1.1148e-05	1.1483e-05	1420.9	372.19	1.1255e-05	1.1526e-05	426.12	141.33	122.51	42.774	1.1223e-05	53.276	242.162	260.210	251.240	178.711	330.992	318.595	178.783	183.540	286.866	287.278	182.901	187.233	187.760	192.438	357.996	191.712	-8191	255	
25937.285	1	1	0	0	0.33214	0.11853	0.24885	0.09922	0.15302	0.20648	0.30072	0.055443	0.050857	0.13188	0.25418	0.21068	0.11129	0.18313	0.14795	0.026296	-2.4417	-2.4542	-2.5917	-2.9813	-2.7687	-2.6125	-3.1917	-2.5958	-3.0146	-2.5792	-2.6229	-3.0042	-2.7708	-2.8271	-2.7542	-2.5771	374.560	296.772	315.778	230.375	279.080	340.417	420.443	515.296	313.877	369.402	385.143	491.203	243.485	478.535	399.352	472.812	0.00049497	0.00044392	0.00015226	1395.9	3.631e-06	6.7212e-06	1397.5	364.47	5.5684e-06	9.7599e-06	416.13	136.64	119.48	41.35	4.7382e-06	51.569	0.00090124	0.0010523	0.00029778	1427.3	1.1448e-05	1.1818e-05	1422.4	372.14	1.1041e-05	1.1536e-05	425.81	141.14	122.57	42.715	1.1306e-05	53.196	240.029	262.183	240.195	178.680	289.412	319.029	178.807	183.530	314.864	300.081	183.133	187.158	187.824	192.474	296.708	191.829	-8191	255	
25937.355	1	1	0	0	0.16146	0.074938	0.11568	0.21112	0.29345	0.2195	0.34865	0.27285	0.13089	0.15322	0.16892	0.16364	0.14028	0.24608	0.072759	0.20059	-2.3042	-2.7938	-2.4771	-2.7979	-2.3979	-2.4875	-3.0646	-2.7042	-2.8563	-2.6958	-2.7	-2.9938	-2.8042	-2.8958	-2.8917	-2.6354	290.585	293.972	508.486	509.647	451.873	502.127	449.966	515.257	332.846	403.917	409.880	214.936	165.773	348.601	271.043	440.991	0.00045334	0.00052719	0.00016525	1399.1	6.0896e-06	6.3016e-06	1397.6	364.35	4.8971e-06	7.5754e-06	416.12	137.18	118.63	41.542	6.8305e-06	51.571	0.00089436	0.0010396	0.00029338	1425.9	1.141e-05	1.1595e-05	1421.8	372.33	1.1065e-05	1.163e-05	425.95	141.07	122.26	42.787	1.1103e-05	53.186	237.671	242.806	276.882	178.952	326.377	313.852	179.040	183.552	310.714	339.265	183.069	187.339	187.955	192.425	346.431	191.712	-8191	255	
25937.451	1	1	0	0	0.14159	0.25772	0.14759	0.23036	0.025588	0.31399	0.49572	0.085058	0.15615	0.19055	0.18167	0.32091	0.16298	0.41254	0.20121	0.084533	-2.3167	-2.8812	-2.5125	-2.9896	-2.6562	-2.6125	-3.0417	-2.7188	-2.7604	-2.6417	-2.4646	-2.775	-2.7771	-2.7708	-2.8937	-2.5792	365.131	387.618	243.112	428.764	294.820	183.744	456.184	439.161	359.071	437.737	466.003	494.184	277.508	492.114	518.130	494.502	0.00052266	0.00032326	0.00019038	1396.2	6.183e-06	5.4779e-06	1394.8	365.29	5.1862e-06	7.3725e-06	417.06	137.05	118.85	41.43	3.7095e-06	51.25	0.00090668	0.0010244	0.00028609	1425.7	1.1203e-05	1.1536e-05	1422.6	372.78	1.1115e-05	1.1451e-05	426.18	141.07	122.29	42.796	1.0954e-05	53.223	240.302	263.842	265.776	179.167	314.351	338.540	178.613	183.562	293.357	309.995	183.184	187.139	187.792	192.563	287.221	192.071	-8191	255	
25937.572	1	1	0	0	0.11065	0.11481	0.32005	0.13174	0.055006	0.15113	0.15772	0.22596	0.31337	0.13802	0.25594	0.24776	0.35716	0.11604	0.38319	0.14789	-2.2729	-2.6437	-2.6646	-2.9729	-2.7146	-2.5729	-3.1604	-2.5917	-2.6958	-2.7792	-2.6271	-2.775	-2.8042	-2.6521	-2.7687	-2.7167	341.201	402.568	425.407	504.450	174.928	170.401	469.081	345.819	212.602	356.664	418.234	193.568	489.626	426.887	489.378	395.622	0.00047576	0.00047997	0.00012628	1402.5	4.4276e-06	6.616e-06	1398.7	364.51	3.3254e-06	8.0151e-06	417.02	137.23	119.14	41.472	7.7215e-06	51.529	0.00088493	0.0010406	0.00027853	1427.9	1.1273e-05	1.1411e-05	1422.7	372.03	1.1089e-05	1.1445e-05	425.86	141.16	122.49	42.792	1.1115e-05	53.185	240.337	244.534	272.804	178.924	288.549	306.096	178.594	183.498	308.127	294.095	182.825	187.270	187.938	192.390	311.278	191.529	-8191	255	
25937.670	1	1	0	0	0.18532	0.052175	0.099647	0.12079	0.090079	0.10358	0.10712	0.27212	0.070326	0.094325	0.12401	0.18417	0.10875	0.22919	0.055359	0.078898	-2.1375	-2.8438	-2.4313	-2.9354	-2.7875	-2.5125	-3.0521	-2.7167	-2.7771	-2.8312	-2.6562	-2.7375	-2.8979	-2.5646	-2.8917	-2.6937	503.084	277.459	461.159	179.074	373.022	215.371	418.260	427.130	479.813	334.713	186.847	362.213	476.045	464.661	309.702	222.641	0.00048237	0.00035263	0.00014686	1395.9	2.7124e-06	6.6402e-06	1402.4	364.63	4.9065e-06	6.0952e-06	416.29	137.85	118.98	41.51	4.521e-06	51.826	0.00088355	0.0010355	0.00028546	1426.8	1.1076e-05	1.1217e-05	1423.1	371.85	1.0914e-05	1.1208e-05	425.06	141.43	122.4	42.772	1.0943e-05	53.277	239.588	237.565	256.056	178.872	340.752	274.695	178.618	183.453	276.347	298.240	183.041	187.446	187.721	192.424	273.034	192.057	-8191	255	
25937.766	1	1	0	0	0.21766	0.15913	0.095442	0.083891	0.14478	0.31838	0.17764	0.36829	0.081332	0.07617	0.15277	0.18339	0.099356	0.32839	0.075401	0.24739	-2.2188	-2.8875	-2.6292	-2.8208	-2.7917	-2.5104	-3.1188	-2.7583	-2.6375	-2.8917	-2.6958	-2.8312	-2.9854	-2.6792	-2.7417	-2.8854	394.992	332.452	413.820	172.992	459.149	514.192	483.453	456.694	359.806	302.557	520.537	505.553	208.483	188.283	185.290	477.414	0.00048823	0.00073599	0.00016353	1387.2	5.0017e-06	5.9236e-06	1400.4	364.84	5.6984e-06	4.4519e-06	416.59	136.84	118.92	41.486	7.6214e-06	51.562	0.00087203	0.0010123	0.00028266	1423.2	1.0946e-05	1.1195e-05	1421.5	372.59	1.0621e-05	1.1186e-05	426.6	141.07	122.24	42.779	1.098e-05	53.232	244.523	251.905	272.547	178.936	307.070	305.162	178.750	183.479	295.825	301.286	182.962	187.393	187.865	192.497	333.842	191.938	-8191	255	
25937.885	1	1	0	0	0.11008	0.036297	0.12393	0.14566	0.037916	0.099371	0.29131	0.21243	0.26698	0.2071	0.26102	0.10717	0.49979	0.20061	0.15973	0.15403	-2.1854	-2.9396	-2.5604	-2.7042	-2.8125	-2.7021	-2.9333	-2.7625	-2.4729	-3.0187	-2.7	-2.8292	-2.9583	-2.6958	-2.7958	-2.7667	512.152	458.455	298.416	476.450	166.604	343.734	417.176	482.876	486.089	202.370	207.002	338.231	493.252	179.609	451.572	168.868	0.0004957	0.00068352	0.00018788	1401.9	6.2639e-06	3.9962e-06	1401.7	363.92	4.9258e-06	8.8839e-06	417.95	137.02	119.06	41.57	4.1307e-06	51.45	0.00085562	0.0010115	0.00028069	1423.6	1.1009e-05	1.1198e-05	1422.1	371.63	1.0713e-05	1.1134e-05	426.44	141.13	122.38	42.752	1.1093e-05	53.206	240.700	240.028	257.091	178.808	337.648	297.177	178.654	183.533	297.219	293.675	183.150	187.554	187.690	192.459	318.733	191.787	-8191	255	
25937.955	1	1	0	0	0.14298	0.25395	0.16523	0.26828	0.12406	0.033824	0.11982	0.15942	0.1019	0.28628	0.24453	0.32528	0.18409	0.15984	0.064865	0.44178	-2.0771	-2.8354	-2.4708	-2.5187	-2.7792	-2.5333	-3.0521	-2.9375	-2.375	-2.8271	-2.7687	-2.4896	-3.0563	-2.6167	-2.6021	-2.95	488.406	377.765	173.993	284.360	186.331	424.037	472.101	387.802	411.189	333.054	506.794	513.543	499.760	440.667	263.556	507.168	0.00045679	0.00058662	0.00017158	1395.7	4.8542e-06	5.7185e-06	1398	363.65	4.7612e-06	6.6021e-06	416.61	137.31	119.23	41.62	3.9955e-06	51.645	0.00087128	0.0010137	0.00028037	1426.9	1.1047e-05	1.0975e-05	1421.2	371.74	1.0777e-05	1.1132e-05	425.52	141.08	122.46	42.767	1.0841e-05	53.31	245.640	234.015	236.239	179.259	327.677	296.838	178.621	183.490	291.658	309.753	182.908	187.405	187.724	192.602	328.749	191.571	-8191	255	
25938.053	1	1	0	0	0.21222	0.27407	0.24435	0.10506	0.18206	0.16385	0.13165	0.4702	0.080223	0.19732	0.089944	0.093674	0.26214	0.088451	0.19174	0.12235	-2.1104	-2.6854	-2.6104	-2.5812	-2.7562	-2.7562	-2.825	-2.9021	-2.6375	-2.9688	-2.8396	-2.8229	-3.1375	-2.8375	-2.7313	-2.8187	247.959	180.846	449.110	303.064	227.318	403.339	497.464	457.373	355.136	375.673	474.468	372.288	182.807	348.092	476.789	442.962	0.00047364	0.00046329	8.3909e-05	1402.5	4.75e-06	5.3286e-06	1395.3	364.52	6.0247e-06	5.7479e-06	417.56	136.83	119.01	41.449	4.7229e-06	51.596	0.00085586	0.0010005	0.00028178	1424.3	1.1032e-05	1.1067e-05	1420.5	372.21	1.0563e-05	1.1133e-05	426.2	140.84	122.45	42.686	1.0871e-05	53.285	243.177	269.682	240.466	178.911	327.066	263.153	178.916	183.471	315.707	317.079	183.087	187.374	187.787	192.513	304.987	191.782	-8191	255	
25938.174	1	1	0	0	0.087549	0.037248	0.14417	0.39943	0.039106	0.053053	0.19052	0.15264	0.063344	0.17315	0.20501	0.12196	0.042082	0.25508	0.18019	0.30137	-2.075	-2.9479	-2.8875	-2.65	-2.8438	-2.5	-2.9437	-2.9729	-2.475	-2.9188	-3.0146	-2.5917	-3.0729	-2.6771	-2.75	-2.9875	343.554	437.014	212.717	492.814	288.125	404.794	415.674	439.218	499.089	189.561	180.039	517.660	504.296	182.200	317.523	476.374	0.00048261	0.00044306	0.00012336	1402.8	3.4274e-06	5.0432e-06	1397.6	364.39	4.7503e-06	5.2088e-06	416.59	137.19	119.28	41.519	6.9384e-06	51.354	0.00086612	0.0010154	0.000283	1426.6	1.09e-05	1.1253e-05	1421.9	372.12	1.073e-05	1.0924e-05	425.75	141.11	122.2	42.71	1.0755e-05	53.151	244.210	253.149	242.552	179.023	314.834	315.466	178.628	183.486	286.693	338.039	182.935	187.474	187.803	192.313	330.319	191.691	-8191	255	
25938.270	1	1	0	0	0.18327	0.21026	0.11963	0.1681	0.086107	0.1788	0.37463	0.1846	0.11138	0.06508	0.15906	0.32494	0.38018	0.17702	0.2566	0.12226	-2.2625	-2.6604	-2.7604	-2.5854	-2.9875	-2.5979	-2.7771	-2.9604	-2.6917	-2.6333	-3.0125	-2.8604	-2.8521	-2.6958	-2.5458	-3.0375	459.501	355.938	354.577	174.886	176.654	403.178	463.164	471.433	276.585	498.715	472.332	469.953	497.940	207.136	377.819	249.322	0.0004928	0.00046591	0.00011989	1391.7	5.5522e-06	6.4939e-06	1396.6	364.84	3.3876e-06	5.492e-06	416.94	136.68	118.84	41.471	7.7193e-06	51.499	0.00085121	0.0010015	0.00027391	1420.1	1.0883e-05	1.1143e-05	1421.1	372.08	1.0647e-05	1.087e-05	426.54	140.77	122.5	42.727	1.0895e-05	53.183	241.924	319.585	249.075	178.794	304.937	318.021	178.777	183.444	311.598	313.665	183.077	187.192	187.929	192.558	331.924	191.895	-8191	255	
25938.365	1	1	0	0	0.23686	0.27847	0.12453	0.094696	0.10872	0.40774	0.29629	0.3134	0.063869	0.21474	0.23186	0.17605	0.16015	0.42922	0.13884	0.2066	-2.0917	-2.7625	-2.9021	-2.6104	-2.7417	-2.7208	-2.7562	-3.0104	-2.7583	-2.5396	-3.0396	-2.5771	-2.9083	-2.7	-2.4625	-2.6917	279.322	420.642	318.503	183.527	304.649	260.764	421.802	457.311	202.624	414.129	380.406	281.756	223.407	268.821	191.912	218.490	0.00047771	0.00053127	0.00012014	1396.6	3.3047e-06	5.6057e-06	1393.7	364.47	5.6494e-06	7.4633e-06	416.16	137	119.04	41.445	8.5336e-06	51.267	0.00086209	0.00099917	0.00027678	1424.7	1.1088e-05	1.1323e-05	1418.8	372.03	1.0828e-05	1.0952e-05	425.59	140.95	122.36	42.709	1.0789e-05	53.243	238.730	242.286	273.177	178.810	332.815	341.111	178.627	183.379	295.031	323.207	183.071	187.098	187.869	192.519	297.911	191.647	-8191	255	
25938.486	1	1	0	0	0.13904	0.3173	0.15882	0.26029	0.19867	0.27835	0.23674	0.18269	0.074374	0.19279	0.06493	0.40353	0.037229	0.14549	0.28851	0.20294	-2.2521	-2.5625	-2.9229	-2.5292	-2.7479	-2.9562	-2.725	-3.0625	-2.6417	-2.5875	-2.8917	-2.7979	-2.8354	-2.8042	-2.425	-2.9583	360.372	305.996	234.021	518.063	237.004	368.637	367.720	420.909	335.259	460.942	323.336	489.647	458.350	248.436	334.099	416.127	0.00056129	0.00063295	9.0204e-05	1389.8	6.5424e-06	2.7224e-06	1400.4	363.35	5.7257e-06	6.8079e-06	418.55	137.44	118.68	41.423	3.131e-06	51.527	0.00087637	0.0010027	0.00028375	1421.7	1.1039e-05	1.126e-05	1421.6	371.56	1.079e-05	1.1292e-05	426.71	141.22	122.27	42.708	1.0784e-05	53.244	240.847	243.977	282.986	178.812	330.961	299.925	178.745	183.624	319.332	306.481	183.161	187.388	187.736	192.312	338.783	192.044	-8191	255	
25938.582	1	1	0	0	0.2503	0.19461	0.071098	0.13383	0.044713	0.26745	0.41127	0.10078	0.16673	0.13677	0.10556	0.14489	0.38148	0.23981	0.095231	0.23297	-2.2958	-2.5292	-2.8896	-2.5104	-2.7896	-2.7417	-2.7792	-2.9333	-2.7625	-2.6	-2.9771	-2.6542	-2.9417	-2.8708	-2.5396	-2.8646	225.907	293.780	369.484	507.823	218.981	208.433	510.631	418.512	315.872	281.482	426.929	485.445	169.459	491.442	472.598	437.218	0.0005072	0.00085238	0.00010239	1391.4	3.8019e-06	3.1492e-06	1393.4	363.97	5.2485e-06	6.6638e-06	416.11	137.36	119.32	41.435	6.2313e-06	51.246	0.00086075	0.0010099	0.00027564	1425.7	1.1054e-05	1.1119e-05	1420.2	372.04	1.0741e-05	1.0969e-05	425.93	140.89	122.46	42.697	1.1043e-05	53.103	243.701	236.128	271.669	178.976	271.817	299.174	178.847	183.452	311.525	319.077	183.017	187.253	187.739	192.580	311.739	191.842	-8191	255	
25938.652	1	1	0	0	0.14347	0.059328	0.099633	0.23098	0.28546	0.16169	0.335	0.28545	0.32025	0.10708	0.18485	0.24647	0.010869	0.041689	0.078804	0.27678	-2.4604	-2.4896	-2.9083	-2.6188	-2.6083	-2.8521	-2.7062	-2.9313	-2.6396	-2.4458	-2.9167	-2.7021	-2.7021	-2.8604	-2.5583	-2.7	222.891	470.091	347.855	495.522	220.232	228.290	435.840	183.707	490.814	454.954	497.909	458.075	445.821	166.891	483.285	462.232	0.00050985	0.00064988	0.00014413	1397	5.7533e-06	5.7311e-06	1397.4	363.58	5.7456e-06	2.673e-06	417.2	137.4	119.04	41.668	4.6662e-06	51.703	0.00086512	0.00099798	0.00028038	1422.9	1.0941e-05	1.0774e-05	1421.5	371.35	1.0666e-05	1.1048e-05	425.73	141.2	122.46	42.755	1.0788e-05	53.221	241.828	271.883	248.891	178.642	318.945	284.498	178.984	183.552	323.029	264.483	182.820	187.332	187.984	192.527	310.077	191.688	-8191	255	
25938.771	1	1	0	0	0.21691	0.4389	0.25175	0.30661	0.081427	0.09764	0.35535	0.29781	0.29871	0.2322	0.36294	0.26995	0.050047	0.27549	0.22125	0.24465	-2.2188	-2.3875	-2.5896	-2.6437	-2.5312	-2.8292	-2.8646	-2.8479	-2.7854	-2.4354	-2.9604	-2.8083	-2.7646	-2.9854	-2.7667	-2.825	501.130	340.720	461.148	204.132	478.947	222.882	461.238	484.286	362.362	443.621	480.956	171.909	454.862	482.151	237.863	472.059	0.00048256	0.00041605	0.0001286	1396.2	3.5537e-06	3.9398e-06	1401.3	363.15	4.8735e-06	5.93e-06	416.62	137.07	118.53	41.484	2.4547e-06	51.544	0.00084656	0.00098523	0.00027417	1425.1	1.1054e-05	1.0882e-05	1421.5	371.34	1.0718e-05	1.1038e-05	425.77	140.98	122.26	42.787	1.0806e-05	53.142	238.921	248.861	266.954	178.746	305.300	321.527	178.771	183.364	295.739	322.966	183.218	187.368	187.783	192.241	249.552	191.818	-8191	255	
25938.867	1	1	0	0	0.18872	0.11233	0.16896	0.15014	0.20983	0.10463	0.37601	0.16622	0.049962	0.15715	0.21021	0.12688	0.18898	0.20177	0.10959	0.10599	-2.4208	-2.4688	-2.8125	-2.8667	-2.625	-2.9104	-2.7	-2.7729	-2.8354	-2.5146	-3.0062	-2.8396	-2.575	-2.8833	-2.5917	-2.6354	517.236	449.230	516.492	447.512	448.429	378.810	483.226	514.317	441.416	385.370	399.964	409.163	229.520	496.068	296.577	489.600	0.00047613	0.00054985	0.00011337	1392.7	4.9787e-06	5.3731e-06	1393.6	364.33	4.183e-06	4.8871e-06	414.82	137.36	118.91	41.299	5.5481e-06	51.725	0.00084207	0.00097959	0.00027477	1423.2	1.088e-05	1.0988e-05	1418.8	372.12	1.059e-05	1.1046e-05	425.36	141.18	122.35	42.679	1.0688e-05	53.203	237.719	286.918	263.006	178.557	333.376	306.457	178.707	183.800	300.902	323.596	182.977	187.555	187.875	192.551	333.976	191.868	-8191	255	
25938.965	1	1	0	0	0.2944	0.090038	0.11388	0.21508	0.027207	0.23665	0.468	0.085057	0.094026	0.27095	0.13057	0.43604	0.23216	0.097142	0.21305	0.14789	-2.4875	-2.4854	-2.575	-2.5812	-2.4021	-2.8542	-3.0333	-2.7354	-2.8708	-2.55	-2.7875	-2.7792	-2.5312	-3.0354	-2.7146	-2.6729	399.520	407.234	173.129	443.894	166.852	386.078	429.295	410.076	456.955	244.375	231.665	499.164	171.159	314.352	276.024	458.179	0.00050493	0.00043784	0.00026189	1396.2	5.5842e-06	8.1644e-06	1399.5	363.96	4.8714e-06	3.3066e-06	416.92	137.41	119.26	41.435	3.2492e-06	51.496	0.00084894	0.00098879	0.00027641	1424.9	1.0742e-05	1.1124e-05	1421.6	372.32	1.0808e-05	1.087e-05	426.19	141.22	122.56	42.757	1.0843e-05	53.178	243.196	281.856	250.864	178.883	297.097	289.993	178.641	183.735	292.131	288.547	183.095	187.561	187.851	192.391	326.796	191.770	-8191	255	
25939.061	1	1	0	0	0.222	0.11906	0.19733	0.031377	0.17304	0.14433	0.15648	0.30141	0.22193	0.22773	0.402	0.19058	0.24691	0.24859	0.23414	0.020473	-2.3812	-2.6125	-2.8667	-2.6875	-2.5479	-2.8563	-3.0646	-2.7188	-2.9104	-2.5958	-2.7	-2.9771	-2.7354	-2.9771	-2.6729	-2.65	490.703	517.510	182.221	166.672	270.869	443.533	467.489	511.448	331.736	252.448	496.935	522.241	494.505	501.723	199.542	339.500	0.00048387	0.00046825	0.00017886	1396	1.6793e-06	3.3342e-06	1399.7	364.37	3.3696e-06	3.4586e-06	418.1	137	119.04	41.642	4.8685e-06	51.572	0.00085115	0.00097453	0.00027386	1424.5	1.0851e-05	1.0972e-05	1420.4	372.47	1.066e-05	1.0955e-05	426.51	140.92	122.25	42.69	1.0753e-05	53.275	241.996	266.259	277.487	178.929	310.804	292.288	178.700	183.472	296.156	268.568	183.155	187.308	187.613	192.518	299.278	191.570	-8191	255	
25939.156	1	1	0	0	0.327	0.1854	0.11075	0.36663	0.094774	0.37686	0.16526	0.21915	0.23203	0.0077717	0.38595	0.10332	0.1093	0.49962	0.047885	0.2288	-2.5312	-2.3	-2.6292	-2.7521	-2.4708	-2.8271	-2.9938	-2.6583	-2.8812	-2.7167	-2.7542	-2.9854	-2.925	-2.8604	-2.8042	-2.6625	299.977	325.230	287.167	500.660	206.196	500.670	446.096	497.654	219.712	210.484	477.698	512.612	197.362	472.070	230.001	460.257	0.00050521	0.00053526	6.4576e-05	1392	4.8418e-06	6.726e-06	1394.3	365.44	4.1028e-06	5.5612e-06	417.38	137.05	118.81	41.447	1.7678e-06	51.601	0.0008475	0.00097965	0.00027403	1421.8	1.0739e-05	1.0853e-05	1419.8	372.02	1.0547e-05	1.0774e-05	425.96	140.97	122.25	42.743	1.0711e-05	53.176	240.720	228.925	212.139	178.972	322.453	327.695	178.730	183.652	309.569	316.449	183.003	187.316	187.978	192.346	306.626	191.697	-8191	255	
25939.254	1	1	0	0	0.24628	0.16981	0.26366	0.26844	0.30304	0.042467	0.24017	0.12802	0.14748	0.13285	0.18151	0.27712	0.22284	0.2162	0.16437	0.12073	-2.3771	-2.7292	-2.6604	-2.9375	-2.475	-2.7958	-3.1	-2.6813	-2.7854	-2.6146	-2.6479	-2.85	-2.7667	-2.7333	-2.8604	-2.7333	437.624	473.688	240.979	266.680	289.857	441.556	411.958	474.022	273.989	206.654	206.265	494.410	237.954	472.518	220.990	425.876	0.00048378	0.0006616	0.00013346	1403.9	4.8707e-06	2.6909e-06	1398.4	364.73	5.7485e-06	5.4688e-06	416.79	136.68	119.31	41.377	4.8252e-06	51.43	0.00086595	0.00099446	0.00027455	1426.1	1.0867e-05	1.1039e-05	1422.3	372.02	1.0721e-05	1.0968e-05	426.14	141.02	122.5	42.649	1.0683e-05	53.25	246.380	257.642	288.767	178.797	296.646	343.114	178.698	183.501	316.522	312.356	183.300	187.392	187.767	192.443	334.897	191.798	-8191	255	
25939.350	1	1	0	0	0.16168	0.13503	0.067173	0.083934	0.1212	0.085017	0.24594	0.30604	0.12532	0.07695	0.28646	0.25143	0.14624	0.23855	0.12737	0.37371	-2.3625	-2.5875	-2.5729	-2.9083	-2.6208	-2.6521	-3.1458	-2.6104	-2.7292	-2.625	-2.7104	-2.9646	-2.7625	-2.775	-2.7375	-2.4083	361.305	486.970	244.739	481.632	350.130	214.478	520.327	434.602	441.497	469.405	446.272	170.368	180.855	213.076	414.652	401.777	0.0004797	0.00073646	0.00022915	1395.7	7.107e-06	4.7183e-06	1397.9	364.2	4.3375e-06	5.7068e-06	414.36	137.03	119.44	41.333	4.7992e-06	51.604	0.00084588	0.001	0.00026942	1423.1	1.072e-05	1.118e-05	1420.2	371.92	1.0689e-05	1.0951e-05	425.44	140.88	122.48	42.677	1.0626e-05	53.21	241.335	225.702	255.319	178.863	297.556	281.201	178.800	183.568	319.916	291.279	183.009	187.119	187.841	192.460	312.639	191.698	-8191	255	
25939.445	1	1	0	0	0.11031	0.12692	0.2502	0.38153	0.070186	0.12075	0.2526	0.27136	0.14802	0.28227	0.24909	0.22489	0.19194	0.13159	0.022828	0.18917	-2.3708	-2.6792	-2.4292	-2.8625	-2.575	-2.6625	-2.9167	-2.5833	-2.8063	-2.6396	-2.525	-2.9646	-2.7458	-2.75	-2.7542	-2.7938	208.373	478.189	244.458	524.240	181.647	230.380	467.067	500.006	372.827	515.085	504.525	432.848	251.471	516.908	415.574	496.022	0.00051873	0.00082773	0.00023596	1401.7	4.6366e-06	7.828e-06	1396.9	363.55	5.0194e-06	6.7278e-06	415.46	137.25	119.53	41.472	5.0585e-06	51.49	0.00084595	0.00098173	0.00027207	1425.7	1.0543e-05	1.0766e-05	1419.9	371.87	1.0614e-05	1.0812e-05	425.17	141	122.49	42.72	1.0574e-05	53.263	241.041	248.402	250.035	178.838	330.530	286.749	178.782	183.453	325.007	318.326	183.000	187.177	187.919	192.383	326.749	191.587	-8191	255	
25939.566	1	1	0	0	0.023141	0.15434	0.11277	0.23617	0.041183	0.2491	0.1006	0.53987	0.29362	0.1984	0.32064	0.42385	0.17384	0.1345	0.12434	0.23623	-2.1979	-2.6917	-2.4562	-2.7313	-2.6521	-2.5729	-3.1354	-2.7833	-2.9125	-2.9938	-2.4979	-2.875	-2.7458	-2.8375	-2.9042	-2.6396	480.836	418.939	231.224	357.972	444.709	451.172	453.641	469.224	266.195	523.567	495.017	484.579	212.841	226.690	282.495	201.152	0.00048738	0.00077062	0.00014763	1397.1	5.0993e-06	7.6272e-06	1401.6	363.25	4.2917e-06	5.474e-06	414.96	137.31	118.83	41.277	5.4415e-06	51.23	0.00085011	0.00097361	0.00027321	1425.3	1.0681e-05	1.0941e-05	1420.6	371.06	1.0659e-05	1.0796e-05	425.28	141.16	122.36	42.625	1.0712e-05	53.161	239.439	255.747	260.814	178.824	326.462	270.296	178.671	183.396	316.183	269.598	183.136	187.319	188.004	192.495	302.795	191.897	-8191	255	
25939.660	1	1	0	0	0.32926	0.15536	0.19679	0.18319	0.063464	0.13829	0.2383	0.21063	0.025914	0.045333	0.25999	0.29857	0.14067	0.14482	0.092033	0.19489	-2.1042	-2.8708	-2.5229	-2.7729	-2.6896	-2.4583	-3.3104	-2.6917	-2.8021	-3.0563	-2.6625	-2.9917	-2.8417	-2.6354	-2.8125	-2.8438	177.863	449.516	190.999	410.820	353.356	404.173	487.757	501.775	209.407	185.341	168.325	442.600	495.184	518.095	380.020	436.909	0.00052537	0.00041227	0.00016526	1394.2	6.4841e-06	5.1533e-06	1395.2	363.62	5.0515e-06	4.3789e-06	417.19	136.66	118.82	41.444	4.4746e-06	51.545	0.00085373	0.00098369	0.00027285	1422.5	1.0738e-05	1.0959e-05	1418.8	371.64	1.0644e-05	1.0926e-05	425.96	140.91	122.26	42.735	1.0817e-05	53.239	242.556	254.240	250.181	178.989	332.169	346.395	178.632	183.626	331.656	290.687	183.000	187.212	187.780	192.503	336.141	191.634	-8191	255	
25939.756	1	1	0	0	0.14181	0.11092	0.20035	0.17318	0.1088	0.051871	0.41547	0.27288	0.24786	0.37176	0.04454	0.037329	0.15706	0.13691	0.019551	0.2654	-2.2812	-2.8063	-2.5479	-2.9979	-2.8979	-2.3833	-3.0396	-2.8375	-2.4625	-2.9125	-2.8479	-2.9208	-2.6437	-2.5792	-2.8688	-2.9813	278.895	247.754	322.306	428.554	228.404	179.877	429.093	468.491	438.312	398.744	245.005	391.969	470.150	246.503	203.087	491.618	0.00048904	0.00045556	0.00014164	1394	4.3946e-06	6.4254e-06	1398.6	363.47	4.3409e-06	2.5938e-06	416.01	137.41	119.01	41.312	6.4941e-06	51.535	0.00084225	0.00097996	0.00027134	1422.1	1.0601e-05	1.0785e-05	1420.3	371.91	1.0455e-05	1.1016e-05	426.13	140.94	122.23	42.682	1.0611e-05	53.243	239.707	260.928	277.180	178.734	343.470	302.756	178.738	183.600	308.188	346.360	183.019	187.353	187.670	192.568	322.361	192.004	-8191	255	
25939.854	1	1	0	0	0.11099	0.11146	0.20812	0.24001	0.14374	0.071886	0.27861	0.20549	0.20956	0.14344	0.24412	0.10016	0.11315	0.13808	0.033612	0.18657	-2.1875	-3.1125	-2.575	-2.7583	-2.8646	-2.4167	-2.9479	-2.6667	-2.5604	-2.8958	-2.8708	-2.9042	-2.9938	-2.7104	-2.7854	-2.8187	266.435	369.134	446.185	390.085	220.459	474.417	495.298	430.903	213.286	514.369	478.814	427.067	464.336	203.688	354.917	210.055	0.00046967	0.00049867	0.00012502	1391.3	5.241e-06	5.8621e-06	1395.7	364.26	3.6911e-06	5.0486e-06	415.93	137.83	119.28	41.46	4.7159e-06	51.462	0.00085637	0.001007	0.00027111	1421.9	1.0538e-05	1.0589e-05	1419.7	371.74	1.0588e-05	1.0688e-05	425.23	141.1	122.31	42.69	1.0591e-05	53.239	240.479	249.548	259.921	178.886	287.256	295.582	178.962	183.354	316.413	294.535	183.192	187.300	187.638	192.443	337.126	191.653	-8191	255	
25939.949	1	1	0	0	0.21132	0.16107	0.12033	0.1665	0.16076	0.15772	0.12672	0.25453	0.079431	0.09214	0.20705	0.20891	0.15041	0.058614	0.068773	0.31279	-2.1521	-2.9125	-2.4271	-2.6167	-2.7271	-2.4375	-3.1917	-2.8417	-2.5458	-2.9813	-2.7125	-2.7042	-3.0521	-2.6833	-2.7896	-2.8854	431.784	483.031	418.822	455.290	400.069	376.307	477.593	472.740	306.220	478.418	415.754	514.562	189.511	245.788	458.198	457.107	0.00049714	0.00031336	0.00015536	1401.6	6.2146e-06	5.946e-06	1400.7	363.97	3.8604e-06	5.7016e-06	416.79	137.21	118.74	41.456	5.1601e-06	51.562	0.00083449	0.00097871	0.00026521	1424.9	1.0715e-05	1.0634e-05	1420.8	371.67	1.0174e-05	1.0839e-05	425.74	140.96	122.2	42.665	1.0664e-05	53.224	238.764	268.577	255.388	178.825	296.334	289.810	178.734	183.346	322.930	315.668	182.925	187.113	187.825	192.388	293.330	191.684	-8191	255	
25940.045	1	1	0	0	0.18949	0.024665	0.10106	0.14532	0.22283	0.090185	0.21317	0.049701	0.22917	0.16183	0.32812	0.44571	0.14253	0.19772	0.29317	0.11104	-2.025	-2.7146	-2.5146	-2.5833	-2.9604	-2.6979	-3.0521	-2.8792	-2.4792	-2.95	-2.8771	-2.7146	-2.9375	-2.7438	-2.6417	-2.8479	434.170	307.811	237.394	500.535	458.709	402.513	459.521	299.644	237.060	403.933	503.218	517.921	499.203	460.479	222.286	473.539	0.00049917	0.00055816	0.00013382	1397.2	5.3704e-06	2.1293e-06	1399	362.82	4.8833e-06	3.5549e-06	414.68	137.14	119.23	41.726	5.8307e-06	51.549	0.00084218	0.00097123	0.00026712	1423	1.0652e-05	1.0582e-05	1419.7	371.29	1.0178e-05	1.0723e-05	424.82	140.96	122.42	42.782	1.049e-05	53.129	240.412	294.437	248.824	179.029	338.555	296.547	178.832	183.590	286.371	305.372	183.021	186.948	187.750	192.699	290.326	191.603	-8191	255	
25940.166	1	1	0	0	0.11158	0.14661	0.092799	0.029594	0.16388	0.13175	0.23382	0.19416	0.17936	0.18012	0.1345	0.20703	0.2763	0.13282	0.31627	0.19402	-2.1458	-2.7229	-2.75	-2.4625	-2.8625	-2.7104	-2.9521	-3.0646	-2.5354	-2.5979	-2.6896	-2.5521	-3.0167	-2.8583	-2.5875	-2.9875	220.067	391.858	508.376	504.155	356.658	319.251	461.601	481.435	463.722	222.654	506.232	212.854	462.516	383.142	337.185	216.477	0.0004968	0.00045828	0.00017086	1389.4	6.0838e-06	1.1903e-05	1399.8	364.1	4.9696e-06	6.1585e-06	416.7	136.97	119.19	41.457	6.7397e-06	51.258	0.00083472	0.00097115	0.0002703	1422.2	1.0394e-05	1.075e-05	1422.1	371.77	1.0327e-05	1.0785e-05	426.17	140.75	122.37	42.616	1.0323e-05	53.146	239.859	224.012	258.196	178.599	350.389	290.799	178.743	183.719	306.349	329.733	183.247	187.357	187.854	192.356	317.335	191.682	-8191	255	
25940.262	1	1	0	0	0.10664	0.12796	0.053986	0.14054	0.09188	0.11373	0.31393	0.21106	0.30931	0.1904	0.26923	0.19042	0.23034	0.05387	0.26913	0.17067	-2.3	-2.6229	-2.7417	-2.5333	-2.8354	-2.7104	-2.9104	-3.0042	-2.4917	-2.7438	-2.7188	-2.7062	-2.7583	-2.6354	-2.5646	-2.9896	274.395	292.008	517.338	167.125	419.388	349.384	465.863	458.389	446.736	303.599	476.661	507.628	478.199	432.486	370.133	344.758	0.00048771	0.0003231	0.00015716	1396.3	7.508e-06	2.5831e-06	1397.2	363.52	2.3977e-06	7.7199e-06	416.92	137.24	119.1	41.365	7.1493e-06	51.798	0.0008219	0.00096059	0.00026214	1423.3	1.0361e-05	1.0729e-05	1421.3	371.4	1.0282e-05	1.0453e-05	425.63	140.96	122.42	42.665	1.0128e-05	53.247	240.607	252.230	246.458	179.083	307.734	306.644	178.648	183.765	303.549	297.852	183.130	187.396	187.826	192.524	314.713	191.773	-8191	255	
25940.357	1	1	0	0	0.2257	0.12445	0.072733	0.20972	0.11353	0.018511	0.32053	0.174	0.073573	0.094575	0.42924	0.083653	0.33613	0.23546	0.30783	0.15125	-1.9958	-2.7375	-2.6875	-2.5062	-2.7938	-2.7333	-2.7292	-2.9271	-2.4104	-2.5	-2.9813	-2.4813	-2.7687	-2.7958	-2.4396	-3.0167	342.988	358.572	472.847	295.107	439.492	421.245	411.075	451.790	257.160	175.661	512.811	482.443	168.918	495.141	302.305	485.204	0.00051344	0.00070243	0.00010964	1393.2	3.7941e-06	7.2625e-06	1397.5	363.47	5.8958e-06	6.3967e-06	414.68	137.26	119.17	41.432	3.3261e-06	51.486	0.00082624	0.00096019	0.00026997	1422.8	1.0273e-05	1.0717e-05	1420.4	371.52	1.0297e-05	1.0694e-05	425.3	140.93	122.47	42.677	1.0462e-05	53.303	241.824	249.839	241.185	179.141	306.617	312.903	178.645	183.547	318.309	309.584	183.043	187.182	187.607	192.507	301.463	191.866	-8191	255	
25940.453	1	1	0	0	0.14165	0.094132	0.21013	0.2049	0.15166	0.41065	0.13385	0.15686	0.24194	0.15339	0.10784	0.19254	0.39707	0.3352	0.093004	0.076119	-2.1146	-2.7792	-2.7833	-2.3521	-2.6542	-2.6771	-2.7667	-2.8708	-2.6854	-2.5729	-2.975	-2.5563	-2.8646	-2.6688	-2.3667	-2.9813	251.591	241.046	444.368	321.857	276.701	464.201	426.760	502.951	463.654	262.972	425.629	221.704	220.421	455.599	277.786	401.322	0.00050264	0.00034972	0.00017002	1393.3	6.3593e-06	7.8319e-06	1397.6	364.77	3.3228e-06	5.4452e-06	416.71	136.52	118.6	41.563	7.0627e-06	51.522	0.00084656	0.00096409	0.00026854	1425.3	1.0761e-05	1.0672e-05	1422.2	372.03	1.0455e-05	1.0883e-05	425.57	140.85	122.31	42.754	1.064e-05	53.248	243.525	272.574	263.115	178.822	295.155	344.448	178.990	183.553	286.383	328.012	182.763	187.190	187.667	192.712	343.013	191.809	-8191	255	
25940.551	1	1	0	0	0.06346	0.38117	0.13747	0.11872	0.18341	0.026092	0.29987	0.36356	0.13734	0.02986	0.28927	0.19561	0.23465	0.11791	0.13486	0.25014	-2.0812	-2.5312	-2.6979	-2.6063	-2.7687	-2.7229	-2.8104	-2.9917	-2.6437	-2.7146	-2.8167	-2.7042	-2.5563	-2.7542	-2.6937	-2.7167	425.500	217.837	267.768	522.188	484.260	510.596	388.641	451.452	379.624	364.825	455.518	459.986	229.932	447.665	271.060	502.547	0.00047211	0.0001076	0.00012658	1402.7	6.3181e-06	6.4844e-06	1394.3	364.16	2.7309e-06	7.4795e-06	414.03	137.24	119.22	41.449	5.1745e-06	51.612	0.00083469	0.00097786	0.00027069	1426.2	1.0537e-05	1.0734e-05	1418.1	371.82	1.0355e-05	1.0653e-05	425.33	140.91	122.39	42.626	1.0371e-05	53.238	241.766	318.335	263.524	178.863	311.360	251.934	178.741	183.468	326.053	319.754	183.085	187.346	187.698	192.564	325.113	191.651	-8191	255	
#DATA ENDS
