BOXY.EXE: ISS Imagent and Oximeter Data Acquisition Program Version 0.80
Ascii Record File

#ACQ INFORMATION
2  Detector Channels 
16  External MUX Channels 
1  Auxiliary Channels 
5000  Waveform (CCF) Frequency (Hz)
1  Waveforms Skipped 
30  Waveforms Averaged 
1  Cycles Averaged 
16  Acquisitions per Waveform 
10.0806  Updata Rate (Hz) 

#FILE INFORMATION
TRUE -- External MUX Channel results are PARSED.
FALSE -- AC DC and Phase are NOT grouped.
TRUE -- Companion Program Settings File CREATED.
FALSE -- AC data not excluded
FALSE -- DC data not excluded
FALSE -- Phase data not excluded
FALSE -- Auxillary Chn. data not excluded
Tab delimiters

#CALIBRATION STATE
TRUE -- Waveform Calibration Values APPLIED.


#AUX CALIBRATION VALUES
Val Type	aux-1	

Term	1.0000e+00	
Factor	0.0000e+00	


#WF CALIBRATION VALUES
A = Detector Channel
Val Type	A-AC1	A-AC2	A-AC3	A-AC4	A-AC5	A-AC6	A-AC7	A-AC8	A-AC9	A-AC10	A-AC11	A-AC12	A-AC13	A-AC14	A-AC15	A-AC16	A-DC1	A-DC2	A-DC3	A-DC4	A-DC5	A-DC6	A-DC7	A-DC8	A-DC9	A-DC10	A-DC11	A-DC12	A-DC13	A-DC14	A-DC15	A-DC16	A-Ph1	A-Ph2	A-Ph3	A-Ph4	A-Ph5	A-Ph6	A-Ph7	A-Ph8	A-Ph9	A-Ph10	A-Ph11	A-Ph12	A-Ph13	A-Ph14	A-Ph15	A-Ph16	

Term	0.00000e+00	0.00000e+00	0.00000e+00	0.00000e+00	0.00000e+00	0.00000e+00	0.00000e+00	0.00000e+00	0.00000e+00	0.00000e+00	0.00000e+00	0.00000e+00	0.00000e+00	0.00000e+00	0.00000e+00	0.00000e+00	0.00000e+00	0.00000e+00	0.00000e+00	0.00000e+00	0.00000e+00	0.00000e+00	0.00000e+00	0.00000e+00	0.00000e+00	0.00000e+00	0.00000e+00	0.00000e+00	0.00000e+00	0.00000e+00	0.00000e+00	0.00000e+00	0.00000e+00	0.00000e+00	0.00000e+00	0.00000e+00	0.00000e+00	0.00000e+00	0.00000e+00	0.00000e+00	0.00000e+00	0.00000e+00	0.00000e+00	0.00000e+00	0.00000e+00	0.00000e+00	0.00000e+00	0.00000e+00	
Factor	1.00000e+00	1.00000e+00	1.00000e+00	1.00000e+00	1.00000e+00	1.00000e+00	1.00000e+00	1.00000e+00	1.00000e+00	1.00000e+00	1.00000e+00	1.00000e+00	1.00000e+00	1.00000e+00	1.00000e+00	1.00000e+00	1.00000e+00	1.00000e+00	1.00000e+00	1.00000e+00	1.00000e+00	1.00000e+00	1.00000e+00	1.00000e+00	1.00000e+00	1.00000e+00	1.00000e+00	1.00000e+00	1.00000e+00	1.00000e+00	1.00000e+00	1.00000e+00	X	X	X	X	X	X	X	X	X	X	X	X	X	X	X	X	

B = Detector Channel
Val Type	B-AC1	B-AC2	B-AC3	B-AC4	B-AC5	B-AC6	B-AC7	B-AC8	B-AC9	B-AC10	B-AC11	B-AC12	B-AC13	B-AC14	B-AC15	B-AC16	B-DC1	B-DC2	B-DC3	B-DC4	B-DC5	B-DC6	B-DC7	B-DC8	B-DC9	B-DC10	B-DC11	B-DC12	B-DC13	B-DC14	B-DC15	B-DC16	B-Ph1	B-Ph2	B-Ph3	B-Ph4	B-Ph5	B-Ph6	B-Ph7	B-Ph8	B-Ph9	B-Ph10	B-Ph11	B-Ph12	B-Ph13	B-Ph14	B-Ph15	B-Ph16	

Term	0.00000e+00	0.00000e+00	0.00000e+00	0.00000e+00	0.00000e+00	0.00000e+00	0.00000e+00	0.00000e+00	0.00000e+00	0.00000e+00	0.00000e+00	0.00000e+00	0.00000e+00	0.00000e+00	0.00000e+00	0.00000e+00	0.00000e+00	0.00000e+00	0.00000e+00	0.00000e+00	0.00000e+00	0.00000e+00	0.00000e+00	0.00000e+00	0.00000e+00	0.00000e+00	0.00000e+00	0.00000e+00	0.00000e+00	0.00000e+00	0.00000e+00	0.00000e+00	-2.28318e+02	-1.28261e+02	-1.22557e+02	-1.79784e+02	-6.98370e+01	-5.69121e+01	-1.58204e+02	-1.62015e+02	-8.96925e+01	-7.94603e+01	-1.70039e+02	-1.72048e+02	-1.82281e+02	-1.76085e+02	-7.57894e+01	-1.48903e+02	
Factor	4.44743e-05	1.16669e-04	3.11420e-05	1.50107e-01	1.44705e-06	1.30124e-06	1.55391e-01	5.73555e-02	1.61794e-06	1.31520e-06	7.33951e-02	2.70137e-02	2.41607e-02	7.75268e-03	1.42893e-06	1.11630e-02	1.56745e-06	1.64600e-06	4.64896e-07	7.58927e-02	1.78137e-08	1.80026e-08	7.42071e-02	2.88859e-02	1.77144e-08	1.80151e-08	3.60562e-02	1.31780e-02	1.21309e-02	3.93631e-03	1.80715e-08	5.48598e-03	X	X	X	X	X	X	X	X	X	X	X	X	X	X	X	X	



#DISTANCE SETTINGS
A = Detector Channel
A-1	A-2	A-3	A-4	A-5	A-6	A-7	A-8	A-9	A-10	A-11	A-12	A-13	A-14	A-15	A-16	

2.5000e+00	3.0000e+00	2.5000e+00	3.0000e+00	2.0000e+00	3.0000e+00	1.5000e+00	3.0000e+00	3.0000e+00	3.0000e+00	3.0000e+00	3.0000e+00	3.0000e+00	3.0000e+00	1.5000e+00	3.0000e+00	

B = Detector Channel
B-1	B-2	B-3	B-4	B-5	B-6	B-7	B-8	B-9	B-10	B-11	B-12	B-13	B-14	B-15	B-16	

1.0000e+01	1.0000e+01	1.0000e+01	1.4400e+00	1.0000e+01	1.0000e+01	1.5100e+00	1.9400e+00	1.0000e+01	1.0000e+01	1.9900e+00	2.4900e+00	2.4100e+00	2.9000e+00	1.0000e+01	2.9800e+00	




#DATA BEGINS
time	group	step	mark	flag	A-AC1	A-AC2	A-AC3	A-AC4	A-AC5	A-AC6	A-AC7	A-AC8	A-AC9	A-AC10	A-AC11	A-AC12	A-AC13	A-AC14	A-AC15	A-AC16	A-DC1	A-DC2	A-DC3	A-DC4	A-DC5	A-DC6	A-DC7	A-DC8	A-DC9	A-DC10	A-DC11	A-DC12	A-DC13	A-DC14	A-DC15	A-DC16	A-Ph1	A-Ph2	A-Ph3	A-Ph4	A-Ph5	A-Ph6	A-Ph7	A-Ph8	A-Ph9	A-Ph10	A-Ph11	A-Ph12	A-Ph13	A-Ph14	A-Ph15	A-Ph16	B-AC1	B-AC2	B-AC3	B-AC4	B-AC5	B-AC6	B-AC7	B-AC8	B-AC9	B-AC10	B-AC11	B-AC12	B-AC13	B-AC14	B-AC15	B-AC16	B-DC1	B-DC2	B-DC3	B-DC4	B-DC5	B-DC6	B-DC7	B-DC8	B-DC9	B-DC10	B-DC11	B-DC12	B-DC13	B-DC14	B-DC15	B-DC16	B-Ph1	B-Ph2	B-Ph3	B-Ph4	B-Ph5	B-Ph6	B-Ph7	B-Ph8	B-Ph9	B-Ph10	B-Ph11	B-Ph12	B-Ph13	B-Ph14	B-Ph15	B-Ph16	aux-1	digaux	

6598.673	1	1	0	256	0.094109	0.33026	0.22262	0.084119	0.21214	0.097507	0.34962	0.28185	0.12565	0.22841	0.2126	0.15452	0.20965	0.11862	0.24895	0.20718	-2.6	-3.0896	-2.8396	-3.4458	-3.0438	-2.8458	-3.5333	-3.0021	-2.9396	-3.45	-3.0021	-3.3333	-2.9313	-3.1729	-3.0542	-3.1437	164.500	279.880	293.682	108.256	191.990	379.173	409.549	420.981	400.486	245.646	442.462	412.800	384.689	401.435	404.790	444.031	0.0012326	0.0014283	0.0003053	1317.5	5.9516e-06	6.341e-06	1318.9	364.78	1.075e-05	3.7778e-06	415.31	137.33	118.77	40.138	1.0727e-05	50.356	0.0026458	0.0024858	0.00070822	1455.4	2.9096e-05	2.7904e-05	1437.5	414.33	2.9063e-05	2.678e-05	470.45	158.98	137	46.453	2.7559e-05	60.016	442.310	216.206	206.692	104.797	356.781	311.858	104.681	109.582	115.588	344.172	108.920	113.456	113.777	118.695	220.210	117.711	-8191	255	
6598.770	1	1	0	0	0.2502	0.094495	0.1206	0.27754	0.26478	0.24241	0.1918	0.29892	0.15395	0.12851	0.11032	0.041979	0.24004	0.23447	0.087058	0.14118	-2.6729	-3.1125	-2.8896	-3.1708	-3.1625	-2.7417	-3.4167	-3.0312	-2.9208	-3.325	-2.9396	-3.2042	-3.4437	-2.7917	-3.3958	-3.3729	394.218	381.664	330.993	404.977	448.709	169.022	376.040	401.287	162.280	149.762	298.986	272.895	416.765	150.278	387.681	97.494	0.0011647	0.00052652	0.00045579	1322.7	8.2075e-06	1.3572e-06	1330.4	364.93	1.3909e-05	5.0597e-06	419.44	137.71	119.71	40.581	1.2739e-05	50.486	0.0025059	0.0023737	0.00072464	1461.3	2.6922e-05	2.6039e-05	1449.3	412.85	2.6755e-05	2.502e-05	473.19	158.13	136.12	46.213	2.7731e-05	59.384	435.710	385.511	196.436	105.118	295.987	437.820	104.808	109.722	290.792	208.514	108.902	113.303	113.822	118.498	269.878	117.552	-8191	255	
6598.864	1	1	0	0	0.087228	0.045489	0.044446	0.27051	0.1552	0.18316	0.12273	0.19309	0.099384	0.15439	0.10537	0.11107	0.096748	0.25592	0.22377	0.22192	-2.4333	-3.4125	-2.9333	-3.1979	-3.1458	-2.7875	-3.4021	-3.1333	-2.9792	-3.1646	-3.0854	-3.1208	-3.275	-2.8875	-3.0354	-3.1292	110.438	428.253	359.376	93.485	110.857	284.404	381.841	99.664	319.397	441.293	98.169	388.203	426.091	258.937	374.598	431.754	0.0015089	0.00067442	0.00040813	1328.2	6.5068e-06	1.0885e-05	1330.1	365.43	1.1435e-05	1.6346e-05	416.65	137.16	119.2	40.564	7.2726e-06	50.583	0.0023254	0.0022267	0.00072603	1452.6	2.5075e-05	2.4818e-05	1451.3	409.27	2.5224e-05	2.4124e-05	473.38	156.25	134.77	46.081	2.8042e-05	58.649	447.491	183.335	168.673	105.074	322.624	293.763	104.713	109.801	193.961	182.499	108.790	113.399	114.122	118.526	205.022	117.703	-8191	255	
6598.962	1	1	0	0	0.2944	0.25114	0.14457	0.40383	0.14187	0.13989	0.11816	0.2218	0.25266	0.088943	0.32175	0.31615	0.10578	0.19919	0.17297	0.12171	-2.2458	-3.2771	-2.8292	-3.2542	-3.2042	-3.0667	-3.2604	-3.3354	-2.7	-3.3833	-2.9646	-3.2667	-3.475	-2.8042	-3.0083	-3.1354	405.870	230.342	328.487	414.430	358.675	400.998	365.747	139.978	116.651	279.933	323.324	435.627	422.514	420.317	407.827	121.614	0.0014161	0.0010614	0.0002364	1328.2	1.6115e-05	1.5195e-05	1333.1	365.81	4.8366e-06	1.2489e-05	418.75	137.76	119.64	40.771	7.3191e-06	50.759	0.0021903	0.0021809	0.00071964	1444.2	2.3403e-05	2.4541e-05	1450.7	405.13	2.3705e-05	2.4076e-05	472.56	155.18	134.03	46.253	2.7785e-05	58.291	426.312	176.748	195.446	104.967	343.180	250.023	104.783	109.531	182.323	225.658	108.906	113.444	113.719	118.656	226.210	117.553	-8191	255	
6599.081	1	1	0	0	0.32315	0.09216	0.13576	0.17442	0.19219	0.11359	0.24281	0.27083	0.19494	0.11532	0.32774	0.081586	0.16714	0.14819	0.03812	0.19952	-2.2583	-3.3042	-2.9792	-3.3458	-3.1979	-3.0292	-3.1813	-3.2896	-2.8229	-3.2354	-3.2542	-3.0583	-3.2708	-3.2104	-3.0625	-3.4688	274.448	123.675	412.885	106.677	222.717	378.549	392.660	390.043	334.866	156.057	399.107	443.686	293.787	430.476	269.206	112.521	0.0013715	0.00056713	3.1282e-05	1333.2	8.6396e-06	1.7007e-06	1337.8	369.88	2.2433e-05	7.8266e-06	418.63	138.49	120.23	40.884	6.9226e-06	50.581	0.0021212	0.0022851	0.00071334	1447	2.2968e-05	2.5788e-05	1457.8	406.99	2.3218e-05	2.5805e-05	473.36	155.29	134.61	46.749	2.715e-05	58.186	440.262	130.592	334.939	104.766	337.860	134.593	104.629	109.593	254.787	196.918	108.933	113.216	113.963	118.487	331.551	117.350	-8191	255	
6599.152	1	1	0	0	0.13727	0.080404	0.34146	0.13897	0.098712	0.087489	0.083133	0.27458	0.1187	0.1489	0.072296	0.2885	0.27011	0.36575	0.13681	0.12061	-2.5	-3.1188	-3.0458	-3.1083	-3.1667	-3	-3.2	-3.2313	-2.9479	-2.9792	-3.125	-3.0292	-3.5021	-3.0917	-3.0229	-3.3396	184.215	92.150	449.358	435.226	297.207	418.292	98.224	398.663	167.312	197.327	122.242	443.911	385.347	402.875	199.120	337.695	0.0016917	0.0010629	9.864e-05	1342.7	2.1153e-06	1.2927e-05	1337.5	368.84	1.5077e-05	9.6076e-06	420.19	138.47	120.63	40.753	1.2049e-05	50.726	0.0020962	0.0024216	0.00068376	1449.2	2.2745e-05	2.7131e-05	1454.6	405.92	2.3396e-05	2.7254e-05	471.29	154.73	134.96	46.95	2.6035e-05	57.981	421.356	133.032	217.775	104.877	312.883	230.679	104.633	109.529	203.881	230.895	108.885	113.207	113.880	118.749	250.932	117.517	-8191	255	
6599.273	1	1	0	0	0.16657	0.12705	0.16441	0.15886	0.2319	0.037989	0.25084	0.28184	0.22249	0.12258	0.3324	0.12618	0.062101	0.064006	0.15166	0.23088	-2.4125	-3.2208	-2.975	-3.2125	-3.2479	-2.9125	-3.3771	-3.1229	-3.075	-3.15	-3.2042	-2.9354	-3.3417	-3.0979	-2.8417	-3.5333	139.343	214.823	313.404	422.866	134.927	409.252	400.721	403.701	98.658	173.417	409.966	111.196	340.227	138.977	146.296	373.657	0.0017317	0.00094072	0.00016995	1332.5	2.0568e-05	4.2016e-06	1338.4	369.51	3.2724e-05	8.6437e-06	419.83	138.1	120.34	40.662	5.471e-06	50.856	0.0021315	0.0025038	0.00065273	1443.3	2.3415e-05	2.7391e-05	1450.1	404.58	2.4089e-05	2.7399e-05	469.11	154.23	135.67	46.878	2.5286e-05	57.799	421.863	219.652	159.638	104.944	227.432	237.514	104.833	109.421	200.109	303.563	108.806	113.380	113.711	118.617	228.416	117.757	-8191	255	
6599.369	1	1	0	0	0.060778	0.11908	0.14044	0.30876	0.13104	0.25541	0.37262	0.22865	0.15642	0.24636	0.14781	0.1938	0.27219	0.18639	0.14231	0.21831	-2.4771	-3.0938	-3.0479	-2.9729	-3.1646	-3.0812	-3.0812	-3.5	-3.0042	-3.2958	-3.4479	-2.9625	-3.4875	-3.2812	-3.0375	-3.4917	258.292	418.514	210.460	435.477	301.495	279.347	406.047	431.588	184.349	178.811	383.591	144.207	414.764	442.648	121.603	419.743	0.0015645	0.001156	0.00025342	1338	2.547e-05	3.1054e-06	1337.9	369.33	2.9906e-05	7.9194e-06	421.06	138.31	120.78	40.747	5.0729e-06	50.672	0.0022651	0.0025309	0.0006393	1445.7	2.5539e-05	2.7778e-05	1450.7	405.41	2.679e-05	2.8382e-05	471.59	155.2	138.15	47.207	2.6683e-05	58.333	422.596	407.195	322.565	105.093	201.847	277.224	104.701	109.630	193.845	328.984	109.155	113.301	113.448	118.759	293.537	117.436	-8191	255	
6599.465	1	1	0	0	0.14635	0.21405	0.27111	0.27854	0.18371	0.16946	0.22738	0.23379	0.19894	0.21491	0.30526	0.37994	0.2262	0.07386	0.1553	0.14133	-2.3979	-3.0583	-3.175	-3.1188	-3.2062	-2.7396	-3.1375	-3.2583	-2.9729	-3.125	-3.2771	-3.0062	-3.3854	-3.0792	-2.975	-3.3396	138.695	265.173	217.315	418.410	442.549	100.510	412.585	393.887	404.464	413.745	432.686	439.381	429.388	418.011	437.788	396.866	0.0016062	0.00055241	4.5723e-05	1343.3	2.4657e-05	1.3114e-05	1348.2	369.93	1.2349e-05	8.9202e-06	421.16	138.58	120.7	40.404	3.6389e-06	50.901	0.0025814	0.0026532	0.00067358	1458.6	2.9047e-05	2.8426e-05	1461	408.89	2.9142e-05	2.8232e-05	472.18	155.86	139.05	46.819	2.5689e-05	58.487	434.458	385.287	371.699	104.867	221.708	329.864	104.605	109.465	257.313	384.347	108.731	113.463	113.785	118.561	343.402	117.589	-8191	255	
6599.562	1	1	0	0	0.029916	0.029725	0.15266	0.19975	0.20753	0.12752	0.2353	0.14936	0.17213	0.069143	0.13204	0.035573	0.2019	0.013486	0.11724	0.092581	-2.5708	-2.975	-3.2812	-3.0187	-3.1646	-3.1583	-3.0187	-3.4083	-2.9521	-3.1	-3.5083	-2.9792	-3.2479	-3.3063	-2.9021	-3.2062	287.829	281.911	435.526	117.038	428.068	380.248	421.447	394.831	437.768	382.114	317.660	215.379	236.525	376.387	187.729	355.128	0.0019332	0.00083703	0.0001685	1347.4	1.2389e-05	6.1432e-06	1350.8	371.13	1.9512e-05	1.5033e-06	421.82	139.17	120.61	40.742	1.1142e-05	50.637	0.0025787	0.0024653	0.00063815	1460	2.859e-05	2.6273e-05	1456	410.03	2.8427e-05	2.6621e-05	469.44	156.62	138.95	46.626	2.5248e-05	58.913	439.100	147.351	435.644	104.883	229.439	105.208	104.603	109.676	250.684	185.021	108.905	113.199	113.646	118.373	272.508	117.818	-8191	255	
6599.682	1	1	0	0	0.10957	0.0077841	0.097752	0.095197	0.09603	0.25986	0.23486	0.17394	0.10964	0.21096	0.30102	0.33407	0.098747	0.40042	0.20066	0.24771	-2.7708	-3	-3.2313	-3.1646	-3.2875	-3.1396	-3.1063	-3.3708	-3.0833	-2.9854	-3.375	-2.9583	-3.2958	-3.1771	-2.7875	-3.2542	365.684	243.153	246.170	138.448	410.239	299.731	373.889	380.249	322.443	376.984	434.299	426.229	147.028	120.413	117.482	333.138	0.001213	0.0010208	0.00013539	1351.6	1.02e-05	7.9406e-06	1347.8	369.67	4.9437e-06	9.1269e-06	421.58	138.92	120.28	40.619	8.88e-06	50.631	0.0025606	0.0024254	0.00063116	1472.8	2.8576e-05	2.584e-05	1457.3	412.98	2.7761e-05	2.6024e-05	468.8	157.89	138.3	46.367	2.503e-05	59.203	444.891	231.309	426.999	104.792	394.508	372.070	104.701	109.617	241.777	300.390	108.793	113.477	114.086	118.470	236.948	117.754	-8191	255	
6599.777	1	1	0	0	0.1474	0.033746	0.12188	0.32102	0.032513	0.11886	0.24575	0.30122	0.066234	0.18145	0.13294	0.13735	0.47771	0.14664	0.23028	0.30105	-2.6875	-2.7375	-3.1833	-2.9458	-3.0458	-3.1917	-3.0854	-3.4396	-3.05	-2.8625	-3.425	-3.2042	-3.0396	-3.2771	-2.8917	-3.275	142.026	375.643	156.722	428.461	426.684	409.753	379.276	405.866	94.990	270.269	123.108	164.940	413.901	400.091	343.961	405.106	0.001217	0.00037987	0.0002804	1347.5	2.8756e-07	5.362e-06	1346.1	370.33	1.1361e-06	2.5835e-06	421.75	138.82	120.04	40.649	1.7135e-05	50.656	0.0024393	0.0023592	0.00062943	1473.9	2.7518e-05	2.5332e-05	1456.4	415.8	2.7269e-05	2.631e-05	471.96	159.05	138.12	46.424	2.6658e-05	59.975	440.267	168.852	164.721	104.950	163.217	325.738	104.755	109.667	317.706	145.404	108.958	113.400	113.753	118.319	193.928	117.530	-8191	255	
6599.850	1	1	0	0	0.24936	0.21809	0.10649	0.29308	0.029543	0.10849	0.1715	0.30881	0.24051	0.13054	0.39717	0.22631	0.2129	0.13856	0.22981	0.082549	-2.6333	-2.9062	-3.1208	-3.0667	-2.8625	-3.3063	-3.0125	-3.2313	-3.2542	-2.8312	-3.4313	-3.1021	-2.9146	-3.3812	-2.8542	-3.3604	426.271	203.945	201.367	421.521	429.278	133.265	424.678	442.836	193.233	111.792	380.544	422.078	408.561	393.714	325.579	446.139	0.001527	0.00049024	0.00030954	1346.5	3.6763e-06	2.046e-06	1354.8	369.3	1.8076e-05	2.2991e-06	421.77	138.64	120.45	40.701	1.6466e-05	51.032	0.0024252	0.0023861	0.00068753	1481.7	2.7298e-05	2.5232e-05	1467.5	417.24	2.6346e-05	2.5717e-05	475.74	159.19	137.56	46.374	2.789e-05	59.832	439.193	190.549	131.808	104.926	446.628	164.955	104.627	109.749	304.441	326.511	108.881	113.564	114.048	118.283	189.324	117.333	-8191	255	
6599.944	1	1	0	0	0.01957	0.30919	0.047507	0.19791	0.075383	0.10589	0.28971	0.26454	0.23301	0.10353	0.16801	0.24624	0.17544	0.12614	0.15002	0.18337	-2.8063	-2.8438	-3.0729	-3.2354	-2.9854	-3.0521	-3.1271	-3.0854	-3.1708	-2.7333	-3.4562	-2.9437	-3.2604	-3.3854	-2.9688	-3.1292	178.687	218.452	275.960	369.321	142.267	278.795	447.755	373.990	289.540	168.408	175.359	129.411	388.192	311.629	439.260	390.620	0.0012748	0.00044701	0.00033435	1346.5	5.9665e-06	8.7918e-06	1345.1	368.82	1.9192e-06	6.9461e-06	423.29	138.49	120.61	40.772	2.4016e-05	50.656	0.0023169	0.002307	0.00071052	1475	2.5909e-05	2.4255e-05	1469.4	414.96	2.5091e-05	2.4887e-05	477.87	157.68	137.18	46.375	2.8942e-05	59.531	97.361	433.075	155.824	104.799	306.645	299.023	104.723	109.588	125.699	236.725	108.912	113.240	113.880	118.437	254.983	117.338	-8191	255	
6600.042	1	1	0	0	0.20021	0.06872	0.25424	0.16747	0.28334	0.24614	0.1197	0.36661	0.24787	0.28624	0.22893	0.33524	0.39864	0.31951	0.16243	0.10306	-2.8354	-2.6604	-3.2896	-3.1583	-2.9417	-3.2333	-3.0271	-3.2	-3.1521	-3.0146	-3.2875	-3.1937	-3.0375	-3.2333	-2.8521	-3.1667	384.392	96.121	377.903	404.495	444.317	417.981	426.247	389.906	167.010	445.914	418.806	396.088	415.681	395.911	98.701	195.994	0.0010832	0.00059967	0.00014377	1349	7.9542e-06	1.526e-05	1356	369.67	9.1307e-06	2.0085e-05	422.56	138.48	121.16	40.857	1.9822e-06	50.951	0.0022705	0.0023306	0.00075261	1474.4	2.576e-05	2.5175e-05	1479.7	414.5	2.4753e-05	2.5924e-05	481.05	157.56	137.07	46.724	2.9839e-05	59.383	434.029	140.411	177.505	104.986	310.759	229.440	104.741	109.634	157.299	222.290	108.901	113.373	113.899	118.545	168.623	117.496	-8191	255	
6600.161	1	1	0	0	0.28421	0.041281	0.0481	0.26562	0.18215	0.18754	0.34782	0.2544	0.28263	0.21256	0.19192	0.23586	0.16995	0.33618	0.24232	0.19028	-2.8604	-2.8833	-3.1104	-3.2562	-2.8979	-3.2333	-3.2	-3.0187	-3.2104	-2.6854	-3.2375	-3.0833	-2.9167	-3.2958	-2.9313	-3.2271	410.485	386.537	124.238	397.744	215.867	279.197	389.843	441.925	258.099	348.667	416.658	98.304	320.590	393.982	356.420	351.278	0.0013901	0.0012745	0.00038658	1352.8	9.0987e-06	2.0837e-05	1357.4	370.96	1.6983e-05	1.2416e-05	423.27	139.07	121.28	41.261	3.4765e-06	50.897	0.0022256	0.0024622	0.0007738	1473.4	2.5624e-05	2.6908e-05	1486.3	414.75	2.4583e-05	2.7926e-05	483.12	157.65	137.32	47.35	2.9771e-05	59.371	434.261	127.961	241.695	104.898	266.687	248.749	104.693	109.458	269.017	178.811	108.705	113.362	113.853	118.696	261.886	117.421	-8191	255	
6600.257	1	1	0	0	0.10809	0.1194	0.22499	0.32387	0.02306	0.13226	0.38755	0.19809	0.35301	0.090309	0.13977	0.10856	0.076676	0.23348	0.11737	0.026346	-2.7875	-2.8833	-3.1292	-3.3542	-2.8646	-3.1604	-3.3104	-3.0229	-3.2562	-2.85	-3.1979	-3.3021	-3.0021	-3.2792	-3.2271	-3.0938	390.657	405.036	394.147	429.132	247.673	308.686	362.400	128.638	428.918	444.638	409.604	336.068	370.414	414.070	318.609	261.450	0.0011775	0.0013304	8.8031e-05	1353.4	1.0985e-05	1.913e-05	1361.2	371.14	1.3673e-05	1.2253e-05	424.45	139.68	121.21	41.031	1.2438e-05	50.845	0.0022332	0.0026482	0.00076903	1474.6	2.5824e-05	2.9082e-05	1485.3	415.35	2.5073e-05	2.9898e-05	482.85	157.62	137.67	47.79	2.8872e-05	59.182	434.679	141.941	198.157	104.706	201.630	222.333	104.622	109.492	217.949	201.755	109.132	113.065	113.914	118.630	290.181	117.541	-8191	255	
6600.353	1	1	0	0	0.25593	0.071492	0.17203	0.15827	0.29635	0.18888	0.042791	0.36116	0.1704	0.15994	0.082865	0.15001	0.089002	0.13691	0.14562	0.3061	-2.8167	-3.1125	-2.9229	-3.2917	-2.8146	-3.1229	-3.2812	-2.9292	-3.2833	-2.9125	-3.2292	-3.3583	-3.0146	-3.4521	-3.1896	-2.9896	441.808	269.335	152.465	429.408	257.215	104.503	410.488	402.466	415.144	410.600	283.641	389.166	93.744	299.103	125.200	390.385	0.0018303	0.00033129	0.00011411	1356.6	1.8798e-05	1.4997e-05	1359.1	371.53	2.7426e-05	7.9404e-06	422.07	139.33	120.91	40.947	2.7817e-06	50.787	0.0022721	0.0027522	0.00073999	1470.9	2.6007e-05	2.9765e-05	1477	413.42	2.5404e-05	2.9969e-05	478.14	156.5	137.73	47.784	2.7091e-05	58.914	428.299	309.670	396.559	104.767	219.944	136.564	104.734	109.547	195.077	201.766	108.826	113.308	113.712	118.530	381.204	117.458	-8191	255	
6600.450	1	1	0	0	0.22043	0.18169	0.11817	0.22289	0.28968	0.13792	0.44197	0.15229	0.14387	0.13887	0.079154	0.22195	0.33106	0.10445	0.22984	0.079251	-2.7854	-2.8333	-2.7313	-3.5292	-2.6917	-3.2	-3.2771	-2.9521	-3.1729	-3.2229	-3.0604	-3.3104	-2.9688	-3.2396	-3.0604	-2.9437	334.856	449.364	157.021	358.649	260.078	195.355	382.593	418.459	299.962	172.204	343.284	409.767	369.653	383.038	205.263	127.104	0.0014341	0.00042387	2.7561e-05	1352.4	2.1768e-05	2.6023e-06	1358.1	371.45	2.8105e-05	1.0621e-05	423.11	138.88	120.7	40.898	1.1811e-05	50.971	0.0023503	0.0027174	0.0007027	1465.5	2.7047e-05	2.9619e-05	1469.4	411.1	2.6787e-05	2.9152e-05	475.49	155.85	138.59	47.491	2.6026e-05	58.609	428.418	163.995	384.045	104.880	240.945	288.695	104.638	109.612	185.047	354.474	108.943	113.293	113.910	118.728	379.498	117.600	-8191	255	
6600.546	1	1	0	0	0.086343	0.23562	0.090234	0.30021	0.093988	0.034787	0.20819	0.22199	0.20439	0.25308	0.12956	0.2801	0.37724	0.14295	0.26035	0.0011073	-2.8458	-2.9437	-3.0333	-3.2083	-3.0708	-2.9417	-3.4979	-2.8875	-3.3292	-3.1604	-3.0917	-3.475	-2.9062	-3.2875	-3.3417	-3.0958	434.644	338.132	200.824	103.332	173.988	220.391	400.466	368.702	415.052	114.984	262.535	367.149	403.467	200.814	156.690	180.000	0.0019194	0.00059427	0.00016982	1359.7	2.2243e-05	6.5235e-06	1355.2	371.38	7.2902e-06	1.2346e-05	423.08	139	121.06	40.914	4.8968e-06	51.124	0.0024749	0.0025915	0.0006774	1465.1	2.8157e-05	2.8177e-05	1464.1	410.61	2.8037e-05	2.7718e-05	474.86	155.77	139.42	47.29	2.5375e-05	58.798	428.600	308.944	415.957	104.792	232.118	295.444	104.800	109.482	194.551	327.414	108.744	113.525	113.732	118.638	236.781	117.534	-8191	255	
6600.642	1	1	0	0	0.083556	0.39593	0.23931	0.20167	0.37599	0.058475	0.090148	0.071213	0.24273	0.10272	0.1746	0.2579	0.079872	0.038927	0.21166	0.26288	-2.7646	-2.9729	-2.8646	-3.375	-3.0271	-2.9792	-3.4146	-2.9792	-3.1458	-3.0938	-2.9771	-3.3667	-3.1562	-3.1917	-3.2979	-2.9917	100.138	398.460	390.396	383.671	242.913	144.695	275.609	196.203	298.775	437.538	407.859	102.495	440.540	362.061	351.879	451.257	0.0019336	0.001409	0.00022451	1354.9	3.55e-06	5.6799e-06	1351.3	372.84	7.9816e-06	8.1784e-06	423.29	139.43	121.53	40.888	2.5547e-06	51.096	0.0025853	0.0025077	0.00067333	1469.2	2.9583e-05	2.7918e-05	1466.3	414.22	2.9901e-05	2.7796e-05	475.29	157.94	140.68	47.363	2.5878e-05	59.59	428.348	328.557	297.154	104.584	169.590	306.760	104.418	109.752	149.598	391.728	109.073	113.247	113.921	118.438	229.820	117.444	-8191	255	
6600.763	1	1	0	0	0.34342	0.36978	0.2285	0.11659	0.1322	0.13802	0.18953	0.1669	0.068184	0.16788	0.16369	0.14845	0.27431	0.1042	0.23837	0.17435	-2.6229	-3.1167	-3.0708	-3.3792	-2.8042	-2.9292	-3.4917	-3.0438	-3.2667	-3.1917	-3.0896	-3.4313	-3.0854	-3.1667	-3.2271	-3.3917	207.754	374.686	380.158	430.351	192.278	109.282	319.669	380.744	411.459	448.463	404.094	135.318	152.234	237.130	337.044	353.733	0.0016479	0.0010245	9.1945e-05	1363.5	5.4605e-06	1.4268e-05	1359	373.22	5.0475e-06	1.4178e-05	421.74	140.22	121.65	40.812	1.6084e-05	51.042	0.0027126	0.0025182	0.00068098	1483.1	3.0068e-05	2.7869e-05	1466.2	417.34	2.9486e-05	2.7012e-05	474.34	159.03	140.04	47.037	2.5096e-05	59.904	438.207	224.936	310.664	104.818	280.015	145.488	104.671	109.745	361.783	319.156	108.932	113.313	113.766	118.417	198.997	117.442	-8191	255	
6600.857	1	1	0	0	0.057195	0.31467	0.32944	0.15088	0.10156	0.066905	0.37524	0.16154	0.15382	0.083357	0.31513	0.11084	0.16356	0.11608	0.20806	0.074802	-2.5417	-3.1583	-3.0187	-3.3521	-3.3063	-2.8896	-3.5771	-3.1188	-2.9167	-3.2771	-2.9729	-3.3979	-3.1083	-2.7354	-3.4313	-3.0062	401.498	143.015	352.309	376.357	290.385	359.816	381.398	236.708	178.208	427.017	415.754	358.004	359.492	206.234	113.244	313.662	0.0014601	0.00017358	0.00012412	1354.7	1.0313e-05	6.5396e-06	1357.7	371.83	8.8997e-06	4.4936e-07	421.07	139.08	120.23	40.633	2.3507e-05	50.764	0.0025641	0.0023828	0.00065835	1483.4	2.7718e-05	2.6305e-05	1462.7	416.9	2.7312e-05	2.4999e-05	470.87	158.49	137.5	46.418	2.465e-05	59.452	440.164	251.632	166.770	104.750	372.678	143.078	104.729	109.559	392.111	223.763	108.762	113.549	113.796	118.801	216.972	117.684	-8191	255	
6600.953	1	1	0	0	0.21691	0.26039	0.24352	0.31266	0.018231	0.26775	0.34234	0.13673	0.21868	0.091439	0.20877	0.070495	0.10694	0.19611	0.11642	0.41904	-2.7708	-3.0417	-2.7396	-3.4146	-3.0938	-2.9333	-3.3604	-3.25	-3.0792	-3.3	-2.9271	-3.0896	-3.3771	-2.8208	-3.2438	-3.1542	297.932	185.516	419.271	370.572	203.036	319.908	384.449	154.378	136.815	405.203	96.283	325.205	426.845	336.984	366.017	443.261	0.0012061	0.00094923	0.00024714	1349.1	1.2618e-05	5.8945e-06	1347.2	369.22	1.0017e-05	7.2659e-06	419.98	138.04	119.84	40.559	2.5869e-05	50.353	0.002362	0.0022316	0.00064722	1474.4	2.5506e-05	2.4534e-05	1453.7	413.69	2.5239e-05	2.3466e-05	469.8	157.37	135.57	45.955	2.5008e-05	58.884	449.576	330.172	161.683	104.931	292.126	443.454	104.688	109.450	399.817	444.350	108.994	113.619	114.089	118.727	222.926	117.848	-8191	255	
6601.049	1	1	0	0	0.32381	0.25673	0.167	0.19985	0.19068	0.089432	0.35696	0.038077	0.063319	0.26157	0.17131	0.082814	0.17424	0.14288	0.11754	0.30109	-2.5292	-3.325	-2.6167	-3.5083	-3.2208	-2.8021	-3.5521	-3.0687	-2.9271	-3.3229	-2.9958	-3.2417	-3.3396	-3.1458	-3.1396	-3.1	305.184	113.326	278.991	127.301	155.136	426.864	388.491	427.164	248.882	419.891	429.014	390.514	260.008	209.712	392.020	374.216	0.0013712	0.00034371	0.00027461	1340.6	1.6409e-06	1.1359e-05	1345.1	367.8	5.4742e-06	1.8449e-05	420.31	137.61	119.81	40.625	1.9063e-05	50.454	0.0021887	0.0020758	0.00065612	1461	2.3647e-05	2.2997e-05	1451.5	409.93	2.3768e-05	2.2399e-05	470.56	155.8	134.47	45.726	2.6107e-05	58.428	440.902	281.144	151.773	104.740	436.051	306.366	104.768	109.526	140.979	216.159	108.901	113.202	113.696	118.566	237.170	117.444	-8191	255	
6601.145	1	1	0	0	0.065006	0.095713	0.1213	0.08086	0.11161	0.153	0.12836	0.21411	0.1064	0.10186	0.16948	0.17656	0.16915	0.25459	0.09964	0.2284	-2.6125	-3.0208	-2.9729	-3.1958	-3.1562	-3.1896	-3.35	-3.1875	-2.8625	-3.3354	-3.0417	-3.2438	-3.2458	-2.8792	-3.0083	-3.1917	406.181	335.655	418.859	412.727	255.779	329.726	302.151	392.240	246.612	165.912	332.546	99.133	103.557	382.770	176.959	423.262	0.0014477	0.00039813	0.00034902	1342.3	4.4533e-06	1.768e-05	1347.6	367.73	8.8888e-06	2.4663e-05	419.81	138.17	120.17	40.626	1.0781e-05	50.54	0.0021391	0.0020681	0.00068711	1460.7	2.3199e-05	2.3487e-05	1462.5	408.92	2.3798e-05	2.3324e-05	475	156.13	135.22	46.243	2.7958e-05	58.58	430.351	254.040	159.646	105.000	161.410	216.622	104.855	109.760	187.430	217.745	108.934	113.526	113.884	118.467	208.817	117.612	-8191	255	
6601.242	1	1	0	0	0.25289	0.097177	0.11728	0.19176	0.23854	0.16628	0.35869	0.021375	0.27486	0.3082	0.1161	0.20978	0.31245	0.22098	0.32379	0.21299	-2.3833	-3.4062	-3.0604	-3.1063	-3.5187	-2.9375	-3.4437	-3.0812	-2.8646	-3.2188	-3.1937	-2.8812	-3.3396	-3.0646	-3.0333	-3.2833	131.926	423.103	261.792	433.572	368.932	288.394	445.439	160.927	432.075	240.660	197.000	432.111	424.639	382.421	341.699	410.992	0.0016311	0.001558	0.00029611	1344.6	6.3364e-06	1.045e-05	1352.2	370.52	2.4266e-05	1.2902e-05	421.55	138.7	120.47	41.002	8.0959e-06	51.28	0.0021829	0.002266	0.00073845	1468.3	2.4181e-05	2.6206e-05	1479.7	412.44	2.5268e-05	2.6929e-05	482.42	158.14	137.13	47.571	3.13e-05	59.791	438.798	141.553	191.693	104.882	384.999	210.775	104.628	109.603	261.922	206.755	108.805	113.537	113.986	118.595	111.516	117.454	-8191	255	
6601.362	1	1	0	0	0.062098	0.05203	0.1798	0.19421	0.10374	0.10636	0.17387	0.36462	0.1112	0.14227	0.1365	0.48541	0.32229	0.17922	0.28816	0.059928	-2.3292	-3.1271	-2.9146	-3.0563	-3.2188	-2.8021	-3.3167	-3.3542	-2.7854	-3.4708	-3.3187	-3.1958	-3.3104	-2.9875	-3.0583	-3.4792	145.938	239.775	129.470	124.887	333.370	271.949	328.192	423.232	428.724	304.990	373.073	391.074	329.209	400.784	106.669	258.803	0.0012225	0.0019624	4.6162e-05	1358.9	1.0622e-05	2.4751e-05	1367.5	373.32	8.9591e-06	1.2035e-05	423.9	140.3	121.73	41.47	7.6979e-06	51.135	0.0024383	0.0027743	0.0008381	1491.4	2.7585e-05	3.2376e-05	1508.6	420.62	2.8912e-05	3.2968e-05	490.9	161.32	139.97	48.979	3.3198e-05	60.382	441.329	160.576	316.609	104.880	235.213	238.380	104.726	109.414	215.937	257.494	108.745	113.265	113.855	118.355	305.951	117.315	-8191	255	
6601.458	1	1	0	0	0.24923	0.097506	0.037742	0.22186	0.19344	0.097305	0.14352	0.26012	0.24095	0.13005	0.25672	0.13237	0.22928	0.095976	0.059726	0.28704	-2.4229	-3.1896	-3.1104	-3.0938	-3.3271	-2.8646	-3.4042	-3.1937	-2.8937	-3.1375	-3.3208	-3.0417	-3.3896	-3.0062	-2.9583	-3.3042	144.218	94.866	267.222	378.197	228.698	263.071	372.284	391.457	95.904	400.356	328.856	371.238	433.108	433.639	326.355	365.411	0.0017609	0.0017199	0.00025732	1357.3	1.6548e-05	1.4934e-05	1366.1	373.36	2.1261e-05	1.6704e-05	423.07	140.66	122.17	41.508	6.8978e-06	51.434	0.0025807	0.0030292	0.00081802	1490.3	2.7604e-05	3.2498e-05	1497.7	416.69	2.7623e-05	3.191e-05	482.87	159.43	139.18	48.629	2.8964e-05	59.468	437.091	155.671	317.711	104.900	210.336	181.983	104.674	109.242	172.185	208.882	109.010	113.379	113.795	118.427	153.076	117.420	-8191	255	
6601.554	1	1	0	0	0.45152	0.1859	0.17578	0.36633	0.083207	0.11695	0.35505	0.21955	0.14342	0.20965	0.17799	0.15671	0.46249	0.21503	0.18809	0.23469	-2.6271	-3.0521	-3.1917	-2.9417	-3.2125	-2.8812	-3.1562	-3.3542	-2.85	-3.2188	-3.2917	-2.9646	-3.2417	-3.1896	-2.9208	-3.3937	112.128	274.829	334.990	414.406	273.322	409.409	408.224	426.002	432.687	291.032	103.588	102.455	438.324	128.657	154.108	362.739	0.0019277	0.00024391	0.0001101	1364.4	3.4434e-05	1.2693e-05	1362.9	373.42	3.0047e-05	4.9561e-06	424.28	140.21	122.3	41.445	8.2084e-06	51.577	0.0024349	0.0028233	0.00071867	1480.8	2.6995e-05	3.0674e-05	1486.7	412.84	2.7643e-05	3.0616e-05	479.04	158.41	140.05	48.391	2.7979e-05	59.404	432.986	221.315	309.440	104.679	211.575	377.175	104.737	109.462	199.217	272.588	108.827	113.211	114.009	118.482	254.051	117.345	-8191	255	
6601.651	1	1	0	0	0.15375	0.22117	0.064294	0.38871	0.23621	0.096413	0.17204	0.21323	0.1011	0.23469	0.31938	0.20913	0.11274	0.15533	0.074869	0.23083	-2.3375	-3.0542	-3.2917	-3.0042	-3.3167	-3.0563	-3.1396	-3.4729	-2.925	-3.1646	-3.15	-3.0917	-3.2292	-3.1562	-2.7313	-3.2854	184.247	379.526	352.616	407.995	127.452	438.476	386.434	368.154	359.446	289.083	129.901	99.275	218.744	429.476	267.703	396.268	0.0018502	0.00088848	9.0743e-05	1364.5	2.7113e-05	1.9523e-06	1366	374.15	1.6668e-05	7.1537e-06	424.89	140.44	122.11	41.552	1.2454e-05	51.813	0.0025963	0.0028014	0.00070489	1481.8	2.9108e-05	3.0146e-05	1486.8	413.81	2.9433e-05	2.9923e-05	478.35	158.64	141.23	48.146	2.7029e-05	59.459	429.558	249.589	288.035	104.787	225.305	367.807	104.698	109.616	183.542	337.495	108.929	113.212	113.980	118.563	235.855	117.409	-8191	255	
6601.722	1	1	0	0	0.24323	0.088592	0.15297	0.26915	0.1402	0.14434	0.24253	0.11156	0.066636	0.16131	0.32997	0.099404	0.1301	0.10158	0.24553	0.072722	-2.6604	-2.9375	-3.1375	-2.9854	-3.2146	-3.1312	-3.1771	-3.3312	-3.2146	-3.0646	-3.4021	-3.0958	-3.2167	-3.1125	-2.7583	-3.4083	268.690	112.456	382.505	419.908	375.286	414.210	443.030	141.741	296.111	362.408	436.447	152.054	346.139	418.151	139.391	145.990	0.0018651	0.00064633	5.2875e-05	1362.2	1.3826e-05	1.906e-05	1365.8	375.18	7.8548e-06	7.9733e-06	425.06	141.17	122.75	41.284	6.8673e-06	51.56	0.0026387	0.0026123	0.00066807	1480.5	2.9034e-05	2.7493e-05	1479.1	413.8	2.8778e-05	2.7172e-05	473.97	158.24	140.73	47.321	2.4798e-05	59.229	421.320	164.071	350.953	104.950	248.124	365.365	104.672	109.426	193.708	347.029	108.812	113.328	113.769	118.701	298.637	117.265	-8191	255	
6601.843	1	1	0	0	0.14133	0.054483	0.11636	0.45271	0.080991	0.067024	0.30603	0.055172	0.17295	0.10406	0.075636	0.29739	0.13439	0.29748	0.18322	0.035831	-2.6813	-3.0917	-3.3146	-3.2	-2.9792	-3.1937	-3.1021	-3.4083	-2.9125	-3.1625	-3.4021	-2.9896	-3.2729	-3.3563	-3.0292	-3.2854	422.181	237.792	405.090	431.405	242.541	199.303	424.505	136.864	410.213	295.132	198.485	120.706	315.891	336.502	123.702	152.663	0.0013225	0.00081242	0.00019919	1367.1	4.1001e-06	6.5086e-06	1365.8	374.27	1.4717e-05	6.1704e-06	424.37	140.36	121.31	41.392	1.304e-05	51.373	0.0025136	0.0023664	0.000612	1479.7	2.7795e-05	2.5093e-05	1468.9	413.49	2.7191e-05	2.5199e-05	469.54	158.06	139.41	46.951	2.362e-05	59.416	444.169	230.589	106.256	104.784	328.207	118.590	104.676	109.608	278.753	100.717	108.679	113.389	113.919	118.518	252.527	117.622	-8191	255	
6601.937	1	1	0	0	0.19566	0.11911	0.13397	0.17471	0.1539	0.040725	0.20776	0.2172	0.36639	0.17721	0.15115	0.10797	0.34827	0.21556	0.14073	0.10548	-2.5875	-2.9583	-3.2562	-3.0687	-3.2771	-3.2479	-3.0354	-3.4417	-2.95	-2.8688	-3.5	-3.0833	-3.1562	-3.3854	-2.7562	-3.2604	192.184	118.640	318.957	397.821	428.768	332.387	378.620	401.955	336.970	413.636	391.151	436.782	94.030	427.683	279.573	380.695	0.0014371	0.00016543	9.4846e-05	1365.3	7.9631e-06	3.8402e-06	1364.5	373.01	1.4516e-05	4.9814e-06	422.55	140.47	122.08	41.311	1.0521e-05	51.711	0.0023792	0.0022549	0.00058997	1481.6	2.6246e-05	2.3634e-05	1464.3	413.51	2.5252e-05	2.3948e-05	467.58	158.19	137.94	46.656	2.3003e-05	59.607	443.996	390.920	397.644	104.781	206.601	106.775	104.655	109.370	206.460	287.910	108.684	113.286	113.902	118.421	202.499	117.815	-8191	255	
6602.035	1	1	0	0	0.17352	0.28699	0.058675	0.31303	0.25813	0.16575	0.39022	0.1049	0.12019	0.026171	0.037019	0.19305	0.21566	0.17243	0.14271	0.16054	-2.6063	-2.95	-3.2083	-3.2188	-2.8312	-2.9917	-3.1562	-3.2271	-3.2792	-2.8083	-3.4062	-3.0521	-3.1729	-3.4417	-2.7583	-3.0896	333.411	223.369	116.616	381.526	308.130	241.915	388.842	356.180	271.130	178.472	336.318	388.985	238.551	117.833	145.992	378.668	0.0011608	0.00037017	0.00042565	1360.1	5.4031e-06	8.9792e-06	1363.2	373.23	5.9023e-06	7.9777e-06	424.29	140.53	121.58	41.35	2.1223e-05	51.44	0.0021875	0.0021349	0.0005848	1480.5	2.4656e-05	2.2648e-05	1464.4	414.57	2.4077e-05	2.3424e-05	470.37	158.79	137.35	46.594	2.4904e-05	59.848	441.812	126.109	175.654	104.888	133.120	298.600	104.448	109.582	151.836	310.119	108.934	113.249	113.892	118.517	185.238	117.480	-8191	255	
6602.154	1	1	0	0	0.16397	0.14947	0.1377	0.19267	0.13098	0.15654	0.35879	0.088738	0.1084	0.12005	0.088171	0.15529	0.067864	0.099741	0.074776	0.18612	-2.675	-2.8479	-3.2104	-3.2979	-2.775	-3.2438	-3.1604	-3.3375	-3.2	-2.6562	-3.3417	-3.2229	-2.8563	-3.4125	-2.9521	-3.0854	430.113	426.776	165.591	373.059	159.628	186.067	395.147	248.408	370.918	316.650	377.271	137.235	326.379	208.728	93.315	387.383	0.0013089	0.0010138	0.000645	1358.9	3.8603e-06	4.4186e-06	1361.3	372.98	4.3795e-06	5.4591e-06	423.5	139.77	122.09	41.326	2.2637e-05	51.235	0.002177	0.0021691	0.00064285	1481.7	2.4688e-05	2.292e-05	1472.9	415.41	2.3882e-05	2.3434e-05	474.23	158.16	136.94	46.391	2.6208e-05	59.493	434.177	145.060	191.085	104.744	267.601	358.760	104.634	109.783	187.435	254.415	108.810	113.516	113.904	118.403	255.595	117.638	-8191	255	
6602.250	1	1	0	0	0.20808	0.13189	0.23369	0.35283	0.24674	0.066364	0.24083	0.13235	0.14799	0.23829	0.36301	0.23247	0.15067	0.027927	0.088994	0.23958	-2.8708	-2.6771	-3.2083	-3.4333	-2.9062	-3.3208	-3.1625	-3.2042	-3.15	-2.8125	-3.2604	-3.1	-2.9542	-3.4021	-2.9354	-3.25	326.184	431.038	400.246	412.214	389.545	236.241	441.224	205.525	336.152	214.549	399.931	397.317	432.564	195.067	354.715	419.992	0.0012861	0.00080875	0.00030836	1354.6	5.4586e-06	2.2934e-06	1359.4	370.86	6.1712e-06	5.5055e-06	422.4	139.53	121.15	41.011	1.6709e-05	51.484	0.0021006	0.002109	0.00067155	1473	2.3644e-05	2.2319e-05	1473.5	411.67	2.2614e-05	2.2964e-05	474.42	156.61	135.49	46.201	2.6475e-05	58.915	437.877	265.675	153.332	104.870	386.817	160.568	104.773	109.491	260.493	232.393	108.706	113.492	113.959	118.656	233.476	117.434	-8191	255	
6602.322	1	1	0	0	0.10817	0.24338	0.032721	0.41052	0.36622	0.19148	0.028811	0.19562	0.24137	0.22412	0.32048	0.19389	0.175	0.32908	0.02284	0.14186	-2.775	-2.9688	-3.1854	-3.3167	-3.0187	-3.1688	-3.0708	-3.0229	-3.0812	-2.9208	-3.3042	-3.3958	-2.7333	-3.3833	-3.1271	-2.9938	236.845	443.118	284.556	402.227	230.683	411.882	410.760	110.309	396.511	226.176	126.766	126.943	92.654	441.205	329.103	420.519	0.001737	0.001465	0.00031579	1355.6	1.2508e-05	8.536e-06	1361.4	371.34	1.3121e-05	1.4169e-05	424.05	139.15	121.73	41.276	6.8854e-06	51.264	0.0020119	0.0021483	0.00068556	1466.7	2.3053e-05	2.3244e-05	1474.7	409.73	2.2216e-05	2.4321e-05	477.23	156.07	136.15	46.771	2.7396e-05	58.983	437.900	157.679	181.775	104.763	274.053	177.349	104.678	109.667	259.642	222.741	108.965	113.344	113.777	118.395	125.007	117.511	-8191	255	
6602.443	1	1	0	0	0.18765	0.13237	0.066243	0.28299	0.20517	0.1578	0.12844	0.27459	0.087065	0.17636	0.2295	0.13677	0.47195	0.15995	0.21394	0.20083	-2.8708	-3.1021	-3.3083	-3.1646	-2.7729	-3.225	-3.1063	-3.0812	-3.3625	-2.8396	-3.0312	-3.1375	-2.8042	-3.1292	-3.3021	-3.0479	254.946	256.934	94.572	399.530	422.901	100.439	406.592	422.405	431.512	176.833	413.786	383.201	417.119	320.095	115.417	365.314	0.001251	0.0008995	0.00021902	1358.1	1.0697e-05	1.4033e-05	1362	372.86	7.7871e-06	1.3421e-05	423.17	139.78	121.61	41.406	8.7341e-06	51.317	0.0020408	0.0023508	0.00071592	1470.3	2.3552e-05	2.5766e-05	1482.3	411.81	2.2749e-05	2.659e-05	478.83	156.46	136.49	47.382	2.7012e-05	58.95	412.888	201.841	237.717	104.754	207.799	253.189	104.618	109.731	313.136	255.973	108.781	113.373	113.775	118.623	328.944	117.270	-8191	255	
6602.539	1	1	0	0	0.050351	0.077095	0.12575	0.22321	0.21052	0.16435	0.36797	0.182	0.18478	0.063904	0.10382	0.20427	0.1564	0.028914	0.16637	0.092462	-2.7812	-2.9271	-3.1104	-3.2708	-2.8917	-3.2417	-3.2396	-3.1375	-3.1354	-3.1125	-3.2208	-3.1771	-2.8292	-3.3458	-3.0667	-2.9208	92.702	238.165	300.832	101.805	376.358	430.870	386.554	413.139	257.970	136.047	203.600	376.682	418.035	431.534	201.265	284.112	0.0017859	0.00097931	0.00026102	1362.5	1.8038e-05	1.0598e-05	1367.6	371.93	9.3262e-06	8.6685e-06	425.1	139.89	121.88	41.337	2.2301e-05	51.356	0.0020562	0.0024916	0.00069362	1470.3	2.3431e-05	2.7018e-05	1479	410.67	2.2861e-05	2.7256e-05	475.47	155.73	136.61	47.428	2.5265e-05	58.712	434.483	143.511	326.446	104.756	234.533	231.073	104.686	109.480	125.125	132.612	108.794	113.249	113.722	118.472	333.271	117.336	-8191	255	
6602.635	1	1	0	0	0.1515	0.23036	0.16778	0.35057	0.24283	0.095089	0.20173	0.2337	0.047144	0.069495	0.078519	0.21869	0.19594	0.12154	0.1791	0.16403	-2.8917	-2.75	-3.0104	-3.5062	-2.75	-3.1604	-3.325	-2.9021	-3.1042	-3.05	-2.9625	-3.2292	-3.1042	-3.3667	-3.2188	-2.9729	257.258	378.112	213.797	451.408	95.422	445.903	404.726	418.645	440.683	164.244	396.587	104.972	92.598	140.986	131.678	137.334	0.0019172	0.00086369	8.5082e-05	1361	1.0299e-05	1.1468e-05	1364.2	372.98	1.6408e-05	8.4651e-06	423.97	139.76	121.96	41.253	5.5551e-06	51.265	0.0020844	0.0024968	0.00065144	1464.2	2.3992e-05	2.71e-05	1469.2	408.94	2.3481e-05	2.7039e-05	473.24	154.95	137.24	47.362	2.4067e-05	58.395	434.674	99.077	346.049	104.806	223.709	204.601	104.674	109.628	205.789	268.377	108.965	113.289	113.715	118.538	285.331	117.763	-8191	255	
6602.755	1	1	0	0	0.26335	0.401	0.20702	0.37071	0.26514	0.18874	0.25306	0.31219	0.068517	0.12823	0.20952	0.18658	0.36677	0.2685	0.30453	0.10118	-2.6229	-2.9479	-2.9375	-3.5271	-2.8812	-3.2604	-3.3958	-2.9917	-3.3688	-3.0896	-3.0438	-3.4917	-3.0917	-3.0458	-3.1437	-2.9583	137.077	170.183	197.805	406.712	280.052	117.323	389.133	395.939	351.814	340.300	116.245	378.389	131.902	435.362	285.053	381.761	0.0018409	0.00082587	0.00013049	1363.1	1.6258e-05	4.1497e-06	1361.7	373.12	2.5557e-05	7.54e-06	422.67	139.94	122.18	41.234	2.1532e-05	51.391	0.0022002	0.0024326	0.00062969	1463.8	2.5242e-05	2.6536e-05	1467.6	408.45	2.5303e-05	2.6191e-05	471.43	155.12	138.49	47.349	2.3604e-05	58.455	423.885	426.874	356.677	104.805	179.749	300.284	104.780	109.708	206.627	308.606	108.813	113.438	113.794	118.716	238.759	117.472	-8191	255	
6602.850	1	1	0	0	0.22197	0.11592	0.24629	0.26634	0.048119	0.30462	0.29019	0.26031	0.14573	0.20157	0.51057	0.17004	0.075124	0.083686	0.23004	0.35709	-2.7062	-3.3042	-2.9792	-3.4104	-2.9625	-3.0563	-3.5021	-2.9146	-3.125	-3.0312	-3.0312	-3.4729	-3.0938	-3.1646	-3.2146	-2.9146	430.950	295.956	409.143	430.707	141.021	425.731	390.577	376.383	241.806	259.790	391.879	408.607	208.591	385.680	445.231	428.550	0.0017246	0.00040539	0.00020567	1361.4	1.8614e-05	1.3817e-06	1362.2	372.83	8.9669e-06	2.6177e-06	422.94	140.43	121.37	41.206	9.397e-06	51.354	0.0023315	0.0023429	0.00061823	1465.1	2.6365e-05	2.5623e-05	1464.1	408.51	2.6416e-05	2.5056e-05	470.19	155.88	138.99	47.089	2.3116e-05	58.805	436.766	100.513	410.662	104.911	282.796	440.164	104.650	109.405	227.825	241.571	108.764	113.504	114.022	118.430	207.180	117.677	-8191	255	
6602.946	1	1	0	0	0.13171	0.10161	0.091878	0.15333	0.16519	0.27143	0.4426	0.17595	0.049783	0.12472	0.33156	0.29325	0.099237	0.37097	0.1471	0.20286	-2.625	-3.1917	-2.6396	-3.375	-3.0396	-3.0917	-3.3729	-3.1167	-3.3125	-3.1437	-2.9229	-3.4979	-2.9854	-3.1354	-3.2083	-3.0333	433.087	232.301	288.221	407.270	306.547	102.258	435.000	375.789	187.691	272.918	385.401	374.905	95.106	444.518	231.699	347.904	0.0016187	0.00098321	9.5144e-05	1366.6	7.976e-06	7.8866e-06	1362	374.75	3.1352e-06	5.3007e-06	422.92	141	122.08	41.291	2.4479e-06	51.484	0.00242	0.0022714	0.00061463	1474.2	2.7103e-05	2.5186e-05	1464.9	412.35	2.7009e-05	2.4617e-05	470.59	157.39	139.22	47.072	2.3078e-05	59.426	427.433	290.452	372.226	104.902	158.108	179.013	104.554	109.453	138.634	274.900	108.706	113.334	113.922	118.607	107.211	117.629	-8191	255	
6603.018	1	1	0	0	0.28517	0.10589	0.19768	0.22232	0.13159	0.16697	0.34061	0.17305	0.13262	0.42868	0.35643	0.22225	0.075919	0.24184	0.074243	0.18295	-2.8021	-3.1542	-2.8333	-3.3479	-3.1063	-3.0438	-3.4917	-2.8688	-3.1104	-3.2729	-3.0833	-3.4042	-3.2292	-2.7958	-3.3729	-3.0979	375.138	120.565	356.572	438.245	253.072	391.067	343.036	402.254	157.016	358.055	435.010	422.177	210.646	449.830	120.575	371.768	0.0011719	0.00053773	2.8529e-06	1371	1.6747e-06	1.8267e-06	1372.4	375.99	7.4608e-06	7.4959e-06	425.21	141.16	122.1	41.413	5.8004e-06	51.492	0.0024214	0.002234	0.00061164	1483.6	2.6773e-05	2.489e-05	1468.4	416.01	2.6636e-05	2.4236e-05	471.54	159.25	138.9	47.045	2.3367e-05	59.955	436.538	272.394	157.069	104.840	241.605	373.735	104.541	109.652	364.372	253.562	108.925	113.429	113.784	118.375	133.813	117.456	-8191	255	
6603.138	1	1	0	0	0.21406	0.24416	0.1624	0.2886	0.038953	0.12617	0.22865	0.21233	0.12535	0.21955	0.30795	0.30218	0.17939	0.081351	0.15062	0.22655	-2.5	-3.1229	-2.8688	-3.375	-2.9688	-2.8312	-3.4979	-3.0854	-2.8271	-3.0917	-3.0333	-3.25	-3.2396	-3.175	-3.125	-3.3271	131.428	406.670	352.487	407.478	173.945	139.749	430.203	390.258	250.793	181.021	354.291	439.203	419.830	406.173	377.236	96.010	0.0014612	0.00032748	6.7782e-05	1369.3	1.0391e-05	5.7152e-06	1367.5	374.28	2.8284e-06	5.5134e-06	426.41	140.79	121.77	41.354	4.3455e-06	51.421	0.0023519	0.00219	0.00062094	1489.5	2.566e-05	2.4513e-05	1471.1	416.7	2.5629e-05	2.3719e-05	473.76	159.65	137.99	46.954	2.4636e-05	60.108	432.401	292.010	137.388	104.809	328.139	261.748	104.560	109.694	229.286	123.203	108.795	113.362	113.735	118.475	286.573	117.683	-8191	255	
6603.234	1	1	0	0	0.24389	0.3049	0.1359	0.22442	0.012187	0.17297	0.25729	0.10532	0.089119	0.24502	0.16087	0.20604	0.12456	0.28502	0.30624	0.12082	-2.5938	-3.1646	-2.9208	-3.3646	-3.0792	-3.0146	-3.5625	-2.9125	-2.7583	-3.225	-2.9562	-3.3063	-3.2208	-2.8937	-3.2333	-3.1063	148.485	412.581	431.119	431.747	415.642	180.234	448.720	353.635	390.820	238.756	447.055	363.554	166.520	361.666	331.675	449.836	0.0019297	0.00043913	0.00041151	1372	6.3098e-06	1.1996e-05	1372.3	374.92	2.3878e-06	4.5448e-06	424.94	140.63	122.22	41.404	3.2012e-05	51.676	0.0022813	0.0021582	0.00065555	1494.5	2.4967e-05	2.4296e-05	1481	418.48	2.519e-05	2.3627e-05	477.57	159.98	138	46.961	2.659e-05	60.164	434.203	260.536	140.034	104.835	236.426	226.026	104.655	109.392	410.739	295.880	108.580	113.523	113.851	118.598	201.343	117.521	-8191	255	
6603.331	1	1	0	0	0.13222	0.28855	0.23017	0.24888	0.22485	0.14734	0.22949	0.2418	0.18578	0.10526	0.2709	0.14059	0.11678	0.20225	0.077051	0.080767	-2.5271	-3.2021	-3.0583	-3.3833	-3.1771	-2.8812	-3.4542	-3.1292	-2.8604	-3.55	-3.0771	-3.0687	-3.3854	-2.95	-3.1792	-3.1021	193.098	103.792	401.423	409.787	436.028	330.148	380.034	367.881	286.270	442.958	380.447	438.644	257.833	428.714	159.258	163.900	0.0017133	0.00077917	0.00052473	1368.6	6.1191e-06	2.5277e-06	1374.6	373.73	1.4089e-05	1.6661e-05	424.28	140.39	122.32	41.584	1.5608e-05	51.495	0.0022447	0.0021406	0.00069655	1493.5	2.4303e-05	2.3895e-05	1489.7	416.3	2.4543e-05	2.3336e-05	480.17	159.01	137.47	47.028	2.792e-05	59.76	442.922	186.664	155.203	104.924	291.907	204.275	104.567	109.475	303.225	228.841	108.791	113.375	113.782	118.559	259.176	117.528	-8191	255	
6603.427	1	1	0	0	0.13508	0.14664	0.20035	0.34799	0.14746	0.035815	0.1947	0.21739	0.2001	0.16635	0.20757	0.20279	0.13974	0.22682	0.023132	0.25659	-2.3021	-3.1271	-2.9729	-3.1917	-3.1604	-2.9583	-3.2854	-3.1375	-2.8521	-3.0708	-3.1854	-3.1229	-3.3937	-2.9521	-3.1125	-3.0208	155.853	214.361	122.033	356.766	201.487	437.324	310.705	384.673	353.840	176.708	348.118	410.312	450.195	279.250	335.712	419.649	0.0016084	0.00090992	0.00043464	1369.7	2.8035e-06	1.0857e-05	1369.2	374.02	2.3946e-06	1.0468e-05	423.84	140.2	121.87	41.445	8.3429e-06	51.32	0.0022117	0.0021938	0.00073044	1489	2.3995e-05	2.4816e-05	1491.3	414.38	2.4244e-05	2.4643e-05	481.2	158.26	136.91	47.2	2.8449e-05	59.276	426.871	165.227	183.001	104.835	282.509	251.952	104.474	109.376	247.004	233.882	108.714	113.369	113.790	118.536	212.724	117.439	-8191	255	
6603.547	1	1	0	0	0.17303	0.17222	0.17842	0.14033	0.25936	0.22366	0.48773	0.21369	0.29614	0.17464	0.34648	0.17122	0.13885	0.19194	0.26674	0.10341	-2.3667	-3.0708	-2.9479	-3.1375	-3.1396	-2.9708	-3.2021	-3.2771	-2.7354	-3.3187	-3.0833	-2.9667	-3.1979	-3.0521	-3.1021	-3.275	258.741	376.826	232.729	423.032	171.277	437.359	386.269	372.798	299.555	180.618	388.836	391.773	128.575	418.858	380.817	285.938	0.0017434	0.0013889	0.00013202	1369	9.4644e-06	1.8887e-05	1370.1	373.82	6.913e-06	4.9123e-06	423.73	140.42	121.76	41.507	1.1289e-05	51.41	0.0021693	0.0023195	0.00073072	1483.6	2.3347e-05	2.6197e-05	1491.9	413.16	2.3858e-05	2.6065e-05	480.14	157.92	136.51	47.557	2.7784e-05	59.065	434.395	167.051	180.366	104.832	252.255	228.727	104.553	109.371	402.503	214.911	108.854	113.351	113.917	118.469	298.685	117.294	-8191	255	
6603.619	1	1	0	0	0.38549	0.099536	0.18054	0.16142	0.15473	0.048644	0.29147	0.041349	0.21977	0.4094	0.30971	0.15754	0.17775	0.39896	0.24397	0.14619	-2.2542	-3.3104	-3.0187	-3.1042	-3.4146	-2.575	-3.2458	-3.35	-2.6667	-3.3146	-3.0729	-3.1458	-3.2583	-3.0875	-2.95	-3.1063	278.477	301.492	255.014	367.826	415.304	196.285	382.694	124.048	327.331	417.797	396.539	392.579	430.556	369.077	394.927	411.856	0.0015535	0.0013274	0.00018837	1364.6	1.4709e-05	9.0432e-06	1365.9	372.26	9.4548e-06	1.3232e-05	422.46	140.76	122.16	41.785	1.0504e-05	51.531	0.0021329	0.0024742	0.00070566	1480.9	2.3152e-05	2.7482e-05	1486.3	411.61	2.3682e-05	2.7524e-05	476.98	157.35	137	47.86	2.663e-05	58.868	437.026	143.159	257.326	104.836	274.911	259.619	104.558	109.815	212.775	235.673	108.634	113.182	113.572	118.514	237.279	117.465	-8191	255	
6603.715	1	1	0	0	0.15227	0.019156	0.2623	0.1318	0.18315	0.25047	0.1836	0.32425	0.31767	0.052185	0.28271	0.26951	0.26903	0.30181	0.16794	0.27392	-2.2708	-2.9958	-2.9146	-2.85	-3.0729	-2.9417	-3.0146	-3.4521	-2.725	-3.1063	-3.4396	-2.7854	-3.2729	-3.1458	-2.8583	-3.225	269.317	204.451	206.267	275.102	436.514	400.724	343.068	344.731	138.142	204.871	362.961	390.078	387.035	429.845	178.621	405.788	0.0019023	0.0015501	0.0002131	1364.1	1.6292e-05	1.0969e-05	1367.2	372.15	1.9825e-05	1.3281e-05	422.51	140.93	122.27	41.391	9.1933e-06	51.047	0.0021608	0.0025439	0.00066704	1477.5	2.3829e-05	2.7855e-05	1480.5	410.09	2.4394e-05	2.7805e-05	473.89	156.85	137.55	47.789	2.5431e-05	58.517	424.226	158.763	277.346	104.824	211.065	325.366	104.584	109.457	226.588	179.088	108.757	113.397	113.887	118.407	279.197	117.476	-8191	255	
6603.836	1	1	0	0	0.1963	0.19579	0.1441	0.45371	0.18959	0.18627	0.40557	0.30123	0.46159	0.27998	0.11802	0.17242	0.28702	0.3304	0.2352	0.13775	-2.3771	-3.025	-3.0271	-2.8729	-3.1646	-3.1146	-3.1	-3.3771	-2.9271	-2.8333	-3.1958	-3.1167	-3.1646	-3.1417	-2.8958	-3.3354	173.374	427.489	249.321	394.710	230.569	96.048	377.629	415.016	253.471	219.713	414.870	339.219	399.389	420.301	299.039	185.403	0.0019539	0.0010716	0.00014541	1366.5	1.3622e-05	3.7272e-06	1370.6	371.72	1.3295e-05	8.0282e-06	427.32	140.25	122.45	41.354	6.6181e-06	51.489	0.0022534	0.0025421	0.00064076	1473.1	2.5229e-05	2.7418e-05	1476.5	408.92	2.5917e-05	2.7335e-05	473.23	156.37	138.63	47.563	2.5021e-05	58.587	423.908	250.965	161.605	104.851	237.834	301.091	104.645	109.444	204.767	412.642	108.826	113.091	113.824	118.412	288.969	117.410	-8191	255	
6603.930	1	1	0	0	0.11175	0.15626	0.12468	0.26521	0.048449	0.24203	0.30397	0.059029	0.24664	0.048492	0.23348	0.24785	0.32005	0.16556	0.065393	0.13793	-2.5292	-3.0854	-3.0833	-3.1542	-3.2229	-2.7708	-3.0271	-3.3563	-2.9188	-2.8333	-3.3104	-2.9437	-3.2375	-3.0875	-2.7729	-3.4	168.950	362.670	415.278	406.885	144.926	151.569	412.936	406.024	224.100	204.521	448.781	116.559	141.548	423.862	157.842	129.429	0.0020886	0.00045923	0.00011186	1367	1.3563e-05	2.4568e-06	1370.2	373.77	1.2407e-05	4.7357e-06	425.49	140.79	122.67	41.344	5.0414e-06	51.638	0.0023722	0.0024485	0.00062126	1473.9	2.6672e-05	2.6105e-05	1476.1	409.42	2.6806e-05	2.6252e-05	470.78	156.91	139.64	47.255	2.4339e-05	58.768	429.383	317.079	425.402	104.838	251.240	447.666	104.514	109.396	229.049	250.849	108.600	113.182	113.859	118.274	129.978	117.555	-8191	255	
6604.026	1	1	0	0	0.079537	0.22146	0.23115	0.30525	0.067061	0.13779	0.11584	0.35099	0.23474	0.18802	0.16702	0.07309	0.19966	0.25468	0.18366	0.25421	-2.3458	-2.7896	-3.1208	-2.8708	-3.0708	-3.2188	-3.0438	-3.3375	-3.0583	-3.2896	-3.3104	-3.15	-3.1979	-3.0521	-3.0062	-3.4958	279.234	395.301	106.399	412.260	224.341	411.691	113.326	401.855	166.129	415.481	423.532	222.958	422.447	426.096	255.172	350.533	0.0016317	0.00090942	5.5315e-05	1368.2	1.0401e-05	1.1949e-05	1365.1	375.23	1.5386e-05	2.7505e-06	425.9	140.76	122.29	41.476	1.0963e-05	51.483	0.0024469	0.0023615	0.00060756	1476.2	2.7478e-05	2.5141e-05	1471.2	411.76	2.7187e-05	2.539e-05	470.61	157.83	139.74	47.085	2.3795e-05	59.242	423.891	346.688	146.083	104.805	224.600	160.101	104.746	109.716	247.200	358.704	108.846	113.401	113.984	118.408	221.419	117.604	-8191	255	
6604.123	1	1	0	0	0.19411	0.26621	0.095637	0.076435	0.14151	0.082086	0.26358	0.24865	0.23994	0.17749	0.22082	0.14671	0.24789	0.14991	0.1711	0.2655	-2.3667	-2.8854	-3.4458	-3.025	-3.1271	-3.2812	-2.9667	-3.2042	-3.0187	-2.9396	-3.3396	-3.1021	-3.2854	-3.2271	-2.8063	-3.3563	150.499	322.966	171.609	348.720	247.672	349.722	422.311	325.039	301.455	256.309	399.160	393.620	374.097	404.606	236.465	298.752	0.0014312	0.00054676	0.00018738	1370.2	5.7891e-06	3.7171e-06	1372	373.9	1.3255e-05	6.1893e-06	423.92	141.13	122.75	41.634	4.4051e-06	51.342	0.0024107	0.0022827	0.00058864	1484.5	2.6819e-05	2.4197e-05	1471.8	414.04	2.6166e-05	2.4596e-05	469.14	158.74	139.17	46.94	2.3535e-05	59.635	430.508	292.825	153.962	105.015	188.588	168.192	104.668	109.538	254.735	246.764	108.893	113.474	113.854	118.443	228.429	117.522	-8191	255	
6604.219	1	1	0	0	0.26104	0.12746	0.14332	0.30508	0.20941	0.13556	0.3252	0.047917	0.22627	0.10027	0.059988	0.20762	0.19807	0.15195	0.083325	0.25616	-2.6646	-2.6604	-3.3646	-3.2167	-2.8937	-3.2896	-2.9	-3.2667	-3.0771	-2.7479	-3.5229	-3.1229	-3.0354	-3.3271	-2.8667	-2.9583	438.766	209.628	302.386	414.191	269.009	121.847	349.300	439.148	113.563	290.154	446.136	371.971	432.513	404.796	105.398	121.428	0.0012427	0.00031342	0.00027851	1369.1	6.7817e-06	2.4656e-06	1369.1	373.39	5.1767e-06	1.1896e-05	425.23	140.51	122.13	41.529	1.3575e-05	51.87	0.0023229	0.0022405	0.00059455	1489.5	2.6058e-05	2.3624e-05	1473.5	416.21	2.5253e-05	2.4237e-05	471.69	159.4	138.44	46.783	2.4532e-05	59.971	431.810	112.296	204.714	104.706	434.346	357.592	104.633	109.578	348.240	237.669	108.694	113.308	114.036	118.307	210.523	117.458	-8191	255	
6604.315	1	1	0	0	0.24057	0.09536	0.17979	0.17915	0.094337	0.06219	0.11108	0.22282	0.13834	0.22266	0.28407	0.20468	0.15489	0.20779	0.048605	0.14284	-2.7208	-2.9583	-3.1083	-3.1437	-3.0271	-3.1792	-3.0646	-3.4542	-2.8812	-2.7542	-3.4479	-2.975	-3.0042	-3.5396	-2.8083	-3.2271	322.685	225.684	408.041	405.775	104.789	327.535	309.458	382.527	300.370	211.923	393.505	389.025	349.918	414.811	100.919	371.926	0.0016305	0.00092932	0.00037737	1369.8	8.9591e-06	1.5263e-05	1371.5	372.96	1.1337e-05	4.3751e-06	425.57	140.76	122.38	41.395	2.0339e-05	51.413	0.0022272	0.002193	0.00062569	1491.9	2.5048e-05	2.3205e-05	1478.4	416.54	2.4204e-05	2.3706e-05	474.3	159.35	137.9	46.605	2.5712e-05	59.874	422.927	104.741	121.894	104.789	223.385	288.019	104.625	109.414	313.766	394.684	108.892	113.325	113.699	118.633	222.524	117.476	-8191	255	
6604.436	1	1	0	0	0.24809	0.17241	0.16847	0.40444	0.32157	0.20086	0.22307	0.45638	0.014802	0.17874	0.23051	0.067273	0.29266	0.27996	0.13929	0.28154	-2.7875	-2.65	-3.1396	-3.1917	-2.9167	-3.2375	-2.9771	-3.3208	-3.1167	-2.7583	-3.2708	-3.1417	-2.8729	-3.3083	-2.7812	-3.3312	231.945	229.709	400.702	427.545	226.136	386.166	363.863	362.151	255.232	136.006	356.862	327.962	309.557	429.849	419.055	428.132	0.001323	0.00048877	0.00028344	1371.3	6.362e-06	1.7327e-06	1377.2	373.98	5.6405e-06	1.0382e-05	425.72	140.88	121.87	41.566	1.7404e-05	51.566	0.0021524	0.0021486	0.00066355	1488.9	2.4525e-05	2.2699e-05	1485.5	415.73	2.3364e-05	2.3312e-05	476.77	158.39	137.34	46.616	2.6763e-05	59.588	421.301	225.803	193.614	104.810	243.414	195.493	104.801	109.403	225.711	211.419	108.788	113.205	113.950	118.422	193.269	117.606	-8191	255	
6604.532	1	1	0	0	0.107	0.28706	0.18156	0.34837	0.18893	0.14896	0.28169	0.14359	0.1813	0.1376	0.045687	0.21918	0.12026	0.19911	0.075819	0.38067	-2.8125	-2.8292	-2.925	-3.3396	-2.7833	-3.1396	-3.0917	-3.1625	-3.0208	-2.7604	-3.3604	-3.1458	-2.8021	-3.3354	-2.7458	-3.1	446.253	286.578	419.447	94.580	224.265	451.355	437.445	288.998	406.400	174.005	367.119	130.712	359.678	169.780	376.504	360.823	0.0012632	0.00088543	0.00043128	1366.4	9.0846e-06	1.5735e-05	1371.4	374.18	1.4699e-05	7.2705e-06	425.09	140.73	122.28	41.36	1.3196e-05	51.414	0.0020806	0.002137	0.00068956	1481.4	2.3736e-05	2.3071e-05	1488.5	413.88	2.2926e-05	2.3978e-05	478.9	157.55	137.02	46.819	2.746e-05	59.33	434.964	186.276	159.516	104.802	289.783	226.287	104.530	109.553	298.144	200.622	108.820	113.495	113.886	118.335	222.812	117.501	-8191	255	
6604.628	1	1	0	0	0.064929	0.25312	0.41226	0.11188	0.037454	0.048899	0.25579	0.26148	0.19228	0.47078	0.06764	0.17998	0.062243	0.15506	0.19222	0.31274	-2.8917	-2.7646	-3.0354	-3.1854	-2.8354	-3.2354	-2.9854	-3.0458	-3.1813	-2.775	-3.3896	-3.4146	-2.7938	-3.3875	-2.9979	-2.7271	335.957	310.913	226.407	98.120	437.071	100.259	413.711	437.407	382.537	306.948	304.600	108.361	106.852	345.845	187.308	138.538	0.0015161	0.0008916	0.00013138	1367.3	5.5055e-06	1.5626e-05	1370.9	372.54	8.0006e-06	1.2741e-05	425.9	141.06	122.43	41.637	1.0035e-05	51.42	0.0020534	0.0022561	0.00071133	1478.5	2.3471e-05	2.4749e-05	1489.6	412.58	2.2514e-05	2.5542e-05	479.45	157.11	136.84	47.312	2.7045e-05	59.088	428.252	161.864	135.620	104.636	264.318	203.881	104.597	109.356	229.457	208.498	108.838	113.267	113.702	118.510	281.553	117.278	-8191	255	
6604.724	1	1	0	0	0.19799	0.08512	0.099785	0.22557	0.23049	0.23187	0.38596	0.22684	0.044239	0.24342	0.22345	0.32646	0.20006	0.36639	0.028301	0.043681	-2.7938	-2.5542	-3.0979	-3.4583	-2.7562	-3.2625	-3.3646	-3.0062	-3.3521	-2.875	-3.0896	-3.4125	-2.8875	-3.2667	-2.8708	-3.0542	284.740	137.235	313.402	379.645	315.064	150.670	363.058	95.230	141.704	445.086	132.837	447.760	426.807	442.011	162.735	440.705	0.0019135	0.0010721	0.0001084	1366	1.2085e-05	1.6188e-05	1372.1	373.91	1.8856e-05	1.6411e-05	422.82	140.16	122.39	41.594	1.1725e-05	51.577	0.0020249	0.0024007	0.00069801	1475.4	2.3247e-05	2.6364e-05	1488.3	411.94	2.244e-05	2.6958e-05	477.41	156.78	137.12	47.644	2.5978e-05	59.013	429.687	135.697	375.801	104.800	276.048	221.229	104.570	109.390	234.221	198.834	108.773	113.213	113.676	118.368	326.511	117.528	-8191	255	
6604.843	1	1	0	0	0.20939	0.058786	0.20678	0.19141	0.1089	0.18607	0.13733	0.15172	0.1139	0.041315	0.42202	0.20089	0.17867	0.14255	0.13296	0.054143	-2.8896	-2.8542	-2.7958	-3.4	-2.925	-3.0833	-3.4437	-3.0396	-3.3083	-2.8896	-3.3729	-3.3042	-2.9958	-3.2625	-3.1729	-2.9542	382.506	203.254	172.790	359.812	356.158	233.921	409.227	128.573	350.658	381.632	420.406	395.064	380.402	255.169	97.217	302.163	0.0017234	0.0005698	0.00022579	1369	2.1665e-05	6.6008e-06	1372	374.43	1.9206e-05	4.3912e-06	424.49	140.46	122.88	41.563	1.3721e-05	51.191	0.0020654	0.0025125	0.00067358	1475.7	2.3852e-05	2.7485e-05	1481.5	411.47	2.3451e-05	2.7716e-05	475.63	156.35	137.99	47.825	2.5121e-05	58.8	426.625	171.995	290.299	104.742	229.988	244.608	104.623	109.688	202.860	153.655	108.708	113.374	113.851	118.593	300.865	117.556	-8191	255	
6604.915	1	1	0	0	0.059537	0.23719	0.063381	0.10905	0.059693	0.19927	0.20692	0.29918	0.12125	0.17562	0.1474	0.10238	0.10495	0.14161	0.16475	0.057798	-2.7062	-3.025	-2.9104	-3.5708	-2.8312	-3.3479	-3.3833	-2.8417	-3.2	-2.9437	-2.9604	-3.225	-3.0896	-3.0125	-2.9833	-2.7521	128.077	178.979	118.563	415.283	242.483	383.587	406.893	446.055	178.035	111.764	385.598	97.565	367.324	147.270	256.392	136.440	0.0020531	0.0014041	4.5276e-05	1366.3	2.6318e-05	6.9428e-06	1370.7	373.54	2.6465e-05	6.4546e-07	423.51	140.25	122.08	41.471	7.4744e-06	51.484	0.0021935	0.0025206	0.00065301	1471	2.5284e-05	2.7582e-05	1476.6	410.25	2.505e-05	2.7242e-05	473.86	155.93	138.69	47.649	2.4325e-05	58.711	426.825	305.448	273.489	104.660	216.413	339.046	104.703	109.619	220.218	242.422	108.808	113.344	113.758	118.370	398.312	117.332	-8191	255	
6605.011	1	1	0	0	0.21306	0.20549	0.11548	0.14691	0.050147	0.018521	0.10194	0.068494	0.37586	0.21056	0.19342	0.24281	0.1102	0.30116	0.44558	0.17621	-3.0042	-2.8583	-2.75	-3.4708	-2.7146	-2.9958	-3.3042	-2.9167	-3.0833	-2.8563	-3.0375	-3.325	-3.2208	-3.1646	-3.25	-2.7833	278.352	333.187	401.138	444.193	419.227	278.285	403.602	93.360	298.618	175.241	412.055	370.765	382.361	433.011	340.261	375.836	0.0017693	0.00074124	4.0999e-05	1366.6	2.6944e-05	1.5363e-05	1374.7	373.72	1.2287e-05	2.7815e-07	426.55	141.34	122.85	41.401	1.4579e-05	51.484	0.0023236	0.0024438	0.00063882	1471.9	2.6534e-05	2.663e-05	1476.7	411.16	2.6609e-05	2.6281e-05	474.01	156.54	139.86	47.452	2.3871e-05	58.931	426.416	228.460	371.560	104.861	215.338	368.115	104.469	109.334	217.913	381.783	109.028	113.339	113.649	118.549	271.351	117.373	-8191	255	
6605.107	1	1	0	0	0.077218	0.13647	0.27701	0.28217	0.16843	0.084898	0.20213	0.19938	0.23212	0.29584	0.41061	0.24038	0.024457	0.19146	0.069507	0.043089	-2.8875	-3.0396	-2.7208	-3.4667	-2.8604	-3.0812	-3.4604	-2.8458	-2.9917	-3.1063	-2.9854	-3.2917	-3.1083	-3.0583	-3.4458	-2.8458	352.049	260.811	348.896	416.326	262.950	358.456	366.851	426.222	132.435	205.775	397.254	95.666	404.027	407.997	170.060	270.481	0.0016993	0.00092126	4.2602e-05	1375.8	1.2125e-05	4.679e-06	1373.3	373.96	1.2217e-05	1.5814e-06	425.64	141.23	122.67	41.57	1.1683e-05	51.638	0.0024393	0.0023534	0.00062916	1478.2	2.7461e-05	2.5816e-05	1473.1	412.8	2.734e-05	2.5256e-05	472.77	157.67	140.07	47.326	2.3167e-05	59.316	411.202	401.729	387.582	104.674	213.879	392.937	104.651	109.485	219.211	196.322	108.826	113.254	113.659	118.641	301.719	117.501	-8191	255	
6605.227	1	1	0	0	0.060608	0.32023	0.061505	0.16145	0.031587	0.12453	0.22336	0.030082	0.3586	0.10462	0.10868	0.18889	0.10895	0.1561	0.15454	0.20773	-2.7042	-2.7687	-2.8833	-3.2792	-2.9875	-2.8729	-3.5062	-3.0125	-3.1562	-3.1146	-2.8375	-3.2458	-3.1708	-3.0146	-3.2854	-3	315.505	390.035	172.618	257.340	381.184	289.269	412.715	419.326	186.280	306.781	265.704	108.231	103.020	180.510	137.117	393.548	0.0015022	0.00057324	0.00016125	1373.2	4.4515e-06	9.1346e-06	1371.4	374.12	4.0117e-06	1.093e-05	424.38	140.81	122.24	41.548	7.9838e-06	51.749	0.0024358	0.0022528	0.00061	1483.4	2.6877e-05	2.4851e-05	1469.1	414.45	2.6633e-05	2.4067e-05	470.63	158.35	138.94	47.128	2.2746e-05	59.687	434.792	179.078	191.171	104.699	293.633	279.378	104.708	109.341	248.805	301.122	108.910	113.323	113.760	118.425	212.515	117.511	-8191	255	
6605.324	1	1	0	0	0.17161	0.11653	0.23647	0.070991	0.024661	0.13617	0.28217	0.28243	0.17003	0.10535	0.30576	0.30174	0.091854	0.046277	0.1416	0.23894	-2.6125	-3.1229	-2.7917	-3.4271	-3.1479	-2.7542	-3.3312	-2.8708	-3.2833	-3.1688	-3.05	-3.0229	-3.1188	-2.8146	-3.2917	-3.0229	198.059	249.078	438.512	108.240	121.697	111.714	394.301	422.819	107.138	310.030	385.666	428.228	348.420	97.353	234.624	418.846	0.0014505	0.00030401	0.00036906	1365.9	5.5766e-06	4.7615e-06	1368	372.48	1.9717e-05	7.4064e-06	424.6	140.78	122.17	41.546	1.3177e-05	51.652	0.0023423	0.0021737	0.00060571	1486.3	2.5761e-05	2.4256e-05	1467.6	415.87	2.5675e-05	2.3443e-05	471.21	159.11	138.17	46.94	2.3403e-05	59.85	437.583	226.597	211.801	104.818	268.211	342.361	104.533	109.563	282.118	337.292	108.760	113.345	113.725	118.467	223.054	117.557	-8191	255	
6605.420	1	1	0	0	0.20531	0.06483	0.065088	0.14427	0.12354	0.073728	0.28872	0.26953	0.12217	0.049117	0.30464	0.21936	0.22683	0.20489	0.10909	0.025744	-2.6417	-3.075	-2.7458	-3.1562	-3.1271	-2.6646	-3.3771	-3.0771	-2.8625	-3.2833	-3.0667	-3.3458	-3.1833	-2.8917	-3.2708	-2.9354	238.116	404.267	164.973	403.146	159.458	171.070	417.891	450.160	304.224	384.382	97.199	402.538	420.310	407.991	356.691	95.921	0.0011876	0.0011915	0.00026475	1366.3	8.0795e-06	4.8166e-06	1372.4	374.45	2.4221e-05	1.458e-06	425.59	140.57	122	41.593	2.2245e-05	51.509	0.0022575	0.0021117	0.00062112	1490.6	2.434e-05	2.351e-05	1473.5	416.05	2.4374e-05	2.2645e-05	473.22	159.16	137.26	46.778	2.4498e-05	59.642	427.983	301.002	162.949	104.724	337.952	383.051	104.608	109.295	299.875	250.877	108.924	113.487	113.910	118.320	221.764	117.418	-8191	255	
6605.516	1	1	0	0	0.099263	0.18768	0.17521	0.20809	0.051871	0.1213	0.19008	0.12511	0.049348	0.061077	0.21604	0.12855	0.073512	0.15681	0.26002	0.25298	-2.375	-3.3312	-2.6271	-3.5083	-3	-2.7375	-3.3167	-3.1104	-2.7458	-3.2521	-2.9354	-3.1979	-3.1354	-2.7646	-3.1354	-3.0958	141.770	144.978	191.025	406.486	253.622	437.049	397.888	368.150	326.043	293.793	339.239	443.398	417.046	95.406	451.182	406.470	0.0010789	0.00026247	0.00027376	1371.9	7.6823e-06	6.1254e-06	1368	372.96	9.265e-06	6.0686e-06	425.01	140.14	122.03	41.268	1.13e-05	51.382	0.0021592	0.0020437	0.00065008	1486.6	2.3346e-05	2.2739e-05	1477.2	413.79	2.3556e-05	2.2061e-05	475.31	158.12	136.53	46.523	2.5529e-05	59.222	424.832	139.856	195.716	104.871	144.472	229.399	104.727	109.513	311.094	254.472	108.922	113.367	113.771	118.375	257.222	117.517	-8191	255	
6605.612	1	1	0	0	0.2239	0.17221	0.39881	0.31369	0.089267	0.14557	0.26655	0.19678	0.26004	0.2536	0.10113	0.14868	0.23263	0.21321	0.2766	0.2037	-2.5792	-3.1729	-2.9562	-3.1958	-3.2229	-2.8563	-3.3021	-3.1646	-2.9688	-3.1354	-3.0542	-2.9896	-3.1583	-3.0021	-2.9646	-3.2062	224.199	392.297	146.077	429.871	117.570	347.892	93.396	451.456	421.935	204.020	431.109	115.699	401.990	338.127	109.407	388.639	0.0013342	0.0005889	0.0002048	1369.1	3.5611e-06	7.3611e-06	1369	373.63	6.1089e-06	1.7057e-05	425.6	140.17	122.02	41.428	1.7594e-05	51.52	0.0020816	0.0020171	0.00066897	1482.6	2.2512e-05	2.2707e-05	1483.8	412.01	2.2833e-05	2.2523e-05	477.62	157.41	136.12	46.77	2.6433e-05	58.897	423.755	154.380	157.087	104.865	290.116	278.428	104.621	109.544	310.122	207.738	108.887	113.468	113.912	118.550	213.222	117.595	-8191	255	
6605.708	1	1	0	0	0.056395	0.092072	0.081065	0.2714	0.11224	0.054631	0.18544	0.28835	0.18093	0.26759	0.072267	0.17771	0.12275	0.077102	0.0048824	0.086189	-2.375	-3.1854	-3.0167	-2.9938	-3	-3.0646	-3.2146	-3.2917	-2.8875	-3.375	-3.1229	-3.0062	-3.0729	-3.1229	-3.0354	-3.2833	259.212	448.699	311.612	399.046	104.926	137.116	341.931	377.930	286.387	201.935	362.604	339.291	376.379	121.465	353.352	359.212	0.0013774	0.00080708	0.00013206	1369.8	2.7186e-06	1.8201e-05	1372.7	373.25	1.1191e-05	1.2364e-05	425.62	140.36	122.49	41.656	1.8697e-06	51.409	0.0020413	0.0021061	0.0006812	1478.3	2.2033e-05	2.3927e-05	1485.4	410.18	2.254e-05	2.3993e-05	478.15	156.94	135.85	47.066	2.6531e-05	58.716	435.676	157.417	156.766	104.888	392.227	228.880	104.800	109.435	208.181	205.010	108.993	113.365	113.808	118.512	108.560	117.493	-8191	255	
6605.804	1	1	0	0	0.1211	0.24851	0.050667	0.13065	0.060405	0.11971	0.13661	0.27398	0.17943	0.35898	0.31442	0.17004	0.077886	0.24939	0.11594	0.25096	-2.3563	-3.2812	-2.9958	-3.0896	-3.1854	-2.9125	-3.3688	-3.2958	-2.7958	-3.1479	-3.1458	-2.9437	-3.425	-2.9292	-2.9521	-3.2521	277.817	271.184	175.301	389.973	314.331	425.146	314.829	424.721	107.569	401.771	429.007	434.263	282.189	440.642	332.823	383.458	0.0014291	0.0019948	6.7132e-05	1370.4	4.9639e-06	1.6689e-05	1371.7	373.99	1.3993e-05	1.9785e-05	426.18	140.23	122.65	41.412	6.1412e-06	51.705	0.0020235	0.0022718	0.00067354	1477.8	2.1981e-05	2.5564e-05	1484.8	410.55	2.2537e-05	2.5672e-05	476.99	156.81	136.25	47.46	2.606e-05	58.767	423.722	170.681	371.600	104.747	216.049	208.280	104.551	109.641	227.883	220.437	108.758	113.485	113.848	118.405	410.922	117.323	-8191	255	
6605.923	1	1	0	0	0.20326	0.18402	0.30046	0.21487	0.23848	0.19037	0.13832	0.13409	0.079109	0.12606	0.23998	0.058869	0.40541	0.078234	0.21116	0.30904	-2.2021	-3.1417	-3.0875	-2.9104	-3.1417	-2.9	-3.0833	-3.35	-2.7375	-3.1792	-3.0875	-2.75	-3.4229	-2.9188	-2.9125	-3.3125	393.163	108.347	145.200	105.790	131.720	97.947	329.001	421.236	192.217	146.141	328.280	222.502	408.294	99.999	305.823	403.922	0.0015552	0.0007556	8.2185e-05	1367.2	1.858e-05	3.9404e-06	1368.7	374.28	2.0448e-05	6.5094e-06	425.06	140.48	121.92	41.447	4.1926e-06	51.393	0.0020755	0.0024411	0.00066333	1475.2	2.2879e-05	2.718e-05	1482.1	410.03	2.3616e-05	2.7428e-05	475.21	156.86	137.06	47.735	2.5679e-05	58.623	428.144	162.070	325.067	104.962	215.357	242.737	104.567	109.555	195.157	282.439	108.791	112.998	113.804	118.220	327.667	117.591	-8191	255	
6606.019	1	1	0	0	0.20756	0.028031	0.18926	0.13934	0.16405	0.21118	0.22818	0.19655	0.0637	0.10818	0.13254	0.13143	0.1763	0.28978	0.17763	0.28104	-2.4313	-3.0271	-3.0104	-2.7521	-3.1437	-2.9479	-3.1312	-3.2354	-2.8896	-3.1229	-3.1521	-3.0542	-3.2833	-3.0125	-2.8542	-3.2	286.302	411.515	413.788	433.108	336.837	364.591	366.488	400.080	121.221	280.411	312.506	122.482	124.246	416.684	293.753	369.522	0.0017283	0.00055952	5.4767e-05	1368.9	1.3195e-05	9.4113e-06	1371.9	374.56	1.0613e-05	1.862e-06	425.29	140.65	123.3	41.423	1.26e-05	51.449	0.0022083	0.002559	0.00065567	1476	2.4958e-05	2.8307e-05	1483.8	411.06	2.5923e-05	2.8427e-05	476.07	157.45	139.55	48.004	2.6307e-05	58.988	427.942	168.958	93.120	104.730	228.541	435.035	104.697	109.486	218.079	383.227	108.878	113.341	113.844	118.558	288.701	117.646	-8191	255	
6606.116	1	1	0	0	0.17371	0.26734	0.09166	0.25644	0.14132	0.082907	0.060919	0.18019	0.2231	0.038381	0.20685	0.061734	0.26141	0.26096	0.066671	0.1616	-2.5563	-2.8854	-2.9479	-2.8042	-3.2417	-2.7917	-3.0979	-3.3958	-2.9833	-2.9979	-3.4271	-2.8521	-3.1729	-3.0687	-2.7812	-3.3208	249.111	427.850	224.754	449.514	442.579	418.835	155.290	302.891	196.014	340.211	303.125	157.268	154.197	117.072	280.368	94.933	0.0020539	0.00019782	6.7196e-05	1371.5	2.216e-05	6.3797e-06	1371.6	373.15	9.141e-06	5.6696e-06	424.65	140.9	122.84	41.644	6.5146e-06	51.633	0.0024671	0.0026449	0.00067015	1483.7	2.783e-05	2.8495e-05	1485.6	412.08	2.8161e-05	2.8365e-05	475.91	157.92	140.7	47.862	2.5971e-05	59.133	432.420	271.119	204.088	104.876	190.012	388.304	104.597	109.616	199.099	402.063	108.764	113.235	113.919	118.430	133.784	117.657	-8191	255	
6606.212	1	1	0	0	0.11574	0.21592	0.222	0.10104	0.071545	0.19665	0.20694	0.11638	0.18558	0.036637	0.21119	0.3593	0.21361	0.12405	0.19335	0.2794	-2.4271	-2.7583	-3.1167	-2.9417	-3.0375	-2.8979	-3.1063	-3.2729	-2.8646	-2.9583	-3.2562	-3.0375	-3.1792	-3.3979	-2.8271	-3.3917	314.811	272.102	206.028	186.458	313.767	216.844	320.397	139.144	358.496	346.970	435.701	423.043	400.116	379.925	437.624	104.910	0.0019069	0.00029232	0.00010905	1374.8	1.8904e-05	1.1001e-05	1374.4	375.73	5.668e-06	1.2552e-05	425.6	141.27	122.64	41.752	1.6277e-06	51.74	0.002558	0.0025279	0.00064852	1483.9	2.8954e-05	2.7187e-05	1483.2	414.1	2.903e-05	2.7436e-05	475.53	159.07	141.64	47.803	2.5745e-05	59.777	432.789	203.098	261.855	104.913	234.311	451.073	104.590	109.500	384.996	305.690	108.979	113.180	113.741	118.360	312.214	117.278	-8191	255	
6606.308	1	1	0	0	0.068979	0.25985	0.078611	0.39545	0.13272	0.11708	0.21821	0.047942	0.045965	0.091248	0.28173	0.28222	0.16388	0.049179	0.14179	0.066446	-2.5938	-2.9375	-3.3146	-3.0687	-3.0792	-3.0146	-2.9562	-3.3917	-2.9271	-3.1	-3.2771	-2.9729	-3.1333	-3.2083	-2.8896	-3.3729	245.746	287.938	221.057	97.540	348.924	166.652	403.872	149.455	173.710	322.885	403.026	408.610	418.833	254.797	104.411	153.693	0.0015082	0.00023447	9.7646e-05	1371.8	2.0961e-06	5.491e-06	1373.8	374.98	1.1867e-05	8.582e-07	424.21	140.92	123.12	41.635	5.6345e-06	51.663	0.0026303	0.0024951	0.00064576	1492.1	2.9269e-05	2.6495e-05	1482.9	416.96	2.8887e-05	2.6868e-05	474.64	160.54	141.71	47.663	2.5585e-05	60.4	435.828	202.428	233.563	104.818	160.753	353.536	104.412	109.571	236.266	318.118	108.999	113.031	113.751	118.557	265.593	117.558	-8191	255	
6606.404	1	1	0	0	0.1198	0.023728	0.13405	0.22582	0.037367	0.25458	0.40397	0.3884	0.2707	0.34908	0.1459	0.086861	0.28602	0.45508	0.14626	0.1896	-2.425	-2.9688	-3.0312	-3.1688	-2.9229	-3.2125	-3.1104	-3.2062	-3.2146	-2.8	-3.2875	-2.9146	-2.975	-3.2375	-2.7375	-3.2438	229.776	254.258	187.597	372.374	193.520	256.288	398.123	430.811	426.323	385.796	384.208	446.065	421.017	392.799	157.086	402.717	0.0015197	0.00010489	0.0003008	1376.7	8.4381e-06	6.2848e-06	1373.5	375.13	6.0068e-06	5.3601e-06	425.99	142.56	123.19	41.688	1.4505e-05	52.091	0.0025707	0.0024627	0.00064546	1503.2	2.884e-05	2.6307e-05	1485.6	421.92	2.8417e-05	2.7094e-05	477.23	163.1	141.89	47.898	2.6991e-05	61.422	427.262	183.758	194.268	104.769	222.465	205.118	104.621	109.420	242.860	431.685	109.073	113.170	113.615	118.377	223.014	117.294	-8191	255	
6606.525	1	1	0	0	0.093354	0.081215	0.092491	0.30282	0.17284	0.20551	0.26369	0.30475	0.095872	0.11589	0.25977	0.12423	0.14154	0.13642	0.12257	0.23475	-2.5812	-2.75	-3.1875	-3.2542	-3.0812	-3.3208	-3.0125	-3.275	-3.0896	-2.8312	-3.5458	-2.9896	-3.1729	-3.2208	-2.9208	-2.9396	230.451	225.258	320.579	396.858	167.299	242.544	105.741	398.374	437.335	285.904	379.694	439.239	423.251	390.054	92.014	397.874	0.0012997	0.00017218	0.00029242	1375.9	1.2124e-05	7.1157e-06	1383.2	376.52	1.3832e-05	4.0301e-06	428.23	142.47	123.54	41.965	2.3537e-05	52.292	0.0025611	0.0025088	0.00069522	1517.3	2.8923e-05	2.6685e-05	1499.7	425.88	2.7995e-05	2.7348e-05	482.24	164.22	142.04	47.982	2.8661e-05	61.724	447.384	206.963	202.949	104.939	253.990	450.147	104.590	109.576	276.025	360.788	108.707	113.269	113.824	118.300	241.429	117.240	-8191	255	
6606.621	1	1	0	0	0.12129	0.2708	0.20535	0.25687	0.25887	0.23989	0.13115	0.058689	0.20779	0.0079829	0.1756	0.26125	0.30001	0.42456	0.14293	0.3332	-2.8271	-2.7896	-3.2438	-3.2521	-2.9521	-3.3	-3.0771	-3.1937	-3.2313	-2.8104	-3.3771	-2.8375	-2.8521	-3.2812	-2.9062	-3.1937	127.373	246.403	159.186	377.002	196.083	393.736	372.295	158.732	400.941	204.647	422.611	115.404	166.205	98.878	213.940	391.139	0.0013943	9.5519e-05	0.00048018	1374.3	2.1022e-06	2.0441e-06	1384.7	377.64	1.6277e-05	5.6276e-06	426.67	142.63	123.44	42.214	2.1408e-05	51.885	0.0024831	0.0024508	0.00073407	1514.7	2.7978e-05	2.6041e-05	1508.5	425.45	2.7101e-05	2.6704e-05	485.65	163.55	141.29	47.952	3.0104e-05	61.334	425.989	117.150	164.721	104.816	160.951	382.618	104.696	109.543	390.561	237.812	108.953	113.025	113.811	118.432	233.966	117.678	-8191	255	
6606.715	1	1	0	0	0.25149	0.040307	0.104	0.2972	0.063804	0.35363	0.3772	0.14531	0.15052	0.19988	0.13556	0.20304	0.088847	0.1077	0.16314	0.13964	-2.7271	-2.8417	-3.1729	-3.2958	-2.8792	-3.3125	-3.1833	-3.1813	-3.1125	-2.6896	-3.1917	-3.0625	-2.9062	-3.2604	-2.9208	-2.9583	339.770	289.405	404.281	379.672	96.177	97.661	412.688	258.725	115.375	137.052	423.456	433.932	250.429	416.330	165.662	441.628	0.0015508	0.00079863	0.00043929	1371.3	1.4204e-05	1.4889e-05	1383.8	376.93	1.2056e-05	1.3936e-05	427.95	141.77	123.9	42.102	1.3804e-05	52.024	0.0024022	0.0024256	0.00077306	1508.2	2.7085e-05	2.5812e-05	1512.5	423.6	2.6189e-05	2.6526e-05	488.28	162.09	140.96	48.003	3.0844e-05	60.999	428.761	184.341	151.537	104.781	171.991	235.562	104.619	109.537	216.811	234.248	108.868	113.305	113.718	118.485	178.056	117.236	-8191	255	
6606.789	1	1	0	0	0.18168	0.20074	0.11443	0.047652	0.073387	0.1077	0.22313	0.41571	0.03004	0.14083	0.1779	0.1421	0.20065	0.15802	0.18174	0.21502	-2.7771	-2.7375	-3.1625	-3.0812	-2.6813	-3.2	-3.3083	-3.1417	-3.1562	-2.9062	-3.3083	-3.325	-2.9833	-3.3354	-2.9792	-3.0208	251.049	220.826	285.719	340.483	414.870	160.114	436.077	392.463	169.377	171.123	355.609	255.542	129.095	159.693	125.415	275.125	0.0010177	0.0012174	0.00030102	1374.2	7.0201e-06	1.458e-05	1381.1	376.89	6.404e-06	2.1099e-05	427.21	142.27	123.31	42.204	1.5398e-06	52.216	0.0023327	0.0024967	0.00079969	1503.5	2.6539e-05	2.7076e-05	1512.6	421.64	2.5598e-05	2.7993e-05	489.25	161.45	140.69	48.415	3.1004e-05	60.862	433.259	171.208	201.861	105.007	392.413	197.857	104.691	109.222	223.232	197.391	108.902	113.286	113.613	118.501	320.869	117.471	-8191	255	
6606.885	1	1	0	0	0.14377	0.064081	0.11238	0.29033	0.10991	0.19752	0.050481	0.03357	0.13399	0.23164	0.12373	0.2131	0.33158	0.42606	0.10634	0.080759	-2.8292	-2.8521	-2.9813	-3.3208	-2.7167	-3.2271	-3.0771	-3.0708	-3.3021	-2.7417	-3.1458	-3.4167	-2.7417	-3.275	-2.7625	-2.9354	174.072	328.624	307.018	428.774	234.191	171.210	394.001	413.078	373.020	260.348	133.396	407.079	385.441	94.520	283.788	112.017	0.0015831	0.0013934	0.00030168	1378.4	1.0829e-05	1.9606e-05	1377.1	378.05	2.7868e-06	2.3948e-05	426.65	142.46	123.73	42.134	1.0295e-05	52.101	0.0022934	0.0026569	0.00079705	1499.7	2.6236e-05	2.9091e-05	1511	421.03	2.54e-05	2.9823e-05	487.76	160.93	140.36	48.855	2.9649e-05	60.529	446.770	163.915	257.552	104.714	305.599	241.062	104.515	109.622	388.702	225.939	108.758	113.300	113.573	118.443	368.327	117.502	-8191	255	
6607.004	1	1	0	0	0.29496	0.078282	0.22349	0.13421	0.17426	0.1336	0.38121	0.0681	0.12585	0.17568	0.026233	0.12796	0.28926	0.11642	0.097138	0.2109	-2.75	-2.6417	-3.1375	-3.2292	-2.8208	-3.0875	-3.3042	-2.975	-3.1667	-2.9688	-3.0396	-3.3479	-3.0187	-3.1833	-3.0563	-2.9521	168.107	119.147	275.853	383.040	108.883	362.612	405.602	413.422	199.551	374.087	143.096	418.772	136.851	389.240	227.763	450.950	0.0018055	0.00083336	0.00019257	1379.5	1.3477e-05	8.4547e-06	1382	375.94	1.6758e-05	1.0582e-05	426	142.36	124.52	42.192	8.9033e-06	52.141	0.0022761	0.0027531	0.00075883	1496.8	2.5897e-05	3.0017e-05	1506.4	418.79	2.5268e-05	3.0153e-05	483.9	159.97	140.66	48.946	2.7771e-05	60.22	428.833	182.240	175.223	104.702	260.521	266.112	104.581	109.585	219.286	195.507	108.915	113.081	113.690	118.483	264.612	117.299	-8191	255	
6607.100	1	1	0	0	0.1198	0.14514	0.13706	0.41271	0.31377	0.19748	0.12137	0.066056	0.093691	0.057046	0.13627	0.21497	0.10545	0.27523	0.067822	0.26085	-2.6375	-2.9062	-2.9688	-3.2667	-2.9458	-3.0458	-3.3167	-3.0167	-3.1333	-2.9417	-3.0958	-3.425	-2.8417	-3.1208	-3.0979	-2.8479	240.245	386.086	198.138	356.232	159.998	241.373	356.252	99.955	352.520	145.457	286.834	395.799	146.718	396.272	286.047	357.515	0.0016592	0.00046499	6.539e-05	1379.7	1.6444e-05	9.5167e-06	1382.5	376.48	2.1962e-05	9.6387e-06	427.42	143	124.2	42.185	9.6041e-06	52.513	0.0023165	0.0027505	0.00071613	1491.6	2.6617e-05	2.9952e-05	1499.2	417.66	2.6525e-05	2.9953e-05	482.14	159.73	141.49	48.991	2.6792e-05	60.174	431.248	203.387	257.609	104.894	239.600	326.308	104.689	109.487	226.476	243.904	108.778	113.240	113.755	118.553	250.807	117.317	-8191	255	
6607.196	1	1	0	0	0.11056	0.06399	0.086395	0.30014	0.15651	0.3391	0.20746	0.26639	0.099075	0.15634	0.26818	0.12997	0.31046	0.16682	0.054102	0.1396	-2.7354	-2.8563	-2.6396	-3.3521	-2.8312	-3.1021	-3.1167	-3.0104	-3.0792	-3.1063	-2.9625	-3.425	-2.9625	-3.1042	-3.1188	-2.8854	182.733	150.108	290.945	382.560	376.932	239.592	403.263	352.423	110.846	283.820	374.150	144.069	264.861	424.294	159.913	360.567	0.0018714	0.0006052	0.00015227	1378.7	2.1416e-05	6.0408e-06	1383	377.41	1.9364e-05	1.3579e-05	428.55	143.02	124.6	42.087	7.1239e-06	52.367	0.0024632	0.0026765	0.00069519	1491.1	2.7968e-05	2.8979e-05	1496.6	416.42	2.7689e-05	2.8283e-05	479.98	159.3	142.47	48.537	2.54e-05	59.985	431.737	252.341	295.935	104.980	225.718	338.121	104.726	109.386	228.670	321.141	108.688	113.265	113.616	118.619	175.234	117.384	-8191	255	
6607.317	1	1	0	0	0.040293	0.21723	0.045693	0.18668	0.095304	0.26702	0.22998	0.29467	0.087026	0.07286	0.17075	0.10472	0.07455	0.18768	0.031392	0.20326	-2.7562	-2.7583	-2.8708	-3.3604	-2.9062	-3.0896	-3.4521	-2.8396	-3.0979	-2.975	-2.9979	-3.2479	-3.0438	-3.0563	-3.15	-2.9813	327.753	156.219	190.543	402.924	174.813	228.507	377.253	378.348	444.513	335.806	410.640	156.150	419.829	422.933	156.416	412.264	0.0017592	0.00042081	3.2695e-05	1380.5	1.9829e-05	6.6421e-06	1384	377.94	9.8469e-06	1.2068e-05	428.71	142.81	123.72	42.087	7.8462e-06	52.189	0.0025193	0.0025075	0.00066326	1489.7	2.8412e-05	2.7463e-05	1491	416.57	2.8236e-05	2.6729e-05	477.64	159.45	142.28	48.188	2.4352e-05	59.976	417.986	284.813	334.304	104.771	183.866	389.232	104.483	109.416	217.774	377.138	108.749	113.448	113.606	118.339	304.596	117.413	-8191	255	
6607.388	1	1	0	0	0.19003	0.069389	0.10115	0.23046	0.16982	0.17899	0.25884	0.096425	0.080903	0.11531	0.12195	0.25806	0.3328	0.33492	0.070765	0.12414	-2.7188	-3.1	-2.5479	-3.3646	-2.8583	-2.9021	-3.5187	-3	-3.1792	-3.0687	-2.9125	-3.3042	-2.9625	-3.1562	-3.2229	-2.9854	303.970	210.033	98.930	440.968	383.919	164.287	414.998	381.505	388.204	124.115	401.491	448.168	434.582	97.977	253.703	425.575	0.0015705	0.00056757	0.00011443	1381.4	4.2236e-06	9.9186e-06	1386.3	378.56	1.1594e-05	2.292e-06	427.66	143.38	124.49	42.261	1.0082e-05	52.305	0.0025231	0.0023558	0.00063191	1493.9	2.7757e-05	2.5586e-05	1484.8	417.53	2.7197e-05	2.4862e-05	475.43	160.53	141.45	47.952	2.3083e-05	60.343	423.491	369.477	346.554	104.851	340.505	320.367	104.605	109.513	308.645	197.122	108.760	113.155	113.897	118.241	280.833	117.363	-8191	255	
6607.484	1	1	0	0	0.047354	0.26153	0.11077	0.20079	0.20161	0.034425	0.15033	0.19181	0.1245	0.12039	0.10995	0.28884	0.41475	0.3754	0.21427	0.26521	-2.5521	-3.0604	-2.6188	-3.3292	-3	-2.8208	-3.4854	-3.0187	-3.0687	-3.1813	-3.0354	-3.1042	-3.2667	-2.8438	-3.2438	-2.8375	145.694	302.470	113.791	428.435	440.630	400.088	353.441	366.301	402.308	175.519	374.683	447.019	433.043	433.999	224.813	374.059	0.0015485	0.00021044	0.00021688	1385.3	3.3164e-06	1.5438e-05	1388.4	379.2	1.144e-05	3.0434e-06	429.11	143.27	124.59	42.205	1.4175e-05	52.492	0.002384	0.0022128	0.00060407	1500.5	2.6235e-05	2.4395e-05	1482.9	419.78	2.6041e-05	2.3935e-05	475.97	161.39	140.81	47.808	2.3197e-05	60.744	433.768	222.037	222.543	104.733	386.733	320.846	104.540	109.536	185.924	221.662	108.927	113.247	113.635	118.353	245.291	117.355	-8191	255	
6607.605	1	1	0	0	0.165	0.07403	0.16358	0.3613	0.16684	0.12554	0.38416	0.38257	0.28235	0.23093	0.12175	0.018411	0.1316	0.086833	0.18099	0.076752	-2.6937	-3.0229	-2.9833	-3.2646	-2.9667	-2.8292	-3.5312	-3.025	-2.9292	-3.2479	-2.9396	-3.1542	-3.1646	-2.9688	-3.2917	-2.9229	267.258	429.814	283.125	413.454	94.429	330.689	442.887	385.381	363.999	143.088	397.638	295.257	263.759	238.878	226.634	217.312	0.0016255	0.0007475	0.00017075	1384.8	7.6988e-07	1.6472e-06	1384.5	377.68	9.3859e-06	2.5042e-06	430.62	143.38	124.18	42.213	1.6577e-05	52.455	0.0023054	0.0021516	0.00061295	1505.7	2.5171e-05	2.3902e-05	1486.5	420.65	2.5198e-05	2.3414e-05	477.52	161.74	140.03	47.626	2.4336e-05	60.738	426.677	210.165	150.473	104.752	257.378	322.977	104.542	109.546	324.136	431.557	109.026	113.440	113.701	118.200	229.894	117.188	-8191	255	
6607.701	1	1	0	0	0.36098	0.021254	0.26098	0.49903	0.10393	0.1368	0.12356	0.2304	0.11721	0.21703	0.20336	0.30444	0.2946	0.26958	0.069029	0.11216	-2.5208	-3.1542	-2.7562	-3.2896	-3.1312	-2.7958	-3.4104	-2.9437	-2.8396	-3.175	-2.8333	-3.2875	-3.1896	-2.9833	-2.9458	-3.2938	291.305	211.501	201.947	445.786	330.185	301.495	363.818	368.868	216.023	434.177	431.262	181.079	442.612	429.180	357.500	418.415	0.001761	0.00076982	0.00049904	1377.6	1.957e-05	3.4464e-06	1385.9	377.83	8.0162e-06	3.3151e-07	428.49	143.38	124.03	42.093	1.7639e-05	52.193	0.0022094	0.0020917	0.00064333	1502.7	2.4064e-05	2.326e-05	1489.5	419.89	2.3956e-05	2.2443e-05	478.49	161.09	139.04	47.39	2.5455e-05	60.375	436.034	424.328	182.339	104.880	277.363	126.408	104.591	109.469	187.024	434.888	109.158	113.136	113.621	118.412	220.733	117.509	-8191	255	
6607.797	1	1	0	0	0.14108	0.28756	0.12273	0.40517	0.3325	0.083855	0.085251	0.03456	0.19668	0.10454	0.12794	0.17858	0.096776	0.084358	0.06896	0.17483	-2.4813	-3.0625	-2.7979	-3.0583	-3.1188	-2.6542	-3.4646	-2.9938	-2.7271	-3.1167	-3.1	-2.9833	-3.0812	-2.8917	-2.8229	-3.0958	248.018	417.141	253.605	415.465	378.380	212.765	358.112	427.053	439.131	175.112	149.375	102.298	215.171	421.873	175.371	377.103	0.0014275	0.00029213	0.00022859	1380.2	6.2474e-06	7.9835e-06	1382.5	376.94	1.2773e-05	4.8577e-06	428.87	142.93	123.84	42.202	1.3517e-06	52.243	0.002151	0.0020415	0.00067044	1497.3	2.3265e-05	2.2914e-05	1496.2	417.31	2.3437e-05	2.2317e-05	481.25	160.25	138.5	47.469	2.6528e-05	59.919	433.629	232.061	154.928	104.676	302.470	320.314	104.639	109.435	239.180	214.150	108.982	113.386	113.649	118.535	319.794	117.421	-8191	255	
6607.916	1	1	0	0	0.16027	0.29331	0.057487	0.16406	0.19945	0.33559	0.34756	0.092313	0.17943	0.15759	0.29806	0.16635	0.16223	0.11562	0.077872	0.088367	-2.4375	-3.1813	-2.8083	-3.1771	-2.9917	-2.8	-3.0792	-2.9958	-2.8729	-3.0625	-3.0979	-2.9292	-3.2521	-2.8604	-2.9729	-3.0187	185.548	146.601	445.545	405.145	419.603	447.516	391.559	188.629	103.737	299.218	404.358	442.988	429.267	230.792	354.441	350.573	0.0016825	0.0012653	0.00048007	1376.7	4.1364e-06	7.3226e-06	1384.7	376.46	1.1104e-05	9.876e-06	428.38	143.15	124.05	42.245	1.1532e-05	52.043	0.0020813	0.0020744	0.00068697	1490.7	2.255e-05	2.3528e-05	1497.2	415.03	2.285e-05	2.3371e-05	481.48	159.43	138	47.621	2.6694e-05	59.562	433.070	174.532	116.484	104.763	159.138	214.551	104.677	109.569	153.973	214.170	108.850	113.323	113.880	118.228	256.652	117.325	-8191	255	
6608.012	1	1	0	0	0.15914	0.10062	0.21162	0.29156	0.15674	0.11666	0.32102	0.19364	0.1131	0.20011	0.36807	0.18862	0.19983	0.1676	0.37146	0.12757	-2.2333	-3.0687	-2.9854	-2.8896	-3.3417	-2.5875	-3.4292	-3.2687	-2.7375	-3.2375	-3.0167	-2.7708	-3.3708	-3.0292	-3.0333	-3.3438	108.876	237.359	310.141	112.412	256.005	445.848	380.746	435.894	367.710	223.156	386.987	415.881	363.110	332.436	247.244	422.912	0.0013596	0.0017562	0.00023769	1379.4	1.3027e-05	1.3189e-05	1377.7	375.92	1.5856e-05	1.2249e-05	427.26	142.16	123.67	42.093	8.3902e-06	51.959	0.0020321	0.0022007	0.00068651	1487.5	2.1948e-05	2.4654e-05	1493.3	413.37	2.2155e-05	2.4834e-05	478.99	158.53	137.3	47.81	2.591e-05	59.241	436.357	179.516	301.970	104.944	198.585	244.810	104.553	109.560	214.862	223.827	108.796	113.015	113.538	118.431	346.443	117.224	-8191	255	
6608.084	1	1	0	0	0.11238	0.10214	0.14521	0.066371	0.080455	0.18461	0.41128	0.074115	0.10348	0.22159	0.23273	0.058285	0.14763	0.40949	0.11678	0.13383	-2.3563	-3.1437	-2.9	-3.0187	-3.2938	-2.9458	-3.2687	-3.2458	-2.9708	-3.0854	-3.2062	-2.9625	-3.25	-2.9917	-2.8833	-3.3333	233.152	300.936	338.188	415.713	348.250	97.564	401.172	443.156	258.266	124.500	437.600	322.607	118.667	430.107	219.140	96.595	0.0017174	0.00083078	0.00036828	1376.2	1.0514e-05	1.2775e-05	1379.8	375.58	1.1042e-05	7.7923e-06	427.82	141.53	123.64	42.204	9.2308e-06	51.929	0.0020063	0.0023354	0.00066042	1484.8	2.2042e-05	2.6339e-05	1492.9	412.13	2.2742e-05	2.655e-05	477.72	157.97	137.6	48.087	2.5426e-05	58.962	434.166	143.854	297.168	104.733	234.865	208.717	104.678	109.366	154.407	233.571	109.017	113.267	113.828	118.548	302.469	117.480	-8191	255	
6608.205	1	1	0	0	0.10506	0.071741	0.12535	0.12044	0.10479	0.077237	0.19479	0.21128	0.04656	0.21991	0.018191	0.16423	0.12078	0.2569	0.18452	0.13315	-2.5333	-3.0021	-2.7417	-2.9042	-3.2167	-2.95	-3.2146	-3.1833	-2.9354	-3.0917	-3.1458	-2.8771	-3.0583	-3.0458	-2.7833	-3.3667	267.088	414.643	235.062	418.407	400.687	342.851	293.555	433.521	119.276	300.750	328.367	130.015	358.563	400.380	140.923	431.274	0.0019637	0.00055642	0.00010699	1374	1.5649e-05	8.8608e-06	1373.9	375.25	1.9218e-05	9.5966e-06	426.26	141.94	123.28	41.797	8.0054e-06	51.779	0.0021005	0.0024586	0.00064485	1481.1	2.3237e-05	2.7169e-05	1484.9	411.1	2.3908e-05	2.706e-05	474.73	157.78	138.56	48.088	2.4836e-05	58.892	430.296	398.907	362.766	104.992	223.167	253.554	104.387	109.262	189.134	272.472	109.022	113.466	113.650	118.366	195.018	117.581	-8191	255	
6608.301	1	1	0	0	0.21183	0.18988	0.11656	0.20722	0.17839	0.16861	0.16383	0.088807	0.32896	0.18613	0.095047	0.14061	0.0805	0.033456	0.10387	0.19308	-2.4479	-3.0396	-3.1042	-2.9583	-3.0833	-3.2438	-2.9792	-3.4042	-2.6583	-3.2104	-3.2396	-2.8958	-3.1021	-3.1708	-2.6312	-3.3	277.847	415.488	449.108	415.583	140.980	161.569	402.804	383.652	391.835	295.567	138.643	418.217	396.088	98.896	325.867	446.058	0.0020199	0.00088632	0.00025837	1378.9	1.8797e-05	1.4076e-05	1378.2	375.27	3.109e-05	8.5988e-06	426.01	141.65	123.23	41.869	1.4304e-05	51.812	0.0022477	0.0024819	0.00062696	1480.7	2.5144e-05	2.694e-05	1483.4	410.54	2.5475e-05	2.6653e-05	473.47	157.22	139.58	47.833	2.3976e-05	58.714	422.966	322.489	255.374	104.890	186.371	166.135	104.658	109.613	172.302	251.487	108.750	113.264	113.858	118.362	257.274	117.230	-8191	255	
6608.397	1	1	0	0	0.1659	0.22147	0.18314	0.20389	0.16519	0.079629	0.26581	0.059721	0.23205	0.20615	0.17162	0.34848	0.24226	0.25155	0.23901	0.29556	-2.4146	-3.1604	-2.8979	-3.0104	-3.0896	-2.9833	-2.9021	-3.3667	-2.7062	-3.0521	-3.1	-2.975	-3.2417	-3.1042	-2.8292	-3.3312	339.156	306.325	309.981	421.660	325.150	95.966	347.247	301.190	351.798	152.493	136.531	449.751	374.114	376.589	213.322	348.324	0.0017227	0.00057047	0.00010759	1376.4	2.822e-05	6.4225e-06	1374.4	375.99	7.7729e-06	1.3795e-05	425.47	142.04	123.56	41.835	3.8835e-06	52.067	0.0023013	0.002346	0.00059984	1478.2	2.5649e-05	2.5035e-05	1479.1	410.1	2.5945e-05	2.5304e-05	470.96	157.28	139.94	47.533	2.3527e-05	59.035	424.973	276.241	366.529	104.828	234.373	450.861	104.652	109.530	242.474	337.097	108.918	113.054	113.785	118.303	177.165	117.243	-8191	255	
6608.493	1	1	0	0	0.068559	0.085339	0.165	0.12741	0.034514	0.22497	0.29787	0.30961	0.11096	0.048103	0.13533	0.2189	0.13306	0.33397	0.08166	0.37073	-2.4229	-3.0458	-3.125	-3.125	-3.1667	-3.0854	-2.8458	-3.2521	-3.0312	-2.7938	-3.4083	-2.7771	-3.0771	-3.0333	-2.7333	-3.0542	352.519	117.442	421.531	332.864	238.338	158.677	358.197	370.822	252.296	258.427	352.475	441.476	275.962	409.210	422.263	398.593	0.00177	0.00028988	7.6854e-05	1379	1.3163e-05	3.9441e-06	1373.7	377.1	1.2534e-05	9.4278e-06	425.42	142.11	123.19	41.728	2.8441e-06	52.068	0.0023868	0.0022871	0.00059144	1484.8	2.6871e-05	2.4591e-05	1478	413.84	2.7002e-05	2.513e-05	472.07	159.04	140.79	47.476	2.3667e-05	59.605	436.167	258.310	232.701	104.809	241.737	416.766	104.583	109.474	214.156	212.354	108.799	113.353	113.882	118.598	378.242	117.683	-8191	255	
#DATA ENDS
