BOXY.EXE: ISS Imagent and Oximeter Data Acquisition Program Version 0.80
Ascii Record File

#ACQ INFORMATION
2  Detector Channels 
16  External MUX Channels 
1  Auxiliary Channels 
5000  Waveform (CCF) Frequency (Hz)
1  Waveforms Skipped 
30  Waveforms Averaged 
1  Cycles Averaged 
16  Acquisitions per Waveform 
10.0806  Updata Rate (Hz) 

#FILE INFORMATION
TRUE -- External MUX Channel results are PARSED.
FALSE -- AC DC and Phase are NOT grouped.
TRUE -- Companion Program Settings File CREATED.
FALSE -- AC data not excluded
FALSE -- DC data not excluded
FALSE -- Phase data not excluded
FALSE -- Auxillary Chn. data not excluded
Tab delimiters

#CALIBRATION STATE
TRUE -- Waveform Calibration Values APPLIED.


#AUX CALIBRATION VALUES
Val Type	aux-1	

Term	1.0000e+00	
Factor	0.0000e+00	


#WF CALIBRATION VALUES
A = Detector Channel
Val Type	A-AC1	A-AC2	A-AC3	A-AC4	A-AC5	A-AC6	A-AC7	A-AC8	A-AC9	A-AC10	A-AC11	A-AC12	A-AC13	A-AC14	A-AC15	A-AC16	A-DC1	A-DC2	A-DC3	A-DC4	A-DC5	A-DC6	A-DC7	A-DC8	A-DC9	A-DC10	A-DC11	A-DC12	A-DC13	A-DC14	A-DC15	A-DC16	A-Ph1	A-Ph2	A-Ph3	A-Ph4	A-Ph5	A-Ph6	A-Ph7	A-Ph8	A-Ph9	A-Ph10	A-Ph11	A-Ph12	A-Ph13	A-Ph14	A-Ph15	A-Ph16	

Term	0.00000e+00	0.00000e+00	0.00000e+00	0.00000e+00	0.00000e+00	0.00000e+00	0.00000e+00	0.00000e+00	0.00000e+00	0.00000e+00	0.00000e+00	0.00000e+00	0.00000e+00	0.00000e+00	0.00000e+00	0.00000e+00	0.00000e+00	0.00000e+00	0.00000e+00	0.00000e+00	0.00000e+00	0.00000e+00	0.00000e+00	0.00000e+00	0.00000e+00	0.00000e+00	0.00000e+00	0.00000e+00	0.00000e+00	0.00000e+00	0.00000e+00	0.00000e+00	0.00000e+00	0.00000e+00	0.00000e+00	0.00000e+00	0.00000e+00	0.00000e+00	0.00000e+00	0.00000e+00	0.00000e+00	0.00000e+00	0.00000e+00	0.00000e+00	0.00000e+00	0.00000e+00	0.00000e+00	0.00000e+00	
Factor	1.00000e+00	1.00000e+00	1.00000e+00	1.00000e+00	1.00000e+00	1.00000e+00	1.00000e+00	1.00000e+00	1.00000e+00	1.00000e+00	1.00000e+00	1.00000e+00	1.00000e+00	1.00000e+00	1.00000e+00	1.00000e+00	1.00000e+00	1.00000e+00	1.00000e+00	1.00000e+00	1.00000e+00	1.00000e+00	1.00000e+00	1.00000e+00	1.00000e+00	1.00000e+00	1.00000e+00	1.00000e+00	1.00000e+00	1.00000e+00	1.00000e+00	1.00000e+00	X	X	X	X	X	X	X	X	X	X	X	X	X	X	X	X	

B = Detector Channel
Val Type	B-AC1	B-AC2	B-AC3	B-AC4	B-AC5	B-AC6	B-AC7	B-AC8	B-AC9	B-AC10	B-AC11	B-AC12	B-AC13	B-AC14	B-AC15	B-AC16	B-DC1	B-DC2	B-DC3	B-DC4	B-DC5	B-DC6	B-DC7	B-DC8	B-DC9	B-DC10	B-DC11	B-DC12	B-DC13	B-DC14	B-DC15	B-DC16	B-Ph1	B-Ph2	B-Ph3	B-Ph4	B-Ph5	B-Ph6	B-Ph7	B-Ph8	B-Ph9	B-Ph10	B-Ph11	B-Ph12	B-Ph13	B-Ph14	B-Ph15	B-Ph16	

Term	0.00000e+00	0.00000e+00	0.00000e+00	0.00000e+00	0.00000e+00	0.00000e+00	0.00000e+00	0.00000e+00	0.00000e+00	0.00000e+00	0.00000e+00	0.00000e+00	0.00000e+00	0.00000e+00	0.00000e+00	0.00000e+00	0.00000e+00	0.00000e+00	0.00000e+00	0.00000e+00	0.00000e+00	0.00000e+00	0.00000e+00	0.00000e+00	0.00000e+00	0.00000e+00	0.00000e+00	0.00000e+00	0.00000e+00	0.00000e+00	0.00000e+00	0.00000e+00	-1.65095e+02	-1.36760e+02	-1.28228e+02	-1.79802e+02	-7.58801e+01	-8.06562e+01	-1.58085e+02	-1.62015e+02	-8.34201e+01	-6.02352e+01	-1.69977e+02	-1.71992e+02	-1.83057e+02	-1.76155e+02	-6.30896e+01	-1.48803e+02	
Factor	2.68855e-05	1.33963e-04	4.06587e-05	1.73064e-01	1.18092e-06	1.38058e-06	1.79830e-01	6.39379e-02	1.39152e-06	1.46583e-06	8.33553e-02	3.13931e-02	2.72019e-02	8.97484e-03	1.12261e-06	1.30680e-02	1.59552e-06	1.68252e-06	4.69401e-07	8.55044e-02	1.82819e-08	1.84544e-08	8.38191e-02	3.15264e-02	1.83315e-08	1.84551e-08	3.98753e-02	1.49757e-02	1.33735e-02	4.44832e-03	1.83795e-08	6.25309e-03	X	X	X	X	X	X	X	X	X	X	X	X	X	X	X	X	



#DISTANCE SETTINGS
A = Detector Channel
A-1	A-2	A-3	A-4	A-5	A-6	A-7	A-8	A-9	A-10	A-11	A-12	A-13	A-14	A-15	A-16	

2.5000e+00	3.0000e+00	2.5000e+00	3.0000e+00	2.0000e+00	3.0000e+00	1.5000e+00	3.0000e+00	3.0000e+00	3.0000e+00	3.0000e+00	3.0000e+00	3.0000e+00	3.0000e+00	1.5000e+00	3.0000e+00	

B = Detector Channel
B-1	B-2	B-3	B-4	B-5	B-6	B-7	B-8	B-9	B-10	B-11	B-12	B-13	B-14	B-15	B-16	

1.0000e+01	1.0000e+01	1.0000e+01	1.4400e+00	1.0000e+01	1.0000e+01	1.5100e+00	1.9400e+00	1.0000e+01	1.0000e+01	1.9900e+00	2.4900e+00	2.4100e+00	2.9000e+00	1.0000e+01	2.9800e+00	




#DATA BEGINS
time	group	step	mark	flag	A-AC1	A-AC2	A-AC3	A-AC4	A-AC5	A-AC6	A-AC7	A-AC8	A-AC9	A-AC10	A-AC11	A-AC12	A-AC13	A-AC14	A-AC15	A-AC16	A-DC1	A-DC2	A-DC3	A-DC4	A-DC5	A-DC6	A-DC7	A-DC8	A-DC9	A-DC10	A-DC11	A-DC12	A-DC13	A-DC14	A-DC15	A-DC16	A-Ph1	A-Ph2	A-Ph3	A-Ph4	A-Ph5	A-Ph6	A-Ph7	A-Ph8	A-Ph9	A-Ph10	A-Ph11	A-Ph12	A-Ph13	A-Ph14	A-Ph15	A-Ph16	B-AC1	B-AC2	B-AC3	B-AC4	B-AC5	B-AC6	B-AC7	B-AC8	B-AC9	B-AC10	B-AC11	B-AC12	B-AC13	B-AC14	B-AC15	B-AC16	B-DC1	B-DC2	B-DC3	B-DC4	B-DC5	B-DC6	B-DC7	B-DC8	B-DC9	B-DC10	B-DC11	B-DC12	B-DC13	B-DC14	B-DC15	B-DC16	B-Ph1	B-Ph2	B-Ph3	B-Ph4	B-Ph5	B-Ph6	B-Ph7	B-Ph8	B-Ph9	B-Ph10	B-Ph11	B-Ph12	B-Ph13	B-Ph14	B-Ph15	B-Ph16	aux-1	digaux	

3554.632	1	1	0	512	0.26895	0.18554	0.061542	0.20248	0.095952	0.20237	0.094913	0.16093	0.13333	0.10836	0.22127	0.088826	0.14864	0.20959	0.17202	0.43548	-2.5979	-3.5187	-3.0229	-3.3833	-3.5625	-3.1458	-3.5125	-3.3479	-3.1333	-3.3917	-3.3792	-3.3625	-3.6667	-3.1458	-3.3521	-3.6833	229.393	259.362	178.410	144.043	289.947	304.822	139.039	161.782	390.588	219.882	341.265	147.230	140.159	347.197	320.333	396.509	0.0018016	0.00058162	0.00015343	759.53	8.0853e-06	7.733e-06	974.83	307.25	5.4832e-06	5.0557e-06	489.33	222.67	129.29	61.461	4.6644e-06	118.06	0.00020947	0.00013754	4.2928e-05	739.75	1.5391e-06	1.5191e-06	945.25	297.6	1.5451e-06	1.4889e-06	473.32	214.13	124.26	59.796	1.7395e-06	114.22	139.411	187.115	199.006	113.725	257.670	245.328	113.269	118.894	228.203	256.765	117.609	121.280	121.486	126.662	236.802	124.767	-8191	255	
3554.753	1	1	0	0	0.19828	0.085589	0.080181	0.13084	0.14578	0.19807	0.2469	0.16269	0.13968	0.2822	0.13845	0.17786	0.053079	0.16521	0.12991	0.14977	-2.7479	-3.3667	-3.3187	-3.2125	-3.5583	-3.1729	-3.4104	-3.4375	-3.1458	-3.3375	-3.3688	-3.2583	-3.5833	-3.2292	-3.3479	-3.6167	229.691	449.032	322.546	261.479	123.393	272.259	414.938	434.097	139.853	372.627	351.872	127.733	184.993	405.182	173.244	268.679	0.001789	0.0006665	0.00015976	757.53	5.5629e-06	2.6876e-06	969.06	307.95	7.2217e-06	4.1513e-06	490.6	223.97	130.22	61.755	5.2988e-06	118.85	0.00020962	0.00014794	4.3115e-05	736.24	1.5607e-06	1.6199e-06	942.29	298.2	1.5575e-06	1.5957e-06	474.22	215.16	125.02	60.191	1.687e-06	115.01	139.140	152.476	185.061	114.107	240.753	235.485	113.166	118.808	240.418	269.261	117.539	121.422	121.822	126.708	260.107	124.804	-8191	255	
3554.847	1	1	0	0	0.1081	0.22437	0.14786	0.22813	0.17571	0.18831	0.11078	0.10618	0.20455	0.076908	0.16405	0.2933	0.15488	0.20697	0.096419	0.25479	-2.7396	-3.4625	-3.2625	-3.1104	-3.5479	-3.2667	-3.6125	-3.4667	-2.9938	-3.4938	-3.5875	-3.1979	-3.5896	-3.3979	-3.3125	-3.7583	123.160	435.446	354.781	341.174	171.810	159.758	352.842	137.358	197.337	446.268	130.900	386.415	195.444	101.922	103.640	460.198	0.0016686	0.00057683	0.00021416	757.78	3.5904e-06	7.9367e-06	976.61	309.23	8.9872e-06	6.8058e-06	492.48	224.22	130.94	62.322	4.4819e-06	120.02	0.0002099	0.00014882	4.1836e-05	738.23	1.5204e-06	1.6497e-06	947.48	299.59	1.5466e-06	1.6539e-06	477.37	216.31	125.5	60.495	1.6305e-06	116.03	138.618	177.019	221.649	114.179	261.337	229.465	113.094	118.851	223.844	256.915	117.650	121.242	121.741	126.818	230.525	124.832	-8191	255	
3554.943	1	1	0	0	0.18887	0.2782	0.10941	0.099265	0.19343	0.12599	0.11429	0.2391	0.13898	0.068964	0.12926	0.28814	0.19385	0.16795	0.11227	0.32045	-2.6625	-3.3146	-3.1667	-3.1708	-3.5208	-3.4583	-3.3625	-3.6667	-3.1583	-3.4875	-3.425	-3.4	-3.4875	-3.4083	-3.0792	-3.9479	283.826	177.785	147.314	442.526	243.815	350.028	166.189	430.189	363.078	131.992	280.535	121.805	363.845	453.951	388.793	378.396	0.0018411	0.00027195	0.00011699	756.45	4.8224e-06	8.2485e-06	978.06	309.45	8.4037e-06	8.0863e-06	493.43	224.18	130.91	61.812	6.981e-06	119.15	0.00021323	0.00015253	4.0687e-05	738.77	1.5423e-06	1.6493e-06	949.76	299.61	1.5743e-06	1.6455e-06	477.28	215.94	125.52	60.288	1.6133e-06	115.11	137.507	153.093	159.923	113.642	256.614	240.963	112.965	118.607	246.604	265.954	117.662	121.206	121.646	126.762	248.975	124.734	-8191	255	
3555.040	1	1	0	0	0.0083465	0.055286	0.26373	0.16406	0.19124	0.2473	0.21016	0.14401	0.022987	0.10156	0.13696	0.18065	0.12177	0.060853	0.22459	0.082484	-2.7479	-3.3063	-3.3417	-3.2208	-3.35	-3.5146	-3.2646	-3.7667	-3.1354	-3.3521	-3.5062	-3.0771	-3.5354	-3.3292	-3.1562	-3.6042	147.876	232.592	141.474	367.092	325.140	133.816	416.628	423.991	217.368	251.996	439.149	115.402	414.889	140.693	146.142	313.550	0.0017311	0.00055867	0.00020477	758.75	7.6993e-06	6.5817e-06	969.36	307.14	8.2293e-06	5.0473e-06	487.21	221.56	129.71	61.545	5.5762e-06	117.79	0.00020994	0.00014783	3.9347e-05	736.86	1.547e-06	1.6187e-06	940.9	297.27	1.6256e-06	1.5546e-06	471.55	213.51	124.33	59.839	1.5594e-06	114.07	137.654	169.571	198.801	114.056	244.957	251.316	112.950	118.751	224.149	279.608	117.564	121.112	121.593	126.834	249.866	124.487	-8191	255	
3555.136	1	1	0	0	0.15092	0.15304	0.1092	0.21005	0.11235	0.051263	0.22614	0.1925	0.066118	0.054092	0.081183	0.23361	0.23704	0.27186	0.10103	0.16314	-2.6937	-3.1521	-3.4125	-3.0687	-3.4646	-3.2958	-3.3	-3.6771	-3.3187	-3.1604	-3.7292	-3.2125	-3.5396	-3.4229	-3.2771	-3.7167	454.336	232.177	233.914	367.919	185.906	201.543	386.821	188.377	216.527	449.037	397.847	355.703	380.945	378.643	392.776	132.506	0.0017003	0.00080351	0.00014131	756.87	6.4687e-06	7.6097e-06	968.31	306.55	7.1185e-06	8.0902e-06	488.55	221.76	129.07	61.635	6.6725e-06	118.38	0.00021463	0.00014369	3.8696e-05	734.46	1.6374e-06	1.5652e-06	941.97	297.09	1.6553e-06	1.5786e-06	472.32	213.66	124.19	59.836	1.5629e-06	114.41	137.872	184.003	179.995	113.944	222.892	258.041	113.496	118.941	208.272	239.935	117.709	121.340	121.762	126.741	251.400	124.678	-8191	255	
3555.232	1	1	0	0	0.33083	0.11915	0.051283	0.25314	0.10466	0.24669	0.085946	0.2365	0.11947	0.19464	0.16919	0.28376	0.11191	0.13206	0.062619	0.21694	-3.0708	-3.1042	-3.6917	-3.1167	-3.5208	-3.4792	-3.1562	-3.7083	-3.3125	-3.3812	-3.8063	-3.2938	-3.475	-3.7229	-3.1333	-3.7938	419.008	415.300	268.463	414.473	220.805	273.415	178.463	143.803	116.967	267.645	400.549	424.919	140.856	112.324	390.276	406.595	0.0017304	0.00034724	0.00020271	756.6	5.9449e-06	5.7903e-06	971.82	308.27	9.1063e-06	3.5032e-06	492.55	223.1	129.51	61.502	6.9572e-06	118.59	0.00021991	0.00014188	3.8501e-05	735.9	1.6459e-06	1.5394e-06	943.18	298.22	1.6595e-06	1.5592e-06	474.84	214.6	124.59	59.903	1.5783e-06	114.93	140.190	174.379	201.541	113.833	244.981	253.449	113.180	118.852	245.245	222.027	117.523	121.355	121.972	126.614	254.577	124.738	-8191	255	
3555.352	1	1	0	0	0.11945	0.069365	0.27686	0.066975	0.14365	0.12408	0.30531	0.17058	0.18794	0.14189	0.34295	0.24429	0.22881	0.14647	0.11585	0.12499	-2.7396	-3.3479	-3.5187	-3.0687	-3.3833	-3.3854	-3.2292	-3.7854	-3.4208	-3.1396	-3.6083	-3.4	-3.2479	-3.7896	-3.2083	-3.7083	392.609	282.279	305.996	344.200	102.442	286.702	383.889	357.093	156.760	321.248	399.147	440.713	407.091	323.954	445.884	150.517	0.001738	0.00051879	0.00016839	757.54	4.8736e-06	4.709e-06	972.09	308.92	7.0728e-06	5.3727e-06	490.46	221.39	128.86	61.358	4.4516e-06	117.74	0.00021755	0.00014523	3.8722e-05	736.51	1.6388e-06	1.5317e-06	943.63	299.07	1.6561e-06	1.5859e-06	473.38	213.54	124.11	59.713	1.593e-06	113.77	138.149	174.704	184.806	113.602	258.078	257.546	113.153	118.826	230.960	271.921	117.844	121.111	121.858	126.610	214.904	124.811	-8191	255	
3555.449	1	1	0	0	0.27484	0.13424	0.13288	0.02095	0.31358	0.087377	0.1504	0.33523	0.14596	0.093134	0.13572	0.095084	0.21394	0.20552	0.24917	0.32455	-3.1125	-3.225	-3.7146	-3.4771	-3.3396	-3.5292	-3.3708	-3.5438	-3.3417	-3.2229	-3.7875	-3.4771	-3.3417	-3.6646	-3.1667	-3.4688	199.967	423.613	119.048	421.329	286.447	115.004	428.304	455.836	161.254	355.142	402.436	401.797	350.263	322.252	126.862	401.454	0.0017512	0.00059015	0.00023264	755.67	4.5227e-06	4.781e-06	966.55	306.79	7.5866e-06	6.0854e-06	486.57	220.14	129.68	61.316	5.3702e-06	117.07	0.00021923	0.00014106	3.9385e-05	733.75	1.6249e-06	1.5366e-06	938.3	297.78	1.6509e-06	1.5445e-06	469.29	212.63	124.33	59.529	1.6359e-06	113.37	138.173	228.232	167.303	113.843	261.693	253.597	113.049	119.227	240.225	254.797	117.585	121.048	121.795	126.738	245.263	124.641	-8191	255	
3555.520	1	1	0	0	0.095115	0.24358	0.10646	0.11018	0.10602	0.050935	0.25612	0.26591	0.19143	0.14227	0.26079	0.11735	0.23217	0.26753	0.24215	0.23487	-2.9146	-3	-3.4979	-3.4437	-3.2229	-3.5021	-3.3667	-3.4396	-3.5854	-3.2438	-3.7021	-3.4667	-3.1562	-3.6937	-3.0729	-3.5229	455.888	388.583	208.406	170.096	134.234	229.439	328.356	400.386	136.411	149.946	443.392	414.176	410.869	417.959	280.447	404.202	0.0016874	0.00051586	0.0002576	758.36	4.6995e-06	4.5677e-06	967.06	308.58	8.179e-06	8.894e-06	489.7	222.03	130.5	61.833	7.0306e-06	118.52	0.00021294	0.00014169	4.1004e-05	737.8	1.6041e-06	1.5504e-06	941.98	298.77	1.5841e-06	1.5447e-06	472.6	214.09	125.23	59.918	1.6829e-06	114.52	138.309	190.320	173.873	113.796	230.943	259.734	113.141	118.872	235.444	254.945	117.670	121.012	121.819	126.575	243.079	124.626	-8191	255	
3555.616	1	1	0	0	0.039286	0.04779	0.087433	0.21126	0.13163	0.16096	0.29499	0.11164	0.15023	0.11258	0.2884	0.11038	0.065468	0.18564	0.13888	0.20941	-3.2396	-2.9417	-3.2938	-3.4229	-3.2958	-3.6104	-3.2667	-3.4479	-3.5646	-3.1792	-3.6458	-3.5833	-3.2292	-3.8292	-3.2938	-3.35	347.922	267.173	344.411	209.798	406.247	200.701	358.043	257.808	375.461	196.134	408.358	301.247	118.205	441.737	164.228	183.168	0.0017985	0.00029055	0.00024929	761.43	2.7302e-06	4.6043e-06	971.59	311.25	7.6058e-06	3.9487e-06	491.33	224.42	131.77	62.444	5.0581e-06	119.4	0.00021201	0.00014148	4.2165e-05	740.93	1.5828e-06	1.5257e-06	946.49	300.9	1.57e-06	1.5392e-06	476.47	216.37	126.29	60.485	1.6924e-06	115.65	138.620	194.100	181.358	113.913	227.230	232.234	113.037	118.898	241.784	285.104	117.549	121.110	121.459	126.453	252.565	124.761	-8191	255	
3555.735	1	1	0	0	0.15966	0.29621	0.19836	0.034595	0.2368	0.15908	0.18247	0.059406	0.073578	0.17037	0.20264	0.35112	0.15265	0.085319	0.11322	0.14302	-3.1104	-3.1375	-3.5333	-3.475	-3.075	-3.6229	-3.4208	-3.2604	-3.6063	-2.9479	-3.5187	-3.7542	-3.3146	-3.6833	-3.2771	-3.5312	133.815	207.937	269.759	220.787	209.501	190.582	419.983	302.987	395.695	208.865	388.166	415.394	441.628	199.178	141.412	410.116	0.0017184	0.00075414	0.00019456	760.65	7.1731e-06	7.0356e-06	976.54	311.22	7.2289e-06	4.8397e-06	494.06	223.36	131.85	61.968	4.659e-06	118.72	0.00020894	0.00014192	4.2129e-05	740.34	1.5541e-06	1.5532e-06	945.61	300.79	1.565e-06	1.5372e-06	475.94	215.53	126.46	60.347	1.6847e-06	114.8	138.293	173.302	194.622	113.947	253.875	236.827	113.167	118.510	249.017	257.498	117.285	121.172	121.659	126.615	252.419	124.608	-8191	255	
3555.831	1	1	0	0	0.11245	0.21619	0.24747	0.18015	0.082659	0.24595	0.19718	0.25154	0.19382	0.14438	0.13622	0.14755	0.093686	0.26996	0.24713	0.36184	-3.1021	-3.2438	-3.2479	-3.5312	-3.0875	-3.7	-3.3583	-3.2083	-3.5771	-3.2729	-3.3417	-3.5938	-3.1813	-3.5229	-3.2875	-3.1875	333.186	182.570	391.007	404.416	346.730	281.069	108.685	427.658	290.366	398.182	371.368	125.894	452.947	433.254	152.606	395.778	0.0017563	0.0005229	0.00027221	759.4	6.7376e-06	4.0741e-06	972.3	309.39	7.1981e-06	8.9515e-06	489.1	223.36	131.75	61.94	5.1489e-06	118.78	0.00020957	0.00014678	4.2119e-05	739.41	1.5653e-06	1.6047e-06	940.8	300.04	1.5189e-06	1.6436e-06	473.03	215.14	126.69	60.239	1.6946e-06	114.71	137.136	174.063	166.624	113.821	237.307	220.923	113.014	118.709	225.636	249.122	117.418	121.094	121.542	126.536	248.552	124.580	-8191	255	
3555.928	1	1	0	0	0.20866	0.17291	0.28849	0.20447	0.097997	0.24159	0.085806	0.26965	0.27438	0.24554	0.34064	0.30766	0.097687	0.51912	0.14813	0.23823	-3.1771	-3.1604	-3.3125	-3.4958	-3.125	-3.5479	-3.4146	-3.1104	-3.5021	-3.2479	-3.3583	-3.6188	-3.1667	-3.4188	-3.45	-3.2854	354.576	284.675	195.662	429.563	186.223	277.819	301.839	325.234	447.695	311.546	393.210	412.185	428.309	370.230	196.251	388.837	0.0017422	0.00070227	0.00011477	764.42	4.0878e-06	6.1969e-06	974.36	312.25	6.7366e-06	6.8693e-06	493.32	225.54	133.04	62.56	4.627e-06	120.16	0.00021283	0.00015235	4.1548e-05	744.73	1.5751e-06	1.6715e-06	946.12	302.85	1.5816e-06	1.6904e-06	476.44	217.28	127.69	60.725	1.696e-06	116.2	138.271	174.950	196.183	113.785	225.034	232.076	112.887	118.441	242.270	254.755	117.501	121.040	121.872	126.643	249.829	124.619	-8191	255	
3556.024	1	1	0	0	0.14131	0.1996	0.094949	0.26308	0.11339	0.088708	0.20836	0.24674	0.21735	0.18813	0.23373	0.23805	0.15086	0.15788	0.06218	0.16062	-3.1021	-3.2729	-3.1667	-3.525	-2.9292	-3.4208	-3.5438	-3.1167	-3.4938	-3.3063	-3.4167	-3.6104	-3.4646	-3.5708	-3.5979	-3.2833	432.707	287.327	443.510	311.914	304.976	119.027	377.334	384.708	215.838	109.582	392.188	437.143	404.098	111.577	426.241	304.607	0.0017596	0.00069568	0.0001179	764.13	8.0157e-06	5.2345e-06	976.45	312.7	9.0253e-06	6.1214e-06	496.03	226.43	133.76	62.568	5.701e-06	120.57	0.00021419	0.00015623	4.1995e-05	745.13	1.6176e-06	1.7327e-06	948.93	303.37	1.6518e-06	1.7146e-06	478.7	218.18	128.4	60.952	1.6662e-06	116.85	137.186	180.330	191.115	113.555	226.120	241.177	113.109	118.866	233.167	244.566	117.352	121.136	121.621	126.550	230.718	124.659	-8191	255	
3556.144	1	1	0	0	0.084275	0.25446	0.28826	0.070838	0.19692	0.14584	0.061824	0.083945	0.24157	0.24672	0.11961	0.29969	0.13251	0.096258	0.11312	0.2442	-3.2125	-3.4646	-3.1937	-3.6854	-3.1979	-3.4104	-3.625	-3.2542	-3.4062	-3.4208	-3.4021	-3.6292	-3.1771	-3.4583	-3.4917	-3.1458	176.692	203.001	370.906	437.124	229.681	430.438	378.018	172.404	205.087	249.944	378.137	175.813	145.620	166.526	422.970	442.680	0.0018222	0.00085572	0.00028508	763.1	5.0372e-06	5.6392e-06	974.3	312.05	5.5869e-06	2.8864e-06	491.34	225.23	132.94	62.051	5.8316e-06	120.02	0.00022366	0.0001577	4.1583e-05	744.45	1.7239e-06	1.7178e-06	943.41	302.37	1.7086e-06	1.6699e-06	474.54	216.47	127.82	60.598	1.6911e-06	115.82	137.634	162.577	203.847	113.671	256.217	228.776	112.920	118.575	229.976	255.457	117.424	121.014	121.522	126.519	270.469	124.568	-8191	255	
3556.216	1	1	0	0	0.11633	0.14783	0.16803	0.13479	0.23732	0.031172	0.271	0.11632	0.19723	0.18732	0.12797	0.16804	0.13224	0.12576	0.080617	0.43869	-2.9313	-3.1167	-3.0312	-3.5854	-3.4562	-3.4167	-3.7042	-3.2521	-3.4771	-3.5375	-3.2583	-3.7521	-3.4521	-3.3312	-3.6042	-3.2938	401.317	193.389	451.908	238.154	454.596	102.608	435.160	362.812	129.590	433.899	330.254	395.439	428.186	460.053	217.739	381.516	0.0017932	0.00058288	0.00022026	766.26	4.2933e-06	6.5541e-06	972.89	311.39	8.1959e-06	5.3144e-06	489.09	223.75	132.63	61.986	5.435e-06	119.69	0.00022746	0.00015465	4.1924e-05	742.93	1.7595e-06	1.7319e-06	941.24	302.39	1.7916e-06	1.6746e-06	472.8	215.85	127.76	60.459	1.6227e-06	115.9	140.215	179.326	180.330	113.869	221.802	234.019	112.927	118.899	225.697	283.862	117.336	121.140	121.594	126.407	245.456	124.601	-8191	255	
3556.312	1	1	0	0	0.081901	0.10634	0.19375	0.083402	0.069653	0.071478	0.13954	0.11145	0.051503	0.33136	0.11077	0.15278	0.10728	0.19692	0.2911	0.1749	-3.0979	-3.0958	-2.9917	-3.5312	-3.2854	-3.1854	-3.8833	-3.2104	-3.3396	-3.4729	-3.2396	-3.7083	-3.3917	-3.4417	-3.4917	-3.2271	329.728	249.274	335.766	399.152	282.787	174.932	348.516	358.762	442.611	346.188	289.616	178.903	136.018	459.164	148.227	383.730	0.0017106	0.00071169	0.00021339	760.16	6.9806e-06	7.7786e-06	971.23	310.32	7.1639e-06	5.4802e-06	489.91	224.67	132.9	62.276	6.4477e-06	120.05	0.00023068	0.00015315	4.1822e-05	741.02	1.7687e-06	1.6736e-06	940.05	301.97	1.7783e-06	1.6413e-06	473.5	216.32	127.67	60.563	1.6322e-06	116.35	141.240	195.509	188.089	113.857	216.846	219.031	113.100	118.674	242.041	229.265	117.435	121.017	121.656	126.423	245.975	124.659	-8191	255	
3556.433	1	1	0	0	0.024165	0.19977	0.20551	0.13298	0.3645	0.041165	0.13245	0.20487	0.029468	0.21377	0.089075	0.22674	0.12948	0.38563	0.19523	0.13806	-3.1188	-3.3479	-3.0271	-3.7104	-3.5292	-3.1771	-3.4854	-3.3146	-3.3917	-3.6229	-3.3	-3.7104	-3.5958	-3.1271	-3.6708	-3.5333	126.910	225.940	289.285	269.050	108.700	207.416	457.056	438.837	218.540	221.652	116.802	344.824	333.212	141.856	175.327	420.361	0.0018062	0.00056429	0.00022084	765.4	3.2924e-06	3.8624e-06	970.96	310.93	7.7435e-06	8.1248e-06	486.61	223.57	132.03	62.005	8.1886e-06	120.19	0.00022555	0.00015228	4.1502e-05	741.01	1.7607e-06	1.6267e-06	940.94	301.23	1.7296e-06	1.6197e-06	471.78	215.42	127.11	60.325	1.6314e-06	116.08	140.606	180.215	186.945	113.767	242.756	214.439	113.068	118.795	238.569	252.521	117.577	121.058	121.596	126.639	254.944	124.560	-8191	255	
3556.529	1	1	0	0	0.085672	0.11226	0.10364	0.16923	0.21304	0.29357	0.078804	0.16938	0.046708	0.22337	0.20735	0.15128	0.21503	0.079972	0.20017	0.064908	-2.8417	-3.5646	-3.1625	-3.5146	-3.4292	-3.2833	-3.4062	-3.2604	-3.1896	-3.4708	-3.3896	-3.675	-3.6792	-3.4396	-3.3979	-3.625	238.300	314.521	405.535	401.908	236.810	445.329	329.972	346.442	287.029	325.124	124.401	460.298	418.364	407.067	183.068	409.231	0.0017721	0.00037289	0.0001814	761.07	7.0319e-06	7.5828e-06	964.99	310.18	7.7964e-06	7.4576e-06	485.35	222.84	132.44	61.686	5.4498e-06	118.82	0.0002265	0.00014913	4.1898e-05	740.69	1.7041e-06	1.6555e-06	935.35	300.56	1.7001e-06	1.5919e-06	469.1	214.58	127.16	60.148	1.6721e-06	114.79	139.335	190.522	186.021	113.773	226.414	226.565	112.919	118.649	225.354	257.995	117.375	121.125	121.623	126.578	231.485	124.318	-8191	255	
3556.625	1	1	0	0	0.079275	0.30476	0.32051	0.04295	0.35021	0.28717	0.056871	0.13924	0.20937	0.16895	0.28769	0.21176	0.3226	0.11533	0.33316	0.18138	-2.7083	-3.6146	-3.025	-3.3833	-3.4958	-3.1646	-3.7438	-3.4562	-3.3875	-3.6417	-3.2875	-3.6688	-3.5062	-3.2188	-3.3458	-3.4625	252.705	131.765	384.695	227.862	320.442	281.743	151.238	421.801	129.574	349.134	423.935	438.391	156.747	137.171	208.402	408.259	0.0017679	0.00057287	0.00016224	759.45	3.7461e-06	4.6131e-06	966.65	312	6.9066e-06	4.2307e-06	485.64	223.17	132.41	62.23	7.6417e-06	119.51	0.00022027	0.00014594	4.3379e-05	740.16	1.6575e-06	1.599e-06	936.95	301.62	1.7046e-06	1.5824e-06	469.97	215.22	127.65	60.405	1.7514e-06	115.54	139.320	183.775	193.229	113.768	223.735	238.490	112.992	118.775	235.271	253.799	117.190	121.160	121.611	126.513	231.558	124.416	-8191	255	
3556.744	1	1	0	0	0.25709	0.15211	0.15632	0.245	0.077147	0.13547	0.27471	0.010408	0.15134	0.12896	0.18988	0.14097	0.29124	0.18981	0.05649	0.2338	-2.7042	-3.5333	-3.2562	-3.4	-3.4083	-2.9917	-3.5062	-3.3229	-3.1875	-3.4958	-3.4583	-3.5521	-3.6021	-3.3042	-3.4125	-3.6792	254.398	249.921	216.836	331.384	281.166	233.789	346.058	309.556	232.518	163.461	430.516	102.692	103.580	458.948	118.531	404.193	0.0018039	0.00077232	0.00019361	763.18	5.1294e-06	7.6568e-06	966.52	311.49	8.9278e-06	7.1791e-06	489.16	223.47	133.16	62.156	4.6014e-06	120.03	0.00022248	0.00014955	4.4714e-05	742.14	1.6525e-06	1.6517e-06	938.68	301.64	1.6903e-06	1.6369e-06	471.71	215.58	127.87	60.486	1.8538e-06	116.15	136.884	172.343	180.607	113.642	219.240	244.922	113.076	118.487	228.374	244.879	117.343	121.048	121.487	126.462	250.270	124.513	-8191	255	
3556.816	1	1	0	0	0.095723	0.13858	0.073684	0.14775	0.12482	0.1734	0.23378	0.30542	0.35781	0.035624	0.038444	0.053328	0.066989	0.062451	0.10305	0.18167	-2.6979	-3.4458	-3.175	-3.5604	-3.4646	-3.1375	-3.4958	-3.6667	-3.0646	-3.7458	-3.3271	-3.275	-3.5979	-3.4104	-3.5833	-3.6375	188.881	322.840	401.522	411.111	123.107	117.335	349.391	387.352	256.588	160.299	143.149	238.035	460.476	392.426	439.119	116.690	0.0017764	0.00055333	0.00017715	760.08	2.7377e-06	5.5355e-06	963.26	310.78	5.7515e-06	9.4376e-06	487.13	223.08	132.87	61.905	5.7946e-06	118.91	0.00022315	0.00015305	4.6023e-05	740.75	1.6651e-06	1.7413e-06	938.56	301.66	1.7456e-06	1.7493e-06	470.45	214.84	127.5	60.251	1.8892e-06	115.29	138.325	157.255	163.792	113.798	239.704	218.136	113.156	118.618	240.723	270.637	117.377	120.832	121.574	126.494	255.650	124.335	-8191	255	
3556.912	1	1	0	0	0.1717	0.11332	0.065684	0.19098	0.036761	0.19461	0.17247	0.1236	0.13193	0.11016	0.10349	0.073934	0.16759	0.24018	0.1789	0.20932	-2.75	-3.4021	-3.2646	-3.1021	-3.6	-3.15	-3.4854	-3.5104	-3.1417	-3.3104	-3.6	-3.1396	-3.7396	-3.2042	-3.2521	-3.6188	325.291	132.480	434.080	435.163	437.216	339.258	404.351	330.611	117.878	117.514	350.865	127.879	379.276	102.300	145.255	404.920	0.0017466	0.00056396	0.00012174	759.99	3.9279e-06	8.3626e-06	960.06	309.72	7.3971e-06	3.6352e-06	482.98	221.25	131.78	61.456	5.238e-06	117.88	0.0002186	0.00016067	4.6654e-05	739.03	1.6212e-06	1.8127e-06	933.63	300.24	1.6696e-06	1.7574e-06	466.91	213.1	127.06	59.926	1.8453e-06	113.96	141.292	183.780	170.598	113.476	228.325	237.714	112.839	118.555	219.537	268.020	116.989	121.029	121.562	126.268	260.133	124.397	-8191	255	
3557.032	1	1	0	0	0.25385	0.15178	0.00617	0.24585	0.25686	0.11112	0.079958	0.2416	0.15933	0.29455	0.062115	0.088912	0.14353	0.3491	0.077236	0.21418	-2.5812	-3.4083	-3.3521	-3.1	-3.6729	-3.3521	-3.5438	-3.5854	-3.0271	-3.6292	-3.3708	-3.1437	-3.575	-3.5875	-3.1271	-3.8354	278.263	156.225	104.883	457.906	223.985	156.413	110.806	410.207	186.733	217.002	364.855	364.774	333.466	441.760	271.255	417.678	0.0017535	0.00056828	0.00013224	755.71	5.5296e-06	5.7564e-06	957.94	309.76	8.2416e-06	4.1841e-06	484.17	221.4	132.6	61.709	5.8815e-06	119.08	0.00022006	0.00016493	4.4673e-05	737.07	1.6593e-06	1.8263e-06	931.69	299.83	1.7403e-06	1.8791e-06	468.18	213.44	127.41	60.143	1.8181e-06	114.94	138.541	195.457	188.978	113.817	216.563	253.849	112.764	118.421	214.901	238.637	117.461	121.068	121.582	126.539	262.514	124.298	-8191	255	
3557.129	1	1	0	0	0.16517	0.13807	0.046378	0.35638	0.12435	0.12932	0.12651	0.24199	0.20022	0.15503	0.30051	0.2691	0.2956	0.34737	0.1583	0.14375	-2.7188	-3.3583	-3.1688	-3.1354	-3.5187	-3.3292	-3.1562	-3.625	-3.2167	-3.3125	-3.5458	-3.1521	-3.4708	-3.3021	-3.4625	-3.7062	318.070	273.241	136.088	434.746	445.728	304.463	448.713	412.951	114.216	122.308	435.407	129.810	441.895	401.513	131.379	111.939	0.001728	0.00043972	0.00023488	756.81	7.5228e-06	7.3604e-06	964.37	311.6	6.2387e-06	8.7711e-06	485.37	223.7	133.13	62.182	5.4721e-06	120.26	0.00023136	0.00017234	4.4923e-05	738.78	1.7861e-06	1.88e-06	935.84	301.46	1.8446e-06	1.8982e-06	469.55	215.11	128.2	60.526	1.7524e-06	116.26	137.996	179.722	159.753	113.598	243.148	247.786	113.047	118.674	232.527	245.489	117.385	120.903	121.447	126.423	242.861	124.543	-8191	255	
3557.225	1	1	0	0	0.12611	0.14618	0.1682	0.24173	0.17923	0.034021	0.17388	0.28062	0.19185	0.20983	0.18879	0.18354	0.27336	0.17101	0.26437	0.3824	-2.7792	-3.4542	-3.475	-3.1542	-3.4854	-3.3104	-3.2375	-3.5792	-3.0583	-3.3771	-3.3917	-3.1188	-3.4875	-3.6146	-2.9271	-3.7458	451.426	214.510	192.282	378.938	410.760	286.851	290.472	418.790	160.836	327.860	460.067	448.359	425.896	108.453	228.695	413.701	0.0017972	0.0009443	0.00020657	759.13	5.7601e-06	6.5581e-06	965.77	310.66	6.1452e-06	5.2614e-06	485.02	222.54	132.94	62.099	4.4096e-06	119.59	0.00023573	0.00016592	4.2719e-05	738.64	1.7945e-06	1.7438e-06	936.1	301.14	1.7973e-06	1.7734e-06	469.61	214.35	127.79	60.486	1.6986e-06	115.48	137.802	168.487	198.580	113.558	251.420	236.097	112.828	118.613	255.385	278.702	117.158	120.746	121.498	126.514	246.348	124.398	-8191	255	
3557.321	1	1	0	0	0.25144	0.14678	0.027393	0.054515	0.18267	0.26772	0.19096	0.16658	0.072625	0.20463	0.059953	0.22701	0.07084	0.13445	0.12562	0.14962	-2.9479	-3.0062	-3.5625	-3.1167	-3.5792	-3.3979	-3.2333	-3.6417	-3.3812	-3.1146	-3.9854	-3.2604	-3.4979	-3.5354	-3.2875	-3.7104	343.992	217.650	206.683	415.110	304.786	144.039	424.883	126.788	455.639	443.984	276.530	433.710	100.677	103.820	393.915	420.337	0.0017587	0.00060905	0.00022869	758.46	5.8109e-06	6.1303e-06	955.72	309.39	7.5482e-06	5.7172e-06	483.84	220.55	132.05	61.697	6.2699e-06	118.47	0.00023494	0.00015868	4.125e-05	736.96	1.8187e-06	1.686e-06	930.43	300.23	1.89e-06	1.746e-06	467.3	212.75	127.1	60.06	1.728e-06	114.53	137.252	190.430	194.537	113.406	228.373	252.499	112.942	118.642	235.259	270.766	117.454	120.939	121.622	126.648	250.188	124.461	-8191	255	
3557.442	1	1	0	0	0.1321	0.12897	0.21141	0.11715	0.13913	0.29533	0.21562	0.13191	0.19593	0.091153	0.19149	0.31543	0.051664	0.30919	0.10916	0.17629	-2.9208	-3.2313	-3.5563	-3.0917	-3.3375	-3.4583	-3.2167	-3.775	-3.2188	-3.2021	-3.5917	-3.4396	-3.2313	-3.5646	-3.1583	-3.6188	328.135	395.448	236.323	112.761	304.660	212.107	411.118	375.616	281.558	395.497	345.099	133.035	419.904	344.351	345.968	409.674	0.0016945	0.00063485	0.00013846	758.07	6.4214e-06	5.3728e-06	956.14	310.76	1.0024e-05	3.005e-06	485.52	221.49	132.36	61.948	5.6538e-06	119.03	0.00023637	0.00015662	4.1767e-05	736.8	1.8604e-06	1.7142e-06	930.86	301.45	1.8506e-06	1.71e-06	469.68	213.94	127.52	60.393	1.6891e-06	115.3	140.063	166.438	181.255	113.743	240.030	240.205	112.960	118.711	201.098	263.086	117.338	120.960	121.738	126.530	265.962	124.416	-8191	255	
3557.513	1	1	0	0	0.10463	0.066906	0.12626	0.077692	0.070691	0.047804	0.30422	0.075265	0.27779	0.1224	0.03488	0.23224	0.4094	0.18292	0.17067	0.032576	-3.0146	-3.1562	-3.3667	-3.3021	-3.2812	-3.7521	-3.0979	-3.4271	-3.4771	-3.0333	-3.7625	-3.4313	-3.2938	-3.6208	-2.9375	-3.6708	349.469	190.064	383.802	383.056	438.218	426.138	422.750	263.017	377.404	286.162	452.434	102.442	452.365	121.048	429.330	223.387	0.0017781	0.0006024	0.00015406	761.65	5.4626e-06	7.9046e-06	961.8	312.37	1.0014e-05	6.2199e-06	490.71	223.15	133.47	62.346	5.474e-06	119.96	0.00023234	0.00015871	4.2887e-05	741.83	1.8421e-06	1.6742e-06	936.51	302.82	1.8563e-06	1.752e-06	473.19	215.58	127.97	60.767	1.8133e-06	116.04	138.534	200.489	165.584	113.727	214.176	248.229	112.890	118.791	229.717	243.879	117.449	121.052	121.634	126.635	251.259	124.651	-8191	255	
3557.609	1	1	0	0	0.15365	0.22418	0.12117	0.1431	0.16286	0.031378	0.1925	0.20989	0.10681	0.44272	0.1641	0.046279	0.087141	0.18604	0.1803	0.37956	-2.8937	-3.0292	-3.4083	-3.3979	-3.1875	-3.5708	-3.2729	-3.4437	-3.3	-3.1792	-3.625	-3.6562	-3.0812	-3.7458	-3.0667	-3.6667	162.438	323.987	425.605	100.974	142.887	229.014	389.731	273.695	236.887	391.358	273.492	129.270	396.243	445.669	188.914	104.873	0.0017913	0.00076091	0.0001735	759.52	4.6065e-06	6.0759e-06	958.66	311.39	5.5574e-06	4.7207e-06	487.67	222.39	132.35	62.187	4.5773e-06	118.1	0.00023147	0.00015513	4.4754e-05	739.86	1.781e-06	1.6446e-06	933.28	302.08	1.7078e-06	1.6344e-06	471.46	214	127.1	60.372	1.7925e-06	114.05	139.914	179.328	174.123	113.731	255.175	226.959	113.064	118.752	224.424	247.035	117.319	120.969	121.546	126.501	253.419	124.568	-8191	255	
3557.706	1	1	0	0	0.074596	0.028875	0.12714	0.30567	0.16247	0.25544	0.11575	0.32444	0.10189	0.088947	0.041258	0.19663	0.030586	0.27525	0.23307	0.24665	-2.9313	-3.0979	-3.4604	-3.3729	-3.1396	-3.7771	-3.3125	-3.6063	-3.3812	-3.1312	-3.7229	-3.45	-3.2229	-3.7938	-3.1958	-3.6562	438.506	257.363	286.056	152.640	237.405	107.743	448.728	337.514	417.394	147.841	242.638	442.670	431.423	432.431	403.318	405.324	0.0017426	0.00057655	0.00019537	755.35	6.579e-06	7.4674e-06	955.15	311.78	6.5074e-06	4.0236e-06	485.15	221.01	131.81	61.88	6.4315e-06	117.32	0.00022529	0.00015229	4.4773e-05	736.03	1.6929e-06	1.5831e-06	930.64	301.72	1.6849e-06	1.6214e-06	469.04	213.08	126.78	60.213	1.8488e-06	113.66	137.260	172.626	177.672	113.793	229.487	215.817	112.937	118.678	241.022	256.867	117.391	120.884	121.826	126.435	251.600	124.804	-8191	255	
3557.824	1	1	0	0	0.26338	0.18805	0.078822	0.11754	0.049855	0.20905	0.044218	0.10107	0.16388	0.29629	0.23165	0.30836	0.42042	0.31333	0.25611	0.32035	-3.2958	-3.0021	-3.6229	-3.475	-3.1354	-3.5167	-3.525	-3.4208	-3.6604	-3.0167	-3.575	-3.5979	-3.2271	-3.5208	-3.175	-3.3771	144.190	284.638	336.965	382.393	104.270	177.339	418.318	178.417	197.269	452.047	417.517	415.357	103.339	430.110	360.606	377.190	0.0018126	0.00071523	0.00014817	754.82	7.0464e-06	5.6647e-06	962.18	311.66	5.9107e-06	8.4451e-06	486.73	222.32	132.31	61.93	5.7551e-06	117.76	0.00022248	0.00015373	4.6518e-05	736.47	1.691e-06	1.6594e-06	934.82	301.94	1.6581e-06	1.6492e-06	471.53	213.73	126.84	60.322	1.8746e-06	114.01	136.460	190.303	192.308	113.745	241.267	236.315	113.159	118.735	260.490	266.439	117.328	121.052	121.507	126.681	231.352	124.526	-8191	255	
3557.921	1	1	0	0	0.33268	0.20649	0.19992	0.060135	0.075376	0.16713	0.071157	0.046909	0.22108	0.2433	0.17107	0.43521	0.1212	0.074748	0.32688	0.28213	-3.175	-2.9688	-3.3833	-3.4792	-2.9292	-3.4667	-3.5396	-3.2542	-3.5771	-3.1479	-3.5771	-3.6292	-3.4583	-3.7812	-3.3604	-3.2375	148.636	124.751	195.368	315.973	155.480	190.588	435.967	127.952	385.027	272.105	423.821	371.722	378.198	157.110	229.846	126.328	0.0016539	0.00081121	0.00021766	754.96	7.4425e-06	6.8816e-06	966.16	312.34	5.0512e-06	6.0925e-06	489.31	221.42	131.58	62.101	6.3946e-06	117.39	0.00021941	0.00015892	4.6356e-05	736.23	1.6896e-06	1.7433e-06	937.93	302.7	1.6807e-06	1.7771e-06	473.35	213.8	126.52	60.339	1.8514e-06	113.64	139.346	181.374	173.891	113.575	263.544	252.940	113.143	118.674	225.116	254.935	117.435	120.984	121.469	126.670	260.338	124.419	-8191	255	
3558.017	1	1	0	0	0.070017	0.16877	0.15684	0.088972	0.12543	0.18239	0.10997	0.19228	0.1286	0.10961	0.14206	0.21739	0.046998	0.28525	0.11667	0.19147	-3.2833	-3.1229	-3.2333	-3.7313	-3.0687	-3.5042	-3.675	-3.1875	-3.5667	-3.1271	-3.5312	-3.4875	-3.1479	-3.5792	-3.3792	-3.3563	172.873	201.813	346.895	124.433	220.387	259.564	375.914	425.256	101.081	183.703	380.002	443.482	394.564	408.112	384.789	398.283	0.0017444	0.00049402	0.00020421	756.55	4.1763e-06	5.6042e-06	956.79	308.74	7.6425e-06	5.2134e-06	484.01	220.45	130.44	61.562	3.3101e-06	116.53	0.00021968	0.00016443	4.6069e-05	734.96	1.6812e-06	1.8189e-06	931.82	300.26	1.6995e-06	1.8515e-06	468.54	211.96	125.74	59.978	1.8445e-06	112.55	137.883	185.061	195.073	113.699	226.046	206.566	113.169	118.679	241.123	272.194	117.425	121.063	121.534	126.698	231.466	124.524	-8191	255	
3558.113	1	1	0	0	0.13406	0.023733	0.096844	0.10758	0.30306	0.13435	0.054911	0.13917	0.17036	0.1969	0.39307	0.12433	0.074289	0.15654	0.30569	0.031856	-3.1562	-3.1521	-3.3458	-3.6875	-3.1146	-3.3542	-3.7146	-3.1937	-3.4979	-3.4083	-3.2042	-3.6979	-3.2812	-3.6521	-3.3979	-3.2729	194.941	436.620	207.386	394.241	313.519	414.023	118.478	306.031	101.556	357.650	396.314	179.059	113.966	460.091	383.036	446.040	0.0017432	0.00052417	0.00019067	751.66	7.9747e-06	6.6845e-06	953.54	307.88	6.7082e-06	5.6419e-06	485.55	218.17	130.4	61.374	6.6963e-06	116.31	0.00022551	0.00017047	4.6091e-05	731.77	1.7641e-06	1.8481e-06	928.3	299.17	1.7693e-06	1.8635e-06	467.8	210.77	125.59	59.782	1.765e-06	112.32	136.365	190.517	208.845	113.739	233.491	253.494	113.121	118.955	218.293	268.446	117.492	121.100	121.618	126.664	282.638	124.531	-8191	255	
3558.209	1	1	0	0	0.081875	0.14334	0.037842	0.14616	0.064788	0.17328	0.38581	0.19018	0.13185	0.072444	0.15349	0.20403	0.3425	0.12998	0.20954	0.24009	-3.2792	-3.3417	-3.175	-3.6271	-3.1146	-3.3812	-3.7146	-3.1896	-3.4333	-3.4042	-3.2313	-3.6792	-3.2729	-3.3083	-3.6521	-3.2896	450.884	379.130	196.967	451.336	168.533	281.865	401.209	300.355	425.144	350.368	391.171	406.148	135.712	285.806	323.554	440.466	0.0017501	0.00054332	0.00024449	754.49	7.2793e-06	6.644e-06	962.47	309.74	8.3381e-06	4.3873e-06	485.36	220.68	131.09	62.069	2.8907e-06	116.87	0.00023193	0.00017254	4.5774e-05	734.35	1.8267e-06	1.8762e-06	933.36	300.71	1.8661e-06	1.8564e-06	470.91	212.78	126.24	60.222	1.7783e-06	113.22	139.821	177.230	165.567	113.822	238.141	247.819	113.057	118.854	219.837	241.791	117.340	120.920	121.776	126.678	252.475	124.673	-8191	255	
3558.305	1	1	0	0	0.090609	0.094081	0.25475	0.17036	0.15245	0.16521	0.16449	0.17821	0.045575	0.12997	0.14704	0.26374	0.095712	0.16863	0.10451	0.20697	-3.1271	-3.2771	-3.1813	-3.6521	-3.0833	-3.4083	-3.5521	-3.1771	-3.4146	-3.5125	-3.2208	-3.7625	-3.3854	-3.4146	-3.5875	-3.3146	111.903	245.191	263.691	419.837	334.672	338.825	407.656	198.194	403.247	349.488	412.130	403.924	453.639	391.997	183.872	406.128	0.0017427	0.00041043	0.00015668	759.97	6.0129e-06	6.4425e-06	962.61	311.89	6.0768e-06	9.4259e-06	490.07	221.99	132.45	62.33	5.2466e-06	117.26	0.00024028	0.00016848	4.5412e-05	738.19	1.8731e-06	1.8812e-06	936.78	303.11	1.9119e-06	1.8352e-06	473.93	213.67	127.17	60.556	1.8004e-06	113.29	139.542	177.954	213.447	113.641	236.275	234.470	113.056	118.802	218.904	245.180	117.253	120.889	121.549	126.799	248.564	124.588	-8191	255	
3558.426	1	1	0	0	0.16757	0.18321	0.096074	0.21833	0.21749	0.21711	0.17649	0.11434	0.02001	0.3193	0.34568	0.16681	0.18043	0.38462	0.061237	0.1524	-3.0938	-3.3583	-3.1312	-3.4042	-3.4042	-3.1708	-3.7042	-3.3417	-3.3958	-3.6	-3.3667	-3.6562	-3.4333	-3.3896	-3.6354	-3.3792	325.447	188.392	146.608	105.138	110.036	271.237	104.547	275.827	295.087	445.653	375.272	151.560	431.618	101.124	268.626	451.749	0.0017625	0.00097328	0.00016017	757.28	6.9478e-06	7.0373e-06	962.76	312.3	7.2515e-06	4.9191e-06	485.72	220.48	131.7	61.721	6.5272e-06	116.01	0.00024113	0.00016738	4.4634e-05	737.69	1.9244e-06	1.7778e-06	933.44	302.77	1.9461e-06	1.7691e-06	469.84	212.3	126.86	60.142	1.7197e-06	112.42	138.391	176.486	182.853	113.839	249.378	209.738	112.915	118.855	238.634	257.941	117.670	120.849	121.495	126.476	262.447	124.417	-8191	255	
3558.522	1	1	0	0	0.32592	0.14535	0.079561	0.23936	0.32513	0.17712	0.13167	0.15292	0.30797	0.024866	0.21987	0.24338	0.016542	0.23664	0.25494	0.35323	-3.0292	-3.5271	-3.0792	-3.4396	-3.2833	-3.2604	-3.7479	-3.2104	-3.2687	-3.5604	-3.4042	-3.6604	-3.3917	-3.3854	-3.7	-3.3979	298.885	269.205	348.780	131.338	111.835	210.773	370.560	453.643	136.808	163.106	381.398	377.403	297.753	438.826	431.425	452.715	0.0017169	0.00085626	0.00013243	754.78	6.1053e-06	4.4227e-06	961.56	313.09	8.3271e-06	5.7148e-06	489.56	221.09	132.69	62.22	5.4995e-06	117.05	0.00023981	0.00016124	4.4615e-05	735.68	1.8646e-06	1.782e-06	933.07	303.66	1.9217e-06	1.7516e-06	471.08	213.45	127.68	60.509	1.7775e-06	113.09	138.764	183.524	176.327	113.770	262.702	221.982	112.892	118.528	245.611	265.389	117.481	121.119	121.823	126.587	237.491	124.655	-8191	255	
3558.618	1	1	0	0	0.095266	0.07335	0.047068	0.29134	0.15583	0.087148	0.14748	0.11606	0.10604	0.15318	0.23685	0.29056	0.25774	0.1572	0.10573	0.41582	-3.05	-3.5271	-3.0187	-3.5938	-3.35	-3.1729	-3.6542	-3.2375	-3.3438	-3.4562	-3.4104	-3.6083	-3.4792	-3.2333	-3.5396	-3.4667	297.803	438.021	269.770	431.027	180.007	217.726	405.098	159.923	333.167	316.927	390.135	418.539	427.514	409.518	312.058	378.374	0.001783	0.00067931	0.00017062	762.4	5.4946e-06	6.5942e-06	968.37	313.08	8.5041e-06	6.8352e-06	489.16	222.7	133.28	62.402	5.6787e-06	117.89	0.0002347	0.00016009	4.5052e-05	740.14	1.8622e-06	1.7851e-06	938.4	303.97	1.8403e-06	1.6926e-06	473.9	215.07	128.21	60.767	1.7986e-06	114.44	138.289	209.376	206.373	113.585	240.047	230.037	112.949	118.657	221.412	245.521	117.222	120.903	121.671	126.528	271.455	124.424	-8191	255	
3558.714	1	1	0	0	0.017414	0.20145	0.12037	0.060532	0.085227	0.20454	0.19415	0.083433	0.13653	0.10575	0.16556	0.18935	0.20328	0.074223	0.044036	0.30107	-2.8812	-3.5312	-3.0604	-3.2042	-3.3917	-3.0396	-3.6104	-3.4	-3.1625	-3.7062	-3.2583	-3.3583	-3.5917	-3.1063	-3.5812	-3.4	359.210	458.670	397.118	294.056	399.928	231.210	326.618	134.042	130.342	439.534	451.343	117.246	135.811	143.747	381.819	393.543	0.0017743	0.00054877	0.00016198	757.56	8.1603e-06	4.999e-06	963.95	312.59	8.6601e-06	5.6565e-06	488.17	222.68	132.64	62.173	6.1712e-06	117.05	0.00023177	0.00015534	4.5335e-05	739.32	1.7705e-06	1.7277e-06	938.14	303.44	1.8002e-06	1.6894e-06	472.52	214.22	127.65	60.597	1.8301e-06	113.42	138.795	194.214	190.621	113.762	237.098	265.117	113.023	118.853	225.782	260.873	117.295	120.914	121.539	126.611	258.087	124.564	-8191	255	
3558.809	1	1	0	0	0.022757	0.20461	0.10228	0.17076	0.26937	0.12405	0.20315	0.14361	0.017423	0.16141	0.26164	0.074576	0.24367	0.19275	0.13129	0.23059	-2.7375	-3.5229	-3.2208	-3.4	-3.3604	-3.125	-3.4604	-3.4125	-3.025	-3.5271	-3.3271	-3.3771	-3.6146	-3.3229	-3.275	-3.5917	174.243	305.593	411.865	375.960	137.329	218.331	419.118	443.690	181.214	180.277	340.697	342.304	436.561	417.578	313.881	370.284	0.0017474	0.0006988	0.00017393	755.88	5.4825e-06	7.2555e-06	952.92	312.7	5.9442e-06	5.2789e-06	485.98	220.44	132.52	62.182	3.8567e-06	116.51	0.00022869	0.00015423	4.6879e-05	736.27	1.7349e-06	1.7206e-06	929.85	302.26	1.7769e-06	1.6655e-06	469.26	212.47	127.32	60.444	1.9031e-06	112.83	138.567	183.509	191.532	113.722	267.153	224.715	113.058	118.717	227.008	246.786	117.386	121.078	121.541	126.660	273.389	124.391	-8191	255	
3558.905	1	1	0	0	0.069448	0.32719	0.12687	0.04214	0.066628	0.2403	0.1752	0.09878	0.21085	0.20964	0.060698	0.15268	0.27656	0.29815	0.014879	0.22231	-2.7875	-3.4604	-3.1083	-3.2646	-3.5312	-3.2708	-3.4813	-3.4688	-2.9167	-3.5292	-3.475	-3.2854	-3.5333	-3.2062	-3.3542	-3.6333	399.787	291.583	282.223	229.910	119.301	412.454	446.932	410.931	329.048	362.351	410.260	403.692	121.680	382.386	302.364	373.277	0.0017484	0.00060534	0.00023444	758.83	5.5239e-06	6.4399e-06	961.23	312.62	5.9756e-06	4.6517e-06	488.13	223.04	132.96	62.359	7.3981e-06	117.5	0.00022737	0.00015586	4.7457e-05	737.32	1.6989e-06	1.7564e-06	934.18	303.59	1.7458e-06	1.7303e-06	472.62	214.5	128.02	60.779	1.8876e-06	113.84	140.181	163.386	182.246	113.862	256.754	219.584	113.044	118.729	250.751	274.429	117.350	120.956	121.673	126.643	254.753	124.499	-8191	255	
3559.001	1	1	0	0	0.18054	0.11197	0.053749	0.17618	0.10771	0.039308	0.25724	0.25573	0.17894	0.15369	0.13068	0.17663	0.090907	0.24146	0.31127	0.25183	-2.625	-3.5771	-3.0938	-2.9167	-3.6583	-3.0833	-3.5667	-3.5104	-3.0021	-3.525	-3.325	-3.2354	-3.575	-3.0646	-3.3271	-3.5208	381.912	378.971	275.806	380.332	399.939	243.715	118.258	376.448	374.376	344.278	357.500	381.346	433.925	437.160	294.645	375.876	0.0017248	0.00070869	0.00018902	755.63	8.5403e-06	7.1205e-06	962.76	314.72	7.9526e-06	6.2658e-06	488.94	222.99	133.09	62.728	5.8875e-06	118.27	0.00022598	0.00016528	4.8144e-05	738.06	1.7023e-06	1.8228e-06	937.69	304.91	1.7582e-06	1.8171e-06	474.62	215.12	128.27	61.033	1.8786e-06	114.63	138.232	182.727	187.275	113.882	247.597	239.616	113.153	118.568	246.285	253.842	117.498	120.949	121.623	126.559	269.923	124.459	-8191	255	
3559.122	1	1	0	0	0.14129	0.075687	0.022116	0.19494	0.22302	0.53725	0.24463	0.06702	0.076584	0.13118	0.2521	0.33338	0.20601	0.17689	0.21216	0.046927	-2.7292	-3.3167	-3.3187	-3.0812	-3.6417	-3.3479	-3.4042	-3.7438	-3.1167	-3.4833	-3.4708	-3.1292	-3.4417	-3.25	-3.2521	-3.7479	266.854	153.866	243.789	432.780	275.252	423.746	408.888	168.058	106.362	444.504	419.954	434.348	412.811	359.305	227.235	355.011	0.0017781	0.00064096	0.00016438	756.41	5.1768e-06	7.886e-06	958.16	312.33	7.8667e-06	7.3014e-06	487.25	221.43	133.19	62.357	7.4307e-06	116.75	0.00022187	0.00016977	4.6469e-05	737.66	1.7331e-06	1.8484e-06	934.24	303.56	1.7429e-06	1.853e-06	471.39	213.79	128.07	60.615	1.8114e-06	113.1	138.179	201.396	188.061	113.645	227.081	235.987	112.956	118.725	241.869	262.969	117.328	120.972	121.666	126.460	250.361	124.603	-8191	255	
3559.218	1	1	0	0	0.10102	0.034975	0.15241	0.21619	0.01968	0.17764	0.28569	0.15085	0.16267	0.25537	0.0092872	0.33311	0.1889	0.15987	0.095225	0.34145	-2.8042	-3.2604	-3.4583	-3.0625	-3.5833	-3.2333	-3.3208	-3.6188	-3.1542	-3.3542	-3.7646	-3.2917	-3.6625	-3.4125	-3.2292	-3.7083	440.973	295.078	279.321	438.627	260.909	143.902	388.403	447.420	445.000	317.635	309.457	416.642	426.818	106.444	404.246	374.028	0.0017379	0.00073314	0.00012735	756.81	2.6701e-06	6.5954e-06	957.09	311.62	8.418e-06	6.9084e-06	484.52	221.55	133.38	62.289	7.295e-06	116.98	0.00022632	0.00016786	4.4823e-05	735.09	1.7321e-06	1.8583e-06	928.96	302.6	1.7623e-06	1.8144e-06	468.86	213.25	128.28	60.708	1.7556e-06	113.2	140.316	201.986	164.239	113.641	208.509	219.408	112.808	118.580	229.207	226.486	117.559	121.002	121.513	126.541	254.015	124.340	-8191	255	
3559.314	1	1	0	0	0.30359	0.16382	0.42126	0.27408	0.17891	0.11049	0.28638	0.27095	0.074023	0.17169	0.084113	0.30173	0.024452	0.17511	0.068684	0.2247	-2.8271	-3.2062	-3.5479	-3.2229	-3.625	-3.3104	-3.2229	-3.4979	-3.2229	-3.275	-3.6479	-3.1708	-3.4333	-3.5854	-3.0396	-3.7458	111.527	289.566	176.814	303.588	187.164	120.585	421.540	354.075	200.842	382.171	419.619	446.794	198.936	454.032	142.219	369.590	0.0017446	0.00069295	0.00013451	757.53	6.2183e-06	4.2907e-06	954.32	311.36	4.7527e-06	6.0539e-06	484.99	221.65	132.97	61.968	6.7069e-06	117.68	0.00022988	0.00016898	4.2813e-05	736.33	1.7692e-06	1.7684e-06	929.22	301.81	1.7782e-06	1.7678e-06	469.4	213.46	127.91	60.471	1.7464e-06	113.45	139.277	171.720	189.617	113.700	228.954	232.846	112.992	118.888	253.904	233.347	117.227	121.055	121.851	126.426	279.980	124.541	-8191	255	
3559.386	1	1	0	0	0.42952	0.27677	0.079447	0.1177	0.21151	0.035326	0.25181	0.20487	0.1902	0.014775	0.39116	0.043492	0.066778	0.08658	0.32607	0.24179	-2.6708	-3.3	-3.4792	-3.1	-3.5021	-3.4188	-3.0271	-3.7375	-3.2438	-3.3146	-3.875	-3.2167	-3.5604	-3.6417	-2.9833	-3.7354	399.639	198.871	410.336	452.199	301.554	221.464	330.026	258.435	133.300	174.625	444.072	422.085	428.523	359.217	431.567	403.069	0.0017248	0.00034234	0.00020067	750.84	5.1412e-06	6.0962e-06	960.01	312.6	7.3401e-06	4.9707e-06	487.23	222.51	133.55	62.474	4.8905e-06	118.48	0.00022952	0.00015767	4.2991e-05	734.41	1.7925e-06	1.7326e-06	931.87	302.85	1.8595e-06	1.7486e-06	471.82	214.93	128.58	60.889	1.7225e-06	114.48	139.723	170.777	196.637	113.603	268.715	240.761	113.070	118.921	204.118	240.488	117.207	121.137	121.623	126.648	251.704	124.428	-8191	255	
3559.506	1	1	0	0	0.15434	0.21032	0.059832	0.30896	0.16494	0.16612	0.13357	0.29567	0.25229	0.22252	0.31262	0.10729	0.31654	0.16748	0.15362	0.23057	-3.0354	-3.3563	-3.4958	-3.1813	-3.5583	-3.4813	-3.1667	-3.6667	-3.3542	-3.3333	-3.8229	-3.2167	-3.3729	-3.675	-3.0667	-3.6896	260.402	449.112	402.229	407.826	460.003	113.847	447.694	393.337	248.494	354.565	155.377	430.466	435.938	387.841	193.883	394.052	0.0017861	0.00058355	0.00021713	756.7	5.667e-06	4.626e-06	956.83	312.95	6.999e-06	5.7767e-06	487.32	221.75	133.68	62.477	5.0308e-06	117.35	0.00023413	0.00015521	4.1387e-05	737	1.7963e-06	1.6545e-06	930.16	303.19	1.8198e-06	1.6889e-06	470.77	213.87	128.43	60.756	1.6727e-06	113.33	137.266	188.030	209.436	113.781	231.506	237.065	112.933	118.783	245.973	271.237	117.139	121.181	121.781	126.488	262.473	124.476	-8191	255	
3559.602	1	1	0	0	0.10576	0.14099	0.15184	0.20767	0.23081	0.22243	0.1251	0.16013	0.11621	0.1839	0.20905	0.17611	0.1109	0.24558	0.077889	0.2329	-2.9125	-3.0083	-3.6021	-3.3167	-3.3125	-3.5167	-3.1542	-3.7896	-3.3833	-3.1667	-3.7104	-3.4917	-3.2229	-3.7271	-3.2583	-3.6083	297.938	236.769	196.876	410.662	216.624	177.837	134.873	392.326	252.469	409.127	414.593	128.202	367.618	450.295	433.892	432.963	0.0017826	0.00055602	0.00015602	755.19	7.001e-06	6.0848e-06	952.42	311.81	5.5294e-06	4.0315e-06	486.22	220.71	133.35	62.214	8.7266e-06	117.16	0.00023146	0.00015343	4.1574e-05	735.67	1.7663e-06	1.6354e-06	928.47	302.51	1.792e-06	1.6615e-06	469.04	213.03	128.26	60.607	1.7207e-06	113.28	136.232	165.105	156.031	113.755	250.337	232.085	113.002	118.802	218.987	267.226	117.304	121.059	121.572	126.590	263.746	124.570	-8191	255	
3559.698	1	1	0	0	0.12273	0.28468	0.091188	0.087029	0.067526	0.12477	0.16426	0.31567	0.22672	0.064262	0.2297	0.1849	0.17003	0.20442	0.18392	0.11731	-2.9979	-2.9958	-3.4813	-3.2792	-3.1167	-3.5354	-3.2854	-3.4625	-3.4729	-3.0521	-3.8854	-3.5062	-3.3396	-3.8271	-3.3167	-3.675	308.242	109.197	395.347	434.682	169.238	138.300	415.061	383.669	379.743	212.266	402.627	375.201	404.516	404.233	210.707	355.949	0.0017354	0.00065726	0.0002138	754.33	5.8562e-06	5.1201e-06	955.57	312.21	6.1598e-06	5.3041e-06	488.4	221.99	133.51	62.426	8.6215e-06	117.82	0.00022772	0.00015619	4.2584e-05	736.27	1.7369e-06	1.6689e-06	928.9	303.13	1.7596e-06	1.6761e-06	471.14	213.92	128.35	60.821	1.7533e-06	114.17	138.888	193.433	201.284	113.698	241.811	218.564	113.124	118.723	219.913	272.852	117.388	120.901	121.680	126.578	254.664	124.740	-8191	255	
3559.795	1	1	0	0	0.24237	0.2545	0.16537	0.31267	0.33646	0.091059	0.17198	0.23171	0.093512	0.099338	0.027911	0.076681	0.10065	0.090029	0.092272	0.31553	-3.2313	-3.0375	-3.5604	-3.3396	-3.2812	-3.5542	-3.2687	-3.4229	-3.4375	-3.0708	-3.6479	-3.5771	-3.3271	-3.6875	-3.2812	-3.5854	139.063	360.293	398.881	427.979	431.368	176.042	410.485	371.420	137.261	395.737	279.917	391.980	448.821	186.871	173.425	353.251	0.0017319	0.00056727	0.00022594	758.69	6.6776e-06	7.5149e-06	960.17	313.21	9.4587e-06	5.5534e-06	487.95	222.82	132.82	62.886	6.126e-06	118.26	0.00022815	0.00015342	4.4735e-05	737.58	1.7377e-06	1.6641e-06	933.05	303.99	1.7893e-06	1.7141e-06	472.7	215	128.49	61.153	1.8689e-06	114.43	137.699	196.920	210.466	113.559	253.458	241.704	113.239	118.718	229.049	278.242	117.401	120.918	121.740	126.646	244.740	124.588	-8191	255	
3559.913	1	1	0	0	0.064112	0.21861	0.26011	0.18463	0.051428	0.11311	0.049613	0.10336	0.12108	0.10436	0.21013	0.1156	0.2234	0.17703	0.098254	0.071237	-3.225	-3.0542	-3.6729	-3.175	-3.1875	-3.5875	-3.3312	-3.2313	-3.4896	-3.1063	-3.8	-3.5896	-3.2333	-3.6875	-3.3646	-3.5396	121.864	241.751	456.381	384.401	389.299	118.320	204.016	424.070	151.375	414.665	377.034	416.219	412.678	123.732	422.821	258.853	0.0017353	0.00063129	0.00019094	754.38	5.0292e-06	7.0492e-06	959.7	312.9	1.0409e-05	2.6132e-06	486.13	221.66	133.05	62.505	7.0785e-06	116.93	0.00022602	0.00015697	4.6787e-05	735.39	1.7767e-06	1.7313e-06	929.49	303.45	1.7666e-06	1.7405e-06	470.14	213.46	128.22	60.802	1.9521e-06	113.12	138.664	170.593	182.195	113.650	253.630	249.397	112.809	118.770	231.768	247.434	117.393	120.921	121.787	126.583	249.632	124.487	-8191	255	
3559.987	1	1	0	0	0.1495	0.072975	0.14809	0.091175	0.030092	0.11425	0.34904	0.23478	0.07704	0.13331	0.10896	0.33978	0.17677	0.34455	0.17885	0.11965	-3.3125	-3.1188	-3.4313	-3.4125	-3.2313	-3.6583	-3.4938	-3.1979	-3.6771	-3.0292	-3.6146	-3.6333	-3.2146	-3.7938	-3.525	-3.4188	248.679	154.239	125.042	435.178	376.872	356.577	423.545	351.889	409.054	340.268	347.001	402.534	421.216	442.564	354.503	353.981	0.0016687	0.00028564	0.00018362	755.44	2.6924e-06	9.2306e-06	956.3	312.45	6.6717e-06	8.4867e-06	484.04	221.72	133.61	62.713	5.9461e-06	117.8	0.00022607	0.0001619	4.7707e-05	733.83	1.6919e-06	1.7631e-06	929.27	302.78	1.6973e-06	1.7961e-06	469.86	213.81	128.39	61.042	1.9192e-06	113.95	137.692	199.095	197.671	113.966	256.138	224.020	113.008	118.648	219.785	245.566	117.285	120.854	121.442	126.562	257.337	124.234	-8191	255	
3560.106	1	1	0	0	0.12749	0.23213	0.26002	0.041141	0.12433	0.12128	0.21588	0.12205	0.072622	0.12259	0.15732	0.13851	0.24876	0.15048	0.083959	0.1769	-3.2292	-3.2687	-3.2958	-3.5833	-3.2729	-3.4938	-3.3646	-3.3375	-3.5667	-3.2646	-3.5583	-3.7188	-3.2729	-3.5604	-3.425	-3.4521	117.702	392.845	386.414	389.655	207.779	355.480	405.526	417.607	152.936	406.480	358.650	416.504	454.789	410.513	394.248	347.635	0.0017346	0.00059017	0.00025181	752.66	7.2247e-06	3.9212e-06	957.94	313.93	5.8326e-06	4.8296e-06	489.02	223.94	134.56	63.285	5.4832e-06	119.51	0.00022195	0.00016659	4.8257e-05	736.11	1.7025e-06	1.831e-06	932.69	304.83	1.7097e-06	1.8848e-06	474.41	215.82	129.41	61.697	1.873e-06	115.64	138.428	181.663	195.061	113.577	258.850	281.765	113.139	118.679	215.401	253.546	117.448	121.113	121.499	126.442	242.106	124.565	-8191	255	
3560.202	1	1	0	0	0.28299	0.22807	0.15955	0.139	0.23475	0.1184	0.20866	0.14234	0.044336	0.16976	0.2874	0.050685	0.19096	0.20966	0.12912	0.19579	-3.0938	-3.2354	-3.0979	-3.5646	-3.0042	-3.4146	-3.5458	-3.3354	-3.5812	-3.4271	-3.4875	-3.8104	-3.3292	-3.4542	-3.6063	-3.3937	407.205	115.488	402.079	423.374	398.110	316.349	377.586	390.555	421.787	107.490	380.725	129.192	458.918	111.439	173.945	384.204	0.0018175	0.00042059	0.00017055	758.05	6.0839e-06	8.3774e-06	966.36	317.63	7.3542e-06	3.8153e-06	492.66	225.08	135.11	63.679	5.8115e-06	119.79	0.0002281	0.00017867	4.8159e-05	740.7	1.7832e-06	1.9025e-06	937.81	306.61	1.7991e-06	1.9331e-06	476.19	216.28	129.84	61.868	1.8373e-06	115.83	139.708	177.331	190.301	113.780	220.194	218.890	112.932	118.685	241.506	261.892	117.422	120.931	121.611	126.580	244.822	124.527	-8191	255	
3560.298	1	1	0	0	0.11043	0.14551	0.16088	0.20271	0.34643	0.2582	0.3438	0.14297	0.084689	0.313	0.20948	0.47963	0.0070011	0.12636	0.2281	0.19893	-3.1042	-3.2229	-3.2667	-3.7125	-3.0604	-3.3063	-3.6958	-3.1625	-3.6937	-3.3875	-3.3667	-3.7146	-3.1208	-3.4958	-3.4042	-3.3542	393.202	379.108	212.156	267.925	280.918	385.706	391.979	345.989	459.832	100.687	447.325	103.185	430.694	164.228	202.593	395.801	0.0018291	0.00051325	0.0001577	756.44	8.3646e-06	5.9361e-06	959.63	314.28	9.2894e-06	4.9897e-06	487.65	222.02	134.3	62.989	4.9839e-06	117.86	0.000234	0.00017581	4.5841e-05	735.84	1.8186e-06	1.8913e-06	930.93	304.65	1.835e-06	1.9034e-06	471.56	214.38	128.89	61.296	1.8046e-06	114.26	137.103	163.369	184.270	113.617	263.211	261.923	113.178	118.668	216.953	236.995	117.416	120.847	121.638	126.525	240.227	124.518	-8191	255	
3560.394	1	1	0	0	0.099811	0.1897	0.19317	0.13887	0.11459	0.13779	0.17322	0.20685	0.16719	0.15569	0.055795	0.24764	0.11659	0.34432	0.2243	0.3397	-3.1125	-3.2917	-3.1188	-3.5021	-3.2542	-3.3167	-3.5583	-3.3083	-3.4917	-3.4271	-3.3167	-3.6208	-3.2562	-3.3396	-3.5875	-3.4292	356.058	356.990	104.154	432.968	265.288	205.906	431.855	438.248	171.648	113.070	381.083	445.363	141.455	458.502	303.201	449.206	0.0017148	0.00057844	9.647e-05	757.75	6.0162e-06	4.8203e-06	956.79	313.18	7.2323e-06	7.1975e-06	487.71	222.75	134.38	63.341	7.6357e-06	118.61	0.00023516	0.00017398	4.6497e-05	735.15	1.9075e-06	1.9009e-06	930.03	303.57	1.9381e-06	1.9036e-06	471.94	214.9	129.22	61.454	1.8105e-06	115.09	139.750	150.083	208.758	113.809	236.542	224.414	113.002	118.832	245.463	258.600	117.336	121.058	121.654	126.660	247.116	124.603	-8191	255	
3560.515	1	1	0	0	0.047202	0.43615	0.24054	0.22891	0.1749	0.27358	0.050698	0.23292	0.20889	0.21599	0.20585	0.29528	0.30408	0.10175	0.1952	0.3283	-3.0667	-3.1917	-3.0729	-3.4646	-3.3667	-3.0187	-3.5917	-3.1771	-3.1125	-3.4083	-3.1458	-3.5896	-3.4208	-3.275	-3.4271	-3.4583	299.275	110.742	420.185	415.692	433.178	115.353	287.653	430.887	388.960	194.156	415.112	452.573	380.757	109.306	114.071	363.724	0.0017761	0.00045676	0.00015009	757.29	5.6926e-06	7.091e-06	956.81	312.34	4.5774e-06	6.7999e-06	485.98	223	134.27	62.862	4.5752e-06	119.58	0.00025014	0.00016666	4.443e-05	737.6	1.9521e-06	1.8506e-06	930.68	303.58	1.9373e-06	1.8161e-06	471.71	215	129.15	61.246	1.7341e-06	115.6	137.406	188.656	193.052	113.695	223.132	226.806	113.038	118.880	231.817	249.779	117.513	121.103	121.448	126.502	238.050	124.565	-8191	255	
3560.611	1	1	0	0	0.094218	0.094451	0.3807	0.30015	0.18257	0.1062	0.23646	0.15833	0.15883	0.13164	0.11763	0.34008	0.1181	0.0767	0.17406	0.17576	-2.9458	-3.2896	-3.0792	-3.6917	-3.4021	-3.1937	-3.6583	-3.0938	-3.3688	-3.4771	-3.2417	-3.4604	-3.4896	-3.2	-3.6146	-3.4271	398.926	433.466	219.160	376.370	281.663	278.149	432.742	409.921	386.739	345.336	420.656	428.544	370.718	439.673	354.775	423.264	0.0017159	0.00071189	0.00016968	755.67	5.252e-06	6.5461e-06	957.02	314.09	7.5809e-06	7.5325e-06	486.65	222.59	133.48	62.778	6.8478e-06	118.82	0.0002417	0.00016483	4.386e-05	736.15	1.9371e-06	1.789e-06	929.55	303.78	1.904e-06	1.8064e-06	470.77	214.77	128.84	61.13	1.759e-06	115.02	140.167	167.961	203.512	113.481	247.696	223.274	113.131	118.747	245.700	244.408	117.320	121.280	121.652	126.599	237.944	124.581	-8191	255	
3560.683	1	1	0	0	0.11866	0.14366	0.40303	0.050225	0.29838	0.11128	0.19204	0.2427	0.12614	0.13423	0.11103	0.031381	0.0931	0.2575	0.088644	0.28716	-2.8688	-3.4229	-3.0687	-3.4542	-3.3167	-3.0333	-3.75	-3.1875	-3.4188	-3.6417	-3.2292	-3.6979	-3.6771	-3.3625	-3.5875	-3.3521	394.832	370.688	419.121	415.567	101.055	190.223	313.708	399.933	430.956	211.996	421.866	232.417	359.120	370.873	296.624	401.826	0.0017739	0.00057844	0.00015945	753.76	4.394e-06	4.5565e-06	954.34	311.7	8.0296e-06	5.4056e-06	484.42	221.82	134.65	62.77	2.411e-06	118.53	0.00024151	0.00016265	4.4502e-05	734.37	1.8488e-06	1.7427e-06	924.98	302.43	1.845e-06	1.7285e-06	467.93	214.32	129.14	61.105	1.7836e-06	114.66	139.041	176.503	190.215	113.919	208.022	266.266	112.894	118.579	234.345	230.435	117.215	121.053	121.560	126.766	244.578	124.409	-8191	255	
3560.779	1	1	0	0	0.26958	0.070775	0.16461	0.15139	0.073819	0.14533	0.23372	0.18389	0.18255	0.057358	0.2306	0.067037	0.26534	0.42257	0.18315	0.11995	-2.9188	-3.5062	-3.0958	-3.4062	-3.525	-3.0667	-3.5083	-3.3604	-3.3021	-3.5167	-3.3333	-3.7438	-3.5729	-3.3292	-3.3354	-3.5771	458.659	351.698	103.964	370.761	302.838	171.977	338.185	400.173	382.119	252.584	428.236	427.316	457.674	389.410	195.000	136.281	0.0017539	0.0005367	0.00020186	757.07	6.6752e-06	3.8402e-06	956.48	312.98	7.3975e-06	6.0907e-06	486.96	222.94	134.39	63.319	2.7676e-06	119.52	0.00023086	0.00015679	4.5729e-05	735.79	1.818e-06	1.6921e-06	929.5	304.31	1.8355e-06	1.7043e-06	471.22	215.37	129.47	61.531	1.8329e-06	115.81	138.100	180.670	199.958	113.725	233.015	249.599	112.938	118.618	238.896	236.699	117.116	121.031	121.390	126.729	248.067	124.406	-8191	255	
3560.898	1	1	0	0	0.15861	0.10502	0.26761	0.14232	0.051684	0.1587	0.20418	0.054332	0.053635	0.071304	0.3136	0.18701	0.45095	0.073154	0.12918	0.26031	-2.5354	-3.4833	-3.0479	-3.4542	-3.4688	-3.0104	-3.5354	-3.4875	-3.2083	-3.5833	-3.2833	-3.3354	-3.5312	-3.2229	-3.5646	-3.4917	312.429	179.658	195.625	393.998	290.930	147.746	330.025	176.932	194.268	172.280	443.052	373.165	418.560	368.691	377.841	123.454	0.0018017	0.00044643	0.00016736	758.92	5.4823e-06	2.858e-06	959.48	315.87	5.3331e-06	9.2526e-06	489.78	224.67	135.31	63.403	3.8855e-06	120.66	0.00023345	0.0001582	4.7728e-05	737.44	1.7882e-06	1.7787e-06	933.7	305.96	1.8415e-06	1.7343e-06	473.97	216.83	130.19	61.777	1.9379e-06	116.61	140.422	185.669	174.834	113.562	242.411	214.450	112.990	118.888	231.330	256.295	117.366	121.065	121.329	126.708	249.326	124.588	-8191	255	
3560.994	1	1	0	0	0.25551	0.15632	0.17266	0.14965	0.12036	0.19242	0.13456	0.47303	0.031288	0.031121	0.28931	0.11604	0.28377	0.14383	0.069857	0.20836	-2.5667	-3.4042	-3.0958	-3.2	-3.6271	-3.1292	-3.5458	-3.4313	-3.2375	-3.5979	-3.4104	-3.1583	-3.5	-3.25	-3.3917	-3.7583	357.226	357.002	134.188	126.814	139.158	404.486	395.488	401.276	460.017	204.403	453.048	394.526	455.738	430.015	193.358	398.776	0.0018187	0.00060143	0.00021798	754.61	4.2906e-06	3.6743e-06	956.44	315.51	9.9076e-06	6.8237e-06	487.39	222.89	134.68	63.138	5.2966e-06	119.94	0.00023552	0.00016207	4.8029e-05	735.36	1.7579e-06	1.7526e-06	930.95	304.82	1.8092e-06	1.7296e-06	471.5	214.99	129.26	61.522	1.9457e-06	115.82	138.746	166.751	176.718	113.644	218.645	252.755	113.198	118.733	241.740	238.590	117.424	121.096	121.709	126.667	269.996	124.645	-8191	255	
3561.090	1	1	0	0	0.0919	0.17502	0.17655	0.3011	0.10488	0.1809	0.28644	0.091703	0.19302	0.13806	0.23648	0.16319	0.21472	0.053976	0.10745	0.29469	-2.7375	-3.3396	-3.2562	-3.0771	-3.4396	-3.1292	-3.6417	-3.4625	-3.1229	-3.4667	-3.4854	-3.5208	-3.6479	-3.2812	-3.3167	-3.7438	430.733	346.576	252.285	374.126	359.123	429.044	337.956	116.390	165.520	366.881	435.298	407.385	421.659	360.748	185.903	390.766	0.0017333	0.00049998	0.00010147	754.29	4.8052e-06	3.389e-06	952.99	313.08	4.9259e-06	7.7881e-06	487.72	222.34	134.35	63.277	5.2923e-06	118.76	0.00023243	0.00016459	5.0006e-05	733.82	1.7215e-06	1.8221e-06	927.34	303.78	1.7486e-06	1.8204e-06	470.41	214.59	129.22	61.497	1.9508e-06	114.97	136.585	208.122	191.392	113.737	261.872	242.808	112.867	118.883	222.204	248.387	117.462	121.056	121.678	126.543	256.542	124.473	-8191	255	
3561.186	1	1	0	0	0.30276	0.093616	0.1178	0.17943	0.22349	0.067718	0.174	0.44385	0.12681	0.054628	0.1565	0.11301	0.17226	0.12723	0.16083	0.24144	-2.6896	-3.3417	-3.2833	-3.2562	-3.4271	-3.0958	-3.4813	-3.5312	-3.1354	-3.4792	-3.4688	-3.2542	-3.4583	-3.4458	-3.1688	-3.7479	328.110	112.533	209.285	441.931	344.057	299.393	333.911	114.782	193.014	104.083	359.003	439.983	187.504	422.549	104.323	368.556	0.0017566	0.00061141	0.00025162	755.38	6.9058e-06	8.9434e-06	959.75	312.86	9.5596e-06	4.3945e-06	489.83	223.32	134.27	63.158	5.8295e-06	119.53	0.00022795	0.00017546	4.897e-05	735.37	1.7464e-06	1.9033e-06	929.41	304.21	1.7961e-06	1.8938e-06	473.83	215.51	129.37	61.704	1.9333e-06	115.84	138.912	166.721	186.177	113.886	247.810	231.143	113.048	118.614	228.819	250.530	117.512	121.076	121.754	126.749	267.752	124.527	-8191	255	
3561.282	1	1	0	0	0.20989	0.24342	0.083618	0.097886	0.084046	0.089893	0.16073	0.046456	0.35112	0.24734	0.39123	0.27577	0.15923	0.066179	0.076995	0.20046	-2.6875	-3.3438	-3.1979	-3.2938	-3.5146	-3.2958	-3.3042	-3.7687	-3.1292	-3.4813	-3.4562	-3.3042	-3.7021	-3.3	-3.1417	-3.5	365.426	348.869	423.992	455.377	361.215	310.563	457.018	199.946	288.610	229.963	412.836	329.395	387.981	153.229	448.646	385.372	0.0018087	0.00051596	0.00023024	756.14	6.8338e-06	2.9837e-06	963.64	315.49	5.2854e-06	3.102e-06	490.92	224.38	135.16	63.529	5.8758e-06	120.38	0.00023285	0.00017834	4.7136e-05	735.13	1.7574e-06	1.8947e-06	935.34	306.12	1.802e-06	1.9418e-06	475.12	216.39	129.91	61.924	1.8872e-06	116.5	138.276	173.972	194.587	113.968	240.505	229.464	113.047	118.873	228.020	240.263	117.401	121.186	121.754	126.608	265.125	124.670	-8191	255	
3561.378	1	1	0	0	0.13295	0.12326	0.28925	0.15659	0.16257	0.079391	0.26455	0.083177	0.23063	0.12248	0.33718	0.23056	0.35561	0.29889	0.21819	0.34375	-2.9375	-3.0667	-3.65	-2.9688	-3.4625	-3.3792	-3.3021	-3.7354	-3.2417	-3.3	-3.7479	-3.1854	-3.4354	-3.5604	-3.2604	-3.8083	229.976	423.057	411.891	286.149	109.372	429.800	417.560	291.729	421.567	434.502	418.143	436.759	373.015	423.836	141.621	390.544	0.0017762	0.0008082	0.0001771	751.52	6.215e-06	6.9423e-06	958.86	314.35	8.5369e-06	5.0394e-06	490.76	223.17	134.01	62.995	7.0514e-06	118.66	0.00023911	0.0001761	4.55e-05	735.01	1.8412e-06	1.9114e-06	930.87	304.72	1.886e-06	1.8612e-06	473.04	215.22	129.29	61.493	1.8406e-06	114.76	139.804	183.969	144.062	113.769	219.375	217.879	113.254	118.547	215.195	248.714	117.342	120.918	121.440	126.596	253.705	124.496	-8191	255	
3561.475	1	1	0	0	0.068794	0.40029	0.048599	0.075076	0.12334	0.19312	0.14473	0.13632	0.20436	0.13353	0.085759	0.1164	0.26918	0.070913	0.088715	0.22243	-2.8875	-3.1375	-3.4167	-3.0708	-3.375	-3.5229	-3.1417	-3.6354	-3.2833	-3.3792	-3.6208	-3.3375	-3.4146	-3.4062	-3.2542	-3.75	297.355	362.115	412.425	347.207	124.041	181.713	400.502	153.969	390.706	284.551	123.423	373.614	419.406	451.668	292.659	415.005	0.0017715	0.0010074	0.00017879	752.31	4.6971e-06	4.7047e-06	952.72	312.61	7.5907e-06	4.6954e-06	489.54	223.53	135.04	63.128	5.7461e-06	118.59	0.00024052	0.00016967	4.4967e-05	732.6	1.8824e-06	1.8592e-06	926.76	303.91	1.9541e-06	1.8648e-06	472.9	215.19	129.67	61.583	1.8139e-06	114.9	138.013	181.832	185.261	113.749	199.160	259.347	112.908	118.776	222.564	259.053	117.405	120.999	121.419	126.627	253.587	124.570	-8191	255	
3561.595	1	1	0	0	0.25436	0.12798	0.060405	0.23994	0.30558	0.039094	0.065059	0.28876	0.10336	0.036112	0.16067	0.18364	0.2314	0.087802	0.18261	0.13537	-2.9583	-3.3292	-3.5646	-3.2646	-3.4667	-3.4792	-3.125	-3.6063	-3.1271	-3.2938	-3.7771	-3.35	-3.3896	-3.4833	-3.15	-3.6229	265.532	322.237	378.852	380.346	312.890	226.517	124.477	405.007	456.672	340.725	397.156	135.059	198.093	399.448	240.922	336.585	0.0017236	0.00078794	0.00018064	755.38	6.7031e-06	6.3248e-06	955.41	313.71	7.0534e-06	5.2181e-06	490.04	223.58	134.39	63.377	4.5014e-06	120.19	0.00024794	0.00016799	4.4454e-05	734.41	1.9341e-06	1.7979e-06	929.42	304.5	1.9309e-06	1.8248e-06	474.02	216.06	129.3	61.753	1.8199e-06	116.28	140.097	189.351	193.760	113.602	270.321	270.681	113.017	119.015	217.553	270.587	117.500	121.042	121.866	126.604	275.770	124.509	-8191	255	
3561.691	1	1	0	0	0.11886	0.3761	0.25099	0.13245	0.14332	0.18812	0.055584	0.20153	0.2203	0.059473	0.12517	0.2245	0.081357	0.053823	0.23642	0.39297	-3.0354	-3.1104	-3.6188	-3.2125	-3.3458	-3.4917	-3.1562	-3.4875	-3.4437	-2.8229	-3.6417	-3.3417	-3.3479	-3.8354	-3.0729	-3.7479	140.651	415.223	178.180	418.148	360.660	229.640	134.758	395.282	124.947	200.011	150.603	110.373	141.575	105.230	141.550	379.894	0.0018118	0.00087805	0.00020076	756.65	5.8073e-06	5.0686e-06	963.2	315.43	9.2749e-06	6.6637e-06	495.79	225.26	135.36	63.849	5.6302e-06	120.05	0.00024387	0.00016992	4.442e-05	736.29	1.9269e-06	1.8064e-06	935.33	306.7	1.9252e-06	1.7958e-06	477.8	217.49	129.99	62.041	1.8154e-06	116.4	138.252	166.679	201.113	113.858	243.246	233.730	113.094	118.855	244.538	269.571	117.337	121.141	121.846	126.487	227.479	124.750	-8191	255	
3561.788	1	1	0	0	0.29081	0.1733	0.11093	0.026213	0.27983	0.07206	0.34557	0.22645	0.23083	0.13574	0.22747	0.16526	0.14324	0.21557	0.37165	0.34232	-2.975	-3.1625	-3.4562	-3.2708	-3.275	-3.5229	-3.1833	-3.4458	-3.4104	-3.2729	-3.7021	-3.2667	-3.2771	-3.7146	-3.0958	-3.5438	158.837	401.031	355.825	441.498	241.414	253.736	413.145	417.720	299.451	210.168	379.602	446.753	159.037	370.916	206.462	365.256	0.0017531	0.00061757	0.00016743	755.88	6.7261e-06	4.8799e-06	958.14	313.6	6.2593e-06	7.7192e-06	490.45	224.08	135.2	63.931	6.992e-06	119.82	0.00024526	0.00016755	4.5738e-05	734.1	1.9085e-06	1.7469e-06	930.44	305.08	1.8806e-06	1.7782e-06	474.95	216	129.73	62.065	1.818e-06	115.94	139.951	172.038	189.306	114.078	240.769	251.076	113.066	118.900	245.373	251.765	117.359	120.932	121.696	126.655	272.100	124.528	-8191	255	
3561.884	1	1	0	0	0.049266	0.08567	0.12792	0.18737	0.23322	0.12702	0.22888	0.26627	0.35545	0.12383	0.14614	0.12396	0.17353	0.30382	0.1693	0.41313	-3.1083	-3.0083	-3.3875	-3.3708	-3.0104	-3.3187	-3.3396	-3.3979	-3.5583	-3.1083	-3.625	-3.4021	-3.2313	-3.575	-3.2458	-3.4458	165.112	303.661	351.772	141.446	268.726	448.334	435.944	385.768	307.460	379.971	137.202	401.319	226.928	405.740	423.723	406.262	0.0017725	0.0008215	0.00022722	758.38	6.2783e-06	4.2632e-06	962.9	315.92	6.7286e-06	3.7719e-06	493.45	225.49	135.91	64.048	6.8791e-06	120.48	0.00023128	0.00016043	4.5252e-05	736.83	1.8005e-06	1.674e-06	933.21	307.17	1.8257e-06	1.7074e-06	478.6	217.64	130.72	62.342	1.8915e-06	116.72	138.590	193.776	203.004	114.038	269.824	236.418	112.964	118.856	230.328	242.797	117.515	121.137	121.678	126.546	229.813	124.557	-8191	255	
3561.978	1	1	0	0	0.093279	0.20723	0.25	0.1741	0.038541	0.1122	0.13942	0.22514	0.24167	0.17793	0.20665	0.16475	0.060424	0.22285	0.25205	0.13627	-3.1188	-3.0167	-3.3333	-3.4729	-3.0062	-3.6646	-3.1125	-3.4708	-3.5375	-3.1021	-3.7	-3.4458	-3.3396	-3.5687	-3.1729	-3.4604	190.111	212.000	156.567	358.982	235.331	357.347	412.026	354.609	314.750	454.433	134.594	113.843	335.665	417.622	115.757	402.862	0.001796	0.00085518	0.00021719	758.68	4.9347e-06	3.189e-06	964.08	316.77	5.0938e-06	8.0011e-06	497.32	226.82	135.98	64.315	6.4106e-06	121.86	0.00023232	0.00015538	4.7635e-05	739.96	1.7806e-06	1.7355e-06	939.34	308.52	1.7817e-06	1.7285e-06	480.74	218.96	131.06	62.685	2.0204e-06	118.06	137.296	170.772	196.991	113.611	240.364	240.811	113.050	118.627	223.250	270.093	117.495	121.006	121.441	126.583	260.336	124.615	-8191	255	
3562.074	1	1	0	0	0.09086	0.11287	0.060341	0.13615	0.08331	0.16876	0.33069	0.21843	0.10065	0.083847	0.16767	0.26958	0.26157	0.17165	0.19627	0.29137	-2.9792	-3.1479	-3.3875	-3.5187	-3.0021	-3.6604	-3.2104	-3.4771	-3.475	-3.2458	-3.5646	-3.5208	-3.2042	-3.5417	-3.4042	-3.4562	377.980	366.697	254.163	391.840	241.024	352.019	444.045	372.375	228.225	165.915	319.615	105.655	445.928	106.790	313.941	386.318	0.0017745	0.00045561	0.00010832	759.05	5.6706e-06	5.6612e-06	966.11	319.01	5.1047e-06	5.152e-06	497.44	227.37	137.06	64.497	6.1654e-06	122.38	0.00023113	0.0001672	5.0908e-05	739.3	1.8574e-06	1.8038e-06	941.42	309.61	1.8071e-06	1.8805e-06	482.59	219.59	131.7	62.915	2.0221e-06	118.2	139.579	196.970	218.752	113.845	213.481	243.089	112.971	118.762	211.060	259.169	117.590	120.983	121.650	126.687	246.096	124.568	-8191	255	
3562.195	1	1	0	0	0.088683	0.081961	0.2454	0.18041	0.13118	0.13004	0.058678	0.071639	0.014825	0.16368	0.32159	0.16555	0.14296	0.1445	0.10946	0.18271	-3.1667	-2.9792	-3.35	-3.3917	-3.075	-3.3354	-3.5187	-3.1479	-3.4979	-3.1937	-3.3375	-3.525	-3.1396	-3.6896	-3.0021	-3.3125	292.759	217.002	117.093	404.182	290.092	397.381	185.166	400.723	411.022	297.200	108.857	458.973	165.857	112.692	237.305	393.780	0.0018264	0.00081478	0.00020639	757.07	5.9785e-06	6.7481e-06	962.67	319.07	6.7548e-06	7.5017e-06	495.58	225.97	136.2	64.261	6.076e-06	121.42	0.00023851	0.0001773	5.1313e-05	738.81	1.864e-06	1.9644e-06	937.6	309.3	1.9319e-06	2.0564e-06	479.96	218.37	131.22	62.679	2.1635e-06	117.41	140.705	164.447	196.427	113.648	244.321	236.204	113.024	118.620	235.292	248.967	117.555	120.773	121.618	126.582	244.126	124.684	-8191	255	
3562.291	1	1	0	0	0.034358	0.025279	0.29488	0.20239	0.1181	0.15901	0.18622	0.23021	0.038009	0.1497	0.022393	0.25143	0.40587	0.24894	0.026047	0.39691	-2.9833	-3.2	-3.15	-3.5417	-3.1208	-3.6417	-3.4958	-3.1583	-3.3458	-3.1562	-3.3771	-3.6875	-3.2125	-3.6354	-3.3875	-3.3875	458.094	324.928	375.959	367.650	178.835	139.087	409.105	423.485	314.240	358.166	415.184	165.543	384.926	455.606	440.232	447.216	0.0017707	0.00049161	0.00023405	760.85	4.844e-06	4.0295e-06	963.1	319.01	9.8081e-06	8.5948e-06	495.87	227.19	136.23	64.406	9.8592e-06	122.21	0.00025489	0.00020585	5.6253e-05	740.76	2.1317e-06	2.2685e-06	939.37	309.92	2.1364e-06	2.3321e-06	480.99	219.23	131.77	62.987	2.3131e-06	118.35	138.965	166.077	178.350	113.711	234.295	223.346	113.019	118.733	222.452	265.984	117.337	120.928	121.499	126.609	265.547	124.524	-8191	255	
3562.387	1	1	0	0	0.16355	0.075874	0.12473	0.25623	0.33778	0.21279	0.39825	0.10795	0.1058	0.14095	0.1461	0.111	0.31825	0.051529	0.056267	0.1759	-3.125	-3.0958	-3.2208	-3.7062	-3.0625	-3.3708	-3.3896	-3.125	-3.6104	-3.1146	-3.3438	-3.7104	-3.1625	-3.5812	-3.3292	-3.5146	401.943	111.731	310.696	103.387	398.897	270.225	411.118	404.641	297.427	444.590	116.013	391.896	417.221	384.656	123.014	400.455	0.0018073	0.00057852	0.00025884	762.74	5.7331e-06	2.8712e-06	968.95	319.7	9.4269e-06	6.2932e-06	499.15	228.72	137.79	64.917	7.6076e-06	123.6	0.00026943	0.00021646	5.8273e-05	742.03	2.2458e-06	2.3176e-06	943.31	311.01	2.2558e-06	2.3465e-06	483.43	220.81	132.88	63.379	2.2534e-06	119.77	138.467	165.140	194.435	113.827	212.738	234.532	112.996	118.966	226.346	240.380	117.409	121.042	121.396	126.671	259.787	124.315	-8191	255	
3562.483	1	1	0	0	0.11482	0.1308	0.050083	0.181	0.18913	0.078562	0.53529	0.045108	0.11798	0.14888	0.42763	0.14765	0.21517	0.16072	0.2337	0.23616	-3.2375	-3.1396	-2.9875	-3.5896	-3.1896	-3.2917	-3.4604	-3.2625	-3.6208	-3.2062	-3.5083	-3.6521	-3.1854	-3.5333	-3.4938	-3.3312	205.756	427.959	322.800	398.943	319.080	131.318	352.364	340.941	108.898	347.887	426.632	157.594	137.603	127.417	184.428	414.358	0.0017618	0.00051815	0.00018836	762.93	4.9882e-06	3.6047e-06	970.21	320.95	6.7555e-06	5.3626e-06	498.77	228.37	137.79	64.795	8.5539e-06	122.59	0.00027681	0.00021349	5.7184e-05	745.02	2.291e-06	2.2902e-06	944.63	311.35	2.2662e-06	2.2641e-06	481.94	220.64	132.75	63.305	2.1814e-06	119.28	137.545	187.382	192.516	113.916	245.822	274.937	112.954	118.813	244.160	270.976	117.365	121.057	121.532	126.494	239.534	124.588	-8191	255	
3562.579	1	1	0	0	0.12602	0.43948	0.1077	0.21005	0.17526	0.27498	0.19742	0.10577	0.13338	0.018116	0.14313	0.33821	0.27188	0.15541	0.10848	0.13434	-2.8333	-3.4479	-3.1437	-3.7833	-3.1896	-3.3958	-3.7083	-3.2042	-3.3833	-3.4771	-3.2938	-3.6146	-3.2917	-3.3896	-3.2979	-3.3458	407.284	436.558	147.887	130.584	395.336	110.020	409.412	174.446	412.146	189.203	414.647	429.598	424.042	448.176	114.928	362.510	0.0018713	0.00045461	0.0002157	764.24	7.1565e-06	6.5476e-06	966.81	320.27	8.8291e-06	5.9728e-06	494.99	227.76	137.44	64.938	6.4268e-06	123.2	0.00027968	0.00020414	5.515e-05	743.64	2.3238e-06	2.2546e-06	940.17	310.94	2.3081e-06	2.1768e-06	479.41	219.82	132.67	63.151	2.0997e-06	118.94	137.078	187.206	182.329	113.591	236.286	232.331	113.031	118.779	230.296	269.954	117.424	121.036	121.516	126.425	244.987	124.571	-8191	255	
3562.676	1	1	0	0	0.1286	0.097599	0.33677	0.14073	0.17098	0.077945	0.14029	0.10774	0.13367	0.2015	0.20937	0.43124	0.13054	0.032237	0.10908	0.14123	-2.975	-3.3958	-2.8667	-3.5125	-3.3896	-3.3021	-3.5938	-3.1646	-3.4979	-3.5167	-3.4313	-3.6521	-3.3354	-3.2667	-3.7042	-3.4458	377.599	273.496	326.337	424.511	340.989	415.530	201.844	158.321	217.785	250.964	402.178	424.097	111.787	220.783	172.083	397.997	0.0017527	0.00066136	0.00028728	761.81	5.3908e-06	7.5216e-06	967.1	320.29	7.464e-06	5.8756e-06	496.87	228.72	137.81	65.074	9.0911e-06	123.58	0.00026947	0.00019333	5.1706e-05	743.19	2.1392e-06	2.0243e-06	939.76	311	2.1053e-06	1.9176e-06	480.63	220.27	132.59	63.31	1.8327e-06	119.78	138.944	191.888	203.168	113.802	245.345	238.950	113.080	118.695	249.357	266.789	117.445	120.882	121.656	126.487	243.699	124.467	-8191	255	
3562.772	1	1	0	0	0.1928	0.14094	0.099861	0.19501	0.19171	0.1392	0.24147	0.13271	0.093486	0.15219	0.11473	0.15552	0.33174	0.079525	0.10901	0.2947	-2.9792	-3.3646	-3.1979	-3.6354	-3.4708	-3.2229	-3.7354	-3.1979	-3.4375	-3.6833	-3.2208	-3.5479	-3.4604	-3.4188	-3.5021	-3.5979	194.887	195.133	420.543	437.351	248.616	374.276	369.365	143.340	114.425	460.009	443.086	374.481	371.939	419.801	241.299	403.858	0.001796	0.00063225	0.00017749	764.47	3.943e-06	6.1958e-06	968.31	320.39	4.5676e-06	7.3185e-06	499.37	228.63	138.02	64.827	8.0118e-06	124.15	0.00025074	0.0001669	4.5218e-05	744.2	1.9107e-06	1.8115e-06	942.29	310.89	1.8679e-06	1.7511e-06	481.59	220.82	132.92	63.219	1.7254e-06	120.26	139.120	176.936	210.785	113.669	248.282	236.784	112.932	118.841	238.184	227.506	117.458	121.026	121.498	126.393	255.244	124.455	-8191	255	
3562.868	1	1	0	0	0.22614	0.18583	0.14346	0.07455	0.21547	0.11742	0.21687	0.26314	0.05726	0.1394	0.35135	0.22154	0.22455	0.1344	0.19968	0.44484	-2.7979	-3.3979	-3.1875	-3.3396	-3.4125	-3.1625	-3.6021	-3.4833	-3.1937	-3.6146	-3.2562	-3.575	-3.4375	-3.2354	-3.6417	-3.4146	199.379	364.174	156.064	238.612	416.284	244.801	106.670	148.112	223.471	267.366	398.800	432.709	138.041	433.328	389.895	371.675	0.0018153	0.0006309	0.00015241	761.33	6.9324e-06	7.0683e-06	964.87	320.5	5.7662e-06	6.8277e-06	498.21	228.89	137.95	64.922	6.1951e-06	123.57	0.0002373	0.0001562	4.4421e-05	743.53	1.8174e-06	1.6847e-06	939.68	311.03	1.8055e-06	1.6834e-06	480.92	220.15	132.69	63.229	1.8083e-06	119.5	139.667	165.155	209.190	113.744	241.264	254.603	113.042	118.426	226.304	275.025	117.273	121.102	121.493	126.567	239.525	124.590	-8191	255	
3562.987	1	1	0	0	0.08029	0.1934	0.21723	0.31821	0.32165	0.057569	0.25382	0.13363	0.12961	0.016686	0.12188	0.23499	0.10123	0.41547	0.080675	0.19929	-2.7583	-3.5896	-3.0187	-3.3187	-3.3417	-3.1375	-3.6417	-3.3875	-3.0396	-3.6229	-3.1354	-3.6146	-3.3146	-3.1937	-3.4458	-3.6146	246.198	362.345	410.874	380.981	294.202	389.043	368.613	164.801	153.494	226.705	370.964	430.223	339.557	406.708	280.256	420.791	0.001825	0.00067434	0.00021662	759.31	6.714e-06	5.7502e-06	959.72	319.45	5.2843e-06	4.7417e-06	494.23	227.82	137.53	64.43	7.2247e-06	123.17	0.00023293	0.00015358	4.6032e-05	741.54	1.7535e-06	1.7627e-06	936.62	310.14	1.8008e-06	1.7104e-06	478.67	219.73	132.22	62.853	1.8998e-06	119.34	137.271	198.466	199.322	113.685	258.506	220.429	112.911	118.677	234.391	246.769	117.343	120.859	121.523	126.509	233.602	124.372	-8191	255	
3563.083	1	1	0	0	0.249	0.1582	0.13566	0.16909	0.32416	0.18003	0.38803	0.26691	0.18028	0.046831	0.22405	0.16219	0.3177	0.19636	0.041062	0.39225	-2.6667	-3.5771	-3.2354	-3.3438	-3.5687	-3.1396	-3.5146	-3.4021	-3.2167	-3.7	-3.2771	-3.3104	-3.5771	-3.3438	-3.4062	-3.6042	210.925	316.263	407.778	369.704	188.468	403.501	385.266	419.983	190.453	457.842	375.263	125.110	403.244	438.984	435.727	428.731	0.0017862	0.00060416	0.0001835	758.78	5.4688e-06	5.1785e-06	966.23	320.45	7.3168e-06	7.4113e-06	497.87	228.47	138.24	65.02	4.6225e-06	124.27	0.00023401	0.00016036	4.8458e-05	741.71	1.7982e-06	1.7973e-06	938.75	310.34	1.8299e-06	1.7654e-06	481.53	220.81	132.82	63.291	2.0121e-06	120.38	139.815	163.338	180.146	113.752	255.128	223.244	112.974	118.774	257.877	249.204	117.367	121.058	121.595	126.666	257.196	124.259	-8191	255	
3563.155	1	1	0	0	0.11742	0.23887	0.15886	0.18839	0.23866	0.11461	0.18163	0.18611	0.12139	0.04692	0.2205	0.37964	0.17487	0.29827	0.12883	0.34509	-2.6667	-3.45	-3.1813	-3.1979	-3.6417	-3.1688	-3.5438	-3.4792	-3.1562	-3.5083	-3.2229	-3.2458	-3.625	-3.3937	-3.3688	-3.5229	372.186	447.594	407.436	452.424	213.491	115.783	403.809	378.637	201.468	222.280	386.817	392.565	428.801	425.202	370.658	393.243	0.001817	0.00078572	0.00018384	762.82	5.0133e-06	3.6073e-06	970.92	320.37	6.0906e-06	6.2721e-06	500.55	229.22	138	65.117	6.39e-06	124.13	0.00023951	0.00016853	5.0523e-05	743.81	1.7662e-06	1.859e-06	943.98	311.16	1.8151e-06	1.8601e-06	483.83	221.4	132.96	63.394	1.986e-06	120.37	137.191	184.231	185.885	113.685	255.520	240.371	113.082	118.698	263.644	268.833	117.564	121.093	121.373	126.628	253.065	124.642	-8191	255	
3563.275	1	1	0	0	0.19836	0.064644	0.10301	0.19804	0.16885	0.17992	0.20456	0.017489	0.17528	0.21835	0.31974	0.21963	0.31093	0.069449	0.12376	0.20877	-2.4562	-3.4729	-3.4521	-3.2208	-3.6562	-3.1292	-3.3417	-3.5479	-2.9292	-3.4667	-3.3646	-3.2958	-3.7271	-3.3375	-3.2562	-3.7542	442.870	333.939	133.946	392.694	249.529	158.916	102.171	119.276	206.761	260.383	368.516	108.885	427.270	428.701	144.468	405.651	0.0018025	0.00077748	0.00024871	761.92	7.5975e-06	5.8678e-06	968.6	320.28	1.0431e-05	7.3859e-06	498.71	227.72	137.4	64.881	7.2597e-06	123.82	0.00023622	0.00017333	4.9072e-05	742.15	1.7288e-06	1.8801e-06	939.59	310.44	1.7999e-06	1.8998e-06	481.27	219.8	132.43	63.052	1.9421e-06	119.74	138.094	166.173	187.646	113.874	245.736	228.186	112.844	118.878	236.239	234.741	117.379	120.916	121.656	126.529	273.009	124.506	-8191	255	
3563.371	1	1	0	0	0.16185	0.28057	0.20759	0.29118	0.20055	0.055644	0.12828	0.17721	0.19853	0.11796	0.1168	0.19192	0.3289	0.38987	0.20379	0.13895	-2.7	-3.3875	-3.4458	-3.4021	-3.4667	-3.25	-3.5062	-3.5312	-2.9875	-3.5208	-3.2771	-3.2687	-3.4708	-3.2583	-3.1771	-3.7167	258.496	231.676	229.774	455.304	339.395	300.226	107.396	384.140	166.408	414.209	447.772	437.201	439.803	107.654	277.333	363.326	0.0018029	0.0005529	0.00017788	760.23	6.737e-06	5.195e-06	962.21	318.81	8.6932e-06	6.3672e-06	497.09	227.61	137.54	64.731	5.2231e-06	124.3	0.0002343	0.0001738	4.775e-05	740.46	1.7341e-06	1.9027e-06	937.12	309.41	1.8135e-06	1.9296e-06	480.9	220.02	132.21	63.06	1.8532e-06	120	137.950	178.887	205.507	113.659	218.602	238.589	112.962	118.599	237.959	255.514	117.333	120.967	121.505	126.544	241.576	124.687	-8191	255	
3563.468	1	1	0	0	0.093514	0.26924	0.26122	0.24882	0.047359	0.16821	0.16196	0.3452	0.14858	0.095832	0.10705	0.32711	0.15208	0.30312	0.053543	0.3006	-2.8083	-3.2458	-3.4875	-3.2021	-3.4146	-3.4146	-3.2625	-3.6271	-2.9979	-3.3875	-3.5604	-3.1167	-3.7229	-3.4708	-3.3375	-3.75	167.362	308.526	158.714	102.604	268.223	335.231	105.303	411.668	165.551	383.241	442.207	421.076	418.260	114.297	349.019	360.887	0.0018161	0.00071265	8.7526e-05	757.5	5.1245e-06	8.4456e-06	965.68	319.58	5.4478e-06	6.586e-06	497.76	228.65	137.38	64.771	4.3567e-06	124.25	0.00023654	0.00017481	4.5127e-05	738.76	1.8126e-06	1.8952e-06	939.39	309.71	1.8617e-06	1.8946e-06	482.47	220.67	132.14	63.107	1.8047e-06	120.45	138.960	171.454	192.805	113.762	237.794	223.046	113.003	118.507	218.105	251.967	117.674	120.984	121.678	126.620	227.531	124.407	-8191	255	
3563.588	1	1	0	0	0.15903	0.24719	0.14704	0.039333	0.1661	0.13489	0.064511	0.053501	0.26156	0.11145	0.28636	0.2707	0.13058	0.37942	0.13634	0.22515	-2.9458	-3.3604	-3.6167	-3.2708	-3.6229	-3.4208	-3.3667	-3.8167	-3.0854	-3.3208	-3.7417	-3.1042	-3.6417	-3.6625	-3.0521	-3.8104	142.686	346.567	141.993	398.538	275.138	122.631	361.940	307.149	255.189	379.750	416.859	417.356	111.784	424.787	204.614	104.491	0.0017907	0.00052233	0.0002788	759.92	4.4055e-06	7.8894e-06	967.01	319.94	7.8275e-06	6.739e-06	499.57	229.15	137.39	64.826	6.3877e-06	124.53	0.00024041	0.00017136	4.4549e-05	740.35	1.8863e-06	1.829e-06	941.15	310.2	1.8835e-06	1.8181e-06	483.18	220.65	132.17	63.114	1.7521e-06	120.23	136.856	197.916	193.998	113.627	222.708	244.071	112.924	118.912	230.511	248.828	117.640	121.038	121.616	126.692	258.403	124.608	-8191	255	
3563.684	1	1	0	0	0.091452	0.12716	0.092595	0.11376	0.10498	0.17323	0.29305	0.20293	0.20804	0.13016	0.075184	0.17303	0.24485	0.19431	0.025986	0.42841	-2.9354	-3.3438	-3.5583	-3.3812	-3.5042	-3.4938	-3.2062	-3.55	-3.35	-3.0146	-3.8229	-3.1271	-3.425	-3.525	-3.1667	-3.5375	392.328	152.897	445.861	222.260	287.342	222.126	367.401	377.368	446.405	361.829	377.602	459.657	297.457	420.999	140.699	413.986	0.001814	0.0006187	0.00020871	758.59	5.3708e-06	3.351e-06	959.37	319.72	5.3521e-06	7.1249e-06	497.12	227.79	137.1	64.52	4.6781e-06	123.47	0.00024161	0.00015975	4.242e-05	739.25	1.8382e-06	1.7223e-06	934.96	309.33	1.8344e-06	1.7217e-06	480.83	219.51	131.72	62.721	1.6683e-06	119.48	139.033	179.674	187.725	113.907	228.988	248.753	112.990	118.515	204.850	262.765	117.489	120.941	121.700	126.333	257.428	124.629	-8191	255	
3563.779	1	1	0	0	0.077123	0.10193	0.12509	0.18334	0.10637	0.020067	0.17931	0.2343	0.17788	0.21593	0.090263	0.31866	0.089199	0.18097	0.15013	0.33336	-2.95	-2.9979	-3.4229	-3.0833	-3.1521	-3.35	-3.0563	-3.5687	-3.1792	-3.0771	-3.6312	-3.3688	-3.3458	-3.6625	-3.1167	-3.5125	227.069	305.146	324.051	421.438	250.522	375.032	342.032	117.504	266.757	433.466	125.062	437.333	384.021	376.778	275.522	440.510	0.0018238	0.0005183	0.00020942	755.18	7.1062e-06	5.6201e-06	964.6	318.92	7.566e-06	7.3948e-06	498.44	228.14	137.5	64.49	6.8518e-06	123.84	0.00023751	0.00015488	4.2162e-05	737.15	1.7939e-06	1.7126e-06	935.95	309.39	1.817e-06	1.71e-06	481.48	220.26	131.98	62.841	1.708e-06	119.94	138.841	177.800	175.015	113.771	237.910	246.248	113.324	118.615	231.757	244.632	117.268	121.004	121.651	126.564	253.359	124.564	-8191	255	
3563.877	1	1	0	0	0.29287	0.08726	0.10978	0.024531	0.12014	0.0979	0.15787	0.15199	0.19841	0.077754	0.16693	0.11717	0.084685	0.35188	0.080769	0.3442	-2.9813	-3.0146	-3.3896	-3.3208	-3.3063	-3.4083	-3.3792	-3.4208	-3.3563	-3.0729	-3.4833	-3.4583	-3.2021	-3.7771	-2.925	-3.4313	436.935	172.823	222.016	390.288	416.419	244.161	429.401	119.587	389.389	211.629	409.284	355.163	229.394	131.991	392.354	377.580	0.0018055	0.00049518	0.00018073	760	5.7183e-06	7.4139e-06	968.08	319.67	7.5373e-06	5.7183e-06	499.18	228.82	137.49	64.751	5.7458e-06	124.68	0.00023284	0.00015428	4.1907e-05	739.67	1.7849e-06	1.6629e-06	939.46	309.89	1.8036e-06	1.665e-06	484	220.91	132.27	62.984	1.7302e-06	120.79	139.204	199.270	195.027	113.837	234.002	234.516	113.092	118.618	241.899	258.651	117.599	120.971	121.473	126.643	256.445	124.438	-8191	255	
3563.971	1	1	0	0	0.19405	0.11917	0.16335	0.13882	0.13055	0.16056	0.1912	0.088934	0.088287	0.1125	0.19432	0.1465	0.33456	0.39466	0.12572	0.37294	-2.8854	-3.0458	-3.5792	-3.4104	-3.2917	-3.5479	-3.2562	-3.6917	-3.3979	-2.975	-3.7646	-3.3729	-3.1083	-3.725	-3.1063	-3.5396	247.387	449.267	123.526	301.342	247.975	230.332	386.072	416.820	452.487	315.937	134.533	435.220	439.691	447.371	170.343	411.113	0.0018442	0.001063	0.00024083	759.48	3.9112e-06	6.3387e-06	966.74	319.43	7.3108e-06	8.1168e-06	500.53	229.52	137.58	64.443	6.2657e-06	124.18	0.00023106	0.00015258	4.3784e-05	740.27	1.7381e-06	1.6505e-06	938.68	310.15	1.7366e-06	1.6373e-06	483.59	220.9	131.96	62.927	1.7972e-06	120.31	139.900	182.792	201.014	113.913	215.864	252.645	113.241	118.724	266.982	255.714	117.379	121.048	121.789	126.585	229.652	124.378	-8191	255	
3564.067	1	1	0	0	0.21395	0.052999	0.2947	0.079728	0.21405	0.043807	0.12695	0.18162	0.057299	0.23088	0.27871	0.17896	0.078005	0.24271	0.14692	0.3385	-3.1083	-3.0354	-3.5646	-3.2687	-2.9792	-3.5812	-3.2125	-3.3667	-3.5812	-3.1104	-3.5021	-3.3312	-3.225	-3.625	-3.0479	-3.4792	272.080	454.790	419.508	412.480	253.548	179.580	186.723	117.913	383.441	369.945	427.592	112.509	122.873	360.272	453.617	422.147	0.001832	0.00049645	0.00023018	758.65	5.8143e-06	9.2647e-06	961.54	318.61	4.6539e-06	6.1412e-06	498.23	227.56	137.05	64.165	7.6732e-06	122.92	0.00022788	0.00015225	4.5444e-05	737.5	1.7377e-06	1.6623e-06	937.09	308.64	1.7315e-06	1.6722e-06	480.96	219.26	131.57	62.556	1.8864e-06	119.18	138.757	169.175	178.963	113.405	220.540	244.453	113.146	118.642	237.978	257.026	117.465	121.002	121.579	126.629	259.872	124.609	-8191	255	
3564.163	1	1	0	0	0.12087	0.046559	0.11396	0.17579	0.25532	0.2049	0.16018	0.18755	0.16104	0.099295	0.20073	0.098928	0.27207	0.17096	0.15047	0.34198	-2.8521	-3.0187	-3.1875	-3.3354	-2.9146	-3.6333	-3.4604	-3.3625	-3.3875	-3.1542	-3.3688	-3.4479	-3.0083	-3.5396	-3.3667	-3.2938	420.952	346.501	434.948	106.374	362.505	421.096	158.722	414.935	330.733	352.224	411.614	372.483	109.193	353.011	307.742	388.137	0.0018032	0.00091282	0.00027774	755.07	5.7411e-06	8.0225e-06	964.36	319.21	6.8838e-06	6.069e-06	497.51	227.77	136.91	64.242	8.3693e-06	123.74	0.00022532	0.00015277	4.6892e-05	737.28	1.7165e-06	1.7086e-06	938.82	309.37	1.7029e-06	1.6954e-06	481.37	219.79	131.58	62.654	1.9096e-06	119.74	137.165	181.042	176.721	113.638	242.914	232.190	112.968	118.472	214.156	244.422	117.335	120.985	121.538	126.320	271.404	124.505	-8191	255	
3564.284	1	1	0	0	0.069902	0.38088	0.13259	0.18089	0.13782	0.17921	0.084615	0.070403	0.21391	0.16194	0.17779	0.2025	0.23441	0.25656	0.1508	0.27079	-3.2104	-3.025	-3.2	-3.4583	-3.1583	-3.625	-3.4458	-3.2229	-3.6333	-3.25	-3.5146	-3.6917	-3.0604	-3.6771	-3.3833	-3.2562	413.255	421.123	174.635	330.818	457.581	187.088	384.664	377.942	161.323	243.423	393.707	358.451	453.099	128.993	194.215	345.100	0.0018401	0.00045125	0.00022177	760.45	7.6118e-06	6.8547e-06	966.43	317.86	8.142e-06	6.9377e-06	498.67	228.47	137.46	64.526	4.3018e-06	124.81	0.00022661	0.00016085	4.7107e-05	738.58	1.7128e-06	1.7934e-06	939.93	309.08	1.6992e-06	1.7642e-06	482.46	220.53	131.9	62.856	1.8785e-06	120.64	140.139	160.031	190.052	113.387	236.292	217.619	112.781	118.759	249.419	255.129	117.480	121.154	121.662	126.541	255.795	124.484	-8191	255	
3564.380	1	1	0	0	0.23221	0.19439	0.1608	0.25626	0.10034	0.20484	0.27513	0.11839	0.37565	0.076717	0.19902	0.16577	0.1702	0.38601	0.20037	0.10238	-3.2708	-3.4146	-3.1188	-3.5333	-3.3812	-3.4521	-3.7271	-3.1562	-3.5438	-3.2313	-3.5479	-3.6604	-3.2792	-3.4729	-3.3604	-3.1854	181.088	278.039	406.277	263.598	459.998	325.123	438.188	130.123	209.581	401.034	429.786	362.500	116.987	416.312	404.164	417.611	0.0018338	0.00076773	0.00020955	757.86	6.1528e-06	7.1094e-06	962.76	317.02	5.5739e-06	4.0527e-06	496.88	226.85	136.3	64.144	8.4826e-06	123.23	0.00022593	0.00016759	4.7172e-05	736.43	1.6965e-06	1.8389e-06	936.35	307.28	1.7225e-06	1.8362e-06	480.88	219.16	131.03	62.598	1.843e-06	119.38	137.902	181.342	208.269	113.703	235.038	237.933	112.934	118.748	236.776	277.520	117.487	121.206	121.815	126.508	270.386	124.581	-8191	255	
3564.452	1	1	0	0	0.25041	0.080426	0.05758	0.18057	0.17404	0.202	0.26015	0.32906	0.22011	0.21368	0.23407	0.13428	0.15463	0.09954	0.20141	0.15987	-3.0875	-3.1958	-3.0812	-3.8167	-3.0958	-3.4625	-3.5875	-3.3187	-3.5208	-3.3021	-3.3771	-3.7375	-3.1167	-3.6625	-3.4938	-3.3854	190.920	220.278	436.145	409.306	334.864	298.298	351.953	402.779	322.839	378.946	395.914	450.496	404.277	398.527	380.035	395.714	0.001821	0.00033935	0.0002067	753.57	6.467e-06	6.3559e-06	958.25	315.92	8.9487e-06	5.5868e-06	494.48	225.82	135.44	63.866	6.741e-06	122.52	0.00022915	0.00016723	4.5838e-05	733.47	1.7069e-06	1.8145e-06	930.76	306.76	1.7384e-06	1.8491e-06	477.78	218.29	130.38	62.14	1.7679e-06	118.24	136.786	192.557	192.258	113.784	232.746	219.914	112.885	118.736	228.873	274.853	117.258	120.919	121.465	126.611	274.841	124.611	-8191	255	
#DATA ENDS
