BOXY.EXE: ISS Imagent and Oximeter Data Acquisition Program Version 0.80
Ascii Record File

#ACQ INFORMATION
2  Detector Channels 
16  External MUX Channels 
1  Auxiliary Channels 
5000  Waveform (CCF) Frequency (Hz)
1  Waveforms Skipped 
30  Waveforms Averaged 
1  Cycles Averaged 
16  Acquisitions per Waveform 
10.0806  Updata Rate (Hz) 

#FILE INFORMATION
TRUE -- External MUX Channel results are PARSED.
FALSE -- AC DC and Phase are NOT grouped.
TRUE -- Companion Program Settings File CREATED.
FALSE -- AC data not excluded
FALSE -- DC data not excluded
FALSE -- Phase data not excluded
FALSE -- Auxillary Chn. data not excluded
Tab delimiters

#CALIBRATION STATE
TRUE -- Waveform Calibration Values APPLIED.


#AUX CALIBRATION VALUES
Val Type	aux-1	

Term	1.0000e+00	
Factor	0.0000e+00	


#WF CALIBRATION VALUES
A = Detector Channel
Val Type	A-AC1	A-AC2	A-AC3	A-AC4	A-AC5	A-AC6	A-AC7	A-AC8	A-AC9	A-AC10	A-AC11	A-AC12	A-AC13	A-AC14	A-AC15	A-AC16	A-DC1	A-DC2	A-DC3	A-DC4	A-DC5	A-DC6	A-DC7	A-DC8	A-DC9	A-DC10	A-DC11	A-DC12	A-DC13	A-DC14	A-DC15	A-DC16	A-Ph1	A-Ph2	A-Ph3	A-Ph4	A-Ph5	A-Ph6	A-Ph7	A-Ph8	A-Ph9	A-Ph10	A-Ph11	A-Ph12	A-Ph13	A-Ph14	A-Ph15	A-Ph16	

Term	0.00000e+00	0.00000e+00	0.00000e+00	0.00000e+00	0.00000e+00	0.00000e+00	0.00000e+00	0.00000e+00	0.00000e+00	0.00000e+00	0.00000e+00	0.00000e+00	0.00000e+00	0.00000e+00	0.00000e+00	0.00000e+00	0.00000e+00	0.00000e+00	0.00000e+00	0.00000e+00	0.00000e+00	0.00000e+00	0.00000e+00	0.00000e+00	0.00000e+00	0.00000e+00	0.00000e+00	0.00000e+00	0.00000e+00	0.00000e+00	0.00000e+00	0.00000e+00	0.00000e+00	0.00000e+00	0.00000e+00	0.00000e+00	0.00000e+00	0.00000e+00	0.00000e+00	0.00000e+00	0.00000e+00	0.00000e+00	0.00000e+00	0.00000e+00	0.00000e+00	0.00000e+00	0.00000e+00	0.00000e+00	
Factor	1.00000e+00	1.00000e+00	1.00000e+00	1.00000e+00	1.00000e+00	1.00000e+00	1.00000e+00	1.00000e+00	1.00000e+00	1.00000e+00	1.00000e+00	1.00000e+00	1.00000e+00	1.00000e+00	1.00000e+00	1.00000e+00	1.00000e+00	1.00000e+00	1.00000e+00	1.00000e+00	1.00000e+00	1.00000e+00	1.00000e+00	1.00000e+00	1.00000e+00	1.00000e+00	1.00000e+00	1.00000e+00	1.00000e+00	1.00000e+00	1.00000e+00	1.00000e+00	X	X	X	X	X	X	X	X	X	X	X	X	X	X	X	X	

B = Detector Channel
Val Type	B-AC1	B-AC2	B-AC3	B-AC4	B-AC5	B-AC6	B-AC7	B-AC8	B-AC9	B-AC10	B-AC11	B-AC12	B-AC13	B-AC14	B-AC15	B-AC16	B-DC1	B-DC2	B-DC3	B-DC4	B-DC5	B-DC6	B-DC7	B-DC8	B-DC9	B-DC10	B-DC11	B-DC12	B-DC13	B-DC14	B-DC15	B-DC16	B-Ph1	B-Ph2	B-Ph3	B-Ph4	B-Ph5	B-Ph6	B-Ph7	B-Ph8	B-Ph9	B-Ph10	B-Ph11	B-Ph12	B-Ph13	B-Ph14	B-Ph15	B-Ph16	

Term	0.00000e+00	0.00000e+00	0.00000e+00	0.00000e+00	0.00000e+00	0.00000e+00	0.00000e+00	0.00000e+00	0.00000e+00	0.00000e+00	0.00000e+00	0.00000e+00	0.00000e+00	0.00000e+00	0.00000e+00	0.00000e+00	0.00000e+00	0.00000e+00	0.00000e+00	0.00000e+00	0.00000e+00	0.00000e+00	0.00000e+00	0.00000e+00	0.00000e+00	0.00000e+00	0.00000e+00	0.00000e+00	0.00000e+00	0.00000e+00	0.00000e+00	0.00000e+00	-6.34108e+00	-1.36227e+02	-1.18623e+02	-1.82112e+02	-6.59453e+01	-7.19343e+01	-1.55818e+02	-1.62015e+02	-5.29986e+01	-8.64946e+01	-1.71110e+02	-1.71259e+02	-1.81584e+02	-1.77157e+02	-6.25509e+01	-1.50275e+02	
Factor	3.39571e-05	1.64977e-04	4.10806e-05	4.59254e-01	1.86576e-06	1.43350e-06	1.65422e-01	5.79359e-02	1.91997e-06	1.55402e-06	9.09216e-02	3.00752e-02	2.55306e-02	9.02090e-03	1.82001e-06	1.32953e-02	2.13734e-06	2.25432e-06	6.27723e-07	2.22352e-01	2.45913e-08	2.46751e-08	7.75621e-02	2.87455e-02	2.44338e-08	2.46652e-08	4.35021e-02	1.44172e-02	1.27378e-02	4.50671e-03	2.45050e-08	6.39891e-03	X	X	X	X	X	X	X	X	X	X	X	X	X	X	X	X	



#DISTANCE SETTINGS
A = Detector Channel
A-1	A-2	A-3	A-4	A-5	A-6	A-7	A-8	A-9	A-10	A-11	A-12	A-13	A-14	A-15	A-16	

2.5000e+00	3.0000e+00	2.5000e+00	3.0000e+00	2.0000e+00	3.0000e+00	1.5000e+00	3.0000e+00	3.0000e+00	3.0000e+00	3.0000e+00	3.0000e+00	3.0000e+00	3.0000e+00	1.5000e+00	3.0000e+00	

B = Detector Channel
B-1	B-2	B-3	B-4	B-5	B-6	B-7	B-8	B-9	B-10	B-11	B-12	B-13	B-14	B-15	B-16	

1.0000e+01	1.0000e+01	1.0000e+01	1.4400e+00	1.0000e+01	1.0000e+01	1.5100e+00	1.9400e+00	1.0000e+01	1.0000e+01	1.9900e+00	2.4900e+00	2.4100e+00	2.9000e+00	1.0000e+01	2.9800e+00	




#DATA BEGINS
time	group	step	mark	flag	A-AC1	A-AC2	A-AC3	A-AC4	A-AC5	A-AC6	A-AC7	A-AC8	A-AC9	A-AC10	A-AC11	A-AC12	A-AC13	A-AC14	A-AC15	A-AC16	A-DC1	A-DC2	A-DC3	A-DC4	A-DC5	A-DC6	A-DC7	A-DC8	A-DC9	A-DC10	A-DC11	A-DC12	A-DC13	A-DC14	A-DC15	A-DC16	A-Ph1	A-Ph2	A-Ph3	A-Ph4	A-Ph5	A-Ph6	A-Ph7	A-Ph8	A-Ph9	A-Ph10	A-Ph11	A-Ph12	A-Ph13	A-Ph14	A-Ph15	A-Ph16	B-AC1	B-AC2	B-AC3	B-AC4	B-AC5	B-AC6	B-AC7	B-AC8	B-AC9	B-AC10	B-AC11	B-AC12	B-AC13	B-AC14	B-AC15	B-AC16	B-DC1	B-DC2	B-DC3	B-DC4	B-DC5	B-DC6	B-DC7	B-DC8	B-DC9	B-DC10	B-DC11	B-DC12	B-DC13	B-DC14	B-DC15	B-DC16	B-Ph1	B-Ph2	B-Ph3	B-Ph4	B-Ph5	B-Ph6	B-Ph7	B-Ph8	B-Ph9	B-Ph10	B-Ph11	B-Ph12	B-Ph13	B-Ph14	B-Ph15	B-Ph16	aux-1	digaux	

11659.483	1	1	0	768	0.20143	0.20762	0.28528	0.16304	0.04694	0.10233	0.13814	0.14223	0.32723	0.12842	0.17467	0.29399	0.067292	0.057751	0.051877	0.11982	-2.2375	-2.7458	-2.9646	-2.5646	-2.9917	-2.7979	-2.6646	-2.9625	-2.7188	-2.7521	-2.9	-2.6979	-2.8542	-2.7917	-2.8521	-2.9938	187.410	91.859	136.046	259.604	-12.070	113.025	208.887	180.131	-22.965	290.069	41.848	41.108	278.867	171.442	49.279	98.075	1.2335e-06	1.614e-05	2.2264e-05	9.6116	5.1912e-07	2.5986e-07	11.033	2.474	3.0271e-07	4.6518e-07	3.6785	1.1218	0.62078	0.14765	6.4395e-08	0.36409	5.989e-06	2.0242e-06	1.177e-07	10.39	1.4345e-09	1.4908e-09	12.286	2.6616	9.2136e-09	8.3759e-09	3.9307	1.2463	0.68747	0.16583	6.7899e-09	0.39716	158.883	103.001	93.805	-28.352	104.182	121.663	-28.764	-23.068	17.409	181.988	-24.311	-19.324	-19.160	-14.530	158.725	-14.682	-8191	255	
11659.580	1	1	0	0	0.2932	0.13001	0.21536	0.25545	0.14844	0.21733	0.22774	0.0078657	0.07873	0.067758	0.29397	0.2403	0.1387	0.1769	0.27002	0.31875	-2.1583	-2.7229	-2.8771	-2.6792	-2.9	-2.8833	-2.6729	-2.9958	-2.6083	-2.6771	-2.9542	-2.6063	-2.6833	-2.8771	-2.6312	-3.0417	-39.292	-27.361	150.899	273.214	119.857	1.292	69.244	208.692	219.558	279.441	262.804	157.900	216.881	119.098	202.347	280.085	1.3537e-05	7.5723e-05	6.6516e-06	9.6302	2.7307e-07	3.0196e-07	11.075	2.4635	2.4632e-07	3.6512e-07	3.59	1.1188	0.62826	0.1486	2.2599e-07	0.35608	1.505e-06	6.4577e-06	-3.9233e-08	10.429	-2.5104e-09	3.29e-09	12.298	2.68	4.6322e-09	2.3124e-09	3.9086	1.253	0.69217	0.16528	5.8199e-09	0.39167	209.033	135.496	109.870	-28.681	137.008	205.317	-28.306	-23.119	50.035	247.820	-24.138	-18.769	-18.443	-15.755	210.703	-15.332	-8191	255	
11659.676	1	1	0	0	0.236	0.2068	0.1034	0.051436	0.055675	0.29262	0.26263	0.15327	0.24091	0.17036	0.15128	0.21104	0.12619	0.15253	0.17088	0.12826	-2.3271	-2.6917	-2.8458	-2.6312	-2.9292	-2.7583	-2.6083	-2.8417	-2.7438	-2.8396	-2.9479	-2.5146	-2.7562	-2.7896	-2.5729	-2.7667	139.598	121.235	-39.259	27.184	46.472	280.592	223.442	129.716	142.260	13.592	105.005	91.120	174.373	232.215	23.401	143.215	6.8563e-06	6.6367e-05	7.4728e-06	9.6661	1.475e-07	1.9309e-07	10.742	2.425	9.0543e-08	3.5432e-07	3.5409	1.0869	0.6119	0.14643	2.3327e-07	0.35566	1.2245e-06	6.4859e-06	-2.1578e-07	10.2	2.0493e-10	1.1309e-09	11.979	2.6051	-8.6536e-10	5.19e-09	3.7873	1.194	0.68471	0.16179	4.8499e-09	0.38511	119.777	161.827	-11.552	-28.015	46.514	114.496	-28.154	-23.489	316.090	90.714	-23.878	-19.263	-18.276	-13.221	219.337	-15.721	-8191	255	
11659.772	1	1	0	0	0.25952	0.17176	0.06978	0.026401	0.03344	0.18307	0.21629	0.14807	0.2484	0.078207	0.14446	0.16255	0.23967	0.13439	0.081896	0.22622	-2.3521	-2.4917	-2.9333	-2.6208	-2.7438	-2.95	-2.4625	-2.7167	-2.7229	-2.5396	-2.8667	-2.7021	-2.6312	-2.9083	-2.7375	-3.0083	35.124	20.322	262.654	156.268	165.279	84.756	27.003	186.586	-10.655	18.217	88.871	-6.892	185.563	56.295	29.069	-23.972	6.4808e-06	2.7578e-05	3.0995e-06	9.5028	3.0551e-07	2.0302e-07	10.829	2.3875	2.9225e-07	1.8574e-07	3.5385	1.0851	0.61066	0.14563	7.1527e-07	0.35217	1.1132e-06	8.186e-06	-3.9233e-08	10.134	2.0493e-09	-3.0844e-09	11.913	2.6007	-1.2217e-09	4.6761e-09	3.7793	1.1678	0.71114	0.16051	6.6368e-09	0.38884	-39.023	137.328	266.482	-28.380	225.545	160.388	-28.090	-22.982	51.813	303.085	-24.089	-19.396	-18.609	-14.247	276.685	-14.810	-8191	255	
11659.866	1	1	0	0	0.035167	0.11313	0.13564	0.063976	0.085482	0.23772	0.075487	0.06053	0.25912	0.19129	0.10098	0.17055	0.1552	0.13969	0.063973	0.21694	-2.4167	-2.5542	-2.9417	-2.6792	-2.6979	-3.0417	-2.5958	-2.7687	-2.7646	-2.6375	-2.925	-2.6604	-2.6833	-3.0042	-2.7146	-2.8896	229.589	76.814	88.704	137.117	78.766	170.387	-5.583	272.189	6.940	282.712	165.690	114.095	258.182	150.108	126.766	123.466	8.4869e-06	5.4368e-05	7.0358e-06	9.3076	4.1462e-07	2.1584e-07	10.717	2.387	1.0074e-06	4.7621e-07	3.5056	1.0706	0.61348	0.1471	3.2633e-07	0.35128	8.8611e-07	6.8945e-06	-2.1447e-07	10.021	2.6128e-09	-1.0281e-10	11.943	2.5819	-2.7488e-09	8.1704e-09	3.774	1.168	0.70231	0.16131	2.8079e-09	0.38883	-1.065	188.146	29.698	-28.415	215.652	39.966	-28.263	-22.985	-33.556	-37.772	-23.929	-19.074	-18.897	-13.860	192.101	-14.673	-8191	255	
11659.964	1	1	0	0	0.14658	0.074001	0.083483	0.26348	0.09489	0.15857	0.047999	0.095902	0.15434	0.08663	0.085169	0.16491	0.11495	0.26297	0.18087	0.27361	-2.5771	-2.3875	-2.8354	-2.7562	-2.6333	-3.1708	-2.7188	-2.7333	-2.7646	-2.6521	-2.925	-2.6625	-2.5458	-2.825	-2.6583	-2.6854	156.863	235.401	-35.290	136.015	-20.873	-19.455	-3.182	302.163	1.483	264.899	59.096	131.220	225.841	37.338	285.123	281.639	1.1636e-05	7.0171e-05	1.873e-05	9.2317	4.1369e-07	6.8208e-07	10.678	2.3417	3.7366e-07	3.1908e-07	3.4517	1.0389	0.61067	0.14351	3.8212e-07	0.3441	6.323e-07	8.1437e-06	-1.9355e-07	9.9447	1.0246e-09	-6.6828e-09	11.671	2.5754	-2.4434e-09	4.6761e-09	3.7164	1.1379	0.69636	0.15666	5.6668e-09	0.37727	268.232	179.640	42.116	-28.780	144.567	24.771	-28.443	-22.718	124.582	11.731	-23.821	-19.007	-18.358	-15.061	162.184	-15.387	-8191	255	
11660.083	1	1	0	0	0.047525	0.060905	0.12972	0.050149	0.036045	0.060059	0.04506	0.18443	0.19429	0.12692	0.2346	0.10754	0.13402	0.032687	0.1209	0.13285	-2.5375	-2.6479	-2.9521	-2.9479	-2.6771	-2.8563	-2.6042	-2.7938	-2.95	-2.7146	-2.8187	-2.6667	-2.4229	-3.0271	-2.5042	-2.6688	14.746	46.656	101.022	173.409	77.582	260.008	241.599	119.871	83.873	211.391	15.813	187.572	158.299	252.523	178.637	74.965	6.0323e-06	5.8444e-05	5.0692e-06	9.0672	5.5426e-07	1.3452e-07	10.494	2.3516	8.8732e-08	2.5245e-07	3.4397	1.0372	0.60698	0.1439	3.7858e-07	0.34739	7.6588e-07	6.6972e-06	-1.4778e-07	9.7654	4.1498e-09	-6.8885e-09	11.457	2.6094	-6.0066e-09	2.0554e-09	3.7031	1.1312	0.6892	0.15775	-3.1142e-09	0.38072	290.709	182.483	52.531	-27.160	131.694	259.955	-27.688	-22.402	96.571	251.544	-23.694	-19.530	-18.018	-14.782	111.130	-15.172	-8191	255	
11660.179	1	1	0	0	0.099594	0.26062	0.18932	0.23986	0.25246	0.087667	0.38999	0.24764	0.08367	0.28539	0.14581	0.16399	0.2723	0.056794	0.24328	0.21944	-2.5604	-2.5062	-2.7208	-2.6958	-2.525	-2.9021	-2.5667	-2.6937	-2.9396	-2.6	-2.8708	-2.9125	-2.5479	-2.9208	-2.7854	-2.5687	297.766	70.276	-34.423	37.806	260.015	-11.317	151.622	78.187	220.373	206.890	290.960	317.445	163.950	158.216	12.143	234.531	3.1891e-06	3.9897e-05	9.1303e-06	9.1772	5.7688e-07	3.0212e-07	10.58	2.3316	7.3794e-07	1.9124e-07	3.4389	1.0428	0.60075	0.14502	3.9225e-07	0.35113	3.4286e-07	8.1156e-06	-1.5693e-08	9.8645	6.2503e-09	-5.2435e-09	11.523	2.5998	-7.941e-09	-2.2096e-09	3.726	1.1324	0.6992	0.15865	-8.1683e-09	0.38416	-17.965	224.356	279.767	-27.726	18.917	110.131	-28.531	-23.107	269.076	118.750	-23.921	-19.219	-18.582	-14.224	-29.296	-15.147	-8191	255	
11660.275	1	1	0	0	0.11158	0.17646	0.087563	0.16192	0.14492	0.089052	0.13023	0.045138	0.064196	0.19163	0.28221	0.29072	0.038071	0.28469	0.18211	0.14801	-2.6458	-2.6292	-2.8083	-2.8979	-2.6312	-3.1104	-2.6958	-2.4792	-3.1167	-2.5792	-2.7604	-2.9354	-2.5771	-2.8646	-2.9	-2.65	-34.501	179.646	89.096	75.366	219.478	-4.668	226.363	-0.721	212.120	85.076	264.734	181.899	248.577	222.615	95.100	84.246	6.4571e-06	5.5359e-05	1.2514e-05	9.1678	2.7704e-07	4.8667e-07	10.515	2.3453	4.4361e-07	7.2551e-07	3.424	1.0578	0.58246	0.14504	2.1904e-07	0.33989	5.7886e-08	2.9682e-06	4.9041e-07	9.7812	2.1005e-09	-6.9913e-09	11.475	2.6227	-1.3693e-08	-1.1819e-09	3.6842	1.1277	0.67877	0.15561	-6.7899e-09	0.37516	224.565	281.139	188.596	-28.319	210.078	224.656	-28.003	-23.341	217.320	113.794	-24.358	-18.917	-18.831	-15.344	241.559	-14.886	-8191	255	
11660.371	1	1	0	0	0.088149	0.17023	0.23647	0.13847	0.17607	0.07016	0.15514	0.11039	0.15258	0.13213	0.30295	0.14243	0.20602	0.17686	0.057619	0.37481	-2.5583	-2.7104	-2.6833	-2.7771	-2.5792	-2.9542	-2.7375	-2.5062	-3.1437	-2.6375	-2.8375	-2.675	-2.5771	-2.8083	-2.8208	-2.65	268.858	245.394	248.368	187.111	239.320	207.093	85.918	21.129	55.103	156.900	86.816	47.264	122.461	310.128	124.149	107.638	1.7652e-06	4.594e-05	2.0395e-05	9.0038	5.3072e-07	4.0045e-07	10.316	2.2914	3.9952e-07	3.5213e-07	3.3683	1.039	0.58298	0.14066	5.3504e-07	0.34205	7.1245e-08	-5.1192e-07	1.9237e-06	9.6158	1.537e-09	-4.0097e-09	11.231	2.5306	-8.0428e-09	-2.8262e-09	3.6099	1.1012	0.67587	0.15393	-5.3605e-09	0.37406	128.900	43.706	205.802	-27.987	-17.853	-2.352	-28.130	-22.544	194.017	218.505	-24.505	-19.462	-17.497	-14.631	-20.992	-14.843	-8191	255	
11660.468	1	1	0	0	0.0084811	0.0641	0.0999	0.19063	0.19172	0.19982	0.11001	0.13551	0.19418	0.21123	0.139	0.17321	0.16316	0.11052	0.034559	0.12225	-2.6021	-2.7646	-2.6583	-2.9562	-2.7333	-2.8583	-2.8333	-2.5042	-2.925	-2.8958	-2.6667	-3.0938	-2.6021	-2.6583	-2.6792	-2.6542	129.969	132.579	260.087	-23.218	82.573	157.521	83.316	132.383	165.404	195.961	-25.142	45.974	-15.413	136.838	196.868	227.050	7.2608e-06	2.4564e-05	2.7148e-05	8.9391	2.7205e-07	4.6462e-07	10.286	2.2672	5.8456e-07	7.465e-07	3.3762	1.0283	0.59055	0.14172	8.4398e-07	0.34074	5.3879e-07	2.1134e-07	1.7445e-06	9.6061	6.8651e-09	-1.9534e-09	11.17	2.5525	-9.3154e-09	-5.6524e-09	3.6339	1.1082	0.6534	0.16015	-1.0313e-08	0.37664	164.852	-39.095	215.734	-27.755	220.328	156.264	-28.049	-22.922	45.650	48.552	-24.329	-18.762	-18.108	-14.539	308.337	-14.640	-8191	255	
11660.564	1	1	0	0	0.34734	0.3149	0.18185	0.22531	0.17432	0.25582	0.081538	0.07736	0.15986	0.040841	0.24136	0.059803	0.052513	0.18531	0.11668	0.12713	-2.5083	-2.6729	-2.5208	-2.7333	-2.45	-2.6896	-2.6083	-2.5521	-2.7313	-2.8479	-2.5604	-2.8104	-2.5896	-2.6021	-2.8542	-2.5208	148.634	-19.773	253.814	73.063	128.832	34.363	138.847	55.326	133.543	26.058	308.249	314.039	37.377	274.855	271.556	91.072	6.0037e-06	2.2972e-05	2.6275e-05	9.0795	6.6596e-07	3.1169e-07	10.353	2.3314	1.6639e-07	4.0653e-07	3.4476	1.0568	0.59471	0.14345	1.5899e-07	0.35442	6.1894e-07	-3.9451e-07	2.0584e-06	9.563	-2.7665e-09	-9.2532e-10	11.23	2.5698	-6.1085e-09	-9.5578e-09	3.6928	1.1348	0.65024	0.17356	-7.6578e-09	0.38652	216.429	281.533	211.457	-28.630	275.249	224.965	-28.224	-23.168	-9.383	232.736	-24.422	-18.105	-19.101	-13.606	121.525	-14.662	-8191	255	
11660.684	1	1	0	0	0.34396	0.15925	0.034363	0.071137	0.19304	0.049541	0.062333	0.042421	0.21403	0.1876	0.24069	0.062232	0.11109	0.1974	0.058073	0.11919	-2.5083	-2.6354	-2.5646	-2.9125	-2.6833	-2.5833	-2.975	-2.6	-2.9208	-2.875	-2.4125	-3.025	-2.6583	-2.7125	-3.025	-2.4688	124.436	69.934	37.346	26.077	213.640	280.703	150.096	318.352	-37.143	162.337	94.004	-26.557	204.123	171.778	-24.055	255.113	7.5091e-06	4.9981e-05	1.0647e-05	9.1621	3.6451e-07	2.6804e-07	10.457	2.3179	5.2551e-07	2.3645e-07	3.4379	1.0556	0.596	0.1417	3.1277e-07	0.34424	6.8128e-07	-9.8627e-07	1.619e-06	9.7242	-7.6848e-10	-3.1872e-09	11.279	2.5964	-6.6684e-09	-1.2076e-08	3.6725	1.1252	0.64695	0.16866	-8.5767e-09	0.38026	147.964	-1.223	227.681	-29.038	111.875	47.087	-28.200	-23.304	299.606	-24.438	-23.874	-19.326	-19.361	-13.621	262.849	-14.658	-8191	255	
11660.779	1	1	0	0	0.074835	0.1641	0.089795	0.21458	0.11399	0.090666	0.055664	0.11972	0.22475	0.2035	0.25225	0.11483	0.027398	0.37243	0.23607	0.23612	-2.5687	-3.0333	-2.5396	-2.9229	-2.8021	-2.8167	-2.8833	-2.5375	-2.7583	-2.8979	-2.6083	-2.9021	-2.8063	-2.5062	-2.9229	-2.6813	216.499	24.514	36.456	292.003	47.732	95.977	8.226	269.674	271.524	263.045	266.840	-11.145	63.234	63.123	211.147	143.008	1.0604e-05	9.6504e-05	1.8507e-05	8.9536	3.6121e-07	3.8387e-07	10.41	2.3474	6.476e-07	2.4724e-07	3.4241	1.0391	0.60005	0.14639	3.3736e-07	0.3541	6.4565e-07	-1.1976e-06	1.8596e-06	9.5773	-1.9468e-09	-4.3695e-09	11.289	2.561	2.1838e-08	-1.2024e-08	3.712	1.1418	0.65451	0.17572	-1.9961e-08	0.3874	178.848	-28.800	-40.248	-28.591	238.033	-35.211	-28.373	-22.802	181.077	46.744	-25.084	-19.065	-18.621	-14.104	208.753	-15.514	-8191	255	
11660.875	1	1	0	0	0.28278	0.15095	0.078798	0.1523	0.25027	0.13549	0.11837	0.067477	0.10176	0.13906	0.11053	0.2414	0.063637	0.21161	0.1357	0.061203	-2.375	-2.7188	-2.5771	-2.7875	-2.6333	-2.6333	-2.9292	-2.6271	-2.85	-2.8208	-2.6375	-2.7396	-2.7646	-2.3667	-2.9188	-2.4813	132.987	71.481	0.257	-13.900	30.074	117.252	25.030	180.812	176.102	18.609	-35.777	111.823	317.909	86.218	156.882	27.036	8.4421e-06	1.0965e-05	3.3766e-06	9.1277	2.25e-07	1.602e-07	10.599	2.3644	7.6993e-07	5.3707e-07	3.4842	1.0605	0.60258	0.14724	1.191e-07	0.36103	3.2951e-07	-9.1582e-07	1.4712e-06	9.7487	-5.6867e-09	-2.2105e-09	11.465	2.553	6.8669e-08	-1.593e-08	3.766	1.1578	0.65963	0.17405	-9.1894e-09	0.39187	110.781	205.774	138.613	-28.939	-32.449	127.163	-28.479	-23.158	81.764	-19.298	-23.984	-18.784	-18.833	-14.315	253.601	-15.238	-8191	255	
11660.971	1	1	0	0	0.090203	0.11	0.10299	0.20012	0.21203	0.21451	0.17811	0.12398	0.23988	0.08933	0.23019	0.15434	0.081177	0.04556	0.20081	0.062523	-2.2021	-2.8667	-2.5354	-2.8167	-2.8854	-2.4646	-2.8771	-2.6979	-2.6354	-2.9667	-2.6833	-2.8229	-2.7	-2.6771	-2.9271	-2.5354	65.231	16.108	-34.069	163.944	-26.912	32.484	98.681	20.034	150.421	152.258	165.033	54.705	60.510	148.320	288.333	153.626	6.8341e-06	2.1558e-05	2.268e-05	9.1596	6.052e-07	3.7665e-07	10.651	2.3496	7.4826e-07	1.8559e-07	3.5207	1.0732	0.60423	0.14655	3.0649e-07	0.35448	1.4427e-06	-9.8627e-07	1.8217e-06	9.7974	-1.1015e-08	-4.1639e-09	11.588	2.5641	5.462e-08	-1.557e-08	3.8007	1.1636	0.65825	0.17548	-1.164e-08	0.3892	50.277	163.487	264.274	-28.504	252.030	48.495	-28.197	-23.275	69.845	62.895	-24.470	-18.269	-20.300	-14.661	222.870	-15.538	-8191	255	
11661.067	1	1	0	0	0.055558	0.20101	0.081637	0.25571	0.1133	0.092571	0.24586	0.1511	0.10388	0.11382	0.09209	0.22415	0.26537	0.057106	0.17702	0.14414	-2.1271	-2.8896	-2.6688	-2.7062	-2.7188	-2.5771	-2.7792	-2.7104	-2.5396	-2.9604	-2.5917	-2.7625	-2.8542	-2.4458	-2.7021	-2.5104	10.118	289.753	-18.220	64.952	136.990	311.315	115.005	262.554	111.281	-26.710	95.495	-37.155	-16.441	47.547	-1.277	297.772	4.143e-06	4.3644e-05	8.2744e-06	9.0906	2.5789e-07	3.4131e-07	10.523	2.3344	1.6236e-06	4.2173e-07	3.5167	1.0549	0.60552	0.14445	1.4697e-07	0.35335	9.8852e-07	-1.409e-06	4.1064e-07	10.051	-1.04e-08	-2.2619e-09	11.506	2.5261	7.5236e-08	-1.0483e-08	3.7693	1.15	0.653	0.16934	-1.2355e-08	0.38444	12.294	106.050	300.659	-28.312	-28.371	121.322	-28.197	-22.896	104.478	95.404	-24.358	-18.520	-18.472	-14.017	197.063	-15.734	-8191	255	
11661.163	1	1	0	0	0.065657	0.20156	0.25339	0.20591	0.096195	0.09449	0.39229	0.18556	0.24868	0.18211	0.036909	0.41698	0.22386	0.20284	0.24679	0.075819	-2.0396	-2.6625	-2.4417	-2.4437	-3.0083	-2.5229	-2.8604	-2.9042	-2.6625	-3.0042	-2.8292	-2.6188	-2.8292	-2.3292	-2.8833	-2.9833	6.355	51.869	169.962	29.131	316.023	203.871	54.102	194.599	80.390	160.926	156.953	78.988	292.132	91.856	251.334	0.133	8.4903e-06	4.2136e-05	7.8285e-06	9.2251	5.0525e-08	4.9878e-07	10.819	2.4314	5.3415e-07	5.2341e-07	3.6731	1.1076	0.62234	0.15099	3.1938e-07	0.37049	1.1889e-06	-1.2258e-06	-1.1901e-07	10.55	-1.0298e-08	-6.9399e-09	11.77	2.6079	5.8183e-08	-1.5827e-08	3.8946	1.2011	0.67816	0.17818	-3.5736e-09	0.40071	211.369	206.962	126.824	-29.187	194.592	275.704	-27.803	-23.447	89.193	63.414	-23.349	-18.487	-19.330	-14.609	140.835	-14.883	-8191	255	
11661.260	1	1	0	0	0.24317	0.12255	0.12915	0.088823	0.11205	0.1138	0.10482	0.20328	0.12961	0.2818	0.052856	0.18044	0.2485	0.055031	0.19364	0.019687	-1.9708	-2.8104	-2.5417	-2.5104	-3.0729	-2.4604	-2.6396	-2.8646	-2.5396	-2.9333	-2.6167	-2.6458	-2.7604	-2.5479	-2.7521	-2.9813	-36.863	78.133	205.308	22.800	294.270	96.851	-30.516	84.396	98.299	-34.588	160.959	189.638	121.689	38.805	101.109	204.647	4.7193e-06	7.031e-05	1.1793e-05	9.4526	5.5599e-07	2.4766e-07	11.078	2.4884	7.4246e-07	4.3893e-07	3.7002	1.1447	0.64047	0.15921	5.7158e-07	0.38393	7.926e-07	-1.5686e-06	-2.4717e-07	10.701	-1.8853e-08	-3.9583e-09	11.974	2.686	7.7526e-08	-1.0277e-08	3.962	1.2417	0.70507	0.17655	2.4505e-08	0.41501	101.621	98.500	262.502	-29.258	-21.369	113.777	-28.031	-23.004	122.459	174.360	-24.356	-18.633	-19.329	-15.207	161.390	-15.399	-8191	255	
11661.356	1	1	0	0	0.1647	0.15328	0.10382	0.10763	0.17053	0.3046	0.20371	0.12735	0.16879	0.27056	0.38277	0.10255	0.14987	0.157	0.23106	0.080211	-2.3021	-2.7521	-2.6354	-2.5563	-2.9458	-2.5833	-2.7854	-2.8646	-2.6229	-3.0646	-2.8583	-2.3688	-2.9667	-2.6	-2.7021	-2.9333	55.983	14.239	-25.416	313.710	256.950	138.099	189.969	313.034	300.526	-35.546	242.182	239.587	285.567	266.423	124.864	198.539	7.8069e-06	4.5775e-05	4.59e-06	9.4871	2.8304e-07	3.1239e-07	10.961	2.4598	1.569e-07	5.3904e-07	3.6741	1.1344	0.63898	0.15519	6.1109e-07	0.37483	8.015e-07	-1.0614e-06	-2.2493e-07	10.913	-1.291e-08	-8.8933e-09	11.973	2.6749	4.79e-08	-1.4388e-08	3.9111	1.2216	0.69039	0.17066	6.8716e-08	0.40317	174.508	252.273	273.571	-29.889	28.329	14.837	-28.515	-23.045	112.001	44.250	-24.147	-19.018	-19.469	-15.294	179.387	-16.053	-8191	255	
11661.452	1	1	0	0	0.14082	0.10775	0.19374	0.05444	0.16543	0.16187	0.25797	0.14009	0.10663	0.072153	0.35267	0.33293	0.1183	0.099327	0.18071	0.088225	-1.9708	-2.9188	-2.8292	-2.3563	-3.1167	-2.5833	-2.8125	-2.9521	-2.7021	-2.7125	-2.8396	-2.4875	-3.0146	-2.7396	-2.6771	-2.8104	312.170	21.477	16.334	87.429	86.593	263.450	81.497	103.669	246.065	146.121	130.032	110.146	288.468	85.973	41.079	238.607	8.3462e-06	7.2582e-06	6.1591e-06	9.4234	2.9296e-07	4.5763e-07	10.871	2.4658	1.0485e-06	2.5382e-07	3.6017	1.1118	0.62399	0.15234	3.7647e-07	0.36793	7.7479e-07	-9.6748e-07	-3.9756e-07	10.538	-1.0503e-08	-1.0487e-08	11.751	2.6477	5.859e-08	-1.3258e-08	3.8573	1.2035	0.68246	0.16797	5.1716e-08	0.40245	292.877	96.582	61.023	-28.462	54.447	44.640	-28.533	-22.572	113.944	141.143	-24.860	-19.189	-20.110	-13.547	278.554	-14.261	-8191	255	
11661.572	1	1	0	0	0.11016	0.037686	0.23938	0.11819	0.13216	0.16356	0.19278	0.18919	0.15578	0.25357	0.28981	0.09975	0.27098	0.10921	0.40947	0.061106	-2.2771	-2.8375	-2.6792	-2.5021	-3.0208	-2.7875	-2.6063	-2.7896	-2.4813	-2.6583	-2.6562	-2.5062	-2.7188	-2.6646	-2.4583	-2.8146	101.881	103.381	45.402	315.466	188.959	140.550	307.594	96.642	82.954	-15.128	111.704	120.331	138.931	-13.843	28.709	168.120	7.8548e-06	3.7301e-05	1.1065e-05	9.2057	4.4663e-07	1.3959e-07	10.866	2.4356	1.0544e-06	4.2946e-07	3.6012	1.1052	0.62681	0.15061	8.707e-07	0.37552	6.2339e-07	-7.3265e-07	-3.714e-07	10.702	-9.4779e-09	-1.1566e-08	11.831	2.6246	1.2013e-08	3.227e-08	3.8696	1.2009	0.68458	0.16818	7.326e-08	0.40482	196.599	-31.159	112.624	-29.506	311.603	123.897	-28.150	-22.626	80.607	182.129	-24.482	-19.310	-18.536	-14.255	198.815	-14.794	-8191	255	
11661.644	1	1	0	0	0.17392	0.15487	0.07422	0.13658	0.14322	0.20169	0.06279	0.15316	0.23731	0.063913	0.14962	0.094134	0.096145	0.23672	0.18734	0.042028	-2.1042	-2.7083	-2.7854	-2.5229	-2.7438	-2.75	-2.5	-2.8375	-2.6917	-2.6333	-2.8104	-2.5604	-2.7438	-2.8208	-2.3917	-2.9562	185.049	269.705	198.906	238.575	85.353	250.504	42.064	21.572	143.474	35.706	89.400	-23.392	134.721	217.908	28.571	148.449	1.0382e-05	2.7246e-05	4.6013e-06	9.3576	5.8554e-07	3.4842e-07	10.959	2.4557	4.0859e-07	2.5908e-07	3.624	1.1105	0.63058	0.15543	1.7477e-07	0.36186	1.0375e-06	-1.6438e-07	-3.5702e-07	10.556	-9.8365e-09	-8.7391e-09	11.894	2.646	-3.5633e-09	6.9114e-08	3.8718	1.2065	0.68238	0.16727	5.4983e-08	0.3968	180.650	192.302	-10.815	-28.635	155.786	127.714	-27.879	-22.695	81.433	144.928	-23.910	-18.997	-19.079	-15.375	162.013	-15.000	-8191	255	
11661.765	1	1	0	0	0.10245	0.37156	0.10496	0.0055977	0.14847	0.22111	0.054718	0.17603	0.18102	0.11159	0.14256	0.19383	0.11245	0.094219	0.1401	0.18022	-1.8583	-2.4979	-2.9813	-2.7562	-2.9437	-2.7354	-2.3958	-2.9188	-2.7146	-2.6958	-2.9458	-2.4583	-2.8042	-2.8083	-2.5167	-3.0125	27.290	108.045	272.780	47.629	112.484	26.689	12.642	313.260	239.213	279.821	46.928	180.573	216.482	102.908	-36.607	96.673	3.5032e-06	2.0045e-05	1.8068e-05	9.2849	5.4595e-07	4.37e-07	10.663	2.383	7.7059e-07	7.8527e-07	3.5413	1.0839	0.5959	0.15116	9.2056e-07	0.36074	3.3396e-07	-2.3952e-07	-2.694e-07	10.461	-5.2769e-09	-1.2183e-08	11.612	2.5653	-1.2013e-08	5.5959e-08	3.781	1.1698	0.66539	0.16368	7.6323e-08	0.3946	26.559	9.272	-26.293	-28.566	247.749	206.887	-28.443	-22.601	20.228	59.831	-24.132	-19.018	-19.266	-14.558	260.902	-14.857	-8191	255	
11661.859	1	1	0	0	0.065005	0.098477	0.33331	0.27175	0.12739	0.04872	0.18775	0.21428	0.10673	0.19278	0.10014	0.19005	0.24238	0.31217	0.16381	0.11503	-2.3125	-2.4813	-2.9708	-2.6688	-2.6792	-3.0271	-2.5667	-2.8958	-2.7521	-2.5833	-2.8833	-2.6375	-2.5875	-2.8792	-2.55	-2.8187	297.709	-30.332	268.694	81.505	5.332	194.022	276.490	89.534	227.533	171.478	316.381	220.217	59.407	72.415	45.565	260.887	1.4947e-05	6.2975e-05	2.9815e-06	9.2818	5.6651e-07	1.2279e-07	10.791	2.3962	4.1967e-07	4.029e-07	3.5526	1.0764	0.62047	0.14638	6.9596e-07	0.36908	-4.1411e-07	-2.4422e-07	-2.7071e-07	10.035	3.4735e-08	-1.9072e-08	11.643	2.5818	-1.4711e-08	6.7059e-08	3.8053	1.1775	0.66966	0.16278	5.7127e-08	0.39955	305.251	317.517	138.506	-28.841	52.289	114.605	-27.726	-23.001	26.154	119.994	-24.787	-19.122	-18.648	-14.597	185.108	-15.056	-8191	255	
11661.955	1	1	0	0	0.046041	0.1007	0.2171	0.24762	0.24559	0.227	0.11306	0.28301	0.20681	0.19889	0.15066	0.10365	0.18881	0.13677	0.052434	0.24592	-2.4583	-2.5917	-2.7125	-2.75	-2.7625	-2.9375	-2.4292	-2.6688	-2.6479	-2.4979	-2.7333	-2.6063	-2.5687	-2.8854	-2.5958	-2.8958	-39.843	304.267	158.692	-39.313	306.345	311.552	64.490	-17.465	214.990	124.615	148.571	-16.674	20.749	112.909	21.590	226.858	9.4109e-06	1.0944e-05	9.7011e-06	9.3474	9.704e-07	2.0992e-07	10.788	2.3922	5.4104e-07	2.9444e-07	3.5724	1.1046	0.61305	0.15178	4.711e-07	0.36431	-5.3433e-08	-2.4891e-07	-2.0139e-07	9.9428	7.0393e-08	-1.1155e-08	11.725	2.5972	-1.1657e-08	5.4983e-08	3.8317	1.1904	0.67728	0.16478	5.4064e-08	0.40177	264.343	47.825	70.918	-28.299	13.550	205.771	-27.813	-22.631	-6.391	132.367	-24.019	-19.113	-19.279	-14.261	31.839	-15.056	-8191	255	
11662.051	1	1	0	0	0.1121	0.27775	0.23657	0.16308	0.23259	0.24626	0.16743	0.030622	0.1239	0.17446	0.1505	0.16352	0.060916	0.10012	0.092474	0.14656	-2.2812	-2.4479	-2.9562	-2.7062	-2.5604	-3.0792	-2.6542	-2.5333	-2.8542	-2.375	-2.7521	-2.7583	-2.4062	-2.9708	-2.7354	-2.6646	206.740	250.578	-35.395	137.679	32.019	310.857	134.483	162.306	-18.130	281.337	248.379	151.799	248.297	119.383	169.024	186.789	3.1601e-06	2.8477e-05	2.0641e-05	9.2815	7.1072e-07	1.9077e-07	10.743	2.3744	8.0721e-07	8.266e-07	3.5081	1.0768	0.60676	0.14889	4.6806e-07	0.35152	-2.0038e-07	-1.0332e-07	-3.3348e-07	9.9572	5.8712e-08	-1.9946e-08	11.665	2.5543	-1.237e-08	6.9936e-08	3.7516	1.1558	0.66022	0.15924	3.3694e-09	0.39812	-9.765	64.192	272.713	-28.096	-21.897	50.923	-28.497	-22.819	117.018	128.914	-24.185	-18.771	-19.046	-15.252	150.277	-15.268	-8191	255	
11662.172	1	1	0	0	0.23478	0.18856	0.046087	0.17931	0.38317	0.056913	0.19821	0.14687	0.057372	0.052972	0.16718	0.12542	0.23631	0.079921	0.10787	0.11599	-2.2604	-2.4188	-2.8229	-2.75	-2.7396	-3.1604	-2.7062	-2.6208	-2.8833	-2.6146	-2.7417	-2.8333	-2.5458	-2.9021	-2.6708	-2.5521	303.978	216.484	217.176	187.930	32.399	195.704	49.388	232.167	103.218	69.803	15.723	150.165	73.079	84.764	-32.119	-0.609	1.3957e-05	5.2602e-05	2.9094e-06	9.0332	5.2246e-07	4.0246e-07	10.578	2.3375	3.6679e-07	5.0706e-07	3.4308	1.066	0.59487	0.14374	8.9928e-07	0.35893	-7.5697e-08	-1.5498e-07	-2.9163e-07	9.7015	7.0956e-08	-1.681e-08	11.465	2.5209	-1.4609e-08	5.2311e-08	3.7107	1.1476	0.65499	0.15827	-1.0108e-08	0.40972	161.142	221.698	319.335	-28.884	-30.949	179.834	-27.855	-22.169	43.952	159.545	-23.802	-19.235	-19.668	-15.107	-8.415	-15.674	-8191	255	
11662.268	1	1	0	0	0.14944	0.044585	0.040268	0.22695	0.25088	0.12257	0.085871	0.13224	0.12613	0.19376	0.15362	0.26993	0.14918	0.27551	0.076159	0.22526	-2.6042	-2.5021	-2.8	-2.8563	-2.3937	-2.9229	-2.5125	-2.5625	-2.9271	-2.4917	-2.7979	-2.8271	-2.5938	-3.0021	-2.625	-2.7188	57.741	-29.785	-38.499	64.705	208.323	204.667	157.502	-13.615	205.719	42.974	210.657	287.908	144.169	-30.843	245.541	9.607	1.2223e-05	1.4783e-05	1.1734e-05	9.055	5.7653e-07	4.2492e-07	10.575	2.3176	4.4505e-07	9.7133e-09	3.4381	1.0734	0.59027	0.1476	5.3063e-07	0.35833	-3.7403e-07	-1.0802e-07	-2.0009e-07	9.726	5.5843e-08	-1.2954e-08	11.46	2.5196	-1.1504e-08	5.3801e-08	3.7305	1.1505	0.65141	0.16024	-5.7689e-09	0.40818	215.037	1.178	30.476	-28.398	14.060	-14.685	-28.097	-23.316	98.580	304.913	-23.792	-18.436	-18.975	-13.596	82.793	-15.629	-8191	255	
11662.340	1	1	0	0	0.15813	0.046265	0.45885	0.13583	0.32868	0.057196	0.14596	0.049002	0.069736	0.11586	0.2715	0.34494	0.2488	0.23247	0.041558	0.17095	-2.5146	-2.4917	-2.7229	-3.0312	-2.5604	-2.9021	-2.7896	-2.575	-2.9437	-2.6917	-2.8021	-2.9167	-2.5875	-2.6896	-2.7625	-2.4188	9.263	30.236	88.353	293.830	30.101	279.494	276.110	87.606	14.881	74.604	314.543	262.977	314.850	289.873	138.845	5.300	5.3041e-06	7.6944e-05	4.1841e-06	9.334	2.8127e-07	1.801e-07	10.548	2.3004	2.5223e-07	8.0716e-07	3.4466	1.0776	0.59917	0.14444	3.3833e-07	0.35393	-4.4528e-08	-1.1413e-06	-1.2554e-07	9.7126	7.3467e-08	-1.3983e-08	11.485	2.5204	-1.069e-08	-1.6443e-09	3.8169	1.1571	0.65395	0.16024	-1.2099e-08	0.41153	107.375	41.566	239.922	-28.920	63.842	8.383	-27.745	-23.042	79.545	28.136	-23.459	-18.843	-18.938	-14.703	172.919	-15.337	-8191	255	
11662.461	1	1	0	0	0.058	0.13775	0.19679	0.18152	0.020344	0.22757	0.18034	0.14152	0.23999	0.14049	0.26653	0.17622	0.062202	0.090975	0.21966	0.099748	-2.425	-2.3729	-2.6833	-2.6875	-2.5292	-2.6521	-2.8063	-2.5146	-2.8812	-2.6708	-2.5667	-3.0062	-2.6479	-2.7938	-2.7958	-2.4854	299.048	218.732	86.227	117.895	-3.738	44.834	243.063	75.589	285.989	90.341	192.394	210.110	288.264	157.491	220.703	128.473	1.2636e-05	2.0373e-05	1.6645e-05	9.1184	4.7892e-07	9.6989e-08	10.392	2.2749	2.8342e-07	2.8835e-07	3.3897	1.0455	0.57838	0.14336	2.6088e-07	0.34985	-3.117e-08	-3.4754e-07	3.9233e-08	9.5792	5.3794e-08	-7.711e-09	11.302	2.4773	-9.7735e-09	-5.1386e-09	3.7795	1.1335	0.63726	0.1567	-1.8123e-08	0.40337	290.640	92.537	163.471	-27.951	32.495	236.075	-28.656	-22.584	32.541	83.462	-23.408	-19.287	-18.401	-14.492	268.504	-15.583	-8191	255	
11662.557	1	1	0	0	0.16963	0.044084	0.20143	0.2249	0.1284	0.20951	0.092513	0.099357	0.15483	0.11124	0.25042	0.24856	0.10076	0.037561	0.041697	0.30676	-2.4562	-2.7562	-2.6771	-3.0042	-2.4729	-2.6312	-2.7854	-2.6125	-2.8688	-2.7188	-2.7042	-2.9562	-2.5354	-2.6042	-2.7208	-2.3979	163.136	42.977	142.663	162.442	57.931	222.298	173.155	280.349	233.263	177.805	60.149	34.564	-11.122	257.206	-20.829	170.045	1.1832e-05	3.0062e-05	4.6623e-06	8.971	6.0634e-07	4.0955e-07	10.421	2.2991	9.3216e-08	5.4087e-07	3.4518	1.0534	0.58977	0.14532	7.7788e-07	0.35237	1.2913e-07	-7.8432e-07	2.7463e-08	9.6037	4.9593e-08	3.033e-09	11.339	2.4865	-1.181e-08	-7.5023e-09	3.7843	1.1427	0.64485	0.15751	-1.4856e-08	0.40941	263.316	-27.507	161.583	-28.483	33.545	15.450	-28.202	-22.574	-0.511	96.363	-23.222	-18.800	-19.557	-14.712	136.179	-15.849	-8191	255	
11662.653	1	1	0	0	0.19599	0.14028	0.097562	0.14654	0.13637	0.059749	0.19117	0.19557	0.057235	0.15467	0.26318	0.24455	0.20087	0.20451	0.1272	0.1938	-2.4396	-2.6625	-2.5958	-2.9354	-2.4479	-2.7104	-3.0167	-2.375	-2.8063	-2.6813	-2.5438	-2.8125	-2.5438	-2.5833	-2.8187	-2.5729	230.106	285.832	149.674	248.665	197.882	-0.067	141.413	97.092	288.096	-31.217	114.163	200.247	202.472	-25.079	113.878	-31.976	2.8426e-06	6.4027e-06	4.1933e-06	9.1369	2.4762e-07	7.8009e-08	10.539	2.2895	2.9464e-07	5.5059e-07	3.4866	1.0795	0.5927	0.14572	3.7661e-07	0.36086	3.4286e-07	-1.0896e-06	-4.3156e-08	9.575	-3.8424e-09	3.948e-08	11.392	2.4781	-7.0756e-09	-1.2538e-08	3.8469	1.1532	0.64438	0.16034	-1.4703e-08	0.40898	287.228	50.582	170.094	-28.538	29.183	138.466	-27.647	-22.780	148.467	96.527	-24.108	-19.412	-18.519	-15.809	-24.558	-14.736	-8191	255	
11662.773	1	1	0	0	0.10679	0.10974	0.23247	0.1028	0.1756	0.15882	0.078622	0.18818	0.1421	0.12401	0.15632	0.17384	0.20243	0.082325	0.1725	0.29103	-2.45	-2.7542	-2.475	-2.7167	-2.5396	-2.6958	-3.0458	-2.6396	-2.8875	-2.7583	-2.6458	-2.9062	-2.6646	-2.6646	-2.9875	-2.4417	225.345	110.893	148.649	92.204	176.805	-33.640	45.565	138.172	-2.875	4.042	250.186	72.433	74.099	194.933	120.545	295.666	9.2695e-06	5.7623e-05	1.8679e-05	9.1001	3.0402e-07	8.506e-07	10.504	2.3044	1.435e-07	1.2786e-07	3.4453	1.0414	0.58166	0.14349	1.7113e-07	0.35407	2.1819e-07	-7.4205e-07	-7.7158e-08	9.6533	-1.163e-08	6.5955e-08	11.422	2.48	-8.6536e-09	-1.7625e-08	3.7813	1.1349	0.6357	0.15647	-1.9145e-08	0.39856	-33.370	131.904	18.055	-29.057	-1.762	46.215	-28.227	-22.883	285.058	264.893	-23.856	-18.978	-18.693	-14.564	247.281	-16.033	-8191	255	
11662.868	1	1	0	0	0.15321	0.016759	0.12436	0.22055	0.14767	0.2863	0.10121	0.088639	0.25499	0.2514	0.17488	0.14311	0.027403	0.08492	0.20232	0.21753	-2.3167	-2.8312	-2.6688	-2.9333	-2.6583	-2.5417	-2.875	-2.5021	-2.7271	-2.9938	-2.525	-2.9979	-2.9188	-2.5563	-2.8479	-2.7167	245.688	57.513	153.771	68.101	142.271	124.757	-28.618	43.757	290.423	292.145	73.999	-9.833	100.482	155.651	18.034	74.879	7.3591e-06	1.7098e-05	6.1426e-06	8.9194	6.0662e-07	1.0449e-07	10.465	2.2538	7.6222e-07	2.3257e-07	3.3872	1.0384	0.57577	0.14124	6.2737e-07	0.3492	1.4204e-06	-1.3855e-06	-3.5309e-08	9.4569	-1.4038e-08	5.2692e-08	11.276	2.4455	-6.7702e-09	-1.7625e-08	3.7777	1.1269	0.63066	0.15761	-1.7868e-08	0.38485	-27.625	231.316	276.599	-28.694	234.794	256.410	-28.000	-23.326	38.040	10.816	-24.348	-18.761	-19.718	-14.103	227.148	-15.701	-8191	255	
11662.941	1	1	0	0	0.19548	0.26183	0.11209	0.37308	0.036126	0.15313	0.13342	0.062548	0.046596	0.1271	0.17058	0.12456	0.065408	0.20725	0.39811	0.21049	-2.3542	-2.8896	-2.6708	-2.7167	-2.8208	-2.5812	-2.8771	-2.6042	-2.6479	-3.0479	-2.5	-2.75	-2.6958	-2.5792	-2.95	-2.6854	306.421	272.682	138.369	63.878	200.108	61.436	232.895	-16.220	187.737	155.798	45.054	153.298	61.931	118.642	102.579	92.664	1.3901e-05	2.3665e-05	4.8227e-06	8.8807	6.2104e-07	5.6779e-07	10.405	2.2655	2.1948e-07	4.1108e-07	3.4221	1.0543	0.57585	0.14146	1.7935e-07	0.35482	4.6621e-06	-1.3949e-06	-6.9311e-08	9.506	-1.332e-08	6.7137e-08	11.281	2.4532	-8.8573e-09	-1.8499e-08	3.7737	1.1403	0.63798	0.15724	-1.6132e-08	0.38767	246.958	216.306	260.577	-27.379	181.684	61.383	-28.129	-23.064	221.565	180.904	-24.122	-19.027	-19.624	-15.343	314.271	-15.284	-8191	255	
11663.036	1	1	0	0	0.082342	0.1163	0.26984	0.090917	0.14572	0.064519	0.090671	0.16237	0.19763	0.34096	0.20294	0.15876	0.18695	0.054169	0.45763	0.19282	-2.0896	-2.8208	-2.6417	-2.6083	-2.6875	-2.5708	-2.7812	-2.6417	-2.6521	-2.8958	-2.425	-2.7646	-2.9146	-2.525	-2.5708	-2.6	-24.573	86.608	105.767	220.513	297.458	-1.332	146.106	-6.155	253.914	222.322	58.192	308.876	42.101	134.307	216.487	117.146	9.5078e-06	4.0639e-05	9.3457e-06	8.9696	2.5175e-07	2.8117e-07	10.536	2.301	4.7875e-07	5.2232e-07	3.4692	1.0479	0.58535	0.14243	2.02e-07	0.3472	6.9775e-06	-1.5686e-06	-8.5004e-08	9.5667	-1.373e-08	5.0584e-08	11.362	2.4746	-5.4976e-09	-1.2024e-08	3.7579	1.1533	0.6357	0.15738	-9.9041e-09	0.38385	-35.935	253.770	224.491	-28.389	224.454	29.212	-27.902	-23.473	169.113	177.378	-23.555	-18.846	-19.307	-15.380	211.091	-15.170	-8191	255	
11663.134	1	1	0	0	0.056383	0.15432	0.14462	0.096323	0.079081	0.25104	0.21815	0.066503	0.15329	0.050084	0.065462	0.10572	0.1134	0.28277	0.12398	0.2	-2.1688	-2.7188	-2.6042	-2.5687	-2.8708	-2.5583	-2.8104	-2.7375	-2.3812	-2.9667	-2.8229	-2.55	-2.8646	-2.5521	-2.7896	-2.8708	188.403	231.163	275.115	-4.717	161.506	151.278	248.510	-22.340	134.021	165.523	71.262	309.954	59.318	23.487	204.472	178.814	9.819e-06	3.699e-05	5.7313e-06	8.826	7.9056e-07	7.6836e-07	10.203	2.2526	4.1626e-07	2.1066e-07	3.3822	1.038	0.57698	0.14239	2.4377e-07	0.35269	5.4858e-06	-1.3244e-06	-1.0724e-07	9.4763	-1.5421e-08	6.909e-08	11.121	2.4152	-3.2069e-09	-1.4594e-08	3.6242	1.1501	0.62522	0.15454	-1.2252e-08	0.38094	303.790	285.341	54.325	-28.553	73.547	34.555	-28.002	-22.679	74.471	43.830	-24.598	-18.565	-18.353	-14.568	14.542	-15.307	-8191	255	
11663.252	1	1	0	0	0.18357	0.11344	0.19591	0.22747	0.29863	0.10721	0.38265	0.018804	0.16141	0.31265	0.13809	0.076012	0.11905	0.092994	0.17656	0.24285	-2.15	-2.7583	-2.5583	-2.5875	-2.8563	-2.4146	-2.7687	-2.6021	-2.5979	-2.7958	-2.7292	-2.6979	-2.7062	-2.425	-2.5708	-2.7979	103.826	89.337	1.019	-20.209	283.509	182.438	281.178	193.557	58.360	144.964	40.825	262.092	55.687	-9.475	118.656	137.245	1.1579e-05	3.8592e-05	1.2635e-05	8.8546	1.1594e-07	6.09e-07	10.317	2.2633	3.7775e-07	3.4838e-07	3.4167	1.0539	0.58303	0.14202	4.3212e-07	0.35673	7.1111e-06	-1.2915e-06	-3.1778e-07	9.4342	-1.6753e-08	5.0327e-08	11.221	2.4375	-7.0756e-09	-1.4953e-08	3.6483	1.18	0.63087	0.15635	-9.802e-09	0.38736	250.108	274.445	42.629	-28.615	84.122	82.727	-27.673	-23.090	142.187	94.313	-24.553	-19.108	-18.831	-15.037	82.701	-14.839	-8191	255	
11663.349	1	1	0	0	0.18022	0.11316	0.22103	0.09962	0.27845	0.016735	0.0941	0.1105	0.24305	0.11959	0.21011	0.21036	0.39609	0.10266	0.28886	0.35122	-2.0021	-2.7771	-2.6625	-2.6646	-2.8375	-2.6021	-2.6021	-2.8063	-2.6688	-2.8417	-2.6021	-2.6562	-3.0167	-2.5646	-2.8229	-2.9458	165.437	216.271	155.171	-24.775	62.739	57.512	162.092	252.275	209.133	171.223	313.810	288.632	-14.474	50.398	-1.356	64.498	6.4241e-06	4.9139e-05	6.3103e-06	8.9797	4.8786e-07	5.1929e-07	10.476	2.2705	1.6298e-07	3.4384e-07	3.4441	1.0837	0.58693	0.14324	5.0011e-07	0.36075	5.6417e-06	-1.2352e-06	-2.0401e-07	9.6237	-1.8239e-08	3.6242e-08	11.407	2.4664	-7.7374e-09	-1.187e-08	3.714	1.1897	0.64204	0.15972	-8.0662e-09	0.39279	1.028	218.016	151.365	-28.020	13.178	56.143	-28.126	-22.630	226.258	204.643	-24.022	-19.260	-18.356	-14.419	187.247	-15.497	-8191	255	
11663.445	1	1	0	0	0.29989	0.15164	0.23435	0.07975	0.14062	0.1608	0.16412	0.31255	0.107	0.18898	0.20659	0.19332	0.11597	0.063538	0.087717	0.14557	-2.1375	-2.7667	-2.5958	-2.4729	-2.7938	-2.4813	-2.7271	-2.7896	-2.4292	-2.825	-2.7771	-2.65	-2.8812	-2.55	-2.6562	-2.8979	221.708	12.550	163.428	234.406	211.343	-0.433	209.342	270.870	115.129	139.571	-27.020	-1.230	142.134	304.707	104.323	-14.970	9.8556e-06	2.8974e-05	1.8236e-06	9.0227	5.1047e-07	8.376e-08	10.491	2.2808	8.2786e-07	1.4751e-08	3.461	1.0633	0.59816	0.14445	4.8176e-07	0.3536	7.2002e-06	-5.9176e-07	-3.1909e-07	9.6913	-1.1835e-08	-1.3314e-08	11.593	2.4815	-7.1265e-09	-8.3759e-09	3.694	1.1938	0.63615	0.15686	-1.991e-09	0.3846	74.182	29.559	252.141	-27.689	176.559	-1.040	-28.380	-23.773	18.529	44.341	-23.646	-18.901	-19.452	-15.434	9.879	-14.574	-8191	255	
11663.541	1	1	0	0	0.22163	0.11192	0.23388	0.18842	0.14393	0.027879	0.23501	0.21392	0.28679	0.073135	0.20255	0.089565	0.22284	0.17639	0.20403	0.10957	-2.1896	-2.8833	-2.6354	-2.3625	-2.8875	-2.6646	-2.4667	-2.7625	-2.5625	-2.7271	-2.825	-2.6229	-2.7958	-2.7792	-2.7125	-3.0187	314.538	71.482	196.329	199.640	162.544	30.786	274.439	-38.754	-34.967	-12.998	189.167	-38.011	188.475	271.649	126.677	74.855	1.639e-05	5.1813e-05	2.0695e-05	8.9143	4.293e-07	1.3398e-07	10.446	2.2757	7.9429e-07	5.731e-07	3.4223	1.0618	0.57283	0.14434	1.9003e-07	0.36013	5.4591e-06	-1.2164e-06	-4.0279e-07	9.5227	-1.2501e-08	-1.0024e-08	11.513	2.4513	-6.6684e-09	-6.0121e-09	3.666	1.1785	0.63631	0.15766	-6.7899e-09	0.38767	23.045	74.669	231.495	-28.571	282.248	177.264	-28.042	-22.435	213.130	224.104	-24.072	-18.505	-18.212	-15.071	-25.862	-15.508	-8191	255	
11663.637	1	1	0	0	0.14795	0.030095	0.14729	0.15739	0.31528	0.16586	0.1145	0.25996	0.21392	0.077517	0.19389	0.12177	0.15317	0.19499	0.34561	0.049107	-2.1479	-2.7542	-2.7167	-2.4479	-2.7792	-2.8583	-2.3854	-2.8875	-2.5938	-2.6667	-2.7188	-2.3667	-2.8438	-2.7729	-2.5104	-3.0417	63.206	235.572	200.817	259.851	-38.988	172.835	234.918	-18.642	241.831	270.079	87.592	183.189	295.556	112.254	286.511	-16.641	1.3349e-05	1.7892e-05	4.0525e-06	9.0018	6.9443e-07	3.8044e-07	10.521	2.2733	2.721e-07	2.9173e-07	3.4429	1.0558	0.58485	0.14794	1.9238e-07	0.36211	3.8784e-06	1.16e-06	-4.2502e-07	9.5922	-1.1373e-08	-1.5679e-08	11.517	2.4588	-1.41e-08	-1.1613e-08	3.6912	1.1952	0.64212	0.15926	-5.5136e-09	0.39193	48.192	223.684	38.295	-27.640	181.065	2.986	-28.155	-22.667	29.937	3.428	-23.892	-18.119	-19.123	-15.175	294.963	-15.563	-8191	255	
11663.733	1	1	0	0	0.12464	0.14753	0.16954	0.27822	0.11795	0.25427	0.17994	0.10188	0.16758	0.099896	0.11801	0.1126	0.17938	0.21517	0.37226	0.13066	-2.2167	-2.6604	-2.8625	-2.6354	-2.9521	-2.8542	-2.4792	-2.9458	-2.725	-2.825	-2.9667	-2.6104	-2.8792	-2.7896	-2.4625	-2.8937	86.838	153.317	-8.513	204.362	131.309	251.353	179.422	227.183	0.481	-17.496	205.007	231.069	168.556	74.908	43.994	284.880	4.7295e-06	4.6139e-05	3.7189e-06	9.216	3.6857e-07	7.6976e-07	10.486	2.2924	3.8539e-07	1.8085e-07	3.4651	1.065	0.58793	0.14487	2.9085e-07	0.3611	3.3841e-07	4.4194e-06	-2.9294e-07	9.6223	-7.3774e-09	-1.7324e-08	11.648	2.4763	-1.4966e-08	-5.4469e-09	3.7174	1.1973	0.64443	0.15829	-6.1262e-10	0.39256	302.645	137.827	32.163	-27.622	237.384	108.904	-28.264	-23.034	293.839	312.388	-24.706	-18.717	-19.077	-14.441	43.927	-15.144	-8191	255	
11663.854	1	1	0	0	0.029183	0.13263	0.48481	0.010999	0.2274	0.20703	0.15844	0.29148	0.2563	0.4147	0.14807	0.27425	0.11036	0.099907	0.15534	0.26954	-2.2125	-2.6125	-2.8583	-2.6375	-2.8646	-3.0458	-2.7833	-2.9604	-2.6542	-2.6125	-2.9479	-2.6625	-2.6188	-2.825	-2.6063	-2.8937	4.135	7.713	45.883	275.048	245.535	-7.966	246.388	66.949	220.437	255.164	51.221	-28.162	157.930	-28.198	266.853	265.956	7.4525e-06	8.3381e-05	1.3262e-05	8.9912	2.2085e-07	6.0275e-07	10.314	2.2899	5.8071e-07	4.3724e-07	3.3927	1.0683	0.57932	0.1441	4.1765e-07	0.3583	4.0075e-08	6.2041e-06	-4.5641e-07	9.4926	-1.2398e-08	-2.5138e-08	11.373	2.4441	-1.2879e-08	-7.862e-09	3.6466	1.1583	0.65151	0.15698	-7.3515e-09	0.38781	42.641	-24.917	180.250	-28.079	76.696	100.504	-28.163	-23.280	243.855	116.998	-24.231	-18.979	-18.746	-14.531	29.052	-15.144	-8191	255	
11663.948	1	1	0	0	0.15373	0.20572	0.046633	0.19459	0.17069	0.22192	0.21789	0.090128	0.11636	0.10846	0.1121	0.082569	0.23023	0.097996	0.093597	0.16834	-2.3125	-2.4646	-2.9521	-2.4938	-2.7854	-2.8833	-2.4479	-2.8896	-2.8083	-2.4083	-2.925	-2.7292	-2.6188	-2.8396	-2.575	-2.7729	245.881	112.242	116.186	276.812	29.135	8.333	184.877	174.893	31.380	108.692	192.371	171.171	195.878	220.116	236.995	242.107	9.8617e-06	4.5332e-05	1.3093e-05	8.8964	3.0558e-07	2.5237e-07	10.403	2.2738	7.5491e-07	9.5541e-08	3.4158	1.0472	0.57666	0.14673	9.8531e-08	0.35936	1.603e-07	4.7998e-06	-3.374e-07	9.4884	-6.1478e-09	-1.7787e-08	11.439	2.4434	-1.6646e-08	-3.6998e-09	3.6503	1.1423	0.66882	0.15803	-2.1442e-09	0.39001	294.101	240.729	293.236	-27.629	-16.726	43.313	-27.986	-22.971	140.882	189.028	-24.490	-18.807	-18.773	-15.962	193.333	-14.978	-8191	255	
11664.044	1	1	0	0	0.26206	0.11982	0.04503	0.34631	0.077111	0.07954	0.23708	0.083272	0.16974	0.008089	0.20072	0.34261	0.12462	0.10996	0.26468	0.29415	-2.3563	-2.5125	-2.7604	-2.7167	-2.6167	-2.875	-2.4708	-2.5062	-2.8208	-2.5875	-2.8375	-2.5542	-2.5542	-2.825	-2.6292	-2.6917	197.349	311.213	212.078	67.887	130.730	3.121	55.491	185.508	303.339	212.221	118.739	95.079	276.991	281.658	272.721	-14.089	7.2383e-06	7.5657e-05	7.8379e-06	8.8723	3.8018e-07	2.9202e-07	10.417	2.2429	1.4861e-07	2.647e-07	3.4447	1.072	0.58636	0.14806	1.4643e-07	0.35366	-2.3155e-07	6.3027e-06	-4.551e-07	9.5116	-6.404e-09	-1.352e-08	11.427	2.4394	-1.5984e-08	-5.0872e-09	3.6585	1.1456	0.67914	0.15809	-8.781e-09	0.39204	189.548	-29.899	188.241	-28.662	24.452	308.508	-27.838	-21.781	170.100	15.314	-24.049	-19.004	-18.500	-14.569	54.079	-15.047	-8191	255	
11664.165	1	1	0	0	0.11366	0.39023	0.11478	0.14389	0.062674	0.31711	0.19377	0.20769	0.19351	0.057466	0.058795	0.24399	0.16308	0.049488	0.30002	0.16196	-2.3021	-2.4313	-2.7479	-2.6958	-2.6875	-2.8708	-2.5479	-2.6292	-2.7687	-2.6271	-2.8063	-2.8187	-2.5896	-2.5604	-2.6042	-2.725	-24.070	304.593	179.288	163.239	311.362	260.997	19.097	20.248	299.108	127.788	31.526	209.109	130.498	48.518	127.750	139.348	2.4294e-06	7.6877e-05	1.8443e-05	8.8366	3.9385e-07	1.1546e-07	10.234	2.2504	6.2674e-07	2.927e-07	3.3935	1.0496	0.57383	0.14118	3.1192e-07	0.347	-1.9592e-07	5.0159e-06	-3.5833e-07	9.4435	-6.7114e-09	-1.5062e-08	11.271	2.46	-1.125e-08	-2.4665e-09	3.6256	1.1281	0.65953	0.15476	-7.2494e-09	0.3842	263.849	240.727	255.829	-28.055	-40.247	-22.704	-27.829	-22.572	44.555	20.010	-24.364	-18.592	-18.660	-14.610	102.626	-15.238	-8191	255	
11664.237	1	1	0	0	0.13382	0.13407	0.15588	0.18095	0.14689	0.14952	0.14421	0.15412	0.070989	0.24225	0.073876	0.23297	0.2137	0.21687	0.25525	0.38014	-2.3521	-2.4271	-2.8083	-2.6917	-2.4813	-2.8458	-2.6688	-2.4938	-2.8396	-2.6479	-2.675	-2.7208	-2.525	-2.7521	-2.65	-2.5521	273.061	114.075	19.313	264.883	131.011	208.589	246.256	88.439	197.897	260.390	137.930	137.033	182.053	64.724	104.688	110.495	9.8045e-06	2.7722e-05	9.9633e-06	8.7882	5.3286e-07	6.4575e-07	10.093	2.2235	1.8417e-08	2.7548e-07	3.3698	1.0554	0.55246	0.14304	2.8047e-07	0.35021	-5.4769e-07	6.6174e-06	-1.857e-07	9.2827	-2.9202e-09	-1.5473e-08	11.028	2.4674	-1.5577e-08	-6.1663e-10	3.6169	1.1269	0.66582	0.155	-7.7089e-09	0.38616	32.017	254.227	223.869	-29.776	188.351	163.407	-28.756	-22.673	266.035	212.763	-23.982	-18.291	-18.793	-15.128	25.670	-15.018	-8191	255	
11664.333	1	1	0	0	0.14682	0.17296	0.088898	0.23755	0.12977	0.23274	0.14612	0.28354	0.22665	0.23305	0.095529	0.2933	0.27902	0.018441	0.14607	0.14244	-2.4229	-2.4354	-2.9083	-2.6562	-2.5312	-2.8479	-2.6708	-2.4417	-2.9896	-2.6375	-2.7938	-2.8167	-2.475	-2.8292	-2.6562	-2.5958	-25.392	35.187	253.373	185.317	95.192	233.899	311.226	148.443	278.200	69.292	290.630	243.328	307.915	256.089	284.497	137.720	3.453e-06	5.0628e-05	1.0884e-05	8.7585	2.9957e-07	9.9691e-08	10.169	2.2226	6.2122e-07	2.0976e-07	3.3804	1.0554	0.57956	0.14412	3.4332e-07	0.35332	1.6921e-07	4.7857e-06	-2.4455e-07	9.2415	-6.1478e-09	-9.4074e-09	11.018	2.4861	-1.6289e-08	-6.0635e-09	3.629	1.1291	0.65873	0.15644	-1.4346e-08	0.38728	120.448	-7.806	166.980	-27.878	66.695	51.294	-28.197	-22.981	169.773	308.945	-23.730	-19.067	-19.088	-14.462	142.584	-14.990	-8191	255	
11664.429	1	1	0	0	0.027788	0.1555	0.29128	0.090759	0.03213	0.24685	0.15901	0.24521	0.16097	0.17549	0.076566	0.14166	0.27626	0.091763	0.25429	0.22429	-2.5854	-2.5521	-2.7979	-2.9104	-2.7292	-3.1208	-2.7354	-2.5771	-3	-2.5771	-2.6437	-2.8688	-2.4854	-2.6312	-2.8417	-2.4188	-37.638	310.178	65.508	-25.128	261.561	14.662	246.774	103.831	269.433	314.112	192.971	14.766	142.773	220.041	128.964	54.355	7.3632e-06	1.8439e-05	5.6621e-06	8.8205	2.8562e-07	4.29e-07	10.068	2.2235	4.9961e-07	2.5598e-07	3.3751	1.053	0.57245	0.14301	3.1876e-07	0.34931	-5.655e-07	2.4046e-06	7.7288e-07	9.229	-8.1971e-10	-1.5833e-08	10.973	2.4623	-1.7104e-08	-8.5301e-09	3.6113	1.1301	0.66537	0.15582	-9.5467e-09	0.38711	46.908	248.832	277.222	-28.749	222.643	59.977	-27.696	-23.122	318.439	183.137	-23.896	-19.084	-18.855	-13.563	113.286	-15.041	-8191	255	
11664.550	1	1	0	0	0.10497	0.15771	0.061681	0.090625	0.14238	0.30654	0.13377	0.32088	0.13576	0.012388	0.15917	0.22492	0.086158	0.1293	0.17599	0.073834	-2.4833	-2.7917	-2.7208	-3.0062	-2.45	-2.65	-2.8104	-2.2875	-2.8417	-2.5646	-2.6417	-2.9	-2.5	-2.6729	-2.8229	-2.4875	180.250	151.079	144.603	308.541	41.664	23.469	78.062	112.618	62.565	31.649	196.000	28.550	129.459	120.534	49.651	228.901	6.4587e-06	6.6993e-05	1.0396e-05	8.3069	1.0008e-07	6.8438e-07	9.8735	2.186	2.4356e-07	4.4481e-07	3.3274	1.0205	0.5545	0.14277	6.8698e-07	0.3513	-1.7366e-07	-9.346e-07	1.4085e-06	9.0103	-1.537e-09	-1.2492e-08	10.743	2.4581	-7.5847e-09	-6.9885e-09	3.5504	1.1017	0.64692	0.15387	-8.5257e-09	0.37879	141.270	57.278	311.446	-28.894	219.977	-32.554	-28.145	-22.642	255.317	133.166	-24.394	-18.765	-19.798	-14.808	121.750	-15.568	-8191	255	
11664.646	1	1	0	0	0.086138	0.11383	0.14759	0.18365	0.11182	0.068119	0.14453	0.15488	0.18587	0.18494	0.2254	0.22734	0.14719	0.17451	0.062277	0.15844	-2.4396	-2.725	-2.5458	-2.7313	-2.4479	-2.5667	-2.9229	-2.4958	-2.8875	-2.8396	-2.3937	-2.8771	-2.5646	-2.6646	-2.6896	-2.4875	188.422	11.196	24.050	61.372	39.129	41.930	252.328	5.615	284.003	285.257	190.412	45.753	172.713	283.477	257.720	67.255	1.4153e-05	6.5563e-05	1.3217e-05	8.5485	2.0316e-07	4.8821e-09	9.8883	2.1924	2.6304e-07	1.1245e-07	3.3396	1.0259	0.57182	0.13735	3.7922e-07	0.3513	-1.1577e-07	-7.3735e-07	1.84e-06	8.995	-7.2237e-09	-1.1155e-08	10.763	2.4335	-1.2879e-08	-9.9689e-09	3.5885	1.1131	0.63357	0.16225	-1.3784e-08	0.38377	292.193	195.915	282.039	-28.029	287.290	184.027	-27.829	-22.875	191.898	135.247	-23.748	-19.540	-19.354	-14.624	164.014	-14.446	-8191	255	
11664.742	1	1	0	0	0.12571	0.17406	0.077977	0.26921	0.27146	0.19183	0.098124	0.21083	0.38473	0.032887	0.032488	0.1228	0.24389	0.23937	0.24753	0.077048	-2.4688	-2.6708	-2.6771	-2.8375	-2.6021	-2.5938	-2.9188	-2.4854	-2.7792	-2.9104	-2.4437	-2.9396	-2.5771	-2.5375	-3.0396	-2.6417	306.160	315.160	86.085	-22.193	-0.399	108.176	103.073	295.262	144.115	133.646	72.819	119.920	291.199	56.731	33.838	214.080	6.2926e-06	6.2725e-06	9.4739e-06	8.5668	5.7187e-07	2.2201e-07	9.9945	2.2133	5.2731e-07	2.3289e-07	3.4001	1.0537	0.57875	0.13865	2.5094e-07	0.3578	3.6068e-07	-1.2352e-06	1.3627e-06	9.1178	-7.4286e-09	-4.1125e-09	10.876	2.4776	-9.4172e-09	-1.593e-08	3.6438	1.1355	0.6315	0.1686	-1.7562e-08	0.39063	-10.708	51.952	-31.078	-27.886	66.312	220.595	-27.748	-22.916	48.782	103.253	-24.369	-19.383	-18.199	-13.696	252.269	-14.437	-8191	255	
11664.814	1	1	0	0	0.27775	0.22493	0.12212	0.077864	0.062196	0.10399	0.13678	0.087666	0.27713	0.19051	0.19483	0.35873	0.045983	0.24047	0.093534	0.15451	-2.3333	-2.7854	-2.4646	-3.0333	-2.6437	-2.5208	-2.8812	-2.3625	-2.6229	-2.7854	-2.6083	-2.8396	-2.6813	-2.3896	-2.7875	-2.4458	31.531	197.491	202.767	173.437	138.014	23.326	67.561	182.597	240.760	80.030	52.497	282.331	180.730	101.645	142.210	-13.382	6.8537e-06	3.4906e-05	1.3719e-05	8.7686	3.0894e-07	1.799e-07	10.074	2.2126	6.3438e-07	2.33e-07	3.3612	1.0433	0.56352	0.13909	5.238e-07	0.35142	-4.4528e-09	-9.1112e-07	1.8322e-06	9.2044	-1.0298e-08	-5.8089e-09	10.958	2.4554	-6.2612e-09	-1.7677e-08	3.6068	1.1207	0.62336	0.1691	-1.164e-08	0.38243	62.570	21.528	-8.038	-29.263	116.331	195.147	-27.975	-23.096	161.049	257.864	-24.609	-19.355	-18.802	-15.252	224.742	-15.694	-8191	255	
11664.932	1	1	0	0	0.088895	0.16134	0.10314	0.25862	0.14274	0.089313	0.18822	0.35851	0.090998	0.094737	0.3154	0.11436	0.087282	0.12677	0.17618	0.15282	-2.2708	-2.6854	-2.4583	-2.7729	-2.6229	-2.4792	-3.0563	-2.4896	-2.6417	-2.8604	-2.375	-2.7812	-2.3833	-2.6021	-2.9396	-2.6375	314.353	314.955	1.100	247.546	250.031	88.205	100.887	227.049	262.778	172.601	192.786	196.165	94.642	43.162	133.432	17.644	1.7158e-06	6.8782e-06	1.2255e-05	8.6112	3.228e-07	1.4829e-07	9.8639	2.1752	5.8884e-07	6.2018e-07	3.3323	1.0407	0.56587	0.1407	1.6554e-07	0.35903	3.4732e-07	-1.5968e-06	1.2842e-06	9.046	-1.6599e-08	-6.6828e-09	10.758	2.3875	3.0084e-08	-1.2538e-08	3.5903	1.1227	0.62012	0.16575	-1.5418e-08	0.38607	168.922	114.602	-7.219	-27.575	120.457	-26.099	-28.487	-23.283	271.912	84.452	-23.976	-18.525	-17.943	-14.434	139.015	-15.134	-8191	255	
11665.029	1	1	0	0	0.14653	0.10564	0.34586	0.17761	0.36828	0.24492	0.19419	0.22304	0.088493	0.21071	0.17628	0.15448	0.15267	0.080199	0.11339	0.072638	-2.1229	-2.9729	-2.4562	-2.5979	-2.9354	-2.65	-2.8458	-2.5687	-2.5646	-2.9	-2.5104	-2.8937	-2.825	-2.4125	-2.9813	-2.8708	60.154	-20.002	-20.545	108.159	69.447	147.440	-19.689	187.352	288.430	75.654	-6.983	144.288	223.048	3.999	107.408	-32.770	2.5794e-06	2.0871e-05	1.5808e-05	8.5187	4.3843e-07	3.8865e-07	9.8931	2.2021	3.3342e-07	3.8627e-07	3.368	1.0496	0.58234	0.14302	5.5917e-07	0.35766	4.052e-07	-1.1647e-06	1.7812e-06	9.1266	-1.4242e-08	-4.3695e-09	10.813	2.3861	5.0395e-08	-1.8293e-08	3.6064	1.133	0.62837	0.17065	-1.5775e-08	0.38877	81.249	298.028	10.802	-27.644	239.068	106.774	-27.953	-22.627	188.107	188.958	-23.825	-18.873	-19.988	-15.996	108.056	-15.168	-8191	255	
11665.125	1	1	0	0	0.15705	0.11441	0.081197	0.17955	0.3681	0.10361	0.28947	0.060768	0.069851	0.16972	0.15561	0.26384	0.015926	0.21494	0.23833	0.24076	-2.35	-3.0292	-2.6979	-2.8958	-2.8646	-2.6917	-2.8021	-2.7313	-2.6354	-2.8542	-2.6896	-2.8312	-2.5438	-2.3187	-2.8917	-2.8042	96.024	-0.995	43.645	27.906	198.342	183.486	294.619	74.119	104.726	-34.143	-32.430	249.939	153.905	109.110	63.967	138.673	5.618e-07	4.6751e-05	4.2212e-06	8.7262	4.0069e-07	1.1719e-07	10.07	2.2459	7.0504e-07	2.8935e-07	3.4182	1.0788	0.59563	0.14033	4.7817e-07	0.36312	2.9834e-07	-1.578e-06	9.4551e-07	9.1748	-1.7214e-08	-3.8555e-09	10.98	2.4205	6.5411e-08	-1.6084e-08	3.6779	1.1565	0.63487	0.16933	-1.215e-08	0.39192	-9.907	236.782	1.327	-27.947	60.047	306.318	-27.830	-23.634	167.715	137.357	-23.716	-18.608	-19.025	-14.654	116.411	-15.246	-8191	255	
11665.245	1	1	0	0	0.23994	0.28257	0.081102	0.21467	0.1368	0.055435	0.31268	0.025166	0.14446	0.1737	0.086306	0.10052	0.28941	0.10307	0.043216	0.20721	-2.1125	-2.6813	-2.65	-2.6917	-3.0292	-2.4917	-2.7583	-2.7125	-2.4208	-2.9313	-2.6354	-2.5312	-2.7083	-2.5625	-2.8583	-2.9167	-11.591	-33.373	143.266	-11.166	275.335	21.343	57.929	19.919	182.065	36.995	-27.338	114.504	35.092	68.665	193.574	136.963	3.324e-06	2.162e-05	3.736e-06	8.6532	2.0926e-07	2.1383e-07	9.9741	2.1885	4.2316e-07	4.1257e-07	3.3408	1.0418	0.57017	0.13767	3.9752e-07	0.35513	4.9871e-07	-1.3103e-06	2.4847e-07	9.538	-1.6394e-08	-5.8089e-09	10.863	2.3703	5.4823e-08	-1.3155e-08	3.5827	1.1236	0.62004	0.16866	-1.4601e-08	0.3838	318.139	232.865	313.212	-29.320	179.894	142.460	-27.843	-22.631	220.497	145.613	-23.987	-19.725	-18.821	-14.774	84.404	-14.544	-8191	255	
11665.342	1	1	0	0	0.21439	0.19863	0.126	0.18081	0.14718	0.053572	0.025507	0.12615	0.22701	0.082733	0.15901	0.24811	0.060961	0.27348	0.11054	0.17218	-1.9	-2.9042	-2.5604	-2.6083	-2.9604	-2.3271	-2.6583	-2.6896	-2.6271	-2.95	-2.4729	-2.3458	-2.8021	-2.5896	-2.7083	-2.7583	43.654	90.087	2.120	47.941	88.812	23.747	-5.791	187.324	99.798	150.941	179.175	100.443	313.048	311.188	90.759	277.987	7.4488e-06	7.7468e-06	1.6557e-05	8.7035	4.776e-07	1.2354e-08	10.106	2.2188	8.8738e-07	4.2014e-07	3.4182	1.0637	0.57724	0.14496	1.6128e-07	0.35937	1.0598e-06	-1.5311e-06	-2.0924e-07	9.7001	-1.6394e-08	-3.3928e-09	10.939	2.4027	6.4546e-08	-1.3258e-08	3.6544	1.1469	0.63164	0.16608	-4.1863e-09	0.38912	30.373	91.088	102.844	-29.301	53.780	164.633	-28.016	-23.335	179.052	222.489	-23.797	-18.936	-18.632	-14.962	198.964	-15.505	-8191	255	
11665.438	1	1	0	0	0.24731	0.15571	0.10228	0.21445	0.34026	0.12713	0.064277	0.12492	0.17023	0.20086	0.16793	0.15455	0.13061	0.11506	0.058748	0.32813	-2.0729	-2.7271	-2.5146	-2.5021	-2.8479	-2.5229	-2.7729	-2.8479	-2.6958	-2.8917	-2.675	-2.6667	-2.8521	-2.6437	-2.6271	-2.7208	112.555	159.894	70.910	281.308	278.763	147.052	122.183	140.130	156.799	-40.921	-5.366	10.914	150.552	-39.357	281.005	182.526	7.9099e-06	3.2187e-05	7.6663e-06	8.9941	4.0111e-07	1.7143e-07	10.221	2.2384	6.4764e-07	2.8946e-07	3.4376	1.0821	0.5918	0.14425	3.7566e-07	0.36574	1.1043e-06	-1.3479e-06	-1.8309e-07	10.099	-1.4396e-08	-1.0538e-08	11.122	2.4351	4.8766e-08	-1.3412e-08	3.6948	1.1631	0.64292	0.16191	4.2118e-08	0.39375	-3.799	116.632	-24.117	-28.277	257.057	246.413	-28.129	-22.999	199.538	204.997	-24.355	-18.930	-18.967	-14.708	313.597	-16.085	-8191	255	
11665.534	1	1	0	0	0.12551	0.14247	0.081734	0.23687	0.13228	0.26926	0.13324	0.27345	0.26115	0.25197	0.21233	0.015396	0.38677	0.12241	0.074665	0.013292	-2.1021	-2.5979	-2.7542	-2.4625	-2.8958	-2.7542	-2.6667	-2.8771	-2.6625	-2.85	-2.7125	-2.5604	-2.7708	-2.8146	-2.6625	-2.9708	208.014	170.740	259.299	127.471	203.637	33.571	294.499	43.840	48.364	224.182	163.392	76.958	217.737	233.000	5.589	296.211	3.991e-06	3.1938e-05	9.7207e-06	8.7737	2.0578e-07	3.1613e-07	10.159	2.2507	1.5511e-07	2.4257e-07	3.357	1.0465	0.57666	0.14075	2.4621e-07	0.3503	5.4769e-07	-6.1055e-07	-2.9555e-07	9.871	-1.5831e-08	-1.3674e-08	11.049	2.4192	6.9229e-08	-1.3103e-08	3.6021	1.1308	0.62322	0.15438	4.6815e-08	0.37878	73.167	44.691	276.061	-28.079	252.957	39.035	-28.487	-23.312	66.446	267.816	-23.903	-19.483	-18.538	-15.020	11.930	-15.438	-8191	255	
11665.630	1	1	0	0	0.049618	0.2551	0.054163	0.11499	0.37587	0.10056	0.21921	0.056001	0.078483	0.20287	0.1891	0.085857	0.16756	0.031238	0.17099	0.097054	-2.1437	-2.8458	-2.5667	-2.3937	-2.7917	-2.7562	-2.6354	-2.9062	-2.5333	-2.8042	-3.0062	-2.5812	-2.7625	-2.7083	-2.4375	-3.0792	251.257	46.326	-12.045	-41.357	-11.335	208.258	29.018	183.738	-21.326	217.188	298.256	65.298	111.796	56.316	317.742	200.001	9.0807e-06	2.9448e-05	1.2697e-05	8.6982	4.4379e-07	2.6367e-07	9.8647	2.1693	4.8379e-07	5.32e-07	3.3203	1.0333	0.56762	0.14249	5.5728e-07	0.34982	7.6588e-07	-1.1741e-06	-4.054e-07	9.7473	-1.496e-08	-1.4085e-08	10.71	2.3573	3.3393e-08	-6.0121e-09	3.5317	1.1223	0.62123	0.1546	6.31e-08	0.38107	136.802	170.873	178.594	-28.845	27.188	71.007	-28.069	-24.000	234.786	183.256	-24.514	-18.714	-18.217	-14.983	14.812	-15.537	-8191	255	
11665.726	1	1	0	0	0.10644	0.078214	0.30195	0.028572	0.11663	0.26789	0.058552	0.23031	0.17019	0.12704	0.1518	0.046607	0.10062	0.26758	0.034161	0.24396	-2.2667	-2.6292	-2.7875	-2.4292	-2.7104	-2.9271	-2.4875	-2.8875	-2.7146	-2.6021	-2.6896	-2.4729	-2.6146	-2.7958	-2.6458	-2.7396	208.388	276.327	120.477	-21.620	307.417	173.597	185.045	312.873	55.827	265.810	124.383	295.063	30.708	-19.738	-16.517	-10.314	1.0641e-05	8.1812e-05	2.7388e-05	8.5381	7.5341e-07	5.7801e-07	9.8299	2.1476	3.2715e-07	7.855e-07	3.2903	1.0333	0.55369	0.14093	4.9438e-07	0.34952	3.2951e-07	-6.5281e-07	-3.7794e-07	9.4745	-1.3064e-08	-1.6193e-08	10.642	2.3453	5.5485e-09	4.3729e-08	3.5211	1.1164	0.6164	0.15354	5.58e-08	0.37999	107.059	29.836	93.343	-28.708	240.498	107.052	-28.359	-23.328	163.971	180.461	-23.838	-18.605	-18.968	-14.846	272.921	-14.499	-8191	255	
11665.845	1	1	0	0	0.07893	0.12083	0.36576	0.050145	0.25496	0.23803	0.0082515	0.21441	0.17552	0.1373	0.1412	0.12887	0.22931	0.30483	0.098995	0.089724	-2.2771	-2.6792	-2.825	-2.5917	-2.5979	-2.6167	-2.4917	-2.8542	-2.75	-2.6521	-2.9729	-2.5667	-2.4104	-2.7667	-2.4313	-2.75	202.351	96.771	156.744	208.326	57.496	74.572	242.874	306.405	-12.338	251.918	134.414	152.941	-6.237	241.322	-11.328	172.699	7.9822e-06	3.3036e-05	1.0386e-05	8.2682	1.1007e-07	2.0613e-07	9.7573	2.1305	5.5656e-07	5.7495e-07	3.2892	1.0336	0.56208	0.14005	3.1307e-07	0.35181	7.5697e-08	-1.1272e-07	-5.2179e-07	9.493	-1.1783e-08	-1.3931e-08	10.576	2.3162	-9.4681e-09	4.5785e-08	3.5057	1.1139	0.61179	0.15253	7.1473e-08	0.38055	312.914	92.032	186.971	-28.303	194.956	110.269	-28.169	-23.109	300.834	231.714	-23.956	-19.411	-18.484	-16.472	277.814	-15.344	-8191	255	
11665.941	1	1	0	0	0.14067	0.059651	0.1407	0.10055	0.10766	0.14215	0.14764	0.15215	0.24632	0.24647	0.24801	0.11215	0.3644	0.22537	0.28225	0.051114	-2.1583	-2.4583	-2.8083	-2.65	-2.6854	-2.8521	-2.4562	-2.8125	-3.0021	-2.575	-2.8667	-2.5021	-2.5104	-2.7229	-2.5125	-2.7792	288.408	68.526	78.933	121.726	259.067	109.806	124.153	259.414	113.480	205.481	-12.918	219.554	296.561	311.030	279.419	275.209	1.5964e-05	2.5728e-05	2.2301e-05	8.3119	1.191e-07	1.9473e-07	9.5803	2.1095	7.0699e-08	6.6344e-07	3.2446	1.0077	0.55899	0.13731	8.856e-07	0.34364	3.117e-07	-1.409e-07	-3.8056e-07	9.1136	-4.6109e-10	-1.2852e-08	10.415	2.2767	-1.3235e-08	7.009e-08	3.4598	1.089	0.60192	0.14906	5.1001e-08	0.37476	171.120	25.976	2.659	-28.086	315.277	15.673	-28.075	-22.861	150.653	145.197	-23.621	-18.743	-20.229	-15.474	78.953	-15.423	-8191	255	
11666.037	1	1	0	0	0.14238	0.24128	0.35232	0.12457	0.10653	0.035861	0.059518	0.23779	0.20618	0.17994	0.13861	0.13241	0.22636	0.23073	0.15929	0.25434	-2.2292	-2.3417	-2.9417	-2.6813	-2.4979	-2.7521	-2.5312	-2.8292	-2.7438	-2.4771	-2.65	-2.575	-2.5271	-2.9604	-2.5458	-2.7313	35.611	76.952	231.981	257.636	-39.377	222.451	137.425	114.279	286.899	113.144	99.590	-22.085	-20.063	64.566	252.975	97.664	1.2326e-05	4.3581e-05	7.6703e-06	8.357	4.1494e-07	2.3814e-07	9.5078	2.1249	7.7593e-07	2.6554e-07	3.2421	1.0135	0.55596	0.14026	9.4696e-07	0.34864	4.0075e-08	-3.7572e-08	-3.9887e-07	8.8408	5.1027e-08	-1.5576e-08	10.414	2.292	-1.1097e-08	5.2979e-08	3.4708	1.0988	0.6103	0.15127	6.5704e-08	0.37788	249.625	46.034	67.330	-29.181	185.886	45.443	-28.477	-22.698	229.589	195.099	-24.294	-18.762	-18.704	-13.935	-8.727	-15.423	-8191	255	
11666.109	1	1	0	0	0.10091	0.18963	0.23289	0.23542	0.034929	0.072457	0.21031	0.25925	0.01884	0.23978	0.11953	0.10483	0.32285	0.13668	0.16207	0.24599	-2.4521	-2.4875	-2.9729	-2.8229	-2.5521	-3.0354	-2.4333	-2.6021	-2.8479	-2.4979	-2.7708	-2.675	-2.6104	-2.8146	-2.8354	-2.6458	75.605	279.015	66.843	126.699	122.221	166.137	-5.986	16.500	148.468	99.729	34.004	273.631	246.574	99.840	224.945	34.872	1.893e-05	1.2344e-05	1.5059e-05	8.3349	5.4658e-07	4.3416e-07	9.5667	2.1462	1.7771e-07	3.3951e-07	3.2683	1.0332	0.55545	0.13654	5.4416e-07	0.35351	-2.2709e-07	-4.039e-07	-3.3217e-07	8.7398	4.6621e-08	-1.5165e-08	10.446	2.3098	-1.0741e-08	6.5877e-08	3.488	1.1071	0.61245	0.152	3.2673e-08	0.38279	-22.768	72.991	248.067	-28.312	68.347	70.123	-27.915	-23.204	17.248	221.610	-24.008	-18.807	-18.875	-14.415	-13.455	-15.123	-8191	255	
11666.230	1	1	0	0	0.20321	0.11944	0.038318	0.20079	0.082891	0.035952	0.17668	0.16718	0.089392	0.3045	0.32341	0.24899	0.19963	0.24459	0.24178	0.1393	-2.5875	-2.5354	-2.7625	-2.7438	-2.6375	-2.8458	-2.7021	-2.5625	-2.8667	-2.5333	-2.5938	-2.6896	-2.5479	-2.6188	-2.4813	-2.6146	124.797	251.926	67.714	186.237	166.013	-17.512	119.370	188.079	197.799	228.195	178.067	59.423	280.482	45.120	150.538	173.542	7.6838e-06	3.3703e-05	4.8808e-06	8.2536	1.1407e-06	4.5375e-07	9.6265	2.1389	5.7015e-07	4.6999e-07	3.2467	1.0127	0.55738	0.13992	2.2374e-07	0.33866	-4.8535e-07	-2.3952e-07	-3.8317e-07	8.7917	6.9368e-08	-1.6142e-08	10.409	2.3013	-1.9598e-08	5.2722e-08	3.4721	1.0903	0.60874	0.15025	-4.1863e-09	0.38724	304.012	95.732	-15.712	-28.679	141.897	123.661	-28.141	-22.869	135.953	258.219	-24.273	-18.863	-18.717	-14.643	34.183	-15.413	-8191	255	
11666.326	1	1	0	0	0.2612	0.13135	0.24258	0.14441	0.074849	0.14365	0.36524	0.15761	0.21678	0.10625	0.39806	0.2076	0.088247	0.040086	0.050904	0.1184	-2.2625	-2.4396	-2.8729	-2.8854	-2.45	-2.8458	-2.7979	-2.5417	-2.9625	-2.6125	-2.8458	-2.8771	-2.5687	-2.9208	-2.85	-2.5646	174.918	-12.106	214.433	180.250	252.938	265.911	-19.343	26.811	-40.646	270.543	274.926	78.803	168.633	128.537	70.685	159.651	3.8288e-06	3.0751e-05	6.8923e-06	8.0687	2.4116e-07	3.3913e-07	9.4123	2.1069	5.3532e-07	8.0245e-07	3.1978	0.997	0.56331	0.13601	5.1116e-07	0.34198	-3.2951e-07	2.4891e-07	-1.687e-07	8.612	5.5484e-08	-1.1823e-08	10.262	2.2777	-1.5882e-08	6.1817e-08	3.4626	1.0851	0.60412	0.15001	-1.0364e-08	0.392	137.582	271.271	214.295	-28.432	91.232	282.761	-28.222	-23.343	78.395	249.817	-24.185	-19.345	-19.646	-14.154	101.877	-15.456	-8191	255	
11666.422	1	1	0	0	0.13049	0.18933	0.081709	0.10292	0.18006	0.12748	0.14279	0.092054	0.20545	0.052156	0.17234	0.11412	0.057404	0.18911	0.082178	0.15977	-2.5417	-2.5542	-2.7625	-2.7146	-2.5229	-2.7375	-2.7146	-2.6167	-2.9083	-2.7104	-2.7188	-2.9854	-2.625	-2.9188	-2.725	-2.5271	16.759	63.191	-19.820	84.077	-14.604	108.628	148.247	178.739	283.070	-38.342	99.184	115.119	-27.725	279.414	-26.873	74.350	2.6053e-06	8.425e-05	1.1348e-05	7.9008	4.713e-07	2.9182e-07	9.415	2.097	4.7205e-07	4.4929e-07	3.196	1.0107	0.5495	0.13748	1.7218e-07	0.34755	-3.9185e-07	-7.3265e-07	-2.3147e-07	8.5434	6.486e-08	-1.2749e-08	10.244	2.2731	-1.6798e-08	2.6823e-08	3.4749	1.0932	0.60518	0.1509	-1.118e-08	0.39525	275.423	313.955	26.933	-28.244	107.049	70.605	-27.917	-22.894	21.718	294.110	-24.224	-19.184	-18.998	-14.601	213.602	-15.180	-8191	255	
11666.518	1	1	0	0	0.21966	0.29936	0.018527	0.13451	0.16785	0.076184	0.2449	0.16339	0.076089	0.10532	0.16211	0.14415	0.21708	0.22057	0.042748	0.079844	-2.6063	-2.5833	-2.5104	-2.7313	-2.4417	-2.875	-2.7208	-2.4771	-2.7417	-2.6208	-2.4979	-2.7125	-2.5	-2.9458	-2.5667	-2.5396	224.689	-28.894	-27.734	286.387	247.530	240.287	73.381	112.686	19.716	252.371	264.593	306.414	250.037	153.643	-2.344	304.514	8.5146e-06	7.1511e-05	8.3471e-06	8.038	7.2387e-07	2.3299e-07	9.4632	2.101	5.094e-07	3.4058e-07	3.1823	0.99562	0.55874	0.13822	5.8589e-07	0.34369	1.5585e-07	-4.2738e-07	-1.0724e-07	8.5684	5.7431e-08	-1.1721e-08	10.25	2.2814	-1.2319e-08	-6.2177e-09	3.5568	1.0883	0.60491	0.15138	-1.2355e-08	0.39032	-33.458	-25.027	130.906	-27.532	151.202	284.369	-27.910	-22.533	10.486	281.790	-22.847	-19.165	-19.152	-15.667	257.732	-15.533	-8191	255	
11666.614	1	1	0	0	0.09727	0.28511	0.25758	0.14101	0.057312	0.11081	0.09288	0.12935	0.13487	0.30928	0.11642	0.12863	0.12778	0.097513	0.27789	0.228	-2.5021	-2.7375	-2.6	-3.0771	-2.65	-2.7917	-2.9125	-2.4729	-2.8187	-2.75	-2.5917	-2.9521	-2.375	-2.7104	-2.8708	-2.8104	221.343	103.551	-20.323	155.730	10.031	246.918	265.783	209.451	250.168	30.014	191.144	156.331	147.972	227.784	311.561	28.969	1.1106e-05	6.586e-05	1.0023e-05	7.8491	3.793e-07	1.9986e-07	9.2571	2.039	2.974e-07	8.8577e-08	3.1317	0.98264	0.54033	0.13333	6.9855e-08	0.34374	8.9056e-09	-6.9508e-07	-1.687e-07	8.334	6.6397e-08	-4.9864e-09	10.004	2.2225	-1.1911e-08	-8.2731e-09	3.4752	1.0632	0.58806	0.1478	-1.5214e-08	0.38687	241.412	144.821	2.898	-27.922	120.208	237.641	-28.367	-23.329	231.670	264.520	-24.867	-19.017	-19.031	-14.521	177.523	-14.962	-8191	255	
11666.710	1	1	0	0	0.10061	0.27917	0.12589	0.21081	0.092198	0.13122	0.12333	0.14382	0.067357	0.14705	0.047903	0.13283	0.089749	0.14935	0.16232	0.15456	-2.5146	-2.7417	-2.5333	-2.9167	-2.7083	-2.8458	-2.9146	-2.5021	-2.9562	-2.6167	-2.6021	-3.1271	-2.6375	-2.6167	-2.9562	-2.5208	200.605	249.300	81.388	45.573	112.289	77.413	165.322	80.429	-24.231	170.543	317.135	281.781	172.397	208.598	294.559	311.236	1.1796e-05	2.6038e-05	9.9131e-06	7.8692	3.959e-07	4.6084e-07	9.2497	2.05	3.6788e-07	6.6716e-07	3.1505	0.99148	0.5371	0.13756	3.5348e-07	0.34098	8.9056e-08	-1.47e-06	-1.4778e-07	8.2821	2.3567e-08	5.8089e-09	9.9367	2.219	-1.2319e-08	-1.0842e-08	3.5051	1.0651	0.58586	0.14836	-1.4805e-08	0.38204	251.424	230.342	-23.268	-28.472	311.518	195.505	-28.417	-22.625	127.041	286.581	-24.300	-18.799	-19.839	-15.333	266.787	-15.659	-8191	255	
11666.807	1	1	0	0	0.18227	0.16985	0.11689	0.12252	0.15774	0.33668	0.058816	0.10725	0.16271	0.25663	0.23448	0.15647	0.016442	0.04851	0.161	0.27239	-2.3771	-2.7146	-2.4729	-2.7979	-2.7167	-2.6562	-2.8458	-2.5854	-2.7646	-2.8146	-2.4708	-2.8792	-2.7396	-2.5479	-2.8917	-2.6708	214.109	282.546	224.359	206.803	91.034	114.861	145.694	20.591	87.399	302.026	78.512	125.754	178.330	208.368	30.088	175.232	4.5003e-06	2.5482e-05	7.8532e-06	7.7362	4.5002e-07	3.9684e-07	9.184	2.023	6.4205e-07	4.7851e-07	3.1452	0.97872	0.52745	0.13448	3.5438e-07	0.34625	2.7607e-07	-1.1225e-06	-2.2232e-08	8.2868	-5.4818e-09	5.593e-08	9.9229	2.2042	-7.2792e-09	-2.1171e-08	3.4823	1.0681	0.58862	0.14919	-1.4192e-08	0.38899	309.551	49.600	87.177	-29.003	186.710	178.894	-27.781	-22.340	159.486	75.701	-24.150	-18.575	-19.446	-15.111	-24.154	-15.311	-8191	255	
11666.927	1	1	0	0	0.18099	0.028399	0.18761	0.13699	0.19035	0.14281	0.22339	0.04469	0.11743	0.20058	0.15786	0.14301	0.092716	0.31149	0.17228	0.1211	-2.3708	-2.7979	-2.3125	-2.8542	-2.8042	-2.7542	-2.8688	-2.5958	-2.7104	-2.8917	-2.3646	-2.8271	-2.6396	-2.4125	-3.0792	-2.6437	21.962	-22.666	84.930	133.747	89.621	34.621	243.406	134.825	213.325	257.757	261.199	202.568	257.031	9.019	145.114	77.375	4.7141e-06	5.5473e-05	2.0522e-06	7.7566	3.4438e-08	6.36e-07	9.1778	2.0615	5.5104e-07	4.1943e-07	3.1238	0.98669	0.5337	0.13519	3.3349e-07	0.33913	3.963e-07	-1.4794e-06	-9.4158e-08	8.3414	-1.7521e-08	5.0635e-08	9.9945	2.2296	-5.7521e-09	-2.0606e-08	3.5008	1.0637	0.58825	0.1488	-1.8328e-08	0.37439	177.319	-15.829	116.386	-28.044	12.296	141.872	-28.357	-23.279	237.277	35.736	-24.173	-19.059	-19.005	-15.462	255.779	-15.305	-8191	255	
11667.022	1	1	0	0	0.12435	0.039992	0.22537	0.13821	0.13558	0.027803	0.079289	0.1166	0.16877	0.1404	0.16504	0.17544	0.21948	0.092668	0.30776	0.18481	-2.1354	-2.8229	-2.3583	-2.8917	-2.9646	-2.6271	-3.0042	-2.5896	-2.5875	-2.8375	-2.3875	-2.8958	-2.6937	-2.4354	-3.0042	-2.7125	106.680	56.812	289.293	188.528	168.655	288.282	166.989	206.286	244.807	290.497	229.033	81.331	122.713	92.777	93.201	269.058	8.7028e-06	4.8157e-06	1.6266e-05	7.8418	5.1246e-07	2.9761e-07	9.1305	2.0357	1.226e-07	1.8715e-07	3.1182	0.98858	0.54421	0.13509	6.6396e-07	0.34088	1.8256e-06	-1.1647e-06	-1.5039e-07	8.2997	-1.2962e-08	6.544e-08	9.9155	2.2075	-9.4681e-09	-1.927e-08	3.4717	1.0722	0.58777	0.14903	-1.3682e-08	0.37112	263.789	242.205	-3.112	-28.745	-22.166	120.180	-28.297	-23.393	184.014	4.404	-24.009	-18.211	-19.068	-13.816	29.429	-15.090	-8191	255	
11667.118	1	1	0	0	0.42234	0.13971	0.30894	0.16034	0.16993	0.13828	0.19081	0.18353	0.098211	0.20535	0.27659	0.14729	0.18454	0.054244	0.34319	0.1597	-2.1958	-2.7812	-2.6208	-2.7438	-2.65	-2.5167	-2.9125	-2.8438	-2.7062	-2.8875	-2.5875	-2.5604	-2.7917	-2.3792	-2.8375	-2.6292	6.209	144.392	143.769	259.137	257.263	112.737	208.628	33.920	279.116	-21.720	-3.962	269.281	310.815	89.410	302.005	-33.931	1.3865e-05	3.3726e-05	8.6757e-06	7.8803	2.9321e-07	2.3182e-07	9.2221	2.0292	3.7755e-07	1.3795e-07	3.1572	1.0004	0.54462	0.13892	3.3636e-07	0.35029	6.2116e-06	-1.1459e-06	-1.1377e-07	8.3975	-1.1117e-08	5.665e-08	9.9869	2.224	-7.1774e-09	-1.6495e-08	3.5287	1.0891	0.60128	0.15284	-1.5928e-08	0.37707	223.628	238.699	301.941	-28.777	27.291	108.971	-27.803	-22.747	60.179	262.032	-24.293	-18.321	-18.502	-14.674	304.410	-14.687	-8191	255	
11667.214	1	1	0	0	0.15623	0.30673	0.13695	0.18007	0.20323	0.070586	0.4845	0.14773	0.044989	0.19468	0.19846	0.17016	0.072312	0.14842	0.2948	0.18192	-2	-2.7604	-2.6396	-2.6854	-2.8771	-2.5729	-2.6771	-2.8354	-2.4188	-2.9333	-2.6208	-2.9375	-2.8792	-2.4167	-2.7354	-2.6354	-16.792	113.235	30.981	266.575	143.603	207.481	47.488	187.447	35.170	201.081	77.992	49.283	6.710	114.873	262.206	112.737	6.596e-06	1.3456e-05	1.031e-05	7.8459	1.2599e-07	5.1174e-07	9.3577	2.1038	4.0854e-07	3.6391e-07	3.2767	1.0265	0.56198	0.13973	3.753e-07	0.35266	5.5838e-06	-1.0614e-06	-1.5955e-07	8.473	-1.911e-08	6.6983e-08	10.193	2.2957	-1.6798e-09	-1.4337e-08	3.5677	1.1351	0.61879	0.15674	-9.6999e-09	0.38267	95.742	-10.160	53.284	-28.910	155.847	162.733	-28.252	-23.050	180.391	154.821	-24.196	-18.141	-19.474	-14.786	197.896	-15.447	-8191	255	
11667.335	1	1	0	0	0.33011	0.081979	0.10512	0.25566	0.096582	0.31565	0.18798	0.31292	0.099452	0.11362	0.22475	0.26207	0.078484	0.13637	0.18187	0.16028	-2.0542	-3.0312	-2.5896	-2.6063	-2.8688	-2.4313	-2.5979	-2.7646	-2.4896	-2.8708	-2.6604	-2.5958	-2.825	-2.7208	-2.8604	-2.7875	49.786	126.501	303.599	-11.242	212.885	250.350	135.085	71.357	273.499	313.310	243.052	22.666	111.617	264.961	275.524	158.562	1.4823e-05	4.2129e-06	2.261e-06	8.0787	3.2867e-07	6.5837e-07	9.3915	2.1294	3.6599e-07	3.0442e-07	3.1952	1.0091	0.56191	0.14308	6.0453e-07	0.35185	6.7771e-06	-1.3949e-06	-2.6678e-07	8.5772	-1.5216e-08	4.6883e-08	10.16	2.2765	-1.8834e-09	-1.372e-08	3.4384	1.1429	0.60345	0.15421	-1.0772e-08	0.3789	201.245	250.666	39.991	-28.553	231.981	180.910	-28.443	-23.316	134.959	118.557	-24.252	-18.741	-19.485	-14.541	262.579	-15.326	-8191	255	
11667.406	1	1	0	0	0.10936	0.079462	0.098906	0.2884	0.12206	0.20092	0.16093	0.20936	0.26615	0.182	0.098908	0.16808	0.34262	0.13599	0.15333	0.35683	-2.2146	-2.9771	-2.6083	-2.5812	-2.9146	-2.6188	-2.5896	-2.9	-2.5104	-2.9333	-2.7771	-2.6333	-2.7646	-2.5125	-2.8104	-2.9396	17.367	138.324	-12.666	65.571	111.588	22.108	78.506	276.861	51.007	132.856	74.350	122.090	-33.253	151.218	98.243	1.001	4.7943e-06	3.2636e-05	7.3108e-06	8.0868	3.3191e-07	4.3872e-07	9.3187	2.1042	2.5807e-07	2.9626e-07	3.268	1.0082	0.56601	0.14192	1.5522e-07	0.34841	5.5036e-06	-1.1976e-06	-3.4656e-07	8.5369	-1.5472e-08	6.4207e-08	10.165	2.2673	-7.0756e-09	-1.2487e-08	3.4693	1.134	0.60945	0.15399	-1.0823e-08	0.38024	161.550	56.591	119.506	-28.729	106.099	141.872	-28.444	-23.454	205.894	23.436	-23.939	-18.697	-18.138	-14.209	274.416	-15.657	-8191	255	
11667.527	1	1	0	0	0.24809	0.21967	0.22247	0.10845	0.10656	0.22359	0.27527	0.11417	0.079651	0.20558	0.30972	0.12216	0.11539	0.18378	0.14999	0.15744	-2.15	-2.6729	-2.7292	-2.4604	-2.85	-2.8417	-2.7521	-2.8646	-2.5604	-2.8083	-2.8125	-2.6083	-2.8958	-2.6583	-2.5958	-2.8667	102.724	285.985	88.660	133.116	221.159	8.765	6.737	-31.940	159.314	106.619	265.421	-19.714	91.738	62.816	14.019	227.085	2.8017e-06	5.1696e-05	7.9809e-06	8.0612	5.4305e-07	2.4357e-07	9.4256	2.1244	2.3834e-07	2.6544e-07	3.2667	1.0486	0.56773	0.14392	4.1616e-07	0.34984	6.7994e-06	-1.0473e-06	-3.4656e-07	8.6448	-1.2449e-08	1.1464e-08	10.313	2.2919	-4.0214e-09	-1.4285e-08	3.5015	1.1668	0.61832	0.15611	-1.0057e-08	0.38379	137.771	78.761	96.709	-28.953	52.171	118.259	-28.061	-22.972	19.890	4.149	-24.290	-18.922	-19.367	-13.235	69.164	-15.238	-8191	255	
11667.623	1	1	0	0	0.12905	0.12975	0.22002	0.22959	0.041437	0.20464	0.064513	0.030171	0.028891	0.1036	0.27316	0.19398	0.02261	0.10165	0.1909	0.069145	-2.1437	-2.7667	-3.0375	-2.4188	-2.8042	-2.4208	-2.5438	-3.0104	-2.475	-2.6583	-2.6771	-2.3438	-2.8167	-2.6958	-2.5438	-2.8354	215.393	2.331	318.045	9.441	104.399	88.962	-25.325	166.920	65.046	120.568	238.502	74.098	133.561	-39.575	134.245	34.958	7.1897e-06	5.2031e-05	1.2286e-05	7.9627	3.1125e-07	4.428e-07	9.3271	2.1271	4.6448e-07	6.1241e-07	3.2371	1.0163	0.55546	0.13788	2.089e-07	0.35422	5.4547e-06	-7.8432e-07	-3.9887e-07	8.5888	-1.5062e-08	-1.4599e-08	10.448	2.2889	-9.0609e-09	-1.1459e-08	3.4536	1.1335	0.61001	0.15264	-5.4115e-09	0.37656	116.898	37.323	126.557	-28.888	294.047	7.600	-27.911	-22.764	74.951	167.098	-25.057	-19.251	-19.213	-13.588	-12.136	-15.550	-8191	255	
11667.719	1	1	0	0	0.22727	0.14426	0.13123	0.37714	0.29921	0.067431	0.10234	0.22616	0.061463	0.341	0.1435	0.17048	0.076874	0.073377	0.093227	0.12089	-2.1104	-2.7292	-2.7125	-2.4208	-2.7354	-2.7083	-2.6479	-2.8417	-2.725	-2.7042	-2.8042	-2.575	-2.7354	-2.8708	-2.6188	-2.7208	83.016	207.686	83.195	57.735	-0.210	235.864	165.846	40.296	-31.999	277.600	283.963	98.353	143.188	286.039	118.722	-37.834	4.4039e-06	1.1073e-05	5.4375e-06	7.7833	4.0784e-07	4.6278e-07	9.2232	2.0686	4.6494e-07	4.4426e-07	3.2029	1.006	0.5566	0.1384	4.1874e-07	0.34636	6.8929e-06	-7.3265e-07	-1.6609e-07	8.3586	-1.0041e-08	-9.4074e-09	10.199	2.2504	-1.1606e-08	-1.1356e-08	3.4107	1.1366	0.6025	0.15172	-2.5526e-09	0.37744	202.764	226.839	8.131	-29.094	-16.556	225.107	-28.489	-22.595	257.747	86.365	-24.621	-19.133	-18.450	-15.163	266.100	-15.531	-8191	255	
11667.814	1	1	0	0	0.19587	0.32628	0.13086	0.23128	0.17272	0.24848	0.24426	0.18411	0.14397	0.13258	0.1676	0.19107	0.25815	0.173	0.12551	0.17141	-2.3187	-2.4729	-2.8708	-2.5	-2.6937	-2.8021	-2.4708	-2.8167	-2.5917	-2.5875	-3.0208	-2.5583	-2.7854	-2.775	-2.6375	-2.6729	313.616	-41.331	81.103	160.999	18.950	-3.311	204.636	224.207	9.193	290.869	143.538	304.392	273.799	-31.067	123.213	238.544	1.0775e-05	2.2975e-05	6.9936e-06	7.7631	1.2474e-07	3.3216e-07	9.2321	2.0949	4.2751e-07	2.662e-07	3.2246	1.0101	0.5532	0.1416	6.0332e-07	0.34941	2.4268e-06	1.578e-06	-4.4202e-07	8.3915	-1.291e-08	-1.7118e-08	10.243	2.2632	-1.0843e-08	-4.265e-09	3.436	1.1369	0.6059	0.15306	-1.7358e-09	0.38087	146.478	229.652	192.390	-27.729	14.824	223.050	-28.296	-23.653	-23.927	212.755	-24.549	-19.025	-19.146	-14.425	114.190	-14.879	-8191	255	
11667.934	1	1	0	0	0.12284	0.14881	0.12902	0.21515	0.22233	0.11273	0.13314	0.086076	0.13362	0.12331	0.29572	0.15596	0.2019	0.32581	0.14081	0.18309	-2.3958	-2.5458	-2.7208	-2.5396	-2.7604	-2.8354	-2.4896	-2.8083	-2.7021	-2.5312	-2.9354	-2.6063	-2.5125	-3.0125	-2.4604	-2.9708	28.554	215.115	64.004	14.296	207.730	153.997	-9.387	68.484	166.720	274.592	219.380	82.124	89.304	170.382	269.528	44.151	3.8774e-06	9.9071e-05	1.5923e-05	7.8828	1.6654e-07	4.6375e-07	9.1894	2.0804	2.6054e-07	2.8037e-07	3.2179	1.0232	0.55844	0.14181	8.0052e-08	0.35159	3.4732e-07	6.2041e-06	-3.2302e-07	8.3979	-6.7114e-09	-1.4908e-08	10.257	2.2626	-1.0588e-08	-4.4706e-09	3.4442	1.148	0.6111	0.15289	-5.5136e-09	0.3795	274.570	-6.711	272.715	-28.442	157.802	280.155	-28.417	-23.033	77.185	15.903	-23.947	-20.013	-18.539	-14.722	13.544	-15.326	-8191	255	
11668.006	1	1	0	0	0.21796	0.069111	0.093526	0.17288	0.23894	0.075357	0.066651	0.30501	0.11305	0.16433	0.062287	0.23688	0.25298	0.036889	0.27301	0.18938	-2.2417	-2.6292	-2.9042	-2.4979	-2.6688	-2.85	-2.6312	-2.7667	-2.6146	-2.5479	-2.7917	-2.8646	-2.5708	-2.8646	-2.6667	-2.7729	75.397	21.309	30.084	245.107	52.681	32.300	169.580	142.818	239.238	68.632	-3.688	113.304	316.783	16.078	56.580	79.714	6.4383e-06	5.7804e-05	1.5341e-05	7.5713	1.372e-07	7.3388e-07	9.1022	2.0688	7.2963e-07	1.6437e-07	3.1115	1.0135	0.54287	0.13875	6.2459e-07	0.34413	-8.9056e-08	4.8327e-06	-3.1909e-07	8.3136	-2.5104e-09	-1.1772e-08	10.154	2.2362	-1.3591e-08	-5.1386e-09	3.3806	1.0981	0.61189	0.1497	-2.3994e-09	0.37452	284.404	25.894	51.929	-30.016	283.875	274.215	-28.358	-22.849	48.416	117.895	-24.151	-18.872	-19.136	-14.045	251.920	-15.611	-8191	255	
11668.102	1	1	0	0	0.098613	0.21662	0.19541	0.19702	0.11288	0.15286	0.1881	0.24615	0.090833	0.053683	0.16059	0.35683	0.49028	0.076085	0.27333	0.1662	-2.1958	-2.7229	-2.8563	-2.6833	-2.525	-2.8229	-2.5625	-2.8812	-2.725	-2.4771	-2.7583	-2.6312	-2.5687	-2.8229	-2.6312	-2.6437	142.663	29.577	8.578	147.565	33.720	210.372	71.942	33.526	91.386	34.510	193.566	82.853	-35.029	298.153	96.583	221.707	1.3967e-05	6.3911e-05	6.7158e-06	7.6977	1.2344e-07	2.2238e-07	9.1417	2.0599	4.1978e-07	2.8094e-07	3.2003	1.0072	0.54978	0.13867	4.4809e-07	0.34624	2.2264e-08	6.4765e-06	-4.1064e-07	8.2636	-1.4857e-09	-1.753e-08	10.146	2.2457	-1.7613e-08	-3.597e-09	3.4341	1.0953	0.64451	0.15182	-7.9131e-09	0.37911	94.084	0.645	196.793	-28.345	130.810	283.911	-27.935	-22.933	171.936	169.613	-24.111	-18.646	-19.441	-15.265	82.960	-14.975	-8191	255	
11668.198	1	1	0	0	0.07012	0.18537	0.16983	0.17266	0.10185	0.18759	0.23915	0.16534	0.19277	0.021129	0.20039	0.14774	0.15772	0.24125	0.17876	0.07325	-2.6375	-2.5771	-2.9396	-2.8104	-2.6125	-2.8563	-2.5271	-2.7896	-2.9958	-2.5729	-2.9042	-2.7188	-2.4875	-2.8208	-2.8396	-2.6083	286.318	121.252	275.774	114.251	249.774	217.577	276.651	63.535	198.431	192.052	186.383	101.336	109.137	34.091	275.969	55.457	3.8969e-06	4.733e-05	7.9606e-06	7.7408	5.1597e-07	1.4729e-07	9.1692	2.0696	6.6938e-07	4.6563e-07	3.2171	1.0281	0.55488	0.13986	1.7222e-07	0.35012	-1.1577e-07	4.6918e-06	-2.7594e-07	8.328	-1.8444e-09	-1.5371e-08	10.191	2.2617	-1.4711e-08	-4.933e-09	3.44	1.0974	0.63766	0.15241	-8.7299e-09	0.38139	311.318	92.661	9.988	-28.187	183.611	-39.453	-28.485	-23.165	167.215	247.742	-24.787	-19.256	-20.605	-14.317	272.625	-14.638	-8191	255	
11668.294	1	1	0	0	0.21692	0.17612	0.35142	0.16644	0.15088	0.23854	0.35391	0.14607	0.12873	0.12363	0.17812	0.10237	0.18661	0.2248	0.093935	0.18283	-2.6229	-2.5021	-2.75	-2.7833	-2.5312	-2.9208	-2.7188	-2.7125	-2.9833	-2.7458	-2.6125	-2.8208	-2.4354	-2.6979	-2.5312	-2.6583	118.839	98.927	302.462	118.513	244.285	147.538	151.795	-9.792	217.386	95.239	-34.362	71.734	41.633	316.806	274.243	-30.613	2.0514e-06	5.1939e-05	6.9699e-06	7.7681	2.4787e-07	5.9216e-07	9.1058	2.0699	3.8177e-07	3.8266e-07	3.1625	0.99425	0.55158	0.14006	2.9518e-07	0.34228	-3.7849e-07	6.4389e-06	-3.1778e-07	8.215	-3.1251e-09	-1.8095e-08	10.032	2.2883	-1.6035e-08	-1.1099e-08	3.3986	1.085	0.63936	0.15047	-7.3004e-09	0.37467	185.742	68.436	255.370	-29.556	-5.045	238.351	-28.204	-22.326	3.284	47.565	-24.680	-19.286	-19.826	-13.843	71.968	-16.336	-8191	255	
11668.415	1	1	0	0	0.37274	0.12189	0.1516	0.1712	0.29086	0.12162	0.10401	0.22039	0.20736	0.1162	0.102	0.15206	0.026896	0.017188	0.27467	0.10313	-2.3729	-2.4646	-2.6646	-2.7729	-2.6292	-2.9458	-2.5542	-2.6625	-2.8	-2.5625	-2.8167	-2.8979	-2.4813	-2.8292	-2.7708	-2.4958	196.561	295.553	309.647	301.594	61.744	-23.873	157.017	54.055	58.302	233.984	39.498	216.953	181.011	26.582	74.614	118.328	8.9266e-06	5.8128e-05	3.9718e-06	7.5928	3.6281e-07	3.209e-07	9.0602	2.0485	2.095e-07	2.9503e-07	3.1779	1.0002	0.55159	0.13821	2.482e-07	0.34616	-5.1652e-07	4.6542e-06	-2.7201e-07	8.1371	-6.0966e-09	-7.4539e-09	9.8337	2.311	-1.1555e-08	-6.0121e-09	3.4145	1.0868	0.6279	0.15114	-1.4958e-08	0.37787	-8.959	111.417	272.577	-28.019	134.736	127.367	-28.257	-22.590	225.092	21.010	-24.335	-19.389	-19.864	-14.906	230.493	-15.834	-8191	255	
11668.511	1	1	0	0	0.033947	0.13376	0.26255	0.23993	0.13498	0.10179	0.1608	0.20262	0.072961	0.016242	0.23067	0.12565	0.26775	0.17968	0.087951	0.34234	-2.6646	-2.675	-2.8354	-2.7646	-2.5458	-2.8771	-2.6271	-2.7292	-2.9583	-2.6437	-2.6479	-2.8646	-2.5125	-2.7979	-2.7729	-2.55	0.200	74.319	39.667	225.432	315.624	252.098	82.160	106.017	-25.859	47.777	24.878	208.340	-7.467	176.044	116.862	107.960	5.248e-06	1.3236e-05	1.0338e-05	7.7397	5.963e-07	1.5728e-07	9.2323	2.0531	7.4925e-07	3.9233e-08	3.1839	1.0234	0.55305	0.1416	1.0308e-07	0.34667	-4.0075e-07	5.3164e-06	-2.367e-07	8.2034	-7.0188e-09	-1.8815e-08	9.9336	2.3129	-1.6187e-08	-7.7079e-09	3.446	1.0951	0.64329	0.15343	-1.7358e-08	0.38079	152.292	168.872	11.149	-28.494	265.792	151.958	-28.505	-23.026	220.081	188.547	-24.280	-19.618	-19.253	-14.910	33.338	-15.439	-8191	255	
11668.607	1	1	0	0	0.09912	0.20236	0.067908	0.17499	0.28777	0.13283	0.078803	0.24716	0.25283	0.2278	0.082515	0.021898	0.20299	0.20782	0.32816	0.14451	-2.375	-2.6542	-2.6521	-2.9583	-2.5479	-2.7458	-2.6875	-2.3958	-2.9667	-2.6125	-2.5604	-2.8146	-2.6833	-2.7271	-2.8167	-2.5438	229.875	222.017	278.696	36.857	231.562	-36.497	165.882	-3.665	70.924	184.745	40.693	237.517	37.465	47.265	188.446	85.070	8.6061e-06	4.0379e-05	6.5331e-06	7.7665	2.082e-07	2.5765e-07	9.1607	2.086	4.512e-07	2.9848e-07	3.2194	1.0318	0.55785	0.14227	6.521e-07	0.35472	-8.9056e-08	-3.2876e-08	7.3757e-07	8.2469	-6.9163e-09	-5.8603e-09	9.9428	2.3567	-1.522e-08	-1.1202e-08	3.4794	1.1114	0.64124	0.15402	-1.6541e-08	0.38693	-23.118	24.506	99.228	-28.702	97.759	171.390	-27.820	-22.708	245.665	-17.621	-23.360	-18.970	-19.503	-15.174	3.378	-15.295	-8191	255	
11668.703	1	1	0	0	0.2465	0.038363	0.063518	0.17535	0.15537	0.11364	0.10398	0.25133	0.259	0.04138	0.19029	0.24162	0.24546	0.072531	0.24078	0.084681	-2.5125	-2.7521	-2.6604	-2.8917	-2.5833	-2.65	-2.8646	-2.5958	-2.7521	-2.9146	-2.6125	-2.9104	-2.5375	-2.6792	-2.8875	-2.5271	-9.200	309.256	3.697	-3.933	230.345	221.235	198.927	191.859	258.973	141.949	152.969	-34.079	198.611	93.305	310.631	77.391	3.3902e-06	6.5689e-05	7.4796e-07	7.7819	6.0836e-07	2.7096e-07	8.9928	2.0665	6.3839e-07	1.0862e-07	3.1599	0.98902	0.54978	0.13795	3.4041e-07	0.34493	-1.6921e-07	-1.2915e-06	1.7916e-06	8.1779	-4.6109e-09	-1.3571e-08	9.8186	2.2923	-9.9771e-09	-1.4285e-08	3.3991	1.0756	0.62636	0.15078	-1.6796e-08	0.37806	265.107	28.530	-17.541	-28.104	65.634	97.452	-27.978	-23.440	56.428	218.230	-23.584	-19.243	-19.843	-13.546	39.842	-15.253	-8191	255	
11668.799	1	1	0	0	0.02053	0.24351	0.35589	0.17585	0.17053	0.081928	0.073338	0.24278	0.061041	0.2456	0.077178	0.13558	0.019366	0.44799	0.3542	0.12454	-2.3833	-2.7667	-2.5479	-2.7896	-2.7479	-2.5396	-2.8771	-2.5312	-2.8354	-2.6875	-2.4771	-2.9542	-2.6396	-2.5958	-2.975	-2.6354	31.983	139.983	25.279	11.506	248.639	-35.956	193.726	-10.750	73.851	28.307	107.318	164.246	68.537	199.859	8.089	211.944	4.2072e-06	3.6663e-05	1.3347e-06	7.6319	1.8181e-07	2.2325e-07	9.0836	2.0226	4.4605e-07	1.3655e-07	3.1997	0.99935	0.5562	0.13543	6.86e-08	0.34745	-1.6921e-07	-1.2399e-06	1.3862e-06	8.0575	-1.1015e-08	-8.8933e-09	9.7418	2.289	-7.8392e-09	-1.6495e-08	3.4024	1.0839	0.59865	0.15723	-1.7102e-08	0.37971	57.950	33.036	2.320	-29.553	7.871	312.810	-28.247	-22.232	168.895	231.137	-24.561	-18.887	-19.335	-14.455	245.602	-15.591	-8191	255	
11668.896	1	1	0	0	0.10604	0.057638	0.14355	0.16487	0.072678	0.039454	0.044059	0.10017	0.1515	0.19873	0.11639	0.18424	0.24078	0.1707	0.40719	0.19416	-2.3187	-2.8333	-2.4479	-2.7271	-2.7917	-2.75	-2.9104	-2.6833	-2.5812	-2.7625	-2.4146	-2.6188	-2.6229	-2.5625	-2.7771	-2.6021	144.494	283.815	180.185	17.557	9.407	-19.728	81.942	165.469	97.632	189.126	39.279	176.051	0.741	284.686	120.039	161.035	7.3032e-06	5.1535e-05	2.3092e-05	7.506	5.3884e-07	3.5585e-07	9.0042	2.0252	2.9922e-07	5.5917e-07	3.137	0.99794	0.53329	0.13715	4.4512e-07	0.35022	6.2339e-08	-1.315e-06	1.7393e-06	8.0806	-1.2808e-08	-1.2903e-08	9.7413	2.2778	-1.0486e-08	-1.9475e-08	3.3943	1.0855	0.59377	0.164	-1.8072e-08	0.38058	6.998	-27.843	83.856	-28.040	139.846	239.144	-28.177	-23.404	235.002	153.406	-24.772	-18.393	-18.368	-15.753	77.300	-15.557	-8191	255	
11669.015	1	1	0	0	0.30937	0.27879	0.10366	0.10807	0.21417	0.10659	0.29909	0.17131	0.21086	0.21166	0.098373	0.26504	0.22653	0.10383	0.22821	0.20806	-2.2854	-2.9688	-2.5604	-2.8479	-2.6167	-2.4958	-2.875	-2.5333	-2.5604	-3.0312	-2.6521	-2.8521	-2.7271	-2.5896	-2.9583	-2.6708	154.834	119.365	250.042	88.663	33.144	299.641	202.786	182.647	15.235	163.743	96.784	234.823	221.224	23.368	29.032	236.231	9.7585e-06	2.1136e-05	8.8063e-06	7.6703	4.7467e-07	4.0213e-07	8.9305	2.018	3.134e-07	1.288e-07	3.0901	0.99426	0.53642	0.13592	2.4218e-07	0.34053	4.0966e-07	-1.3432e-06	1.2777e-06	8.0672	-1.2808e-08	-4.2667e-09	9.7345	2.263	-5.5994e-09	-1.742e-08	3.3614	1.072	0.58116	0.15852	-1.5469e-08	0.374	245.071	203.522	38.293	-29.583	82.717	79.758	-27.753	-24.061	287.348	162.671	-24.878	-19.589	-19.239	-14.946	168.923	-14.948	-8191	255	
11669.111	1	1	0	0	0.15838	0.109	0.17029	0.016439	0.25789	0.16708	0.26427	0.1037	0.16994	0.28727	0.38067	0.070437	0.1254	0.074362	0.060735	0.12624	-2.2604	-2.85	-2.4521	-2.6625	-2.7458	-2.5687	-2.8438	-2.55	-2.5979	-2.9833	-2.5917	-2.7146	-3.0125	-2.5375	-2.7792	-2.7313	251.503	255.355	152.181	36.273	217.320	107.660	28.393	44.262	53.670	193.730	75.870	283.663	134.689	262.134	-16.986	237.327	1.2018e-06	3.326e-05	1.0999e-05	7.4945	2.4077e-07	2.9777e-07	8.8098	1.9698	7.9193e-07	5.6826e-07	3.1313	0.98498	0.53148	0.13817	7.1837e-08	0.34017	6.2784e-07	-1.9444e-06	1.67e-06	7.9996	-1.5113e-08	-6.2202e-09	9.5401	2.1748	2.7081e-08	-1.8961e-08	3.3526	1.0693	0.57885	0.16096	-1.7205e-08	0.3686	54.226	-24.831	138.034	-29.899	28.689	119.641	-28.557	-23.393	211.305	170.865	-24.084	-18.186	-18.608	-14.663	198.608	-15.556	-8191	255	
11669.207	1	1	0	0	0.22539	0.15857	0.17325	0.31433	0.082268	0.15365	0.11311	0.071756	0.15831	0.12041	0.01144	0.22774	0.2097	0.062305	0.1269	0.16748	-2.2188	-2.9833	-2.575	-2.6667	-2.775	-2.6021	-2.9854	-2.8312	-2.4521	-2.8812	-2.6208	-2.5333	-3.0438	-2.5292	-2.7562	-2.7708	241.571	136.773	162.517	99.693	77.165	285.961	292.104	17.149	-10.128	-32.085	20.843	133.684	189.255	283.591	-25.821	244.308	4.9977e-06	2.2769e-05	3.6402e-06	7.4214	1.2563e-07	2.9506e-07	8.7842	1.9615	4.7568e-07	5.4686e-07	3.0969	0.97053	0.52423	0.13353	2.6547e-07	0.33415	6.323e-07	-1.7988e-06	1.16e-06	7.8861	-1.3935e-08	-5.2949e-09	9.5411	2.1498	7.1163e-08	-1.5364e-08	3.3214	1.0515	0.56824	0.15542	-1.4039e-08	0.36551	4.965	46.920	-11.246	-28.349	110.232	45.017	-27.883	-23.150	-28.238	260.649	-24.551	-18.757	-19.189	-15.715	89.414	-14.942	-8191	255	
11669.303	1	1	0	0	0.086791	0.18245	0.082777	0.075156	0.20471	0.44022	0.18166	0.11841	0.22642	0.091748	0.16572	0.12872	0.19004	0.19807	0.0019804	0.23616	-2.3417	-2.9437	-2.5521	-2.7	-2.8792	-2.5479	-2.825	-2.8833	-2.5542	-2.8458	-2.6208	-2.65	-2.9208	-2.4646	-2.9708	-2.7625	264.242	155.400	-3.019	259.234	33.289	133.319	-5.806	187.313	57.200	229.258	247.218	232.110	-19.986	31.927	180.000	205.975	9.3956e-06	1.5673e-05	7.7831e-06	7.5322	1.7848e-07	3.3825e-07	8.8883	1.9849	4.8971e-07	1.18e-07	3.1231	0.98401	0.52634	0.13327	5.3142e-07	0.34046	7.3026e-07	-1.8129e-06	1.2188e-06	8.013	-1.3167e-08	-7.0427e-09	9.6314	2.1533	5.63e-08	-1.7266e-08	3.355	1.0671	0.57448	0.15842	-7.6068e-09	0.3689	231.887	103.825	83.809	-27.756	97.749	318.861	-28.445	-23.137	-3.521	42.038	-24.063	-18.867	-19.045	-15.735	8.873	-15.036	-8191	255	
#DATA ENDS
