BOXY.EXE: ISS Imagent and Oximeter Data Acquisition Program Version 0.80
Ascii Record File

#ACQ INFORMATION
2  Detector Channels 
16  External MUX Channels 
1  Auxiliary Channels 
5000  Waveform (CCF) Frequency (Hz)
1  Waveforms Skipped 
30  Waveforms Averaged 
1  Cycles Averaged 
16  Acquisitions per Waveform 
10.0806  Updata Rate (Hz) 

#FILE INFORMATION
TRUE -- External MUX Channel results are PARSED.
FALSE -- AC DC and Phase are NOT grouped.
TRUE -- Companion Program Settings File CREATED.
FALSE -- AC data not excluded
FALSE -- DC data not excluded
FALSE -- Phase data not excluded
FALSE -- Auxillary Chn. data not excluded
Tab delimiters

#CALIBRATION STATE
TRUE -- Waveform Calibration Values APPLIED.


#AUX CALIBRATION VALUES
Val Type	aux-1	

Term	1.0000e+00	
Factor	0.0000e+00	


#WF CALIBRATION VALUES
A = Detector Channel
Val Type	A-AC1	A-AC2	A-AC3	A-AC4	A-AC5	A-AC6	A-AC7	A-AC8	A-AC9	A-AC10	A-AC11	A-AC12	A-AC13	A-AC14	A-AC15	A-AC16	A-DC1	A-DC2	A-DC3	A-DC4	A-DC5	A-DC6	A-DC7	A-DC8	A-DC9	A-DC10	A-DC11	A-DC12	A-DC13	A-DC14	A-DC15	A-DC16	A-Ph1	A-Ph2	A-Ph3	A-Ph4	A-Ph5	A-Ph6	A-Ph7	A-Ph8	A-Ph9	A-Ph10	A-Ph11	A-Ph12	A-Ph13	A-Ph14	A-Ph15	A-Ph16	

Term	0.00000e+00	0.00000e+00	0.00000e+00	0.00000e+00	0.00000e+00	0.00000e+00	0.00000e+00	0.00000e+00	0.00000e+00	0.00000e+00	0.00000e+00	0.00000e+00	0.00000e+00	0.00000e+00	0.00000e+00	0.00000e+00	0.00000e+00	0.00000e+00	0.00000e+00	0.00000e+00	0.00000e+00	0.00000e+00	0.00000e+00	0.00000e+00	0.00000e+00	0.00000e+00	0.00000e+00	0.00000e+00	0.00000e+00	0.00000e+00	0.00000e+00	0.00000e+00	0.00000e+00	0.00000e+00	0.00000e+00	0.00000e+00	0.00000e+00	0.00000e+00	0.00000e+00	0.00000e+00	0.00000e+00	0.00000e+00	0.00000e+00	0.00000e+00	0.00000e+00	0.00000e+00	0.00000e+00	0.00000e+00	
Factor	1.00000e+00	1.00000e+00	1.00000e+00	1.00000e+00	1.00000e+00	1.00000e+00	1.00000e+00	1.00000e+00	1.00000e+00	1.00000e+00	1.00000e+00	1.00000e+00	1.00000e+00	1.00000e+00	1.00000e+00	1.00000e+00	1.00000e+00	1.00000e+00	1.00000e+00	1.00000e+00	1.00000e+00	1.00000e+00	1.00000e+00	1.00000e+00	1.00000e+00	1.00000e+00	1.00000e+00	1.00000e+00	1.00000e+00	1.00000e+00	1.00000e+00	1.00000e+00	X	X	X	X	X	X	X	X	X	X	X	X	X	X	X	X	

B = Detector Channel
Val Type	B-AC1	B-AC2	B-AC3	B-AC4	B-AC5	B-AC6	B-AC7	B-AC8	B-AC9	B-AC10	B-AC11	B-AC12	B-AC13	B-AC14	B-AC15	B-AC16	B-DC1	B-DC2	B-DC3	B-DC4	B-DC5	B-DC6	B-DC7	B-DC8	B-DC9	B-DC10	B-DC11	B-DC12	B-DC13	B-DC14	B-DC15	B-DC16	B-Ph1	B-Ph2	B-Ph3	B-Ph4	B-Ph5	B-Ph6	B-Ph7	B-Ph8	B-Ph9	B-Ph10	B-Ph11	B-Ph12	B-Ph13	B-Ph14	B-Ph15	B-Ph16	

Term	0.00000e+00	0.00000e+00	0.00000e+00	0.00000e+00	0.00000e+00	0.00000e+00	0.00000e+00	0.00000e+00	0.00000e+00	0.00000e+00	0.00000e+00	0.00000e+00	0.00000e+00	0.00000e+00	0.00000e+00	0.00000e+00	0.00000e+00	0.00000e+00	0.00000e+00	0.00000e+00	0.00000e+00	0.00000e+00	0.00000e+00	0.00000e+00	0.00000e+00	0.00000e+00	0.00000e+00	0.00000e+00	0.00000e+00	0.00000e+00	0.00000e+00	0.00000e+00	-6.17670e+01	-1.17693e+02	-1.30885e+02	-1.82018e+02	-5.11864e+01	-6.70008e+01	-1.55566e+02	-1.62015e+02	-4.29654e+01	-6.60393e+01	-1.70902e+02	-1.71043e+02	-1.81611e+02	-1.77315e+02	-6.75489e+01	-1.50242e+02	
Factor	1.98146e-05	1.72452e-04	4.31470e-05	4.75774e-01	1.73883e-06	1.64103e-06	1.72184e-01	5.95565e-02	1.15079e-06	1.65968e-06	9.35124e-02	3.08221e-02	2.59045e-02	9.47689e-03	1.54544e-06	1.37531e-02	3.46549e-06	3.90214e-06	1.08874e-06	2.36928e-01	4.27498e-08	4.29708e-08	8.21137e-02	3.01900e-02	4.22782e-08	4.30467e-08	4.57804e-02	1.51857e-02	1.32746e-02	4.83807e-03	4.25424e-08	6.77260e-03	X	X	X	X	X	X	X	X	X	X	X	X	X	X	X	X	



#DISTANCE SETTINGS
A = Detector Channel
A-1	A-2	A-3	A-4	A-5	A-6	A-7	A-8	A-9	A-10	A-11	A-12	A-13	A-14	A-15	A-16	

2.5000e+00	3.0000e+00	2.5000e+00	3.0000e+00	2.0000e+00	3.0000e+00	1.5000e+00	3.0000e+00	3.0000e+00	3.0000e+00	3.0000e+00	3.0000e+00	3.0000e+00	3.0000e+00	1.5000e+00	3.0000e+00	

B = Detector Channel
B-1	B-2	B-3	B-4	B-5	B-6	B-7	B-8	B-9	B-10	B-11	B-12	B-13	B-14	B-15	B-16	

1.0000e+01	1.0000e+01	1.0000e+01	1.4400e+00	1.0000e+01	1.0000e+01	1.5100e+00	1.9400e+00	1.0000e+01	1.0000e+01	1.9900e+00	2.4900e+00	2.4100e+00	2.9000e+00	1.0000e+01	2.9800e+00	




#DATA BEGINS
time	group	step	mark	flag	A-AC1	A-AC2	A-AC3	A-AC4	A-AC5	A-AC6	A-AC7	A-AC8	A-AC9	A-AC10	A-AC11	A-AC12	A-AC13	A-AC14	A-AC15	A-AC16	A-DC1	A-DC2	A-DC3	A-DC4	A-DC5	A-DC6	A-DC7	A-DC8	A-DC9	A-DC10	A-DC11	A-DC12	A-DC13	A-DC14	A-DC15	A-DC16	A-Ph1	A-Ph2	A-Ph3	A-Ph4	A-Ph5	A-Ph6	A-Ph7	A-Ph8	A-Ph9	A-Ph10	A-Ph11	A-Ph12	A-Ph13	A-Ph14	A-Ph15	A-Ph16	B-AC1	B-AC2	B-AC3	B-AC4	B-AC5	B-AC6	B-AC7	B-AC8	B-AC9	B-AC10	B-AC11	B-AC12	B-AC13	B-AC14	B-AC15	B-AC16	B-DC1	B-DC2	B-DC3	B-DC4	B-DC5	B-DC6	B-DC7	B-DC8	B-DC9	B-DC10	B-DC11	B-DC12	B-DC13	B-DC14	B-DC15	B-DC16	B-Ph1	B-Ph2	B-Ph3	B-Ph4	B-Ph5	B-Ph6	B-Ph7	B-Ph8	B-Ph9	B-Ph10	B-Ph11	B-Ph12	B-Ph13	B-Ph14	B-Ph15	B-Ph16	aux-1	digaux	

18043.639	1	1	0	768	0.2419	0.012546	0.2026	0.1167	0.15093	0.21218	0.16573	0.016325	0.28246	0.1297	0.18296	0.14534	0.38333	0.05583	0.165	0.11764	-2.4479	-2.7292	-3.1583	-2.8542	-2.8646	-3.2271	-2.9271	-3.1146	-2.9375	-2.8896	-3.0333	-2.9167	-2.9896	-3.0771	-2.7521	-2.9667	404.867	393.950	101.352	124.283	188.542	103.776	342.036	63.314	159.136	349.345	330.227	73.803	355.086	293.490	273.432	335.265	0.00027061	0.0004393	8.5655e-05	1224	4.5877e-06	2.2883e-06	1294.9	264.06	2.8235e-06	2.9415e-06	322.32	92.298	71.88	21.318	1.9551e-06	29.095	0.00015795	0.00013411	3.77e-05	1185.6	1.5037e-06	1.4953e-06	1265.6	259.83	1.5048e-06	1.4483e-06	317.42	91.241	71.361	21.362	1.4848e-06	29.061	224.224	190.945	173.539	59.826	235.225	194.818	59.891	67.214	240.557	185.947	66.689	73.500	73.830	80.382	234.976	79.601	-8191	255	
18043.734	1	1	0	0	0.38852	0.091063	0.072895	0.078282	0.10904	0.1815	0.48597	0.17637	0.10219	0.062605	0.22881	0.17659	0.27074	0.19312	0.023183	0.053805	-2.4917	-2.675	-3.0521	-2.7104	-2.8021	-3.1333	-2.9479	-3.1562	-2.9667	-2.5938	-3.0312	-2.8542	-2.9646	-3.1625	-2.8521	-2.8271	237.968	318.270	302.533	395.836	232.544	401.681	312.579	345.184	211.855	245.444	250.444	396.770	363.693	77.798	183.794	312.848	0.00022267	0.0003761	0.00012024	1217.9	5.3093e-06	3.3795e-06	1292.7	263.14	1.966e-06	4.1664e-06	321.65	91.194	71.522	21.184	4.2462e-06	29.062	0.0001477	0.00013081	3.5985e-05	1179.8	1.51e-06	1.4371e-06	1262	259.49	1.4802e-06	1.434e-06	316.61	90.62	70.995	21.296	1.4885e-06	29.032	226.709	125.833	125.394	59.963	205.120	216.949	60.126	66.815	238.962	219.241	66.679	73.918	73.678	80.329	210.617	80.183	-8191	255	
18043.830	1	1	0	0	0.069505	0.081383	0.21389	0.13183	0.17127	0.14233	0.33276	0.12431	0.29864	0.13486	0.10881	0.18212	0.24999	0.2336	0.15417	0.068777	-2.7458	-2.7375	-2.9813	-2.9	-2.9562	-3.2	-2.875	-2.9646	-3.0312	-2.8375	-3.1583	-2.8792	-2.7771	-3.0646	-2.7021	-2.8917	152.529	345.929	64.848	183.864	300.030	372.026	291.031	124.112	187.191	250.444	77.363	59.553	364.197	121.182	239.207	292.997	0.00023591	0.00033906	9.7105e-05	1219.5	3.7029e-06	2.2445e-06	1289	262.19	2.8091e-06	4.2638e-06	322.48	91.568	71.481	21.31	4.9594e-06	29.061	0.00015151	0.00012928	3.6879e-05	1178.7	1.4563e-06	1.4096e-06	1258.9	258.67	1.4391e-06	1.4032e-06	316.17	90.68	71.063	21.215	1.4362e-06	28.955	225.697	153.571	156.137	59.771	227.680	195.846	60.113	66.964	229.130	206.050	66.736	74.039	73.773	80.511	223.866	79.681	-8191	255	
18043.928	1	1	0	0	0.25304	0.070918	0.18926	0.17406	0.11941	0.19919	0.24807	0.1923	0.21889	0.13878	0.1728	0.017809	0.16442	0.10595	0.31985	0.13766	-2.5708	-2.5146	-3.0333	-2.9313	-2.5646	-3.1625	-2.9	-2.8396	-2.9708	-2.7729	-3.0917	-3.0125	-2.7625	-3.1625	-2.8604	-2.7542	183.642	376.950	277.804	127.622	334.122	380.873	52.371	53.980	234.109	49.290	82.147	302.379	398.105	227.097	135.527	397.560	0.00027518	0.00045188	0.00016892	1214	5.6379e-06	2.8337e-06	1284.8	261.71	2.3838e-06	5.0337e-06	320.76	91.288	71.18	21.137	5.2686e-06	28.906	0.00014564	0.00012948	3.55e-05	1172.1	1.4221e-06	1.3618e-06	1256.3	258.3	1.4061e-06	1.3563e-06	315.69	90.492	70.806	21.239	1.4367e-06	28.913	231.351	179.436	141.359	59.682	236.151	200.632	60.075	67.036	241.996	197.441	66.811	73.714	73.802	80.404	224.555	79.985	-8191	255	
18044.023	1	1	0	0	0.099681	0.23656	0.096591	0.30716	0.17902	0.24352	0.12336	0.15158	0.059399	0.12535	0.19765	0.15556	0.35397	0.10629	0.12434	0.10897	-2.525	-2.7562	-2.9313	-3	-2.8292	-2.9688	-2.9688	-2.8312	-3.025	-2.6208	-3.0812	-2.9604	-2.6542	-3.0312	-2.8646	-2.6333	286.664	262.718	272.741	388.095	255.595	283.944	360.136	321.260	132.023	233.764	392.275	405.070	381.572	354.295	207.836	276.893	0.00026273	0.00023084	6.1571e-05	1215.7	2.7711e-06	2.9389e-06	1287.9	259.47	3.3168e-06	2.7637e-06	321	91.264	70.946	21.216	2.278e-06	28.724	0.00014318	0.00012475	3.4016e-05	1174.9	1.384e-06	1.376e-06	1256.2	257.65	1.3391e-06	1.3589e-06	315.43	90.253	70.63	21.199	1.2987e-06	28.854	229.389	122.017	159.353	59.975	239.599	194.195	60.131	66.774	239.176	212.350	66.637	73.818	73.771	80.212	195.319	79.091	-8191	255	
18044.119	1	1	0	0	0.21922	0.10793	0.12836	0.096979	0.11557	0.083744	0.3164	0.050793	0.18472	0.10991	0.095591	0.34666	0.26343	0.26249	0.37003	0.16652	-2.6167	-2.5875	-2.7729	-2.9375	-2.6188	-2.9313	-3.0667	-2.8104	-2.9146	-2.7667	-3.0271	-3.0458	-2.7229	-3.225	-2.8333	-2.7333	127.904	187.114	232.358	356.976	343.087	312.347	349.138	340.435	232.505	195.849	402.404	342.450	362.989	342.427	226.764	142.923	0.00026579	0.0004403	8.4262e-05	1203.8	2.6184e-06	3.0016e-06	1278.2	261.45	3.1248e-06	2.7455e-06	320.5	90.477	71.349	21.141	3.5154e-06	28.721	0.0001402	0.00012057	3.3143e-05	1164.4	1.2735e-06	1.264e-06	1249.6	256.67	1.3519e-06	1.2387e-06	314.07	90.005	70.447	21.097	1.2114e-06	28.787	227.117	170.667	125.296	60.208	184.883	224.136	60.110	67.115	214.284	221.322	66.650	73.825	73.874	80.064	202.887	79.822	-8191	255	
18044.240	1	1	0	0	0.13462	0.1484	0.060771	0.16494	0.11957	0.12525	0.22003	0.22551	0.20204	0.12222	0.10344	0.34287	0.17473	0.13043	0.25885	0.37432	-2.7125	-2.6063	-2.6208	-2.9771	-2.6625	-2.8833	-3.0125	-2.75	-3.0521	-2.8146	-2.9167	-2.9604	-2.7271	-3.125	-2.8479	-2.7333	135.517	82.514	55.324	114.614	405.665	205.444	375.686	369.503	173.785	344.726	325.353	100.250	302.030	202.991	300.680	294.364	0.00028104	0.00027805	0.00010684	1197	5.3053e-06	4.0385e-06	1260.3	258.34	2.7802e-06	3.7871e-06	317.49	89.907	69.975	20.823	4.5079e-06	28.646	0.00012863	0.00010481	2.9282e-05	1155.5	1.1778e-06	1.1146e-06	1234	254.28	1.1894e-06	1.0981e-06	311.49	89.178	69.731	20.945	1.1229e-06	28.581	231.918	125.004	147.810	60.076	215.542	214.205	60.110	67.135	231.381	180.557	66.604	73.905	74.023	79.849	216.125	79.755	-8191	255	
18044.336	1	1	0	0	0.23314	0.39575	0.10971	0.13734	0.091352	0.027229	0.32774	0.096556	0.08996	0.09441	0.18216	0.13238	0.24121	0.13835	0.22525	0.18292	-2.5062	-2.7646	-2.7917	-3.2333	-2.6229	-2.7458	-3.1083	-2.6521	-3.1708	-2.5917	-2.7417	-3.1813	-2.6479	-2.9104	-2.9604	-2.7542	227.603	389.035	161.431	336.589	341.715	375.157	378.881	394.599	234.937	230.385	373.615	118.809	97.579	336.297	323.563	81.812	0.00025293	0.00028163	0.00010083	1181.4	3.8478e-06	3.6088e-06	1249.3	256.25	2.1647e-06	2.7832e-06	314.72	90.246	70.127	21.063	3.9817e-06	28.864	0.00011759	9.47e-05	2.6835e-05	1140.7	1.0303e-06	9.715e-07	1221.2	252.02	1.0484e-06	9.3716e-07	309.26	89.024	69.475	20.916	9.5588e-07	28.589	225.494	201.083	123.798	59.878	243.784	210.144	60.191	67.154	203.151	229.994	67.067	73.983	74.050	80.823	211.469	79.361	-8191	255	
18044.432	1	1	0	0	0.15454	0.29253	0.10009	0.18064	0.15243	0.2067	0.35707	0.26594	0.20672	0.16818	0.033926	0.17911	0.16958	0.11971	0.12908	0.049153	-2.4604	-2.6896	-2.7417	-2.8875	-2.8542	-2.8729	-3.1542	-2.6896	-3.0979	-2.8021	-2.6604	-3.0521	-2.7812	-2.8271	-2.8812	-2.75	215.902	400.604	78.981	166.475	344.521	244.221	380.877	373.304	159.661	407.357	102.187	88.763	320.465	118.904	212.138	177.847	0.00024719	0.00033517	8.0112e-05	1167.3	4.7978e-06	1.6964e-06	1244.4	255.72	2.8355e-06	3.2599e-06	315.08	89.78	70.103	20.799	4.4886e-06	28.402	0.00010793	8.1368e-05	2.3723e-05	1127.8	9.5555e-07	9.236e-07	1217.9	251.51	9.8561e-07	9.2057e-07	309.06	88.919	69.172	20.842	9.3939e-07	28.446	222.714	159.818	137.306	60.315	200.062	183.315	60.235	67.255	229.423	245.891	66.658	74.000	74.056	80.111	209.882	79.773	-8191	255	
18044.529	1	1	0	0	0.22411	0.098005	0.17473	0.20224	0.37511	0.11451	0.2375	0.20509	0.035185	0.037935	0.09857	0.16236	0.088433	0.38151	0.21223	0.28519	-2.5021	-2.8771	-2.5792	-3.1104	-2.7583	-2.8083	-3.05	-2.7396	-2.9875	-2.9271	-2.6646	-3.0146	-2.8542	-2.8458	-3.1104	-2.7833	138.505	56.596	127.248	377.838	383.398	194.542	360.600	54.272	61.317	61.405	129.272	367.830	249.106	370.188	181.461	343.343	0.00027382	0.00038642	7.0996e-05	1172.4	3.5405e-06	2.6504e-06	1243.1	255.77	3.5395e-06	3.2463e-06	314.01	89.637	69.859	20.824	3.8474e-06	28.351	0.0001115	8.5343e-05	2.3898e-05	1131.9	9.9687e-07	8.9908e-07	1213.8	251.32	9.5029e-07	8.7412e-07	308.02	88.933	69.14	20.814	8.7939e-07	28.416	219.551	138.696	106.317	59.914	220.024	183.208	60.326	67.390	221.442	206.153	66.865	74.202	74.375	80.435	224.264	79.877	-8191	255	
18044.623	1	1	0	0	0.13554	0.15407	0.02909	0.20991	0.2123	0.20593	0.19644	0.050155	0.082595	0.22539	0.16508	0.139	0.24192	0.25048	0.13056	0.17129	-2.2729	-2.9125	-2.5396	-3.0979	-2.9021	-2.7958	-3.3083	-2.8396	-2.8688	-3.0771	-2.8042	-3.0521	-2.9125	-2.7812	-3.0125	-2.6521	56.805	364.804	168.949	188.618	200.642	199.061	90.214	287.088	295.045	403.872	311.765	405.353	359.270	284.735	248.790	387.267	0.00024172	0.00033516	8.1967e-05	1163.4	2.861e-06	4.5297e-06	1236.4	252.97	1.368e-06	2.5776e-06	311.93	89.211	69.73	20.652	2.0723e-06	28.447	0.00010399	7.6864e-05	2.087e-05	1123.5	8.615e-07	8.3265e-07	1206.8	249.53	8.7313e-07	7.8686e-07	306.49	88.382	68.929	20.736	8.4181e-07	28.355	222.910	147.432	128.592	59.909	228.046	191.604	60.261	67.324	238.346	222.917	66.834	73.719	74.401	80.365	218.367	79.968	-8191	255	
18044.719	1	1	0	0	0.16437	0.10284	0.040503	0.3344	0.078277	0.26155	0.14689	0.27549	0.077412	0.035331	0.083864	0.1371	0.12524	0.052438	0.11376	0.11758	-2.5021	-2.9958	-2.4729	-2.9958	-2.8542	-2.7438	-2.9854	-2.8937	-2.8729	-3.0104	-2.6417	-3.0604	-2.8979	-2.875	-3.1771	-2.8	90.424	72.529	60.972	348.798	156.084	137.818	325.534	352.480	103.659	236.632	335.459	63.877	385.440	359.874	361.751	365.129	0.00023802	0.00035777	7.6378e-05	1154.6	2.0118e-06	3.1392e-06	1230.5	252.61	2.8474e-06	2.902e-06	311.32	88.462	69.602	20.653	3.1018e-06	28.419	9.6059e-05	7.3498e-05	1.9767e-05	1118.7	8.1563e-07	7.4026e-07	1201.4	248.57	7.9888e-07	7.6094e-07	305.57	88.027	68.602	20.619	7.6373e-07	28.224	226.301	168.361	154.567	60.007	232.090	193.546	60.242	67.144	240.861	200.486	66.779	73.989	74.113	80.511	209.198	79.989	-8191	255	
18044.814	1	1	0	0	0.17623	0.26222	0.14144	0.14386	0.13942	0.36319	0.25577	0.047098	0.23916	0.11513	0.052904	0.1189	0.10952	0.47643	0.16289	0.30501	-2.3979	-2.95	-2.5729	-3.0062	-2.9542	-2.7333	-3.0583	-2.9125	-2.5563	-3	-2.7438	-2.9896	-3.0208	-2.6813	-3.0563	-2.7521	162.858	112.244	317.849	252.094	382.698	308.596	67.322	355.524	361.322	248.069	138.193	52.732	297.978	338.724	187.620	285.741	0.00024545	0.0003397	7.6331e-05	1153.4	3.4384e-06	1.7301e-06	1215.6	251.53	2.6069e-06	2.0891e-06	309.72	88.87	68.951	20.584	2.8779e-06	28.398	9.1106e-05	6.4483e-05	1.742e-05	1105.8	6.8418e-07	6.921e-07	1189.4	247.46	7.3397e-07	6.6991e-07	304.09	87.983	68.364	20.557	6.8263e-07	28.194	222.342	144.991	154.770	59.919	257.431	224.933	60.420	67.194	248.836	179.939	66.670	73.728	74.066	80.392	205.935	80.226	-8191	255	
18044.936	1	1	0	0	0.32447	0.29075	0.2719	0.12172	0.23157	0.1981	0.18962	0.12333	0.053762	0.23332	0.21221	0.20951	0.096886	0.050058	0.053495	0.17733	-2.4021	-3.1	-2.6792	-2.7667	-2.9938	-2.7104	-3.2375	-2.8646	-2.8021	-3.1312	-2.7604	-2.9333	-2.9313	-2.6979	-2.9667	-3.0646	322.582	367.137	405.496	312.803	81.066	195.500	55.144	275.443	391.078	357.417	285.828	234.895	369.686	369.968	295.431	101.791	0.00023854	0.00041274	7.578e-05	1137.4	3.6404e-06	1.0699e-06	1212.9	250.15	1.4029e-06	2.9623e-06	307.81	88.458	68.846	20.554	3.6272e-06	28.329	8.7157e-05	6.1182e-05	1.6905e-05	1098.4	7.1793e-07	6.9443e-07	1185.6	246.38	7.448e-07	7.3251e-07	302.91	87.695	67.997	20.474	7.3811e-07	28.049	228.796	148.836	131.111	60.213	220.020	213.514	60.289	67.325	232.557	207.048	67.181	74.064	73.740	80.219	180.878	79.955	-8191	255	
18045.031	1	1	0	0	0.15142	0.11726	0.32979	0.035023	0.23596	0.13061	0.044527	0.21472	0.1742	0.26355	0.21009	0.15742	0.20689	0.017812	0.044055	0.13402	-2.2729	-2.9542	-2.6	-2.8292	-3.05	-2.675	-3.05	-2.8229	-2.6625	-2.8312	-2.7438	-3.0104	-2.7625	-2.7208	-2.9896	-3.0854	148.755	344.893	271.981	269.322	114.464	182.990	374.730	183.484	318.486	189.201	335.008	319.304	102.318	331.254	231.330	126.607	0.00023648	0.00043531	0.00010668	1143.2	2.52e-06	3.1648e-06	1212.9	249.33	1.9922e-06	2.8924e-06	311.04	88.581	69.222	20.422	2.3665e-06	28.287	8.9352e-05	6.6418e-05	1.8175e-05	1102.8	6.9932e-07	7.0589e-07	1185.5	246.25	7.2912e-07	6.4104e-07	304.15	87.899	68.287	20.484	6.5037e-07	28.192	231.371	154.000	139.618	60.115	191.565	221.171	60.383	67.315	227.491	225.254	66.688	74.294	73.901	80.170	220.514	80.108	-8191	255	
18045.129	1	1	0	0	0.202	0.29635	0.15015	0.13636	0.20752	0.094411	0.11028	0.12941	0.2185	0.162	0.34321	0.14089	0.070962	0.15644	0.11766	0.0097557	-2.3667	-2.9458	-2.7083	-2.8042	-3.1312	-2.8396	-3	-2.8604	-2.5729	-2.8917	-2.6146	-2.7062	-3.0396	-2.775	-2.8604	-3.0958	222.709	262.561	146.608	372.413	248.113	232.489	212.301	278.388	190.515	323.528	376.675	388.779	276.700	49.865	69.994	225.469	0.00024408	0.00028961	5.9016e-05	1139.6	2.6088e-06	1.45e-06	1209.3	250.56	2.2385e-06	4.0285e-06	308.7	88.153	69.227	20.414	3.0321e-06	28.345	8.4847e-05	5.7752e-05	1.6147e-05	1095.8	6.5585e-07	6.2639e-07	1180.8	245.94	6.8649e-07	6.3377e-07	302.94	87.671	68.139	20.441	6.8662e-07	28.077	228.841	147.160	120.340	60.019	209.892	207.829	60.394	67.133	240.524	208.520	66.849	74.239	74.005	80.232	228.755	80.278	-8191	255	
18045.225	1	1	0	0	0.2196	0.21376	0.17308	0.20442	0.24159	0.26343	0.26565	0.16722	0.15119	0.17283	0.14475	0.27889	0.33713	0.066495	0.18464	0.1451	-2.2104	-2.8688	-2.6792	-2.6562	-2.9875	-2.6437	-2.9146	-3.0042	-2.7042	-2.9917	-2.9708	-2.7125	-2.9292	-2.6312	-2.85	-3.0917	214.653	235.171	390.468	83.922	271.052	208.534	349.389	399.416	297.374	373.886	282.394	312.758	371.643	102.360	232.570	117.691	0.00025215	0.00013933	7.8754e-05	1135.5	2.9985e-06	3.2986e-06	1206.6	250.88	1.6203e-06	2.125e-06	306.51	88.112	68.599	20.356	2.2217e-06	27.987	8.8673e-05	5.8735e-05	1.6615e-05	1094.5	7.0074e-07	6.5781e-07	1179	245.99	7.1891e-07	6.3243e-07	301.4	87.382	67.828	20.445	6.6455e-07	27.962	225.607	131.046	146.417	59.854	217.067	200.287	60.429	67.247	218.283	237.576	66.999	74.099	74.599	80.317	212.184	79.985	-8191	255	
18045.320	1	1	0	0	0.092323	0.055636	0.047673	0.047248	0.060475	0.067446	0.24789	0.10547	0.21434	0.059369	0.23148	0.41933	0.26476	0.12863	0.19313	0.22428	-2.1375	-2.8458	-2.8792	-2.7396	-2.9396	-2.8646	-2.8354	-2.9333	-2.4875	-2.9688	-2.9208	-2.5771	-2.9604	-2.8042	-2.7562	-2.9854	205.154	377.120	142.903	167.632	93.719	99.567	329.559	179.211	298.914	200.710	254.521	347.946	399.558	367.168	260.958	179.442	0.00025293	0.00046543	4.9076e-05	1134.8	3.3052e-06	3.5641e-06	1202.5	249.59	3.0958e-06	3.0707e-06	306.57	88.138	68.198	20.285	3.3021e-06	27.911	8.6543e-05	6.2467e-05	1.5984e-05	1093.3	6.7705e-07	6.5199e-07	1175.6	244.92	7.1089e-07	6.379e-07	300.42	86.972	67.426	20.316	6.8414e-07	27.844	226.110	152.918	117.143	60.256	201.837	194.902	60.517	67.257	231.100	202.755	67.229	74.093	74.506	80.637	186.353	80.436	-8191	255	
18045.418	1	1	0	0	0.1914	0.11524	0.19344	0.12104	0.19144	0.23095	0.11159	0.086349	0.31186	0.066346	0.075747	0.016315	0.23895	0.14499	0.19068	0.27314	-2.2021	-2.9813	-2.7917	-2.6354	-3.0604	-2.7125	-2.8521	-3.0312	-2.6	-2.8729	-3.025	-2.6708	-2.9771	-2.7958	-2.6646	-2.9813	219.443	246.434	63.904	352.729	224.757	335.213	371.390	342.826	133.092	222.069	407.880	184.195	338.407	377.637	146.528	348.979	0.00024463	0.00029427	8.1809e-05	1133.4	4.597e-06	2.1266e-06	1197	246.67	2.4663e-06	3.8008e-06	304.99	86.8	67.551	19.998	4.0714e-06	27.824	8.8016e-05	6.2337e-05	1.7742e-05	1090.1	7.5819e-07	6.861e-07	1173.8	242.91	7.7809e-07	7.0256e-07	298.69	85.913	66.861	20.082	7.6027e-07	27.617	226.140	141.267	176.498	59.993	219.575	201.503	60.470	67.329	251.526	199.768	66.969	74.173	74.457	81.153	208.355	80.125	-8191	255	
18045.514	1	1	0	0	0.24449	0.17447	0.19206	0.15664	0.27639	0.12649	0.29779	0.27189	0.11829	0.22797	0.12643	0.14361	0.37595	0.16978	0.27406	0.10476	-2.1104	-2.8875	-2.8438	-2.6437	-2.9604	-2.9688	-2.8292	-3.1562	-2.7646	-2.8063	-3.0687	-2.5479	-3.0604	-2.8667	-2.6083	-3.0604	220.590	341.232	68.603	378.048	279.100	199.052	366.557	370.256	180.018	122.307	374.723	82.189	99.950	359.384	173.510	153.881	0.00025299	0.00019732	8.4899e-05	1132.3	4.7627e-06	2.2848e-06	1199	246.1	2.5911e-06	3.2391e-06	305.06	87.02	67.291	20	3.0318e-06	27.803	9.3965e-05	6.8629e-05	1.8146e-05	1092.2	7.6522e-07	7.0329e-07	1172.6	242.35	8.2117e-07	7.448e-07	298.39	85.988	66.73	20.036	7.6559e-07	27.651	223.285	123.647	162.412	59.900	196.421	197.420	60.267	66.981	241.116	194.320	66.992	73.979	74.540	80.597	216.686	79.960	-8191	255	
18045.609	1	1	0	0	0.085615	0.062287	0.17396	0.11292	0.29858	0.3518	0.22512	0.12869	0.18417	0.18221	0.031617	0.18402	0.037126	0.27627	0.18522	0.10647	-2.3042	-2.6896	-2.7979	-2.6396	-3.0062	-2.9208	-2.8271	-2.9771	-2.7771	-2.7438	-2.9417	-2.5604	-2.9562	-2.8542	-2.5292	-3.0125	380.645	206.109	239.090	167.281	279.344	138.406	303.221	58.619	192.075	210.691	187.166	60.959	309.321	327.000	234.248	399.207	0.00026363	0.00020299	9.3273e-05	1129.5	3.0934e-06	3.1136e-06	1195.9	245.82	3.088e-06	3.2908e-06	302.24	86.78	67.17	20.028	2.8375e-06	27.551	9.3438e-05	6.6288e-05	1.8543e-05	1089.6	7.4527e-07	7.3588e-07	1169.9	241.31	7.5185e-07	6.9341e-07	296.67	85.692	66.531	19.955	6.9318e-07	27.418	225.429	140.281	155.946	60.254	228.293	199.609	60.246	67.532	234.533	169.417	67.080	74.199	74.131	80.774	184.095	80.062	-8191	255	
18045.729	1	1	0	0	0.14283	0.18881	0.047171	0.068847	0.051012	0.14536	0.066832	0.095884	0.13905	0.090585	0.062086	0.0952	0.26757	0.33512	0.2571	0.14123	-2.1562	-2.5979	-2.9146	-2.7542	-2.775	-3.0333	-2.8208	-2.8083	-2.8958	-2.7958	-3.0583	-2.6417	-2.775	-2.9333	-2.6292	-3.0396	299.289	354.762	202.459	314.824	326.616	233.019	384.561	103.358	67.169	322.041	56.152	290.647	57.809	405.514	247.362	154.122	0.00022775	0.00024362	0.00010644	1111.8	3.3377e-06	2.5201e-06	1181.9	243.42	2.9744e-06	3.3497e-06	300.56	85.638	66.367	19.841	3.3258e-06	27.136	8.7828e-05	5.9499e-05	1.5925e-05	1074.4	6.669e-07	5.9183e-07	1155.3	238.35	6.5434e-07	5.9889e-07	293.79	84.783	65.861	19.767	6.1775e-07	27.166	225.009	140.660	141.411	60.568	214.476	196.780	60.280	67.424	241.505	209.789	66.775	73.872	74.123	80.878	195.919	80.011	-8191	255	
18045.801	1	1	0	0	0.22242	0.16925	0.12953	0.24271	0.10338	0.15182	0.31191	0.15786	0.12002	0.083659	0.10607	0.20688	0.097781	0.11472	0.15298	0.077593	-2.3792	-2.5792	-2.8667	-2.5479	-2.9208	-2.8688	-2.6521	-2.8438	-2.8563	-2.725	-3.0917	-2.8104	-2.8125	-3.05	-2.6417	-2.9208	375.882	383.119	141.715	320.341	357.392	106.321	352.171	118.546	154.249	382.399	110.533	61.183	88.478	254.627	103.060	109.666	0.00023702	0.00028633	9.1948e-05	1104	2.5428e-06	2.8311e-06	1176	238.72	1.6113e-06	2.6292e-06	297.08	83.849	66.034	19.572	2.5049e-06	27.227	8.0876e-05	5.6784e-05	1.5417e-05	1063.9	6.7518e-07	6.1493e-07	1145.2	235.49	6.8737e-07	6.4301e-07	290.94	83.821	65.284	19.521	7.0204e-07	26.966	224.705	133.993	143.767	59.879	246.308	196.231	60.478	67.383	230.691	164.582	67.036	74.190	74.400	80.877	231.427	80.018	-8191	255	
18045.920	1	1	0	0	0.1289	0.2604	0.049781	0.20545	0.12237	0.22815	0.14643	0.026412	0.096313	0.16642	0.1352	0.29829	0.14017	0.14316	0.24839	0.32411	-2.2979	-2.6312	-2.9021	-2.6937	-2.8458	-2.8875	-2.8417	-2.8	-2.9646	-2.4854	-2.9646	-2.7729	-2.8167	-3.1208	-2.7062	-2.9417	255.408	216.994	391.883	293.013	93.984	382.917	276.210	52.046	187.846	152.510	57.149	393.839	316.931	277.444	323.123	313.374	0.00024023	0.00021691	8.4056e-05	1101	3.3729e-06	3.5959e-06	1171.3	236.81	2.7405e-06	2.9151e-06	294.75	83.949	65.69	19.6	2.8524e-06	27.021	8.5814e-05	5.7987e-05	1.6923e-05	1059.3	6.6547e-07	6.6703e-07	1142.2	233.19	7.2683e-07	6.5108e-07	289.52	83.403	64.906	19.524	6.7058e-07	26.83	222.568	164.441	128.933	60.219	230.140	184.117	60.363	67.778	236.360	183.655	67.173	74.199	74.085	80.958	213.908	80.400	-8191	255	
18046.016	1	1	0	0	0.10095	0.067971	0.28168	0.073642	0.18634	0.10851	0.19394	0.098532	0.22912	0.11876	0.33276	0.058205	0.097725	0.083417	0.088212	0.11061	-2.4062	-2.5229	-2.85	-2.75	-2.6521	-2.9354	-2.8646	-2.9333	-2.8667	-2.7896	-2.9583	-2.7271	-2.7542	-2.9958	-2.5833	-2.9417	145.296	64.771	223.751	408.538	129.217	238.859	329.917	72.292	242.170	110.059	68.027	329.332	372.195	299.950	256.800	221.659	0.0002132	0.00028636	8.5336e-05	1095.5	3.742e-06	2.5931e-06	1164.4	237.73	2.9008e-06	2.502e-06	293.73	84.158	65.476	19.365	2.5583e-06	26.901	8.3843e-05	6.0735e-05	1.6626e-05	1055.6	6.758e-07	6.3543e-07	1137.3	233	6.7663e-07	6.3772e-07	287.85	83.355	64.631	19.439	6.4363e-07	26.83	226.576	158.210	162.154	60.174	232.568	212.156	60.292	67.558	256.021	170.985	67.264	74.415	74.269	80.460	209.797	79.965	-8191	255	
18046.111	1	1	0	0	0.26048	0.31444	0.14768	0.23924	0.26984	0.1771	0.029969	0.3515	0.12551	0.25964	0.08632	0.17041	0.14473	0.13155	0.037268	0.061211	-2.6188	-2.4625	-2.8375	-2.7292	-2.5458	-2.8042	-2.9083	-2.9271	-3.0396	-2.6604	-2.9938	-2.8208	-2.6688	-2.9042	-2.7562	-2.8542	180.576	155.021	175.042	322.370	74.456	386.383	195.021	334.393	277.163	265.096	206.971	151.661	114.482	358.083	259.003	378.999	0.00022566	0.00017174	7.6829e-05	1087.1	2.0245e-06	1.6902e-06	1158.2	236.37	2.3656e-06	2.2134e-06	294.13	83.86	65.428	19.55	3.303e-06	26.897	7.9331e-05	5.5947e-05	1.5183e-05	1046.8	6.0046e-07	5.8252e-07	1130.2	231.82	6.1092e-07	5.7153e-07	286.58	83.014	64.554	19.44	5.4862e-07	26.75	227.522	162.221	154.429	60.186	185.961	201.413	60.527	67.482	223.078	201.615	67.204	74.361	74.424	80.766	205.679	80.282	-8191	255	
18046.209	1	1	0	0	0.15241	0.15873	0.20051	0.27513	0.094295	0.16182	0.2744	0.20425	0.15205	0.19789	0.10587	0.042886	0.12589	0.2485	0.12401	0.13124	-2.5625	-2.675	-2.8854	-2.7792	-2.6708	-3.0771	-2.8417	-2.7396	-2.8979	-2.8833	-2.9083	-2.9021	-2.6875	-2.9708	-2.7625	-2.575	112.942	283.704	85.771	384.224	206.362	384.186	318.918	379.987	175.570	387.209	309.731	273.010	65.236	175.111	352.980	54.928	0.00022471	0.00028803	0.00011338	1076.5	5.0943e-06	3.3725e-06	1143.2	233.27	2.5361e-06	2.3109e-06	292.55	82.873	64.905	19.432	3.2996e-06	26.901	7.4429e-05	5.0435e-05	1.355e-05	1036.1	5.9449e-07	5.357e-07	1117.4	230.46	5.7727e-07	5.049e-07	285.97	82.658	64.369	19.377	5.1281e-07	26.715	219.876	164.894	140.368	60.145	234.352	209.394	60.525	67.706	243.893	214.491	67.026	74.327	74.463	80.764	162.980	80.600	-8191	255	
18046.328	1	1	0	0	0.18306	0.033804	0.31359	0.2072	0.073266	0.24907	0.34128	0.27311	0.10879	0.16893	0.094115	0.22406	0.18515	0.02735	0.026032	0.13075	-2.4562	-2.6312	-2.5812	-2.9437	-2.4854	-3.0104	-2.9292	-2.8042	-2.9417	-2.7667	-2.7479	-2.8979	-2.5479	-2.9313	-2.7458	-2.7854	278.825	374.023	52.137	305.775	201.195	327.511	377.222	52.604	194.411	208.385	101.285	350.552	385.707	194.591	114.826	93.669	0.0002253	0.00023689	5.034e-05	1068	3.0847e-06	1.704e-06	1140	233.14	2.3831e-06	3.5587e-06	290.3	83.672	64.728	19.463	3.2484e-06	26.747	6.9664e-05	4.8614e-05	1.3382e-05	1031.6	5.3892e-07	4.8521e-07	1111.8	229.94	5.6688e-07	4.8679e-07	284.69	82.797	64.221	19.334	5.2708e-07	26.629	230.368	155.768	91.913	60.298	223.214	228.458	60.592	67.598	259.226	200.750	67.301	73.816	74.395	80.652	205.068	80.139	-8191	255	
18046.424	1	1	0	0	0.29482	0.21558	0.16572	0.16287	0.32321	0.35605	0.050369	0.26095	0.18033	0.060248	0.028475	0.25472	0.16445	0.3268	0.0089478	0.04192	-2.5167	-2.6854	-2.8187	-2.8563	-2.6188	-2.7646	-2.9562	-2.5729	-2.9646	-2.7333	-2.6604	-2.9354	-2.7333	-2.8708	-2.8729	-2.5042	188.864	278.408	293.406	89.467	284.136	319.357	341.330	403.195	180.001	112.681	408.505	89.462	127.066	376.100	56.879	208.335	0.00022465	0.00043812	5.5144e-05	1063.5	3.9121e-06	2.4977e-06	1139.4	233.7	2.8489e-06	1.1268e-06	289.38	83.66	65.046	19.127	2.9522e-06	26.793	7.3375e-05	4.7769e-05	1.3435e-05	1027	5.4479e-07	4.8691e-07	1111.6	229.39	5.7921e-07	5.2239e-07	283.68	82.642	63.926	19.16	5.223e-07	26.572	224.341	161.656	119.419	60.679	209.675	211.257	60.611	67.544	230.076	244.699	67.130	74.522	74.512	80.509	192.086	80.193	-8191	255	
18046.521	1	1	0	0	0.1457	0.075604	0.16702	0.3332	0.1454	0.31218	0.29451	0.036489	0.19275	0.10785	0.28097	0.12443	0.024692	0.081417	0.23907	0.19593	-2.4229	-2.6813	-2.6625	-2.9125	-2.5042	-2.7375	-2.9167	-2.7375	-2.8354	-2.7896	-2.5958	-3.025	-2.7583	-2.7875	-2.8396	-2.6562	249.766	158.184	151.560	313.694	352.285	54.397	385.668	213.350	339.139	141.824	368.392	290.944	127.328	285.040	263.633	399.062	0.00023894	0.00028786	7.1631e-05	1067.6	3.873e-06	3.5323e-06	1133.8	233.56	2.3378e-06	3.3064e-06	287.96	83.236	64.803	19.035	3.5961e-06	26.757	7.4356e-05	5.1337e-05	1.3103e-05	1028.1	5.7935e-07	5.255e-07	1106.1	229.29	5.9894e-07	5.0365e-07	282.97	82.116	63.786	19.221	5.2274e-07	26.536	224.422	159.352	135.848	60.396	211.850	225.093	60.591	67.484	239.646	198.208	67.067	74.167	74.608	80.657	182.517	80.353	-8191	255	
18046.615	1	1	0	0	0.063074	0.34757	0.19287	0.12609	0.17062	0.11917	0.2661	0.18979	0.28998	0.056609	0.13051	0.08854	0.32643	0.23918	0.34845	0.17413	-2.4521	-2.6813	-2.5271	-2.9771	-2.7917	-2.9	-3.1229	-2.7125	-2.9313	-2.8208	-2.7938	-3.0312	-2.6229	-2.7354	-3.0354	-2.6146	210.460	113.872	262.150	79.064	128.363	375.078	398.581	152.010	252.009	262.295	311.252	127.328	402.482	69.310	158.813	191.547	0.00024006	0.00025137	0.00010027	1064.6	3.9791e-06	3.0892e-06	1132.8	232.03	2.5083e-06	2.317e-06	289.62	83.399	64.119	19.386	4.119e-06	26.563	7.4652e-05	4.611e-05	1.3591e-05	1026	5.8327e-07	5.1807e-07	1106.4	228.77	5.8652e-07	5.1477e-07	283.67	82.547	63.756	19.204	5.7149e-07	26.443	227.569	143.527	134.325	60.610	222.618	196.733	60.565	67.529	250.468	214.813	66.844	74.236	74.162	80.631	214.088	80.850	-8191	255	
18046.713	1	1	0	0	0.18036	0.21939	0.075788	0.15528	0.10583	0.057656	0.17299	0.17752	0.13842	0.2031	0.17278	0.12536	0.18356	0.048601	0.16711	0.087355	-2.475	-2.8458	-2.5042	-3.1604	-2.8479	-2.7646	-3.1958	-2.8667	-3.0667	-2.7833	-2.6646	-3.1063	-2.7062	-2.6625	-2.7875	-2.6813	123.484	329.042	85.170	267.550	280.659	300.273	156.865	184.632	107.193	304.348	381.781	382.981	118.987	120.127	385.082	378.766	0.0002354	0.00037104	9.6419e-05	1069.2	3.2581e-06	2.9346e-06	1131.9	233.1	1.862e-06	4.1859e-06	289.8	83.592	64.152	19.279	4.1369e-06	26.441	7.4385e-05	4.9874e-05	1.4092e-05	1026.4	5.8362e-07	5.3311e-07	1108	228.9	6.1541e-07	5.6212e-07	284.33	82.273	63.639	19.214	6.1305e-07	26.487	227.007	173.063	131.136	59.754	235.727	211.377	60.592	67.794	215.490	197.336	67.253	73.994	74.482	81.019	208.680	80.356	-8191	255	
18046.809	1	1	0	0	0.4331	0.24642	0.15791	0.12643	0.18266	0.16634	0.15578	0.067404	0.13979	0.41915	0.30707	0.15685	0.26744	0.30636	0.15523	0.24712	-2.3833	-2.8771	-2.5396	-2.9396	-2.7625	-2.5458	-3.3375	-2.9333	-2.7896	-2.9437	-2.6542	-2.9562	-2.725	-2.65	-2.8208	-2.7479	220.272	154.609	201.614	362.207	300.118	281.458	290.242	191.093	192.489	215.081	361.482	380.031	391.049	393.255	328.889	61.450	0.00022244	0.00025366	4.4745e-05	1065.6	3.5585e-06	2.2556e-06	1141	233.48	1.7428e-06	3.2647e-06	289.8	83.483	65.131	19.26	4.0215e-06	26.811	7.8125e-05	4.946e-05	1.4532e-05	1030	6.1676e-07	5.8691e-07	1114.6	229.6	5.9216e-07	5.4122e-07	284.55	82.742	64.176	19.235	5.8407e-07	26.657	227.976	117.075	132.682	60.434	232.156	205.779	60.331	67.576	224.108	188.997	67.383	74.196	74.548	80.940	188.828	80.387	-8191	255	
18046.904	1	1	0	0	0.18935	0.28262	0.015775	0.1406	0.29006	0.14622	0.4668	0.17853	0.14481	0.21668	0.11697	0.081542	0.11245	0.09054	0.23267	0.10952	-2.1396	-2.9437	-2.4562	-3.0229	-2.8104	-2.4458	-3.0542	-2.7854	-2.8354	-3.0125	-2.7354	-2.7958	-2.7354	-2.6167	-2.8771	-2.9208	324.132	350.754	106.980	120.261	240.843	193.551	304.843	355.559	101.482	97.309	355.978	98.509	331.694	362.310	151.566	115.884	0.0002228	0.00034079	0.00012579	1071.5	2.6346e-06	2.3466e-06	1140.9	233.62	2.6249e-06	2.4027e-06	290.35	83.962	64.644	19.443	2.8822e-06	26.871	7.4732e-05	5.237e-05	1.5669e-05	1034.6	5.5308e-07	5.5773e-07	1115.9	230.11	5.8881e-07	5.3719e-07	284.87	82.879	64.049	19.368	6.0588e-07	26.688	228.579	180.129	127.205	60.402	253.338	208.827	60.530	67.606	242.259	219.930	66.902	73.833	74.303	81.051	190.749	80.337	-8191	255	
18047.025	1	1	0	0	0.21388	0.055099	0.19778	0.27146	0.030384	0.026663	0.20514	0.036647	0.32076	0.1569	0.075728	0.082933	0.16842	0.1447	0.17417	0.074233	-2.1167	-2.9708	-2.5292	-2.8708	-2.9417	-2.5417	-3.0938	-2.8042	-2.7729	-3.2042	-2.7167	-2.8063	-2.7771	-2.5396	-2.8958	-2.7958	278.467	80.009	295.214	337.316	366.586	261.786	384.531	345.059	275.065	188.226	401.577	228.670	62.223	257.813	231.181	212.788	0.00024421	0.00046937	8.8842e-05	1079.3	4.183e-06	1.6003e-06	1140.6	233.69	3.1878e-06	2.0574e-06	289.2	83.73	65.225	19.265	2.2173e-06	26.878	7.8566e-05	5.2313e-05	1.5029e-05	1037.4	6.1186e-07	6.0311e-07	1115.9	230.21	6.2721e-07	5.8445e-07	285.2	82.913	64.226	19.272	5.9621e-07	26.631	230.766	160.224	139.902	60.271	206.160	227.345	60.509	67.355	242.334	202.079	67.267	73.949	74.402	81.063	224.863	80.118	-8191	255	
18047.098	1	1	0	0	0.077193	0.19929	0.1007	0.14805	0.23081	0.10427	0.22696	0.18178	0.17543	0.40124	0.16069	0.079381	0.069882	0.23165	0.19039	0.12064	-2.1729	-3.1729	-2.5604	-2.7938	-2.9896	-2.5687	-3.0104	-2.8583	-2.65	-3.0479	-2.625	-2.8104	-2.7625	-2.575	-2.9792	-2.8312	374.703	237.445	65.963	218.271	180.531	64.072	348.899	303.981	90.342	332.393	348.160	68.086	388.454	330.884	64.649	394.098	0.00021936	0.00028558	5.5989e-05	1069.8	3.9931e-06	3.5653e-06	1141.8	234.92	1.981e-06	2.566e-06	291.99	83.508	64.751	19.342	1.7231e-06	26.734	8.2724e-05	5.2256e-05	1.5923e-05	1034	6.0749e-07	6.0159e-07	1118.5	230.72	6.9415e-07	6.1099e-07	286.16	82.717	64.005	19.269	6.1527e-07	26.567	223.514	104.886	111.914	60.464	241.368	212.473	60.527	67.606	241.403	190.751	66.901	74.428	74.483	80.862	201.085	80.664	-8191	255	
18047.193	1	1	0	0	0.024071	0.26826	0.15995	0.23766	0.13388	0.024906	0.13144	0.29213	0.02104	0.21484	0.25759	0.028052	0.12646	0.3404	0.13992	0.11644	-2.175	-2.8854	-2.8208	-2.775	-3.0687	-2.7229	-3.1333	-2.9188	-2.6667	-2.8979	-2.9729	-2.9062	-2.9354	-2.6583	-2.9042	-2.9208	304.329	109.623	331.527	328.818	337.245	324.216	285.432	382.520	309.023	301.305	59.146	326.650	215.761	52.731	338.203	237.389	0.00023777	0.00025618	4.2749e-05	1079.9	3.9459e-06	2.6469e-06	1143.6	233.23	3.1034e-06	2.0439e-06	288.78	83.169	64.759	19.275	3.1708e-06	26.629	8.2861e-05	5.4516e-05	1.4748e-05	1037.2	6.3109e-07	5.9756e-07	1116.3	229.58	6.8464e-07	6.2059e-07	284.41	82.26	63.946	19.247	6.626e-07	26.497	224.832	216.423	151.161	60.075	201.126	211.178	60.436	67.391	227.231	200.195	67.259	74.260	74.256	81.103	205.873	80.245	-8191	255	
18047.289	1	1	0	0	0.27187	0.17243	0.01391	0.3026	0.19035	0.16845	0.19124	0.46693	0.26146	0.078767	0.14829	0.21161	0.07808	0.31626	0.067067	0.099138	-2.2042	-2.8708	-2.6229	-2.7167	-3.15	-2.8333	-3.0896	-3.0687	-2.7583	-2.925	-3.0708	-2.8146	-2.8917	-2.6729	-2.6292	-2.9854	81.634	149.067	331.134	352.278	95.263	365.087	294.260	55.598	76.547	54.387	174.269	371.091	313.817	377.394	199.152	106.060	0.00022782	0.00040146	8.6343e-05	1078.2	2.5517e-06	1.3034e-06	1138.8	233.07	2.399e-06	1.3681e-06	288.56	82.94	64.733	19.237	3.7722e-06	26.607	8.4587e-05	5.5703e-05	1.6184e-05	1038.5	6.3822e-07	6.0284e-07	1115.2	228.8	6.7865e-07	6.3826e-07	283.4	82.221	63.714	19.215	6.3503e-07	26.479	228.214	164.145	152.338	60.526	193.368	214.990	60.446	67.638	253.641	210.102	67.105	74.583	74.542	81.153	202.358	80.510	-8191	255	
18047.408	1	1	0	0	0.20523	0.17185	0.12175	0.081402	0.18612	0.23697	0.37073	0.28055	0.19437	0.11521	0.19106	0.32477	0.25291	0.097155	0.15914	0.023859	-2.2417	-2.9354	-2.7729	-2.8521	-2.9813	-2.8396	-2.9188	-3.0958	-2.8063	-2.8708	-3.0229	-2.6479	-2.9771	-2.7333	-2.6979	-2.9333	179.092	180.660	295.765	342.151	261.925	295.477	344.273	64.880	369.166	51.646	347.263	339.050	320.067	188.004	326.738	399.189	0.00021439	0.00030838	5.7445e-05	1070.8	3.3021e-06	2.1362e-06	1137.4	231.8	2.806e-06	1.7052e-06	288.13	83.195	64.293	19.243	2.2047e-06	26.744	8.0515e-05	5.5719e-05	1.5596e-05	1033	6.6138e-07	5.9631e-07	1113.2	228.79	6.8112e-07	6.1117e-07	282.92	82.224	63.598	19.218	6.4e-07	26.472	228.938	169.784	160.626	60.186	258.126	198.840	60.400	67.580	252.440	221.321	66.986	74.067	74.496	80.603	215.665	80.027	-8191	255	
18047.504	1	1	0	0	0.16121	0.20901	0.039141	0.050873	0.083066	0.1894	0.3409	0.083029	0.083808	0.17651	0.095526	0.26183	0.082104	0.25381	0.13088	0.17222	-2.2438	-2.7229	-2.6437	-2.6708	-2.9375	-2.7771	-2.8604	-2.9688	-2.7104	-2.9125	-2.8354	-2.5646	-3.0354	-2.6396	-2.7479	-3.15	166.044	80.279	118.571	143.740	202.073	387.746	307.820	195.738	86.600	368.092	82.619	58.104	244.647	189.908	218.512	319.072	0.00022756	0.00040626	5.8834e-05	1068.6	2.9638e-06	1.4599e-06	1144.4	232.74	2.0584e-06	4.3238e-06	287.74	82.927	63.992	19.128	1.8583e-06	26.561	8.0464e-05	5.9182e-05	1.5517e-05	1030.4	6.4169e-07	6.5396e-07	1116	228.5	6.9671e-07	6.1835e-07	283.04	82.135	63.501	19.18	6.8174e-07	26.465	225.927	118.468	122.450	60.228	227.348	241.821	60.249	67.576	246.907	210.404	67.233	74.503	74.488	81.276	239.768	80.506	-8191	255	
18047.602	1	1	0	0	0.14332	0.16649	0.46095	0.12211	0.085434	0.23957	0.18904	0.27229	0.023588	0.15862	0.12358	0.10103	0.25462	0.1522	0.19136	0.048468	-2.1458	-2.7292	-2.8854	-2.7625	-2.7271	-2.8625	-2.7146	-3.0479	-2.5125	-2.8396	-3.0708	-2.6125	-3.0229	-2.7917	-2.6208	-3.2125	357.806	394.960	235.944	334.356	396.206	216.297	324.785	368.571	374.321	268.009	124.941	122.442	352.719	256.748	337.538	306.646	0.0002365	0.00023405	9.6618e-05	1072.9	2.3141e-06	2.2774e-06	1145.8	232.59	2.15e-06	2.3596e-06	288.66	82.772	64.599	19.161	3.0645e-06	26.576	8.1367e-05	5.9938e-05	1.6592e-05	1033	6.6129e-07	6.1923e-07	1116.8	228.35	7.4559e-07	6.6525e-07	282.84	82.185	63.578	19.165	6.3486e-07	26.401	223.755	129.761	143.067	60.215	236.912	163.740	60.407	67.759	238.572	213.811	67.234	74.314	74.623	80.693	176.382	80.518	-8191	255	
18047.695	1	1	0	0	0.24091	0.075745	0.1878	0.30675	0.15136	0.28279	0.04562	0.21137	0.28252	0.35293	0.23783	0.15596	0.15464	0.085934	0.12582	0.049863	-2.3125	-2.75	-2.7667	-2.7083	-2.9188	-2.8375	-2.8354	-2.9792	-2.7438	-2.7333	-3.0958	-2.5938	-2.9833	-2.8271	-2.6646	-3	257.407	78.509	120.802	131.266	292.912	81.428	219.821	242.721	73.518	401.862	348.277	221.574	405.244	371.092	91.400	196.707	0.00024061	0.0003015	6.4081e-05	1073.9	3.0408e-06	1.3816e-06	1146.1	231.55	2.1341e-06	1.2707e-06	288.8	83.063	64.55	19.239	2.1721e-06	26.61	8.25e-05	5.8654e-05	1.6038e-05	1035.9	6.5265e-07	6.4752e-07	1116.6	228.4	6.8984e-07	6.4418e-07	283.09	82.067	63.825	19.143	6.5657e-07	26.45	224.399	129.468	140.464	60.132	224.617	207.595	60.393	67.592	216.070	178.600	66.941	74.269	74.424	81.043	179.280	80.431	-8191	255	
18047.793	1	1	0	0	0.039055	0.31808	0.17017	0.14202	0.094967	0.22163	0.11474	0.28821	0.15489	0.17515	0.059871	0.40522	0.15251	0.07589	0.055402	0.20244	-2.3187	-2.7583	-3.0438	-2.5958	-2.7917	-2.9646	-2.6583	-2.9313	-2.8646	-2.8125	-3.0625	-2.7271	-2.9083	-2.8812	-2.7542	-2.8979	293.031	117.346	366.794	369.630	120.607	237.440	137.123	397.466	136.469	60.207	223.223	360.577	371.061	50.830	251.974	328.381	0.00020526	0.00022821	5.2582e-05	1077.2	5.1601e-06	2.5233e-06	1143.9	232.41	2.1345e-06	1.7714e-06	287.75	83.014	64.897	19.29	2.3371e-06	26.593	8.1129e-05	5.6841e-05	1.5254e-05	1035.8	6.7135e-07	6.4626e-07	1116.7	228.67	7.1283e-07	6.3198e-07	282.68	82.17	63.776	19.151	6.4789e-07	26.527	232.660	112.810	138.638	59.854	223.344	183.225	60.590	67.700	220.935	236.254	66.887	74.318	74.657	81.167	197.650	80.256	-8191	255	
18047.889	1	1	0	0	0.14504	0.12709	0.25755	0.18498	0.1827	0.14703	0.15478	0.2582	0.13703	0.25232	0.17787	0.26774	0.12167	0.14865	0.27616	0.098827	-2.2938	-2.5333	-2.8646	-2.6979	-2.6125	-3.0312	-2.7542	-3.0062	-2.7313	-2.6792	-3.2167	-2.6625	-2.7229	-3.1604	-2.6854	-2.975	159.224	64.577	288.119	378.835	136.255	55.202	361.868	349.801	400.177	364.325	355.951	405.964	55.411	69.103	391.314	325.535	0.00021353	0.00027122	6.465e-05	1072.8	2.9772e-06	2.2624e-06	1141.6	232.75	2.8163e-06	3.1736e-06	288.28	82.479	63.931	19.304	3.7225e-06	26.651	8.0414e-05	6.1694e-05	1.5862e-05	1035	6.6993e-07	6.3946e-07	1115	228.6	6.776e-07	5.953e-07	282.44	81.87	63.563	19.18	6.8307e-07	26.477	229.777	174.955	141.131	60.430	217.454	203.027	60.361	67.709	253.063	190.132	66.987	74.447	74.287	80.578	208.386	80.154	-8191	255	
18048.010	1	1	0	0	0.10788	0.12109	0.17776	0.40144	0.22686	0.11068	0.2693	0.26961	0.16423	0.14628	0.20272	0.23867	0.090501	0.024258	0.2114	0.16181	-2.4562	-2.6542	-2.9479	-2.8771	-2.9104	-3.0229	-2.8292	-2.9042	-2.9396	-2.675	-3.1937	-2.8104	-2.9188	-3.0417	-2.5771	-2.95	94.157	281.071	105.781	310.081	62.572	406.908	310.233	376.332	234.954	114.531	199.590	295.237	333.615	306.790	208.251	269.404	0.00023349	0.00021396	7.5137e-05	1069.9	4.4192e-06	3.0029e-06	1145.7	232.24	1.979e-06	3.1396e-06	287.97	82.648	64.613	19.245	1.9691e-06	26.631	8.0934e-05	5.5695e-05	1.5539e-05	1034.2	6.9388e-07	5.9783e-07	1114.7	228.59	6.6553e-07	6.1404e-07	282.53	82.072	63.819	19.217	6.2803e-07	26.43	226.919	149.922	166.108	60.057	232.194	185.231	60.473	67.761	242.329	193.315	67.110	74.380	74.809	80.697	220.181	80.179	-8191	255	
18048.105	1	1	0	0	0.10231	0.21468	0.070067	0.22545	0.071956	0.13198	0.32462	0.22656	0.23265	0.13853	0.36766	0.080378	0.21939	0.26108	0.10488	0.43368	-2.4458	-2.6396	-3.0125	-2.7208	-2.7708	-2.8854	-2.7833	-2.6271	-3.0417	-2.5021	-2.9583	-2.825	-2.6937	-3.1333	-2.5125	-2.7833	209.567	228.657	131.091	51.124	345.864	198.625	319.201	63.628	155.545	139.919	384.708	203.978	387.585	345.643	275.882	370.102	0.00020411	0.00032206	5.1079e-05	1072.7	3.1161e-06	2.2739e-06	1140.4	232.86	2.322e-06	3.3703e-06	288.46	82.682	64.764	18.974	1.2628e-06	26.421	7.8183e-05	5.7841e-05	1.6e-05	1034	6.7554e-07	6.0643e-07	1113.9	228.55	6.9107e-07	6.3619e-07	282.78	82.049	63.852	19.095	6.6171e-07	26.409	225.860	153.950	138.876	59.996	225.799	185.084	60.419	67.604	253.251	212.446	66.936	74.353	74.377	80.767	205.269	80.535	-8191	255	
18048.201	1	1	0	0	0.058167	0.020733	0.32392	0.047204	0.20371	0.087281	0.22959	0.17993	0.12673	0.11115	0.13901	0.13327	0.24901	0.19108	0.12775	0.18598	-2.5938	-2.5083	-2.9688	-2.8979	-2.6167	-3.0521	-2.7188	-2.9646	-3.0021	-2.6021	-2.9188	-2.8792	-2.55	-2.8792	-2.7979	-2.75	236.464	207.071	305.450	408.893	195.426	323.592	326.694	346.982	296.451	305.412	81.219	100.039	342.719	379.164	54.779	301.655	0.00023336	0.00036087	9.1501e-05	1074	4.3971e-06	2.3239e-06	1139.4	231.13	2.5764e-06	2.3042e-06	287.85	82.768	64.418	19.224	2.1744e-06	26.364	8.2276e-05	5.7426e-05	1.5691e-05	1033.5	6.8159e-07	5.853e-07	1113.7	228.51	6.9671e-07	6.1942e-07	282.75	82.22	63.706	19.174	6.4523e-07	26.432	225.227	154.531	136.095	60.497	233.340	207.103	60.817	67.579	236.944	212.463	66.941	74.356	74.394	81.141	232.395	80.477	-8191	255	
18048.322	1	1	0	0	0.12562	0.095867	0.12221	0.21397	0.15874	0.15371	0.082844	0.17484	0.22323	0.32243	0.15326	0.14667	0.25382	0.15234	0.22003	0.059735	-2.4708	-2.5979	-2.7625	-2.8729	-2.6771	-2.9896	-2.9875	-2.7854	-2.925	-2.6063	-2.9813	-2.9896	-2.5604	-2.7562	-2.65	-2.7292	68.976	313.761	234.244	381.398	228.075	372.024	344.106	193.580	166.905	268.485	193.304	318.258	51.915	397.876	100.762	121.799	0.00023624	0.00029425	6.336e-05	1073.3	4.1304e-06	2.08e-06	1145.2	233.35	2.6505e-06	2.6337e-06	288.48	82.902	64.455	19.241	2.0098e-06	26.58	8.3049e-05	5.7337e-05	1.6424e-05	1034.8	6.6057e-07	6.3946e-07	1117.1	228.86	6.6888e-07	6.4938e-07	283	82.251	63.707	19.172	6.5196e-07	26.442	226.846	157.355	125.584	60.312	210.690	213.228	60.435	67.638	229.020	189.179	67.068	74.129	74.364	80.796	200.135	80.358	-8191	255	
18048.395	1	1	0	0	0.20381	0.21245	0.11591	0.28102	0.080258	0.19541	0.21082	0.20316	0.099825	0.14214	0.18041	0.29406	0.1916	0.030003	0.30058	0.18372	-2.4458	-2.6271	-2.8125	-3.0542	-2.6562	-2.9354	-2.9896	-2.7687	-3.0708	-2.7792	-2.8521	-2.9458	-2.5354	-2.8167	-2.9396	-2.675	161.431	81.641	378.390	356.750	252.127	276.192	249.210	333.718	109.397	253.168	338.723	383.635	224.829	316.437	269.437	58.413	0.00023931	0.00034118	7.611e-05	1072.7	3.6658e-06	2.6522e-06	1146.5	231.53	2.0712e-06	3.0271e-06	288.95	82.909	64.578	19.253	3.3626e-06	26.771	8.3071e-05	6.1174e-05	1.6789e-05	1035.7	6.5924e-07	6.0813e-07	1118	228.32	6.9028e-07	5.9566e-07	283.05	82.152	63.863	19.224	6.2307e-07	26.548	225.298	161.922	145.933	60.169	219.544	217.128	60.304	67.459	233.399	181.665	67.106	74.340	74.490	81.101	217.979	80.274	-8191	255	
18048.490	1	1	0	0	0.12237	0.21429	0.1109	0.11584	0.13517	0.058552	0.094354	0.32149	0.18584	0.21191	0.066197	0.10035	0.1987	0.043347	0.13274	0.090237	-2.5625	-2.6958	-2.7521	-3.1625	-2.8625	-2.8854	-3.0438	-2.7208	-3.0938	-2.5896	-2.9458	-3.0229	-2.5792	-2.9562	-2.8875	-2.7646	400.326	239.490	239.484	321.703	206.289	405.017	171.481	348.837	221.442	318.205	179.643	390.884	364.314	380.836	185.547	268.584	0.00020237	0.00021731	7.3009e-05	1071.3	2.9298e-06	1.9947e-06	1146.4	232.43	1.9676e-06	2.4209e-06	289.84	83.113	64.792	19.225	4.1157e-06	26.905	8.0017e-05	5.6223e-05	1.5367e-05	1036.4	6.5381e-07	6.1278e-07	1116.8	228.41	6.6967e-07	6.2669e-07	283.66	82.403	64.116	19.189	6.1235e-07	26.601	221.176	150.924	148.479	60.336	247.903	183.329	60.386	67.452	231.075	213.523	67.355	74.336	74.666	80.772	212.025	80.116	-8191	255	
18048.584	1	1	0	0	0.11952	0.25138	0.088056	0.2443	0.16567	0.18418	0.10258	0.34696	0.34634	0.15046	0.22599	0.22771	0.20745	0.15192	0.091314	0.1544	-2.5229	-2.6396	-2.6083	-3.0875	-2.675	-3.0604	-3.0771	-2.5042	-2.8917	-2.75	-2.7417	-2.9542	-2.6146	-2.8229	-2.8604	-2.6125	180.441	155.055	320.593	304.503	161.887	166.614	315.046	343.692	335.193	182.869	229.704	395.987	135.721	72.828	273.874	256.722	0.00022653	0.00032864	7.4866e-05	1076.5	3.4829e-06	3.0762e-06	1146.2	231.76	2.9611e-06	1.8119e-06	287.08	83.206	64.623	19.24	3.4288e-06	26.674	8.0486e-05	5.4882e-05	1.6635e-05	1036.6	6.4169e-07	6.024e-07	1117.6	228.74	6.598e-07	6.109e-07	283.26	82.535	64.096	19.232	6.2963e-07	26.536	229.060	141.373	169.831	60.081	211.414	213.526	60.328	67.498	226.225	150.474	66.998	74.453	74.292	80.820	212.765	80.498	-8191	255	
18048.705	1	1	0	0	0.096281	0.052578	0.13532	0.077421	0.33487	0.23332	0.23915	0.32166	0.24713	0.26579	0.17427	0.20052	0.24422	0.10332	0.23524	0.19046	-2.5062	-2.875	-2.5958	-2.8312	-2.6521	-2.8625	-3.0312	-2.5542	-2.9813	-2.8979	-2.5125	-2.9813	-2.9021	-2.8042	-3.0896	-2.5333	291.152	398.240	204.067	296.250	235.587	297.915	349.039	251.449	396.275	144.474	403.026	253.581	238.269	385.034	93.748	74.207	0.00022718	0.00031357	7.9852e-05	1078.4	2.8275e-06	2.1727e-06	1138.6	232.97	2.0696e-06	3.4535e-06	287.68	83.13	64.909	19.426	2.4403e-06	26.71	7.9432e-05	5.8369e-05	1.6757e-05	1036.7	6.4917e-07	6.1672e-07	1116.9	229.55	6.5646e-07	6.1539e-07	283.81	82.667	64.177	19.319	6.1172e-07	26.607	228.017	158.842	128.605	60.637	248.113	195.714	60.499	67.428	255.000	190.641	67.141	74.336	74.545	81.253	216.498	80.517	-8191	255	
18048.801	1	1	0	0	0.05307	0.25345	0.068271	0.13176	0.039731	0.074535	0.32797	0.2784	0.085171	0.076305	0.050214	0.094812	0.11741	0.11646	0.21837	0.17663	-2.4604	-2.6312	-2.8271	-3.0667	-2.8833	-2.7	-3.1958	-2.7896	-2.85	-2.775	-2.6104	-3.0771	-2.7062	-2.7938	-2.9917	-2.7375	163.023	162.268	364.012	154.789	212.470	285.334	229.768	86.281	334.606	392.118	86.483	340.426	215.235	374.255	258.504	318.565	0.00024791	0.0004199	7.9406e-05	1082.5	3.151e-06	5.114e-07	1146.7	233.46	1.873e-06	2.0297e-06	290.23	83.227	65.337	19.545	3.0537e-06	26.931	8.2024e-05	5.7882e-05	1.5945e-05	1039.2	6.1444e-07	5.9586e-07	1119.9	229.99	6.6579e-07	6.353e-07	284.95	82.717	64.348	19.405	6.15e-07	26.735	222.737	150.885	153.518	60.126	208.213	198.643	60.544	67.210	241.008	190.769	66.976	74.249	74.705	80.884	225.349	79.984	-8191	255	
18048.896	1	1	0	0	0.24351	0.26128	0.083142	0.039199	0.13751	0.12084	0.29074	0.22076	0.36033	0.32562	0.2502	0.22783	0.16013	0.3965	0.21308	0.11306	-2.5271	-2.7062	-2.5542	-3.0708	-2.6813	-2.7542	-3.2	-2.7292	-2.8292	-2.9813	-2.7958	-2.9	-2.7771	-2.7375	-3.0667	-2.7438	343.824	134.267	292.784	395.121	76.422	154.026	292.041	370.919	321.016	186.863	383.496	366.960	340.351	333.288	361.288	341.802	0.00021761	0.00035084	9.9812e-05	1073.6	3.9372e-06	2.8912e-06	1150.9	234.18	2.5116e-06	3.7453e-06	291.8	83.301	65.452	19.443	2.9007e-06	26.897	7.871e-05	5.489e-05	1.5793e-05	1038.7	6.1604e-07	5.7572e-07	1121.7	230.46	6.8799e-07	6.3458e-07	285.58	82.834	64.453	19.398	6.5311e-07	26.737	222.020	139.590	122.360	60.193	228.079	181.828	60.523	67.658	255.758	168.431	67.107	74.106	74.234	80.811	188.132	80.185	-8191	255	
18048.969	1	1	0	0	0.1603	0.13765	0.29122	0.13526	0.082075	0.19811	0.29366	0.19402	0.1032	0.14619	0.12169	0.22728	0.16867	0.18102	0.17871	0.23471	-2.2229	-2.8479	-2.6625	-3	-3.0771	-2.6708	-3.0812	-2.65	-2.75	-3.0812	-2.8937	-2.8042	-2.8958	-2.6312	-3.1729	-2.7583	381.216	72.533	297.254	294.515	267.350	357.253	310.828	364.881	405.065	365.593	372.420	369.450	315.509	385.803	162.957	362.275	0.00023795	0.00022906	7.2916e-05	1077.5	3.7704e-06	2.5058e-06	1148.4	233.5	2.1829e-06	2.2664e-06	291.56	84.125	65.117	19.628	3.4867e-06	26.862	8.1706e-05	5.6077e-05	1.5923e-05	1041.9	6.2139e-07	6.1797e-07	1124.1	230.42	6.5928e-07	5.962e-07	286.45	83.323	64.589	19.49	6.3681e-07	26.85	227.458	193.487	127.603	60.169	217.533	194.484	60.238	67.454	211.780	217.500	67.075	74.434	74.411	80.822	192.039	79.781	-8191	255	
18049.090	1	1	0	0	0.15955	0.16185	0.024588	0.11805	0.029477	0.13724	0.047941	0.17179	0.040486	0.28298	0.25178	0.28005	0.10113	0.093388	0.22617	0.25113	-2.4354	-2.9188	-2.4854	-2.8688	-2.95	-2.575	-3.0375	-2.9	-2.6312	-2.9375	-2.725	-2.8354	-2.7708	-2.7313	-2.925	-2.8771	260.184	314.196	160.315	402.449	145.744	374.016	346.842	367.007	403.731	280.824	312.423	104.327	376.727	173.601	393.551	359.361	0.00023773	0.00033834	0.00011351	1080.4	3.6934e-06	2.2841e-06	1153.7	237.4	2.1508e-06	2.355e-06	291.1	84.081	65.268	19.567	2.027e-06	26.827	8.224e-05	5.1882e-05	1.5081e-05	1044	6.0749e-07	5.7482e-07	1125.9	232.13	6.6333e-07	5.7225e-07	286.63	83.25	64.66	19.56	6.0277e-07	26.84	226.260	155.425	134.776	59.856	220.272	195.233	60.542	67.372	233.810	210.967	66.974	74.399	74.479	80.671	191.652	79.783	-8191	255	
18049.186	1	1	0	0	0.16558	0.33664	0.025414	0.11921	0.10504	0.1374	0.44173	0.22228	0.17366	0.090727	0.15504	0.15215	0.064429	0.15976	0.17166	0.34328	-2.1562	-2.8063	-2.6271	-2.7354	-2.7979	-2.6542	-3.0354	-2.9083	-2.5792	-3.0563	-2.7	-2.6417	-2.7	-2.7042	-2.8979	-2.6667	371.248	373.036	65.372	223.003	106.199	188.731	348.620	71.936	322.333	60.056	357.173	377.527	228.638	107.951	210.380	402.122	0.00025072	0.00028443	0.00010882	1089.1	3.3286e-06	3.2359e-06	1150.8	236.43	2.7422e-06	3.3808e-06	293.9	84.179	65.534	19.602	3.8842e-06	26.896	8.2536e-05	5.4467e-05	1.5471e-05	1046.5	6.1702e-07	6.2845e-07	1127.2	232.23	7.0067e-07	5.9046e-07	288.23	83.388	64.707	19.509	6.3902e-07	26.807	227.151	160.859	126.622	60.081	216.792	227.976	60.300	67.639	243.293	201.581	67.286	74.089	74.654	80.715	213.589	80.361	-8191	255	
18049.281	1	1	0	0	0.16458	0.071459	0.11694	0.28689	0.20071	0.044074	0.32243	0.25799	0.098951	0.21995	0.049781	0.28785	0.031939	0.19908	0.14716	0.17868	-2.2458	-2.8	-2.6667	-2.7542	-2.8021	-2.6458	-3.1958	-2.9667	-2.5792	-2.9354	-2.7125	-2.7229	-2.9708	-2.5875	-2.8646	-2.8896	244.326	73.433	87.137	307.767	265.710	186.009	346.350	351.419	359.155	149.115	291.076	261.791	74.239	404.996	240.718	304.380	0.0002181	0.00028077	8.4083e-05	1076.6	2.8192e-06	2.8551e-06	1154	235.56	1.5265e-06	3.0638e-06	293.17	83.944	65.663	19.53	2.413e-06	26.926	8.3143e-05	5.8922e-05	1.6224e-05	1042.6	6.7972e-07	6.3848e-07	1127.8	232.22	7.1274e-07	6.3897e-07	287.54	83.078	64.818	19.485	6.8148e-07	26.833	223.928	129.799	126.617	60.177	216.210	193.018	60.325	67.666	275.027	200.155	67.159	74.266	74.532	80.897	190.700	80.236	-8191	255	
18049.402	1	1	0	0	0.15516	0.1564	0.055017	0.28004	0.31612	0.17514	0.03664	0.21519	0.22928	0.31056	0.24418	0.075344	0.06154	0.21221	0.25376	0.32452	-2.1604	-2.8354	-2.7188	-2.5792	-3.0208	-2.6937	-3.1229	-2.9333	-2.5438	-2.9625	-2.8125	-2.8854	-3.1604	-2.8063	-2.9958	-3.1167	270.330	398.864	318.514	225.439	321.490	365.739	308.506	61.463	313.289	157.110	298.155	361.256	401.604	203.835	251.889	73.223	0.00022277	0.00031194	0.00010016	1080	3.5504e-06	1.989e-06	1156.8	237.58	3.0942e-06	7.5203e-07	292.63	84.091	65.191	19.496	3.1488e-06	26.899	8.2457e-05	6.0215e-05	1.7082e-05	1044.8	6.8043e-07	6.6103e-07	1129.9	232.81	7.2331e-07	6.5234e-07	288.31	83.372	64.69	19.464	6.5746e-07	26.812	227.138	101.423	125.363	60.221	234.760	173.781	60.622	67.640	234.926	215.409	66.971	74.013	73.929	80.981	222.015	80.150	-8191	255	
18049.496	1	1	0	0	0.34642	0.063679	0.26767	0.29199	0.11216	0.079977	0.11036	0.15607	0.11297	0.16952	0.26054	0.16583	0.076007	0.27612	0.06435	0.21253	-2.0979	-2.8271	-2.7062	-2.675	-2.8937	-2.8708	-3.0687	-2.9604	-2.7354	-2.9875	-2.8229	-2.7604	-2.8812	-2.8229	-2.8208	-3.0438	211.360	234.641	120.004	322.214	132.200	97.392	329.095	365.105	222.368	202.754	55.218	307.602	255.582	56.679	167.451	302.439	0.00023946	0.00031043	8.1142e-05	1090.5	2.9915e-06	2.0099e-06	1159	236.17	1.6937e-06	1.2259e-06	293.02	84.195	65.627	19.48	1.8312e-06	26.905	8.7597e-05	6.0735e-05	1.6354e-05	1048.4	6.9718e-07	6.7509e-07	1131.3	232.81	7.1873e-07	6.6776e-07	287.87	83.426	64.889	19.496	6.9548e-07	26.852	230.516	165.603	119.791	60.245	234.375	261.943	60.681	67.486	239.120	219.078	67.217	74.418	74.628	80.781	169.622	80.197	-8191	255	
18049.594	1	1	0	0	0.089419	0.079432	0.078508	0.32393	0.17108	0.11774	0.077371	0.29174	0.051955	0.078829	0.22372	0.065384	0.15106	0.22192	0.12857	0.16224	-2.1958	-2.8708	-2.8854	-2.6375	-3.1521	-2.9146	-3.0271	-3.0458	-2.5021	-2.9083	-2.8833	-2.6979	-2.9146	-2.8688	-2.8583	-3	307.689	170.824	360.818	76.825	390.079	178.833	289.955	344.741	293.686	324.845	319.992	100.457	155.958	332.477	211.726	312.831	0.00022415	0.00035923	5.6501e-05	1082.2	3.6529e-06	2.1255e-06	1157.3	237.46	3.2976e-06	1.1289e-06	294.61	84.356	65.712	19.634	3.0677e-06	27.047	8.4666e-05	6.1971e-05	1.7706e-05	1045.6	6.9344e-07	6.502e-07	1131.1	233.46	7.5088e-07	6.8848e-07	288.74	83.512	64.728	19.538	6.9734e-07	26.879	221.847	139.998	154.392	60.017	241.933	201.019	60.341	67.342	235.845	182.510	66.949	74.281	74.737	80.467	196.445	80.344	-8191	255	
18049.689	1	1	0	0	0.34603	0.12027	0.2587	0.21869	0.25054	0.14761	0.3262	0.13938	0.33723	0.092268	0.32778	0.051162	0.38881	0.2884	0.11903	0.21534	-2.0563	-2.9646	-2.8375	-2.6292	-3.0417	-2.8125	-2.9146	-3.0625	-2.6813	-2.7667	-2.9042	-2.5771	-3.0021	-2.8208	-2.6354	-3.1063	301.111	374.894	252.282	278.698	155.970	100.227	368.976	341.753	98.818	90.855	346.983	369.134	271.938	198.489	172.760	278.310	0.0002331	0.00030821	9.4325e-05	1097.1	2.1328e-06	1.5632e-06	1159.2	236.6	3.1787e-06	3.5084e-06	293.86	83.907	65.583	19.503	2.2643e-06	27.019	8.6182e-05	6.3068e-05	1.6948e-05	1053.8	6.9923e-07	6.4071e-07	1133	233.23	7.101e-07	6.6884e-07	287.97	83.563	64.987	19.496	6.517e-07	26.984	227.893	151.847	116.343	60.071	218.445	202.277	60.335	67.186	225.114	246.493	66.923	74.269	74.500	80.542	210.102	80.228	-8191	255	
18049.785	1	1	0	0	0.10537	0.19935	0.38189	0.11512	0.12764	0.16002	0.15619	0.16718	0.11804	0.19499	0.27818	0.18995	0.23922	0.15367	0.031209	0.13691	-2.4188	-2.6729	-2.8146	-2.6437	-2.9854	-2.7938	-2.9708	-3.1458	-2.6896	-2.8854	-2.9667	-2.7604	-2.9062	-2.8958	-2.6646	-2.9521	173.531	279.230	250.102	203.735	195.521	156.222	124.884	393.288	178.709	149.984	343.828	343.895	400.798	122.682	346.754	245.552	0.00022186	0.00030655	6.2236e-05	1097.8	5.0188e-06	3.4104e-06	1162.3	237.85	3.1446e-06	2.5856e-06	297.55	84.614	66.113	19.581	4.4116e-06	27.017	8.4962e-05	6.1296e-05	1.5644e-05	1054.8	6.7723e-07	6.2352e-07	1136.7	234	6.8913e-07	6.3987e-07	290.02	83.881	65.173	19.607	6.5755e-07	26.946	227.930	145.703	134.558	60.458	233.202	179.333	60.358	67.553	246.787	216.215	67.158	74.153	74.285	80.651	200.373	79.920	-8191	255	
18049.881	1	1	0	0	0.22167	0.17496	0.13354	0.14942	0.073767	0.11259	0.1679	0.055744	0.2629	0.05629	0.040432	0.047305	0.23359	0.12249	0.19351	0.15464	-2.2771	-2.7729	-2.9521	-2.7229	-2.9167	-2.9396	-2.8896	-3.0187	-2.9437	-2.7375	-3.0583	-2.7896	-3.0708	-2.9688	-2.8021	-2.9854	143.596	361.186	236.345	349.101	260.762	293.061	287.005	207.558	227.331	313.072	322.214	325.237	81.709	201.635	149.243	248.110	0.00021395	0.0002668	5.6214e-05	1093.5	3.8338e-06	3.2759e-06	1160.7	237.63	3.4115e-06	4.3546e-06	292.89	84.917	66.024	19.762	3.3016e-06	27.39	8.6146e-05	6.1516e-05	1.6315e-05	1052.6	6.6859e-07	6.3409e-07	1134.2	234.32	6.7205e-07	6.3575e-07	289.25	84.1	65.209	19.724	6.4859e-07	27.105	227.476	169.791	126.370	60.152	206.845	217.247	60.234	67.451	233.979	199.768	66.968	73.874	74.492	80.737	209.952	80.150	-8191	255	
18050.002	1	1	0	0	0.13562	0.25396	0.031687	0.089885	0.13063	0.20078	0.058606	0.062782	0.24409	0.16384	0.12081	0.16714	0.20385	0.10151	0.22072	0.22572	-2.4125	-2.6896	-3.275	-2.7396	-2.8937	-2.8667	-2.9708	-3.1521	-2.875	-2.9354	-3.1021	-2.6417	-2.7104	-3.0646	-2.7479	-3.0812	124.862	235.461	85.535	310.508	77.973	129.932	241.153	220.264	373.724	251.320	96.894	395.824	353.692	87.877	263.537	158.215	0.00023818	0.00037296	6.1708e-05	1091.6	4.2541e-06	3.2897e-06	1164.6	236.85	2.59e-06	2.1796e-06	295.73	85.103	66.513	19.726	2.9499e-06	27.291	8.3569e-05	5.5833e-05	1.536e-05	1053.5	6.2112e-07	5.9076e-07	1136.6	234.55	6.7231e-07	6.1494e-07	290.56	84.377	65.56	19.748	6.3406e-07	27.144	228.303	135.146	146.299	60.004	223.368	213.606	60.578	67.676	237.889	176.490	67.100	73.676	74.444	80.565	205.741	80.279	-8191	255	
18050.098	1	1	0	0	0.060526	0.086812	0.12822	0.23896	0.099544	0.096937	0.22957	0.12628	0.15362	0.26547	0.18143	0.21722	0.10816	0.076686	0.21712	0.36444	-2.4771	-2.6229	-2.9562	-2.8375	-2.7	-3.0479	-2.6188	-2.9625	-2.9625	-2.7521	-3.1729	-2.8208	-2.7687	-3.0896	-2.5958	-2.7667	304.310	252.887	312.366	86.841	91.554	295.151	259.132	408.816	154.221	390.683	396.747	133.310	251.808	111.731	222.118	367.434	0.00021627	0.00032835	9.0839e-05	1091.4	2.8109e-06	2.7807e-06	1164.6	239.63	2.1025e-06	2.1744e-06	298.8	84.925	66.163	19.683	2.7531e-06	27.276	7.975e-05	5.6394e-05	1.4938e-05	1055.7	6.3279e-07	5.8279e-07	1137.7	236.05	6.7407e-07	5.988e-07	291.47	84.354	65.555	19.72	6.5453e-07	27.204	228.353	170.867	121.704	60.430	205.371	195.233	60.797	67.590	224.202	190.250	66.869	74.130	74.354	80.844	202.964	79.983	-8191	255	
18050.193	1	1	0	0	0.20462	0.12064	0.066266	0.093319	0.032012	0.14285	0.13555	0.32656	0.087209	0.19836	0.10889	0.064553	0.12251	0.15345	0.087176	0.2369	-2.5583	-2.725	-2.9208	-2.7042	-2.6521	-3.0292	-3.0479	-3.0438	-3.0062	-2.6979	-3.025	-2.7896	-2.7854	-3.0792	-2.7229	-2.9021	239.617	308.665	272.277	114.298	305.498	298.225	257.401	87.125	333.338	194.390	342.054	335.371	304.357	335.374	251.598	57.185	0.00021979	0.00024019	7.5173e-05	1091.3	3.7344e-06	2.8119e-06	1167.1	240.98	3.0249e-06	4.5987e-06	296.32	85.027	66.404	19.624	2.4136e-06	27.216	7.9627e-05	5.5264e-05	1.6279e-05	1054.2	6.84e-07	6.0222e-07	1138.8	236.33	6.6007e-07	6.0543e-07	291.49	84.479	65.609	19.742	6.4514e-07	27.237	227.546	165.972	125.808	60.065	227.504	195.482	60.176	67.254	223.373	191.287	66.963	73.860	74.303	80.809	207.382	80.187	-8191	255	
18050.266	1	1	0	0	0.17634	0.2216	0.1143	0.20348	0.10577	0.10425	0.076237	0.28226	0.18542	0.10439	0.044497	0.1426	0.097973	0.11463	0.1285	0.26393	-2.5771	-2.6917	-3.0729	-2.8479	-2.5729	-3.0646	-2.9896	-3.0438	-3.0687	-2.6208	-2.9875	-2.7646	-2.6396	-3.0271	-2.7354	-2.7708	353.715	221.304	98.214	356.105	287.615	136.729	284.232	277.822	315.273	255.083	89.643	174.781	210.029	229.008	169.282	369.749	0.00023733	0.00025421	7.3113e-05	1093.3	2.94e-06	2.2258e-06	1171.4	240.8	2.4288e-06	4.0553e-06	297.23	85.604	66.636	19.699	1.5079e-06	27.462	8.0587e-05	5.8719e-05	1.5846e-05	1052.7	6.2254e-07	6.024e-07	1140.8	236.99	6.5505e-07	6.1942e-07	291.53	84.687	65.711	19.748	6.571e-07	27.189	227.118	193.008	143.116	60.231	232.617	181.772	60.378	67.354	224.183	187.763	67.122	74.371	74.346	80.624	238.439	80.278	-8191	255	
18050.361	1	1	0	0	0.16653	0.019775	0.14764	0.10861	0.25911	0.1375	0.22047	0.29462	0.077737	0.055786	0.36835	0.34235	0.33914	0.33071	0.17044	0.053047	-2.6083	-2.7396	-2.9792	-2.8417	-2.7146	-3.0938	-2.8875	-2.8896	-3.0354	-2.5417	-2.8604	-2.9708	-2.6854	-2.8875	-2.8208	-2.7708	139.557	233.288	56.661	354.614	169.830	358.539	351.175	346.525	336.323	163.589	402.217	166.002	101.735	366.612	159.676	340.686	0.00023652	0.0002829	5.9926e-05	1099.4	2.9353e-06	2.64e-06	1166.7	241.33	2.9828e-06	3.4356e-06	297.46	85.347	66.297	19.761	2.9671e-06	27.577	8.2515e-05	5.8508e-05	1.6131e-05	1057.3	6.5933e-07	6.2496e-07	1139.7	237.06	6.8288e-07	6.2364e-07	292.41	84.646	65.598	19.829	6.5542e-07	27.344	226.557	132.889	130.905	59.957	219.385	220.199	60.389	67.423	234.538	206.256	66.992	74.016	74.351	81.005	176.409	80.100	-8191	255	
18050.482	1	1	0	0	0.25018	0.16457	0.17435	0.2546	0.17155	0.25093	0.1423	0.15345	0.053178	0.14722	0.24204	0.46279	0.19329	0.19254	0.09296	0.20857	-2.6479	-2.6604	-2.8688	-2.9417	-2.675	-2.9771	-2.9458	-2.9313	-3.1813	-2.7521	-2.8958	-2.8542	-2.6771	-3.0375	-2.8125	-2.7125	332.997	61.261	234.602	53.807	311.860	71.595	315.910	67.924	312.033	202.332	53.294	69.248	76.841	360.787	384.945	321.930	0.00024163	0.00019831	0.00012368	1098.3	3.1578e-06	3.3015e-06	1167.1	240.13	1.6073e-06	3.4616e-06	298.03	85.095	66.937	19.93	2.3701e-06	27.486	7.9432e-05	5.6727e-05	1.6401e-05	1059.7	6.6351e-07	6.16e-07	1141.8	237.29	6.6518e-07	5.9898e-07	292.71	84.755	65.904	19.816	6.5843e-07	27.332	223.182	136.575	122.975	60.192	196.608	227.756	60.415	67.473	241.015	230.267	66.787	73.978	74.049	80.673	244.027	79.995	-8191	255	
18050.576	1	1	0	0	0.19224	0.17825	0.30229	0.25123	0.16105	0.058614	0.13682	0.23919	0.28164	0.19318	0.073444	0.22102	0.10495	0.10848	0.035672	0.12162	-2.6042	-2.625	-2.7667	-2.8833	-2.6833	-2.9958	-2.9417	-2.8875	-3.2812	-2.8688	-2.8771	-2.9875	-2.7458	-3.0875	-2.6833	-2.6562	96.719	232.890	216.935	387.655	245.312	118.296	325.962	354.012	259.937	221.976	382.825	143.289	193.703	213.436	103.740	400.283	0.00023153	0.00024714	8.7481e-05	1095.9	5.0859e-06	2.3882e-06	1175.7	241.2	2.099e-06	2.4993e-06	298.17	86.045	66.932	19.885	2.9451e-06	27.189	8.1208e-05	5.7288e-05	1.517e-05	1058.5	6.5033e-07	6.0983e-07	1144.9	237.9	6.4941e-07	6.3377e-07	293.27	84.907	66.017	19.901	6.1633e-07	27.314	223.551	162.007	153.744	59.758	212.380	213.939	60.495	67.246	228.916	196.319	67.046	74.001	74.446	80.208	181.435	80.156	-8191	255	
18050.674	1	1	0	0	0.074734	0.15211	0.088341	0.10554	0.18943	0.12336	0.30655	0.10004	0.11135	0.09201	0.25256	0.12512	0.11281	0.25576	0.26034	0.064233	-2.6604	-2.7479	-2.7229	-2.9938	-2.7854	-2.625	-3.0521	-2.5667	-3.0042	-2.7396	-2.7896	-3.1792	-2.6292	-2.9167	-2.8271	-2.6042	295.376	379.411	121.604	313.860	349.219	265.658	360.693	74.208	63.640	162.686	58.558	106.669	51.642	379.759	356.273	69.560	0.00025415	0.00016771	8.6223e-05	1102.9	2.9152e-06	3.0103e-06	1172.1	242.7	2.5864e-06	2.4684e-06	298.82	85.878	66.709	19.76	3.063e-06	27.416	8.0919e-05	5.8703e-05	1.5832e-05	1063	6.4294e-07	6.0186e-07	1144.2	238.03	6.5972e-07	6.1019e-07	293.27	85.204	66.01	19.88	6.5338e-07	27.323	228.057	182.578	111.198	59.952	238.671	213.712	60.234	67.477	234.191	193.570	67.120	74.130	74.382	80.598	227.219	79.616	-8191	255	
18050.770	1	1	0	0	0.16612	0.12114	0.20739	0.24354	0.26638	0.091989	0.21211	0.40796	0.14606	0.021314	0.095161	0.20898	0.21875	0.16557	0.062298	0.46861	-2.5229	-2.8438	-2.7562	-3.0542	-2.3854	-2.7292	-3.3625	-2.6771	-3.0438	-2.8708	-2.8625	-3.1854	-2.8479	-2.9125	-2.9708	-2.6813	172.473	171.050	223.587	60.951	56.276	176.008	324.200	361.916	205.946	71.705	384.634	147.737	106.309	375.570	52.570	354.138	0.00023627	0.00032844	7.6718e-05	1104.5	3.6184e-06	3.9872e-06	1172.7	243.26	3.153e-06	2.1143e-06	301.4	85.889	66.834	19.889	2.9619e-06	27.411	8.084e-05	5.5931e-05	1.6306e-05	1061.9	6.6521e-07	6.0714e-07	1147.7	238.9	6.4192e-07	6.0525e-07	294.68	85.082	66.24	19.929	6.2023e-07	27.318	227.891	152.413	157.763	60.095	221.744	230.835	60.299	67.402	252.699	207.390	67.079	73.806	74.196	80.742	242.612	80.179	-8191	255	
18050.865	1	1	0	0	0.086092	0.1766	0.056378	0.16465	0.2372	0.048077	0.22998	0.043511	0.04399	0.28111	0.26793	0.17363	0.14125	0.14256	0.1205	0.1677	-2.7583	-2.9313	-2.6813	-3.1146	-2.6917	-2.7667	-3.025	-2.9062	-3.0187	-2.8146	-2.6229	-3.1937	-2.7896	-2.875	-3.0708	-2.6167	118.684	274.596	50.712	60.133	253.041	246.357	69.945	386.013	83.110	235.985	57.177	232.950	139.541	224.938	376.719	120.909	0.0002454	0.00032058	5.1224e-05	1103.1	3.9324e-06	2.8059e-06	1175.6	241.83	3.0038e-06	3.141e-06	301.04	85.82	67.189	19.963	3.3974e-06	27.433	8.2183e-05	5.5996e-05	1.5589e-05	1063.1	6.6048e-07	6.2612e-07	1146.5	238.69	6.9741e-07	6.266e-07	294.93	85.136	66.223	19.918	6.5728e-07	27.301	222.968	145.904	178.702	60.341	228.642	170.359	60.180	67.425	225.620	238.536	67.028	74.219	74.084	80.504	210.838	80.157	-8191	255	
18050.963	1	1	0	0	0.11214	0.070673	0.020303	0.048276	0.11022	0.12434	0.065489	0.2413	0.19166	0.094477	0.12103	0.076553	0.13747	0.10914	0.090482	0.26799	-2.5042	-2.7042	-2.6792	-2.8875	-2.6188	-2.6979	-3.1542	-2.7229	-3.0521	-3.0812	-2.7625	-2.9646	-2.8792	-2.6312	-3.1021	-2.6333	134.569	310.934	330.099	87.593	129.387	58.484	322.089	341.511	195.260	225.536	330.623	391.881	119.161	312.038	92.874	388.574	0.00025387	0.00029336	5.5131e-05	1101.7	2.2131e-06	4.1409e-06	1181	243.55	2.6324e-06	2.1967e-06	301.7	86.429	66.774	19.952	1.8342e-06	27.464	8.2854e-05	5.8077e-05	1.6449e-05	1066.1	6.4668e-07	6.4027e-07	1152	239.49	7.4665e-07	6.0203e-07	295.32	85.354	66.172	19.921	6.4806e-07	27.364	225.913	180.925	170.678	59.934	199.664	200.012	60.601	67.167	230.035	205.449	67.085	74.331	74.128	81.123	183.249	79.875	-8191	255	
18051.082	1	1	0	0	0.26132	0.25838	0.14232	0.24589	0.35465	0.084741	0.19418	0.12483	0.090763	0.15606	0.18853	0.057927	0.19791	0.31223	0.10167	0.052474	-2.3604	-3.0312	-2.6771	-2.9792	-2.9104	-2.6688	-3.1813	-2.6979	-2.9125	-2.9188	-2.775	-3.0938	-2.8521	-2.6583	-3.025	-2.9	245.415	390.190	126.331	253.034	188.221	78.292	321.723	380.744	64.660	272.196	322.956	227.397	109.460	70.667	383.384	272.634	0.00022259	0.00039007	6.9793e-05	1103	2.8831e-06	1.861e-06	1179.8	244.06	2.7566e-06	3.1956e-06	301.82	86.09	67.077	19.977	2.2374e-06	27.483	8.5829e-05	5.7426e-05	1.6891e-05	1065.4	6.718e-07	6.4304e-07	1150.9	239.7	7.3212e-07	6.3826e-07	295.75	85.321	66.245	19.959	6.6366e-07	27.467	225.277	155.137	124.264	59.853	215.192	213.673	60.219	67.634	234.912	164.700	66.996	74.082	74.060	80.554	217.207	80.024	-8191	255	
18051.180	1	1	0	0	0.36825	0.27234	0.20452	0.26267	0.29727	0.038127	0.15565	0.17051	0.092775	0.17505	0.2987	0.18031	0.068616	0.18552	0.18892	0.081833	-2.4708	-2.9917	-2.6479	-2.9896	-2.9437	-2.6208	-3.0875	-2.7875	-2.8521	-3.1063	-2.6167	-2.8729	-3.0146	-2.7958	-3.1271	-2.7646	263.578	349.852	86.498	351.424	109.882	344.203	350.376	314.880	225.867	329.717	170.454	389.114	162.998	134.948	308.555	53.957	0.00024833	0.00030109	9.8574e-05	1106	2.6917e-06	2.749e-06	1178.8	244.11	2.6035e-06	1.4291e-06	301.23	86.06	67.195	19.969	2.6461e-06	27.445	8.5756e-05	5.9979e-05	1.7209e-05	1067.5	6.7678e-07	6.4492e-07	1151.7	239.93	6.8174e-07	6.0785e-07	295.16	85.238	66.31	19.931	6.7563e-07	27.383	226.394	141.296	126.119	60.122	217.477	203.231	60.313	67.039	244.397	191.606	66.921	74.024	74.453	80.657	193.887	80.400	-8191	255	
18051.275	1	1	0	0	0.2356	0.05858	0.20459	0.1462	0.23993	0.1033	0.18865	0.19842	0.29972	0.08232	0.1493	0.12995	0.19279	0.12856	0.25412	0.020226	-2.1979	-2.9292	-2.9021	-2.7708	-2.9813	-2.6188	-3.0854	-2.6792	-2.6333	-2.9437	-2.8104	-3.0312	-2.9875	-2.6729	-2.8979	-2.8396	155.415	312.797	122.454	123.711	136.140	126.223	291.796	99.973	371.338	307.270	91.015	252.647	62.442	238.984	246.990	283.016	0.00024137	0.00019035	5.1794e-05	1108.8	3.1963e-06	3.3275e-06	1180.7	242.79	3.3033e-06	2.9712e-06	299.44	86.305	67.153	19.99	1.3235e-06	27.692	8.2998e-05	5.5898e-05	1.6456e-05	1068.9	6.359e-07	6.5343e-07	1153.5	239.95	6.946e-07	6.2032e-07	295.18	85.389	66.288	19.975	6.4549e-07	27.463	228.069	158.306	134.665	60.194	214.768	201.037	60.343	67.358	229.129	189.876	67.030	74.233	74.035	80.485	201.180	80.345	-8191	255	
18051.371	1	1	0	0	0.094662	0.13654	0.25685	0.1162	0.078299	0.12687	0.18079	0.075057	0.17743	0.14233	0.22021	0.21674	0.18479	0.080049	0.25405	0.18949	-2.4333	-2.9583	-2.5625	-2.7458	-2.8604	-2.8271	-3.1271	-2.9021	-2.6771	-3.0229	-2.7875	-2.7542	-3.0667	-2.7271	-2.8063	-2.9521	406.430	216.026	239.406	55.486	384.686	254.647	337.228	256.494	174.763	118.245	330.598	389.012	256.102	409.194	169.084	88.161	0.00024119	0.00013405	2.4276e-05	1099.6	3.5971e-06	4.7726e-06	1178.5	243.96	2.3232e-06	2.8187e-06	301.69	86.357	66.955	19.865	2.855e-06	27.667	8.3229e-05	5.9069e-05	1.6513e-05	1067.5	6.5283e-07	6.4286e-07	1154	239.81	7.042e-07	6.414e-07	295.68	85.413	66.306	19.91	6.9761e-07	27.493	223.064	169.983	127.936	60.281	223.388	204.601	60.411	67.496	227.010	222.815	67.126	74.217	74.293	80.588	195.246	80.164	-8191	255	
18051.492	1	1	0	0	0.12537	0.19315	0.11143	0.10042	0.123	0.13495	0.044588	0.083122	0.023956	0.095406	0.17026	0.1955	0.28824	0.37518	0.12612	0.048434	-2.1917	-2.9875	-2.6854	-2.6896	-2.9208	-2.7229	-3.1333	-3.1354	-2.6375	-3.0062	-2.9667	-2.7812	-3.1188	-2.7792	-2.9313	-2.9042	409.389	123.944	169.253	393.917	273.056	115.183	173.354	342.776	394.746	187.470	382.772	222.571	337.576	384.898	290.983	334.001	0.00024983	0.00030119	7.4136e-05	1107.9	3.6182e-06	2.584e-06	1184.5	244.33	2.7587e-06	2.5318e-06	301.87	86.463	67.431	19.959	2.704e-06	27.434	8.4688e-05	6.0402e-05	1.6894e-05	1066.8	6.7696e-07	6.425e-07	1155.1	239.85	7.1987e-07	6.787e-07	296	85.439	66.426	19.93	6.9513e-07	27.37	225.872	156.992	112.331	60.183	217.049	172.689	60.526	67.386	238.594	186.227	67.252	73.961	73.928	80.520	212.426	79.984	-8191	255	
18051.561	1	1	0	0	0.057527	0.23321	0.20362	0.272	0.11909	0.21007	0.21515	0.36972	0.082215	0.18984	0.14111	0.079328	0.19397	0.14632	0.19466	0.36102	-2.2396	-2.8063	-2.7021	-2.3667	-3.0687	-2.7021	-2.975	-2.9917	-2.6396	-2.975	-2.8063	-2.8125	-2.8646	-2.7917	-2.8792	-3.0146	295.840	319.919	114.215	368.000	246.477	222.295	356.164	379.381	82.470	379.632	343.631	150.945	125.742	162.281	160.133	333.674	0.0002355	0.00029321	8.199e-05	1104.6	4.0128e-06	1.5914e-06	1180.3	243.79	1.8853e-06	3.0537e-06	301.43	86.431	67.175	20.085	3.531e-06	27.422	8.4312e-05	5.9817e-05	1.6753e-05	1070.4	6.6948e-07	6.7339e-07	1153.1	240.31	7.1573e-07	6.2929e-07	295.45	85.409	66.439	19.993	6.8024e-07	27.366	225.876	174.626	136.367	60.212	224.092	194.605	60.210	67.422	236.783	225.394	66.785	74.114	74.492	80.338	198.820	80.073	-8191	255	
18051.682	1	1	0	0	0.11117	0.13358	0.12029	0.04595	0.25159	0.14039	0.24918	0.22255	0.10768	0.11353	0.20989	0.0734	0.3656	0.088761	0.071724	0.12542	-2.3792	-2.8729	-2.9917	-2.6646	-2.9458	-2.8542	-2.975	-3.0625	-2.7667	-2.9625	-2.9729	-2.825	-3.0604	-2.7354	-2.85	-3.1063	343.024	384.027	276.763	318.396	373.879	275.771	178.693	324.917	331.525	263.886	336.538	95.005	405.033	197.503	374.657	51.898	0.00023523	0.00022181	8.6131e-05	1102.4	4.9551e-06	3.4901e-06	1180.9	244.32	3.1695e-06	1.9549e-06	301.16	86.191	67.236	19.96	2.2222e-06	27.392	8.5663e-05	6.1824e-05	1.6519e-05	1065.5	6.7661e-07	6.5029e-07	1153.8	240.33	7.2199e-07	6.5225e-07	295.35	85.526	66.351	19.964	6.5294e-07	27.367	231.479	119.031	158.532	59.914	235.351	215.910	60.313	67.199	238.697	181.269	67.061	74.040	74.298	80.519	193.072	80.054	-8191	255	
18051.777	1	1	0	0	0.077784	0.23702	0.17997	0.16303	0.11822	0.16237	0.16466	0.17751	0.18163	0.11732	0.11968	0.18913	0.25428	0.043742	0.19047	0.097138	-2.2062	-2.9875	-2.8167	-2.5062	-2.8625	-2.8521	-2.9667	-3.0833	-2.875	-2.9271	-3.0375	-2.8125	-3.0854	-2.8625	-2.6896	-2.9542	331.239	193.844	234.817	364.416	231.776	109.014	374.204	366.453	86.050	361.144	284.657	406.070	392.583	191.458	311.189	191.530	0.00022492	0.00046006	7.4602e-05	1109.1	3.1463e-06	3.0952e-06	1175.2	244.62	1.895e-06	4.378e-06	303.53	86.556	67.065	20.025	3.6931e-06	27.412	8.5388e-05	5.9987e-05	1.5558e-05	1070.4	6.8925e-07	6.2755e-07	1151.1	240.43	7.1159e-07	6.5278e-07	296.26	85.665	66.435	19.984	6.8077e-07	27.345	226.723	135.800	160.953	59.998	209.589	196.644	60.369	67.248	236.349	230.946	66.966	74.205	73.938	80.764	220.018	80.213	-8191	255	
18051.873	1	1	0	0	0.33596	0.23764	0.11004	0.13234	0.21184	0.12119	0.20524	0.066131	0.15671	0.082698	0.29844	0.17923	0.071577	0.18658	0.13687	0.11294	-2.2521	-3.0167	-2.9083	-2.8625	-2.9083	-2.9437	-2.9104	-3.2042	-2.7458	-2.8604	-3.0021	-2.7958	-2.9854	-2.8604	-2.8917	-3.0417	227.112	132.053	323.617	160.493	182.573	114.478	361.448	379.453	216.481	395.903	130.260	144.113	309.290	80.902	167.612	138.811	0.00024068	0.0001253	8.1974e-05	1105.6	2.3375e-06	2.4215e-06	1180.4	245.45	1.8894e-06	2.9079e-06	301.05	86.468	67.509	20.174	2.3453e-06	27.67	8.5655e-05	5.7589e-05	1.5333e-05	1069.3	7.0395e-07	6.1735e-07	1154.5	241.09	6.8614e-07	6.5063e-07	296.02	85.585	66.676	20.08	6.4186e-07	27.452	228.959	142.938	143.909	60.115	215.756	249.412	60.232	67.122	242.850	178.943	66.858	74.305	74.140	80.537	211.609	80.107	-8191	255	
18051.971	1	1	0	0	0.16197	0.27521	0.12603	0.10183	0.22067	0.19507	0.31772	0.29636	0.15292	0.083969	0.046967	0.14281	0.050065	0.12009	0.26224	0.24764	-2.4146	-2.8083	-2.9146	-2.6917	-3.0333	-2.7333	-2.7771	-3.0542	-2.8667	-2.7521	-3.3042	-2.6833	-2.8688	-3.025	-2.6542	-3.2167	141.110	129.418	94.009	340.575	333.368	60.121	295.183	405.480	160.982	322.087	231.038	359.327	385.938	370.896	393.368	66.679	0.00023557	0.00030241	4.9102e-05	1112.3	1.8902e-06	1.2276e-06	1186.8	245.01	1.8187e-06	2.7026e-06	301.56	86.79	67.158	20.049	2.3783e-06	27.507	8.4247e-05	6.1093e-05	1.6742e-05	1073	6.685e-07	6.6488e-07	1155.9	240.58	7.0129e-07	6.5996e-07	296.57	85.566	66.472	20.035	6.6304e-07	27.404	222.273	152.800	137.259	60.070	251.849	203.546	60.496	67.425	231.241	226.461	66.619	74.286	74.373	80.073	215.187	80.137	-8191	255	
18052.066	1	1	0	0	0.066268	0.32433	0.14232	0.19293	0.12007	0.35366	0.068423	0.22646	0.20199	0.17422	0.16008	0.090625	0.11479	0.042063	0.14971	0.30439	-2.4146	-2.6917	-3.1521	-2.625	-2.8604	-3.1063	-2.9021	-2.9375	-2.7188	-2.8104	-3.1458	-2.7875	-2.9208	-3.0417	-2.6479	-3.075	368.553	278.459	69.112	75.327	320.066	191.518	375.228	72.857	91.546	340.008	332.411	380.011	328.985	104.302	291.064	343.567	0.00023996	0.00027953	8.6433e-05	1114.7	3.1147e-06	2.6899e-06	1185	246.21	3.1942e-06	3.4603e-06	301.79	86.801	67.261	20.273	2.1835e-06	27.243	8.5619e-05	6.4361e-05	1.7851e-05	1077	7.149e-07	6.6506e-07	1158.6	241.59	7.3185e-07	6.831e-07	296.57	85.804	66.761	20.15	7.0381e-07	27.327	226.963	137.221	116.286	60.235	225.664	227.017	60.155	67.316	233.903	220.060	66.816	73.836	74.030	80.253	208.136	80.139	-8191	255	
18052.162	1	1	0	0	0.44984	0.35266	0.066788	0.12903	0.30948	0.097442	0.20243	0.30735	0.14487	0.2033	0.097073	0.22984	0.071428	0.073058	0.099574	0.13631	-2.3604	-2.6875	-3.0792	-2.7083	-2.8417	-2.9792	-2.8021	-3.0271	-2.9354	-2.6521	-2.9375	-2.9229	-2.925	-2.9958	-2.8146	-2.9646	145.753	143.664	314.914	104.520	275.995	179.022	350.788	346.008	72.916	326.286	274.053	351.771	389.815	52.832	359.848	162.748	0.00023609	0.00044731	0.0001196	1117.4	2.8143e-06	2.1509e-06	1191	245.33	2.6799e-06	2.1401e-06	303.12	86.937	67.622	20.072	3.1712e-06	27.672	8.6695e-05	6.3613e-05	1.71e-05	1076	6.9148e-07	6.2433e-07	1161.3	241.42	7.2701e-07	6.7942e-07	297.08	85.797	66.885	20.072	7.2659e-07	27.552	225.462	158.233	124.793	59.961	236.416	190.429	60.404	67.190	233.419	173.358	66.863	74.114	74.343	80.649	232.546	79.683	-8191	255	
18052.260	1	1	0	0	0.10848	0.25176	0.094743	0.10811	0.025616	0.22323	0.066747	0.18026	0.073039	0.18626	0.056046	0.18083	0.040694	0.074968	0.11808	0.1293	-2.4313	-2.6	-3.2125	-2.6854	-2.8354	-2.9333	-2.8729	-3.0812	-3.1083	-2.6688	-3.0125	-2.9708	-2.8208	-2.9875	-2.7687	-2.9562	126.235	66.301	363.021	104.524	230.611	103.459	261.548	389.971	153.000	293.588	142.996	51.491	173.619	274.774	114.235	102.960	0.00023608	0.00037654	9.3733e-05	1114.6	2.5461e-06	1.6878e-06	1188.5	246.28	2.3881e-06	2.6129e-06	303.94	87.253	67.505	20.187	3.0264e-06	27.814	8.6363e-05	6.2906e-05	1.6791e-05	1075.1	7.2203e-07	7.0418e-07	1161.4	241.93	7.5678e-07	6.8677e-07	297.84	86.105	66.757	20.134	7.0984e-07	27.534	225.679	165.520	134.891	60.148	216.283	184.597	60.192	67.331	238.311	215.488	67.066	74.414	74.090	80.727	188.003	79.864	-8191	255	
18052.355	1	1	0	0	0.11	0.33027	0.31495	0.1646	0.28442	0.12805	0.33537	0.12995	0.20625	0.18741	0.37256	0.39258	0.13422	0.27966	0.11562	0.13054	-2.5646	-2.5042	-2.8583	-2.7354	-2.7167	-2.8729	-2.8229	-2.9104	-2.8312	-2.6458	-3.125	-2.8583	-2.7875	-3.0333	-2.8167	-2.8083	228.044	219.934	103.407	53.152	352.398	369.629	332.040	308.662	292.261	344.873	112.051	359.782	51.450	390.093	118.482	362.807	0.00024486	0.00028191	0.00010183	1120.9	3.0766e-06	1.4339e-06	1190	244.69	2.0019e-06	2.5046e-06	303.35	86.834	67.963	20.199	2.433e-06	27.654	8.7222e-05	6.219e-05	1.7955e-05	1080.8	7.0983e-07	6.2585e-07	1163	241.68	7.3353e-07	6.8014e-07	297.85	86.033	66.996	20.116	7.086e-07	27.564	226.770	162.116	148.539	60.312	212.411	184.129	60.472	67.509	225.237	193.726	67.114	73.932	74.148	80.334	201.951	80.101	-8191	255	
18052.451	1	1	0	0	0.16428	0.18272	0.027636	0.17795	0.26478	0.23161	0.063745	0.18947	0.18532	0.075525	0.32055	0.1416	0.17894	0.11358	0.2371	0.090778	-2.4792	-2.5938	-2.8146	-2.7875	-2.6875	-3.0333	-2.8167	-2.9104	-2.9437	-2.7042	-2.8417	-2.9083	-2.7625	-2.8333	-2.7958	-2.925	252.157	218.943	325.996	398.519	117.814	71.276	178.904	292.400	266.866	357.999	317.772	292.516	340.839	68.224	82.261	364.302	0.00022924	0.00031106	0.00010891	1122	3.3705e-06	2.4804e-06	1189.5	245.69	2.7284e-06	3.1863e-06	303.66	87.2	67.633	20.129	2.0163e-06	27.599	8.4197e-05	5.9158e-05	1.6862e-05	1080	6.9192e-07	6.6112e-07	1162.9	242.02	7.3599e-07	6.4211e-07	297.54	86.098	66.862	20.13	6.7421e-07	27.535	230.257	137.919	144.618	60.081	221.712	209.820	60.376	67.226	239.207	207.865	66.888	74.310	74.384	80.982	197.328	79.614	-8191	255	
18052.570	1	1	0	0	0.15728	0.24469	0.17979	0.15861	0.18572	0.048183	0.26938	0.13596	0.23898	0.14547	0.29507	0.087161	0.17166	0.19796	0.17663	0.27156	-2.6792	-2.7292	-2.7812	-2.8333	-2.7604	-2.9354	-3.0104	-2.8583	-3.1	-2.6958	-3.1021	-2.975	-2.7708	-3.125	-2.9125	-2.8104	233.485	276.627	329.417	318.965	175.805	162.121	348.703	181.356	73.974	203.538	139.571	364.326	320.624	49.817	67.747	305.057	0.00024818	0.00027272	4.9623e-05	1123.6	2.8033e-06	2.7146e-06	1190.7	246.61	3.2658e-06	2.2593e-06	302.53	86.91	67.531	20.4	3.9677e-06	27.925	8.5172e-05	6.2239e-05	1.6236e-05	1076.8	7.0974e-07	6.4671e-07	1162.9	242.43	7.1512e-07	6.7583e-07	297.3	86.147	66.948	20.193	6.8422e-07	27.612	224.177	131.409	127.181	60.173	201.672	207.260	60.307	67.486	247.303	203.154	66.855	74.013	74.463	80.543	188.875	79.914	-8191	255	
18052.666	1	1	0	0	0.026192	0.11012	0.074703	0.1143	0.17053	0.25421	0.21124	0.11356	0.033995	0.060392	0.13857	0.11136	0.086503	0.11564	0.0927	0.24087	-2.7271	-2.7271	-2.8729	-2.9188	-2.7146	-2.9229	-2.7812	-2.6917	-2.9854	-2.6083	-3.0104	-3.0625	-2.7	-2.8917	-2.775	-2.6625	79.824	91.801	266.760	228.147	212.002	60.448	61.962	220.262	139.465	79.860	371.402	244.374	140.323	79.076	130.164	88.142	0.00023693	0.00027734	0.00010322	1120.1	3.9962e-06	2.5362e-06	1196.1	246.96	2.3673e-06	2.2005e-06	305.22	86.974	67.326	20.153	2.9339e-06	27.675	8.4796e-05	6.18e-05	1.7442e-05	1079.6	6.84e-07	6.6802e-07	1165.7	242.39	7.3996e-07	6.6148e-07	298.69	86.107	66.819	20.172	7.1489e-07	27.634	227.535	146.352	156.772	60.098	225.195	209.197	60.245	67.364	243.029	159.053	67.101	74.082	74.315	80.514	221.938	80.330	-8191	255	
18052.762	1	1	0	0	0.26225	0.12261	0.10867	0.11026	0.038273	0.3253	0.094349	0.37366	0.20058	0.02912	0.17129	0.16459	0.13875	0.087278	0.091581	0.19026	-2.6083	-2.5708	-2.5958	-2.9667	-2.6104	-3.0396	-3.1021	-2.7792	-2.9917	-2.825	-2.9625	-3.05	-2.6625	-3.0146	-3.0146	-2.6042	159.052	257.261	171.639	346.858	407.287	378.094	355.626	388.990	330.431	96.253	247.495	409.038	59.125	380.895	278.779	358.355	0.00023316	0.00025839	6.4061e-05	1123.2	3.143e-06	2.6347e-06	1191.3	246.22	3.3024e-07	4.0222e-06	305.08	86.804	67.992	20.187	2.668e-06	27.749	8.2508e-05	6.2158e-05	1.7923e-05	1081.1	7.3877e-07	6.5898e-07	1163.8	242.5	7.3335e-07	6.8659e-07	298.53	86.106	67.11	20.217	7.234e-07	27.543	230.870	158.939	143.699	60.024	216.162	179.292	60.103	67.357	307.241	182.250	67.224	74.005	74.384	80.415	209.554	80.188	-8191	255	
18052.859	1	1	0	0	0.24537	0.12508	0.055708	0.2712	0.18616	0.18301	0.19444	0.21661	0.16411	0.21339	0.30357	0.20418	0.15108	0.2847	0.20896	0.10033	-2.6792	-2.7354	-2.9396	-2.9896	-2.7417	-2.8292	-2.9896	-2.6125	-2.9354	-2.9229	-2.7708	-3.1708	-2.7833	-3.0042	-2.8958	-2.5542	391.367	328.635	243.426	408.394	125.446	75.442	64.281	347.555	201.851	265.940	321.152	347.732	285.779	369.444	134.302	280.442	0.00022303	0.00039282	9.0949e-05	1126.9	3.3303e-06	2.5662e-06	1195.6	246.04	2.5455e-06	1.7137e-06	303.67	87.284	68.435	20.281	2.8124e-06	27.771	9.0081e-05	6.3499e-05	1.7957e-05	1082.7	7.003e-07	6.6265e-07	1166.7	242.8	7.0992e-07	6.6686e-07	298.53	86.424	67.254	20.247	7.2145e-07	27.618	221.702	149.717	127.875	60.152	214.833	204.962	60.131	66.994	262.412	216.109	66.955	73.832	74.453	80.589	188.073	79.866	-8191	255	
18052.955	1	1	0	0	0.14583	0.33857	0.12731	0.21315	0.18977	0.20411	0.12051	0.27285	0.231	0.24662	0.04256	0.27547	0.13933	0.18314	0.12034	0.22887	-2.6208	-2.8396	-2.7375	-2.95	-2.6917	-2.575	-3.0729	-2.5375	-2.9104	-2.8208	-2.8625	-2.9854	-2.8271	-2.8812	-3.0271	-2.725	378.621	255.386	373.828	313.030	59.086	351.587	104.534	368.941	241.686	374.835	157.662	71.423	317.336	80.725	373.155	353.020	0.00025492	0.00037589	8.7552e-05	1124.1	2.5239e-06	2.4527e-06	1193.7	248.05	2.5856e-06	2.4064e-06	303.84	86.82	67.976	20.211	2.1779e-06	27.928	8.8348e-05	6.2312e-05	1.7733e-05	1083.2	6.9941e-07	6.8028e-07	1167.2	243.15	7.33e-07	6.7637e-07	298.78	86.101	67.205	20.224	7.1046e-07	27.661	224.778	142.353	148.575	60.238	201.562	176.128	60.250	67.313	234.110	211.208	66.860	74.152	74.247	80.377	216.354	80.331	-8191	255	
18053.051	1	1	0	0	0.12369	0.084768	0.18492	0.20725	0.16677	0.29958	0.29436	0.34338	0.25595	0.20643	0.13289	0.19527	0.13427	0.22259	0.05601	0.24632	-2.3771	-2.8625	-2.6521	-3.0187	-2.6833	-2.9104	-3.3063	-2.6188	-3.0458	-2.8771	-2.7021	-3.0229	-2.7792	-2.9021	-3.0833	-2.8479	113.049	198.834	60.577	402.837	166.592	189.012	317.962	335.413	202.614	67.154	171.078	116.055	408.337	118.798	221.198	353.330	0.00021089	0.00037741	2.3071e-05	1120.4	3.2178e-06	2.7948e-06	1193.9	246.44	1.6692e-06	5.1089e-06	303.52	87.406	68.274	20.094	3.2101e-06	27.871	8.5569e-05	6.3125e-05	1.7531e-05	1083.7	7.0519e-07	6.5781e-07	1166.5	243.03	7.5017e-07	6.622e-07	298.82	86.427	67.343	20.134	7.2101e-07	27.701	227.974	150.029	126.453	59.669	225.141	210.677	60.294	67.254	224.178	207.788	66.922	73.834	74.221	80.335	189.655	79.934	-8191	255	
18053.172	1	1	0	0	0.24841	0.12806	0.047729	0.16261	0.2559	0.15387	0.10833	0.31066	0.058844	0.23986	0.17984	0.25337	0.083642	0.15363	0.052488	0.061249	-2.4875	-3.1104	-2.7125	-2.9646	-2.8292	-2.6979	-3.0833	-2.6437	-2.8063	-3.0875	-2.8271	-3.1208	-2.9625	-2.6125	-3.0833	-2.6792	172.964	388.703	404.200	231.510	232.558	291.236	300.107	51.102	159.927	285.259	99.675	129.197	334.038	56.521	147.546	56.267	0.00026	0.00040072	6.8861e-05	1126	9.196e-07	2.873e-06	1195	247.37	3.1368e-06	2.8702e-06	305.49	86.892	67.695	20.266	2.7794e-06	27.819	8.8442e-05	6.4166e-05	1.6957e-05	1082.6	7.0591e-07	6.8789e-07	1168	243.43	7.5017e-07	6.4077e-07	299.43	86.344	67.231	20.254	6.7988e-07	27.664	227.324	144.926	128.950	59.975	232.062	217.285	60.394	67.260	242.361	217.352	66.881	74.052	74.172	80.504	190.650	79.631	-8191	255	
18053.268	1	1	0	0	0.14802	0.012715	0.39439	0.13488	0.035203	0.14806	0.28597	0.20655	0.23865	0.08184	0.10972	0.2044	0.089383	0.12603	0.17389	0.1864	-2.4313	-2.8333	-2.4917	-3.0042	-2.8333	-2.5583	-3.1271	-2.8312	-2.8104	-2.9958	-2.6917	-3.0708	-2.9667	-2.6708	-3.1375	-2.9271	75.394	307.858	137.567	168.526	122.925	336.420	322.203	196.786	142.250	303.716	277.649	205.383	385.630	301.237	124.030	379.366	0.0002426	0.00023576	3.4971e-05	1122.7	3.6261e-06	2.7054e-06	1198.6	247.07	2.0752e-06	2.3191e-06	305.8	86.848	67.988	20.196	2.2131e-06	27.826	8.9337e-05	6.1166e-05	1.732e-05	1082.5	7.1748e-07	6.5871e-07	1169.6	243.4	7.4718e-07	7.0256e-07	299.65	86.392	67.28	20.238	7.1445e-07	27.718	228.129	160.917	155.437	60.006	238.084	210.760	60.469	67.415	250.237	211.849	66.845	74.150	74.115	80.703	214.540	79.996	-8191	255	
18053.363	1	1	0	0	0.10769	0.25213	0.14293	0.11926	0.26028	0.23263	0.16281	0.27301	0.096455	0.26104	0.31362	0.10672	0.27293	0.22145	0.10784	0.18413	-2.3167	-2.9833	-2.6479	-2.9042	-2.9292	-2.7125	-3.1792	-3.0687	-2.7271	-2.9646	-2.7562	-3.0875	-3.0333	-2.6021	-3.0083	-2.8937	341.044	120.230	153.059	192.851	380.749	180.836	69.548	333.344	289.477	103.397	370.433	363.792	94.398	308.365	298.662	297.520	0.00021675	0.00013577	0.00010105	1118.8	4.269e-06	2.3825e-06	1198	247.56	2.1775e-06	1.9701e-06	303.46	87.395	68.039	20.169	2.8441e-06	27.912	8.6067e-05	6.1711e-05	1.7057e-05	1083.9	6.9976e-07	6.5548e-07	1169.7	243.97	7.5334e-07	6.5727e-07	298.9	86.647	67.327	20.212	7.1826e-07	27.783	224.791	177.039	131.106	60.201	204.825	186.678	60.304	67.305	230.634	201.860	66.867	73.596	73.758	80.606	183.629	79.975	-8191	255	
18053.461	1	1	0	0	0.18563	0.19319	0.09363	0.30863	0.089403	0.099953	0.19023	0.083318	0.19729	0.377	0.19732	0.24439	0.11559	0.22441	0.22366	0.027781	-2.4083	-3.025	-2.8333	-2.8104	-2.9396	-2.5917	-3.3187	-2.85	-2.6854	-2.85	-2.7167	-2.8792	-3.0625	-2.6063	-3.0917	-2.8896	65.371	316.301	50.804	302.339	162.838	351.859	251.859	361.064	319.855	210.166	179.818	198.083	390.456	348.311	97.641	211.569	0.00022574	0.00037884	7.5049e-05	1126.1	4.0257e-06	3.6214e-06	1199.5	248.42	2.9615e-06	1.4225e-06	306.18	87.532	68.263	20.221	3.2283e-06	27.802	8.676e-05	6.2971e-05	1.8084e-05	1087.2	7.2897e-07	6.8843e-07	1170.8	244.21	7.3626e-07	6.9215e-07	300.17	86.693	67.587	20.308	7.296e-07	27.742	231.369	139.303	149.276	60.453	209.737	194.562	60.255	67.234	235.000	205.311	66.856	74.006	74.213	80.274	198.666	80.393	-8191	255	
#DATA ENDS
