BOXY.EXE: ISS Imagent and Oximeter Data Acquisition Program Version 0.80
Ascii Record File

#ACQ INFORMATION
2  Detector Channels 
16  External MUX Channels 
1  Auxiliary Channels 
5000  Waveform (CCF) Frequency (Hz)
1  Waveforms Skipped 
30  Waveforms Averaged 
1  Cycles Averaged 
16  Acquisitions per Waveform 
10.0806  Updata Rate (Hz) 

#FILE INFORMATION
TRUE -- External MUX Channel results are PARSED.
FALSE -- AC DC and Phase are NOT grouped.
TRUE -- Companion Program Settings File CREATED.
FALSE -- AC data not excluded
FALSE -- DC data not excluded
FALSE -- Phase data not excluded
FALSE -- Auxillary Chn. data not excluded
Tab delimiters

#CALIBRATION STATE
TRUE -- Waveform Calibration Values APPLIED.


#AUX CALIBRATION VALUES
Val Type	aux-1	

Term	1.0000e+00	
Factor	0.0000e+00	


#WF CALIBRATION VALUES
A = Detector Channel
Val Type	A-AC1	A-AC2	A-AC3	A-AC4	A-AC5	A-AC6	A-AC7	A-AC8	A-AC9	A-AC10	A-AC11	A-AC12	A-AC13	A-AC14	A-AC15	A-AC16	A-DC1	A-DC2	A-DC3	A-DC4	A-DC5	A-DC6	A-DC7	A-DC8	A-DC9	A-DC10	A-DC11	A-DC12	A-DC13	A-DC14	A-DC15	A-DC16	A-Ph1	A-Ph2	A-Ph3	A-Ph4	A-Ph5	A-Ph6	A-Ph7	A-Ph8	A-Ph9	A-Ph10	A-Ph11	A-Ph12	A-Ph13	A-Ph14	A-Ph15	A-Ph16	

Term	0.00000e+00	0.00000e+00	0.00000e+00	0.00000e+00	0.00000e+00	0.00000e+00	0.00000e+00	0.00000e+00	0.00000e+00	0.00000e+00	0.00000e+00	0.00000e+00	0.00000e+00	0.00000e+00	0.00000e+00	0.00000e+00	0.00000e+00	0.00000e+00	0.00000e+00	0.00000e+00	0.00000e+00	0.00000e+00	0.00000e+00	0.00000e+00	0.00000e+00	0.00000e+00	0.00000e+00	0.00000e+00	0.00000e+00	0.00000e+00	0.00000e+00	0.00000e+00	0.00000e+00	0.00000e+00	0.00000e+00	0.00000e+00	0.00000e+00	0.00000e+00	0.00000e+00	0.00000e+00	0.00000e+00	0.00000e+00	0.00000e+00	0.00000e+00	0.00000e+00	0.00000e+00	0.00000e+00	0.00000e+00	
Factor	1.00000e+00	1.00000e+00	1.00000e+00	1.00000e+00	1.00000e+00	1.00000e+00	1.00000e+00	1.00000e+00	1.00000e+00	1.00000e+00	1.00000e+00	1.00000e+00	1.00000e+00	1.00000e+00	1.00000e+00	1.00000e+00	1.00000e+00	1.00000e+00	1.00000e+00	1.00000e+00	1.00000e+00	1.00000e+00	1.00000e+00	1.00000e+00	1.00000e+00	1.00000e+00	1.00000e+00	1.00000e+00	1.00000e+00	1.00000e+00	1.00000e+00	1.00000e+00	X	X	X	X	X	X	X	X	X	X	X	X	X	X	X	X	

B = Detector Channel
Val Type	B-AC1	B-AC2	B-AC3	B-AC4	B-AC5	B-AC6	B-AC7	B-AC8	B-AC9	B-AC10	B-AC11	B-AC12	B-AC13	B-AC14	B-AC15	B-AC16	B-DC1	B-DC2	B-DC3	B-DC4	B-DC5	B-DC6	B-DC7	B-DC8	B-DC9	B-DC10	B-DC11	B-DC12	B-DC13	B-DC14	B-DC15	B-DC16	B-Ph1	B-Ph2	B-Ph3	B-Ph4	B-Ph5	B-Ph6	B-Ph7	B-Ph8	B-Ph9	B-Ph10	B-Ph11	B-Ph12	B-Ph13	B-Ph14	B-Ph15	B-Ph16	

Term	0.00000e+00	0.00000e+00	0.00000e+00	0.00000e+00	0.00000e+00	0.00000e+00	0.00000e+00	0.00000e+00	0.00000e+00	0.00000e+00	0.00000e+00	0.00000e+00	0.00000e+00	0.00000e+00	0.00000e+00	0.00000e+00	0.00000e+00	0.00000e+00	0.00000e+00	0.00000e+00	0.00000e+00	0.00000e+00	0.00000e+00	0.00000e+00	0.00000e+00	0.00000e+00	0.00000e+00	0.00000e+00	0.00000e+00	0.00000e+00	0.00000e+00	0.00000e+00	-6.15763e+01	-1.30411e+02	-1.24549e+02	-1.82143e+02	-5.62854e+01	-6.13144e+01	-1.55749e+02	-1.62015e+02	-4.36545e+01	-5.84641e+01	-1.71172e+02	-1.71176e+02	-1.81653e+02	-1.77264e+02	-5.75505e+01	-1.50260e+02	
Factor	1.84335e-05	1.52056e-04	4.43642e-05	4.71444e-01	1.63633e-06	1.83727e-06	1.70005e-01	5.70259e-02	1.24874e-06	1.86029e-06	9.06459e-02	2.89522e-02	2.44098e-02	8.74298e-03	1.46882e-06	1.28138e-02	7.07437e-06	9.43660e-06	2.63415e-06	2.38107e-01	1.02249e-07	1.04931e-07	8.15064e-02	2.91262e-02	9.98385e-08	1.04856e-07	4.47650e-02	1.44068e-02	1.26248e-02	4.50497e-03	1.02288e-07	6.38331e-03	X	X	X	X	X	X	X	X	X	X	X	X	X	X	X	X	



#DISTANCE SETTINGS
A = Detector Channel
A-1	A-2	A-3	A-4	A-5	A-6	A-7	A-8	A-9	A-10	A-11	A-12	A-13	A-14	A-15	A-16	

2.5000e+00	3.0000e+00	2.5000e+00	3.0000e+00	2.0000e+00	3.0000e+00	1.5000e+00	3.0000e+00	3.0000e+00	3.0000e+00	3.0000e+00	3.0000e+00	3.0000e+00	3.0000e+00	1.5000e+00	3.0000e+00	

B = Detector Channel
B-1	B-2	B-3	B-4	B-5	B-6	B-7	B-8	B-9	B-10	B-11	B-12	B-13	B-14	B-15	B-16	

1.0000e+01	1.0000e+01	1.0000e+01	1.4400e+00	1.0000e+01	1.0000e+01	1.5100e+00	1.9400e+00	1.0000e+01	1.0000e+01	1.9900e+00	2.4900e+00	2.4100e+00	2.9000e+00	1.0000e+01	2.9800e+00	




#DATA BEGINS
time	group	step	mark	flag	A-AC1	A-AC2	A-AC3	A-AC4	A-AC5	A-AC6	A-AC7	A-AC8	A-AC9	A-AC10	A-AC11	A-AC12	A-AC13	A-AC14	A-AC15	A-AC16	A-DC1	A-DC2	A-DC3	A-DC4	A-DC5	A-DC6	A-DC7	A-DC8	A-DC9	A-DC10	A-DC11	A-DC12	A-DC13	A-DC14	A-DC15	A-DC16	A-Ph1	A-Ph2	A-Ph3	A-Ph4	A-Ph5	A-Ph6	A-Ph7	A-Ph8	A-Ph9	A-Ph10	A-Ph11	A-Ph12	A-Ph13	A-Ph14	A-Ph15	A-Ph16	B-AC1	B-AC2	B-AC3	B-AC4	B-AC5	B-AC6	B-AC7	B-AC8	B-AC9	B-AC10	B-AC11	B-AC12	B-AC13	B-AC14	B-AC15	B-AC16	B-DC1	B-DC2	B-DC3	B-DC4	B-DC5	B-DC6	B-DC7	B-DC8	B-DC9	B-DC10	B-DC11	B-DC12	B-DC13	B-DC14	B-DC15	B-DC16	B-Ph1	B-Ph2	B-Ph3	B-Ph4	B-Ph5	B-Ph6	B-Ph7	B-Ph8	B-Ph9	B-Ph10	B-Ph11	B-Ph12	B-Ph13	B-Ph14	B-Ph15	B-Ph16	aux-1	digaux	

18082.830	1	1	0	768	0.021414	0.073046	0.064338	0.015999	0.11984	0.076221	0.33689	0.2145	0.10888	0.090584	0.13066	0.14441	0.36942	0.14714	0.1255	0.17028	-2.3187	-2.8563	-2.975	-2.6042	-3.0979	-2.8708	-2.7708	-3.2938	-2.7667	-2.8792	-3.0667	-2.7917	-3.1333	-3.1312	-2.8583	-3.0875	209.872	449.020	373.675	370.833	234.657	457.460	455.793	400.049	323.364	275.179	493.658	377.842	431.210	494.657	288.761	153.087	0.00059596	0.00063688	0.00015231	1376.6	7.3081e-06	4.9254e-06	1377.9	378.76	5.7346e-06	4.9364e-06	429.96	146.83	127.68	43.868	6.7549e-06	54.08	0.00050467	0.00045176	0.00012767	1399.1	4.9972e-06	4.9632e-06	1399.1	385.33	5.0583e-06	4.9151e-06	438.61	149.8	130.38	45.088	4.8691e-06	55.44	256.301	227.571	240.710	157.879	313.066	308.141	157.827	162.659	316.854	299.096	162.092	166.561	166.973	171.429	302.960	170.406	-8191	255	
18082.928	1	1	0	0	0.030865	0.1169	0.29366	0.035589	0.28656	0.16574	0.24305	0.11886	0.137	0.25631	0.20894	0.14778	0.50165	0.096832	0.25795	0.23857	-2.3542	-2.7979	-2.875	-2.7188	-2.9646	-3.0417	-3.1188	-3.0062	-2.8854	-2.8271	-3.1188	-2.7083	-3.05	-2.9229	-2.6083	-3.1708	162.889	367.985	360.192	428.329	474.444	338.657	425.203	403.092	160.238	292.703	425.760	472.592	481.061	477.863	328.547	339.951	0.00058359	0.00065385	0.00011553	1379.9	5.9402e-06	4.2306e-06	1386.4	379.21	5.4393e-06	6.8043e-06	430.89	146.59	127.85	43.772	7.3219e-06	53.713	0.00048137	0.00044006	0.00012384	1400.7	4.8628e-06	4.8045e-06	1400.3	385.21	4.7413e-06	4.7698e-06	438.7	149.82	130.5	45.022	4.8962e-06	55.372	255.272	242.733	252.356	158.162	296.511	288.517	157.854	162.597	291.584	300.217	161.954	166.596	167.056	171.406	310.957	170.569	-8191	255	
18083.023	1	1	0	0	0.12472	0.24168	0.13134	0.26881	0.14695	0.053728	0.28297	0.13365	0.27422	0.037623	0.41061	0.21051	0.25364	0.30066	0.21239	0.087772	-2.4083	-2.6917	-2.9542	-2.6333	-3.1042	-3.0417	-2.7833	-3.2188	-2.7188	-2.6917	-3.2104	-2.6646	-2.9813	-2.9708	-2.6396	-3.1792	318.120	437.852	232.195	483.192	146.518	336.084	408.273	469.832	469.846	169.238	183.312	461.625	293.549	499.228	435.814	400.431	0.00056372	0.00040112	0.00017695	1377.7	4.1421e-06	6.9277e-06	1379.1	377.82	4.23e-06	5.1462e-06	431.83	146.37	127.84	43.874	5.6221e-06	54.235	0.0004854	0.00045022	0.0001249	1396.3	4.7963e-06	4.8161e-06	1397.7	385.3	4.9589e-06	4.8054e-06	439.5	149.99	130.49	45.136	4.9047e-06	55.596	256.585	237.573	224.112	158.110	304.100	322.813	158.058	162.559	305.604	313.616	161.965	166.483	166.992	171.311	297.275	170.323	-8191	255	
18083.119	1	1	0	0	0.18161	0.29762	0.17605	0.21131	0.11874	0.12397	0.25232	0.47228	0.10502	0.28686	0.15017	0.07777	0.26577	0.28112	0.13488	0.060952	-2.3771	-2.7479	-2.9833	-2.6875	-2.7625	-3.0792	-2.9292	-3.0375	-3.0521	-2.8042	-3.1896	-2.8125	-2.8646	-2.9833	-2.6063	-3.1271	351.459	190.892	284.814	243.884	148.409	333.228	441.940	427.909	431.884	167.202	338.992	270.291	145.248	390.557	221.026	200.106	0.00058612	0.00054455	0.00013965	1383.2	4.7742e-06	2.535e-06	1382.8	379.49	4.7718e-06	8.7518e-06	432.28	147.9	128.64	43.916	4.3838e-06	54.189	0.00048166	0.00043424	0.00011648	1399.2	4.6366e-06	4.6283e-06	1400.7	386.42	4.614e-06	4.559e-06	439.47	150.42	130.86	45.238	4.6243e-06	55.614	258.967	228.082	209.752	158.061	308.904	307.336	157.838	162.530	295.299	305.919	162.018	166.415	166.801	171.198	315.399	170.660	-8191	255	
18083.217	1	1	0	0	0.21394	0.031077	0.17867	0.16428	0.12832	0.1451	0.25659	0.23985	0.23035	0.078946	0.15366	0.40543	0.090401	0.34641	0.085511	0.4234	-2.4333	-2.7062	-2.9542	-2.8563	-2.7333	-3.0312	-3.0229	-3.1479	-2.9708	-2.6583	-3.0812	-2.8104	-3.0438	-3.0604	-2.7854	-3.0187	332.118	250.399	430.265	485.043	239.456	249.457	454.082	453.729	496.479	354.811	480.932	471.373	181.909	150.199	317.197	432.330	0.00061413	0.00052584	0.00014944	1377.9	5.3161e-06	7.0883e-06	1374.6	377.32	5.4916e-06	4.8328e-06	430.68	146.32	127.55	43.726	6.459e-06	53.717	0.00047279	0.00041893	0.00011403	1393.9	4.5185e-06	4.4491e-06	1394.1	384.14	4.646e-06	4.6289e-06	437.89	149.26	129.97	44.916	4.7272e-06	55.296	259.511	261.449	228.646	158.080	309.375	290.379	157.877	162.833	331.774	296.550	162.049	166.534	166.975	171.499	297.146	170.565	-8191	255	
18083.312	1	1	0	0	0.11574	0.2506	0.39622	0.022532	0.19342	0.062389	0.2151	0.089303	0.28562	0.15325	0.18047	0.23445	0.20547	0.17753	0.2287	0.23433	-2.4979	-2.6688	-2.8271	-2.7458	-2.7188	-3.1562	-2.8625	-3.0292	-2.9625	-2.8854	-3.0854	-2.7875	-2.7271	-3.2333	-2.8563	-3.0021	471.932	471.720	314.226	433.587	399.005	469.522	463.475	313.963	504.258	350.075	482.983	419.312	370.396	401.636	342.845	432.782	0.00060329	0.00039381	0.00012528	1377.8	5.1528e-06	4.5972e-06	1375.7	378.61	5.5188e-06	6.0324e-06	430.81	146.44	127.68	43.743	4.8781e-06	53.746	0.00047577	0.00042178	0.00011876	1392.8	4.7301e-06	4.7035e-06	1394.8	384.47	4.8255e-06	4.8465e-06	438.13	149.44	130.08	44.883	4.933e-06	55.289	258.068	233.039	224.564	158.107	282.742	272.625	157.905	162.615	302.409	303.326	162.182	166.441	167.009	171.351	296.153	170.689	-8191	255	
18083.434	1	1	0	0	0.082595	0.060168	0.13475	0.098574	0.092057	0.21039	0.058041	0.18511	0.1293	0.10905	0.37764	0.10557	0.25462	0.36345	0.16501	0.20086	-2.5354	-2.675	-2.9792	-2.8771	-2.5708	-3.0771	-2.9625	-2.8542	-3.15	-2.75	-3.0771	-3.1542	-2.7396	-3.1479	-2.8	-2.7958	477.207	443.496	184.886	443.799	211.091	350.275	173.353	458.520	155.136	203.581	452.106	178.051	461.448	455.725	500.596	228.230	0.00061628	0.0006547	9.5701e-05	1370.5	5.3081e-06	4.1985e-06	1372.9	377.37	4.5763e-06	5.7272e-06	429.88	145.74	127.13	43.782	6.3177e-06	53.918	0.00048545	0.0004494	0.00012525	1391.7	4.7963e-06	4.8727e-06	1393.3	383.68	4.9526e-06	4.9649e-06	437.66	149.04	129.91	44.937	4.9782e-06	55.337	259.557	246.308	253.453	158.145	281.131	297.395	157.732	162.776	312.966	327.427	162.101	166.385	167.011	171.439	289.685	170.535	-8191	255	
18083.527	1	1	0	0	0.11149	0.35268	0.19162	0.17681	0.21396	0.12793	0.30871	0.047951	0.11331	0.21798	0.18558	0.26988	0.32694	0.17844	0.078425	0.1428	-2.7729	-2.5917	-2.9188	-3.075	-2.8063	-3.0083	-2.9062	-2.8438	-3.0292	-2.6229	-3.0375	-3.0667	-2.6312	-3	-2.6646	-2.8854	176.558	272.424	407.662	418.570	384.196	209.979	465.431	175.881	242.440	344.318	470.662	458.083	453.328	160.904	226.320	148.792	0.00058825	0.00067878	0.00014931	1374.9	4.6052e-06	8.8032e-06	1375.2	377.7	5.862e-06	5.2049e-06	430.48	146.4	127.23	43.491	4.7479e-06	53.694	0.00048679	0.00043448	0.00012153	1392.4	4.7094e-06	4.8552e-06	1396.9	384.52	4.8584e-06	4.7574e-06	438.15	149.14	130.06	44.852	4.9367e-06	55.087	257.023	222.536	230.003	157.952	301.587	305.314	157.863	162.640	295.228	296.828	161.992	166.416	166.978	171.192	287.785	170.544	-8191	255	
18083.623	1	1	0	0	0.20358	0.15372	0.20324	0.14168	0.2551	0.16365	0.34418	0.078306	0.1564	0.13073	0.035017	0.26355	0.44236	0.2732	0.18674	0.15818	-2.625	-2.7042	-2.8375	-3.0812	-2.6292	-3.1146	-2.9542	-2.7646	-3.1312	-2.7021	-2.8563	-2.9062	-2.8021	-3.1896	-2.9062	-2.6312	485.247	499.127	441.546	285.420	183.797	415.590	444.685	456.404	329.267	159.138	254.258	496.385	471.603	490.251	502.178	498.110	0.00059995	0.00046846	0.00012718	1372.1	5.5153e-06	6.0074e-06	1376.7	376.9	5.213e-06	4.2942e-06	428.89	145.8	127.26	43.566	3.8994e-06	53.936	0.00048064	0.0004401	0.00012045	1389.9	4.8268e-06	4.8572e-06	1392.6	383.15	4.9684e-06	4.845e-06	436.47	148.97	129.62	44.834	4.9701e-06	55.231	258.560	215.391	220.964	158.132	310.500	288.574	157.739	162.570	308.283	319.871	162.113	166.534	166.889	171.305	297.228	170.567	-8191	255	
18083.719	1	1	0	0	0.18849	0.16641	0.31165	0.17284	0.31643	0.081576	0.22928	0.24061	0.13945	0.075679	0.10183	0.21578	0.090357	0.23059	0.086333	0.14988	-2.7646	-2.4854	-2.7083	-3.0021	-2.6667	-2.8479	-2.9542	-2.6688	-3.0646	-2.9271	-2.8063	-3.1396	-2.7729	-2.8208	-2.8021	-2.7333	230.728	253.378	152.140	425.643	263.525	242.870	422.401	385.881	279.708	396.725	403.360	453.620	474.306	478.100	335.931	358.010	0.000609	0.00056156	0.00016428	1366.3	4.7844e-06	3.9831e-06	1375.9	375.54	5.9815e-06	6.9969e-06	430.83	146.2	126.68	43.529	5.5401e-06	53.719	0.00048689	0.00045036	0.00012169	1390.5	4.795e-06	4.8869e-06	1394.6	383.08	4.8266e-06	4.8609e-06	437.11	149.34	129.58	44.792	4.73e-06	55.25	257.671	220.107	242.434	158.021	304.487	317.409	157.909	162.615	309.745	294.106	161.959	166.656	167.232	171.479	303.527	170.746	-8191	255	
18083.816	1	1	0	0	0.2608	0.10312	0.15843	0.11663	0.26201	0.24338	0.31715	0.05101	0.14202	0.228	0.13016	0.1986	0.28427	0.25183	0.12802	0.27736	-2.7	-2.8521	-2.65	-3.0563	-3.0167	-2.8917	-3.3229	-2.7687	-2.7854	-2.8917	-2.9521	-3.3146	-2.9479	-2.9813	-3.0125	-2.9542	190.034	206.963	218.395	454.592	334.453	248.021	432.875	280.003	163.751	186.994	355.908	477.453	150.410	405.241	303.467	454.688	0.00058908	0.00051265	0.00016304	1374.2	5.5285e-06	4.9583e-06	1379.9	377.38	5.8476e-06	4.5092e-06	429.65	146.67	127.17	43.678	5.1194e-06	54.02	0.00047509	0.00042575	0.00012025	1392.6	4.6698e-06	4.6567e-06	1395.8	383.91	4.6999e-06	4.5103e-06	437.65	149.39	129.97	44.921	4.62e-06	55.269	258.475	237.550	226.617	157.898	322.391	302.654	157.668	162.576	312.435	308.260	161.915	166.413	167.054	171.240	303.649	170.428	-8191	255	
18083.912	1	1	0	0	0.22661	0.10555	0.16762	0.12331	0.25206	0.13666	0.23634	0.25591	0.11729	0.17433	0.18434	0.23643	0.36575	0.16783	0.075193	0.31651	-2.6375	-2.9688	-2.6875	-3.0979	-2.9021	-2.9292	-3.2562	-2.7917	-2.9396	-2.7375	-2.8833	-3.1854	-2.85	-2.9708	-3.0354	-2.9167	253.926	227.751	410.281	465.783	396.787	199.014	434.675	484.681	462.008	252.511	433.538	322.503	463.538	472.201	271.549	208.616	0.00060831	0.00033004	0.00014085	1371.9	6.212e-06	5.5611e-06	1372.2	374.98	6.927e-06	3.4737e-06	428.25	145.77	126.82	43.388	4.4198e-06	53.618	0.00047276	0.00040965	0.00011591	1388.9	4.461e-06	4.4836e-06	1389.6	382.53	4.6581e-06	4.4037e-06	436.34	148.72	129.28	44.584	4.5092e-06	54.94	257.571	212.790	222.793	157.942	314.026	313.128	157.929	162.583	302.772	302.823	161.780	166.569	167.051	171.296	278.376	170.477	-8191	255	
18084.031	1	1	0	0	0.09599	0.18538	0.19894	0.065468	0.20898	0.12341	0.31854	0.24161	0.24984	0.25445	0.39302	0.40696	0.33421	0.23623	0.20068	0.27246	-2.5375	-2.9313	-2.7083	-3.0833	-2.8833	-2.8917	-3.1417	-2.8604	-2.95	-2.9854	-2.7208	-3.1125	-2.9792	-2.9875	-3.0396	-2.8417	188.908	360.898	469.427	458.102	149.809	206.614	395.003	466.611	287.948	364.515	406.256	489.617	159.673	206.679	205.939	374.123	0.00058542	0.00038133	0.0001378	1364.7	4.7677e-06	5.9605e-06	1364.6	373.02	6.6155e-06	6.7027e-06	426.33	144.06	125.41	42.988	4.2187e-06	53.189	0.00046284	0.00039276	0.00011129	1381.9	4.3068e-06	4.3039e-06	1383.8	380.04	4.2856e-06	4.2892e-06	433.42	147.33	128.09	44.243	4.2882e-06	54.487	257.248	246.696	228.736	158.196	304.545	295.586	157.829	162.648	311.697	321.675	162.062	166.650	167.187	171.542	293.977	170.570	-8191	255	
18084.129	1	1	0	0	0.069634	0.089201	0.25694	0.43757	0.14235	0.054524	0.2106	0.11267	0.18863	0.010131	0.45531	0.19891	0.23605	0.14165	0.22148	0.2302	-2.6604	-2.9562	-2.7	-3.1958	-2.8917	-2.7333	-3.1688	-2.6104	-2.9083	-3.0458	-2.8646	-2.9813	-3.1292	-2.8396	-2.8729	-2.8438	476.657	416.680	360.153	500.480	257.620	368.457	444.313	334.582	257.274	405.968	422.234	496.541	179.347	419.955	282.733	222.539	0.00058917	0.00063677	9.6969e-05	1354.1	6.6372e-06	4.7279e-06	1354.2	371.06	5.4669e-06	4.3397e-06	424.1	143.64	124.48	42.59	6.0401e-06	52.718	0.00044411	0.00038759	0.00010672	1372.4	4.1328e-06	4.0873e-06	1373.9	377.78	4.1972e-06	4.0236e-06	431.37	146.49	127.22	43.797	4.2409e-06	54.088	258.213	233.767	249.641	157.981	304.661	364.446	157.880	162.779	317.704	300.350	161.811	166.453	167.090	171.555	305.572	170.738	-8191	255	
18084.225	1	1	0	0	0.10605	0.22065	0.068625	0.15474	0.1628	0.07722	0.23131	0.27459	0.14882	0.11123	0.17484	0.27111	0.10152	0.027427	0.29585	0.28962	-2.4917	-3.0667	-2.6729	-2.9875	-2.9458	-2.65	-3.3083	-2.9229	-2.8521	-2.9979	-2.6813	-3.2146	-3.1708	-2.6771	-3.1771	-2.8625	159.837	282.407	324.940	272.757	290.151	503.040	457.568	367.397	428.620	247.269	436.494	458.246	430.311	405.528	403.961	500.289	0.00060508	0.00046599	0.00017746	1344.1	5.1625e-06	6.227e-06	1349.1	369.17	4.005e-06	4.0059e-06	420.78	141.78	123.56	42.188	6.5358e-06	51.993	0.00043198	0.00036457	0.00010293	1364.9	4.015e-06	4.1417e-06	1367.3	375.35	4.1886e-06	4.0192e-06	427.74	144.91	125.94	43.275	4.2754e-06	53.465	258.192	223.070	226.232	158.208	285.453	312.883	157.906	162.722	304.345	295.488	162.054	166.630	167.038	171.787	308.229	171.043	-8191	255	
18084.320	1	1	0	0	0.022367	0.085289	0.17426	0.32951	0.091298	0.087086	0.25163	0.41381	0.22227	0.030575	0.15779	0.16637	0.20995	0.15089	0.070885	0.15962	-2.3625	-2.9604	-2.4896	-2.9437	-2.9729	-2.8	-3.0833	-2.9271	-2.8812	-3.2146	-2.8187	-2.9625	-3.0438	-2.6063	-3.1771	-2.9625	322.602	194.753	262.764	470.040	263.946	390.741	148.206	447.128	278.092	448.869	468.241	459.579	441.049	388.318	465.672	157.553	0.00056543	0.00036054	9.8801e-05	1345.8	4.3344e-06	4.3719e-06	1342.4	366.29	3.5236e-06	5.062e-06	418.74	141.02	123.06	42.229	6.4533e-06	52.29	0.00043641	0.00037444	0.00010986	1360.2	4.1994e-06	4.2506e-06	1360.5	373.36	4.2038e-06	4.2167e-06	425.96	144.47	125.51	43.283	4.2017e-06	53.657	258.318	238.933	204.402	158.070	295.873	308.361	157.811	162.830	318.037	300.609	161.904	166.846	167.032	171.801	296.423	170.716	-8191	255	
18084.393	1	1	0	0	0.43098	0.15019	0.073212	0.13228	0.22971	0.27589	0.30692	0.17464	0.19769	0.2311	0.097096	0.26666	0.39214	0.23193	0.12516	0.018112	-2.2896	-3.1021	-2.9167	-3.0812	-2.8812	-2.6437	-3.0792	-2.95	-2.7729	-3.1708	-2.8583	-2.9542	-3.2292	-2.7438	-3.0208	-3.0292	330.070	458.618	305.802	166.925	487.268	384.682	330.036	446.532	379.252	461.872	430.586	465.455	496.115	434.627	488.059	372.213	0.00057979	0.00052383	0.00015459	1339.9	3.5496e-06	6.1887e-06	1341.4	367.51	4.6268e-06	7.0943e-06	417.03	141.64	123.35	42.182	7.2712e-06	52.136	0.00043171	0.00037155	0.00010381	1360	3.9048e-06	3.9786e-06	1361.3	373.65	4.0474e-06	4.0182e-06	426.45	144.76	125.91	43.38	4.0951e-06	53.754	259.667	236.311	247.054	157.874	321.798	307.010	158.013	162.720	307.521	310.848	162.114	166.921	167.168	171.690	308.012	170.483	-8191	255	
18084.512	1	1	0	0	0.17573	0.12208	0.1764	0.10681	0.10852	0.11449	0.19764	0.024128	0.15815	0.063641	0.22577	0.20328	0.19174	0.22958	0.077929	0.3033	-2.3729	-3.0812	-2.7771	-2.6458	-2.8917	-2.7438	-3.1729	-3.0625	-2.6979	-2.9396	-2.7917	-2.6583	-3.0687	-2.7083	-2.9271	-2.9313	269.228	383.944	254.744	424.535	217.308	218.640	435.666	330.542	214.543	194.182	145.758	174.667	236.340	158.081	368.067	433.966	0.00059249	0.00035581	0.00014495	1341	4.8934e-06	3.5377e-06	1342.7	366.87	4.8296e-06	6.6071e-06	418.36	142.05	123.26	42.103	5.4171e-06	52.312	0.00042978	0.00036062	0.00010437	1356.5	3.9036e-06	3.8595e-06	1359.7	373.22	4.0116e-06	3.8799e-06	426.33	145.11	125.78	43.417	4.1045e-06	53.718	257.016	245.248	244.897	158.382	287.261	284.138	158.114	162.563	309.711	306.026	162.137	166.499	167.174	171.614	295.209	170.858	-8191	255	
18084.607	1	1	0	0	0.089535	0.082204	0.09293	0.10561	0.13558	0.12639	0.22035	0.33437	0.10471	0.093392	0.42307	0.19306	0.20895	0.22025	0.21509	0.046732	-2.15	-2.9417	-2.7292	-2.8583	-2.95	-2.7167	-2.8563	-3.0521	-2.3979	-2.9083	-2.8521	-2.6417	-3.1042	-2.7646	-2.8771	-3.1021	287.636	307.690	403.714	457.025	391.589	442.939	346.459	458.978	410.530	308.299	453.806	454.349	501.671	465.323	234.673	320.702	0.00057155	0.00068538	0.00012172	1338.7	6.4063e-06	4.655e-06	1339.7	366.12	5.3103e-06	6.3769e-06	418.67	141.71	123.05	42.189	3.0518e-06	52.304	0.00042471	0.00037127	0.00010065	1353.8	4.0109e-06	3.9264e-06	1359.1	372.72	4.0672e-06	3.9701e-06	425.68	144.69	125.64	43.372	3.9896e-06	53.746	260.067	252.949	254.807	158.280	318.566	294.455	158.065	162.814	308.152	313.129	162.074	166.775	167.090	171.335	275.694	170.722	-8191	255	
18084.703	1	1	0	0	0.1391	0.18419	0.041444	0.26158	0.238	0.17196	0.15639	0.1251	0.074053	0.22906	0.039965	0.33165	0.13642	0.17541	0.17498	0.19224	-2.35	-2.9646	-2.8625	-2.6458	-2.9708	-2.8688	-2.7125	-3.2375	-2.5833	-3.0812	-3.0917	-2.8563	-2.9813	-2.6854	-2.7292	-3.075	285.234	250.810	156.956	426.202	180.502	462.887	479.346	335.426	240.844	166.581	282.696	458.879	212.345	164.626	438.873	463.720	0.00058099	0.00044454	6.5267e-05	1333.8	3.9792e-06	4.8767e-06	1337.7	366.46	4.8478e-06	7.7709e-06	419.38	142.16	123.78	42.086	5.1828e-06	52.185	0.00042688	0.00035259	9.7584e-05	1351.7	3.921e-06	3.8687e-06	1358.1	373.1	3.965e-06	3.8095e-06	425.87	144.86	126.06	43.373	3.9824e-06	53.624	258.566	233.656	237.614	158.023	291.381	299.423	158.214	162.742	311.967	318.137	161.943	166.467	167.113	171.710	292.263	170.889	-8191	255	
18084.824	1	1	0	0	0.26322	0.14339	0.053158	0.10951	0.21434	0.16595	0.15571	0.21157	0.2206	0.03229	0.094829	0.22395	0.13531	0.22331	0.32377	0.14466	-2.0583	-2.7625	-2.7125	-2.8042	-2.9479	-2.975	-2.8021	-3.2479	-2.5438	-2.8771	-3.0875	-2.6229	-3.1625	-2.6521	-2.7146	-3.0667	149.986	498.788	286.575	254.340	381.124	334.102	436.993	446.765	248.677	398.122	340.593	380.250	466.322	436.073	367.612	199.560	0.00057197	0.00053676	0.00015586	1339.4	4.7764e-06	5.7861e-06	1338	365.63	6.5028e-06	6.5038e-06	419.43	142.34	123.69	42.329	5.9015e-06	52.408	0.00041647	0.00035261	9.8407e-05	1351.5	3.8286e-06	3.8796e-06	1355.3	372.72	3.9913e-06	3.8624e-06	426.19	144.98	125.93	43.457	3.9732e-06	53.798	257.592	222.138	248.978	158.314	293.793	304.860	158.202	162.758	306.733	307.413	162.239	166.632	167.036	171.555	283.527	170.805	-8191	255	
18084.920	1	1	0	0	0.21093	0.13753	0.077429	0.22075	0.22404	0.082937	0.21159	0.26388	0.1372	0.13492	0.2886	0.095661	0.16177	0.27189	0.23285	0.067427	-2.1729	-2.9062	-2.9437	-2.5979	-2.9042	-2.7188	-2.8937	-3.1437	-2.6167	-2.6354	-2.9729	-2.6646	-3.0438	-2.7604	-2.6083	-3.1792	461.408	493.028	339.723	450.681	341.155	282.539	441.390	474.769	318.999	188.566	463.192	363.500	456.653	475.308	284.229	476.722	0.00058331	0.00047843	0.00014597	1339	4.8888e-06	5.8433e-06	1339.9	366.89	4.7268e-06	3.9375e-06	418.99	141.97	123.06	42.289	6.0755e-06	52.254	0.00041084	0.00035035	9.8638e-05	1352.7	3.8948e-06	3.8365e-06	1357.8	373.18	3.8604e-06	3.8264e-06	426.48	144.92	125.84	43.473	3.9683e-06	53.668	258.962	223.121	249.103	158.004	310.238	308.287	158.039	162.764	303.093	307.048	162.362	166.650	167.105	171.505	291.354	170.772	-8191	255	
18084.992	1	1	0	0	0.065394	0.098163	0.13314	0.1643	0.053297	0.26788	0.49224	0.33377	0.16926	0.34087	0.041828	0.20857	0.16845	0.29477	0.1708	0.1179	-2.2208	-2.5625	-2.9854	-2.6479	-2.8792	-2.8833	-2.8708	-3.0979	-2.7188	-2.7854	-2.9625	-2.7146	-2.9479	-2.9625	-2.6958	-3.1396	367.729	266.568	209.298	425.418	331.113	500.114	448.680	412.412	223.524	153.802	365.731	441.891	455.072	323.222	409.660	394.071	0.00059178	0.00052778	0.00013988	1341.9	5.9155e-06	5.1801e-06	1338.7	367.42	4.6035e-06	5.2803e-06	418.55	141.89	123.6	42.163	5.2798e-06	52.171	0.00042185	0.00034784	9.6953e-05	1353.9	3.796e-06	3.8687e-06	1355.6	373.35	3.9166e-06	3.9557e-06	425.99	144.9	126.05	43.383	4.0985e-06	53.56	257.300	239.729	253.842	158.225	306.708	306.955	157.952	162.872	311.835	295.362	162.079	166.664	167.185	171.209	307.893	170.853	-8191	255	
18085.113	1	1	0	0	0.089547	0.030198	0.1483	0.25979	0.1218	0.082075	0.21398	0.058031	0.18059	0.018444	0.4217	0.050987	0.13557	0.3069	0.15408	0.078584	-2.2979	-2.7792	-2.8875	-2.6354	-2.7562	-2.9854	-2.7271	-3.1792	-2.6604	-2.7687	-2.9938	-2.7896	-2.8104	-3.025	-2.5771	-2.9979	173.962	160.556	439.008	451.905	264.282	201.737	492.993	191.389	211.506	288.920	427.135	279.063	172.265	463.377	326.737	417.693	0.00054437	0.00062553	0.00014857	1334.8	4.9163e-06	6.1825e-06	1335.6	366.04	4.5702e-06	4.5796e-06	419.57	141.6	123.26	42.247	4.7943e-06	52.276	0.00042526	0.00036128	0.00010049	1350.5	3.8797e-06	3.9259e-06	1354.2	372.21	4.0353e-06	3.9913e-06	425.49	144.53	125.64	43.365	3.9671e-06	53.709	260.762	233.571	242.023	158.280	285.042	297.044	157.958	162.797	306.984	294.871	162.265	166.722	167.146	171.470	289.686	170.817	-8191	255	
18085.209	1	1	0	0	0.21391	0.1786	0.15854	0.11073	0.2874	0.24861	0.38933	0.32363	0.24828	0.06583	0.13201	0.25955	0.30882	0.37234	0.146	0.31323	-2.15	-2.6208	-3.2208	-2.7729	-2.8937	-2.9938	-2.8417	-2.8979	-2.975	-2.6479	-3.0979	-2.8271	-2.8125	-3.0083	-2.6542	-3.0229	381.951	333.674	393.394	423.677	276.051	429.781	439.996	430.804	431.589	348.834	168.890	388.991	458.645	449.227	210.208	426.002	0.00054777	0.00065949	0.00015458	1334.2	6.3018e-06	4.4826e-06	1335.6	367.47	4.0539e-06	5.6236e-06	418.81	141.75	123	42.191	5.6353e-06	52.002	0.00042396	0.00036311	9.7425e-05	1352.2	3.934e-06	3.8112e-06	1354.1	372.54	4.0179e-06	3.7879e-06	425.73	144.56	125.47	43.308	3.9982e-06	53.532	259.184	235.877	242.073	158.127	293.817	302.081	157.989	162.862	296.363	306.236	162.178	166.430	167.104	171.682	300.472	170.818	-8191	255	
18085.305	1	1	0	0	0.12147	0.10009	0.13906	0.25259	0.13301	0.1089	0.19873	0.14912	0.20981	0.22068	0.24146	0.44142	0.27464	0.1241	0.1379	0.17476	-2.525	-2.5458	-2.9437	-2.7562	-2.7917	-2.9938	-2.8	-3.025	-3.0375	-2.7833	-3.0146	-2.7313	-2.9333	-3.0458	-2.6396	-2.9208	275.476	454.163	347.551	455.657	443.035	412.353	449.811	153.328	158.502	461.137	463.237	151.589	462.575	428.997	443.720	466.835	0.00062124	0.00030151	0.00012159	1337.2	4.5081e-06	5.6859e-06	1336.1	364.46	5.4972e-06	4.9607e-06	417.61	141.91	122.54	42.374	4.3915e-06	52.152	0.00042561	0.00035444	0.00010069	1346.8	3.8252e-06	3.8262e-06	1355.4	371.79	3.9971e-06	3.9458e-06	425.7	144.42	125.3	43.28	3.9562e-06	53.525	257.612	251.687	218.854	158.132	304.237	305.036	157.998	162.686	292.241	322.874	162.066	166.708	167.402	171.452	309.077	170.711	-8191	255	
18085.424	1	1	0	0	0.11323	0.2269	0.2402	0.01117	0.15446	0.10462	0.10185	0.24494	0.11453	0.12986	0.35718	0.1985	0.20694	0.18663	0.29228	0.070434	-2.45	-2.3542	-3.0187	-2.8563	-2.7125	-3.0042	-2.7875	-3.0146	-3.0062	-2.6521	-2.9646	-2.9417	-2.7125	-3.0104	-2.6292	-2.8396	408.677	234.057	337.928	221.189	232.335	469.883	346.204	490.900	329.732	314.715	442.661	354.780	487.748	493.282	418.445	446.984	0.00058034	0.00024712	0.00011811	1338.5	4.977e-06	5.8097e-06	1340.1	366.71	6.2092e-06	2.2303e-06	418.26	141.68	123.18	42.054	5.5459e-06	52.037	0.00040893	0.00035096	9.4956e-05	1350.6	3.9909e-06	3.7065e-06	1355.5	372.71	3.9299e-06	3.6844e-06	425.32	144.76	125.59	43.281	3.8505e-06	53.616	258.546	246.927	245.125	158.250	297.240	305.872	158.046	162.830	306.536	303.028	162.236	166.590	167.128	171.662	327.031	170.820	-8191	255	
18085.520	1	1	0	0	0.15807	0.15947	0.16545	0.30814	0.10288	0.24487	0.35348	0.10435	0.23764	0.054185	0.15867	0.43628	0.11494	0.15579	0.10872	0.20334	-2.5146	-2.4896	-2.8729	-2.9708	-2.7292	-3.0062	-2.9458	-2.775	-2.85	-2.5167	-3.0792	-2.9792	-2.8229	-3.0729	-2.7917	-2.9313	207.095	331.839	262.609	489.979	403.058	498.306	437.793	472.738	278.982	302.387	448.612	479.487	494.802	352.164	431.137	456.623	0.00055615	0.00050839	0.0001306	1336.5	5.6694e-06	5.4993e-06	1333.9	365.88	5.1388e-06	6.8211e-06	416.97	142.38	123.29	42.436	4.4413e-06	52.405	0.00041266	0.00034817	9.2991e-05	1349.6	3.8098e-06	3.7777e-06	1352	372.73	3.85e-06	3.7645e-06	425.71	145.01	125.8	43.518	3.803e-06	53.741	258.196	208.819	211.494	158.188	301.479	299.744	157.957	162.711	294.305	315.971	162.133	166.700	167.134	171.668	290.880	170.762	-8191	255	
18085.615	1	1	0	0	0.10553	0.19212	0.11858	0.13316	0.085307	0.20651	0.31947	0.11113	0.23662	0.11467	0.049149	0.15931	0.20653	0.10507	0.086264	0.24696	-2.5979	-2.6479	-2.7854	-2.7938	-2.6188	-2.8312	-2.9375	-2.7396	-2.9146	-2.6646	-3.0333	-2.8937	-2.7771	-3.0958	-2.7958	-2.6604	173.828	433.573	454.876	184.819	408.451	182.438	414.005	303.468	359.043	179.626	491.632	243.805	469.174	487.299	471.202	381.958	0.00059564	0.0004818	0.00012925	1329.9	5.5412e-06	4.7792e-06	1336.6	365.53	5.6053e-06	5.4536e-06	418.54	142.24	123.2	42.198	6.5e-06	52.398	0.00040742	0.00033533	9.4615e-05	1350.7	3.7534e-06	3.7447e-06	1354.2	372.52	3.8731e-06	3.8314e-06	425.94	144.96	125.96	43.391	3.8307e-06	53.669	256.167	237.633	229.874	158.017	291.695	315.497	158.086	162.843	313.077	288.172	162.188	166.667	167.336	171.881	289.521	170.805	-8191	255	
18085.688	1	1	0	0	0.053861	0.11123	0.32947	0.1662	0.10029	0.072231	0.2721	0.029195	0.18029	0.31823	0.16572	0.13527	0.10552	0.21171	0.11643	0.11948	-2.5625	-2.5583	-2.9167	-3.0917	-2.5854	-2.8646	-3.0479	-2.8208	-2.9062	-2.6708	-2.8958	-2.9375	-2.7125	-2.8354	-2.8958	-2.7792	417.639	209.107	448.576	364.030	229.558	385.154	184.641	382.789	487.329	372.803	494.621	491.596	422.555	151.287	476.371	471.454	0.00056024	0.00036189	0.00016734	1332.8	5.6703e-06	6.191e-06	1333.5	367.22	3.4448e-06	6.1185e-06	419.34	141.58	123.05	42.41	6.3092e-06	52.264	0.00040265	0.00034648	9.4725e-05	1349	3.6897e-06	3.7771e-06	1353	373.31	3.9605e-06	3.7082e-06	425.99	144.91	125.75	43.482	3.7397e-06	53.728	258.160	270.870	251.826	158.066	305.796	302.831	158.023	162.817	316.051	308.253	162.037	166.661	167.255	171.607	297.576	170.650	-8191	255	
18085.809	1	1	0	0	0.01922	0.14923	0.12616	0.010697	0.22235	0.090162	0.30971	0.32798	0.11232	0.074115	0.076038	0.049535	0.17929	0.18145	0.26142	0.2316	-2.5958	-2.6083	-2.6792	-3.0625	-2.5062	-2.8292	-2.8563	-2.7542	-2.9521	-2.6042	-2.6937	-3.0979	-2.7479	-2.8896	-2.8792	-2.7646	342.876	312.799	297.685	325.839	382.617	329.373	460.824	389.165	200.256	284.500	400.387	239.226	443.190	496.819	229.332	460.635	0.00054497	0.00047772	0.00014049	1341.2	5.784e-06	5.6643e-06	1332.2	366.26	5.028e-06	4.3849e-06	419.17	142.51	123.67	42.352	3.5762e-06	52.599	0.00040381	0.00033583	9.5872e-05	1352.6	3.7055e-06	3.6658e-06	1353.6	372.96	3.76e-06	3.7243e-06	425.99	145.16	126.16	43.449	3.677e-06	53.773	256.974	230.903	244.558	158.386	316.360	323.274	158.068	162.989	306.775	291.281	162.126	166.663	167.421	171.577	286.522	170.581	-8191	255	
18085.904	1	1	0	0	0.15607	0.15777	0.21653	0.095607	0.081471	0.31777	0.22655	0.020454	0.23588	0.070341	0.13411	0.040361	0.086022	0.11509	0.13225	0.23908	-2.4792	-2.7438	-2.4	-3.2271	-2.7604	-2.8375	-3.0062	-2.7542	-2.8479	-2.9208	-2.7292	-3.0729	-2.7938	-2.9917	-3.0187	-2.6521	177.882	236.160	362.157	360.519	211.949	152.825	444.936	189.198	314.958	378.328	146.882	317.945	499.644	209.061	284.297	277.782	0.00058158	0.00048598	0.00010485	1338.5	7.576e-06	4.3472e-06	1335.9	364.78	5.6065e-06	7.0471e-06	419.06	142.58	124.1	42.466	6.7666e-06	52.181	0.00040418	0.0003361	9.2629e-05	1351.6	3.7447e-06	3.6498e-06	1353.8	372.78	3.7689e-06	3.6597e-06	425.85	145.19	125.95	43.513	3.856e-06	53.697	261.891	239.160	236.828	158.100	293.972	303.057	157.991	162.857	304.503	300.151	162.110	166.750	167.354	171.790	289.867	170.604	-8191	255	
18086.002	1	1	0	0	0.17616	0.22342	0.1807	0.22963	0.27653	0.23846	0.12915	0.29201	0.22476	0.098168	0.22871	0.27029	0.061706	0.15232	0.16619	0.23703	-2.5292	-2.7333	-2.5021	-3.0812	-2.7396	-2.7854	-3.1979	-2.875	-2.8646	-2.8646	-2.6833	-2.8896	-2.85	-2.8354	-2.9708	-2.7583	476.242	442.212	216.595	440.275	181.354	320.814	422.119	443.700	189.375	409.201	494.955	474.466	366.173	184.846	395.043	437.918	0.00059076	0.00052672	0.00011115	1342.1	5.6935e-06	5.167e-06	1337.4	368.07	4.7038e-06	4.4383e-06	418.7	142.82	124.3	42.53	3.1784e-06	52.556	0.00041005	0.00033592	9.32e-05	1351.4	3.7498e-06	3.6793e-06	1355.2	373.94	3.797e-06	3.6584e-06	426.84	145.51	126.21	43.632	3.7531e-06	53.944	257.643	216.762	237.522	158.269	316.687	277.050	158.018	162.863	324.122	315.250	162.131	166.589	167.231	171.470	286.381	170.769	-8191	255	
18086.098	1	1	0	0	0.20096	0.062984	0.25671	0.1465	0.07123	0.11698	0.29802	0.28299	0.17227	0.093674	0.29223	0.22906	0.15768	0.19091	0.23627	0.26909	-2.5375	-2.6604	-2.6021	-2.9542	-2.5854	-2.6542	-3.0187	-2.7021	-2.9542	-2.8438	-2.8438	-3.0875	-2.8187	-2.75	-2.9062	-2.6792	182.176	200.359	329.360	161.327	283.073	400.225	472.801	473.118	184.096	286.964	470.085	477.032	196.626	145.693	373.689	402.568	0.00058809	0.00047698	0.00015306	1332.7	4.3585e-06	2.9165e-06	1338.6	368.11	5.6344e-06	4.9378e-06	419.63	142.67	124.21	42.499	6.5709e-06	52.601	0.00040473	0.00032774	9.2475e-05	1352.6	3.5734e-06	3.6907e-06	1357.7	374.13	3.7261e-06	3.5382e-06	426.71	145.76	126.37	43.623	3.8588e-06	53.916	261.362	231.515	235.521	157.943	319.010	303.655	158.110	162.715	303.005	304.466	162.105	166.685	167.200	171.755	294.461	170.469	-8191	255	
18086.219	1	1	0	0	0.11592	0.089847	0.27235	0.22396	0.23969	0.23801	0.35697	0.23063	0.19349	0.080294	0.09415	0.35987	0.092658	0.079755	0.11035	0.1945	-2.4292	-2.8187	-2.5917	-2.9521	-2.6917	-2.6125	-3.1292	-2.775	-2.8083	-3.0167	-2.7833	-3.0479	-2.9792	-2.7146	-3	-2.6708	477.695	281.637	267.785	433.362	318.429	270.165	438.869	229.905	455.405	477.466	384.225	478.170	441.737	195.664	284.392	383.210	0.00056771	0.00051424	0.00010375	1327.9	5.2925e-06	5.2136e-06	1339.1	367.78	7.3565e-06	6.2315e-06	418.98	143.67	124.37	42.693	4.3533e-06	52.878	0.000407	0.00033643	9.2695e-05	1350	3.6592e-06	3.7602e-06	1357.6	374.04	3.8652e-06	3.609e-06	427.46	146.16	126.83	43.811	3.7371e-06	54.132	258.394	226.025	214.460	158.402	312.060	289.667	157.995	162.811	296.134	291.709	162.102	166.609	167.034	171.592	315.015	170.688	-8191	255	
18086.289	1	1	0	0	0.092534	0.067272	0.062464	0.19764	0.35664	0.191	0.31757	0.3261	0.29969	0.23405	0.30259	0.18004	0.26046	0.25326	0.15893	0.28981	-2.1875	-2.8229	-2.6021	-3.0354	-2.8438	-2.7625	-3.3021	-2.8333	-2.7792	-3.0708	-2.7333	-3.1729	-3.0396	-2.5917	-3.0625	-2.7938	225.440	184.237	248.191	503.084	441.064	325.264	451.566	435.570	497.984	450.803	439.517	174.567	412.929	345.134	196.134	462.275	0.00056633	0.00042862	0.00016153	1341.3	4.1347e-06	4.8223e-06	1341.6	368.58	4.8857e-06	2.7263e-06	421.49	143.64	124.1	42.665	5.6368e-06	52.751	0.00040508	0.00034033	9.0532e-05	1355.4	3.6594e-06	3.5958e-06	1358.3	374.52	3.7641e-06	3.6343e-06	427.92	146.28	126.77	43.871	3.752e-06	54.188	258.840	220.497	249.356	158.269	294.024	310.030	157.779	162.751	304.416	310.081	162.256	166.492	167.118	171.534	294.252	170.546	-8191	255	
18086.385	1	1	0	0	0.22792	0.18694	0.20118	0.083714	0.0688	0.047343	0.14494	0.1755	0.15298	0.19128	0.36751	0.12399	0.060342	0.35228	0.34086	0.15208	-2.3958	-2.975	-2.3812	-2.8792	-2.825	-2.6083	-3.1854	-2.7396	-2.7812	-2.7812	-2.8333	-2.9271	-2.9458	-2.5563	-3.0667	-2.8688	313.167	408.993	152.753	183.761	383.689	460.453	395.362	148.939	240.492	168.303	470.957	171.025	158.266	503.794	448.826	200.458	0.0005684	0.00040751	0.0001455	1333.9	5.475e-06	4.589e-06	1339	370.15	4.7046e-06	3.7364e-06	421.86	143.45	124.45	42.773	3.8564e-06	52.935	0.00040511	0.00033297	9.5757e-05	1354.2	3.6897e-06	3.5956e-06	1360.3	375.8	3.8825e-06	3.6638e-06	429.09	146.61	127.22	43.946	3.7812e-06	54.277	258.975	235.375	220.350	158.201	327.813	305.395	158.221	162.770	315.421	325.824	162.031	166.633	166.907	171.415	309.014	170.770	-8191	255	
18086.506	1	1	0	0	0.14495	0.14726	0.15347	0.35714	0.098718	0.16046	0.30126	0.2856	0.059528	0.38052	0.23712	0.21847	0.17962	0.23908	0.18897	0.2695	-2.1583	-3.0646	-2.6646	-2.6854	-2.725	-2.5521	-3.0187	-3.0438	-2.6625	-3.1271	-2.8063	-2.7188	-3.0438	-2.7125	-2.9042	-2.9167	238.396	459.045	241.605	158.393	363.861	180.534	392.000	469.786	362.196	308.989	407.772	482.603	484.795	450.167	447.923	393.131	0.00058684	0.00043179	0.00015464	1337.1	4.3137e-06	6.4716e-06	1348.9	370.21	5.5518e-06	2.8149e-06	420.32	144.19	125.31	43.09	5.9795e-06	53.156	0.0004108	0.00034035	9.4341e-05	1359.6	3.704e-06	3.6837e-06	1363.4	376.18	3.8068e-06	3.6968e-06	429.44	147.11	127.75	44.168	3.8435e-06	54.501	257.511	217.692	246.278	158.163	293.908	305.074	157.883	162.851	316.895	302.234	161.961	166.821	167.094	171.541	293.051	170.950	-8191	255	
18086.600	1	1	0	0	0.29428	0.26181	0.068891	0.2682	0.17434	0.40338	0.063698	0.293	0.084517	0.035079	0.37362	0.28549	0.0687	0.15646	0.082946	0.31089	-2.2062	-2.775	-2.6125	-2.7479	-2.8896	-2.4792	-3.0604	-3.0771	-2.6146	-2.8333	-2.7708	-2.6771	-3.1063	-2.7771	-2.825	-3.1375	375.870	453.783	282.405	168.031	323.327	375.848	467.114	470.219	478.742	462.297	480.068	452.460	200.709	307.217	383.588	195.945	0.00055945	0.00042126	0.00010708	1344.7	6.1231e-06	6.1e-06	1349.6	370.73	4.7813e-06	5.3008e-06	422.79	144.72	125.37	43.07	4.81e-06	53.028	0.00040244	0.0003348	9.3446e-05	1359.4	3.7794e-06	3.5965e-06	1364.8	377.04	3.7356e-06	3.6597e-06	430.41	147.34	127.8	44.183	3.8844e-06	54.361	258.800	228.590	248.306	158.427	282.939	285.371	158.083	162.851	326.821	331.200	162.137	166.612	166.833	171.519	293.363	170.523	-8191	255	
18086.697	1	1	0	0	0.15853	0.099155	0.35384	0.4774	0.070481	0.052456	0.15778	0.18296	0.027425	0.14393	0.1065	0.072724	0.090182	0.08548	0.27183	0.2306	-2.1813	-2.8812	-2.6229	-2.5687	-2.9688	-2.75	-2.9458	-2.9521	-2.6063	-2.9667	-2.9104	-2.7542	-3.1521	-2.8688	-2.7375	-3.0896	361.572	328.493	317.799	485.975	304.492	290.072	149.605	457.096	323.328	298.439	434.150	441.737	485.520	272.230	255.143	249.968	0.00059071	0.00051396	0.0001696	1346.5	5.6451e-06	5.6751e-06	1350.9	370.7	5.5999e-06	5.8416e-06	422.9	143.93	125.32	42.995	5.8204e-06	52.979	0.0004058	0.00033913	9.7442e-05	1361.2	3.8045e-06	3.877e-06	1367.7	376.78	3.9133e-06	3.7785e-06	430.65	147.03	127.67	44.134	3.9581e-06	54.449	255.354	246.023	235.008	158.229	295.103	290.431	158.048	162.947	315.599	329.450	162.033	166.548	167.089	171.377	293.885	170.517	-8191	255	
18086.793	1	1	0	0	0.22993	0.26781	0.21044	0.17553	0.15868	0.12359	0.13767	0.16065	0.19422	0.13786	0.032958	0.22387	0.27224	0.18339	0.29432	0.24045	-2.2687	-2.6312	-2.8292	-2.7542	-2.8458	-2.6917	-2.9938	-3.0292	-2.5708	-3.0438	-2.7729	-2.7104	-3.0083	-2.7583	-2.9188	-3.2583	422.743	297.183	230.053	159.374	358.360	385.808	220.629	426.290	218.574	417.297	155.286	407.931	447.817	389.713	468.859	153.327	0.0005937	0.00053966	0.00016797	1347.8	5.2355e-06	6.265e-06	1353.1	370.39	5.7653e-06	5.5262e-06	423.17	144.07	125.2	43.182	5.6456e-06	52.79	0.00042464	0.00035287	9.8254e-05	1365.1	3.8808e-06	3.9126e-06	1370.4	376.79	3.9511e-06	3.9063e-06	430.95	147.07	127.68	44.111	3.9994e-06	54.342	257.774	218.936	227.645	158.179	292.164	300.786	157.913	162.873	291.562	299.762	161.932	166.561	167.105	171.527	291.607	170.679	-8191	255	
18086.889	1	1	0	0	0.038241	0.10399	0.060469	0.22386	0.24042	0.14593	0.17821	0.22473	0.28845	0.097418	0.19861	0.065884	0.0898	0.27823	0.11294	0.17416	-2.2667	-2.8396	-2.7479	-2.6083	-2.9479	-2.8	-2.7875	-3.1833	-2.6292	-2.9375	-3.1021	-2.7583	-2.8583	-2.7458	-2.7	-3.0708	199.217	331.611	207.205	459.021	370.198	243.497	478.805	451.525	435.058	404.188	481.688	145.867	498.205	476.668	361.996	153.519	0.0005683	0.00057285	0.00014551	1357.5	4.6469e-06	3.0472e-06	1350.4	369.95	5.9747e-06	4.6157e-06	424.21	144.26	124.77	42.894	5.2594e-06	52.975	0.00041916	0.00035259	9.8819e-05	1365.8	3.8588e-06	3.8518e-06	1367.3	376.61	4.057e-06	3.8078e-06	430.34	147.02	127.39	44.054	4.0009e-06	54.334	261.439	244.615	232.333	158.403	306.934	267.877	157.824	162.738	298.060	321.248	162.005	166.824	166.963	171.540	298.123	170.607	-8191	255	
18086.984	1	1	0	0	0.31664	0.057125	0.082317	0.053113	0.064166	0.33514	0.41126	0.19922	0.21406	0.15404	0.17532	0.26397	0.23352	0.16292	0.14999	0.19576	-2.2917	-2.8187	-2.825	-2.6375	-2.8479	-2.7792	-2.8229	-3.1375	-2.7646	-2.725	-2.8667	-2.4708	-2.9271	-2.6875	-2.6792	-3.2042	147.366	392.172	485.152	322.410	310.213	408.643	395.213	368.801	427.101	197.015	377.500	176.213	384.249	497.422	318.322	462.887	0.00056981	0.000525	0.0001509	1350.7	5.2777e-06	3.6277e-06	1346.2	369.11	4.0277e-06	6.26e-06	419.72	142.27	124.29	42.618	5.5444e-06	52.608	0.00041534	0.00035134	9.6613e-05	1363.6	3.8963e-06	3.856e-06	1363.5	375.67	4.026e-06	4.0265e-06	428.22	145.65	126.6	43.717	4.064e-06	53.975	257.260	237.939	251.347	158.325	299.445	316.196	157.896	162.753	305.828	288.336	162.012	166.816	167.188	171.620	291.371	170.555	-8191	255	
18087.105	1	1	0	0	0.094181	0.16641	0.30639	0.059847	0.21938	0.18532	0.14031	0.14161	0.11612	0.14226	0.057128	0.17777	0.27254	0.10833	0.26886	0.18279	-2.1333	-2.7042	-2.7917	-2.625	-2.8063	-2.7604	-2.6083	-2.9771	-2.7104	-2.7458	-2.9854	-2.8083	-3.0521	-2.9646	-2.5208	-3.0979	170.529	150.312	318.590	466.799	164.715	416.271	281.101	473.946	446.782	259.147	422.214	196.227	151.232	203.566	169.821	169.105	0.0005742	0.00055642	0.00018543	1336.2	3.986e-06	3.414e-06	1346.4	367.68	4.2731e-06	6.2139e-06	419.98	142.25	123.57	42.68	4.6998e-06	52.492	0.00042654	0.00037279	0.00010192	1357.1	4.0674e-06	4.1002e-06	1364.3	374.19	4.2317e-06	4.1379e-06	427.22	145.37	126.34	43.645	4.2978e-06	53.963	258.972	242.923	247.037	158.029	314.819	329.367	157.877	162.837	307.638	307.241	161.996	166.427	167.095	171.746	319.695	170.629	-8191	255	
18087.201	1	1	0	0	0.13997	0.16039	0.17681	0.27945	0.22826	0.12047	0.19225	0.061132	0.072273	0.26174	0.16731	0.17725	0.11194	0.040102	0.1111	0.14282	-2.5146	-2.5687	-2.9354	-2.6562	-2.9958	-2.8833	-2.9604	-3.1917	-2.7896	-2.8625	-3.1271	-2.7917	-2.95	-3.0625	-2.6708	-3.1021	433.065	238.353	455.118	454.146	151.161	354.974	332.223	203.068	158.088	287.587	233.143	452.620	159.484	244.656	474.358	288.297	0.00059174	0.00052117	0.00017813	1349.2	5.4346e-06	5.9594e-06	1352.6	369.91	6.9639e-06	4.1576e-06	423.89	144.61	125.75	43.319	4.6661e-06	53.325	0.00044316	0.00038051	0.00010579	1366.6	4.0603e-06	4.0306e-06	1371.5	377	4.0491e-06	4.0109e-06	431.22	147.51	128.47	44.477	3.9276e-06	54.837	256.001	195.740	243.598	157.929	303.222	304.945	158.005	162.897	318.488	312.904	161.930	166.660	166.934	171.399	282.173	170.805	-8191	255	
18087.299	1	1	0	0	0.043926	0.047723	0.079528	0.17439	0.27993	0.16606	0.13072	0.20581	0.26122	0.1998	0.19745	0.25725	0.22363	0.19764	0.25965	0.12761	-2.4479	-2.5979	-3.0417	-2.7146	-2.6479	-2.8438	-2.8063	-2.9375	-2.7396	-2.6562	-3.0229	-2.7354	-2.6854	-2.9437	-2.5854	-2.8646	285.223	389.274	479.936	161.842	455.520	326.880	164.766	428.370	293.127	228.132	415.468	437.522	451.278	403.712	292.849	457.969	0.00060349	0.00056547	8.1434e-05	1356	5.7723e-06	5.705e-06	1356.2	373.07	4.1591e-06	7.7874e-06	425.01	145.28	126.61	43.518	6.722e-06	53.755	0.00041205	0.00033706	9.4182e-05	1374.4	3.773e-06	3.6557e-06	1376.1	379.39	3.8128e-06	3.6059e-06	433.64	148.42	129.05	44.62	3.7537e-06	55.007	259.089	223.835	217.534	158.127	283.798	301.119	158.012	162.803	299.496	299.731	162.061	166.714	166.936	171.449	302.392	170.303	-8191	255	
18087.393	1	1	0	0	0.093649	0.28053	0.26015	0.10176	0.092953	0.32318	0.23062	0.18182	0.13041	0.074385	0.26226	0.2034	0.14979	0.10018	0.043786	0.12546	-2.6146	-2.6104	-2.8563	-2.6396	-2.7167	-3.0333	-2.8271	-3.0375	-2.6917	-2.775	-3.0479	-2.7438	-2.7792	-3.1604	-2.7438	-3.1063	260.967	288.414	458.461	201.432	243.667	376.168	477.999	437.820	492.825	220.795	147.443	469.205	428.839	412.819	229.388	177.206	0.00061153	0.00030846	0.00015417	1358.4	6.7009e-06	6.7379e-06	1355.7	372.62	6.4714e-06	4.7536e-06	426.4	145.54	126.1	43.505	5.8306e-06	53.426	0.00040639	0.0003348	9.3732e-05	1371.3	3.6507e-06	3.6098e-06	1376.1	379.74	3.8084e-06	3.7661e-06	433.32	148.38	128.69	44.584	3.882e-06	54.828	257.993	251.029	251.438	158.211	318.987	287.885	157.964	162.780	306.461	281.114	161.855	166.627	166.986	171.485	295.998	170.530	-8191	255	
18087.514	1	1	0	0	0.21527	0.14585	0.21759	0.097249	0.11192	0.1618	0.0094246	0.25617	0.060142	0.14255	0.19608	0.2359	0.080062	0.13952	0.12796	0.30975	-2.6021	-2.4917	-2.9604	-2.6562	-2.5854	-2.8563	-2.9479	-2.8417	-2.9521	-2.6562	-3.0104	-3.0792	-2.5771	-3.0604	-2.7188	-2.8792	466.401	415.851	199.420	189.136	386.172	434.421	184.535	451.409	191.607	220.543	489.658	484.208	364.666	209.792	271.006	457.849	0.00059344	0.00066345	0.00012846	1352	6.4223e-06	3.2626e-06	1356.2	372.74	4.6104e-06	5.1698e-06	422.35	144.02	125.83	43.372	4.8332e-06	53.396	0.00042129	0.00034062	9.8391e-05	1369.1	3.8612e-06	3.8013e-06	1374.4	378.55	3.9885e-06	3.8445e-06	431.43	147.52	128.47	44.419	3.9485e-06	54.733	257.867	244.704	239.868	158.246	310.751	321.032	157.936	162.648	320.317	306.275	162.109	166.401	167.013	171.478	284.789	170.544	-8191	255	
18087.586	1	1	0	0	0.18992	0.046024	0.15033	0.079542	0.0062393	0.11504	0.2642	0.2208	0.2892	0.092224	0.19208	0.065723	0.11065	0.1683	0.076389	0.18475	-2.5667	-2.4604	-2.9062	-2.9875	-2.5021	-2.8521	-3.0104	-2.9313	-3.05	-2.7167	-2.9458	-2.9062	-2.85	-3.1937	-2.7646	-2.9562	235.855	202.586	284.411	340.266	200.743	439.006	424.301	464.769	463.814	409.400	436.868	436.503	480.572	362.327	190.945	169.181	0.00056684	0.00045836	0.00016297	1349.4	7.0107e-06	5.5017e-06	1360.6	372.4	4.7168e-06	5.5572e-06	425.2	144.77	126.26	43.271	5.7391e-06	53.474	0.00042722	0.0003522	9.9604e-05	1368.2	3.9881e-06	3.8352e-06	1376.1	379.12	3.9336e-06	3.8626e-06	432.91	147.95	128.9	44.537	4.0423e-06	54.903	259.394	243.554	232.898	158.199	297.034	319.220	157.941	162.850	299.615	310.758	161.915	166.704	167.254	171.219	312.008	170.615	-8191	255	
18087.682	1	1	0	0	0.15799	0.035684	0.15736	0.15937	0.14381	0.16967	0.22	0.21167	0.20229	0.057982	0.050257	0.094129	0.26986	0.15492	0.19003	0.2204	-2.7	-2.6083	-2.8937	-3.0021	-2.7417	-3.0792	-2.8333	-2.9667	-2.8979	-2.525	-2.9729	-3.0271	-2.6521	-3.1146	-2.8354	-2.7313	164.753	461.009	246.192	472.863	437.485	201.661	379.774	460.505	467.249	466.786	352.107	304.887	479.984	475.879	423.334	478.218	0.00056568	0.0004193	0.00019482	1356.1	4.9982e-06	5.1165e-06	1357.4	372.34	5.9492e-06	5.0053e-06	425.76	144.46	126.22	43.181	6.9202e-06	53.15	0.00041529	0.00035289	0.00010104	1373.7	3.8409e-06	3.891e-06	1376.9	378.89	4.0399e-06	3.8875e-06	432.01	147.68	128.51	44.398	4.0572e-06	54.66	256.045	242.359	219.796	157.982	287.112	279.202	157.828	162.771	312.152	309.431	162.186	166.559	167.154	171.221	302.398	170.594	-8191	255	
18087.777	1	1	0	0	0.14541	0.13776	0.10551	0.24799	0.036523	0.1824	0.3834	0.26782	0.17393	0.074679	0.035628	0.2348	0.19328	0.26763	0.3442	0.33821	-2.5438	-2.7667	-2.7854	-3.025	-2.5458	-3.0583	-2.9938	-2.8167	-2.9062	-2.6937	-2.9021	-3.0458	-2.75	-3.0042	-2.9938	-2.5729	438.141	415.937	264.233	158.796	354.058	393.277	409.725	152.378	153.131	472.485	350.455	426.096	146.083	441.671	438.677	465.456	0.00059147	0.00048446	0.00020415	1353	5.3139e-06	4.3295e-06	1360.6	370.43	5.8255e-06	4.5146e-06	422.84	143.99	124.87	43.003	5.3218e-06	52.821	0.00042174	0.00036579	9.9774e-05	1370.5	4.0582e-06	4.0392e-06	1375.6	377.25	4.0613e-06	3.9037e-06	430.88	147.07	127.79	44.183	4.119e-06	54.43	256.499	221.535	220.358	158.250	297.782	320.890	157.976	162.801	290.591	306.895	162.131	166.508	167.234	171.547	293.773	170.630	-8191	255	
18087.873	1	1	0	0	0.097226	0.10346	0.26591	0.071719	0.32078	0.31127	0.36208	0.4067	0.13811	0.039862	0.2343	0.2758	0.18263	0.16057	0.22074	0.10237	-2.625	-2.7208	-2.6604	-2.9333	-2.6875	-2.8521	-3.0938	-2.75	-3	-2.8	-2.8937	-3.0375	-2.8688	-3.0062	-3.0167	-2.7729	216.114	350.133	373.054	497.164	475.146	345.473	473.663	431.269	490.127	347.157	438.374	421.722	184.065	478.783	488.768	177.327	0.00057125	0.00023834	0.00010559	1354.5	4.9402e-06	6.3388e-06	1358.3	370.53	6.4199e-06	6.0879e-06	423.21	143.96	125.16	43.12	3.8233e-06	53.144	0.000428	0.00036262	0.00010232	1370.7	4.0467e-06	3.9887e-06	1373.4	377.11	4.1874e-06	4.0441e-06	431.21	147.04	127.83	44.231	4.0357e-06	54.538	257.800	237.672	239.214	158.078	285.443	312.359	158.061	162.837	309.504	288.368	162.165	166.611	166.991	171.402	286.914	170.645	-8191	255	
18087.994	1	1	0	0	0.14162	0.2597	0.22142	0.21624	0.14826	0.3151	0.16567	0.23348	0.094854	0.073253	0.30153	0.40261	0.34391	0.2657	0.20254	0.12533	-2.6937	-2.6375	-2.7833	-3.0812	-2.6792	-2.9917	-3.1604	-2.8646	-2.8333	-2.8667	-2.9354	-3.2125	-2.9188	-2.8792	-2.8104	-2.775	273.185	451.481	314.440	305.415	186.629	176.346	429.095	499.138	231.573	283.555	145.560	468.026	384.888	461.305	485.384	161.123	0.00058585	0.00059725	0.00011731	1359.9	3.4165e-06	5.9766e-06	1360.6	370.96	4.363e-06	6.2852e-06	425.2	144.31	124.98	43.023	5.2487e-06	53.039	0.00042884	0.00036516	0.00010109	1372.6	3.9251e-06	3.9434e-06	1374.9	377.47	4.105e-06	3.8707e-06	431.51	147.2	127.73	44.203	4.0069e-06	54.486	261.526	244.563	212.153	158.423	268.007	300.414	157.984	162.874	298.584	290.242	161.950	166.409	166.863	171.596	277.662	170.621	-8191	255	
18088.090	1	1	0	0	0.11439	0.20307	0.075641	0.16329	0.15679	0.12406	0.38493	0.34577	0.22647	0.1661	0.10456	0.0633	0.12869	0.11769	0.28939	0.15557	-2.525	-2.7854	-2.7021	-3.0542	-2.8896	-3.0646	-3.1708	-2.8854	-3.1146	-2.8021	-2.9375	-3.0167	-2.8729	-3.0292	-2.9958	-2.5208	155.738	481.892	251.962	397.274	333.200	285.406	463.200	457.347	468.007	254.435	421.475	387.578	154.119	469.917	176.913	327.957	0.00056933	0.00070415	0.00013344	1353.7	5.2713e-06	4.6734e-06	1357.9	370.21	4.2959e-06	2.8419e-06	423.34	143.84	125.09	42.991	4.5827e-06	53.007	0.00042927	0.00036337	0.00010076	1370.8	4.0054e-06	3.9244e-06	1375.1	377	4.1479e-06	3.9568e-06	431.01	146.91	127.48	44.08	4.0674e-06	54.319	259.250	224.756	256.694	157.969	296.326	305.735	157.791	162.981	299.565	281.052	162.157	166.602	167.056	171.324	295.376	170.948	-8191	255	
18088.186	1	1	0	0	0.20334	0.084795	0.26457	0.20734	0.25173	0.10841	0.21887	0.13531	0.12887	0.10233	0.16279	0.091029	0.23116	0.32514	0.10785	0.40862	-2.425	-2.8021	-2.5354	-3.2271	-2.6854	-2.6625	-3.0708	-2.7146	-2.8229	-2.9708	-2.6417	-3.0292	-2.9	-2.9979	-2.975	-2.8208	168.996	427.527	281.363	426.177	182.037	356.166	476.346	253.485	312.274	378.090	445.565	392.659	179.927	475.130	311.729	453.160	0.00059401	0.00050066	0.0001567	1351.6	6.4817e-06	5.7114e-06	1353.5	369.69	5.5459e-06	4.9738e-06	422.27	143	124.17	42.715	5.0938e-06	52.715	0.00043218	0.00036469	0.00010149	1367.3	4.1236e-06	4.0046e-06	1371.5	375.98	4.177e-06	4.0798e-06	429.54	146.33	126.93	43.912	4.1203e-06	54.195	256.227	231.911	241.151	158.018	299.033	288.398	157.858	162.858	309.175	293.401	161.986	166.602	167.232	171.615	300.566	170.549	-8191	255	
18088.281	1	1	0	0	0.12064	0.075619	0.15875	0.13264	0.090413	0.36781	0.27561	0.11226	0.11883	0.076062	0.25062	0.28399	0.36276	0.22911	0.15812	0.15565	-2.6396	-2.8417	-2.6458	-3.05	-2.8875	-2.7229	-3.1792	-2.8333	-3.1104	-3.1542	-2.8875	-2.7417	-2.9229	-2.6396	-2.9688	-2.7708	416.851	435.310	364.272	168.294	362.293	181.328	384.783	413.889	227.181	494.949	406.719	437.070	477.903	200.324	260.722	421.523	0.00059307	0.00039094	8.076e-05	1353.2	6.1428e-06	4.6289e-06	1351.8	370.53	5.0232e-06	5.3934e-06	423.82	143.77	124.56	42.757	4.5765e-06	52.734	0.00043621	0.00036714	0.00010223	1366.1	4.088e-06	3.9946e-06	1371	376.28	4.1812e-06	4.1027e-06	430.56	146.67	127.23	43.969	4.0704e-06	54.178	258.796	257.323	241.166	158.151	283.783	298.037	158.082	162.741	304.594	302.382	162.068	166.718	167.123	171.471	309.950	170.850	-8191	255	
18088.379	1	1	0	0	0.15614	0.15982	0.27634	0.19228	0.23008	0.38143	0.15162	0.028305	0.47626	0.14917	0.24547	0.078946	0.057888	0.31887	0.060704	0.14811	-2.3542	-2.9938	-2.4875	-2.9958	-2.7667	-2.5521	-3.2417	-2.9375	-2.8	-3.0208	-2.8667	-3.0583	-3.0125	-2.775	-2.9146	-2.8187	427.814	242.317	446.564	192.278	197.278	283.277	428.266	478.238	307.531	415.243	399.108	472.755	408.501	503.949	370.431	310.112	0.00059283	0.00055982	0.00014239	1347.8	5.4699e-06	5.2382e-06	1351.3	369.2	5.9068e-06	6.4886e-06	421.71	143	124.23	42.411	1.9795e-06	52.665	0.00043615	0.00036469	0.00010215	1365.9	4.127e-06	4.0617e-06	1370.7	375.88	4.2926e-06	4.0653e-06	429.14	146.15	126.87	43.71	4.2255e-06	54.034	257.845	240.845	249.272	158.380	297.085	297.273	157.943	162.921	308.180	306.920	162.111	166.511	167.169	171.442	276.211	170.689	-8191	255	
18088.475	1	1	0	0	0.20646	0.11221	0.034987	0.1152	0.26597	0.15351	0.26761	0.25822	0.079002	0.12809	0.022065	0.31905	0.20778	0.16566	0.031853	0.11102	-2.2708	-3.0938	-2.55	-2.9583	-2.9271	-2.6354	-3.0625	-2.9062	-2.7771	-3.0062	-2.7792	-2.9646	-3.0375	-2.725	-3.0917	-2.8667	380.281	362.568	241.604	334.218	248.449	397.884	430.518	434.258	238.029	443.000	271.835	157.998	435.125	167.378	333.729	441.085	0.00061869	0.00040158	0.00010043	1348.2	4.9353e-06	5.634e-06	1350.9	369.36	4.8789e-06	4.2296e-06	420.23	142.6	123.9	42.425	8.2126e-06	52.394	0.00043534	0.00036716	0.00010497	1367.1	4.1036e-06	4.18e-06	1370.1	375.44	4.2309e-06	4.1154e-06	427.99	145.57	126.35	43.583	4.2807e-06	53.744	257.630	240.553	229.535	158.040	317.803	290.611	158.090	162.904	309.648	338.562	162.083	166.551	167.275	171.609	297.933	170.945	-8191	255	
18088.594	1	1	0	0	0.33759	0.10426	0.26219	0.088224	0.10654	0.07346	0.11585	0.29051	0.24313	0.12432	0.33993	0.1281	0.10234	0.13959	0.12553	0.17771	-2.2896	-3.0021	-2.6896	-2.9604	-2.9437	-2.625	-3.2188	-2.9354	-2.7125	-3.0125	-2.6542	-3.0396	-3.1417	-2.6042	-2.8667	-2.8063	487.002	368.361	328.995	150.213	166.091	187.080	348.299	429.334	237.794	264.949	427.711	184.809	456.560	413.869	290.195	501.910	0.00057419	0.00044752	0.0002461	1344.2	3.8134e-06	5.4486e-06	1352.2	366.65	5.3041e-06	5.4563e-06	419.55	142.24	123.95	42.345	5.9641e-06	52.233	0.00043948	0.00038619	0.00010697	1362.4	4.1436e-06	4.098e-06	1367.8	373.43	4.2677e-06	4.1311e-06	426.75	145.24	126.21	43.548	4.3327e-06	53.845	257.464	224.155	243.048	157.808	283.158	310.353	158.009	162.748	287.104	321.563	162.091	166.499	167.065	171.689	298.831	170.643	-8191	255	
18088.689	1	1	0	0	0.11908	0.45916	0.058621	0.23561	0.092939	0.36853	0.18432	0.050717	0.12032	0.26419	0.15557	0.31606	0.20416	0.038359	0.14206	0.1238	-2.2104	-2.8979	-2.6271	-2.8042	-3.0542	-2.5771	-3.0187	-2.9896	-2.7208	-3	-2.8021	-2.8667	-3.0771	-2.7188	-2.8958	-3.0479	297.991	230.426	476.038	207.828	499.203	402.429	463.923	197.740	498.122	429.698	154.718	412.004	148.434	276.323	394.730	159.692	0.00058878	0.00067258	0.00011096	1343	3.7731e-06	5.436e-06	1346.9	367.68	4.5363e-06	3.4018e-06	419.61	142.25	123.59	42.421	5.029e-06	52.472	0.00044213	0.00037693	0.00010728	1363.9	4.1436e-06	4.1782e-06	1367.2	373.74	4.3465e-06	4.2191e-06	427.71	145.33	126.22	43.594	4.2739e-06	53.86	259.513	230.321	248.656	157.994	308.259	309.067	157.843	162.714	324.024	333.780	162.045	166.597	167.189	171.508	303.717	170.506	-8191	255	
18088.785	1	1	0	0	0.20717	0.049473	0.21728	0.036986	0.1209	0.062262	0.33368	0.33668	0.16924	0.16224	0.37367	0.3374	0.41438	0.20285	0.03508	0.39632	-2.2292	-2.825	-2.8854	-2.7354	-3.0854	-2.7542	-3.075	-3.0187	-2.5896	-2.9646	-3.05	-2.7292	-3.1521	-2.6354	-2.7313	-3.0083	473.390	303.686	284.851	245.966	231.529	381.468	446.366	391.323	426.723	265.390	172.859	458.142	468.585	300.629	209.324	396.142	0.00055892	0.0003653	0.00014281	1345.1	4.0676e-06	5.729e-06	1349.4	367.72	5.9712e-06	7.5857e-06	421.18	142.69	123.95	42.432	8.1849e-06	52.644	0.00044543	0.00038318	0.00010788	1364.6	3.9943e-06	4.2829e-06	1367	374.42	4.3226e-06	4.1586e-06	428.1	145.57	126.41	43.673	4.2758e-06	53.997	259.128	234.106	233.887	158.298	300.876	313.025	157.808	162.642	307.390	294.126	162.079	166.770	167.019	171.542	289.356	170.550	-8191	255	
18088.883	1	1	0	0	0.2083	0.05977	0.087436	0.040532	0.086786	0.071551	0.25799	0.13898	0.15965	0.21732	0.050556	0.079931	0.053986	0.13763	0.16216	0.083588	-2.2125	-2.8771	-2.6354	-2.7667	-3.0917	-2.5792	-2.9479	-3.0896	-2.6354	-2.9208	-3.0104	-2.6479	-3.1625	-2.7062	-2.8688	-3.1125	238.808	466.423	197.196	178.005	178.321	467.248	157.615	486.303	206.508	419.382	462.350	441.906	423.144	408.984	277.676	452.661	0.00057389	0.00050831	0.00012599	1347	5.4368e-06	6.306e-06	1354.7	369.31	4.2127e-06	4.6977e-06	421.78	143.51	124.7	42.781	4.1189e-06	52.98	0.00044383	0.00038193	0.00010529	1365.3	4.126e-06	4.1725e-06	1373.1	375.65	4.1558e-06	4.1217e-06	429.01	146.41	127.27	44.005	4.2134e-06	54.385	256.556	241.826	225.822	158.071	286.761	285.611	158.036	162.521	306.283	311.058	161.954	166.636	166.984	171.408	317.648	170.557	-8191	255	
18088.979	1	1	0	0	0.17211	0.25257	0.13144	0.29005	0.18469	0.076907	0.29122	0.33215	0.15801	0.26305	0.042342	0.2076	0.059192	0.20785	0.22345	0.064256	-2.1583	-2.7646	-2.8563	-2.7271	-2.8979	-2.775	-2.7542	-3.1813	-2.4354	-2.6437	-2.9146	-2.6729	-3.0312	-2.8542	-2.8729	-2.9292	335.262	163.891	370.315	487.906	349.058	369.720	412.502	490.933	355.449	413.397	410.275	495.719	486.977	479.173	431.159	256.990	0.0005695	0.0004478	0.00017287	1348.3	5.5093e-06	5.6943e-06	1353.8	370.58	5.0359e-06	5.331e-06	423.12	143.73	125.36	42.742	5.3341e-06	52.774	0.0004298	0.00036093	0.00010096	1368.8	4.0344e-06	4.1102e-06	1371.9	377.01	4.2084e-06	4.0612e-06	430.46	146.74	127.63	44.004	4.227e-06	54.291	258.414	230.270	232.745	157.913	278.597	315.141	158.025	162.845	303.898	283.059	162.089	166.555	167.150	171.507	289.358	170.779	-8191	255	
18089.074	1	1	0	0	0.13189	0.053731	0.063204	0.054045	0.2275	0.095918	0.32092	0.19632	0.096417	0.097063	0.26124	0.37747	0.3882	0.13302	0.10295	0.21831	-2.0583	-2.875	-2.7604	-2.6521	-2.8979	-2.7375	-2.9646	-3.2562	-2.7521	-2.8521	-3.0208	-2.5938	-2.9167	-2.7708	-2.5938	-2.9792	248.472	373.705	424.027	327.845	294.512	219.677	436.372	484.031	169.334	168.009	474.714	477.663	454.632	496.327	272.175	405.166	0.00059558	0.00047643	0.0001493	1354	5.9328e-06	3.6616e-06	1355.7	368.68	4.4045e-06	8.5925e-06	423.18	144.15	125.23	43.006	6.7557e-06	53.119	0.00043195	0.0003706	0.00010624	1368.2	4.1021e-06	4.0724e-06	1374	376.38	4.26e-06	4.0448e-06	431.14	147.18	127.77	44.145	4.0378e-06	54.485	258.344	225.134	246.988	158.190	295.121	314.314	158.008	162.699	293.940	300.583	162.021	166.444	167.206	171.392	283.157	170.713	-8191	255	
18089.170	1	1	0	0	0.051083	0.23677	0.12757	0.21064	0.26946	0.11243	0.30127	0.1976	0.20009	0.15065	0.34098	0.172	0.17689	0.041179	0.2217	0.4075	-2.1667	-2.6208	-2.7771	-2.8125	-2.7292	-2.9292	-2.7167	-3.1104	-2.7125	-2.6333	-2.9083	-2.6042	-2.8333	-3.0021	-2.5021	-3.0646	451.744	330.648	457.807	498.404	224.986	328.985	440.092	430.856	415.299	270.988	156.259	270.546	204.872	445.082	427.088	401.495	0.00057554	0.00044103	0.00010345	1356.9	7.1349e-06	6.2679e-06	1357.3	370.79	4.4707e-06	4.3989e-06	423.73	144.08	125.14	42.984	4.758e-06	53.193	0.00042816	0.00037528	0.00010334	1370.7	4.088e-06	3.9622e-06	1373.7	377.15	4.2105e-06	3.9445e-06	430.66	147.07	127.63	44.137	4.0489e-06	54.492	258.723	221.963	214.380	157.978	298.073	317.338	157.831	162.753	323.412	316.583	162.139	166.331	167.067	171.408	292.032	170.525	-8191	255	
18089.291	1	1	0	0	0.10122	0.19789	0.17258	0.23529	0.078034	0.26807	0.032116	0.20312	0.032331	0.054015	0.3267	0.33001	0.13755	0.17179	0.025257	0.14885	-2.2062	-2.6958	-2.9562	-2.8042	-2.6688	-2.9979	-2.9	-3.075	-2.7125	-2.6875	-3.2271	-2.6	-2.9313	-2.9167	-2.7146	-3.0021	206.200	360.722	269.169	360.988	183.345	416.062	161.545	472.852	432.288	435.923	416.588	229.771	504.125	496.073	314.950	200.638	0.00059256	0.00030809	0.00014686	1351.9	5.7978e-06	4.0567e-06	1357.6	370.52	5.392e-06	5.5063e-06	421.81	144.15	125.16	42.905	5.5765e-06	53.143	0.00042763	0.0003719	0.00010092	1368	3.9389e-06	4.0038e-06	1373.7	376.86	4.1048e-06	4.1204e-06	429.78	146.98	127.69	44.095	4.0958e-06	54.505	256.163	232.377	253.510	158.136	301.311	289.726	157.801	162.751	312.175	303.856	162.182	166.702	166.898	171.414	287.694	170.676	-8191	255	
18089.385	1	1	0	0	0.11777	0.17842	0.20532	0.26288	0.21992	0.16599	0.20503	0.21339	0.11944	0.078619	0.31871	0.078033	0.16723	0.32422	0.10728	0.053032	-2.3937	-2.4437	-3	-2.7687	-2.6292	-2.9104	-2.7938	-3.0875	-3.0125	-2.6479	-2.925	-2.85	-2.8042	-3.0021	-2.6333	-2.9479	232.759	310.633	349.955	457.411	484.365	462.846	414.332	452.213	447.567	440.693	397.599	467.800	417.086	323.006	229.928	390.651	0.00055955	0.00044227	0.00013071	1350	6.3753e-06	6.7361e-06	1356.1	368.66	6.1999e-06	6.2044e-06	424.38	144.51	125.69	43.296	3.5697e-06	53.327	0.00042841	0.00036622	9.9681e-05	1368	4.065e-06	4.1493e-06	1374.3	376.35	4.1801e-06	3.9714e-06	431.38	147.45	128.07	44.233	3.9958e-06	54.572	257.367	225.912	225.288	158.164	304.923	297.377	158.149	162.683	303.958	300.882	162.077	166.297	167.115	171.510	296.970	170.489	-8191	255	
18089.459	1	1	0	0	0.17209	0.14077	0.056906	0.1093	0.12371	0.12999	0.25637	0.11014	0.07807	0.17389	0.24947	0.35483	0.32992	0.10851	0.072798	0.10191	-2.3979	-2.5979	-2.9917	-2.7792	-2.7958	-2.9583	-2.8729	-2.7062	-2.8875	-2.5812	-3.0083	-2.7229	-2.8667	-3.0667	-2.7333	-3.0833	359.236	305.444	363.954	258.007	266.531	484.765	163.154	194.452	173.734	366.491	482.726	440.037	487.079	347.875	184.727	487.014	0.00058953	0.00063246	0.0001293	1352.5	5.565e-06	4.8157e-06	1358.5	373.52	5.3699e-06	5.9766e-06	425.06	145.12	126.16	43.271	6.3001e-06	53.416	0.00043049	0.00035362	0.00010401	1372.5	4.0214e-06	3.8785e-06	1376	378.84	3.9904e-06	3.993e-06	432.34	147.97	128.73	44.52	4.0048e-06	54.898	257.176	232.132	240.008	157.891	286.335	287.115	157.967	162.842	316.828	302.333	162.028	166.572	167.120	171.440	304.293	170.594	-8191	255	
18089.578	1	1	0	0	0.11476	0.26873	0.081812	0.27252	0.1256	0.23314	0.38395	0.26665	0.36605	0.076618	0.3255	0.097594	0.27559	0.22236	0.039694	0.076862	-2.3292	-2.6146	-2.7958	-2.7396	-2.7271	-3.1146	-2.875	-3.0563	-3.0042	-2.5417	-2.9562	-2.5896	-2.8021	-2.9813	-2.4979	-2.7083	230.537	344.934	153.040	435.151	399.865	378.917	459.956	442.994	499.197	414.539	386.619	190.781	484.481	203.147	178.315	374.736	0.00057277	0.00059143	0.000122	1357.3	4.3127e-06	6.0917e-06	1363.7	372.28	5.2459e-06	4.7202e-06	425.45	144.95	126.28	43.375	6.6274e-06	53.604	0.00043509	0.00035432	9.9884e-05	1372.4	4.0957e-06	3.8934e-06	1377.7	379.03	4.037e-06	3.9642e-06	432.82	148.17	128.78	44.538	4.037e-06	54.916	257.088	232.543	233.488	158.139	277.913	290.230	157.853	162.642	298.369	318.651	161.812	166.361	166.954	171.448	304.392	170.477	-8191	255	
18089.674	1	1	0	0	0.2356	0.038887	0.22033	0.15359	0.11966	0.097458	0.045051	0.17629	0.12142	0.069069	0.064781	0.1039	0.085352	0.042307	0.17199	0.10219	-2.55	-2.5792	-3.0167	-2.8625	-2.6104	-3.0479	-2.7875	-2.8625	-2.9417	-2.5479	-3.0375	-2.8375	-2.7313	-2.9313	-2.8042	-2.7375	288.578	237.986	501.795	379.985	296.523	277.961	376.173	156.232	420.669	294.504	431.651	460.967	396.653	489.571	388.573	185.926	0.00059035	0.00060494	0.00019728	1353	5.9561e-06	5.0441e-06	1362.2	372.57	5.2113e-06	5.2033e-06	425.38	145.06	126.51	43.553	5.1568e-06	53.6	0.00042389	0.00035552	0.00010134	1372	3.9008e-06	3.8713e-06	1379.5	379.61	4.0283e-06	3.9939e-06	433	148.36	129.12	44.624	4.0463e-06	54.966	259.797	231.028	249.917	158.343	277.389	301.103	157.953	162.762	314.766	286.798	161.791	166.488	166.916	171.615	285.899	170.819	-8191	255	
18089.770	1	1	0	0	0.17217	0.062577	0.13968	0.086751	0.12216	0.073276	0.24945	0.062728	0.18625	0.15919	0.11426	0.10571	0.11938	0.072946	0.1232	0.20277	-2.6667	-2.4646	-2.7687	-3.0354	-2.6083	-3.0833	-2.875	-2.9917	-3.0604	-2.6333	-3.0062	-3.0458	-2.7917	-2.8833	-2.675	-2.6458	381.391	358.870	150.614	467.844	230.136	178.896	397.993	260.359	266.544	189.635	219.659	323.472	384.191	369.093	177.625	339.215	0.00057791	0.00046927	0.00014976	1358.7	4.8006e-06	3.8741e-06	1364.4	373.74	4.2266e-06	4.667e-06	426.55	145.94	127.34	43.511	5.4824e-06	53.507	0.00041805	0.00036038	0.00010048	1375.5	3.953e-06	3.9491e-06	1381.3	380.02	4.0736e-06	3.9882e-06	434	148.89	129.3	44.641	4.0018e-06	54.99	258.295	243.197	226.988	158.487	302.635	303.575	157.808	162.956	316.546	275.158	161.924	166.340	167.091	171.453	316.533	170.606	-8191	255	
18089.865	1	1	0	0	0.057083	0.11146	0.094659	0.094654	0.15765	0.24854	0.3183	0.31328	0.12274	0.21172	0.047793	0.10722	0.20887	0.22566	0.24308	0.11746	-2.5521	-2.5438	-2.7542	-2.8708	-2.6167	-2.8396	-2.9792	-2.7854	-2.9958	-2.6937	-2.8	-3.0604	-2.7708	-3.0833	-2.9417	-2.7167	478.020	330.247	375.302	177.476	253.496	299.929	403.040	457.493	375.214	236.429	292.145	221.687	439.740	402.931	256.938	335.053	0.00061006	0.00037835	0.00016464	1362	5.407e-06	6.9743e-06	1363.2	373.84	4.8522e-06	3.998e-06	425.3	145.33	126.86	43.398	5.4907e-06	53.583	0.000433	0.00036549	0.00010275	1377.4	4.0699e-06	3.9952e-06	1382	380.01	4.0815e-06	3.9836e-06	433.7	148.68	129.3	44.716	4.1951e-06	54.978	257.944	250.493	223.753	158.084	299.029	303.425	157.809	162.579	289.692	330.284	161.976	166.533	166.992	171.357	292.098	170.575	-8191	255	
18089.986	1	1	0	0	0.066147	0.1421	0.091723	0.29174	0.084429	0.2843	0.19092	0.12142	0.037555	0.15614	0.13886	0.18066	0.11056	0.33098	0.10941	0.14805	-2.6604	-2.7167	-2.7583	-2.975	-2.525	-2.775	-3.0667	-2.6208	-2.8688	-2.4792	-2.9292	-3.0042	-2.7687	-2.8812	-2.9437	-2.7958	337.071	255.009	429.280	206.931	315.852	262.862	458.747	390.581	285.971	365.614	238.142	473.898	196.633	479.614	421.426	407.440	0.0005948	0.00047403	0.00014645	1358.2	5.5681e-06	5.8052e-06	1367.1	373.75	4.3152e-06	7.0142e-06	426.57	145.74	126.28	43.335	4.192e-06	53.44	0.00042692	0.00037393	0.00010395	1376.3	4.1456e-06	4.115e-06	1383.6	379.69	4.1733e-06	4.1154e-06	433.45	148.47	128.9	44.615	4.1181e-06	54.991	257.968	244.658	233.739	158.131	312.577	302.262	157.973	162.697	311.311	292.060	161.773	166.495	166.909	171.485	285.248	170.710	-8191	255	
18090.059	1	1	0	0	0.27593	0.13607	0.26719	0.18926	0.14986	0.035266	0.22871	0.23534	0.040885	0.28645	0.058247	0.034527	0.23272	0.35062	0.11587	0.33573	-2.6104	-2.6354	-2.9875	-2.9479	-2.5146	-2.8229	-3.0333	-2.4833	-2.7854	-2.5917	-2.9062	-3.0979	-2.5104	-2.7896	-2.7625	-2.8667	310.049	216.020	199.073	421.958	405.954	306.040	439.898	374.689	267.093	439.464	217.924	178.234	480.462	337.026	204.819	426.413	0.00060471	0.00039289	0.00010788	1359.7	5.3947e-06	3.4519e-06	1367.1	372.51	6.9287e-06	6.2175e-06	426.81	145.55	126.74	43.315	5.9303e-06	53.627	0.00043359	0.00035867	0.00010473	1378	4.0635e-06	4.0164e-06	1383.3	379.56	4.1086e-06	4.0629e-06	434.19	148.52	129.13	44.62	3.9916e-06	55.044	260.797	239.096	239.308	157.893	300.977	309.555	157.954	162.817	304.493	289.395	162.254	166.589	166.928	171.330	292.988	170.575	-8191	255	
18090.154	1	1	0	0	0.23817	0.50581	0.1382	0.12021	0.096925	0.059934	0.23357	0.36876	0.14772	0.074233	0.43664	0.19393	0.2775	0.23538	0.070386	0.36506	-2.5708	-2.7188	-2.5875	-3.0042	-2.7396	-2.7771	-3.0833	-2.7167	-2.8125	-2.6604	-2.6917	-3.1333	-2.8354	-2.8688	-2.8333	-2.7083	239.328	261.393	304.431	210.712	420.674	249.392	411.317	468.826	332.926	256.637	449.146	480.224	167.322	200.554	162.259	412.076	0.00058585	0.00045429	0.00012837	1363.2	4.217e-06	6.0169e-06	1366.4	373.12	4.5959e-06	6.4696e-06	423.37	144.69	125.62	43.095	3.3481e-06	53.373	0.00042909	0.000366	0.00010357	1378.1	3.9681e-06	4.0875e-06	1381	379.15	4.2221e-06	4.253e-06	432.2	147.86	128.35	44.354	4.0762e-06	54.665	258.618	227.870	233.105	157.977	290.960	310.911	157.803	162.659	311.806	300.355	162.103	166.400	167.095	171.358	290.785	170.629	-8191	255	
18090.275	1	1	0	0	0.027489	0.24191	0.18129	0.092795	0.18939	0.062671	0.27814	0.21879	0.2099	0.074616	0.26538	0.04435	0.07448	0.22699	0.16004	0.21608	-2.5438	-2.9146	-2.4875	-2.8979	-2.8042	-2.775	-3.2313	-2.7188	-2.6667	-2.8396	-2.7667	-2.9708	-2.8396	-2.7792	-2.8854	-2.6396	357.516	219.307	279.229	459.067	228.366	324.378	459.378	446.146	427.080	219.092	307.136	427.703	265.876	229.601	179.702	222.514	0.00059017	0.00052348	0.00014316	1356.8	6.3206e-06	5.5464e-06	1359.5	371.26	4.4506e-06	3.0623e-06	426.1	144.39	125.78	43.104	4.5346e-06	53.205	0.00043743	0.00037005	0.00010725	1374.2	4.1387e-06	4.1489e-06	1378.8	378.28	4.2725e-06	4.0188e-06	432.01	147.64	128.34	44.404	4.204e-06	54.665	256.991	230.431	238.680	158.128	304.714	287.190	157.798	162.721	319.586	298.668	162.122	166.372	167.129	171.533	292.102	170.498	-8191	255	
18090.371	1	1	0	0	0.20734	0.27644	0.2064	0.13625	0.1401	0.17793	0.14304	0.37448	0.30365	0.12281	0.081301	0.49589	0.10407	0.020549	0.22051	0.032012	-2.525	-2.7375	-2.6354	-2.9146	-2.7438	-2.7958	-3.0854	-2.7958	-2.9542	-2.8958	-2.8646	-3.1021	-2.9854	-2.9208	-3.0646	-2.6271	415.024	364.417	294.003	431.105	339.499	182.346	328.628	458.437	150.019	299.762	179.079	146.966	207.870	421.965	288.869	487.029	0.00060549	0.00059474	0.00012661	1357.8	3.0537e-06	4.2952e-06	1361.7	372.38	6.0587e-06	4.8477e-06	426.98	144.97	126.31	43.432	3.818e-06	53.377	0.0004425	0.00037536	0.00010396	1375	4.1236e-06	4.1417e-06	1383	379.17	4.324e-06	3.9847e-06	433.19	148.37	128.79	44.53	4.148e-06	54.842	258.423	241.384	238.394	157.929	293.798	304.027	158.006	162.718	295.799	295.909	161.988	166.442	167.064	171.401	287.855	170.578	-8191	255	
18090.467	1	1	0	0	0.092727	0.11169	0.17006	0.25006	0.19729	0.11584	0.23465	0.11971	0.17074	0.23486	0.10274	0.064494	0.13976	0.21952	0.12344	0.42021	-2.4271	-2.7667	-2.6542	-3.0292	-2.6771	-2.6854	-3.2458	-2.9958	-2.6667	-3.0583	-2.6167	-2.9542	-2.9813	-2.7	-3	-2.6292	390.408	192.633	352.299	222.127	168.201	225.105	453.183	334.229	284.619	223.522	175.116	500.598	396.032	502.435	389.375	428.288	0.00057652	0.00056898	0.00010874	1359	5.3207e-06	4.5632e-06	1367.3	372.62	3.7346e-06	4.2815e-06	424.42	145.04	125.47	43.15	4.9649e-06	53.197	0.00043709	0.00037166	0.00010247	1377.9	4.1155e-06	4.0073e-06	1380.6	378.96	4.2854e-06	4.1494e-06	432.18	147.99	128.28	44.338	4.236e-06	54.561	259.874	246.618	244.003	158.337	319.928	314.629	157.855	162.926	325.816	291.486	162.099	166.432	167.213	171.337	295.523	170.375	-8191	255	
18090.586	1	1	0	0	0.19471	0.19893	0.22437	0.15424	0.17241	0.088128	0.10221	0.14215	0.17173	0.23234	0.094942	0.23601	0.084864	0.36619	0.32045	0.10031	-2.3375	-2.8458	-2.5292	-2.7771	-2.9125	-2.7792	-3.15	-2.9625	-2.8167	-2.8833	-2.8083	-3.075	-3.1354	-2.6458	-2.9938	-3.0271	404.248	261.217	357.584	492.757	238.791	352.211	497.756	408.318	373.398	285.901	451.651	451.750	457.893	165.770	222.934	441.665	0.00058598	0.0003846	7.8078e-05	1355.4	5.9115e-06	7.182e-06	1357.9	371.09	4.0116e-06	4.6134e-06	422.12	143.33	125.32	42.789	6.3126e-06	53.053	0.00045045	0.00038199	0.00010574	1376.2	4.2501e-06	4.3142e-06	1378.2	377.02	4.4522e-06	4.2818e-06	430.23	146.66	127.7	44.025	4.431e-06	54.362	260.008	222.676	258.341	158.131	302.647	273.773	157.803	162.688	302.126	294.769	162.234	166.512	167.237	171.464	290.017	170.715	-8191	255	
18090.682	1	1	0	0	0.10708	0.025655	0.17913	0.086406	0.34124	0.19885	0.17075	0.27264	0.021972	0.10193	0.14992	0.041828	0.30567	0.28226	0.25737	0.22801	-2.3542	-2.9958	-2.45	-2.8937	-2.9729	-2.7417	-3.0271	-2.8812	-2.7375	-3.0062	-2.7687	-2.9313	-3.025	-2.5354	-3.0292	-2.85	359.240	500.626	441.992	480.401	204.978	154.295	496.293	431.948	277.001	241.395	434.587	234.898	464.284	149.105	273.498	435.620	0.00056678	0.00049108	0.00015607	1358.3	5.4561e-06	4.727e-06	1363.5	371.91	5.2422e-06	4.4195e-06	425.25	144.07	124.93	42.788	3.4148e-06	53.082	0.00045102	0.00039862	0.00011196	1376.5	4.3477e-06	4.3085e-06	1379	377.73	4.3937e-06	4.3367e-06	431.45	147.06	127.77	44.131	4.493e-06	54.481	258.281	244.034	245.336	158.255	303.552	308.265	157.980	162.936	304.330	290.431	162.009	166.670	167.145	171.564	318.829	170.673	-8191	255	
18090.754	1	1	0	0	0.071637	0.18778	0.34748	0.16256	0.032085	0.20993	0.18866	0.29848	0.14862	0.15183	0.032454	0.13877	0.079411	0.069501	0.12982	0.29762	-2.2687	-2.9333	-2.5563	-2.7812	-3.0021	-2.7562	-3.0271	-2.9083	-2.4833	-2.9062	-2.8229	-2.8896	-3.0125	-2.7062	-2.7396	-2.8438	203.294	250.687	497.890	299.314	419.160	487.391	404.667	155.822	358.828	268.790	358.868	418.131	369.038	463.578	424.024	435.825	0.00061044	0.00052849	0.00011209	1358.6	6.1881e-06	5.3596e-06	1362.7	372.61	4.135e-06	8.4974e-06	423.79	144.11	125.61	42.97	8.6936e-06	53.055	0.00046672	0.00039449	0.00011127	1374.9	4.2444e-06	4.2934e-06	1379.6	378.17	4.3935e-06	4.2733e-06	431.32	147.38	128.11	44.261	4.4502e-06	54.511	258.980	224.763	247.847	158.276	306.232	296.097	157.857	162.750	322.279	324.320	162.093	166.380	167.127	171.381	293.770	170.413	-8191	255	
18090.850	1	1	0	0	0.16057	0.12021	0.11568	0.16895	0.11964	0.045802	0.13563	0.26541	0.18319	0.2856	0.14074	0.1242	0.070593	0.10583	0.037739	0.24544	-2.3438	-2.7229	-2.6417	-2.6	-2.9292	-2.8021	-2.9667	-3	-2.4854	-2.9417	-2.9104	-2.8063	-3.1667	-2.8542	-2.6437	-3.0083	193.173	388.811	250.446	402.125	475.067	207.250	410.366	413.247	186.135	176.734	183.767	297.223	403.591	450.756	210.379	415.062	0.00059768	0.00038394	0.00014007	1357.5	5.4069e-06	2.3628e-06	1359.4	371.51	5.3368e-06	5.4649e-06	422.67	143.87	125.23	43.034	5.303e-06	53.177	0.00045226	0.00038499	0.00010909	1375.1	4.2851e-06	4.3686e-06	1378.2	377.7	4.4247e-06	4.2805e-06	430.38	147.17	127.83	44.179	4.3775e-06	54.504	258.413	226.618	230.843	158.182	312.633	326.699	157.962	162.943	292.078	291.957	162.107	166.552	167.089	171.353	305.361	170.381	-8191	255	
18090.971	1	1	0	0	0.087317	0.31531	0.22809	0.2624	0.18224	0.12389	0.16517	0.03624	0.17966	0.22706	0.23268	0.25706	0.23976	0.17941	0.2183	0.10121	-2.1229	-2.8875	-2.7812	-2.5958	-3.0042	-2.8042	-2.8833	-3.0312	-2.7104	-2.8187	-2.8708	-2.6604	-3.1458	-2.8833	-2.7438	-2.8729	367.166	412.382	348.605	151.230	202.067	449.433	480.092	159.951	182.852	318.305	498.962	447.463	422.112	443.360	476.148	359.291	0.00058199	0.00048997	0.00011175	1357.2	4.3305e-06	5.2954e-06	1357.7	371.33	5.4918e-06	8.0444e-06	425	144.18	125.56	43.079	4.8008e-06	53.052	0.00044171	0.00038887	0.00010761	1376.8	4.3006e-06	4.34e-06	1376.7	377.82	4.2908e-06	4.2595e-06	431.55	147.37	128.18	44.285	4.4244e-06	54.584	255.174	233.386	250.622	158.139	309.652	321.596	158.016	162.735	313.254	305.863	162.014	166.694	167.261	171.567	296.421	170.889	-8191	255	
18091.066	1	1	0	0	0.10089	0.097804	0.28043	0.23508	0.3388	0.1041	0.11434	0.10869	0.23366	0.13854	0.13766	0.11727	0.45542	0.14917	0.093606	0.25885	-2.325	-3.0458	-2.8125	-2.7438	-2.8667	-2.5625	-2.9917	-3.1042	-2.5146	-2.8042	-2.9625	-2.7042	-3.0229	-2.7542	-2.7812	-3.0792	179.713	331.283	162.406	474.206	430.774	288.315	494.626	435.908	287.655	427.734	475.842	442.674	501.969	198.896	174.059	498.301	0.00060143	0.00052541	0.00014196	1359.6	5.2781e-06	5.5686e-06	1359.6	371.36	6.005e-06	5.3697e-06	424.13	145.03	125.55	43.357	4.8846e-06	53.412	0.00045025	0.00039203	0.00010848	1376.9	4.2431e-06	4.3373e-06	1379.4	378.59	4.3557e-06	4.2956e-06	432.18	147.92	128.32	44.442	4.279e-06	54.721	258.278	220.576	229.947	157.933	313.208	319.385	157.955	162.865	315.977	288.341	161.868	166.326	167.109	171.272	308.017	170.646	-8191	255	
18091.162	1	1	0	0	0.088341	0.23937	0.10158	0.051527	0.12641	0.12848	0.16256	0.10883	0.015559	0.30603	0.49506	0.2486	0.13829	0.1046	0.37265	0.27252	-2.2021	-2.8542	-2.9188	-2.8	-3.0458	-2.675	-2.9667	-3.1458	-2.5229	-2.6479	-3.0625	-2.8229	-3.1688	-2.8292	-2.7062	-2.9562	289.520	352.045	359.155	322.001	173.713	305.675	147.963	307.221	473.606	189.767	146.664	187.559	452.310	422.856	273.694	347.797	0.00057724	0.00058731	0.00013073	1359.5	4.0458e-06	5.94e-06	1369.8	371.92	5.6903e-06	7.3364e-06	424.08	145.28	126.19	43.126	4.4269e-06	53.578	0.0004406	0.00038552	0.00010615	1378	4.363e-06	4.2477e-06	1384.2	378.61	4.4409e-06	4.3078e-06	432.72	147.81	128.66	44.413	4.3261e-06	54.847	258.623	238.156	226.371	157.981	297.319	314.108	158.023	162.516	321.877	320.679	161.951	166.407	167.067	171.267	291.836	170.620	-8191	255	
18091.283	1	1	0	0	0.093028	0.17975	0.13889	0.1411	0.10501	0.119	0.37169	0.17594	0.13994	0.32814	0.19232	0.018796	0.18913	0.25038	0.16511	0.28949	-2.3208	-2.8063	-3.0229	-2.7854	-2.9583	-2.8417	-2.7354	-3.2646	-2.7354	-2.6708	-2.9479	-2.8	-3.0042	-3.0563	-2.5229	-3.0792	384.460	293.404	235.338	382.865	162.969	220.499	381.748	164.950	234.350	403.147	472.066	492.201	206.592	456.158	214.572	396.809	0.00055967	0.00033822	0.0001347	1356.8	5.6936e-06	6.0263e-06	1362.9	372.84	4.0591e-06	5.236e-06	422.79	144.27	125.94	43.286	6.15e-06	53.15	0.00045071	0.00039093	0.00010541	1378.3	4.3134e-06	4.2676e-06	1381.6	379.02	4.4127e-06	4.1988e-06	432.15	147.67	128.33	44.369	4.3973e-06	54.643	259.810	213.532	239.464	157.827	310.851	294.223	157.918	162.754	316.068	279.359	162.150	166.539	167.088	171.358	282.228	170.836	-8191	255	
18091.355	1	1	0	0	0.4043	0.20803	0.077284	0.14642	0.060004	0.10626	0.16501	0.3641	0.10695	0.15439	0.28266	0.15551	0.20068	0.031742	0.057783	0.087045	-2.2917	-2.7292	-3.0708	-2.7083	-2.7875	-3.0187	-2.9729	-3.1688	-2.6813	-2.8333	-3.1292	-2.8229	-2.8083	-2.9688	-2.6583	-2.9917	297.325	409.015	239.806	411.772	307.147	331.493	485.827	442.693	149.655	331.054	483.328	489.233	208.989	179.446	223.991	373.491	0.00057235	0.00048425	0.00013104	1358.2	4.2078e-06	4.417e-06	1361.5	370.68	4.3019e-06	7.4871e-06	422.85	144.21	125.27	42.792	5.191e-06	53.254	0.00044869	0.00039079	0.00010684	1376.6	4.1922e-06	4.3365e-06	1379.3	377.6	4.4097e-06	4.2438e-06	430.9	147.31	127.75	44.072	4.2675e-06	54.489	257.992	235.798	245.264	158.304	285.250	319.682	157.847	162.561	300.000	283.338	162.016	166.479	167.092	171.318	291.648	170.533	-8191	255	
18091.451	1	1	0	0	0.17398	0.24981	0.22966	0.15899	0.15632	0.089063	0.26146	0.20318	0.3996	0.35133	0.10251	0.16102	0.20744	0.26945	0.1173	0.15973	-2.3333	-2.5646	-2.7229	-2.7375	-2.6583	-2.9688	-2.7979	-3.1083	-2.9188	-2.7229	-3.1354	-2.7146	-2.9375	-3.125	-2.6125	-3.0542	339.963	346.863	181.592	367.750	504.450	209.500	415.761	469.966	400.031	284.187	380.197	456.169	497.042	499.208	415.824	155.922	0.00056755	0.00049327	0.00013445	1361.2	5.9502e-06	3.6015e-06	1358.3	370.89	6.151e-06	3.2221e-06	423	143.88	125.03	43.034	5.6824e-06	53.199	0.00044141	0.00038641	0.00010601	1374.9	4.3731e-06	4.2508e-06	1376.8	377.35	4.3024e-06	4.18e-06	431.07	147.12	127.72	44.194	4.3383e-06	54.618	257.990	227.567	220.965	158.103	292.620	331.299	158.124	162.969	307.032	324.468	162.295	166.668	167.174	171.448	296.813	170.607	-8191	255	
18091.549	1	1	0	0	0.08955	0.18542	0.033454	0.18388	0.15464	0.038945	0.28754	0.20853	0.2319	0.054634	0.23868	0.12127	0.095478	0.15805	0.14327	0.14593	-2.5542	-2.6562	-2.9167	-2.6979	-2.7521	-3.0208	-2.9125	-2.875	-2.9125	-2.6146	-3.0708	-2.8083	-2.9958	-3.0708	-2.7958	-2.9854	313.106	292.056	224.383	164.029	298.240	250.460	415.010	410.165	289.702	504.466	148.018	447.626	152.368	452.851	339.365	275.630	0.00060848	0.00043559	0.00013979	1353.9	6.1553e-06	6.9491e-06	1364.5	371.27	5.6613e-06	5.1158e-06	424.55	144.38	125.97	43.18	5.3954e-06	53.47	0.00044669	0.0003822	0.00010533	1374.2	4.2467e-06	4.2084e-06	1380	378.25	4.2881e-06	4.2272e-06	431.88	147.93	128.45	44.405	4.1791e-06	54.8	256.071	227.277	234.320	158.371	280.307	286.557	158.053	162.652	301.962	297.432	161.799	166.367	167.151	171.503	297.879	170.414	-8191	255	
18091.668	1	1	0	0	0.08095	0.40524	0.12344	0.20458	0.23555	0.2463	0.36017	0.16994	0.1371	0.20218	0.25803	0.20972	0.32162	0.10534	0.22077	0.0044757	-2.3396	-2.6875	-2.8812	-2.8375	-2.7021	-2.9021	-2.8771	-3.0771	-2.9417	-2.6271	-3.3396	-2.7854	-2.7792	-3.0687	-2.6458	-3.0375	364.149	432.285	190.908	255.519	504.405	442.152	456.138	437.737	205.838	463.710	225.734	483.068	445.106	281.013	427.430	376.669	0.00056636	0.00044727	0.00016498	1361.1	4.8768e-06	5.9054e-06	1365.4	371.05	6.1491e-06	5.8642e-06	424.39	144.82	126.07	43.301	4.8041e-06	53.523	0.00043022	0.00037821	0.00010633	1375.7	4.1603e-06	4.0184e-06	1380.1	378.56	4.1776e-06	4.1575e-06	432.08	147.76	128.61	44.477	4.1955e-06	54.842	257.892	237.920	247.033	157.910	293.453	293.452	157.985	162.792	308.483	284.722	162.012	166.502	167.188	171.455	286.705	170.651	-8191	255	
18091.764	1	1	0	0	0.14166	0.20319	0.039734	0.20133	0.042579	0.24093	0.29106	0.23179	0.24461	0.1825	0.29097	0.21611	0.088715	0.024018	0.052145	0.20725	-2.6021	-2.525	-2.85	-2.8333	-2.8583	-3.125	-2.8354	-2.9625	-2.9229	-2.7396	-3.0854	-2.9833	-2.6396	-3.0375	-2.8042	-2.8563	410.616	178.323	315.185	484.311	483.022	477.640	495.786	455.158	424.486	359.659	173.959	444.840	295.575	389.527	448.700	405.292	0.00058934	0.00039468	0.00015865	1362.8	6.8338e-06	7.2568e-06	1366.3	373.7	4.2391e-06	6.4917e-06	424.79	145.15	125.99	43.339	5.5228e-06	53.507	0.00043633	0.00037514	0.00010742	1379.3	4.0906e-06	4.0547e-06	1381.7	379.85	4.2132e-06	4.0833e-06	432.88	148.23	128.73	44.557	4.2143e-06	54.917	257.368	220.021	240.112	158.236	291.850	292.956	157.631	162.776	324.060	305.935	162.037	166.648	166.899	171.276	293.891	170.531	-8191	255	
18091.859	1	1	0	0	0.18949	0.12888	0.27259	0.1586	0.061869	0.21741	0.17663	0.34307	0.16567	0.089302	0.24722	0.35828	0.049704	0.14618	0.087001	0.06703	-2.5187	-2.475	-2.9604	-2.6479	-2.5521	-3.1542	-3.0062	-2.9917	-2.9583	-2.6271	-2.9896	-2.9875	-2.775	-3.0271	-2.7042	-2.8729	491.296	262.436	421.836	181.654	421.957	197.246	442.966	448.949	447.055	383.680	433.736	166.383	381.693	424.583	423.166	151.977	0.00058522	0.00068806	0.00010752	1363.1	3.2247e-06	5.3218e-06	1365.3	373.93	5.2179e-06	4.3743e-06	426.73	145.34	126.52	43.482	4.4048e-06	53.726	0.00044038	0.00037625	0.0001048	1378.8	4.1119e-06	4.0112e-06	1383.8	380.03	4.2891e-06	4.0645e-06	433.44	148.48	129.05	44.657	4.1891e-06	55.065	259.705	226.245	226.919	158.190	317.035	290.096	157.910	162.616	306.762	320.596	162.011	166.298	167.124	171.275	293.823	170.789	-8191	255	
18091.955	1	1	0	0	0.2514	0.17185	0.23708	0.20073	0.18333	0.16264	0.30001	0.12885	0.12904	0.10928	0.25811	0.071251	0.11333	0.23115	0.069954	0.29218	-2.6875	-2.6958	-2.8125	-2.9938	-2.6083	-2.8937	-3.0125	-2.6792	-3.1	-2.7188	-2.8896	-2.9854	-2.8563	-3.1417	-2.8229	-2.7562	478.701	432.298	347.125	277.435	432.743	350.271	445.709	480.480	345.400	369.089	485.760	457.245	177.731	487.939	177.627	327.014	0.00058089	0.00053901	0.00011522	1361.6	6.5988e-06	5.6201e-06	1366.1	372.18	3.9524e-06	5.9075e-06	425.22	145.14	126.39	43.552	5.0572e-06	53.599	0.00042598	0.00037322	0.00010313	1377.4	4.1217e-06	4.1397e-06	1383.7	379.09	4.2119e-06	4.1116e-06	433.33	148.37	128.93	44.627	4.0868e-06	54.983	258.046	193.475	240.439	157.465	301.316	301.434	157.777	162.896	312.835	299.538	161.970	166.541	166.856	171.489	287.902	170.193	-8191	255	
18092.051	1	1	0	0	0.155	0.16802	0.22015	0.1917	0.10478	0.081569	0.11808	0.26621	0.2568	0.091719	0.048993	0.22492	0.073229	0.32153	0.04893	0.13996	-2.6688	-2.5563	-2.7646	-2.9375	-2.5187	-2.9042	-2.9833	-2.6667	-2.8521	-2.6708	-2.7792	-3.1479	-2.6833	-3.0229	-2.8583	-2.8333	279.417	330.523	382.648	447.765	305.107	220.873	460.496	423.959	331.875	429.374	379.044	422.992	493.365	438.925	415.866	253.258	0.00057908	0.00053599	0.00015129	1366.9	5.3385e-06	4.6e-06	1364.6	373.5	5.2069e-06	5.6594e-06	426.15	145.78	126.27	43.448	4.9514e-06	53.686	0.00043471	0.00037463	0.00010229	1380.8	4.077e-06	3.9729e-06	1383.4	379.41	4.1244e-06	4.255e-06	433.32	148.51	128.86	44.578	4.2315e-06	54.945	258.967	231.060	228.805	157.494	309.518	310.208	157.855	162.746	306.512	295.102	161.951	166.319	166.990	171.333	296.802	170.468	-8191	255	
18092.146	1	1	0	0	0.19549	0.26431	0.21962	0.18066	0.13796	0.11473	0.094187	0.28123	0.12241	0.099616	0.14432	0.18632	0.20652	0.1367	0.068094	0.38729	-2.5271	-2.6604	-2.6708	-2.9792	-2.4708	-2.7188	-3.0979	-2.7792	-2.9646	-2.7	-2.8021	-2.9896	-2.7833	-2.8688	-2.6917	-2.6229	345.143	206.238	415.753	341.069	334.883	210.328	484.718	439.794	290.745	161.099	214.943	146.099	471.603	356.870	326.649	474.412	0.00058743	0.00064444	0.00013476	1362.4	5.7403e-06	4.9763e-06	1366.8	373.52	5.6717e-06	5.1424e-06	427.16	145.59	126.42	43.552	4.8133e-06	53.549	0.00044255	0.00036822	0.00010554	1379.5	4.1798e-06	4.0556e-06	1383.2	379.84	4.228e-06	4.0238e-06	433.46	148.37	128.95	44.704	4.1518e-06	55.05	259.160	235.444	252.084	158.111	308.001	302.421	157.833	162.865	291.717	306.184	162.006	166.499	166.912	171.169	317.750	170.837	-8191	255	
18092.268	1	1	0	0	0.065611	0.078932	0.19849	0.30049	0.045016	0.038055	0.18225	0.31591	0.2705	0.033421	0.041996	0.33441	0.2173	0.18061	0.18546	0.20763	-2.5458	-2.6417	-2.55	-2.9688	-2.7333	-2.8354	-3.15	-2.5667	-2.8333	-2.8563	-2.6708	-3.1562	-2.9354	-2.8521	-3.0333	-2.7771	221.455	206.419	279.110	148.806	496.388	372.322	456.501	424.651	418.675	298.187	158.747	437.250	486.353	499.219	425.030	184.051	0.00058602	0.00059758	0.00012297	1359.6	3.2508e-06	6.0731e-06	1365	373.28	5.5354e-06	3.7973e-06	425.43	145.61	127.15	43.54	5.4566e-06	53.539	0.00043655	0.00037617	0.00010507	1382	4.2099e-06	4.0306e-06	1384.6	380.73	4.2433e-06	4.1728e-06	434.85	148.96	129.56	44.832	4.1201e-06	55.176	258.788	235.221	223.464	158.125	292.696	307.113	158.020	162.711	297.128	298.190	161.946	166.680	167.153	171.258	303.223	170.423	-8191	255	
18092.363	1	1	0	0	0.11394	0.23971	0.14042	0.089328	0.15575	0.24343	0.42747	0.21324	0.1376	0.10667	0.12895	0.1952	0.17861	0.20431	0.2378	0.22657	-2.3563	-2.8333	-2.6708	-2.8958	-2.8104	-2.7875	-3.1792	-2.7313	-2.9	-2.9333	-2.7021	-3.0354	-2.8125	-2.6646	-2.9021	-2.9062	384.637	411.221	301.844	274.311	267.068	474.208	425.316	462.017	340.583	446.292	188.171	488.922	451.079	190.290	439.168	452.220	0.00062267	0.00045952	0.00019968	1357	4.1799e-06	4.876e-06	1367.2	373.27	6.6408e-06	6.2404e-06	424.44	144.87	125.78	43.187	6.0125e-06	53.138	0.00044377	0.00037562	0.00010398	1379.1	4.0944e-06	4.1399e-06	1384.4	379.93	4.1789e-06	4.1125e-06	432.42	148.05	128.65	44.41	4.2368e-06	54.666	256.281	231.674	234.120	158.061	298.977	293.634	157.760	162.741	310.807	310.592	161.848	166.369	166.918	171.408	284.492	170.851	-8191	255	
18092.459	1	1	0	0	0.14468	0.18979	0.32002	0.41075	0.11065	0.21882	0.17677	0.25761	0.20235	0.12992	0.17588	0.24654	0.13023	0.17073	0.084469	0.30548	-2.5271	-2.7708	-2.5854	-2.9854	-2.7042	-2.6229	-3.1354	-2.6146	-2.7875	-2.8771	-2.6021	-2.7625	-2.7521	-2.7167	-2.8688	-2.7646	323.781	409.399	391.081	201.818	489.603	334.507	467.049	469.856	243.317	364.043	329.585	472.305	407.185	483.887	389.958	445.781	0.00060618	0.00041803	9.1242e-05	1356.2	6.9166e-06	3.5858e-06	1359.1	371.07	5.3115e-06	1.9549e-06	423.28	143.5	124.67	42.759	3.8639e-06	52.835	0.00045076	0.00038979	0.00011094	1373.8	4.3833e-06	4.3828e-06	1378	376.37	4.3478e-06	4.3117e-06	430.41	146.63	127.26	43.97	4.47e-06	54.33	257.100	223.800	269.251	158.183	297.806	327.709	157.657	162.633	312.574	377.208	161.912	166.798	167.092	171.330	298.287	170.794	-8191	255	
18092.555	1	1	0	0	0.21577	0.25263	0.086849	0.10475	0.31789	0.34556	0.15071	0.17006	0.081881	0.17806	0.26551	0.082524	0.31503	0.32531	0.15913	0.13337	-2.125	-2.8479	-2.6083	-2.7	-2.6813	-2.4917	-3.1813	-2.6813	-2.6208	-2.8812	-2.6437	-2.9396	-2.8542	-2.6792	-2.9417	-2.7313	221.605	204.215	229.345	438.387	153.541	389.937	493.206	362.979	355.314	270.163	474.430	449.173	464.002	483.308	272.702	425.372	0.00059941	0.00044027	0.00015476	1357.5	6.1951e-06	3.3608e-06	1359.9	372.02	5.6616e-06	5.2152e-06	422.77	144.48	124.96	43.008	5.8064e-06	53.134	0.00045737	0.00041016	0.0001124	1376.5	4.3963e-06	4.3817e-06	1379.6	378.17	4.384e-06	4.4457e-06	431.48	147.52	127.97	44.313	4.3685e-06	54.627	258.509	226.386	212.190	158.159	283.653	296.487	157.977	162.596	313.849	286.279	161.827	166.572	167.286	171.388	299.632	170.603	-8191	255	
18092.650	1	1	0	0	0.074567	0.11032	0.17288	0.16728	0.10334	0.088694	0.29824	0.23132	0.23169	0.093287	0.31915	0.092616	0.21598	0.14006	0.10929	0.068633	-2.3354	-2.9354	-2.6417	-2.8792	-2.8542	-2.4188	-3.0583	-2.8646	-2.55	-2.8604	-2.7167	-2.8271	-2.8875	-2.4875	-3	-2.75	309.837	301.983	220.390	364.564	379.508	393.840	397.906	172.611	413.582	151.594	459.095	501.367	210.356	466.424	399.613	303.774	0.00057123	0.00038048	0.00010866	1361.8	6.3002e-06	6.2703e-06	1362.8	371.93	4.3719e-06	7.064e-06	424.51	144.16	125.87	43.312	4.0457e-06	53.254	0.00044745	0.00039107	0.00010958	1378.1	4.1417e-06	4.0988e-06	1381.5	378.75	4.3565e-06	4.2335e-06	432.46	147.66	128.33	44.458	4.2989e-06	54.743	256.852	251.114	253.038	158.082	302.352	316.005	157.914	162.653	316.653	293.081	161.916	166.579	167.227	171.328	292.779	170.513	-8191	255	
#DATA ENDS
