BOXY.EXE: ISS Imagent and Oximeter Data Acquisition Program Version 0.80
Ascii Record File

#ACQ INFORMATION
2  Detector Channels 
16  External MUX Channels 
1  Auxiliary Channels 
5000  Waveform (CCF) Frequency (Hz)
1  Waveforms Skipped 
30  Waveforms Averaged 
1  Cycles Averaged 
16  Acquisitions per Waveform 
10.0806  Updata Rate (Hz) 

#FILE INFORMATION
TRUE -- External MUX Channel results are PARSED.
FALSE -- AC DC and Phase are NOT grouped.
TRUE -- Companion Program Settings File CREATED.
FALSE -- AC data not excluded
FALSE -- DC data not excluded
FALSE -- Phase data not excluded
FALSE -- Auxillary Chn. data not excluded
Tab delimiters

#CALIBRATION STATE
TRUE -- Waveform Calibration Values APPLIED.


#AUX CALIBRATION VALUES
Val Type	aux-1	

Term	1.0000e+00	
Factor	0.0000e+00	


#WF CALIBRATION VALUES
A = Detector Channel
Val Type	A-AC1	A-AC2	A-AC3	A-AC4	A-AC5	A-AC6	A-AC7	A-AC8	A-AC9	A-AC10	A-AC11	A-AC12	A-AC13	A-AC14	A-AC15	A-AC16	A-DC1	A-DC2	A-DC3	A-DC4	A-DC5	A-DC6	A-DC7	A-DC8	A-DC9	A-DC10	A-DC11	A-DC12	A-DC13	A-DC14	A-DC15	A-DC16	A-Ph1	A-Ph2	A-Ph3	A-Ph4	A-Ph5	A-Ph6	A-Ph7	A-Ph8	A-Ph9	A-Ph10	A-Ph11	A-Ph12	A-Ph13	A-Ph14	A-Ph15	A-Ph16	

Term	0.00000e+00	0.00000e+00	0.00000e+00	0.00000e+00	0.00000e+00	0.00000e+00	0.00000e+00	0.00000e+00	0.00000e+00	0.00000e+00	0.00000e+00	0.00000e+00	0.00000e+00	0.00000e+00	0.00000e+00	0.00000e+00	0.00000e+00	0.00000e+00	0.00000e+00	0.00000e+00	0.00000e+00	0.00000e+00	0.00000e+00	0.00000e+00	0.00000e+00	0.00000e+00	0.00000e+00	0.00000e+00	0.00000e+00	0.00000e+00	0.00000e+00	0.00000e+00	0.00000e+00	0.00000e+00	0.00000e+00	0.00000e+00	0.00000e+00	0.00000e+00	0.00000e+00	0.00000e+00	0.00000e+00	0.00000e+00	0.00000e+00	0.00000e+00	0.00000e+00	0.00000e+00	0.00000e+00	0.00000e+00	
Factor	1.00000e+00	1.00000e+00	1.00000e+00	1.00000e+00	1.00000e+00	1.00000e+00	1.00000e+00	1.00000e+00	1.00000e+00	1.00000e+00	1.00000e+00	1.00000e+00	1.00000e+00	1.00000e+00	1.00000e+00	1.00000e+00	1.00000e+00	1.00000e+00	1.00000e+00	1.00000e+00	1.00000e+00	1.00000e+00	1.00000e+00	1.00000e+00	1.00000e+00	1.00000e+00	1.00000e+00	1.00000e+00	1.00000e+00	1.00000e+00	1.00000e+00	1.00000e+00	X	X	X	X	X	X	X	X	X	X	X	X	X	X	X	X	

B = Detector Channel
Val Type	B-AC1	B-AC2	B-AC3	B-AC4	B-AC5	B-AC6	B-AC7	B-AC8	B-AC9	B-AC10	B-AC11	B-AC12	B-AC13	B-AC14	B-AC15	B-AC16	B-DC1	B-DC2	B-DC3	B-DC4	B-DC5	B-DC6	B-DC7	B-DC8	B-DC9	B-DC10	B-DC11	B-DC12	B-DC13	B-DC14	B-DC15	B-DC16	B-Ph1	B-Ph2	B-Ph3	B-Ph4	B-Ph5	B-Ph6	B-Ph7	B-Ph8	B-Ph9	B-Ph10	B-Ph11	B-Ph12	B-Ph13	B-Ph14	B-Ph15	B-Ph16	

Term	0.00000e+00	0.00000e+00	0.00000e+00	0.00000e+00	0.00000e+00	0.00000e+00	0.00000e+00	0.00000e+00	0.00000e+00	0.00000e+00	0.00000e+00	0.00000e+00	0.00000e+00	0.00000e+00	0.00000e+00	0.00000e+00	0.00000e+00	0.00000e+00	0.00000e+00	0.00000e+00	0.00000e+00	0.00000e+00	0.00000e+00	0.00000e+00	0.00000e+00	0.00000e+00	0.00000e+00	0.00000e+00	0.00000e+00	0.00000e+00	0.00000e+00	0.00000e+00	-6.17670e+01	-1.17693e+02	-1.30885e+02	-1.82018e+02	-5.11864e+01	-6.70008e+01	-1.55566e+02	-1.62015e+02	-4.29654e+01	-6.60393e+01	-1.70902e+02	-1.71043e+02	-1.81611e+02	-1.77315e+02	-6.75489e+01	-1.50242e+02	
Factor	1.98146e-05	1.72452e-04	4.31470e-05	4.75774e-01	1.73883e-06	1.64103e-06	1.72184e-01	5.95565e-02	1.15079e-06	1.65968e-06	9.35124e-02	3.08221e-02	2.59045e-02	9.47689e-03	1.54544e-06	1.37531e-02	3.46549e-06	3.90214e-06	1.08874e-06	2.36928e-01	4.27498e-08	4.29708e-08	8.21137e-02	3.01900e-02	4.22782e-08	4.30467e-08	4.57804e-02	1.51857e-02	1.32746e-02	4.83807e-03	4.25424e-08	6.77260e-03	X	X	X	X	X	X	X	X	X	X	X	X	X	X	X	X	



#DISTANCE SETTINGS
A = Detector Channel
A-1	A-2	A-3	A-4	A-5	A-6	A-7	A-8	A-9	A-10	A-11	A-12	A-13	A-14	A-15	A-16	

2.5000e+00	3.0000e+00	2.5000e+00	3.0000e+00	2.0000e+00	3.0000e+00	1.5000e+00	3.0000e+00	3.0000e+00	3.0000e+00	3.0000e+00	3.0000e+00	3.0000e+00	3.0000e+00	1.5000e+00	3.0000e+00	

B = Detector Channel
B-1	B-2	B-3	B-4	B-5	B-6	B-7	B-8	B-9	B-10	B-11	B-12	B-13	B-14	B-15	B-16	

1.0000e+01	1.0000e+01	1.0000e+01	1.4400e+00	1.0000e+01	1.0000e+01	1.5100e+00	1.9400e+00	1.0000e+01	1.0000e+01	1.9900e+00	2.4900e+00	2.4100e+00	2.9000e+00	1.0000e+01	2.9800e+00	




#DATA BEGINS
time	group	step	mark	flag	A-AC1	A-AC2	A-AC3	A-AC4	A-AC5	A-AC6	A-AC7	A-AC8	A-AC9	A-AC10	A-AC11	A-AC12	A-AC13	A-AC14	A-AC15	A-AC16	A-DC1	A-DC2	A-DC3	A-DC4	A-DC5	A-DC6	A-DC7	A-DC8	A-DC9	A-DC10	A-DC11	A-DC12	A-DC13	A-DC14	A-DC15	A-DC16	A-Ph1	A-Ph2	A-Ph3	A-Ph4	A-Ph5	A-Ph6	A-Ph7	A-Ph8	A-Ph9	A-Ph10	A-Ph11	A-Ph12	A-Ph13	A-Ph14	A-Ph15	A-Ph16	B-AC1	B-AC2	B-AC3	B-AC4	B-AC5	B-AC6	B-AC7	B-AC8	B-AC9	B-AC10	B-AC11	B-AC12	B-AC13	B-AC14	B-AC15	B-AC16	B-DC1	B-DC2	B-DC3	B-DC4	B-DC5	B-DC6	B-DC7	B-DC8	B-DC9	B-DC10	B-DC11	B-DC12	B-DC13	B-DC14	B-DC15	B-DC16	B-Ph1	B-Ph2	B-Ph3	B-Ph4	B-Ph5	B-Ph6	B-Ph7	B-Ph8	B-Ph9	B-Ph10	B-Ph11	B-Ph12	B-Ph13	B-Ph14	B-Ph15	B-Ph16	aux-1	digaux	

18006.068	1	1	0	768	0.097948	0.083133	0.049345	0.16756	0.025529	0.30695	0.2827	0.1241	0.13062	0.021186	0.062709	0.055897	0.15639	0.20794	0.24838	0.12709	-2.375	-3.0917	-2.7667	-2.8896	-2.975	-2.7083	-3.1688	-3.2104	-2.7604	-3.1271	-2.9562	-2.7292	-3.0667	-2.8312	-2.9583	-3.2042	-24.682	-44.292	242.559	-44.831	36.217	-30.872	208.842	224.822	-27.333	116.468	79.601	-76.506	67.905	203.772	-12.001	127.822	0.00015254	0.00056452	0.00019487	1372.6	7.5288e-06	3.0947e-06	1375.6	368.88	3.2828e-06	8.936e-07	425.57	139.75	122.01	42.2	3.849e-06	51.754	0.00054611	0.00057236	0.00016063	1385.5	6.2408e-06	6.2631e-06	1385.7	374.85	6.1864e-06	6.3392e-06	430	143.54	125.01	43.158	6.2759e-06	52.902	244.633	16.564	42.888	-66.937	101.972	70.921	-66.821	-62.147	66.270	53.408	-62.622	-58.103	-57.597	-53.143	24.045	-54.310	-8191	255	
18006.164	1	1	0	0	0.0568	0.039398	0.13761	0.20678	0.16712	0.30054	0.35182	0.16605	0.13774	0.083205	0.094652	0.11171	0.015985	0.025854	0.15155	0.1374	-2.375	-2.8458	-2.7625	-2.6312	-3.1229	-2.9062	-3.025	-3.1229	-2.7021	-3.1729	-3.0083	-2.8917	-3.1375	-2.9104	-2.65	-3.0625	104.971	-60.340	86.780	19.683	117.567	-76.128	194.214	-35.718	-64.528	169.627	-58.603	29.676	42.000	130.710	-36.973	-72.416	0.00017187	0.0005895	9.2198e-05	1378.4	2.0672e-06	3.3163e-06	1375.4	368.66	3.3248e-07	4.5608e-06	424.79	140.58	122.55	42.241	1.6332e-06	52.006	0.00054207	0.00056981	0.00015911	1389.6	6.2307e-06	6.2587e-06	1386.7	374.64	6.2746e-06	6.3006e-06	429.53	143.79	125.19	43.208	6.2207e-06	53.001	240.422	75.488	-43.709	-66.512	19.354	53.510	-66.701	-62.154	3.281	121.823	-62.772	-58.015	-57.788	-53.656	146.454	-54.122	-8191	255	
18006.262	1	1	0	0	0.09077	0.062717	0.075247	0.24723	0.2315	0.17424	0.24029	0.1409	0.10671	0.12736	0.23078	0.30774	0.1996	0.10594	0.27435	0.1412	-2.2229	-2.8708	-2.9667	-2.7167	-2.9417	-2.7333	-3.1229	-3.1167	-2.8063	-2.8937	-3.0604	-2.7854	-2.8	-2.8937	-2.7188	-3.0083	-46.349	96.123	164.655	220.585	41.548	259.806	227.014	267.199	145.305	116.904	248.773	-62.985	-57.372	-33.208	-46.656	221.141	0.00012622	0.00075321	0.00016844	1381.2	9.2564e-06	6.2313e-06	1376.6	368.44	1.1589e-06	2.4323e-06	424.11	140.12	122.46	42.247	3.1973e-06	51.772	0.00054182	0.00057192	0.0001556	1388.8	6.258e-06	6.2422e-06	1385.8	374.71	6.2494e-06	6.2007e-06	429.29	143.68	125.22	43.165	6.0575e-06	52.908	254.736	25.611	22.218	-66.943	108.776	72.741	-66.798	-61.996	-32.449	62.994	-62.546	-57.818	-57.532	-53.341	84.545	-53.973	-8191	255	
18006.357	1	1	0	0	0.062319	0.20894	0.14775	0.30563	0.25533	0.2562	0.11902	0.036198	0.13191	0.095007	0.18474	0.23565	0.020615	0.26363	0.03358	0.27172	-2.1167	-2.8854	-2.8833	-2.8083	-3.0896	-2.8667	-2.7708	-3.1937	-2.6208	-2.8854	-3.1729	-2.8375	-3.0042	-3.0292	-2.7375	-3.1708	47.673	238.745	260.294	229.056	70.165	-26.404	255.580	198.041	91.510	77.213	188.917	-32.039	227.973	-20.821	213.500	189.800	0.00020691	0.00042198	0.00015123	1374.9	5.3857e-06	5.2307e-06	1375.3	370.93	3.9782e-06	5.8777e-06	423.47	140.14	121.74	42.308	5.9621e-06	51.856	0.00053269	0.00056574	0.00015457	1385.2	6.1717e-06	6.0641e-06	1385.5	375.59	6.1932e-06	6.137e-06	429.37	143.53	124.89	43.231	6.0656e-06	52.946	239.755	8.655	15.766	-66.934	109.326	43.755	-66.618	-62.117	48.877	62.886	-62.509	-57.801	-57.745	-53.425	52.289	-54.285	-8191	255	
18006.453	1	1	0	0	0.26649	0.13791	0.11124	0.16145	0.045467	0.079313	0.1642	0.22236	0.21373	0.079864	0.18743	0.13159	0.17583	0.05267	0.014828	0.11293	-2.3042	-2.6792	-2.9708	-2.7604	-2.9125	-2.9521	-3.0583	-3.0625	-2.8	-2.8917	-3.1917	-2.9042	-3.0104	-3.0708	-2.7687	-3.1208	186.337	253.670	209.441	-2.809	-31.563	256.760	-66.682	230.039	105.287	241.229	42.325	177.999	183.452	206.625	176.673	136.901	0.00015929	0.0007358	0.00012431	1378.1	3.459e-06	4.8696e-06	1375.7	368.7	5.8169e-07	3.5573e-06	423.67	140.19	122.13	42.158	5.4917e-06	52.073	0.00053293	0.00055907	0.00015501	1386.5	6.2065e-06	6.1582e-06	1386.7	374.62	6.2493e-06	6.0669e-06	428.66	143.85	125.06	43.17	6.043e-06	52.971	241.430	5.049	-5.874	-66.858	71.289	48.686	-66.762	-62.161	191.036	75.962	-62.949	-58.200	-57.465	-53.433	74.218	-54.136	-8191	255	
18006.549	1	1	0	0	0.1205	0.15143	0.2419	0.16952	0.19707	0.19185	0.13366	0.23525	0.049441	0.15973	0.24507	0.13745	0.066593	0.0079986	0.16333	0.35985	-2.5042	-2.6333	-3.1021	-2.7875	-2.7667	-3.1063	-2.9375	-3.0917	-2.8063	-2.5521	-2.9396	-2.6188	-2.9125	-2.9375	-2.7708	-3.0375	-11.180	113.875	155.917	-74.451	143.013	70.310	181.424	107.613	33.796	-10.074	202.453	-24.158	121.404	251.971	112.636	124.766	0.00013408	0.00076223	0.00017514	1378.2	3.2973e-06	5.9544e-06	1374.5	368.87	1.2717e-06	7.6617e-06	422.28	139.52	122.61	42.202	2.7717e-06	51.795	0.00054213	0.00056173	0.00015491	1389.8	6.088e-06	6.0851e-06	1385.4	374.44	6.0626e-06	6.0359e-06	428.86	143.34	125.11	43.153	6.1665e-06	52.927	270.826	2.444	10.246	-66.955	69.707	32.159	-66.660	-62.160	98.852	18.874	-62.696	-58.132	-57.635	-53.407	81.050	-54.043	-8191	255	
18006.670	1	1	0	0	0.2201	0.11467	0.15286	0.27927	0.16406	0.044805	0.097656	0.16359	0.020117	0.11372	0.10238	0.25818	0.24151	0.1289	0.18621	0.50293	-2.3917	-2.6562	-3.0812	-2.8354	-2.8896	-3.0021	-2.9437	-2.9979	-2.9437	-2.6333	-3.0167	-2.6021	-2.9042	-3.1729	-2.6375	-2.9458	243.838	2.466	163.371	251.278	-24.994	220.653	207.929	241.500	151.801	-23.773	141.507	224.000	-74.593	-53.790	-36.278	169.359	0.00014089	0.00073295	0.00013202	1379.6	4.8615e-06	4.4998e-06	1376.8	369.81	2.588e-06	7.2995e-06	421.97	140.6	122.36	42.039	6.8024e-06	51.834	0.00053259	0.00055343	0.00015602	1387.5	6.135e-06	6.0333e-06	1387.2	375.3	6.093e-06	6.0939e-06	428.63	143.72	125.05	43.066	6.154e-06	52.873	238.607	40.960	22.597	-66.943	72.620	96.805	-66.750	-62.140	57.146	69.627	-62.700	-58.051	-57.568	-53.346	78.057	-53.872	-8191	255	
18006.764	1	1	0	0	0.20143	0.12582	0.18566	0.046548	0.13772	0.24343	0.2786	0.12872	0.19996	0.072683	0.065285	0.10034	0.074744	0.29704	0.15054	0.18494	-2.525	-2.4271	-2.9708	-2.8646	-2.8812	-3.0479	-2.8958	-2.7833	-3.05	-2.7188	-3.125	-2.9792	-2.9083	-3.2375	-2.9021	-3.1604	0.984	254.534	179.071	181.966	177.438	-39.375	180.686	-62.617	131.507	154.143	-52.803	174.931	-19.322	264.199	184.814	267.773	0.0001307	0.00044392	7.6455e-05	1373.1	2.9399e-06	5.3121e-06	1373.9	368.97	1.4057e-06	7.8822e-06	423.69	140.95	121.91	42.258	5.0084e-06	51.987	0.0005255	0.00055914	0.00015449	1388.4	6.1037e-06	6.1534e-06	1385.6	374.97	6.0895e-06	6.1606e-06	428.98	143.59	124.99	43.196	6.1366e-06	52.963	252.578	7.093	272.154	-66.978	101.439	117.365	-66.892	-61.968	60.716	87.840	-62.575	-57.792	-57.821	-53.374	67.908	-54.164	-8191	255	
18006.861	1	1	0	0	0.099499	0.05707	0.23879	0.079582	0.11415	0.17976	0.26101	0.2882	0.07352	0.17772	0.2765	0.18253	0.053527	0.085169	0.28339	0.18064	-2.6458	-2.7125	-2.8354	-3.0875	-2.6042	-3.0687	-2.9042	-2.8479	-2.8042	-2.6396	-3.0229	-2.7896	-2.7458	-3.1333	-2.7667	-2.9708	35.263	133.150	-43.334	164.850	-17.974	26.462	-53.514	212.978	50.736	-54.197	197.546	-19.633	252.842	278.753	105.686	223.516	0.00016281	0.00060257	0.00013256	1379.9	2.3956e-06	6.0376e-06	1371	370.66	2.007e-06	3.7872e-06	424.43	140.23	122.24	42.222	5.078e-06	51.967	0.00053274	0.00055823	0.00015693	1386.4	6.1082e-06	6.0719e-06	1385.1	375.38	6.1411e-06	6.0984e-06	428.75	143.35	124.92	43.175	6.2217e-06	52.974	226.058	14.047	-23.662	-67.452	85.995	35.529	-66.765	-62.124	1.780	76.249	-62.830	-57.971	-57.739	-53.463	74.463	-54.047	-8191	255	
18006.957	1	1	0	0	0.19558	0.087433	0.20445	0.058874	0.12269	0.21013	0.34181	0.33457	0.14755	0.39621	0.28601	0.17076	0.064228	0.12997	0.23714	0.10841	-2.4833	-2.7646	-2.8917	-3.0104	-2.7958	-3.1896	-2.9062	-3.0792	-2.9813	-2.6562	-3.2542	-2.9042	-2.7562	-3.1896	-2.875	-2.9417	29.075	11.684	253.972	-62.606	182.720	-43.812	272.079	211.004	258.421	233.602	-33.643	-36.565	-68.422	25.152	-74.526	258.138	0.00013135	0.00058042	0.0001295	1383	3.7744e-06	6.5881e-06	1376.8	370.71	6.5495e-07	4.1003e-06	422.64	140.41	122.13	42.009	3.162e-06	51.971	0.00053909	0.00056451	0.00015811	1386.5	6.2322e-06	6.2404e-06	1385.1	375.44	6.1592e-06	6.2377e-06	428.51	143.44	124.84	43.152	6.1286e-06	52.886	261.114	84.348	80.927	-66.848	79.454	64.863	-66.690	-62.218	25.816	57.077	-62.754	-57.799	-57.860	-53.414	67.708	-53.824	-8191	255	
18007.053	1	1	0	0	0.17362	0.11142	0.44893	0.24815	0.19608	0.047843	0.25458	0.45513	0.083662	0.041464	0.077417	0.17994	0.3895	0.080427	0.053803	0.23669	-2.6292	-2.7396	-2.8688	-2.9437	-2.6667	-2.9583	-3.0271	-2.8667	-3.1125	-2.8667	-2.9917	-3.0833	-2.8854	-2.9688	-2.7	-2.8187	28.202	221.614	58.453	230.359	244.750	146.053	213.105	239.651	46.405	-13.039	46.847	179.819	21.222	2.214	-19.542	183.387	0.00016959	0.00085918	0.00015866	1377	2.7875e-06	5.4833e-06	1374.5	369.87	2.5235e-06	1.1416e-05	424.01	139.82	122.17	42.061	5.4582e-06	51.792	0.00054545	0.00056964	0.00015851	1386.7	6.1242e-06	6.2934e-06	1385.5	375.14	6.1959e-06	6.274e-06	428.85	143.6	125.06	43.078	6.348e-06	52.92	253.803	37.320	16.890	-66.676	81.165	94.526	-66.753	-61.912	95.120	89.235	-62.557	-58.027	-57.825	-53.605	88.702	-54.273	-8191	255	
18007.148	1	1	0	0	0.088725	0.18663	0.19699	0.13987	0.20445	0.29167	0.48511	0.057927	0.15322	0.27358	0.17932	0.13272	0.23261	0.040623	0.12515	0.12391	-2.5146	-2.6937	-2.9354	-3.0375	-2.6667	-2.975	-3.0187	-2.7646	-3.0125	-2.6896	-3.1583	-3.1688	-2.7292	-3.1958	-2.9396	-2.6625	223.491	28.847	89.210	49.965	157.145	21.179	210.387	101.116	-68.603	-54.519	53.910	-42.007	220.185	120.637	262.260	265.902	0.00012819	0.00042254	9.7365e-05	1375.9	6.1921e-06	5.5535e-06	1375.5	369.32	1.5514e-06	9.4319e-07	423.72	139.72	122.25	42.253	4.8277e-06	51.899	0.00054864	0.00057709	0.00015901	1386	6.2812e-06	6.3822e-06	1386.5	375.15	6.3516e-06	6.3843e-06	429.41	143.42	124.92	43.189	6.2817e-06	52.889	262.922	7.021	13.795	-66.890	99.239	85.054	-66.703	-62.091	104.982	-51.200	-62.661	-58.281	-57.750	-53.327	83.447	-53.725	-8191	255	
18007.270	1	1	0	0	0.1258	0.12249	0.32504	0.1918	0.13677	0.044723	0.26986	0.19599	0.18364	0.024517	0.28768	0.015031	0.076718	0.22444	0.094936	0.092407	-2.6063	-2.6583	-2.8042	-2.9688	-2.7542	-2.9437	-2.8729	-2.7083	-3.0083	-2.8167	-2.7188	-3.2292	-2.8625	-3.1188	-3.0312	-2.7479	81.517	147.909	185.491	-58.836	35.327	113.588	119.026	266.834	-54.181	-66.952	201.792	12.341	172.142	-73.483	156.542	160.896	0.00012418	0.00047725	0.00024611	1377.8	4.2e-06	3.6798e-06	1375.2	368.05	5.7281e-06	5.9348e-07	424.7	140.25	121.77	42.292	2.4491e-06	52.152	0.00054999	0.00057548	0.0001574	1386.6	6.1314e-06	6.1617e-06	1383	374.21	6.0395e-06	6.0225e-06	428.87	143.33	124.73	43.165	5.8316e-06	52.84	240.162	14.067	21.009	-66.656	139.664	48.362	-66.770	-62.244	42.768	31.471	-62.883	-58.211	-57.661	-53.375	70.330	-54.023	-8191	255	
18007.365	1	1	0	0	0.11696	0.26993	0.1159	0.12224	0.25054	0.035036	0.12803	0.18674	0.099354	0.20855	0.39225	0.20527	0.19559	0.37929	0.11951	0.35292	-2.5042	-2.6063	-2.7521	-3.1583	-2.8458	-2.9479	-3.1583	-2.6937	-2.875	-2.9208	-2.7687	-2.9896	-2.8937	-2.8396	-3.0583	-2.8479	142.405	189.607	222.784	-9.295	142.007	258.008	218.511	255.138	152.191	116.969	172.790	220.954	275.756	240.681	76.766	248.022	0.00016166	0.00063895	0.00011513	1372.9	4.3693e-06	4.0957e-06	1370.2	367.77	2.7854e-06	4.7519e-06	423.27	140.38	121.86	42.143	4.7175e-06	51.822	0.0005085	0.00051454	0.00014532	1383.4	5.7389e-06	5.7073e-06	1380.6	373.54	5.7967e-06	5.6979e-06	428.12	143.33	124.61	43.071	5.8311e-06	52.805	247.883	-4.714	-37.961	-67.033	78.859	83.865	-66.649	-62.048	88.015	87.349	-62.541	-57.661	-57.488	-53.445	41.209	-53.826	-8191	255	
18007.463	1	1	0	0	0.23673	0.13033	0.088383	0.050851	0.11355	0.017031	0.37734	0.2459	0.054277	0.18799	0.13739	0.29449	0.23857	0.24117	0.19222	0.32837	-2.5479	-2.9208	-2.6167	-3.1729	-2.9167	-2.9854	-3.3083	-2.8063	-3.0667	-2.8396	-2.8688	-3.1125	-2.8708	-3.0667	-3.1146	-2.7125	80.256	97.850	-25.785	-14.217	218.754	189.639	221.036	-33.795	224.114	208.821	279.247	276.431	193.006	-6.937	250.453	202.642	0.00016195	0.00045059	0.00013584	1372	4.2408e-06	3.935e-06	1366.7	368.36	9.9138e-07	6.4009e-06	424.37	139.61	122.17	42.048	5.5357e-06	51.751	0.00050993	0.00052372	0.00014593	1381.3	5.8371e-06	5.729e-06	1379.8	373.66	5.7622e-06	5.6771e-06	428.04	143.08	124.68	43.012	5.6333e-06	52.735	249.930	13.556	29.698	-66.836	96.927	31.063	-66.823	-62.133	109.369	94.883	-62.585	-57.907	-57.613	-53.304	76.561	-53.961	-8191	255	
18007.559	1	1	0	0	0.034727	0.19543	0.38329	0.098156	0.27546	0.14866	0.19568	0.051476	0.13368	0.079749	0.37256	0.18505	0.16776	0.15048	0.17946	0.048362	-2.65	-2.7979	-2.4437	-2.9292	-2.8083	-2.9	-3.2479	-2.6521	-2.6771	-2.9667	-2.9333	-3.2333	-3.0458	-2.8312	-3.0208	-2.9521	222.848	44.075	171.034	141.209	-15.830	48.469	-22.574	149.529	65.077	36.315	248.051	229.548	-30.747	234.459	67.619	198.289	0.00014638	0.00081979	8.7608e-05	1370.8	3.675e-06	2.4401e-06	1372.2	370.03	9.8395e-07	2.0644e-06	422.25	140	121.64	42.129	4.9887e-06	51.887	0.00049244	0.00050825	0.00014098	1381.2	5.7279e-06	5.5722e-06	1380.8	374.21	5.6438e-06	5.5799e-06	427.13	143.05	124.41	43.079	5.4989e-06	52.795	245.334	1.666	31.020	-66.582	86.301	111.500	-66.841	-62.086	159.165	65.013	-62.681	-58.077	-57.820	-53.137	83.789	-54.194	-8191	255	
18007.631	1	1	0	0	0.22246	0.35375	0.11631	0.16417	0.33685	0.034112	0.2118	0.18594	0.13307	0.13759	0.14739	0.27436	0.11614	0.28069	0.090546	0.22344	-2.3896	-2.9958	-2.6167	-3.1229	-2.9313	-2.6729	-3.2583	-2.8729	-2.8667	-2.9104	-2.8	-3.0375	-2.8958	-2.8292	-3.1146	-2.9167	263.242	-30.051	-16.906	-35.209	231.185	258.307	185.049	107.627	-38.527	234.121	181.755	230.079	221.921	261.608	119.082	258.833	0.00013463	0.00022696	0.00012722	1373.1	7.9282e-07	7.6697e-06	1371.3	367.7	2.4617e-06	2.6591e-06	424.13	139.93	122.02	42.32	1.9538e-06	51.765	0.00048638	0.00050127	0.00013889	1380.1	5.4847e-06	5.4471e-06	1379.4	373.65	5.5464e-06	5.3955e-06	427.12	142.86	124.52	43.102	5.4141e-06	52.744	242.466	6.825	22.954	-66.913	37.890	39.840	-66.529	-62.000	90.780	68.206	-62.767	-58.007	-57.621	-53.435	115.566	-53.813	-8191	255	
18007.748	1	1	0	0	0.13291	0.13975	0.27868	0.19906	0.094451	0.091805	0.36402	0.27148	0.33418	0.10516	0.16394	0.31048	0.071863	0.46021	0.054567	0.3982	-2.2625	-3.2042	-2.6083	-2.8917	-2.8167	-2.7646	-3.1458	-2.8854	-2.8083	-2.975	-2.6937	-3.0646	-3.0854	-2.8583	-2.9229	-2.8542	121.609	64.159	-50.520	267.832	133.541	52.394	143.464	207.126	160.690	-32.586	245.406	211.257	-28.457	-73.330	181.251	244.972	0.0001586	0.00054124	0.00017147	1368	5.2762e-06	1.2834e-06	1371.6	370	3.7126e-06	2.3836e-06	422.73	140.05	121.88	42.183	2.8528e-06	51.742	0.00047406	0.00049083	0.00013792	1377.9	5.432e-06	5.4389e-06	1381.8	373.82	5.3714e-06	5.37e-06	427.2	143.01	124.3	42.995	5.4023e-06	52.622	232.848	15.759	13.241	-67.154	65.191	52.170	-66.738	-62.008	117.902	78.073	-62.532	-57.859	-57.575	-53.480	61.813	-53.944	-8191	255	
18007.846	1	1	0	0	0.11379	0.16121	0.036827	0.23254	0.097958	0.049468	0.22186	0.2725	0.061668	0.27295	0.11262	0.14613	0.15496	0.20676	0.15248	0.27245	-2.3563	-2.8271	-2.6813	-3.1396	-2.8521	-2.6771	-3.1646	-3.1208	-2.7021	-3.0417	-2.9771	-2.9125	-3.0521	-2.6917	-2.9229	-3.0542	-4.378	72.154	60.574	263.720	133.255	74.225	205.538	201.204	-42.248	135.423	197.642	212.282	-66.042	-37.197	-47.197	190.845	0.00020563	0.00039961	4.5015e-05	1372.3	1.0462e-06	3.1318e-06	1372.8	367.91	2.5485e-06	3.265e-06	423.05	139.69	121.59	42	5.7526e-06	51.868	0.00046614	0.00049742	0.00013679	1375.9	5.3892e-06	5.3554e-06	1378.3	373.17	5.3818e-06	5.3738e-06	426.98	142.87	124.15	42.959	5.4196e-06	52.681	238.570	16.399	-9.483	-66.907	200.485	49.673	-66.771	-62.021	83.128	50.002	-62.729	-58.035	-57.541	-53.140	82.353	-53.912	-8191	255	
18007.943	1	1	0	0	0.076113	0.21453	0.07696	0.12035	0.06404	0.40498	0.063207	0.13585	0.024808	0.08237	0.15147	0.070655	0.33114	0.2414	0.16903	0.19268	-2.3021	-3.1979	-2.7708	-2.9104	-3.0208	-2.6937	-3.2104	-3.0229	-2.7771	-3.1646	-2.8104	-3.05	-3.0938	-2.7313	-3.0187	-3.0271	-29.210	46.681	28.571	-44.725	102.048	-34.300	-24.588	250.509	33.133	240.374	191.410	263.415	244.799	-61.302	100.019	-59.946	0.00015707	0.00088225	0.00010188	1376.8	9.5653e-06	6.6791e-06	1370.1	367.88	3.9201e-06	4.6764e-06	422.21	139.94	121.77	42.119	6.0206e-06	51.982	0.00046847	0.00048927	0.00013497	1379.1	5.1856e-06	5.2278e-06	1377.9	372.17	5.2816e-06	5.2178e-06	426.73	142.95	124.23	42.912	5.2123e-06	52.649	246.305	-3.405	-2.965	-66.894	61.324	94.249	-66.687	-62.173	100.498	68.776	-62.675	-57.894	-57.520	-53.391	81.992	-54.118	-8191	255	
18008.061	1	1	0	0	0.3026	0.10568	0.244	0.14884	0.10067	0.15838	0.1203	0.29174	0.14207	0.057356	0.092074	0.30208	0.29498	0.22168	0.20802	0.22221	-2.3271	-2.9458	-2.9354	-2.8646	-3.1625	-2.7375	-3.1167	-2.9917	-2.4646	-3.1063	-2.9	-2.8333	-2.975	-2.8146	-2.9896	-2.9979	182.663	124.481	216.032	193.796	-50.948	-2.764	238.947	223.239	204.692	189.550	-72.367	255.814	270.375	-57.541	144.196	200.141	0.00013843	0.00044229	0.0001296	1363.7	6.3778e-06	4.2568e-06	1368	365.77	1.0596e-06	5.7939e-06	420.83	139.74	121.43	42.134	3.7208e-06	51.755	0.00045328	0.00047725	0.00013018	1374.3	5.0958e-06	5.0608e-06	1375.2	371.12	5.0377e-06	4.9956e-06	424.78	142.64	123.67	42.903	5.1036e-06	52.508	247.649	-1.717	10.422	-66.751	85.329	109.822	-66.535	-62.098	38.357	74.299	-62.653	-57.792	-57.432	-53.431	99.912	-54.154	-8191	255	
18008.158	1	1	0	0	0.14547	0.1631	0.11585	0.27378	0.21523	0.12053	0.28848	0.048689	0.18318	0.28471	0.23358	0.25252	0.25335	0.2682	0.22277	0.34036	-2.0958	-2.7333	-2.8104	-2.6083	-2.975	-2.7229	-3.1333	-3.1021	-2.7292	-3.025	-2.8479	-2.8396	-3.0792	-2.9396	-2.8396	-3.0729	151.002	61.764	69.180	233.554	227.328	-41.309	226.810	208.794	40.607	-77.254	76.893	185.690	-69.452	-65.283	-7.417	178.241	0.00013326	0.00044402	6.1647e-05	1366.3	4.6236e-06	2.4234e-06	1365.6	366.91	2.1099e-06	4.2556e-06	421.11	139.86	121.29	42.127	3.8967e-06	51.596	0.00044955	0.00046218	0.00012896	1370.5	5.1356e-06	5.1448e-06	1374.7	371.46	5.2388e-06	5.2928e-06	425.71	142.61	123.98	42.914	5.361e-06	52.59	244.212	55.711	0.055	-66.835	55.102	102.058	-66.580	-62.064	83.729	59.106	-62.677	-58.030	-57.573	-53.413	65.358	-53.973	-8191	255	
18008.229	1	1	0	0	0.13923	0.21692	0.30134	0.2561	0.15743	0.081001	0.10218	0.30942	0.2092	0.21156	0.22562	0.28569	0.065211	0.16623	0.18941	0.1321	-2.3354	-2.9229	-2.8854	-2.9854	-3.0021	-2.7021	-3.0771	-3.0917	-2.6146	-3.1354	-3.0896	-2.9	-3.1083	-2.9938	-2.7917	-3.2	158.560	109.498	165.093	176.409	-62.642	144.106	265.585	237.359	202.277	274.441	-77.473	254.101	183.217	-22.669	103.343	244.750	0.00016237	0.0003953	0.00012525	1368.6	6.6744e-06	5.4004e-06	1364.9	368.05	1.0134e-06	3.6876e-06	423.01	139.79	122.2	42.245	6.5671e-06	51.725	0.00046765	0.0004854	0.00013629	1376.3	5.4037e-06	5.2644e-06	1375.2	372.4	5.3e-06	5.3768e-06	426.53	142.69	124.12	42.977	5.2389e-06	52.593	242.688	-26.981	21.637	-66.854	98.226	84.852	-66.735	-62.006	25.145	74.696	-62.766	-58.026	-57.607	-53.389	47.387	-53.933	-8191	255	
18008.350	1	1	0	0	0.1179	0.22273	0.099006	0.18747	0.14293	0.16338	0.27848	0.19924	0.12571	0.039838	0.24013	0.13192	0.087517	0.22243	0.12826	0.18166	-2.4271	-2.8417	-2.9583	-2.875	-3.0271	-2.8354	-2.8396	-3.1896	-2.7271	-2.9229	-2.9562	-2.6583	-3.0042	-2.9354	-2.7729	-3.1312	121.929	196.256	12.605	10.784	230.440	76.356	-74.388	145.418	110.568	-22.046	207.629	0.366	171.168	236.507	175.772	216.595	0.00014622	0.0002635	0.00014741	1371.7	3.8705e-06	3.2781e-06	1367.4	367.91	2.4714e-06	7.0483e-06	422.19	139.94	121.8	42.064	2.899e-06	51.922	0.00046504	0.00049169	0.00013484	1374.7	5.3446e-06	5.3031e-06	1375.4	372.18	5.3867e-06	5.3793e-06	426.27	142.87	124.14	42.951	5.3278e-06	52.759	243.805	72.023	33.600	-66.839	69.951	45.396	-66.704	-62.053	111.571	63.459	-62.531	-57.892	-57.554	-53.404	52.476	-54.054	-8191	255	
18008.445	1	1	0	0	0.38523	0.18464	0.14046	0.18505	0.040205	0.094408	0.088358	0.27407	0.1927	0.17918	0.1313	0.2273	0.039278	0.18326	0.042361	0.14194	-2.5333	-2.825	-3.0938	-2.6562	-2.9333	-2.9813	-2.8125	-3.1958	-2.7729	-2.825	-3.1375	-2.6312	-3.0104	-2.9292	-2.7333	-3.0604	81.019	117.553	41.436	250.721	102.958	255.468	249.508	220.249	113.298	133.477	253.928	240.625	265.052	172.207	191.119	-76.676	0.00014313	0.00070005	9.4656e-05	1367.7	4.3839e-06	4.435e-06	1374.8	368.13	2.0034e-06	1.1221e-05	422.29	139.79	122.2	42.043	3.3135e-06	51.769	0.00046943	0.00048053	0.00013382	1376	5.3563e-06	5.2014e-06	1378.5	372	5.2128e-06	5.2392e-06	425.34	142.78	124.21	42.937	5.1865e-06	52.563	236.223	29.282	16.151	-66.844	15.542	19.680	-66.864	-61.960	215.672	71.288	-62.745	-57.989	-57.965	-53.366	72.937	-53.953	-8191	255	
18008.543	1	1	0	0	0.14757	0.13995	0.12267	0.025892	0.1682	0.30306	0.25221	0.24713	0.18385	0.24516	0.3051	0.077167	0.081447	0.175	0.30457	0.099964	-2.4479	-2.7354	-2.95	-2.6479	-2.9979	-3.0083	-2.8396	-3.1896	-2.8208	-2.8375	-3.1083	-2.6958	-2.8646	-2.9	-2.4771	-3.0563	258.010	253.874	246.951	259.229	97.406	199.824	219.543	245.566	214.398	-23.170	226.425	-12.116	232.638	97.905	130.498	199.368	0.00018043	0.00070019	0.00017215	1362.4	5.1759e-06	4.3306e-06	1368	366.53	2.7302e-06	5.4461e-06	422.41	139.32	121.73	42.125	1.2281e-06	51.5	0.00045751	0.00047741	0.0001346	1371.8	5.2784e-06	5.231e-06	1375.6	372.13	5.265e-06	5.295e-06	425.6	142.67	124.33	42.935	5.312e-06	52.514	249.122	52.260	-2.099	-66.728	118.584	81.496	-66.767	-61.984	83.131	38.026	-62.561	-58.256	-57.491	-53.437	6.565	-54.097	-8191	255	
18008.662	1	1	0	0	0.16215	0.03049	0.11031	0.31597	0.41348	0.24913	0.012558	0.15909	0.13561	0.13907	0.3093	0.34552	0.075019	0.039439	0.062801	0.25362	-2.3979	-2.4042	-2.9667	-2.8563	-2.8604	-2.9938	-2.8083	-3.0438	-2.8187	-2.6146	-3.0375	-2.8146	-3.0417	-3.1375	-2.4042	-3.0021	239.102	252.550	50.590	271.618	130.013	-32.372	109.836	-65.586	268.674	-2.961	228.715	-68.020	4.365	37.488	19.865	273.894	0.00011844	0.000667	0.00010024	1371.6	9.6345e-07	5.108e-06	1369.2	367.47	2.8015e-06	4.9625e-06	420.98	139.94	121.94	42.101	4.3794e-06	51.863	0.00046615	0.00048843	0.00013514	1377.8	5.2869e-06	5.2207e-06	1377.6	372.85	5.2651e-06	5.2882e-06	426.6	142.78	124.21	42.935	5.3077e-06	52.665	233.462	0.335	-29.499	-66.992	88.795	100.173	-66.787	-62.026	64.873	50.976	-62.658	-58.068	-57.826	-53.318	39.892	-54.262	-8191	255	
18008.760	1	1	0	0	0.15591	0.27146	0.1958	0.10719	0.12203	0.10565	0.4535	0.054095	0.23972	0.17741	0.15922	0.10702	0.28317	0.25036	0.19342	0.17939	-2.2229	-2.6917	-3.0396	-2.65	-2.7854	-3.0979	-2.9833	-2.8937	-2.8771	-2.5625	-3.0417	-2.6875	-2.8083	-3.0312	-2.7313	-3.0417	157.482	82.956	167.760	110.138	9.110	134.348	227.404	214.851	125.421	-74.867	224.090	36.582	216.626	213.322	231.547	203.026	0.00015483	0.00042414	0.00024601	1362.6	4.4518e-06	5.064e-06	1369.4	368.35	1.7494e-06	8.4176e-06	421.38	139.56	121.88	42.068	2.5987e-06	51.784	0.00046169	0.00047802	0.00013622	1373.9	5.3014e-06	5.2713e-06	1375.8	372.99	5.2685e-06	5.3016e-06	426.23	142.8	123.98	42.981	5.2711e-06	52.71	254.988	-6.382	6.291	-66.659	86.509	103.093	-66.564	-62.167	86.777	83.832	-62.757	-57.855	-57.533	-53.430	16.201	-53.965	-8191	255	
18008.854	1	1	0	0	0.31434	0.20797	0.13047	0.24695	0.17445	0.2585	0.11414	0.31539	0.15542	0.49305	0.12417	0.016917	0.13428	0.057604	0.10637	0.34917	-2.5271	-2.5938	-2.9688	-3.0208	-2.7562	-3.0938	-2.9062	-3.1021	-3.0583	-2.6813	-3.0604	-2.8688	-2.8958	-2.9917	-2.5896	-2.9458	30.304	183.151	45.053	98.589	102.218	-4.039	214.172	134.026	274.148	-69.519	68.675	-63.368	245.084	261.140	-56.870	174.943	0.00017391	0.00027063	0.00013899	1371.9	2.3369e-06	6.0346e-06	1372.5	368.26	3.6159e-06	1.3431e-06	421.37	139.61	121.49	42.008	5.3735e-06	51.497	0.00045592	0.00047894	0.00013226	1378.6	5.2508e-06	5.233e-06	1378.2	372.5	5.2498e-06	5.1042e-06	425.78	142.85	124.24	42.897	5.1834e-06	52.475	244.135	4.939	12.742	-66.918	91.247	43.327	-66.631	-61.987	74.253	82.851	-62.495	-58.280	-57.568	-53.555	72.452	-53.985	-8191	255	
18008.926	1	1	0	0	0.39027	0.04191	0.029392	0.095337	0.13227	0.07806	0.2063	0.24029	0.15694	0.18378	0.18857	0.045054	0.1928	0.025634	0.12303	0.2574	-2.5625	-2.6875	-3.0458	-2.6625	-2.7188	-2.9208	-2.9062	-2.9313	-2.9896	-2.525	-3.075	-2.9292	-2.8625	-3.1792	-2.6771	-3.0479	107.267	68.262	-15.183	184.824	144.918	93.572	209.116	271.655	117.183	44.342	-69.565	186.443	273.402	51.502	-69.518	151.050	0.00011323	0.00025685	0.00018243	1367.9	1.5715e-06	3.911e-06	1367.7	367.66	2.3201e-06	4.0842e-06	422.9	139.46	121.47	42.182	5.2378e-06	51.789	0.00046244	0.00047123	0.0001309	1376.5	5.2581e-06	5.2297e-06	1377.6	372.23	5.2576e-06	5.2475e-06	426.33	142.54	124.11	42.953	5.2228e-06	52.677	257.965	-42.419	-0.497	-66.770	132.780	85.294	-66.767	-62.165	86.800	56.520	-62.668	-58.058	-57.761	-53.264	84.549	-53.928	-8191	255	
18009.047	1	1	0	0	0.20571	0.3035	0.12926	0.037421	0.1641	0.13758	0.2437	0.27685	0.096064	0.23758	0.07188	0.029276	0.26833	0.20271	0.24986	0.1512	-2.6333	-2.3917	-2.8771	-2.9521	-2.7771	-3.0646	-2.9375	-2.95	-3.15	-2.7208	-2.9917	-2.9125	-2.7417	-3.0708	-2.6333	-2.675	-5.048	146.259	78.053	5.960	70.497	223.906	276.024	178.581	188.199	-27.595	141.910	87.846	214.120	-44.616	140.225	240.217	0.00016432	0.00046263	0.00012298	1371.2	4.6127e-06	3.8805e-06	1368	367.85	2.2494e-06	7.4001e-06	421.65	140.16	121.64	42.21	2.2246e-06	51.626	0.00045849	0.00047286	0.00013303	1375.1	5.1515e-06	5.1723e-06	1378.2	372.16	5.1623e-06	5.1155e-06	426.32	142.69	124.06	43.024	5.2031e-06	52.557	247.230	39.382	16.195	-66.922	92.309	90.384	-66.653	-61.830	54.093	52.018	-62.559	-57.880	-57.520	-53.244	48.630	-53.976	-8191	255	
18009.143	1	1	0	0	0.20058	0.22027	0.25295	0.1816	0.18012	0.31522	0.3497	0.21613	0.25809	0.083366	0.2473	0.092756	0.32457	0.1574	0.13969	0.10697	-2.5896	-2.7729	-2.7875	-2.8667	-2.7875	-2.8875	-2.9875	-2.8604	-3.0729	-2.5687	-2.8896	-3.0917	-2.775	-3.0812	-2.9437	-2.7021	153.831	115.678	-37.933	74.490	29.269	271.979	212.175	258.876	-24.348	26.068	236.527	255.097	8.582	209.265	264.997	226.111	0.00017021	0.00050693	0.00011949	1370.6	6.2204e-06	4.1974e-06	1368.7	367.53	2.2214e-06	8.7188e-06	422.21	140.2	121.4	42.008	4.0542e-06	51.66	0.00045409	0.00046877	0.00013101	1377.5	5.1179e-06	5.1629e-06	1377.8	372.57	5.1824e-06	5.1209e-06	426.31	143.06	124.12	42.949	5.2449e-06	52.601	258.907	-22.802	20.261	-66.933	57.204	77.676	-66.631	-61.999	73.398	73.097	-62.818	-58.038	-57.723	-53.329	94.122	-54.097	-8191	255	
18009.238	1	1	0	0	0.22537	0.073188	0.080771	0.13046	0.033775	0.059351	0.26967	0.33283	0.24129	0.092633	0.081141	0.24098	0.20769	0.19722	0.12855	0.060755	-2.7042	-2.6354	-2.8708	-3.2021	-2.6604	-2.9521	-2.9479	-2.6458	-2.9562	-2.8646	-2.8167	-3.0521	-2.8312	-3.0062	-2.975	-2.8354	53.642	259.772	10.716	198.381	-7.512	-2.801	193.322	201.784	224.187	212.898	6.709	242.368	-30.388	244.656	42.815	279.220	0.00016599	0.00033712	8.3445e-05	1377.3	1.0191e-06	6.2174e-06	1369.8	367.57	1.1089e-06	4.2844e-06	421.41	140.31	121.4	41.996	5.3756e-06	52.015	0.00045305	0.00047662	0.00013097	1380.1	5.0996e-06	5.1855e-06	1377.5	372.12	5.313e-06	5.1494e-06	426.15	142.97	124.01	42.932	5.235e-06	52.7	238.325	-3.630	12.544	-66.543	107.733	78.664	-66.828	-61.999	-55.266	83.126	-62.490	-58.064	-57.543	-53.316	90.750	-54.165	-8191	255	
18009.334	1	1	0	0	0.19412	0.35777	0.0098127	0.078912	0.20765	0.24187	0.20019	0.35715	0.16571	0.31012	0.24989	0.11065	0.092892	0.19636	0.062967	0.13707	-2.5375	-2.7062	-2.5875	-3.0312	-2.6104	-2.9833	-2.9354	-2.7875	-3.0625	-2.7354	-2.8563	-2.9792	-2.8396	-2.9792	-2.9958	-2.7604	198.864	159.285	-58.004	-72.907	145.328	179.783	209.303	222.988	200.264	10.385	262.427	-31.096	216.292	-61.369	-15.263	-57.044	0.00016023	0.00089564	0.0001593	1369.7	2.2505e-06	5.1407e-06	1371.6	369.33	4.3251e-06	5.1526e-06	421.16	139.07	121.56	42.092	1.7769e-06	51.884	0.00046207	0.00047561	0.00013385	1375.7	5.1545e-06	5.1641e-06	1378.9	372.55	5.0945e-06	5.1415e-06	425.58	142.45	124.19	42.938	4.9581e-06	52.535	242.420	9.278	8.526	-67.012	152.805	54.828	-66.780	-62.122	91.336	76.210	-62.602	-58.013	-57.511	-53.469	72.434	-53.873	-8191	255	
18009.455	1	1	0	0	0.27987	0.24355	0.034179	0.20563	0.0838	0.085978	0.18878	0.30505	0.11533	0.14816	0.10192	0.15016	0.34228	0.11228	0.2052	0.30722	-2.5812	-2.7417	-2.625	-3.15	-2.7417	-3.0417	-3.2229	-2.7313	-2.9875	-2.7604	-2.6312	-2.9667	-2.7375	-2.7542	-2.9479	-2.7479	232.188	22.225	173.790	-17.987	23.007	239.121	257.044	273.365	188.629	48.567	264.006	249.677	244.251	-36.702	257.034	258.458	0.00013613	0.00056353	0.00014423	1373.2	3.2922e-06	3.012e-06	1367.1	368.44	2.5897e-06	4.6402e-06	420.18	138.69	121.2	42.006	5.1766e-06	51.768	0.00044836	0.00046213	0.00012618	1374.1	4.9911e-06	5.0478e-06	1374.3	372.25	5.0336e-06	5.0704e-06	424.64	142.1	123.84	42.803	4.9537e-06	52.603	223.414	21.845	2.603	-66.668	127.492	43.493	-66.606	-61.991	95.483	110.851	-62.739	-57.874	-57.892	-53.333	48.726	-54.062	-8191	255	
18009.525	1	1	0	0	0.18506	0.12311	0.11032	0.25161	0.29537	0.32868	0.27702	0.15146	0.38449	0.12378	0.26838	0.11238	0.25347	0.15049	0.10416	0.36358	-2.4833	-2.8417	-2.6083	-3.1167	-2.6521	-2.8104	-3.2646	-2.8104	-2.8083	-2.775	-2.6896	-3.2042	-2.8104	-2.6562	-3.0042	-2.8708	29.653	89.982	-56.523	-72.242	136.184	115.977	225.841	54.923	39.608	74.479	218.483	-6.928	208.204	-44.733	12.172	154.779	0.00014714	0.00063912	0.00020135	1367.6	7.6733e-06	5.3386e-06	1364.3	366.99	9.958e-07	7.4984e-06	422.71	140.37	121.67	42.026	5.8798e-06	51.656	0.00044556	0.00045563	0.00012733	1371.9	4.9812e-06	5.028e-06	1373.6	371.79	5.0817e-06	5.0487e-06	425.99	142.61	124	42.824	4.9677e-06	52.476	240.479	44.578	-13.926	-66.811	76.560	76.578	-66.782	-62.075	94.252	68.106	-62.551	-57.950	-57.570	-53.370	78.556	-53.775	-8191	255	
18009.623	1	1	0	0	0.10509	0.01225	0.083646	0.1806	0.21219	0.21114	0.34098	0.23292	0.15592	0.14221	0.18656	0.30646	0.10919	0.21858	0.093285	0.11239	-2.4417	-2.9083	-2.4667	-2.9667	-2.7792	-2.6667	-3.1083	-2.7333	-2.8042	-2.9479	-2.8396	-2.9771	-2.8438	-2.7792	-2.9	-2.7646	29.402	108.904	61.712	129.305	143.801	-29.469	234.340	257.727	12.645	43.932	274.547	203.932	-64.909	-43.130	243.510	203.872	0.00014695	0.00069301	0.00010528	1366	3.9423e-06	3.8582e-06	1367.9	366.36	1.4459e-06	7.2647e-06	420.5	139.54	121.02	42.078	1.7544e-06	51.659	0.00045041	0.00046034	0.00012789	1371.1	5.1458e-06	5.0329e-06	1375	371.38	5.142e-06	5.0877e-06	425.79	142.68	123.84	42.911	5.2641e-06	52.586	246.968	-24.897	20.234	-66.914	85.862	114.327	-66.844	-61.961	99.379	88.494	-62.876	-58.104	-57.471	-53.463	48.017	-53.839	-8191	255	
18009.742	1	1	0	0	0.19741	0.0094521	0.16134	0.19358	0.1382	0.14084	0.24257	0.059255	0.20828	0.35499	0.34997	0.21074	0.36823	0.19315	0.1478	0.23791	-2.4333	-2.9188	-2.4688	-3.0625	-2.65	-2.5062	-3.2562	-2.7438	-2.8563	-2.9688	-2.6458	-2.9729	-2.9708	-2.8125	-2.9604	-2.9375	-32.952	197.930	76.534	-76.414	228.368	124.694	185.073	-55.831	28.854	32.235	233.684	252.940	264.106	-43.722	-11.183	269.459	0.00020548	0.00069369	0.0001674	1370	5.3747e-06	3.6342e-06	1370.5	367.76	1.6973e-06	1.7851e-06	421.83	139.9	121.85	42.119	3.4394e-06	51.85	0.0004629	0.00047956	0.00013144	1375.8	5.3126e-06	5.1477e-06	1379.8	372.42	5.2762e-06	5.2799e-06	426.03	142.77	124.29	42.927	5.225e-06	52.667	246.204	27.203	7.355	-66.729	80.963	82.848	-66.723	-62.060	118.056	68.464	-62.739	-57.912	-57.717	-53.441	63.306	-54.088	-8191	255	
18009.838	1	1	0	0	0.17792	0.069903	0.14049	0.14656	0.22726	0.045347	0.20891	0.1013	0.19548	0.30192	0.22772	0.40778	0.075448	0.11895	0.06515	0.21373	-2.3604	-2.9313	-2.4688	-2.9354	-2.9708	-2.6229	-3.1292	-2.7708	-2.6792	-3.175	-2.5917	-2.8875	-3.0104	-2.8208	-2.8812	-2.8063	212.408	225.961	-77.745	265.816	-14.756	191.254	191.752	219.709	83.790	84.348	274.635	230.074	212.407	197.171	221.613	130.500	0.00018128	0.00055226	8.4395e-05	1366.7	3.7909e-06	5.3395e-06	1365.9	366.02	1.3011e-06	5.7378e-06	422.18	139.95	121.63	42.103	4.0005e-06	51.696	0.0004589	0.00046254	0.00013088	1373.6	5.1834e-06	5.2377e-06	1378.2	371.82	5.1098e-06	5.1707e-06	426.32	142.75	123.91	42.896	5.236e-06	52.549	240.429	22.669	-36.888	-66.807	67.324	95.228	-66.680	-62.233	49.977	93.383	-62.605	-58.127	-57.612	-53.360	58.897	-54.124	-8191	255	
18009.934	1	1	0	0	0.31987	0.22116	0.0172	0.034162	0.25876	0.028726	0.09798	0.14663	0.061348	0.043833	0.24772	0.019356	0.17757	0.20482	0.049786	0.19797	-2.2313	-2.8354	-2.6146	-2.8438	-2.8792	-2.5458	-3.2562	-2.7625	-2.8625	-3.0563	-2.8396	-3.0146	-2.8333	-2.6229	-2.9417	-2.9771	99.271	29.076	76.426	16.483	-48.831	158.065	-54.723	266.856	254.133	77.011	175.796	-10.330	215.869	47.665	195.099	214.323	0.00015491	0.00048368	0.00018995	1364.5	5.2571e-06	5.3848e-06	1364.9	367.47	2.0273e-06	2.4922e-06	421.18	139.79	121.44	41.93	3.0854e-06	51.575	0.00046532	0.0004776	0.00013358	1373.4	5.2002e-06	5.2035e-06	1375	372.31	5.197e-06	5.2219e-06	426.44	142.62	124.07	42.835	5.0415e-06	52.51	251.657	32.362	70.041	-66.918	87.810	79.985	-66.741	-62.260	73.895	126.599	-62.812	-58.032	-57.677	-53.468	120.145	-53.898	-8191	255	
18010.029	1	1	0	0	0.10504	0.16007	0.12842	0.22655	0.21887	0.24727	0.27203	0.14782	0.1018	0.11875	0.22973	0.13275	0.17008	0.14288	0.23398	0.25244	-2.3917	-2.9021	-2.6833	-2.8146	-3.025	-2.6771	-3.0312	-2.9437	-2.6437	-3.0208	-2.9	-2.9375	-2.9958	-2.8312	-3.0083	-3.0208	219.499	153.540	178.721	-27.094	27.106	-53.679	195.118	192.565	-73.444	247.571	227.928	232.985	278.381	103.266	128.702	199.073	0.00015505	0.00019228	0.00012899	1366.3	2.5359e-06	3.584e-06	1364.8	366.53	1.2972e-06	3.0932e-06	422.3	139.27	121.29	42.166	4.6103e-06	51.928	0.00044312	0.00045381	0.00012777	1369.1	4.9628e-06	4.9642e-06	1372.5	371.25	4.9023e-06	4.8737e-06	424.89	142.25	123.74	42.86	4.8826e-06	52.56	240.391	26.262	11.924	-66.667	40.848	155.717	-66.588	-62.151	-35.703	89.155	-62.724	-57.871	-57.717	-53.500	84.774	-53.727	-8191	255	
18010.127	1	1	0	0	0.19147	0.18056	0.083057	0.049038	0.12366	0.02625	0.16323	0.44677	0.058329	0.19581	0.1774	0.14365	0.25958	0.16169	0.19879	0.23172	-2.2854	-2.9146	-2.6125	-2.8063	-3.1	-2.725	-2.9542	-2.9021	-2.5708	-3.125	-2.8979	-2.7292	-3.0479	-2.6208	-2.925	-2.9833	232.175	31.575	97.155	-47.305	-57.664	149.383	195.001	237.132	245.980	262.340	173.490	-67.335	257.531	204.042	80.432	188.173	0.00016842	0.00039004	0.00014867	1369.5	3.6264e-06	6.1753e-06	1361.4	366.3	3.843e-06	4.202e-06	421.97	139.61	121.58	42.127	2.5554e-06	51.603	0.00042615	0.00044295	0.00012508	1369.3	4.9059e-06	4.8306e-06	1371	371.49	4.8335e-06	4.8758e-06	425.5	142.24	123.92	42.856	4.8361e-06	52.453	247.937	-4.476	13.968	-66.906	113.172	58.103	-66.590	-62.020	142.224	84.526	-62.719	-57.918	-57.641	-53.306	134.820	-54.004	-8191	255	
18010.223	1	1	0	0	0.10968	0.14877	0.19966	0.3662	0.12329	0.046552	0.11276	0.35111	0.12554	0.13184	0.21202	0.052636	0.23382	0.16366	0.12974	0.34756	-2.0938	-2.9417	-2.7583	-2.6813	-2.925	-2.7833	-3.0521	-2.9896	-2.8104	-2.9125	-2.85	-2.7875	-2.9125	-2.9521	-2.6667	-3.2625	245.791	100.546	9.841	-65.595	190.229	232.406	207.778	277.981	164.947	48.433	-20.666	99.880	206.356	213.388	186.084	245.692	0.00014089	0.0007191	0.00012048	1365.6	2.7674e-06	3.4069e-06	1363.8	366.83	2.0648e-06	5.7773e-06	420.91	139.28	120.97	42.047	3.5656e-06	51.642	0.00043349	0.0004485	0.00012261	1364.6	4.862e-06	4.7893e-06	1370.3	370.93	4.8787e-06	4.8762e-06	424.67	142.27	123.6	42.839	4.8433e-06	52.461	246.902	7.129	5.748	-67.040	117.786	74.169	-66.709	-62.004	47.700	42.608	-62.662	-58.036	-57.452	-53.542	64.688	-54.006	-8191	255	
18010.344	1	1	0	0	0.024417	0.19223	0.098361	0.2295	0.16854	0.22317	0.34741	0.12207	0.0843	0.067926	0.14476	0.28499	0.23431	0.25419	0.23893	0.24949	-2.3333	-2.9979	-2.7875	-2.6375	-2.9042	-2.8979	-2.8708	-3.025	-2.525	-2.8271	-2.9958	-2.9125	-3.0042	-2.8521	-2.6292	-3.0812	174.460	258.254	256.283	278.921	-13.522	122.117	254.590	-45.832	215.032	40.483	-7.487	208.386	213.145	207.897	210.979	-32.283	0.00014714	0.00028331	0.00017267	1364.4	5.6875e-06	4.2712e-06	1360.2	367.5	1.6586e-06	2.9473e-06	421.36	139.51	121.07	42.065	2.6027e-06	51.83	0.00042613	0.0004446	0.00012383	1365.1	4.8069e-06	4.8164e-06	1368.3	371.02	4.7708e-06	4.8494e-06	424.69	142.31	123.52	42.759	4.8239e-06	52.431	254.419	-15.076	-33.039	-66.977	73.238	116.666	-66.646	-62.042	78.186	58.880	-62.828	-58.034	-57.775	-53.234	16.289	-54.117	-8191	255	
18010.439	1	1	0	0	0.26377	0.06113	0.12134	0.21459	0.091569	0.19584	0.30588	0.20794	0.061421	0.28823	0.40749	0.23629	0.43898	0.05727	0.038774	0.15612	-2.1688	-2.7062	-2.7667	-2.7062	-2.9729	-2.5896	-2.6562	-3.1646	-2.6896	-2.8187	-2.9667	-2.6708	-3.0062	-2.7458	-2.8	-3.1604	52.719	46.460	238.572	-70.671	-15.612	103.939	229.112	-68.033	22.293	254.227	243.622	258.277	-68.681	108.055	181.448	225.637	0.00018101	0.00049142	0.00015783	1357.5	6.1438e-06	3.0182e-06	1361.8	365.71	3.3443e-06	6.6631e-06	420.71	139.74	121.45	41.864	4.5256e-06	51.633	0.00042649	0.00044392	0.00012123	1363.9	4.8648e-06	4.8886e-06	1368.9	370.57	4.8674e-06	4.8316e-06	424.41	142.29	123.58	42.761	4.8637e-06	52.414	244.067	34.414	-22.660	-67.034	85.680	70.114	-66.576	-61.999	30.965	81.753	-62.554	-57.952	-57.639	-53.513	96.782	-54.262	-8191	255	
18010.535	1	1	0	0	0.28567	0.14136	0.21317	0.21543	0.091347	0.05416	0.21339	0.17401	0.18434	0.43816	0.24281	0.076354	0.24341	0.2298	0.26788	0.1161	-2.1604	-2.6833	-2.8375	-2.6729	-2.9042	-2.7938	-3.0042	-3.1958	-2.7604	-2.6354	-3.0125	-2.6625	-2.7854	-3.075	-2.7042	-3.0104	245.989	-28.288	-5.374	8.399	41.459	-33.518	198.742	-8.560	91.112	210.821	250.929	178.884	253.450	218.043	247.487	1.078	0.00014718	0.00058098	0.00013225	1362.8	5.4958e-06	6.9855e-06	1358.5	366.66	1.1161e-06	3.3447e-06	422.2	139.17	121.08	42.047	4.9252e-06	51.552	0.0004282	0.00044439	0.0001216	1365.3	4.8284e-06	4.847e-06	1368.8	371.21	4.8136e-06	4.811e-06	424.39	142.15	123.54	42.835	4.8288e-06	52.37	232.282	25.872	10.362	-66.680	72.216	76.445	-66.698	-62.075	117.054	43.042	-62.645	-58.014	-57.619	-53.357	30.681	-53.803	-8191	255	
18010.631	1	1	0	0	0.094313	0.21778	0.14519	0.26716	0.1696	0.036373	0.0077358	0.32925	0.094345	0.32138	0.11722	0.3745	0.12481	0.20127	0.029907	0.11572	-2.2833	-2.6625	-2.7958	-2.5646	-2.7917	-3.0083	-2.7667	-3.1229	-2.7271	-2.5667	-3.1021	-2.8438	-3.0104	-2.9896	-2.4979	-2.9208	91.835	258.707	-46.982	-56.517	128.296	16.741	279.289	211.632	33.685	181.002	224.827	218.236	43.432	153.059	95.212	140.257	0.00013419	0.0003463	0.00019331	1355.7	5.349e-06	3.4879e-06	1359.6	367.4	2.5005e-06	4.7925e-06	420.69	139.51	121.45	42.019	1.3634e-06	51.672	0.00043222	0.00044151	0.0001204	1364	4.8851e-06	4.7956e-06	1368.6	371.15	4.7738e-06	4.8348e-06	424.21	142.24	123.58	42.836	4.7422e-06	52.453	244.067	13.636	-0.882	-66.637	54.748	73.498	-66.669	-61.951	87.177	85.626	-62.542	-57.988	-57.539	-53.322	148.868	-53.905	-8191	255	
18010.750	1	1	0	0	0.2048	0.075182	0.24261	0.074797	0.20759	0.18611	0.16327	0.27014	0.12195	0.15059	0.2068	0.15691	0.17953	0.19168	0.20223	0.036904	-2.3937	-2.6729	-2.9437	-2.7375	-2.9104	-2.9542	-2.7771	-3.1125	-2.7917	-2.65	-3.25	-2.7313	-2.8271	-3.1292	-2.625	-3.0958	38.231	234.131	104.295	-61.923	255.134	86.235	227.599	245.727	131.756	-29.698	140.009	241.902	221.786	255.370	153.021	231.031	0.00016033	0.00059249	0.00011683	1354.1	6.5166e-06	4.7012e-06	1361.3	366.33	2.2339e-06	5.743e-06	418.9	139.32	121.41	41.968	3.3758e-06	51.612	0.00042207	0.00043586	0.00012088	1364.1	4.8511e-06	4.7888e-06	1369.1	370.51	4.8151e-06	4.7774e-06	423.52	142.14	123.62	42.751	4.7899e-06	52.344	235.455	17.339	7.117	-66.991	130.679	35.877	-66.657	-62.035	125.120	92.954	-62.817	-57.979	-57.677	-53.356	11.038	-54.079	-8191	255	
18010.822	1	1	0	0	0.044782	0.072424	0.15316	0.070298	0.22308	0.088047	0.21817	0.083882	0.29686	0.15408	0.16907	0.28024	0.08048	0.20635	0.070174	0.13494	-2.3479	-2.7667	-2.8187	-2.7854	-2.8729	-2.8875	-2.9125	-2.9396	-2.9104	-2.7146	-3.2313	-2.8937	-2.8208	-3.0375	-2.65	-2.8917	50.206	138.564	247.536	-70.913	244.694	50.492	235.730	259.217	-6.264	236.365	151.136	210.242	186.413	273.271	169.735	-31.672	0.00014331	0.00044331	0.00014996	1356.7	9.2513e-06	1.6723e-06	1361.3	365.12	1.2071e-06	8.8284e-06	420.43	139.73	121.12	42.088	2.3261e-06	51.52	0.00042348	0.00043645	0.00011979	1364.1	4.8069e-06	4.7508e-06	1369.2	370.27	4.7781e-06	4.7482e-06	423.7	142.03	123.51	42.703	4.761e-06	52.382	247.738	20.342	3.825	-67.030	87.125	99.123	-66.672	-62.319	153.048	70.147	-62.633	-57.834	-57.552	-53.327	60.836	-53.748	-8191	255	
18010.918	1	1	0	0	0.12823	0.22683	0.064318	0.072351	0.35918	0.25477	0.023958	0.15271	0.19749	0.10196	0.084489	0.094763	0.15043	0.27359	0.26454	0.084881	-2.5771	-2.7104	-2.9604	-2.9354	-2.7354	-3.0104	-2.8292	-2.9604	-2.8604	-2.4792	-3.1979	-3.0125	-2.9146	-3.1063	-2.6042	-2.8812	16.515	-10.837	76.141	77.088	84.414	-52.175	16.445	-79.645	74.337	-76.868	265.765	145.650	210.211	274.788	-9.736	32.616	0.00019599	0.00050507	0.00011852	1354.6	3.6717e-06	6.8158e-06	1365.3	365.92	1.6247e-06	4.3633e-06	421.68	139.52	121.43	42.094	3.6659e-06	51.76	0.00042958	0.0004351	0.00012256	1362.5	4.8208e-06	4.8362e-06	1369.6	370.4	4.8859e-06	4.6985e-06	424.61	142.23	123.55	42.757	4.8074e-06	52.473	242.239	-11.331	17.160	-66.938	148.431	53.278	-66.625	-62.141	147.334	31.165	-62.628	-57.937	-57.657	-53.206	92.303	-54.049	-8191	255	
18011.014	1	1	0	0	0.26921	0.14257	0.16376	0.065816	0.15431	0.1205	0.31857	0.066104	0.15288	0.10112	0.095082	0.19954	0.15586	0.33841	0.1333	0.19745	-2.6833	-2.5771	-2.7646	-2.9604	-2.75	-3.0292	-3.0271	-2.9313	-2.8812	-2.6417	-3.0396	-2.9792	-2.7188	-3.1583	-2.7104	-2.9271	-50.205	-70.724	227.429	-41.390	199.373	-64.896	202.430	243.173	73.247	16.635	133.155	199.696	270.361	266.700	259.300	125.138	0.00019334	0.00050729	0.00013808	1364.3	9.2784e-06	2.9179e-06	1360.2	365.1	1.8392e-07	6.7741e-06	418.21	138.8	121.2	42.005	7.3091e-06	51.682	0.00042566	0.00043375	0.0001217	1366.9	4.7891e-06	4.8249e-06	1367.8	370.22	4.8445e-06	4.7759e-06	423.57	142.01	123.45	42.749	4.9141e-06	52.452	258.432	14.987	62.630	-67.035	89.149	71.099	-66.597	-62.177	105.733	85.034	-62.658	-57.967	-57.613	-53.376	73.278	-53.850	-8191	255	
18011.135	1	1	0	0	0.095134	0.092648	0.14488	0.05084	0.20345	0.030477	0.14934	0.14588	0.031251	0.27726	0.19349	0.064889	0.25383	0.28331	0.10389	0.18091	-2.5062	-2.6417	-2.8125	-2.7333	-2.7667	-2.9604	-2.9396	-2.8	-2.8646	-2.7104	-3.075	-3.0875	-2.6083	-3.0229	-2.9938	-2.7375	102.075	82.643	252.174	224.386	218.490	79.551	244.516	224.740	16.926	-30.561	193.147	-49.634	211.195	236.889	-23.141	-8.522	0.00020764	0.00056052	6.2693e-05	1360.7	6.3293e-06	6.676e-06	1365.7	366.71	2.0615e-06	7.8864e-06	420.67	139.09	121.22	41.848	2.7616e-06	51.631	0.00042569	0.00044458	0.00012427	1366.5	4.9032e-06	4.8159e-06	1370.4	370.88	4.8773e-06	4.8081e-06	423.81	142.02	123.31	42.735	4.888e-06	52.396	244.919	51.223	-14.652	-67.142	79.079	39.182	-66.817	-61.815	109.735	72.837	-62.645	-58.161	-57.561	-53.544	170.167	-53.826	-8191	255	
18011.230	1	1	0	0	0.18465	0.13247	0.18546	0.22512	0.20413	0.14789	0.14619	0.28539	0.15529	0.18161	0.15853	0.24287	0.2531	0.12342	0.14457	0.17212	-2.6667	-2.625	-2.8812	-2.9854	-2.7062	-2.925	-2.9375	-2.7938	-2.8563	-2.6604	-2.9083	-3.2583	-2.7417	-3.0979	-2.7438	-2.7438	111.313	193.376	-24.890	-54.655	-20.480	113.006	225.348	238.012	145.440	-16.563	-42.241	219.398	247.775	242.954	-44.864	131.932	0.00020123	0.00038754	0.00014523	1352.2	6.5582e-06	1.869e-06	1357.9	366.43	8.1841e-07	4.8433e-06	419.26	139.21	121.2	41.794	2.6225e-06	51.63	0.00042563	0.0004431	0.0001262	1362.6	4.8685e-06	4.8615e-06	1367.8	370.6	4.9185e-06	4.8409e-06	423.16	142.21	123.62	42.744	4.8923e-06	52.462	250.062	54.765	25.828	-66.562	126.563	43.975	-66.673	-61.926	-19.984	65.776	-62.635	-57.923	-57.413	-53.379	14.501	-53.948	-8191	255	
18011.326	1	1	0	0	0.17025	0.28168	0.032789	0.28518	0.3268	0.19304	0.14381	0.11215	0.071283	0.030453	0.14267	0.21971	0.15329	0.24317	0.12743	0.16825	-2.4604	-2.7208	-2.6354	-2.9646	-2.5979	-3.1125	-2.9854	-2.6083	-2.9479	-2.6292	-2.8812	-3.0354	-2.8063	-3.0646	-2.775	-2.8063	140.659	271.481	105.613	139.629	-51.082	215.989	-52.874	-46.197	-43.180	232.956	223.225	275.604	193.320	-50.178	207.964	167.228	0.00015489	0.00064467	0.00012433	1363.7	2.3902e-06	5.349e-06	1363.4	367.29	1.0862e-06	5.7698e-06	419.75	138.86	121.13	41.838	2.9085e-06	51.523	0.00043327	0.00044813	0.0001235	1366.5	4.8412e-06	4.78e-06	1371.1	370.76	4.8765e-06	4.8638e-06	424.02	141.79	123.56	42.747	4.8529e-06	52.343	247.414	5.210	-26.832	-66.805	26.017	110.480	-66.699	-62.026	84.946	89.911	-62.461	-57.820	-57.538	-53.312	75.934	-53.732	-8191	255	
18011.424	1	1	0	0	0.34218	0.096798	0.082387	0.093847	0.20468	0.15306	0.35428	0.38652	0.10329	0.069338	0.4559	0.25116	0.23447	0.066629	0.1149	0.16053	-2.5062	-2.7604	-2.8354	-3.1083	-2.7208	-2.975	-2.9979	-2.6521	-3.0042	-2.6833	-2.8458	-3.0729	-2.8271	-2.8812	-3.0292	-2.6583	226.557	174.485	244.746	-73.478	-39.550	23.900	170.178	232.996	87.626	65.423	197.801	262.341	160.963	275.717	236.535	-58.704	0.0001878	0.00057572	1.4169e-05	1360.7	6.3906e-06	5.9717e-06	1357.5	366.3	9.1186e-07	1.0461e-06	419.4	139.26	121.31	41.893	6.319e-07	51.659	0.00043237	0.00044009	0.00012356	1366.4	4.8452e-06	4.9262e-06	1367.1	370.67	4.9108e-06	4.7889e-06	423.27	142.1	123.77	42.724	4.883e-06	52.477	239.345	6.021	9.300	-66.712	90.340	65.341	-66.817	-62.069	7.076	88.511	-62.728	-58.014	-57.528	-53.229	50.895	-54.223	-8191	255	
18011.520	1	1	0	0	0.14059	0.20254	0.079785	0.070892	0.15646	0.093176	0.045937	0.1533	0.10175	0.088165	0.091406	0.19238	0.085372	0.2096	0.13217	0.14303	-2.5542	-2.9479	-2.85	-3.0667	-2.8667	-2.8604	-3.15	-2.6063	-3.0833	-2.9042	-2.8479	-3.0875	-2.6979	-2.8875	-2.9396	-2.8271	217.657	164.388	67.210	-27.522	234.374	216.925	-53.708	86.041	203.940	82.976	171.324	234.261	-63.929	167.569	59.730	217.094	0.00014181	0.00045551	0.00014688	1362.1	2.802e-06	5.6178e-06	1367	367.4	2.3316e-06	5.1642e-06	422.36	139.32	121.45	42.068	4.1029e-06	51.65	0.00043449	0.00043657	0.00012527	1367.8	4.8829e-06	4.9289e-06	1372.2	370.53	4.9517e-06	4.9368e-06	424.11	142.09	123.6	42.806	4.9419e-06	52.417	252.183	33.651	8.532	-66.757	175.211	46.798	-66.669	-62.139	62.715	48.688	-62.706	-57.891	-57.448	-53.349	50.209	-54.214	-8191	255	
18011.615	1	1	0	0	0.075337	0.15923	0.1328	0.029743	0.13597	0.10034	0.19145	0.31198	0.1071	0.18084	0.033121	0.14193	0.068339	0.18821	0.23567	0.1807	-2.5771	-3.0208	-2.5333	-3.1604	-2.7458	-3.1292	-3.2125	-2.8417	-2.95	-2.775	-2.5146	-3.0521	-2.8896	-2.7271	-2.9875	-2.8104	228.997	171.285	-55.264	-44.005	143.764	11.167	230.457	232.765	121.189	114.849	-74.608	235.835	19.842	218.572	46.879	41.856	0.00018835	0.00079993	0.00015445	1362.2	2.7603e-06	3.3326e-06	1359.3	366.64	1.4577e-06	6.1822e-06	418.91	139.13	121.25	41.859	4.5393e-06	51.58	0.00043618	0.00044989	0.00012476	1366.9	4.9283e-06	4.9728e-06	1369.1	371.07	4.922e-06	4.8571e-06	423.66	142.17	123.59	42.794	4.9179e-06	52.414	238.639	14.789	25.127	-66.992	77.771	124.783	-66.794	-62.075	38.800	53.699	-62.400	-57.976	-57.785	-53.449	76.402	-54.071	-8191	255	
18011.713	1	1	0	0	0.15655	0.29846	0.078346	0.075706	0.090069	0.10864	0.42836	0.25413	0.085724	0.14564	0.067592	0.13233	0.15069	0.1563	0.29807	0.10562	-2.4229	-3.025	-2.6688	-3.0271	-2.9771	-2.6917	-3.0938	-2.8208	-2.8375	-3.0167	-2.7188	-2.8229	-2.8146	-2.6542	-2.9542	-2.8542	211.846	72.632	233.358	145.573	101.828	-15.443	238.850	-64.566	129.230	138.921	114.417	181.747	56.326	69.240	-22.904	33.683	0.00014832	0.00078515	0.00017475	1367.6	4.0597e-06	3.0839e-06	1361.5	365.78	1.2181e-06	5.5223e-06	421.34	139.69	120.75	42.044	6.1998e-07	51.635	0.00043782	0.00044693	0.00012328	1368.2	4.9674e-06	4.9322e-06	1368.9	370.65	4.9594e-06	4.9375e-06	424.34	142.22	123.45	42.754	4.8707e-06	52.42	238.575	16.502	15.599	-66.671	89.128	45.868	-66.614	-62.141	119.421	38.651	-62.591	-57.812	-57.611	-53.393	-38.994	-54.022	-8191	255	
18011.830	1	1	0	0	0.13944	0.25395	0.23014	0.23926	0.054654	0.10359	0.25047	0.21613	0.11708	0.070761	0.3184	0.2185	0.33341	0.20716	0.21822	0.1662	-2.4313	-2.8625	-2.6583	-3.0208	-2.7687	-2.75	-3.0125	-2.6542	-2.8812	-3.0396	-2.7417	-2.8542	-2.9833	-2.5938	-2.7812	-2.8604	160.404	22.820	232.565	3.475	49.295	-76.369	223.046	238.993	191.363	136.184	228.410	55.923	203.538	269.191	22.828	33.818	0.00012691	0.00045839	2.6215e-05	1365.7	5.3595e-06	5.9942e-06	1360.1	366.21	2.1727e-06	3.2944e-06	420.53	139.07	121.38	41.992	5.6365e-06	51.819	0.00044006	0.00044075	0.00012278	1367.9	4.8879e-06	4.7761e-06	1369.6	370.69	4.8865e-06	4.8304e-06	423.87	142.07	123.62	42.803	4.9438e-06	52.447	246.281	64.276	-74.099	-66.824	112.791	57.845	-66.737	-61.978	133.595	55.740	-62.675	-57.809	-57.673	-53.275	64.569	-53.969	-8191	255	
18011.928	1	1	0	0	0.01727	0.32177	0.016169	0.42762	0.11041	0.39812	0.35542	0.2504	0.17996	0.24397	0.14791	0.16638	0.12412	0.33506	0.16966	0.21727	-2.4021	-2.9021	-2.4229	-2.8396	-2.8563	-2.75	-3.0958	-2.8875	-2.8375	-2.9396	-2.6833	-2.8979	-3.1042	-2.6917	-3.0729	-2.9229	204.158	68.421	81.955	221.536	-11.136	-59.617	213.692	206.106	188.058	263.744	-5.062	-18.844	-57.009	258.598	215.159	193.126	0.00013861	0.00053625	0.00018958	1372	1.1475e-06	3.6526e-06	1363.7	366.41	2.9582e-06	2.9749e-06	422.11	139.85	121.46	42.033	2.0071e-06	51.722	0.00043753	0.00045123	0.00012431	1370.1	4.976e-06	4.9006e-06	1371.5	370.71	4.9485e-06	4.9229e-06	424.96	142.5	123.75	42.786	5.0501e-06	52.464	245.673	26.245	-13.077	-66.481	94.868	60.775	-66.694	-62.343	73.665	61.730	-62.669	-57.791	-57.733	-53.358	6.264	-53.835	-8191	255	
18012.023	1	1	0	0	0.15629	0.091815	0.13351	0.17262	0.23939	0.24865	0.2473	0.1757	0.12313	0.16783	0.10182	0.24778	0.149	0.042001	0.33242	0.16724	-2.2229	-2.9917	-2.5958	-2.9792	-2.7292	-2.5542	-3.0396	-2.9146	-2.7667	-2.9833	-2.9208	-3.0042	-2.9958	-2.7062	-2.9042	-3.0896	150.655	117.443	183.433	77.748	182.509	171.151	215.352	238.208	257.223	139.788	184.784	260.407	-29.674	-75.452	115.883	210.980	0.00015662	0.00070198	0.00021511	1365.8	5.1557e-06	3.7196e-06	1365.9	368.23	2.6738e-06	5.1078e-06	421.92	139.26	121.63	41.937	5.4695e-06	51.643	0.00043513	0.00044584	0.00012656	1371.2	4.9381e-06	4.8787e-06	1372.1	371.49	4.9423e-06	4.9303e-06	425.3	142.35	123.96	42.757	4.9626e-06	52.486	245.443	21.629	-17.563	-66.841	96.277	105.126	-66.749	-62.005	53.899	112.866	-62.596	-58.127	-57.560	-53.406	50.054	-54.106	-8191	255	
18012.119	1	1	0	0	0.22591	0.071043	0.20022	0.20743	0.1884	0.14388	0.43598	0.20148	0.055488	0.18	0.093923	0.24407	0.13012	0.01732	0.14354	0.032285	-2.2833	-3.05	-2.5875	-2.6583	-2.825	-2.7125	-3.0208	-2.9354	-2.5438	-2.8354	-2.7188	-2.8937	-2.9813	-2.7625	-2.9625	-2.9125	159.617	192.228	-55.717	252.409	58.844	220.241	229.222	175.531	-0.906	149.146	208.190	196.041	264.605	-36.983	-8.295	253.534	0.00014159	0.00067181	0.00021029	1371.1	5.584e-06	5.2843e-06	1364.5	366.84	2.5166e-06	6.1533e-06	421.54	139.9	121.44	41.973	3.2224e-06	51.87	0.00044078	0.00045402	0.00012715	1371.3	4.9355e-06	4.9299e-06	1373.5	371.39	4.9522e-06	4.9885e-06	425.13	142.56	123.92	42.855	5.0403e-06	52.618	271.207	2.683	-20.616	-66.805	99.825	32.126	-66.861	-62.057	83.172	90.281	-62.530	-57.916	-57.660	-53.478	67.398	-53.821	-8191	255	
18012.215	1	1	0	0	0.13487	0.091286	0.097864	0.38517	0.21239	0.15674	0.032919	0.01586	0.23336	0.1293	0.38456	0.17033	0.22728	0.10176	0.10022	0.23134	-2.0354	-2.7833	-2.7542	-2.6271	-3.0312	-2.5729	-2.9437	-2.9375	-2.6	-3.0708	-3.0458	-2.7417	-3.0896	-2.7167	-2.7938	-2.9396	233.831	250.219	36.753	20.871	-63.080	152.928	270.733	278.898	-29.067	69.799	255.886	-31.846	-23.630	271.653	-3.286	11.552	0.00013289	0.00061307	0.0002648	1376.2	3.8457e-06	6.0372e-06	1367	367.54	2.0428e-06	7.2904e-06	419.21	139.33	121.91	42.227	1.5308e-06	51.797	0.00044448	0.00046069	0.00012907	1373.9	4.991e-06	5.0532e-06	1375.1	371.51	5.064e-06	5.0656e-06	424.61	142.67	124.08	43.041	5.0933e-06	52.622	243.191	1.978	11.396	-67.137	65.069	86.930	-66.740	-62.224	68.610	64.678	-62.715	-57.927	-57.676	-53.215	100.863	-53.912	-8191	255	
18012.311	1	1	0	0	0.037493	0.17096	0.080765	0.27903	0.064472	0.21242	0.10995	0.10834	0.11087	0.1477	0.19227	0.23701	0.31551	0.13697	0.15269	0.24494	-2.0125	-2.85	-2.7	-2.7167	-2.9125	-2.825	-2.9354	-2.9938	-2.5896	-2.9437	-2.8104	-2.8625	-3.0854	-2.8063	-2.9062	-2.9792	-42.494	260.077	-52.158	-11.659	47.988	72.752	-74.927	164.810	-1.378	131.381	51.717	227.139	247.271	-21.202	79.599	184.478	0.00014945	0.00087417	0.00014174	1365.4	5.2404e-06	4.7253e-06	1365.5	367.21	8.125e-07	4.9495e-06	422.2	139.52	121.41	42.105	4.5308e-06	51.764	0.00045331	0.00046081	0.00013031	1372.4	5.0899e-06	5.0813e-06	1376.1	371.41	5.1358e-06	5.06e-06	425.96	142.46	123.93	42.965	5.1332e-06	52.635	260.804	-0.546	3.877	-66.982	62.168	76.251	-66.591	-62.152	96.442	85.654	-62.501	-58.009	-57.771	-53.456	83.623	-53.759	-8191	255	
18012.432	1	1	0	0	0.20745	0.21462	0.12826	0.2673	0.038222	0.21765	0.11454	0.083814	0.072404	0.11301	0.041611	0.26304	0.27255	0.10986	0.29975	0.22687	-2.3	-2.8375	-2.8708	-2.5875	-2.9042	-2.9417	-2.9437	-3.2604	-2.8604	-3.0458	-3.0979	-2.7979	-2.9333	-2.8979	-2.7979	-3.1708	54.386	50.783	272.383	155.362	253.612	111.596	232.684	-45.518	262.795	177.971	-32.514	193.828	2.189	-3.847	225.075	161.002	0.00011824	0.00084587	0.00017664	1369.8	1.4082e-06	6.4242e-06	1367.9	367.61	4.1569e-06	3.4399e-06	419.93	139.65	121.46	42.278	3.8313e-06	51.812	0.00045231	0.00046504	0.00013095	1373.5	5.176e-06	5.1823e-06	1376.1	371.63	5.1917e-06	5.2115e-06	425.35	142.75	124.06	43.028	5.0405e-06	52.602	241.099	-1.179	15.227	-66.850	25.931	85.842	-66.720	-61.996	83.534	74.743	-62.764	-57.814	-57.458	-53.433	65.682	-53.855	-8191	255	
18012.527	1	1	0	0	0.054843	0.18138	0.19459	0.22997	0.061508	0.070633	0.097479	0.32561	0.12825	0.21645	0.24694	0.096347	0.18465	0.1967	0.13094	0.079283	-2.1833	-3.1042	-2.8812	-2.5167	-2.9958	-3.0375	-2.8771	-3.2021	-2.6958	-2.7854	-2.9208	-2.6604	-3.0708	-2.9167	-2.6458	-3.125	150.361	-51.620	50.952	222.085	154.537	97.434	165.554	253.847	91.143	14.464	177.267	13.923	55.097	-75.829	-10.717	146.993	0.00018329	0.0004264	7.4314e-05	1369.1	4.3413e-06	6.4183e-06	1372.2	367.21	2.5157e-06	6.3788e-06	422.91	139.82	121.54	42.097	4.4413e-06	51.595	0.00045811	0.00046798	0.00012944	1372.5	5.0497e-06	5.1079e-06	1376	371.72	5.0964e-06	5.1109e-06	426.22	142.56	123.93	42.9	5.1139e-06	52.64	240.360	43.053	-9.692	-66.653	78.532	72.774	-66.495	-62.175	134.071	58.270	-62.597	-57.913	-57.406	-53.267	91.116	-53.914	-8191	255	
18012.623	1	1	0	0	0.11552	0.075616	0.0304	0.13313	0.048517	0.1516	0.20731	0.40148	0.062558	0.12218	0.096406	0.25241	0.1607	0.386	0.11801	0.1799	-2.2833	-2.8792	-2.9479	-2.7917	-2.7604	-2.9875	-2.8688	-3.1417	-2.7667	-2.7438	-3.0292	-2.9	-3.0958	-3.0875	-2.6562	-3.2	120.947	183.176	-24.158	246.602	-20.198	90.463	-44.202	256.242	193.895	32.385	-26.580	233.628	-50.872	249.808	-30.033	272.181	0.00012858	0.00056866	7.633e-05	1363	5.9668e-06	3.0939e-06	1364.5	367.4	2.36e-06	3.4178e-06	422.21	139.46	121.89	41.981	4.144e-06	51.853	0.00045188	0.00046373	0.00012833	1369.4	5.0847e-06	5.0278e-06	1373.4	371.45	5.0935e-06	5.1065e-06	425.45	142.57	124.06	42.908	5.0837e-06	52.586	249.122	7.611	8.031	-66.747	89.648	39.333	-66.745	-62.062	125.888	67.522	-62.797	-57.810	-57.785	-53.324	97.441	-53.952	-8191	255	
18012.695	1	1	0	0	0.1637	0.14553	0.027561	0.16478	0.27043	0.15439	0.31026	0.065403	0.1898	0.18126	0.30808	0.27345	0.094837	0.31595	0.092412	0.18101	-2.2104	-2.8125	-3.0062	-2.7125	-3.0312	-2.9708	-2.9625	-2.9875	-2.7208	-2.6875	-3.1979	-2.8083	-3.1021	-3.1458	-2.7938	-3.1937	76.507	250.001	138.580	-30.214	142.309	-38.716	236.795	-7.976	118.691	-74.320	208.261	250.276	256.046	208.862	44.114	237.248	0.00017718	0.00063488	0.00012801	1360.4	4.6077e-06	5.366e-06	1367.1	367.09	2.1625e-06	3.8414e-06	422.57	139.58	121.54	42.014	3.5527e-06	51.768	0.00044889	0.00046647	0.00012866	1372.3	5.1139e-06	5.0635e-06	1372.3	371.93	5.0618e-06	5.0492e-06	425.23	142.66	124.12	42.899	5.0001e-06	52.619	252.549	35.040	10.079	-67.032	62.896	63.532	-66.675	-62.122	68.789	82.570	-62.389	-58.147	-57.714	-53.366	77.589	-54.306	-8191	255	
18012.793	1	1	0	0	0.11576	0.15582	0.1479	0.088738	0.12138	0.17738	0.19276	0.2011	0.13593	0.13781	0.18966	0.47831	0.13798	0.26996	0.11294	0.089183	-2.5125	-2.6729	-3.0687	-2.7792	-3.0167	-2.8646	-2.9646	-3.1604	-2.8833	-2.7833	-3.2396	-2.8625	-2.8229	-3.0708	-2.7146	-3.0729	20.173	39.141	-24.458	200.214	137.904	271.470	195.791	222.878	50.474	62.438	-26.242	239.824	-10.578	-32.337	216.262	267.888	0.00014915	0.00036027	0.00012571	1356.9	4.3324e-06	4.1624e-06	1363.1	367.42	1.2323e-06	4.6397e-06	420	140.15	121.46	42.022	5.9185e-06	51.775	0.00044474	0.00045876	0.00012696	1369.1	5.0923e-06	4.9869e-06	1373.4	371.92	5.0467e-06	5.1091e-06	425.05	142.69	123.94	42.921	5.0852e-06	52.588	234.675	-30.435	15.567	-66.903	119.881	44.786	-66.457	-62.220	59.493	92.863	-62.676	-58.015	-57.754	-53.440	75.167	-54.055	-8191	255	
18012.910	1	1	0	0	0.10806	0.18162	0.17118	0.13401	0.21334	0.13619	0.28646	0.19718	0.15722	0.078086	0.16786	0.19632	0.11645	0.10821	0.21121	0.11198	-2.525	-2.7562	-3.0125	-2.6896	-2.8083	-3.0771	-2.8354	-2.9604	-2.8896	-2.6979	-3.1667	-2.8417	-2.8542	-3.0875	-2.7667	-2.9292	173.042	-26.712	136.474	-24.382	42.009	-29.471	225.363	266.578	27.661	216.139	-62.211	-29.711	225.086	253.341	46.133	254.385	0.00015437	0.00059781	7.3002e-05	1361.6	4.081e-06	2.8689e-06	1367.5	367.77	2.9072e-06	5.8779e-07	422.9	139.56	121.87	41.989	4.3933e-06	51.48	0.00045341	0.00045751	0.00013071	1370.9	5.0352e-06	5.0169e-06	1372.5	371.24	5.0594e-06	5.0213e-06	426.19	142.42	124.09	42.913	5.0691e-06	52.563	243.334	41.887	19.768	-66.847	95.693	50.524	-66.663	-62.019	33.765	67.863	-62.673	-57.948	-57.469	-53.325	78.063	-53.912	-8191	255	
18013.008	1	1	0	0	0.23441	0.32578	0.19811	0.19777	0.014071	0.14241	0.075505	0.23026	0.10557	0.13169	0.2096	0.14198	0.11678	0.26056	0.049095	0.0061249	-2.5229	-2.7083	-2.8979	-2.7833	-2.6521	-3.0521	-2.8417	-2.9583	-3.0771	-2.6958	-3.2708	-2.875	-2.7313	-3.1333	-2.7062	-2.9896	115.720	241.696	185.924	223.293	73.176	232.566	-7.322	265.895	130.939	106.019	-34.514	-60.128	261.538	-62.230	24.231	219.958	0.0001681	0.00076293	8.2024e-05	1371.8	7.7658e-06	5.858e-06	1358.1	367.02	2.1683e-06	3.6335e-06	423.11	139.77	121.13	42.088	1.4647e-06	51.724	0.00044672	0.00044929	0.00012893	1371.7	4.973e-06	4.991e-06	1371	371.61	5.0281e-06	4.9088e-06	425.65	142.56	123.88	42.909	4.985e-06	52.59	238.620	32.715	31.099	-66.989	90.881	79.996	-66.617	-62.107	127.627	116.279	-62.726	-57.953	-57.652	-53.428	20.502	-53.880	-8191	255	
18013.104	1	1	0	0	0.11085	0.19074	0.14407	0.35969	0.3778	0.056888	0.27613	0.42894	0.075838	0.13518	0.13083	0.28882	0.36697	0.18148	0.21044	0.24503	-2.475	-2.8646	-2.9854	-2.9333	-2.8042	-3.0333	-3.0167	-2.8708	-2.8396	-2.4562	-3.1562	-3.0104	-2.8458	-3.1771	-2.7917	-2.9062	271.256	273.089	172.530	235.718	116.812	64.892	-54.024	264.247	94.322	202.731	134.496	-74.203	-69.459	249.835	220.640	279.699	0.0001268	0.00057921	0.00021672	1359	3.843e-06	5.7469e-06	1366.2	365.64	6.0677e-07	2.1395e-07	421.93	139.81	121.82	42.057	2.4319e-06	52.048	0.00044258	0.00044984	0.00012652	1367.5	5.0007e-06	5.0501e-06	1372.6	371.38	4.9817e-06	4.8578e-06	425.39	142.54	123.87	42.954	5.028e-06	52.641	264.081	37.349	9.971	-66.753	89.134	80.380	-66.860	-62.162	80.775	261.387	-62.512	-58.006	-57.687	-53.191	14.602	-53.996	-8191	255	
18013.225	1	1	0	0	0.1769	0.20061	0.19897	0.16914	0.14419	0.075537	0.43582	0.18124	0.049198	0.20242	0.26314	0.40007	0.27774	0.12349	0.18523	0.21043	-2.6917	-2.6562	-2.9854	-2.9083	-2.6958	-3.0938	-2.8458	-2.9542	-3.1521	-2.8146	-2.9479	-2.8708	-2.8312	-3.025	-2.7625	-2.7771	124.438	-45.411	111.205	62.701	2.398	-76.743	229.609	219.391	160.107	101.440	267.818	-60.290	-74.168	107.727	144.916	225.046	0.00013311	0.00037017	0.00013101	1367.3	4.0303e-06	6.1208e-06	1361.6	366.84	1.897e-06	5.1304e-06	420.4	139.7	122.12	42.276	7.529e-06	51.959	0.00043706	0.00045162	0.00012657	1370	4.9736e-06	4.9553e-06	1373.5	371.19	4.9583e-06	4.9429e-06	425.79	142.49	124.09	42.895	4.9279e-06	52.646	244.671	27.075	10.705	-66.867	87.957	52.034	-66.547	-62.183	200.397	38.112	-62.501	-57.879	-57.479	-53.551	43.293	-54.198	-8191	255	
18013.295	1	1	0	0	0.069498	0.20597	0.15862	0.20481	0.44174	0.10839	0.10047	0.097262	0.1298	0.053702	0.028802	0.25582	0.13188	0.18557	0.18229	0.36819	-2.6042	-2.7292	-2.8833	-3.0146	-2.6979	-3.0979	-2.9479	-2.7292	-3.1604	-2.6417	-3.1063	-3.1542	-2.7479	-3.0417	-2.7562	-3.0104	-14.622	273.265	185.510	260.250	-64.475	-22.729	265.092	263.601	139.095	-32.800	179.665	148.725	206.287	262.820	214.484	197.197	0.00013479	0.00085332	0.00010334	1362.2	8.0048e-06	8.3726e-06	1361.9	366.67	2.3592e-06	1.6379e-06	422.43	139.84	122.09	42.14	2.4539e-06	51.821	0.00043498	0.00043949	0.00012409	1366.9	4.7884e-06	4.8768e-06	1371.8	371.19	4.9167e-06	4.8045e-06	425.43	142.64	123.83	42.914	4.8536e-06	52.594	242.156	8.591	21.711	-66.632	119.646	56.590	-66.704	-62.046	62.527	8.190	-62.678	-57.840	-57.710	-53.353	43.695	-53.916	-8191	255	
18013.393	1	1	0	0	0.25575	0.16573	0.11178	0.066818	0.084037	0.16604	0.10787	0.33936	0.1241	0.15079	0.065743	0.16799	0.12529	0.21204	0.12347	0.21962	-2.6688	-2.7604	-2.9417	-3.3333	-2.6792	-2.8979	-3.1208	-2.8854	-2.9646	-2.7333	-2.9562	-3.1208	-2.5458	-3.0271	-2.9292	-2.65	-54.409	-63.526	273.842	215.108	65.330	-43.207	191.942	198.527	4.003	-45.254	103.516	200.741	-72.121	-8.505	94.592	214.403	0.00018476	0.00037112	0.00024566	1363	3.1585e-06	5.5016e-06	1361.3	366.74	8.4446e-07	3.9216e-06	421.27	139.76	121.74	41.995	6.3795e-06	51.96	0.00043374	0.00044143	0.00012277	1367.9	4.8659e-06	4.9091e-06	1370.5	371.02	4.8532e-06	4.8916e-06	424.95	142.53	123.94	42.881	4.814e-06	52.566	246.293	14.966	15.687	-67.021	81.181	94.372	-66.631	-62.147	120.255	111.445	-62.727	-57.934	-57.621	-53.206	79.479	-53.919	-8191	255	
18013.512	1	1	0	0	0.12296	0.10158	0.15364	0.19516	0.44593	0.10154	0.13776	0.13857	0.31108	0.14272	0.084761	0.18938	0.10134	0.16641	0.046313	0.11436	-2.6063	-2.5938	-2.8667	-3.1292	-2.9437	-3.0604	-2.9583	-2.9458	-3.0812	-2.7583	-2.8708	-3.1167	-2.7708	-2.9646	-3.0333	-2.9104	80.992	216.390	-13.918	232.060	-3.855	179.310	278.254	171.167	274.702	21.048	233.192	225.436	36.389	160.340	212.281	170.285	0.00015464	0.00066608	0.00010633	1366.7	5.5878e-06	7.0783e-06	1366	366.45	2.3965e-06	7.1575e-06	421.15	139.59	121.47	41.96	5.2941e-06	51.777	0.00043426	0.00044057	0.00012419	1367.8	4.8741e-06	4.9299e-06	1374	371.38	4.9125e-06	4.9182e-06	424.93	142.49	123.9	42.848	4.9268e-06	52.543	258.760	48.977	-3.404	-67.231	99.967	70.918	-66.705	-61.997	122.811	57.170	-62.643	-57.750	-57.759	-53.213	77.234	-53.889	-8191	255	
18013.607	1	1	0	0	0.14194	0.0072978	0.2703	0.21938	0.076776	0.18144	0.05313	0.15273	0.11044	0.081654	0.15867	0.17289	0.2889	0.11537	0.042028	0.056695	-2.6479	-2.85	-2.8063	-3.1021	-2.7812	-2.9854	-3.2938	-2.7167	-3.0104	-2.8729	-2.9771	-3.1917	-2.9604	-2.9271	-2.9313	-2.8458	-54.907	22.173	-8.649	239.275	176.600	265.050	257.331	112.043	251.294	-2.672	272.774	-26.131	-69.724	266.344	178.568	24.517	0.00016495	0.00080258	5.3897e-05	1366.5	3.5078e-06	6.6163e-06	1363.5	367.51	3.6546e-06	6.4131e-06	422.37	139.96	121.7	42.02	5.7908e-06	51.795	0.00043916	0.00044159	0.00012438	1370.6	4.9628e-06	4.9102e-06	1372.2	371.35	5.0095e-06	4.9461e-06	425.66	142.68	123.83	42.89	4.896e-06	52.517	237.565	64.871	38.208	-66.888	71.933	60.177	-66.787	-62.025	89.964	76.003	-62.625	-57.984	-57.469	-53.458	78.345	-53.960	-8191	255	
18013.705	1	1	0	0	0.15371	0.17488	0.17816	0.057709	0.1536	0.053264	0.12693	0.10345	0.071997	0.11048	0.096007	0.25766	0.23261	0.30469	0.059034	0.17465	-2.4042	-2.8708	-2.7167	-3.175	-2.8583	-2.8604	-3.35	-2.8833	-2.9417	-2.8396	-2.6479	-3.0958	-2.7438	-2.7042	-3	-2.9	198.997	0.167	109.101	227.386	36.806	-17.129	117.132	110.707	243.544	105.532	116.968	217.082	-76.378	235.699	123.726	193.414	0.00017476	0.00054243	0.00020583	1357.8	5.6044e-06	5.4669e-06	1365.2	366.82	2.35e-06	6.2887e-06	420.94	139.97	121.82	42.138	2.4148e-06	51.692	0.00044357	0.00044442	0.00012439	1365.2	4.8796e-06	4.848e-06	1372.3	371.23	5.0269e-06	4.9011e-06	424.96	142.55	123.89	42.862	4.9196e-06	52.561	253.292	27.014	-9.329	-66.800	96.537	71.512	-66.765	-62.131	98.980	93.641	-62.469	-57.895	-57.483	-53.536	77.582	-54.142	-8191	255	
18013.822	1	1	0	0	0.28652	0.14906	0.15449	0.085435	0.31924	0.1309	0.029902	0.15858	0.15207	0.064338	0.25109	0.24072	0.21515	0.1646	0.1522	0.1762	-2.4958	-2.9875	-2.7812	-3.0458	-2.8	-2.7833	-3.125	-2.8229	-2.8417	-3.0083	-2.5979	-3.2021	-2.9125	-2.5583	-3.1021	-2.8292	266.112	-79.890	213.448	-71.178	206.386	136.179	201.133	237.177	67.846	201.442	279.531	63.623	187.547	230.687	83.974	266.269	0.00016936	0.00068234	5.8732e-05	1371.7	8.1895e-06	2.9351e-06	1366.1	366.14	2.5703e-06	5.3526e-06	420.82	139.16	121.35	41.992	3.6195e-06	51.855	0.0004409	0.00044372	0.0001254	1372.2	4.9758e-06	4.9068e-06	1372.5	371.14	4.9561e-06	4.95e-06	424.47	142.27	123.66	42.871	4.923e-06	52.587	237.695	15.203	8.393	-66.966	72.902	45.662	-66.759	-62.179	94.201	95.882	-62.629	-57.798	-57.640	-53.364	93.255	-54.266	-8191	255	
18013.920	1	1	0	0	0.15076	0.061836	0.03322	0.1595	0.02307	0.069217	0.30373	0.086098	0.075197	0.16882	0.28127	0.17813	0.22678	0.22016	0.095041	0.25119	-2.4	-2.9	-2.6688	-2.9792	-2.7208	-2.6792	-3.2333	-2.8937	-2.7062	-3.1083	-2.6208	-2.8958	-3.0146	-2.8833	-2.8292	-2.8708	150.590	218.210	152.621	166.776	238.080	230.729	214.055	235.047	260.397	-15.531	233.799	261.699	157.860	-77.665	-76.925	232.769	0.00017348	0.0010026	0.00016904	1362.8	6.8281e-06	5.7186e-06	1363.7	366.28	1.0755e-06	7.7627e-06	421.81	139.23	121.74	42.047	3.7903e-06	51.915	0.00043757	0.00045097	0.0001253	1367.1	4.9272e-06	4.9263e-06	1371.5	370.99	4.955e-06	4.8987e-06	424.51	142.39	123.81	42.841	4.9391e-06	52.634	235.278	5.654	22.752	-66.987	133.118	45.999	-66.714	-62.114	-62.733	63.499	-62.516	-57.861	-57.616	-53.375	41.090	-53.942	-8191	255	
18013.990	1	1	0	0	0.059475	0.12176	0.10649	0.16437	0.089221	0.23818	0.36862	0.15582	0.19122	0.070361	0.20162	0.17062	0.13486	0.26021	0.24784	0.30296	-2.4125	-2.8417	-2.6375	-2.9625	-3.0771	-2.525	-3.2958	-2.8042	-2.7	-2.9979	-2.725	-3	-3.1792	-2.6979	-3.0458	-2.8229	264.313	244.089	-22.579	212.288	24.423	11.200	198.429	117.231	-44.427	43.271	202.172	92.729	237.866	192.403	46.014	143.408	0.00018504	0.00049523	4.176e-05	1360.1	4.7905e-06	3.7662e-06	1363.4	366.67	3.0111e-06	5.2318e-06	421.25	139.39	121.2	41.97	3.2188e-06	51.384	0.00044101	0.00045079	0.00012272	1369.4	4.8617e-06	4.8829e-06	1371	370.91	4.8479e-06	4.9064e-06	424.58	142.46	123.71	42.829	4.838e-06	52.546	259.670	88.851	88.299	-66.750	92.910	105.668	-66.501	-62.002	76.455	51.511	-62.454	-57.714	-57.819	-53.414	59.238	-54.089	-8191	255	
18014.090	1	1	0	0	0.020722	0.17332	0.016144	0.31808	0.18904	0.21859	0.32214	0.18773	0.25515	0.18285	0.08215	0.12906	0.36886	0.33786	0.090189	0.29777	-2.3417	-3.1479	-2.675	-2.7729	-2.8979	-2.6771	-3.3521	-2.8771	-2.7229	-3.225	-2.8312	-2.9667	-3.0479	-2.725	-3.125	-3	259.899	176.789	152.937	-57.590	221.642	97.004	264.334	270.585	9.375	18.166	275.225	256.690	12.336	202.175	196.963	119.671	0.00017045	0.00050822	9.7238e-05	1365.1	4.0115e-06	3.7229e-06	1365.3	366.63	2.8167e-06	5.3306e-06	420.02	138.92	120.81	42.034	3.272e-06	51.714	0.00043383	0.0004354	0.0001251	1369.1	4.791e-06	4.7926e-06	1372	370.92	4.8835e-06	4.8015e-06	424.2	142.04	123.63	42.9	4.9185e-06	52.526	261.524	22.306	-45.296	-67.073	97.753	94.259	-66.790	-62.019	105.733	90.519	-62.736	-57.858	-57.653	-53.363	92.851	-53.763	-8191	255	
18014.207	1	1	0	0	0.12839	0.14969	0.20838	0.1877	0.1627	0.10947	0.17943	0.12796	0.092267	0.11071	0.389	0.33331	0.042768	0.095987	0.3505	0.19111	-2.5167	-3.0979	-2.7333	-2.9729	-3.075	-2.8125	-3.0687	-3	-2.7667	-3.1271	-2.8583	-2.9229	-3.2042	-2.8333	-2.8896	-3.0375	36.441	50.367	14.066	238.922	211.276	33.669	176.866	155.871	215.295	-32.129	232.507	252.607	2.149	260.101	12.070	-74.724	0.00014206	0.0004219	0.00017189	1370.5	4.0398e-07	1.8637e-06	1365.7	366.7	2.5212e-06	4.446e-06	420.68	138.89	121.12	42.049	3.8347e-06	51.567	0.00043163	0.00043996	0.00012185	1369.7	4.8798e-06	4.8117e-06	1372	371.36	4.8588e-06	4.8007e-06	424.63	142	123.8	42.843	4.9038e-06	52.484	256.659	48.375	-6.698	-66.738	32.655	54.730	-66.680	-62.123	123.348	107.117	-62.518	-58.118	-57.631	-53.419	93.546	-54.160	-8191	255	
18014.305	1	1	0	0	0.21268	0.017796	0.05244	0.27214	0.23379	0.17202	0.15644	0.094132	0.2007	0.16744	0.13182	0.06719	0.15806	0.26845	0.26022	0.2423	-2.3625	-3.0708	-2.7229	-2.8438	-3.0854	-2.7583	-3.1188	-3.1063	-2.4854	-3.0354	-2.9417	-2.7458	-3.1583	-2.6437	-2.975	-3.0271	3.066	160.393	50.169	74.628	78.619	175.293	-51.365	165.155	-26.893	137.995	17.263	-67.751	246.964	-47.625	-40.561	-61.157	0.0001835	0.00069064	0.00015376	1357.7	7.53e-06	6.093e-06	1362.4	365.29	4.1868e-07	4.4775e-06	421.72	139.88	121.28	42.009	4.9211e-06	51.784	0.00043276	0.00044157	0.00012462	1367	4.9212e-06	4.924e-06	1371.3	370.93	4.9005e-06	4.8445e-06	424.61	142.24	123.55	42.806	4.8959e-06	52.443	242.798	-6.258	20.602	-66.725	101.247	93.508	-66.725	-62.201	143.762	109.317	-62.651	-57.827	-57.389	-53.329	122.566	-54.194	-8191	255	
18014.400	1	1	0	0	0.097351	0.28153	0.30206	0.041747	0.096093	0.19147	0.10331	0.17974	0.061851	0.072612	0.21291	0.13641	0.22176	0.10231	0.072967	0.0372	-2.2146	-2.9333	-2.9375	-2.8542	-3.1083	-2.7771	-3.0896	-3.2729	-2.775	-3.0271	-3.1583	-2.7917	-2.9833	-2.9479	-2.8688	-3.1188	176.648	-58.895	179.321	10.080	42.339	-51.051	216.046	-78.917	-70.126	172.956	211.347	125.067	269.332	181.051	164.016	210.952	0.00014686	0.00049213	0.00017147	1362	6.0447e-06	4.9991e-06	1364.1	366.86	4.5558e-06	7.0209e-06	421.09	139.65	121.38	42.052	3.6377e-06	51.471	0.00043418	0.00044886	0.00012344	1368.1	4.919e-06	4.9089e-06	1371.4	370.89	4.9046e-06	4.8562e-06	424.63	142.37	123.62	42.835	4.9172e-06	52.456	243.970	13.293	-11.221	-66.720	84.514	64.607	-66.693	-62.104	108.074	49.815	-62.816	-58.050	-57.649	-53.349	34.361	-53.939	-8191	255	
18014.496	1	1	0	0	0.079836	0.29407	0.080054	0.21957	0.10119	0.22005	0.11727	0.18993	0.23938	0.092944	0.36276	0.18633	0.17531	0.27643	0.24437	0.15156	-2.15	-3.0729	-2.6646	-2.6896	-2.9292	-2.8583	-2.9083	-3.2812	-2.9021	-2.9188	-2.9146	-2.475	-3.0583	-2.8063	-2.8021	-3.0521	-1.046	139.578	256.360	240.705	44.062	237.108	152.001	-79.663	-11.982	28.843	235.418	247.563	-44.464	253.454	0.278	193.523	0.00013739	0.0006213	0.00025136	1366.3	6.306e-06	4.3622e-06	1366.5	367.07	2.9472e-06	5.1162e-06	420.88	139.4	121.46	42.136	3.3735e-06	51.531	0.00043106	0.00045196	0.00012205	1366.7	4.8927e-06	4.8574e-06	1372.3	371.03	4.8436e-06	4.8626e-06	424.85	142.27	123.98	42.924	4.7524e-06	52.57	244.867	66.350	20.426	-66.843	58.511	105.616	-66.625	-61.957	57.021	93.411	-62.562	-58.014	-57.843	-53.379	80.500	-54.197	-8191	255	
18014.594	1	1	0	0	0.12678	0.029595	0.17399	0.078413	0.17349	0.097223	0.043158	0.2172	0.19442	0.043593	0.25079	0.20335	0.14329	0.18586	0.1541	0.15182	-2.1167	-2.9167	-2.8854	-2.5187	-3.0354	-2.625	-2.7854	-3.2083	-2.5833	-2.8104	-3.0417	-2.7479	-3.0417	-2.8646	-2.6167	-3.0854	44.775	196.026	70.190	-45.492	26.060	160.636	185.614	186.255	140.277	54.775	125.672	-30.904	-78.699	-74.783	144.982	170.150	0.00013323	0.00064524	0.00014113	1365.2	5.9285e-06	4.5672e-06	1368.7	366.35	2.3185e-06	7.36e-06	419.4	139.06	121.55	42.061	4.6124e-06	51.596	0.00043543	0.00043944	0.0001216	1369	4.8609e-06	4.7774e-06	1374.7	370.97	4.8493e-06	4.9087e-06	424.53	142.23	123.84	42.841	4.8452e-06	52.549	240.197	36.189	3.803	-66.771	117.966	35.718	-66.697	-62.146	129.830	49.161	-62.500	-58.020	-57.594	-53.457	88.574	-54.116	-8191	255	
18014.689	1	1	0	0	0.21785	0.15624	0.27809	0.42081	0.16599	0.058878	0.18862	0.22501	0.207	0.16694	0.15425	0.20782	0.22701	0.20174	0.088769	0.2628	-2.2458	-2.8125	-2.7479	-2.7458	-2.9938	-3.025	-2.9938	-3.0917	-2.6875	-2.75	-3.1833	-2.7083	-3.0333	-3.0062	-2.7375	-2.9729	129.070	63.528	110.480	188.077	90.824	165.524	262.079	-59.678	61.985	175.674	-43.789	255.189	225.752	22.621	275.722	143.676	0.00017598	0.00073531	0.00019755	1362.9	3.3616e-06	6.9302e-06	1363.6	364.94	1.5002e-06	5.0786e-06	421.11	138.87	121.57	42.006	4.1163e-06	51.534	0.0004348	0.0004435	0.00012332	1370.2	4.983e-06	4.8116e-06	1373.7	370.75	4.9388e-06	4.8998e-06	424.88	142.29	123.95	42.832	4.8808e-06	52.5	241.216	6.927	15.309	-66.935	65.748	35.635	-66.608	-61.939	55.436	66.487	-62.611	-58.126	-57.714	-53.423	67.193	-54.017	-8191	255	
18014.785	1	1	0	0	0.21729	0.013298	0.21681	0.10272	0.2371	0.11304	0.46034	0.042065	0.26604	0.056028	0.22514	0.27795	0.14018	0.14145	0.19763	0.089494	-2.4958	-2.8229	-2.9938	-2.6396	-2.925	-3.0875	-2.85	-3.1542	-2.6208	-2.7708	-3.2167	-2.7979	-3.0229	-2.9333	-2.6896	-3.0917	40.091	207.993	107.990	230.529	-79.405	6.851	218.586	12.998	-36.338	27.507	222.318	-64.087	184.500	-58.948	139.444	126.842	0.00012484	0.00056004	0.00012479	1366	5.2685e-06	6.2165e-06	1360.6	365.69	3.4859e-06	3.7474e-06	422.93	139.14	121.5	41.986	3.8796e-06	51.84	0.00043397	0.00044905	0.00012443	1371	4.947e-06	4.8986e-06	1372.2	370.73	5.0356e-06	4.9413e-06	425.42	142.33	124.08	42.821	4.9184e-06	52.587	253.230	13.389	6.818	-66.952	89.106	57.279	-66.628	-62.035	108.040	90.191	-62.754	-58.082	-57.543	-53.426	57.568	-54.015	-8191	255	
18014.904	1	1	0	0	0.07514	0.29655	0.23712	0.032702	0.32416	0.32696	0.31228	0.25473	0.10921	0.062029	0.12157	0.13709	0.35987	0.19926	0.36875	0.053275	-2.4958	-2.4875	-2.9375	-2.6396	-2.9104	-2.8583	-2.8312	-3.1292	-2.8021	-2.6667	-3.2333	-3.0479	-3.0833	-3.1208	-2.6146	-3.2562	238.965	39.595	234.694	114.927	-4.388	23.687	232.348	270.161	42.816	223.432	223.104	239.367	196.645	254.674	114.228	233.899	0.00017258	0.00040829	0.00013091	1362.4	5.1744e-06	6.3769e-06	1366.1	366.54	2.4707e-06	3.6739e-06	421.53	139.35	121.8	41.981	2.5194e-06	51.923	0.00043982	0.00044072	0.0001252	1368.1	4.8894e-06	4.8521e-06	1373.4	371.32	4.9184e-06	4.9298e-06	424.94	142.17	124.01	42.864	4.8716e-06	52.591	250.558	24.896	-14.617	-66.838	105.122	126.622	-66.756	-62.068	120.270	51.158	-62.745	-58.040	-57.530	-53.433	133.753	-54.138	-8191	255	
18015.000	1	1	0	0	0.29587	0.098438	0.087309	0.20331	0.13708	0.20523	0.35832	0.12113	0.10459	0.099744	0.13286	0.167	0.073029	0.19626	0.18979	0.19012	-2.5062	-2.7167	-3.0729	-2.7417	-2.7042	-3.0417	-2.8542	-3.1708	-2.9021	-2.6437	-3.1646	-2.8917	-2.9771	-3.2208	-2.8333	-2.9521	69.663	-70.696	151.723	246.398	252.456	-10.724	191.052	192.190	158.986	154.420	253.611	260.755	35.932	250.128	212.952	170.907	0.00013519	0.0006364	0.00012198	1369.6	4.874e-06	5.154e-06	1362.3	367.43	4.1197e-06	2.7545e-06	420.96	138.73	121.59	42.097	3.355e-06	51.858	0.00043298	0.00044715	0.00012507	1371.4	4.9061e-06	4.8861e-06	1373.5	371.23	4.9579e-06	4.8403e-06	425.16	142.32	123.84	42.869	4.9331e-06	52.61	252.327	12.819	-5.870	-66.852	98.322	61.200	-66.669	-61.872	92.731	-1.072	-62.810	-58.125	-57.564	-53.125	66.325	-53.863	-8191	255	
18015.096	1	1	0	0	0.021705	0.1355	0.084883	0.047428	0.28224	0.1103	0.34549	0.0494	0.13612	0.049929	0.13092	0.052532	0.094982	0.15483	0.30726	0.27868	-2.4688	-2.4625	-3.1021	-3	-2.8604	-3.0125	-2.8417	-3.1771	-2.95	-2.7917	-3.2708	-2.8917	-2.9313	-3.2146	-2.6875	-2.9729	130.402	78.646	120.712	137.329	2.362	60.854	244.066	2.377	252.822	147.869	166.927	109.134	266.630	-58.059	-19.690	-26.885	0.00016594	0.00034339	0.00010345	1369.2	1.3953e-06	3.3442e-06	1363	367.34	3.2184e-06	3.4336e-06	421.68	139.77	121.35	42.149	3.0977e-06	51.5	0.00043485	0.00043504	0.00012319	1369.9	4.8838e-06	4.8297e-06	1370.3	371.39	4.8466e-06	4.876e-06	425.01	142.35	123.59	42.854	4.8242e-06	52.513	247.979	44.656	-11.294	-66.791	9.181	56.610	-66.722	-62.042	91.329	93.359	-62.820	-58.124	-57.583	-53.268	105.571	-53.993	-8191	255	
18015.191	1	1	0	0	0.077143	0.095663	0.090637	0.039245	0.059189	0.1343	0.17372	0.13773	0.19348	0.14837	0.16426	0.096724	0.13995	0.36771	0.19384	0.12141	-2.4917	-2.4292	-2.9417	-3.0396	-2.8083	-2.925	-2.9667	-3.0062	-2.9771	-2.7729	-2.9688	-2.9229	-2.7604	-3.1979	-2.625	-2.8875	79.339	-46.285	39.858	-55.823	90.180	92.283	191.988	114.227	160.511	93.208	207.815	255.246	177.899	201.591	217.262	-74.835	0.00018395	0.0003319	0.00017974	1364	2.6149e-06	3.2308e-06	1365.8	366.43	1.5298e-06	5.679e-06	420.6	139.47	121.63	41.966	4.6003e-06	51.83	0.00042628	0.00043574	0.00012286	1370.6	4.87e-06	4.7638e-06	1372.3	370.88	4.7795e-06	4.7955e-06	424.16	142.22	123.64	42.785	4.7879e-06	52.513	244.806	-19.447	-29.974	-66.667	146.520	24.701	-66.873	-62.261	57.829	79.977	-62.564	-57.988	-57.912	-53.588	92.046	-53.915	-8191	255	
18015.287	1	1	0	0	0.10827	0.11566	0.11051	0.44052	0.082313	0.24858	0.13866	0.26744	0.077068	0.2427	0.17332	0.030072	0.30455	0.29456	0.059102	0.12376	-2.5563	-2.5354	-2.9854	-2.8875	-2.8438	-3.25	-2.9146	-2.9792	-3.0312	-2.8521	-3.0625	-2.8146	-2.6208	-3.1042	-2.7146	-2.7979	77.748	62.902	72.083	-66.178	262.157	-72.425	248.642	223.681	119.492	170.576	194.457	-59.566	-74.883	257.289	-38.362	210.573	0.00018881	0.00054549	0.00010493	1368.7	3.5172e-06	2.4971e-06	1369.3	368.09	2.036e-06	6.1385e-06	420.76	139.8	121.34	42.052	1.3713e-06	51.679	0.00042717	0.00043398	0.00012344	1368.8	4.8445e-06	4.8125e-06	1373.4	372.17	4.8655e-06	4.869e-06	425.17	142.46	123.89	42.908	4.9085e-06	52.573	254.253	0.433	33.112	-66.885	67.716	74.099	-66.628	-62.042	82.370	82.137	-62.671	-57.950	-57.686	-53.341	58.763	-54.077	-8191	255	
18015.385	1	1	0	0	0.15861	0.032032	0.16055	0.15857	0.3329	0.19228	0.28415	0.077826	0.19555	0.23016	0.19895	0.20494	0.3151	0.28999	0.13215	0.13026	-2.7708	-2.6542	-2.9042	-2.9104	-2.4979	-2.8271	-2.9125	-2.9104	-3.0208	-2.6208	-2.9708	-3.0354	-2.7687	-3.1458	-2.7625	-2.8104	275.899	215.289	162.822	-78.760	206.576	161.667	-59.420	-29.490	194.874	265.792	-47.920	216.427	245.464	-72.967	143.527	255.232	0.00016292	0.00076754	0.00013282	1364.7	5.2447e-06	5.271e-06	1366.1	366.62	2.3364e-06	4.3098e-06	420.56	139.19	121.76	42.2	2.1101e-06	51.808	0.00043396	0.00044269	0.00012212	1369.9	4.8381e-06	4.8735e-06	1373.3	371.58	4.8468e-06	4.8835e-06	424.8	142.4	123.84	42.968	4.8815e-06	52.558	243.862	38.337	-4.519	-66.918	85.728	59.067	-66.631	-62.141	105.389	43.020	-62.466	-58.290	-57.639	-53.273	84.335	-53.862	-8191	255	
18015.506	1	1	0	0	0.023501	0.1541	0.14727	0.20276	0.1326	0.25289	0.12226	0.060139	0.17013	0.22235	0.12392	0.28126	0.043508	0.03325	0.15607	0.025493	-2.5708	-2.5625	-2.7729	-2.9375	-2.475	-3.0187	-2.8937	-2.7313	-3.1417	-2.7562	-3.0146	-2.9292	-2.8396	-2.9458	-2.8771	-2.6896	19.102	92.882	105.161	-6.099	116.077	27.118	204.789	-18.021	137.482	14.609	-19.542	259.739	213.736	-68.419	-3.120	94.187	0.0001857	0.00047339	0.00014436	1371.2	4.7436e-06	6.7783e-06	1367.4	366.72	2.8026e-06	4.887e-06	421.88	139.87	121.79	42.101	6.6314e-06	51.732	0.00042491	0.00043398	0.00012321	1371.7	4.8496e-06	4.9181e-06	1373.3	371.55	4.9076e-06	4.8231e-06	425.24	142.51	123.84	42.935	4.9209e-06	52.585	253.108	-4.072	18.787	-66.684	1.356	62.908	-66.779	-62.104	148.872	92.761	-62.638	-57.890	-57.731	-53.538	87.639	-54.022	-8191	255	
18015.602	1	1	0	0	0.18093	0.14542	0.27123	0.12857	0.081167	0.29573	0.19391	0.1185	0.28506	0.058029	0.13848	0.22691	0.26116	0.076811	0.25984	0.12706	-2.6229	-2.7479	-2.7896	-3.1146	-2.6833	-2.9021	-3.0542	-2.8083	-2.8896	-2.9292	-2.9167	-3.2854	-2.7021	-3.0604	-2.9917	-2.7458	106.458	4.474	95.135	235.792	158.615	31.321	257.215	2.676	166.060	80.163	152.383	220.873	273.774	-27.240	259.448	206.743	0.00015937	0.00056188	4.5849e-05	1363.7	3.4737e-06	4.7172e-06	1364.8	366.4	3.2896e-06	7.2358e-06	420.16	139.54	121.33	41.964	1.9282e-06	51.887	0.00044008	0.00044297	0.00012485	1369.3	4.8954e-06	4.8237e-06	1372.3	371.28	4.8892e-06	4.9165e-06	425.13	142.37	123.84	42.913	4.9217e-06	52.603	235.988	5.623	47.133	-67.061	88.192	92.435	-66.757	-62.180	95.687	85.544	-62.505	-58.138	-57.571	-53.254	145.885	-53.847	-8191	255	
18015.697	1	1	0	0	0.021464	0.15044	0.21066	0.063178	0.13193	0.40317	0.070662	0.24556	0.14501	0.0805	0.46528	0.29695	0.3851	0.11211	0.12663	0.096178	-2.6021	-2.9	-2.9667	-3.1937	-2.6833	-2.8563	-3.1604	-2.725	-3.0625	-2.9146	-2.7792	-3.2271	-2.8312	-2.9667	-3.0021	-2.8229	58.189	127.228	75.117	208.906	88.238	-58.593	207.459	205.611	48.981	100.824	250.703	256.824	-48.563	35.149	252.459	241.700	0.00017092	0.00052197	0.00020434	1367	6.5874e-06	3.6055e-06	1361.5	366.55	2.1295e-06	1.9254e-06	420.69	139.74	121.57	42.071	4.6336e-06	51.946	0.00043267	0.00044111	0.00012505	1371.3	4.8892e-06	4.874e-06	1372.7	371.25	4.8438e-06	4.9322e-06	424.64	142.54	123.97	42.917	4.8401e-06	52.674	254.826	22.133	36.616	-66.733	111.989	138.520	-66.788	-62.020	196.891	40.639	-62.888	-58.074	-57.619	-53.469	81.032	-53.911	-8191	255	
18015.793	1	1	0	0	0.19291	0.16357	0.22151	0.10166	0.20055	0.14766	0.2593	0.021931	0.11105	0.11388	0.21754	0.23347	0.065639	0.088564	0.14405	0.12723	-2.7042	-2.9146	-2.6958	-3.1833	-2.6729	-2.8729	-3.1292	-2.8812	-2.9333	-2.7417	-2.8	-3.1667	-2.7687	-2.7979	-2.975	-2.7771	214.819	199.861	-12.455	216.793	55.058	-42.697	187.586	-79.036	104.130	67.849	171.475	-42.045	-40.503	50.082	-17.483	56.713	0.00017698	0.00081572	0.00013738	1366.4	7.3667e-06	4.6234e-06	1363.4	367.21	3.082e-06	4.4998e-06	423.64	139.71	122.01	42.179	4.4552e-06	51.724	0.00042449	0.00043856	0.00012252	1367.9	4.7924e-06	4.8224e-06	1373.6	370.95	4.8335e-06	4.7922e-06	425.52	142.68	123.83	42.958	4.71e-06	52.591	249.254	44.903	54.763	-67.244	79.837	92.162	-66.781	-62.179	57.649	90.380	-62.615	-58.105	-57.447	-53.249	62.163	-53.923	-8191	255	
18015.889	1	1	0	0	0.34212	0.04071	0.26669	0.15602	0.073426	0.060339	0.097766	0.23119	0.039426	0.21078	0.24655	0.20042	0.32136	0.088909	0.31221	0.35429	-2.5146	-2.8812	-2.6813	-3.0792	-2.975	-2.8646	-3.2646	-2.8542	-2.8375	-2.9313	-2.7917	-3.1146	-2.8688	-2.7146	-3.0083	-2.7938	238.495	175.348	166.312	-57.313	-20.960	78.196	-28.433	272.121	274.325	50.026	62.435	-66.303	268.737	21.259	36.419	231.835	0.00017883	0.00073453	8.9514e-05	1366.5	2.712e-06	4.0662e-06	1366.4	365.4	1.6794e-06	1.0022e-06	421.37	139.96	121.33	42.025	2.2511e-06	51.944	0.00043191	0.00043169	0.00012064	1367.9	4.6952e-06	4.7797e-06	1373.4	370.92	4.7859e-06	4.708e-06	424.4	142.59	123.69	42.868	4.656e-06	52.638	242.715	5.994	-15.134	-66.663	72.777	65.834	-66.728	-61.871	55.960	67.674	-62.386	-58.113	-57.398	-53.458	64.500	-54.180	-8191	255	
#DATA ENDS
