BOXY.EXE: ISS Imagent and Oximeter Data Acquisition Program Version 0.80
Ascii Record File

#ACQ INFORMATION
2  Detector Channels 
16  External MUX Channels 
1  Auxiliary Channels 
5000  Waveform (CCF) Frequency (Hz)
1  Waveforms Skipped 
30  Waveforms Averaged 
1  Cycles Averaged 
16  Acquisitions per Waveform 
10.0806  Updata Rate (Hz) 

#FILE INFORMATION
TRUE -- External MUX Channel results are PARSED.
FALSE -- AC DC and Phase are NOT grouped.
TRUE -- Companion Program Settings File CREATED.
FALSE -- AC data not excluded
FALSE -- DC data not excluded
FALSE -- Phase data not excluded
FALSE -- Auxillary Chn. data not excluded
Tab delimiters

#CALIBRATION STATE
TRUE -- Waveform Calibration Values APPLIED.


#AUX CALIBRATION VALUES
Val Type	aux-1	

Term	1.0000e+00	
Factor	0.0000e+00	


#WF CALIBRATION VALUES
A = Detector Channel
Val Type	A-AC1	A-AC2	A-AC3	A-AC4	A-AC5	A-AC6	A-AC7	A-AC8	A-AC9	A-AC10	A-AC11	A-AC12	A-AC13	A-AC14	A-AC15	A-AC16	A-DC1	A-DC2	A-DC3	A-DC4	A-DC5	A-DC6	A-DC7	A-DC8	A-DC9	A-DC10	A-DC11	A-DC12	A-DC13	A-DC14	A-DC15	A-DC16	A-Ph1	A-Ph2	A-Ph3	A-Ph4	A-Ph5	A-Ph6	A-Ph7	A-Ph8	A-Ph9	A-Ph10	A-Ph11	A-Ph12	A-Ph13	A-Ph14	A-Ph15	A-Ph16	

Term	0.00000e+00	0.00000e+00	0.00000e+00	0.00000e+00	0.00000e+00	0.00000e+00	0.00000e+00	0.00000e+00	0.00000e+00	0.00000e+00	0.00000e+00	0.00000e+00	0.00000e+00	0.00000e+00	0.00000e+00	0.00000e+00	0.00000e+00	0.00000e+00	0.00000e+00	0.00000e+00	0.00000e+00	0.00000e+00	0.00000e+00	0.00000e+00	0.00000e+00	0.00000e+00	0.00000e+00	0.00000e+00	0.00000e+00	0.00000e+00	0.00000e+00	0.00000e+00	0.00000e+00	0.00000e+00	0.00000e+00	0.00000e+00	0.00000e+00	0.00000e+00	0.00000e+00	0.00000e+00	0.00000e+00	0.00000e+00	0.00000e+00	0.00000e+00	0.00000e+00	0.00000e+00	0.00000e+00	0.00000e+00	
Factor	1.00000e+00	1.00000e+00	1.00000e+00	1.00000e+00	1.00000e+00	1.00000e+00	1.00000e+00	1.00000e+00	1.00000e+00	1.00000e+00	1.00000e+00	1.00000e+00	1.00000e+00	1.00000e+00	1.00000e+00	1.00000e+00	1.00000e+00	1.00000e+00	1.00000e+00	1.00000e+00	1.00000e+00	1.00000e+00	1.00000e+00	1.00000e+00	1.00000e+00	1.00000e+00	1.00000e+00	1.00000e+00	1.00000e+00	1.00000e+00	1.00000e+00	1.00000e+00	X	X	X	X	X	X	X	X	X	X	X	X	X	X	X	X	

B = Detector Channel
Val Type	B-AC1	B-AC2	B-AC3	B-AC4	B-AC5	B-AC6	B-AC7	B-AC8	B-AC9	B-AC10	B-AC11	B-AC12	B-AC13	B-AC14	B-AC15	B-AC16	B-DC1	B-DC2	B-DC3	B-DC4	B-DC5	B-DC6	B-DC7	B-DC8	B-DC9	B-DC10	B-DC11	B-DC12	B-DC13	B-DC14	B-DC15	B-DC16	B-Ph1	B-Ph2	B-Ph3	B-Ph4	B-Ph5	B-Ph6	B-Ph7	B-Ph8	B-Ph9	B-Ph10	B-Ph11	B-Ph12	B-Ph13	B-Ph14	B-Ph15	B-Ph16	

Term	0.00000e+00	0.00000e+00	0.00000e+00	0.00000e+00	0.00000e+00	0.00000e+00	0.00000e+00	0.00000e+00	0.00000e+00	0.00000e+00	0.00000e+00	0.00000e+00	0.00000e+00	0.00000e+00	0.00000e+00	0.00000e+00	0.00000e+00	0.00000e+00	0.00000e+00	0.00000e+00	0.00000e+00	0.00000e+00	0.00000e+00	0.00000e+00	0.00000e+00	0.00000e+00	0.00000e+00	0.00000e+00	0.00000e+00	0.00000e+00	0.00000e+00	0.00000e+00	-6.15763e+01	-1.30411e+02	-1.24549e+02	-1.82143e+02	-5.62854e+01	-6.13144e+01	-1.55749e+02	-1.62015e+02	-4.36545e+01	-5.84641e+01	-1.71172e+02	-1.71176e+02	-1.81653e+02	-1.77264e+02	-5.75505e+01	-1.50260e+02	
Factor	1.84335e-05	1.52056e-04	4.43642e-05	4.71444e-01	1.63633e-06	1.83727e-06	1.70005e-01	5.70259e-02	1.24874e-06	1.86029e-06	9.06459e-02	2.89522e-02	2.44098e-02	8.74298e-03	1.46882e-06	1.28138e-02	7.07437e-06	9.43660e-06	2.63415e-06	2.38107e-01	1.02249e-07	1.04931e-07	8.15064e-02	2.91262e-02	9.98385e-08	1.04856e-07	4.47650e-02	1.44068e-02	1.26248e-02	4.50497e-03	1.02288e-07	6.38331e-03	X	X	X	X	X	X	X	X	X	X	X	X	X	X	X	X	



#DISTANCE SETTINGS
A = Detector Channel
A-1	A-2	A-3	A-4	A-5	A-6	A-7	A-8	A-9	A-10	A-11	A-12	A-13	A-14	A-15	A-16	

2.5000e+00	3.0000e+00	2.5000e+00	3.0000e+00	2.0000e+00	3.0000e+00	1.5000e+00	3.0000e+00	3.0000e+00	3.0000e+00	3.0000e+00	3.0000e+00	3.0000e+00	3.0000e+00	1.5000e+00	3.0000e+00	

B = Detector Channel
B-1	B-2	B-3	B-4	B-5	B-6	B-7	B-8	B-9	B-10	B-11	B-12	B-13	B-14	B-15	B-16	

1.0000e+01	1.0000e+01	1.0000e+01	1.4400e+00	1.0000e+01	1.0000e+01	1.5100e+00	1.9400e+00	1.0000e+01	1.0000e+01	1.9900e+00	2.4900e+00	2.4100e+00	2.9000e+00	1.0000e+01	2.9800e+00	




#DATA BEGINS
time	group	step	mark	flag	A-AC1	A-AC2	A-AC3	A-AC4	A-AC5	A-AC6	A-AC7	A-AC8	A-AC9	A-AC10	A-AC11	A-AC12	A-AC13	A-AC14	A-AC15	A-AC16	A-DC1	A-DC2	A-DC3	A-DC4	A-DC5	A-DC6	A-DC7	A-DC8	A-DC9	A-DC10	A-DC11	A-DC12	A-DC13	A-DC14	A-DC15	A-DC16	A-Ph1	A-Ph2	A-Ph3	A-Ph4	A-Ph5	A-Ph6	A-Ph7	A-Ph8	A-Ph9	A-Ph10	A-Ph11	A-Ph12	A-Ph13	A-Ph14	A-Ph15	A-Ph16	B-AC1	B-AC2	B-AC3	B-AC4	B-AC5	B-AC6	B-AC7	B-AC8	B-AC9	B-AC10	B-AC11	B-AC12	B-AC13	B-AC14	B-AC15	B-AC16	B-DC1	B-DC2	B-DC3	B-DC4	B-DC5	B-DC6	B-DC7	B-DC8	B-DC9	B-DC10	B-DC11	B-DC12	B-DC13	B-DC14	B-DC15	B-DC16	B-Ph1	B-Ph2	B-Ph3	B-Ph4	B-Ph5	B-Ph6	B-Ph7	B-Ph8	B-Ph9	B-Ph10	B-Ph11	B-Ph12	B-Ph13	B-Ph14	B-Ph15	B-Ph16	aux-1	digaux	

18892.230	1	1	0	256	0.19084	0.20302	0.27151	0.13105	0.21905	0.085698	0.099109	0.27011	0.06121	0.083338	0.10906	0.066384	0.088064	0.16795	0.14361	0.16217	-2.6271	-2.7583	-2.7646	-2.6854	-2.4542	-2.8104	-2.7792	-2.7125	-2.9604	-2.7687	-2.9229	-2.9708	-2.5771	-3.1292	-2.9125	-2.6562	485.874	500.885	345.980	385.741	254.358	489.890	449.504	158.052	393.056	204.532	454.466	471.483	272.951	180.664	243.498	352.007	0.00017929	0.0001499	2.8221e-05	128.75	1.6178e-06	1.2389e-06	305.58	35.797	1.5861e-06	1.4678e-06	106.45	39.657	10.934	3.4477	1.5488e-06	16.275	9.4649e-05	5.9333e-05	1.5262e-05	108.03	6.5248e-07	1.126e-06	255.1	29.678	6.0278e-07	6.9379e-07	89.631	33.543	9.1355	2.9604	6.5187e-07	13.923	254.308	215.522	264.030	158.973	272.636	282.923	157.911	164.079	297.691	314.349	163.305	167.926	167.157	172.145	348.671	171.912	-8191	255	
18892.326	1	1	0	0	0.14128	0.16304	0.28042	0.20255	0.15887	0.2231	0.4319	0.10792	0.15578	0.14161	0.2531	0.23165	0.31084	0.12197	0.29167	0.049869	-2.5208	-2.7104	-2.7562	-2.9167	-2.6771	-3.0687	-2.8375	-2.6479	-3.0542	-2.8146	-2.8583	-2.9625	-2.7542	-2.8688	-2.8125	-2.5792	251.472	399.600	355.291	450.567	488.707	498.690	440.543	440.657	203.784	183.687	456.226	258.589	297.956	287.369	496.503	252.190	0.00015066	0.00016664	4.8493e-05	128.38	1.1792e-06	4.7218e-06	307.4	35.553	7.9611e-07	2.7758e-06	106.48	39.846	10.964	3.4964	2.8067e-07	16.632	0.00012053	5.5243e-05	1.5766e-05	110.28	7.2448e-07	8.1977e-07	257.71	29.925	6.2212e-07	6.5142e-07	90.203	33.867	9.2728	2.987	6.4143e-07	14.165	255.252	222.228	203.302	158.673	277.993	352.448	157.403	163.738	283.947	350.208	162.567	168.024	167.609	172.892	212.400	172.182	-8191	255	
18892.424	1	1	0	0	0.18212	0.13413	0.03482	0.22629	0.18575	0.18317	0.2258	0.16585	0.068696	0.29463	0.15804	0.14742	0.15266	0.18546	0.17014	0.051306	-2.5604	-2.6813	-2.7271	-2.9125	-2.5104	-3.1	-2.8875	-2.6021	-2.8417	-2.6729	-2.7646	-3.0083	-2.6375	-2.8271	-2.9062	-2.6625	500.232	445.829	314.477	285.144	256.536	310.600	387.646	395.388	331.678	340.324	250.508	416.117	461.771	174.732	454.906	326.109	0.00014474	0.00015209	9.0915e-05	133.97	1.942e-06	3.1497e-06	310.1	35.335	1.1381e-06	1.8828e-06	108.34	40.011	11.156	3.6211	1.9627e-06	16.513	0.00010122	6.0984e-05	1.7808e-05	111.34	6.7143e-07	1.1407e-06	261.49	29.995	6.4687e-07	7.5518e-07	91.301	34.279	9.3965	3.0382	6.442e-07	14.046	258.921	209.543	275.489	158.204	393.858	287.477	158.344	164.292	327.811	272.905	162.702	168.107	167.808	172.427	235.026	172.153	-8191	255	
18892.543	1	1	0	0	0.21088	0.073546	0.19894	0.18148	0.18623	0.29976	0.17722	0.10359	0.17797	0.10528	0.33435	0.1893	0.14478	0.14453	0.06989	0.068612	-2.4	-2.6583	-2.65	-3.0604	-2.7521	-2.7208	-2.8021	-2.6979	-2.9896	-2.9729	-2.7042	-2.9562	-2.6312	-2.7542	-3.0021	-2.7562	490.322	315.498	390.752	416.121	291.890	446.396	418.884	393.207	204.769	241.319	256.592	187.464	262.372	337.693	192.026	398.521	0.00014297	0.0002095	2.5196e-05	129.6	1.5279e-06	6.2836e-07	305.48	35.46	1.0205e-06	1.1835e-06	103.22	39.334	10.751	3.4786	1.0316e-06	16.224	0.000128	6.4051e-05	1.7034e-05	108.99	6.1243e-07	8.5475e-07	256.56	29.498	6.3148e-07	5.8632e-07	87.999	33.408	9.1353	2.9285	5.9966e-07	13.857	253.052	234.978	234.837	159.236	234.857	358.576	158.624	165.210	380.372	235.714	162.630	168.386	167.850	172.965	315.309	172.103	-8191	255	
18892.639	1	1	0	0	0.057136	0.21311	0.14162	0.12205	0.24667	0.25958	0.37628	0.23392	0.025983	0.37341	0.14313	0.13002	0.074895	0.050535	0.40182	0.17905	-2.5438	-2.75	-2.8479	-2.9479	-2.7354	-2.6979	-2.8354	-2.4854	-2.9188	-2.7417	-2.6792	-2.8458	-2.5396	-2.7062	-2.9271	-2.5	269.829	189.393	323.707	425.863	346.933	478.754	410.796	447.012	409.412	193.530	340.820	147.571	265.504	440.407	405.914	153.720	0.00017335	9.5235e-05	4.6496e-05	132.76	1.5728e-06	4.0554e-06	312.89	36.695	7.3454e-07	1.1678e-06	109.06	41.039	11.446	3.6878	2.1813e-06	17.646	0.00010334	5.7229e-05	1.6941e-05	110.03	6.7293e-07	1.1899e-06	262.6	30.612	6.6954e-07	7.6064e-07	92.233	35.033	9.7534	3.1608	6.4292e-07	15.013	258.252	342.420	146.699	157.983	405.455	304.494	158.703	164.078	305.119	422.262	162.087	167.555	168.133	172.910	303.703	171.361	-8191	255	
18892.734	1	1	0	0	0.027475	0.053312	0.36163	0.33667	0.19041	0.077278	0.19984	0.15018	0.19301	0.078411	0.2378	0.14868	0.18525	0.22649	0.13286	0.25061	-2.2792	-2.7521	-2.4521	-2.8292	-2.8375	-2.6271	-2.9437	-2.6688	-3.0021	-2.7917	-2.6521	-2.8375	-2.8729	-2.6542	-2.9938	-2.85	310.160	174.726	165.977	306.091	382.441	429.822	348.914	378.601	497.277	215.862	297.166	406.899	197.532	357.763	393.951	190.850	0.00018592	0.0002416	6.0994e-05	136.27	2.6255e-06	1.3392e-06	327.65	38.87	1.6838e-06	5.5418e-07	115.96	44.575	12.762	4.1289	1.4442e-06	19.192	0.00012872	5.8959e-05	1.6831e-05	115.69	7.0296e-07	7.8982e-07	275.7	32.759	8.1285e-07	6.7938e-07	97.943	38.047	10.721	3.5079	9.1739e-07	16.362	264.954	193.210	263.211	159.846	381.134	319.773	158.564	163.259	354.519	249.106	162.031	168.143	167.572	172.104	409.256	171.576	-8191	255	
18892.830	1	1	0	0	0.049694	0.07214	0.076105	0.16261	0.12179	0.24016	0.11107	0.094969	0.13122	0.1826	0.13435	0.12774	0.063879	0.27847	0.12568	0.21946	-2.3688	-2.7167	-2.5729	-2.9167	-2.6854	-2.5854	-3.0458	-2.5917	-2.6271	-3.0833	-2.7062	-2.9292	-2.7938	-2.55	-2.8625	-2.725	320.727	373.076	416.149	347.213	494.998	146.597	397.656	216.160	235.271	201.158	496.846	447.791	298.048	413.471	283.679	333.879	0.00019336	0.00021471	3.2218e-05	150.74	2.6149e-06	2.027e-06	344.29	41.498	2.342e-06	1.1011e-06	117.13	45.785	12.953	4.3384	1.0243e-06	19.436	0.00012368	7.7439e-05	2.0475e-05	124.42	8.4845e-07	9.2536e-07	290.23	34.791	8.6506e-07	9.8084e-07	99.78	38.945	10.942	3.7064	1.0154e-06	16.557	252.584	305.355	208.926	157.599	274.106	304.099	158.037	164.497	284.299	285.890	163.075	167.807	168.324	172.638	353.862	171.269	-8191	255	
18892.928	1	1	0	0	0.12904	0.29454	0.090558	0.22668	0.14239	0.12624	0.026919	0.25425	0.16411	0.16872	0.081109	0.069592	0.14225	0.058493	0.1503	0.11002	-2.4354	-2.6937	-2.4958	-2.85	-2.7021	-2.6396	-2.7896	-2.6125	-2.8229	-3.0062	-2.6937	-3.0042	-2.8771	-2.675	-2.9333	-2.8167	218.092	320.912	502.405	208.114	316.538	303.593	369.874	459.645	386.715	274.850	183.490	188.367	260.528	395.910	485.660	322.914	0.00020749	3.0175e-05	3.653e-05	145.6	1.8431e-06	1.4475e-06	331.35	40.147	6.9679e-07	3.6729e-06	113.73	43.554	12.505	4.2225	3.0365e-06	18.387	0.00016079	9.1161e-05	2.7077e-05	123.32	1.0259e-06	1.1409e-06	278.46	33.704	9.5658e-07	1.0973e-06	96.549	37.348	10.565	3.5784	9.7131e-07	15.795	251.943	197.871	233.530	158.761	401.522	356.206	157.977	164.507	320.590	302.574	162.505	167.802	168.028	172.764	275.185	171.817	-8191	255	
18893.023	1	1	0	0	0.027091	0.0172	0.033577	0.28443	0.11227	0.15851	0.066949	0.11499	0.11326	0.088772	0.13137	0.10039	0.095008	0.14784	0.040502	0.39639	-2.3958	-2.775	-2.6792	-2.8417	-2.8937	-2.6292	-2.8292	-2.7396	-2.5583	-2.8292	-2.7396	-2.6396	-2.8937	-2.4437	-2.9271	-2.8771	413.200	236.497	192.632	444.003	197.134	237.658	453.697	150.192	434.525	496.818	410.195	387.857	370.528	198.808	395.253	497.159	0.00016845	6.9436e-05	5.9454e-05	133.9	8.5788e-07	1.5773e-06	307.87	38.319	2.5394e-06	3.2177e-06	110.93	42.338	12.035	4.0527	8.5763e-07	18.142	0.00012388	9.7688e-05	2.5634e-05	113.13	9.948e-07	9.1421e-07	260.93	31.893	9.2247e-07	9.1006e-07	92.999	36.086	10.151	3.5012	9.8004e-07	15.575	257.306	504.917	242.947	159.372	335.968	257.728	159.025	163.479	343.404	352.527	163.041	168.122	167.123	171.863	316.717	170.801	-8191	255	
18893.119	1	1	0	0	0.10172	0.031723	0.06802	0.17035	0.15386	0.088172	0.15429	0.17363	0.19857	0.13681	0.10956	0.098877	0.16544	0.15334	0.2043	0.16482	-2.2167	-2.8333	-2.6708	-2.6375	-2.8542	-2.6958	-2.75	-2.7333	-2.6771	-2.9958	-2.7354	-2.6896	-2.8521	-2.5667	-2.8833	-2.6708	391.501	371.123	465.021	187.777	463.807	452.945	476.465	488.373	433.052	469.733	161.673	405.780	347.768	299.477	165.045	473.988	0.00018366	0.00016062	4.079e-05	124.56	3.1359e-06	2.239e-06	295.98	36.007	1.1094e-06	1.3711e-06	106.7	41.022	11.631	3.9647	1.1342e-06	17.728	0.00011169	0.00011709	1.8681e-05	105.9	7.2277e-07	8.119e-07	249.05	30.234	6.8639e-07	6.9554e-07	89.582	35.206	9.8344	3.381	7.4968e-07	15.136	261.842	456.432	224.801	159.077	253.446	294.405	158.583	163.119	341.084	368.314	162.805	167.594	167.668	172.070	291.382	172.286	-8191	255	
18893.240	1	1	0	0	0.27295	0.26513	0.097447	0.13762	0.16386	0.14911	0.21424	0.030442	0.33484	0.11324	0.28932	0.21596	0.16922	0.070347	0.07717	0.14526	-2.1271	-2.9313	-2.75	-2.6854	-2.9625	-2.6896	-2.9771	-2.8771	-2.6229	-2.8792	-2.6437	-2.7229	-2.9104	-2.6021	-2.8917	-2.9208	213.421	472.962	423.109	156.645	441.903	338.455	408.862	431.962	183.870	480.578	409.202	436.643	460.330	453.696	212.045	367.938	0.00015398	0.00013703	4.7814e-05	121.34	1.9343e-06	2.3607e-06	298.72	35.778	1.6707e-06	2.1796e-06	105.41	41.938	11.501	3.8463	8.6953e-07	17.796	9.0007e-05	7.2603e-05	1.7435e-05	103.82	7.1617e-07	7.144e-07	251.46	30.177	6.7308e-07	6.3787e-07	89.725	35.291	9.7519	3.3186	7.2795e-07	15.136	265.933	264.425	286.800	158.779	264.756	307.275	158.285	164.568	312.931	327.640	162.086	167.146	168.880	172.558	266.923	172.165	-8191	255	
18893.334	1	1	0	0	0.27397	0.14947	0.10596	0.021755	0.24306	0.089064	0.041155	0.25461	0.092737	0.12171	0.10073	0.18691	0.14662	0.17434	0.16785	0.032605	-2.1437	-2.7708	-2.7896	-2.5271	-2.8583	-2.7333	-2.8146	-2.7396	-2.5521	-2.9646	-2.7896	-2.5542	-2.8417	-2.7042	-2.8312	-2.8625	152.484	231.151	471.591	181.293	348.900	175.371	171.613	319.619	458.794	275.326	294.055	186.757	164.202	257.502	385.171	433.579	0.00018769	7.5793e-05	2.9764e-05	133.39	1.4282e-06	1.7113e-06	305.77	35.943	1.5412e-06	1.7554e-06	106.99	40.715	11.416	3.9008	1.2678e-06	17.323	0.00010138	0.00010042	1.7199e-05	111.68	6.1754e-07	6.5953e-07	258.29	30.695	6.5727e-07	7.1127e-07	89.588	34.864	9.6981	3.298	7.1516e-07	14.912	257.562	168.401	197.839	158.996	286.807	310.936	158.445	163.203	277.122	265.237	162.294	168.279	167.386	172.472	309.079	171.769	-8191	255	
18893.432	1	1	0	0	0.20159	0.20371	0.1202	0.079208	0.15624	0.30436	0.037877	0.19468	0.20818	0.20405	0.26922	0.17127	0.11675	0.10199	0.38205	0.23941	-2.3625	-2.8625	-2.6104	-2.6021	-2.9521	-2.5125	-2.6146	-2.8833	-2.5979	-3.0021	-2.9208	-2.6917	-2.7521	-2.6958	-2.6667	-2.8333	243.101	481.154	296.327	244.618	224.209	299.374	273.202	171.790	357.672	303.575	262.867	249.944	385.017	470.446	264.439	173.138	0.00017624	8.7646e-05	4.1563e-05	140.45	6.549e-07	1.0151e-06	326.4	38.24	1.9984e-06	7.288e-07	109.48	42.314	11.647	3.8665	1.7052e-06	17.989	9.0729e-05	6.8317e-05	1.5558e-05	119.62	6.5737e-07	7.1921e-07	276.22	32.011	6.3626e-07	5.92e-07	92.676	36.059	9.8728	3.3448	6.7723e-07	15.27	250.928	238.668	148.070	158.001	336.184	292.512	158.519	163.683	298.204	297.271	162.453	168.188	167.834	172.429	341.018	171.592	-8191	255	
18893.525	1	1	0	0	0.0053677	0.26389	0.22508	0.23942	0.17106	0.065042	0.085942	0.1337	0.22067	0.24057	0.10057	0.24591	0.13136	0.2418	0.10668	0.072827	-2.1083	-2.8167	-2.7188	-2.7104	-2.8896	-2.6958	-2.5708	-2.8292	-2.6229	-2.8271	-3.0521	-2.5979	-3.0438	-2.6729	-2.7562	-2.9396	416.833	244.098	377.621	289.708	373.271	351.574	419.887	405.169	266.794	420.429	482.298	452.768	353.924	416.037	449.918	311.427	0.00017975	0.00016253	2.2346e-05	146.49	1.1994e-06	1.7027e-06	336.17	38.223	1.6991e-06	1.0135e-06	108.62	41.807	11.518	3.9934	5.4219e-07	17.904	9.2718e-05	0.00010449	1.5135e-05	121.27	6.6866e-07	5.5307e-07	281.35	32.355	6.1879e-07	6.4137e-07	92.191	35.883	9.9088	3.3355	5.7622e-07	15.232	260.327	191.783	241.957	159.692	343.333	382.704	158.302	164.269	311.240	183.508	162.967	168.519	167.246	173.398	389.065	171.871	-8191	255	
18893.623	1	1	0	0	0.17259	0.094011	0.13373	0.029201	0.037048	0.18353	0.116	0.039154	0.096862	0.10783	0.20056	0.18642	0.15066	0.10927	0.11916	0.14041	-2.1875	-2.7521	-2.8396	-2.4521	-3.0104	-2.7458	-2.6854	-2.9437	-2.5229	-2.7167	-2.9167	-2.5375	-2.8333	-2.6042	-2.8146	-2.9	445.333	404.541	444.807	304.053	239.988	334.350	411.014	275.079	315.855	288.212	211.779	461.874	189.086	154.805	311.699	156.750	0.00020282	4.986e-05	6.0372e-05	147.06	2.6927e-06	6.9625e-07	333.13	37.916	4.6829e-07	1.0208e-06	107.71	41.495	11.514	3.7876	1.221e-06	17.36	9.7951e-05	6.6823e-05	1.3637e-05	122.87	5.6833e-07	5.1241e-07	281.93	32.281	6.4916e-07	5.9549e-07	91.717	35.219	9.6759	3.2223	5.8453e-07	14.858	258.042	230.607	180.794	156.544	310.128	161.998	158.628	162.551	338.905	357.452	163.038	168.302	168.470	172.518	350.783	171.768	-8191	255	
18893.719	1	1	0	0	0.33474	0.23084	0.041247	0.098709	0.30637	0.20462	0.14383	0.10788	0.26891	0.15228	0.26651	0.13342	0.097418	0.11776	0.21155	0.013522	-2.3438	-2.7375	-3.0229	-2.5333	-2.9646	-2.8812	-2.5979	-2.8417	-2.7917	-2.6333	-2.8354	-2.5479	-2.7354	-2.825	-2.5729	-2.9833	332.214	294.050	366.123	353.241	194.874	392.817	503.723	446.827	245.809	498.287	470.498	287.232	217.074	153.553	193.203	329.670	0.00017028	4.29e-05	6.2229e-05	145.81	1.945e-06	1.7712e-06	328.66	37.204	1.8072e-06	1.6542e-06	105.92	41.131	11.206	3.8471	8.7278e-07	17.672	8.5084e-05	9.3186e-05	1.3253e-05	121.57	5.515e-07	5.7515e-07	277.43	31.624	6.1671e-07	6.2083e-07	89.91	34.945	9.6155	3.2426	6.2225e-07	15.001	259.201	236.092	318.096	158.253	303.363	268.748	157.972	163.621	330.455	170.904	162.779	168.219	168.372	171.838	248.065	171.709	-8191	255	
18893.840	1	1	0	0	0.24906	0.12023	0.17345	0.07354	0.20296	0.019128	0.12072	0.17961	0.16794	0.11109	0.21766	0.1315	0.13849	0.21624	0.1425	0.12793	-2.2083	-2.5625	-2.9979	-2.4917	-2.7792	-2.9896	-2.5812	-2.9688	-2.6792	-2.55	-2.8229	-2.6333	-2.6688	-2.8646	-2.5583	-2.8229	429.195	396.780	251.500	483.337	401.079	220.286	146.687	227.299	201.581	449.256	164.109	397.132	275.923	378.950	256.861	215.932	0.00020029	9.6379e-05	8.3507e-06	147.41	3.38e-07	1.3749e-06	331.55	39.025	6.6557e-07	1.2939e-06	110.44	42.764	11.867	4.0358	7.349e-07	18.302	9.9218e-05	5.5873e-05	1.7923e-05	122.33	7.2746e-07	6.075e-07	279.19	32.863	6.9513e-07	7.5867e-07	93.085	36.249	10.063	3.4229	8.0317e-07	15.568	258.204	214.454	290.466	158.043	249.881	269.124	157.377	163.264	164.434	277.597	162.974	168.100	167.642	172.045	299.333	171.856	-8191	255	
18893.936	1	1	0	0	0.1303	0.11369	0.28195	0.13598	0.22344	0.060683	0.029856	0.057185	0.28389	0.21457	0.018834	0.2141	0.021978	0.10686	0.12435	0.053355	-2.1479	-2.6271	-2.9771	-2.5292	-2.6917	-3.1396	-2.4583	-2.9229	-2.8187	-2.6208	-2.8792	-2.5146	-2.7833	-2.9625	-2.6833	-2.7583	423.933	400.437	211.339	402.945	178.591	363.932	341.704	369.038	274.317	290.127	268.043	407.953	490.568	388.132	251.171	395.400	0.00017327	0.0001922	3.3016e-05	142.86	1.9754e-06	1.4426e-06	336.27	39.103	8.613e-07	2.5553e-06	110.52	42.595	12.057	3.9587	6.1133e-07	18.121	9.5298e-05	6.8612e-05	2.9299e-05	123.62	6.4417e-07	7.1156e-07	282.77	32.841	6.7953e-07	6.9183e-07	93.527	36.349	10.178	3.4219	6.2715e-07	15.522	259.762	212.162	230.019	157.799	255.636	330.782	158.350	163.398	310.720	363.199	162.905	168.302	167.491	171.751	251.993	172.528	-8191	255	
18894.031	1	1	0	0	0.21305	0.18115	0.25209	0.074214	0.10822	0.20286	0.094959	0.1669	0.19593	0.042183	0.062148	0.10375	0.33251	0.16479	0.23213	0.18656	-2.4417	-2.7854	-2.8167	-2.6167	-2.5625	-3.0312	-2.5396	-2.775	-2.6813	-2.6333	-2.8917	-2.6688	-2.6458	-2.8417	-2.7	-2.7583	340.495	170.703	184.992	453.059	330.180	370.294	261.334	490.386	436.448	313.044	435.758	436.899	385.350	337.614	147.747	161.727	0.00016863	8.8915e-05	4.4344e-05	150.28	2.0447e-06	1.4214e-06	340.94	39.987	1.321e-06	1.8626e-06	111.79	42.717	12.488	4.0171	5.8343e-07	18.159	9.5445e-05	5.7662e-05	1.8346e-05	122.75	6.2244e-07	6.0138e-07	285.64	33.527	7.1135e-07	6.3722e-07	94.118	36.38	10.273	3.3979	5.8943e-07	15.517	255.705	261.472	177.485	159.202	303.023	246.931	158.149	163.372	258.143	301.168	162.960	168.797	168.674	173.648	313.607	171.918	-8191	255	
18894.129	1	1	0	0	0.11178	0.055141	0.11462	0.2064	0.087184	0.13366	0.098428	0.15401	0.088911	0.13552	0.12438	0.076031	0.17184	0.088376	0.11255	0.10922	-2.3917	-2.4833	-2.8937	-2.7521	-2.575	-2.8104	-2.6	-2.625	-2.8688	-2.5938	-2.8563	-2.6833	-2.5646	-2.8854	-2.6771	-2.6604	402.702	453.041	369.110	504.078	283.969	242.176	309.921	146.145	164.531	372.832	438.129	160.144	311.351	199.883	318.613	470.842	0.00018585	0.00024796	4.5613e-05	149.94	8.1124e-07	2.419e-06	333.13	38.762	2.8702e-07	6.2664e-07	109.41	41.684	11.756	3.9607	1.7123e-06	17.815	9.9719e-05	6.4916e-05	2.863e-05	124.53	6.9316e-07	6.1384e-07	281.35	32.842	6.1297e-07	6.1734e-07	92.543	35.826	9.9331	3.3826	6.5166e-07	15.32	252.019	236.132	219.203	158.627	321.886	302.610	158.371	164.093	208.156	357.428	163.022	168.059	167.623	172.794	216.618	172.340	-8191	255	
18894.225	1	1	0	0	0.36311	0.28315	0.063106	0.19348	0.011026	0.18383	0.1065	0.28431	0.1037	0.11046	0.10181	0.071359	0.10283	0.10731	0.056927	0.080267	-2.5792	-2.5604	-2.6125	-2.6	-2.4896	-2.975	-2.6021	-2.6979	-2.9104	-2.575	-2.7979	-2.7313	-2.5417	-2.9958	-2.5292	-2.6771	229.281	294.636	426.515	244.000	495.951	255.457	407.949	436.817	163.214	485.588	195.915	198.219	273.914	367.026	338.338	276.547	0.00015051	6.2471e-05	6.8645e-05	145.78	3.4331e-06	2.3366e-06	334.49	38.753	8.8318e-07	2.3711e-06	108.03	41.327	11.632	3.8802	1.5697e-06	17.743	8.9152e-05	5.6659e-05	2.0393e-05	123.36	6.5951e-07	5.6356e-07	281.26	32.766	5.6762e-07	6.2848e-07	91.512	35.516	9.7824	3.318	5.3317e-07	15.183	254.396	236.527	234.935	158.183	356.244	299.432	157.804	164.417	189.976	367.348	162.664	167.975	167.579	172.550	304.541	172.184	-8191	255	
18894.320	1	1	0	0	0.1037	0.030939	0.20853	0.14253	0.27128	0.15755	0.098321	0.27941	0.10185	0.1715	0.10963	0.16957	0.18419	0.16601	0.10841	0.13157	-2.4437	-2.6063	-2.7667	-2.8187	-2.3708	-2.8229	-2.5167	-2.6625	-2.9792	-2.6542	-2.7854	-2.8667	-2.4667	-2.8521	-2.6312	-2.4458	185.781	251.068	493.673	262.668	377.415	284.056	464.475	259.823	378.381	504.255	279.656	292.451	484.149	416.221	330.135	469.333	0.00017747	0.00026256	2.5795e-05	148.27	1.7753e-06	2.2754e-06	339.85	39.022	8.1864e-07	4.963e-07	111.62	42.904	11.684	4.03	1.8106e-06	18.075	8.9314e-05	5.7249e-05	2.9519e-05	124.24	5.7025e-07	5.358e-07	286.8	32.844	6.2628e-07	5.293e-07	93.666	36.195	10.025	3.4149	6.459e-07	15.43	259.646	245.289	348.145	158.050	313.757	291.781	158.583	165.438	283.651	426.796	163.023	168.058	168.628	172.307	343.234	171.818	-8191	255	
18894.414	1	1	0	0	0.18626	0.30147	0.32342	0.12714	0.31376	0.14549	0.15516	0.14796	0.23263	0.18508	0.30406	0.093409	0.11786	0.16304	0.34561	0.20085	-2.5271	-2.5062	-2.6958	-3.0021	-2.6125	-2.8688	-2.75	-2.6063	-2.9083	-2.5062	-2.8167	-2.6292	-2.5792	-2.9	-2.6813	-2.6958	368.508	367.267	292.582	244.890	172.144	279.537	358.508	384.091	233.684	375.185	407.026	452.929	425.675	262.302	150.277	330.750	0.00017527	0.00012747	2.6264e-05	155.97	1.6814e-06	1.0225e-06	354.13	41.133	1.5774e-06	3.4766e-06	115.97	43.803	12.558	4.0137	2.8279e-07	18.644	9.0861e-05	6.7511e-05	2.0958e-05	130.77	7.6751e-07	6.0444e-07	296.97	34.684	1.2014e-06	6.8986e-07	97.259	37.58	10.466	3.4719	6.1671e-07	15.901	260.848	206.988	231.270	157.734	354.014	223.596	158.524	164.608	412.117	309.862	161.879	168.163	167.259	173.421	211.412	171.977	-8191	255	
18894.512	1	1	0	0	0.20108	0.076279	0.087116	0.21804	0.30889	0.049125	0.18626	0.19266	0.13146	0.039005	0.056304	0.065614	0.36293	0.16416	0.076185	0.15429	-2.5667	-2.75	-2.6854	-2.9625	-2.6229	-2.8146	-2.8292	-2.6688	-2.8833	-2.7271	-2.8063	-3.0104	-2.5625	-2.7687	-2.7896	-2.8292	303.031	385.833	405.249	361.280	169.530	314.424	358.209	412.722	154.803	301.789	316.273	402.966	212.180	359.319	147.070	463.190	0.00020887	0.00016454	0.00011347	153.41	1.6176e-06	1.8726e-06	347.66	39.678	2.4188e-06	7.3362e-07	110.42	42.715	11.555	3.8739	6.8805e-07	17.763	0.00010051	5.9313e-05	2.6495e-05	130.2	6.4566e-07	5.0345e-07	291.77	33.414	7.804e-07	5.7714e-07	93.684	36.281	9.8697	3.3346	6.6189e-07	15.243	263.797	248.514	244.265	157.987	347.099	214.964	157.079	163.643	352.104	166.445	162.288	167.696	167.864	171.733	215.892	172.399	-8191	255	
18894.631	1	1	0	0	0.10814	0.10551	0.14723	0.034099	0.237	0.11752	0.22743	0.17695	0.13824	0.29207	0.043615	0.13906	0.14738	0.14198	0.058363	0.015602	-2.5854	-2.725	-2.5792	-2.8854	-2.6562	-2.9271	-3.0792	-2.4667	-2.8021	-2.8229	-2.5938	-2.9062	-2.6417	-2.8438	-2.9833	-2.6167	343.201	356.650	423.319	250.383	381.854	500.434	448.878	440.170	272.162	146.858	478.228	289.904	347.206	477.749	487.863	288.615	0.00020373	6.2359e-05	4.2611e-05	153.36	3.6488e-07	8.6542e-07	344.39	39.214	1.2986e-06	1.2784e-06	109.22	42.681	11.676	3.8048	7.7075e-07	17.863	0.00010081	5.662e-05	1.6392e-05	128.39	5.8601e-07	5.898e-07	290.03	33.198	1.112e-06	5.778e-07	93.266	36.119	9.9123	3.3201	5.9455e-07	15.359	261.985	257.177	210.496	158.197	386.266	327.384	158.187	163.071	346.260	318.608	162.619	168.316	167.827	171.949	275.609	171.462	-8191	255	
18894.727	1	1	0	0	0.14798	0.11972	0.05913	0.24602	0.28604	0.20759	0.19757	0.10451	0.20469	0.16989	0.28943	0.11172	0.024957	0.08472	0.097448	0.15928	-2.4062	-2.6688	-2.6042	-2.7833	-2.675	-2.6708	-3.0521	-2.6937	-2.6875	-2.9354	-2.6312	-2.9604	-2.7062	-2.6292	-3.0167	-2.5938	207.616	403.665	161.821	338.306	432.296	281.660	434.818	463.511	461.561	373.162	280.609	185.103	324.657	154.317	194.617	317.896	0.00015553	7.8044e-05	4.7924e-05	155.81	1.7079e-06	1.1048e-06	351.12	39.916	5.5162e-08	1.6861e-06	112.2	43.838	12.03	4.046	9.1067e-07	18.306	8.6366e-05	6.0768e-05	1.7446e-05	131.08	7.0296e-07	6.7003e-07	293.32	33.529	7.5773e-07	6.2717e-07	94.829	36.746	10.127	3.4114	5.8347e-07	15.597	266.611	375.303	157.908	158.180	326.790	295.000	157.569	162.895	258.832	277.660	163.012	168.809	167.696	172.890	196.945	171.455	-8191	255	
18894.799	1	1	0	0	0.12339	0.2646	0.074383	0.23566	0.27785	0.10142	0.10648	0.077004	0.11362	0.15664	0.046306	0.15003	0.10437	0.25382	0.10232	0.10646	-2.5354	-2.8146	-2.4417	-2.8125	-2.7083	-2.6937	-3.0854	-2.6771	-2.8792	-2.9562	-2.6	-3.0604	-2.5187	-2.6354	-2.925	-2.6271	409.116	373.772	245.971	261.100	488.475	439.935	291.450	293.446	306.632	457.901	332.973	494.430	389.995	347.582	169.903	160.532	0.00014792	0.00015392	6.1227e-05	155.43	8.1116e-07	9.5103e-08	348.78	40.175	1.532e-06	6.0805e-07	111.42	43.493	11.835	3.9741	1.3878e-06	18.434	9.1333e-05	4.7144e-05	1.7731e-05	130.69	6.1924e-07	5.7449e-07	296.54	34.166	1.1669e-06	6.1057e-07	95.358	37.068	10.113	3.3918	6.9854e-07	15.74	259.524	231.880	170.175	158.110	336.958	423.755	157.828	163.791	413.086	439.784	162.897	168.178	167.550	171.669	280.082	171.930	-8191	255	
18894.920	1	1	0	0	0.22239	0.12514	0.037561	0.15423	0.06379	0.18219	0.16791	0.24809	0.22327	0.21465	0.35103	0.20167	0.23271	0.20185	0.11351	0.1955	-2.3458	-2.6729	-2.4604	-2.8208	-2.9229	-2.7812	-3.1208	-2.7208	-2.7	-3.0708	-2.5	-2.8104	-2.6479	-2.7021	-2.85	-2.7667	500.263	303.438	334.591	442.966	476.302	301.253	432.861	492.294	150.238	198.348	433.298	443.905	480.054	198.214	267.578	249.006	0.00017865	7.8201e-05	6.3953e-05	158.81	1.8557e-06	1.1937e-06	358.08	39.329	1.3825e-06	8.1014e-07	109.75	42.392	11.784	3.9253	5.3034e-07	17.88	9.5755e-05	5.6344e-05	1.5338e-05	134.55	5.9986e-07	4.8377e-07	298.93	33.762	7.6085e-07	5.5377e-07	93.575	36.21	9.895	3.3018	1.1416e-06	15.292	261.149	441.581	244.834	157.761	333.212	225.182	157.681	164.407	319.222	399.676	162.260	168.063	166.880	172.415	210.913	171.778	-8191	255	
18895.016	1	1	0	0	0.097275	0.23008	0.087024	0.2913	0.094281	0.21294	0.19241	0.16621	0.13168	0.16871	0.14031	0.062413	0.09892	0.19583	0.063422	0.073846	-2.0396	-2.8021	-2.5229	-2.7917	-2.7375	-2.5917	-2.9021	-2.6854	-2.6792	-2.8417	-2.6937	-2.8625	-2.8167	-2.6729	-3	-2.8021	273.320	191.241	220.608	320.557	471.077	365.160	414.240	501.905	147.723	204.435	200.329	486.973	290.100	183.774	391.057	354.882	0.0001514	0.00026476	5.1745e-05	160.8	1.1427e-07	4.8423e-07	350.11	39.392	6.4819e-07	1.1945e-06	111.67	42.162	11.809	3.8841	5.3278e-07	17.744	8.1517e-05	5.1744e-05	1.4559e-05	133.78	5.8218e-07	6.7593e-07	294.67	33.426	9.988e-07	6.1384e-07	93.933	36.072	9.9159	3.3047	6.4185e-07	15.206	257.553	250.668	249.882	157.668	340.926	314.036	158.040	163.368	210.699	393.860	162.668	168.359	166.825	173.009	487.824	171.576	-8191	255	
18895.111	1	1	0	0	0.071739	0.11066	0.21008	0.14818	0.1212	0.043044	0.084886	0.013702	0.044838	0.047231	0.18747	0.14382	0.070965	0.054287	0.037402	0.054593	-2.1958	-2.8125	-2.5979	-2.8229	-2.8771	-2.5875	-3.0438	-2.6479	-2.5979	-2.9854	-2.7208	-2.7167	-2.7521	-2.4479	-2.9333	-2.6396	389.877	450.288	269.663	156.619	296.518	457.055	435.907	319.360	348.137	272.693	190.207	427.718	149.717	417.646	382.218	203.043	0.00016827	0.00015561	1.1681e-05	152.75	1.7755e-06	5.4244e-07	354.5	39.775	1.2527e-06	6.6283e-07	110.44	42.386	12.079	3.7898	1.5798e-06	17.886	9.0198e-05	5.0977e-05	1.4877e-05	132.23	5.4085e-07	6.1144e-07	295.74	33.429	5.4662e-07	6.9511e-07	93.57	36.056	9.969	3.2807	1.1522e-06	15.264	257.715	229.110	331.427	157.270	374.495	330.381	158.025	163.525	313.962	330.884	162.229	168.347	167.109	172.161	206.933	172.326	-8191	255	
18895.232	1	1	0	0	0.17333	0.30443	0.24951	0.085543	0.24363	0.27152	0.10264	0.06348	0.11312	0.22526	0.13321	0.13689	0.27912	0.11881	0.13114	0.096574	-2.2562	-2.8208	-2.5625	-2.5104	-2.7333	-2.6312	-2.8083	-2.8958	-2.6312	-2.8604	-2.7021	-2.6562	-2.8292	-2.3479	-2.6833	-2.8604	250.394	314.529	286.547	440.221	201.576	247.096	263.721	348.391	290.927	228.249	477.148	485.061	379.183	340.540	270.016	384.683	0.00016977	0.00013064	5.9735e-05	155.3	1.9028e-06	1.5053e-06	350.2	39.007	4.8226e-07	1.4005e-06	110.63	42.75	11.766	3.8204	6.2623e-07	17.91	8.336e-05	4.5768e-05	1.6249e-05	131.15	5.2637e-07	5.7231e-07	294.8	33.251	5.4038e-07	1.0796e-06	93.281	35.914	9.8253	3.2617	7.6908e-07	15.158	265.427	227.993	290.328	159.600	273.256	433.196	157.844	162.530	367.672	348.290	162.087	167.759	167.910	171.311	347.859	171.431	-8191	255	
18895.328	1	1	0	0	0.07828	0.081311	0.26707	0.022124	0.20861	0.15158	0.037453	0.40956	0.28179	0.10236	0.15544	0.25749	0.20403	0.167	0.14365	0.1005	-1.9458	-2.725	-2.6208	-2.4875	-2.8979	-2.55	-2.9042	-2.7458	-2.5	-2.8646	-2.6771	-2.7104	-3.1354	-2.5812	-2.7521	-2.9167	313.363	287.163	184.602	450.920	289.841	332.549	256.233	279.897	369.562	179.945	192.592	190.087	233.853	271.866	402.037	350.118	0.00016157	0.00016148	1.6668e-05	156	3.4767e-06	1.4033e-06	353.39	39.582	1.9204e-06	1.1819e-06	113.06	42.389	11.857	4.0392	3.2017e-06	17.979	8.305e-05	5.0663e-05	1.5865e-05	132.44	5.76e-07	5.9985e-07	297.48	33.423	6.3938e-07	7.294e-07	94.759	36.086	9.9855	3.3834	1.0926e-06	15.394	258.411	226.961	222.394	158.506	271.027	344.033	157.503	163.247	295.605	308.528	162.791	168.244	167.219	172.204	238.277	170.924	-8191	255	
18895.398	1	1	0	0	0.09435	0.21535	0.12918	0.04983	0.21176	0.14726	0.026459	0.049805	0.12473	0.038885	0.15314	0.29346	0.10612	0.24752	0.068273	0.085	-2.0646	-3.05	-2.8542	-2.5958	-2.8104	-2.7604	-2.7667	-2.8833	-2.5792	-2.9313	-2.5979	-2.7229	-2.7104	-2.6604	-2.65	-2.9583	421.477	413.416	422.704	465.200	270.654	393.478	204.319	204.705	165.341	342.177	463.751	330.455	257.232	364.107	421.717	425.974	0.00019924	0.00017666	1.0276e-05	158.83	1.7144e-06	2.4872e-06	359.37	40.606	6.5672e-07	2.1273e-06	111.31	42.511	12.081	3.8799	6.7989e-07	17.913	9.1392e-05	5.0722e-05	1.3731e-05	131.87	7.3555e-07	5.4455e-07	300.86	33.829	6.1858e-07	1.1338e-06	94.843	36.111	10.035	3.3209	8.3215e-07	15.355	264.018	246.811	295.096	157.970	336.886	330.894	157.444	162.676	413.072	246.006	163.790	167.707	168.127	172.525	197.459	172.090	-8191	255	
18895.520	1	1	0	0	0.2624	0.1859	0.34957	0.40873	0.34384	0.08512	0.054663	0.16501	0.08231	0.0076621	0.19957	0.12728	0.062913	0.042263	0.21669	0.22568	-2.0771	-2.8063	-2.7875	-2.4521	-2.9146	-2.7917	-2.8	-2.7958	-2.7292	-2.7729	-2.7854	-2.4979	-2.9708	-2.6479	-2.6958	-2.9708	249.607	182.501	451.766	392.706	441.445	465.938	468.461	228.451	492.545	246.810	486.794	432.726	417.293	280.874	401.705	254.143	0.00016461	0.00024089	3.6172e-05	159.3	2.3464e-06	1.8361e-06	358.93	39.919	1.8012e-06	1.9922e-06	110.11	41.744	11.537	3.7688	8.6328e-07	17.827	8.7251e-05	4.8422e-05	1.2501e-05	132.93	1.0142e-06	5.1482e-07	300.85	33.838	4.9108e-07	7.187e-07	93.989	36.022	9.8897	3.2415	8.1979e-07	15.238	259.504	179.796	324.607	156.625	389.245	293.780	157.995	163.669	299.679	344.105	163.040	167.945	168.125	173.081	338.457	171.984	-8191	255	
18895.615	1	1	0	0	0.12438	0.20379	0.19321	0.1989	0.1629	0.13299	0.23327	0.27723	0.092996	0.23931	0.011063	0.090536	0.12898	0.24219	0.20083	0.090961	-2.1104	-2.9688	-2.7896	-2.4813	-2.9292	-2.7562	-2.8167	-3.1042	-2.6937	-2.75	-2.725	-2.5917	-2.9417	-2.7687	-2.7188	-2.8083	395.751	305.930	262.046	147.423	446.312	328.655	471.024	156.145	424.623	373.517	195.726	406.682	182.642	384.858	253.361	397.118	0.00015789	6.0138e-05	1.7855e-05	163.18	8.5342e-07	1.0824e-06	357.72	39.971	7.5692e-07	1.1048e-06	112.8	42.334	12.029	3.8601	1.1151e-06	17.845	8.0795e-05	4.6298e-05	1.4477e-05	133.66	6.7697e-07	5.6859e-07	300.1	33.768	5.8135e-07	1.0944e-06	94.849	36.018	9.9178	3.2859	6.0137e-07	15.158	263.303	252.315	249.171	156.771	317.739	257.682	157.947	162.909	372.484	205.602	162.236	168.257	167.328	172.989	241.337	172.002	-8191	255	
18895.713	1	1	0	0	0.15987	0.13503	0.16354	0.16223	0.14403	0.24452	0.025572	0.13549	0.22103	0.040474	0.14184	0.08389	0.15948	0.039838	0.092161	0.17405	-2.2792	-2.6896	-2.7292	-2.4833	-2.8854	-2.9917	-2.7562	-2.9604	-2.6833	-2.8854	-2.9333	-2.6208	-2.9542	-2.7354	-2.4562	-3.0458	485.963	498.131	311.130	411.812	207.578	189.597	481.040	243.669	208.450	299.589	274.466	200.231	374.250	268.905	384.679	258.183	0.00018956	0.00012348	2.8483e-05	157.62	1.1862e-06	2.8999e-06	347	38.362	1.5575e-06	1.9447e-06	106.64	40.647	11.244	3.6825	1.8811e-06	17.342	8.9034e-05	5.3297e-05	1.3703e-05	131.04	1.053e-06	4.958e-07	292.96	32.399	5.5702e-07	6.8637e-07	90.707	34.868	9.5841	3.1569	6.4143e-07	14.718	258.744	277.779	232.356	158.313	292.863	262.210	157.492	163.185	286.291	341.184	162.771	168.195	168.472	172.147	242.435	172.312	-8191	255	
18895.809	1	1	0	0	0.086555	0.11842	0.17312	0.28324	0.25296	0.16066	0.31497	0.11204	0.086789	0.19697	0.093573	0.20967	0.14934	0.19165	0.087922	0.14019	-2.4625	-2.5146	-2.8125	-2.6167	-2.8104	-2.8646	-2.5125	-2.8583	-2.7208	-2.55	-3.0542	-2.6167	-2.8146	-2.8104	-2.5	-2.8792	357.841	429.394	208.484	452.387	323.957	424.906	453.262	183.279	249.034	190.533	293.800	268.576	321.882	181.269	505.156	148.300	0.00018265	0.00016861	5.5035e-05	153.91	1.4116e-06	1.6466e-06	346.96	38.896	1.3521e-06	2.121e-06	107.71	40.492	11.207	3.5976	2.7483e-06	17.078	8.4318e-05	4.6672e-05	1.4976e-05	128.96	7.4663e-07	5.0738e-07	291.25	32.56	4.5988e-07	8.6702e-07	90.883	34.659	9.4054	3.0915	4.7138e-07	14.617	257.252	177.700	249.824	157.840	313.599	376.860	157.621	164.007	254.490	412.632	162.822	167.439	167.599	172.201	331.617	171.882	-8191	255	
18895.928	1	1	0	0	0.078109	0.15191	0.014744	0.19573	0.13416	0.22074	0.23817	0.16949	0.1253	0.15747	0.11551	0.035464	0.093353	0.13843	0.14908	0.14452	-2.1688	-2.5771	-2.9042	-2.5667	-2.7417	-2.9604	-2.5812	-2.9979	-2.8563	-2.8	-3.0062	-2.5125	-2.7167	-2.9667	-2.4896	-2.9208	383.070	192.707	195.748	394.147	482.578	239.186	170.507	321.599	481.201	302.954	390.720	210.423	260.394	496.075	243.936	481.699	0.00018612	4.3424e-05	1.6664e-05	156.43	2.2953e-06	1.4784e-06	344.05	38.827	1.6932e-06	1.327e-06	106.38	40.819	11.211	3.6259	8.6583e-07	17.084	8.3315e-05	5.4477e-05	1.3747e-05	130.55	1.1192e-06	4.7372e-07	290.99	32.383	5.3414e-07	5.1838e-07	90.28	34.627	9.451	3.0993	5.3552e-07	14.566	257.501	254.703	464.032	157.948	290.967	327.780	157.667	163.822	301.276	202.263	162.829	167.884	167.148	173.431	361.771	171.630	-8191	255	
18896.025	1	1	0	0	0.26041	0.30405	0.087626	0.066643	0.077962	0.049248	0.23049	0.055475	0.1555	0.023695	0.12505	0.34264	0.21502	0.19804	0.045998	0.13507	-2.5646	-2.4979	-3.05	-2.6958	-2.6333	-2.8604	-2.725	-2.8875	-2.7729	-2.5854	-2.9938	-2.675	-2.5917	-3.025	-2.5604	-2.7958	465.700	175.461	469.620	249.351	424.120	350.601	150.227	310.093	282.106	494.241	505.289	162.667	264.546	364.246	403.909	362.491	0.00015312	3.2823e-05	6.8202e-06	153.16	1.8584e-06	3.1027e-06	348.2	38.074	1.7681e-06	1.2969e-06	106.68	40.736	11.116	3.6149	1.652e-06	17.156	7.3456e-05	4.3585e-05	1.2413e-05	128.18	6.4843e-07	4.8705e-07	292.1	32.278	5.3809e-07	5.7911e-07	91.01	34.657	9.3662	3.1148	5.2742e-07	14.668	267.226	490.163	162.128	157.491	319.855	285.975	157.499	164.090	245.693	324.491	163.677	168.259	166.863	172.892	303.851	172.163	-8191	255	
18896.096	1	1	0	0	0.048057	0.28704	0.11795	0.11162	0.095896	0.1034	0.13446	0.047038	0.30113	0.22199	0.096348	0.10606	0.044789	0.15772	0.04604	0.176	-2.4083	-2.5729	-2.9625	-2.6271	-2.6583	-3.0292	-2.6729	-2.7708	-2.7646	-2.5438	-2.8875	-2.7687	-2.5167	-2.9604	-2.6167	-2.7812	369.151	151.558	241.477	495.255	398.753	355.559	392.690	266.966	397.332	349.593	244.252	251.494	223.052	230.955	410.610	264.028	0.00015671	0.00011927	2.7855e-05	152.68	3.187e-06	3.0361e-06	337.91	37.484	1.4299e-06	3.9228e-07	104.81	39.86	10.857	3.5892	2.1741e-06	16.96	7.7523e-05	4.8913e-05	1.3752e-05	127.32	7.4961e-07	6.5735e-07	287.11	31.539	4.863e-07	5.7343e-07	88.902	33.898	9.2024	3.0875	6.0222e-07	14.426	259.837	173.966	224.550	157.985	341.814	314.316	157.982	163.399	268.850	164.814	163.723	168.025	167.138	171.742	325.839	171.807	-8191	255	
18896.191	1	1	0	0	0.16253	0.16302	0.27438	0.050269	0.29366	0.10713	0.20771	0.29257	0.10909	0.12795	0.094988	0.24113	0.41016	0.32341	0.24012	0.19054	-2.3563	-2.4771	-2.8125	-2.6479	-2.6375	-2.9875	-2.5833	-2.7438	-2.7396	-2.5542	-2.8542	-2.7792	-2.65	-2.8563	-2.5792	-2.7	410.547	504.288	159.640	432.262	394.373	204.982	214.936	406.206	414.687	460.952	194.688	362.166	176.223	412.348	214.620	397.219	0.00017049	0.00012552	5.3716e-05	152.78	8.2812e-07	2.5619e-07	347.02	38.854	1.2351e-06	1.4096e-06	109.47	41.169	11.24	3.7486	3.4572e-07	16.946	8.7192e-05	4.9876e-05	1.5091e-05	128.52	5.1849e-07	6.3592e-07	291.07	32.419	5.4599e-07	5.9746e-07	91.453	34.771	9.5443	3.1835	5.3658e-07	14.759	248.382	242.187	227.942	157.297	293.693	191.657	157.616	162.800	258.975	278.781	162.999	168.219	167.886	173.095	446.397	172.308	-8191	255	
18896.312	1	1	0	0	0.029193	0.10504	0.11785	0.19416	0.17871	0.076516	0.11305	0.041641	0.13948	0.044209	0.31368	0.10934	0.10397	0.12092	0.2098	0.26391	-2.5958	-2.5083	-2.8	-2.825	-2.7021	-3.075	-2.875	-2.6271	-2.9646	-2.6771	-2.9146	-2.6979	-2.5938	-2.9417	-2.6417	-2.5417	496.477	290.452	318.897	184.377	179.885	202.607	179.420	287.504	393.714	318.123	383.763	381.496	251.075	466.914	237.532	221.103	0.00018071	0.00011139	8.1193e-06	151.82	1.0943e-06	2.7767e-06	352.84	39.377	1.435e-06	3.4144e-07	110.68	42.103	11.723	3.824	1.8554e-06	17.808	8.5335e-05	5.5951e-05	1.1349e-05	128.86	5.1359e-07	1.1276e-06	294.6	33.132	5.9487e-07	5.6272e-07	93.257	35.695	9.8783	3.2669	6.0499e-07	15.372	250.306	231.993	252.790	159.544	304.387	348.601	157.855	163.245	288.672	190.851	162.507	167.951	168.031	172.406	263.806	171.736	-8191	255	
18896.406	1	1	0	0	0.19066	0.049983	0.12317	0.26245	0.12096	0.16231	0.10492	0.028609	0.028899	0.17897	0.17688	0.081686	0.083147	0.13086	0.081228	0.18681	-2.3896	-2.4271	-2.8833	-2.8375	-2.5083	-3.0687	-2.7438	-2.675	-2.975	-2.7333	-2.9333	-2.8125	-2.6479	-2.8063	-2.8688	-2.675	281.557	224.871	230.892	298.788	458.475	159.747	441.102	222.353	215.103	158.580	345.537	336.512	437.670	451.422	315.226	334.124	0.0001635	0.00019442	3.8961e-05	161.79	2.6097e-06	2.2853e-06	371.2	42.119	7.6862e-07	2.2552e-06	115.7	44.335	12.505	4.0764	9.5879e-07	19.037	9.8378e-05	5.489e-05	1.648e-05	137.3	6.3629e-07	6.9932e-07	310.48	35.298	5.7158e-07	6.5491e-07	98.569	37.961	10.625	3.5497	6.0627e-07	16.319	263.678	235.224	251.246	158.084	304.294	339.884	157.198	163.816	300.954	326.541	162.834	168.000	167.597	172.104	207.705	171.486	-8191	255	
18896.504	1	1	0	0	0.15964	0.27648	0.30934	0.13798	0.081681	0.13056	0.22367	0.25441	0.24446	0.097757	0.18074	0.2285	0.49613	0.17676	0.091181	0.19432	-2.5125	-2.5938	-2.7354	-2.9979	-2.7167	-2.95	-2.8667	-2.7583	-2.9271	-2.8187	-2.7042	-2.8312	-2.5604	-3.0958	-2.7417	-2.7396	463.060	325.196	247.880	483.914	372.627	290.318	283.723	411.227	145.468	314.878	284.091	359.018	401.710	226.187	316.353	256.147	0.00019018	0.00014899	4.683e-05	169.74	1.6804e-06	2.2931e-06	373.11	41.169	1.0249e-06	4.2789e-07	114.87	44.262	12.497	4.1377	1.3138e-06	19.084	9.8614e-05	6.2675e-05	1.4554e-05	140.37	6.1222e-07	1.1687e-06	313.59	34.912	6.7391e-07	6.051e-07	98.098	37.808	10.595	3.5521	5.9646e-07	16.232	251.295	233.193	198.655	157.686	304.375	399.286	157.583	163.089	303.604	487.176	162.846	167.784	167.878	172.860	261.779	171.873	-8191	255	
18896.600	1	1	0	0	0.32404	0.18276	0.082282	0.1975	0.17404	0.20649	0.20118	0.31204	0.25515	0.27479	0.1592	0.12479	0.089917	0.13388	0.32316	0.32547	-2.6292	-2.7313	-2.7792	-2.8021	-2.5875	-2.8583	-2.9396	-2.5125	-2.9125	-2.6896	-2.7146	-3.0354	-2.5458	-2.8479	-2.6708	-2.5917	167.461	169.281	285.088	416.413	482.801	436.154	424.317	380.628	341.050	226.279	485.291	241.918	436.360	445.994	274.997	412.336	0.00018042	0.00011484	4.126e-05	171.1	1.2587e-06	2.3077e-06	380.69	43.037	1.0686e-06	1.9415e-06	119.25	46.091	13.023	4.3855	9.7088e-07	19.583	0.00012774	5.5401e-05	1.6716e-05	145.39	7.0083e-07	8.5956e-07	321.91	36.415	6.6434e-07	6.9685e-07	101.39	39.111	11.004	3.7147	6.8e-07	16.776	255.339	186.460	194.130	157.886	347.057	270.654	157.466	162.556	350.497	357.637	162.653	168.470	167.370	171.789	286.649	171.670	-8191	255	
18896.695	1	1	0	0	0.47446	0.13932	0.063109	0.13713	0.26051	0.093022	0.096097	0.084993	0.15713	0.026894	0.19648	0.2368	0.13597	0.3739	0.27471	0.24931	-2.5708	-2.6688	-2.6333	-2.8667	-2.5812	-2.8375	-2.8812	-2.55	-2.8583	-2.7792	-2.6937	-2.8688	-2.5896	-2.6979	-3.05	-2.6833	386.317	362.522	231.255	261.637	239.768	227.586	491.475	313.803	238.634	159.992	262.762	473.144	475.643	252.249	391.381	340.010	0.00018264	0.00013268	7.8134e-05	178.02	2.23e-06	1.089e-06	393.03	43.592	1.3287e-06	2.0806e-06	122.85	46.631	13.497	4.3897	2.3219e-06	19.834	0.00011275	6.9811e-05	1.9575e-05	149.39	7.1809e-07	1.4325e-06	331.83	37.201	7.8248e-07	7.3617e-07	103.75	39.923	11.26	3.7681	7.4691e-07	16.94	256.220	489.332	265.875	158.067	297.991	249.056	156.962	162.447	299.715	276.675	162.845	168.390	166.919	172.640	335.312	171.373	-8191	255	
18896.793	1	1	0	0	0.081481	0.087824	0.31962	0.24448	0.13578	0.28218	0.35172	0.064021	0.18076	0.077343	0.21817	0.30996	0.30851	0.050201	0.077751	0.059733	-2.3854	-2.6562	-2.5146	-2.9938	-2.6333	-2.6625	-2.8833	-2.4938	-2.9604	-2.9104	-2.8812	-2.8063	-2.6688	-2.5563	-3.025	-2.5729	323.943	385.265	248.805	328.554	239.029	208.663	440.986	155.178	255.838	487.415	176.089	489.205	432.575	250.378	446.723	447.794	0.00022267	4.598e-05	9.5596e-05	180.99	1.5389e-06	5.8098e-07	393.93	44.687	7.085e-07	8.3913e-07	122.38	46.815	13.493	4.4796	1.6469e-06	20.17	0.00015152	6.4936e-05	1.9795e-05	150.91	7.3768e-07	9.0328e-07	332.34	37.875	7.6896e-07	7.2656e-07	103.67	40.269	11.34	3.8127	6.2417e-07	17.1	257.521	422.216	228.891	158.071	307.680	304.238	157.878	163.412	282.431	334.484	162.419	168.322	167.709	172.632	318.417	171.842	-8191	255	
18896.912	1	1	0	0	0.14357	0.23954	0.37812	0.23561	0.057971	0.066913	0.16833	0.20225	0.30601	0.11744	0.1796	0.23725	0.098686	0.11824	0.011101	0.2717	-2.3896	-2.7104	-2.6125	-2.9562	-2.7354	-2.8625	-3.0458	-2.4604	-2.9583	-2.7562	-2.7208	-3.0854	-2.6479	-2.6854	-3.025	-2.7521	223.561	194.194	241.648	264.700	198.325	364.644	173.651	165.436	346.900	244.680	408.238	425.120	229.885	476.808	500.326	209.887	0.00019881	6.5836e-05	0.00010319	180.69	3.2345e-06	2.0552e-06	392.82	44.61	1.006e-06	2.2687e-06	119.06	46.685	13.035	4.3423	8.0666e-07	19.236	0.00011178	6.8828e-05	1.8724e-05	150.43	7.8327e-07	9.4503e-07	332.25	37.662	6.5852e-07	7.2372e-07	101.84	39.448	11.019	3.6964	6.9065e-07	16.608	254.224	343.192	178.180	156.995	312.147	390.849	157.287	162.374	307.000	235.206	162.488	168.031	167.518	171.552	350.749	171.542	-8191	255	
18897.010	1	1	0	0	0.1059	0.27103	0.12057	0.21421	0.1246	0.24315	0.17156	0.20303	0.1523	0.086123	0.11087	0.20277	0.12369	0.16056	0.10348	0.28036	-2.3688	-2.6521	-2.4771	-3.025	-2.7167	-2.5646	-3.0625	-2.5479	-2.8688	-2.8937	-2.5667	-2.8458	-2.8563	-2.7125	-2.9813	-2.6542	192.057	241.730	244.554	240.323	395.311	185.312	255.094	218.588	231.059	348.423	157.662	334.676	260.989	345.628	216.943	252.114	0.00017997	0.00018369	6.5423e-05	174.78	2.4367e-06	5.0467e-06	387.1	44.467	2.2612e-06	3.4562e-06	119.95	45.996	13.214	4.3646	1.8769e-06	19.777	0.00013721	6.1476e-05	1.7396e-05	148.02	6.8017e-07	7.5747e-07	329.34	37.33	7.0095e-07	6.4552e-07	101.59	39.604	11.088	3.6975	7.1047e-07	16.826	269.868	221.774	213.013	158.218	193.555	284.805	157.613	162.755	294.353	252.635	162.859	168.633	166.819	171.726	226.713	171.644	-8191	255	
18897.105	1	1	0	0	0.093164	0.03762	0.10408	0.03411	0.12777	0.19318	0.38794	0.095748	0.33261	0.25245	0.17668	0.26957	0.052956	0.078717	0.14917	0.11861	-2.3271	-2.9146	-2.5375	-2.8042	-2.7438	-2.7562	-2.925	-2.6125	-2.6271	-2.9333	-2.8917	-2.9229	-2.7583	-2.5938	-2.8604	-2.7667	389.289	326.990	313.239	306.860	262.378	333.652	167.693	152.451	312.083	248.944	489.013	389.424	249.343	313.222	407.539	442.420	0.00020413	0.00012171	1.2157e-05	179.25	1.5391e-06	2.2893e-06	390.94	44.563	1.1599e-07	3.0263e-06	121.99	47.036	13.557	4.4265	1.9315e-06	19.656	0.00010889	5.0564e-05	1.6387e-05	150.08	7.3917e-07	6.615e-07	330.97	37.468	7.9372e-07	6.8353e-07	103.21	39.977	11.313	3.7531	7.5693e-07	16.916	261.131	223.163	466.070	156.569	289.119	262.017	157.203	163.273	502.488	303.311	163.051	168.354	167.407	171.947	296.270	171.860	-8191	255	
18897.201	1	1	0	0	0.11207	0.08085	0.16598	0.084536	0.33116	0.27432	0.17222	0.10208	0.20062	0.17241	0.075812	0.031391	0.13014	0.097788	0.17607	0.14436	-2.2292	-3.0104	-2.7687	-2.8708	-2.9625	-2.6042	-2.9396	-2.8646	-2.5208	-3.0979	-2.5042	-2.6312	-2.8167	-2.5458	-2.6917	-2.8896	386.514	257.818	299.095	436.297	426.080	443.930	276.638	219.686	285.204	169.942	358.209	336.385	479.253	489.864	250.491	225.130	0.0002004	0.00029723	1.584e-05	178.76	2.5203e-06	4.329e-06	392.27	44.929	2.7367e-06	3.2818e-06	121.66	46.668	13.267	4.3631	5.1653e-07	19.777	0.00011248	9.8495e-05	1.7391e-05	148.94	6.4736e-07	7.5003e-07	330.52	37.597	7.0865e-07	6.9008e-07	103.44	40.103	11.202	3.7608	7.0216e-07	16.858	255.557	194.456	443.350	157.586	274.145	309.228	157.863	163.163	274.936	238.638	162.671	167.652	167.148	172.255	415.051	171.600	-8191	255	
18897.320	1	1	0	0	0.054532	0.33877	0.056526	0.13416	0.12193	0.082902	0.096027	0.27498	0.12787	0.23356	0.070576	0.053087	0.035187	0.16864	0.12268	0.16399	-2.2917	-3.0292	-2.4729	-2.6271	-2.9583	-2.6583	-2.7875	-2.7188	-2.525	-2.9708	-2.5917	-2.7104	-2.8729	-2.7062	-2.7583	-2.8042	243.714	196.160	346.371	246.300	487.259	403.983	470.612	502.113	176.808	479.880	443.739	288.358	333.648	459.893	241.698	173.274	0.00017831	0.00019334	6.4802e-05	178.11	2.2674e-06	2.7345e-06	388.43	43.72	3.8373e-07	3.0765e-06	119.89	46.037	13.148	4.2582	4.9507e-07	19.308	9.2615e-05	8.1351e-05	1.6913e-05	148.23	6.9529e-07	6.7265e-07	328.3	37.049	6.8993e-07	7.4098e-07	101.53	39.128	11.053	3.6117	6.2076e-07	16.463	251.225	262.929	268.053	157.947	300.482	342.661	157.238	162.997	286.781	313.980	162.441	167.801	167.917	172.455	393.566	172.005	-8191	255	
18897.393	1	1	0	0	0.13244	0.1994	0.11688	0.23656	0.087039	0.1584	0.22714	0.13472	0.058544	0.22824	0.075099	0.12586	0.13675	0.2117	0.10269	0.21156	-2.1063	-2.9792	-2.7062	-2.6604	-2.9604	-2.5979	-2.7812	-2.7354	-2.5854	-2.9625	-2.7417	-2.7333	-2.8917	-2.6063	-2.725	-2.7042	418.799	151.456	247.860	368.590	171.718	245.070	151.099	306.810	342.605	298.460	476.009	298.736	328.801	425.763	353.184	250.470	0.00020276	0.0001855	4.2834e-05	171.9	1.6068e-06	7.8744e-07	384.53	43.34	1.6643e-06	2.2014e-06	117.45	45.529	13.049	4.1806	1.6413e-06	19.255	9.4384e-05	0.00011216	1.7923e-05	144.74	5.7281e-07	6.2915e-07	324.97	36.585	6.1525e-07	6.6671e-07	100.8	38.934	11.023	3.5923	8.0083e-07	16.391	257.873	269.737	240.606	157.369	286.577	396.679	157.228	163.646	381.062	329.780	161.732	167.845	167.292	171.091	292.419	171.738	-8191	255	
18897.488	1	1	0	0	0.085455	0.1224	0.20705	0.23905	0.093118	0.16289	0.25986	0.1243	0.051113	0.21606	0.26009	0.084846	0.10265	0.16414	0.13466	0.19442	-2.2354	-2.8167	-2.7812	-2.6208	-2.9375	-2.6813	-2.7667	-2.7812	-2.6042	-3.0333	-2.7333	-2.5542	-2.9708	-2.6979	-2.7875	-2.9688	247.670	151.056	329.394	293.253	362.951	337.092	310.986	189.707	453.970	349.596	462.277	309.885	328.420	388.809	224.882	485.921	0.00017769	0.00011802	7.0028e-05	172.45	3.1708e-06	2.6426e-06	388.53	43.588	9.3734e-07	2.8253e-06	118.66	45.975	13.092	4.2633	8.9855e-07	19.301	9.3441e-05	7.2426e-05	1.575e-05	145.79	6.8145e-07	6.8576e-07	326.29	36.727	6.8431e-07	5.8654e-07	101.62	39.172	11.029	3.6533	6.4441e-07	16.585	256.796	209.506	268.711	157.360	275.082	306.911	157.757	162.184	324.457	316.905	162.861	167.918	167.495	171.910	302.942	172.021	-8191	255	
18897.584	1	1	0	0	0.28721	0.13763	0.33446	0.081928	0.15193	0.095192	0.22014	0.20171	0.22721	0.22937	0.070128	0.089853	0.15787	0.22739	0.090589	0.10279	-2.2979	-2.8896	-2.9083	-2.5604	-2.8521	-2.6146	-2.6083	-2.9833	-2.3771	-2.8708	-2.7479	-2.5083	-2.8417	-2.6188	-2.7104	-3.0354	179.922	465.317	265.072	220.999	300.855	378.361	163.652	479.884	328.867	325.916	411.541	489.101	437.124	501.348	422.965	204.872	0.0002003	0.00036818	5.8642e-05	172.12	2.4955e-06	2.5918e-06	388.23	43.682	1.8268e-06	4.1561e-06	120.42	46.642	13.104	4.2484	1.5861e-06	19.622	9.5239e-05	0.0001133	1.7874e-05	147.27	6.8081e-07	6.1472e-07	326.98	36.647	6.5207e-07	6.9248e-07	102.54	39.602	11.222	3.6589	6.1437e-07	16.744	262.641	260.556	463.331	157.079	318.459	258.178	157.382	162.468	285.821	288.934	161.888	168.419	168.278	171.234	276.853	170.768	-8191	255	
18897.705	1	1	0	0	0.07718	0.2018	0.22089	0.21832	0.23654	0.13868	0.12305	0.076207	0.12844	0.091341	0.21881	0.15922	0.13289	0.18446	0.031828	0.13222	-2.1333	-2.7604	-2.6562	-2.6937	-3.0146	-2.8063	-2.7333	-2.9771	-2.6396	-2.6646	-3.025	-2.5812	-2.875	-2.625	-2.6625	-2.9833	240.699	329.387	279.958	232.865	429.811	212.337	466.719	449.612	224.920	216.283	281.291	196.193	432.713	278.856	445.494	467.365	0.00019962	0.00011978	4.9178e-05	176.08	2.0092e-06	1.7781e-06	387.91	44.189	9.7229e-07	1.0447e-06	117.65	46.498	13.092	4.1748	1.1504e-06	19.498	0.00010004	7.51e-05	1.7791e-05	147.39	6.7506e-07	6.3745e-07	327.53	37.364	6.6559e-07	6.4115e-07	100.26	39.252	10.942	3.5776	6.9172e-07	16.554	266.574	291.158	275.438	157.948	239.116	364.110	157.487	162.598	307.975	261.543	162.077	167.374	166.644	171.878	396.790	171.475	-8191	255	
18897.801	1	1	0	0	0.092887	0.11822	0.18365	0.12187	0.17522	0.3054	0.18773	0.15416	0.031164	0.24152	0.23033	0.13049	0.1701	0.20062	0.098722	0.083573	-2.2208	-2.7146	-2.7875	-2.625	-2.65	-2.8271	-2.7938	-2.7646	-2.775	-2.7875	-2.9854	-2.3667	-2.875	-2.8104	-2.5312	-2.9917	422.881	355.717	251.679	458.126	486.163	288.574	402.166	351.288	161.384	422.962	178.594	361.216	325.239	484.613	344.826	502.520	0.00019468	0.0001582	1.6517e-05	173.05	2.1677e-06	1.4643e-06	380.87	43.146	2.7522e-06	2.7479e-06	117.6	45.844	12.942	4.2652	1.4204e-06	19.226	9.4236e-05	0.00011792	1.7226e-05	147.18	6.6313e-07	6.1406e-07	324.49	36.465	6.633e-07	6.2476e-07	99.969	38.925	11.071	3.6139	6.2971e-07	16.371	260.085	214.068	250.202	157.033	290.571	235.459	156.947	163.012	335.786	287.239	162.784	167.559	167.378	173.332	324.999	171.504	-8191	255	
18897.896	1	1	0	0	0.023028	0.17914	0.10581	0.13511	0.18125	0.043058	0.26376	0.40579	0.084651	0.18681	0.041691	0.053904	0.066072	0.15007	0.043396	0.24415	-2.2687	-2.8063	-3.025	-2.5458	-2.9188	-3.0104	-2.7375	-2.9208	-2.7208	-2.8021	-2.9083	-2.5458	-2.75	-2.85	-2.6292	-2.8979	209.222	410.736	192.234	195.840	325.488	187.776	202.232	237.237	400.771	196.241	150.468	312.078	462.263	224.089	285.530	409.814	0.00019043	0.00024464	5.9683e-05	174.79	1.3601e-06	6.7745e-07	387.71	43.022	1.5839e-06	1.1559e-06	118.95	46.548	12.997	4.3293	2.0712e-06	19.4	9.3809e-05	6.9202e-05	1.7819e-05	146.42	6.3629e-07	6.3855e-07	325.89	36.773	6.0402e-07	6.9423e-07	101.17	39.297	11.024	3.6736	6.6785e-07	16.639	261.550	198.487	237.501	157.441	300.836	297.941	157.677	163.277	245.730	282.713	162.149	168.523	167.052	171.493	362.332	171.573	-8191	255	
18897.992	1	1	0	0	0.32445	0.07865	0.22238	0.20102	0.2001	0.26433	0.096079	0.21416	0.20625	0.13081	0.13048	0.20458	0.13977	0.23577	0.075064	0.1677	-2.3167	-2.7083	-2.8896	-2.5938	-2.8583	-3.1021	-2.6583	-2.9917	-2.6729	-2.6813	-2.8958	-2.6354	-2.7375	-2.8396	-2.5479	-2.9042	496.280	370.525	386.263	335.953	262.064	225.000	330.105	204.171	271.733	310.972	283.754	351.741	473.160	484.326	275.682	279.644	0.00017461	0.00019058	3.5188e-05	177.51	2.248e-06	2.3704e-06	389.59	44.151	1.161e-06	1.2184e-06	118.86	46.654	13.127	4.2726	1.928e-06	19.849	8.7663e-05	8.2138e-05	2.6062e-05	147.47	7.2426e-07	6.3549e-07	327.2	37.223	7.334e-07	6.4224e-07	101.69	39.538	11.175	3.6604	7.4521e-07	16.791	263.006	220.618	214.647	157.544	319.173	319.418	157.101	163.185	288.717	277.283	162.714	167.621	167.666	171.998	291.130	172.168	-8191	255	
18898.090	1	1	0	0	0.21549	0.14147	0.26416	0.10465	0.083079	0.2174	0.12772	0.090774	0.23764	0.056662	0.097346	0.16992	0.14312	0.10461	0.20276	0.16214	-2.2479	-2.6479	-2.9042	-2.6729	-2.6063	-2.8333	-2.6312	-3.0104	-2.6958	-2.7042	-3.0479	-2.6063	-2.6479	-2.8792	-2.6146	-2.8521	497.819	240.164	159.862	208.635	199.230	375.734	147.636	490.666	302.179	337.077	466.107	495.881	491.008	387.101	495.172	496.009	0.0002068	0.00017294	1.5216e-05	169.01	4.0228e-07	3.331e-06	388.74	43.861	7.4282e-07	1.5337e-06	118.58	46.112	12.931	4.3128	3.1195e-06	19.127	9.7965e-05	6.6784e-05	2.1375e-05	145.02	7.2426e-07	6.5756e-07	327.67	37.315	5.8634e-07	6.6671e-07	101.08	39.042	10.987	3.6421	7.0962e-07	16.421	258.085	227.395	220.632	156.871	378.724	300.897	157.133	162.950	268.978	379.008	163.184	167.545	168.530	173.148	239.050	171.659	-8191	255	
18898.186	1	1	0	0	0.11382	0.099618	0.2163	0.056256	0.25249	0.3124	0.10551	0.12337	0.050931	0.14134	0.13061	0.058468	0.11701	0.12862	0.36928	0.18652	-2.4625	-2.5708	-2.9021	-2.7583	-2.7583	-2.9354	-2.5417	-2.7208	-2.9771	-2.8396	-3.0104	-2.7729	-2.5604	-2.9938	-2.5125	-2.6833	147.370	357.899	386.704	234.159	302.167	230.828	303.246	330.345	284.295	431.665	458.104	321.854	323.505	228.752	442.481	358.285	0.0001798	0.00011392	7.835e-05	174.54	1.0023e-06	1.0366e-06	383.92	44.416	1.7328e-06	1.4085e-06	116.98	45.626	12.918	4.2356	5.5346e-07	19.172	0.00010074	6.6292e-05	3.3882e-05	145.68	6.2755e-07	6.0269e-07	323.94	37.079	7.5232e-07	6.2258e-07	99.933	38.887	10.955	3.6711	6.4995e-07	16.379	257.518	223.626	241.986	158.106	255.346	309.885	157.492	161.538	331.815	208.081	162.659	167.975	167.638	171.875	252.550	171.361	-8191	255	
18898.281	1	1	0	0	0.34274	0.16735	0.21474	0.16233	0.11448	0.1427	0.32925	0.28623	0.044562	0.078868	0.11838	0.099501	0.045561	0.17512	0.15341	0.17221	-2.3375	-2.5646	-3.1583	-2.7375	-2.575	-2.9458	-2.6583	-2.7958	-2.8958	-2.4396	-2.9542	-2.8417	-2.6896	-2.9271	-2.75	-2.7	300.009	230.056	477.185	294.504	155.844	348.242	410.487	153.280	311.759	209.374	362.958	435.864	231.379	355.243	167.825	241.481	0.00019699	0.00011966	4.78e-05	176.43	1.7127e-06	1.6122e-06	382.5	43.458	1.0219e-06	1.9191e-06	118.42	45.595	12.847	4.2913	1.2936e-06	19.239	9.1363e-05	5.9706e-05	2.092e-05	147.14	6.5524e-07	5.3952e-07	321.93	36.605	6.7349e-07	6.3285e-07	100.3	38.665	10.86	3.6512	5.7537e-07	16.498	256.753	267.441	304.230	158.157	363.906	360.824	157.776	163.419	271.100	325.059	162.683	168.154	167.528	172.542	360.436	171.085	-8191	255	
18898.400	1	1	0	0	0.19822	0.21977	0.061205	0.15536	0.18679	0.13237	0.18384	0.095134	0.14305	0.15541	0.15108	0.18988	0.20576	0.14183	0.24237	0.31135	-2.4938	-2.6875	-2.7479	-2.725	-2.6771	-3.0187	-2.7542	-2.7	-2.8875	-2.4125	-3.0354	-2.8042	-2.5208	-2.9146	-2.75	-2.6792	480.325	205.638	388.063	403.381	411.401	437.710	436.650	446.837	162.217	297.133	274.347	485.595	370.344	245.667	380.418	175.485	0.00019191	1.9435e-05	9.0799e-05	169.32	9.4824e-07	1.8995e-06	382.67	43.934	6.4367e-07	3.4081e-07	119.28	46.254	12.895	4.3632	2.0078e-06	19.243	9.322e-05	6.6135e-05	3.4694e-05	145.05	6.1711e-07	7.0063e-07	323.59	36.824	6.1733e-07	6.5535e-07	101.24	39.104	11.004	3.6956	7.0536e-07	16.438	253.755	315.763	256.557	158.178	305.319	344.522	157.222	163.090	261.435	406.361	161.565	167.565	167.885	172.546	364.557	171.402	-8191	255	
18898.496	1	1	0	0	0.22143	0.27102	0.029209	0.12475	0.049644	0.14091	0.059765	0.078	0.23778	0.19855	0.10791	0.087057	0.12678	0.079639	0.048182	0.30262	-2.4208	-2.55	-2.7229	-2.9417	-2.6854	-3.1271	-2.8354	-2.625	-3.0542	-2.6354	-2.8542	-3.0271	-2.5875	-2.8187	-2.6813	-2.7396	304.902	316.786	369.444	410.593	469.726	297.282	322.523	449.395	312.608	203.029	379.023	335.296	399.517	407.228	438.751	439.514	0.00019341	0.00012876	2.5346e-05	174.88	8.5508e-07	1.8275e-06	379.84	44.061	4.8812e-07	1.7126e-06	117.58	46.135	12.751	4.2071	2.2006e-06	19.443	9.7892e-05	6.0237e-05	2.2769e-05	145.6	6.8869e-07	6.556e-07	323.46	36.908	1.0676e-06	5.9811e-07	99.757	38.935	10.809	3.6067	6.5954e-07	16.455	259.796	253.497	283.628	157.935	341.980	276.755	157.350	163.584	220.040	319.463	162.488	167.896	167.094	172.173	278.162	172.273	-8191	255	
18898.594	1	1	0	0	0.38403	0.12751	0.1759	0.34737	0.2096	0.15088	0.20151	0.37206	0.091085	0.17053	0.10117	0.13043	0.07507	0.088205	0.26554	0.063885	-2.5667	-2.5708	-2.6604	-2.825	-2.65	-2.9771	-2.7396	-2.5604	-2.9896	-2.8396	-2.5771	-2.9229	-2.4333	-3.0062	-2.85	-2.6542	156.049	386.702	388.160	387.302	379.552	460.388	456.140	292.191	369.163	210.180	302.117	407.747	288.048	364.227	495.946	454.523	0.00020945	9.474e-05	9.5644e-05	172.26	5.6158e-07	2.1063e-06	377.3	42.749	1.1278e-06	2.5928e-06	115.56	45.458	12.618	4.1483	1.1849e-06	18.899	9.599e-05	6.3677e-05	3.2159e-05	143.4	5.7643e-07	6.8708e-07	318.27	35.759	8.584e-07	7.0996e-07	98.112	38.56	10.701	3.5942	5.8538e-07	16.241	253.772	237.307	287.448	158.776	181.132	242.602	157.304	163.396	284.076	304.804	162.345	167.607	166.973	172.150	364.603	171.222	-8191	255	
18898.689	1	1	0	0	0.2082	0.054766	0.13674	0.054439	0.024968	0.1074	0.18787	0.25865	0.33347	0.26421	0.27487	0.21459	0.019004	0.19276	0.28207	0.078828	-2.5062	-2.7146	-2.6479	-2.8771	-2.5479	-2.7958	-2.775	-2.5646	-2.9104	-2.825	-2.7917	-2.9771	-2.7188	-2.8833	-2.7729	-2.5333	424.790	452.115	473.918	381.067	176.166	444.837	449.334	434.895	355.146	324.095	331.881	426.457	399.677	308.579	330.288	212.410	0.00019854	0.0001085	6.9454e-05	165.64	2.2075e-06	2.5219e-06	380.04	42.691	1.1914e-06	2.1939e-06	117.71	45.145	12.996	4.255	1.1393e-06	19.37	9.2881e-05	5.8645e-05	1.8516e-05	142.45	6.3139e-07	7.0784e-07	319.31	36.164	1.2338e-06	6.4333e-07	98.74	38.463	10.885	3.6596	6.4271e-07	16.435	252.739	233.081	254.881	157.623	236.113	288.388	157.215	164.140	162.145	345.382	163.024	167.812	167.048	171.827	332.024	171.919	-8191	255	
18898.785	1	1	0	0	0.12859	0.080843	0.12369	0.06832	0.24748	0.19842	0.11481	0.17723	0.12076	0.16747	0.19436	0.13115	0.33973	0.24088	0.17635	0.14845	-2.425	-2.6708	-2.5438	-2.9688	-2.7	-2.7229	-3.0875	-2.5125	-2.8563	-2.7271	-2.5229	-3.0083	-2.7208	-2.9083	-3.0125	-2.4042	222.163	461.428	243.106	291.533	480.519	381.209	317.536	261.374	294.349	351.509	465.144	404.831	497.988	175.596	253.254	344.264	0.00019204	0.0001339	6.6144e-05	166.39	3.1146e-06	2.8742e-06	378.97	42.344	1.6244e-06	2.2158e-06	116.24	45.09	12.994	4.2698	2.0735e-06	19.301	9.8599e-05	4.8874e-05	1.6425e-05	143.19	6.4715e-07	6.4663e-07	318.81	35.91	8.3823e-07	6.1275e-07	99.275	38.675	10.92	3.6554	5.6727e-07	16.391	255.393	308.767	235.803	158.371	317.701	401.488	157.155	163.811	371.657	328.734	163.004	167.616	168.271	172.608	317.209	171.545	-8191	255	
18898.881	1	1	0	0	0.089217	0.33579	0.16284	0.22239	0.18899	0.12705	0.16811	0.030642	0.22274	0.073697	0.29579	0.055471	0.20902	0.14138	0.27011	0.091834	-2.4729	-2.8	-2.6104	-3.1229	-2.7271	-2.5979	-2.8688	-2.4979	-2.9604	-2.9229	-2.6562	-2.9917	-2.6417	-2.6188	-2.9083	-2.6188	153.965	241.398	347.817	462.999	164.221	180.371	441.222	367.830	265.540	265.537	222.095	382.292	190.869	458.068	411.467	290.571	0.00018103	8.5897e-05	4.7468e-05	169.97	1.9015e-06	2.5172e-06	378.78	42.709	7.0251e-07	3.594e-07	114.56	45.068	12.587	4.0597	8.6779e-07	18.561	9.7626e-05	5.5066e-05	1.721e-05	142.75	6.12e-07	6.9538e-07	319.69	36.073	1.2026e-06	5.2493e-07	97.912	38.26	10.612	3.4793	6.0264e-07	15.87	263.231	284.062	215.290	158.137	233.050	313.535	157.305	163.397	238.761	315.262	162.727	168.116	166.274	171.792	278.952	171.097	-8191	255	
18899.002	1	1	0	0	0.12369	0.13668	0.22443	0.08141	0.24823	0.17096	0.1736	0.095549	0.15036	0.25053	0.18362	0.2481	0.22067	0.11294	0.18849	0.19942	-2.2938	-2.8125	-2.6229	-2.9042	-2.7542	-2.6917	-2.9208	-2.5854	-2.8958	-2.8667	-2.7083	-2.7687	-2.7188	-2.5687	-2.9125	-2.6729	440.742	146.196	394.515	259.369	183.786	177.164	485.438	504.767	287.672	172.495	356.995	276.788	442.447	403.346	368.668	186.626	0.00019019	0.0002503	4.2533e-05	163.88	1.495e-06	2.6691e-06	371.1	41.3	4.0047e-07	1.5302e-06	113.33	44.325	12.46	4.0702	6.3141e-07	18.27	8.8459e-05	5.3749e-05	1.4866e-05	140.38	5.4405e-07	5.8105e-07	312.49	35.015	7.3631e-07	6.1712e-07	96.476	37.376	10.443	3.4476	1.0572e-06	15.727	264.871	221.891	257.614	157.180	253.885	270.006	157.422	163.903	333.123	274.816	162.423	167.994	166.744	171.688	166.598	171.634	-8191	255	
18899.098	1	1	0	0	0.24358	0.090009	0.10379	0.11554	0.18313	0.22094	0.070637	0.31398	0.22798	0.085631	0.071921	0.11809	0.4081	0.18594	0.24159	0.16484	-2.3667	-2.8208	-2.5729	-2.7938	-2.8563	-2.6458	-2.8896	-2.6542	-2.8479	-2.7875	-2.5167	-2.775	-2.5854	-2.6146	-2.8333	-2.7604	306.967	187.269	170.930	172.820	371.535	480.195	392.442	170.352	425.426	477.944	458.475	233.352	220.530	494.278	229.690	206.823	0.00018318	0.00015757	5.0455e-05	165.09	2.3072e-06	3.4197e-06	367.51	41.187	1.713e-06	2.4794e-06	113.31	43.571	12.362	3.9675	1.3764e-06	18.623	9.151e-05	5.717e-05	1.4921e-05	139.33	5.4085e-07	5.5526e-07	310.15	34.855	1.2311e-06	5.9396e-07	96.204	37.213	10.464	3.4622	7.4904e-07	15.826	263.704	198.423	209.735	156.470	292.464	281.205	157.800	163.564	259.850	278.688	162.756	167.234	166.838	172.388	294.025	171.299	-8191	255	
18899.191	1	1	0	0	0.19085	0.17671	0.13957	0.10144	0.060596	0.12883	0.16377	0.22016	0.14736	0.27969	0.14324	0.062883	0.088571	0.059062	0.083488	0.17293	-2.1562	-2.875	-2.6667	-2.6646	-2.6521	-2.6729	-2.9188	-2.6333	-2.6688	-3.0062	-2.6333	-2.8063	-2.8229	-2.5667	-2.8771	-2.6292	211.653	192.583	393.091	180.358	420.337	253.178	441.542	272.608	449.365	378.317	212.356	305.176	381.656	476.363	228.801	334.516	0.0001967	3.6837e-05	8.3781e-05	162.81	2.4091e-06	1.3971e-06	367.6	41.424	8.5473e-07	1.3426e-06	114.62	44.157	12.39	4.0884	2.762e-06	18.599	9.4959e-05	5.2334e-05	1.4817e-05	138.69	6.3756e-07	7.2271e-07	310.99	35.238	6.6746e-07	6.1603e-07	96.908	37.725	10.556	3.5055	1.1567e-06	15.944	245.880	364.161	271.203	156.861	293.907	363.694	157.115	162.936	294.625	270.769	162.314	167.922	166.866	172.125	322.404	171.320	-8191	255	
18899.266	1	1	0	0	0.113	0.17153	0.20715	0.31269	0.03636	0.07923	0.15392	0.20369	0.039736	0.20258	0.22871	0.099951	0.070297	0.26861	0.13513	0.12391	-2.2979	-2.9729	-2.5604	-2.9	-3.1521	-2.5646	-2.8083	-2.7604	-2.5875	-3.0083	-2.6521	-2.9042	-2.95	-2.6125	-2.6979	-2.975	254.963	432.518	423.046	228.831	227.375	472.908	251.052	485.839	385.901	282.169	448.784	470.684	287.915	443.310	502.715	244.163	0.00017631	0.00020195	2.2286e-05	162.3	3.0844e-06	7.9193e-07	369.98	42.095	9.9304e-07	1.1439e-06	114.12	44.112	12.378	4.0711	2.1834e-06	18.474	9.1451e-05	5.0329e-05	1.5421e-05	139.39	5.7856e-07	6.0838e-07	311.45	35.248	5.7137e-07	1.1222e-06	96.968	37.85	10.427	3.5015	6.7297e-07	15.744	262.094	236.952	258.270	159.379	309.607	263.592	157.458	163.207	259.697	285.305	162.378	167.747	167.868	172.726	313.684	170.714	-8191	255	
18899.385	1	1	0	0	0.16531	0.081582	0.080157	0.024585	0.023069	0.19018	0.15675	0.33141	0.09901	0.071435	0.074995	0.039414	0.046199	0.21111	0.41357	0.24566	-2.225	-3.0396	-2.4417	-2.825	-3.1104	-2.6708	-3.0438	-2.8292	-2.5229	-3.0417	-2.6937	-2.6646	-3.0208	-2.5375	-2.9958	-2.9417	365.223	381.972	245.554	377.980	248.678	281.093	493.874	420.188	309.727	229.295	366.820	447.302	351.066	327.528	166.377	155.534	0.00018291	0.00010567	1.1045e-05	165.16	1.4884e-06	1.3953e-06	362.66	42.302	1.985e-06	1.197e-06	114.72	43.823	12.521	4.0976	4.1504e-06	18.727	9.2144e-05	5.7347e-05	1.3961e-05	139.68	5.743e-07	5.2771e-07	306.74	35.158	5.7282e-07	7.8074e-07	96.85	37.438	10.494	3.4889	1.2466e-06	15.891	249.376	199.086	194.695	157.105	314.240	297.739	158.354	163.710	325.222	299.746	162.751	167.730	167.401	172.561	273.957	172.452	-8191	255	
18899.480	1	1	0	0	0.11946	0.030265	0.14359	0.03598	0.22759	0.20534	0.16831	0.34496	0.17496	0.34737	0.11007	0.020505	0.23912	0.27396	0.26942	0.26322	-2.125	-2.8458	-2.8375	-2.7562	-2.9625	-2.7687	-2.8042	-2.8354	-2.6188	-2.9917	-2.6458	-2.7542	-2.8292	-2.675	-2.6188	-3.0896	229.392	432.724	208.896	465.221	226.941	467.532	167.083	395.469	393.629	276.525	431.935	244.654	145.097	239.122	273.671	195.477	0.00015624	2.0164e-05	3.495e-05	163.53	7.7746e-07	2.0417e-06	367.15	41.444	1.5398e-06	2.2089e-06	116.02	44.497	12.411	4.1474	9.4564e-07	19.133	8.4671e-05	5.6482e-05	1.6968e-05	138.75	6.2819e-07	6.1778e-07	310.47	35.093	5.9654e-07	1.2345e-06	97.773	37.982	10.604	3.5727	8.4536e-07	16.235	262.195	178.065	165.686	157.837	331.154	276.362	157.645	162.490	287.430	285.263	162.519	167.941	167.023	172.186	324.732	171.055	-8191	255	
18899.576	1	1	0	0	0.21243	0.028368	0.19668	0.21727	0.21438	0.084977	0.14168	0.19232	0.16849	0.091993	0.028198	0.10591	0.094902	0.21061	0.051266	0.21133	-2.1688	-2.9604	-2.7125	-2.5667	-3.0396	-2.7188	-2.9	-2.7792	-2.9021	-2.9604	-2.7438	-2.5958	-2.9375	-2.7062	-2.9188	-2.8833	415.937	399.617	429.930	208.061	359.677	414.183	261.085	431.074	296.926	323.202	455.781	339.465	219.174	146.731	244.136	479.612	0.00018006	0.00014174	1.9548e-05	164.2	2.5043e-06	9.2163e-07	375.45	42.3	5.3576e-07	2.0036e-06	118.05	45.075	12.706	4.3058	2.4229e-06	19.037	9.1495e-05	5.8527e-05	1.423e-05	138.1	1.1428e-06	5.5613e-07	315.52	35.833	5.7386e-07	8.2006e-07	99.143	38.381	10.691	3.6506	1.1222e-06	16.277	260.848	208.942	205.256	157.351	338.419	257.517	157.539	162.377	360.373	452.555	162.491	167.627	166.997	172.126	304.926	171.623	-8191	255	
18899.674	1	1	0	0	0.075172	0.066774	0.048088	0.039347	0.049413	0.33238	0.13959	0.049358	0.19844	0.24407	0.21564	0.18598	0.070426	0.072498	0.12164	0.14881	-2.0396	-2.9083	-2.8417	-2.4562	-2.8979	-2.5812	-2.7958	-2.8438	-2.5708	-2.8875	-2.8583	-2.4625	-2.9229	-2.7208	-2.7812	-2.8354	289.590	400.641	307.005	181.949	228.152	245.876	447.710	291.575	492.175	151.370	446.783	256.248	317.886	177.900	250.575	431.763	0.0001857	0.00014494	2.5194e-05	165.2	2.8195e-06	1.8235e-06	379.75	42.598	8.3851e-07	1.6487e-06	118.47	46.012	13.121	4.3449	1.5101e-06	19.082	9.854e-05	5.0899e-05	1.5893e-05	142	7.4855e-07	6.0554e-07	317.97	36.111	6.6247e-07	1.2478e-06	99.969	39.021	10.906	3.6421	6.4633e-07	16.264	267.236	240.382	254.552	157.991	309.639	282.061	157.851	163.137	322.971	324.914	162.873	168.254	167.513	173.594	365.955	170.870	-8191	255	
18899.795	1	1	0	0	0.10105	0.20559	0.072226	0.094707	0.088773	0.089174	0.077689	0.091392	0.16076	0.043209	0.093095	0.2782	0.27122	0.16197	0.066426	0.082324	-2.1937	-2.75	-2.8729	-2.5458	-3.0542	-2.75	-2.6521	-3.075	-2.7125	-2.7354	-2.7875	-2.3833	-2.7458	-2.7313	-2.6437	-3.0729	400.870	295.104	159.335	413.606	490.578	374.959	385.873	272.718	360.372	361.703	422.987	394.437	195.163	309.491	403.611	429.624	0.00016565	0.0001488	5.7654e-05	169.65	1.0626e-06	1.5128e-06	370.52	42.249	7.6832e-07	2.5128e-06	117.01	45.087	12.852	4.1647	2.191e-06	18.912	9.7435e-05	5.1587e-05	1.4301e-05	140.09	1.1567e-06	6.0969e-07	314.31	35.653	5.2998e-07	8.4125e-07	98.576	38.379	10.776	3.5765	5.9945e-07	16.137	261.405	311.540	255.869	158.103	457.016	235.889	157.761	163.652	276.284	333.141	163.305	167.779	166.656	172.801	297.589	171.202	-8191	255	
18899.865	1	1	0	0	0.29729	0.10976	0.086194	0.50353	0.1465	0.022629	0.19964	0.23375	0.17502	0.1304	0.13833	0.13499	0.27602	0.14168	0.25643	0.19327	-2.2562	-2.7562	-2.7833	-2.7333	-3.0104	-3.0187	-2.6729	-3.0375	-2.8333	-2.7313	-2.8208	-2.5333	-2.8646	-2.8312	-2.7583	-2.9771	348.918	208.029	436.510	411.616	357.213	332.285	454.049	392.323	353.687	362.444	292.162	442.666	181.473	461.048	327.308	454.825	0.00017917	0.00027025	3.0152e-05	167.05	2.8089e-06	1.5526e-06	376.11	42.738	1.5443e-06	3.6287e-06	117.21	44.447	12.565	4.2539	7.3351e-07	18.923	9.3824e-05	5.0564e-05	1.1442e-05	140.73	7.2575e-07	5.4651e-07	316.2	35.962	5.8697e-07	1.2672e-06	98.771	38.313	10.705	3.625	6.4058e-07	16.236	262.263	218.214	295.069	157.972	323.125	320.240	156.470	162.747	295.214	307.788	162.820	167.787	167.129	172.504	233.635	171.756	-8191	255	
18899.961	1	1	0	0	0.12962	0.013109	0.023246	0.20236	0.071989	0.05201	0.13147	0.14139	0.21769	0.34287	0.2163	0.093972	0.22061	0.10682	0.061872	0.11834	-2.2562	-2.7417	-2.8937	-2.4458	-2.7042	-2.9125	-2.6667	-2.8896	-2.6896	-2.7542	-3.0792	-2.7333	-2.9083	-2.9958	-2.5271	-2.825	256.160	323.488	380.797	195.964	499.252	498.824	152.030	210.206	399.264	308.718	357.443	280.253	360.177	271.103	335.048	375.073	0.000186	8.3387e-05	5.5396e-05	169.53	1.32e-07	2.0876e-06	380.17	42.595	1.5731e-06	3.1818e-06	117.08	45.313	12.969	4.2482	3.5073e-06	19.118	9.3013e-05	5.4673e-05	1.5141e-05	141.31	1.2368e-06	5.7318e-07	316.97	36.03	5.6492e-07	7.9057e-07	99.296	38.606	10.97	3.6332	6.3695e-07	16.385	259.056	331.548	227.722	158.490	214.600	304.815	158.071	163.193	304.250	313.488	162.261	168.029	167.561	172.406	301.496	172.405	-8191	255	
18900.082	1	1	0	0	0.20897	0.23759	0.29294	0.20999	0.13644	0.35246	0.12949	0.15444	0.19502	0.14183	0.15616	0.17	0.073511	0.14748	0.31263	0.15477	-2.3167	-2.5375	-2.8646	-2.6625	-2.8083	-3.0708	-2.5854	-2.7917	-2.7604	-2.7583	-2.9271	-2.6125	-2.8979	-2.9583	-2.5646	-2.6625	445.070	318.293	321.612	197.915	217.456	214.751	365.765	301.265	424.943	328.043	313.253	474.732	274.090	489.471	388.464	316.325	0.00017782	0.00030097	4.5076e-05	169.4	2.1739e-06	9.9001e-07	381.6	44.177	6.9399e-07	1.1383e-06	117.76	45.089	13.14	4.2328	1.421e-06	18.898	8.8813e-05	5.6403e-05	1.5487e-05	141.83	7.7198e-07	5.1613e-07	318.88	36.729	5.722e-07	5.5836e-07	100.25	38.459	10.841	3.6252	5.5747e-07	16.172	263.158	263.250	250.068	157.972	313.487	350.395	157.668	163.168	287.329	356.171	161.998	168.160	166.895	172.033	272.240	171.206	-8191	255	
18900.178	1	1	0	0	0.063603	0.17796	0.05921	0.20999	0.050252	0.16851	0.10247	0.05597	0.21118	0.18508	0.23762	0.1764	0.10107	0.046987	0.19365	0.040717	-2.3812	-2.4417	-2.8875	-2.5458	-2.7458	-2.9562	-2.5812	-2.9271	-2.8167	-2.6729	-2.8042	-2.7	-2.725	-2.8667	-2.6208	-2.8292	383.647	182.532	317.393	158.572	459.134	345.911	490.935	481.711	486.748	458.893	357.026	427.244	236.887	320.627	240.318	298.948	0.00019777	0.00012885	8.1073e-05	169.97	1.7276e-06	1.164e-06	373.1	42.456	9.7292e-07	8.0888e-07	116.79	44.775	12.425	4.2364	6.1678e-07	19.031	8.8076e-05	5.8939e-05	1.4696e-05	142.05	1.109e-06	5.5089e-07	315.54	35.695	5.9903e-07	5.7889e-07	98.744	38.142	10.636	3.6017	5.7686e-07	16.269	260.838	327.961	228.494	156.527	412.599	336.713	157.698	163.051	336.519	313.414	162.180	168.202	168.423	171.745	247.730	171.351	-8191	255	
18900.273	1	1	0	0	0.11398	0.10457	0.15788	0.15093	0.15494	0.1096	0.12097	0.11314	0.10773	0.14636	0.19003	0.15836	0.13317	0.068818	0.21872	0.14159	-2.3438	-2.5812	-2.8812	-2.7917	-2.7083	-3.0208	-2.6688	-2.8146	-2.7146	-2.6188	-2.8333	-2.7375	-2.7125	-2.9188	-2.8042	-2.7958	162.410	427.574	242.680	417.704	435.097	433.352	179.182	254.495	258.472	339.520	179.835	297.571	190.822	345.324	377.765	147.413	0.00020399	0.00012689	5.7836e-05	163.8	2.3535e-06	1.0905e-06	372.32	43.379	9.9015e-07	3.1063e-06	116.25	45.294	12.954	4.3862	8.7181e-07	18.953	9.1333e-05	6.1082e-05	1.4515e-05	139.6	7.3065e-07	7.308e-07	315.14	36.167	5.9882e-07	5.7256e-07	99.984	38.611	10.865	3.702	6.003e-07	16.326	263.494	175.514	192.348	157.622	328.574	262.838	157.519	163.611	273.454	286.616	162.009	168.283	166.511	172.477	322.781	171.686	-8191	255	
18900.393	1	1	0	0	0.16854	0.054451	0.091554	0.30635	0.24084	0.047375	0.10774	0.23491	0.19734	0.21041	0.23095	0.13674	0.1227	0.29061	0.089949	0.12565	-2.4271	-2.4021	-2.9813	-2.8792	-2.6208	-2.9833	-2.8021	-2.8375	-2.7542	-2.65	-2.9375	-2.7438	-2.5583	-3.0125	-2.8104	-2.8583	267.687	168.805	414.391	287.861	245.531	405.891	284.573	326.487	375.884	258.750	358.239	431.377	266.584	287.133	362.951	411.884	0.00019127	0.00012239	4.9427e-05	169.77	1.4989e-06	1.5758e-06	377.96	43.067	1.3246e-06	1.8374e-06	117.4	45.216	13.105	4.3007	1.1597e-06	19.413	9.4354e-05	5.6698e-05	1.5218e-05	141.72	5.9517e-07	1.1505e-06	318.47	36.476	6.5041e-07	5.8413e-07	99.98	38.665	11.079	3.6544	6.6274e-07	16.549	261.460	237.256	233.353	157.126	327.590	368.948	157.001	163.593	338.396	331.776	163.026	168.007	167.046	172.478	344.837	171.618	-8191	255	
18900.488	1	1	0	0	0.057431	0.088471	0.17142	0.12393	0.081176	0.13235	0.1101	0.042451	0.1693	0.2507	0.084197	0.21123	0.03312	0.22486	0.14755	0.07133	-2.6042	-2.6167	-2.7521	-2.7396	-2.7292	-2.8688	-2.8792	-2.8625	-3.0229	-2.5812	-3.0229	-2.8729	-2.6167	-2.9167	-2.7021	-2.7604	233.330	186.447	229.798	340.584	359.531	290.527	184.662	216.758	225.562	324.297	362.356	411.816	330.783	364.415	465.820	364.582	0.00018655	0.0001045	3.739e-06	171.79	1.5401e-06	1.5101e-06	376.65	43.432	9.379e-07	4.3486e-07	117.88	45.831	12.918	4.2441	2.4772e-06	19.144	8.7781e-05	5.6502e-05	1.5152e-05	143.41	6.0945e-07	7.966e-07	319.05	36.708	5.5369e-07	5.7518e-07	100.46	38.899	10.927	3.6144	6.8213e-07	16.338	263.980	257.453	240.086	158.175	461.440	396.421	157.555	163.133	375.849	404.273	162.703	168.218	167.557	171.602	289.866	171.149	-8191	255	
18900.561	1	1	0	0	0.30599	0.049353	0.2786	0.059198	0.077126	0.10191	0.14921	0.15205	0.081674	0.10487	0.18489	0.21034	0.065393	0.053044	0.052765	0.22081	-2.6562	-2.6083	-2.9375	-2.9417	-2.6521	-3.0771	-2.8125	-2.5062	-3.0187	-2.6375	-2.7938	-2.8375	-2.5479	-2.9167	-2.8771	-2.7354	389.867	157.290	390.120	403.420	356.084	378.270	485.389	327.158	157.576	212.322	262.454	446.430	431.882	417.564	356.739	195.446	0.00017437	0.00014658	6.9641e-05	168.68	1.5301e-06	2.7438e-06	373.02	43.272	1.9287e-06	1.4089e-06	116.4	44.534	12.5	4.2163	8.4699e-07	18.798	9.9469e-05	5.7209e-05	1.5289e-05	143.05	5.9986e-07	1.2587e-06	315.79	36.295	6.1213e-07	6.7938e-07	98.468	38.189	10.812	3.5623	5.6791e-07	16.045	256.433	276.495	266.598	158.958	231.390	359.011	157.615	162.101	251.509	277.300	162.846	167.980	165.879	171.278	302.011	171.636	-8191	255	
18900.682	1	1	0	0	0.27062	0.02335	0.29462	0.28572	0.056315	0.14633	0.054304	0.068255	0.15478	0.10434	0.31116	0.063256	0.18273	0.12419	0.28657	0.24377	-2.5625	-2.7188	-2.8312	-2.8917	-2.6583	-2.8417	-2.6896	-2.7396	-2.9417	-2.5125	-2.9333	-2.9021	-2.6125	-2.7625	-2.8229	-2.7375	426.474	368.917	210.515	459.872	328.105	145.777	476.300	200.755	442.486	341.646	463.576	322.828	415.303	389.210	221.518	250.164	0.00019538	0.00024769	3.2737e-05	168.34	1.9031e-06	3.5778e-06	379.64	43.448	1.0636e-06	1.9194e-06	118.34	45.708	12.85	4.0571	2.5809e-06	19.117	0.00014511	5.4103e-05	1.6452e-05	140.82	6.3969e-07	8.119e-07	317.63	36.314	7.0199e-07	6.0489e-07	99.703	38.86	10.974	3.5712	6.5848e-07	16.438	265.615	203.033	482.705	156.979	350.480	300.226	157.895	162.401	321.831	282.643	162.659	167.212	166.225	172.103	287.828	171.259	-8191	255	
18900.777	1	1	0	0	0.062671	0.05549	0.24041	0.10473	0.16237	0.05777	0.047006	0.16843	0.08589	0.11477	0.32794	0.29697	0.034797	0.23054	0.13737	0.041687	-2.5438	-2.8125	-2.7438	-3.0458	-2.6167	-2.7458	-2.8208	-2.5187	-2.9021	-2.8667	-2.6063	-3.0062	-2.7542	-2.9167	-2.875	-2.575	203.072	253.986	260.663	354.862	284.484	261.021	334.610	370.256	197.119	284.852	317.511	446.321	410.350	465.216	482.651	301.555	0.00018364	0.00019611	2.8271e-05	170.84	2.1012e-06	8.9163e-07	380.51	43.84	1.5916e-06	2.7722e-06	119.34	46.043	13.202	4.3514	1.7567e-06	19.514	0.00010031	6.47e-05	1.772e-05	143.06	5.9666e-07	1.3062e-06	320.06	37.092	7.5212e-07	5.6644e-07	100.17	39.226	11.108	3.7028	6.3951e-07	16.538	262.200	242.294	200.247	158.397	304.451	195.484	157.299	163.039	317.930	345.971	161.900	167.307	167.081	171.700	289.337	171.591	-8191	255	
18900.873	1	1	0	0	0.029062	0.066686	0.19801	0.12067	0.075828	0.071004	0.063422	0.062793	0.13544	0.12701	0.11489	0.25344	0.066261	0.12433	0.1096	0.13127	-2.6292	-2.6021	-2.7146	-2.7979	-2.6688	-2.8542	-2.8625	-2.3708	-2.6958	-2.7938	-2.6479	-2.9583	-2.7396	-2.5812	-2.9479	-2.5938	378.013	369.274	189.447	254.016	278.056	304.087	174.551	492.269	226.264	285.589	428.553	200.655	370.898	318.204	494.059	428.971	0.00017831	0.00015038	1.0766e-05	170.3	2.5762e-06	2.4057e-07	380.75	43.266	4.3142e-07	3.9504e-06	119.25	45.592	13.354	4.2821	6.0923e-07	19.277	0.00014654	5.9628e-05	1.8357e-05	142.94	7.3087e-07	8.6393e-07	320.33	36.747	7.23e-07	6.394e-07	101.1	39.102	11.16	3.686	6.6487e-07	16.489	262.821	286.901	161.861	158.042	343.227	416.333	157.479	163.014	339.272	283.737	162.222	167.732	167.482	172.624	439.793	170.776	-8191	255	
18900.971	1	1	0	0	0.083716	0.10225	0.26209	0.035725	0.19532	0.15846	0.1159	0.30088	0.27298	0.024065	0.076809	0.1867	0.21001	0.071229	0.10268	0.29246	-2.6292	-2.675	-2.4708	-2.95	-2.7188	-2.7417	-2.9813	-2.6146	-2.8812	-2.7542	-2.6167	-3.1292	-2.7042	-2.7208	-3.1875	-2.5167	361.702	403.271	377.789	191.000	391.494	171.464	422.195	411.126	193.383	314.276	308.785	272.317	479.100	356.502	204.632	150.431	0.00018616	0.00015811	2.1441e-05	167.87	1.7547e-06	2.9628e-06	371.74	42.997	1.6793e-06	1.7406e-06	118.04	45.576	13.087	4.2404	1.685e-06	18.929	0.00010361	5.2314e-05	1.5904e-05	142.71	6.9252e-07	1.1442e-06	312.75	36.189	5.9321e-07	5.8501e-07	99.165	38.742	10.984	3.6032	6.898e-07	16.225	255.896	285.488	185.325	157.356	340.625	335.521	157.390	163.149	314.718	340.526	161.853	167.941	167.808	171.312	330.918	171.614	-8191	255	
18901.092	1	1	0	0	0.12473	0.15941	0.023375	0.068763	0.16724	0.22235	0.30045	0.29204	0.17704	0.13576	0.036603	0.056776	0.10277	0.26977	0.16906	0.17309	-2.4271	-2.7396	-2.5667	-3	-2.6854	-2.7229	-2.9625	-2.8021	-2.9562	-2.7729	-2.375	-2.9896	-2.8229	-2.6437	-2.8396	-2.6312	377.781	358.988	460.862	158.769	472.416	162.637	445.563	208.806	399.160	155.005	328.645	355.972	212.485	448.642	169.678	485.936	0.00019906	0.00033109	3.6314e-05	168.8	2.7878e-06	1.8793e-06	369.2	42.795	9.7215e-07	1.7856e-06	117.17	45.051	13.038	4.1793	1.3413e-06	18.957	0.0001414	5.6561e-05	1.5712e-05	140.69	6.3991e-07	6.7899e-07	314.25	36.026	6.1754e-07	6.1952e-07	99.13	38.713	10.924	3.6079	6.3845e-07	16.271	265.348	215.264	193.076	157.240	357.847	252.734	157.224	162.560	357.213	440.021	162.440	167.891	167.795	170.920	275.861	171.750	-8191	255	
18901.162	1	1	0	0	0.037542	0.21447	0.1695	0.23133	0.11848	0.12412	0.34111	0.22662	0.04105	0.17829	0.30038	0.3111	0.070923	0.069048	0.2523	0.079277	-2.4771	-2.7812	-2.6188	-2.9813	-2.8521	-2.6979	-3.0667	-2.5125	-2.8312	-3.0042	-2.6312	-3.0104	-2.7354	-2.4583	-2.9188	-2.8854	187.960	495.601	410.876	338.717	178.658	343.949	451.293	387.687	228.422	224.787	325.472	189.988	501.954	225.481	281.254	184.224	0.00016273	0.00030158	9.9639e-05	160.5	1.53e-06	7.3511e-07	373.66	43.618	6.3349e-07	2.1716e-06	116.46	45.8	13.307	4.2516	1.7709e-06	19.242	0.00010676	6.8592e-05	1.8785e-05	138.23	5.9347e-07	7.0456e-07	315.28	36.166	6.6205e-07	7.1651e-07	99.844	38.634	11.162	3.676	6.2822e-07	16.38	263.325	293.796	305.651	156.707	342.952	369.961	157.288	162.786	189.289	254.800	162.813	167.895	168.240	172.163	238.238	170.675	-8191	255	
18901.260	1	1	0	0	0.12306	0.22968	0.061696	0.13728	0.12923	0.31401	0.14918	0.1087	0.17832	0.20868	0.2337	0.15279	0.33345	0.046363	0.28971	0.067015	-2.4208	-2.9417	-2.6333	-3.0187	-2.8583	-2.6437	-3.1625	-2.8	-2.7604	-3.0708	-2.6937	-3.1125	-2.9458	-2.6958	-2.9375	-2.9354	458.319	255.806	500.133	365.967	443.390	324.663	166.721	237.369	166.652	282.498	460.227	425.950	442.823	347.100	197.571	356.956	0.00017274	0.00016511	3.5529e-05	166.4	1.7724e-07	2.9378e-06	378.58	44.056	6.8378e-07	1.2315e-06	118.01	45.962	13.175	4.3128	1.1914e-06	19.203	0.0001321	6.1102e-05	1.7155e-05	141.69	6.0242e-07	7.2905e-07	316.5	36.959	6.4729e-07	6.11e-07	100.19	39.161	11.03	3.6982	6.2609e-07	16.472	269.189	203.364	214.023	156.475	261.704	302.331	157.531	163.589	290.209	281.411	162.925	167.530	167.744	172.493	310.338	171.322	-8191	255	
18901.355	1	1	0	0	0.21031	0.13848	0.20357	0.13746	0.056284	0.20028	0.24064	0.14337	0.2139	0.11376	0.19413	0.12639	0.083722	0.38844	0.088504	0.25682	-2.4667	-3.0792	-2.6021	-2.9125	-3.1042	-2.7	-2.9188	-2.7562	-2.75	-3.05	-2.675	-2.6729	-3.05	-2.725	-3.0979	-2.7104	443.001	277.894	448.578	152.339	359.132	484.964	423.431	427.119	463.722	452.208	415.876	422.917	393.614	463.750	394.747	467.176	0.00019767	0.0001748	2.9555e-05	166.55	2.2249e-06	4.7381e-07	370.49	42.485	1.2114e-06	2.0274e-06	116.37	44.703	13.031	4.2101	1.5326e-06	18.9	9.4517e-05	6.9044e-05	1.6699e-05	138.83	5.8559e-07	6.1056e-07	314.07	36.042	6.7225e-07	5.5377e-07	98.517	38.279	10.894	3.6003	6.8597e-07	16.167	260.188	229.635	256.682	157.432	302.943	336.674	156.886	162.604	495.405	335.975	161.585	166.883	166.813	171.245	267.520	171.553	-8191	255	
18901.475	1	1	0	0	0.14916	0.11385	0.13209	0.079625	0.19719	0.16671	0.42761	0.1852	0.25601	0.13893	0.17559	0.043366	0.19507	0.098177	0.11721	0.049136	-2.2562	-2.8292	-2.6229	-2.7479	-3.0125	-2.5833	-2.9	-2.9292	-2.6542	-3.0542	-2.8542	-2.8167	-2.9792	-2.675	-2.8333	-2.9396	294.385	272.369	418.935	302.027	228.287	343.270	371.357	492.520	310.047	255.382	223.207	181.219	399.891	486.975	483.017	413.550	0.00018481	0.000254	5.7206e-05	166.68	3.1112e-06	2.7671e-06	374.94	42.967	7.1888e-07	5.1087e-07	116.1	45.657	13.423	4.2785	2.1781e-06	19.38	9.5946e-05	0.00011804	1.738e-05	140.47	7.4706e-07	7.1418e-07	316.35	36.368	6.8764e-07	7.2984e-07	98.959	38.909	11.23	3.6826	7.2177e-07	16.534	261.517	266.229	246.459	157.921	341.872	324.462	157.471	162.321	309.121	193.064	163.504	167.741	167.579	171.835	259.140	171.221	-8191	255	
18901.570	1	1	0	0	0.11439	0.17991	0.071278	0.12589	0.094757	0.14585	0.3197	0.19784	0.2758	0.1817	0.29492	0.19677	0.28969	0.17366	0.23393	0.32373	-2.2729	-2.9146	-2.7667	-2.7042	-3.0146	-2.7333	-2.9146	-2.7667	-2.725	-2.9583	-2.7125	-2.7313	-2.8708	-2.5771	-2.8604	-2.9229	249.328	181.373	477.779	411.514	457.597	366.661	427.624	322.441	200.727	294.731	416.592	433.230	469.872	308.573	370.197	360.654	0.00019558	8.6962e-05	4.893e-05	168.8	7.3749e-07	7.5053e-07	373.21	43.311	7.8631e-07	1.5905e-06	117.41	46.687	13.222	4.3455	1.4053e-06	19.409	0.00010043	8.0722e-05	1.7226e-05	141.47	6.3522e-07	7.6009e-07	315.18	36.753	6.97e-07	7.1913e-07	99.839	39.283	11.264	3.7242	5.922e-07	16.638	263.614	305.427	188.348	158.008	274.119	321.488	157.095	162.878	462.742	335.406	162.578	167.148	167.067	172.065	284.937	171.455	-8191	255	
18901.666	1	1	0	0	0.21803	0.013534	0.31874	0.13688	0.099597	0.40416	0.268	0.26259	0.1316	0.074546	0.16671	0.23395	0.24656	0.35855	0.18562	0.15471	-2.1542	-2.7896	-2.7271	-2.6937	-2.9896	-2.75	-2.9208	-2.8646	-2.5854	-3.0792	-2.7625	-2.7771	-3.1208	-2.6063	-2.9	-2.9938	178.542	371.357	203.908	267.351	271.252	474.760	310.635	253.849	269.602	247.785	428.450	386.101	466.507	385.785	457.567	255.248	0.00018717	8.9817e-05	1.0153e-05	165.25	2.1734e-06	1.314e-06	372.81	43.237	2.8327e-06	1.45e-06	117.24	45.452	12.858	4.2862	8.1455e-07	19.312	8.9977e-05	0.00013093	1.6815e-05	139.05	7.4706e-07	7.2183e-07	312.69	36.616	8.0432e-07	6.7239e-07	99.5	38.917	11.085	3.6658	7.0344e-07	16.358	262.162	147.555	198.769	157.843	278.343	164.810	158.084	162.997	335.712	304.673	162.002	167.634	166.388	172.103	362.950	171.566	-8191	255	
18901.762	1	1	0	0	0.090683	0.25348	0.12767	0.070933	0.1985	0.085175	0.19655	0.10669	0.026684	0.28	0.11841	0.078461	0.30399	0.11089	0.31999	0.030175	-2.0896	-2.6583	-2.6	-2.5896	-2.9979	-2.5438	-2.8688	-2.8312	-2.6979	-2.9042	-2.9292	-2.5917	-2.6688	-2.5646	-2.7083	-2.9583	269.429	234.833	153.135	482.565	255.722	317.979	294.618	396.660	425.168	493.075	235.816	405.806	462.157	249.018	393.721	285.601	0.00016605	2.9886e-05	4.5663e-05	166.42	1.8503e-06	2.2078e-06	363.85	42.638	2.0527e-06	7.3069e-07	115.65	44.732	12.673	4.196	1.204e-06	18.654	0.00010109	7.3763e-05	1.7901e-05	139.58	6.3778e-07	6.8489e-07	308	35.799	7.2612e-07	6.8549e-07	97.277	38.102	10.837	3.5753	6.6743e-07	15.958	251.975	149.396	220.056	157.997	209.809	238.127	157.399	163.222	306.531	311.163	162.903	167.887	166.042	172.332	339.388	171.684	-8191	255	
18901.857	1	1	0	0	0.17644	0.20526	0.10621	0.13674	0.14429	0.1778	0.13891	0.041709	0.22274	0.15275	0.23531	0.04892	0.45037	0.19347	0.15617	0.042555	-2.225	-2.7396	-2.6771	-2.4958	-2.8792	-2.9271	-2.6625	-3.0354	-2.4979	-2.8563	-2.9083	-2.6104	-2.9417	-2.8063	-2.8292	-3.0625	256.628	147.844	440.316	327.001	362.076	214.585	215.850	233.653	263.788	470.656	181.146	238.006	480.846	416.636	411.940	321.654	0.00018319	9.4716e-05	6.5196e-05	165.25	1.3008e-06	2.6669e-06	367.35	42.239	3.1526e-06	2.6206e-06	114.9	44.406	12.683	4.1703	2.1693e-07	18.719	9.1304e-05	0.00010827	1.7281e-05	137.97	7.2639e-07	6.827e-07	308.49	35.584	7.0469e-07	7.5802e-07	97.296	38.112	10.904	3.5608	6.5571e-07	16.004	260.680	334.898	276.723	157.845	265.746	304.456	157.493	162.856	302.817	319.378	162.487	168.159	166.792	172.505	383.309	170.834	-8191	255	
18901.953	1	1	0	0	0.33461	0.17347	0.16874	0.20353	0.26792	0.096023	0.1517	0.30152	0.1307	0.1105	0.1541	0.11335	0.25082	0.14946	0.31056	0.12912	-2.2	-2.7292	-2.9083	-2.4854	-2.8875	-2.7833	-2.7417	-3.0208	-2.5854	-2.95	-2.9938	-2.5271	-2.8854	-2.8396	-2.4958	-2.8937	330.162	303.670	250.262	180.425	249.953	183.828	425.432	370.574	205.157	270.299	379.643	281.560	180.435	371.714	158.244	426.606	0.00017193	0.0001085	4.5861e-05	162.92	3.1308e-07	5.3772e-07	364.93	42.631	1.0791e-06	2.8654e-07	116.33	44.849	12.597	4.2413	3.6875e-07	18.529	9.4104e-05	8.3494e-05	1.6891e-05	136.53	6.7399e-07	6.4751e-07	308.28	35.975	7.1655e-07	6.4989e-07	97.786	38.092	10.733	3.6081	7.109e-07	15.939	263.740	242.886	186.066	156.656	305.031	219.879	157.410	163.940	373.020	384.856	162.823	167.921	167.645	172.621	414.119	170.827	-8191	255	
18902.074	1	1	0	0	0.060154	0.0082954	0.023885	0.13984	0.25647	0.28523	0.10029	0.057166	0.0733	0.15998	0.11478	0.11477	0.23301	0.119	0.17286	0.14059	-2.3375	-2.7188	-2.8417	-2.7271	-2.8646	-2.9271	-2.5833	-2.9688	-2.6437	-2.8417	-3.0625	-2.6292	-2.7896	-2.8542	-2.7542	-3.0563	154.402	400.220	466.047	332.806	243.636	234.048	497.700	474.425	498.658	354.565	476.203	417.349	466.531	150.116	303.004	392.126	0.00021097	0.0001152	3.7205e-05	161.03	1.3116e-06	1.8056e-06	365.85	41.644	8.8004e-07	1.8296e-06	116.84	45.303	13.193	4.253	1.5481e-06	18.675	0.00010175	0.00010534	1.873e-05	136.01	7.445e-07	6.2149e-07	308.28	35.553	7.1946e-07	7.3683e-07	98.03	38.196	10.995	3.6018	7.7547e-07	16.03	258.748	377.273	249.049	157.739	302.322	306.067	157.324	163.210	265.287	317.216	162.475	167.798	167.729	171.558	258.285	172.003	-8191	255	
#DATA ENDS
