BOXY.EXE: ISS Imagent and Oximeter Data Acquisition Program Version 0.80
Ascii Record File

#ACQ INFORMATION
2  Detector Channels 
16  External MUX Channels 
1  Auxiliary Channels 
5000  Waveform (CCF) Frequency (Hz)
1  Waveforms Skipped 
30  Waveforms Averaged 
1  Cycles Averaged 
16  Acquisitions per Waveform 
10.0806  Updata Rate (Hz) 

#FILE INFORMATION
TRUE -- External MUX Channel results are PARSED.
FALSE -- AC DC and Phase are NOT grouped.
TRUE -- Companion Program Settings File CREATED.
FALSE -- AC data not excluded
FALSE -- DC data not excluded
FALSE -- Phase data not excluded
FALSE -- Auxillary Chn. data not excluded
Tab delimiters

#CALIBRATION STATE
TRUE -- Waveform Calibration Values APPLIED.


#AUX CALIBRATION VALUES
Val Type	aux-1	

Term	1.0000e+00	
Factor	0.0000e+00	


#WF CALIBRATION VALUES
A = Detector Channel
Val Type	A-AC1	A-AC2	A-AC3	A-AC4	A-AC5	A-AC6	A-AC7	A-AC8	A-AC9	A-AC10	A-AC11	A-AC12	A-AC13	A-AC14	A-AC15	A-AC16	A-DC1	A-DC2	A-DC3	A-DC4	A-DC5	A-DC6	A-DC7	A-DC8	A-DC9	A-DC10	A-DC11	A-DC12	A-DC13	A-DC14	A-DC15	A-DC16	A-Ph1	A-Ph2	A-Ph3	A-Ph4	A-Ph5	A-Ph6	A-Ph7	A-Ph8	A-Ph9	A-Ph10	A-Ph11	A-Ph12	A-Ph13	A-Ph14	A-Ph15	A-Ph16	

Term	0.00000e+00	0.00000e+00	0.00000e+00	0.00000e+00	0.00000e+00	0.00000e+00	0.00000e+00	0.00000e+00	0.00000e+00	0.00000e+00	0.00000e+00	0.00000e+00	0.00000e+00	0.00000e+00	0.00000e+00	0.00000e+00	0.00000e+00	0.00000e+00	0.00000e+00	0.00000e+00	0.00000e+00	0.00000e+00	0.00000e+00	0.00000e+00	0.00000e+00	0.00000e+00	0.00000e+00	0.00000e+00	0.00000e+00	0.00000e+00	0.00000e+00	0.00000e+00	0.00000e+00	0.00000e+00	0.00000e+00	0.00000e+00	0.00000e+00	0.00000e+00	0.00000e+00	0.00000e+00	0.00000e+00	0.00000e+00	0.00000e+00	0.00000e+00	0.00000e+00	0.00000e+00	0.00000e+00	0.00000e+00	
Factor	1.00000e+00	1.00000e+00	1.00000e+00	1.00000e+00	1.00000e+00	1.00000e+00	1.00000e+00	1.00000e+00	1.00000e+00	1.00000e+00	1.00000e+00	1.00000e+00	1.00000e+00	1.00000e+00	1.00000e+00	1.00000e+00	1.00000e+00	1.00000e+00	1.00000e+00	1.00000e+00	1.00000e+00	1.00000e+00	1.00000e+00	1.00000e+00	1.00000e+00	1.00000e+00	1.00000e+00	1.00000e+00	1.00000e+00	1.00000e+00	1.00000e+00	1.00000e+00	X	X	X	X	X	X	X	X	X	X	X	X	X	X	X	X	

B = Detector Channel
Val Type	B-AC1	B-AC2	B-AC3	B-AC4	B-AC5	B-AC6	B-AC7	B-AC8	B-AC9	B-AC10	B-AC11	B-AC12	B-AC13	B-AC14	B-AC15	B-AC16	B-DC1	B-DC2	B-DC3	B-DC4	B-DC5	B-DC6	B-DC7	B-DC8	B-DC9	B-DC10	B-DC11	B-DC12	B-DC13	B-DC14	B-DC15	B-DC16	B-Ph1	B-Ph2	B-Ph3	B-Ph4	B-Ph5	B-Ph6	B-Ph7	B-Ph8	B-Ph9	B-Ph10	B-Ph11	B-Ph12	B-Ph13	B-Ph14	B-Ph15	B-Ph16	

Term	0.00000e+00	0.00000e+00	0.00000e+00	0.00000e+00	0.00000e+00	0.00000e+00	0.00000e+00	0.00000e+00	0.00000e+00	0.00000e+00	0.00000e+00	0.00000e+00	0.00000e+00	0.00000e+00	0.00000e+00	0.00000e+00	0.00000e+00	0.00000e+00	0.00000e+00	0.00000e+00	0.00000e+00	0.00000e+00	0.00000e+00	0.00000e+00	0.00000e+00	0.00000e+00	0.00000e+00	0.00000e+00	0.00000e+00	0.00000e+00	0.00000e+00	0.00000e+00	-1.65095e+02	-1.36760e+02	-1.28228e+02	-1.79802e+02	-7.58801e+01	-8.06562e+01	-1.58085e+02	-1.62015e+02	-8.34201e+01	-6.02352e+01	-1.69977e+02	-1.71992e+02	-1.83057e+02	-1.76155e+02	-6.30896e+01	-1.48803e+02	
Factor	2.68855e-05	1.33963e-04	4.06587e-05	1.73064e-01	1.18092e-06	1.38058e-06	1.79830e-01	6.39379e-02	1.39152e-06	1.46583e-06	8.33553e-02	3.13931e-02	2.72019e-02	8.97484e-03	1.12261e-06	1.30680e-02	1.59552e-06	1.68252e-06	4.69401e-07	8.55044e-02	1.82819e-08	1.84544e-08	8.38191e-02	3.15264e-02	1.83315e-08	1.84551e-08	3.98753e-02	1.49757e-02	1.33735e-02	4.44832e-03	1.83795e-08	6.25309e-03	X	X	X	X	X	X	X	X	X	X	X	X	X	X	X	X	



#DISTANCE SETTINGS
A = Detector Channel
A-1	A-2	A-3	A-4	A-5	A-6	A-7	A-8	A-9	A-10	A-11	A-12	A-13	A-14	A-15	A-16	

2.5000e+00	3.0000e+00	2.5000e+00	3.0000e+00	2.0000e+00	3.0000e+00	1.5000e+00	3.0000e+00	3.0000e+00	3.0000e+00	3.0000e+00	3.0000e+00	3.0000e+00	3.0000e+00	1.5000e+00	3.0000e+00	

B = Detector Channel
B-1	B-2	B-3	B-4	B-5	B-6	B-7	B-8	B-9	B-10	B-11	B-12	B-13	B-14	B-15	B-16	

1.0000e+01	1.0000e+01	1.0000e+01	1.4400e+00	1.0000e+01	1.0000e+01	1.5100e+00	1.9400e+00	1.0000e+01	1.0000e+01	1.9900e+00	2.4900e+00	2.4100e+00	2.9000e+00	1.0000e+01	2.9800e+00	




#DATA BEGINS
time	group	step	mark	flag	A-AC1	A-AC2	A-AC3	A-AC4	A-AC5	A-AC6	A-AC7	A-AC8	A-AC9	A-AC10	A-AC11	A-AC12	A-AC13	A-AC14	A-AC15	A-AC16	A-DC1	A-DC2	A-DC3	A-DC4	A-DC5	A-DC6	A-DC7	A-DC8	A-DC9	A-DC10	A-DC11	A-DC12	A-DC13	A-DC14	A-DC15	A-DC16	A-Ph1	A-Ph2	A-Ph3	A-Ph4	A-Ph5	A-Ph6	A-Ph7	A-Ph8	A-Ph9	A-Ph10	A-Ph11	A-Ph12	A-Ph13	A-Ph14	A-Ph15	A-Ph16	B-AC1	B-AC2	B-AC3	B-AC4	B-AC5	B-AC6	B-AC7	B-AC8	B-AC9	B-AC10	B-AC11	B-AC12	B-AC13	B-AC14	B-AC15	B-AC16	B-DC1	B-DC2	B-DC3	B-DC4	B-DC5	B-DC6	B-DC7	B-DC8	B-DC9	B-DC10	B-DC11	B-DC12	B-DC13	B-DC14	B-DC15	B-DC16	B-Ph1	B-Ph2	B-Ph3	B-Ph4	B-Ph5	B-Ph6	B-Ph7	B-Ph8	B-Ph9	B-Ph10	B-Ph11	B-Ph12	B-Ph13	B-Ph14	B-Ph15	B-Ph16	aux-1	digaux	

2194.939	1	1	0	256	0.11741	0.097966	0.099438	0.17772	0.19289	0.044174	0.2014	0.12315	0.087741	0.055196	0.11199	0.069362	0.12918	0.18772	0.22352	0.45368	-2.775	-3.5583	-3.0708	-3.5896	-3.6729	-3.1583	-3.7396	-3.3292	-3.2562	-3.6688	-3.3333	-3.7188	-3.5396	-3.2396	-3.575	-3.4625	52.475	43.240	201.005	199.717	99.859	-56.008	206.634	234.963	121.752	20.697	175.999	72.150	8.126	263.772	-65.341	226.241	0.00033586	0.00054752	9.5186e-05	631.95	4.5503e-06	5.1137e-06	892.85	218.11	2.9772e-06	4.761e-06	383.01	153.47	79.941	40.089	3.5786e-06	81.99	0.00015105	0.00011231	3.6328e-05	573.59	1.373e-06	1.2621e-06	808.15	197.45	1.3566e-06	1.2e-06	343.1	138.58	72.511	36.131	1.4529e-06	73.803	159.123	-17.458	-12.238	-76.245	26.157	41.866	-75.849	-69.804	35.355	27.181	-70.740	-66.736	-65.448	-60.517	52.835	-62.362	-8191	255	
2195.035	1	1	0	0	0.15333	0.22867	0.10068	0.19691	0.043182	0.27372	0.15647	0.18154	0.13995	0.34787	0.057219	0.18174	0.051852	0.15617	0.24221	0.098922	-2.9854	-3.5125	-3.2083	-3.3688	-3.3729	-3.1917	-3.6208	-3.5083	-3.3417	-3.5625	-3.3542	-3.4292	-3.5479	-3.4125	-3.475	-3.4271	128.938	40.994	63.897	-84.114	-16.293	-24.524	76.007	45.615	50.465	156.008	26.893	233.055	-85.129	-82.831	-49.959	28.699	0.00038663	0.00016933	0.0001349	636.9	2.0628e-06	1.9874e-06	896.26	219.48	6.4788e-06	3.5622e-06	381.82	153.39	80.409	40.017	5.4018e-06	82.284	0.00014339	0.00010915	3.7491e-05	574.32	1.2608e-06	1.2124e-06	811.63	197.7	1.2542e-06	1.2033e-06	343.07	138.62	72.839	36.203	1.4084e-06	74.074	149.655	25.008	-22.661	-76.165	33.012	89.467	-75.579	-70.102	23.064	92.932	-71.080	-66.418	-65.786	-60.893	39.149	-62.559	-8191	255	
2195.155	1	1	0	0	0.11208	0.12093	0.069701	0.23676	0.044887	0.044752	0.017824	0.26852	0.087853	0.16134	0.2312	0.25215	0.1513	0.1321	0.15278	0.27732	-2.875	-3.5187	-3.3083	-3.4437	-3.5208	-3.1896	-3.675	-3.4042	-2.8896	-3.7792	-3.2438	-3.3708	-3.6562	-3.2792	-3.4125	-3.4062	-76.415	251.843	63.724	-13.570	214.953	122.846	13.118	219.686	40.539	238.696	222.313	198.329	270.879	103.572	-87.010	165.145	0.00036862	0.00032105	0.00017406	638.39	3.1616e-06	5.4447e-06	888.99	219.73	1.9955e-06	2.3223e-06	381.73	153.13	80.458	40.111	5.3336e-06	81.858	0.00013072	0.0001054	3.4133e-05	575.39	1.1191e-06	1.1965e-06	807.3	198.34	1.1666e-06	1.1667e-06	342.27	138.2	72.594	36.241	1.2853e-06	73.716	138.654	-20.854	-3.661	-76.129	6.733	69.027	-75.551	-69.863	67.482	80.567	-70.645	-66.788	-66.038	-61.084	60.390	-62.621	-8191	255	
2195.251	1	1	0	0	0.14517	0.076435	0.026987	0.17235	0.012783	0.24572	0.019958	0.26406	0.091753	0.17839	0.12754	0.17536	0.058247	0.13007	0.21031	0.095683	-2.8646	-3.5542	-3.4104	-3.1854	-3.525	-3.3625	-3.5375	-3.4417	-3.1479	-3.325	-3.4146	-3.1792	-3.7229	-3.2979	-3.15	-3.6354	193.725	94.516	56.837	-50.993	236.462	-67.459	-46.616	269.928	-2.999	-72.011	198.914	155.693	120.770	-74.759	-83.734	248.843	0.00037056	0.00060108	0.00012923	643.53	2.0183e-06	3.2207e-06	892.6	222.71	4.1465e-06	3.1016e-06	386.59	155.66	82.766	41.448	3.298e-06	84.97	0.00012106	0.000106	3.222e-05	576.53	1.0061e-06	1.2256e-06	810.02	200.48	1.0666e-06	1.1756e-06	346.58	140.6	74.736	37.539	1.1212e-06	76.171	143.319	24.542	40.074	-76.006	78.118	71.545	-75.807	-70.009	58.517	69.795	-70.596	-66.831	-65.760	-60.952	45.590	-62.767	-8191	255	
2195.348	1	1	0	0	0.11404	0.18739	0.11355	0.12659	0.17231	0.076151	0.19173	0.15824	0.24061	0.031203	0.33395	0.07168	0.14377	0.23695	0.20043	0.12328	-2.7104	-3.3167	-3.3083	-3.1437	-3.4979	-3.2354	-3.4062	-3.5104	-3.0479	-3.7167	-3.6833	-3.3688	-3.6292	-3.3438	-3.2875	-3.7271	146.845	262.156	104.227	94.991	80.159	37.905	82.871	215.575	-72.142	-72.069	183.178	212.767	-74.627	227.098	230.648	222.436	0.00042029	0.00026217	0.00020831	649.85	3.8571e-06	7.0182e-06	914.23	231.09	8.8735e-07	4.7859e-06	403.41	165.98	88.655	45.111	2.4968e-06	90.831	0.00011991	0.00010089	2.6874e-05	583.85	9.6048e-07	1.1354e-06	821.79	208.78	9.8169e-07	1.074e-06	361.47	149.3	80.548	40.665	9.9284e-07	81.515	152.909	-4.080	21.857	-76.011	80.112	5.530	-75.863	-70.038	37.940	86.352	-70.897	-66.641	-66.597	-61.076	79.166	-62.997	-8191	255	
2195.419	1	1	0	0	0.10134	0.054566	0.10365	0.23563	0.13785	0.07472	0.14293	0.24545	0.31466	0.17865	0.25759	0.2457	0.11227	0.34746	0.10809	0.14493	-2.7667	-3.4375	-3.4562	-3.1979	-3.45	-3.3	-3.3229	-3.6854	-3.075	-3.5083	-3.6458	-3.3812	-3.7	-3.4708	-3.3187	-3.9417	90.626	253.534	124.391	46.770	34.187	-16.198	237.519	168.627	242.893	-83.122	222.036	-47.584	61.792	-77.909	201.728	187.165	0.00048794	0.00040124	0.00017434	669.66	3.2039e-06	5.2875e-06	936.24	249.09	4.0904e-06	4.0482e-06	430.36	178.7	97.817	49.829	5.1616e-06	98.477	0.00011781	9.5045e-05	2.3334e-05	602.84	9.6901e-07	1.0556e-06	847.32	224.27	9.6607e-07	9.6505e-07	385.3	160.98	88.366	44.97	8.7226e-07	88.255	142.311	-37.211	-0.928	-75.951	27.237	36.681	-75.723	-70.251	-4.001	39.118	-70.945	-67.002	-65.990	-61.350	79.641	-63.171	-8191	255	
2195.538	1	1	0	0	0.040006	0.19412	0.16379	0.048843	0.037743	0.30048	0.13927	0.17922	0.18292	0.07	0.16027	0.20194	0.1848	0.14943	0.16991	0.11844	-2.8104	-3.2646	-3.5917	-3.1437	-3.4625	-3.425	-3.4354	-3.7333	-3.3438	-3.1708	-3.6583	-3.2896	-3.5917	-3.675	-3.1792	-3.8688	210.159	141.307	-76.446	59.804	179.802	65.004	50.228	245.419	-42.995	132.406	224.201	243.694	-86.023	235.668	-17.290	194.097	0.00045304	0.00054648	0.00018196	701.78	2.3946e-06	6.3708e-06	964.41	270.06	6.1283e-06	6.8919e-06	456.06	190.8	107.24	54.688	3.2976e-06	105.19	0.00011963	8.4886e-05	2.1377e-05	631.17	9.5629e-07	8.8035e-07	872.26	242.16	9.7707e-07	8.7469e-07	408.46	172.36	96.559	49.419	8.5587e-07	94.863	144.870	8.109	20.122	-75.988	40.754	57.635	-75.759	-70.291	37.903	42.912	-70.815	-67.382	-66.427	-61.603	58.799	-63.188	-8191	255	
2195.634	1	1	0	0	0.051978	0.12696	0.073512	0.12332	0.2477	0.081834	0.14145	0.24844	0.29602	0.24189	0.071861	0.28483	0.11708	0.11826	0.12613	0.31917	-2.8333	-3.2333	-3.5417	-3.1125	-3.6583	-3.5271	-3.2542	-3.5854	-3.3937	-3.0958	-3.7979	-3.3042	-3.5083	-3.7083	-3.2104	-3.7479	155.875	240.655	190.902	271.118	183.234	194.205	182.101	240.157	229.687	27.943	240.133	243.220	213.949	253.799	89.662	224.833	0.00047168	0.00077817	0.00018634	734.73	5.271e-06	3.95e-06	993.93	285.95	8.4001e-06	6.8427e-06	477.84	202.32	113.87	58.436	2.8613e-06	111.66	0.00012463	7.9306e-05	1.9883e-05	656.96	9.6075e-07	8.7816e-07	896.09	258.04	1.0184e-06	8.8642e-07	428.37	182.04	102.73	52.869	8.36e-07	100.48	147.736	2.595	-3.316	-75.744	53.784	52.060	-75.629	-70.006	32.533	73.981	-70.886	-67.213	-66.270	-61.580	35.386	-63.226	-8191	255	
2195.730	1	1	0	0	0.059912	0.14465	0.12431	0.080875	0.067206	0.12594	0.13787	0.11158	0.23215	0.042581	0.10114	0.1669	0.41161	0.015339	0.15855	0.38664	-2.9542	-3.3146	-3.6125	-3.3979	-3.4583	-3.6729	-3.0979	-3.5062	-3.3396	-3.1208	-3.7375	-3.4188	-3.4917	-3.6562	-2.9875	-3.6312	76.072	214.676	209.153	153.284	17.992	162.013	223.846	-5.949	213.765	224.960	175.679	221.082	151.589	271.327	-62.566	219.888	0.00046975	0.0008046	0.00017967	748.12	3.1164e-06	7.4592e-06	1005.2	293.03	3.9588e-06	5.6796e-06	485.46	205.04	114.51	58.671	2.6594e-06	111.94	0.00012392	7.9555e-05	1.9988e-05	672.32	9.4734e-07	8.4375e-07	910.69	263.79	9.5148e-07	8.4782e-07	433.65	184.97	102.88	53.005	8.2539e-07	100.36	151.785	3.956	-3.448	-75.731	67.270	57.374	-75.511	-70.290	47.396	72.036	-70.919	-67.473	-66.399	-61.940	77.433	-63.471	-8191	255	
2195.827	1	1	0	0	0.056181	0.096593	0.10628	0.15579	0.1174	0.21038	0.074896	0.25139	0.086006	0.12996	0.19183	0.22163	0.06839	0.21021	0.3707	0.25443	-3.0146	-3.2229	-3.4354	-3.4062	-3.325	-3.5729	-3.3625	-3.6146	-3.4854	-3.0771	-3.8104	-3.1958	-3.4104	-3.9313	-2.9354	-3.6771	185.508	259.217	207.349	111.617	89.257	-38.980	201.426	-79.288	59.045	74.135	191.280	-71.234	19.099	248.847	-0.091	-77.015	0.00050998	0.00054192	0.00018173	723.73	4.2135e-06	7.1959e-06	983.67	273.22	4.4464e-06	3.6568e-06	455.75	191.18	103.28	53.234	2.8321e-06	104.14	0.00011753	7.3536e-05	1.9647e-05	652.12	8.3262e-07	7.4514e-07	885.14	244.91	8.3851e-07	7.6946e-07	407.27	172.32	93.003	48.017	8.2987e-07	93.485	151.354	0.796	-1.274	-75.823	67.132	57.588	-75.594	-70.045	19.295	47.435	-71.121	-67.015	-66.165	-61.389	52.497	-63.203	-8191	255	
2195.947	1	1	0	0	0.1538	0.16992	0.11891	0.32559	0.1261	0.164	0.15992	0.20844	0.043858	0.052354	0.24636	0.3666	0.038713	0.033993	0.0942	0.25076	-2.8604	-3.0479	-3.4479	-3.3333	-3.3583	-3.6625	-3.375	-3.4542	-3.5396	-3.2646	-3.7583	-3.4708	-3.3125	-3.6958	-3.1979	-3.525	61.057	-76.424	-12.560	228.535	121.619	218.302	138.978	202.270	72.320	-48.836	221.560	-72.252	71.580	214.363	80.953	239.222	0.00052936	0.00058328	0.00013552	701.68	8.1576e-07	4.4967e-06	962.02	262.43	5.3828e-06	5.5936e-06	446.32	186.59	101.12	51.912	4.5275e-06	102.08	0.00010453	6.5352e-05	1.9387e-05	630.09	7.7641e-07	6.8466e-07	868.85	236.74	7.7031e-07	6.9368e-07	399.32	167.85	90.887	46.806	8.2716e-07	91.318	149.643	-10.497	3.593	-75.712	19.446	59.048	-75.503	-70.031	36.152	60.342	-70.722	-66.827	-66.209	-61.194	91.958	-63.025	-8191	255	
2196.019	1	1	0	0	0.18384	0.052492	0.14052	0.22805	0.17043	0.1579	0.40654	0.25318	0.1242	0.32734	0.14648	0.31934	0.13539	0.14092	0.12966	0.18705	-3.275	-3.0938	-3.3063	-3.5104	-3.3396	-3.45	-3.3771	-3.5021	-3.4167	-3.1	-3.7021	-3.4562	-3.1104	-3.8229	-3.3625	-3.3625	48.999	-85.591	75.850	240.572	111.850	-6.627	138.765	265.807	78.144	239.309	7.908	254.694	-68.118	-78.128	180.709	102.397	0.00047856	0.00045401	0.00014826	694.25	5.2138e-06	5.0617e-06	962.56	254.84	5.7596e-06	4.5758e-06	436.51	181.96	97.969	50.216	3.646e-06	100.4	9.7955e-05	6.1535e-05	2.0185e-05	624.19	7.2373e-07	6.3668e-07	864	228.91	7.0061e-07	6.838e-07	390.59	163.87	88.191	45.369	8.1865e-07	90.087	149.244	16.368	29.908	-75.719	51.680	40.869	-75.778	-70.217	19.341	82.136	-70.805	-66.932	-66.325	-61.126	58.653	-62.923	-8191	255	
2196.140	1	1	0	0	0.083001	0.15147	0.12072	0.1882	0.048633	0.054379	0.19572	0.28327	0.20215	0.10016	0.010936	0.25651	0.12837	0.25448	0.052147	0.16139	-3.2979	-3.1833	-3.3958	-3.6271	-3.1375	-3.5021	-3.4792	-3.2896	-3.6813	-3.2417	-3.4396	-3.5979	-3.4083	-3.6792	-3.4604	-3.3396	136.341	107.214	249.972	210.697	280.506	114.221	149.977	239.084	66.744	-31.002	-32.396	218.802	137.089	242.581	-16.418	-63.919	0.00044696	0.00032754	0.00023673	693.11	4.9919e-06	3.9931e-06	956.83	246.87	4.6746e-06	4.1062e-06	379.95	158.77	83.292	43.068	3.4797e-06	85.886	9.477e-05	6.5446e-05	2.0053e-05	620.74	6.9342e-07	6.8116e-07	864.93	224.15	5.7977e-07	6.3789e-07	345.04	144.83	76.523	39.326	7.0256e-07	78.425	154.737	-29.455	2.837	284.098	51.331	41.146	284.535	-54.889	47.941	80.916	-69.095	-65.631	-64.454	-59.852	75.677	-61.459	-8191	255	
2196.236	1	1	0	0	0.13638	0.07059	0.050651	0.28297	0.12574	0.10462	0.10817	0.30046	0.19515	0.18549	0.15674	0.31696	0.059623	0.1494	0.27286	0.11138	-3.2687	-3.0438	-3.3438	-3.4875	-3.1292	-3.5458	-3.6083	-3.2562	-3.5542	-3.4625	-3.4583	-3.8229	-3.1979	-3.8146	-3.6792	-3.1688	71.292	247.655	167.668	246.375	-19.557	49.252	191.639	-60.328	115.289	1.631	246.674	194.845	-44.397	97.012	98.747	238.022	0.00039301	0.00051573	0.00015359	589.8	2.6036e-06	4.1175e-06	828.88	215.76	3.375e-06	5.3122e-06	371.07	154.46	80.547	41.629	3.9268e-06	83.216	8.0823e-05	6.1959e-05	1.7677e-05	541.29	6.041e-07	6.4844e-07	759.93	196.87	6.0093e-07	6.9368e-07	337.32	141.21	73.905	38.087	6.864e-07	76.719	145.664	14.129	23.898	-74.688	48.496	42.183	-74.324	-68.551	48.501	93.273	-68.996	-65.107	-64.444	-59.646	80.290	-51.830	-8191	255	
2196.332	1	1	0	0	0.20229	0.063338	0.11777	0.10198	0.067966	0.1646	0.38458	0.28705	0.07928	0.22096	0.26844	0.29175	0.085313	0.087393	0.078446	0.44929	-3.2042	-3.2042	-3.3979	-3.6583	-3.0833	-3.3792	-3.5375	-3.1292	-3.4958	-3.1063	-3.3771	-3.9188	-3.2875	-3.8063	-3.4958	-3.325	6.042	-19.337	187.768	-74.488	227.403	92.266	150.797	-33.640	-85.213	-61.111	135.613	-68.169	188.582	260.144	182.017	259.714	0.00038903	0.00052608	9.2499e-05	511.54	2.5684e-06	3.6478e-06	712.09	182.58	3.291e-06	2.8882e-06	316.08	129.15	67.854	34.36	1.5413e-06	68.834	7.2483e-05	5.6866e-05	1.4429e-05	473.3	5.5817e-07	6.3399e-07	664.85	170.03	5.7477e-07	6.4385e-07	292.01	120.04	62.798	31.959	5.6498e-07	64.016	131.790	1.904	2.216	-73.246	42.085	45.577	-72.878	-67.310	67.573	55.915	-67.867	-63.872	-62.884	-58.179	78.829	-59.836	-8191	255	
2196.428	1	1	0	0	0.1364	0.054541	0.17722	0.27473	0.24522	0.061449	0.036049	0.18014	0.10101	0.17558	0.21327	0.041131	0.25044	0.15638	0.16625	0.17039	-3.2313	-3.2896	-3.1625	-3.5333	-3.1646	-3.2854	-3.4437	-3.3438	-3.6042	-3.4604	-3.3979	-3.7771	-3.3042	-3.3792	-3.4854	-3.2646	-68.812	58.379	-9.824	236.258	94.242	232.299	91.569	41.793	-13.571	-3.617	-54.502	97.309	195.125	64.063	181.551	236.011	0.0003635	0.00052276	0.00013431	501.19	1.9936e-06	4.3001e-06	708.27	176.14	7.7601e-07	3.0518e-06	308.75	125.32	65.405	32.545	2.8092e-06	66.747	7.5362e-05	5.5881e-05	1.4282e-05	467.48	5.8376e-07	6.0035e-07	660.04	163.73	5.8787e-07	6.004e-07	284.31	115.76	60.594	30.346	5.6774e-07	61.912	143.796	-11.775	28.718	-73.083	91.738	58.706	-73.103	-66.883	146.984	60.137	-67.929	-63.871	-63.017	-58.119	37.105	-60.360	-8191	255	
2196.547	1	1	0	0	0.37147	0.22148	0.20849	0.18147	0.20733	0.056858	0.33961	0.15102	0.14952	0.13313	0.37066	0.10436	0.14862	0.11458	0.18726	0.19593	-3.0271	-3.4271	-3.2292	-3.6604	-3.2708	-3.2313	-3.6063	-3.2854	-3.4188	-3.5354	-3.2333	-3.6375	-3.3229	-3.2667	-3.6771	-3.2458	194.792	265.695	-35.077	174.099	182.732	209.779	224.745	-66.830	218.414	217.273	256.168	-62.222	237.412	-80.004	14.590	159.773	0.00028935	0.0001743	9.8158e-05	498.17	2.724e-06	5.5863e-06	704.68	173.46	3.1422e-06	2.5277e-06	301.91	121.72	62.874	31.396	3.0309e-06	65.137	7.8277e-05	5.6673e-05	1.4218e-05	463.34	6.2406e-07	5.8927e-07	656.76	161.2	6.4328e-07	5.5607e-07	279.58	113.16	58.609	29.291	5.0639e-07	60.24	138.173	-27.703	1.876	-73.151	47.394	44.465	-73.083	-67.461	41.284	93.077	-67.775	-63.898	-63.017	-57.964	92.313	-59.950	-8191	255	
2196.643	1	1	0	0	0.35812	0.13494	0.27502	0.11263	0.20589	0.18454	0.30197	0.11617	0.091833	0.26818	0.16558	0.1841	0.23283	0.22262	0.19688	0.2269	-2.9542	-3.3646	-3.1542	-3.5208	-3.2146	-3.5375	-3.6292	-3.1917	-3.3937	-3.4021	-3.2458	-3.5896	-3.3917	-3.2875	-3.5125	-3.3167	212.246	33.210	-68.520	226.781	163.498	164.652	226.280	77.711	-66.479	148.354	-17.751	235.853	248.667	235.378	-32.496	240.475	0.00029723	0.00033297	0.0001192	494.17	2.3003e-06	2.5028e-06	701.27	169.62	3.7267e-06	3.0947e-06	294.23	117.72	59.952	29.724	2.9683e-06	62.079	8.0158e-05	5.0651e-05	1.4211e-05	459.15	6.3465e-07	5.7132e-07	652.59	157.31	6.1059e-07	5.3031e-07	271.66	108.98	56.046	27.759	5.2255e-07	57.355	146.069	6.160	-16.393	-73.227	70.312	60.531	-73.285	-67.400	42.888	67.247	-67.762	-63.753	-62.722	-58.222	69.001	-59.840	-8191	255	
2196.715	1	1	0	0	0.10746	0.21769	0.2188	0.16418	0.073749	0.10897	0.2446	0.11699	0.077038	0.12534	0.2874	0.048469	0.18634	0.29467	0.046803	0.2155	-3.0458	-3.4854	-3.2208	-3.6625	-3.4479	-3.3646	-3.7708	-3.1354	-3.2812	-3.5146	-3.2104	-3.5771	-3.4271	-3.2667	-3.4938	-3.2646	74.070	53.717	-4.287	241.675	156.032	190.502	209.790	252.034	209.258	130.722	253.970	5.925	-37.823	-70.920	0.182	-54.389	0.00025867	0.0003104	8.3131e-05	490.8	3.5031e-06	2.826e-06	692.69	164.25	3.6618e-06	5.4151e-06	286.22	113.32	57.981	28.677	1.5717e-06	59.589	7.6319e-05	4.9873e-05	1.3506e-05	454.63	5.9466e-07	5.426e-07	643.6	152.31	5.7561e-07	5.1816e-07	264.06	105.22	53.972	26.521	5.2466e-07	55.177	147.018	-18.280	-4.530	-73.222	64.258	34.670	-73.292	-66.924	46.534	62.376	-68.051	-63.767	-62.997	-57.799	73.177	-59.678	-8191	255	
2196.811	1	1	0	0	0.086766	0.12525	0.17508	0.27946	0.14536	0.18555	0.14237	0.10285	0.28201	0.13771	0.13114	0.12547	0.034751	0.17049	0.052894	0.084736	-3.0458	-3.5687	-3.2208	-3.5938	-3.2375	-3.3292	-3.7792	-3.4354	-3.2458	-3.6562	-3.1396	-3.4771	-3.5417	-3.0667	-3.6104	-3.6375	47.990	119.825	15.840	234.883	127.552	125.402	156.958	-46.433	33.807	-55.577	149.678	-44.062	270.181	240.369	252.317	125.414	0.00025264	0.00039397	8.9758e-05	487.68	2.1931e-06	2.6994e-06	687.17	160.39	2.7326e-06	1.7984e-06	282.61	111.9	56.901	28.058	1.9816e-06	58.9	7.2317e-05	4.6844e-05	1.3125e-05	450.77	5.5508e-07	5.0615e-07	639.43	149.25	5.7958e-07	4.6395e-07	261.1	103.65	53.051	26.094	5.5242e-07	54.618	141.805	-26.063	5.247	-73.164	79.475	58.595	-73.374	-67.417	45.883	66.578	-67.700	-63.803	-62.823	-57.758	84.803	-59.843	-8191	255	
2196.931	1	1	0	0	0.16849	0.11332	0.26876	0.13472	0.16659	0.20694	0.093329	0.12489	0.19092	0.23057	0.055951	0.17212	0.092976	0.12388	0.18033	0.24996	-2.7792	-3.5896	-3.2458	-3.3792	-3.4854	-3.2396	-3.6063	-3.4167	-3.2333	-3.6958	-3.4542	-3.5042	-3.3312	-3.3271	-3.4333	-3.3979	218.059	75.266	-11.276	236.363	-68.842	63.051	211.997	159.019	128.274	217.272	259.739	-60.323	15.950	253.632	115.543	171.604	0.00025953	0.00022504	6.8611e-05	483.88	2.3195e-06	2.1398e-06	687.06	159.09	2.2954e-06	1.1016e-06	277.59	109.1	55.55	27.122	2.9718e-06	57.485	7.0655e-05	4.5347e-05	1.4227e-05	447.42	5.2119e-07	4.7067e-07	639.67	147.23	5.6064e-07	4.7157e-07	257.57	101.4	51.493	25.119	5.9354e-07	53.365	133.540	11.498	-76.255	-73.516	77.568	47.134	-73.599	-67.092	40.911	121.815	-67.786	-63.544	-62.440	-57.600	72.421	-59.718	-8191	255	
2197.028	1	1	0	0	0.1286	0.20449	0.13653	0.17297	0.071118	0.13679	0.16203	0.10267	0.062106	0.038135	0.069588	0.12679	0.080737	0.22967	0.071906	0.11671	-2.5958	-3.5042	-3.2167	-3.475	-3.4479	-3.4375	-3.7271	-3.4917	-3.2729	-3.4667	-3.5458	-3.5354	-3.6396	-3.3229	-3.3292	-3.3604	74.557	32.477	-4.308	-56.105	100.806	189.195	104.373	241.039	-31.218	54.095	6.793	225.881	167.688	250.149	187.470	197.891	0.00030615	0.00026252	5.6035e-05	482.4	3.2081e-06	1.8921e-06	682.98	156.66	2.2647e-06	8.9478e-07	278.88	108.36	54.876	26.536	1.935e-06	56.745	7.1303e-05	4.5814e-05	1.5639e-05	445.87	5.3162e-07	5.2207e-07	638.12	146.37	5.5216e-07	5.0932e-07	257.82	100.72	51.132	24.794	6.5339e-07	52.625	143.529	0.634	-16.464	-73.630	86.351	50.093	-73.271	-67.357	26.957	73.617	-67.870	-63.594	-62.528	-57.434	82.425	-59.520	-8191	255	
2197.124	1	1	0	0	0.042941	0.070504	0.12967	0.11004	0.15306	0.30649	0.13537	0.34883	0.15375	0.124	0.15065	0.21242	0.11326	0.18626	0.22382	0.095574	-2.8688	-3.5917	-3.1479	-3.4604	-3.5375	-2.9188	-3.5687	-3.6479	-3.0729	-3.7417	-3.4375	-3.3104	-3.5375	-3.2812	-3.5979	-3.5812	141.813	200.920	-62.161	161.559	-36.097	107.932	230.245	242.946	-69.931	-32.291	150.807	236.386	241.770	170.469	-2.167	122.393	0.0003033	0.00044007	7.5864e-05	479.56	2.2419e-06	2.2202e-06	685.64	154.8	3.2292e-06	3.2469e-06	273.11	104.83	52.883	25.367	2.6887e-06	54.841	7.1659e-05	5.3809e-05	1.7235e-05	446.79	5.5672e-07	6.0707e-07	639.56	144.37	6.0864e-07	6.3566e-07	253.16	97.66	49.291	23.688	7.3304e-07	50.635	146.963	20.663	-0.825	-73.368	53.537	35.421	-73.027	-67.228	87.893	59.453	-67.515	-63.621	-62.859	-57.489	123.096	-59.330	-8191	255	
2197.220	1	1	0	0	0.13115	0.059403	0.14897	0.23213	0.036704	0.16502	0.11846	0.11878	0.073476	0.050329	0.22654	0.15519	0.06944	0.17466	0.090282	0.097832	-2.6542	-3.4896	-3.3104	-3.1688	-3.4958	-3.2562	-3.2708	-3.5896	-3.1021	-3.3958	-3.5667	-3.25	-3.6021	-3.2021	-3.3771	-3.725	160.907	224.719	-53.259	183.195	-13.287	-40.667	251.771	-0.374	60.569	99.482	219.596	208.610	129.887	219.805	46.598	254.568	0.00024801	0.00018471	0.00012089	481.6	9.3701e-07	2.7876e-06	685.25	151.1	3.7452e-06	2.6526e-06	269.78	101.3	50.663	23.772	1.5147e-06	52.365	7.7619e-05	6.6232e-05	1.9009e-05	446.63	6.2326e-07	7.8854e-07	639.11	141.05	7.6412e-07	8.4247e-07	247.98	94.059	47.301	22.323	8.2555e-07	48.504	145.977	30.704	-28.273	-73.133	56.059	78.761	-73.281	-67.617	40.170	85.524	-67.898	-63.316	-62.966	-57.045	4.030	-59.366	-8191	255	
2197.316	1	1	0	0	0.1263	0.15888	0.27988	0.22605	0.10248	0.073058	0.17248	0.16059	0.12	0.061961	0.18082	0.027861	0.096314	0.044343	0.083896	0.14759	-2.6021	-3.3688	-3.3146	-3.2625	-3.55	-3.2292	-3.4667	-3.6646	-3.1583	-3.6437	-3.5896	-3.0417	-3.6188	-3.3708	-3.225	-3.6375	46.852	62.600	84.035	-53.739	73.291	245.371	231.792	-25.646	70.144	-75.844	175.111	242.198	85.262	115.766	117.697	193.255	0.00024321	0.00019152	6.8217e-05	478.56	2.3425e-06	4.0818e-06	682.92	149.66	4.2e-06	3.7367e-06	264.44	99.704	49.655	23.215	2.4324e-06	51.361	8.7025e-05	8.1932e-05	2.0424e-05	444.78	7.5801e-07	9.0096e-07	635.15	139.46	8.2083e-07	8.6585e-07	244.79	92.535	46.433	21.755	8.0793e-07	47.511	148.538	48.029	8.039	-73.344	57.860	93.257	-73.298	-67.122	3.684	55.360	-67.706	-63.460	-62.338	-57.471	129.454	-58.824	-8191	255	
2197.412	1	1	0	0	0.12671	0.22256	0.11657	0.16474	0.27195	0.02817	0.16336	0.16013	0.08745	0.13748	0.20894	0.15501	0.17027	0.33714	0.15174	0.17928	-2.8021	-3.3688	-3.5062	-3.1958	-3.425	-3.5125	-3.1729	-3.6229	-3.2354	-3.5	-3.4396	-3.1771	-3.4021	-3.525	-3.0833	-3.5875	183.651	197.972	220.203	241.498	-74.582	109.650	246.642	255.449	212.382	192.857	273.194	226.363	138.155	-70.541	254.090	179.380	0.00024555	0.0002267	2.8984e-05	480.02	1.8964e-06	3.5204e-06	673.89	147.88	3.0312e-06	1.0222e-06	262.09	97.253	48.913	22.739	2.8938e-06	49.85	8.9329e-05	7.8118e-05	1.9242e-05	443.73	8.0276e-07	8.2657e-07	631.66	137.98	8.7587e-07	8.8369e-07	241.54	91.087	45.849	21.301	7.9982e-07	46.158	147.073	1.283	47.748	-73.620	119.915	71.864	-73.087	-67.263	16.140	132.144	-67.934	-63.238	-62.311	-57.364	89.316	-59.269	-8191	255	
2197.508	1	1	0	0	0.20291	0.12666	0.08475	0.13304	0.082856	0.037092	0.13493	0.18877	0.063946	0.13156	0.12889	0.25349	0.26778	0.098575	0.10255	0.13337	-2.8083	-3.1312	-3.45	-3.2125	-3.3312	-3.4188	-3.3417	-3.6396	-3.2354	-3.2438	-3.5021	-3.1771	-3.5125	-3.2958	-3.0417	-3.7375	85.532	41.420	20.765	242.131	118.384	15.139	157.470	-65.602	-76.652	-39.900	-70.889	-22.839	241.501	135.905	-8.096	137.753	0.00020149	0.00037032	0.0001158	468.22	1.9956e-06	2.8916e-06	666.2	146.56	1.2442e-06	1.8903e-06	256.93	95.815	48.6	22.617	1.5516e-06	49.3	9.6306e-05	7.5899e-05	1.8775e-05	435.95	8.308e-07	7.7624e-07	620.28	136.45	8.6655e-07	7.9184e-07	237.29	89.357	45.235	21.011	7.1535e-07	45.733	145.989	22.281	16.969	-73.377	54.010	60.652	-73.434	-67.506	58.082	47.863	-67.792	-63.539	-62.576	-57.428	57.827	-59.486	-8191	255	
2197.627	1	1	0	0	0.30715	0.1212	0.17038	0.20923	0.11825	0.074776	0.17856	0.062891	0.17353	0.10738	0.27374	0.19384	0.15955	0.11713	0.2262	0.15693	-2.8854	-3.3333	-3.5062	-3.1604	-3.4938	-3.4583	-3.2104	-3.625	-3.1854	-3.2479	-3.6896	-3.2917	-3.3042	-3.4875	-3.1688	-3.6083	167.022	130.760	172.929	188.733	196.203	144.421	202.894	240.986	91.817	-31.317	123.399	221.210	9.702	106.601	229.497	212.680	0.00022948	0.00022511	0.00017838	468.23	3.1569e-06	3.4271e-06	661.13	146.33	3.1785e-06	3.2006e-06	258.69	97.219	48.717	23.155	6.6225e-07	50.806	8.9512e-05	6.5198e-05	1.64e-05	433.51	7.7123e-07	6.6982e-07	616.08	135.95	7.2177e-07	6.4908e-07	238.88	90.562	45.96	21.629	5.7589e-07	46.926	141.119	-72.117	-13.312	-73.567	53.503	50.831	-73.169	-67.197	1.869	68.380	-67.829	-63.235	-62.764	-57.451	99.184	-59.365	-8191	255	
2197.723	1	1	0	0	0.12596	0.26053	0.082928	0.14253	0.048614	0.14675	0.23047	0.14642	0.18603	0.075868	0.19687	0.19437	0.15166	0.030688	0.25523	0.10001	-2.8458	-3.3542	-3.5167	-3.2062	-3.35	-3.5625	-3.2625	-3.5021	-3.2479	-3.2542	-3.6562	-3.1167	-3.2938	-3.5208	-2.9938	-3.5875	133.591	273.497	237.148	268.415	-49.038	72.398	-45.094	90.060	-81.630	-39.368	229.388	4.628	-5.406	149.123	-26.263	-26.262	0.00024909	0.00020776	7.2536e-05	466.89	2.3931e-06	2.3822e-06	659.01	147.78	9.6077e-07	3.8128e-06	260.2	98.326	49.507	23.457	1.5809e-06	50.943	7.6834e-05	5.5944e-05	1.3726e-05	433.76	6.34e-07	5.534e-07	616.53	137.23	6.1926e-07	5.5861e-07	240.29	91.82	46.346	21.865	5.515e-07	47.306	153.791	-29.979	15.180	-73.615	82.573	22.403	-73.472	-67.120	23.249	82.756	-67.785	-63.348	-62.487	-57.572	65.576	-59.242	-8191	255	
2197.820	1	1	0	0	0.16361	0.14695	0.078945	0.050739	0.20793	0.17492	0.12737	0.18717	0.1691	0.086921	0.019716	0.14036	0.19952	0.15835	0.11772	0.037048	-3.1021	-3.2646	-3.5563	-3.2188	-3.2792	-3.6354	-3.2083	-3.5979	-3.4125	-2.9938	-3.7	-3.4271	-3.175	-3.5979	-3.2	-3.3292	231.002	203.709	273.624	193.762	92.072	-24.920	-45.354	26.148	-53.214	33.224	157.726	122.363	271.940	215.998	244.125	189.115	0.0002298	0.00044273	8.1605e-05	464.76	3.3666e-06	2.6617e-06	660.77	148.38	4.5105e-06	5.39e-06	258.23	99.413	50.346	24.048	2.9135e-06	51.6	6.8574e-05	5.0314e-05	1.3535e-05	431.04	5.5836e-07	4.7597e-07	614.46	137.73	5.6293e-07	5.0501e-07	240.25	92.285	46.96	22.413	5.7984e-07	47.879	147.992	-23.294	15.673	-73.419	54.749	18.550	-73.188	-67.613	-7.946	74.346	-68.004	-63.663	-62.758	-57.775	59.403	-59.666	-8191	255	
2197.940	1	1	0	0	0.12052	0.2833	0.14243	0.30153	0.11102	0.11443	0.021935	0.12616	0.086268	0.17705	0.11421	0.11196	0.038553	0.20339	0.1418	0.083108	-3.1312	-3.075	-3.5938	-3.3063	-3.2979	-3.5667	-3.2479	-3.375	-3.4292	-3.2708	-3.5563	-3.4083	-3.2062	-3.6979	-3.1792	-3.5146	-46.344	-85.012	212.829	-65.949	224.390	-53.946	211.942	8.600	101.348	-11.612	177.925	200.709	246.200	-28.295	125.914	-61.125	0.00020884	6.8207e-05	9.6173e-05	462.29	9.9521e-07	2.5371e-06	655.36	147.73	8.9884e-07	2.6279e-06	257.36	98.087	49.79	23.777	8.8158e-07	50.903	6.634e-05	4.5617e-05	1.3744e-05	428.82	5.4731e-07	4.8404e-07	607.38	136.72	5.3979e-07	4.8252e-07	238.17	91.321	46.423	22.182	6.0744e-07	47.258	153.001	39.237	34.621	-73.246	70.155	-8.906	-73.372	-67.304	101.645	87.294	-68.058	-63.820	-63.030	-57.792	117.266	-59.444	-8191	255	
2198.012	1	1	0	0	0.16161	0.098441	0.26851	0.19116	0.18191	0.15817	0.086176	0.21628	0.20839	0.12248	0.33969	0.11622	0.16959	0.053782	0.080267	0.17507	-3.1104	-3.1646	-3.4833	-3.5208	-3.1562	-3.7042	-3.3146	-3.3167	-3.6625	-3.1562	-3.4208	-3.275	-3.125	-3.6063	-3.2271	-3.3708	145.041	2.243	207.898	-10.146	60.952	165.059	-79.472	114.263	210.360	9.357	64.805	269.308	-50.720	272.225	55.688	178.706	0.0002643	0.00022743	5.2299e-05	456.49	1.6196e-06	3.2509e-06	640.11	141.17	1.3778e-06	3.5585e-06	246.37	92.285	46.096	21.955	1.6622e-06	48.249	6.6151e-05	4.7731e-05	1.574e-05	423.59	5.7378e-07	5.3706e-07	595.57	131.04	5.585e-07	5.9767e-07	226.95	85.978	43.028	20.492	7.1653e-07	44.732	146.290	-3.879	79.725	-73.364	66.700	61.152	-73.098	-67.300	58.355	90.116	-67.912	-63.306	-62.730	-57.282	68.583	-59.637	-8191	255	
2198.108	1	1	0	0	0.12934	0.12673	0.22529	0.10046	0.21655	0.15611	0.15273	0.21278	0.16985	0.12575	0.10453	0.020975	0.16158	0.11221	0.023481	0.15764	-3.2625	-3.25	-3.3688	-3.4271	-3.3021	-3.4958	-3.3917	-3.1396	-3.6792	-3.2438	-3.5021	-3.575	-3.1917	-3.4521	-3.3	-3.2062	84.747	232.322	-69.605	195.552	9.013	143.412	271.784	80.471	49.095	-28.333	-53.633	-15.727	-17.274	213.719	129.229	125.801	0.00022734	0.00035805	9.9622e-05	443.79	1.9235e-06	1.7564e-06	632.05	137.75	2.8853e-06	1.645e-06	243.38	92.373	46.102	22.16	1.404e-06	48.996	6.9232e-05	5.5821e-05	1.779e-05	412.48	5.8936e-07	6.2826e-07	586.36	127.72	5.85e-07	6.6746e-07	224.24	86.262	43.129	20.745	7.0267e-07	45.219	150.306	7.162	-4.473	-73.388	50.999	6.516	-73.024	-67.027	67.292	33.574	-68.017	-63.478	-62.773	-57.842	70.329	-59.793	-8191	255	
2198.229	1	1	0	0	0.15912	0.063354	0.10066	0.046803	0.10094	0.15024	0.11226	0.18174	0.085429	0.21109	0.18448	0.059208	0.1385	0.16225	0.16348	0.11033	-3.1	-3.1688	-3.2354	-3.3708	-3.0812	-3.5833	-3.5083	-3.175	-3.6042	-3.2708	-3.4792	-3.6625	-3.2854	-3.4833	-3.4625	-3.3146	-23.312	178.872	-21.513	272.289	81.708	132.713	-35.418	186.702	8.474	-33.382	22.145	176.549	-45.005	172.020	228.139	194.972	0.00020852	0.00011607	0.00010326	440.93	2.3548e-06	3.3337e-06	623.85	135.36	2.1999e-06	2.1068e-06	239.36	91.939	45.567	21.949	3.343e-06	48.401	7.1443e-05	6.335e-05	1.7617e-05	409.02	6.3152e-07	7.288e-07	579.16	125.7	6.1399e-07	7.4535e-07	221.39	85.501	42.805	20.515	7.1684e-07	44.68	145.139	-39.087	21.965	-73.372	30.420	40.417	-73.170	-67.338	34.500	43.745	-68.003	-63.540	-63.037	-58.077	62.207	-59.892	-8191	255	
2198.325	1	1	0	0	0.23388	0.10367	0.18892	0.16442	0.074727	0.1589	0.22029	0.094304	0.097683	0.16811	0.2114	0.11216	0.26478	0.1576	0.15727	0.4807	-3.15	-3.0854	-3.1	-3.5625	-3.2583	-3.3479	-3.4083	-3.2646	-3.5833	-3.1625	-3.2708	-3.6979	-3.2104	-3.3563	-3.3104	-3.2271	219.934	-63.504	4.863	202.606	144.550	244.075	138.518	137.698	22.697	136.574	194.774	182.851	-43.337	236.189	237.071	193.264	0.0001851	0.00014144	0.00017295	437.22	2.1439e-06	3.8412e-06	615.28	132.59	3.4763e-06	1.4435e-06	237.87	92.415	46.53	22.441	2.7053e-06	49.276	7.706e-05	7.2737e-05	1.7893e-05	404.58	6.6797e-07	7.7762e-07	571.29	123.34	6.3412e-07	6.8107e-07	220.6	86.211	43.358	20.914	5.95e-07	45.627	145.847	53.760	5.024	-73.792	43.638	39.574	-73.174	-67.609	7.254	32.816	-68.271	-63.490	-62.855	-58.430	71.192	-59.807	-8191	255	
2198.419	1	1	0	0	0.36654	0.19812	0.17907	0.34666	0.22756	0.10434	0.12171	0.057993	0.26148	0.19894	0.26085	0.11984	0.20637	0.12608	0.17774	0.15112	-3.1083	-3.2417	-3.2375	-3.6292	-3.3063	-3.2396	-3.3021	-3.0833	-3.5104	-3.2833	-3.1396	-3.6458	-3.2854	-3.5125	-3.3937	-3.1396	102.500	-68.812	-85.375	-81.398	-18.488	44.480	-65.765	173.827	213.815	104.119	236.806	17.512	205.027	-58.009	243.144	-73.026	0.00023216	0.00027703	8.3098e-05	443.24	2.3552e-06	1.908e-06	622.23	134.62	1.4989e-06	3.2273e-06	238.41	91.163	45.078	21.753	8.0795e-07	47.902	7.3088e-05	6.0374e-05	1.4607e-05	409.76	6.3564e-07	6.2795e-07	579.53	124.95	6.1632e-07	6.1532e-07	220.01	84.917	42.22	20.204	5.3795e-07	44.25	144.006	-11.029	48.052	-74.233	56.772	35.921	-73.332	-67.419	-24.962	73.736	-68.515	-63.896	-63.120	-57.986	0.932	-59.774	-8191	255	
2198.540	1	1	0	0	0.20947	0.096389	0.13166	0.079148	0.012545	0.15709	0.19762	0.08118	0.10297	0.1737	0.11351	0.2207	0.092359	0.18211	0.25595	0.055982	-3.075	-3.1437	-3.2958	-3.7896	-3.2354	-3.5375	-3.7313	-3.1292	-3.4583	-3.5187	-3.3187	-3.6063	-3.4833	-3.3375	-3.6375	-3.3312	-2.092	114.859	170.889	254.131	3.845	77.590	162.336	23.085	233.623	173.271	38.834	154.326	140.633	168.297	-4.411	220.163	0.00022111	0.0004173	0.00011206	434.02	2.5859e-06	2.0032e-06	614.03	129.49	1.1044e-06	3.6802e-06	231.01	87.587	43.602	20.746	3.9388e-07	46.469	7.2795e-05	5.5646e-05	1.449e-05	403.56	6.5681e-07	6.0573e-07	571.12	120.98	6.7491e-07	5.9956e-07	213.27	81.855	40.623	19.33	5.7157e-07	42.995	137.225	-2.711	26.574	-73.506	51.387	31.507	-73.269	-67.442	58.619	53.908	-68.073	-63.445	-63.278	-57.868	148.297	-59.621	-8191	255	
2198.611	1	1	0	0	0.10654	0.27865	0.35136	0.13319	0.1265	0.087978	0.20204	0.11609	0.043838	0.071435	0.11861	0.081703	0.30011	0.090577	0.14802	0.043835	-3.125	-3.4646	-3.1354	-3.5583	-3.2375	-3.2354	-3.6188	-3.0729	-3.5062	-3.4333	-2.9708	-3.5187	-3.0958	-3.1583	-3.6854	-3.3833	257.341	21.252	111.462	-51.481	-19.942	-71.252	214.688	242.471	157.781	58.016	144.933	166.453	241.782	162.907	-3.643	241.860	0.00023391	0.00023248	6.927e-05	429.36	2.9323e-06	2.8805e-06	604.43	127.35	2.1543e-06	3.5097e-06	224.29	85.981	42.269	19.939	5.7883e-07	44.694	7.4278e-05	5.3942e-05	1.4777e-05	398.28	6.5872e-07	6.0446e-07	561.52	118.35	7.1669e-07	6.5396e-07	207.62	79.905	39.513	18.669	6.5795e-07	41.561	141.073	-37.088	-72.953	-73.491	75.320	84.248	-73.475	-67.649	75.107	73.955	-68.068	-63.577	-62.510	-57.680	8.784	-59.475	-8191	255	
2198.708	1	1	0	0	0.069382	0.28397	0.17741	0.21289	0.040972	0.16957	0.039721	0.28025	0.17718	0.077118	0.13565	0.15817	0.13294	0.13239	0.062616	0.11082	-2.9292	-3.4958	-3.0917	-3.5229	-3.2625	-3.2417	-3.4625	-3.15	-3.3646	-3.4646	-3.3208	-3.4646	-3.3271	-3.1312	-3.5187	-3.2875	13.784	116.502	-61.075	-36.701	179.557	187.494	212.528	200.120	243.207	-49.082	188.055	224.683	261.353	223.704	-26.166	132.861	0.00022881	0.00038417	8.4254e-05	419.78	2.6343e-06	6.4903e-07	585.83	121.87	1.6253e-06	5.2873e-06	218.3	83.503	40.782	19.339	1.8068e-06	43.838	8.6464e-05	6.6253e-05	1.7438e-05	390.68	8.3773e-07	7.677e-07	545.41	114.06	8.1663e-07	7.3301e-07	202.39	77.833	38.357	18.149	7.971e-07	40.725	139.292	-13.865	-31.844	-74.056	76.062	62.007	-73.507	-67.587	-1.634	51.248	-68.560	-63.578	-63.117	-57.268	201.982	-59.392	-8191	255	
2198.804	1	1	0	0	0.070956	0.23367	0.22583	0.20435	0.091971	0.084413	0.13708	0.15999	0.27636	0.20908	0.070851	0.48534	0.11011	0.3337	0.26885	0.12952	-2.9708	-3.6375	-3.075	-3.475	-3.4437	-3.1958	-3.7271	-3.4229	-3.3792	-3.6104	-3.2521	-3.5375	-3.4688	-3.1813	-3.5438	-3.4437	205.390	212.956	27.894	-2.927	204.026	-32.819	215.460	141.449	-52.517	239.402	45.017	-59.797	45.868	140.726	-45.129	141.040	0.00018059	0.00036083	0.00012178	410.72	3.6281e-06	3.2084e-06	572.45	117.43	9.0303e-07	4.3312e-06	213.7	82.924	40.667	19.577	2.0835e-06	44.254	9.7277e-05	7.6968e-05	2.2364e-05	383.87	9.3877e-07	8.6259e-07	536.01	110.73	9.0611e-07	7.6462e-07	199.08	77.469	38.342	18.231	8.1234e-07	41.034	147.975	-18.491	28.066	-73.623	30.231	-6.855	-73.246	-67.259	-13.412	123.616	-68.009	-63.733	-62.568	-58.034	57.038	-59.468	-8191	255	
2198.900	1	1	0	0	0.2078	0.088036	0.19066	0.16469	0.2027	0.22887	0.16971	0.17978	0.29051	0.22943	0.10833	0.31782	0.1109	0.15363	0.14485	0.16204	-2.9583	-3.5938	-3.1958	-3.4417	-3.5833	-3.2958	-3.6208	-3.2375	-3.2396	-3.7583	-3.2625	-3.4708	-3.5	-3.175	-3.4958	-3.3583	272.519	-11.295	83.281	250.189	95.343	52.377	259.367	206.327	265.534	177.914	-28.988	176.295	265.973	-73.840	238.435	-74.411	0.00020466	0.00037011	4.9246e-05	416.57	9.044e-07	1.9465e-06	588.89	122.81	2.3361e-06	1.9762e-06	221.49	86.218	42.509	20.242	1.0969e-06	45.312	8.4366e-05	6.2222e-05	2.0453e-05	388.11	7.3147e-07	6.7232e-07	546.66	113.73	6.9545e-07	6.049e-07	204.82	80.131	39.587	18.856	6.5741e-07	42.135	145.955	-19.898	23.456	-73.321	0.047	76.190	-73.655	-67.336	74.758	116.466	-68.109	-63.560	-62.607	-57.862	125.552	-59.739	-8191	255	
2199.021	1	1	0	0	0.27205	0.037107	0.32429	0.14169	0.14351	0.084472	0.2186	0.01146	0.25989	0.097506	0.078552	0.15164	0.21116	0.12425	0.13076	0.055985	-2.6958	-3.3167	-3.0542	-3.225	-3.4208	-3.1542	-3.5896	-3.4042	-3.1854	-3.7229	-3.3896	-3.3646	-3.4708	-3.2604	-3.3979	-3.65	184.562	269.740	129.219	134.292	39.873	191.050	62.048	225.798	206.210	-8.051	-78.282	104.138	-82.573	-46.765	37.883	-29.384	0.00020575	0.00021735	0.00012519	423.39	3.0898e-06	2.8273e-06	593.92	125.33	1.8983e-06	2.2857e-06	228.81	91.171	45.434	22.085	1.6178e-06	49.402	7.1732e-05	5.186e-05	1.7747e-05	392.18	5.8201e-07	5.5705e-07	552.57	116.58	5.6018e-07	5.2297e-07	210.91	84.377	42.249	20.604	5.7344e-07	45.636	148.589	-24.543	27.289	-73.315	74.534	18.852	-73.528	-67.130	-13.009	70.238	-67.796	-63.946	-63.150	-58.005	46.460	-60.235	-8191	255	
2199.117	1	1	0	0	0.080058	0.21296	0.063018	0.033866	0.089141	0.19447	0.43892	0.20487	0.23511	0.22691	0.089223	0.097857	0.19368	0.26331	0.11095	0.2816	-2.7646	-3.6312	-3.2354	-3.0979	-3.5229	-3.275	-3.6937	-3.5667	-3.1583	-3.5375	-3.4646	-3.35	-3.5563	-3.2729	-3.4583	-3.3917	266.754	41.554	74.817	163.203	129.231	219.700	-56.932	204.296	-47.830	-18.442	30.443	-77.333	113.321	191.449	249.083	229.386	0.00023264	0.00034099	4.4915e-05	433.67	2.8023e-06	1.5983e-06	619.02	136.56	3.0117e-06	2.3678e-06	246.06	97.973	49.321	23.617	1.4654e-06	50.348	5.8675e-05	4.1993e-05	1.3121e-05	402.58	4.1321e-07	4.5744e-07	574.89	126.72	4.4607e-07	4.5223e-07	226.8	91.221	45.768	21.877	4.4187e-07	46.673	152.689	11.936	23.975	-73.651	6.530	101.742	-73.743	-67.744	45.319	96.991	-68.213	-64.067	-63.520	-58.808	109.078	-60.317	-8191	255	
2199.188	1	1	0	0	0.044707	0.2029	0.039093	0.26238	0.043317	0.18425	0.09988	0.21768	0.12	0.062573	0.30787	0.26016	0.17428	0.048734	0.059501	0.054003	-2.6125	-3.4688	-3.3542	-3.2375	-3.5708	-3.2042	-3.4125	-3.3979	-3.0792	-3.5271	-3.4896	-3.1896	-3.5417	-3.3563	-3.3688	-3.8646	-11.607	151.566	23.438	-64.112	125.690	10.134	58.811	-31.371	-4.904	232.460	115.643	233.024	-42.104	205.557	265.236	46.695	0.00025281	0.00011393	7.6218e-05	445.54	2.3787e-06	3.9251e-06	633.6	146.12	2.6017e-06	4.2479e-06	267.63	111.72	58.042	27.819	1.0835e-06	56.738	5.1193e-05	3.7906e-05	1.0782e-05	411.89	3.8971e-07	4.5429e-07	588.66	135.57	4.175e-07	4.7164e-07	246.87	103.51	53.8	25.862	4.7285e-07	52.45	150.681	-24.285	12.732	-73.761	51.907	54.480	-73.336	-67.958	25.923	53.450	-68.482	-64.484	-63.829	-59.324	91.513	-60.636	-8191	255	
2199.309	1	1	0	0	0.2274	0.19525	0.24654	0.22085	0.11242	0.15885	0.1885	0.16538	0.35189	0.097272	0.11856	0.15428	0.12633	0.13078	0.26352	0.18374	-2.7708	-3.6042	-3.4417	-3.1896	-3.6042	-3.1208	-3.4146	-3.5396	-3.2604	-3.6208	-3.4625	-3.2188	-3.5333	-3.3521	-3.2021	-3.6312	-41.993	75.650	46.573	166.006	80.522	127.032	267.161	182.027	241.725	232.377	50.685	-67.132	-79.071	143.958	57.623	204.703	0.000233	0.00018488	6.9205e-05	452.87	1.6232e-06	2.1703e-06	639.31	147.96	2.9911e-06	3.9246e-06	262.33	108.52	55.934	26.907	2.8187e-06	56.753	5.8409e-05	4.0819e-05	1.0254e-05	417.86	3.9249e-07	4.4002e-07	593.49	136.49	4.4481e-07	4.6341e-07	242.18	100.56	52.051	25.047	4.4344e-07	52.452	147.926	-23.992	8.490	-73.397	102.628	42.336	-73.359	-67.740	41.406	64.775	-68.296	-64.519	-63.928	-59.236	57.146	-60.988	-8191	255	
2199.405	1	1	0	0	0.41453	0.1869	0.12653	0.12662	0.12219	0.24493	0.28222	0.18222	0.10323	0.16444	0.13298	0.20107	0.22099	0.11688	0.13742	0.22346	-2.7854	-3.3479	-3.4708	-3.1417	-3.4292	-3.5687	-3.1771	-3.6208	-3.3312	-3.3542	-3.3625	-3.0812	-3.5625	-3.2104	-3.1521	-3.5354	-7.786	253.966	194.114	76.960	159.397	0.986	229.761	268.218	82.257	123.594	222.182	272.012	103.805	240.115	-22.101	215.178	0.00025649	0.00022683	8.166e-05	454.38	2.2391e-06	3.3764e-06	641.83	151.07	2.1373e-06	3.3045e-06	266.08	109.64	56.965	27.235	1.1825e-06	56.416	5.9895e-05	4.289e-05	1.0727e-05	420.47	4.4223e-07	4.4564e-07	596.06	139.66	4.7028e-07	4.4346e-07	245.01	101.48	52.653	25.259	4.153e-07	52.272	144.895	-7.966	5.923	-73.263	54.194	48.065	-73.288	-67.991	-3.983	95.534	-68.598	-64.221	-63.882	-59.130	41.688	-61.196	-8191	255	
2199.501	1	1	0	0	0.13943	0.17659	0.1382	0.15143	0.21768	0.081679	0.14798	0.087424	0.16408	0.13744	0.23412	0.17849	0.11831	0.05797	0.20129	0.12769	-2.9083	-3.2146	-3.5271	-3.1083	-3.4938	-3.4958	-3.1229	-3.5458	-3.3604	-3.3083	-3.525	-3.0938	-3.5667	-3.5312	-2.9167	-3.6437	216.772	129.729	242.170	-41.154	20.440	-77.231	62.915	111.106	188.770	155.216	269.561	249.904	195.322	212.088	172.025	21.178	0.00027235	0.00019573	0.00010785	453.76	2.7741e-06	3.2788e-06	641.59	150.51	1.7914e-06	5.6799e-06	268.28	110.54	57.51	27.736	1.0362e-06	57.364	6.1291e-05	3.7948e-05	9.9992e-06	419.53	4.612e-07	4.1299e-07	595.98	140.21	4.6188e-07	4.2281e-07	247.61	102.74	53.538	25.726	4.0531e-07	52.978	139.860	-44.426	-19.091	-73.472	51.668	85.386	-73.580	-68.006	91.940	81.224	-68.527	-64.734	-63.648	-59.689	93.698	-61.191	-8191	255	
2199.620	1	1	0	0	0.054567	0.35041	0.18093	0.14737	0.1723	0.057696	0.23938	0.1132	0.28324	0.05611	0.11292	0.114	0.19091	0.17202	0.25023	0.08214	-3.0542	-3.2604	-3.5292	-3.0042	-3.4938	-3.45	-3.1042	-3.6437	-3.425	-3.2792	-3.6354	-3.2354	-3.2562	-3.4792	-3.0354	-3.4646	128.719	43.037	232.990	87.248	67.060	-10.653	-62.750	177.509	67.595	82.135	252.784	-9.296	235.630	15.984	-29.786	-28.236	0.00026954	0.00029614	7.5584e-05	455.1	2.0204e-06	3.8985e-06	649.57	153.08	2.4571e-06	2.7921e-06	269.25	111.32	57.621	27.841	2.2685e-06	57.203	6.1623e-05	3.6462e-05	9.3851e-06	421.48	4.4756e-07	3.8324e-07	600.03	141.89	4.6302e-07	4.0059e-07	248.99	103.24	53.731	25.839	3.8758e-07	53.092	144.842	29.536	-7.276	-73.620	47.193	59.144	-73.289	-68.135	69.769	62.493	-68.386	-64.767	-64.036	-59.434	78.375	-61.165	-8191	255	
2199.716	1	1	0	0	0.30266	0.049227	0.13636	0.055502	0.23765	0.092035	0.28173	0.19666	0.057656	0.02888	0.32148	0.10516	0.13477	0.052865	0.063718	0.17265	-2.7458	-3.1312	-3.5771	-3.1396	-3.4083	-3.4125	-3.1125	-3.5604	-3.3104	-3.2417	-3.5333	-3.25	-3.2854	-3.5917	-3.1021	-3.425	268.929	60.540	193.102	62.213	184.911	-43.892	-54.690	191.938	87.546	-47.222	147.907	218.860	-78.720	-83.996	-77.212	180.443	0.00032065	0.00038404	0.00010844	457.15	4.0561e-06	3.2922e-06	643.41	153.64	3.525e-06	4.3457e-06	269.7	111.15	57.45	27.496	1.853e-06	56.845	5.808e-05	3.6311e-05	9.343e-06	422.3	4.2875e-07	3.649e-07	599.14	142.01	4.3278e-07	3.8064e-07	248.7	102.8	53.578	25.611	3.937e-07	52.553	150.443	-37.571	5.451	-73.309	26.848	60.660	-73.304	-68.012	38.057	73.074	-68.545	-64.968	-63.885	-59.450	71.666	-61.096	-8191	255	
2199.812	1	1	0	0	0.19419	0.17961	0.15186	0.14703	0.080415	0.16598	0.15847	0.079482	0.11119	0.12834	0.17288	0.066938	0.14439	0.14712	0.13507	0.19989	-2.9708	-3.2792	-3.5354	-3.2062	-3.3542	-3.3896	-3.2271	-3.5458	-3.375	-3.0229	-3.6646	-3.3146	-3.0458	-3.6042	-3.2625	-3.4562	40.759	171.293	160.287	259.813	98.362	196.484	238.872	6.439	246.209	115.011	265.442	203.814	125.240	176.705	270.256	38.735	0.00026308	0.00024369	9.5421e-05	453.66	8.6169e-07	3.6637e-06	640.2	151.82	2.6801e-06	2.2637e-06	269.53	110.81	57.453	27.845	2.6559e-06	57.172	5.5507e-05	3.2742e-05	9.4633e-06	419.83	3.8464e-07	3.5444e-07	595.76	140.72	3.9669e-07	3.5476e-07	247.83	102.64	53.259	25.733	4.269e-07	52.851	150.429	-14.831	-10.185	-73.572	93.612	58.517	-73.226	-67.922	49.877	54.277	-68.420	-64.817	-63.952	-59.279	69.208	-60.996	-8191	255	
2199.909	1	1	0	0	0.097521	0.16293	0.10566	0.19672	0.15284	0.28037	0.045504	0.079693	0.12181	0.021653	0.25641	0.35093	0.081941	0.28375	0.29315	0.26921	-2.95	-3.0604	-3.4104	-3.2438	-3.2292	-3.6021	-3.2125	-3.2812	-3.2646	-3.0708	-3.4833	-3.3792	-3.0833	-3.5646	-3.1562	-3.6146	205.731	81.671	90.397	-48.141	-67.227	3.390	-64.165	-85.186	244.588	-17.114	23.741	221.868	-83.389	255.719	26.416	231.817	0.00026371	0.00017017	8.5253e-05	453.12	2.2011e-06	2.9156e-06	642.27	153.42	1.7261e-06	1.0542e-06	270.85	110.69	57.231	27.443	1.7998e-06	57.024	5.346e-05	3.1722e-05	9.6726e-06	419.73	3.8182e-07	3.4033e-07	597.57	141.7	3.7939e-07	3.5761e-07	248.97	102.43	53.013	25.532	4.0764e-07	52.823	138.349	12.976	3.090	-73.301	34.710	56.220	-73.244	-67.912	69.224	84.916	-68.322	-64.780	-63.796	-58.900	91.067	-61.000	-8191	255	
2200.005	1	1	0	0	0.077249	0.14321	0.18745	0.09941	0.26907	0.24724	0.1265	0.26573	0.073284	0.1509	0.35966	0.085227	0.34806	0.10476	0.20996	0.24353	-3.0833	-3.0542	-3.4729	-3.3104	-3.0479	-3.5812	-3.1646	-3.1646	-3.6958	-3.2583	-3.6458	-3.5125	-3.0396	-3.7562	-3.5563	-3.6	-61.111	170.695	109.759	205.701	-50.270	179.880	217.643	-81.080	211.433	57.509	221.008	208.914	269.204	274.013	-22.925	145.672	0.00030117	0.00035256	0.00015209	453.44	2.8914e-06	3.4724e-06	645.83	151.98	2.3071e-06	2.7609e-06	269.38	108.96	56.007	26.815	1.6672e-06	56.153	5.1103e-05	3.1768e-05	1.0455e-05	420.23	3.7405e-07	3.5582e-07	600.98	141.05	3.4532e-07	3.5172e-07	248.57	100.96	51.771	24.896	4.1595e-07	51.965	141.734	16.828	-5.894	-73.467	61.738	2.624	-73.301	-67.387	53.788	69.928	-68.513	-64.245	-63.796	-58.932	69.944	-60.678	-8191	255	
2200.101	1	1	0	0	0.22658	0.14814	0.013861	0.13761	0.082042	0.18924	0.30237	0.12502	0.14826	0.26405	0.059212	0.10427	0.070582	0.22694	0.18643	0.071089	-3.2562	-3.1688	-3.3604	-3.3979	-3.1083	-3.5396	-3.3854	-3.1917	-3.575	-3.2292	-3.4771	-3.5583	-3.2687	-3.7375	-3.4208	-3.1312	203.799	99.653	60.620	267.399	-76.960	151.476	-63.477	204.212	-52.332	107.461	252.023	-24.407	-9.289	-41.105	-53.692	40.658	0.00025041	0.00030494	0.00011403	456.2	2.9344e-06	2.8322e-06	655.22	148.62	2.5234e-06	2.5377e-06	265.15	105.53	53.524	25.679	7.9308e-07	54.809	5.0139e-05	3.2855e-05	1.0065e-05	421.6	3.5391e-07	3.7063e-07	606.11	138.63	3.4944e-07	3.7598e-07	244.3	97.653	49.865	23.963	4.1963e-07	50.599	144.613	22.638	3.382	-73.412	47.113	61.743	-73.189	-67.706	38.345	78.490	-68.262	-64.557	-63.549	-58.632	70.371	-60.245	-8191	255	
2200.197	1	1	0	0	0.064122	0.097089	0.2141	0.29377	0.10516	0.20461	0.23584	0.19849	0.11896	0.27669	0.19533	0.17612	0.16732	0.12335	0.2848	0.13318	-3.2729	-3.1646	-3.3292	-3.5375	-3.1146	-3.6	-3.4229	-3.1979	-3.6	-3.2021	-3.375	-3.6271	-3.1104	-3.5708	-3.5687	-3.1917	-65.407	44.464	-33.718	-74.903	-69.644	147.879	169.018	9.958	69.374	117.828	232.517	0.475	218.978	248.873	178.064	230.952	0.00023692	0.00020284	8.9554e-05	456.48	1.7519e-06	2.3996e-06	658	148.78	2.3698e-06	1.1478e-06	261.58	103.23	52.342	24.959	1.9533e-06	53.716	4.8254e-05	3.5347e-05	9.4692e-06	422.02	3.3128e-07	3.7609e-07	608.43	137.59	3.5132e-07	3.9844e-07	242.03	95.624	48.532	23.251	3.8241e-07	49.52	146.533	29.417	-8.621	-73.657	13.950	86.161	-73.181	-67.637	27.451	68.939	-68.085	-64.180	-62.804	-58.332	23.370	-60.090	-8191	255	
2200.318	1	1	0	0	0.18109	0.17148	0.14241	0.16851	0.078851	0.099212	0.20791	0.16967	0.17836	0.13109	0.037265	0.065281	0.18336	0.066812	0.14984	0.14322	-3.1188	-3.1437	-3.325	-3.7292	-3.0354	-3.4188	-3.5938	-3.1562	-3.5458	-3.3708	-3.3438	-3.6312	-3.2146	-3.3583	-3.4729	-3.1771	1.228	240.492	85.583	151.361	-13.654	-85.161	211.067	149.629	95.230	-56.328	5.750	-4.383	75.253	156.707	95.324	192.342	0.00030226	0.00020566	0.00010863	454.84	1.2786e-06	2.7201e-06	657.02	148.26	1.4596e-06	2.559e-06	262.59	103.4	51.86	25.002	1.5325e-06	53.843	5.0006e-05	3.6623e-05	9.5865e-06	422.08	3.7002e-07	3.8158e-07	609.25	137.48	3.7148e-07	4.0297e-07	242.58	95.833	48.504	23.32	3.8072e-07	49.799	145.377	14.532	-28.750	-73.301	76.961	52.368	-73.460	-67.996	2.672	31.557	-68.107	-63.926	-63.085	-57.973	54.079	-59.991	-8191	255	
2200.412	1	1	0	0	0.12561	0.16352	0.11973	0.20838	0.093625	0.21921	0.20308	0.0085052	0.11308	0.25524	0.051859	0.1217	0.19096	0.16638	0.079654	0.10474	-3.2646	-3.1667	-3.0417	-3.6021	-3.1979	-3.5375	-3.6917	-3.0833	-3.5083	-3.5521	-3.1667	-3.8187	-3.1917	-3.4062	-3.3812	-3.0563	194.297	231.462	93.391	266.174	2.789	-59.045	102.484	182.613	-75.062	13.384	205.223	-15.547	66.117	5.449	75.524	148.333	0.00022843	0.00039507	5.2764e-05	456.76	2.6128e-06	3.5021e-06	658.25	148.09	1.54e-06	4.3379e-06	261.82	101.95	51.735	24.854	2.3901e-06	53.207	5.4228e-05	3.8274e-05	9.6296e-06	422.74	4.1652e-07	3.9246e-07	609.05	137.3	4.1666e-07	3.8986e-07	241.67	94.633	48.133	23.097	3.7655e-07	49.356	147.790	-17.336	0.049	-73.149	63.058	55.781	-73.221	-67.428	37.125	65.942	-68.242	-63.746	-63.078	-58.061	62.914	-59.692	-8191	255	
2200.486	1	1	0	0	0.13831	0.042564	0.033337	0.25036	0.075607	0.18719	0.050815	0.22023	0.20456	0.17042	0.2879	0.10255	0.12021	0.0040438	0.079642	0.052204	-3.0396	-3.4917	-3.1333	-3.6104	-3.3125	-3.4437	-3.6542	-3.05	-3.2667	-3.3	-3.0917	-3.6	-3.1458	-3.1083	-3.6854	-3.1667	219.682	106.950	-66.942	233.933	270.708	-9.808	238.610	266.915	-19.129	74.931	257.934	155.119	-26.092	140.752	260.722	215.918	0.00025408	0.00025651	8.2419e-05	457.51	2.0262e-06	2.199e-06	657.15	147.98	2.8113e-06	1.0541e-06	263.1	102.49	52.193	25.15	2.8547e-06	53.075	5.6455e-05	3.4365e-05	9.1876e-06	423.41	4.2589e-07	3.8255e-07	609.45	137.74	4.3786e-07	3.7406e-07	242.06	94.922	48.573	23.305	3.4343e-07	49.284	148.316	-3.109	14.036	-73.401	64.893	48.721	-73.538	-67.579	34.597	61.669	-68.131	-64.083	-63.126	-58.275	39.535	-60.103	-8191	255	
2200.582	1	1	0	0	0.10406	0.20487	0.088397	0.46428	0.14689	0.28927	0.20402	0.14188	0.19077	0.053374	0.1364	0.1875	0.0055457	0.11813	0.16273	0.21971	-3.0833	-3.3521	-3.0083	-3.6354	-3.3104	-3.2792	-3.4458	-3.2875	-3.1958	-3.3667	-3.2938	-3.5958	-3.2125	-3.2271	-3.55	-3.2604	29.292	121.918	105.352	238.857	265.230	207.547	225.604	-33.248	-7.860	119.681	216.842	270.564	260.434	129.714	67.320	154.140	0.00023789	0.00037519	0.00010163	456.45	1.932e-06	3.957e-06	650.83	147.59	2.0082e-06	2.9125e-06	261.15	102.18	52.115	25.048	1.7696e-06	53.691	5.684e-05	3.4127e-05	8.8111e-06	422.52	4.1694e-07	3.7632e-07	607.13	137.23	3.9776e-07	3.5834e-07	240.91	94.97	48.614	23.401	3.4209e-07	49.51	141.649	20.865	12.444	-73.222	38.233	55.883	-73.024	-67.150	51.120	98.224	-68.297	-64.083	-63.160	-58.053	90.333	-60.286	-8191	255	
2200.701	1	1	0	0	0.077932	0.13531	0.12032	0.12856	0.14313	0.24378	0.0913	0.11709	0.19002	0.15339	0.16013	0.13409	0.2111	0.11606	0.18346	0.14688	-2.8854	-3.4521	-3.1167	-3.7812	-3.3	-3.0458	-3.7542	-3.3187	-3.2021	-3.6833	-3.2104	-3.5625	-3.4271	-3.1208	-3.4875	-3.3542	223.086	-3.967	-47.745	238.497	229.765	252.735	-62.051	8.042	58.329	-69.128	207.503	48.412	-7.846	271.316	117.537	229.519	0.00022265	0.00035349	9.7802e-05	452.56	2.91e-06	3.9077e-06	656.93	149.24	2.8197e-06	4.627e-06	265.68	103.65	53.187	25.675	2.2836e-06	54.46	5.459e-05	3.3156e-05	8.8864e-06	421.64	4.129e-07	3.6544e-07	609.28	138.27	4.1097e-07	3.503e-07	243.33	96.023	49.544	23.888	3.751e-07	50.493	148.974	-15.617	24.498	-73.214	54.666	55.293	-73.177	-67.533	39.992	74.321	-68.224	-63.830	-62.720	-58.380	112.320	-59.872	-8191	255	
2200.797	1	1	0	0	0.034994	0.078624	0.096804	0.05238	0.16808	0.10017	0.13652	0.15857	0.14788	0.10468	0.2417	0.33063	0.092587	0.33043	0.17825	0.31145	-2.9062	-3.5479	-3.1167	-3.3438	-3.3125	-3.0812	-3.7208	-3.3604	-3.1271	-3.7479	-3.1875	-3.4646	-3.5333	-3.2625	-3.5646	-3.3563	265.128	158.583	10.237	253.284	232.672	-55.231	120.173	217.219	0.083	155.388	212.426	239.454	259.175	-78.602	112.739	247.159	0.00026704	0.00032829	2.2409e-05	458.15	2.2157e-06	3.004e-06	654.98	152.47	2.1619e-06	3.3368e-06	269	106.02	54.772	26.726	2.3965e-06	55.598	5.4746e-05	3.0208e-05	9.2922e-06	423.71	3.8129e-07	3.4667e-07	610.51	141.09	3.889e-07	3.2758e-07	247.22	98.374	50.881	24.772	3.8199e-07	51.473	143.124	10.823	43.685	-73.532	68.986	74.647	-73.388	-67.564	41.439	87.869	-68.112	-63.883	-63.119	-58.621	67.609	-60.366	-8191	255	
2200.893	1	1	0	0	0.35046	0.10802	0.26528	0.083838	0.22615	0.09091	0.05882	0.20507	0.19738	0.23036	0.093931	0.14795	0.073655	0.098393	0.15812	0.06072	-2.9083	-3.6208	-3.2	-3.3479	-3.2687	-3.3417	-3.4396	-3.3604	-2.9771	-3.6229	-3.4146	-3.5187	-3.6813	-3.0667	-3.4979	-3.4688	39.312	-84.654	-1.101	184.062	-84.391	-0.379	-26.096	-30.668	155.456	204.706	26.523	176.774	188.237	216.915	-33.308	224.318	0.00030582	0.00022572	7.3945e-05	456.14	1.5966e-06	2.797e-06	655.08	151.35	2.5736e-06	3.599e-06	266.22	105.5	54.407	26.679	1.4523e-06	55.251	5.3436e-05	3.1866e-05	1.0177e-05	423.89	3.5067e-07	3.5379e-07	607.33	140.76	3.6888e-07	3.3334e-07	246.05	97.687	50.565	24.796	4.1936e-07	51.044	151.521	-0.439	-7.554	-73.103	52.201	61.978	-73.287	-67.220	48.243	89.867	-68.196	-63.944	-62.936	-58.049	93.762	-60.047	-8191	255	
2200.989	1	1	0	0	0.045542	0.11302	0.02754	0.039387	0.24629	0.072725	0.042967	0.085629	0.13284	0.070322	0.25944	0.13204	0.22614	0.21462	0.14274	0.23366	-2.6188	-3.5625	-3.3479	-3.2604	-3.6417	-3.1854	-3.5438	-3.4479	-3.2354	-3.4396	-3.1917	-3.2375	-3.4313	-3.1063	-3.4	-3.5938	240.050	152.556	-46.089	-23.212	36.411	163.705	258.047	-3.323	-29.071	191.468	179.523	-67.827	-51.412	174.781	204.468	170.314	0.0002523	0.0002624	8.1239e-05	458.53	2.0855e-06	4.3173e-06	657	150.06	2.5886e-06	3.0224e-06	264.44	103.44	53.288	26.197	2.0049e-06	54.752	5.2077e-05	3.1936e-05	1.0426e-05	422.35	3.3235e-07	3.5729e-07	608.05	139.59	3.6598e-07	3.2904e-07	244.25	95.938	49.522	24.405	4.0879e-07	50.561	144.423	5.200	24.908	-73.164	52.409	72.608	-73.187	-67.326	33.114	68.543	-68.115	-63.584	-62.707	-57.686	79.561	-59.520	-8191	255	
2201.110	1	1	0	0	0.17321	0.19424	0.059331	0.097537	0.10418	0.028391	0.24373	0.22702	0.022474	0.20757	0.2275	0.15097	0.1959	0.17007	0.22294	0.2203	-2.6188	-3.5646	-3.2146	-3.2542	-3.7812	-3.1937	-3.3875	-3.525	-3.1146	-3.7438	-3.3271	-3.3333	-3.6729	-3.2521	-3.2938	-3.6479	156.659	127.221	-37.588	-60.273	160.643	112.970	145.771	-52.236	128.405	-30.053	230.252	233.199	-20.064	154.112	24.506	213.061	0.00026268	0.00026142	6.1301e-05	460.16	1.6116e-06	2.5362e-06	661.94	153.14	2.312e-06	2.7923e-06	269.41	104.69	54.263	26.624	2.0379e-06	55.038	5.0368e-05	3.1337e-05	1.0165e-05	424.79	3.3475e-07	3.7301e-07	615.05	141.95	3.6675e-07	3.7348e-07	249.01	97.903	50.535	24.682	4.1216e-07	50.747	146.202	17.325	13.954	-73.631	35.291	43.079	-72.903	-67.768	17.917	82.634	-68.260	-63.699	-62.680	-57.683	91.678	-59.867	-8191	255	
2201.181	1	1	0	0	0.28587	0.34397	0.085004	0.20143	0.28265	0.1019	0.16335	0.16085	0.14643	0.20643	0.039656	0.068167	0.18353	0.10885	0.11993	0.26093	-2.6896	-3.2396	-3.4333	-3.2042	-3.4625	-3.2271	-3.4229	-3.4479	-3.1354	-3.6021	-3.6042	-3.0708	-3.6125	-3.2271	-3.2146	-3.5708	-26.019	240.024	14.370	183.647	-50.547	88.648	78.592	192.158	111.627	204.532	20.807	113.032	248.468	-13.527	90.322	274.100	0.00028265	0.00020839	0.00010512	462.22	3.442e-06	2.9583e-06	669.56	152.72	2.7735e-06	1.7446e-06	270.36	104.06	53.618	26.052	2.215e-06	54.156	5.113e-05	3.5785e-05	9.5005e-06	428.62	3.4762e-07	4.0281e-07	619.52	140.61	3.7874e-07	3.9459e-07	248.66	96.872	49.807	24.229	3.9064e-07	50.133	142.780	-12.191	4.844	-73.350	17.350	33.923	-73.399	-67.181	22.525	38.132	-67.672	-63.652	-62.370	-57.240	66.707	-59.536	-8191	255	
2201.302	1	1	0	0	0.18041	0.202	0.1501	0.22116	0.23046	0.14965	0.14134	0.12922	0.085607	0.026395	0.088363	0.20121	0.062345	0.19555	0.19281	0.02973	-2.5396	-3.3271	-3.4313	-3.0167	-3.3771	-3.2458	-3.2562	-3.5312	-3.3208	-3.3229	-3.4958	-3.2208	-3.6021	-3.3208	-3.2125	-3.6312	-47.221	263.123	153.782	258.026	225.566	183.559	122.873	127.908	11.108	170.704	-52.553	192.340	238.466	253.570	-47.563	262.602	0.00025559	0.0003377	8.9954e-05	466.08	1.4255e-06	3.4399e-06	675.96	149.2	2.2855e-06	4.4833e-06	264.8	100.58	51.825	24.732	2.2714e-06	52.096	5.2865e-05	3.7103e-05	9.3254e-06	431.79	3.5132e-07	4.0015e-07	626.96	138.72	3.7137e-07	3.9052e-07	244.27	93.462	48.117	22.993	3.8429e-07	48.204	142.139	-4.839	36.582	-73.387	94.047	69.669	-73.390	-67.263	25.328	65.088	-68.222	-63.426	-62.526	-56.967	75.414	-59.664	-8191	255	
2201.398	1	1	0	0	0.10936	0.14358	0.17829	0.042012	0.07489	0.065577	0.15843	0.20324	0.045523	0.2136	0.22033	0.2034	0.17803	0.12962	0.34132	0.31662	-2.9396	-3.35	-3.4313	-3.0646	-3.3667	-3.3583	-3.2542	-3.6979	-3.2979	-3.4292	-3.5771	-3.0875	-3.5021	-3.5146	-3.2875	-3.5354	-9.339	-26.137	45.113	226.885	-0.483	149.393	246.727	146.968	-78.471	261.032	248.177	237.848	139.474	194.700	-27.662	204.625	0.00024192	0.00035127	8.6593e-05	475.97	2.4524e-06	2.7465e-06	683.5	151.04	1.6012e-06	4.7402e-06	265.38	101.2	52.402	24.867	1.7967e-06	52.275	5.2602e-05	3.6651e-05	8.9753e-06	439.59	3.9656e-07	3.7347e-07	634.04	139.61	4.1097e-07	3.9079e-07	245.58	94.187	48.497	23.097	3.7429e-07	48.27	145.205	-5.581	23.951	-73.202	43.732	6.983	-73.100	-67.282	5.785	55.741	-67.900	-63.495	-62.252	-57.277	73.748	-59.120	-8191	255	
2201.492	1	1	0	0	0.30614	0.17447	0.098191	0.099473	0.21155	0.20245	0.048159	0.25736	0.091733	0.13795	0.13751	0.21361	0.15019	0.05008	0.15093	0.16565	-2.7812	-3.2188	-3.2542	-3.0542	-3.4875	-3.4708	-3.1271	-3.7042	-3.1688	-3.3271	-3.8187	-3.2104	-3.4	-3.4313	-3.0792	-3.3146	258.646	270.192	61.145	258.426	-32.652	-81.919	-60.860	146.761	37.853	270.000	129.126	157.326	198.341	155.231	248.589	142.599	0.00022239	0.00038429	7.9185e-05	478.73	2.8535e-06	1.4406e-06	685.8	151.12	2.0003e-06	1.9867e-06	265.18	101.12	51.95	24.651	1.5251e-06	52.077	5.6847e-05	3.4194e-05	8.7778e-06	440.73	4.1519e-07	3.511e-07	635.81	139.61	4.0887e-07	3.4849e-07	244.74	93.915	48.297	22.868	3.5354e-07	48.341	142.587	-30.244	-10.519	-73.575	54.313	46.053	-73.150	-67.371	15.794	15.505	-67.658	-63.254	-62.392	-56.987	69.753	-59.274	-8191	255	
2201.590	1	1	0	0	0.17083	0.10688	0.13268	0.13265	0.19942	0.069882	0.061533	0.11375	0.30651	0.047627	0.11524	0.26753	0.27677	0.10743	0.23694	0.045032	-2.8771	-3.1937	-3.5062	-3.1708	-3.3396	-3.4833	-3.2292	-3.5938	-3.4646	-3.475	-3.6021	-3.2125	-3.4646	-3.475	-3.1667	-3.7062	144.346	137.347	153.277	64.037	-36.192	-28.718	-36.969	195.505	66.971	206.498	236.947	215.024	195.423	-21.899	-21.186	114.274	0.00027522	0.00025329	0.00012618	476.68	1.9752e-06	3.414e-06	684.94	152.83	3.2175e-06	2.8897e-06	271.52	103.22	53.205	25.626	2.4944e-06	53.443	5.6318e-05	3.3149e-05	8.2712e-06	440.57	4.1001e-07	3.4571e-07	634.89	141.46	3.9997e-07	3.5084e-07	249.13	95.963	49.661	23.788	3.4668e-07	49.394	149.625	-20.584	9.085	-73.370	103.991	59.636	-73.364	-67.351	25.244	41.499	-67.937	-63.337	-62.551	-57.577	75.017	-59.503	-8191	255	
2201.709	1	1	0	0	0.16394	0.18939	0.10935	0.13747	0.28631	0.1275	0.10976	0.25766	0.221	0.17924	0.23841	0.10732	0.12672	0.027166	0.099792	0.28881	-2.7896	-2.9708	-3.55	-3.0771	-3.375	-3.5521	-3.075	-3.4625	-3.5083	-3.0208	-3.5271	-3.2229	-3.1375	-3.5917	-3.2375	-3.5354	87.161	-51.429	109.632	78.365	35.658	255.794	108.239	221.143	39.154	-6.726	162.073	212.633	45.184	24.273	144.488	227.725	0.00021034	0.00039533	3.7342e-05	473.27	2.6547e-06	3.1759e-06	680.76	153.02	4.0416e-06	3.662e-06	268.42	103.8	53.649	25.723	2.2929e-06	53.393	5.3314e-05	3.2374e-05	8.28e-06	438.6	3.9466e-07	3.3379e-07	632.3	142.23	3.829e-07	3.5003e-07	248.05	96.009	49.793	23.77	3.5989e-07	49.173	144.358	7.430	3.454	-73.446	47.424	71.199	-73.151	-67.189	61.459	56.363	-68.214	-63.728	-62.534	-57.442	60.231	-59.332	-8191	255	
2201.781	1	1	0	0	0.094734	0.046915	0.07804	0.17411	0.17482	0.17353	0.2783	0.19076	0.06114	0.18897	0.13976	0.23483	0.021952	0.24398	0.2203	0.23015	-3.0333	-3.1562	-3.6146	-3.3625	-3.3146	-3.7438	-3.3396	-3.4188	-3.4417	-3.1292	-3.7042	-3.4188	-3.5125	-3.7438	-3.3104	-3.3854	-57.906	-16.102	-12.854	230.319	183.830	-24.443	172.667	248.662	-24.796	232.193	273.211	50.357	4.343	225.107	85.195	176.034	0.00025046	0.00020284	6.9734e-05	474.09	1.3136e-06	2.3309e-06	681.8	152.51	2.8388e-06	3.6182e-06	271.74	105.1	54.428	25.935	2.0657e-06	54.016	5.1868e-05	3.1964e-05	8.7123e-06	438.45	3.7108e-07	3.2126e-07	634.81	141.97	3.6823e-07	3.2927e-07	250.36	97.168	50.439	24.076	3.8976e-07	50.043	141.587	4.925	14.506	-73.325	57.964	53.462	-73.150	-67.190	74.361	82.873	-67.684	-63.777	-62.414	-57.506	72.382	-59.494	-8191	255	
2201.877	1	1	0	0	0.30178	0.12163	0.16882	0.10175	0.063658	0.043069	0.064972	0.026066	0.14043	0.25052	0.072951	0.090962	0.15449	0.127	0.15267	0.044288	-3.1042	-3.0854	-3.5833	-3.3042	-3.1042	-3.65	-3.225	-3.2771	-3.5083	-3.1833	-3.6063	-3.4479	-3.2125	-3.6188	-3.25	-3.3187	-74.814	152.882	237.245	62.777	171.659	-0.053	29.126	76.039	217.962	248.071	143.260	13.553	20.716	3.778	-20.364	176.097	0.00024933	0.0004085	0.0001179	473.94	2.9449e-06	2.4342e-06	685.97	154.75	2.5692e-06	2.8478e-06	274.56	106.12	54.965	26.352	2.5946e-06	55.031	5.0704e-05	3.072e-05	9.6951e-06	440.26	3.6301e-07	3.2468e-07	638.16	143.53	3.525e-07	3.2027e-07	253.47	98.687	51.243	24.461	4.2629e-07	50.948	139.340	-8.339	15.080	-73.478	30.101	34.784	-73.306	-66.942	108.270	93.594	-68.104	-63.418	-62.684	-57.256	79.993	-59.256	-8191	255	
2201.998	1	1	0	0	0.3525	0.14519	0.11047	0.30517	0.10906	0.097421	0.09214	0.22764	0.11878	0.24503	0.21154	0.21662	0.14748	0.26733	0.035507	0.16798	-3.0062	-2.8896	-3.3792	-3.4	-3.25	-3.6479	-3.3604	-3.2396	-3.8563	-3.225	-3.4875	-3.5021	-3.2542	-3.5292	-3.2917	-3.3312	230.987	245.149	190.105	214.593	-75.605	-53.151	181.487	-63.970	123.559	118.098	203.400	196.889	256.288	269.949	59.571	247.584	0.00023941	0.00024526	0.00011913	481.18	1.1891e-06	2.4552e-06	690.21	156.98	3.4417e-06	2.0885e-06	277.01	106.78	56.04	26.724	2.08e-06	55.01	5.1568e-05	3.256e-05	1.0202e-05	443.93	3.7687e-07	3.3264e-07	640.02	145.5	3.6235e-07	3.6333e-07	255.82	99.273	51.9	24.806	4.2323e-07	50.907	147.930	11.875	-9.984	-73.577	68.766	46.704	-73.213	-67.216	37.752	70.697	-67.919	-63.685	-62.231	-57.406	47.811	-59.438	-8191	255	
2202.094	1	1	0	0	0.24324	0.232	0.19723	0.16534	0.18756	0.13392	0.08716	0.14795	0.13629	0.077868	0.15601	0.10487	0.20846	0.056622	0.15299	0.13619	-3.2667	-3.1042	-3.2958	-3.3063	-3.175	-3.6479	-3.425	-3.225	-3.6854	-3.1958	-3.4396	-3.4646	-3.1458	-3.4667	-3.3021	-3.1688	-43.198	-61.521	100.866	146.000	50.308	181.308	169.607	264.338	221.708	137.923	242.205	245.674	239.242	216.667	156.581	254.109	0.00024578	0.00023356	7.6753e-05	479.48	2.8942e-06	2.7246e-06	689.44	157.29	2.2072e-06	2.8632e-06	275.11	106.41	55.865	26.694	3.3237e-06	54.895	4.9787e-05	3.3363e-05	1.0062e-05	444.79	3.5124e-07	3.8205e-07	639.47	145.9	3.4803e-07	3.7783e-07	254.23	98.973	51.857	24.781	4.0213e-07	50.84	141.939	-28.869	24.684	-73.580	47.330	45.338	-72.938	-67.231	55.574	52.869	-67.775	-63.939	-62.789	-57.615	61.479	-59.491	-8191	255	
2202.190	1	1	0	0	0.086482	0.050619	0.096603	0.020053	0.14609	0.11006	0.27946	0.1841	0.060397	0.16627	0.16443	0.28966	0.21667	0.040501	0.12039	0.17785	-3.2333	-3.3	-3.3479	-3.7271	-3.3	-3.3792	-3.5375	-3.3396	-3.6417	-3.2521	-3.5187	-3.3563	-3.2604	-3.3583	-3.4104	-3.3417	125.854	129.099	215.546	-25.001	196.619	77.140	167.009	263.270	14.379	14.514	182.931	174.546	-78.561	266.133	214.919	268.131	0.00026094	0.00046152	0.00010318	482.92	2.1418e-06	3.0761e-06	685.65	158.66	1.4348e-06	3.8518e-06	277.3	109.63	57.857	27.734	1.7374e-06	56.894	4.9508e-05	3.663e-05	1.0174e-05	444.78	3.5551e-07	3.9466e-07	637.5	147.18	3.564e-07	3.8675e-07	257.06	101.87	53.714	25.848	3.8494e-07	52.678	149.550	-22.140	17.977	-73.510	45.114	28.051	-73.351	-67.068	44.859	89.091	-68.159	-63.677	-62.304	-57.742	51.092	-59.599	-8191	255	
2202.286	1	1	0	0	0.091068	0.24375	0.23788	0.17136	0.19586	0.013078	0.23055	0.17137	0.047808	0.29278	0.13662	0.43598	0.16108	0.25478	0.24837	0.23353	-3.0958	-3.225	-3.1771	-3.5458	-3.1979	-3.5438	-3.5271	-3.1917	-3.8	-3.1896	-3.1646	-3.7021	-3.1437	-3.4729	-3.625	-3.3229	176.284	170.436	54.981	210.407	-36.863	146.736	139.573	235.041	-46.291	-38.834	-68.783	264.305	247.493	-39.114	147.815	-42.540	0.00026589	0.00020882	9.9196e-05	477.35	3.0965e-06	2.3815e-06	686.59	162.27	2.0757e-06	3.1177e-06	286.07	113.6	59.995	29.334	1.5296e-06	59.366	5.2296e-05	3.6462e-05	9.3215e-06	442.59	3.854e-07	4.0961e-07	636.82	150.53	3.9145e-07	4.0928e-07	263.26	105.64	55.935	27.284	3.7517e-07	54.945	147.082	-0.489	3.800	-73.282	76.856	0.307	-73.144	-67.303	96.760	106.745	-67.889	-64.039	-62.662	-57.632	65.958	-59.774	-8191	255	
2202.382	1	1	0	0	0.23587	0.28915	0.072355	0.19004	0.089143	0.10687	0.058205	0.20551	0.1946	0.20701	0.31489	0.26351	0.062125	0.095436	0.019587	0.15144	-3.0396	-3.2521	-3.2792	-3.4604	-3.2938	-3.2542	-3.5021	-3.1167	-3.6083	-3.3917	-3.0542	-3.5854	-3.2	-3.35	-3.4188	-3.0812	201.280	14.054	45.004	-48.565	76.747	-14.543	96.450	249.428	-5.517	64.897	197.253	205.139	113.953	220.794	134.671	188.416	0.00027748	0.000277	7.394e-05	479.86	2.3054e-06	4.3585e-06	688.09	166.56	3.9065e-06	3.2008e-06	291.95	115.94	61.928	30.132	3.3802e-06	60.19	5.6757e-05	3.6823e-05	9.034e-06	443.43	4.15e-07	3.8947e-07	638.51	153.71	4.162e-07	3.8756e-07	267.93	107.84	57.434	28.008	3.5231e-07	55.652	137.297	-0.716	20.126	-73.339	26.687	52.265	-73.048	-67.162	55.930	59.264	-68.202	-63.613	-63.109	-58.082	71.001	-59.955	-8191	255	
2202.478	1	1	0	0	0.31051	0.14805	0.13355	0.14754	0.10168	0.10639	0.16822	0.095268	0.20194	0.12092	0.2414	0.11598	0.0053502	0.083252	0.20352	0.20208	-3.025	-3.2875	-3.1312	-3.5896	-3.3042	-3.25	-3.6188	-3.2542	-3.3792	-3.6417	-3.3167	-3.5958	-3.4104	-3.2854	-3.7125	-3.3396	153.497	125.974	104.004	-3.522	195.347	260.943	256.779	-24.067	162.436	-19.764	180.461	258.357	249.831	205.141	-74.972	170.699	0.00029116	0.00019056	8.4033e-05	477.35	1.596e-06	3.539e-06	681.32	166.12	2.6893e-06	3.3888e-06	292.52	118.34	63.227	31.259	1.2783e-06	61.899	5.8113e-05	3.4979e-05	8.7006e-06	442.43	4.1949e-07	3.6794e-07	634.19	154.53	4.1502e-07	3.7902e-07	269.24	109.54	58.93	28.937	3.6591e-07	57.224	141.207	12.594	2.975	-73.198	42.076	49.474	-73.287	-66.812	30.115	71.117	-67.997	-64.111	-62.995	-58.356	75.177	-60.107	-8191	255	
2202.575	1	1	0	0	0.016454	0.1234	0.11041	0.13024	0.21773	0.076235	0.21011	0.13104	0.24172	0.0067044	0.13502	0.29139	0.21463	0.08324	0.15594	0.35119	-3.0604	-3.5375	-3.1021	-3.5167	-3.4542	-3.2917	-3.6771	-3.2292	-3.4875	-3.4708	-3.1083	-3.4813	-3.3771	-3.4583	-3.6021	-3.3583	274.551	210.703	-36.038	231.051	226.661	176.375	126.129	94.585	195.598	76.099	-51.840	252.104	226.033	22.824	50.577	241.688	0.00029469	0.00024629	9.2902e-05	481.59	1.9898e-06	2.1319e-06	686.06	170.67	2.5427e-06	4.2692e-06	299.26	122.48	65.89	32.718	1.5709e-06	64.517	5.8562e-05	3.3871e-05	9.1983e-06	446.32	4.1176e-07	3.7074e-07	637.03	158.96	4.0814e-07	3.4661e-07	276.37	113.71	61.377	30.385	3.6843e-07	59.613	145.631	-12.522	1.136	-72.913	31.536	46.700	-72.992	-67.208	59.358	70.850	-68.258	-63.882	-63.203	-58.406	65.448	-60.106	-8191	255	
2202.671	1	1	0	0	0.11407	0.11458	0.12693	0.15458	0.092751	0.16166	0.01909	0.079352	0.16383	0.23451	0.30129	0.1554	0.15382	0.042635	0.18708	0.075309	-2.8417	-3.5125	-3.2292	-3.6375	-3.3625	-3.2708	-3.65	-3.1958	-3.4104	-3.6354	-3.2667	-3.6562	-3.2875	-3.1604	-3.4917	-3.4125	87.288	8.465	-77.106	254.091	172.851	28.408	54.308	253.279	-28.023	20.157	-50.762	249.821	218.142	-44.716	59.342	220.549	0.00033263	0.000353	6.2172e-05	487.18	1.0905e-06	3.2771e-06	691.35	174.97	2.9841e-06	4.8097e-06	305.99	126.19	68.484	33.896	1.0291e-06	66.986	5.8163e-05	3.3584e-05	9.0311e-06	452.07	4.0014e-07	3.6601e-07	641.47	162.84	4.1888e-07	3.3665e-07	282.23	116.93	63.638	31.631	3.9619e-07	61.837	145.752	-12.533	-13.829	-73.096	36.009	63.671	-73.301	-67.344	57.418	74.308	-68.144	-63.992	-63.106	-58.203	107.287	-60.383	-8191	255	
2202.790	1	1	0	0	0.18891	0.058566	0.18076	0.11198	0.26571	0.17225	0.085809	0.11286	0.084745	0.25257	0.20807	0.1193	0.30065	0.25448	0.069915	0.12109	-2.8812	-3.5729	-3.1146	-3.4042	-3.4625	-3.2542	-3.7604	-3.3875	-3.3396	-3.525	-3.2125	-3.4542	-3.4771	-3.0708	-3.6917	-3.4688	30.040	-32.032	207.271	157.239	44.221	61.090	97.113	162.346	97.700	-76.209	-15.999	206.423	256.270	213.898	-24.272	70.267	0.0003296	0.00032484	7.428e-05	496.87	1.8861e-06	2.4838e-06	699.45	183.21	2.8657e-06	4.2235e-06	314.5	131.14	72.3	35.983	2.9582e-06	69.518	5.9207e-05	3.0587e-05	9.6951e-06	459.57	3.9009e-07	3.5779e-07	649.84	169.57	4.007e-07	3.3869e-07	291.18	121.58	66.999	33.423	4.2365e-07	64.346	143.006	-19.689	5.453	-73.089	47.138	71.134	-73.088	-67.581	14.810	85.561	-68.147	-64.161	-63.234	-58.482	59.936	-60.277	-8191	255	
2202.886	1	1	0	0	0.11886	0.038233	0.068808	0.27626	0.075079	0.26775	0.15715	0.1143	0.048567	0.086384	0.097823	0.063446	0.11578	0.085781	0.04262	0.10024	-2.8	-3.5667	-3.1042	-3.4083	-3.5458	-3.1312	-3.6417	-3.4625	-3.4417	-3.6667	-3.35	-3.4396	-3.4813	-3.3354	-3.4292	-3.5583	103.713	172.408	155.655	264.324	23.010	-55.073	103.933	187.134	29.140	129.670	197.844	-3.467	-82.417	-82.055	240.602	198.771	0.00027806	0.00010427	7.4808e-05	505.34	3.3109e-06	2.4951e-06	703.38	189.63	2.4972e-06	3.9079e-06	325.05	135.55	74.506	37.182	3.0966e-06	71.478	5.9885e-05	3.3068e-05	1.0445e-05	467.64	3.7996e-07	3.5802e-07	654.43	176.25	4.0826e-07	3.5011e-07	298.96	125.53	69.248	34.592	4.3958e-07	66.039	140.535	-11.498	-22.803	-73.151	56.913	50.867	-73.168	-67.065	36.702	87.949	-68.383	-64.412	-63.449	-58.574	84.239	-60.619	-8191	255	
2202.982	1	1	0	0	0.042009	0.18927	0.13082	0.29918	0.13017	0.096745	0.11023	0.22015	0.32048	0.18292	0.14116	0.3596	0.067759	0.36212	0.05619	0.192	-2.75	-3.6937	-3.2333	-3.3333	-3.5792	-3.3229	-3.6854	-3.4646	-3.2812	-3.6354	-3.3958	-3.3833	-3.6542	-3.2458	-3.4979	-3.6833	-56.052	229.898	191.276	239.142	255.674	244.618	259.523	249.075	-23.235	-38.516	207.369	215.394	-50.876	148.653	-75.211	211.110	0.00036367	0.00042425	0.00010126	505.4	2.7669e-06	4.5968e-06	710.21	193.84	2.8322e-06	4.0729e-06	327.37	137.59	76.065	37.866	2.2992e-06	72.307	6.1557e-05	3.3808e-05	1.0642e-05	469.24	3.6872e-07	3.8697e-07	658.22	179.64	3.7939e-07	3.6014e-07	302.78	127.46	70.609	35.231	4.7044e-07	66.942	144.423	14.182	-4.011	-73.289	43.529	66.991	-73.195	-67.281	42.278	97.594	-68.578	-64.437	-63.506	-58.328	45.378	-60.519	-8191	255	
2203.076	1	1	0	0	0.19014	0.051359	0.18017	0.11181	0.17598	0.2218	0.12947	0.36528	0.13564	0.2945	0.040529	0.058803	0.12326	0.30969	0.24046	0.31383	-2.7396	-3.6708	-3.0979	-3.3583	-3.6708	-3.0792	-3.5583	-3.3333	-3.2333	-3.5771	-3.3167	-3.525	-3.5521	-3.1375	-3.2958	-3.7417	197.059	215.799	237.246	264.448	13.384	200.836	-14.946	-58.992	-76.661	206.064	205.929	179.887	-11.116	212.423	199.966	220.040	0.0003298	0.0004592	0.00011921	509.05	3.2879e-06	3.7396e-06	713.94	193.59	3.4621e-06	3.667e-06	333.88	139.69	76.804	38.866	3.8041e-06	74.237	6.1191e-05	3.5273e-05	1.1251e-05	469.64	3.6636e-07	4.0323e-07	662.11	180.11	3.9298e-07	4.0913e-07	306.68	129.68	71.423	36.048	4.5734e-07	68.715	150.242	0.998	10.847	-72.715	58.246	74.224	-73.032	-67.130	20.277	73.961	-68.002	-64.324	-63.280	-58.654	57.044	-60.543	-8191	255	
2203.172	1	1	0	0	0.13344	0.17059	0.14429	0.051422	0.15861	0.099814	0.18105	0.1986	0.32363	0.049835	0.16342	0.12296	0.085185	0.14254	0.10932	0.21545	-2.8187	-3.4896	-3.4167	-3.3875	-3.5667	-3.2125	-3.3937	-3.5375	-3.0938	-3.4958	-3.4938	-3.2458	-3.6604	-3.1354	-3.3688	-3.6646	125.528	139.534	268.460	48.248	230.565	223.989	80.708	193.993	148.527	224.440	122.010	229.480	239.391	252.856	223.647	185.451	0.00036318	0.00040907	0.00014331	512.41	3.139e-06	5.0764e-06	717.32	196.7	3.8457e-06	5.4793e-06	333.99	140.27	77.282	38.879	3.5203e-06	73.896	6.1524e-05	3.9935e-05	1.1097e-05	472.75	3.7158e-07	4.481e-07	664.55	181.35	4.0513e-07	4.2335e-07	307.4	129.75	71.709	36.067	4.3299e-07	68.482	142.819	-2.058	-7.080	-73.299	44.868	43.209	-73.020	-67.360	41.345	89.020	-68.326	-64.448	-63.566	-58.484	66.771	-60.626	-8191	255	
2203.293	1	1	0	0	0.11177	0.088729	0.14614	0.16866	0.17197	0.078103	0.33551	0.20602	0.18049	0.022317	0.20967	0.13744	0.20854	0.15523	0.15819	0.080273	-2.6771	-3.6583	-3.4771	-3.1875	-3.6083	-3.3458	-3.5646	-3.4896	-3.2313	-3.5854	-3.4146	-3.2979	-3.5563	-3.3854	-3.4417	-3.6146	86.388	44.235	92.239	36.424	-13.140	80.830	148.281	181.332	119.175	91.690	249.904	210.778	269.023	-35.472	157.743	-36.910	0.00037977	0.00040809	0.00011611	509.86	2.9096e-06	4.2142e-06	711.87	194.41	2.2038e-06	6.1534e-06	333.27	139.84	77.391	39.021	1.7439e-06	74.393	6.3994e-05	3.8656e-05	9.9611e-06	471.97	3.9005e-07	4.2883e-07	662.51	180.11	4.1888e-07	4.2351e-07	306.73	129.7	71.873	36.304	4.2583e-07	68.889	151.262	-7.415	13.445	-72.978	67.862	43.554	-73.463	-67.404	-1.778	80.904	-68.218	-64.463	-63.427	-58.604	85.655	-60.884	-8191	255	
2203.389	1	1	0	0	0.044473	0.17337	0.27381	0.028292	0.12737	0.063216	0.23101	0.30066	0.05168	0.1517	0.13924	0.20955	0.15299	0.24317	0.15733	0.20541	-2.7271	-3.4167	-3.4583	-3.3458	-3.5604	-3.3625	-3.3812	-3.6437	-3.3542	-3.2667	-3.6521	-3.1229	-3.5458	-3.5625	-3.1229	-3.6833	138.809	-76.391	152.151	134.521	144.315	127.954	-70.734	220.778	-16.824	200.263	251.322	235.836	244.732	265.784	229.491	172.554	0.00034304	0.00043876	0.0001366	511.35	1.6827e-06	3.9774e-06	708.64	193.43	3.4893e-06	3.2935e-06	333.38	139.93	77.402	39.279	2.5371e-06	74.999	6.7424e-05	3.9956e-05	9.8574e-06	473.42	4.1732e-07	4.1719e-07	661.69	179.34	4.4099e-07	4.2335e-07	306.6	129.66	71.897	36.423	4.1771e-07	69.264	148.933	-17.723	25.258	-73.106	65.594	27.349	-73.374	-67.032	38.648	55.841	-68.546	-64.375	-63.439	-58.672	84.658	-60.568	-8191	255	
2203.485	1	1	0	0	0.1532	0.075524	0.0782	0.33383	0.14227	0.15635	0.16099	0.15019	0.16643	0.13784	0.2937	0.45247	0.20412	0.18336	0.13146	0.19765	-2.8396	-3.4	-3.6479	-3.175	-3.3854	-3.3729	-3.1458	-3.5521	-3.4208	-3.3146	-3.5042	-3.3604	-3.6146	-3.3896	-3.3208	-3.8563	140.408	52.116	57.597	150.163	-36.305	167.356	-84.795	196.690	124.109	55.339	-55.404	210.331	215.711	-79.164	144.915	204.317	0.00037978	0.00042839	0.00011207	513.2	3.2365e-06	4.8208e-06	718.18	198.56	5.4605e-06	1.9016e-06	336.65	141.29	78.231	39.501	2.3051e-06	75.05	6.6998e-05	3.8614e-05	8.947e-06	477.28	4.4223e-07	4.1053e-07	669	183.66	4.5676e-07	4.0401e-07	310.16	131.16	72.82	36.783	4.1641e-07	69.439	147.339	-13.061	14.628	-72.874	66.597	33.286	-73.062	-67.303	59.859	50.300	-67.978	-64.642	-63.256	-58.846	65.228	-60.672	-8191	255	
2203.582	1	1	0	0	0.12558	0.087979	0.20517	0.11692	0.12763	0.046859	0.17938	0.11826	0.010265	0.26255	0.11977	0.1672	0.13161	0.19414	0.22244	0.2828	-2.9188	-3.1854	-3.4792	-3.1729	-3.3771	-3.4979	-3.2292	-3.6875	-3.2729	-3.3375	-3.8958	-3.2542	-3.2979	-3.4729	-3.0542	-3.5812	-2.183	258.372	244.323	-14.284	161.887	164.918	-78.827	239.614	216.870	-17.083	-78.496	235.810	249.758	-83.899	83.127	243.509	0.00031148	0.00043311	0.00014415	516.14	3.2878e-06	3.6707e-06	721.45	197.49	1.9353e-06	5.1229e-06	332.75	141.04	77.778	39.103	2.1282e-06	74.281	6.762e-05	3.6745e-05	9.4056e-06	479.57	4.3004e-07	3.8566e-07	668.66	183.61	4.5489e-07	4.057e-07	307.96	130.33	72.521	36.399	3.8367e-07	68.757	144.104	-9.375	7.141	-72.979	51.489	21.900	-72.977	-66.893	6.743	59.545	-68.143	-64.409	-62.774	-58.814	82.929	-60.642	-8191	255	
2203.678	1	1	0	0	0.062021	0.1931	0.1261	0.13081	0.23476	0.19929	0.16967	0.13192	0.24289	0.15653	0.16056	0.070115	0.37416	0.13304	0.26018	0.17776	-2.9354	-3.2646	-3.6229	-3.3792	-3.1479	-3.6333	-3.3688	-3.4958	-3.3542	-3.1312	-3.8438	-3.4646	-3.4125	-3.8438	-3.35	-3.75	51.381	141.324	109.812	252.791	59.402	92.940	-52.778	218.672	-13.082	67.884	201.416	94.917	229.186	-22.997	175.867	200.623	0.00033229	0.00041632	0.00017201	516.88	2.8197e-06	4.171e-06	710.72	198.97	3.1499e-06	2.238e-06	334.22	140.85	79.149	39.998	3.2594e-06	75.305	6.5892e-05	3.6234e-05	9.4369e-06	478.46	4.2761e-07	3.8343e-07	664.37	184.65	4.3427e-07	3.8267e-07	308.36	130.99	73.406	37.059	4.0726e-07	69.582	148.788	-0.065	4.432	-73.172	45.619	73.665	-73.175	-67.222	38.065	48.414	-68.434	-64.902	-63.392	-58.923	42.696	-60.616	-8191	255	
2203.774	1	1	0	0	0.18237	0.22491	0.1477	0.21065	0.16918	0.074053	0.32392	0.10082	0.19785	0.17625	0.17569	0.24344	0.18327	0.26921	0.17508	0.28181	-3.3208	-3.3021	-3.675	-3.5458	-3.2958	-3.5917	-3.225	-3.475	-3.6354	-3.2479	-3.6188	-3.4437	-3.4542	-3.5938	-3.2354	-3.6437	194.227	130.230	154.274	212.506	125.024	14.666	-49.441	-84.898	253.509	93.043	-60.296	215.482	199.981	183.357	46.579	198.821	0.00036801	0.00031515	0.00011816	518.62	2.6516e-06	4.8573e-06	718.4	201.07	5.0984e-06	1.5706e-06	338.57	143.59	80.403	40.719	2.9635e-06	76.42	6.4941e-05	3.3016e-05	9.878e-06	479.95	4.1759e-07	3.5233e-07	667.26	186.14	4.2838e-07	3.601e-07	313.02	133.03	74.823	37.792	4.4524e-07	70.764	146.567	5.544	6.961	-72.818	44.391	48.900	-73.288	-67.183	40.825	88.484	-68.241	-64.500	-63.261	-58.624	72.702	-60.724	-8191	255	
2203.870	1	1	0	0	0.1224	0.19089	0.22578	0.22417	0.3234	0.15087	0.47974	0.1709	0.23455	0.14294	0.24532	0.11715	0.16979	0.039643	0.086832	0.17269	-3.0312	-3.0958	-3.5	-3.4708	-3.3563	-3.4271	-3.0917	-3.5021	-3.4833	-3.1312	-3.6667	-3.4917	-3.0458	-3.6958	-3.4708	-3.2417	-84.854	172.300	214.365	-20.414	-12.821	184.068	146.979	-70.062	50.609	258.808	-41.976	191.243	261.357	248.734	-74.329	131.966	0.00035175	0.00035348	0.00011134	521.56	1.7789e-06	4.2771e-06	718.18	203.68	5.0971e-06	2.9514e-06	342.08	144.55	81.227	41.086	3.5752e-06	77.293	6.2647e-05	3.385e-05	1.0643e-05	481.08	4.1092e-07	3.5198e-07	668.84	187.57	4.1819e-07	3.7387e-07	315.4	134.48	75.24	38.116	4.6305e-07	71.237	146.355	-9.993	-5.215	-73.002	62.417	54.268	-73.208	-67.133	38.963	61.039	-68.131	-64.510	-63.285	-58.725	44.970	-60.692	-8191	255	
2203.966	1	1	0	0	0.044713	0.14284	0.16524	0.055377	0.17702	0.1051	0.21025	0.249	0.073533	0.11596	0.090353	0.015264	0.29245	0.23285	0.16785	0.16987	-3.0312	-3.1708	-3.3771	-3.3958	-3.1146	-3.4167	-3.2854	-3.4208	-3.5396	-3.1875	-3.4562	-3.2917	-3.0583	-3.7646	-3.4021	-3.4167	-18.462	34.362	-66.023	123.609	273.699	-40.348	201.596	192.211	4.198	51.599	-40.402	79.381	229.417	258.612	203.546	197.594	0.00034744	0.00034252	0.0001186	519.7	2.8487e-06	3.8484e-06	716.5	202.13	3.5807e-06	3.1825e-06	339.94	143.69	81.268	41.262	3.089e-06	77.184	6.1358e-05	3.5326e-05	1.1343e-05	481.41	3.9028e-07	3.7274e-07	666.6	187.03	3.8932e-07	3.8744e-07	313.5	133.47	75.05	38.239	4.6087e-07	71.377	146.201	16.482	-17.856	-72.868	63.778	77.554	-73.011	-67.095	23.869	71.292	-68.291	-64.822	-63.658	-58.725	69.519	-60.886	-8191	255	
2204.062	1	1	0	0	0.049111	0.19063	0.15777	0.17615	0.16334	0.1945	0.16801	0.29988	0.10224	0.30242	0.03338	0.17373	0.0924	0.12281	0.10493	0.067764	-3.1562	-3.0938	-3.3667	-3.5438	-3.0708	-3.4437	-3.2542	-3.3458	-3.5646	-3.0708	-3.6042	-3.4625	-3.2687	-3.6021	-3.3271	-3.3917	36.266	12.610	154.767	232.580	183.204	268.079	240.609	264.992	174.087	197.893	-62.370	35.868	207.566	166.195	156.672	215.827	0.00037332	0.00042873	0.00012114	522.82	2.1453e-06	4.2793e-06	722.25	205.72	2.9892e-06	3.1958e-06	342.68	145.74	82.789	41.951	1.5657e-06	78.15	6.1647e-05	3.8211e-05	1.1357e-05	484.07	3.9763e-07	3.9812e-07	669.93	190.34	3.8848e-07	4.35e-07	317.09	135	76.45	38.986	4.3686e-07	72.291	146.912	-12.870	-15.263	-72.759	36.214	41.381	-73.130	-67.275	37.048	56.224	-68.627	-64.967	-63.783	-58.949	68.525	-60.806	-8191	255	
2204.181	1	1	0	0	0.088291	0.11817	0.22021	0.10077	0.10255	0.091095	0.20484	0.16365	0.18183	0.15003	0.15571	0.089068	0.10356	0.18119	0.012111	0.12072	-3.2021	-3.0292	-3.2854	-3.5896	-3.0687	-3.4958	-3.4875	-3.0104	-3.6667	-3.4271	-3.5375	-3.4875	-3.2333	-3.7333	-3.4833	-3.2812	23.275	56.878	263.429	39.676	-45.751	231.911	103.063	78.275	159.612	18.510	264.282	255.678	157.257	190.548	-63.424	267.116	0.0004119	0.00050723	0.00015475	524.41	1.9974e-06	4.5345e-06	723.65	206.26	2.8551e-06	4.2135e-06	347.25	148.63	83.363	43.197	2.8412e-06	80.433	6.1461e-05	3.8957e-05	1.0799e-05	486.15	3.8137e-07	4.1534e-07	671.61	191.42	3.9795e-07	4.2043e-07	319.85	137.12	77.307	39.996	4.3889e-07	74.341	146.246	-1.972	16.495	-73.073	60.788	80.144	-72.893	-67.184	43.046	73.999	-68.496	-64.950	-63.836	-59.060	49.612	-60.906	-8191	255	
2204.277	1	1	0	0	0.19162	0.082893	0.18762	0.25543	0.10962	0.23582	0.13725	0.10111	0.098993	0.21334	0.22472	0.34129	0.22737	0.16361	0.21709	0.17777	-3.1437	-3.3583	-3.1708	-3.7229	-3.1396	-3.3833	-3.5062	-3.2333	-3.6208	-3.4542	-3.2375	-3.5792	-3.3146	-3.4896	-3.6104	-3.375	179.487	34.546	78.426	181.711	203.233	95.910	104.347	-64.665	-63.987	250.934	164.606	216.189	-58.900	196.687	30.948	233.930	0.0003849	0.00026262	0.00017061	530.08	3.5544e-06	4.4732e-06	727.3	211.47	1.9309e-06	4.6416e-06	352.69	151.39	84.642	44.166	2.2755e-06	81.967	6.5735e-05	4.1481e-05	1.088e-05	490.77	3.9493e-07	4.4925e-07	678.57	195.84	4.2678e-07	4.2647e-07	324.98	139.81	78.947	41.028	4.3544e-07	75.76	144.242	14.628	15.900	-73.056	63.380	43.840	-73.452	-67.345	-10.975	75.109	-68.265	-65.121	-63.748	-59.076	66.314	-61.222	-8191	255	
2204.373	1	1	0	0	0.24449	0.18014	0.083476	0.27286	0.21897	0.20301	0.042332	0.1002	0.11884	0.2331	0.07007	0.20333	0.39335	0.26984	0.13944	0.16843	-3.1729	-3.3896	-3.1833	-3.725	-2.9333	-3.4646	-3.3083	-3.0583	-3.5875	-3.2792	-3.3646	-3.5312	-3.1562	-3.5521	-3.3417	-3.2417	-36.895	252.234	69.144	-38.277	128.518	47.303	-73.360	-79.434	80.965	143.111	263.078	176.511	249.861	163.869	243.704	37.348	0.00039901	0.00043467	0.00015012	538.09	2.53e-06	4.4661e-06	733.4	213.92	3.1127e-06	4.3021e-06	352.24	150.22	85.259	43.885	2.8485e-06	80.889	6.8504e-05	3.9865e-05	1.0837e-05	496.37	4.5309e-07	4.3406e-07	681.61	197.98	4.55e-07	4.1393e-07	324.88	139.62	79.254	40.839	4.0236e-07	74.759	142.628	2.523	1.334	-73.022	36.230	79.289	-73.137	-67.522	17.368	79.207	-68.986	-65.174	-64.166	-59.491	63.554	-61.254	-8191	255	
2204.470	1	1	0	0	0.24759	0.18189	0.10852	0.42101	0.15867	0.18698	0.37275	0.13322	0.11118	0.22583	0.076882	0.095757	0.25814	0.19094	0.05785	0.11989	-2.9292	-3.3937	-3.0687	-3.5938	-3.3521	-3.2	-3.65	-3.0479	-3.5271	-3.5979	-3.2896	-3.6521	-3.3958	-3.3229	-3.7	-3.5729	252.362	-46.119	201.096	161.390	-81.665	34.077	213.152	-69.187	42.118	77.409	101.045	-64.480	225.906	211.847	199.426	185.813	0.00042389	0.0003359	0.00013263	530.44	1.3592e-06	3.0256e-06	723.02	210.79	2.212e-06	4.3319e-06	350.27	152.17	86.607	44.873	2.1619e-06	82.279	6.773e-05	3.7744e-05	1.0082e-05	489.95	4.4493e-07	4.1046e-07	673.22	194.67	4.8873e-07	3.9132e-07	323.06	140.65	80.214	41.663	3.7881e-07	76.015	144.020	10.018	14.792	-73.176	27.982	21.451	-72.942	-67.993	16.891	23.339	-68.752	-65.398	-64.356	-59.637	42.960	-61.817	-8191	255	
2204.566	1	1	0	0	0.21337	0.11593	0.12564	0.2184	0.22845	0.19787	0.15276	0.25236	0.095714	0.02534	0.15785	0.30432	0.26033	0.092706	0.082063	0.13915	-3.0687	-3.65	-2.9792	-3.5125	-3.2438	-3.3563	-3.8125	-3.2375	-3.3167	-3.4854	-3.1396	-3.6042	-3.5229	-3.4083	-3.5042	-3.3187	86.253	133.456	5.241	-84.518	222.022	205.276	269.281	175.986	177.583	164.886	-6.442	268.385	234.202	87.728	-23.797	198.568	0.00039732	0.0004631	0.00014953	532.29	2.3829e-06	2.7672e-06	721.78	212.71	3.3578e-06	3.736e-06	356.44	157.83	90.438	47.247	2.0255e-06	85.335	7.0349e-05	3.5897e-05	9.6169e-06	492.17	4.5e-07	3.8777e-07	673.57	196.88	4.5699e-07	3.9071e-07	328.31	145.72	83.835	43.643	4.0244e-07	79.046	144.030	-18.174	-28.727	-72.889	40.748	28.873	-73.247	-68.103	61.346	57.888	-68.948	-65.541	-64.451	-60.270	97.001	-62.088	-8191	255	
2204.662	1	1	0	0	0.16766	0.11366	0.2057	0.34372	0.094215	0.11155	0.25839	0.18943	0.1884	0.20168	0.13826	0.26933	0.07734	0.25952	0.1071	0.23757	-2.9604	-3.4938	-3.3	-3.5042	-3.5125	-3.2104	-3.4979	-3.5667	-3.2417	-3.5229	-3.2042	-3.5125	-3.5125	-3.3021	-3.5938	-3.4167	-43.013	14.664	247.558	268.178	224.455	78.471	216.176	230.082	50.535	265.419	260.313	232.653	-29.481	-82.025	57.461	185.862	0.00041056	0.00034298	0.00011493	549.99	3.8295e-06	4.4118e-06	748.06	227.25	5.0873e-06	5.2777e-06	374.15	167.74	98.998	50.884	3.9043e-06	90.081	7.1765e-05	3.595e-05	9.654e-06	510.23	4.3096e-07	3.8601e-07	693.15	209.96	4.5073e-07	3.8071e-07	345.11	155.86	91.62	47.185	4.4632e-07	83.099	151.153	-4.080	-1.995	-73.010	44.297	46.583	-73.277	-68.319	13.528	66.106	-69.263	-65.683	-65.145	-60.866	72.124	-62.830	-8191	255	
2204.783	1	1	0	0	0.095794	0.022038	0.13577	0.33172	0.094036	0.14635	0.17754	0.077537	0.13599	0.14011	0.13039	0.39136	0.26269	0.10656	0.12445	0.17206	-3.0229	-3.3333	-3.1667	-3.3812	-3.4104	-3.0875	-3.5833	-3.2729	-3.225	-3.6917	-3.2625	-3.5354	-3.4646	-3.275	-3.3979	-3.3937	-19.089	-75.121	49.208	209.660	168.531	83.615	188.000	-32.702	-63.396	-46.948	259.591	194.032	204.971	211.384	128.928	165.972	0.00045179	0.00051896	0.00013079	566.37	3.5328e-06	5.3638e-06	764.58	238.38	2.896e-06	4.7377e-06	389.74	177.5	106.89	54.549	2.5767e-06	94.243	7.2127e-05	3.8523e-05	1.1254e-05	527.85	4.3968e-07	4.0323e-07	707.14	221	4.7685e-07	3.7218e-07	359.09	164.32	98.853	50.434	5.044e-07	86.838	147.724	-15.268	13.180	-72.951	28.981	39.026	-73.333	-68.524	29.131	85.479	-69.374	-66.204	-65.252	-61.354	72.048	-63.172	-8191	255	
#DATA ENDS
