BOXY.EXE: ISS Imagent and Oximeter Data Acquisition Program Version 0.80
Ascii Record File

#ACQ INFORMATION
2  Detector Channels 
16  External MUX Channels 
1  Auxiliary Channels 
5000  Waveform (CCF) Frequency (Hz)
1  Waveforms Skipped 
30  Waveforms Averaged 
1  Cycles Averaged 
16  Acquisitions per Waveform 
10.0806  Updata Rate (Hz) 

#FILE INFORMATION
TRUE -- External MUX Channel results are PARSED.
FALSE -- AC DC and Phase are NOT grouped.
TRUE -- Companion Program Settings File CREATED.
FALSE -- AC data not excluded
FALSE -- DC data not excluded
FALSE -- Phase data not excluded
FALSE -- Auxillary Chn. data not excluded
Tab delimiters

#CALIBRATION STATE
TRUE -- Waveform Calibration Values APPLIED.


#AUX CALIBRATION VALUES
Val Type	aux-1	

Term	1.0000e+00	
Factor	0.0000e+00	


#WF CALIBRATION VALUES
A = Detector Channel
Val Type	A-AC1	A-AC2	A-AC3	A-AC4	A-AC5	A-AC6	A-AC7	A-AC8	A-AC9	A-AC10	A-AC11	A-AC12	A-AC13	A-AC14	A-AC15	A-AC16	A-DC1	A-DC2	A-DC3	A-DC4	A-DC5	A-DC6	A-DC7	A-DC8	A-DC9	A-DC10	A-DC11	A-DC12	A-DC13	A-DC14	A-DC15	A-DC16	A-Ph1	A-Ph2	A-Ph3	A-Ph4	A-Ph5	A-Ph6	A-Ph7	A-Ph8	A-Ph9	A-Ph10	A-Ph11	A-Ph12	A-Ph13	A-Ph14	A-Ph15	A-Ph16	

Term	0.00000e+00	0.00000e+00	0.00000e+00	0.00000e+00	0.00000e+00	0.00000e+00	0.00000e+00	0.00000e+00	0.00000e+00	0.00000e+00	0.00000e+00	0.00000e+00	0.00000e+00	0.00000e+00	0.00000e+00	0.00000e+00	0.00000e+00	0.00000e+00	0.00000e+00	0.00000e+00	0.00000e+00	0.00000e+00	0.00000e+00	0.00000e+00	0.00000e+00	0.00000e+00	0.00000e+00	0.00000e+00	0.00000e+00	0.00000e+00	0.00000e+00	0.00000e+00	0.00000e+00	0.00000e+00	0.00000e+00	0.00000e+00	0.00000e+00	0.00000e+00	0.00000e+00	0.00000e+00	0.00000e+00	0.00000e+00	0.00000e+00	0.00000e+00	0.00000e+00	0.00000e+00	0.00000e+00	0.00000e+00	
Factor	1.00000e+00	1.00000e+00	1.00000e+00	1.00000e+00	1.00000e+00	1.00000e+00	1.00000e+00	1.00000e+00	1.00000e+00	1.00000e+00	1.00000e+00	1.00000e+00	1.00000e+00	1.00000e+00	1.00000e+00	1.00000e+00	1.00000e+00	1.00000e+00	1.00000e+00	1.00000e+00	1.00000e+00	1.00000e+00	1.00000e+00	1.00000e+00	1.00000e+00	1.00000e+00	1.00000e+00	1.00000e+00	1.00000e+00	1.00000e+00	1.00000e+00	1.00000e+00	X	X	X	X	X	X	X	X	X	X	X	X	X	X	X	X	

B = Detector Channel
Val Type	B-AC1	B-AC2	B-AC3	B-AC4	B-AC5	B-AC6	B-AC7	B-AC8	B-AC9	B-AC10	B-AC11	B-AC12	B-AC13	B-AC14	B-AC15	B-AC16	B-DC1	B-DC2	B-DC3	B-DC4	B-DC5	B-DC6	B-DC7	B-DC8	B-DC9	B-DC10	B-DC11	B-DC12	B-DC13	B-DC14	B-DC15	B-DC16	B-Ph1	B-Ph2	B-Ph3	B-Ph4	B-Ph5	B-Ph6	B-Ph7	B-Ph8	B-Ph9	B-Ph10	B-Ph11	B-Ph12	B-Ph13	B-Ph14	B-Ph15	B-Ph16	

Term	0.00000e+00	0.00000e+00	0.00000e+00	0.00000e+00	0.00000e+00	0.00000e+00	0.00000e+00	0.00000e+00	0.00000e+00	0.00000e+00	0.00000e+00	0.00000e+00	0.00000e+00	0.00000e+00	0.00000e+00	0.00000e+00	0.00000e+00	0.00000e+00	0.00000e+00	0.00000e+00	0.00000e+00	0.00000e+00	0.00000e+00	0.00000e+00	0.00000e+00	0.00000e+00	0.00000e+00	0.00000e+00	0.00000e+00	0.00000e+00	0.00000e+00	0.00000e+00	-2.28318e+02	-1.28261e+02	-1.22557e+02	-1.79784e+02	-6.98370e+01	-5.69121e+01	-1.58204e+02	-1.62015e+02	-8.96925e+01	-7.94603e+01	-1.70039e+02	-1.72048e+02	-1.82281e+02	-1.76085e+02	-7.57894e+01	-1.48903e+02	
Factor	4.44743e-05	1.16669e-04	3.11420e-05	1.50107e-01	1.44705e-06	1.30124e-06	1.55391e-01	5.73555e-02	1.61794e-06	1.31520e-06	7.33951e-02	2.70137e-02	2.41607e-02	7.75268e-03	1.42893e-06	1.11630e-02	1.56745e-06	1.64600e-06	4.64896e-07	7.58927e-02	1.78137e-08	1.80026e-08	7.42071e-02	2.88859e-02	1.77144e-08	1.80151e-08	3.60562e-02	1.31780e-02	1.21309e-02	3.93631e-03	1.80715e-08	5.48598e-03	X	X	X	X	X	X	X	X	X	X	X	X	X	X	X	X	



#DISTANCE SETTINGS
A = Detector Channel
A-1	A-2	A-3	A-4	A-5	A-6	A-7	A-8	A-9	A-10	A-11	A-12	A-13	A-14	A-15	A-16	

2.5000e+00	3.0000e+00	2.5000e+00	3.0000e+00	2.0000e+00	3.0000e+00	1.5000e+00	3.0000e+00	3.0000e+00	3.0000e+00	3.0000e+00	3.0000e+00	3.0000e+00	3.0000e+00	1.5000e+00	3.0000e+00	

B = Detector Channel
B-1	B-2	B-3	B-4	B-5	B-6	B-7	B-8	B-9	B-10	B-11	B-12	B-13	B-14	B-15	B-16	

1.0000e+01	1.0000e+01	1.0000e+01	1.4400e+00	1.0000e+01	1.0000e+01	1.5100e+00	1.9400e+00	1.0000e+01	1.0000e+01	1.9900e+00	2.4900e+00	2.4100e+00	2.9000e+00	1.0000e+01	2.9800e+00	




#DATA BEGINS
time	group	step	mark	flag	A-AC1	A-AC2	A-AC3	A-AC4	A-AC5	A-AC6	A-AC7	A-AC8	A-AC9	A-AC10	A-AC11	A-AC12	A-AC13	A-AC14	A-AC15	A-AC16	A-DC1	A-DC2	A-DC3	A-DC4	A-DC5	A-DC6	A-DC7	A-DC8	A-DC9	A-DC10	A-DC11	A-DC12	A-DC13	A-DC14	A-DC15	A-DC16	A-Ph1	A-Ph2	A-Ph3	A-Ph4	A-Ph5	A-Ph6	A-Ph7	A-Ph8	A-Ph9	A-Ph10	A-Ph11	A-Ph12	A-Ph13	A-Ph14	A-Ph15	A-Ph16	B-AC1	B-AC2	B-AC3	B-AC4	B-AC5	B-AC6	B-AC7	B-AC8	B-AC9	B-AC10	B-AC11	B-AC12	B-AC13	B-AC14	B-AC15	B-AC16	B-DC1	B-DC2	B-DC3	B-DC4	B-DC5	B-DC6	B-DC7	B-DC8	B-DC9	B-DC10	B-DC11	B-DC12	B-DC13	B-DC14	B-DC15	B-DC16	B-Ph1	B-Ph2	B-Ph3	B-Ph4	B-Ph5	B-Ph6	B-Ph7	B-Ph8	B-Ph9	B-Ph10	B-Ph11	B-Ph12	B-Ph13	B-Ph14	B-Ph15	B-Ph16	aux-1	digaux	

7192.573	1	1	0	512	0.23486	0.047269	0.2711	0.11564	0.15336	0.068787	0.10644	0.2432	0.26466	0.26567	0.041987	0.24767	0.049823	0.23542	0.18817	0.22287	-2.7542	-3.2687	-3.1354	-2.9604	-3.3479	-3.0292	-3.2042	-3.1521	-3.0875	-3.3333	-3.3833	-3.0833	-3.3833	-3.1667	-2.9	-3.4062	174.342	106.939	24.592	-27.698	78.561	-105.056	-125.118	172.708	69.388	-82.542	156.282	-133.817	-94.775	173.133	-64.335	159.318	0.0016814	0.00071988	0.00028061	495.27	5.7232e-06	1.2043e-05	757.96	174.45	1.2345e-05	3.1651e-06	338.84	162.77	74.928	32.176	4.0599e-06	83.64	0.0011683	0.0013407	0.00036445	540.89	1.2704e-05	1.5065e-05	805.29	192.38	1.3014e-05	1.5061e-05	361.09	169.92	82.672	34.912	1.3898e-05	86.351	98.797	108.734	-25.504	-127.618	157.631	-105.251	-127.407	-122.219	-38.922	-75.248	-122.908	-118.849	-118.870	-113.513	89.353	-115.064	-8191	255	
7192.669	1	1	0	0	0.12473	0.081471	0.1387	0.099283	0.16771	0.11262	0.071309	0.27291	0.042505	0.19699	0.23092	0.13842	0.23027	0.2171	0.1965	0.23749	-2.4437	-3.1333	-3.1083	-2.9625	-3.2271	-3.1562	-3.2562	-3.1937	-2.9625	-3.1896	-3.3875	-3.0708	-3.475	-3.0917	-3.1979	-3.425	-32.158	-105.476	-103.760	-33.506	217.291	171.950	178.108	194.977	199.649	89.311	200.698	215.292	206.629	-139.959	197.700	113.113	0.0017613	0.00018895	6.9667e-05	492.65	2.7884e-06	5.7119e-06	756.89	174.6	7.2868e-06	8.7135e-06	339.52	163.64	75.843	32.36	4.2615e-06	83.476	0.0012376	0.0013755	0.00035409	539.69	1.3577e-05	1.5144e-05	803.7	191.63	1.3905e-05	1.4969e-05	360.85	170.29	83.84	35.067	1.4045e-05	86.455	94.879	-123.961	145.883	-127.654	170.599	12.888	-127.421	-122.703	-10.017	87.479	-122.761	-118.781	-119.150	-113.524	-33.707	-115.175	-8191	255	
7192.788	1	1	0	0	0.19556	0.137	0.17346	0.24164	0.084572	0.2492	0.30073	0.14311	0.31162	0.19339	0.042872	0.050019	0.15614	0.22983	0.1482	0.080272	-2.5938	-3.1375	-3.1479	-3.1125	-3.4979	-3.1125	-3.0062	-3.4333	-2.8458	-3.2542	-3.4021	-2.9583	-3.3521	-3.3229	-2.975	-3.6458	-101.345	-82.524	137.819	174.574	-93.202	77.173	120.099	90.195	-114.899	133.971	-65.384	72.746	-57.345	-118.588	57.240	186.671	0.0019574	0.00057094	0.00011637	496.94	1.0648e-05	4.3788e-06	757.56	175.78	9.0884e-06	1.3261e-05	338.91	163.57	75.119	32.287	1.9445e-06	83.324	0.0013656	0.0014123	0.00036272	543.25	1.5156e-05	1.5563e-05	807.28	193.76	1.5564e-05	1.5549e-05	361.85	170.92	84.526	35.068	1.4262e-05	86.636	94.907	-31.893	-108.923	-127.585	-69.415	43.256	-127.572	-122.585	17.852	-19.893	-122.814	-119.001	-119.237	-113.593	23.586	-115.192	-8191	255	
7192.884	1	1	0	0	0.24106	0.29494	0.11021	0.22176	0.29418	0.072994	0.047531	0.23367	0.0063459	0.1985	0.14034	0.19398	0.13305	0.18952	0.042138	0.0615	-2.3479	-2.9292	-3.2417	-3.0187	-3.2938	-3.1375	-3.0396	-3.3312	-3.2146	-3.0083	-3.4375	-2.9813	-3.1417	-3.3729	-3.0021	-3.5833	-119.372	3.828	142.160	-105.194	-17.093	14.742	146.048	133.391	51.537	-129.448	189.525	103.089	209.092	-91.487	-0.047	-113.766	0.0018238	0.00075634	0.00015758	494.28	1.317e-05	8.9372e-06	754.91	174.91	1.6914e-05	2.1557e-05	339.14	163.33	75.136	32.364	4.7962e-06	83.467	0.0014466	0.0013958	0.00036448	546	1.6046e-05	1.5089e-05	807.09	194.71	1.6264e-05	1.5171e-05	362.05	172.12	85.157	35.23	1.4199e-05	87.124	99.243	-23.696	-43.227	-127.557	-51.415	1.243	-127.579	-122.305	-20.059	-12.227	-122.802	-119.080	-119.001	-113.404	-16.779	-115.254	-8191	255	
7192.980	1	1	0	0	0.25251	0.12821	0.072695	0.34311	0.20816	0.23203	0.12776	0.057472	0.25793	0.099367	0.26396	0.048607	0.14472	0.20295	0.09523	0.25773	-2.7438	-2.9625	-3.2896	-2.8521	-3.1188	-3.1271	-2.9938	-3.4292	-3.1021	-2.9646	-3.5312	-3.0771	-3.2771	-3.2208	-2.9458	-3.5917	105.777	164.419	-16.173	22.895	189.312	-116.580	81.272	166.222	50.076	68.358	158.758	-119.185	-86.125	122.655	219.402	161.757	0.0015807	0.0014031	0.00027484	494.99	1.1543e-05	5.2203e-06	757.47	175.06	1.0633e-05	9.4967e-06	340.24	163.05	75.2	32.341	4.5267e-06	83.629	0.001479	0.001373	0.00035946	550.1	1.6119e-05	1.4613e-05	803.38	196.02	1.5703e-05	1.4523e-05	361.02	171.41	84.028	34.889	1.3531e-05	87.124	98.336	-70.504	-65.815	-127.740	13.214	39.106	-127.451	-122.584	-41.952	-64.752	-122.603	-119.048	-119.014	-113.486	-36.133	-115.048	-8191	255	
7193.076	1	1	0	0	0.23064	0.16956	0.20236	0.16326	0.091623	0.14396	0.099882	0.022887	0.12066	0.054092	0.22534	0.20867	0.17706	0.28983	0.031805	0.098511	-2.6937	-2.9271	-3.2208	-3.0479	-2.8812	-3.1583	-2.9875	-3.5396	-2.9604	-3.1417	-3.4062	-3.2083	-2.975	-3.15	-3.0917	-3.4792	70.034	66.819	24.351	176.762	-81.693	-37.786	21.453	-8.224	45.000	138.305	159.309	-32.105	7.332	215.879	126.773	141.617	0.0016228	0.00054788	0.00031672	492.58	8.1397e-06	5.9084e-06	755.06	175.34	1.0463e-05	5.408e-06	339.58	162.44	74.996	32.144	3.0234e-06	83.272	0.0013601	0.0012791	0.00033856	549.05	1.4706e-05	1.3556e-05	799.19	195.76	1.4221e-05	1.3429e-05	359.92	170.66	82.974	34.59	1.3117e-05	86.776	99.130	-55.204	-71.929	-127.403	-25.230	-13.389	-127.310	-122.140	-36.491	-31.311	-122.692	-118.959	-118.634	-113.363	187.190	-115.041	-8191	255	
7193.172	1	1	0	0	0.29459	0.31819	0.14992	0.18403	0.21417	0.16704	0.20541	0.19791	0.14712	0.069267	0.14424	0.28457	0.094628	0.17179	0.14298	0.18001	-2.7208	-2.9708	-3.1875	-3.0333	-3.25	-3.3	-2.9646	-3.2229	-3.2042	-3.1	-3.4771	-3.1167	-3.0563	-3.3667	-3.0604	-3.4354	-58.064	207.668	-62.271	82.329	-37.364	-123.819	160.005	163.981	127.410	213.472	58.010	207.847	-39.028	32.377	-107.611	210.467	0.0016326	0.00066757	9.1058e-05	491.29	1.7447e-05	3.8144e-06	750.04	174.43	1.7127e-05	6.073e-06	338.63	161.31	74.276	32.154	1.1637e-05	82.733	0.0012361	0.0011741	0.00033307	544.78	1.3302e-05	1.2454e-05	794.17	194.63	1.3156e-05	1.253e-05	359.24	169.16	81.967	34.346	1.3409e-05	86.099	102.640	-45.632	168.325	-127.631	19.605	79.245	-127.605	-122.552	-17.445	-24.021	-122.942	-118.815	-118.909	-113.438	-87.837	-115.038	-8191	255	
7193.268	1	1	0	0	0.20202	0.19375	0.14361	0.42004	0.29969	0.28591	0.12381	0.13942	0.17572	0.13115	0.12476	0.09735	0.15292	0.11272	0.044508	0.40029	-2.9167	-3.0292	-3.0542	-3.1958	-2.9792	-3.4271	-2.9396	-3.2021	-3.2625	-2.8708	-3.4125	-3.3854	-3.0542	-3.5104	-3.1188	-3.0229	174.338	-20.223	-20.857	207.215	185.847	-106.023	158.210	-109.731	63.527	-40.627	-129.578	116.401	204.482	-133.496	100.519	167.482	0.0015929	0.00044826	0.0001187	493	6.8481e-06	7.7107e-06	747.2	175.05	1.643e-05	7.507e-06	339.6	161.2	74.648	31.974	3.1563e-06	82.917	0.00117	0.0011171	0.00034307	542.21	1.2634e-05	1.1778e-05	793.79	192.89	1.2114e-05	1.1909e-05	360.56	168.26	81.378	34.295	1.3848e-05	86.194	98.524	-48.570	13.504	-127.658	55.935	4.706	-127.625	-122.156	-2.564	74.341	-122.806	-119.024	-118.942	-113.457	51.706	-114.946	-8191	255	
7193.389	1	1	0	0	0.25688	0.11076	0.070249	0.083738	0.093088	0.16014	0.038439	0.044025	0.13308	0.093683	0.052137	0.34546	0.11033	0.24086	0.24864	0.27756	-3.0083	-2.9437	-3.2875	-3.2917	-2.8958	-3.4062	-3.1875	-2.9833	-3.3208	-3.0479	-3.3917	-3.2562	-3.0292	-3.2625	-2.975	-3.2729	-8.110	147.020	64.808	-36.630	-49.506	160.896	18.414	-119.866	-122.211	209.486	158.296	-133.745	55.314	177.999	-113.204	197.303	0.001546	0.00040586	0.00011112	490.85	7.1858e-06	2.2208e-06	748.75	174.51	1.5108e-05	2.7505e-06	338.95	161.81	74.313	32.309	1.3862e-06	83.867	0.0011241	0.0011127	0.00036023	537.74	1.246e-05	1.2133e-05	796.57	192.42	1.2185e-05	1.2566e-05	361.5	168.35	81.371	34.632	1.4622e-05	86.711	107.442	113.275	-135.131	-127.526	-17.273	-91.166	-127.420	-122.291	-14.941	-89.415	-122.511	-118.920	-118.671	-113.318	170.983	-114.949	-8191	255	
7193.483	1	1	0	0	0.10638	0.13124	0.052717	0.12533	0.17553	0.16799	0.14403	0.04692	0.22851	0.10688	0.21649	0.18853	0.06578	0.31492	0.088034	0.15523	-2.8167	-2.9021	-3.0854	-3.1	-2.9813	-3.2292	-3.0667	-3.1937	-3.2313	-2.8479	-3.2771	-3.4667	-2.9792	-3.3979	-3.1562	-3.1083	179.369	69.090	85.920	197.102	-130.660	53.665	132.948	144.071	-4.531	128.014	195.009	-110.997	-2.681	164.948	120.043	152.792	0.0015466	0.0002026	3.5331e-05	490	5.119e-06	6.7756e-06	750.65	174.59	2.6027e-06	4.6804e-06	338.97	161.84	74.814	32.17	4.1643e-06	83.263	0.0011429	0.0012212	0.00038317	538.19	1.2792e-05	1.3464e-05	802.02	192.61	1.2595e-05	1.4049e-05	363.24	168.81	81.889	34.819	1.5043e-05	86.279	97.561	110.720	-138.827	-127.585	-28.926	-75.121	-127.343	-122.397	-96.913	210.376	-122.521	-119.045	-119.123	-113.753	164.801	-115.089	-8191	255	
7193.557	1	1	0	0	0.13934	0.11692	0.14449	0.088911	0.15185	0.28436	0.15218	0.33106	0.18943	0.049628	0.10678	0.13604	0.29954	0.28272	0.15826	0.19304	-3.0146	-2.8604	-3.1125	-3.3063	-2.9604	-3.3042	-3.2229	-2.8125	-3.4021	-2.8688	-3.2958	-3.3438	-2.8458	-3.1688	-3.0729	-3.2333	-100.225	14.363	-62.993	-139.167	-121.192	-86.843	118.761	173.842	-33.655	55.801	-35.186	-36.914	-132.411	218.347	128.470	184.775	0.0016986	0.00037436	0.00020737	489.57	2.4839e-06	4.8794e-06	752.31	174.03	1.0154e-05	4.1432e-06	340.23	161.93	74.044	32.083	1.4349e-05	83.169	0.001159	0.0013119	0.00037864	538.02	1.2678e-05	1.4276e-05	799.16	191.55	1.2252e-05	1.4331e-05	361.83	167.65	81.237	34.835	1.3931e-05	85.951	99.355	-100.259	11.807	-127.636	-75.130	121.661	-127.715	-122.084	-45.062	111.783	-122.462	-118.882	-119.013	-113.419	40.595	-115.071	-8191	255	
7193.653	1	1	0	0	0.31091	0.21417	0.11659	0.24389	0.18831	0.19404	0.29871	0.20425	0.16725	0.20294	0.15708	0.14562	0.13064	0.20302	0.18605	0.31263	-2.8167	-2.9688	-3.0708	-3.2021	-2.9083	-3.2542	-3.2	-3.0917	-3.1813	-3.2104	-3.2271	-3.3583	-3.2	-3.1833	-3.3521	-3.1063	-28.533	-136.542	127.257	-128.146	184.830	114.676	134.769	79.101	161.336	-122.725	-125.033	166.666	147.981	216.643	19.339	115.586	0.0017426	9.4973e-05	0.00012569	488.22	4.5089e-06	9.8523e-07	748.5	174.29	1.4513e-05	6.7138e-06	338.86	161.56	74.873	32.376	6.2614e-06	83.541	0.0011431	0.0013323	0.00035308	533.9	1.2707e-05	1.459e-05	794.94	191.26	1.2815e-05	1.4961e-05	361.08	168.12	82.443	35.157	1.3965e-05	86.348	97.845	99.388	-103.019	-127.672	32.640	63.827	-127.498	-122.203	-61.953	20.931	-122.886	-119.069	-118.815	-113.682	-73.054	-115.070	-8191	255	
7193.772	1	1	0	0	0.18886	0.094254	0.19113	0.17964	0.15176	0.086509	0.091979	0.18243	0.098136	0.29927	0.10507	0.12622	0.39111	0.13499	0.061577	0.26822	-2.5979	-3.1604	-3.0542	-3.3896	-3.0625	-3.0542	-3.2458	-2.9896	-3.2188	-3.1042	-3.0479	-3.5	-3.0563	-3.1312	-3.2229	-3.05	76.036	168.884	171.194	-81.757	-24.136	131.968	110.397	-59.350	14.525	75.836	-65.871	7.582	202.877	114.036	25.668	144.356	0.0019123	0.00037812	0.00013575	492.72	3.1935e-06	9.3205e-06	752.92	173.97	8.5501e-06	9.9808e-06	338.36	163.3	74.848	32.478	9.817e-06	83.314	0.0012586	0.0014065	0.000362	537.66	1.4239e-05	1.5469e-05	800.03	192.44	1.4627e-05	1.5844e-05	362.61	170.07	84.019	35.453	1.4501e-05	86.663	92.045	-11.319	-30.258	-127.315	53.802	22.045	-127.541	-122.238	10.642	29.351	-122.765	-118.961	-119.033	-113.244	-83.607	-115.138	-8191	255	
7193.868	1	1	0	0	0.13837	0.059427	0.1292	0.2698	0.088328	0.14801	0.31805	0.25579	0.22612	0.20301	0.13817	0.22586	0.18432	0.18225	0.26762	0.40714	-2.9896	-3.0146	-2.8812	-3.4021	-2.95	-2.9958	-3.5042	-2.9021	-3.3104	-3.1813	-2.9708	-3.4521	-3.0687	-3.0812	-3.175	-3.1063	-43.976	-5.757	-85.218	156.171	-27.626	115.279	158.815	-85.883	11.470	-40.827	-29.268	171.970	188.981	201.008	152.015	189.723	0.0016319	0.001392	0.00020376	488.39	3.3673e-06	6.2057e-06	746.64	173.91	9.0458e-06	3.6288e-06	337.29	161.13	74.079	32.306	3.9563e-06	83.3	0.0013974	0.0014239	0.00037314	538	1.5532e-05	1.5413e-05	796.36	192.23	1.5293e-05	1.4976e-05	360.51	168.15	83.268	35.063	1.3587e-05	86.332	92.046	-31.989	-78.543	-127.161	55.389	116.001	-127.531	-122.620	-140.161	28.457	-122.518	-119.079	-119.311	-113.462	60.208	-115.285	-8191	255	
7193.964	1	1	0	0	0.13042	0.26245	0.12925	0.069873	0.08884	0.44833	0.16659	0.1928	0.14178	0.21945	0.33997	0.23243	0.2544	0.03882	0.16631	0.016156	-2.9083	-3.2479	-3.0271	-3.2917	-2.875	-3.0812	-3.4104	-2.9896	-3.2375	-3.0542	-3.0146	-3.2687	-3.2854	-3.1167	-3.2042	-3.15	-94.032	134.528	33.884	-105.162	1.581	-37.132	188.634	134.141	189.999	-67.995	-126.502	129.917	125.787	-1.882	91.069	59.802	0.0015853	0.00082636	0.00011481	488.96	8.2275e-06	2.3009e-06	749.35	173.45	3.4853e-06	8.9199e-06	340.02	161.93	74.612	32.343	2.557e-06	83.378	0.0013948	0.001324	0.00035663	538.11	1.5599e-05	1.4636e-05	794.94	193.42	1.591e-05	1.4886e-05	361.22	170.19	84.72	35.284	1.4415e-05	87.257	97.807	-58.643	184.837	-127.608	-33.267	92.608	-127.483	-122.386	187.810	-8.893	-122.873	-118.920	-118.893	-113.597	-9.040	-115.228	-8191	255	
7194.060	1	1	0	0	0.11458	0.17505	0.082904	0.11495	0.050889	0.068521	0.11291	0.25872	0.13468	0.12011	0.28803	0.24226	0.24279	0.21851	0.14293	0.31805	-2.5958	-3.25	-2.9292	-3.3479	-3.1229	-2.9167	-3.3667	-3.0812	-3.1375	-3.2875	-2.9646	-3.3063	-3.075	-3.2354	-3.3292	-3.1479	-94.791	-138.780	-97.549	-53.549	-36.849	123.073	151.141	107.887	-36.811	-62.296	-137.375	207.530	-118.557	193.156	138.472	168.840	0.0016556	0.0012114	0.00019596	491	8.442e-06	1.1545e-05	750.05	173.95	1.0282e-05	1.0144e-05	339.49	162.87	75.32	32.63	3.1605e-06	83.889	0.0015183	0.0014038	0.00038138	548.63	1.6892e-05	1.5656e-05	801	196.86	1.6757e-05	1.5417e-05	363.16	172.29	84.881	35.481	1.4786e-05	88.13	104.436	-28.566	-6.013	-127.983	-12.171	-10.148	-127.589	-122.581	61.121	26.422	-122.800	-119.060	-119.099	-113.613	-31.907	-115.218	-8191	255	
7194.156	1	1	0	0	0.061937	0.078492	0.098479	0.22469	0.1626	0.18172	0.21126	0.15724	0.28098	0.16596	0.053609	0.066812	0.19686	0.12989	0.13168	0.14861	-2.5854	-3.2458	-2.8646	-3.2479	-3.1813	-2.8854	-3.4146	-3.0333	-3.0917	-3.4	-3.0521	-3.2521	-3.1937	-3.0417	-3.0875	-3.15	-105.523	41.607	-110.682	206.596	77.984	-58.122	182.342	70.308	-27.876	98.630	206.095	113.557	87.942	192.739	-68.289	-11.670	0.0015471	0.0012655	0.0002881	488.15	7.377e-06	8.3638e-06	750.89	173.14	1.8349e-05	5.9691e-06	338.92	162.72	75.033	32.59	6.8108e-06	83.753	0.0015095	0.0014142	0.00039233	553.96	1.6662e-05	1.5809e-05	804.59	198.69	1.6758e-05	1.5718e-05	364.33	173.36	84.958	35.536	1.6028e-05	88.458	101.740	-93.567	-16.144	-127.726	-9.541	6.123	-127.327	-122.521	-8.606	-33.611	-122.818	-119.165	-118.879	-113.668	-6.526	-115.080	-8191	255	
7194.253	1	1	0	0	0.040042	0.18832	0.14258	0.048071	0.17472	0.15105	0.10073	0.1126	0.082261	0.055373	0.12729	0.19919	0.10587	0.0804	0.19836	0.30875	-2.8896	-3.2292	-2.9313	-3.4229	-2.9792	-3.0167	-3.4896	-3.0354	-3.1104	-3.5083	-2.9667	-3.3812	-3.3187	-2.7771	-3.4	-3.1646	-78.507	-59.953	129.093	-8.397	-91.128	172.580	138.617	50.698	-81.516	52.276	192.050	149.689	111.002	73.269	217.078	155.923	0.0014369	0.0012332	7.6603e-05	492.56	6.474e-06	1.3883e-05	748.27	173.03	3.0402e-06	1.2548e-05	337.88	162.26	74.68	32.419	3.1713e-06	83.863	0.0015368	0.0014393	0.00042343	557.86	1.6505e-05	1.5887e-05	805.98	199.15	1.6359e-05	1.547e-05	365.36	172.34	84.085	35.323	1.6884e-05	88.194	100.309	35.646	182.611	-127.606	57.507	-12.391	-127.553	-122.158	-77.450	-7.336	-123.082	-119.018	-118.902	-113.484	142.407	-115.190	-8191	255	
7194.349	1	1	0	0	0.27481	0.022176	0.052888	0.13066	0.18033	0.2466	0.07747	0.2424	0.22107	0.049263	0.11093	0.19235	0.20635	0.1446	0.29937	0.25275	-2.6146	-3.4771	-2.9813	-3.2229	-3.3042	-2.8187	-3.4021	-3.1104	-2.8688	-3.3146	-3.175	-3.2979	-3.3479	-2.9229	-3.2438	-3.4083	17.267	211.373	0.983	82.535	31.393	-100.218	-106.698	193.666	175.437	-87.114	130.162	123.471	-99.117	-79.855	1.248	158.953	0.0016025	0.00034595	0.00012552	491.88	3.7421e-06	4.1292e-06	746.32	173.24	8.0189e-06	8.7726e-06	337.55	161.24	74.2	32.287	2.5291e-06	83.776	0.0014716	0.001395	0.00044371	555.59	1.5814e-05	1.5467e-05	806.65	197.49	1.5853e-05	1.5142e-05	366.52	171.36	83.491	35.275	1.7633e-05	88.079	103.383	-88.733	118.196	-127.681	36.592	77.529	-127.551	-122.433	33.265	9.854	-123.063	-118.929	-118.825	-113.394	142.131	-115.177	-8191	255	
7194.469	1	1	0	0	0.099432	0.41554	0.0679	0.27331	0.25563	0.17289	0.043047	0.15548	0.23504	0.15377	0.41585	0.14966	0.10681	0.19031	0.25513	0.29091	-2.5	-3.3688	-3.1104	-3.125	-3.3375	-2.8812	-3.3271	-3.1417	-2.8	-3.1896	-3.1458	-3.2625	-3.4521	-2.9854	-3.1104	-3.5521	202.178	94.160	193.583	-136.808	-23.569	30.367	118.449	-122.550	144.981	-84.795	169.019	171.460	176.814	161.985	132.642	135.726	0.0016803	0.00050434	0.00015333	487.26	7.9917e-06	5.602e-06	743.46	172.96	9.8588e-06	9.4943e-06	336.36	160.75	73.58	32.426	8.0725e-06	84.476	0.0014253	0.001399	0.00046075	551.03	1.542e-05	1.5718e-05	807.21	195.93	1.5414e-05	1.5281e-05	365.54	169.87	82.295	35.298	1.6685e-05	87.947	95.006	147.278	8.968	-127.376	-1.010	4.657	-127.680	-122.507	-10.758	194.171	-122.313	-119.142	-119.004	-113.742	-70.783	-115.209	-8191	255	
7194.565	1	1	0	0	0.055698	0.23956	0.21731	0.22307	0.2164	0.1473	0.1189	0.25019	0.062	0.15593	0.27628	0.21154	0.12644	0.40116	0.18555	0.11738	-2.5167	-3.1583	-3.0125	-3.1021	-3.1312	-2.8667	-3.2896	-3.3542	-2.8479	-3.3688	-3.1917	-3.0125	-3.2271	-3.2667	-3.2833	-3.3896	67.241	-89.988	157.881	-105.606	-104.065	202.253	74.362	-4.583	-139.678	31.030	159.645	215.525	180.063	113.422	210.274	162.707	0.0015086	0.00082174	0.00017139	484.63	1.6266e-05	4.3937e-06	742.18	171.47	7.8033e-06	5.8892e-06	334	158.71	73.098	32.354	6.9341e-06	84.155	0.001281	0.0013287	0.00041316	537.84	1.3248e-05	1.4364e-05	792.57	190.25	1.2899e-05	1.4058e-05	358.45	165.81	79.945	34.996	1.4493e-05	87.038	104.803	-125.554	51.726	-127.407	-5.152	-42.387	-127.387	-122.309	-28.101	212.602	-122.702	-118.829	-118.691	-113.404	16.770	-115.228	-8191	255	
7194.662	1	1	0	0	0.23292	0.076142	0.16515	0.27988	0.28855	0.16011	0.08098	0.1989	0.19552	0.157	0.093965	0.23107	0.038116	0.18689	0.048555	0.27475	-2.5958	-3.3896	-2.8479	-3.0729	-3.3167	-3.0083	-3.4437	-3.3521	-2.8229	-3.2229	-3.2729	-3.2313	-3.2938	-3.0229	-3.1208	-3.4021	149.434	-100.872	-32.710	110.284	14.399	140.431	89.367	-131.605	195.211	52.648	95.977	76.216	217.911	43.306	180.031	164.813	0.0017562	0.00015636	0.00015492	484.1	4.1359e-06	9.2716e-06	731.87	170.91	6.0914e-06	4.3886e-06	333.13	156.84	72.475	32.303	1.3499e-06	84.584	0.0011364	0.0012581	0.00035978	529.59	1.1787e-05	1.371e-05	777.39	186.81	1.1594e-05	1.3284e-05	352.86	162.81	78.496	34.716	1.2433e-05	86.987	100.948	55.527	-48.555	-127.757	48.736	-48.349	-127.312	-122.216	-33.215	19.506	-122.761	-118.793	-118.712	-113.720	87.986	-115.208	-8191	255	
7194.780	1	1	0	0	0.095539	0.14907	0.16665	0.12048	0.20345	0.10294	0.078274	0.035414	0.050193	0.14825	0.16727	0.19182	0.12139	0.29914	0.18502	0.20014	-2.3604	-3.3021	-3.2625	-3.1104	-3.1875	-2.7792	-3.2104	-3.4208	-3.0708	-3.2979	-3.1604	-3.0187	-3.4896	-2.9667	-2.95	-3.6937	-46.203	-103.152	104.862	-13.711	42.621	38.773	153.763	15.520	-110.213	116.959	172.325	208.013	122.493	149.100	-37.524	162.127	0.0018402	0.00043033	0.00030398	483.2	4.2675e-06	9.8022e-06	727.36	170.29	5.5745e-06	7.1108e-06	332.11	155.74	71.256	32.35	6.388e-06	84.899	0.0010344	0.0011617	0.00030822	521.29	1.0872e-05	1.257e-05	765.93	183.84	1.0901e-05	1.222e-05	348.73	160.71	77.221	34.5	1.087e-05	86.909	91.365	-129.786	15.938	-127.586	115.729	31.127	-127.409	-122.599	-94.689	8.864	-122.490	-118.903	-118.518	-113.603	-63.540	-115.043	-8191	255	
7194.852	1	1	0	0	0.17277	0.062656	0.22259	0.086591	0.1519	0.18601	0.08917	0.16152	0.2624	0.12537	0.1506	0.059015	0.046317	0.18487	0.040784	0.15912	-2.3146	-3.2062	-3.2042	-2.7854	-3.1729	-3.1167	-2.9562	-3.45	-2.9188	-3.2833	-2.9583	-2.9875	-3.3042	-3.1417	-3.2792	-3.4625	34.643	-11.725	33.286	-39.788	-112.154	92.622	-50.039	141.691	218.092	-9.392	113.735	-73.369	177.191	200.729	28.052	173.813	0.0018974	0.00051068	0.00021842	479.26	3.0469e-06	7.1284e-06	725.52	169.51	6.721e-06	8.1651e-06	333.98	155.86	71.275	32.207	1.1008e-05	84.02	0.0009983	0.0010809	0.00027881	514.83	1.1031e-05	1.219e-05	762.64	183.01	1.1881e-05	1.2658e-05	350.26	161.42	78.48	34.616	1.2301e-05	86.618	95.780	-110.442	-66.508	-127.605	-52.867	13.958	-127.522	-122.121	61.253	-24.686	-122.793	-119.071	-118.853	-113.270	29.521	-115.258	-8191	255	
7194.948	1	1	0	0	0.2655	0.17611	0.16332	0.26453	0.0346	0.18493	0.050657	0.19739	0.14223	0.15481	0.36847	0.33887	0.082707	0.19605	0.14353	0.39635	-2.5229	-3.0687	-3.0146	-3.0604	-3.3438	-3.0938	-3.1979	-3.5187	-3.0167	-3.2938	-3.3667	-3.0146	-3.4917	-3.2375	-2.9667	-3.7708	47.546	-139.069	110.120	73.299	-129.853	-76.923	-100.601	126.401	-72.544	174.625	104.773	146.595	-130.988	136.330	-1.818	181.018	0.0020879	0.00093139	0.00024923	480.67	9.447e-06	5.4018e-06	728.81	169.9	7.6718e-06	2.5084e-06	331.87	157.45	71.974	31.954	4.7591e-06	83.089	0.0012161	0.0012312	0.00032152	524.3	1.3819e-05	1.3662e-05	773.95	186.09	1.4278e-05	1.4116e-05	351.65	164.09	80.772	34.544	1.3363e-05	85.999	101.084	-44.298	-13.036	-127.592	-32.195	20.598	-127.641	-122.566	-7.100	-7.702	-122.782	-118.971	-118.677	-113.556	97.177	-115.189	-8191	255	
7195.069	1	1	0	0	0.16667	0.11026	0.076024	0.23188	0.11272	0.15847	0.068152	0.20953	0.2703	0.23464	0.0763	0.28828	0.046273	0.10135	0.10455	0.14413	-2.5396	-2.9437	-3.3521	-2.9583	-3.3688	-3.2354	-3.0854	-3.2417	-3.0646	-2.9479	-3.5646	-3.0729	-3.5271	-3.2604	-2.9958	-3.2896	191.745	82.619	-104.384	169.804	-40.844	-108.819	-109.459	149.909	-114.435	-57.869	-52.082	176.295	-15.302	196.306	29.226	191.516	0.0016641	0.00053859	0.00014102	482.99	4.2153e-06	9.1174e-06	728.89	170.39	4.5801e-06	5.5005e-06	332.87	157.32	72.597	31.991	7.5875e-06	82.871	0.0013845	0.0013165	0.00034359	531.49	1.5341e-05	1.4206e-05	776.19	188.78	1.521e-05	1.4279e-05	352.16	165.45	81.338	34.441	1.3432e-05	86.313	89.961	-25.187	-29.949	-127.442	89.549	27.481	-127.308	-122.355	-69.281	-20.102	-123.044	-118.934	-119.009	-113.564	-27.614	-115.424	-8191	255	
7195.165	1	1	0	0	0.16552	0.013091	0.1122	0.18855	0.23532	0.17314	0.095097	0.10821	0.037725	0.19864	0.2545	0.26705	0.16661	0.27789	0.025303	0.1868	-2.5563	-3.2021	-3.1729	-2.925	-3.2396	-3.2021	-3.0729	-3.3083	-3.1854	-2.9437	-3.2687	-3.1958	-2.9688	-3.3146	-2.7229	-3.4333	75.210	165.304	153.306	184.344	108.579	-67.366	112.238	192.120	-91.003	121.533	178.692	113.549	50.114	122.134	57.851	203.855	0.0017774	0.00041903	0.000188	485.3	1.2018e-05	2.4451e-06	727.06	169.14	1.3052e-05	5.297e-06	331.19	157.82	72.771	32.006	1.2769e-05	83.282	0.0013868	0.0012903	0.00034184	536.8	1.5334e-05	1.4114e-05	776.73	190.72	1.5297e-05	1.4525e-05	352.82	166.83	81.885	34.754	1.416e-05	87.244	108.742	116.008	-32.878	-127.432	-18.764	4.266	-127.784	-122.752	-43.547	-26.625	-122.808	-119.021	-118.872	-113.770	-3.986	-115.255	-8191	255	
7195.261	1	1	0	0	0.11404	0.054235	0.22188	0.10096	0.16251	0.13662	0.17839	0.10549	0.18181	0.13493	0.43117	0.11097	0.13477	0.19928	0.20449	0.13494	-2.5062	-3.0271	-3.25	-3.0667	-3.0458	-3.3563	-3.0438	-3.1208	-3.3646	-2.8583	-3.45	-3.1521	-3.2229	-3.3979	-2.7354	-3.6521	-112.263	166.350	-31.659	140.523	-89.708	13.881	122.477	23.788	-138.122	93.615	197.832	148.300	-112.228	-91.439	-95.318	201.860	0.0015707	0.00051009	7.3983e-05	481.85	1.7082e-05	7.5939e-06	727.77	170.54	1.1151e-05	9.2763e-06	331.17	158.97	72.798	31.828	3.4762e-06	83.355	0.0014283	0.001351	0.00036862	543.83	1.5961e-05	1.4897e-05	783.16	194.47	1.6062e-05	1.5394e-05	356.21	168.85	82.594	34.886	1.5845e-05	87.868	104.642	-108.023	-105.168	-127.307	69.575	9.696	-127.655	-122.315	-35.219	4.522	-122.939	-119.245	-118.645	-113.495	-86.467	-115.246	-8191	255	
7195.357	1	1	0	0	0.18073	0.14767	0.28552	0.11673	0.14105	0.1181	0.17927	0.20296	0.035826	0.12689	0.13734	0.37048	0.17608	0.16818	0.17824	0.031497	-2.5125	-2.9729	-3.3812	-3.0708	-3.1	-3.3187	-2.9458	-3.2583	-3.1833	-3.0062	-3.3521	-3.2042	-3.1667	-3.3083	-3.0187	-3.4042	143.953	-57.041	80.688	175.928	-106.401	-2.035	172.259	-132.749	-101.810	-48.516	153.380	-136.165	181.695	130.433	156.910	-125.318	0.0016511	0.00074944	9.4528e-05	483.04	8.0664e-06	1.1807e-05	734.63	170.62	1.594e-05	1.4345e-05	330.51	158.14	72.721	32.013	5.7704e-06	83.339	0.0014871	0.0014293	0.00041478	550.87	1.644e-05	1.5568e-05	791.3	196.03	1.6266e-05	1.5867e-05	359.01	168.88	82.523	34.949	1.7346e-05	87.703	106.425	-33.327	99.598	-127.586	-35.525	29.268	-127.702	-122.041	-2.877	-3.530	-122.771	-119.098	-118.791	-113.561	-113.111	-115.415	-8191	255	
7195.454	1	1	0	0	0.11741	0.047471	0.082854	0.21736	0.19063	0.26676	0.066487	0.28387	0.27134	0.062889	0.23477	0.17677	0.027368	0.30172	0.10356	0.18963	-2.8417	-2.8167	-3.2958	-3.3208	-2.9562	-3.2333	-3.0271	-3.05	-3.3125	-2.8667	-3.4208	-3.1542	-2.8208	-3.4688	-2.9708	-3.3479	-54.538	-4.692	-0.568	145.830	64.518	64.939	169.709	100.822	72.205	-44.992	185.238	175.547	-20.033	154.226	-106.618	124.993	0.0018689	0.00010281	0.00011897	482.82	6.0124e-06	5.4056e-06	731.8	170.34	8.6924e-06	2.8174e-06	330.07	158.98	72.757	32.088	9.4185e-06	83.568	0.0014972	0.0014541	0.00045371	550.06	1.6398e-05	1.5527e-05	795.04	195.3	1.5974e-05	1.5795e-05	361.18	168.68	82.29	35.043	1.7919e-05	87.759	101.653	-123.856	142.377	-127.655	47.669	1.402	-127.656	-122.132	-20.021	132.173	-123.094	-119.047	-118.732	-113.697	13.973	-115.181	-8191	255	
7195.550	1	1	0	0	0.26217	0.20383	0.3144	0.29256	0.041805	0.26657	0.17774	0.22525	0.19624	0.04904	0.098247	0.31637	0.26614	0.20101	0.1284	0.15155	-2.9125	-2.8729	-3.1208	-3.1562	-2.9875	-3.2479	-3.0521	-3.2792	-3.2083	-3.0125	-3.3063	-3.3312	-3.0979	-3.2521	-3.0708	-3.3354	61.507	192.021	-41.800	207.597	215.554	-130.240	154.868	163.822	100.790	56.366	-15.057	186.354	151.149	163.415	124.456	160.442	0.0018112	0.00050284	0.00019557	483.07	5.7766e-06	6.135e-06	728.09	169.44	1.6846e-05	5.5588e-06	331.82	157.58	72.578	32.331	8.5509e-06	84.406	0.0014147	0.0014199	0.00045651	542.77	1.5476e-05	1.5154e-05	791.74	192.1	1.4737e-05	1.5357e-05	360.19	166.4	81.233	35.136	1.7077e-05	87.954	108.629	184.739	-78.542	-127.476	113.185	-51.895	-127.513	-122.425	-31.582	-62.930	-122.711	-118.884	-118.726	-113.714	82.943	-115.188	-8191	255	
7195.646	1	1	0	0	0.086292	0.13491	0.078307	0.081237	0.24957	0.30611	0.14896	0.18897	0.231	0.10581	0.29806	0.13586	0.20711	0.3348	0.15943	0.092925	-2.9542	-2.8479	-3.2021	-3.1667	-2.8375	-3.3646	-3.1042	-3.1375	-3.3271	-3.0312	-3.1333	-3.4729	-3.0167	-3.3312	-2.7646	-3.1542	18.985	178.172	171.861	-52.985	-3.898	20.756	144.365	151.437	-86.900	-88.550	-136.254	140.659	207.646	-93.878	10.601	135.741	0.001738	0.00032231	0.00024615	479.74	1.2411e-05	9.3286e-06	725.58	169.57	6.2121e-06	4.9406e-06	331.54	157.26	72.356	32.093	2.9423e-06	83.587	0.0013061	0.001406	0.00043795	536.16	1.4526e-05	1.5591e-05	788.01	191.02	1.4261e-05	1.6119e-05	359.3	165.81	80.858	35.215	1.7048e-05	87.304	101.596	-124.641	-60.840	-127.617	-0.846	-126.428	-127.563	-122.132	14.724	204.415	-122.437	-119.020	-118.554	-113.569	95.820	-115.177	-8191	255	
7195.742	1	1	0	0	0.19329	0.24733	0.23628	0.17247	0.14291	0.24677	0.079873	0.073269	0.092852	0.16081	0.078103	0.10346	0.18575	0.24631	0.1917	0.1248	-3.0292	-2.9125	-3.0271	-3.1771	-2.9	-3.3	-3.1188	-3.1042	-3.3479	-2.9437	-3.1958	-3.2333	-2.9979	-3.3667	-3.1625	-3.0625	147.837	-30.122	87.181	11.528	-107.471	-65.423	185.515	148.347	14.128	-65.702	40.222	52.498	197.314	162.174	211.987	169.580	0.0016864	0.0007798	0.00028413	482.65	5.2874e-06	1.5075e-05	724.33	170.1	4.753e-06	2.6362e-06	331.6	157.18	72.169	32.002	3.0692e-06	83.251	0.0013344	0.0015512	0.0004417	538.33	1.5113e-05	1.7242e-05	788.22	192.02	1.4937e-05	1.778e-05	359.41	166.11	81.272	35.508	1.7069e-05	87.147	94.863	-138.225	-75.318	-127.371	-61.718	21.523	-127.404	-122.044	22.580	147.747	-122.750	-118.877	-118.868	-113.687	-111.286	-115.427	-8191	255	
7195.861	1	1	0	0	0.25819	0.26105	0.11542	0.10663	0.12448	0.18083	0.15525	0.2083	0.25419	0.26875	0.15966	0.17376	0.036698	0.15173	0.22448	0.097501	-2.8563	-2.9479	-2.8958	-3.4771	-2.8479	-3.1937	-3.2917	-2.8771	-3.2458	-3.1292	-3.1583	-3.5167	-3.0687	-3.1188	-3.2458	-3.0062	-124.586	27.519	19.760	-61.279	58.440	216.090	168.907	67.353	-84.418	98.978	121.842	215.548	-9.341	147.233	154.740	172.136	0.0017408	0.00072524	0.0002593	479.37	8.2993e-06	6.3515e-06	728.13	169.66	5.1151e-06	1.0824e-05	330.78	158	72.274	32.238	6.3656e-06	83.412	0.0014073	0.001646	0.00043806	537.3	1.5862e-05	1.804e-05	787.21	191.56	1.5882e-05	1.8318e-05	358.64	166.32	82.316	35.853	1.6717e-05	87.461	90.882	-50.366	8.421	-127.494	80.970	28.639	-127.601	-122.198	-92.623	-6.107	-122.654	-118.863	-118.681	-113.662	-16.840	-115.262	-8191	255	
7195.957	1	1	0	0	0.041981	0.19711	0.16294	0.24413	0.024706	0.1957	0.20857	0.16075	0.079463	0.14167	0.33101	0.22271	0.31157	0.075461	0.10106	0.15432	-2.9875	-2.8812	-3.1896	-3.2729	-3.05	-3.0375	-3.3167	-2.9938	-3.1625	-3.1146	-3.0521	-3.5417	-2.7854	-3.2792	-3.2271	-2.9958	214.547	-68.012	-115.284	29.482	97.999	-24.814	105.387	-93.800	214.274	189.828	219.487	-14.180	-104.865	215.008	156.377	-43.223	0.0021288	0.00077207	0.00012375	479.57	8.6211e-06	1.3042e-05	728.27	169.16	1.4304e-05	9.1782e-06	332.12	157.8	72.888	32.578	4.2745e-06	84.439	0.0015077	0.0016692	0.0004297	536.44	1.6841e-05	1.7902e-05	784.8	191	1.6643e-05	1.7517e-05	358.25	166.38	83.184	35.818	1.6225e-05	88.098	91.972	-108.135	-80.394	-127.710	170.078	36.786	-127.893	-122.267	145.179	19.765	-122.571	-118.929	-118.905	-113.610	22.391	-115.129	-8191	255	
7196.053	1	1	0	0	0.32126	0.26609	0.21446	0.032483	0.18364	0.093728	0.20588	0.15813	0.18684	0.1987	0.1989	0.14443	0.18545	0.2338	0.025036	0.38834	-2.8458	-2.8688	-2.8021	-3.3021	-2.8792	-3.1167	-3.2042	-3.0708	-3.2625	-3.1854	-3.2208	-3.4021	-3.0187	-3.0521	-3.3833	-3.0292	218.885	66.270	113.794	-11.150	-19.544	5.104	171.044	92.376	44.947	93.510	192.854	202.518	-134.145	-134.697	-137.865	125.195	0.0018352	0.00076492	0.00027781	479.64	4.3216e-06	9.0343e-06	726.96	169.98	8.1916e-06	8.699e-06	331.89	158.76	73.114	32.381	1.0365e-05	84.061	0.0015973	0.0016118	0.00042507	537.51	1.7979e-05	1.7713e-05	784.51	192.43	1.8166e-05	1.75e-05	358.14	167.97	84.087	35.751	1.621e-05	88.002	91.468	-52.157	-18.663	-127.441	-101.070	12.726	-127.338	-122.678	206.004	-3.880	-122.742	-118.982	-118.783	-113.693	-6.889	-115.469	-8191	255	
7196.149	1	1	0	0	0.20771	0.20985	0.13087	0.28832	0.24371	0.2932	0.29367	0.47855	0.067043	0.11105	0.17934	0.28116	0.1189	0.12198	0.12488	0.33895	-2.6729	-3.1396	-2.8708	-3.2833	-2.8146	-3.0708	-3.5021	-3.0875	-3.2646	-3.1375	-3.0479	-3.3792	-3.1792	-3.0521	-3.4104	-2.9854	58.801	89.669	63.907	207.143	134.214	69.521	75.606	184.957	-41.683	33.109	170.299	192.899	150.097	182.953	133.358	145.417	0.0017516	0.00062328	0.00011842	481.43	7.7371e-06	1.3741e-05	725.71	168.92	7.7233e-06	1.0912e-05	330.39	158.48	73.682	32.431	6.5076e-06	83.915	0.001658	0.0015817	0.00042132	541.3	1.845e-05	1.7312e-05	783.94	193.89	1.8509e-05	1.7094e-05	357.68	168.63	84.604	35.796	1.6225e-05	88.37	92.632	-23.841	-125.021	-127.758	-88.673	18.439	-127.447	-122.538	-111.005	-35.438	-122.849	-119.065	-118.692	-113.578	-14.951	-115.382	-8191	255	
7196.245	1	1	0	0	0.32791	0.083314	0.071366	0.31749	0.2544	0.28408	0.18865	0.25275	0.12652	0.17721	0.12076	0.1354	0.21635	0.13494	0.20416	0.26491	-2.8479	-3.3312	-2.8833	-3.075	-3.3	-3.0667	-3.3646	-2.7771	-3.2083	-3.2188	-2.7938	-3.2021	-3.0479	-2.9229	-3.2729	-3.2958	179.953	-51.956	109.252	152.869	-33.431	57.767	123.234	166.833	-111.730	180.220	106.435	198.225	136.622	-123.609	163.266	167.452	0.0013493	0.0006908	0.00019678	477.51	1.3555e-05	5.0939e-06	730.43	170.48	1.8348e-05	1.0313e-05	332.36	159.68	73.471	32.457	9.5935e-06	84.09	0.001681	0.0015613	0.00042119	546.65	1.8484e-05	1.7188e-05	786.93	196.18	1.8189e-05	1.6824e-05	359.11	170.63	84.462	35.778	1.607e-05	88.755	110.328	-40.922	-81.093	-127.819	-21.297	6.764	-127.673	-122.658	-0.798	-2.509	-122.573	-119.202	-118.785	-113.599	31.463	-115.404	-8191	255	
7196.342	1	1	0	0	0.15123	0.15014	0.051972	0.2438	0.14606	0.072536	0.13253	0.050119	0.18646	0.13992	0.36784	0.079743	0.36	0.18531	0.16526	0.25321	-2.8167	-2.8958	-2.8625	-3.3104	-3.2188	-2.9604	-3.3812	-3.1354	-3.15	-3.2479	-2.75	-3.3833	-3.1771	-2.9562	-3.2	-3.175	-128.401	-19.084	181.924	156.996	142.687	-108.304	101.390	106.391	-98.308	3.663	183.050	-47.693	182.849	172.852	93.125	141.321	0.0016618	0.00061534	0.00019299	482.61	1.6155e-05	6.0967e-06	727.6	170.14	1.2111e-05	5.171e-06	331.74	160.49	73.931	32.646	5.4802e-06	84.445	0.0016165	0.001503	0.00041594	550.28	1.7194e-05	1.639e-05	784.35	196.42	1.7022e-05	1.5953e-05	359.06	171.53	83.961	35.764	1.6706e-05	89.175	103.865	-61.052	-49.338	-127.615	-19.719	49.491	-127.387	-122.517	-42.783	41.364	-123.166	-119.116	-119.027	-113.420	-120.800	-115.321	-8191	255	
7196.462	1	1	0	0	0.068474	0.29247	0.12969	0.025843	0.22643	0.18503	0.21886	0.069065	0.16981	0.11643	0.19496	0.053478	0.24037	0.274	0.13259	0.34521	-2.7687	-3.2917	-2.6979	-3.15	-3.2979	-2.9646	-3.4708	-3.0021	-2.9479	-3.4562	-3.1667	-3.1375	-3.1896	-2.9646	-3.4479	-3.1521	-1.505	121.847	112.194	121.174	-67.878	-107.298	128.313	128.091	-88.279	-76.084	124.151	16.627	29.561	-125.327	17.172	118.470	0.0016405	0.0009981	0.0001446	479.36	8.3864e-06	5.8246e-06	734.22	172.05	1.14e-05	1.2035e-05	334.37	162.33	74.337	32.801	1.8166e-06	83.585	0.0015763	0.0014916	0.00045148	553.24	1.7399e-05	1.6739e-05	796.62	198.95	1.7631e-05	1.6617e-05	364.31	173.65	85.056	36.106	1.9132e-05	89.007	99.939	5.868	176.168	-127.984	2.263	75.832	-127.751	-122.692	-86.989	-4.046	-122.597	-119.051	-119.042	-113.727	217.489	-115.345	-8191	255	
7196.558	1	1	0	0	0.16169	0.37582	0.10605	0.097998	0.19849	0.28988	0.073475	0.18093	0.25262	0.068421	0.032351	0.3713	0.2265	0.25516	0.15091	0.37464	-2.6188	-3.2229	-2.9479	-3.2958	-3.3417	-2.7625	-3.4146	-3.1771	-3.0062	-3.3812	-3.0917	-3.2521	-3.3458	-3.0833	-3.1562	-3.3	81.033	177.001	-17.535	17.775	96.395	113.352	96.603	183.842	78.603	-110.730	-9.816	176.179	-24.345	131.848	211.037	151.560	0.0015019	0.0002515	0.00034806	481.15	1.7536e-05	3.4006e-06	733.41	171.22	2.6007e-06	6.8225e-06	332.54	162.11	74.52	32.546	2.8792e-06	83.962	0.0016452	0.0015778	0.00050855	557.03	1.8071e-05	1.7428e-05	805.29	199.29	1.7925e-05	1.7077e-05	367.63	173.71	85.197	36.087	1.9952e-05	88.939	111.225	-81.930	208.809	-127.436	15.012	-23.886	-127.571	-122.404	-75.136	174.215	-123.096	-119.079	-119.215	-113.773	75.717	-115.387	-8191	255	
7196.653	1	1	0	0	0.076017	0.14594	0.30048	0.13075	0.11952	0.19404	0.072725	0.13901	0.20575	0.1738	0.32844	0.14809	0.27673	0.12566	0.13459	0.21073	-2.5771	-3.3146	-2.9021	-3.225	-3.4417	-2.85	-3.1813	-3.275	-3.0125	-3.1688	-2.9083	-3.2104	-3.3104	-2.7979	-3.3063	-3.4479	20.868	-54.124	195.637	-26.509	108.318	57.923	182.824	187.211	-22.770	-32.062	159.822	210.785	125.958	-55.305	5.021	172.707	0.0018118	0.00050902	0.00018622	480.79	1.1835e-05	7.7187e-06	732.93	171.21	3.4196e-06	5.6588e-06	333.45	162.54	74.935	32.871	2.3797e-06	84.382	0.0016054	0.0015846	0.00052213	552.66	1.733e-05	1.7821e-05	807.16	198.15	1.742e-05	1.7837e-05	369.01	173.67	84.882	36.501	2.0105e-05	88.996	106.183	159.608	-0.794	-127.294	-48.443	31.508	-127.652	-122.477	-84.568	168.867	-123.036	-119.029	-118.936	-113.610	-64.880	-115.460	-8191	255	
7196.751	1	1	0	0	0.12921	0.23784	0.22586	0.22169	0.16044	0.16419	0.17917	0.07071	0.1728	0.22807	0.017837	0.22974	0.07663	0.048915	0.10581	0.29115	-2.5042	-3.2479	-2.9729	-3.2896	-3.1396	-2.7	-3.3292	-3.3021	-2.8521	-3.2708	-3.3563	-3.2833	-3.1958	-2.975	-3.2083	-3.6	41.278	30.381	79.798	188.341	19.995	-92.887	-120.078	7.232	143.435	25.702	-78.910	-88.136	179.645	-42.373	-99.051	141.264	0.0013477	0.00062675	2.3221e-05	482.75	4.9377e-06	8.1748e-06	730.14	171.64	1.086e-05	7.7584e-06	335.31	163.73	75.484	32.929	1.0313e-05	84.588	0.0015542	0.0016764	0.00051441	550.83	1.6799e-05	1.8627e-05	807.38	197.28	1.7133e-05	1.902e-05	369.36	174.36	85.43	36.876	2.0184e-05	89.068	103.889	144.339	-13.164	-127.787	-13.978	213.821	-127.607	-122.397	-1.542	52.479	-122.906	-119.060	-119.166	-113.866	11.929	-115.129	-8191	255	
7196.845	1	1	0	0	0.062469	0.11659	0.28215	0.19177	0.10757	0.14596	0.076078	0.10492	0.049223	0.18604	0.22337	0.22565	0.14502	0.16349	0.090847	0.16784	-2.3917	-3.2313	-3.0062	-3.075	-3.1188	-3.0687	-3.2708	-3.4188	-2.9042	-3.2375	-3.2354	-3.2542	-3.1208	-3.2042	-2.9458	-3.4313	166.345	0.596	54.522	61.378	183.887	181.236	-109.864	76.318	-9.848	-27.654	34.364	188.100	102.395	179.319	-56.679	219.206	0.0014602	0.00032066	0.00041933	483.12	9.9036e-06	7.6612e-06	737.17	171.59	1.6698e-06	6.0196e-06	335.67	163.83	75.039	33.088	4.6057e-06	84.593	0.001583	0.0018155	0.00051604	553.03	1.7355e-05	2.0362e-05	808.37	198.04	1.7938e-05	2.0682e-05	368.31	174.41	85.802	37.164	1.9906e-05	88.846	102.635	186.257	-63.743	-127.295	-22.619	54.085	-127.267	-122.380	115.099	14.248	-122.903	-119.190	-118.947	-113.668	-59.920	-115.388	-8191	255	
7196.941	1	1	0	0	0.1979	0.14002	0.17753	0.12013	0.11185	0.16232	0.23884	0.23196	0.26543	0.15833	0.061457	0.12508	0.21601	0.20885	0.08759	0.39176	-2.5438	-3.1937	-3.0458	-3.0563	-3.3708	-3.2104	-3.0896	-3.5062	-2.9729	-3.1021	-3.3104	-3.05	-3.4854	-3.1458	-2.9958	-3.5	-23.299	127.165	103.256	200.591	64.578	11.417	115.353	175.688	31.377	72.589	-49.739	143.898	55.075	146.877	-31.930	177.603	0.0018188	0.00071393	0.00050708	484.5	1.0144e-05	7.0801e-06	736.74	172.03	5.3184e-06	7.048e-06	333.56	164.18	74.961	33.094	5.7811e-06	84.572	0.0016782	0.001948	0.0005143	553.4	1.8681e-05	2.156e-05	807.49	198.5	1.917e-05	2.164e-05	367.83	174.85	87.171	37.396	1.9695e-05	89.169	100.578	-99.966	-66.723	-127.634	-129.434	59.684	-127.580	-122.441	204.951	-136.230	-122.933	-118.994	-119.087	-113.605	-92.784	-115.381	-8191	255	
7197.037	1	1	0	0	0.056387	0.1578	0.096665	0.29462	0.035585	0.25286	0.1312	0.13732	0.33284	0.062481	0.20807	0.10156	0.21424	0.27975	0.21472	0.19021	-2.4938	-3.3208	-3.1333	-3.1771	-3.1458	-3.1479	-3.2479	-3.4125	-2.975	-3.0854	-3.3312	-3.1688	-3.3354	-3.1813	-3.0375	-3.5854	-84.001	-68.211	13.000	142.323	112.559	153.165	114.451	-10.002	-120.188	145.744	164.572	-103.041	-61.623	-132.342	-93.447	190.934	0.0019805	0.00045435	0.00025153	481.45	4.6453e-06	1.4139e-05	728.82	172.89	1.3459e-05	8.8932e-06	334.74	163.95	75.281	33.313	6.6084e-06	85.041	0.001774	0.0019395	0.00049512	550.73	1.9813e-05	2.1022e-05	802.48	197.74	2.0258e-05	2.1149e-05	367.78	174.74	87.955	37.499	1.9553e-05	89.697	95.953	-54.021	-82.223	-127.472	160.970	47.437	-127.701	-122.601	190.713	20.769	-122.835	-119.051	-118.921	-113.600	20.722	-115.381	-8191	255	
7197.158	1	1	0	0	0.058529	0.061895	0.24086	0.19489	0.17389	0.17637	0.14414	0.29441	0.2698	0.096613	0.076632	0.072229	0.1488	0.22676	0.24562	0.13726	-2.5896	-3.1813	-3.2292	-3.0187	-3.2583	-3.1458	-3.1125	-3.2687	-3.0667	-3.1042	-3.3854	-2.9292	-3.2083	-3.2333	-2.8708	-3.3604	-129.276	55.409	-69.468	174.261	-62.436	-48.794	25.517	173.249	145.167	106.121	-20.996	153.333	161.270	80.874	156.577	-24.234	0.0023375	0.0008611	0.00017872	479.03	5.4716e-06	1.0672e-05	731	173.88	3.9534e-06	1.2225e-05	335.01	164.37	75.604	33.429	3.6764e-06	85.239	0.0018953	0.0019056	0.00049267	552.37	2.1137e-05	2.0533e-05	804.06	198.96	2.1223e-05	2.0423e-05	366.18	175.11	88.344	37.269	1.9031e-05	89.867	94.507	-17.572	33.479	-127.682	-20.030	77.721	-127.352	-122.578	-123.468	-9.504	-122.675	-119.223	-118.807	-113.604	-19.751	-115.627	-8191	255	
7197.254	1	1	0	0	0.13617	0.27358	0.14479	0.13526	0.021005	0.15717	0.39499	0.23925	0.25642	0.12675	0.080935	0.10866	0.10514	0.19004	0.14121	0.13613	-2.8	-3.0979	-3.1771	-2.925	-3.4125	-3.1792	-3.0021	-3.3646	-3.1542	-2.9729	-3.4479	-3.2021	-3.1729	-3.3708	-2.8479	-3.5438	43.479	152.642	-40.724	18.302	92.807	187.867	168.095	114.682	34.837	-101.197	177.047	-131.689	125.024	142.204	81.448	137.249	0.0018082	0.0010326	0.00025954	480.8	9.553e-06	3.8437e-06	737.46	173.05	1.034e-05	1.3244e-05	335.09	164.14	75.507	33.308	8.3455e-06	84.975	0.0019275	0.0018256	0.00048006	555.58	2.1454e-05	1.9865e-05	803.48	200.69	2.1499e-05	2.0022e-05	365.32	176.36	88.796	37.206	1.8882e-05	90.25	94.057	-39.856	-13.399	-127.693	2.369	20.090	-127.840	-122.810	-46.025	29.874	-123.069	-119.324	-118.994	-113.751	-28.077	-115.305	-8191	255	
7197.326	1	1	0	0	0.17932	0.1443	0.0481	0.063503	0.16218	0.32237	0.10199	0.23275	0.064725	0.2079	0.34305	0.19376	0.23928	0.26994	0.11941	0.29677	-2.5229	-3.1021	-3.2479	-2.9354	-3.4313	-3.4271	-3.1312	-3.275	-3.15	-3.2062	-3.2687	-2.8208	-3.0104	-3.4146	-2.8083	-3.4125	43.320	-35.744	26.824	158.403	60.554	2.944	176.538	109.314	153.210	-49.136	179.176	-126.668	-41.545	167.771	9.182	135.161	0.0016485	0.00071768	0.00030407	481.39	7.1885e-06	7.3529e-06	733.25	171.74	8.6004e-06	4.8403e-06	335.23	164.09	75.832	33.551	1.0425e-05	85.115	0.001937	0.0018276	0.00047912	563.37	2.1541e-05	1.9681e-05	801.99	203.16	2.1368e-05	2.0245e-05	366.67	177.42	88.939	37.449	2.0105e-05	91.384	89.845	-44.082	-7.862	-127.644	-26.920	117.704	-127.724	-122.538	58.885	7.045	-123.087	-119.214	-119.253	-113.996	-8.331	-115.428	-8191	255	
7197.422	1	1	0	0	0.1281	0.12649	0.041169	0.075345	0.2014	0.1636	0.22491	0.079734	0.068681	0.07479	0.13624	0.16897	0.091529	0.079629	0.077063	0.10036	-2.6813	-3.1604	-3.5187	-3.0208	-2.8583	-3.3167	-3.2729	-3.3875	-3.0938	-3.0938	-3.3854	-3.1229	-3.0938	-3.3979	-2.8771	-3.4125	-96.917	-39.779	45.049	185.596	-40.025	-65.925	156.681	40.403	210.462	-112.228	173.288	170.516	144.152	-16.891	103.140	-24.998	0.0017683	0.00064413	0.00023549	482.8	1.9408e-05	1.3931e-05	734.23	173.87	4.6051e-06	1.143e-05	334.89	165.39	76.413	33.915	9.2426e-06	85.947	0.0019868	0.0019154	0.00052648	574.97	2.2366e-05	2.0875e-05	810.94	208.31	2.2111e-05	2.1185e-05	371.77	180.18	89.687	37.934	2.168e-05	92.478	92.621	-25.625	174.453	-127.662	15.108	13.235	-127.694	-122.914	44.546	-64.214	-123.074	-119.281	-119.308	-113.649	207.533	-115.309	-8191	255	
7197.543	1	1	0	0	0.1725	0.12542	0.27814	0.12362	0.22197	0.1384	0.26107	0.041622	0.13648	0.098375	0.094616	0.16813	0.15795	0.21318	0.072376	0.16537	-2.5979	-2.7396	-3.2792	-3.0333	-2.8312	-3.3792	-3.0396	-3.1042	-3.1396	-2.9813	-3.5083	-3.25	-3.0292	-3.4021	-2.9146	-3.4667	89.131	24.385	137.283	-131.601	36.095	-124.212	-112.309	51.080	46.190	124.660	199.969	217.424	15.430	185.108	63.464	117.047	0.0017577	0.0007347	0.00028538	485.44	1.0107e-05	4.08e-06	731.76	173.32	8.3181e-06	1.2235e-05	334.19	165.93	76.419	33.802	5.5381e-06	85.738	0.0019578	0.0019102	0.00056442	579.12	2.1993e-05	2.0644e-05	818.07	208.83	2.1662e-05	2.1103e-05	375.81	180.64	89.806	37.867	2.3544e-05	92.059	98.379	-34.865	-67.778	-127.624	2.109	-25.178	-128.012	-122.098	-61.549	14.085	-123.034	-119.085	-119.145	-114.012	-45.384	-115.300	-8191	255	
7197.637	1	1	0	0	0.16953	0.28807	0.19131	0.070052	0.18462	0.054761	0.053989	0.18698	0.32378	0.075024	0.068328	0.14771	0.12921	0.098015	0.10934	0.39203	-3.0062	-2.9188	-3.1688	-3.2667	-2.9583	-3.2479	-3.1125	-3.25	-3.1729	-2.9604	-3.2729	-3.2667	-3.0563	-3.4313	-3.1208	-3.2062	-29.044	194.245	181.315	191.250	207.301	-16.769	64.596	166.603	155.962	113.024	-108.812	206.067	151.590	111.476	72.735	160.227	0.0014419	0.0010792	0.00021236	484.7	7.536e-06	5.2319e-06	732.17	172.48	1.1521e-05	4.6153e-06	332.72	163.19	74.942	33.261	2.5701e-06	84.619	0.0019477	0.0019114	0.00060455	574.44	2.1169e-05	2.0177e-05	817.33	205.1	2.0135e-05	1.9993e-05	372.41	176.31	87.209	37.188	2.2623e-05	90.331	109.469	94.016	154.529	-127.406	77.137	87.742	-128.014	-122.714	-14.940	-54.076	-122.906	-119.029	-119.004	-113.939	-4.718	-115.443	-8191	255	
7197.733	1	1	0	0	0.20861	0.33603	0.21142	0.213	0.33916	0.083721	0.10497	0.28412	0.11771	0.027985	0.11271	0.11135	0.27063	0.2514	0.2999	0.32678	-2.6229	-2.9604	-3.1646	-3.2562	-2.9854	-3.3896	-3.2104	-3.2604	-3.4604	-2.9792	-3.375	-3.3438	-2.925	-3.4292	-3.0521	-3.3667	135.267	-92.268	-86.804	-92.075	-107.527	-28.192	-122.026	128.981	-113.893	166.313	207.109	-114.409	-83.270	169.960	-19.685	185.161	0.0016859	4.5928e-05	6.593e-05	480.2	1.1219e-05	9.2201e-06	729.22	172.68	4.5025e-06	9.3405e-06	332.58	162.1	75.073	33.087	1.365e-05	85.184	0.0017696	0.0018224	0.00058831	563.01	1.9952e-05	2.016e-05	815.6	203.32	1.9388e-05	2.0685e-05	373.98	175.31	87.131	37.433	2.3259e-05	90.367	95.308	-56.844	-9.125	-127.489	-22.214	7.451	-127.668	-122.351	164.434	-134.231	-123.152	-119.397	-118.929	-113.875	10.314	-115.477	-8191	255	
7197.831	1	1	0	0	0.058381	0.032943	0.094019	0.16219	0.2082	0.093279	0.27668	0.26759	0.024521	0.11612	0.29302	0.138	0.2673	0.046904	0.058733	0.12958	-2.925	-2.8625	-3.1417	-3.4479	-2.7313	-3.3542	-3.2438	-2.8958	-3.325	-3.1646	-3.3396	-3.4208	-2.8937	-3.3375	-3.1875	-3.2667	112.861	34.522	-61.545	210.591	57.311	-138.853	131.823	151.416	-39.588	-137.098	163.877	53.948	-139.819	100.790	-74.564	121.052	0.0014605	0.00037417	9.4537e-05	481.85	6.4125e-06	9.6032e-06	725.24	172.3	1.0815e-05	8.4353e-06	331.29	161.42	74.881	33.306	1.256e-05	84.806	0.0017514	0.0019481	0.00059003	560.5	1.926e-05	2.1172e-05	810.7	201.33	1.8701e-05	2.1645e-05	371.23	173.88	86.46	37.601	2.2372e-05	89.953	96.362	-87.539	20.120	-127.605	-20.296	-115.433	-127.717	-122.585	-26.477	-66.821	-122.867	-119.094	-119.060	-113.629	25.095	-115.672	-8191	255	
7197.950	1	1	0	0	0.054391	0.21172	0.12965	0.031347	0.19016	0.087476	0.22596	0.11058	0.23018	0.17372	0.1032	0.43815	0.15	0.060046	0.19599	0.24876	-2.9437	-2.9146	-3.1104	-3.2687	-2.8521	-3.3479	-3.0896	-3.0563	-3.45	-3.1229	-3.2646	-3.3792	-3.1562	-3.575	-3.275	-3.0187	47.570	-86.706	130.391	143.287	20.585	142.416	148.422	149.134	215.765	-46.107	216.398	178.658	217.244	64.923	-53.015	200.641	0.001623	0.00056295	0.00026677	480.99	5.9205e-06	3.6566e-06	725.5	171.93	1.2584e-05	6.3337e-06	331.33	162.27	74.638	33.217	2.0834e-05	84.3	0.0017455	0.0020727	0.00058159	559	1.986e-05	2.2996e-05	809.32	201.41	1.9746e-05	2.3423e-05	370.83	174.16	87.14	37.867	2.1961e-05	89.445	89.797	-70.119	-27.729	-127.680	-2.715	-43.140	-127.617	-122.402	-41.129	45.380	-122.595	-119.299	-119.237	-113.928	3.153	-115.513	-8191	255	
7198.022	1	1	0	0	0.099884	0.017235	0.16233	0.16024	0.16301	0.31759	0.039866	0.15213	0.10105	0.1367	0.047546	0.21513	0.18104	0.203	0.12665	0.20138	-2.9667	-3.1104	-2.9646	-3.3563	-2.7542	-3.2021	-3.3021	-2.8208	-3.2792	-3.0583	-3.0917	-3.5583	-3.0042	-3.2521	-3.1104	-3.0583	37.331	108.268	95.299	148.225	17.723	215.442	167.058	84.921	-27.543	-111.991	96.988	-121.871	-106.816	-121.558	-97.145	-83.308	0.0017769	6.5098e-05	0.00029186	479.48	1.0053e-05	1.9399e-05	723.9	170.79	8.8805e-06	1.4883e-06	330.73	161.2	74.56	33.051	8.9277e-06	84.134	0.0018341	0.0021482	0.00055816	555.55	2.0281e-05	2.2791e-05	799.74	198.46	1.9729e-05	2.2294e-05	365.61	171.87	86.525	37.37	1.9688e-05	88.921	89.792	72.529	-40.769	-127.376	-127.120	23.884	-127.724	-122.357	-113.515	-3.819	-122.892	-119.329	-119.346	-113.864	25.725	-115.430	-8191	255	
7198.142	1	1	0	0	0.062341	0.13659	0.22146	0.15953	0.067481	0.29157	0.16027	0.25738	0.12836	0.18677	0.093841	0.24225	0.060094	0.019135	0.070949	0.19841	-3.0917	-3.0979	-2.7313	-3.5021	-2.8979	-3.2708	-3.3042	-3.0938	-3.3521	-3.1667	-3.2104	-3.475	-3.1083	-3.0938	-3.2938	-3.1562	-61.642	-70.482	110.658	1.109	-50.088	17.161	91.462	133.473	205.987	210.724	186.684	-79.511	168.683	-123.568	91.704	-122.201	0.0021481	0.00055376	0.00030626	479.23	1.1008e-05	1.0956e-05	721.75	171.79	3.5745e-06	1.0837e-05	329.6	161.26	74.4	32.973	9.6577e-06	84.41	0.0017988	0.0019595	0.00050541	547.54	2.0324e-05	2.1275e-05	792.13	197.07	2.0193e-05	2.0857e-05	364.05	171.62	86.961	37.151	1.863e-05	88.831	94.391	-28.080	-37.711	-127.564	-133.985	-6.056	-127.678	-122.448	-56.812	-24.718	-122.830	-119.350	-119.084	-113.560	51.904	-115.480	-8191	255	
7198.238	1	1	0	0	0.1864	0.22487	0.073623	0.027859	0.15386	0.10646	0.2622	0.12283	0.18672	0.14935	0.099442	0.4122	0.07742	0.24099	0.088561	0.10734	-3.0646	-3.0479	-2.9146	-3.35	-2.9313	-3.1771	-3.3271	-3.0979	-3.1104	-3.1958	-3.1667	-3.3438	-3.225	-3.1042	-3.2646	-3.0458	138.675	190.526	-15.308	-39.689	96.361	-105.575	190.222	208.405	-46.817	123.113	168.805	148.879	47.765	138.907	45.009	195.133	0.0020852	0.00089971	0.00020742	476.95	4.4635e-06	9.2922e-06	722	171.26	1.7087e-05	1.2925e-05	331.09	160.83	74.268	32.998	1.6901e-05	84.354	0.0018444	0.0018198	0.00047744	544.6	2.0368e-05	1.9742e-05	787.45	196.42	2.0113e-05	1.9289e-05	361.3	171.02	86.694	36.852	1.7787e-05	88.992	92.764	-105.075	-68.576	-127.981	156.245	53.064	-127.593	-122.489	-28.506	-13.346	-122.861	-119.111	-118.865	-113.818	-46.451	-115.383	-8191	255	
7198.335	1	1	0	0	0.28121	0.11873	0.28379	0.17999	0.20833	0.21048	0.36888	0.1217	0.25877	0.074732	0.29171	0.11648	0.20504	0.32506	0.20703	0.08787	-2.75	-3.1917	-2.7625	-3.4104	-3.1229	-3.0229	-3.3667	-2.8667	-3.2771	-3.2146	-3.0521	-3.2313	-3.2167	-3.0208	-3.3708	-3.0125	26.215	-55.331	29.227	116.207	191.811	53.554	103.094	149.483	179.328	-76.432	164.280	36.366	135.899	198.477	97.014	166.665	0.0017586	0.0007702	0.00016906	477.3	8.4691e-06	4.7044e-06	723.18	170.36	1.5545e-05	3.6772e-06	329.34	160.66	73.919	32.707	5.2585e-06	83.446	0.0018416	0.0017196	0.00046253	548.38	2.0587e-05	1.9046e-05	785.2	198.2	2.0786e-05	1.9269e-05	361.02	171.83	86.897	36.748	1.8688e-05	89.01	113.234	-11.904	-111.265	-127.463	-24.376	105.229	-127.510	-122.799	-19.743	218.676	-122.790	-119.423	-118.831	-113.616	176.536	-115.556	-8191	255	
7198.431	1	1	0	0	0.16095	0.23785	0.096555	0.15211	0.095563	0.16764	0.1319	0.20331	0.012572	0.0079542	0.068228	0.059344	0.094167	0.12573	0.16393	0.11263	-2.8146	-3.2417	-2.7583	-3.2083	-3.1562	-3.1063	-3.325	-3.2	-3.0021	-3.3333	-2.9667	-3.3667	-3.0062	-3.1646	-3.3063	-3.0938	-22.245	-104.961	206.432	185.396	99.428	-79.678	199.579	186.109	-65.206	-111.388	-67.999	165.556	78.561	-100.398	-121.458	57.644	0.0015732	0.00089193	6.7452e-05	478.38	9.6249e-06	1.0346e-05	721.25	170.35	8.4501e-06	9.0599e-06	330.82	160.61	74.129	32.992	9.1687e-06	83.734	0.0019519	0.0018245	0.000492	560.78	2.156e-05	2.0157e-05	791.16	202.2	2.1252e-05	1.98e-05	362.91	173.4	87.131	36.916	1.9275e-05	89.435	105.369	-46.129	160.088	-127.545	18.040	19.783	-127.393	-122.582	-28.624	-56.324	-122.999	-119.196	-118.748	-113.842	-80.277	-115.442	-8191	255	
7198.551	1	1	0	0	0.076919	0.10263	0.20198	0.19299	0.12067	0.17081	0.18657	0.19844	0.4008	0.043255	0.18464	0.30402	0.061064	0.19989	0.027171	0.29911	-2.8083	-3.3833	-2.9042	-3.2146	-3.2417	-2.9062	-3.3688	-3.1292	-2.8979	-3.2875	-2.9417	-3.2042	-3.3104	-2.9146	-3.4167	-3.1646	102.646	191.579	213.668	194.125	183.052	111.986	94.341	218.547	30.839	-4.981	183.163	-140.043	-58.797	173.963	200.711	157.258	0.0018261	0.00047968	0.00023397	477.01	3.2911e-06	1.1816e-05	723.42	171.39	2.3434e-05	8.8793e-06	329.43	160.14	74.103	33.024	2.1268e-06	83.876	0.0018968	0.0017783	0.00050068	562.98	2.0575e-05	1.9545e-05	792.59	202.96	2.0124e-05	1.8826e-05	363.49	173.19	85.896	36.678	1.9264e-05	89.502	97.637	-40.167	-131.740	-127.704	2.419	31.196	-127.617	-122.293	-3.844	12.481	-122.803	-119.103	-118.876	-113.663	187.159	-115.428	-8191	255	
7198.623	1	1	0	0	0.059069	0.22886	0.070875	0.27921	0.15589	0.086004	0.18135	0.3476	0.14071	0.25814	0.17032	0.20472	0.27169	0.134	0.0062392	0.31967	-2.4188	-3.2687	-2.9062	-2.9167	-3.2	-2.9604	-3.2479	-2.9958	-2.9062	-3.1542	-3.075	-3.1729	-3.4583	-2.8729	-3.3479	-3.2687	142.441	-2.177	151.286	175.204	184.572	60.327	-9.473	41.343	-24.579	-55.366	-97.520	178.006	99.621	-116.750	196.647	136.989	0.0018772	0.00054651	0.00017546	478.27	4.991e-06	1.0433e-05	720.31	169.89	5.1738e-06	1.2705e-05	327.92	159.64	73.711	32.723	6.2405e-06	83.076	0.0017372	0.0016473	0.00050029	556.95	1.8681e-05	1.7802e-05	791.57	199.58	1.8374e-05	1.7341e-05	362.57	171.73	84.438	36.206	1.9787e-05	88.407	93.587	-46.741	179.893	-127.454	-55.910	71.123	-127.606	-122.438	-25.346	-14.594	-122.871	-118.972	-118.931	-113.444	-57.986	-115.285	-8191	255	
7198.719	1	1	0	0	0.37883	0.086635	0.24719	0.1113	0.22148	0.10234	0.090533	0.10373	0.16049	0.098018	0.092142	0.31038	0.08618	0.091842	0.2038	0.17234	-2.5042	-3.2938	-2.8625	-2.9667	-3.1958	-2.9917	-3.4729	-3.1813	-2.8063	-3.3563	-3.1708	-2.8979	-3.2896	-2.9958	-3.0583	-3.2438	71.102	18.301	-25.319	214.825	-9.982	141.605	89.088	176.769	-113.084	29.165	198.607	173.819	-94.993	151.495	-72.675	158.280	0.0015006	0.00056202	0.00015217	477.11	3.3908e-06	2.5447e-06	722.77	170.99	1.2541e-05	4.8211e-06	329.18	159.68	73.583	32.719	9.7504e-06	83.062	0.0016841	0.0016076	0.00052537	554.85	1.8511e-05	1.8087e-05	797.69	199.23	1.8339e-05	1.782e-05	364.34	170.67	84.162	36.221	2.052e-05	87.974	106.508	-48.986	-16.809	-127.391	10.012	-61.984	-127.478	-122.472	41.391	-16.014	-122.751	-119.135	-118.674	-113.730	-90.988	-115.081	-8191	255	
7198.838	1	1	0	0	0.14466	0.16695	0.1297	0.13267	0.075598	0.21629	0.13521	0.1045	0.25178	0.14728	0.10164	0.12647	0.18404	0.18017	0.17232	0.18562	-2.4896	-3.2958	-3.1312	-3.1708	-3.3854	-3.0229	-3.4125	-3.1771	-3.0521	-3.4542	-3.1417	-3.2188	-3.4458	-2.9667	-3.3125	-3.275	-66.067	-30.544	41.369	-125.343	68.550	10.289	204.297	-26.221	188.021	63.963	174.339	125.456	-97.586	-84.527	-136.458	122.068	0.0017252	0.00055746	0.00021461	477.7	1.0803e-05	8.6238e-06	721.73	170.34	1.6677e-05	5.8578e-06	327.92	158.32	73.4	32.669	3.9859e-06	83.638	0.0016014	0.0016137	0.00052676	548.94	1.7347e-05	1.791e-05	795.05	195.98	1.714e-05	1.7852e-05	363.59	169.17	83.396	36.376	1.982e-05	87.961	108.746	-140.365	15.295	-127.578	17.548	-95.577	-127.995	-122.437	-24.103	-90.958	-122.726	-119.151	-118.967	-113.446	67.427	-115.396	-8191	255	
7198.934	1	1	0	0	0.037502	0.0853	0.028814	0.15901	0.27518	0.099497	0.3827	0.19809	0.14579	0.031587	0.093646	0.094191	0.20425	0.10035	0.17214	0.31681	-2.6021	-3.3104	-2.9771	-3.125	-3.425	-3.0042	-3.1896	-3.2687	-2.8812	-3.25	-3.1063	-3.1813	-3.3958	-3.1	-3.1937	-3.3708	83.909	132.667	2.755	-33.158	-29.933	87.924	113.730	-112.540	-10.794	-70.572	-67.638	-34.461	174.560	-113.216	-66.212	207.872	0.0016461	0.00025423	0.00017768	474.46	2.9211e-06	2.5541e-06	720.55	171.01	5.023e-06	4.5275e-06	329.21	158.29	73.293	32.806	3.6872e-06	83.365	0.0015354	0.001674	0.00051015	543.9	1.6641e-05	1.8649e-05	793.52	195.74	1.6711e-05	1.8922e-05	362.62	169.27	83.085	36.665	1.9423e-05	87.954	97.864	215.892	-51.921	-127.373	-40.767	6.077	-127.574	-122.035	-13.246	170.870	-122.719	-118.975	-118.732	-113.735	55.767	-115.340	-8191	255	
7199.030	1	1	0	0	0.15162	0.072709	0.058535	0.3314	0.1365	0.17257	0.17904	0.20517	0.13181	0.11241	0.15466	0.16503	0.15633	0.15839	0.12416	0.11181	-2.3854	-3.0354	-3.2021	-3.0833	-3.3688	-2.9333	-3.1229	-3.3771	-2.9708	-3.2167	-3.1188	-3.0521	-3.5229	-2.9313	-3.1167	-3.4938	96.504	154.169	3.314	189.288	-42.623	202.358	118.378	100.709	-88.899	165.979	73.807	193.850	159.133	212.368	214.472	156.603	0.0015063	0.00091283	0.00022427	478.16	6.1155e-06	4.9488e-06	721.8	170.04	3.7019e-06	1.7912e-06	330.28	158.68	72.747	32.601	4.7216e-06	83.43	0.0015345	0.0017746	0.00049026	543.86	1.677e-05	1.9518e-05	790.86	194.38	1.6931e-05	1.9663e-05	361.31	168.86	83.133	36.631	1.8366e-05	87.543	98.543	114.784	-62.358	-127.496	18.688	214.661	-127.613	-122.605	-131.804	78.825	-122.737	-118.995	-118.779	-113.603	-36.365	-115.262	-8191	255	
7199.126	1	1	0	0	0.21095	0.092983	0.23793	0.032598	0.11944	0.088939	0.21732	0.19277	0.17242	0.13502	0.41242	0.31542	0.25027	0.3195	0.066285	0.17998	-2.4833	-3.2875	-3.1333	-2.9062	-3.225	-3.0875	-3.0938	-3.375	-2.9583	-3.3063	-3.3271	-2.9437	-3.3917	-3.15	-2.9271	-3.4688	48.784	209.130	30.417	138.911	-83.380	-62.004	88.009	125.058	134.396	182.209	155.703	160.157	200.867	-132.179	141.739	153.506	0.0017389	0.00048291	0.00032195	474.22	5.4513e-06	1.2788e-05	720.12	169.94	5.3295e-06	7.0091e-06	329.73	158.5	72.999	32.861	7.1965e-06	83.128	0.0015629	0.0017792	0.00046307	538.08	1.7267e-05	1.9501e-05	785.46	193.19	1.7681e-05	1.9598e-05	359.83	168.37	84.226	36.733	1.8075e-05	87.143	102.687	-27.219	-30.452	-127.275	-26.197	16.744	-127.388	-122.173	-100.369	-11.395	-122.875	-119.050	-118.892	-113.893	-1.919	-115.429	-8191	255	
7199.223	1	1	0	0	0.14224	0.07364	0.064478	0.054295	0.10905	0.13814	0.24015	0.12254	0.22768	0.18047	0.14333	0.083882	0.066408	0.17531	0.20657	0.34564	-2.7917	-3.2021	-3.0729	-2.8375	-3.3979	-2.9375	-3.0333	-3.3354	-3.0896	-3.0646	-3.3292	-3.1229	-3.0312	-3.2521	-3.0771	-3.3708	-2.830	147.396	-72.397	-133.228	-5.063	-111.267	-117.600	137.730	17.050	36.944	-76.381	-127.578	82.937	201.018	135.385	171.865	0.0018231	0.00049446	0.00025521	479.94	7.1203e-06	6.7964e-06	724.9	169.67	1.221e-05	4.5411e-06	328.35	159.19	73.675	32.903	1.1545e-05	84.026	0.0016753	0.0017867	0.00045765	539.36	1.8338e-05	1.8996e-05	782.35	192.42	1.8098e-05	1.8479e-05	356.43	167.64	84.249	36.451	1.6757e-05	87.748	97.004	-41.328	-58.859	-127.372	-132.105	12.472	-127.615	-122.347	-121.063	-17.962	-122.831	-118.954	-118.774	-113.800	116.244	-115.525	-8191	255	
7199.317	1	1	0	0	0.11081	0.28534	0.1001	0.077508	0.13142	0.099012	0.40186	0.20075	0.075921	0.012116	0.21265	0.31873	0.18808	0.18812	0.1275	0.14428	-2.4688	-3.1146	-3.1417	-2.8771	-3.3958	-3.0938	-2.8542	-3.3792	-3.0167	-2.9771	-3.2271	-3.1625	-3.3458	-3.1771	-2.7646	-3.5687	143.655	-130.445	190.631	124.149	70.819	161.484	155.927	-97.208	-136.428	137.827	179.702	173.543	210.217	112.069	131.606	192.747	0.0019691	0.00013309	0.00032048	476.13	1.1027e-05	9.7035e-06	720.28	170.3	8.8603e-06	5.1159e-06	329.09	158.75	73.415	33.119	1.0937e-05	83.709	0.0016479	0.0016195	0.00042145	534.75	1.8216e-05	1.7458e-05	778.01	193.25	1.8566e-05	1.7485e-05	356.15	168.57	84.846	36.395	1.6382e-05	88.038	87.199	98.892	-46.877	-127.608	-109.051	-12.917	-127.479	-122.215	-27.361	22.867	-122.906	-119.075	-118.741	-113.475	-0.683	-115.379	-8191	255	
7199.413	1	1	0	0	0.18791	0.071477	0.16318	0.2018	0.20189	0.070013	0.27671	0.20904	0.19511	0.14042	0.34913	0.24053	0.10856	0.39646	0.042856	0.13442	-2.6063	-2.8542	-3.2229	-3.0458	-2.9354	-3.0812	-3.025	-3.4375	-2.9479	-3.0625	-3.4437	-3.0667	-3.1354	-3.2771	-2.8187	-3.5021	146.815	-38.688	-65.254	182.370	-124.573	-121.232	112.369	-136.731	-16.747	108.407	219.469	152.566	142.668	167.695	154.241	158.347	0.0017893	0.00034499	0.00023014	472.67	1.1303e-05	2.467e-06	718.07	169.49	1.2052e-05	5.4856e-06	328.3	158.76	73.28	33.052	8.6597e-06	83.598	0.0016737	0.001561	0.0004118	537.65	1.8234e-05	1.6709e-05	774.31	193.8	1.7995e-05	1.679e-05	354.78	168.53	84.269	36.195	1.6104e-05	88.248	97.667	200.966	-62.450	-127.510	58.739	15.551	-127.337	-122.362	-82.373	-108.397	-122.683	-119.109	-118.436	-113.497	-43.150	-115.349	-8191	255	
7199.509	1	1	0	0	0.13885	0.23405	0.15303	0.39371	0.27771	0.16961	0.18323	0.24691	0.064961	0.17397	0.090901	0.17372	0.14644	0.24273	0.06052	0.070802	-2.6354	-2.9562	-3.4042	-2.9542	-3.1917	-3.2604	-3.0292	-3.3021	-3.2229	-2.8375	-3.5292	-3.0917	-3.1063	-3.3271	-3.0667	-3.2521	7.245	97.345	127.688	171.112	-12.771	91.927	147.759	186.871	203.095	179.570	213.108	-131.024	-133.054	-136.552	-31.624	32.592	0.0015465	0.00090282	5.3407e-05	474.25	9.1748e-06	1.5066e-05	719.37	170.72	4.3523e-06	3.9379e-06	329.5	159.18	74.01	33.217	2.7958e-06	84.241	0.0016418	0.0015547	0.00041379	544.36	1.8279e-05	1.6962e-05	778.84	196.63	1.8158e-05	1.7098e-05	356.36	170.51	84.705	36.404	1.6791e-05	89.178	98.562	-19.763	141.006	-127.456	-22.338	30.828	-127.463	-122.736	-5.959	-137.359	-122.896	-118.937	-118.901	-113.767	105.481	-115.257	-8191	255	
7199.630	1	1	0	0	0.16135	0.12171	0.11942	0.16543	0.19683	0.055346	0.18162	0.16163	0.17101	0.18475	0.15251	0.16147	0.13323	0.10305	0.2259	0.3783	-2.7708	-2.9625	-3.2375	-2.9729	-2.9958	-3.4	-3.125	-3.2604	-3.1562	-3.0375	-3.3438	-3.1583	-3.1125	-3.3083	-2.9917	-3.3667	2.668	148.480	-90.046	-109.063	66.149	-110.922	123.731	-132.162	113.480	-37.562	-83.300	-132.670	-135.733	115.022	-36.272	151.946	0.0015737	0.0014159	0.0001099	476.87	2.1633e-06	1.2771e-05	717.84	170.54	1.4217e-05	1.3029e-05	330.38	160.97	74.115	33.409	1.8209e-06	84.994	0.0016378	0.0015652	0.00043931	551.07	1.8133e-05	1.7123e-05	784.61	198.74	1.8138e-05	1.7374e-05	360.74	172.67	85.36	36.771	1.8795e-05	90.153	98.108	-27.648	-22.596	-127.671	-29.020	-9.132	-127.699	-122.283	0.343	-35.308	-123.037	-119.102	-118.722	-113.775	54.889	-115.405	-8191	255	
7199.726	1	1	0	0	0.095337	0.15558	0.098423	0.26209	0.20083	0.2276	0.24845	0.35296	0.065674	0.05297	0.10653	0.25582	0.11479	0.21978	0.14824	0.11522	-2.7604	-3.0958	-3.1458	-3.0792	-2.8604	-3.3229	-2.9417	-3.1875	-3.0875	-2.7729	-3.2687	-3.1146	-3.1813	-3.4688	-2.8146	-3.4062	192.757	49.239	213.975	170.674	5.059	-61.367	168.153	144.225	61.208	213.038	50.898	203.565	143.088	138.119	-45.839	138.367	0.0014589	0.0003314	0.00017627	475.35	4.2852e-06	4.8309e-06	722.81	171.68	8.0493e-06	7.6229e-06	333.09	161.38	74.65	33.429	1.1996e-05	85.208	0.0016757	0.0016199	0.00048956	555.86	1.8585e-05	1.7733e-05	795.09	201.2	1.8542e-05	1.7959e-05	365.63	173.88	85.724	36.944	2.0386e-05	90.494	104.323	-85.453	165.151	-127.471	-74.165	46.324	-127.510	-122.172	-11.080	-41.435	-122.965	-119.048	-118.891	-113.770	203.790	-115.271	-8191	255	
7199.822	1	1	0	0	0.051334	0.21195	0.14297	0.24056	0.16866	0.14397	0.09892	0.1341	0.047329	0.10147	0.14145	0.14087	0.054732	0.083865	0.26678	0.071121	-2.9125	-2.7875	-3.4104	-3.0208	-3.0687	-3.2958	-3.1729	-3.1271	-3.0896	-2.9375	-3.2479	-3.1604	-2.8812	-3.4208	-3.0917	-3.2812	166.316	-41.645	123.748	-92.775	-70.550	-132.504	30.283	167.391	40.426	61.996	-55.181	170.908	66.018	178.358	-125.104	-127.261	0.0015872	0.0006077	0.00023775	478.48	1.4212e-05	1.4876e-05	725.98	170.76	1.0248e-05	8.9366e-06	331.35	161.86	74.525	33.493	4.9696e-06	84.585	0.001681	0.0016477	0.00052734	554.58	1.8359e-05	1.7873e-05	799.61	199.91	1.8119e-05	1.8075e-05	366.73	173.1	85.513	37.007	2.0912e-05	89.753	93.752	-35.227	16.651	-127.600	-0.487	14.689	-127.692	-122.684	2.974	-33.461	-122.981	-119.265	-119.194	-113.791	84.364	-115.387	-8191	255	
7199.918	1	1	0	0	0.1858	0.24504	0.1371	0.14036	0.31497	0.037534	0.11397	0.12822	0.31595	0.25147	0.23058	0.17753	0.17716	0.025925	0.17066	0.3945	-2.8542	-2.7667	-3.1396	-3.25	-2.8438	-3.3583	-3.1125	-3.0396	-3.3333	-2.9667	-3.2062	-3.2812	-3.0229	-3.3458	-3.1667	-3.0729	144.981	-88.824	45.615	92.733	102.173	87.419	123.995	90.298	-16.775	90.127	208.466	163.741	188.740	123.123	0.393	201.162	0.001576	0.00025908	0.00022669	476.49	6.7084e-06	8.6933e-06	723.88	170.94	1.4008e-05	1.5394e-06	331.37	161.36	74.655	33.558	1.189e-05	85.122	0.0016145	0.0016777	0.0005329	550.09	1.7803e-05	1.8254e-05	799.45	197.49	1.7168e-05	1.8424e-05	365.89	171.64	84.803	37.136	1.9908e-05	89.541	98.877	172.381	-68.330	-127.400	-7.155	-115.439	-127.817	-122.276	-63.641	199.042	-122.741	-119.244	-118.879	-113.671	119.935	-115.271	-8191	255	
7200.015	1	1	0	0	0.32474	0.10482	0.15897	0.27459	0.23322	0.15372	0.25361	0.12104	0.13974	0.052483	0.1563	0.13697	0.24768	0.10659	0.19417	0.044401	-2.9792	-2.8312	-3.1396	-3.2188	-3.0104	-3.3542	-3.2146	-3.1479	-3.2667	-2.8292	-3.2208	-3.3583	-2.9708	-3.4042	-3.0229	-3.0396	-80.613	8.598	44.781	165.482	148.607	-132.033	195.246	-9.441	174.591	-26.693	2.536	-115.241	103.970	-127.728	79.420	-6.878	0.001526	0.00057794	0.0002271	477.49	4.39e-06	5.8776e-07	724.52	171.63	1.0065e-05	5.8136e-06	331.32	160.71	74.452	33.602	1.8857e-05	84.98	0.0015323	0.0017114	0.00051028	543.57	1.6867e-05	1.8824e-05	795.3	196.62	1.6617e-05	1.935e-05	364.29	170.99	84.446	37.431	1.9311e-05	89.615	105.247	-137.984	-60.197	-127.571	-67.085	135.007	-127.763	-122.553	-14.271	149.366	-122.640	-119.198	-118.589	-113.899	-35.189	-115.406	-8191	255	
7200.111	1	1	0	0	0.23873	0.2054	0.11335	0.0193	0.095985	0.093606	0.31954	0.16026	0.15617	0.056228	0.25532	0.15252	0.21998	0.090768	0.26637	0.070156	-2.9146	-2.9979	-2.9583	-3.4688	-2.9271	-3.2125	-3.1667	-2.9875	-3.3708	-3.05	-3.1646	-3.3833	-2.9021	-3.3812	-3.0042	-3.1292	101.046	166.909	28.906	-0.624	198.652	29.355	158.829	48.436	-122.786	-101.011	115.988	216.986	-123.431	-95.637	164.214	99.508	0.0017908	0.00052502	0.00037594	476.4	7.3325e-06	1.0812e-05	725.22	171.19	3.1994e-06	1.3894e-06	331.4	161.16	74.234	33.517	1.4908e-05	85.02	0.0015305	0.0018028	0.00049128	542.88	1.6947e-05	1.9664e-05	793.14	195.72	1.6776e-05	1.9792e-05	362.91	170.69	84.679	37.453	1.8451e-05	89.333	101.528	16.621	16.723	-127.428	-88.642	209.949	-127.844	-122.595	155.688	193.751	-123.054	-119.162	-118.783	-113.806	-36.323	-115.153	-8191	255	
7200.230	1	1	0	0	0.22133	0.21577	0.14302	0.059709	0.070104	0.13041	0.086894	0.15359	0.15263	0.155	0.1834	0.14675	0.26495	0.17347	0.22781	0.30458	-3	-3.1167	-2.9062	-3.5604	-2.9292	-3.0833	-3.2562	-3.1542	-3.2979	-3.0875	-2.9896	-3.4583	-2.8042	-3.2708	-3.3604	-2.8875	-101.981	-12.128	-88.733	201.180	183.844	-126.023	44.740	186.060	-88.778	-18.755	184.961	101.345	-134.731	-108.253	-51.036	188.380	0.0020185	0.00071502	0.00021702	479	4.521e-06	8.4566e-06	722.99	171.08	3.9506e-06	4.2514e-06	330.07	159.5	73.835	33.303	5.6326e-06	84.91	0.001577	0.0018215	0.00047056	540.2	1.7689e-05	1.971e-05	787.39	194.54	1.7681e-05	1.9596e-05	360.65	169.06	84.699	37.089	1.7267e-05	88.788	92.794	-26.923	-101.342	-127.765	148.240	-15.785	-127.745	-122.208	213.915	183.546	-122.671	-119.111	-118.730	-113.894	35.088	-115.440	-8191	255	
7200.326	1	1	0	0	0.11376	0.21549	0.25624	0.31669	0.11962	0.13492	0.32047	0.27283	0.19231	0.17072	0.040893	0.053207	0.11941	0.2035	0.1385	0.4304	-2.8146	-3.0646	-2.9521	-3.2521	-2.8833	-3.0563	-3.2667	-3.1833	-3.2812	-3.0854	-3.1708	-3.4042	-3.0958	-3.1188	-3.0583	-2.925	195.651	-139.624	23.940	103.058	-27.923	87.421	136.897	-43.449	-23.321	96.628	114.975	88.933	-117.088	190.975	14.700	159.150	0.0019647	0.0006126	0.00020033	476.67	3.5468e-06	1.1405e-05	721.64	170.49	1.3065e-05	1.3418e-05	330.91	159.67	74.015	33.483	1.0464e-05	84.939	0.0016113	0.0017075	0.00043823	535.25	1.7931e-05	1.8438e-05	781.55	192.76	1.7953e-05	1.8302e-05	357.73	168.47	84.89	36.996	1.655e-05	88.954	87.727	-83.684	-78.210	-127.344	209.524	18.263	-127.555	-122.344	207.364	15.484	-122.709	-119.024	-118.642	-113.851	-22.911	-115.291	-8191	255	
7200.422	1	1	0	0	0.22292	0.11524	0.22164	0.33929	0.13567	0.20736	0.14112	0.1496	0.23834	0.12173	0.11684	0.34648	0.12827	0.092974	0.1992	0.2318	-2.8854	-2.975	-3.0979	-3.4292	-3.0187	-3.1292	-3.4333	-3.1375	-3.1208	-3.1625	-3.1708	-3.625	-3.1708	-3.0167	-3.0958	-3.2042	160.198	-2.256	-21.110	164.464	78.292	50.299	-58.256	-135.319	13.358	42.469	163.800	174.350	75.737	119.010	206.376	167.246	0.0017961	0.0008678	0.00027168	473.82	8.8823e-06	9.931e-06	719.95	170.64	1.5992e-05	2.5785e-06	332.25	159.81	73.78	33.465	1.1438e-05	85.115	0.0016542	0.0016179	0.00042608	535.51	1.8414e-05	1.7444e-05	777.45	193.74	1.8388e-05	1.7356e-05	357.4	168.96	85.169	36.789	1.6054e-05	89.357	95.991	-69.516	-37.561	-127.409	-128.825	28.045	-127.544	-122.460	-39.021	176.994	-122.854	-119.069	-118.923	-113.710	26.170	-115.437	-8191	255	
7200.494	1	1	0	0	0.13824	0.16187	0.2351	0.24739	0.14223	0.073464	0.24036	0.04602	0.034227	0.086129	0.17858	0.05471	0.22114	0.11457	0.10709	0.22392	-2.8083	-3.1354	-3.0479	-3.2375	-3.1688	-3.1208	-3.3979	-3.0104	-3.1417	-3.25	-3.1479	-3.3979	-3.2687	-3.2896	-3.2333	-3.15	-80.457	-3.582	-130.287	-81.525	109.552	-16.166	144.008	-86.809	199.165	-66.493	-84.649	-93.861	-93.436	-134.011	-75.452	-129.136	0.0016699	0.00039744	0.00021444	478.43	1.4657e-05	1.3578e-05	719.89	170.73	1.2918e-05	4.8119e-06	330.52	160.54	74.06	33.481	9.2741e-06	84.81	0.0016784	0.0015643	0.00041736	539.62	1.8527e-05	1.6984e-05	776.3	195.23	1.8346e-05	1.7007e-05	357.09	170.48	85.009	36.683	1.5932e-05	89.379	95.350	-68.282	33.889	-127.808	36.350	53.108	-127.512	-122.537	-26.290	-68.906	-122.796	-119.257	-118.665	-113.541	8.883	-115.474	-8191	255	
7200.614	1	1	0	0	0.36886	0.054654	0.082132	0.2206	0.13496	0.16249	0.11208	0.067786	0.13966	0.33376	0.20451	0.0090764	0.15793	0.18245	0.062352	0.28796	-2.7396	-3.0792	-2.9083	-3.2583	-3.0938	-3.075	-3.4208	-3	-3.4729	-3.3937	-2.9292	-3.5187	-3.2542	-3.1583	-3.3292	-3.3271	157.262	62.150	86.249	-97.484	-16.756	-3.197	80.477	81.367	-28.815	50.274	174.126	155.788	-71.773	182.940	-103.309	175.416	0.0018949	0.00099006	0.00022957	474.8	8.4937e-06	5.1397e-06	722.19	170.38	1.5483e-05	1.7786e-05	329.69	159.63	73.78	33.39	8.4199e-06	84.687	0.001658	0.0015345	0.0004174	544.6	1.8092e-05	1.6756e-05	778.86	196.64	1.7602e-05	1.6523e-05	356.24	170.48	84.334	36.57	1.6206e-05	89.471	115.049	-60.143	-45.844	-127.688	15.561	-84.257	-127.523	-122.274	-14.829	-11.061	-122.868	-119.105	-118.531	-113.552	-48.085	-115.419	-8191	255	
7200.710	1	1	0	0	0.045572	0.15238	0.11862	0.18396	0.15671	0.096628	0.086982	0.15319	0.13964	0.022344	0.38227	0.041751	0.14788	0.14055	0.052685	0.21966	-2.7812	-3.2333	-2.9979	-3.4062	-3.2125	-2.9771	-3.375	-3.0875	-2.9979	-3.3271	-3.1688	-3.5417	-3.1375	-3.0417	-3.3063	-3.1896	180.051	40.309	111.204	115.629	211.920	27.232	120.853	-130.574	176.997	158.393	193.848	-56.454	-88.771	214.232	189.508	135.267	0.0017239	0.0011456	0.000151	475.52	1.6039e-05	9.3977e-06	719.22	170.33	9.2816e-06	3.6518e-06	330.45	160.23	74.289	33.384	1.6627e-05	84.59	0.0015998	0.0014992	0.00043296	546.45	1.7587e-05	1.6676e-05	781.64	198.3	1.7649e-05	1.6813e-05	360.35	171.54	84.751	36.707	1.7893e-05	89.958	111.881	-82.018	-115.671	-127.630	-17.485	14.737	-127.822	-122.563	-4.167	-45.286	-122.874	-119.109	-118.584	-113.545	216.494	-115.312	-8191	255	
7200.806	1	1	0	0	0.12517	0.2915	0.13125	0.049385	0.35841	0.12392	0.19172	0.085105	0.09543	0.1453	0.14305	0.19935	0.015324	0.26128	0.12442	0.26885	-2.9083	-3.225	-2.8417	-3.3479	-3.2979	-2.825	-3.2896	-3.2083	-2.9229	-3.4333	-3.15	-3.2917	-3.1708	-2.9042	-3.3854	-3.2521	147.551	76.491	-68.239	118.078	179.365	97.569	164.602	101.195	-138.240	98.057	175.569	124.492	-73.313	-118.140	64.217	162.472	0.0016809	0.00096561	0.0001834	476.3	6.5971e-06	7.6968e-06	719.1	171.07	4.3021e-06	3.6277e-06	330.21	160.28	74.088	33.567	7.1788e-06	85.175	0.0016216	0.0015368	0.00047311	550.25	1.7612e-05	1.6854e-05	787.11	198.35	1.7453e-05	1.6601e-05	362.48	171.84	84.527	36.775	1.9336e-05	90.001	96.625	-27.579	133.370	-127.625	-25.151	44.064	-127.675	-122.019	-64.228	-3.692	-123.079	-118.892	-118.309	-113.719	186.600	-115.227	-8191	255	
7200.903	1	1	0	0	0.15429	0.17807	0.20611	0.038759	0.094274	0.17734	0.15232	0.21193	0.056779	0.21626	0.28918	0.33621	0.01385	0.24872	0.22887	0.19781	-2.7354	-3.2375	-3.0667	-3.2125	-3.1854	-3.0229	-3.3958	-3.1833	-2.8229	-3.1562	-3.1	-3.2354	-3.1688	-3.0771	-3.3167	-3.2979	-14.060	57.810	4.569	-134.782	-117.164	-27.245	175.183	179.260	-13.778	47.662	208.817	200.641	102.133	156.288	156.467	114.835	0.001457	0.0007392	0.00013577	475.88	1.0497e-05	3.5373e-06	720.84	170.47	8.9672e-06	8.0265e-06	328.89	159.9	73.484	33.263	3.4229e-06	84.578	0.0016202	0.0015651	0.00051244	548.82	1.7594e-05	1.7341e-05	794.44	197.79	1.7445e-05	1.7175e-05	363.71	170.8	83.907	36.688	1.996e-05	89.16	104.257	-17.337	-70.459	-127.387	48.801	28.786	-127.587	-122.068	-19.336	-101.028	-122.992	-118.899	-119.328	-113.515	60.489	-115.523	-8191	255	
7201.021	1	1	0	0	0.056753	0.20501	0.21573	0.10516	0.12916	0.11611	0.05767	0.16897	0.080328	0.2647	0.092629	0.16283	0.12993	0.22958	0.020615	0.12275	-2.3958	-3.4437	-3.1229	-2.9417	-3.325	-3.0375	-3.3979	-3.3167	-2.9688	-3.3875	-3.3979	-3.0833	-3.5062	-2.9479	-3.275	-3.3896	-38.805	21.718	203.825	175.908	-3.606	-130.852	8.563	-121.187	56.283	-107.540	-64.598	-112.961	23.433	134.733	82.302	122.759	0.0017974	0.00035855	0.00016318	477.02	1.1137e-05	7.0525e-06	721.95	170.54	1.1918e-05	1.3506e-05	330.7	158.78	73.61	33.193	5.4293e-06	84.628	0.0015617	0.001599	0.00051665	544.23	1.7004e-05	1.799e-05	794.1	196.04	1.6908e-05	1.8235e-05	364.62	169.76	83.685	36.914	2.0317e-05	89.184	99.944	-48.375	-61.982	-127.136	69.213	-76.368	-127.322	-122.438	23.469	116.952	-122.728	-119.031	-118.845	-113.863	-39.137	-115.364	-8191	255	
7201.118	1	1	0	0	0.30293	0.21889	0.045515	0.23068	0.26952	0.056747	0.24884	0.1364	0.34397	0.046761	0.26832	0.3289	0.24338	0.20455	0.16458	0.42052	-2.7354	-3.5062	-3.1042	-3.0125	-3.4271	-2.8354	-3.1646	-3.2938	-3.0062	-3.2542	-3.225	-3.2417	-3.3563	-2.8604	-3.1604	-3.2125	-55.111	-69.288	-99.912	142.307	-81.734	-86.977	201.166	184.241	43.697	98.889	151.413	-118.436	103.502	-137.537	-87.583	198.414	0.001371	0.00056173	0.00033539	475.66	7.2225e-06	2.2931e-06	720.54	170.23	6.958e-06	5.0884e-06	328.32	159.79	74.06	33.295	1.6002e-05	84.793	0.0015742	0.0017648	0.0005241	544.74	1.7347e-05	1.9832e-05	794.94	196.48	1.7476e-05	2.0052e-05	363.85	170.45	84.275	37.351	1.9957e-05	89.328	119.620	127.917	-59.642	-127.396	-53.305	188.336	-127.438	-122.484	-104.844	-84.274	-122.815	-119.029	-118.952	-113.478	50.856	-115.488	-8191	255	
7201.191	1	1	0	0	0.14792	0.09782	0.17071	0.12167	0.18286	0.0881	0.10048	0.18217	0.25223	0.1873	0.0034166	0.27683	0.16007	0.10173	0.21513	0.15413	-2.4313	-3.1	-3.0771	-2.9854	-3.3771	-2.9833	-3.2333	-3.4792	-2.8875	-3.3042	-3.3333	-3.0062	-3.4479	-3.0104	-3.2083	-3.3021	-127.426	146.624	43.709	127.892	148.486	-12.266	203.660	-70.485	203.097	95.584	-19.576	168.479	-114.868	-110.582	170.544	181.303	0.0018736	0.0001081	0.00014971	472.64	1.501e-05	4.4854e-06	717.76	169.37	1.2694e-05	5.2497e-06	329.57	159.56	73.462	33.373	1.0534e-05	84.594	0.0015898	0.0018489	0.00050488	540.97	1.743e-05	2.0377e-05	787.69	195.04	1.7734e-05	2.0688e-05	362.41	169.92	84.411	37.51	1.9568e-05	88.927	97.416	56.283	-6.527	-127.453	-49.829	211.705	-127.230	-122.092	-122.690	9.115	-122.700	-118.951	-119.178	-113.638	43.429	-115.472	-8191	255	
7201.310	1	1	0	0	0.059881	0.065808	0.26097	0.24458	0.12955	0.15814	0.1369	0.12087	0.16378	0.29703	0.22391	0.023813	0.25572	0.33334	0.23227	0.1485	-2.5979	-3.1937	-3.1292	-2.8854	-3.4083	-3.0083	-3.2167	-3.3167	-3.0958	-3.0521	-3.1875	-3.1146	-3.3042	-3.2458	-3.0271	-3.3312	-125.409	128.191	213.806	191.347	-15.294	-140.013	118.172	-127.120	-64.807	69.930	174.525	158.182	-139.713	119.626	-32.424	-110.246	0.0018207	0.0010189	0.0002135	473.84	1.3185e-05	1.4206e-05	717.34	170.11	1.0524e-05	9.4832e-06	328.54	159.16	73.72	33.377	9.7563e-06	84.703	0.0016994	0.0019456	0.00050145	542.65	1.9075e-05	2.1311e-05	788.23	195.68	1.9548e-05	2.1572e-05	361.91	170.32	85.964	37.638	1.9989e-05	89.183	94.851	-33.769	-25.673	-127.269	-122.978	84.993	-127.477	-122.301	-138.041	-22.253	-122.703	-119.217	-118.953	-113.830	13.071	-115.449	-8191	255	
7201.406	1	1	0	0	0.1641	0.19072	0.10253	0.23231	0.21989	0.094351	0.2117	0.091866	0.28266	0.1632	0.37649	0.12433	0.10138	0.11866	0.24157	0.043899	-2.6896	-3.1917	-3.1333	-2.9729	-3.2479	-3.1833	-3.4062	-3.5646	-2.7646	-3.2792	-3.575	-2.8146	-3.3979	-3.4125	-2.7771	-3.4375	86.837	17.809	-86.229	-136.610	104.224	-118.832	146.079	145.372	-1.789	-31.549	156.941	64.810	-131.556	198.956	-40.255	-73.792	0.0021417	0.00099798	0.0001125	473.15	1.0468e-05	6.0818e-06	718.46	170.05	8.6334e-06	3.2837e-06	330.47	159.51	73.82	33.518	4.6364e-06	84.85	0.0018845	0.0019909	0.00051599	545.18	2.1307e-05	2.1831e-05	791.27	197.29	2.1828e-05	2.2052e-05	364.46	171.7	87.912	37.836	2.0532e-05	89.915	96.718	-60.348	-12.267	-127.381	200.900	-16.235	-127.484	-122.496	201.890	99.902	-122.856	-119.187	-118.690	-113.480	31.997	-115.563	-8191	255	
7201.502	1	1	0	0	0.067335	0.23705	0.12363	0.14353	0.16933	0.18182	0.27779	0.19017	0.26213	0.19152	0.17223	0.22372	0.23169	0.20429	0.094057	0.1751	-2.775	-2.9688	-3.25	-3.0729	-3.1833	-2.9729	-2.875	-3.4354	-3.0521	-2.9729	-3.6188	-3	-3.2896	-3.2854	-3.0354	-3.4604	184.478	-70.445	-0.269	-127.278	-9.856	150.789	137.295	-80.026	-20.911	14.759	189.115	95.256	-28.145	-80.019	-35.363	-66.757	0.0018145	0.00088218	0.0002446	474.69	1.0699e-05	1.4851e-05	722.38	170.35	5.4405e-06	4.9376e-06	329.18	160.45	74.742	33.514	1.3753e-05	85.129	0.0020646	0.0020201	0.00052626	553.2	2.323e-05	2.2105e-05	796.9	200.71	2.3456e-05	2.2106e-05	365.16	173.6	89.063	37.923	2.0713e-05	90.82	93.338	-50.924	-69.924	-127.724	206.604	11.261	-127.674	-122.561	-94.220	109.344	-122.822	-119.198	-118.703	-113.687	-5.351	-115.410	-8191	255	
7201.623	1	1	0	0	0.27203	0.061775	0.14119	0.17286	0.0094442	0.13684	0.46898	0.21463	0.31834	0.19131	0.09522	0.16682	0.1196	0.34933	0.22262	0.08908	-2.5875	-3.0875	-3.225	-2.8563	-3.1917	-3.1813	-2.9604	-3.5521	-3.0771	-2.8646	-3.2604	-3.0875	-3.3312	-3.1437	-2.9729	-3.275	-136.738	101.609	-32.065	218.356	-74.508	-74.052	202.411	-133.776	-42.023	134.251	181.761	97.270	-51.578	162.029	-124.489	-96.733	0.0016914	2.0695e-05	0.00015632	474.61	1.961e-06	5.4667e-06	718.76	170.09	1.4625e-05	5.3018e-06	328.47	160.56	74.13	33.609	6.6446e-06	85.036	0.002137	0.0020118	0.00053133	561.04	2.3603e-05	2.1647e-05	793.12	202.23	2.3137e-05	2.1347e-05	363.6	174.55	88.428	37.707	2.0332e-05	90.943	99.415	27.870	-20.901	-127.683	-55.622	-76.417	-127.492	-122.434	28.707	-14.599	-122.970	-119.269	-118.892	-113.984	52.314	-115.636	-8191	255	
7201.719	1	1	0	0	0.051638	0.29718	0.088148	0.15167	0.11401	0.099927	0.16435	0.15726	0.082752	0.36223	0.16648	0.19472	0.15181	0.13606	0.13513	0.12825	-2.6063	-2.9458	-3.4042	-2.8729	-3.2042	-3.3417	-2.9708	-3.4375	-3.0229	-2.9313	-3.4792	-3.0917	-3.2021	-3.5729	-2.9958	-3.4396	94.010	206.061	207.153	185.241	-102.291	-120.735	214.448	27.355	-71.572	-74.652	183.684	-100.715	214.088	-56.104	192.431	104.821	0.001744	0.00085985	0.00013578	473.26	1.6143e-05	1.6532e-06	719.77	169.82	5.4041e-06	7.7203e-06	328.64	160.01	74.473	33.582	6.2564e-06	84.882	0.0020644	0.0019449	0.00052104	564.2	2.2846e-05	2.1142e-05	793.61	204.4	2.2556e-05	2.1067e-05	363.89	174.88	87.837	37.58	2.0656e-05	91.031	106.034	-40.729	4.321	-127.753	-24.160	147.047	-127.855	-122.786	40.137	-26.108	-122.914	-119.157	-118.596	-113.595	-8.108	-115.591	-8191	255	
7201.791	1	1	0	0	0.17437	0.092615	0.10507	0.15228	0.31746	0.07649	0.11729	0.2003	0.18749	0.082498	0.21448	0.31625	0.17796	0.10404	0.16136	0.10168	-2.75	-2.8875	-3.1229	-3.1813	-3.0125	-3.25	-3.0729	-3.45	-2.9521	-2.8438	-3.4771	-3.2625	-3.1646	-3.4625	-2.8979	-3.3187	-65.930	172.215	66.156	212.309	93.608	-115.302	121.074	123.034	-135.912	-1.523	177.740	-136.869	129.110	186.574	79.595	174.839	0.0019893	0.00081373	0.0003227	474.66	1.4061e-05	2.4415e-05	712.92	171.33	1.5989e-05	4.1479e-06	329.05	160.39	74.396	33.625	5.2374e-06	84.996	0.0019771	0.0018895	0.00053239	567.62	2.1684e-05	2.0463e-05	792.91	205.24	2.1471e-05	2.0526e-05	366.14	175.25	87.431	37.615	2.2062e-05	91.405	103.785	-32.842	188.578	-127.763	56.909	41.727	-127.635	-122.258	36.668	122.659	-123.196	-119.006	-118.549	-113.643	179.864	-115.433	-8191	255	
7201.911	1	1	0	0	0.19272	0.074827	0.11227	0.15649	0.17507	0.13997	0.17169	0.2842	0.05721	0.13999	0.25048	0.28422	0.20442	0.11397	0.1908	0.16353	-2.8604	-3.0396	-3.2271	-3.125	-3.15	-3.3708	-3.1021	-3.2687	-3.1063	-2.8208	-3.3792	-3.4062	-2.9521	-3.3792	-3.2021	-3.3125	-106.460	134.559	-86.448	144.141	-59.184	156.743	-83.983	177.578	-46.608	183.275	85.038	204.296	207.827	-95.217	33.124	151.575	0.0014987	0.00065242	0.00037816	475.33	8.6826e-06	1.8662e-05	715.19	169.85	6.933e-06	2.1783e-06	329.9	160.22	74.055	33.476	1.7527e-05	85.528	0.0019209	0.0018642	0.00057428	565.55	2.1271e-05	2.0144e-05	798.83	204.47	2.102e-05	2.0094e-05	369.04	174.34	86.834	37.575	2.3261e-05	91.468	99.657	-58.425	91.882	-127.514	19.424	-29.865	-127.519	-122.133	-98.481	-122.854	-122.735	-119.219	-119.077	-113.643	-137.379	-115.350	-8191	255	
7202.007	1	1	0	0	0.025737	0.072974	0.076099	0.19416	0.19807	0.08691	0.13429	0.20237	0.20035	0.060426	0.31767	0.38143	0.26684	0.18844	0.13443	0.22604	-3.0646	-2.8271	-3.2208	-3.2854	-3.0521	-3.3688	-2.9083	-2.9292	-3.2062	-3.1	-3.3125	-3.3917	-3.0333	-3.4354	-3.1	-3.3542	112.626	172.519	80.146	26.591	197.552	-104.420	127.522	143.122	-135.034	205.293	160.482	-113.079	144.892	-87.030	33.165	153.510	0.0017206	0.00040916	0.00019801	474.63	4.8481e-06	1.486e-06	712.95	170.3	3.4436e-06	8.374e-06	329.03	160.69	74.476	33.286	8.5891e-06	84.604	0.0019004	0.0018916	0.00061534	564.83	2.1501e-05	2.1319e-05	808.76	205.25	2.1754e-05	2.2072e-05	374.45	175.23	87.527	37.886	2.5309e-05	90.849	109.598	38.943	-112.476	-127.315	46.130	201.014	-127.556	-122.205	-79.350	-27.786	-122.989	-119.202	-118.642	-113.949	-102.495	-115.412	-8191	255	
7202.102	1	1	0	0	0.12055	0.14502	0.047214	0.23909	0.12945	0.30122	0.25443	0.041779	0.1126	0.12027	0.11371	0.084673	0.033357	0.020053	0.050222	0.11769	-2.9583	-2.9271	-3.3438	-3.2062	-2.8542	-3.3312	-3.3521	-3.0938	-3.3333	-3.0833	-3.3458	-3.4229	-3.0604	-3.2687	-3.1312	-3.3	130.218	8.926	183.323	-91.796	62.154	-11.314	67.054	164.837	38.262	-98.219	73.042	171.142	-89.762	-7.431	154.495	135.182	0.0015619	0.0010742	0.00024146	472.81	5.3064e-06	1.0786e-05	716.43	169.35	6.4253e-06	1.5169e-05	328.98	159.77	73.577	33.38	1.2827e-05	84.728	0.0019114	0.0020317	0.00064273	560.42	2.0922e-05	2.1829e-05	806.01	201.87	2.0221e-05	2.1978e-05	371.42	172.89	86.158	37.866	2.4118e-05	90.398	94.386	168.148	186.614	-127.432	73.483	-87.800	-127.416	-122.493	9.318	-121.792	-122.741	-119.090	-118.937	-113.805	15.300	-115.256	-8191	255	
7202.198	1	1	0	0	0.17367	0.068481	0.14163	0.22653	0.23697	0.076236	0.15004	0.38949	0.12661	0.23564	0.12624	0.33556	0.31371	0.18445	0.038357	0.10312	-2.8875	-2.7208	-3.2979	-3.4062	-2.8958	-3.3458	-3.2917	-2.875	-3.3083	-3.1521	-3.1458	-3.3021	-2.9479	-3.4083	-3.1083	-3.1042	-62.919	-54.479	38.416	65.539	116.473	16.489	-66.986	213.865	-32.306	87.162	29.823	146.301	-128.820	-104.054	51.540	137.324	0.0016854	0.00040908	0.00034517	473.46	3.9937e-06	1.0746e-05	716.57	170.89	4.8473e-06	6.2928e-06	330.63	159.7	73.487	33.403	1.602e-05	85.204	0.0018268	0.0020972	0.00061351	555.83	2.0114e-05	2.2848e-05	801.48	200.82	1.9652e-05	2.3109e-05	369.09	172	85.629	37.984	2.2143e-05	90.353	112.114	105.331	-1.440	-127.303	-31.303	-63.929	-127.574	-122.304	-22.017	94.547	-122.786	-118.923	-118.888	-113.557	12.039	-115.470	-8191	255	
7202.319	1	1	0	0	0.15538	0.40894	0.19802	0.25984	0.038372	0.079294	0.32298	0.10712	0.21369	0.26284	0.19748	0.33453	0.22858	0.084277	0.08966	0.17772	-2.9354	-2.8208	-3.0812	-3.2854	-3.0792	-3.4667	-3.1958	-2.8333	-3.1562	-3.0375	-3.2729	-3.3187	-2.9771	-3.2792	-2.9875	-2.8354	77.363	85.595	79.795	178.030	-24.351	84.073	183.111	-123.575	-40.858	8.792	-65.976	195.543	170.333	-85.118	-129.647	178.569	0.0021655	0.0012042	0.00010758	473.04	5.9736e-06	7.3441e-06	713.4	169.62	1.2819e-05	2.6255e-06	329.68	159.77	73.073	33.35	5.243e-06	84.818	0.001753	0.0020707	0.00055631	547.57	1.9484e-05	2.2633e-05	792.17	197.8	1.9314e-05	2.2561e-05	364.97	170.98	85.644	37.908	2.0972e-05	89.88	86.534	-79.344	-6.830	-127.350	-120.435	58.602	-127.675	-122.315	-58.018	48.820	-122.823	-119.089	-118.678	-113.688	-120.704	-115.312	-8191	255	
7202.415	1	1	0	0	0.063776	0.18435	0.11644	0.048716	0.21198	0.25784	0.22339	0.042998	0.32177	0.054944	0.2042	0.091702	0.28291	0.079276	0.055054	0.28967	-3.025	-3.0604	-3.0875	-3.4646	-2.8708	-3.2875	-3.2708	-3.0187	-3.2708	-3.0667	-3.1063	-3.3021	-3.0938	-3.2812	-3.3167	-3.1292	96.113	119.292	124.708	19.418	109.069	-49.216	170.259	12.488	-76.730	153.527	181.977	-115.615	215.897	147.511	-19.789	159.715	0.0019487	0.00056949	0.00021469	473.28	1.2062e-05	5.103e-06	715.53	170.56	1.2905e-05	1.2994e-05	328.06	159	73.238	33.38	1.4157e-06	84.589	0.0018306	0.0020965	0.00053948	546.55	2.0954e-05	2.2991e-05	792.28	198.21	2.1083e-05	2.3037e-05	364.73	170.82	86.791	37.744	2.0615e-05	89.581	83.885	191.949	4.276	-127.452	213.385	22.003	-127.586	-122.116	194.119	-2.316	-122.745	-118.931	-119.056	-113.787	-5.044	-115.254	-8191	255	
#DATA ENDS
