BOXY.EXE: ISS Imagent and Oximeter Data Acquisition Program Version 0.80
Ascii Record File

#ACQ INFORMATION
2  Detector Channels 
16  External MUX Channels 
1  Auxiliary Channels 
5000  Waveform (CCF) Frequency (Hz)
1  Waveforms Skipped 
30  Waveforms Averaged 
1  Cycles Averaged 
16  Acquisitions per Waveform 
10.0806  Updata Rate (Hz) 

#FILE INFORMATION
TRUE -- External MUX Channel results are PARSED.
FALSE -- AC DC and Phase are NOT grouped.
TRUE -- Companion Program Settings File CREATED.
FALSE -- AC data not excluded
FALSE -- DC data not excluded
FALSE -- Phase data not excluded
FALSE -- Auxillary Chn. data not excluded
Tab delimiters

#CALIBRATION STATE
TRUE -- Waveform Calibration Values APPLIED.


#AUX CALIBRATION VALUES
Val Type	aux-1	

Term	1.0000e+00	
Factor	0.0000e+00	


#WF CALIBRATION VALUES
A = Detector Channel
Val Type	A-AC1	A-AC2	A-AC3	A-AC4	A-AC5	A-AC6	A-AC7	A-AC8	A-AC9	A-AC10	A-AC11	A-AC12	A-AC13	A-AC14	A-AC15	A-AC16	A-DC1	A-DC2	A-DC3	A-DC4	A-DC5	A-DC6	A-DC7	A-DC8	A-DC9	A-DC10	A-DC11	A-DC12	A-DC13	A-DC14	A-DC15	A-DC16	A-Ph1	A-Ph2	A-Ph3	A-Ph4	A-Ph5	A-Ph6	A-Ph7	A-Ph8	A-Ph9	A-Ph10	A-Ph11	A-Ph12	A-Ph13	A-Ph14	A-Ph15	A-Ph16	

Term	0.00000e+00	0.00000e+00	0.00000e+00	0.00000e+00	0.00000e+00	0.00000e+00	0.00000e+00	0.00000e+00	0.00000e+00	0.00000e+00	0.00000e+00	0.00000e+00	0.00000e+00	0.00000e+00	0.00000e+00	0.00000e+00	0.00000e+00	0.00000e+00	0.00000e+00	0.00000e+00	0.00000e+00	0.00000e+00	0.00000e+00	0.00000e+00	0.00000e+00	0.00000e+00	0.00000e+00	0.00000e+00	0.00000e+00	0.00000e+00	0.00000e+00	0.00000e+00	0.00000e+00	0.00000e+00	0.00000e+00	0.00000e+00	0.00000e+00	0.00000e+00	0.00000e+00	0.00000e+00	0.00000e+00	0.00000e+00	0.00000e+00	0.00000e+00	0.00000e+00	0.00000e+00	0.00000e+00	0.00000e+00	
Factor	1.00000e+00	1.00000e+00	1.00000e+00	1.00000e+00	1.00000e+00	1.00000e+00	1.00000e+00	1.00000e+00	1.00000e+00	1.00000e+00	1.00000e+00	1.00000e+00	1.00000e+00	1.00000e+00	1.00000e+00	1.00000e+00	1.00000e+00	1.00000e+00	1.00000e+00	1.00000e+00	1.00000e+00	1.00000e+00	1.00000e+00	1.00000e+00	1.00000e+00	1.00000e+00	1.00000e+00	1.00000e+00	1.00000e+00	1.00000e+00	1.00000e+00	1.00000e+00	X	X	X	X	X	X	X	X	X	X	X	X	X	X	X	X	

B = Detector Channel
Val Type	B-AC1	B-AC2	B-AC3	B-AC4	B-AC5	B-AC6	B-AC7	B-AC8	B-AC9	B-AC10	B-AC11	B-AC12	B-AC13	B-AC14	B-AC15	B-AC16	B-DC1	B-DC2	B-DC3	B-DC4	B-DC5	B-DC6	B-DC7	B-DC8	B-DC9	B-DC10	B-DC11	B-DC12	B-DC13	B-DC14	B-DC15	B-DC16	B-Ph1	B-Ph2	B-Ph3	B-Ph4	B-Ph5	B-Ph6	B-Ph7	B-Ph8	B-Ph9	B-Ph10	B-Ph11	B-Ph12	B-Ph13	B-Ph14	B-Ph15	B-Ph16	

Term	0.00000e+00	0.00000e+00	0.00000e+00	0.00000e+00	0.00000e+00	0.00000e+00	0.00000e+00	0.00000e+00	0.00000e+00	0.00000e+00	0.00000e+00	0.00000e+00	0.00000e+00	0.00000e+00	0.00000e+00	0.00000e+00	0.00000e+00	0.00000e+00	0.00000e+00	0.00000e+00	0.00000e+00	0.00000e+00	0.00000e+00	0.00000e+00	0.00000e+00	0.00000e+00	0.00000e+00	0.00000e+00	0.00000e+00	0.00000e+00	0.00000e+00	0.00000e+00	-8.38749e+01	-1.27561e+02	-1.29383e+02	-1.82058e+02	-6.19891e+01	-7.14628e+01	-1.55747e+02	-1.62015e+02	-5.82974e+01	-6.86231e+01	-1.71238e+02	-1.71237e+02	-1.82061e+02	-1.77401e+02	-5.37240e+01	-1.50384e+02	
Factor	1.42709e-05	1.38839e-04	3.86687e-05	4.05436e-01	1.18614e-06	1.51150e-06	1.47071e-01	4.85511e-02	1.02166e-06	1.47325e-06	7.65610e-02	2.53067e-02	2.09732e-02	7.51348e-03	1.33112e-06	1.08675e-02	6.93059e-06	9.99898e-06	2.78233e-06	2.11537e-01	1.08082e-07	1.11375e-07	7.28781e-02	2.56159e-02	1.03966e-07	1.10888e-07	3.90711e-02	1.30328e-02	1.12180e-02	3.99480e-03	1.06624e-07	5.59534e-03	X	X	X	X	X	X	X	X	X	X	X	X	X	X	X	X	



#DISTANCE SETTINGS
A = Detector Channel
A-1	A-2	A-3	A-4	A-5	A-6	A-7	A-8	A-9	A-10	A-11	A-12	A-13	A-14	A-15	A-16	

2.5000e+00	3.0000e+00	2.5000e+00	3.0000e+00	2.0000e+00	3.0000e+00	1.5000e+00	3.0000e+00	3.0000e+00	3.0000e+00	3.0000e+00	3.0000e+00	3.0000e+00	3.0000e+00	1.5000e+00	3.0000e+00	

B = Detector Channel
B-1	B-2	B-3	B-4	B-5	B-6	B-7	B-8	B-9	B-10	B-11	B-12	B-13	B-14	B-15	B-16	

1.0000e+01	1.0000e+01	1.0000e+01	1.4400e+00	1.0000e+01	1.0000e+01	1.5100e+00	1.9400e+00	1.0000e+01	1.0000e+01	1.9900e+00	2.4900e+00	2.4100e+00	2.9000e+00	1.0000e+01	2.9800e+00	




#DATA BEGINS
time	group	step	mark	flag	A-AC1	A-AC2	A-AC3	A-AC4	A-AC5	A-AC6	A-AC7	A-AC8	A-AC9	A-AC10	A-AC11	A-AC12	A-AC13	A-AC14	A-AC15	A-AC16	A-DC1	A-DC2	A-DC3	A-DC4	A-DC5	A-DC6	A-DC7	A-DC8	A-DC9	A-DC10	A-DC11	A-DC12	A-DC13	A-DC14	A-DC15	A-DC16	A-Ph1	A-Ph2	A-Ph3	A-Ph4	A-Ph5	A-Ph6	A-Ph7	A-Ph8	A-Ph9	A-Ph10	A-Ph11	A-Ph12	A-Ph13	A-Ph14	A-Ph15	A-Ph16	B-AC1	B-AC2	B-AC3	B-AC4	B-AC5	B-AC6	B-AC7	B-AC8	B-AC9	B-AC10	B-AC11	B-AC12	B-AC13	B-AC14	B-AC15	B-AC16	B-DC1	B-DC2	B-DC3	B-DC4	B-DC5	B-DC6	B-DC7	B-DC8	B-DC9	B-DC10	B-DC11	B-DC12	B-DC13	B-DC14	B-DC15	B-DC16	B-Ph1	B-Ph2	B-Ph3	B-Ph4	B-Ph5	B-Ph6	B-Ph7	B-Ph8	B-Ph9	B-Ph10	B-Ph11	B-Ph12	B-Ph13	B-Ph14	B-Ph15	B-Ph16	aux-1	digaux	

26658.592	1	1	0	256	0.10767	0.32518	0.054876	0.20896	0.36043	0.1262	0.31436	0.35364	0.074096	0.13663	0.1299	0.22326	0.13777	0.10923	0.43288	0.20418	-1.9729	-2.925	-2.6437	-2.7896	-2.9729	-2.5708	-3.0125	-2.9521	-2.5771	-3.0521	-2.8708	-2.7729	-3.1188	-2.6875	-3.0396	-2.975	-27.062	205.245	284.318	135.048	111.138	138.178	248.473	-19.950	133.150	-9.861	258.422	245.391	268.104	7.143	73.667	128.291	6.6963e-05	0.000588	1.3295e-05	826.43	5.5191e-06	6.9838e-06	1022.4	232.04	4.5028e-07	0.00010036	350.9	114.81	61.277	14.816	0.00016828	33.856	0.00047398	0.00078709	0.00016481	1059	7.1402e-06	6.6985e-06	967.33	221.53	6.4279e-06	9.9981e-05	332.55	110.39	58.807	14.281	0.00016107	32.251	196.056	79.251	73.189	-40.491	101.191	94.814	-43.102	-38.806	99.521	244.215	-39.124	-34.352	-34.566	-29.868	18.840	-29.882	-8191	255	
26658.688	1	1	0	0	0.27361	0.20026	0.11452	0.10598	0.18988	0.16999	0.21767	0.2039	0.40607	0.10186	0.042327	0.1704	0.0651	0.16492	0.17857	0.071433	-2.2083	-3.0042	-2.7292	-2.7854	-2.7167	-2.6437	-3.0271	-3.1854	-2.7833	-3.1208	-2.8646	-2.6688	-3.0833	-2.7604	-2.8125	-2.8542	286.819	64.399	-2.994	-41.759	297.409	230.096	200.249	204.218	47.397	222.163	-26.490	272.643	0.225	188.961	-5.172	166.293	9.1335e-05	0.00056675	0.0001605	816.49	6.727e-05	2.7474e-06	1023.1	235.05	3.887e-06	0.00018947	351.46	114.75	61.232	15.097	9.551e-05	34.192	0.00048051	0.00067797	0.00016845	879.72	1.673e-05	6.6651e-06	966.89	222.66	6.3636e-06	0.00016732	333.4	110.8	59.083	14.464	9.4747e-05	32.778	197.794	51.497	18.354	-43.455	181.097	103.065	-42.751	-39.206	132.312	243.196	-38.900	-34.745	-34.599	-30.007	26.280	-29.872	-8191	255	
26658.783	1	1	0	0	0.027575	0.029413	0.043704	0.19054	0.1339	0.14693	0.243	0.077594	0.18645	0.11059	0.042453	0.33316	0.16142	0.074227	0.13073	0.23295	-2.1854	-2.8479	-2.8771	-2.8854	-3.0563	-2.7708	-2.825	-3.0104	-2.4938	-2.9583	-2.95	-2.7229	-2.9333	-2.7562	-2.7354	-3.0521	157.591	148.524	-8.918	48.380	-6.638	158.722	195.664	228.930	151.190	-6.903	106.754	-47.189	-23.802	246.968	302.048	281.453	9.2038e-05	0.00022459	0.00014323	830.01	0.00013319	2.3364e-06	1025.5	235.07	1.183e-06	0.00010604	355.59	116.36	61.89	15.26	0.00016131	34.9	0.00048544	0.00079384	0.00016835	788.03	0.0001198	6.7349e-06	971.04	223.2	6.0712e-06	9.9758e-05	335.88	112.06	59.715	14.694	0.00016045	33.356	207.398	-39.796	30.349	-43.295	180.802	99.936	-42.841	-38.949	58.352	247.622	-39.179	-34.375	-34.236	-30.467	28.865	-29.545	-8191	255	
26658.881	1	1	0	0	0.11219	0.076342	0.23127	0.19858	0.12514	0.081021	0.1261	0.13098	0.20576	0.010892	0.28802	0.23783	0.29359	0.39503	0.17467	0.28746	-2.2417	-2.9437	-2.8583	-2.6708	-2.9729	-2.7542	-2.9	-2.9437	-2.6875	-2.8875	-2.8854	-2.6792	-3.0021	-2.8896	-2.7771	-2.9437	285.918	150.963	201.739	286.751	22.518	-46.566	291.083	282.480	299.683	-28.026	249.896	242.013	-19.028	270.174	-54.953	-28.568	5.8402e-05	0.00032017	8.3879e-05	802.62	8.7206e-05	4.1371e-06	1034.8	235.81	3.3981e-06	0.00018176	354.1	117.23	62.463	15.477	0.00010788	34.53	0.00045179	0.00066874	0.00016293	759.74	9.6694e-05	6.1483e-06	976.65	224.46	5.9713e-06	0.00016666	335.93	112.58	59.916	14.818	6.6061e-05	33.921	205.309	32.015	28.580	-43.309	144.400	75.322	-42.808	-38.817	114.411	257.247	-39.259	-34.563	-34.715	-30.195	38.321	-29.891	-8191	255	
26658.975	1	1	0	0	0.21535	0.29513	0.14474	0.3606	0.30717	0.13517	0.10348	0.18677	0.19316	0.27182	0.095391	0.27849	0.25527	0.24549	0.21361	0.16039	-2.1854	-2.8521	-2.9562	-2.7438	-2.8563	-2.7438	-2.9062	-2.925	-2.6792	-2.9042	-2.9917	-2.6708	-2.925	-2.9729	-2.6604	-2.9292	138.587	251.009	46.221	260.582	281.954	75.292	-31.314	156.876	80.528	25.667	7.506	280.620	276.417	294.017	155.120	52.952	0.00010738	0.00024789	3.1578e-05	792.48	0.00015329	4.2455e-06	1023.5	235.09	3.2986e-06	0.00011424	350.63	115.65	61.334	15.156	0.0001803	33.983	0.00044272	0.00068181	0.00016521	750.25	0.00015935	6.2391e-06	967.29	222.72	6.0469e-06	9.5799e-05	332.98	111.11	59.173	14.531	1.6807e-05	38.694	190.509	57.457	55.304	-43.497	146.046	132.230	-43.074	-38.953	139.933	260.829	-39.496	-34.573	-34.607	-30.186	41.492	-29.962	-8191	255	
26659.096	1	1	0	0	0.10745	0.10465	0.19192	0.091811	0.16904	0.091978	0.37965	0.05626	0.11281	0.19965	0.18666	0.26806	0.093446	0.18619	0.24451	0.06184	-2.3187	-2.6458	-2.9062	-2.55	-2.8333	-2.7125	-2.775	-2.9208	-2.8688	-2.9208	-3.1167	-2.7479	-2.8958	-2.8146	-2.625	-3.1958	37.599	196.977	111.603	1.292	201.229	211.948	194.311	-14.975	109.472	240.321	258.236	301.590	-39.084	181.463	-38.057	223.305	7.6988e-05	0.00020013	2.604e-05	786.96	8.5624e-05	3.0183e-06	1018.1	232.82	2.9677e-06	0.00018874	348.3	115.12	60.914	14.971	3.4567e-06	34.717	0.00045353	0.00062498	0.00015945	746.71	9.2893e-05	6.1528e-06	962.85	221.27	5.8719e-06	0.00016128	330.39	110.51	58.768	14.37	5.8841e-06	37.017	201.680	27.520	60.626	-43.443	150.259	116.585	-42.876	-38.619	95.611	268.114	-39.591	-34.593	-34.615	-30.233	156.966	-30.435	-8191	255	
26659.191	1	1	0	0	0.026249	0.28127	0.33642	0.098979	0.18771	0.45992	0.20538	0.12641	0.12961	0.1849	0.10271	0.10349	0.15757	0.16867	0.15758	0.15977	-2.3333	-2.725	-3.0021	-2.5667	-2.8292	-2.9	-2.6875	-3.1458	-2.6813	-2.8583	-3.0062	-2.6854	-2.8312	-3.0708	-2.6271	-2.9396	171.200	-22.437	43.137	287.569	97.013	283.567	275.341	-22.859	-22.550	-44.481	225.801	297.544	12.360	101.796	126.260	-54.251	4.8045e-05	0.00016702	3.4012e-05	784.65	0.00015453	2.0502e-06	1019.6	231.64	9.0381e-07	5.8245e-05	345.17	115.22	61.586	15.021	3.4725e-06	35.51	0.00043569	0.00068174	0.00016363	746.02	0.00015894	6.0098e-06	964.46	221.25	6.0316e-06	6.3541e-05	337.55	111.06	59.295	14.461	5.9714e-06	40.686	198.950	17.353	-33.196	-43.370	157.874	141.564	-43.099	-38.841	42.731	-24.929	-39.304	-34.680	-34.862	-30.428	130.652	-30.421	-8191	255	
26659.287	1	1	0	0	0.37057	0.14653	0.31475	0.26176	0.12491	0.21286	0.064558	0.14052	0.27198	0.20433	0.25706	0.30547	0.26028	0.18798	0.12147	0.15594	-2.45	-2.6063	-3.0375	-2.6125	-2.7708	-2.9396	-2.8063	-2.9896	-2.8604	-2.6729	-3.0062	-2.7958	-2.7	-2.9396	-2.8063	-2.8292	-53.024	164.737	-56.018	186.101	87.376	188.497	122.193	261.631	84.461	154.860	0.959	-6.118	237.120	263.545	146.671	144.485	6.5439e-05	0.00013957	7.7993e-05	783.77	8.5729e-05	3.9342e-06	1020.2	233.77	2.3889e-06	9.6675e-05	343.45	116.55	61.882	15.137	5.3372e-06	34.756	0.00044559	0.00057688	0.00016989	746.29	9.2709e-05	6.4797e-06	965.04	222.62	5.8572e-06	1.0229e-05	377.94	111.54	59.417	14.542	6.222e-06	37.264	191.370	-27.683	75.751	-42.983	156.455	110.078	-42.758	-39.162	86.939	-19.087	-39.342	-34.716	-34.832	-30.015	117.229	-29.982	-8191	255	
26659.383	1	1	0	0	0.14194	0.13046	0.2373	0.1613	0.054929	0.31942	0.22324	0.16997	0.32155	0.052683	0.12973	0.10773	0.20782	0.12317	0.040255	0.14449	-2.4021	-2.5542	-2.9917	-2.8563	-2.8521	-2.9792	-2.7979	-2.8812	-2.9313	-2.6792	-2.9896	-2.8229	-2.7729	-2.85	-2.6396	-2.8833	182.941	-47.019	-25.069	295.398	136.345	182.770	212.532	191.211	105.632	120.075	177.641	216.894	293.293	284.978	100.905	81.253	5.4246e-05	0.00035468	0.00011881	782.12	0.00014466	9.8952e-07	1010.8	232.25	1.0806e-06	2.7851e-06	346.6	115.14	60.935	15.014	5.4075e-06	35.059	0.00044409	0.00055748	0.00020088	742.72	0.00015496	6.8468e-06	956.7	220.84	5.7916e-06	6.1434e-06	362.3	110.7	58.774	14.348	5.9587e-06	40.023	173.188	51.201	10.190	-43.077	169.182	20.517	-42.885	-38.777	81.161	154.056	-39.968	-34.794	-34.835	-30.363	97.365	-30.266	-8191	255	
26659.455	1	1	0	0	0.12625	0.054491	0.2051	0.20394	0.24138	0.085048	0.13524	0.070771	0.094566	0.067409	0.086654	0.18447	0.12886	0.34383	0.18703	0.28158	-2.2521	-2.4958	-2.9958	-2.7708	-2.7083	-2.9479	-2.7354	-2.7354	-2.7958	-2.6583	-2.9688	-2.7271	-2.7167	-3.0312	-2.6979	-2.925	37.298	201.425	121.512	-18.456	-15.864	298.115	194.511	-19.844	218.490	264.589	-49.245	-52.442	25.485	109.580	-19.737	12.299	7.3559e-05	0.00068395	0.00010979	778.91	4.674e-05	0.00010545	1005.4	232.17	3.2131e-06	2.8216e-06	340.92	114.76	60.837	15.084	5.0705e-06	35.02	0.00044188	0.0005778	0.00017714	737.7	5.6857e-05	2.7562e-05	954.39	220.08	6.1552e-06	5.9817e-06	385.6	110.68	58.687	14.452	5.8603e-06	37.101	200.713	52.095	-2.071	-43.073	96.157	190.986	-42.825	-38.876	163.290	93.143	-40.328	-34.715	-34.481	-30.323	151.540	-30.280	-8191	255	
26659.576	1	1	0	0	0.21558	0.21146	0.1616	0.04512	0.017964	0.14913	0.15697	0.26701	0.16917	0.24583	0.29431	0.24698	0.22724	0.23789	0.087679	0.070598	-2.525	-2.5771	-2.9896	-2.8167	-2.4979	-2.9167	-2.975	-2.8917	-2.7292	-2.6688	-2.9979	-2.8729	-2.6917	-2.8979	-2.8354	-2.975	117.251	246.882	-2.481	68.453	-16.846	127.383	236.861	253.743	104.907	32.247	-52.307	227.540	210.406	-25.916	177.561	-39.786	9.2534e-05	0.00040221	0.00010538	788.31	2.3161e-06	0.00019697	1011.7	233.04	9.7815e-07	3.5512e-06	345.75	115.8	61.244	15.247	5.8355e-06	36.237	0.00045967	0.00057652	0.00020621	743.26	5.9116e-06	0.00013989	957.89	220.52	6.0632e-06	5.9547e-06	363	111.37	58.946	14.649	5.9425e-06	41.114	181.944	47.281	6.738	-43.252	99.309	194.910	-42.980	-38.888	99.312	121.904	-40.037	-34.602	-34.128	-30.286	108.055	-29.614	-8191	255	
26659.672	1	1	0	0	0.11815	0.23259	0.098753	0.14727	0.12655	0.061105	0.16409	0.13122	0.14886	0.19895	0.13247	0.39488	0.23838	0.32632	0.32431	0.14811	-2.6521	-2.7188	-2.9375	-2.9625	-2.6208	-2.9479	-2.95	-2.9146	-3.1479	-2.7125	-2.9792	-2.9646	-2.5542	-2.9854	-2.9479	-2.7313	200.368	66.704	200.054	-12.796	102.065	162.623	203.911	225.856	179.868	284.349	221.569	284.809	302.930	234.576	155.568	234.301	9.2808e-05	0.00038873	7.2263e-05	788.08	1.9477e-06	0.00010402	1024.6	234.46	1.0737e-06	1.7174e-06	349.42	117.38	62.22	15.292	3.9976e-06	35.729	0.00047909	0.00055267	0.00017729	747.05	6.0706e-06	9.6467e-05	965.58	222.75	6.4264e-06	5.9519e-06	391.33	112.42	59.47	14.764	6.1644e-06	35.946	189.863	6.233	18.048	-43.438	47.240	180.823	-42.880	-38.916	127.580	68.128	-40.370	-34.862	-34.730	-30.451	101.078	-30.037	-8191	255	
26659.768	1	1	0	0	0.28029	0.19058	0.15866	0.15262	0.14602	0.22356	0.15099	0.081393	0.28935	0.095986	0.097226	0.12374	0.027996	0.082773	0.21813	0.24403	-2.7229	-2.4854	-2.8312	-2.9229	-2.75	-2.9625	-2.8875	-2.7667	-2.9479	-2.9208	-2.7875	-3.0896	-2.8271	-2.8458	-2.9479	-2.7167	-6.784	87.250	-56.436	16.824	186.682	271.255	155.507	195.058	264.855	61.224	-50.610	-41.284	49.283	104.196	293.343	295.090	0.00048024	0.00040589	4.6719e-05	784.51	1.8562e-06	0.00017476	1029.7	233.95	1.6939e-06	6.0714e-06	352.07	116.82	61.604	15.32	6.9022e-06	34.434	0.0020936	0.00055613	0.00019199	746.66	6.1145e-06	0.0001633	968.35	222.41	6.7364e-06	6.106e-06	366.9	112.12	59.316	14.769	6.2677e-06	32.984	147.450	67.451	-0.966	-43.089	41.307	178.231	-43.184	-38.914	124.991	86.588	-40.022	-34.703	-34.576	-30.405	111.921	-30.103	-8191	255	
26659.889	1	1	0	0	0.16929	0.28019	0.085868	0.14925	0.21371	0.14414	0.15565	0.24799	0.16315	0.24409	0.31192	0.51095	0.10198	0.25622	0.090266	0.24739	-2.6208	-2.6937	-2.6521	-3	-2.7229	-2.9958	-3.0646	-2.6479	-3.1729	-2.6604	-2.7938	-3.1396	-2.7271	-3.0208	-2.9833	-2.6167	218.176	36.549	188.392	166.522	-43.527	17.798	245.196	-25.458	86.528	69.607	292.206	226.209	138.774	206.846	147.186	270.456	0.00082277	0.00039002	1.6726e-05	789.09	3.5044e-06	0.00010694	1016.9	231.48	3.5322e-06	3.5424e-06	347.65	115.42	61.143	15.125	3.3434e-06	34.189	0.0093016	0.00057205	0.00017304	746.25	6.0042e-06	9.5638e-05	959.4	219.92	7.9361e-06	6.319e-06	387.51	110.9	58.89	14.518	6.0229e-06	32.714	135.866	65.114	20.452	-42.844	66.319	185.550	-43.221	-39.029	100.991	99.000	-40.772	-34.943	-33.981	-30.398	159.406	-29.945	-8191	255	
26659.982	1	1	0	0	0.12615	0.17576	0.13507	0.14018	0.06518	0.17445	0.25807	0.18392	0.22279	0.11528	0.32434	0.19661	0.15661	0.16425	0.26466	0.1479	-2.4083	-2.8	-2.6854	-3.0875	-2.7417	-2.9188	-3.0208	-2.6937	-2.7958	-2.9604	-2.8125	-3.0104	-2.6167	-2.9521	-2.7646	-2.8167	294.010	281.256	80.564	273.561	-30.868	290.850	239.106	173.884	-39.274	106.818	184.798	255.989	196.430	295.786	262.966	-47.900	0.00097093	0.00031811	7.0115e-05	789.39	3.2116e-06	0.00018408	1015.5	230.96	3.5426e-06	4.3107e-06	351.34	115.58	61.76	15.167	2.5523e-06	34.375	0.0060783	0.00055409	0.0001855	749.95	6.2077e-06	0.00016445	961	220.57	6.8059e-06	6.2247e-06	348.47	115.15	59.176	14.631	6.4441e-06	32.797	63.154	5.177	-27.270	-43.109	140.416	192.141	-42.904	-38.798	130.397	107.549	-39.842	-34.765	-34.416	-30.282	37.665	-30.195	-8191	255	
26660.057	1	1	0	0	0.1423	0.22555	0.17136	0.12751	0.13255	0.24143	0.079644	0.052612	0.1576	0.13416	0.048581	0.14933	0.044902	0.18709	0.20043	0.13335	-2.4854	-2.7021	-2.7125	-2.8729	-2.7042	-2.7333	-3.0792	-2.9229	-2.9125	-2.8854	-2.7208	-2.9875	-2.8354	-2.7458	-2.95	-2.7333	287.399	-40.271	218.984	145.344	276.235	226.066	189.087	97.079	33.075	241.193	279.251	203.209	136.403	-31.217	-16.776	236.142	0.0018294	0.00031543	2.4587e-05	793.45	2.6302e-06	9.7555e-05	1019	232.12	5.4968e-06	2.1806e-06	351.75	114.62	61.379	15.221	3.7852e-06	34.347	0.010334	0.00056982	0.00015529	750.62	6.0729e-06	9.7441e-05	964.19	220.6	7.7143e-06	6.3416e-06	332.55	129.81	59.038	14.609	6.2899e-06	32.915	66.176	52.554	3.646	-43.150	99.292	200.317	-43.014	-39.116	125.168	50.208	-39.215	-34.718	-34.541	-30.246	115.830	-30.243	-8191	255	
26660.176	1	1	0	0	0.12782	0.074217	0.14979	0.016215	0.050073	0.05305	0.092568	0.15328	0.1317	0.14169	0.048481	0.30471	0.05	0.14122	0.20578	0.15794	-2.6042	-2.9646	-2.6063	-2.8458	-2.6604	-2.7875	-3.2167	-2.8896	-2.7604	-2.8646	-2.6	-3.025	-2.5958	-2.7292	-3.0542	-2.8042	79.180	103.553	-7.357	-45.772	58.074	204.318	253.531	-39.860	148.165	124.830	189.672	229.178	-7.633	73.327	-12.453	302.457	0.0010369	0.00023744	0.00014558	793.71	6.1412e-06	0.00020291	1027.7	231.93	3.176e-06	3.7909e-06	351.17	116.46	61.67	15.131	2.7953e-06	34.389	0.0062289	0.0005633	0.00015731	759.32	6.2145e-06	0.00016751	971.38	221.3	7.0426e-06	6.313e-06	333.17	122.81	59.285	14.666	6.8448e-06	32.932	65.931	49.913	9.931	-43.369	97.401	207.680	-43.164	-39.038	150.068	120.342	-39.181	-35.575	-34.820	-30.284	112.419	-29.636	-8191	255	
26660.271	1	1	0	0	0.16195	0.12885	0.21513	0.24175	0.010145	0.12966	0.13436	0.14697	0.24384	0.059319	0.26291	0.10478	0.15549	0.17048	0.081334	0.33414	-2.4542	-2.9042	-2.55	-3	-2.7146	-2.7562	-3.0917	-2.9	-2.7188	-3.0229	-2.9375	-2.9646	-2.8563	-2.7458	-2.9458	-2.775	249.611	-48.555	-55.471	22.839	85.823	231.795	-55.824	201.222	183.643	-50.528	216.967	294.978	239.040	93.849	205.285	198.700	0.0017822	0.00025817	4.1452e-05	788.41	4.5884e-06	1.3575e-05	1008.3	232.28	3.8628e-06	3.6045e-06	351.08	115.52	61.117	15.013	3.3369e-06	34.231	0.010327	0.00058109	0.00015405	752.45	5.965e-06	4.8289e-05	987.37	220.42	7.2196e-06	6.505e-06	331.78	130.06	58.75	14.4	6.6433e-06	32.597	77.704	35.336	-19.299	-43.217	83.026	79.011	-42.639	-38.859	95.034	133.161	-39.380	-35.897	-34.609	-30.406	154.382	-30.140	-8191	255	
26660.367	1	1	0	0	0.27788	0.15013	0.045126	0.13327	0.053916	0.30533	0.27385	0.072763	0.081667	0.20927	0.20283	0.22912	0.21523	0.27047	0.29062	0.10813	-2.3167	-2.9229	-2.6688	-2.9188	-2.8875	-2.7271	-3.1646	-2.9354	-2.8708	-3.0583	-2.8396	-2.8917	-3.0333	-2.7729	-2.8604	-2.8937	34.393	86.057	178.482	10.365	229.693	202.248	223.118	186.556	145.874	128.414	264.222	269.101	7.791	188.451	-5.882	-17.923	0.00093254	0.00023924	6.3582e-05	797.1	2.3133e-06	5.6278e-06	1006.6	232.4	1.9692e-06	5.5523e-06	351.85	115.97	61.744	15.175	8.1214e-07	34.551	0.0060844	0.00059815	0.00015267	756.03	6.1776e-06	6.2412e-06	1074	221.04	6.7366e-06	6.5858e-06	333.12	122.63	59.338	14.639	8.1221e-06	33.086	84.484	73.180	-15.758	-43.316	112.048	119.354	-42.754	-39.049	87.501	76.105	-39.171	-35.588	-34.515	-30.030	185.556	-30.055	-8191	255	
26660.488	1	1	0	0	0.27161	0.1304	0.27755	0.11029	0.11091	0.19714	0.24688	0.28341	0.3376	0.054756	0.32591	0.023063	0.15945	0.16816	0.3101	0.18406	-2.1063	-3.0938	-2.6854	-2.7792	-3.0479	-2.7521	-3.1667	-2.8021	-2.7521	-3.0542	-2.7833	-2.8479	-3.0417	-2.7375	-2.7875	-2.7771	195.904	9.611	72.424	5.995	-2.740	87.160	188.499	249.111	92.082	112.791	252.236	229.714	-6.127	-54.723	27.588	182.898	0.0017214	0.00043552	0.00016159	797.77	1.2259e-06	3.2795e-06	1018	233.71	4.0917e-06	7.3471e-06	354.88	118.78	62.682	15.583	2.5347e-06	35.28	0.010513	0.00061675	0.00015942	757.26	5.9274e-06	5.8998e-06	1036.7	222.58	6.7712e-06	6.6819e-06	335.44	132.69	60.189	14.936	6.6696e-06	33.671	95.537	38.313	5.640	-43.414	64.517	90.441	-43.073	-38.870	74.509	126.297	-39.218	-36.372	-34.379	-30.264	215.438	-29.924	-8191	255	
26660.584	1	1	0	0	0.13446	0.068273	0.21789	0.2755	0.13258	0.17385	0.20977	0.24453	0.23351	0.099275	0.40942	0.21535	0.2362	0.11763	0.21126	0.30172	-2.1333	-2.9188	-2.6688	-2.6542	-3.0104	-2.6729	-3.1312	-2.8458	-2.5833	-2.9708	-2.9354	-2.7521	-2.8896	-2.6667	-2.8979	-2.9625	291.406	62.034	207.705	31.243	143.410	137.980	264.594	247.463	235.411	19.330	-56.077	185.519	276.957	174.036	233.134	36.337	0.00084282	0.0071482	0.00015384	796.73	1.7911e-06	2.0794e-06	1019.4	237	3.8088e-06	7.3038e-06	352.71	120.26	63.361	15.698	2.7929e-06	35.485	0.0028566	0.0040612	0.00014596	760.34	6.4374e-06	5.827e-06	1088.4	224.47	5.9033e-06	6.717e-06	336.39	125.55	60.561	15.073	7.7178e-06	33.96	50.499	109.567	13.128	-42.820	87.439	150.018	-43.028	-38.980	74.765	106.565	-39.303	-35.422	-34.783	-30.039	-50.454	-29.896	-8191	255	
26660.656	1	1	0	0	0.17405	0.18132	0.039676	0.34978	0.076588	0.068078	0.15066	0.10369	0.083566	0.22313	0.21772	0.046913	0.10943	0.16937	0.1603	0.082672	-2.3021	-2.8187	-2.8063	-2.6688	-3.0125	-2.6396	-2.9771	-3.0812	-2.7375	-3.0271	-3.0646	-2.8688	-3.0667	-2.7958	-2.7438	-3.1354	208.858	205.408	27.490	298.327	-0.388	205.169	242.853	58.146	11.942	117.848	272.810	302.205	231.990	188.219	171.151	23.350	7.5782e-05	0.016963	6.5502e-05	799.89	3.3e-06	4.1879e-06	1016.1	234.81	1.0416e-06	9.3653e-06	351.76	119.34	62.006	15.392	3.6721e-06	34.298	0.00043936	0.015142	0.00015451	759.62	6.3388e-06	5.9943e-06	1033.5	222.98	5.8085e-06	8.0877e-06	334.07	131.59	59.801	14.763	6.566e-06	33.052	201.930	59.941	95.547	-43.439	101.741	97.896	-42.801	-38.834	60.238	112.913	-39.790	-35.864	-34.332	-30.157	115.409	-30.147	-8191	255	
26660.752	1	1	0	0	0.27999	0.13874	0.18003	0.15398	0.11577	0.19831	0.15329	0.087985	0.086829	0.12541	0.21205	0.21454	0.12285	0.056099	0.11939	0.2464	-2.3125	-2.9271	-2.6958	-2.8896	-2.9292	-2.6292	-2.8958	-2.8958	-2.6667	-2.9458	-2.9375	-2.8688	-3.0333	-3.0021	-2.9542	-3.0917	112.320	-33.801	93.262	296.860	129.084	-18.598	221.632	138.709	-15.297	97.395	-48.554	-6.180	298.999	47.246	182.299	188.025	6.7756e-05	0.01143	8.4204e-05	795.09	1.2063e-06	3.6324e-06	1006.1	232.9	2.5146e-06	6.7046e-06	351.31	118.31	61.792	15.28	3.114e-06	34.683	0.00043543	0.008764	0.00015256	755.36	6.5083e-06	5.9465e-06	1075	221.4	5.6926e-06	7.0421e-06	333.55	116.59	64.29	14.726	7.1536e-06	33.266	199.777	57.362	56.223	-43.364	14.587	73.788	-43.139	-38.805	151.294	109.145	-39.344	-35.490	-34.548	-30.237	115.751	-30.370	-8191	255	
26660.871	1	1	0	0	0.27673	0.050965	0.24376	0.17056	0.25551	0.12962	0.44566	0.1681	0.15991	0.10921	0.18162	0.06641	0.11126	0.21264	0.17747	0.088279	-2.3	-2.8812	-2.9542	-2.6771	-2.85	-2.7458	-2.8625	-2.9479	-2.6979	-2.9542	-3.0375	-2.8458	-3.0042	-2.9375	-2.7479	-3.0104	294.372	138.093	85.590	199.604	38.323	18.185	265.098	226.415	272.924	161.111	232.420	206.832	38.487	263.382	281.879	79.646	5.2782e-05	0.018677	0.00012079	799.11	4.6436e-06	3.0693e-06	1016.3	234.29	3.258e-06	5.8315e-06	353.14	117.07	63.049	15.4	7.3603e-06	34.853	0.00042866	0.014983	0.00015269	753.18	6.8583e-06	6.079e-06	1029.2	222.48	5.7372e-06	7.9015e-06	333.79	112.68	76.186	14.834	6.4667e-06	33.425	208.668	67.354	34.852	-43.273	53.479	117.042	-42.983	-38.748	157.377	97.006	-39.312	-34.579	-37.221	-30.645	121.429	-29.721	-8191	255	
26660.967	1	1	0	0	0.19335	0.28535	0.16185	0.079827	0.015461	0.11988	0.30149	0.39574	0.16683	0.18194	0.22028	0.14149	0.24635	0.20971	0.22417	0.30621	-2.4583	-2.8479	-2.9417	-2.6917	-2.9542	-2.7896	-2.8292	-3.1437	-2.7042	-3.0417	-3.0146	-2.8604	-3.0396	-2.8021	-2.8396	-3.1104	293.521	212.543	136.326	288.142	-41.165	66.603	295.827	292.119	262.355	-14.560	291.262	244.215	226.451	231.972	278.126	294.121	0.00011546	0.01034	9.0146e-05	798.33	5.0928e-06	5.2584e-06	1026.3	233.59	3.2251e-06	5.387e-06	353.49	118.03	63.519	15.518	1.4749e-06	35.239	0.00042526	0.0088597	0.0001558	754.22	7.8558e-06	6.1502e-06	1070.4	222.71	5.8074e-06	6.7445e-06	335.19	113.09	69.633	14.924	6.7138e-06	33.716	180.332	68.619	2.081	-43.683	86.736	61.658	-43.377	-38.781	95.375	132.687	-39.498	-34.742	-35.877	-30.355	100.834	-29.745	-8191	255	
26661.062	1	1	0	0	0.14127	0.093542	0.090476	0.44125	0.13045	0.17241	0.34053	0.13902	0.30121	0.0094717	0.20661	0.32505	0.09321	0.096642	0.13462	0.070295	-2.3625	-2.7354	-2.9062	-2.5333	-2.8083	-2.9188	-2.6542	-3.0979	-2.7521	-2.6688	-3.1437	-2.7917	-2.9188	-2.8958	-2.5917	-3.1021	86.342	273.019	241.997	224.113	242.792	172.881	216.962	238.689	93.958	261.367	272.031	251.490	14.220	22.572	114.775	197.221	5.6227e-05	0.018854	0.00015474	785.56	5.0124e-06	5.4623e-06	1027.7	230.89	2.6566e-06	5.062e-06	354.82	117.73	64.129	15.638	2.4874e-06	35.176	0.00044838	0.015106	0.0001674	752.86	6.915e-06	6.2495e-06	988.13	234.04	6.0861e-06	7.8051e-06	335.31	113.18	76.552	14.904	5.9676e-06	33.393	194.500	74.025	48.219	-43.479	64.956	99.535	-43.132	-39.172	151.855	122.891	-39.128	-34.554	-36.741	-30.137	92.724	-29.543	-8191	255	
26661.158	1	1	0	0	0.11093	0.069047	0.13787	0.29858	0.12336	0.13984	0.25924	0.16046	0.21968	0.14458	0.15381	0.082549	0.16441	0.12206	0.24449	0.084315	-2.1417	-2.7083	-2.925	-2.6937	-2.8208	-2.8688	-2.6354	-3.0396	-2.9688	-2.8563	-3.0625	-2.8667	-2.7125	-2.8667	-2.5479	-3.0563	180.354	273.321	251.474	169.740	270.835	129.064	268.037	76.240	-44.097	-48.099	187.489	170.225	-52.977	261.610	243.698	227.911	6.8008e-05	0.010977	9.1367e-05	789.44	4.4709e-06	1.4834e-06	1017.3	227.77	1.1153e-06	5.3622e-06	349.08	116.64	62.691	15.34	1.3077e-06	34.934	0.00044447	0.0088027	0.00016766	748.79	7.7603e-06	6.1725e-06	956.15	258.65	5.9183e-06	6.7783e-06	331.72	112.25	68.824	14.674	6.1284e-06	33.269	185.038	80.471	98.582	-43.139	98.793	101.643	-43.041	-39.711	299.620	111.902	-39.227	-34.625	-35.617	-29.978	164.811	-29.993	-8191	255	
26661.279	1	1	0	0	0.18859	0.21018	0.19409	0.2831	0.0416	0.16473	0.035525	0.098859	0.1516	0.18096	0.11552	0.033248	0.066711	0.1645	0.15953	0.41307	-2.3458	-2.6125	-2.8937	-2.5771	-2.8292	-3.1979	-2.8563	-3.0104	-2.9042	-2.7771	-2.8167	-2.9646	-2.7812	-3.1146	-2.6833	-2.9021	-49.583	165.462	138.558	173.221	193.541	-30.076	111.191	80.880	25.207	259.668	51.630	245.932	-4.356	-9.024	-18.770	296.465	9.0802e-05	0.012365	2.1392e-05	789.13	3.0807e-06	3.4056e-06	1014.3	230.74	2.1623e-06	3.5839e-06	349.3	117.27	63.993	15.388	4.711e-06	34.973	0.00043885	0.013534	0.00016986	749.43	7.022e-06	6.3748e-06	961.49	244.13	6.1535e-06	7.1611e-06	333	112.68	76.253	14.74	6.1653e-06	33.388	190.395	24.233	220.733	-43.043	87.893	63.810	-42.815	-39.297	60.846	115.387	-39.377	-34.775	-36.054	-30.488	95.464	-29.893	-8191	255	
26661.352	1	1	0	0	0.19795	0.19342	0.11867	0.16489	0.30866	0.34128	0.30049	0.078534	0.13127	0.13121	0.24799	0.17292	0.32034	0.12715	0.077863	0.1296	-2.5208	-2.575	-2.8354	-2.8187	-2.6583	-3.2333	-2.8458	-2.9875	-2.9479	-2.7812	-3.1063	-2.9146	-2.6188	-2.9083	-2.7313	-2.9104	243.538	51.070	5.133	276.507	221.648	93.914	254.392	145.531	203.268	25.544	204.178	230.995	-26.570	141.429	70.039	134.373	9.6626e-05	0.007068	0.0027175	793.14	5.5954e-06	3.8684e-06	1020.9	229.37	2.2671e-06	3.3938e-06	352.4	117.6	63.319	15.581	4.7487e-06	35.214	0.00045296	0.0029299	0.0014719	748.44	7.4977e-06	6.7618e-06	961.83	260.22	6.0617e-06	6.0688e-06	334.57	113.04	69.327	14.912	6.1093e-06	33.782	186.738	24.571	121.763	-43.657	88.607	100.038	-43.073	-39.942	133.536	49.090	-39.485	-34.580	-35.937	-29.792	100.297	-29.834	-8191	255	
26661.447	1	1	0	0	0.099803	0.098175	0.072148	0.12816	0.075554	0.32018	0.15679	0.31463	0.25455	0.02994	0.23174	0.22923	0.069482	0.21418	0.18065	0.38294	-2.675	-2.8125	-2.6937	-2.775	-2.725	-3.0479	-2.9708	-2.8167	-2.875	-2.5687	-2.9917	-2.975	-2.7708	-3.05	-2.7146	-2.7896	-53.956	-35.207	-19.148	-4.910	12.909	288.512	263.619	283.620	190.102	77.692	239.713	-3.782	92.885	95.400	19.597	271.567	0.0001003	6.6663e-05	0.0051316	794.24	4.0801e-06	3.8277e-06	1026.5	233.58	9.0872e-07	3.7466e-06	353.75	117.88	65.132	15.654	2.517e-06	35.303	0.00046416	0.00055923	0.0042663	751.59	6.8583e-06	6.5885e-06	965.41	245.56	6.2137e-06	6.2492e-06	337.04	113.39	74.583	15.085	6.0827e-06	33.81	168.828	96.924	94.132	-42.744	71.233	59.396	-42.875	-39.386	-56.162	89.911	-39.150	-34.605	-36.884	-30.514	111.920	-29.879	-8191	255	
26661.568	1	1	0	0	0.13478	0.083147	0.091183	0.20393	0.062628	0.26807	0.29142	0.21428	0.16666	0.16323	0.08772	0.053654	0.22751	0.087094	0.099195	0.13845	-2.4875	-2.5979	-2.8792	-2.8458	-2.6292	-2.8458	-2.9479	-2.6917	-2.9729	-2.7729	-2.9792	-2.8583	-2.7042	-2.8979	-2.8625	-2.7521	163.794	4.905	58.791	160.055	72.283	35.978	-29.890	214.532	59.846	182.246	219.759	-24.475	-13.325	289.749	155.904	-13.659	0.00013621	0.00016303	0.0030092	787.43	1.3541e-06	5.1401e-06	1017.5	230.56	2.6638e-06	5.6369e-06	349.66	117.41	63.235	15.42	1.1915e-06	34.542	0.00046322	0.00056975	0.0025108	749.91	6.8763e-06	7.1396e-06	962.55	260.12	6.593e-06	6.1425e-06	332.86	112.57	61.819	16.792	5.9536e-06	33.244	183.247	26.404	103.737	-43.773	100.105	142.029	-42.689	-40.090	87.075	84.921	-39.321	-34.888	-35.377	-29.468	181.101	-29.776	-8191	255	
26661.664	1	1	0	0	0.055561	0.06672	0.17333	0.13283	0.068548	0.20041	0.14724	0.045522	0.29846	0.087329	0.1675	0.051401	0.24905	0.10015	0.12	0.21473	-2.6813	-2.6542	-2.8167	-3.0146	-2.8396	-2.7958	-2.9167	-2.9396	-3.0292	-2.6521	-2.9	-3.075	-2.8167	-2.9875	-2.8854	-2.8021	-35.926	133.174	166.191	200.082	81.449	189.830	-28.643	26.509	-5.088	99.661	-36.386	175.789	-38.877	11.380	70.217	172.478	8.0904e-05	0.00039842	0.0049859	783.77	2.8951e-06	7.7188e-06	1014.3	231.4	9.6838e-07	5.6448e-06	350.45	117.3	62.209	16.367	1.6329e-06	34.793	0.00047633	0.00057623	0.0042144	744.26	6.0915e-06	7.1192e-06	959.37	243.11	6.319e-06	6.2474e-06	333.29	112.41	59.493	20.71	5.9159e-06	33.414	214.409	48.945	105.746	-43.074	139.972	92.789	-42.933	-39.494	95.294	100.411	-39.314	-34.723	-34.173	-31.601	127.616	-30.247	-8191	255	
26661.762	1	1	0	0	0.10874	0.071884	0.28418	0.065724	0.14134	0.24325	0.20318	0.13825	0.08466	0.23156	0.12802	0.15972	0.17579	0.24034	0.067008	0.25548	-2.5062	-2.8396	-2.7229	-2.8563	-2.7875	-3.05	-3.0521	-2.7062	-2.975	-2.7208	-2.7833	-3.0979	-2.5625	-2.9271	-2.9792	-2.8542	70.217	160.508	233.537	210.812	183.103	125.416	138.518	288.187	124.393	21.549	31.157	258.497	2.968	176.515	209.998	128.301	0.00012232	0.00026931	0.0028281	794.57	3.6776e-06	8.1352e-06	1025	235.89	9.336e-05	3.0945e-06	353.07	117.39	62.517	15.967	2.6968e-06	35.172	0.00047613	0.00055828	0.0025212	750.56	6.0465e-06	8.3037e-06	965.12	253.44	1.2142e-05	6.1469e-06	334.33	113.01	60.014	18.336	6.0058e-06	33.853	217.331	36.154	108.866	-43.013	102.724	54.435	-42.761	-39.858	265.414	117.394	-39.359	-34.342	-34.484	-30.168	64.150	-29.722	-8191	255	
26661.857	1	1	0	0	0.15757	0.084712	0.14594	0.13917	0.14534	0.17611	0.18017	0.23936	0.065192	0.095055	0.14627	0.21616	0.074989	0.078616	0.22649	0.16189	-2.3937	-2.5729	-2.8	-3.0062	-2.8042	-2.9521	-3.0667	-2.7542	-2.9313	-2.7979	-2.75	-3.1229	-2.7354	-2.9562	-3.0667	-2.7229	65.548	-35.187	144.142	292.560	-36.696	103.416	254.126	180.649	297.074	1.941	193.012	250.472	173.456	182.849	297.260	203.996	0.0001157	0.00025483	0.0051274	792.6	1.5989e-06	4.1109e-06	1027.3	235.86	5.855e-05	7.5962e-06	353.19	118.35	62.86	16.671	5.0057e-07	35.771	0.0005093	0.00056567	0.0042564	753.55	6.0222e-06	7.1268e-06	969.4	227.44	6.3989e-05	5.9683e-06	336.09	114.07	60.316	21.187	5.8554e-06	34.214	181.197	83.473	118.234	-43.148	101.226	115.815	-42.867	-39.556	266.187	79.822	-39.361	-34.436	-34.553	-31.113	113.023	-29.982	-8191	255	
26661.953	1	1	0	0	0.30319	0.41344	0.27074	0.15337	0.032314	0.16946	0.21682	0.19368	0.10662	0.085931	0.38525	0.19832	0.1323	0.35978	0.11246	0.09815	-2.4688	-2.9792	-2.7208	-3.0958	-2.6958	-2.8771	-2.9083	-2.8896	-2.9521	-2.8083	-2.8271	-3.1083	-3.0167	-2.8208	-2.8479	-2.6562	209.880	115.057	36.707	169.842	226.033	57.932	-35.170	286.197	-39.342	263.699	293.441	28.066	261.636	-25.746	52.746	5.858	0.00012474	0.00049847	0.002923	804.24	4.0798e-06	4.7741e-06	1029.5	234.9	0.00013298	3.0937e-06	350.27	117.87	61.701	16.019	6.1977e-06	34.864	0.00049607	0.00053517	0.0025218	758.19	5.7288e-06	7.9821e-06	971.69	223.15	0.00016068	6.0501e-06	333.36	113.16	59.619	18.264	5.819e-06	33.349	192.049	33.090	121.180	-43.204	76.087	60.783	-43.065	-39.053	-43.961	125.083	-39.125	-34.311	-34.797	-30.457	128.376	-29.883	-8191	255	
26662.049	1	1	0	0	0.13534	0.058254	0.17074	0.091038	0.13386	0.071779	0.059535	0.23053	0.29184	0.1488	0.18796	0.14844	0.39994	0.10291	0.31041	0.10624	-2.4188	-2.8167	-2.6937	-2.8604	-3.1479	-2.7021	-3.0958	-2.7812	-2.9521	-2.9792	-2.75	-3.0667	-2.7854	-2.8563	-3.0208	-2.5812	254.739	281.186	-44.124	227.802	285.462	249.111	196.997	253.801	-5.595	270.615	258.057	237.671	-1.384	262.572	164.627	125.929	6.9619e-05	0.00016595	0.001423	751.1	1.8804e-06	8.4587e-06	1019.4	231.3	6.7239e-05	4.772e-06	349.71	117.27	62.13	16.173	4.4967e-06	34.701	0.00054856	0.00053688	0.0032985	775.01	5.738e-06	6.4305e-06	964.39	220.45	9.3762e-05	6.0115e-06	331.19	112.62	59.49	20.66	6.2371e-06	33.212	196.114	15.487	34.132	-40.624	93.906	87.461	-42.865	-38.932	-31.969	90.750	-39.200	-34.648	-34.711	-30.701	134.585	-29.736	-8191	255	
26662.168	1	1	0	0	0.058012	0.14998	0.097581	0.33108	0.19836	0.010528	0.19165	0.20192	0.26154	0.30571	0.16038	0.27724	0.089794	0.23008	0.17088	0.22913	-2.4667	-2.8521	-2.5792	-2.9938	-2.8	-2.7021	-3.1542	-2.9417	-2.9042	-2.8063	-2.7229	-3.0729	-2.8458	-2.5812	-3.0396	-2.7062	-31.451	-3.102	283.993	268.483	198.494	9.525	231.273	148.572	245.019	117.423	278.393	-44.799	192.779	249.763	115.301	266.483	6.1228e-05	0.00044104	0.00076883	767.09	5.5446e-06	3.8738e-06	1019	231.82	0.00012725	6.0284e-06	350.77	117	62.131	15.925	4.0991e-06	34.775	0.00048228	0.0005312	0.00049722	875.44	5.7437e-06	7.4048e-06	962.98	221.1	0.00015786	5.8188e-06	331.59	112.72	59.555	18.134	6.0229e-06	33.288	182.295	66.323	47.099	-41.978	110.004	46.468	-43.047	-38.934	-25.846	66.720	-39.461	-34.606	-34.215	-29.677	111.949	-30.002	-8191	255	
26662.264	1	1	0	0	0.40092	0.083658	0.22211	0.29331	0.20068	0.20802	0.13348	0.23148	0.063752	0.22907	0.15816	0.10076	0.34355	0.31375	0.15406	0.090395	-2.425	-2.9104	-2.6458	-2.9771	-2.8	-2.5479	-3.1188	-2.8583	-2.9042	-3.0646	-2.8771	-3.1021	-2.8563	-2.6229	-2.9729	-2.9208	118.380	101.009	120.066	-9.396	116.632	-36.010	230.172	292.726	-54.001	102.127	117.668	-16.974	233.532	161.260	270.779	107.944	4.505e-05	0.00033352	3.9249e-05	758.89	2.5619e-06	2.7397e-06	1023.9	232.47	8.4041e-05	3.4677e-06	348.81	117.6	61.593	16.23	0.00010174	34.908	0.00054155	0.00052843	0.00014285	1067	5.6666e-06	6.4029e-06	968.25	220.86	9.2814e-05	5.9762e-06	331.22	113.16	59.514	19.025	2.6377e-05	33.432	152.053	46.536	-27.765	-40.565	126.015	111.958	-42.794	-38.994	-22.998	114.484	-39.226	-34.460	-34.360	-31.726	172.126	-29.832	-8191	255	
26662.359	1	1	0	0	0.2824	0.1609	0.20331	0.29416	0.12195	0.26139	0.10708	0.047725	0.025212	0.14409	0.17203	0.20537	0.13261	0.035258	0.10699	0.12545	-2.2167	-3.0563	-2.6063	-2.9813	-2.8708	-2.7708	-3.0563	-2.9375	-2.6354	-2.9146	-2.8083	-2.8375	-2.7667	-2.6063	-2.8396	-2.9417	63.738	141.363	249.403	237.886	71.041	59.508	156.367	-46.275	213.673	-42.663	298.976	-42.705	251.559	112.371	96.729	207.753	4.7233e-05	0.00050472	9.1391e-05	776.44	2.5487e-06	4.1214e-06	1026.8	231.7	0.00013504	3.3285e-06	352.19	116.71	61.592	15.696	6.0323e-05	34.487	0.00045805	0.00053288	0.00014953	938.25	5.7668e-06	6.4938e-06	972.7	221.22	0.00015962	6.4842e-06	333.04	112.11	59.203	14.985	7.2634e-05	32.981	202.237	17.434	-9.133	-42.278	152.239	92.653	-42.882	-38.905	-18.532	66.125	-39.128	-34.707	-34.356	-30.791	175.420	-29.694	-8191	255	
26662.457	1	1	0	0	0.060067	0.062947	0.1127	0.26035	0.1605	0.17651	0.15749	0.11898	0.072962	0.16293	0.12895	0.10696	0.20633	0.16649	0.14204	0.12761	-2.1896	-2.8917	-2.6375	-2.8083	-2.95	-2.7646	-3.075	-2.9708	-2.7812	-3.1417	-2.7333	-2.8417	-3.0312	-2.7146	-3.0792	-3.0167	82.246	-22.026	101.969	171.623	-34.647	224.293	189.120	234.378	166.233	26.083	-7.327	54.051	187.005	136.151	191.874	285.709	7.1243e-05	0.00051801	0.0001025	740.9	4.6135e-06	5.9079e-06	1021.3	232.07	7.1212e-05	5.419e-06	347.49	115.47	61.373	14.893	0.00017986	33.97	0.00051153	0.0005765	0.00014649	1060.7	5.9407e-06	5.8462e-06	963.48	219.31	9.286e-05	6.231e-06	329.14	111.03	58.723	14.4	0.00016154	32.634	187.941	5.371	62.210	-40.693	79.649	71.857	-42.591	-38.922	-11.969	112.456	-39.390	-34.323	-34.552	-30.176	114.006	-29.686	-8191	255	
26662.576	1	1	0	0	0.18466	0.24458	0.15856	0.13319	0.091147	0.2406	0.055266	0.40797	0.21758	0.17344	0.17484	0.16767	0.29844	0.21001	0.26536	0.27528	-2.3688	-2.8417	-2.7625	-2.6854	-2.9917	-2.6708	-3.1229	-2.9396	-2.7771	-2.8792	-2.7979	-2.8354	-3.1083	-2.7021	-3.0396	-3.0312	99.163	23.205	-39.778	289.929	158.654	61.050	48.188	212.897	292.283	190.256	283.902	-55.870	-38.918	-50.361	113.878	231.650	7.579e-05	0.00044165	5.7235e-05	763.35	2.1698e-06	3.9687e-06	1021.2	230.88	0.00013505	7.1322e-05	345.99	116.52	61.303	15.094	9.9905e-05	34.45	0.00047047	0.0005705	0.00014949	927.89	5.7725e-06	5.927e-06	966.01	219.16	0.00010952	3.4542e-05	329.05	111.45	58.869	14.485	9.7075e-05	32.877	207.210	-6.959	74.895	-42.042	174.661	97.100	-42.797	-38.971	16.828	267.675	-39.226	-34.802	-34.086	-30.397	121.669	-29.943	-8191	255	
26662.648	1	1	0	0	0.3734	0.12145	0.049668	0.075558	0.10157	0.070616	0.16204	0.25582	0.10337	0.1056	0.17838	0.23367	0.126	0.11356	0.21223	0.15361	-2.1063	-3.05	-2.6604	-2.6958	-3.0917	-2.7479	-3.0708	-2.8187	-2.7625	-2.9375	-2.7583	-2.8333	-2.9646	-2.7479	-2.8	-2.8312	286.424	68.175	101.639	285.824	271.255	163.526	46.588	266.825	249.228	51.352	104.121	197.448	260.448	87.618	-38.596	239.406	8.2067e-05	0.00058688	4.2719e-05	753.94	3.2362e-06	1.7786e-06	1025.3	232.25	7.6209e-05	1.5841e-05	349.75	116.85	61.208	15.215	0.00016879	34.602	0.00046727	0.00066277	0.00014986	1075.5	6.4401e-06	6.024e-06	968.15	220.44	1.0785e-05	8.1346e-05	331.08	112.08	59.158	14.64	0.00016656	33.177	196.506	2.898	36.638	-41.375	152.924	111.972	-42.829	-39.196	18.586	278.775	-39.374	-34.514	-34.789	-30.020	123.696	-29.976	-8191	255	
26662.744	1	1	0	0	0.10032	0.30293	0.23875	0.26076	0.10852	0.19556	0.13959	0.10489	0.24464	0.10316	0.18037	0.19304	0.23216	0.065259	0.05431	0.16761	-2.2042	-2.8688	-2.6354	-2.5104	-3.0917	-2.7208	-2.9146	-2.9167	-2.6125	-2.8354	-2.9625	-2.7479	-2.9604	-2.7938	-2.7125	-3.0917	54.561	185.722	258.569	256.318	159.911	66.329	252.314	134.445	139.582	-56.529	245.911	-42.509	221.623	207.554	189.327	194.280	8.206e-05	0.00060152	0.00014528	767.18	2.3364e-06	2.2609e-06	1033.2	234.46	3.6713e-06	0.00019159	353.78	117.08	62.322	15.401	9.9419e-05	35.211	0.00042916	0.00063523	0.00015548	940.92	6.2185e-06	6.0182e-06	974.77	222.53	5.7684e-06	0.00017281	334.69	113.02	59.71	14.871	9.8081e-05	33.697	178.074	-40.428	32.991	-42.600	174.150	110.343	-42.777	-38.956	174.057	-4.327	-39.316	-34.561	-34.078	-30.250	128.050	-29.673	-8191	255	
26662.842	1	1	0	0	0.13585	0.19269	0.17857	0.26014	0.080913	0.18373	0.19896	0.15341	0.063455	0.098689	0.23824	0.21564	0.25703	0.1265	0.3773	0.088313	-2.3375	-2.7417	-2.7979	-2.6854	-3.1375	-2.6604	-2.7854	-3.0542	-2.5979	-2.7646	-2.8729	-2.7313	-3	-2.7354	-2.7938	-3.0021	70.317	-23.921	95.634	-19.720	8.442	10.862	272.419	231.490	61.615	279.610	-51.794	271.388	-41.535	128.654	262.397	-31.946	8.6203e-05	0.00085537	0.00015642	793.55	0.00015803	1.9958e-06	1021	233.61	5.0121e-06	0.00011849	351.21	116.08	61.232	15.273	0.00017003	34.354	0.00043759	0.00071253	0.00015221	955.04	4.1382e-05	5.9843e-06	965.33	221.65	5.902e-06	0.00010141	331.92	111.79	59.172	14.634	0.00016326	32.91	181.333	-28.602	-24.854	-43.779	231.060	101.426	-42.772	-39.060	89.852	6.038	-39.285	-34.889	-34.415	-30.334	133.631	-29.806	-8191	255	
26662.961	1	1	0	0	0.17584	0.27513	0.089661	0.19426	0.061532	0.06262	0.18766	0.3238	0.30204	0.37113	0.16279	0.10754	0.16387	0.082328	0.050912	0.11857	-2.2208	-2.725	-2.8917	-2.6479	-3.0479	-2.7208	-2.8042	-3.1167	-2.7146	-2.9542	-2.9771	-2.8292	-2.9521	-2.9167	-2.6437	-3.2021	149.541	290.824	14.008	245.045	3.848	196.932	275.762	249.866	88.029	286.515	80.194	116.564	132.389	128.547	74.171	162.216	0.00011524	0.00037988	9.2195e-05	783.94	9.3281e-05	3.9124e-06	1017.2	231.17	3.3921e-06	0.00019368	350.56	116.93	61.203	15.391	0.00010458	34.44	0.00043921	0.00062079	0.00015334	750.06	8.2916e-05	6.0773e-06	964.27	220.64	5.9347e-06	0.00017214	332.2	111.82	59.31	14.623	9.724e-05	33.189	195.510	13.765	-2.132	-44.341	239.842	119.022	-42.997	-38.783	114.501	1.759	-39.296	-34.592	-34.471	-30.172	145.795	-29.853	-8191	255	
26663.057	1	1	0	0	0.20589	0.26551	0.20296	0.040636	0.10884	0.19387	0.36975	0.16739	0.074862	0.25616	0.13036	0.16687	0.22765	0.055229	0.12537	0.36658	-2.2375	-2.6958	-3.0146	-2.7979	-2.9208	-2.9854	-2.6667	-2.9625	-2.6021	-2.8312	-3.0812	-2.8583	-2.9437	-3.0208	-2.4667	-3.1562	-0.095	245.439	145.294	4.741	41.877	206.296	248.687	155.118	295.968	223.618	256.404	-41.705	243.793	33.104	154.752	197.925	0.00010086	0.00056542	0.0001468	793.39	0.00016701	8.9231e-07	1024.6	232.19	2.7864e-06	0.00010746	350.3	117.44	61.653	15.445	0.00014006	34.253	0.00043461	0.00071811	0.00015096	750.85	0.00016776	6.217e-06	967.27	221.05	5.7461e-06	0.00010164	332.73	112.48	59.516	14.788	0.00010015	35.682	188.929	44.754	9.422	-43.487	251.300	138.513	-42.892	-38.690	113.809	14.597	-39.630	-34.574	-34.382	-30.159	85.858	-28.359	-8191	255	
26663.152	1	1	0	0	0.062887	0.2898	0.19062	0.14599	0.14077	0.19066	0.12535	0.15654	0.21073	0.1307	0.11026	0.20384	0.26217	0.058523	0.12033	0.16818	-2.2583	-2.5479	-2.8979	-2.6896	-2.8042	-3.0812	-2.7354	-2.9688	-2.7104	-2.6771	-2.9313	-2.8479	-2.6375	-3.1646	-2.5687	-2.9146	-51.957	286.293	-52.388	301.151	280.787	241.370	252.641	260.131	106.378	182.744	-45.407	273.750	243.681	182.812	293.324	170.347	9.6059e-05	0.00035802	0.00013986	792.79	7.6301e-05	4.7673e-06	1028.7	233.79	3.6167e-06	0.00019948	352.55	117.15	62.516	15.393	3.0901e-06	34.615	0.00043962	0.00061013	0.00015675	753.72	0.00010051	6.1829e-06	971.51	221.88	6.043e-06	0.00017428	333.92	112.99	59.872	14.844	5.8679e-06	38.191	199.486	37.960	-25.394	-43.592	258.189	84.027	-42.902	-38.964	82.186	14.137	-39.020	-34.705	-34.544	-29.791	102.177	-28.387	-8191	255	
26663.248	1	1	0	0	0.032196	0.13135	0.07797	0.24419	0.046003	0.065509	0.18957	0.085737	0.12134	0.099125	0.13972	0.23952	0.16604	0.26092	0.17033	0.12351	-2.4167	-2.7167	-3.0521	-2.7229	-2.8063	-3.0458	-2.7396	-2.9813	-2.8688	-2.6688	-3.0062	-3.0125	-2.8729	-2.8771	-2.7812	-3.0958	250.780	222.150	176.461	286.777	78.344	100.916	252.354	147.411	-51.598	124.490	202.619	236.301	248.749	253.549	-12.650	14.988	0.00011388	0.00084758	0.00010184	796.46	0.00016397	1.8202e-06	1033.2	233.85	2.4547e-06	0.00011301	354.37	116.44	61.531	15.384	2.2715e-06	34.904	0.00043936	0.00069133	0.00017062	758.31	0.00017076	6.1159e-06	973.7	222.43	5.9135e-06	0.00010313	333.78	112.37	59.707	14.783	5.9647e-06	41.881	187.624	16.998	65.298	-43.363	266.392	86.480	-42.905	-38.848	156.545	23.449	-39.192	-34.519	-34.889	-30.386	99.381	-27.445	-8191	255	
26663.346	1	1	0	0	0.24911	0.20245	0.20868	0.13888	0.25965	0.084919	0.40693	0.26587	0.23838	0.1549	0.11831	0.10501	0.15333	0.30771	0.092	0.20143	-2.5938	-2.6125	-2.925	-2.6771	-2.8667	-2.975	-2.7229	-3.0312	-2.9646	-2.6042	-2.8833	-2.8104	-2.7313	-3.0083	-2.7146	-2.8958	234.748	7.035	232.253	152.869	92.466	184.031	174.605	-55.085	-11.591	-15.669	183.630	40.178	68.330	96.274	285.517	-53.711	8.3391e-05	0.00068829	0.00014862	792.16	8.2151e-05	5.3161e-06	1023.7	231.69	3.3397e-06	0.00021039	346.9	115.94	61.53	15.223	3.5052e-06	34.712	0.00043951	0.00059813	0.00016675	749.77	9.9196e-05	6.2256e-06	965.81	221.06	5.8604e-06	9.6794e-05	349.64	111.49	59.36	14.671	6.0034e-06	38.167	172.476	5.978	8.796	-43.362	269.923	92.333	-42.967	-38.992	91.981	25.925	-39.475	-34.352	-34.500	-30.134	62.918	-28.587	-8191	255	
26663.441	1	1	0	0	0.1106	0.14855	0.087682	0.34781	0.1828	0.18501	0.16391	0.23294	0.084182	0.093332	0.2408	0.048616	0.032208	0.23987	0.12427	0.2331	-2.5083	-2.5771	-3.0187	-3.0479	-2.6667	-2.9396	-2.8667	-2.7042	-3.0208	-2.6083	-3.0312	-2.9833	-2.5083	-2.8792	-2.8458	-2.8479	63.711	88.323	302.219	-6.907	-27.590	142.026	180.053	239.391	284.120	40.454	269.806	255.217	60.170	129.985	119.525	-15.229	8.0784e-05	0.00032369	0.00019452	793.17	0.00016154	2.4588e-06	1021	233.43	2.8955e-06	2.4637e-06	353.66	116.8	62.164	15.415	4.7374e-06	35.118	0.00045701	0.00059911	0.00019172	752.74	0.00016862	6.7546e-06	967.56	221.91	6.0963e-06	6.0769e-06	366.56	112.37	59.709	14.86	5.9027e-06	42.379	175.922	74.957	26.079	-43.239	271.161	153.133	-42.834	-38.648	95.618	98.124	-39.218	-34.556	-34.463	-30.362	97.385	-27.424	-8191	255	
26663.537	1	1	0	0	0.2207	0.1076	0.091382	0.12828	0.22463	0.056882	0.2849	0.2239	0.34008	0.22864	0.016172	0.26992	0.12786	0.11672	0.25831	0.28876	-2.6729	-2.7104	-2.9646	-2.9167	-2.5604	-2.9292	-3.1021	-2.775	-3.1875	-2.6958	-3.1625	-3.1708	-2.7708	-3.0667	-2.6958	-2.9604	127.456	-38.445	28.745	13.527	40.789	37.901	261.588	268.324	4.504	-7.386	52.280	-1.423	300.357	217.177	219.543	-4.410	7.3766e-05	0.00048607	0.0001068	803.09	9.9332e-05	4.435e-06	1031	234.15	1.6877e-06	5.4471e-06	363.4	118.6	62.537	15.695	1.8239e-06	35.443	0.0004543	0.00054717	0.00017488	757.5	0.00010074	6.4458e-06	975.68	223.41	5.9031e-06	6.0623e-06	397.35	113.56	60.184	15.082	5.7166e-06	39.211	190.344	18.166	64.949	-43.070	279.671	126.113	-42.901	-38.675	106.839	80.952	-39.997	-34.590	-34.496	-29.778	196.223	-28.452	-8191	255	
26663.658	1	1	0	0	0.10462	0.15274	0.12221	0.14241	0.20945	0.15699	0.31223	0.26124	0.15979	0.22557	0.23485	0.19377	0.1295	0.31765	0.1994	0.18113	-2.4833	-2.7708	-2.8583	-2.9521	-2.8125	-3.0292	-3.1979	-2.7687	-3.1292	-2.8646	-3.0167	-3.0167	-2.6458	-2.8479	-2.975	-2.9833	61.225	80.763	-8.923	33.442	-13.460	214.314	273.408	-6.896	-16.070	87.125	-17.065	284.218	-14.164	-16.774	-20.319	276.873	8.7848e-05	0.00035934	0.00013513	808.53	8.1421e-05	0.00016815	1038.4	236.58	3.8653e-06	3.9079e-06	362.62	118.69	62.873	15.668	2.2986e-06	35.151	0.00045062	0.00053747	0.00020448	765.14	8.8702e-05	6.6691e-05	981.31	224.65	6.0041e-06	5.7967e-06	373.14	114.17	60.375	15.163	5.8168e-06	42.899	196.689	41.245	-28.577	-43.324	-14.472	245.471	-42.711	-38.619	84.263	60.887	-39.426	-34.434	-34.323	-29.847	98.777	-27.679	-8191	255	
26663.754	1	1	0	0	0.13755	0.15836	0.17991	0.23153	0.19678	0.20137	0.13014	0.11535	0.12197	0.067031	0.32804	0.21334	0.17256	0.13792	0.24557	0.24704	-2.4354	-2.7292	-2.6625	-3.0542	-2.7042	-2.6771	-3.1771	-2.8125	-2.9583	-2.7854	-2.725	-2.9396	-2.8187	-3.025	-2.8771	-2.6958	89.999	239.907	72.365	204.623	227.668	112.903	205.568	83.680	-4.238	118.063	239.759	227.578	-46.546	262.056	271.908	144.965	9.3674e-05	0.00036601	9.606e-05	804.86	2.8762e-06	9.1907e-05	1035.5	234.7	2.1294e-06	1.9332e-06	362.95	117.54	62.426	15.373	2.6292e-06	34.444	0.00045759	0.00053649	0.00017069	762.05	5.5135e-06	0.00010182	976.18	222.76	6.1739e-06	5.7507e-06	395.2	112.67	59.889	14.805	5.4276e-06	38.464	193.466	30.187	23.831	-43.719	121.332	248.577	-43.121	-38.586	114.657	59.642	-39.345	-34.598	-34.581	-30.353	113.443	-28.404	-8191	255	
26663.850	1	1	0	0	0.090024	0.11631	0.22038	0.11909	0.19192	0.10519	0.26908	0.3827	0.1526	0.087224	0.032549	0.14644	0.14664	0.11721	0.12941	0.22145	-2.5604	-2.6958	-2.8792	-3.0062	-2.6333	-2.9104	-3.0687	-2.6979	-2.95	-2.7167	-2.6958	-2.8875	-2.6875	-2.6521	-2.9021	-2.75	114.713	48.684	169.770	-49.940	149.159	278.686	222.488	265.643	109.976	263.983	256.287	223.166	267.464	-33.279	214.581	260.626	9.395e-05	0.00032996	0.00020266	806.36	1.008e-06	0.00020886	1035	234.63	2.3033e-06	1.6244e-06	357.63	117.78	62.84	15.475	6.098e-06	35.474	0.00045316	0.00054357	0.00019717	759.94	5.6169e-06	0.00017716	976.16	222.95	6.2217e-06	5.793e-06	370.08	113.22	60.026	14.956	5.7048e-06	37.556	181.988	11.427	54.473	-43.489	158.240	288.941	-42.880	-38.842	81.164	11.656	-39.229	-34.267	-34.509	-29.882	105.412	-29.160	-8191	255	
26663.943	1	1	0	0	0.067153	0.26463	0.14993	0.22544	0.11855	0.18562	0.10525	0.012015	0.36899	0.28518	0.23054	0.2756	0.34386	0.37051	0.13517	0.11286	-2.6063	-2.7271	-2.7792	-3.0542	-2.7	-2.7333	-3.1875	-2.6937	-2.9958	-2.9208	-2.65	-2.7979	-2.8354	-2.9125	-3.2542	-2.7375	-51.334	138.384	146.854	8.612	144.352	-10.378	278.326	85.756	256.775	87.191	285.713	283.347	257.421	244.725	30.558	265.407	0.0021819	0.00028452	0.0001461	806.93	3.3376e-06	0.00012752	1035.2	233.68	2.1672e-06	3.1159e-06	365.27	117.83	63.111	15.509	2.8725e-06	35.071	0.0047458	0.00051551	0.00016829	765.09	5.8249e-06	0.00010591	978.69	222.88	7.2633e-06	5.9267e-06	397.83	113.41	60.325	15.029	5.8308e-06	33.777	184.602	3.890	26.054	-43.507	121.432	290.133	-42.717	-38.944	82.585	78.488	-39.020	-34.553	-34.238	-30.250	168.251	-30.155	-8191	255	
26664.039	1	1	0	0	0.26221	0.1248	0.1406	0.1665	0.15746	0.35319	0.18656	0.13665	0.32551	0.20225	0.23205	0.2496	0.045345	0.146	0.038725	0.22613	-2.3	-2.9313	-2.6208	-3.05	-2.7229	-2.7646	-3.1937	-2.8042	-2.8396	-2.9875	-2.6646	-2.9625	-2.875	-2.7438	-3.1312	-2.825	-49.766	203.077	253.090	-26.483	155.409	-36.858	-46.959	-15.371	-44.005	258.774	160.586	205.324	195.926	24.445	-34.302	-38.836	0.0012232	0.00020208	9.7924e-05	808.53	1.5424e-06	0.00020665	1029.7	237.68	3.7685e-06	2.5943e-06	362.62	119.32	62.874	15.842	3.7741e-06	35.849	0.006672	0.00055228	0.00018756	766.26	6.0402e-06	0.00017862	979.12	224.95	6.7208e-06	6.0508e-06	372.96	114.35	60.547	15.234	5.9712e-06	34.202	164.395	24.894	2.837	-43.691	79.039	298.006	-42.971	-38.724	82.225	90.231	-39.306	-34.159	-34.768	-30.116	159.911	-30.068	-8191	255	
26664.137	1	1	0	0	0.071794	0.20827	0.11408	0.17944	0.33475	0.048395	0.27899	0.073651	0.16292	0.22008	0.16439	0.27083	0.19051	0.074253	0.14218	0.23617	-2.3875	-2.9104	-2.6292	-2.7375	-2.7979	-2.7125	-3.1292	-2.7979	-2.9042	-2.95	-2.675	-2.9729	-2.825	-2.5563	-2.8333	-2.8125	191.059	267.482	132.424	219.641	140.786	244.482	237.159	285.186	81.292	282.296	-38.533	224.605	135.220	166.068	286.580	208.638	0.0018859	8.008e-05	0.00016096	812.81	2.7827e-06	0.00012611	1036.7	235.26	2.7251e-06	5.2193e-06	363.9	117.73	62.769	15.595	2.3718e-06	35.102	0.01119	0.00054615	0.00015938	768.29	5.9918e-06	0.00010535	978.91	223.77	7.7046e-06	5.9676e-06	359.65	122.54	60.214	14.938	5.9803e-06	33.489	170.110	69.320	62.236	-43.245	86.465	-49.453	-43.117	-38.802	151.961	93.645	-39.764	-34.159	-34.104	-30.209	98.288	-30.012	-8191	255	
26664.258	1	1	0	0	0.079051	0.13986	0.38554	0.16558	0.17694	0.13114	0.29436	0.24848	0.083257	0.14783	0.15032	0.11374	0.13674	0.24316	0.11624	0.26115	-2.4813	-2.9667	-2.4958	-3.0875	-2.925	-2.7875	-3.1688	-2.9104	-2.95	-2.975	-2.6333	-2.8083	-2.975	-2.7583	-2.8083	-2.9042	22.645	-13.240	20.120	290.820	293.577	-50.561	241.227	234.847	281.814	213.812	-18.473	-49.105	115.907	-21.396	-29.669	297.173	0.0011802	0.00042818	0.0002091	798.78	1.7629e-06	0.00018769	1028.9	236.01	2.4347e-06	5.3229e-06	350.27	119.7	62.531	15.315	4.7104e-06	34.886	0.006535	0.00055498	0.00015439	762.78	5.8578e-06	0.00017464	970.92	223.14	6.625e-06	5.9838e-06	334.1	125.03	60.022	14.907	6.2628e-06	33.428	179.455	20.850	10.856	-43.134	65.081	-47.198	-43.252	-38.905	158.025	119.816	-39.344	-34.530	-34.664	-30.548	116.034	-30.157	-8191	255	
26664.354	1	1	0	0	0.16199	0.145	0.27799	0.098167	0.26287	0.2284	0.20466	0.075481	0.13217	0.42111	0.34123	0.076933	0.12932	0.1873	0.2752	0.15444	-2.2354	-2.95	-2.725	-2.8229	-3.0312	-2.6604	-3.2042	-2.8979	-2.8125	-3.1125	-2.9125	-2.8521	-2.9833	-2.6917	-2.8854	-2.9479	1.760	232.755	134.933	57.997	224.059	231.710	161.912	-43.279	173.587	214.020	298.974	240.760	236.421	15.321	120.286	-35.545	0.0019992	0.00011411	0.00012334	801.67	3.5097e-06	0.00010602	1032.7	234.06	1.6361e-06	4.7387e-06	353.06	121.03	62.726	15.602	2.5026e-06	35.058	0.010934	0.00053138	0.0001493	761.64	5.8524e-06	0.00010116	975.15	223.07	7.5605e-06	5.9092e-06	334.96	134.05	60.301	14.957	6.3121e-06	33.724	183.220	36.107	25.969	-42.981	79.326	-3.643	-43.064	-38.837	159.742	100.135	-39.374	-34.367	-33.906	-30.220	111.809	-29.767	-8191	255	
26664.449	1	1	0	0	0.22521	0.19152	0.18675	0.076213	0.14464	0.072455	0.2278	0.12614	0.11058	0.20221	0.15406	0.2217	0.13359	0.16267	0.38369	0.17778	-2.1979	-2.9083	-2.6979	-2.9833	-2.9375	-2.7521	-3.2167	-2.8792	-2.7771	-3.1021	-2.8417	-2.8667	-3.0312	-2.7958	-2.9938	-3	-18.892	236.824	142.684	37.511	127.540	-56.637	255.652	246.160	42.063	-39.318	71.954	241.506	205.389	204.306	229.454	-19.483	0.0011639	0.00021417	8.7741e-05	801.28	3.5972e-06	0.000165	1026.1	237.51	2.5435e-06	4.1254e-06	353.64	120.75	63.364	15.765	3.4881e-06	35.313	0.0065051	0.00054874	0.00014149	765.87	5.9855e-06	6.7209e-05	1035.2	224.95	6.0955e-06	6.3303e-06	335.72	126.22	60.702	15.059	7.5012e-06	33.981	185.984	-29.219	31.689	-43.565	119.399	-5.499	-43.229	-38.684	155.340	77.649	-39.209	-34.106	-34.624	-30.663	106.631	-29.823	-8191	255	
26664.521	1	1	0	0	0.26165	0.20987	0.050035	0.26007	0.04317	0.1369	0.19843	0.13235	0.12556	0.17467	0.29817	0.18491	0.051545	0.13233	0.18981	0.27469	-2.3063	-2.9229	-2.6458	-2.8438	-2.9792	-2.8667	-3.0521	-3.0521	-2.6271	-3.0229	-2.95	-2.9104	-3.1875	-2.5125	-2.8812	-2.9521	48.441	166.210	90.390	15.875	78.768	220.500	262.774	291.107	175.287	64.346	181.897	19.490	-46.828	288.007	-18.622	139.435	0.0018248	0.00043363	9.2308e-05	796.62	1.2138e-06	1.1641e-06	1035.5	237.36	3.5546e-06	2.6332e-06	355.39	121.9	62.896	15.671	5.192e-06	35.123	0.011003	0.00060029	0.00015256	762.58	6.0501e-06	5.7725e-06	1041.9	225.4	7.0199e-06	6.4978e-06	337.2	134.5	60.642	15.041	6.7295e-06	33.805	192.019	57.366	13.892	-42.924	155.775	160.039	-43.324	-38.523	82.970	81.865	-39.299	-34.108	-34.493	-30.575	78.623	-29.667	-8191	255	
26664.643	1	1	0	0	0.19058	0.19202	0.061521	0.22739	0.13484	0.36164	0.17168	0.14079	0.1304	0.1091	0.23836	0.13765	0.18315	0.11129	0.14882	0.21716	-2.2396	-2.9729	-2.8063	-2.7458	-2.9417	-2.8688	-2.8479	-3.1646	-2.6979	-3.0958	-2.9396	-2.8917	-3.1479	-2.9667	-2.7708	-3.2438	-6.352	48.874	229.439	79.960	239.172	1.002	265.868	194.903	203.484	239.643	300.350	132.002	-20.997	-1.421	164.125	-2.093	0.00020876	0.00030183	0.00012552	796.16	4.429e-06	5.142e-06	1031.9	235.03	8.2063e-07	6.1816e-06	349.63	119.4	62.678	15.473	4.192e-06	34.734	0.0059582	0.00055759	0.00015159	759.31	5.7596e-06	5.843e-06	1080.6	223.09	6.1102e-06	6.4223e-06	333.44	124.53	60.134	14.818	7.8149e-06	33.415	130.517	2.391	75.007	-43.003	88.023	73.561	-43.924	-38.689	54.077	57.582	-39.357	-34.209	-34.658	-30.655	24.893	-29.863	-8191	255	
26664.738	1	1	0	0	0.15735	0.19517	0.091411	0.14221	0.069207	0.13332	0.40793	0.0094909	0.039103	0.18009	0.18038	0.27135	0.15297	0.22845	0.20296	0.10403	-2.4271	-2.8479	-2.9917	-2.6354	-2.9229	-2.6604	-2.8771	-2.9521	-2.7104	-2.8542	-2.9688	-2.8854	-3.1125	-2.7104	-2.8646	-3.0458	223.902	43.399	3.791	-15.450	195.481	15.571	205.460	226.853	151.066	211.351	248.411	152.985	211.169	280.909	-8.503	-20.323	0.00012043	0.019562	0.00012248	794.9	4.437e-06	5.0189e-06	1024.1	235.9	3.4672e-06	3.5695e-06	351.03	121.13	62.42	15.26	3.0126e-06	35.139	0.0037006	0.0085118	0.000148	754.37	6.1627e-06	5.8616e-06	1030.8	223.54	5.753e-06	8.0558e-06	333.86	133.47	60.004	14.762	6.6907e-06	33.485	-2.082	157.457	63.400	-42.928	112.880	51.159	-43.461	-38.942	176.670	189.049	-39.477	-33.786	-34.798	-30.242	159.418	-29.723	-8191	255	
26664.834	1	1	0	0	0.32317	0.098373	0.16029	0.095667	0.19254	0.23735	0.23416	0.19751	0.14406	0.053163	0.14206	0.2218	0.27149	0.15058	0.10887	0.12647	-2.2333	-2.7646	-2.8063	-2.7229	-3.0625	-2.9188	-2.9083	-3.0333	-2.6708	-2.9229	-2.9833	-2.7333	-3.0458	-2.8896	-2.7229	-2.9604	189.522	251.258	179.710	-13.149	208.457	102.705	216.145	243.104	295.712	16.849	-42.443	-26.730	214.621	259.615	149.707	251.948	8.5669e-05	0.010036	6.6219e-05	799.39	4.7221e-06	5.597e-06	1037.3	233.63	1.5808e-06	1.413e-06	350.93	118.98	62.491	15.248	3.8146e-06	35.165	0.00043452	0.0092883	0.00015782	757.19	6.7281e-06	6.3187e-06	1084.4	222.1	5.7509e-06	7.028e-06	333.42	122.85	59.884	14.8	7.2662e-06	33.532	171.230	158.867	23.197	-43.394	84.979	94.241	-43.650	-39.094	114.871	94.067	-39.307	-34.486	-35.149	-30.485	20.967	-30.022	-8191	255	
26664.930	1	1	0	0	0.057941	0.11097	0.068841	0.11879	0.17892	0.22012	0.10897	0.036264	0.13621	0.1101	0.093168	0.24833	0.097082	0.16636	0.1798	0.082302	-2.2687	-2.5667	-3.0563	-2.6125	-2.8812	-2.8688	-3.0187	-3.1708	-2.75	-2.8208	-2.9708	-2.6958	-2.8521	-2.7542	-2.4958	-3.1333	268.606	211.962	49.738	40.718	-13.948	280.481	251.355	-5.445	286.018	57.587	139.827	141.412	285.483	137.321	18.723	295.101	9.2567e-05	0.018419	0.00014119	798.92	1.1389e-06	7.4867e-06	1032.9	234.76	1.7845e-06	3.1133e-06	349.89	121.03	62.093	15.365	5.5136e-06	34.8	0.00045372	0.015905	0.00015145	755.54	6.5991e-06	6.047e-06	1035.1	222.24	5.9311e-06	8.1216e-06	332.92	118.43	69.87	14.768	6.5067e-06	33.316	189.868	166.096	59.453	-43.370	54.299	77.444	-43.436	-38.943	143.700	37.075	-39.149	-34.805	-32.722	-30.427	118.034	-30.047	-8191	255	
26665.049	1	1	0	0	0.038647	0.17893	0.082667	0.12324	0.16046	0.085964	0.048394	0.066988	0.1987	0.17259	0.14812	0.27414	0.35119	0.14697	0.078663	0.17716	-2.4167	-2.9521	-2.8896	-2.5583	-2.8937	-3.0292	-2.6479	-2.8625	-2.7229	-2.725	-3.2	-2.8937	-2.8229	-3.0083	-2.6708	-2.9688	272.694	202.394	220.242	-9.928	128.769	77.793	270.805	279.845	23.906	190.007	186.298	272.931	71.553	55.181	42.085	250.411	7.5255e-05	0.011137	0.00012592	798.62	1.5461e-06	4.2835e-06	1031.9	230.85	3.0293e-06	7.1086e-06	344.93	115.17	62.175	14.684	3.406e-06	33.894	0.00044562	0.0092883	0.00015553	753.61	7.8956e-06	6.1857e-06	1075.9	219.22	5.8659e-06	7.0633e-06	327.72	110.72	68.398	14.273	7.2735e-06	32.539	208.977	175.749	37.944	-43.076	242.595	100.537	-43.536	-39.200	80.570	97.093	-39.436	-34.575	-33.582	-30.014	75.226	-30.135	-8191	255	
26665.121	1	1	0	0	0.29708	0.23542	0.090298	0.1082	0.059502	0.16263	0.17228	0.17854	0.057391	0.21434	0.13505	0.10144	0.29006	0.1949	0.32211	0.15605	-2.4583	-2.6604	-3.0563	-2.8479	-2.7042	-3.0417	-2.8854	-2.8729	-2.9229	-2.7729	-3.1229	-2.9729	-2.9083	-2.8812	-2.6667	-3.0042	11.984	241.451	113.449	186.650	255.456	102.629	277.638	267.008	165.011	134.288	221.294	279.181	231.849	43.624	104.140	216.662	8.4564e-05	0.016825	9.3604e-05	791.11	4.3038e-06	3.6998e-06	1024.6	228.98	3.8038e-06	3.6682e-06	343.44	114.93	63.149	14.8	3.4569e-06	33.857	0.0004339	0.015548	0.00015333	745.88	6.7229e-06	6.1019e-06	1012.2	219.06	5.917e-06	7.4702e-06	327.63	110.55	75.396	14.259	6.1122e-06	32.492	181.762	183.182	50.409	-43.267	158.952	115.815	-43.319	-39.191	118.404	115.862	-39.091	-34.473	-32.365	-29.985	81.241	-30.104	-8191	255	
26665.217	1	1	0	0	0.2183	0.13798	0.16238	0.29217	0.42508	0.1273	0.13673	0.16133	0.030738	0.20114	0.12128	0.26293	0.164	0.12492	0.15522	0.12289	-2.475	-2.4833	-2.8438	-2.9271	-2.7083	-3	-2.7729	-2.9271	-2.8458	-2.7958	-2.8812	-2.75	-2.9417	-3.0667	-2.7104	-2.8542	122.796	121.135	157.736	285.667	50.318	296.899	209.461	226.305	222.003	33.985	247.442	-2.834	54.368	2.430	266.256	117.971	9.9487e-05	0.0089074	9.9754e-05	788.31	1.4718e-06	3.5976e-06	1026.1	228.97	4.4322e-06	6.9683e-06	344.87	115.09	61.562	14.971	3.1667e-06	34.176	0.0004418	0.0091384	0.00015563	745.69	7.8317e-06	5.9866e-06	980.05	243.05	5.8743e-06	6.6607e-06	327.79	110.46	68.2	14.349	5.7695e-06	32.633	197.761	185.116	36.124	-43.570	154.362	92.365	-43.683	-39.152	98.804	103.134	-39.118	-34.627	-33.542	-30.342	38.545	-29.574	-8191	255	
26665.338	1	1	0	0	0.12969	0.12803	0.038846	0.15394	0.083335	0.19083	0.19241	0.20933	0.40268	0.16975	0.20371	0.12687	0.18826	0.17664	0.081415	0.13033	-2.5271	-2.7208	-2.9396	-2.7875	-2.7438	-2.9833	-2.7042	-2.7021	-2.9979	-2.7604	-3.1104	-2.8229	-2.8083	-3.0458	-2.7521	-2.8271	252.269	189.902	257.263	238.581	73.759	161.455	113.463	301.809	190.023	173.609	124.656	72.847	276.357	-5.470	215.403	-32.884	6.2225e-05	0.017487	0.00010877	787.69	5.415e-06	2.2458e-06	1018.5	232.79	1.8788e-06	3.1384e-06	347.28	115.23	62.836	14.992	1.9974e-06	34.007	0.00044181	0.015613	0.00015961	746.25	6.8206e-06	5.9439e-06	959.77	240.98	5.8134e-06	7.1793e-06	328.69	110.82	75.709	14.345	5.9667e-06	32.632	198.403	190.934	26.078	-43.635	114.131	45.792	-42.864	-39.455	137.352	62.290	-39.415	-34.633	-31.978	-30.324	138.003	-29.915	-8191	255	
26665.434	1	1	0	0	0.091234	0.034375	0.31876	0.20001	0.2103	0.036657	0.058536	0.052758	0.27858	0.030173	0.12566	0.070674	0.25314	0.076995	0.059666	0.15767	-2.5333	-2.6771	-3.0708	-2.8354	-2.6708	-2.8958	-2.6667	-2.8833	-2.9188	-2.6875	-3.0708	-2.9396	-2.6437	-3.0104	-2.7229	-2.7042	244.413	254.469	231.930	-8.675	-1.330	70.668	38.948	252.255	-32.453	253.435	236.080	284.497	250.922	273.250	49.460	100.494	5.4595e-05	0.0035222	0.0026083	786.14	2.6001e-06	4.9953e-06	1013.6	236.72	2.5345e-06	3.2037e-06	346	114.39	61.457	14.67	5.1364e-06	33.58	0.00043123	0.0073633	0.00028886	747.73	7.1893e-06	6.2358e-06	958.03	258.73	5.8763e-06	6.2033e-06	327.89	110.18	67.841	14.157	5.7935e-06	32.352	156.671	273.498	177.305	-43.292	149.137	87.838	-42.929	-39.971	83.370	60.921	-39.411	-34.656	-33.375	-30.867	120.134	-29.851	-8191	255	
26665.529	1	1	0	0	0.072639	0.2495	0.098082	0.23636	0.24809	0.071043	0.23814	0.13635	0.20845	0.24421	0.16982	0.18269	0.23011	0.35826	0.25847	0.18127	-2.6875	-2.6562	-2.9104	-2.9375	-2.6562	-3	-2.9875	-2.6875	-3.1063	-2.6167	-2.9104	-2.9437	-2.7188	-3.1854	-2.7188	-2.6437	246.547	83.747	277.411	224.763	193.389	149.110	239.229	150.341	79.189	-41.551	292.690	258.015	-0.236	236.122	200.661	286.315	9.0339e-05	0.006849	0.0048906	781.02	1.167e-06	2.4651e-06	1012.5	231.94	2.1132e-06	3.4695e-06	343.1	114.33	61.742	14.708	3.3459e-06	33.88	0.00042804	0.0031621	0.0029168	740.28	6.4086e-06	6.2964e-06	954.27	239.71	5.8056e-06	5.7084e-06	327.2	109.78	75.392	14.258	5.7828e-06	32.432	192.325	275.629	180.316	-43.267	86.244	84.961	-42.935	-39.294	171.797	85.806	-39.471	-34.772	-32.523	-30.271	109.563	-29.643	-8191	255	
26665.650	1	1	0	0	0.04881	0.20144	0.13581	0.19753	0.20895	0.13579	0.13978	0.3917	0.28004	0.19836	0.20521	0.20896	0.19751	0.040728	0.074662	0.22021	-2.4708	-2.7875	-2.7229	-2.9583	-2.6104	-2.8542	-2.9604	-2.6437	-2.8729	-2.8833	-2.9479	-2.8833	-2.7438	-2.8375	-2.7521	-2.6375	-0.591	112.645	81.627	-52.434	267.164	156.036	249.593	232.628	116.821	50.118	209.029	290.508	-25.087	93.174	237.620	207.477	0.00011719	0.00036358	0.002918	789.31	2.2168e-06	5.0268e-06	1009.3	235.44	2.1098e-06	3.7643e-06	344.61	115.04	62.001	14.714	3.0484e-06	33.894	0.0004368	0.00053345	0.0025683	745.65	7.1733e-06	6.7328e-06	955.07	257.82	5.9473e-06	5.9852e-06	327.64	110.56	65.944	14.633	5.9792e-06	32.591	183.931	73.382	207.974	-42.989	119.350	110.106	-42.819	-39.504	123.905	100.149	-39.142	-34.298	-34.109	-28.071	84.573	-29.617	-8191	255	
26665.744	1	1	0	0	0.31374	0.044433	0.25935	0.065012	0.26244	0.070259	0.43267	0.20971	0.15513	0.086298	0.141	0.095585	0.34382	0.08532	0.10123	0.071033	-2.5875	-2.7229	-2.7271	-2.8563	-2.6937	-2.9167	-3.0938	-2.4313	-2.8771	-2.6625	-2.8167	-3.1875	-2.8354	-2.9062	-2.9646	-2.7333	170.792	250.351	275.560	-38.793	4.738	-43.896	226.583	217.408	210.768	296.454	-43.108	25.400	-14.678	286.487	198.764	194.298	8.5427e-05	0.00032718	0.0048199	789.64	2.6126e-06	4.7214e-06	1015.5	234.04	1.6033e-06	5.3982e-06	348.93	115.2	63.184	14.714	3.5986e-06	34.527	0.00046594	0.00054811	0.0043806	746.61	6.2465e-06	6.7792e-06	961.52	242.39	6.2495e-06	6.2469e-06	330.1	111.06	61.087	18.871	5.6306e-06	32.958	186.610	31.917	214.531	-43.082	144.755	123.861	-42.895	-38.991	102.949	102.235	-39.344	-34.629	-34.118	-26.534	157.297	-29.812	-8191	255	
26665.818	1	1	0	0	0.17685	0.10483	0.13536	0.16981	0.062481	0.27532	0.12338	0.10974	0.2496	0.097173	0.22994	0.13487	0.24651	0.070608	0.077381	0.055846	-2.5729	-2.9062	-2.8208	-2.9583	-2.6792	-2.8208	-3.0583	-2.6604	-2.8917	-2.8104	-2.75	-3.1	-2.8	-2.7229	-2.9375	-2.9729	-50.015	60.766	77.432	-50.078	0.600	264.053	154.240	106.710	19.617	164.604	280.269	-50.778	191.710	203.290	178.322	57.523	6.257e-05	0.00072263	0.0026939	785.38	5.9288e-06	4.4307e-06	1018.5	239.37	2.7069e-06	4.4247e-06	349.65	116.23	61.178	15.098	3.0757e-06	34.339	0.00046483	0.00055269	0.0025869	750.42	5.8596e-06	8.2522e-06	963.49	260.99	6.6779e-06	6.0094e-06	330.78	111.68	58.853	18.013	5.9716e-06	32.883	180.533	33.148	219.577	-43.251	100.792	182.477	-42.735	-39.456	104.179	94.217	-39.100	-34.396	-34.563	-27.898	70.827	-29.839	-8191	255	
26665.939	1	1	0	0	0.14136	0.12537	0.19088	0.11408	0.26176	0.2596	0.10057	0.12344	0.20679	0.072978	0.22838	0.22026	0.16355	0.048198	0.2589	0.41915	-2.3708	-2.7792	-2.8208	-3.0875	-2.8	-2.8917	-2.9792	-2.7271	-3.0604	-2.9167	-2.8208	-3.0271	-2.6583	-2.7313	-3.2229	-2.7583	121.124	254.882	1.569	272.473	-14.329	224.216	270.849	261.752	184.120	277.901	187.725	275.968	270.749	244.578	-17.577	271.344	8.3729e-05	0.00052549	0.0050532	793.05	1.9455e-06	4.4295e-06	1012.7	233.99	1.7832e-05	2.9581e-06	345.2	114.55	60.549	14.921	1.7781e-06	33.933	0.00047272	0.00054397	0.0043943	749.45	5.9706e-06	6.9076e-06	956.76	234.96	1.9235e-05	6.0739e-06	328.25	110.16	58.192	20.388	5.8457e-06	32.561	184.644	66.674	222.614	-43.437	122.595	120.488	-42.936	-38.992	150.674	62.301	-39.436	-34.653	-34.519	-26.063	60.079	-29.830	-8191	255	
26666.033	1	1	0	0	0.075173	0.19343	0.2575	0.15787	0.083063	0.049086	0.053684	0.13013	0.25687	0.084059	0.17958	0.23903	0.13551	0.15333	0.13131	0.23068	-2.4146	-2.8312	-2.5812	-2.9583	-2.7729	-2.7562	-3.1354	-2.7167	-2.7479	-2.9583	-2.7687	-3.0083	-2.7354	-2.5917	-3.0146	-2.6625	-33.440	128.000	267.362	252.208	156.912	122.891	48.431	122.777	96.845	117.105	190.802	253.683	183.783	260.040	120.057	15.660	7.9383e-05	0.00037576	0.0029972	790.8	1.3573e-06	3.181e-06	1015	237.23	3.6109e-05	3.5548e-06	348.18	114.98	61.031	14.91	1.0297e-06	33.956	0.00048697	0.00054113	0.0026014	748.18	5.8664e-06	7.8983e-06	958.4	222.27	0.00012698	5.8438e-06	328.74	110.49	58.546	17.85	5.7912e-06	32.549	174.886	73.949	234.848	-43.091	104.506	118.916	-42.730	-39.636	164.486	64.979	-39.212	-34.281	-34.537	-28.331	92.763	-29.663	-8191	255	
26666.131	1	1	0	0	0.18476	0.11845	0.15378	0.18993	0.09904	0.038486	0.2992	0.029103	0.1066	0.20472	0.25506	0.36529	0.34486	0.085373	0.12728	0.11395	-2.3771	-2.9958	-2.6896	-3.0271	-2.7417	-2.6375	-3.1333	-2.6708	-2.7313	-2.8979	-2.7208	-3.0083	-2.9833	-2.6771	-2.95	-2.8229	210.997	7.076	39.001	-49.653	79.668	59.673	56.370	233.786	233.728	49.406	-37.527	274.237	229.998	124.817	159.400	38.959	8.5652e-05	0.00030824	0.0051264	788.93	2.5368e-06	3.2538e-06	1014	229.7	7.9127e-05	5.0015e-06	347.3	116.09	60.856	14.954	3.8587e-06	34.468	0.00055604	0.00054544	0.004433	749.16	5.9272e-06	6.5864e-06	959	219.51	9.7e-05	6.0903e-06	329.66	111.25	58.701	20.645	6.186e-06	32.948	173.599	-23.080	233.460	-43.492	86.865	143.506	-43.084	-38.802	72.648	81.756	-39.298	-34.679	-34.568	-26.108	100.740	-29.833	-8191	255	
26666.227	1	1	0	0	0.036163	0.071144	0.08762	0.24974	0.032803	0.13642	0.086526	0.12458	0.40546	0.14548	0.1296	0.3342	0.12063	0.092589	0.16704	0.23663	-2.3792	-2.8417	-2.7125	-2.9229	-2.9542	-2.9208	-3.0375	-2.9604	-2.7667	-3.0396	-2.8021	-2.9646	-2.9396	-2.875	-2.9708	-3	73.128	228.094	163.348	277.084	262.188	-46.486	248.884	163.205	-18.144	60.501	161.088	-31.942	243.977	171.059	-46.850	76.861	4.8193e-05	0.0002099	0.0019373	771.93	4.0967e-06	4.1997e-06	1017.8	232.04	0.00014004	3.8272e-06	351.7	116.31	61.796	15.198	2.6505e-06	34.682	0.00049871	0.00055211	0.0017676	786.62	6.1138e-06	7.457e-06	962.54	220.71	0.00016569	6.0531e-06	332.42	111.8	59.122	18.161	6.3148e-06	33.187	176.833	25.350	288.371	-43.910	108.387	127.259	-42.847	-38.865	73.405	59.910	-39.231	-34.821	-34.502	-27.878	162.818	-29.645	-8191	255	
26666.346	1	1	0	0	0.25619	0.14808	0.10604	0.10027	0.072712	0.12522	0.080677	0.11501	0.29675	0.26194	0.34241	0.10967	0.18565	0.32724	0.020966	0.1418	-2.5104	-2.9708	-2.5687	-2.9417	-2.6937	-2.5771	-2.9625	-2.8917	-2.7	-2.9354	-2.65	-2.9417	-3.0771	-2.5021	-3.0583	-2.8438	137.962	146.485	58.680	5.689	115.299	170.827	288.867	200.424	243.273	225.910	138.489	225.266	261.427	-19.406	296.257	-50.636	5.3793e-05	0.00047623	0.0039684	754.32	6.478e-07	3.4732e-06	1022.7	232.09	8.0674e-05	3.896e-06	345.58	114.86	60.667	14.617	3.1581e-06	33.794	0.00056437	0.00055201	0.00030824	1018.2	5.8371e-06	6.6693e-06	961.63	220.18	9.6328e-05	6.2393e-06	328.01	110.69	58.35	20.326	6.4745e-06	32.409	130.113	53.748	288.811	-43.735	-17.387	177.498	-42.974	-38.870	87.427	76.681	-39.231	-34.956	-34.592	-26.742	145.036	-29.475	-8191	255	
26666.418	1	1	0	0	0.075153	0.21935	0.082226	0.17974	0.10878	0.13644	0.20444	0.37865	0.12944	0.2684	0.34512	0.14593	0.15978	0.14575	0.28229	0.24851	-2.0938	-2.9188	-2.8646	-2.7271	-2.9875	-2.7521	-3.1083	-2.8771	-2.5479	-3.0458	-2.7042	-2.9	-3.0021	-2.7125	-2.9396	-3.0896	179.225	178.886	212.197	-16.076	193.268	68.233	302.207	-42.928	90.325	293.650	261.270	292.567	49.610	83.052	53.444	283.077	5.6748e-05	0.0004794	4.4517e-05	776.31	2.2533e-06	3.6996e-06	1008.4	231.49	0.0001389	3.62e-06	345.56	114.86	60.641	14.989	0.00010612	33.932	0.0004855	0.00056134	0.00015873	934.63	5.9837e-06	7.5475e-06	954.96	219.14	0.00016473	6.1638e-06	328.82	110.67	58.47	16.517	2.7798e-05	32.627	205.471	22.984	44.782	-45.542	101.620	100.578	-42.928	-39.045	85.021	11.119	-38.944	-34.429	-34.502	-30.196	218.940	-30.248	-8191	255	
26666.514	1	1	0	0	0.039617	0.25024	0.1714	0.30361	0.095893	0.12708	0.17281	0.14272	0.097064	0.32247	0.31883	0.074262	0.22145	0.1338	0.28024	0.23045	-2.3125	-2.9	-2.8375	-2.5375	-2.9396	-2.625	-3.0875	-3.0312	-2.5125	-2.9458	-2.8792	-2.6625	-2.9437	-2.6792	-2.8104	-2.9625	40.293	176.374	103.636	167.911	79.624	12.102	-55.568	205.319	112.016	132.525	271.622	223.384	147.608	191.964	204.489	-38.575	7.217e-05	0.00053478	9.7777e-05	780.87	1.7011e-06	5.0034e-06	1010.9	229.98	7.8606e-05	5.2404e-06	347.88	115.44	61.377	15.114	0.00018555	34.332	0.00052831	0.000604	0.00015219	1076.2	6.0116e-06	6.0725e-06	958.05	219.6	9.6306e-05	6.5255e-06	329.42	111.29	58.808	14.455	0.00014566	32.901	214.642	32.014	65.068	-46.467	156.096	109.767	-42.781	-39.069	87.342	143.460	-39.133	-34.597	-34.505	-30.537	226.374	-29.575	-8191	255	
26666.609	1	1	0	0	0.23412	0.093686	0.12564	0.074694	0.063448	0.15984	0.23407	0.088886	0.19686	0.18569	0.14508	0.051721	0.1824	0.14852	0.25644	0.29532	-2.1875	-2.9604	-2.8646	-2.6479	-3.0167	-2.7167	-2.8146	-3.2417	-2.6937	-2.9604	-2.8708	-2.775	-2.9458	-2.8042	-2.7562	-3.0042	77.443	-33.379	-51.410	192.265	2.282	258.423	206.786	290.752	277.726	-17.046	263.847	235.997	-47.373	291.102	290.782	-51.207	6.7966e-05	0.000462	0.00011473	781.49	6.855e-06	5.4643e-06	1014.7	230.95	0.00013742	6.3109e-06	346.96	116.28	61.175	15.173	0.00010095	34.941	0.0004677	0.00058763	0.00015349	936.21	6.0778e-06	6.0595e-06	961.73	219.88	0.0001664	6.8217e-06	330.64	111.82	58.85	14.614	9.996e-05	33.405	194.227	55.053	35.652	-45.629	119.293	31.900	-42.812	-39.204	98.957	128.432	-39.137	-34.833	-34.656	-30.429	222.089	-29.659	-8191	255	
26666.730	1	1	0	0	0.14214	0.11493	0.11689	0.24675	0.19118	0.13445	0.10643	0.42243	0.022405	0.13055	0.27639	0.17738	0.17948	0.2574	0.11429	0.17198	-2.2313	-3	-2.9104	-2.4938	-2.7896	-2.6542	-2.7958	-3.0542	-2.7667	-2.7542	-2.9521	-2.6417	-2.8375	-2.8417	-2.7417	-2.9896	259.117	152.878	264.036	-27.225	27.921	62.640	263.122	270.652	-28.940	126.210	302.314	196.384	231.358	18.080	88.138	-21.551	8.1994e-05	0.00041149	0.00011238	789.4	2.6786e-06	3.6407e-06	1017.8	232.72	8.1772e-05	6.847e-05	349.29	115.79	61.589	15.142	0.00018389	34.434	0.00053262	0.00063016	0.00015706	1081.2	6.4327e-06	6.1688e-06	963.28	221.47	5.7891e-05	3.3797e-05	331.19	111.79	59.134	14.527	0.00016889	32.864	168.507	33.482	50.092	-46.853	156.223	73.570	-43.004	-38.695	67.466	162.465	-39.246	-34.219	-34.682	-30.260	228.478	-29.913	-8191	255	
26666.826	1	1	0	0	0.14837	0.18451	0.2549	0.10143	0.19275	0.12785	0.06302	0.11457	0.19354	0.16198	0.09151	0.073738	0.21995	0.018403	0.15957	0.2331	-2.1063	-2.7021	-2.8917	-2.7125	-2.9125	-2.8563	-2.9896	-2.9854	-2.5333	-2.8937	-3.0292	-2.7979	-3.0292	-2.8833	-2.575	-2.9271	94.419	293.761	52.819	129.514	273.137	287.795	186.981	240.726	139.565	194.816	275.425	-53.794	52.799	302.905	142.902	270.985	7.5771e-05	0.00044914	5.3271e-05	775.31	1.584e-06	4.0172e-06	1004.8	232.01	2.1945e-06	0.00013215	346.12	115.88	61.318	14.874	0.0001063	34.159	0.00046877	0.00062796	0.00015724	929.93	6.3735e-06	6.2913e-06	953.72	219.62	5.9421e-06	0.00015844	328.42	110.84	58.76	14.322	9.8283e-05	32.736	191.546	14.805	54.357	-45.533	75.586	127.121	-42.756	-38.788	65.576	154.399	-39.477	-34.404	-34.147	-30.588	231.504	-29.536	-8191	255	
26666.922	1	1	0	0	0.26704	0.23087	0.15609	0.10104	0.24072	0.12109	0.20443	0.14894	0.19924	0.23128	0.34697	0.17073	0.17739	0.13997	0.11843	0.15956	-2.2271	-2.7062	-2.8354	-2.7208	-2.8208	-2.8042	-2.7521	-2.9042	-2.7521	-2.8604	-3.2125	-2.8208	-2.8583	-3.05	-2.6583	-3.0729	289.231	34.387	268.254	302.539	224.374	-6.570	174.202	269.806	132.362	38.999	255.972	268.699	-50.153	223.484	235.867	188.530	0.00010619	0.00082056	0.00011116	791.66	3.8252e-06	4.2462e-06	1014.8	231.04	1.2024e-06	0.00011304	345.67	115.72	60.816	15.027	0.00019526	34.477	0.00043651	0.00072524	0.00015278	1074.8	6.4608e-06	6.1409e-06	957.66	219.46	5.9029e-06	0.00010447	329.22	111.3	58.777	14.442	0.00017044	32.958	205.635	64.515	81.802	-47.159	55.146	49.925	-42.801	-38.626	87.440	99.822	-39.021	-34.731	-34.308	-30.216	237.570	-29.370	-8191	255	
26667.020	1	1	0	0	0.1612	0.22732	0.030228	0.28267	0.078611	0.19628	0.23889	0.12084	0.068287	0.059913	0.11216	0.24702	0.29387	0.35423	0.23465	0.10509	-2.3104	-2.6375	-2.9583	-2.7	-2.9125	-2.9729	-2.7604	-2.8708	-2.8604	-2.5979	-3.0396	-2.5646	-2.7146	-2.9979	-2.6729	-3.0563	137.137	89.562	171.944	-5.779	0.818	170.268	243.708	295.951	-3.722	99.705	100.810	-17.838	20.232	-26.302	9.701	104.446	5.4293e-05	0.00053215	9.07e-05	808.71	3.1835e-05	5.9707e-06	1018.6	231.95	5.1046e-06	0.00020984	346.73	116.43	61.143	15.217	9.7339e-05	34.573	0.00044876	0.00062164	0.000152	846.69	3.7767e-05	6.2537e-06	963.22	220.29	5.9508e-06	0.00017885	330.11	111.6	59.004	14.568	0.00010153	33.084	190.602	39.482	14.891	-45.170	284.911	86.553	-42.949	-39.014	128.899	108.273	-39.195	-34.704	-34.418	-30.179	247.939	-29.941	-8191	255	
26667.113	1	1	0	0	0.14563	0.10629	0.21114	0.017108	0.2156	0.12874	0.17952	0.10072	0.2048	0.10276	0.11381	0.2356	0.0121	0.21165	0.10156	0.061424	-2.5833	-2.5167	-2.825	-2.7313	-2.8521	-2.9729	-2.9104	-3.1208	-2.8958	-2.5958	-3.2396	-2.7875	-2.9833	-2.9333	-2.6646	-2.9292	137.434	238.029	264.191	105.053	48.453	-39.675	200.568	-24.026	222.359	47.947	-16.906	283.342	127.283	248.782	28.345	155.235	6.4463e-05	0.00037912	3.1668e-05	796.39	4.2557e-05	4.6599e-06	1019.6	233.4	2.0975e-06	0.00010737	348.57	116.93	61.838	15.273	0.00018008	34.818	0.00045709	0.00071095	0.00016194	753.96	0.00016705	6.2402e-06	965.24	221.21	6.1983e-06	0.00010681	331.48	112.02	59.501	14.595	0.00017417	33.268	199.977	-0.691	117.791	-43.374	261.404	69.396	-42.508	-38.804	142.770	108.753	-39.316	-34.571	-34.292	-30.090	248.351	-29.939	-8191	255	
26667.211	1	1	0	0	0.20541	0.244	0.1918	0.028466	0.021097	0.043151	0.067749	0.054583	0.18123	0.24029	0.20527	0.061383	0.2539	0.06836	0.26331	0.22159	-2.5042	-2.6833	-2.9875	-2.9604	-2.7062	-3.0375	-2.9292	-2.8937	-3.0187	-2.8146	-3.1063	-2.9146	-2.6958	-2.9167	-2.6562	-2.7875	296.163	24.731	185.784	58.282	235.221	16.679	287.789	72.867	300.894	107.168	-52.072	123.595	-55.026	200.448	298.843	278.626	7.3488e-05	0.00047397	0.00015409	785.84	9.5368e-05	5.3556e-06	1011.7	231.36	1.2832e-06	0.00021362	346.23	115.05	60.696	14.869	1.7688e-05	32.917	0.00045118	0.00064056	0.00016187	748.84	0.00010236	6.072e-06	959.89	219.57	6.069e-06	0.00017788	327.12	110.68	58.58	14.266	5.1526e-05	34.289	194.197	17.986	30.842	-43.308	6.736	85.628	-42.666	-38.534	152.180	115.329	-39.079	-34.234	-34.409	-29.937	-24.569	-30.019	-8191	255	
26667.330	1	1	0	0	0.29754	0.26361	0.099183	0.2259	0.058998	0.26324	0.25425	0.09679	0.20262	0.12011	0.21015	0.15652	0.15236	0.16305	0.065915	0.12562	-2.5771	-2.5125	-2.8125	-2.9104	-2.7979	-3.0667	-2.8708	-2.85	-3.0229	-2.6937	-2.9896	-2.9625	-2.6646	-3.0062	-2.8812	-2.8521	37.920	215.115	186.786	-39.885	99.578	127.886	-54.239	208.818	47.583	67.072	39.197	282.724	298.232	294.725	112.295	-52.895	8.0817e-05	0.00056946	0.00011505	792.49	0.00015762	4.591e-06	1013.9	230.89	2.1719e-06	0.00011508	346.48	114.9	60.7	14.969	3.8876e-06	32.677	0.00044122	0.00068558	0.00017034	748.41	0.0001743	6.3762e-06	957.16	218.81	5.8208e-06	0.00010444	328.32	110.72	58.697	14.346	6.0103e-06	41.372	178.902	91.742	20.661	-43.618	8.594	122.195	-42.979	-39.046	114.867	123.839	-39.426	-34.524	-34.498	-30.020	92.655	-29.725	-8191	255	
26667.428	1	1	0	0	0.15214	0.092945	0.2437	0.17004	0.1294	0.2039	0.31418	0.32161	0.089229	0.05138	0.12721	0.27537	0.072447	0.24479	0.19507	0.35103	-2.5625	-2.5354	-2.7771	-2.9958	-2.6375	-2.9417	-2.8271	-2.7062	-2.9292	-2.7229	-2.8896	-2.9562	-2.7396	-2.9	-2.6229	-2.7646	302.518	222.352	182.081	163.672	85.379	279.622	244.010	264.888	60.874	-23.609	238.735	217.154	13.075	257.246	274.426	-26.160	8.9083e-05	0.00043242	0.0002064	793.48	9.8446e-05	3.881e-06	1015.7	230.3	3.7126e-06	0.00017949	346.45	115.33	61.144	15	1.886e-06	33.579	0.00044662	0.00062919	0.00016478	752.34	0.00010279	6.4391e-06	959.57	220.02	6.1e-06	0.00017774	329.27	111.17	58.892	14.408	5.9385e-06	38.008	189.926	27.101	45.464	-43.076	17.560	79.137	-43.057	-39.089	104.730	124.366	-39.301	-34.626	-34.910	-30.115	84.709	-30.357	-8191	255	
26667.523	1	1	0	0	0.12938	0.22312	0.022396	0.0595	0.17369	0.20482	0.2253	0.18455	0.18454	0.20229	0.19663	0.14639	0.23334	0.079435	0.069791	0.17856	-2.6104	-2.675	-2.8104	-2.8208	-2.8312	-2.9458	-2.9875	-2.8063	-3.0396	-2.5812	-3	-3.0458	-2.5687	-3.0354	-2.9354	-2.9062	53.309	201.188	65.091	-12.295	214.217	168.549	-49.649	8.722	244.202	207.697	281.009	4.231	223.482	194.883	-29.918	9.992	9.6539e-05	0.00052161	0.00016885	792.6	0.00017014	3.7251e-06	1016.9	230.77	2.757e-06	9.9669e-05	344.4	115.91	61.45	15.246	4.0212e-06	33.412	0.00045548	0.00065662	0.00017267	753.42	0.00017432	6.6519e-06	962	220.12	6.3188e-06	4.9169e-05	344.45	111.69	59.347	14.579	6.2388e-06	42.088	188.066	30.046	79.620	-42.857	20.153	65.770	-42.819	-38.715	60.862	74.369	-38.327	-34.541	-34.504	-29.906	129.027	-30.912	-8191	255	
26667.619	1	1	0	0	0.32315	0.20857	0.11821	0.12554	0.18365	0.13322	0.12158	0.094096	0.19889	0.33667	0.077651	0.16797	0.15678	0.063629	0.25205	0.18303	-2.5708	-2.7812	-2.7521	-2.9354	-2.6542	-2.8854	-3.1458	-2.6917	-2.9813	-2.6542	-2.9	-3.0146	-2.7521	-2.9333	-2.9125	-2.7354	13.066	42.092	-25.552	115.110	161.941	160.520	175.364	197.528	87.131	221.926	19.555	285.892	241.711	237.625	142.898	223.472	7.7521e-05	0.00052633	9.6003e-05	797.51	8.8277e-05	4.6733e-06	1015.3	231.82	9.5211e-07	3.0103e-06	348.97	115.52	60.797	14.898	3.8381e-06	33.533	0.00047436	0.00058538	0.00017963	753.82	0.00010323	6.6797e-06	960.57	220.28	6.3515e-06	6.3282e-06	390.68	110.87	58.567	14.343	5.982e-06	37.63	193.707	33.057	56.132	-43.322	21.000	97.212	-42.970	-38.870	202.374	70.964	-37.527	-34.531	-34.757	-30.043	73.048	-30.230	-8191	255	
26667.715	1	1	0	0	0.041336	0.10468	0.059838	0.24436	0.27123	0.19472	0.18107	0.20239	0.20189	0.032666	0.059904	0.06334	0.10608	0.17575	0.24076	0.27024	-2.4542	-2.7396	-2.6833	-3.0521	-2.6688	-2.8333	-3.0646	-2.6604	-2.9396	-2.8958	-2.7396	-3.0667	-2.7188	-2.7667	-2.8937	-2.6375	207.888	92.303	-35.931	246.525	-53.520	176.225	299.780	244.945	-16.457	101.131	82.507	-27.992	283.381	16.134	265.558	186.520	8.7457e-05	0.00035726	0.00014583	789.74	0.0001561	2.0518e-06	1005.9	228.75	2.2715e-06	5.3289e-06	346.16	113.96	60.825	15.037	3.6926e-06	32.883	0.00045905	0.00058082	0.00020958	744.53	0.00017023	6.9551e-06	951.03	217.64	6.0662e-06	6.4169e-06	361.44	110.18	58.537	14.334	5.9932e-06	41.275	197.054	88.248	18.904	-43.349	39.034	-26.067	-42.857	-38.929	80.507	86.896	-38.422	-34.613	-34.972	-30.519	132.091	-31.187	-8191	255	
26667.811	1	1	0	0	0.14216	0.11022	0.13508	0.38103	0.24821	0.1765	0.2292	0.26447	0.12579	0.15138	0.26578	0.35898	0.13602	0.087001	0.14278	0.31601	-2.3937	-2.7458	-2.5396	-3.0458	-2.7375	-2.7979	-3.0854	-2.7917	-3.1625	-2.9417	-2.5604	-3.1854	-2.9042	-2.8167	-2.9375	-2.7083	222.761	-40.241	61.867	43.909	-32.588	199.956	251.755	-39.592	-13.927	-2.205	-51.693	2.487	16.237	-19.924	-9.489	236.523	0.0001301	0.00046067	0.00012043	782.78	0.00010039	1.4531e-05	1005	229.12	2.3934e-06	2.3502e-06	346.19	114.91	60.264	14.955	2.8058e-06	33.359	0.00050043	0.00055296	0.00017386	744.92	4.2832e-05	5.0719e-05	951.1	217.97	6.7987e-06	6.316e-06	389.32	110.43	58.241	14.361	6.2439e-06	37.604	191.459	78.055	12.561	-43.337	37.434	184.621	-42.830	-38.711	128.418	237.325	-37.798	-34.754	-34.773	-30.439	120.592	-31.160	-8191	255	
26667.906	1	1	0	0	0.12263	0.10902	0.043074	0.12594	0.27539	0.11021	0.092229	0.20856	0.069608	0.15822	0.23877	0.17108	0.18594	0.037464	0.31776	0.12416	-2.4792	-2.7313	-2.4021	-2.9521	-2.6188	-2.8292	-3.2729	-2.8604	-2.8417	-3.0833	-2.5521	-2.8583	-2.9458	-2.8479	-3.0646	-2.6479	201.748	267.697	150.436	39.475	121.519	206.266	-32.208	273.506	214.627	238.929	233.597	272.517	114.969	134.214	172.585	217.283	0.00010317	0.00045646	7.2693e-05	788.85	2.9318e-06	0.00019411	1004.4	229.12	8.5319e-07	1.597e-06	344.11	114.57	60.585	14.904	3.7477e-06	34.027	0.00048349	0.00058902	0.00020647	745.9	6.2521e-06	0.00017727	949.96	217.76	6.4803e-06	6.5519e-06	361.8	109.98	58.3	14.341	6.2168e-06	40.703	201.563	63.508	81.008	-43.018	82.139	32.733	-43.038	-39.036	9.164	244.223	-38.261	-34.481	-34.523	-30.189	121.129	-31.318	-8191	255	
26668.002	1	1	0	0	0.19995	0.16488	0.16661	0.075259	0.209	0.16572	0.14754	0.12258	0.1277	0.19367	0.24423	0.18467	0.2687	0.23398	0.12371	0.043333	-2.4958	-2.8208	-2.625	-2.9479	-2.9583	-2.8	-2.9458	-2.775	-2.7708	-3.0167	-2.7625	-3.0354	-2.7896	-2.6375	-3.0021	-2.5312	229.993	41.703	19.721	39.359	97.799	165.029	-47.819	249.451	28.799	138.137	286.814	272.879	226.689	-46.129	-6.227	71.922	0.00010207	0.00053552	9.6582e-05	788.55	5.9621e-06	0.00012612	1012	227.24	3.1081e-06	5.6447e-06	342.47	114.2	60.404	14.759	5.2126e-06	33.705	0.00049515	0.00059767	0.00018096	745.62	6.1672e-06	0.0001047	956.17	217.42	7.0355e-06	6.4969e-06	386.98	110.01	58.194	14.235	6.2544e-06	33.8	182.823	50.540	94.983	-43.290	64.107	37.554	-43.217	-38.824	256.859	100.631	-37.404	-34.458	-34.663	-30.779	108.165	-30.442	-8191	255	
26668.121	1	1	0	0	0.26652	0.19378	0.14998	0.21807	0.22267	0.10639	0.2618	0.27095	0.36313	0.17685	0.16581	0.20164	0.21444	0.29293	0.20685	0.049884	-2.2333	-2.6354	-2.5458	-2.7521	-2.7292	-2.5438	-2.95	-2.875	-2.7292	-3.0854	-2.6958	-2.8917	-2.8792	-2.6312	-3.1042	-2.8021	183.381	123.651	134.973	289.784	260.725	181.876	234.401	259.561	94.434	259.052	266.710	197.884	-40.990	18.369	126.535	-30.511	0.00098999	0.00016381	6.1185e-05	778.39	3.4166e-06	0.00020987	1001.3	224.96	2.1912e-06	1.3774e-06	337.41	112.32	59.074	14.417	5.2303e-06	32.805	0.0034638	0.00058823	0.00019713	742.12	6.3124e-06	0.00017447	944.45	214.32	6.7331e-06	6.4449e-06	355.69	108.01	57.178	13.972	6.3528e-06	31.479	228.435	-20.324	165.347	-43.507	93.758	45.386	-43.017	-38.899	146.719	65.481	-38.507	-34.293	-34.666	-30.165	129.612	-29.693	-8191	255	
26668.219	1	1	0	0	0.15238	0.32991	0.19039	0.19508	0.16171	0.059662	0.067452	0.23805	0.064205	0.046485	0.24342	0.22285	0.035193	0.32113	0.21966	0.19716	-2.2188	-2.8458	-2.7583	-2.8854	-2.9917	-2.7021	-3.15	-2.8563	-2.7562	-3.1188	-2.7625	-2.8521	-2.9292	-2.5625	-2.7729	-2.8021	57.658	225.899	115.439	-55.640	255.187	58.486	283.259	191.370	268.756	255.801	284.249	-22.000	82.314	-53.902	66.583	291.399	0.0018694	0.00019182	0.00011099	773.95	5.7102e-06	0.0001059	995.46	224.56	6.702e-07	3.8133e-06	342.35	111.92	58.878	14.306	3.134e-06	32.832	0.010841	0.0005899	0.00017641	735.38	6.3627e-06	0.00010166	940.24	213.46	7.8681e-06	6.4306e-06	375.21	107.72	56.792	13.809	6.4925e-06	31.486	275.780	90.471	65.575	-43.464	74.015	54.366	-42.725	-39.030	21.943	133.237	-38.651	-34.708	-35.044	-30.424	-13.820	-30.207	-8191	255	
26668.293	1	1	0	0	0.040979	0.25433	0.13932	0.065179	0.051629	0.22776	0.13306	0.18186	0.089417	0.25239	0.37019	0.037629	0.16419	0.12699	0.077538	0.17537	-2.3	-2.775	-2.575	-2.7708	-2.8958	-2.6104	-2.9313	-2.7479	-2.8063	-3.0792	-2.6229	-2.7938	-2.9542	-2.5292	-2.8896	-2.8854	123.454	248.812	33.155	210.070	96.863	149.447	228.592	130.940	14.808	111.798	257.238	105.202	249.105	89.083	201.133	269.619	0.0011503	0.00032302	0.00017416	775.07	1.9789e-06	0.0002121	998.25	224.24	1.0274e-06	1.5233e-06	341.58	111.52	59.169	14.511	4.4751e-06	33.263	0.0063162	0.0005994	0.00019027	735.53	6.3507e-06	0.00017334	941.58	213.46	6.7803e-06	6.4352e-06	332.13	114.39	56.992	13.963	6.8573e-06	31.77	269.226	66.969	29.330	-43.234	109.024	58.947	-42.970	-38.955	169.086	156.046	-38.977	-33.709	-34.663	-30.517	94.604	-30.041	-8191	255	
26668.410	1	1	0	0	0.11558	0.066592	0.26192	0.12205	0.087588	0.18564	0.1211	0.36069	0.24032	0.16527	0.20076	0.23304	0.25331	0.070848	0.21949	0.095735	-2.0729	-2.7792	-2.625	-2.875	-3.1354	-2.35	-2.9479	-2.9229	-2.6688	-2.8937	-2.8396	-2.6188	-3.025	-2.4521	-2.7521	-2.7354	122.775	286.951	51.011	235.633	148.230	228.635	253.254	284.153	92.360	-13.646	224.056	287.010	301.522	-46.664	184.365	195.034	0.0019377	9.2053e-05	7.9788e-05	767.68	3.8683e-06	0.00011778	997.4	223.71	9.2446e-07	5.4051e-06	339.45	111.19	59.515	14.512	4.7286e-06	33.109	0.010831	0.00058457	0.00016211	734.26	6.1183e-06	0.00010156	941.63	213.35	7.6331e-06	6.6092e-06	321.43	128.61	56.962	13.951	6.5587e-06	31.742	282.196	81.810	57.942	-42.785	107.550	58.568	-42.893	-38.828	-5.650	93.580	-39.040	-32.807	-34.357	-30.312	81.346	-29.547	-8191	255	
#DATA ENDS
