BOXY.EXE: ISS Imagent and Oximeter Data Acquisition Program Version 0.80
Ascii Record File

#ACQ INFORMATION
2  Detector Channels 
16  External MUX Channels 
1  Auxiliary Channels 
5000  Waveform (CCF) Frequency (Hz)
1  Waveforms Skipped 
30  Waveforms Averaged 
1  Cycles Averaged 
16  Acquisitions per Waveform 
10.0806  Updata Rate (Hz) 

#FILE INFORMATION
TRUE -- External MUX Channel results are PARSED.
FALSE -- AC DC and Phase are NOT grouped.
TRUE -- Companion Program Settings File CREATED.
FALSE -- AC data not excluded
FALSE -- DC data not excluded
FALSE -- Phase data not excluded
FALSE -- Auxillary Chn. data not excluded
Tab delimiters

#CALIBRATION STATE
TRUE -- Waveform Calibration Values APPLIED.


#AUX CALIBRATION VALUES
Val Type	aux-1	

Term	1.0000e+00	
Factor	0.0000e+00	


#WF CALIBRATION VALUES
A = Detector Channel
Val Type	A-AC1	A-AC2	A-AC3	A-AC4	A-AC5	A-AC6	A-AC7	A-AC8	A-AC9	A-AC10	A-AC11	A-AC12	A-AC13	A-AC14	A-AC15	A-AC16	A-DC1	A-DC2	A-DC3	A-DC4	A-DC5	A-DC6	A-DC7	A-DC8	A-DC9	A-DC10	A-DC11	A-DC12	A-DC13	A-DC14	A-DC15	A-DC16	A-Ph1	A-Ph2	A-Ph3	A-Ph4	A-Ph5	A-Ph6	A-Ph7	A-Ph8	A-Ph9	A-Ph10	A-Ph11	A-Ph12	A-Ph13	A-Ph14	A-Ph15	A-Ph16	

Term	0.00000e+00	0.00000e+00	0.00000e+00	0.00000e+00	0.00000e+00	0.00000e+00	0.00000e+00	0.00000e+00	0.00000e+00	0.00000e+00	0.00000e+00	0.00000e+00	0.00000e+00	0.00000e+00	0.00000e+00	0.00000e+00	0.00000e+00	0.00000e+00	0.00000e+00	0.00000e+00	0.00000e+00	0.00000e+00	0.00000e+00	0.00000e+00	0.00000e+00	0.00000e+00	0.00000e+00	0.00000e+00	0.00000e+00	0.00000e+00	0.00000e+00	0.00000e+00	0.00000e+00	0.00000e+00	0.00000e+00	0.00000e+00	0.00000e+00	0.00000e+00	0.00000e+00	0.00000e+00	0.00000e+00	0.00000e+00	0.00000e+00	0.00000e+00	0.00000e+00	0.00000e+00	0.00000e+00	0.00000e+00	
Factor	1.00000e+00	1.00000e+00	1.00000e+00	1.00000e+00	1.00000e+00	1.00000e+00	1.00000e+00	1.00000e+00	1.00000e+00	1.00000e+00	1.00000e+00	1.00000e+00	1.00000e+00	1.00000e+00	1.00000e+00	1.00000e+00	1.00000e+00	1.00000e+00	1.00000e+00	1.00000e+00	1.00000e+00	1.00000e+00	1.00000e+00	1.00000e+00	1.00000e+00	1.00000e+00	1.00000e+00	1.00000e+00	1.00000e+00	1.00000e+00	1.00000e+00	1.00000e+00	X	X	X	X	X	X	X	X	X	X	X	X	X	X	X	X	

B = Detector Channel
Val Type	B-AC1	B-AC2	B-AC3	B-AC4	B-AC5	B-AC6	B-AC7	B-AC8	B-AC9	B-AC10	B-AC11	B-AC12	B-AC13	B-AC14	B-AC15	B-AC16	B-DC1	B-DC2	B-DC3	B-DC4	B-DC5	B-DC6	B-DC7	B-DC8	B-DC9	B-DC10	B-DC11	B-DC12	B-DC13	B-DC14	B-DC15	B-DC16	B-Ph1	B-Ph2	B-Ph3	B-Ph4	B-Ph5	B-Ph6	B-Ph7	B-Ph8	B-Ph9	B-Ph10	B-Ph11	B-Ph12	B-Ph13	B-Ph14	B-Ph15	B-Ph16	

Term	0.00000e+00	0.00000e+00	0.00000e+00	0.00000e+00	0.00000e+00	0.00000e+00	0.00000e+00	0.00000e+00	0.00000e+00	0.00000e+00	0.00000e+00	0.00000e+00	0.00000e+00	0.00000e+00	0.00000e+00	0.00000e+00	0.00000e+00	0.00000e+00	0.00000e+00	0.00000e+00	0.00000e+00	0.00000e+00	0.00000e+00	0.00000e+00	0.00000e+00	0.00000e+00	0.00000e+00	0.00000e+00	0.00000e+00	0.00000e+00	0.00000e+00	0.00000e+00	-1.65095e+02	-1.36760e+02	-1.28228e+02	-1.79802e+02	-7.58801e+01	-8.06562e+01	-1.58085e+02	-1.62015e+02	-8.34201e+01	-6.02352e+01	-1.69977e+02	-1.71992e+02	-1.83057e+02	-1.76155e+02	-6.30896e+01	-1.48803e+02	
Factor	2.68855e-05	1.33963e-04	4.06587e-05	1.73064e-01	1.18092e-06	1.38058e-06	1.79830e-01	6.39379e-02	1.39152e-06	1.46583e-06	8.33553e-02	3.13931e-02	2.72019e-02	8.97484e-03	1.12261e-06	1.30680e-02	1.59552e-06	1.68252e-06	4.69401e-07	8.55044e-02	1.82819e-08	1.84544e-08	8.38191e-02	3.15264e-02	1.83315e-08	1.84551e-08	3.98753e-02	1.49757e-02	1.33735e-02	4.44832e-03	1.83795e-08	6.25309e-03	X	X	X	X	X	X	X	X	X	X	X	X	X	X	X	X	



#DISTANCE SETTINGS
A = Detector Channel
A-1	A-2	A-3	A-4	A-5	A-6	A-7	A-8	A-9	A-10	A-11	A-12	A-13	A-14	A-15	A-16	

2.5000e+00	3.0000e+00	2.5000e+00	3.0000e+00	2.0000e+00	3.0000e+00	1.5000e+00	3.0000e+00	3.0000e+00	3.0000e+00	3.0000e+00	3.0000e+00	3.0000e+00	3.0000e+00	1.5000e+00	3.0000e+00	

B = Detector Channel
B-1	B-2	B-3	B-4	B-5	B-6	B-7	B-8	B-9	B-10	B-11	B-12	B-13	B-14	B-15	B-16	

1.0000e+01	1.0000e+01	1.0000e+01	1.4400e+00	1.0000e+01	1.0000e+01	1.5100e+00	1.9400e+00	1.0000e+01	1.0000e+01	1.9900e+00	2.4900e+00	2.4100e+00	2.9000e+00	1.0000e+01	2.9800e+00	




#DATA BEGINS
time	group	step	mark	flag	A-AC1	A-AC2	A-AC3	A-AC4	A-AC5	A-AC6	A-AC7	A-AC8	A-AC9	A-AC10	A-AC11	A-AC12	A-AC13	A-AC14	A-AC15	A-AC16	A-DC1	A-DC2	A-DC3	A-DC4	A-DC5	A-DC6	A-DC7	A-DC8	A-DC9	A-DC10	A-DC11	A-DC12	A-DC13	A-DC14	A-DC15	A-DC16	A-Ph1	A-Ph2	A-Ph3	A-Ph4	A-Ph5	A-Ph6	A-Ph7	A-Ph8	A-Ph9	A-Ph10	A-Ph11	A-Ph12	A-Ph13	A-Ph14	A-Ph15	A-Ph16	B-AC1	B-AC2	B-AC3	B-AC4	B-AC5	B-AC6	B-AC7	B-AC8	B-AC9	B-AC10	B-AC11	B-AC12	B-AC13	B-AC14	B-AC15	B-AC16	B-DC1	B-DC2	B-DC3	B-DC4	B-DC5	B-DC6	B-DC7	B-DC8	B-DC9	B-DC10	B-DC11	B-DC12	B-DC13	B-DC14	B-DC15	B-DC16	B-Ph1	B-Ph2	B-Ph3	B-Ph4	B-Ph5	B-Ph6	B-Ph7	B-Ph8	B-Ph9	B-Ph10	B-Ph11	B-Ph12	B-Ph13	B-Ph14	B-Ph15	B-Ph16	aux-1	digaux	

2380.447	1	1	0	512	0.08662	0.10833	0.13126	0.15287	0.25715	0.070506	0.174	0.08083	0.21756	0.11878	0.10994	0.031066	0.18935	0.31242	0.10239	0.35549	-3.0021	-3.3625	-3.1542	-3.7958	-3.3521	-3.1396	-3.7229	-3.3354	-3.4021	-3.4271	-3.2417	-3.6729	-3.45	-3.3917	-3.7167	-3.4667	122.475	44.093	-19.521	135.305	196.848	-115.761	21.590	62.306	-73.656	159.262	-156.138	-12.244	-153.718	125.701	77.715	151.673	0.0016067	0.0004239	0.00014978	744.76	4.3585e-06	6.7785e-06	988.83	259.83	8.7253e-06	8.5121e-06	431.34	239.2	136.93	71.287	5.2192e-06	133.48	0.00012662	5.4931e-05	1.445e-05	681.58	6.4714e-07	6.0854e-07	906.22	237.34	6.6051e-07	5.7253e-07	393.64	217.38	124.79	65.399	5.8466e-07	121.84	162.445	-82.830	-72.372	-144.480	-25.822	-29.522	-144.801	-139.422	-36.926	-6.452	-140.540	-138.202	-137.031	-132.392	-10.710	-135.156	-8191	255	
2380.568	1	1	0	0	0.16507	0.10572	0.092235	0.18835	0.057533	0.076827	0.22885	0.18763	0.16562	0.1738	0.12651	0.31238	0.18313	0.20636	0.13721	0.36786	-2.9688	-3.6042	-3.1083	-3.6	-3.4021	-3.2313	-3.7583	-3.2812	-3.4333	-3.5771	-3.3271	-3.6958	-3.5208	-3.425	-3.7625	-3.5042	-61.098	-120.201	123.062	-84.862	-22.641	-157.411	92.668	196.405	-16.781	-71.246	188.305	138.313	176.743	173.869	119.195	154.892	0.0016535	0.0005892	0.00017441	740.17	5.0049e-06	6.3259e-06	989.89	264.04	6.3408e-06	7.8177e-06	436.45	240.2	137.99	71.559	4.4676e-06	133.22	0.00013051	5.1215e-05	1.3992e-05	679.28	6.3644e-07	5.6513e-07	907.36	240.66	6.3519e-07	5.3989e-07	397.12	219.07	125.58	65.626	5.6375e-07	121.69	163.737	-100.940	-69.068	-144.426	-9.623	-15.957	-145.052	-139.552	-40.296	-3.867	-140.988	-138.050	-136.844	-132.660	-12.703	-135.069	-8191	255	
2380.664	1	1	0	0	0.22753	0.098853	0.11637	0.14598	0.012247	0.31182	0.18498	0.2655	0.3396	0.098743	0.3724	0.015286	0.18204	0.11667	0.01554	0.1392	-2.8688	-3.425	-3.2938	-3.7771	-3.3833	-3.3292	-3.7771	-3.0896	-3.3042	-3.4917	-3.3146	-3.6229	-3.3187	-3.3812	-3.55	-3.5229	-31.301	-10.360	119.276	-136.402	61.057	15.824	-154.106	179.768	160.616	-92.628	158.181	178.060	133.735	139.422	194.340	137.828	0.001613	0.00063779	0.00025325	734.45	4.4493e-06	5.3643e-06	984.1	260.01	7.5392e-06	5.2183e-06	431.81	234.41	134.79	67.975	5.5168e-06	126.77	0.00012533	5.1156e-05	1.4044e-05	673.46	5.9797e-07	5.6232e-07	899.38	237.77	6.1949e-07	5.4146e-07	393.68	214.35	122.53	62.392	5.8167e-07	115.88	162.487	-75.970	-66.707	-144.334	-32.840	-7.588	-144.667	-139.485	-43.575	6.900	-140.920	-138.235	-137.014	-132.430	-28.229	-134.814	-8191	255	
2380.760	1	1	0	0	0.087091	0.11585	0.1787	0.16357	0.10953	0.023536	0.26487	0.17138	0.11879	0.28077	0.30736	0.1286	0.16695	0.11021	0.21481	0.36207	-2.9208	-3.5458	-3.2271	-3.5625	-3.3833	-3.3208	-3.5354	-3.4313	-3.2562	-3.65	-3.2229	-3.4479	-3.525	-3.3229	-3.4604	-3.6521	13.089	32.896	84.140	-149.452	150.711	-54.902	93.868	172.446	-11.031	69.628	76.718	155.016	168.335	16.335	103.790	172.585	0.0014954	0.00072795	0.00021543	724.36	4.3561e-06	5.3181e-06	970.51	262.48	6.4394e-06	5.1174e-06	436.8	233.36	134.73	66.266	3.4237e-06	124.49	0.00011884	4.8796e-05	1.4017e-05	662.66	6.0932e-07	5.3802e-07	890.3	239.86	6.0135e-07	5.3566e-07	396.61	212.84	122.56	60.712	6.2291e-07	113.61	164.168	-60.783	-83.857	-144.372	-24.018	-12.718	-144.993	-139.276	-55.240	-18.692	-141.006	-137.900	-136.848	-131.956	-7.051	-134.335	-8191	255	
2380.856	1	1	0	0	0.097213	0.14157	0.083329	0.25434	0.0050826	0.21097	0.056737	0.22402	0.20467	0.031287	0.14458	0.26006	0.076229	0.12564	0.19662	0.34149	-2.8937	-3.5563	-3.2542	-3.5062	-3.6813	-3.0542	-3.6562	-3.425	-3.1708	-3.5667	-3.4708	-3.6083	-3.5812	-3.3458	-3.5583	-3.6917	-60.579	-142.699	97.284	156.178	25.505	92.702	-96.710	95.558	72.095	-110.416	71.673	125.389	93.057	-46.496	-91.301	100.156	0.0014699	0.00070359	0.000143	717.91	4.6835e-06	5.3058e-06	975.59	270.59	7.5816e-06	5.8837e-06	449.49	231.48	136.11	65.694	5.3181e-06	124.23	0.00011793	4.764e-05	1.5391e-05	655.9	5.8807e-07	5.554e-07	894.18	245.94	6.1411e-07	5.3727e-07	408.46	211.48	123.73	60.294	7.1278e-07	113.56	162.023	-68.525	-87.838	-144.202	-39.698	-29.230	-144.814	-139.566	-27.080	4.498	-141.031	-137.889	-136.835	-131.810	-15.740	-134.212	-8191	255	
2380.975	1	1	0	0	0.34199	0.16155	0.08915	0.11322	0.13363	0.14194	0.064149	0.18665	0.087595	0.19238	0.079812	0.25649	0.14722	0.2015	0.1406	0.39425	-2.6667	-3.7042	-3.2542	-3.5458	-3.6479	-3.1437	-3.6354	-3.4667	-3.2458	-3.4917	-3.2604	-3.5083	-3.6063	-3.1708	-3.4188	-3.775	-118.881	-104.638	-54.603	165.755	-75.922	6.750	-146.147	51.958	13.104	67.368	144.380	70.402	-136.226	191.712	-35.323	164.711	0.0015494	0.00077519	0.00018183	710.23	5.2021e-06	4.6017e-06	991.27	289.2	5.2045e-06	7.7468e-06	483.22	240.52	146.01	69.928	3.1422e-06	131.68	0.00012399	5.2919e-05	1.7862e-05	651.84	6.5228e-07	6.2576e-07	913.51	264.06	6.8327e-07	6.6703e-07	438.93	219.82	132.96	64.422	8.2616e-07	120.61	162.396	-79.037	-60.569	-143.831	-35.765	-24.979	-144.629	-139.334	-25.986	-14.574	-140.641	-137.778	-136.900	-131.296	-14.113	-133.694	-8191	255	
2381.047	1	1	0	0	0.1224	0.16839	0.013348	0.1782	0.11476	0.21709	0.27251	0.10465	0.1135	0.35318	0.17718	0.17456	0.057258	0.1365	0.10237	0.47565	-2.5354	-3.5854	-3.4917	-3.3958	-3.675	-3.1562	-3.5542	-3.6625	-3.2125	-3.675	-3.6646	-3.4042	-3.7979	-3.4208	-3.3604	-3.8292	82.888	16.138	-90.314	-138.441	-102.902	-89.055	193.925	56.736	-129.959	-126.014	99.953	-123.198	33.357	199.222	-119.486	166.749	0.0014994	0.00078394	0.00012718	725.3	6.4088e-06	4.1755e-06	1024.8	309.07	6.7446e-06	5.6348e-06	507	255.96	158.75	72.955	4.5323e-06	134.82	0.00012984	6.4721e-05	2.0713e-05	662.51	7.0781e-07	7.704e-07	944.14	282.31	7.6378e-07	7.8715e-07	461.66	233.93	144.57	66.927	9.663e-07	123.24	164.111	-81.457	-62.509	-144.179	-14.452	-18.511	-144.594	-139.255	-51.894	4.336	-141.037	-137.848	-136.644	-131.203	-17.296	-133.717	-8191	255	
2381.143	1	1	0	0	0.077215	0.1138	0.26145	0.1172	0.23264	0.026226	0.21661	0.30759	0.14114	0.35788	0.04054	0.1208	0.26909	0.26772	0.15748	0.20658	-2.7417	-3.5604	-3.2417	-3.2854	-3.6604	-3.2354	-3.5042	-3.7521	-3.1479	-3.5167	-3.6521	-3.3708	-3.5208	-3.4938	-3.4125	-3.5625	83.578	34.236	-151.508	62.411	141.286	185.000	-153.240	97.053	-110.860	-91.660	117.888	144.332	181.521	181.977	-33.021	176.270	0.0016204	0.00069311	0.000229	762.17	6.7675e-06	8.3715e-06	1083	326.44	6.9882e-06	8.0723e-06	519.41	264.29	163.83	76.297	5.6477e-06	140.67	0.00014182	7.8836e-05	2.3383e-05	698.69	8.2166e-07	8.9712e-07	995.94	297.22	8.0987e-07	9.0587e-07	472.85	241.27	149.81	70.185	9.8989e-07	128.51	162.816	-88.720	-52.384	-143.990	-39.305	-29.094	-144.726	-139.743	-46.170	-2.491	-140.930	-137.670	-136.384	-130.991	2.724	-133.757	-8191	255	
2381.264	1	1	0	131072	0.20694	0.088141	0.13451	0.45275	0.16469	0.21417	0.15534	0.31769	0.23349	0.15875	0.12275	0.060513	0.122	0.20208	0.24424	0.30676	-2.7771	-3.45	-3.3125	-3.4646	-3.5	-3.3375	-3.4167	-3.5729	-3.1521	-3.4958	-3.5958	-3.3979	-3.6833	-3.5833	-3.3833	-3.6167	-85.328	-157.366	134.631	153.237	8.872	73.673	198.011	181.960	-120.505	-21.194	135.134	75.848	165.595	135.290	63.511	128.133	0.0016829	0.00080724	0.00022382	794.08	5.0362e-06	8.2959e-06	1107.8	331.63	5.3675e-06	6.772e-06	528.54	267.23	167.62	79.451	7.0869e-06	144.26	0.00014979	8.9822e-05	2.3672e-05	725.83	8.6058e-07	9.8774e-07	1020.9	303.78	9.0401e-07	9.4774e-07	481.68	244.61	152.92	72.862	9.3866e-07	132.78	161.477	-80.281	-61.327	-144.135	-25.066	-26.646	-144.585	-139.855	-40.383	-17.754	-140.622	-137.741	-136.474	-131.431	-22.281	-133.666	-8191	255	
2381.360	1	1	0	131072	0.16658	0.033617	0.19561	0.30858	0.0729	0.14091	0.15974	0.21678	0.28099	0.25825	0.22319	0.16012	0.02048	0.090285	0.18608	0.11369	-2.8042	-3.3771	-3.3708	-2.95	-3.4708	-3.1104	-3.1937	-3.65	-3.1042	-3.2958	-3.5333	-3.3271	-3.8271	-3.5333	-3.25	-3.8187	-155.676	-61.883	99.480	123.311	-7.796	70.893	186.792	97.489	58.692	-21.782	164.068	195.434	65.629	151.737	-136.073	134.825	0.0016621	0.00076146	0.00028265	803.12	5.2645e-06	6.5973e-06	1122.4	335.98	9.0391e-06	9.012e-06	534.25	270.16	167.73	80.394	3.8422e-06	144.73	0.00015309	8.7936e-05	2.2328e-05	735.29	8.8199e-07	9.1699e-07	1033.3	308.81	9.241e-07	9.2864e-07	486.63	246.55	153.18	73.728	8.9746e-07	134.3	163.424	-68.029	-89.941	-144.247	-28.924	-15.639	-144.391	-139.642	-45.620	3.215	-141.241	-137.934	-136.659	-131.113	-36.653	-133.931	-8191	255	
2381.456	1	1	0	131072	0.24211	0.075709	0.19538	0.083121	0.16849	0.22266	0.29697	0.14204	0.17925	0.12753	0.14877	0.10915	0.08783	0.064507	0.23744	0.19999	-2.5625	-3.3229	-3.25	-3.1667	-3.6521	-3.3396	-3.2521	-3.7521	-3.2	-3.4062	-3.5833	-3.2354	-3.6208	-3.6	-3.1437	-3.7042	143.177	-15.482	58.296	179.728	-91.987	-111.406	123.680	-154.170	-41.544	-34.386	200.940	182.577	61.255	-59.264	114.411	111.103	0.0017646	0.00075944	0.00027155	807.18	6.2619e-06	7.9505e-06	1139	343.2	7.7158e-06	6.8129e-06	540.36	273.86	171.37	81.88	6.0124e-06	145.62	0.00015816	8.5458e-05	2.1262e-05	740.25	9.0274e-07	9.2157e-07	1045.2	313.56	9.8536e-07	9.4774e-07	492.18	250.35	156.51	75.26	9.3843e-07	136.49	163.095	-88.845	-81.566	-144.080	2.442	-28.471	-144.651	-140.033	-49.374	10.583	-140.865	-137.658	-136.525	-131.183	-36.612	-133.879	-8191	255	
2381.552	1	1	0	131072	0.13071	0.28183	0.2281	0.30777	0.10704	0.15996	0.11428	0.36392	0.13333	0.16098	0.36387	0.11729	0.20644	0.13148	0.24416	0.32519	-2.7729	-3.2042	-3.4667	-3.1042	-3.2708	-3.3021	-3.2833	-3.5729	-3.3271	-3.2396	-3.6583	-3.3083	-3.5708	-3.6375	-3.1354	-3.6667	-91.887	-36.797	58.579	169.075	-116.484	127.272	24.922	-141.118	98.380	32.857	158.597	100.902	191.998	-112.793	-20.150	102.701	0.0017986	0.000808	0.00019315	831.98	6.5051e-06	8.7203e-06	1175.8	352.38	8.8752e-06	5.7674e-06	552.89	278.07	174.79	86.668	6.6886e-06	145.87	0.00016935	8.768e-05	2.1243e-05	760.95	1.053e-06	9.5144e-07	1075.7	322.69	1.1055e-06	1.0037e-06	504.47	254.3	159.04	79.34	1.0551e-06	140.52	164.306	-74.608	-54.818	-143.787	-40.958	-20.121	-144.776	-139.137	-50.948	0.169	-140.785	-137.358	-136.425	-130.939	-27.187	-133.661	-8191	255	
2381.648	1	1	0	131072	0.073685	0.2462	0.079538	0.29748	0.14968	0.12454	0.21665	0.14603	0.29932	0.14204	0.27717	0.43127	0.27923	0.36446	0.17706	0.32947	-2.7542	-3.1771	-3.4417	-3.2583	-3.2479	-3.5812	-3.2771	-3.5979	-3.2812	-3.1688	-3.775	-3.3937	-3.65	-3.4646	-3.05	-3.7708	197.968	-155.439	7.634	110.976	-98.643	-46.768	82.977	-32.438	184.415	29.249	159.964	187.772	-141.528	186.424	-71.097	111.105	0.0018882	0.00056525	0.00027529	874.64	7.6543e-06	1.0875e-05	1207.1	347.48	8.8856e-06	1.0608e-05	543.55	274.44	171.9	90.421	5.4012e-06	145.23	0.00019217	0.00010465	2.5956e-05	800.72	1.3184e-06	1.1926e-06	1110.6	317.36	1.4185e-06	1.3294e-06	495.61	251.57	157.13	83.135	1.3918e-06	141.47	161.725	-63.790	-76.049	-143.659	-17.837	-14.472	-144.133	-138.718	-30.430	1.199	-139.834	-136.964	-135.787	-131.005	-39.721	-133.445	-8191	255	
2381.744	1	1	0	131072	0.21666	0.34098	0.18603	0.129	0.17618	0.10238	0.26392	0.16878	0.25883	0.35711	0.24905	0.20084	0.1524	0.20915	0.08778	0.067781	-2.8292	-3.0333	-3.4917	-3.3312	-3.2146	-3.4688	-3.3042	-3.4313	-3.3208	-3.1063	-3.4354	-3.4375	-3.3479	-3.6479	-3.0208	-3.5687	135.448	27.110	-145.216	134.135	-130.495	169.980	185.478	-130.499	-12.581	108.678	171.330	-103.761	167.959	-155.801	128.910	105.357	0.0019723	0.00097962	0.00020357	893.57	9.6914e-06	7.9625e-06	1244.3	343.81	7.3476e-06	7.0296e-06	565.22	287.57	180.55	96.516	5.696e-06	142.97	0.00022246	0.00013674	3.4796e-05	823.88	1.5442e-06	1.3703e-06	1144.8	315.24	1.4874e-06	1.3473e-06	515.09	263.04	165.62	88.643	1.412e-06	146.08	162.497	-70.970	-69.486	-143.382	-18.843	-33.260	-144.107	-138.359	-47.647	8.985	-139.792	-136.884	-135.481	-131.141	-28.424	-133.412	-8191	255	
2381.839	1	1	0	131072	0.17752	0.15114	0.079162	0.12766	0.16901	0.20814	0.30321	0.24535	0.24701	0.17383	0.070258	0.28769	0.16276	0.10008	0.21203	0.20908	-2.9896	-3.0583	-3.5062	-3.3479	-3.3854	-3.5312	-3.1333	-3.4896	-3.3604	-3.025	-3.5167	-3.4542	-3.2021	-3.5958	-3.0167	-3.5396	140.627	-92.142	155.620	-115.259	106.294	-77.605	150.238	99.240	26.690	-90.402	149.386	149.993	-149.743	194.326	-154.679	152.211	0.0019992	0.00053949	0.0001452	910.74	7.7232e-06	8.291e-06	1241	350.15	1.023e-05	6.7582e-06	572.04	292.68	185.97	95.815	6.1423e-06	143.52	0.00021045	0.00012283	3.271e-05	833.84	1.4415e-06	1.294e-06	1141.7	321.62	1.3765e-06	1.2979e-06	521.37	268.48	170.44	88.395	1.3897e-06	145.45	161.786	-90.076	-58.967	-143.442	-36.930	-26.454	-144.014	-138.645	-26.447	-11.275	-139.661	-136.662	-135.667	-131.243	-26.188	-133.308	-8191	255	
2381.937	1	1	0	131072	0.18166	0.099187	0.065598	0.42685	0.020659	0.091256	0.28901	0.18678	0.11831	0.08778	0.074276	0.15451	0.25313	0.094579	0.12375	0.2025	-3.0438	-3.0104	-3.5187	-3.3021	-3.0333	-3.7458	-3.2146	-3.2687	-3.4583	-3.1125	-3.6229	-3.375	-3.2229	-3.4646	-2.9771	-3.5875	179.463	-35.030	183.288	134.337	-1.146	-130.836	146.231	143.538	-102.584	70.038	-126.779	132.294	160.642	120.890	197.385	130.076	0.0019919	0.00084773	0.00023145	900.6	7.7205e-06	7.7088e-06	1221.2	342.84	6.7877e-06	7.2538e-06	554.58	282.54	179.57	92.219	5.6531e-06	144.61	0.0002018	0.00011252	3.4085e-05	826.53	1.3704e-06	1.2001e-06	1128	315.2	1.3428e-06	1.2417e-06	506.91	259.27	164.04	84.877	1.4876e-06	142.99	163.478	-77.765	-57.502	-143.535	-20.003	-25.518	-143.866	-138.402	-45.826	-9.982	-139.899	-137.026	-135.465	-130.996	-15.840	-133.158	-8191	255	
2382.056	1	1	0	131072	0.11869	0.1572	0.13039	0.11265	0.19468	0.14573	0.094181	0.057582	0.041821	0.16327	0.25226	0.21797	0.50955	0.29365	0.16815	0.32301	-2.9917	-3.0062	-3.2667	-3.4542	-3.1437	-3.5292	-3.3583	-3.2104	-3.3812	-3.0854	-3.4771	-3.5375	-3.2083	-3.8292	-2.9729	-3.3625	197.335	-5.382	202.889	18.165	-134.513	-69.854	-119.002	67.727	72.092	-140.498	143.403	137.777	193.760	154.618	88.804	162.804	0.0019935	0.00068903	0.00021901	877.01	5.3894e-06	9.6137e-06	1200.6	325.77	9.5308e-06	9.5559e-06	528.29	266.41	167.34	86.805	8.3322e-06	146.1	0.00019816	0.00011724	3.8363e-05	808.53	1.4125e-06	1.3364e-06	1101.3	299.18	1.4249e-06	1.5314e-06	484.9	244.3	153.28	80.057	2.0324e-06	138.87	163.739	-111.057	-66.500	-143.541	4.622	-54.591	-143.779	-138.556	-32.666	-22.911	-139.692	-136.460	-135.238	-130.725	-27.214	-133.225	-8191	255	
2382.152	1	1	0	131072	0.070527	0.088775	0.2296	0.11923	0.096411	0.24049	0.18129	0.24324	0.1477	0.28813	0.090457	0.34853	0.19696	0.17608	0.14793	0.27514	-3.2542	-2.9354	-3.5979	-3.3354	-3.1688	-3.5667	-3.2396	-3.2604	-3.6625	-3.0625	-3.4979	-3.6479	-3.1479	-3.6604	-3.2854	-3.2875	170.608	157.617	-53.993	158.352	-70.186	-109.270	85.244	-152.178	-59.295	-20.602	122.426	184.825	-87.207	172.587	63.793	111.374	0.001852	0.00074546	0.00024333	873.21	5.6867e-06	4.2436e-06	1195.5	324.97	6.8976e-06	8.854e-06	522.32	262.99	163.92	84.432	8.2693e-06	144.89	0.0002249	0.00016458	5.1015e-05	807.58	1.6638e-06	1.7687e-06	1105.8	298.29	1.7122e-06	1.9512e-06	479.45	241.04	150.48	78.012	2.3054e-06	135.75	163.238	-73.502	-60.158	-143.332	-6.667	-51.945	-144.056	-138.478	-33.100	8.093	-139.709	-136.529	-135.200	-130.461	-10.659	-132.968	-8191	255	
2382.248	1	1	0	131072	0.15233	0.13271	0.1934	0.053209	0.16705	0.095171	0.29264	0.052354	0.15735	0.29031	0.075126	0.27745	0.15866	0.061043	0.30804	0.21857	-3.1688	-2.9875	-3.4083	-3.3688	-3.1208	-3.5312	-3.3458	-3.2625	-3.5667	-3.225	-3.3104	-3.6375	-3.2062	-3.6437	-3.3438	-3.4271	73.065	-79.244	3.301	124.510	-98.571	118.947	171.166	175.961	193.146	42.815	151.118	190.936	180.780	161.272	-47.001	194.629	0.0018184	0.00065998	0.00012852	865.59	3.6061e-06	4.7883e-06	1172.2	314.82	1.0105e-05	6.7059e-06	513.17	258.5	161.14	83.717	6.9676e-06	144.51	0.00024236	0.00020086	5.723e-05	799.76	1.9098e-06	2.1846e-06	1089.3	290.31	1.8944e-06	2.3255e-06	470.53	237.44	148.07	77.259	2.2768e-06	134.21	164.351	-72.966	-97.219	-143.311	14.778	7.413	-143.852	-138.226	-39.742	-13.781	-139.575	-136.387	-135.175	-130.542	2.998	-133.128	-8191	255	
2382.344	1	1	0	131072	0.27784	0.21582	0.030632	0.11748	0.194	0.072549	0.19036	0.32978	0.1544	0.25996	0.10176	0.22633	0.23197	0.2915	0.19464	0.21415	-3.1021	-3.2979	-3.225	-3.4854	-2.9188	-3.4333	-3.3	-3.3458	-3.4708	-3.2146	-3.3438	-3.775	-3.2854	-3.5646	-3.3208	-3.1937	-13.315	-30.244	-117.095	193.299	-50.585	-44.471	144.374	-48.530	-107.253	-50.418	-93.024	151.066	-10.040	183.215	-108.515	152.621	0.0018128	0.00070828	0.00023658	864.02	2.3048e-06	5.4021e-06	1178.9	307.42	5.3422e-06	8.8196e-06	502.87	249.13	153.62	80.72	3.9864e-06	143.11	0.00025317	0.00022063	5.6362e-05	797.08	1.991e-06	2.2325e-06	1085.9	282.83	1.8966e-06	2.2356e-06	461.55	228.9	141.63	74.464	2.2367e-06	131.96	162.332	-90.289	-75.136	-143.260	-79.156	20.557	-144.059	-138.585	-16.687	11.097	-139.538	-136.361	-134.951	-130.055	-5.956	-132.814	-8191	255	
2382.440	1	1	0	131072	0.11481	0.047365	0.1126	0.19177	0.215	0.11864	0.1287	0.20869	0.1436	0.17035	0.11694	0.44402	0.20175	0.15319	0.1283	0.15193	-3.1146	-3.2062	-3.2625	-3.8146	-3.1042	-3.4354	-3.4688	-3.1104	-3.5771	-3.2458	-3.4708	-3.6396	-3.2812	-3.6167	-3.3979	-3.3875	92.098	60.888	-39.770	139.564	-75.040	-47.247	-128.833	-86.730	77.535	-149.119	184.499	169.856	166.722	195.799	173.151	136.434	0.0016202	0.00091806	0.00023347	858.98	6.2868e-06	6.9704e-06	1170.6	296.75	4.3249e-06	6.0091e-06	491.96	243.09	148.94	78.999	5.2807e-06	142.36	0.00026536	0.00022692	5.5778e-05	793.9	2.1909e-06	2.3476e-06	1081.6	273.28	2.2234e-06	2.3088e-06	451.17	223	136.96	72.905	2.0685e-06	130.62	164.998	-86.821	-67.181	-143.603	-48.685	-23.836	-143.604	-138.383	-55.079	2.672	-139.294	-136.062	-134.726	-130.171	-17.037	-132.711	-8191	255	
2382.536	1	1	0	0	0.11965	0.17807	0.098671	0.21546	0.074628	0.2587	0.27899	0.052246	0.10941	0.23364	0.28255	0.36719	0.041208	0.30436	0.13794	0.38194	-3.2292	-3.3063	-2.9938	-3.6396	-3.0729	-3.2208	-3.5563	-3.1562	-3.5438	-3.3479	-3.3	-3.5687	-3.2917	-3.4062	-3.4625	-3.3771	-117.747	161.905	199.174	127.130	99.886	-96.948	90.471	111.787	202.602	92.058	126.330	137.470	130.556	145.468	73.352	138.059	0.0017148	0.00040555	0.00023901	850.88	3.8015e-06	4.5761e-06	1155	285.81	7.1023e-06	5.2715e-06	473.17	232.34	142.61	76.172	5.0528e-06	139.35	0.00027233	0.00020908	5.4844e-05	786.23	2.3594e-06	2.3378e-06	1067.1	262.88	2.3077e-06	2.1337e-06	433.7	213.3	131.16	70.11	1.7255e-06	128.17	161.821	-53.855	-37.589	-143.688	24.911	1.757	-144.024	-138.120	-63.628	6.702	-139.352	-135.886	-134.576	-129.995	-21.679	-132.634	-8191	255	
2382.657	1	1	0	131072	0.020113	0.20898	0.15655	0.053159	0.11967	0.17221	0.45717	0.11575	0.011562	0.19599	0.066969	0.29065	0.21336	0.1519	0.2574	0.17356	-3.075	-3.3187	-3.1354	-3.6125	-3.1917	-3.2146	-3.525	-3.2021	-3.4813	-3.4188	-3.1104	-3.8688	-3.3542	-3.2167	-3.3729	-3.4375	-34.652	-137.710	-44.941	-133.789	192.552	0.496	175.455	171.374	33.416	123.166	-36.881	123.862	154.691	139.838	-102.765	155.715	0.0017136	0.00077601	0.00018389	849.75	6.6714e-06	6.5357e-06	1144.3	282.9	5.1162e-06	5.4275e-06	475.73	233.68	143.25	77.58	4.8215e-06	141.59	0.00025112	0.00016653	4.3389e-05	778.98	1.9796e-06	1.7841e-06	1055.7	261.44	1.997e-06	1.7642e-06	435.66	214.14	131.8	71.481	1.5538e-06	130.02	163.630	-80.719	-37.331	-143.804	-33.292	-4.069	-143.940	-138.632	-51.145	16.901	-139.087	-135.922	-134.639	-130.088	-16.064	-132.896	-8191	255	
2382.751	1	1	0	131072	0.14931	0.14851	0.23583	0.17857	0.038656	0.12407	0.22515	0.065998	0.12846	0.19183	0.1312	0.55189	0.21419	0.20222	0.21869	0.26691	-3.0458	-3.2417	-3.0854	-3.6271	-3.1958	-3.3083	-3.7083	-3.1625	-3.4146	-3.475	-3.2313	-3.6458	-3.4771	-3.2958	-3.6188	-3.3979	64.389	86.303	-89.519	190.467	-131.086	169.481	171.451	-88.822	-87.936	-42.901	145.669	176.455	163.941	-124.676	181.443	156.862	0.0016421	0.00050348	0.00024515	849.97	5.8431e-06	6.7868e-06	1152	291.46	9.6098e-06	8.9082e-06	491.54	243.42	150.99	81.58	5.9944e-06	144.47	0.00023812	0.00015192	3.9816e-05	781.93	1.8436e-06	1.6607e-06	1060.4	269.08	1.8047e-06	1.5458e-06	450.12	223.2	138.41	75.153	1.4045e-06	134.47	162.119	-94.010	-52.188	-143.746	0.030	-11.683	-143.877	-138.197	-43.720	7.107	-139.377	-135.851	-134.908	-130.121	-27.039	-133.128	-8191	255	
2382.848	1	1	0	131072	0.038679	0.091686	0.065157	0.24831	0.1135	0.27285	0.32543	0.17982	0.27624	0.1755	0.36175	0.2428	0.18874	0.3582	0.1876	0.35874	-2.8833	-3.5938	-3.0333	-3.45	-3.25	-2.9938	-3.6562	-3.2417	-3.2979	-3.5354	-3.1646	-3.6854	-3.4292	-3.15	-3.5708	-3.5125	-16.133	-25.557	-100.243	179.135	36.913	169.684	131.449	161.692	153.167	90.096	158.749	143.732	175.741	169.032	17.233	114.510	0.0017562	0.0010944	0.00015128	854.25	6.4095e-06	6.733e-06	1155.8	303.57	7.0515e-06	8.6138e-06	506.86	251.27	155.19	83.897	4.8044e-06	145.22	0.00020531	0.00011741	3.1515e-05	784.42	1.3148e-06	1.21e-06	1064.6	279.32	1.3159e-06	1.1604e-06	461.87	230.11	142.9	77.192	1.2225e-06	136.18	164.182	-92.423	-60.925	-143.805	-16.720	-39.000	-143.737	-138.335	-51.104	9.832	-139.413	-135.971	-134.870	-130.467	-51.412	-132.883	-8191	255	
2382.944	1	1	0	131072	0.14829	0.13415	0.047805	0.22214	0.17898	0.29139	0.34041	0.18595	0.11936	0.074861	0.11108	0.088705	0.071477	0.27331	0.11737	0.13593	-3.0396	-3.6458	-3.2521	-3.4208	-3.4292	-3.3438	-3.7562	-3.3479	-3.2979	-3.7708	-3.1083	-3.6771	-3.6021	-3.3312	-3.5208	-3.5583	-59.069	44.564	75.172	203.282	106.981	2.555	121.139	-141.502	169.286	10.542	-43.347	179.733	-49.859	145.154	122.460	196.614	0.0017517	0.00085233	0.00014082	844.84	7.7901e-06	3.5235e-06	1142.4	297.61	9.5417e-06	4.8242e-06	493.67	244.36	150.84	81.456	6.9295e-06	143.9	0.00019125	0.00010645	3.2449e-05	778.71	1.2901e-06	1.1937e-06	1052.3	273.64	1.2856e-06	1.1123e-06	451.5	223.46	137.96	74.887	1.2487e-06	132.82	163.863	-67.193	-66.094	-143.167	0.180	-34.119	-143.967	-138.205	-39.526	-8.378	-139.463	-135.913	-134.766	-130.473	-20.603	-132.853	-8191	255	
2383.040	1	1	0	0	0.19795	0.16432	0.098447	0.2829	0.16531	0.26906	0.13761	0.195	0.20812	0.23319	0.29225	0.14912	0.21726	0.16004	0.32046	0.1896	-2.7979	-3.3125	-2.9313	-3.3187	-3.4562	-3.3187	-3.6208	-3.3854	-3.0625	-3.6021	-3.2438	-3.4771	-3.5125	-3.4271	-3.3458	-3.4188	-59.477	56.119	82.609	189.791	89.986	119.806	115.263	135.109	-106.839	2.310	-139.984	152.053	-86.986	-128.977	48.337	180.473	0.0017007	0.00081092	0.00020629	820.43	5.8759e-06	9.3886e-06	1105.9	281.41	7.9926e-06	6.9037e-06	466.43	229.66	133.35	67.128	2.7475e-06	118.93	0.00018111	9.6902e-05	3.1451e-05	755.48	1.1563e-06	1.0805e-06	1018.3	258.29	1.1473e-06	1.0456e-06	426.67	210.46	123.79	62.905	1.1513e-06	110.73	164.351	-89.071	-81.170	-143.443	-7.849	-14.204	-144.064	-138.195	-28.473	-23.324	-139.203	-134.639	-120.969	-126.351	-52.273	-131.126	-8191	255	
2383.136	1	1	0	0	0.1189	0.18257	0.15376	0.15108	0.15441	0.1389	0.33816	0.19572	0.18309	0.099571	0.23091	0.19681	0.046316	0.1726	0.15311	0.22688	-2.8292	-3.6063	-3.1729	-3.375	-3.5792	-3.2125	-3.5104	-3.3167	-3.2583	-3.55	-3.4479	-3.3812	-3.4625	-3.1479	-3.3937	-3.5708	187.086	147.418	-141.237	153.953	114.884	-49.796	139.071	22.447	-151.481	30.767	127.210	104.343	102.662	-153.002	152.129	-152.713	0.0013888	0.0006593	0.00020559	691.51	5.8041e-06	5.0244e-06	922.38	229.37	7.3174e-06	4.7989e-06	381.9	186.45	111.79	59.867	3.7594e-06	109.41	0.00015285	8.7435e-05	2.8369e-05	644.35	9.4327e-07	9.0177e-07	863.56	213.42	9.427e-07	8.8596e-07	356.17	173.36	104.04	56.093	1.2422e-06	102.02	162.627	-61.431	-41.788	-142.103	-17.656	-30.615	-142.449	-136.862	-30.440	-12.600	-137.878	-134.018	-132.850	-127.837	-32.374	-130.372	-8191	255	
2383.232	1	1	0	0	0.25942	0.30452	0.13188	0.1295	0.17436	0.030658	0.041876	0.24546	0.34492	0.17634	0.19986	0.32116	0.072432	0.21549	0.15637	0.4117	-2.7375	-3.5208	-3.1771	-3.3667	-3.5854	-3.1104	-3.6521	-3.5229	-3.0521	-3.4979	-3.3375	-3.2625	-3.6375	-3.4583	-3.3688	-3.6458	-131.271	34.570	-140.896	-140.845	194.584	122.444	108.050	142.527	170.575	166.533	33.531	92.178	-34.545	184.495	68.176	176.940	0.001279	0.00057897	0.00022161	679.23	3.4891e-06	4.1763e-06	900.08	219.17	4.0527e-06	5.9982e-06	373.96	179.45	106.92	53.194	4.8191e-06	99.492	0.00015549	0.00010023	3.2573e-05	632.13	1.0387e-06	1.1169e-06	845.5	204.62	1.0236e-06	1.0775e-06	348.03	166.53	99.597	49.785	1.1557e-06	92.78	161.978	-86.344	-56.378	-142.353	-40.709	-18.655	-142.936	-137.236	-8.747	0.489	-138.394	-134.820	-133.756	-127.571	-39.603	-130.166	-8191	255	
2383.353	1	1	0	0	0.20468	0.19101	0.18649	0.19586	0.05318	0.2673	0.28526	0.23661	0.30875	0.11338	0.11745	0.15896	0.18491	0.14258	0.13704	0.23188	-2.7479	-3.4854	-3.325	-3.2938	-3.5542	-3.2333	-3.3542	-3.3771	-3.2021	-3.5521	-3.3875	-3.1354	-3.7708	-3.2625	-3.2562	-3.7229	164.164	69.493	200.276	162.342	17.165	139.722	105.293	168.680	-128.947	14.580	100.659	-111.442	-4.749	-148.660	58.756	154.863	0.0011961	0.0004481	0.00021016	669.71	4.4056e-06	4.6956e-06	898.56	234.06	5.8791e-06	5.8362e-06	409.63	197.18	117.04	58.386	5.8444e-06	107.51	0.00013525	9.434e-05	2.6379e-05	623.2	8.1632e-07	9.1569e-07	839.49	217.46	7.317e-07	7.8715e-07	380.04	182.59	108.81	54.414	7.3633e-07	100.05	162.895	-75.942	-74.527	-142.461	-16.727	-5.259	-142.937	-137.496	-45.296	-0.331	-138.818	-135.385	-134.183	-128.590	-9.771	-130.954	-8191	255	
2383.449	1	1	0	0	0.056513	0.1734	0.093303	0.27531	0.1692	0.22762	0.16468	0.32889	0.19901	0.074568	0.084702	0.014455	0.36444	0.18366	0.15372	0.0897	-2.6917	-3.2	-3.275	-3.2979	-3.5187	-3.1958	-3.3417	-3.5625	-3.1063	-3.3896	-3.4104	-3.3958	-3.6104	-3.4229	-3.2167	-3.8708	83.821	-88.764	116.211	180.599	-94.765	70.960	196.084	101.633	135.083	-112.379	115.710	124.242	172.626	170.590	-134.759	203.695	0.0012755	0.00063448	0.00013386	640.38	3.5859e-06	6.5137e-06	908.54	259.38	4.5352e-06	7.4578e-06	455.63	221.63	137.39	68.7	3.7132e-06	124.62	0.00011452	6.933e-05	1.7803e-05	597.06	6.4642e-07	7.5767e-07	850.48	240.23	6.1815e-07	6.7323e-07	421.09	205.54	127	64.067	6.3314e-07	115.84	164.250	-84.615	-62.814	-142.626	-41.916	-32.746	-142.970	-137.884	-42.429	-13.173	-139.488	-136.072	-135.052	-129.712	-28.723	-132.076	-8191	255	
2383.521	1	1	0	131072	0.097392	0.1588	0.17604	0.19349	0.099685	0.13016	0.3642	0.123	0.18711	0.032713	0.28497	0.39317	0.075361	0.29756	0.15582	0.28508	-2.6813	-3.5229	-3.5771	-3.1771	-3.4229	-3.3292	-3.1604	-3.6354	-3.1312	-3.4708	-3.5771	-3.2625	-3.6188	-3.4938	-3.2062	-3.7229	82.039	-119.540	99.292	200.872	109.504	194.007	134.681	-123.054	188.364	107.555	-153.860	180.987	-140.249	195.617	77.204	163.247	0.0014632	0.00067999	0.00015101	695.38	4.6457e-06	6.5587e-06	1007.9	301.31	7.9452e-06	7.5713e-06	506.68	253.46	163.1	82.884	7.043e-06	143.14	0.00011731	5.9179e-05	1.5545e-05	648.23	6.4009e-07	7.2095e-07	938.19	280.36	7.0401e-07	6.7115e-07	468.38	234.66	150.74	77.124	5.8455e-07	134.55	163.172	-76.462	-75.039	-142.417	-26.438	-37.507	-143.263	-138.290	-34.950	5.498	-139.645	-136.653	-136.089	-130.682	-29.795	-132.911	-8191	255	
2383.617	1	1	0	131072	0.26115	0.096104	0.12945	0.14594	0.18291	0.15662	0.24259	0.26351	0.10008	0.15193	0.10384	0.21098	0.30753	0.34673	0.17497	0.18142	-2.8063	-3.2604	-3.3354	-3.1229	-3.4833	-3.2875	-3.2292	-3.525	-3.1396	-3.4562	-3.4396	-3.3646	-3.6813	-3.5708	-3.0333	-3.6833	-93.298	-63.573	130.288	-15.528	-149.537	57.961	149.018	-141.311	-109.885	146.798	199.591	-144.882	133.563	127.363	149.387	130.639	0.0017053	0.00074325	0.00021396	785.14	5.0647e-06	7.8323e-06	1084.3	322.62	6.4316e-06	5.9335e-06	510.62	267.01	171.13	85.95	7.0004e-06	143.11	0.00012952	5.3062e-05	1.3648e-05	730.28	6.5202e-07	6.4825e-07	1010.5	299.65	8.5883e-07	8.1487e-07	473.11	248.06	158.85	80.393	8.4217e-07	134	162.746	-75.231	-77.978	-142.444	-20.157	-17.463	-143.319	-138.645	-42.413	-3.450	-139.847	-136.784	-135.893	-130.621	-18.090	-132.844	-8191	255	
2383.737	1	1	0	131072	0.044418	0.037686	0.061629	0.14062	0.1599	0.11148	0.32801	0.23622	0.061225	0.12546	0.14011	0.11972	0.049574	0.14017	0.17248	0.11363	-2.7958	-3.3021	-3.5708	-3.2146	-3.3875	-3.3771	-3.3854	-3.5042	-3.2667	-3.3792	-3.7083	-3.175	-3.4646	-3.4083	-2.95	-3.7625	67.570	35.199	52.398	183.530	153.159	148.532	149.209	196.412	39.449	20.926	142.604	134.854	196.317	200.719	-93.821	-114.709	0.001799	0.0009275	0.00025327	782.25	5.8403e-06	6.8191e-06	1077.3	328.86	8.9125e-06	8.6041e-06	524.67	275.68	177.04	89.587	6.8626e-06	144.35	0.00014929	6.3596e-05	1.5163e-05	728.37	6.7799e-07	5.6371e-07	1005	305.56	6.7949e-07	6.0798e-07	484.23	255.53	163.81	83.376	6.4206e-07	137.03	162.419	-76.500	-74.890	-142.243	-19.324	-14.463	-143.205	-138.379	-32.087	-16.956	-139.590	-137.196	-135.834	-130.744	-21.074	-132.614	-8191	255	
2383.832	1	1	0	0	0.093132	0.10128	0.12365	0.16122	0.11473	0.053253	0.2821	0.11625	0.073702	0.080684	0.21526	0.21582	0.32296	0.21389	0.16948	0.11126	-2.8688	-3.0104	-3.4	-3.2083	-3.3854	-3.4042	-3.3688	-3.4	-3.4062	-3.2438	-3.8417	-3.3063	-3.4375	-3.6542	-3.1417	-3.3979	-92.589	165.245	-36.951	124.503	177.061	-68.050	197.853	-73.000	72.588	27.853	46.077	154.423	203.114	187.378	-93.455	132.734	0.0017621	0.00083872	0.00019111	775.6	6.0288e-06	5.4451e-06	1051.8	329.9	8.4309e-06	6.6748e-06	519.02	259.58	164.03	81.706	5.7979e-06	136.25	0.00014188	5.3921e-05	1.324e-05	719.28	5.83e-07	4.8754e-07	980.1	305.78	5.6629e-07	4.7341e-07	479.77	240.42	152.01	76.121	5.3607e-07	126.26	163.137	-72.812	-55.596	-142.459	-8.015	-20.010	-142.963	-138.276	-37.395	3.148	-140.009	-136.791	-135.867	-130.624	-15.843	-132.755	-8191	255	
2383.930	1	1	0	0	0.13029	0.15999	0.084254	0.18377	0.051078	0.12681	0.22377	0.19217	0.20076	0.06939	0.18753	0.21416	0.10774	0.16967	0.18042	0.16699	-2.8563	-3.1583	-3.3354	-3.1813	-3.1437	-3.4125	-3.2646	-3.4979	-3.4708	-3.1604	-3.6729	-3.5708	-3.4688	-3.5625	-3.1229	-3.8688	98.957	-119.655	139.692	155.391	-131.231	-20.938	75.756	157.493	-29.416	83.306	164.514	-155.082	172.743	188.924	176.108	193.294	0.0016507	0.00068282	0.00017769	729.86	5.4098e-06	7.2573e-06	986.94	315.76	6.7147e-06	6.3857e-06	498.27	259.13	164.75	76.977	6.3036e-06	130.45	0.00011967	4.587e-05	1.1542e-05	677.62	5.4202e-07	4.9366e-07	919.24	291.42	5.5648e-07	5.1094e-07	462.18	240.13	152.39	71.614	5.713e-07	121.16	164.408	-68.098	-69.433	-142.046	-29.538	-14.556	-142.638	-137.927	-29.462	0.010	-139.514	-136.966	-135.777	-130.913	-15.014	-132.639	-8191	255	
2384.049	1	1	0	0	0.069653	0.018223	0.12751	0.08642	0.18053	0.15062	0.013758	0.19595	0.21363	0.22961	0.2052	0.067312	0.10464	0.26046	0.030076	0.10554	-2.9771	-3.0708	-3.6208	-3.2833	-3.3146	-3.4167	-3.1792	-3.5125	-3.4938	-3.1	-3.625	-3.4458	-3.0896	-3.7042	-3.2438	-3.7208	-143.768	12.386	-92.559	-139.024	134.364	-118.139	4.612	121.725	33.584	184.336	197.711	-136.509	124.932	193.772	-105.917	112.901	0.0015761	0.00072122	0.00019845	715.09	6.1839e-06	6.6875e-06	977.29	316.22	8.0498e-06	8.6007e-06	515.51	267.95	168.68	80.856	4.9569e-06	138.16	0.00011899	4.8569e-05	1.2937e-05	666.29	5.3147e-07	4.4517e-07	913.02	292.68	5.4151e-07	4.8714e-07	474.22	247.78	156.35	75.368	5.9412e-07	128.13	164.488	-84.466	-77.014	-141.959	-13.656	-25.406	-142.719	-137.933	-39.967	-9.431	-139.608	-136.710	-135.898	-130.670	-19.178	-132.740	-8191	255	
2384.145	1	1	0	0	0.16606	0.23131	0.13149	0.07663	0.20343	0.073756	0.12125	0.10477	0.084082	0.2165	0.10345	0.26004	0.19216	0.20413	0.22989	0.21784	-3.0854	-2.9854	-3.5125	-3.4375	-3.1125	-3.3625	-3.225	-3.5417	-3.4167	-3.0708	-3.7	-3.6437	-3.4125	-4	-3.1688	-3.5583	-3.595	6.480	204.152	53.489	175.150	47.530	112.285	41.422	-92.690	120.434	195.454	136.466	179.287	196.735	2.421	109.142	0.0016125	0.00067758	0.00020959	734.11	4.8165e-06	5.2619e-06	1006.7	322.61	5.6505e-06	5.9856e-06	510.23	261.79	166.39	81.999	5.8694e-06	138.33	0.00012008	4.5056e-05	1.3537e-05	682.55	5.5535e-07	4.5563e-07	937.37	299.53	5.0286e-07	4.5273e-07	471.49	242.24	153.93	76.538	5.9454e-07	128.18	163.066	-71.605	-65.919	-141.737	-20.828	-15.985	-143.004	-137.821	-44.010	-9.518	-139.337	-136.768	-135.695	-130.547	-23.465	-132.547	-8191	255	
2384.216	1	1	0	0	0.16206	0.11245	0.18743	0.36611	0.11468	0.081413	0.18268	0.24879	0.13548	0.21711	0.074257	0.21562	0.26211	0.35847	0.17921	0.50125	-3	-2.9437	-3.5062	-3.3312	-3.1896	-3.4771	-3.2167	-3.4354	-3.5333	-3.1417	-3.5292	-3.3875	-3.5104	-3.6917	-3.2292	-3.6646	-60.390	195.650	153.804	-80.824	-101.233	179.383	107.241	149.750	-5.318	116.789	-101.409	-152.884	162.204	-149.891	-91.186	151.255	0.0016324	0.00090578	0.00022545	753.21	6.1185e-06	7.1193e-06	997.88	318.48	6.7024e-06	5.7109e-06	483.74	249.06	160.93	77.65	5.344e-06	129.97	0.00011752	4.4145e-05	1.436e-05	700.85	5.101e-07	4.7897e-07	930.11	294.66	5.4762e-07	5.1128e-07	448.65	230.53	148.79	72.36	6.9567e-07	120.51	162.962	-71.028	-55.077	-142.057	-32.207	-19.894	-142.405	-137.635	-41.125	-2.918	-139.207	-136.302	-135.228	-130.222	-24.316	-131.959	-8191	255	
2384.337	1	1	0	0	0.056956	0.24084	0.14687	0.15166	0.12466	0.13844	0.27973	0.12557	0.14068	0.29167	0.24771	0.37179	0.098431	0.26508	0.26787	0.30451	-3.0479	-3.2354	-3.4729	-3.4875	-3.2313	-3.5271	-3.6063	-2.9958	-3.55	-3.1875	-3.4313	-3.6063	-3.0625	-3.6229	-3.4625	-3.4583	164.589	182.820	-97.388	187.422	24.158	-54.133	-146.542	190.648	82.026	153.061	141.908	156.802	100.622	-144.334	-29.672	102.339	0.0015375	0.00054143	0.000172	777.3	5.1383e-06	5.4812e-06	1004.7	314.68	7.1588e-06	7.6522e-06	475.89	245.97	158.49	76.593	4.9783e-06	127.59	0.00011869	5.322e-05	1.5941e-05	722.04	5.3714e-07	5.2145e-07	936.35	291.63	5.2902e-07	5.4535e-07	440.13	227.08	146.24	71.436	6.3528e-07	118.35	161.811	-74.999	-64.033	-141.869	-12.302	-11.199	-142.740	-137.660	-45.302	9.165	-138.989	-136.293	-134.993	-130.099	-25.546	-132.120	-8191	255	
2384.433	1	1	0	0	0.15155	0.29198	0.042892	0.3533	0.072181	0.029213	0.08706	0.17371	0.13333	0.20684	0.1453	0.21981	0.3432	0.22247	0.24038	0.31393	-3.3229	-3.2396	-3.4667	-3.5417	-3.1104	-3.5854	-3.4604	-3.1937	-3.6167	-3.2021	-3.4521	-3.4729	-3.0771	-3.7917	-3.2833	-3.5896	-99.516	190.006	-92.472	170.351	56.684	-93.266	110.248	-111.151	-102.848	137.140	-132.136	189.192	181.885	183.497	-4.366	128.106	0.0015394	0.00066465	0.00014969	765.84	4.9666e-06	6.7214e-06	995.07	316.18	5.8049e-06	6.9912e-06	484.36	253.5	162.18	79.041	4.9937e-06	131.62	0.00011405	5.6392e-05	1.4933e-05	711.69	5.3356e-07	5.4298e-07	929.64	292.63	5.016e-07	5.5953e-07	447.49	234.71	149.62	73.414	5.9354e-07	122.17	161.558	-86.650	-60.174	-141.693	-26.020	-17.982	-142.600	-137.483	-34.521	4.416	-139.065	-136.346	-135.260	-130.351	-19.135	-132.253	-8191	255	
2384.529	1	1	0	0	0.29573	0.18261	0.32596	0.080569	0.30605	0.16919	0.12426	0.31815	0.14381	0.070971	0.174	0.21503	0.42886	0.15421	0.11489	0.20784	-3.1542	-3.0042	-3.3271	-3.5167	-2.9417	-3.5854	-3.6083	-3.1229	-3.7125	-3.3271	-3.4833	-3.7021	-3.1854	-3.7021	-3.5208	-3.4104	-135.960	-28.381	-23.738	168.817	185.507	179.919	-153.329	177.256	149.775	150.072	132.750	111.492	191.627	153.556	60.561	148.511	0.0015608	0.00080529	0.00017126	765.16	6.8944e-06	6.8295e-06	997.47	317.6	5.3911e-06	6.0205e-06	480.35	253.93	162.23	78.49	6.2508e-06	129.84	0.00011317	5.6319e-05	1.3586e-05	711.09	5.2823e-07	5.7674e-07	928.86	293.85	5.3146e-07	5.7199e-07	445.03	234.77	150.19	73.032	5.6096e-07	120.53	163.155	-66.540	-60.592	-141.847	-39.965	-7.100	-142.845	-137.272	-61.234	-7.645	-139.167	-136.502	-135.162	-130.472	-28.272	-132.220	-8191	255	
2384.650	1	1	0	0	0.084458	0.15596	0.22498	0.026097	0.10903	0.14373	0.2933	0.21201	0.16711	0.10117	0.2371	0.19071	0.15672	0.26699	0.28732	0.32513	-3.0792	-3.3292	-3.1542	-3.5625	-3.425	-3.475	-3.4813	-3.2729	-3.6437	-3.3438	-3.4625	-3.8021	-3.3042	-3.5438	-3.4667	-3.3958	-69.375	165.343	-15.287	-73.185	-91.798	193.471	117.064	158.675	-82.054	-16.912	45.330	-142.774	-153.150	-122.739	111.836	163.524	0.0015731	0.00073367	0.00017352	756.48	5.263e-06	6.4059e-06	981.45	311.27	3.7973e-06	7.0732e-06	471.44	249.46	159.74	76.97	5.0202e-06	126.81	0.00011692	5.4591e-05	1.3338e-05	701.08	5.6708e-07	5.7363e-07	913.51	288.65	5.5972e-07	5.6503e-07	435.05	231.05	147.76	71.434	5.6318e-07	117.81	163.726	-77.172	-61.393	-141.910	-13.449	-22.053	-142.733	-137.460	-45.222	-6.293	-138.977	-136.312	-135.263	-130.335	-38.095	-132.465	-8191	255	
2384.744	1	1	0	0	0.094438	0.10068	0.1965	0.39465	0.007605	0.10085	0.1323	0.4583	0.26017	0.13623	0.22493	0.20466	0.18924	0.35846	0.024663	0.11201	-3.2854	-3.2021	-3.1542	-3.5521	-3.2938	-3.4333	-3.5104	-3.2583	-3.6208	-3.3708	-3.2938	-3.8896	-3.2292	-3.4938	-3.4188	-3.3187	94.717	137.166	-128.482	186.378	123.920	-75.857	178.337	170.159	118.425	-139.324	194.316	156.638	-138.976	160.212	-102.348	-65.473	0.0015378	0.00076572	0.00022551	749.54	5.9029e-06	7.614e-06	971.66	311.35	5.913e-06	6.1547e-06	468.41	245.84	158.05	75.848	5.6434e-06	126.11	0.00011707	5.0342e-05	1.3493e-05	694.71	5.7276e-07	5.3837e-07	909.51	287.5	5.8096e-07	5.5023e-07	432.83	227.59	146.66	70.55	5.4905e-07	117.12	162.284	-66.308	-83.755	-141.905	-26.515	-31.360	-142.742	-137.678	-41.033	13.067	-139.001	-136.490	-135.223	-130.344	-26.054	-132.419	-8191	255	
2384.818	1	1	0	0	0.24492	0.25354	0.33379	0.13864	0.039829	0.22533	0.18037	0.11096	0.12435	0.18705	0.062605	0.34133	0.15162	0.21145	0.13821	0.35199	-3.0375	-3.4021	-3.0062	-3.7812	-3.1833	-3.4146	-3.6688	-3.1	-3.3583	-3.2208	-3.1937	-3.8333	-3.4146	-3.4125	-3.6437	-3.4354	-143.414	199.000	37.281	161.048	141.043	184.152	140.385	134.270	-147.771	5.823	184.314	120.972	127.802	120.224	-55.683	93.737	0.001521	0.00062406	0.00018004	740.48	5.9807e-06	8.2801e-06	973.99	307.9	4.6629e-06	5.9259e-06	461.79	243.29	157.18	74.861	5.0226e-06	125.16	0.00011896	4.8456e-05	1.2713e-05	692.78	5.8559e-07	5.3649e-07	907.27	284.96	5.9577e-07	5.1309e-07	427.71	225.22	145.35	69.779	5.3324e-07	116.08	163.748	-70.772	-70.788	-141.669	-15.858	-19.826	-142.546	-137.368	-43.376	7.614	-139.044	-136.378	-135.007	-130.177	-20.194	-132.398	-8191	255	
2384.912	1	1	0	0	0.026921	0.066962	0.11863	0.15771	0.050542	0.055592	0.09873	0.051486	0.10327	0.049025	0.056901	0.17991	0.19035	0.17198	0.042002	0.44562	-3.0687	-3.35	-3.05	-3.5312	-3.3063	-3.2604	-3.6729	-3.3354	-3.4958	-3.4833	-3.2562	-3.7604	-3.3479	-3.3521	-3.5312	-3.4813	8.651	184.559	58.230	147.852	138.162	-109.402	151.992	-55.876	-26.956	-68.925	184.668	-124.462	-82.960	185.242	74.266	171.693	0.001468	0.00057289	0.00021818	739.79	6.3169e-06	4.9177e-06	961.98	305.27	4.8953e-06	7.8561e-06	459.25	240.87	156.73	74.222	6.4982e-06	124	0.00011627	4.8071e-05	1.3279e-05	688.77	6.0509e-07	5.1734e-07	896.62	282.75	5.8607e-07	5.2366e-07	423.79	223.5	144.81	69.229	5.2772e-07	115.18	163.334	-81.332	-66.108	-141.790	-11.106	-5.878	-142.959	-137.658	-32.592	0.643	-139.161	-136.269	-135.169	-130.257	-13.397	-132.435	-8191	255	
2385.033	1	1	0	0	0.17895	0.032441	0.027732	0.014789	0.097954	0.14303	0.11378	0.090522	0.14209	0.27822	0.27527	0.26671	0.04817	0.22951	0.05682	0.059384	-2.7354	-3.4938	-2.9521	-3.4375	-3.3563	-3.1688	-3.6125	-3.3167	-3.2146	-3.4875	-3.3375	-3.6292	-3.6229	-3.3958	-3.7542	-3.7479	176.067	98.221	99.077	87.971	84.054	-27.705	99.728	136.829	48.411	200.083	126.309	173.283	-106.171	-153.150	-55.524	131.665	0.0015312	0.0006575	0.00020283	731.41	5.7812e-06	5.6485e-06	960.38	305.76	7.1889e-06	6.7978e-06	463.41	244.94	158.23	75.427	5.265e-06	126.77	0.00011688	4.7415e-05	1.2498e-05	681.35	5.6381e-07	5.125e-07	891.9	284.12	5.9066e-07	4.9117e-07	429.03	226.23	146.23	70.18	5.5273e-07	117.74	164.254	-79.616	-66.289	-141.727	-24.379	-29.822	-142.542	-137.543	-41.180	3.127	-139.109	-136.610	-135.071	-130.444	-28.220	-132.287	-8191	255	
2385.129	1	1	0	0	0.055695	0.14514	0.32859	0.095297	0.26645	0.16639	0.11797	0.15469	0.11813	0.16585	0.21055	0.27234	0.25938	0.16922	0.18493	0.10026	-2.8625	-3.6021	-2.9125	-3.4188	-3.5563	-3.0187	-3.6625	-3.4083	-3.2	-3.7854	-3.1604	-3.4417	-3.7125	-3.2792	-3.6437	-3.6333	87.571	-53.833	168.512	16.430	-92.584	40.906	-91.810	157.508	-14.354	71.733	120.341	129.259	-129.596	181.142	-33.375	171.808	0.001525	0.00052987	0.00020771	737.88	6.331e-06	6.42e-06	974.55	312.05	6.7083e-06	5.7183e-06	478.09	253	162.83	77.19	4.9246e-06	130.64	0.00011886	4.5375e-05	1.4297e-05	683.92	5.6788e-07	5.3429e-07	909.92	289.64	5.9283e-07	5.1059e-07	442.66	234.25	149.88	71.74	6.3566e-07	121.27	162.793	-79.637	-66.866	-141.940	-28.568	-16.460	-142.812	-137.679	-35.564	0.502	-139.003	-136.512	-135.533	-130.276	-34.601	-132.539	-8191	255	
2385.225	1	1	0	0	0.22967	0.047054	0.11937	0.047344	0.063346	0.18455	0.23303	0.23455	0.080627	0.10012	0.11809	0.24691	0.22056	0.28668	0.18672	0.44413	-2.7438	-3.4167	-3.15	-3.4604	-3.5729	-3.0958	-3.6833	-3.4333	-3.2	-3.5187	-3.2875	-3.4771	-3.4938	-3.1292	-3.6854	-3.3917	-30.243	38.958	3.190	49.503	98.357	33.866	170.577	121.374	16.203	30.038	85.479	-78.794	123.177	170.425	-76.156	165.492	0.0015356	0.00064642	0.00020196	745.23	5.0319e-06	7.3418e-06	1001.2	318.89	7.632e-06	6.9513e-06	491.49	255.7	163.72	77.237	5.286e-06	130.16	0.00011979	4.6753e-05	1.4797e-05	691.8	5.6537e-07	5.3295e-07	931.72	296.55	6.4244e-07	5.4427e-07	456.22	237.05	151.41	71.923	7.2431e-07	120.92	163.960	-86.574	-54.014	-141.822	-20.140	-29.281	-142.619	-137.652	-38.825	-4.707	-139.075	-136.362	-135.452	-130.422	-32.741	-132.457	-8191	255	
2385.321	1	1	0	0	0.21059	0.073564	0.16523	0.04027	0.22107	0.20708	0.1116	0.12681	0.044591	0.14186	0.20895	0.25784	0.38859	0.24298	0.059231	0.27794	-2.8354	-3.7021	-3.2354	-3.3646	-3.55	-3.1771	-3.7542	-3.5729	-3.2062	-3.4896	-3.3333	-3.475	-3.8146	-3.4292	-3.4792	-3.5792	-64.689	166.876	115.580	-101.900	-109.377	87.584	94.860	91.642	-115.331	-99.676	93.291	154.378	183.425	145.968	197.006	120.888	0.0015025	0.00072135	0.00024894	734.77	4.8152e-06	5.6999e-06	995.9	318.64	8.912e-06	5.2464e-06	490.31	252.95	164.32	76.372	5.8706e-06	128.13	0.00012271	5.4478e-05	1.8409e-05	683.3	6.3488e-07	6.5171e-07	928.48	295.91	6.8251e-07	6.302e-07	454.35	234.76	151.36	71.086	7.9181e-07	119.19	163.133	-95.234	-93.023	-141.657	5.781	-25.558	-142.688	-137.622	-36.919	-7.064	-138.999	-136.543	-135.521	-130.371	-4.440	-132.406	-8191	255	
2385.442	1	1	0	0	0.18287	0.21838	0.12903	0.09335	0.064209	0.10957	0.27703	0.19453	0.12665	0.25823	0.161	0.32957	0.14374	0.09017	0.18789	0.036958	-2.8958	-3.5083	-3.325	-3.3771	-3.6208	-3.1437	-3.7	-3.6896	-3.025	-3.6583	-3.6333	-3.3896	-3.7271	-3.475	-3.2833	-3.7229	74.020	34.834	198.006	-112.052	-69.793	-117.676	128.364	162.672	-126.665	136.819	200.583	194.842	-80.441	173.357	66.605	155.923	0.0015411	0.00069117	0.0001764	731.81	5.1495e-06	8.1958e-06	983.98	318.44	5.4433e-06	5.824e-06	483.46	251.42	162.6	75.025	4.8978e-06	125.67	0.00012658	6.0833e-05	1.9445e-05	679.98	6.3777e-07	6.9689e-07	919.62	293.97	6.9209e-07	6.9975e-07	446.76	232.63	150.44	69.781	8.7931e-07	116.64	163.249	-83.263	-57.589	-141.818	-26.802	-25.057	-142.684	-138.053	-44.566	-4.155	-139.086	-136.651	-135.657	-130.657	-18.821	-132.590	-8191	255	
2385.514	1	1	0	0	0.29485	0.11628	0.13222	0.26609	0.076562	0.065701	0.29683	0.27233	0.082008	0.13966	0.21461	0.39964	0.10687	0.22733	0.17342	0.28281	-2.7708	-3.4521	-3.4062	-3.3812	-3.5375	-3.2979	-3.5229	-3.6646	-3.2167	-3.7771	-3.4396	-3.5458	-3.675	-3.5354	-3.4083	-3.9042	-79.879	18.105	125.797	131.864	92.660	121.525	120.335	142.775	-82.669	-113.548	-104.436	150.506	124.516	-132.973	118.655	140.432	0.0015285	0.00060898	0.00017651	708.13	6.0055e-06	5.3808e-06	973.22	311.01	6.2133e-06	6.4798e-06	480.5	251.09	162.79	74.429	5.5967e-06	126.15	0.00013347	7.6554e-05	2.1575e-05	661.45	7.2571e-07	8.7109e-07	905.1	288.29	8.0437e-07	8.9926e-07	443.23	232.77	151.02	69.552	9.2897e-07	117.18	163.053	-76.672	-86.625	-141.923	-33.517	-17.554	-142.796	-138.066	-50.794	-3.200	-139.336	-136.722	-136.084	-130.699	-12.512	-132.659	-8191	255	
2385.610	1	1	0	0	0.27053	0.11629	0.16049	0.0718	0.10624	0.079219	0.161	0.28348	0.10275	0.1619	0.27615	0.25974	0.19281	0.20621	0.026923	0.21283	-2.7667	-3.4208	-3.5896	-3.1958	-3.5708	-3.3312	-3.5062	-3.6479	-3.1813	-3.4604	-3.5958	-3.4104	-3.7292	-3.3833	-3.2042	-3.7646	-66.945	80.377	-112.443	194.620	-140.785	-92.079	59.419	189.427	4.699	159.474	140.100	172.121	191.268	119.185	-42.843	147.412	0.0016091	0.00064806	0.00014426	707.15	6.2991e-06	6.1961e-06	984.56	316.69	8.6748e-06	6.3639e-06	488.47	259.16	168.04	77.018	5.6403e-06	128.5	0.00013901	8.9338e-05	2.2584e-05	658.67	8.1328e-07	9.3406e-07	918.05	294.7	8.5184e-07	9.2248e-07	453.34	239.72	155.36	71.793	9.0312e-07	119.2	163.150	-73.660	-71.319	-141.938	2.025	-32.613	-142.658	-138.049	-67.687	-17.083	-139.576	-136.964	-135.955	-130.543	-4.181	-132.484	-8191	255	
2385.730	1	1	0	0	0.24003	0.10262	0.28544	0.11426	0.15002	0.089391	0.17966	0.12633	0.24995	0.05571	0.11442	0.34806	0.16697	0.14326	0.14383	0.18417	-2.6125	-3.5354	-3.2917	-3.4813	-3.6646	-3.4375	-3.3167	-3.6896	-3.0479	-3.4167	-3.8229	-3.3146	-3.5187	-3.4583	-3.2833	-3.7458	59.010	-85.529	-22.783	-133.985	-134.979	-142.625	74.463	143.316	17.639	-44.367	88.865	139.180	-138.349	-151.583	-134.201	136.990	0.0015882	0.00079414	0.00013739	707.16	4.7434e-06	3.9988e-06	970.1	310.3	6.3761e-06	7.6724e-06	470.34	248.49	161.14	72.413	6.8752e-06	121.07	0.00015278	9.8655e-05	2.5657e-05	659.83	1.1524e-06	1.3196e-06	907.63	288.37	1.4279e-06	1.4632e-06	437.48	230.42	149.57	67.7	1.4017e-06	112.83	162.333	-67.132	-57.348	-142.112	-13.443	-34.641	-142.919	-138.338	-51.355	20.530	-139.404	-136.882	-135.937	-130.680	-11.116	-132.430	-8191	255	
2385.825	1	1	0	0	0.24889	0.15464	0.14604	0.23963	0.13963	0.14008	0.16424	0.094568	0.21984	0.072592	0.26495	0.17608	0.30285	0.2164	0.26568	0.16256	-2.9	-3.3688	-3.3771	-3.2271	-3.4417	-3.4708	-3.4708	-3.7917	-3.3146	-3.5	-3.7687	-3.4354	-3.7229	-3.6146	-3.3083	-3.9417	78.463	176.204	-6.221	162.794	-116.847	-144.135	38.072	-134.764	-2.564	-20.660	113.891	-142.821	-143.067	128.386	201.082	187.619	0.0014303	0.00055567	0.00024675	697	5.3671e-06	4.3574e-06	956.53	307.45	3.8875e-06	8.8187e-06	466.15	247.72	160.32	71.799	2.1169e-06	120.42	0.00019411	0.00013556	3.3422e-05	648.64	1.5364e-06	1.5244e-06	893.28	285.53	1.711e-06	1.6219e-06	433.39	229.5	149.06	66.911	1.6263e-06	112.04	162.190	-72.006	-47.116	-141.986	-27.203	-30.609	-142.757	-138.364	-55.793	15.745	-139.663	-137.071	-136.200	-130.647	-25.377	-132.713	-8191	255	
2385.921	1	1	0	0	0.056811	0.21628	0.19803	0.031064	0.12795	0.10139	0.17373	0.18921	0.17704	0.37676	0.24274	0.14555	0.094336	0.51548	0.09607	0.13636	-2.9688	-3.1917	-3.6083	-3.0667	-3.4188	-3.4708	-3.3333	-3.8271	-3.4	-3.2875	-3.8333	-3.4979	-3.6979	-3.6833	-3.1708	-3.6917	130.645	-89.846	23.076	-80.174	-86.889	-143.616	7.888	127.667	5.797	70.532	191.923	153.838	159.179	142.886	-132.531	61.155	0.0014702	0.00050065	0.00014592	696.11	4.7315e-06	8.2869e-06	963.85	311.31	6.7308e-06	5.2626e-06	480.59	254.78	165.99	74.856	5.526e-06	125.05	0.00022667	0.00015825	3.9797e-05	650.82	1.8653e-06	1.6758e-06	906.2	291.29	1.8747e-06	1.6225e-06	445.08	236.75	154.56	69.693	1.5907e-06	116.65	163.516	-87.733	-70.616	-141.831	-29.126	0.516	-142.675	-138.290	-11.237	47.063	-139.683	-136.916	-135.936	-130.985	-7.160	-132.648	-8191	255	
2386.017	1	1	0	0	0.089975	0.15704	0.0093142	0.13938	0.24857	0.19277	0.092474	0.07351	0.32341	0.077093	0.22764	0.15764	0.16169	0.50583	0.11087	0.16737	-2.8438	-3.3792	-3.5583	-3.2833	-3.4021	-3.4042	-3.4125	-3.6188	-3.3542	-3.0146	-3.6667	-3.3438	-3.5771	-3.5438	-3.1729	-3.8563	-33.558	22.524	103.187	48.572	46.820	91.377	147.734	195.278	-103.296	60.641	50.083	-81.981	-61.191	128.824	-35.699	126.443	0.001497	0.0007625	0.00019622	702.21	7.1374e-06	4.1909e-06	966.43	308.87	7.0071e-06	6.1739e-06	465.13	247.84	160.44	71.153	3.9778e-06	120.3	0.00023161	0.00016066	4.3257e-05	660.72	2.348e-06	2.121e-06	908.29	289.24	2.6128e-06	2.4174e-06	434.85	230.94	150.44	66.555	2.2929e-06	112.3	163.074	-56.093	-65.625	-142.214	-27.257	-49.278	-142.975	-138.510	-40.576	2.269	-139.613	-137.096	-135.996	-130.843	-56.899	-132.542	-8191	255	
2386.113	1	1	0	0	0.27062	0.072254	0.28795	0.17357	0.051134	0.10861	0.20818	0.17681	0.28567	0.38559	0.17321	0.21551	0.21007	0.23747	0.2211	0.20936	-2.9875	-3.1521	-3.5354	-3.3021	-3.2583	-3.6437	-3.2188	-3.6854	-3.2812	-3.2562	-3.7104	-3.2458	-3.4354	-3.6229	-3.1667	-3.5396	-63.451	-123.474	-53.585	171.099	20.494	-28.228	124.140	55.458	159.743	-102.773	-153.456	163.665	167.191	137.340	181.452	119.861	0.0015813	0.00069967	0.00014075	701.78	7.7242e-06	3.1296e-06	964.98	308.98	8.0159e-06	4.5651e-06	463.18	245.57	159.38	70.384	4.1386e-06	118.35	0.0002907	0.00022229	5.6705e-05	661.91	2.6836e-06	2.348e-06	908.46	289.9	2.6386e-06	2.4657e-06	432.11	229.32	149.22	65.962	2.4923e-06	110.84	163.421	-93.117	-98.317	-142.170	-19.474	-6.181	-143.084	-138.552	-40.987	10.964	-139.749	-137.087	-136.018	-130.747	-3.659	-132.822	-8191	255	
2386.209	1	1	0	0	0.11739	0.086282	0.012073	0.23776	0.18911	0.021887	0.057375	0.31047	0.091288	0.028228	0.13226	0.21609	0.43423	0.40871	0.027038	0.21238	-2.975	-3.1688	-3.5333	-3.5687	-3.2562	-3.5354	-3.1104	-3.4375	-3.4437	-3.1604	-3.6937	-3.5479	-3.3625	-3.6292	-3.1896	-3.7729	-131.772	119.124	196.969	-117.231	20.510	-155.343	156.599	195.616	140.193	-97.312	-100.631	195.637	153.451	156.426	-54.405	143.562	0.0013688	0.0010097	0.00018137	696.18	5.5759e-06	5.2422e-06	957.81	307.9	6.7998e-06	8.3858e-06	459.43	242.87	157.44	70.114	5.42e-06	117.91	0.00028718	0.00021776	6.3664e-05	656.25	2.5907e-06	2.2732e-06	904.37	288.75	2.4022e-06	2.2268e-06	430.01	226.38	146.81	65.597	2.2917e-06	110.06	164.833	-83.730	-73.808	-142.304	-19.250	14.510	-142.494	-138.704	-13.611	-0.681	-139.353	-137.027	-135.791	-130.956	-10.911	-132.823	-8191	255	
2386.330	1	1	0	0	0.12544	0.087078	0.12308	0.24026	0.12647	0.070335	0.056741	0.17129	0.21251	0.088448	0.22224	0.2168	0.12224	0.25844	0.1576	0.34296	-2.8979	-2.9	-3.6063	-3.3125	-3.2479	-3.5146	-3.4229	-3.5667	-3.5458	-3.175	-3.5167	-3.4042	-3.3458	-3.6396	-3.2708	-3.525	131.471	-56.390	60.904	196.302	-47.330	82.933	-42.527	150.620	-124.246	62.803	145.253	130.583	171.183	185.529	-54.240	155.710	0.0013965	0.00062233	0.00014989	677.17	2.822e-06	5.2587e-06	937.23	299.11	8.2665e-06	4.2513e-06	450.39	236.84	152.89	68.916	8.3975e-06	116.78	0.00024387	0.0001844	5.6637e-05	636.16	2.089e-06	1.845e-06	880.34	279.94	2.028e-06	1.9563e-06	420.41	220.41	142.36	64.624	2.2532e-06	108.97	161.393	-68.551	-53.385	-142.172	27.305	-14.710	-142.856	-138.475	-23.582	-0.087	-139.376	-137.060	-135.864	-130.854	-38.648	-132.606	-8191	255	
2386.426	1	1	0	0	0.1232	0.13152	0.16353	0.098816	0.18343	0.31883	0.24828	0.12189	0.054113	0.38713	0.19672	0.071318	0.50542	0.036896	0.12495	0.11258	-3.2125	-3.1813	-3.5125	-3.525	-3.2562	-3.3979	-3.2583	-3.4708	-3.5146	-3.3333	-3.5854	-3.5021	-3.2396	-3.7458	-3.3	-3.5812	96.898	23.332	-6.775	84.581	-134.916	92.028	-133.119	172.051	53.657	94.385	190.129	-11.226	129.434	194.570	-76.837	156.524	0.0014123	0.00059921	0.00023075	656.17	3.8716e-06	6.4465e-06	915.71	291.66	6.6664e-06	6.8866e-06	442.05	231.92	149.98	67.67	3.4283e-06	114.79	0.00022724	0.00016591	5.5031e-05	617.35	1.8353e-06	1.7947e-06	859.6	271.99	1.7453e-06	1.8484e-06	411.02	215.89	139.07	63.341	2.1338e-06	106.99	162.200	-77.705	-93.246	-142.248	-9.835	-43.553	-142.781	-138.137	-65.364	3.530	-139.320	-136.890	-135.896	-130.923	-52.139	-132.615	-8191	255	
2386.522	1	1	0	0	0.11017	0.21024	0.32869	0.26132	0.10242	0.058312	0.12835	0.14682	0.05825	0.12066	0.143	0.1439	0.2508	0.25451	0.15381	0.36645	-3.25	-2.9896	-3.4458	-3.5229	-3.0875	-3.4792	-3.4396	-3.3667	-3.5417	-3.0854	-3.5375	-3.5479	-3.3375	-3.7583	-3.4271	-3.4813	-72.057	-2.650	-33.943	202.362	201.611	-13.780	83.389	100.859	117.902	73.253	130.807	154.414	177.106	166.236	33.041	89.536	0.001418	0.00080406	0.00017162	641.44	4.7463e-06	3.6162e-06	895.12	283.91	6.903e-06	4.5928e-06	434.93	229.86	147.94	66.799	2.6143e-06	112.95	0.00020785	0.0001708	5.2146e-05	603.85	1.7288e-06	1.8528e-06	840.87	265.76	1.6789e-06	1.9866e-06	405.2	213.75	137.62	62.511	2.1477e-06	105.37	164.166	-65.564	-81.061	-142.101	-44.651	17.309	-143.111	-138.228	-61.277	-34.711	-139.214	-137.174	-136.053	-130.827	7.003	-132.656	-8191	255	
2386.618	1	1	0	0	0.29665	0.17366	0.08945	0.16249	0.10203	0.13447	0.20469	0.24855	0.029778	0.050003	0.07816	0.027602	0.27658	0.23655	0.081911	0.1959	-3.1604	-3.1771	-3.3604	-3.4979	-3.1917	-3.7687	-3.3583	-3.2875	-3.55	-3.3021	-3.2667	-3.6896	-3.0563	-3.7167	-3.2896	-3.3396	-83.856	-73.101	31.981	-132.554	-46.636	40.542	201.239	144.319	158.686	-0.812	174.085	195.244	167.519	-154.042	16.524	185.249	0.0012842	0.00058579	0.00015568	637.4	4.9432e-06	3.4711e-06	886.03	281.65	5.2296e-06	8.5284e-06	429.69	228.23	147.86	67.163	5.0314e-06	113.45	0.00021238	0.00019145	5.2807e-05	597.8	1.7952e-06	2.0777e-06	833.18	263.67	1.7899e-06	2.1357e-06	401.61	212.72	137.41	62.789	1.942e-06	105.62	164.186	-73.255	-71.105	-142.425	2.252	-32.018	-143.085	-138.145	-68.125	-41.209	-139.583	-137.072	-135.963	-130.869	7.978	-132.954	-8191	255	
2386.690	1	1	0	0	0.10809	0.45899	0.20204	0.049042	0.064058	0.092046	0.20031	0.23266	0.15087	0.18791	0.27569	0.10786	0.15219	0.22935	0.20009	0.22571	-3.2604	-3.2958	-3.2083	-3.6375	-3.325	-3.6375	-3.6833	-3.0875	-3.4333	-3.3333	-3.4229	-3.6479	-3.3729	-3.6458	-3.5229	-3.3021	-2.282	81.571	-34.799	-56.284	-55.371	15.384	174.276	139.813	64.678	38.683	195.339	187.011	98.341	170.209	26.638	110.772	0.0012689	0.00075264	0.00021526	639.04	4.4645e-06	4.4926e-06	887.75	282.09	5.2971e-06	3.518e-06	433.58	227.88	147.17	66.904	6.2019e-06	113.79	0.00021332	0.00018876	4.8449e-05	598.32	1.759e-06	2.0375e-06	832.96	263.34	1.6419e-06	1.9297e-06	402.64	212.6	137.04	62.67	1.7386e-06	105.84	162.957	-69.734	-47.413	-142.015	-28.516	9.389	-142.967	-138.112	-48.477	21.345	-139.451	-136.923	-136.204	-130.693	-9.223	-132.955	-8191	255	
2386.809	1	1	0	0	0.201	0.13004	0.074341	0.15386	0.15007	0.093953	0.19368	0.071345	0.086484	0.16042	0.29733	0.041909	0.25584	0.033403	0.20366	0.053185	-3.2625	-3.2229	-3.3354	-3.5875	-3.0458	-3.3854	-3.6333	-3.075	-3.4646	-3.3667	-3.1021	-3.5062	-3.2938	-3.4479	-3.3146	-3.4396	37.193	145.969	58.937	-66.533	-51.904	-50.095	104.104	38.387	164.580	84.679	144.148	-27.830	-147.330	153.587	157.383	187.804	0.0013406	0.00049792	0.00023586	635	3.7247e-06	4.4995e-06	889.56	280.99	7.8313e-06	5.6652e-06	432.63	228.71	146.82	66.617	2.7106e-06	113.46	0.00020679	0.00017467	4.4166e-05	595.38	1.7469e-06	1.8609e-06	832.36	262.46	1.761e-06	1.8287e-06	401.79	212.81	136.87	62.35	1.664e-06	105.61	162.497	-76.565	-71.845	-142.155	-24.947	24.099	-143.030	-138.004	-62.445	23.532	-139.404	-136.868	-136.057	-130.811	-26.078	-132.869	-8191	255	
2386.905	1	1	0	0	0.12072	0.11358	0.086081	0.28675	0.15968	0.13505	0.17524	0.28346	0.13468	0.10621	0.22834	0.32658	0.29027	0.1041	0.15062	0.26299	-3.3271	-3.4021	-3.1958	-3.6104	-3.0958	-3.2292	-3.7521	-3.2146	-3.5833	-3.4313	-3.3104	-3.6229	-3.2833	-3.4021	-3.5875	-3.3792	-117.511	-88.973	29.767	-117.189	100.980	178.912	132.079	179.092	-18.331	19.332	-133.991	181.029	133.280	-132.615	68.854	129.380	0.0014695	0.00069487	0.00019113	638.17	3.6741e-06	4.4097e-06	885.64	285.64	6.6881e-06	7.1509e-06	437.25	232.27	149.16	67.955	4.6158e-06	115.05	0.00022307	0.00017128	4.2936e-05	597.45	1.9267e-06	1.8612e-06	836.7	266.4	1.95e-06	1.8216e-06	407.24	215.58	138.92	63.499	1.6652e-06	107.22	164.972	-63.536	-76.245	-142.381	-37.525	-27.929	-142.981	-138.315	-48.197	36.310	-139.536	-137.099	-135.860	-130.842	-33.529	-132.707	-8191	255	
2387.001	1	1	0	0	0.084424	0.13139	0.21257	0.1198	0.065664	0.23285	0.26511	0.035136	0.07256	0.10882	0.25122	0.14789	0.22745	0.2012	0.12721	0.22114	-3.1813	-3.4229	-2.9771	-3.6146	-3.3021	-3.3458	-3.7604	-3.325	-3.4375	-3.3896	-3.0833	-3.7687	-3.4417	-3.4958	-3.5917	-3.3708	181.302	-27.078	162.839	114.358	197.967	-109.429	144.055	93.381	15.008	-113.266	154.646	202.270	143.223	138.978	43.198	81.136	0.0014043	0.00062669	0.00023562	645.44	4.2553e-06	8.9406e-06	902.58	289.96	5.6393e-06	8.9018e-06	444.4	235.26	149.79	68.376	5.6013e-06	116.38	0.00023638	0.00016986	4.3505e-05	605.09	2.0444e-06	1.8274e-06	850.42	270.54	2.0742e-06	1.8171e-06	413.13	218.34	140.07	64.001	1.6821e-06	108.99	164.856	-58.918	-71.510	-142.195	-27.484	-20.992	-142.937	-138.360	-9.876	-0.410	-139.473	-136.951	-135.973	-130.735	-17.479	-132.873	-8191	255	
2387.099	1	1	0	0	0.20104	0.22301	0.068692	0.24854	0.096983	0.12961	0.13235	0.32642	0.066158	0.31277	0.1851	0.23835	0.10334	0.13062	0.31855	0.15936	-3.1042	-3.4021	-3.0438	-3.6479	-3.3563	-3.0396	-3.7854	-3.1896	-3.3688	-3.4813	-3.2479	-3.65	-3.4625	-3.4813	-3.65	-3.3042	-149.818	174.552	123.998	168.790	115.504	119.102	-111.799	113.889	-13.110	59.428	179.187	85.788	180.818	129.354	161.553	120.335	0.0013974	0.00070434	0.00021776	657.18	6.0408e-06	5.8158e-06	923.68	296.26	1.8008e-06	6.9777e-06	450.46	239.49	152.81	69.219	1.6711e-06	118.13	0.00024145	0.00016085	4.3579e-05	615.88	2.0362e-06	1.8387e-06	869.13	277.51	2.1204e-06	1.8404e-06	420.54	222.36	142.1	64.726	1.8242e-06	110.38	168.477	-87.743	-82.921	-141.920	2.959	-32.938	-142.774	-138.434	-29.096	-16.147	-139.618	-136.985	-135.774	-130.794	-32.277	-132.679	-8191	255	
2387.218	1	1	0	0	0.28831	0.079389	0.19905	0.13335	0.095009	0.1214	0.15334	0.15473	0.15932	0.25111	0.24385	0.087491	0.20725	0.33798	0.1674	0.28076	-2.9396	-3.4104	-3.0938	-3.4292	-3.5	-3.1354	-3.6312	-3.4375	-3.2104	-3.6479	-3.2833	-3.675	-3.5208	-3.4396	-3.6729	-3.4896	-93.326	195.942	8.022	83.728	19.622	110.703	-134.575	37.707	-121.836	183.851	167.254	-144.324	178.572	160.571	66.973	117.519	0.0013894	0.00059953	0.00020165	665.56	4.8426e-06	3.7174e-06	942.93	303.22	8.0446e-06	4.7051e-06	460.87	244.65	156.13	70.58	6.8186e-06	120.43	0.00025294	0.0001751	4.9134e-05	626.34	2.2264e-06	2.0645e-06	888.61	284.51	2.4447e-06	2.1176e-06	429.99	227.73	146.18	66.358	2.271e-06	112.54	160.774	-64.870	-50.994	-142.069	-39.784	-17.023	-142.828	-138.583	-17.974	-12.671	-139.711	-136.812	-135.713	-130.753	-40.854	-132.809	-8191	255	
2387.314	1	1	0	0	0.22182	0.12409	0.19213	0.26224	0.18772	0.17858	0.074534	0.25035	0.1616	0.13573	0.14918	0.19504	0.26151	0.42605	0.12105	0.20662	-3.0312	-3.6479	-3.1937	-3.6042	-3.3708	-3.3542	-3.8896	-3.4771	-3.3021	-3.425	-3.2521	-3.4437	-3.5542	-3.4188	-3.65	-3.5583	148.141	-28.537	-149.607	14.673	111.589	167.156	152.462	-103.129	124.782	-145.423	134.006	115.460	155.183	169.982	-100.128	-88.913	0.0014061	0.00068503	0.00033434	688.82	5.4242e-06	1.0439e-05	964.22	308.9	7.9078e-06	9.4387e-06	467.52	247.65	159.95	72.029	2.8696e-06	121.52	0.00027629	0.00020069	6.1357e-05	649.63	2.497e-06	2.4116e-06	910.66	291.03	2.7198e-06	2.4615e-06	436.79	231.08	149.4	67.681	2.9759e-06	114.09	163.302	-79.049	-79.036	-142.216	-13.498	-5.860	-142.806	-138.395	-59.064	-23.233	-139.871	-136.858	-136.110	-131.022	-94.849	-132.625	-8191	255	
2387.410	1	1	0	0	0.30715	0.38179	0.22052	0.16643	0.15278	0.17858	0.012382	0.31411	0.081025	0.176	0.23891	0.25538	0.14594	0.38036	0.19284	0.29641	-2.9938	-3.5854	-3.1604	-3.5458	-3.6	-3.0896	-3.7375	-3.5271	-3.1979	-3.4854	-3.2833	-3.4771	-3.725	-3.3021	-3.3812	-3.6458	77.045	-155.252	151.129	-139.612	103.814	43.319	-45.526	193.393	44.959	114.463	174.016	176.664	-122.352	166.463	-84.147	192.321	0.001523	0.00086838	0.00021883	701.58	7.265e-06	3.3253e-06	985.46	314.64	6.7783e-06	5.9168e-06	472.76	251.45	162.64	73.491	2.2056e-06	124.74	0.0003163	0.00023281	7.708e-05	663.5	2.8114e-06	2.6678e-06	929.74	295.92	2.9325e-06	2.6651e-06	444.37	235.24	151.99	69.001	3.3115e-06	116.64	162.667	-59.676	-87.235	-142.251	-24.595	-23.817	-142.965	-138.949	-18.801	8.783	-139.850	-136.987	-136.087	-131.033	-37.798	-132.675	-8191	255	
2387.506	1	1	0	0	0.13586	0.09877	0.19056	0.11146	0.11708	0.22841	0.17439	0.17261	0.11647	0.09785	0.042128	0.030954	0.080492	0.013885	0.092141	0.19285	-2.7396	-3.5979	-3.1813	-3.4521	-3.4479	-3.2146	-3.7542	-3.4729	-3.025	-3.6167	-3.3979	-3.5229	-3.6896	-3.0958	-3.4542	-3.8292	-34.072	-107.990	19.314	66.317	186.573	129.841	152.609	105.303	131.573	-47.506	-147.006	-72.329	144.811	173.045	-43.250	-141.658	0.0014951	0.00035174	0.00018786	715.78	5.9666e-06	5.7393e-06	1008.4	320.92	7.9382e-06	7.3618e-06	486.24	256.83	165.83	75.399	5.5138e-06	128.19	0.00031391	0.00024655	8.3803e-05	679.34	2.7067e-06	2.7742e-06	949.86	301.56	2.8357e-06	2.7255e-06	453.45	240.08	154.99	70.859	3.1195e-06	119.46	164.342	-114.098	-88.638	-141.995	-29.598	-47.966	-143.051	-138.916	-63.620	-3.617	-139.867	-136.927	-136.078	-130.929	-20.125	-132.883	-8191	255	
2387.603	1	1	0	0	0.097067	0.0047218	0.12132	0.10324	0.3017	0.19048	0.069887	0.15164	0.15153	0.15503	0.16556	0.2306	0.0529	0.17277	0.13592	0.415	-2.7625	-3.4958	-3.3333	-3.3	-3.5062	-3.3417	-3.5479	-3.5458	-3.2	-3.5708	-3.4333	-3.2333	-3.6562	-3.3083	-3.4125	-3.6688	159.184	-129.812	-101.526	-23.254	118.218	-120.512	-92.779	71.450	110.929	158.755	-106.783	177.722	142.480	-105.194	-44.225	182.118	0.0015163	0.00070892	0.00014888	736.61	5.6197e-06	2.7747e-06	1018.8	325.25	9.2268e-06	6.8911e-06	491.66	262.08	169.74	77.918	9.1287e-06	131.06	0.00029311	0.00024905	7.7844e-05	691.34	2.479e-06	2.7526e-06	963.36	305.54	2.5476e-06	2.7125e-06	458.94	244.24	158.42	73.152	2.8965e-06	122.33	166.276	-110.761	-45.541	-142.366	-16.342	-26.412	-143.274	-138.833	-10.687	-14.922	-139.688	-137.074	-136.068	-130.931	-29.893	-132.971	-8191	255	
2387.699	1	1	0	0	0.12709	0.037846	0.18702	0.22856	0.24204	0.25448	0.12896	0.24989	0.08316	0.092086	0.2871	0.38889	0.24933	0.31718	0.10662	0.18546	-2.775	-3.5104	-3.3875	-3.3438	-3.6937	-3.2208	-3.5458	-3.5396	-3.0354	-3.4062	-3.4437	-3.5604	-3.6354	-3.5021	-3.3604	-3.7875	175.387	-65.657	-17.366	-87.263	-78.245	-16.701	128.490	198.946	-84.107	69.203	124.810	152.830	192.015	181.573	-106.362	175.775	0.0015053	0.00061513	0.0001203	746.78	5.6792e-06	1.0118e-05	1035.4	331.91	6.9622e-06	1.2936e-05	498.38	266.81	172.32	79.684	5.6429e-06	134.04	0.00028345	0.00025591	7.1417e-05	702.47	2.3466e-06	2.8674e-06	976.3	310.15	2.5035e-06	2.903e-06	465.28	248.6	160.96	74.635	2.9831e-06	124.81	161.109	-65.910	-57.770	-142.419	-9.784	-36.447	-143.207	-139.056	-62.928	-1.595	-139.644	-137.188	-136.220	-131.182	-35.428	-132.826	-8191	255	
2387.819	1	1	0	0	0.22049	0.13981	0.10894	0.026777	0.20091	0.18515	0.24648	0.054504	0.13307	0.058815	0.055992	0.18242	0.19168	0.13779	0.14422	0.21121	-2.8708	-3.3771	-3.3208	-3.2062	-3.5396	-3.4333	-3.3521	-3.7313	-3.0875	-3.5333	-3.4375	-3.2375	-3.6813	-3.475	-3.2417	-3.5792	117.325	178.146	123.215	127.675	-107.408	60.865	79.236	138.129	154.249	-97.889	200.769	149.601	108.736	-150.922	4.073	131.399	0.0015857	0.00079782	0.00015546	758.72	4.5641e-06	4.769e-06	1049	334.59	7.8962e-06	3.9672e-06	501.41	268.38	173.49	80.336	8.2114e-06	135.45	0.00030874	0.00029225	7.4602e-05	714.64	2.694e-06	3.2001e-06	987.35	312.21	2.8856e-06	3.2887e-06	468.25	250.02	162.09	75.597	3.0865e-06	126.42	162.034	-58.226	-71.399	-142.307	-43.575	-16.247	-143.187	-138.911	-43.209	11.491	-139.591	-137.096	-136.082	-131.022	-2.289	-132.904	-8191	255	
2387.914	1	1	0	0	0.13293	0.21974	0.038876	0.043809	0.11946	0.24128	0.032807	0.15466	0.20535	0.11159	0.17408	0.24103	0.026204	0.099469	0.28858	0.38956	-2.7479	-3.5667	-3.4646	-3.225	-3.3854	-3.3646	-3.4271	-3.7229	-3.2333	-3.3521	-3.6667	-3.3875	-3.6021	-3.6042	-3.2042	-3.5646	-73.789	-108.361	103.239	33.812	-120.051	200.425	152.072	-10.798	79.561	90.722	167.096	162.099	58.909	202.042	83.281	137.025	0.0017107	0.00084398	0.00020882	763.04	5.4607e-06	8.183e-06	1052.4	333.92	6.5245e-06	8.8115e-06	504.15	270.57	175.64	81.833	6.6152e-06	137.65	0.0003442	0.00030774	7.4692e-05	719	3.0196e-06	3.2231e-06	991.79	313.83	3.0261e-06	3.0582e-06	471.06	252.64	163.91	76.809	2.6952e-06	128.51	166.600	-60.164	-44.657	-142.623	-30.297	15.396	-143.100	-138.955	-48.676	-40.097	-139.542	-137.109	-136.093	-130.772	-3.635	-133.062	-8191	255	
2388.010	1	1	0	131072	0.18614	0.091063	0.098403	0.057018	0.037374	0.12846	0.21072	0.26116	0.11621	0.11382	0.078055	0.23571	0.44586	0.28035	0.15696	0.16816	-2.9521	-3.4	-3.3146	-3.2896	-3.5187	-3.4396	-3.2521	-3.7812	-3.2354	-3.275	-3.7292	-3.3333	-3.7208	-3.6167	-3.1125	-3.8083	-113.105	-90.481	-119.643	66.423	85.176	111.143	166.061	193.458	73.210	-63.235	-34.768	180.627	197.680	195.593	-3.973	112.433	0.0016895	0.00072785	0.000205	767.32	7.25e-06	9.9543e-06	1061.5	338.47	1.1615e-05	5.3884e-06	507.81	273.91	178.42	83.224	8.6843e-06	140	0.00032361	0.00025385	6.1801e-05	721.79	2.7272e-06	2.5562e-06	997.41	315.88	2.6127e-06	2.4134e-06	472.85	254.81	165.91	78.049	2.0848e-06	130.7	164.206	-79.845	-80.815	-142.066	-22.444	-39.628	-143.071	-138.775	-38.385	-2.979	-139.635	-137.207	-136.051	-131.110	-24.842	-133.065	-8191	255	
2388.106	1	1	0	131072	0.099031	0.20149	0.18972	0.063853	0.073292	0.11518	0.099955	0.25431	0.092614	0.1406	0.1636	0.17686	0.079568	0.46971	0.065678	0.28941	-3.0125	-3.4104	-3.6813	-3.2521	-3.3167	-3.4521	-3.1688	-3.5583	-3.4437	-3.3625	-3.5583	-3.375	-3.5354	-3.6208	-3.3063	-3.7104	-5.341	57.870	81.199	149.429	-10.166	-0.359	201.950	189.855	-37.587	88.010	157.791	174.529	50.957	152.639	-103.390	94.878	0.0017213	0.00077352	0.00031383	776	7.8187e-06	5.4734e-06	1065.9	341.24	6.7248e-06	8.7729e-06	512.74	276.81	179.6	84.724	4.4823e-06	142.07	0.00028148	0.00019684	4.7367e-05	726.05	2.2462e-06	1.9968e-06	999.95	318.58	2.2192e-06	1.956e-06	476.94	257.67	167.29	79.301	1.905e-06	132.98	161.901	-61.665	-67.841	-142.381	-11.783	-18.590	-143.305	-138.903	-40.716	-17.402	-139.913	-137.220	-136.105	-130.984	-28.164	-133.065	-8191	255	
2388.202	1	1	0	131072	0.093085	0.047865	0.13704	0.37397	0.13431	0.17774	0.1672	0.17852	0.20584	0.16432	0.0089412	0.097024	0.068758	0.15283	0.19474	0.37859	-2.8021	-3.2271	-3.7438	-3.1104	-3.5708	-3.3937	-3.0479	-3.5875	-3.3187	-3.1875	-3.5771	-3.4042	-3.5687	-3.65	-3.0208	-3.6437	99.312	-55.458	164.853	158.919	162.749	95.125	146.486	-153.818	-3.896	160.203	-29.187	121.992	142.316	-155.735	-39.458	143.056	0.0017573	0.00055598	0.0002328	778.42	7.1185e-06	9.4086e-06	1074	343.44	8.0831e-06	1.0409e-05	515.58	279.82	180.78	85.418	6.2274e-06	142.98	0.00026571	0.00017818	4.3971e-05	731.41	2.1384e-06	1.8804e-06	1008.2	320.73	2.1228e-06	1.9043e-06	479.56	259.78	168.32	79.714	1.8559e-06	133.79	163.922	-61.235	-52.063	-142.314	4.289	-20.762	-143.069	-138.846	-45.871	-16.423	-139.964	-137.087	-136.100	-131.158	-23.680	-132.976	-8191	255	
2388.298	1	1	0	131072	0.17307	0.10335	0.095707	0.12182	0.098021	0.26578	0.2568	0.1634	0.15729	0.087276	0.21256	0.30776	0.30725	0.24988	0.087532	0.35846	-2.8854	-3.1646	-3.2146	-3.2375	-3.3333	-3.4479	-3.3063	-3.5771	-3.3396	-3.1063	-3.6688	-3.4333	-3.4313	-3.7271	-3.1375	-3.7188	-133.245	-70.954	-27.997	-105.615	-92.252	165.690	93.269	-13.595	-20.592	9.964	188.906	158.428	139.158	178.259	-30.956	113.332	0.0017167	0.001011	0.0002553	780.67	7.2158e-06	5.4213e-06	1079.1	344.48	5.5734e-06	1.1186e-05	515.16	278.88	181.48	84.925	5.3279e-06	142.24	0.00025807	0.00017466	4.6067e-05	732.54	2.0965e-06	1.822e-06	1010.6	320.91	2.0527e-06	1.8909e-06	480.15	260.32	168.72	79.608	2.0162e-06	133.44	163.378	-94.021	-68.715	-142.245	-9.363	9.074	-142.984	-138.850	-41.672	-1.216	-139.764	-137.050	-136.574	-131.061	-36.146	-133.034	-8191	255	
2388.395	1	1	0	131072	0.16132	0.17455	0.12673	0.061295	0.044312	0.17315	0.10738	0.3105	0.095778	0.07137	0.32673	0.056722	0.32937	0.37858	0.035671	0.3783	-3.1104	-2.9229	-3.3146	-3.1979	-3.2687	-3.5271	-3.2854	-3.4479	-3.5062	-3.2562	-3.6312	-3.3896	-3.3604	-3.9667	-3.25	-3.6271	-140.347	195.180	72.686	126.101	-113.219	54.194	97.312	134.565	95.114	50.154	147.387	-141.875	200.700	170.230	-109.603	167.277	0.0016322	0.00081798	0.00031457	783.23	6.2329e-06	5.7827e-06	1076.8	344.43	8.0015e-06	5.1626e-06	513.63	279.61	180.95	85.255	7.3111e-06	142.67	0.00025407	0.0001772	5.1161e-05	734.42	2.0887e-06	1.7898e-06	1009	321.26	1.9998e-06	1.8455e-06	478.82	260.03	168.56	79.873	2.1908e-06	133.55	161.336	-65.635	-73.316	-142.512	-21.446	-30.675	-143.139	-139.079	-38.028	-33.481	-139.664	-137.177	-136.022	-131.124	-42.783	-132.988	-8191	255	
2388.515	1	1	0	131072	0.057681	0.27542	0.19046	0.13323	0.15969	0.21362	0.17493	0.21942	0.030746	0.26219	0.3563	0.38942	0.059842	0.22126	0.12049	0.097785	-3.1063	-3.0729	-3.4854	-3.5229	-3.125	-3.6312	-3.2479	-3.4375	-3.4792	-3.1208	-3.5771	-3.3625	-3.3792	-3.5729	-3.1417	-3.5438	-124.318	103.787	71.180	-122.635	90.764	-119.989	151.922	167.463	-128.575	92.568	138.573	155.491	29.747	180.594	-128.268	133.373	0.0017565	0.00058949	0.00016354	781.9	5.7262e-06	7.0968e-06	1076.8	342.28	5.5853e-06	1.0036e-05	516.38	280	181.95	85.87	4.0511e-06	142.69	0.00025095	0.000174	5.5526e-05	735.08	1.977e-06	1.8056e-06	1009.2	320.83	1.9038e-06	1.8713e-06	481.84	260.59	169.28	80.292	2.207e-06	134.24	165.491	-92.305	-79.674	-142.579	-13.240	-22.407	-143.156	-138.826	-38.544	10.475	-139.486	-137.276	-136.230	-131.085	-30.228	-133.010	-8191	255	
2388.611	1	1	0	131072	0.17741	0.078745	0.11613	0.046843	0.15578	0.20512	0.18614	0.2155	0.055109	0.097704	0.2564	0.11878	0.050567	0.38873	0.21756	0.19673	-3.2521	-2.9979	-3.3896	-3.4042	-2.9896	-3.5542	-3.4625	-3.2979	-3.5146	-3.1229	-3.5187	-3.4125	-3.175	-3.8417	-3.1208	-3.3896	159.512	19.001	146.340	78.120	-77.442	50.595	125.189	133.579	138.793	109.443	169.466	170.769	173.603	151.255	112.758	141.279	0.0017376	0.00050739	0.00015913	783.55	2.5514e-06	4.3781e-06	1079.2	342.97	1.2282e-05	6.9595e-06	519.36	282.18	182.24	86.309	6.2561e-06	143.13	0.00023481	0.00016839	5.4515e-05	735.09	1.8013e-06	1.7685e-06	1016.1	320.78	1.7309e-06	1.7841e-06	484.27	262.09	169.42	80.616	2.0415e-06	134.75	161.971	-59.709	-76.371	-142.458	-39.990	-38.861	-143.071	-138.601	-48.497	6.250	-139.240	-137.131	-136.117	-130.907	-31.206	-133.044	-8191	255	
2388.683	1	1	0	131072	0.14029	0.17642	0.14603	0.47765	0.022484	0.20644	0.13717	0.20851	0.17817	0.044359	0.033029	0.32208	0.28632	0.19866	0.072011	0.34351	-3.0604	-3.1854	-3.3125	-3.4437	-2.925	-3.525	-3.3229	-3.3187	-3.7146	-3.2208	-3.6792	-3.45	-3.3167	-3.7938	-3.3604	-3.55	-37.704	-145.379	22.745	-4.485	119.974	139.871	144.552	100.281	-76.475	97.047	202.906	166.940	195.842	127.113	-118.813	119.016	0.0017681	0.00055965	0.00027727	781.01	6.99e-06	7.7055e-06	1083	343.16	7.7191e-06	9.62e-06	515.16	279.91	181.21	85.739	4.0864e-06	142.75	0.00021691	0.00016595	5.0667e-05	732.81	1.6447e-06	1.7714e-06	1013.3	319.63	1.5667e-06	1.7548e-06	480.24	260.24	168.27	80.123	1.8567e-06	133.95	163.752	-81.553	-84.420	-142.615	-4.332	-10.211	-143.388	-138.857	-27.241	7.820	-139.862	-137.152	-136.117	-131.070	-33.881	-132.841	-8191	255	
2388.779	1	1	0	131072	0.2134	0.20524	0.19105	0.079438	0.11631	0.1298	0.15635	0.33693	0.13231	0.18642	0.10407	0.43253	0.094422	0.16938	0.012099	0.25382	-3.2167	-3.0979	-3.3042	-3.5333	-3.1708	-3.6125	-3.6063	-3.2771	-3.4604	-3.2854	-3.4688	-3.6396	-3.2479	-3.8729	-3.5104	-3.5833	-35.185	58.845	-41.309	174.711	5.983	77.849	85.178	-130.041	94.348	-49.019	167.417	157.442	18.858	132.056	-105.062	144.447	0.0017767	0.00083687	0.00020228	778.81	6.8286e-06	8.2802e-06	1070.4	340.05	8.3466e-06	5.8173e-06	513.8	278.37	181.06	85.295	5.0807e-06	142.77	0.00021279	0.0001672	4.7227e-05	727.96	1.586e-06	1.8315e-06	1004.3	316.53	1.5271e-06	1.7963e-06	477.14	258.25	167.46	79.815	1.7207e-06	133.69	163.068	-94.234	-54.643	-142.463	-3.995	-8.797	-143.183	-139.041	-51.705	31.255	-139.564	-137.153	-136.051	-130.915	0.772	-132.959	-8191	255	
2388.898	1	1	0	131072	0.11795	0.20063	0.25775	0.30925	0.18608	0.10226	0.1254	0.053096	0.038753	0.14123	0.10215	0.31068	0.23055	0.29671	0.0201	0.19433	-3.0542	-3.2521	-3.2396	-3.4771	-3.1333	-3.4479	-3.75	-3.3042	-3.6083	-3.2542	-3.2062	-3.8021	-3.3354	-3.5271	-3.5417	-3.3979	116.866	70.175	-69.622	141.697	-85.313	-63.528	146.776	35.313	-73.551	-115.167	-108.665	177.149	185.889	188.116	101.816	118.410	0.0017817	0.00080836	0.00021139	777.52	5.5894e-06	8.0596e-06	1073.3	341.26	5.6393e-06	7.7659e-06	515.03	279.39	180.33	85.719	5.626e-06	143.33	0.00020895	0.00016449	4.2618e-05	725.59	1.6025e-06	1.7662e-06	1004.8	317.51	1.5818e-06	1.715e-06	478.25	259.13	167.87	80.223	1.5459e-06	134.67	163.350	-88.392	-69.275	-142.205	-9.518	-40.873	-143.261	-139.027	-48.901	-11.559	-139.549	-136.913	-136.189	-131.023	-24.229	-133.238	-8191	255	
2388.994	1	1	0	131072	0.11751	0.15345	0.018557	0.17852	0.20584	0.059577	0.12962	0.18574	0.23373	0.11945	0.14195	0.38965	0.14161	0.36327	0.15561	0.23812	-3.2854	-3.1688	-3.15	-3.6667	-3.0438	-3.4062	-3.6708	-3.1	-3.3896	-3.1	-3.2208	-3.7979	-3.3354	-3.6729	-3.2646	-3.4333	71.499	71.258	5.897	168.492	172.409	56.168	143.496	154.708	-11.457	183.967	164.069	149.945	108.842	177.484	-138.718	152.204	0.0018297	0.00068646	0.00025308	776.86	4.6886e-06	8.3155e-06	1076.4	341.53	7.452e-06	9.0919e-06	515.97	278.73	180.93	86.202	6.593e-06	143.33	0.00021718	0.00015785	3.9539e-05	726.04	1.6591e-06	1.7443e-06	1006.7	317.67	1.665e-06	1.7107e-06	478.33	259.23	167.93	80.542	1.5826e-06	134.91	161.665	-77.683	-65.683	-142.494	19.763	-18.083	-143.223	-138.914	-30.448	12.505	-139.574	-137.147	-136.133	-131.079	-35.301	-133.065	-8191	255	
2389.090	1	1	0	131072	0.053727	0.037166	0.32222	0.19836	0.29512	0.16535	0.20766	0.3514	0.14585	0.10383	0.17065	0.2736	0.06989	0.34146	0.18135	0.23923	-3.025	-3.1979	-3.0771	-3.6875	-3.1417	-3.2083	-3.7958	-3.1229	-3.5479	-3.4625	-3.1729	-3.7812	-3.3146	-3.5354	-3.6167	-3.5187	180.507	142.387	175.374	-26.227	53.524	-80.923	196.717	166.937	175.569	106.820	-153.275	164.440	178.503	-150.813	-57.134	153.567	0.0017693	0.00069671	0.00025795	777.16	8.168e-06	8.3182e-06	1073.6	340.41	4.2981e-06	1.0715e-05	514.9	279.38	179.52	86.094	5.0913e-06	143.06	0.00023134	0.00015838	4.0808e-05	727.4	1.8223e-06	1.6985e-06	1007.5	317.05	1.814e-06	1.6894e-06	476.95	259.19	167.66	80.558	1.5752e-06	134.72	160.058	-54.655	-46.040	-142.565	-21.999	-8.903	-143.220	-138.724	-51.116	3.418	-139.814	-137.022	-136.161	-131.218	-3.799	-133.001	-8191	255	
2389.211	1	1	0	131072	0.13923	0.13213	0.29944	0.34784	0.22248	0.18711	0.16368	0.1494	0.27124	0.12921	0.24116	0.14027	0.23643	0.45431	0.15007	0.19584	-3	-3.3312	-3.0438	-3.6771	-3.1875	-3.3083	-3.7188	-3.2188	-3.3958	-3.4375	-3.2646	-3.6125	-3.375	-3.3583	-3.6042	-3.4375	-46.762	-24.129	199.365	-148.776	-111.333	101.028	10.204	159.655	-53.185	130.945	101.456	-152.990	-137.805	153.446	-119.143	-147.214	0.0018838	0.00084751	0.00025291	780.19	6.9237e-06	5.9261e-06	1075	341.08	1.0228e-05	6.1786e-06	513.23	278.95	180.8	86.572	7.2166e-06	143.08	0.00023973	0.00014864	3.8937e-05	728.33	1.8001e-06	1.5822e-06	1004.2	317.23	1.7831e-06	1.5467e-06	475.96	259.11	168.4	80.908	1.4765e-06	135.17	163.779	-55.681	-70.959	-142.237	-38.947	-23.990	-142.969	-138.821	-49.824	6.346	-139.524	-137.152	-135.960	-131.057	-34.659	-133.188	-8191	255	
2389.283	1	1	0	131072	0.05794	0.24017	0.08128	0.11985	0.12353	0.36636	0.060183	0.19918	0.17512	0.13575	0.23524	0.32936	0.047963	0.27136	0.16064	0.12825	-3.0833	-3.3042	-3.0875	-3.8167	-3.2333	-3.0958	-3.8042	-3.5083	-3.3708	-3.4854	-3.1937	-3.6396	-3.3271	-3.3937	-3.6521	-3.5583	-146.350	-21.918	-86.940	130.081	37.215	-149.924	-128.591	170.065	-101.015	131.731	106.169	182.195	152.977	146.778	97.578	165.129	0.001819	0.00064562	0.00026803	786.65	7.627e-06	9.765e-06	1079.7	343.21	7.5617e-06	5.9776e-06	512.98	281.36	181.96	88.506	7.2756e-06	144.32	0.00023011	0.00013799	3.725e-05	733.74	1.7256e-06	1.5192e-06	1008.5	319.91	1.6961e-06	1.4117e-06	476.57	261.38	169.22	82.396	1.4292e-06	137.19	166.375	-72.540	-74.231	-142.288	-34.192	-27.834	-143.190	-138.771	-30.421	-6.629	-139.513	-136.926	-136.144	-131.043	-22.595	-132.930	-8191	255	
2389.379	1	1	0	131072	0.12725	0.015496	0.096062	0.23596	0.018702	0.21327	0.18526	0.16476	0.11576	0.23418	0.2776	0.31592	0.22031	0.26778	0.1754	0.1796	-2.7875	-3.4792	-2.9188	-3.5125	-3.3542	-3.0438	-3.7021	-3.3958	-3.25	-3.6188	-3.3104	-3.625	-3.4688	-3.3604	-3.4792	-3.4292	142.424	54.051	-129.331	178.093	144.809	-45.872	98.296	49.066	-34.207	-74.745	150.013	184.648	196.328	130.929	-100.916	140.457	0.0017918	0.00043285	0.00026696	789.5	6.2017e-06	4.6491e-06	1075.4	341.6	7.8902e-06	1.0225e-05	514.71	283.48	182.88	89.017	4.5463e-06	144.61	0.00021385	0.00012335	3.5721e-05	738.49	1.4987e-06	1.3828e-06	1007.7	319.05	1.467e-06	1.3004e-06	476.48	263.13	169.82	83.286	1.4125e-06	138.67	162.394	-61.298	-59.619	-142.580	-5.767	-20.778	-142.989	-138.557	-44.985	-2.166	-139.700	-137.186	-135.939	-130.999	-39.912	-132.971	-8191	255	
2389.499	1	1	0	131072	0.17251	0.059343	0.23992	0.28107	0.24879	0.10283	0.056477	0.13511	0.17436	0.064439	0.2527	0.10648	0.026907	0.2419	0.20994	0.31139	-2.7917	-3.6083	-3.0938	-3.3146	-3.4604	-3.2792	-3.5542	-3.3146	-3.4667	-3.5042	-3.1917	-3.7396	-3.525	-3.3917	-3.5479	-3.3854	135.209	-110.949	17.065	113.079	144.125	176.522	177.231	182.009	21.371	-5.196	124.413	-134.264	-27.105	113.703	56.205	180.496	0.0018641	0.00069458	0.00021316	792.51	6.7757e-06	6.9753e-06	1078.2	341.64	7.5779e-06	9.4164e-06	511.08	281.24	181.22	89.488	5.1856e-06	144.48	0.00020975	0.00011393	3.5516e-05	740.2	1.3462e-06	1.2717e-06	1009.2	318.38	1.3639e-06	1.194e-06	472.82	261.1	168.2	83.357	1.4457e-06	137.88	162.371	-75.486	-62.526	-142.574	-40.904	-18.363	-142.948	-138.537	-25.275	-11.700	-139.470	-137.033	-136.020	-131.030	-16.308	-133.179	-8191	255	
2389.596	1	1	0	131072	0.13119	0.12402	0.12598	0.12677	0.05185	0.10248	0.13663	0.21494	0.10194	0.11321	0.22434	0.21601	0.19236	0.28193	0.13643	0.4119	-2.8312	-3.4604	-3.1833	-3.3417	-3.5	-3.1292	-3.6104	-3.2042	-3.0625	-3.6167	-3.3375	-3.6292	-3.7833	-3.4333	-3.4146	-3.5167	-35.412	173.945	-17.195	178.722	111.839	100.642	92.758	127.928	-42.529	123.077	-122.017	201.845	-150.444	198.143	52.906	140.872	0.0018622	0.00088213	0.00017682	789.85	6.1434e-06	5.2777e-06	1075.2	340.85	6.3335e-06	7.3814e-06	504.22	278.04	180.48	89.152	5.6244e-06	144.4	0.00019605	0.00010722	3.6895e-05	737.66	1.28e-06	1.2459e-06	1005.2	317	1.3483e-06	1.189e-06	469.49	258.74	167.33	83.073	1.4854e-06	137.89	161.414	-88.696	-67.010	-142.369	-38.820	-23.871	-143.070	-138.720	-59.354	1.965	-139.382	-136.958	-135.845	-131.129	-7.574	-133.193	-8191	255	
2389.692	1	1	0	131072	0.15554	0.12518	0.096471	0.056023	0.21314	0.16273	0.19668	0.075522	0.11143	0.044383	0.45153	0.45656	0.10768	0.058292	0.20053	0.2262	-2.8	-3.5563	-3.1937	-3.3312	-3.4208	-3.3021	-3.5625	-3.5354	-3.1167	-3.4896	-3.4292	-3.3146	-3.9062	-3.25	-3.4104	-3.7229	56.083	-86.780	-52.757	-51.623	-96.301	-59.000	132.323	197.574	176.251	24.278	105.806	168.537	146.504	95.760	87.959	138.485	0.0017959	0.00064859	0.0002764	792.64	7.101e-06	7.3028e-06	1074.2	340.5	8.2234e-06	1.0057e-05	508.37	279.86	180.63	89.301	6.1495e-06	144.58	0.00018875	0.00010889	3.6565e-05	738.8	1.2035e-06	1.2729e-06	1006.5	316.97	1.2273e-06	1.1951e-06	472.08	259.87	167.55	83.358	1.4605e-06	138.43	162.461	-82.524	-72.994	-142.221	-19.295	-13.033	-143.054	-138.956	-24.986	-8.522	-139.575	-136.997	-135.822	-131.073	-14.284	-132.900	-8191	255	
2389.811	1	1	0	131072	0.1007	0.098752	0.073625	0.19893	0.1336	0.14584	0.3344	0.12659	0.20591	0.074662	0.25003	0.1225	0.16338	0.28084	0.088023	0.3931	-2.4938	-3.5667	-3.2083	-3.2062	-3.4396	-3.0104	-3.7062	-3.5979	-3.0187	-3.8042	-3.3271	-3.3937	-3.8375	-3.4708	-3.4625	-3.7896	-39.120	-111.742	-100.785	-5.569	154.046	-32.748	91.513	70.248	135.185	182.709	182.347	78.561	182.234	118.769	127.545	193.319	0.0017649	0.00058957	0.00029549	791.36	6.0711e-06	5.9033e-06	1073.3	339.75	7.1555e-06	7.0399e-06	509.8	280.16	181.38	89.177	5.7276e-06	144.86	0.00018619	0.00011516	3.5435e-05	738.52	1.1462e-06	1.3017e-06	1007.2	317.35	1.1953e-06	1.2869e-06	472.47	260.09	167.89	83.408	1.3844e-06	138.6	161.270	-70.160	-85.227	-142.206	-19.571	-46.124	-142.806	-138.698	-41.732	-16.945	-139.334	-136.952	-136.132	-131.094	-28.759	-133.191	-8191	255	
2389.882	1	1	0	131072	0.19607	0.14531	0.17548	0.14366	0.17315	0.19914	0.33358	0.030541	0.083814	0.076398	0.20184	0.24906	0.23206	0.30461	0.12897	0.45275	-2.7562	-3.3833	-3.2625	-3.4188	-3.6979	-3.1896	-3.5812	-3.6021	-3.1688	-3.5375	-3.5854	-3.4854	-3.6958	-3.625	-3.3646	-3.8542	20.604	91.716	111.163	58.803	-110.347	80.854	138.967	17.278	105.873	-14.319	94.238	166.111	-122.276	-150.925	-20.672	120.017	0.0018888	0.00056975	0.00028658	790.04	6.4674e-06	7.14e-06	1073	340.53	5.2453e-06	5.4764e-06	506.88	277.39	179.48	89.287	4.8246e-06	144.38	0.00018344	0.0001233	3.3359e-05	736.56	1.0991e-06	1.3503e-06	1005.8	316.39	1.2037e-06	1.3245e-06	469.35	257.8	166.36	83.111	1.2887e-06	137.56	163.120	-102.430	-70.579	-142.503	-33.258	-40.188	-142.791	-138.762	-33.316	-11.212	-139.551	-136.993	-135.886	-130.982	-34.710	-133.035	-8191	255	
2389.978	1	1	0	131072	0.24003	0.19901	0.052069	0.24651	0.1641	0.083223	0.062162	0.11085	0.38869	0.10912	0.11938	0.34489	0.18222	0.20853	0.31555	0.28402	-2.6833	-3.5042	-3.45	-3.2396	-3.5979	-3.3	-3.5771	-3.5646	-3.2271	-3.4333	-3.7833	-3.2479	-3.7271	-3.6063	-3.225	-3.9458	116.433	0.849	-83.854	107.202	66.374	150.403	-87.412	155.392	-99.439	-151.880	21.857	-156.328	98.829	173.730	-85.346	195.731	0.0017729	0.00039264	0.00030345	789.43	5.185e-06	4.1699e-06	1071.9	339.87	5.4211e-06	8.6387e-06	508.69	277.74	179.24	88.543	6.4105e-06	144.37	0.00018372	0.00011905	2.9857e-05	736.99	1.1187e-06	1.2862e-06	1003.4	315.75	1.1975e-06	1.291e-06	469.61	258.03	166.09	82.762	1.2139e-06	137.72	163.580	-95.435	-50.026	-142.200	-22.789	-38.571	-142.885	-138.649	-40.891	-11.588	-139.622	-137.042	-135.963	-131.003	-15.847	-132.822	-8191	255	
2390.075	1	1	0	131072	0.090557	0.068526	0.091068	0.27957	0.092623	0.18179	0.05788	0.25387	0.11916	0.16109	0.094567	0.13378	0.15329	0.25853	0.17147	0.2371	-2.8729	-3.4062	-3.5062	-2.9917	-3.575	-3.2667	-3.2792	-3.7354	-3.2854	-3.3542	-3.6188	-3.0875	-3.7354	-3.7229	-3.0708	-3.7333	77.591	-9.354	-47.916	115.555	22.102	178.314	72.806	-141.532	115.825	-15.041	196.249	148.801	192.642	149.244	-110.415	120.280	0.0018602	0.0010219	0.0002467	786.75	5.4935e-06	6.7312e-06	1075.1	337.57	6.7667e-06	6.3731e-06	504.72	277.17	177.83	88.665	6.2148e-06	144.62	0.00018568	0.00011747	2.8841e-05	736.29	1.2329e-06	1.2443e-06	1002.6	313.22	1.2831e-06	1.2639e-06	466.42	256.86	165.06	82.761	1.2025e-06	137.9	162.041	-79.875	-79.371	-142.072	-30.035	-31.837	-143.084	-138.469	-53.829	22.629	-139.483	-136.970	-136.006	-130.881	-30.890	-132.858	-8191	255	
2390.193	1	1	0	131072	0.026586	0.018657	0.097555	0.36671	0.2201	0.10336	0.24605	0.19099	0.14567	0.060422	0.29042	0.17464	0.25086	0.28916	0.11736	0.26794	-2.8563	-3.2875	-3.4292	-3.175	-3.6188	-3.4167	-3.2188	-3.6917	-3.3125	-3.2021	-3.6437	-3.3438	-3.6083	-3.6437	-3.3854	-3.8333	-24.291	1.231	-95.545	194.954	130.604	-117.618	200.592	156.605	64.792	25.496	187.118	150.198	180.099	167.911	-141.917	127.673	0.0017715	0.00069944	0.00016206	791.42	4.5121e-06	7.3047e-06	1072.8	335.86	7.3984e-06	7.786e-06	501.65	277.55	178.1	88.643	5.0066e-06	144.31	0.00019161	0.00011315	2.8126e-05	736.02	1.2937e-06	1.186e-06	1001.6	313.13	1.2968e-06	1.252e-06	465.74	257.36	165.07	82.778	1.174e-06	137.75	160.577	-28.159	-69.931	-142.234	-48.130	-4.504	-142.784	-138.536	-45.341	15.983	-139.598	-136.747	-135.796	-130.969	-15.931	-132.953	-8191	255	
2390.290	1	1	0	131072	0.022651	0.18971	0.14297	0.14338	0.17787	0.20719	0.1998	0.050164	0.26479	0.17923	0.30982	0.18029	0.25293	0.089928	0.026284	0.37886	-2.8521	-3.35	-3.7354	-3.2208	-3.5	-3.2521	-3.1271	-3.6021	-3.2542	-3.2958	-3.6146	-3.15	-3.3521	-3.5125	-2.9583	-3.8979	-96.273	22.486	-96.556	-154.560	-147.632	-82.704	149.592	110.942	167.953	64.787	186.757	172.951	95.888	50.993	-95.734	106.156	0.0017588	0.00097057	0.00019096	788.86	4.7609e-06	7.4446e-06	1070	335.98	5.8285e-06	9.3505e-06	501.49	274.78	177.45	88.106	5.9428e-06	144.26	0.0001945	0.0001053	2.6354e-05	734.88	1.265e-06	1.1524e-06	997.5	312.31	1.2916e-06	1.1362e-06	464.38	255.06	164.64	82.03	1.1516e-06	136.79	165.420	-52.865	-64.714	-142.221	-9.213	-37.132	-142.850	-138.683	-57.512	-11.305	-139.393	-137.008	-135.618	-131.221	-64.739	-132.976	-8191	255	
#DATA ENDS
