BOXY.EXE: ISS Imagent and Oximeter Data Acquisition Program Version 0.80
Ascii Record File

#ACQ INFORMATION
2  Detector Channels 
16  External MUX Channels 
1  Auxiliary Channels 
5000  Waveform (CCF) Frequency (Hz)
1  Waveforms Skipped 
30  Waveforms Averaged 
1  Cycles Averaged 
16  Acquisitions per Waveform 
10.0806  Updata Rate (Hz) 

#FILE INFORMATION
TRUE -- External MUX Channel results are PARSED.
FALSE -- AC DC and Phase are NOT grouped.
TRUE -- Companion Program Settings File CREATED.
FALSE -- AC data not excluded
FALSE -- DC data not excluded
FALSE -- Phase data not excluded
FALSE -- Auxillary Chn. data not excluded
Tab delimiters

#CALIBRATION STATE
TRUE -- Waveform Calibration Values APPLIED.


#AUX CALIBRATION VALUES
Val Type	aux-1	

Term	1.0000e+00	
Factor	0.0000e+00	


#WF CALIBRATION VALUES
A = Detector Channel
Val Type	A-AC1	A-AC2	A-AC3	A-AC4	A-AC5	A-AC6	A-AC7	A-AC8	A-AC9	A-AC10	A-AC11	A-AC12	A-AC13	A-AC14	A-AC15	A-AC16	A-DC1	A-DC2	A-DC3	A-DC4	A-DC5	A-DC6	A-DC7	A-DC8	A-DC9	A-DC10	A-DC11	A-DC12	A-DC13	A-DC14	A-DC15	A-DC16	A-Ph1	A-Ph2	A-Ph3	A-Ph4	A-Ph5	A-Ph6	A-Ph7	A-Ph8	A-Ph9	A-Ph10	A-Ph11	A-Ph12	A-Ph13	A-Ph14	A-Ph15	A-Ph16	

Term	0.00000e+00	0.00000e+00	0.00000e+00	0.00000e+00	0.00000e+00	0.00000e+00	0.00000e+00	0.00000e+00	0.00000e+00	0.00000e+00	0.00000e+00	0.00000e+00	0.00000e+00	0.00000e+00	0.00000e+00	0.00000e+00	0.00000e+00	0.00000e+00	0.00000e+00	0.00000e+00	0.00000e+00	0.00000e+00	0.00000e+00	0.00000e+00	0.00000e+00	0.00000e+00	0.00000e+00	0.00000e+00	0.00000e+00	0.00000e+00	0.00000e+00	0.00000e+00	0.00000e+00	0.00000e+00	0.00000e+00	0.00000e+00	0.00000e+00	0.00000e+00	0.00000e+00	0.00000e+00	0.00000e+00	0.00000e+00	0.00000e+00	0.00000e+00	0.00000e+00	0.00000e+00	0.00000e+00	0.00000e+00	
Factor	1.00000e+00	1.00000e+00	1.00000e+00	1.00000e+00	1.00000e+00	1.00000e+00	1.00000e+00	1.00000e+00	1.00000e+00	1.00000e+00	1.00000e+00	1.00000e+00	1.00000e+00	1.00000e+00	1.00000e+00	1.00000e+00	1.00000e+00	1.00000e+00	1.00000e+00	1.00000e+00	1.00000e+00	1.00000e+00	1.00000e+00	1.00000e+00	1.00000e+00	1.00000e+00	1.00000e+00	1.00000e+00	1.00000e+00	1.00000e+00	1.00000e+00	1.00000e+00	X	X	X	X	X	X	X	X	X	X	X	X	X	X	X	X	

B = Detector Channel
Val Type	B-AC1	B-AC2	B-AC3	B-AC4	B-AC5	B-AC6	B-AC7	B-AC8	B-AC9	B-AC10	B-AC11	B-AC12	B-AC13	B-AC14	B-AC15	B-AC16	B-DC1	B-DC2	B-DC3	B-DC4	B-DC5	B-DC6	B-DC7	B-DC8	B-DC9	B-DC10	B-DC11	B-DC12	B-DC13	B-DC14	B-DC15	B-DC16	B-Ph1	B-Ph2	B-Ph3	B-Ph4	B-Ph5	B-Ph6	B-Ph7	B-Ph8	B-Ph9	B-Ph10	B-Ph11	B-Ph12	B-Ph13	B-Ph14	B-Ph15	B-Ph16	

Term	0.00000e+00	0.00000e+00	0.00000e+00	0.00000e+00	0.00000e+00	0.00000e+00	0.00000e+00	0.00000e+00	0.00000e+00	0.00000e+00	0.00000e+00	0.00000e+00	0.00000e+00	0.00000e+00	0.00000e+00	0.00000e+00	0.00000e+00	0.00000e+00	0.00000e+00	0.00000e+00	0.00000e+00	0.00000e+00	0.00000e+00	0.00000e+00	0.00000e+00	0.00000e+00	0.00000e+00	0.00000e+00	0.00000e+00	0.00000e+00	0.00000e+00	0.00000e+00	-1.65095e+02	-1.36760e+02	-1.28228e+02	-1.79802e+02	-7.58801e+01	-8.06562e+01	-1.58085e+02	-1.62015e+02	-8.34201e+01	-6.02352e+01	-1.69977e+02	-1.71992e+02	-1.83057e+02	-1.76155e+02	-6.30896e+01	-1.48803e+02	
Factor	2.68855e-05	1.33963e-04	4.06587e-05	1.73064e-01	1.18092e-06	1.38058e-06	1.79830e-01	6.39379e-02	1.39152e-06	1.46583e-06	8.33553e-02	3.13931e-02	2.72019e-02	8.97484e-03	1.12261e-06	1.30680e-02	1.59552e-06	1.68252e-06	4.69401e-07	8.55044e-02	1.82819e-08	1.84544e-08	8.38191e-02	3.15264e-02	1.83315e-08	1.84551e-08	3.98753e-02	1.49757e-02	1.33735e-02	4.44832e-03	1.83795e-08	6.25309e-03	X	X	X	X	X	X	X	X	X	X	X	X	X	X	X	X	



#DISTANCE SETTINGS
A = Detector Channel
A-1	A-2	A-3	A-4	A-5	A-6	A-7	A-8	A-9	A-10	A-11	A-12	A-13	A-14	A-15	A-16	

2.5000e+00	3.0000e+00	2.5000e+00	3.0000e+00	2.0000e+00	3.0000e+00	1.5000e+00	3.0000e+00	3.0000e+00	3.0000e+00	3.0000e+00	3.0000e+00	3.0000e+00	3.0000e+00	1.5000e+00	3.0000e+00	

B = Detector Channel
B-1	B-2	B-3	B-4	B-5	B-6	B-7	B-8	B-9	B-10	B-11	B-12	B-13	B-14	B-15	B-16	

1.0000e+01	1.0000e+01	1.0000e+01	1.4400e+00	1.0000e+01	1.0000e+01	1.5100e+00	1.9400e+00	1.0000e+01	1.0000e+01	1.9900e+00	2.4900e+00	2.4100e+00	2.9000e+00	1.0000e+01	2.9800e+00	




#DATA BEGINS
time	group	step	mark	flag	A-AC1	A-AC2	A-AC3	A-AC4	A-AC5	A-AC6	A-AC7	A-AC8	A-AC9	A-AC10	A-AC11	A-AC12	A-AC13	A-AC14	A-AC15	A-AC16	A-DC1	A-DC2	A-DC3	A-DC4	A-DC5	A-DC6	A-DC7	A-DC8	A-DC9	A-DC10	A-DC11	A-DC12	A-DC13	A-DC14	A-DC15	A-DC16	A-Ph1	A-Ph2	A-Ph3	A-Ph4	A-Ph5	A-Ph6	A-Ph7	A-Ph8	A-Ph9	A-Ph10	A-Ph11	A-Ph12	A-Ph13	A-Ph14	A-Ph15	A-Ph16	B-AC1	B-AC2	B-AC3	B-AC4	B-AC5	B-AC6	B-AC7	B-AC8	B-AC9	B-AC10	B-AC11	B-AC12	B-AC13	B-AC14	B-AC15	B-AC16	B-DC1	B-DC2	B-DC3	B-DC4	B-DC5	B-DC6	B-DC7	B-DC8	B-DC9	B-DC10	B-DC11	B-DC12	B-DC13	B-DC14	B-DC15	B-DC16	B-Ph1	B-Ph2	B-Ph3	B-Ph4	B-Ph5	B-Ph6	B-Ph7	B-Ph8	B-Ph9	B-Ph10	B-Ph11	B-Ph12	B-Ph13	B-Ph14	B-Ph15	B-Ph16	aux-1	digaux	

1242.813	1	1	0	256	0.084958	0.41735	0.20478	0.088819	0.26635	0.10227	0.12971	0.20426	0.11817	0.06231	0.020926	0.16198	0.1934	0.11658	0.27204	0.19129	-3.5375	-3.4479	-3.5167	-3.8042	-3.3063	-3.8625	-3.6937	-3.4604	-3.7854	-3.4125	-3.6271	-3.8667	-3.3833	-4.0333	-3.6562	-3.6583	211.982	63.445	186.772	273.628	278.861	-26.015	252.225	252.224	231.102	103.374	176.762	154.965	194.577	203.205	284.811	8.245	0.000176	0.0010403	0.00015994	1262.7	4.2882e-06	3.3915e-06	1323.5	262.71	4.4106e-06	1.3443e-06	325.06	89.637	70.428	20.333	1.6044e-06	28.427	0.00061512	0.0007368	0.00021185	1248.7	7.4406e-06	8.3299e-06	1315.4	266.64	7.3502e-06	8.8045e-06	330.74	93.26	74.096	22.092	8.7682e-06	30.491	115.475	49.551	2.347	-40.552	298.229	130.850	-40.447	-33.565	244.046	228.014	-33.796	-27.246	-26.980	-20.181	-10.727	-20.870	-8191	255	
1242.910	1	1	0	0	0.08726	0.15241	0.24543	0.24177	0.13278	0.070328	0.33115	0.19083	0.15442	0.12075	0.19841	0.10848	0.26424	0.078601	0.26114	0.2327	-3.525	-3.2854	-3.3542	-3.9125	-3.1896	-3.7208	-3.6875	-3.35	-3.8812	-3.4146	-3.5833	-3.6979	-3.4938	-3.775	-3.5958	-3.5583	-17.041	36.101	76.477	257.441	4.303	176.279	197.558	-29.623	146.108	225.665	243.828	265.488	-11.921	269.423	102.371	250.336	6.0465e-05	0.00024306	0.00018082	1261	6.5699e-07	3.6884e-06	1329.7	263.58	1.0604e-05	5.7519e-06	322.85	89.468	71.067	20.572	6.5996e-06	28.626	0.00069583	0.00085419	0.0002253	1251.8	8.1072e-06	9.0982e-06	1318.7	267.85	7.7534e-06	8.9664e-06	330.04	93	74.44	22.11	7.9213e-06	30.345	103.432	103.695	85.526	-40.383	248.648	190.770	-40.368	-33.493	212.322	-24.172	-33.815	-27.222	-27.093	-20.159	-27.059	-20.500	-8191	255	
1243.006	1	1	0	0	0.010248	0.17614	0.12866	0.15203	0.1424	0.10303	0.29715	0.05569	0.36091	0.18751	0.23203	0.13776	0.27563	0.059283	0.10899	0.24356	-3.3271	-3.1729	-3.3167	-4.0146	-3.4042	-3.675	-3.8229	-3.525	-3.8417	-3.5646	-3.5687	-3.7812	-3.425	-3.6688	-3.6896	-3.3917	251.614	124.461	260.586	-16.743	275.444	238.613	227.433	-26.057	132.804	294.537	286.154	301.702	-48.707	161.724	12.201	93.640	0.00017449	0.00050976	0.00010734	1269.6	5.9687e-06	1.0596e-06	1333.7	263.68	9.0146e-06	6.3505e-06	325.79	89.548	71.068	20.54	2.1559e-06	28.529	0.00069553	0.0007905	0.00020378	1256	7.9773e-06	8.3915e-06	1320.3	266.53	7.6426e-06	7.8689e-06	328.81	92.337	74.095	21.803	6.8664e-06	29.909	112.664	61.971	42.562	-40.476	154.602	217.756	-40.208	-33.619	167.733	58.298	-33.386	-27.385	-26.896	-20.745	18.396	-20.477	-8191	255	
1243.102	1	1	0	0	0.097274	0.12795	0.1074	0.075206	0.22078	0.1211	0.11963	0.26168	0.20857	0.18466	0.17361	0.23081	0.029911	0.062521	0.20477	0.20325	-3.3229	-3.4979	-3.4146	-3.8417	-3.2792	-3.5708	-3.7146	-3.375	-3.7104	-3.5208	-3.4062	-3.9292	-3.5271	-3.5604	-3.7812	-3.2521	268.027	201.558	298.377	54.255	232.061	84.437	189.682	259.215	125.812	207.871	235.789	-3.360	304.402	257.956	158.321	286.756	0.00021674	0.00066407	7.1927e-05	1266.9	4.7622e-06	7.7169e-06	1332	263.54	1.7466e-06	3.4953e-06	325.69	89.868	70.593	20.477	2.8388e-06	28.57	0.00065566	0.00067611	0.00017842	1248.3	7.6875e-06	7.587e-06	1312.1	265.83	7.7671e-06	7.3267e-06	327.81	92.584	74.122	21.779	6.8468e-06	30.197	129.866	66.345	165.846	-40.235	122.093	4.424	-40.499	-33.602	138.470	103.272	-33.541	-27.537	-27.046	-20.176	120.694	-20.444	-8191	255	
1243.198	1	1	0	0	0.21684	0.23223	0.15861	0.23208	0.32467	0.063347	0.22866	0.072282	0.091705	0.23354	0.33793	0.11279	0.2473	0.15318	0.010292	0.10366	-3.3396	-3.5812	-3.1875	-3.9062	-3.3208	-3.3729	-3.9229	-3.3812	-3.6479	-3.65	-3.5146	-3.7208	-3.5938	-3.5125	-3.7042	-3.3812	296.353	33.727	-33.830	277.424	13.982	206.192	192.575	45.418	194.355	17.051	-33.356	132.605	1.412	175.260	296.367	202.843	0.00015787	0.00048322	4.8048e-05	1263.7	2.7362e-06	5.8215e-06	1323.8	263.66	3.0442e-06	1.0773e-05	324.91	89.454	70.916	20.604	2.1739e-06	28.501	0.0007097	0.00068424	0.00018353	1246.9	7.9786e-06	7.4449e-06	1308.9	266.3	7.8388e-06	6.9875e-06	326.14	92.8	73.968	21.701	6.4166e-06	30.211	74.184	86.067	7.334	-40.621	157.920	29.962	-40.407	-33.380	46.122	89.648	-33.797	-27.118	-27.313	-20.127	125.814	-20.301	-8191	255	
1243.319	1	1	0	0	0.075686	0.093314	0.058435	0.14808	0.28644	0.015147	0.12068	0.026465	0.18013	0.19847	0.18227	0.025479	0.096231	0.15459	0.10666	0.2529	-3.3354	-3.4688	-3.2375	-3.7333	-3.4792	-3.3563	-3.8688	-3.4792	-3.7146	-3.7792	-3.3771	-3.775	-3.4354	-3.5021	-3.6562	-3.5271	173.749	239.719	38.780	289.617	85.046	242.425	225.266	-44.253	232.260	-46.526	-39.037	303.360	248.960	46.672	212.152	194.629	0.00013334	0.00046815	0.00029019	1267.1	3.9984e-06	2.3418e-06	1327.4	262.78	2.9915e-06	9.1732e-06	324.92	90.449	71.217	20.511	1.7857e-06	28.674	0.00067606	0.00062582	0.00017281	1252.1	7.5303e-06	7.2357e-06	1312.8	267.27	7.8577e-06	7.129e-06	327.84	93.704	74.253	21.799	6.8906e-06	30.588	134.849	1.100	5.998	-40.390	76.306	63.111	-40.097	-33.422	-27.863	164.122	-33.663	-27.012	-26.881	-20.466	234.168	-20.688	-8191	255	
1243.415	1	1	0	0	0.035079	0.17636	0.21668	0.24279	0.14114	0.19072	0.39003	0.32719	0.21363	0.048356	0.14739	0.14501	0.23153	0.14985	0.27175	0.10782	-3.1688	-3.4979	-3.0771	-3.7229	-3.7	-3.5271	-3.9833	-3.5229	-3.5708	-3.9333	-3.4479	-3.9208	-3.7104	-3.3146	-3.7583	-3.5042	141.455	158.227	32.617	239.256	94.001	22.221	261.315	29.076	165.194	225.392	265.966	256.754	300.204	195.662	54.029	17.360	7.9478e-05	0.00012866	0.00020158	1273.4	7.3929e-07	2.076e-06	1333.5	263.87	3.3009e-06	5.6468e-06	325.54	89.82	70.728	20.689	5.6117e-06	28.58	0.00069491	0.0006489	0.00018403	1260.9	7.6149e-06	7.3446e-06	1320.2	268.15	7.6764e-06	6.8879e-06	328.97	93.784	73.904	21.678	7.0002e-06	30.339	67.250	-10.102	115.093	-40.527	-7.228	98.216	-40.390	-33.453	47.884	88.705	-33.880	-27.394	-26.821	-20.208	113.268	-20.483	-8191	255	
1243.509	1	1	0	0	0.11682	0.26176	0.32991	0.18202	0.021557	0.24732	0.22306	0.062763	0.22161	0.062667	0.30202	0.11283	0.10264	0.19829	0.035206	0.2092	-3.1562	-3.5917	-3.2354	-3.7396	-3.6562	-3.4271	-3.9437	-3.6375	-3.4458	-3.7729	-3.5854	-3.925	-3.8563	-3.4062	-3.6896	-3.5979	39.371	-11.598	64.863	304.407	170.657	222.695	154.776	176.877	47.350	105.586	-26.653	199.081	-8.653	258.823	70.296	201.200	0.00014482	0.00030668	0.00020642	1264.2	5.0168e-06	6.2837e-06	1326	262.84	6.3735e-06	4.4308e-06	324.33	89.355	70.729	20.447	1.6758e-06	28.445	0.00063025	0.00058384	0.00018083	1250.2	6.779e-06	6.558e-06	1312.9	266	7.0023e-06	6.3038e-06	327.65	93.043	73.415	21.613	7.3561e-06	30.269	107.661	120.406	121.592	-40.452	141.778	63.609	-40.229	-33.499	-14.004	-1.001	-33.825	-27.735	-27.430	-20.171	262.881	-20.782	-8191	255	
1243.607	1	1	0	0	0.10542	0.2218	0.24626	0.39596	0.26472	0.14534	0.22964	0.12235	0.12154	0.031997	0.28657	0.16437	0.21561	0.2606	0.058481	0.13249	-2.9708	-3.7	-3.3312	-3.7083	-3.6813	-3.375	-3.8146	-3.6917	-3.3958	-3.8312	-3.5	-3.5896	-3.7208	-3.4938	-3.7375	-3.6417	188.111	-44.981	-39.769	-32.876	172.562	305.394	254.791	298.036	90.885	162.639	246.295	147.457	257.042	288.451	219.990	300.623	0.00017253	0.00064983	0.00016664	1265.5	4.5724e-06	5.2845e-06	1334.5	262.73	3.7198e-06	1.6761e-06	327.24	89.429	70.957	20.712	4.4633e-06	28.703	0.00063209	0.00059541	0.00019877	1252.3	6.9236e-06	6.9266e-06	1319.9	266.18	7.2972e-06	6.7439e-06	330.75	93.358	73.706	21.832	8.1425e-06	30.482	83.874	-15.829	-39.439	-40.473	94.247	202.541	-40.611	-33.400	49.735	80.187	-33.696	-27.326	-27.351	-20.079	247.825	-20.542	-8191	255	
1243.702	1	1	0	0	0.14186	0.015705	0.16114	0.25366	0.1195	0.067198	0.26922	0.19629	0.26856	0.10685	0.23979	0.095685	0.084899	0.18565	0.13671	0.12577	-2.9292	-3.9396	-3.5583	-3.5104	-3.7687	-3.3479	-3.7792	-3.7083	-3.3979	-3.9521	-3.7	-3.4021	-3.6333	-3.4188	-3.5771	-3.7938	73.212	85.924	195.604	271.943	212.538	97.513	265.475	258.535	133.382	154.044	235.566	39.001	-24.988	194.319	73.616	281.097	0.00018245	0.00042306	3.0726e-05	1274.2	6.0127e-06	2.9081e-06	1335.2	264.32	5.4788e-06	4.8658e-06	325.24	90.07	70.788	20.84	6.2875e-06	28.838	0.00065476	0.0006512	0.00020934	1258.3	6.9658e-06	7.4525e-06	1326.6	267.73	7.2158e-06	7.3494e-06	330.37	93.803	73.672	22.076	8.1663e-06	30.478	75.870	175.635	126.477	-40.428	121.110	172.055	-40.453	-33.597	236.182	114.613	-33.566	-27.675	-27.390	-20.432	45.216	-20.805	-8191	255	
1243.798	1	1	0	0	0.25812	0.15896	0.098596	0.29401	0.10761	0.20537	0.13094	0.10593	0.13217	0.13272	0.11636	0.080931	0.18787	0.33238	0.10672	0.051653	-3.2146	-3.7625	-3.3937	-3.65	-3.7542	-3.3208	-3.7687	-3.6875	-3.3208	-3.8187	-3.4917	-3.5271	-3.7687	-3.3917	-3.5333	-3.7042	51.673	31.473	283.786	237.371	50.441	168.513	264.434	-16.523	242.678	62.142	165.461	263.022	27.259	27.679	235.953	66.707	0.00025532	0.00084419	0.00026622	1271.4	3.674e-06	1.0597e-06	1335.9	264.57	2.4658e-06	7.068e-06	327.63	90.982	71.796	20.818	4.8195e-06	29.012	0.00063949	0.00071479	0.0002117	1258.4	7.0819e-06	8.326e-06	1329.5	268.88	7.5624e-06	8.4355e-06	332.82	94.464	74.671	22.425	8.5461e-06	30.673	95.643	17.155	9.302	-40.445	191.241	64.830	-40.358	-33.675	178.468	159.825	-33.731	-27.320	-27.149	-20.085	151.156	-20.581	-8191	255	
1243.894	1	1	0	0	0.27218	0.1256	0.2098	0.32095	0.094444	0.063564	0.35601	0.22865	0.12548	0.068335	0.16753	0.11497	0.088693	0.29317	0.24394	0.066214	-2.8417	-3.8438	-3.4833	-3.4479	-3.6625	-3.2375	-3.7458	-3.6958	-3.3229	-3.7458	-3.5583	-3.3312	-3.8979	-3.4833	-3.4604	-3.7729	271.589	5.820	279.314	223.746	287.372	286.995	241.525	233.515	164.452	-50.634	204.691	81.458	301.804	-40.897	108.134	253.716	0.00025481	0.00024929	0.00016298	1278.8	2.072e-06	6.911e-06	1341.7	265.08	8.618e-06	4.411e-06	328.79	90.947	71.249	20.849	3.3132e-06	28.868	0.00067184	0.00077664	0.00020641	1261.8	7.0347e-06	8.3142e-06	1329.2	267.89	7.2487e-06	8.0822e-06	331.42	93.668	74.105	22.2	7.3931e-06	30.283	109.585	136.439	12.429	-40.413	272.199	68.697	-40.330	-33.845	211.763	207.742	-33.754	-27.830	-26.877	-20.409	63.999	-20.766	-8191	255	
1244.014	1	1	0	0	0.049561	0.12195	0.18216	0.39806	0.10279	0.080468	0.080945	0.15288	0.21976	0.14757	0.11278	0.1358	0.23276	0.11372	0.12013	0.24788	-2.9271	-3.4854	-3.6396	-3.4292	-3.7854	-3.6354	-3.5458	-3.8729	-3.3771	-3.4833	-3.7333	-3.2708	-3.7938	-3.4125	-3.4646	-3.8729	124.146	200.840	-16.658	305.863	127.721	243.208	255.340	-12.204	30.818	130.344	264.392	230.647	156.890	-9.546	240.745	304.243	0.00024966	0.00047388	0.0002158	1274.4	5.0654e-06	4.7383e-06	1328	265.34	1.5261e-06	6.6425e-06	325.26	89.119	70.98	20.521	1.5601e-06	28.391	0.00063516	0.00070713	0.00017794	1255.9	6.7955e-06	7.4731e-06	1315.6	265.37	6.903e-06	7.2328e-06	325.84	91.842	73.157	21.611	6.3816e-06	29.628	106.911	247.458	13.809	-40.571	227.065	72.688	-40.569	-33.522	-4.093	58.276	-33.675	-27.506	-26.736	-20.485	7.069	-20.474	-8191	255	
1244.111	1	1	0	0	0.2039	0.11676	0.09074	0.18383	0.077059	0.13842	0.19345	0.14069	0.062445	0.070646	0.29546	0.32043	0.19632	0.20151	0.11484	0.12664	-2.8708	-3.5583	-3.5667	-3.4292	-3.8417	-3.4917	-3.5312	-3.6396	-3.4729	-3.5083	-3.6521	-3.4625	-3.7125	-3.7083	-3.5271	-3.8312	190.868	260.939	9.827	-46.225	-47.595	153.961	209.052	111.559	189.601	205.822	244.325	277.617	267.573	238.425	256.986	226.656	0.0001979	0.00063726	9.7804e-05	1249.8	2.7387e-06	7.3286e-06	1321.5	260.26	4.9061e-06	8.2267e-06	320.09	87.945	69.295	20.249	9.1163e-07	28.035	0.0005879	0.00060389	0.00015083	1230.7	6.3676e-06	6.2964e-06	1299.1	259.84	6.2241e-06	5.9544e-06	318.68	89.977	71.464	21.015	5.2374e-06	28.972	111.295	-7.511	0.635	-40.460	106.324	82.920	-40.307	-33.697	182.923	90.272	-33.492	-27.316	-26.808	-20.044	81.609	-20.348	-8191	255	
1244.182	1	1	0	0	0.060606	0.096637	0.12011	0.1411	0.1701	0.15661	0.21423	0.1031	0.1537	0.0079155	0.18619	0.11705	0.21269	0.33401	0.18158	0.24803	-2.9813	-3.5938	-3.7667	-3.5458	-3.6104	-3.5583	-3.5854	-3.8979	-3.5021	-3.4688	-3.6979	-3.2896	-3.6604	-3.8104	-3.2812	-3.6542	-31.477	32.621	257.312	248.423	206.310	305.266	264.538	174.821	-2.030	-31.251	142.460	136.450	-2.405	-35.952	259.332	22.793	0.00013393	0.00073889	2.2878e-05	1236.6	5.6044e-06	1.709e-06	1303.3	254.65	2.189e-06	2.0015e-06	316.33	86.968	68.87	19.974	9.0737e-07	27.948	0.00052085	0.00050039	0.00012708	1213.7	5.7148e-06	5.222e-06	1281.7	254.42	5.8586e-06	5.4935e-06	314.08	89.262	70.769	20.696	5.2148e-06	28.962	114.301	-27.946	29.815	-40.419	144.020	240.227	-40.186	-32.966	125.418	136.341	-33.690	-27.315	-27.174	-19.956	62.445	-20.527	-8191	255	
1244.278	1	1	0	0	0.12489	0.095123	0.11964	0.30726	0.24676	0.18339	0.2908	0.17037	0.10619	0.10892	0.075348	0.072034	0.097228	0.15218	0.23096	0.21351	-3.0958	-3.5021	-3.7292	-3.4938	-3.5875	-3.7812	-3.6042	-3.9125	-3.625	-3.5333	-3.7667	-3.4083	-3.4375	-3.5687	-3.4771	-3.7667	292.419	20.414	106.565	276.244	271.452	148.487	213.399	208.721	153.852	282.703	251.793	221.249	-3.310	244.657	-15.233	212.656	0.00015773	0.00067385	0.00010144	1235	6.4684e-07	4.9555e-06	1298.3	252.76	2.1029e-06	4.7963e-06	311.48	86.542	68.732	19.91	1.8237e-06	27.679	0.00051827	0.00049815	0.00012464	1215.2	5.7566e-06	5.2525e-06	1275.5	253.35	5.6261e-06	5.3078e-06	311.85	88.729	70.16	20.49	4.8563e-06	28.703	64.159	62.388	66.329	-40.307	282.026	79.601	-40.389	-33.025	208.181	73.568	-33.235	-27.068	-26.832	-19.860	0.658	-20.514	-8191	255	
1244.399	1	1	0	0	0.22818	0.067341	0.064324	0.2048	0.21025	0.23988	0.19357	0.082225	0.061623	0.10807	0.18345	0.12197	0.15312	0.29189	0.15715	0.17351	-3.3271	-3.3917	-3.8042	-3.8271	-3.7	-4.0667	-3.8187	-4.0062	-3.4417	-3.4479	-3.9562	-3.4583	-3.5167	-3.7167	-3.5438	-3.725	64.852	308.585	177.393	261.652	58.531	144.190	292.706	299.137	9.173	287.414	203.969	145.248	-6.992	158.897	137.273	290.022	0.00013438	0.00027154	7.2417e-05	1226.9	3.8017e-06	7.0149e-06	1286.7	251.84	5.2667e-06	1.2733e-06	310.34	85.93	67.78	19.679	1.4954e-06	27.582	0.00046438	0.00045268	0.00011555	1206	5.0917e-06	4.4923e-06	1265.6	250.77	4.7079e-06	4.5404e-06	307.84	87.508	68.765	20.135	4.414e-06	28.334	80.093	10.876	293.624	-40.417	44.938	65.520	-40.182	-33.225	142.431	-47.342	-33.255	-26.916	-26.576	-19.723	59.007	-20.297	-8191	255	
1244.495	1	1	0	0	0.13636	0.12254	0.16741	0.10582	0.020926	0.16593	0.015971	0.36283	0.15378	0.15984	0.30601	0.13228	0.26456	0.21233	0.16661	0.15393	-3.3417	-3.45	-3.8375	-3.6396	-3.4708	-3.8354	-3.6083	-3.7292	-3.6833	-3.3083	-3.7875	-3.6458	-3.4104	-3.8854	-3.4833	-3.6958	142.618	211.298	223.795	168.424	272.475	169.554	135.791	283.064	90.167	-27.910	-39.665	198.434	-24.157	156.588	161.110	97.793	9.1213e-05	0.0002004	0.00014144	1216.9	1.8106e-06	3.3412e-06	1275.7	248.23	3.458e-06	7.8463e-06	309.09	85.469	67.379	19.373	5.5127e-06	27.516	0.00039644	0.00039351	0.00011043	1191	4.4138e-06	3.9721e-06	1253.8	247.2	4.2682e-06	4.135e-06	306.51	86.833	68.059	19.863	4.614e-06	28.192	99.894	-31.507	98.893	-40.118	185.762	12.889	-40.171	-33.345	4.878	92.055	-33.415	-27.023	-26.944	-19.913	279.271	-20.136	-8191	255	
1244.591	1	1	0	0	0.21378	0.098512	0.16309	0.21548	0.067232	0.083578	0.11722	0.13868	0.060603	0.15705	0.098066	0.15577	0.24798	0.091355	0.14061	0.074384	-3.2812	-3.2354	-3.6729	-3.7708	-3.4229	-3.8063	-3.4229	-3.7104	-3.5542	-3.3375	-3.7438	-3.575	-3.5104	-3.8583	-3.2958	-3.5833	247.686	120.529	128.270	200.122	299.161	41.426	240.783	223.022	58.601	118.974	242.266	286.741	-42.894	166.864	109.442	290.507	0.00011619	0.00018664	9.6588e-05	1212.8	3.0726e-06	1.7363e-06	1273.5	248.48	2.7448e-06	4.7374e-06	309.22	85.489	67.01	19.559	1.4956e-06	27.395	0.00038389	0.00038394	0.0001177	1187.1	4.5139e-06	4.1477e-06	1252.6	247.56	4.4222e-06	4.4499e-06	307.41	86.827	68.191	20.004	5.1677e-06	28.285	49.871	82.723	109.410	-40.312	90.938	172.752	-40.207	-33.363	142.904	96.253	-33.314	-27.170	-26.516	-19.856	164.186	-20.192	-8191	255	
1244.688	1	1	0	0	0.081897	0.21972	0.084024	0.072025	0.10317	0.19615	0.14802	0.22416	0.064316	0.065254	0.24005	0.10575	0.32224	0.071245	0.12842	0.12176	-3.2146	-3.3875	-3.6312	-3.8083	-3.2625	-3.6417	-3.7104	-3.6083	-3.6708	-3.3063	-3.7667	-3.65	-3.3167	-3.6292	-3.45	-3.3646	220.926	57.007	23.635	165.170	9.163	271.782	288.513	218.663	226.528	21.012	229.424	269.353	-29.880	253.166	292.376	301.411	0.00018913	8.3584e-05	0.00019003	1212.6	1.7821e-06	3.455e-06	1283.5	247	5.0696e-06	1.1204e-06	309.39	85.744	67.378	19.366	4.5889e-06	27.646	0.00039761	0.00042497	0.00013293	1187.9	4.7139e-06	4.5982e-06	1257.4	247.66	4.5251e-06	4.862e-06	308.54	87.062	68.328	20.083	5.2766e-06	28.239	129.393	2.564	59.384	-40.145	131.370	15.395	-40.197	-33.533	25.657	251.969	-33.444	-27.240	-27.145	-19.880	120.831	-19.892	-8191	255	
1244.806	1	1	0	0	0.061343	0.20224	0.13401	0.24448	0.25086	0.1252	0.1335	0.2488	0.14693	0.19495	0.20979	0.16791	0.3558	0.15389	0.071993	0.20302	-3.1792	-3.2833	-3.5812	-3.5563	-3.325	-3.6271	-3.4875	-3.4313	-3.7417	-3.2958	-3.7646	-3.6271	-3.2583	-3.7292	-3.5958	-3.4313	33.005	42.372	128.266	13.198	301.609	-4.662	285.342	298.239	134.527	243.710	234.130	-36.608	277.178	264.863	277.968	267.608	0.00010966	0.00031463	0.00016865	1214.6	3.314e-06	5.7712e-06	1283.1	249.24	5.1703e-06	5.2012e-06	312.44	85.402	67.566	19.444	1.0379e-06	27.563	0.00039521	0.00046187	0.0001351	1189.8	4.6276e-06	4.9662e-06	1260	248.03	4.4163e-06	5.1969e-06	308.97	86.926	68.49	20.219	5.1687e-06	28.252	96.366	67.799	38.562	-40.371	115.160	162.520	-40.184	-33.239	72.048	41.370	-33.482	-27.108	-26.783	-19.500	195.288	-20.379	-8191	255	
1244.880	1	1	0	0	0.092615	0.28724	0.13535	0.091294	0.10297	0.16774	0.17976	0.010693	0.080423	0.042136	0.19083	0.2004	0.164	0.1376	0.056877	0.072924	-3.2854	-3.4771	-3.4313	-3.7083	-3.4188	-3.5917	-3.7062	-3.425	-3.8438	-3.3146	-3.5021	-3.7396	-3.35	-3.6708	-3.5292	-3.2812	110.150	236.875	95.543	294.229	5.611	290.858	215.744	86.688	129.124	138.438	0.626	86.459	209.214	161.850	208.778	193.263	0.00019051	0.0003484	9.2608e-05	1215.7	5.4153e-06	2.7194e-06	1278	248.03	1.6823e-06	3.082e-06	310.54	85.575	67.659	19.549	2.3624e-06	27.47	0.00040127	0.00048542	0.00013304	1190.8	4.713e-06	5.2061e-06	1258.8	248.21	4.4953e-06	5.3237e-06	309.09	86.939	68.855	20.299	4.8691e-06	28.244	91.155	199.834	21.369	-40.383	176.416	80.430	-40.205	-33.282	156.689	153.170	-33.443	-26.934	-26.849	-19.824	140.571	-20.234	-8191	255	
1244.999	1	1	0	0	0.22718	0.026042	0.054393	0.17803	0.16249	0.15209	0.26387	0.18505	0.12894	0.10392	0.3732	0.18272	0.3164	0.1885	0.085194	0.088907	-3.6083	-3.475	-3.5417	-3.9354	-3.4729	-3.7146	-3.6208	-3.4062	-3.7396	-3.5396	-3.4271	-3.85	-3.3083	-3.6083	-3.5917	-3.3646	154.136	278.463	69.029	298.026	265.421	228.009	305.580	255.743	-36.568	298.270	289.893	308.873	168.126	255.322	248.239	289.743	0.00013458	0.00063476	4.4858e-05	1223.7	5.003e-06	5.6259e-06	1286.1	249.46	3.167e-06	2.6523e-06	310.06	85.494	67.626	19.558	2.727e-06	27.41	0.00041033	0.00048273	0.00012531	1196.3	4.8517e-06	5.2351e-06	1261.7	248.18	4.7265e-06	5.1966e-06	308.68	86.963	68.962	20.256	4.6755e-06	28.164	130.281	-4.039	25.124	-40.391	169.929	21.085	-40.191	-33.104	69.381	-25.396	-33.512	-26.965	-26.745	-19.798	114.397	-20.214	-8191	255	
1245.095	1	1	0	0	0.22957	0.3242	0.086029	0.26738	0.16369	0.21669	0.23271	0.19686	0.16741	0.09493	0.092561	0.26331	0.04382	0.17509	0.079289	0.13883	-3.2583	-3.5104	-3.5187	-3.9313	-3.1562	-3.725	-3.8271	-3.3208	-3.7083	-3.5354	-3.4958	-3.7333	-3.3083	-3.4479	-3.5521	-3.2687	68.262	-8.259	232.531	249.895	35.487	-37.855	231.899	284.431	282.310	74.305	-0.893	226.084	11.341	271.905	207.406	220.725	0.00019686	0.00044002	5.2152e-05	1226.7	5.6312e-06	5.2181e-06	1287.4	249.31	5.9814e-06	5.5534e-06	311.26	85.602	67.675	19.632	3.6162e-06	27.381	0.00043626	0.00047343	0.00012502	1197.3	5.1738e-06	5.2053e-06	1263.4	248.57	5.1174e-06	5.1422e-06	308.54	86.947	69.082	20.281	4.5409e-06	28.248	138.200	294.871	-4.424	-40.385	155.148	82.962	-39.926	-33.253	69.493	122.635	-33.588	-26.953	-26.746	-20.208	68.879	-20.196	-8191	255	
1245.191	1	1	0	0	0.16836	0.091463	0.17754	0.053282	0.1892	0.17203	0.072969	0.082207	0.25622	0.089056	0.30866	0.17871	0.15793	0.074734	0.042451	0.12803	-3.3229	-3.3688	-3.4333	-3.8563	-3.4979	-3.5208	-3.7771	-3.2917	-3.5833	-3.55	-3.3896	-3.8458	-3.4708	-3.3479	-3.8354	-3.4833	105.240	306.815	25.766	263.692	117.235	35.183	287.681	160.788	25.749	247.791	278.455	-23.984	-0.080	253.414	202.306	181.080	0.00024393	0.00026447	7.2022e-05	1217.5	3.1858e-06	7.0726e-06	1280.8	250.6	2.7127e-06	6.3452e-06	310.47	85.481	67.42	19.449	1.6081e-06	27.472	0.00046393	0.00044912	0.00011867	1192.5	5.1464e-06	4.8231e-06	1258.6	248.51	4.9322e-06	4.5038e-06	306.92	86.68	68.372	20.047	3.9755e-06	28.032	108.857	16.928	-21.678	-40.622	28.122	54.564	-39.942	-33.160	225.136	74.267	-33.375	-26.987	-26.788	-19.531	15.195	-19.997	-8191	255	
1245.287	1	1	0	0	0.10715	0.1731	0.061096	0.32267	0.23935	0.18302	0.36933	0.22134	0.2005	0.27359	0.17902	0.054017	0.18491	0.15972	0.070177	0.14539	-3.25	-3.6167	-3.2896	-3.8396	-3.4167	-3.4396	-3.8896	-3.4208	-3.6271	-3.7125	-3.4125	-3.8417	-3.425	-3.6417	-3.7062	-3.3458	186.539	224.949	215.297	241.675	205.288	-39.804	268.093	276.729	200.096	56.742	283.297	196.542	282.811	18.019	23.598	226.178	0.00014157	0.00030239	0.00013759	1211.1	4.1278e-06	2.4636e-06	1276.3	248.48	2.519e-06	1.4889e-06	308.38	84.89	67.377	19.391	4.892e-06	27.225	0.00041516	0.00038476	0.0001023	1186.1	4.5236e-06	4.1767e-06	1247.1	246.39	4.4432e-06	3.9362e-06	304.39	86.095	67.806	19.855	3.657e-06	27.876	119.655	53.043	17.199	-40.177	188.257	129.664	-40.272	-33.468	210.414	95.593	-33.529	-27.048	-27.084	-19.594	160.090	-20.165	-8191	255	
1245.408	1	1	0	0	0.2081	0.089389	0.029507	0.28768	0.060815	0.19389	0.28775	0.04674	0.043732	0.14343	0.3269	0.080448	0.048717	0.28021	0.19455	0.12973	-3.2771	-3.75	-3.3542	-3.7708	-3.375	-3.4	-3.8625	-3.7083	-3.5708	-3.6792	-3.2958	-3.7	-3.7146	-3.5042	-3.9188	-3.55	200.862	38.621	293.115	300.898	274.807	14.531	260.786	243.375	141.013	63.050	276.903	2.680	278.331	58.163	-43.771	288.726	0.00013162	0.0002486	6.6693e-05	1207.6	3.1799e-06	2.2599e-06	1270.7	246.83	3.6839e-06	3.9129e-06	308.88	85.118	67.021	19.426	3.6206e-06	27.362	0.00038086	0.00034556	9.6862e-05	1180.8	4.1204e-06	3.9754e-06	1243.6	245.71	4.2043e-06	3.8187e-06	304.07	86.44	67.705	19.825	3.8591e-06	27.962	94.315	-13.698	88.132	-40.231	138.397	167.101	-40.423	-33.290	110.187	44.332	-33.612	-27.194	-26.943	-20.043	162.433	-20.074	-8191	255	
1245.479	1	1	0	0	0.16496	0.13664	0.099474	0.074183	0.23875	0.098982	0.3509	0.27638	0.1455	0.14983	0.1155	0.16582	0.068541	0.18833	0.066886	0.085439	-3.0729	-3.7604	-3.3583	-3.6979	-3.5958	-3.4042	-3.8042	-3.5042	-3.2021	-3.4958	-3.425	-3.7583	-3.5479	-3.3042	-3.5917	-3.4833	154.776	54.571	44.374	278.541	165.891	-48.833	255.323	13.755	-5.207	294.948	235.475	53.404	173.964	196.217	226.034	229.419	9.0604e-05	0.000713	6.6425e-05	1204.1	2.3376e-06	4.7676e-06	1271.1	246.57	1.9984e-06	3.2985e-06	307.37	85.044	67.057	19.395	1.5679e-06	27.227	0.00037504	0.00034364	0.00010341	1180.8	4.0748e-06	3.969e-06	1243.9	245.48	4.193e-06	3.748e-06	304.54	86.296	67.51	19.774	4.0849e-06	27.929	109.190	85.484	292.013	-40.261	131.181	16.635	-40.134	-33.358	108.789	78.676	-33.415	-27.272	-26.941	-19.639	140.836	-20.339	-8191	255	
1245.576	1	1	0	0	0.16074	0.20393	0.1363	0.16413	0.088901	0.057379	0.21731	0.04934	0.26042	0.099519	0.25646	0.31714	0.03691	0.14496	0.11849	0.080188	-2.9437	-3.675	-3.375	-3.7792	-3.7208	-3.3542	-3.8146	-3.5187	-3.3771	-3.7979	-3.5563	-3.7479	-3.8771	-3.525	-3.7875	-3.475	81.137	254.147	234.239	273.935	-32.805	-18.815	212.671	196.865	-46.682	107.732	191.815	9.936	-38.019	182.286	-5.713	193.418	0.00011278	0.00022512	0.00011614	1210.2	2.9852e-06	6.2772e-06	1274.5	247.46	8.2458e-06	3.2221e-06	308.31	85.021	67.139	19.436	4.612e-06	27.166	0.00036169	0.00033149	0.00010831	1181	3.8872e-06	3.804e-06	1247.6	245.58	4.0683e-06	3.686e-06	305.22	86.079	67.528	19.817	4.3721e-06	27.807	101.393	20.188	86.546	-40.328	252.219	126.980	-40.224	-33.081	99.464	252.037	-33.379	-26.696	-27.087	-19.810	81.144	-20.004	-8191	255	
1245.672	1	1	0	0	0.21966	0.35006	0.10872	0.10872	0.31094	0.26022	0.16068	0.054189	0.1246	0.039867	0.16136	0.1207	0.020427	0.22649	0.18097	0.25808	-3.1625	-3.65	-3.3271	-3.5417	-3.7188	-3.3125	-3.9042	-3.7104	-3.525	-3.8396	-3.5125	-3.5375	-3.9042	-3.5479	-3.7146	-3.6437	198.065	239.260	-15.577	-9.671	143.917	168.037	250.583	-25.310	67.949	188.561	-20.887	180.846	-40.301	193.566	187.250	234.520	0.00010015	0.00019399	0.00011259	1206.1	5.8596e-06	2.0569e-06	1269	247.22	2.1296e-06	6.8697e-06	308.2	84.671	67.101	19.437	2.2933e-06	27.361	0.00035857	0.00034645	0.00011339	1179.9	3.8481e-06	3.9687e-06	1246.7	245.3	3.9838e-06	3.904e-06	305.3	85.845	67.494	19.881	4.4216e-06	27.867	126.081	182.690	100.937	-40.238	33.380	89.941	-40.133	-33.051	137.203	179.488	-33.592	-26.848	-26.673	-19.688	128.894	-20.247	-8191	255	
1245.791	1	1	0	0	0.30265	0.22593	0.092407	0.30195	0.12942	0.3043	0.39742	0.05403	0.055365	0.34931	0.25117	0.14279	0.05855	0.21518	0.098654	0.25783	-2.9333	-3.8146	-3.4021	-3.4896	-3.6813	-3.4021	-3.7938	-3.6562	-3.375	-3.8292	-3.4542	-3.4313	-3.9604	-3.4062	-3.6146	-3.7062	102.096	149.583	143.782	241.959	191.703	-0.999	306.053	47.926	-8.651	86.806	-32.040	6.805	11.463	70.803	146.963	225.008	0.00014253	0.00057769	0.00012332	1211.8	3.7926e-06	2.0906e-06	1270.1	246.43	7.1034e-07	1.9062e-06	306.35	84.875	67.165	19.394	1.0228e-06	27.139	0.00035132	0.00037027	0.00011417	1180.6	3.7685e-06	4.1647e-06	1246	244.87	3.926e-06	4.1859e-06	304.65	85.987	67.379	19.9	4.4198e-06	27.779	102.945	112.379	40.616	-40.200	83.993	79.281	-40.323	-33.211	303.529	141.852	-33.490	-27.060	-26.747	-19.723	98.761	-20.330	-8191	255	
1245.887	1	1	0	0	0.048775	0.079541	0.40276	0.30854	0.15299	0.23107	0.25175	0.09365	0.17274	0.026428	0.28308	0.24912	0.20699	0.096441	0.026389	0.16844	-2.9396	-3.5521	-3.4437	-3.5271	-3.8125	-3.4188	-3.7417	-3.7958	-3.4188	-3.7229	-3.6396	-3.4604	-3.8479	-3.5583	-3.5125	-3.7625	119.607	188.105	-45.563	223.350	198.499	245.124	253.576	-26.710	140.045	0.935	140.181	195.399	256.507	-6.075	308.403	107.660	0.00014217	5.0282e-05	7.6904e-05	1205.1	1.9538e-06	3.5843e-06	1270.5	246.81	1.0113e-06	4.9306e-07	306.19	84.892	67.365	19.539	2.5093e-06	27.092	0.00034714	0.00039459	0.00010932	1178.6	3.7112e-06	4.4289e-06	1246	244.67	3.895e-06	4.3586e-06	304.08	85.859	67.623	19.966	4.1358e-06	27.703	94.761	43.035	10.558	-40.403	103.539	146.901	-40.046	-33.368	122.114	78.396	-33.550	-26.857	-26.879	-19.876	29.185	-20.749	-8191	255	
1245.983	1	1	0	0	0.055762	0.12219	0.19689	0.066174	0.10126	0.15513	0.14196	0.23356	0.10197	0.25564	0.34395	0.10755	0.12999	0.047528	0.17174	0.1627	-2.8896	-3.65	-3.6521	-3.3812	-3.8833	-3.4833	-3.7896	-3.825	-3.3125	-3.5417	-3.7229	-3.3708	-3.9437	-3.3833	-3.3854	-3.9229	150.199	32.022	248.233	291.812	188.003	77.431	205.400	246.692	150.871	284.172	200.933	171.219	-22.805	185.089	247.324	194.091	0.00016663	0.0002262	0.00014154	1206.6	6.053e-07	2.5535e-06	1267.8	247.19	1.3877e-06	2.6199e-06	307.23	85.114	67.081	19.573	1.2002e-06	27.334	0.00034797	0.00040362	0.00010295	1176.9	3.8892e-06	4.45e-06	1242.5	244.48	4.1031e-06	4.4188e-06	303.71	85.842	67.69	19.986	4.1133e-06	27.759	122.506	13.408	30.725	-40.472	96.577	84.076	-40.215	-33.314	181.387	243.222	-33.121	-27.052	-26.546	-19.846	111.263	-20.077	-8191	255	
1246.079	1	1	0	0	0.20205	0.11041	0.18403	0.30296	0.08494	0.076778	0.43218	0.13119	0.12536	0.068297	0.014895	0.020878	0.27432	0.053502	0.025676	0.083179	-2.8979	-3.5729	-3.5854	-3.4917	-3.8667	-3.5854	-3.5312	-3.8875	-3.2646	-3.6312	-3.6896	-3.3479	-3.7396	-3.5958	-3.5458	-3.825	78.899	155.376	-23.629	228.474	182.593	97.240	224.944	12.966	20.712	304.990	38.077	79.719	120.299	236.895	188.981	116.520	0.00016984	0.00018385	9.8176e-05	1205.1	2.3889e-06	1.1727e-06	1274.1	246.94	1.694e-06	3.1357e-06	306.38	85.267	66.806	19.319	1.8548e-06	27.217	0.00037172	0.00039742	9.983e-05	1175.7	4.1208e-06	4.2604e-06	1243.6	243.83	4.2253e-06	4.2024e-06	303.11	85.671	67.603	19.818	3.8775e-06	27.655	108.708	46.717	55.927	-40.107	179.529	76.459	-40.090	-33.399	208.566	91.981	-33.586	-26.854	-26.328	-19.831	45.569	-20.245	-8191	255	
1246.173	1	1	0	0	0.27193	0.098624	0.15671	0.045742	0.14637	0.33303	0.15381	0.10332	0.012506	0.14876	0.10955	0.31742	0.24356	0.1313	0.26268	0.083376	-3.2667	-3.7333	-3.6667	-3.5687	-3.6937	-3.4833	-3.4542	-3.925	-3.4896	-3.4417	-3.775	-3.325	-3.6312	-3.5479	-3.2812	-3.8229	56.982	190.644	117.664	233.690	141.239	209.463	228.246	137.240	73.740	19.321	164.871	-7.682	115.598	-24.022	168.040	250.466	4.9018e-05	0.0005489	2.2613e-05	1201.8	3.6815e-06	5.2075e-06	1263.7	246.56	2.4378e-06	3.4534e-06	305.71	85.15	66.657	19.288	3.9216e-06	27.142	0.00037687	0.00037291	9.3852e-05	1171.6	4.212e-06	3.9373e-06	1236.9	243.47	4.2468e-06	4.0116e-06	302.12	85.577	67.464	19.721	3.6914e-06	27.587	84.650	-7.853	133.807	-40.410	137.253	43.866	-40.066	-33.431	-21.560	96.526	-33.540	-27.315	-26.663	-19.636	20.774	-19.853	-8191	255	
1246.271	1	1	0	0	0.20208	0.047805	0.22733	0.2588	0.26676	0.13688	0.081056	0.25429	0.10356	0.1572	0.37168	0.14735	0.18122	0.12712	0.20072	0.14145	-3.1792	-3.2604	-3.7208	-3.3958	-3.5583	-3.5563	-3.5458	-3.9875	-3.4917	-3.7542	-3.9167	-3.4417	-3.6417	-3.6417	-3.3167	-3.7896	80.810	269.136	266.399	-34.386	274.003	202.638	203.491	262.635	173.052	83.657	298.743	-31.010	105.853	281.174	-4.771	-31.485	0.00018443	0.00040112	0.00015165	1202.2	2.091e-07	1.07e-06	1263.7	244.78	1.3339e-06	1.4146e-06	306.42	85.027	66.564	19.317	1.5772e-06	27.123	0.0003746	0.00035674	9.0026e-05	1170.3	4.189e-06	3.7326e-06	1233.9	243.21	4.1011e-06	3.8001e-06	301.35	85.656	67.319	19.687	3.5485e-06	27.637	120.524	64.506	49.298	-40.148	35.581	192.409	-40.225	-33.085	105.675	53.371	-33.429	-26.803	-27.013	-20.023	82.752	-19.950	-8191	255	
1246.390	1	1	0	0	0.23757	0.15515	0.0055043	0.12454	0.11089	0.2784	0.15955	0.2647	0.15643	0.2897	0.28963	0.16903	0.17928	0.16833	0.14417	0.10816	-3.3063	-3.3812	-3.7646	-3.5646	-3.6958	-3.8583	-3.5187	-3.7562	-3.6271	-3.5354	-4.1312	-3.5625	-3.5896	-3.6646	-3.3979	-3.7979	-22.789	151.885	44.922	281.140	298.673	92.826	156.029	-26.849	39.648	63.360	213.102	-31.940	-10.565	72.814	235.995	191.828	0.00019092	0.00047744	4.8685e-05	1195.5	2.4125e-06	4.2524e-06	1261.2	245.41	4.6484e-06	2.6402e-06	305.59	84.651	66.839	19.494	7.3211e-07	27.153	0.00035308	0.00034012	8.6909e-05	1167.2	4.0182e-06	3.5843e-06	1234.6	243.64	3.9307e-06	3.7956e-06	301.2	85.753	67.45	19.775	3.7379e-06	27.849	115.583	9.919	78.937	-40.247	104.563	76.515	-39.956	-33.112	102.379	142.530	-33.235	-27.028	-26.617	-19.825	249.132	-20.036	-8191	255	
1246.486	1	1	0	0	0.19465	0.10139	0.26529	0.15181	0.14974	0.2654	0.17375	0.39367	0.084982	0.19045	0.128	0.10403	0.16835	0.025015	0.17243	0.18754	-3.1437	-3.45	-3.8083	-3.6229	-3.475	-3.825	-3.4583	-3.7125	-3.7229	-3.4542	-3.9813	-3.4771	-3.5563	-3.6854	-3.3104	-3.5771	108.968	244.660	95.382	271.427	12.549	35.808	244.571	225.771	47.456	-19.033	256.844	195.890	-4.167	160.273	180.289	-19.778	6.3201e-05	0.0007113	0.00013018	1198.3	1.4668e-06	4.2677e-06	1267.2	245.69	5.7607e-06	4.9406e-06	304.07	85.214	67.194	19.336	2.0793e-06	27.109	0.00035493	0.00034256	9.4115e-05	1171.3	4.0988e-06	3.6719e-06	1236	244.47	3.9998e-06	3.9185e-06	301.87	86.103	67.873	19.749	4.1293e-06	27.898	129.433	46.418	67.804	-40.353	75.224	96.388	-40.179	-32.992	16.164	138.901	-33.341	-26.922	-26.801	-19.874	192.620	-20.433	-8191	255	
1246.583	1	1	0	0	0.11973	0.059317	0.13896	0.043027	0.13113	0.20977	0.34534	0.36347	0.17788	0.20858	0.15653	0.30873	0.012823	0.17467	0.14523	0.20528	-3.3	-3.3542	-3.7438	-3.7333	-3.5875	-3.8958	-3.4271	-3.6688	-3.6042	-3.3333	-3.8771	-3.4625	-3.6437	-3.7646	-3.3937	-3.55	12.528	-16.054	153.723	220.164	260.252	144.578	235.731	221.249	217.734	265.158	-39.756	235.090	-2.086	294.716	116.094	149.275	6.6745e-05	0.00044349	0.00015015	1203.5	5.532e-07	4.7144e-06	1264.7	246.21	1.0112e-06	4.8759e-06	306.4	85.473	67.063	19.516	4.2436e-06	27.296	0.00035797	0.00035221	0.00010543	1174.7	4.1513e-06	3.736e-06	1242.4	245.12	3.9653e-06	3.9266e-06	304.03	86.089	67.716	19.812	4.4774e-06	27.965	60.761	58.762	47.032	-40.236	187.012	110.138	-40.418	-33.468	143.163	39.879	-33.475	-27.331	-26.996	-19.921	163.455	-20.073	-8191	255	
1246.679	1	1	0	0	0.12851	0.39723	0.13562	0.11369	0.14019	0.017356	0.17298	0.16945	0.16587	0.14061	0.074428	0.037191	0.12419	0.10766	0.14953	0.032851	-3.2646	-3.4208	-3.7125	-3.6625	-3.3917	-3.6312	-3.6083	-3.7583	-3.6396	-3.4104	-3.6458	-3.7667	-3.2458	-3.6896	-3.4458	-3.6312	262.452	19.094	169.190	307.855	20.495	71.599	290.086	-32.912	232.623	36.718	183.175	135.541	10.886	287.790	217.524	168.758	0.00018704	0.00043029	0.00012071	1203.8	2.0865e-06	4.2585e-06	1268.6	246.73	9.9721e-07	1.1455e-06	307.35	85.519	66.981	19.576	1.5368e-06	27.405	0.00035954	0.00036749	0.00011612	1179.1	4.1902e-06	3.9604e-06	1247.3	245.52	4.0151e-06	4.1839e-06	305.53	86.396	67.761	19.993	4.7662e-06	28.093	95.902	32.592	291.562	-40.344	54.999	122.492	-40.247	-33.355	120.852	198.265	-33.493	-26.956	-26.924	-20.014	21.613	-20.064	-8191	255	
1246.775	1	1	0	0	0.1276	0.22038	0.17597	0.26978	0.12559	0.057229	0.1622	0.19839	0.027589	0.17185	0.23929	0.11976	0.036917	0.09499	0.19284	0.21483	-3.3396	-3.4354	-3.7021	-3.5854	-3.1917	-3.7333	-3.6958	-3.5583	-3.5875	-3.4167	-3.6521	-3.7208	-3.3083	-3.6437	-3.4542	-3.2729	79.913	279.611	-10.879	252.076	264.987	9.931	207.886	201.243	262.610	84.852	222.522	290.104	-35.976	302.272	169.050	245.846	0.00018658	0.00019291	0.00014695	1208.6	3.5435e-06	3.6128e-07	1273.7	248.21	3.9271e-06	3.5971e-06	307.26	85.351	66.886	19.608	3.5848e-06	27.414	0.00036057	0.00039071	0.0001203	1180.9	4.1886e-06	4.2838e-06	1250.7	246.51	4.0065e-06	4.4583e-06	305.89	86.452	67.924	20.129	4.7019e-06	28.119	99.004	122.462	86.034	-40.267	161.035	189.584	-40.138	-33.213	215.205	67.871	-33.534	-26.861	-26.714	-19.679	279.601	-19.996	-8191	255	
1246.871	1	1	0	0	0.13048	0.033681	0.048411	0.060897	0.1945	0.15969	0.18029	0.19458	0.015534	0.10503	0.2175	0.11433	0.17778	0.094141	0.13094	0.11804	-3.3812	-3.4125	-3.4875	-3.8896	-3.2646	-3.7146	-3.6562	-3.4979	-3.5062	-3.2833	-3.6688	-3.6708	-3.5563	-3.7917	-3.3812	-3.3458	221.084	170.274	170.460	59.774	229.188	-1.838	266.474	211.278	49.766	267.760	28.934	-9.634	-39.402	15.488	150.519	-31.219	0.00016022	0.00035403	0.0001581	1212.2	1.9476e-06	1.8274e-06	1278.9	247.61	4.7055e-06	7.5648e-06	307.66	85.684	67.815	19.514	5.1043e-06	27.357	0.00036067	0.00042228	0.00011906	1184	4.1534e-06	4.5274e-06	1252.2	246.57	3.9394e-06	4.6832e-06	305.99	86.562	68.258	20.196	4.4014e-06	28.037	122.575	86.322	-23.774	-40.439	-43.312	266.073	-40.070	-33.220	125.715	65.623	-33.540	-27.355	-26.908	-19.744	84.124	-19.996	-8191	255	
1246.967	1	1	0	0	0.13781	0.033194	0.20808	0.40511	0.13824	0.11971	0.32411	0.24406	0.14538	0.09427	0.20579	0.14841	0.089059	0.073019	0.17681	0.20049	-3.2542	-3.3479	-3.4458	-3.7771	-3.2271	-3.6854	-3.7146	-3.3708	-3.5604	-3.5042	-3.5583	-3.7562	-3.2667	-3.7333	-3.6042	-3.4313	304.413	218.214	199.455	263.315	-14.386	280.210	292.247	264.164	225.798	9.886	36.383	-30.284	199.266	229.934	-7.775	191.792	0.00018306	0.00035432	0.00013679	1210.7	6.5829e-06	2.1697e-06	1279.6	248.04	2.6246e-06	7.1324e-06	308.13	85.77	67.903	19.656	2.6625e-06	27.514	0.00035164	0.00042613	0.00011175	1183.3	4.1408e-06	4.5185e-06	1252.8	246.43	3.9251e-06	4.5379e-06	305.71	86.536	68.228	20.187	4.008e-06	27.965	99.042	-14.997	0.524	-40.385	173.476	105.909	-40.239	-33.208	60.713	136.308	-33.552	-27.098	-26.858	-19.955	40.478	-20.273	-8191	255	
1247.086	1	1	0	0	0.072054	0.016683	0.16469	0.23752	0.034129	0.19236	0.18163	0.10328	0.086159	0.12093	0.16833	0.079664	0.061444	0.16863	0.24839	0.29095	-3.4125	-3.4896	-3.4875	-3.8479	-3.5271	-3.5667	-3.6708	-3.4688	-3.6646	-3.4354	-3.5625	-3.8021	-3.4188	-3.5312	-3.7438	-3.475	67.800	156.104	178.415	277.701	210.704	25.829	226.629	-44.299	-4.062	151.212	245.992	276.041	-42.708	116.103	204.298	188.513	0.00019165	0.00066363	8.8014e-05	1213.1	1.9168e-06	6.6596e-07	1275.4	248.96	3.803e-07	3.3274e-06	308.65	86.054	67.543	19.729	3.1077e-06	27.641	0.00036738	0.00041114	0.00010774	1180.7	4.3782e-06	4.5317e-06	1248.7	246.24	4.3263e-06	4.5371e-06	305.18	86.512	68.606	20.21	4.1468e-06	28.105	112.268	33.739	33.985	-40.489	161.751	280.535	-40.208	-33.426	265.110	101.436	-33.057	-27.220	-26.793	-19.735	153.950	-20.146	-8191	255	
1247.182	1	1	0	0	0.063742	0.17719	0.31643	0.073763	0.097633	0.16971	0.16452	0.078539	0.15824	0.051555	0.23129	0.31952	0.18522	0.31212	0.25025	0.19894	-3.3167	-3.4708	-3.4938	-3.975	-3.4229	-3.6271	-3.8937	-3.3063	-3.5792	-3.5979	-3.5125	-3.8396	-3.2417	-3.5938	-3.725	-3.4021	64.757	101.035	86.202	229.936	70.480	-25.062	275.853	55.455	126.065	291.995	195.928	-23.305	29.693	285.942	-19.117	17.749	0.00018464	0.00020546	0.00012424	1204.8	4.4918e-06	6.6028e-07	1278.9	248.58	3.6412e-06	5.3927e-06	309.45	86.203	67.97	19.6	2.2058e-06	27.329	0.00040383	0.00041007	0.00010846	1177.5	4.6541e-06	4.5007e-06	1247.1	246.53	4.6097e-06	4.3468e-06	306.06	86.685	68.791	20.194	3.9288e-06	28.061	88.108	83.163	-20.391	-40.278	123.696	242.785	-40.132	-33.367	154.647	140.706	-33.389	-26.705	-26.732	-20.011	85.125	-20.163	-8191	255	
1247.278	1	1	0	0	0.18085	0.18874	0.13288	0.25565	0.15368	0.24727	0.052678	0.11007	0.099497	0.03286	0.17281	0.30312	0.30628	0.14078	0.20205	0.094648	-3.4333	-3.6021	-3.4104	-4.2292	-3.6167	-3.6146	-4.075	-3.425	-3.7458	-3.7125	-3.2729	-3.8083	-3.3896	-3.3563	-3.8125	-3.4292	201.284	233.253	30.998	-27.272	-11.984	95.072	222.001	147.165	30.665	290.569	-29.532	-42.563	293.307	50.340	214.947	0.276	0.00010017	0.00039393	0.00025451	1204.4	4.2034e-06	3.6168e-06	1270.9	247.88	3.7971e-06	3.3091e-06	308.62	85.809	67.301	19.625	2.6786e-06	27.54	0.00041485	0.00038704	0.00010457	1178.4	4.679e-06	4.374e-06	1242	246.39	4.6569e-06	4.2149e-06	304.69	86.85	68.568	20.188	3.9417e-06	28.275	121.683	86.931	-19.704	-40.120	20.886	83.508	-40.070	-33.234	251.887	156.274	-33.467	-26.914	-26.771	-19.670	133.565	-20.279	-8191	255	
1247.352	1	1	0	0	0.044755	0.16579	0.021762	0.31364	0.12823	0.1684	0.3141	0.026734	0.041707	0.15154	0.26417	0.19076	0.29386	0.15155	0.12136	0.068506	-3.1917	-3.675	-3.2562	-3.9	-3.5375	-3.4	-3.7708	-3.3792	-3.5	-3.5521	-3.4833	-3.5625	-3.5292	-3.2062	-3.675	-3.4208	142.482	168.027	294.242	260.684	82.274	205.235	253.299	256.934	298.904	106.080	26.289	153.325	167.466	182.860	29.077	-43.924	4.7582e-05	0.00032784	0.00013606	1205.5	4.4421e-06	5.0102e-06	1266.1	248.86	6.197e-06	5.0357e-06	308.57	85.722	67.98	19.728	1.5807e-06	27.542	0.0004132	0.00038478	0.00010275	1178.6	4.5173e-06	4.2399e-06	1240.5	247.47	4.4446e-06	4.051e-06	304.53	86.899	68.351	20.139	3.7891e-06	28.206	179.921	-30.135	12.922	-40.241	39.051	289.565	-40.027	-33.330	2.406	100.416	-33.505	-27.003	-26.726	-19.633	201.088	-20.067	-8191	255	
1247.471	1	1	0	0	0.067726	0.11414	0.035874	0.32251	0.17649	0.2975	0.2192	0.12964	0.19098	0.12643	0.1797	0.24048	0.12849	0.13485	0.028326	0.25093	-3.1792	-3.6063	-3.2792	-3.9813	-3.4396	-3.3708	-3.9625	-3.3667	-3.2917	-3.6437	-3.3021	-3.7292	-3.5542	-3.3688	-3.7708	-3.2833	280.596	-22.238	-6.675	281.646	263.006	85.952	248.523	199.562	128.735	202.733	248.670	233.414	283.354	99.995	151.518	267.493	5.0534e-05	0.00032274	0.00014258	1205	2.3024e-06	2.941e-06	1267.1	247.22	2.3604e-06	5.7862e-06	306.81	85.598	67.322	19.722	2.8625e-06	27.632	0.00038363	0.00035513	0.00010202	1177.9	4.2227e-06	3.9983e-06	1241.3	246.69	4.2643e-06	3.8095e-06	304.42	87.039	68.028	20.095	3.9561e-06	28.168	149.079	106.840	20.022	-40.299	93.028	60.207	-40.086	-33.423	79.303	61.706	-33.513	-26.934	-26.618	-19.928	122.289	-20.341	-8191	255	
1247.567	1	1	0	0	0.051289	0.07075	0.40874	0.092525	0.026344	0.13901	0.28738	0.19673	0.12168	0.26872	0.060081	0.21854	0.15536	0.097363	0.10146	0.21474	-3.0854	-3.6646	-3.2521	-3.75	-3.6625	-3.2792	-4.0125	-3.3021	-3.4146	-3.8187	-3.5354	-3.7208	-3.5854	-3.4396	-3.5833	-3.5187	204.033	146.821	277.428	227.484	138.635	50.007	282.873	174.089	159.181	140.998	83.305	-15.658	260.230	266.738	280.054	254.641	0.00015265	0.00018122	0.00013073	1203.8	3.2537e-06	1.5489e-06	1269.1	247.99	2.5586e-06	2.4998e-06	308.64	85.326	67.756	19.567	1.7152e-06	27.429	0.00036757	0.00033448	0.00010472	1177.5	3.9603e-06	3.8544e-06	1242.6	246.08	4.1004e-06	3.6031e-06	304.87	86.606	68.115	20.044	4.2556e-06	28.07	129.004	291.692	47.871	-40.272	88.776	147.669	-40.365	-33.150	35.020	49.395	-33.351	-27.269	-26.901	-20.002	210.566	-20.184	-8191	255	
1247.663	1	1	0	0	0.10873	0.17332	0.15379	0.091994	0.13467	0.11039	0.19163	0.19903	0.17187	0.1671	0.29408	0.064137	0.30131	0.17747	0.17458	0.14454	-2.9833	-3.5479	-3.3708	-3.8083	-3.7042	-3.3208	-3.7979	-3.5438	-3.3875	-3.7292	-3.4125	-3.6	-3.7458	-3.2229	-3.7083	-3.8208	78.401	-48.004	-36.031	149.887	96.015	150.752	255.145	272.187	251.133	14.107	51.154	74.286	-46.832	193.293	127.521	293.384	0.00015639	0.000339	0.00013112	1205.6	2.9442e-06	2.1379e-06	1272.5	248.34	1.1127e-06	2.6249e-06	308.88	85.797	67.845	19.7	3.2864e-06	27.641	0.00036569	0.0003389	0.00011099	1177.9	3.928e-06	3.9421e-06	1246.1	246.45	4.1339e-06	3.8972e-06	306.26	86.811	68.098	20.163	4.511e-06	28.231	64.249	143.119	106.196	-40.255	162.293	37.088	-40.272	-33.078	-25.248	20.336	-33.493	-26.937	-27.150	-19.928	149.684	-20.012	-8191	255	
1247.759	1	1	0	0	0.041839	0.21755	0.079739	0.16856	0.20644	0.094561	0.25607	0.17683	0.023863	0.3827	0.2058	0.18484	0.13119	0.24017	0.19733	0.26991	-2.9979	-3.7021	-3.3417	-3.4188	-3.7729	-3.3833	-3.7646	-3.4313	-3.2083	-3.7313	-3.5271	-3.5042	-3.8479	-3.5229	-3.7542	-3.7167	281.750	217.049	144.416	211.665	20.989	6.832	231.421	275.185	-29.484	-39.684	56.148	-27.901	146.001	-6.811	-47.197	-18.608	0.00015114	0.00039608	5.2747e-05	1203.8	1.354e-06	5.0805e-06	1273.2	247.38	5.3206e-06	4.8298e-06	308.7	86.002	67.962	19.629	2.8373e-06	27.544	0.00036769	0.00036793	0.00011897	1178.5	3.9054e-06	4.2682e-06	1251	246.61	4.1461e-06	4.29e-06	306.83	87.175	68.332	20.266	4.6514e-06	28.188	99.034	-5.066	6.753	-40.403	43.442	51.446	-40.122	-33.144	156.053	-18.144	-33.396	-27.259	-26.842	-19.849	213.798	-20.589	-8191	255	
1247.878	1	1	0	0	0.1723	0.067874	0.072559	0.15511	0.17804	0.18528	0.15335	0.25432	0.21887	0.13929	0.045656	0.093482	0.067923	0.027927	0.13283	0.25553	-3.0854	-3.7333	-3.425	-3.4833	-3.7146	-3.3125	-3.6375	-3.6667	-3.2417	-3.8479	-3.6562	-3.5375	-3.9083	-3.35	-3.5375	-3.9437	175.280	257.579	30.653	280.819	43.471	274.534	216.645	181.279	51.316	128.094	171.431	31.162	227.382	189.639	-21.016	188.124	0.000126	0.00033	0.00021523	1211.7	1.1694e-06	1.6786e-06	1274.7	249.2	4.2148e-06	2.417e-06	311.58	85.562	68.034	19.896	4.0498e-06	27.695	0.00036485	0.00040237	0.00011735	1184.6	3.9396e-06	4.5775e-06	1254.1	247.4	4.1297e-06	4.5438e-06	307.64	87.19	68.529	20.43	4.5978e-06	28.255	93.477	41.410	31.385	-40.330	145.862	41.693	-40.221	-33.345	-18.823	31.520	-33.575	-26.957	-26.711	-19.591	-8.443	-20.550	-8191	255	
1247.974	1	1	0	0	0.22743	0.2002	0.15377	0.020946	0.1912	0.12028	0.25	0.37026	0.26141	0.093202	0.16993	0.14223	0.21141	0.17498	0.13976	0.21231	-2.9417	-3.8854	-3.9208	-3.5854	-3.8354	-3.5375	-3.7229	-3.5208	-3.3229	-3.6854	-3.575	-3.3333	-3.7042	-3.4021	-3.4021	-3.9583	283.749	136.237	-19.852	162.199	275.591	273.003	246.247	301.228	302.053	-21.991	-35.462	-29.732	222.379	297.799	147.325	271.703	0.00011896	0.0004409	6.7713e-05	1209.9	4.8149e-06	4.0237e-06	1277.8	249.72	4.3072e-06	4.0065e-06	310.3	86.929	67.999	19.845	3.5543e-06	27.572	0.00037521	0.00042092	0.00011315	1185.3	4.0562e-06	4.7618e-06	1253.6	247.49	4.2234e-06	4.7396e-06	307.29	87.254	68.649	20.424	4.386e-06	28.159	97.503	91.513	-17.604	-40.195	123.315	99.593	-39.978	-33.328	179.604	116.037	-33.705	-27.155	-26.813	-19.743	94.137	-20.424	-8191	255	
1248.072	1	1	0	0	0.097039	0.33647	0.14709	0.18573	0.19545	0.026403	0.040009	0.2105	0.25855	0.16425	0.20559	0.1406	0.12804	0.25205	0.24698	0.11747	-3.075	-3.8479	-3.7375	-3.5458	-3.8729	-3.3542	-3.4229	-3.7542	-3.2687	-3.7687	-3.5625	-3.4583	-3.9354	-3.4667	-3.5062	-3.9229	273.968	38.776	204.798	-48.550	270.388	273.936	172.113	267.804	304.218	-8.372	302.690	224.621	37.393	-29.192	-12.205	257.331	0.00016151	0.00029694	0.00019649	1210.2	5.9197e-06	5.2419e-06	1278.3	248.89	1.452e-06	5.411e-06	310.13	86.33	68.175	19.887	4.2945e-06	27.651	0.00038288	0.0004257	0.00010684	1182.3	4.2308e-06	4.5839e-06	1252.9	246.9	4.3739e-06	4.4994e-06	306.42	87.07	68.729	20.355	4.1799e-06	28.122	108.317	56.996	64.231	-40.222	135.119	84.893	-40.209	-33.425	113.218	80.826	-33.322	-27.195	-27.082	-19.791	195.531	-20.666	-8191	255	
1248.168	1	1	0	0	0.19559	0.11084	0.1153	0.16527	0.22755	0.13921	0.33398	0.19354	0.22064	0.089233	0.060648	0.12263	0.093636	0.047616	0.18208	0.14612	-3.1375	-3.5854	-3.3937	-3.4708	-3.6063	-3.6083	-3.4146	-3.7771	-3.4083	-3.5542	-3.8083	-3.4	-3.6	-3.6562	-3.3896	-3.9313	102.781	85.015	80.990	302.852	134.802	95.513	245.872	-47.872	134.801	-12.778	73.541	258.034	-9.312	214.358	158.259	255.622	0.00016642	0.0002018	0.0001012	1204.5	3.3874e-06	7.5772e-06	1271	249.33	6.6061e-06	4.4809e-06	308.41	86.298	68.09	19.735	3.2009e-06	27.671	0.0003951	0.00040236	0.0001016	1178.8	4.3595e-06	4.3304e-06	1245.6	247.11	4.4038e-06	4.3619e-06	304.9	86.788	68.715	20.249	4.0051e-06	28.126	122.993	61.928	84.487	-40.136	99.806	89.879	-40.349	-33.334	-47.774	64.167	-33.414	-26.918	-26.739	-20.169	256.203	-20.508	-8191	255	
1248.263	1	1	0	0	0.25148	0.20382	0.057303	0.23517	0.10071	0.26163	0.26838	0.12534	0.042078	0.10607	0.13802	0.21043	0.15788	0.16831	0.0072425	0.077755	-3.0875	-3.3792	-3.7042	-3.3854	-3.55	-3.5958	-3.3937	-3.8396	-3.2583	-3.5125	-3.8042	-3.5229	-3.7208	-3.5271	-3.3063	-3.8208	172.924	-14.168	-44.896	243.774	36.368	-1.653	247.797	196.426	252.225	260.009	-37.003	287.135	217.531	167.918	113.356	78.569	0.0001821	0.0005889	0.0001271	1203.8	3.654e-06	2.0066e-06	1272.2	247.6	4.0723e-06	1.3838e-06	307.82	86.178	67.522	19.803	2.3792e-06	27.518	0.0003993	0.00038287	9.7103e-05	1176.3	4.3875e-06	4.0916e-06	1243.3	246.11	4.3637e-06	4.0207e-06	304.31	86.657	68.378	20.115	3.7185e-06	28.061	67.613	-33.236	0.684	-40.222	305.536	84.732	-40.163	-33.116	140.751	239.274	-33.678	-26.906	-26.638	-20.364	123.711	-20.225	-8191	255	
1248.359	1	1	0	0	0.30162	0.14783	0.11244	0.20391	0.18616	0.1285	0.22846	0.2357	0.051771	0.11527	0.12682	0.067258	0.17046	0.1481	0.20678	0.18061	-3.3021	-3.4354	-3.85	-3.4062	-3.4167	-3.4979	-3.3521	-3.6625	-3.4417	-3.2812	-3.8375	-3.5083	-3.8625	-3.7104	-3.4667	-3.7229	210.091	83.188	-35.404	217.679	118.719	-32.676	185.204	153.026	5.610	-45.178	40.904	16.566	-25.472	50.119	250.718	273.035	0.00014752	0.00021595	0.00011738	1198.5	2.5275e-06	5.3065e-06	1265.9	247.67	6.0643e-06	5.7053e-06	307.41	85.463	67.489	19.716	1.8846e-06	27.399	0.00037828	0.00036608	9.191e-05	1172.9	4.2159e-06	3.8454e-06	1235.9	245.88	4.1044e-06	3.9135e-06	303.21	86.609	68.141	20.043	3.669e-06	28.121	140.046	172.065	113.268	-40.267	54.056	66.903	-40.042	-33.352	96.474	26.921	-33.372	-27.216	-26.775	-19.782	55.325	-20.528	-8191	255	
1248.479	1	1	0	0	0.13959	0.1208	0.18924	0.17175	0.14955	0.21774	0.21958	0.14292	0.10932	0.15376	0.18392	0.37414	0.1337	0.17296	0.33224	0.17697	-3.1708	-3.5292	-3.6542	-3.4458	-3.4646	-3.4813	-3.375	-3.7667	-3.5479	-3.3563	-3.7417	-3.525	-3.6708	-3.9208	-3.2917	-3.5583	-43.622	31.282	47.134	-33.661	167.556	-43.789	-31.715	136.637	293.053	10.480	-47.766	236.783	24.273	233.810	112.312	-20.058	0.00010732	0.00021461	5.3492e-05	1195.9	3.3602e-06	1.5824e-06	1260.3	247.16	3.6795e-06	1.1122e-06	306.22	85.813	67.294	19.712	5.1077e-06	27.44	0.000357	0.00034732	8.9466e-05	1169.6	3.9706e-06	3.6261e-06	1234.4	245.84	3.9107e-06	3.7849e-06	303.27	86.597	67.898	19.985	3.7925e-06	28.093	110.473	88.299	-16.023	-40.184	151.462	158.127	-40.145	-33.152	85.682	113.725	-33.121	-26.930	-26.360	-19.410	100.043	-20.111	-8191	255	
1248.575	1	1	0	0	0.2971	0.075368	0.046626	0.11216	0.13244	0.19746	0.19901	0.058437	0.14798	0.24349	0.083351	0.024491	0.18161	0.12429	0.19172	0.064143	-3.1167	-3.4729	-3.5021	-3.4021	-3.475	-3.825	-3.4333	-3.5229	-3.5312	-3.2292	-3.8438	-3.3854	-3.7104	-3.975	-3.3521	-3.6208	190.491	260.320	245.096	-25.914	230.268	97.809	251.018	-16.717	135.986	198.589	186.372	300.501	95.017	300.924	46.278	215.554	9.0032e-05	0.00029682	0.00014086	1201.4	1.0991e-06	3.2848e-06	1264.5	247.8	2.3874e-06	5.1051e-07	307.95	85.649	67.352	19.647	9.3814e-07	27.486	0.00033956	0.00033529	9.5291e-05	1171.4	3.867e-06	3.4809e-06	1235.7	246	3.6836e-06	3.6113e-06	303.71	86.423	67.771	19.927	3.9742e-06	28.094	91.800	6.616	123.340	-40.100	114.131	102.949	-40.100	-33.125	73.443	156.416	-33.546	-26.926	-26.563	-20.095	96.458	-20.183	-8191	255	
1248.647	1	1	0	0	0.13583	0.092937	0.070682	0.21859	0.2337	0.22552	0.19698	0.32983	0.15739	0.09021	0.29649	0.25048	0.32835	0.077443	0.11408	0.12462	-3.2708	-3.425	-3.7521	-3.6312	-3.4958	-3.6688	-3.45	-3.775	-3.8625	-3.4833	-3.8688	-3.6688	-3.6083	-4.025	-3.6896	-3.7417	-1.729	174.595	-22.954	230.119	196.206	51.632	209.483	290.723	105.297	-29.235	-36.858	269.445	260.801	-36.471	112.824	-30.185	9.9635e-05	0.00053539	0.00017197	1191.1	2.4828e-06	4.2751e-06	1266.5	246.98	4.582e-06	3.4251e-06	307.59	85.554	67.52	19.675	1.2343e-06	27.533	0.00033043	0.00032985	0.00010191	1167.8	3.8172e-06	3.4852e-06	1238	245.7	3.6295e-06	3.6503e-06	304.15	86.361	67.866	19.951	4.147e-06	28.031	103.946	76.929	106.516	-40.063	124.966	61.449	-40.139	-33.262	69.542	253.825	-33.347	-27.199	-26.732	-19.745	65.419	-20.105	-8191	255	
1248.768	1	1	0	0	0.025329	0.17183	0.24029	0.10048	0.10547	0.15694	0.30996	0.056941	0.088583	0.035789	0.19575	0.20765	0.19655	0.076819	0.22067	0.28179	-3.3479	-3.15	-3.7417	-3.6063	-3.45	-3.525	-3.5938	-3.4458	-3.5333	-3.3563	-3.6125	-3.6562	-3.3875	-3.7667	-3.3292	-3.3583	25.053	-28.655	92.763	271.182	170.555	102.759	266.402	229.040	88.081	156.119	-2.907	306.148	106.831	84.713	0.166	249.341	0.00011696	0.00029971	6.3403e-05	1196	2.278e-06	1.2957e-06	1266.9	248.6	4.1864e-06	1.7101e-06	306.63	85.918	67.512	19.754	2.7425e-06	27.49	0.00032272	0.00034077	0.00010614	1169.1	3.664e-06	3.5989e-06	1240.8	245.64	3.4951e-06	3.791e-06	304.26	86.173	67.653	20.036	4.042e-06	28.01	93.791	41.560	30.591	-40.422	59.691	84.071	-40.212	-33.058	84.779	108.680	-33.145	-26.962	-26.697	-19.887	167.064	-19.866	-8191	255	
1248.864	1	1	0	0	0.15085	0.02301	0.13221	0.12333	0.16594	0.22486	0.19119	0.15601	0.1535	0.17548	0.070491	0.29239	0.11982	0.15486	0.092872	0.21264	-3.3854	-3.1667	-3.4667	-3.4292	-3.2667	-3.5833	-3.4625	-3.6854	-4.0542	-3.3854	-3.6896	-3.7833	-3.5083	-3.875	-3.4938	-3.4854	136.839	308.532	249.369	275.919	105.012	283.199	293.478	255.794	-34.389	100.657	300.474	240.028	257.623	-1.525	59.573	231.097	0.00015453	0.00065606	0.0001609	1199	3.0532e-06	1.3902e-06	1260.7	247.43	4.9745e-06	1.9518e-06	307.73	86.227	67.609	19.829	2.3735e-06	27.363	0.00030832	0.00035101	0.00010439	1168.2	3.5525e-06	3.8278e-06	1237.1	245.39	3.4547e-06	4.0039e-06	304.08	86.181	67.945	20.12	4.0286e-06	28.038	86.680	53.842	57.021	-40.262	156.596	-4.579	-40.163	-33.415	77.969	102.919	-33.638	-27.219	-26.610	-19.923	82.098	-20.762	-8191	255	
1248.960	1	1	0	0	0.20041	0.025834	0.18028	0.29567	0.16289	0.27677	0.068427	0.13845	0.23274	0.12421	0.031939	0.13024	0.11614	0.096139	0.15565	0.20942	-3.2917	-3.2792	-3.5146	-3.9	-3.1688	-3.5771	-3.5458	-3.4771	-3.4375	-3.5042	-3.7125	-3.6562	-3.2625	-3.7062	-3.6167	-3.1479	160.153	13.062	-40.237	237.432	-8.992	280.082	269.735	306.872	251.824	265.688	166.327	234.200	-31.842	-46.874	-28.744	218.039	0.00015411	0.00027097	0.00011037	1202.4	1.5996e-06	3.187e-06	1262.8	249.03	3.4946e-06	2.6985e-06	308.74	85.879	67.552	19.736	3.8136e-06	27.642	0.000318	0.00037853	0.00010388	1169.9	3.7297e-06	4.2502e-06	1237.6	245.88	3.7572e-06	4.396e-06	304.52	86.281	68.016	20.227	4.0604e-06	28.085	114.763	-3.440	11.417	-40.024	80.793	178.788	-40.259	-33.195	163.614	179.305	-33.153	-27.019	-26.903	-19.693	109.165	-20.018	-8191	255	
1249.056	1	1	0	0	0.19519	0.18649	0.14529	0.064973	0.22861	0.19099	0.1873	0.072684	0.22232	0.25411	0.24277	0.10648	0.14768	0.046053	0.23998	0.19312	-3.2792	-3.3979	-3.4896	-3.8375	-3.3	-3.575	-3.8104	-3.2833	-3.6312	-3.4688	-3.4458	-3.7125	-3.3563	-3.4688	-3.7292	-3.2313	300.762	53.253	185.464	-25.883	-9.703	113.872	215.955	236.424	199.538	134.512	-42.453	257.492	250.652	21.824	-50.397	162.739	0.00017321	0.00053534	5.3058e-05	1201.5	9.4407e-07	2.5176e-06	1267	248.08	2.9964e-06	1.8411e-06	308.61	85.497	67.094	19.78	5.353e-07	27.731	0.00035279	0.00040529	0.00010682	1171.6	4.0917e-06	4.4547e-06	1240.5	245.66	4.0524e-06	4.4573e-06	305.5	86.308	68.25	20.261	3.9354e-06	28.089	116.609	-43.340	218.232	-40.304	25.808	85.465	-40.089	-33.319	189.544	186.366	-33.539	-27.160	-26.670	-19.954	-15.380	-20.348	-8191	255	
1249.175	1	1	0	0	0.0035771	0.19567	0.038445	0.33288	0.11266	0.12985	0.33225	0.14028	0.096262	0.2161	0.10855	0.092204	0.28123	0.12695	0.085576	0.036515	-3.3125	-3.5812	-3.3542	-3.8354	-3.3021	-3.725	-3.75	-3.3354	-3.725	-3.4229	-3.5229	-3.6625	-3.2958	-3.5521	-3.5271	-3.3979	122.411	280.510	209.113	247.110	173.972	136.335	250.192	-33.353	-15.944	73.409	-39.397	272.913	160.792	20.812	149.196	123.880	0.00022114	0.00078237	0.00021628	1199.9	5.2821e-06	4.2361e-06	1269.4	246.9	1.402e-06	4.8063e-07	308.87	85.677	67.499	19.684	2.7847e-06	27.637	0.00037658	0.00039316	0.00010555	1172.2	4.3183e-06	4.3587e-06	1239.9	245.14	4.2803e-06	4.2353e-06	305.03	86.32	68.381	20.217	3.8233e-06	28.104	121.533	32.956	32.581	-40.074	198.777	136.171	-40.149	-33.551	216.673	-26.590	-33.090	-27.017	-26.425	-19.562	162.806	-19.723	-8191	255	
1249.271	1	1	0	0	0.11492	0.080097	0.25132	0.14463	0.099576	0.065458	0.040735	0.26259	0.066733	0.12084	0.23101	0.27096	0.07757	0.057867	0.17607	0.25358	-3.2125	-3.5833	-3.4542	-3.7083	-3.35	-3.6458	-3.7667	-3.3833	-3.6375	-3.5958	-3.5	-3.8604	-3.5271	-3.5062	-3.6396	-3.4083	123.299	-18.011	122.503	273.972	25.817	127.742	253.434	264.927	302.457	303.531	285.941	299.467	205.876	236.172	282.651	195.283	0.00016925	0.0004136	0.00014255	1199.7	1.31e-06	3.3093e-06	1270.1	248.02	3.888e-06	9.556e-07	306.91	85.587	67.222	19.752	2.2274e-06	27.362	0.00039278	0.00037859	0.00010111	1172.3	4.3921e-06	4.1476e-06	1238.8	246.55	4.3976e-06	3.9495e-06	304.04	86.375	68.27	20.157	3.6895e-06	28.142	109.293	3.978	8.746	-40.353	291.188	104.377	-40.334	-33.379	187.618	42.423	-33.360	-26.926	-26.710	-20.089	90.604	-19.877	-8191	255	
1249.343	1	1	0	0	0.13461	0.18093	0.29593	0.11831	0.134	0.081561	0.24366	0.088439	0.045214	0.18634	0.21195	0.26376	0.14274	0.19643	0.036909	0.021012	-3.3937	-3.5646	-3.4417	-3.9021	-3.3563	-3.5687	-3.9833	-3.5438	-3.6167	-3.6292	-3.4229	-3.5771	-3.5396	-3.4771	-3.6021	-3.3479	163.803	77.640	168.016	-43.487	41.521	213.609	211.976	299.829	260.031	112.040	299.347	221.460	297.222	138.726	126.944	-23.738	0.00012378	0.00077936	0.00018807	1200.8	1.6755e-06	4.4461e-06	1265.9	246.45	4.8619e-06	3.6985e-06	307.89	85.503	67.709	19.829	2.6175e-06	27.679	0.00039429	0.0003658	9.8767e-05	1172.6	4.3911e-06	4.0435e-06	1238.9	246.25	4.4074e-06	3.8949e-06	304.58	86.583	68.297	20.211	3.7098e-06	28.296	120.368	7.554	-36.895	-40.248	-22.020	143.663	-40.160	-33.201	37.029	108.892	-33.509	-26.936	-27.019	-19.700	136.623	-20.056	-8191	255	
1249.439	1	1	0	0	0.15474	0.22252	0.15049	0.25268	0.20775	0.022042	0.12153	0.11443	0.14245	0.12031	0.14999	0.20081	0.15562	0.18929	0.22373	0.23964	-3.1604	-3.6562	-3.3333	-3.825	-3.4958	-3.4	-4.2083	-3.5333	-3.7208	-3.7833	-3.5146	-3.6542	-3.6229	-3.5	-3.7021	-3.3708	245.886	-15.478	62.209	281.167	145.790	265.996	275.636	217.135	209.446	201.373	183.774	175.644	212.644	-13.924	70.061	-21.225	0.00012901	0.00041011	0.0001816	1200.8	2.9653e-06	3.971e-06	1262.9	247.78	2.8108e-06	6.3938e-06	307.13	85.815	67.604	19.711	1.201e-06	27.64	0.00038473	0.00035255	9.8441e-05	1176.1	4.1797e-06	4.0253e-06	1240.8	246.66	4.2292e-06	3.8107e-06	304.49	86.972	68.186	20.122	3.8568e-06	28.324	75.521	40.385	96.944	-40.019	116.474	108.539	-40.110	-33.251	149.997	38.330	-33.385	-26.776	-26.577	-19.728	58.181	-20.273	-8191	255	
1249.560	1	1	0	0	0.042942	0.037607	0.1118	0.20309	0.28716	0.2587	0.1611	0.08883	0.11038	0.039705	0.21622	0.15811	0.15931	0.35061	0.35791	0.10133	-3.2542	-3.8229	-3.3771	-3.6854	-3.7062	-3.3833	-3.9479	-3.4333	-3.3667	-3.7229	-3.2854	-3.8917	-3.6604	-3.2188	-3.75	-3.55	170.876	-50.484	199.757	247.134	166.447	253.024	229.563	256.258	235.666	215.969	304.053	235.377	170.189	259.750	145.065	75.087	6.3821e-05	0.00052574	0.0001693	1201.4	1.5017e-06	4.5278e-06	1272.6	249.93	1.343e-06	3.9098e-06	308.45	86.247	67.672	19.746	1.78e-06	27.467	0.0003695	0.00034373	0.00010225	1176.1	4.0278e-06	3.9594e-06	1242.5	247.49	4.0904e-06	3.6861e-06	305.41	87.178	68.188	20.092	4.0791e-06	28.219	120.400	22.302	36.809	-40.076	68.945	15.643	-40.332	-33.182	-12.669	70.822	-33.607	-27.211	-26.730	-19.772	62.387	-20.120	-8191	255	
1249.656	1	1	0	0	0.094463	0.023551	0.089807	0.48504	0.21001	0.034105	0.12339	0.09837	0.07937	0.13628	0.16509	0.19759	0.17434	0.29412	0.33966	0.14533	-3.0792	-3.7271	-3.3792	-3.8396	-3.6583	-3.3229	-3.8146	-3.5812	-3.4958	-3.7646	-3.4188	-3.4562	-3.7521	-3.4813	-3.625	-3.4146	289.484	203.694	42.763	275.112	277.346	89.122	223.267	233.948	213.566	78.502	288.974	19.722	124.594	294.455	301.274	150.084	0.00022888	0.00011384	0.00010661	1200.6	1.5472e-06	4.5225e-06	1268.7	248.19	3.7066e-06	2.5685e-06	307.55	86.054	67.419	19.7	3.0896e-06	27.439	0.00036093	0.00033243	0.00010672	1175.1	3.8484e-06	3.7935e-06	1242.3	246.5	3.9883e-06	3.6143e-06	305.64	86.98	67.934	20.114	4.2698e-06	28.129	86.989	-24.001	66.596	-40.242	282.871	40.633	-40.344	-33.040	31.578	141.554	-33.269	-27.064	-26.657	-19.611	206.039	-20.308	-8191	255	
1249.752	1	1	0	0	0.27681	0.030939	0.075538	0.3077	0.13636	0.23998	0.19105	0.16309	0.095787	0.11124	0.11675	0.2392	0.0053266	0.18797	0.048789	0.13073	-2.9562	-3.7938	-3.3292	-3.6	-3.7021	-3.2896	-3.8167	-3.6813	-3.2479	-3.6958	-3.4729	-3.4396	-3.6979	-3.4333	-3.6292	-3.5646	265.845	237.720	90.855	266.809	-7.435	286.972	231.766	159.879	262.017	304.214	284.680	296.703	-50.678	271.092	51.429	-12.140	0.00026227	0.00075076	9.605e-05	1201.6	5.3504e-07	2.5355e-06	1267.7	247.04	3.1318e-06	3.5306e-06	308.18	85.777	67.433	19.68	4.4052e-06	27.651	0.00035233	0.0003351	0.00010927	1174.6	3.7669e-06	3.8058e-06	1241.1	245.6	3.8184e-06	3.7751e-06	305.37	86.478	67.788	20.126	4.3523e-06	28.128	91.890	40.536	132.588	-40.309	-9.594	160.588	-40.134	-33.311	75.376	178.808	-33.585	-27.119	-26.938	-19.983	68.431	-20.577	-8191	255	
1249.873	1	1	0	0	0.21587	0.090478	0.25592	0.2654	0.19396	0.1754	0.21982	0.20383	0.17742	0.14528	0.31363	0.21859	0.19333	0.29807	0.026212	0.18867	-3	-3.6854	-3.4521	-3.4667	-3.6375	-3.4417	-3.7458	-3.8646	-3.3646	-3.7875	-3.4917	-3.4979	-3.7438	-3.3958	-3.5292	-3.5979	168.721	222.170	-15.139	258.340	175.036	188.964	284.563	126.127	210.053	105.091	247.234	252.766	282.383	-29.341	178.874	-19.330	7.5122e-05	0.00067093	3.4818e-05	1202.2	6.705e-06	3.8151e-06	1269.5	248.92	3.0661e-06	5.4316e-06	308.54	85.768	67.441	19.508	5.9805e-07	27.632	0.00033991	0.00035718	0.00010945	1173.1	3.6398e-06	4.0891e-06	1242	245.82	3.7803e-06	4.0379e-06	305.23	86.623	67.726	20.121	4.2868e-06	28.026	92.784	41.680	39.137	-40.176	142.278	141.627	-40.120	-33.592	41.834	144.292	-33.390	-27.022	-26.768	-19.684	-26.063	-19.867	-8191	255	
1249.944	1	1	0	0	0.24765	0.11308	0.21774	0.24373	0.23062	0.12958	0.24538	0.10097	0.24411	0.048194	0.19069	0.16829	0.04814	0.23624	0.12327	0.13685	-2.7917	-3.6188	-3.4771	-3.5729	-3.65	-3.3271	-3.6917	-3.7062	-3.2208	-3.5563	-3.4792	-3.2875	-3.6375	-3.4271	-3.4771	-3.8375	58.030	247.230	28.295	267.094	142.645	75.088	198.355	-36.216	113.338	308.541	125.493	302.241	35.774	253.078	123.064	223.847	0.00014803	0.00061316	0.00011499	1198.1	2.8573e-06	1.2767e-06	1267.2	249	1.0873e-06	9.8689e-06	309	85.57	67.525	19.777	1.3731e-06	27.732	0.00033563	0.00038702	0.00010758	1172	3.6851e-06	4.3684e-06	1241	246.18	3.8885e-06	4.4081e-06	305.37	86.578	67.93	20.272	4.2508e-06	28.1	107.644	42.500	15.207	-40.298	159.872	205.989	-40.163	-33.252	52.175	185.757	-33.724	-27.150	-26.732	-20.049	252.068	-20.664	-8191	255	
1250.040	1	1	0	0	0.052234	0.20114	0.12094	0.034326	0.10081	0.23711	0.059883	0.18598	0.072893	0.091824	0.060427	0.11455	0.11043	0.21035	0.14474	0.34797	-2.9688	-3.6042	-3.5458	-3.4896	-3.7292	-3.5812	-3.7792	-3.8958	-3.3438	-3.5521	-3.8021	-3.2646	-3.7854	-3.5521	-3.4729	-3.7604	247.782	19.061	95.856	-30.979	193.895	297.341	237.721	113.822	-19.616	14.674	187.235	274.425	-41.061	227.687	72.601	306.466	0.00013115	0.00058341	0.00011121	1202.6	1.9096e-06	3.384e-06	1271	249.28	1.5744e-06	7.2354e-06	310.06	85.702	67.757	19.745	2.6503e-06	27.647	0.00035765	0.00040474	0.00010566	1172.9	3.9218e-06	4.5111e-06	1243.2	246.65	4.1692e-06	4.5613e-06	305.36	86.645	68.326	20.304	4.2377e-06	28.119	60.565	86.835	11.993	-40.136	68.182	143.327	-40.421	-33.334	199.623	82.700	-33.491	-27.048	-26.817	-20.009	84.304	-20.085	-8191	255	
1250.159	1	1	0	0	0.08979	0.10498	0.10719	0.033451	0.22979	0.051756	0.37863	0.13738	0.12443	0.21941	0.43528	0.094048	0.19529	0.099457	0.14489	0.03017	-2.9021	-3.725	-3.5938	-3.4521	-3.8979	-3.5687	-3.7083	-4.0167	-3.5312	-3.7562	-3.7938	-3.3875	-3.8542	-3.75	-3.5438	-3.9688	237.919	216.758	293.156	253.665	18.142	231.820	251.001	-8.331	44.715	88.166	237.361	137.880	-50.147	0.349	-12.384	184.661	0.00014954	0.00063948	3.4153e-05	1202.5	3.8994e-06	5.1093e-06	1271.4	248.57	2.7953e-06	4.0632e-06	310.75	86.723	68.017	19.724	1.2396e-06	27.685	0.00038906	0.00041645	0.00010653	1175.9	4.4311e-06	4.6274e-06	1245.1	246.76	4.7012e-06	4.7503e-06	307.21	87.514	69.022	20.413	4.547e-06	28.322	118.943	39.483	-9.049	-40.195	144.575	52.585	-40.065	-32.875	190.355	114.573	-33.628	-27.117	-26.756	-19.900	47.183	-20.381	-8191	255	
1250.255	1	1	0	0	0.12582	0.33485	0.23029	0.31805	0.13619	0.13871	0.072421	0.074185	0.11456	0.062722	0.1898	0.20482	0.10987	0.17709	0.34946	0.34639	-2.9667	-3.7042	-3.7604	-3.7208	-3.9292	-3.775	-3.5583	-3.85	-3.3375	-3.5333	-3.6042	-3.4021	-3.6667	-3.8438	-3.4146	-3.9646	78.034	175.504	140.365	236.858	218.086	220.257	268.741	204.202	165.897	91.961	-10.169	-29.485	77.661	251.664	68.671	51.811	0.0001251	0.00049001	0.00012469	1211.2	4.7809e-06	1.5255e-06	1277.2	250.11	2.1616e-06	6.2673e-06	310.5	86.33	68.16	19.911	2.924e-06	27.744	0.00044525	0.00044369	0.00011155	1184.1	5.0331e-06	4.7317e-06	1252.2	247.89	5.0786e-06	4.7736e-06	307.19	87.542	69.403	20.408	4.5094e-06	28.517	121.419	38.699	41.869	-40.271	98.613	260.274	-39.922	-33.501	183.020	111.123	-33.323	-27.323	-26.572	-19.607	93.498	-20.256	-8191	255	
1250.352	1	1	0	0	0.12246	0.090387	0.23548	0.1972	0.058971	0.12805	0.23282	0.38354	0.098636	0.11132	0.11861	0.13736	0.082823	0.095449	0.1031	0.087003	-3.1688	-3.5146	-3.7625	-3.6417	-3.75	-3.6083	-3.4292	-3.8354	-3.3812	-3.425	-3.8792	-3.4667	-3.5625	-3.7	-3.0938	-3.8438	161.932	156.581	249.589	274.707	244.958	168.373	-29.843	-46.311	57.413	230.004	265.439	304.563	263.106	35.764	189.467	-36.817	0.0001919	0.00034414	0.00015193	1213.2	3.9292e-06	2.9314e-06	1280	249.27	9.3214e-06	9.0673e-06	310.25	86.711	68.008	19.913	2.8704e-06	27.822	0.00045532	0.00043462	0.00010975	1189.5	5.1717e-06	4.709e-06	1255.9	249.7	5.1725e-06	4.8435e-06	308.34	88.289	69.401	20.483	4.675e-06	28.699	79.105	26.067	95.031	-40.218	122.047	28.469	-40.253	-33.098	16.893	145.583	-33.524	-27.082	-26.791	-20.065	111.086	-20.327	-8191	255	
1250.472	1	1	0	0	0.071861	0.032827	0.29656	0.29551	0.055809	0.28466	0.30918	0.12353	0.27363	0.089373	0.097056	0.11157	0.11499	0.23144	0.12088	0.07427	-3.2125	-3.4479	-3.8438	-3.5812	-3.6375	-3.6437	-3.5979	-3.6708	-3.5271	-3.4458	-3.8563	-3.4583	-3.5771	-3.7396	-3.2646	-3.8917	36.768	-44.806	273.688	267.322	7.350	-17.723	264.753	125.671	251.162	79.127	-38.166	190.663	30.898	215.586	65.736	290.982	0.00013189	0.00020771	0.00017306	1217.3	2.9842e-06	3.8913e-06	1282	250.44	5.4083e-06	4.2131e-06	312.57	86.637	68.534	20.035	3.7165e-06	27.803	0.00046016	0.00044545	0.00011456	1195.8	5.2785e-06	4.8333e-06	1258.9	251.19	5.1932e-06	4.9694e-06	309.96	88.738	69.89	20.56	4.9608e-06	28.917	82.192	40.543	208.073	-40.314	-6.933	73.094	-40.255	-33.159	23.287	112.623	-33.156	-26.908	-26.516	-19.980	286.722	-20.288	-8191	255	
1250.544	1	1	0	0	0.27413	0.17297	0.1022	0.19908	0.096313	0.23371	0.23432	0.10306	0.091494	0.078996	0.07317	0.14772	0.16625	0.3331	0.075037	0.019856	-3.1708	-3.3063	-3.9125	-3.5521	-3.7208	-3.5479	-3.5312	-3.6188	-3.5479	-3.3354	-3.9333	-3.4729	-3.5917	-3.7958	-3.4708	-3.8604	-6.797	35.326	88.076	-44.558	300.109	116.402	281.305	283.068	147.114	269.586	3.620	155.419	257.520	262.672	169.020	113.740	0.000207	0.00068317	0.00016191	1222.1	1.819e-06	2.2816e-06	1284.3	251.06	4.1395e-06	7.9332e-06	313.07	87.367	68.394	20.019	2.6879e-06	27.861	0.00046947	0.00046328	0.0001247	1199.8	5.3535e-06	4.859e-06	1266	252.68	5.2095e-06	5.1379e-06	311.81	89.251	70.165	20.635	5.5237e-06	29.052	81.268	-12.678	114.795	-40.475	70.309	79.082	-40.141	-33.697	109.607	103.853	-33.344	-27.104	-26.806	-20.205	175.709	-19.937	-8191	255	
1250.640	1	1	0	0	0.11027	0.11961	0.27399	0.16129	0.15871	0.079754	0.16212	0.16993	0.05387	0.091138	0.2647	0.21944	0.079317	0.16761	0.060292	0.019808	-3.35	-3.2083	-3.7979	-3.5812	-3.4854	-3.775	-3.4021	-3.6417	-3.6521	-3.4354	-3.9167	-3.5104	-3.3792	-3.8438	-3.4417	-3.7708	84.239	267.176	256.133	276.065	147.327	163.456	235.683	163.360	-5.632	242.885	282.278	230.563	77.780	307.355	-7.667	106.179	0.00015309	0.00015692	9.4872e-05	1226.1	8.3333e-06	4.5122e-06	1293.4	253.85	3.4235e-06	2.7373e-06	313.83	87.602	69.268	19.965	3.6976e-06	27.843	0.00047339	0.00046768	0.00013984	1206	5.435e-06	4.9866e-06	1274	254.59	5.3331e-06	5.2263e-06	314.61	89.373	70.534	20.64	5.9776e-06	29.031	103.074	-34.200	113.076	-40.284	68.314	73.725	-39.989	-32.934	-16.906	58.136	-33.396	-27.141	-26.699	-19.997	64.768	-20.788	-8191	255	
1250.736	1	1	0	0	0.18208	0.11266	0.11923	0.19971	0.022007	0.22086	0.073393	0.19908	0.15652	0.057659	0.098835	0.045684	0.23111	0.16706	0.20956	0.038043	-3.3208	-3.3292	-3.6646	-3.7396	-3.2938	-3.7021	-3.525	-3.5187	-3.5542	-3.3896	-3.9646	-3.6333	-3.5104	-3.8333	-3.4688	-3.6979	60.749	-24.523	-1.503	140.627	262.769	21.897	147.191	270.785	231.763	50.851	140.093	259.672	72.110	230.696	-23.008	304.168	8.1447e-05	0.00073176	0.00014837	1232.7	4.4158e-06	1.284e-06	1293.2	254.78	3.2974e-06	3.1793e-06	314.42	87.07	68.765	19.919	1.3421e-06	27.892	0.00047248	0.00049184	0.00015304	1212.3	5.4193e-06	5.0932e-06	1278.5	254.96	5.0062e-06	5.2372e-06	315.42	89.025	70.015	20.544	5.6696e-06	28.772	108.477	17.651	106.693	-40.350	112.569	303.483	-40.327	-33.605	236.401	120.729	-33.641	-26.905	-27.125	-19.968	73.436	-20.094	-8191	255	
1250.832	1	1	0	0	0.034736	0.17774	0.20764	0.14064	0.097574	0.21909	0.2959	0.11241	0.027823	0.13144	0.3691	0.17298	0.18408	0.17152	0.094366	0.19802	-3.3792	-3.3229	-3.6583	-3.8146	-3.2646	-3.5979	-3.55	-3.6146	-3.6542	-3.4396	-3.8125	-3.7396	-3.4708	-3.7271	-3.7458	-3.5333	303.970	138.043	277.884	245.546	84.458	250.105	243.881	67.419	125.749	187.329	259.939	-20.995	15.958	-28.710	-43.566	280.882	0.00015919	0.00014411	8.4508e-05	1228.4	2.2026e-06	2.0898e-06	1294.4	253.73	5.174e-06	6.2205e-06	313.57	86.866	68.439	19.822	1.2191e-06	27.718	0.00042519	0.00046756	0.00014096	1205.4	4.8436e-06	5.0001e-06	1274.9	253.44	4.5673e-06	5.1141e-06	313.46	88.438	69.508	20.499	5.1676e-06	28.574	103.669	75.389	53.944	-40.165	134.205	300.539	-40.307	-33.171	48.926	176.548	-33.522	-27.426	-26.903	-19.781	207.001	-20.065	-8191	255	
1250.951	1	1	0	0	0.16233	0.13887	0.13847	0.17844	0.028725	0.25074	0.11274	0.20889	0.02757	0.050714	0.12031	0.10819	0.20159	0.12608	0.063662	0.1644	-3.5646	-3.4479	-3.6729	-3.9146	-3.1792	-3.8146	-3.7271	-3.4458	-3.8729	-3.3542	-3.8667	-3.7438	-3.525	-3.7854	-3.7687	-3.5417	194.218	98.204	14.575	300.231	270.703	187.085	258.730	136.019	168.941	273.956	289.359	243.782	54.761	287.507	211.547	240.387	9.2477e-05	0.00022039	2.3049e-05	1228.2	3.3933e-06	2.415e-06	1285.8	250.85	5.9096e-06	5.4754e-06	311.94	86.246	67.723	19.594	3.4714e-06	27.474	0.00038564	0.00045826	0.0001284	1198.6	4.4206e-06	4.8693e-06	1262.5	249.77	4.0802e-06	4.817e-06	309.52	87.159	68.477	20.249	4.3589e-06	28.052	99.749	-12.096	197.292	-40.376	127.893	60.855	-40.279	-33.283	181.717	179.431	-33.540	-26.994	-26.689	-19.739	19.514	-19.964	-8191	255	
1251.047	1	1	0	0	0.27761	0.15011	0.19112	0.050276	0.20374	0.085024	0.05913	0.24111	0.058261	0.19229	0.07012	0.05955	0.078979	0.32214	0.23408	0.27032	-3.3771	-3.3479	-3.4688	-3.7083	-3.1937	-3.4813	-3.7083	-3.5062	-3.6708	-3.5563	-3.4208	-3.7229	-3.4875	-3.6167	-3.5729	-3.3896	28.568	56.080	211.429	-48.997	-4.033	143.560	66.649	288.142	290.687	299.901	243.860	306.077	237.968	279.681	143.127	263.985	0.00012487	0.0004684	0.00012699	1213.2	4.3061e-06	5.1604e-06	1266.2	247.33	1.2284e-06	6.9906e-06	309.42	85.687	67.223	19.607	2.2304e-06	27.164	0.00034899	0.00041587	0.00010737	1182.3	4.0112e-06	4.3804e-06	1243	245.65	3.7381e-06	4.271e-06	304.47	85.993	67.711	19.999	3.9287e-06	27.71	111.896	83.509	-48.577	-40.318	141.669	70.276	-40.077	-33.215	149.510	116.841	-33.568	-26.705	-26.965	-19.532	80.328	-20.104	-8191	255	
1251.144	1	1	0	0	0.30785	0.073248	0.25433	0.35437	0.12184	0.13388	0.22443	0.16503	0.16227	0.20814	0.23279	0.26428	0.16047	0.12277	0.13387	0.17914	-3.2396	-3.3812	-3.4792	-3.8458	-3.3375	-3.4417	-3.6437	-3.3292	-3.5854	-3.5229	-3.4104	-3.7354	-3.3958	-3.6188	-3.6292	-3.4042	106.558	-15.380	250.748	-11.000	276.138	287.352	223.273	18.684	261.089	60.375	20.215	204.714	252.031	289.205	-23.052	188.205	0.00012248	0.00032685	0.00017232	1202.7	4.7467e-06	3.2067e-06	1265.5	246.78	3.9561e-06	5.0269e-06	308.75	85.291	67.161	19.608	8.1933e-07	27.38	0.00036014	0.00040243	0.00010568	1173.2	4.2965e-06	4.5408e-06	1241	245.58	4.4088e-06	4.5924e-06	305.6	86.226	68.511	20.192	4.2743e-06	28.028	93.755	17.000	56.788	-40.326	62.631	121.245	-40.008	-33.049	173.876	97.391	-33.175	-27.073	-26.750	-19.733	-44.155	-20.347	-8191	255	
1251.240	1	1	0	0	0.24088	0.01056	0.18749	0.16317	0.037901	0.14771	0.16278	0.18709	0.043366	0.063964	0.41445	0.072333	0.16742	0.30355	0.18465	0.12884	-3.2896	-3.4271	-3.2625	-3.8396	-3.3021	-3.5271	-4.0625	-3.3292	-3.5208	-3.6875	-3.3688	-3.8708	-3.3917	-3.5458	-3.7042	-3.4104	232.609	145.262	53.147	303.103	217.275	208.038	151.032	238.623	113.106	126.971	286.796	274.024	-47.456	123.951	237.688	200.811	0.00019545	0.0004412	0.00010343	1202.5	2.867e-06	1.4283e-06	1273.4	249.12	8.1306e-06	1.0408e-06	310.43	85.865	67.849	19.606	5.6456e-06	27.29	0.00042834	0.00042702	0.00011386	1177.4	4.9578e-06	4.8636e-06	1246.1	247.43	5.0456e-06	4.7378e-06	307.05	86.846	69.106	20.281	4.3893e-06	28.237	106.234	4.777	253.889	-40.033	160.368	-23.120	-40.315	-33.257	143.609	56.679	-33.545	-26.912	-26.747	-20.324	118.097	-19.805	-8191	255	
1251.336	1	1	0	0	0.095779	0.18885	0.20066	0.30634	0.070759	0.21805	0.096612	0.16742	0.24977	0.16738	0.13513	0.28344	0.12139	0.14652	0.10184	0.18911	-3.2146	-3.5667	-3.2521	-3.8042	-3.3521	-3.5604	-3.7792	-3.3771	-3.5833	-3.5583	-3.3417	-3.6896	-3.5604	-3.4583	-3.5875	-3.3063	71.554	34.520	253.218	272.452	194.996	230.339	207.598	136.059	154.972	205.418	-29.581	301.612	297.903	228.890	8.405	183.325	0.00017832	0.00050111	7.5539e-05	1206.2	4.5938e-06	3.6265e-06	1270.4	249.49	3.6975e-06	2.5072e-06	309.6	85.674	67.915	19.832	2.6792e-06	27.29	0.00045727	0.00043353	0.00011615	1181.2	5.2371e-06	4.8929e-06	1246.2	248.99	5.2379e-06	4.7125e-06	307.25	87.292	69.318	20.344	4.292e-06	28.368	132.342	5.129	13.509	-40.098	91.929	38.794	-40.136	-33.165	22.366	90.561	-33.423	-27.174	-26.891	-20.116	132.279	-19.879	-8191	255	
1251.432	1	1	0	0	0.16328	0.082096	0.24911	0.35729	0.072354	0.15528	0.072052	0.1244	0.20015	0.18578	0.25926	0.15911	0.143	0.044983	0.089941	0.091839	-3.2604	-3.5667	-3.3479	-3.9375	-3.3667	-3.3146	-3.8083	-3.3833	-3.4479	-3.6625	-3.4062	-3.6875	-3.475	-3.2229	-3.5479	-3.3333	50.648	-6.891	229.798	279.780	256.677	101.033	110.821	247.824	136.324	239.169	-50.349	118.121	230.288	220.743	84.361	280.418	0.00012264	0.00020147	0.00012747	1208.8	2.0059e-06	5.1271e-06	1275.1	250.1	2.1608e-06	5.7604e-06	310.72	86.391	67.884	19.777	5.1631e-06	27.605	0.0004609	0.00042135	0.0001157	1186.7	5.071e-06	4.8535e-06	1250.9	250.01	5.1747e-06	4.6279e-06	307.99	87.797	69.071	20.373	4.4573e-06	28.507	73.416	94.889	66.460	-40.236	194.570	79.794	-40.095	-33.329	292.854	53.223	-33.568	-27.082	-26.700	-19.932	94.253	-19.998	-8191	255	
1251.553	1	1	0	0	0.16206	0.23627	0.19344	0.36108	0.13772	0.35336	0.042319	0.21557	0.067886	0.24589	0.26302	0.23321	0.090203	0.1234	0.049675	0.3199	-3.1	-3.7438	-3.2917	-3.6854	-3.5563	-3.4021	-4.0146	-3.5375	-3.4021	-3.7333	-3.5229	-3.7896	-3.7687	-3.4646	-3.6979	-3.3937	226.652	44.863	234.723	262.533	70.829	28.560	294.861	237.556	31.142	-45.125	289.958	283.672	-3.842	302.694	178.569	81.036	0.000117	0.00028372	4.3305e-05	1213.4	3.2709e-06	3.1687e-06	1277.6	250.86	4.8308e-06	2.1377e-06	310.47	86.491	68.358	19.742	7.154e-06	27.588	0.00044479	0.00041223	0.00011757	1190.9	4.7681e-06	4.59e-06	1252	250.41	4.8345e-06	4.3951e-06	308.29	87.877	69.08	20.24	4.5625e-06	28.499	80.768	6.450	35.204	-40.257	63.767	70.029	-40.065	-33.090	291.842	8.919	-33.488	-27.047	-26.943	-19.482	190.089	-20.191	-8191	255	
1251.649	1	1	0	0	0.17507	0.17307	0.16375	0.089998	0.187	0.32708	0.16034	0.056042	0.1457	0.11522	0.13514	0.40356	0.20155	0.084339	0.27852	0.14489	-3.225	-3.7208	-3.4708	-3.5917	-3.65	-3.3667	-3.925	-3.6375	-3.625	-3.9708	-3.5312	-3.8521	-3.7396	-3.4729	-3.7021	-3.4938	-19.344	285.590	-29.334	290.479	277.590	305.493	130.116	240.282	75.116	280.697	111.292	303.872	4.134	82.997	51.838	214.876	0.00014627	0.00024275	0.00023439	1211.8	5.8184e-06	9.2445e-06	1276.6	249.41	2.149e-06	4.3933e-06	309.36	86.187	67.944	19.689	2.746e-06	27.439	0.00041236	0.00038346	0.00012008	1189	4.4824e-06	4.3702e-06	1252.3	248.68	4.6272e-06	4.1858e-06	308.14	87.755	68.789	20.207	4.8286e-06	28.393	84.428	28.991	124.659	-40.201	0.873	45.625	-40.034	-33.129	50.251	82.028	-33.539	-27.222	-26.813	-20.013	114.071	-20.073	-8191	255	
1251.745	1	1	0	0	0.11339	0.21272	0.15025	0.34599	0.1652	0.24081	0.15527	0.090591	0.22143	0.15877	0.34486	0.11213	0.04885	0.21862	0.19128	0.063309	-3.0396	-3.8	-3.3	-3.6625	-3.4042	-3.3812	-3.8667	-3.525	-3.4708	-3.7938	-3.5417	-3.6771	-3.8583	-3.4667	-3.6271	-3.6729	7.391	307.077	56.000	233.239	297.857	218.530	11.236	165.192	229.973	176.001	255.415	164.712	-3.738	249.288	204.089	27.997	5.0544e-05	0.00047431	2.149e-05	1213.4	1.5811e-06	2.291e-06	1276.7	251.67	1.1595e-06	6.674e-06	312.02	86.427	68.057	19.779	9.7333e-07	27.416	0.00040596	0.00038339	0.00012647	1190.3	4.3603e-06	4.3942e-06	1254.6	249.53	4.4913e-06	4.2548e-06	309.52	87.747	68.752	20.287	4.9517e-06	28.295	102.175	50.525	23.989	-40.264	168.996	40.555	-40.171	-33.318	-27.747	151.776	-33.536	-27.569	-27.057	-20.093	41.807	-19.630	-8191	255	
1251.841	1	1	0	0	0.10158	0.1498	0.319	0.12462	0.28407	0.061265	0.20828	0.11067	0.044808	0.27505	0.1773	0.19384	0.2809	0.22079	0.029956	0.37586	-3.0125	-3.5875	-3.5042	-3.5771	-3.8063	-3.4292	-3.6625	-3.6063	-3.4875	-3.7917	-3.5833	-3.5938	-3.95	-3.2646	-3.6583	-3.7188	-21.885	68.958	21.929	154.464	274.827	-9.619	190.816	290.536	251.025	8.715	262.824	290.286	291.458	2.942	115.357	-46.087	8.3874e-05	0.0003977	0.00015457	1214.2	1.2622e-06	2.194e-06	1277.3	249.88	4.1513e-06	3.4041e-06	312.38	86.316	68.299	19.867	3.4076e-06	27.55	0.00040146	0.00040277	0.00012795	1188.3	4.2082e-06	4.5676e-06	1256.7	248.68	4.3654e-06	4.5318e-06	309.71	87.709	68.783	20.364	4.9454e-06	28.299	126.970	113.438	15.926	-40.189	132.883	259.555	-40.250	-33.270	120.287	148.253	-33.818	-27.090	-26.876	-19.657	126.497	-20.370	-8191	255	
1251.937	1	1	0	0	0.10859	0.045461	0.10525	0.29384	0.12521	0.18661	0.21696	0.13592	0.18639	0.26362	0.21788	0.098583	0.33293	0.14539	0.16492	0.22879	-2.9896	-3.7292	-3.4042	-3.5917	-3.6562	-3.3708	-3.8542	-3.9229	-3.3604	-3.8167	-3.5708	-3.5042	-3.7562	-3.2958	-3.5104	-3.6604	70.794	216.074	-36.575	275.742	-12.631	-29.027	210.833	172.649	102.437	-40.152	256.994	34.204	-36.695	279.400	38.330	229.328	0.00013248	0.0001285	0.00013176	1209.9	9.6651e-07	2.0323e-06	1280.2	251.05	4.8428e-06	2.8707e-06	311.03	86.331	67.878	19.866	5.6092e-06	27.682	0.00038845	0.00042895	0.00012412	1188.8	4.1392e-06	4.8611e-06	1256.1	248.79	4.3414e-06	4.7922e-06	308.93	87.514	68.647	20.434	4.6852e-06	28.231	100.441	48.316	114.001	-40.151	124.076	12.809	-39.895	-33.496	48.914	146.745	-33.400	-27.082	-26.594	-19.810	91.279	-20.084	-8191	255	
1252.033	1	1	0	0	0.22301	0.29162	0.16184	0.16306	0.1118	0.12449	0.41573	0.0539	0.10337	0.22279	0.10908	0.13829	0.22733	0.19991	0.23143	0.047993	-2.8875	-3.6937	-3.4958	-3.3292	-3.6625	-3.4271	-3.6042	-3.7333	-3.5667	-3.8375	-3.6479	-3.4375	-3.8187	-3.3146	-3.6625	-3.8812	107.901	159.832	102.848	252.327	249.471	283.883	245.217	288.693	24.761	164.219	262.223	16.359	277.998	-47.917	30.937	129.667	0.00011867	0.00040786	4.0687e-05	1210.4	2.612e-06	1.9615e-06	1277.7	250.13	7.1716e-06	7.7191e-06	309.48	86.014	67.654	19.673	2.9728e-06	27.455	0.00037257	0.0004239	0.00011221	1184.7	3.9617e-06	4.5745e-06	1250.9	247.31	4.0724e-06	4.4463e-06	305.36	86.609	68.145	20.166	3.9739e-06	27.87	85.938	34.001	67.621	-40.177	104.678	134.414	-40.009	-33.365	97.407	43.963	-33.591	-27.052	-26.751	-19.954	81.453	-20.479	-8191	255	
1252.128	1	1	0	0	0.14147	0.013316	0.20044	0.14987	0.11587	0.18934	0.25401	0.079551	0.13818	0.1932	0.15719	0.2642	0.21912	0.094644	0.15163	0.1157	-2.875	-3.7167	-3.425	-3.4	-3.6854	-3.4542	-3.4562	-3.8937	-3.3521	-3.5792	-3.7146	-3.3312	-3.5833	-3.4833	-3.3896	-3.6292	27.871	159.080	57.988	258.021	2.366	117.384	-44.436	306.781	135.152	198.238	-0.454	178.263	263.347	83.209	272.879	42.817	0.00010816	0.00036027	3.9876e-05	1198.1	5.2631e-06	4.9765e-06	1261.8	248.14	3.0929e-06	3.0102e-06	306.06	86.074	67.072	19.642	2.538e-06	27.449	0.00034861	0.00037838	9.3823e-05	1167.9	3.6474e-06	3.9243e-06	1234.7	243.75	3.6867e-06	3.8293e-06	301.68	85.815	67.466	19.913	3.4784e-06	27.639	108.748	-47.421	31.028	-40.249	152.729	60.495	-39.884	-33.164	87.595	-25.355	-33.559	-26.893	-26.617	-19.838	153.174	-19.767	-8191	255	
1252.248	1	1	0	0	0.11788	0.15444	0.178	0.19941	0.1005	0.097551	0.15439	0.10954	0.20035	0.066544	0.32914	0.17287	0.040831	0.34303	0.16685	0.17289	-3.0792	-3.6979	-3.4021	-3.4562	-3.7729	-3.4292	-3.6125	-3.7375	-3.5854	-3.6458	-3.6188	-3.3	-3.7188	-3.5479	-3.3688	-3.8854	71.775	-39.129	18.698	271.251	116.202	19.031	-7.826	229.407	87.037	63.405	304.330	52.884	243.451	165.998	193.246	-5.686	0.00011396	0.00038362	0.00010602	1186.7	2.0549e-06	4.2119e-06	1254.9	245.78	1.2883e-06	5.8915e-06	306.88	85.18	66.614	19.537	3.6283e-06	27.362	0.00032993	0.00033749	8.276e-05	1157.3	3.6335e-06	3.599e-06	1226	242.33	3.7479e-06	3.6373e-06	301.15	85.378	67.351	19.896	3.3912e-06	27.673	122.850	-6.770	2.529	-40.091	-42.361	88.476	-39.999	-33.050	86.111	110.879	-33.479	-27.026	-26.698	-19.921	89.203	-20.168	-8191	255	
1252.345	1	1	0	0	0.22345	0.043055	0.17823	0.18282	0.12575	0.12342	0.19857	0.19182	0.32805	0.066492	0.16291	0.21521	0.19567	0.18044	0.043103	0.16256	-2.9646	-3.4854	-3.8042	-3.2562	-3.7417	-3.5	-3.4437	-3.8917	-3.5062	-3.5792	-3.8438	-3.2729	-3.5625	-3.575	-3.2292	-3.7229	71.557	141.178	201.037	168.471	77.569	96.210	229.702	159.026	-42.004	249.420	252.338	152.125	224.922	33.201	213.916	209.612	0.00015701	0.00065521	6.7892e-05	1183.6	4.0748e-06	7.1112e-06	1250.8	245.15	1.706e-06	1.8001e-06	304.47	85.112	67.077	19.494	2.1163e-06	27.337	0.00034138	0.00032551	8.1564e-05	1157.6	3.7892e-06	3.4608e-06	1224.5	242.48	3.7194e-06	3.5239e-06	299.87	85.531	67.314	19.729	3.2499e-06	27.719	92.939	73.068	20.153	-40.195	137.535	109.502	-39.963	-33.414	85.981	136.868	-33.507	-26.931	-26.833	-19.942	139.432	-20.309	-8191	255	
1252.441	1	1	0	0	0.1289	0.096606	0.31813	0.28297	0.15696	0.14673	0.21546	0.074303	0.25208	0.25505	0.10247	0.068914	0.13121	0.36915	0.19677	0.091331	-3.1979	-3.2729	-3.6854	-3.5062	-3.4542	-3.7375	-3.5333	-3.9979	-3.4917	-3.4021	-3.8042	-3.4521	-3.5708	-3.7375	-3.3125	-3.7729	-15.674	-14.307	108.622	271.854	-11.927	193.529	308.497	9.819	34.921	229.189	206.528	88.071	139.789	-28.928	276.713	270.515	0.00012422	0.00046673	5.0816e-05	1186.9	4.1449e-06	3.4857e-06	1252.7	244.99	2.7857e-06	5.9516e-06	303.18	84.36	66.731	19.382	1.7932e-06	27.335	0.00031995	0.00030581	7.6113e-05	1155.3	3.5431e-06	3.1601e-06	1220.3	242.12	3.3955e-06	3.1691e-06	298.42	84.932	66.636	19.556	2.9283e-06	27.517	101.142	-10.834	75.275	-40.148	116.173	109.438	-39.832	-33.021	47.410	90.754	-33.502	-27.082	-26.491	-19.443	150.915	-19.976	-8191	255	
1252.512	1	1	0	0	0.075109	0.197	0.16145	0.18595	0.047943	0.14296	0.17896	0.12808	0.2155	0.29004	0.36603	0.24278	0.26846	0.033982	0.24406	0.23606	-2.9688	-3.3688	-3.75	-3.4313	-3.4896	-3.8417	-3.5083	-3.7479	-3.6562	-3.4583	-3.9521	-3.5125	-3.5187	-3.5187	-3.2146	-3.6708	118.726	-32.345	48.121	226.125	212.568	4.816	79.677	233.302	170.764	248.553	308.151	161.289	264.014	205.929	-21.982	16.673	7.557e-05	0.00051319	0.00015791	1171.7	2.1334e-06	2.7972e-06	1235.5	243.61	3.8854e-06	3.3205e-06	302.56	84.443	65.71	19.321	4.2296e-07	27.106	0.00028335	0.0002769	7.1565e-05	1142.9	3.1517e-06	2.796e-06	1207.9	239.85	2.973e-06	2.9089e-06	296.36	84.467	65.891	19.376	2.9443e-06	27.375	105.543	58.400	8.987	-39.984	101.674	108.683	-39.835	-33.037	81.988	52.877	-33.474	-26.902	-26.665	-19.760	109.487	-19.871	-8191	255	
1252.633	1	1	0	0	0.14284	0.24429	0.13806	0.17304	0.36552	0.18869	0.049178	0.2688	0.071331	0.1742	0.080644	0.30442	0.090311	0.1034	0.093747	0.18844	-3.2604	-3.2583	-3.7792	-3.6271	-3.4229	-3.625	-3.4854	-3.6771	-3.6583	-3.2896	-3.7375	-3.4208	-3.3979	-3.7417	-3.3521	-3.6479	88.453	133.079	266.251	262.262	136.648	58.050	100.946	288.696	293.596	78.190	296.764	35.182	-25.570	29.578	171.891	-12.057	0.00010835	0.00069342	8.3957e-05	1168.7	1.8094e-06	2.0334e-06	1232.8	241.86	3.2825e-06	3.1145e-06	301.68	84.233	66.518	19.39	3.0794e-07	27.105	0.00026734	0.00026185	7.3928e-05	1137.7	3.0334e-06	2.674e-06	1205.5	238.72	2.9199e-06	2.8165e-06	296.25	84.239	66.028	19.439	3.2075e-06	27.415	106.861	62.237	-18.034	-39.980	130.381	53.895	-40.002	-33.018	20.578	91.014	-33.496	-26.957	-26.652	-19.521	175.375	-20.178	-8191	255	
#DATA ENDS
