BOXY.EXE: ISS Imagent and Oximeter Data Acquisition Program Version 0.80
Ascii Record File

#ACQ INFORMATION
2  Detector Channels 
16  External MUX Channels 
1  Auxiliary Channels 
5000  Waveform (CCF) Frequency (Hz)
1  Waveforms Skipped 
30  Waveforms Averaged 
1  Cycles Averaged 
16  Acquisitions per Waveform 
10.0806  Updata Rate (Hz) 

#FILE INFORMATION
TRUE -- External MUX Channel results are PARSED.
FALSE -- AC DC and Phase are NOT grouped.
TRUE -- Companion Program Settings File CREATED.
FALSE -- AC data not excluded
FALSE -- DC data not excluded
FALSE -- Phase data not excluded
FALSE -- Auxillary Chn. data not excluded
Tab delimiters

#CALIBRATION STATE
TRUE -- Waveform Calibration Values APPLIED.


#AUX CALIBRATION VALUES
Val Type	aux-1	

Term	1.0000e+00	
Factor	0.0000e+00	


#WF CALIBRATION VALUES
A = Detector Channel
Val Type	A-AC1	A-AC2	A-AC3	A-AC4	A-AC5	A-AC6	A-AC7	A-AC8	A-AC9	A-AC10	A-AC11	A-AC12	A-AC13	A-AC14	A-AC15	A-AC16	A-DC1	A-DC2	A-DC3	A-DC4	A-DC5	A-DC6	A-DC7	A-DC8	A-DC9	A-DC10	A-DC11	A-DC12	A-DC13	A-DC14	A-DC15	A-DC16	A-Ph1	A-Ph2	A-Ph3	A-Ph4	A-Ph5	A-Ph6	A-Ph7	A-Ph8	A-Ph9	A-Ph10	A-Ph11	A-Ph12	A-Ph13	A-Ph14	A-Ph15	A-Ph16	

Term	0.00000e+00	0.00000e+00	0.00000e+00	0.00000e+00	0.00000e+00	0.00000e+00	0.00000e+00	0.00000e+00	0.00000e+00	0.00000e+00	0.00000e+00	0.00000e+00	0.00000e+00	0.00000e+00	0.00000e+00	0.00000e+00	0.00000e+00	0.00000e+00	0.00000e+00	0.00000e+00	0.00000e+00	0.00000e+00	0.00000e+00	0.00000e+00	0.00000e+00	0.00000e+00	0.00000e+00	0.00000e+00	0.00000e+00	0.00000e+00	0.00000e+00	0.00000e+00	0.00000e+00	0.00000e+00	0.00000e+00	0.00000e+00	0.00000e+00	0.00000e+00	0.00000e+00	0.00000e+00	0.00000e+00	0.00000e+00	0.00000e+00	0.00000e+00	0.00000e+00	0.00000e+00	0.00000e+00	0.00000e+00	
Factor	1.00000e+00	1.00000e+00	1.00000e+00	1.00000e+00	1.00000e+00	1.00000e+00	1.00000e+00	1.00000e+00	1.00000e+00	1.00000e+00	1.00000e+00	1.00000e+00	1.00000e+00	1.00000e+00	1.00000e+00	1.00000e+00	1.00000e+00	1.00000e+00	1.00000e+00	1.00000e+00	1.00000e+00	1.00000e+00	1.00000e+00	1.00000e+00	1.00000e+00	1.00000e+00	1.00000e+00	1.00000e+00	1.00000e+00	1.00000e+00	1.00000e+00	1.00000e+00	X	X	X	X	X	X	X	X	X	X	X	X	X	X	X	X	

B = Detector Channel
Val Type	B-AC1	B-AC2	B-AC3	B-AC4	B-AC5	B-AC6	B-AC7	B-AC8	B-AC9	B-AC10	B-AC11	B-AC12	B-AC13	B-AC14	B-AC15	B-AC16	B-DC1	B-DC2	B-DC3	B-DC4	B-DC5	B-DC6	B-DC7	B-DC8	B-DC9	B-DC10	B-DC11	B-DC12	B-DC13	B-DC14	B-DC15	B-DC16	B-Ph1	B-Ph2	B-Ph3	B-Ph4	B-Ph5	B-Ph6	B-Ph7	B-Ph8	B-Ph9	B-Ph10	B-Ph11	B-Ph12	B-Ph13	B-Ph14	B-Ph15	B-Ph16	

Term	0.00000e+00	0.00000e+00	0.00000e+00	0.00000e+00	0.00000e+00	0.00000e+00	0.00000e+00	0.00000e+00	0.00000e+00	0.00000e+00	0.00000e+00	0.00000e+00	0.00000e+00	0.00000e+00	0.00000e+00	0.00000e+00	0.00000e+00	0.00000e+00	0.00000e+00	0.00000e+00	0.00000e+00	0.00000e+00	0.00000e+00	0.00000e+00	0.00000e+00	0.00000e+00	0.00000e+00	0.00000e+00	0.00000e+00	0.00000e+00	0.00000e+00	0.00000e+00	-2.28318e+02	-1.28261e+02	-1.22557e+02	-1.79784e+02	-6.98370e+01	-5.69121e+01	-1.58204e+02	-1.62015e+02	-8.96925e+01	-7.94603e+01	-1.70039e+02	-1.72048e+02	-1.82281e+02	-1.76085e+02	-7.57894e+01	-1.48903e+02	
Factor	4.44743e-05	1.16669e-04	3.11420e-05	1.50107e-01	1.44705e-06	1.30124e-06	1.55391e-01	5.73555e-02	1.61794e-06	1.31520e-06	7.33951e-02	2.70137e-02	2.41607e-02	7.75268e-03	1.42893e-06	1.11630e-02	1.56745e-06	1.64600e-06	4.64896e-07	7.58927e-02	1.78137e-08	1.80026e-08	7.42071e-02	2.88859e-02	1.77144e-08	1.80151e-08	3.60562e-02	1.31780e-02	1.21309e-02	3.93631e-03	1.80715e-08	5.48598e-03	X	X	X	X	X	X	X	X	X	X	X	X	X	X	X	X	



#DISTANCE SETTINGS
A = Detector Channel
A-1	A-2	A-3	A-4	A-5	A-6	A-7	A-8	A-9	A-10	A-11	A-12	A-13	A-14	A-15	A-16	

2.5000e+00	3.0000e+00	2.5000e+00	3.0000e+00	2.0000e+00	3.0000e+00	1.5000e+00	3.0000e+00	3.0000e+00	3.0000e+00	3.0000e+00	3.0000e+00	3.0000e+00	3.0000e+00	1.5000e+00	3.0000e+00	

B = Detector Channel
B-1	B-2	B-3	B-4	B-5	B-6	B-7	B-8	B-9	B-10	B-11	B-12	B-13	B-14	B-15	B-16	

1.0000e+01	1.0000e+01	1.0000e+01	1.4400e+00	1.0000e+01	1.0000e+01	1.5100e+00	1.9400e+00	1.0000e+01	1.0000e+01	1.9900e+00	2.4900e+00	2.4100e+00	2.9000e+00	1.0000e+01	2.9800e+00	




#DATA BEGINS
time	group	step	mark	flag	A-AC1	A-AC2	A-AC3	A-AC4	A-AC5	A-AC6	A-AC7	A-AC8	A-AC9	A-AC10	A-AC11	A-AC12	A-AC13	A-AC14	A-AC15	A-AC16	A-DC1	A-DC2	A-DC3	A-DC4	A-DC5	A-DC6	A-DC7	A-DC8	A-DC9	A-DC10	A-DC11	A-DC12	A-DC13	A-DC14	A-DC15	A-DC16	A-Ph1	A-Ph2	A-Ph3	A-Ph4	A-Ph5	A-Ph6	A-Ph7	A-Ph8	A-Ph9	A-Ph10	A-Ph11	A-Ph12	A-Ph13	A-Ph14	A-Ph15	A-Ph16	B-AC1	B-AC2	B-AC3	B-AC4	B-AC5	B-AC6	B-AC7	B-AC8	B-AC9	B-AC10	B-AC11	B-AC12	B-AC13	B-AC14	B-AC15	B-AC16	B-DC1	B-DC2	B-DC3	B-DC4	B-DC5	B-DC6	B-DC7	B-DC8	B-DC9	B-DC10	B-DC11	B-DC12	B-DC13	B-DC14	B-DC15	B-DC16	B-Ph1	B-Ph2	B-Ph3	B-Ph4	B-Ph5	B-Ph6	B-Ph7	B-Ph8	B-Ph9	B-Ph10	B-Ph11	B-Ph12	B-Ph13	B-Ph14	B-Ph15	B-Ph16	aux-1	digaux	

6681.335	1	1	0	256	0.12199	0.19363	0.1971	0.12378	0.055393	0.12207	0.25003	0.28806	0.12533	0.081162	0.36402	0.075344	0.06425	0.10749	0.16755	0.3589	-2.2167	-3.1354	-2.7938	-3.15	-3.0979	-2.8708	-3.2562	-3.1208	-2.7188	-3.2625	-3.2479	-3.0167	-3.3042	-2.8854	-3.2271	-3.1708	243.174	311.757	220.119	372.721	282.065	410.269	368.034	104.459	116.669	191.772	426.389	391.260	173.060	450.257	101.343	121.929	0.00088633	0.00059626	9.4947e-05	1258.1	6.6862e-06	9.1392e-06	1326.7	264.77	4.3509e-06	2.6463e-06	325.02	88.665	70.139	20.093	8.7921e-06	28.172	0.0017176	0.0016939	0.00055009	1311.8	1.8122e-05	1.8526e-05	1379.7	287.93	1.7714e-05	1.7828e-05	355.84	99.509	79.177	23.738	1.8889e-05	32.999	448.039	136.436	252.490	106.409	245.032	249.436	106.421	113.600	281.262	106.522	112.798	119.510	119.628	126.339	165.860	126.253	-8191	255	
6681.429	1	1	0	0	0.074504	0.085441	0.054192	0.25671	0.11552	0.21477	0.029162	0.27089	0.17032	0.077792	0.25727	0.073569	0.19464	0.19574	0.22935	0.21853	-2.3875	-3.2833	-2.9979	-3.0979	-3.1542	-3.0521	-3.1958	-3.3229	-2.7104	-3.3667	-3.1083	-3.0104	-3.1917	-3.0167	-3.1708	-3.0125	232.492	191.084	421.619	417.116	386.238	119.609	353.723	272.085	255.205	422.839	377.193	202.575	280.634	177.607	223.181	132.120	0.0005371	0.00086969	0.00017508	1247.8	1.5102e-05	1.4282e-05	1319.4	263.17	1.0489e-05	6.5422e-06	319.62	88.69	69.468	20.123	5.3177e-06	27.999	0.0014286	0.0015317	0.00046432	1284.1	1.4635e-05	1.6264e-05	1352.7	280.06	1.4228e-05	1.5817e-05	346.13	96.728	76.876	23.354	1.6839e-05	32.372	448.727	171.573	352.616	106.451	197.239	220.573	106.374	113.724	174.820	446.787	113.180	119.827	120.247	126.885	309.120	125.657	-8191	255	
6681.527	1	1	0	0	0.025363	0.29999	0.27575	0.045602	0.16796	0.025748	0.31486	0.17081	0.27155	0.040285	0.088278	0.11692	0.07968	0.26218	0.035364	0.024471	-2.3917	-3.0563	-3.0396	-3.0375	-3.4167	-2.7396	-3.2271	-3.2333	-2.7979	-3.0792	-3.2	-2.8688	-3.2208	-2.8563	-2.9646	-3.2958	246.502	96.481	253.447	406.365	215.176	144.444	402.398	219.946	324.397	292.927	439.523	333.134	348.685	384.027	392.702	155.272	0.00102	0.00056582	0.00023789	1253.1	1.4705e-05	9.1487e-06	1327.3	264.68	1.191e-05	8.8547e-07	325.28	88.87	70.688	20.409	3.9632e-06	28.333	0.0013646	0.0016004	0.00045849	1295.2	1.6219e-05	1.9253e-05	1375.1	286.44	1.7816e-05	2.0693e-05	357.69	101.08	81.535	25.067	2.1952e-05	34.437	438.565	172.618	330.619	106.395	253.271	255.610	106.251	113.780	226.948	164.206	113.152	119.506	119.791	126.793	275.515	125.691	-8191	255	
6681.646	1	1	0	0	0.1917	0.31652	0.27219	0.14274	0.10079	0.10169	0.07193	0.20505	0.13069	0.19027	0.10581	0.18641	0.05433	0.18288	0.14347	0.23341	-2.2792	-2.9542	-2.9437	-3.0125	-3.2979	-3	-3.0479	-3.2562	-2.6604	-2.9583	-3.0604	-3.0708	-3.1479	-2.9333	-2.7417	-2.9958	109.689	205.003	424.712	416.743	130.246	342.587	116.452	435.052	120.937	152.396	427.866	256.050	122.450	365.557	101.691	373.800	0.0011203	0.00057555	6.5195e-05	1279.6	2.4567e-05	9.6139e-06	1360.6	273.5	1.0885e-05	4.1585e-06	332.69	91.324	73.205	21.076	4.6233e-06	29.333	0.0018699	0.0021973	0.00058857	1343.2	2.1979e-05	2.53e-05	1425	301.33	2.3716e-05	2.6421e-05	375.53	106.41	87.601	26.792	2.5831e-05	36.037	425.779	331.068	232.096	106.461	229.488	266.983	106.174	113.011	199.585	95.129	112.788	119.400	119.232	126.164	102.984	126.339	-8191	255	
6681.718	1	1	0	0	0.02145	0.097789	0.012968	0.13727	0.20426	0.046322	0.35144	0.25228	0.21123	0.19971	0.19891	0.13262	0.13885	0.25067	0.073215	0.058483	-2.4229	-2.925	-3.0229	-3.1437	-3.0792	-3.0875	-2.925	-3.3521	-2.6979	-2.8917	-3.3063	-2.8375	-3.2708	-2.9479	-2.8229	-3.2229	235.807	282.893	140.273	435.995	261.378	358.377	418.920	417.683	361.984	377.085	376.356	331.338	388.359	156.709	446.931	251.193	0.0012683	0.00038146	7.2324e-05	1305.9	2.1777e-05	3.5065e-06	1350	267.31	6.1286e-06	7.4185e-06	328.63	89.49	71.186	20.453	1.2418e-05	28.654	0.002275	0.0024674	0.000613	1358.5	1.9426e-05	1.7635e-05	1373.7	279.13	1.3106e-05	1.3309e-05	342.72	94.693	76.881	22.795	1.1066e-05	31.204	443.979	315.273	226.977	106.324	212.404	238.760	106.203	113.065	134.902	277.009	113.176	119.782	119.959	126.920	291.072	125.781	-8191	255	
6681.814	1	1	0	0	0.035962	0.17641	0.12432	0.2149	0.043698	0.2654	0.27391	0.14808	0.13357	0.27916	0.054989	0.28645	0.3898	0.22703	0.28376	0.15405	-2.5125	-2.7875	-3.1437	-2.8063	-3.3542	-3.0187	-3.1354	-3.2062	-2.9062	-3.0438	-3.325	-3.0958	-3.2271	-3.0083	-2.9021	-3.2417	130.324	203.167	120.833	411.164	353.948	130.527	320.385	428.821	283.651	376.821	184.512	160.807	351.300	266.676	352.322	453.548	0.00068829	0.00031957	0.00017827	1273.5	3.8391e-06	1.1474e-05	1340.9	266.84	1.268e-05	7.3235e-06	327.35	89.344	70.999	20.297	8.3655e-06	28.291	0.001076	0.0010648	0.00026807	1282.4	1.1628e-05	1.1156e-05	1348.4	275.33	1.1986e-05	1.1539e-05	339.3	94.533	77.003	22.637	1.1336e-05	31.277	433.186	287.608	246.812	106.354	362.519	412.732	106.211	113.499	256.146	264.679	113.156	119.435	119.694	126.437	214.918	126.583	-8191	255	
6681.934	1	1	0	0	0.4079	0.095217	0.055956	0.65747	0.086243	0.095083	0.29395	0.14775	0.052177	0.3081	0.090672	0.15554	0.13265	0.29408	0.14619	0.022667	-2.5312	-3.1125	-3.4333	-3.0792	-3.0583	-3.0833	-2.9896	-3.1896	-3.1146	-2.7479	-3.2687	-2.9854	-3.05	-3.3312	-2.8458	-3.2833	316.983	413.656	277.211	355.498	186.269	426.667	446.309	360.420	232.183	125.779	416.871	100.323	427.353	396.564	451.326	176.412	0.00095675	0.00010926	9.7055e-05	1262.8	5.0168e-06	4.6618e-06	1328.9	265.09	5.2719e-06	8.5892e-06	323.07	88.1	70.337	20.088	6.6996e-06	28.163	0.0011895	0.0011239	0.00029086	1280.1	1.3329e-05	1.194e-05	1340	276.37	1.2988e-05	1.1933e-05	336.25	94.53	76.583	22.343	1.093e-05	31.27	433.361	387.722	279.233	106.434	221.945	178.651	106.298	113.696	234.833	308.640	113.221	119.604	119.971	127.007	260.049	126.045	-8191	255	
6682.030	1	1	0	0	0.022055	0.072379	0.099348	0.19468	0.19226	0.10999	0.33084	0.15277	0.16882	0.13951	0.096976	0.17656	0.22885	0.053709	0.19025	0.16107	-2.6833	-2.9042	-3.5083	-2.975	-3.0271	-3.225	-2.9604	-3.0167	-2.9313	-2.8375	-3.2542	-3.0792	-3.0292	-3.2854	-2.7229	-3.2708	176.291	308.941	145.666	446.926	128.934	117.415	370.872	296.166	127.793	130.785	344.422	407.088	380.952	392.716	107.923	138.056	0.00091254	0.00047685	0.00013458	1266	6.7824e-06	4.4368e-06	1347.7	269.69	5.9371e-06	5.2979e-06	330.87	90.981	71.928	20.678	4.0323e-06	28.691	0.0011138	0.0010396	0.00026874	1285.1	1.2267e-05	1.0974e-05	1359.2	281.21	1.2308e-05	1.1797e-05	344.53	97.745	78.681	23.165	1.2724e-05	32.873	433.193	210.462	163.547	106.494	287.885	380.915	106.437	113.828	149.795	405.491	113.239	119.778	119.795	126.689	161.612	126.039	-8191	255	
6682.127	1	1	0	0	0.14244	0.15452	0.15721	0.1388	0.13339	0.18793	0.39167	0.074544	0.25769	0.11354	0.24894	0.16562	0.32264	0.11737	0.25274	0.35596	-2.4542	-2.9167	-3.4729	-3.1937	-3.2042	-3.1708	-3.0521	-3.2667	-2.9208	-2.9521	-3.2062	-3.0333	-2.9396	-3.2667	-2.975	-3.0938	293.254	217.779	256.493	143.801	120.153	437.174	378.950	414.125	269.475	366.083	337.916	254.217	189.919	414.468	256.728	339.971	0.00074568	0.00060218	0.00011388	1302.1	3.5229e-06	5.0788e-06	1377.1	274.14	5.0507e-06	3.1783e-06	334.51	91.693	72.789	20.887	1.5921e-05	28.791	0.0013132	0.0013179	0.00036886	1341	1.7038e-05	1.6167e-05	1410.2	297.62	1.8119e-05	1.7908e-05	361.61	103.4	83.155	24.343	1.7585e-05	34.342	426.160	375.533	130.142	106.335	356.083	445.960	106.355	113.524	309.540	341.986	112.933	119.588	119.695	126.452	197.401	125.909	-8191	255	
6682.223	1	1	0	0	0.072485	0.17239	0.15016	0.10962	0.012686	0.19463	0.20456	0.054384	0.25164	0.12997	0.26662	0.14432	0.21673	0.14394	0.088785	0.041917	-2.6833	-2.7896	-3.2458	-2.9875	-2.9646	-3.1729	-2.9396	-3.3625	-3.0875	-2.8167	-3.4146	-2.8563	-2.8875	-3.1188	-2.9875	-3.1854	150.344	139.986	256.554	319.174	293.628	133.108	434.383	407.907	270.609	411.500	420.028	148.557	156.338	100.955	307.651	403.251	0.00070732	0.00091253	0.00015902	1305.6	1.0041e-05	4.7938e-06	1374.6	273.7	1.1274e-05	3.5059e-06	333.53	90.727	72.238	20.697	8.4846e-06	28.72	0.0015165	0.0014755	0.00041933	1348.1	1.5867e-05	1.4347e-05	1404.6	291.26	1.4596e-05	1.4141e-05	354.12	99.775	79.564	23.367	1.5222e-05	33.169	439.414	217.464	142.749	106.183	295.534	303.808	106.326	113.329	279.827	260.312	112.916	119.623	119.902	126.353	250.237	125.992	-8191	255	
6682.342	1	1	0	0	0.19545	0.1509	0.17878	0.16976	0.16134	0.13275	0.072758	0.073945	0.19402	0.074467	0.028793	0.11522	0.034621	0.047949	0.16175	0.1378	-2.5417	-2.8417	-3.0521	-3.2313	-2.6479	-3.0312	-3.1167	-3.025	-3.0812	-2.7604	-3.1625	-3.0854	-3.0396	-3.3604	-2.7854	-3.1688	307.199	324.858	336.905	449.766	302.833	202.219	384.338	182.905	305.872	260.167	377.480	428.216	401.046	207.768	272.348	121.437	0.0011261	0.00083761	9.596e-05	1301.5	4.7652e-06	1.6128e-05	1375.1	273.27	5.0061e-06	1.0628e-05	333.45	90.667	71.462	20.727	6.8689e-06	28.464	0.0012623	0.0012646	0.00039769	1336.4	1.4765e-05	1.3811e-05	1405.7	291.3	1.4616e-05	1.471e-05	357.99	99.732	80.22	23.594	1.7377e-05	33.349	420.988	178.993	203.718	106.248	215.732	267.060	106.091	113.184	277.966	167.972	113.191	119.561	119.781	126.508	231.182	126.169	-8191	255	
6682.415	1	1	0	0	0.20825	0.14802	0.092503	0.21531	0.12872	0.04516	0.33025	0.1037	0.074805	0.04223	0.14442	0.2323	0.21131	0.22428	0.0558	0.22515	-2.6604	-2.7771	-3.0479	-3.1813	-3.0125	-3.1271	-3.1937	-3.1021	-3.1708	-2.9	-3.3021	-3.3083	-2.8958	-3.3812	-2.9479	-3.15	168.154	98.914	256.586	344.202	392.438	186.765	406.386	157.083	447.601	341.537	368.499	349.816	239.082	443.363	145.705	114.998	0.00078927	0.00050216	9.8909e-05	1291.3	1.3732e-05	4.3473e-06	1362.1	271.28	7.5802e-06	1.432e-05	329.98	89.938	70.64	20.501	5.3205e-06	28.239	0.0013551	0.0013997	0.00044534	1328.8	1.521e-05	1.4834e-05	1395.4	288.03	1.4204e-05	1.5038e-05	353.92	98.134	78.305	23.331	1.6222e-05	32.468	439.619	211.377	295.064	106.570	222.710	240.124	106.413	113.505	110.310	186.970	113.007	119.510	119.951	126.244	314.344	125.905	-8191	255	
6682.509	1	1	0	0	0.10975	0.24992	0.10168	0.18501	0.25209	0.18069	0.14771	0.32194	0.3327	0.064205	0.12154	0.28674	0.25023	0.049254	0.078888	0.18337	-2.8792	-2.5979	-3.2417	-3.1146	-2.8333	-3.0771	-3.275	-3.0458	-3.2646	-2.8833	-3.2292	-3.2687	-2.9375	-3.2104	-2.9417	-2.9813	217.496	145.242	171.567	412.865	265.533	369.414	367.697	116.807	401.118	349.832	416.182	438.888	124.409	386.359	440.501	311.406	0.00076677	0.00083802	0.00024455	1271.4	1.4093e-05	1.35e-05	1340.2	266.82	1.4296e-06	9.254e-06	325.34	88.904	70.944	20.056	9.3488e-06	28.269	0.001208	0.0013316	0.00040376	1300.4	1.3339e-05	1.402e-05	1371	281.25	1.2564e-05	1.455e-05	348.31	96.361	77.088	23.105	1.5038e-05	32.06	431.987	178.332	156.011	106.335	229.316	286.680	106.431	113.547	185.445	200.966	113.237	119.542	120.085	126.914	416.361	126.445	-8191	255	
6682.607	1	1	0	0	0.14117	0.13385	0.25202	0.21524	0.11721	0.15221	0.28825	0.23933	0.045132	0.27566	0.32758	0.21516	0.07123	0.13247	0.22624	0.13479	-2.6792	-2.8875	-2.8875	-3.3292	-2.8146	-3.2896	-3.0854	-2.9417	-3.1604	-2.9771	-3.1708	-3.3292	-2.7667	-3.3646	-2.8583	-3.0708	106.938	399.684	418.830	439.719	294.827	334.974	329.388	337.132	323.590	425.661	452.129	108.068	247.135	387.824	439.474	406.075	0.00082949	0.0012596	3.6571e-05	1266.6	1.1015e-05	8.939e-06	1336.9	264.86	9.2333e-06	1.0696e-05	324.88	88.517	70.423	20.281	2.4031e-06	28.076	0.0011502	0.0013565	0.00038301	1294.2	1.293e-05	1.4455e-05	1362.6	278.99	1.2025e-05	1.4235e-05	343.21	94.623	75.803	22.845	1.2735e-05	31.311	425.882	184.163	401.272	106.563	235.214	217.582	106.454	113.602	235.397	223.258	113.193	119.919	120.012	126.657	196.625	126.551	-8191	255	
6682.726	1	1	0	0	0.14354	0.2197	0.12919	0.23369	0.34353	0.098768	0.18282	0.21537	0.13668	0.06859	0.12589	0.087426	0.12145	0.13479	0.0287	0.16293	-2.6896	-2.9542	-2.9521	-3.2333	-2.7792	-2.8583	-3.2458	-2.9417	-3.1667	-3.1271	-2.8479	-3.3521	-2.8146	-3.1396	-3.1208	-2.6167	449.327	311.239	271.286	430.355	379.360	150.195	451.248	326.394	231.332	260.878	159.476	100.539	433.227	310.554	330.008	376.412	0.0013509	0.0012908	8.8133e-05	1265.3	6.8355e-06	8.2993e-06	1337.6	265.68	8.7925e-06	5.0304e-06	324.87	88.932	70.472	20.147	1.7898e-06	28.036	0.0010264	0.001216	0.00032486	1281.5	1.192e-05	1.3555e-05	1355.3	277.07	1.2164e-05	1.4227e-05	343.39	95.166	77.234	23.248	1.3933e-05	31.884	435.601	181.905	345.600	106.309	199.494	275.626	106.443	113.430	207.429	453.803	113.250	119.801	119.875	126.466	344.468	126.097	-8191	255	
6682.822	1	1	0	0	0.22909	0.1986	0.16101	0.25031	0.23718	0.037853	0.21212	0.2065	0.24585	0.24499	0.36477	0.14278	0.30791	0.10855	0.10826	0.11709	-2.9437	-2.8375	-3.0958	-3.5479	-2.7771	-3.2646	-3.3271	-3.2083	-3.3271	-3.1146	-3.0833	-3.2521	-2.9792	-2.9	-3.3125	-3.0417	418.728	376.264	357.081	446.546	254.749	249.485	397.957	387.834	202.827	139.096	400.297	286.698	110.341	137.350	366.998	127.199	0.0010463	0.00089443	9.3337e-05	1273.7	9.3778e-06	9.5862e-06	1346.8	267.09	2.4173e-05	6.9243e-06	327.76	90.239	71.097	20.601	1.2903e-05	28.473	0.0012965	0.0014652	0.00038913	1300.2	1.5567e-05	1.6649e-05	1373.5	282.95	1.5676e-05	1.6439e-05	349.97	97.251	79.561	23.733	1.4445e-05	32.252	438.735	188.906	304.468	106.415	177.649	236.582	106.378	113.547	210.716	293.580	113.052	119.454	119.964	126.555	271.786	126.025	-8191	255	
6682.919	1	1	0	0	0.12705	0.071756	0.20446	0.16896	0.17603	0.26308	0.26779	0.29991	0.066968	0.10903	0.26739	0.16096	0.2731	0.073621	0.21681	0.089293	-2.7188	-3.1083	-2.8479	-3.6958	-2.7958	-2.9688	-3.3937	-2.9854	-3.2771	-3.1146	-2.9521	-3.4167	-3.025	-3.15	-3.3792	-2.8563	437.769	195.292	414.017	369.809	126.592	219.033	432.748	374.972	323.985	335.357	439.861	437.679	398.960	334.699	320.377	423.816	0.00061757	0.00039229	0.00020982	1286.8	6.3541e-06	1.1055e-05	1352.4	267.57	1.135e-05	3.528e-06	326.38	89.306	71.029	20.529	8.1853e-06	28.524	0.0013557	0.0013734	0.00036282	1306.7	1.4993e-05	1.4602e-05	1372.4	281.52	1.4702e-05	1.4331e-05	346.09	96.355	78.933	23.338	1.3231e-05	32.162	441.353	253.114	263.452	106.185	196.620	321.804	106.308	113.708	250.862	398.153	113.144	119.514	120.094	126.515	222.846	126.355	-8191	255	
6683.015	1	1	0	0	0.091281	0.20768	0.1715	0.19982	0.16299	0.012705	0.24465	0.079215	0.19523	0.27819	0.15727	0.18772	0.32801	0.06545	0.19547	0.035094	-2.7042	-3.0583	-2.8563	-3.625	-2.8958	-3.0563	-3.5125	-2.7292	-3.2979	-3.1354	-3.0812	-3.2292	-2.9688	-2.9104	-3.2812	-2.9646	185.741	95.652	137.878	442.900	168.309	222.481	388.034	411.534	269.165	360.899	318.801	398.837	353.705	143.421	188.422	413.151	0.00090851	0.00042205	0.00013269	1273.4	4.1041e-06	6.6482e-06	1343	267.27	9.5795e-06	1.786e-06	327.23	89.128	70.048	20.313	4.9378e-06	28.322	0.0013438	0.0012774	0.00034322	1298.8	1.4812e-05	1.3915e-05	1361.8	280.88	1.446e-05	1.3263e-05	343.11	96.152	77.766	22.939	1.2206e-05	32.048	432.728	341.753	370.142	106.302	116.715	298.528	106.184	113.458	225.581	152.260	113.319	119.692	120.133	126.632	210.437	126.411	-8191	255	
6683.111	1	1	0	0	0.18976	0.27806	0.29581	0.31124	0.33259	0.27529	0.45315	0.084446	0.13346	0.24382	0.15569	0.23482	0.2192	0.13862	0.23983	0.21308	-2.6604	-3.2646	-2.7812	-3.2917	-3.0854	-3.0771	-3.3688	-3.1083	-3.1083	-3.2146	-3.0021	-3.0438	-3.2938	-2.9354	-3.1667	-3.0042	443.584	268.096	408.910	413.126	236.779	424.539	381.548	407.604	338.425	418.370	362.507	367.968	453.077	436.481	137.401	267.182	0.00089771	0.0011127	0.00012381	1272.7	6.1429e-06	4.0214e-06	1337.3	264.91	5.9606e-06	7.1283e-06	324.36	88.489	69.935	20.234	1.0251e-05	28.083	0.001249	0.0011645	0.00031648	1294.6	1.3634e-05	1.2883e-05	1353.1	279.46	1.3552e-05	1.2483e-05	340.42	95.786	76.818	22.649	1.1769e-05	31.871	438.790	227.424	188.959	106.669	236.250	210.535	106.403	113.771	239.426	407.897	113.194	119.647	120.389	127.242	234.056	126.470	-8191	255	
6683.207	1	1	0	0	0.177	0.22929	0.055425	0.27542	0.10363	0.166	0.29452	0.23572	0.2683	0.25169	0.11134	0.065328	0.2354	0.36574	0.10076	0.13789	-2.6021	-3.2188	-2.9208	-3.4313	-3.1937	-2.8646	-3.3958	-3.0396	-2.9083	-3.3	-2.9771	-3.1188	-3.0417	-2.8354	-3.2833	-2.9938	123.289	144.836	337.408	409.247	141.214	120.753	342.225	359.744	382.358	97.376	424.924	286.071	352.924	404.882	195.387	336.600	0.00055433	0.00074362	0.00016304	1261.8	5.3447e-06	7.6317e-06	1330.5	263.57	3.4336e-06	1.0309e-05	324.08	88.444	70.12	20.048	8.0598e-06	27.981	0.001174	0.001099	0.00030434	1285.6	1.2705e-05	1.2185e-05	1343.6	277.42	1.2544e-05	1.169e-05	339.09	95.662	76.272	22.467	1.1914e-05	31.825	430.226	323.650	131.106	106.275	211.591	414.357	106.239	113.618	375.276	220.487	113.142	119.644	119.908	126.991	238.291	126.382	-8191	255	
6683.328	1	1	0	0	0.10293	0.069262	0.12511	0.3268	0.046632	0.33649	0.2451	0.058416	0.22167	0.12321	0.15893	0.27521	0.17969	0.14078	0.091902	0.39115	-2.5	-3.2167	-2.3625	-3.4604	-3.1354	-2.6354	-3.5208	-3.0771	-3	-3.3625	-2.7875	-3.3042	-3.2104	-2.8271	-3.0083	-2.9437	192.131	414.407	367.403	405.620	195.040	404.082	398.460	231.501	231.028	340.002	114.079	99.621	348.505	140.691	387.072	342.749	0.00071647	0.00036044	0.0001976	1265.8	4.1706e-06	4.4594e-06	1330.4	265.12	8.3372e-06	3.9498e-06	320.81	87.791	70.007	20.038	7.1418e-06	27.996	0.0011076	0.0010514	0.00031295	1287.3	1.1895e-05	1.1437e-05	1345.3	276.5	1.1524e-05	1.0632e-05	336.91	94.327	74.832	22.099	1.1399e-05	31.153	454.532	409.506	139.742	106.410	279.774	235.537	106.281	113.549	252.622	109.313	113.417	119.723	120.210	127.182	174.999	126.529	-8191	255	
6683.422	1	1	0	0	0.20915	0.044294	0.15093	0.13947	0.16799	0.20871	0.32275	0.15598	0.21872	0.14647	0.19484	0.26402	0.428	0.24919	0.15484	0.29077	-2.4208	-3.1875	-2.8625	-3.2438	-3.2396	-2.85	-3.4604	-3.1229	-2.875	-3.4917	-3.0021	-3.2125	-3.1167	-2.9562	-3.2125	-3.0667	378.044	388.296	132.092	366.678	202.748	300.174	415.461	114.127	377.702	226.566	173.110	418.251	128.822	174.993	247.694	423.841	0.00080812	0.0003276	0.0002885	1261.5	4.2788e-06	5.8667e-06	1326.4	261.89	1.1283e-05	4.4487e-06	321.84	87.641	69.74	20.073	3.4971e-06	27.882	0.00096362	0.00091201	0.00029446	1275.7	1.0375e-05	1.0214e-05	1343	272.9	1.0515e-05	1.0077e-05	337.6	93.799	74.327	22.023	1.182e-05	31.037	442.519	163.486	138.915	106.529	377.238	251.202	106.437	113.600	159.414	220.154	113.202	119.600	120.182	127.087	237.189	126.429	-8191	255	
6683.518	1	1	0	0	0.22209	0.1697	0.084673	0.2628	0.22071	0.096	0.08626	0.081267	0.073214	0.25631	0.045663	0.18711	0.21947	0.053618	0.10365	0.19584	-2.3354	-3.1646	-2.825	-3.1729	-3.2646	-2.5479	-3.4292	-3.0938	-3.0146	-3.2604	-3.125	-3.0312	-3.2667	-2.8458	-3.1917	-3.0271	240.906	299.481	453.952	432.628	226.157	381.983	448.066	192.050	356.393	103.205	211.440	121.227	211.258	134.302	215.020	303.177	0.00078185	0.00024301	0.0001551	1261.4	8.8305e-06	5.6328e-06	1327.3	263.3	5.3629e-06	6.6874e-06	321.82	88.019	69.67	20.209	6.2909e-06	27.828	0.00095872	0.00094247	0.00031429	1277	1.0583e-05	1.082e-05	1345	273.91	1.0833e-05	1.0883e-05	338.91	94.085	74.704	22.402	1.2777e-05	31.241	441.730	104.800	218.980	106.589	199.849	349.724	106.476	113.737	260.217	192.910	113.081	119.768	119.977	126.755	238.980	126.476	-8191	255	
6683.614	1	1	0	0	0.37952	0.10262	0.23812	0.13734	0.21662	0.28051	0.24058	0.035753	0.14817	0.32973	0.21404	0.21379	0.26941	0.13492	0.20032	0.3109	-2.6604	-3.2896	-2.8625	-3.2104	-3.2313	-2.7833	-3.3208	-3.2521	-2.5354	-3.1896	-2.9625	-2.8854	-3.1604	-2.8729	-2.9208	-3.1813	368.849	401.407	241.890	347.500	360.699	358.563	401.315	374.082	188.783	185.111	436.104	429.082	347.015	308.340	280.456	322.837	0.00087942	0.00012791	9.479e-05	1265.5	1.5089e-05	1.2905e-05	1331.1	264.14	9.2032e-06	2.3494e-06	321.68	88.312	69.864	20.275	9.3109e-06	28.119	0.0010046	0.0010695	0.0003338	1282.7	1.0996e-05	1.2114e-05	1352.1	275.36	1.1183e-05	1.2159e-05	340.34	94.567	74.931	22.591	1.2703e-05	31.207	434.913	98.142	260.186	106.413	305.430	222.045	106.536	113.452	201.227	196.772	113.288	119.634	119.651	126.668	411.544	126.518	-8191	255	
6683.710	1	1	0	0	0.14215	0.15492	0.20044	0.10234	0.1151	0.036251	0.068549	0.20963	0.15461	0.07818	0.32306	0.19708	0.21844	0.21488	0.09623	0.284	-2.3958	-3.0146	-2.975	-2.9667	-3.3333	-2.7667	-3.25	-3.2354	-2.7229	-3.1229	-3.1521	-2.7083	-3.3021	-2.9292	-2.975	-3.1625	319.233	445.249	274.330	300.632	183.159	134.662	261.155	411.509	126.933	226.240	386.974	436.835	111.437	261.111	414.099	188.264	0.0008535	0.0012022	0.00015576	1260.5	5.9154e-06	7.5431e-06	1333.4	263.27	6.457e-06	4.4022e-06	321.97	88.048	70.043	20.059	2.411e-06	27.983	0.00098658	0.0011279	0.0003211	1278.7	1.0606e-05	1.25e-05	1350.6	273.57	1.0821e-05	1.2429e-05	338.47	93.771	74.802	22.542	1.1704e-05	30.927	428.392	172.446	170.884	106.423	260.839	301.670	106.542	113.371	191.007	233.955	113.005	119.620	119.806	127.092	194.694	126.455	-8191	255	
6683.807	1	1	0	0	0.12786	0.14007	0.10478	0.27924	0.15566	0.25006	0.17384	0.21328	0.12217	0.17371	0.47962	0.22839	0.24739	0.13298	0.15007	0.36706	-2.4125	-2.8875	-3.0917	-2.9896	-3.3	-3.0667	-3.3875	-3.3125	-2.7021	-3.2354	-3.0687	-2.6854	-3.1146	-2.9604	-3.0021	-3.3229	331.763	115.819	355.813	365.661	272.076	407.516	409.093	420.535	316.171	119.000	402.557	429.474	454.588	452.633	426.553	399.232	0.0011455	0.00098711	0.00020565	1257.9	7.4605e-06	6.7244e-06	1328.2	263.71	1.7686e-05	2.1484e-07	320.55	87.592	69.699	19.975	4.9104e-06	28.046	0.0009602	0.0011105	0.00029377	1271.8	1.0467e-05	1.2155e-05	1341.8	271.75	1.0816e-05	1.2262e-05	335.28	92.929	74.64	22.399	1.1254e-05	30.679	424.011	134.339	173.166	106.564	208.173	400.666	106.369	113.634	272.822	104.287	113.357	119.470	120.023	127.117	304.977	126.401	-8191	255	
6683.903	1	1	0	0	0.16863	0.24612	0.18738	0.086156	0.33462	0.16219	0.44766	0.027829	0.27796	0.10184	0.36062	0.15877	0.09502	0.052711	0.28211	0.13403	-2.5417	-3.1312	-3.1854	-3.0625	-3.1771	-3.0458	-2.9833	-3.4375	-2.8854	-3.0583	-3.1625	-2.9792	-3.1583	-3.1562	-2.9458	-3.4	322.017	333.108	252.830	404.366	282.160	306.344	387.311	436.451	301.432	208.042	355.777	407.942	356.652	149.676	191.110	394.175	0.0010795	0.00051227	0.000233	1249.6	1.4216e-05	4.2068e-06	1322.4	261.39	7.4613e-06	5.1133e-06	319.9	87.5	69.239	19.964	4.5988e-06	27.894	0.0010037	0.0011135	0.00028469	1265	1.1276e-05	1.2154e-05	1334.2	270.85	1.1629e-05	1.2232e-05	334.05	92.726	75.087	22.393	1.1446e-05	30.806	433.362	262.422	354.407	106.435	249.648	395.042	106.330	113.496	210.290	241.273	113.479	119.930	119.817	126.817	186.917	126.251	-8191	255	
6684.023	1	1	0	0	0.016197	0.069772	0.18087	0.018351	0.13157	0.19896	0.063431	0.28185	0.075714	0.076843	0.12366	0.11793	0.09439	0.17618	0.05541	0.15746	-2.5354	-3.0417	-3.1396	-2.9896	-3.1208	-3.0146	-3.1458	-3.4833	-2.8896	-3.075	-3.2792	-2.8042	-3.0667	-3.1333	-2.6208	-3.1979	454.046	109.624	346.304	288.491	227.553	404.414	389.089	405.581	424.549	258.038	365.781	445.264	436.650	411.924	132.103	348.113	0.0012787	0.00014732	0.00013657	1248.6	9.9993e-06	1.0646e-05	1321.5	262.2	4.4794e-06	7.271e-06	321.68	87.304	69.438	19.998	1.7134e-06	27.992	0.0010976	0.0011175	0.00028862	1267.8	1.2257e-05	1.2026e-05	1335.8	271.04	1.2354e-05	1.1978e-05	335.17	92.984	75.508	22.271	1.1094e-05	30.824	434.183	367.344	248.815	106.341	263.676	99.285	106.548	113.739	241.554	208.137	113.201	119.818	120.203	126.687	141.407	126.660	-8191	255	
6684.120	1	1	0	0	0.1787	0.27829	0.034706	0.34131	0.092097	0.11419	0.12629	0.13646	0.15151	0.31663	0.30547	0.12071	0.082416	0.15853	0.20787	0.19281	-2.6583	-2.9208	-3.0042	-2.9375	-3.1458	-2.8917	-3.1688	-3.3229	-3.1375	-2.9104	-3.3542	-3.0646	-3.1625	-3.0458	-2.9813	-3.1417	257.577	397.116	363.022	436.128	288.332	102.407	291.947	336.440	450.477	230.703	404.243	148.723	450.353	111.176	293.972	447.537	0.00082913	0.00015066	0.00011997	1249.9	2.4538e-06	5.6247e-06	1322	262.47	3.5705e-06	7.3613e-06	319.4	87.824	69.49	19.915	6.4678e-06	27.779	0.0011021	0.0010546	0.00027404	1264.5	1.2149e-05	1.1128e-05	1331.8	271.47	1.19e-05	1.1106e-05	332.43	93.182	75.105	22.026	1.0377e-05	30.826	436.470	154.348	200.700	106.352	316.406	247.464	106.488	113.691	387.879	270.561	113.257	119.803	119.839	126.934	228.881	126.156	-8191	255	
6684.216	1	1	0	0	0.13086	0.15758	0.15079	0.16778	0.13943	0.11575	0.19284	0.19867	0.47624	0.18162	0.041925	0.18752	0.099875	0.074656	0.19715	0.23891	-2.6021	-2.7646	-3.2875	-3.2	-2.9896	-3.1979	-3.0062	-3.3271	-3.0812	-2.7729	-3.4625	-2.8271	-3.0729	-3.3396	-2.8604	-3.3292	425.063	227.795	152.322	449.126	395.065	227.872	378.807	118.856	435.174	331.863	244.307	124.664	134.695	386.391	239.118	413.687	0.0010743	0.00070602	0.0001278	1249.8	9.3284e-06	8.5925e-06	1317	260.49	1.3345e-06	4.3728e-06	319.92	87.969	69.024	19.864	6.4057e-06	27.889	0.0010456	0.00098896	0.00025731	1264.1	1.1474e-05	1.0537e-05	1326.1	271.14	1.133e-05	1.0801e-05	331.59	93.552	74.479	21.958	1.0198e-05	30.996	434.394	443.487	136.224	106.415	221.915	351.553	106.391	113.977	292.371	437.913	113.135	119.838	120.320	126.602	363.280	126.263	-8191	255	
6684.287	1	1	0	0	0.24793	0.23441	0.075606	0.21142	0.21957	0.0784	0.38227	0.085677	0.073501	0.20706	0.063109	0.19585	0.27658	0.24734	0.097355	0.12163	-2.5312	-2.8917	-3.3042	-3.1125	-2.8854	-3.1521	-3.0833	-3.1917	-3.0708	-2.925	-3.35	-3.1354	-3.0417	-3.3229	-2.9813	-3.1042	160.421	431.243	392.398	425.968	277.213	252.022	426.414	403.105	290.772	283.716	404.596	427.060	114.515	433.575	99.102	438.812	0.00093978	0.00013673	0.00021903	1248.5	5.22e-06	3.5682e-06	1319.3	260.5	7.4408e-06	2.4827e-06	320.19	87.595	69.181	19.987	1.6772e-05	27.712	0.00099977	0.00095137	0.00025628	1267	1.0994e-05	1.0128e-05	1325.7	272.03	1.0738e-05	1.0216e-05	331.7	93.59	74.293	21.868	1.0443e-05	31.102	431.595	290.810	115.069	106.578	220.738	361.171	106.365	113.748	229.092	187.665	113.297	119.778	120.092	126.768	223.134	126.484	-8191	255	
6684.406	1	1	0	0	0.25734	0.13622	0.41693	0.18135	0.20116	0.057768	0.15553	0.14114	0.13005	0.19905	0.049146	0.23964	0.12516	0.26549	0.074549	0.27435	-2.6	-2.8937	-2.9729	-3.1813	-2.9938	-3.2146	-3.0833	-3.275	-3.15	-2.7438	-3.3854	-3.1625	-2.9062	-3.3542	-2.7729	-3.3104	297.277	103.026	222.261	123.182	128.064	128.293	398.025	200.212	413.911	332.042	133.023	386.545	144.907	389.257	200.590	334.878	0.00053511	0.00012332	0.00022087	1252.1	9.6428e-06	5.3028e-06	1316.3	262.03	5.7464e-06	1.7694e-06	319.88	87.91	69.704	20.089	7.1178e-06	27.995	0.0009495	0.00092388	0.00026466	1266.3	1.0566e-05	9.7585e-06	1326.5	272.18	1.0057e-05	9.8418e-06	332.6	93.271	74.094	21.811	1.0666e-05	30.984	431.706	397.307	228.054	106.315	272.979	133.012	106.244	113.768	298.658	410.642	113.234	119.678	119.932	126.640	248.560	126.504	-8191	255	
6684.502	1	1	0	0	0.16596	0.27111	0.078751	0.2136	0.093009	0.069201	0.28763	0.17786	0.098454	0.1123	0.17697	0.31713	0.12615	0.18375	0.24314	0.2862	-2.8104	-2.8125	-3.075	-3.2729	-2.9271	-3.2438	-3.1188	-3.025	-3.3042	-2.7938	-3.275	-3.1583	-2.875	-3.2792	-3.05	-2.95	178.758	386.165	361.110	439.982	229.734	254.197	371.193	430.479	270.275	191.155	149.390	381.257	431.906	217.707	140.549	395.530	0.00087147	0.00013544	0.00023679	1246.9	7.8393e-06	5.5036e-06	1310.7	262.33	6.6912e-06	2.9172e-06	320.22	87.538	68.993	19.908	6.3391e-06	28.011	0.00088783	0.00088775	0.00027454	1260.8	1.0196e-05	9.4992e-06	1328.2	272.09	1.0078e-05	1.0034e-05	334.14	93.137	73.944	21.857	1.1728e-05	31.068	426.248	252.542	200.917	106.629	391.351	435.978	106.481	113.475	315.410	308.655	113.326	119.980	120.191	126.527	243.004	126.451	-8191	255	
6684.599	1	1	0	0	0.030847	0.27599	0.26667	0.25855	0.10675	0.18791	0.18177	0.18006	0.15266	0.22434	0.1301	0.20432	0.34154	0.10154	0.094416	0.21834	-2.7333	-2.675	-2.9729	-3.3667	-2.7583	-3.1667	-3.0042	-3.025	-3.1396	-2.9292	-3.3438	-3.0417	-2.7708	-3.1792	-3.1104	-3.1583	223.649	159.717	204.361	332.279	109.764	292.677	419.781	452.844	191.195	141.944	318.693	210.757	155.510	214.870	141.926	415.643	0.00069637	0.00086526	0.00019321	1246.3	2.7339e-06	3.4217e-06	1318.8	262.93	4.7101e-06	6.6182e-06	321.3	87.962	69.173	20.031	8.0129e-06	27.932	0.00091904	0.00094532	0.00030291	1262.7	1.0593e-05	1.0309e-05	1335.8	272.44	1.0252e-05	1.0728e-05	336.61	93.22	74.325	22.147	1.229e-05	31.016	95.568	226.888	183.937	106.668	415.943	272.374	106.435	113.497	226.501	189.208	113.319	119.832	120.450	126.872	244.705	126.252	-8191	255	
6684.695	1	1	0	0	0.10057	0.21158	0.041123	0.31138	0.14173	0.1526	0.42438	0.10998	0.30904	0.11735	0.18546	0.21152	0.24303	0.30425	0.11195	0.267	-2.6937	-2.6542	-3.0604	-3.4208	-2.7833	-3.1521	-2.9771	-2.975	-3.3354	-2.8604	-2.9396	-3.2687	-2.9979	-3.2646	-3.0729	-3.0187	298.688	202.453	149.726	430.509	296.691	399.873	427.018	267.521	97.354	177.735	415.444	445.233	183.172	393.701	213.210	420.663	0.0010458	0.00069662	3.4069e-05	1246.2	5.6815e-06	1.2685e-06	1318.5	262.07	1.0201e-05	8.9137e-06	320.99	87.597	69.713	19.933	4.0022e-06	27.872	0.00092715	0.0010092	0.00031274	1265.1	1.0449e-05	1.1121e-05	1335.9	271.72	1.0046e-05	1.1468e-05	336.65	93.062	74.364	22.309	1.1964e-05	30.94	429.256	149.725	310.807	106.472	261.570	166.648	106.430	113.680	311.479	224.122	113.338	119.817	120.062	126.778	376.950	126.392	-8191	255	
6684.815	1	1	0	0	0.30979	0.16368	0.29891	0.50817	0.14792	0.036938	0.31745	0.13626	0.19873	0.10101	0.19725	0.23663	0.17784	0.36518	0.051643	0.19768	-2.9708	-2.8479	-2.9667	-3.4083	-2.8854	-3.2729	-3.0687	-2.95	-3.2958	-3.0521	-3.1937	-3.3021	-2.8271	-3.0854	-3.0292	-3.0229	343.301	454.042	150.697	402.742	258.391	223.703	406.451	421.478	151.104	395.341	369.603	130.552	455.402	412.383	426.133	340.254	0.0011259	0.0001182	0.00018685	1244	1.5318e-06	2.2469e-06	1321.5	262.28	8.1484e-06	1.5291e-05	321.2	87.734	69.85	20.109	4.0527e-06	28.028	0.00091465	0.0010657	0.00030705	1261.5	1.0454e-05	1.1648e-05	1333.2	271.33	9.9609e-06	1.1802e-05	335.66	92.762	74.052	22.345	1.1104e-05	30.775	441.734	282.926	375.127	106.469	453.520	208.200	106.160	113.550	221.326	192.004	113.011	119.976	119.940	127.023	425.676	126.416	-8191	255	
6684.887	1	1	0	0	0.23711	0.081794	0.093414	0.18884	0.23295	0.27999	0.39148	0.15552	0.1295	0.1993	0.26274	0.13025	0.089436	0.042502	0.21261	0.050139	-2.9146	-2.8458	-3.0646	-3.3417	-2.7542	-3.0667	-3.2979	-3.1167	-3.0896	-3.0625	-3.1771	-3.4083	-2.8208	-3.0854	-3.1813	-2.9854	307.394	278.817	273.679	361.085	351.876	137.620	419.543	377.369	176.900	412.520	423.978	105.677	364.421	357.741	282.419	299.677	0.00076341	0.00043631	5.0765e-05	1248	1.431e-05	2.4238e-06	1315.2	262.24	4.1917e-06	2.163e-06	319.54	87.372	68.977	20.049	3.603e-06	27.943	0.00088824	0.001058	0.0002838	1258.1	1.0118e-05	1.1416e-05	1327.6	269.7	9.7351e-06	1.1234e-05	332.75	91.926	73.768	22.238	1.0099e-05	30.455	424.159	349.755	260.747	106.604	234.379	194.517	106.404	113.682	242.185	303.572	113.339	119.993	120.117	126.936	426.460	126.104	-8191	255	
6685.008	1	1	0	0	0.1315	0.23832	0.30368	0.29186	0.077492	0.2449	0.36444	0.34288	0.10551	0.14676	0.34368	0.11069	0.23562	0.2687	0.25972	0.094115	-2.6375	-2.7854	-2.9625	-3.4667	-3.0312	-3.0625	-3.3187	-3.2562	-3.1167	-2.8438	-2.9042	-3.4562	-2.9479	-3.0792	-3.0917	-3.0583	239.001	375.838	143.090	384.246	178.533	424.354	422.057	446.278	442.663	418.068	395.655	154.809	279.044	409.348	276.244	408.986	0.00093502	0.00031043	0.00014605	1242.4	6.7382e-06	1.0861e-06	1313.8	259.32	8.5053e-06	5.2032e-06	319.13	87.846	69.172	19.886	1.9781e-06	27.68	0.00088978	0.0010004	0.00025836	1250.5	1.0076e-05	1.0756e-05	1319.3	267.26	9.9602e-06	1.0588e-05	330.58	91.27	73.699	21.949	9.3358e-06	30.25	437.829	108.850	334.173	106.363	244.771	98.953	106.544	113.632	229.418	248.973	113.323	119.667	120.126	126.788	230.140	126.466	-8191	255	
6685.104	1	1	0	0	0.096815	0.19028	0.077086	0.27563	0.10864	0.24557	0.20048	0.27343	0.1102	0.1187	0.1029	0.20075	0.11412	0.19343	0.07404	0.23396	-2.8125	-2.9021	-2.9229	-3.6333	-2.7521	-2.9313	-3.2979	-2.9229	-3.0687	-3.0396	-3.1771	-3.15	-3.0771	-2.9833	-3.0646	-2.9417	146.226	121.970	233.028	446.014	222.622	215.245	380.202	387.528	366.941	177.392	393.632	436.159	401.133	393.959	173.774	358.664	0.00094683	0.00055332	7.7974e-05	1240.9	7.3159e-06	2.3641e-06	1305.8	258.94	5.5097e-06	3.0675e-06	319.39	87.544	68.833	19.868	3.0076e-06	27.861	0.00091246	0.00093334	0.0002442	1243.5	1.0266e-05	1.0216e-05	1311.6	265.56	1.0185e-05	9.9204e-06	329.18	91.26	73.75	21.815	9.193e-06	30.341	430.739	277.436	275.615	106.518	244.913	351.993	106.574	113.493	211.186	353.839	113.150	119.720	119.857	126.961	122.096	126.574	-8191	255	
6685.200	1	1	0	0	0.020992	0.25695	0.13925	0.15285	0.22375	0.083509	0.38185	0.11314	0.31823	0.17798	0.078326	0.09031	0.12938	0.053349	0.044419	0.19578	-2.75	-3.0833	-2.7708	-3.4354	-2.8563	-2.8812	-3.5354	-2.8646	-3.1417	-3.2708	-2.8312	-3.2604	-3.0167	-3.1167	-3.2229	-2.9688	209.960	152.275	300.023	417.851	100.833	125.776	370.661	115.226	244.069	343.634	392.911	316.169	344.731	357.283	314.383	378.063	0.0010143	0.00066418	6.726e-05	1231.9	1.1462e-05	2.2458e-06	1307.1	258.74	9.7468e-06	2.715e-06	318.29	87.351	68.895	19.819	8.2105e-06	28.001	0.0009536	0.00090076	0.00024374	1241.8	1.0729e-05	9.9436e-06	1310.1	267.2	1.0643e-05	9.8379e-06	328.86	91.81	73.893	21.798	9.1151e-06	30.532	437.673	237.561	193.296	106.598	197.236	261.765	106.616	113.695	188.262	293.133	113.332	119.752	120.363	127.154	303.583	126.541	-8191	255	
6685.296	1	1	0	0	0.15594	0.28735	0.09186	0.011585	0.1343	0.026778	0.14018	0.19507	0.10132	0.036603	0.020083	0.051021	0.26607	0.10385	0.27121	0.20979	-2.7625	-3.0875	-2.7438	-3.5438	-2.9083	-3.1854	-3.45	-2.9667	-3.0396	-3.2188	-2.95	-3.1833	-2.8542	-3.0417	-3.2938	-2.8958	358.636	269.369	436.869	244.622	240.529	337.846	336.050	446.071	146.522	229.120	341.345	207.139	101.963	455.071	232.847	424.455	0.00083877	0.00040643	0.00013504	1230.9	6.3214e-06	7.5273e-06	1299.5	258.53	3.8873e-06	6.6145e-06	317.1	87.299	68.617	19.791	1.0841e-05	27.945	0.0009659	0.00088622	0.00024302	1245.4	1.0696e-05	9.8573e-06	1305.3	267.9	1.0599e-05	9.6292e-06	327.98	92.204	73.719	21.74	9.1739e-06	30.747	436.796	289.230	454.577	106.585	353.943	112.468	106.558	113.749	382.024	222.698	113.091	119.768	120.388	126.954	240.215	126.130	-8191	255	
6685.417	1	1	0	0	0.13123	0.21256	0.13865	0.48112	0.20123	0.17314	0.36664	0.076729	0.25475	0.10557	0.28759	0.14353	0.10309	0.1936	0.018002	0.26335	-2.6729	-3.1729	-2.6333	-3.4667	-2.8667	-2.8771	-3.5042	-2.95	-3.1146	-3.3646	-2.875	-3.0792	-3	-3.0062	-3.2292	-3.0875	352.101	198.217	439.936	366.817	366.747	381.258	392.685	147.838	167.529	118.633	137.797	405.386	117.807	206.320	334.947	115.643	0.00079187	5.6424e-05	0.00014972	1225.8	8.4918e-06	6.3477e-06	1301.3	259.51	2.5091e-06	4.1031e-06	317.17	87.264	68.816	19.82	6.2186e-06	27.62	0.00093814	0.00086558	0.00024216	1246.8	1.0182e-05	9.6738e-06	1305.6	268.49	9.9822e-06	9.2243e-06	328.2	92.449	73.304	21.647	9.1444e-06	30.66	440.141	177.999	184.417	106.640	249.910	333.644	106.498	113.600	335.396	239.899	113.593	120.065	120.229	127.218	237.408	126.685	-8191	255	
6685.511	1	1	0	0	0.092412	0.10224	0.16279	0.30677	0.1971	0.26056	0.14292	0.10477	0.21763	0.14609	0.26434	0.23383	0.27568	0.22153	0.062304	0.22818	-2.65	-3.3979	-2.7438	-3.3042	-3.2354	-2.8583	-3.325	-3.0687	-3.0979	-3.2667	-2.7771	-3.0771	-3.2521	-2.8833	-3.3229	-2.8458	247.838	393.300	340.315	106.698	290.619	292.826	167.631	360.651	145.701	294.858	378.082	449.981	435.425	129.876	246.495	145.753	0.00067719	0.00034875	0.00017575	1228.7	5.5716e-06	1.0084e-05	1300.9	259.11	2.0008e-06	8.1445e-06	318	87.067	68.72	19.791	8.1821e-06	27.719	0.00087995	0.00080794	0.00024109	1242.4	9.3385e-06	8.8944e-06	1306.4	267.9	9.2419e-06	8.4869e-06	328.3	91.594	72.433	21.504	9.5739e-06	30.43	428.242	350.191	184.860	106.650	205.842	289.996	106.432	113.917	406.184	216.029	113.375	120.155	119.929	126.616	225.665	126.886	-8191	255	
6685.583	1	1	0	0	0.090897	0.14244	0.26016	0.14398	0.13912	0.066438	0.24438	0.16833	0.2644	0.23046	0.26804	0.13882	0.12379	0.091499	0.13093	0.11207	-2.5167	-3.25	-2.8979	-3.2708	-3.1458	-2.8646	-3.475	-3.0938	-2.7292	-3.3646	-3.0563	-2.9813	-3.1833	-2.7812	-3.2896	-3.1375	303.026	286.854	361.691	377.858	127.332	455.532	417.705	408.893	243.491	207.632	449.896	418.008	123.282	338.889	339.168	408.406	0.00092521	0.00033889	8.3822e-05	1226	5.9519e-06	3.606e-06	1297.3	257.33	2.0221e-06	7.1885e-06	314.61	86.621	68.575	19.861	9.89e-06	27.936	0.00083633	0.00078473	0.00025498	1240.5	9.2086e-06	8.9235e-06	1306.4	266.52	9.3484e-06	8.6833e-06	329.03	91.793	72.652	21.579	1.0351e-05	30.543	435.185	441.266	270.175	106.435	226.105	331.872	106.430	113.652	99.935	393.687	113.324	120.043	120.271	126.919	272.012	126.568	-8191	255	
6685.703	1	1	0	0	0.13044	0.13792	0.12788	0.46607	0.10658	0.18374	0.12127	0.22414	0.14283	0.26062	0.13405	0.092284	0.28669	0.22386	0.11564	0.15978	-2.3292	-3.2375	-2.9333	-3.3375	-3.1729	-2.7208	-3.3021	-3.1771	-2.7229	-3.1271	-2.9417	-3.1375	-3.1875	-2.7271	-3.2542	-3.1479	190.206	151.937	128.765	107.835	248.665	320.570	365.398	422.097	196.443	196.979	336.797	131.783	387.804	100.414	103.088	140.339	0.00088746	0.00023434	0.00020367	1234.2	6.3684e-06	5.6831e-06	1304.9	258.61	4.137e-06	8.8038e-06	319.03	86.983	68.805	19.852	8.6355e-06	27.849	0.0008501	0.00083274	0.00027792	1245.5	9.3972e-06	9.7273e-06	1313.6	268.34	9.8721e-06	9.8423e-06	332.93	92.343	73.325	21.964	1.1801e-05	30.821	451.429	171.657	135.918	106.565	404.472	241.343	106.499	113.557	131.087	247.743	113.155	120.017	120.062	126.634	202.459	126.262	-8191	255	
6685.800	1	1	0	0	0.064655	0.11271	0.11485	0.12047	0.16644	0.073247	0.20483	0.26268	0.27085	0.21462	0.13386	0.26443	0.18667	0.12927	0.10953	0.08944	-2.4729	-3.0521	-2.7479	-3.2229	-3.2042	-2.6146	-3.2104	-3.025	-2.8312	-3.0854	-2.7979	-3.0062	-3.225	-2.7708	-3.0125	-3.2	283.752	122.151	447.838	121.376	257.100	108.916	433.190	373.703	178.921	177.376	330.954	366.098	99.306	101.366	277.205	413.551	0.00092999	0.00078305	0.00010318	1229.5	5.9757e-06	1.9233e-06	1303.3	260.82	2.894e-06	7.8125e-06	318.47	87.788	69.001	19.982	5.688e-06	27.941	0.00092899	0.00096842	0.00030823	1246.2	1.0139e-05	1.1125e-05	1320.8	269.83	1.0434e-05	1.1174e-05	334.99	93.022	73.763	22.252	1.207e-05	30.793	441.882	138.635	106.300	106.336	213.399	207.340	106.560	113.460	377.277	201.092	113.434	120.223	120.056	127.121	332.806	126.196	-8191	255	
6685.896	1	1	0	0	0.033846	0.10079	0.13079	0.19208	0.23238	0.13921	0.41872	0.066215	0.10016	0.10948	0.1374	0.20065	0.35702	0.2065	0.37062	0.33739	-2.2479	-3.0187	-3.0146	-2.9083	-3.1354	-2.9271	-3.2687	-3.1333	-2.7438	-3.2313	-3.0583	-2.9021	-3.3729	-2.9021	-3.0146	-3.1521	370.892	357.727	145.243	436.590	164.502	166.000	393.206	104.468	307.276	340.409	302.867	128.475	97.453	379.566	288.435	229.243	0.00066371	0.00062244	0.00010931	1231.6	1.5409e-05	8.4773e-06	1302.4	259.08	1.0261e-05	2.8389e-06	318.31	87.477	69.112	19.989	5.2818e-06	27.654	0.00092925	0.0010412	0.00029835	1248.4	9.6378e-06	1.1113e-05	1317	267.26	9.2698e-06	1.0389e-05	330.81	91.507	72.561	21.895	9.8009e-06	30.1	444.925	453.284	261.715	106.581	251.198	338.507	106.594	113.731	270.675	137.159	113.416	119.795	120.165	127.029	289.517	126.080	-8191	255	
6685.992	1	1	0	0	0.095705	0.038814	0.13296	0.17225	0.30529	0.03687	0.44596	0.24328	0.084125	0.17386	0.3325	0.061631	0.22553	0.090551	0.068836	0.20017	-2.65	-3.0667	-3.05	-3.0167	-3.2875	-2.9417	-3.1208	-3.4375	-2.875	-2.8917	-3.3271	-2.7625	-3.1063	-3.0083	-3.0208	-3.0792	185.009	427.737	404.852	453.843	321.437	396.614	408.612	426.697	98.947	281.350	452.604	432.727	424.906	131.219	175.612	425.576	0.00092739	0.00036084	0.00011037	1229.4	5.5125e-06	6.0034e-06	1306.3	258.56	1.1419e-05	3.2534e-06	315.54	86.669	68.746	19.873	3.8896e-07	27.837	0.00079209	0.00091351	0.00024432	1238.8	8.6167e-06	1.0243e-05	1311.3	265.19	9.0388e-06	1.04e-05	328.53	91.273	72.967	21.985	9.8495e-06	30.257	439.752	204.273	251.906	106.570	257.046	244.143	106.627	113.635	192.071	246.022	112.930	119.663	120.329	126.793	444.314	126.229	-8191	255	
6686.088	1	1	0	0	0.11946	0.087614	0.071395	0.21673	0.18617	0.076631	0.11779	0.41999	0.35143	0.1557	0.10228	0.069437	0.20366	0.15427	0.26457	0.12136	-2.4875	-3.15	-2.825	-2.9917	-3.1125	-2.8812	-3.1562	-3.1542	-2.7229	-3.1333	-3.125	-3.0167	-3.4458	-2.8542	-2.9854	-3.2271	283.131	222.271	421.114	452.057	310.922	433.358	435.175	375.004	152.219	103.595	330.190	296.045	341.381	186.657	427.321	343.465	0.0011479	0.0004253	1.4839e-05	1235.3	1.054e-05	5.1472e-06	1306.4	259.42	1.4846e-05	2.7161e-06	318.28	87.44	69.734	20.015	1.2636e-05	27.895	0.00088245	0.00098491	0.0002548	1243.5	9.9785e-06	1.1151e-05	1316.9	266.78	1.0616e-05	1.1229e-05	330.75	92.113	74.313	22.201	1.0549e-05	30.51	432.954	210.016	171.826	106.512	250.460	326.744	106.441	113.750	221.164	419.056	113.122	119.786	120.298	127.084	223.827	126.388	-8191	255	
6686.184	1	1	0	0	0.065045	0.057006	0.046104	0.21194	0.24012	0.055209	0.22821	0.35009	0.12061	0.20895	0.10975	0.26798	0.15438	0.13752	0.16071	0.42831	-2.3229	-2.9604	-3.225	-3.0167	-2.8937	-2.9625	-3.1229	-3.2625	-2.6604	-3.0062	-3.1292	-2.8542	-3.1875	-2.9521	-2.8312	-3.2042	166.159	97.324	113.561	306.951	189.266	285.467	388.470	431.473	396.764	281.970	403.311	416.061	350.218	298.219	334.492	340.160	0.0012863	0.00041041	9.9573e-05	1240	1.2154e-05	1.0254e-05	1309.7	260.21	1.1631e-05	3.4969e-06	317.44	87.852	69.497	19.885	9.5423e-06	28.151	0.00099669	0.0010321	0.00026306	1248.6	1.1012e-05	1.1002e-05	1317.9	268.11	1.1024e-05	1.0772e-05	330.72	92.208	74.457	22.017	9.8577e-06	30.521	424.911	371.345	261.521	106.465	242.847	455.568	106.560	113.646	187.873	135.155	113.369	120.163	120.183	126.865	290.412	126.069	-8191	255	
6686.280	1	1	0	0	0.15308	0.15736	0.052644	0.12724	0.13685	0.12326	0.21638	0.23749	0.092586	0.11301	0.22243	0.23163	0.059471	0.14092	0.078993	0.062553	-2.1375	-2.8625	-3.0583	-2.8854	-3.0375	-3.075	-2.9313	-3.2687	-2.8063	-2.9875	-3.2313	-3.0792	-3.1021	-3.0771	-2.675	-3.2271	365.925	334.432	114.571	365.949	375.974	431.680	374.451	440.668	185.345	203.342	410.897	383.561	129.644	170.915	342.533	406.107	0.0010596	0.00017366	0.00014574	1238.4	6.9251e-06	3.6914e-06	1303	260.77	8.9862e-06	3.3323e-06	319.11	87.446	69.091	19.884	3.4499e-06	27.928	0.000982	0.00095068	0.00024602	1249	1.0895e-05	1.0121e-05	1312.7	268.35	1.1002e-05	1.0391e-05	329.65	92.466	74.522	21.978	1.0087e-05	30.81	439.842	302.432	116.722	106.423	292.830	134.495	106.424	113.557	325.246	330.907	113.200	119.650	120.167	126.942	231.101	126.401	-8191	255	
6686.376	1	1	0	0	0.2438	0.19265	0.20238	0.23292	0.25488	0.16307	0.23969	0.050771	0.27848	0.12792	0.15893	0.12182	0.14399	0.28342	0.27805	0.26043	-2.7438	-2.7458	-3.0042	-2.9521	-3.0833	-3.2125	-3.0542	-3.0875	-2.9292	-2.9375	-3.2458	-2.925	-2.9542	-3.1875	-2.7438	-3.3021	439.566	129.269	286.244	388.944	355.832	263.178	347.035	403.044	179.775	425.110	395.692	104.056	254.885	114.304	297.189	442.723	0.0007111	8.4357e-05	7.3443e-05	1239.6	7.5641e-06	2.5131e-06	1307.5	260.56	1.1248e-05	7.431e-06	318.9	88.228	69.448	19.98	4.2067e-06	27.938	0.001038	0.00098739	0.00025958	1253.1	1.1753e-05	1.068e-05	1316.1	270.87	1.1784e-05	1.1183e-05	331.65	93.787	75.251	22.166	1.0796e-05	31.312	422.374	170.807	424.028	106.338	118.736	376.090	106.082	113.422	235.355	232.803	113.311	119.638	120.126	126.759	383.411	126.216	-8191	255	
6686.495	1	1	0	0	0.097567	0.14023	0.13545	0.24043	0.12484	0.091239	0.35602	0.1602	0.21478	0.023097	0.054566	0.17353	0.13556	0.090269	0.15366	0.15614	-2.6729	-2.8063	-3.1312	-3.0604	-3.1479	-3.1646	-2.9917	-3.2562	-3.075	-2.7875	-3.3063	-2.7167	-3.0396	-3.075	-2.9167	-3.1583	219.089	235.478	197.357	374.825	369.511	130.999	372.041	387.758	212.113	201.479	112.399	395.961	315.207	340.727	387.263	314.541	0.00061307	0.00056096	8.862e-05	1244.9	1.0051e-05	6.5713e-06	1316.9	262	6.6542e-06	4.1928e-06	320.48	88.624	69.094	20.053	1.0684e-05	28.019	0.0010676	0.0010352	0.00027285	1265.2	1.1921e-05	1.1009e-05	1326.4	273.32	1.154e-05	1.1132e-05	333.31	94.547	75.09	22.139	1.0828e-05	31.411	437.866	322.864	305.188	106.420	242.841	442.847	106.309	113.633	234.659	296.644	112.999	119.769	120.197	126.787	242.630	126.623	-8191	255	
6686.592	1	1	0	0	0.26254	0.14981	0.15805	0.21067	0.38206	0.13711	0.32715	0.17984	0.15563	0.23351	0.11947	0.26321	0.077495	0.22004	0.075752	0.18557	-2.8187	-2.8042	-3.0563	-3.1208	-2.8958	-3.2375	-3	-3.2938	-2.8583	-2.9104	-3.2104	-3.2354	-2.9688	-3.1021	-2.8729	-3.1937	308.584	361.363	453.050	409.942	181.516	145.421	378.505	420.783	213.616	336.897	384.305	348.108	101.424	110.259	200.149	377.979	0.00068228	0.00015586	0.00012718	1242.6	2.1877e-06	4.1028e-06	1314.8	261.17	9.9406e-06	3.9622e-06	320.13	87.859	69.562	19.973	7.0496e-06	27.949	0.00098336	0.00095335	0.0002687	1260.5	1.0633e-05	9.7295e-06	1321.2	271.3	9.9577e-06	9.6295e-06	331.23	93.143	73.648	21.734	1.0312e-05	30.92	439.280	218.702	208.698	106.328	289.747	198.919	106.528	113.731	282.635	257.361	113.338	119.699	120.239	126.754	156.743	126.420	-8191	255	
6686.688	1	1	0	0	0.15894	0.040597	0.17758	0.26408	0.07465	0.030946	0.27346	0.17193	0.091945	0.20731	0.13342	0.085287	0.081125	0.147	0.23039	0.16781	-2.5875	-2.7125	-2.9833	-3.275	-2.675	-3.2521	-3.1229	-3.1208	-3.1417	-2.7292	-3.2458	-3.1312	-2.8354	-3.2458	-2.8917	-3	372.397	380.119	237.567	424.668	388.143	235.154	387.843	312.073	416.285	206.579	365.486	104.634	445.631	160.122	289.523	318.139	0.00072028	0.00044157	0.00026257	1234.1	5.9362e-06	5.6203e-06	1306.8	259.86	7.873e-06	5.9838e-06	319.88	87.442	69.147	20.075	5.398e-06	27.88	0.00087329	0.00086013	0.00026481	1250.4	9.9678e-06	9.3804e-06	1319.3	270.84	9.9808e-06	9.9652e-06	333.46	93.299	74.194	21.956	1.1776e-05	31.047	424.850	226.982	173.148	106.579	252.696	223.774	106.463	113.655	178.387	255.922	113.190	119.931	120.063	126.824	189.645	126.571	-8191	255	
6686.784	1	1	0	0	0.076484	0.16178	0.15316	0.1405	0.15007	0.19249	0.27529	0.12928	0.02181	0.22198	0.34893	0.16933	0.1723	0.27493	0.20695	0.11005	-2.6708	-2.9646	-3.0646	-3.3333	-2.7917	-3.2604	-3.1083	-3.0812	-3.35	-2.8979	-3.1792	-3.0417	-2.8563	-3.1646	-2.6396	-2.9729	205.299	443.434	452.885	320.758	138.182	175.659	368.148	369.784	359.344	171.049	369.516	385.118	278.304	450.324	385.583	356.971	0.00088568	0.0009537	3.6372e-05	1239.2	6.9296e-06	7.358e-06	1307.6	260.56	4.9254e-06	6.122e-06	319.44	87.499	69.042	20.115	2.1391e-06	28	0.00093022	0.00094497	0.00030642	1253.5	1.0601e-05	1.0187e-05	1323.1	270.78	1.0208e-05	1.0625e-05	334.94	93.203	73.903	22.056	1.2177e-05	30.954	426.762	160.369	271.107	106.458	122.832	259.681	106.370	113.406	354.742	175.920	113.305	119.965	120.109	126.835	112.355	126.295	-8191	255	
6686.880	1	1	0	0	0.12993	0.2186	0.1779	0.29148	0.028078	0.15643	0.25781	0.25886	0.11882	0.070833	0.27513	0.10778	0.11658	0.15151	0.22523	0.080012	-2.7646	-2.7583	-3.1896	-3.1417	-2.7208	-3.2125	-3.2042	-3.1958	-3.2208	-2.9604	-3.0042	-3.2167	-2.9146	-3.0833	-2.9146	-2.8667	350.981	140.722	331.110	101.842	254.736	206.656	407.713	352.092	127.856	136.677	455.754	216.919	307.498	109.632	206.025	187.171	0.00084007	0.00060351	0.00017883	1230.1	4.9931e-06	3.4614e-06	1301.6	259.53	6.0927e-06	5.2935e-06	318.98	87.671	68.946	20.098	2.9923e-07	27.911	0.00090526	0.00098923	0.00031016	1249	1.0298e-05	1.0761e-05	1321.1	269.86	9.9236e-06	1.1197e-05	334.37	92.868	73.859	22.212	1.1915e-05	30.866	448.763	172.371	190.870	106.542	277.735	281.013	106.539	113.751	255.404	160.608	113.229	119.492	120.371	126.845	123.981	126.110	-8191	255	
6686.976	1	1	0	0	0.15446	0.28189	0.096263	0.24248	0.25033	0.2694	0.25283	0.29896	0.051662	0.27071	0.1536	0.26666	0.096231	0.15488	0.14215	0.21256	-2.6208	-2.7729	-3.1292	-3.1125	-2.6271	-3.1396	-3.1167	-2.8229	-3.2042	-3.1458	-3.0875	-3.1146	-2.8812	-3.2687	-3.0229	-2.8125	418.955	141.665	156.807	425.969	202.123	233.708	382.234	150.580	124.020	160.032	102.627	107.522	236.098	154.427	119.505	237.103	0.00095491	0.00079041	5.8263e-05	1231.6	3.8814e-06	1.4388e-05	1308.5	259.66	8.4965e-06	1.1346e-05	317.51	87.53	69.496	19.966	7.7524e-06	28.114	0.00088133	0.0010449	0.00030626	1249.9	1.0145e-05	1.1513e-05	1320.8	269.72	9.9354e-06	1.1778e-05	333.11	92.592	73.939	22.34	1.1379e-05	30.851	98.306	175.136	363.515	106.585	198.055	223.588	106.409	113.674	181.783	190.762	112.866	119.621	120.186	127.055	281.566	126.406	-8191	255	
6687.097	1	1	0	0	0.36735	0.10132	0.23189	0.33179	0.05224	0.33162	0.27616	0.17186	0.18083	0.13996	0.074412	0.10075	0.2594	0.30868	0.35048	0.25152	-2.8625	-2.7833	-2.9833	-3.4771	-2.6125	-3.1771	-3.3042	-2.7375	-3.1708	-2.9792	-3.0667	-3.2938	-3.0229	-3	-3.15	-2.9479	401.936	428.225	132.716	395.419	446.634	272.811	435.045	429.307	239.423	393.483	441.945	385.761	416.904	430.126	313.071	353.187	0.00099098	0.00095115	0.00015537	1236.1	5.6066e-06	8.9515e-06	1306.4	260.44	8.444e-06	7.6435e-06	319.73	86.829	69.456	20.028	2.8043e-06	28.194	0.00090143	0.0010949	0.00029398	1249.4	1.0547e-05	1.198e-05	1320.7	269.93	1.0372e-05	1.2108e-05	334.07	92.114	74.301	22.383	1.1039e-05	30.825	448.708	179.485	270.973	106.409	316.322	341.501	106.349	113.492	217.481	216.797	113.113	120.006	120.088	126.809	116.167	126.281	-8191	255	
6687.193	1	1	0	0	0.4282	0.1756	0.28869	0.21565	0.026727	0.1279	0.25248	0.2739	0.14596	0.10132	0.18292	0.17847	0.21902	0.22495	0.25839	0.15472	-2.8146	-2.8604	-2.8667	-3.375	-2.9	-3.1042	-3.2812	-2.9104	-3.1771	-2.9271	-2.7104	-3.3021	-2.8187	-2.9271	-3.1083	-2.8208	354.186	260.360	304.561	368.553	154.203	224.014	381.137	110.733	442.877	159.059	450.330	141.846	194.966	100.098	352.985	324.234	0.00094605	0.00065596	2.4353e-05	1239	8.8608e-06	2.9563e-06	1300.8	259.61	1.5733e-05	4.3774e-06	318.91	87.125	69.021	19.982	3.8558e-06	28.045	0.00095874	0.0011005	0.00028631	1246.5	1.0947e-05	1.1866e-05	1314.1	268.45	1.0795e-05	1.1648e-05	332.03	91.888	74.347	22.269	1.0446e-05	30.625	429.545	437.025	281.028	106.461	234.847	319.808	106.538	113.619	178.236	249.648	113.190	119.563	120.261	126.632	431.557	126.463	-8191	255	
6687.289	1	1	0	0	0.14259	0.096286	0.17021	0.36456	0.085397	0.072016	0.14868	0.26844	0.32937	0.10053	0.14052	0.17153	0.11529	0.10899	0.11274	0.28221	-2.6271	-3.0312	-2.7625	-3.2729	-2.8104	-3.0708	-3.2854	-2.9458	-3.1708	-2.9813	-3.0104	-3.1521	-2.8604	-3.1604	-3.2729	-2.8792	121.859	137.215	430.832	377.281	371.655	269.038	379.000	405.904	348.764	129.151	163.122	423.308	181.439	121.846	430.490	389.321	0.00079516	0.00030344	3.6981e-05	1233.1	2.1425e-06	5.2954e-06	1303.5	260.31	1.3812e-05	5.0597e-06	318.14	87.358	69.392	20.073	7.7015e-06	28.029	0.0009989	0.0010373	0.0002706	1243.9	1.1311e-05	1.1305e-05	1313.4	268.7	1.1269e-05	1.1141e-05	331.37	92.093	74.808	22.219	1.0112e-05	30.625	414.860	197.137	359.157	106.540	162.160	135.191	106.484	113.780	191.722	290.189	113.150	119.962	120.220	126.952	317.058	126.310	-8191	255	
6687.408	1	1	0	0	0.17904	0.32156	0.1126	0.30877	0.17684	0.17992	0.23658	0.11731	0.15708	0.12096	0.095445	0.092898	0.025009	0.11413	0.11549	0.16424	-2.5646	-3.0167	-2.7562	-3.125	-2.9521	-2.7396	-3.1813	-2.8583	-2.9979	-3.2521	-2.9167	-3.1875	-2.9854	-2.7146	-3.1604	-3.0396	336.945	120.956	167.200	433.983	290.281	403.283	314.425	308.234	278.693	237.804	279.966	273.570	125.129	267.725	134.364	250.550	0.00099419	0.00042769	8.8258e-05	1231.6	1.0431e-05	6.3555e-06	1301.6	260.63	4.9139e-06	4.3123e-06	319.32	88.106	68.84	19.998	4.1528e-06	28.004	0.0010395	0.00099227	0.00026677	1245.6	1.1651e-05	1.0832e-05	1312.3	269.26	1.1536e-05	1.0578e-05	330.94	92.754	74.641	22.076	9.7987e-06	30.789	428.834	285.877	226.778	106.279	252.422	332.516	106.498	113.677	223.564	307.254	113.266	119.743	119.978	126.815	391.212	126.360	-8191	255	
6687.480	1	1	0	0	0.22804	0.27173	0.14816	0.28756	0.1054	0.14639	0.3532	0.053296	0.13354	0.29948	0.36297	0.31988	0.10748	0.28539	0.053647	0.07251	-2.6312	-2.9188	-2.7667	-3.3063	-3.0021	-2.625	-3.2438	-2.9437	-3.1667	-2.8979	-2.9062	-3.2083	-2.925	-2.7896	-3.0854	-2.8354	112.179	382.593	115.900	424.397	221.647	284.337	446.710	248.221	193.900	310.611	360.447	361.252	413.275	427.319	164.056	405.327	0.00085057	0.00045394	1.8751e-05	1234.4	8.0167e-06	4.4089e-06	1299.8	260.18	5.2383e-06	7.6778e-06	316.68	87.702	69.104	20.1	4.0704e-06	28.044	0.0010224	0.00094718	0.00025755	1246.2	1.1407e-05	1.054e-05	1308.2	269.93	1.1372e-05	1.036e-05	329.62	93.085	74.697	22.078	9.7791e-06	31.075	433.388	176.276	290.237	106.603	297.755	420.142	106.471	113.484	431.206	256.613	113.055	119.714	119.942	126.772	245.637	126.152	-8191	255	
6687.576	1	1	0	0	0.033437	0.16068	0.090709	0.29263	0.21206	0.21297	0.24211	0.085813	0.22164	0.11734	0.17202	0.040319	0.19024	0.098613	0.053853	0.15285	-2.4833	-2.7771	-2.5875	-3.3063	-2.9042	-2.7875	-3.5396	-2.9125	-2.7208	-3.3187	-3.0396	-3.0375	-3.0875	-2.8375	-3.025	-2.8896	427.219	221.246	288.183	396.467	298.424	344.432	422.640	130.071	384.276	247.289	436.817	316.971	427.369	198.125	400.381	388.161	0.000746	7.4391e-05	6.319e-05	1232.7	7.7242e-06	8.3574e-06	1301	259.17	7.8294e-06	6.2126e-06	318.59	87.827	68.865	19.883	3.7064e-06	27.965	0.0010084	0.00094155	0.00026034	1248.6	1.1183e-05	1.0572e-05	1308.9	270.25	1.1073e-05	1.0235e-05	331.16	93.478	74.233	21.992	1.0222e-05	31.194	445.726	361.673	314.631	106.676	306.454	269.416	106.451	113.637	245.458	393.415	113.293	119.960	120.138	127.169	276.478	126.471	-8191	255	
6687.672	1	1	0	0	0.13336	0.21147	0.2702	0.028889	0.065199	0.15368	0.13165	0.17034	0.20001	0.15322	0.18543	0.09609	0.17486	0.14028	0.097358	0.33276	-2.4813	-3.175	-2.7208	-3.3187	-3.0125	-3.0354	-3.3312	-2.95	-3.1542	-3.3042	-2.7729	-3.0729	-3.1604	-2.8312	-3.2292	-2.9667	353.248	296.363	108.780	319.816	425.041	372.173	396.255	376.596	215.422	241.770	109.450	416.250	451.236	332.878	276.888	98.791	0.00050527	0.0005698	0.00022797	1233.7	5.0759e-06	2.8094e-06	1303.3	260.76	8.2494e-06	4.0811e-06	318.3	87.29	69.518	19.878	1.2008e-05	28.13	0.00098201	0.00092718	0.00027107	1253.4	1.0706e-05	1.0224e-05	1314	271.39	1.0587e-05	9.8697e-06	331.93	93.529	73.944	21.949	1.0894e-05	31.162	436.761	232.224	212.794	106.487	111.833	162.329	106.352	113.606	264.365	177.388	113.382	119.991	119.931	126.838	214.440	126.072	-8191	255	
6687.793	1	1	0	0	0.1511	0.29075	0.35626	0.15109	0.25194	0.17553	0.22828	0.41304	0.059915	0.079837	0.15651	0.14727	0.054895	0.062787	0.12961	0.12909	-2.225	-3.1208	-2.5312	-3.1667	-3.1896	-2.5708	-3.3271	-3.1646	-2.9313	-3.4062	-2.9646	-3.1688	-3.1542	-2.875	-2.9771	-3.0583	422.279	317.635	155.906	446.057	201.348	107.366	304.108	411.000	188.766	203.994	179.154	426.498	177.927	378.699	418.635	316.918	0.00071387	0.00016776	0.00014892	1238	4.0754e-06	5.247e-06	1301.8	260.79	1.9189e-06	1.7747e-06	319.16	87.606	69.235	20.031	1.1335e-05	27.928	0.00095569	0.00089791	0.00029024	1253.8	1.0515e-05	1.0101e-05	1316.7	271.09	1.0456e-05	9.8476e-06	333.29	93.319	73.74	21.948	1.1274e-05	30.871	435.336	143.075	159.469	106.524	342.910	240.342	106.734	113.633	371.011	173.172	113.140	119.935	119.905	126.685	299.045	126.319	-8191	255	
6687.889	1	1	0	0	0.12841	0.14228	0.099618	0.097791	0.069257	0.036137	0.20739	0.11534	0.10653	0.34261	0.39598	0.11073	0.1285	0.17156	0.076539	0.017845	-2.3854	-3.1833	-2.8688	-3.0917	-3.1708	-2.8229	-3.5583	-3.0146	-2.8979	-3.1875	-2.8708	-3.0312	-3.0896	-2.6604	-3.0938	-2.9521	126.833	261.668	235.058	437.948	255.435	103.543	380.280	310.069	183.030	184.540	427.727	282.496	124.514	369.100	184.795	420.498	0.0011117	0.00037827	2.2755e-05	1235.1	7.0775e-06	6.7563e-06	1308.1	260.85	4.7273e-06	2.4202e-06	319.57	87.485	68.985	19.98	1.4744e-06	27.878	0.00092237	0.00088798	0.00029455	1250.1	9.964e-06	1.0091e-05	1320.4	269.86	1.0038e-05	9.859e-06	334.62	92.808	73.353	21.883	1.1452e-05	30.749	425.507	337.938	130.357	106.610	312.116	250.461	106.403	113.520	224.602	274.202	113.062	119.919	119.704	126.736	138.458	126.238	-8191	255	
6687.985	1	1	0	0	0.24217	0.23131	0.19628	0.0582	0.1143	0.010544	0.31519	0.23201	0.1133	0.16014	0.15483	0.16841	0.13236	0.11236	0.14751	0.21685	-2.2562	-3.3604	-2.8063	-3.0625	-3.4688	-2.7375	-3.2562	-3.1854	-2.5521	-3.3021	-3.0833	-2.725	-3.2646	-2.7562	-2.9917	-3.1063	239.736	185.297	189.957	256.551	292.502	215.216	407.207	341.282	371.651	314.990	315.015	253.045	375.385	446.854	170.888	103.054	0.00085222	0.00061337	0.00014455	1235	3.9168e-06	5.9705e-06	1307.8	260.79	7.6082e-06	1.1409e-05	318.08	87.953	69.259	19.982	3.477e-06	27.9	0.00089286	0.00092887	0.00029606	1248	9.6546e-06	1.0501e-05	1320.9	269.48	9.9139e-06	1.0688e-05	333.94	92.743	73.531	22.17	1.1829e-05	30.835	435.398	207.924	236.625	106.340	386.024	231.869	106.496	113.614	251.340	248.933	113.065	119.558	120.278	126.772	186.591	126.636	-8191	255	
6688.056	1	1	0	0	0.27867	0.059354	0.014006	0.19273	0.085536	0.12631	0.1904	0.08577	0.16396	0.11476	0.08798	0.026895	0.17879	0.30446	0.097231	0.27405	-2.525	-3.3271	-3.1292	-3.0687	-3.5438	-2.6937	-3.3396	-3.2521	-2.5479	-3.2021	-3.2729	-2.8354	-3.1562	-2.9667	-2.8812	-3.1542	276.886	202.797	109.173	98.323	117.267	274.733	158.322	415.815	406.322	197.819	428.218	431.860	405.366	99.405	178.188	415.677	0.00087859	0.00040606	0.00023284	1238.1	1.3152e-05	1.2972e-05	1305.9	260.21	8.6545e-06	8.3147e-06	320.04	88.041	69.268	20.026	7.2913e-06	28.061	0.00091278	0.0010303	0.00030304	1251.3	1.0049e-05	1.1636e-05	1323	270.43	1.0204e-05	1.1582e-05	334.9	93.252	73.896	22.382	1.1557e-05	30.878	444.713	184.276	224.166	106.502	296.228	271.737	106.700	113.418	121.962	232.149	113.134	119.655	120.232	127.204	296.595	126.016	-8191	255	
6688.177	1	1	0	0	0.19	0.34213	0.10225	0.14541	0.27957	0.12145	0.15967	0.22343	0.17513	0.24425	0.1462	0.15104	0.078058	0.0091267	0.13316	0.2441	-2.3479	-2.9625	-3.1	-2.8646	-3.2062	-2.9792	-3.1688	-3.2729	-2.7562	-3.1083	-2.9771	-2.8688	-3.1188	-2.9542	-2.9437	-3.2125	223.696	136.920	330.958	127.394	139.872	341.036	423.243	411.975	306.023	372.089	419.235	372.618	225.278	328.681	378.081	122.043	0.00079746	0.00056595	7.493e-05	1238.1	9.1156e-06	3.7301e-06	1308.2	259.72	2.4009e-05	7.6727e-06	318.73	87.788	69.198	20.073	7.5608e-06	28.016	0.00092259	0.0010776	0.00029001	1251.2	1.0141e-05	1.1868e-05	1318.6	269.14	1.0273e-05	1.1735e-05	332.46	92.564	73.877	22.304	1.0941e-05	30.647	446.206	170.305	327.647	106.551	281.635	104.045	106.384	113.684	210.554	259.449	113.213	119.410	119.777	126.932	212.323	126.221	-8191	255	
6688.273	1	1	0	0	0.063325	0.074904	0.18583	0.38244	0.04971	0.16846	0.24626	0.24102	0.091183	0.13334	0.11085	0.12525	0.16228	0.23489	0.064904	0.046965	-2.3875	-3.2708	-3.0979	-2.9188	-3.2188	-2.8792	-2.8833	-3.3083	-2.9354	-3.0542	-3.1521	-2.7792	-3.3854	-2.875	-2.8729	-3.3833	420.399	318.869	134.053	96.954	320.549	370.334	336.759	152.647	410.496	187.433	354.519	155.440	449.386	439.817	183.658	310.137	0.0008045	0.00042123	7.3896e-05	1236.6	1.2698e-05	5.4216e-06	1305.8	259.9	8.4228e-06	3.8899e-06	319.75	87.839	69.454	19.983	4.8652e-06	28.1	0.00094845	0.0010776	0.00027633	1248.5	1.0693e-05	1.1674e-05	1318.4	268.51	1.0784e-05	1.163e-05	332.3	92.386	74.462	22.255	1.0534e-05	30.602	429.208	189.348	383.572	106.568	216.875	438.872	106.545	113.482	286.189	406.998	113.318	119.849	119.920	127.013	357.002	125.978	-8191	255	
6688.369	1	1	0	0	0.34829	0.151	0.20793	0.34229	0.088434	0.19022	0.12496	0.051811	0.067701	0.098727	0.23347	0.040466	0.43798	0.1041	0.25993	0.22376	-2.2188	-2.9125	-3.2917	-2.975	-3.0646	-3.0042	-3.0417	-3.2417	-2.9646	-2.9958	-3.0292	-2.9562	-3.2687	-3.0646	-2.7104	-3.2208	171.296	312.278	137.709	433.683	442.219	450.633	436.473	180.071	315.722	149.191	305.026	159.323	100.181	134.444	136.977	171.350	0.00098378	0.00078314	0.0001258	1235.9	3.1598e-06	2.2251e-06	1306.1	260.95	9.7234e-06	3.617e-06	318.98	87.996	69.001	19.974	5.9809e-06	27.825	0.00098286	0.0010325	0.00026116	1248.4	1.0886e-05	1.0979e-05	1316	268.36	1.102e-05	1.0854e-05	330.29	92.182	74.332	22.109	9.897e-06	30.465	440.246	368.717	117.465	106.578	230.853	147.514	106.508	113.668	188.501	391.360	112.977	119.784	120.299	127.128	446.637	126.605	-8191	255	
6688.488	1	1	0	0	0.17746	0.16787	0.25578	0.31241	0.21174	0.1278	0.13405	0.23175	0.12572	0.071029	0.1354	0.16185	0.097551	0.20135	0.12866	0.08327	-2.3917	-2.825	-3.2188	-2.9437	-2.9208	-3.0042	-3.0333	-3.3042	-2.8312	-3.0625	-3.1104	-2.8667	-3.1604	-2.975	-2.8292	-3.4042	161.442	107.162	118.513	408.636	442.318	98.329	417.436	143.770	118.119	223.790	418.265	364.008	175.492	441.851	271.991	345.150	0.00083861	0.00037157	0.00016719	1228.9	1.1818e-05	3.3771e-06	1300.3	260.7	1.4094e-05	4.4277e-06	319.17	88.027	69.239	19.92	4.8649e-06	28	0.00099018	0.00096903	0.00024969	1242.9	1.1132e-05	1.0449e-05	1310.6	268.16	1.13e-05	1.0661e-05	329.94	92.616	74.507	22.018	1.0063e-05	30.683	422.891	162.310	202.502	106.512	268.436	454.804	106.510	113.722	224.983	448.641	112.994	120.052	120.469	127.071	320.543	126.545	-8191	255	
6688.584	1	1	0	0	0.17295	0.21616	0.3126	0.2119	0.139	0.054024	0.4934	0.13345	0.087635	0.20111	0.12967	0.27077	0.11518	0.19048	0.19944	0.083107	-2.3667	-2.7833	-3.2062	-2.9917	-3.0062	-3.0646	-3.0312	-3.0917	-3.1458	-2.8583	-3.5104	-2.6896	-3.1396	-3.2167	-2.5104	-3.2896	231.111	386.814	435.946	446.540	172.052	398.134	390.708	352.086	353.527	301.613	413.977	357.292	345.123	135.409	179.641	175.213	0.00092545	0.00052564	0.00012139	1230	5.4465e-06	2.8998e-06	1301.2	259.38	3.8164e-06	6.2528e-06	318.27	87.924	68.87	19.761	5.7811e-06	28.011	0.0010308	0.00096665	0.00024939	1244.6	1.1303e-05	1.0348e-05	1307.3	268.76	1.1145e-05	1.0325e-05	328.99	92.867	74.205	21.852	9.6809e-06	30.801	440.753	316.816	364.646	106.302	407.138	366.278	106.398	113.698	442.140	303.474	113.249	119.821	120.312	126.737	263.364	126.403	-8191	255	
6688.681	1	1	0	0	0.13234	0.10317	0.22123	0.24043	0.26866	0.11926	0.14111	0.46829	0.11626	0.105	0.037847	0.32095	0.17705	0.086732	0.059401	0.26298	-2.4875	-2.6792	-3.1479	-3.1	-2.8417	-2.9437	-3.0375	-3.1729	-2.9562	-2.8187	-3.4271	-2.7771	-3.0479	-3.0792	-2.7625	-3.2562	405.259	389.523	335.683	423.845	252.755	110.827	381.461	357.603	319.803	191.317	297.383	104.823	377.384	287.238	403.998	439.549	0.00084626	0.00035663	0.00011805	1231.9	7.0822e-06	1.0019e-05	1299.9	258.93	3.6062e-06	5.3481e-06	315.13	86.962	68.763	19.862	7.7456e-06	27.746	0.00095838	0.0009089	0.00023905	1244	1.0361e-05	9.5354e-06	1303.4	268.25	9.9964e-06	9.4303e-06	327.15	92.102	73.187	21.544	9.3235e-06	30.558	443.185	434.876	217.230	106.476	268.729	267.313	106.361	113.603	423.920	185.352	113.132	120.045	120.108	127.065	254.095	126.648	-8191	255	
6688.777	1	1	0	0	0.15295	0.20914	0.11263	0.17159	0.25644	0.23242	0.35028	0.19557	0.14534	0.46836	0.15435	0.16153	0.30724	0.14193	0.084059	0.15296	-2.7667	-2.6667	-3.0938	-2.9729	-2.9125	-3.2021	-2.9021	-3.3542	-3.0021	-2.6479	-3.3458	-2.7562	-2.9562	-3.2625	-2.6417	-3.1958	444.955	180.212	419.719	393.537	237.485	199.681	388.969	99.026	329.039	453.272	278.613	367.131	339.989	451.997	213.955	423.267	0.00089712	0.00058898	0.00011374	1223	5.4358e-06	5.6096e-06	1294.1	257.87	6.107e-06	6.0802e-06	317.19	86.764	68.732	19.8	1.1068e-05	27.58	0.00086932	0.00084814	0.0002367	1237.8	9.6885e-06	8.9733e-06	1299.2	267.23	9.4321e-06	9.1593e-06	327.37	92.007	72.945	21.501	9.9501e-06	30.572	432.142	242.930	106.276	106.403	439.467	285.738	106.448	113.843	211.781	377.431	113.461	120.024	120.219	127.109	274.781	126.063	-8191	255	
6688.873	1	1	0	0	0.18377	0.19713	0.15605	0.10588	0.15787	0.16599	0.16507	0.018231	0.10882	0.17853	0.14589	0.23817	0.1694	0.17903	0.13805	0.15464	-2.5958	-2.7917	-3.0854	-3.0292	-2.7938	-3.0563	-3.0042	-3.0229	-3.0667	-2.7313	-3.1	-3.0833	-2.8521	-3.2021	-2.7854	-3.15	338.971	200.752	330.671	362.455	411.301	212.001	428.628	196.524	418.209	316.499	383.350	168.786	380.065	451.913	339.576	103.487	0.00080743	0.00055525	0.00011494	1223	1.6836e-05	2.7193e-06	1293.5	257.9	9.1113e-06	4.9965e-06	318.06	86.751	68.746	19.897	9.8931e-06	27.692	0.00085273	0.00084303	0.00025463	1237.2	9.6632e-06	8.8534e-06	1303.3	267.64	9.3048e-06	9.1316e-06	329.73	91.92	72.992	21.505	1.0522e-05	30.55	433.337	215.313	141.105	106.443	270.437	360.306	106.574	113.811	327.311	258.360	113.597	119.778	120.021	126.954	235.685	126.469	-8191	255	
6688.969	1	1	0	0	0.088148	0.047632	0.11594	0.25472	0.26249	0.1294	0.18157	0.24726	0.27342	0.053447	0.20614	0.072753	0.075371	0.16016	0.097983	0.097979	-2.3833	-2.7625	-3.2	-3.1688	-2.7375	-3.3083	-3.1042	-2.9188	-3.1354	-2.7917	-2.9625	-2.9167	-2.6688	-3.1125	-2.6	-2.9813	281.217	129.953	339.012	435.722	412.218	227.634	370.759	398.212	254.987	201.765	324.505	279.730	124.619	372.539	378.532	328.993	0.00067517	0.00046052	2.1675e-05	1222.4	6.0374e-06	5.4148e-06	1297.5	258.64	6.1511e-06	5.264e-06	316.47	87.139	68.695	19.94	5.1737e-06	27.784	0.00083212	0.00083716	0.00026845	1235.6	9.3205e-06	8.9097e-06	1306.1	266.66	8.846e-06	9.1157e-06	329.68	91.547	72.518	21.573	1.0379e-05	30.309	441.478	276.112	265.875	106.340	292.359	271.013	106.534	113.787	259.083	211.229	113.345	119.734	120.327	126.767	272.635	126.334	-8191	255	
6689.065	1	1	0	0	0.14927	0.12231	0.11193	0.18755	0.061886	0.22799	0.080286	0.2095	0.12441	0.26335	0.38953	0.11607	0.0042905	0.1056	0.1321	0.1602	-2.8042	-2.7208	-2.9792	-3.1417	-2.5667	-3.2125	-2.9583	-3.0646	-3.1437	-2.7188	-3.0917	-3	-2.7021	-3.1375	-2.7042	-2.8187	249.389	102.510	287.090	402.401	354.498	106.637	168.693	450.300	178.135	442.241	408.530	190.898	392.470	328.486	197.620	144.580	0.00080861	0.00099321	3.8601e-05	1221.8	1.0125e-05	6.074e-06	1290.6	257.84	3.9777e-06	7.9981e-06	315.73	87.501	69.242	19.915	9.1656e-06	27.842	0.00077832	0.00084254	0.00026436	1232.8	8.8408e-06	9.2066e-06	1303.7	265.45	8.509e-06	9.4496e-06	328.77	91.144	72.471	21.68	1.0207e-05	30.185	434.630	158.079	361.727	106.792	264.735	215.703	106.556	113.790	168.152	202.204	113.434	119.728	120.092	126.866	261.756	126.620	-8191	255	
6689.186	1	1	0	0	0.012943	0.16653	0.10755	0.23017	0.24811	0.21479	0.22024	0.2404	0.29472	0.13648	0.14028	0.093037	0.16207	0.14679	0.16585	0.16298	-2.7667	-2.6437	-2.9375	-3.175	-2.5958	-3.0979	-3.0583	-2.8771	-3.1875	-2.7562	-2.9	-3.0354	-2.9896	-3.1833	-2.9437	-2.7917	431.594	208.099	324.415	115.996	216.912	447.951	383.216	400.331	152.661	434.623	296.706	435.289	380.929	170.127	340.703	396.779	0.00093853	6.8259e-05	9.4972e-05	1222.1	1.1844e-05	8.9794e-06	1291.9	257.93	1.0374e-05	5.2298e-06	317.34	86.947	68.695	19.818	2.4966e-06	27.729	0.00076352	0.0008919	0.00026062	1230.7	8.6912e-06	9.7219e-06	1301.3	264.72	8.3129e-06	9.934e-06	328.22	90.889	72.215	21.759	9.63e-06	30.065	425.975	411.547	452.093	106.333	251.973	262.801	106.409	113.810	221.729	209.354	113.310	119.913	120.099	126.986	352.533	126.417	-8191	255	
6689.280	1	1	0	0	0.12632	0.18593	0.093087	0.17753	0.16175	0.061131	0.21553	0.28954	0.18556	0.11101	0.13276	0.42212	0.38992	0.043152	0.20818	0.17807	-2.8333	-2.6458	-2.8604	-3.2167	-2.9417	-2.9458	-3.1813	-3.0792	-3.1292	-2.9375	-3.1854	-3.0021	-2.7479	-3.2438	-3.1562	-2.7417	191.656	189.972	368.844	391.337	278.320	404.099	307.709	112.968	149.934	415.192	335.714	434.143	141.612	329.744	194.710	418.623	0.00081672	0.00014479	9.6708e-05	1219.7	1.0803e-05	4.1471e-06	1296	257.23	5.0444e-06	1.3289e-05	315.93	86.799	68.475	19.767	5.7817e-06	27.665	0.00076442	0.00092064	0.00024845	1227.6	8.6725e-06	9.9756e-06	1299.5	264.49	8.5928e-06	1.0088e-05	327.17	90.706	72.487	21.724	9.1948e-06	30.021	424.921	446.966	236.358	106.470	239.366	270.878	106.815	113.769	211.691	119.426	113.272	119.893	120.135	126.975	311.894	126.342	-8191	255	
6689.354	1	1	0	0	0.13828	0.23188	0.15153	0.33428	0.055343	0.1745	0.59234	0.13075	0.1435	0.18295	0.24434	0.11117	0.21414	0.14792	0.20144	0.03076	-2.7979	-2.9562	-2.8104	-3.1021	-2.8521	-3.0146	-3.1854	-2.85	-3.2188	-2.9083	-2.9104	-3.2188	-2.9854	-3.1479	-2.9896	-2.5271	393.037	311.881	126.966	402.416	217.355	167.507	409.116	358.882	252.016	250.549	412.040	411.738	455.295	271.029	352.434	424.357	0.001032	0.00036805	0.00013033	1222.3	1.0267e-05	7.5934e-06	1294.7	257.38	1.0768e-05	5.7099e-06	315.62	86.666	68.697	19.838	7.6246e-06	27.738	0.00079683	0.00092046	0.00023634	1227.6	9.1842e-06	1.0103e-05	1298.2	264.09	9.1329e-06	1.0093e-05	327.5	90.467	72.977	21.867	9.3783e-06	30.168	439.002	252.319	296.462	106.620	234.968	324.957	106.631	113.650	182.642	326.356	113.270	119.978	120.356	127.093	205.173	126.546	-8191	255	
6689.450	1	1	0	0	0.18797	0.23264	0.14718	0.074376	0.084256	0.10034	0.26756	0.31418	0.18936	0.17729	0.18912	0.29096	0.10738	0.38039	0.14791	0.1023	-2.6375	-3.0229	-2.7521	-3.1562	-2.8937	-2.9292	-3.3604	-2.7729	-3.0583	-3.1375	-2.9542	-3.1771	-2.9313	-3.0146	-3.1104	-2.9792	183.832	128.112	258.916	182.709	128.539	244.564	315.124	241.438	137.639	231.903	375.278	297.008	281.285	198.455	438.645	307.119	0.00095975	0.0007206	0.00010513	1225.3	1.254e-05	8.9949e-06	1294.6	258.72	5.9722e-06	3.7327e-06	315.82	87.254	68.88	19.745	2.9006e-06	27.744	0.00089505	0.0009626	0.00025275	1233.9	1.0438e-05	1.0702e-05	1302.6	265.89	1.0634e-05	1.0594e-05	328.44	91.59	73.86	21.905	9.5943e-06	30.346	432.340	185.283	119.272	106.464	190.529	352.534	106.384	113.616	213.860	366.640	113.403	119.465	120.131	127.123	324.660	126.059	-8191	255	
6689.569	1	1	0	0	0.052216	0.21025	0.13758	0.067767	0.14103	0.21911	0.13236	0.11077	0.1464	0.15968	0.39364	0.26563	0.087842	0.17536	0.16546	0.080008	-2.6833	-2.8729	-2.8521	-3.2292	-2.8812	-2.8854	-3.3875	-2.9688	-3.0167	-3.025	-2.9167	-3.2896	-2.9271	-3.1417	-3.2167	-2.7854	118.928	113.317	444.429	106.952	285.262	199.742	431.546	122.500	448.415	404.070	426.079	416.085	158.342	394.376	299.487	388.348	0.00087618	0.00067203	0.00020405	1225.8	1.1129e-05	3.4831e-06	1294	257.47	8.7795e-06	6.0049e-06	316.57	87.184	68.455	19.734	5.9909e-06	27.78	0.00096853	0.00093408	0.00024674	1233.6	1.0729e-05	9.8956e-06	1298.6	265.29	1.037e-05	9.4653e-06	326.41	91.014	73.279	21.598	8.5782e-06	30.125	428.717	212.074	210.949	106.657	201.762	165.817	106.421	113.590	323.194	283.975	113.511	119.769	120.046	127.047	239.701	126.413	-8191	255	
6689.665	1	1	0	0	0.24024	0.16849	0.26887	0.18021	0.047429	0.024524	0.10782	0.30342	0.11464	0.24012	0.15945	0.25765	0.18604	0.15645	0.20082	0.062067	-2.5604	-3.2125	-2.7042	-3.3937	-3.0354	-2.8771	-3.3875	-2.9104	-2.7646	-2.925	-2.8458	-3.2667	-2.9604	-3.0187	-3.3042	-2.7854	299.795	413.689	320.643	340.341	136.556	204.357	99.373	447.647	315.743	299.927	402.400	147.609	418.303	448.543	383.341	123.375	0.00079515	0.00022469	0.00020973	1221.2	3.802e-06	5.6844e-06	1292.8	258.1	3.6834e-06	4.7656e-06	316.26	86.746	68.529	19.798	1.4359e-06	27.861	0.0008985	0.00082758	0.00022168	1229.6	9.787e-06	8.9536e-06	1293.6	264.93	9.5681e-06	8.658e-06	324.05	90.69	72.561	21.39	8.1085e-06	30.247	434.702	299.738	156.435	106.577	252.592	383.427	106.559	113.722	341.641	352.637	113.264	119.734	120.244	127.119	241.642	126.414	-8191	255	
6689.761	1	1	0	0	0.082839	0.034918	0.079299	0.10328	0.32772	0.14633	0.46628	0.18292	0.21796	0.18829	0.25638	0.22568	0.071647	0.25736	0.17362	0.40901	-2.6354	-3.1562	-2.7104	-3.125	-2.7417	-2.8396	-3.3167	-2.8729	-2.8625	-3.3063	-2.8417	-3.0583	-3.025	-2.8021	-3.1583	-2.9625	211.926	326.526	118.759	445.046	199.822	327.077	439.574	302.841	414.560	300.034	322.670	398.864	377.598	428.240	440.609	432.560	0.00082933	0.00039141	5.3956e-05	1213.9	6.5018e-06	5.1386e-06	1289	257.48	5.4887e-06	3.2347e-06	314.07	86.936	68.383	19.717	1.2597e-05	27.536	0.00085572	0.0007877	0.00021846	1229.5	9.3124e-06	8.7901e-06	1291.1	265.55	9.2065e-06	8.4628e-06	324.26	91.123	72.216	21.355	8.3902e-06	30.219	428.898	221.816	276.349	106.612	162.571	381.369	106.601	113.635	429.578	298.340	113.267	119.992	120.475	126.972	200.156	126.599	-8191	255	
6689.857	1	1	0	0	0.25356	0.25494	0.057179	0.14395	0.40102	0.077712	0.24831	0.16522	0.23368	0.085888	0.017893	0.25528	0.080235	0.067746	0.14727	0.22922	-2.5083	-3.0875	-3.0354	-3.0375	-3.025	-2.8104	-3.4833	-2.9146	-2.95	-3.3	-2.6396	-3.1562	-3.1854	-2.7833	-3	-3.0687	206.682	415.272	259.840	380.840	173.015	437.771	364.022	394.811	151.887	320.643	427.891	381.179	292.280	293.744	154.800	455.426	0.00082057	0.00026337	1.7243e-05	1222.5	5.7825e-06	5.2179e-06	1291.9	256.01	5.1868e-06	3.2715e-06	315.17	86.787	68.053	19.675	1.4293e-05	27.594	0.00081521	0.00076151	0.00022232	1232.7	8.9098e-06	8.5267e-06	1294.3	265.11	9.0711e-06	8.3549e-06	324.91	91.246	72.128	21.323	9.0469e-06	30.221	434.093	98.412	156.237	106.574	420.589	242.210	106.419	113.637	349.949	201.533	113.232	119.978	120.373	127.276	252.572	126.429	-8191	255	
6689.953	1	1	0	0	0.1006	0.049295	0.07389	0.27884	0.1814	0.059316	0.21723	0.17651	0.17556	0.073486	0.1452	0.23355	0.081665	0.12513	0.07547	0.15477	-2.4854	-3.1771	-2.6667	-3.1562	-3.0917	-2.8729	-3.5396	-2.9167	-2.8458	-3.4313	-2.8583	-3.1063	-3.1312	-2.7583	-3.1854	-3.0104	186.279	172.324	282.418	397.837	436.528	122.339	367.762	137.962	396.536	159.424	99.421	398.293	180.848	424.997	182.383	411.259	0.0011468	0.00028803	6.4733e-05	1221.7	7.5034e-06	3.7729e-06	1291.1	256.5	1.0197e-05	4.611e-06	315.08	87.183	68.168	19.605	6.0513e-06	27.667	0.000807	0.00075159	0.00023995	1229.1	8.7346e-06	8.4124e-06	1296.1	264.61	8.6242e-06	8.0818e-06	325.95	90.899	71.658	21.224	9.1015e-06	29.968	430.446	109.411	151.172	106.640	287.779	249.123	106.593	113.563	265.226	142.291	113.403	119.953	120.029	127.197	205.178	126.537	-8191	255	
6690.049	1	1	0	0	0.30822	0.1064	0.23038	0.21599	0.18825	0.30232	0.17083	0.18676	0.19531	0.12502	0.43565	0.23393	0.15899	0.2164	0.046371	0.2222	-2.3604	-3.1917	-2.6458	-2.9875	-3.1979	-2.7354	-3.2479	-3.1229	-2.7583	-2.975	-2.9875	-3.2062	-3.0979	-2.5604	-2.9625	-3.0687	110.907	111.160	404.051	434.258	408.007	216.016	380.891	429.766	277.065	162.943	406.332	337.310	360.675	454.686	442.534	402.224	0.00097593	0.00051053	0.0001416	1211.5	2.9047e-06	4.2096e-06	1288.3	257.15	2.0477e-06	9.1038e-06	313.95	86.269	68.128	19.679	4.8654e-06	27.527	0.00075054	0.00070478	0.00023684	1220.4	7.8919e-06	7.8871e-06	1291.8	262.47	7.9855e-06	7.8363e-06	324.75	90.082	71.239	21.191	9.2411e-06	29.738	439.435	102.897	152.971	106.492	188.870	333.997	106.459	113.312	243.154	230.875	113.203	120.388	119.830	127.197	209.978	126.692	-8191	255	
6690.170	1	1	0	0	0.27477	0.031298	0.12012	0.072291	0.014815	0.12667	0.18964	0.093549	0.076752	0.14974	0.18523	0.15936	0.16013	0.20208	0.11482	0.30796	-2.1792	-3.1708	-3.0625	-2.9708	-3.3187	-2.9229	-3.1229	-3.2083	-2.8125	-3.1854	-2.8979	-2.9083	-3.2521	-2.85	-2.9938	-3.1646	113.707	414.754	206.328	145.928	449.733	328.919	321.549	397.071	203.631	197.840	448.100	452.384	117.134	423.866	364.381	120.695	0.00086588	0.0007116	0.00019636	1208	7.7861e-06	5.8962e-06	1282.9	254.06	2.7086e-06	5.1732e-06	313.51	86.297	67.846	19.675	1.869e-06	27.702	0.0007239	0.00073631	0.00023903	1216.4	7.7235e-06	8.3176e-06	1289.8	260.56	7.7693e-06	8.3021e-06	324.39	89.773	70.938	21.28	9.178e-06	29.682	437.939	129.742	228.708	106.503	205.061	252.138	106.517	113.652	374.923	226.102	113.186	120.073	119.980	127.108	399.108	126.539	-8191	255	
6690.266	1	1	0	0	0.04025	0.15209	0.20813	0.085549	0.13993	0.29166	0.24044	0.26458	0.16352	0.19311	0.11361	0.16328	0.20453	0.2615	0.30475	0.045844	-2.2021	-3.0812	-2.8125	-2.875	-3.2208	-2.8771	-3.2042	-3.3187	-2.7542	-3.1229	-3.05	-2.8896	-3.0062	-2.8812	-3.0083	-3.2521	149.938	189.206	380.794	323.283	406.388	411.750	378.105	161.986	310.448	448.678	150.449	358.241	417.713	107.957	302.719	99.691	0.0010045	0.00063198	9.1449e-05	1213.8	5.9873e-06	9.7801e-06	1288.1	255.15	5.0832e-06	1.0326e-05	314.69	86.025	68.324	19.539	9.4872e-06	27.559	0.00070644	0.00078848	0.00023353	1217.9	7.5309e-06	8.7882e-06	1291.4	260.96	7.6748e-06	8.7741e-06	324.33	89.733	71.238	21.395	8.8628e-06	29.606	438.811	146.492	132.846	106.653	126.297	264.502	106.575	113.692	247.145	204.602	113.082	119.719	119.676	127.146	241.251	126.237	-8191	255	
6690.362	1	1	0	0	0.11697	0.069515	0.037229	0.13686	0.16174	0.26675	0.31456	0.2642	0.053538	0.07972	0.13957	0.17531	0.10898	0.34658	0.10035	0.11401	-2.1937	-3.1125	-2.9271	-2.9833	-2.9688	-2.8896	-3.1417	-3.4	-2.9062	-3.0583	-3.2438	-2.8917	-3.1896	-3	-3.0792	-3.2333	247.361	168.748	126.572	447.072	196.185	250.871	446.896	407.673	395.457	339.539	175.075	418.039	388.733	453.083	264.093	405.897	0.00085532	0.00023328	5.1412e-05	1212.6	4.08e-06	5.6733e-06	1281.2	254.98	1.5899e-05	4.849e-06	313.93	86.456	68.45	19.8	7.132e-06	27.572	0.00071443	0.00082779	0.00022495	1218	7.8167e-06	9.1571e-06	1287.2	260.85	8.0148e-06	9.2651e-06	323.36	89.744	71.277	21.448	8.6304e-06	29.582	435.787	343.532	367.414	106.454	146.663	283.796	106.554	113.702	207.149	128.836	113.347	119.982	120.375	126.884	293.643	126.410	-8191	255	
6690.458	1	1	0	0	0.096573	0.42885	0.24473	0.11796	0.11127	0.21929	0.16951	0.41844	0.22438	0.16157	0.14783	0.11115	0.20321	0.10836	0.23214	0.11867	-2.1958	-3.0062	-3.15	-2.9375	-3.1792	-2.7771	-3.2687	-3.3417	-2.7188	-3.1729	-3.1937	-2.8958	-3.2042	-2.9021	-2.8667	-3.1833	192.660	278.789	382.056	142.395	414.027	375.836	409.068	423.104	226.038	352.863	226.471	218.315	125.530	156.379	287.821	330.152	0.00093099	0.00060797	0.00011167	1210.8	7.6425e-06	4.6868e-06	1283.8	254.79	1.0413e-05	2.5025e-06	313.19	86.207	67.944	19.611	4.3585e-06	27.359	0.00075159	0.00084704	0.00021739	1216.3	8.2825e-06	9.2608e-06	1286.4	260.37	8.5399e-06	9.2378e-06	322.92	89.424	71.594	21.398	8.4167e-06	29.412	432.735	219.261	305.853	106.570	225.644	430.841	106.395	113.823	182.119	178.662	113.518	119.629	120.085	126.738	246.709	126.562	-8191	255	
6690.577	1	1	0	0	0.15018	0.10158	0.40386	0.29374	0.080572	0.1775	0.17402	0.015567	0.17423	0.079222	0.38534	0.15013	0.28279	0.18549	0.15761	0.13432	-2.2271	-3.0396	-3.1396	-2.8146	-2.7542	-2.9479	-3.0417	-3.3542	-2.9729	-3.05	-3.2229	-2.7083	-3.1604	-2.8167	-2.8875	-3.2708	385.037	341.215	336.215	354.809	141.501	189.352	455.181	257.472	282.375	439.850	415.847	231.744	106.707	372.808	216.766	375.160	0.00089161	0.00084174	7.2021e-05	1213.4	9.699e-06	2.6721e-06	1278.8	255.09	1.3869e-05	4.1105e-06	313.25	86.474	67.629	19.632	4.6659e-06	27.344	0.00079673	0.00083526	0.00020993	1215.2	8.8134e-06	8.9445e-06	1284	260.22	8.8971e-06	8.8365e-06	321.72	89.385	71.62	21.275	8.0974e-06	29.394	431.521	174.289	258.224	106.624	260.773	181.530	106.647	113.996	262.026	282.876	113.033	119.890	120.661	127.095	277.259	126.161	-8191	255	
6690.649	1	1	0	0	0.18091	0.20573	0.09207	0.4073	0.24073	0.18203	0.15137	0.20671	0.30205	0.078119	0.17333	0.17053	0.2669	0.258	0.060789	0.32723	-2.5375	-2.9229	-3.1542	-2.8937	-2.925	-3.1937	-3.0062	-3.2438	-3.0292	-3.1083	-3.3708	-2.6979	-3.1063	-3.2062	-2.6792	-3.0521	120.764	113.841	132.636	419.259	365.044	303.430	234.258	96.318	433.204	131.622	382.876	433.908	433.699	447.628	347.413	384.026	0.0008607	0.00073438	5.3668e-05	1211.1	7.1898e-06	5.8007e-06	1280.3	254.73	5.4657e-06	9.658e-06	314.67	85.731	67.968	19.605	1.9718e-06	27.552	0.00080559	0.00077438	0.00019922	1214.8	8.8385e-06	8.2389e-06	1280	259.79	8.878e-06	8.2357e-06	320.87	89.45	71.859	21.114	7.6737e-06	29.557	440.446	378.380	224.640	106.527	222.646	368.901	106.580	113.918	348.337	244.328	113.371	119.890	120.308	127.236	447.358	126.572	-8191	255	
6690.745	1	1	0	0	0.26546	0.19833	0.24328	0.19316	0.29382	0.17993	0.23395	0.043529	0.12738	0.20337	0.056888	0.1936	0.17985	0.19702	0.088322	0.15135	-2.5458	-2.9021	-3.1083	-3.0062	-3.1354	-2.8875	-2.9521	-3.3917	-2.9521	-2.7875	-3.3667	-2.9521	-3.0812	-3.2021	-2.8458	-3.2104	431.460	116.746	387.184	340.446	278.873	109.201	403.978	445.050	355.198	133.563	357.933	444.202	138.076	107.635	286.810	417.874	0.0010336	0.00029853	0.00012915	1207.8	7.0169e-06	6.5041e-06	1280.8	255.22	9.6387e-06	2.2454e-06	312.62	86.215	67.725	19.557	8.9824e-07	27.642	0.00079126	0.000739	0.00019085	1213.4	8.7125e-06	7.7908e-06	1279.9	260.96	8.6152e-06	8e-06	320.26	89.802	71.606	21.063	7.679e-06	29.75	432.986	288.634	352.036	106.600	157.352	254.450	106.654	113.962	315.620	304.998	113.224	119.840	120.048	127.082	323.648	126.295	-8191	255	
6690.866	1	1	0	0	0.1529	0.25929	0.14631	0.11349	0.085042	0.037671	0.10885	0.26111	0.065374	0.087482	0.32534	0.17716	0.18343	0.11484	0.16317	0.23911	-2.6833	-2.6896	-3.1688	-3.0917	-2.9792	-2.9313	-2.9125	-3.2188	-3.0771	-2.8125	-3.2188	-2.9229	-3.1437	-2.9938	-2.8625	-3.1792	102.632	433.877	424.120	262.546	399.707	318.066	404.428	439.335	179.118	326.348	380.029	454.219	453.040	444.819	427.237	369.497	0.00080219	0.00041319	9.9494e-05	1213.3	5.3748e-06	3.0312e-06	1282.7	254.86	9.1748e-06	4.3436e-06	312.99	86.319	67.85	19.495	1.2358e-05	27.407	0.0007651	0.00073351	0.00019125	1217.6	8.4792e-06	7.7246e-06	1280.3	261.48	8.2251e-06	7.8701e-06	319.98	90.006	71.359	21.061	7.7069e-06	29.808	447.739	210.032	248.660	106.472	321.220	213.762	106.520	113.927	240.621	354.040	113.283	119.856	120.355	126.893	181.181	126.488	-8191	255	
6690.962	1	1	0	0	0.13317	0.17785	0.15187	0.2663	0.13858	0.12221	0.25544	0.13808	0.069069	0.21013	0.27364	0.1283	0.11853	0.21829	0.12639	0.067496	-2.6354	-2.8646	-3.2354	-2.875	-3.0604	-3.1813	-2.8604	-3.3396	-3.0375	-2.9375	-3.3312	-2.9562	-2.8354	-3.2938	-2.7	-3.1042	207.491	234.610	362.830	415.593	408.433	219.931	398.959	394.214	148.376	178.870	430.988	154.042	409.438	403.275	208.258	339.940	0.00067981	0.00047713	8.5101e-05	1210.5	3.1895e-06	6.7257e-07	1281.8	256.36	4.5825e-06	9.1782e-06	315.47	86.509	67.858	19.833	6.5229e-06	27.674	0.00073109	0.0007163	0.00019866	1218.3	8.2467e-06	7.5365e-06	1282.8	262.13	7.9817e-06	7.7631e-06	321.93	90.317	71.253	21.061	8.3529e-06	29.948	425.798	204.475	267.117	106.586	430.995	300.484	106.626	113.905	253.161	304.226	112.977	120.086	120.320	126.608	262.555	126.337	-8191	255	
6691.058	1	1	0	0	0.29434	0.094721	0.096306	0.27694	0.23163	0.25624	0.36999	0.35443	0.14553	0.024037	0.23584	0.21543	0.2794	0.046102	0.045055	0.11393	-2.7	-2.6708	-3.3542	-3.1312	-2.6854	-3.3667	-2.9188	-3.175	-3.2229	-2.8	-3.2021	-3.1042	-3.05	-3.2479	-2.9583	-3.2125	119.290	98.625	125.962	370.651	427.737	331.730	407.503	399.871	422.133	390.397	327.577	422.875	404.429	292.173	136.858	365.257	0.0010164	0.00023299	0.00012055	1209.9	2.3184e-06	5.405e-06	1286	255.57	1.0871e-05	3.3046e-06	314.63	86.028	68.363	19.65	4.1747e-06	27.492	0.00072076	0.00070145	0.00021251	1220.8	8.0916e-06	7.3874e-06	1285.7	262.05	7.7829e-06	7.6397e-06	322.56	89.894	71.249	21.012	8.8256e-06	29.783	448.892	123.089	186.793	106.685	225.635	260.499	106.649	113.860	258.495	135.166	113.152	119.860	120.306	127.193	233.866	126.302	-8191	255	
6691.154	1	1	0	0	0.23208	0.20397	0.32594	0.16738	0.12557	0.13648	0.24142	0.1067	0.082412	0.25461	0.24365	0.16956	0.077845	0.20957	0.14069	0.11542	-2.7229	-2.7458	-3.1646	-3.1146	-2.7896	-3.2833	-3.0812	-3.05	-3.2438	-2.6729	-3.3438	-3.1229	-2.9146	-3.4771	-2.925	-3.1063	370.403	309.880	172.201	430.711	411.569	325.288	428.670	380.420	413.668	235.709	189.994	157.630	126.904	97.129	312.534	345.281	0.00071854	0.00048786	8.9416e-05	1214.8	7.3078e-06	7.0504e-06	1285	255.15	6.8246e-06	7.388e-06	313.94	86.108	68.149	19.746	8.4282e-06	27.489	0.00070174	0.00071022	0.00022628	1217.7	7.9317e-06	7.5343e-06	1288	261.54	7.609e-06	7.7611e-06	324.06	89.924	71.229	21.128	8.9744e-06	29.698	438.587	179.533	105.808	106.607	165.681	275.173	106.463	113.551	214.139	196.427	113.473	119.852	120.332	127.021	164.464	126.286	-8191	255	
#DATA ENDS
