BOXY.EXE: ISS Imagent and Oximeter Data Acquisition Program Version 0.80
Ascii Record File

#ACQ INFORMATION
2  Detector Channels 
16  External MUX Channels 
1  Auxiliary Channels 
5000  Waveform (CCF) Frequency (Hz)
1  Waveforms Skipped 
30  Waveforms Averaged 
1  Cycles Averaged 
16  Acquisitions per Waveform 
10.0806  Updata Rate (Hz) 

#FILE INFORMATION
TRUE -- External MUX Channel results are PARSED.
FALSE -- AC DC and Phase are NOT grouped.
TRUE -- Companion Program Settings File CREATED.
FALSE -- AC data not excluded
FALSE -- DC data not excluded
FALSE -- Phase data not excluded
FALSE -- Auxillary Chn. data not excluded
Tab delimiters

#CALIBRATION STATE
TRUE -- Waveform Calibration Values APPLIED.


#AUX CALIBRATION VALUES
Val Type	aux-1	

Term	1.0000e+00	
Factor	0.0000e+00	


#WF CALIBRATION VALUES
A = Detector Channel
Val Type	A-AC1	A-AC2	A-AC3	A-AC4	A-AC5	A-AC6	A-AC7	A-AC8	A-AC9	A-AC10	A-AC11	A-AC12	A-AC13	A-AC14	A-AC15	A-AC16	A-DC1	A-DC2	A-DC3	A-DC4	A-DC5	A-DC6	A-DC7	A-DC8	A-DC9	A-DC10	A-DC11	A-DC12	A-DC13	A-DC14	A-DC15	A-DC16	A-Ph1	A-Ph2	A-Ph3	A-Ph4	A-Ph5	A-Ph6	A-Ph7	A-Ph8	A-Ph9	A-Ph10	A-Ph11	A-Ph12	A-Ph13	A-Ph14	A-Ph15	A-Ph16	

Term	0.00000e+00	0.00000e+00	0.00000e+00	0.00000e+00	0.00000e+00	0.00000e+00	0.00000e+00	0.00000e+00	0.00000e+00	0.00000e+00	0.00000e+00	0.00000e+00	0.00000e+00	0.00000e+00	0.00000e+00	0.00000e+00	0.00000e+00	0.00000e+00	0.00000e+00	0.00000e+00	0.00000e+00	0.00000e+00	0.00000e+00	0.00000e+00	0.00000e+00	0.00000e+00	0.00000e+00	0.00000e+00	0.00000e+00	0.00000e+00	0.00000e+00	0.00000e+00	0.00000e+00	0.00000e+00	0.00000e+00	0.00000e+00	0.00000e+00	0.00000e+00	0.00000e+00	0.00000e+00	0.00000e+00	0.00000e+00	0.00000e+00	0.00000e+00	0.00000e+00	0.00000e+00	0.00000e+00	0.00000e+00	
Factor	1.00000e+00	1.00000e+00	1.00000e+00	1.00000e+00	1.00000e+00	1.00000e+00	1.00000e+00	1.00000e+00	1.00000e+00	1.00000e+00	1.00000e+00	1.00000e+00	1.00000e+00	1.00000e+00	1.00000e+00	1.00000e+00	1.00000e+00	1.00000e+00	1.00000e+00	1.00000e+00	1.00000e+00	1.00000e+00	1.00000e+00	1.00000e+00	1.00000e+00	1.00000e+00	1.00000e+00	1.00000e+00	1.00000e+00	1.00000e+00	1.00000e+00	1.00000e+00	X	X	X	X	X	X	X	X	X	X	X	X	X	X	X	X	

B = Detector Channel
Val Type	B-AC1	B-AC2	B-AC3	B-AC4	B-AC5	B-AC6	B-AC7	B-AC8	B-AC9	B-AC10	B-AC11	B-AC12	B-AC13	B-AC14	B-AC15	B-AC16	B-DC1	B-DC2	B-DC3	B-DC4	B-DC5	B-DC6	B-DC7	B-DC8	B-DC9	B-DC10	B-DC11	B-DC12	B-DC13	B-DC14	B-DC15	B-DC16	B-Ph1	B-Ph2	B-Ph3	B-Ph4	B-Ph5	B-Ph6	B-Ph7	B-Ph8	B-Ph9	B-Ph10	B-Ph11	B-Ph12	B-Ph13	B-Ph14	B-Ph15	B-Ph16	

Term	0.00000e+00	0.00000e+00	0.00000e+00	0.00000e+00	0.00000e+00	0.00000e+00	0.00000e+00	0.00000e+00	0.00000e+00	0.00000e+00	0.00000e+00	0.00000e+00	0.00000e+00	0.00000e+00	0.00000e+00	0.00000e+00	0.00000e+00	0.00000e+00	0.00000e+00	0.00000e+00	0.00000e+00	0.00000e+00	0.00000e+00	0.00000e+00	0.00000e+00	0.00000e+00	0.00000e+00	0.00000e+00	0.00000e+00	0.00000e+00	0.00000e+00	0.00000e+00	-6.15763e+01	-1.30411e+02	-1.24549e+02	-1.82143e+02	-5.62854e+01	-6.13144e+01	-1.55749e+02	-1.62015e+02	-4.36545e+01	-5.84641e+01	-1.71172e+02	-1.71176e+02	-1.81653e+02	-1.77264e+02	-5.75505e+01	-1.50260e+02	
Factor	1.84335e-05	1.52056e-04	4.43642e-05	4.71444e-01	1.63633e-06	1.83727e-06	1.70005e-01	5.70259e-02	1.24874e-06	1.86029e-06	9.06459e-02	2.89522e-02	2.44098e-02	8.74298e-03	1.46882e-06	1.28138e-02	7.07437e-06	9.43660e-06	2.63415e-06	2.38107e-01	1.02249e-07	1.04931e-07	8.15064e-02	2.91262e-02	9.98385e-08	1.04856e-07	4.47650e-02	1.44068e-02	1.26248e-02	4.50497e-03	1.02288e-07	6.38331e-03	X	X	X	X	X	X	X	X	X	X	X	X	X	X	X	X	



#DISTANCE SETTINGS
A = Detector Channel
A-1	A-2	A-3	A-4	A-5	A-6	A-7	A-8	A-9	A-10	A-11	A-12	A-13	A-14	A-15	A-16	

2.5000e+00	3.0000e+00	2.5000e+00	3.0000e+00	2.0000e+00	3.0000e+00	1.5000e+00	3.0000e+00	3.0000e+00	3.0000e+00	3.0000e+00	3.0000e+00	3.0000e+00	3.0000e+00	1.5000e+00	3.0000e+00	

B = Detector Channel
B-1	B-2	B-3	B-4	B-5	B-6	B-7	B-8	B-9	B-10	B-11	B-12	B-13	B-14	B-15	B-16	

1.0000e+01	1.0000e+01	1.0000e+01	1.4400e+00	1.0000e+01	1.0000e+01	1.5100e+00	1.9400e+00	1.0000e+01	1.0000e+01	1.9900e+00	2.4900e+00	2.4100e+00	2.9000e+00	1.0000e+01	2.9800e+00	




#DATA BEGINS
time	group	step	mark	flag	A-AC1	A-AC2	A-AC3	A-AC4	A-AC5	A-AC6	A-AC7	A-AC8	A-AC9	A-AC10	A-AC11	A-AC12	A-AC13	A-AC14	A-AC15	A-AC16	A-DC1	A-DC2	A-DC3	A-DC4	A-DC5	A-DC6	A-DC7	A-DC8	A-DC9	A-DC10	A-DC11	A-DC12	A-DC13	A-DC14	A-DC15	A-DC16	A-Ph1	A-Ph2	A-Ph3	A-Ph4	A-Ph5	A-Ph6	A-Ph7	A-Ph8	A-Ph9	A-Ph10	A-Ph11	A-Ph12	A-Ph13	A-Ph14	A-Ph15	A-Ph16	B-AC1	B-AC2	B-AC3	B-AC4	B-AC5	B-AC6	B-AC7	B-AC8	B-AC9	B-AC10	B-AC11	B-AC12	B-AC13	B-AC14	B-AC15	B-AC16	B-DC1	B-DC2	B-DC3	B-DC4	B-DC5	B-DC6	B-DC7	B-DC8	B-DC9	B-DC10	B-DC11	B-DC12	B-DC13	B-DC14	B-DC15	B-DC16	B-Ph1	B-Ph2	B-Ph3	B-Ph4	B-Ph5	B-Ph6	B-Ph7	B-Ph8	B-Ph9	B-Ph10	B-Ph11	B-Ph12	B-Ph13	B-Ph14	B-Ph15	B-Ph16	aux-1	digaux	

18141.832	1	1	0	768	0.12642	0.17124	0.24132	0.12026	0.14374	0.26039	0.20907	0.090387	0.14591	0.19526	0.43721	0.24143	0.37703	0.095746	0.172	0.099221	-1.9146	-2.9354	-2.5646	-2.4688	-3.0458	-2.5646	-2.8542	-3	-2.4354	-2.8354	-2.7854	-2.6521	-2.9458	-2.5938	-2.8792	-3.0333	496.217	459.357	296.942	205.257	451.399	231.091	170.997	392.533	339.268	514.477	471.477	195.687	172.839	425.241	270.751	467.790	0.00056718	0.00060976	0.0001105	1379.3	7.9515e-06	6.0113e-06	1377.6	371.54	3.0141e-06	3.537e-06	422.89	140.96	123.31	42.522	4.4198e-06	52.314	0.00058919	0.00059539	0.00016278	1397.3	6.5527e-06	6.5055e-06	1397	378.75	6.4912e-06	6.43e-06	431.62	144.8	126.05	43.486	6.5409e-06	53.681	267.481	242.399	262.026	182.413	331.037	305.518	182.086	187.029	305.584	348.728	186.756	190.779	191.502	195.700	331.091	195.048	-8191	255	
18141.930	1	1	0	0	0.14751	0.23053	0.043038	0.26711	0.18427	0.082684	0.15079	0.26909	0.064728	0.079399	0.21394	0.05729	0.27609	0.28835	0.080441	0.24056	-2.3	-2.7792	-2.8208	-2.4729	-2.8271	-2.4854	-2.8125	-2.9375	-2.6292	-2.7812	-2.9271	-2.6792	-2.9313	-2.6083	-2.4979	-3.0208	339.589	266.206	382.578	307.511	274.876	318.947	177.504	487.008	465.060	520.853	502.989	417.558	519.456	520.703	444.561	211.817	0.00051909	0.00054694	0.00012115	1376.8	4.7845e-06	6.6719e-06	1375.5	371.08	4.8483e-06	6.6796e-06	423.53	141.35	122.7	42.26	4.2119e-06	51.727	0.00058346	0.00058175	0.00016178	1396.8	6.3543e-06	6.2412e-06	1397	378.49	6.2657e-06	6.3761e-06	431.49	144.67	125.91	43.333	6.4439e-06	53.437	266.320	240.634	263.935	182.355	350.208	326.421	182.319	187.079	315.217	319.388	186.498	190.820	191.435	196.029	334.687	195.316	-8191	255	
18142.025	1	1	0	0	0.11699	0.10618	0.076419	0.13777	0.25899	0.11731	0.50044	0.22523	0.26613	0.28266	0.25836	0.31597	0.091536	0.2583	0.33759	0.061329	-2.0979	-2.7083	-2.6958	-2.625	-2.8187	-2.7021	-2.8729	-3.05	-2.4188	-2.5042	-2.9229	-2.4437	-2.8771	-2.625	-2.5521	-2.9854	421.308	228.679	255.591	387.933	358.036	244.694	430.924	418.734	475.827	442.092	467.231	197.372	189.337	452.325	416.106	430.206	0.00056861	0.00036616	0.00015638	1376.6	3.5444e-06	6.8134e-06	1374.8	372.14	4.5625e-06	4.3207e-06	423.8	141.19	122.95	42.226	6.5369e-06	52.028	0.0005773	0.0005867	0.00016071	1396	6.3252e-06	6.3568e-06	1394.8	378.63	6.3591e-06	6.5187e-06	431.12	144.57	125.76	43.372	6.5833e-06	53.525	265.686	255.675	250.401	182.418	303.138	332.173	182.292	186.949	328.201	353.709	186.316	190.700	191.438	196.063	328.322	195.232	-8191	255	
18142.121	1	1	0	0	0.07567	0.10601	0.30525	0.20427	0.060979	0.19181	0.20899	0.39312	0.026259	0.22727	0.24161	0.15777	0.17945	0.2448	0.21069	0.15063	-2.1229	-2.7125	-2.7208	-2.5417	-2.7646	-2.8604	-2.9604	-3.1833	-2.6104	-2.6917	-2.8917	-2.4313	-2.9458	-2.8	-2.5521	-2.8187	280.307	454.966	482.729	462.980	478.397	242.379	443.138	472.482	252.389	289.806	522.908	460.314	187.754	518.137	177.658	188.791	0.00052669	0.00044661	6.732e-05	1372.2	3.6936e-06	6.687e-06	1383.1	372.62	4.6823e-06	6.2128e-06	424.41	141.62	123.37	42.259	5.1407e-06	52.034	0.0005806	0.00058745	0.00016372	1393.9	6.4329e-06	6.5678e-06	1397.7	378.42	6.4296e-06	6.4624e-06	431.42	144.84	125.96	43.417	6.4797e-06	53.56	263.818	223.247	255.701	182.367	315.586	323.449	182.233	186.932	331.985	360.436	186.633	190.843	191.262	195.877	312.148	195.321	-8191	255	
18142.217	1	1	0	0	0.14205	0.047807	0.072546	0.14124	0.15101	0.34348	0.15185	0.11192	0.053912	0.35135	0.23696	0.15318	0.22675	0.10079	0.10711	0.083973	-2.4417	-2.7146	-2.8292	-2.4604	-2.7188	-2.7313	-2.7812	-3.0521	-2.6937	-2.5812	-3.1208	-2.6771	-2.8521	-2.8917	-2.5354	-2.8646	305.284	383.555	320.495	384.893	266.468	435.985	470.473	179.059	403.707	399.811	516.402	511.371	494.014	206.898	311.989	180.046	0.00053744	0.00045698	0.00017657	1374.5	5.8329e-06	5.3819e-06	1382.1	372.03	3.8369e-06	5.3922e-06	425.33	141.81	123.31	42.375	4.0809e-06	51.782	0.0005798	0.00058393	0.00015876	1396.1	6.345e-06	6.3479e-06	1396.9	379.11	6.3009e-06	6.3757e-06	431.77	144.95	125.98	43.346	6.2651e-06	53.473	261.345	290.165	263.433	182.586	308.627	316.010	182.106	187.037	322.955	300.548	186.406	190.798	191.617	195.893	298.369	195.078	-8191	255	
18142.312	1	1	0	0	0.082313	0.066454	0.16503	0.078224	0.11838	0.33211	0.20523	0.15148	0.2122	0.17714	0.12369	0.17784	0.066583	0.16766	0.040116	0.17145	-2.4292	-2.325	-2.8729	-2.4542	-2.7521	-2.5958	-2.9417	-2.8146	-2.7167	-2.4	-3.1333	-2.7354	-2.7687	-2.9875	-2.6042	-2.85	367.361	528.510	421.730	271.894	463.204	198.152	506.769	176.743	224.802	307.661	281.909	517.290	342.696	453.148	275.130	432.800	0.00051835	0.0006554	0.00012937	1375.6	6.1159e-06	7.7327e-06	1377	372.07	4.6373e-06	7.1861e-06	423.06	141.5	123.25	42.137	6.5631e-06	51.907	0.00056698	0.00058377	0.00015901	1395.7	6.2796e-06	6.3068e-06	1396.7	378.29	6.3235e-06	6.2214e-06	430.9	144.51	125.94	43.367	6.4876e-06	53.406	262.885	252.538	269.525	182.456	320.214	315.928	182.260	187.067	327.377	305.405	186.516	190.858	191.388	196.160	318.088	195.235	-8191	255	
18142.434	1	1	0	0	0.33459	0.16784	0.22702	0.36189	0.072154	0.22688	0.054983	0.30338	0.029868	0.14446	0.15166	0.236	0.25544	0.046573	0.1289	0.095188	-2.3063	-2.4292	-2.8104	-2.5563	-2.7292	-2.8063	-2.7854	-2.7354	-2.7979	-2.5625	-2.9896	-2.9729	-2.6417	-3.0167	-2.4208	-2.7708	450.331	524.552	436.149	218.051	251.080	172.577	452.461	507.466	456.334	351.446	432.594	172.173	287.053	217.810	217.873	449.981	0.00054929	0.00041156	0.00017546	1382.3	5.3295e-06	5.9403e-06	1377.3	371.67	7.4725e-06	2.2356e-06	423.15	140.98	122.4	41.998	5.5003e-06	51.846	0.00058599	0.00058468	0.0001644	1396.9	6.5465e-06	6.4467e-06	1395.3	378.58	6.6085e-06	6.6031e-06	431.17	144.24	125.48	43.249	6.7192e-06	53.367	262.647	271.461	259.240	182.436	320.300	343.804	182.233	187.016	336.179	331.844	186.540	190.889	191.405	196.161	322.519	195.224	-8191	255	
18142.527	1	1	0	0	0.15145	0.15846	0.26289	0.21997	0.11823	0.094886	0.20322	0.19319	0.41637	0.25662	0.25508	0.11852	0.1334	0.19728	0.063216	0.31479	-2.2375	-2.6583	-2.8708	-2.6896	-2.5875	-2.9479	-2.7125	-2.9354	-2.8354	-2.5604	-3.0396	-2.8104	-2.5187	-2.9583	-2.7271	-3.1042	186.604	193.994	193.194	433.425	289.044	295.291	456.171	498.756	266.515	425.224	228.331	232.776	452.946	214.780	503.947	447.135	0.00052991	0.0006598	0.0001489	1369	3.9174e-06	6.5431e-06	1377.8	370.51	5.4975e-06	5.6158e-06	423.77	141.03	122.92	41.929	5.4382e-06	52.001	0.00059501	0.00060363	0.0001703	1394.2	6.6104e-06	6.7256e-06	1397.8	377.79	6.5804e-06	6.7553e-06	431.22	144.36	125.71	43.221	6.6743e-06	53.506	265.962	253.136	271.548	182.621	287.190	347.511	182.300	187.132	327.008	322.930	186.404	190.939	191.624	196.016	321.491	195.219	-8191	255	
18142.625	1	1	0	0	0.14053	0.2177	0.21755	0.13137	0.10119	0.10556	0.30406	0.37485	0.27181	0.24675	0.1225	0.15208	0.2725	0.24759	0.056273	0.23184	-2.5083	-2.5563	-2.8	-2.8521	-2.8125	-2.9458	-2.7146	-2.6146	-2.8708	-2.5979	-2.8896	-2.9188	-2.7104	-3.0458	-2.5312	-2.625	299.199	216.156	398.779	169.979	370.427	476.392	469.022	482.083	457.122	525.264	419.704	479.225	503.991	474.079	351.373	500.077	0.00054506	0.00050085	0.00012426	1369.9	7.7944e-06	4.426e-06	1377.7	370.29	4.4087e-06	6.8767e-06	423	141.15	123.18	42.068	6.5426e-06	51.995	0.000594	0.00059918	0.00017202	1395.4	6.5175e-06	6.6764e-06	1396.8	377.9	6.5912e-06	6.5764e-06	431.48	144.29	125.84	43.29	6.8021e-06	53.45	264.253	255.152	275.912	182.481	312.121	334.105	182.150	187.276	308.385	349.978	186.595	190.881	191.474	195.919	314.550	195.083	-8191	255	
18142.721	1	1	0	0	0.1283	0.21051	0.098909	0.20629	0.25494	0.10241	0.32585	0.27053	0.1808	0.016957	0.15638	0.18337	0.13086	0.36551	0.059886	0.071678	-2.5062	-2.6292	-2.4646	-2.8187	-2.4729	-2.7188	-2.775	-2.7062	-2.8667	-2.6208	-2.6417	-2.8417	-2.6625	-2.9208	-2.5104	-2.5563	519.091	516.542	170.307	190.244	491.301	318.667	399.188	458.027	175.740	455.494	526.332	425.048	326.184	506.956	508.959	474.131	0.00052976	0.00044634	0.00011385	1374.4	5.0899e-06	4.8292e-06	1377.6	371.68	3.2211e-06	4.2794e-06	422.84	140.88	123.04	42.212	3.2746e-06	51.975	0.00060688	0.00060726	0.00016888	1395.6	6.7028e-06	6.6377e-06	1394.9	377.87	6.7166e-06	6.6889e-06	430.79	144.29	125.69	43.396	6.722e-06	53.403	265.642	260.619	287.824	182.450	331.906	310.556	182.209	186.950	300.754	347.153	186.471	190.537	191.583	196.110	310.084	195.361	-8191	255	
18142.816	1	1	0	0	0.12694	0.20685	0.23746	0.28342	0.22342	0.15545	0.37345	0.1175	0.016599	0.15734	0.26505	0.1489	0.17359	0.13479	0.10887	0.24888	-2.5812	-2.4708	-2.6083	-2.8292	-2.525	-2.75	-2.7917	-2.6125	-2.9813	-2.5583	-2.75	-3.0563	-2.4417	-2.8812	-2.8021	-2.7562	254.846	484.223	296.113	171.451	244.268	394.686	467.193	186.829	172.413	414.726	425.820	494.696	477.200	227.676	358.577	446.530	0.00051962	0.00041531	0.00016252	1373.5	3.5802e-06	5.1303e-06	1376.8	371.16	5.3759e-06	6.7295e-06	423.66	140.73	123.21	42.054	4.3928e-06	51.99	0.00060032	0.00060972	0.00017125	1396.8	6.7708e-06	6.7151e-06	1397.3	377.84	6.5887e-06	6.709e-06	431	144.23	125.81	43.314	6.81e-06	53.417	266.177	240.367	270.240	182.680	297.722	355.346	182.230	187.266	312.197	335.561	186.448	191.150	191.408	195.990	314.026	195.391	-8191	255	
18142.912	1	1	0	0	0.043339	0.29755	0.19197	0.19759	0.19621	0.19797	0.30091	0.17196	0.27483	0.21086	0.18824	0.18882	0.42387	0.20827	0.23161	0.25166	-2.475	-2.5271	-2.5667	-2.7812	-2.4167	-2.8396	-2.8063	-2.5604	-2.7687	-2.5417	-2.5083	-2.9208	-2.7396	-2.9042	-2.6375	-2.6583	175.880	390.824	399.338	207.606	498.144	248.641	453.784	224.757	256.560	480.544	472.090	473.236	458.755	455.429	366.695	456.734	0.00054878	0.00045683	0.00013569	1365.1	3.2024e-06	6.8345e-06	1379.5	372.31	4.5865e-06	6.8581e-06	424.69	140.85	122.93	42.088	5.6928e-06	52.213	0.00060739	0.00059818	0.00016992	1394.4	6.7148e-06	6.6937e-06	1397.5	378.08	6.6911e-06	6.6743e-06	432.1	144.54	125.77	43.314	6.8045e-06	53.58	263.959	230.749	272.057	182.482	304.351	334.410	182.259	187.152	324.685	351.598	186.621	190.868	191.471	196.095	319.540	195.100	-8191	255	
18143.033	1	1	0	0	0.14468	0.40356	0.12773	0.28622	0.17865	0.082356	0.36424	0.31028	0.1565	0.11748	0.072683	0.33149	0.27204	0.20432	0.29292	0.28806	-2.4417	-2.4854	-2.5187	-2.8125	-2.5104	-2.8417	-2.9417	-2.7083	-2.9146	-2.5062	-2.6312	-2.9104	-2.4875	-2.7438	-2.7604	-2.5938	482.406	191.267	218.620	525.562	237.652	406.166	424.214	477.664	170.006	324.859	240.150	494.300	472.094	197.015	403.204	498.820	0.00052774	0.00076706	0.00018551	1375.3	4.2462e-06	4.606e-06	1379.4	372.18	4.5212e-06	4.8954e-06	424	141.23	123.25	42.263	3.6182e-06	52.141	0.00059462	0.00060042	0.00016828	1399	6.5341e-06	6.5936e-06	1398.3	378.36	6.5009e-06	6.5714e-06	431.37	144.78	126.22	43.459	6.4774e-06	53.674	261.492	248.040	281.116	182.328	317.121	324.234	182.313	187.083	309.087	333.577	186.501	190.995	191.511	195.921	317.894	195.027	-8191	255	
18143.131	1	1	0	0	0.22494	0.048992	0.17568	0.076339	0.17748	0.13604	0.090565	0.093783	0.055229	0.019189	0.18382	0.085924	0.22235	0.054511	0.12845	0.12346	-2.2896	-2.6833	-2.3583	-2.9958	-2.5062	-2.5958	-2.8521	-2.4625	-2.7	-2.8354	-2.5187	-2.8875	-2.6625	-2.6	-2.8792	-2.5917	495.021	506.097	361.446	172.922	294.920	231.718	189.833	502.807	369.599	335.122	516.143	516.724	240.850	172.840	317.059	389.241	0.00052123	0.00059743	0.00013263	1383.3	6.8908e-06	6.0779e-06	1382.1	372.27	5.3771e-06	4.4935e-06	425.16	142.02	123.14	42.438	4.2997e-06	52.139	0.00059397	0.00058969	0.00016419	1400.6	6.4687e-06	6.4777e-06	1402.4	379.57	6.4585e-06	6.6533e-06	432.76	145.01	126.23	43.615	6.5063e-06	53.758	266.808	260.920	275.740	182.622	310.743	320.840	182.239	187.251	320.792	323.342	186.307	190.837	191.557	195.849	324.611	195.225	-8191	255	
18143.227	1	1	0	0	0.11305	0.14533	0.24756	0.11033	0.04073	0.12596	0.1936	0.16626	0.035354	0.15405	0.24001	0.2413	0.24413	0.11906	0.087558	0.33773	-2.2625	-2.6208	-2.275	-2.925	-2.4125	-2.4667	-2.9292	-2.575	-2.5438	-2.8604	-2.5917	-2.8146	-2.6104	-2.6021	-2.7333	-2.6896	442.510	247.091	239.343	364.579	239.740	418.398	406.929	502.441	279.010	176.736	512.230	451.827	486.626	225.375	190.003	496.162	0.00053008	0.00036988	0.00012282	1382.6	5.6673e-06	5.6991e-06	1385.8	371.48	5.8824e-06	4.7472e-06	424.75	142.22	123.36	42.508	4.67e-06	52.162	0.00058672	0.00059364	0.00016737	1401.6	6.5237e-06	6.4913e-06	1402.3	379.03	6.5656e-06	6.524e-06	432.88	145.37	126.27	43.578	6.4818e-06	53.74	266.184	224.698	266.987	182.287	316.642	316.011	182.343	187.123	312.324	322.299	186.379	190.853	191.308	195.915	331.815	195.305	-8191	255	
18143.322	1	1	0	0	0.13352	0.15534	0.10711	0.16002	0.19249	0.26162	0.2483	0.36501	0.22656	0.14762	0.15458	0.15537	0.2696	0.20046	0.12045	0.18492	-2.3292	-2.6979	-2.3979	-2.8625	-2.5479	-2.6104	-3.1562	-2.7188	-2.7812	-2.6958	-2.5646	-2.8604	-2.6771	-2.625	-2.7313	-2.6792	465.484	416.676	370.092	515.209	387.435	251.746	433.589	502.647	169.829	406.314	492.883	246.802	282.189	175.295	452.450	444.931	0.00055455	0.00052214	0.00017401	1388.4	4.9989e-06	4.4293e-06	1387.1	372.71	4.5866e-06	5.0843e-06	425.45	142.46	123.33	42.491	5.4015e-06	52.339	0.00059927	0.00059364	0.00016462	1402.1	6.5821e-06	6.5584e-06	1403.1	379.48	6.4527e-06	6.4853e-06	433.09	145.78	126.55	43.691	6.5066e-06	53.883	265.578	241.693	284.716	182.444	350.748	307.657	182.309	187.063	332.352	288.984	186.518	191.062	191.565	196.004	298.578	195.276	-8191	255	
18143.395	1	1	0	0	0.1501	0.15934	0.25441	0.13542	0.16046	0.25955	0.21069	0.25301	0.24902	0.26283	0.23081	0.11513	0.17969	0.24454	0.064284	0.17345	-2.3229	-2.6667	-2.4729	-2.9479	-2.6375	-2.6146	-2.8729	-2.6896	-2.5438	-2.7062	-2.5312	-2.7792	-2.9125	-2.6021	-2.8312	-2.7417	455.527	195.677	230.062	434.592	527.132	225.583	456.242	504.955	225.827	288.278	427.775	225.094	492.645	240.110	360.122	380.365	0.00057913	0.00035138	0.0001162	1384.4	6.4391e-06	5.544e-06	1384.6	372.4	5.9852e-06	6.6129e-06	426.53	142.58	124.11	42.893	4.1634e-06	52.437	0.00058719	0.00059144	0.0001599	1404.1	6.473e-06	6.4119e-06	1404.6	380.15	6.4718e-06	6.3269e-06	434.26	146.07	126.95	43.921	6.6259e-06	54.039	261.463	268.080	255.808	182.728	328.720	320.928	182.302	186.928	336.712	321.248	186.428	190.623	191.450	195.972	298.408	195.207	-8191	255	
18143.514	1	1	0	0	0.20305	0.067044	0.077755	0.2861	0.16943	0.20393	0.25266	0.27515	0.19317	0.048347	0.086504	0.13148	0.15852	0.11377	0.19455	0.299	-2.3521	-2.7417	-2.2812	-2.7208	-2.8083	-2.4646	-2.9917	-2.7917	-2.525	-2.7896	-2.5521	-2.7417	-2.8958	-2.5417	-2.8187	-2.5354	292.638	377.869	399.988	198.460	394.718	527.360	511.746	453.692	492.497	491.333	494.324	195.540	504.222	486.924	347.120	463.731	0.00054329	0.00052689	0.00015721	1386.1	6.3403e-06	2.9445e-06	1387.1	373.63	6.0408e-06	6.1528e-06	425.7	141.93	123.71	42.664	6.4119e-06	52.281	0.00058224	0.00058387	0.00016801	1407.2	6.3183e-06	6.4622e-06	1406.8	380.38	6.5012e-06	6.5476e-06	433.92	145.64	127.01	43.747	6.5358e-06	53.833	264.757	270.290	238.803	182.503	352.439	290.617	182.164	187.257	326.950	332.132	186.443	191.317	191.417	195.855	315.567	195.171	-8191	255	
18143.609	1	1	0	0	0.24405	0.050752	0.23389	0.041265	0.18409	0.070242	0.11427	0.26517	0.048832	0.087655	0.14005	0.2358	0.067389	0.12752	0.30384	0.090367	-2.0792	-2.7313	-2.3729	-2.6021	-2.9146	-2.4458	-2.7875	-2.7521	-2.4354	-2.8333	-2.7625	-2.6125	-2.9562	-2.6042	-2.8104	-2.8167	216.302	516.126	399.783	477.104	471.795	171.408	525.490	478.215	423.680	194.836	468.269	523.356	485.963	488.080	330.922	429.113	0.00051189	0.0004643	0.00016188	1390	5.6704e-06	4.3419e-06	1387	371.44	3.901e-06	4.6643e-06	425.63	142.54	123.86	42.576	4.9162e-06	52.533	0.00058313	0.00059081	0.00016296	1405.8	6.4221e-06	6.4878e-06	1404.5	379.48	6.3693e-06	6.4456e-06	433.1	145.56	126.92	43.758	6.4737e-06	53.897	265.722	272.527	276.167	182.344	326.628	355.634	182.288	187.187	323.200	315.834	186.474	190.843	191.219	195.896	297.322	195.028	-8191	255	
18143.705	1	1	0	0	0.079531	0.14847	0.12966	0.41959	0.1274	0.16585	0.3514	0.30767	0.18309	0.14766	0.077569	0.0982	0.2635	0.0053676	0.075372	0.14337	-2.05	-2.7667	-2.55	-2.6792	-2.8292	-2.5229	-2.9167	-2.7125	-2.4333	-2.7812	-2.625	-2.5667	-2.9458	-2.5917	-2.7542	-2.925	493.478	485.878	295.931	448.198	423.170	392.650	439.567	515.361	522.182	244.629	477.961	365.755	430.524	182.615	327.965	232.499	0.00051582	0.00038384	0.00011986	1389.1	5.9868e-06	5.4006e-06	1384.6	373.46	4.7932e-06	4.1332e-06	425.92	143.13	124.5	42.721	6.2969e-06	52.513	0.00057941	0.00057377	0.00016017	1406.7	6.2958e-06	6.3299e-06	1405	380.11	6.1883e-06	6.2767e-06	433.34	146.31	127.34	43.899	6.3642e-06	54.059	266.388	234.142	267.820	182.403	344.194	297.718	182.346	187.027	335.401	329.324	186.520	190.980	191.314	196.184	329.512	195.515	-8191	255	
18143.826	1	1	0	0	0.14732	0.20535	0.28098	0.22999	0.079092	0.22386	0.039254	0.39021	0.077542	0.099718	0.25357	0.094216	0.15471	0.19997	0.35209	0.17443	-2.0208	-2.7687	-2.5312	-2.5563	-2.775	-2.3396	-2.7562	-2.7104	-2.4917	-2.9375	-3.0167	-2.5563	-2.8125	-2.4271	-2.7583	-2.8396	377.042	245.196	356.695	177.624	392.402	286.016	189.564	472.455	292.100	176.836	440.275	479.373	190.772	380.600	262.741	499.866	0.00053148	0.00058185	0.000149	1381.8	3.868e-06	6.962e-06	1389.6	374.06	6.1323e-06	4.7417e-06	426.85	142.95	125.05	42.788	5.1763e-06	52.798	0.00057876	0.0005742	0.00016022	1404.9	6.1907e-06	6.2818e-06	1407	381.15	6.2401e-06	6.4113e-06	434.13	146.35	127.52	43.971	6.3904e-06	54.11	264.464	258.443	266.392	182.510	317.907	333.279	182.330	187.245	322.648	316.583	186.357	190.715	191.274	196.039	288.103	195.188	-8191	255	
18143.922	1	1	0	0	0.16964	0.090341	0.1519	0.076409	0.32361	0.24475	0.23095	0.31232	0.21293	0.32554	0.21821	0.25137	0.36824	0.057305	0.13239	0.19883	-2.0812	-2.9333	-2.6854	-2.3729	-2.7521	-2.6417	-2.7896	-2.9375	-2.4625	-2.7313	-2.7604	-2.5521	-3.1167	-2.525	-2.6333	-2.9354	435.030	471.844	247.891	446.741	225.841	469.984	412.153	470.753	353.909	321.664	397.240	473.793	170.992	299.396	270.208	196.194	0.00054611	0.00048823	7.633e-05	1390.5	7.6366e-06	4.0365e-06	1388.2	374.02	3.7436e-06	4.9276e-06	427.5	143.39	124.57	42.792	3.873e-06	52.841	0.00057438	0.0005819	0.00016387	1405.5	6.3533e-06	6.3098e-06	1407.9	381.54	6.2229e-06	6.2992e-06	434.24	146.58	127.47	44.027	6.2534e-06	54.275	264.757	234.893	238.776	182.398	318.147	310.210	182.249	186.969	347.031	305.623	186.241	190.910	191.378	195.699	340.616	195.285	-8191	255	
18143.992	1	1	0	0	0.20244	0.04678	0.23376	0.24554	0.11737	0.31367	0.1303	0.11999	0.19793	0.077246	0.11708	0.1548	0.44481	0.13909	0.079449	0.09179	-2.0042	-2.7229	-2.7396	-2.5438	-2.7354	-2.7125	-2.6917	-2.8521	-2.425	-2.7333	-2.8458	-2.3958	-2.9542	-2.6167	-2.5417	-2.8042	231.670	466.774	179.217	460.780	181.401	362.340	477.058	427.142	283.562	499.773	203.856	486.411	499.595	238.935	522.749	240.765	0.00054135	0.0005227	0.00016223	1395.2	5.4667e-06	5.0818e-06	1383.7	375.14	3.6868e-06	4.7429e-06	426.64	143.43	124.78	42.971	5.2802e-06	52.61	0.00056414	0.00058035	0.00015947	1408.2	6.3469e-06	6.2058e-06	1406.2	381.36	6.3955e-06	6.4134e-06	434.79	146.81	127.67	44.155	6.4185e-06	54.217	264.673	253.615	239.097	182.125	314.616	334.022	182.220	187.085	342.975	352.132	186.599	191.082	191.300	195.963	324.377	195.088	-8191	255	
18144.113	1	1	0	0	0.11442	0.097402	0.17556	0.19903	0.14837	0.21118	0.37037	0.33133	0.18829	0.28331	0.19505	0.23368	0.31302	0.11249	0.10816	0.21036	-2.0646	-2.6917	-2.7854	-2.2875	-2.6437	-2.5979	-2.6667	-2.7146	-2.2625	-2.5417	-2.75	-2.5583	-2.7313	-2.8854	-2.3667	-2.8146	429.418	462.463	484.297	193.213	454.521	472.188	469.628	479.732	314.624	492.042	450.027	517.661	513.797	517.265	236.620	400.046	0.00053378	0.00056161	0.00010529	1385.9	5.9371e-06	4.8996e-06	1390.6	374.75	6.19e-06	5.1095e-06	425.38	144.08	124.86	42.901	6.4982e-06	52.617	0.00058056	0.00058035	0.0001593	1405.2	6.3961e-06	6.443e-06	1408.4	381.42	6.4964e-06	6.4785e-06	434.11	146.85	127.73	44.146	6.4428e-06	54.273	260.906	257.766	264.741	182.560	306.773	321.448	182.372	187.035	308.760	333.657	186.463	190.813	191.538	195.869	318.795	195.354	-8191	255	
18144.211	1	1	0	0	0.25406	0.048287	0.17969	0.21047	0.2023	0.084701	0.26909	0.085932	0.121	0.24211	0.1783	0.12329	0.17058	0.22211	0.070932	0.09939	-1.9979	-2.3875	-2.7896	-2.4688	-2.6625	-2.5979	-2.6021	-3.0083	-2.4854	-2.4458	-3.0021	-2.5917	-2.7708	-2.8708	-2.4313	-2.925	516.530	453.336	222.244	432.379	312.552	384.711	460.590	523.538	357.846	207.283	523.167	426.213	497.696	527.062	273.159	204.336	0.00051893	0.0004838	0.00010207	1388.1	4.1037e-06	6.2505e-06	1394.6	375.39	4.5492e-06	6.5953e-06	425.72	143.69	125.77	43.014	5.2514e-06	52.865	0.0005745	0.00058739	0.00016775	1409.4	6.5269e-06	6.4657e-06	1412.6	382.21	6.4506e-06	6.5305e-06	435.45	147.1	128.3	44.276	6.2975e-06	54.516	261.545	261.254	291.463	182.360	354.200	332.774	182.161	187.099	335.593	356.320	186.454	190.684	191.458	195.790	322.254	195.015	-8191	255	
18144.307	1	1	0	0	0.18011	0.18619	0.086721	0.09838	0.17833	0.3417	0.25001	0.25205	0.12265	0.065852	0.16316	0.36625	0.051967	0.38288	0.33635	0.13462	-2.0729	-2.2958	-2.8229	-2.4708	-2.7479	-2.7792	-2.6312	-2.925	-2.6333	-2.4979	-2.8604	-2.8208	-2.7125	-2.7667	-2.575	-2.9333	367.259	513.597	334.109	496.528	418.870	225.089	486.642	528.969	372.215	268.572	501.571	500.800	527.966	170.212	438.351	279.019	0.00056576	0.00056842	0.00015475	1389.5	5.8986e-06	5.8061e-06	1397.4	375.89	5.5589e-06	2.8355e-06	428.13	144.63	125.96	43.183	5.2665e-06	53.168	0.00058399	0.00058186	0.00016016	1411.6	6.2998e-06	6.2932e-06	1412.8	383.11	6.372e-06	6.2725e-06	436.19	147.68	128.62	44.393	6.2879e-06	54.561	265.900	271.090	258.793	182.274	321.646	306.689	182.135	187.093	336.134	304.181	186.339	190.827	191.428	195.865	334.240	195.221	-8191	255	
18144.428	1	1	0	0	0.15275	0.39299	0.25075	0.27902	0.2095	0.17938	0.13951	0.25236	0.22785	0.15366	0.091058	0.15245	0.31831	0.089129	0.24879	0.17705	-2.3812	-2.4229	-2.6917	-2.7042	-2.5458	-2.8688	-2.5958	-2.9188	-2.675	-2.5583	-3.0417	-2.7167	-2.6562	-2.9771	-2.6437	-2.8083	500.274	358.722	365.181	182.544	489.941	232.488	445.047	475.125	396.683	521.241	246.777	197.662	515.272	418.005	482.638	461.365	0.000534	0.00048391	0.00015458	1392.5	4.0225e-06	6.198e-06	1393.8	375.81	6.6133e-06	7.8097e-06	428.69	144.09	125.28	42.946	5.0701e-06	53.084	0.00057369	0.0005762	0.00015825	1410.9	6.2159e-06	6.3544e-06	1412.3	382.61	6.4614e-06	6.5257e-06	436.08	147.28	128.2	44.252	6.6319e-06	54.443	262.503	271.878	257.932	182.411	347.991	325.106	182.187	187.026	316.473	332.040	186.366	191.063	191.326	195.748	341.591	194.992	-8191	255	
18144.521	1	1	0	0	0.24358	0.34825	0.16208	0.17703	0.095216	0.13341	0.2107	0.49714	0.090037	0.10094	0.17268	0.11373	0.12985	0.23506	0.18173	0.26596	-2.1292	-2.3	-2.7604	-2.5104	-2.6021	-3.1042	-2.7333	-2.6333	-2.7438	-2.475	-2.7875	-2.5729	-2.5312	-2.8958	-2.5042	-2.6854	247.909	195.431	224.933	170.499	422.662	271.480	487.573	492.667	521.739	185.330	520.916	485.913	238.278	436.520	350.351	525.713	0.0005382	0.00029323	0.00016321	1395.8	5.3504e-06	5.7387e-06	1400.5	377.45	4.9743e-06	5.2542e-06	429.08	144.92	125.65	43.386	5.4354e-06	53.3	0.00059376	0.00059694	0.00016666	1414.1	6.3784e-06	6.5147e-06	1416.5	383.21	6.4051e-06	6.354e-06	437.29	147.95	128.74	44.508	6.4558e-06	54.722	263.571	232.712	259.206	182.383	300.610	315.435	182.196	187.119	324.497	313.235	186.222	191.114	191.351	195.660	310.646	195.170	-8191	255	
18144.617	1	1	0	0	0.26655	0.15105	0.072742	0.051844	0.090498	0.10217	0.1642	0.20034	0.089512	0.15723	0.1716	0.10559	0.34499	0.094251	0.097308	0.23953	-2.3354	-2.4083	-2.6542	-2.6729	-2.6625	-2.7958	-2.8333	-2.7792	-2.8667	-2.55	-2.8	-2.6688	-2.4521	-2.9604	-2.5875	-2.4792	423.061	358.094	316.366	440.193	333.339	458.102	185.388	194.830	360.625	220.776	171.013	484.554	423.007	483.609	284.194	453.192	0.00057254	0.00061698	0.00015338	1391.1	6.8916e-06	2.9755e-06	1398.5	377.05	6.3085e-06	7.0079e-06	428.48	144.59	125.73	43.128	5.1952e-06	52.888	0.00058564	0.00056844	0.00015543	1412.3	6.3678e-06	6.1892e-06	1415.2	383.76	6.2721e-06	6.4517e-06	436.47	147.76	128.59	44.357	6.4708e-06	54.398	263.352	244.304	241.293	182.664	324.787	296.445	182.347	187.090	335.812	317.265	186.494	191.012	191.369	195.476	335.210	195.017	-8191	255	
18144.689	1	1	0	0	0.16303	0.14337	0.19034	0.13557	0.26363	0.086705	0.15403	0.1335	0.26327	0.18404	0.22136	0.062532	0.16741	0.28335	0.070581	0.23343	-2.1833	-2.55	-2.6188	-2.6813	-2.5104	-2.8438	-2.8417	-2.6479	-2.8354	-2.4917	-2.875	-2.6937	-2.5833	-3.0479	-2.6146	-2.6167	330.698	209.202	493.583	195.861	245.617	316.811	483.243	463.498	289.934	458.159	426.210	193.296	522.070	462.574	230.928	329.064	0.0005321	0.00053808	0.00011615	1396.3	5.7966e-06	2.746e-06	1393.3	376.52	2.9252e-06	7.4804e-06	429.13	144.25	125.98	43.184	7.5434e-06	53.066	0.0005816	0.00058198	0.00016739	1414.7	6.2425e-06	6.3715e-06	1414	383.33	6.429e-06	6.4678e-06	436.38	147.48	128.84	44.404	6.6634e-06	54.542	263.724	250.933	287.448	182.262	343.097	333.660	182.446	187.000	327.603	327.577	186.406	190.845	191.386	195.925	309.482	194.994	-8191	255	
18144.811	1	1	0	0	0.028255	0.1724	0.10694	0.18079	0.23491	0.1553	0.091259	0.28609	0.093261	0.11489	0.11956	0.19723	0.15762	0.06489	0.155	0.39693	-2.4208	-2.4938	-2.5583	-2.7792	-2.6688	-2.8458	-2.8833	-2.8125	-2.6979	-2.7021	-2.7792	-2.6833	-2.5083	-2.9875	-2.5979	-2.6667	224.697	487.024	390.991	403.152	246.517	392.421	247.837	423.577	432.543	320.710	423.324	252.888	262.159	192.393	244.872	450.899	0.00056112	0.00034196	0.00014415	1392.1	5.1819e-06	7.8458e-06	1397.3	377.27	4.9412e-06	5.7392e-06	427.87	144.04	125.73	43.439	6.4386e-06	52.741	0.00059062	0.00058531	0.00016745	1415	6.4087e-06	6.5374e-06	1414.7	383.63	6.4779e-06	6.4091e-06	436.23	147.73	128.68	44.524	6.3936e-06	54.506	264.525	261.499	232.777	182.433	329.488	341.641	182.123	187.061	324.076	341.234	186.256	190.968	191.476	195.960	311.876	194.920	-8191	255	
18144.906	1	1	0	0	0.3193	0.17844	0.1625	0.32911	0.21161	0.33404	0.28932	0.18222	0.18012	0.13276	0.10706	0.24978	0.18174	0.33545	0.12476	0.11249	-2.3833	-2.4833	-2.65	-2.975	-2.525	-2.7146	-2.9708	-2.6625	-2.7333	-2.5958	-2.65	-2.9271	-2.5708	-2.75	-2.5042	-2.5521	502.921	485.147	280.041	498.588	180.039	488.731	445.254	190.427	344.611	354.037	189.917	433.165	497.883	170.087	307.329	409.233	0.00055841	0.0006988	0.0001202	1393.3	7.2378e-06	7.883e-06	1396.6	376.82	4.6589e-06	5.0729e-06	428.84	144.6	125.88	43.245	5.8469e-06	53.073	0.00059378	0.0005823	0.00016075	1414.3	6.3409e-06	6.387e-06	1414.5	383.81	6.4013e-06	6.3704e-06	437.22	147.92	128.66	44.533	6.2525e-06	54.56	264.562	266.495	279.630	182.258	322.905	343.879	182.253	187.091	322.942	292.839	186.374	190.641	191.337	195.829	329.414	194.984	-8191	255	
18145.002	1	1	0	0	0.25838	0.062788	0.15602	0.16565	0.20691	0.2547	0.39007	0.10303	0.17791	0.27028	0.23427	0.062577	0.2855	0.16567	0.10814	0.062589	-2.2146	-2.5521	-2.4562	-2.8833	-2.5021	-2.7792	-2.8375	-2.5396	-2.85	-2.5604	-2.5021	-2.6521	-2.4729	-2.7729	-2.7292	-2.4667	441.115	347.304	487.118	492.677	195.426	265.407	492.477	382.581	221.855	528.124	499.416	250.640	418.937	430.994	424.374	255.423	0.0005442	0.00034514	0.00012522	1391.4	4.9032e-06	6.3919e-06	1389.8	375.85	6.2182e-06	7.3215e-06	427.98	144.01	125.9	43.205	4.9006e-06	52.935	0.00057211	0.00058643	0.00016023	1412.2	6.2877e-06	6.4399e-06	1412.1	383.01	6.2214e-06	6.377e-06	436.45	147.51	128.53	44.378	6.4269e-06	54.55	263.888	230.505	232.755	182.618	333.183	323.966	182.352	187.048	319.316	324.152	186.605	191.030	191.337	195.836	321.475	195.089	-8191	255	
18145.098	1	1	0	0	0.17484	0.070386	0.054219	0.12708	0.21995	0.2517	0.20666	0.0979	0.098651	0.24303	0.15862	0.15433	0.051816	0.17912	0.17893	0.19281	-2.3417	-2.5646	-2.4104	-2.7625	-2.7	-2.5125	-2.9437	-2.4896	-2.6417	-2.6063	-2.6521	-2.925	-2.7	-2.7917	-2.7875	-2.775	456.613	452.261	499.088	179.703	412.458	324.963	442.313	485.816	511.500	264.893	169.140	498.592	474.251	504.254	311.763	471.716	0.00052601	0.00040396	8.9762e-05	1393.1	6.2916e-06	5.7445e-06	1397.1	376.3	5.1418e-06	8.3355e-06	426.68	144.34	125.91	43.211	6.3708e-06	53.213	0.0005829	0.00057607	0.00015726	1412.5	6.225e-06	6.2532e-06	1414	383.19	6.2399e-06	6.2494e-06	436.09	147.64	128.67	44.43	6.2528e-06	54.614	264.090	236.062	286.301	182.381	302.859	310.180	182.369	186.969	341.116	341.894	186.580	190.782	191.162	195.842	317.449	195.289	-8191	255	
18145.219	1	1	0	0	0.12885	0.1031	0.15617	0.29311	0.16646	0.034909	0.30795	0.2397	0.10271	0.091637	0.071053	0.2254	0.092874	0.18917	0.24685	0.16336	-2.3104	-2.3958	-2.4562	-2.8792	-2.3958	-2.5875	-3.0146	-2.6396	-2.6708	-2.6437	-2.5042	-2.8792	-2.4542	-2.6167	-2.7438	-2.5292	349.162	458.150	373.032	495.197	273.103	495.790	472.453	494.548	387.442	331.828	239.422	371.652	527.176	459.913	365.602	225.536	0.00053891	0.00061417	9.9504e-05	1392.7	6.0952e-06	4.8672e-06	1394.9	376.5	5.4403e-06	5.3871e-06	429.12	145.41	126.09	43.269	4.6396e-06	53.238	0.00056843	0.00056973	0.00015521	1411	6.1705e-06	6.1533e-06	1414.3	383.21	6.1794e-06	6.0858e-06	436.85	148.14	128.81	44.493	6.0861e-06	54.654	263.896	234.996	259.816	182.297	319.171	308.086	182.198	186.918	344.509	324.033	186.587	190.882	191.433	195.922	316.811	195.254	-8191	255	
18145.289	1	1	0	0	0.11151	0.24814	0.23086	0.27368	0.18845	0.15972	0.45209	0.27482	0.082231	0.04863	0.36381	0.31707	0.28318	0.20985	0.29201	0.15295	-2.2042	-2.6854	-2.5042	-2.9583	-2.6167	-2.4562	-3.1333	-2.6125	-2.7167	-2.6167	-2.5938	-2.8	-2.7687	-2.6146	-2.7521	-2.45	521.957	299.870	173.701	178.884	439.024	230.738	461.279	408.013	363.737	380.896	471.945	509.884	499.825	484.796	490.616	189.783	0.00058161	0.00056442	8.8345e-05	1387.6	5.2978e-06	5.8748e-06	1393.7	376.94	5.7722e-06	5.4898e-06	428.72	144.88	126.04	43.242	4.35e-06	53.12	0.00056253	0.00054819	0.00015043	1411.3	6.0866e-06	6.2346e-06	1412.1	383.34	6.2576e-06	6.3418e-06	436.99	147.83	128.51	44.451	6.152e-06	54.569	265.198	258.189	273.736	182.595	358.864	331.713	182.231	187.048	309.227	320.788	186.516	190.931	191.438	195.637	313.739	195.043	-8191	255	
18145.387	1	1	0	0	0.18914	0.25813	0.3351	0.25342	0.06744	0.063189	0.10162	0.10501	0.15312	0.066657	0.12081	0.12988	0.068284	0.12233	0.11851	0.094743	-2.2104	-2.6646	-2.5333	-2.8438	-2.5292	-2.6417	-3.1125	-2.6854	-2.6625	-2.7417	-2.4604	-2.7458	-2.6375	-2.475	-2.7062	-2.7771	217.052	485.423	386.188	226.220	234.388	178.307	386.111	215.845	514.213	239.973	401.942	207.188	368.553	169.810	477.915	450.658	0.00053642	0.00026048	0.00012526	1393.3	6.0028e-06	5.5508e-06	1393.3	376.97	5.9999e-06	5.9781e-06	427.92	144.1	125.41	43.211	5.1812e-06	52.907	0.00057998	0.00057579	0.00015972	1415.3	6.4078e-06	6.3944e-06	1413.4	383.33	6.4215e-06	6.4657e-06	435.94	147.7	128.26	44.318	6.4473e-06	54.518	265.532	251.749	275.669	182.186	328.143	309.075	182.288	187.191	334.294	342.121	186.257	191.056	191.435	195.704	331.892	194.910	-8191	255	
18145.508	1	1	0	0	0.093517	0.12797	0.15125	0.18732	0.32423	0.078077	0.1866	0.17276	0.023732	0.095628	0.1292	0.13462	0.23952	0.16714	0.12911	0.308	-2.0646	-2.7042	-2.5167	-2.8875	-2.5875	-2.3375	-2.9229	-2.6188	-2.5042	-2.9354	-2.6917	-3.0938	-2.675	-2.5708	-2.6688	-2.5625	265.228	254.431	290.244	303.290	429.600	263.394	378.847	473.405	267.210	451.153	435.422	260.624	464.348	524.963	525.010	260.259	0.0005492	0.00035469	0.00015004	1385.7	2.7823e-06	5.4833e-06	1397.5	376.68	6.0643e-06	6.4522e-06	427	144.91	125.88	43.185	4.3217e-06	53.027	0.00057668	0.00057487	0.00016262	1408.5	6.2344e-06	6.3511e-06	1414.4	383.02	6.2665e-06	6.306e-06	435.65	147.86	128.72	44.446	6.3203e-06	54.573	263.610	275.067	274.058	182.455	342.815	322.540	182.235	187.103	311.439	332.942	186.523	191.109	191.220	195.743	305.307	195.133	-8191	255	
18145.602	1	1	0	0	0.088173	0.19001	0.16917	0.154	0.083947	0.083028	0.38966	0.12093	0.20975	0.14411	0.12421	0.22558	0.30424	0.092728	0.093278	0.06425	-2.1146	-2.7729	-2.5271	-2.6521	-2.6958	-2.4292	-2.9917	-2.7417	-2.5208	-2.8604	-2.6312	-2.7792	-2.8479	-2.5938	-2.8542	-2.5687	493.672	415.819	487.050	216.980	204.173	428.685	444.296	264.916	328.829	317.956	178.861	478.341	482.711	518.424	205.191	496.023	0.00052531	0.00054196	0.00012455	1391.9	4.8508e-06	4.0908e-06	1398.8	376.93	3.5975e-06	6.2189e-06	429.11	143.42	124.99	43.022	6.4473e-06	52.848	0.00057257	0.00056867	0.00016061	1414.2	6.2238e-06	6.2921e-06	1417.3	383.26	6.3083e-06	6.512e-06	436.77	146.92	128.04	44.229	6.6779e-06	54.343	264.800	258.135	269.600	182.463	323.360	333.544	182.272	187.047	331.028	316.254	186.345	190.778	191.504	196.072	320.284	195.162	-8191	255	
18145.697	1	1	0	0	0.23058	0.18362	0.1698	0.21427	0.18232	0.11064	0.12194	0.043397	0.096132	0.29426	0.044869	0.17614	0.27691	0.25091	0.12106	0.13414	-1.6583	-2.8604	-2.5042	-2.6104	-2.8375	-2.4771	-2.7438	-2.7458	-2.5521	-2.85	-2.6958	-2.5646	-2.8896	-2.7083	-2.6854	-2.8229	383.900	405.505	299.105	497.098	478.744	187.516	498.996	497.372	380.577	253.019	462.574	474.642	511.396	184.748	350.226	327.367	0.00051652	0.00040559	0.00014654	1392.7	4.4306e-06	4.8468e-06	1397.8	375.68	5.7383e-06	7.1101e-06	428.78	143.17	124.92	42.693	5.2634e-06	52.576	0.00059376	0.00061422	0.00016724	1414.6	6.777e-06	6.747e-06	1416	383.1	6.8708e-06	7.0808e-06	436.15	146.54	127.76	43.955	7.1201e-06	54.173	265.820	273.500	272.991	182.370	308.165	332.219	182.293	186.981	301.798	325.639	186.305	190.843	191.327	195.785	300.316	194.981	-8191	255	
18145.795	1	1	0	0	0.1551	0.21229	0.16822	0.26273	0.11129	0.094434	0.14771	0.41257	0.23295	0.14983	0.22347	0.15683	0.24017	0.21126	0.12323	0.0091643	-2	-2.6958	-2.4271	-2.5833	-2.7979	-2.6021	-2.6792	-2.7417	-2.4646	-2.9292	-2.6479	-2.5146	-2.9354	-2.4667	-2.6229	-2.8063	424.835	506.126	345.992	223.575	395.917	392.220	204.225	458.971	181.697	207.608	446.327	370.765	509.131	486.152	291.367	169.824	0.00055126	0.00058767	0.00019694	1391.9	3.8193e-06	8.1818e-06	1393.7	374.07	5.2885e-06	3.0746e-06	426.46	142.11	124.1	42.589	5.4585e-06	52.511	0.00063296	0.00064812	0.00017916	1415.4	7.0262e-06	7.2028e-06	1414.6	381.42	7.064e-06	7.2245e-06	435.83	145.78	127.11	43.76	7.3607e-06	53.956	263.345	249.369	253.904	182.512	309.037	336.993	182.271	187.095	321.685	320.876	186.479	191.093	191.257	195.763	309.513	195.104	-8191	255	
18145.891	1	1	0	0	0.32457	0.12283	0.13632	0.13126	0.28619	0.057742	0.11853	0.052051	0.079139	0.073858	0.10642	0.31289	0.18206	0.22201	0.020256	0.13866	-2.1542	-2.725	-2.5438	-2.4875	-2.825	-2.6312	-2.8958	-2.7938	-2.4896	-2.8854	-2.7854	-2.6521	-2.8729	-2.5125	-2.6271	-2.8604	395.728	268.490	418.056	190.818	477.735	404.026	516.082	358.078	440.051	212.223	454.501	522.030	398.311	520.886	225.468	405.707	0.00053938	0.00037429	0.00012799	1391.9	5.2509e-06	5.2485e-06	1390.3	374.34	4.8413e-06	5.6988e-06	428.36	142.65	125.12	42.936	4.3292e-06	52.629	0.00063255	0.0006432	0.00017567	1413.5	6.8605e-06	6.9951e-06	1412.7	381.56	6.8217e-06	6.9679e-06	435.86	146.19	127.81	44.056	6.7318e-06	54.266	264.184	262.256	274.964	182.572	345.212	366.287	182.302	187.128	336.205	337.544	186.520	190.939	191.554	195.889	337.247	195.120	-8191	255	
18145.986	1	1	0	0	0.19074	0.12605	0.13623	0.31187	0.15085	0.14703	0.376	0.1189	0.16051	0.095239	0.48096	0.18449	0.13162	0.3078	0.19234	0.39631	-2.0354	-2.6688	-2.6208	-2.6542	-2.8146	-2.5417	-2.8667	-2.9958	-2.4917	-2.6083	-2.7646	-2.5417	-2.7875	-2.5333	-2.3271	-3.0542	337.141	375.510	359.923	449.094	321.082	258.258	440.292	444.785	223.132	364.215	442.789	470.141	339.843	479.542	498.231	439.869	0.00056204	0.00069496	0.00015217	1397	6.3976e-06	3.5952e-06	1399.8	374.94	5.4398e-06	6.4769e-06	427.83	143.19	124.69	42.59	5.4459e-06	52.698	0.00061192	0.00061739	0.00017169	1418.4	6.8081e-06	6.74e-06	1417.8	382.61	6.94e-06	7.0622e-06	435.77	146.41	127.71	43.901	7.1861e-06	54.205	264.365	255.245	255.328	182.536	304.710	311.951	182.133	187.212	319.696	305.500	186.559	191.132	191.468	195.725	304.572	195.310	-8191	255	
18146.107	1	1	0	0	0.15485	0.16228	0.10956	0.14777	0.12224	0.22433	0.096108	0.23831	0.13781	0.11039	0.055255	0.15152	0.26808	0.27306	0.0089373	0.2942	-2.1271	-2.7083	-2.6083	-2.4562	-2.7604	-2.575	-2.8563	-2.8958	-2.6604	-2.675	-2.8625	-2.5042	-2.9271	-2.6042	-2.5417	-2.9604	184.408	411.229	380.073	287.016	384.174	253.723	250.271	476.307	527.861	414.521	284.976	371.940	188.298	467.513	292.909	460.708	0.00054063	0.00056441	0.00017601	1392.4	4.5573e-06	8.3505e-06	1392.3	374.24	6.4264e-06	5.6322e-06	428.14	142.5	124.09	42.469	5.0027e-06	52.332	0.00065021	0.00065341	0.0001848	1413.9	7.3317e-06	7.384e-06	1414.9	381.71	7.3078e-06	7.4419e-06	434.68	145.95	127.09	43.781	7.3509e-06	53.903	263.879	255.421	255.089	182.454	352.870	317.832	182.319	187.036	309.705	333.161	186.419	190.988	191.264	195.854	318.556	195.005	-8191	255	
18146.203	1	1	0	0	0.16878	0.15771	0.091749	0.048155	0.082196	0.12993	0.20899	0.12817	0.073111	0.15764	0.2407	0.31001	0.15224	0.19511	0.35982	0.13736	-2.0438	-2.4188	-2.7292	-2.5917	-2.7938	-2.6271	-2.6312	-2.8688	-2.4542	-2.6188	-2.9354	-2.6958	-2.8271	-2.8354	-2.3896	-2.8021	279.774	188.922	507.926	521.445	245.401	180.077	426.808	511.686	354.098	430.498	182.974	516.883	225.795	512.042	326.263	494.543	0.00055832	0.00049154	0.00019559	1389.9	5.9091e-06	5.8585e-06	1394.1	373.91	3.9824e-06	2.5419e-06	427.83	142.58	124.45	42.884	4.4307e-06	52.556	0.00063786	0.00065529	0.00017981	1413.2	7.268e-06	7.299e-06	1414.1	381.64	7.126e-06	7.2803e-06	435.48	146.11	127.33	43.912	7.3048e-06	54.061	260.936	254.641	244.216	182.579	296.739	308.592	182.347	187.076	352.675	341.144	186.422	190.803	191.512	195.976	289.483	195.182	-8191	255	
18146.299	1	1	0	0	0.13694	0.13769	0.13614	0.20287	0.053182	0.096505	0.3676	0.15523	0.06122	0.37468	0.2251	0.20776	0.2377	0.20157	0.1711	0.15421	-2.2417	-2.3875	-2.7646	-2.4771	-2.6854	-2.65	-2.6479	-3.0521	-2.5042	-2.3958	-3.0271	-2.4979	-2.8521	-2.9917	-2.5854	-2.9083	515.849	501.458	186.274	487.000	288.024	496.375	494.545	179.216	265.058	334.472	183.721	466.890	421.391	171.825	251.081	179.802	0.00053802	0.00044201	0.00014493	1399.3	3.8163e-06	4.3899e-06	1395.9	374.32	5.9017e-06	6.4736e-06	426.02	142.29	123.68	42.508	5.1779e-06	52.196	0.00064299	0.00065944	0.0001839	1418.1	7.2e-06	7.3294e-06	1414.6	381.98	7.4116e-06	7.3368e-06	434.67	146.05	127.11	43.815	7.4263e-06	53.954	263.404	252.007	254.375	182.533	333.722	298.189	182.388	187.200	314.177	300.318	186.392	190.997	191.517	195.682	333.924	195.085	-8191	255	
18146.395	1	1	0	0	0.24259	0.15046	0.041644	0.092139	0.08126	0.30669	0.21246	0.16963	0.15182	0.19715	0.01492	0.13672	0.20189	0.13529	0.12637	0.046513	-2.1854	-2.5062	-2.9375	-2.6083	-2.9125	-2.9125	-2.7562	-3.1	-2.6417	-2.5146	-2.875	-2.6063	-2.5729	-2.8854	-2.5687	-2.7292	503.364	327.679	244.882	172.166	233.667	322.000	501.681	459.573	389.742	331.141	459.536	217.389	452.228	446.211	371.054	384.354	0.00053529	0.00027443	0.00014205	1395.8	4.7061e-06	5.8161e-06	1398.7	373.95	6.832e-06	1.386e-06	425.23	142.18	123.94	42.462	4.2571e-06	52.327	0.00065167	0.0006666	0.00018803	1416.2	7.3917e-06	7.5858e-06	1414.9	381.27	7.3889e-06	7.5208e-06	434.12	145.56	126.92	43.677	7.3999e-06	53.831	266.564	250.075	273.268	182.225	330.322	341.977	182.329	187.040	323.946	337.956	186.398	190.880	191.412	195.960	328.607	195.164	-8191	255	
18146.514	1	1	0	0	0.21391	0.16593	0.18809	0.3131	0.27093	0.19158	0.19535	0.33883	0.17916	0.1288	0.26188	0.21513	0.096733	0.067882	0.18007	0.15217	-2.2354	-2.4854	-2.8792	-2.6208	-2.7417	-2.6271	-2.6104	-2.8812	-2.6646	-2.4146	-2.8625	-2.7833	-2.5812	-2.7021	-2.55	-2.7354	246.837	527.663	485.105	471.877	408.269	372.405	500.898	481.902	454.387	431.243	466.317	527.606	221.369	364.725	230.878	508.869	0.00053589	0.00054516	0.00015235	1389.7	5.2184e-06	5.3919e-06	1389.4	372.53	3.8239e-06	6.1768e-06	425.25	141.81	123.67	42.45	4.8094e-06	52.243	0.00063718	0.00067031	0.00018603	1412.7	7.3044e-06	7.1805e-06	1409.7	380.12	7.1828e-06	7.1568e-06	433.57	145.25	126.7	43.552	7.3336e-06	53.691	263.936	270.881	262.222	182.361	342.471	317.401	182.302	186.962	317.034	305.013	186.279	190.668	191.543	195.855	316.364	195.278	-8191	255	
18146.586	1	1	0	0	0.10307	0.060429	0.25622	0.2866	0.061581	0.15265	0.09424	0.24238	0.21913	0.18183	0.22966	0.30381	0.15974	0.22279	0.09917	0.10645	-2.2875	-2.3229	-2.5771	-2.4833	-2.4875	-2.875	-2.5604	-2.6708	-2.5021	-2.5292	-2.775	-2.7479	-2.6667	-2.8271	-2.6167	-2.7208	307.426	245.154	293.907	469.167	223.146	368.352	438.690	496.313	503.157	433.871	206.478	490.093	384.689	207.071	327.547	188.729	0.00052332	0.00015639	0.00019833	1394.7	2.6594e-06	3.3608e-06	1395.2	373.35	5.7373e-06	4.0049e-06	424.98	142.11	124.31	42.459	3.3817e-06	52.43	0.00062702	0.00064244	0.00018053	1412.3	7.1751e-06	7.0327e-06	1410.6	380.5	6.8768e-06	7.0022e-06	433.79	145.4	127.04	43.711	6.9055e-06	53.938	264.695	257.475	246.446	182.533	328.948	311.432	182.295	186.837	310.878	308.718	186.542	191.147	191.411	195.832	306.579	195.403	-8191	255	
18146.682	1	1	0	0	0.11928	0.12117	0.064539	0.36582	0.096159	0.22671	0.15818	0.22578	0.092193	0.31759	0.13848	0.22593	0.058257	0.16906	0.022945	0.26508	-2.2	-2.4208	-2.7875	-2.5854	-2.6917	-2.6979	-2.7375	-2.7604	-2.6813	-2.4021	-2.7729	-2.8042	-2.7458	-2.8542	-2.7438	-2.7042	254.468	316.755	468.343	181.275	373.601	269.637	182.848	479.560	271.758	403.657	186.439	489.151	370.869	495.630	478.335	426.553	0.00057448	0.00041689	0.000144	1389.6	5.4872e-06	5.8822e-06	1393.1	374.43	3.339e-06	4.7866e-06	425.29	142.7	123.7	42.555	3.5015e-06	52.248	0.00062069	0.00063933	0.00017751	1412.2	6.9044e-06	6.8358e-06	1413	380.99	6.9843e-06	6.9303e-06	433.91	145.65	126.8	43.753	7.0604e-06	53.831	264.822	265.213	288.619	182.403	337.101	344.106	182.219	187.089	334.283	321.809	186.374	190.960	191.535	195.731	317.535	195.021	-8191	255	
18146.777	1	1	0	0	0.037311	0.06712	0.084847	0.34188	0.035483	0.095806	0.32141	0.28527	0.12415	0.11245	0.098046	0.16626	0.069146	0.25811	0.3206	0.18619	-2.3917	-2.5521	-2.6146	-2.7229	-2.4646	-2.8042	-2.7958	-2.7854	-2.7375	-2.375	-2.6833	-2.775	-2.3875	-2.8667	-2.3625	-2.7167	313.717	206.431	293.514	505.124	186.674	344.411	432.744	447.728	427.335	517.520	242.565	347.676	173.282	377.610	320.358	495.410	0.00051603	0.00036742	0.00010533	1386.9	2.8562e-06	6.0669e-06	1393.2	372.64	4.6855e-06	5.3203e-06	426.37	142.24	124.47	42.665	5.4291e-06	52.417	0.00062303	0.00064165	0.00017914	1414	6.9218e-06	7.0642e-06	1411.7	380.76	6.9779e-06	6.9187e-06	434.44	145.77	127.2	43.861	7.2339e-06	54.069	264.896	207.502	251.441	182.254	327.718	339.613	182.120	187.051	327.554	310.238	186.461	190.952	191.542	195.777	340.488	194.983	-8191	255	
18146.898	1	1	0	0	0.17579	0.26941	0.059859	0.072586	0.15446	0.30199	0.10807	0.034582	0.17665	0.19399	0.33734	0.094473	0.3587	0.21338	0.24158	0.11951	-2.2313	-2.525	-2.7375	-2.6229	-2.5812	-2.8917	-2.675	-2.5583	-2.7208	-2.3375	-2.6063	-2.825	-2.3563	-2.7271	-2.5979	-2.6229	517.401	331.388	191.100	391.755	420.844	439.489	425.857	412.049	368.230	222.344	483.522	195.281	510.284	464.104	293.082	188.814	0.00052052	0.00045136	0.00014031	1399.6	4.0082e-06	6.7063e-06	1393.3	374.07	5.6819e-06	7.3554e-06	426.85	143	124.25	42.624	5.9011e-06	52.526	0.00062476	0.00063829	0.00017855	1416.2	7.0032e-06	7.1125e-06	1414.1	381.47	6.9529e-06	7.0952e-06	434.65	146.2	127.18	43.881	7.1109e-06	54.037	265.103	255.187	267.383	182.658	302.207	337.893	182.205	187.052	331.277	307.473	186.405	190.778	191.422	195.975	304.100	195.258	-8191	255	
18146.994	1	1	0	0	0.28835	0.17323	0.18259	0.080926	0.13158	0.12979	0.33414	0.41846	0.087931	0.17595	0.29024	0.14825	0.13927	0.24825	0.18457	0.2711	-2.1208	-2.5229	-2.6125	-2.6083	-2.4104	-2.8	-2.7438	-2.5938	-2.9708	-2.4979	-2.7	-2.9354	-2.5312	-2.7958	-2.6458	-2.3688	173.952	265.200	254.113	380.453	279.401	522.817	455.100	497.726	258.899	337.516	474.837	460.066	470.363	169.130	461.376	310.250	0.00051051	0.0004261	0.00015845	1389.8	3.0812e-06	3.4615e-06	1393.1	375.34	2.1029e-06	6.3609e-06	426.87	142.21	124.95	42.603	4.9797e-06	52.491	0.00062253	0.00063571	0.00017993	1413.1	6.8747e-06	7.0596e-06	1411.3	381.92	6.8982e-06	7.0164e-06	434.79	146.12	127.75	43.933	6.9402e-06	54.012	264.098	263.305	274.628	182.786	323.984	325.139	182.243	186.927	298.334	333.419	186.750	190.905	191.435	195.559	333.688	195.042	-8191	255	
18147.092	1	1	0	0	0.22949	0.085317	0.19246	0.25597	0.20934	0.031309	0.13681	0.21087	0.39295	0.057694	0.35755	0.17187	0.087553	0.1017	0.17397	0.0041228	-2.2604	-2.5271	-2.4854	-2.8833	-2.4167	-2.7	-3.0083	-2.7229	-2.8208	-2.5958	-2.4604	-2.7354	-2.4458	-2.5625	-2.6625	-2.5208	226.530	324.065	313.050	479.052	468.678	492.644	413.546	487.214	317.855	251.043	456.161	177.098	465.097	384.809	491.368	285.400	0.00056078	0.00059647	7.3546e-05	1392.7	4.2301e-06	6.6344e-06	1400.2	374.43	2.5492e-06	6.3133e-06	427.96	142.91	124.75	42.848	1.8995e-06	52.811	0.00062181	0.00061867	0.00017329	1415.9	6.9674e-06	6.8491e-06	1414	381.58	6.924e-06	6.8025e-06	436.08	146.32	127.52	44.098	7.0868e-06	54.235	263.307	266.360	266.678	182.271	327.975	335.443	182.255	187.051	314.168	314.696	186.460	190.960	191.412	195.746	334.412	195.030	-8191	255	
18147.188	1	1	0	0	0.34387	0.1499	0.26702	0.048649	0.011412	0.17051	0.26759	0.21021	0.23198	0.23404	0.22378	0.18209	0.31036	0.25456	0.32662	0.31612	-2.3542	-2.5417	-2.4062	-2.85	-2.675	-2.4458	-2.8958	-2.7271	-2.6208	-2.5958	-2.6917	-2.8438	-2.5271	-2.7083	-2.8896	-2.4625	259.199	276.247	248.465	179.412	483.487	428.433	444.612	509.803	325.529	503.858	323.465	478.801	473.960	462.795	242.124	478.583	0.00056826	0.00031818	0.00024922	1396.9	4.941e-06	7.3528e-06	1396.4	376.12	3.9645e-06	2.7388e-06	426.84	143.27	125.24	42.989	4.7681e-06	52.55	0.00063255	0.00064043	0.00017573	1415.8	6.9482e-06	7.0561e-06	1415.2	382.36	6.9806e-06	7.05e-06	435.46	146.52	127.91	44.096	7.0408e-06	54.249	260.807	264.151	248.402	182.408	300.846	320.199	182.220	187.270	316.752	335.787	186.674	190.918	191.468	196.030	344.337	195.090	-8191	255	
18147.283	1	1	0	0	0.051884	0.07233	0.13559	0.26089	0.034434	0.31174	0.087498	0.3103	0.16265	0.22345	0.27921	0.13021	0.27328	0.45042	0.17928	0.25954	-2.1917	-2.6125	-2.4083	-2.9875	-2.4667	-2.6042	-2.9167	-2.6063	-2.7687	-2.5771	-2.4042	-2.7854	-2.6437	-2.4792	-2.7625	-2.6104	436.750	357.082	405.404	510.240	476.068	394.526	285.358	509.496	170.114	394.806	454.114	507.975	513.770	493.608	348.746	482.915	0.00051852	0.0005734	0.00012215	1391.7	3.3626e-06	4.2355e-06	1403.3	375.83	5.351e-06	4.9895e-06	427.35	144	125.53	42.984	3.2097e-06	53.032	0.00062857	0.00062661	0.00017899	1416.6	6.9891e-06	7.0013e-06	1417.4	382.97	7.0066e-06	7.0391e-06	435.82	147.3	128.22	44.312	6.9163e-06	54.541	263.648	260.807	258.320	182.508	315.580	344.118	182.287	187.065	318.459	346.613	186.480	190.848	191.357	195.824	305.701	195.028	-8191	255	
18147.381	1	1	0	0	0.12082	0.27717	0.25847	0.31087	0.20518	0.25053	0.23641	0.080432	0.23355	0.13619	0.22805	0.23367	0.13534	0.14501	0.24493	0.18187	-2.3229	-2.5583	-2.3542	-2.8583	-2.5229	-2.4437	-2.9333	-2.6604	-2.7917	-2.7104	-2.4896	-2.7146	-2.5125	-2.7292	-2.6375	-2.6375	459.974	343.560	309.836	486.930	186.965	212.975	459.363	484.976	177.146	377.551	222.926	493.573	247.387	497.527	252.883	514.348	0.00055312	0.00040135	0.00019388	1403.5	5.3629e-06	5.632e-06	1398.5	376.66	6.0544e-06	5.0452e-06	429.24	143.73	125.53	43.09	7.0605e-06	52.94	0.00062455	0.00063414	0.00017461	1421.1	7.0379e-06	7.0609e-06	1416.8	383.76	6.9317e-06	6.9237e-06	436.84	147.53	128.43	44.395	7.0212e-06	54.444	266.912	264.255	268.413	182.407	317.216	313.897	182.274	187.009	326.399	329.311	186.297	190.949	191.269	196.002	320.697	195.090	-8191	255	
18147.477	1	1	0	0	0.20939	0.11893	0.22061	0.11229	0.15342	0.098471	0.31017	0.059142	0.098395	0.12933	0.14952	0.12824	0.33595	0.26825	0.099347	0.17786	-2.025	-2.7	-2.3792	-2.6771	-2.7458	-2.45	-3.2167	-2.7042	-2.6167	-2.4771	-2.4708	-2.8625	-2.8792	-2.3396	-2.6979	-2.7083	446.717	396.003	291.684	306.353	377.044	400.633	482.411	461.568	325.078	237.510	230.936	447.277	204.506	222.446	460.096	441.711	0.00054458	0.00041607	0.00015381	1396.5	6.2887e-06	4.9669e-06	1398.7	376.84	5.4985e-06	5.9616e-06	427.58	144.54	125.6	43.181	3.7673e-06	53.221	0.00062358	0.0006286	0.00017526	1420	6.9525e-06	6.8102e-06	1418.8	383.6	7.001e-06	6.844e-06	436.81	147.39	128.69	44.376	6.973e-06	54.609	260.865	249.757	267.919	182.446	317.718	340.201	182.204	186.998	312.660	340.238	186.335	190.968	191.257	195.727	323.071	195.128	-8191	255	
18147.596	1	1	0	0	0.29135	0.2552	0.13862	0.060066	0.19579	0.14404	0.30187	0.26538	0.0173	0.1459	0.3265	0.23949	0.17153	0.051796	0.15687	0.19934	-2.0833	-2.8083	-2.425	-2.5438	-2.5917	-2.4042	-2.9313	-2.725	-2.5417	-2.8833	-2.5042	-2.7521	-2.85	-2.6708	-2.8208	-2.6833	297.530	383.519	460.687	442.296	348.176	454.162	430.779	453.276	466.457	297.620	474.351	199.795	253.569	271.945	340.998	467.335	0.00056042	0.00048702	9.0426e-05	1397.2	4.5162e-06	6.8202e-06	1400.2	377.37	4.5356e-06	3.2027e-06	429.38	144.37	125.72	43.185	6.1304e-06	53.131	0.00061688	0.00061993	0.00017269	1422	6.8579e-06	6.749e-06	1419.7	384.27	6.7896e-06	6.8783e-06	437.12	147.44	128.53	44.394	7.0131e-06	54.581	261.801	267.266	251.116	182.264	319.328	313.041	182.132	186.950	304.289	358.062	186.456	191.109	191.251	195.866	312.000	195.081	-8191	255	
18147.691	1	1	0	0	0.11687	0.085122	0.1776	0.21401	0.14296	0.082778	0.16945	0.098246	0.17396	0.18619	0.2032	0.12634	0.046826	0.045325	0.26193	0.22256	-2.1021	-2.8875	-2.5	-2.6646	-2.6792	-2.6833	-2.7792	-2.7188	-2.6021	-2.8063	-2.5187	-2.8771	-2.8854	-2.4667	-2.7229	-2.6042	459.959	389.053	308.970	214.601	459.697	244.031	478.901	478.166	285.192	335.311	500.604	479.431	450.736	323.927	301.178	445.434	0.00055718	0.00055042	0.00012546	1393.1	6.9829e-06	6.1314e-06	1396.1	377.77	3.634e-06	4.6266e-06	429.2	143.99	125.32	43.184	2.9974e-06	52.997	0.00062008	0.00063386	0.00017553	1418.2	6.9374e-06	6.9328e-06	1418.5	383.68	6.857e-06	6.9432e-06	437.31	147.39	128.56	44.428	7.0227e-06	54.506	263.024	274.298	269.785	182.319	331.148	314.924	182.262	186.969	340.668	305.783	186.160	191.028	191.222	195.936	324.992	195.194	-8191	255	
18147.787	1	1	0	0	0.090281	0.042257	0.33664	0.16059	0.16801	0.26843	0.39843	0.15554	0.18291	0.13031	0.12533	0.18218	0.17183	0.19918	0.37395	0.38115	-1.8854	-2.8521	-2.5	-2.5854	-2.7396	-2.625	-2.8563	-2.8854	-2.4062	-2.775	-2.6292	-2.6937	-2.8625	-2.6625	-2.7188	-2.8354	515.108	344.066	276.056	286.148	382.535	354.608	464.849	424.572	378.682	217.012	471.943	526.882	424.966	449.829	413.346	202.463	0.00054419	0.00044869	0.00014639	1396.9	6.1488e-06	4.3057e-06	1403.2	376.4	6.7007e-06	7.2071e-06	427.45	144.06	125.95	43.188	3.5723e-06	52.672	0.00061491	0.00064192	0.00017466	1420.1	6.9295e-06	6.9451e-06	1421.2	383.74	6.8907e-06	7.0264e-06	436.76	147.85	128.75	44.386	6.9956e-06	54.452	265.220	264.938	265.067	182.448	328.185	361.564	182.219	186.911	345.224	334.346	186.404	190.947	191.473	195.799	349.853	195.195	-8191	255	
18147.883	1	1	0	0	0.2772	0.0055391	0.18265	0.096634	0.16838	0.2772	0.3388	0.1639	0.20859	0.079688	0.045551	0.041425	0.18838	0.21315	0.042388	0.068589	-2.1521	-2.7583	-2.5812	-2.5146	-2.7042	-2.5208	-2.9146	-3.0187	-2.4875	-2.7333	-2.8729	-2.4875	-2.8021	-2.5583	-2.65	-2.9583	375.917	392.269	176.685	347.522	302.192	523.517	459.357	485.536	526.944	239.679	245.150	367.901	475.124	242.730	501.546	494.514	0.00055095	0.00036392	0.00013267	1394.7	6.8441e-06	7.0353e-06	1399.7	376.48	4.4339e-06	4.8483e-06	428.91	143.24	125.97	43.158	6.5454e-06	52.905	0.00063019	0.00064721	0.00018436	1419.3	7.046e-06	7.1119e-06	1417.7	383.55	7.1391e-06	7.1769e-06	436.67	147.04	128.55	44.334	7.2006e-06	54.465	264.555	251.564	250.530	182.266	320.651	326.631	182.320	187.042	345.735	350.352	186.484	190.943	191.540	195.773	315.286	195.157	-8191	255	
18147.979	1	1	0	0	0.20932	0.29477	0.13368	0.13591	0.12631	0.18918	0.20705	0.40648	0.11674	0.2706	0.15342	0.27572	0.26464	0.16355	0.094188	0.2275	-1.8396	-2.5187	-2.7104	-2.4208	-2.8125	-2.4604	-2.7208	-2.9729	-2.5083	-2.825	-2.7917	-2.5021	-2.9313	-2.5333	-2.3771	-2.8167	275.216	230.451	408.412	303.430	184.255	421.972	448.096	476.133	184.495	508.406	292.648	398.534	523.949	514.527	476.484	178.808	0.00054284	0.00043976	0.0001573	1400	6.2815e-06	4.0167e-06	1401.9	375.71	4.6313e-06	4.7024e-06	428.18	144.24	125.96	42.994	5.8454e-06	53.139	0.00063603	0.00063917	0.00017771	1419.1	7.0867e-06	7.0721e-06	1419.6	382.88	7.0881e-06	7.1031e-06	436.8	147.28	128.63	44.319	7.0515e-06	54.498	261.145	210.417	247.747	182.560	320.850	316.773	182.238	187.003	324.832	342.701	186.404	190.721	191.260	195.747	323.540	195.025	-8191	255	
18148.074	1	1	0	0	0.33593	0.30135	0.13118	0.1076	0.14062	0.28436	0.19108	0.06978	0.049746	0.074704	0.14048	0.25464	0.19733	0.19541	0.0068939	0.11702	-2.05	-2.7208	-2.6417	-2.675	-2.7396	-2.4521	-2.5438	-2.9896	-2.325	-2.6896	-2.825	-2.4917	-2.8854	-2.6229	-2.5583	-2.9375	292.250	287.771	490.358	524.263	373.333	388.412	185.881	345.807	519.974	172.861	457.404	447.692	179.657	520.942	465.336	452.753	0.00053973	0.0007685	0.00020982	1404.5	5.2786e-06	4.9823e-06	1399	376.35	6.1133e-06	5.6331e-06	429.25	144.22	125.25	43.01	5.6175e-06	52.924	0.00063566	0.00065757	0.00018252	1422.1	7.0778e-06	7.2413e-06	1420.9	383.22	7.0975e-06	7.1704e-06	436.7	147.28	128.41	44.319	6.9577e-06	54.479	264.301	237.964	252.553	182.319	324.807	316.177	182.362	187.299	314.289	335.189	186.302	190.783	191.424	195.705	312.517	195.004	-8191	255	
18148.195	1	1	0	0	0.073409	0.050122	0.12843	0.21476	0.030966	0.11297	0.24984	0.10554	0.11895	0.18483	0.23737	0.29278	0.27408	0.19435	0.08274	0.22227	-2.1104	-2.5708	-2.7479	-2.3854	-2.6583	-2.5958	-2.6646	-2.9562	-2.6021	-2.8438	-2.9688	-2.4896	-2.7687	-2.8229	-2.2979	-2.7	334.992	497.517	253.900	498.712	419.923	414.152	408.176	453.844	171.943	324.754	237.539	450.990	488.771	472.295	300.790	478.649	0.00055055	0.00050405	9.8961e-05	1404.6	4.5173e-06	4.9486e-06	1404.2	377.52	4.5286e-06	7.1935e-06	428.35	143.74	125.33	43.13	4.9661e-06	52.676	0.00062244	0.00064812	0.00018039	1422.5	7.1951e-06	7.111e-06	1419.7	383.78	7.1316e-06	7.0487e-06	436.65	147.26	128.38	44.346	7.0099e-06	54.366	263.724	255.680	240.153	182.352	359.696	308.178	182.382	187.117	330.683	348.675	186.338	191.018	191.100	195.831	297.265	195.141	-8191	255	
18148.293	1	1	0	0	0.27813	0.073786	0.13705	0.12199	0.085497	0.1727	0.18162	0.23883	0.20109	0.056358	0.085909	0.23838	0.13025	0.22679	0.12412	0.11908	-1.8771	-2.5812	-2.8604	-2.5542	-2.775	-2.5792	-2.5854	-2.8563	-2.5375	-2.7083	-2.925	-2.5812	-2.9813	-2.6708	-2.3896	-2.8271	517.369	307.677	202.625	370.058	305.128	362.085	482.686	468.550	273.915	342.893	453.970	489.117	504.493	493.958	183.760	282.444	0.00051719	0.00029659	9.5186e-05	1397.1	4.937e-06	4.6538e-06	1393.1	375.04	2.9124e-06	5.4981e-06	427.61	143.49	125.19	42.86	2.7763e-06	52.859	0.00062445	0.00064572	0.0001778	1419.6	7.1078e-06	7.1807e-06	1416.5	383.31	7.0555e-06	7.1276e-06	436.34	146.97	128.2	44.137	7.1297e-06	54.447	266.162	246.947	270.174	182.384	301.079	298.135	181.951	186.921	329.580	295.855	186.463	190.780	191.312	195.756	304.968	194.979	-8191	255	
18148.389	1	1	0	0	0.19105	0.054489	0.17623	0.25035	0.14181	0.15372	0.30358	0.39	0.17608	0.10242	0.068321	0.13159	0.12935	0.46466	0.21044	0.26544	-2.0646	-2.6208	-2.6896	-2.5812	-2.6917	-2.8208	-2.4979	-2.8312	-2.575	-2.3146	-2.9833	-2.6729	-2.7625	-2.9167	-2.5958	-2.8688	524.029	243.594	306.995	178.322	224.378	242.701	192.118	221.366	279.708	297.037	222.692	509.780	456.173	480.968	349.995	501.239	0.00053131	0.00055792	0.00016065	1399	5.2523e-06	4.7441e-06	1402.3	374.18	3.45e-06	5.8789e-06	429.74	143.64	125.26	43.034	2.972e-06	52.908	0.00062881	0.00064594	0.00017892	1419.4	7.1736e-06	7.315e-06	1419.8	382.77	7.1218e-06	7.2776e-06	437.21	147.16	128.39	44.252	7.2541e-06	54.458	261.522	287.569	294.233	182.655	324.132	311.029	182.266	187.040	346.916	316.275	186.398	190.923	191.337	195.886	297.211	195.037	-8191	255	
18148.461	1	1	0	0	0.35945	0.085536	0.12375	0.064506	0.252	0.22404	0.24658	0.090484	0.099359	0.29337	0.25627	0.18349	0.17224	0.11641	0.19316	0.086302	-2.2208	-2.4521	-2.8604	-2.5417	-2.7729	-2.6875	-2.6167	-2.7854	-2.5292	-2.4646	-2.9604	-2.6458	-2.6542	-2.7354	-2.5	-3.0583	366.148	430.341	191.225	248.800	457.190	449.081	482.692	438.933	504.389	294.601	170.959	488.658	511.651	519.246	430.167	264.819	0.00055638	0.00042688	0.00011839	1402.9	3.2191e-06	5.8722e-06	1399.1	376.87	4.6848e-06	5.811e-06	427.1	143.49	125.32	43.079	4.5597e-06	52.87	0.00063669	0.00065299	0.00018147	1422.4	7.1195e-06	7.2105e-06	1420.3	383.76	7.2123e-06	7.1979e-06	435.91	147.08	128.48	44.3	7.344e-06	54.421	265.014	263.519	277.068	182.577	298.233	334.689	182.319	187.286	310.999	326.979	186.422	190.876	191.396	195.948	312.021	195.136	-8191	255	
18148.557	1	1	0	0	0.46136	0.27682	0.16706	0.36774	0.12673	0.14265	0.2281	0.15185	0.050853	0.038234	0.28223	0.19934	0.24702	0.2356	0.23906	0.12339	-2.2792	-2.3729	-2.8125	-2.5625	-2.4062	-2.8937	-2.5354	-2.8833	-2.6667	-2.3854	-2.9458	-2.65	-2.6333	-2.8063	-2.4833	-2.7896	455.042	290.993	286.269	523.041	382.262	337.408	440.291	235.498	475.874	238.935	171.306	503.213	455.920	527.643	317.298	345.169	0.00052203	0.00058912	0.0001044	1399.3	4.8386e-06	5.7734e-06	1394.1	375.6	3.8381e-06	4.5709e-06	429.13	142.96	124.82	42.713	3.0463e-06	52.71	0.00063887	0.00065325	0.00018485	1416.4	7.2756e-06	7.2608e-06	1415.9	383	7.2485e-06	7.4406e-06	435.31	146.78	127.85	44.074	7.6833e-06	54.207	264.460	277.833	276.423	182.311	322.689	329.858	182.302	187.069	315.664	328.070	186.449	190.822	191.373	195.900	358.006	195.022	-8191	255	
18148.676	1	1	0	0	0.053662	0.062332	0.060231	0.21516	0.038531	0.23495	0.30132	0.044524	0.0069428	0.20002	0.18866	0.24183	0.39861	0.15443	0.27191	0.19617	-2.2417	-2.4313	-2.6813	-2.6917	-2.3917	-2.8521	-2.6292	-2.8812	-2.8438	-2.5333	-2.9792	-2.7	-2.45	-2.6979	-2.4417	-2.7771	349.110	359.836	384.192	448.662	328.398	500.113	468.236	418.941	499.965	277.083	445.367	494.042	503.856	511.066	283.873	443.613	0.00053102	0.00062913	0.00018877	1393.3	6.5956e-06	6.5333e-06	1391.2	374.49	4.5412e-06	7.2729e-06	426.97	142.79	124.8	42.825	4.2506e-06	52.8	0.00066042	0.0006783	0.00019673	1415.2	7.5364e-06	7.5989e-06	1412.5	382.12	7.3818e-06	7.4216e-06	435.56	146.57	128.02	44.102	7.5927e-06	54.228	268.041	260.376	247.854	182.387	325.826	347.625	182.170	187.202	344.589	330.182	186.262	190.898	191.526	195.899	312.542	195.211	-8191	255	
18148.771	1	1	0	0	0.014952	0.22095	0.24297	0.28368	0.31177	0.12105	0.13207	0.29535	0.093011	0.30488	0.35498	0.079686	0.18644	0.042898	0.26349	0.26602	-2.3354	-2.45	-2.6354	-2.7146	-2.4562	-2.7854	-2.8	-2.6375	-2.8187	-2.4604	-2.9375	-2.7833	-2.4792	-2.7896	-2.6562	-2.5854	378.721	328.855	321.225	178.064	260.261	319.071	171.643	480.956	378.293	470.472	450.872	504.090	285.897	521.640	485.852	247.182	0.00053469	0.00071126	0.00021034	1400.4	2.5446e-06	7.2656e-06	1399.7	375.48	3.7146e-06	3.2044e-06	426.68	143.17	124.64	42.984	5.0767e-06	52.763	0.00064358	0.00067346	0.00019015	1419.5	7.2296e-06	7.3943e-06	1417.7	382.61	7.3789e-06	7.3532e-06	435.42	146.73	127.91	44.21	7.5554e-06	54.283	265.977	241.960	252.689	182.747	327.429	330.261	182.378	187.178	330.740	356.943	186.480	190.829	191.235	195.990	318.630	195.123	-8191	255	
18148.867	1	1	0	0	0.13654	0.1932	0.1421	0.11084	0.12515	0.17783	0.21442	0.040117	0.089018	0.16726	0.3609	0.20136	0.25887	0.15583	0.074401	0.229	-2.3271	-2.4292	-2.6979	-2.7229	-2.3583	-2.8646	-2.9021	-2.7292	-2.8646	-2.625	-2.7062	-2.925	-2.5021	-2.6188	-2.6167	-2.5812	268.189	497.528	344.286	270.053	455.783	208.253	452.743	186.144	469.819	505.437	486.329	168.929	444.654	424.679	484.053	205.667	0.00051216	0.00051735	0.00016994	1395.5	7.0031e-06	4.7543e-06	1395.5	375.43	3.7607e-06	6.5141e-06	425.62	143.59	125.18	43.208	7.4055e-06	52.822	0.00065426	0.00067851	0.00019085	1419.6	7.389e-06	7.4302e-06	1418.2	382.81	7.1636e-06	7.2567e-06	435.33	147.08	128.15	44.341	7.0757e-06	54.447	261.265	265.149	277.151	182.578	322.114	316.913	182.183	186.750	326.356	319.984	186.344	190.964	191.426	195.928	329.064	195.234	-8191	255	
18148.988	1	1	0	0	0.35671	0.24958	0.13667	0.091292	0.085178	0.15834	0.09754	0.18272	0.067465	0.22534	0.10529	0.024304	0.26663	0.11341	0.19692	0.1741	-2.1521	-2.2542	-2.5979	-2.5646	-2.3312	-2.7	-2.7625	-2.5604	-2.775	-2.5917	-2.6958	-2.8542	-2.4729	-2.7667	-2.4854	-2.4542	380.698	314.904	221.178	306.640	433.599	321.599	401.947	225.664	232.913	439.059	174.637	411.540	174.017	296.804	344.246	185.445	0.00055228	0.00035975	0.00010692	1402.3	6.4346e-06	6.5018e-06	1398.4	375.95	5.8719e-06	5.5351e-06	428.21	144.14	125.5	43.115	4.709e-06	52.87	0.00063693	0.00065567	0.00017986	1419.6	6.9472e-06	7.0509e-06	1418.5	383.12	6.9434e-06	6.9144e-06	435.72	147.24	128.43	44.405	6.8369e-06	54.48	264.296	258.316	227.131	182.373	340.988	325.853	182.120	187.067	317.480	335.039	186.491	190.652	191.379	195.968	320.915	195.315	-8191	255	
18149.061	1	1	0	0	0.092431	0.085864	0.026808	0.15903	0.23598	0.29265	0.22819	0.17567	0.23932	0.23025	0.44208	0.092267	0.27416	0.15548	0.20467	0.29939	-2.3396	-2.5271	-2.4875	-2.7292	-2.4208	-2.6292	-2.8833	-2.5812	-2.6896	-2.725	-2.7542	-2.8563	-2.6917	-2.7875	-2.6458	-2.6104	467.075	195.401	431.690	458.074	467.950	226.042	188.598	523.700	290.634	516.820	498.681	507.338	457.414	189.530	245.205	454.298	0.0005315	0.00062037	0.00019301	1399.3	7.1865e-06	3.923e-06	1395.1	378.02	4.484e-06	4.5908e-06	429.73	144.57	125.62	43.21	5.3938e-06	53.069	0.00061034	0.00063095	0.00017342	1420.3	6.8666e-06	6.7741e-06	1417.2	384.02	6.7886e-06	6.7752e-06	436.84	147.69	128.81	44.416	6.7838e-06	54.576	264.463	258.080	267.867	182.107	347.859	321.215	182.228	187.141	332.136	350.602	186.480	191.003	191.557	195.993	299.560	194.995	-8191	255	
18149.156	1	1	0	0	0.1348	0.113	0.12146	0.048129	0.061291	0.22212	0.091761	0.51503	0.097638	0.13942	0.25619	0.2784	0.13378	0.15975	0.1534	0.3576	-2.4229	-2.5083	-2.5417	-2.6813	-2.3417	-2.5208	-2.9062	-2.5583	-2.6104	-2.5417	-2.5583	-2.9354	-2.5687	-2.5979	-2.5625	-2.4062	316.673	408.515	468.745	181.467	327.210	175.816	267.177	454.389	430.744	359.750	485.069	357.673	516.631	414.978	221.458	507.778	0.00055736	0.00041999	7.3651e-05	1399.3	7.0538e-06	8.2992e-06	1397.3	376.08	3.7764e-06	3.3166e-06	427.16	144.18	125.66	43.212	4.9958e-06	53.049	0.0006137	0.00062405	0.00017321	1419.2	6.7808e-06	6.9551e-06	1415.9	382.97	6.8835e-06	6.9478e-06	436.54	147.41	128.46	44.355	6.9707e-06	54.504	263.062	259.849	255.491	182.436	330.033	299.401	182.198	186.877	309.230	334.510	186.444	190.829	191.412	195.848	340.364	194.895	-8191	255	
18149.275	1	1	0	0	0.22566	0.19019	0.10331	0.16984	0.13616	0.12739	0.29896	0.069876	0.049185	0.079623	0.24007	0.18401	0.24	0.2239	0.30279	0.18418	-2.4208	-2.5021	-2.4646	-2.9875	-2.475	-2.575	-2.9354	-2.5479	-2.6354	-2.6083	-2.4104	-2.8042	-2.5646	-2.5833	-2.7833	-2.5542	274.700	291.980	397.193	207.524	212.086	248.881	333.828	524.647	313.491	223.708	512.413	175.965	217.576	195.958	252.167	502.154	0.00054179	0.00039566	0.00014637	1400.6	5.9403e-06	6.0482e-06	1399.5	374.76	5.5245e-06	5.4094e-06	428.85	144.58	125.72	43.346	7.7873e-06	52.912	0.00062916	0.00063422	0.00017517	1418.8	6.9114e-06	7.1018e-06	1417.2	383.01	6.851e-06	6.8984e-06	436.25	147.42	128.63	44.466	6.9191e-06	54.518	261.232	260.702	266.473	182.406	360.469	327.703	182.268	187.038	325.997	330.299	186.605	190.946	191.158	195.589	324.921	195.030	-8191	255	
18149.373	1	1	0	0	0.16501	0.1262	0.1154	0.18085	0.1288	0.08467	0.14343	0.15364	0.023619	0.1261	0.13114	0.21955	0.13851	0.085653	0.13403	0.19714	-2.1375	-2.5583	-2.3792	-2.7208	-2.4938	-2.5854	-3.0583	-2.6146	-2.5479	-2.7333	-2.3708	-2.9146	-2.5333	-2.6292	-2.9042	-2.45	363.836	242.714	396.442	169.302	458.302	304.018	524.623	467.597	419.186	400.583	377.338	431.474	471.507	228.168	492.640	203.703	0.00054532	0.00049343	0.00015784	1399.2	7.9149e-06	5.1173e-06	1395.5	375.84	4.7443e-06	5.7058e-06	427.92	143.72	125.1	43.196	6.7052e-06	52.962	0.00062284	0.00062433	0.00017271	1418.8	6.8338e-06	6.8447e-06	1418.3	383.26	6.8556e-06	6.8761e-06	435.85	147.39	128.47	44.385	6.9698e-06	54.585	263.480	257.350	259.001	182.611	310.332	292.393	182.043	187.096	306.698	315.037	186.601	190.842	191.499	195.802	329.816	194.982	-8191	255	
18149.467	1	1	0	0	0.17335	0.10603	0.22297	0.29152	0.32499	0.12912	0.12738	0.25862	0.136	0.090361	0.24642	0.11316	0.12888	0.33295	0.055299	0.046144	-2.3354	-2.6729	-2.4458	-2.7729	-2.5229	-2.6125	-3.0354	-2.5458	-2.7125	-2.6896	-2.4896	-2.8667	-2.6708	-2.4833	-2.6604	-2.575	380.924	287.984	345.637	220.991	379.955	239.865	275.599	481.847	262.555	295.336	185.980	396.034	527.658	467.063	215.612	500.100	0.00053091	0.00047552	8.5947e-05	1393.8	8.1231e-06	5.5375e-06	1400	375.31	6.2386e-06	3.6102e-06	427.8	143.86	126.14	43.269	5.4232e-06	52.923	0.0006131	0.0006182	0.00017535	1417.7	6.7872e-06	6.9361e-06	1419.3	383.32	6.9535e-06	6.8846e-06	436.01	147.61	128.88	44.472	6.9639e-06	54.522	263.369	258.930	249.045	182.327	336.901	359.388	182.136	187.061	327.547	291.836	186.542	190.724	191.490	195.654	326.458	195.034	-8191	255	
18149.588	1	1	0	0	0.065298	0.13731	0.22044	0.020286	0.19541	0.26327	0.17047	0.09712	0.35269	0.25103	0.017432	0.19321	0.089521	0.14227	0.11643	0.18683	-1.8896	-2.7708	-2.4062	-2.9729	-2.6021	-2.4604	-3.1521	-2.7188	-2.7	-2.7333	-2.5396	-2.9792	-2.7146	-2.4125	-2.8208	-2.7313	384.154	356.368	385.328	463.325	192.428	334.256	429.816	171.908	251.683	394.853	493.016	526.830	480.431	498.358	512.325	423.507	0.0005468	0.0004397	0.00011051	1390.2	7.5389e-06	9.9981e-06	1399.6	377.71	4.4581e-06	4.6757e-06	427.57	144.13	125.63	43.091	5.6967e-06	52.904	0.00061245	0.00061975	0.00017393	1417.5	6.8485e-06	6.8426e-06	1417	383.66	6.9631e-06	6.9961e-06	435.96	147.44	128.58	44.387	6.9664e-06	54.458	262.885	248.917	272.297	182.281	322.988	321.240	182.215	187.072	340.737	331.436	186.536	190.835	191.482	195.550	316.477	194.833	-8191	255	
18149.684	1	1	0	0	0.095602	0.17703	0.10136	0.38365	0.18624	0.10576	0.080329	0.31726	0.058428	0.0349	0.31457	0.13979	0.18907	0.076809	0.22434	0.15015	-1.9646	-2.5833	-2.3417	-2.75	-2.5812	-2.5021	-2.9062	-2.6375	-2.6667	-2.8667	-2.5354	-2.6792	-2.7167	-2.4958	-2.7812	-2.6104	412.515	188.953	227.083	178.494	279.688	271.299	483.020	460.909	472.618	294.409	482.663	204.315	520.294	525.754	320.047	172.985	0.00053908	0.0006492	0.00013704	1400.6	7.0027e-06	2.9238e-06	1399.1	375.53	3.6306e-06	4.2421e-06	427.47	143.53	125.69	43.126	5.0678e-06	52.981	0.00061569	0.00062875	0.00017654	1419.8	6.8916e-06	7.0144e-06	1418.3	383.26	6.9868e-06	6.9397e-06	436.79	147.45	128.73	44.432	7.0794e-06	54.514	262.632	262.453	285.693	182.601	344.141	270.832	182.136	187.015	313.161	340.009	186.429	190.801	191.278	195.908	321.775	195.152	-8191	255	
18149.756	1	1	0	0	0.21059	0.13919	0.32576	0.05496	0.16243	0.17943	0.30334	0.14927	0.1447	0.080064	0.1232	0.16045	0.047257	0.16259	0.016789	0.096034	-2.0938	-2.8271	-2.3521	-2.5854	-2.6063	-2.3021	-2.9208	-2.6896	-2.4375	-2.7604	-2.5792	-2.6896	-2.9167	-2.4646	-2.7292	-2.8563	444.941	355.538	193.646	505.340	322.748	259.951	403.520	405.362	186.734	317.144	211.357	446.801	397.333	513.039	503.391	492.734	0.00057772	0.00037791	0.00014912	1393.4	5.9789e-06	5.1123e-06	1399.9	375.47	3.9607e-06	5.2664e-06	428.04	144.21	125.72	43.256	3.6735e-06	53.287	0.00062371	0.00063711	0.00017625	1419.8	6.997e-06	7.0336e-06	1418.3	383.07	6.7626e-06	7.0483e-06	436.41	147.89	128.8	44.495	6.8918e-06	54.629	265.746	222.909	245.474	182.532	330.066	288.337	182.198	186.872	326.238	328.007	186.352	190.840	191.234	195.902	323.539	195.060	-8191	255	
18149.852	1	1	0	0	0.03342	0.09989	0.16494	0.19299	0.19351	0.21428	0.43193	0.18902	0.24119	0.15751	0.047608	0.09095	0.28864	0.16425	0.25353	0.31208	-1.9146	-2.75	-2.5771	-2.5292	-2.7167	-2.5	-2.9083	-2.7792	-2.4354	-2.8604	-2.5792	-2.6104	-2.8229	-2.5083	-2.6042	-2.9396	257.633	364.816	343.706	364.016	424.771	252.076	472.042	447.404	255.049	196.504	395.403	442.255	516.475	209.338	195.870	449.499	0.00055154	0.00042597	0.00018411	1402.4	4.6127e-06	5.2661e-06	1399.5	376.2	4.8394e-06	6.2576e-06	428.99	144.47	125.43	43.18	3.4662e-06	53.022	0.00060884	0.00063729	0.0001742	1419.5	6.7944e-06	6.9621e-06	1418.8	384.22	6.6669e-06	6.953e-06	437.05	147.83	128.65	44.433	7.0248e-06	54.585	266.141	238.649	269.524	182.547	327.694	329.864	182.174	187.079	297.457	328.809	186.541	190.851	191.315	195.732	328.140	194.828	-8191	255	
18149.973	1	1	0	0	0.11244	0.071217	0.17656	0.14933	0.071103	0.33201	0.072562	0.095638	0.24085	0.035469	0.05772	0.42351	0.13999	0.053271	0.10306	0.051172	-1.9813	-2.8125	-2.4625	-2.7438	-2.7438	-2.4542	-2.7292	-2.7771	-2.2438	-2.8083	-2.6333	-2.5312	-2.8021	-2.575	-2.4625	-2.7896	211.857	490.711	453.025	328.361	525.136	417.111	443.553	442.232	403.837	207.312	387.715	172.159	520.780	207.652	245.848	527.892	0.00054297	0.00044254	6.8496e-05	1398.9	4.5561e-06	3.1616e-06	1395	375.49	4.6185e-06	4.8417e-06	427.98	144.24	125.3	43.288	3.954e-06	52.932	0.00061507	0.00063038	0.00017331	1419.4	7.0418e-06	6.9383e-06	1417.1	382.78	6.9631e-06	6.9982e-06	436.25	147.46	128.58	44.43	7.0794e-06	54.451	265.173	263.810	266.707	182.510	334.645	330.616	182.252	187.053	310.550	340.982	186.319	190.863	191.405	195.791	312.496	195.137	-8191	255	
18150.068	1	1	0	0	0.24353	0.14276	0.15946	0.23918	0.31062	0.24387	0.27133	0.13758	0.15055	0.077359	0.12514	0.023243	0.21922	0.27209	0.11913	0.22029	-1.9438	-2.7	-2.5667	-2.4542	-2.7854	-2.4146	-2.775	-2.8771	-2.3187	-2.5583	-2.7875	-2.5833	-2.9125	-2.5354	-2.4604	-2.9062	484.827	388.053	477.114	371.310	491.955	304.148	176.030	504.692	187.824	314.743	419.156	454.494	517.911	426.243	382.927	450.688	0.00052561	0.00064389	0.00025677	1403.1	5.0393e-06	2.7504e-06	1396.2	376.39	4.9963e-06	4.6482e-06	427.1	143.96	125.57	42.985	4.5153e-06	52.98	0.00062649	0.00066599	0.00018131	1419.4	6.9908e-06	7.1442e-06	1416.5	382.86	7.1093e-06	7.1994e-06	435.79	147.17	128.41	44.343	7.2437e-06	54.532	264.354	262.460	273.771	182.348	333.036	341.124	182.422	186.870	327.239	298.035	186.453	191.096	191.375	195.965	352.835	195.119	-8191	255	
18150.164	1	1	0	0	0.27092	0.09119	0.33701	0.18594	0.096211	0.11774	0.25604	0.085644	0.20445	0.18692	0.43809	0.22434	0.097546	0.21384	0.17821	0.17974	-1.925	-2.5646	-2.5812	-2.3083	-2.6833	-2.6	-2.5938	-2.9958	-2.3875	-2.5812	-2.7146	-2.525	-2.7812	-2.7458	-2.5854	-2.8292	256.825	467.789	487.518	404.895	508.083	327.391	447.929	480.712	418.768	355.110	194.620	173.438	466.374	464.097	429.938	471.604	0.00054523	0.00064107	0.00014239	1400.1	6.1797e-06	6.2529e-06	1397.8	376.9	3.4773e-06	4.2989e-06	429.14	144.46	126.13	43.515	4.5243e-06	53.088	0.00062974	0.00064851	0.00018364	1421.7	7.1604e-06	7.1434e-06	1418.8	383.81	6.9895e-06	7.2425e-06	436.68	147.8	129.03	44.629	7.1797e-06	54.601	262.901	232.039	292.124	182.423	329.783	331.867	182.366	187.159	297.093	318.088	186.357	191.059	191.410	195.607	295.861	194.945	-8191	255	
18150.285	1	1	0	0	0.22551	0.048335	0.20949	0.17701	0.061493	0.13765	0.30883	0.20845	0.10941	0.23931	0.17321	0.19191	0.037022	0.078762	0.15726	0.18171	-1.8937	-2.4646	-2.475	-2.4	-2.575	-2.4833	-2.6875	-2.8271	-2.4042	-2.4792	-2.9667	-2.4062	-2.8771	-2.7812	-2.3833	-3	446.780	432.200	366.428	413.942	465.302	303.400	481.226	461.094	401.297	405.063	276.055	412.576	171.685	516.260	505.665	477.591	0.00053969	0.00039827	0.00012971	1394	4.4542e-06	2.9633e-06	1398.2	376.75	4.6768e-06	7.1965e-06	428.05	144.91	126.29	43.138	4.432e-06	53.183	0.0006296	0.00064894	0.0001794	1420.5	7.1325e-06	7.1705e-06	1419.4	384.08	6.9498e-06	7.2167e-06	437.43	148.19	129.24	44.594	7.1314e-06	54.781	265.652	220.125	254.908	182.631	316.397	328.848	182.347	187.097	315.144	335.210	186.425	190.708	191.061	195.697	322.404	194.990	-8191	255	
18150.357	1	1	0	0	0.13399	0.1124	0.28191	0.23477	0.20414	0.14375	0.25888	0.18873	0.25822	0.25712	0.059706	0.28865	0.27244	0.17488	0.36911	0.3129	-2.1479	-2.5979	-2.6396	-2.6125	-2.7729	-2.7479	-2.6104	-2.9562	-2.5687	-2.5875	-2.7792	-2.7167	-2.675	-2.7771	-2.3208	-3.0333	482.748	379.308	288.468	218.342	338.823	280.522	489.819	464.493	256.501	301.279	456.855	467.495	488.325	419.182	306.687	468.151	0.00052993	0.00046385	0.00012493	1398.4	3.7591e-06	5.0977e-06	1398.6	378.47	5.474e-06	4.4713e-06	429	144.67	126.12	43.104	6.2654e-06	53.179	0.00063053	0.00064493	0.00017604	1421	6.9729e-06	7.092e-06	1420.7	384.93	7.1147e-06	7.1096e-06	437	148.06	129.11	44.581	7.0811e-06	54.714	258.846	264.691	257.495	182.348	322.815	352.687	182.136	186.966	328.806	341.208	186.442	190.924	191.212	195.771	325.780	195.201	-8191	255	
18150.453	1	1	0	0	0.13083	0.21203	0.077048	0.18762	0.13661	0.095998	0.22843	0.21549	0.24066	0.15195	0.23688	0.15329	0.17909	0.327	0.14435	0.26453	-2.2083	-2.3146	-2.7188	-2.5625	-2.6396	-2.6896	-2.6854	-2.8396	-2.4771	-2.6542	-2.9062	-2.5438	-2.5875	-2.7687	-2.4625	-2.7667	337.377	247.609	528.227	484.143	515.248	415.942	426.321	436.238	264.708	298.888	524.473	513.013	515.719	171.094	505.368	182.700	0.0005925	0.0005717	0.0001083	1395.8	3.5154e-06	4.3794e-06	1403.8	376.76	4.9316e-06	5.9978e-06	428.28	144.49	125.68	43.343	3.9529e-06	53.052	0.00064383	0.00065653	0.00018202	1420.4	7.0609e-06	6.9912e-06	1419.2	383.29	6.9689e-06	6.9969e-06	436.42	147.65	128.52	44.462	6.9929e-06	54.515	266.023	243.401	287.930	182.386	306.387	316.094	182.391	187.007	321.711	322.528	186.542	190.645	191.446	195.581	332.460	195.368	-8191	255	
18150.549	1	1	0	0	0.24361	0.33729	0.10118	0.16066	0.033562	0.021741	0.45006	0.10733	0.15466	0.21467	0.17838	0.27887	0.09896	0.1787	0.068405	0.1159	-2.0792	-2.2146	-2.7729	-2.4938	-2.6	-2.7354	-2.6437	-2.7333	-2.7542	-2.4104	-2.8833	-2.4958	-2.5708	-2.7792	-2.4792	-2.9146	378.785	395.988	171.942	315.412	414.533	202.223	444.237	509.340	242.456	342.266	191.159	523.453	462.496	439.155	421.913	462.642	0.00056031	0.00043443	0.00011424	1403.1	6.5189e-06	7.404e-06	1398.3	375.74	5.827e-06	5.0577e-06	429.37	143.7	125.5	43.111	4.5179e-06	53.099	0.00060207	0.00062464	0.0001788	1420.3	6.7425e-06	6.8148e-06	1416.9	383.17	6.7362e-06	6.7505e-06	436.45	147.44	128.65	44.436	6.8219e-06	54.625	260.973	273.546	288.164	182.405	344.076	320.943	182.359	186.953	326.053	318.559	186.388	190.747	191.264	195.996	307.222	194.827	-8191	255	
18150.668	1	1	0	0	0.13213	0.11381	0.2683	0.15923	0.36507	0.12252	0.31147	0.10105	0.10534	0.14309	0.11044	0.20763	0.082699	0.058036	0.1163	0.015735	-2.2562	-2.4104	-2.7354	-2.5062	-2.5062	-2.7583	-2.7083	-2.7313	-2.7083	-2.4354	-2.7375	-2.5792	-2.6896	-2.8542	-2.45	-2.6667	199.719	384.933	249.164	521.457	446.858	225.817	515.632	208.436	296.491	224.657	506.956	480.657	451.194	477.102	442.347	419.195	0.00055709	0.00043793	0.00015314	1397.7	5.2521e-06	5.1411e-06	1398.8	377.79	5.7195e-06	5.6207e-06	430.69	144.36	125.99	43.457	5.2703e-06	52.941	0.00060688	0.00060147	0.00017177	1419.3	6.6279e-06	6.7136e-06	1419.7	384.06	6.6987e-06	6.8016e-06	437.56	147.76	129.09	44.589	6.7307e-06	54.624	261.536	231.255	275.090	182.385	308.701	307.548	182.245	187.175	327.863	344.504	186.488	190.789	191.382	195.582	339.077	194.893	-8191	255	
18150.764	1	1	0	0	0.17711	0.30083	0.19311	0.18914	0.25633	0.10809	0.10261	0.074259	0.2218	0.16488	0.20936	0.11802	0.34862	0.24401	0.11465	0.15848	-2.2687	-2.4792	-2.7771	-2.5917	-2.3708	-2.825	-2.5917	-2.6292	-2.6	-2.4583	-3.0042	-2.5438	-2.4562	-2.9646	-2.4917	-2.6396	201.982	189.775	418.174	314.802	501.203	459.654	422.364	446.229	403.832	514.410	515.822	279.350	515.476	262.778	255.242	353.214	0.00056412	0.00038529	0.00014608	1397	5.2621e-06	7.8903e-06	1395.1	376.12	3.9566e-06	7.5486e-06	428.78	144.22	125.6	43.278	3.9155e-06	53.226	0.00061109	0.00061265	0.00016847	1420.3	6.6264e-06	6.74e-06	1416.8	383.25	6.6919e-06	6.7627e-06	436.67	147.68	128.74	44.533	6.4518e-06	54.569	266.866	246.981	233.516	182.274	278.276	315.201	182.097	186.917	315.061	325.921	186.439	190.887	191.420	195.632	304.992	194.954	-8191	255	
18150.859	1	1	0	0	0.17767	0.18806	0.26808	0.17371	0.24136	0.049608	0.28853	0.18097	0.20005	0.33355	0.13918	0.042446	0.10075	0.16546	0.13909	0.28306	-2.3854	-2.3542	-2.5708	-2.5625	-2.2208	-2.8375	-2.6208	-2.6104	-2.7979	-2.4479	-2.8479	-2.9708	-2.4938	-2.8688	-2.4938	-2.5	446.152	472.154	219.064	449.293	528.719	527.525	433.603	455.284	444.263	456.765	205.107	197.643	177.334	179.747	469.799	465.301	0.00055195	0.00060496	0.00013389	1397.3	4.5159e-06	5.0361e-06	1398.4	376.4	3.2127e-06	3.5542e-06	428.16	144.68	125.86	43.131	6.1688e-06	52.889	0.00059562	0.00058277	0.00017211	1417	6.4308e-06	6.3664e-06	1417.4	383.73	6.2882e-06	6.2188e-06	436.62	147.72	128.56	44.37	6.2958e-06	54.451	262.292	255.298	261.137	182.514	326.024	348.750	182.342	187.072	342.902	353.524	186.543	190.541	191.255	195.834	342.218	195.148	-8191	255	
18150.955	1	1	0	0	0.18196	0.30342	0.11587	0.2168	0.3937	0.064807	0.13302	0.33151	0.13954	0.12504	0.39831	0.26301	0.033499	0.17747	0.42008	0.249	-2.2146	-2.4083	-2.5854	-2.7208	-2.2521	-2.725	-2.7104	-2.4958	-2.8438	-2.4625	-2.6625	-2.9021	-2.4792	-2.7271	-2.5604	-2.475	249.802	257.211	301.376	211.065	339.457	493.509	470.723	480.864	300.525	243.731	472.383	490.520	326.031	449.201	213.532	321.147	0.0005417	0.00051951	0.00011903	1395.5	6.9944e-06	6.818e-06	1398.3	376.18	3.1749e-06	4.126e-06	427.09	144.12	125.15	42.946	2.7942e-06	52.693	0.00057899	0.00058139	0.00015995	1418.8	6.2316e-06	6.1183e-06	1417.7	383.04	6.2651e-06	6.1788e-06	436.1	147.43	128.42	44.307	6.2685e-06	54.449	264.578	243.803	259.525	182.351	322.931	323.727	182.385	186.976	286.039	340.648	186.505	190.941	191.302	195.778	334.113	195.170	-8191	255	
18151.053	1	1	0	0	0.31021	0.27463	0.21817	0.057725	0.26294	0.10442	0.25808	0.29062	0.17074	0.20353	0.22435	0.41845	0.14024	0.25377	0.2806	0.036051	-2.4021	-2.2771	-2.4667	-2.7792	-2.4854	-2.5479	-2.7208	-2.6	-2.7271	-2.4208	-2.6208	-2.8521	-2.4292	-2.6167	-2.575	-2.5438	211.800	364.270	383.028	347.559	366.294	488.767	420.421	461.069	230.340	519.912	451.290	522.375	202.012	180.565	245.933	419.937	0.00053782	0.00041951	0.00013072	1392.8	3.5283e-06	4.45e-06	1394.1	376.44	5.8156e-06	6.5986e-06	429.12	143.39	125.96	43.039	5.381e-06	52.918	0.00057077	0.00056472	0.00015698	1413.7	6.1526e-06	6.1207e-06	1414.8	382.75	6.133e-06	6.1203e-06	435.96	147.29	128.54	44.324	6.0874e-06	54.439	262.679	247.110	284.103	182.341	345.806	317.684	182.341	187.129	328.516	335.325	186.604	190.774	191.253	195.844	341.383	195.148	-8191	255	
18151.148	1	1	0	0	0.3269	0.14762	0.1433	0.18542	0.28475	0.020681	0.1952	0.17044	0.14784	0.2248	0.13733	0.074656	0.067708	0.018735	0.17113	0.23749	-2.4104	-2.4896	-2.5062	-2.7812	-2.4604	-2.5854	-2.7979	-2.4417	-2.7833	-2.5604	-2.5812	-2.9021	-2.4583	-2.8146	-2.775	-2.5312	290.752	485.118	231.400	383.950	445.855	435.450	495.443	264.852	310.450	232.588	290.869	373.623	436.510	342.518	242.466	474.891	0.00054961	0.00054312	0.00018125	1395.4	3.3044e-06	4.684e-06	1393.2	374.49	5.0969e-06	6.9187e-06	428.35	144.2	125.12	43.136	7.4368e-06	52.733	0.00055456	0.00055161	0.00015258	1412.9	6.0176e-06	6.1389e-06	1412.1	381.83	6.0174e-06	6.1598e-06	435.14	147.22	128.05	44.273	6.1765e-06	54.307	262.385	254.417	254.921	182.697	294.920	294.684	182.227	187.090	315.551	316.484	186.504	190.891	191.371	195.938	306.470	195.153	-8191	255	
18151.270	1	1	0	0	0.18795	0.16729	0.19124	0.10649	0.069744	0.091499	0.13647	0.19777	0.26794	0.10336	0.07373	0.44802	0.10516	0.13971	0.23139	0.20397	-2.3792	-2.4458	-2.5083	-2.8917	-2.4979	-2.6396	-2.8563	-2.5042	-2.7188	-2.5583	-2.6104	-2.9896	-2.4292	-2.6375	-2.9229	-2.4354	179.573	341.786	354.971	521.852	438.328	507.300	383.965	510.987	412.173	325.345	451.913	387.404	193.437	187.207	320.414	438.528	0.00054916	0.00050421	0.00011792	1401.6	4.5773e-06	5.7289e-06	1388.3	376.18	6.8816e-06	7.311e-06	424.38	143.11	124.27	42.555	5.3505e-06	52.392	0.00055341	0.00055108	0.00015279	1414.4	6.1066e-06	6.096e-06	1410.3	381.43	6.1521e-06	6.2243e-06	433.31	146.06	127.03	43.823	6.3092e-06	53.759	263.763	242.641	246.217	182.510	320.521	301.805	182.228	187.000	340.712	337.790	186.569	190.949	191.567	195.734	300.105	195.001	-8191	255	
18151.365	1	1	0	0	0.26624	0.074046	0.07466	0.073863	0.06899	0.18526	0.36225	0.18171	0.17438	0.075475	0.29234	0.18543	0.09233	0.14412	0.1396	0.16485	-2.1979	-2.6562	-2.1896	-2.8	-2.4896	-2.5333	-3.0542	-2.4083	-2.7188	-2.4896	-2.5292	-2.9938	-2.5042	-2.4333	-2.7271	-2.2896	349.086	475.278	455.419	191.396	440.825	392.358	445.750	200.645	173.780	313.515	438.192	437.789	487.348	222.137	447.098	496.220	0.00052988	0.00044952	0.00010738	1388.6	5.3824e-06	5.9308e-06	1381.6	370.24	4.3999e-06	4.2266e-06	422.86	141.82	123.98	42.386	3.6533e-06	52.154	0.00057205	0.00058348	0.00016101	1404.9	6.3597e-06	6.4126e-06	1401.5	377.74	6.435e-06	6.3968e-06	430.92	144.86	126.57	43.593	6.3354e-06	53.692	262.201	282.668	291.539	182.435	337.697	328.057	182.129	187.161	332.409	328.098	186.421	190.837	191.143	195.988	344.721	195.171	-8191	255	
18151.461	1	1	0	0	0.19146	0.10736	0.17314	0.04698	0.21812	0.18489	0.26118	0.38297	0.14492	0.16188	0.1723	0.28962	0.16439	0.12426	0.21698	0.14271	-2.4	-2.6167	-2.2938	-2.8521	-2.5792	-2.4354	-3.0083	-2.5812	-2.6188	-2.7208	-2.5667	-2.6937	-2.5521	-2.525	-2.7333	-2.5896	184.754	357.851	253.751	180.645	366.151	299.206	427.103	439.370	442.675	247.144	460.245	234.920	512.861	198.281	262.864	202.919	0.00050392	0.0006604	0.00020204	1383.9	4.6642e-06	7.5877e-06	1387.2	373.93	4.433e-06	6.5916e-06	424.03	142.71	123.71	42.665	5.3931e-06	52.599	0.00056613	0.0005558	0.0001569	1405.1	6.1886e-06	6.1354e-06	1406.4	379.73	6.1455e-06	5.8914e-06	432.64	146.09	127.22	43.872	6.1049e-06	54.059	266.688	257.600	279.354	182.598	339.630	330.486	182.018	187.012	344.317	333.599	186.443	190.667	191.322	195.852	342.870	195.127	-8191	255	
18151.557	1	1	0	0	0.19639	0.2322	0.042722	0.091582	0.34768	0.093871	0.10009	0.15692	0.09758	0.17336	0.0078498	0.21696	0.25836	0.48915	0.23198	0.2106	-2.2104	-2.7083	-2.2646	-2.7792	-2.4188	-2.2604	-3.0312	-2.7146	-2.7625	-2.8333	-2.6521	-2.5687	-2.7104	-2.3917	-2.8708	-2.5646	379.602	329.806	269.723	262.625	275.157	488.578	458.474	417.117	296.917	302.939	293.352	433.912	425.026	492.616	289.862	191.960	0.00051207	0.00041062	0.00013459	1386.4	6.1625e-06	5.0559e-06	1393.9	374.95	5.0055e-06	3.5154e-06	425.13	143.12	124.77	42.914	7.6155e-06	52.525	0.00054953	0.00054109	0.0001524	1409.8	5.9865e-06	5.9876e-06	1411.4	381.02	5.9932e-06	5.9956e-06	433.67	146.5	127.53	44.007	6.0409e-06	54.004	266.149	248.010	256.054	182.285	343.611	311.074	182.066	187.010	339.648	326.552	186.202	190.889	191.270	195.769	308.699	195.106	-8191	255	
18151.652	1	1	0	0	0.077888	0.086421	0.085686	0.15727	0.098464	0.20568	0.31394	0.18756	0.04163	0.18967	0.29412	0.24065	0.2217	0.084362	0.13885	0.16338	-2.15	-2.6833	-2.4146	-2.4792	-2.6958	-2.3958	-2.9292	-2.7979	-2.6042	-2.8688	-2.6604	-2.7979	-2.7625	-2.7208	-2.7042	-2.8125	180.965	422.545	397.122	497.471	397.903	304.226	441.833	428.047	225.611	274.813	476.388	198.149	484.883	243.796	335.910	511.246	0.00053304	0.00060764	0.00021367	1391	3.8815e-06	6.9867e-06	1387.8	372.35	4.5112e-06	7.4403e-06	424.54	142.94	124.5	42.748	4.6529e-06	52.49	0.00056011	0.00055471	0.00015306	1408	6.0208e-06	6.1627e-06	1406.5	379.92	6.2251e-06	6.1065e-06	433.13	146.09	127.37	43.918	6.2057e-06	54.007	264.255	243.771	242.505	182.140	320.715	317.898	182.111	187.043	339.410	318.845	186.523	190.997	191.324	195.705	319.990	195.184	-8191	255	
#DATA ENDS
