BOXY.EXE: ISS Imagent and Oximeter Data Acquisition Program Version 0.80
Ascii Record File

#ACQ INFORMATION
2  Detector Channels 
16  External MUX Channels 
1  Auxiliary Channels 
5000  Waveform (CCF) Frequency (Hz)
1  Waveforms Skipped 
30  Waveforms Averaged 
1  Cycles Averaged 
16  Acquisitions per Waveform 
10.0806  Updata Rate (Hz) 

#FILE INFORMATION
TRUE -- External MUX Channel results are PARSED.
FALSE -- AC DC and Phase are NOT grouped.
TRUE -- Companion Program Settings File CREATED.
FALSE -- AC data not excluded
FALSE -- DC data not excluded
FALSE -- Phase data not excluded
FALSE -- Auxillary Chn. data not excluded
Tab delimiters

#CALIBRATION STATE
TRUE -- Waveform Calibration Values APPLIED.


#AUX CALIBRATION VALUES
Val Type	aux-1	

Term	1.0000e+00	
Factor	0.0000e+00	


#WF CALIBRATION VALUES
A = Detector Channel
Val Type	A-AC1	A-AC2	A-AC3	A-AC4	A-AC5	A-AC6	A-AC7	A-AC8	A-AC9	A-AC10	A-AC11	A-AC12	A-AC13	A-AC14	A-AC15	A-AC16	A-DC1	A-DC2	A-DC3	A-DC4	A-DC5	A-DC6	A-DC7	A-DC8	A-DC9	A-DC10	A-DC11	A-DC12	A-DC13	A-DC14	A-DC15	A-DC16	A-Ph1	A-Ph2	A-Ph3	A-Ph4	A-Ph5	A-Ph6	A-Ph7	A-Ph8	A-Ph9	A-Ph10	A-Ph11	A-Ph12	A-Ph13	A-Ph14	A-Ph15	A-Ph16	

Term	0.00000e+00	0.00000e+00	0.00000e+00	0.00000e+00	0.00000e+00	0.00000e+00	0.00000e+00	0.00000e+00	0.00000e+00	0.00000e+00	0.00000e+00	0.00000e+00	0.00000e+00	0.00000e+00	0.00000e+00	0.00000e+00	0.00000e+00	0.00000e+00	0.00000e+00	0.00000e+00	0.00000e+00	0.00000e+00	0.00000e+00	0.00000e+00	0.00000e+00	0.00000e+00	0.00000e+00	0.00000e+00	0.00000e+00	0.00000e+00	0.00000e+00	0.00000e+00	0.00000e+00	0.00000e+00	0.00000e+00	0.00000e+00	0.00000e+00	0.00000e+00	0.00000e+00	0.00000e+00	0.00000e+00	0.00000e+00	0.00000e+00	0.00000e+00	0.00000e+00	0.00000e+00	0.00000e+00	0.00000e+00	
Factor	1.00000e+00	1.00000e+00	1.00000e+00	1.00000e+00	1.00000e+00	1.00000e+00	1.00000e+00	1.00000e+00	1.00000e+00	1.00000e+00	1.00000e+00	1.00000e+00	1.00000e+00	1.00000e+00	1.00000e+00	1.00000e+00	1.00000e+00	1.00000e+00	1.00000e+00	1.00000e+00	1.00000e+00	1.00000e+00	1.00000e+00	1.00000e+00	1.00000e+00	1.00000e+00	1.00000e+00	1.00000e+00	1.00000e+00	1.00000e+00	1.00000e+00	1.00000e+00	X	X	X	X	X	X	X	X	X	X	X	X	X	X	X	X	

B = Detector Channel
Val Type	B-AC1	B-AC2	B-AC3	B-AC4	B-AC5	B-AC6	B-AC7	B-AC8	B-AC9	B-AC10	B-AC11	B-AC12	B-AC13	B-AC14	B-AC15	B-AC16	B-DC1	B-DC2	B-DC3	B-DC4	B-DC5	B-DC6	B-DC7	B-DC8	B-DC9	B-DC10	B-DC11	B-DC12	B-DC13	B-DC14	B-DC15	B-DC16	B-Ph1	B-Ph2	B-Ph3	B-Ph4	B-Ph5	B-Ph6	B-Ph7	B-Ph8	B-Ph9	B-Ph10	B-Ph11	B-Ph12	B-Ph13	B-Ph14	B-Ph15	B-Ph16	

Term	0.00000e+00	0.00000e+00	0.00000e+00	0.00000e+00	0.00000e+00	0.00000e+00	0.00000e+00	0.00000e+00	0.00000e+00	0.00000e+00	0.00000e+00	0.00000e+00	0.00000e+00	0.00000e+00	0.00000e+00	0.00000e+00	0.00000e+00	0.00000e+00	0.00000e+00	0.00000e+00	0.00000e+00	0.00000e+00	0.00000e+00	0.00000e+00	0.00000e+00	0.00000e+00	0.00000e+00	0.00000e+00	0.00000e+00	0.00000e+00	0.00000e+00	0.00000e+00	-2.28318e+02	-1.28261e+02	-1.22557e+02	-1.79784e+02	-6.98370e+01	-5.69121e+01	-1.58204e+02	-1.62015e+02	-8.96925e+01	-7.94603e+01	-1.70039e+02	-1.72048e+02	-1.82281e+02	-1.76085e+02	-7.57894e+01	-1.48903e+02	
Factor	4.44743e-05	1.16669e-04	3.11420e-05	1.50107e-01	1.44705e-06	1.30124e-06	1.55391e-01	5.73555e-02	1.61794e-06	1.31520e-06	7.33951e-02	2.70137e-02	2.41607e-02	7.75268e-03	1.42893e-06	1.11630e-02	1.56745e-06	1.64600e-06	4.64896e-07	7.58927e-02	1.78137e-08	1.80026e-08	7.42071e-02	2.88859e-02	1.77144e-08	1.80151e-08	3.60562e-02	1.31780e-02	1.21309e-02	3.93631e-03	1.80715e-08	5.48598e-03	X	X	X	X	X	X	X	X	X	X	X	X	X	X	X	X	



#DISTANCE SETTINGS
A = Detector Channel
A-1	A-2	A-3	A-4	A-5	A-6	A-7	A-8	A-9	A-10	A-11	A-12	A-13	A-14	A-15	A-16	

2.5000e+00	3.0000e+00	2.5000e+00	3.0000e+00	2.0000e+00	3.0000e+00	1.5000e+00	3.0000e+00	3.0000e+00	3.0000e+00	3.0000e+00	3.0000e+00	3.0000e+00	3.0000e+00	1.5000e+00	3.0000e+00	

B = Detector Channel
B-1	B-2	B-3	B-4	B-5	B-6	B-7	B-8	B-9	B-10	B-11	B-12	B-13	B-14	B-15	B-16	

1.0000e+01	1.0000e+01	1.0000e+01	1.4400e+00	1.0000e+01	1.0000e+01	1.5100e+00	1.9400e+00	1.0000e+01	1.0000e+01	1.9900e+00	2.4900e+00	2.4100e+00	2.9000e+00	1.0000e+01	2.9800e+00	




#DATA BEGINS
time	group	step	mark	flag	A-AC1	A-AC2	A-AC3	A-AC4	A-AC5	A-AC6	A-AC7	A-AC8	A-AC9	A-AC10	A-AC11	A-AC12	A-AC13	A-AC14	A-AC15	A-AC16	A-DC1	A-DC2	A-DC3	A-DC4	A-DC5	A-DC6	A-DC7	A-DC8	A-DC9	A-DC10	A-DC11	A-DC12	A-DC13	A-DC14	A-DC15	A-DC16	A-Ph1	A-Ph2	A-Ph3	A-Ph4	A-Ph5	A-Ph6	A-Ph7	A-Ph8	A-Ph9	A-Ph10	A-Ph11	A-Ph12	A-Ph13	A-Ph14	A-Ph15	A-Ph16	B-AC1	B-AC2	B-AC3	B-AC4	B-AC5	B-AC6	B-AC7	B-AC8	B-AC9	B-AC10	B-AC11	B-AC12	B-AC13	B-AC14	B-AC15	B-AC16	B-DC1	B-DC2	B-DC3	B-DC4	B-DC5	B-DC6	B-DC7	B-DC8	B-DC9	B-DC10	B-DC11	B-DC12	B-DC13	B-DC14	B-DC15	B-DC16	B-Ph1	B-Ph2	B-Ph3	B-Ph4	B-Ph5	B-Ph6	B-Ph7	B-Ph8	B-Ph9	B-Ph10	B-Ph11	B-Ph12	B-Ph13	B-Ph14	B-Ph15	B-Ph16	aux-1	digaux	

6568.902	1	1	0	256	0.040216	0.11067	0.2399	0.43437	0.093691	0.16755	0.20107	0.27102	0.14661	0.19362	0.22826	0.15848	0.26446	0.25197	0.11115	0.089672	-2.95	-3.0604	-3.2042	-3.3438	-2.9104	-3.2125	-3.3771	-3.0771	-3.3125	-3.0083	-3.0542	-3.3042	-2.8208	-3.2271	-3.0396	-2.9583	372.897	171.321	238.317	441.222	314.320	98.152	399.908	369.043	182.934	112.008	378.666	150.313	334.385	252.267	320.341	433.371	0.0010188	0.00065363	7.0597e-05	1284.5	2.0362e-06	8.0863e-06	1356.5	269.97	9.4578e-06	4.5843e-06	332.03	91.727	72.782	20.938	8.8793e-06	29.088	0.00094094	0.0011192	0.00031116	1298.9	1.0592e-05	1.2048e-05	1368	280.47	1.0276e-05	1.2262e-05	346.41	96.349	77.539	23.429	1.1872e-05	32.156	426.238	147.109	224.787	106.690	231.137	228.026	106.579	113.797	252.999	207.272	113.664	119.986	119.844	126.831	317.388	126.320	-8191	255	
6568.998	1	1	0	0	0.12055	0.13065	0.22094	0.21977	0.2266	0.14674	0.25111	0.13918	0.10378	0.077981	0.16745	0.19692	0.056914	0.12537	0.079541	0.048217	-2.7062	-3.0417	-2.9604	-3.5875	-2.7917	-3.2521	-3.2917	-3.0896	-3.2125	-3.1979	-3.0646	-3.4229	-2.8625	-3.0917	-3.0812	-3.0438	115.405	107.735	436.587	105.796	420.635	288.144	355.064	127.209	390.669	133.968	131.505	390.833	195.807	448.477	412.103	368.048	0.0013004	0.00013063	0.00025764	1281.9	1.1478e-05	3.7163e-06	1350.5	270.21	1.5206e-05	7.2622e-06	331.65	91.376	72.307	20.943	6.431e-06	29.205	0.00098613	0.0011949	0.00031213	1294.4	1.1682e-05	1.3383e-05	1366.9	280.99	1.2078e-05	1.3679e-05	348.52	97.097	78.679	23.792	1.2867e-05	32.536	427.876	450.951	231.739	106.679	250.523	126.670	106.838	113.936	236.253	394.449	113.640	119.900	120.142	126.876	451.278	126.540	-8191	255	
6569.094	1	1	0	0	0.051262	0.050264	0.13214	0.096127	0.12138	0.091129	0.24468	0.13952	0.13092	0.021781	0.048172	0.14126	0.07731	0.17266	0.22203	0.26272	-2.9583	-2.8354	-3.0271	-3.2083	-2.9875	-3.2021	-3.4188	-2.9417	-3.2625	-2.85	-3.1292	-3.3625	-3.0333	-3.275	-3.1917	-3.0187	282.507	309.887	443.216	340.343	446.010	256.063	379.829	404.246	123.244	175.598	196.881	418.463	323.244	352.879	254.510	412.297	0.0010673	0.00010135	7.3942e-05	1277	8.2625e-06	1.3588e-06	1354.3	271.69	1.2355e-05	8.4126e-06	331.72	91.541	72.821	20.905	4.5496e-06	29.133	0.0011779	0.0013108	0.00034127	1299	1.3714e-05	1.4322e-05	1370.6	282.91	1.35e-05	1.3982e-05	348.85	97.296	79.635	23.735	1.2348e-05	32.446	427.730	313.804	158.137	106.789	183.706	430.744	106.410	113.645	194.240	373.999	113.594	120.004	120.195	126.723	253.206	126.022	-8191	255	
6569.190	1	1	0	0	0.040435	0.11807	0.065763	0.10809	0.29803	0.20533	0.20487	0.097171	0.14145	0.13866	0.15387	0.25125	0.12253	0.13037	0.19492	0.1511	-2.9104	-3.0542	-2.9667	-3.4167	-3.0833	-3.1833	-3.5417	-2.9313	-3.2958	-3.0625	-3.1208	-3.3	-2.8563	-3.2	-3.3438	-2.8729	439.413	182.249	381.432	267.396	451.322	431.928	372.279	445.852	374.905	354.877	442.636	393.002	376.239	110.740	358.236	428.808	0.0009061	0.0011469	0.00017083	1281.7	8.1871e-06	4.2735e-06	1357.1	271.19	1.0324e-05	5.6128e-06	331	91.784	72.935	21.026	6.8512e-06	29.106	0.0012008	0.0012185	0.00031902	1298.8	1.3618e-05	1.3215e-05	1369.1	282.21	1.3524e-05	1.2988e-05	347.4	97.391	79.607	23.547	1.1796e-05	32.535	423.510	281.184	283.918	106.798	202.527	407.984	106.697	113.740	232.671	455.156	113.500	119.865	119.774	126.718	169.140	126.121	-8191	255	
6569.286	1	1	0	0	0.15503	0.13629	0.19301	0.12856	0.14552	0.021865	0.24205	0.12083	0.086219	0.18375	0.33001	0.030519	0.27086	0.011681	0.055039	0.27243	-2.6	-3.2708	-2.6625	-3.4062	-3.0187	-2.9813	-3.5187	-2.7292	-3.2146	-3.1146	-3.1646	-3.275	-2.8271	-3.0896	-3.1854	-2.8812	126.326	160.768	179.191	220.359	337.825	334.467	344.222	132.937	412.489	294.971	441.588	395.924	107.688	266.221	453.615	315.409	0.00095941	0.00071514	0.00024585	1288.8	8.1623e-06	4.2951e-07	1364.2	274.42	8.7578e-06	3.8719e-06	333.61	92.71	73.162	21.142	5.6025e-06	29.484	0.0012276	0.0011626	0.0003086	1305.9	1.3672e-05	1.2696e-05	1372.5	284.82	1.3349e-05	1.2235e-05	348.22	98.441	79.75	23.619	1.1215e-05	32.839	419.974	354.525	141.409	106.456	267.662	230.421	106.614	113.776	198.610	305.138	113.034	119.678	120.155	126.554	205.503	126.566	-8191	255	
6569.383	1	1	0	0	0.24892	0.25822	0.099729	0.24152	0.14514	0.29955	0.40478	0.21434	0.12149	0.11922	0.20276	0.28786	0.23061	0.19608	0.15377	0.33723	-2.7	-3.1583	-2.9375	-3.6437	-3.0104	-3.1458	-3.5292	-2.9396	-3.1896	-3.3708	-2.95	-3.4125	-3.0938	-2.9417	-3.3333	-3.0771	315.098	394.148	384.657	429.268	422.259	330.709	403.948	403.766	376.357	413.490	403.850	392.110	96.354	118.633	157.341	373.785	0.0011122	0.00057688	0.00017881	1286.7	9.0518e-06	5.1017e-06	1359.7	272.28	3.2744e-06	8.6835e-06	333.77	92.032	73.028	21.112	1.5081e-05	29.263	0.0011747	0.0011004	0.00029408	1308.5	1.295e-05	1.2078e-05	1370.4	285.35	1.2943e-05	1.1837e-05	347.48	98.634	79.139	23.456	1.1126e-05	32.824	444.278	261.666	136.351	106.600	266.929	359.879	106.637	113.574	334.754	266.366	113.356	119.749	120.120	126.910	213.933	126.168	-8191	255	
6569.479	1	1	0	0	0.18962	0.092892	0.10369	0.093294	0.12508	0.059946	0.42485	0.26505	0.091085	0.081641	0.31488	0.18348	0.19847	0.040002	0.10354	0.15033	-2.6833	-3.2167	-2.8271	-3.2562	-3.0667	-2.925	-3.5125	-3.1437	-3.0062	-3.3354	-3.0292	-3.5021	-3.1479	-2.8396	-3.2958	-3.0292	268.271	416.849	345.930	365.518	205.814	122.990	400.983	444.112	239.786	429.720	428.303	300.729	263.670	442.730	158.920	363.838	0.0011504	3.5249e-05	0.00018291	1285.8	5.8982e-06	2.9686e-06	1354.5	272.16	7.0139e-06	4.6764e-06	333.08	91.993	72.346	21.17	3.9606e-06	29.408	0.0011163	0.0010401	0.00028923	1307.1	1.1911e-05	1.1155e-05	1365.6	284.77	1.1641e-05	1.0613e-05	346.16	98.174	78.129	23.268	1.0943e-05	32.743	439.111	228.644	170.651	106.727	316.854	306.593	106.542	113.578	255.051	252.579	113.321	119.879	119.976	126.747	251.252	126.548	-8191	255	
6569.599	1	1	0	0	0.054346	0.14896	0.08447	0.32442	0.19158	0.39225	0.21312	0.224	0.14461	0.24774	0.54234	0.13939	0.13577	0.28753	0.043587	0.12729	-2.5812	-3.1188	-2.6625	-3.3479	-3.0771	-2.9167	-3.4896	-3.025	-3.0417	-3.2021	-2.9708	-3.2542	-3.2792	-2.8729	-3.3208	-2.9688	312.536	218.747	405.745	412.201	175.318	451.939	374.202	405.696	330.058	399.469	97.144	117.461	418.839	433.643	355.435	405.359	0.00097734	0.0006927	0.00020439	1283.2	5.7133e-06	1.5875e-06	1359.3	273.32	2.7145e-06	4.6478e-06	334.41	91.448	72.975	21.282	6.783e-06	29.416	0.0010379	0.0009671	0.00029652	1307.2	1.1327e-05	1.0984e-05	1369.8	284.92	1.1509e-05	1.0771e-05	348.64	98.415	78.411	23.381	1.1986e-05	32.824	447.796	259.278	166.534	106.892	451.861	381.577	106.600	113.685	201.936	248.840	113.047	119.957	119.828	126.907	221.761	126.270	-8191	255	
6569.696	1	1	0	0	0.14387	0.29225	0.13523	0.23809	0.074457	0.22175	0.3949	0.28996	0.027252	0.025713	0.18667	0.20198	0.1467	0.20716	0.076924	0.064265	-2.5125	-3.3729	-2.8438	-3.4313	-3.1146	-2.9917	-3.4437	-3.1375	-3.0333	-3.2083	-3.1604	-2.9708	-3.3604	-2.8979	-3.0938	-3.3396	209.841	381.024	114.332	367.664	408.711	417.762	433.523	112.213	356.345	379.702	97.821	120.242	450.919	445.655	192.504	252.939	0.00088662	0.00026404	0.00015435	1289.6	6.6815e-06	1.2002e-05	1361.6	271.87	7.4276e-06	3.0546e-06	331.99	92.392	73.078	21.192	7.9143e-06	29.423	0.0010377	0.00097538	0.00031813	1309	1.1078e-05	1.0841e-05	1377.4	284.84	1.1161e-05	1.051e-05	349.5	98.451	78.133	23.375	1.2382e-05	32.545	436.563	250.827	176.202	106.616	281.734	214.985	106.315	113.670	238.396	269.993	113.295	119.543	119.836	126.628	254.597	126.065	-8191	255	
6569.792	1	1	0	0	0.066015	0.12758	0.12004	0.11575	0.2055	0.072385	0.41433	0.20301	0.05433	0.084262	0.18489	0.16943	0.20445	0.18542	0.16266	0.18245	-2.3833	-3.3937	-2.9854	-3.3479	-3.2958	-2.9167	-3.2917	-3.275	-2.9167	-3.4333	-2.925	-3.1208	-3.2729	-2.9875	-2.9354	-3.2062	384.813	310.659	421.700	117.721	397.810	115.918	399.114	384.142	184.427	117.884	437.908	369.927	338.965	451.393	311.272	111.236	0.00057992	0.00091623	0.00021323	1283	1.9015e-06	1.1866e-05	1354.1	272.18	7.7399e-06	7.0818e-06	332.82	91.647	72.351	20.955	1.6513e-06	29.124	0.00098212	0.00095649	0.00031603	1301.3	1.0144e-05	1.0511e-05	1369.4	281.48	1.0071e-05	1.0223e-05	346.98	96.757	76.52	23.006	1.165e-05	31.857	435.897	170.654	155.446	106.634	105.057	230.050	106.612	113.923	308.253	224.770	113.297	119.507	119.964	126.600	143.065	126.666	-8191	255	
6569.911	1	1	0	0	0.13573	0.13741	0.21397	0.38999	0.14128	0.1752	0.23606	0.073018	0.20041	0.11874	0.17075	0.20769	0.19418	0.31523	0.029329	0.20037	-2.4542	-3.0167	-3.0229	-3.0229	-3.4	-2.8688	-3.2708	-3.075	-2.9042	-3.3229	-3.2333	-2.6958	-3.3771	-2.7104	-3.0354	-3.1437	439.644	110.463	97.009	406.091	373.604	254.294	409.150	344.178	424.519	238.488	389.931	420.169	444.565	118.741	453.005	97.267	0.0010818	0.00065801	9.0945e-05	1270.3	4.5323e-06	1.0852e-05	1338.4	267.65	3.5153e-06	9.4534e-06	326.18	90.057	70.987	20.804	9.4368e-06	28.514	0.00088975	0.00094561	0.0002987	1282.7	9.5748e-06	1.061e-05	1350.4	276.33	9.5433e-06	1.0348e-05	339.03	94.396	74.686	22.55	1.025e-05	30.862	434.532	174.069	280.199	106.754	386.754	268.389	106.677	113.701	256.342	264.882	113.711	119.536	120.399	126.799	297.678	126.305	-8191	255	
6569.982	1	1	0	0	0.092592	0.188	0.19024	0.37201	0.053944	0.20081	0.024648	0.23911	0.24779	0.068522	0.14766	0.2163	0.14363	0.17621	0.1247	0.19486	-2.4167	-3.2083	-2.9854	-3.1167	-3.2771	-2.9021	-3.3458	-3.2938	-2.9917	-3.2417	-3.0729	-3.0812	-3.2146	-3.1083	-3	-3.3812	369.840	150.960	362.580	402.773	110.583	445.450	381.217	375.896	127.508	105.264	358.552	384.065	162.495	453.536	427.416	452.040	0.00083889	0.0012439	0.00013767	1239.5	4.5191e-06	4.0214e-06	1301.1	260.09	7.0875e-06	4.4788e-06	315.99	87.174	68.665	19.898	1.059e-05	27.861	0.0007615	0.00084821	0.00023517	1243.5	7.3638e-06	8.481e-06	1304.8	263.03	6.6803e-06	7.5174e-06	322.07	89.382	70.434	21.133	6.7304e-06	29.178	428.561	130.450	253.768	106.727	398.161	162.026	106.700	113.777	249.322	197.127	113.471	120.198	120.793	127.470	251.162	126.978	-8191	255	
6570.078	1	1	0	0	0.15173	0.096899	0.22155	0.14977	0.12049	0.068496	0.43043	0.11711	0.10309	0.12902	0.093984	0.15507	0.17693	0.13412	0.12014	0.25304	-2.5104	-3.2062	-3.0583	-2.9062	-3.2083	-2.8896	-3.2854	-3.4083	-2.7	-3.1417	-3.1437	-2.9979	-3.4208	-3.1604	-3.2	-3.2458	190.500	231.304	121.428	298.512	431.747	271.592	379.191	442.724	127.074	109.747	427.852	133.857	100.065	103.669	200.970	334.459	0.00095158	0.00022797	0.00010227	1204.1	5.5267e-06	4.0714e-06	1280.6	254.41	7.1698e-06	7.3726e-06	311.47	85.997	67.743	19.554	6.2437e-07	27.481	0.00054609	0.0006195	0.00016242	1202.4	5.7697e-06	6.6777e-06	1270.5	255.15	5.7357e-06	6.4628e-06	314.61	87.499	69.227	20.631	5.6521e-06	28.632	438.370	208.354	215.374	106.985	313.105	241.824	106.743	114.131	188.108	153.607	113.536	120.236	120.872	127.871	432.533	126.668	-8191	255	
6570.199	1	1	0	0	0.096143	0.29678	0.064937	0.20974	0.077876	0.27023	0.15598	0.18181	0.15291	0.13407	0.23437	0.25449	0.14751	0.054213	0.12785	0.12262	-2.5583	-3.1458	-3.1813	-3.1021	-3.1792	-3.1104	-3.125	-3.4333	-2.8458	-3.1896	-3.4688	-2.7875	-3.275	-3.1917	-2.8521	-3.2229	300.699	324.650	181.335	393.866	385.602	365.768	357.607	380.115	409.509	391.353	406.203	397.712	418.999	374.643	354.167	211.349	0.00096345	0.00064615	0.00015451	1197.9	6.2035e-06	2.8786e-06	1267.1	250.64	8.5726e-06	2.6026e-06	308.13	85.441	67.041	19.524	4.2818e-06	27.326	0.0005128	0.00055091	0.00013835	1185.5	5.4311e-06	5.9198e-06	1254.6	250.76	5.604e-06	5.9126e-06	310.64	86.63	68.705	20.405	5.2831e-06	28.375	434.139	218.465	155.934	106.839	226.688	423.980	106.808	114.151	221.183	116.932	113.697	120.322	120.466	127.567	314.789	126.768	-8191	255	
6570.295	1	1	0	0	0.24776	0.17979	0.19315	0.17307	0.13529	0.30063	0.12922	0.085123	0.1666	0.18296	0.068766	0.12468	0.10941	0.068487	0.016374	0.16318	-2.7646	-3.1583	-3.0979	-3.0667	-3.1521	-3.25	-2.9813	-3.1521	-3.0812	-3.1104	-3.3208	-2.9208	-3.0917	-3.1896	-2.875	-3.3875	452.981	372.146	136.943	443.581	132.726	208.564	451.333	425.877	362.449	187.370	407.193	313.365	148.773	418.155	422.001	201.737	0.00083806	0.00024464	0.00013636	1190.5	6.9063e-06	3.7781e-06	1263.6	248.49	4.1602e-06	1.9234e-06	307.79	85.291	66.579	19.303	1.4392e-06	27.229	0.00050957	0.00050492	0.00012709	1179.7	5.4048e-06	5.3045e-06	1247.6	248.45	5.4286e-06	5.266e-06	308.38	85.911	68.282	20.146	4.9054e-06	28.249	435.403	283.494	128.164	106.959	238.131	305.191	106.970	114.446	332.319	280.888	113.745	120.243	120.707	127.645	339.743	126.875	-8191	255	
6570.391	1	1	0	0	0.043033	0.28764	0.14003	0.16993	0.17258	0.20865	0.15583	0.16361	0.069231	0.062228	0.093843	0.18122	0.17282	0.11242	0.14064	0.028672	-2.5771	-2.9562	-2.9938	-3.0812	-3.2208	-3.0833	-3.1021	-3.3667	-3.0687	-2.9437	-3.3854	-2.9354	-3.0354	-3.3375	-2.9542	-3.1104	328.823	324.417	443.408	215.178	109.128	346.003	394.650	367.870	377.978	368.349	103.139	158.546	395.292	447.273	141.629	143.329	0.0010528	0.00013103	9.1536e-05	1184.5	7.833e-06	2.5374e-06	1260.5	248.35	5.1826e-06	3.7623e-06	307.39	85.006	67.117	19.352	4.3557e-06	27.196	0.00050345	0.00047182	0.00012346	1176.6	5.6136e-06	5.1996e-06	1246.6	249.13	5.6864e-06	5.2762e-06	308.23	86.338	68.594	20.198	5.0905e-06	28.402	426.534	336.178	259.393	107.096	262.747	412.566	107.027	114.168	181.099	323.183	113.922	120.162	120.298	127.334	252.353	126.745	-8191	255	
6570.487	1	1	0	0	0.12696	0.22608	0.28404	0.11594	0.18798	0.21869	0.32751	0.077534	0.16318	0.29361	0.20235	0.18515	0.16253	0.20388	0.15185	0.16759	-2.7333	-3.0938	-3.3021	-3.0083	-2.9979	-3.3958	-2.9	-3.4146	-2.8812	-2.95	-3.3229	-3.0396	-3.1042	-3.1208	-2.7729	-3.1271	123.193	441.892	340.990	376.914	260.058	206.777	367.969	288.577	367.582	143.170	193.139	387.969	306.221	108.352	117.676	156.636	0.00088303	0.00041595	0.00019981	1186.1	5.4064e-06	3.3964e-06	1258.6	248.34	9.6617e-06	4.6995e-06	307.66	85.359	66.864	19.365	4.7473e-06	27.272	0.00053062	0.00049278	0.00012758	1180.9	5.9063e-06	5.2757e-06	1248.6	249.91	5.7787e-06	5.4329e-06	308.87	86.663	68.62	20.204	5.1403e-06	28.538	428.658	128.948	191.102	106.823	216.913	280.527	106.927	114.068	263.436	232.983	113.805	120.049	120.676	127.328	243.907	127.124	-8191	255	
6570.584	1	1	0	0	0.10306	0.16022	0.26052	0.25549	0.015715	0.11065	0.18179	0.1376	0.10478	0.22988	0.26455	0.18122	0.090208	0.28753	0.2761	0.25011	-2.7438	-2.8708	-3.3333	-3.1375	-2.9542	-3.1583	-3.0896	-3.2667	-3.0354	-2.7687	-3.4708	-2.8792	-3.0729	-3.2604	-2.8937	-3.3729	120.846	410.392	126.289	430.924	186.383	101.124	356.391	328.469	248.577	433.946	436.287	333.338	195.504	99.834	424.585	350.871	0.0010099	0.00046506	0.00012931	1192.4	5.6667e-06	1.9986e-06	1258.4	248.89	6.0882e-06	1.8109e-06	307.2	85.386	66.824	19.356	5.2682e-06	27.145	0.00051822	0.00048466	0.00012489	1184.6	5.6508e-06	5.0485e-06	1248.2	250.59	5.4901e-06	5.1485e-06	308.56	86.791	68.416	20.151	5.1875e-06	28.55	432.466	193.568	207.983	106.829	235.184	371.891	106.991	114.432	220.163	245.565	113.459	120.133	120.752	127.467	213.651	126.654	-8191	255	
6570.680	1	1	0	0	0.23199	0.038246	0.22802	0.25546	0.089651	0.2784	0.15107	0.29902	0.26568	0.1799	0.24245	0.10421	0.10913	0.18309	0.063204	0.23433	-2.7604	-2.7583	-3.1937	-3.1042	-3.1354	-3.1188	-3.1083	-3.2687	-3.05	-2.8396	-3.1396	-2.9896	-2.9896	-3.1771	-2.8229	-3.2125	189.393	270.511	232.186	418.126	246.895	232.084	327.392	395.804	148.201	284.068	117.516	423.786	408.565	149.530	236.466	354.464	0.00076418	0.00026574	0.00021246	1191.4	5.7331e-06	2.9722e-06	1255.5	249	2.6964e-06	4.96e-06	307.32	85.033	66.717	19.476	5.5378e-06	27.052	0.00049046	0.00046966	0.00013104	1182.9	5.3525e-06	4.923e-06	1246	250.78	5.2062e-06	5.0126e-06	309.49	86.656	68.284	20.129	5.4864e-06	28.538	449.267	209.052	220.767	106.985	308.627	226.859	106.801	114.154	185.040	257.834	113.696	120.220	120.810	127.614	198.061	127.102	-8191	255	
6570.776	1	1	0	0	0.073577	0.203	0.18342	0.21507	0.28491	0.16527	0.22227	0.096818	0.34544	0.2663	0.15142	0.16001	0.10966	0.18548	0.2109	0.32091	-2.7562	-2.8521	-3.1854	-3.1917	-2.8917	-3.4979	-3.1437	-3.1688	-3.2417	-2.9792	-3.2438	-3.1958	-2.8312	-3.4792	-2.8417	-3.3583	195.716	141.679	348.197	387.212	293.053	339.113	314.012	155.257	213.741	424.320	340.067	340.684	303.950	151.068	329.862	385.208	0.00088366	0.00038809	2.9107e-05	1187.8	2.7322e-06	2.1295e-06	1260.5	249.17	7.3888e-06	4.7402e-06	307.39	85.325	66.73	19.238	5.7965e-06	27.339	0.00047102	0.00044899	0.00013826	1180.6	5.2204e-06	4.7472e-06	1250.3	250.4	4.9418e-06	4.8951e-06	309.7	86.78	68.143	20.089	5.7095e-06	28.599	431.721	191.142	244.268	106.882	162.855	286.470	106.997	114.265	263.894	200.906	113.913	120.441	120.558	127.594	275.049	126.892	-8191	255	
6570.872	1	1	0	0	0.2226	0.11666	0.016455	0.18152	0.24909	0.15728	0.30213	0.25778	0.16726	0.33448	0.3607	0.23703	0.21773	0.027207	0.135	0.18642	-2.8	-3.0833	-3.275	-3.3229	-3.0604	-3.2083	-3.0812	-3.0563	-3.0375	-2.9813	-3.3875	-3.1417	-3.0833	-3.3771	-3.2729	-3.1	213.516	402.169	200.999	374.973	397.124	408.164	450.233	408.895	251.914	227.926	128.724	389.282	205.305	325.975	205.183	302.101	0.0010316	0.00060121	0.00024065	1189.9	5.6759e-06	8.1071e-06	1259.1	248.21	8.3695e-06	2.4932e-06	305.64	84.809	66.633	19.389	5.0468e-06	27.153	0.00045591	0.00045601	0.00014611	1181.8	5.0125e-06	4.8254e-06	1250.1	249.53	4.8737e-06	4.8572e-06	309.19	86.366	67.962	20.132	5.6263e-06	28.442	437.497	137.802	166.742	107.026	220.209	278.632	106.936	114.097	222.781	199.364	113.754	120.508	120.687	127.465	209.221	126.934	-8191	255	
6570.991	1	1	0	0	0.072206	0.32531	0.22299	0.12276	0.08902	0.17385	0.41697	0.14981	0.13663	0.26722	0.049733	0.20258	0.39743	0.25502	0.33529	0.33771	-2.7896	-2.8896	-3.2708	-3.2708	-3.0438	-3.3771	-3.2792	-2.9875	-3.3	-2.9	-3.3646	-3.225	-2.8875	-3.2771	-3.1437	-2.9417	346.671	128.601	103.024	453.545	216.751	285.397	405.991	364.378	281.680	409.464	413.611	329.094	418.905	419.686	435.776	216.526	0.000731	0.00056382	0.00015916	1186.6	7.9309e-06	5.5296e-06	1261.2	249.66	5.8799e-06	7.5373e-06	306.92	85.066	67.223	19.498	1.5169e-06	27.335	0.00043334	0.00045439	0.00014413	1179.3	4.8469e-06	4.987e-06	1251	249.37	4.602e-06	5.1855e-06	309.77	86.345	68.134	20.306	5.546e-06	28.473	441.227	147.854	241.995	106.921	282.933	303.990	106.817	114.114	274.169	242.262	114.029	120.350	120.562	127.359	101.327	126.961	-8191	255	
6571.087	1	1	0	0	0.033227	0.25622	0.28506	0.32813	0.19597	0.068797	0.34768	0.046502	0.11043	0.15966	0.09697	0.11109	0.29495	0.18024	0.04811	0.15251	-2.8896	-2.9146	-3.2917	-3.2896	-3.0354	-3.3833	-3.3271	-3.0771	-3.15	-3.1167	-3.0771	-3.2438	-2.9542	-3.1979	-3.1167	-2.7938	251.869	295.579	141.425	424.140	158.292	359.755	360.223	107.216	256.178	441.485	443.273	413.247	118.298	169.424	127.717	139.267	0.00087445	0.00067715	0.00014921	1191.2	5.2794e-06	6.8263e-06	1257.7	249.41	4.3203e-06	4.693e-06	307.92	85.575	67.068	19.346	4.8582e-06	27.171	0.00042373	0.0004817	0.00014109	1179.1	4.6628e-06	5.2479e-06	1247.2	249	4.5354e-06	5.3664e-06	309.63	86.188	68.052	20.31	5.1514e-06	28.34	442.125	180.746	156.933	106.793	172.619	277.555	106.878	114.375	250.931	219.608	113.653	120.579	120.493	127.513	133.735	126.839	-8191	255	
6571.183	1	1	0	0	0.27817	0.19646	0.068674	0.13139	0.28488	0.065367	0.3135	0.17021	0.19376	0.21235	0.09991	0.47685	0.22319	0.28317	0.21276	0.2609	-3.0021	-2.8292	-3.0958	-3.4375	-2.7521	-3.2438	-3.1854	-3.2208	-3.2208	-3.1188	-3.1979	-3.3208	-3.2271	-3.2104	-3.1354	-3.025	359.527	171.374	187.836	408.795	253.459	259.642	376.938	110.849	182.460	246.235	404.321	429.839	314.506	213.230	239.584	361.986	0.00083663	0.00028571	0.00010431	1186.7	6.3408e-06	3.2854e-06	1252.5	248.59	5.006e-06	2.4416e-06	306	85.007	67.084	19.454	9.3665e-07	27.271	0.00041378	0.00048198	0.00012955	1173.4	4.5733e-06	5.1476e-06	1241.3	248.17	4.4621e-06	5.2331e-06	307.66	85.681	67.803	20.27	4.753e-06	28.237	435.368	263.357	201.174	107.019	229.028	307.519	106.856	114.331	276.682	214.949	113.717	120.391	120.643	127.664	119.210	127.021	-8191	255	
6571.279	1	1	0	0	0.25113	0.21487	0.076528	0.31684	0.18987	0.2339	0.36154	0.21464	0.020855	0.14578	0.11294	0.23119	0.24548	0.12955	0.25685	0.089712	-2.7125	-3.025	-3.1104	-3.4917	-2.9062	-3.1979	-3.2917	-3.0438	-3.3104	-3.025	-3.0958	-3.4792	-2.9458	-3.2	-3.0563	-3.0312	263.944	304.040	158.907	393.210	370.312	194.602	113.937	100.290	266.751	280.689	418.965	423.753	244.636	275.679	379.197	97.609	0.00084353	0.00052553	0.00011399	1181.1	7.5262e-06	1.8588e-06	1254.7	247.53	7.3203e-06	5.9675e-06	306.79	85.067	66.781	19.4	6.0111e-06	27.4	0.00042652	0.00047828	0.00012286	1169.8	4.7958e-06	5.2338e-06	1237.5	247.4	4.7542e-06	5.2387e-06	307.67	85.588	68.067	20.261	4.6392e-06	28.235	441.229	226.344	182.647	106.980	211.152	390.383	106.796	114.394	207.792	260.062	113.926	120.666	120.952	127.354	262.361	126.613	-8191	255	
6571.376	1	1	0	0	0.10475	0.25976	0.1376	0.050727	0.15814	0.22189	0.15354	0.17168	0.024693	0.053228	0.22798	0.13697	0.076686	0.18785	0.29304	0.11231	-2.8708	-2.9875	-2.8812	-3.4021	-3.0271	-2.8958	-3.4562	-2.9646	-3.3208	-3.1583	-2.9813	-3.4104	-2.9292	-3.1229	-3.0958	-2.8854	435.717	454.597	365.536	307.901	377.680	400.065	420.262	178.782	394.737	440.300	389.367	369.994	168.456	410.166	398.235	300.616	0.00097359	0.00060517	5.3543e-05	1176.3	5.051e-06	1.8982e-06	1253.2	247.57	4.6364e-06	2.2248e-06	306.18	85.242	66.65	19.436	4.9311e-06	27.33	0.00044928	0.00046696	0.00012136	1167.4	5.0487e-06	5.0569e-06	1240.1	247.65	5.0193e-06	5.0869e-06	307.54	85.731	68.242	20.277	4.6672e-06	28.328	431.567	193.574	241.980	106.997	140.410	216.217	107.172	113.902	262.461	322.057	113.482	120.247	120.573	127.826	316.930	127.025	-8191	255	
6571.472	1	1	0	0	0.028038	0.49484	0.17586	0.013177	0.24037	0.20656	0.31343	0.27688	0.089348	0.10656	0.42401	0.15438	0.024098	0.15952	0.12249	0.049396	-2.8	-3.2104	-3.0312	-3.4167	-3.0042	-2.975	-3.4396	-3.0563	-3.2375	-3.1583	-2.925	-3.4542	-3.0917	-3.2708	-3.2521	-2.8083	150.654	330.866	126.076	130.423	373.607	430.960	418.522	386.495	413.793	320.474	358.817	216.537	278.208	164.288	288.202	259.253	0.00093585	0.00033224	0.00021486	1180	2.3081e-06	3.5745e-06	1253.1	248.7	3.9313e-06	3.1321e-06	306.48	85.856	66.82	19.552	4.5497e-06	27.421	0.0004885	0.00046345	0.00012445	1171.3	5.3901e-06	5.0364e-06	1240.2	248.72	5.3195e-06	4.8727e-06	307.78	86.225	68.305	20.248	4.4938e-06	28.455	425.315	238.304	181.678	106.789	286.537	396.705	107.107	114.197	208.969	269.362	113.504	120.441	120.593	127.554	260.630	126.712	-8191	255	
6571.592	1	1	0	0	0.2721	0.08387	0.036359	0.13058	0.37361	0.33713	0.1564	0.15855	0.24405	0.086586	0.17071	0.24785	0.073582	0.071662	0.14685	0.18067	-2.7104	-3.0625	-2.85	-3.2646	-3.15	-2.925	-3.575	-3.0375	-3.2229	-3.15	-3.025	-3.2208	-2.9708	-2.925	-3.2	-2.7812	158.039	293.008	166.891	424.368	106.086	158.647	434.810	191.681	409.728	352.569	430.247	404.465	340.798	126.020	357.098	441.368	0.0010128	0.00012474	3.4413e-05	1189.1	1.3743e-06	3.5604e-06	1261.6	249.58	8.6357e-06	3.8405e-06	308.05	85.793	67.339	19.48	4.445e-06	27.46	0.00048538	0.0004344	0.00011857	1173.7	5.2339e-06	4.7214e-06	1241.2	249.37	5.0187e-06	4.5549e-06	308.33	86.359	68.482	20.253	4.3044e-06	28.568	422.967	174.391	230.940	107.013	212.459	264.560	106.755	114.388	281.078	184.811	113.430	120.278	120.595	127.752	201.671	127.065	-8191	255	
6571.688	1	1	0	0	0.17049	0.17911	0.10824	0.023526	0.034627	0.19218	0.18881	0.18501	0.26645	0.21575	0.050197	0.1622	0.074072	0.20563	0.16959	0.15424	-2.7125	-3.1083	-2.8979	-3.3833	-3.2396	-2.9292	-3.4062	-2.9688	-3.1333	-3.2875	-3.0396	-3.2083	-3.1667	-2.9062	-3.3812	-2.9437	249.378	165.426	308.475	454.987	430.637	369.258	422.999	401.979	364.421	374.136	320.267	111.591	281.407	421.560	390.232	345.535	0.0007772	0.00015095	0.00016001	1187.8	4.9713e-06	2.3705e-06	1253	249.58	3.0459e-06	3.7733e-06	308.32	85.709	67.396	19.477	9.3575e-06	27.554	0.00045675	0.00041911	0.00011383	1177.3	4.9049e-06	4.5543e-06	1240.1	250.19	4.8565e-06	4.3687e-06	308.46	86.672	68.253	20.223	4.4307e-06	28.64	432.300	163.676	290.141	106.911	171.417	260.973	106.952	114.106	282.175	329.153	113.630	120.457	120.569	127.752	222.246	127.082	-8191	255	
6571.783	1	1	0	0	0.19569	0.092877	0.15021	0.22331	0.094726	0.25315	0.27469	0.31318	0.13778	0.11597	0.2517	0.32467	0.1022	0.2771	0.088275	0.20983	-2.7333	-3.1979	-2.8417	-3.2396	-3.1896	-2.9271	-3.5792	-3.2146	-3.1021	-3.3292	-2.9562	-3.0896	-3.3312	-2.7875	-3.2771	-2.9188	443.417	263.074	347.086	436.380	206.089	305.995	421.232	383.913	241.013	294.855	135.523	379.249	330.058	410.916	145.150	146.599	0.0008444	0.00014926	0.0001549	1182.1	6.7606e-06	1.9574e-06	1255.5	250.74	6.8068e-06	4.4724e-06	309.64	86.213	67.273	19.49	7.5407e-06	27.396	0.00044252	0.00039956	0.00011756	1174.7	4.7323e-06	4.5569e-06	1241.4	250.77	4.6886e-06	4.4141e-06	309.26	87.237	68.29	20.259	4.7572e-06	28.654	433.436	453.997	176.241	106.964	236.724	273.364	107.020	114.364	238.920	197.914	113.575	120.411	120.452	127.253	192.924	126.719	-8191	255	
6571.881	1	1	0	0	0.060101	0.28291	0.095976	0.18851	0.12154	0.1184	0.075175	0.12541	0.23079	0.14948	0.1863	0.065484	0.14211	0.099949	0.18631	0.26787	-2.7313	-3.1688	-3.0187	-3.2417	-3.1604	-2.8875	-3.4396	-3.2021	-2.8292	-3.4646	-3.1521	-3.1833	-3.2562	-2.8187	-3.2083	-3.3354	115.460	266.319	111.912	116.874	319.201	381.495	436.195	396.005	154.243	160.890	435.967	134.447	454.378	452.588	229.217	358.622	0.00083115	0.00040028	0.00023857	1185.8	2.1659e-06	3.4415e-06	1261.7	250.48	3.8168e-06	2.0331e-06	307.8	86.374	67.301	19.614	5.0454e-06	27.448	0.00043271	0.00039788	0.00012549	1175.9	4.6351e-06	4.4386e-06	1245.8	251.21	4.5684e-06	4.2599e-06	309.84	87.169	68.305	20.284	4.8637e-06	28.577	447.729	185.479	124.923	106.894	194.635	319.998	106.851	114.248	198.249	228.347	113.493	120.207	120.874	127.149	251.965	126.572	-8191	255	
6571.975	1	1	0	0	0.15094	0.080019	0.10381	0.37065	0.091996	0.18772	0.2422	0.043043	0.089171	0.18785	0.17022	0.078869	0.026989	0.065321	0.22676	0.15151	-2.6292	-3.2646	-2.9708	-3.2833	-3.2313	-2.85	-3.5	-3.1104	-2.8438	-3.4375	-3.0833	-3.0104	-3.3937	-3.1042	-3.4146	-3.2417	165.492	389.997	153.929	403.238	137.035	285.011	390.236	379.312	198.415	423.815	352.711	364.537	342.679	387.716	322.306	309.064	0.00080192	0.00030047	7.306e-05	1186.6	5.1672e-06	5.1567e-06	1259.7	250.71	3.8193e-06	2.4948e-06	309.63	86.203	67.519	19.702	4.1622e-06	27.576	0.00041514	0.00037954	0.00012729	1174.5	4.306e-06	4.2755e-06	1245.9	250.7	4.2922e-06	4.1831e-06	310.52	86.906	68.238	20.318	4.8868e-06	28.523	432.070	126.344	206.779	106.720	315.197	217.324	106.927	114.169	281.859	198.365	113.612	120.442	121.048	127.344	268.992	126.798	-8191	255	
6572.071	1	1	0	0	0.18818	0.26381	0.098967	0.31595	0.086158	0.24139	0.35235	0.018212	0.044339	0.1169	0.25715	0.27273	0.14825	0.26853	0.19932	0.25119	-2.4854	-3.2917	-2.8833	-3.2021	-3.2271	-3.0271	-3.4104	-3.3458	-3.0042	-3.3479	-3.0917	-3.2125	-3.1917	-3.1458	-3.0667	-3.2667	276.636	452.340	446.069	434.418	430.354	351.257	423.236	438.141	337.443	445.331	427.864	369.533	185.750	426.466	101.981	341.773	0.00084492	0.00015311	3.7797e-05	1187	6.1276e-06	5.638e-06	1254.6	250.16	4.0041e-06	2.2909e-06	310.36	86.149	67.873	19.623	6.2676e-06	27.592	0.0003893	0.00038536	0.00012582	1174.6	4.109e-06	4.3832e-06	1242.8	250.41	4.1984e-06	4.3556e-06	311.54	86.905	68.252	20.394	4.9167e-06	28.545	438.312	116.575	258.330	106.973	251.495	259.220	106.803	114.211	168.174	131.985	113.647	120.319	120.482	127.375	390.479	126.830	-8191	255	
6572.167	1	1	0	0	0.032631	0.11416	0.17706	0.39147	0.20836	0.1575	0.076332	0.11492	0.1807	0.022085	0.31969	0.29149	0.12168	0.057672	0.20257	0.15376	-2.5062	-3.2062	-2.9042	-3.2125	-3.2854	-3.0333	-3.3187	-3.3771	-2.8187	-3.2479	-3.1604	-3.1521	-3.2833	-2.9771	-3.1958	-3.2938	425.798	159.134	247.749	419.346	428.965	384.574	440.028	110.462	217.163	171.418	430.441	389.836	412.348	193.081	223.527	120.856	0.00092602	0.00062257	5.5381e-05	1187.8	3.566e-06	1.9062e-06	1255.4	251.62	4.6764e-06	7.6843e-06	310.22	86.51	67.789	19.802	3.2174e-06	27.556	0.000388	0.00041072	0.00012497	1174.5	4.0183e-06	4.6048e-06	1245.2	251.37	4.0963e-06	4.614e-06	311.53	87.039	68.247	20.52	4.7839e-06	28.604	434.085	169.469	367.708	106.978	177.523	294.674	106.769	114.079	177.631	228.673	113.880	120.324	120.526	127.528	221.853	126.656	-8191	255	
6572.288	1	1	0	0	0.3117	0.13613	0.27066	0.10403	0.12585	0.080127	0.25915	0.33657	0.20265	0.21198	0.38288	0.14256	0.20198	0.14841	0.12511	0.32802	-2.4854	-3.2375	-3.0896	-3.025	-3.3	-2.9542	-3.2292	-3.3729	-2.9167	-3.3479	-3.1333	-2.9604	-3.2354	-3.0771	-2.9542	-3.4188	118.811	431.324	451.226	425.806	391.658	136.641	301.392	441.688	119.581	228.106	356.524	326.896	185.771	437.420	201.256	395.695	0.00090586	0.00061148	8.1176e-06	1189.3	1.0752e-05	9.6586e-06	1255.6	252.77	8.7929e-06	5.8709e-06	310.53	86.394	68.171	19.827	4.7392e-06	27.781	0.00038922	0.00044127	0.00012153	1175.9	4.2009e-06	4.9151e-06	1244.7	251.8	4.3275e-06	4.9783e-06	312.57	87.137	68.634	20.684	4.814e-06	28.71	439.646	167.866	228.869	106.956	235.876	242.151	106.898	114.168	207.271	175.456	113.823	120.507	120.516	127.276	404.524	126.288	-8191	255	
6572.384	1	1	0	0	0.27666	0.14904	0.28224	0.36588	0.24026	0.18866	0.32329	0.22488	0.12954	0.22254	0.015618	0.20703	0.15815	0.16991	0.15227	0.23289	-2.5667	-3.2854	-3.1771	-3.1708	-3.275	-2.9625	-3.3125	-3.4917	-2.9604	-3.0938	-3.4229	-2.8917	-3.325	-3.1521	-3.0125	-3.2229	190.984	248.202	158.278	395.380	123.504	147.050	410.547	419.769	340.782	306.875	408.824	369.170	425.284	406.525	299.596	453.927	0.0010513	0.00010161	8.9479e-05	1187.7	9.1181e-06	1.5668e-06	1263.8	252.63	6.4207e-06	4.9876e-06	310.64	86.546	68.516	19.733	2.1736e-06	27.849	0.00042026	0.00046369	0.00012023	1176.1	4.496e-06	5.1392e-06	1247.6	251.92	4.6501e-06	5.2005e-06	312.22	87.039	69.149	20.64	4.8351e-06	28.689	432.929	231.657	152.711	106.917	188.105	223.934	106.932	114.279	275.916	263.521	113.689	120.370	120.463	127.355	222.108	126.547	-8191	255	
6572.456	1	1	0	0	0.050059	0.19019	0.071804	0.41594	0.10654	0.13334	0.29614	0.17454	0.080502	0.1272	0.20003	0.025555	0.061983	0.21966	0.10072	0.127	-2.1958	-3.0646	-3.0604	-3.1188	-3.3625	-2.9729	-3.3812	-3.2604	-2.8521	-3.2896	-3.2021	-2.9792	-3.425	-2.8083	-3.0208	-3.3292	220.057	202.961	188.807	409.924	228.616	350.733	427.356	339.524	412.304	161.784	435.369	257.252	301.482	102.963	207.649	418.779	0.00083883	4.8267e-05	8.0859e-05	1189	4.4592e-06	2.2196e-06	1258.4	252.47	1.0933e-05	3.5559e-07	311.85	86.729	68.326	19.775	2.4412e-06	27.744	0.00045878	0.00048397	0.00012316	1177.7	5.0438e-06	5.2485e-06	1247.1	252.33	5.0425e-06	5.1889e-06	312.59	87.172	69.187	20.634	4.7883e-06	28.718	436.176	336.563	149.807	106.831	199.335	329.797	106.815	113.947	269.972	338.589	113.746	120.239	120.614	126.797	250.397	126.606	-8191	255	
6572.552	1	1	0	0	0.044555	0.26295	0.024233	0.18678	0.22407	0.28992	0.018093	0.11973	0.17174	0.21712	0.14225	0.24938	0.11498	0.25945	0.244	0.10082	-2.4938	-3.1771	-3.2812	-3.2062	-3.3146	-3.1104	-3.1375	-3.2396	-2.9437	-3.1229	-3.5021	-2.9562	-3.3563	-3.3896	-2.8208	-3.3812	177.353	323.000	203.183	444.596	126.461	415.734	141.622	371.004	154.863	278.731	428.614	127.482	109.987	447.495	375.582	422.715	0.0009768	0.00056675	3.229e-05	1188.1	8.1862e-06	7.8956e-06	1257.9	253.8	8.9799e-06	3.3577e-06	312.1	87.221	68.044	19.786	2.7018e-06	27.814	0.00047659	0.00046036	0.00011912	1177.8	5.284e-06	5.0617e-06	1249	252.98	5.399e-06	5.1676e-06	313.29	87.749	69.548	20.695	5.0221e-06	28.998	437.290	230.009	131.795	106.784	213.021	237.263	106.763	114.074	217.971	327.012	113.803	120.268	120.359	127.455	139.840	126.785	-8191	255	
6572.673	1	1	0	0	0.34761	0.17342	0.32318	0.25427	0.17766	0.26538	0.12618	0.13944	0.15154	0.18036	0.13375	0.21503	0.2437	0.01548	0.075148	0.019581	-2.6771	-3.0958	-3.4146	-3.05	-3.25	-2.9542	-3.0833	-3.5333	-3.0396	-2.975	-3.3563	-2.9229	-3.0687	-3.1146	-2.9188	-3.3333	179.714	449.309	411.132	406.034	107.454	117.861	342.547	384.082	305.822	418.472	122.653	372.329	104.803	224.973	105.044	103.943	0.00092619	0.00042314	0.00016935	1194.5	1.3694e-06	3.3059e-06	1269.2	254.43	1.5247e-07	1.7041e-06	313.95	87.543	68.397	19.85	2.0994e-06	28.051	0.00053387	0.00049004	0.00012886	1186.3	5.9858e-06	5.4243e-06	1257.9	255.65	6.0671e-06	5.6479e-06	316.14	88.935	70.609	20.909	5.5744e-06	29.417	430.489	182.073	246.221	106.693	231.706	243.166	106.797	113.729	143.961	385.171	113.559	120.072	120.709	127.510	161.923	126.844	-8191	255	
6572.769	1	1	0	0	0.059509	0.13831	0.18217	0.32089	0.2699	0.10552	0.24681	0.17283	0.19674	0.22803	0.30302	0.19012	0.1407	0.13803	0.25048	0.04531	-2.675	-2.9167	-3.3021	-3.1562	-3.3521	-3.25	-3.175	-3.3958	-3.0417	-2.8854	-3.4354	-2.9729	-3.2208	-3.2396	-2.9562	-3.2958	249.889	259.493	160.961	362.599	225.103	145.148	340.785	288.787	379.204	431.984	448.830	412.922	380.899	143.820	390.672	366.975	0.00081536	0.00023937	0.00010893	1202.2	1.2556e-06	2.7154e-06	1272.7	256.36	2.5812e-06	5.4041e-06	314.32	87.663	68.567	20.045	1.9308e-06	27.943	0.00057019	0.00052435	0.00013742	1197.1	6.2253e-06	5.6487e-06	1263	258.75	6.0743e-06	5.6506e-06	317.12	89.409	70.468	20.897	5.3475e-06	29.399	441.435	407.110	201.472	106.792	266.942	146.382	107.003	113.768	328.397	203.350	113.686	120.121	120.557	127.422	404.610	126.674	-8191	255	
6572.863	1	1	0	0	0.1405	0.36364	0.031911	0.22636	0.1293	0.098037	0.17587	0.25014	0.036974	0.18364	0.042196	0.14013	0.20966	0.091493	0.13244	0.052659	-2.5938	-2.8354	-3.4396	-3.1354	-2.9854	-3.3958	-3.0646	-3.4354	-3.125	-2.9458	-3.4271	-2.8708	-3.0958	-3.4271	-2.7771	-3.3958	357.225	128.169	276.562	347.648	455.727	334.555	368.954	428.345	215.629	333.278	382.868	224.062	334.825	164.004	329.430	400.058	0.00071678	0.00027063	0.00014307	1200.7	1.7951e-06	5.6313e-06	1278	256.01	5.0503e-06	5.1442e-06	314.98	87.189	68.306	19.8	3.8941e-06	27.846	0.00052637	0.00049382	0.00013302	1199.4	5.6752e-06	5.1393e-06	1263.8	257.78	5.4326e-06	5.1314e-06	316.81	88.961	69.876	20.724	5.2576e-06	29.257	440.146	291.223	189.953	106.790	409.541	253.796	106.743	114.060	451.378	314.400	113.727	119.930	120.678	127.261	293.499	126.725	-8191	255	
6572.961	1	1	0	0	0.22473	0.27561	0.076786	0.14406	0.078438	0.29346	0.53228	0.22807	0.061068	0.21696	0.20066	0.080178	0.094563	0.061528	0.18036	0.14197	-2.6375	-2.9208	-3.2167	-3.2313	-2.8958	-3.3292	-3.0625	-3.3563	-3.1375	-2.8542	-3.2667	-3.1	-2.8271	-3.2396	-2.9771	-3.1708	395.096	388.788	321.957	431.256	416.360	229.800	391.738	405.445	130.237	174.350	376.669	453.370	342.377	338.454	431.106	130.984	0.00085487	0.00057055	0.00017492	1204.5	6.1618e-06	4.3987e-06	1270.3	256.78	1.0878e-06	1.0594e-06	313.15	86.914	68.698	19.888	1.0693e-05	27.884	0.00048045	0.00046221	0.00013451	1197	5.2766e-06	4.8728e-06	1262.2	257.64	5.0838e-06	4.9111e-06	315.69	88.454	69.717	20.615	5.3048e-06	29.165	423.825	148.695	212.963	106.817	256.558	249.486	106.665	114.086	181.838	382.588	113.631	120.363	120.825	127.435	242.161	127.100	-8191	255	
6573.080	1	1	0	0	0.038122	0.14	0.25273	0.25292	0.26981	0.055009	0.24303	0.15134	0.10471	0.077096	0.16125	0.013004	0.25123	0.30208	0.10718	0.17112	-2.725	-2.7396	-3.1562	-3.1125	-2.9417	-3.2854	-3.0396	-3.0812	-3.4042	-2.825	-3.2125	-3.0708	-3.1708	-3.2542	-2.9208	-3.1979	356.580	300.992	312.796	424.642	157.481	401.613	417.517	355.261	367.279	405.953	152.959	291.527	409.124	186.010	375.893	344.135	0.00072363	0.00043419	9.2427e-05	1193.5	8.7571e-06	8.1164e-06	1268.2	254.19	8.1611e-06	5.3038e-06	313.68	86.592	68.282	19.881	1.5138e-06	27.638	0.00044298	0.00042305	0.00013383	1187.4	4.7303e-06	4.3741e-06	1253.8	254.53	4.5446e-06	4.4546e-06	314.29	87.5	68.967	20.462	5.1778e-06	28.819	430.697	160.453	236.035	106.858	234.928	269.775	106.857	114.137	123.355	256.464	113.627	120.204	120.470	127.560	144.878	126.671	-8191	255	
6573.152	1	1	0	0	0.12774	0.062042	0.11356	0.087621	0.10002	0.12382	0.36163	0.1667	0.14689	0.096233	0.098855	0.27791	0.1284	0.28893	0.21772	0.080715	-2.8417	-2.7125	-3.3	-3.1708	-3.0521	-3.2604	-3.1542	-3.25	-3.1	-3.0104	-3.3333	-3.1771	-2.9917	-3.2313	-3.1979	-2.9437	96.553	344.912	293.009	116.517	360.446	273.173	428.919	443.664	161.534	197.802	390.342	375.771	418.365	406.056	123.601	259.674	0.00078003	0.00026876	7.5295e-05	1188.3	2.0187e-06	7.8032e-06	1266.8	254.3	5.056e-06	1.86e-06	311.41	86.485	68.187	19.891	8.7278e-07	27.606	0.00040521	0.00040765	0.0001311	1181.3	4.455e-06	4.4173e-06	1252.4	254.11	4.3009e-06	4.491e-06	313.63	87.058	68.687	20.458	4.9555e-06	28.649	431.503	205.657	242.346	106.969	146.642	197.260	106.683	113.852	236.523	243.550	113.365	120.423	120.786	127.593	171.022	126.623	-8191	255	
6573.272	1	1	0	0	0.28935	0.25151	0.21618	0.2464	0.042687	0.12923	0.41464	0.072013	0.20718	0.15695	0.22389	0.1129	0.12347	0.13582	0.23189	0.16238	-2.8083	-2.8688	-3.2	-3.2229	-2.9292	-3.2083	-3.1854	-3.0771	-3.3167	-2.9271	-3.3604	-3.2208	-2.8896	-3.1854	-3.0729	-3.0375	204.046	112.756	312.412	409.358	235.296	331.211	433.490	418.419	342.154	332.592	427.244	104.438	136.188	106.287	420.052	339.902	0.00076059	0.00040587	0.0001468	1190.6	4.1363e-06	2.4668e-06	1256.8	252.82	5.5085e-06	7.1396e-06	310.75	86.685	68.028	19.568	1.8416e-06	27.552	0.00038204	0.00041408	0.00012496	1176.6	4.1159e-06	4.4014e-06	1246.7	251.9	3.9054e-06	4.4453e-06	311.49	86.733	68.156	20.323	4.5577e-06	28.416	428.687	181.331	274.591	106.918	283.923	266.760	106.894	114.263	197.784	193.354	113.748	120.417	120.724	127.514	234.625	126.789	-8191	255	
6573.368	1	1	0	0	0.25669	0.099989	0.11417	0.38368	0.12195	0.086556	0.23669	0.2291	0.16091	0.1241	0.21951	0.16607	0.15588	0.18799	0.0846	0.17472	-2.8896	-2.9938	-3.1271	-3.35	-2.8542	-3.1813	-3.3729	-3.0708	-3.25	-2.8917	-3.1708	-3.2417	-2.8812	-3.3187	-2.9875	-3.0458	390.469	388.878	403.229	430.205	356.284	387.038	430.342	437.548	260.199	204.911	426.069	96.959	104.011	399.635	245.311	101.597	0.00083246	0.00049175	0.00011986	1182.4	6.1036e-06	4.6184e-06	1254.9	252.63	8.8315e-06	3.5914e-06	310.72	86.335	67.373	19.638	2.9857e-06	27.557	0.00036033	0.00040931	0.00011275	1169.1	3.952e-06	4.4488e-06	1240.2	250.53	3.8089e-06	4.5366e-06	311.05	86.432	67.926	20.356	4.2688e-06	28.425	431.290	149.398	268.517	107.037	207.337	330.695	106.765	114.000	188.485	252.857	113.815	120.020	120.514	127.404	240.679	127.139	-8191	255	
6573.465	1	1	0	0	0.12897	0.16139	0.14428	0.2861	0.12259	0.090201	0.49952	0.080718	0.054846	0.1816	0.37985	0.10014	0.10902	0.044407	0.13425	0.09829	-3.1083	-2.8958	-2.9271	-3.4646	-2.7812	-3.1104	-3.5396	-2.8792	-3.2542	-2.9917	-3.0375	-3.3208	-3.1104	-3.1896	-3.2708	-2.7875	145.948	244.978	369.352	376.690	238.640	153.743	402.324	265.887	361.247	374.430	396.933	357.039	418.665	361.835	381.024	125.727	0.00096458	0.00057513	6.5473e-05	1181.9	7.5572e-06	3.5824e-06	1251.5	251.97	9.5959e-06	1.2408e-06	309.87	85.874	67.73	19.634	6.4311e-06	27.657	0.0003625	0.00041931	0.00011116	1167.1	4.044e-06	4.6362e-06	1238	250.21	4.0714e-06	4.6058e-06	309.82	86.127	68.301	20.343	4.1639e-06	28.368	439.820	247.466	111.525	107.061	227.503	327.458	106.973	114.187	256.967	355.133	113.869	120.273	120.864	127.516	231.104	126.903	-8191	255	
6573.561	1	1	0	0	0.05216	0.29187	0.20935	0.41899	0.30022	0.18812	0.14969	0.12387	0.20273	0.1234	0.1056	0.18505	0.33431	0.21247	0.20399	0.13528	-2.775	-3.0583	-2.8417	-3.3167	-2.9708	-3.05	-3.3104	-3.0458	-3.1667	-3.0458	-3.2	-3.3875	-3.0292	-3.175	-3.1458	-2.9062	179.497	387.288	197.741	401.700	415.142	416.852	409.010	352.979	232.522	214.801	408.099	397.205	357.809	266.116	324.528	119.132	0.00089885	0.00051044	3.5408e-05	1180.2	6.122e-06	4.1864e-06	1246.8	249.83	5.0532e-06	3.8098e-06	310.37	85.783	67.545	19.663	1.8905e-06	27.583	0.00038845	0.0004207	0.00010719	1165.8	4.3168e-06	4.5137e-06	1235.2	249.28	4.2373e-06	4.4617e-06	310.04	86.046	68.221	20.318	4.0081e-06	28.335	432.245	410.784	139.924	106.932	200.876	292.928	106.982	114.323	213.413	398.857	113.825	120.368	120.557	127.840	286.399	126.789	-8191	255	
6573.681	1	1	0	0	0.15852	0.17607	0.019166	0.034829	0.08847	0.17712	0.28955	0.14911	0.078601	0.11898	0.11537	0.29744	0.33933	0.028209	0.37495	0.2434	-2.7062	-3.0812	-2.9437	-3.4146	-3.0729	-2.9083	-3.3417	-3.025	-3.1458	-3.0979	-3.1667	-3.3833	-3.0104	-2.9708	-3.1854	-2.8854	267.030	173.311	370.903	96.916	170.527	362.878	394.972	437.388	231.340	448.785	428.858	383.277	370.629	252.134	135.529	136.119	0.00097203	0.00041373	0.00010373	1180.4	5.0982e-06	7.8169e-06	1252.8	250.56	6.824e-06	6.4435e-06	308.5	85.947	67.477	19.673	5.3266e-07	27.456	0.00040361	0.00039455	0.00010506	1164.3	4.511e-06	4.2923e-06	1234	249.89	4.4079e-06	4.2674e-06	309.15	86.279	68.287	20.338	3.9599e-06	28.375	424.762	216.982	213.362	106.952	255.984	297.903	106.692	114.144	206.437	235.446	113.664	120.283	120.600	127.631	196.691	126.606	-8191	255	
6573.753	1	1	0	0	0.32779	0.12122	0.1009	0.22256	0.12248	0.24471	0.27844	0.1992	0.1433	0.25918	0.13206	0.099705	0.1962	0.30622	0.060136	0.1807	-2.6375	-3.2854	-2.7292	-3.3896	-2.9417	-2.9437	-3.5729	-3.1854	-3.2042	-3.0042	-3.1146	-3.1979	-3.0521	-3.1667	-3.3604	-3.0833	127.896	108.794	226.162	420.097	239.009	336.515	413.038	158.997	283.772	102.875	322.275	440.886	449.890	104.654	220.108	423.077	0.00083481	0.00018882	3.6932e-05	1176.7	5.2019e-06	7.3112e-06	1248	252.31	1.9874e-06	2.3452e-06	310.12	86.293	67.346	19.517	2.3826e-06	27.62	0.00041816	0.00038443	0.00010278	1165.2	4.5849e-06	4.2377e-06	1236.8	251.06	4.5275e-06	4.0821e-06	308.99	86.477	68.398	20.201	3.8868e-06	28.504	440.899	252.852	228.956	106.761	261.173	304.119	106.910	114.147	208.139	345.396	113.434	120.250	120.367	127.767	180.293	127.060	-8191	255	
6573.849	1	1	0	0	0.23446	0.076076	0.036601	0.24932	0.20853	0.2147	0.1622	0.036398	0.29007	0.1256	0.12494	0.382	0.078832	0.01675	0.15062	0.039884	-2.6896	-2.9521	-2.5854	-3.3167	-2.8792	-2.9646	-3.5375	-3.0667	-3.0854	-3.2146	-2.9167	-3.2042	-3.3271	-2.9688	-3.2729	-3.0438	200.092	298.460	358.799	437.838	431.775	345.687	429.519	276.997	374.919	360.547	416.339	127.529	122.989	242.723	106.595	329.890	0.00085634	0.00074353	8.3955e-05	1176	7.8133e-06	4.3931e-06	1253	251.42	1.0153e-05	2.1584e-06	308.94	86.695	67.738	19.605	8.0096e-06	27.649	0.00042633	0.00037741	0.00010315	1166	4.5317e-06	4.1775e-06	1235	250.88	4.4909e-06	4.102e-06	309.19	86.909	68.376	20.32	3.9285e-06	28.598	443.270	202.512	194.333	106.948	256.024	245.522	106.760	114.274	176.088	148.298	113.780	120.312	120.680	127.641	300.205	126.921	-8191	255	
6573.945	1	1	0	0	0.29017	0.21522	0.19132	0.095363	0.14069	0.058096	0.22378	0.44052	0.13422	0.17747	0.17907	0.072367	0.32562	0.33828	0.021698	0.26957	-2.6042	-3.375	-2.6729	-3.3958	-3.0271	-2.8979	-3.5646	-3.0729	-2.8646	-3.1792	-2.9104	-3.2229	-3.4146	-2.9396	-3.4021	-3.0021	131.371	112.474	345.004	187.746	211.135	250.838	347.368	97.299	444.207	101.694	317.340	360.946	409.558	447.590	175.329	391.001	0.00092755	0.00044359	0.00012658	1176.2	4.8384e-06	7.8733e-06	1249.3	251.2	7.4907e-06	1.0939e-06	309.81	86.513	67.647	19.655	8.2653e-06	27.642	0.00041042	0.00037287	0.00010291	1167.8	4.3711e-06	4.076e-06	1235	251.09	4.3182e-06	3.9305e-06	309.82	86.9	68.229	20.279	4.1202e-06	28.627	427.166	150.419	103.539	107.065	216.819	276.394	107.016	114.123	234.822	213.085	113.850	120.210	120.735	127.668	220.431	126.591	-8191	255	
6574.064	1	1	0	0	0.28595	0.064831	0.084472	0.22016	0.24565	0.20306	0.11616	0.33164	0.089887	0.24098	0.12663	0.17194	0.28052	0.25356	0.19774	0.10227	-2.5938	-3.1792	-2.6604	-3.2958	-3.1896	-2.9042	-3.45	-2.9896	-2.7979	-3.1625	-2.8604	-3.3688	-3.1125	-2.7687	-3.3083	-3.0625	260.441	194.402	147.175	398.807	399.302	296.643	154.347	418.020	157.600	369.887	405.081	202.772	110.607	313.436	248.823	301.777	0.00088009	9.4968e-05	0.00014205	1181.5	9.8832e-06	3.4092e-06	1255.4	251.6	1.6643e-06	4.6953e-06	309.81	86.127	67.666	19.66	7.0909e-06	27.665	0.0004005	0.00035826	0.00010897	1170.7	4.2885e-06	4.0702e-06	1238.3	251.7	4.3106e-06	3.9833e-06	310.75	87.149	68.368	20.295	4.4061e-06	28.696	441.081	234.323	178.268	107.031	259.162	263.474	106.777	114.301	180.207	231.761	113.865	120.238	120.815	127.286	244.273	126.956	-8191	255	
6574.160	1	1	0	0	0.092355	0.14981	0.029107	0.25185	0.0743	0.23744	0.25569	0.1839	0.39542	0.24136	0.11157	0.18342	0.070109	0.034574	0.16597	0.1297	-2.6083	-3.3104	-2.8583	-3.2562	-3.1188	-2.7625	-3.5167	-3.1333	-2.9792	-3.3063	-3.0229	-3.3354	-3.1667	-2.9896	-3.0542	-3.0229	207.250	272.331	212.072	360.535	153.888	247.062	398.989	424.720	130.133	279.929	395.772	419.482	407.186	286.599	243.954	128.591	0.00073122	0.00024382	0.00014473	1183.5	4.4515e-06	3.4799e-06	1259.7	253.08	3.6247e-06	5.2823e-06	311.7	86.594	67.561	19.811	6.1114e-06	27.71	0.00039592	0.00036202	0.00011663	1172.1	4.1473e-06	4.0244e-06	1243.5	251.93	4.1393e-06	3.9521e-06	312.36	87.188	68.303	20.383	4.7003e-06	28.655	440.675	165.219	204.772	106.869	188.103	346.124	106.987	114.169	302.083	244.412	113.639	119.946	120.587	127.231	226.590	126.512	-8191	255	
6574.257	1	1	0	0	0.28212	0.11728	0.17219	0.36242	0.15217	0.024766	0.17787	0.21366	0.19316	0.08712	0.23552	0.27424	0.25703	0.1617	0.21975	0.16941	-2.4437	-3.3646	-2.8958	-3.225	-3.1521	-2.8292	-3.3458	-3.2	-3.0438	-3.3396	-3.2396	-3.0375	-3.2375	-2.8375	-3.2188	-3.0854	141.497	162.865	156.500	417.879	309.655	150.601	375.288	424.037	118.396	148.973	130.559	449.703	335.153	241.067	427.788	319.502	0.00087995	0.00045179	0.00011926	1182.6	3.7209e-06	4.9174e-06	1254.9	252.71	3.042e-06	3.0536e-06	310.65	87.128	67.785	19.732	3.2024e-06	27.77	0.00038323	0.00036379	0.00012081	1173	4.0351e-06	4.0513e-06	1242.6	251.89	4.0841e-06	4.0177e-06	312.35	87.157	68.222	20.386	4.7404e-06	28.663	436.153	209.533	211.266	106.991	291.996	278.472	107.051	114.123	231.615	233.141	113.754	120.316	120.742	127.798	198.009	126.832	-8191	255	
6574.375	1	1	0	0	0.073918	0.2265	0.25189	0.40143	0.22229	0.11023	0.26633	0.095345	0.1668	0.096462	0.060264	0.062267	0.11523	0.32114	0.15233	0.15025	-2.5062	-3.1708	-3.0896	-3.1896	-3.3083	-2.9646	-3.3896	-3.2229	-2.8063	-3.1937	-3.0312	-3.05	-3.4188	-2.7687	-3.2083	-3	305.200	435.023	394.014	108.101	126.345	276.954	339.777	252.046	255.772	230.783	384.519	149.955	141.311	449.559	345.084	222.613	0.0011204	0.00061833	1.6573e-05	1186.5	6.9965e-06	7.8828e-06	1259.1	252.22	8.9097e-06	4.2112e-06	311.85	85.664	68.094	19.861	3.5974e-06	27.592	0.00037598	0.00037751	0.0001213	1173.7	3.932e-06	4.289e-06	1243.7	251.5	3.9395e-06	4.3307e-06	312.43	86.751	68.231	20.495	4.6035e-06	28.62	432.466	183.395	160.414	106.927	248.642	197.000	107.106	114.269	253.652	220.942	113.557	120.153	120.253	127.416	127.865	126.824	-8191	255	
6574.447	1	1	0	0	0.12098	0.083107	0.05956	0.29188	0.016982	0.20346	0.037085	0.14334	0.17209	0.28233	0.19991	0.24213	0.22633	0.12705	0.19208	0.13114	-2.6188	-3.0375	-2.9313	-3.125	-3.1854	-2.9167	-3.2333	-3.2146	-2.7542	-3.2771	-2.9333	-3.0625	-3.3083	-3.025	-2.8646	-3.2562	181.003	272.659	160.163	342.543	238.932	169.687	350.918	432.724	132.482	100.710	418.560	424.758	176.271	116.474	361.801	108.881	0.0008549	0.00063121	4.3325e-05	1187.8	8.8114e-06	3.8119e-06	1258.9	252.05	7.8329e-06	5.1129e-06	312.23	87.163	68.199	19.784	3.4041e-06	27.821	0.00036649	0.00040028	0.0001168	1174.2	3.8709e-06	4.5188e-06	1242.9	251.59	3.9344e-06	4.5983e-06	312.34	87.096	68.406	20.538	4.4868e-06	28.558	444.796	185.776	282.200	106.967	172.561	211.385	107.000	114.014	210.119	229.391	113.505	119.883	120.634	127.110	346.976	126.743	-8191	255	
6574.543	1	1	0	0	0.073402	0.44478	0.11512	0.16061	0.086304	0.026996	0.15895	0.097554	0.31906	0.20295	0.12761	0.11888	0.25392	0.25366	0.15796	0.087083	-2.2625	-3.1417	-2.9688	-3.0896	-3.1625	-2.9208	-3.0604	-3.3	-2.8854	-3.2188	-3.2479	-2.8917	-3.4688	-2.8604	-3.1	-3.3667	262.468	148.974	353.372	102.879	390.573	114.030	389.038	376.343	172.374	250.024	291.651	348.545	149.505	318.922	252.878	179.294	0.0008246	0.00024049	5.5011e-05	1189.2	4.2541e-06	7.8824e-06	1264.5	253.43	6.9145e-06	5.0637e-06	310.02	86.465	68.483	19.642	3.0412e-06	27.663	0.00037913	0.00042418	0.00011577	1175.1	4.0134e-06	4.6531e-06	1246.5	251.87	4.1286e-06	4.6378e-06	311.27	86.79	68.559	20.483	4.28e-06	28.522	433.493	126.246	192.208	107.065	268.266	190.723	106.871	114.262	285.040	282.804	113.560	120.209	120.398	127.259	207.892	126.663	-8191	255	
6574.639	1	1	0	0	0.24292	0.093621	0.258	0.35718	0.083622	0.21194	0.10793	0.2201	0.23311	0.12549	0.12299	0.25888	0.14803	0.19174	0.21319	0.1012	-2.3458	-3.2375	-3.1375	-3.0167	-3.3667	-2.925	-3.2542	-3.3042	-2.7625	-3.3104	-3.1437	-3.0708	-3.1063	-3.1042	-3.2125	-3.3771	402.630	350.696	128.571	384.790	337.115	273.555	392.069	438.396	114.025	225.141	220.348	109.031	99.055	406.428	373.326	355.301	0.0009518	0.00030693	8.2304e-05	1187.9	9.1779e-06	4.8387e-06	1254.1	252.83	3.5713e-06	5.2657e-06	311.55	86.472	68.158	19.881	3.503e-06	27.822	0.00038738	0.00042996	0.00010852	1174.8	4.2046e-06	4.6018e-06	1241.4	251.19	4.2765e-06	4.541e-06	311.17	86.618	68.589	20.51	4.1266e-06	28.511	432.821	228.416	254.350	107.029	250.599	333.327	106.974	114.115	172.183	313.404	113.778	120.042	120.359	127.367	192.319	126.738	-8191	255	
6574.760	1	1	0	0	0.077107	0.2238	0.16081	0.30333	0.06653	0.12376	0.43836	0.046509	0.19205	0.16271	0.27996	0.12793	0.1976	0.10184	0.20367	0.16516	-2.4708	-3.1604	-3.275	-3.0521	-3.25	-2.9938	-3.1708	-3.4896	-2.8187	-3.2396	-3.3708	-2.9229	-3.3146	-3.125	-2.8812	-3.2521	146.253	230.334	325.482	402.383	289.945	147.679	431.512	298.342	121.795	317.036	312.188	378.114	441.360	312.672	325.315	173.442	0.00073414	0.00026568	4.9589e-05	1184.6	6.8496e-06	2.6722e-07	1251.6	253.8	5.0108e-06	3.7019e-06	310.44	86.698	68.174	19.684	6.5205e-06	27.75	0.00040415	0.00040479	0.00010407	1170.1	4.3491e-06	4.3785e-06	1237.4	251.06	4.4292e-06	4.3345e-06	310.74	86.674	68.672	20.377	3.9922e-06	28.458	439.309	405.049	161.679	106.937	225.248	157.059	106.882	114.024	242.978	203.875	113.444	120.255	120.340	127.487	210.580	126.492	-8191	255	
6574.856	1	1	0	0	0.049334	0.17379	0.27582	0.12073	0.17811	0.081824	0.27973	0.091239	0.24641	0.19181	0.11933	0.35954	0.086401	0.36261	0.13041	0.095156	-2.6896	-2.8292	-3.1583	-2.8354	-3.2167	-3.1937	-3.2917	-3.4208	-2.8833	-3.1875	-3.5208	-3.1063	-3.2542	-3.3125	-2.8354	-3.4146	273.457	250.957	108.743	368.637	274.636	429.453	380.814	168.443	122.614	234.149	375.649	404.256	124.878	404.115	409.789	379.922	0.00077755	0.00016221	0.00011946	1183.1	4.8612e-06	3.3007e-06	1253.6	253.01	5.2185e-06	1.1151e-06	311.73	86.451	67.918	19.711	3.8442e-06	27.662	0.0004112	0.0003904	9.9844e-05	1168.8	4.4339e-06	4.1804e-06	1238.5	251.01	4.4707e-06	4.0842e-06	310.46	86.757	68.624	20.351	3.9304e-06	28.502	432.454	168.587	221.733	107.132	282.470	295.603	106.811	113.902	170.281	387.528	113.611	120.242	120.881	127.335	250.331	126.895	-8191	255	
6574.952	1	1	0	0	0.11896	0.1032	0.14513	0.104	0.19014	0.25312	0.2838	0.15923	0.1594	0.158	0.14581	0.14744	0.18499	0.13653	0.13822	0.21567	-2.3937	-2.8667	-3.2042	-3.1354	-3.2708	-3.1437	-3.0833	-3.3896	-3.1042	-3.0833	-3.1583	-3.0312	-3.1271	-3.35	-2.8229	-3.3438	383.792	101.727	368.486	356.190	116.840	336.903	397.768	449.772	198.251	228.562	317.704	348.711	387.404	169.947	143.431	421.222	0.00091561	0.00027304	6.3936e-05	1182.1	3.7763e-06	3.8195e-06	1255.6	251.46	7.8597e-06	5.0688e-07	311.23	86.819	67.749	19.763	3.9705e-06	27.555	0.00041748	0.00037778	9.6889e-05	1168.6	4.4644e-06	4.0205e-06	1237.6	251.42	4.4395e-06	4.0973e-06	310.24	86.997	68.586	20.326	3.9245e-06	28.553	431.230	129.626	186.994	106.973	221.894	219.202	107.092	113.983	271.744	174.036	113.687	120.347	120.491	127.446	275.742	126.542	-8191	255	
6575.048	1	1	0	0	0.16487	0.073735	0.076465	0.088292	0.25027	0.16111	0.22111	0.038048	0.16442	0.25725	0.13408	0.14385	0.31731	0.29827	0.34786	0.096048	-2.5375	-2.7042	-3.25	-2.8875	-3.0521	-3.3604	-2.9958	-3.3646	-3.0875	-2.7375	-3.3812	-2.9083	-3.0708	-3.4125	-2.9625	-3.1792	398.689	286.438	293.511	98.777	263.591	173.916	132.199	366.856	102.723	326.352	408.845	387.002	123.343	399.930	324.012	334.747	0.00081461	0.0003448	0.00010198	1181.3	4.4467e-06	7.7946e-07	1255.6	252.26	2.1299e-06	1.7955e-06	311.03	86.21	67.852	19.705	5.342e-06	27.802	0.00040641	0.00037726	9.7895e-05	1170.6	4.4573e-06	3.9708e-06	1239	252.12	4.3209e-06	4.0484e-06	310.62	87.099	68.542	20.307	4.0679e-06	28.728	428.704	216.644	204.073	106.900	284.568	422.218	106.968	114.207	229.312	446.022	113.673	120.171	120.390	127.549	236.275	126.733	-8191	255	
6575.145	1	1	0	0	0.30232	0.28806	0.14828	0.12708	0.2658	0.12514	0.1843	0.19608	0.15578	0.20824	0.089395	0.11891	0.21409	0.22092	0.11193	0.20254	-2.8229	-2.9229	-3.1667	-3.1063	-2.8583	-3.5083	-3.1875	-3.0875	-3.2646	-2.9917	-3.3583	-3.0646	-3.1646	-3.1875	-2.9917	-3.4917	142.092	401.789	426.360	143.103	422.806	204.548	391.108	448.393	123.369	450.016	278.284	112.767	115.259	316.576	342.924	316.195	0.00089298	0.00034649	1.653e-05	1183.2	7.1103e-06	3.3418e-07	1251.3	251.67	3.4678e-06	2.524e-06	310.98	86.319	68.26	19.79	6.3404e-06	27.541	0.00039598	0.00036847	0.000102	1172.4	4.2952e-06	3.8916e-06	1236.8	252.23	4.1299e-06	4.0228e-06	311.17	87.194	68.541	20.293	4.2851e-06	28.583	444.247	157.247	136.209	106.783	294.184	241.382	106.769	114.186	186.864	251.796	113.732	120.323	120.432	127.399	201.558	126.960	-8191	255	
6575.241	1	1	0	0	0.107	0.095333	0.27114	0.29611	0.10253	0.15967	0.21436	0.062066	0.15157	0.1966	0.1241	0.084733	0.27268	0.16395	0.1488	0.17542	-2.875	-2.9042	-3.2333	-3.2958	-3.1125	-3.2562	-3.3979	-3.1437	-3.4208	-3.0792	-3.425	-3.0438	-3.0896	-3.4167	-2.9771	-3.3937	193.197	378.835	327.350	322.179	450.363	142.152	417.450	327.340	185.191	110.892	296.842	445.235	413.964	100.793	118.510	139.238	0.00090492	0.00078182	5.9929e-05	1177.7	4.3927e-06	1.4896e-06	1253.6	253.11	8.2098e-06	4.1304e-06	311.66	86.055	67.654	19.748	2.9706e-06	27.812	0.00037875	0.00035857	0.00010875	1170.1	4.142e-06	3.8018e-06	1238.5	251.97	3.966e-06	3.8917e-06	311.1	86.879	68.274	20.287	4.4581e-06	28.672	447.203	219.511	179.799	107.069	234.797	346.883	106.899	114.070	226.080	247.406	113.709	120.032	120.635	127.350	136.349	126.630	-8191	255	
6575.360	1	1	0	0	0.15617	0.064496	0.10488	0.13293	0.19639	0.25679	0.21347	0.065905	0.23681	0.23967	0.068815	0.25637	0.12857	0.13554	0.077241	0.06279	-2.9292	-3.0396	-3.3021	-3.1958	-3.1	-3.3979	-3.175	-3.1583	-3.35	-2.9104	-3.2729	-3.1854	-2.8771	-3.4396	-3.0187	-3.0333	143.432	327.938	186.340	424.687	153.382	197.126	355.512	165.498	448.752	444.106	290.540	186.151	373.201	367.511	125.001	140.678	0.00080828	0.00027557	0.00016232	1177.3	6.2799e-06	7.6147e-06	1254.4	251.23	2.2092e-06	5.2635e-06	310.87	86.55	67.56	19.768	5.8541e-06	27.55	0.00036479	0.00035001	0.00011225	1169.1	3.9859e-06	3.6985e-06	1238.4	250.75	3.8384e-06	3.8247e-06	311.53	86.702	68.154	20.316	4.5705e-06	28.552	432.535	176.616	171.724	106.896	249.626	294.690	106.852	114.255	228.929	228.994	113.685	120.309	120.428	127.291	204.062	126.552	-8191	255	
6575.456	1	1	0	0	0.037807	0.24755	0.14244	0.044307	0.076212	0.19595	0.19002	0.39974	0.17983	0.1086	0.27204	0.072365	0.35826	0.24693	0.22372	0.15478	-3.0438	-2.8021	-3.1854	-3.5021	-2.6667	-3.3312	-3.1979	-2.9854	-3.4708	-2.7938	-3.3354	-3.3833	-2.9146	-3.4583	-3.1	-2.9729	392.435	115.139	117.777	346.699	379.256	117.986	112.182	433.276	138.765	371.115	384.307	173.170	441.889	334.216	191.803	402.571	0.00094043	0.00046676	8.2206e-05	1181.6	8.5619e-06	5.9585e-06	1252.1	252.69	3.7752e-06	3.1728e-06	311.45	86.058	67.843	19.795	2.5501e-06	27.59	0.00035586	0.00036802	0.00011562	1167.7	3.9773e-06	3.9314e-06	1240.1	251.36	3.7322e-06	4.1217e-06	311.77	86.59	68.206	20.315	4.4809e-06	28.405	445.736	200.642	156.671	106.986	270.760	288.403	106.816	114.003	252.434	339.589	113.710	120.290	120.634	127.580	281.273	126.586	-8191	255	
6575.552	1	1	0	0	0.21611	0.19732	0.063954	0.11256	0.10746	0.20485	0.13174	0.04064	0.024648	0.17744	0.40427	0.14423	0.09528	0.29294	0.10904	0.12552	-2.9479	-3.0271	-3.1271	-3.4542	-2.8979	-3.1354	-3.3187	-2.9979	-3.45	-3.1854	-3.1	-3.3792	-3.0625	-3.2292	-3.3438	-3.1833	228.073	155.761	150.301	387.409	200.328	282.361	308.852	425.109	284.590	100.299	391.811	389.367	395.406	420.750	242.898	422.410	0.0008878	0.00056166	0.00011704	1181.9	4.5135e-06	3.6286e-06	1248.8	251.5	7.4603e-06	6.0628e-06	311.37	86.911	67.92	19.681	5.9158e-06	27.507	0.00034991	0.00039323	0.00011622	1169.1	3.9518e-06	4.3076e-06	1240.1	251.11	3.8603e-06	4.5174e-06	311.84	86.827	68.226	20.438	4.5033e-06	28.514	432.093	132.013	253.028	106.975	228.888	236.701	106.834	114.120	258.196	236.458	113.526	120.267	120.645	127.339	194.305	126.849	-8191	255	
6575.624	1	1	0	0	0.28259	0.095292	0.086614	0.35948	0.22579	0.14042	0.22576	0.13008	0.11884	0.098588	0.13116	0.18482	0.23239	0.23455	0.071595	0.14391	-3.0292	-2.9458	-3.2896	-3.4292	-2.7979	-3.1125	-3.3187	-3.1292	-3.2438	-2.9688	-3.3417	-3.4083	-3.0375	-2.9958	-3.075	-3.1021	126.864	134.764	226.202	413.609	201.378	356.755	370.421	432.700	186.284	367.660	263.974	413.707	431.624	440.029	202.790	176.483	0.0010264	0.00056209	7.6244e-05	1184.3	6.6816e-06	5.777e-06	1254.8	253.19	6.6207e-06	2.1963e-06	311.91	86.325	67.961	19.588	8.7654e-06	27.599	0.00036619	0.00042589	0.00011638	1171.6	4.113e-06	4.6473e-06	1242.7	251.83	4.061e-06	4.8292e-06	312.77	86.773	68.549	20.46	4.4833e-06	28.555	442.400	135.602	221.216	107.066	225.565	221.700	107.011	114.256	188.953	376.227	113.573	120.250	120.365	127.185	214.774	126.676	-8191	255	
6575.744	1	1	0	0	0.10259	0.13708	0.15333	0.28619	0.18036	0.20883	0.24583	0.16495	0.12673	0.038532	0.19691	0.39323	0.3379	0.15802	0.099816	0.2531	-2.7542	-3.0875	-3.0312	-3.4792	-2.8083	-3.0125	-3.3521	-2.8375	-3.1583	-3.1	-3.05	-3.5271	-3.0312	-3.2396	-3.2125	-3.0062	248.029	448.277	272.917	426.991	357.875	384.557	374.079	455.061	100.284	355.170	423.838	439.192	337.102	365.788	104.192	381.529	0.0009772	0.00034882	8.7461e-05	1183.7	6.7893e-06	1.7688e-06	1253.7	252.17	7.9714e-06	2.7772e-06	311.59	86.43	67.801	19.685	5.6772e-06	27.711	0.00039467	0.00045881	0.00011618	1170.9	4.4904e-06	4.9239e-06	1241.8	251.67	4.3853e-06	4.8667e-06	312.4	86.619	68.638	20.47	4.4057e-06	28.501	429.862	190.628	189.141	106.750	234.729	186.211	106.866	113.920	187.952	305.115	113.847	120.277	120.326	127.492	210.581	127.124	-8191	255	
6575.840	1	1	0	0	0.045967	0.053179	0.19998	0.34466	0.086686	0.090693	0.027073	0.23273	0.21605	0.11379	0.082361	0.27133	0.14175	0.21465	0.079726	0.36638	-2.7979	-2.8021	-2.9083	-3.3875	-2.8063	-3.2021	-3.4062	-2.8146	-3.2167	-2.9688	-3.1083	-3.2875	-3.0729	-3.1458	-3.1417	-3.0375	368.003	367.836	137.325	431.999	431.823	136.843	282.726	317.129	198.197	293.067	186.057	191.232	449.163	337.319	174.211	391.817	0.00084409	0.00031155	8.2868e-05	1182.3	1.0814e-05	5.9238e-06	1255.9	253.68	9.2128e-06	2.5509e-06	311.43	86.213	67.998	19.764	5.2108e-06	27.797	0.00042657	0.00044435	0.00011466	1169	4.7221e-06	4.8268e-06	1240.3	251.81	4.6438e-06	4.7575e-06	311.85	86.523	68.753	20.467	4.2602e-06	28.558	432.020	113.433	124.918	106.974	231.959	297.380	106.993	114.127	186.863	213.846	113.543	120.465	120.529	127.943	254.712	126.651	-8191	255	
6575.937	1	1	0	0	0.2284	0.046173	0.059459	0.20025	0.15016	0.19849	0.28807	0.18142	0.051198	0.12518	0.031674	0.17596	0.18444	0.24145	0.057182	0.13121	-2.8563	-3.0833	-3.0708	-3.4562	-3.0187	-3.0417	-3.4646	-2.9479	-3.3292	-3.1229	-3.0604	-3.4792	-3	-3.1937	-3.2396	-3	248.106	312.129	364.472	382.667	183.239	274.062	96.648	376.606	345.812	315.062	378.198	158.877	102.220	102.116	211.760	455.693	0.0010587	0.00029445	2.6962e-05	1184	7.6266e-06	6.7599e-06	1259.7	252.93	3.6146e-06	6.3901e-06	311.2	86.134	67.755	19.759	6.1605e-06	27.541	0.00044164	0.00042557	0.00011265	1171.4	4.8715e-06	4.6337e-06	1240	251.92	4.8025e-06	4.5339e-06	311.06	86.657	68.943	20.403	4.2188e-06	28.541	424.728	175.234	232.875	106.638	195.415	206.163	106.720	113.933	325.602	196.738	113.406	120.151	120.430	127.518	316.317	126.537	-8191	255	
6576.033	1	1	0	0	0.049318	0.21532	0.059476	0.22695	0.2699	0.10244	0.15144	0.35025	0.17783	0.21131	0.21187	0.29338	0.1486	0.1361	0.020841	0.095209	-2.7771	-3.3063	-2.9417	-3.4396	-3.0125	-3.0125	-3.3729	-3.0542	-3.3104	-3.3479	-3.0667	-3.3812	-2.9813	-3.1562	-3.2729	-3.0625	219.318	156.638	132.475	374.098	278.015	365.660	382.429	99.308	378.180	442.293	423.601	417.499	444.523	125.340	414.196	273.872	0.00087408	0.000368	3.6812e-05	1183.1	1.4491e-06	7.1477e-06	1258.6	253.99	3.6711e-06	3.7098e-06	311.31	87.015	67.607	19.713	5.4679e-06	27.497	0.00045112	0.00040434	0.00011117	1172.8	4.9113e-06	4.5274e-06	1243.5	252.97	4.8238e-06	4.4032e-06	311.88	87.277	68.911	20.444	4.1718e-06	28.642	439.373	221.755	230.697	106.928	237.878	206.977	106.770	114.179	261.720	255.908	113.650	120.591	120.747	127.715	254.865	126.845	-8191	255	
6576.152	1	1	0	0	0.11169	0.13199	0.23333	0.11123	0.15062	0.25906	0.26661	0.18999	0.14066	0.066512	0.1805	0.14437	0.098259	0.18089	0.16915	0.15458	-2.6917	-3.1229	-2.9042	-3.3875	-3.0854	-3.075	-3.3458	-3.1875	-3.2208	-3.3563	-3.0958	-3.2917	-3.25	-3.0458	-3.0812	-3.1958	222.595	425.029	258.859	445.837	370.986	386.156	444.232	302.269	426.893	389.202	453.459	202.658	372.260	109.435	127.074	222.201	0.00079866	0.00031093	0.00015216	1188.9	4.4954e-06	1.0656e-06	1258.6	252.87	8.8949e-06	1.6935e-06	311.76	86.377	68.364	19.703	4.4798e-06	27.728	0.00045432	0.00040923	0.00011105	1177.2	4.8925e-06	4.5651e-06	1243.2	253.57	4.8364e-06	4.4372e-06	312.53	87.395	68.967	20.452	4.2626e-06	28.757	412.191	238.775	226.355	106.923	413.418	301.381	106.964	113.988	260.522	224.495	113.601	120.101	120.831	127.157	134.806	126.723	-8191	255	
6576.248	1	1	0	0	0.13655	0.16703	0.28746	0.18183	0.11461	0.063919	0.33129	0.32144	0.087618	0.18022	0.16231	0.12442	0.15145	0.087891	0.12051	0.10702	-2.5042	-3.1583	-3.0875	-3.3354	-3.075	-2.975	-3.4354	-3.2021	-3.0833	-3.4792	-2.9313	-3.2375	-3.3396	-2.9708	-3.175	-3.2729	314.353	187.617	246.749	152.479	217.973	342.643	451.063	436.458	349.705	276.815	417.406	222.613	366.877	354.762	316.347	201.327	0.00088237	0.00032927	5.0745e-05	1185.8	8.7345e-06	3.8233e-06	1258.8	253.58	3.3423e-07	2.1343e-06	313.09	86.839	67.811	19.602	6.3054e-06	27.673	0.000438	0.00039619	0.00011222	1176.3	4.6675e-06	4.4412e-06	1244.3	253.52	4.6187e-06	4.242e-06	312.69	87.591	68.72	20.35	4.4091e-06	28.796	434.049	200.723	376.471	106.854	245.029	241.856	106.790	114.245	146.989	135.431	113.634	120.177	120.429	127.544	219.083	127.042	-8191	255	
6576.321	1	1	0	0	0.205	0.20539	0.23108	0.23119	0.066273	0.093407	0.030878	0.2307	0.067149	0.09356	0.25636	0.21948	0.12959	0.1541	0.10933	0.080633	-2.6771	-3.2708	-2.8771	-3.3604	-2.9333	-2.9521	-3.4896	-3.3396	-3.1708	-3.2667	-3.1458	-3.3583	-3.4167	-2.8729	-3.0563	-3.1208	153.227	193.780	293.514	412.395	137.758	359.955	226.038	421.764	189.022	448.522	302.063	448.087	440.684	446.527	291.128	445.077	0.00082534	0.00043938	0.00015293	1186.4	8.7612e-06	2.9802e-06	1253.9	253.73	7.4249e-06	2.7802e-06	312.31	86.119	67.891	19.742	2.531e-06	27.65	0.00042058	0.0003786	0.00011676	1175.9	4.4217e-06	4.2359e-06	1241.5	253.22	4.3596e-06	4.038e-06	312.18	87.176	68.606	20.28	4.5927e-06	28.653	418.807	118.782	161.692	107.010	276.230	228.467	106.683	114.193	216.658	343.468	113.580	120.234	120.118	127.590	222.332	126.709	-8191	255	
6576.440	1	1	0	0	0.1129	0.27306	0.13103	0.11843	0.24002	0.082532	0.18221	0.056764	0.19213	0.14732	0.12375	0.084489	0.10594	0.19103	0.14796	0.22984	-2.4458	-3.1292	-3.0812	-3.2687	-3.3958	-2.8667	-3.3333	-3.4604	-2.7687	-3.5167	-3.1937	-2.9604	-3.4146	-3.0125	-3.0083	-3.1688	132.127	172.138	360.688	282.456	280.687	138.126	374.484	225.001	335.419	198.766	375.859	120.276	198.801	375.122	428.255	439.932	0.00097188	0.00023086	0.00014719	1185.2	3.8137e-06	5.8792e-06	1261.2	253.18	9.0462e-06	1.6913e-06	310.2	86.315	67.672	19.695	6.987e-06	27.814	0.00039702	0.00036352	0.0001186	1173.5	4.1553e-06	4.1063e-06	1243.7	252.66	4.1885e-06	4.0269e-06	312.61	87.154	68.36	20.336	4.8356e-06	28.668	435.581	431.523	208.613	107.036	210.110	188.125	106.887	114.150	241.186	228.928	113.864	120.330	120.420	127.503	229.325	126.613	-8191	255	
6576.536	1	1	0	0	0.16041	0.13002	0.067168	0.25301	0.18056	0.11442	0.28701	0.16407	0.24435	0.18177	0.061801	0.18109	0.10908	0.14654	0.19663	0.076832	-2.6292	-3.3396	-2.8708	-3.0646	-3.3083	-2.9042	-3.4958	-3.3208	-2.8063	-3.2042	-3.3063	-2.8375	-3.3875	-3.0438	-3.0458	-3.2708	296.916	325.667	115.976	446.018	370.296	422.339	435.016	265.691	118.882	251.846	365.183	338.229	305.989	297.237	99.433	181.251	0.00084708	0.00051939	8.7488e-05	1187.1	1.2527e-05	2.943e-06	1252.4	252.74	6.1986e-06	4.9591e-06	310.64	85.762	67.601	19.731	6.0952e-06	27.681	0.00039722	0.00037545	0.00012456	1174.3	4.0988e-06	4.264e-06	1243.5	252.09	4.1523e-06	4.2278e-06	313.37	86.919	68.273	20.404	4.8281e-06	28.541	443.879	208.561	122.298	106.911	256.979	194.093	106.780	114.155	193.653	208.249	113.574	120.171	120.819	127.447	267.432	126.373	-8191	255	
6576.632	1	1	0	0	0.2288	0.054463	0.29275	0.18157	0.15205	0.12352	0.32987	0.35337	0.15196	0.20622	0.2105	0.021194	0.44139	0.2136	0.19643	0.19644	-2.3042	-3.0062	-3.025	-3.0833	-3.3521	-2.8604	-3.3187	-3.1146	-2.7938	-3.1729	-3.2104	-3.0104	-3.4771	-2.9458	-3.1312	-3.2438	266.630	183.454	195.182	348.426	367.317	449.879	429.370	387.820	199.756	447.197	100.928	130.906	431.295	321.430	158.429	272.266	0.00062697	4.2467e-05	5.9397e-05	1183	1.5032e-06	6.2967e-06	1259.7	251.84	5.6944e-06	5.8405e-06	312.15	86.071	68.022	19.655	8.2669e-06	27.779	0.000379	0.0003995	0.00012451	1171.9	3.9876e-06	4.5675e-06	1242.5	251.69	4.1212e-06	4.5589e-06	312.89	86.757	68.34	20.442	4.795e-06	28.543	442.522	425.565	248.852	106.873	147.641	208.512	106.964	114.270	223.296	200.144	113.503	120.139	120.838	127.396	247.919	126.631	-8191	255	
6576.753	1	1	0	0	0.39765	0.31528	0.15144	0.25889	0.1242	0.095429	0.22989	0.2826	0.079019	0.11612	0.1835	0.18855	0.126	0.15037	0.088902	0.049033	-2.4854	-3.425	-2.9396	-3.0917	-3.5271	-2.9917	-3.1396	-3.3729	-2.8542	-3.4292	-3.0687	-3.0917	-3.2687	-2.9125	-3.1188	-3.3438	418.843	453.067	419.274	443.403	437.455	442.647	395.951	437.707	154.350	334.245	403.213	396.801	422.287	296.778	135.693	157.708	0.00081573	0.00059541	0.00017006	1184.6	1.7054e-06	1.2743e-06	1255.1	252.74	2.0577e-06	4.6626e-07	312.11	86.569	67.589	19.636	5.8421e-06	27.764	0.0003883	0.00043692	0.00012298	1173.3	4.143e-06	4.8511e-06	1242.5	252.46	4.2304e-06	4.9062e-06	312.39	87.051	68.443	20.485	4.7469e-06	28.617	438.995	122.215	107.552	106.892	199.923	127.802	106.844	113.910	261.402	319.762	113.927	120.112	120.635	127.595	217.835	126.569	-8191	255	
6576.849	1	1	0	0	0.34914	0.053074	0.099672	0.15745	0.13451	0.29075	0.2887	0.13891	0.12171	0.25751	0.077624	0.074343	0.29131	0.16579	0.34981	0.15399	-2.4583	-3.2375	-3.1437	-3.1458	-3.3438	-3.0229	-3.2292	-3.2083	-2.6917	-3.3083	-3.2854	-3.0042	-3.3021	-3.0271	-2.9146	-3.5146	169.199	385.256	191.246	118.241	151.327	306.641	382.707	165.086	389.369	222.701	238.381	241.189	440.871	145.929	100.969	244.220	0.00097059	0.0004818	4.9968e-05	1184.2	4.4846e-06	1.1681e-06	1253.3	253.25	4.2159e-06	6.9827e-06	311.62	86.462	67.882	19.647	2.2219e-06	27.672	0.00040322	0.00045452	0.00011779	1172.7	4.275e-06	4.9605e-06	1240.7	251.74	4.378e-06	4.8097e-06	312	86.767	68.572	20.486	4.3526e-06	28.483	440.312	190.867	140.879	106.902	193.557	424.172	106.972	113.978	226.494	278.895	113.747	120.128	120.677	127.268	211.839	126.504	-8191	255	
6576.921	1	1	0	0	0.2555	0.18777	0.11916	0.21878	0.064374	0.28172	0.38714	0.31336	0.10689	0.12094	0.48009	0.12405	0.088495	0.038887	0.028086	0.27484	-2.4125	-3.0729	-3.1562	-3.1479	-3.0312	-3.0312	-3.2125	-3.1771	-2.7875	-3.1042	-3.3354	-2.9042	-3.2104	-3.0917	-2.9667	-3.4437	412.727	407.716	202.301	376.386	224.496	159.413	359.036	138.884	416.188	454.600	421.182	104.876	400.055	347.968	406.708	152.716	0.00093325	0.00027415	9.2294e-05	1188.8	9.9007e-06	1.4541e-06	1254.5	252.22	5.3479e-06	1.6946e-06	310.61	86.659	67.91	19.785	9.0088e-06	27.884	0.00040406	0.00042265	0.00010648	1172.3	4.2385e-06	4.5035e-06	1241.9	251.91	4.2866e-06	4.5037e-06	311.26	86.781	68.702	20.44	4.1384e-06	28.521	436.988	207.398	293.703	107.049	257.688	408.549	106.931	114.259	283.276	320.286	113.645	120.543	120.419	127.305	215.384	126.810	-8191	255	
6577.041	1	1	0	0	0.080332	0.26387	0.11395	0.23683	0.1274	0.20714	0.26622	0.13225	0.11566	0.15236	0.10522	0.16076	0.27941	0.047863	0.14186	0.018549	-2.6813	-2.7542	-3.0312	-3.1208	-3.0687	-3.05	-3.1792	-3.2979	-3.0458	-3.1292	-3.1958	-2.8896	-3.1875	-3.1729	-3.0104	-3.4125	354.717	102.658	218.868	449.326	315.361	317.094	391.187	337.871	143.113	144.499	409.375	189.302	184.593	189.413	117.856	145.730	0.00092871	0.00031176	5.4903e-05	1183.2	6.0412e-06	2.095e-06	1256.9	254.05	1.059e-05	4.1719e-06	309.78	87.027	68.161	19.775	3.9624e-06	27.625	0.00041727	0.00040531	0.00010327	1171.5	4.5455e-06	4.4179e-06	1242.8	251.51	4.577e-06	4.4161e-06	310.64	87.043	68.901	20.421	4.0299e-06	28.518	428.380	200.052	103.202	106.886	246.825	310.816	106.778	114.209	243.235	233.171	113.773	120.346	120.558	127.172	326.875	127.017	-8191	255	
6577.138	1	1	0	0	0.031745	0.1073	0.035988	0.097374	0.21988	0.26718	0.44538	0.20771	0.20183	0.2521	0.054582	0.12567	0.15225	0.1061	0.19945	0.28161	-2.525	-3.1021	-3.275	-3.0708	-3.4062	-3.2167	-3.1271	-3.4625	-3.0625	-2.8458	-3.3937	-3.1646	-3.2229	-3.1958	-3.0167	-3.3521	319.182	253.280	452.727	277.314	448.933	449.987	362.671	370.201	267.711	392.314	404.223	436.389	276.621	113.711	186.499	401.732	0.00081523	0.00025842	9.5408e-05	1184.8	2.5132e-06	2.8683e-06	1252.9	255.02	4.8008e-06	2.9077e-06	312.63	86.213	67.651	19.818	4.547e-06	27.884	0.00042114	0.00038683	9.8502e-05	1172	4.4784e-06	4.0476e-06	1240.5	252.19	4.338e-06	4.028e-06	310.8	86.59	68.629	20.362	3.742e-06	28.515	435.602	190.697	110.833	106.878	239.306	146.662	106.865	113.906	244.289	319.927	113.826	120.137	120.330	127.477	187.594	126.995	-8191	255	
6577.234	1	1	0	0	0.19834	0.20061	0.11319	0.19356	0.10695	0.10466	0.15185	0.13814	0.22419	0.13827	0.12223	0.13195	0.091514	0.21262	0.068463	0.13129	-2.725	-2.8688	-3.1833	-3.15	-3.0812	-3.1604	-3.1604	-3.2812	-3.0417	-3.0021	-3.3542	-3.0271	-3.1333	-3.0208	-2.7938	-3.2938	430.005	139.649	200.886	427.813	228.154	99.788	115.222	351.582	422.919	323.034	416.149	151.172	428.334	193.554	126.925	137.911	0.00079939	0.00036419	5.4805e-05	1189	1.095e-05	5.8348e-06	1256.9	252.4	7.6725e-06	1.4411e-06	310.71	86.368	67.983	19.828	7.8131e-06	27.608	0.00039125	0.00035789	9.247e-05	1170.5	4.1859e-06	3.734e-06	1239.6	251.46	4.0802e-06	3.8119e-06	310.01	86.834	68.393	20.285	3.7111e-06	28.51	439.483	226.870	405.499	106.945	228.445	269.079	106.891	114.152	137.902	400.379	113.510	120.176	120.323	127.540	199.799	126.777	-8191	255	
6577.330	1	1	0	0	0.20917	0.10454	0.33602	0.46216	0.054396	0.061317	0.039409	0.04574	0.29118	0.26249	0.24958	0.11202	0.072803	0.023661	0.084943	0.17111	-2.6833	-3.05	-3.1854	-3.1708	-3.1229	-3.2146	-3.3229	-3.4167	-3.0208	-2.9667	-3.5104	-3.1542	-3.2	-3.2958	-3.0062	-3.2875	348.581	163.317	197.390	395.565	270.401	257.152	301.684	198.329	111.058	387.892	343.613	204.269	272.795	417.972	403.099	240.452	0.00087794	0.00023003	0.00015486	1183.9	6.3107e-06	1.2313e-06	1254.5	252.23	5.2396e-06	3.1355e-06	312.14	86.935	67.744	19.714	6.3114e-06	27.582	0.00037139	0.0003451	9.1301e-05	1170	4.0232e-06	3.6364e-06	1236.3	251.47	3.8677e-06	3.6805e-06	310	86.947	68.188	20.251	3.8251e-06	28.565	432.904	198.398	190.794	106.855	260.749	255.351	106.908	114.170	229.141	298.608	113.796	120.249	120.477	127.731	202.629	126.828	-8191	255	
6577.449	1	1	0	0	0.18103	0.11865	0.24728	0.17157	0.07854	0.053902	0.099944	0.058386	0.07598	0.042622	0.069247	0.17046	0.10572	0.14505	0.15977	0.032352	-2.7396	-3.075	-3.3146	-3.2771	-3.0021	-3.3937	-3.1354	-3.4375	-3.2562	-2.7792	-3.3625	-3.0167	-2.9896	-3.375	-2.9375	-3.2521	318.728	245.911	364.262	101.856	111.413	203.893	405.494	396.247	216.956	300.478	117.307	420.084	454.672	220.808	106.787	332.533	0.00089505	0.0004427	3.2133e-05	1182.4	5.865e-06	1.7647e-06	1253	253.3	1.0177e-05	5.2541e-06	310.8	86.828	67.895	19.732	4.3141e-06	27.852	0.00036181	0.00033498	9.7002e-05	1168.8	3.8771e-06	3.569e-06	1236.8	252.22	3.7938e-06	3.6837e-06	310.62	87.036	68.35	20.213	4.1068e-06	28.536	430.411	156.356	295.374	106.891	236.442	361.709	107.005	114.034	219.887	223.584	113.674	119.897	120.825	127.668	235.935	126.626	-8191	255	
6577.545	1	1	0	0	0.073021	0.043051	0.034607	0.38086	0.29008	0.1221	0.30085	0.10809	0.2446	0.26665	0.027923	0.091461	0.12599	0.39299	0.1608	0.18187	-2.8125	-2.7375	-3.2333	-3.1792	-3.0229	-3.2458	-3.2062	-3.2687	-3.3146	-2.7938	-3.45	-3.2396	-3.0438	-3.3896	-3.1229	-2.9	254.480	400.936	203.519	366.497	113.772	388.651	378.675	115.013	144.021	430.901	182.620	187.172	104.856	157.720	101.809	452.329	0.00077814	0.00029673	9.7946e-05	1184.7	7.5016e-06	4.5421e-06	1251.4	252.52	7.4986e-06	3.4858e-06	310.78	86.397	67.809	19.648	7.6425e-06	27.683	0.00035453	0.0003385	0.0001061	1171.2	3.8689e-06	3.578e-06	1239.4	251.77	3.7147e-06	3.6136e-06	311.21	86.667	68.233	20.223	4.2619e-06	28.524	437.845	243.769	145.835	106.778	213.789	292.341	106.940	113.930	240.117	206.626	113.556	120.063	120.568	127.545	227.425	126.809	-8191	255	
6577.617	1	1	0	0	0.086178	0.22705	0.12215	0.239	0.05539	0.22932	0.26905	0.20085	0.17001	0.069648	0.21113	0.064353	0.054537	0.13821	0.20767	0.15529	-2.8125	-2.8771	-3.1292	-3.1771	-2.7792	-3.3417	-3.2646	-3.075	-3.4042	-3.025	-3.5021	-3.15	-3.0021	-3.2042	-3.1542	-3.0187	433.105	347.753	295.468	403.079	438.905	201.225	365.567	206.332	248.118	393.338	370.486	377.744	103.859	346.379	352.427	131.548	0.00075989	0.00014848	0.00010437	1179.8	1.8068e-06	5.5224e-06	1254.3	253.11	5.1221e-06	1.3098e-06	311.4	86.705	67.836	19.743	4.0857e-06	27.787	0.00034252	0.00034207	0.00010968	1167.1	3.7349e-06	3.6436e-06	1238.2	251.6	3.6266e-06	3.7906e-06	311.75	86.75	68.118	20.242	4.2932e-06	28.451	444.592	435.468	124.699	106.795	153.243	238.488	106.935	114.181	302.871	219.690	113.646	120.203	120.722	127.582	256.898	126.775	-8191	255	
6577.713	1	1	0	0	0.05447	0.045566	0.058771	0.29346	0.14567	0.30989	0.10021	0.11214	0.069815	0.17663	0.47838	0.05734	0.24693	0.19472	0.12379	0.35369	-2.8771	-2.9167	-3.2188	-3.3167	-3.0458	-3.0563	-3.3208	-2.8854	-3.3042	-2.9375	-3.1188	-3.1854	-2.8833	-3.3271	-3.0917	-3.125	338.281	409.875	116.767	441.092	296.907	367.528	332.470	413.578	435.315	410.200	398.881	152.506	121.997	101.127	386.389	294.808	0.00094347	0.0005323	0.00013248	1183.7	1.1122e-06	5.5041e-06	1251.2	252.55	6.4453e-06	5.0638e-06	309.63	86.478	67.75	19.696	2.2905e-06	27.749	0.00033688	0.00035116	0.00010844	1167.6	3.6858e-06	3.8982e-06	1237.5	251.13	3.5132e-06	3.9439e-06	310.74	86.426	67.959	20.293	4.1348e-06	28.466	433.839	166.515	216.763	107.134	178.268	232.829	106.896	114.335	195.599	207.228	113.715	120.376	120.674	127.612	230.432	126.611	-8191	255	
6577.833	1	1	0	0	0.19485	0.070881	0.18376	0.45295	0.059879	0.088355	0.29115	0.15588	0.25331	0.10677	0.408	0.1312	0.19031	0.13251	0.098211	0.17197	-2.9792	-2.8479	-3.2875	-3.3979	-2.8792	-3.2979	-3.2188	-3.0229	-3.1813	-3.0917	-3.125	-3.2667	-2.8229	-3.1083	-3.0646	-3.025	101.678	279.634	210.374	436.574	99.990	345.279	385.853	391.370	281.446	452.189	421.413	316.907	315.447	375.898	138.270	408.702	0.00093962	0.00075448	1.3146e-05	1179.5	7.9297e-06	1.6594e-06	1250.5	252.35	4.5992e-06	3.5437e-06	311.79	86.284	67.902	19.687	3.4102e-06	27.701	0.0003261	0.0003795	0.00010583	1163.6	3.6199e-06	4.105e-06	1234.5	250.47	3.4834e-06	4.1219e-06	310.37	86.384	68.106	20.322	4.0282e-06	28.389	433.880	183.691	345.043	107.039	265.727	140.462	106.763	114.118	231.036	138.514	113.463	120.289	120.604	127.399	358.115	126.538	-8191	255	
6577.930	1	1	0	0	0.13888	0.15311	0.21906	0.30718	0.22876	0.089319	0.16479	0.16397	0.083054	0.29412	0.015083	0.14034	0.067982	0.15727	0.043889	0.078394	-3.0896	-2.8896	-3.0187	-3.3688	-2.8083	-3.1458	-3.0583	-2.8458	-3.45	-2.8375	-3.2042	-3.1208	-2.9938	-3.3833	-3.1	-2.8854	124.468	153.574	380.066	362.412	338.128	157.815	415.426	368.035	159.486	422.289	140.235	349.753	416.584	175.628	99.760	116.194	0.00086438	0.00062722	0.00014537	1180.9	4.0771e-06	1.8489e-06	1252.5	252.63	9.3915e-06	1.2633e-06	311.12	86.376	67.791	19.736	5.3979e-06	27.619	0.00033342	0.0003839	0.000102	1165.9	3.7015e-06	4.2042e-06	1234.6	250.61	3.6003e-06	4.1521e-06	310.36	86.438	68.047	20.336	3.8457e-06	28.29	434.076	158.468	245.945	106.993	221.537	251.989	107.052	113.992	210.312	250.457	113.882	120.403	120.494	127.615	313.774	126.967	-8191	255	
6578.026	1	1	0	0	0.20496	0.26853	0.16859	0.0067554	0.043797	0.124	0.20911	0.10054	0.035022	0.22688	0.25471	0.13517	0.057325	0.14396	0.19451	0.11944	-2.925	-2.975	-3.0229	-3.3688	-2.9917	-3.2396	-3.0875	-2.8187	-3.3708	-2.8667	-3.1688	-3.3479	-2.7938	-3.1458	-3.1021	-2.9	202.711	235.471	184.682	204.202	193.925	262.859	426.871	305.857	180.789	449.295	445.594	450.014	292.579	349.470	413.695	411.804	0.00096956	6.0511e-05	0.00013329	1180.3	6.6043e-06	2.6983e-06	1253.8	251.15	8.2833e-06	2.9301e-06	309.42	86.201	67.701	19.742	8.2431e-06	27.65	0.00035362	0.00038813	9.9356e-05	1164.4	3.8896e-06	4.1695e-06	1234.3	250.03	3.8963e-06	4.1534e-06	309.97	86.234	68.284	20.32	3.7176e-06	28.328	434.271	232.623	180.734	107.072	200.242	429.541	106.719	114.091	224.125	223.459	113.769	120.217	120.663	127.760	294.221	126.781	-8191	255	
6578.122	1	1	0	0	0.13138	0.034126	0.22665	0.26637	0.14041	0.24136	0.18679	0.31735	0.13214	0.15815	0.14024	0.2638	0.11153	0.081559	0.27188	0.11663	-2.7667	-3.0187	-2.8208	-3.3375	-3.0729	-3.1396	-3.3104	-2.8458	-3.1792	-3.0375	-3.0271	-3.3063	-2.8354	-3.1646	-3.2458	-2.9792	115.515	375.966	343.595	409.729	415.680	205.132	424.588	442.396	390.905	403.822	323.131	379.919	112.510	375.814	96.966	287.183	0.00093756	0.00054669	7.0218e-05	1175	2.4371e-06	3.1571e-06	1247.9	251.84	5.8667e-06	3.3091e-06	311.5	85.912	67.832	19.593	6.1626e-07	27.684	0.00037056	0.00037353	9.7993e-05	1162.8	4.1427e-06	4.0277e-06	1232.5	250.36	4.09e-06	3.9051e-06	310.23	86.156	68.208	20.26	3.6193e-06	28.337	429.461	239.772	200.410	106.907	322.149	315.031	106.830	114.174	221.263	305.957	113.739	120.187	120.821	127.249	237.757	126.637	-8191	255	
6578.218	1	1	0	0	0.3128	0.040394	0.27585	0.33009	0.23771	0.1158	0.34698	0.36666	0.27579	0.099364	0.080819	0.19963	0.11051	0.40263	0.28236	0.094419	-2.7562	-3.1604	-2.7313	-3.3667	-3.0292	-3.0417	-3.4083	-2.9354	-3.3896	-3.3021	-3.0833	-3.4167	-3.2271	-3.1021	-3.2729	-2.9521	288.097	250.021	144.212	436.049	425.596	417.339	375.399	419.724	309.869	251.551	368.694	381.348	164.816	402.426	278.140	153.764	0.0010543	0.00021188	6.2057e-05	1179.3	3.103e-06	4.5666e-06	1245	250.42	6.9681e-06	3.7725e-06	308.56	86.399	67.541	19.761	4.0939e-06	27.439	0.00038119	0.00034682	9.3454e-05	1162.1	4.1191e-06	3.8117e-06	1227.6	249.3	4.067e-06	3.7184e-06	308.38	86.133	67.97	20.18	3.4649e-06	28.282	436.150	334.862	126.790	106.899	206.260	281.586	106.847	114.194	197.399	256.231	113.592	120.509	120.616	127.554	203.891	127.018	-8191	255	
6578.314	1	1	0	0	0.13136	0.11193	0.29216	0.22596	0.17165	0.11131	0.15394	0.1087	0.22736	0.15851	0.10939	0.1748	0.2545	0.16045	0.22278	0.078259	-2.6937	-3.3333	-2.7	-3.5812	-2.8979	-3.1521	-3.3438	-3.1042	-3.2188	-3.1208	-3.1792	-3.1792	-3.2438	-2.8542	-3.4	-3.0542	387.297	161.418	319.318	407.119	356.627	361.844	434.438	391.953	438.453	444.458	332.985	102.491	398.910	382.828	111.108	275.307	0.00079429	0.00014725	0.00010831	1173	3.6653e-06	3.048e-06	1245.5	250.02	5.773e-06	3.3723e-06	309.71	86.082	67	19.655	7.8451e-06	27.57	0.000382	0.00033637	9.0322e-05	1158.3	4.0864e-06	3.7684e-06	1226.2	249.6	4.0856e-06	3.6867e-06	308.72	86.137	67.889	20.176	3.4997e-06	28.372	434.395	338.454	234.156	107.077	238.704	171.411	106.975	114.176	224.216	245.848	113.343	120.458	120.807	127.398	208.858	126.599	-8191	255	
6578.433	1	1	0	0	0.14396	0.079938	0.18377	0.34068	0.13615	0.030199	0.0081858	0.34741	0.24368	0.20369	0.17771	0.12063	0.054725	0.51267	0.28694	0.31278	-2.6396	-3.2667	-2.6729	-3.1792	-3.2687	-2.9479	-3.2875	-3.2125	-3.1604	-3.2896	-2.9292	-3.325	-3.1854	-2.875	-3.1625	-3.0042	317.042	122.590	192.144	354.550	174.898	327.622	450.479	399.398	234.618	236.947	434.558	214.693	256.759	418.068	238.074	104.993	0.00076683	0.00012947	6.013e-05	1176.8	7.3785e-06	3.6809e-06	1246.5	251	2.4524e-06	7.1676e-06	309.21	86.118	67.705	19.788	4.6322e-06	27.62	0.00037695	0.00033683	9.4439e-05	1160.7	4.0605e-06	3.6835e-06	1227.1	250.16	3.9271e-06	3.6801e-06	308.48	86.476	67.909	20.207	3.7026e-06	28.452	431.844	232.073	200.110	106.933	195.411	114.964	106.892	114.091	211.165	323.482	113.774	120.210	120.291	127.530	231.713	126.695	-8191	255	
6578.529	1	1	0	0	0.14049	0.076609	0.067872	0.27658	0.31607	0.27385	0.26418	0.2273	0.24781	0.20371	0.051752	0.29013	0.10678	0.058926	0.0058778	0.27654	-2.6063	-3.1625	-2.9104	-3.4167	-3.1104	-2.9958	-3.3979	-3.1667	-2.9938	-3.4229	-3.0625	-3.3937	-3.4729	-3.1146	-3.2146	-3.1	329.237	417.485	265.509	428.447	317.360	299.588	433.050	431.828	258.777	414.803	232.581	427.814	234.998	248.029	392.686	175.340	0.00077693	0.00047977	0.00024239	1177	5.7578e-06	2.4656e-06	1247.9	251.85	5.1979e-06	4.5337e-06	310.21	85.882	67.247	19.578	6.7233e-06	27.795	0.00036347	0.00033037	9.7689e-05	1162.2	3.9145e-06	3.672e-06	1230.1	250.8	3.9314e-06	3.606e-06	309.22	86.646	67.895	20.13	3.9234e-06	28.458	448.377	166.473	172.342	106.908	245.423	323.652	106.912	114.330	191.551	198.081	113.776	120.270	120.596	127.555	245.513	126.827	-8191	255	
6578.625	1	1	0	0	0.088907	0.1901	0.10774	0.21584	0.12734	0.10382	0.35252	0.10925	0.14825	0.22178	0.27338	0.23156	0.11521	0.088265	0.019616	0.21953	-2.65	-3.3042	-2.9708	-3.1646	-3.2771	-2.8083	-3.4417	-3.1188	-3.0479	-3.2125	-3.0917	-3.1833	-3.2479	-3.0104	-3.3792	-3.1979	350.492	196.026	345.682	376.966	304.001	337.130	404.567	357.596	111.746	210.951	380.187	405.063	430.057	357.894	100.945	101.763	0.0010245	0.00010587	0.00011275	1173.4	6.9363e-06	6.6568e-06	1245.3	250.55	3.7348e-06	2.0823e-06	308.63	86.183	67.911	19.721	7.0309e-06	27.579	0.00036393	0.00032938	0.00010353	1162.3	3.8123e-06	3.7023e-06	1231.2	250.35	3.8534e-06	3.6032e-06	309.56	86.59	68.032	20.17	4.2156e-06	28.331	437.722	370.539	165.621	107.164	222.876	238.076	106.940	114.128	205.646	240.000	113.511	120.346	120.408	127.308	247.072	126.911	-8191	255	
6578.721	1	1	0	0	0.28458	0.17768	0.098459	0.15976	0.058468	0.090636	0.17376	0.15899	0.21086	0.27088	0.20542	0.045345	0.20182	0.029068	0.27562	0.23916	-2.4938	-3.4208	-2.9958	-3.2708	-3.2313	-2.9583	-3.325	-3.2875	-2.8312	-3.2	-2.8333	-3.3146	-3.2021	-2.9667	-3.2167	-3.1729	366.294	169.542	195.854	390.207	238.768	244.541	367.737	408.841	393.044	289.814	118.063	211.613	354.868	428.956	124.742	455.597	0.00087253	0.00074118	0.00016538	1173.7	5.1709e-06	2.096e-06	1248.9	251.09	7.7853e-06	4.3356e-06	309	86.38	67.432	19.541	8.4191e-06	27.404	0.00036123	0.00033208	0.00011038	1161.9	3.7587e-06	3.6963e-06	1232.8	250.29	3.8001e-06	3.6879e-06	310.17	86.63	67.796	20.176	4.3601e-06	28.289	434.247	179.567	230.533	106.907	226.152	211.457	106.819	114.194	267.357	283.932	113.268	120.321	120.807	127.227	201.428	126.721	-8191	255	
#DATA ENDS
